BOXY.EXE: ISS Imagent and Oximeter Data Acquisition Program Version 0.80
Ascii Record File

#ACQ INFORMATION
2  Detector Channels 
16  External MUX Channels 
1  Auxiliary Channels 
5000  Waveform (CCF) Frequency (Hz)
1  Waveforms Skipped 
30  Waveforms Averaged 
1  Cycles Averaged 
16  Acquisitions per Waveform 
10.0806  Updata Rate (Hz) 

#FILE INFORMATION
TRUE -- External MUX Channel results are PARSED.
FALSE -- AC DC and Phase are NOT grouped.
TRUE -- Companion Program Settings File CREATED.
FALSE -- AC data not excluded
FALSE -- DC data not excluded
FALSE -- Phase data not excluded
FALSE -- Auxillary Chn. data not excluded
Tab delimiters

#CALIBRATION STATE
TRUE -- Waveform Calibration Values APPLIED.


#AUX CALIBRATION VALUES
Val Type	aux-1	

Term	1.0000e+00	
Factor	0.0000e+00	


#WF CALIBRATION VALUES
A = Detector Channel
Val Type	A-AC1	A-AC2	A-AC3	A-AC4	A-AC5	A-AC6	A-AC7	A-AC8	A-AC9	A-AC10	A-AC11	A-AC12	A-AC13	A-AC14	A-AC15	A-AC16	A-DC1	A-DC2	A-DC3	A-DC4	A-DC5	A-DC6	A-DC7	A-DC8	A-DC9	A-DC10	A-DC11	A-DC12	A-DC13	A-DC14	A-DC15	A-DC16	A-Ph1	A-Ph2	A-Ph3	A-Ph4	A-Ph5	A-Ph6	A-Ph7	A-Ph8	A-Ph9	A-Ph10	A-Ph11	A-Ph12	A-Ph13	A-Ph14	A-Ph15	A-Ph16	

Term	0.00000e+00	0.00000e+00	0.00000e+00	0.00000e+00	0.00000e+00	0.00000e+00	0.00000e+00	0.00000e+00	0.00000e+00	0.00000e+00	0.00000e+00	0.00000e+00	0.00000e+00	0.00000e+00	0.00000e+00	0.00000e+00	0.00000e+00	0.00000e+00	0.00000e+00	0.00000e+00	0.00000e+00	0.00000e+00	0.00000e+00	0.00000e+00	0.00000e+00	0.00000e+00	0.00000e+00	0.00000e+00	0.00000e+00	0.00000e+00	0.00000e+00	0.00000e+00	0.00000e+00	0.00000e+00	0.00000e+00	0.00000e+00	0.00000e+00	0.00000e+00	0.00000e+00	0.00000e+00	0.00000e+00	0.00000e+00	0.00000e+00	0.00000e+00	0.00000e+00	0.00000e+00	0.00000e+00	0.00000e+00	
Factor	1.00000e+00	1.00000e+00	1.00000e+00	1.00000e+00	1.00000e+00	1.00000e+00	1.00000e+00	1.00000e+00	1.00000e+00	1.00000e+00	1.00000e+00	1.00000e+00	1.00000e+00	1.00000e+00	1.00000e+00	1.00000e+00	1.00000e+00	1.00000e+00	1.00000e+00	1.00000e+00	1.00000e+00	1.00000e+00	1.00000e+00	1.00000e+00	1.00000e+00	1.00000e+00	1.00000e+00	1.00000e+00	1.00000e+00	1.00000e+00	1.00000e+00	1.00000e+00	X	X	X	X	X	X	X	X	X	X	X	X	X	X	X	X	

B = Detector Channel
Val Type	B-AC1	B-AC2	B-AC3	B-AC4	B-AC5	B-AC6	B-AC7	B-AC8	B-AC9	B-AC10	B-AC11	B-AC12	B-AC13	B-AC14	B-AC15	B-AC16	B-DC1	B-DC2	B-DC3	B-DC4	B-DC5	B-DC6	B-DC7	B-DC8	B-DC9	B-DC10	B-DC11	B-DC12	B-DC13	B-DC14	B-DC15	B-DC16	B-Ph1	B-Ph2	B-Ph3	B-Ph4	B-Ph5	B-Ph6	B-Ph7	B-Ph8	B-Ph9	B-Ph10	B-Ph11	B-Ph12	B-Ph13	B-Ph14	B-Ph15	B-Ph16	

Term	0.00000e+00	0.00000e+00	0.00000e+00	0.00000e+00	0.00000e+00	0.00000e+00	0.00000e+00	0.00000e+00	0.00000e+00	0.00000e+00	0.00000e+00	0.00000e+00	0.00000e+00	0.00000e+00	0.00000e+00	0.00000e+00	0.00000e+00	0.00000e+00	0.00000e+00	0.00000e+00	0.00000e+00	0.00000e+00	0.00000e+00	0.00000e+00	0.00000e+00	0.00000e+00	0.00000e+00	0.00000e+00	0.00000e+00	0.00000e+00	0.00000e+00	0.00000e+00	-7.43740e+01	-1.28316e+02	-1.28292e+02	-1.84666e+02	-6.09405e+01	-9.26518e+01	-1.57220e+02	-1.62015e+02	-6.83234e+01	-6.49300e+01	-1.71356e+02	-1.71554e+02	-1.80605e+02	-1.78112e+02	-5.87324e+01	-1.50478e+02	
Factor	1.69462e-05	1.09168e-04	3.22790e-05	1.81303e-01	1.25172e-06	1.14954e-06	1.71467e-01	5.38756e-02	1.13096e-06	1.21214e-06	1.27027e-01	2.77678e-02	2.53669e-02	8.93279e-03	9.87240e-07	1.27691e-02	1.16641e-06	1.21360e-06	3.37925e-07	9.36980e-02	1.32701e-08	1.33200e-08	8.34584e-02	2.80064e-02	1.32587e-08	1.33078e-08	6.16425e-02	1.38762e-02	1.31430e-02	4.61932e-03	1.32892e-08	6.33447e-03	X	X	X	X	X	X	X	X	X	X	X	X	X	X	X	X	



#DISTANCE SETTINGS
A = Detector Channel
A-1	A-2	A-3	A-4	A-5	A-6	A-7	A-8	A-9	A-10	A-11	A-12	A-13	A-14	A-15	A-16	

2.5000e+00	3.0000e+00	2.5000e+00	3.0000e+00	2.0000e+00	3.0000e+00	1.5000e+00	3.0000e+00	3.0000e+00	3.0000e+00	3.0000e+00	3.0000e+00	3.0000e+00	3.0000e+00	1.5000e+00	3.0000e+00	

B = Detector Channel
B-1	B-2	B-3	B-4	B-5	B-6	B-7	B-8	B-9	B-10	B-11	B-12	B-13	B-14	B-15	B-16	

1.0000e+01	1.0000e+01	1.0000e+01	1.4400e+00	1.0000e+01	1.0000e+01	1.5100e+00	1.9400e+00	1.0000e+01	1.0000e+01	1.9900e+00	2.4900e+00	2.4100e+00	2.9000e+00	1.0000e+01	2.9800e+00	




#DATA BEGINS
time	group	step	mark	flag	A-AC1	A-AC2	A-AC3	A-AC4	A-AC5	A-AC6	A-AC7	A-AC8	A-AC9	A-AC10	A-AC11	A-AC12	A-AC13	A-AC14	A-AC15	A-AC16	A-DC1	A-DC2	A-DC3	A-DC4	A-DC5	A-DC6	A-DC7	A-DC8	A-DC9	A-DC10	A-DC11	A-DC12	A-DC13	A-DC14	A-DC15	A-DC16	A-Ph1	A-Ph2	A-Ph3	A-Ph4	A-Ph5	A-Ph6	A-Ph7	A-Ph8	A-Ph9	A-Ph10	A-Ph11	A-Ph12	A-Ph13	A-Ph14	A-Ph15	A-Ph16	B-AC1	B-AC2	B-AC3	B-AC4	B-AC5	B-AC6	B-AC7	B-AC8	B-AC9	B-AC10	B-AC11	B-AC12	B-AC13	B-AC14	B-AC15	B-AC16	B-DC1	B-DC2	B-DC3	B-DC4	B-DC5	B-DC6	B-DC7	B-DC8	B-DC9	B-DC10	B-DC11	B-DC12	B-DC13	B-DC14	B-DC15	B-DC16	B-Ph1	B-Ph2	B-Ph3	B-Ph4	B-Ph5	B-Ph6	B-Ph7	B-Ph8	B-Ph9	B-Ph10	B-Ph11	B-Ph12	B-Ph13	B-Ph14	B-Ph15	B-Ph16	aux-1	digaux	

2880.184	1	1	0	256	0.1638	0.26487	0.089919	0.063067	0.18197	0.16179	0.38537	0.26586	0.12306	0.097131	0.23431	0.080724	0.18555	0.061779	0.06656	0.065074	-2.3979	-3.5458	-2.7042	-3.1937	-3.2771	-2.6437	-3.4521	-3.25	-2.6813	-3.6146	-2.8667	-3.1292	-3.4979	-2.7375	-3.2313	-3.1458	382.270	439.722	512.471	271.067	345.079	254.077	491.829	514.156	416.781	459.921	459.794	178.217	174.292	169.955	211.465	386.125	0.0002406	0.00043832	0.00014682	1150.8	1.3752e-06	1.8759e-06	1232.8	237.19	2.7907e-06	2.1042e-06	295.21	83.126	66.3	19.065	2.1645e-06	25.914	0.00014669	0.00013787	3.9363e-05	1114.6	1.5086e-06	1.4914e-06	1199.9	231.78	1.5474e-06	1.5357e-06	282.81	81.259	64.822	18.996	1.6342e-06	25.876	242.483	249.320	224.767	166.795	252.987	286.103	166.795	174.142	210.930	290.686	173.831	180.579	180.900	188.091	315.768	187.777	-8191	255	
2880.282	1	1	0	0	0.16668	0.06442	0.074751	0.2349	0.1791	0.14033	0.051434	0.15833	0.16318	0.13699	0.1694	0.03657	0.29527	0.15467	0.1678	0.12071	-2.3479	-3.4896	-2.7417	-3.0542	-3.3063	-2.7687	-3.5354	-3.0208	-2.5729	-3.5563	-2.8167	-3.0021	-3.4292	-2.7979	-3.4188	-3.1521	473.495	438.515	337.595	168.380	260.297	409.361	391.219	172.803	505.902	512.136	193.084	222.774	192.704	408.256	473.665	464.016	0.00027151	0.00025263	0.000109	1155.9	2.3042e-06	6.3191e-07	1234.7	237.34	1.9186e-06	2.4439e-06	295.53	83.604	65.825	19.131	1.7464e-06	26.471	0.0001596	0.00015101	4.4066e-05	1118.6	1.7849e-06	1.7988e-06	1202.6	232.2	1.8251e-06	1.8154e-06	284.76	82.086	65.116	19.024	1.8627e-06	26.214	253.892	269.836	234.241	166.849	381.223	329.567	167.001	174.172	364.058	307.527	173.509	180.331	181.328	187.881	322.077	187.266	-8191	255	
2880.401	1	1	0	0	0.10775	0.10826	0.12214	0.18336	0.11231	0.16323	0.12802	0.28653	0.2384	0.096449	0.06691	0.17787	0.25496	0.15962	0.13313	0.09463	-2.1417	-3.4104	-2.9375	-3.0417	-3.4417	-2.8042	-3.3833	-3.4021	-2.7104	-3.3271	-2.9167	-2.8167	-3.6458	-2.5542	-3.2667	-3.2104	181.328	357.547	365.098	503.807	279.269	240.538	511.252	481.253	289.361	447.901	484.577	429.505	294.083	199.123	348.357	420.603	0.0002731	0.00026945	0.00010035	1164.3	3.8503e-06	2.0555e-06	1238.9	236.93	2.3332e-06	8.5657e-07	295.53	82.503	66.719	18.89	1.7148e-06	26.202	0.00017346	0.00016479	4.6614e-05	1125.7	1.8682e-06	1.8279e-06	1204.4	232.71	1.8951e-06	1.8668e-06	284.92	81.612	65.274	19.026	1.9282e-06	26.109	256.973	292.400	229.629	166.709	336.790	294.247	166.977	174.102	203.545	366.474	174.104	180.584	181.149	187.994	386.943	187.527	-8191	255	
2880.497	1	1	0	0	0.017626	0.13558	0.12848	0.27693	0.31116	0.098236	0.069427	0.25855	0.10314	0.18254	0.10607	0.11381	0.132	0.22396	0.14852	0.22438	-2.1958	-3.2917	-2.9583	-2.9292	-3.4854	-2.7396	-3.2229	-3.4917	-2.5812	-3.35	-3.0646	-2.6875	-3.5333	-2.6188	-3.0208	-3.3917	222.462	509.854	254.278	405.133	169.704	225.231	461.744	163.032	431.533	264.408	398.006	509.787	364.424	411.690	175.024	471.640	0.00025747	0.00035843	0.00012443	1160.8	7.452e-07	2.2359e-06	1244.7	239.26	2.6292e-06	3.6842e-06	293.97	83.263	66.262	19.123	4.7868e-06	26.232	0.00018755	0.00017848	4.9434e-05	1127.1	2e-06	1.9675e-06	1209.6	233.87	2.0312e-06	1.9596e-06	285.8	82.086	65.33	19.122	1.9644e-06	26.19	256.451	301.673	303.198	166.922	323.526	238.806	166.984	174.280	299.550	359.470	173.901	180.332	181.060	187.705	264.714	187.482	-8191	255	
2880.593	1	1	0	0	0.2662	0.13749	0.15062	0.20114	0.10605	0.18141	0.092898	0.14315	0.36065	0.25376	0.15455	0.26863	0.082296	0.20395	0.084391	0.16823	-2.2667	-3.2562	-3.025	-2.9375	-3.4542	-2.7542	-3.0812	-3.3937	-2.5187	-3.2479	-3.0875	-2.8187	-3.5167	-2.8375	-2.7583	-3.3396	468.885	502.434	478.652	493.698	257.292	255.168	420.622	417.414	481.710	203.682	462.315	340.470	458.391	434.143	251.082	376.240	0.00024462	0.00032125	0.00014389	1166.4	5.8073e-06	2.93e-06	1245	239	6.6539e-07	2.5458e-06	296.68	82.929	66.661	19.103	1.4057e-06	26.084	0.0001862	0.0001764	5.0285e-05	1131.3	2.0201e-06	1.9817e-06	1213.1	234.46	2.0194e-06	1.9849e-06	286.88	82.049	65.49	19.068	2.0088e-06	26.189	248.855	278.214	210.691	166.800	236.307	398.851	166.864	174.242	178.217	323.698	174.110	180.321	181.338	187.830	200.863	187.589	-8191	255	
2880.689	1	1	0	0	0.1526	0.060261	0.34716	0.2749	0.15831	0.26623	0.20249	0.20598	0.080707	0.10124	0.1352	0.19442	0.1665	0.1461	0.24223	0.063602	-2.375	-3.2583	-3.2458	-2.8354	-3.3292	-3.0979	-2.9042	-3.3208	-2.6458	-3.3667	-3.3521	-2.7208	-3.3667	-2.9167	-2.6896	-3.5396	211.725	331.314	381.091	420.002	269.385	433.091	401.116	451.820	320.262	283.765	335.166	209.617	471.170	313.878	472.522	174.297	0.00022984	0.00016207	0.00012141	1163.4	2.3088e-06	3.5916e-06	1243.1	239.75	4.1202e-06	2.8868e-06	299.21	83.458	66.019	18.984	1.2429e-06	26.322	0.0001875	0.00018482	5.0032e-05	1127.7	2.0068e-06	2.0099e-06	1212.5	234.69	2.0035e-06	1.948e-06	286.9	82.253	65.543	19.032	1.9679e-06	26.238	256.376	241.568	199.545	166.767	303.383	308.409	166.821	173.767	347.163	377.039	173.826	180.648	181.099	187.701	343.040	187.139	-8191	255	
2880.785	1	1	0	0	0.12853	0.064048	0.13072	0.38822	0.24686	0.1819	0.084433	0.21635	0.10556	0.12028	0.088727	0.25709	0.29219	0.28556	0.049848	0.079161	-2.3688	-2.9583	-3.2833	-2.8542	-3.2687	-3.175	-2.8063	-3.5542	-2.8667	-2.9875	-3.5062	-2.6896	-3.3646	-3.1646	-2.7083	-3.5438	275.966	184.218	376.643	489.456	477.581	382.130	443.715	435.399	482.547	302.714	432.426	485.624	502.505	357.868	416.923	487.778	0.00028265	0.00029659	0.00015139	1166.3	5.6085e-06	1.1231e-06	1244.1	239.79	5.0199e-06	3.6553e-06	297.87	82.81	66.332	18.96	3.8635e-06	26.043	0.00018644	0.00018178	5.0994e-05	1129.8	2.02e-06	1.9542e-06	1210.2	233.95	1.9757e-06	1.9322e-06	286.39	81.835	65.309	18.957	1.8944e-06	26.076	248.797	257.839	203.899	166.846	322.616	305.004	166.702	174.348	264.642	292.690	173.930	180.495	181.236	187.908	355.844	187.561	-8191	255	
2880.881	1	1	0	0	0.26921	0.10952	0.088844	0.36315	0.095572	0.084917	0.20134	0.065469	0.1439	0.11467	0.23081	0.075442	0.018635	0.10761	0.14823	0.17671	-2.3021	-2.9813	-3.2104	-2.7604	-3.3354	-3.1479	-2.8667	-3.4437	-3.0479	-2.7646	-3.5729	-2.7292	-3.325	-3.2896	-2.5354	-3.4729	390.442	193.172	316.044	393.852	283.503	346.209	496.659	453.547	435.135	315.304	248.918	279.743	262.799	515.152	313.229	451.517	0.00029345	0.0003825	5.9945e-05	1159.8	2.5999e-06	3.0068e-06	1238.9	237.66	4.1701e-06	1.3054e-06	295.29	83.303	66.064	18.732	2.6718e-06	26.07	0.00017398	0.00016788	4.7047e-05	1125.8	1.8598e-06	1.8635e-06	1207.4	233.04	1.8275e-06	1.7852e-06	285.43	81.626	64.878	18.855	1.8073e-06	25.944	250.925	258.912	508.997	166.732	272.954	325.889	166.610	174.011	352.080	399.802	173.944	180.900	181.114	188.354	239.035	187.887	-8191	255	
2881.002	1	1	0	0	0.014718	0.18731	0.16651	0.32297	0.16087	0.14051	0.23955	0.11789	0.30399	0.046341	0.33797	0.18847	0.22875	0.12695	0.15428	0.037138	-2.4021	-2.8167	-3.5458	-2.9729	-3.2271	-3.5292	-2.6875	-3.5354	-3.0271	-2.7771	-3.3896	-2.7687	-3.0187	-3.4062	-2.5125	-3.4708	169.071	448.053	330.666	428.235	351.208	438.544	427.692	358.795	421.485	357.636	469.825	246.484	513.324	440.750	440.027	183.867	0.00030236	0.00014226	0.00012562	1160.8	4.943e-06	9.2749e-07	1244.3	236.86	4.4605e-06	9.8815e-07	294.96	83.311	66.713	18.9	2.859e-06	25.979	0.00017363	0.00016832	4.6714e-05	1122.9	1.8718e-06	1.9045e-06	1207.3	232.87	1.9568e-06	1.9637e-06	285.96	81.922	65.399	18.983	2.0447e-06	26.119	254.639	164.344	225.249	166.831	263.789	326.869	166.766	174.004	294.948	359.512	173.725	180.645	180.945	188.149	319.540	188.128	-8191	255	
2881.098	1	1	0	0	0.11855	0.20981	0.27588	0.24947	0.26358	0.17994	0.21565	0.15946	0.18769	0.087623	0.24986	0.27274	0.17742	0.10694	0.039531	0.25123	-2.6229	-2.5833	-3.55	-2.9375	-2.9271	-3.3	-2.8479	-3.3396	-3.1937	-2.6271	-3.5417	-3.0396	-2.8812	-3.5292	-2.5896	-3.4188	186.803	466.742	466.050	473.925	306.440	384.017	435.516	468.177	404.379	381.733	406.506	465.993	440.549	315.045	322.373	169.222	0.00028951	0.00041029	6.8484e-05	1162.3	3.2535e-06	3.6183e-06	1246.2	237.85	4.3241e-06	5.2384e-06	296.76	82.602	66.252	18.944	2.2502e-06	26.2	0.00019391	0.00018681	5.2179e-05	1126.3	2.0818e-06	2.0392e-06	1210	233.48	2.021e-06	2.0164e-06	286.34	81.639	65.118	18.973	1.9563e-06	26.16	251.760	511.964	252.752	166.705	319.392	246.486	166.698	174.150	273.607	289.724	174.505	180.447	180.771	187.892	275.060	187.482	-8191	255	
2881.192	1	1	0	0	0.040894	0.1809	0.20336	0.073067	0.10222	0.13299	0.23871	0.17526	0.23241	0.18694	0.1069	0.26149	0.36031	0.28361	0.098753	0.19796	-2.85	-2.5333	-3.4583	-2.8812	-2.7875	-3.2458	-2.5625	-3.2062	-3.2021	-2.725	-3.2729	-3.0333	-2.7354	-3.5167	-2.6083	-3.1063	272.043	204.371	342.480	475.280	349.453	493.778	398.324	475.353	449.019	297.894	450.653	515.888	367.574	316.857	500.882	374.309	0.00023305	0.00046943	9.6341e-05	1161.1	2.4171e-06	7.9859e-07	1242	237.18	5.0172e-06	5.1252e-07	298.45	82.461	66.148	18.898	1.9334e-06	26.147	0.00018448	0.00017881	4.9701e-05	1127.8	1.9832e-06	1.9683e-06	1207.8	232.72	1.9805e-06	1.9569e-06	285.69	81.588	65.09	18.927	1.9182e-06	26.072	252.126	216.490	256.327	166.562	292.205	385.434	166.789	174.393	271.966	383.129	173.734	180.167	181.104	188.325	319.416	187.213	-8191	255	
2881.289	1	1	0	0	0.24477	0.084435	0.237	0.24332	0.19676	0.12268	0.18148	0.25785	0.20858	0.087546	0.077311	0.21456	0.13797	0.13632	0.21937	0.11408	-2.8917	-2.4229	-3.3021	-3.1229	-2.8208	-3.3875	-2.7771	-3.0896	-3.3375	-2.7792	-3.5542	-3.4062	-2.8229	-3.6333	-2.5604	-2.9917	268.301	326.547	282.500	472.703	327.133	376.553	475.265	365.721	368.844	206.510	233.906	229.153	497.659	172.833	461.028	201.801	0.0002266	0.00037613	0.00011479	1154.1	5.1023e-06	4.3584e-06	1238.7	237.85	2.6248e-06	2.3932e-06	298.17	82.694	66.06	18.857	2.1246e-06	25.998	0.0001827	0.00018066	5.0585e-05	1123.1	2.0333e-06	2.0222e-06	1205.2	233.23	2.0635e-06	2.0549e-06	286.55	81.785	65.11	18.923	2.0048e-06	26.022	244.356	318.641	243.122	166.738	315.483	275.219	166.669	174.125	226.632	413.635	173.804	180.528	180.836	187.962	249.969	187.835	-8191	255	
2881.409	1	1	0	0	0.12566	0.17193	0.21261	0.3095	0.15359	0.14956	0.28081	0.12527	0.20483	0.12634	0.11893	0.078036	0.094034	0.20159	0.25373	0.41621	-3.0542	-2.5187	-3.2708	-3.2125	-2.65	-3.4313	-2.7687	-2.9417	-3.4667	-2.5563	-3.2938	-3.1312	-2.5563	-3.4375	-2.7896	-2.8458	232.079	266.851	316.468	419.627	345.139	224.256	497.247	460.555	289.247	388.710	346.704	382.413	442.966	207.080	499.296	183.756	0.00029065	0.00013336	7.6524e-05	1159.9	5.8084e-06	3.1137e-06	1241.7	238.2	5.8109e-06	4.0181e-06	296.99	82.479	66.25	18.785	3.9559e-06	26.183	0.00018304	0.00018007	4.949e-05	1123	1.9513e-06	1.9569e-06	1208.1	232.98	1.9536e-06	1.9571e-06	286.38	81.723	65.266	18.946	1.9538e-06	26.055	251.048	276.483	311.134	166.813	333.474	263.241	166.734	174.264	318.076	332.824	173.634	180.330	181.185	187.980	306.605	187.934	-8191	255	
2881.481	1	1	0	0	0.15209	0.29181	0.21592	0.17913	0.065937	0.10328	0.27752	0.15648	0.22863	0.025584	0.16801	0.34054	0.10051	0.25192	0.061444	0.11651	-3.075	-2.6562	-3.1375	-3.3812	-2.6875	-3.3542	-3.2583	-2.7125	-3.3979	-2.725	-3.1396	-3.1708	-2.4229	-3.3583	-2.8708	-2.9375	419.695	176.135	408.901	361.543	350.650	480.664	450.765	158.205	395.649	167.653	164.004	408.500	216.839	242.934	420.349	335.234	0.00026731	0.00044923	7.214e-05	1157.4	6.3678e-06	2.7146e-06	1238.5	238.34	2.6862e-06	4.1394e-06	296.45	82.99	66.544	18.973	3.8553e-06	25.97	0.00018333	0.00017936	5.0198e-05	1125.1	1.9985e-06	1.95e-06	1207.2	233.64	2.0075e-06	2.0178e-06	286.63	81.869	65.229	18.964	2.0384e-06	26.079	251.080	258.033	182.864	166.551	303.564	176.668	166.487	174.310	361.328	256.965	173.900	180.332	181.223	188.137	378.315	187.436	-8191	255	
2881.577	1	1	0	0	0.14308	0.17895	0.14033	0.21432	0.15545	0.16071	0.080031	0.28467	0.31797	0.184	0.18061	0.029892	0.21799	0.2502	0.29771	0.12398	-3.0729	-2.5646	-2.975	-3.6167	-2.6312	-3.3479	-3.0604	-2.8771	-3.5417	-2.7667	-2.9646	-3.5812	-2.5938	-3.2167	-3.0604	-2.7667	301.376	449.385	319.801	466.881	223.140	276.513	344.717	474.560	396.310	173.877	201.939	493.738	298.868	250.344	249.071	255.832	0.00031188	0.00043972	9.6016e-05	1161.1	8.1014e-06	3.409e-06	1243.9	238.08	1.4198e-06	2.1674e-06	300.5	82.376	66.005	18.956	3.2039e-06	26.309	0.00019172	0.00018583	5.1632e-05	1128	2.0907e-06	2.0687e-06	1210.3	233.76	2.0567e-06	2.0187e-06	287.71	81.784	65.366	18.984	2.0039e-06	26.112	260.195	191.821	207.575	166.517	287.687	309.023	166.789	174.437	345.332	333.897	174.024	180.382	180.960	188.326	229.591	187.635	-8191	255	
2881.673	1	1	0	0	0.1099	0.11796	0.25262	0.15365	0.11807	0.18111	0.13826	0.14628	0.10255	0.11424	0.08672	0.17051	0.25398	0.13151	0.1821	0.10411	-2.8229	-2.7667	-2.9396	-3.4375	-2.6458	-3.3729	-3.4583	-2.6542	-3.3583	-2.8083	-2.9167	-3.4521	-2.6771	-3.2417	-3.1312	-2.6833	197.453	410.297	348.402	328.119	411.779	377.454	175.229	456.238	292.475	165.583	403.794	190.248	160.971	504.891	316.539	434.248	0.00020282	0.00025745	9.0045e-05	1155.5	1.4985e-07	1.3716e-06	1245.3	237.76	3.1939e-06	2.0868e-06	298.49	82.066	66.038	18.782	2.4153e-06	26.207	0.00018344	0.00018001	4.9682e-05	1125.3	1.9891e-06	1.9626e-06	1211	233.28	1.9995e-06	1.9798e-06	286.99	81.611	65.225	18.934	2.0201e-06	26.061	256.209	211.028	349.671	166.745	332.727	500.855	166.548	174.241	296.647	276.059	174.306	180.964	181.050	188.370	291.717	187.468	-8191	255	
2881.769	1	1	0	0	0.085543	0.19782	0.074229	0.019083	0.15231	0.14016	0.33882	0.20846	0.14241	0.17906	0.10784	0.29948	0.017475	0.12891	0.22268	0.16998	-2.8937	-2.9708	-2.7062	-3.4625	-2.6792	-3.2542	-3.5604	-2.5187	-3.3479	-2.95	-2.8688	-3.4688	-2.75	-2.9188	-3.3146	-2.6146	231.078	222.125	159.772	404.876	244.916	178.573	485.962	506.608	371.081	231.566	375.949	505.614	222.271	388.655	165.027	417.923	0.00029635	0.00048883	1.3452e-05	1160.3	5.596e-06	3.9857e-06	1241.5	238.14	5.5826e-07	3.8356e-06	297.08	83.166	66.08	18.834	2.3335e-06	26.239	0.00018884	0.00018689	5.1776e-05	1127.5	2.1201e-06	2.0764e-06	1210.7	233.01	2.073e-06	2.1089e-06	287.41	81.959	65.252	18.938	2.0154e-06	26.091	253.442	235.124	228.281	166.705	308.665	272.209	166.719	174.345	187.790	316.847	174.362	180.262	181.192	188.530	313.517	187.292	-8191	255	
2881.890	1	1	0	0	0.078395	0.21507	0.30425	0.29324	0.22766	0.22787	0.22043	0.12268	0.074762	0.0064664	0.18627	0.13657	0.21679	0.14168	0.11275	0.1669	-2.9437	-3.1646	-2.5438	-3.6333	-2.9125	-2.9	-3.4625	-2.7	-3.3146	-3.1188	-2.9354	-3.5667	-2.8771	-2.8521	-3.4354	-2.6688	170.667	437.676	344.866	158.771	218.283	388.102	383.460	190.679	370.121	230.566	474.941	380.865	477.516	210.795	170.330	215.203	0.00026661	0.00013281	0.00011809	1160.7	4.5613e-07	2.1654e-06	1237.2	238.16	7.6161e-06	3.3712e-06	298.32	82.878	66.455	18.902	2.4925e-06	26.08	0.00018604	0.00017919	5.0015e-05	1126.1	2.0046e-06	1.9868e-06	1209.6	233.52	2.0405e-06	2.0184e-06	287.06	81.984	65.291	18.949	2.0051e-06	26.043	248.227	256.637	239.686	166.676	259.712	292.334	166.807	174.048	293.909	273.273	174.158	180.795	181.579	188.423	324.307	187.848	-8191	255	
2881.986	1	1	0	0	0.06023	0.087791	0.14299	0.14992	0.14223	0.023565	0.16646	0.096187	0.16737	0.11016	0.23275	0.2153	0.21736	0.025883	0.20425	0.30393	-2.8812	-3.2292	-2.8083	-3.6229	-2.9146	-2.9542	-3.6229	-2.6729	-3.2292	-3.1771	-2.5667	-3.4188	-3.075	-2.8229	-3.475	-2.8583	208.262	453.055	457.505	508.553	287.021	304.817	478.773	337.175	246.408	295.315	496.130	177.619	181.376	300.130	279.388	406.690	0.00023956	0.00055093	0.00011846	1163.8	4.5603e-06	3.1702e-06	1242.3	238.16	2.3597e-06	2.8794e-06	295.72	83.362	66.082	18.864	2.5111e-06	26.265	0.00018605	0.00018259	5.0445e-05	1126.4	2.0144e-06	2.021e-06	1210.3	233.28	2.0061e-06	2.0005e-06	286.09	81.945	65.347	18.992	2.0496e-06	26.108	257.584	224.387	218.919	166.853	281.829	186.488	166.926	174.237	286.939	263.888	173.676	180.494	180.850	188.187	370.025	187.539	-8191	255	
2882.082	1	1	0	0	0.090661	0.083429	0.19474	0.2305	0.030435	0.069304	0.2279	0.1533	0.12657	0.1016	0.059638	0.33099	0.24078	0.20865	0.061562	0.34278	-2.75	-3.4062	-2.5146	-3.375	-3.0875	-2.6708	-3.6188	-2.8604	-3.0583	-3.4771	-2.7896	-3.2896	-3.0354	-2.6333	-3.4604	-2.8208	294.137	293.702	284.813	515.984	251.625	336.284	434.879	474.014	183.489	428.616	158.153	448.737	333.706	332.887	407.268	495.689	0.00024616	0.0003952	2.808e-05	1163	2.5249e-06	1.7203e-06	1241.5	237.8	3.9202e-06	2.011e-06	300.79	83.058	66.139	18.922	2.9056e-06	26.226	0.00019092	0.00018712	5.1937e-05	1129.2	2.0455e-06	2.026e-06	1210.5	233.43	2.1282e-06	2.1195e-06	288.46	82.235	65.515	19.051	2.1968e-06	26.209	247.805	301.030	330.112	166.771	193.815	503.669	166.872	174.441	256.817	183.088	173.747	180.786	181.114	187.978	329.426	187.526	-8191	255	
2882.178	1	1	0	0	0.11201	0.093906	0.040903	0.092028	0.083549	0.13552	0.1612	0.22256	0.089696	0.18602	0.23306	0.22264	0.21358	0.036807	0.048192	0.239	-2.6958	-3.3104	-2.7104	-3.425	-3.0917	-2.8458	-3.7542	-2.8563	-2.7812	-3.4167	-2.7438	-3.3479	-3.1792	-2.6729	-3.525	-2.9583	227.850	317.736	283.886	482.372	235.163	214.159	174.573	171.522	169.802	373.684	221.240	463.311	190.226	258.696	454.305	336.771	0.00022651	5.4231e-05	0.0001342	1162.7	4.2763e-06	5.1271e-06	1249.5	239.53	4.0336e-06	3.3966e-06	299.56	83.516	66.394	19.027	4.1708e-06	26.266	0.00020317	0.00019913	5.717e-05	1132.4	2.2483e-06	2.2244e-06	1218.2	234.31	2.2237e-06	2.2351e-06	289.55	82.457	65.587	19.128	2.2376e-06	26.278	248.837	269.736	247.954	166.659	317.708	250.207	166.729	174.025	313.240	344.286	173.771	180.175	181.220	188.162	263.959	187.664	-8191	255	
2882.273	1	1	0	0	0.14218	0.12301	0.15702	0.10564	0.069816	0.094618	0.12224	0.27525	0.069349	0.026147	0.076705	0.16358	0.070962	0.24311	0.089912	0.2895	-2.4188	-3.4021	-2.7812	-3.3021	-3.2062	-2.5792	-3.6917	-2.9708	-2.6813	-3.4125	-2.7562	-3.1021	-3.3	-2.6437	-3.3542	-3.0667	246.269	235.222	457.560	451.034	368.756	515.121	403.143	428.011	332.743	361.196	373.404	509.224	245.608	434.477	321.777	478.609	0.00024939	0.0002787	0.0001204	1168	1.9476e-06	1.5947e-06	1248.4	238.94	2.9137e-06	3.5385e-06	297.66	82.772	65.64	19.023	5.932e-06	25.938	0.00020981	0.00020235	5.7481e-05	1136.6	2.1931e-06	2.2194e-06	1215.4	234.26	2.1779e-06	2.1723e-06	288.25	82.088	65.438	19.132	2.1811e-06	26.135	230.989	193.797	241.455	166.795	264.093	356.028	166.702	174.323	264.824	214.215	173.804	180.747	181.044	188.417	318.058	187.322	-8191	255	
2882.369	1	1	0	0	0.16172	0.18662	0.14801	0.18043	0.16904	0.12305	0.24243	0.19837	0.12762	0.1616	0.12887	0.3567	0.22917	0.18428	0.15504	0.1125	-2.2729	-3.4375	-2.7958	-3.1833	-3.2	-2.6875	-3.2896	-3.0667	-2.8375	-3.3458	-3.0312	-2.9146	-3.3333	-2.6854	-3.3958	-3.2667	215.632	469.543	294.453	436.478	412.486	233.072	396.853	442.704	318.184	319.709	158.844	491.144	411.669	349.714	326.810	473.979	0.0002573	0.00056919	8.9091e-05	1165.3	1.7386e-06	3.3407e-06	1247.5	238.12	4.8472e-06	3.8488e-06	297.21	82.552	66.365	18.899	4.3928e-06	26.154	0.00020687	0.00020175	5.5203e-05	1135.1	2.2036e-06	2.1767e-06	1215.5	234.23	2.2482e-06	2.1757e-06	288.24	82.093	65.525	19.045	2.1692e-06	26.285	250.472	241.168	181.354	166.746	323.198	259.380	166.720	173.892	301.270	321.241	173.898	180.622	180.967	188.033	277.184	187.361	-8191	255	
2882.490	1	1	0	0	0.075224	0.1492	0.30462	0.20304	0.10365	0.14012	0.14762	0.17575	0.24696	0.17031	0.058056	0.098137	0.056739	0.073811	0.1611	0.065282	-2.0896	-3.5125	-2.8688	-2.8312	-3.2833	-2.6896	-3.2917	-3.3208	-2.4979	-3.5146	-3.0187	-2.8521	-3.5729	-2.7229	-3.0146	-3.3042	499.028	217.494	289.490	285.786	405.351	356.811	405.704	186.003	329.038	438.230	384.336	203.123	231.413	337.237	353.302	268.818	0.00030294	0.00031662	4.6715e-05	1172.4	1.8048e-06	2.2803e-06	1250.5	237.83	5.927e-06	3.9127e-07	296.63	82.569	66.242	18.801	3.4964e-06	26.144	0.00020455	0.00019763	5.4781e-05	1136.4	2.1928e-06	2.1859e-06	1217.7	234.52	2.2194e-06	2.1757e-06	288.16	82.081	65.518	18.991	2.1354e-06	26.13	246.840	306.895	509.321	166.758	408.493	471.946	166.748	174.311	338.721	438.969	173.507	180.690	181.151	187.873	312.756	187.845	-8191	255	
2882.586	1	1	0	0	0.25458	0.27759	0.22825	0.11118	0.076967	0.067935	0.31871	0.066314	0.14667	0.17016	0.37604	0.17092	0.092295	0.080996	0.15377	0.22704	-2.0625	-3.3729	-2.9458	-2.8396	-3.5646	-2.4667	-3.0625	-3.3792	-2.7812	-3.3042	-3.1479	-2.8896	-3.5083	-2.8146	-3.0729	-3.35	270.788	239.908	212.469	252.684	286.614	212.690	417.069	368.817	430.551	442.449	474.295	452.256	494.676	412.113	225.145	278.288	0.00028779	0.00023067	6.0182e-05	1162.3	1.94e-06	1.6264e-06	1241	238.09	2.2151e-06	2.1754e-06	298.11	82.372	65.733	18.933	5.1277e-06	26.273	0.00019756	0.00019273	5.3951e-05	1128.4	2.1066e-06	2.1007e-06	1210.8	233.61	2.1258e-06	2.0621e-06	287.81	81.698	65.207	18.959	2.074e-06	26.062	259.272	238.742	250.295	166.923	507.623	202.252	166.907	174.290	250.303	414.502	173.749	180.346	181.032	188.057	269.142	187.764	-8191	255	
2882.682	1	1	0	0	0.28599	0.083108	0.42411	0.1769	0.047402	0.18672	0.2051	0.16502	0.27422	0.18031	0.20133	0.16951	0.15804	0.099293	0.069989	0.078793	-2.2667	-3.1562	-3.1646	-2.5208	-3.5625	-2.6979	-2.9708	-3.4146	-2.7062	-3.35	-3.2354	-2.7646	-3.5438	-2.8625	-2.7938	-3.5854	295.959	372.506	383.445	182.617	310.883	180.524	428.636	436.574	325.016	254.004	326.448	484.525	362.903	364.794	298.465	457.431	0.00028405	0.00065595	0.0001523	1163.4	4.4928e-06	3.7862e-06	1238.6	237.03	3.111e-06	2.4947e-06	298.37	82.595	66.104	18.808	1.2094e-06	26.038	0.00019478	0.00018566	5.1127e-05	1127.3	2.0385e-06	2.0113e-06	1208.1	232.6	2.0114e-06	2.0143e-06	287.24	81.785	65.236	18.891	2.0059e-06	26	259.369	216.137	312.760	166.892	347.550	293.187	166.663	173.863	243.517	299.730	174.025	180.603	181.259	188.282	324.045	187.673	-8191	255	
2882.778	1	1	0	0	0.17323	0.11243	0.016331	0.078219	0.13428	0.28083	0.051494	0.22924	0.10874	0.17205	0.070313	0.16772	0.16084	0.16107	0.126	0.13635	-2.1771	-3.1646	-3.3187	-2.8229	-3.275	-2.9646	-2.8688	-3.4521	-2.7604	-3.1917	-3.275	-2.6083	-3.4854	-2.9646	-2.4688	-3.5042	168.827	225.099	277.248	481.666	222.975	201.502	377.286	477.438	482.764	382.522	302.637	499.624	344.939	266.888	268.144	260.104	0.00026101	0.00045018	0.00012645	1159.2	7.1803e-06	2.2075e-06	1238.2	239.1	1.0373e-06	1.5695e-06	296.03	81.998	66.027	18.957	1.0882e-06	26.139	0.00018302	0.00018182	4.9061e-05	1125.5	1.9403e-06	1.889e-06	1205.4	233.03	1.8941e-06	1.9089e-06	286.64	81.342	64.883	18.898	1.9005e-06	25.994	247.138	230.988	221.188	166.700	297.613	255.672	166.831	173.960	287.810	327.048	173.532	180.653	180.795	188.568	320.681	187.510	-8191	255	
2882.874	1	1	0	0	0.16066	0.072705	0.23946	0.28344	0.063382	0.14198	0.25257	0.17427	0.12717	0.11973	0.25147	0.095078	0.14183	0.37657	0.11981	0.08759	-2.2854	-3.1021	-3.2896	-2.7958	-3.0708	-3.1021	-2.8729	-3.3917	-2.7917	-3.0833	-3.3333	-2.7229	-3.3104	-2.9729	-2.7062	-3.2396	235.523	398.454	271.411	234.095	209.974	514.208	501.735	159.139	261.412	201.885	486.978	351.048	377.364	450.263	329.488	503.755	0.00022212	0.00027722	4.6551e-05	1161	1.3644e-06	2.3573e-06	1241	238.05	2.2255e-06	2.1283e-06	297.6	82.533	66.119	18.952	9.4315e-07	26.061	0.00018257	0.00017874	4.8821e-05	1124.1	1.98e-06	1.9091e-06	1207.4	232.83	1.9475e-06	1.9693e-06	286.93	81.588	65.03	18.97	1.9868e-06	25.952	251.057	250.285	183.799	166.743	276.676	381.140	166.852	174.155	232.192	334.881	173.327	180.360	181.556	187.979	366.565	187.576	-8191	255	
2882.970	1	1	0	0	0.16694	0.16025	0.15183	0.073261	0.088305	0.14171	0.26332	0.14002	0.1966	0.24897	0.12282	0.08104	0.067472	0.10457	0.1726	0.15646	-2.3167	-2.875	-3.3542	-2.8646	-3.25	-3.4021	-2.7313	-3.5875	-2.8896	-2.9646	-3.4542	-2.5896	-3.0938	-3.2729	-2.6354	-3.4375	377.615	408.043	297.795	413.367	492.954	407.255	470.223	450.593	370.580	262.534	459.923	173.861	182.177	232.288	353.283	495.328	0.0002786	0.00042206	7.3095e-05	1160.9	1.7545e-06	1.9882e-06	1239.5	237.25	2.6892e-06	2.0274e-06	298.46	82.629	65.873	18.767	1.3424e-06	25.757	0.00018528	0.00018606	5.0511e-05	1126.2	2.0497e-06	2.0667e-06	1206.8	232.99	2.0479e-06	2.0461e-06	287.1	81.422	65.011	18.878	1.9208e-06	25.858	257.209	260.079	226.813	166.870	233.891	278.314	166.844	174.222	233.727	303.833	173.817	180.549	180.838	187.791	284.515	187.652	-8191	255	
2883.067	1	1	0	0	0.076332	0.23664	0.20462	0.26852	0.058732	0.29565	0.013606	0.15931	0.13029	0.21334	0.20529	0.074913	0.31309	0.22665	0.068223	0.093058	-2.5062	-2.7167	-3.3937	-2.7583	-3.0792	-3.3187	-2.7542	-3.5104	-3.1146	-2.7687	-3.4313	-2.8229	-3.0833	-3.4208	-2.55	-3.3792	286.247	159.983	201.518	464.083	480.161	185.169	309.027	485.765	414.078	397.986	506.825	443.697	187.357	355.617	194.843	389.024	0.00023122	0.00025888	7.6317e-05	1158.3	3.1564e-06	5.0311e-06	1239.9	236.47	3.8329e-06	4.0347e-06	297.62	81.802	65.934	18.797	2.3182e-06	25.839	0.0001805	0.00017395	4.7486e-05	1119.7	1.9082e-06	1.868e-06	1202	231.7	1.8869e-06	1.8827e-06	285.18	81.122	64.736	18.772	1.888e-06	25.846	246.824	206.885	251.726	166.584	261.693	298.029	167.052	174.518	317.738	354.298	174.107	180.640	181.314	188.025	295.621	187.997	-8191	255	
2883.185	1	1	0	0	0.18837	0.15324	0.18038	0.35195	0.047574	0.036185	0.15624	0.31778	0.18658	0.16364	0.19575	0.10654	0.31197	0.1312	0.17154	0.10834	-2.7438	-2.5854	-3.6021	-2.8	-3.0583	-3.4604	-2.8646	-3.3	-2.95	-2.7854	-3.4021	-3.0438	-3.0958	-3.4604	-2.7333	-3.2604	244.524	361.250	411.916	469.448	277.549	469.244	478.637	442.344	172.015	248.368	428.345	387.268	442.099	225.637	301.391	286.851	0.00025825	0.00036607	5.5036e-05	1155.4	1.9503e-06	1.4828e-06	1233.6	235.99	2.1916e-06	4.769e-06	297.21	82.052	66.118	18.806	1.7654e-06	25.958	0.00017619	0.00017487	4.9215e-05	1118.4	1.9911e-06	1.9876e-06	1200.9	231.46	2.0485e-06	2.0482e-06	286.53	81.327	65.018	18.875	2.0524e-06	25.995	238.439	313.461	268.115	166.471	497.321	270.850	166.885	174.174	173.792	332.683	173.923	180.285	181.192	188.017	300.661	187.992	-8191	255	
2883.282	1	1	0	0	0.17197	0.35689	0.13663	0.34397	0.20238	0.19587	0.20045	0.048524	0.26305	0.05247	0.15521	0.21544	0.055126	0.095499	0.30722	0.20463	-2.7417	-2.4208	-3.4188	-2.9396	-2.8792	-3.525	-2.6688	-3.3187	-3.3646	-2.6437	-3.3833	-2.9375	-2.9875	-3.5583	-2.7833	-3.175	451.260	464.583	461.450	477.534	308.908	379.231	459.472	503.748	160.097	334.520	389.710	468.398	240.439	277.588	440.066	455.090	0.00024666	0.00041272	6.974e-05	1156.5	1.0799e-06	7.8786e-07	1230.8	236.37	3.9394e-06	1.2758e-06	295.62	81.484	65.32	18.661	1.848e-06	26.043	0.00019438	0.0001852	5.0552e-05	1119.9	1.9721e-06	1.9311e-06	1199.3	231.88	1.8682e-06	1.8214e-06	284.84	80.726	64.539	18.652	1.8556e-06	25.836	257.758	264.824	159.909	166.666	418.281	296.803	166.963	174.285	246.079	382.432	173.929	180.690	181.404	187.808	248.583	187.657	-8191	255	
2883.353	1	1	0	0	0.057159	0.060034	0.23695	0.31375	0.17658	0.19281	0.29568	0.17788	0.060878	0.12523	0.30632	0.092772	0.21994	0.10797	0.29027	0.14186	-2.8833	-2.65	-3.5146	-3.2875	-2.6437	-3.375	-2.9688	-3.1625	-3.4333	-2.6562	-3.6104	-3.175	-2.6646	-3.4646	-2.7583	-2.9708	301.155	505.664	269.472	501.662	490.212	208.053	460.441	425.729	433.045	511.956	457.310	259.540	180.237	267.054	370.209	387.797	0.00026864	4.9274e-05	5.4189e-05	1149.4	9.0056e-07	2.628e-06	1225.1	235.51	2.9136e-06	1.736e-06	295.6	81.9	64.954	18.71	5.1919e-06	25.795	0.00017221	0.0001718	4.6886e-05	1114.1	1.87e-06	1.8767e-06	1195.3	230.65	1.8908e-06	1.8943e-06	284.91	80.929	64.51	18.723	1.9919e-06	25.874	242.570	319.775	279.236	166.906	328.214	287.236	166.777	174.345	327.146	313.044	174.075	180.650	180.910	188.014	254.899	187.691	-8191	255	
2883.474	1	1	0	0	0.22105	0.26244	0.18547	0.03921	0.25985	0.082303	0.25841	0.22878	0.1308	0.24131	0.053139	0.032829	0.21994	0.2881	0.13719	0.24114	-2.95	-2.6125	-3.1083	-3.0083	-2.5042	-3.5167	-3.0167	-2.9417	-3.375	-2.6875	-3.4583	-3.25	-2.6583	-3.4271	-2.85	-2.975	261.946	493.259	407.956	370.212	462.361	245.744	458.875	497.182	285.357	329.790	417.262	448.583	245.195	431.898	497.586	458.135	0.00025185	0.00017502	0.00013604	1155.5	4.7686e-06	2.0572e-06	1224.2	235.29	5.904e-06	6.4181e-07	295.79	82.294	65.356	18.835	4.2068e-06	25.923	0.0001888	0.00018419	5.1742e-05	1117.8	2.0683e-06	2.0038e-06	1195.5	230.92	2.0026e-06	1.9614e-06	285.8	81.013	64.766	18.825	1.9562e-06	25.815	249.016	324.378	197.577	166.632	263.981	370.989	166.589	174.380	277.868	194.687	173.644	180.380	180.746	188.365	285.110	187.912	-8191	255	
2883.570	1	1	0	0	0.28887	0.11004	0.188	0.1175	0.085741	0.23035	0.31548	0.33608	0.019737	0.098091	0.25505	0.096922	0.096786	0.06122	0.24568	0.093708	-3.1312	-2.6833	-3.0938	-3.5375	-2.6562	-3.5458	-3.0833	-2.8542	-3.3667	-2.7417	-3.1208	-3.3792	-2.6063	-3.4292	-3.0375	-2.6542	207.619	411.544	409.420	450.521	169.489	340.025	439.994	443.715	328.887	162.829	212.843	485.147	303.009	199.803	277.316	342.007	0.0002948	0.00025179	0.00017127	1153.5	3.0766e-06	2.1794e-06	1225.8	235	4.6554e-06	4.0886e-06	295.18	81.76	65.662	18.619	2.9156e-06	26.11	0.00018453	0.00018014	4.9229e-05	1116.5	1.9547e-06	1.9326e-06	1195.8	231.05	1.9106e-06	1.892e-06	284.27	80.743	64.539	18.66	1.8226e-06	25.918	254.162	228.140	232.081	166.748	257.853	419.905	166.709	174.549	335.223	276.351	173.645	181.278	181.357	188.183	406.467	187.793	-8191	255	
2883.666	1	1	0	0	0.13761	0.34658	0.17672	0.10047	0.042673	0.15096	0.3721	0.12832	0.14126	0.17032	0.18176	0.11109	0.22984	0.31463	0.21674	0.04954	-3.0583	-2.7792	-2.8625	-3.5708	-2.5792	-3.3229	-3.3292	-2.6854	-3.4646	-2.6583	-3.0583	-3.325	-2.6646	-3.1896	-3.2562	-2.6667	330.539	325.148	474.085	397.566	302.829	510.458	451.389	172.281	442.224	460.312	365.057	414.170	499.565	201.488	499.094	393.571	0.00027022	0.00053865	6.1707e-05	1153.8	4.7458e-06	8.4824e-07	1231.6	236.53	5.4612e-06	2.4955e-06	294.89	82.317	65.477	18.697	4.1209e-06	25.922	0.00017298	0.00016719	4.7117e-05	1115.6	1.8959e-06	1.8578e-06	1195	231.37	1.9148e-06	1.9537e-06	285.16	81.1	64.502	18.722	1.9298e-06	25.855	253.022	298.752	247.844	166.860	340.106	452.679	166.900	174.487	289.626	289.517	173.809	180.380	180.861	187.859	307.381	187.565	-8191	255	
2883.762	1	1	0	0	0.10038	0.11358	0.21406	0.27203	0.18669	0.10922	0.11151	0.088031	0.053276	0.113	0.16247	0.13257	0.051931	0.10499	0.17132	0.13685	-2.9396	-2.9458	-2.8479	-3.625	-2.6896	-3.3104	-3.375	-2.5917	-3.5687	-2.9125	-2.7646	-3.525	-2.8417	-3.2313	-3.4125	-2.5729	443.393	278.222	287.064	469.697	347.499	224.487	494.963	412.164	199.494	331.784	291.595	320.533	491.629	382.871	288.647	269.294	0.00028469	0.00024224	4.634e-05	1146.3	2.532e-06	7.3812e-06	1227	235.35	5.4252e-06	2.0517e-06	296.94	81.872	65.755	18.745	1.2275e-06	25.991	0.00018266	0.0001769	4.9376e-05	1117.4	2.0179e-06	1.9878e-06	1196.9	231.22	2.0743e-06	2.0867e-06	286.69	81.31	65.012	18.825	2.1282e-06	25.981	244.818	282.257	230.621	166.647	492.527	256.914	166.914	173.985	329.435	324.719	173.463	180.579	181.097	188.577	330.847	187.585	-8191	255	
2883.881	1	1	0	0	0.24952	0.11927	0.30506	0.311	0.10819	0.17605	0.19342	0.17566	0.22181	0.013323	0.064677	0.089233	0.23208	0.16027	0.14632	0.10367	-3.0417	-2.8	-2.7271	-3.5333	-2.7208	-3.0812	-3.5021	-2.85	-3.4188	-3.0417	-2.6937	-3.4896	-2.7687	-3.1146	-3.2396	-2.6833	425.755	358.120	174.850	497.168	239.759	475.948	445.321	428.716	326.139	397.882	220.291	341.125	487.794	243.965	392.737	273.838	0.00028364	0.00010282	8.0484e-05	1152.7	3.0971e-06	4.3071e-06	1230.7	236.15	6.0843e-06	5.6315e-06	296.4	82.122	66.134	18.875	3.0435e-06	25.9	0.00019952	0.00019726	5.4487e-05	1120.9	2.1875e-06	2.1808e-06	1203.4	232.49	2.2186e-06	2.1582e-06	287.15	81.788	64.984	18.932	2.1383e-06	25.872	257.522	483.662	165.823	166.467	402.328	215.616	166.678	174.213	290.519	287.339	173.850	180.403	181.161	188.208	323.961	187.656	-8191	255	
2883.955	1	1	0	0	0.11866	0.32512	0.16743	0.17772	0.12053	0.19255	0.2962	0.14187	0.098353	0.10437	0.23376	0.099937	0.023579	0.02072	0.031639	0.12118	-2.9854	-3.0833	-2.575	-3.7021	-2.8042	-2.8563	-3.5687	-2.5604	-3.2292	-3.1896	-2.7542	-3.3604	-2.8875	-2.7833	-3.2542	-2.6562	438.387	235.101	301.193	479.421	476.659	232.045	157.514	228.079	194.345	158.365	488.287	169.689	438.151	255.297	401.403	429.559	0.0002549	0.00013952	0.00011622	1159.1	3.1687e-06	1.8274e-06	1229.8	235.86	3.4497e-06	2.9539e-06	296.48	82.033	65.706	18.822	4.9053e-06	25.891	0.00020034	0.00019508	5.4238e-05	1124.3	2.1018e-06	2.085e-06	1200.4	231.86	2.0598e-06	2.0015e-06	286.7	81.141	64.78	18.803	1.9767e-06	25.837	259.263	179.605	239.621	166.809	273.546	296.077	166.789	174.191	312.002	203.427	173.648	180.738	180.970	188.085	278.526	187.448	-8191	255	
2884.051	1	1	0	0	0.063533	0.09976	0.23422	0.079855	0.13754	0.17677	0.083265	0.15572	0.15385	0.064523	0.22429	0.078423	0.16437	0.082841	0.18265	0.29482	-2.8563	-3.2396	-2.6667	-3.5854	-2.7333	-2.5563	-3.6271	-2.6896	-3.1437	-3.2479	-2.6458	-3.5833	-2.9979	-2.7583	-3.4062	-2.7396	374.836	259.543	248.908	430.386	209.015	166.768	411.421	459.922	503.736	349.804	410.669	436.129	455.740	307.803	224.378	482.919	0.00023681	0.00012092	0.00012658	1154.3	1.2483e-06	1.2524e-06	1234.8	236.81	2.9677e-06	4.7755e-06	296.92	82.234	65.472	18.697	4.6221e-06	25.77	0.000186	0.00018186	5.1234e-05	1122.1	2.0165e-06	2.0479e-06	1203.1	232.23	2.1374e-06	2.0991e-06	287.16	81.476	65.039	18.796	2.1878e-06	25.901	257.305	264.141	239.691	166.918	247.504	299.938	166.730	174.025	307.945	348.323	173.775	180.429	181.453	188.289	350.887	187.919	-8191	255	
2884.171	1	1	0	0	0.28861	0.29529	0.29252	0.24976	0.17389	0.25376	0.31522	0.12749	0.065231	0.31856	0.37583	0.22479	0.1157	0.22706	0.17995	0.34259	-2.9042	-3.275	-2.6688	-3.3187	-3.0167	-2.7833	-3.5625	-2.6479	-3.2979	-3.3646	-2.4917	-3.4104	-3.1396	-2.5417	-3.4604	-2.9083	450.762	292.849	188.272	488.208	486.322	295.441	486.191	443.011	402.247	425.194	506.760	259.470	176.944	453.285	282.856	509.306	0.00025956	0.00016303	3.5347e-05	1158	1.7377e-06	5.7086e-07	1237.1	235.79	7.2527e-07	2.4888e-07	297.2	82.349	65.828	18.642	4.6574e-06	25.849	0.00020512	0.00020323	5.6736e-05	1125.1	2.2416e-06	2.2097e-06	1206	232.82	2.2256e-06	2.2284e-06	287.66	81.545	65.065	18.828	2.1734e-06	25.814	247.616	305.428	230.657	166.892	231.679	276.267	166.667	174.272	286.468	410.111	173.720	180.645	180.823	188.203	327.249	187.364	-8191	255	
2884.266	1	1	0	0	0.30089	0.13743	0.02566	0.23729	0.13054	0.071982	0.062047	0.1472	0.091634	0.063996	0.16832	0.16465	0.11034	0.11703	0.18089	0.057732	-2.6458	-3.4875	-2.675	-3.5833	-3.3	-2.7604	-3.6042	-2.9188	-2.7542	-3.5375	-2.65	-3.3021	-3.2375	-2.7542	-3.3875	-2.9125	304.402	286.581	448.214	491.179	319.600	171.712	464.977	436.975	444.090	286.918	285.928	419.875	352.721	319.883	280.370	277.280	0.00033161	0.00010908	9.7233e-05	1159.6	1.9384e-06	3.188e-06	1243.7	237.28	1.3349e-06	3.6262e-06	295.94	82.226	65.784	18.764	3.822e-06	25.826	0.00020284	0.00019557	5.5198e-05	1127	2.198e-06	2.1961e-06	1207.6	232.89	2.2281e-06	2.2066e-06	287.51	81.712	64.981	18.908	2.2361e-06	25.913	247.031	169.243	279.520	166.912	301.047	221.940	166.793	174.327	515.084	237.582	173.869	180.624	181.226	188.053	237.274	187.792	-8191	255	
2884.362	1	1	0	0	0.33639	0.24157	0.32318	0.15667	0.1301	0.12131	0.28215	0.19697	0.26386	0.12908	0.21165	0.11192	0.09996	0.13953	0.21507	0.16896	-2.3708	-3.5229	-2.5417	-3.3104	-3.3833	-2.6896	-3.6688	-3.0792	-2.825	-3.7021	-2.7812	-3.0646	-3.3104	-2.6604	-3.4083	-3.0458	183.990	364.180	352.419	399.299	277.664	365.126	417.743	467.733	278.592	411.485	491.600	400.956	346.844	358.689	335.772	320.992	0.00020675	0.00039962	0.00013545	1157.1	2.1078e-06	4.3749e-06	1248	238.09	3.5316e-06	2.5139e-06	296.78	82.475	66.085	18.779	1.221e-06	25.641	0.00021107	0.00020155	5.7296e-05	1130.7	2.2373e-06	2.228e-06	1213.2	233.45	2.2175e-06	2.146e-06	287.57	81.616	65.369	18.908	2.0936e-06	25.733	255.796	285.157	258.980	166.803	322.691	305.469	166.992	174.064	319.188	334.492	173.997	180.615	181.335	188.293	448.619	187.466	-8191	255	
2884.483	1	1	0	0	0.30979	0.021473	0.18931	0.15844	0.15295	0.15835	0.21977	0.19023	0.37608	0.084235	0.19658	0.19731	0.078509	0.067622	0.081158	0.12553	-2.3417	-3.4458	-2.7292	-3.0125	-3.3083	-2.5208	-3.5208	-3.1958	-2.6042	-3.4229	-2.925	-3.0438	-3.4271	-2.7979	-3.3312	-3.2021	171.673	179.171	165.572	419.044	501.441	294.870	392.733	478.899	294.656	385.252	366.648	435.944	347.505	461.565	491.501	276.669	0.00024031	0.00056415	0.00013262	1165.3	1.0506e-06	2.2617e-06	1243.8	238.13	4.2466e-06	4.7937e-06	295.07	82.534	65.972	18.83	4.1056e-06	25.799	0.0001942	0.00018487	5.2373e-05	1129.3	2.057e-06	2.0344e-06	1211.6	233.16	2.0847e-06	2.0871e-06	286.52	81.581	65.14	18.919	2.1469e-06	25.813	242.501	247.263	297.079	167.084	253.995	318.118	166.992	174.265	429.977	270.856	173.906	180.244	181.057	188.241	241.886	187.428	-8191	255	
2884.579	1	1	0	0	0.18735	0.28134	0.18945	0.26599	0.1522	0.050821	0.25391	0.29819	0.15191	0.10596	0.16338	0.23923	0.19998	0.13339	0.13636	0.19362	-2.25	-3.3438	-3.0333	-2.8521	-3.4167	-2.6771	-3.3438	-3.2333	-2.4062	-3.4813	-3.025	-2.7583	-3.6208	-2.6292	-3.2521	-3.2542	446.966	370.080	380.301	397.144	333.575	413.579	480.853	473.419	178.411	437.126	352.833	331.200	458.778	451.443	421.948	177.885	0.00029912	0.00035299	3.3118e-05	1163.8	1.8622e-06	3.2087e-06	1239.7	238.05	3.7102e-06	2.2544e-06	297.57	82.611	66.134	18.787	3.8888e-06	25.793	0.00019859	0.00019493	5.4737e-05	1129.6	2.1988e-06	2.2162e-06	1211.1	233.5	2.2732e-06	2.2693e-06	288.23	81.893	65.454	18.92	2.2747e-06	25.865	241.899	201.973	215.071	166.831	255.116	287.342	166.835	173.971	262.581	241.094	173.470	180.473	181.001	187.873	263.745	187.335	-8191	255	
2884.650	1	1	0	0	0.21762	0.16704	0.29152	0.23953	0.14993	0.10027	0.25567	0.16829	0.23904	0.077876	0.19529	0.12214	0.043178	0.19287	0.14994	0.16434	-2.1208	-3.4542	-3.0208	-2.9167	-3.3937	-2.7062	-3.2667	-3.325	-2.5708	-3.4646	-3.2479	-2.6208	-3.4271	-2.7729	-2.8812	-3.5687	281.295	350.691	159.294	481.790	409.033	372.298	411.833	296.614	165.597	161.403	293.649	284.959	441.672	193.703	391.131	233.958	0.0003078	0.00050095	6.7376e-05	1161.9	3.45e-06	3.0355e-06	1242.6	238.95	4.6678e-06	4.9643e-06	296.45	82.653	65.754	18.741	3.176e-06	25.849	0.00020831	0.00020387	5.7808e-05	1128.8	2.2834e-06	2.2703e-06	1213.7	233.76	2.3245e-06	2.276e-06	288.36	81.989	65.362	18.969	2.2929e-06	25.93	249.734	233.016	172.192	166.775	369.015	288.911	166.860	174.064	300.077	221.576	173.743	180.892	180.749	188.465	283.640	187.401	-8191	255	
2884.747	1	1	0	0	0.082213	0.11533	0.098027	0.16412	0.15373	0.33633	0.14139	0.060263	0.18381	0.30294	0.15696	0.13833	0.20264	0.10571	0.15	0.35914	-2.2833	-3.2854	-3.1042	-2.8563	-3.45	-2.8354	-3.1479	-3.4188	-2.4938	-3.0792	-3.2458	-2.7687	-3.3333	-2.95	-2.9396	-3.4896	274.226	353.834	514.787	198.604	332.293	486.161	363.477	159.452	277.581	208.951	243.088	203.634	298.199	453.276	172.220	305.368	0.00022672	0.00010192	6.8693e-05	1160.5	4.2857e-06	8.077e-07	1245.9	237.02	1.9745e-06	2.8407e-06	296.85	83.296	65.817	18.735	5.0253e-06	25.753	0.00021599	0.00020609	5.7938e-05	1130.3	2.3054e-06	2.2899e-06	1214.2	233.69	2.2813e-06	2.2623e-06	288.9	81.968	65.362	18.963	2.2796e-06	25.952	258.435	180.844	321.000	166.771	378.541	310.916	166.761	174.026	280.696	506.769	174.040	180.654	181.246	188.224	369.600	187.499	-8191	255	
2884.867	1	1	0	0	0.30269	0.20721	0.053051	0.25037	0.098425	0.20546	0.12621	0.14971	0.14841	0.16342	0.17119	0.17545	0.20813	0.042484	0.2425	0.078417	-2.3625	-3.1708	-3.2687	-2.7667	-3.3104	-2.8312	-2.8937	-3.5396	-2.7438	-3.3979	-3.3563	-2.6396	-3.5812	-3.0417	-2.6937	-3.7208	272.529	284.391	242.959	191.746	366.122	169.309	513.537	291.912	323.332	184.166	471.914	450.577	439.631	386.704	432.717	416.441	0.00022597	0.00036172	2.285e-05	1162.9	2.5619e-06	3.1675e-06	1243.8	238.22	4.396e-06	1.0185e-06	298.07	81.966	66.378	18.796	3.5238e-06	25.817	0.00020961	0.00020596	5.8289e-05	1131.8	2.2764e-06	2.2621e-06	1213.3	233.69	2.3208e-06	2.3141e-06	289.32	81.707	65.518	18.975	2.3079e-06	25.914	242.566	200.529	298.173	166.784	300.565	214.304	166.696	174.242	294.051	298.550	173.820	180.532	181.130	188.256	242.897	187.714	-8191	255	
2884.963	1	1	0	0	0.26867	0.1585	0.036815	0.16587	0.025282	0.11925	0.29649	0.11264	0.12888	0.29988	0.1899	0.064208	0.13613	0.17134	0.050239	0.32343	-2.4708	-2.9854	-3.4208	-2.6979	-3.3667	-3.075	-3.0312	-3.625	-2.8167	-2.9917	-3.4375	-2.5833	-3.3292	-3.0708	-2.5938	-3.4188	474.311	172.853	426.072	460.099	166.120	486.519	425.675	157.044	210.539	411.648	506.127	459.413	215.309	393.033	503.149	334.843	0.00026211	0.00029255	9.6974e-05	1166.2	2.9648e-06	2.0012e-06	1243	239.12	4.9597e-06	3.7377e-06	298.33	82.426	65.678	18.812	9.2815e-07	25.912	0.00021432	0.00020983	5.7782e-05	1130.3	2.2945e-06	2.2983e-06	1212.5	234.24	2.2708e-06	2.3024e-06	289.06	81.964	65.424	18.951	2.3125e-06	25.957	239.897	283.846	487.789	166.691	372.463	233.581	166.720	174.390	258.057	291.869	173.369	180.284	181.162	188.426	405.874	186.921	-8191	255	
2885.058	1	1	0	0	0.079667	0.2753	0.097814	0.078645	0.035986	0.085976	0.12979	0.37567	0.057846	0.10858	0.04016	0.13566	0.1122	0.26186	0.013542	0.060045	-2.4146	-2.925	-3.4583	-2.5854	-3.1979	-3.2479	-2.9	-3.4292	-2.8854	-2.9146	-3.55	-2.7125	-3.2938	-3.4	-2.6646	-3.3333	440.374	230.736	277.828	217.691	469.068	458.296	382.531	491.749	334.458	306.509	488.017	502.843	465.973	406.071	463.134	284.001	0.00022846	0.00023551	9.6713e-05	1161.8	7.011e-07	2.1531e-06	1240.1	236.91	2.9479e-07	2.9196e-06	298.01	82.839	66.199	18.778	9.4043e-07	25.885	0.0002104	0.0002089	5.6893e-05	1130.2	2.2822e-06	2.2418e-06	1211.4	233.85	2.2712e-06	2.2206e-06	288.87	81.858	65.463	18.922	2.2648e-06	25.854	249.918	484.936	251.698	166.902	369.132	265.508	166.901	173.969	202.924	255.713	174.006	180.367	180.865	188.007	281.376	187.410	-8191	255	
2885.154	1	1	0	0	0.28227	0.2608	0.0833	0.27818	0.048281	0.10129	0.41958	0.30646	0.071651	0.17952	0.16215	0.1068	0.085995	0.15007	0.28991	0.18716	-2.6167	-2.7083	-3.6771	-2.8563	-3.175	-3.3563	-2.9417	-3.2917	-3.1042	-2.7958	-3.325	-2.5812	-3.1958	-3.4125	-2.6063	-3.475	343.092	368.343	494.102	473.118	217.883	303.706	459.731	196.509	407.590	169.399	351.583	266.879	206.679	226.353	246.005	174.713	0.00025325	0.00057115	0.00010157	1161.5	4.0129e-06	2.55e-06	1243.4	239	6.8073e-06	3.8988e-06	297.35	82.635	65.675	18.794	7.5841e-07	25.849	0.00020711	0.0002058	5.583e-05	1130.4	2.2401e-06	2.1432e-06	1212.8	234.17	2.1925e-06	2.1966e-06	287.71	81.717	65.185	18.905	2.1388e-06	25.876	256.121	210.477	280.944	166.546	335.363	298.867	167.012	174.436	302.180	291.673	174.045	180.610	181.607	188.088	421.276	187.829	-8191	255	
2885.250	1	1	0	0	0.31528	0.13028	0.21528	0.094596	0.20533	0.129	0.2389	0.27443	0.12719	0.32726	0.14119	0.1342	0.16824	0.087989	0.18384	0.045388	-2.6813	-2.45	-3.4	-2.7583	-3.0187	-3.4375	-2.8333	-3.4396	-3.0771	-2.6625	-3.4	-2.9354	-2.9229	-3.3396	-2.7729	-3.2125	373.908	254.628	414.364	407.657	173.793	301.470	443.487	491.012	186.213	370.648	401.758	491.275	311.820	226.924	194.987	363.954	0.00024215	0.00028977	0.00014231	1162.8	4.6718e-06	3.5696e-06	1244.1	239.05	1.3733e-06	2.8836e-06	297.18	82.193	65.942	18.821	1.3967e-06	25.861	0.00019956	0.00019424	5.322e-05	1129.7	2.1309e-06	2.1256e-06	1211	233.45	2.1093e-06	2.0552e-06	287.3	81.416	65.076	18.829	2.0782e-06	25.787	253.186	388.839	184.938	166.632	354.979	309.344	166.697	174.435	263.109	237.656	174.103	180.638	181.147	188.182	284.523	187.820	-8191	255	
2885.346	1	1	0	0	0.18999	0.16939	0.13637	0.25881	0.18803	0.35282	0.28335	0.0090576	0.30372	0.11055	0.14481	0.36406	0.054814	0.17007	0.079478	0.093472	-2.8167	-2.5708	-3.5583	-2.8063	-2.7271	-3.2687	-2.95	-3.2375	-3.3	-2.5833	-3.4229	-2.9417	-2.9188	-3.4813	-2.7417	-3.1042	185.002	180.926	278.637	424.322	509.453	195.912	164.020	157.207	320.459	498.044	447.614	478.731	220.181	174.050	383.840	409.690	0.00027382	0.00024807	0.00012505	1162.7	2.7913e-06	2.5503e-06	1242.2	237.71	4.2561e-06	2.7611e-06	298.34	82.171	65.821	18.733	6.1241e-06	25.578	0.00019309	0.00018842	5.3513e-05	1127.4	2.1678e-06	2.0956e-06	1208.9	233.15	2.1717e-06	2.1158e-06	288.26	81.654	65.175	18.818	2.1435e-06	25.75	261.115	286.410	319.653	166.621	229.075	264.568	166.703	174.058	328.445	299.849	173.832	180.661	180.846	188.159	305.699	187.894	-8191	255	
2885.442	1	1	0	0	0.14154	0.074563	0.22751	0.1408	0.082054	0.1266	0.25932	0.22211	0.24183	0.18015	0.16584	0.077267	0.20407	0.068028	0.049225	0.15908	-2.7271	-2.4896	-3.2542	-3.0917	-2.6083	-3.5062	-2.8021	-3.0854	-3.3354	-2.8229	-3.4396	-3.2062	-2.7583	-3.5729	-2.6208	-3.0458	317.578	219.848	214.518	516.080	171.548	363.933	463.949	285.713	407.118	366.806	467.370	456.179	366.349	207.405	291.098	432.443	0.00023985	0.00039161	0.00018263	1165.1	4.8889e-06	3.149e-06	1249.2	238.66	3.53e-06	1.0454e-06	296.17	82.616	66.313	18.754	1.5326e-06	25.861	0.00019886	0.00019671	5.3567e-05	1126.2	2.1301e-06	2.1463e-06	1211.7	233.6	2.1501e-06	2.1255e-06	286.85	81.58	65.225	18.837	2.1336e-06	25.857	261.453	253.280	243.786	166.661	391.159	276.599	166.696	174.367	213.070	373.530	173.570	180.373	181.181	187.754	335.589	187.716	-8191	255	
2885.563	1	1	0	0	0.12286	0.20259	0.13751	0.092204	0.18225	0.062488	0.26634	0.45275	0.089181	0.14703	0.10282	0.25742	0.18251	0.045525	0.099358	0.096625	-3.0542	-2.4562	-3.1083	-3.1854	-2.4771	-3.5583	-2.7313	-2.9792	-3.5563	-2.7958	-3.4833	-3.2104	-2.7021	-3.4917	-2.8396	-2.7292	336.619	163.711	331.021	312.866	346.756	259.228	510.579	498.194	182.197	410.951	509.977	184.688	313.396	507.160	206.905	387.628	0.00027052	0.00062126	6.6244e-05	1162.1	1.974e-06	2.9912e-06	1240.1	236.5	5.0116e-06	1.138e-06	298.16	82.726	65.444	18.779	3.0755e-06	25.82	0.00019408	0.0001905	5.3406e-05	1127.5	2.1082e-06	2.06e-06	1208.4	232.8	2.1011e-06	2.1051e-06	287.44	81.561	64.852	18.839	2.1303e-06	25.797	240.607	509.880	259.762	166.414	213.432	318.060	166.749	174.315	316.027	323.036	174.184	180.986	181.182	187.879	307.302	187.619	-8191	255	
2885.659	1	1	0	0	0.16884	0.18362	0.11408	0.23357	0.078528	0.13939	0.22234	0.17764	0.064018	0.29371	0.06737	0.076896	0.25092	0.25365	0.077839	0.12794	-2.8417	-2.5854	-3.0583	-3.2292	-2.4729	-3.4583	-2.9604	-2.8792	-3.4792	-2.4396	-3.1562	-3.3542	-2.6333	-3.3667	-2.8729	-2.7062	494.074	404.780	222.515	450.407	444.837	372.257	483.878	474.075	474.913	493.900	487.346	385.987	462.474	179.525	247.326	415.669	0.00019162	0.00038891	0.00013448	1157.5	2.7209e-06	3.1552e-06	1238.5	236.76	5.7334e-06	1.4427e-06	296.23	81.741	65.808	18.93	1.9157e-06	25.619	0.00019382	0.00019147	5.3133e-05	1125.3	2.1023e-06	2.1045e-06	1207.7	232.63	2.1424e-06	2.1352e-06	287.21	81.525	65.151	18.9	2.1805e-06	25.678	272.274	311.672	239.816	166.800	451.107	324.308	166.807	174.161	265.427	236.373	174.416	180.574	181.312	188.112	323.222	187.689	-8191	255	
2885.755	1	1	0	0	0.14075	0.13037	0.090722	0.19038	0.21034	0.104	0.5068	0.24788	0.090793	0.38498	0.071489	0.15992	0.27736	0.37249	0.21152	0.079189	-3.0187	-2.8479	-2.9417	-3.5062	-2.7604	-3.2104	-3.3208	-2.6167	-3.4396	-2.7375	-3.0417	-3.4583	-2.7021	-3.2354	-3.0062	-2.7167	285.441	398.181	492.999	466.991	218.735	424.659	464.494	411.008	493.375	382.380	422.787	395.950	262.698	176.462	258.809	452.551	0.00025694	0.00026524	5.9599e-05	1159.9	1.8301e-06	1.2625e-06	1244.8	238.18	2.9324e-06	5.259e-06	299.08	81.668	65.825	18.689	2.2105e-06	25.61	0.00020213	0.00019501	5.4827e-05	1128.4	2.1739e-06	2.1401e-06	1209.9	233.15	2.173e-06	2.1468e-06	288.03	81.405	65.228	18.852	2.1759e-06	25.807	256.712	205.957	276.915	166.832	322.776	312.089	166.772	174.506	291.184	304.505	174.161	180.366	181.192	188.230	310.677	188.157	-8191	255	
2885.851	1	1	0	0	0.11013	0.213	0.053995	0.16552	0.13403	0.1461	0.2558	0.12554	0.011892	0.091312	0.11877	0.16829	0.13977	0.045354	0.24541	0.10469	-3.1208	-2.7292	-2.6875	-3.5938	-2.7208	-3.15	-3.4104	-2.4042	-3.2771	-2.9458	-2.8417	-3.5167	-2.6771	-3.1333	-3.1667	-2.6625	246.115	382.166	392.417	174.794	192.925	491.700	463.440	464.461	294.409	266.525	236.134	277.685	451.335	172.394	500.754	171.264	0.00024658	0.0003047	0.00014844	1163.4	5.0459e-06	4.2411e-06	1237.3	236.69	1.6694e-06	1.7595e-06	295.72	82.695	66.178	18.807	1.3575e-06	25.735	0.00020283	0.00019763	5.5156e-05	1128.2	2.164e-06	2.1884e-06	1207.8	232.49	2.1929e-06	2.1966e-06	287.16	81.713	65.108	18.909	2.1988e-06	25.814	237.836	247.972	308.575	166.770	263.835	432.877	166.792	174.313	305.840	365.215	174.040	180.539	181.413	187.909	415.295	187.610	-8191	255	
2885.946	1	1	0	0	0.066942	0.19537	0.13797	0.18934	0.10984	0.096906	0.16806	0.041594	0.22929	0.20911	0.18043	0.16062	0.082053	0.23617	0.20904	0.074545	-3.0187	-2.8458	-2.6188	-3.4333	-2.7729	-3.1917	-3.4771	-2.7667	-3.325	-3.0479	-2.6917	-3.3333	-2.6312	-3.0833	-3.2438	-2.5542	257.244	429.602	382.968	474.900	403.105	311.001	406.481	349.457	240.980	483.496	408.122	369.931	416.656	287.490	413.347	508.924	0.00024563	0.00029665	3.4979e-05	1162	6.7319e-07	3.1823e-06	1246.2	238.13	3.2515e-06	1.0511e-06	296.48	82.099	65.891	18.834	2.9646e-06	25.796	0.00020291	0.00019592	5.5135e-05	1127.3	2.1546e-06	2.2023e-06	1208.5	232.84	2.2054e-06	2.2224e-06	287.33	81.472	65.036	18.894	2.2156e-06	25.812	254.578	305.176	501.414	166.821	270.140	333.812	166.784	174.534	277.144	278.973	174.146	180.589	181.066	188.352	321.834	187.653	-8191	255	
2886.042	1	1	0	0	0.25994	0.1534	0.1424	0.16795	0.11373	0.046684	0.38449	0.19097	0.13294	0.12636	0.049723	0.2351	0.12831	0.13896	0.24266	0.24962	-2.7854	-3.1583	-2.6646	-3.6042	-2.8208	-3.0375	-3.6542	-2.6646	-3.3146	-3.175	-2.6104	-3.4646	-2.8396	-2.9208	-3.4396	-2.7396	321.394	212.562	296.011	406.204	388.521	199.112	416.049	464.799	257.641	482.358	282.075	233.207	171.803	405.391	485.632	288.342	0.00026202	0.00013998	1.0137e-05	1163.4	6.0566e-06	2.3025e-06	1234.9	237.57	1.2883e-06	3.3097e-06	295.89	82.614	65.876	18.849	1.1565e-06	25.43	0.00020427	0.00020311	5.5477e-05	1127.7	2.1908e-06	2.1826e-06	1206.4	232.75	2.2053e-06	2.1701e-06	287.31	81.526	65.232	18.914	2.1899e-06	25.724	258.217	164.136	260.932	166.653	313.194	399.055	166.868	174.154	251.794	202.617	173.723	180.644	180.946	188.205	246.118	187.913	-8191	255	
2886.163	1	1	0	0	0.25234	0.11923	0.24066	0.077125	0.079458	0.41314	0.22449	0.13631	0.081346	0.31027	0.10671	0.10398	0.08342	0.057809	0.33806	0.14682	-2.8042	-3.0292	-2.6708	-3.45	-3.0083	-2.8812	-3.7292	-2.8438	-3.2104	-3.2708	-2.5812	-3.3979	-2.9688	-2.7771	-3.3896	-2.7104	240.541	493.778	263.027	168.932	464.766	445.269	449.834	483.099	499.742	449.813	217.175	489.038	352.239	344.097	263.116	484.962	0.00021073	0.00013248	6.2061e-05	1159.9	5.5753e-06	2.254e-07	1240.8	236.98	1.2674e-06	2.9996e-06	297.14	82.176	65.684	18.753	8.2285e-07	25.849	0.00020649	0.00020012	5.6173e-05	1130.3	2.22e-06	2.2272e-06	1209.6	232.82	2.2422e-06	2.2076e-06	287.5	81.624	65.135	18.903	2.1874e-06	25.801	250.181	377.926	302.673	166.802	285.185	494.385	166.654	174.413	319.990	234.166	173.553	180.509	180.896	187.814	497.122	187.727	-8191	255	
2886.259	1	1	0	0	0.061673	0.29863	0.31549	0.20056	0.073403	0.24269	0.3459	0.036336	0.13362	0.15677	0.087676	0.24092	0.1881	0.099898	0.19264	0.13966	-2.5167	-3.15	-2.6208	-3.525	-2.8771	-2.65	-3.6562	-2.8104	-2.9646	-3.3604	-2.7833	-3.4708	-3.0583	-2.7646	-3.3125	-2.7438	223.125	265.675	226.055	478.035	271.738	305.275	489.307	327.785	356.948	162.568	464.143	378.172	189.027	242.310	304.736	164.404	0.00019515	0.00047226	0.00015533	1161.3	4.1264e-06	7.1056e-07	1244.3	235.96	3.1294e-06	5.0258e-06	297.19	82.023	65.617	18.738	5.216e-06	25.845	0.00020703	0.00020307	5.5901e-05	1127.8	2.2296e-06	2.2468e-06	1210.9	232.06	2.2328e-06	2.2124e-06	287.94	81.675	65.056	18.89	2.2357e-06	25.814	259.452	176.948	250.845	166.697	217.210	347.644	167.090	174.162	271.936	288.331	173.996	180.703	181.344	187.909	284.868	187.225	-8191	255	
2886.355	1	1	0	0	0.15492	0.054734	0.18896	0.18172	0.14186	0.27882	0.23941	0.26397	0.13316	0.21244	0.18128	0.13834	0.39002	0.05937	0.017853	0.15526	-2.5875	-3.4125	-2.5938	-3.4125	-3.05	-2.6583	-3.6042	-2.75	-2.9104	-3.3958	-2.7167	-3.1	-3.1167	-2.7229	-3.3896	-3.1083	394.151	210.768	469.455	156.454	199.369	392.885	404.481	422.521	386.843	419.309	192.899	483.146	507.736	431.174	424.474	491.324	0.00028628	0.0002917	4.9799e-05	1163.1	4.4565e-06	2.0303e-06	1242	235.99	3.9044e-06	2.3846e-06	296.23	82.209	65.906	18.774	1.9142e-06	25.662	0.00020595	0.00020135	5.6385e-05	1129.3	2.2252e-06	2.2396e-06	1211.2	232.54	2.233e-06	2.2203e-06	287.47	81.689	65.152	18.933	2.2332e-06	25.809	249.202	253.399	262.479	166.835	292.721	512.525	166.888	174.145	262.874	270.306	173.863	180.632	181.034	187.981	510.188	187.438	-8191	255	
2886.449	1	1	0	0	0.12249	0.033947	0.19775	0.21867	0.23621	0.099579	0.32443	0.16642	0.11737	0.22699	0.18529	0.066799	0.068311	0.12873	0.15606	0.02575	-2.4562	-3.4938	-2.6375	-3.3625	-3.2333	-2.6208	-3.5563	-2.8875	-2.7104	-3.4062	-2.6396	-2.9938	-3.1958	-2.5375	-3.4729	-2.925	179.673	484.928	266.940	157.970	375.382	480.064	428.732	487.029	428.160	216.476	160.785	173.649	370.154	278.069	196.401	199.148	0.00025316	0.0003603	0.00014176	1161.3	1.9844e-06	1.6999e-06	1241.1	235.57	3.1632e-06	2.958e-06	298.19	82.483	65.731	18.756	3.8852e-07	25.553	0.00020541	0.0002005	5.6058e-05	1127.3	2.2103e-06	2.1968e-06	1209.4	232.16	2.164e-06	2.1914e-06	287.28	81.556	65.071	18.831	2.1405e-06	25.674	239.675	243.801	260.730	166.943	362.912	333.957	166.996	174.139	314.383	406.209	173.993	180.785	181.001	188.021	401.761	187.868	-8191	255	
2886.545	1	1	0	0	0.15133	0.40863	0.15421	0.10809	0.16601	0.14697	0.17826	0.068031	0.1451	0.20093	0.22845	0.23963	0.14222	0.10827	0.15029	0.25332	-2.3187	-3.375	-2.6417	-3.05	-3.2896	-2.5896	-3.5021	-3.2708	-2.7208	-3.425	-2.9562	-2.9437	-3.4708	-2.6458	-3.1875	-3	447.486	427.041	365.797	490.616	360.995	417.406	317.771	173.338	452.801	191.050	452.357	419.631	315.285	390.334	480.312	176.707	0.0002762	0.00047325	7.2052e-05	1163.3	4.0154e-06	4.1842e-06	1238.9	236.14	4.7117e-06	2.2144e-06	295.88	82.404	65.272	18.619	1.9153e-06	25.749	0.00020052	0.00019694	5.4773e-05	1128.7	2.2116e-06	2.1665e-06	1207.8	232.38	2.1891e-06	2.1964e-06	287.26	81.555	64.908	18.811	2.1737e-06	25.726	244.819	243.231	280.588	166.929	355.854	282.464	166.780	174.233	289.773	286.364	173.641	180.372	180.744	187.726	294.603	187.789	-8191	255	
2886.642	1	1	0	0	0.14529	0.2842	0.083082	0.091523	0.16126	0.13639	0.29215	0.13142	0.20195	0.086347	0.16702	0.18812	0.065968	0.22467	0.088624	0.1397	-2.2771	-3.45	-2.85	-2.9646	-3.4562	-2.8104	-3.2396	-3.3958	-2.6063	-3.5583	-2.9792	-2.6667	-3.5333	-2.7333	-3.1271	-3.35	421.672	187.430	166.110	196.307	303.350	318.208	464.699	290.661	348.040	283.168	161.374	182.938	488.032	445.740	330.352	190.458	0.00027351	5.7722e-05	0.00013546	1158.7	1.2062e-06	1.7819e-06	1236.8	236.15	4.0493e-06	1.4037e-06	297.32	82.412	65.259	18.663	2.3061e-06	25.679	0.00020324	0.00020153	5.5754e-05	1125.9	2.1998e-06	2.1831e-06	1206.8	232.08	2.1994e-06	2.1143e-06	287.67	81.48	64.866	18.798	2.1364e-06	25.655	238.545	169.208	161.528	167.015	243.596	305.597	166.778	174.020	318.426	203.314	173.980	180.698	181.095	188.153	244.447	187.848	-8191	255	
2886.738	1	1	0	0	0.12001	0.09856	0.1329	0.35236	0.24126	0.13209	0.31022	0.28975	0.077233	0.15785	0.21764	0.04917	0.08727	0.091722	0.22219	0.17982	-2.3563	-3.3125	-3.0021	-3.0271	-3.2667	-2.6875	-3.2333	-3.4271	-2.6479	-3.3083	-3.1521	-2.5875	-3.4562	-2.9	-3	-3.3667	222.690	397.430	484.001	479.929	438.552	330.905	506.809	510.092	299.391	470.056	452.068	255.453	303.817	337.247	403.338	323.205	0.00024404	0.00050393	6.5337e-05	1157.1	4.5901e-06	4.1685e-06	1245.1	235.93	4.6984e-06	5.1009e-06	296.6	82.818	65.777	18.574	2.7161e-06	25.626	0.00019703	0.00019442	5.3528e-05	1123.7	2.1154e-06	2.0859e-06	1208	231.47	2.1245e-06	2.063e-06	285.87	81.521	64.887	18.686	2.0695e-06	25.623	243.006	237.394	182.014	166.825	297.538	328.314	166.732	174.329	275.143	361.800	173.803	180.718	181.023	188.258	225.039	187.937	-8191	255	
2886.834	1	1	0	0	0.11937	0.030778	0.1841	0.20662	0.28563	0.01291	0.15744	0.28361	0.097145	0.18142	0.16006	0.22306	0.24876	0.092334	0.1506	0.19503	-2.2562	-3.1708	-3.0458	-2.8812	-3.3604	-2.6958	-3.2833	-3.3979	-2.6708	-3.0563	-3.2313	-2.7062	-3.5271	-3.0604	-3.0396	-3.525	329.021	405.810	434.204	417.135	357.062	444.079	430.062	495.371	180.622	304.802	473.064	466.532	413.610	257.950	172.089	210.521	0.00022498	0.0003576	8.4616e-06	1152.8	3.7519e-06	5.5759e-06	1237.8	235.08	1.6559e-06	3.0682e-06	294	82.037	65.314	18.698	3.9796e-06	25.632	0.00019137	0.0001837	5.1789e-05	1121.2	2.0789e-06	2.0481e-06	1203.4	231.1	2.0798e-06	2.0348e-06	286.65	81.201	64.65	18.71	2.0587e-06	25.574	245.196	247.139	417.710	166.863	409.195	222.625	167.091	174.121	399.790	292.547	173.756	180.506	181.059	188.152	291.288	188.043	-8191	255	
2886.955	1	1	0	0	0.35527	0.11248	0.13923	0.065856	0.16078	0.11959	0.1566	0.22213	0.069866	0.090354	0.15341	0.24627	0.16799	0.27941	0.15676	0.21198	-2.2917	-3.2292	-3.1896	-2.7292	-3.1625	-2.8208	-3.0542	-3.5208	-2.575	-3.0062	-3.4083	-2.3833	-3.3125	-2.9188	-2.6167	-3.475	474.786	435.664	329.297	264.186	423.723	347.208	348.121	414.698	376.305	219.483	445.252	333.048	266.940	233.483	332.938	406.794	0.00023414	0.00036593	9.6038e-05	1155.9	4.277e-06	2.6273e-06	1238.4	235.96	3.7506e-06	1.4118e-06	296.79	81.914	65.562	18.545	3.051e-06	25.768	0.00019244	0.00018874	5.2412e-05	1125	2.1106e-06	2.0702e-06	1203.9	231.52	2.0793e-06	2.1048e-06	286.37	81.32	64.608	18.762	2.112e-06	25.664	252.800	270.465	445.093	167.060	315.100	371.837	167.001	174.229	315.944	270.532	173.879	180.468	180.825	188.286	352.616	187.828	-8191	255	
2887.051	1	1	0	0	0.14522	0.13683	0.13468	0.12162	0.1725	0.089944	0.19228	0.12825	0.14989	0.086554	0.15115	0.38174	0.082069	0.14637	0.12921	0.2195	-2.3812	-3.1021	-3.2771	-2.7208	-3.2875	-3.1042	-2.7333	-3.5729	-2.625	-2.8542	-3.4271	-2.6875	-3.2604	-3.0229	-2.6458	-3.4375	401.719	383.710	359.749	175.792	441.924	451.999	393.001	161.576	311.828	252.941	501.948	458.940	474.575	497.949	292.531	327.738	0.00025818	0.00034676	6.9275e-05	1159.1	4.4796e-06	3.7368e-06	1233.3	237.59	2.9639e-06	5.0847e-06	294.88	82.044	65.795	18.639	6.4882e-07	25.701	0.00019719	0.00019178	5.3058e-05	1124.6	2.1073e-06	2.0889e-06	1202.8	231.93	2.1028e-06	2.0826e-06	285.66	81.31	64.84	18.739	2.1422e-06	25.681	251.343	254.834	211.001	166.975	235.567	269.565	167.077	174.285	338.558	374.335	173.718	180.547	181.201	187.987	280.578	187.789	-8191	255	
2887.122	1	1	0	0	0.11193	0.20986	0.27038	0.11912	0.2964	0.16801	0.11657	0.09977	0.27341	0.23141	0.16629	0.31983	0.10172	0.12273	0.088866	0.1053	-2.4667	-2.6979	-3.3125	-2.6625	-3.1729	-3.2479	-2.8042	-3.4958	-2.9208	-2.7792	-3.4437	-2.7958	-3.0375	-3.2729	-2.7062	-3.525	301.069	227.564	289.053	179.091	418.652	455.265	269.160	325.906	185.212	241.781	513.550	170.186	280.328	233.372	244.137	462.098	0.00021383	0.00014006	6.2569e-05	1157.6	1.4175e-06	2.1345e-06	1235.1	236.52	4.087e-06	3.2497e-06	295.81	82.49	65.84	18.549	4.0666e-06	25.666	0.00019877	0.00019163	5.3832e-05	1125.6	2.1221e-06	2.0873e-06	1205	232.16	2.0979e-06	2.0947e-06	285.89	81.213	64.769	18.749	2.1105e-06	25.71	242.103	226.905	279.839	166.558	290.284	463.332	166.718	174.385	302.215	183.486	174.170	180.742	181.498	188.086	328.719	188.290	-8191	255	
2887.243	1	1	0	0	0.2812	0.021653	0.15725	0.13307	0.2412	0.1605	0.12809	0.27999	0.028543	0.043871	0.094481	0.099491	0.097809	0.23676	0.031172	0.32425	-2.5312	-2.8417	-3.4562	-2.8625	-3.0104	-3.4062	-2.7458	-3.4896	-2.8438	-2.6771	-3.4417	-2.875	-2.9688	-3.3479	-2.6208	-3.3417	475.010	273.441	457.724	215.847	499.447	427.954	408.997	467.746	161.016	366.181	157.226	410.911	237.593	238.929	190.804	385.719	0.00028689	0.00042089	0.00010727	1155.4	3.5767e-06	1.8564e-06	1237.2	234.61	8.4406e-06	9.3973e-07	294.69	81.847	65.812	18.48	1.7854e-06	25.766	0.00019714	0.00019404	5.3706e-05	1123	2.1625e-06	2.1511e-06	1204.7	231.93	2.1501e-06	2.1132e-06	286.23	81.137	64.844	18.673	2.1232e-06	25.686	257.480	251.399	227.520	166.741	323.726	304.567	166.710	174.526	229.295	302.809	174.196	180.511	181.450	187.695	176.478	187.525	-8191	255	
2887.339	1	1	0	0	0.019134	0.22631	0.031123	0.10769	0.20255	0.16381	0.26963	0.12327	0.26627	0.30376	0.068014	0.082113	0.2048	0.24121	0.10468	0.27843	-2.6417	-2.7646	-3.4062	-2.7375	-3.0563	-3.3812	-2.6937	-3.2542	-3.0792	-2.6167	-3.5667	-2.8604	-2.8	-3.3854	-2.4396	-3.2896	315.374	218.172	277.966	197.215	198.832	439.909	417.496	401.688	392.203	477.817	196.887	440.691	432.717	203.477	333.847	197.038	0.00029302	0.00022678	3.4732e-05	1157.9	4.4541e-06	4.5758e-06	1238.4	236.93	4.8587e-06	8.8937e-07	296.28	81.953	65.717	18.955	1.2609e-06	25.563	0.00019802	0.0001945	5.4744e-05	1124.2	2.1669e-06	2.1512e-06	1205.1	231.81	2.2135e-06	2.1655e-06	286.63	81.283	64.863	18.846	2.1851e-06	25.741	246.151	201.215	384.172	166.607	329.121	265.866	166.732	174.404	230.917	450.817	174.067	180.634	181.393	188.097	272.968	188.031	-8191	255	
2887.435	1	1	0	0	0.05266	0.14073	0.24804	0.23937	0.136	0.2016	0.086829	0.15791	0.11772	0.26513	0.14895	0.38349	0.38028	0.13141	0.19322	0.19628	-2.7292	-2.7	-3.3625	-3.0438	-2.8333	-3.3187	-2.925	-3.3167	-3.3083	-2.5229	-3.45	-2.9896	-2.7438	-3.4646	-2.65	-3.4354	403.075	326.104	479.546	175.776	342.202	294.319	420.711	470.333	212.013	213.394	450.332	493.205	161.782	435.077	295.245	260.802	0.00026719	0.00049332	8.6305e-05	1154.6	1.5216e-06	4.9478e-06	1234.4	236.53	4.9934e-06	5.3176e-06	296.24	82.313	65.282	18.721	2.2123e-06	25.508	0.00020406	0.00020003	5.6532e-05	1124.7	2.2179e-06	2.1728e-06	1205.6	232.23	2.1893e-06	2.1838e-06	287.31	81.373	64.979	18.867	2.1815e-06	25.733	242.484	257.778	253.329	166.643	349.054	325.151	166.837	174.355	281.980	351.210	173.499	180.633	181.057	188.125	178.144	187.796	-8191	255	
2887.531	1	1	0	0	0.2053	0.18325	0.14968	0.27758	0.29506	0.28727	0.067819	0.083308	0.2835	0.23694	0.099649	0.16589	0.084511	0.10449	0.26128	0.33575	-3.0062	-2.45	-3.2771	-3.1958	-2.6625	-3.4604	-2.9229	-3.2458	-3.4917	-2.6771	-3.3896	-3.0146	-2.6917	-3.4479	-2.7021	-3.0521	417.442	507.796	445.849	511.319	182.946	425.514	459.428	295.609	281.270	374.539	255.184	475.427	356.423	243.664	402.067	236.055	0.00023625	0.00066054	8.4892e-05	1157.1	1.7196e-06	2.4544e-06	1237.7	238.07	1.7109e-06	2.0138e-06	297.27	81.702	65.56	18.784	1.8014e-06	25.595	0.00020374	0.0002018	5.6426e-05	1126	2.2204e-06	2.2005e-06	1205.3	232.42	2.1744e-06	2.1996e-06	286.91	81.213	64.91	18.843	2.1554e-06	25.731	254.626	269.756	156.837	166.739	431.083	271.226	166.827	174.211	363.336	189.968	173.813	180.684	181.404	188.549	363.350	187.663	-8191	255	
2887.650	1	1	0	0	0.11776	0.048725	0.12047	0.32519	0.26313	0.11331	0.2168	0.09562	0.064318	0.035883	0.029942	0.1866	0.12911	0.16909	0.13375	0.051008	-2.9792	-2.6521	-3.2583	-3.3604	-2.5958	-3.4938	-3.0458	-3.0375	-3.5062	-2.7125	-3.275	-3.1813	-2.6542	-3.5146	-2.9333	-2.9313	493.063	375.003	368.216	494.644	381.341	280.089	383.877	336.591	373.437	489.359	429.244	350.827	398.121	424.831	420.768	450.698	0.0002291	0.00018368	0.00012034	1153.6	8.4154e-07	2.1813e-06	1240.2	235.2	1.7221e-06	3.3519e-06	298.04	82.274	66	18.717	3.2896e-06	25.843	0.00020467	0.00020179	5.4942e-05	1123.1	2.1822e-06	2.1145e-06	1207.4	231.9	2.1698e-06	2.1928e-06	287.06	81.456	64.912	18.817	2.1685e-06	25.727	246.030	322.981	259.239	166.766	235.113	325.717	166.617	174.247	288.899	307.560	174.312	180.399	180.886	188.569	351.265	188.034	-8191	255	
2887.746	1	1	0	0	0.12022	0.161	0.071737	0.04194	0.17653	0.13952	0.29452	0.10811	0.04971	0.17748	0.28571	0.25006	0.17266	0.17019	0.17808	0.2092	-3.0667	-2.7021	-3.1104	-3.4271	-2.5312	-3.3854	-3.0938	-2.8312	-3.5104	-2.6854	-3.1708	-3.425	-2.5271	-3.3521	-3.1	-2.8104	363.009	348.948	343.599	471.508	460.334	434.955	448.057	497.318	158.150	197.248	303.606	397.541	223.827	418.542	473.878	363.985	0.00019392	0.0002486	1.7117e-05	1151.9	3.2734e-06	2.4362e-06	1236.3	235.98	4.8675e-06	3.6002e-06	296.89	82.187	65.598	18.62	2.1611e-06	25.52	0.00020288	0.00019647	5.4421e-05	1121	2.1587e-06	2.1503e-06	1203.4	231.55	2.1569e-06	2.1246e-06	287.31	81.11	64.745	18.718	2.1275e-06	25.682	242.960	332.418	501.960	166.816	347.371	256.880	166.722	174.141	316.595	256.151	173.955	180.693	181.443	187.900	288.143	187.716	-8191	255	
2887.843	1	1	0	0	0.17106	0.11827	0.082457	0.29649	0.086038	0.20174	0.063214	0.30163	0.039436	0.040298	0.2067	0.12709	0.15783	0.18029	0.24053	0.19016	-2.9792	-2.7354	-3.0187	-3.4333	-2.6312	-3.3646	-3.1979	-2.7583	-3.5104	-2.6958	-3.1042	-3.3771	-2.7625	-3.3	-3.1208	-2.6458	299.065	183.648	389.654	507.477	270.197	477.909	380.290	497.413	397.117	279.831	272.432	176.384	343.729	459.200	503.231	182.002	0.00027544	0.00019981	7.2942e-06	1150.6	4.2396e-06	5.473e-06	1234.4	236.66	6.9683e-06	3.9209e-06	296.77	81.927	65.141	18.567	1.7558e-06	25.427	0.00019978	0.00019712	5.48e-05	1120.5	2.164e-06	2.1251e-06	1203.5	231.57	2.1072e-06	2.1345e-06	286.91	81.112	64.596	18.719	2.0989e-06	25.627	251.174	178.643	275.234	167.011	301.365	280.685	166.772	174.361	334.136	331.135	174.012	180.462	181.099	188.170	206.137	188.032	-8191	255	
2887.939	1	1	0	0	0.086435	0.22086	0.08769	0.2937	0.14876	0.20086	0.3698	0.26191	0.17532	0.066839	0.078083	0.079541	0.15234	0.11749	0.21813	0.18667	-2.9979	-2.8146	-2.9521	-3.5646	-2.6562	-3.2292	-3.5042	-2.675	-3.525	-3.0125	-2.9625	-3.4813	-2.6104	-3.0875	-3.3	-2.6937	447.873	410.710	395.139	481.539	250.895	403.690	474.744	394.936	423.245	312.093	217.481	460.173	359.170	300.772	314.021	514.119	0.00025538	0.00039914	0.00012462	1154.5	5.7368e-06	4.9049e-06	1235.4	237.24	3.3738e-06	1.9826e-06	296.3	81.923	65.501	18.575	4.4637e-06	25.643	0.00019499	0.00018995	5.4117e-05	1121	2.1081e-06	2.0808e-06	1202.5	231.64	2.0899e-06	2.0504e-06	286.49	81.062	64.678	18.704	2.0785e-06	25.585	254.600	241.677	300.740	166.752	317.705	313.391	166.641	174.219	296.654	316.521	174.112	180.622	181.515	188.673	195.942	187.574	-8191	255	
2888.035	1	1	0	0	0.15419	0.10572	0.15987	0.073123	0.22951	0.11585	0.24041	0.12921	0.17564	0.13289	0.21898	0.49588	0.10036	0.19571	0.084713	0.031699	-2.9688	-2.9646	-2.7354	-3.4896	-2.6125	-3.0792	-3.5187	-2.7208	-3.4542	-3.1437	-2.6813	-3.4042	-2.7792	-3.0042	-3.4271	-2.7687	271.944	235.557	389.538	208.871	475.897	396.896	488.594	464.837	389.127	346.068	414.784	493.275	475.499	212.952	328.564	373.310	0.0002619	0.00035378	6.5428e-05	1155.4	3.559e-06	1.8937e-06	1238.1	235.94	3.1748e-06	5.8905e-06	296.18	81.61	65.393	18.681	1.5703e-06	25.616	0.00019491	0.0001902	5.3508e-05	1122.6	2.1148e-06	2.0732e-06	1202.1	230.98	2.1101e-06	2.0741e-06	286.2	81.135	64.72	18.742	2.079e-06	25.629	246.265	237.051	193.534	166.889	368.053	289.225	167.078	174.301	317.792	289.330	173.930	180.815	181.329	188.354	315.222	187.696	-8191	255	
2888.131	1	1	0	0	0.053282	0.11081	0.051147	0.22225	0.13785	0.098521	0.52951	0.1975	0.15306	0.11362	0.23438	0.22428	0.12575	0.32514	0.16184	0.12344	-2.8542	-2.8729	-2.7938	-3.6042	-2.8958	-2.8396	-3.4792	-2.7042	-3.3333	-3.2167	-2.6104	-3.4458	-3.0354	-2.8396	-3.3292	-2.7646	305.024	260.135	326.420	508.116	301.494	471.469	456.364	507.691	191.082	506.392	445.112	357.821	469.743	186.338	291.821	468.313	0.00022883	0.00045851	9.1569e-05	1153.1	2.9183e-06	4.1875e-06	1228.5	233.09	4.3382e-06	2.679e-06	295.3	82.031	65.715	18.652	2.4234e-06	25.598	0.00019118	0.00018914	5.1643e-05	1119.6	2.0732e-06	2.0485e-06	1198.4	230.57	2.0481e-06	2.0009e-06	284.66	80.978	64.525	18.637	2.0044e-06	25.55	256.430	227.898	264.212	166.955	284.675	296.825	166.610	174.114	320.483	283.492	174.126	180.705	180.935	188.215	345.505	187.496	-8191	255	
2888.252	1	1	0	0	0.16781	0.2457	0.2762	0.20511	0.30975	0.090108	0.22002	0.24573	0.22576	0.221	0.26683	0.053723	0.21233	0.2249	0.10893	0.32221	-2.9313	-3.2708	-2.6542	-3.4417	-2.8417	-2.6437	-3.5604	-2.625	-3.2188	-3.4188	-2.7458	-3.6604	-2.9146	-2.8125	-3.3104	-2.7479	349.109	486.291	225.541	446.062	222.741	477.498	453.688	169.389	411.715	269.130	412.962	190.695	344.163	458.307	396.972	172.349	0.00029913	0.00021503	8.3007e-05	1152.5	2.0448e-06	4.2888e-06	1233.3	235.65	1.5765e-06	4.4791e-06	294.36	81.857	65.155	18.555	5.0844e-06	25.434	0.00018736	0.00018048	5.0397e-05	1117.3	1.9799e-06	2.0167e-06	1199.1	230.68	2.0185e-06	2.0129e-06	283.86	80.852	64.487	18.659	2.0219e-06	25.479	260.381	240.680	255.904	166.805	301.859	234.203	166.940	174.298	327.234	390.655	173.933	180.664	181.238	188.530	293.568	187.831	-8191	255	
2888.346	1	1	0	0	0.1579	0.26149	0.24074	0.27588	0.038913	0.27221	0.38955	0.18159	0.080986	0.1543	0.13841	0.24759	0.063919	0.3905	0.42331	0.14739	-2.6333	-3.4667	-2.6917	-3.5146	-3.0229	-2.7917	-3.4708	-2.7208	-3.1396	-3.3521	-2.5667	-3.4396	-3.2646	-2.5187	-3.4958	-2.8583	232.227	233.777	189.495	439.611	483.035	360.441	431.929	450.330	260.637	460.091	443.589	351.600	282.790	479.714	423.402	181.479	0.0002208	0.00039729	0.00011441	1155.3	2.0811e-06	2.219e-06	1227.3	235.81	4.9117e-06	1.441e-06	293.68	81.948	64.742	18.572	2.2236e-06	25.633	0.00018813	0.00018086	5.0779e-05	1118.3	2.0119e-06	2.0256e-06	1198	230.67	2.0567e-06	1.9885e-06	283.5	80.775	64.257	18.636	2.0057e-06	25.455	252.813	245.494	185.456	166.903	211.266	323.635	167.037	174.314	273.527	275.758	174.092	180.517	181.165	188.279	368.307	187.798	-8191	255	
2888.419	1	1	0	0	0.0929	0.20238	0.098324	0.10675	0.31576	0.11181	0.26084	0.18829	0.11174	0.18091	0.21826	0.095178	0.229	0.21681	0.059189	0.22265	-2.4042	-3.175	-2.7521	-3.2104	-3.175	-2.6792	-3.4583	-2.9646	-2.9437	-3.4208	-2.6667	-3.2854	-3.3146	-2.8104	-3.5396	-2.9833	404.237	296.506	312.352	442.111	435.766	485.447	466.972	491.979	232.184	352.635	452.893	336.504	168.720	459.034	375.963	281.842	0.00021196	2.7935e-05	8.0982e-05	1150.3	5.1202e-06	4.1045e-06	1228.9	234.82	3.638e-06	4.4286e-06	293.49	81.531	65.097	18.655	3.9688e-06	25.446	0.00018933	0.00018276	5.0612e-05	1116	1.9971e-06	2.0161e-06	1198.4	230.09	2.001e-06	1.9896e-06	284.27	80.591	64.213	18.653	1.9761e-06	25.469	263.276	376.018	285.369	166.960	347.380	279.107	166.891	174.391	265.252	255.749	173.654	180.698	181.265	188.347	271.240	187.530	-8191	255	
2888.516	1	1	0	0	0.057803	0.21935	0.11275	0.14831	0.063484	0.075115	0.1278	0.27778	0.24042	0.34754	0.11841	0.084973	0.10078	0.20532	0.30341	0.089182	-2.3187	-3.5062	-2.8312	-3.2792	-3.3937	-2.6708	-3.5458	-3.1271	-2.6458	-3.4917	-2.7438	-3.1104	-3.4708	-2.5625	-3.4313	-2.9917	454.469	161.236	247.894	486.830	163.426	280.451	414.395	459.428	312.630	324.107	182.675	314.309	316.367	204.646	364.258	454.986	0.00023807	0.0004098	2.4031e-05	1151.8	2.518e-06	5.3308e-06	1226.7	234.6	1.6272e-06	6.0519e-07	293.55	81.288	65.501	18.692	2.5286e-06	25.585	0.00018083	0.00017784	5.0082e-05	1115.6	1.9019e-06	1.9396e-06	1194.6	229.82	1.9528e-06	1.9485e-06	284.35	80.51	64.306	18.646	1.9414e-06	25.436	241.862	228.983	163.987	166.983	242.182	276.499	167.129	174.205	331.344	205.565	173.897	180.781	181.289	188.380	314.084	187.538	-8191	255	
2888.635	1	1	0	0	0.26058	0.07572	0.28321	0.097399	0.11776	0.12273	0.064094	0.097944	0.1111	0.26875	0.25185	0.32039	0.1436	0.28523	0.13356	0.25376	-2.2812	-3.4896	-2.6896	-3.0917	-3.2062	-2.5792	-3.4854	-3.3042	-2.7896	-3.3208	-2.8271	-3.0438	-3.4729	-2.7458	-3.1771	-3.2521	324.114	394.796	379.918	477.083	347.987	402.910	297.560	435.693	209.579	277.160	504.306	157.751	444.477	480.536	311.627	459.335	0.00020356	0.00028398	7.3998e-05	1147.4	4.3133e-06	3.603e-06	1226	233.85	2.3526e-06	1.7435e-06	296.05	81.83	65.124	18.627	1.9817e-06	25.449	0.00018623	0.00018038	5.0385e-05	1113.8	2.0004e-06	2.0082e-06	1193.9	229.72	1.9754e-06	1.96e-06	284.47	80.834	64.341	18.604	1.9409e-06	25.388	237.914	333.519	228.782	166.932	257.995	406.091	166.788	174.483	321.181	444.688	174.161	180.770	181.122	188.487	303.904	187.857	-8191	255	
2888.731	1	1	0	0	0.23716	0.18849	0.081957	0.091396	0.43489	0.02674	0.31232	0.22722	0.4686	0.073256	0.13687	0.38879	0.26272	0.11549	0.060066	0.11213	-2.2667	-3.3583	-2.8917	-2.9479	-3.4771	-2.6271	-3.4771	-3.2687	-2.6458	-3.3771	-2.9625	-2.8854	-3.4417	-2.7292	-3.05	-3.4062	509.218	312.105	272.619	512.780	315.875	270.318	481.734	412.607	397.752	444.905	190.818	189.194	464.509	413.985	248.347	339.226	0.00025258	0.00018617	2.8759e-05	1148.6	4.6197e-06	1.1413e-06	1228.3	235.91	3.6523e-06	4.0089e-06	293.98	81.561	65.178	18.563	2.392e-06	25.467	0.00018668	0.00018136	5.0394e-05	1115.6	1.9553e-06	2.0084e-06	1195.3	230.07	2.0233e-06	1.9646e-06	283.64	80.669	64.426	18.577	2.0056e-06	25.422	262.301	433.770	247.397	167.267	287.633	224.497	166.943	174.325	310.967	305.238	174.301	180.983	181.385	187.991	354.011	187.896	-8191	255	
2888.827	1	1	0	0	0.20451	0.20851	0.17401	0.14011	0.10719	0.038013	0.022606	0.26857	0.20216	0.069938	0.28809	0.048245	0.014669	0.15946	0.10979	0.31506	-2.2188	-3.3625	-2.8333	-2.7521	-3.2396	-2.7062	-3.3438	-3.4167	-2.7167	-3.3646	-3.1729	-2.7021	-3.475	-2.7542	-3.025	-3.3063	220.187	285.926	422.019	363.915	188.117	466.541	165.548	422.375	381.340	203.120	491.798	482.861	310.681	427.781	413.482	471.718	0.0001472	0.00037648	0.00012125	1150.9	3.3459e-06	3.9494e-06	1223.9	234.66	6.0548e-06	1.4186e-06	294.45	81.791	65.339	18.487	4.1222e-06	25.315	0.00018784	0.00018612	5.1045e-05	1115.1	2.0542e-06	2.0246e-06	1194.1	230.26	2.0762e-06	2.0631e-06	284.2	80.654	64.383	18.586	2.0359e-06	25.417	240.277	222.283	293.662	166.964	228.534	378.959	166.922	174.386	265.608	325.902	173.819	180.913	181.106	188.630	284.673	188.261	-8191	255	
2888.923	1	1	0	0	0.23699	0.14786	0.14943	0.4463	0.11499	0.058344	0.17194	0.063886	0.13474	0.20367	0.05302	0.26162	0.16113	0.090833	0.16123	0.31828	-2.1125	-3.4896	-3.0083	-2.8667	-3.4979	-2.9	-3.1229	-3.4521	-2.4979	-3.3208	-3.1271	-2.7896	-3.4125	-2.9	-2.8667	-3.4125	405.163	226.654	510.209	491.098	226.018	404.961	472.507	228.744	282.744	283.277	489.505	169.115	473.897	254.948	327.214	442.133	0.00022197	0.00055392	8.535e-05	1146.4	3.9959e-06	2.9596e-07	1224.2	233.28	3.5169e-06	3.2187e-06	295.01	81.149	65.343	18.417	1.6396e-06	25.405	0.00019071	0.00018599	5.2146e-05	1113.8	2.0767e-06	2.0459e-06	1194.5	229.57	2.0575e-06	2.0197e-06	284.36	80.586	64.363	18.605	2.0329e-06	25.39	240.092	271.770	331.083	167.044	197.349	366.588	167.011	174.517	287.985	358.459	173.926	180.825	181.379	188.620	315.799	187.774	-8191	255	
2889.044	1	1	0	0	0.32942	0.25545	0.076265	0.25637	0.27801	0.14079	0.17513	0.09769	0.26996	0.26674	0.050351	0.12601	0.11963	0.054885	0.1094	0.14305	-2.075	-3.1542	-3.2896	-2.8708	-3.4104	-2.9729	-2.8917	-3.4583	-2.7062	-3.0792	-3.2313	-2.5292	-3.4042	-2.9479	-2.7208	-3.5104	488.363	287.685	350.993	459.706	443.768	236.189	439.378	375.447	190.829	435.063	219.667	201.952	325.193	186.362	387.972	207.151	0.00025604	0.00065019	6.8031e-05	1144.9	2.16e-06	2.1903e-06	1229	233.26	2.9662e-06	1.0129e-06	293.52	81.375	64.844	18.556	4.4617e-06	25.211	0.00019147	0.00018386	4.994e-05	1111.4	2.0404e-06	1.9757e-06	1195.3	229.31	2.0219e-06	2.0024e-06	283.72	80.509	64.082	18.589	2.0487e-06	25.42	243.404	191.159	224.323	167.016	249.262	377.423	166.923	174.731	327.193	488.559	173.912	180.978	181.285	188.404	325.256	187.971	-8191	255	
2889.115	1	1	0	0	0.060928	0.12409	0.10424	0.15978	0.074929	0.33275	0.25847	0.098729	0.057472	0.21439	0.30885	0.15927	0.22167	0.16299	0.069304	0.10952	-2.3708	-2.9521	-3.1958	-2.6583	-3.2417	-3.0062	-2.8771	-3.6458	-2.8063	-2.9375	-3.4104	-2.8438	-3.5771	-3.0792	-2.5896	-3.6354	375.784	506.291	167.969	514.360	204.602	382.962	466.569	507.564	336.484	498.387	441.442	369.034	497.448	414.286	476.926	476.679	0.00027485	0.00019061	0.00013447	1146	4.7774e-06	2.2203e-06	1228.6	233.04	2.4236e-06	3.0587e-06	292.9	81.147	65.524	18.536	8.6575e-07	25.546	0.0001883	0.00018435	5.1398e-05	1112.9	2.0212e-06	2.0169e-06	1193.4	229.69	2.0336e-06	2.0323e-06	283.65	80.506	64.268	18.572	2.0224e-06	25.499	261.172	309.568	220.972	167.172	317.782	394.446	167.149	174.544	329.054	429.985	174.118	180.706	181.439	188.160	231.559	188.017	-8191	255	
2889.211	1	1	0	0	0.13127	0.25558	0.13244	0.38055	0.25131	0.11481	0.19736	0.17093	0.17836	0.23475	0.15256	0.16865	0.19681	0.14023	0.1254	0.17414	-2.4083	-2.8396	-3.4104	-2.8229	-3.1688	-3.3021	-2.825	-3.5938	-2.9021	-2.9625	-3.3542	-2.725	-3.3146	-3.2125	-2.5917	-3.3917	187.933	244.865	443.758	487.079	299.840	163.721	496.034	417.477	207.238	296.895	179.799	502.351	357.433	193.014	294.565	449.915	0.00022638	0.00042393	6.5772e-05	1143.9	5.0942e-06	3.741e-06	1225	233.17	7.0717e-07	4.2901e-06	295.89	81.628	64.922	18.656	2.1768e-06	25.404	0.00018886	0.00018284	5.1413e-05	1110.3	2.0206e-06	2.0072e-06	1191.3	229.65	2.0157e-06	1.9971e-06	284.48	80.445	64.265	18.629	2.0099e-06	25.413	245.109	234.721	235.155	166.747	295.935	226.985	167.088	174.407	419.139	308.161	173.963	180.768	181.407	188.250	319.269	187.883	-8191	255	
2889.332	1	1	0	0	0.24519	0.20262	0.1058	0.047943	0.14658	0.24122	0.14342	0.35048	0.20931	0.22907	0.084884	0.13829	0.064844	0.097174	0.40044	0.063163	-2.6354	-2.7792	-3.425	-2.7	-3.125	-3.3812	-2.7396	-3.35	-2.85	-2.65	-3.4292	-2.7104	-2.9521	-3.3104	-2.4792	-3.2979	328.619	214.813	263.572	344.595	399.633	172.508	456.923	451.782	499.924	315.073	427.578	201.555	230.716	437.562	449.314	328.861	0.00028626	0.00016648	6.89e-05	1146.4	3.0024e-06	1.5161e-06	1222.3	234.63	4.0547e-06	2.2623e-06	296	81.205	65.218	18.644	3.1096e-06	25.318	0.00018749	0.00018294	5.1907e-05	1111.6	2.016e-06	2.0023e-06	1192.8	230.14	2.0376e-06	2.0149e-06	284.26	80.439	64.323	18.565	2.0231e-06	25.418	250.458	318.189	388.428	166.997	295.166	348.273	167.136	174.476	266.160	414.912	173.975	180.504	181.415	188.447	325.248	187.761	-8191	255	
2889.428	1	1	0	0	0.28975	0.13326	0.22179	0.060178	0.024218	0.071902	0.21793	0.077497	0.14277	0.10434	0.14664	0.20736	0.082401	0.10963	0.14884	0.16384	-2.4688	-2.5167	-3.4688	-2.8792	-2.8792	-3.3646	-2.7625	-3.3563	-3.025	-2.5375	-3.4104	-2.8438	-2.975	-3.4688	-2.6021	-3.3125	212.674	435.836	192.970	316.847	270.468	220.269	407.058	497.536	346.363	294.088	485.024	432.679	217.290	219.241	368.527	190.323	0.00024462	0.00046247	0.00012704	1146.3	1.7203e-06	4.8099e-06	1223.2	235.43	1.7313e-06	4.7406e-06	294.9	81.984	64.919	18.585	5.1463e-07	25.534	0.00019051	0.00018646	5.1511e-05	1113.3	2.0661e-06	2.0528e-06	1191.7	230.26	2.0646e-06	2.0425e-06	285.13	80.733	64.276	18.615	2.0046e-06	25.428	257.294	244.489	179.602	167.069	314.523	282.860	166.910	174.112	300.930	350.828	173.866	181.278	180.956	188.516	330.714	188.419	-8191	255	
2889.524	1	1	0	0	0.04293	0.14007	0.098639	0.20794	0.026542	0.17149	0.051962	0.14773	0.19232	0.20357	0.12059	0.038639	0.16933	0.21592	0.25427	0.11292	-2.7583	-2.6312	-3.475	-2.8833	-2.9562	-3.5438	-2.7313	-3.3271	-3.2917	-2.5917	-3.4667	-2.9833	-2.9062	-3.4875	-2.7854	-3.2479	468.585	195.942	198.907	465.947	213.292	364.758	282.662	479.044	194.303	278.634	215.008	319.835	386.217	218.644	455.580	408.030	0.00024014	0.00029158	0.00014989	1146.3	5.0827e-06	2.6672e-06	1224.9	234.32	3.974e-06	7.1009e-06	294.31	81.682	64.924	18.633	2.6247e-06	25.383	0.00019053	0.00018323	5.2031e-05	1112.7	2.0869e-06	2.0419e-06	1193.7	229.67	2.0427e-06	2.014e-06	284.32	80.765	64.295	18.65	2.0095e-06	25.535	253.231	288.671	240.468	166.870	316.621	225.568	166.804	174.182	295.593	333.245	173.811	180.705	181.278	188.740	340.633	187.986	-8191	255	
2889.643	1	1	0	0	0.21685	0.14884	0.21131	0.043824	0.14871	0.23998	0.099514	0.17584	0.24535	0.076044	0.069899	0.046744	0.31372	0.214	0.12515	0.10812	-3.0417	-2.7292	-3.325	-3.2229	-2.7625	-3.4562	-2.7333	-3.1312	-3.2917	-2.5729	-3.3917	-3.0542	-2.7229	-3.5187	-2.8333	-3.125	190.176	283.788	500.117	210.922	207.596	348.956	280.402	470.262	380.897	312.441	503.851	214.081	232.529	491.966	323.227	361.370	0.00024026	0.00056905	4.3481e-05	1140.9	4.5015e-06	2.4282e-06	1222.3	233.96	1.407e-06	1.3774e-06	295.25	81.755	65.359	18.476	1.6832e-06	25.504	0.0001859	0.00018506	5.1198e-05	1108.7	2.03e-06	2.0043e-06	1192	229.68	2.0245e-06	2.0306e-06	283.88	80.517	64.362	18.606	2.0136e-06	25.457	251.608	242.628	301.576	166.983	302.297	211.184	167.086	174.455	274.427	293.293	173.675	180.915	181.292	188.155	375.482	187.807	-8191	255	
2889.715	1	1	0	0	0.1243	0.081391	0.12248	0.1189	0.062123	0.11183	0.091487	0.1483	0.14084	0.19896	0.12286	0.25254	0.26143	0.067718	0.11469	0.29148	-2.9875	-2.6208	-3.2708	-3.2188	-2.8417	-3.3229	-2.9146	-2.7438	-3.2708	-2.5896	-3.2812	-3.3083	-2.6042	-3.3875	-2.9188	-2.8646	231.658	179.836	483.628	439.939	353.559	471.768	175.709	397.787	261.088	428.470	308.148	447.543	179.161	435.200	428.027	190.620	0.00026376	0.00039644	0.00013003	1142.1	2.7561e-06	4.9828e-06	1227.4	235.6	2.9185e-06	4.9423e-06	294.38	81.383	64.548	18.641	2.3189e-06	25.285	0.00018407	0.0001838	5.0332e-05	1110.4	2.0314e-06	1.9744e-06	1191.8	230.02	2.0188e-06	2.0011e-06	284.43	80.484	64.175	18.604	2.0177e-06	25.406	240.718	201.349	208.923	166.878	399.777	330.972	166.860	174.111	229.524	274.296	174.542	180.301	181.730	188.268	241.843	188.359	-8191	255	
2889.811	1	1	0	0	0.29283	0.24689	0.27817	0.061971	0.29352	0.10672	0.16283	0.15269	0.041328	0.17995	0.11121	0.30638	0.133	0.12587	0.36323	0.26439	-2.9208	-2.6167	-3.1229	-3.1979	-2.5312	-3.2771	-3.0563	-2.85	-3.4104	-2.6854	-2.9708	-3.425	-2.6583	-3.2438	-2.7854	-2.7354	419.945	441.416	194.148	312.872	414.600	183.706	485.266	354.184	234.509	248.582	213.009	400.262	260.301	483.235	243.499	278.896	0.00029882	0.00019896	3.9006e-05	1145.3	2.1519e-06	3.6591e-06	1226.7	234.37	3.3569e-06	4.3693e-06	293.9	81.558	65.416	18.46	1.6632e-06	25.479	0.00018633	0.00018374	5.0917e-05	1110.5	2.0167e-06	2.0125e-06	1192.6	230.05	2.014e-06	1.9823e-06	283.94	80.673	64.275	18.606	2.0172e-06	25.552	247.793	374.480	265.790	166.756	255.610	341.822	166.867	174.823	329.635	381.496	174.357	180.848	181.576	188.390	348.931	187.766	-8191	255	
2889.932	1	1	0	0	0.19929	0.25596	0.14008	0.096402	0.02354	0.037513	0.31776	0.2718	0.21551	0.099227	0.11672	0.19028	0.22572	0.063723	0.098299	0.20406	-3.0312	-2.6521	-2.975	-3.3375	-2.4688	-3.3021	-3.2521	-2.8021	-3.4062	-2.7875	-3.0729	-3.3	-2.5938	-3.0354	-3.0604	-2.7208	310.370	326.917	342.506	484.317	169.721	245.090	448.212	430.290	248.854	255.230	179.660	159.926	476.721	495.345	510.069	495.737	0.00023114	0.00027069	9.2138e-05	1144.7	1.4795e-06	6.7077e-06	1222.6	234.53	3.3385e-06	2.2189e-06	294.43	81.561	65.229	18.441	1.0801e-06	25.42	0.00018843	0.00018112	5.0669e-05	1111.9	2.0362e-06	1.9879e-06	1190.9	229.94	2.0073e-06	1.9688e-06	283.93	80.412	64.331	18.635	1.9725e-06	25.365	244.660	262.906	263.444	167.117	372.492	255.363	167.113	174.292	266.704	495.386	174.481	180.953	181.349	188.180	321.895	187.780	-8191	255	
2890.028	1	1	0	0	0.16097	0.20678	0.20901	0.28885	0.25034	0.15487	0.3917	0.19303	0.09524	0.27326	0.10103	0.16827	0.15306	0.21158	0.10259	0.16293	-2.9562	-2.7604	-2.7771	-3.5021	-2.775	-3.1042	-3.2687	-2.8333	-3.3937	-2.9021	-2.8521	-3.5229	-2.575	-3.0625	-3.2354	-2.6021	302.594	339.382	180.226	467.704	433.640	467.551	446.609	182.350	427.271	401.622	507.729	500.119	325.870	238.200	310.119	239.088	0.00027452	0.000132	0.00010951	1149.2	2.368e-06	1.3168e-06	1221.7	235.51	1.9428e-06	5.2904e-06	294.19	81.738	64.941	18.497	4.1025e-06	25.318	0.00018357	0.00017642	5.0033e-05	1111.7	1.9896e-06	1.9271e-06	1192.5	230.34	1.9705e-06	2.0063e-06	283.82	80.623	64.034	18.587	1.9715e-06	25.437	262.686	222.936	191.515	166.974	337.076	210.985	166.763	174.410	417.535	294.046	173.870	180.586	181.361	188.651	333.162	187.907	-8191	255	
#DATA ENDS
