BOXY.EXE: ISS Imagent and Oximeter Data Acquisition Program Version 0.80
Ascii Record File

#ACQ INFORMATION
2  Detector Channels 
16  External MUX Channels 
1  Auxiliary Channels 
5000  Waveform (CCF) Frequency (Hz)
1  Waveforms Skipped 
30  Waveforms Averaged 
1  Cycles Averaged 
16  Acquisitions per Waveform 
10.0806  Updata Rate (Hz) 

#FILE INFORMATION
TRUE -- External MUX Channel results are PARSED.
FALSE -- AC DC and Phase are NOT grouped.
TRUE -- Companion Program Settings File CREATED.
FALSE -- AC data not excluded
FALSE -- DC data not excluded
FALSE -- Phase data not excluded
FALSE -- Auxillary Chn. data not excluded
Tab delimiters

#CALIBRATION STATE
TRUE -- Waveform Calibration Values APPLIED.


#AUX CALIBRATION VALUES
Val Type	aux-1	

Term	1.0000e+00	
Factor	0.0000e+00	


#WF CALIBRATION VALUES
A = Detector Channel
Val Type	A-AC1	A-AC2	A-AC3	A-AC4	A-AC5	A-AC6	A-AC7	A-AC8	A-AC9	A-AC10	A-AC11	A-AC12	A-AC13	A-AC14	A-AC15	A-AC16	A-DC1	A-DC2	A-DC3	A-DC4	A-DC5	A-DC6	A-DC7	A-DC8	A-DC9	A-DC10	A-DC11	A-DC12	A-DC13	A-DC14	A-DC15	A-DC16	A-Ph1	A-Ph2	A-Ph3	A-Ph4	A-Ph5	A-Ph6	A-Ph7	A-Ph8	A-Ph9	A-Ph10	A-Ph11	A-Ph12	A-Ph13	A-Ph14	A-Ph15	A-Ph16	

Term	0.00000e+00	0.00000e+00	0.00000e+00	0.00000e+00	0.00000e+00	0.00000e+00	0.00000e+00	0.00000e+00	0.00000e+00	0.00000e+00	0.00000e+00	0.00000e+00	0.00000e+00	0.00000e+00	0.00000e+00	0.00000e+00	0.00000e+00	0.00000e+00	0.00000e+00	0.00000e+00	0.00000e+00	0.00000e+00	0.00000e+00	0.00000e+00	0.00000e+00	0.00000e+00	0.00000e+00	0.00000e+00	0.00000e+00	0.00000e+00	0.00000e+00	0.00000e+00	0.00000e+00	0.00000e+00	0.00000e+00	0.00000e+00	0.00000e+00	0.00000e+00	0.00000e+00	0.00000e+00	0.00000e+00	0.00000e+00	0.00000e+00	0.00000e+00	0.00000e+00	0.00000e+00	0.00000e+00	0.00000e+00	
Factor	1.00000e+00	1.00000e+00	1.00000e+00	1.00000e+00	1.00000e+00	1.00000e+00	1.00000e+00	1.00000e+00	1.00000e+00	1.00000e+00	1.00000e+00	1.00000e+00	1.00000e+00	1.00000e+00	1.00000e+00	1.00000e+00	1.00000e+00	1.00000e+00	1.00000e+00	1.00000e+00	1.00000e+00	1.00000e+00	1.00000e+00	1.00000e+00	1.00000e+00	1.00000e+00	1.00000e+00	1.00000e+00	1.00000e+00	1.00000e+00	1.00000e+00	1.00000e+00	X	X	X	X	X	X	X	X	X	X	X	X	X	X	X	X	

B = Detector Channel
Val Type	B-AC1	B-AC2	B-AC3	B-AC4	B-AC5	B-AC6	B-AC7	B-AC8	B-AC9	B-AC10	B-AC11	B-AC12	B-AC13	B-AC14	B-AC15	B-AC16	B-DC1	B-DC2	B-DC3	B-DC4	B-DC5	B-DC6	B-DC7	B-DC8	B-DC9	B-DC10	B-DC11	B-DC12	B-DC13	B-DC14	B-DC15	B-DC16	B-Ph1	B-Ph2	B-Ph3	B-Ph4	B-Ph5	B-Ph6	B-Ph7	B-Ph8	B-Ph9	B-Ph10	B-Ph11	B-Ph12	B-Ph13	B-Ph14	B-Ph15	B-Ph16	

Term	0.00000e+00	0.00000e+00	0.00000e+00	0.00000e+00	0.00000e+00	0.00000e+00	0.00000e+00	0.00000e+00	0.00000e+00	0.00000e+00	0.00000e+00	0.00000e+00	0.00000e+00	0.00000e+00	0.00000e+00	0.00000e+00	0.00000e+00	0.00000e+00	0.00000e+00	0.00000e+00	0.00000e+00	0.00000e+00	0.00000e+00	0.00000e+00	0.00000e+00	0.00000e+00	0.00000e+00	0.00000e+00	0.00000e+00	0.00000e+00	0.00000e+00	0.00000e+00	-7.43740e+01	-1.28316e+02	-1.28292e+02	-1.84666e+02	-6.09405e+01	-9.26518e+01	-1.57220e+02	-1.62015e+02	-6.83234e+01	-6.49300e+01	-1.71356e+02	-1.71554e+02	-1.80605e+02	-1.78112e+02	-5.87324e+01	-1.50478e+02	
Factor	1.69462e-05	1.09168e-04	3.22790e-05	1.81303e-01	1.25172e-06	1.14954e-06	1.71467e-01	5.38756e-02	1.13096e-06	1.21214e-06	1.27027e-01	2.77678e-02	2.53669e-02	8.93279e-03	9.87240e-07	1.27691e-02	1.16641e-06	1.21360e-06	3.37925e-07	9.36980e-02	1.32701e-08	1.33200e-08	8.34584e-02	2.80064e-02	1.32587e-08	1.33078e-08	6.16425e-02	1.38762e-02	1.31430e-02	4.61932e-03	1.32892e-08	6.33447e-03	X	X	X	X	X	X	X	X	X	X	X	X	X	X	X	X	



#DISTANCE SETTINGS
A = Detector Channel
A-1	A-2	A-3	A-4	A-5	A-6	A-7	A-8	A-9	A-10	A-11	A-12	A-13	A-14	A-15	A-16	

2.5000e+00	3.0000e+00	2.5000e+00	3.0000e+00	2.0000e+00	3.0000e+00	1.5000e+00	3.0000e+00	3.0000e+00	3.0000e+00	3.0000e+00	3.0000e+00	3.0000e+00	3.0000e+00	1.5000e+00	3.0000e+00	

B = Detector Channel
B-1	B-2	B-3	B-4	B-5	B-6	B-7	B-8	B-9	B-10	B-11	B-12	B-13	B-14	B-15	B-16	

1.0000e+01	1.0000e+01	1.0000e+01	1.4400e+00	1.0000e+01	1.0000e+01	1.5100e+00	1.9400e+00	1.0000e+01	1.0000e+01	1.9900e+00	2.4900e+00	2.4100e+00	2.9000e+00	1.0000e+01	2.9800e+00	




#DATA BEGINS
time	group	step	mark	flag	A-AC1	A-AC2	A-AC3	A-AC4	A-AC5	A-AC6	A-AC7	A-AC8	A-AC9	A-AC10	A-AC11	A-AC12	A-AC13	A-AC14	A-AC15	A-AC16	A-DC1	A-DC2	A-DC3	A-DC4	A-DC5	A-DC6	A-DC7	A-DC8	A-DC9	A-DC10	A-DC11	A-DC12	A-DC13	A-DC14	A-DC15	A-DC16	A-Ph1	A-Ph2	A-Ph3	A-Ph4	A-Ph5	A-Ph6	A-Ph7	A-Ph8	A-Ph9	A-Ph10	A-Ph11	A-Ph12	A-Ph13	A-Ph14	A-Ph15	A-Ph16	B-AC1	B-AC2	B-AC3	B-AC4	B-AC5	B-AC6	B-AC7	B-AC8	B-AC9	B-AC10	B-AC11	B-AC12	B-AC13	B-AC14	B-AC15	B-AC16	B-DC1	B-DC2	B-DC3	B-DC4	B-DC5	B-DC6	B-DC7	B-DC8	B-DC9	B-DC10	B-DC11	B-DC12	B-DC13	B-DC14	B-DC15	B-DC16	B-Ph1	B-Ph2	B-Ph3	B-Ph4	B-Ph5	B-Ph6	B-Ph7	B-Ph8	B-Ph9	B-Ph10	B-Ph11	B-Ph12	B-Ph13	B-Ph14	B-Ph15	B-Ph16	aux-1	digaux	

2860.041	1	1	0	256	0.182	0.10918	0.25944	0.47949	0.037708	0.37034	0.24193	0.12034	0.032895	0.17022	0.23514	0.2673	0.18033	0.25803	0.078632	0.10589	-2.1188	-3.0042	-3.2208	-2.9146	-3.2229	-2.9021	-2.8521	-3.5938	-2.6396	-2.9521	-3.2979	-2.75	-3.2979	-3.2208	-2.5625	-3.4042	241.369	162.698	242.915	481.503	391.897	350.362	432.252	155.454	329.932	250.180	242.622	448.938	412.617	486.574	180.415	487.094	0.00056728	0.00038186	2.0051e-05	1479.2	4.9059e-06	4.6826e-06	1471.5	400.96	7.1419e-06	5.8809e-06	459.37	152.72	133.81	45.29	3.2472e-06	56.034	0.00034286	0.00033157	9.169e-05	1478.7	3.6647e-06	3.6959e-06	1475	403.29	3.745e-06	3.7909e-06	454.13	153.09	133.68	45.892	3.9464e-06	56.436	236.903	270.633	239.499	164.943	314.646	271.471	164.649	169.581	247.444	294.349	168.886	173.463	174.026	178.152	295.798	177.610	-8191	255	
2860.162	1	1	0	0	0.16321	0.16763	0.081822	0.11508	0.099878	0.11341	0.096144	0.12633	0.14513	0.22174	0.18614	0.15205	0.23009	0.23264	0.057601	0.096877	-2.4208	-2.7042	-3.3083	-2.9729	-3.1583	-3.1667	-2.8646	-3.7375	-2.9458	-2.8521	-3.5833	-2.7979	-3.3167	-3.3271	-2.6583	-3.5375	444.559	346.807	397.538	406.627	410.970	184.149	413.066	495.110	459.002	232.709	277.912	492.025	184.076	180.831	480.373	447.899	0.00057106	6.0521e-05	0.00010504	1477.5	2.4702e-06	1.7179e-06	1473.3	400.06	7.9983e-06	4.1826e-06	457.54	152.2	133.88	45.454	3.0601e-06	55.86	0.00037648	0.00036469	0.00010176	1482	4.1171e-06	4.0949e-06	1480.8	403.53	4.1247e-06	4.0918e-06	455.09	152.85	133.72	45.901	4.073e-06	56.3	246.107	180.340	276.159	164.785	307.450	344.576	165.019	169.540	281.409	304.771	169.203	173.137	174.054	178.175	298.225	177.424	-8191	255	
2860.258	1	1	0	0	0.23895	0.28721	0.12439	0.21734	0.07209	0.090877	0.19359	0.18972	0.16963	0.17268	0.31918	0.058539	0.098105	0.24886	0.22359	0.21955	-2.4146	-2.5292	-3.4542	-2.7938	-2.9229	-3.3417	-2.6708	-3.3646	-2.8333	-2.6312	-3.4729	-2.9625	-3.0729	-3.5479	-2.7938	-3.4062	508.727	177.403	362.029	454.899	201.832	436.743	445.936	459.896	477.104	484.440	459.241	492.089	405.072	175.436	385.924	500.597	0.00055714	0.00071912	6.6277e-05	1483.6	4.9446e-06	2.8202e-06	1473.9	402.63	3.3533e-06	2.9837e-06	457.99	152.42	133.45	45.351	4.9924e-06	55.878	0.00038227	0.00037705	0.00010335	1482.8	4.058e-06	4.0595e-06	1479.9	403.17	4.0507e-06	4.0117e-06	454.84	153.22	133.76	45.848	4.0669e-06	56.292	243.785	251.448	273.739	164.701	234.694	228.450	164.758	169.725	293.966	256.829	168.854	172.879	174.479	178.637	279.153	177.740	-8191	255	
2860.354	1	1	0	0	0.12281	0.16282	0.23256	0.067764	0.15869	0.18779	0.28876	0.17433	0.15936	0.25207	0.13969	0.28606	0.097316	0.19576	0.20705	0.15839	-2.7875	-2.4958	-3.4208	-2.9271	-2.9813	-3.4875	-2.6917	-3.5687	-3.1042	-2.6208	-3.4583	-2.8125	-3.0167	-3.4229	-2.6729	-3.2667	376.419	407.079	473.048	507.603	171.996	493.878	471.575	504.199	190.085	223.557	269.669	487.866	172.607	428.869	313.943	485.002	0.00055139	0.0007536	5.3641e-05	1479.9	2.5906e-06	6.1258e-06	1471.7	398.47	6.4985e-06	4.6252e-06	455.83	151.74	131.83	45.242	2.8783e-06	55.666	0.00038779	0.00037556	0.00010576	1481.8	4.2797e-06	4.2794e-06	1477	401.62	4.3589e-06	4.3964e-06	453.69	152.79	133.02	45.781	4.3988e-06	56.22	246.289	219.901	276.732	164.995	294.498	250.883	164.551	169.696	324.753	245.744	168.872	173.158	174.039	178.053	265.681	177.444	-8191	255	
2860.450	1	1	0	0	0.11363	0.18171	0.14786	0.15885	0.17184	0.17483	0.21002	0.095827	0.16146	0.16951	0.22478	0.035541	0.1964	0.079408	0.094294	0.082129	-3.0417	-2.6729	-3.3771	-3.0125	-2.9375	-3.5708	-2.7542	-3.1375	-3.2458	-2.6375	-3.4854	-2.9854	-2.825	-3.5708	-2.7104	-3.0417	348.440	490.837	198.908	395.765	391.871	171.785	433.182	186.308	172.404	467.736	507.924	454.077	444.552	153.095	234.334	379.077	0.00056441	0.00069284	0.00019944	1469.8	1.8782e-06	1.0002e-05	1463.8	398.24	7.3049e-06	6.7766e-06	454.39	151.41	132.22	45.063	5.7224e-06	55.747	0.0004109	0.00039849	0.00011101	1474.5	4.3155e-06	4.2959e-06	1471.3	401.19	4.2834e-06	4.2579e-06	452.36	152.25	132.85	45.672	4.2126e-06	56.066	249.682	274.445	249.872	164.738	346.738	288.408	164.762	169.536	292.938	272.297	169.056	173.198	173.900	178.136	311.233	177.861	-8191	255	
2860.545	1	1	0	0	0.23633	0.12525	0.1847	0.27314	0.20471	0.34401	0.10922	0.33036	0.099821	0.28553	0.17817	0.21627	0.31693	0.28646	0.21258	0.18368	-2.8167	-2.6229	-3.3187	-3.1542	-2.725	-3.5208	-3.1021	-3.1271	-3.3146	-2.5229	-3.4271	-3.1312	-2.7729	-3.5396	-2.6937	-2.9146	324.407	393.327	360.121	156.908	307.122	196.841	451.599	476.600	348.529	332.113	373.565	178.603	157.039	465.185	370.473	440.102	0.0005574	0.00043293	0.00012189	1462.4	5.0348e-06	6.8713e-06	1452.8	396.62	2.5498e-06	7.1039e-06	450.63	150.95	132.34	45.167	5.5521e-06	55.277	0.00039052	0.00038294	0.00010533	1466.6	4.1581e-06	4.1111e-06	1458.2	399.27	4.1099e-06	4.0977e-06	449.23	151.78	132.65	45.522	4.1804e-06	55.929	249.755	223.013	229.372	164.926	342.053	290.621	164.792	169.583	303.170	232.468	169.114	173.348	173.746	178.111	303.614	177.758	-8191	255	
2860.641	1	1	0	0	0.083593	0.03059	0.10957	0.21055	0.23515	0.097999	0.33521	0.1249	0.25549	0.1445	0.023495	0.20573	0.16404	0.073678	0.2727	0.072763	-3.0542	-2.3542	-3.2188	-3.3	-2.5708	-3.2896	-3.0479	-2.9813	-3.4646	-2.6688	-3.2771	-3.4208	-2.8958	-3.4813	-2.825	-2.8625	479.672	333.710	197.207	439.213	334.261	415.067	461.298	436.687	224.080	326.963	259.159	476.671	439.048	510.424	471.829	297.130	0.0005134	0.00033432	0.00012569	1458.6	1.0931e-05	4.1874e-06	1451.7	396.48	9.4134e-06	6.7278e-06	447.36	150.01	131.1	44.9	3.325e-06	55.331	0.00039105	0.00038328	0.00010633	1458.9	4.252e-06	4.282e-06	1456.1	398.23	4.3188e-06	4.3062e-06	448.47	151.11	131.77	45.346	4.5157e-06	55.796	242.418	287.562	223.643	164.982	299.450	263.703	164.633	169.657	299.672	324.527	168.715	173.210	174.015	178.174	313.101	177.672	-8191	255	
2860.737	1	1	0	0	0.15147	0.20355	0.22741	0.36923	0.095505	0.22879	0.33542	0.17113	0.16149	0.034912	0.028931	0.23878	0.14926	0.17676	0.28537	0.17356	-3.1937	-2.75	-3.0521	-3.2854	-2.7271	-3.3833	-3.1167	-2.9375	-3.4125	-2.5792	-3.2667	-3.3667	-2.6312	-3.4062	-3.1188	-2.9479	252.773	479.213	424.644	451.487	376.149	339.906	483.291	162.886	306.825	170.922	352.970	460.345	424.637	491.451	473.291	174.374	0.00058463	0.00074402	0.00012239	1462.4	4.9158e-06	5.633e-06	1445.6	395.53	7.339e-06	2.2455e-06	449.71	150.04	130.74	44.758	1.7109e-06	55.042	0.0004242	0.00041375	0.00011614	1464.3	4.6143e-06	4.6069e-06	1455.4	399.73	4.679e-06	4.6513e-06	449.22	151.44	132.09	45.472	4.7595e-06	55.831	241.155	193.863	270.397	164.916	320.176	356.564	164.783	169.445	286.557	325.431	169.039	173.523	174.187	178.416	319.207	177.812	-8191	255	
2860.858	1	1	0	0	0.21278	0.095826	0.11079	0.17276	0.054751	0.13488	0.20202	0.1361	0.17244	0.099861	0.42809	0.17192	0.25331	0.27	0.10775	0.25922	-3.0604	-2.6417	-3.0312	-3.5375	-2.5333	-3.3271	-3.3625	-2.9562	-3.4167	-2.7583	-3.0479	-3.575	-2.9688	-3.2896	-3.1771	-2.7	219.683	322.086	294.703	454.152	317.954	459.925	443.298	418.898	234.014	480.109	458.320	459.595	465.392	155.801	397.933	452.086	0.0004894	0.00010587	0.00012603	1461.7	6.0423e-06	2.6371e-06	1451.7	398.6	5.9568e-06	3.7186e-06	451.15	149.98	131.2	44.791	4.35e-06	55.212	0.00044273	0.00043576	0.00012093	1469	4.7863e-06	4.7762e-06	1463.9	401.91	4.7534e-06	4.6989e-06	450.67	151.68	132.25	45.49	4.6029e-06	55.774	253.713	283.111	166.201	164.844	260.238	352.510	164.831	169.463	306.059	295.887	169.159	173.500	174.058	178.425	294.746	177.464	-8191	255	
2860.954	1	1	0	0	0.18733	0.39533	0.31186	0.078005	0.22139	0.19259	0.12811	0.24588	0.18861	0.16082	0.087211	0.24266	0.16928	0.25057	0.25415	0.097848	-3.0646	-2.7229	-2.9104	-3.5667	-2.6458	-3.2375	-3.3396	-2.6813	-3.2833	-2.9396	-2.9375	-3.4979	-2.7042	-3.1708	-3.0771	-2.7583	296.991	356.818	296.962	478.904	494.474	387.518	426.809	469.284	503.332	262.690	383.586	403.089	486.212	472.124	402.636	453.079	0.00050857	0.00056641	0.00024845	1465	7.4557e-06	7.1426e-06	1452.5	398.29	9.3715e-06	3.4057e-06	448.4	150.58	130.87	44.869	3.0237e-06	54.927	0.00042025	0.00040607	0.00011278	1468	4.3464e-06	4.2772e-06	1460.9	400.93	4.1444e-06	4.045e-06	447	150.84	131.37	45.309	3.8986e-06	55.382	247.067	236.449	243.682	165.066	289.066	272.577	164.733	169.554	305.287	251.426	169.063	173.229	173.861	178.471	278.440	177.826	-8191	255	
2861.050	1	1	0	0	0.17838	0.13023	0.20866	0.19938	0.20841	0.066112	0.18005	0.096979	0.10137	0.14236	0.44349	0.15832	0.3213	0.27749	0.15373	0.21757	-3.0042	-2.9146	-2.8167	-3.5687	-2.6708	-3.1271	-3.5875	-2.6667	-3.3083	-2.925	-2.825	-3.7958	-3.0229	-3.1958	-3.3208	-2.7958	217.249	184.097	487.791	182.398	340.029	505.258	468.194	175.456	466.276	232.288	163.820	482.679	179.747	463.353	470.570	481.320	0.00059306	0.00062831	0.00011064	1459.4	5.4095e-06	1.5316e-06	1450.6	398.16	5.977e-06	2.1622e-06	449.37	149.53	130.61	44.874	6.5998e-06	55.085	0.0003594	0.00034841	9.6777e-05	1461.9	3.7838e-06	3.7628e-06	1453.3	399.52	3.7442e-06	3.695e-06	444.56	150.39	131.01	45.134	3.6344e-06	55.278	242.834	291.808	213.522	165.008	383.697	459.875	164.900	169.438	313.641	171.592	169.157	173.205	173.995	178.441	291.733	177.860	-8191	255	
2861.122	1	1	0	0	0.08086	0.2581	0.26804	0.21478	0.181	0.12121	0.15512	0.15127	0.21105	0.27931	0.15527	0.18897	0.41506	0.076133	0.11959	0.23765	-2.9875	-3.0667	-2.725	-3.5812	-2.7042	-2.8167	-3.6396	-2.8937	-3.2958	-3.1312	-2.6833	-3.4729	-2.7604	-3.0167	-3.4667	-2.8542	452.377	436.701	355.259	394.690	181.040	325.645	449.232	492.468	347.417	216.398	401.172	490.280	458.105	159.170	463.644	489.353	0.00048517	0.00037331	3.2253e-05	1453.1	2.9355e-06	6.1812e-06	1444.2	397.08	4.8559e-06	3.776e-06	449.14	148.86	131.13	44.676	6.2412e-06	55.119	0.00034146	0.00032651	9.1762e-05	1456.9	3.5855e-06	3.5719e-06	1450	398.26	3.5522e-06	3.4513e-06	443.94	149.71	130.72	45.004	3.4326e-06	55.152	250.301	263.902	206.452	164.758	307.161	235.357	164.730	169.457	221.208	306.172	168.963	173.293	173.835	178.442	300.319	177.259	-8191	255	
2861.242	1	1	0	0	0.051251	0.075027	0.17762	0.20292	0.2466	0.17	0.22366	0.15384	0.21973	0.054485	0.078235	0.40981	0.097469	0.11679	0.026842	0.10497	-2.7812	-3.1583	-2.5542	-3.6104	-2.9375	-2.675	-3.5833	-3.0083	-3.2104	-3.4208	-2.7271	-3.4646	-3.1667	-2.7625	-3.5375	-2.7875	214.660	360.988	176.582	437.911	382.630	498.567	441.698	483.624	196.585	153.591	464.231	455.748	497.896	160.280	469.835	215.575	0.00058959	0.00061492	0.00010198	1457.1	2.0049e-06	4.1338e-06	1450.7	397.37	3.5721e-06	3.3894e-06	446.99	149.46	131.18	44.866	2.4818e-06	54.718	0.00032515	0.00030841	8.6031e-05	1455	3.4108e-06	3.3408e-06	1447.2	397.3	3.3515e-06	3.2966e-06	441.73	149.55	130.69	44.946	3.2815e-06	54.95	250.019	226.800	259.871	164.857	171.944	164.218	164.713	169.528	299.539	484.712	168.829	173.051	173.886	178.384	284.957	177.705	-8191	255	
2861.338	1	1	0	0	0.093583	0.43735	0.17741	0.27646	0.17793	0.16751	0.1969	0.33512	0.087207	0.28104	0.2783	0.082185	0.25825	0.2355	0.063475	0.12475	-2.7167	-3.1813	-2.5563	-3.4583	-3.0167	-2.6562	-3.6458	-2.8271	-2.9083	-3.3125	-2.6729	-3.3958	-3.1063	-2.8042	-3.3958	-3.025	508.212	509.038	290.971	172.037	202.429	270.770	476.065	468.335	368.876	333.235	423.085	413.396	498.756	466.466	357.181	442.883	0.00054017	0.00065577	0.0001136	1454.2	6.1425e-06	3.7938e-07	1450.6	397.1	9.7906e-06	3.0037e-06	447.71	149.71	130.5	44.904	8.751e-07	55.064	0.00030863	0.00029121	8.243e-05	1451.4	3.1883e-06	3.2135e-06	1450.6	397.3	3.1748e-06	3.1464e-06	441.16	149.52	130.32	44.931	3.1698e-06	55.034	248.796	196.815	237.037	164.954	290.110	313.204	164.586	169.392	269.991	282.398	168.817	173.397	174.194	178.277	385.050	177.666	-8191	255	
2861.434	1	1	0	0	0.15152	0.079026	0.27681	0.23042	0.1993	0.079134	0.44497	0.26843	0.2203	0.034194	0.080125	0.10667	0.086917	0.047261	0.15712	0.24915	-2.4708	-3.3354	-2.5708	-3.4396	-3.1875	-2.4958	-3.6542	-3.0042	-2.6958	-3.5062	-2.7854	-3.1917	-3.3708	-2.7021	-3.4167	-2.9938	306.421	471.788	385.349	503.278	295.160	197.069	442.816	448.171	201.134	304.687	455.455	371.158	272.793	159.721	274.029	166.321	0.00062017	0.00048438	0.00013558	1455.4	5.717e-06	1.3932e-06	1444.9	397.58	5.8502e-06	2.1599e-06	449.66	149.69	130.93	44.549	7.2499e-06	55.051	0.00030568	0.00029178	8.0529e-05	1452.8	3.2085e-06	3.271e-06	1447.2	398	3.2242e-06	3.1763e-06	440.99	149.57	130.51	44.876	3.2522e-06	55.049	252.706	217.634	258.009	165.051	282.422	152.969	164.749	169.488	278.100	272.410	169.108	173.451	174.083	178.085	351.776	177.856	-8191	255	
2861.531	1	1	0	0	0.11614	0.11964	0.16743	0.22114	0.058787	0.20433	0.15624	0.1651	0.026678	0.11963	0.12836	0.18169	0.082215	0.48094	0.16818	0.21672	-2.4562	-3.4062	-2.6333	-3.3604	-3.2979	-2.6	-3.5521	-3.0771	-2.8042	-3.5396	-2.8521	-3.0771	-3.5708	-2.6958	-3.3208	-3.125	306.351	176.567	247.354	159.327	179.070	452.675	470.634	387.750	303.440	279.378	435.196	276.966	230.960	465.570	215.872	345.824	0.00057911	0.00063234	0.0001216	1456.6	3.1477e-06	2.5729e-06	1447.1	396.69	2.0952e-06	2.5468e-06	447.15	149.62	131.08	44.692	4.4411e-06	55.279	0.00030618	0.00029584	8.1225e-05	1453.6	3.1947e-06	3.185e-06	1448.3	397.47	3.2074e-06	3.2008e-06	441.51	149.72	130.57	44.879	3.287e-06	55.134	248.076	245.061	244.530	164.908	256.268	316.843	164.693	169.326	278.591	236.689	169.185	173.269	173.765	178.191	288.536	177.660	-8191	255	
2861.650	1	1	0	0	0.4073	0.32646	0.10621	0.070992	0.25513	0.17596	0.26742	0.23251	0.23791	0.14095	0.031831	0.1086	0.13696	0.094588	0.19891	0.028647	-2.1104	-3.3833	-2.8854	-3.0687	-3.3896	-2.6521	-3.6354	-3.1063	-2.5667	-3.5646	-2.9229	-3.0229	-3.5708	-2.7771	-3.3083	-3.2479	479.174	364.905	310.751	394.740	482.562	162.421	483.599	180.632	346.080	471.565	314.928	232.447	474.088	176.718	444.654	457.656	0.00051798	0.00060472	0.00011811	1458.1	9.179e-06	6.4205e-06	1444.7	395.04	6.9337e-06	3.3864e-06	447.88	149.86	130.91	44.948	3.3825e-06	54.867	0.00031235	0.00029977	8.3753e-05	1452.8	3.3152e-06	3.3221e-06	1448.7	397.12	3.3282e-06	3.3472e-06	443.25	149.81	130.56	44.99	3.3458e-06	55.061	249.305	248.111	277.599	164.983	301.829	234.288	164.989	169.423	290.794	309.889	168.889	173.584	173.853	178.367	318.783	177.597	-8191	255	
2861.723	1	1	0	0	0.062043	0.032402	0.18543	0.20949	0.1007	0.21916	0.29631	0.3744	0.1545	0.15791	0.14448	0.06955	0.29387	0.068358	0.11742	0.31971	-2.2167	-3.5292	-2.825	-2.9083	-3.5	-2.5333	-3.3979	-3.5062	-2.5083	-3.3771	-2.9562	-2.9854	-3.575	-2.725	-3.1021	-3.3063	452.009	389.638	367.142	481.866	404.843	215.563	505.541	474.365	415.695	156.083	396.405	489.813	497.018	496.870	162.734	159.945	0.00054934	0.00050093	2.4441e-05	1452.5	7.4382e-06	6.6008e-06	1450.2	396.95	4.1909e-06	6.7175e-06	450.82	149.38	130.79	44.684	8.3301e-07	55.175	0.00031892	0.00030863	8.5156e-05	1452.3	3.3452e-06	3.3339e-06	1448.9	397.67	3.3747e-06	3.3624e-06	442.08	149.61	130.44	44.897	3.3808e-06	55.137	250.741	289.757	205.961	164.942	319.785	288.002	164.636	169.403	247.460	309.252	168.530	173.424	174.012	178.215	352.941	177.452	-8191	255	
2861.842	1	1	0	0	0.098986	0.23441	0.45605	0.2829	0.11461	0.18037	0.10168	0.27546	0.10137	0.063768	0.27991	0.16474	0.19669	0.23446	0.079117	0.042307	-2.0458	-3.5146	-2.9708	-2.9396	-3.5292	-2.5958	-3.2542	-3.6771	-2.6562	-3.0958	-3.2833	-2.7313	-3.6271	-2.9188	-2.9771	-3.5875	452.620	223.583	259.129	402.791	250.762	176.603	162.368	511.094	231.262	366.048	157.151	463.405	171.000	485.063	385.045	179.373	0.00055186	0.00024985	0.00013284	1456.7	2.5135e-06	5.2732e-06	1448.9	397.07	4.5678e-06	4.4165e-06	449.31	149.57	131.35	44.707	6.3617e-06	55.154	0.0003189	0.00030639	8.5415e-05	1452.8	3.3453e-06	3.3731e-06	1448.2	397.49	3.3702e-06	3.361e-06	442.11	150.09	130.6	44.867	3.3831e-06	55.194	249.840	218.989	240.595	165.022	328.042	244.691	164.926	169.300	266.618	316.816	168.865	173.602	173.845	178.179	282.606	177.608	-8191	255	
2861.938	1	1	0	0	0.16271	0.14012	0.093485	0.33507	0.26219	0.16093	0.08467	0.24753	0.034156	0.04501	0.16512	0.084283	0.12103	0.1855	0.078482	0.10483	-2.225	-3.2083	-3.1333	-2.9604	-3.425	-2.6875	-3.0583	-3.6417	-2.7771	-3.45	-3.1417	-2.8187	-3.4146	-2.8729	-2.9104	-3.7146	308.016	378.185	494.890	494.888	428.923	440.528	348.524	445.402	416.016	162.958	329.341	406.754	184.970	454.318	152.611	460.628	0.00052341	0.00017113	4.2801e-05	1451.4	3.611e-06	2.561e-06	1441.5	395.43	7.8375e-06	4.2712e-06	451.38	149.56	130.96	44.742	5.4397e-06	55.107	0.00032316	0.00030859	8.558e-05	1450.3	3.4021e-06	3.3584e-06	1446.2	397.41	3.4203e-06	3.4142e-06	443.65	150.01	130.66	44.999	3.4408e-06	55.229	248.958	327.484	319.168	165.044	254.297	242.185	164.785	169.580	304.208	269.859	169.194	173.397	173.935	178.178	311.161	177.569	-8191	255	
2862.034	1	1	0	0	0.13717	0.19311	0.10335	0.36676	0.060986	0.38566	0.067492	0.32467	0.1297	0.049797	0.13218	0.12982	0.19692	0.20715	0.035016	0.15432	-2.3021	-3.1896	-3.0854	-2.7	-3.5083	-3.0667	-2.9167	-3.5542	-2.5979	-2.875	-3.4083	-2.6542	-3.5062	-3.0667	-2.7646	-3.5062	495.002	453.562	453.840	478.759	290.796	476.842	457.940	501.444	501.131	291.295	186.826	472.692	453.872	449.291	397.495	496.294	0.00052253	0.00020747	0.00015693	1456	3.1439e-06	5.1064e-06	1445.2	397.59	7.6172e-06	6.5067e-06	449.27	150.08	131.31	44.892	4.3153e-06	55.223	0.00032625	0.00031177	8.6398e-05	1451.5	3.468e-06	3.3809e-06	1447.2	398.4	3.378e-06	3.327e-06	443.15	149.86	131.1	44.995	3.3166e-06	55.246	248.488	506.490	241.561	164.725	317.713	269.508	164.711	169.473	276.792	292.564	168.842	173.165	174.046	178.311	343.177	177.866	-8191	255	
2862.130	1	1	0	0	0.075818	0.12012	0.45542	0.17104	0.12413	0.29083	0.13284	0.23265	0.071051	0.14431	0.347	0.15242	0.12815	0.12977	0.13942	0.1853	-2.0208	-2.7771	-3.45	-2.6854	-3.2583	-2.9354	-2.8021	-3.5375	-2.5875	-2.9938	-3.4021	-2.7833	-3.3333	-3.2292	-2.5083	-3.4854	286.075	191.959	436.985	442.369	275.933	423.051	332.614	500.335	377.396	331.924	480.223	177.368	448.761	307.943	187.048	481.337	0.00052108	0.00054162	8.345e-05	1455.5	4.4333e-06	6.1068e-06	1442.6	397.69	4.4399e-06	5.7667e-06	449.87	150.15	131.13	44.723	2.4292e-06	55.258	0.00031169	0.00029849	8.2419e-05	1452.5	3.2593e-06	3.2356e-06	1446	397.79	3.2424e-06	3.229e-06	443.01	149.82	130.69	44.888	3.2441e-06	55.195	247.657	286.883	207.152	164.853	272.697	256.121	164.880	169.333	255.408	324.374	168.903	173.416	173.940	178.149	295.152	177.517	-8191	255	
2862.251	1	1	0	0	0.099772	0.15183	0.12381	0.40958	0.34807	0.33813	0.27697	0.1197	0.090665	0.12508	0.09979	0.25407	0.23837	0.24724	0.15314	0.14409	-2.2646	-2.6958	-3.3792	-2.6792	-3.2208	-3.1375	-2.9188	-3.4646	-2.9958	-2.8	-3.2958	-2.7458	-3.2792	-3.3604	-2.5833	-3.5812	455.898	415.396	188.367	427.721	348.562	474.127	435.749	494.072	485.304	393.739	447.236	447.247	408.166	501.727	270.828	395.255	0.00058677	0.00049261	0.00011703	1453.3	6.3328e-06	1.7173e-06	1454.2	396.81	4.7346e-06	5.3031e-06	452.21	149.9	131.44	44.791	2.8292e-06	55.374	0.00030821	0.00029447	8.2447e-05	1451.4	3.2589e-06	3.2407e-06	1448.4	397.28	3.2921e-06	3.2056e-06	442.91	149.55	130.68	44.977	3.2117e-06	55.211	241.076	237.052	262.585	164.832	306.667	317.534	164.623	169.618	253.556	357.895	168.889	173.472	173.977	178.206	314.730	177.517	-8191	255	
2862.345	1	1	0	0	0.17769	0.22057	0.20812	0.30705	0.13476	0.19295	0.29586	0.23738	0.29373	0.27507	0.18455	0.50044	0.25375	0.1913	0.15444	0.2351	-2.5187	-2.5812	-3.2771	-2.7646	-3.0417	-3.3458	-2.8375	-3.4583	-2.9458	-2.7417	-3.4396	-2.6854	-3.075	-3.4771	-2.6792	-3.3271	362.289	331.548	505.066	457.490	292.609	218.431	458.813	432.998	467.735	385.551	374.281	190.712	406.973	164.507	330.076	385.567	0.00055443	0.00032501	0.00012998	1450	7.1484e-06	4.3918e-06	1444.1	397.81	8.0234e-06	9.6207e-06	449.64	150.46	131.17	45.045	1.3548e-06	55.161	0.00031027	0.00029123	8.1836e-05	1450.3	3.2461e-06	3.2111e-06	1446.3	397.55	3.206e-06	3.2513e-06	442.36	149.82	130.67	44.983	3.245e-06	55.171	249.795	209.540	157.320	164.989	326.944	228.173	164.691	169.685	276.588	324.100	168.975	173.193	173.851	178.272	213.315	177.668	-8191	255	
2862.419	1	1	0	0	0.20807	0.20682	0.15989	0.18555	0.1162	0.30526	0.2267	0.14857	0.088134	0.0421	0.096005	0.13607	0.1337	0.062599	0.19327	0.26476	-2.6417	-2.4792	-3.3563	-3.0917	-2.9667	-3.4104	-2.7875	-3.3917	-3.0896	-2.6729	-3.5187	-2.7542	-2.8438	-3.3563	-2.475	-3.3083	197.013	397.395	410.144	418.659	477.158	495.143	466.265	467.074	211.479	226.415	424.296	375.901	309.920	164.514	489.331	188.195	0.00054305	0.00016452	0.00012413	1452.3	6.8606e-06	4.9191e-06	1446.3	396.36	5.2093e-06	3.3389e-06	449.02	150.22	130.51	45.036	4.7385e-06	55.275	0.00030758	0.00029343	8.1924e-05	1449.5	3.2076e-06	3.1798e-06	1444.1	396.95	3.1884e-06	3.1711e-06	441.51	150	130.3	44.971	3.2308e-06	55.159	246.364	240.365	263.145	164.944	315.366	220.377	164.836	169.407	288.665	317.769	168.807	173.181	174.023	178.355	354.682	177.856	-8191	255	
2862.538	1	1	0	0	0.19077	0.10053	0.095904	0.047719	0.028879	0.084382	0.09844	0.16051	0.15764	0.32888	0.22871	0.22827	0.25707	0.16025	0.34115	0.046526	-2.7958	-2.5812	-3.4437	-2.9896	-2.8833	-3.375	-2.8542	-3.2708	-3.3604	-2.5438	-3.45	-2.9896	-2.6458	-3.4479	-2.6479	-3.2104	468.226	415.621	185.425	464.196	434.118	343.631	471.131	468.687	231.427	161.150	223.452	438.678	475.607	501.075	299.559	408.245	0.00053798	0.00025082	0.00018085	1456.1	2.723e-06	2.2033e-06	1444.8	396.98	6.3422e-06	2.9089e-06	450.71	149.56	131.57	44.798	3.2003e-06	55.11	0.00030897	0.000288	8.1628e-05	1450.4	3.1933e-06	3.2088e-06	1446.3	397.23	3.2418e-06	3.2327e-06	443	149.61	130.71	44.984	3.2468e-06	55.21	243.344	198.456	219.664	164.797	302.965	293.521	164.899	169.637	325.195	330.294	169.054	173.315	173.939	178.193	345.137	177.812	-8191	255	
2862.634	1	1	0	0	0.1822	0.11868	0.16825	0.52103	0.114	0.31884	0.047089	0.0082529	0.15543	0.28724	0.18511	0.22453	0.24221	0.19428	0.14861	0.12843	-2.8771	-2.4979	-3.2271	-3.125	-2.5958	-3.3542	-2.9792	-3.0542	-3.2104	-2.6167	-3.4604	-3.2208	-2.6458	-3.5458	-2.8292	-3.1	216.946	181.693	317.768	451.800	403.413	505.957	443.489	171.633	353.382	393.811	287.504	466.707	485.021	478.248	210.398	432.385	0.00054181	0.00033029	9.7611e-05	1456.1	5.8437e-06	4.8005e-06	1449.3	396.68	6.296e-06	6.5049e-06	448.39	149.86	130.75	44.812	4.1558e-06	55.177	0.00031211	0.00029504	8.2375e-05	1450.6	3.2297e-06	3.2321e-06	1445.2	397.11	3.2878e-06	3.235e-06	442.02	149.82	130.42	44.951	3.288e-06	55.196	249.182	160.646	253.637	165.152	301.913	321.925	164.862	169.518	280.060	309.910	169.167	173.434	174.022	178.378	310.531	177.896	-8191	255	
2862.730	1	1	0	0	0.1299	0.025475	0.077924	0.22781	0.073689	0.196	0.26899	0.082985	0.16477	0.088747	0.077428	0.14769	0.18815	0.14012	0.049464	0.11201	-2.9708	-2.5792	-3.1479	-3.4396	-2.5708	-3.2604	-2.8979	-2.9667	-3.5563	-2.4854	-3.3083	-3.2167	-2.6208	-3.4979	-2.9917	-2.9813	493.005	247.415	455.387	479.803	309.830	447.949	470.937	479.059	215.770	353.770	492.188	162.968	166.259	176.285	327.149	395.921	0.00054591	0.0004172	1.6085e-05	1447.2	4.7394e-06	5.7821e-06	1448.2	397.66	3.0711e-06	6.4593e-06	450.91	150.12	130.75	44.933	4.8857e-06	55.157	0.00031115	0.00029441	8.2281e-05	1447.6	3.2509e-06	3.1899e-06	1445.1	397.46	3.2295e-06	3.1841e-06	442.77	150.01	130.48	44.981	3.2069e-06	55.128	250.479	159.279	180.225	164.917	280.116	243.460	164.899	169.720	292.879	318.498	169.365	173.407	174.068	178.384	300.494	177.923	-8191	255	
2862.826	1	1	0	0	0.1533	0.083762	0.20397	0.45721	0.24747	0.034662	0.11123	0.21537	0.19942	0.3264	0.1277	0.20738	0.16618	0.20099	0.18677	0.31312	-3.0042	-2.5958	-3.2917	-3.5771	-2.6562	-3.2833	-3.2687	-2.8625	-3.4375	-2.5958	-2.975	-3.3438	-2.7	-3.4042	-3.15	-2.7417	498.162	434.015	287.295	468.814	304.959	364.404	506.266	390.338	322.521	195.204	495.618	177.472	167.034	498.444	421.680	406.604	0.00052635	0.00070148	0.00010312	1450.5	5.8864e-06	4.8935e-06	1447.6	399.94	4.2081e-06	6.7499e-06	449.98	149.75	130.67	45.034	4.7721e-06	55.346	0.00030226	0.00028646	7.9363e-05	1448.5	3.1533e-06	3.1359e-06	1447.2	398.03	3.1109e-06	3.099e-06	442.75	149.78	130.54	45.018	3.0062e-06	55.18	249.523	232.576	225.193	164.715	267.993	266.181	164.704	169.784	308.930	282.422	169.097	173.264	173.656	178.251	307.945	177.607	-8191	255	
2862.947	1	1	0	0	0.12635	0.20578	0.33082	0.37151	0.1391	0.059456	0.094102	0.24327	0.12503	0.28733	0.19663	0.28108	0.054575	0.26768	0.16874	0.34479	-3.2271	-2.5875	-2.9083	-3.6167	-2.6292	-3.1625	-3.2792	-2.7333	-3.475	-2.6542	-2.9375	-3.5333	-2.625	-3.3125	-3.0396	-2.7292	407.386	192.572	178.807	499.045	488.850	276.173	429.116	489.137	304.771	169.551	201.619	440.403	210.503	478.880	448.792	209.981	0.0005789	0.0001545	0.00012145	1461.7	5.8642e-06	4.9249e-06	1448.6	397.95	9.0128e-06	7.6242e-06	452.66	150.46	131.43	45.096	2.5083e-06	55.505	0.0002862	0.00026985	7.4319e-05	1451.8	2.9145e-06	2.8911e-06	1448.8	398.52	2.8688e-06	2.8259e-06	442.44	150.06	130.83	45.017	2.8322e-06	55.324	248.513	282.921	203.188	165.064	289.262	280.418	164.884	169.486	306.217	313.016	169.105	173.249	173.922	178.300	339.002	177.444	-8191	255	
2863.018	1	1	0	0	0.10568	0.084274	0.043352	0.19676	0.069751	0.23837	0.39938	0.28871	0.14979	0.19286	0.11753	0.25803	0.31098	0.26219	0.19518	0.15818	-3.0021	-2.8604	-2.9083	-3.5354	-2.7438	-3.2812	-3.3875	-2.6708	-3.3833	-2.9583	-2.8396	-3.4792	-2.6583	-3.2271	-3.2375	-2.7271	456.283	362.342	437.526	157.525	188.868	456.551	469.141	478.365	230.074	389.067	509.264	208.844	160.174	479.437	215.315	187.801	0.00051607	0.000483	8.1792e-05	1454.6	4.6284e-06	6.1008e-06	1453.7	398.54	4.1027e-06	3.7389e-06	451.92	149.78	131.87	44.918	5.4256e-06	55.435	0.00027301	0.00025566	7.0022e-05	1450.5	2.8066e-06	2.7607e-06	1450.4	397.1	2.7644e-06	2.756e-06	442.17	149.79	130.66	44.952	2.7069e-06	55.132	248.063	177.806	231.501	164.854	308.879	271.807	164.724	169.660	292.052	329.831	168.832	173.481	173.818	178.436	296.451	177.527	-8191	255	
2863.114	1	1	0	0	0.34214	0.17484	0.16735	0.2934	0.28204	0.21456	0.22616	0.24663	0.078167	0.29369	0.34644	0.28149	0.089854	0.24524	0.095354	0.086788	-2.9458	-3.025	-2.7646	-3.6146	-2.5896	-3.025	-3.4896	-2.6813	-3.2938	-3.1042	-2.6854	-3.6208	-2.9125	-3.1875	-3.4188	-2.7292	377.421	497.269	368.545	501.977	393.928	338.383	384.049	404.051	265.178	473.548	504.930	459.669	404.350	450.910	278.698	454.322	0.00056631	5.9402e-05	0.00011268	1455.8	9.4808e-06	3.07e-06	1447	396.69	3.2896e-06	4.8636e-06	450.13	150.63	131.58	44.982	3.3046e-06	55.452	0.00025986	0.00024445	6.7804e-05	1449.6	2.6688e-06	2.6588e-06	1444.2	396.32	2.726e-06	2.6968e-06	440.91	149.76	130.53	44.988	2.7206e-06	55.214	252.476	275.614	212.562	164.947	313.541	287.418	164.967	169.631	274.503	301.567	169.418	173.078	173.898	178.183	293.448	177.855	-8191	255	
2863.211	1	1	0	0	0.041412	0.38116	0.11236	0.16677	0.2233	0.31149	0.019585	0.19205	0.24619	0.034716	0.13991	0.17439	0.20271	0.11041	0.076858	0.29944	-2.8604	-3.1167	-2.5521	-3.5083	-2.7333	-2.8812	-3.5146	-2.7583	-3.0542	-2.95	-2.5917	-3.5938	-3.0271	-2.7771	-3.4646	-2.7938	489.131	224.076	435.115	488.276	319.849	205.291	160.822	451.369	304.671	312.821	155.374	169.689	422.759	246.288	233.843	366.872	0.00046046	0.00038627	0.00020012	1454.8	3.4867e-06	3.9211e-06	1452.6	396.52	6.819e-06	6.4716e-06	451.09	149.89	131.95	44.933	4.4921e-06	55.201	0.00026441	0.00024922	6.908e-05	1448.5	2.7746e-06	2.7242e-06	1446.3	396.35	2.7643e-06	2.7475e-06	441.97	149.69	130.72	44.931	2.8235e-06	54.97	253.990	259.062	280.515	164.941	312.844	242.285	164.785	169.476	294.143	278.431	169.267	173.246	173.678	178.255	317.056	177.640	-8191	255	
2863.331	1	1	0	0	0.22158	0.065694	0.23912	0.26219	0.25485	0.12086	0.21742	0.28463	0.13197	0.029387	0.17794	0.13835	0.1349	0.15789	0.18528	0.35192	-2.6937	-3.1917	-2.5	-3.5583	-2.9437	-2.7104	-3.6	-2.8771	-3.1188	-3.325	-2.6063	-3.4896	-3.1167	-2.8208	-3.3563	-2.7562	303.390	291.570	297.646	495.756	344.659	160.954	442.833	481.237	367.522	478.772	339.653	456.380	431.230	485.780	400.139	495.108	0.00051334	0.00041394	8.3135e-05	1450.6	9.038e-06	5.4711e-06	1447.8	397.88	4.886e-06	6.482e-06	449.44	149.95	131.36	44.894	3.5985e-06	55.228	0.00027545	0.00026071	7.246e-05	1445.6	2.8962e-06	2.8372e-06	1445.4	396.75	2.8959e-06	2.8447e-06	441.54	149.86	130.59	44.93	2.8475e-06	55.104	248.956	169.935	262.737	165.041	268.368	246.717	164.835	169.471	281.468	291.795	168.667	173.408	173.901	178.305	304.898	177.753	-8191	255	
2863.427	1	1	0	0	0.15349	0.21242	0.16915	0.19084	0.07603	0.30795	0.21064	0.25878	0.11914	0.13538	0.11656	0.2023	0.058842	0.13226	0.053487	0.14495	-2.6167	-3.2792	-2.5208	-3.5208	-3.1354	-2.6562	-3.5479	-3.0458	-2.9958	-3.2125	-2.6583	-3.3917	-3.1583	-2.7313	-3.4458	-2.8812	413.866	313.448	218.402	481.827	413.833	163.769	348.931	476.761	156.854	438.274	447.944	492.670	157.484	462.288	398.511	494.267	0.0005117	0.000575	0.00015572	1462.2	1.0984e-05	2.9368e-06	1443.7	395.39	5.8148e-06	3.8198e-06	450.91	151.21	130.77	45.03	1.9677e-06	55.276	0.00027371	0.00025859	7.1473e-05	1450.1	2.8514e-06	2.8119e-06	1445.7	395.99	2.8602e-06	2.8405e-06	441.57	150.19	130.56	45.004	2.862e-06	55.088	245.919	267.006	284.922	164.915	317.147	276.397	164.768	169.533	339.182	309.790	168.867	173.297	173.809	178.385	367.557	177.572	-8191	255	
2863.524	1	1	0	0	0.26141	0.20865	0.18395	0.28288	0.24451	0.18079	0.13298	0.38159	0.094554	0.19735	0.1578	0.059325	0.10897	0.049399	0.19995	0.15786	-2.3542	-3.2604	-2.7271	-3.3354	-2.9979	-2.6104	-3.5812	-2.9292	-2.6708	-3.3417	-2.8833	-3.1708	-3.1583	-2.7042	-3.2854	-2.9583	305.294	360.357	331.039	472.107	398.459	359.068	469.141	438.576	280.611	362.879	426.573	192.187	472.941	409.801	418.012	403.839	0.00051275	0.0007388	0.00013945	1448.4	5.5708e-06	1.8449e-06	1452.5	396.6	5.0781e-06	4.8824e-06	451.51	149.78	131.66	45.07	4.4703e-06	55.189	0.00027367	0.00025774	7.134e-05	1446.6	2.8176e-06	2.7858e-06	1445.4	396.48	2.772e-06	2.7173e-06	441.67	149.72	130.34	45.014	2.7236e-06	55.028	251.205	221.753	211.334	165.047	272.598	262.274	164.803	169.462	301.123	313.894	168.905	173.535	173.960	178.291	272.224	177.675	-8191	255	
2863.642	1	1	0	0	0.22613	0.068267	0.12272	0.12351	0.23174	0.12646	0.24874	0.76951	0.083857	0.096019	0.29682	0.26717	0.044257	0.035961	0.28721	0.27303	-2.3438	-3.4792	-2.4729	-3.3875	-3.15	-2.5771	-3.7188	-3.2104	-2.7042	-3.4938	-2.675	-3.175	-3.4104	-2.8521	-3.3583	-3.2104	479.011	165.308	502.416	501.188	349.695	446.702	433.550	415.266	399.697	454.683	441.668	443.680	169.546	205.233	170.959	444.679	0.00050339	0.00041453	7.3313e-05	1456.9	6.3137e-06	2.0763e-06	1446.3	397	9.7025e-06	4.5262e-06	449.19	150.59	131.11	44.82	2.6223e-06	55.232	0.00025985	0.0002443	6.817e-05	1448.5	2.6588e-06	2.6567e-06	1443.7	395.27	2.684e-06	2.644e-06	440.48	149.74	130.32	44.816	2.6698e-06	55.059	245.517	238.323	190.530	164.970	251.181	344.614	164.895	169.406	279.893	292.494	168.890	173.558	173.807	178.247	317.798	177.667	-8191	255	
2863.714	1	1	0	0	0.27411	0.12951	0.095165	0.27175	0.12144	0.21703	0.13157	0.22995	0.11072	0.2005	0.13758	0.1383	0.0384	0.19361	0.23374	0.39406	-2.1417	-3.5292	-2.6333	-3.1792	-3.4896	-2.5333	-3.575	-3.1917	-2.5375	-3.4458	-2.8937	-2.9292	-3.5708	-2.7479	-3.1333	-3.375	368.251	224.958	336.229	491.412	488.651	212.035	472.659	392.665	244.939	487.605	416.400	489.375	449.023	352.289	195.313	448.506	0.00056546	0.00039905	0.00013195	1454.5	9.2932e-06	6.385e-06	1443.8	397.17	5.5069e-06	1.6526e-06	446.26	150.52	131.26	44.806	5.0399e-06	55.309	0.00026023	0.00024529	6.7656e-05	1447.6	2.6983e-06	2.7144e-06	1442.1	395.45	2.7191e-06	2.7128e-06	439.92	149.81	130.27	44.874	2.7288e-06	55.103	248.480	272.533	283.531	165.086	279.923	314.379	165.003	169.585	273.309	278.118	169.038	173.532	173.826	178.517	323.813	177.556	-8191	255	
2863.810	1	1	0	0	0.32194	0.36971	0.13371	0.088517	0.10011	0.42844	0.24715	0.17625	0.085105	0.061806	0.4229	0.0052494	0.2119	0.16309	0.26116	0.048795	-2.2208	-3.4042	-2.9521	-2.9396	-3.45	-2.5062	-3.3146	-3.4104	-2.6146	-3.4083	-2.8771	-2.7917	-3.4292	-2.6771	-3.0312	-3.3771	207.991	193.689	166.871	190.598	305.843	216.705	451.523	415.684	263.857	312.214	510.718	317.151	161.304	195.650	396.810	501.916	0.0005757	0.0004571	0.00013224	1452.2	5.3029e-06	4.8927e-06	1447.1	396.86	5.0574e-06	4.5694e-06	448.53	149.98	130.81	44.988	2.6504e-06	55.129	0.00026379	0.00024753	6.9536e-05	1444.3	2.7731e-06	2.7756e-06	1442	395.91	2.828e-06	2.7591e-06	439.99	149.54	130.09	44.886	2.7832e-06	54.975	236.932	257.219	237.723	165.016	265.733	238.083	165.062	169.603	252.938	357.201	168.936	173.526	174.035	178.459	273.793	177.621	-8191	255	
2863.931	1	1	0	0	0.13976	0.056527	0.11559	0.18486	0.15249	0.10387	0.083011	0.20153	0.15987	0.078292	0.12256	0.46099	0.16191	0.08671	0.038079	0.094759	-2.3063	-3.3271	-2.9333	-2.7396	-3.3375	-2.8063	-3.1292	-3.4542	-2.6146	-3.2979	-3.1125	-2.7375	-3.4333	-2.9167	-2.9833	-3.3521	507.638	236.679	288.380	156.812	465.604	361.186	434.414	440.037	436.873	245.985	337.167	504.359	379.806	195.134	194.010	401.495	0.00062502	0.00044549	0.0002063	1453.1	4.3975e-06	4.5588e-06	1439.4	396.32	6.4737e-06	5.0272e-06	449.45	149.8	131.19	44.8	2.1349e-06	55.261	0.00026692	0.00025297	6.9501e-05	1443.5	2.8043e-06	2.7212e-06	1439.6	395.06	2.7574e-06	2.7149e-06	439.56	149.41	130.28	44.766	2.7063e-06	54.941	249.809	253.736	242.922	165.156	300.298	288.300	164.824	169.431	315.558	275.373	169.014	173.506	174.265	178.219	305.362	177.742	-8191	255	
2864.027	1	1	0	0	0.14675	0.19479	0.079772	0.17508	0.13058	0.038763	0.22342	0.31442	0.06742	0.21578	0.12209	0.11673	0.21678	0.11094	0.20825	0.23279	-2.1771	-3.3208	-3.1562	-2.7479	-3.5229	-2.6958	-3.0708	-3.5583	-2.6417	-3.3083	-3.3021	-2.7708	-3.4938	-3.0375	-2.7979	-3.5167	160.005	190.219	348.453	455.847	474.114	274.305	419.382	486.580	493.062	481.720	366.889	209.370	210.828	363.824	185.868	451.005	0.00055674	0.00017314	0.00018291	1449.2	1.7266e-06	5.0885e-06	1440.7	395.93	7.6307e-06	5.0175e-06	448.21	149.39	130.96	44.664	3.8415e-06	55.06	0.00026615	0.00024583	6.8711e-05	1444.3	2.75e-06	2.6993e-06	1437.4	394.37	2.748e-06	2.7337e-06	439.74	149.08	129.83	44.724	2.7489e-06	54.903	244.582	219.494	176.097	164.930	276.915	255.355	164.912	169.533	285.748	344.491	168.992	173.327	174.024	178.588	309.790	177.923	-8191	255	
2864.123	1	1	0	0	0.15132	0.15276	0.11822	0.31646	0.25791	0.23277	0.19506	0.40712	0.17589	0.10339	0.10396	0.11383	0.1613	0.35012	0.13285	0.18014	-2.2583	-3.0042	-3.3667	-2.6417	-3.3833	-2.8479	-3.0479	-3.6583	-2.6208	-3.0875	-3.3333	-2.8542	-3.4771	-3.0062	-2.5479	-3.4437	446.726	277.066	218.706	442.877	201.261	359.061	443.150	429.150	238.784	154.845	422.112	395.808	399.444	472.145	501.413	412.996	0.00054907	0.00019229	0.00016613	1446	6.9537e-06	3.4151e-06	1435.2	396.39	3.7053e-06	4.3341e-06	448.46	150.01	131.04	44.594	1.7033e-06	55.229	0.00026934	0.00024878	6.9573e-05	1439.5	2.7601e-06	2.7075e-06	1435.6	394.61	2.7309e-06	2.7258e-06	439.14	149.27	130	44.696	2.7429e-06	54.973	240.014	219.650	249.008	165.204	302.384	274.557	164.957	169.573	269.750	339.894	169.225	173.403	174.129	178.428	355.775	177.484	-8191	255	
2864.219	1	1	0	0	0.090237	0.036078	0.10162	0.19205	0.15362	0.27785	0.20863	0.39034	0.16596	0.14731	0.15416	0.13479	0.092448	0.19519	0.27121	0.021144	-2.3	-2.8438	-3.4792	-2.8417	-3.1146	-2.875	-2.9104	-3.6542	-2.6479	-2.9688	-3.4708	-2.675	-3.3604	-3.3125	-2.4875	-3.5958	172.784	245.008	351.553	433.667	278.703	486.476	387.209	477.991	376.532	391.832	399.071	457.068	181.876	505.310	307.371	485.917	0.00052269	0.00019923	0.0001432	1442.3	7.852e-06	2.8862e-06	1434.2	393.5	5.4592e-06	2.0909e-06	448.83	149.48	131.1	44.689	3.414e-06	55.155	0.00026345	0.00024768	6.8595e-05	1434.8	2.7087e-06	2.6926e-06	1431.6	393.58	2.7295e-06	2.7066e-06	439.04	149.06	129.85	44.707	2.6802e-06	54.829	244.005	229.200	289.152	164.882	263.430	229.589	164.878	169.644	305.071	241.004	169.113	173.326	173.919	178.194	267.897	177.779	-8191	255	
2864.315	1	1	0	0	0.27133	0.064653	0.20345	0.28956	0.20406	0.16503	0.30281	0.24902	0.26145	0.090324	0.2653	0.049368	0.13741	0.28954	0.16081	0.44963	-2.3604	-2.6229	-3.4979	-2.8	-3.3729	-3.2729	-2.85	-3.5458	-2.9979	-2.8792	-3.4646	-3.0083	-3.1354	-3.3958	-2.65	-3.625	166.702	320.321	181.618	426.836	490.283	400.347	447.637	422.593	308.639	482.670	475.725	413.463	451.235	167.468	225.310	485.857	0.0005682	0.00042885	0.00013493	1445.6	4.4518e-06	1.8473e-06	1426.3	394.28	5.4164e-06	3.8312e-06	448.39	149.46	130.92	44.524	3.9918e-06	55.145	0.00026232	0.00024475	6.8777e-05	1434.1	2.7291e-06	2.7042e-06	1429.5	393.58	2.6632e-06	2.6629e-06	439.13	148.7	129.78	44.595	2.7022e-06	54.761	249.835	235.258	276.168	164.994	286.224	292.106	164.808	169.573	264.616	282.911	168.792	173.401	174.207	178.287	293.025	177.892	-8191	255	
2864.412	1	1	0	0	0.17889	0.11187	0.23217	0.14154	0.096852	0.16399	0.23678	0.20633	0.27631	0.084157	0.18291	0.29837	0.14785	0.077627	0.11552	0.058987	-2.6479	-2.6583	-3.2646	-2.7667	-3.1021	-3.2396	-2.7313	-3.4313	-3.0146	-2.85	-3.4437	-2.8396	-3.1229	-3.6625	-2.5938	-3.3646	430.741	379.653	391.586	207.497	333.384	201.616	172.915	503.216	299.560	420.325	290.789	454.491	314.896	392.513	338.970	478.784	0.00051476	0.00046428	0.00015205	1430.9	6.4676e-06	2.7431e-06	1431.3	393.37	3.6553e-06	1.4685e-06	445.67	149.21	130.74	44.531	4.5129e-06	55.067	0.00026119	0.00024358	6.8783e-05	1427.9	2.7025e-06	2.6699e-06	1426.8	392.88	2.7031e-06	2.665e-06	436.57	148.56	129.65	44.518	2.7128e-06	54.728	248.539	201.390	236.070	165.019	256.661	278.510	164.900	169.630	301.945	317.943	169.286	173.520	174.237	178.169	287.626	177.650	-8191	255	
2864.508	1	1	0	0	0.50234	0.35239	0.2313	0.095701	0.20579	0.20771	0.10421	0.26144	0.16295	0.15552	0.18198	0.44573	0.34742	0.22945	0.21357	0.091607	-2.8229	-2.4521	-3.4479	-2.8917	-2.9167	-3.4062	-2.7417	-3.4292	-3.1333	-2.6792	-3.4688	-2.8312	-2.975	-3.5438	-2.6479	-3.2146	461.108	313.823	328.813	417.271	329.546	196.483	441.666	428.218	168.493	422.622	502.983	483.218	433.763	505.200	229.600	339.766	0.00055383	0.00039336	0.00016469	1433.3	5.9062e-06	4.159e-06	1433.1	394.27	6.7017e-06	5.52e-06	444.77	148.76	130.02	44.461	5.2078e-06	54.92	0.00026277	0.00024644	6.9121e-05	1426.7	2.7157e-06	2.6613e-06	1426	392.57	2.7639e-06	2.703e-06	436.55	148.3	129.39	44.539	2.728e-06	54.663	245.014	211.506	199.587	164.851	320.811	287.391	164.894	169.740	310.812	303.889	168.874	173.225	173.982	178.541	330.502	177.745	-8191	255	
2864.604	1	1	0	0	0.070791	0.23671	0.066033	0.12278	0.077625	0.10875	0.17866	0.15173	0.20732	0.16672	0.15852	0.17808	0.063372	0.21506	0.14875	0.27471	-2.9292	-2.5875	-3.2792	-3.2	-2.6479	-3.4771	-2.9958	-3.3063	-3.3604	-2.6167	-3.3688	-3.1292	-2.7958	-3.4938	-2.6958	-3.0958	348.409	394.771	379.279	151.969	342.459	469.036	432.992	443.632	370.696	186.867	485.177	460.979	302.767	476.372	194.128	483.785	0.00060719	0.00084606	0.00024523	1433.6	9.7161e-06	3.5529e-06	1426.5	394.04	6.6635e-06	2.7505e-06	448.62	148.6	130.83	44.551	2.7129e-06	55.036	0.00026067	0.00024426	6.8305e-05	1426.9	2.6775e-06	2.7053e-06	1424.6	392.91	2.6241e-06	2.6653e-06	437.35	148.25	129.51	44.537	2.6814e-06	54.759	244.003	244.410	228.674	164.967	301.781	250.108	164.864	169.738	330.858	329.347	169.398	173.437	173.941	178.222	328.237	177.691	-8191	255	
2864.723	1	1	0	0	0.13805	0.098706	0.1793	0.34877	0.11462	0.14325	0.044988	0.16006	0.046427	0.14418	0.18196	0.095842	0.068353	0.20535	0.052096	0.024157	-3.0208	-2.5479	-3.2542	-3.2125	-2.9062	-3.4062	-2.95	-3.1396	-3.3021	-2.6104	-3.2833	-3.1792	-2.6521	-3.3937	-2.7604	-2.9417	174.452	443.538	395.892	489.444	288.924	504.913	387.838	430.661	221.550	209.675	209.268	438.663	407.836	467.050	347.801	213.798	0.00055367	0.00031501	7.7244e-05	1439.1	4.476e-06	2.4947e-06	1424.1	392.97	6.9299e-06	4.4827e-06	448.41	149.69	130.14	44.809	3.099e-06	55.057	0.00025402	0.00024116	6.718e-05	1427.2	2.6735e-06	2.6286e-06	1423.8	392.65	2.6722e-06	2.6384e-06	437.88	148.51	129.38	44.663	2.6678e-06	54.75	243.958	291.594	245.353	164.746	299.872	178.150	164.869	169.551	270.787	308.736	169.140	173.195	174.084	177.978	284.907	177.752	-8191	255	
2864.819	1	1	0	0	0.179	0.13108	0.11661	0.17304	0.26691	0.31322	0.18599	0.081363	0.083952	0.10996	0.13638	0.18138	0.031419	0.13009	0.078953	0.36287	-3.1312	-2.6208	-3.15	-3.2792	-2.6958	-3.4292	-3.0083	-2.9437	-3.5	-2.7062	-3.0708	-3.2604	-2.6708	-3.3187	-2.85	-3.0292	281.527	287.504	394.993	180.908	300.998	471.948	467.805	501.475	487.757	400.136	418.282	206.881	469.925	504.667	405.020	479.744	0.0005481	0.00050991	0.00021628	1433.4	4.9402e-06	3.1276e-06	1425.7	395.22	5.0879e-06	8.0416e-06	447.01	149	131.08	44.612	5.8902e-06	55.035	0.00026244	0.00024386	6.7289e-05	1425.1	2.6914e-06	2.6774e-06	1423.9	393.18	2.6749e-06	2.7028e-06	437.16	148.64	129.37	44.65	2.6962e-06	54.795	243.978	256.463	258.343	164.822	270.064	288.064	164.824	169.804	274.099	312.077	169.165	173.373	174.032	178.261	277.993	177.615	-8191	255	
2864.892	1	1	0	0	0.14677	0.018685	0.1997	0.15403	0.37264	0.084229	0.43361	0.20318	0.020508	0.01215	0.36515	0.087039	0.37276	0.14124	0.16925	0.11433	-3.0604	-2.5312	-2.9625	-3.4521	-2.5354	-3.4729	-2.9896	-2.9	-3.3187	-2.7604	-3.1667	-3.5625	-2.5333	-3.3688	-3.0062	-2.8708	478.799	436.680	250.950	492.137	472.847	170.594	455.842	477.545	288.874	431.396	154.236	408.256	463.292	409.794	412.387	171.267	0.0005553	0.0003076	0.00013296	1433.2	7.2036e-06	1.4792e-06	1429.5	395	4.3951e-06	4.6037e-06	446.82	149.38	129.7	44.652	3.3031e-06	55.227	0.00026181	0.00024962	6.9066e-05	1427.9	2.774e-06	2.7153e-06	1424.2	393.22	2.7641e-06	2.7335e-06	437.18	148.78	129.28	44.653	2.7503e-06	54.831	248.061	505.391	263.712	164.929	282.318	334.845	164.651	169.624	262.837	325.076	169.237	172.981	174.000	178.376	297.343	177.788	-8191	255	
2865.011	1	1	0	0	0.18917	0.14614	0.37945	0.31116	0.20645	0.076544	0.10701	0.043179	0.17661	0.069361	0.25074	0.15539	0.088047	0.17235	0.14826	0.22426	-3.1625	-2.6646	-2.9958	-3.5458	-2.6771	-3.2	-3.375	-2.6854	-3.5521	-2.8521	-2.8875	-3.4208	-2.5	-3.3854	-3.0708	-2.6583	160.011	403.004	331.610	425.669	477.263	250.093	169.294	501.980	235.954	339.785	176.191	417.413	364.349	500.237	392.038	177.502	0.00048841	0.00071208	9.6558e-05	1433.4	8.4894e-06	2.1567e-06	1427.2	393.79	5.0261e-06	7.3101e-06	446.37	149.39	130.74	44.661	6.0956e-06	55.145	0.00026843	0.00025133	6.9833e-05	1426.8	2.7939e-06	2.7513e-06	1424.1	392.53	2.7555e-06	2.8066e-06	437.34	148.81	129.59	44.631	2.7316e-06	54.767	244.974	251.832	264.588	164.702	300.435	293.769	164.811	169.574	300.681	280.918	169.223	173.473	173.910	178.556	293.143	177.666	-8191	255	
2865.107	1	1	0	0	0.15782	0.084398	0.14139	0.12189	0.2005	0.17589	0.10994	0.03649	0.037706	0.19202	0.31133	0.16426	0.13252	0.13909	0.30401	0.12452	-3.0021	-2.8063	-2.8229	-3.6333	-2.5583	-3.1521	-3.5229	-2.7979	-3.3229	-3.0479	-2.7687	-3.4375	-2.9125	-3.4292	-3.1354	-2.7396	496.979	401.661	158.548	419.561	196.188	289.577	459.107	327.167	400.518	192.017	166.628	493.331	445.193	358.167	377.678	430.097	0.00057209	0.00023386	0.00010767	1431.6	6.6318e-06	4.647e-06	1428.2	393.39	7.026e-06	1.4204e-06	445.29	149.1	130.11	44.569	7.0269e-06	55.295	0.00026582	0.00025134	6.9337e-05	1425.4	2.7673e-06	2.7502e-06	1426.5	392.62	2.7708e-06	2.7471e-06	436.75	148.78	129.28	44.594	2.7475e-06	54.89	250.080	298.420	259.080	164.914	243.446	283.491	164.927	169.738	287.590	362.693	168.871	173.058	173.903	178.230	283.998	177.524	-8191	255	
2865.204	1	1	0	0	0.22178	0.14759	0.085123	0.22567	0.11274	0.12743	0.31705	0.19108	0.098101	0.30178	0.31239	0.10052	0.17988	0.26536	0.096795	0.10986	-3.1208	-3.0458	-2.725	-3.6813	-2.7938	-3.0333	-3.6333	-2.8312	-3.3458	-3.2083	-2.6979	-3.5271	-2.825	-2.9729	-3.3354	-2.7687	470.503	238.400	296.217	355.518	362.481	389.571	395.799	406.304	295.438	195.737	465.801	369.213	507.004	495.827	468.656	414.130	0.00053204	0.00051159	0.00013436	1428.6	6.6368e-06	8.6354e-07	1426.1	393.54	2.1483e-06	8.1251e-06	446.17	148.29	129.56	44.667	1.5229e-06	54.971	0.00026667	0.00024973	6.966e-05	1425.7	2.7895e-06	2.7577e-06	1424.5	392.35	2.7902e-06	2.6851e-06	436.9	148.48	129.11	44.681	2.7522e-06	54.655	248.724	227.194	222.609	164.735	275.990	184.550	164.595	169.612	275.386	300.368	168.788	173.413	173.815	178.521	318.944	177.396	-8191	255	
2865.324	1	1	0	0	0.19516	0.3422	0.1505	0.17305	0.04322	0.24446	0.25049	0.32024	0.10486	0.044959	0.29695	0.055566	0.16721	0.090717	0.28047	0.15121	-2.9667	-3.0354	-2.6167	-3.6229	-2.8417	-2.875	-3.7583	-2.8583	-3.2313	-3.1646	-2.6042	-3.4833	-2.8688	-2.8104	-3.3604	-3	254.122	181.847	285.352	461.016	223.067	380.725	440.889	418.462	241.448	422.151	215.430	252.351	170.255	370.625	345.951	496.024	0.00052762	0.00036839	0.00013877	1437.9	1.9696e-06	4.4262e-06	1429.3	392.57	5.2082e-06	3.0409e-06	446.47	149.72	129.98	44.748	5.1212e-06	55.046	0.00026435	0.00024415	6.919e-05	1428.2	2.7056e-06	2.6821e-06	1425.6	391.92	2.6497e-06	2.6676e-06	437.35	148.84	129.38	44.641	2.6319e-06	54.704	246.598	248.511	250.601	164.719	348.365	260.153	164.779	169.407	270.660	254.405	168.807	173.173	173.822	178.275	293.814	177.640	-8191	255	
2865.419	1	1	0	0	0.25101	0.24309	0.11079	0.092088	0.20709	0.060844	0.18184	0.16177	0.17407	0.11356	0.10495	0.1489	0.24655	0.19156	0.16989	0.15532	-2.8021	-3.3292	-2.6312	-3.5792	-2.9896	-2.8042	-3.675	-2.8792	-3.1125	-3.3708	-2.8292	-3.4979	-3.1104	-2.5479	-3.3646	-2.7229	486.105	327.053	396.134	167.551	498.572	295.506	407.877	163.852	241.805	438.021	223.290	472.194	402.839	275.916	224.028	504.220	0.0005763	0.00022798	0.00023154	1437.2	3.9614e-06	3.9975e-06	1433.5	392.81	4.8914e-06	7.8839e-06	445.29	148.96	130.52	44.622	2.5982e-06	55.073	0.00025248	0.00023671	6.654e-05	1429.6	2.5746e-06	2.5694e-06	1426.4	392.19	2.5843e-06	2.5245e-06	437.15	148.69	129.42	44.628	2.5354e-06	54.706	250.186	298.573	252.781	164.713	263.488	286.964	164.955	169.301	301.243	297.240	168.783	173.190	173.785	178.229	298.077	177.523	-8191	255	
2865.515	1	1	0	0	0.10092	0.18149	0.39345	0.22592	0.1019	0.20787	0.30738	0.3057	0.12721	0.13888	0.21201	0.29293	0.25511	0.12219	0.2228	0.058301	-2.4896	-3.225	-2.5312	-3.4437	-3.0354	-2.7042	-3.5708	-3.0062	-3.0333	-3.3125	-2.5708	-3.2958	-3.2771	-2.6917	-3.2729	-2.7833	255.359	333.107	282.065	171.356	170.984	376.064	432.271	151.436	490.962	506.317	181.060	208.589	448.699	464.677	210.383	170.353	0.00053246	0.00047552	0.00019148	1443.3	4.7168e-06	2.5038e-06	1430.4	393.01	5.0163e-06	6.6498e-06	448.6	149.08	130.52	44.838	3.7647e-06	55.284	0.00024529	0.00022941	6.4356e-05	1431	2.494e-06	2.5288e-06	1427.3	391.87	2.5608e-06	2.4841e-06	437.75	148.78	129.66	44.7	2.5011e-06	54.811	247.263	205.162	260.116	165.030	254.429	264.570	164.788	169.266	296.682	298.258	168.749	173.418	173.679	178.304	328.002	177.322	-8191	255	
2865.613	1	1	0	0	0.20523	0.35098	0.076785	0.037983	0.13077	0.4335	0.17427	0.15021	0.15451	0.15031	0.14842	0.097185	0.2817	0.22258	0.1565	0.081909	-2.4208	-3.3708	-2.5187	-3.3563	-3.1083	-2.7292	-3.4396	-3.0104	-2.7875	-3.4396	-2.7292	-3.2062	-3.3146	-2.5646	-3.275	-3.0146	496.142	264.134	432.764	459.813	424.261	419.197	420.073	456.617	350.429	431.629	506.719	355.525	434.627	173.365	254.351	396.898	0.00049909	0.00037027	0.0001586	1430.9	3.7799e-06	1.5443e-06	1436.2	392.6	6.4333e-06	5.7225e-07	449.25	149.87	129.81	44.747	3.9987e-06	55.417	0.00024506	0.00022916	6.3254e-05	1428.3	2.5077e-06	2.4944e-06	1429.4	391.4	2.5453e-06	2.4942e-06	438.48	148.93	129.32	44.699	2.5686e-06	54.822	242.477	205.784	237.240	164.774	255.130	248.760	164.664	169.327	302.621	476.530	168.903	173.213	173.791	178.237	299.408	177.541	-8191	255	
2865.707	1	1	0	0	0.20436	0.056312	0.13954	0.23918	0.076865	0.037564	0.34327	0.27086	0.042038	0.066531	0.28147	0.31127	0.17185	0.22033	0.29534	0.22365	-2.2583	-3.3104	-2.6646	-3.3021	-3.2542	-2.6292	-3.5396	-3.0896	-2.6604	-3.3917	-2.6771	-3.1063	-3.4271	-2.7292	-3.4062	-3.1917	331.310	174.056	288.983	481.485	193.925	439.469	495.120	498.507	352.812	209.924	312.004	509.321	438.826	417.067	154.191	372.426	0.00054573	0.00042342	0.0001171	1430.5	2.3439e-06	2.7667e-06	1428.2	392.89	5.9002e-06	6.2583e-06	447.04	148.83	130.26	44.613	2.5536e-06	54.955	0.00025011	0.00023235	6.4244e-05	1426.5	2.5536e-06	2.5763e-06	1425.7	391.22	2.62e-06	2.5761e-06	437.05	148.63	129.33	44.624	2.66e-06	54.816	242.317	242.163	278.625	164.782	221.740	245.666	164.754	169.508	256.413	342.010	168.604	173.200	173.671	178.222	263.174	177.617	-8191	255	
2865.803	1	1	0	0	0.25647	0.12079	0.1124	0.27095	0.17462	0.056617	0.144	0.33976	0.06613	0.10385	0.32914	0.22291	0.10629	0.17297	0.089827	0.33255	-2.2313	-3.4479	-2.7354	-3.0542	-3.0917	-2.4479	-3.3417	-3.25	-2.6562	-3.4667	-3.2062	-2.9542	-3.5521	-2.6813	-3.1479	-3.1854	377.437	291.042	357.149	390.500	305.084	451.502	208.239	433.676	315.912	369.766	465.879	174.941	487.956	177.365	458.183	373.644	0.00049914	0.00045938	0.00010804	1436.4	4.4557e-06	1.9553e-06	1430.9	392.01	7.2445e-06	2.0495e-06	447.15	149.85	130.38	44.485	6.2238e-06	55.206	0.00026259	0.00024766	6.9188e-05	1424.4	2.7911e-06	2.8117e-06	1426.5	391.8	2.8865e-06	2.8531e-06	438.09	148.93	129.45	44.585	2.9215e-06	54.951	254.470	231.919	264.000	164.885	321.470	286.405	164.715	169.529	286.605	253.805	168.752	173.158	174.107	178.104	284.899	177.745	-8191	255	
2865.899	1	1	0	0	0.14392	0.12496	0.18185	0.10086	0.16711	0.25357	0.1493	0.14963	0.27951	0.24944	0.17313	0.13827	0.1247	0.30088	0.21022	0.2745	-2.1646	-3.4167	-2.8479	-2.975	-3.3563	-2.7812	-3.3146	-3.5229	-2.6562	-3.2958	-3.0104	-2.7958	-3.5292	-2.8042	-3.0375	-3.3833	479.282	425.500	305.326	415.982	453.111	265.632	398.634	468.896	219.287	417.209	420.847	396.128	239.822	174.921	209.607	436.012	0.00048334	0.00069201	0.00011064	1433.5	7.3985e-06	4.0558e-06	1431.4	391.92	3.6136e-06	5.3874e-06	447.22	148.8	130.46	44.726	4.9681e-06	54.783	0.00028426	0.00027001	7.5618e-05	1428.4	2.9993e-06	3.0025e-06	1427.8	391.99	3.0859e-06	3.0625e-06	439.41	148.84	129.88	44.676	3.1231e-06	54.804	241.441	227.581	186.044	165.001	295.188	259.497	164.703	169.373	224.089	300.833	168.979	173.358	173.849	178.183	291.023	177.492	-8191	255	
2866.020	1	1	0	0	0.27381	0.18287	0.0489	0.24747	0.045358	0.13942	0.30164	0.30469	0.12346	0.18068	0.058205	0.099782	0.1293	0.11663	0.083136	0.15331	-2.1458	-3.3708	-2.9833	-2.8417	-3.3979	-2.8187	-3.2146	-3.5104	-2.4813	-3.3021	-3.1688	-2.7333	-3.5542	-2.8667	-2.8563	-3.6396	325.824	233.189	475.431	374.186	241.592	416.706	412.409	432.123	246.857	488.397	458.767	407.750	483.927	321.687	151.771	152.922	0.00057557	0.00031874	0.0001718	1437.6	3.8352e-06	2.3166e-06	1430.2	391.7	5.154e-06	3.4722e-06	447.56	149.01	129.91	44.375	1.3652e-06	55.196	0.00030489	0.00028525	7.9445e-05	1431.5	3.1392e-06	3.1272e-06	1431.4	392.47	3.1588e-06	3.1654e-06	439.45	149.12	129.72	44.675	3.1784e-06	54.985	247.807	268.677	245.364	164.972	288.128	270.424	164.818	169.539	263.913	320.209	168.958	173.287	173.936	178.374	287.467	177.610	-8191	255	
2866.116	1	1	0	0	0.22566	0.034794	0.10856	0.21455	0.13402	0.32608	0.15427	0.24835	0.13804	0.14632	0.13634	0.24197	0.087485	0.27947	0.13885	0.11538	-2.0333	-3.1208	-2.9771	-2.6083	-3.3521	-2.9167	-2.9896	-3.4542	-2.5854	-3.125	-3.3063	-2.6625	-3.475	-3.0438	-2.8646	-3.6083	168.525	345.564	414.727	439.685	339.064	245.351	412.796	468.172	221.913	280.432	453.815	440.069	229.272	482.737	327.719	441.409	0.00057952	0.00015651	0.00010135	1439.8	3.215e-06	6.6514e-06	1426.3	392.41	2.6494e-06	6.0286e-06	448.5	149.47	130.04	44.614	6.2701e-06	54.741	0.0003075	0.00028957	8.0847e-05	1431.1	3.1944e-06	3.1808e-06	1428.3	392.95	3.2226e-06	3.165e-06	440.26	149.15	129.85	44.763	3.2543e-06	54.893	247.739	264.246	216.646	164.840	335.420	274.945	164.758	169.344	286.092	332.396	168.794	173.264	173.999	178.158	339.509	177.578	-8191	255	
2866.188	1	1	0	0	0.10759	0.15788	0.11677	0.26518	0.058797	0.1164	0.36517	0.31796	0.052272	0.051061	0.21135	0.041376	0.068698	0.15254	0.10703	0.1194	-2.2667	-3.0354	-3.1521	-2.7146	-3.2271	-2.8958	-2.7708	-3.6521	-2.7146	-3.0354	-3.2771	-2.625	-3.4938	-3.2021	-2.7375	-3.5667	296.363	234.149	161.033	181.705	348.221	279.817	471.238	430.440	343.918	427.552	470.421	405.241	197.347	152.532	178.683	420.892	0.00057223	0.00043845	8.9295e-05	1434.3	2.5688e-06	5.0816e-07	1423.9	391.43	6.4358e-06	7.2345e-07	447.75	149.24	130.55	44.656	4.7523e-06	55.043	0.0003093	0.00029541	8.2725e-05	1430.5	3.2427e-06	3.2389e-06	1426.6	392.43	3.2756e-06	3.2795e-06	440.08	149.02	130.01	44.678	3.3242e-06	54.965	246.781	195.835	300.789	165.029	294.871	310.351	164.758	169.567	282.516	401.651	168.801	173.317	173.850	178.327	296.181	177.665	-8191	255	
2866.284	1	1	0	0	0.010163	0.12525	0.18807	0.2584	0.22173	0.083723	0.30747	0.062223	0.13905	0.17548	0.1294	0.21861	0.075702	0.27909	0.086897	0.12623	-2.2188	-2.9083	-3.45	-2.6542	-3.3104	-2.9833	-2.9208	-3.6083	-2.6854	-2.975	-3.4396	-2.775	-3.3417	-3.2354	-2.5979	-3.5875	475.264	284.152	210.852	456.800	271.019	409.444	427.376	391.083	413.601	331.722	245.043	187.426	293.597	412.090	285.507	508.470	0.00052694	0.00030795	0.00019051	1432.6	5.5234e-06	5.7016e-06	1429.7	391.43	2.8962e-06	5.1594e-06	446.81	149.22	130.31	44.714	6.3209e-06	54.818	0.00031163	0.00029765	8.2592e-05	1431.5	3.2936e-06	3.2597e-06	1431	392.8	3.3147e-06	3.2968e-06	439.85	149.17	129.85	44.759	3.3001e-06	54.933	246.417	196.295	221.787	164.807	275.268	289.501	164.776	169.434	276.826	293.037	168.711	173.360	173.981	178.272	315.865	177.404	-8191	255	
2866.405	1	1	0	0	0.23557	0.30949	0.29077	0.2175	0.1438	0.18887	0.35567	0.10168	0.19186	0.20223	0.18538	0.18112	0.19619	0.14261	0.10207	0.19512	-2.4083	-2.7438	-3.1729	-2.8833	-3.05	-3.2125	-2.775	-3.6479	-2.7125	-2.8146	-3.5917	-2.5229	-3.2729	-3.2438	-2.45	-3.4583	458.469	207.543	201.136	207.688	363.074	497.228	466.641	279.289	390.381	448.046	216.698	474.248	400.980	483.342	180.869	469.307	0.00054035	0.00015285	5.474e-05	1441	2.7673e-06	2.013e-06	1429.3	392.96	8.9249e-06	3.1948e-06	448.59	148.98	130.25	44.671	3.4325e-06	54.832	0.00031681	0.00030377	8.3168e-05	1432.2	3.3372e-06	3.2611e-06	1429.8	393.34	3.2898e-06	3.2482e-06	440.03	148.9	129.94	44.715	3.205e-06	54.738	252.871	292.933	198.996	164.956	316.704	356.133	164.862	169.349	285.586	348.950	168.555	173.274	173.803	178.177	349.975	177.573	-8191	255	
2866.501	1	1	0	0	0.17485	0.02155	0.20533	0.28168	0.16553	0.13818	0.17325	0.12782	0.18918	0.26328	0.10223	0.21153	0.15292	0.27941	0.13535	0.10576	-2.5792	-2.6979	-3.3479	-2.9938	-2.9625	-3.4604	-2.6917	-3.5354	-3.2188	-2.6167	-3.5208	-2.7708	-3.1312	-3.4771	-2.6208	-3.3375	354.013	242.512	485.538	472.690	419.289	166.771	418.448	510.933	284.651	468.587	166.309	440.463	290.631	443.434	310.742	488.445	0.00051365	0.00024706	0.00018122	1439.8	6.3672e-06	6.1564e-06	1431.8	392.89	3.7788e-06	6.2282e-06	447.26	148.88	130.66	44.577	3.4704e-06	55.212	0.00030647	0.00029299	8.0172e-05	1435	3.1587e-06	3.137e-06	1431.4	393.38	3.0956e-06	3.0714e-06	439.8	148.69	129.81	44.65	3.0187e-06	54.856	252.037	299.364	242.379	164.774	293.319	311.414	164.797	169.411	274.585	329.867	168.925	173.266	174.026	178.097	302.339	177.494	-8191	255	
2866.595	1	1	0	0	0.18542	0.14524	0.14768	0.28893	0.075972	0.06993	0.30404	0.28225	0.074308	0.19011	0.10651	0.37555	0.066321	0.058121	0.34584	0.15259	-2.7375	-2.5062	-3.45	-3.1063	-2.9896	-3.3583	-2.9562	-3.3458	-3.225	-2.5875	-3.6042	-2.9104	-2.8375	-3.5396	-2.6333	-3.3063	284.525	290.638	455.156	188.833	468.240	349.971	412.624	470.748	461.998	454.459	378.017	483.782	448.631	432.994	473.804	211.808	0.00057284	0.0001317	3.8003e-05	1437.8	5.5542e-06	9.0084e-07	1429.8	393.68	6.8029e-06	3.787e-06	446.2	149.42	130.23	44.816	1.9803e-06	55.131	0.00028762	0.0002697	7.547e-05	1433.3	2.9722e-06	2.9501e-06	1430.6	393.45	2.9283e-06	2.9541e-06	438.32	148.79	129.63	44.663	2.9152e-06	54.849	244.397	304.142	191.712	165.004	327.514	242.877	164.775	169.400	294.397	315.326	169.001	173.377	173.619	177.965	314.133	177.436	-8191	255	
2866.693	1	1	0	0	0.15423	0.081206	0.1514	0.097842	0.20587	0.25769	0.1564	0.51904	0.33813	0.086975	0.049797	0.12418	0.2484	0.078426	0.14124	0.27925	-2.825	-2.4104	-3.4354	-3.0604	-2.7125	-3.3187	-3.0083	-3.2125	-3.3563	-2.6083	-3.4896	-3.1063	-2.7021	-3.5812	-2.7396	-2.8417	312.623	321.178	203.982	443.846	203.521	319.578	471.353	449.211	255.894	210.316	479.254	177.303	165.780	505.394	381.535	415.419	0.00054665	0.00048229	0.00020881	1439.8	5.953e-06	2.6179e-06	1430.7	392.77	1.8714e-06	2.4225e-06	448.39	149.42	130.22	44.77	2.2274e-06	55.133	0.00028212	0.00026639	7.3635e-05	1430.8	2.9125e-06	2.871e-06	1428.9	392.73	2.8889e-06	2.8606e-06	438.76	148.77	129.6	44.683	2.8878e-06	54.838	245.558	277.200	187.035	164.747	297.477	300.564	164.606	169.363	252.843	342.590	168.824	173.187	173.992	178.328	299.912	177.867	-8191	255	
2866.812	1	1	0	0	0.18107	0.19693	0.055943	0.42157	0.0278	0.2399	0.30033	0.20461	0.19833	0.051931	0.22009	0.10928	0.1702	0.25591	0.22535	0.26009	-3.0062	-2.5312	-3.3083	-3.3146	-2.6958	-3.4146	-3.0229	-2.9729	-3.2667	-2.5646	-3.3958	-3.2021	-2.6542	-3.5417	-2.825	-2.8979	394.196	481.809	441.597	399.959	270.003	377.546	408.626	370.441	188.636	156.138	426.207	453.538	423.779	206.695	164.966	416.379	0.00052987	0.00012949	0.00010045	1434.2	4.5771e-06	6.8148e-06	1434	392.82	4.9476e-06	2.1495e-06	442.68	148.81	130.24	44.476	4.1907e-06	54.945	0.00027716	0.00026238	7.3142e-05	1428.9	2.8861e-06	2.87e-06	1430.5	392.6	2.9081e-06	2.8936e-06	438.2	148.61	129.41	44.598	2.9271e-06	54.878	248.269	226.590	230.314	164.785	305.299	281.528	164.593	169.574	278.832	306.741	168.975	173.018	173.825	178.245	321.322	177.820	-8191	255	
2866.884	1	1	0	0	0.28909	0.20183	0.26208	0.37117	0.18597	0.15449	0.2755	0.13454	0.2749	0.23669	0.20094	0.31736	0.25228	0.24736	0.10167	0.017242	-3.0333	-2.6021	-3.0146	-3.4146	-2.6354	-3.3479	-3.175	-2.9875	-3.4167	-2.5479	-3.3	-3.2708	-2.7646	-3.4833	-3.0083	-2.7979	302.225	318.762	470.915	510.347	279.015	334.679	416.129	495.616	458.662	231.498	484.560	508.089	437.015	473.321	401.818	439.993	0.00052754	0.00064478	6.7451e-05	1437.6	6.0961e-06	5.8423e-06	1430.4	393	1.6005e-06	5.3316e-06	447.41	149.35	129.93	44.644	7.6185e-06	55.014	0.00028017	0.00027046	7.3804e-05	1430.5	2.9328e-06	2.9166e-06	1429.6	392.69	2.9216e-06	2.9496e-06	438.44	149.04	129.62	44.64	2.9631e-06	54.811	247.047	258.908	197.570	164.807	313.020	254.273	164.815	169.483	248.330	274.449	168.968	173.310	173.858	178.321	299.700	177.590	-8191	255	
2867.004	1	1	0	0	0.067002	0.21013	0.16987	0.27949	0.12206	0.14639	0.13364	0.14665	0.12027	0.049227	0.13498	0.29038	0.36122	0.19131	0.10251	0.29144	-2.9979	-2.6729	-2.9542	-3.5625	-2.6708	-3.4271	-3.3625	-2.85	-3.4958	-2.7062	-3.1188	-3.3021	-2.6625	-3.4	-3.0104	-2.9146	192.932	162.129	324.003	476.963	458.582	416.706	461.666	400.700	284.775	444.000	240.222	170.851	406.118	191.697	395.250	413.235	0.00052806	0.00071768	6.912e-05	1437.8	6.0199e-06	4.9014e-07	1438.5	393.15	4.3589e-06	4.7028e-06	446.11	148.6	129.92	44.502	3.1235e-06	54.826	0.00028541	0.0002698	7.6227e-05	1432.5	3.0703e-06	3.0094e-06	1432.5	392.95	3.0647e-06	3.0366e-06	437.89	148.82	129.65	44.585	3.0393e-06	54.743	243.492	268.571	156.672	164.763	336.921	221.903	164.589	169.411	267.934	298.426	169.054	173.169	173.942	177.869	333.778	177.631	-8191	255	
2867.100	1	1	0	0	0.094016	0.05376	0.23056	0.16977	0.086299	0.16798	0.26814	0.1983	0.07542	0.083316	0.1198	0.20946	0.25983	0.25465	0.39757	0.18563	-3.2	-2.65	-2.9313	-3.4813	-2.6312	-3.2646	-3.2979	-2.7875	-3.5479	-2.6437	-2.7687	-3.3979	-2.7438	-3.3354	-3.2854	-2.6583	293.985	362.431	338.876	430.779	443.059	239.196	458.281	373.809	492.623	306.196	188.296	154.684	162.759	495.133	421.473	449.680	0.00056444	0.00033021	8.5799e-05	1438	6.2838e-06	4.5651e-06	1426.3	393.97	6.2138e-06	5.0792e-06	448.04	149.06	130.12	44.633	3.0186e-06	55.103	0.00028977	0.00027846	7.6331e-05	1435.5	3.0021e-06	3.0093e-06	1430.5	393.4	2.9378e-06	2.9492e-06	439.21	148.86	129.68	44.733	2.9355e-06	54.832	248.277	267.505	275.677	164.884	328.875	288.704	164.590	169.414	279.071	304.627	168.819	173.240	173.787	178.221	346.340	177.473	-8191	255	
2867.197	1	1	0	0	0.19685	0.14746	0.34717	0.31679	0.17948	0.27776	0.39813	0.10977	0.10895	0.43034	0.18487	0.18726	0.13473	0.062493	0.18213	0.14487	-3.0333	-2.9604	-2.8833	-3.6063	-2.6708	-3.1604	-3.4479	-2.7396	-3.4104	-3.1146	-2.9396	-3.6396	-2.7521	-3.2958	-3.4042	-2.8438	413.744	435.890	302.299	468.514	482.733	218.730	475.601	233.426	330.475	247.326	428.343	477.942	474.863	157.097	291.807	383.027	0.00062967	0.00014358	8.7999e-05	1442.4	4.6617e-06	2.6542e-06	1433.3	393.22	5.6778e-06	3.8644e-06	446.35	148.65	130.02	44.75	4.9066e-06	54.678	0.0002889	0.00027	7.5321e-05	1438.2	2.9968e-06	2.9903e-06	1433.9	393.29	3.0316e-06	3.0012e-06	439.71	148.78	129.83	44.784	3.0645e-06	54.826	246.798	229.042	224.633	164.597	253.693	246.515	164.690	169.492	284.063	345.150	168.826	173.185	173.640	178.331	292.365	177.386	-8191	255	
2867.293	1	1	0	0	0.46749	0.16121	0.13604	0.1344	0.3013	0.25248	0.064049	0.19337	0.09135	0.055815	0.175	0.10926	0.01323	0.40704	0.17997	0.1703	-2.9979	-3.1417	-2.5708	-3.6792	-2.6854	-2.9771	-3.7208	-2.6125	-3.2812	-3.1229	-2.8771	-3.6083	-2.9146	-3.0771	-3.4708	-2.6979	421.935	282.932	418.514	166.313	295.326	170.270	242.870	416.731	239.073	243.217	166.986	170.603	166.663	202.532	283.465	168.608	0.00060005	0.00030268	9.2219e-05	1442.3	5.5778e-06	2.6474e-06	1433.3	393.67	9.2151e-07	4.4756e-06	447.18	149.84	130.4	44.592	4.1399e-06	54.828	0.00029562	0.00027742	7.6895e-05	1438.6	3.1295e-06	3.086e-06	1435.1	393.96	3.1216e-06	3.0972e-06	440.55	149.49	129.84	44.761	3.0609e-06	54.811	243.912	234.570	189.656	164.704	270.563	507.823	164.569	169.385	217.953	225.927	168.721	172.837	173.741	178.424	287.382	177.447	-8191	255	
2867.413	1	1	0	0	0.12258	0.23568	0.032725	0.2691	0.28534	0.28085	0.35825	0.078952	0.042096	0.12653	0.14995	0.21822	0.10614	0.22812	0.21542	0.08646	-2.8625	-3.1917	-2.6312	-3.5479	-2.775	-2.7667	-3.5812	-2.825	-3.1333	-3.425	-2.6354	-3.425	-2.9104	-3.0271	-3.4396	-2.8125	207.550	428.500	232.449	491.973	479.950	490.842	424.727	388.800	363.703	280.634	157.443	409.804	224.299	419.280	317.140	440.735	0.0006435	0.00030102	0.00014814	1452.2	4.4634e-06	2.7873e-06	1439.7	394.76	4.1976e-06	2.6624e-06	449.05	149.48	130.41	44.768	5.0001e-06	54.964	0.00029844	0.00028083	7.7657e-05	1443.8	3.0651e-06	3.0693e-06	1438.6	394.38	3.089e-06	3.0717e-06	440.45	149.45	129.98	44.835	3.0935e-06	54.995	250.321	225.965	200.368	164.551	270.655	314.912	164.521	169.330	300.918	259.901	168.828	173.472	173.744	178.257	340.075	177.515	-8191	255	
2867.485	1	1	0	0	0.056034	0.2638	0.037727	0.24012	0.19729	0.07614	0.13712	0.16047	0.24861	0.12814	0.12016	0.34656	0.038362	0.16351	0.13068	0.31656	-2.7021	-3.4167	-2.5563	-3.4708	-3.0375	-2.8042	-3.725	-2.9875	-3.0062	-3.2583	-2.6979	-3.5479	-3.1208	-2.8146	-3.3729	-2.8063	441.354	374.467	436.352	432.604	451.652	384.821	151.300	155.717	376.146	424.835	365.892	480.003	463.628	422.191	457.796	471.072	0.00052819	0.00018425	8.8883e-05	1452.5	6.4444e-06	4.1621e-06	1438.1	393.9	4.8784e-06	3.3453e-06	449.03	149.17	130.68	44.638	2.9934e-06	55.215	0.00030381	0.00028027	7.999e-05	1446.6	3.1545e-06	3.1745e-06	1438.8	394.52	3.19e-06	3.1672e-06	441.05	149.23	130.14	44.781	3.1435e-06	54.959	244.369	237.187	242.133	164.859	263.380	268.282	164.537	169.165	309.822	258.584	168.585	173.228	173.676	178.317	320.581	177.335	-8191	255	
2867.581	1	1	0	0	0.17396	0.079953	0.15928	0.04942	0.043921	0.068901	0.22551	0.089647	0.30057	0.36792	0.22575	0.27907	0.14053	0.302	0.25892	0.21705	-2.45	-3.3271	-2.5042	-3.5292	-2.9688	-2.575	-3.4938	-2.7396	-2.9333	-3.4417	-2.7417	-3.3333	-3.175	-2.6208	-3.2771	-2.8979	238.519	193.898	257.453	486.553	382.494	237.765	464.051	418.084	337.337	434.491	418.695	420.196	474.490	414.002	454.458	405.563	0.00054983	0.00012224	0.00014228	1447.9	4.0143e-06	5.0869e-06	1435.1	394.56	7.0413e-06	4.9843e-06	445.58	149.84	130.43	44.865	3.5165e-06	55.256	0.00029944	0.00028491	8.0742e-05	1443.7	3.1468e-06	3.1431e-06	1438.9	394.75	3.093e-06	3.0337e-06	439.98	149.4	130.18	44.915	3.0763e-06	55.029	241.899	377.652	253.885	164.775	383.566	301.007	164.511	169.321	300.552	308.471	168.641	173.287	173.920	178.238	325.141	177.361	-8191	255	
2867.700	1	1	0	0	0.32641	0.19567	0.34543	0.30089	0.07115	0.20044	0.29465	0.45091	0.091526	0.07796	0.10925	0.046022	0.17859	0.34205	0.088377	0.25707	-2.4083	-3.3708	-2.8396	-3.3167	-3.2854	-2.3708	-3.55	-3.0667	-2.6896	-3.5542	-2.7729	-3.2646	-3.3625	-2.7271	-3.4021	-3.0042	320.759	288.932	334.125	203.667	454.159	508.530	469.366	166.912	420.797	493.636	382.568	300.524	507.308	178.748	293.891	252.618	0.00054361	0.00072772	0.00010782	1447	5.7115e-06	1.3758e-06	1438.5	394.44	5.8365e-06	2.8632e-06	447.59	150.05	131.51	44.898	3.8075e-06	55.304	0.00029305	0.00027412	7.7473e-05	1442.5	3.0656e-06	3.014e-06	1437.2	394.41	3.024e-06	3.0403e-06	440.53	149.51	130.35	44.84	3.1094e-06	55.106	250.644	226.021	252.232	164.839	322.444	333.105	164.658	169.569	293.235	308.800	168.818	173.142	173.967	178.311	318.719	177.518	-8191	255	
2867.796	1	1	0	0	0.15544	0.046271	0.23268	0.35977	0.27908	0.13755	0.239	0.21786	0.15976	0.038479	0.10094	0.28573	0.1161	0.222	0.13503	0.0736	-2.3021	-3.4021	-2.7146	-3.1771	-3.4062	-2.675	-3.4188	-3.2646	-2.6125	-3.5	-2.9042	-3.0771	-3.3646	-2.65	-3.3146	-3.1521	412.664	191.885	429.226	465.895	344.208	248.332	459.172	504.681	363.588	363.103	155.620	434.961	399.701	186.903	508.929	475.246	0.000532	0.00040823	0.00016909	1446.9	6.7548e-06	9.2357e-07	1440.3	392.91	7.507e-06	4.0312e-06	445.72	149.51	130.66	44.681	3.9592e-06	54.607	0.00029379	0.00027959	7.8333e-05	1441.8	3.101e-06	3.0967e-06	1438.7	393.16	3.1289e-06	3.0904e-06	438.68	149.32	129.88	44.792	3.205e-06	54.83	252.673	211.737	229.995	164.957	256.369	295.960	164.703	169.277	315.694	309.887	168.976	173.345	173.760	178.212	261.143	177.508	-8191	255	
2867.892	1	1	0	0	0.24069	0.119	0.032456	0.14577	0.15383	0.09513	0.28596	0.22145	0.29509	0.16059	0.08063	0.20237	0.2589	0.17643	0.14859	0.087033	-2.2562	-3.4792	-2.5125	-3.0417	-3.35	-2.5333	-3.35	-3.3792	-2.7333	-3.4604	-3.1	-2.8604	-3.5042	-2.8	-3.2292	-3.2667	363.128	424.081	477.790	454.415	353.154	226.583	448.707	170.381	233.546	280.360	465.615	460.372	307.502	431.529	494.695	300.661	0.00052888	0.0003963	6.0021e-05	1440.4	7.3351e-06	5.9658e-06	1438.8	393.09	8.0983e-06	4.9369e-06	447.56	149.67	130.12	44.378	6.6067e-06	54.933	0.00030795	0.00029456	8.2516e-05	1438	3.2478e-06	3.257e-06	1435.9	393.66	3.2941e-06	3.2652e-06	439.27	149.3	129.63	44.668	3.2891e-06	55.021	252.107	236.391	254.070	164.816	300.335	233.331	164.839	169.499	282.019	254.678	168.833	173.298	174.163	178.086	252.571	177.634	-8191	255	
2867.988	1	1	0	0	0.15901	0.12066	0.12997	0.064779	0.12003	0.22335	0.26631	0.20598	0.10848	0.32018	0.036865	0.11971	0.026168	0.19168	0.15121	0.12947	-2.2083	-3.4958	-2.7792	-2.8667	-3.4208	-2.7521	-3.1312	-3.5333	-2.5938	-3.4729	-3.1167	-2.9458	-3.4417	-2.7208	-3.0167	-3.4375	259.944	477.036	414.725	424.777	466.527	450.459	197.023	467.826	202.061	448.802	451.606	234.894	471.959	363.351	483.807	436.034	0.00056851	0.00053171	0.00011672	1441.1	4.626e-06	7.1477e-06	1436.9	393.55	1.9627e-06	4.5089e-06	447.74	149.01	130.72	44.579	5.42e-06	55.079	0.00031184	0.00030101	8.2634e-05	1439.4	3.2595e-06	3.2182e-06	1439.9	393.99	3.3036e-06	3.2136e-06	440.85	149.07	130.13	44.826	3.2761e-06	54.944	245.796	260.310	236.515	164.863	350.055	253.067	164.672	169.082	251.494	273.345	168.979	173.366	173.781	177.999	313.167	177.546	-8191	255	
2868.085	1	1	0	0	0.23741	0.27995	0.23498	0.18996	0.17963	0.12312	0.07908	0.16176	0.1236	0.21453	0.065499	0.3948	0.12154	0.14623	0.095775	0.05925	-2.1188	-3.4188	-2.9521	-2.6646	-3.5104	-2.8146	-3.2229	-3.5021	-2.45	-3.3042	-3.2917	-2.825	-3.5667	-2.8729	-2.8688	-3.5875	448.010	456.093	440.667	167.583	425.876	446.747	418.378	482.464	479.570	307.319	210.434	495.621	449.814	460.898	368.568	196.344	0.00055236	0.00029436	0.00022105	1451.4	9.1123e-06	5.2364e-06	1434.6	394.36	7.3681e-06	1.6332e-06	447.25	149.06	130.42	44.733	3.7402e-06	54.904	0.00031197	0.00029809	8.2674e-05	1445.2	3.2661e-06	3.2478e-06	1439.5	394.49	3.2683e-06	3.2203e-06	440.8	149.17	129.96	44.767	3.2349e-06	54.872	245.410	271.527	229.060	164.716	284.686	237.311	164.549	169.315	263.508	359.820	168.740	173.172	173.685	178.137	298.554	177.430	-8191	255	
2868.181	1	1	0	0	0.20255	0.19236	0.14963	0.28271	0.21203	0.37134	0.15004	0.12397	0.13089	0.28352	0.23739	0.042884	0.090556	0.079029	0.097141	0.25862	-2.3	-3.2542	-3.1521	-2.7771	-3.3958	-2.7771	-3.0667	-3.6729	-2.5458	-3.2417	-3.4083	-2.8312	-3.4708	-2.9396	-2.7875	-3.4333	164.208	322.999	312.813	440.949	325.986	327.248	491.744	194.074	270.838	366.288	281.289	436.901	402.209	281.165	451.091	361.373	0.00056926	0.00086813	0.0001156	1448.2	7.4123e-06	2.4644e-06	1447.2	394.35	2.8819e-06	6.2185e-06	446.27	149.6	130.3	44.568	2.3452e-06	54.965	0.00030535	0.00029109	8.1305e-05	1444.9	3.2192e-06	3.2048e-06	1444.4	394.89	3.2727e-06	3.2633e-06	439.17	149.27	130.04	44.745	3.2495e-06	55.044	244.607	214.101	242.340	164.679	290.703	210.081	164.837	169.308	332.716	285.797	168.599	173.334	173.759	178.093	374.653	177.455	-8191	255	
2868.277	1	1	0	0	0.13701	0.18463	0.17886	0.29497	0.088255	0.10092	0.19014	0.054681	0.26428	0.054056	0.2734	0.15256	0.060191	0.22574	0.3632	0.27661	-2.2917	-2.9979	-3.2271	-2.7271	-3.45	-3.0187	-3.0521	-3.6562	-2.7562	-3.075	-3.55	-2.7667	-3.4667	-3.0354	-2.8292	-3.5958	322.371	401.617	355.074	466.437	244.095	187.838	457.227	295.907	213.102	461.077	241.329	216.508	197.083	494.769	314.788	484.206	0.00048191	0.00054538	0.0001964	1450.3	8.0156e-06	3.1245e-06	1445.2	395.77	8.1341e-06	3.8342e-06	446.17	148.88	130.42	44.605	3.3779e-06	55.005	0.0003146	0.0003001	8.4165e-05	1445.7	3.3399e-06	3.3152e-06	1443.8	395.43	3.3809e-06	3.3407e-06	441.15	149.09	130.2	44.811	3.3363e-06	55.006	248.840	245.265	240.977	164.772	330.867	264.612	164.754	169.393	278.864	352.542	168.769	173.315	173.969	177.947	324.566	177.642	-8191	255	
2868.373	1	1	0	0	0.13084	0.12909	0.11166	0.19412	0.18966	0.11896	0.050276	0.12035	0.015954	0.023479	0.20868	0.27963	0.20019	0.2302	0.35449	0.28644	-2.4646	-2.8667	-3.3833	-2.6917	-3.3896	-3.2875	-3.0521	-3.5125	-2.8083	-2.8542	-3.4375	-2.7	-3.2854	-3.4083	-2.6312	-3.65	203.513	180.019	280.880	209.465	243.110	378.323	492.003	282.785	226.897	331.374	270.051	427.104	260.034	433.359	290.028	402.765	0.00059865	0.0001765	0.0001358	1445.3	7.2738e-06	6.8143e-06	1446.3	395.28	3.402e-06	4.3183e-06	448.24	148.82	130.82	44.828	2.9631e-06	55.274	0.00031583	0.00030274	8.3994e-05	1445.3	3.2788e-06	3.2609e-06	1442.3	395.51	3.2763e-06	3.1987e-06	440.46	148.92	130.03	44.871	3.215e-06	54.998	244.947	196.536	242.015	164.894	271.532	308.441	164.417	169.425	305.797	266.602	168.524	173.343	173.991	178.209	253.851	177.292	-8191	255	
2868.492	1	1	0	0	0.22739	0.017179	0.021008	0.093529	0.15537	0.23783	0.091177	0.028074	0.042108	0.1306	0.11127	0.16781	0.22755	0.20174	0.13969	0.14249	-2.5938	-2.9396	-3.5958	-2.8063	-3.2521	-3.2354	-2.8667	-3.6583	-3.2354	-2.7771	-3.425	-2.8292	-3.2208	-3.3708	-2.6479	-3.5583	382.485	437.934	394.677	504.475	328.754	235.117	452.863	497.714	425.402	236.191	152.362	156.215	507.668	447.731	296.677	217.065	0.00057679	0.00034369	0.00010765	1448.6	5.5725e-06	4.3952e-06	1443.6	394.92	7.1247e-06	2.398e-06	445.44	149.59	130.76	44.504	2.4461e-06	55.092	0.00030698	0.0002871	8.0353e-05	1442.9	3.1605e-06	3.1359e-06	1441	395.42	3.1826e-06	3.207e-06	439.69	149.04	130.14	44.805	3.2071e-06	54.94	246.315	254.685	253.209	164.728	298.321	287.008	164.773	169.523	274.980	290.033	168.811	173.157	173.914	178.168	287.187	177.483	-8191	255	
2868.588	1	1	0	0	0.09554	0.17661	0.10599	0.23438	0.27325	0.046164	0.27968	0.23627	0.23639	0.11731	0.23217	0.087112	0.11421	0.13131	0.1167	0.25938	-2.5896	-2.9125	-3.5458	-3.0229	-3.0104	-3.4375	-2.8896	-3.4271	-3.0542	-2.6417	-3.5729	-3.0792	-3.2354	-3.5771	-2.6667	-3.3063	265.327	267.288	302.260	416.667	403.710	305.828	482.440	167.151	207.262	267.053	455.741	474.723	347.752	407.484	172.545	424.655	0.00056083	0.0006931	0.00018302	1445	6.582e-06	6.5354e-06	1438.7	394.42	1.0527e-05	3.7618e-06	445.27	149.3	130.81	44.621	6.1956e-06	54.975	0.00030429	0.00028981	8.001e-05	1444.3	3.2116e-06	3.1658e-06	1438.5	394.74	3.2159e-06	3.1999e-06	439.04	149.18	129.97	44.765	3.2115e-06	54.867	244.747	226.264	180.832	165.027	304.670	250.169	164.686	169.523	293.505	338.739	168.723	173.066	173.972	178.027	299.036	177.632	-8191	255	
2868.684	1	1	0	0	0.17011	0.29646	0.17778	0.058793	0.19141	0.2894	0.21588	0.21863	0.16582	0.17963	0.29595	0.14778	0.32006	0.24605	0.18988	0.26161	-2.7958	-2.5833	-3.3354	-3.0167	-2.8646	-3.3854	-2.7146	-3.3625	-3.1125	-2.6125	-3.6167	-3.1833	-3.025	-3.6979	-2.4729	-3.4188	401.374	286.322	279.105	184.838	410.421	213.732	451.711	501.117	274.777	404.119	493.692	433.485	500.692	485.811	170.406	470.570	0.00051782	0.00050734	0.00021003	1446.7	1.1775e-06	1.0064e-06	1432.5	393.74	6.5241e-06	3.6099e-06	447.2	148.82	130.7	44.509	1.8472e-06	54.98	0.00030618	0.00029258	8.0476e-05	1444.4	3.3028e-06	3.2102e-06	1438.4	394.46	3.2074e-06	3.2324e-06	440.22	148.85	129.93	44.76	3.2359e-06	55.029	245.520	225.231	257.907	164.796	273.174	506.778	164.553	169.435	286.786	369.101	168.964	173.171	173.953	178.374	295.427	177.700	-8191	255	
2868.780	1	1	0	0	0.17543	0.22492	0.12474	0.38105	0.14502	0.081788	0.10632	0.22499	0.034336	0.23616	0.14017	0.14796	0.062139	0.204	0.18912	0.35022	-2.8833	-2.4625	-3.4708	-3.0708	-2.6792	-3.3854	-3.0458	-3.1833	-3.3417	-2.6562	-3.4104	-3.2521	-2.8708	-3.5812	-2.7542	-3.0938	364.869	469.005	332.682	488.680	154.058	398.380	457.013	441.081	437.144	347.158	301.392	456.021	495.634	197.682	160.302	498.284	0.00054931	0.00023389	5.7613e-05	1445.5	4.6337e-06	2.9684e-06	1436.9	393.12	3.2446e-06	2.5074e-06	447.86	148.91	130.24	44.567	3.7927e-06	55.131	0.00031212	0.0002988	8.2745e-05	1444.6	3.3171e-06	3.2661e-06	1440.3	394.45	3.3116e-06	3.3001e-06	440.44	149.07	129.94	44.754	3.3385e-06	55.015	252.181	198.853	269.484	164.665	302.039	274.952	164.750	169.543	324.527	406.119	168.809	173.040	174.052	178.220	322.984	177.611	-8191	255	
2868.877	1	1	0	0	0.029351	0.12144	0.12876	0.18397	0.33321	0.12275	0.24124	0.019671	0.12914	0.1995	0.10431	0.23308	0.26287	0.049683	0.056942	0.061546	-3.1479	-2.5375	-3.2375	-3.4625	-2.7438	-3.5417	-3.2062	-3.05	-3.3875	-2.7292	-3.3458	-3.3625	-2.7083	-3.675	-3.0417	-2.9938	263.672	227.357	387.473	462.701	459.504	202.739	447.325	506.914	448.675	162.242	389.606	495.277	417.214	258.334	464.502	490.540	0.00055031	0.00038985	0.00011494	1448.2	3.4093e-06	6.3272e-06	1436.4	393.6	5.2964e-06	3.2172e-06	448.42	148.58	130.6	44.839	2.3321e-06	55.054	0.00031481	0.00030383	8.5014e-05	1444	3.358e-06	3.3125e-06	1440.7	395.34	3.2836e-06	3.2885e-06	441.85	149.01	129.86	44.906	3.2862e-06	54.963	244.951	260.509	212.802	164.645	335.539	247.427	164.614	169.433	306.497	265.962	168.937	173.226	173.806	177.938	386.088	177.779	-8191	255	
2868.995	1	1	0	0	0.09127	0.35402	0.094192	0.39915	0.24601	0.18599	0.13327	0.25869	0.073189	0.12653	0.36394	0.36836	0.098159	0.020505	0.24217	0.35316	-3.1292	-2.7	-3.2542	-3.5542	-2.8187	-3.3292	-2.9854	-3.075	-3.3688	-2.5958	-3.2458	-3.4125	-2.9375	-3.4813	-2.9104	-3.0521	339.646	465.384	212.183	450.557	433.764	364.000	335.111	427.052	342.407	509.184	482.805	360.684	158.640	458.275	168.665	439.813	0.00053578	0.00025374	0.00026306	1448.6	4.8528e-06	6.0302e-06	1435.7	395.3	5.0562e-06	2.8783e-06	445.23	148.42	130.29	44.577	7.5586e-06	55.006	0.00031295	0.00030129	8.321e-05	1444.3	3.3273e-06	3.322e-06	1438.2	395.52	3.3336e-06	3.2964e-06	440.3	148.93	129.97	44.851	3.2709e-06	54.971	245.984	294.167	235.590	164.715	273.637	226.103	164.826	169.632	283.773	356.247	169.170	173.062	173.781	178.229	270.189	177.689	-8191	255	
2869.092	1	1	0	0	0.15839	0.29277	0.14013	0.11359	0.20087	0.083644	0.069629	0.14459	0.18011	0.12038	0.19732	0.11695	0.16236	0.24806	0.071645	0.21112	-3.2479	-2.8146	-3.0938	-3.6479	-2.6229	-3.4625	-3.3729	-2.8979	-3.45	-2.7917	-2.9229	-3.5958	-2.7417	-3.4583	-3.125	-2.6542	241.687	222.600	305.813	422.767	409.474	285.313	397.049	278.908	209.091	195.826	211.944	282.020	482.220	382.769	507.299	319.866	0.00059525	0.00023734	7.7069e-05	1453.7	6.997e-06	3.8277e-06	1438.2	393.83	5.9823e-06	2.3296e-06	446.37	149.18	129.98	44.528	6.4039e-06	54.998	0.00031449	0.00029499	8.2588e-05	1447.4	3.2487e-06	3.2166e-06	1441.1	394.9	3.214e-06	3.1848e-06	440.55	149.1	129.87	44.756	3.2301e-06	54.962	250.549	331.637	281.868	164.870	284.682	282.120	164.683	169.658	298.988	287.309	169.011	173.434	173.847	178.277	305.118	177.712	-8191	255	
2869.188	1	1	0	0	0.091645	0.077789	0.12361	0.16589	0.026436	0.071563	0.1928	0.22648	0.14486	0.17741	0.077064	0.057166	0.089496	0.07847	0.11297	0.22938	-3.1646	-2.8604	-2.7938	-3.5125	-2.6292	-3.2583	-3.4021	-2.7583	-3.4896	-2.9667	-2.9458	-3.5771	-2.7125	-3.1604	-3.3667	-2.725	463.792	369.036	217.459	474.243	235.293	261.994	417.038	393.306	357.636	321.812	422.804	388.419	389.779	173.287	167.699	438.702	0.00051609	0.00034578	4.8478e-05	1446.6	7.4864e-06	3.7894e-06	1441.4	394.72	2.8205e-06	2.7402e-06	446.28	148.29	130.5	44.566	2.3522e-06	54.941	0.0003065	0.00029429	8.2217e-05	1443.4	3.2915e-06	3.2644e-06	1439.1	395.27	3.3196e-06	3.2985e-06	440.14	148.99	130	44.806	3.4401e-06	55.036	245.254	298.504	210.408	164.984	269.454	267.888	164.464	169.685	311.098	282.219	169.124	173.246	174.041	178.376	296.000	177.800	-8191	255	
2869.284	1	1	0	0	0.087502	0.15465	0.18993	0.23818	0.074101	0.16424	0.26672	0.12156	0.028054	0.097311	0.20757	0.12442	0.13599	0.099783	0.02309	0.14595	-3.2	-2.9896	-2.8083	-3.6479	-2.8771	-3.2792	-3.625	-2.7583	-3.2896	-3.0479	-3.0312	-3.6125	-2.75	-3.1333	-3.2479	-2.7271	497.906	249.360	305.780	422.124	506.904	388.081	481.894	433.065	304.748	230.987	229.894	369.744	215.215	490.148	194.498	463.256	0.00058284	0.00014161	9.6296e-05	1447.8	2.1269e-06	4.541e-06	1441.5	394.3	3.3124e-06	1.448e-06	448.98	149.57	130.45	44.761	4.3319e-06	54.882	0.00032793	0.0003171	8.9101e-05	1446.1	3.5252e-06	3.5009e-06	1443.2	396.04	3.511e-06	3.4601e-06	442.52	149.68	130.44	44.875	3.4769e-06	55.046	248.370	500.484	247.412	165.156	274.040	202.268	164.704	169.656	279.026	352.883	169.066	173.280	173.918	178.316	287.213	177.823	-8191	255	
2869.380	1	1	0	0	0.13969	0.21713	0.081542	0.096751	0.14088	0.081168	0.22633	0.37483	0.21908	0.13641	0.23187	0.26197	0.14911	0.099345	0.076676	0.1698	-2.9292	-3.0708	-2.7208	-3.5917	-2.7333	-2.9646	-3.6021	-2.7354	-3.3563	-3.2042	-2.6771	-3.6375	-2.9521	-2.9792	-3.525	-2.8563	276.066	179.236	314.887	490.538	169.707	432.338	408.472	443.085	453.629	233.867	180.588	165.022	438.841	193.550	262.236	332.778	0.00059191	0.00043816	0.00013897	1449.4	8.2478e-06	6.9388e-06	1444.9	394.53	4.1259e-06	5.4824e-06	448.3	149.27	130.59	44.729	5.058e-06	54.914	0.00033031	0.00031804	8.8244e-05	1450.2	3.465e-06	3.4423e-06	1444.6	395.84	3.4756e-06	3.3928e-06	442.44	149.76	130.35	44.919	3.4136e-06	55.07	252.354	223.033	219.502	164.867	287.867	279.616	164.630	169.600	289.474	283.697	169.127	173.231	173.939	178.283	276.753	177.437	-8191	255	
2869.476	1	1	0	0	0.085471	0.093751	0.16841	0.06768	0.16305	0.062639	0.19505	0.22975	0.14877	0.21844	0.40714	0.3049	0.16838	0.043745	0.21854	0.17645	-2.7854	-3.1292	-2.7542	-3.7542	-2.7938	-2.9646	-3.7521	-2.9313	-3.1542	-3.2875	-2.7062	-3.4792	-3.0479	-2.9	-3.3396	-2.8208	373.996	300.125	157.084	436.200	301.268	275.370	464.304	435.780	483.007	483.278	475.755	482.123	387.603	225.239	394.484	285.015	0.00052361	0.00040857	5.3248e-05	1455.5	6.2464e-06	5.9259e-06	1449.5	396.77	3.5367e-06	3.0428e-06	444.44	149.96	130.47	44.716	3.1724e-06	55.162	0.00032877	0.00031537	8.7925e-05	1455.8	3.47e-06	3.4286e-06	1450.4	397	3.5091e-06	3.4579e-06	441.91	149.62	130.56	44.929	3.5072e-06	55.071	248.073	190.245	303.618	165.023	329.640	310.383	164.794	169.689	325.801	259.427	169.340	173.269	174.104	178.320	235.745	177.410	-8191	255	
2869.572	1	1	0	0	0.054118	0.20103	0.23897	0.28447	0.15885	0.095091	0.12701	0.24894	0.1466	0.20892	0.1313	0.27615	0.15529	0.15756	0.16791	0.21423	-2.6792	-3.2271	-2.5354	-3.5729	-2.8396	-2.7083	-3.6479	-2.9458	-3.1688	-3.4688	-2.7896	-3.5354	-3.2646	-2.8896	-3.4062	-2.7583	502.422	436.688	305.103	439.140	185.887	490.533	418.525	448.424	275.175	299.546	506.700	410.020	454.154	181.354	379.204	428.728	0.00054406	0.00049979	3.2251e-05	1459.3	4.2093e-06	4.5906e-06	1448.4	396.1	6.6422e-06	5.2931e-06	448.03	149.35	131.28	44.668	5.6728e-06	55.017	0.00033597	0.00032057	8.9554e-05	1456.5	3.5232e-06	3.5163e-06	1452.2	397.38	3.5379e-06	3.5322e-06	443.61	149.82	130.93	44.944	3.5166e-06	55.109	250.569	261.703	249.270	164.949	316.368	246.775	164.779	169.480	296.867	311.880	168.746	173.169	173.981	178.350	294.036	177.473	-8191	255	
2869.668	1	1	0	0	0.17727	0.090487	0.24854	0.33769	0.11697	0.049748	0.21225	0.25593	0.25794	0.04181	0.073257	0.17599	0.21966	0.080908	0.075153	0.11889	-2.5208	-3.3333	-2.8542	-3.5792	-3.1333	-2.7708	-3.7	-2.9896	-2.8021	-3.4729	-2.6083	-3.3271	-3.4375	-2.975	-3.4917	-2.8917	261.671	225.366	238.111	471.647	294.963	276.845	490.279	465.177	192.398	219.993	270.582	467.661	497.140	416.464	273.293	498.200	0.00053416	0.00038335	0.00013759	1461.5	2.5863e-06	3.8886e-06	1449	396.6	4.7931e-06	4.527e-06	447.89	149.38	131.3	44.747	2.4972e-06	55.05	0.00033745	0.00032025	8.9247e-05	1459.1	3.5169e-06	3.5024e-06	1453.9	397.47	3.5076e-06	3.4636e-06	442.89	149.69	130.85	44.982	3.4604e-06	55.132	244.204	258.368	267.565	164.887	287.264	315.031	164.912	169.337	297.928	284.993	169.166	173.294	173.904	178.103	321.287	177.348	-8191	255	
2869.765	1	1	0	0	0.26401	0.13799	0.31828	0.21177	0.1877	0.14284	0.20038	0.17068	0.20547	0.024021	0.05759	0.069554	0.27623	0.28737	0.19661	0.13872	-2.6125	-3.6437	-2.6333	-3.3792	-3.3812	-2.7062	-3.7542	-3.0792	-2.9313	-3.4604	-3.0083	-3.2354	-3.3375	-2.6979	-3.5875	-3.25	258.493	468.514	186.202	464.084	164.590	489.487	445.592	387.887	173.757	259.149	324.189	480.472	422.151	164.539	415.155	419.537	0.0005447	0.00046512	0.0001836	1462.6	6.771e-06	8.6755e-07	1449.3	396.86	6.5969e-06	3.4484e-06	450.29	150.32	130.79	44.736	2.6714e-06	54.868	0.00032998	0.0003166	8.7785e-05	1460.3	3.4522e-06	3.4767e-06	1451.7	397.73	3.4867e-06	3.4898e-06	443.36	149.96	130.82	44.991	3.5046e-06	55.088	249.028	235.316	266.390	164.939	277.877	321.460	164.865	169.335	303.469	348.327	168.865	173.573	174.041	178.325	338.807	177.757	-8191	255	
2869.883	1	1	0	0	0.20613	0.077238	0.24818	0.15881	0.089457	0.13904	0.19979	0.076249	0.15705	0.062964	0.30983	0.11358	0.25765	0.40369	0.21227	0.21401	-2.5417	-3.7229	-2.7854	-3.0979	-3.4313	-2.7583	-3.625	-3.3063	-2.5292	-3.5062	-2.9292	-3.1667	-3.3792	-2.7625	-3.2167	-3.2	182.862	382.434	265.287	460.618	332.498	213.674	432.297	416.225	402.794	166.986	409.790	505.685	462.822	472.962	258.848	155.839	0.00054374	0.00027404	0.00013995	1461.9	4.459e-06	4.5974e-06	1456	396.2	9.9098e-06	4.318e-06	448.08	149.7	130.59	44.621	2.7827e-06	54.86	0.00033156	0.00032069	8.8688e-05	1459.7	3.5101e-06	3.4718e-06	1455.7	397.96	3.5e-06	3.4231e-06	442.66	149.89	130.76	44.912	3.4919e-06	55.175	240.846	309.328	192.233	164.891	263.896	271.836	164.484	169.354	255.102	300.039	168.631	173.258	173.988	178.359	254.407	177.464	-8191	255	
#DATA ENDS
