BOXY.EXE: ISS Imagent and Oximeter Data Acquisition Program Version 0.80
Ascii Record File

#ACQ INFORMATION
2  Detector Channels 
16  External MUX Channels 
1  Auxiliary Channels 
5000  Waveform (CCF) Frequency (Hz)
1  Waveforms Skipped 
30  Waveforms Averaged 
1  Cycles Averaged 
16  Acquisitions per Waveform 
10.0806  Updata Rate (Hz) 

#FILE INFORMATION
TRUE -- External MUX Channel results are PARSED.
FALSE -- AC DC and Phase are NOT grouped.
TRUE -- Companion Program Settings File CREATED.
FALSE -- AC data not excluded
FALSE -- DC data not excluded
FALSE -- Phase data not excluded
FALSE -- Auxillary Chn. data not excluded
Tab delimiters

#CALIBRATION STATE
TRUE -- Waveform Calibration Values APPLIED.


#AUX CALIBRATION VALUES
Val Type	aux-1	

Term	1.0000e+00	
Factor	0.0000e+00	


#WF CALIBRATION VALUES
A = Detector Channel
Val Type	A-AC1	A-AC2	A-AC3	A-AC4	A-AC5	A-AC6	A-AC7	A-AC8	A-AC9	A-AC10	A-AC11	A-AC12	A-AC13	A-AC14	A-AC15	A-AC16	A-DC1	A-DC2	A-DC3	A-DC4	A-DC5	A-DC6	A-DC7	A-DC8	A-DC9	A-DC10	A-DC11	A-DC12	A-DC13	A-DC14	A-DC15	A-DC16	A-Ph1	A-Ph2	A-Ph3	A-Ph4	A-Ph5	A-Ph6	A-Ph7	A-Ph8	A-Ph9	A-Ph10	A-Ph11	A-Ph12	A-Ph13	A-Ph14	A-Ph15	A-Ph16	

Term	0.00000e+00	0.00000e+00	0.00000e+00	0.00000e+00	0.00000e+00	0.00000e+00	0.00000e+00	0.00000e+00	0.00000e+00	0.00000e+00	0.00000e+00	0.00000e+00	0.00000e+00	0.00000e+00	0.00000e+00	0.00000e+00	0.00000e+00	0.00000e+00	0.00000e+00	0.00000e+00	0.00000e+00	0.00000e+00	0.00000e+00	0.00000e+00	0.00000e+00	0.00000e+00	0.00000e+00	0.00000e+00	0.00000e+00	0.00000e+00	0.00000e+00	0.00000e+00	0.00000e+00	0.00000e+00	0.00000e+00	0.00000e+00	0.00000e+00	0.00000e+00	0.00000e+00	0.00000e+00	0.00000e+00	0.00000e+00	0.00000e+00	0.00000e+00	0.00000e+00	0.00000e+00	0.00000e+00	0.00000e+00	
Factor	1.00000e+00	1.00000e+00	1.00000e+00	1.00000e+00	1.00000e+00	1.00000e+00	1.00000e+00	1.00000e+00	1.00000e+00	1.00000e+00	1.00000e+00	1.00000e+00	1.00000e+00	1.00000e+00	1.00000e+00	1.00000e+00	1.00000e+00	1.00000e+00	1.00000e+00	1.00000e+00	1.00000e+00	1.00000e+00	1.00000e+00	1.00000e+00	1.00000e+00	1.00000e+00	1.00000e+00	1.00000e+00	1.00000e+00	1.00000e+00	1.00000e+00	1.00000e+00	X	X	X	X	X	X	X	X	X	X	X	X	X	X	X	X	

B = Detector Channel
Val Type	B-AC1	B-AC2	B-AC3	B-AC4	B-AC5	B-AC6	B-AC7	B-AC8	B-AC9	B-AC10	B-AC11	B-AC12	B-AC13	B-AC14	B-AC15	B-AC16	B-DC1	B-DC2	B-DC3	B-DC4	B-DC5	B-DC6	B-DC7	B-DC8	B-DC9	B-DC10	B-DC11	B-DC12	B-DC13	B-DC14	B-DC15	B-DC16	B-Ph1	B-Ph2	B-Ph3	B-Ph4	B-Ph5	B-Ph6	B-Ph7	B-Ph8	B-Ph9	B-Ph10	B-Ph11	B-Ph12	B-Ph13	B-Ph14	B-Ph15	B-Ph16	

Term	0.00000e+00	0.00000e+00	0.00000e+00	0.00000e+00	0.00000e+00	0.00000e+00	0.00000e+00	0.00000e+00	0.00000e+00	0.00000e+00	0.00000e+00	0.00000e+00	0.00000e+00	0.00000e+00	0.00000e+00	0.00000e+00	0.00000e+00	0.00000e+00	0.00000e+00	0.00000e+00	0.00000e+00	0.00000e+00	0.00000e+00	0.00000e+00	0.00000e+00	0.00000e+00	0.00000e+00	0.00000e+00	0.00000e+00	0.00000e+00	0.00000e+00	0.00000e+00	-1.45959e+02	-1.30980e+02	-1.25157e+02	-1.82080e+02	-7.17741e+01	-6.95097e+01	-1.55766e+02	-1.62015e+02	-7.74156e+01	-6.88670e+01	-1.70942e+02	-1.70432e+02	-1.82993e+02	-1.76724e+02	-6.90137e+01	-1.49404e+02	
Factor	2.03209e-05	1.41488e-04	3.74525e-05	1.74853e-01	1.18439e-06	1.57894e-06	1.53863e-01	4.53265e-02	1.13898e-06	1.62005e-06	7.65132e-02	2.71161e-02	3.40376e-02	8.44743e-03	1.33393e-06	1.21964e-02	1.36066e-05	2.52670e-05	7.14622e-06	9.33528e-02	2.52174e-07	2.86787e-07	7.71164e-02	2.43145e-02	2.45725e-07	2.86025e-07	3.96700e-02	1.41238e-02	1.84396e-02	4.57171e-03	2.63143e-07	6.37821e-03	X	X	X	X	X	X	X	X	X	X	X	X	X	X	X	X	



#DISTANCE SETTINGS
A = Detector Channel
A-1	A-2	A-3	A-4	A-5	A-6	A-7	A-8	A-9	A-10	A-11	A-12	A-13	A-14	A-15	A-16	

2.5000e+00	3.0000e+00	2.5000e+00	3.0000e+00	2.0000e+00	3.0000e+00	1.5000e+00	3.0000e+00	3.0000e+00	3.0000e+00	3.0000e+00	3.0000e+00	3.0000e+00	3.0000e+00	1.5000e+00	3.0000e+00	

B = Detector Channel
B-1	B-2	B-3	B-4	B-5	B-6	B-7	B-8	B-9	B-10	B-11	B-12	B-13	B-14	B-15	B-16	

1.0000e+01	1.0000e+01	1.0000e+01	1.4400e+00	1.0000e+01	1.0000e+01	1.5100e+00	1.9400e+00	1.0000e+01	1.0000e+01	1.9900e+00	2.4900e+00	2.4100e+00	2.9000e+00	1.0000e+01	2.9800e+00	




#DATA BEGINS
time	group	step	mark	flag	A-AC1	A-AC2	A-AC3	A-AC4	A-AC5	A-AC6	A-AC7	A-AC8	A-AC9	A-AC10	A-AC11	A-AC12	A-AC13	A-AC14	A-AC15	A-AC16	A-DC1	A-DC2	A-DC3	A-DC4	A-DC5	A-DC6	A-DC7	A-DC8	A-DC9	A-DC10	A-DC11	A-DC12	A-DC13	A-DC14	A-DC15	A-DC16	A-Ph1	A-Ph2	A-Ph3	A-Ph4	A-Ph5	A-Ph6	A-Ph7	A-Ph8	A-Ph9	A-Ph10	A-Ph11	A-Ph12	A-Ph13	A-Ph14	A-Ph15	A-Ph16	B-AC1	B-AC2	B-AC3	B-AC4	B-AC5	B-AC6	B-AC7	B-AC8	B-AC9	B-AC10	B-AC11	B-AC12	B-AC13	B-AC14	B-AC15	B-AC16	B-DC1	B-DC2	B-DC3	B-DC4	B-DC5	B-DC6	B-DC7	B-DC8	B-DC9	B-DC10	B-DC11	B-DC12	B-DC13	B-DC14	B-DC15	B-DC16	B-Ph1	B-Ph2	B-Ph3	B-Ph4	B-Ph5	B-Ph6	B-Ph7	B-Ph8	B-Ph9	B-Ph10	B-Ph11	B-Ph12	B-Ph13	B-Ph14	B-Ph15	B-Ph16	aux-1	digaux	

1027.316	1	1	0	256	0.18381	0.098644	0.091387	0.16585	0.18773	0.040722	0.30895	0.26296	0.22934	0.095595	0.12783	0.32975	0.15177	0.14523	0.06757	0.22764	-1.6417	-1.1333	-1.5417	-2.0229	-1.3	-1.9104	-1.9271	-1.3271	-1.8813	-1.4062	-1.5042	-2.0729	-1.2271	-1.9208	-1.5667	-1.2583	356.332	135.878	254.924	79.706	142.767	180.884	372.139	337.812	328.208	221.333	288.840	94.557	126.991	295.838	378.974	405.980	0.00058125	0.00056152	0.00010918	1280.4	4.9855e-06	4.8729e-06	1294.9	348.77	5.6795e-06	6.149e-06	406.14	136.92	117.24	40.88	5.4414e-06	51.503	0.00048715	0.00035826	0.00010411	1296.4	4.2129e-06	3.969e-06	1309.3	354.51	4.0811e-06	3.9847e-06	412.62	139.59	120.13	42.113	4.1111e-06	52.799	151.580	177.483	178.635	91.971	214.644	235.873	91.956	96.888	221.140	229.703	96.197	100.496	101.336	106.095	209.615	104.978	-8191	255	
1027.437	1	1	0	0	0.082336	0.12351	0.15037	0.17872	0.28731	0.15501	0.31415	0.63843	0.22433	0.11089	0.23282	0.10398	0.17326	0.14967	0.0851	0.35997	-1.5208	-1.5354	-1.3625	-1.8563	-0.95833	-1.675	-2.1208	-1.0938	-1.875	-1.4771	-1.4896	-2.1063	-1.35	-1.7375	-1.6917	-1.1396	323.935	407.477	206.425	387.960	357.475	157.411	416.093	368.204	299.474	262.400	378.778	320.278	432.167	326.727	222.102	344.158	0.00055535	0.00043875	0.00013436	1284.7	4.9549e-06	5.9453e-06	1289.5	348.07	5.181e-06	5.6644e-06	406.32	137.22	117.57	41.05	5.7044e-06	51.354	0.00046104	0.00036521	0.00010282	1298	4.2785e-06	3.8137e-06	1307.5	354.63	4.0283e-06	3.8804e-06	412.54	139.61	119.99	42.074	3.8967e-06	52.744	150.634	170.929	159.192	92.092	224.182	228.046	91.955	96.913	224.437	235.055	96.267	100.541	101.214	106.000	235.519	104.858	-8191	255	
1027.531	1	1	0	0	0.035905	0.32551	0.15066	0.21032	0.21163	0.19865	0.44891	0.18422	0.20456	0.17248	0.21606	0.12887	0.13024	0.23854	0.254	0.28612	-1.6667	-1.5562	-1.1583	-2.1333	-1.1729	-1.5688	-2.1521	-1.1667	-1.9062	-1.9646	-1.1625	-2.1417	-1.6146	-1.4792	-1.9125	-1.175	231.831	244.182	371.722	354.465	154.158	158.869	345.442	363.146	311.052	330.628	165.436	424.580	310.998	110.029	256.729	383.591	0.00059803	0.00056051	0.00016336	1281.4	4.4484e-06	5.1555e-06	1289.4	349.41	5.0774e-06	5.5306e-06	404.87	136.87	117.03	40.998	5.5513e-06	51.557	0.00048397	0.00036211	0.00010739	1296.6	4.1409e-06	3.8824e-06	1308.8	354.94	3.9567e-06	3.8649e-06	412.59	139.5	119.89	42.033	4.0398e-06	52.815	151.719	164.613	174.349	91.880	227.075	224.630	91.794	96.974	212.587	221.368	96.222	100.563	101.383	105.897	243.511	104.726	-8191	255	
1027.605	1	1	0	0	0.16426	0.17787	0.058054	0.22603	0.48677	0.41792	0.040155	0.2689	0.26517	0.073532	0.27031	0.18523	0.20368	0.13719	0.22211	0.21463	-1.2917	-1.6417	-1.4062	-2.2313	-1.2188	-1.2583	-2.2229	-1.3771	-1.8458	-1.7125	-1.2083	-2.1188	-1.5312	-1.4917	-2.1229	-1.4854	234.901	429.198	282.517	382.756	246.829	376.873	366.467	384.566	306.890	134.525	347.623	282.350	102.732	428.170	293.878	310.822	0.00057536	0.00048657	0.00012587	1280.4	4.4497e-06	4.291e-06	1289.3	347.36	5.2259e-06	5.9121e-06	404.88	137.6	118.15	40.985	4.721e-06	51.624	0.00047314	0.00036274	0.00010176	1299.5	4.2197e-06	3.8417e-06	1309.3	353.83	4.2582e-06	3.6891e-06	411.69	139.66	120.23	42.066	3.769e-06	52.853	151.446	180.992	175.858	92.171	223.143	231.468	91.960	96.715	220.534	219.926	96.561	100.742	101.136	105.830	232.001	104.957	-8191	255	
1027.701	1	1	0	0	0.25336	0.18629	0.058587	0.077336	0.22666	0.11314	0.16869	0.2957	0.18217	0.20411	0.21992	0.17001	0.0703	0.17699	0.16337	0.37024	-1.1667	-2.0292	-0.97708	-2.3833	-1.6667	-1.2542	-2.2792	-1.5708	-1.6375	-1.8188	-1.1146	-2.0521	-1.4167	-1.3687	-1.925	-1.5729	89.539	253.318	276.965	371.165	310.211	261.263	406.396	378.228	382.217	409.730	371.277	188.600	359.856	424.160	310.224	374.506	0.0005904	0.00048817	0.00011557	1279.1	4.3803e-06	5.2049e-06	1291.4	348.25	4.3178e-06	6.105e-06	404.74	136.8	117.62	40.988	4.6268e-06	51.387	0.0004736	0.00034721	0.00010442	1297.6	4.2239e-06	3.8627e-06	1309	354.56	4.1707e-06	3.9257e-06	411.93	139.51	119.94	42.042	3.8161e-06	52.827	150.914	161.566	170.988	92.165	224.926	231.473	92.102	96.864	221.500	227.144	96.334	100.703	101.510	105.935	215.785	105.318	-8191	255	
1027.820	1	1	0	0	0.22925	0.059944	0.37491	0.30142	0.17184	0.17599	0.27302	0.09929	0.019572	0.10228	0.10899	0.12605	0.18655	0.31756	0.10506	0.22663	-0.93958	-1.7313	-1.0708	-1.9688	-1.5833	-1.3521	-2.3812	-1.4333	-1.3312	-1.9688	-1.225	-1.9062	-1.95	-0.97083	-2.0812	-1.4792	384.951	309.450	185.657	407.409	353.387	98.162	329.034	432.468	208.972	340.822	348.987	363.432	435.180	419.863	152.287	285.634	0.0005502	0.00055927	0.00015383	1282.5	5.3003e-06	3.7772e-06	1290.5	347.39	5.7068e-06	6.6426e-06	405.51	136.69	118.13	40.787	5.3399e-06	51.412	0.00046733	0.00034842	0.00010295	1297.1	3.9943e-06	3.8854e-06	1308.4	353.39	4.2121e-06	3.8006e-06	411.61	139.57	120.28	41.93	3.9044e-06	52.821	149.307	164.399	155.999	92.133	229.798	225.000	91.784	96.782	217.356	218.485	96.304	100.750	101.231	106.141	233.236	104.993	-8191	255	
1027.916	1	1	0	0	0.060961	0.21593	0.16517	0.16817	0.27124	0.18826	0.36619	0.19921	0.27351	0.090355	0.32672	0.189	0.076746	0.33533	0.080231	0.26874	-0.93542	-2.0958	-1.2	-1.7917	-1.8479	-1.1125	-2.3833	-1.5021	-1.5021	-2.1063	-1.3687	-1.7062	-1.7958	-1.1208	-2.0854	-1.575	270.714	87.779	374.170	438.140	303.008	297.438	346.946	393.001	366.392	330.386	423.521	396.032	348.165	406.457	196.490	351.296	0.00058525	0.00051127	0.00012179	1281.4	5.6894e-06	6.1922e-06	1287.2	347.54	5.2936e-06	5.1577e-06	405.8	136.74	117.26	40.882	5.8012e-06	51.525	0.00048119	0.00033316	0.00010408	1296.9	3.9591e-06	3.9959e-06	1307.9	353.78	4.2659e-06	3.7279e-06	412.15	139.33	119.82	41.869	3.9532e-06	52.617	149.076	170.320	182.837	92.021	221.071	215.202	92.075	96.954	225.693	224.627	96.279	100.863	101.641	106.062	240.768	105.104	-8191	255	
1028.012	1	1	0	0	0.27284	0.20595	0.083888	0.11231	0.074988	0.21638	0.14097	0.14088	0.19545	0.032526	0.30044	0.26631	0.076936	0.058194	0.15807	0.1188	-1.1437	-1.8458	-1.1938	-1.7146	-1.7125	-1.1854	-2.1083	-1.6854	-1.1708	-2.1354	-1.2896	-1.7833	-1.8771	-1.0562	-1.9854	-1.9229	260.890	180.295	255.080	417.301	179.662	318.136	359.143	389.474	429.767	242.668	390.466	409.716	351.568	408.267	122.318	334.905	0.00059156	0.00044802	0.00013958	1276	4.7158e-06	6.3518e-06	1287.4	345.95	5.244e-06	5.8393e-06	405.43	136.08	117.23	40.884	5.5593e-06	51.209	0.00047688	0.00033221	9.5e-05	1294.1	3.9581e-06	3.932e-06	1305.2	352.96	4.058e-06	3.5104e-06	411.3	139.1	119.79	41.941	3.9751e-06	52.621	150.918	156.818	174.330	92.122	229.112	228.430	92.164	96.957	234.883	231.137	96.352	100.635	101.443	105.795	222.954	105.132	-8191	255	
1028.108	1	1	0	0	0.15978	0.032915	0.16948	0.13394	0.23388	0.15004	0.089546	0.22288	0.10883	0.062464	0.26391	0.14452	0.17862	0.2998	0.2589	0.19001	-0.79792	-1.9979	-1.3312	-1.7271	-1.875	-1.0396	-1.9062	-2.025	-0.94375	-1.9604	-1.4271	-1.5458	-2.1979	-1.1812	-1.7313	-1.9667	80.611	320.996	305.095	287.021	397.213	389.300	384.498	374.962	254.597	94.704	340.371	259.517	359.452	348.007	284.546	325.464	0.0005543	0.00048163	0.00011631	1276.9	5.2349e-06	5.5146e-06	1289.4	347.9	5.3774e-06	4.5598e-06	404.19	136.13	117.93	40.783	5.4126e-06	51.313	0.00047504	0.00033189	9.9243e-05	1292.9	3.9218e-06	3.8208e-06	1306.1	353.85	4.0903e-06	3.533e-06	411.27	138.95	119.85	41.829	3.9762e-06	52.71	151.378	168.559	162.183	91.955	227.130	228.301	91.840	96.971	224.901	228.563	96.256	100.698	101.336	105.834	229.701	104.924	-8191	255	
1028.229	1	1	0	0	0.056718	0.24543	0.060559	0.12712	0.22857	0.0248	0.11993	0.25176	0.013763	0.17914	0.11811	0.20109	0.23636	0.16846	0.15837	0.23942	-0.6875	-1.7729	-1.4438	-1.4729	-2.1396	-1.2042	-2.0062	-2.1854	-0.88333	-2.0229	-1.6708	-1.3563	-1.9479	-1.3937	-1.3375	-1.9583	204.612	380.489	177.377	337.994	241.665	129.060	426.723	424.756	132.903	261.141	190.315	401.407	318.974	404.421	238.098	333.315	0.00059922	0.00063756	0.00012392	1279.2	4.8593e-06	4.7301e-06	1283.6	348.66	5.6673e-06	4.6591e-06	403.86	136.75	117.49	40.744	4.6983e-06	50.933	0.00049936	0.00034326	9.6042e-05	1294.8	3.822e-06	3.7671e-06	1303.4	354.43	4.1359e-06	3.7392e-06	410.74	139.07	120.03	41.898	3.9943e-06	52.545	150.593	169.063	186.426	92.188	222.180	234.855	92.103	96.648	214.516	220.636	96.330	100.782	101.181	105.787	227.122	104.977	-8191	255	
1028.301	1	1	0	0	0.18042	0.23096	0.074792	0.42678	0.28966	0.18666	0.14821	0.16762	0.092784	0.046756	0.37433	0.15187	0.12779	0.09181	0.24251	0.16332	-0.77083	-1.9396	-1.5979	-1.4208	-2.0792	-1.275	-1.6604	-2.125	-1.1917	-1.9271	-1.7729	-1.1812	-2.1917	-1.3458	-1.2687	-2.0646	295.545	270.557	197.362	405.505	339.923	86.900	375.302	164.909	154.802	377.436	418.342	128.983	312.427	331.427	342.993	341.274	0.00056108	0.00052609	0.00013524	1277.8	3.6998e-06	5.097e-06	1287.6	347.41	4.2579e-06	6.1394e-06	405.65	136.4	117.43	40.939	5.759e-06	51.298	0.00046883	0.00034305	9.5164e-05	1296.8	3.864e-06	3.7073e-06	1306.7	353.97	3.8927e-06	3.6319e-06	411.9	139.29	119.99	41.95	3.9921e-06	52.714	150.760	154.664	171.064	91.810	223.431	223.384	92.030	96.792	229.002	233.490	96.236	100.711	101.766	105.836	242.409	104.975	-8191	255	
1028.397	1	1	0	0	0.072833	0.15543	0.34191	0.11789	0.058116	0.059683	0.23596	0.13878	0.31393	0.13743	0.20905	0.2048	0.30366	0.1766	0.062886	0.099782	-0.77708	-1.9312	-1.8396	-1.3083	-2.075	-1.3833	-1.6083	-2.1792	-0.91667	-1.6125	-1.8292	-1.425	-2.0542	-1.4417	-1.2333	-2.2875	195.832	243.372	359.985	393.195	184.086	132.360	372.894	109.453	332.067	266.925	396.322	107.407	365.897	406.898	163.655	363.048	0.00056627	0.00050332	0.00013673	1280.5	6.0521e-06	5.5274e-06	1287.9	347.4	5.7095e-06	4.2692e-06	405.28	135.86	118.11	40.592	4.9231e-06	51.235	0.00046665	0.000341	9.9184e-05	1297.2	3.905e-06	3.834e-06	1305.8	353.93	4.0028e-06	3.6313e-06	411.79	139.11	120.26	41.867	4.0393e-06	52.72	151.452	163.292	179.566	92.187	228.577	229.151	92.027	96.941	220.402	221.162	96.320	100.682	101.503	105.785	228.448	104.951	-8191	255	
1028.517	1	1	0	0	0.43708	0.12921	0.10282	0.37202	0.14848	0.15605	0.10431	0.2845	0.2551	0.28131	0.17301	0.27685	0.20229	0.13378	0.079672	0.072452	-0.74583	-1.6917	-1.9062	-1.2417	-1.9979	-1.6958	-1.5792	-2.0854	-1.3854	-1.6167	-1.975	-1.1792	-2.075	-1.7792	-1.2437	-2.1896	377.565	284.547	118.482	345.240	242.603	292.925	271.947	379.923	391.394	335.514	365.511	392.675	80.763	339.380	355.640	116.593	0.00057565	0.00042166	0.00013679	1280.2	5.3462e-06	3.8221e-06	1284.6	347.82	4.2323e-06	5.7613e-06	405.62	136.01	117.53	40.719	4.5286e-06	51.231	0.00046458	0.0003381	9.3943e-05	1295.8	3.822e-06	3.491e-06	1305.7	354.03	4.0002e-06	3.704e-06	411.93	139.16	119.96	41.886	3.9472e-06	52.642	151.762	177.020	189.662	91.912	236.771	244.544	92.104	96.972	228.516	222.674	96.393	100.642	101.485	106.002	218.957	105.364	-8191	255	
1028.612	1	1	0	0	0.011734	0.13551	0.1002	0.34036	0.11356	0.067146	0.23307	0.34278	0.17605	0.057761	0.079581	0.20339	0.18162	0.23594	0.30383	0.2752	-1.0104	-1.5	-1.7542	-1.2062	-1.8208	-1.675	-1.3646	-2.0229	-1.2417	-1.4083	-2.2229	-1.3521	-2.0563	-1.9937	-1.2437	-2.3667	114.704	370.448	197.025	377.770	242.774	98.277	429.442	356.149	116.055	353.602	338.781	358.966	390.590	414.324	315.918	438.840	0.00057988	0.00040422	0.00010629	1279.5	5.7658e-06	4.3619e-06	1287.6	346.48	5.2809e-06	5.6002e-06	402.41	136.67	116.92	40.866	4.3709e-06	51.134	0.00047535	0.00035132	9.241e-05	1295.1	3.9365e-06	3.5388e-06	1304.3	353.65	3.9864e-06	3.7434e-06	411.1	139.06	119.84	41.858	4.0228e-06	52.635	150.496	142.769	153.794	92.150	219.256	225.939	92.089	96.911	221.201	226.348	96.413	100.567	101.454	105.871	221.200	105.028	-8191	255	
1028.710	1	1	0	0	0.030936	0.15051	0.10979	0.18163	0.1568	0.26403	0.4417	0.26738	0.17813	0.27949	0.272	0.38633	0.22182	0.17145	0.21263	0.043013	-1.1021	-1.2792	-1.9042	-1.3937	-1.6083	-1.7833	-1.3708	-1.9708	-1.3708	-1.3062	-2.0729	-1.3042	-1.7333	-2.0563	-1.1313	-1.9604	159.812	230.578	381.901	422.711	339.151	166.044	412.916	331.147	391.498	259.543	416.569	291.410	415.861	429.104	332.683	437.433	0.00057459	0.00038222	0.00012088	1276.4	4.1854e-06	6.1188e-06	1284.5	348.96	6.2475e-06	5.8728e-06	403.98	136.14	118.11	40.788	5.2411e-06	51.16	0.00046367	0.00033895	8.8807e-05	1291.5	3.9754e-06	3.5759e-06	1303.2	354.02	4.1471e-06	3.626e-06	411.13	138.95	120.15	41.849	4.07e-06	52.626	152.869	158.576	172.769	92.355	237.532	226.670	92.163	96.939	220.655	230.115	96.257	100.641	101.730	105.878	231.880	105.387	-8191	255	
1028.828	1	1	0	0	0.10539	0.32266	0.11061	0.14728	0.20692	0.057833	0.19112	0.25713	0.1394	0.23186	0.14193	0.3477	0.12609	0.11888	0.05597	0.10498	-1.0729	-1.3813	-2.1	-1.2563	-1.3937	-1.8146	-1.4396	-2.1229	-1.5521	-1.1833	-2.2292	-1.3479	-1.5167	-2.1604	-1.1375	-1.8021	217.562	343.185	188.700	329.341	294.782	133.965	339.380	387.137	277.552	95.611	148.581	89.612	430.915	115.307	198.320	370.192	0.00056185	0.00050003	0.0001281	1272.9	4.892e-06	4.6072e-06	1285.7	348.13	5.0835e-06	4.9721e-06	405.96	136.12	117.18	40.784	4.4376e-06	51.049	0.00045755	0.00034079	8.8271e-05	1290.9	3.864e-06	3.2837e-06	1302	353.85	3.8528e-06	3.7648e-06	411.49	138.94	119.79	41.819	3.9806e-06	52.614	153.443	160.385	170.552	92.321	214.753	226.118	92.235	97.172	226.219	227.564	96.290	100.752	101.483	105.822	222.671	105.252	-8191	255	
1028.900	1	1	0	0	0.22666	0.15422	0.19541	0.39099	0.083638	0.17522	0.23262	0.3285	0.079881	0.14521	0.34402	0.2242	0.20764	0.23835	0.21703	0.061915	-1.4229	-1.3229	-2.0708	-1.4813	-1.3542	-1.9917	-1.4375	-1.975	-1.7292	-1.1146	-2.2542	-1.6083	-1.3104	-2.0563	-1.2687	-1.9458	126.282	275.884	108.538	397.793	114.078	318.879	322.477	419.994	264.052	387.828	330.047	349.522	387.315	413.932	315.887	306.273	0.00058194	0.00046893	0.0001153	1276.1	5.1993e-06	5.2245e-06	1286.2	347.01	4.4841e-06	4.6329e-06	403.9	136.53	118.03	40.691	5.7797e-06	51.126	0.00046053	0.0003381	8.5904e-05	1292.8	3.8856e-06	3.5263e-06	1304.5	353.34	3.8046e-06	3.8464e-06	411.48	139.11	119.73	41.769	3.7898e-06	52.532	151.517	171.917	180.845	92.259	236.556	223.129	92.083	97.022	219.817	218.639	96.515	100.810	101.723	105.955	234.420	105.160	-8191	255	
1028.996	1	1	0	0	0.36651	0.21194	0.16633	0.036383	0.20393	0.17542	0.23495	0.1413	0.20645	0.10658	0.25955	0.064427	0.16436	0.31398	0.068382	0.19096	-1.2229	-1.025	-1.85	-1.8958	-1.2896	-2.0333	-1.6104	-1.6333	-1.8792	-1.1125	-1.9917	-1.65	-1.3375	-2.0625	-1.5438	-1.7188	309.208	192.152	133.120	242.620	293.460	306.509	397.018	407.610	373.231	141.259	164.752	221.757	272.639	422.241	304.204	337.879	0.00056317	0.00044914	0.00014801	1272.4	4.8089e-06	3.47e-06	1289.2	346.61	5.2466e-06	5.3666e-06	403.97	136.53	116.86	40.767	4.9233e-06	51.178	0.00044721	0.00034195	8.5636e-05	1291.1	3.9223e-06	3.359e-06	1304.5	353.42	3.7499e-06	3.6152e-06	410.92	138.98	119.67	41.801	3.8594e-06	52.523	149.900	161.038	182.436	91.955	219.741	213.391	92.140	97.068	222.687	222.093	96.299	100.777	101.486	106.022	238.773	105.194	-8191	255	
1029.117	1	1	0	0	0.26572	0.056908	0.084247	0.27042	0.1459	0.074421	0.22968	0.34299	0.14256	0.18719	0.13721	0.3835	0.19054	0.1542	0.26387	0.22662	-1.3521	-1.1458	-1.8833	-1.8583	-1.0375	-2.1375	-1.7188	-1.5646	-1.8563	-1.1437	-2.0104	-1.8687	-1.1979	-2.1167	-1.1437	-1.6042	145.534	380.653	337.060	366.788	158.959	356.737	364.965	407.287	125.831	89.734	388.657	404.652	368.886	316.971	103.063	408.230	0.00058718	0.00045331	0.00013419	1270.8	4.3129e-06	5.6493e-06	1287.9	347.19	5.0647e-06	5.6115e-06	403.87	136.24	117.26	40.617	5.7107e-06	51.247	0.00045891	0.00033395	8.9164e-05	1290.4	3.8504e-06	3.2317e-06	1302.9	353.24	3.6992e-06	3.5735e-06	411.32	138.77	119.79	41.778	3.6089e-06	52.514	153.009	164.699	169.636	92.252	225.837	225.665	92.005	96.836	226.946	246.626	96.522	100.611	101.661	105.895	229.001	105.198	-8191	255	
1029.213	1	1	0	0	0.30278	0.093278	0.10294	0.18754	0.2121	0.12813	0.084832	0.43283	0.20676	0.058455	0.25216	0.13625	0.20878	0.12784	0.16163	0.1897	-1.725	-1.1708	-1.8312	-1.9896	-1.0375	-2.0563	-1.6083	-1.575	-2.1375	-1.4604	-1.7604	-2.0667	-1.2896	-2.1	-1.6313	-1.6542	125.976	310.482	325.393	368.490	335.520	246.017	432.239	322.920	113.345	353.736	389.388	420.361	353.056	377.126	233.253	339.197	0.00057367	0.00050142	0.00012947	1268.1	4.1241e-06	4.5136e-06	1281.8	345.66	3.8945e-06	5.9474e-06	402.94	135.82	117.73	40.588	4.9419e-06	51.136	0.00043782	0.00033168	8.7988e-05	1285.7	3.801e-06	3.2538e-06	1298.4	351.92	3.2999e-06	3.4943e-06	410.29	138.58	119.64	41.721	3.525e-06	52.495	151.614	164.386	159.712	92.104	231.318	224.648	92.013	97.109	220.901	225.776	96.503	100.708	101.704	106.091	228.393	105.364	-8191	255	
1029.309	1	1	0	0	0.37995	0.25008	0.076513	0.045523	0.18419	0.04426	0.3228	0.13958	0.17352	0.13375	0.067487	0.2696	0.29186	0.44047	0.16314	0.31798	-1.7	-1.2083	-1.6854	-2.2021	-1.3021	-2.0333	-1.7854	-1.6646	-1.9396	-1.1792	-1.6063	-2.0833	-1.2354	-1.9458	-1.5562	-1.3854	358.859	183.045	379.527	129.589	247.237	350.307	376.022	380.167	189.009	369.942	384.239	88.449	406.088	94.465	410.012	349.191	0.00058148	0.00053067	0.00012159	1271.8	5.2055e-06	4.9502e-06	1283.2	345.5	4.7663e-06	5.1866e-06	402.07	136.06	117.21	40.475	4.6356e-06	50.934	0.00044888	0.00031884	8.8047e-05	1287.3	3.6408e-06	3.2807e-06	1299.7	351.71	3.6618e-06	3.4865e-06	409.62	138.7	119.29	41.67	3.6911e-06	52.457	151.962	171.923	159.719	92.104	234.818	223.415	92.114	96.985	220.396	230.255	96.460	100.691	101.497	106.231	235.148	105.124	-8191	255	
1029.405	1	1	0	0	0.089243	0.24612	0.19235	0.23612	0.081007	0.20918	0.25342	0.24169	0.11952	0.038559	0.10584	0.24546	0.31266	0.18864	0.017179	0.28489	-1.8396	-1.3146	-1.225	-2.1458	-1.1812	-1.8979	-1.9708	-1.3625	-2.1354	-1.4875	-1.3917	-2.2021	-1.2687	-1.6375	-1.7333	-1.2521	94.451	244.396	309.731	328.438	285.740	436.018	356.790	425.214	331.265	338.595	82.557	432.046	93.727	376.866	169.316	103.250	0.00058481	0.00054291	0.00013036	1265.1	5.4837e-06	5.4896e-06	1279.7	345.28	5.6376e-06	6.8122e-06	401.22	135.83	117.14	40.477	5.3679e-06	51.016	0.00045594	0.00031278	8.5725e-05	1285.4	3.8761e-06	3.4002e-06	1298	351.38	3.6434e-06	3.4257e-06	408.83	138.38	119.52	41.637	3.5091e-06	52.465	151.929	158.858	174.384	91.996	228.652	239.418	91.937	96.897	219.851	221.622	96.358	100.530	101.321	105.996	225.896	105.175	-8191	255	
1029.526	1	1	0	0	0.17255	0.026559	0.076229	0.29864	0.055235	0.18556	0.22333	0.13817	0.17226	0.16929	0.47582	0.15303	0.12801	0.1351	0.16309	0.16594	-1.7479	-1.4438	-1.3479	-2.0812	-1.1854	-1.6083	-2.0187	-1.2958	-1.925	-1.5583	-1.4333	-2.2417	-1.2812	-1.7167	-1.9833	-1.3729	282.780	314.925	157.743	430.853	148.327	219.223	426.070	427.150	171.417	382.818	397.156	380.651	236.364	351.137	419.465	375.399	0.00059625	0.0004969	9.9651e-05	1261.8	4.3673e-06	3.9321e-06	1278.3	344.5	5.5832e-06	4.1197e-06	403.11	135.65	116.86	40.725	5.9405e-06	51.362	0.00045421	0.00031499	8.8747e-05	1283.6	3.7185e-06	3.3369e-06	1297.3	351.08	3.6787e-06	3.3256e-06	409.99	138.43	119.23	41.64	3.3951e-06	52.468	151.918	150.012	176.902	91.824	214.806	226.140	91.925	96.851	226.195	231.428	96.181	100.581	101.572	105.710	216.275	105.074	-8191	255	
1029.598	1	1	0	0	0.15856	0.081259	0.13781	0.18722	0.13288	0.22634	0.17861	0.2942	0.20144	0.1073	0.131	0.39397	0.23109	0.17402	0.30474	0.25101	-1.5958	-1.7229	-1.1542	-2.2542	-1.2875	-1.5688	-2.0104	-1.3542	-1.8354	-1.6625	-1.4417	-2.1188	-1.2896	-1.4417	-1.9896	-1.3729	243.211	291.834	173.493	339.765	411.417	398.228	361.072	314.776	317.887	107.135	120.755	393.276	368.789	372.541	295.948	427.609	0.00059338	0.00044763	0.00011119	1267.3	5.0494e-06	4.0442e-06	1277.7	345.83	4.5882e-06	5.3265e-06	401.16	135.08	117.57	40.532	6.3318e-06	51.206	0.0004531	0.00030657	8.8211e-05	1285.2	3.7831e-06	3.3733e-06	1296.5	351.6	3.6941e-06	3.2792e-06	408.59	138.35	119.22	41.641	3.5497e-06	52.402	150.863	167.480	162.976	92.093	234.696	212.324	91.812	96.717	221.085	228.317	96.354	100.496	101.602	106.051	233.743	105.082	-8191	255	
1029.692	1	1	0	0	0.13024	0.39622	0.24107	0.22745	0.27232	0.039229	0.24332	0.092791	0.22989	0.18365	0.15812	0.3618	0.30525	0.19964	0.25679	0.1384	-1.3833	-1.6167	-1.1729	-2.1813	-1.5146	-1.3708	-1.9813	-1.2938	-1.6333	-1.9271	-1.2021	-2.1354	-1.5896	-1.4354	-1.9896	-1.4521	268.433	265.805	348.826	430.961	131.596	214.739	325.985	356.316	215.076	401.041	84.659	370.899	373.335	103.839	271.148	281.081	0.00057782	0.00045175	0.00013713	1264.4	5.0303e-06	4.9859e-06	1275.9	344.74	4.6323e-06	4.8113e-06	402.36	135.64	117.12	40.437	5.5696e-06	50.931	0.00045256	0.00030752	9.0802e-05	1281.6	3.7238e-06	3.3202e-06	1295.3	350.77	3.7089e-06	3.499e-06	408.8	138.39	119.07	41.566	3.6292e-06	52.306	151.079	170.543	169.592	92.242	226.945	243.974	92.035	96.874	224.131	230.023	96.331	100.888	101.294	105.816	227.967	105.124	-8191	255	
1029.790	1	1	0	0	0.11446	0.28531	0.14506	0.18655	0.13157	0.25486	0.25661	0.26223	0.23002	0.14352	0.22488	0.12171	0.36824	0.13672	0.31647	0.22403	-1.3458	-1.7188	-1.0083	-2.1896	-1.5688	-1.4438	-2.225	-1.5396	-1.6354	-2.0812	-1.3312	-2.0354	-1.5792	-1.2625	-2.0583	-1.2979	85.037	431.863	329.921	385.539	432.735	169.101	397.717	391.862	374.028	303.299	336.981	239.866	363.859	190.879	261.684	107.765	0.00057675	0.00041466	0.000126	1263.9	4.7828e-06	4.2241e-06	1282.6	345.61	4.8482e-06	4.8203e-06	402.55	135.41	116.96	40.364	6.5951e-06	50.597	0.00044601	0.00031836	9.04e-05	1281.5	3.6387e-06	3.4146e-06	1297.9	350.78	3.733e-06	3.3519e-06	408.72	138.47	119.07	41.545	3.5826e-06	52.235	151.753	171.224	182.507	92.060	220.951	230.494	92.165	96.907	224.047	221.422	96.378	100.599	101.603	105.966	233.238	105.117	-8191	255	
1029.909	1	1	0	0	0.20727	0.2001	0.21549	0.26242	0.18316	0.084171	0.36432	0.20803	0.17458	0.11678	0.0077369	0.18971	0.17857	0.35059	0.25999	0.1666	-1.1354	-1.8417	-1.0333	-2.0312	-1.6542	-1.1646	-2.2458	-1.3271	-1.3062	-2.0062	-1.2583	-1.9354	-1.8	-1.2792	-2.0333	-1.3354	352.198	317.710	299.465	421.251	222.840	189.708	363.722	344.873	400.536	319.732	165.843	320.364	331.112	344.992	234.512	239.300	0.00057519	0.00044852	0.00013036	1263.2	4.9402e-06	3.8119e-06	1275.3	344.74	5.1797e-06	5.9704e-06	400.42	135.7	116.33	40.375	4.2698e-06	50.907	0.00044176	0.0002981	8.7705e-05	1282.5	3.7584e-06	3.3757e-06	1295.2	350.39	3.6792e-06	3.3387e-06	408.07	138.34	118.78	41.511	3.4708e-06	52.304	149.791	167.298	185.108	92.194	218.626	220.701	91.982	96.716	228.105	231.141	96.217	100.660	101.622	105.670	235.092	104.862	-8191	255	
1030.005	1	1	0	0	0.044749	0.064242	0.22697	0.1224	0.23575	0.13409	0.15392	0.33767	0.11249	0.26659	0.22186	0.015908	0.25208	0.19614	0.081011	0.077385	-1.275	-2.0375	-1.1729	-1.8042	-1.8979	-1.2604	-2.2479	-1.6729	-1.4396	-1.9333	-1.1854	-1.6063	-1.775	-1.2083	-2.0042	-1.5354	229.649	323.848	113.164	177.429	138.105	339.326	407.308	351.822	193.641	406.249	418.039	130.198	109.384	382.218	83.455	390.568	0.0005646	0.00058224	9.6886e-05	1262.3	4.3462e-06	4.5744e-06	1272.9	344.25	5.0233e-06	5.7418e-06	400.72	135.94	116.69	40.445	4.2057e-06	50.773	0.00044548	0.00029299	8.8583e-05	1278.7	3.5609e-06	3.4928e-06	1291.1	350.07	3.7673e-06	3.2512e-06	408.26	138.25	118.84	41.492	3.565e-06	52.164	150.502	169.489	170.692	92.121	231.513	220.071	91.773	96.823	228.412	226.926	96.394	100.643	101.467	105.835	231.718	104.989	-8191	255	
1030.101	1	1	0	0	0.11228	0.13889	0.13937	0.23772	0.31844	0.34831	0.15144	0.13113	0.42125	0.046722	0.10899	0.20408	0.26923	0.24256	0.20529	0.29162	-1.0417	-1.9438	-1.0729	-1.7271	-1.9625	-1.1083	-2.2	-1.8375	-1.0604	-1.9792	-1.35	-1.625	-1.9271	-1.2479	-1.8854	-1.7625	384.124	396.331	251.222	372.464	255.999	378.498	371.548	419.857	259.754	90.750	378.107	404.272	114.386	88.324	354.680	413.846	0.00056905	0.00047637	0.00011613	1260.3	5.8702e-06	5.3039e-06	1275	343.7	5.1492e-06	5.4975e-06	401.73	135.7	116.73	40.258	5.6565e-06	50.743	0.0004626	0.00031094	9.1248e-05	1278.3	3.6213e-06	3.4612e-06	1291.3	349.49	3.754e-06	3.4377e-06	408.09	138.04	118.93	41.521	3.6144e-06	52.215	149.947	169.041	165.047	91.928	222.203	239.117	92.047	96.612	223.177	225.777	96.247	100.528	101.123	105.594	223.478	105.134	-8191	255	
1030.197	1	1	0	0	0.13444	0.17716	0.35459	0.34631	0.075297	0.15413	0.1018	0.17481	0.28859	0.34601	0.10086	0.04271	0.26003	0.087612	0.13484	0.13017	-0.68958	-2.0208	-1.3937	-1.3583	-1.9542	-0.975	-1.9604	-1.9292	-1.2437	-1.9625	-1.4229	-1.5146	-2.1708	-1.0354	-1.6854	-2.0042	436.059	136.994	88.891	393.978	234.896	315.385	294.597	403.892	164.297	85.635	391.724	151.731	384.361	381.197	373.900	361.289	0.00060171	0.00052455	0.00012053	1256	5.2798e-06	4.1672e-06	1272.3	342.33	5.3083e-06	3.96e-06	400.75	135.18	116.25	40.458	4.2151e-06	50.745	0.00046288	0.00030815	8.6365e-05	1275.7	3.5289e-06	3.1881e-06	1289.9	349.34	3.6848e-06	3.0468e-06	407.85	138.05	118.79	41.52	3.445e-06	52.241	149.896	166.628	158.262	92.222	222.817	225.073	91.783	96.740	211.788	235.425	95.923	100.331	101.269	105.682	236.040	104.939	-8191	255	
1030.293	1	1	0	0	0.11939	0.16214	0.21797	0.14977	0.11694	0.10485	0.2205	0.16835	0.22506	0.15099	0.25965	0.22207	0.22259	0.26161	0.20365	0.17537	-0.88542	-1.9792	-1.3479	-1.575	-2.0854	-1.1229	-1.85	-1.9521	-1.0187	-1.7583	-1.6229	-1.2979	-2.1042	-1.3229	-1.5812	-2.0104	246.788	162.801	376.296	405.691	174.507	136.263	347.051	395.576	220.911	313.352	388.221	134.938	365.153	385.022	314.171	393.526	0.00060802	0.00046488	0.0001384	1260.3	5.9313e-06	4.5587e-06	1274.7	343.13	5.6171e-06	5.4603e-06	400.98	135.22	115.95	40.468	5.8271e-06	51.068	0.00046254	0.00028999	8.6529e-05	1274.8	3.469e-06	3.3966e-06	1288.5	349.47	3.9116e-06	3.1016e-06	407.74	137.92	118.45	41.478	3.5957e-06	52.234	149.296	170.482	172.895	92.136	237.105	230.204	92.039	96.822	219.209	226.677	96.115	100.650	101.191	105.655	229.784	105.169	-8191	255	
1030.390	1	1	0	0	0.16061	0.24025	0.27863	0.19201	0.16631	0.15516	0.49446	0.16656	0.091724	0.12551	0.070402	0.1299	0.095909	0.21982	0.11081	0.062663	-0.80417	-1.8687	-1.625	-1.5312	-2.1792	-1.2979	-1.5521	-2.0833	-1.0938	-1.6646	-1.7625	-1.2958	-1.9333	-1.3438	-1.4604	-2.05	188.180	402.268	144.388	193.563	206.436	91.357	385.336	104.550	306.957	262.811	101.228	367.860	242.044	333.605	292.265	162.463	0.00056534	0.00046398	0.00010675	1255.1	4.7375e-06	4.0435e-06	1264.1	341.56	4.4847e-06	4.6401e-06	400.08	135.6	115.78	40.336	4.6475e-06	50.727	0.00044505	0.00030126	8.5695e-05	1274.1	3.5346e-06	3.304e-06	1285.2	348.43	3.7033e-06	3.3227e-06	407.05	138.18	118.31	41.381	3.6232e-06	52.181	150.723	160.110	174.440	92.344	238.799	245.497	91.958	96.598	217.100	234.174	96.052	100.695	101.325	105.615	236.568	105.141	-8191	255	
1030.510	1	1	0	0	0.28882	0.095243	0.13574	0.19504	0.19218	0.26423	0.093171	0.24459	0.15807	0.18941	0.19999	0.42123	0.3699	0.17524	0.085707	0.10097	-0.89375	-1.8708	-1.5771	-1.35	-2.1063	-1.4646	-1.35	-2.2062	-1.3208	-1.6917	-1.775	-1.1229	-1.9521	-1.3792	-1.1333	-2.2083	386.677	389.565	371.452	426.267	93.375	394.067	417.918	405.301	221.182	108.919	299.749	352.114	422.042	330.477	307.378	104.434	0.00057497	0.00048215	0.00012154	1255.6	4.5124e-06	4.3024e-06	1271.5	343.98	5.0411e-06	5.7461e-06	397.92	135.31	115.69	40.318	5.3653e-06	50.794	0.00044485	0.00028436	8.6261e-05	1273	3.4968e-06	3.4618e-06	1288.4	349.34	3.7268e-06	3.3382e-06	406.63	137.84	118.56	41.437	3.764e-06	52.144	151.084	161.509	178.361	92.198	229.578	226.649	91.955	96.906	211.946	231.472	96.081	101.073	101.646	105.877	229.968	105.211	-8191	255	
1030.606	1	1	0	0	0.23713	0.32883	0.252	0.25264	0.27296	0.029517	0.36893	0.30889	0.10902	0.11404	0.16612	0.19763	0.10376	0.011521	0.10533	0.22615	-0.77917	-1.7188	-1.8354	-1.3354	-1.8687	-1.5333	-1.3146	-2.2042	-1.2146	-1.5583	-2.0062	-1.1708	-1.9083	-1.6417	-1.1854	-2.125	285.506	271.951	389.179	390.488	167.262	192.603	396.489	117.030	327.306	318.053	311.749	385.043	239.306	435.659	354.870	289.715	0.00058648	0.00053479	0.00012804	1256.8	5.3787e-06	5.8132e-06	1266.9	342.74	4.5342e-06	6.2439e-06	398.61	135.32	116.26	40.342	4.3852e-06	50.673	0.00045789	0.00031068	8.2256e-05	1271.4	3.7311e-06	3.4068e-06	1284.1	349.17	3.6582e-06	3.334e-06	406.67	137.81	118.46	41.37	3.7322e-06	52.068	154.875	162.358	172.829	92.156	228.055	239.772	91.959	96.790	227.326	236.403	96.104	100.901	101.553	105.751	225.240	104.940	-8191	255	
1030.701	1	1	0	0	0.11152	0.12447	0.10964	0.38746	0.24108	0.23214	0.13287	0.094796	0.29037	0.32047	0.22247	0.11031	0.34347	0.32174	0.13296	0.10047	-0.98333	-1.4792	-2.1229	-1.1875	-1.8104	-1.7083	-1.3958	-2.0042	-1.1771	-1.3458	-2.0104	-1.2354	-1.6625	-1.8083	-1.2708	-1.9354	361.066	348.901	345.299	413.670	149.565	274.973	356.177	261.722	391.571	113.435	418.268	95.923	228.507	424.837	327.780	349.556	0.00054874	0.00048175	0.00011088	1256.2	5.8036e-06	5.0694e-06	1275.2	343.47	4.3699e-06	5.4899e-06	399.54	134.98	115.83	40.252	4.6029e-06	50.85	0.00043414	0.00032415	8.5308e-05	1272.7	3.501e-06	3.267e-06	1287.9	349.11	3.7289e-06	3.1534e-06	406.9	137.75	118.28	41.394	3.7153e-06	52.036	151.368	167.506	168.385	92.232	226.152	237.607	92.111	96.817	216.692	231.319	96.294	100.236	101.357	105.844	226.493	104.919	-8191	255	
1030.797	1	1	0	0	0.058724	0.048104	0.23877	0.2935	0.078119	0.16695	0.37422	0.17822	0.074186	0.1975	0.052407	0.31289	0.063174	0.13078	0.30775	0.12657	-0.94375	-1.2708	-1.9062	-1.3062	-1.6604	-1.8146	-1.2188	-2.1417	-1.5354	-1.2708	-2.1583	-1.2042	-1.6917	-2	-1.0688	-2.0396	381.473	150.451	423.881	394.993	331.518	283.664	360.839	416.678	205.171	347.214	381.010	385.119	411.427	436.596	138.587	94.819	0.00057398	0.00048303	0.00013317	1249.7	4.563e-06	4.7004e-06	1267.5	342.98	5.0132e-06	4.798e-06	399.78	134.99	116.11	40.193	5.0565e-06	50.761	0.00044635	0.00031757	8.1527e-05	1270.2	3.781e-06	3.2048e-06	1286.1	349.08	3.736e-06	3.2488e-06	407.1	137.66	118.36	41.251	3.678e-06	52.099	152.293	155.626	166.293	91.980	222.835	228.124	92.180	97.106	234.376	228.510	96.302	100.558	101.765	105.500	233.742	104.873	-8191	255	
1030.893	1	1	0	0	0.24963	0.24734	0.13002	0.23131	0.1064	0.2076	0.22096	0.1276	0.16364	0.25742	0.099512	0.094807	0.13047	0.17288	0.10997	0.16406	-1.0667	-1.2958	-1.9604	-1.4958	-1.6083	-1.9417	-1.3208	-2.075	-1.6333	-1.2021	-2.2604	-1.4917	-1.55	-1.9167	-1.2396	-1.7313	208.891	173.454	320.184	391.596	389.165	413.966	420.383	364.645	88.911	92.336	194.526	431.695	436.347	380.916	327.471	423.448	0.00056229	0.00038286	0.00012424	1248.4	4.3015e-06	4.6977e-06	1267.2	343.67	4.9091e-06	5.1176e-06	400.27	134.95	115.85	40.226	5.0759e-06	50.775	0.00044375	0.00032063	8.3641e-05	1268.9	3.6381e-06	3.1923e-06	1285.8	349.1	3.7074e-06	3.589e-06	407.07	137.61	118.43	41.335	3.8244e-06	52.191	151.597	148.360	187.055	92.341	224.269	231.510	91.872	96.940	217.307	231.062	96.154	100.773	101.430	105.873	219.368	104.988	-8191	255	
1030.989	1	1	0	0	0.13389	0.15559	0.084727	0.12968	0.16985	0.14628	0.30388	0.22942	0.19633	0.059765	0.36802	0.19472	0.23914	0.12903	0.045918	0.18008	-1.4479	-1.1	-2.225	-1.5021	-1.425	-2.1063	-1.2542	-1.8479	-1.5479	-1.2104	-2.0687	-1.5896	-1.2896	-1.9854	-1.1854	-1.7229	134.295	193.165	283.203	396.672	97.562	305.643	337.337	390.690	405.168	307.199	332.837	404.309	393.939	420.665	419.794	422.216	0.0005678	0.00056617	0.00012168	1251.1	5.1875e-06	5.0828e-06	1266.6	342.3	5.0438e-06	5.7352e-06	400.33	135.09	115.72	40.113	4.8784e-06	50.72	0.00044448	0.00032637	8.2911e-05	1270.6	3.7653e-06	3.2957e-06	1283.9	348.72	3.6521e-06	3.4424e-06	407.03	137.69	118.25	41.305	3.5859e-06	52.136	152.645	152.609	180.648	92.017	218.081	225.182	91.926	96.920	230.660	227.485	96.148	100.706	101.480	105.943	221.230	105.129	-8191	255	
1031.085	1	1	0	0	0.1798	0.15435	0.10977	0.062991	0.12322	0.16648	0.11711	0.23803	0.14039	0.25285	0.16533	0.24805	0.14203	0.39605	0.18376	0.12138	-1.3687	-1.1354	-2.05	-1.4417	-1.2875	-2.1312	-1.425	-1.8458	-1.8042	-0.97708	-2.1521	-1.7458	-1.2854	-2.2542	-1.3813	-1.7083	250.204	273.743	303.179	433.531	391.951	296.465	284.380	375.841	103.115	184.636	388.866	423.194	164.125	119.845	165.942	80.713	0.00057756	0.00041627	0.00013064	1254.1	5.9329e-06	5.5603e-06	1266.9	343.5	5.1348e-06	5.0863e-06	398.33	134.36	116.22	40.37	6.4908e-06	50.629	0.00044556	0.00032694	8.2822e-05	1272.7	3.7668e-06	3.3524e-06	1285	349.44	3.6792e-06	3.5425e-06	407.12	137.58	118.42	41.372	3.7887e-06	52.141	150.409	166.495	173.916	91.933	221.481	227.016	91.812	96.660	219.389	224.644	96.125	100.709	101.353	105.916	233.159	104.999	-8191	255	
1031.206	1	1	0	0	0.30284	0.2024	0.12937	0.084882	0.052237	0.21154	0.10738	0.23404	0.0062197	0.054082	0.34686	0.26138	0.13138	0.14034	0.062279	0.16732	-1.4438	-1.1021	-1.9229	-1.6771	-1.2062	-1.9438	-1.5312	-1.7083	-2.2083	-1.3667	-1.8521	-1.7979	-1.2104	-2.2083	-1.4042	-1.4042	404.913	213.335	229.648	301.355	176.535	147.622	431.590	110.325	416.801	412.713	418.945	365.516	102.862	207.351	314.527	327.184	0.00058681	0.00042475	0.00012391	1253.7	4.7064e-06	4.7273e-06	1270.7	344.25	5.1833e-06	4.347e-06	400.84	135.11	116.5	40.341	5.6527e-06	50.702	0.00044879	0.00030415	8.2718e-05	1272.5	3.7022e-06	3.163e-06	1284.6	349.36	3.5692e-06	3.3685e-06	407.81	137.9	118.65	41.405	3.678e-06	52.079	148.944	155.350	160.834	91.937	208.856	239.763	91.870	96.898	220.948	232.023	96.367	100.764	101.604	105.837	235.644	105.256	-8191	255	
1031.302	1	1	0	0	0.20867	0.081393	0.22811	0.41184	0.2335	0.036475	0.1827	0.097262	0.049537	0.079307	0.17016	0.17251	0.24734	0.057715	0.13904	0.15665	-1.8062	-0.98333	-1.6729	-1.9333	-1.1208	-1.9771	-1.6437	-1.4479	-1.9979	-1.1688	-1.9125	-2.0479	-1.4188	-2.0812	-1.4896	-1.5417	285.259	243.892	270.429	373.592	230.446	85.334	406.629	367.407	308.108	413.849	104.899	405.081	385.270	405.388	328.841	197.352	0.00059287	0.00050364	0.00014296	1258.8	4.2251e-06	5.8495e-06	1266.1	343.28	5.0884e-06	5.2108e-06	399.85	135.36	115.96	40.334	4.9996e-06	50.651	0.00044463	0.00030973	8.7779e-05	1272	3.5635e-06	3.1911e-06	1283.6	348.72	3.5052e-06	3.3393e-06	407.08	137.82	118.56	41.375	3.5431e-06	51.972	150.184	160.209	170.010	92.103	231.096	217.720	91.788	97.101	217.493	224.485	96.329	100.722	101.636	105.924	213.875	105.330	-8191	255	
1031.398	1	1	0	0	0.062861	0.098547	0.1943	0.086698	0.12691	0.19388	0.066676	0.41213	0.19924	0.22409	0.36645	0.089146	0.26567	0.099736	0.045325	0.22925	-1.9146	-1.1979	-1.5792	-1.9729	-0.88542	-1.9292	-1.9208	-1.4438	-1.9396	-1.2417	-1.5792	-2.125	-1.1292	-1.8354	-1.6	-1.2771	337.986	395.562	146.146	97.105	339.419	257.037	114.026	351.969	196.549	150.542	435.591	415.209	115.761	428.678	205.008	410.009	0.00058558	0.00052975	9.0954e-05	1254.6	4.441e-06	3.5778e-06	1266	342.82	4.9253e-06	5.8982e-06	400.31	135.32	116.21	40.463	4.8869e-06	50.77	0.00045078	0.00031352	8.3328e-05	1272	3.6455e-06	3.2371e-06	1285.5	348.93	3.5625e-06	3.4913e-06	407.57	137.78	118.63	41.427	3.4795e-06	52.135	149.061	172.959	178.824	92.092	216.767	228.221	92.066	97.035	213.343	225.640	96.498	100.697	101.406	105.807	232.669	105.297	-8191	255	
1031.470	1	1	0	0	0.19897	0.17848	0.17074	0.012861	0.23603	0.34291	0.17374	0.27336	0.17652	0.13025	0.32165	0.25999	0.30826	0.093404	0.24226	0.32619	-1.6979	-1.3438	-1.3312	-2.2	-1.0292	-1.6792	-1.9354	-1.2604	-1.9646	-1.2313	-1.5229	-2.1208	-1.0688	-1.7958	-1.6896	-1.225	111.687	114.943	396.759	205.566	135.811	334.293	88.269	389.387	388.431	290.518	367.736	98.497	323.112	374.912	201.161	295.979	0.00056698	0.00049568	0.0001394	1259	5.3401e-06	5.3171e-06	1266.3	343.08	5.0849e-06	6.719e-06	400.47	134.76	116.02	40.211	5.927e-06	50.731	0.00043334	0.00030805	8.8435e-05	1274.4	3.8036e-06	3.4785e-06	1285.7	349.21	3.5251e-06	3.3793e-06	407.16	137.71	118.41	41.305	3.6604e-06	52.164	150.536	160.763	184.523	92.178	226.298	216.598	92.046	97.093	218.399	233.940	96.553	100.639	101.593	105.776	229.816	105.200	-8191	255	
1031.589	1	1	0	0	0.11368	0.20041	0.098685	0.20341	0.16996	0.118	0.1056	0.2708	0.1254	0.10281	0.26944	0.10478	0.13824	0.18914	0.27793	0.2035	-1.5917	-1.4396	-1.2729	-2.1104	-1.0146	-1.7208	-1.95	-1.3062	-1.8021	-1.4896	-1.4688	-2.2479	-1.2854	-1.5417	-1.8958	-1.2625	352.933	161.451	232.911	404.456	312.617	316.786	384.263	356.686	342.042	370.296	305.878	113.418	393.201	121.131	302.766	355.149	0.00058328	0.00054895	0.00011668	1257.8	4.7113e-06	5.4306e-06	1268	342.12	4.7154e-06	5.3438e-06	398.66	134.79	116.23	40.3	5.5449e-06	50.884	0.00044667	0.00030863	8.5978e-05	1274.6	3.7238e-06	3.365e-06	1284.8	348.85	3.6219e-06	3.2655e-06	406.56	137.6	118.61	41.35	3.388e-06	52.145	149.814	169.538	172.164	92.027	223.170	223.714	91.912	96.863	218.410	222.368	96.367	100.816	101.647	106.071	235.339	105.131	-8191	255	
1031.685	1	1	0	0	0.13539	0.15736	0.23675	0.32862	0.2338	0.34095	0.38078	0.29263	0.1372	0.25467	0.037386	0.39343	0.44246	0.45956	0.016002	0.34878	-1.6083	-1.3958	-1.0187	-2.0917	-1.1167	-1.3438	-2.2625	-1.1583	-1.8146	-1.6771	-1.2812	-2.0042	-1.3521	-1.625	-1.7458	-1.1458	344.205	389.604	227.790	405.900	119.090	145.001	420.668	371.810	117.803	79.923	434.369	400.473	425.300	438.220	255.964	430.564	0.00059637	0.00044858	0.00013209	1251.3	4.493e-06	4.8961e-06	1267.7	342.65	4.5221e-06	5.5575e-06	398.12	135.41	116.78	40.462	5.0483e-06	50.78	0.00045679	0.00030573	8.9417e-05	1270.2	3.6103e-06	3.2873e-06	1285.9	348.87	3.5635e-06	3.325e-06	406.8	137.85	118.66	41.417	3.5579e-06	52.113	150.490	174.498	177.350	92.060	223.287	221.167	92.219	96.956	233.941	239.791	96.612	100.656	101.390	105.957	230.331	105.336	-8191	255	
1031.781	1	1	0	0	0.21758	0.22763	0.16531	0.34882	0.086706	0.079018	0.32022	0.4333	0.057715	0.23288	0.3221	0.08361	0.15483	0.085308	0.17211	0.10066	-1.4062	-1.7917	-1.2563	-2.4271	-1.4167	-1.4333	-2.0896	-1.3229	-1.7479	-1.8167	-1.2354	-2.1479	-1.5083	-1.3771	-1.8958	-1.0312	252.692	306.484	329.092	362.591	282.705	406.067	385.126	400.072	227.457	365.697	424.727	353.947	189.105	261.723	192.561	436.576	0.00055261	0.00054854	0.00015466	1257.9	5.2441e-06	4.7865e-06	1265.8	341.93	6.273e-06	6.0945e-06	398	134.99	115.92	40.223	5.7554e-06	50.46	0.00043779	0.00030752	9.2008e-05	1274.3	3.6471e-06	3.4319e-06	1285.5	349.02	3.7023e-06	3.3411e-06	406.3	137.68	118.42	41.414	3.3825e-06	51.965	150.821	168.011	175.829	92.290	231.412	216.517	92.091	97.041	227.479	220.905	96.061	100.432	101.417	106.028	244.375	105.150	-8191	255	
1031.877	1	1	0	0	0.032845	0.45463	0.33806	0.29648	0.32137	0.25799	0.12731	0.16702	0.17044	0.35161	0.33645	0.47415	0.2725	0.13122	0.22011	0.048663	-1.2708	-1.7854	-1.1479	-2.2333	-1.4646	-1.1417	-2.0687	-1.1521	-1.6833	-2.0104	-1.0854	-1.9229	-1.5458	-1.3687	-1.9729	-1.2938	417.507	146.117	169.955	88.699	305.963	169.284	362.610	410.343	190.670	144.664	86.009	376.977	366.145	143.155	250.804	410.519	0.00057671	0.00043547	0.00013994	1250	4.9377e-06	4.7311e-06	1268.2	343.15	4.3554e-06	3.6533e-06	399.77	134.8	116.15	40.165	4.7453e-06	50.817	0.00044514	0.00029999	9.168e-05	1269.3	3.4889e-06	3.2491e-06	1284.8	349.3	3.5963e-06	3.2434e-06	406.41	137.62	118.52	41.322	3.5968e-06	52.046	151.115	163.578	180.622	92.344	221.668	241.291	92.095	97.025	236.788	229.766	96.439	100.371	101.354	105.714	229.735	104.988	-8191	255	
1031.998	1	1	0	0	0.19141	0.13653	0.28216	0.17674	0.067143	0.11073	0.11159	0.010246	0.11581	0.16257	0.061342	0.29757	0.21731	0.09087	0.19484	0.2234	-1.0417	-2.0417	-1.1875	-2.0187	-1.525	-1.1208	-2.2646	-1.5125	-1.3583	-2.1042	-1.1063	-2.0375	-2.0646	-1.1354	-2.1375	-1.4542	335.134	136.993	335.232	407.362	180.947	270.526	338.544	395.189	85.594	427.211	328.945	85.742	137.334	374.111	177.417	416.431	0.00056145	0.00047258	0.00010539	1260.5	4.3535e-06	3.6585e-06	1267.5	344.44	5.1845e-06	3.6108e-06	401.28	134.56	116.34	40.179	4.8353e-06	50.97	0.00044171	0.0003171	9.0534e-05	1273.9	3.6176e-06	3.3225e-06	1285.9	349.21	3.5502e-06	3.2077e-06	407.05	137.63	118.55	41.33	3.4269e-06	52.147	151.670	181.087	163.119	92.132	233.324	233.448	92.320	96.848	219.334	214.222	96.492	100.719	101.509	106.033	223.982	105.386	-8191	255	
1032.070	1	1	0	0	0.06048	0.31255	0.1381	0.38404	0.12288	0.0666	0.15544	0.062287	0.070165	0.22643	0.083327	0.21741	0.13858	0.093056	0.15643	0.28248	-0.89167	-1.925	-1.1646	-1.75	-1.9042	-1.0958	-2.1396	-1.6667	-1.3708	-2.1437	-1.325	-1.8708	-1.9542	-1.3979	-1.9771	-1.5979	194.950	160.477	252.111	398.423	97.388	373.944	326.225	276.043	250.862	193.585	435.317	382.591	101.395	375.449	160.339	388.923	0.00056962	0.00048654	0.00013719	1256.8	5.5085e-06	5.3222e-06	1268.6	341.87	4.6476e-06	4.8137e-06	399.12	135.39	115.83	40.334	5.8038e-06	50.542	0.00044655	0.00030115	8.9655e-05	1273.9	3.4338e-06	3.3996e-06	1286.3	348.34	3.6552e-06	3.3447e-06	406.54	137.8	118.36	41.347	3.5025e-06	51.992	151.669	172.825	184.099	92.372	226.994	220.374	92.331	96.954	223.921	238.162	96.425	100.936	101.551	106.067	227.393	104.768	-8191	255	
1032.190	1	1	0	0	0.09328	0.36601	0.050029	0.14155	0.10853	0.016949	0.56738	0.17042	0.24762	0.10141	0.23002	0.17897	0.13816	0.13642	0.13956	0.2937	-0.76667	-1.9854	-1.0542	-1.6812	-1.8646	-1.175	-2.0687	-1.7062	-1.1812	-2.0833	-1.3479	-1.5604	-1.9229	-1.0667	-1.8125	-1.7875	388.664	205.515	100.029	127.990	387.790	203.752	383.254	394.240	339.066	273.826	366.462	119.232	395.085	130.723	330.221	225.693	0.0005713	0.00050669	0.00012083	1253.4	4.6873e-06	4.7627e-06	1270.4	341.81	5.5501e-06	4.8688e-06	399	135.03	116.54	40.064	4.6519e-06	50.748	0.00044624	0.00029068	8.5368e-05	1272.2	3.5772e-06	3.4618e-06	1285.7	348.24	3.9429e-06	3.2243e-06	406.59	138	118.56	41.304	3.4812e-06	52.014	151.475	171.519	169.417	92.221	229.156	222.395	92.288	97.065	227.503	229.577	96.389	100.724	101.660	105.853	220.945	105.116	-8191	255	
1032.286	1	1	0	0	0.094618	0.21939	0.13446	0.26919	0.022023	0.13041	0.20687	0.28529	0.16075	0.28915	0.30043	0.18099	0.24872	0.2445	0.1513	0.33416	-0.74375	-2.0458	-1.2542	-1.6292	-1.9229	-1.0979	-1.9896	-1.8708	-1.2104	-2.0771	-1.4792	-1.4667	-2.0375	-1.3229	-1.7563	-1.9021	275.500	277.878	369.066	421.266	288.369	249.942	274.627	396.665	366.454	203.580	438.793	407.201	369.696	397.332	401.140	424.702	0.00058671	0.00058184	0.000109	1255.8	5.6953e-06	4.6204e-06	1264	343.41	5.3824e-06	5.0269e-06	400.6	134.48	116.28	40.338	4.9094e-06	50.58	0.00046433	0.00030336	8.4653e-05	1270.7	3.407e-06	3.4653e-06	1285.1	349.29	3.7806e-06	3.309e-06	406.94	137.44	118.55	41.356	3.582e-06	52.024	152.136	168.409	177.143	92.245	226.502	231.992	92.309	96.887	217.422	228.284	96.352	100.795	101.354	105.970	227.113	104.909	-8191	255	
1032.383	1	1	0	0	0.20119	0.27589	0.5662	0.17192	0.25938	0.2159	0.17347	0.15942	0.12089	0.19034	0.19229	0.39719	0.19939	0.24517	0.039841	0.31971	-0.68125	-1.9625	-1.5812	-1.4625	-2.0104	-1.275	-1.8125	-2.0979	-1.1917	-1.8542	-1.8167	-1.4042	-2.0771	-1.3333	-1.7229	-2.1229	80.100	201.457	99.382	411.722	374.042	191.543	395.857	82.851	332.718	399.226	406.958	438.698	364.073	382.037	238.982	341.969	0.00055001	0.00058657	0.00010962	1254.3	4.9955e-06	3.9805e-06	1267.8	342.83	5.507e-06	4.3911e-06	398.01	135.44	116.95	40.308	3.7564e-06	50.645	0.00044295	0.00028925	8.5159e-05	1271.1	3.4474e-06	3.2246e-06	1286.5	348.49	3.9208e-06	3.0658e-06	405.78	137.6	118.56	41.257	3.4379e-06	52.017	148.671	173.517	167.633	92.061	230.083	223.037	92.025	96.929	228.334	225.241	96.059	100.428	101.317	105.747	232.291	104.886	-8191	255	
1032.479	1	1	0	0	0.14929	0.10341	0.15513	0.22423	0.09025	0.2423	0.62023	0.12463	0.078535	0.061842	0.072488	0.11261	0.11907	0.16876	0.27544	0.13781	-0.74583	-1.6854	-1.55	-1.3458	-2.075	-1.2646	-1.6396	-2.1083	-1.0708	-1.8875	-1.9542	-1.2958	-2.1604	-1.3937	-1.5021	-1.8937	123.561	140.180	188.658	396.542	410.674	194.641	339.340	291.806	316.629	294.163	326.330	304.107	364.583	376.981	303.787	424.627	0.00058833	0.0004835	0.00013762	1251	5.2079e-06	5.2195e-06	1264.5	343.97	5.2177e-06	5.9701e-06	398.5	134.77	116.12	40.093	4.9539e-06	50.522	0.00046237	0.00030741	8.108e-05	1269.2	3.7048e-06	3.3429e-06	1284.2	349.16	3.7529e-06	3.191e-06	406.34	137.5	118.22	41.218	3.5179e-06	52.003	147.512	164.617	169.339	92.339	228.312	218.985	92.071	96.964	225.291	226.920	96.307	100.567	101.194	105.667	231.610	104.907	-8191	255	
1032.599	1	1	0	0	0.086093	0.072551	0.18368	0.26393	0.017916	0.55886	0.31836	0.11337	0.10083	0.1006	0.23601	0.23436	0.18927	0.28237	0.1321	0.036279	-0.72917	-1.675	-1.7542	-1.3896	-2.0479	-1.4562	-1.5625	-2.1979	-1.0396	-1.8375	-1.9542	-1.0958	-1.9292	-1.5729	-1.2354	-2.1792	87.841	230.917	412.894	393.468	337.598	200.730	411.104	299.310	319.488	432.068	365.304	83.604	360.092	430.178	198.847	367.250	0.00056299	0.00057302	0.00014823	1250.4	4.6638e-06	5.4474e-06	1265.3	342.62	5.8576e-06	4.5172e-06	399.83	135.11	115.85	40.259	5.1293e-06	50.531	0.00043785	0.00030994	8.4043e-05	1268.6	3.4716e-06	3.3381e-06	1283.1	348.39	3.8871e-06	3.3429e-06	406.14	137.76	118.44	41.32	3.7147e-06	51.981	150.427	172.221	172.275	92.129	239.310	230.476	92.079	96.847	222.942	227.268	96.334	100.685	101.488	105.932	229.150	104.835	-8191	255	
1032.694	1	1	0	0	0.10879	0.098543	0.15723	0.32091	0.18756	0.40761	0.20987	0.12281	0.11031	0.17589	0.22716	0.080548	0.16896	0.11376	0.2806	0.17121	-0.73542	-1.6562	-1.7854	-1.2333	-1.6938	-1.4729	-1.4042	-2.2521	-1.1625	-1.5312	-1.9958	-1.3354	-1.7542	-1.4937	-1.2771	-2.0896	185.425	264.401	359.547	403.607	168.700	117.698	362.849	263.998	390.720	260.291	340.934	380.511	414.617	205.968	262.754	399.678	0.00060514	0.00035486	0.0001059	1258.2	4.451e-06	4.765e-06	1265.7	342.19	6.0944e-06	4.696e-06	397.54	134.66	116.03	40.114	5.3106e-06	50.437	0.00046523	0.0002991	8.3179e-05	1270.5	3.3676e-06	3.1791e-06	1284	348.57	3.7831e-06	3.2309e-06	406.26	137.51	118.49	41.249	3.4883e-06	51.862	151.752	177.404	173.203	92.112	229.448	221.907	92.000	96.722	219.735	218.052	96.308	100.690	101.481	105.798	230.449	105.209	-8191	255	
1032.765	1	1	0	0	0.11768	0.26525	0.11778	0.21982	0.11346	0.12028	0.3791	0.043543	0.12899	0.34422	0.16566	0.30376	0.12988	0.15667	0.087799	0.18995	-0.97708	-1.4521	-1.85	-1.1896	-1.8979	-1.6396	-1.4542	-2.1417	-1.1667	-1.4	-2.1063	-1.15	-1.6542	-1.6938	-1.1833	-2.0062	389.881	392.259	351.913	405.808	196.107	243.722	418.589	317.421	170.289	356.784	410.684	348.282	242.933	88.413	109.563	431.012	0.00056895	0.00047205	0.00013007	1253	5.2678e-06	5.868e-06	1264.8	340.9	5.8036e-06	4.7397e-06	398.79	135.12	116.57	40.293	4.8323e-06	50.644	0.00044378	0.00030968	8.4132e-05	1270.6	3.6203e-06	3.2174e-06	1283.3	348.15	3.7417e-06	3.2833e-06	406.54	137.74	118.44	41.277	3.7037e-06	52.084	153.214	160.260	181.559	92.139	227.075	228.535	91.939	96.698	220.374	221.211	96.178	100.507	101.343	105.550	238.415	104.894	-8191	255	
1032.886	1	1	0	0	0.39326	0.16517	0.18641	0.11795	0.080024	0.23321	0.42537	0.47931	0.17736	0.027137	0.29775	0.219	0.30982	0.12744	0.21503	0.080325	-0.85208	-1.3917	-1.9271	-1.3729	-1.6458	-1.9792	-1.3333	-2.0854	-1.3833	-1.2792	-2.2562	-1.3229	-1.6208	-1.7917	-1.0958	-1.9083	125.660	146.130	94.990	88.029	310.147	314.085	381.329	107.504	120.221	378.681	322.095	108.119	395.441	358.555	402.426	86.918	0.00055122	0.00048784	0.00010804	1252.1	3.8852e-06	4.9364e-06	1267.7	344.02	4.6313e-06	5.9698e-06	399.31	134.27	116.37	40.238	5.8575e-06	50.769	0.00043782	0.00030331	8.1839e-05	1268.9	3.6539e-06	3.2114e-06	1283.3	349.21	3.8123e-06	3.4698e-06	406.56	137.58	118.41	41.339	3.6253e-06	52.104	151.461	170.050	167.436	91.790	199.916	229.055	91.942	96.580	223.159	226.546	95.961	100.572	101.448	105.853	224.735	105.082	-8191	255	
1032.982	1	1	0	0	0.27915	0.094911	0.23601	0.32626	0.084403	0.20075	0.24436	0.050479	0.13528	0.21396	0.27125	0.15892	0.18304	0.21829	0.064028	0.32256	-1.1042	-1.1208	-1.875	-1.3292	-1.5604	-1.7104	-1.1646	-2.0979	-1.5792	-1.1417	-2.0542	-1.2563	-1.4979	-2.0583	-1.0958	-2.0333	379.895	267.108	307.955	366.164	424.000	117.900	348.906	189.287	358.999	198.217	296.170	344.321	379.761	93.516	259.109	371.424	0.00058232	0.00037451	0.00013885	1252.4	4.5176e-06	4.4982e-06	1269.2	341.91	5.1926e-06	4.5448e-06	400.59	135.04	115.91	40.181	4.479e-06	50.518	0.00045134	0.00030484	8.1139e-05	1272.1	3.6549e-06	3.3315e-06	1285.4	348.76	3.4248e-06	3.4007e-06	407.06	137.55	118.55	41.226	3.6741e-06	51.993	149.275	166.263	171.198	91.740	225.226	229.438	91.568	96.570	222.230	240.469	95.962	100.582	101.212	105.780	228.946	104.911	-8191	255	
1033.078	1	1	0	0	0.15455	0.21612	0.064815	0.27713	0.22659	0.14118	0.23276	0.056422	0.15492	0.19342	0.37591	0.18511	0.24528	0.22181	0.23977	0.078368	-1.2604	-1.1271	-1.7938	-1.425	-1.4979	-2.0812	-1.3354	-1.9708	-1.7458	-1.1292	-2.1146	-1.6333	-1.4792	-2.0604	-1.175	-1.6896	226.445	246.638	331.513	408.762	127.023	288.391	365.927	337.971	104.780	146.731	83.086	186.386	301.532	311.396	339.186	416.554	0.00056499	0.00035533	0.00013432	1255.1	5.7091e-06	5.1002e-06	1266	343.33	5.9376e-06	4.0537e-06	400.61	134.92	116.06	40.355	4.7717e-06	50.649	0.00044023	0.00032747	8.2494e-05	1272.7	3.5893e-06	3.3034e-06	1284.9	349.28	3.628e-06	3.4395e-06	407.57	137.77	118.65	41.311	3.7591e-06	52.031	150.246	151.084	165.364	91.848	224.034	226.045	91.628	96.973	231.158	223.182	96.109	100.566	101.532	105.609	237.327	104.932	-8191	255	
1033.174	1	1	0	0	0.1291	0.056382	0.2291	0.049828	0.25582	0.19523	0.34243	0.23521	0.033363	0.010853	0.25494	0.25053	0.07068	0.17885	0.095297	0.038004	-1.5042	-1.1146	-1.9458	-1.5625	-1.1646	-2.1479	-1.3062	-1.6292	-1.8896	-1.0229	-2.1125	-1.6521	-1.1854	-2.0042	-1.1437	-1.5125	222.182	220.584	254.299	85.405	290.043	177.308	348.852	275.020	375.779	123.428	277.019	80.187	305.918	362.565	84.673	248.019	0.00058185	0.00042249	0.00014756	1255.3	4.9029e-06	4.5565e-06	1271.8	343.32	5.5343e-06	4.185e-06	399.29	135.15	116.02	40.242	5.3679e-06	50.637	0.00045191	0.00033016	8.7333e-05	1273.5	3.6922e-06	3.2562e-06	1288	349.25	3.7238e-06	3.4502e-06	407.26	137.85	118.54	41.313	3.7076e-06	52.045	149.787	165.919	165.902	91.797	227.322	223.525	91.720	96.693	214.210	231.965	96.335	100.400	101.290	105.780	231.401	105.117	-8191	255	
1033.295	1	1	0	0	0.087817	0.066473	0.12783	0.26501	0.1261	0.19436	0.080025	0.055144	0.042329	0.20116	0.14533	0.22089	0.23376	0.32687	0.24004	0.32794	-1.4604	-1.0854	-1.825	-1.8417	-1.0875	-2.0771	-1.5521	-1.8042	-2.0021	-1.0167	-2.0604	-1.9146	-1.2667	-2.0167	-1.4167	-1.6083	94.639	263.545	263.356	362.668	309.715	438.479	107.907	430.832	83.831	281.063	177.934	87.333	434.511	340.796	306.855	428.654	0.00059695	0.00051607	0.00010527	1263.5	4.3723e-06	4.2725e-06	1269.9	342.66	5.3984e-06	6.787e-06	398.03	134.97	115.86	40.226	4.2636e-06	50.577	0.00044984	0.00033631	8.3834e-05	1275.8	3.7043e-06	3.1248e-06	1285.3	349.32	3.5789e-06	3.6605e-06	406.98	137.76	118.72	41.306	3.6034e-06	51.941	150.323	167.774	170.841	91.864	217.610	226.608	91.670	96.927	224.094	225.480	96.262	100.306	101.170	105.864	236.272	104.833	-8191	255	
1033.367	1	1	0	0	0.24669	0.13464	0.14709	0.21039	0.18483	0.18208	0.31984	0.049567	0.20241	0.13902	0.23118	0.19347	0.26175	0.12619	0.32232	0.059961	-1.4188	-1.2375	-1.8229	-1.8	-1.1625	-1.8708	-1.5917	-1.5708	-2.0187	-1.1771	-1.8937	-1.9167	-1.3	-1.8979	-1.3792	-1.3375	250.651	136.189	171.180	382.635	94.711	104.462	329.059	257.422	164.472	208.160	103.973	199.222	181.733	178.738	133.403	395.318	0.00059519	0.0005272	0.00015032	1257.8	4.659e-06	5.5165e-06	1271.9	343.25	5.2813e-06	5.495e-06	398.38	135.01	115.98	40.125	4.5729e-06	50.618	0.00044987	0.0003181	8.4847e-05	1273.9	3.74e-06	3.2514e-06	1288	348.96	3.6767e-06	3.3954e-06	406.83	137.71	118.33	41.305	3.5491e-06	52.069	152.898	173.346	176.610	92.003	219.892	225.358	91.779	96.842	216.909	226.913	96.336	100.392	101.536	105.829	233.377	105.020	-8191	255	
1033.463	1	1	0	0	0.22757	0.13188	0.14049	0.22027	0.070745	0.071613	0.21489	0.036386	0.15608	0.15938	0.16618	0.18383	0.20545	0.2187	0.22076	0.047664	-1.5917	-1.1437	-1.5667	-1.7188	-0.90208	-1.7313	-1.6958	-1.3625	-2.0146	-1.2833	-1.6375	-2.0458	-1.1146	-1.925	-1.6583	-1.1521	264.808	347.863	82.672	330.151	350.148	97.993	359.345	301.497	220.732	349.870	364.253	394.878	290.517	364.288	409.215	278.680	0.00058088	0.00046637	0.00014123	1255.2	4.6858e-06	4.0227e-06	1267.1	343.36	4.8226e-06	4.8594e-06	400.34	135.29	116.28	40.37	5.5983e-06	50.593	0.00044536	0.00030526	8.5219e-05	1272.2	3.7579e-06	3.203e-06	1285.2	349.31	3.5123e-06	3.4698e-06	406.55	137.73	118.63	41.382	3.6423e-06	52.038	150.440	161.665	173.229	91.924	224.929	224.999	92.046	96.961	226.327	244.022	96.220	100.422	101.341	105.782	226.403	105.039	-8191	255	
1033.559	1	1	0	0	0.086864	0.10649	0.14017	0.07837	0.14622	0.20481	0.43572	0.31494	0.058143	0.28875	0.19772	0.25085	0.18813	0.38708	0.22685	0.072233	-1.5438	-1.3062	-1.6208	-2.0896	-1.1354	-2.0021	-1.9708	-1.3167	-2.0271	-1.3625	-1.5688	-2.1542	-1.1437	-1.8854	-1.8354	-1.2313	224.644	164.403	308.821	423.269	287.253	197.254	406.771	390.844	319.397	146.169	396.111	422.261	433.423	430.142	409.810	312.355	0.0005927	0.00040068	0.00010435	1253.3	4.037e-06	4.7351e-06	1268.3	343.97	5.7645e-06	5.7762e-06	398.91	135.7	115.84	40.19	5.3311e-06	50.814	0.00044704	0.00031373	8.5442e-05	1272.6	3.6434e-06	3.2598e-06	1285.6	349.79	3.6925e-06	3.4269e-06	406.47	137.85	118.32	41.28	3.3847e-06	52.009	151.460	162.465	183.415	91.839	226.912	218.026	91.950	96.721	220.916	218.803	96.175	100.721	101.099	105.659	238.604	105.314	-8191	255	
1033.680	1	1	0	0	0.20395	0.17499	0.11404	0.1902	0.10806	0.15196	0.32864	0.21385	0.16261	0.088933	0.43011	0.22027	0.15393	0.20723	0.13631	0.26197	-1.4438	-1.4	-1.2604	-2.2333	-1.0583	-1.9438	-2.0187	-1.2521	-1.85	-1.5187	-1.4	-2.1146	-1.1958	-1.6167	-1.8708	-1.2125	433.338	85.377	405.583	401.299	86.783	89.753	362.554	304.063	434.202	86.211	418.457	135.505	340.382	425.164	131.706	332.748	0.00057749	0.00047697	9.4339e-05	1255.9	4.3062e-06	3.8488e-06	1264.2	343.64	5.2462e-06	5.0602e-06	398.83	135.02	115.82	40.369	4.5144e-06	50.59	0.00044227	0.00031263	8.0797e-05	1271.8	3.5425e-06	3.0423e-06	1285	348.87	3.3429e-06	3.1731e-06	406.6	137.6	118.39	41.389	3.4565e-06	51.986	151.551	160.574	170.734	92.102	234.610	240.408	91.706	96.897	229.379	236.355	96.025	100.610	101.273	105.887	227.754	104.887	-8191	255	
1033.774	1	1	0	0	0.097213	0.24291	0.36988	0.18489	0.11452	0.16916	0.37223	0.17921	0.12121	0.060074	0.22971	0.25339	0.22514	0.063853	0.14902	0.16103	-1.4458	-1.4312	-1.1313	-2.1771	-1.2542	-1.4375	-2.0333	-1.3312	-1.7062	-1.6292	-1.2917	-2.0208	-1.2604	-1.5083	-1.875	-1.0458	191.931	431.410	410.686	434.094	425.227	362.737	400.459	310.630	278.194	203.454	361.751	401.315	402.194	303.474	314.932	368.444	0.00058812	0.00048505	0.00014244	1255.4	4.0276e-06	5.7363e-06	1264.7	341.43	4.876e-06	4.5615e-06	399.76	134.99	115.72	40.151	5.5047e-06	50.601	0.00045324	0.00031173	9.232e-05	1271.8	3.5893e-06	3.304e-06	1282.5	348.11	3.4724e-06	3.4496e-06	407.11	137.75	118.53	41.321	3.4982e-06	52.031	150.581	166.008	168.534	92.037	230.878	228.623	91.941	96.797	228.019	221.914	96.094	100.631	101.476	105.758	231.232	105.004	-8191	255	
1033.870	1	1	0	0	0.24314	0.10593	0.053805	0.15429	0.13956	0.2543	0.30742	0.18202	0.10915	0.26537	0.30721	0.021348	0.36958	0.40728	0.27202	0.2462	-1.4667	-1.6146	-1.1771	-2.0833	-1.5333	-1.1979	-2.3396	-1.4083	-1.6875	-1.8208	-1.275	-2.1458	-1.3979	-1.4229	-2.0979	-1.225	312.129	83.806	99.303	296.024	156.889	420.206	411.813	356.946	152.298	405.019	378.595	388.310	345.525	384.454	381.975	415.247	0.00057246	0.00033662	0.00013291	1255	3.9939e-06	3.8711e-06	1267.3	342.99	4.7806e-06	5.0021e-06	399.27	134.62	116.11	40.403	5.1959e-06	50.632	0.00044148	0.00027867	9.4018e-05	1272.4	3.4747e-06	3.2735e-06	1286.1	349.83	3.6352e-06	2.9788e-06	407.16	137.68	118.58	41.386	3.3622e-06	52.089	151.947	159.507	162.704	91.877	232.868	236.664	91.912	96.778	225.124	232.794	96.253	100.539	101.377	105.840	234.670	105.062	-8191	255	
1033.966	1	1	0	0	0.18642	0.21081	0.18685	0.17145	0.050345	0.17644	0.14577	0.11053	0.066517	0.10891	0.26221	0.21409	0.20808	0.079614	0.25143	0.16124	-1.2104	-1.7437	-0.95208	-1.9438	-1.3188	-1.2021	-2.2208	-1.4583	-1.4979	-1.9208	-1.0875	-1.7958	-1.6042	-1.4188	-1.9104	-1.5187	224.634	322.566	266.270	243.252	223.370	312.536	400.292	318.505	356.542	356.105	391.163	86.598	425.320	175.102	425.087	339.132	0.00057439	0.00046299	0.00012368	1262.3	4.7811e-06	4.1305e-06	1269.3	342.54	4.9962e-06	4.3178e-06	400.76	135.08	116.13	40.153	5.3482e-06	50.681	0.0004482	0.00029257	8.7363e-05	1275.3	3.657e-06	3.2281e-06	1288.1	349.09	3.7053e-06	3.1504e-06	407.54	137.92	118.54	41.342	3.3984e-06	52.049	150.386	178.334	178.985	91.847	227.329	234.607	91.923	96.897	224.730	223.808	96.021	100.375	101.185	106.008	234.011	104.915	-8191	255	
1034.063	1	1	0	0	0.13233	0.30008	0.24602	0.29303	0.083199	0.19503	0.091281	0.20767	0.13866	0.13476	0.21066	0.23372	0.069741	0.046855	0.13925	0.077136	-1.2313	-1.9521	-1.1146	-1.8458	-1.8208	-1.0333	-2.1396	-1.3937	-1.4125	-2.0333	-1.25	-1.9021	-1.8917	-1.2417	-2.0375	-1.5833	274.461	352.648	114.377	341.858	163.850	270.055	353.707	90.564	166.142	236.956	374.965	125.881	171.158	308.574	349.115	405.270	0.00060014	0.00042863	0.00014389	1258.7	4.7754e-06	5.5985e-06	1269.2	343.74	6.0637e-06	4.9282e-06	400.16	134.99	115.84	40.248	4.8454e-06	50.709	0.00045424	0.00028815	9.238e-05	1274.6	3.667e-06	3.3166e-06	1287.2	349.17	3.8471e-06	3.247e-06	407.26	137.91	118.36	41.376	3.3501e-06	52.135	151.677	156.459	163.598	92.190	225.517	228.219	92.062	96.743	217.800	220.523	96.248	100.563	101.482	105.928	239.098	104.871	-8191	255	
1034.159	1	1	0	0	0.26257	0.18576	0.041045	0.39169	0.14448	0.29715	0.13591	0.20121	0.2606	0.12038	0.2576	0.3482	0.39963	0.057424	0.23708	0.2203	-0.8875	-1.9271	-1.2917	-1.9042	-1.7833	-1.1458	-2.1688	-1.6688	-1.3583	-2.0083	-1.4375	-1.7583	-1.8479	-1.1938	-2.0146	-1.6083	158.513	156.970	148.590	417.566	391.965	214.852	431.655	357.960	300.027	296.328	328.348	392.931	411.336	379.177	417.188	365.059	0.00057494	0.00047521	0.0001468	1255.7	5.0908e-06	3.5273e-06	1271.1	342.63	4.9624e-06	4.0838e-06	400.2	135.03	116.41	40.13	5.3232e-06	50.653	0.00044423	0.00029536	8.9283e-05	1273.7	3.6518e-06	3.2879e-06	1287.8	349.08	3.6946e-06	3.1582e-06	407.43	137.78	118.53	41.294	3.4823e-06	52.05	153.744	165.371	173.923	92.231	228.735	228.255	91.893	96.750	226.982	236.562	96.223	100.521	101.312	105.687	223.577	105.037	-8191	255	
1034.279	1	1	0	0	0.10763	0.27945	0.17352	0.25277	0.23705	0.089287	0.36923	0.17399	0.29867	0.25893	0.14957	0.14092	0.12261	0.16981	0.17326	0.16826	-0.89792	-2.05	-1.1542	-1.8083	-2.0146	-1.1437	-2.0812	-1.8625	-1.0917	-2.0271	-1.3563	-1.7521	-2.0438	-1.0083	-1.875	-1.7521	123.519	136.784	387.609	424.398	320.516	392.408	378.917	352.176	146.996	214.843	360.235	331.667	261.958	376.739	433.252	396.325	0.00056548	0.00051748	0.0001447	1259.9	4.3368e-06	4.8685e-06	1270.1	344.42	4.7687e-06	4.5264e-06	399.26	134.21	116.53	40.206	4.382e-06	50.336	0.00044256	0.00029915	8.8524e-05	1274.9	3.4233e-06	3.2383e-06	1286.4	349.4	3.7924e-06	3.1695e-06	406.5	137.52	118.72	41.246	3.4225e-06	51.894	152.948	155.165	177.341	92.000	222.716	213.261	91.891	96.777	219.741	223.334	96.118	100.663	101.139	105.530	230.832	104.995	-8191	255	
1034.374	1	1	0	0	0.051339	0.11592	0.18132	0.34413	0.12329	0.23677	0.17575	0.57277	0.31188	0.27243	0.35488	0.32778	0.10065	0.31992	0.2675	0.24803	-0.90833	-2.1083	-1.2292	-1.4396	-1.9875	-1.075	-2.075	-1.7833	-1.1521	-2.1	-1.5354	-1.3438	-2.1188	-1.3146	-1.5271	-1.9188	240.938	247.817	174.825	398.148	298.418	343.138	388.847	392.208	316.403	118.953	428.672	343.956	431.255	427.433	130.644	389.212	0.00054499	0.00054385	0.00014345	1255.8	4.0984e-06	4.5033e-06	1273.7	343.23	4.9992e-06	4.7822e-06	399.91	135.44	115.99	40.319	4.4465e-06	50.8	0.00044105	0.00031073	9.0147e-05	1274.3	3.5772e-06	3.264e-06	1287.9	348.93	3.7621e-06	3.1528e-06	407.38	137.76	118.52	41.355	3.4801e-06	52.054	153.976	168.473	173.082	91.982	216.679	223.930	92.080	96.659	224.815	235.290	96.104	100.555	101.384	105.709	226.684	104.848	-8191	255	
1034.470	1	1	0	0	0.43536	0.12539	0.23844	0.24041	0.24563	0.32009	0.14417	0.25704	0.32727	0.12447	0.23167	0.32764	0.17764	0.2619	0.12529	0.17268	-0.96875	-1.9333	-1.4604	-1.4292	-2.125	-1.3771	-1.9188	-2.1021	-1.1333	-1.8833	-1.6792	-1.4042	-2.0312	-1.4521	-1.5708	-2.0312	90.186	176.356	157.565	406.566	348.789	195.157	357.161	351.970	193.388	246.485	119.419	109.088	388.526	365.713	313.293	355.482	0.00060185	0.00058926	0.00012775	1258.3	4.4561e-06	6.2597e-06	1270.2	343.09	4.639e-06	5.6248e-06	399.15	134.67	116.69	40.141	3.9741e-06	50.752	0.00045548	0.00030473	8.4891e-05	1271	3.4022e-06	3.3213e-06	1284.9	349.24	3.8118e-06	3.2184e-06	406.7	137.72	118.73	41.252	3.4022e-06	52.022	149.988	181.493	175.975	92.207	234.818	227.580	92.050	96.713	214.108	231.822	96.122	100.509	101.220	105.776	234.194	104.720	-8191	255	
1034.591	1	1	0	0	0.17481	0.11515	0.18599	0.35584	0.22583	0.066093	0.38987	0.28613	0.16734	0.16913	0.08967	0.15558	0.031888	0.21239	0.13377	0.085101	-0.90208	-1.8542	-1.5583	-1.4833	-1.9417	-1.2292	-1.5979	-2.1021	-1.1604	-1.7729	-1.7125	-1.5063	-2.0792	-1.4333	-1.4646	-2.3187	422.249	176.952	163.170	355.417	269.514	335.941	382.863	397.959	366.330	137.112	431.869	102.598	166.656	345.177	405.424	157.508	0.00055307	0.00043634	0.00012526	1256.2	4.8615e-06	5.0128e-06	1268.4	344.23	4.7174e-06	4.909e-06	399.41	134.76	116.07	40.347	5.8236e-06	50.399	0.00044973	0.00030563	8.4325e-05	1271.9	3.4863e-06	3.3231e-06	1284.6	349.62	3.6572e-06	3.1594e-06	406.58	137.73	118.54	41.327	3.5004e-06	51.945	150.889	156.102	158.658	92.183	233.995	234.329	91.883	96.880	220.672	227.145	96.068	100.747	101.281	105.830	233.405	104.699	-8191	255	
1034.662	1	1	0	0	0.019823	0.2552	0.21959	0.3443	0.17014	0.10948	0.25011	0.42378	0.29373	0.093086	0.077666	0.051237	0.014102	0.20155	0.25069	0.089073	-0.82292	-1.7188	-1.6771	-1.3208	-1.9896	-1.5167	-1.5833	-2.0458	-1.1938	-1.725	-1.7417	-1.0688	-2.0979	-1.5021	-1.3563	-2.1	338.346	352.862	102.443	365.835	125.121	114.392	366.419	367.222	128.347	237.113	375.465	261.370	433.036	99.150	165.388	366.032	0.00058196	0.00046206	0.00012131	1250.7	4.7146e-06	5.8037e-06	1265.9	341.78	5.09e-06	4.866e-06	400.2	135.41	115.58	40.136	4.6647e-06	50.791	0.00044567	0.00030057	8.3879e-05	1269.6	3.553e-06	3.3052e-06	1284.7	348.52	3.5763e-06	3.2649e-06	407.02	138	118.6	41.255	3.5667e-06	52.118	151.280	155.880	165.652	91.994	225.201	217.626	92.158	96.849	210.611	216.251	96.275	100.648	101.379	105.810	213.388	105.082	-8191	255	
1034.758	1	1	0	0	0.10283	0.10127	0.43067	0.13803	0.32051	0.20257	0.66324	0.36568	0.080918	0.18772	0.24481	0.18758	0.17071	0.29821	0.3071	0.20828	-0.81875	-1.7208	-1.7208	-1.0271	-1.7917	-1.5917	-1.4146	-2.0979	-1.2313	-1.4354	-1.9875	-1.1646	-1.8479	-1.7188	-1.2167	-2.1333	133.288	301.057	323.212	410.884	416.169	144.623	383.297	396.286	361.913	274.552	111.846	81.686	193.238	415.883	236.445	106.452	0.00058797	0.0004653	9.9542e-05	1252.6	4.4089e-06	4.1538e-06	1267.5	342.86	5.8042e-06	4.6444e-06	400.78	134.89	116.12	40.11	5.1837e-06	50.847	0.00045032	0.00031189	8.4296e-05	1271.7	3.614e-06	3.2765e-06	1285.5	349.21	3.7693e-06	3.2231e-06	407.47	137.86	118.62	41.276	3.6511e-06	52.029	150.768	155.880	173.562	92.074	226.608	221.210	91.980	96.816	218.500	229.738	96.222	100.639	101.367	105.751	237.677	105.056	-8191	255	
1034.854	1	1	0	0	0.15364	0.11915	0.067728	0.42346	0.12251	0.20577	0.42694	0.39881	0.23133	0.18954	0.072612	0.27947	0.41603	0.23334	0.14891	0.087687	-1.025	-1.45	-2.075	-1.2437	-2.05	-1.6396	-1.3417	-2.1813	-1.5021	-1.4688	-2.1146	-1.1625	-1.6271	-1.8583	-1.2229	-2.0729	235.787	328.472	316.988	431.323	404.613	373.693	357.176	398.810	93.965	417.579	273.065	397.439	352.892	344.204	248.911	404.952	0.0005957	0.0003136	0.00014832	1257.3	4.4222e-06	5.7043e-06	1268.8	344.53	5.5074e-06	5.5806e-06	398.86	134.83	115.96	40.203	4.9069e-06	50.538	0.00046379	0.00030457	8.3983e-05	1272.6	3.501e-06	3.3924e-06	1285.8	349.73	3.6029e-06	3.6266e-06	406.93	137.61	118.66	41.381	3.7514e-06	51.892	148.688	155.745	175.571	91.868	232.318	225.281	91.785	96.970	226.245	227.466	96.337	100.648	101.302	105.992	237.302	104.895	-8191	255	
1034.951	1	1	0	0	0.34468	0.033095	0.22834	0.20718	0.04192	0.08366	0.27895	0.33741	0.10851	0.0086447	0.0082319	0.17573	0.22486	0.24586	0.14	0.218	-1.1063	-1.2833	-2.0042	-1.3	-1.7125	-1.6417	-1.2083	-2.175	-1.3979	-1.2667	-2.1354	-1.3687	-1.8146	-2.1063	-1.1896	-2.1271	421.615	97.020	384.795	403.407	245.968	141.586	338.836	394.170	411.591	171.728	385.697	386.068	112.568	393.063	134.833	334.645	0.00057421	0.00047003	0.00010783	1255.6	4.4814e-06	4.1459e-06	1268	343.26	4.9739e-06	5.6884e-06	400.19	135.43	116.57	40.252	5.0944e-06	50.521	0.00044947	0.00030136	7.8087e-05	1272	3.377e-06	3.1815e-06	1286.3	349.54	3.5809e-06	3.4013e-06	407.12	138.07	118.95	41.323	3.7037e-06	52.043	148.824	167.217	172.435	92.007	232.777	229.763	91.681	96.755	223.791	239.981	96.449	100.928	101.400	105.678	230.885	104.953	-8191	255	
1035.070	1	1	0	0	0.21017	0.25081	0.10163	0.29636	0.13169	0.19216	0.32557	0.28481	0.49728	0.2157	0.21344	0.12632	0.29003	0.091714	0.13561	0.19316	-1.1146	-1.2604	-1.9729	-1.2917	-1.6812	-1.9958	-1.0833	-1.95	-1.7875	-1.2354	-1.9604	-1.4229	-1.5438	-2.0042	-1.2333	-2.0521	408.074	111.515	250.556	418.655	317.821	295.976	437.343	91.122	146.967	109.664	382.928	155.261	348.660	315.803	256.972	407.402	0.00061123	0.00048097	0.00016144	1259.6	5.2164e-06	4.1383e-06	1271.7	343.64	4.6687e-06	5.6379e-06	400.57	134.58	116.27	40.233	4.6944e-06	50.849	0.00046367	0.00031073	8.5368e-05	1276.7	3.6765e-06	3.2718e-06	1288.8	350.29	3.5855e-06	3.3012e-06	407.7	137.59	118.81	41.337	3.61e-06	52.162	151.201	168.717	182.267	91.944	223.048	242.495	91.814	96.914	231.861	225.270	96.196	100.584	101.260	105.697	216.321	104.945	-8191	255	
1035.166	1	1	0	0	0.33025	0.13845	0.04801	0.1222	0.1025	0.084586	0.21387	0.041573	0.11727	0.23803	0.1077	0.35226	0.15728	0.19492	0.19183	0.21334	-1.3521	-1.0771	-2.1813	-1.5104	-1.5604	-1.9708	-1.3125	-1.9417	-1.7417	-1.0938	-2.2146	-1.5083	-1.4021	-2.0458	-1.3021	-1.8854	342.565	381.468	139.944	82.368	99.891	327.174	307.360	372.563	403.450	416.162	112.541	231.180	437.108	118.151	134.753	389.413	0.00059042	0.0004653	0.00011919	1254.4	5.0798e-06	5.4388e-06	1265.7	343.29	3.8906e-06	5.1074e-06	401.04	134.29	115.91	40.351	5.4424e-06	50.753	0.00045401	0.00031221	8.37e-05	1273.5	3.6886e-06	3.4283e-06	1288.9	349.89	3.5994e-06	3.4412e-06	407.7	137.57	118.5	41.401	3.7218e-06	52.081	151.175	158.278	178.326	91.951	217.975	217.370	91.919	96.654	225.439	223.020	96.387	100.319	101.106	105.553	215.743	105.040	-8191	255	
1035.239	1	1	0	0	0.13766	0.1398	0.06528	0.074213	0.09043	0.11696	0.27062	0.31069	0.11545	0.19701	0.058755	0.065877	0.058109	0.14439	0.072166	0.078581	-1.425	-1.0583	-1.9667	-1.6542	-1.4479	-1.9458	-1.45	-1.7812	-1.8792	-1.2042	-1.9708	-1.6958	-1.3271	-2.1437	-1.2354	-1.6375	346.902	430.979	273.316	400.493	282.466	379.650	343.133	435.630	245.812	215.764	426.342	272.982	82.018	421.790	305.624	388.441	0.00055796	0.00040384	0.00013945	1251.6	4.2719e-06	4.2215e-06	1268.3	343.62	6.1325e-06	4.1747e-06	399.05	135.05	115.7	40.206	5.7133e-06	50.697	0.00044054	0.00032552	8.236e-05	1272.3	3.5472e-06	3.1415e-06	1286.6	349.79	3.6587e-06	3.3662e-06	407.46	137.93	118.55	41.315	3.5749e-06	51.997	151.322	165.325	175.298	91.853	233.760	231.129	91.838	96.862	230.902	225.542	96.124	100.547	101.521	105.684	226.317	105.189	-8191	255	
1035.358	1	1	0	0	0.095475	0.15285	0.13106	0.21472	0.21143	0.17816	0.18896	0.2939	0.062595	0.18551	0.034383	0.053083	0.12572	0.13704	0.25856	0.22298	-1.5354	-1.2021	-1.8875	-1.9625	-1.4458	-1.9917	-1.5396	-1.6646	-2.0417	-1.1771	-2.0083	-1.7021	-1.3312	-2.0729	-1.3375	-1.5938	154.804	175.717	294.733	417.533	277.377	336.015	390.187	346.626	237.523	125.883	419.190	173.643	149.127	399.756	78.859	398.176	0.00058432	0.00046995	0.00011184	1256.5	4.6056e-06	4.9567e-06	1268.4	342.68	4.6771e-06	4.3947e-06	400.67	135.53	116.64	40.4	4.4959e-06	50.849	0.00043425	0.00030689	8.3894e-05	1274.1	3.7027e-06	3.2807e-06	1286.7	349.62	3.4233e-06	3.272e-06	407.4	137.92	118.78	41.406	3.474e-06	52.09	148.724	165.174	175.476	92.110	221.202	230.549	91.716	96.749	212.730	234.390	96.465	100.423	101.158	105.771	236.442	105.093	-8191	255	
1035.454	1	1	0	0	0.075592	0.12884	0.042022	0.084013	0.42919	0.15502	0.43059	0.27414	0.18972	0.098562	0.2263	0.2657	0.098829	0.15965	0.15069	0.19839	-1.7083	-1.1583	-1.9146	-1.8937	-1.1021	-1.8563	-1.7125	-1.4729	-2.0938	-1.3271	-1.6708	-1.8583	-1.1208	-1.9688	-1.8208	-1.4	260.479	411.599	310.675	303.031	413.468	278.132	407.086	374.477	231.653	411.874	430.334	100.495	202.674	83.445	85.056	194.861	0.00058146	0.00043945	0.00011297	1254.8	4.0359e-06	4.3131e-06	1271.6	342.86	5.7257e-06	5.7596e-06	400.15	135.44	116.52	40.335	4.5985e-06	50.709	0.00044003	0.00030284	8.0365e-05	1273.8	3.5998e-06	2.9467e-06	1286.7	349.75	3.475e-06	3.3811e-06	408.05	137.8	118.77	41.365	3.5086e-06	51.995	150.082	161.497	176.198	91.864	222.417	221.522	91.710	96.785	216.301	224.310	96.112	100.484	101.188	105.486	233.205	104.991	-8191	255	
1035.550	1	1	0	0	0.064535	0.13885	0.14025	0.37404	0.11318	0.1055	0.25369	0.18857	0.25896	0.17163	0.53283	0.12054	0.1797	0.21707	0.25176	0.044431	-1.6583	-1.1167	-1.625	-1.9417	-1.1875	-1.9042	-1.7812	-1.525	-1.9271	-1.3792	-1.6146	-2.0563	-1.2958	-1.8292	-1.6854	-1.3042	170.489	130.077	435.606	92.958	229.409	112.753	389.405	370.205	367.598	252.388	397.894	374.216	279.864	428.742	372.444	111.087	0.00060539	0.00060201	0.00014427	1257	4.8168e-06	3.5038e-06	1267.4	343.99	4.485e-06	4.1101e-06	399.62	134.62	115.92	40.254	4.2607e-06	50.739	0.00045242	0.00031547	8.5859e-05	1274.7	3.5856e-06	3.1726e-06	1287.2	349.81	3.5221e-06	3.4883e-06	407.3	137.67	118.48	41.347	3.474e-06	52.112	150.883	163.082	169.293	91.869	229.720	222.632	91.800	96.864	230.444	228.012	96.288	100.696	101.350	105.783	213.334	104.994	-8191	255	
1035.671	1	1	0	0	0.16037	0.24369	0.084794	0.1513	0.13436	0.13996	0.057162	0.25651	0.097154	0.23676	0.2305	0.37185	0.19266	0.13904	0.070126	0.31808	-1.7083	-1.3438	-1.4125	-2.1167	-1.1333	-2.0146	-1.8229	-1.4542	-1.9708	-1.3438	-1.3188	-2.225	-1.1187	-2.0042	-1.6167	-1.3229	161.443	135.880	134.624	382.449	345.811	400.740	92.179	84.775	287.407	180.615	368.285	355.317	105.039	350.581	265.081	422.393	0.0005901	0.00057816	0.00012341	1257.9	5.1711e-06	5.6956e-06	1269.4	342.72	4.7585e-06	5.1655e-06	400.38	135.19	116.43	40.235	5.0915e-06	50.6	0.00044789	0.00031868	8.3e-05	1273.9	3.7663e-06	3.264e-06	1287.2	349.68	3.5594e-06	3.3173e-06	407.93	138.04	118.7	41.304	3.5946e-06	52.009	150.521	164.635	160.919	91.967	224.122	227.553	91.846	96.851	225.736	246.678	96.150	100.675	101.244	105.969	225.667	104.774	-8191	255	
1035.767	1	1	0	0	0.059526	0.029429	0.16326	0.2674	0.058644	0.10989	0.099336	0.18836	0.24548	0.11668	0.21453	0.058963	0.043082	0.28197	0.11283	0.10945	-1.6396	-1.4	-1.4	-2.1771	-1.1042	-1.5604	-2.0167	-1.1833	-2.0167	-1.5688	-1.5667	-1.9833	-1.4792	-1.8271	-1.825	-1.2	365.884	242.164	339.448	404.160	180.064	393.797	115.565	303.279	156.898	349.752	408.112	176.227	217.076	431.479	350.493	239.050	0.00058598	0.00052287	0.00012092	1258.6	4.9994e-06	4.6103e-06	1270.1	343.3	5.4248e-06	5.6372e-06	400.39	135	116.02	40.281	4.8563e-06	50.606	0.00044516	0.00031489	8.5606e-05	1272.1	3.6103e-06	3.362e-06	1287.5	349.5	3.518e-06	3.3536e-06	407.69	137.96	118.53	41.318	3.3638e-06	51.944	150.583	162.248	157.963	91.856	230.497	242.658	91.635	96.816	214.870	233.281	96.231	100.434	101.006	105.809	231.009	104.664	-8191	255	
1035.863	1	1	0	0	0.040987	0.078672	0.086028	0.21494	0.21881	0.30989	0.2836	0.20854	0.068729	0.14541	0.1992	0.22929	0.27269	0.12675	0.15351	0.10049	-1.5292	-1.575	-1.0292	-2.0208	-1.4417	-1.6271	-2.0625	-1.2458	-1.8396	-1.5042	-1.3208	-2.2875	-1.4333	-1.7042	-1.9646	-1.1688	375.180	418.905	140.356	365.569	132.285	202.560	79.078	424.882	142.174	141.981	289.181	343.345	413.897	385.450	152.552	403.581	0.00057089	0.00052474	0.00012863	1261.4	4.1695e-06	5.9967e-06	1270.3	343.56	5.8315e-06	4.7703e-06	398.36	135.82	116.38	40.348	5.4814e-06	50.717	0.00044386	0.0003051	8.8375e-05	1273.2	3.5961e-06	3.3554e-06	1287.3	349.71	3.6219e-06	3.0575e-06	407.27	137.98	118.79	41.362	3.4773e-06	51.998	148.227	166.857	166.410	91.953	228.189	225.167	91.899	96.699	226.059	236.415	96.050	100.439	101.305	106.068	221.208	105.024	-8191	255	
1035.959	1	1	0	0	0.051786	0.032571	0.12902	0.16701	0.11113	0.1583	0.39226	0.27656	0.19527	0.13401	0.28732	0.35435	0.39868	0.080481	0.096764	0.026525	-1.4271	-1.6896	-1.1521	-2.1708	-1.3292	-1.4208	-2.4021	-1.1688	-1.9167	-1.6396	-1.0792	-1.9792	-1.5667	-1.2437	-2.0229	-1.3958	304.666	108.137	110.678	394.400	290.590	275.568	342.116	390.753	350.654	309.573	369.056	375.230	396.292	85.789	109.018	411.914	0.00057599	0.00043547	0.00011274	1253.9	5.7567e-06	5.3006e-06	1267.1	343.82	4.4971e-06	5.7272e-06	400.81	134.63	116.63	40.213	5.1048e-06	50.372	0.00044539	0.00029878	8.2211e-05	1273	3.6271e-06	3.411e-06	1286.2	349.82	3.604e-06	3.4222e-06	407.36	137.69	118.82	41.36	3.5173e-06	51.911	151.433	170.286	173.829	91.857	223.967	223.358	91.763	96.783	210.180	228.167	96.180	100.691	101.186	105.789	222.329	105.123	-8191	255	
1036.054	1	1	0	0	0.25048	0.1043	0.30084	0.40049	0.11314	0.17044	0.12596	0.22662	0.2214	0.11311	0.26905	0.39936	0.26938	0.26674	0.015593	0.03904	-1.2771	-1.8208	-1.1167	-2.0687	-1.4646	-1.3167	-2.1542	-1.6083	-1.7125	-1.9583	-1.3333	-2.2542	-1.6417	-1.3333	-2.2	-1.3875	139.238	378.175	102.989	411.305	407.260	438.559	103.195	328.357	241.588	272.599	399.971	401.050	119.000	109.023	198.980	203.821	0.00057576	0.00052136	0.0001383	1253.1	4.3971e-06	5.2024e-06	1265.9	342.66	4.6248e-06	3.5438e-06	399.77	134.63	116.01	40.385	5.2493e-06	50.435	0.00045072	0.00029104	8.906e-05	1271.9	3.5887e-06	3.3034e-06	1285.2	349.2	3.6956e-06	3.1677e-06	407.61	137.57	118.52	41.342	3.4664e-06	51.946	149.626	155.919	168.639	92.063	228.242	227.335	91.857	96.752	218.714	229.953	96.208	100.596	101.283	105.934	232.959	104.941	-8191	255	
1036.150	1	1	0	0	0.35941	0.099429	0.14592	0.5457	0.17841	0.19751	0.19034	0.15424	0.086516	0.053055	0.24903	0.37254	0.22802	0.25109	0.10561	0.1333	-1.1167	-2.1354	-1.1104	-2.0604	-1.8375	-1.3729	-2.5167	-1.4208	-1.4708	-1.9062	-1.1771	-2.0333	-1.8729	-1.1958	-2.025	-1.6	358.470	86.336	100.705	404.700	289.686	323.050	256.397	387.402	219.302	102.508	298.157	371.467	90.638	399.262	207.822	161.083	0.00057731	0.00046784	0.00013863	1258.2	5.4683e-06	4.1237e-06	1267.4	343.13	5.6687e-06	4.0426e-06	402.62	134.68	116.25	40.388	5.3852e-06	50.855	0.00045032	0.0002851	8.7422e-05	1272.1	3.5835e-06	3.3536e-06	1286.7	349.67	3.9188e-06	3.0962e-06	408.62	137.64	118.54	41.35	3.4888e-06	52.025	152.421	155.357	170.908	91.950	225.283	225.919	91.884	96.770	227.805	229.147	96.359	100.568	101.428	105.862	225.775	105.123	-8191	255	
1036.246	1	1	0	0	0.18334	0.097998	0.098253	0.29584	0.19186	0.25005	0.18399	0.067017	0.22361	0.15312	0.15901	0.25648	0.016871	0.28516	0.15854	0.08199	-1.0083	-2.0062	-1.0667	-1.8979	-1.8125	-1.2896	-2.1792	-1.7354	-1.3521	-1.9583	-1.2896	-1.6	-1.65	-1.3229	-1.9708	-1.6562	267.196	197.358	409.639	319.012	327.357	285.819	307.107	362.249	238.345	99.706	370.771	97.357	95.015	354.469	129.791	215.171	0.00060202	0.00050014	0.00012869	1254.2	4.4719e-06	5.5581e-06	1270.5	343.53	5.292e-06	5.4059e-06	400.35	135.02	116.94	40.123	6.1289e-06	50.445	0.00046319	0.00030478	8.5249e-05	1272	3.5499e-06	3.298e-06	1285	349.49	3.7345e-06	3.1832e-06	407.36	137.91	118.71	41.269	3.4899e-06	52.051	152.245	161.809	166.344	92.028	230.649	228.673	91.908	96.847	230.218	232.455	96.268	100.532	101.280	105.860	235.569	104.935	-8191	255	
1036.367	1	1	0	0	0.089339	0.20053	0.43873	0.32624	0.1186	0.14116	0.2169	0.38266	0.12382	0.18476	0.28586	0.18049	0.34139	0.23173	0.26182	0.29708	-1.0292	-2.2021	-1.1521	-1.8146	-1.9354	-1.1729	-2.1271	-1.7563	-1.2792	-1.9854	-1.3521	-1.725	-2.0354	-1.1167	-1.9021	-1.8	361.159	276.093	409.854	375.944	206.598	343.020	398.322	436.688	245.994	233.657	378.283	383.122	435.850	427.230	366.723	390.024	0.00059648	0.00048492	0.00013361	1259.9	4.7995e-06	4.408e-06	1271	343.64	5.3387e-06	5.2543e-06	401.18	135.43	116.17	40.193	5.0715e-06	50.72	0.00044794	0.00029526	8.641e-05	1274.9	3.5367e-06	3.3889e-06	1286.8	349.54	3.8753e-06	3.1719e-06	407.64	137.99	118.42	41.262	3.5968e-06	51.984	149.864	171.479	168.010	92.034	235.119	217.387	91.816	96.694	217.257	233.998	96.064	100.757	101.346	106.038	232.469	104.984	-8191	255	
1036.463	1	1	0	0	0.1545	0.13544	0.27897	0.19894	0.031474	0.075952	0.3266	0.46314	0.24324	0.18224	0.19417	0.12812	0.26811	0.14248	0.19614	0.22278	-0.8	-2.1479	-1.1938	-1.5125	-2.0104	-1.0688	-2.0812	-1.9271	-1.2458	-1.9146	-1.5792	-1.5792	-2.0083	-1.2917	-1.6479	-1.9646	84.664	380.261	181.201	115.082	304.748	105.688	395.383	356.246	377.791	394.795	260.192	396.579	93.805	138.306	379.877	382.782	0.00058487	0.0004764	0.00014214	1257.1	5.1837e-06	3.8451e-06	1269.3	343.6	4.9755e-06	6.1564e-06	398.08	135.24	115.54	40.117	5.0441e-06	50.686	0.00044876	0.00029431	8.6335e-05	1273.2	3.5646e-06	3.3351e-06	1286.2	349	3.7207e-06	3.2434e-06	406.85	137.83	118.54	41.267	3.4647e-06	51.966	152.153	164.543	175.565	92.086	228.357	234.598	92.130	96.848	222.235	220.944	96.158	100.846	101.577	105.705	219.925	104.965	-8191	255	
1036.534	1	1	0	0	0.082399	0.10792	0.13503	0.24665	0.19633	0.10304	0.058475	0.024514	0.1969	0.058211	0.20645	0.1816	0.23513	0.36589	0.1262	0.26486	-0.67708	-1.9688	-1.3771	-1.3375	-2.0979	-1.1833	-1.725	-2.05	-1.1292	-1.85	-1.5375	-1.4396	-2.15	-1.4083	-1.4562	-2.0146	173.235	194.371	305.374	403.400	350.263	260.050	104.632	106.540	296.636	372.019	340.221	273.488	347.520	84.174	268.626	290.829	0.00058006	0.00048738	0.00013107	1253.8	5.9565e-06	4.2401e-06	1271.4	342.68	4.7062e-06	4.9006e-06	399.07	135.25	116.76	40.116	4.9843e-06	50.406	0.00045251	0.00030041	8.708e-05	1270.7	3.6266e-06	3.4815e-06	1286.4	349.37	3.7289e-06	3.1046e-06	407.43	137.95	118.62	41.294	3.6544e-06	51.891	153.178	162.492	174.547	92.227	228.518	232.661	92.079	97.015	223.296	228.032	96.170	100.599	101.539	105.915	227.314	104.937	-8191	255	
1036.631	1	1	0	0	0.26122	0.23798	0.059776	0.35826	0.088138	0.097834	0.15971	0.29864	0.21631	0.21488	0.29062	0.23505	0.40581	0.23641	0.0887	0.077568	-0.88542	-1.8542	-1.6292	-1.4271	-2.0938	-1.4125	-1.6375	-2.0583	-1.1667	-1.9188	-1.7146	-1.2167	-2.0438	-1.325	-1.4083	-2.0458	354.681	251.975	105.579	400.800	158.745	370.258	383.388	385.595	114.991	419.886	385.664	362.301	408.940	346.190	404.267	396.690	0.00058923	0.00044663	0.00011632	1256.4	4.2618e-06	5.3845e-06	1268.3	342.14	4.7146e-06	4.297e-06	399.89	135.11	116.54	40.25	4.3625e-06	50.501	0.00045083	0.00029468	8.4445e-05	1271.9	3.4931e-06	3.3243e-06	1285.5	348.86	3.6935e-06	3.1785e-06	407.41	137.98	118.86	41.248	3.4987e-06	51.95	150.078	160.379	170.764	91.993	227.452	226.186	91.873	96.874	218.260	230.674	96.314	100.751	101.232	105.729	217.199	105.155	-8191	255	
1036.751	1	1	0	0	0.056663	0.40075	0.099464	0.1301	0.24189	0.061021	0.15155	0.22003	0.22136	0.083778	0.14616	0.31249	0.30003	0.39431	0.046936	0.2804	-0.53542	-1.7708	-1.7896	-1.2229	-1.9667	-1.3312	-1.4062	-2.2375	-1.05	-1.7521	-1.7896	-1.2375	-2.0646	-1.6125	-1.3417	-2.1604	200.629	174.587	408.121	419.413	271.801	398.506	376.122	381.017	191.004	424.636	153.180	380.874	418.560	400.179	245.672	361.690	0.00057196	0.00042629	0.00012035	1258.3	5.4879e-06	4.14e-06	1268.1	342.94	5.5949e-06	5.1451e-06	399.1	135.26	116	40.237	4.8784e-06	50.682	0.00045676	0.00030331	8.1065e-05	1271.9	3.5299e-06	3.2102e-06	1283.7	349.52	3.7668e-06	3.3042e-06	406.3	137.67	118.49	41.29	3.5809e-06	51.974	150.001	170.812	165.233	92.182	210.898	217.000	92.197	96.839	232.553	227.550	96.181	100.847	101.568	105.910	228.492	104.953	-8191	255	
1036.847	1	1	0	0	0.15146	0.2178	0.10459	0.13213	0.2789	0.17161	0.28127	0.24548	0.12043	0.086893	0.1013	0.28728	0.32539	0.41213	0.20069	0.19417	-1.0167	-1.6604	-1.7229	-1.3167	-1.9438	-1.6	-1.4354	-2.0187	-1.3854	-1.4188	-2.0833	-1.1729	-2.1312	-1.6979	-1.1604	-2.175	218.057	204.616	317.679	233.215	263.897	173.571	368.194	392.999	192.037	190.730	136.558	360.410	359.149	429.886	127.996	427.169	0.00057855	0.00055747	0.00015941	1250.1	4.5182e-06	4.6821e-06	1268.3	342.53	5.1517e-06	5.4813e-06	399.44	135.1	116.18	40.046	5.046e-06	50.45	0.00044443	0.00029878	8.5755e-05	1267.8	3.501e-06	3.2562e-06	1284.3	349.25	3.7084e-06	3.3239e-06	406.77	137.7	118.66	41.187	3.6248e-06	51.916	149.292	155.452	179.544	92.172	221.640	223.125	92.121	97.084	220.240	220.236	96.357	100.784	101.578	105.882	229.702	104.871	-8191	255	
1036.944	1	1	0	0	0.14978	0.17551	0.1906	0.2952	0.10739	0.080577	0.2512	0.21906	0.10689	0.15342	0.25997	0.11053	0.17562	0.35761	0.22087	0.16473	-0.89583	-1.5812	-1.675	-1.1437	-1.95	-1.6021	-1.4875	-2.1583	-1.2792	-1.4104	-2.1729	-1.075	-1.7687	-1.75	-1.075	-1.9104	125.336	123.606	140.185	430.305	358.729	297.592	387.142	373.631	137.947	252.119	382.264	437.325	368.891	432.718	199.190	157.355	0.00060464	0.00053238	9.2181e-05	1247.7	4.7336e-06	4.9959e-06	1265.7	343.04	5.4705e-06	4.8354e-06	399.78	134.43	116.76	40.007	5.1962e-06	50.343	0.00045687	0.00031563	7.977e-05	1267.4	3.4579e-06	3.3034e-06	1281.2	349.13	3.5814e-06	3.5616e-06	407.44	137.36	118.71	41.154	3.6385e-06	51.853	152.835	164.864	175.127	91.992	223.564	238.112	92.351	97.039	224.058	227.160	96.240	100.695	101.302	105.679	218.385	105.186	-8191	255	
1037.040	1	1	0	0	0.11595	0.33842	0.20348	0.19586	0.077793	0.16794	0.13192	0.23388	0.042169	0.017585	0.32882	0.24053	0.10612	0.17049	0.41735	0.29723	-1	-1.4333	-2.0625	-1.3438	-1.6292	-1.725	-1.2687	-2.0479	-1.3563	-1.2708	-2.1167	-1.2979	-1.6542	-1.7708	-1.0875	-2.0833	334.015	80.309	142.217	369.580	226.039	236.431	416.151	350.373	264.819	219.536	85.618	372.229	198.618	437.792	154.513	385.583	0.00056707	0.00051782	0.00013972	1254.7	4.9559e-06	4.9938e-06	1265.4	343.63	4.7885e-06	5.1466e-06	399.99	134	116.1	40.131	5.0406e-06	50.556	0.00044026	0.00030141	8.1452e-05	1268.9	3.6124e-06	3.1331e-06	1282.2	349.39	3.5599e-06	3.2678e-06	407.09	137.15	118.39	41.237	3.6851e-06	51.868	153.207	170.672	182.551	92.064	224.041	229.804	92.006	97.108	216.755	224.691	96.267	100.243	101.697	105.865	230.330	105.387	-8191	255	
1037.134	1	1	0	0	0.13331	0.37704	0.097545	0.33179	0.056814	0.25107	0.29028	0.10138	0.036272	0.27333	0.18626	0.12741	0.29933	0.09291	0.29728	0.11763	-1.2	-1.1625	-1.9646	-1.2729	-1.3458	-1.9958	-1.25	-2.0708	-1.5729	-1.0917	-2.3187	-1.3792	-1.3396	-1.9458	-1.0688	-1.9792	191.667	123.126	291.073	383.787	239.412	382.391	392.169	351.231	427.058	370.851	367.485	190.389	344.133	357.483	89.182	118.226	0.00057959	0.00044307	0.00012497	1253	4.9128e-06	4.7618e-06	1261.6	343.21	4.8749e-06	4.2816e-06	399.86	134.93	116.11	40.054	5.786e-06	50.546	0.00044587	0.00031284	8.2167e-05	1267.6	3.625e-06	3.0483e-06	1279.4	348.94	3.5261e-06	3.4901e-06	406.25	137.7	118.39	41.184	3.5892e-06	51.883	152.016	167.194	166.837	91.889	226.634	227.085	92.089	96.999	221.025	228.628	96.187	100.538	101.423	105.811	228.370	105.346	-8191	255	
#DATA ENDS
