BOXY.EXE: ISS Imagent and Oximeter Data Acquisition Program Version 0.80
Ascii Record File

#ACQ INFORMATION
2  Detector Channels 
16  External MUX Channels 
1  Auxiliary Channels 
5000  Waveform (CCF) Frequency (Hz)
1  Waveforms Skipped 
30  Waveforms Averaged 
1  Cycles Averaged 
16  Acquisitions per Waveform 
10.0806  Updata Rate (Hz) 

#FILE INFORMATION
TRUE -- External MUX Channel results are PARSED.
FALSE -- AC DC and Phase are NOT grouped.
TRUE -- Companion Program Settings File CREATED.
FALSE -- AC data not excluded
FALSE -- DC data not excluded
FALSE -- Phase data not excluded
FALSE -- Auxillary Chn. data not excluded
Tab delimiters

#CALIBRATION STATE
TRUE -- Waveform Calibration Values APPLIED.


#AUX CALIBRATION VALUES
Val Type	aux-1	

Term	1.0000e+00	
Factor	0.0000e+00	


#WF CALIBRATION VALUES
A = Detector Channel
Val Type	A-AC1	A-AC2	A-AC3	A-AC4	A-AC5	A-AC6	A-AC7	A-AC8	A-AC9	A-AC10	A-AC11	A-AC12	A-AC13	A-AC14	A-AC15	A-AC16	A-DC1	A-DC2	A-DC3	A-DC4	A-DC5	A-DC6	A-DC7	A-DC8	A-DC9	A-DC10	A-DC11	A-DC12	A-DC13	A-DC14	A-DC15	A-DC16	A-Ph1	A-Ph2	A-Ph3	A-Ph4	A-Ph5	A-Ph6	A-Ph7	A-Ph8	A-Ph9	A-Ph10	A-Ph11	A-Ph12	A-Ph13	A-Ph14	A-Ph15	A-Ph16	

Term	0.00000e+00	0.00000e+00	0.00000e+00	0.00000e+00	0.00000e+00	0.00000e+00	0.00000e+00	0.00000e+00	0.00000e+00	0.00000e+00	0.00000e+00	0.00000e+00	0.00000e+00	0.00000e+00	0.00000e+00	0.00000e+00	0.00000e+00	0.00000e+00	0.00000e+00	0.00000e+00	0.00000e+00	0.00000e+00	0.00000e+00	0.00000e+00	0.00000e+00	0.00000e+00	0.00000e+00	0.00000e+00	0.00000e+00	0.00000e+00	0.00000e+00	0.00000e+00	0.00000e+00	0.00000e+00	0.00000e+00	0.00000e+00	0.00000e+00	0.00000e+00	0.00000e+00	0.00000e+00	0.00000e+00	0.00000e+00	0.00000e+00	0.00000e+00	0.00000e+00	0.00000e+00	0.00000e+00	0.00000e+00	
Factor	1.00000e+00	1.00000e+00	1.00000e+00	1.00000e+00	1.00000e+00	1.00000e+00	1.00000e+00	1.00000e+00	1.00000e+00	1.00000e+00	1.00000e+00	1.00000e+00	1.00000e+00	1.00000e+00	1.00000e+00	1.00000e+00	1.00000e+00	1.00000e+00	1.00000e+00	1.00000e+00	1.00000e+00	1.00000e+00	1.00000e+00	1.00000e+00	1.00000e+00	1.00000e+00	1.00000e+00	1.00000e+00	1.00000e+00	1.00000e+00	1.00000e+00	1.00000e+00	X	X	X	X	X	X	X	X	X	X	X	X	X	X	X	X	

B = Detector Channel
Val Type	B-AC1	B-AC2	B-AC3	B-AC4	B-AC5	B-AC6	B-AC7	B-AC8	B-AC9	B-AC10	B-AC11	B-AC12	B-AC13	B-AC14	B-AC15	B-AC16	B-DC1	B-DC2	B-DC3	B-DC4	B-DC5	B-DC6	B-DC7	B-DC8	B-DC9	B-DC10	B-DC11	B-DC12	B-DC13	B-DC14	B-DC15	B-DC16	B-Ph1	B-Ph2	B-Ph3	B-Ph4	B-Ph5	B-Ph6	B-Ph7	B-Ph8	B-Ph9	B-Ph10	B-Ph11	B-Ph12	B-Ph13	B-Ph14	B-Ph15	B-Ph16	

Term	0.00000e+00	0.00000e+00	0.00000e+00	0.00000e+00	0.00000e+00	0.00000e+00	0.00000e+00	0.00000e+00	0.00000e+00	0.00000e+00	0.00000e+00	0.00000e+00	0.00000e+00	0.00000e+00	0.00000e+00	0.00000e+00	0.00000e+00	0.00000e+00	0.00000e+00	0.00000e+00	0.00000e+00	0.00000e+00	0.00000e+00	0.00000e+00	0.00000e+00	0.00000e+00	0.00000e+00	0.00000e+00	0.00000e+00	0.00000e+00	0.00000e+00	0.00000e+00	-1.45959e+02	-1.30980e+02	-1.25157e+02	-1.82080e+02	-7.17741e+01	-6.95097e+01	-1.55766e+02	-1.62015e+02	-7.74156e+01	-6.88670e+01	-1.70942e+02	-1.70432e+02	-1.82993e+02	-1.76724e+02	-6.90137e+01	-1.49404e+02	
Factor	2.03209e-05	1.41488e-04	3.74525e-05	1.74853e-01	1.18439e-06	1.57894e-06	1.53863e-01	4.53265e-02	1.13898e-06	1.62005e-06	7.65132e-02	2.71161e-02	3.40376e-02	8.44743e-03	1.33393e-06	1.21964e-02	1.36066e-05	2.52670e-05	7.14622e-06	9.33528e-02	2.52174e-07	2.86787e-07	7.71164e-02	2.43145e-02	2.45725e-07	2.86025e-07	3.96700e-02	1.41238e-02	1.84396e-02	4.57171e-03	2.63143e-07	6.37821e-03	X	X	X	X	X	X	X	X	X	X	X	X	X	X	X	X	



#DISTANCE SETTINGS
A = Detector Channel
A-1	A-2	A-3	A-4	A-5	A-6	A-7	A-8	A-9	A-10	A-11	A-12	A-13	A-14	A-15	A-16	

2.5000e+00	3.0000e+00	2.5000e+00	3.0000e+00	2.0000e+00	3.0000e+00	1.5000e+00	3.0000e+00	3.0000e+00	3.0000e+00	3.0000e+00	3.0000e+00	3.0000e+00	3.0000e+00	1.5000e+00	3.0000e+00	

B = Detector Channel
B-1	B-2	B-3	B-4	B-5	B-6	B-7	B-8	B-9	B-10	B-11	B-12	B-13	B-14	B-15	B-16	

1.0000e+01	1.0000e+01	1.0000e+01	1.4400e+00	1.0000e+01	1.0000e+01	1.5100e+00	1.9400e+00	1.0000e+01	1.0000e+01	1.9900e+00	2.4900e+00	2.4100e+00	2.9000e+00	1.0000e+01	2.9800e+00	




#DATA BEGINS
time	group	step	mark	flag	A-AC1	A-AC2	A-AC3	A-AC4	A-AC5	A-AC6	A-AC7	A-AC8	A-AC9	A-AC10	A-AC11	A-AC12	A-AC13	A-AC14	A-AC15	A-AC16	A-DC1	A-DC2	A-DC3	A-DC4	A-DC5	A-DC6	A-DC7	A-DC8	A-DC9	A-DC10	A-DC11	A-DC12	A-DC13	A-DC14	A-DC15	A-DC16	A-Ph1	A-Ph2	A-Ph3	A-Ph4	A-Ph5	A-Ph6	A-Ph7	A-Ph8	A-Ph9	A-Ph10	A-Ph11	A-Ph12	A-Ph13	A-Ph14	A-Ph15	A-Ph16	B-AC1	B-AC2	B-AC3	B-AC4	B-AC5	B-AC6	B-AC7	B-AC8	B-AC9	B-AC10	B-AC11	B-AC12	B-AC13	B-AC14	B-AC15	B-AC16	B-DC1	B-DC2	B-DC3	B-DC4	B-DC5	B-DC6	B-DC7	B-DC8	B-DC9	B-DC10	B-DC11	B-DC12	B-DC13	B-DC14	B-DC15	B-DC16	B-Ph1	B-Ph2	B-Ph3	B-Ph4	B-Ph5	B-Ph6	B-Ph7	B-Ph8	B-Ph9	B-Ph10	B-Ph11	B-Ph12	B-Ph13	B-Ph14	B-Ph15	B-Ph16	aux-1	digaux	

1533.105	1	1	0	512	0.12019	0.20505	0.11448	0.2344	0.23591	0.12525	0.32006	0.12622	0.26662	0.051181	0.057681	0.16049	0.12405	0.18335	0.3261	0.17356	-0.64375	-1.8	-1.1854	-1.1292	-1.925	-1.0167	-1.625	-1.7958	-1.0021	-1.8646	-1.375	-1.1	-1.7979	-1.0771	-1.4292	-1.7417	169.821	336.746	487.791	334.220	496.587	408.422	487.890	159.572	246.927	312.395	204.637	245.851	430.170	202.785	475.882	409.063	0.00034349	0.00023761	0.00010703	537.06	2.0403e-06	2.0505e-06	829.43	126.62	4.2404e-06	2.9806e-06	227.27	64.347	33.016	10.438	3.1047e-06	27.272	0.0003589	0.0003679	0.00011498	484.82	4.0758e-06	4.5247e-06	754.27	115.49	4.1645e-06	4.8267e-06	208.58	58.645	30.016	9.6896	4.3139e-06	25.44	178.039	212.556	236.056	168.904	228.412	373.072	168.578	173.916	279.962	275.059	172.004	177.681	178.812	183.889	288.770	182.033	-8191	255	
1533.201	1	1	0	0	0.36749	0.11346	0.18302	0.17492	0.16544	0.026693	0.20706	0.031296	0.34373	0.15407	0.23327	0.27302	0.12728	0.17565	0.17831	0.17305	-0.4875	-1.8	-1.3458	-1.1917	-1.8	-1.2917	-1.5146	-2.0375	-0.83333	-1.7667	-1.675	-0.93542	-1.8292	-1.1313	-1.1792	-1.7354	390.937	287.764	436.044	390.055	489.753	176.194	481.438	469.544	492.770	233.286	425.414	161.836	213.744	483.892	467.229	216.310	0.00034564	0.00039355	0.00013475	530.93	2.855e-06	3.1199e-06	830.33	126.95	2.8696e-06	2.1913e-06	226.56	63.955	32.426	10.626	3.5895e-06	27.68	0.00036681	0.00039548	0.00011224	484.43	4.2255e-06	4.9357e-06	752.52	115.25	4.2864e-06	4.3297e-06	207.24	58.385	29.868	9.7395	4.4318e-06	25.496	177.524	245.906	278.676	169.282	291.019	336.467	168.409	174.064	280.273	309.837	172.678	177.260	178.628	184.974	277.552	181.807	-8191	255	
1533.297	1	1	0	0	0.2978	0.34412	0.17892	0.17871	0.21695	0.064463	0.28655	0.2369	0.10774	0.13981	0.11624	0.28136	0.20374	0.099103	0.12608	0.3134	-0.64792	-1.6812	-1.4438	-0.99583	-1.8458	-1.2062	-1.2812	-1.8229	-0.90208	-1.6229	-1.9042	-0.91667	-1.9375	-1.1917	-1.1708	-1.8292	233.856	224.493	306.631	407.831	493.695	390.863	448.756	190.591	459.959	481.432	466.287	294.163	221.940	494.091	249.153	273.403	0.00029554	0.00019168	6.238e-05	534.79	7.1749e-07	2.906e-06	820.64	125.66	1.9965e-06	3.2039e-06	225.26	63.329	32.25	10.279	2.056e-06	27.445	0.00036197	0.00039927	0.00010947	483.18	4.1435e-06	4.3042e-06	748.29	114.17	4.3201e-06	4.4286e-06	206.54	58.186	29.741	9.619	4.5518e-06	25.45	175.364	211.663	262.746	168.847	479.562	355.899	168.620	174.102	275.170	258.065	172.406	177.373	178.709	183.390	304.111	181.465	-8191	255	
1533.393	1	1	0	0	0.26735	0.037388	0.20468	0.2614	0.21044	0.17043	0.10232	0.15785	0.14746	0.13944	0.10206	0.36564	0.27977	0.11342	0.16394	0.25328	-0.51667	-1.4958	-1.6146	-1.0229	-1.8792	-1.4438	-1.1458	-1.9042	-0.96667	-1.3708	-1.8771	-0.90417	-1.7896	-1.225	-0.9625	-1.9771	464.388	221.131	438.976	199.913	484.407	333.177	514.430	478.307	422.983	232.978	346.326	202.129	495.214	219.899	350.270	213.087	0.00027362	0.00021993	7.6004e-05	533.86	1.1347e-06	1.5609e-06	825.99	126.32	2.7242e-06	2.4167e-06	228.59	64.087	32.814	10.561	3.5452e-06	27.906	0.00034983	0.00039059	0.00011489	484.13	4.092e-06	4.4691e-06	751.01	114.79	4.423e-06	4.813e-06	208.43	58.885	30.075	9.8055	4.3928e-06	25.933	173.773	189.422	258.980	169.013	322.075	326.290	168.323	173.849	285.238	305.373	172.657	177.297	179.055	184.412	274.871	181.795	-8191	255	
1533.512	1	1	0	0	0.074996	0.28066	0.30503	0.23306	0.12535	0.074964	0.30714	0.2364	0.16669	0.016763	0.15514	0.33984	0.25845	0.043549	0.10997	0.097922	-0.70208	-1.3646	-1.6667	-1.2167	-1.7771	-1.4438	-1.1354	-1.9708	-1.0854	-1.4312	-1.7938	-1.0854	-1.6688	-1.6042	-0.75625	-1.7917	253.263	465.655	420.849	379.852	369.563	286.037	318.583	214.434	348.533	389.093	487.754	405.945	164.658	224.574	325.059	249.871	0.00031417	0.00045235	7.833e-05	523.84	1.6702e-06	2.8963e-06	822.65	125.77	3.5201e-06	4.2071e-06	226.22	64.997	32.869	10.736	2.6315e-06	28.679	0.00036052	0.00040948	0.00011255	478.53	4.0227e-06	4.3221e-06	747.92	114.66	4.3539e-06	4.3589e-06	207.45	59.594	30.146	9.9546	4.3495e-06	26.5	175.370	212.736	263.376	168.776	256.058	271.111	168.375	174.319	266.465	277.656	172.525	177.408	179.255	184.193	320.565	181.754	-8191	255	
1533.608	1	1	0	0	0.12188	0.21065	0.28819	0.2864	0.19547	0.33333	0.049167	0.20183	0.19883	0.1611	0.21006	0.14223	0.4289	0.32303	0.14996	0.052294	-0.68542	-1.1729	-1.7479	-0.85625	-1.5562	-1.5229	-1.1292	-1.8813	-1.2396	-1.075	-2.0708	-1.1437	-1.675	-1.5229	-0.9	-1.8542	241.586	238.280	212.425	288.026	202.252	201.000	410.025	413.900	284.290	347.937	494.550	515.131	253.770	477.122	507.538	301.886	0.00035357	0.00024486	7.6376e-05	523.17	2.0426e-06	3.5801e-06	826.25	126.24	1.4855e-06	3.6078e-06	231.58	65.632	33.214	10.657	1.1438e-06	28.558	0.00038374	0.00040406	0.00010801	479.09	4.2659e-06	4.2582e-06	752.79	115.01	3.8778e-06	4.6235e-06	210.71	60.259	30.43	9.9427	4.3687e-06	26.255	181.249	250.688	232.369	169.140	304.328	313.674	168.761	174.228	259.853	289.964	172.664	177.279	178.877	183.988	291.141	181.892	-8191	255	
1533.705	1	1	0	0	0.11933	0.22689	0.1664	0.18554	0.15539	0.41814	0.19783	0.058559	0.16155	0.18149	0.08868	0.077629	0.26475	0.10935	0.044927	0.14546	-0.93333	-1.1812	-1.825	-1.1187	-1.4833	-1.7	-1.0208	-1.9292	-1.5312	-1.1063	-1.9542	-1.1146	-1.2563	-1.7604	-1.0604	-1.8104	165.036	439.236	251.642	411.036	499.184	480.489	378.277	432.423	232.235	162.541	386.776	466.440	206.641	336.805	330.154	183.424	0.00033813	0.00025406	5.7355e-05	534.95	2.0661e-06	3.7008e-06	833.91	128.05	1.8699e-06	2.1492e-06	231.7	65.234	33.057	10.641	2.1556e-06	28.047	0.00036814	0.00041138	0.00010477	486.18	4.0353e-06	4.3132e-06	760.97	116.82	4.1732e-06	4.2767e-06	211.7	60.033	30.483	9.8768	4.3879e-06	26.05	172.231	245.963	269.102	168.847	285.273	272.088	168.105	174.068	290.517	433.726	172.346	177.539	179.160	184.512	264.330	182.226	-8191	255	
1533.801	1	1	0	0	0.17506	0.15208	0.083456	0.13504	0.25002	0.1374	0.10114	0.13668	0.30147	0.26637	0.14463	0.21361	0.054868	0.20722	0.19966	0.30137	-1.0688	-0.99583	-1.8417	-1.0833	-1.4146	-1.8937	-1.1917	-1.7458	-1.5708	-1.0146	-1.9021	-1.2958	-1.1979	-1.8458	-1.0646	-1.6979	204.735	297.257	269.480	472.183	466.956	436.598	186.086	263.948	303.933	383.781	425.337	498.814	194.600	262.420	180.449	215.135	0.00030123	0.00011914	6.0961e-05	536.93	1.9405e-06	3.6583e-06	839.54	127.99	2.39e-06	1.7104e-06	233.64	65.572	33.1	10.737	1.8481e-06	27.991	0.00034499	0.00039927	0.00010734	489.36	4.0952e-06	4.4064e-06	766.38	117.24	4.0821e-06	4.3255e-06	213.41	60.112	30.646	9.866	4.4987e-06	25.888	180.018	219.727	172.958	169.142	284.500	294.917	168.187	174.137	278.295	302.869	172.380	177.104	178.638	184.355	318.965	181.983	-8191	255	
1533.897	1	1	0	0	0.14739	0.25527	0.12645	0.28347	0.14276	0.34893	0.039456	0.14667	0.088612	0.11888	0.066813	0.095707	0.14653	0.20134	0.041356	0.12355	-1.2021	-0.87083	-1.8542	-1.1187	-1.2354	-1.8521	-0.90417	-1.4312	-1.5917	-1.1396	-1.8125	-1.4292	-1.0938	-1.8917	-1.1875	-1.5271	211.995	352.810	240.419	208.572	186.272	417.604	478.618	486.150	302.831	444.109	172.037	324.898	337.400	242.743	234.547	384.604	0.00034927	0.00023654	7.8942e-05	545.9	1.9138e-06	2.3086e-06	842.81	129.34	3.9143e-06	1.5493e-06	234.12	65.267	33.616	10.568	1.4119e-06	27.899	0.00036744	0.00040259	0.00011059	496.32	4.1561e-06	4.297e-06	771.36	118.14	4.1446e-06	4.4471e-06	215.47	60.139	30.734	9.7605	4.3265e-06	25.874	183.309	232.240	187.042	169.173	273.202	293.932	168.321	173.832	268.290	331.953	172.246	177.312	178.854	184.452	301.048	182.724	-8191	255	
1533.993	1	1	0	0	0.13658	0.4634	0.12574	0.26592	0.097396	0.36357	0.077052	0.084028	0.26549	0.21726	0.23357	0.29901	0.13845	0.091893	0.16861	0.16722	-1.3125	-0.9125	-1.8333	-1.3417	-1.1771	-1.9979	-1.0979	-1.5458	-1.6938	-0.76875	-1.7229	-1.4667	-1.0646	-1.6938	-1.1104	-1.3312	271.320	346.877	410.260	443.360	326.448	349.565	235.573	198.393	406.647	260.818	174.231	514.568	487.189	410.651	428.634	165.442	0.00031549	0.00023458	2.7039e-05	549.82	1.5908e-06	2.2789e-06	845.61	131.39	3.4693e-06	4.3914e-06	236.41	65.516	33.212	10.524	2.317e-06	27.555	0.00037234	0.00041322	0.0001141	497.9	4.018e-06	4.386e-06	776.33	119.14	4.2526e-06	4.5532e-06	215.91	60.456	30.71	9.7394	4.1292e-06	25.646	175.035	203.755	297.928	169.086	290.037	311.977	168.101	173.996	309.093	281.133	172.725	177.002	179.178	184.931	300.978	182.116	-8191	255	
1534.114	1	1	0	0	0.16781	0.28652	0.21574	0.081694	0.12509	0.21885	0.19535	0.15	0.16276	0.14867	0.23138	0.2652	0.16858	0.05871	0.32571	0.16511	-1.4375	-0.8125	-1.7875	-1.6146	-1.1208	-1.8229	-1.2354	-1.3375	-1.7396	-0.88542	-1.8125	-1.5146	-0.79167	-1.8958	-1.1292	-1.3062	277.190	317.827	328.823	223.774	166.158	428.731	431.803	367.604	480.559	351.897	467.988	423.629	397.388	479.411	417.566	413.474	0.00032393	0.00035806	5.591e-05	553.74	2.3545e-06	3.6063e-06	857.45	131.76	2.9167e-06	2.4876e-06	237.75	65.561	33.365	10.325	3.6222e-06	27.464	0.00034799	0.0004247	0.00011409	502.01	4.5092e-06	4.3454e-06	782.59	119.85	4.3217e-06	4.6265e-06	217.18	60.138	30.786	9.6276	4.2975e-06	25.39	180.451	260.563	256.873	168.773	292.914	315.699	168.430	174.099	305.691	321.775	173.027	177.571	178.419	183.805	275.020	182.131	-8191	255	
1534.210	1	1	0	0	0.15416	0.29818	0.082921	0.1065	0.12375	0.18276	0.16711	0.15781	0.36753	0.36312	0.20276	0.35125	0.16172	0.079634	0.10427	0.4024	-1.3542	-0.80833	-1.4208	-1.7167	-0.93542	-1.8312	-1.3104	-1.1417	-1.8687	-1.0042	-1.4042	-1.6833	-0.65	-1.7062	-1.3042	-1.2729	458.962	417.895	418.795	163.264	195.930	200.218	425.174	193.298	445.333	439.809	504.106	244.882	174.809	435.433	358.146	503.943	0.00032078	0.0003036	0.00011543	550.98	2.9725e-06	4.7859e-06	855.84	131.53	1.0493e-06	3.0816e-06	236.28	66.529	33.7	10.493	3.747e-06	27.556	0.00037149	0.00042796	0.00011584	501.67	4.1819e-06	4.5725e-06	782.38	119.83	4.0161e-06	4.49e-06	216.8	60.506	30.931	9.6995	4.2733e-06	25.632	176.713	267.661	231.906	168.843	327.708	341.051	168.352	173.893	309.299	335.860	172.575	177.444	179.264	183.956	266.107	181.856	-8191	255	
1534.282	1	1	0	0	0.085986	0.060541	0.060694	0.12488	0.22177	0.11687	0.24128	0.23018	0.082091	0.2194	0.08813	0.10437	0.063755	0.16503	0.19089	0.16222	-1.4354	-1.1396	-1.5354	-1.9896	-0.93958	-1.6479	-1.5729	-0.88333	-1.9417	-1.1021	-1.3729	-1.9042	-0.94167	-1.6083	-1.5104	-0.98333	506.860	168.506	260.399	352.061	317.515	239.335	429.135	196.898	377.451	219.388	340.803	441.729	479.408	243.320	309.212	255.583	0.00032774	0.00038429	7.2364e-05	548.05	3.8113e-06	2.2477e-06	862.76	132.48	2.3609e-06	2.7154e-06	237.88	66.69	33.374	10.457	2.6125e-06	27.833	0.00036029	0.00043801	0.00011327	499.46	4.4719e-06	4.5599e-06	784.53	120.2	4.0365e-06	4.5949e-06	217.69	60.662	30.908	9.7757	4.3928e-06	25.749	181.872	282.975	269.539	168.734	313.063	300.024	168.573	173.911	266.073	318.729	172.326	177.420	178.206	184.808	281.109	181.650	-8191	255	
1534.400	1	1	0	0	0.17406	0.23974	0.19199	0.07341	0.14778	0.21987	0.31841	0.04471	0.16896	0.20922	0.080813	0.14308	0.21281	0.25244	0.21988	0.093242	-1.6375	-1.35	-1.1187	-2.0708	-0.93125	-1.6292	-1.5896	-1.0021	-1.8667	-1.3979	-1.2104	-1.8292	-1.0562	-1.3687	-1.4167	-1.0208	271.317	376.776	307.690	174.192	293.827	329.944	448.509	452.733	225.215	177.224	238.085	319.887	480.438	258.019	231.623	503.922	0.00034511	0.00022571	8.3675e-05	550.05	1.0996e-06	3.9683e-06	863.02	133.03	3.0143e-06	3.5226e-06	239.55	67.015	33.477	10.621	2.0275e-06	28.476	0.00036778	0.00041159	0.00010995	502.93	4.5475e-06	4.5975e-06	788.22	120.48	4.2132e-06	4.8106e-06	218.86	61.438	31.102	9.839	4.3791e-06	26.308	179.096	243.390	238.658	169.071	270.764	314.144	168.330	173.814	263.920	307.781	172.814	177.337	178.965	184.832	298.120	182.938	-8191	255	
1534.497	1	1	0	0	0.27056	0.21145	0.15691	0.26267	0.093073	0.22623	0.21473	0.13809	0.19036	0.078141	0.2619	0.084912	0.16451	0.057373	0.11894	0.20238	-1.4729	-1.0375	-1.0125	-1.9042	-1.1146	-1.3167	-1.7896	-0.96042	-1.6729	-1.3188	-1.1042	-1.8479	-0.96458	-1.4438	-1.6938	-1.2792	492.288	181.084	510.488	443.583	358.858	404.127	434.153	255.595	281.465	272.850	180.688	354.909	277.720	472.458	483.718	230.644	0.00039787	0.00033162	7.8285e-05	548	3.0042e-06	3.5699e-06	861.21	130.75	2.3821e-06	5.4984e-06	236.36	66.592	33.755	10.666	4.1579e-06	28.538	0.00038206	0.00044201	0.00011659	498.27	4.3731e-06	4.4751e-06	783.75	119.5	4.1614e-06	4.5359e-06	216.44	61.098	31.019	9.9189	4.3177e-06	26.389	178.275	247.453	272.108	169.084	306.641	286.708	168.472	173.753	296.481	293.930	172.558	177.301	179.200	184.282	292.407	182.099	-8191	255	
1534.593	1	1	0	0	0.03834	0.093881	0.1243	0.32684	0.07317	0.16093	0.2193	0.10205	0.23992	0.20943	0.15584	0.088667	0.3132	0.044403	0.12055	0.10368	-1.2521	-1.3125	-1.1458	-1.6437	-1.2354	-1.2146	-2.0458	-1.0312	-1.6812	-1.3729	-1.0229	-1.9	-1.2646	-1.1646	-1.7625	-0.99375	273.562	420.356	380.322	417.610	455.040	263.808	410.050	323.155	389.781	270.348	475.576	288.942	219.045	206.353	496.975	399.652	0.0003202	0.00043116	9.3771e-05	537.34	2.8692e-06	4.8604e-06	842.75	130.29	3.5604e-06	2.8886e-06	237.23	66.408	33.368	10.915	1.5765e-06	28.349	0.00036514	0.00040169	0.0001133	491.5	4.2869e-06	4.5754e-06	774.35	118.47	4.3524e-06	4.5192e-06	216.68	61.234	30.943	10.064	4.2711e-06	26.619	180.361	208.600	251.900	168.689	305.713	293.485	168.504	173.802	293.778	299.421	172.369	177.439	179.091	184.806	286.660	181.719	-8191	255	
1534.689	1	1	0	0	0.10097	0.31203	0.16068	0.077345	0.07494	0.2165	0.17816	0.15576	0.14871	0.17068	0.26561	0.2131	0.31163	0.28697	0.081969	0.32299	-1.3937	-1.4875	-1.0146	-1.85	-1.1229	-1.1125	-1.7229	-1.0354	-1.7875	-1.825	-1.0896	-1.7417	-1.1896	-1.1437	-2.0167	-1.2	354.678	394.572	169.446	412.231	354.632	259.498	430.438	496.036	369.447	347.702	176.240	380.041	205.749	491.983	499.549	449.276	0.00033516	0.0001404	5.0117e-05	539.81	2.4888e-06	3.5058e-06	849.67	129.72	2.8891e-06	1.9788e-06	236.9	67.399	33.471	10.961	2.819e-06	28.844	0.00036888	0.00038974	0.00012204	491.41	4.4031e-06	4.4691e-06	775.6	118.34	4.0427e-06	4.3071e-06	216.11	61.793	30.893	10.138	4.2646e-06	27.053	172.733	236.817	232.520	168.864	272.198	312.816	169.123	174.082	268.942	249.651	172.952	177.538	179.864	184.702	279.938	181.785	-8191	255	
1534.809	1	1	0	0	0.082928	0.17048	0.032073	0.28532	0.052606	0.16041	0.070132	0.084791	0.1011	0.1923	0.10207	0.1737	0.16053	0.012328	0.18854	0.25262	-1.1396	-1.5792	-0.80208	-1.9625	-1.2812	-1.0583	-2.0167	-1.2896	-1.5	-1.9167	-0.92917	-1.7292	-1.4896	-1.1271	-1.775	-1.2417	268.969	158.242	293.532	437.990	212.264	347.766	504.886	240.573	367.205	510.935	205.084	277.550	386.690	495.242	198.974	483.828	0.00032565	0.0004099	6.017e-05	538.85	2.0357e-06	2.1534e-06	837.99	127.79	4.911e-06	3.2915e-06	233.26	66.73	33.014	10.682	2.0966e-06	28.545	0.00037469	0.0003988	0.0001207	490.54	4.4824e-06	4.4613e-06	772.45	117.44	4.1763e-06	4.2505e-06	216.65	61.873	30.772	10.041	4.0875e-06	26.784	179.595	246.303	248.925	168.907	297.027	307.613	168.653	173.801	296.104	255.184	172.450	177.006	178.773	184.284	310.308	181.782	-8191	255	
1534.881	1	1	0	0	0.14215	0.05601	0.11019	0.2093	0.16335	0.11054	0.090463	0.22958	0.18499	0.11569	0.12174	0.12833	0.11365	0.094347	0.2168	0.41451	-1.0167	-1.8083	-0.87083	-1.7521	-1.4542	-1.1958	-2.2021	-1.3708	-1.3646	-1.8937	-1.075	-1.5375	-1.4854	-1.1938	-1.8125	-1.3708	336.953	212.873	310.758	424.775	162.374	173.769	425.206	426.384	477.161	431.359	170.945	414.533	413.619	182.394	402.204	388.672	0.0003211	0.00043942	8.2774e-05	525.7	2.3693e-06	2.6774e-06	833.97	127.77	2.6879e-06	5.0503e-06	233.96	67.598	33.749	10.976	3.3183e-06	29.457	0.00035686	0.00038164	0.00011421	486.78	4.1861e-06	4.4159e-06	766.98	116.9	4.1471e-06	4.282e-06	214.21	61.757	30.785	10.177	3.9472e-06	27.166	177.797	226.499	268.025	168.436	280.248	302.381	167.914	173.013	256.871	294.320	172.247	177.349	179.177	184.008	288.342	181.795	-8191	255	
1534.977	1	1	0	0	0.19366	0.15514	0.12192	0.076625	0.22949	0.24045	0.041534	0.082871	0.11332	0.31485	0.25403	0.34456	0.21233	0.13931	0.25593	0.1218	-0.70625	-1.7583	-0.95208	-1.5521	-1.5562	-1.1333	-1.9792	-1.3146	-1.225	-1.9042	-1.1042	-1.5125	-1.5792	-0.79375	-1.8062	-1.4521	404.288	499.937	309.225	200.653	422.911	235.195	479.319	456.615	417.795	183.550	393.299	436.999	422.367	417.351	399.192	491.677	0.00034822	0.00012833	9.3865e-05	531.38	2.3663e-06	3.6362e-06	827.03	126.67	3.2723e-06	5.4421e-06	229.87	66.013	32.435	10.912	3.2486e-06	29.013	0.00036732	0.0003968	0.00010969	485.32	3.936e-06	4.7386e-06	758.96	115.73	4.0468e-06	4.207e-06	212.04	61.527	30.598	10.202	3.9521e-06	27.098	181.554	238.867	282.338	168.674	298.942	322.058	168.468	173.407	298.575	305.632	172.039	176.778	178.188	183.740	314.117	181.153	-8191	255	
1535.073	1	1	0	0	0.057723	0.064404	0.24736	0.34666	0.12917	0.26686	0.19712	0.066349	0.030905	0.088274	0.11243	0.22655	0.20896	0.1617	0.12194	0.091269	-0.83333	-1.8083	-1.3062	-1.5	-1.8167	-1.0812	-2.0062	-1.4646	-1.1604	-2.0021	-1.2583	-1.5146	-1.7667	-1.0542	-1.7708	-1.7333	228.803	212.991	417.276	457.583	449.872	418.597	428.922	267.917	423.053	220.478	188.607	261.020	393.888	369.686	163.806	413.500	0.00034579	0.00034881	7.3167e-05	521.86	2.2659e-06	1.0316e-06	826.42	125.44	2.9315e-06	1.7819e-06	229.9	66.76	33.182	10.999	1.9613e-06	29.404	0.00038104	0.00038379	0.00011095	479.83	4.0096e-06	4.2008e-06	759.08	115.36	4.1891e-06	4.111e-06	211.46	61.696	30.661	10.23	4.0541e-06	27.406	179.439	201.557	267.854	168.168	267.971	435.202	167.475	173.020	297.034	294.271	171.410	176.983	178.235	184.172	308.108	181.491	-8191	255	
1535.194	1	1	0	0	0.13595	0.14738	0.090074	0.19545	0.079983	0.26908	0.29025	0.13334	0.18448	0.022251	0.1371	0.052197	0.032727	0.18251	0.39471	0.22204	-0.50833	-1.8062	-1.2333	-1.3271	-1.7687	-0.88958	-1.7812	-1.4375	-1.0167	-1.8583	-1.1521	-1.2042	-1.8125	-1.1208	-1.7812	-1.5604	352.588	286.029	259.357	371.563	331.156	202.217	480.190	165.553	466.127	157.155	469.087	440.017	190.232	245.315	201.425	410.740	0.00035067	0.00036942	3.2503e-05	522.58	2.1134e-06	3.8912e-06	823.68	124.78	2.5806e-06	4.5348e-07	227.85	66.352	32.869	10.901	1.1378e-06	29.26	0.00037631	0.00038585	0.00010749	479.86	4.133e-06	4.2229e-06	753.98	114.64	4.1609e-06	4.5949e-06	209.56	61.123	30.395	10.163	4.2552e-06	27.142	174.699	228.432	184.553	168.387	312.341	350.318	167.510	172.953	297.690	373.736	171.975	177.209	178.575	183.871	304.155	181.762	-8191	255	
1535.290	1	1	0	0	0.1193	0.16125	0.14983	0.044363	0.068874	0.13024	0.34597	0.27588	0.32002	0.17498	0.35476	0.016405	0.13637	0.25704	0.21974	0.1585	-0.67708	-1.7146	-1.1938	-1.125	-1.7396	-1.1417	-1.6229	-1.6604	-0.91667	-2.0021	-1.3625	-1.1146	-1.8729	-1.0229	-1.4583	-1.8479	221.970	462.127	297.158	438.791	323.320	308.885	414.091	347.520	449.990	429.997	471.927	204.992	368.970	423.916	513.903	208.102	0.00034247	0.00014619	7.6325e-05	521.81	1.986e-06	2.191e-06	819.37	124.36	2.0113e-06	3.3924e-06	226.26	66.189	32.517	10.705	2.2182e-06	28.57	0.00039128	0.00039248	0.00012254	476.42	3.966e-06	4.5575e-06	752.79	113.53	4.4845e-06	4.167e-06	208.11	60.626	30.234	10.02	4.1429e-06	26.657	172.751	313.179	239.483	168.090	302.043	364.698	167.968	172.838	301.822	259.894	172.258	176.993	177.794	183.554	303.910	181.443	-8191	255	
1535.386	1	1	0	0	0.23794	0.13938	0.15816	0.069996	0.24177	0.22316	0.018295	0.14126	0.17428	0.20624	0.04522	0.19616	0.17087	0.23806	0.28625	0.24075	-0.58333	-1.7167	-1.3937	-1.1375	-1.8146	-1.1708	-1.5146	-1.6208	-0.90208	-1.7437	-1.4521	-1.0875	-1.9937	-1.3	-1.3104	-1.8042	283.645	165.342	330.630	193.371	429.757	235.990	402.142	430.976	357.331	406.650	197.292	428.780	190.654	256.668	325.017	454.204	0.00037371	0.00036031	6.9902e-05	523.06	2.0851e-06	3.4409e-06	828.49	124.34	2.8296e-06	1.6594e-06	224.93	64.288	31.906	10.404	1.728e-06	27.996	0.00039544	0.00038685	0.00011665	476.05	3.8609e-06	4.5844e-06	753.64	114.06	4.1901e-06	4.3762e-06	208.42	59.677	29.774	9.7399	4.2476e-06	25.962	179.342	261.298	235.077	168.976	314.354	277.045	168.180	173.728	263.644	294.096	172.101	177.181	178.278	183.896	294.972	181.648	-8191	255	
1535.505	1	1	0	0	0.044509	0.22533	0.16642	0.096399	0.094799	0.2577	0.04295	0.10235	0.19401	0.16746	0.094286	0.084178	0.10075	0.17565	0.10747	0.12932	-0.60625	-1.9083	-1.5688	-1.0354	-1.9188	-1.1688	-1.3875	-1.8333	-0.96458	-1.6104	-1.7208	-0.93542	-1.8729	-1.2542	-1.0812	-2.1083	160.433	164.454	246.589	313.287	297.546	202.366	200.446	296.272	503.715	168.624	329.495	402.573	503.082	354.425	310.842	477.300	0.00034849	0.00025913	5.5681e-05	529.32	3.5334e-06	2.2748e-06	823.21	126.16	3.1926e-06	2.887e-06	226.86	64.587	32.654	10.405	2.3584e-06	28.115	0.0003921	0.00036706	0.00010358	481.86	3.7364e-06	4.3843e-06	756.65	114.57	3.9116e-06	4.3821e-06	209.57	59.851	30.022	9.6853	3.985e-06	26.092	175.724	297.995	255.102	168.797	305.663	332.930	167.935	172.990	264.802	331.304	172.077	177.668	179.103	183.867	303.370	181.820	-8191	255	
1535.577	1	1	0	0	0.17195	0.19497	0.051136	0.27313	0.054464	0.25982	0.11814	0.10916	0.092598	0.09695	0.29015	0.054182	0.12488	0.2454	0.26978	0.17467	-0.61458	-1.5312	-1.6917	-0.89583	-1.7	-1.5667	-1.4375	-1.95	-1.1604	-1.6083	-1.7021	-1.175	-1.7896	-1.4708	-1.0646	-2	294.735	403.936	238.534	210.060	196.188	337.131	284.034	377.795	278.302	291.944	482.962	448.409	245.104	395.084	226.322	327.356	0.00038184	0.00028673	3.8045e-05	532.59	1.9198e-06	2.6069e-06	838.41	126.12	1.303e-06	4.7353e-06	230.31	64.413	32.988	10.259	1.749e-06	27.637	0.0003809	0.00037421	0.00010629	485.69	3.8351e-06	4.2761e-06	766.29	115.6	3.7975e-06	4.1831e-06	211.94	59.736	30.301	9.5435	4.0173e-06	25.723	177.198	256.562	221.074	168.931	263.656	272.143	168.096	173.806	315.952	308.949	172.479	177.269	178.811	184.171	318.471	181.390	-8191	255	
1535.675	1	1	0	0	0.1809	0.053957	0.17088	0.16308	0.076326	0.23191	0.16831	0.068573	0.3069	0.21933	0.11459	0.10305	0.10209	0.1385	0.2741	0.036834	-0.85417	-1.4562	-1.6292	-1.15	-1.8062	-1.4854	-1.4354	-2.0042	-1.2021	-1.4208	-1.9146	-0.8125	-1.7521	-1.5229	-1.0438	-1.8667	437.090	377.017	353.515	383.447	223.090	375.694	421.860	407.486	216.075	288.087	354.724	347.776	446.035	205.092	301.905	476.839	0.00032024	0.00022282	0.00010914	531.96	2.2204e-06	1.6249e-06	828.04	125.3	1.2348e-06	3.3118e-06	224.6	62.883	31.745	10.091	2.9443e-06	26.561	0.00035349	0.00039938	0.00010118	485.78	3.9996e-06	4.171e-06	757.56	115.47	4.0427e-06	4.5025e-06	207.6	58.288	29.548	9.3307	4.3232e-06	24.859	176.875	250.163	226.431	168.763	331.871	320.913	168.387	173.335	303.456	292.363	171.902	176.610	178.212	183.771	300.589	181.740	-8191	255	
1535.794	1	1	0	0	0.041802	0.25012	0.16671	0.16923	0.12096	0.048026	0.31827	0.10798	0.13353	0.36366	0.045073	0.13533	0.10937	0.28549	0.12109	0.07475	-0.9875	-1.2792	-1.9958	-1.025	-1.5875	-1.4333	-1.1979	-1.8104	-1.3438	-1.2833	-1.8083	-1.2083	-1.5167	-1.5312	-0.92292	-1.9521	190.225	453.426	193.304	307.971	458.075	381.782	463.885	263.439	414.189	409.179	447.604	191.489	228.375	158.879	197.490	179.350	0.00029098	0.00036737	9.042e-05	525.87	1.2565e-06	3.1683e-06	812.61	125.89	1.9504e-06	3.0935e-06	223.11	62.338	31.474	9.8472	2.9202e-06	26.393	0.00035598	0.00039717	0.00010163	479.48	4.1903e-06	4.1381e-06	742.03	113.91	4.1584e-06	4.3005e-06	204.26	57.279	28.918	9.1883	4.1829e-06	24.555	177.293	262.693	306.448	168.619	335.905	333.877	167.974	173.412	252.839	303.790	172.211	177.141	178.185	184.103	327.172	181.906	-8191	255	
1535.890	1	1	0	0	0.17536	0.24348	0.11986	0.1975	0.12947	0.24644	0.16584	0.30078	0.063377	0.26567	0.23139	0.14222	0.15233	0.071355	0.10052	0.023873	-0.97292	-1.3188	-1.9562	-1.1187	-1.5688	-1.6875	-1.0042	-1.8417	-1.4438	-1.225	-2.0812	-1.2104	-1.4542	-1.6688	-1.0771	-1.6812	205.278	458.107	502.337	291.545	454.043	513.626	375.408	350.794	296.475	430.954	214.922	405.933	339.413	160.556	262.943	260.300	0.00033724	0.00029649	6.3678e-05	523.71	2.5403e-06	3.4253e-06	807.43	123.6	1.7593e-06	4.3777e-06	221.7	61.339	31.79	9.6742	1.847e-06	25.851	0.00036866	0.00039316	0.00010557	474.76	4.3495e-06	4.5754e-06	738.54	113.05	3.9751e-06	4.6437e-06	203.41	56.802	28.963	9.0033	4.4537e-06	23.985	173.152	225.556	244.407	168.814	334.435	301.638	167.877	173.796	290.227	308.854	172.398	177.167	178.474	183.798	341.770	181.883	-8191	255	
1535.986	1	1	0	0	0.44653	0.13013	0.13416	0.16237	0.12671	0.40429	0.24136	0.13264	0.20942	0.31958	0.17814	0.27019	0.23182	0.21784	0.1483	0.077712	-0.9875	-1.0979	-2	-1.0187	-1.5292	-1.9688	-1.1083	-1.8521	-1.5167	-1.0688	-2.0563	-1.3188	-1.1938	-1.8	-0.83333	-1.6562	279.959	361.267	473.872	445.059	175.812	286.263	435.644	494.259	484.647	315.627	292.927	375.126	223.898	218.085	498.190	435.988	0.00033624	0.00033557	0.00010585	527.54	1.8588e-06	3.2204e-06	808.31	124.38	2.2988e-06	1.7441e-06	220.33	60.805	30.537	9.5268	2.578e-06	24.813	0.00035882	0.00041459	0.00011403	479.47	4.0626e-06	4.4159e-06	742.77	113.52	4.3324e-06	4.487e-06	202.54	56.161	28.552	8.8398	4.6401e-06	23.234	178.312	233.220	190.609	168.807	269.032	272.585	167.992	173.409	295.566	274.561	172.084	177.322	178.917	183.843	274.629	181.651	-8191	255	
1536.107	1	1	0	0	0.22581	0.31558	0.31121	0.012071	0.037795	0.054616	0.27228	0.084057	0.16221	0.23559	0.20081	0.081354	0.055719	0.14462	0.18705	0.19521	-1.4646	-0.98958	-1.8771	-1.2958	-1.2417	-1.9979	-1.1812	-1.7021	-1.525	-0.87292	-1.7687	-1.5688	-1.025	-1.9083	-0.93125	-1.4271	481.784	450.799	182.255	397.910	343.382	406.067	327.707	363.777	254.091	359.225	161.880	311.856	468.997	503.124	514.231	158.873	0.00027373	0.00012315	6.0191e-05	517.96	1.9814e-06	3.4906e-06	795.46	121.98	3.0196e-06	2.5883e-06	214.92	58.449	30.704	9.1437	2.4535e-06	24.131	0.00034141	0.00042375	0.00010581	476.78	4.3652e-06	4.5814e-06	729.39	112.2	4.0719e-06	4.7141e-06	198.98	54.315	28.389	8.602	4.3452e-06	22.461	181.377	238.625	240.710	168.495	279.707	307.212	168.434	173.588	232.499	307.853	172.243	177.326	178.385	184.240	294.157	181.847	-8191	255	
1536.178	1	1	0	0	0.13634	0.13779	0.30274	0.12477	0.20567	0.22467	0.23171	0.087916	0.1301	0.090764	0.27781	0.069612	0.14979	0.053668	0.26167	0.23768	-1.5229	-1.0083	-1.85	-1.35	-1.0167	-1.8167	-1.2896	-1.4896	-1.6333	-0.96042	-1.7896	-1.5187	-1.0938	-2.0271	-1.1521	-1.3208	173.534	236.812	234.871	371.430	439.238	162.655	403.409	434.963	505.775	388.244	503.209	266.525	476.799	400.437	438.272	206.376	0.00025393	0.0003065	9.1302e-05	520.47	2.6501e-06	1.7788e-06	785.9	123.82	3.9762e-06	2.6555e-06	218.67	59.554	30.237	9.1933	2.4611e-06	23.721	0.00033217	0.00041148	0.0001106	476.36	4.246e-06	4.4936e-06	726.86	112.82	4.2807e-06	4.6259e-06	200.09	54.58	28.105	8.4825	4.7059e-06	22.205	182.416	233.558	257.412	168.686	286.257	330.382	167.651	173.423	261.654	307.650	172.527	177.629	178.917	184.603	293.603	182.345	-8191	255	
1536.274	1	1	0	0	0.21518	0.21944	0.30103	0.12533	0.057681	0.068004	0.23459	0.080299	0.11188	0.011451	0.34896	0.2294	0.14228	0.017504	0.0092822	0.30185	-1.5646	-0.94167	-1.6958	-1.6	-0.97708	-2.1562	-1.3896	-1.4083	-1.9271	-0.92917	-1.8167	-1.6208	-0.9625	-1.9562	-1.1917	-1.4917	200.884	417.767	281.752	484.209	303.804	480.709	170.853	190.949	268.919	200.916	375.993	313.595	212.014	258.140	383.004	338.639	0.0003153	0.00022628	3.0771e-05	521.56	1.5239e-06	2.5768e-06	803.98	123.69	7.9808e-07	1.862e-06	219.49	59.124	30.109	9.0039	2.2308e-06	23.813	0.00035845	0.00043965	0.0001161	480.13	4.3852e-06	4.6806e-06	735.81	112.97	4.2423e-06	4.869e-06	200.93	54.42	28.027	8.4066	4.7311e-06	22.199	179.041	233.487	197.391	168.552	292.554	306.460	167.918	173.689	474.832	308.050	172.515	176.987	178.723	184.847	336.874	182.537	-8191	255	
1536.371	1	1	0	0	0.065068	0.16017	0.21853	0.16392	0.22217	0.25142	0.4183	0.033626	0.19645	0.16278	0.19809	0.097132	0.23585	0.039183	0.19306	0.15707	-1.6875	-1.0021	-1.6417	-1.7563	-0.92083	-1.9458	-1.6042	-1.325	-1.8479	-0.92708	-1.7792	-1.9021	-0.9625	-1.7792	-1.4146	-1.175	264.053	247.497	491.498	158.096	206.005	304.732	357.602	289.578	244.521	198.468	179.559	432.528	464.150	401.699	267.870	489.373	0.00029129	0.00030934	6.754e-05	528.07	1.0041e-06	1.5014e-06	806.11	123.91	2.0013e-06	1.22e-06	217.71	58.069	30.364	8.8269	4.6086e-06	22.971	0.00035119	0.00044701	0.00011425	482.43	4.7057e-06	4.7147e-06	740.49	113.63	4.2823e-06	4.9089e-06	200.83	53.794	28.068	8.2544	4.5403e-06	21.559	175.074	224.862	240.950	168.933	355.367	396.311	168.314	173.599	351.074	258.144	172.252	176.942	178.405	184.389	296.310	182.419	-8191	255	
1536.489	1	1	0	0	0.20377	0.23266	0.18709	0.13061	0.15309	0.05225	0.22828	0.19986	0.20893	0.23801	0.072464	0.23801	0.19923	0.2624	0.088263	0.088529	-1.5187	-1.0667	-1.4958	-1.7812	-0.90625	-1.9042	-1.5562	-1.2292	-1.95	-1.1083	-1.4312	-1.7792	-1.0938	-1.8146	-1.4188	-0.98125	162.482	369.720	381.389	414.654	220.312	454.807	391.790	467.484	183.716	379.798	191.358	238.755	353.865	470.187	336.007	389.732	0.00024586	0.00040523	7.8327e-05	525.68	1.2059e-06	2.0271e-06	786.61	121.28	1.9546e-06	2.4507e-06	213.46	56.945	29.83	8.7107	2.6365e-06	22.347	0.00035482	0.0004676	0.00011263	479.99	4.6174e-06	4.5533e-06	726.79	112.05	4.228e-06	4.7623e-06	196.83	52.469	27.654	8.101	4.3638e-06	20.983	183.157	237.644	259.416	168.338	385.283	313.586	167.792	173.533	284.706	281.545	172.298	176.820	179.052	183.613	277.534	182.392	-8191	255	
1536.586	1	1	0	0	0.18433	0.092514	0.18518	0.18815	0.14879	0.14823	0.20836	0.24057	0.11708	0.16531	0.2116	0.10333	0.19471	0.083276	0.23246	0.098351	-1.4604	-1.2375	-1.1458	-1.9792	-0.86458	-1.825	-1.7208	-1.0167	-1.9021	-1.2292	-1.3646	-1.8708	-0.95417	-1.6417	-1.4625	-1.0938	272.099	370.095	179.052	182.358	481.919	490.073	233.888	474.195	337.067	248.486	416.881	386.563	381.962	422.828	232.711	300.300	0.00028349	0.00018505	0.00011662	517.73	3.4246e-06	1.742e-06	787.14	121.87	2.7064e-06	1.6407e-06	212.12	56.685	29.839	8.3506	2.021e-06	21.89	0.00035153	0.00041659	0.00011434	479.64	4.3274e-06	4.5085e-06	728.02	112.46	4.3089e-06	4.3357e-06	196.88	52.464	27.575	7.9137	4.6171e-06	20.628	182.572	233.872	262.771	168.447	291.139	231.446	167.636	173.246	297.790	331.035	172.130	177.125	177.698	184.045	367.498	181.964	-8191	255	
1536.682	1	1	0	0	0.12183	0.26998	0.26216	0.33699	0.12428	0.32858	0.48945	0.20217	0.11534	0.21467	0.13057	0.089606	0.11659	0.18692	0.21179	0.27691	-1.6375	-1.1792	-1.1771	-1.7792	-1.0958	-1.5125	-1.7313	-0.86458	-1.8687	-1.4	-1.2708	-1.7854	-1.1417	-1.5104	-1.8396	-1.0896	404.892	464.147	502.400	172.722	461.606	271.144	433.744	327.681	262.558	441.959	216.006	208.204	291.340	344.444	211.172	422.562	0.00025278	0.00020364	4.4308e-05	524.88	1.3813e-06	1.4945e-06	793.57	122.2	2.4973e-06	3.3535e-06	214.04	56.899	29.822	8.3856	2.7928e-06	22.016	0.00035213	0.00044401	0.00012531	482.19	4.6631e-06	4.7326e-06	734.2	113.06	4.4138e-06	4.6974e-06	197.81	52.636	27.666	7.9209	4.3611e-06	20.675	178.232	271.928	228.884	168.886	317.045	292.260	167.599	172.978	311.423	287.346	172.249	177.124	178.589	184.615	279.353	182.148	-8191	255	
1536.778	1	1	0	0	0.10082	0.27286	0.30839	0.29788	0.15398	0.15461	0.1581	0.087445	0.076941	0.072516	0.13077	0.22027	0.071684	0.06241	0.27	0.081975	-1.4375	-1.3937	-0.99167	-1.9417	-1.1354	-1.4521	-2.0208	-1.0187	-1.8854	-1.3875	-1.2708	-1.8667	-1.0708	-1.3333	-1.8563	-1.0187	333.871	514.035	233.511	497.352	207.399	181.856	502.673	183.637	380.352	472.504	478.119	332.625	297.158	401.706	493.662	232.873	0.0002716	0.00014124	7.3806e-05	530.29	1.485e-06	2.1886e-06	783.72	121.65	2.8727e-06	5.2001e-06	211.9	56.226	29.389	8.2211	1.7126e-06	21.873	0.00033985	0.00041691	0.00012537	484.28	4.4714e-06	4.7188e-06	735.84	113.6	4.423e-06	4.6771e-06	198.52	52.34	27.524	7.8057	4.3528e-06	20.374	175.385	265.661	263.878	168.764	305.405	271.392	167.826	173.434	297.252	273.068	171.936	176.899	178.100	185.101	316.438	182.465	-8191	255	
1536.874	1	1	0	0	0.17604	0.17895	0.12911	0.10603	0.065571	0.05917	0.14778	0.1382	0.19314	0.19136	0.22241	0.30441	0.07728	0.087221	0.081082	0.087726	-1.25	-1.4438	-1.1417	-1.8458	-1.1479	-1.3271	-1.9854	-1.0708	-1.6375	-1.7146	-1.0833	-1.85	-1.4021	-1.1083	-1.9271	-0.93958	371.877	426.831	408.060	195.852	323.887	331.642	426.739	387.644	242.171	203.065	500.596	478.320	353.621	286.636	203.194	361.856	0.00022112	0.00020318	4.2345e-05	524.21	2.2189e-06	8.2026e-07	788.7	121.8	2.2259e-06	5.1775e-06	210.96	54.753	29.237	8.0906	2.2589e-06	21.1	0.00033384	0.00040785	0.00011837	483.77	4.3978e-06	4.8228e-06	730.96	113.1	4.2121e-06	4.4632e-06	197.08	51.549	27.404	7.6635	4.0053e-06	19.855	182.926	288.200	209.234	168.948	220.154	352.076	167.630	173.269	300.496	283.358	172.163	176.770	177.738	183.300	342.891	182.432	-8191	255	
1536.970	1	1	0	0	0.10543	0.28902	0.1168	0.11581	0.21578	0.26361	0.32357	0.060565	0.20381	0.23132	0.17892	0.16167	0.12579	0.17191	0.10002	0.17331	-1.175	-1.7104	-1	-1.9021	-1.1187	-1.025	-2.0958	-0.95833	-1.3458	-1.5375	-1.1146	-1.8021	-1.4562	-1.0729	-1.7958	-1.1625	507.115	219.239	171.420	163.527	276.770	260.466	507.217	429.707	207.049	220.177	414.213	360.522	363.446	170.866	159.163	289.582	0.00023082	0.00011417	0.00011101	528.79	2.3118e-06	2.8931e-06	792.95	123.06	1.9849e-06	3.2436e-06	211.82	55.646	29.957	8.2156	9.9344e-07	21.121	0.00032673	0.00042127	0.00011958	489.39	4.3306e-06	4.9435e-06	738.48	114.7	4.3811e-06	4.5841e-06	199.89	52.003	27.929	7.6622	4.4866e-06	19.678	182.611	176.588	251.066	168.588	330.978	272.636	167.651	173.361	288.447	309.942	171.884	176.690	177.391	185.306	254.810	182.476	-8191	255	
1537.066	1	1	0	0	0.17981	0.066158	0.28682	0.082068	0.2908	0.15988	0.28876	0.15233	0.10305	0.044923	0.33433	0.17559	0.10391	0.15732	0.070773	0.020828	-1.0688	-1.6771	-0.95417	-1.8042	-1.5146	-1.1896	-2.1688	-1.1604	-1.3958	-1.8375	-1.0688	-1.625	-1.65	-0.99792	-1.7958	-1.2583	429.297	187.468	166.402	488.535	469.645	432.965	389.965	474.025	308.763	432.460	429.294	220.887	340.196	162.855	393.223	336.807	0.00024495	0.00037456	5.411e-05	540.79	1.4858e-06	2.0362e-06	820.07	128.88	2.3603e-06	2.2168e-06	221.53	56.064	29.987	8.0366	3.2437e-06	20.735	0.00034912	0.00041533	0.00012385	494.81	4.5281e-06	4.9769e-06	753.27	117.76	4.3882e-06	4.4793e-06	203.27	52.165	27.973	7.5479	4.3243e-06	19.46	182.141	241.663	279.069	168.937	302.049	328.366	168.513	173.022	270.837	277.998	172.284	177.204	178.079	183.666	284.308	182.504	-8191	255	
1537.187	1	1	0	0	0.07586	0.27001	0.26318	0.24385	0.14476	0.32648	0.26691	0.16247	0.035054	0.12121	0.046871	0.12541	0.017164	0.21563	0.20661	0.13001	-0.83333	-2.0208	-0.93333	-1.7375	-1.5333	-0.85417	-2.0062	-1.3792	-1.2188	-1.8021	-1.1125	-1.6146	-1.5479	-0.95417	-1.9771	-1.3687	202.435	344.712	308.963	464.906	349.526	281.566	452.600	497.175	244.827	243.239	505.774	237.251	259.713	370.401	170.738	480.001	0.00023895	0.00028879	7.2752e-05	548.31	2.7325e-06	1.3311e-06	825.1	128.31	3.1117e-06	1.687e-06	220.96	56.277	30.265	7.9296	2.0307e-06	20.529	0.00034722	0.00042506	0.00011821	501.5	4.257e-06	4.8748e-06	758.99	118.28	4.4461e-06	4.4239e-06	204.34	52.15	28.337	7.4788	4.3293e-06	19.165	181.794	245.644	251.573	169.219	265.807	350.448	168.005	173.417	292.382	292.258	172.451	177.417	178.532	184.530	308.975	181.692	-8191	255	
1537.283	1	1	0	0	0.2186	0.25053	0.24851	0.64516	0.074306	0.13784	0.021529	0.040576	0.09613	0.037883	0.040989	0.12953	0.19025	0.21395	0.28101	0.095078	-0.5875	-1.85	-1.0146	-1.3729	-1.5708	-1.0958	-1.8125	-1.35	-1.0458	-1.9813	-0.90208	-1.4	-1.8417	-0.96458	-1.7125	-1.4583	177.551	429.735	261.986	447.032	379.501	500.090	508.131	256.303	451.111	476.415	210.094	418.869	433.532	421.670	436.641	271.471	0.00026453	0.00022657	5.8116e-05	539.79	6.5366e-07	2.0905e-06	818.76	129.21	1.9753e-06	1.7695e-06	221.87	56.396	30.006	8.0204	3.883e-06	20.055	0.00034173	0.00039695	0.00011906	500.64	4.4829e-06	4.7517e-06	755.71	119.27	4.6063e-06	4.3547e-06	204.52	51.89	28.104	7.4057	4.3687e-06	18.846	185.884	284.378	286.004	169.495	245.346	275.993	168.284	173.025	236.794	275.584	172.329	176.604	178.549	184.054	294.353	182.728	-8191	255	
1537.378	1	1	0	0	0.14814	0.39223	0.18462	0.28632	0.29184	0.19792	0.3896	0.23288	0.11371	0.10967	0.073681	0.2328	0.14829	0.072188	0.14608	0.12569	-0.7125	-1.9979	-1.1146	-1.6187	-1.7875	-1.0521	-1.8271	-1.6521	-1.0542	-1.8146	-1.0917	-1.2583	-1.8	-0.875	-1.6354	-1.5292	469.001	365.463	358.236	477.371	268.018	375.691	347.695	514.367	169.332	355.931	497.558	408.362	244.725	447.325	336.113	471.684	0.00022995	0.00029701	8.177e-05	549.07	2.3081e-06	3.2733e-06	823.27	129.7	1.6945e-06	2.3743e-06	223.98	56.778	30.579	7.9378	3.9046e-06	20.027	0.00032588	0.0004198	0.00011234	503.69	4.2822e-06	4.6436e-06	760.35	119.39	4.1625e-06	4.4948e-06	205.93	52.193	28.288	7.345	4.2383e-06	18.83	174.754	251.234	264.408	169.024	307.928	298.076	167.967	173.344	244.478	312.201	172.397	176.878	178.001	184.782	294.211	182.601	-8191	255	
1537.475	1	1	0	0	0.29025	0.12536	0.064624	0.0293	0.15871	0.12294	0.02909	0.17422	0.37574	0.092407	0.19805	0.2916	0.33505	0.15755	0.035588	0.080206	-0.53542	-1.8875	-1.0958	-1.2146	-1.95	-0.94792	-1.7146	-1.7313	-0.79375	-1.8979	-1.4021	-1.0583	-1.9521	-0.92917	-1.4333	-1.6313	222.229	299.064	179.902	199.760	426.271	207.854	440.484	492.111	333.861	376.529	403.756	439.205	238.354	317.413	252.505	435.512	0.00023509	0.00031608	5.2233e-05	546.6	1.8525e-06	2.4962e-06	839.8	132	4.4491e-07	1.1461e-06	225.92	56.897	30.793	7.7076	4.3525e-07	20.248	0.00033818	0.00039427	0.00011849	503.85	4.1771e-06	4.827e-06	768.09	120.59	4.8029e-06	4.72e-06	208.83	52.446	28.422	7.3075	4.1692e-06	18.822	185.629	249.313	243.137	168.985	257.680	297.068	167.995	173.453	314.191	312.405	172.138	177.006	177.604	183.730	275.651	182.348	-8191	255	
1537.570	1	1	0	0	0.10501	0.16198	0.19594	0.15974	0.11337	0.049888	0.36528	0.14352	0.21491	0.028165	0.39586	0.26895	0.21145	0.071653	0.18226	0.12924	-0.61875	-1.7167	-1.4708	-1.1604	-1.9229	-1.1229	-1.675	-1.7125	-0.99167	-1.7854	-1.5583	-1.2625	-1.9667	-1.0396	-1.3354	-1.925	375.315	373.020	275.358	487.189	338.603	453.342	480.706	356.485	218.839	180.800	159.658	162.440	382.562	451.282	346.779	255.679	0.00022852	0.00024184	4.3075e-05	555.87	2.4201e-06	1.5966e-06	833.87	132.65	2.1705e-06	1.9868e-06	226.62	57.037	31.234	7.8938	2.4012e-06	20.004	0.00034184	0.00037769	0.00011294	509.55	4.288e-06	4.8676e-06	771.48	121.7	4.3969e-06	4.5263e-06	209.27	52.762	28.758	7.3664	4.4893e-06	18.712	175.864	200.836	177.622	169.206	282.645	278.274	168.231	173.606	274.735	273.377	172.176	176.917	178.574	184.678	280.523	182.484	-8191	255	
1537.666	1	1	0	0	0.089953	0.17201	0.17645	0.12933	0.19478	0.029928	0.19455	0.17023	0.32328	0.060145	0.021063	0.080734	0.16681	0.29683	0.23102	0.31764	-0.58958	-1.7875	-1.525	-0.89167	-1.8813	-1.3271	-1.3771	-1.9542	-0.85	-1.5688	-1.7188	-1.0812	-1.7125	-1.1854	-1.1042	-2.0187	397.961	237.345	169.070	220.560	342.877	488.812	467.053	490.912	331.904	384.781	294.912	394.913	470.837	437.897	456.767	407.775	0.00022589	0.00026537	7.8925e-05	560.55	1.0211e-06	1.8115e-06	839.97	132.28	1.497e-06	1.5979e-06	228.51	56.743	30.512	7.7956	2.4366e-06	19.82	0.00034272	0.00041817	0.00011787	510.67	4.4693e-06	4.6639e-06	771.69	121.67	4.6043e-06	4.5353e-06	210.17	52.673	28.538	7.3302	4.6489e-06	18.743	173.839	213.412	222.798	168.868	379.617	290.849	168.491	173.911	252.456	252.909	171.682	176.805	177.824	184.351	275.080	183.284	-8191	255	
1537.787	1	1	0	0	0.2029	0.052019	0.078986	0.15837	0.14153	0.2419	0.22278	0.063029	0.071324	0.15539	0.28283	0.34583	0.15008	0.11523	0.2269	0.19242	-0.55833	-1.4771	-1.4354	-0.83542	-1.6354	-1.3438	-1.2812	-2.05	-1.0438	-1.5625	-1.7333	-0.85	-1.8104	-1.5938	-1.2437	-1.9729	270.777	357.637	169.032	453.062	365.577	247.558	457.257	430.951	410.155	494.179	422.683	452.733	190.317	460.155	453.511	457.607	0.00022634	0.00030219	2.8482e-05	557.59	2.7761e-06	2.9047e-06	842.07	133.56	2.1581e-06	3.3157e-06	226.87	56.932	30.492	7.8462	2.638e-06	20.153	0.00033526	0.00041543	0.00011578	509.09	4.029e-06	4.6507e-06	772.77	122.33	4.4358e-06	4.288e-06	210.94	52.717	28.796	7.3122	4.5617e-06	18.832	180.514	261.099	319.197	169.132	259.320	361.073	168.906	173.451	286.590	271.146	172.487	176.221	178.522	184.637	265.127	182.983	-8191	255	
1537.883	1	1	0	0	0.13956	0.31716	0.16533	0.075506	0.13061	0.11583	0.19477	0.048501	0.11055	0.30534	0.16113	0.28034	0.14766	0.19118	0.16924	0.034057	-0.78542	-1.3583	-1.7437	-1.1333	-1.6604	-1.3396	-1.2479	-1.75	-1.1146	-1.3396	-1.8854	-0.89792	-1.8396	-1.6104	-1.1375	-1.8354	220.406	200.111	300.422	500.339	326.850	429.773	444.022	291.823	192.250	484.187	376.423	481.715	313.109	168.133	293.306	393.352	0.00024074	0.00033643	5.2773e-05	552.91	2.1556e-06	2.6076e-06	839.54	133.27	1.9333e-06	2.8951e-06	230.35	57.463	31.35	7.9218	9.6148e-07	20.494	0.00033288	0.00040227	0.00010655	508.01	4.4918e-06	4.5946e-06	772.3	121.85	4.1881e-06	4.6509e-06	211.4	53.151	28.977	7.4504	4.2975e-06	19.153	184.707	195.261	247.599	168.930	311.199	318.012	168.195	173.163	305.347	277.620	172.150	177.069	178.339	184.620	325.061	182.792	-8191	255	
1537.979	1	1	0	0	0.19135	0.065959	0.33977	0.25397	0.15356	0.29492	0.40977	0.13286	0.1729	0.11041	0.10032	0.17472	0.23788	0.15721	0.09131	0.13184	-0.92083	-1.4	-1.8083	-1.1458	-1.7458	-1.7167	-1.2583	-1.9458	-1.1708	-1.2833	-1.8167	-1.0354	-1.6125	-1.6542	-1.0771	-1.8813	357.037	393.204	424.130	228.969	487.686	171.238	458.365	502.454	256.959	421.999	156.080	493.281	392.583	498.909	343.147	242.671	0.00025826	0.00019013	6.6856e-05	558	1.8752e-06	3.2361e-06	845.72	134.44	4.7682e-06	3.383e-06	229.65	57.598	31.352	7.8176	1.8109e-06	20.367	0.00035304	0.00040448	0.00011016	510.6	4.3899e-06	4.5259e-06	777.02	122.59	4.4696e-06	4.4674e-06	211.59	53.271	28.979	7.3502	4.6894e-06	19.002	174.482	214.470	223.303	168.826	315.173	300.806	168.334	173.576	277.983	326.070	172.197	176.618	178.376	183.584	323.978	182.750	-8191	255	
1538.051	1	1	0	0	0.23145	0.14351	0.19309	0.33355	0.051656	0.18964	0.2001	0.056283	0.11033	0.27256	0.13661	0.17847	0.074896	0.099578	0.19007	0.26183	-0.87083	-1.1708	-1.9229	-1	-1.3813	-1.7729	-1.0396	-1.8542	-1.3438	-1.1042	-1.9583	-1.15	-1.3229	-1.5292	-1.0729	-1.7479	252.678	184.064	164.187	475.112	306.688	409.302	171.649	512.749	277.849	182.666	239.248	505.249	413.126	205.695	304.925	400.174	0.00024064	0.00032463	5.9117e-05	559.94	2.6429e-06	2.1589e-06	840.03	131.86	2.6129e-06	1.9769e-06	229.3	57.652	31.06	7.8736	2.1629e-06	20.119	0.00032778	0.00043396	0.00011388	512.03	4.4519e-06	4.3621e-06	773.49	122.17	4.165e-06	4.2284e-06	211.4	53.269	28.759	7.3642	4.6302e-06	19.008	176.576	223.553	210.358	168.864	289.858	337.052	168.422	173.476	298.880	287.410	172.228	176.620	178.243	183.933	345.093	182.629	-8191	255	
1538.171	1	1	0	0	0.067128	0.20955	0.070885	0.090526	0.2605	0.25908	0.093103	0.055348	0.045466	0.3802	0.11624	0.17365	0.035865	0.016404	0.10139	0.11183	-1.1313	-1.0354	-1.8104	-1.1542	-1.1854	-1.7854	-0.94375	-1.75	-1.6021	-1.0667	-2.0604	-1.1646	-1.2938	-1.7521	-0.92083	-1.7313	358.533	249.498	389.308	480.212	287.188	421.353	351.112	441.375	173.623	464.114	223.531	460.876	410.616	321.586	237.610	220.145	0.00024705	0.00030087	0.00010768	545.94	3.7248e-06	1.592e-06	840.38	134.09	2.5043e-06	2.5531e-06	229.45	57.733	30.983	7.9323	1.7414e-06	20.474	0.00032647	0.00039622	0.00010734	506.27	4.216e-06	4.3418e-06	774.49	122.55	3.9367e-06	4.1617e-06	212.13	53.287	28.999	7.4658	4.1281e-06	19.22	176.233	224.240	236.816	168.363	301.814	274.713	168.455	173.623	292.174	309.467	172.098	176.600	178.670	184.084	306.787	182.650	-8191	255	
1538.267	1	1	0	0	0.29404	0.055265	0.19436	0.12506	0.069417	0.28909	0.097503	0.043768	0.2007	0.039425	0.1664	0.21768	0.22012	0.19692	0.39235	0.26817	-1.0521	-1.0688	-1.8312	-1.2437	-1.2604	-1.7208	-1.0875	-1.55	-1.5458	-1.1313	-2.0187	-1.2604	-1.1688	-1.9583	-1.1187	-1.5979	441.716	422.103	485.158	346.858	430.944	481.005	481.624	194.871	248.111	495.136	467.682	342.095	383.719	423.773	282.022	283.089	0.0002405	0.00023195	9.1091e-05	554.21	1.4258e-06	4.8989e-06	842.47	132.4	1.7446e-06	2.9243e-06	231.7	57.849	31.649	8.0763	2.1011e-06	21.083	0.00032795	0.00042543	0.00010371	508.11	4.3411e-06	4.4177e-06	774.77	121.63	4.099e-06	4.4388e-06	212.14	53.489	29.006	7.5487	4.167e-06	19.62	179.778	236.316	241.708	168.644	267.078	361.418	168.254	173.464	294.071	308.926	172.197	176.842	178.362	184.197	290.153	182.989	-8191	255	
1538.364	1	1	0	0	0.31526	0.1653	0.24501	0.1975	0.19133	0.19339	0.28738	0.26075	0.12372	0.074873	0.21253	0.41628	0.16679	0.31995	0.24726	0.30099	-1.1792	-0.92083	-1.8937	-1.2625	-1.1875	-1.9292	-1.2208	-1.5417	-1.6063	-0.96042	-2.0646	-1.3417	-1.1958	-1.925	-1.0542	-1.4375	465.683	462.767	462.685	419.792	201.136	429.316	459.864	376.556	197.209	310.671	190.454	440.005	461.005	374.020	279.341	413.951	0.00025134	0.00035653	8.6411e-05	554.46	1.388e-07	4.6442e-06	846.33	132.64	3.1403e-06	2.3954e-06	229.36	58.194	31.464	8.1365	3.2813e-06	21.224	0.00032239	0.00042264	0.0001045	506.09	4.1756e-06	4.2922e-06	772.32	120.85	3.9183e-06	4.5424e-06	211.14	53.404	28.883	7.6086	4.3024e-06	19.619	177.657	254.894	260.015	168.655	317.837	269.244	168.542	173.674	290.126	302.798	172.742	176.797	178.194	184.457	289.365	182.796	-8191	255	
1538.460	1	1	0	0	0.27449	0.43661	0.21915	0.21371	0.38565	0.16841	0.24883	0.090664	0.16477	0.16091	0.17083	0.1556	0.24676	0.18505	0.21164	0.077769	-1.3042	-0.89167	-1.725	-1.5187	-1.0896	-1.9	-1.2917	-1.3125	-1.8458	-0.96458	-1.6521	-1.6354	-1.2812	-1.8979	-1.2354	-1.1729	440.619	446.092	488.807	402.139	199.637	384.272	162.156	156.879	498.496	412.622	473.758	322.941	195.022	480.897	219.243	475.696	0.00025219	0.00025556	7.563e-05	557.23	2.3999e-06	4.1318e-06	837.77	130.58	3.9899e-06	3.3357e-06	228.57	57.701	30.946	8.0411	2.3071e-06	20.917	0.00031976	0.00038695	0.00011306	505.93	4.3306e-06	4.1297e-06	766.56	120.17	4.1584e-06	4.4376e-06	209.73	53.306	28.591	7.5322	4.0332e-06	19.609	182.939	258.885	265.648	169.163	242.551	283.485	168.527	173.571	284.252	319.889	172.426	176.630	178.253	183.786	340.954	182.591	-8191	255	
1538.579	1	1	0	0	0.35202	0.17057	0.17917	0.20547	0.16205	0.2379	0.028551	0.23886	0.18705	0.034976	0.10417	0.20474	0.1496	0.15299	0.32063	0.1672	-1.3417	-1.0125	-1.7687	-1.6958	-0.7875	-1.8417	-1.5979	-0.975	-1.8333	-1.1146	-1.6979	-1.8167	-0.925	-1.8604	-1.3917	-1.2563	399.195	487.404	333.433	510.864	179.612	506.984	157.338	236.320	167.455	173.157	438.086	401.122	187.841	384.365	195.450	474.380	0.00026022	0.0002491	4.2734e-05	542.83	9.7346e-07	1.8322e-06	820.75	128.42	1.7326e-06	3.086e-06	219.74	57.561	30.577	7.9468	1.3403e-06	21.369	0.0003248	0.00037611	0.00011206	497.52	4.1425e-06	4.4165e-06	757.35	117.94	3.8973e-06	4.316e-06	206.82	53.172	28.462	7.5799	4.0738e-06	20.043	179.675	211.799	260.365	168.406	209.842	311.168	168.114	173.269	306.973	295.156	171.894	176.830	177.826	183.937	285.589	182.389	-8191	255	
1538.675	1	1	0	0	0.11391	0.18774	0.082377	0.15502	0.095061	0.10878	0.26685	0.12132	0.27634	0.38509	0.23195	0.14284	0.28271	0.1503	0.15327	0.043133	-1.5083	-1.1583	-1.5521	-1.8021	-1.0229	-1.7083	-1.5438	-0.96458	-1.8813	-1.0792	-1.4833	-1.8521	-0.73958	-1.6938	-1.3312	-0.9375	279.056	293.145	401.600	435.449	442.646	488.739	432.853	374.346	430.490	346.259	475.196	362.315	436.570	187.497	480.766	511.134	0.00024885	0.00036934	0.00012362	545.05	1.7959e-06	3.3248e-06	821.87	127	8.9303e-07	2.6817e-06	223.07	56.768	30.047	8.2549	3.1685e-06	21.899	0.00030893	0.00039148	0.00010774	496.46	4.1456e-06	4.1202e-06	758.16	117.2	3.7683e-06	4.5669e-06	207.14	53.349	28.143	7.7128	4.1895e-06	20.336	173.311	207.548	232.378	169.073	311.590	279.642	168.237	173.545	282.584	285.694	173.053	176.515	178.140	184.598	325.781	182.528	-8191	255	
1538.748	1	1	0	0	0.1519	0.16627	0.29047	0.33559	0.32573	0.1988	0.24264	0.15743	0.1517	0.19945	0.17192	0.1517	0.054728	0.12925	0.23969	0.20875	-1.5958	-1.0896	-1.4708	-1.8312	-0.90208	-1.8	-1.7979	-1.0042	-1.9625	-1.0688	-1.4708	-1.9562	-1.025	-1.6917	-1.4375	-0.90417	301.579	171.818	299.927	510.002	303.805	310.706	232.298	508.665	469.301	424.902	502.719	343.749	259.353	161.734	188.231	437.255	0.00024457	0.00028256	8.6713e-05	540.06	1.9349e-06	2.4999e-06	821.86	126.56	2.22e-06	2.1886e-06	223.04	58.07	30.567	8.2701	2.1895e-06	21.821	0.00032455	0.00039701	0.00010624	490.99	4.2544e-06	4.4631e-06	752.56	116.56	4.1353e-06	4.3202e-06	204.84	53.257	28.212	7.7832	3.9186e-06	20.359	176.931	214.657	248.654	168.305	302.973	238.667	168.528	173.646	246.555	315.269	172.594	176.880	178.232	184.676	275.982	182.484	-8191	255	
1538.867	1	1	0	0	0.030111	0.16487	0.1684	0.14054	0.30272	0.35916	0.021607	0.13493	0.17548	0.2476	0.11261	0.21898	0.30766	0.31208	0.12605	0.33799	-1.4354	-1.2917	-1.225	-2.1083	-1.0271	-1.4396	-1.6146	-1.0521	-1.7875	-1.4292	-1.3125	-2.0438	-0.96042	-1.5917	-1.5729	-1.1688	237.516	211.893	324.130	473.821	280.023	295.329	392.096	240.950	413.056	419.515	489.785	347.011	281.672	286.691	273.891	422.582	0.00021867	0.00033367	8.576e-05	537.73	9.591e-07	3.0664e-06	809.75	124.84	2.5649e-06	2.1426e-06	223.11	57.997	30.511	8.3066	2.3832e-06	21.652	0.00032551	0.00038043	0.00011142	486.13	4.0332e-06	4.5635e-06	740.15	114.86	3.8707e-06	4.4751e-06	203.66	52.913	28.08	7.763	4.0864e-06	20.268	179.286	269.727	226.526	168.562	228.986	296.008	168.133	173.758	251.952	382.309	172.566	177.416	178.993	185.086	311.038	181.680	-8191	255	
1538.963	1	1	0	0	0.17893	0.07216	0.12809	0.062972	0.074491	0.092143	0.048878	0.20876	0.32595	0.038438	0.19493	0.24787	0.15497	0.14112	0.10253	0.12514	-1.4479	-1.2313	-1.1292	-1.7521	-1.3	-1.5208	-1.7208	-0.97292	-1.8771	-1.4229	-1.1646	-1.9458	-1.1083	-1.3937	-1.7125	-0.99167	204.448	397.602	492.668	306.146	414.761	300.101	483.117	248.210	331.558	464.070	423.857	498.384	170.718	285.704	293.923	366.648	0.00024903	0.0002339	5.8374e-05	523.09	3.085e-06	3.0548e-06	803.17	124.91	1.5597e-06	3.9837e-06	220.48	57.454	30.271	8.3452	2.0734e-06	21.823	0.00033041	0.00041196	0.0001109	485.12	4.33e-06	4.5402e-06	742.22	115.6	4.0135e-06	4.0902e-06	203.21	53.027	28.163	7.7789	3.928e-06	20.362	184.019	291.552	269.827	168.812	311.318	282.366	168.115	173.038	307.297	309.498	172.384	177.551	178.339	184.845	324.730	183.308	-8191	255	
1539.059	1	1	0	0	0.12897	0.1187	0.061854	0.075933	0.12426	0.12233	0.47665	0.32187	0.073492	0.16955	0.17836	0.19501	0.18751	0.12164	0.10743	0.20662	-1.2271	-1.4896	-0.93542	-1.9771	-1.0125	-1.2375	-2.1063	-1.0979	-1.55	-1.6667	-0.93125	-2.0271	-1.1583	-1.3604	-1.8146	-1.0562	342.222	204.212	380.905	398.802	365.973	370.748	458.512	334.957	294.282	398.053	498.279	174.109	196.938	269.624	354.062	384.286	0.000269	6.7685e-05	8.7113e-05	532.3	1.2113e-06	5.3207e-06	819.92	128.59	2.4032e-06	1.9594e-06	221.75	57.901	30.996	8.4449	1.1146e-06	21.902	0.00033858	0.00038927	0.00010675	487.08	4.0127e-06	4.5294e-06	751.03	117.14	3.9603e-06	4.4495e-06	205.56	53.725	28.666	7.872	3.8364e-06	20.351	176.024	229.429	238.241	169.055	308.469	307.779	168.597	173.415	243.541	312.672	172.357	177.758	178.524	183.969	293.737	182.546	-8191	255	
1539.155	1	1	0	0	0.2973	0.15644	0.19122	0.26475	0.085889	0.094521	0.13028	0.25487	0.17216	0.19612	0.21895	0.13201	0.32288	0.12268	0.080833	0.33103	-1.2458	-1.6833	-0.92917	-1.8583	-1.1646	-1.1229	-1.9021	-1.2271	-1.4688	-1.7938	-1.1146	-1.7292	-1.4104	-1.0875	-2.0521	-1.0667	465.573	461.408	510.513	421.260	318.986	180.646	486.980	396.467	402.288	243.017	445.236	443.398	359.189	278.389	383.062	402.797	0.00023869	0.00017745	3.6047e-05	530.87	2.4475e-06	2.8985e-06	817.97	126.78	7.3288e-07	1.2506e-06	218.75	56.992	30.528	8.2741	1.6649e-06	21.646	0.00032449	0.0004139	0.00011237	491.85	4.101e-06	4.5683e-06	750.33	117.42	4.2802e-06	4.1819e-06	205.39	53.285	28.512	7.782	4.1193e-06	20.241	179.889	265.552	416.991	168.376	301.692	311.172	168.138	173.543	306.584	216.643	171.815	176.881	178.048	184.394	273.141	182.440	-8191	255	
1539.276	1	1	0	0	0.11388	0.32754	0.12927	0.30563	0.13613	0.19941	0.4094	0.096316	0.29383	0.23009	0.14641	0.24598	0.22644	0.30519	0.16989	0.19528	-1.075	-1.6979	-0.80208	-1.8729	-1.4875	-1.1896	-2.0563	-1.1646	-1.4708	-1.8833	-0.96667	-1.8542	-1.7521	-1.3125	-1.9958	-1.3563	362.736	465.394	290.580	510.082	178.856	311.562	457.417	212.575	441.617	346.805	495.028	391.782	156.190	237.070	329.667	475.616	0.00022053	0.00021741	8.7458e-05	537.99	2.693e-06	3.4045e-06	820.73	128.96	1.2396e-06	2.2238e-06	226.02	58.506	31.38	8.4199	7.8288e-07	21.182	0.00034056	0.00040227	0.00012116	493.56	4.205e-06	4.6459e-06	753.36	118.07	4.2864e-06	4.4977e-06	207.24	53.773	28.682	7.7581	4.0568e-06	19.969	173.403	245.554	226.658	168.903	283.489	308.844	168.248	173.739	235.384	269.357	172.759	177.700	177.590	185.083	274.420	182.530	-8191	255	
1539.348	1	1	0	0	0.036783	0.097892	0.30713	0.24512	0.082719	0.16035	0.19071	0.18983	0.19614	0.0728	0.2038	0.18684	0.31967	0.042882	0.27254	0.3486	-1.0667	-1.9354	-0.87083	-1.7958	-1.3979	-1.0208	-1.9542	-1.3438	-1.2646	-1.9375	-1.1979	-1.6792	-1.75	-0.97708	-2.0208	-1.3188	199.743	387.464	203.313	375.553	323.976	175.702	387.144	306.818	175.874	210.908	498.073	159.263	205.418	227.688	397.203	252.693	0.00023779	7.977e-05	5.5786e-05	539.16	2.936e-06	2.8264e-06	825.66	130.09	1.8257e-06	4.3778e-06	226.98	57.834	30.697	8.1352	1.7713e-06	21.374	0.00032268	0.00037058	0.00011038	496.79	4.07e-06	4.7236e-06	760.99	119.12	4.4399e-06	4.2457e-06	208.66	53.763	28.797	7.6926	4.4005e-06	20.054	176.638	223.392	230.197	169.133	283.921	337.426	168.661	173.415	296.413	262.722	172.468	177.126	178.951	185.033	300.946	182.522	-8191	255	
1539.468	1	1	0	0	0.23054	0.35377	0.022137	0.15643	0.18601	0.13726	0.24479	0.26995	0.10628	0.1501	0.19351	0.11703	0.14012	0.10399	0.32135	0.31102	-0.68958	-2.0062	-1.1729	-1.5688	-1.6229	-0.98333	-1.9875	-1.3125	-1.0604	-1.9833	-0.98333	-1.5125	-1.8333	-0.97292	-1.8854	-1.2792	422.657	361.986	248.983	465.583	487.391	373.346	450.880	160.629	337.267	381.663	405.206	369.196	404.122	200.729	195.136	163.591	0.00024037	0.00015983	6.3967e-05	539.39	1.8267e-06	1.189e-06	833.78	130.98	2.0011e-06	3.0195e-06	224.82	56.875	30.613	7.9153	2.4353e-06	20.785	0.00035598	0.00038201	0.00011007	499.26	4.1761e-06	4.3872e-06	766.38	120.44	4.3212e-06	4.1098e-06	208.98	53.866	28.863	7.5775	3.9795e-06	19.657	176.543	201.817	229.805	168.476	294.894	386.019	168.914	173.479	261.706	302.583	171.829	176.689	178.248	183.604	309.716	182.013	-8191	255	
1539.563	1	1	0	0	0.24667	0.19373	0.13327	0.23078	0.18974	0.029267	0.17956	0.17539	0.11982	0.31682	0.17032	0.14798	0.045498	0.24541	0.19512	0.16708	-0.80833	-2.0438	-1	-1.5646	-1.7667	-1.0625	-1.925	-1.7667	-0.99375	-1.8979	-1.0771	-1.3271	-1.7479	-1.0979	-1.8	-1.4167	358.330	343.469	444.259	420.726	174.780	386.241	479.333	296.697	377.365	164.104	198.222	475.176	398.700	206.832	278.524	493.849	0.00026015	9.875e-05	6.5884e-05	548.69	1.5161e-06	1.8594e-06	841.46	132.11	8.9041e-07	3.7423e-06	229.73	57.616	31.07	8.1525	3.5065e-06	20.804	0.0003364	0.00039327	0.00012296	504.35	4.0379e-06	4.4219e-06	770.05	121.25	4.2024e-06	4.1349e-06	210.43	53.339	28.863	7.556	4.3994e-06	19.306	177.713	246.053	232.993	169.032	318.493	289.558	168.653	173.682	274.398	295.220	172.403	177.426	178.099	184.159	308.304	181.239	-8191	255	
1539.659	1	1	0	0	0.049882	0.32524	0.24137	0.24784	0.17683	0.2715	0.33828	0.1539	0.12081	0.094944	0.1964	0.048651	0.15877	0.09461	0.019018	0.21443	-0.72917	-1.8792	-1.1167	-1.3521	-1.8229	-1.0729	-1.8	-1.7875	-1.2167	-1.8042	-1.3729	-1.3021	-1.8729	-1.1271	-1.5771	-1.6229	461.514	250.101	341.475	455.240	306.211	319.486	425.255	482.560	257.929	500.139	433.989	268.413	256.767	422.728	436.739	472.282	0.00026003	0.00027979	2.7141e-05	557.24	2.9765e-06	3.0223e-06	832.25	132.34	8.4732e-07	1.6646e-06	227.93	57.486	31.131	7.8286	2.5783e-06	20.053	0.00034161	0.00038916	0.00011121	507.8	4.0532e-06	4.4559e-06	767.95	121.52	4.1845e-06	4.1968e-06	210.28	53.339	28.835	7.4015	4.0837e-06	19.034	177.476	231.070	264.485	168.517	279.944	309.009	168.181	172.615	292.027	294.639	171.768	177.129	177.379	182.977	303.175	181.655	-8191	255	
1539.755	1	1	0	0	0.10542	0.16715	0.050192	0.29574	0.34235	0.052959	0.27026	0.21328	0.078179	0.24826	0.2626	0.23288	0.063906	0.17909	0.12686	0.15164	-0.5875	-1.7188	-1.2833	-1.1812	-1.8813	-1.0187	-1.6354	-1.8396	-0.87917	-1.9375	-1.4562	-1.0646	-1.9333	-0.9625	-1.5271	-1.8792	352.355	258.267	311.035	413.106	326.138	396.432	502.371	223.323	236.904	352.548	423.221	230.259	476.272	513.889	308.839	399.625	0.00026888	0.00032668	3.0546e-05	550.78	9.1257e-07	3.7154e-06	841.29	130.55	3.2744e-06	1.64e-06	227.49	57.749	30.291	7.7689	3.4585e-06	20.437	0.00033526	0.00037779	0.00011699	508.02	4.091e-06	4.4159e-06	774.69	120.61	4.3913e-06	4.3696e-06	210.17	53.269	28.259	7.3752	4.1571e-06	19.254	176.309	249.399	238.272	168.279	246.318	321.093	168.357	173.008	291.035	350.496	171.743	176.425	177.871	183.025	286.259	182.205	-8191	255	
1539.876	1	1	0	0	0.15743	0.19362	0.14518	0.1885	0.19953	0.17347	0.21229	0.19159	0.25802	0.074804	0.1244	0.15526	0.44516	0.33347	0.30542	0.16079	-0.79792	-1.7271	-1.5312	-1.0958	-2.0646	-1.3062	-1.6292	-1.7792	-1.0812	-1.3667	-1.9062	-0.9375	-1.7792	-1.2812	-1.2667	-1.9479	496.645	200.280	421.560	507.127	188.421	476.938	446.093	261.661	178.026	258.922	490.569	449.888	512.420	319.411	427.266	278.595	0.00026799	0.00033991	0.00010169	550.99	1.4411e-06	6.4664e-07	842.29	131.85	2.6137e-06	3.7569e-06	227.9	57.555	30.924	7.9503	1.8261e-06	20.653	0.00033504	0.00039611	0.00010904	506.81	4.2806e-06	4.7953e-06	777.11	121.21	4.4492e-06	4.4548e-06	211.83	53.677	28.59	7.3981	4.1955e-06	19.182	177.210	258.385	294.976	168.444	306.405	170.335	168.103	173.069	276.276	307.432	172.043	176.566	177.390	183.877	292.379	181.594	-8191	255	
1539.972	1	1	0	0	0.24591	0.20933	0.19345	0.27121	0.18265	0.10948	0.31345	0.12255	0.10178	0.17129	0.11789	0.22743	0.22384	0.091851	0.30396	0.18144	-0.57917	-1.5271	-1.5875	-0.81042	-1.9312	-1.0958	-1.2896	-1.9583	-1.05	-1.6187	-1.9104	-1.1333	-1.7854	-1.2583	-1.1083	-1.8792	481.728	402.200	229.723	156.153	298.724	359.086	373.200	188.974	404.325	330.287	374.708	371.053	394.035	310.570	487.915	222.710	0.00023986	0.00023222	5.2313e-05	552.8	5.8057e-07	2.0979e-06	834.25	132.37	1.0513e-06	2.6951e-06	230.04	56.646	30.533	7.8273	1.6085e-06	20.113	0.0003354	0.00039185	0.00010905	510.56	4.2512e-06	4.5922e-06	772.2	122.18	4.0888e-06	4.2719e-06	211.14	52.998	28.709	7.3406	4.2366e-06	18.843	174.610	232.357	229.615	168.549	292.896	319.730	168.152	172.981	298.226	270.910	171.366	176.164	176.809	184.002	276.556	181.424	-8191	255	
1540.044	1	1	0	0	0.13012	0.13037	0.45615	0.062432	0.17757	0.15574	0.12231	0.2081	0.12763	0.15654	0.12965	0.19872	0.2556	0.013423	0.055286	0.076466	-0.85208	-1.3875	-1.6875	-0.95833	-1.7729	-1.4729	-1.1958	-1.9521	-1.025	-1.5021	-1.7917	-0.875	-1.675	-1.4104	-1.0417	-1.9438	156.167	158.658	298.766	265.595	509.551	320.841	458.787	476.210	450.576	307.371	332.822	416.048	495.717	429.548	479.996	183.295	0.00024119	0.00011272	9.402e-05	546.98	2.9636e-06	5.5474e-07	832.88	133.64	3.2511e-06	1.8907e-06	234.58	57.772	30.825	7.634	3.3912e-06	19.748	0.00032112	0.00038301	0.00011084	513.17	4.4183e-06	4.4595e-06	782.88	124.65	4.3918e-06	4.3744e-06	217.79	53.796	29.29	7.2002	4.1796e-06	18.449	178.219	237.480	271.057	167.834	285.763	252.709	167.217	172.984	284.859	268.931	171.863	176.299	178.008	183.517	354.709	181.810	-8191	255	
1540.140	1	1	0	0	0.18733	0.19376	0.26871	0.19096	0.093393	0.235	0.069175	0.048329	0.13078	0.20671	0.25447	0.20654	0.1986	0.3096	0.11031	0.26409	-0.90208	-1.4229	-1.7125	-0.99375	-1.825	-1.5667	-1.0938	-1.9896	-1.2604	-1.2646	-1.8563	-0.84375	-1.6604	-1.5187	-0.98125	-1.8792	255.418	324.685	172.859	364.301	453.898	352.298	298.964	231.991	252.480	428.369	274.583	407.233	355.656	218.013	173.335	345.777	0.00025683	0.00021974	8.0509e-05	585.58	1.8104e-06	2.4259e-06	892.63	144.59	6.3535e-07	2.8132e-06	249.62	61.536	33.466	7.5202	1.5171e-06	19.362	0.00034107	0.00041338	0.00011327	539.4	4.0237e-06	4.4709e-06	822.97	133.45	4.2992e-06	4.9828e-06	230.99	56.99	31.214	7.1612	4.6335e-06	18.306	188.094	204.730	245.764	168.447	238.895	274.420	168.477	172.655	314.582	323.379	171.935	176.788	177.804	183.332	271.636	182.202	-8191	255	
1540.236	1	1	0	0	0.15054	0.22881	0.32108	0.11381	0.031128	0.25085	0.1864	0.072152	0.36708	0.085359	0.077237	0.25119	0.21808	0.19504	0.2052	0.26242	-0.82292	-1.1063	-1.6729	-1.2167	-1.55	-1.6938	-1.1208	-1.9125	-1.2958	-1.0438	-1.9146	-1.1104	-1.4229	-1.5812	-0.92292	-1.7958	344.237	377.841	257.684	253.297	178.232	365.721	442.968	350.592	361.404	423.236	377.917	159.800	184.858	388.354	245.230	191.262	0.00023165	0.00014141	8.6997e-05	607.36	2.5375e-06	2.243e-06	911.55	150.41	2.0027e-06	4.0265e-06	258.23	64.652	35.362	7.9248	4.4756e-06	19.683	0.00033963	0.00045628	0.00011811	558.19	4.5312e-06	4.9405e-06	842.39	138.85	4.5362e-06	5.0537e-06	239.15	59.082	32.593	7.3022	5.1856e-06	18.395	186.874	226.918	240.218	168.642	315.246	282.658	168.033	173.027	273.015	297.101	172.081	176.537	177.948	184.450	309.679	181.707	-8191	255	
1540.355	1	1	0	0	0.25448	0.24824	0.096799	0.26938	0.16361	0.14013	0.28267	0.20787	0.081424	0.21845	0.23016	0.066052	0.12858	0.1595	0.2084	0.23697	-1.1333	-1.2667	-1.8667	-1.3729	-1.4083	-1.7313	-0.86458	-1.7646	-1.5438	-0.98333	-2.0604	-1.1271	-1.2938	-1.7479	-1.0187	-1.9583	412.485	415.227	338.273	461.880	293.328	406.227	443.046	490.236	393.421	386.943	228.745	441.517	345.743	493.086	195.542	299.531	0.00026192	7.149e-05	0.00010649	612.42	2.7003e-06	3.098e-06	924.72	154.77	2.457e-06	2.9834e-06	265.41	65.481	36.113	7.8286	2.3355e-06	19.668	0.00036128	0.00046575	0.00012735	567.44	5.0377e-06	5.0946e-06	859.19	142.87	4.42e-06	5.3624e-06	245.43	60.752	33.459	7.3078	5.0644e-06	18.441	180.992	344.733	243.320	168.818	265.501	257.953	167.871	173.484	303.154	308.577	171.863	176.565	177.895	185.205	274.284	182.624	-8191	255	
1540.451	1	1	0	0	0.1011	0.17879	0.10996	0.2743	0.24554	0.17728	0.47575	0.24611	0.25789	0.21319	0.24479	0.22849	0.082858	0.15308	0.12404	0.023874	-1.3104	-1.1437	-1.8875	-1.1333	-1.3417	-1.8104	-1.2542	-1.9688	-1.5229	-0.97917	-2.1937	-1.1604	-1.2625	-1.9062	-0.85	-1.6667	492.362	302.073	278.816	157.992	299.454	233.287	415.178	480.341	449.705	284.795	169.723	480.642	227.961	324.105	322.911	248.528	0.00023883	0.00023832	5.2061e-05	629.11	2.5017e-06	1.4596e-06	947.94	156.41	3.8127e-06	1.6116e-06	267.22	66.403	36.368	7.7444	1.7348e-06	19.874	0.00036574	0.00047612	0.00012338	577.54	5.0844e-06	5.0588e-06	871.94	144.77	5.0107e-06	5.6204e-06	248.12	61.239	33.719	7.3337	5.0173e-06	18.613	185.026	265.844	220.984	169.202	292.319	367.854	168.176	173.304	285.486	342.046	171.799	175.743	177.962	184.390	292.045	182.044	-8191	255	
1540.549	1	1	0	0	0.11588	0.20379	0.1069	0.19733	0.12459	0.13549	0.38284	0.13324	0.234	0.055055	0.22036	0.24806	0.16035	0.19693	0.11701	0.41401	-1.2563	-0.98125	-1.7021	-1.4646	-1.1417	-1.9	-1.1896	-1.575	-1.7229	-0.77292	-1.9375	-1.4083	-1.2729	-1.8667	-0.99792	-1.5	419.388	220.138	332.392	175.256	223.493	497.968	431.772	273.629	262.429	344.323	477.957	158.217	270.639	288.192	281.181	512.863	0.0002384	0.00017116	4.3016e-05	621.12	3.1232e-06	5.136e-06	939.55	155.71	4.418e-06	2.0733e-06	265.76	65.008	36.108	7.8054	2.4462e-06	20.204	0.00036058	0.00049092	0.00013145	573.82	5.1864e-06	5.3904e-06	865.36	143.8	4.9237e-06	5.4726e-06	246.53	60.773	33.548	7.3505	5.0524e-06	18.824	180.904	229.158	211.736	168.322	297.520	324.365	168.179	173.273	265.958	323.242	172.257	176.288	178.016	184.391	290.650	182.148	-8191	255	
1540.643	1	1	0	0	0.15643	0.10148	0.44168	0.080549	0.20351	0.13636	0.19699	0.13703	0.19579	0.045951	0.24383	0.094745	0.21611	0.082022	0.1614	0.085802	-1.2042	-0.97917	-1.6688	-1.475	-0.97917	-1.8708	-1.3312	-1.5542	-1.6938	-1.1854	-1.7229	-1.65	-0.95417	-1.9854	-0.87083	-1.3667	465.126	166.758	472.310	408.126	334.854	405.309	448.792	319.906	265.794	345.400	174.941	257.819	348.101	374.477	405.098	311.769	0.00024574	0.00032262	4.6039e-05	618.71	4.1836e-06	1.6259e-06	931.05	155.32	2.8081e-06	3.8354e-06	268.14	65.668	36.005	7.9717	1.2918e-06	20.162	0.00035967	0.00050476	0.00012257	570.6	5.1302e-06	5.6055e-06	864.56	143.22	4.766e-06	5.4476e-06	247.2	60.714	33.472	7.4294	5.0315e-06	18.872	186.127	239.762	243.315	168.391	293.447	337.469	168.548	172.945	229.686	317.583	171.980	176.216	177.733	183.693	270.329	182.399	-8191	255	
1540.739	1	1	0	0	0.26462	0.079303	0.093233	0.35158	0.16481	0.16458	0.36686	0.44839	0.15626	0.27985	0.17873	0.26158	0.18184	0.056559	0.10082	0.34614	-1.5896	-0.95625	-1.5771	-1.5229	-0.92083	-1.8208	-1.475	-1.3021	-1.7646	-0.88125	-1.7417	-1.5125	-1.0271	-1.8062	-1.1021	-1.1292	446.794	493.497	333.652	486.866	284.890	506.331	459.695	496.522	433.444	474.711	493.153	225.604	321.048	259.099	327.244	386.679	0.00024839	0.00012327	8.82e-05	618.67	1.6109e-06	2.3083e-06	923.55	152.64	2.3232e-06	3.3301e-06	262.58	64.217	34.725	8.0685	1.7427e-06	20.311	0.00033903	0.00047339	0.00012628	568.47	5.3093e-06	4.8527e-06	854.88	140.86	4.8398e-06	5.3159e-06	241.22	59.498	32.277	7.4922	4.6176e-06	19.104	184.407	242.924	213.150	169.035	305.227	285.827	168.266	173.287	281.148	302.418	172.188	176.919	177.923	183.842	298.859	182.166	-8191	255	
1540.835	1	1	0	0	0.19584	0.074697	0.00733	0.36728	0.20668	0.084678	0.20031	0.15067	0.14555	0.14147	0.077069	0.25041	0.39101	0.11015	0.11732	0.1223	-1.3958	-1.0083	-1.6021	-1.7687	-1.0583	-1.9062	-1.425	-1.0542	-1.9	-1.0958	-1.6292	-1.7979	-1.0792	-1.9042	-1.4271	-1.1958	287.103	262.081	244.999	458.199	163.141	403.433	413.920	413.610	302.867	279.466	190.715	339.761	260.619	341.480	395.582	322.223	0.00023482	0.00034213	7.8813e-05	602.06	2.6158e-06	1.9216e-06	903.79	147.15	1.8487e-06	3.3198e-06	254.54	63.138	33.907	7.9212	2.4609e-06	20.351	0.00034107	0.00042201	0.0001258	553.76	4.7876e-06	4.7057e-06	835.88	136.28	4.3857e-06	4.9292e-06	234.69	58.478	31.659	7.5105	4.6483e-06	19.214	173.336	235.508	228.623	168.454	285.877	259.257	168.382	173.250	280.378	302.212	172.076	176.509	177.600	184.292	294.688	182.840	-8191	255	
1540.956	1	1	0	0	0.22108	0.19983	0.24772	0.27183	0.12799	0.095996	0.094367	0.048677	0.080671	0.0291	0.28501	0.1811	0.21195	0.31703	0.13043	0.076136	-1.6229	-0.97917	-1.4104	-1.8687	-0.99375	-1.7146	-1.6646	-1.0479	-1.925	-1.1021	-1.4562	-1.85	-1.0167	-1.6375	-1.4625	-1.1708	478.176	414.114	456.344	469.796	423.160	352.386	421.196	494.877	503.070	248.385	418.668	512.781	421.589	189.961	199.647	268.265	0.00023185	0.00040323	4.6851e-05	596.39	2.6379e-06	3.7886e-06	901.44	146.87	6.0093e-07	4.0014e-06	251.37	62.489	33.336	7.9696	2.2591e-06	20.598	0.00034419	0.00043922	0.00011745	549.92	4.5066e-06	4.6113e-06	830.56	135.38	4.5623e-06	4.7576e-06	232.67	57.94	31.287	7.5244	4.4181e-06	19.308	180.516	227.756	237.224	169.081	316.773	315.609	168.247	173.145	237.361	325.503	172.428	176.887	177.585	183.547	305.981	182.259	-8191	255	
1541.052	1	1	0	0	0.16268	0.25375	0.034864	0.11466	0.14271	0.28139	0.33898	0.25836	0.018516	0.073454	0.35144	0.1717	0.20521	0.22094	0.022837	0.25682	-1.7833	-1.3458	-1.2104	-1.7333	-1.0729	-1.65	-1.7188	-1.0792	-1.7313	-1.2188	-1.2146	-1.875	-1.1896	-1.6521	-1.6083	-1.0729	164.951	159.590	437.610	159.886	168.212	261.970	499.733	159.297	210.619	491.939	452.066	382.250	202.724	264.967	488.564	370.777	0.00024172	0.00029954	2.8506e-05	584.7	4.1878e-06	1.5088e-06	891.49	144.84	3.2376e-06	3.0444e-06	248.32	62.182	33.284	8.1157	1.6942e-06	20.657	0.00032619	0.00042412	0.00012056	541.56	4.4624e-06	4.5348e-06	822.57	132.93	4.3288e-06	4.9691e-06	229.22	57.145	30.644	7.5364	4.3545e-06	19.365	177.009	228.066	257.931	168.887	286.852	301.527	168.552	173.496	282.847	314.108	172.418	177.412	178.457	184.144	295.536	182.300	-8191	255	
1541.148	1	1	0	0	0.022258	0.096159	0.12901	0.11484	0.30878	0.16136	0.019011	0.16793	0.077146	0.34596	0.2814	0.018523	0.23486	0.17837	0.2474	0.18877	-1.4854	-1.4062	-1.1521	-1.9062	-1.2604	-1.5083	-1.7938	-0.88542	-1.6958	-1.5146	-1.0708	-1.8646	-1.0063	-1.4312	-1.8458	-1.0458	214.160	261.613	320.936	242.444	489.277	272.420	166.162	177.704	158.076	262.259	177.983	350.671	218.517	201.482	333.549	207.003	0.00026968	9.6706e-05	8.3895e-05	588.58	2.0131e-06	2.1535e-06	886.36	143.71	2.2864e-06	4.5722e-06	244.05	61.284	32.317	7.9809	3.0483e-06	20.283	0.00033764	0.00043317	0.00012612	538.79	4.9358e-06	4.5946e-06	813.73	131.66	4.6125e-06	4.6884e-06	226.6	56.676	30.202	7.4435	4.497e-06	19.159	178.899	266.089	279.014	168.846	286.445	329.025	168.020	173.457	245.015	319.354	172.054	176.893	177.308	184.219	311.927	182.310	-8191	255	
1541.245	1	1	0	0	0.049647	0.22731	0.1503	0.056486	0.12295	0.064136	0.13674	0.30212	0.14645	0.10695	0.15506	0.19188	0.08536	0.35108	0.20078	0.12098	-1.4979	-1.4958	-0.975	-1.7771	-0.96042	-1.3854	-2.05	-1.0479	-1.6729	-1.475	-1.1271	-1.7188	-1.0562	-1.1042	-1.7771	-0.99583	353.071	496.880	508.076	178.387	244.540	317.733	476.521	338.802	424.865	318.524	188.125	342.533	281.892	244.953	461.704	220.856	0.00026147	0.0003415	8.6286e-05	587.25	1.5711e-06	2.3163e-06	893.38	144.05	1.0371e-06	5.4572e-06	246.81	61.625	32.588	7.8533	2.543e-06	20.65	0.00033614	0.00041575	0.00012799	538.83	4.5076e-06	4.8007e-06	817.57	131.35	4.4773e-06	5.2134e-06	227.05	56.829	30.286	7.4282	4.6571e-06	19.33	184.815	239.285	247.547	168.859	320.297	303.646	168.305	173.306	290.740	325.631	172.942	177.161	178.299	184.406	330.279	182.360	-8191	255	
1541.341	1	1	0	0	0.010154	0.088483	0.27966	0.24678	0.32091	0.093808	0.092258	0.16151	0.15217	0.13816	0.085059	0.10607	0.27353	0.066417	0.21149	0.034739	-1.2417	-1.3896	-0.85	-1.6	-1.0583	-1.2687	-2.15	-1.125	-1.4875	-1.8146	-1.1479	-1.8563	-1.3062	-1.0229	-1.8271	-0.97917	158.538	357.989	209.848	447.330	288.121	270.119	358.716	422.872	348.398	433.374	207.550	168.688	466.088	361.389	340.176	493.310	0.00028238	0.00013478	2.2513e-05	589.23	1.7674e-06	4.2318e-06	901.28	143.19	2.3255e-06	4.5052e-06	251.3	61.966	32.986	7.9648	3.0434e-06	20.895	0.00036058	0.0004258	0.0001243	539.5	4.5785e-06	4.9781e-06	823.31	131.22	4.4983e-06	4.7289e-06	229.41	57.294	30.327	7.4239	4.7393e-06	19.347	178.615	195.238	157.674	169.280	300.823	258.447	168.689	173.331	290.912	313.203	172.661	177.235	178.058	184.502	274.162	182.707	-8191	255	
1541.437	1	1	0	0	0.36401	0.15435	0.030784	0.066754	0.1894	0.27849	0.31539	0.2644	0.14592	0.19014	0.073159	0.21223	0.09246	0.18117	0.2405	0.034191	-1.0854	-1.7896	-1.1792	-1.775	-1.1729	-0.98333	-2.0292	-0.91667	-1.1938	-1.7271	-1.0292	-1.8667	-1.4396	-1.0125	-1.8333	-1.0771	207.378	472.668	281.918	307.557	450.233	395.794	379.615	474.746	240.358	467.658	463.073	458.648	267.954	381.081	340.139	322.798	0.00028031	0.00047044	0.00010833	593.96	2.5557e-06	3.2831e-06	907.5	145.15	2.936e-06	2.535e-06	253.67	63.686	33.013	8.105	1.6758e-06	20.848	0.00037041	0.00045112	0.00013929	542.2	4.8533e-06	5.1018e-06	832.51	132.74	4.8556e-06	5.0096e-06	232.55	57.869	30.666	7.4878	4.5244e-06	19.335	178.250	202.347	246.606	169.333	338.115	337.773	168.698	173.982	278.914	326.247	172.709	177.145	179.130	185.125	335.046	182.358	-8191	255	
1541.531	1	1	0	0	0.087918	0.11447	0.15853	0.10036	0.16284	0.15941	0.37158	0.30907	0.42295	0.10971	0.17315	0.012672	0.24277	0.13433	0.06888	0.20686	-0.91875	-1.6667	-1.0104	-1.875	-1.4208	-1.0417	-1.7333	-1.2354	-1.2271	-1.7521	-1.0896	-1.775	-1.6208	-1.0854	-1.8354	-1.1146	336.754	419.191	424.854	491.103	216.624	194.414	440.027	425.528	184.314	480.616	352.747	441.271	490.899	469.272	230.422	478.993	0.00024721	0.00030569	9.0826e-05	603	1.0251e-06	2.4265e-06	906.97	146.3	1.9855e-06	2.8728e-06	254.06	63.085	33.502	8.0203	1.4808e-06	20.683	0.00036001	0.00042196	0.0001223	546.31	4.6862e-06	5.0158e-06	830.6	133.86	4.5725e-06	5.0865e-06	231.45	57.512	30.866	7.4683	4.6664e-06	19.314	180.620	248.006	229.194	169.574	350.286	265.861	168.595	173.783	264.642	268.611	172.498	176.921	177.492	184.503	403.738	182.585	-8191	255	
1541.652	1	1	0	0	0.03464	0.26964	0.097523	0.12291	0.15703	0.20594	0.25547	0.27422	0.084583	0.085342	0.085755	0.32166	0.30013	0.26332	0.29702	0.10367	-0.8	-1.7687	-1.0458	-1.7563	-1.6938	-1.0292	-2.025	-1.3854	-1.2417	-1.8646	-0.92083	-1.6562	-1.6	-0.83958	-1.7292	-1.3062	486.131	384.623	415.143	420.348	434.528	410.274	475.026	505.901	506.421	309.780	195.982	209.655	226.731	463.302	181.967	191.061	0.00026435	0.00014383	7.0696e-05	594.61	2.3472e-06	3.1632e-06	910.66	145.28	2.9547e-06	3.9824e-06	253.58	63.193	33.595	8.0069	8.6481e-07	20.573	0.000361	0.00042375	0.00013025	545.41	4.4714e-06	4.907e-06	832.96	133.56	4.2551e-06	4.8547e-06	232.64	57.841	30.944	7.4383	4.5442e-06	19.2	175.601	156.251	276.591	168.967	302.318	365.245	168.753	173.671	308.465	302.044	172.517	177.355	178.419	183.860	294.659	182.424	-8191	255	
1541.748	1	1	0	0	0.22252	0.097853	0.29925	0.20047	0.2615	0.13641	0.37113	0.1502	0.16798	0.23243	0.27083	0.041231	0.2422	0.16353	0.15112	0.04934	-0.92917	-1.8375	-1.05	-1.6604	-1.6979	-1.0021	-1.8167	-1.3292	-0.75208	-1.7708	-1.0646	-1.4438	-1.6896	-1	-1.6583	-1.3792	239.427	374.154	187.399	474.757	487.076	265.245	454.531	369.578	186.430	247.878	163.310	416.886	163.378	168.853	436.440	226.059	0.00022687	0.00032805	5.0978e-05	603.87	2.6023e-06	2.76e-06	919.73	149.42	2.3093e-06	1.972e-06	257.81	64.129	34.195	7.9798	2.529e-06	20.313	0.00036174	0.0004238	0.00013173	550.58	4.7923e-06	4.9877e-06	839.54	135.77	4.8418e-06	4.7456e-06	235.87	58.712	31.497	7.4014	4.7777e-06	18.984	178.432	251.935	333.890	169.185	320.509	268.239	168.823	173.560	277.109	315.014	172.506	176.954	178.572	184.861	319.746	182.250	-8191	255	
1541.844	1	1	0	0	0.12818	0.12684	0.12661	0.095807	0.13508	0.030663	0.39712	0.29623	0.19922	0.15261	0.16779	0.40592	0.17596	0.06065	0.25587	0.12932	-0.67708	-1.8563	-1.2208	-1.2563	-1.7896	-1.0208	-1.8438	-1.6646	-0.86875	-2.0812	-1.2417	-1.3271	-1.8833	-0.90208	-1.4771	-1.6646	181.238	504.441	224.867	203.430	319.352	287.593	427.312	423.249	181.635	497.623	494.756	438.292	456.287	167.957	447.877	443.192	0.00025108	0.00012755	3.087e-05	613.1	1.407e-06	2.0087e-06	941.79	153.05	2.8692e-06	3.8863e-06	263.06	65.695	35.236	7.8801	4.6337e-06	20.027	0.00035944	0.00044501	0.00012632	560.33	4.4094e-06	4.9232e-06	856.33	139.64	4.7563e-06	4.67e-06	240.27	59.983	32.584	7.3015	4.5935e-06	18.632	184.834	260.660	251.548	169.225	318.544	311.956	168.922	173.490	275.121	310.043	172.385	177.034	177.758	184.184	331.749	182.334	-8191	255	
1541.916	1	1	0	0	0.1986	0.027833	0.15026	0.46177	0.12318	0.25695	0.024805	0.049485	0.10989	0.14967	0.15468	0.11259	0.13419	0.10196	0.070608	0.27966	-0.40625	-1.8375	-1.1146	-1.25	-1.5583	-0.95417	-1.6875	-1.6604	-1.0854	-1.9458	-1.4458	-1.0438	-2.0354	-0.89583	-1.3729	-1.8979	268.261	512.222	233.217	179.854	496.395	411.822	513.303	415.024	293.360	334.307	391.908	469.770	480.746	451.019	383.742	452.737	0.00025318	0.00022662	5.1226e-05	629.63	1.6631e-06	2.8761e-06	961.21	159.6	1.8379e-06	2.4362e-06	274.89	68.933	37.682	7.7337	1.7534e-06	19.896	0.00035924	0.00044733	0.00011721	573.32	4.5108e-06	4.9901e-06	876.89	145.04	4.7077e-06	4.9333e-06	251.89	62.808	34.616	7.1722	4.9975e-06	18.369	184.431	245.583	202.358	168.817	326.081	321.003	168.872	173.910	332.929	277.955	172.490	177.112	177.402	184.381	310.239	182.189	-8191	255	
1542.036	1	1	0	0	0.13584	0.16541	0.19814	0.21873	0.19821	0.19237	0.23596	0.16285	0.41258	0.24822	0.17351	0.15924	0.085198	0.12811	0.10198	0.043293	-0.55417	-1.7229	-1.5	-1.2417	-1.85	-1.0312	-1.8375	-1.8208	-0.90417	-1.7042	-1.4937	-1.1542	-1.7417	-1.0875	-1.3875	-1.8062	178.058	247.930	415.620	488.678	422.241	232.269	468.243	370.479	504.859	279.691	411.458	338.801	296.101	294.772	509.971	468.134	0.0002494	0.00040755	6.9755e-05	649.92	3.6684e-06	3.9507e-06	1000.8	168.38	3.2028e-06	1.9757e-06	291.36	75.245	41.22	7.7016	2.9118e-06	19.674	0.00036576	0.00044365	0.00012777	591.38	5.117e-06	5.3982e-06	912.13	153.22	5.3112e-06	5.5662e-06	267.05	69.255	37.763	7.1065	5.5397e-06	18.385	177.128	264.500	238.869	169.394	286.764	335.081	168.956	173.356	274.558	213.768	172.405	177.238	178.209	183.709	256.102	182.580	-8191	255	
1542.133	1	1	0	0	0.051206	0.34978	0.056376	0.19014	0.146	0.14393	0.16431	0.34703	0.059002	0.14768	0.27603	0.17257	0.29307	0.20017	0.075125	0.091109	-0.72292	-1.9021	-1.5667	-0.98542	-1.7083	-1.2833	-1.3062	-1.9396	-0.86458	-1.7167	-1.6854	-0.96458	-1.8771	-1.3146	-1.2104	-1.9167	252.296	195.009	158.528	476.888	382.220	356.728	199.622	167.332	445.545	264.835	450.743	362.575	468.121	407.649	389.154	399.169	0.0002039	0.00037052	7.5202e-05	676.21	2.8362e-06	2.8532e-06	1061.7	178.51	2.2992e-06	2.8875e-06	311.58	87.075	46.114	8.5703	3.9482e-06	22.277	0.00043357	0.00054545	0.00015652	614.29	6.2523e-06	6.7526e-06	968.86	163.21	6.6458e-06	7.7739e-06	286.66	80.183	42.376	7.9773	7.5555e-06	20.708	187.187	223.420	229.353	169.225	329.855	359.047	169.344	173.846	283.887	235.305	172.834	176.464	178.228	183.066	232.670	181.324	-8191	255	
1542.229	1	1	0	0	0.069857	0.21944	0.19643	0.10104	0.10085	0.14337	0.13456	0.41213	0.23187	0.27913	0.26029	0.26874	0.066447	0.22992	0.083959	0.24293	-0.82917	-1.6083	-1.7292	-1.2833	-1.95	-1.2417	-1.1896	-1.7521	-0.94167	-1.4625	-1.7854	-0.89167	-1.675	-1.3833	-0.99375	-1.9479	327.755	182.381	453.191	475.723	437.602	495.767	198.267	457.804	232.783	479.840	395.713	479.490	209.219	379.705	198.132	408.909	0.00029634	0.00015721	7.549e-05	705.81	1.3472e-06	4.3796e-06	1122.9	187.85	3.0994e-06	4.4159e-06	337.44	99.533	51.418	10.628	1.8918e-06	28.088	0.00052924	0.00074206	0.0002133	643.88	8.0165e-06	8.9185e-06	1025.6	172.34	9.0294e-06	9.3935e-06	309.45	91.258	47.844	9.8987	1.0199e-05	26.095	180.177	242.320	286.008	169.861	330.640	316.163	169.169	174.002	296.808	287.490	172.493	175.602	176.943	180.910	317.812	179.391	-8191	255	
1542.349	1	1	0	0	0.072148	0.27432	0.071651	0.32892	0.15967	0.061983	0.21738	0.055629	0.266	0.41139	0.055008	0.32298	0.10785	0.16624	0.15402	0.20007	-0.83125	-1.2125	-1.75	-1.0167	-1.8271	-1.4333	-1.1063	-1.875	-1.1417	-1.3687	-2.0458	-1.1979	-1.8438	-1.3979	-0.85625	-2.0354	279.430	382.722	460.812	496.095	356.970	457.362	467.147	446.597	429.095	341.045	435.348	451.348	391.465	474.704	268.649	300.658	0.00034104	0.00029719	0.0001072	744.56	2.4271e-06	8.0917e-07	1193.9	202.78	2.0321e-06	6.4091e-06	363.75	112.71	58.15	13.006	4.4284e-06	32.77	0.00071545	0.001093	0.00029545	682.1	1.1182e-05	1.2397e-05	1093.4	185.28	1.1882e-05	1.3212e-05	331.3	103.67	53.718	12.13	1.2677e-05	30.567	184.562	203.220	217.969	169.898	246.519	440.442	168.774	173.659	255.978	308.016	172.130	175.382	176.515	179.183	263.866	178.205	-8191	255	
1542.444	1	1	0	0	0.17112	0.15652	0.17606	0.36697	0.10765	0.19612	0.15129	0.15641	0.17018	0.070896	0.0081686	0.20899	0.26551	0.077106	0.21805	0.090391	-0.84792	-1.3792	-1.7521	-1.1938	-1.6167	-1.3083	-1.2979	-1.8646	-1.2062	-1.2729	-1.9708	-1.1042	-1.4146	-1.8	-0.93958	-1.9146	276.769	491.761	311.791	161.435	474.232	481.334	511.934	417.935	498.520	214.418	264.494	377.075	417.729	410.987	206.570	416.493	0.00033713	0.00019488	4.6567e-05	773.9	2.2806e-06	3.2495e-06	1247.4	211.05	3.0487e-06	9.8135e-07	373.72	122.22	61.896	14.482	2.5419e-06	35.161	0.0008412	0.0012408	0.00033668	709.56	1.2233e-05	1.3334e-05	1144.7	192.75	1.2155e-05	1.4025e-05	344.08	112.28	57.446	13.568	1.2441e-05	32.9	184.781	257.717	504.798	169.763	405.133	285.675	168.870	173.374	296.629	321.918	172.347	175.265	177.023	179.061	275.994	177.683	-8191	255	
1542.517	1	1	0	0	0.27421	0.057311	0.25714	0.29855	0.166	0.22042	0.1157	0.3275	0.15037	0.28269	0.092193	0.13762	0.12851	0.21099	0.2447	0.091755	-0.87708	-1.1271	-1.7667	-1.1646	-1.3771	-1.5458	-1.125	-1.8687	-1.4125	-1.1354	-1.7708	-1.1479	-1.3833	-1.8083	-0.95208	-1.8062	473.220	185.345	472.177	488.080	227.462	381.410	429.360	439.807	416.637	437.998	497.418	494.776	277.232	415.021	329.548	209.160	0.00040731	0.00037365	0.00012711	794.86	1.4888e-06	4.4721e-06	1263.3	212.5	3.9968e-06	3.1591e-06	368.86	117	58.978	12.57	4.296e-06	30.814	0.00082317	0.0012044	0.00031481	725.46	1.105e-05	1.2644e-05	1158.4	194.01	1.0573e-05	1.1914e-05	339.2	107.91	54.404	11.769	1.1017e-05	28.911	180.763	240.816	241.183	169.481	327.435	300.284	168.789	173.387	281.368	282.852	172.336	175.291	177.044	179.465	268.968	179.515	-8191	255	
1542.636	1	1	0	0	0.10216	0.033316	0.16077	0.14479	0.12363	0.11475	0.19508	0.18205	0.049746	0.26297	0.23371	0.085403	0.28166	0.35653	0.058767	0.15094	-1.0229	-1.0938	-2.0042	-1.3438	-1.4188	-1.6771	-1.2208	-1.95	-1.4646	-0.89375	-2.0396	-1.2333	-1.2604	-1.9146	-1.2833	-1.7479	388.872	364.364	278.206	479.028	314.929	286.434	500.508	354.206	455.822	391.827	310.395	356.301	363.019	354.549	395.443	293.403	0.00033445	0.00051642	0.00013541	783.42	4.0704e-06	1.9573e-06	1241.1	203.11	2.8627e-06	3.5361e-06	358.66	109.11	54.766	11.242	1.7135e-06	27.644	0.00069986	0.00097078	0.00027354	716.3	1.0289e-05	1.1291e-05	1134.3	186.38	9.5157e-06	1.134e-05	326.74	100.11	50.769	10.509	1.03e-05	25.899	169.196	255.994	250.555	169.619	290.954	275.453	168.475	173.297	241.655	275.063	172.353	175.405	177.332	180.505	292.801	180.121	-8191	255	
1542.732	1	1	0	0	0.054959	0.11931	0.14016	0.29059	0.32586	0.24809	0.25095	0.22781	0.26778	0.35337	0.13379	0.29597	0.096846	0.1667	0.034671	0.091759	-1.2875	-1.0104	-1.8625	-1.2708	-1.2583	-1.8708	-1.1313	-1.8271	-1.6708	-0.87083	-1.8125	-1.3104	-1.2708	-1.8542	-1.0604	-1.5312	343.329	342.869	382.185	445.005	314.319	406.067	473.516	446.923	199.347	325.239	341.787	166.992	438.645	422.063	313.453	464.496	0.00028941	0.0006536	0.00010821	767.41	3.6768e-06	5.0756e-06	1212	198.4	1.7377e-06	2.903e-06	351.26	106.93	54.043	10.884	4.2817e-06	27.262	0.00065695	0.0010321	0.00027815	700.86	1.0129e-05	1.1176e-05	1111.8	182.35	1.0337e-05	1.1499e-05	322.05	97.533	49.992	10.179	1.0679e-05	25.335	189.295	230.634	272.180	169.317	273.286	321.138	169.006	173.606	284.056	351.703	172.189	175.419	177.461	181.099	281.723	180.196	-8191	255	
1542.828	1	1	0	0	0.15269	0.23633	0.1682	0.52251	0.26781	0.22076	0.14984	0.3381	0.23156	0.18677	0.24569	0.10667	0.026517	0.31014	0.19415	0.16828	-1.3312	-1.1562	-1.8125	-1.5771	-1.0667	-1.8292	-1.2167	-1.5479	-1.7167	-0.92083	-1.8125	-1.4458	-1.1021	-1.7458	-1.1292	-1.4396	381.483	155.979	208.728	459.009	501.951	208.633	452.638	411.497	205.719	474.727	453.534	352.136	266.634	447.763	167.850	508.648	0.00031607	0.00031753	0.00012705	770.38	3.5594e-06	2.7947e-06	1224.5	201.17	2.2862e-06	8.2404e-06	354.23	107.28	53.958	10.856	3.5511e-06	27.156	0.0006879	0.0010243	0.00028106	705.57	1.0623e-05	1.1222e-05	1118.4	183.98	9.8633e-06	1.1868e-05	324.17	98.134	50.235	10.149	1.0841e-05	25.351	180.706	177.411	245.743	169.355	277.970	249.293	168.575	173.663	320.074	295.337	172.710	175.819	177.544	181.339	279.134	180.288	-8191	255	
1542.949	1	1	0	0	0.1481	0.018738	0.19859	0.25936	0.11194	0.11819	0.24507	0.20862	0.18706	0.2409	0.046023	0.26653	0.25338	0.056906	0.31878	0.44182	-1.2833	-0.90417	-1.8479	-1.7375	-1.0125	-1.7021	-1.4625	-1.5333	-1.8062	-0.96042	-1.8563	-1.8729	-0.94583	-1.7188	-1.1854	-1.2583	235.438	291.377	409.564	467.511	362.344	249.895	385.993	478.290	361.256	379.496	494.652	428.590	408.094	296.607	488.404	440.835	0.00030806	0.00037228	4.0438e-05	782.72	2.8705e-06	1.1962e-06	1234.5	202.66	3.0824e-06	1.8875e-06	353.64	107.31	54.919	10.776	6.0943e-06	27.053	0.00070927	0.0010285	0.00029049	713.81	1.1079e-05	1.128e-05	1131.5	185.18	1.0094e-05	1.152e-05	326	98.593	50.581	10.157	1.0476e-05	25.203	175.636	243.689	249.195	169.520	243.447	256.063	168.856	173.684	313.387	304.695	172.671	176.228	177.269	181.771	334.507	180.661	-8191	255	
#DATA ENDS
