BOXY.EXE: ISS Imagent and Oximeter Data Acquisition Program Version 0.80
Ascii Record File

#ACQ INFORMATION
2  Detector Channels 
16  External MUX Channels 
1  Auxiliary Channels 
5000  Waveform (CCF) Frequency (Hz)
1  Waveforms Skipped 
30  Waveforms Averaged 
1  Cycles Averaged 
16  Acquisitions per Waveform 
10.0806  Updata Rate (Hz) 

#FILE INFORMATION
TRUE -- External MUX Channel results are PARSED.
FALSE -- AC DC and Phase are NOT grouped.
TRUE -- Companion Program Settings File CREATED.
FALSE -- AC data not excluded
FALSE -- DC data not excluded
FALSE -- Phase data not excluded
FALSE -- Auxillary Chn. data not excluded
Tab delimiters

#CALIBRATION STATE
TRUE -- Waveform Calibration Values APPLIED.


#AUX CALIBRATION VALUES
Val Type	aux-1	

Term	1.0000e+00	
Factor	0.0000e+00	


#WF CALIBRATION VALUES
A = Detector Channel
Val Type	A-AC1	A-AC2	A-AC3	A-AC4	A-AC5	A-AC6	A-AC7	A-AC8	A-AC9	A-AC10	A-AC11	A-AC12	A-AC13	A-AC14	A-AC15	A-AC16	A-DC1	A-DC2	A-DC3	A-DC4	A-DC5	A-DC6	A-DC7	A-DC8	A-DC9	A-DC10	A-DC11	A-DC12	A-DC13	A-DC14	A-DC15	A-DC16	A-Ph1	A-Ph2	A-Ph3	A-Ph4	A-Ph5	A-Ph6	A-Ph7	A-Ph8	A-Ph9	A-Ph10	A-Ph11	A-Ph12	A-Ph13	A-Ph14	A-Ph15	A-Ph16	

Term	0.00000e+00	0.00000e+00	0.00000e+00	0.00000e+00	0.00000e+00	0.00000e+00	0.00000e+00	0.00000e+00	0.00000e+00	0.00000e+00	0.00000e+00	0.00000e+00	0.00000e+00	0.00000e+00	0.00000e+00	0.00000e+00	0.00000e+00	0.00000e+00	0.00000e+00	0.00000e+00	0.00000e+00	0.00000e+00	0.00000e+00	0.00000e+00	0.00000e+00	0.00000e+00	0.00000e+00	0.00000e+00	0.00000e+00	0.00000e+00	0.00000e+00	0.00000e+00	0.00000e+00	0.00000e+00	0.00000e+00	0.00000e+00	0.00000e+00	0.00000e+00	0.00000e+00	0.00000e+00	0.00000e+00	0.00000e+00	0.00000e+00	0.00000e+00	0.00000e+00	0.00000e+00	0.00000e+00	0.00000e+00	
Factor	1.00000e+00	1.00000e+00	1.00000e+00	1.00000e+00	1.00000e+00	1.00000e+00	1.00000e+00	1.00000e+00	1.00000e+00	1.00000e+00	1.00000e+00	1.00000e+00	1.00000e+00	1.00000e+00	1.00000e+00	1.00000e+00	1.00000e+00	1.00000e+00	1.00000e+00	1.00000e+00	1.00000e+00	1.00000e+00	1.00000e+00	1.00000e+00	1.00000e+00	1.00000e+00	1.00000e+00	1.00000e+00	1.00000e+00	1.00000e+00	1.00000e+00	1.00000e+00	X	X	X	X	X	X	X	X	X	X	X	X	X	X	X	X	

B = Detector Channel
Val Type	B-AC1	B-AC2	B-AC3	B-AC4	B-AC5	B-AC6	B-AC7	B-AC8	B-AC9	B-AC10	B-AC11	B-AC12	B-AC13	B-AC14	B-AC15	B-AC16	B-DC1	B-DC2	B-DC3	B-DC4	B-DC5	B-DC6	B-DC7	B-DC8	B-DC9	B-DC10	B-DC11	B-DC12	B-DC13	B-DC14	B-DC15	B-DC16	B-Ph1	B-Ph2	B-Ph3	B-Ph4	B-Ph5	B-Ph6	B-Ph7	B-Ph8	B-Ph9	B-Ph10	B-Ph11	B-Ph12	B-Ph13	B-Ph14	B-Ph15	B-Ph16	

Term	0.00000e+00	0.00000e+00	0.00000e+00	0.00000e+00	0.00000e+00	0.00000e+00	0.00000e+00	0.00000e+00	0.00000e+00	0.00000e+00	0.00000e+00	0.00000e+00	0.00000e+00	0.00000e+00	0.00000e+00	0.00000e+00	0.00000e+00	0.00000e+00	0.00000e+00	0.00000e+00	0.00000e+00	0.00000e+00	0.00000e+00	0.00000e+00	0.00000e+00	0.00000e+00	0.00000e+00	0.00000e+00	0.00000e+00	0.00000e+00	0.00000e+00	0.00000e+00	4.69297e+01	-1.27678e+02	-1.27972e+02	-1.88002e+02	-6.67894e+01	-6.28409e+01	-1.55213e+02	-1.62015e+02	-4.91738e+01	-6.38444e+01	-1.70390e+02	-1.71563e+02	-1.84555e+02	-1.77043e+02	-6.69105e+01	-1.49382e+02	
Factor	5.93376e-05	1.60034e-04	4.50777e-05	6.62379e-01	1.71948e-06	1.64504e-06	1.55997e-01	5.34235e-02	2.61917e-06	1.72808e-06	8.14009e-02	2.71226e-02	2.83956e-02	8.73549e-03	1.91468e-06	1.24596e-02	1.85792e-05	3.14846e-05	8.89000e-06	3.50234e-01	3.36969e-07	3.58884e-07	7.79026e-02	2.84634e-02	3.00588e-07	3.56692e-07	4.20802e-02	1.39855e-02	1.51021e-02	4.71687e-03	3.22088e-07	6.51153e-03	X	X	X	X	X	X	X	X	X	X	X	X	X	X	X	X	



#DISTANCE SETTINGS
A = Detector Channel
A-1	A-2	A-3	A-4	A-5	A-6	A-7	A-8	A-9	A-10	A-11	A-12	A-13	A-14	A-15	A-16	

2.5000e+00	3.0000e+00	2.5000e+00	3.0000e+00	2.0000e+00	3.0000e+00	1.5000e+00	3.0000e+00	3.0000e+00	3.0000e+00	3.0000e+00	3.0000e+00	3.0000e+00	3.0000e+00	1.5000e+00	3.0000e+00	

B = Detector Channel
B-1	B-2	B-3	B-4	B-5	B-6	B-7	B-8	B-9	B-10	B-11	B-12	B-13	B-14	B-15	B-16	

1.0000e+01	1.0000e+01	1.0000e+01	1.4400e+00	1.0000e+01	1.0000e+01	1.5100e+00	1.9400e+00	1.0000e+01	1.0000e+01	1.9900e+00	2.4900e+00	2.4100e+00	2.9000e+00	1.0000e+01	2.9800e+00	




#DATA BEGINS
time	group	step	mark	flag	A-AC1	A-AC2	A-AC3	A-AC4	A-AC5	A-AC6	A-AC7	A-AC8	A-AC9	A-AC10	A-AC11	A-AC12	A-AC13	A-AC14	A-AC15	A-AC16	A-DC1	A-DC2	A-DC3	A-DC4	A-DC5	A-DC6	A-DC7	A-DC8	A-DC9	A-DC10	A-DC11	A-DC12	A-DC13	A-DC14	A-DC15	A-DC16	A-Ph1	A-Ph2	A-Ph3	A-Ph4	A-Ph5	A-Ph6	A-Ph7	A-Ph8	A-Ph9	A-Ph10	A-Ph11	A-Ph12	A-Ph13	A-Ph14	A-Ph15	A-Ph16	B-AC1	B-AC2	B-AC3	B-AC4	B-AC5	B-AC6	B-AC7	B-AC8	B-AC9	B-AC10	B-AC11	B-AC12	B-AC13	B-AC14	B-AC15	B-AC16	B-DC1	B-DC2	B-DC3	B-DC4	B-DC5	B-DC6	B-DC7	B-DC8	B-DC9	B-DC10	B-DC11	B-DC12	B-DC13	B-DC14	B-DC15	B-DC16	B-Ph1	B-Ph2	B-Ph3	B-Ph4	B-Ph5	B-Ph6	B-Ph7	B-Ph8	B-Ph9	B-Ph10	B-Ph11	B-Ph12	B-Ph13	B-Ph14	B-Ph15	B-Ph16	aux-1	digaux	

3052.747	1	1	0	256	0.19953	0.194	0.061676	0.12875	0.12402	0.25242	0.32193	0.16346	0.25382	0.0761	0.09154	0.075266	0.14391	0.043036	0.036133	0.11102	-2.6292	-3.0104	-2.4229	-3.3104	-2.8542	-2.4875	-3.3521	-2.4604	-2.9208	-3.0563	-2.4417	-3.4688	-2.7854	-2.7687	-3.2646	-2.5229	118.981	324.062	357.952	105.924	345.788	214.257	341.198	303.257	303.690	124.201	8.063	71.886	63.569	27.864	211.725	354.925	0.00045988	0.00035423	6.0864e-05	1114.3	2.839e-06	3.1038e-06	1195.3	223.69	2.675e-06	3.1942e-06	282.55	78.951	61.312	17.749	2.8877e-06	24.834	0.00024614	0.00023574	6.7786e-05	1097.6	2.8088e-06	2.3978e-06	1183.9	223.76	2.5124e-06	2.6128e-06	283.78	79.55	61.585	18.037	2.319e-06	25.406	321.471	93.922	116.888	16.539	154.320	162.751	16.271	23.737	192.296	167.688	23.521	30.925	31.229	38.299	178.776	37.557	-8191	255	
3052.843	1	1	0	0	0.10165	0.18573	0.19145	0.15648	0.28766	0.19253	0.096232	0.14488	0.10803	0.11296	0.2687	0.12506	0.075339	0.097863	0.076844	0.26879	-2.6917	-3.1479	-2.3417	-3.3229	-2.8229	-2.5646	-3.3917	-2.5812	-2.8271	-3.1708	-2.2167	-3.4021	-2.9625	-2.5292	-3.4104	-2.575	153.814	164.618	152.325	344.733	101.074	240.630	78.344	8.844	314.828	143.228	260.999	37.261	33.979	22.513	26.080	52.189	0.00048476	0.00028501	6.854e-05	1111.3	2.7936e-06	3.2058e-06	1187.4	222.96	5.1337e-06	2.3605e-06	281.72	78.671	61.06	17.668	2.8794e-06	25	0.00025589	0.00021062	6.7545e-05	1094	2.4795e-06	2.6984e-06	1178.2	223.31	2.5187e-06	2.2635e-06	282.33	79.056	61.243	17.987	2.2707e-06	25.343	316.121	82.224	102.248	15.967	169.260	145.279	16.467	23.850	181.220	161.054	23.388	30.822	31.095	38.591	155.078	37.131	-8191	255	
3052.940	1	1	0	0	0.21165	0.041568	0.20858	0.086194	0.023108	0.028027	0.28279	0.14615	0.12739	0.2009	0.21	0.14889	0.19103	0.14913	0.15654	0.057418	-2.3479	-3.2292	-2.3104	-3.1146	-2.8917	-2.4729	-3.5833	-2.6708	-2.6125	-3.2604	-2.5146	-3.1083	-2.9208	-2.3417	-3.2917	-2.6021	316.143	257.270	24.103	329.981	119.576	322.945	280.677	276.884	169.363	45.325	288.113	20.738	290.965	36.773	205.506	320.688	0.00049437	0.00026375	3.9378e-05	1093.8	4.29e-06	2.2405e-06	1184.3	221.59	3.0871e-06	3.6609e-06	283.14	78.257	61.144	17.747	2.1412e-06	24.796	0.00026553	0.00020767	6.0082e-05	1080.2	2.4985e-06	2.4524e-06	1172.9	222.27	2.597e-06	2.2613e-06	282.16	78.87	61.318	18.002	2.1553e-06	25.182	316.351	103.572	115.614	15.826	152.857	181.974	16.407	23.965	184.583	155.979	23.353	30.714	31.241	38.221	167.439	37.135	-8191	255	
3053.036	1	1	0	0	0.10682	0.091112	0.23642	0.22196	0.27249	0.23228	0.15276	0.29856	0.11501	0.055452	0.16072	0.32686	0.085336	0.055072	0.22607	0.2288	-1.9854	-3.375	-2.3458	-2.9771	-2.9604	-1.9688	-3.4333	-2.8896	-2.6125	-3.1667	-2.5146	-2.8625	-3.1104	-2.4292	-3.1375	-2.7188	244.102	244.534	240.106	30.763	296.547	151.989	297.914	197.379	294.743	333.742	273.415	130.753	71.153	332.677	177.589	358.019	0.00053928	0.00019774	4.2426e-05	1096.6	2.1186e-06	3.175e-06	1188.9	222.05	4.8429e-06	2.6977e-06	282.32	77.854	60.855	17.624	4.3539e-06	24.744	0.00027184	0.00019219	6.286e-05	1082.6	2.3096e-06	2.643e-06	1173.1	222.42	2.6226e-06	2.2799e-06	282.26	78.767	61.058	17.963	2.2459e-06	25.217	320.236	122.605	104.231	16.227	139.635	181.569	16.366	23.695	184.741	174.330	23.034	30.868	30.974	37.906	179.972	37.056	-8191	255	
3053.132	1	1	0	0	0.18513	0.094207	0.39421	0.043912	0.061007	0.23204	0.52569	0.20499	0.09816	0.043307	0.16204	0.1834	0.087226	0.14531	0.085303	0.076593	-1.9667	-3.4396	-2.4854	-2.7208	-3.1729	-2.4542	-3.3333	-3.0479	-2.1167	-3.3438	-2.5687	-2.8667	-3.4062	-2.4333	-3.3208	-2.9646	24.311	247.963	113.098	160.175	49.735	98.495	285.453	259.127	267.763	335.290	275.209	7.467	159.189	41.036	27.200	340.350	0.00046993	0.00034439	8.0686e-05	1110.9	2.9117e-06	8.3777e-07	1187.4	224.08	5.5798e-06	2.9396e-06	281.42	78.449	61.496	17.658	2.8092e-06	24.79	0.00027714	0.00020209	6.2508e-05	1091.6	2.3616e-06	2.5114e-06	1175.7	223.14	2.7591e-06	2.1899e-06	282.61	78.846	61.351	17.93	2.262e-06	25.178	325.597	99.977	120.189	16.511	167.217	158.823	16.347	23.875	177.734	163.124	23.161	30.867	31.334	38.396	150.027	37.575	-8191	255	
3053.226	1	1	0	0	0.083933	0.11485	0.15589	0.21568	0.046989	0.14447	0.080108	0.16769	0.09915	0.048246	0.13522	0.19827	0.024523	0.10188	0.052373	0.10546	-2.3479	-3.2896	-2.6646	-2.5583	-3.2167	-2.4354	-3.0667	-3.1292	-2.2542	-3.3083	-2.8354	-2.5854	-3.3646	-2.55	-2.85	-3.2375	94.169	363.969	171.175	325.758	121.714	334.791	92.066	322.982	307.231	257.169	320.895	276.355	284.085	338.414	108.966	188.574	0.00043797	0.00026018	8.3144e-05	1091.3	2.8973e-06	4.6301e-06	1188.2	222.44	5.6122e-06	2.4732e-06	284.85	78.403	61.076	17.671	3.1078e-06	24.801	0.00026266	0.00020006	6.2249e-05	1083.6	2.3784e-06	2.4666e-06	1175.4	222.25	2.8017e-06	2.3854e-06	282.96	78.915	61.283	17.942	2.3331e-06	25.242	321.482	97.878	91.995	16.228	147.993	165.392	16.338	24.102	168.450	152.466	23.106	30.625	30.898	38.162	164.839	36.778	-8191	255	
3053.347	1	1	0	0	0.14446	0.24853	0.26879	0.11162	0.025538	0.22042	0.045251	0.16937	0.024462	0.18456	0.34009	0.12488	0.21801	0.31115	0.12044	0.16044	-2.0687	-3.3542	-2.8146	-2.5542	-3.2687	-2.5375	-3.0875	-3.3708	-2.4646	-3.3083	-3.0146	-2.3563	-3.425	-2.5542	-2.8208	-3.275	201.984	97.772	223.166	321.251	176.438	261.176	11.691	202.707	83.637	96.353	306.328	262.098	350.553	199.880	142.072	175.298	0.00055578	0.00027463	7.9813e-05	1095.8	2.3751e-06	2.5495e-06	1187.2	223.39	5.03e-06	2.2538e-06	281.89	78.61	60.769	17.731	5.4192e-06	24.665	0.00027462	0.00020924	6.749e-05	1080.8	2.2268e-06	2.723e-06	1173.1	222.38	2.8124e-06	2.4292e-06	281.82	78.732	61.007	17.93	2.3902e-06	25.232	316.946	93.432	105.985	16.286	147.608	166.270	16.384	23.862	190.386	144.849	23.404	30.730	31.256	38.214	168.637	37.161	-8191	255	
3053.443	1	1	0	0	0.15838	0.28884	0.24532	0.080785	0.084626	0.47193	0.22487	0.12238	0.081708	0.11191	0.28622	0.057563	0.093511	0.067716	0.13269	0.14911	-1.9875	-3.1729	-2.925	-2.5333	-3.4917	-2.6708	-3.0354	-3.4417	-2.2333	-2.9437	-3.15	-2.3333	-3.4813	-2.6125	-2.5167	-3.3979	306.061	342.100	287.161	33.953	169.448	214.020	267.279	52.847	349.007	229.933	323.237	248.394	149.350	43.270	255.872	179.526	0.00049447	0.00022698	9.1095e-05	1092.9	3.3491e-06	2.749e-06	1188.5	222.51	7.3092e-06	3.1701e-06	280.51	78.471	60.974	17.441	3.5104e-06	24.721	0.00027033	0.00020334	5.923e-05	1083.3	2.2247e-06	2.3754e-06	1174.2	222.27	2.8481e-06	2.3802e-06	281.5	78.804	61.287	17.864	2.411e-06	25.221	311.538	98.926	94.720	15.991	176.254	164.976	16.281	24.253	181.874	153.627	23.119	30.949	31.043	37.897	172.172	37.543	-8191	255	
3053.539	1	1	0	0	0.049214	0.12301	0.10078	0.13564	0.20848	0.35151	0.34458	0.19932	0.12423	0.18336	0.063132	0.11646	0.11734	0.17614	0.16433	0.24408	-2.0271	-2.9875	-3.1083	-2.4729	-3.3312	-2.5187	-2.6375	-3.3896	-2.4146	-2.9771	-3.1042	-2.4479	-3.1312	-2.7438	-2.5458	-3.5458	333.667	144.130	74.051	148.819	57.233	125.050	10.971	10.630	362.918	99.603	95.512	352.129	33.214	344.223	91.682	8.400	0.00052749	0.00035743	9.8627e-05	1097.9	3.0549e-06	2.5215e-06	1183.4	222.9	4.821e-06	2.1481e-06	281.67	78.428	61.278	17.638	3.065e-06	24.668	0.0002771	0.00021541	5.8933e-05	1080.7	2.4493e-06	2.3656e-06	1173.6	222.49	2.6997e-06	2.4575e-06	282.07	78.741	61.243	17.964	2.4479e-06	25.2	313.350	115.440	90.303	15.833	162.965	160.202	16.239	23.850	196.105	190.693	23.217	30.833	31.096	37.773	157.496	37.566	-8191	255	
3053.611	1	1	0	0	0.20023	0.21209	0.040937	0.07802	0.095772	0.086465	0.30272	0.15812	0.14384	0.13163	0.057721	0.1209	0.15758	0.12246	0.22592	0.16992	-2.2542	-2.9521	-3.0979	-2.05	-3.2	-2.7542	-2.7958	-3.5396	-2.6271	-2.975	-3.4167	-2.3958	-3.1729	-2.7729	-2.275	-3.3208	202.385	190.990	84.966	98.846	314.481	300.216	293.802	343.803	357.251	42.446	213.937	321.197	237.108	86.597	62.705	248.040	0.00044954	0.00018215	6.9017e-05	1087.1	1.8417e-06	2.5223e-06	1181.2	223.19	3.0723e-06	2.4721e-06	281.56	78.202	60.63	17.688	2.4682e-06	24.836	0.00026549	0.00021862	5.9063e-05	1080	2.3581e-06	2.2722e-06	1171.2	222.34	2.7272e-06	2.3088e-06	281.63	78.473	60.986	17.918	2.627e-06	25.189	316.592	75.066	114.379	16.007	174.470	156.589	16.312	24.006	187.380	157.780	23.229	30.512	30.910	37.927	151.497	36.963	-8191	255	
3053.731	1	1	0	0	0.24329	0.13933	0.11381	0.11728	0.14081	0.19569	0.25915	0.0067364	0.024177	0.21701	0.20916	0.13663	0.11561	0.13418	0.19461	0.28307	-2.2896	-2.625	-3.2896	-2.1937	-3.0312	-3.0417	-2.5958	-3.4479	-2.6063	-2.6271	-3.4479	-2.3833	-3.1125	-3.2771	-2.0771	-3.3271	49.238	23.510	44.736	83.335	12.252	229.537	275.525	126.404	143.890	14.092	10.528	253.051	303.420	269.751	303.932	361.978	0.00051336	0.00020567	7.4098e-05	1092	3.8514e-06	3.4689e-06	1184.8	222.65	4.1815e-06	1.8101e-06	283.2	78.401	60.889	17.57	2.3867e-06	24.504	0.00028078	0.00023456	5.5544e-05	1081.2	2.4002e-06	2.3058e-06	1173.1	222.39	2.674e-06	2.398e-06	282.21	78.653	61.079	17.894	2.6217e-06	25.118	322.915	100.405	93.767	16.336	171.994	166.826	15.970	23.773	186.819	161.200	23.489	30.628	31.173	37.905	168.524	37.886	-8191	255	
3053.828	1	1	0	0	0.15639	0.25184	0.056519	0.1043	0.10549	0.12776	0.21147	0.083576	0.20617	0.2689	0.089762	0.29327	0.072248	0.13752	0.17666	0.22187	-2.3375	-2.5375	-3.425	-2.4979	-2.7687	-3.1708	-2.8312	-3.3229	-2.7771	-2.5646	-3.3063	-2.3625	-2.9646	-3.0833	-2.3167	-3.1646	63.980	319.547	299.148	289.762	33.828	321.796	337.705	135.970	193.107	28.498	176.506	24.042	114.657	55.203	243.817	246.389	0.00052254	0.00026014	5.2518e-05	1097.9	2.3897e-06	2.3526e-06	1182.8	223.24	3.583e-06	2.3652e-06	280.47	78.492	61.156	17.698	3.8607e-06	24.903	0.00027265	0.00022807	5.4322e-05	1081.1	2.3812e-06	2.2632e-06	1172.1	222.6	2.4348e-06	2.5905e-06	281.75	78.592	61.243	17.934	2.468e-06	25.155	315.008	105.380	98.614	15.941	157.172	158.460	16.151	23.994	165.120	166.800	23.116	30.382	31.241	37.826	162.622	36.856	-8191	255	
3053.924	1	1	0	0	0.2159	0.15872	0.18375	0.15447	0.12001	0.20431	0.12243	0.15864	0.1935	0.23422	0.20075	0.14027	0.20618	0.089109	0.20189	0.26091	-2.5833	-2.4729	-3.2417	-2.5375	-2.8125	-3.4104	-2.7979	-3.025	-2.9938	-2.5479	-3.5625	-2.6896	-2.8583	-3.3146	-2.5042	-3.1083	55.893	136.344	324.199	181.375	313.489	209.740	21.077	143.444	241.566	97.996	117.257	9.643	133.956	111.391	177.965	274.223	0.00048689	0.00019152	0.0001327	1102.5	3.0505e-06	2.4942e-06	1186.6	223.47	4.8193e-06	4.0206e-06	282.83	77.978	60.477	17.541	3.1152e-06	24.632	0.00026371	0.0002221	5.5766e-05	1085.3	2.3321e-06	2.1339e-06	1172.1	222.59	2.5362e-06	2.3438e-06	281.81	78.47	61.126	17.895	2.5331e-06	25.13	319.209	104.775	75.623	16.259	163.121	143.145	16.386	23.990	164.495	156.096	23.501	30.515	30.780	38.220	153.488	37.884	-8191	255	
3054.020	1	1	0	0	0.088122	0.24804	0.10914	0.23446	0.13481	0.046971	0.25191	0.085856	0.1689	0.11659	0.33429	0.1249	0.088849	0.16194	0.20926	0.19106	-2.6625	-2.1958	-3.3521	-2.6312	-2.6042	-3.2896	-2.4562	-3.1229	-3.1	-2.3771	-3.5667	-2.6792	-2.3979	-3.4208	-2.4021	-2.8375	303.444	284.601	76.038	40.767	108.871	343.430	317.461	349.523	94.610	309.520	365.884	12.482	16.509	75.312	312.215	27.818	0.00051761	0.00026106	8.1537e-05	1085.1	2.7619e-06	3.2483e-06	1178.9	223.9	4.1492e-06	2.8474e-06	281.85	78.458	60.743	17.581	2.3603e-06	24.73	0.00024977	0.00023915	5.6063e-05	1080.5	2.2373e-06	2.3253e-06	1170.6	222.51	2.3239e-06	2.5905e-06	281.63	78.651	60.984	17.884	2.5465e-06	25.156	319.785	101.418	119.621	16.206	152.754	164.818	16.405	24.377	206.209	170.383	23.438	30.356	31.383	37.992	181.977	37.189	-8191	255	
3054.139	1	1	0	0	0.094246	0.17325	0.1042	0.33848	0.24984	0.10142	0.19853	0.10819	0.097805	0.099578	0.2343	0.14392	0.059391	0.14604	0.23566	0.053996	-2.7083	-2.3688	-3.2375	-2.9146	-2.4958	-3.3812	-2.6083	-3.0708	-3.2417	-2.2021	-3.2938	-3.0958	-2.5896	-3.2896	-2.5563	-2.8	66.153	282.327	62.794	208.149	222.320	255.591	35.706	99.319	307.330	351.097	47.468	256.585	81.172	173.432	317.470	347.793	0.00046717	0.0002879	6.3113e-05	1092.7	2.7147e-06	2.1453e-06	1186.4	222.27	4.6315e-06	2.4894e-06	282.5	78.198	61.409	17.707	2.206e-06	24.739	0.00025206	0.00023226	5.1581e-05	1081.1	2.5933e-06	2.1555e-06	1172	221.93	2.3396e-06	2.5065e-06	281.68	78.616	61.355	17.901	2.2774e-06	25.142	320.897	115.453	71.163	15.877	160.099	168.544	16.237	24.316	171.592	155.053	23.344	30.790	31.017	38.070	144.286	37.327	-8191	255	
3054.212	1	1	0	0	0.24859	0.17298	0.083751	0.12007	0.20926	0.14548	0.13956	0.18865	0.18324	0.14207	0.081953	0.13379	0.26611	0.065189	0.32518	0.10622	-2.9729	-2.5792	-3.1146	-3.1188	-2.6479	-3.3646	-2.8729	-2.9542	-3.3458	-2.4354	-3.0771	-3.2021	-2.5417	-3.3125	-2.5812	-2.7479	112.902	77.281	283.221	210.201	227.734	219.127	333.950	25.630	350.979	59.432	97.887	212.278	71.272	239.170	305.575	232.094	0.00048564	0.00035786	5.7712e-05	1090.9	3.3692e-06	2.9997e-06	1176	223.62	2.7456e-06	3.8012e-06	282.76	78.141	60.839	17.574	4.5482e-06	24.643	0.00023452	0.00023167	5.7896e-05	1082.9	2.5399e-06	2.1339e-06	1167.5	222.5	2.3064e-06	2.5734e-06	281.63	78.445	61.087	17.893	2.4854e-06	25.163	322.965	108.968	92.301	16.148	143.866	181.915	16.289	23.855	209.698	176.622	23.417	30.603	30.969	37.792	152.837	37.155	-8191	255	
3054.308	1	1	0	0	0.24228	0.076965	0.15509	0.12445	0.20221	0.12635	0.14402	0.21756	0.25919	0.14671	0.12075	0.17678	0.14048	0.1319	0.31387	0.13906	-2.9896	-2.4167	-2.7875	-3.2875	-2.3104	-3.4542	-2.9854	-2.6146	-3.2958	-2.3354	-3.0542	-3.2479	-2.4813	-3.4	-2.5125	-2.3958	256.952	255.156	282.892	241.004	299.509	99.570	249.462	327.689	98.943	278.615	357.631	247.019	293.416	220.885	290.039	355.355	0.00049296	0.00034871	8.5847e-05	1093.6	3.5373e-06	2.7893e-06	1179.9	222.7	4.555e-06	3.2701e-06	280.78	78.067	60.798	17.627	3.673e-06	24.867	0.00025806	0.00024663	5.9359e-05	1080.8	2.4311e-06	1.9896e-06	1169.5	222.21	2.2481e-06	2.4463e-06	281.65	78.631	61.195	17.934	2.1969e-06	25.253	319.009	110.944	114.552	16.376	154.456	179.330	16.135	23.905	213.455	150.518	23.273	30.927	31.298	38.136	170.537	37.317	-8191	255	
3054.427	1	1	0	0	0.109	0.34429	0.25607	0.1567	0.15862	0.28821	0.20982	0.21462	0.26489	0.12083	0.19959	0.30249	0.078913	0.037382	0.27023	0.1125	-2.8625	-2.2771	-2.8875	-3.0229	-2.3042	-3.0833	-3.0625	-2.3896	-3.2667	-2.6083	-2.8042	-3.3333	-2.3604	-3.1708	-2.8375	-2.2833	103.981	40.625	339.293	255.655	101.908	19.772	267.527	350.155	102.577	286.837	324.678	22.498	300.192	7.707	117.867	330.561	0.00046034	0.00034617	0.00012417	1096.6	3.1655e-06	3.591e-06	1181.9	222.3	4.8011e-06	3.2137e-06	279.82	77.568	60.69	17.633	3.3113e-06	24.72	0.00024401	0.00023718	6.0545e-05	1079.1	2.6775e-06	2.1585e-06	1168.7	221.91	2.26e-06	2.32e-06	280.77	78.468	60.979	17.9	2.2607e-06	25.116	317.226	94.914	105.183	15.952	161.134	156.509	16.152	24.108	194.784	159.827	23.636	30.586	31.288	38.401	185.347	37.078	-8191	255	
3054.523	1	1	0	0	0.080251	0.34215	0.13812	0.089434	0.098219	0.25376	0.06736	0.094446	0.25965	0.067324	0.26232	0.17358	0.14373	0.10006	0.12139	0.48142	-2.8229	-2.5354	-2.5729	-3.1771	-2.35	-2.9813	-3.2625	-2.3979	-3.2562	-2.6542	-2.4417	-3.3833	-2.3312	-2.9646	-3.0417	-2.4562	174.304	320.117	243.559	207.453	338.364	44.377	54.433	256.126	76.685	259.116	294.151	235.552	319.240	283.364	89.468	330.410	0.00049895	0.00036187	8.0596e-05	1093.2	3.1359e-06	2.4565e-06	1182.9	221.47	2.5207e-06	3.9481e-06	281.18	78.009	60.339	17.534	3.7885e-06	24.455	0.00025558	0.00022157	6.2582e-05	1077.4	2.5911e-06	2.3253e-06	1169.1	221.52	2.3327e-06	2.375e-06	281.34	78.365	61.085	17.865	2.101e-06	25.069	311.022	82.656	98.917	16.533	168.979	173.275	16.031	24.150	189.417	154.707	23.139	30.450	31.101	37.899	153.229	37.107	-8191	255	
3054.620	1	1	0	0	0.17697	0.057562	0.16655	0.15943	0.14941	0.12148	0.23303	0.10591	0.096582	0.076701	0.17995	0.011689	0.25649	0.33303	0.18839	0.24469	-2.9083	-2.4833	-2.2812	-3.4	-2.3042	-2.8875	-3.3688	-2.2583	-3.125	-2.8854	-2.6292	-3.4604	-2.5062	-2.7833	-3.1063	-2.4979	241.523	231.785	275.443	180.311	72.977	266.549	329.709	7.920	286.836	206.001	35.171	96.783	303.664	270.820	275.477	321.229	0.00053786	0.00029918	8.0456e-05	1090.6	3.4155e-06	1.7846e-06	1182.6	222.73	5.2785e-06	2.1927e-06	281.93	78.605	60.837	17.666	4.3884e-06	24.693	0.0002598	0.00021541	6.2637e-05	1079.3	2.5631e-06	2.2318e-06	1169.5	221.78	2.3051e-06	2.4441e-06	281.13	78.591	60.894	17.886	2.1902e-06	25.094	323.146	103.687	95.577	16.635	167.787	174.294	16.323	24.039	178.549	145.963	23.577	31.155	31.243	38.237	163.624	37.077	-8191	255	
3054.740	1	1	0	0	0.21302	0.012319	0.20381	0.037795	0.16181	0.13221	0.20145	0.18147	0.10702	0.27143	0.11762	0.047896	0.1848	0.24469	0.19317	0.28274	-2.8042	-2.925	-2.1562	-3.1937	-2.4437	-2.85	-3.5583	-2.4292	-3.2104	-3.0771	-2.45	-3.2042	-2.6167	-2.4229	-3.125	-2.4	147.681	181.563	22.728	284.917	115.370	238.916	247.963	319.324	344.005	167.785	21.316	280.746	312.745	280.285	26.250	292.283	0.00043652	0.00021657	7.0099e-05	1082.7	2.7824e-06	2.2061e-06	1182.3	221.94	4.8503e-06	3.464e-06	284.57	78.117	60.601	17.749	4.1608e-06	24.822	0.00024993	0.0002038	6.5842e-05	1078.5	2.5904e-06	2.4277e-06	1171.7	221.61	2.349e-06	2.288e-06	282.67	78.576	60.968	17.921	2.0949e-06	25.158	319.118	109.958	114.063	16.046	163.400	187.391	16.367	23.695	196.839	150.658	23.353	30.811	31.326	37.976	156.241	37.358	-8191	255	
3054.836	1	1	0	0	0.22523	0.10027	0.13112	0.038606	0.17424	0.1753	0.11446	0.086632	0.046372	0.17222	0.20624	0.20806	0.18108	0.032377	0.019809	0.24555	-2.6104	-2.8083	-2.3354	-3.1437	-2.5833	-2.5229	-3.4833	-2.4458	-2.9271	-3.1958	-2.5396	-3.4083	-2.6979	-2.5854	-3.3875	-2.3896	145.328	261.404	209.427	363.201	87.167	156.187	27.653	18.721	31.201	160.323	214.707	269.024	223.785	208.414	139.181	287.833	0.00050765	0.0003011	5.5156e-05	1094.1	3.3362e-06	2.241e-06	1181.6	222.98	4.0931e-06	1.9446e-06	282.59	77.901	61.547	17.697	3.7011e-06	24.798	0.00025883	0.00020957	6.0822e-05	1082.7	2.5764e-06	2.4748e-06	1172.7	222.05	2.473e-06	2.1654e-06	282.14	78.559	61.386	17.973	2.1459e-06	25.222	319.422	94.836	104.764	16.175	167.383	197.635	16.492	24.023	196.069	160.813	23.684	31.048	31.031	38.212	145.823	37.089	-8191	255	
3054.908	1	1	0	0	0.050181	0.39264	0.22149	0.24011	0.10128	0.096717	0.3196	0.28999	0.13972	0.21093	0.18178	0.12646	0.18469	0.25879	0.14954	0.048607	-2.5563	-3.0167	-2.325	-3.1167	-2.7542	-2.4437	-3.3812	-2.5083	-2.8438	-3.3229	-2.4875	-3.1208	-2.9354	-2.3583	-3.0854	-2.5458	350.775	63.427	14.345	293.267	199.428	149.702	292.012	357.144	29.303	26.575	332.273	353.690	134.969	49.534	329.552	17.354	0.00047857	0.00034626	7.4375e-05	1092.5	2.5419e-06	2.7521e-06	1185.6	223.21	5.1434e-06	1.5015e-06	282.5	78.263	61.041	17.669	3.3528e-06	24.732	0.0002545	0.00020334	6.286e-05	1083.5	2.3756e-06	2.6064e-06	1175.8	222.29	2.679e-06	2.421e-06	281.92	78.682	61.278	17.972	2.2868e-06	25.211	322.062	67.850	93.776	16.649	156.023	154.400	16.476	23.888	190.235	173.831	23.632	31.209	31.025	37.994	167.294	37.432	-8191	255	
3055.029	1	1	0	0	0.13724	0.17943	0.21394	0.18943	0.17138	0.10093	0.21955	0.25549	0.19403	0.091995	0.15653	0.38011	0.056203	0.10865	0.029521	0.065451	-2.3271	-3.1292	-2.4708	-3.0396	-2.9708	-2.2792	-3.3667	-2.6792	-2.3708	-3.2	-2.4604	-2.9708	-3.0479	-2.1688	-3.3979	-2.8854	313.613	212.443	70.816	260.913	335.440	65.661	285.610	311.213	175.456	226.586	293.533	352.171	6.497	120.732	259.447	68.163	0.00044852	0.00033875	8.2223e-05	1097.8	2.4113e-06	3.6841e-06	1189.5	222.59	4.0192e-06	2.4442e-06	281.07	78.051	61.011	17.743	4.337e-06	24.979	0.00025922	0.00021816	6.1785e-05	1087.3	2.3602e-06	2.3746e-06	1175.6	222.55	2.4072e-06	2.1892e-06	281.21	78.66	61.11	17.999	2.2305e-06	25.235	317.945	98.146	105.221	16.364	162.573	175.177	16.576	23.612	205.644	157.028	23.166	30.884	30.947	38.066	151.517	37.510	-8191	255	
3055.123	1	1	0	0	0.17161	0.12666	0.26789	0.071634	0.16376	0.12837	0.33045	0.13975	0.061254	0.10272	0.40181	0.35887	0.17188	0.2004	0.14252	0.07434	-2.0896	-3.2062	-2.2229	-2.9146	-3.1333	-2.5229	-3.3917	-2.6875	-2.5	-3.3146	-2.4625	-2.8563	-3.1625	-2.1354	-3.1063	-2.8146	365.750	30.210	282.091	327.885	360.195	84.065	315.905	345.212	225.160	259.110	347.154	272.146	289.255	345.216	58.457	360.461	0.00048639	0.00041025	6.6633e-05	1099.5	2.3728e-06	2.7465e-06	1189.1	222.19	5.2555e-06	1.8772e-06	283.6	78.397	61.03	17.691	4.1372e-06	24.586	0.00025964	0.0002097	6.5916e-05	1084	2.4093e-06	2.4995e-06	1176.7	222.53	2.7886e-06	2.2226e-06	282.33	78.794	61.189	17.988	2.4183e-06	25.184	321.142	89.588	96.160	16.410	159.418	161.842	16.455	23.851	171.784	175.441	23.194	31.394	30.848	37.908	174.357	36.950	-8191	255	
3055.219	1	1	0	0	0.09761	0.10077	0.25349	0.098109	0.16498	0.20438	0.14047	0.058009	0.05598	0.18851	0.085016	0.21636	0.085805	0.13799	0.16699	0.088978	-2.0771	-3.2917	-2.3438	-2.7375	-3.1583	-2.2708	-3.3312	-3.0833	-2.2604	-3.1146	-2.7687	-2.6937	-3.3563	-2.3271	-3.075	-2.8688	7.472	261.683	281.492	157.323	36.409	30.764	301.131	261.690	135.095	335.164	165.260	98.729	75.451	309.252	289.394	273.331	0.00049214	0.00035052	8.2622e-05	1090.5	3.3679e-06	2.5977e-06	1184.5	223.51	3.3008e-06	3.3938e-06	282.49	78.552	60.729	17.615	4.9012e-06	24.834	0.0002723	0.00019665	6.2656e-05	1087.6	2.4816e-06	2.5346e-06	1176.4	222.67	2.6727e-06	2.398e-06	282.6	78.827	61.198	17.953	2.4707e-06	25.22	317.008	95.821	97.405	15.972	150.177	138.198	16.587	24.019	179.179	187.284	23.536	30.948	31.567	38.110	169.213	37.641	-8191	255	
3055.315	1	1	0	0	0.03419	0.42196	0.24718	0.037686	0.22156	0.17155	0.23201	0.21626	0.31078	0.19306	0.33915	0.058269	0.027707	0.058669	0.071279	0.043854	-2.0625	-3.3438	-2.8917	-2.5146	-3.2729	-2.4417	-3.2042	-3.2938	-2.35	-3.3187	-2.7625	-2.5667	-3.3667	-2.3583	-2.7687	-3.1854	355.492	267.395	318.505	33.346	72.625	123.889	323.622	230.043	201.101	152.451	96.213	332.966	256.293	279.363	21.899	104.280	0.00045127	0.0002732	8.7048e-05	1099.8	3.2674e-06	2.7501e-06	1188.9	223.43	6.6334e-06	3.0116e-06	281.4	78.523	61.213	17.748	3.8728e-06	24.977	0.00026402	0.00021436	6.0193e-05	1085.5	2.3139e-06	2.3627e-06	1176	222.77	2.8268e-06	2.4433e-06	282	78.834	61.33	18.001	2.3533e-06	25.229	319.775	86.437	87.609	16.060	177.908	165.942	16.425	23.717	177.819	162.235	23.477	30.934	31.106	37.921	157.970	37.179	-8191	255	
3055.436	1	1	0	0	0.23014	0.038935	0.061112	0.098839	0.098844	0.15973	0.32462	0.18085	0.1765	0.077833	0.33392	0.23326	0.032325	0.17831	0.23779	0.17756	-1.8125	-3.2271	-2.7646	-2.5146	-3.1562	-2.5271	-3.1333	-3.3375	-2.3854	-3.2021	-3.0646	-2.5062	-3.5396	-2.475	-2.8042	-3.5167	289.803	120.253	15.805	26.231	320.132	357.975	318.620	261.246	259.198	88.257	290.249	75.661	126.529	171.185	246.949	74.156	0.00048342	0.00033584	7.2155e-05	1092.8	2.7702e-06	1.8771e-06	1188.6	222.63	5.0206e-06	3.7644e-06	282.05	78.632	60.854	17.71	2.6624e-06	24.843	0.00026781	0.00022859	5.7766e-05	1084.5	2.1601e-06	2.486e-06	1177.1	222.5	2.6527e-06	2.4426e-06	281.69	78.84	61.124	17.975	2.3143e-06	25.295	316.022	116.083	88.457	16.093	172.302	169.222	16.467	23.887	187.761	114.324	23.462	30.574	30.913	38.228	191.482	37.437	-8191	255	
3055.508	1	1	0	0	0.056504	0.18666	0.22076	0.058124	0.1791	0.12926	0.04229	0.21833	0.2215	0.16251	0.22088	0.057845	0.23361	0.10239	0.27051	0.28062	-1.8438	-3.3292	-2.8354	-2.2875	-3.3917	-2.5563	-3.0146	-3.4333	-2.5417	-3.1708	-3.0021	-2.4813	-3.3958	-2.8	-2.5021	-3.2104	316.297	74.421	280.122	201.402	275.314	309.840	70.086	75.430	26.334	66.806	135.347	265.601	299.723	56.569	155.902	83.957	0.0005074	0.00019544	6.4812e-05	1114.3	1.7151e-06	1.9823e-06	1192.9	223.19	4.5971e-06	2.9134e-06	282.06	78.381	60.798	17.771	2.2421e-06	24.629	0.00027548	0.0002156	6.1674e-05	1095.7	2.217e-06	2.2176e-06	1177.8	223.02	2.5594e-06	2.3876e-06	281.68	78.908	61.18	18.008	2.5143e-06	25.213	316.069	105.982	101.954	16.388	132.439	152.929	16.661	23.933	177.191	159.113	23.436	31.371	30.978	37.810	183.949	37.384	-8191	255	
3055.604	1	1	0	0	0.32904	0.10478	0.1772	0.072031	0.14539	0.22227	0.12184	0.10721	0.19587	0.061033	0.083277	0.35797	0.20065	0.14915	0.096833	0.053236	-1.8833	-3.0333	-3.0438	-2.4396	-3.2729	-2.825	-2.6875	-3.4938	-2.5646	-2.9667	-3.2896	-2.5042	-3.2333	-2.7417	-2.4646	-3.4313	310.098	239.620	24.767	268.059	134.699	311.590	285.164	158.045	35.417	311.908	68.657	325.283	151.064	67.907	272.313	240.977	0.00044342	0.00023136	8.2799e-05	1096.6	2.1831e-06	2.9756e-06	1188.3	223.07	5.3555e-06	1.9328e-06	283.17	78.424	61.442	17.704	5.1414e-06	24.848	0.00025879	0.00021974	5.7526e-05	1085	2.2366e-06	2.1406e-06	1178.5	222.47	2.508e-06	2.3378e-06	283.26	78.8	61.408	17.992	2.5901e-06	25.235	320.035	100.344	102.708	16.106	143.987	190.913	16.233	23.785	217.038	159.218	23.148	30.228	30.973	37.747	159.505	37.005	-8191	255	
3055.700	1	1	0	0	0.11804	0.1564	0.17135	0.14735	0.34647	0.12792	0.32353	0.20845	0.055063	0.12434	0.13152	0.15286	0.078958	0.063277	0.12128	0.11425	-2.1896	-2.7167	-3.3271	-2.3479	-3.2417	-2.8146	-2.4188	-3.4792	-2.7271	-2.6083	-3.3479	-2.4354	-3.0146	-3.1458	-2.4875	-3.3	19.360	333.394	145.010	102.922	275.758	275.544	286.831	338.353	146.988	204.645	296.898	212.687	224.795	276.359	231.320	217.625	0.00047363	0.0003064	7.5051e-05	1099.4	2.1347e-06	4.3293e-06	1187.8	222.52	3.8937e-06	3.8498e-06	284.27	78.358	61.194	17.631	4.2071e-06	24.653	0.00026777	0.00021895	5.3784e-05	1086.6	2.2352e-06	2.4113e-06	1176.5	222.57	2.6765e-06	2.2799e-06	282.49	78.69	61.503	17.991	2.6814e-06	25.234	318.985	127.472	96.559	16.165	174.217	162.992	16.344	23.615	166.002	160.621	23.111	30.533	30.925	38.250	145.748	37.330	-8191	255	
3055.821	1	1	0	0	0.27124	0.4221	0.15446	0.23275	0.13626	0.26109	0.45619	0.17305	0.14575	0.060148	0.35001	0.32496	0.031306	0.196	0.3272	0.18418	-2.2917	-2.6917	-3.2271	-2.45	-3.1458	-2.8896	-2.5083	-3.3688	-2.6437	-2.575	-3.3875	-2.4292	-3.0563	-2.9688	-2.2542	-3.3187	254.196	5.664	64.281	323.986	96.653	79.922	278.547	236.856	78.959	207.114	357.505	101.295	88.048	304.414	215.796	351.952	0.00050049	0.00021515	6.8313e-05	1083.6	3.9091e-06	2.5424e-06	1188.1	223.3	5.8973e-06	2.7081e-06	283.02	78.614	60.921	17.667	2.919e-06	24.885	0.00027087	0.00021613	5.6433e-05	1082.7	2.2549e-06	2.1959e-06	1174.1	222.71	2.6345e-06	2.5184e-06	282.75	78.82	61.256	18.013	2.6082e-06	25.26	315.223	95.587	120.052	16.004	157.369	147.733	16.069	23.612	183.087	150.292	23.221	30.468	30.571	37.624	183.007	37.150	-8191	255	
3055.917	1	1	0	0	0.16263	0.13956	0.16354	0.10999	0.042034	0.13315	0.13913	0.034602	0.10953	0.14201	0.211	0.1538	0.27669	0.06564	0.15875	0.1688	-2.35	-2.5583	-3.2979	-2.5396	-2.7854	-3.1875	-2.6167	-3.3833	-2.9208	-2.5333	-3.3979	-2.4979	-2.775	-3.2854	-2.3542	-3.3229	260.407	62.329	314.063	342.446	78.414	268.976	129.789	192.611	270.773	141.894	323.196	295.387	313.022	308.925	92.680	331.898	0.00047998	0.00036642	8.1721e-05	1108.1	3.9233e-06	9.9951e-07	1181.4	223.62	4.1348e-06	3.1359e-06	281.65	78.383	61.112	17.713	3.419e-06	24.849	0.00025539	0.00022944	5.5174e-05	1088.7	2.4479e-06	2.0449e-06	1172.8	222.74	2.704e-06	2.3653e-06	281.96	78.806	61.273	18.015	2.5056e-06	25.268	317.122	108.893	89.862	15.608	178.631	125.736	16.095	23.719	195.922	181.981	23.249	30.469	30.817	38.142	174.088	36.543	-8191	255	
3056.013	1	1	0	0	0.072407	0.085079	0.14689	0.15354	0.14972	0.095081	0.3787	0.15961	0.053433	0.078429	0.12116	0.20507	0.21515	0.094371	0.22094	0.26271	-2.5812	-2.3688	-3.3812	-2.6875	-2.5896	-3.125	-2.5542	-3.2562	-2.9458	-2.4292	-3.3208	-2.5708	-2.825	-3.3667	-2.4354	-3.1833	52.534	151.212	299.506	26.581	343.871	132.372	17.987	342.226	309.758	229.628	357.162	302.207	292.544	337.069	237.275	73.625	0.00046753	0.00029505	9.046e-05	1097.4	2.5801e-06	3.3444e-06	1186	223.82	6.112e-06	2.7071e-06	282.45	78.43	60.683	17.701	2.722e-06	24.652	0.00025883	0.0002364	5.3636e-05	1086.5	2.4311e-06	2.0187e-06	1174.8	222.74	2.5418e-06	2.4693e-06	282.07	78.795	61.136	17.976	2.6525e-06	25.179	320.335	88.700	104.268	15.768	140.260	157.427	16.246	23.621	178.446	164.013	23.374	30.462	30.934	37.871	136.315	37.161	-8191	255	
3056.109	1	1	0	0	0.061694	0.13227	0.22477	0.19751	0.2767	0.033767	0.12894	0.26565	0.20124	0.13685	0.1567	0.074018	0.071756	0.30633	0.16555	0.090001	-2.7917	-2.3271	-3.175	-2.6333	-2.625	-3.275	-2.7333	-3.1063	-3.1583	-2.3792	-3.3375	-2.8354	-2.6375	-3.2958	-2.5062	-2.8104	163.594	73.884	305.362	312.138	190.318	116.633	319.977	17.007	319.353	137.141	14.541	264.590	334.117	326.654	304.947	324.525	0.00045869	0.0002864	5.3465e-05	1095.3	2.9314e-06	3.1018e-06	1182.9	222.77	4.8921e-06	4.0682e-06	282.66	77.933	61.248	17.683	3.0897e-06	24.796	0.00025872	0.00021232	5.3488e-05	1086.9	2.4107e-06	2.3178e-06	1173.7	222.51	2.4454e-06	2.5615e-06	282	78.626	61.379	18.009	2.3539e-06	25.197	316.156	102.041	100.955	15.808	149.412	159.762	16.372	24.195	183.124	169.884	23.199	30.434	30.944	37.670	167.251	37.441	-8191	255	
3056.203	1	1	0	0	0.14699	0.26597	0.24583	0.094346	0.13362	0.21534	0.29204	0.090171	0.11937	0.36044	0.27838	0.07656	0.085609	0.059319	0.1377	0.080086	-2.7292	-2.2229	-3.1937	-2.7313	-2.3021	-3.2938	-2.6437	-2.9542	-3.075	-2.3146	-3.1042	-3.0021	-2.3708	-3.3854	-2.475	-2.8937	51.215	352.401	258.515	285.140	349.301	194.532	320.928	316.748	356.595	247.701	241.150	242.418	105.974	128.853	241.521	248.461	0.00050936	0.00030395	0.00010139	1091.6	2.5615e-06	1.7164e-06	1184.8	223.42	5.1933e-06	3.9052e-06	281.81	78.146	61.709	17.862	2.4885e-06	24.689	0.00026684	0.0002116	5.5266e-05	1083.9	2.4964e-06	2.0157e-06	1174.4	222.83	2.4642e-06	2.537e-06	282.42	78.801	61.471	18.056	2.4848e-06	25.216	326.328	78.420	103.223	16.093	170.763	168.122	16.328	23.978	194.173	178.426	23.688	30.483	31.391	37.754	171.610	37.046	-8191	255	
3056.301	1	1	0	0	0.11681	0.20322	0.27031	0.16988	0.014571	0.10671	0.20184	0.17814	0.069325	0.24046	0.16816	0.008118	0.1393	0.26775	0.08752	0.12044	-2.8833	-2.4854	-3.0667	-2.8229	-2.4417	-3.3312	-2.6479	-2.7792	-3.2875	-2.2458	-2.9958	-3.075	-2.4667	-3.1125	-2.7562	-2.5958	64.293	146.569	300.256	120.380	210.324	257.207	270.539	283.282	194.853	77.815	264.293	297.799	283.698	363.958	55.163	9.222	0.00049751	0.00029153	7.8323e-05	1106.5	2.8215e-06	2.0522e-06	1185.3	223.66	4.3078e-06	2.3389e-06	281.8	78.393	60.976	17.681	3.0724e-06	24.733	0.00025485	0.00022761	5.4322e-05	1086.6	2.7021e-06	1.9993e-06	1174.8	222.27	2.3195e-06	2.3824e-06	282.11	78.862	61.307	18.039	2.4264e-06	25.23	321.137	95.679	103.420	16.108	135.138	166.144	16.309	23.856	197.053	179.289	23.774	30.605	30.803	38.145	144.815	37.204	-8191	255	
3056.420	1	1	0	0	0.10794	0.048994	0.21972	0.41037	0.076808	0.10913	0.26715	0.26352	0.22812	0.085469	0.1551	0.019163	0.16853	0.12473	0.052063	0.20889	-2.9583	-2.5125	-2.9625	-3.0458	-2.3187	-3.35	-3.0583	-2.7521	-3.3375	-2.5	-2.9583	-3.1688	-2.4896	-3.2479	-2.8125	-2.5229	219.395	137.367	89.973	342.361	230.582	336.770	347.853	285.186	322.982	45.037	255.187	66.930	64.640	21.668	359.977	32.175	0.00046339	0.00025541	7.4168e-05	1090.7	3.9499e-06	1.5553e-06	1189.2	223.61	7.6799e-06	3.8601e-06	282.73	78.455	60.89	17.706	2.5249e-06	24.803	0.00024014	0.00022197	5.6915e-05	1082	2.4648e-06	1.9514e-06	1175.1	222.82	2.2619e-06	2.3014e-06	282.29	78.86	61.188	17.989	2.466e-06	25.237	314.203	105.384	109.700	15.804	150.488	171.281	16.179	23.898	178.930	133.538	23.511	30.605	30.936	38.240	151.324	37.434	-8191	255	
3056.516	1	1	0	0	0.056879	0.10294	0.21316	0.10487	0.24099	0.20607	0.12888	0.20886	0.15785	0.16294	0.22529	0.11725	0.36203	0.27874	0.22325	0.088921	-2.9792	-2.6292	-2.7625	-3.4542	-2.3042	-3.1562	-3.0604	-2.6417	-3.3125	-2.6333	-2.8917	-3.2917	-2.4167	-3.0604	-2.9188	-2.6333	234.692	362.473	221.955	74.769	194.108	209.818	325.250	330.722	325.367	26.912	21.737	276.185	18.100	362.887	357.759	312.062	0.00049938	0.00032548	5.3392e-05	1096.9	2.6439e-06	3.1501e-06	1186.8	221.7	5.8593e-06	2.3174e-06	282.66	78.32	61.066	17.865	2.3896e-06	24.613	0.00025759	0.00021364	5.4525e-05	1085.8	2.5006e-06	2.0763e-06	1176.4	221.96	2.436e-06	2.1669e-06	282.63	78.68	61.371	18.017	2.4492e-06	25.166	313.409	97.657	123.233	15.904	167.691	162.758	16.381	24.115	203.580	169.568	23.576	30.701	31.471	38.253	174.748	36.976	-8191	255	
3056.612	1	1	0	0	0.18384	0.10752	0.18628	0.059537	0.18093	0.28552	0.22776	0.29246	0.074145	0.097074	0.19692	0.12201	0.19496	0.064232	0.20106	0.10897	-3.0104	-2.6729	-2.4396	-3.175	-2.4292	-3.0125	-3.1833	-2.2604	-3.3104	-2.6979	-2.6125	-3.3	-2.3708	-2.8958	-3.0271	-2.3917	201.485	74.372	210.569	209.517	6.593	147.904	40.937	317.132	80.885	192.790	301.479	269.150	29.511	78.838	164.095	130.214	0.00048687	0.00021971	9.6225e-05	1100	4.3417e-06	2.6762e-06	1187.2	222.57	6.1876e-06	4.4075e-06	281.15	78.458	60.926	17.776	2.4341e-06	24.603	0.00024292	0.00021055	6.3563e-05	1084.9	2.608e-06	2.0838e-06	1174.4	222.1	2.473e-06	2.4166e-06	282.03	78.779	61.269	18.043	2.0607e-06	25.165	321.820	108.290	110.512	16.250	171.022	149.869	16.182	24.117	196.519	154.062	23.735	30.736	30.917	38.097	159.264	36.823	-8191	255	
3056.709	1	1	0	0	0.22304	0.16684	0.055396	0.064723	0.18796	0.15337	0.24293	0.13804	0.37198	0.22477	0.16599	0.039406	0.12382	0.016361	0.14475	0.25843	-2.8375	-2.7979	-2.4042	-3.4208	-2.5833	-2.7646	-3.4667	-2.5521	-3.0083	-2.9333	-2.4688	-3.3625	-2.5396	-2.6854	-3.4021	-2.3812	100.724	285.003	323.721	126.070	183.127	278.782	314.326	336.324	303.565	156.499	349.154	46.789	143.386	8.707	145.004	272.271	0.00046808	0.00026909	4.8235e-05	1099.5	2.9312e-06	2.7936e-06	1190	223.29	5.7744e-06	2.4184e-06	282.54	78.268	61.318	17.736	4.0553e-06	24.887	0.00024064	0.0002036	6.3526e-05	1087.6	2.4395e-06	2.2797e-06	1175.3	222.52	2.2513e-06	2.1632e-06	282.05	78.967	61.484	17.998	2.0627e-06	25.296	321.939	107.694	81.105	16.336	180.492	176.081	16.453	24.038	210.144	153.539	23.613	30.673	31.508	38.011	158.301	37.198	-8191	255	
3056.805	1	1	0	0	0.008771	0.093858	0.027408	0.40889	0.15805	0.087728	0.21561	0.23319	0.1425	0.21926	0.15818	0.057216	0.10128	0.13043	0.034955	0.056867	-2.6667	-3.075	-2.3333	-3.4542	-2.5354	-2.7271	-3.45	-2.5833	-3.1104	-2.9437	-2.4562	-3.1854	-2.8167	-2.5208	-3.2729	-2.5333	30.777	187.091	237.318	274.165	47.803	54.046	187.106	261.401	44.924	146.228	323.692	31.707	13.840	244.365	34.009	255.155	0.00049418	0.00027593	9.4975e-05	1108.6	2.895e-06	2.2553e-06	1190.5	222.26	4.3467e-06	4.2152e-06	282.75	78.438	61.231	17.913	4.0957e-06	24.957	0.00024919	0.00018937	6.3786e-05	1091.2	2.5596e-06	2.427e-06	1175.8	222.55	2.3746e-06	2.0227e-06	282.36	78.859	61.328	18.085	1.8943e-06	25.283	321.886	87.919	103.338	16.050	165.450	158.268	16.468	23.901	193.664	166.738	23.398	31.089	31.215	38.104	178.885	37.084	-8191	255	
3056.901	1	1	0	0	0.082083	0.15476	0.088112	0.18029	0.17295	0.15505	0.16199	0.067661	0.046672	0.091753	0.44993	0.28175	0.1992	0.026818	0.22431	0.078373	-2.6312	-3.1354	-2.2792	-3.4125	-2.7521	-2.525	-3.4542	-2.4979	-2.9146	-2.9708	-2.3333	-3.3146	-2.8042	-2.4104	-3.1917	-2.4625	305.701	353.829	23.263	55.375	92.379	304.018	295.203	188.465	150.600	358.364	360.453	68.789	58.241	362.952	264.437	56.852	0.00047821	0.00027138	3.5933e-05	1107.4	2.7701e-06	1.9831e-06	1184.5	221.88	5.2426e-06	3.1381e-06	282.73	78.456	61.246	17.678	3.8165e-06	24.791	0.00026336	0.00019953	6.4286e-05	1088.1	2.2752e-06	2.3641e-06	1174.5	222.03	2.4034e-06	2.0465e-06	282.66	78.876	61.229	17.996	2.111e-06	25.315	314.601	110.796	72.221	15.984	143.622	188.157	16.330	23.935	155.093	141.684	23.192	30.644	30.921	37.898	158.983	37.225	-8191	255	
3056.997	1	1	0	0	0.016609	0.13727	0.11388	0.18747	0.015473	0.13203	0.076321	0.038743	0.31136	0.065006	0.028843	0.16775	0.13695	0.26261	0.21924	0.14241	-2.3729	-3.2333	-2.2604	-3.1104	-2.9292	-2.4792	-3.55	-2.5729	-2.8042	-3.25	-2.2833	-2.85	-2.9417	-2.2687	-3.2875	-2.5833	296.975	117.961	183.089	293.927	180.092	236.950	168.984	50.828	304.085	215.219	171.072	342.634	237.358	266.006	22.062	118.859	0.00043455	0.00025851	0.0001023	1101.8	3.1071e-06	3.2679e-06	1188.1	223.88	4.6544e-06	3.7996e-06	282.1	78.331	60.803	17.832	3.3073e-06	25.052	0.00023987	0.00020045	6.636e-05	1084.4	2.3047e-06	2.3911e-06	1176.3	222.5	2.4567e-06	2.2286e-06	282.63	79.005	61.211	18.045	2.1909e-06	25.351	313.851	84.481	87.351	16.487	157.581	158.555	16.229	23.841	162.954	141.346	23.423	30.750	30.735	38.415	169.815	37.517	-8191	255	
3057.093	1	1	0	0	0.052643	0.097815	0.20995	0.15417	0.12085	0.24426	0.16194	0.13416	0.13157	0.17638	0.069674	0.029353	0.32203	0.14807	0.22908	0.13808	-2.1479	-3.2188	-2.2021	-3.0417	-2.9604	-2.4125	-3.2292	-2.5729	-2.3063	-3.2979	-2.4083	-3.2042	-3.0854	-2.3271	-3.275	-2.7188	229.802	216.544	93.150	140.714	133.706	286.718	295.366	33.755	253.592	243.546	255.418	29.678	344.208	357.422	207.305	123.539	0.0005377	0.00015991	7.8733e-05	1088.5	1.9408e-06	3.0018e-06	1180.3	222.75	6.4802e-06	2.5567e-06	282.78	78.3	61.108	17.783	3.1582e-06	24.86	0.00025515	0.00019409	6.7712e-05	1083.5	2.2788e-06	2.5294e-06	1172.6	222.73	2.6151e-06	2.1662e-06	282.53	78.948	61.377	18.088	2.2029e-06	25.247	319.238	121.086	80.757	15.871	195.997	140.318	16.245	23.995	184.364	165.464	23.364	30.617	30.647	38.159	164.561	37.348	-8191	255	
3057.212	1	1	0	0	0.1838	0.16649	0.20205	0.22862	0.075523	0.19847	0.17561	0.26187	0.34299	0.056931	0.35796	0.18215	0.095791	0.14032	0.12313	0.25656	-2.1625	-3.2771	-2.4333	-2.7958	-3.1583	-2.3604	-3.25	-2.9271	-2.2917	-3.2062	-2.4688	-2.7958	-3.2208	-2.4083	-3.2313	-2.9458	289.372	318.360	263.129	311.982	144.830	320.164	231.707	321.262	103.840	60.315	341.026	291.975	118.944	143.637	31.169	225.569	0.00047226	0.00043393	7.3819e-05	1095.1	3.6338e-06	2.7125e-06	1186.9	223.46	3.6607e-06	3.1063e-06	282.63	78.362	60.98	17.739	4.5219e-06	24.979	0.00026789	0.00020045	6.273e-05	1084.1	2.2788e-06	2.3791e-06	1175	222.79	2.3928e-06	2.0881e-06	281.93	78.812	61.501	18.056	2.1466e-06	25.375	313.521	91.230	117.261	16.769	163.841	132.288	16.447	23.858	224.005	183.645	23.287	30.562	30.937	37.978	167.012	37.003	-8191	255	
3057.308	1	1	0	0	0.18781	0.15109	0.25311	0.076143	0.24153	0.10224	0.34926	0.083323	0.050851	0.065923	0.21129	0.21092	0.20832	0.043401	0.19554	0.17554	-2.1542	-3.125	-2.6375	-2.7104	-3.1833	-2.3063	-3.2646	-3.1125	-2.4396	-3.2771	-2.7042	-2.6729	-3.4625	-2.4208	-2.9646	-3.2083	8.296	46.732	16.002	339.519	20.902	66.643	268.716	147.697	352.376	338.470	337.999	358.636	298.021	46.778	260.442	50.290	0.00048717	0.00029385	7.1185e-05	1095.7	3.5866e-06	2.5415e-06	1189.4	222.97	5.4087e-06	1.1017e-06	281.75	78.152	61.349	17.843	4.5791e-06	24.777	0.00026917	0.00020065	5.9952e-05	1085	2.0688e-06	2.5585e-06	1175.5	222.49	2.5719e-06	1.9871e-06	282.14	78.798	61.334	18.076	2.3365e-06	25.286	319.306	111.217	96.762	16.499	176.145	169.478	16.452	23.851	212.672	158.615	23.078	30.859	31.403	38.119	175.120	37.068	-8191	255	
3057.382	1	1	0	0	0.25369	0.2109	0.17928	0.25281	0.10058	0.15339	0.21446	0.041868	0.095285	0.17207	0.27877	0.012654	0.22209	0.15364	0.18363	0.26515	-2.05	-3.2687	-2.7625	-2.6083	-3.3563	-2.4333	-3.075	-3.1458	-2.3167	-3.3438	-2.8521	-2.4979	-3.3104	-2.5042	-2.8	-3.1792	261.785	322.814	108.213	303.149	58.781	323.574	252.223	19.813	326.139	121.641	275.764	177.810	308.676	312.066	357.173	285.144	0.0005145	0.00040062	6.2499e-05	1088.4	2.7823e-06	1.8395e-06	1185.3	223.22	4.0868e-06	2.3295e-06	282.25	78.521	61.281	17.844	4.2123e-06	24.601	0.00026321	0.00019947	5.7285e-05	1083.8	2.1187e-06	2.5264e-06	1175.5	222.5	2.597e-06	2.025e-06	282.81	79.062	61.385	18.078	2.3512e-06	25.268	320.176	101.715	103.283	16.111	173.873	168.697	16.446	23.744	187.561	156.410	23.183	31.180	31.007	37.674	164.988	37.499	-8191	255	
3057.501	1	1	0	0	0.21209	0.33594	0.056428	0.19244	0.19163	0.034942	0.14645	0.14706	0.16782	0.112	0.17611	0.2572	0.21399	0.17522	0.13422	0.031113	-2.1292	-3.2604	-2.8479	-2.4604	-3.3708	-2.4292	-2.9708	-3.2542	-2.3104	-3.1458	-3.0583	-2.5792	-3.35	-2.5438	-2.6667	-3.1604	357.925	315.391	241.580	343.521	287.339	236.376	346.734	85.179	227.717	242.244	298.110	333.918	321.526	297.796	106.223	232.096	0.00046953	0.0002049	3.6797e-05	1102.5	3.8592e-06	3.03e-06	1183.4	223.45	4.8931e-06	2.6917e-06	282.79	78.619	61.134	17.714	3.7917e-06	24.778	0.00025968	0.00019022	5.1395e-05	1086.2	2.1742e-06	2.4599e-06	1174.6	223	2.627e-06	2.2316e-06	283.06	78.955	61.454	18.036	2.2774e-06	25.304	321.422	117.155	90.217	16.142	165.488	165.605	16.474	24.039	194.012	162.775	23.576	30.373	31.059	38.056	163.764	37.504	-8191	255	
3057.597	1	1	0	0	0.076419	0.19711	0.22794	0.12763	0.14358	0.010013	0.28636	0.15415	0.20915	0.1153	0.11884	0.31808	0.1676	0.078691	0.084526	0.12062	-2.0792	-3.2708	-3.0875	-2.4417	-3.3667	-2.6375	-2.6854	-3.3896	-2.3417	-3.0083	-3.2	-2.4875	-3.4167	-2.7167	-2.4062	-3.2188	167.435	326.211	185.543	343.907	323.268	264.297	297.056	314.583	333.517	300.937	25.652	328.959	331.792	75.259	310.877	326.005	0.00043503	0.00033341	8.4936e-05	1100.2	2.4452e-06	3.4064e-06	1187	223.99	3.6863e-06	2.5329e-06	280.97	78.775	60.915	17.699	4.6117e-06	24.797	0.00026816	0.00021672	5.347e-05	1086.3	2.139e-06	2.2901e-06	1175.5	223.2	2.6339e-06	2.3601e-06	281.89	78.815	61.35	18.017	2.4385e-06	25.249	313.150	102.725	68.725	15.726	156.600	167.128	16.424	23.887	181.932	178.694	23.338	30.590	31.248	38.093	181.702	37.258	-8191	255	
3057.693	1	1	0	0	0.050747	0.17849	0.19926	0.25344	0.10071	0.17416	0.079419	0.24021	0.27938	0.036474	0.16609	0.097237	0.12677	0.053563	0.12771	0.17239	-2.0062	-2.8875	-3.1312	-2.3417	-3.0479	-2.8792	-2.8208	-3.225	-2.4396	-2.7229	-3.2854	-2.3646	-3.1583	-2.8688	-2.3042	-3.4375	240.234	197.930	54.963	258.023	333.357	77.806	219.765	262.490	165.646	35.487	116.635	344.843	278.979	325.849	265.350	275.380	0.00049848	0.0002653	7.8352e-05	1103.1	2.2963e-06	8.0636e-07	1182.3	223.17	5.3442e-06	4.2319e-06	281.28	78.851	61.22	17.755	4.0918e-06	24.887	0.00025945	0.00019717	5.8452e-05	1086.6	2.0983e-06	2.1892e-06	1172.2	223.02	2.6345e-06	2.2732e-06	282.24	78.951	61.302	18.062	2.5143e-06	25.333	315.465	111.562	103.987	16.542	165.759	194.456	16.647	23.659	192.989	159.356	23.261	30.930	30.973	37.676	182.579	37.358	-8191	255	
3057.789	1	1	0	0	0.1455	0.099665	0.17339	0.18909	0.13849	0.20542	0.37877	0.2394	0.1521	0.20806	0.12881	0.18802	0.13517	0.23567	0.16522	0.18222	-2.0854	-2.7167	-3.1562	-2.1063	-3.1937	-3.0021	-2.5521	-3.3583	-2.4458	-2.65	-3.1854	-2.3229	-3.1	-2.9396	-2.3688	-3.325	61.035	285.524	39.997	45.169	113.318	252.858	268.055	326.185	215.916	61.032	294.886	303.864	92.544	364.818	100.520	267.781	0.00047866	0.00029194	0.00011189	1094.1	4.0989e-06	3.1971e-06	1188.5	221.8	6.6141e-06	3.256e-06	282	78.272	61.525	17.631	3.7838e-06	24.925	0.00026715	0.0002179	5.0191e-05	1081.4	2.1847e-06	2.1002e-06	1174.8	222	2.3734e-06	2.3311e-06	281.98	78.764	61.526	17.991	2.3767e-06	25.329	316.713	91.832	104.626	16.385	170.483	161.260	16.408	24.011	180.801	158.809	23.105	30.912	30.616	38.036	177.605	37.308	-8191	255	
3057.910	1	1	0	0	0.14945	0.042838	0.15292	0.16969	0.03445	0.16263	0.15809	0.11101	0.032228	0.11242	0.1383	0.11328	0.11812	0.088123	0.27663	0.1849	-2.3479	-2.6188	-3.3812	-2.4562	-3.0312	-2.9458	-2.5875	-3.2771	-2.6771	-2.65	-3.3042	-2.3792	-2.8125	-3.2833	-2.1625	-3.2	85.057	194.419	331.966	316.993	305.959	207.393	276.188	303.283	64.780	19.715	272.391	138.335	314.452	287.894	331.066	357.425	0.00048397	0.00035237	0.00012953	1092.4	3.463e-06	3.3718e-06	1196.6	222.39	4.7286e-06	3.4591e-06	282.28	78.134	61.584	17.798	3.5016e-06	24.795	0.00025546	0.00022787	5.7674e-05	1082.4	2.3342e-06	2.1339e-06	1177	222.83	2.4617e-06	2.3958e-06	282.02	78.862	61.51	18.084	2.4217e-06	25.321	319.255	92.950	83.223	16.010	166.393	144.799	16.484	24.288	171.817	142.089	23.208	30.715	31.276	38.122	172.278	37.183	-8191	255	
3058.006	1	1	0	0	0.18075	0.12215	0.18242	0.15559	0.16017	0.11994	0.26862	0.16992	0.27788	0.047858	0.28828	0.13375	0.072825	0.29998	0.11948	0.18757	-2.6375	-2.4417	-3.2313	-2.4458	-2.7229	-3.0479	-2.4167	-3.0583	-2.8854	-2.4208	-3.4229	-2.3708	-2.6188	-3.3167	-2.3667	-3.1042	125.150	334.316	272.632	23.080	285.559	44.411	280.840	297.322	234.508	103.618	333.040	14.668	22.899	306.197	301.318	300.117	0.00047979	0.00031687	8.976e-05	1095.3	3.5588e-06	3.2623e-06	1183.4	223.34	4.6653e-06	1.6669e-06	281.94	78.339	61.369	17.793	2.968e-06	24.805	0.00023646	0.00023607	5.2895e-05	1085	2.2444e-06	2.0718e-06	1173.7	222.48	2.2294e-06	2.1662e-06	282.41	78.834	61.487	18.09	2.2747e-06	25.235	323.308	104.636	91.502	16.236	162.922	178.042	16.565	24.040	186.520	147.914	23.185	30.856	31.391	38.142	177.309	37.120	-8191	255	
3058.102	1	1	0	0	0.074093	0.26873	0.25848	0.10155	0.028037	0.11124	0.09945	0.060125	0.048364	0.18963	0.30615	0.044524	0.15072	0.099009	0.11079	0.26524	-2.6188	-2.2625	-3.3333	-2.6229	-2.5354	-3.1979	-2.5	-3.1667	-3.0896	-2.3875	-3.2	-2.8083	-2.5062	-3.3104	-2.3104	-2.9917	39.181	250.089	142.858	148.444	20.092	164.100	337.677	12.585	342.981	179.973	25.690	171.388	43.302	115.001	242.203	301.481	0.00045921	0.0002683	6.0477e-05	1094.8	3.8859e-06	2.9511e-06	1185.5	222.4	6.2549e-06	2.2997e-06	281.31	78.063	61.619	17.642	5.4571e-06	24.9	0.00023898	0.00022649	4.7487e-05	1083.9	2.2156e-06	2.1451e-06	1173.8	222.47	2.3239e-06	2.2278e-06	281.65	78.774	61.419	18.002	2.67e-06	25.321	318.112	109.680	93.929	16.117	164.169	171.167	16.381	23.904	189.725	173.534	23.782	30.708	31.253	38.588	160.387	37.745	-8191	255	
3058.198	1	1	0	0	0.17821	0.029697	0.20303	0.16771	0.054078	0.096717	0.29774	0.16708	0.02514	0.24622	0.14116	0.19331	0.26685	0.086205	0.27328	0.21715	-2.7375	-2.2438	-3.0354	-2.7	-2.3937	-3.1833	-2.475	-2.9146	-2.9688	-2.2	-3.2458	-2.8667	-2.4521	-3.2708	-2.5563	-2.7917	148.348	39.597	135.571	87.770	295.689	317.250	309.487	353.707	18.713	136.053	297.904	306.511	314.541	298.477	323.534	364.960	0.00046047	0.00030739	7.8171e-05	1098.9	2.9654e-06	2.277e-06	1191.4	223.78	5.6851e-06	2.55e-06	283.42	78.294	61.179	17.835	3.7573e-06	24.923	0.00024958	0.00021737	5.7378e-05	1086.4	2.2191e-06	1.9739e-06	1173.7	222.83	2.1561e-06	2.3586e-06	282.62	78.873	61.43	18.099	2.4177e-06	25.293	323.942	104.880	111.943	16.051	177.196	134.924	16.445	24.147	229.486	153.587	23.454	30.344	30.817	38.067	168.189	37.478	-8191	255	
3058.292	1	1	0	0	0.13832	0.14015	0.18005	0.32223	0.16267	0.22586	0.19745	0.28279	0.076093	0.33713	0.16415	0.31919	0.1303	0.20331	0.095989	0.2267	-2.7396	-2.3187	-3.0292	-2.8271	-2.4104	-3.2146	-2.6396	-2.8708	-3.2583	-2.3771	-2.9354	-2.9917	-2.5687	-3.4188	-2.4229	-2.7375	352.652	353.275	18.670	136.431	345.626	309.968	7.844	267.516	306.503	266.783	282.251	45.830	30.863	289.659	187.558	34.458	0.00047907	0.00041731	8.6432e-05	1101	3.0374e-06	2.8208e-06	1185.3	222.5	5.1522e-06	2.9128e-06	282.23	78.343	60.697	17.69	3.6457e-06	24.92	0.00023793	0.00021455	5.2044e-05	1086.4	2.2809e-06	2.0808e-06	1174.7	222.13	2.198e-06	2.4723e-06	282.29	78.884	61.36	17.974	2.3922e-06	25.246	319.260	105.779	98.307	16.351	173.332	139.036	16.285	24.041	183.573	150.519	23.618	30.979	31.290	38.073	161.243	37.151	-8191	255	
3058.389	1	1	0	0	0.18896	0.40831	0.093893	0.16787	0.1465	0.039582	0.18657	0.23597	0.1552	0.15935	0.088418	0.20266	0.31924	0.13574	0.085864	0.099091	-2.9667	-2.3854	-2.9479	-2.9062	-2.2708	-3.3958	-2.825	-2.5792	-3.2292	-2.5792	-2.8312	-3.1625	-2.4625	-3.15	-2.6854	-2.5687	357.752	15.774	197.270	46.256	237.053	344.424	313.775	283.820	293.799	80.306	205.345	49.235	279.557	334.664	227.864	285.534	0.00051734	0.00028386	0.00010996	1097.2	2.4328e-06	1.9242e-06	1186.1	224.45	2.9131e-06	3.1735e-06	282.02	79.065	61.462	17.842	2.6979e-06	24.823	0.00025016	0.00022387	5.9341e-05	1085.1	2.4093e-06	1.9641e-06	1174	222.87	2.039e-06	2.3021e-06	282.77	78.945	61.481	18.088	2.2962e-06	25.217	316.747	83.811	93.058	15.982	149.147	168.382	16.298	24.040	211.322	171.988	23.831	30.188	31.085	38.387	189.773	37.194	-8191	255	
3058.509	1	1	0	0	0.23103	0.17974	0.051125	0.20466	0.10547	0.13606	0.21193	0.21079	0.025934	0.19557	0.33611	0.25273	0.22307	0.11656	0.061036	0.22673	-2.8458	-2.2708	-2.8104	-3.2729	-2.3146	-3.1562	-3.1521	-2.7042	-3.2167	-2.5146	-2.8896	-3.2458	-2.2167	-3.2938	-2.9646	-2.6354	141.668	19.596	273.102	126.444	347.523	143.979	306.525	286.856	272.818	288.253	270.856	326.139	41.590	26.542	13.062	305.286	0.00051497	0.00022523	8.6485e-05	1095.3	4.3617e-06	2.9208e-06	1183.9	223.43	4.3513e-06	2.3503e-06	281.95	78.556	61.584	17.873	3.1204e-06	24.967	0.00024118	0.00019796	6.136e-05	1085.8	2.5715e-06	1.9851e-06	1173.9	222.7	2.2125e-06	2.2531e-06	282.38	78.923	61.288	18.061	2.1258e-06	25.376	319.138	145.880	91.094	16.229	166.663	171.180	16.438	23.914	195.791	171.685	23.428	30.435	31.466	37.768	193.915	37.381	-8191	255	
3058.605	1	1	0	0	0.12165	0.16186	0.011878	0.21273	0.31581	0.18031	0.33283	0.2225	0.085783	0.1019	0.15367	0.058767	0.26006	0.083672	0.17159	0.1594	-2.9042	-2.4771	-2.65	-3.3771	-2.45	-3.0875	-3.2833	-2.475	-3.2792	-2.5396	-2.5625	-3.2125	-2.2896	-3.0104	-3.0583	-2.4583	331.414	163.214	365.175	132.561	56.090	175.710	345.192	276.479	212.389	96.642	310.852	206.368	342.117	352.855	277.364	342.594	0.00052191	0.00036033	7.7317e-05	1099.9	3.1223e-06	2.211e-06	1184.8	223.35	5.3942e-06	2.2511e-06	283.26	78.564	61.19	17.804	4.4117e-06	24.734	0.0002346	0.00020117	5.4433e-05	1085.3	2.4374e-06	1.9918e-06	1173.4	222.53	2.2544e-06	2.3378e-06	282.02	78.854	61.343	18.02	2.052e-06	25.286	319.990	85.276	92.268	16.281	161.423	166.168	16.220	23.842	190.122	150.652	23.637	30.668	31.024	38.447	157.351	37.369	-8191	255	
3058.677	1	1	0	0	0.3368	0.163	0.21944	0.043219	0.12093	0.37513	0.29807	0.24526	0.10519	0.073689	0.17265	0.21006	0.25696	0.025767	0.10626	0.079177	-2.9479	-2.4813	-2.5	-3.3583	-2.225	-2.8333	-3.2417	-2.4396	-3.1646	-2.8104	-2.6958	-3.4125	-2.5083	-2.7771	-3.1521	-2.3646	134.366	296.320	193.353	315.396	150.203	223.064	306.248	322.666	208.462	230.553	144.882	278.873	87.267	350.332	51.161	228.619	0.00052651	0.00032849	6.1377e-05	1092.7	2.0193e-06	3.0792e-06	1186.9	223.38	5.4473e-06	2.5412e-06	281.14	78.315	61.646	17.679	2.4849e-06	24.753	0.00025357	0.00021974	6.173e-05	1082.4	2.3735e-06	2.1227e-06	1175.6	222.73	2.2137e-06	2.1833e-06	281.88	78.894	61.438	18.025	1.9278e-06	25.319	328.590	105.498	84.008	15.924	163.493	165.793	16.356	24.254	183.852	171.620	23.426	31.201	31.218	38.069	160.317	37.563	-8191	255	
3058.773	1	1	0	0	0.065841	0.22284	0.14065	0.16983	0.17859	0.12454	0.13296	0.33789	0.12951	0.16346	0.22381	0.069406	0.31768	0.10069	0.12831	0.22639	-2.8063	-2.7	-2.3792	-3.4042	-2.5125	-2.8104	-3.3812	-2.4	-3.0771	-2.7667	-2.5417	-3.3063	-2.5375	-2.6188	-3.1104	-2.3438	290.143	359.644	265.876	327.236	230.703	329.928	104.436	289.592	334.863	152.891	296.012	299.715	33.393	50.223	169.660	165.628	0.00046803	0.00029232	8.3697e-05	1094.6	4.6306e-06	3.4858e-06	1185.8	221.45	4.9167e-06	4.165e-06	282.56	78.64	61.022	17.756	3.9424e-06	24.866	0.00025059	0.00021475	6.286e-05	1083.1	2.4493e-06	2.1294e-06	1172.4	221.7	2.2056e-06	2.1379e-06	282.41	79.14	61.122	18.084	2.1694e-06	25.326	322.503	69.145	99.494	16.296	172.622	154.095	16.343	24.080	190.882	154.524	23.183	30.759	31.284	38.077	150.628	37.262	-8191	255	
3058.894	1	1	0	0	0.21934	0.22879	0.2359	0.046146	0.1387	0.17448	0.14435	0.036542	0.14608	0.025897	0.1776	0.24803	0.085661	0.21014	0.07209	0.046473	-2.5812	-3.0062	-2.2354	-3.4354	-2.5438	-2.5458	-3.4646	-2.4562	-2.9458	-3.0271	-2.575	-3.2313	-2.8312	-2.6063	-3.3812	-2.3542	277.719	177.719	11.214	180.784	208.750	170.404	279.929	11.181	182.386	70.548	219.328	323.574	173.459	12.121	343.632	189.373	0.0004811	0.00035011	8.7518e-05	1095.7	2.025e-06	3.4228e-06	1184.8	221.82	5.3403e-06	2.8049e-06	282.83	78.194	61.457	17.732	4.041e-06	24.585	0.00024316	0.00020163	6.1322e-05	1082.4	2.2078e-06	2.2856e-06	1173.2	221.85	2.349e-06	2.0123e-06	282.38	78.828	61.425	18.057	2.2043e-06	25.178	315.495	92.372	88.835	16.207	165.702	185.664	16.384	24.046	203.091	174.340	23.443	30.432	30.830	38.699	173.402	37.075	-8191	255	
3058.990	1	1	0	0	0.18267	0.32499	0.071002	0.12072	0.17029	0.1043	0.10968	0.31014	0.10337	0.096291	0.2647	0.13537	0.1789	0.10125	0.21555	0.13193	-2.4729	-3.0438	-2.2875	-3.2354	-2.6833	-2.4938	-3.5146	-2.4979	-2.8792	-3.1104	-2.4021	-3.3187	-2.7938	-2.4396	-3.2125	-2.4375	287.288	271.187	258.088	274.347	254.193	65.385	205.551	284.832	315.663	324.436	322.630	329.224	127.674	74.870	12.899	364.286	0.00049587	0.0002578	7.5955e-05	1101.6	3.2152e-06	2.1202e-06	1182.5	222.6	5.3339e-06	3.6074e-06	282.46	78.377	60.973	17.772	4.2951e-06	24.815	0.00024885	0.0001855	5.8007e-05	1085.3	2.2879e-06	2.3544e-06	1173.1	222.28	2.4335e-06	2.0094e-06	282.06	78.797	61.22	18.063	2.0057e-06	25.245	325.560	116.304	95.424	16.373	167.424	158.660	16.409	24.051	190.501	168.552	23.050	31.033	31.374	38.077	165.079	37.160	-8191	255	
3059.086	1	1	0	0	0.17769	0.15132	0.096663	0.22698	0.051447	0.22912	0.16474	0.20895	0.11194	0.11265	0.1399	0.096122	0.25954	0.23335	0.28376	0.2307	-2.4188	-3.1208	-2.2708	-3.0479	-2.9167	-2.375	-3.5729	-2.675	-2.725	-3.2604	-2.5917	-3.0521	-2.9813	-2.4729	-3.1354	-2.6813	154.674	200.492	356.489	332.421	192.286	204.307	265.719	362.898	288.513	351.568	361.988	227.038	329.326	316.229	362.429	304.788	0.00045536	0.00028821	0.00011489	1106.7	2.7291e-06	2.4997e-06	1183.9	222.16	4.0449e-06	2.9283e-06	282.97	78.889	60.768	17.741	3.5507e-06	24.881	0.00024587	0.0001855	6.1748e-05	1088.6	2.0857e-06	2.3081e-06	1173.6	222.07	2.3765e-06	2.0941e-06	282.03	79.06	61.198	18.027	2.0654e-06	25.269	315.900	107.818	97.226	16.402	163.724	181.667	16.393	23.777	203.509	154.882	23.199	30.866	31.323	38.574	152.765	37.547	-8191	255	
3059.182	1	1	0	0	0.071832	0.42993	0.20297	0.041273	0.16834	0.26001	0.22652	0.33476	0.04947	0.24249	0.025029	0.14529	0.24299	0.18623	0.13355	0.14742	-2.0917	-3.1417	-2.3688	-3.1021	-3.2021	-2.3604	-3.5625	-2.7083	-2.5167	-3.4792	-2.5333	-3.0479	-3.2354	-2.2479	-3.0354	-2.8646	80.998	249.020	305.391	276.135	9.460	313.421	309.491	33.622	65.037	282.556	7.158	311.903	329.062	46.818	50.326	260.026	0.00048157	0.00024609	7.3434e-05	1096.5	3.7614e-06	1.6125e-06	1185.5	223.2	5.3056e-06	2.6677e-06	281.47	78.783	61.033	17.823	2.3392e-06	24.873	0.00026057	0.00018327	6.1989e-05	1080.7	2.4472e-06	2.2288e-06	1172.7	222.34	2.5613e-06	1.9975e-06	282.45	78.902	61.19	18.053	2.0714e-06	25.268	318.608	92.698	97.880	16.341	169.016	170.349	16.276	23.723	169.265	130.477	23.302	30.905	31.191	37.938	186.466	37.824	-8191	255	
3059.278	1	1	0	0	0.13691	0.13949	0.30221	0.050707	0.23134	0.14367	0.063912	0.14005	0.24333	0.30118	0.18813	0.15658	0.035442	0.19193	0.122	0.20794	-2.0542	-3.2792	-2.5958	-2.9062	-3.4042	-2.4833	-3.375	-3.0083	-2.475	-3.3104	-2.6688	-2.7604	-3.2604	-2.2667	-3.1562	-2.9396	298.619	269.739	93.793	226.451	251.779	9.919	355.161	257.263	265.012	93.265	356.241	279.932	261.593	215.355	58.171	271.543	0.00048994	0.00026289	8.2656e-05	1098.2	3.9184e-06	3.0942e-06	1188.9	223.03	4.0534e-06	3.4329e-06	281.79	78.392	61.443	17.75	3.4071e-06	24.704	0.00025125	0.00019442	5.7581e-05	1082.1	2.1419e-06	2.3432e-06	1173.8	222.24	2.6295e-06	2.1037e-06	281.91	78.908	61.359	18.089	2.113e-06	25.307	320.708	89.811	99.794	16.174	165.503	165.033	16.551	24.057	194.264	169.824	23.320	30.326	31.290	38.029	156.918	36.941	-8191	255	
3059.373	1	1	0	0	0.023555	0.12778	0.34128	0.070554	0.14247	0.1945	0.17711	0.22823	0.072275	0.11893	0.05808	0.2829	0.10183	0.19688	0.11946	0.12241	-2.0417	-3.3	-2.6771	-2.5958	-3.4458	-2.5021	-3.3583	-3.2583	-2.3021	-3.3854	-2.675	-2.6292	-3.2958	-2.3667	-3.1521	-3.1375	342.518	121.378	138.772	201.516	361.499	292.104	315.162	295.735	272.389	234.428	363.092	355.679	168.450	299.498	270.294	166.321	0.00050313	0.00029947	9.4255e-05	1094.8	2.969e-06	2.0651e-06	1186.5	222.6	3.6505e-06	3.1552e-06	282.47	78.642	61.024	17.715	3.8923e-06	25.071	0.000267	0.00018156	5.5562e-05	1083.3	2.1587e-06	2.2169e-06	1174.4	222.17	2.5218e-06	2.0339e-06	281.9	78.997	61.245	18.001	2.266e-06	25.295	319.335	93.570	109.635	16.896	168.070	174.285	16.394	23.937	166.713	158.464	23.521	30.841	31.417	38.226	167.409	37.594	-8191	255	
3059.471	1	1	0	0	0.062703	0.21228	0.22718	0.14987	0.22852	0.19661	0.22828	0.070696	0.24945	0.074122	0.30401	0.10362	0.12703	0.22208	0.086335	0.24579	-1.8979	-3.3229	-2.7958	-2.5708	-3.3187	-2.5917	-2.95	-3.1542	-2.3333	-3.1917	-2.7208	-2.5208	-3.1917	-2.575	-2.8542	-3.4417	185.836	27.907	127.773	199.933	356.441	42.152	244.420	126.931	68.253	242.934	270.766	202.461	149.459	362.623	240.107	33.470	0.00045265	0.00023418	6.5568e-05	1092.6	2.7286e-06	2.0196e-06	1186.7	222.92	5.3051e-06	3.882e-06	281.91	78.637	61.55	17.674	3.1651e-06	24.643	0.00025783	0.00016398	5.1451e-05	1082.5	2.1068e-06	2.3238e-06	1174.5	222.33	2.5932e-06	2.054e-06	281.71	78.915	61.366	18.009	2.3506e-06	25.226	321.147	103.885	104.169	16.061	180.103	136.021	16.476	23.775	195.744	147.127	23.302	31.163	31.374	37.978	160.356	37.349	-8191	255	
3059.590	1	1	0	0	0.068497	0.1034	0.1401	0.20999	0.1408	0.03549	0.2234	0.29967	0.11261	0.13073	0.13939	0.15268	0.085799	0.20269	0.12786	0.12479	-2.0042	-3.2458	-2.7708	-2.5187	-3.4625	-2.5167	-2.9792	-3.2458	-2.2833	-3.1542	-3.1083	-2.5229	-3.4167	-2.4542	-2.5708	-3.2125	138.694	213.389	347.346	83.425	93.314	76.126	251.026	252.310	170.695	21.244	270.824	246.637	124.018	326.078	363.392	15.644	0.00047439	0.00033442	0.00013616	1096.4	2.2765e-06	2.7935e-06	1181.9	222.95	4.5798e-06	2.9983e-06	281.54	78.764	61.301	17.649	3.7949e-06	25.07	0.00025523	0.00020465	5.9433e-05	1081.2	1.9804e-06	2.3103e-06	1173.1	222.11	2.4423e-06	2.0696e-06	281.81	78.871	61.352	18.02	2.1936e-06	25.336	315.149	107.554	92.256	16.265	167.256	160.444	16.593	23.976	188.675	178.439	23.373	30.813	31.277	37.894	152.977	37.200	-8191	255	
3059.686	1	1	0	0	0.2361	0.26475	0.29739	0.16617	0.24609	0.13085	0.18176	0.17114	0.18676	0.080097	0.044541	0.21875	0.12513	0.23852	0.28115	0.1996	-2	-3.1021	-3.1396	-2.4479	-3.3042	-2.7167	-2.6979	-3.4	-2.3	-3.0292	-3.3146	-2.4354	-3.3458	-2.7438	-2.5125	-3.2729	157.197	332.622	235.069	68.386	216.752	78.888	293.285	70.094	127.032	83.800	327.545	25.279	310.705	36.248	106.391	35.166	0.00045366	0.00026771	9.4663e-05	1097.3	2.7488e-06	3.3897e-06	1187.3	223.03	4.8457e-06	2.3808e-06	282.67	78.136	61.205	17.732	2.5224e-06	24.775	0.00026084	0.00020668	5.7655e-05	1083.6	2.1622e-06	2.2333e-06	1174.2	222.39	2.508e-06	1.9952e-06	282.07	78.719	61.29	17.999	2.2479e-06	25.312	316.555	91.506	109.142	15.912	153.407	155.319	16.535	24.454	201.138	169.644	23.280	30.785	31.533	38.053	153.552	37.399	-8191	255	
3059.782	1	1	0	0	0.073982	0.095192	0.12218	0.15518	0.11275	0.15576	0.14402	0.10506	0.15711	0.26279	0.10872	0.061691	0.15431	0.20353	0.23155	0.21312	-2.0812	-2.8375	-3.2479	-2.4917	-3.2708	-2.8417	-2.4854	-3.3896	-2.4833	-2.6875	-3.4604	-2.3854	-3.1292	-2.8583	-2.4333	-3.2729	244.066	20.443	292.292	281.635	211.250	41.417	223.823	306.135	72.080	25.691	46.032	294.025	43.864	67.964	350.042	130.244	0.00047192	0.00026152	0.00011609	1098.9	4.0656e-06	1.7004e-06	1186.1	222.77	3.5172e-06	3.145e-06	281.05	78.597	60.841	17.692	3.9771e-06	24.88	0.0002658	0.00018694	5.3859e-05	1084.9	2.0513e-06	1.9155e-06	1172.7	222.32	2.5757e-06	2.0599e-06	281.12	78.729	61.225	18.003	2.321e-06	25.3	315.639	122.229	104.248	16.064	175.387	161.540	16.494	23.993	174.600	150.481	23.587	30.592	31.134	38.024	163.145	37.557	-8191	255	
3059.903	1	1	0	0	0.16829	0.20773	0.16478	0.11724	0.14814	0.13523	0.32079	0.37452	0.079196	0.15822	0.18323	0.21179	0.39985	0.10677	0.26202	0.15869	-2.2354	-2.6917	-3.2146	-2.5667	-3.1063	-3.0625	-2.7687	-3.4271	-2.5792	-2.5479	-3.35	-2.2104	-2.9	-3.1813	-2.3667	-3.1375	298.779	349.316	22.213	337.902	282.467	279.503	344.546	351.648	332.673	252.825	146.022	279.483	345.319	312.196	117.810	331.336	0.00052399	0.00035388	8.3971e-05	1085.2	1.3328e-06	2.5448e-06	1181.6	222.8	5.1394e-06	1.7131e-06	282.84	78.314	61.614	17.718	3.5604e-06	24.735	0.00026998	0.00022157	5.0654e-05	1079.3	2.1341e-06	2.1847e-06	1171	222.39	2.5249e-06	2.3571e-06	282.27	78.586	61.446	18.032	2.5103e-06	25.341	314.969	96.170	86.546	16.254	152.466	172.099	16.307	23.866	167.165	144.948	23.702	30.421	31.077	38.322	168.822	37.687	-8191	255	
3059.974	1	1	0	0	0.071215	0.12275	0.30384	0.17795	0.22674	0.12212	0.33573	0.24018	0.088159	0.097004	0.28419	0.21212	0.14817	0.05429	0.10346	0.20175	-2.3354	-2.7104	-3.3354	-2.3854	-2.9437	-3.2021	-2.5167	-3.4854	-2.7917	-2.4229	-3.4437	-2.4625	-2.8563	-3.0646	-2.2542	-3.0938	296.789	137.759	363.075	336.037	63.534	317.862	28.531	306.588	274.398	159.374	350.044	26.903	267.705	72.401	119.582	319.759	0.00046936	0.00029045	6.98e-05	1087.9	3.179e-06	3.0737e-06	1181.1	221.15	3.6886e-06	2.278e-06	282.99	78.331	60.79	17.774	2.2963e-06	25.009	0.00024374	0.00021829	5.3414e-05	1080.5	2.1355e-06	1.9043e-06	1170.2	221.35	2.2206e-06	2.2412e-06	281.78	78.752	61.083	18.035	2.2761e-06	25.325	320.975	103.412	93.268	16.422	165.012	161.401	16.514	23.968	187.856	153.864	23.352	30.693	31.186	38.233	158.066	37.527	-8191	255	
3060.070	1	1	0	0	0.19492	0.19019	0.22347	0.31841	0.21487	0.052166	0.40721	0.074099	0.087803	0.17236	0.14085	0.2088	0.14274	0.15483	0.15868	0.03451	-2.5375	-2.4125	-3.2625	-2.4604	-2.6396	-3.4979	-2.6	-3.2521	-2.9542	-2.4521	-3.3583	-2.6813	-2.7812	-3.3354	-2.3979	-3.0375	139.714	28.369	191.280	18.602	273.656	240.567	308.021	282.633	287.712	90.436	29.164	350.458	202.906	50.977	85.722	154.575	0.0005001	0.00032843	7.4263e-05	1098.8	4.3005e-06	2.3723e-06	1182.5	223.19	4.8108e-06	2.0031e-06	283.03	78.906	60.848	17.768	3.1754e-06	24.791	0.00026038	0.00020695	5.071e-05	1083.4	2.1552e-06	1.8834e-06	1171.2	222.56	2.3565e-06	2.3713e-06	282.35	78.881	61.209	18.043	2.3164e-06	25.264	313.664	95.080	102.126	16.240	158.971	153.095	16.547	24.060	184.432	168.126	23.656	30.555	31.263	38.168	150.158	37.803	-8191	255	
3060.191	1	1	0	0	0.1528	0.04654	0.060692	0.070704	0.096211	0.26922	0.26525	0.14926	0.20442	0.090795	0.10036	0.03902	0.049002	0.065569	0.13265	0.096432	-2.5542	-2.3187	-3.3542	-2.7	-2.4729	-3.4146	-2.5083	-3.0104	-3.0646	-2.3271	-3.4479	-2.6396	-2.5708	-3.3417	-2.5292	-2.9688	64.663	287.967	318.813	120.221	73.265	220.482	257.120	265.494	348.454	119.738	140.605	11.982	325.260	44.638	202.797	250.605	0.0005429	0.00028441	8.365e-05	1089.7	3.1212e-06	1.4289e-06	1183.3	222.04	4.0989e-06	2.102e-06	283.54	78.608	60.999	17.814	3.6599e-06	24.831	0.00026143	0.00021469	4.921e-05	1080.2	2.3525e-06	2.0494e-06	1170.5	222.18	2.364e-06	2.3557e-06	281.74	78.824	61.245	18.064	2.2794e-06	25.3	316.374	77.352	108.952	16.285	174.245	159.698	16.564	23.924	189.073	167.749	23.554	30.864	31.379	37.964	160.170	37.217	-8191	255	
3060.285	1	1	0	0	0.13339	0.29297	0.30584	0.12882	0.30471	0.24312	0.039157	0.2327	0.035995	0.1601	0.28618	0.20667	0.13522	0.056368	0.048367	0.28584	-2.7708	-2.1125	-3.1396	-2.6979	-2.5479	-3.2604	-2.5729	-2.8667	-3.0854	-2.3187	-3.3667	-2.9979	-2.4667	-3.1833	-2.425	-2.7521	34.994	68.930	310.916	196.211	247.174	135.749	146.445	258.192	86.385	31.687	244.800	218.065	323.590	208.566	201.962	158.422	0.00047031	0.00018002	8.4811e-05	1093.6	3.3474e-06	2.6474e-06	1182.1	222.6	3.4089e-06	2.1595e-06	282.01	78.708	60.854	17.875	2.6695e-06	24.82	0.00023317	0.00021029	5.3784e-05	1081.7	2.483e-06	2.0277e-06	1168.5	222.14	2.2043e-06	2.4181e-06	281.87	78.728	61.184	18.074	2.3902e-06	25.252	316.256	99.905	118.611	16.512	178.886	171.568	16.492	24.085	200.093	166.286	23.817	31.025	31.578	38.200	160.871	37.448	-8191	255	
3060.382	1	1	0	0	0.070342	0.21339	0.40711	0.06657	0.34703	0.2067	0.24018	0.15045	0.16251	0.34035	0.10582	0.070656	0.012266	0.069444	0.11945	0.21256	-2.7354	-2.1354	-3.0542	-2.9688	-2.3271	-3.1562	-2.6688	-2.7396	-3.2667	-2.3979	-3.1542	-3.0167	-2.2062	-3.1271	-2.7417	-2.7146	153.373	364.298	15.746	315.812	273.898	211.482	321.609	265.878	337.207	42.603	113.562	307.498	8.410	60.736	112.341	255.905	0.00047594	0.00035413	9.7506e-05	1090	2.1665e-06	3.1048e-06	1178.6	222.56	3.9689e-06	2.654e-06	282.24	78.342	61.086	17.72	3.2715e-06	24.967	0.00023588	0.00020406	5.6155e-05	1081.1	2.323e-06	1.9701e-06	1171	222.25	2.1818e-06	2.1877e-06	281.84	78.778	61.278	18.02	2.1835e-06	25.307	320.392	85.330	109.364	16.133	193.636	167.519	16.296	24.137	179.859	168.428	23.881	30.748	30.892	38.671	186.037	37.453	-8191	255	
3060.478	1	1	0	0	0.073042	0.11417	0.26398	0.20362	0.15221	0.38375	0.13316	0.15963	0.15034	0.21505	0.12515	0.063752	0.099689	0.1422	0.069011	0.22912	-2.925	-2.4062	-2.9437	-3.2042	-2.3625	-3.2729	-2.8104	-2.4771	-3.4	-2.3083	-2.9646	-3.1917	-2.2812	-3.3312	-2.7896	-2.5083	116.659	227.153	315.544	186.437	14.529	248.291	223.765	133.201	237.081	9.236	7.665	33.434	303.995	270.139	146.106	337.330	0.00043362	0.00042814	7.0932e-05	1095.9	2.7495e-06	2.6194e-06	1185.3	221.51	4.3922e-06	4.1354e-06	281.52	78.202	61.158	17.753	2.5391e-06	24.743	0.0002334	0.00021429	5.3303e-05	1080.1	2.4135e-06	1.9911e-06	1171.3	221.85	2.0578e-06	2.4448e-06	281.78	78.748	61.288	18.046	2.2399e-06	25.288	318.195	103.863	117.579	16.063	154.729	180.878	16.416	24.078	191.215	149.608	23.154	31.126	31.226	38.290	181.808	37.507	-8191	255	
3060.574	1	1	0	0	0.040329	0.35136	0.059635	0.2408	0.2861	0.02487	0.084582	0.092836	0.17615	0.10581	0.058734	0.27676	0.11469	0.15349	0.17624	0.24297	-2.9479	-2.4896	-2.7708	-3.2604	-2.3479	-3.2875	-3.1958	-2.4479	-3.3542	-2.6396	-2.9479	-3.275	-2.4458	-3.0625	-2.9688	-2.4021	182.589	144.861	10.579	350.545	35.707	330.262	348.449	27.754	219.484	270.517	255.294	146.716	197.887	29.816	38.257	333.359	0.00045458	0.00033343	8.255e-05	1089	2.3116e-06	2.8294e-06	1179.9	223.01	4.8196e-06	2.8478e-06	282.61	77.761	60.797	17.698	3.9626e-06	24.797	0.00024617	0.00020662	5.1766e-05	1079.8	2.1734e-06	1.9656e-06	1169.5	222.37	2.1705e-06	2.0532e-06	281.36	78.469	61.083	18.035	2.2123e-06	25.237	316.549	87.570	110.249	15.693	142.515	182.541	16.406	24.116	195.009	162.229	23.532	30.876	31.144	37.723	158.803	37.240	-8191	255	
3060.670	1	1	0	0	0.32774	0.25671	0.13144	0.26611	0.36837	0.19838	0.19617	0.4354	0.13836	0.12107	0.13049	0.17363	0.45479	0.12732	0.19488	0.14966	-2.875	-2.5167	-2.7646	-3.3396	-2.4583	-3.1542	-3.2479	-2.575	-3.4708	-2.7375	-2.7125	-3.4458	-2.3354	-2.9562	-3.0333	-2.3292	240.558	116.972	89.689	92.691	225.531	14.593	352.183	319.767	204.589	363.019	16.179	318.272	19.926	359.395	346.238	332.796	0.0005	0.00034136	0.00010588	1088.6	2.8368e-06	2.8987e-06	1180.3	222.35	5.0761e-06	3.2517e-06	283	77.922	61.594	17.794	2.514e-06	24.623	0.00024041	0.00019363	5.6933e-05	1078.9	2.5083e-06	1.9641e-06	1171.3	221.82	2.2381e-06	2.3445e-06	282.1	78.501	61.3	18	2.0547e-06	25.157	315.498	90.051	100.547	16.101	162.346	151.464	16.414	24.149	193.475	192.556	23.501	30.742	31.208	38.705	179.008	37.644	-8191	255	
3060.766	1	1	0	0	0.040823	0.13499	0.10169	0.16031	0.090705	0.33128	0.36215	0.11664	0.17678	0.19176	0.26993	0.23463	0.05947	0.095893	0.26584	0.29157	-2.8875	-2.6396	-2.4771	-3.3458	-2.5125	-2.9083	-3.3292	-2.4917	-3.2396	-2.7208	-2.4208	-3.3125	-2.5312	-2.9521	-3.3208	-2.2958	92.136	119.739	299.485	242.784	34.345	328.903	279.618	266.169	227.281	82.013	50.469	309.383	250.688	335.623	246.012	264.099	0.00044088	0.0002887	8.902e-05	1098.5	3.5557e-06	3.1183e-06	1182.9	223.05	5.4213e-06	2.9785e-06	281.62	78.409	61.354	17.827	3.6549e-06	24.873	0.00023162	0.00020249	5.8989e-05	1081.7	2.3826e-06	1.9656e-06	1170.2	222.18	2.3615e-06	2.1751e-06	281.85	78.761	61.37	18.084	2.1405e-06	25.255	318.161	66.824	100.321	16.734	158.646	163.427	16.338	23.981	184.987	158.944	23.738	30.781	31.081	38.600	170.992	37.400	-8191	255	
3060.862	1	1	0	0	0.21844	0.26701	0.047503	0.12321	0.35457	0.22084	0.25424	0.013747	0.12242	0.11413	0.14738	0.36321	0.08435	0.14989	0.056308	0.3418	-2.7812	-2.7562	-2.4521	-3.2687	-2.5104	-2.7	-3.3042	-2.3937	-3.0354	-2.9479	-2.5125	-3.0958	-2.5312	-2.5521	-3.1521	-2.4958	251.214	22.264	291.718	6.908	149.601	284.633	295.965	261.938	35.708	299.789	243.060	238.818	270.563	17.604	283.461	333.881	0.0005203	0.00037341	5.9436e-05	1093.4	2.8845e-06	2.331e-06	1185.9	222.36	3.3453e-06	3.4308e-06	282.52	78.401	61.026	17.745	3.4673e-06	24.742	0.00024699	0.00022236	5.9933e-05	1081.2	2.4655e-06	2.1705e-06	1172	222.21	2.168e-06	2.343e-06	281.71	78.805	61.345	18.027	2.0332e-06	25.223	316.751	78.504	101.763	16.120	158.033	168.201	16.531	24.244	235.047	168.182	23.465	30.943	31.606	38.228	169.577	37.461	-8191	255	
3060.983	1	1	0	0	0.22494	0.13216	0.25086	0.1749	0.15966	0.28979	0.26513	0.29181	0.23261	0.14961	0.10143	0.27157	0.13315	0.16731	0.34402	0.16308	-2.7125	-3.0146	-2.5396	-3.3667	-2.6729	-2.5458	-3.3854	-2.5521	-2.9021	-3.15	-2.3125	-3.2313	-2.8521	-2.6312	-3.1354	-2.5146	124.970	329.210	246.969	340.460	79.657	24.540	317.659	322.887	251.873	11.003	301.363	6.097	92.998	16.896	83.223	334.631	0.00049804	0.00019208	4.9778e-05	1095.7	3.0532e-06	2.1424e-06	1185.6	222.58	4.9532e-06	3.0038e-06	281.53	78.232	60.796	17.824	3.9911e-06	24.68	0.00025113	0.00018609	6.1211e-05	1085.4	2.231e-06	2.0434e-06	1172.9	221.6	2.3502e-06	2.0487e-06	281.41	78.786	61.112	18.024	2.0674e-06	25.176	314.556	112.146	85.217	16.139	144.871	194.942	16.562	23.962	173.369	151.936	23.462	30.941	30.805	38.196	147.928	37.499	-8191	255	
3061.079	1	1	0	0	0.16221	0.23379	0.27325	0.13593	0.21199	0.15074	0.22254	0.18681	0.14805	0.23163	0.26724	0.08937	0.052915	0.24149	0.093538	0.23938	-2.5833	-3.1521	-2.3688	-3.2042	-2.7917	-2.5146	-3.4771	-2.7313	-2.9021	-3.1312	-2.4333	-3.2646	-2.7917	-2.4875	-3.3438	-2.525	309.821	49.337	150.894	151.723	80.463	275.507	318.389	363.733	283.599	248.807	285.896	216.360	218.299	35.898	337.254	249.467	0.00047401	0.00027444	5.059e-05	1097.8	2.6644e-06	1.9456e-06	1183.5	221.96	3.1806e-06	2.614e-06	280.86	78.044	60.756	17.787	3.2421e-06	24.751	0.0002473	0.0001994	5.7266e-05	1085.6	2.1348e-06	2.2198e-06	1170.3	221.48	2.3609e-06	1.9722e-06	281.44	78.66	60.987	18	1.9332e-06	25.2	319.025	97.493	84.815	16.187	157.365	178.366	16.481	24.113	166.076	192.623	23.474	30.938	30.899	38.202	154.466	37.200	-8191	255	
3061.173	1	1	0	0	0.17734	0.18257	0.14818	0.12742	0.20315	0.092461	0.44413	0.043619	0.12563	0.13658	0.064024	0.32399	0.15626	0.2841	0.19783	0.25942	-2.3417	-3.2	-2.3583	-2.9771	-2.975	-2.4583	-3.375	-2.6688	-2.7208	-3.2292	-2.5104	-3.1146	-3.2771	-2.3583	-3.2604	-2.7896	221.758	204.695	314.572	177.469	206.114	125.575	347.733	15.633	269.218	344.751	131.667	304.123	293.098	327.947	190.496	296.849	0.00044275	0.00027324	9.3179e-05	1092.2	3.3931e-06	3.03e-06	1181.4	222.13	4.7469e-06	2.9531e-06	283.01	78.476	60.97	17.596	2.7832e-06	24.676	0.00024455	0.00017979	6.1563e-05	1080.9	2.0983e-06	2.3499e-06	1171.7	221.71	2.4066e-06	1.7901e-06	281.7	78.723	61.234	17.985	2.0506e-06	25.166	317.869	96.376	87.522	16.466	158.608	175.498	16.620	24.403	194.794	170.741	23.711	30.879	30.987	38.345	176.921	37.375	-8191	255	
3061.271	1	1	0	0	0.15227	0.18317	0.14014	0.1269	0.16486	0.23546	0.1325	0.19611	0.17023	0.087107	0.14879	0.055299	0.14669	0.096438	0.17767	0.12308	-2.3083	-3.1188	-2.3354	-2.9813	-3.1813	-2.5042	-3.5896	-2.7854	-2.5875	-3.1958	-2.4646	-2.8521	-3.2667	-2.2833	-3.25	-2.8729	147.720	234.274	124.930	12.093	190.280	40.487	78.077	145.798	246.825	195.132	54.118	236.558	36.332	272.498	60.293	147.755	0.00050635	0.00036429	7.8072e-05	1099.9	2.092e-06	1.5432e-06	1182.5	221.84	3.8154e-06	2.8889e-06	283.13	78.455	60.445	17.75	4.2136e-06	24.89	0.00026522	0.00018661	5.8507e-05	1081.7	1.9853e-06	2.2408e-06	1170.6	221.76	2.5469e-06	2.0168e-06	282.32	78.802	60.978	18.036	2.0117e-06	25.237	320.147	116.824	87.808	16.591	178.045	165.859	16.589	24.539	212.090	168.428	23.866	31.081	31.325	38.020	136.790	37.699	-8191	255	
3061.366	1	1	0	0	0.086854	0.28035	0.12426	0.11131	0.095021	0.066797	0.062347	0.14164	0.12205	0.2092	0.0128	0.12624	0.048663	0.28696	0.23775	0.18753	-2.0938	-3.1792	-2.3937	-2.8292	-3.1396	-2.3438	-3.1792	-3.0167	-2.5333	-3.3146	-2.8667	-2.75	-3.3125	-2.5229	-3.1292	-3.1646	90.219	31.701	323.481	81.918	218.424	258.941	210.834	16.890	14.128	98.310	330.931	86.774	365.252	49.638	243.045	319.345	0.00048899	0.00041109	8.969e-05	1092.3	4.081e-06	1.8043e-06	1188.2	222.62	5.6889e-06	1.8816e-06	281.57	78.193	61.005	17.657	4.5668e-06	24.819	0.00026061	0.00017238	5.6507e-05	1080.1	2.1959e-06	2.2759e-06	1173	221.68	2.6026e-06	2.1245e-06	281.86	78.727	60.902	18.01	2.1452e-06	25.221	315.000	86.239	110.713	16.098	184.742	171.633	16.585	24.185	197.255	151.969	23.701	31.279	31.690	38.753	160.805	37.606	-8191	255	
3061.464	1	1	0	0	0.054382	0.014308	0.13565	0.049684	0.173	0.12671	0.22634	0.19209	0.2632	0.076536	0.15052	0.17236	0.17242	0.21074	0.076528	0.13086	-1.9062	-3.1562	-2.525	-2.3312	-3.2021	-2.3854	-3.1021	-3.2396	-2.4083	-3.3604	-2.8479	-2.5375	-3.3229	-2.4	-2.8354	-3.1	347.617	56.981	133.358	28.681	214.423	186.218	364.588	101.699	193.719	100.044	188.718	299.540	25.539	86.773	338.153	282.385	0.00050622	0.00025186	7.311e-05	1088.4	3.4986e-06	2.9339e-06	1183.1	222.62	4.8666e-06	3.089e-06	281.45	78.465	60.984	17.684	3.4612e-06	24.949	0.00025597	0.00018418	5.3933e-05	1078.8	2.1706e-06	2.3881e-06	1171.1	222	2.4304e-06	2.1104e-06	281.24	78.665	61.22	18.038	2.0278e-06	25.293	318.326	99.120	71.670	16.642	176.086	143.422	16.771	24.028	158.761	153.224	23.613	31.086	31.368	38.639	161.672	37.566	-8191	255	
3061.583	1	1	0	0	0.092545	0.08845	0.05382	0.22407	0.18604	0.2624	0.14524	0.12569	0.1888	0.35346	0.12136	0.30468	0.18707	0.021681	0.12079	0.14216	-1.8458	-3.1542	-2.8375	-2.5875	-3.4	-2.5146	-2.8333	-3.2562	-2.275	-3.1521	-2.7708	-2.5563	-3.3646	-2.5021	-2.8937	-3.3521	33.318	28.288	365.180	86.090	266.126	141.228	251.607	336.806	256.130	187.384	117.194	20.605	85.924	291.887	27.008	60.914	0.00047025	0.00034211	8.6328e-05	1095.6	2.5325e-06	3.0932e-06	1182	223.09	5.3362e-06	2.7208e-06	281.93	78.723	61.324	17.79	4.5305e-06	24.885	0.00026305	0.00019376	5.6544e-05	1085.8	1.9692e-06	2.48e-06	1170.8	221.94	2.5738e-06	1.8518e-06	281.78	78.787	61.315	18.035	2.1895e-06	25.245	317.750	113.907	102.642	16.248	160.068	179.572	16.606	24.289	198.796	150.130	23.947	31.132	31.082	38.213	168.956	37.510	-8191	255	
3061.679	1	1	0	0	0.11163	0.029329	0.2735	0.084442	0.12163	0.16022	0.31953	0.12889	0.35124	0.16917	0.18642	0.40782	0.073816	0.11822	0.19506	0.1584	-1.9417	-3.1063	-2.9667	-2.3875	-3.3104	-2.6312	-2.8583	-3.4208	-2.5396	-3.0604	-3.1063	-2.2354	-3.2521	-2.5854	-2.3812	-3.4833	258.241	26.870	183.975	244.145	361.606	350.942	296.864	211.359	231.479	328.890	313.486	355.006	363.965	349.795	88.947	345.777	0.00048054	0.00034289	8.3253e-05	1087.5	2.1347e-06	2.8296e-06	1186.5	222.89	5.4978e-06	3.0864e-06	283.42	77.843	61.018	17.798	2.2776e-06	24.754	0.0002586	0.00017946	5.2488e-05	1083.1	2.1299e-06	2.3103e-06	1173.3	221.57	2.488e-06	2.1966e-06	281.72	78.79	61.212	18.025	2.1083e-06	25.224	317.453	88.520	109.892	16.853	137.847	179.498	16.827	24.212	195.601	160.744	23.890	30.670	31.380	38.013	154.955	37.630	-8191	255	
3061.775	1	1	0	0	0.23988	0.18981	0.11709	0.12289	0.084366	0.058252	0.24423	0.17828	0.17624	0.20066	0.13702	0.10027	0.14876	0.037331	0.047227	0.13814	-2.1063	-2.9896	-3.0583	-2.3667	-3.2396	-2.5875	-2.6167	-3.5312	-2.475	-2.9979	-3.3021	-2.2938	-3.2687	-2.6896	-2.3771	-3.3146	69.342	140.419	319.715	104.450	61.345	292.241	282.053	35.565	205.560	104.844	266.311	133.837	95.535	86.981	107.612	64.760	0.00049585	0.00026076	7.8945e-05	1089.3	2.6169e-06	3.0606e-06	1182.1	221.37	4.2342e-06	3.7033e-06	281.69	78.575	61.315	17.705	2.5834e-06	25.096	0.00027064	0.00019816	5.9267e-05	1080.1	2.1622e-06	2.2027e-06	1169.7	221.38	2.5782e-06	2.1855e-06	281.43	78.599	61.228	17.991	2.3741e-06	25.313	317.184	107.549	90.986	16.140	171.056	160.101	16.651	23.733	185.343	177.535	23.650	31.174	31.368	38.123	171.689	37.252	-8191	255	
3061.871	1	1	0	0	0.12447	0.10896	0.17061	0.061243	0.23951	0.052996	0.33789	0.16586	0.098072	0.32673	0.21807	0.37002	0.047107	0.14768	0.23029	0.17035	-2.0479	-2.8187	-3.3042	-2.275	-3.3063	-2.8396	-2.7458	-3.5187	-2.5062	-2.8146	-3.45	-2.6	-3.2104	-2.8438	-2.2812	-3.4792	337.530	297.678	348.636	69.738	150.576	191.943	346.156	297.658	278.820	209.356	308.374	228.491	236.220	47.111	213.061	211.920	0.00050991	0.0002465	8.9999e-05	1094	3.0107e-06	1.1926e-06	1181.3	222.33	5.6812e-06	3.4846e-06	282.03	78.882	61.165	17.606	3.8001e-06	24.692	0.0002615	0.00021429	5.4877e-05	1081.6	2.1306e-06	2.2101e-06	1171.5	221.97	2.4517e-06	2.2122e-06	281.99	78.891	61.317	17.984	2.3593e-06	25.19	318.649	124.917	86.608	16.370	152.387	121.417	16.689	24.279	204.464	174.156	23.771	31.051	31.158	38.500	191.015	37.376	-8191	255	
3061.967	1	1	0	0	0.10627	0.15932	0.24268	0.15789	0.29748	0.11053	0.19261	0.10479	0.12953	0.25012	0.12092	0.085772	0.20256	0.11454	0.14643	0.27233	-2.1	-2.3604	-3.2625	-2.3167	-3.1292	-3.0125	-2.6167	-3.2354	-2.7375	-2.4479	-3.4062	-2.4521	-3.05	-3.1146	-2.4583	-3.2646	239.323	58.152	288.190	227.588	323.546	27.288	298.288	274.388	15.074	337.328	39.112	59.361	38.337	75.541	159.078	158.598	0.00045336	0.00028908	9.8072e-05	1090.7	2.036e-06	2.1713e-06	1188.2	222.41	5.8223e-06	3.8096e-06	282.67	78.375	60.971	17.704	3.4297e-06	24.783	0.00026855	0.00021488	5.1025e-05	1084.3	2.1201e-06	2.1892e-06	1176.1	222.35	2.5093e-06	2.3631e-06	282	78.781	61.339	17.99	2.3855e-06	25.241	316.055	89.223	88.309	16.666	152.303	165.894	16.553	24.260	190.223	143.535	23.368	31.134	31.461	38.118	175.403	37.447	-8191	255	
3062.063	1	1	0	0	0.18333	0.094801	0.18961	0.28864	0.29322	0.16156	0.085348	0.07703	0.28481	0.02531	0.085503	0.15378	0.2029	0.26545	0.23956	0.060486	-2.3917	-2.725	-3.4167	-2.4167	-3.0521	-3.0938	-2.4271	-3.1771	-2.7021	-2.2833	-3.3417	-2.5125	-2.825	-3.1771	-2.3563	-3.2687	322.593	362.617	21.798	365.878	222.287	196.863	365.881	281.528	130.928	179.101	241.748	165.813	322.365	88.178	220.164	6.363	0.00045078	0.0003202	6.4245e-05	1093.4	2.198e-06	2.9086e-06	1188.2	223.84	4.9066e-06	2.7053e-06	281.82	78.437	61.286	17.725	4.7946e-06	24.93	0.00024571	0.00022616	5.1377e-05	1086	2.3595e-06	2.2542e-06	1175.7	222.58	2.4085e-06	2.3883e-06	281.45	78.82	61.313	18.001	2.6452e-06	25.295	316.766	111.383	105.609	16.933	152.324	150.622	16.751	24.220	198.321	146.343	23.683	30.914	31.444	38.193	191.254	37.608	-8191	255	
3062.159	1	1	0	0	0.16411	0.15982	0.31919	0.15974	0.13399	0.19507	0.31381	0.21471	0.21401	0.042898	0.31731	0.14529	0.069939	0.25265	0.098391	0.17978	-2.4542	-2.5542	-3.1167	-2.8021	-2.8312	-3.3812	-2.4875	-3.0687	-2.9625	-2.3021	-3.2604	-2.4979	-2.5729	-3.2417	-2.2396	-3.0354	345.045	326.209	314.857	343.977	98.519	192.323	322.054	296.590	183.549	58.733	40.087	233.583	349.401	16.124	156.202	307.148	0.00048761	0.00034288	7.7509e-05	1094.2	2.6568e-06	2.8101e-06	1184.6	222.76	4.8204e-06	3.3655e-06	282.11	78.532	61.093	17.902	1.8144e-06	24.637	0.00024954	0.00022118	5.3747e-05	1085.1	2.165e-06	2.0172e-06	1174	222.62	2.3465e-06	2.5169e-06	281.89	78.695	61.3	18.057	2.2003e-06	25.233	317.733	96.900	113.527	16.509	198.661	168.821	16.555	24.007	190.679	136.067	23.212	31.155	31.071	37.857	137.307	37.437	-8191	255	
3062.278	1	1	0	0	0.097941	0.067721	0.096206	0.094955	0.1949	0.028791	0.21102	0.0994	0.20186	0.014791	0.19117	0.2087	0.16094	0.22979	0.097965	0.087757	-2.7021	-2.5687	-3.3063	-2.6646	-2.4021	-3.2542	-2.5667	-2.9229	-3.2167	-2.3917	-3.2438	-2.6312	-2.5646	-3.2562	-2.425	-2.9833	214.135	104.694	362.033	240.433	110.058	301.004	276.537	60.246	71.335	158.282	258.056	33.212	276.627	135.223	365.284	21.981	0.00051387	0.00025503	8.6837e-05	1099.9	2.8992e-06	2.1247e-06	1183.5	223.28	6.498e-06	3.0255e-06	282.83	78.297	61.175	17.634	3.2642e-06	24.971	0.00025531	0.00023036	5.2655e-05	1083.3	2.5097e-06	2.0015e-06	1173.9	222.62	2.5462e-06	2.5273e-06	282.11	78.797	61.288	17.998	2.5163e-06	25.271	317.535	99.083	121.948	16.207	181.095	124.211	16.722	24.276	190.617	189.959	23.519	31.062	31.603	38.348	153.785	37.490	-8191	255	
3062.374	1	1	0	0	0.094548	0.31407	0.096641	0.090797	0.18813	0.30266	0.15645	0.22656	0.17844	0.046769	0.45957	0.12654	0.33713	0.18142	0.092451	0.24216	-2.8479	-2.1771	-3.1312	-2.8875	-2.4583	-3.3604	-2.5708	-3.0208	-3.3458	-2.2604	-3.0854	-2.9708	-2.3979	-3.3187	-2.5229	-2.8333	46.070	327.010	333.974	337.512	235.206	193.978	253.784	248.709	67.540	70.768	296.161	274.656	341.352	63.069	218.954	47.937	0.00050344	0.00038781	8.9551e-05	1090	2.5778e-06	2.054e-06	1188.2	223.48	4.9435e-06	3.2521e-06	283.26	78.304	61.472	17.852	4.1406e-06	24.97	0.0002531	0.00021469	5.5433e-05	1083.4	2.4206e-06	2.08e-06	1176.6	222.3	2.3502e-06	2.3765e-06	282.26	78.799	61.501	18.065	2.4646e-06	25.317	310.000	87.354	98.291	16.360	169.991	160.454	16.547	24.091	186.959	162.290	23.854	30.766	31.245	38.031	156.282	37.665	-8191	255	
3062.446	1	1	0	0	0.048518	0.15439	0.12364	0.045925	0.27068	0.14282	0.40616	0.094566	0.19862	0.073063	0.13913	0.11323	0.16432	0.27124	0.2854	0.15012	-2.9188	-2.2958	-2.9917	-3.0229	-2.3854	-3.5208	-2.7667	-2.5521	-3.275	-2.3979	-3.1146	-3.0771	-2.4667	-3.3604	-2.6104	-2.5083	18.630	222.843	266.227	36.975	294.042	290.997	312.400	270.056	263.330	345.817	176.342	184.247	265.351	309.572	113.374	293.194	0.00050184	0.00031813	5.0293e-05	1104.2	4.0127e-06	1.7252e-06	1183.2	222.89	6.6389e-06	1.3407e-06	282.2	78.598	60.997	17.83	3.6609e-06	24.898	0.00025051	0.00022295	5.1006e-05	1089.9	2.5273e-06	2.006e-06	1173.4	222.58	2.2845e-06	2.508e-06	282.27	78.938	61.184	18.088	2.3533e-06	25.279	317.924	107.343	85.482	16.825	174.917	146.910	16.676	24.085	211.136	158.925	23.782	30.744	31.629	38.540	145.357	37.849	-8191	255	
3062.544	1	1	0	0	0.075376	0.082681	0.18235	0.19041	0.14323	0.083828	0.17318	0.21652	0.10914	0.21817	0.21278	0.17972	0.075018	0.24153	0.064374	0.18886	-2.8	-2.2958	-2.8729	-3.0229	-2.2687	-3.2917	-3.0271	-2.725	-3.2458	-2.4792	-3.0375	-3.2021	-2.3563	-3.2875	-2.6625	-2.425	43.123	283.764	87.549	132.899	235.743	176.850	319.534	18.711	197.131	59.035	312.517	194.490	187.666	216.884	361.551	49.878	0.00047271	0.00021741	7.5675e-05	1090.6	3.2112e-06	4.189e-06	1185.1	222.08	4.3908e-06	2.9725e-06	281.84	78.613	60.559	17.78	3.3032e-06	24.888	0.00024335	0.00022223	5.2784e-05	1082.4	2.4683e-06	1.8632e-06	1174.4	222.12	2.2056e-06	2.2353e-06	282.1	78.935	61.064	18.063	2.2801e-06	25.237	319.031	98.973	102.846	16.412	151.494	158.683	16.457	24.341	196.307	182.030	23.557	31.093	31.586	38.287	168.259	37.156	-8191	255	
#DATA ENDS
