BOXY.EXE: ISS Imagent and Oximeter Data Acquisition Program Version 0.80
Ascii Record File

#ACQ INFORMATION
2  Detector Channels 
16  External MUX Channels 
1  Auxiliary Channels 
5000  Waveform (CCF) Frequency (Hz)
1  Waveforms Skipped 
30  Waveforms Averaged 
1  Cycles Averaged 
16  Acquisitions per Waveform 
10.0806  Updata Rate (Hz) 

#FILE INFORMATION
TRUE -- External MUX Channel results are PARSED.
FALSE -- AC DC and Phase are NOT grouped.
TRUE -- Companion Program Settings File CREATED.
FALSE -- AC data not excluded
FALSE -- DC data not excluded
FALSE -- Phase data not excluded
FALSE -- Auxillary Chn. data not excluded
Tab delimiters

#CALIBRATION STATE
TRUE -- Waveform Calibration Values APPLIED.


#AUX CALIBRATION VALUES
Val Type	aux-1	

Term	1.0000e+00	
Factor	0.0000e+00	


#WF CALIBRATION VALUES
A = Detector Channel
Val Type	A-AC1	A-AC2	A-AC3	A-AC4	A-AC5	A-AC6	A-AC7	A-AC8	A-AC9	A-AC10	A-AC11	A-AC12	A-AC13	A-AC14	A-AC15	A-AC16	A-DC1	A-DC2	A-DC3	A-DC4	A-DC5	A-DC6	A-DC7	A-DC8	A-DC9	A-DC10	A-DC11	A-DC12	A-DC13	A-DC14	A-DC15	A-DC16	A-Ph1	A-Ph2	A-Ph3	A-Ph4	A-Ph5	A-Ph6	A-Ph7	A-Ph8	A-Ph9	A-Ph10	A-Ph11	A-Ph12	A-Ph13	A-Ph14	A-Ph15	A-Ph16	

Term	0.00000e+00	0.00000e+00	0.00000e+00	0.00000e+00	0.00000e+00	0.00000e+00	0.00000e+00	0.00000e+00	0.00000e+00	0.00000e+00	0.00000e+00	0.00000e+00	0.00000e+00	0.00000e+00	0.00000e+00	0.00000e+00	0.00000e+00	0.00000e+00	0.00000e+00	0.00000e+00	0.00000e+00	0.00000e+00	0.00000e+00	0.00000e+00	0.00000e+00	0.00000e+00	0.00000e+00	0.00000e+00	0.00000e+00	0.00000e+00	0.00000e+00	0.00000e+00	0.00000e+00	0.00000e+00	0.00000e+00	0.00000e+00	0.00000e+00	0.00000e+00	0.00000e+00	0.00000e+00	0.00000e+00	0.00000e+00	0.00000e+00	0.00000e+00	0.00000e+00	0.00000e+00	0.00000e+00	0.00000e+00	
Factor	1.00000e+00	1.00000e+00	1.00000e+00	1.00000e+00	1.00000e+00	1.00000e+00	1.00000e+00	1.00000e+00	1.00000e+00	1.00000e+00	1.00000e+00	1.00000e+00	1.00000e+00	1.00000e+00	1.00000e+00	1.00000e+00	1.00000e+00	1.00000e+00	1.00000e+00	1.00000e+00	1.00000e+00	1.00000e+00	1.00000e+00	1.00000e+00	1.00000e+00	1.00000e+00	1.00000e+00	1.00000e+00	1.00000e+00	1.00000e+00	1.00000e+00	1.00000e+00	X	X	X	X	X	X	X	X	X	X	X	X	X	X	X	X	

B = Detector Channel
Val Type	B-AC1	B-AC2	B-AC3	B-AC4	B-AC5	B-AC6	B-AC7	B-AC8	B-AC9	B-AC10	B-AC11	B-AC12	B-AC13	B-AC14	B-AC15	B-AC16	B-DC1	B-DC2	B-DC3	B-DC4	B-DC5	B-DC6	B-DC7	B-DC8	B-DC9	B-DC10	B-DC11	B-DC12	B-DC13	B-DC14	B-DC15	B-DC16	B-Ph1	B-Ph2	B-Ph3	B-Ph4	B-Ph5	B-Ph6	B-Ph7	B-Ph8	B-Ph9	B-Ph10	B-Ph11	B-Ph12	B-Ph13	B-Ph14	B-Ph15	B-Ph16	

Term	0.00000e+00	0.00000e+00	0.00000e+00	0.00000e+00	0.00000e+00	0.00000e+00	0.00000e+00	0.00000e+00	0.00000e+00	0.00000e+00	0.00000e+00	0.00000e+00	0.00000e+00	0.00000e+00	0.00000e+00	0.00000e+00	0.00000e+00	0.00000e+00	0.00000e+00	0.00000e+00	0.00000e+00	0.00000e+00	0.00000e+00	0.00000e+00	0.00000e+00	0.00000e+00	0.00000e+00	0.00000e+00	0.00000e+00	0.00000e+00	0.00000e+00	0.00000e+00	4.69297e+01	-1.27678e+02	-1.27972e+02	-1.88002e+02	-6.67894e+01	-6.28409e+01	-1.55213e+02	-1.62015e+02	-4.91738e+01	-6.38444e+01	-1.70390e+02	-1.71563e+02	-1.84555e+02	-1.77043e+02	-6.69105e+01	-1.49382e+02	
Factor	5.93376e-05	1.60034e-04	4.50777e-05	6.62379e-01	1.71948e-06	1.64504e-06	1.55997e-01	5.34235e-02	2.61917e-06	1.72808e-06	8.14009e-02	2.71226e-02	2.83956e-02	8.73549e-03	1.91468e-06	1.24596e-02	1.85792e-05	3.14846e-05	8.89000e-06	3.50234e-01	3.36969e-07	3.58884e-07	7.79026e-02	2.84634e-02	3.00588e-07	3.56692e-07	4.20802e-02	1.39855e-02	1.51021e-02	4.71687e-03	3.22088e-07	6.51153e-03	X	X	X	X	X	X	X	X	X	X	X	X	X	X	X	X	



#DISTANCE SETTINGS
A = Detector Channel
A-1	A-2	A-3	A-4	A-5	A-6	A-7	A-8	A-9	A-10	A-11	A-12	A-13	A-14	A-15	A-16	

2.5000e+00	3.0000e+00	2.5000e+00	3.0000e+00	2.0000e+00	3.0000e+00	1.5000e+00	3.0000e+00	3.0000e+00	3.0000e+00	3.0000e+00	3.0000e+00	3.0000e+00	3.0000e+00	1.5000e+00	3.0000e+00	

B = Detector Channel
B-1	B-2	B-3	B-4	B-5	B-6	B-7	B-8	B-9	B-10	B-11	B-12	B-13	B-14	B-15	B-16	

1.0000e+01	1.0000e+01	1.0000e+01	1.4400e+00	1.0000e+01	1.0000e+01	1.5100e+00	1.9400e+00	1.0000e+01	1.0000e+01	1.9900e+00	2.4900e+00	2.4100e+00	2.9000e+00	1.0000e+01	2.9800e+00	




#DATA BEGINS
time	group	step	mark	flag	A-AC1	A-AC2	A-AC3	A-AC4	A-AC5	A-AC6	A-AC7	A-AC8	A-AC9	A-AC10	A-AC11	A-AC12	A-AC13	A-AC14	A-AC15	A-AC16	A-DC1	A-DC2	A-DC3	A-DC4	A-DC5	A-DC6	A-DC7	A-DC8	A-DC9	A-DC10	A-DC11	A-DC12	A-DC13	A-DC14	A-DC15	A-DC16	A-Ph1	A-Ph2	A-Ph3	A-Ph4	A-Ph5	A-Ph6	A-Ph7	A-Ph8	A-Ph9	A-Ph10	A-Ph11	A-Ph12	A-Ph13	A-Ph14	A-Ph15	A-Ph16	B-AC1	B-AC2	B-AC3	B-AC4	B-AC5	B-AC6	B-AC7	B-AC8	B-AC9	B-AC10	B-AC11	B-AC12	B-AC13	B-AC14	B-AC15	B-AC16	B-DC1	B-DC2	B-DC3	B-DC4	B-DC5	B-DC6	B-DC7	B-DC8	B-DC9	B-DC10	B-DC11	B-DC12	B-DC13	B-DC14	B-DC15	B-DC16	B-Ph1	B-Ph2	B-Ph3	B-Ph4	B-Ph5	B-Ph6	B-Ph7	B-Ph8	B-Ph9	B-Ph10	B-Ph11	B-Ph12	B-Ph13	B-Ph14	B-Ph15	B-Ph16	aux-1	digaux	

3431.771	1	1	0	256	0.18606	0.26807	0.14906	0.23696	0.1547	0.20423	0.093728	0.059197	0.36409	0.10497	0.060519	0.34352	0.30547	0.24952	0.16423	0.28877	-2.5792	-2.8563	-2.0104	-3.175	-2.6958	-2.5167	-3.4167	-2.4083	-2.6917	-2.9729	-2.3937	-3.2396	-2.6979	-2.5917	-3.2479	-2.325	197.565	12.139	247.378	29.842	-5.332	34.443	166.914	317.805	215.593	218.352	9.436	292.978	-19.468	291.911	35.207	329.063	0.00035166	0.00054077	0.00021122	522.52	3.0487e-06	1.1226e-05	450.07	175.39	1.3644e-06	4.2328e-06	174.4	64.763	65.061	31.566	7.0678e-06	33.753	0.0077717	0.0126	0.0032491	628.74	0.00010934	0.00010626	465.4	180.95	7.5377e-05	9.1721e-05	182.23	67.323	68.212	32.637	8.0324e-05	34.979	329.026	125.022	148.664	-13.697	127.449	186.605	-15.282	-9.220	129.051	323.528	-11.793	-7.041	-4.807	-0.778	144.168	-4.834	-8191	255	
3431.868	1	1	0	0	0.11609	0.20897	0.3251	0.28	0.09646	0.017171	0.20653	0.21598	0.32725	0.20947	0.10967	0.20432	0.15482	0.20449	0.15631	0.090527	-2.525	-3.15	-2.4688	-3.2938	-2.7875	-2.5875	-3.2021	-2.5979	-2.7417	-3.2375	-2.5062	-3.1396	-2.7938	-2.3521	-3.0542	-2.5979	131.729	48.886	-26.694	171.065	306.981	236.045	192.480	315.643	37.748	185.679	7.251	-18.864	264.056	294.080	62.260	328.379	0.00037393	0.0006072	0.000111	521.89	1.9357e-06	6.7936e-06	455.55	176.64	8.0374e-06	2.3683e-06	180.06	69.246	68.622	36.156	9.7971e-06	38.831	0.0044721	0.0075662	0.0020358	579.14	7.5606e-05	7.9026e-05	460.32	180.65	6.507e-05	7.9167e-05	186.42	71.249	70.957	37.082	6.6188e-05	39.775	328.507	160.389	44.580	-14.653	78.190	114.724	-14.943	-9.600	112.993	15.893	-11.202	-7.494	-5.217	-0.214	109.427	-4.548	-8191	255	
3431.986	1	1	0	0	0.25184	0.074079	0.22981	0.049124	0.20829	0.25634	0.23589	0.039534	0.23371	0.085999	0.069825	0.082174	0.17586	0.08165	0.099712	0.09104	-2.2896	-3.0542	-2.1813	-3.175	-2.8417	-2.4708	-3.2729	-2.5354	-2.5312	-3.1833	-2.4229	-2.9521	-2.9375	-2.4208	-3.25	-2.5563	-16.056	-25.511	304.019	63.235	238.714	83.209	229.086	288.319	18.644	88.927	223.756	223.051	117.469	29.040	108.423	199.362	0.00044658	0.00063068	0.0001456	520.68	8.5344e-06	5.2002e-06	467.82	184.59	1.0446e-05	7.6974e-07	189.75	73.852	72.438	39.005	1.9852e-06	41.651	0.0037337	0.006073	0.0016736	576.04	6.202e-05	6.4245e-05	471.92	186.9	5.3158e-05	6.2654e-05	193.09	75.297	74.153	39.795	5.6418e-05	42.638	316.180	133.571	3.244	-14.667	118.924	77.032	-15.349	-9.098	136.943	295.014	-12.045	-7.415	-4.707	-0.915	285.965	-5.144	-8191	255	
3432.083	1	1	0	0	0.074692	0.12337	0.14723	0.22966	0.1293	0.21985	0.040001	0.17305	0.073725	0.12492	0.39799	0.090114	0.061102	0.20839	0.066525	0.27767	-2.2875	-3.1854	-2.4729	-2.9271	-3.2229	-2.2896	-3.2083	-2.7438	-2.4271	-3.3375	-2.4042	-2.9729	-3.0187	-2.3917	-3.1292	-2.8563	218.497	136.420	23.080	42.618	-12.126	66.593	225.799	311.204	86.076	116.755	236.399	250.567	14.553	-3.485	13.501	296.292	0.0005143	0.00023146	0.00015961	530.77	5.0381e-06	2.2107e-06	467.56	184.42	9.5404e-06	8.8372e-06	187.42	74.711	71.169	38.041	2.5799e-06	40.871	0.0034617	0.0058449	0.0016831	583.99	6.6468e-05	6.83e-05	471.65	187.02	5.8255e-05	6.8378e-05	191.93	75.855	73.618	38.835	6.1162e-05	41.751	-25.211	297.692	77.326	-14.771	32.711	-10.922	-15.524	-9.358	95.684	55.928	-12.044	-7.387	-4.660	-0.817	74.062	-5.034	-8191	255	
3432.179	1	1	0	0	0.25473	0.06209	0.1701	0.14677	0.070375	0.11805	0.12062	0.1111	0.31698	0.059933	0.028998	0.40577	0.20269	0.28648	0.063209	0.25171	-2.2271	-3.1792	-2.3021	-2.7188	-3.05	-2.2521	-3.2292	-2.7958	-2.3604	-3.1562	-2.5167	-2.7625	-3.0646	-2.2917	-3.0417	-2.8833	20.062	234.767	-2.835	16.192	315.091	83.305	-25.265	288.603	268.903	142.095	317.264	290.649	50.887	1.282	205.832	-26.058	0.00037875	0.00043606	0.00024916	512.69	5.7314e-06	8.4388e-06	452.87	175.78	2.5191e-06	4.4064e-06	178.29	70.873	67.834	35.048	5.6805e-06	37.518	0.0037689	0.0062111	0.0017977	570.04	7.0105e-05	7.3802e-05	457.5	179.15	6.2591e-05	7.286e-05	184.56	72.637	70.405	36.132	7.1006e-05	38.7	321.011	122.777	31.148	-15.095	50.334	125.266	-15.257	-9.286	155.619	283.448	-12.091	-7.402	-5.177	-0.618	260.106	-4.672	-8191	255	
3432.275	1	1	0	0	0.15244	0.22828	0.17357	0.010834	0.034927	0.15851	0.14326	0.21858	0.23318	0.16247	0.045316	0.27363	0.1045	0.30468	0.19599	0.15592	-1.9312	-3.4437	-2.3708	-2.7417	-3.1312	-2.3167	-3.1042	-3.0292	-2.3771	-3.2562	-2.6167	-2.7021	-3.4229	-2.4042	-3.0125	-3.1167	291.030	274.418	209.742	202.225	270.055	287.163	-14.651	59.564	314.146	206.125	99.021	247.630	73.530	284.961	266.007	17.140	0.00043762	0.00032833	0.00015197	499.98	1.7529e-06	1.622e-06	440.97	170.3	2.2886e-05	8.5533e-06	174.21	68.155	65.589	33.116	5.4726e-06	35.471	0.0044124	0.00736	0.0021142	572.06	8.0465e-05	8.6505e-05	450.78	174.88	7.3304e-05	8.6446e-05	181.41	70.223	68.583	34.327	8.0721e-05	36.931	324.585	101.321	77.997	-14.215	93.401	109.313	-15.446	-9.261	95.929	128.525	-12.184	-7.381	-4.954	-1.008	-21.568	-5.003	-8191	255	
3432.371	1	1	0	0	0.1881	0.084404	0.091349	0.10565	0.089377	0.32841	0.06343	0.15962	0.25096	0.078665	0.10148	0.27219	0.3224	0.22475	0.19104	0.17063	-1.9542	-3.2917	-2.4938	-2.5	-3.2062	-2.4646	-2.8646	-3.1896	-2.2354	-3.1333	-2.8208	-2.5792	-3.3063	-2.6708	-2.9354	-3.1833	281.929	298.108	135.413	259.485	121.870	16.455	185.026	282.258	200.201	137.736	58.571	236.490	17.868	270.146	170.364	272.323	0.00036193	0.00031896	0.00015158	503.22	1.0228e-05	5.3467e-06	442.41	170.81	1.0198e-05	1.7438e-06	175.45	67.675	65.34	32.905	7.9633e-06	35.273	0.0048509	0.0078957	0.0022515	579.37	8.3694e-05	8.8911e-05	451.69	174.72	7.2436e-05	8.379e-05	181.64	69.695	67.955	33.872	7.1937e-05	36.425	285.076	152.898	317.591	-14.339	71.993	147.644	-15.599	-9.088	185.945	137.730	-11.629	-7.168	-5.075	-0.793	77.353	-4.626	-8191	255	
3432.467	1	1	0	0	0.23886	0.056715	0.1729	0.13889	0.11237	0.23001	0.31581	0.16555	0.18423	0.13252	0.30048	0.12216	0.20356	0.34278	0.1401	0.26486	-1.8458	-3.1479	-2.7792	-2.4562	-3.3958	-2.525	-2.7292	-3.3729	-2.3396	-3.1896	-2.8354	-2.4896	-3.3396	-2.6354	-2.7167	-3.125	72.760	296.865	-16.381	246.190	66.470	104.415	330.463	256.944	243.090	211.419	323.026	-6.026	230.084	226.852	-19.028	258.235	0.00052865	0.00053171	6.7807e-05	502.37	5.0881e-06	7.196e-06	444.64	170.06	1.1266e-05	4.3843e-06	176.15	67.403	65.668	32.747	9.0649e-06	35.042	0.0043742	0.0070228	0.0020397	570.34	7.3999e-05	8.0051e-05	453.01	174.63	6.5357e-05	7.5545e-05	181.29	69.513	67.878	33.687	6.8291e-05	36.159	-16.982	77.415	37.922	-14.482	-0.100	82.723	-15.235	-9.382	203.845	88.866	-11.920	-7.580	-5.190	-0.859	218.934	-4.900	-8191	255	
3432.563	1	1	0	0	0.086697	0.058254	0.16867	0.09492	0.17106	0.054628	0.10623	0.37869	0.17538	0.2876	0.038774	0.32889	0.11347	0.19119	0.09088	0.18312	-1.8542	-2.9083	-2.9437	-2.1792	-3.2729	-2.6854	-2.7292	-3.2292	-2.5104	-2.9854	-3	-2.45	-3.2271	-2.8312	-2.575	-3.2667	283.742	326.630	58.718	-19.526	255.687	220.144	299.618	278.976	279.673	190.852	168.843	280.920	263.703	51.659	121.256	97.556	0.00040794	0.0005534	8.1835e-05	498.83	3.8023e-06	3.8349e-06	445.59	170.8	2.3447e-06	1.0484e-05	174	67.229	65.383	32.739	2.7878e-06	35.034	0.0041159	0.0064746	0.0018649	562.64	6.8644e-05	7.3538e-05	451.59	174.24	6.3983e-05	7.358e-05	180.34	69.458	67.744	33.708	6.671e-05	36.124	267.000	47.163	-4.149	-14.887	135.977	148.585	-15.472	-9.168	155.870	128.068	-12.011	-7.302	-4.934	-0.965	181.177	-4.851	-8191	255	
3432.682	1	1	0	0	0.35178	0.20653	0.020852	0.29254	0.34134	0.24536	0.30235	0.22059	0.17196	0.20247	0.063446	0.053416	0.097006	0.28302	0.22799	0.17492	-2.0167	-2.8625	-3.1312	-2.1396	-3.2833	-2.6979	-2.5646	-3.2125	-2.3875	-2.7042	-3.2438	-2.4208	-2.9562	-2.9396	-2.2667	-3.3146	313.501	314.187	179.009	247.508	212.715	47.476	284.615	83.183	174.322	166.638	160.534	28.373	184.328	21.914	274.377	116.609	0.00030107	0.00081184	0.000127	500.63	5.3073e-06	4.4586e-06	443.01	170.59	4.3228e-06	3.5682e-06	175.19	67.48	65.717	33.121	6.3425e-06	35.563	0.004026	0.0064489	0.0018589	560.32	6.8877e-05	7.4865e-05	451.19	174.45	6.2731e-05	7.266e-05	181.73	69.818	68.041	34.009	6.6234e-05	36.603	267.327	-11.819	111.513	-15.040	120.924	112.508	-15.712	-9.353	106.482	94.482	-11.861	-7.378	-4.452	-0.852	146.271	-4.531	-8191	255	
3432.778	1	1	0	0	0.17344	0.13726	0.19708	0.047204	0.10934	0.20905	0.102	0.27351	0.17907	0.26132	0.19215	0.039106	0.086026	0.37436	0.15922	0.1482	-2.2125	-2.8354	-3.1271	-2.4417	-3.0625	-2.9708	-2.4062	-3.4417	-2.5271	-2.5896	-3.1521	-2.4292	-3.0333	-3.0146	-2.1542	-3.2479	166.081	3.551	280.889	106.255	179.620	112.187	319.424	225.623	234.212	318.642	215.628	135.856	37.821	250.425	65.816	301.287	0.00050614	0.00062053	0.00026233	503.95	1.7354e-06	1.3488e-06	449.68	174.07	3.7807e-06	4.5276e-06	179.48	69.689	67.236	34.001	1.2989e-05	36.983	0.0039825	0.0063452	0.0018284	564.93	6.6847e-05	7.36e-05	456.32	176.69	6.1291e-05	7.025e-05	184.09	71.28	69.3	34.926	6.2658e-05	37.854	310.563	132.407	21.584	-14.806	138.539	104.506	-15.543	-9.485	309.409	114.236	-12.446	-7.751	-5.143	-0.900	142.117	-4.784	-8191	255	
3432.875	1	1	0	0	0.31696	0.065729	0.24614	0.22397	0.24087	0.18843	0.061925	0.25059	0.24206	0.098212	0.19298	0.18981	0.14763	0.076169	0.40589	0.18578	-2.0646	-2.4396	-3.2458	-2.3396	-2.9062	-3.125	-2.4021	-3.3583	-2.7167	-2.6021	-3.375	-2.6604	-3.1	-3.0938	-2.3354	-3.3271	225.508	105.372	230.842	332.142	-0.557	212.162	232.548	318.862	2.526	321.737	315.088	300.926	74.402	306.411	79.011	-22.538	0.00034604	0.00042256	0.00010175	511.79	5.9257e-06	7.0144e-06	454.1	174.86	1.314e-05	2.3436e-06	180.81	70.604	67.714	34.893	7.3733e-06	38.546	0.0036766	0.0057856	0.0016694	563.39	6.2785e-05	6.7465e-05	459.15	177.65	5.6863e-05	6.5157e-05	186.05	72.575	69.886	35.794	5.948e-05	39.315	297.163	286.314	-12.688	-14.402	140.754	138.112	-15.780	-9.501	131.061	150.523	-11.981	-7.540	-4.990	-1.066	163.024	-4.915	-8191	255	
3432.971	1	1	0	0	0.19688	0.17865	0.19918	0.17185	0.20694	0.067211	0.12044	0.18387	0.11888	0.19592	0.11496	0.22201	0.26243	0.2117	0.16523	0.12433	-2.3438	-2.2875	-3.3292	-2.3812	-2.9437	-3.0708	-2.4229	-3.0708	-2.8458	-2.3604	-3.3688	-2.5354	-2.7125	-3.4188	-2.3792	-3.1333	-7.364	141.491	16.074	29.038	40.056	18.545	208.923	93.487	288.728	168.852	257.155	-10.722	316.159	51.119	289.736	178.277	0.00035623	0.00031537	0.00014509	504.27	2.4844e-06	2.2402e-06	455.77	176.31	5.3099e-06	4.6794e-06	182.18	72.225	69.179	35.804	2.2635e-06	38.771	0.0035834	0.0057322	0.0016234	558.78	5.9928e-05	6.5191e-05	459.37	178.14	5.4306e-05	6.2581e-05	187.06	73.801	70.773	36.488	5.8045e-05	39.633	326.324	107.376	106.559	-14.372	203.751	113.435	-15.580	-9.221	165.436	179.231	-11.906	-8.047	-5.013	-1.004	99.855	-4.646	-8191	255	
3433.067	1	1	0	0	0.061832	0.18818	0.099026	0.15961	0.12656	0.17656	0.27692	0.15308	0.093009	0.21533	0.12438	0.28281	0.11729	0.16868	0.22175	0.10883	-2.6375	-2.3208	-3.3646	-2.5021	-2.7146	-3.3604	-2.5312	-3.1083	-3.0167	-2.5187	-3.2875	-2.6583	-2.6229	-3.2333	-2.3354	-2.9146	29.699	138.027	240.521	232.456	248.869	206.199	205.073	28.480	167.121	174.307	147.468	-22.110	130.043	-19.994	96.433	312.459	0.00040822	0.00063693	0.00010946	507.96	1.152e-06	2.3803e-06	455.89	176.51	1.5023e-05	1.4264e-06	183.72	72.135	68.981	35.885	5.4107e-06	38.902	0.0034821	0.0055658	0.0015647	560.8	5.8682e-05	6.4817e-05	460.98	179.15	5.3326e-05	6.2304e-05	187.45	73.845	70.925	36.606	5.7634e-05	39.866	315.982	47.795	64.078	-14.501	254.252	309.889	-15.255	-9.340	215.475	200.874	-12.135	-7.398	-4.521	-0.932	80.416	-4.711	-8191	255	
3433.163	1	1	0	0	0.1615	0.20249	0.045011	0.16629	0.50334	0.27616	0.21945	0.078036	0.18168	0.27734	0.074637	0.1702	0.093178	0.039463	0.092828	0.2026	-2.6354	-2.4479	-3.1854	-2.7208	-2.6104	-3.3542	-2.2938	-2.8958	-3.1271	-2.3688	-3.1542	-2.8521	-2.3292	-3.2396	-2.475	-2.75	21.125	-26.567	88.305	82.658	240.343	192.273	299.242	255.853	139.709	241.664	28.209	1.885	29.774	327.235	94.935	152.477	0.0005726	0.00048153	0.00015962	510.38	1.1717e-06	4.9663e-06	455.14	177.55	4.0817e-06	4.5774e-06	183.7	73.245	69.858	36.291	4.3483e-06	39.582	0.003484	0.0055962	0.001587	560.82	5.9884e-05	6.431e-05	461.32	179.07	5.5271e-05	6.4973e-05	188.01	74.701	71.668	37.12	5.927e-05	40.566	319.891	31.396	28.381	-14.952	251.597	108.930	-15.508	-9.328	175.571	159.383	-12.187	-7.882	-4.794	-0.829	42.787	-4.792	-8191	255	
3433.284	1	1	0	0	0.14614	0.10339	0.062342	0.022725	0.15411	0.15458	0.094466	0.17582	0.1214	0.19572	0.30132	0.089538	0.15853	0.21436	0.10162	0.013477	-2.8542	-2.3708	-2.9688	-2.5854	-2.3417	-3.2687	-2.6063	-2.6958	-3.2375	-2.3312	-3.0979	-2.7979	-2.3917	-3.3875	-2.7125	-2.9	287.704	286.904	71.427	310.894	252.564	27.878	204.917	-20.340	220.906	154.871	7.679	57.349	175.199	319.226	188.754	183.098	0.00048104	0.00056368	7.1153e-05	503.66	4.9752e-06	1.8975e-06	459.27	177.35	1.2008e-05	4.2061e-06	185.91	73.307	70.264	36.817	1.0062e-06	40.148	0.003619	0.0058254	0.0016162	562.58	6.2602e-05	6.5609e-05	463.06	179.77	5.5586e-05	6.6076e-05	189.7	75.144	72.228	37.637	6.0239e-05	41.306	326.462	93.886	51.406	-14.927	30.995	274.476	-15.628	-9.236	90.764	106.181	-12.016	-7.268	-5.030	-1.118	33.871	-4.722	-8191	255	
3433.378	1	1	0	0	0.16946	0.10424	0.11902	0.14693	0.18189	0.23662	0.3193	0.12344	0.19332	0.1721	0.14731	0.21261	0.058629	0.14809	0.13571	0.12248	-2.9958	-2.3937	-3.0396	-3.0979	-2.2438	-3.15	-2.6562	-2.6521	-3.1771	-2.4208	-3.0563	-3.0312	-2.4313	-3.3167	-2.8479	-2.5604	139.964	130.665	81.843	22.487	136.099	315.576	-1.745	63.421	240.454	116.925	132.969	-25.889	317.175	59.575	217.465	85.490	0.00038477	0.0010489	6.1209e-05	509.24	1.8942e-06	7.9727e-07	459.88	177.87	6.8725e-06	1.3841e-05	186.2	74.095	70.236	36.918	7.3818e-06	40.685	0.0036253	0.005898	0.001637	565.31	6.2176e-05	6.4946e-05	464.8	180.64	5.6716e-05	6.7045e-05	191.06	76.089	72.411	37.846	6.1919e-05	41.744	309.406	37.039	34.299	-13.829	71.715	295.841	-15.749	-8.960	132.727	122.012	-11.994	-7.498	-5.017	-0.883	80.629	-4.806	-8191	255	
3433.474	1	1	0	0	0.062231	0.25734	0.079028	0.13519	0.10513	0.08082	0.082369	0.13332	0.16938	0.19836	0.1645	0.16269	0.28699	0.059964	0.10349	0.12613	-2.8625	-2.3417	-3.0167	-3.0542	-2.3792	-3.1875	-2.8021	-2.4604	-3.2438	-2.5354	-2.9542	-3.2167	-2.1083	-3.1667	-2.7542	-2.5542	180.601	32.604	297.668	279.698	-22.215	211.755	283.629	270.794	101.575	257.900	135.497	77.370	71.976	165.444	-3.080	33.488	0.00026455	0.00038671	2.8575e-05	509.34	5.2974e-06	1.0892e-05	460.39	178.58	1.1153e-05	5.8623e-06	186.66	74.315	69.923	36.883	4.7153e-06	40.608	0.0036978	0.0060275	0.001636	566.56	6.1946e-05	6.6725e-05	464.62	180.99	5.6513e-05	6.6894e-05	190.89	75.887	72.259	37.679	6.0362e-05	41.428	-0.292	104.690	-0.103	-15.384	98.280	103.432	-15.499	-9.550	215.831	176.559	-11.735	-7.834	-5.109	-1.150	163.018	-5.194	-8191	255	
3433.570	1	1	0	0	0.056019	0.12961	0.10027	0.29442	0.10642	0.1949	0.17813	0.13627	0.21429	0.30421	0.051211	0.30701	0.13483	0.21485	0.13351	0.37437	-3.0125	-2.4688	-2.5375	-3.2146	-2.3125	-3.0062	-2.9021	-2.3917	-3.2646	-2.4792	-2.6417	-3.3333	-2.4313	-3.1625	-3.0083	-2.45	138.512	332.337	186.975	177.749	92.325	204.079	172.738	-11.106	166.022	65.951	292.741	283.686	157.092	274.374	167.351	260.433	0.00032035	0.00083924	0.00013056	514.88	6.4642e-06	7.0621e-06	458.58	177.55	9.0661e-06	5.4206e-06	187.45	74.006	70.905	36.681	6.3452e-06	40.256	0.0035784	0.0059039	0.0016201	566.05	6.2504e-05	6.4244e-05	463.65	180.63	5.298e-05	6.4947e-05	190.38	75.473	72.2	37.596	5.7519e-05	41.097	322.347	61.072	76.842	-14.056	141.830	153.003	-15.548	-9.236	126.860	50.607	-12.110	-7.943	-5.172	-1.040	134.848	-4.812	-8191	255	
3433.666	1	1	0	0	0.33527	0.098965	0.048681	0.072617	0.1981	0.083581	0.15206	0.19693	0.096682	0.14894	0.20209	0.031768	0.21193	0.18456	0.31237	0.2019	-2.9833	-2.4813	-2.6354	-3.1937	-2.3146	-2.8854	-3.1396	-2.3958	-3.0458	-2.6979	-2.3604	-3.3229	-2.4688	-2.8208	-2.9792	-2.275	13.393	31.790	271.872	167.289	314.230	316.608	177.715	274.365	228.813	247.350	158.707	280.588	31.579	303.033	21.941	320.626	0.00052277	8.0566e-05	0.00019575	503.39	1.0619e-05	2.5383e-06	457.61	177.99	6.9174e-06	2.5419e-06	186.85	74.296	70.702	37.042	3.3666e-06	40.825	0.0033778	0.0055688	0.0015445	558.93	5.9087e-05	6.1865e-05	463.25	180.36	5.1233e-05	6.1535e-05	190.7	75.557	72.3	37.875	5.704e-05	41.597	-21.012	255.098	81.478	-13.853	157.640	309.621	-15.610	-9.210	98.807	179.200	-12.009	-7.710	-4.784	-0.818	283.546	-5.042	-8191	255	
3433.763	1	1	0	0	0.16975	0.281	0.18786	0.31017	0.014507	0.10237	0.031947	0.29576	0.20237	0.080055	0.038705	0.21222	0.034156	0.29427	0.076651	0.15783	-2.6021	-2.6667	-2.4521	-3.275	-2.4229	-2.6292	-3.2396	-2.3583	-3.0833	-3.0604	-2.5375	-3.2687	-2.5854	-2.7271	-3.1875	-2.4271	197.512	248.994	194.963	329.776	90.133	291.730	196.436	267.002	148.513	242.866	108.022	324.133	79.324	321.162	-13.748	299.378	0.00043818	0.00046838	3.8268e-05	505.46	6.5209e-06	2.9034e-06	463.47	179.35	8.4588e-06	4.5897e-06	188.01	75.213	70.928	37.256	1.2876e-05	40.963	0.0033677	0.0055964	0.0015282	558.93	5.8298e-05	6.1417e-05	467.04	181.36	5.1839e-05	6.3022e-05	191.76	76.186	72.593	38.088	5.5762e-05	41.977	326.280	7.556	301.911	-14.334	115.651	110.716	-15.961	-9.182	229.107	116.520	-11.623	-7.519	-4.891	-1.047	128.712	-4.840	-8191	255	
3433.859	1	1	0	0	0.0052592	0.13177	0.38955	0.11861	0.13105	0.14598	0.20821	0.16603	0.062736	0.072834	0.10968	0.20898	0.079524	0.21288	0.2281	0.13058	-2.675	-2.8563	-2.25	-3.2125	-2.4625	-2.6958	-3.3729	-2.4521	-3.1646	-3.0208	-2.3229	-3.2083	-2.7104	-2.6792	-3.1771	-2.3875	257.436	138.298	-17.298	107.615	209.075	254.544	223.569	290.320	263.413	331.941	305.726	175.262	128.988	283.487	53.167	259.530	0.00043317	0.00037987	0.00012408	512.69	4.933e-06	2.2186e-06	466.69	178.71	8.6461e-06	3.1331e-06	188.44	74.842	70.341	37.311	3.0004e-06	41.207	0.0033138	0.0054619	0.0015214	562.32	6.0117e-05	6.0782e-05	466.93	180.9	5.0432e-05	6.2158e-05	191.38	76.337	72.33	38.004	5.3922e-05	41.87	319.694	-7.412	44.168	-14.209	83.469	153.844	-15.745	-9.401	164.749	93.304	-11.825	-7.705	-5.320	-1.044	185.958	-4.790	-8191	255	
3433.955	1	1	0	0	0.1057	0.13986	0.27289	0.084967	0.042844	0.12635	0.16782	0.25151	0.3175	0.10673	0.13985	0.30917	0.13121	0.061054	0.18476	0.054602	-2.5396	-3.0083	-2.1937	-3.2833	-2.6688	-2.4667	-3.4229	-2.4021	-2.6562	-3.1229	-2.45	-3.1625	-2.6875	-2.3438	-3.2875	-2.4271	111.700	241.042	192.408	10.737	5.835	78.987	5.650	222.731	214.823	278.183	216.932	307.538	28.760	224.408	284.811	237.165	0.00059164	0.00017204	0.00012144	514.56	4.038e-06	3.2326e-06	464.16	178.74	6.6312e-06	4.1102e-06	187.26	73.828	70.775	37.03	5.9117e-06	40.479	0.0032051	0.0053045	0.0014735	557.07	5.5692e-05	5.7704e-05	466.25	180.58	4.8326e-05	5.8022e-05	190.65	75.597	72.103	37.705	5.0601e-05	41.152	329.853	263.891	32.401	-14.538	166.734	181.096	-15.643	-9.315	159.330	217.137	-11.858	-7.694	-5.201	-0.927	191.346	-5.130	-8191	255	
3434.076	1	1	0	0	0.16784	0.18993	0.082247	0.47484	0.16538	0.090157	0.012856	0.39943	0.13517	0.085859	0.082569	0.43607	0.089837	0.10761	0.1444	0.040372	-2.5062	-3.1854	-2.1354	-3.0104	-2.7562	-2.4771	-3.5083	-2.4813	-2.6562	-3.2438	-2.3604	-3.1042	-2.8979	-2.4208	-3.3438	-2.7125	102.549	74.633	246.104	-11.821	139.378	29.616	171.923	102.573	214.475	14.564	300.972	295.261	327.717	-5.817	125.661	154.818	0.00047065	0.00036408	0.0001067	518.82	2.2036e-06	3.1781e-06	461.27	178.12	5.7246e-06	1.934e-06	186.89	74.414	70.978	37.218	5.3097e-06	40.832	0.0030766	0.0049315	0.0013873	556.49	5.2437e-05	5.4947e-05	465.01	180.41	4.5705e-05	5.4311e-05	190.67	75.908	72.408	37.843	4.8361e-05	41.475	328.251	63.217	36.603	-14.737	77.216	32.241	-15.551	-9.542	130.261	179.428	-12.243	-7.905	-5.175	-0.959	41.645	-4.864	-8191	255	
3434.172	1	1	0	0	0.11508	0.094152	0.20629	0.1842	0.15082	0.11546	0.25446	0.23569	0.16029	0.085894	0.10951	0.15475	0.21362	0.22942	0.05086	0.30714	-2.2271	-3.3354	-2.3958	-3.1646	-3.0062	-2.4542	-3.3646	-2.5521	-2.6771	-3.275	-2.3042	-2.9021	-3.2104	-2.5771	-3.2917	-2.8083	285.196	-8.154	-5.848	178.373	321.507	129.282	-23.730	232.572	272.820	204.544	193.036	266.596	147.606	-21.555	295.983	259.001	0.00053015	0.00097463	6.5203e-05	515.8	3.6525e-06	3.3225e-06	467.26	179.75	7.3793e-06	6.0912e-06	189.01	75.513	71.462	37.691	5.0998e-06	41.238	0.0030161	0.0048243	0.0013976	560.14	5.2435e-05	5.6405e-05	467.86	181.96	4.6538e-05	5.526e-05	192.68	76.67	72.945	38.371	5.054e-05	42.218	331.455	46.282	147.361	-14.455	52.158	325.906	-15.977	-9.545	89.198	128.830	-11.728	-7.481	-5.059	-0.763	0.034	-4.919	-8191	255	
3434.243	1	1	0	0	0.25643	0.20412	0.11733	0.11089	0.06846	0.088192	0.05872	0.17037	0.23874	0.24867	0.093405	0.0035919	0.16967	0.23769	0.17529	0.22488	-2.1625	-3.1521	-2.625	-2.8729	-3.1188	-2.5125	-3.2167	-2.7562	-2.4188	-3.1875	-2.4437	-2.7771	-3.4646	-2.3812	-3.0438	-3.0167	263.005	299.287	72.568	296.492	-13.302	34.581	320.046	-22.300	13.473	289.006	272.124	85.880	-2.888	292.101	-19.101	13.467	0.00046954	0.00017329	0.00014362	507.47	3.2351e-06	4.1375e-06	467.53	180.18	1.1178e-05	2.8796e-06	190.46	76.378	71.722	37.751	3.1e-06	41.794	0.0030929	0.0049435	0.0014038	556.69	5.4566e-05	5.5774e-05	469.71	182.33	4.6962e-05	5.5191e-05	193.68	77.36	73.148	38.472	5.012e-05	42.678	315.300	200.889	96.317	-14.424	-16.275	83.779	-15.781	-9.505	167.675	122.989	-11.990	-7.650	-4.983	-1.015	37.803	-4.852	-8191	255	
3434.364	1	1	0	0	0.29079	0.30229	0.28881	0.061307	0.26837	0.20304	0.35285	0.07906	0.24768	0.17888	0.073649	0.1308	0.25598	0.32853	0.13677	0.19602	-2.15	-3.1354	-2.3792	-2.6125	-3.2146	-2.4208	-3.1917	-3.0667	-2.4625	-3.2542	-2.6792	-2.8208	-3.4562	-2.5125	-2.9313	-3.0375	279.100	179.794	178.483	-9.511	247.844	274.428	259.646	227.990	193.678	107.266	18.850	298.297	309.633	-20.707	54.554	317.844	0.00056756	0.00022937	0.00017126	513.2	4.64e-06	5.0804e-07	468.31	180.44	1.0927e-05	1.022e-05	189.92	76.87	71.771	37.965	7.8989e-06	41.852	0.0030261	0.0048046	0.0013671	557.25	5.0884e-05	5.4449e-05	469.8	182.59	4.475e-05	5.1913e-05	193.58	77.525	73.254	38.565	4.7766e-05	42.428	326.585	134.316	122.527	-15.096	140.098	280.706	-15.399	-9.310	131.757	107.610	-11.978	-7.551	-4.917	-1.180	33.865	-5.039	-8191	255	
3434.460	1	1	0	0	0.033527	0.11182	0.22097	0.20861	0.057413	0.15664	0.04471	0.093413	0.20126	0.38391	0.28569	0.03691	0.1733	0.36417	0.21812	0.12892	-1.9021	-3.1646	-2.7333	-2.5604	-3.2729	-2.3229	-3.0667	-3.1604	-2.3521	-3.0708	-2.8021	-2.7	-3.2562	-2.3937	-2.775	-3.2354	101.794	299.492	229.052	230.997	121.931	327.423	101.721	252.172	-15.424	138.187	12.362	288.760	75.424	266.059	278.578	21.962	0.00059818	0.00035119	8.7344e-05	516.34	1.2088e-07	7.9504e-06	469.7	180.69	4.8975e-06	5.658e-06	190.05	75.904	71.373	37.552	6.7716e-06	41.345	0.0029162	0.0046065	0.001332	553.3	4.9242e-05	5.2762e-05	469.56	182.11	4.4452e-05	5.1639e-05	192.62	76.847	72.858	38.276	4.6675e-05	42.031	305.089	74.920	260.066	-15.076	270.816	138.568	-15.772	-9.411	116.321	108.229	-12.060	-7.792	-5.023	-1.260	84.305	-4.725	-8191	255	
3434.556	1	1	0	0	0.14088	0.067973	0.062991	0.089002	0.17489	0.29164	0.37797	0.28573	0.22784	0.24812	0.11097	0.11072	0.10564	0.23924	0.11881	0.27618	-2.0187	-3.1583	-2.7625	-2.45	-3.3417	-2.3875	-2.9562	-3.3063	-2.3479	-2.9562	-3.0125	-2.3187	-3.225	-2.4188	-2.8146	-3.2646	181.266	157.835	303.122	19.104	172.690	112.064	-13.466	234.529	263.551	99.495	169.389	253.218	290.154	-8.768	325.610	292.779	0.00040838	0.00025058	0.00011017	515.88	1.2869e-06	3.4684e-06	467.86	181.41	1.0591e-05	2.1082e-06	190.19	76.096	71.786	38.053	5.9116e-06	41.715	0.0028773	0.0046436	0.0013254	556.18	4.9829e-05	5.3563e-05	469.27	182.46	4.4424e-05	5.171e-05	192.91	77.182	73.107	38.547	4.7753e-05	42.459	313.093	93.313	46.127	-14.503	295.208	48.798	-15.681	-9.341	136.557	87.226	-11.792	-7.516	-4.714	-1.237	164.428	-4.762	-8191	255	
3434.675	1	1	0	0	0.16249	0.14959	0.18164	0.347	0.054413	0.035249	0.18968	0.089586	0.1269	0.13423	0.14657	0.15154	0.29089	0.1797	0.16419	0.17123	-1.925	-3.05	-2.9604	-2.2104	-3.2313	-2.625	-2.6813	-3.2646	-2.1792	-2.9	-2.9146	-2.4083	-3.2958	-2.6604	-2.7313	-3.4146	204.084	99.990	26.578	275.963	79.977	186.780	180.758	276.232	42.884	213.389	136.786	154.376	273.908	17.999	19.755	260.249	0.00062226	0.00025519	8.0285e-05	513.4	4.1492e-06	8.1773e-06	470.67	182.24	4.9467e-06	1.1394e-06	191.51	76.41	72.147	38.175	5.3914e-06	42.814	0.0029053	0.004587	0.0013379	555.12	4.9782e-05	5.4181e-05	470.6	183.19	4.4726e-05	5.198e-05	193.94	77.839	73.579	38.962	4.8292e-05	43.272	316.647	47.707	93.184	-14.677	144.774	143.128	-15.449	-9.227	163.976	211.837	-11.932	-7.392	-5.148	-1.278	121.428	-5.055	-8191	255	
3434.771	1	1	0	0	0.24692	0.10229	0.12524	0.1024	0.080366	0.19248	0.099091	0.13671	0.10024	0.19471	0.27028	0.2417	0.096831	0.043387	0.10125	0.11335	-1.8833	-2.7125	-3.1437	-2.4938	-3.2021	-2.8042	-2.4583	-3.3417	-2.4229	-2.6417	-3.0375	-2.2917	-3.1271	-2.9958	-2.5125	-3.4271	166.754	22.916	291.365	193.220	9.876	-23.814	38.839	61.473	204.036	-8.851	178.896	270.742	246.751	179.500	48.306	21.769	0.00054727	0.00059876	0.00011592	522.36	2.9631e-06	5.9261e-06	471.83	182.29	1.3715e-05	5.9926e-06	191.55	77.016	72.668	38.511	8.5261e-06	42.857	0.0030376	0.0046969	0.0013556	560.18	5.0466e-05	5.5833e-05	473.56	183.99	4.6909e-05	5.5029e-05	195.31	78.197	73.921	39.254	5.1679e-05	43.438	319.334	48.034	33.085	-15.052	212.534	120.558	-15.608	-9.596	103.513	178.362	-12.238	-7.475	-4.956	-1.352	105.918	-5.198	-8191	255	
3434.843	1	1	0	0	0.099071	0.16728	0.20662	0.10962	0.15103	0.23388	0.13174	0.2309	0.26707	0.31156	0.23604	0.18779	0.039186	0.21188	0.15793	0.40633	-2.0854	-2.7646	-3.1021	-2.225	-3.0312	-2.9375	-2.5542	-3.4271	-2.7333	-2.5792	-3.175	-2.2667	-3.0687	-2.8958	-2.3604	-3.3729	199.232	-1.511	155.064	130.479	203.728	182.543	332.638	22.619	227.823	19.424	318.729	195.202	62.286	-17.343	212.537	286.966	0.0003725	0.00012857	7.2e-05	517.81	6.7708e-06	6.0011e-06	469.03	182.5	6.3351e-06	4.7056e-06	190.78	76.406	71.949	38.292	4.9762e-06	41.891	0.0031461	0.0048724	0.0014108	562.47	5.1608e-05	5.763e-05	473.08	184.22	4.7979e-05	5.6845e-05	194.23	77.554	73.493	38.943	5.1113e-05	42.529	327.806	92.853	58.869	-14.683	179.880	165.364	-15.600	-9.239	171.491	134.402	-12.263	-8.199	-5.276	-1.098	108.008	-5.310	-8191	255	
3434.964	1	1	0	0	0.16603	0.12936	0.063314	0.081049	0.11697	0.12715	0.12415	0.12124	0.23007	0.1742	0.17432	0.14852	0.11266	0.042393	0.21462	0.13613	-2.1208	-2.6104	-3.2292	-2.2271	-2.8771	-3.0187	-2.3792	-3.35	-2.6188	-2.5187	-3.4146	-2.425	-2.9188	-3.1604	-2.325	-3.275	138.435	245.267	7.473	106.765	75.921	197.520	266.162	61.373	168.111	146.204	49.150	219.873	-6.561	296.039	259.248	88.192	0.00047117	0.00047175	0.00010807	516.98	4.945e-06	1.9875e-06	473.22	181.88	3.2949e-06	4.0372e-06	191.52	76.52	71.845	38.362	6.8439e-07	41.789	0.003169	0.0049237	0.0013935	563.41	5.2673e-05	5.7767e-05	474.16	184.59	5.0464e-05	5.7015e-05	194.38	77.469	73.737	39.151	5.3475e-05	42.704	311.960	93.716	44.102	-15.281	150.943	69.488	-15.375	-9.401	255.921	111.581	-12.315	-7.924	-5.564	-1.478	186.281	-5.086	-8191	255	
3435.060	1	1	0	0	0.081588	0.23432	0.053215	0.069228	0.29063	0.22589	0.11257	0.2399	0.23914	0.093925	0.17137	0.23976	0.16052	0.057759	0.11056	0.19966	-2.3458	-2.475	-3.1833	-2.3312	-2.9083	-3.1583	-2.3563	-3.1125	-2.8063	-2.5187	-3.375	-2.4938	-2.7562	-3.3375	-2.4021	-3.1729	50.848	70.628	289.144	320.363	284.131	100.378	60.492	331.946	117.077	204.812	33.455	198.037	321.942	-13.905	-23.339	222.095	0.00034775	0.00026551	6.4657e-05	525	3.8135e-06	4.1719e-06	472.35	183.26	1.1539e-05	6.1453e-06	192.57	77.505	72.408	38.784	3.9571e-06	42.554	0.0032307	0.0050778	0.0014616	568.85	5.3908e-05	5.8639e-05	474.13	185.08	4.9691e-05	5.6658e-05	194.89	78.255	74.058	39.399	5.2484e-05	43.363	324.687	11.126	171.633	-14.891	184.792	101.013	-15.878	-9.754	199.969	108.897	-11.797	-7.562	-5.003	-1.314	118.615	-4.836	-8191	255	
3435.156	1	1	0	0	0.1108	0.092356	0.29366	0.096904	0.1711	0.17435	0.16627	0.20458	0.16793	0.061053	0.19251	0.16499	0.14118	0.3767	0.064964	0.33373	-2.3917	-2.3833	-3.3521	-2.5312	-2.65	-3.325	-2.4062	-3.1562	-3.0208	-2.375	-3.2396	-2.6375	-2.675	-3.3563	-2.5917	-3.0938	167.505	-25.048	205.964	272.151	82.990	30.350	144.089	249.112	161.060	38.918	292.005	208.336	-4.726	27.173	153.288	319.764	0.00041369	0.00049542	0.00018363	521.22	2.487e-06	6.5302e-06	474.19	184.39	5.1897e-06	6.8482e-06	193.59	77.712	72.759	39.352	2.5679e-06	43.752	0.0031972	0.0050435	0.0014287	565.67	5.4868e-05	5.7818e-05	475.79	185.98	4.998e-05	5.7311e-05	196.7	78.84	74.51	39.976	5.2567e-05	44.297	-23.241	32.694	40.344	-14.811	13.858	74.643	-15.795	-9.195	152.060	101.092	-12.023	-7.666	-5.057	-0.978	173.550	-5.443	-8191	255	
3435.252	1	1	0	0	0.1714	0.085799	0.15892	0.10762	0.10263	0.062057	0.30719	0.28337	0.14107	0.32592	0.20916	0.10019	0.19995	0.06278	0.12909	0.21563	-2.7208	-2.3208	-3.1104	-2.5542	-2.5729	-3.2812	-2.4958	-2.8917	-3.0875	-2.5042	-3.3083	-2.8	-2.5271	-3.3583	-2.4313	-2.7521	122.204	279.631	77.802	259.418	181.680	141.518	254.556	-26.180	111.453	302.322	303.036	248.249	-15.809	280.336	286.568	234.614	0.00055715	0.00052781	0.00013983	522.49	5.2143e-06	1.9851e-06	473.47	185.25	2.7905e-06	6.8655e-06	195.36	78.627	73.469	39.662	2.714e-06	43.888	0.0032265	0.0051134	0.0013992	567.21	5.3829e-05	5.6897e-05	478.07	187.11	4.8112e-05	5.5765e-05	198.31	79.619	75.133	40.329	5.0196e-05	44.49	307.030	11.419	100.318	-14.612	126.843	-15.370	-15.482	-9.197	102.605	182.783	-12.059	-7.892	-5.377	-1.151	156.103	-5.162	-8191	255	
3435.348	1	1	0	0	0.074267	0.16229	0.12991	0.40551	0.12468	0.04457	0.13083	0.17748	0.088558	0.26134	0.24013	0.34178	0.28722	0.26031	0.062536	0.03183	-2.8208	-2.3208	-3.0292	-2.8812	-2.3688	-3.3042	-2.5458	-2.6917	-3.3125	-2.2458	-3.225	-2.9062	-2.3646	-3.2333	-2.4458	-2.7438	13.757	258.370	70.416	318.880	32.014	46.847	21.494	320.072	38.307	11.296	70.252	-9.682	313.341	322.587	-27.045	29.775	0.00054414	0.00052954	0.0001191	527.53	4.5631e-06	5.878e-06	475.52	185.4	1.0429e-05	5.6619e-06	193.93	77.765	73.202	39.59	2.3998e-06	42.915	0.0030154	0.0048047	0.0013432	565.44	5.0929e-05	5.504e-05	476.56	186.65	4.6426e-05	5.5151e-05	196.65	78.862	74.809	40.086	5.0727e-05	43.579	312.713	14.003	129.259	-14.383	128.974	57.902	-15.575	-9.328	141.584	119.060	-12.408	-8.218	-5.176	-1.046	178.007	-4.958	-8191	255	
3435.467	1	1	0	0	0.4766	0.22684	0.077397	0.15531	0.13135	0.22491	0.14802	0.13057	0.058582	0.22123	0.13024	0.20863	0.029504	0.32167	0.087309	0.34183	-2.9313	-2.3042	-2.9854	-2.9979	-2.4458	-3.2792	-2.7208	-2.5542	-3.1479	-2.3667	-2.9917	-3.1229	-2.4562	-3.2271	-2.3896	-2.7042	77.541	-23.293	304.508	-22.355	295.459	281.135	312.051	301.082	41.860	89.461	317.908	276.746	166.460	229.444	145.607	306.221	0.00048139	0.00025963	0.00019883	518.86	4.3391e-06	1.9365e-06	476.48	185.42	1.3423e-05	1.1082e-05	194.38	76.976	72.494	39.149	8.5028e-06	43.157	0.0030369	0.0049321	0.0013715	567.53	5.2813e-05	5.6035e-05	477.86	186.81	4.787e-05	5.7922e-05	196.84	78.291	74.486	39.858	5.2916e-05	43.62	325.375	57.668	57.004	-14.749	137.776	46.539	-15.617	-9.383	138.516	123.491	-11.985	-7.595	-5.205	-1.174	110.973	-5.308	-8191	255	
3435.541	1	1	0	0	0.078891	0.06828	0.20447	0.058295	0.1883	0.082779	0.10306	0.42636	0.20027	0.20234	0.017621	0.065059	0.065523	0.14754	0.27139	0.35458	-2.9146	-2.3438	-2.7188	-3.0354	-1.9062	-3.0729	-2.7313	-2.6167	-3.3125	-2.4229	-2.9625	-3.1167	-2.525	-3.2875	-2.8021	-2.5208	271.352	244.643	196.737	-1.322	147.019	219.125	262.602	281.707	237.863	256.049	154.566	-11.493	297.675	212.908	93.076	-3.460	0.00056322	0.00062997	0.00010531	524.88	5.8093e-06	3.2883e-06	474.14	184.56	7.1537e-06	3.6591e-06	194.68	76.961	73.286	39.3	2.8237e-06	43.436	0.0031894	0.0051558	0.0014182	570.83	5.5125e-05	5.7152e-05	477.47	186.91	4.7969e-05	5.8537e-05	197.14	78.479	74.849	39.964	5.2552e-05	43.969	310.486	42.894	61.790	-14.770	88.525	79.213	-15.439	-9.080	168.076	186.457	-11.865	-8.131	-5.177	-1.163	289.176	-5.252	-8191	255	
3435.637	1	1	0	0	0.11202	0.19563	0.10873	0.20507	0.11644	0.13704	0.12435	0.10231	0.20131	0.21052	0.18113	0.14134	0.18067	0.22456	0.08048	0.094385	-3.0312	-2.4229	-2.7042	-2.9542	-2.2896	-3.0083	-2.8563	-2.3563	-3.2354	-2.5479	-2.6417	-3.3333	-2.5479	-3.1417	-2.7875	-2.5	70.987	87.426	259.036	207.265	11.988	109.404	83.963	-16.749	69.118	288.945	230.294	233.056	233.202	268.042	142.094	103.464	0.00037581	0.00078526	0.00010407	531.07	6.1957e-06	3.0987e-06	476.64	185.71	4.9898e-06	6.1144e-06	195.93	78.017	73.581	39.626	7.0486e-06	43.966	0.0030982	0.0051041	0.0014071	572.64	5.4119e-05	5.5492e-05	479.68	187.79	4.781e-05	5.6764e-05	198.3	79.201	75.13	40.329	5.1156e-05	44.559	311.904	120.316	48.773	-14.382	74.685	87.595	-15.718	-9.613	162.240	43.984	-11.867	-7.967	-5.190	-1.074	81.394	-4.903	-8191	255	
3435.756	1	1	0	0	0.065958	0.14561	0.063756	0.1889	0.062025	0.10238	0.10018	0.12791	0.11559	0.22994	0.092503	0.21409	0.09983	0.043794	0.06443	0.20587	-2.7188	-2.5417	-2.4896	-3.2333	-2.3521	-3.2271	-2.9542	-2.4271	-3.2375	-2.5271	-2.5271	-2.9771	-2.2917	-2.8667	-2.9583	-2.3417	264.840	308.059	214.085	251.484	138.023	252.988	194.629	307.035	181.335	166.834	189.441	325.315	253.748	8.641	129.742	200.557	0.00063081	0.00048152	0.00018115	522.1	3.5591e-06	5.8461e-06	479.39	185.54	6.9635e-06	6.0933e-06	196.09	78.802	73.711	39.585	7.5152e-06	43.293	0.0030593	0.0050282	0.0014062	569.23	5.297e-05	5.5886e-05	481.89	187.68	4.6783e-05	5.7019e-05	199.09	79.595	75.192	40.299	5.1601e-05	44.272	312.639	72.919	-10.375	-14.446	120.350	168.243	-15.911	-9.587	167.411	93.833	-11.995	-7.828	-5.199	-1.073	143.424	-4.978	-8191	255	
3435.852	1	1	0	0	0.12382	0.079463	0.2501	0.23838	0.14961	0.17581	0.095046	0.048909	0.22854	0.08594	0.35889	0.069537	0.2669	0.17727	0.10257	0.3021	-2.6979	-2.5604	-2.2729	-3.0875	-2.3375	-2.8104	-3.2167	-2.2583	-3.0271	-2.7708	-2.4667	-3.2542	-2.4833	-2.8042	-3.2417	-2.3625	48.811	252.515	73.367	222.024	50.422	56.929	221.190	319.825	234.784	297.485	188.438	41.053	184.495	29.225	187.152	279.056	0.000458	0.00074218	0.00021945	531.5	6.8928e-06	3.6706e-06	476.27	185.32	6.8974e-06	3.9594e-06	194.62	77.642	72.834	39.348	5.2969e-06	42.94	0.0030947	0.0051801	0.0014489	572.51	5.3706e-05	5.6991e-05	479.52	187.61	4.7755e-05	5.8755e-05	198.02	78.823	74.59	40.018	5.1123e-05	43.676	321.349	51.622	56.984	-14.560	146.466	136.968	-16.087	-9.335	142.056	136.845	-12.128	-7.818	-5.347	-1.227	290.083	-5.067	-8191	255	
3435.948	1	1	0	0	0.10042	0.19884	0.029293	0.11431	0.1951	0.14719	0.4175	0.1262	0.10913	0.18255	0.047857	0.06203	0.25254	0.14462	0.14967	0.090583	-2.5771	-2.875	-2.3625	-3.1958	-2.4229	-2.4625	-3.1604	-2.1292	-3.0896	-2.7729	-2.6375	-3.2562	-2.6854	-2.4437	-3.1958	-2.3104	111.051	67.382	162.912	59.644	228.666	94.807	-13.930	327.822	200.012	165.077	214.865	-22.459	-22.004	308.382	17.489	264.309	0.00036416	0.00040457	0.00016438	526.61	1.0932e-05	3.3007e-06	477.33	186.3	4.8772e-06	4.8024e-06	194.06	77.227	72.988	39.179	5.8357e-06	42.497	0.0031129	0.0050678	0.0014071	569.13	5.4988e-05	5.7102e-05	479.57	187.21	4.7234e-05	5.6692e-05	197.07	78.302	74.46	39.791	5.1438e-05	43.387	-19.228	49.679	33.435	-14.304	116.228	97.540	-15.948	-9.200	216.841	143.714	-11.787	-7.927	-5.094	-0.946	219.605	-5.329	-8191	255	
3436.044	1	1	0	0	0.40336	0.075764	0.23634	0.030241	0.094929	0.11981	0.29022	0.091132	0.31441	0.18497	0.04532	0.10214	0.099494	0.20087	0.085714	0.24475	-2.4896	-2.8271	-2.2979	-3.2521	-2.5729	-2.3979	-3.2875	-2.4375	-2.8646	-2.95	-2.4354	-3.0896	-2.6646	-2.5292	-3.2062	-2.475	247.725	228.791	51.305	71.910	117.176	-17.675	255.950	108.134	142.720	240.215	-5.148	6.996	99.539	-20.063	151.267	258.124	0.000578	0.00020348	0.00019809	525.68	5.6854e-06	3.1619e-06	481.21	184.46	4.5651e-06	5.2445e-06	194.01	77.13	72.798	39.068	3.7872e-06	43.051	0.0030172	0.0049753	0.0013905	569.34	5.3296e-05	5.6796e-05	479.09	186.67	4.7194e-05	5.706e-05	197.43	78.423	74.617	39.756	5.0053e-05	43.779	331.162	59.510	18.495	-14.568	158.228	47.203	-15.703	-9.532	186.716	129.152	-12.217	-7.640	-5.141	-1.132	114.111	-5.489	-8191	255	
3436.140	1	1	0	0	0.41635	0.16745	0.1629	0.18279	0.16674	0.061463	0.35027	0.20716	0.19119	0.14442	0.26055	0.1385	0.15098	0.19287	0.29211	0.083367	-2.5083	-3.1042	-2.2125	-2.9104	-2.7521	-2.1417	-3.0458	-2.3833	-2.6125	-3.0938	-2.2083	-3.2062	-2.8667	-2.2458	-3.2667	-2.5833	313.328	104.277	73.219	10.171	138.359	141.260	331.764	242.983	251.602	314.100	282.737	242.791	312.224	256.081	207.983	26.609	0.00051388	0.0007159	0.00027244	527.76	1.1927e-05	1.1566e-05	481.93	185.42	3.8675e-06	2.9301e-06	195.8	78.48	73.573	39.463	8.9639e-06	43.434	0.0030902	0.0049523	0.0014036	569.57	5.3699e-05	5.5718e-05	481.89	187.78	4.7713e-05	5.7101e-05	198.67	79.133	75.271	40.104	5.1982e-05	44.123	303.926	83.070	52.840	-14.545	91.131	105.426	-15.566	-9.678	125.915	196.164	-12.155	-7.611	-5.744	-1.016	180.261	-5.133	-8191	255	
3436.236	1	1	0	0	0.17417	0.18255	0.30873	0.18121	0.16666	0.18581	0.24111	0.091663	0.077431	0.095239	0.055157	0.21979	0.12121	0.090779	0.074876	0.090396	-2.2604	-3.1896	-2.125	-2.975	-2.9958	-2.35	-3.1146	-2.4042	-2.4333	-3.1063	-2.1063	-2.9083	-2.9229	-2.1979	-3.0354	-2.6917	138.818	291.257	70.495	280.670	140.703	163.073	187.431	55.385	186.697	-5.662	82.237	241.976	49.008	272.672	110.374	305.343	0.00038902	0.00095753	0.00026457	523.23	5.3903e-06	3.0551e-06	479.2	187	6.0509e-06	7.1456e-06	195.15	77.637	72.745	39.328	3.6706e-06	42.88	0.0032236	0.0052563	0.0015022	574.24	5.7591e-05	5.9818e-05	482.48	188.77	5.0188e-05	5.9441e-05	198.23	78.747	74.661	39.911	5.4056e-05	43.613	321.570	12.300	73.671	-14.401	115.943	188.499	-15.736	-9.368	189.445	147.466	-12.286	-7.615	-4.620	-1.414	149.184	-5.075	-8191	255	
3436.357	1	1	0	0	0.22951	0.27541	0.057107	0.029843	0.13368	0.27948	0.035474	0.16372	0.16624	0.25651	0.17098	0.31462	0.15635	0.17906	0.16297	0.091227	-2.1125	-2.9562	-2.2125	-2.7292	-2.8396	-2.1937	-3.1125	-2.6354	-2.0938	-3.0958	-2.6063	-2.6875	-3.0917	-2.3458	-2.9771	-2.775	129.186	193.871	295.098	313.805	257.206	206.746	257.843	273.209	217.258	79.532	253.685	262.568	186.661	181.531	81.372	14.224	0.00056796	0.00060585	8.2225e-05	531.24	1.907e-06	9.0939e-06	475.54	184.38	4.62e-06	5.7318e-06	192.21	76.409	72.675	38.813	5.7013e-06	41.996	0.003242	0.005143	0.0014954	573.59	5.6969e-05	5.9753e-05	479.59	186.94	4.9841e-05	5.7964e-05	195.89	77.737	74.492	39.519	5.1665e-05	42.954	312.493	97.891	-0.921	-14.263	181.020	130.863	-15.769	-9.782	224.808	123.172	-12.264	-7.809	-5.539	-1.125	97.003	-5.121	-8191	255	
3436.451	1	1	0	0	0.19304	0.20846	0.071564	0.15666	0.10309	0.073973	0.16605	0.13894	0.094581	0.063801	0.15157	0.10622	0.1391	0.22378	0.064096	0.24679	-1.7938	-3.1396	-2.425	-2.5542	-3.1208	-2.2062	-2.9146	-2.8563	-2.4417	-3.0583	-2.4854	-2.6	-3.1	-2.1833	-2.9354	-3.0083	1.436	5.094	185.418	292.221	74.590	70.070	212.295	328.420	238.139	9.449	291.989	327.136	288.415	320.801	4.578	261.473	0.00049718	0.00073377	0.00010768	522.38	3.0168e-06	5.4746e-06	477.16	185.58	1.0763e-05	5.5509e-06	193.42	76.709	72.818	38.631	4.4407e-06	42.468	0.0031709	0.0049752	0.0014136	569.02	5.3602e-05	5.5922e-05	478.16	187.17	4.7017e-05	5.5952e-05	196.18	77.747	74.282	39.367	5.0722e-05	43.106	295.881	70.211	59.525	-13.989	284.583	126.161	-15.483	-9.723	76.181	141.427	-12.197	-7.768	-5.493	-1.011	78.233	-5.011	-8191	255	
3436.547	1	1	0	0	0.098322	0.092183	0.23398	0.16872	0.080064	0.26562	0.19697	0.12351	0.1456	0.30305	0.23636	0.12641	0.26239	0.2712	0.056224	0.070805	-1.7812	-3.2042	-2.6667	-2.425	-3.1792	-2.2771	-2.7812	-2.9104	-2.1437	-3.0187	-2.7313	-2.4333	-3.1937	-2.2875	-2.9521	-3.0563	160.248	297.468	324.798	62.585	52.786	59.513	283.206	162.252	2.095	305.117	284.212	30.903	250.540	68.995	143.901	279.637	0.00073679	0.00016721	9.7594e-05	528.19	5.0545e-06	4.9288e-06	478.43	185.22	6.8515e-06	3.5055e-06	193.58	76.848	72.928	39.043	3.2952e-06	42.97	0.0030664	0.0048213	0.0013749	569.93	5.1776e-05	5.6427e-05	479.91	187.13	4.777e-05	5.4519e-05	196.71	77.979	74.58	39.613	4.9675e-05	43.53	329.889	93.667	309.630	-13.848	223.281	126.174	-15.466	-9.473	144.578	169.828	-12.452	-7.628	-5.283	-1.136	102.464	-5.050	-8191	255	
3436.645	1	1	0	0	0.17117	0.12258	0.1645	0.062697	0.10904	0.081259	0.12991	0.2088	0.20939	0.08169	0.1953	0.16662	0.20404	0.13747	0.055353	0.19559	-1.8563	-3.0479	-2.5583	-2.2646	-3.1917	-2.4188	-2.7917	-3.1458	-2.1854	-2.9875	-2.8354	-2.3146	-3.2896	-2.425	-2.7458	-3.0917	186.347	161.511	224.531	-22.441	255.053	68.580	303.632	-23.262	-14.886	247.406	-6.724	3.451	115.716	262.408	318.121	307.972	0.00061459	0.00028833	0.00015437	531.56	8.484e-06	7.5293e-06	482.21	186.55	7.9968e-06	2.9041e-06	193.98	77.08	72.405	38.931	2.9012e-06	43.033	0.0030351	0.0047639	0.0013985	571.94	5.2435e-05	5.6514e-05	482.14	187.84	4.783e-05	5.4182e-05	197.74	78.509	74.327	39.69	4.9971e-05	43.584	327.552	162.283	73.472	-13.970	98.903	112.573	-15.420	-9.434	154.968	135.536	-11.889	-7.808	-5.472	-1.125	184.281	-5.462	-8191	255	
3436.764	1	1	0	0	0.035891	0.12207	0.088044	0.12548	0.12509	0.14761	0.31273	0.10859	0.10274	0.16322	0.13716	0.21466	0.34704	0.18997	0.19759	0.044352	-1.7458	-2.8875	-2.8375	-2.3896	-3.075	-2.3979	-2.6813	-3.2771	-2.225	-3.0687	-3.1479	-2.2313	-3.1854	-2.7354	-2.4646	-3.4292	332.263	57.136	148.322	302.630	323.425	291.619	330.385	259.591	36.325	11.374	281.115	255.234	262.903	278.505	5.909	304.952	0.00040608	0.00051779	0.00014036	525.62	3.8136e-06	6.1211e-06	479.95	185.33	5.9689e-06	9.1396e-06	192.93	76.713	73.059	38.909	9.079e-06	42.597	0.0030867	0.0048802	0.0014292	571.32	5.2522e-05	5.7448e-05	481.69	187.04	4.8597e-05	5.5022e-05	197.33	77.955	74.375	39.513	5.101e-05	43.093	307.116	41.568	-15.814	-14.307	260.370	77.958	-15.335	-9.406	137.532	166.058	-11.865	-8.071	-5.490	-1.496	128.892	-5.496	-8191	255	
3436.836	1	1	0	0	0.098389	0.16632	0.066673	0.058367	0.19924	0.095131	0.14926	0.30995	0.24725	0.1129	0.15468	0.2299	0.175	0.14446	0.23599	0.15424	-2.1271	-2.8083	-2.9313	-2.4333	-3.2604	-2.6708	-2.4521	-3.2958	-2.3438	-2.8042	-3.1437	-2.1937	-3.2396	-2.7958	-2.5687	-3.2417	199.157	210.267	278.415	215.132	93.869	52.377	-20.908	305.733	188.258	67.719	268.901	189.518	242.141	35.771	-6.343	206.282	0.00048485	0.00086113	8.9063e-05	527.85	3.3541e-06	8.4781e-06	478.68	185.06	9.9912e-06	4.3903e-06	191.33	76.086	72.509	38.545	5.0754e-06	42.43	0.0031917	0.0049258	0.001423	570.35	5.357e-05	5.773e-05	478.78	186.77	4.7795e-05	5.5861e-05	194.98	77.283	74.265	39.405	5.1554e-05	43.044	-19.595	34.839	109.693	-15.005	98.582	170.216	-15.732	-9.366	142.063	8.511	-11.979	-7.974	-5.048	-1.333	187.071	-5.028	-8191	255	
3436.932	1	1	0	0	0.088358	0.18622	0.095566	0.26638	0.20175	0.043318	0.29176	0.21139	0.17919	0.067463	0.092376	0.19495	0.16451	0.15296	0.21885	0.22693	-1.9958	-2.6437	-3.2333	-2.1771	-3.2333	-2.825	-2.3354	-3.3542	-2.5708	-2.7188	-3.1583	-2.4021	-3.0854	-2.9625	-2.1562	-3.3208	126.773	29.953	312.466	138.360	127.585	58.693	313.038	252.969	41.060	239.821	31.071	249.327	2.008	263.297	292.401	296.134	0.00076793	0.00017449	8.3176e-05	528.91	2.9429e-06	1.6266e-06	478.34	185.03	3.33e-06	7.1964e-06	191.62	76.349	72.302	38.934	7.4809e-06	42.501	0.0031841	0.0048907	0.0014383	571.27	5.2786e-05	5.8929e-05	480.21	187.11	4.9175e-05	5.6441e-05	195.55	77.692	74.257	39.547	5.2051e-05	43.181	321.385	64.814	45.247	-13.856	322.155	-6.336	-15.580	-9.402	72.381	126.310	-11.566	-8.007	-5.320	-1.209	179.820	-5.308	-8191	255	
3437.028	1	1	0	0	0.14971	0.057403	0.25999	0.022848	0.086915	0.085173	0.24655	0.010895	0.40176	0.10694	0.14248	0.38251	0.16978	0.13482	0.16396	0.080295	-2.0167	-2.6292	-3.0938	-2.325	-2.8292	-2.9042	-2.3542	-3.2083	-2.4646	-2.5563	-3.1896	-2.2271	-2.9625	-3.0833	-2.2875	-3.3229	170.158	217.803	259.443	256.035	96.454	136.813	241.313	-8.105	-3.572	197.990	31.028	285.272	225.389	-15.388	238.860	330.115	0.00039864	0.00049183	0.00015841	526.36	3.0684e-06	8.3787e-06	479.12	185.98	9.2343e-06	6.0863e-06	193.56	76.716	72.893	38.701	8.1932e-06	42.565	0.0031878	0.004978	0.0014163	573.46	5.3285e-05	5.893e-05	481.46	187.2	4.919e-05	5.7812e-05	196.73	78.163	74.47	39.614	5.1872e-05	43.433	306.893	124.618	87.961	-15.137	-4.398	182.228	-15.561	-9.452	204.829	199.458	-11.908	-7.827	-5.162	-1.512	174.325	-4.958	-8191	255	
3437.149	1	1	0	0	0.12172	0.29512	0.06065	0.26768	0.12123	0.10884	0.1106	0.11137	0.12799	0.37805	0.21864	0.27349	0.17923	0.22259	0.040462	0.1361	-2.2	-2.5208	-3.3229	-2.4104	-3.0375	-3.1396	-2.3688	-3.225	-2.9188	-2.3896	-3.2167	-2.275	-2.8583	-3.1979	-2.1063	-3.1125	63.192	73.844	140.342	123.372	180.593	319.295	265.519	300.642	228.874	235.954	305.591	96.655	298.064	324.029	280.469	44.291	0.00049169	0.00058245	8.2524e-05	527.27	5.0499e-06	5.784e-06	480.05	187.87	6.2925e-06	4.2349e-06	194.79	77.422	72.919	39.067	6.2512e-06	42.536	0.0031489	0.004946	0.0014184	570.83	5.2364e-05	5.6309e-05	481.27	188.36	4.7974e-05	5.5367e-05	197.84	78.572	74.531	39.68	5.1619e-05	43.473	311.475	111.916	168.689	-14.613	117.976	31.413	-15.662	-9.209	182.349	204.330	-12.274	-7.689	-5.254	-1.421	136.839	-4.936	-8191	255	
3437.245	1	1	0	0	0.27018	0.074521	0.15806	0.10977	0.17398	0.20874	0.097294	0.24126	0.2295	0.15973	0.11031	0.29711	0.17635	0.12495	0.086244	0.30899	-2.2521	-2.2896	-3.1917	-2.4646	-2.6333	-3.125	-2.5	-3.0167	-2.7896	-2.4833	-3.1312	-2.4604	-2.5604	-3.2792	-2.4917	-3.0792	18.785	216.760	253.161	69.554	48.744	310.263	255.357	296.403	78.272	-18.678	278.700	-1.792	6.480	78.719	52.001	309.102	0.00037547	0.00023405	0.00017615	528.49	7.6422e-06	1.8292e-06	477.09	185.23	8.2856e-06	7.7933e-06	192.91	76.8	72.688	38.843	5.641e-06	42.395	0.0031495	0.0049894	0.0013572	572.25	5.2399e-05	5.6424e-05	479.47	186.81	4.6798e-05	5.4469e-05	196.44	78.029	74.222	39.524	4.9373e-05	43.256	-24.623	123.334	70.969	-14.826	139.046	216.281	-15.799	-9.402	159.326	102.469	-11.877	-8.140	-5.171	-1.160	106.940	-5.134	-8191	255	
3437.341	1	1	0	0	0.19589	0.084449	0.15732	0.055883	0.25073	0.25261	0.086877	0.059127	0.17633	0.22442	0.13168	0.15226	0.052295	0.12361	0.19603	0.31305	-2.4813	-2.3438	-3.3563	-2.7188	-2.5854	-3.2958	-2.5479	-3.1354	-3.1813	-2.3479	-3.1896	-2.7167	-2.6604	-3.3458	-2.5917	-3.0208	196.090	307.314	284.286	285.206	198.750	155.120	135.552	124.986	130.186	26.943	243.156	225.688	242.650	211.981	63.299	2.707	0.00038128	0.00066371	0.00020998	526.36	8.9394e-06	4.2128e-06	478.16	185.06	7.7947e-06	1.6136e-06	194.66	77.042	73.417	38.918	6.9312e-06	43.199	0.0030328	0.0047883	0.0013217	566.54	5.1e-05	5.3302e-05	478.74	186.81	4.6131e-05	5.3408e-05	196.65	78.39	74.602	39.682	4.9465e-05	43.73	306.362	81.962	10.988	-14.669	143.936	154.969	-15.662	-9.346	119.509	112.598	-11.929	-7.594	-5.368	-1.289	140.382	-5.007	-8191	255	
3437.437	1	1	0	0	0.1586	0.20908	0.18709	0.050814	0.13855	0.14893	0.30345	0.24132	0.18414	0.16551	0.16872	0.061776	0.13075	0.23477	0.1718	0.11748	-2.8604	-2.3542	-3.1542	-2.9562	-2.5312	-3.3896	-2.5292	-2.75	-3.1417	-2.4083	-3.2146	-2.8479	-2.4104	-3.4188	-2.3833	-2.9896	164.360	51.375	143.201	158.660	3.938	-25.671	178.730	230.418	199.753	128.500	310.627	201.971	42.602	-20.303	215.885	245.170	0.00045689	0.00021624	0.00010799	525.55	8.7176e-06	1.2712e-05	479.72	185.2	4.0058e-06	2.0355e-06	196.54	78.065	73.831	39.644	3.2385e-06	43.855	0.002996	0.0048517	0.0013207	568.12	5.0969e-05	5.4321e-05	480.89	187.4	4.6853e-05	5.3812e-05	198.71	79.052	75.021	40.219	4.9537e-05	44.392	304.217	50.774	82.050	-14.081	83.723	94.472	-15.755	-9.241	194.264	168.189	-11.955	-7.782	-4.826	-1.140	-14.856	-4.935	-8191	255	
3437.532	1	1	0	0	0.24591	0.27804	0.20059	0.11245	0.22403	0.089088	0.25615	0.061071	0.12854	0.22468	0.26717	0.14039	0.16548	0.10661	0.078759	0.18162	-2.6958	-2.3083	-2.9625	-2.8	-2.3312	-3.1229	-2.5583	-2.7229	-3.3458	-2.3125	-3.1396	-3.175	-2.4667	-3.3854	-2.7667	-2.5833	307.404	116.479	209.207	123.938	250.877	197.852	82.241	208.317	169.581	-0.295	258.549	-7.315	246.011	222.527	327.764	-4.516	0.0004664	0.00038977	0.00010751	529.66	6.4943e-06	1.2831e-06	483.98	187.38	9.9154e-06	6.6248e-06	197.42	78.39	74.012	39.7	3.6753e-06	44.169	0.002993	0.0047601	0.0013208	569.6	5.095e-05	5.3359e-05	484.09	188.84	4.5741e-05	5.3601e-05	199.64	80.037	75.515	40.526	5.0361e-05	45	303.451	44.074	195.521	-14.461	172.851	89.651	-15.730	-9.311	114.509	110.123	-12.132	-7.376	-5.392	-0.998	132.389	-4.922	-8191	255	
3437.628	1	1	0	0	0.10996	0.28916	0.14167	0.23249	0.12939	0.10805	0.20811	0.12286	0.16051	0.23821	0.091125	0.14335	0.16939	0.086386	0.21429	0.17435	-2.8917	-2.4146	-2.8812	-3.0208	-2.3375	-3.1292	-2.7458	-2.6021	-3.1479	-2.6104	-2.75	-3.3708	-2.4604	-3.2188	-2.6979	-2.55	89.867	28.380	285.828	106.305	170.325	78.711	173.133	205.379	101.695	114.309	35.880	325.656	301.233	307.199	215.734	320.432	0.00059482	0.00040067	0.00016997	528.61	1.1816e-06	2.6561e-06	483.3	187.83	8.1114e-06	5.3965e-06	197.14	79.245	74.157	39.936	5.7835e-06	44.032	0.0030132	0.0048345	0.0013153	570.64	5.1598e-05	5.3546e-05	484.94	189.16	4.6347e-05	5.5142e-05	200.42	80.175	75.714	40.571	5.0285e-05	44.733	310.817	41.641	70.002	-15.168	149.924	38.200	-15.534	-9.224	54.184	133.912	-11.952	-7.402	-5.296	-1.118	143.580	-5.541	-8191	255	
3437.726	1	1	0	0	0.13716	0.071156	0.093767	0.099449	0.13127	0.08117	0.16295	0.16073	0.17651	0.025224	0.27437	0.15964	0.23386	0.31419	0.19486	0.070162	-2.9521	-2.4708	-2.6854	-3.0771	-2.3292	-3.2479	-2.9833	-2.5417	-3.1604	-2.6	-2.8354	-3.2458	-2.5292	-3.0896	-2.7458	-2.5417	137.463	98.038	306.462	36.776	13.801	324.824	261.931	77.406	165.260	257.979	177.924	221.363	37.442	312.088	215.476	154.392	0.00081932	0.00028592	0.00016635	534.31	1.0078e-05	2.4441e-06	480.69	187.79	3.3592e-06	3.9939e-06	196.48	78.46	73.294	39.621	5.6211e-06	43.346	0.003072	0.0049563	0.0013618	574.15	5.2033e-05	5.3787e-05	483.91	189.24	4.6249e-05	5.494e-05	199.28	79.49	75.061	40.321	5.2374e-05	44.133	311.542	89.298	65.071	-14.511	155.391	198.777	-15.657	-9.430	162.315	150.948	-12.261	-7.822	-5.163	-0.882	142.238	-5.035	-8191	255	
3437.845	1	1	0	0	0.25794	0.24813	0.15817	0.026525	0.12081	0.14166	0.26629	0.2211	0.16914	0.12143	0.22193	0.085219	0.13401	0.20661	0.067807	0.14601	-2.9521	-2.6583	-2.6354	-3.2479	-2.6271	-3.175	-2.8854	-2.4667	-3.475	-2.8438	-2.7104	-3.3042	-2.475	-3.025	-3.0771	-2.5208	82.140	88.569	93.629	234.571	-7.812	75.700	310.557	239.248	154.101	247.617	329.412	-22.480	265.382	281.760	29.820	235.872	0.0006778	0.00058568	4.0041e-05	526.06	3.6439e-06	2.8464e-06	482.54	187.58	1.0436e-05	4.678e-06	196.95	78.442	73.494	39.583	7.5743e-06	43.567	0.003103	0.0050674	0.0014158	574.96	5.4314e-05	5.6716e-05	483.29	189.28	4.8876e-05	5.6912e-05	199.98	79.551	75.353	40.271	5.3367e-05	44.336	309.862	52.789	-5.610	-14.356	94.213	144.724	-15.525	-9.339	123.671	62.344	-11.875	-7.710	-5.364	-0.948	89.379	-5.010	-8191	255	
3437.941	1	1	0	0	0.11881	0.1331	0.14117	0.097215	0.035037	0.2364	0.066896	0.066407	0.16293	0.20839	0.14601	0.12795	0.14738	0.11527	0.14057	0.1192	-2.6875	-2.7	-2.3812	-3.3042	-2.5187	-2.95	-3.2271	-2.3979	-3.1562	-2.8375	-2.5667	-3.5083	-2.4792	-2.8354	-3.275	-2.4083	-20.058	115.194	169.120	183.015	291.251	134.760	15.362	288.988	219.537	196.569	11.337	-21.067	153.071	252.741	217.928	261.538	0.00057123	0.00051189	6.1635e-05	533.31	6.6697e-06	3.2804e-06	480.77	186.09	8.3496e-06	3.0069e-06	196.86	78.467	73.834	39.546	5.3334e-06	43.861	0.0031688	0.0051696	0.001435	573.99	5.5489e-05	5.807e-05	483.72	188.42	4.8321e-05	5.8311e-05	199.69	79.645	75.426	40.301	5.3602e-05	44.694	325.913	111.852	-6.672	-14.881	58.204	45.734	-15.940	-9.398	200.705	166.922	-11.785	-7.770	-4.975	-1.235	104.934	-5.054	-8191	255	
3438.037	1	1	0	0	0.22506	0.12465	0.22997	0.14116	0.23009	0.22044	0.05406	0.13456	0.038825	0.051588	0.11509	0.060797	0.17253	0.14681	0.16685	0.031329	-2.7167	-2.9437	-2.5958	-3.2958	-2.4979	-2.8063	-3.2812	-2.5312	-3.0312	-3.025	-2.3604	-3.2792	-2.5667	-2.8229	-3.125	-2.6792	92.825	150.281	-23.719	163.922	207.351	169.569	44.237	260.787	34.531	216.896	-23.990	225.350	198.480	322.061	319.994	146.824	0.00059778	0.00067102	9.9886e-05	530.49	3.3756e-06	4.1833e-06	480.3	187.54	1.3386e-05	6.9185e-06	197.2	79.413	73.841	39.605	3.4928e-06	44.345	0.0032212	0.0051574	0.0014223	572.99	5.4524e-05	5.7045e-05	482.77	188.79	4.7658e-05	5.8381e-05	200.3	80.318	75.754	40.323	5.1855e-05	44.995	320.948	9.549	168.271	-14.629	96.525	123.367	-15.471	-9.115	114.776	216.267	-11.735	-7.675	-5.409	-0.676	170.524	-5.283	-8191	255	
3438.133	1	1	0	0	0.21961	0.081067	0.070336	0.06055	0.22382	0.18518	0.10355	0.18605	0.46304	0.096061	0.25856	0.099751	0.024722	0.15805	0.1101	0.063574	-2.7271	-3.0271	-2.5187	-3.5229	-2.5958	-2.7375	-3.3375	-2.3896	-2.8646	-3.1854	-2.4875	-3.2333	-2.7	-2.7771	-3.2625	-2.5271	205.490	79.406	103.503	123.085	-20.307	151.182	92.073	274.467	254.855	294.774	291.386	224.928	168.130	322.358	288.704	9.218	0.00049857	0.00083198	0.00019072	526.28	2.59e-06	4.2299e-06	482.59	186.23	6.0495e-06	4.4694e-06	196.32	78.761	73.266	39.472	7.0249e-06	43.682	0.0030755	0.0049968	0.0013742	571.92	5.3322e-05	5.6217e-05	484.39	188.26	4.7092e-05	5.807e-05	199.82	79.718	75.108	40.168	5.1739e-05	44.174	317.724	46.456	88.286	-14.494	65.178	108.575	-15.345	-9.853	127.776	56.563	-12.052	-7.953	-4.975	-0.982	153.364	-5.287	-8191	255	
3438.229	1	1	0	0	0.30877	0.12944	0.097188	0.072628	0.21363	0.28457	0.085285	0.2692	0.061457	0.40938	0.11004	0.39099	0.21486	0.098631	0.14759	0.28614	-2.6146	-3.1375	-2.275	-3.0687	-2.8063	-2.5687	-3.3146	-2.575	-2.7958	-2.9333	-2.4917	-3.1604	-2.8167	-2.4125	-3.3417	-2.6375	221.861	-14.172	58.225	-25.710	35.659	25.968	150.045	308.306	252.747	61.607	96.911	261.138	-5.412	274.750	282.032	260.656	0.00054439	0.00018968	2.2137e-05	525.28	5.9394e-06	7.012e-06	480.01	185.11	1.0136e-05	8.071e-07	194.49	78.233	73.292	39.376	1.055e-05	42.998	0.0031688	0.0051439	0.0014507	568.82	5.4913e-05	5.7528e-05	481.89	187.23	4.8014e-05	5.641e-05	197.94	79.106	74.934	39.968	5.1411e-05	43.891	296.359	129.612	297.959	-14.309	257.476	118.765	-15.653	-9.790	86.689	327.243	-11.788	-7.726	-5.389	-0.830	200.850	-4.876	-8191	255	
3438.325	1	1	0	0	0.083895	0.10624	0.25732	0.12746	0.11699	0.03314	0.075096	0.30893	0.061358	0.14748	0.088879	0.20969	0.27772	0.19033	0.11957	0.19061	-2.2354	-3.3021	-2.3875	-3.2292	-3.2188	-2.4646	-3.2458	-2.6354	-2.5146	-3.2833	-2.3208	-2.8229	-3.1625	-2.4521	-3.3917	-2.7021	130.957	16.306	245.324	57.408	171.656	139.899	237.271	268.319	285.787	257.840	187.912	252.199	292.350	220.720	4.427	-19.702	0.00052536	0.001176	0.00017571	523.88	5.0766e-06	2.1332e-06	480.21	186.34	5.7255e-06	4.5465e-06	195.63	78.153	73.03	39.265	5.2938e-06	43.522	0.0031499	0.0051344	0.0014505	569.48	5.5839e-05	5.8086e-05	482.42	187.95	4.7945e-05	5.7435e-05	198.99	79.138	75.014	39.959	5.1772e-05	44.203	324.920	43.330	31.841	-14.548	121.315	72.509	-15.397	-9.538	133.636	143.860	-11.828	-7.479	-5.366	-0.907	252.568	-5.078	-8191	255	
3438.446	1	1	0	0	0.18658	0.27421	0.054714	0.054968	0.133	0.1642	0.022237	0.2777	0.15329	0.13693	0.32011	0.18582	0.21156	0.29456	0.10824	0.19549	-2.1813	-3.3333	-2.5021	-2.9458	-3.1521	-2.3979	-3.1729	-2.7771	-2.6312	-3.3812	-2.525	-2.9396	-3.1458	-2.3042	-3.1854	-2.7229	15.318	239.501	-3.941	198.557	140.009	19.806	278.582	291.786	313.789	214.136	300.822	18.142	20.553	133.094	206.124	292.483	0.0004182	0.00027598	3.9083e-05	526.32	7.2188e-06	5.3815e-06	481.08	186.4	1.2542e-05	1.4122e-05	195.45	78.534	73.856	39.332	4.4194e-06	43.963	0.0031744	0.0049489	0.001438	572.53	5.4394e-05	5.7851e-05	484.12	188.54	4.8078e-05	5.6704e-05	199.7	79.48	75.347	40.145	5.1468e-05	44.516	322.211	135.395	8.857	-14.428	-19.478	97.830	-15.690	-9.355	312.510	120.593	-12.249	-7.483	-5.124	-1.047	112.129	-4.813	-8191	255	
3438.540	1	1	0	0	0.39071	0.1345	0.12065	0.23319	0.216	0.056011	0.21934	0.059854	0.13821	0.15749	0.066031	0.1333	0.10449	0.24821	0.24752	0.14126	-1.8937	-3.2687	-2.6771	-2.9	-3.15	-2.5167	-3.2479	-2.8146	-2.4146	-3.2812	-2.6292	-2.8917	-3.3042	-2.7042	-2.9167	-2.9542	323.916	125.569	121.733	258.475	85.530	146.473	199.299	293.385	149.970	330.025	309.921	56.324	-7.302	-7.147	58.943	244.723	0.00046539	0.0005353	8.7601e-05	525.4	2.088e-06	3.8131e-06	482.83	188.24	6.4521e-06	2.8207e-06	196.85	78.151	73.978	39.516	4.1538e-07	43.578	0.003192	0.0049671	0.0014688	572.58	5.533e-05	5.879e-05	485.41	189.17	4.9898e-05	5.8364e-05	200.25	79.577	75.399	40.242	5.2612e-05	44.355	309.184	54.187	98.409	-14.534	134.497	79.174	-15.357	-8.966	147.185	147.139	-11.636	-7.422	-5.527	-1.181	92.801	-4.934	-8191	255	
3438.637	1	1	0	0	0.052708	0.345	0.17311	0.068275	0.17775	0.04249	0.15599	0.14246	0.11955	0.15108	0.16456	0.15706	0.33041	0.084032	0.20255	0.20224	-2.0479	-3.3625	-2.5792	-2.8604	-3.2854	-2.5021	-3.1021	-3.1958	-2.3021	-3.3042	-2.8271	-2.5458	-3.5083	-2.4333	-2.9542	-3.1396	128.847	316.200	190.957	308.316	20.775	277.379	125.361	164.124	306.045	206.004	-10.071	207.089	49.774	17.951	-6.223	314.695	0.00050093	0.00071975	0.00021586	535.63	3.3284e-06	6.7288e-06	482.56	187.2	3.6225e-06	3.1205e-06	195.7	77.332	73.251	39.178	5.6764e-06	42.644	0.0032803	0.0051005	0.0015077	578.86	5.574e-05	6.0155e-05	485.31	188.82	4.9603e-05	5.7699e-05	199.29	78.93	75.032	39.935	5.3412e-05	43.626	313.626	88.742	119.334	-14.150	150.609	83.406	-15.384	-9.212	80.082	106.031	-11.847	-7.522	-5.055	-1.214	101.017	-5.277	-8191	255	
3438.708	1	1	0	0	0.30469	0.098337	0.10432	0.085697	0.26484	0.18002	0.053173	0.26361	0.13028	0.19085	0.018894	0.13948	0.12199	0.077999	0.059701	0.046705	-2.0083	-3.3125	-2.7812	-2.5542	-3.1396	-2.3521	-3.0125	-3.3917	-2.4604	-3.3021	-2.8042	-2.4333	-3.3312	-2.6042	-2.9396	-3.3375	325.771	272.421	184.477	272.850	222.546	166.766	88.627	293.611	-22.297	265.134	216.616	5.309	-10.157	192.704	85.880	-7.579	0.00036045	0.00020954	0.00015993	525.75	6.2289e-06	4.6952e-06	484.24	185.41	3.7143e-06	3.8227e-06	195.72	77.439	73.099	39.252	2.8328e-06	43.012	0.0032624	0.0051059	0.0015006	575.47	5.71e-05	6.0406e-05	484.53	188.16	5.0667e-05	5.9518e-05	199.04	78.72	74.905	39.999	5.3547e-05	43.883	330.976	277.093	329.888	-14.846	114.857	108.765	-15.818	-9.271	193.340	63.717	-11.907	-7.713	-4.918	-1.037	91.819	-5.082	-8191	255	
3438.829	1	1	0	0	0.11808	0.16469	0.24949	0.38324	0.047639	0.080644	0.061206	0.18265	0.19273	0.10205	0.18255	0.20973	0.13729	0.20902	0.097419	0.19618	-2.0875	-3.1271	-3.0271	-2.3708	-3.3708	-2.7438	-2.7438	-3.2812	-2.3583	-3.0042	-3.0479	-2.5042	-3.2375	-2.5833	-2.7042	-3.5042	-3.643	64.163	304.590	35.903	291.016	76.334	29.339	285.440	-21.346	233.411	189.445	311.914	136.667	294.837	64.146	152.357	0.00061379	5.6426e-05	2.1372e-05	532.89	4.8213e-06	3.4844e-06	480.21	187.4	3.6571e-06	6.1457e-06	195.59	78.12	73.404	39.439	3.5247e-06	43.611	0.0033619	0.0051648	0.0015251	577.35	5.6828e-05	6.1356e-05	484.76	189.06	5.0915e-05	5.8743e-05	199.46	79.215	75.377	40.25	5.32e-05	44.452	327.158	-8.276	319.865	-14.674	170.971	32.588	-15.547	-9.541	70.228	79.052	-11.870	-7.714	-5.037	-1.367	121.761	-5.170	-8191	255	
3438.925	1	1	0	0	0.23721	0.18748	0.19122	0.11547	0.19458	0.033262	0.20425	0.42538	0.12329	0.36228	0.096959	0.058511	0.12003	0.22075	0.081922	0.067659	-1.9979	-3.0271	-2.9229	-2.3	-3.3187	-2.6083	-2.6167	-3.2354	-2.4042	-2.7854	-2.9979	-2.4708	-3.2229	-2.9062	-2.5146	-3.2979	327.589	-20.022	-23.240	226.685	286.039	243.847	-11.017	260.033	175.785	-1.702	15.631	129.229	274.225	-21.081	152.293	85.994	0.00060264	0.00017774	0.00017929	530.78	5.6243e-06	4.3549e-06	484.1	188.42	2.4412e-06	3.0412e-06	196.37	78.228	74.064	39.694	3.7152e-06	44.114	0.0032893	0.0052095	0.0015261	576.75	5.5946e-05	6.1136e-05	487.42	189.83	4.9946e-05	5.9041e-05	200.12	79.731	75.677	40.423	5.401e-05	44.761	318.820	75.368	65.141	-14.246	78.724	139.434	-14.987	-9.190	155.970	159.153	-11.880	-7.614	-5.000	-1.280	47.155	-5.071	-8191	255	
3439.021	1	1	0	0	0.30741	0.071212	0.19519	0.29782	0.22538	0.12674	0.22902	0.16168	0.26188	0.34918	0.087081	0.17614	0.13535	0.032413	0.29288	0.073525	-1.9979	-2.8708	-3.1042	-2.2917	-3.2479	-2.9771	-2.5854	-3.4729	-2.4792	-2.7458	-3.3083	-2.3271	-3.1562	-3.0062	-2.3229	-3.2896	115.169	298.145	249.221	178.112	332.258	-10.182	291.212	251.675	277.004	244.852	71.108	312.050	195.693	196.569	73.709	200.749	0.00052238	0.00032485	0.00015221	531.91	1.4528e-06	7.2054e-07	483.55	189.16	5.5912e-06	1.3707e-06	196.75	78.165	73.545	39.584	4.9787e-06	43.209	0.0032816	0.0051826	0.0015154	577.89	5.5831e-05	6.0005e-05	486.29	189.87	5.0993e-05	5.859e-05	200.74	79.52	75.31	40.312	5.4232e-05	44.181	331.668	90.447	-20.031	-14.554	268.620	163.833	-15.432	-9.328	144.520	172.158	-12.053	-7.876	-5.051	-1.337	124.292	-4.742	-8191	255	
3439.117	1	1	0	0	0.20839	0.18653	0.15287	0.18262	0.14201	0.17624	0.23913	0.10185	0.11107	0.14092	0.123	0.14385	0.065898	0.42959	0.14886	0.23687	-2.1312	-2.7854	-3.0708	-2.5438	-3.0125	-3.075	-2.3479	-3.1542	-2.6	-2.7729	-3.3771	-2.3583	-3.1042	-3.1104	-2.3583	-3.4771	164.535	269.623	24.429	235.973	39.746	154.978	266.493	11.556	266.132	73.866	303.943	283.814	294.839	328.302	122.845	257.262	0.00058496	0.00022656	0.00014483	523.15	7.7043e-06	3.8604e-06	483.58	186.94	1.2448e-05	9.3446e-06	195.03	78.186	73.883	39.378	2.36e-06	43.372	0.0032672	0.005196	0.001477	574.82	5.6204e-05	6.0128e-05	484.91	188.54	5.0918e-05	5.7931e-05	199.06	79.152	75.301	40.138	5.4148e-05	43.952	320.508	328.677	89.384	-13.760	179.864	118.946	-15.059	-9.377	151.601	106.166	-11.848	-7.617	-5.214	-1.117	178.414	-5.192	-8191	255	
3439.238	1	1	0	0	0.049489	0.065011	0.11908	0.13959	0.14548	0.36668	0.11325	0.18742	0.18736	0.22863	0.0218	0.13164	0.12193	0.18061	0.11537	0.28427	-2.4208	-2.4583	-3.4062	-2.3208	-2.9604	-3.0125	-2.3833	-3.2333	-2.7104	-2.5625	-3.3333	-2.5979	-2.8542	-3.3187	-2.4125	-3.3708	295.609	230.708	129.124	279.050	43.507	-8.321	281.423	232.825	95.256	197.652	111.135	-23.733	251.032	-22.098	216.668	160.290	0.00066428	0.00063611	0.00010375	529.2	6.1591e-06	8.1e-06	484.32	188.79	4.4878e-06	5.556e-06	198.52	77.991	73.64	39.8	1.7726e-06	43.72	0.0032841	0.0052461	0.0014599	574.24	5.4957e-05	6.0814e-05	484.44	189.45	5.0873e-05	5.7785e-05	199.63	79.317	75.232	40.411	5.2263e-05	44.357	298.502	46.812	24.224	-14.467	136.731	110.936	-15.183	-8.887	209.952	297.201	-11.933	-7.601	-4.753	-1.144	125.439	-5.200	-8191	255	
3439.310	1	1	0	0	0.15086	0.2072	0.11189	0.11308	0.15077	0.096692	0.22894	0.14862	0.26581	0.069219	0.119	0.20569	0.077932	0.24161	0.16268	0.19625	-2.5833	-2.5708	-3.1771	-2.5354	-2.8875	-3.175	-2.4	-3.0312	-2.7667	-2.5438	-3.475	-2.7417	-2.7958	-3.2646	-2.3646	-3.2792	79.083	-0.788	214.713	75.618	276.851	19.909	177.495	260.441	103.719	297.241	70.782	55.092	331.304	81.100	164.978	203.157	0.00073265	0.00024581	0.00014284	531.03	6.7329e-06	2.6247e-06	484.22	187.33	1.1007e-05	2.8057e-06	196.68	78.468	73.847	39.826	4.6749e-06	43.942	0.0032559	0.0050782	0.0014451	577.45	5.3869e-05	5.8438e-05	486.51	189.5	4.8876e-05	5.7673e-05	200.62	79.832	75.566	40.499	5.1873e-05	44.554	323.069	88.322	99.942	-14.637	126.062	115.883	-15.329	-9.112	91.984	113.553	-12.258	-8.123	-5.000	-0.984	97.253	-4.901	-8191	255	
3439.406	1	1	0	0	0.14471	0.11792	0.19493	0.065553	0.11472	0.081851	0.24151	0.12684	0.21775	0.19603	0.13879	0.11053	0.2857	0.23788	0.11284	0.06971	-2.6417	-2.2146	-3.2833	-2.6292	-2.6833	-3.2583	-2.6667	-2.9354	-3.0771	-2.2812	-3.4604	-2.7313	-2.6146	-3.4562	-2.4292	-3.0563	53.687	179.199	3.180	191.151	292.689	68.688	215.827	290.326	78.023	131.132	180.740	-25.403	312.383	278.174	39.513	187.752	0.00034057	0.00047439	7.3133e-05	532.75	4.7991e-06	5.8319e-06	484.81	188.18	1.5891e-05	7.5799e-06	197.9	78.336	73.92	39.766	1.0426e-05	44.107	0.0032455	0.0051071	0.0014298	576.39	5.4723e-05	5.8663e-05	487.52	189.54	4.9502e-05	5.7748e-05	200.83	79.896	75.621	40.514	5.2941e-05	44.763	314.663	30.862	73.280	-15.009	125.496	184.778	-15.326	-9.137	155.325	4.294	-11.734	-7.918	-5.165	-1.328	152.833	-5.197	-8191	255	
3439.526	1	1	0	0	0.030144	0.23355	0.085952	0.12982	0.20708	0.19734	0.33815	0.10411	0.1575	0.093216	0.18034	0.19169	0.17599	0.086325	0.10908	0.12371	-2.7333	-2.1958	-3.2687	-2.6833	-2.475	-3.2604	-2.5583	-2.95	-3.0687	-2.4562	-3.1229	-2.7521	-2.5438	-3.3375	-2.5521	-2.7	321.981	97.378	323.123	113.050	26.500	-20.459	2.670	221.273	119.283	-10.817	65.558	33.454	303.494	85.221	16.234	297.176	0.00036493	0.0009285	0.00014116	531.08	5.9929e-06	1.0255e-05	486.04	188.13	2.9935e-06	2.9395e-06	196.79	77.901	73.52	39.785	2.192e-06	43.334	0.0032334	0.0051169	0.0014154	574.17	5.3979e-05	5.7818e-05	486.89	189.65	4.9651e-05	5.7519e-05	200.11	79.262	75.373	40.333	5.3277e-05	43.925	313.168	64.865	40.975	-14.489	160.614	62.878	-15.551	-9.277	105.887	88.615	-11.915	-7.750	-5.407	-1.172	41.863	-5.086	-8191	255	
3439.621	1	1	0	0	0.053937	0.044834	0.1943	0.13875	0.026372	0.074623	0.18801	0.14146	0.21477	0.24241	0.34511	0.13111	0.17897	0.061977	0.3872	0.1408	-2.775	-2.1417	-2.9792	-2.6771	-2.3646	-3.3604	-2.6083	-2.6833	-3.2208	-2.4021	-3.0229	-3.0125	-2.3708	-3.4479	-2.5521	-2.8375	39.006	100.479	-8.680	27.528	322.947	24.366	282.997	171.522	296.342	114.690	-15.350	0.331	316.037	13.786	51.106	316.193	0.00044613	0.00053129	0.00013278	529.77	2.9243e-06	5.9784e-06	479.38	187.42	3.6978e-06	5.4052e-06	196.06	77.295	73.598	39.461	8.3679e-06	42.979	0.0032008	0.005138	0.0014139	575.52	5.438e-05	5.7846e-05	483.07	188.94	4.9945e-05	5.8375e-05	198.01	78.454	75.197	39.998	5.532e-05	43.816	308.035	68.040	50.303	-14.957	67.983	100.663	-15.266	-9.398	52.794	157.913	-11.685	-7.524	-5.061	-1.050	153.569	-4.732	-8191	255	
3439.717	1	1	0	0	0.17629	0.12284	0.1511	0.28404	0.20706	0.19255	0.042292	0.27004	0.10109	0.077488	0.16964	0.023603	0.23701	0.033251	0.23093	0.19289	-2.8854	-2.2875	-3.0375	-3.1	-2.2604	-3.3792	-2.6312	-2.4333	-3.3125	-2.4583	-2.9271	-3.1625	-2.3292	-3.4104	-2.6458	-2.4188	196.563	73.416	18.876	28.108	242.465	21.792	21.192	269.826	228.503	245.353	332.148	168.397	167.597	264.516	286.169	322.839	0.00043143	0.00066696	0.0001261	526.44	7.9456e-06	1.3554e-06	478.82	186.73	8.0395e-06	6.1414e-06	196.29	77.788	73.308	39.532	1.034e-06	43.303	0.0032682	0.0053515	0.0014554	575.88	5.579e-05	5.7924e-05	484.62	188.9	5.0382e-05	5.9881e-05	199.48	79.091	75.244	40.298	5.5505e-05	44.24	313.428	79.199	-1.613	-14.634	94.115	23.657	-15.726	-9.328	65.794	93.296	-11.993	-7.605	-5.256	-0.957	160.379	-4.731	-8191	255	
3439.838	1	1	0	0	0.020057	0.21324	0.085927	0.17179	0.28214	0.17691	0.16046	0.20039	0.10176	0.19993	0.090509	0.13075	0.25029	0.24243	0.11615	0.10194	-3.1833	-2.4271	-2.9688	-3.2792	-2.3563	-3.1813	-2.9333	-2.5812	-3.2396	-2.4729	-3.0375	-3.2521	-2.1521	-3.1667	-2.975	-2.3083	170.931	3.468	11.867	24.309	26.506	219.310	325.261	24.800	5.211	-13.015	170.839	322.796	-1.438	297.272	253.942	252.546	0.00084862	6.9583e-05	0.00026175	530.42	5.1741e-06	2.0266e-06	483.53	187.34	1.3613e-05	2.2194e-06	195.8	78.025	73.989	39.734	4.6528e-06	44.091	0.0033206	0.0054217	0.001469	578.41	5.7229e-05	6.0121e-05	486.99	189.51	5.2203e-05	6.1445e-05	200.29	79.776	75.73	40.51	5.6914e-05	44.826	315.148	130.186	68.535	-14.492	129.186	96.164	-15.539	-9.226	161.667	32.527	-12.199	-7.123	-5.181	-1.270	96.540	-5.179	-8191	255	
3439.934	1	1	0	0	0.23969	0.040751	0.25889	0.063705	0.10745	0.19607	0.19215	0.063227	0.063095	0.034104	0.28796	0.05424	0.14339	0.29337	0.041887	0.085102	-2.95	-2.4667	-2.5208	-3.2667	-2.225	-3.1646	-3.0458	-2.4188	-3.2542	-2.7188	-2.8125	-3.4208	-2.4833	-3.1333	-3.0896	-2.5146	205.119	13.999	67.404	117.557	286.892	9.220	71.244	257.187	82.585	-9.753	328.701	225.540	103.071	322.978	200.226	235.794	0.00063511	0.00029968	0.0001639	542.5	4.6234e-06	5.9407e-06	488.75	186.96	3.6881e-06	4.7852e-06	196.98	79.248	73.916	39.993	3.3897e-06	44.047	0.0033648	0.0054389	0.0015139	581.2	5.8408e-05	6.0589e-05	489.85	190.06	5.1098e-05	6.1684e-05	201.53	80.526	75.975	40.762	5.6267e-05	44.856	291.969	39.322	45.082	-14.898	62.758	214.540	-15.476	-9.117	77.437	191.939	-11.597	-7.781	-4.995	-1.160	136.148	-4.905	-8191	255	
3440.005	1	1	0	0	0.029437	0.24069	0.096794	0.1115	0.13718	0.13088	0.045242	0.24354	0.19633	0.27296	0.20506	0.14354	0.20094	0.31727	0.31873	0.1838	-2.8396	-2.5896	-2.4313	-3.0687	-2.4667	-3.0125	-3.2979	-2.4354	-3.2958	-2.7958	-2.8521	-3.3542	-2.6292	-2.9958	-3.2979	-2.6562	232.024	65.563	87.309	288.859	192.284	20.781	238.761	318.707	-24.350	105.972	198.468	331.783	279.733	315.206	67.519	-10.097	0.00054298	0.00077314	6.2946e-05	530.93	5.7516e-06	3.7256e-06	483.35	187.4	6.4209e-06	1.1427e-05	197.21	78.237	73.381	39.812	1.5769e-06	43.519	0.0033484	0.0054906	0.0015334	578.13	5.89e-05	6.1816e-05	487.03	189.74	5.2538e-05	6.3908e-05	200.74	79.508	75.388	40.462	5.7724e-05	44.248	323.405	89.767	134.249	-14.967	203.444	216.472	-15.943	-9.320	186.452	77.318	-11.578	-7.585	-5.086	-0.850	184.888	-4.614	-8191	255	
3440.126	1	1	0	0	0.14058	0.27154	0.2102	0.24022	0.11056	0.12321	0.2841	0.10711	0.16911	0.11193	0.085622	0.24796	0.23311	0.17575	0.094607	0.13967	-2.6896	-2.6646	-2.2687	-3.3125	-2.4646	-2.8542	-3.2333	-2.4521	-3.2396	-2.9	-2.4167	-3.4729	-2.6979	-2.5687	-3.2146	-2.5167	244.094	319.466	-9.193	193.143	-4.171	295.118	-18.048	210.538	81.359	-25.828	-20.276	246.345	237.202	284.542	80.624	267.804	0.00070382	0.0005954	5.4772e-05	532.1	5.8118e-06	1.8708e-06	483.05	186.82	4.4507e-06	6.0204e-06	194.98	78.28	73.452	39.291	5.3582e-06	43.253	0.0034127	0.0055253	0.0015663	579.47	5.9116e-05	6.171e-05	484.75	189.02	5.2284e-05	6.2605e-05	199.34	79.215	75.369	40.213	5.6396e-05	44.188	311.228	53.879	88.649	-14.475	126.560	102.187	-15.496	-8.673	76.572	121.740	-11.675	-7.456	-4.527	-0.969	248.903	-5.099	-8191	255	
3440.222	1	1	0	0	0.16778	0.11798	0.22027	0.29432	0.1672	0.1636	0.17021	0.35031	0.13053	0.12367	0.28439	0.14657	0.10543	0.13272	0.23466	0.22011	-2.9	-2.8625	-2.2854	-3.2229	-2.6708	-2.6708	-3.3167	-2.5625	-3.2062	-3.2125	-2.4896	-3.1729	-2.65	-2.6792	-3.2687	-2.5021	191.004	195.822	71.464	186.312	323.961	12.974	233.370	236.100	215.990	-6.398	0.410	-7.693	89.533	292.011	175.036	213.600	0.00056389	0.00089395	0.000128	534.21	2.428e-06	1.177e-06	483.62	186.5	7.5568e-06	4.5624e-06	197.32	78.681	73.385	39.693	1.4331e-06	43.674	0.0033585	0.0055017	0.0015195	580.93	5.974e-05	6.1089e-05	486.22	189.02	5.0882e-05	6.1883e-05	199.99	79.675	75.297	40.432	5.5231e-05	44.402	319.595	137.720	19.759	-13.615	92.951	223.126	-15.267	-9.189	140.900	134.047	-11.378	-7.133	-4.996	-0.824	163.378	-4.681	-8191	255	
3440.318	1	1	0	0	0.12305	0.084608	0.05438	0.28052	0.21793	0.12239	0.17412	0.095202	0.18844	0.044933	0.38622	0.25301	0.14006	0.24443	0.19141	0.11031	-2.6063	-3.1292	-2.3333	-3.2083	-2.8167	-2.6208	-3.225	-2.4792	-2.8625	-3.3	-2.5875	-3.2583	-2.925	-2.4708	-3.3333	-2.7604	62.132	159.297	72.203	312.387	256.460	201.289	194.591	276.154	279.953	325.268	277.078	272.719	135.030	297.991	104.247	147.237	0.00051441	0.0006172	0.00017825	527.08	3.5974e-06	6.7586e-06	485.92	188.22	7.5219e-06	8.1541e-06	197.25	78.616	74.672	39.699	7.5473e-06	44.049	0.0032847	0.0054125	0.001495	577.06	5.8374e-05	6.138e-05	487.67	189.67	5.0222e-05	6.1324e-05	200.74	79.867	75.953	40.45	5.3642e-05	44.834	308.291	79.470	23.233	-14.643	13.513	101.605	-15.168	-9.422	85.845	104.905	-11.290	-7.293	-4.768	-1.028	44.212	-5.013	-8191	255	
3440.414	1	1	0	0	0.16163	0.12931	0.17216	0.12653	0.1522	0.18866	0.031749	0.27389	0.14524	0.27193	0.13866	0.07132	0.10437	0.20861	0.11502	0.095363	-2.5125	-3.2542	-2.4042	-3.0771	-2.9188	-2.4562	-3.4	-2.7917	-2.8688	-3.2667	-2.5833	-3.1292	-3.0167	-2.7375	-3.1937	-2.7354	148.982	-7.649	190.229	42.986	144.070	242.641	232.934	231.092	187.240	164.135	122.122	144.794	287.146	23.133	283.252	176.655	0.00058853	0.00071621	5.9693e-05	528.08	8.637e-06	1.0359e-06	486.77	186.8	6.3416e-06	6.0387e-06	197.1	77.897	73.919	39.706	1.0378e-06	43.515	0.0032822	0.005315	0.00151	577.32	5.7336e-05	5.9495e-05	487.37	188.75	4.9595e-05	5.879e-05	199.92	79.49	75.46	40.278	5.3237e-05	44.13	305.193	56.572	304.873	-14.300	99.232	307.594	-15.086	-9.037	202.748	117.071	-11.810	-7.693	-5.227	-1.150	273.716	-4.943	-8191	255	
3440.533	1	1	0	0	0.030359	0.055117	0.19562	0.15064	0.10346	0.39145	0.043255	0.074967	0.19183	0.19997	0.16196	0.22911	0.073044	0.43353	0.21045	0.067919	-2.175	-3.2146	-2.2354	-3.1625	-3.0604	-2.2875	-3.3458	-2.7146	-2.5938	-3.2958	-2.3354	-3.0292	-2.9333	-2.5042	-3.2375	-2.9813	144.529	314.496	226.771	83.125	52.172	149.440	49.128	150.801	276.077	240.060	66.252	329.009	321.963	310.538	175.406	311.523	0.00049332	0.00010243	8.0237e-05	531.67	3.4117e-06	2.0368e-06	484.34	187.1	5.8657e-06	3.3314e-06	194.3	76.972	73.308	39.401	1.8552e-06	43.08	0.0032377	0.0052424	0.001446	575.44	5.6297e-05	5.8755e-05	484.66	188.72	5.0025e-05	5.7728e-05	198.55	78.683	74.895	40.036	5.2931e-05	43.775	-13.585	-25.364	119.654	-14.766	96.631	47.584	-15.400	-9.367	134.815	137.340	-11.542	-7.809	-5.321	-1.092	141.394	-5.200	-8191	255	
3440.605	1	1	0	0	0.20523	0.098283	0.23248	0.010585	0.13096	0.031101	0.080341	0.11245	0.053675	0.10673	0.20699	0.21771	0.35223	0.1895	0.13985	0.27395	-2.3042	-3.3208	-2.4	-2.9125	-3.1375	-2.3875	-3.3896	-2.8479	-2.5042	-3.2208	-2.4771	-2.6625	-3.2375	-2.3312	-3.2375	-2.7271	16.914	266.307	192.261	259.217	297.803	169.055	-23.753	175.866	255.497	225.259	284.261	1.481	279.930	313.459	281.318	317.244	0.0004769	0.00046888	0.00016743	525.44	7.728e-06	2.3646e-06	480.95	186.35	1.2536e-05	5.1826e-06	193.1	77.387	72.95	39.333	4.7763e-06	43.01	0.0032494	0.0050381	0.0014715	572.81	5.4971e-05	5.855e-05	483.09	187.98	4.9092e-05	5.8046e-05	197.43	78.522	74.952	39.991	5.2151e-05	43.809	331.101	101.230	131.414	-14.568	109.251	-7.162	-15.439	-9.227	144.824	32.082	-12.101	-7.541	-4.915	-1.177	114.150	-4.787	-8191	255	
3440.701	1	1	0	0	0.089769	0.16185	0.29332	0.080143	0.11728	0.045855	0.23303	0.21503	0.16546	0.037166	0.18442	0.16834	0.32276	0.16557	0.092609	0.15423	-2.2458	-3.2521	-2.5979	-2.6458	-3.325	-2.4979	-3.2042	-2.9208	-2.3688	-3.3021	-2.7229	-2.6771	-3.2146	-2.5396	-3.1	-3.1583	301.423	95.796	236.472	294.538	280.971	-22.155	247.731	-13.384	149.313	144.684	-18.162	252.099	317.876	241.375	189.175	202.018	0.00050315	0.00062304	0.00014494	534.76	2.1496e-06	1.6959e-06	484.41	186.57	1.1475e-05	3.0082e-06	195.36	77.4	73.433	39.259	4.8345e-06	43.22	0.0031894	0.005153	0.0014766	575.34	5.577e-05	5.8722e-05	485.36	188.39	4.9005e-05	5.6817e-05	198.79	78.94	75.364	40.063	5.3022e-05	44.172	329.570	9.434	99.006	-13.862	232.361	53.906	-15.424	-9.150	283.354	152.871	-12.059	-7.690	-4.988	-1.055	171.878	-4.694	-8191	255	
3440.799	1	1	0	0	0.10535	0.094895	0.14491	0.099525	0.077269	0.26838	0.040935	0.2343	0.1235	0.24296	0.19362	0.20246	0.27395	0.54669	0.20737	0.21579	-2.025	-3.225	-2.6479	-2.6167	-3.2292	-2.4313	-3.0687	-3.1354	-2.2687	-3.1896	-2.7979	-2.6729	-3.2667	-2.4229	-2.8667	-3.2042	111.421	319.297	126.739	303.048	101.248	37.588	91.364	301.571	21.132	250.046	296.217	22.941	31.417	321.084	225.501	189.146	0.00064766	0.00026511	4.4754e-05	524.28	2.1114e-06	3.5136e-06	484.49	187.96	7.5503e-06	6.4063e-06	196.25	78.178	73.998	39.466	5.4502e-06	43.61	0.0032125	0.0051325	0.0015058	576.23	5.6417e-05	5.9481e-05	486.31	189.51	4.9928e-05	5.7902e-05	199.65	79.189	75.493	40.157	5.2773e-05	44.141	318.811	203.670	295.234	-14.060	-14.313	163.795	-15.302	-9.325	106.074	120.199	-12.061	-7.270	-5.221	-1.127	50.456	-4.977	-8191	255	
3440.918	1	1	0	0	0.1305	0.032772	0.14087	0.20404	0.22621	0.050529	0.1878	0.12719	0.36373	0.20689	0.27837	0.090108	0.10844	0.11209	0.1225	0.028038	-2.0354	-3.0167	-2.5854	-2.3729	-3.3396	-2.5542	-2.9958	-3.2917	-2.3708	-3.2125	-3.0729	-2.4375	-3.4021	-2.6104	-2.7	-3.3167	308.432	304.062	193.351	-11.955	159.524	247.848	154.715	190.677	196.003	117.997	206.036	82.628	260.982	268.367	173.846	267.300	0.00050839	0.00095459	0.0002433	539.02	6.0378e-06	5.0481e-06	480.12	186.93	7.3938e-06	3.0849e-06	194.63	77.792	73.257	39.305	4.4767e-06	42.928	0.003286	0.0050562	0.0014904	580.56	5.5627e-05	5.9419e-05	484.78	188.6	5.0126e-05	5.7949e-05	198.38	78.809	74.939	40.021	5.3832e-05	43.536	329.244	52.793	31.559	-14.578	70.694	50.092	-15.329	-9.350	226.761	137.370	-11.998	-7.538	-4.991	-1.325	156.841	-4.948	-8191	255	
3441.014	1	1	0	0	0.085191	0.10286	0.26065	0.33511	0.29697	0.32237	0.17768	0.29801	0.079589	0.12032	0.12979	0.13632	0.28327	0.094624	0.15345	0.13592	-1.8583	-3.0229	-2.9229	-2.3438	-3.2333	-2.6833	-2.5625	-3.2062	-2.3271	-3.0979	-2.9583	-2.4604	-3.2938	-2.8167	-2.5062	-3.1771	25.924	92.824	92.287	303.125	54.214	144.752	59.743	311.854	311.588	184.248	212.977	257.455	-25.473	282.958	332.476	171.685	0.00044356	0.00028047	6.7823e-05	536.41	7.4256e-06	4.9894e-06	478.62	186.08	1.2132e-05	7.1667e-06	193.89	77.303	73.292	39.284	8.8979e-06	42.86	0.0033148	0.0052487	0.0014967	577.51	5.4832e-05	6.0681e-05	482.45	188.1	5.061e-05	5.9063e-05	197.51	78.356	74.748	39.985	5.4503e-05	43.653	329.993	93.530	71.591	-13.710	124.169	158.696	-15.418	-9.286	170.788	74.109	-11.816	-7.670	-4.959	-1.358	180.064	-5.267	-8191	255	
3441.110	1	1	0	0	0.16795	0.092627	0.14931	0.11215	0.21908	0.052996	0.2836	0.26741	0.037656	0.30438	0.19794	0.15144	0.11722	0.10753	0.34498	0.23545	-2.1083	-3.075	-3.0625	-2.3958	-3.1292	-2.8083	-2.6354	-3.4562	-2.4583	-2.8833	-3.1896	-2.4813	-3.3125	-2.9625	-2.5458	-3.4813	289.066	-7.513	303.933	12.017	73.882	261.728	-8.089	-23.441	-23.566	322.359	17.233	265.163	20.454	326.274	-21.634	315.615	0.00064281	0.00048029	0.0001548	528.37	1.7448e-06	5.3757e-06	480.96	186.27	1.001e-05	4.7113e-06	194.09	77.216	73.193	39.506	6.34e-06	43.3	0.0032719	0.0052125	0.0015029	573.79	5.5235e-05	6.1311e-05	483.45	188.56	5.1176e-05	5.8855e-05	198.2	78.708	75.145	40.284	5.4838e-05	44.234	329.050	100.303	47.637	-14.509	198.243	177.212	-15.180	-8.944	169.660	87.802	-11.679	-7.501	-5.016	-1.168	179.534	-5.002	-8191	255	
3441.206	1	1	0	0	0.055399	0.1267	0.083987	0.091984	0.19696	0.13373	0.3035	0.04918	0.15858	0.086743	0.21728	0.021378	0.09512	0.27683	0.072515	0.073077	-2.0167	-2.8458	-3.2875	-2.2917	-3.1333	-2.8688	-2.3708	-3.2354	-2.4917	-2.8187	-3.3167	-2.275	-3.1021	-3.0062	-2.3667	-3.4188	106.589	315.942	294.077	210.002	313.540	191.234	249.740	16.592	135.142	-25.308	-0.052	107.246	285.534	266.539	55.724	243.147	0.00058241	0.00064578	9.6502e-06	531.04	4.9191e-06	1.2706e-06	484.73	186.63	7.5404e-06	2.9882e-06	197.47	78.242	73.966	39.856	1.0682e-05	43.716	0.0033238	0.0052018	0.0014936	580.73	5.6225e-05	6.1917e-05	487.62	189.08	5.2254e-05	5.9944e-05	199.95	79.482	75.539	40.599	5.5803e-05	44.632	325.798	10.444	273.255	-14.210	138.545	5.054	-15.334	-8.787	108.329	192.520	-11.997	-7.657	-4.627	-1.044	163.222	-4.975	-8191	255	
3441.303	1	1	0	0	0.38637	0.2504	0.17263	0.11715	0.1058	0.07772	0.35278	0.28774	0.29878	0.046489	0.13458	0.18067	0.047331	0.25712	0.16254	0.149	-2.1396	-2.5375	-3.3646	-2.3521	-3.0333	-3.1292	-2.55	-3.4792	-2.6771	-2.6125	-3.3937	-2.4292	-3.0833	-3.2292	-2.2021	-3.3396	47.856	177.022	47.547	108.426	281.429	182.130	240.975	324.798	-5.563	12.093	316.681	-9.140	13.758	256.549	310.058	202.915	0.00072191	0.00045788	9.4994e-05	539.52	4.6037e-06	2.5239e-06	486.5	188.29	2.1425e-06	8.3276e-06	195.34	79.003	74.417	39.699	5.958e-06	43.449	0.003424	0.0053447	0.0015217	583.78	5.823e-05	6.2216e-05	488.29	189.59	5.2634e-05	6.0519e-05	199.82	79.869	75.808	40.429	5.4889e-05	44.332	326.711	53.344	48.412	-14.577	107.718	329.967	-15.422	-9.053	205.808	151.090	-11.652	-7.449	-5.019	-0.875	142.021	-4.761	-8191	255	
3441.399	1	1	0	0	0.17149	0.24747	0.08274	0.11754	0.14068	0.11421	0.1467	0.20345	0.28391	0.10521	0.045259	0.16612	0.43428	0.20767	0.05348	0.17716	-2.4167	-2.5271	-3.3625	-2.3667	-2.9229	-3.2396	-2.4396	-3.3354	-3.0146	-2.5125	-3.4354	-2.6292	-2.9021	-3.3	-2.4062	-3.275	152.899	225.905	153.736	188.136	118.535	184.921	224.896	297.462	313.649	0.506	293.331	-21.341	243.236	320.923	130.360	177.270	0.00058398	0.0003225	0.00016777	531.19	3.6005e-06	2.8289e-06	482.62	186.59	1.3386e-05	6.9251e-06	195.15	77.529	73.999	39.334	5.0966e-06	43.145	0.003479	0.0053389	0.0014803	578.85	5.5986e-05	6.1329e-05	485.85	188.86	5.1513e-05	5.9313e-05	198.45	78.845	75.435	40.019	5.3687e-05	43.936	302.032	132.841	46.521	-14.411	235.130	109.251	-15.578	-8.900	138.020	177.944	-11.676	-7.340	-5.015	-1.197	177.103	-4.820	-8191	255	
3441.519	1	1	0	0	0.14619	0.1349	0.23679	0.15375	0.21833	0.17414	0.15395	0.072566	0.12061	0.13336	0.087745	0.28534	0.23149	0.092684	0.22905	0.22025	-2.5729	-2.475	-3.2938	-2.5938	-2.7667	-3.3063	-2.4688	-3.1354	-3.0792	-2.2313	-3.4062	-2.7687	-2.8042	-3.3146	-2.3833	-3.0583	33.491	269.407	94.728	157.143	242.989	100.074	325.555	262.128	-18.017	28.583	13.632	86.804	304.895	274.080	197.881	315.418	0.00034816	0.0008662	0.00011289	528.14	3.6865e-06	7.8902e-06	483.38	186.48	9.4733e-06	3.3279e-06	195.87	77.649	73.607	39.557	8.198e-06	43.263	0.0033155	0.0052145	0.001443	575.1	5.5684e-05	5.9401e-05	484.79	188.4	5.0507e-05	5.8615e-05	198.51	78.758	75.254	40.205	5.4056e-05	44.009	315.931	109.043	49.267	-14.321	114.946	122.287	-15.484	-9.259	103.105	137.628	-11.977	-7.355	-4.753	-0.873	165.105	-5.066	-8191	255	
3441.614	1	1	0	0	0.1871	0.027046	0.21602	0.14036	0.23553	0.17873	0.24181	0.27279	0.21418	0.21413	0.37072	0.067575	0.14096	0.22638	0.29078	0.062054	-2.6646	-2.4104	-3.1542	-2.8042	-2.7792	-3.3792	-2.5312	-2.8312	-3.0625	-2.3375	-3.2229	-2.6292	-2.6562	-3.4938	-2.4813	-2.9333	305.735	256.292	184.705	251.808	13.397	109.465	210.090	297.640	295.950	209.627	281.974	196.684	275.423	-6.512	253.336	268.647	0.00061622	0.00094888	0.00027565	526.65	2.3956e-06	2.0221e-06	484.68	188.01	3.338e-06	4.0081e-06	196.38	77.73	73.956	39.642	3.6788e-06	43.422	0.0032975	0.0052072	0.0014422	575.95	5.5803e-05	5.8734e-05	485.79	189.52	5.0931e-05	5.879e-05	199.15	79.231	75.374	40.34	5.4579e-05	44.325	302.440	73.497	67.257	-15.001	-15.437	77.599	-15.417	-9.211	3.397	93.136	-11.668	-7.526	-4.851	-1.062	110.683	-4.856	-8191	255	
#DATA ENDS
