BOXY.EXE: ISS Imagent and Oximeter Data Acquisition Program Version 0.80
Ascii Record File

#ACQ INFORMATION
2  Detector Channels 
16  External MUX Channels 
1  Auxiliary Channels 
5000  Waveform (CCF) Frequency (Hz)
1  Waveforms Skipped 
30  Waveforms Averaged 
1  Cycles Averaged 
16  Acquisitions per Waveform 
10.0806  Updata Rate (Hz) 

#FILE INFORMATION
TRUE -- External MUX Channel results are PARSED.
FALSE -- AC DC and Phase are NOT grouped.
TRUE -- Companion Program Settings File CREATED.
FALSE -- AC data not excluded
FALSE -- DC data not excluded
FALSE -- Phase data not excluded
FALSE -- Auxillary Chn. data not excluded
Tab delimiters

#CALIBRATION STATE
TRUE -- Waveform Calibration Values APPLIED.


#AUX CALIBRATION VALUES
Val Type	aux-1	

Term	1.0000e+00	
Factor	0.0000e+00	


#WF CALIBRATION VALUES
A = Detector Channel
Val Type	A-AC1	A-AC2	A-AC3	A-AC4	A-AC5	A-AC6	A-AC7	A-AC8	A-AC9	A-AC10	A-AC11	A-AC12	A-AC13	A-AC14	A-AC15	A-AC16	A-DC1	A-DC2	A-DC3	A-DC4	A-DC5	A-DC6	A-DC7	A-DC8	A-DC9	A-DC10	A-DC11	A-DC12	A-DC13	A-DC14	A-DC15	A-DC16	A-Ph1	A-Ph2	A-Ph3	A-Ph4	A-Ph5	A-Ph6	A-Ph7	A-Ph8	A-Ph9	A-Ph10	A-Ph11	A-Ph12	A-Ph13	A-Ph14	A-Ph15	A-Ph16	

Term	0.00000e+00	0.00000e+00	0.00000e+00	0.00000e+00	0.00000e+00	0.00000e+00	0.00000e+00	0.00000e+00	0.00000e+00	0.00000e+00	0.00000e+00	0.00000e+00	0.00000e+00	0.00000e+00	0.00000e+00	0.00000e+00	0.00000e+00	0.00000e+00	0.00000e+00	0.00000e+00	0.00000e+00	0.00000e+00	0.00000e+00	0.00000e+00	0.00000e+00	0.00000e+00	0.00000e+00	0.00000e+00	0.00000e+00	0.00000e+00	0.00000e+00	0.00000e+00	0.00000e+00	0.00000e+00	0.00000e+00	0.00000e+00	0.00000e+00	0.00000e+00	0.00000e+00	0.00000e+00	0.00000e+00	0.00000e+00	0.00000e+00	0.00000e+00	0.00000e+00	0.00000e+00	0.00000e+00	0.00000e+00	
Factor	1.00000e+00	1.00000e+00	1.00000e+00	1.00000e+00	1.00000e+00	1.00000e+00	1.00000e+00	1.00000e+00	1.00000e+00	1.00000e+00	1.00000e+00	1.00000e+00	1.00000e+00	1.00000e+00	1.00000e+00	1.00000e+00	1.00000e+00	1.00000e+00	1.00000e+00	1.00000e+00	1.00000e+00	1.00000e+00	1.00000e+00	1.00000e+00	1.00000e+00	1.00000e+00	1.00000e+00	1.00000e+00	1.00000e+00	1.00000e+00	1.00000e+00	1.00000e+00	X	X	X	X	X	X	X	X	X	X	X	X	X	X	X	X	

B = Detector Channel
Val Type	B-AC1	B-AC2	B-AC3	B-AC4	B-AC5	B-AC6	B-AC7	B-AC8	B-AC9	B-AC10	B-AC11	B-AC12	B-AC13	B-AC14	B-AC15	B-AC16	B-DC1	B-DC2	B-DC3	B-DC4	B-DC5	B-DC6	B-DC7	B-DC8	B-DC9	B-DC10	B-DC11	B-DC12	B-DC13	B-DC14	B-DC15	B-DC16	B-Ph1	B-Ph2	B-Ph3	B-Ph4	B-Ph5	B-Ph6	B-Ph7	B-Ph8	B-Ph9	B-Ph10	B-Ph11	B-Ph12	B-Ph13	B-Ph14	B-Ph15	B-Ph16	

Term	0.00000e+00	0.00000e+00	0.00000e+00	0.00000e+00	0.00000e+00	0.00000e+00	0.00000e+00	0.00000e+00	0.00000e+00	0.00000e+00	0.00000e+00	0.00000e+00	0.00000e+00	0.00000e+00	0.00000e+00	0.00000e+00	0.00000e+00	0.00000e+00	0.00000e+00	0.00000e+00	0.00000e+00	0.00000e+00	0.00000e+00	0.00000e+00	0.00000e+00	0.00000e+00	0.00000e+00	0.00000e+00	0.00000e+00	0.00000e+00	0.00000e+00	0.00000e+00	4.69297e+01	-1.27678e+02	-1.27972e+02	-1.88002e+02	-6.67894e+01	-6.28409e+01	-1.55213e+02	-1.62015e+02	-4.91738e+01	-6.38444e+01	-1.70390e+02	-1.71563e+02	-1.84555e+02	-1.77043e+02	-6.69105e+01	-1.49382e+02	
Factor	5.93376e-05	1.60034e-04	4.50777e-05	6.62379e-01	1.71948e-06	1.64504e-06	1.55997e-01	5.34235e-02	2.61917e-06	1.72808e-06	8.14009e-02	2.71226e-02	2.83956e-02	8.73549e-03	1.91468e-06	1.24596e-02	1.85792e-05	3.14846e-05	8.89000e-06	3.50234e-01	3.36969e-07	3.58884e-07	7.79026e-02	2.84634e-02	3.00588e-07	3.56692e-07	4.20802e-02	1.39855e-02	1.51021e-02	4.71687e-03	3.22088e-07	6.51153e-03	X	X	X	X	X	X	X	X	X	X	X	X	X	X	X	X	



#DISTANCE SETTINGS
A = Detector Channel
A-1	A-2	A-3	A-4	A-5	A-6	A-7	A-8	A-9	A-10	A-11	A-12	A-13	A-14	A-15	A-16	

2.5000e+00	3.0000e+00	2.5000e+00	3.0000e+00	2.0000e+00	3.0000e+00	1.5000e+00	3.0000e+00	3.0000e+00	3.0000e+00	3.0000e+00	3.0000e+00	3.0000e+00	3.0000e+00	1.5000e+00	3.0000e+00	

B = Detector Channel
B-1	B-2	B-3	B-4	B-5	B-6	B-7	B-8	B-9	B-10	B-11	B-12	B-13	B-14	B-15	B-16	

1.0000e+01	1.0000e+01	1.0000e+01	1.4400e+00	1.0000e+01	1.0000e+01	1.5100e+00	1.9400e+00	1.0000e+01	1.0000e+01	1.9900e+00	2.4900e+00	2.4100e+00	2.9000e+00	1.0000e+01	2.9800e+00	




#DATA BEGINS
time	group	step	mark	flag	A-AC1	A-AC2	A-AC3	A-AC4	A-AC5	A-AC6	A-AC7	A-AC8	A-AC9	A-AC10	A-AC11	A-AC12	A-AC13	A-AC14	A-AC15	A-AC16	A-DC1	A-DC2	A-DC3	A-DC4	A-DC5	A-DC6	A-DC7	A-DC8	A-DC9	A-DC10	A-DC11	A-DC12	A-DC13	A-DC14	A-DC15	A-DC16	A-Ph1	A-Ph2	A-Ph3	A-Ph4	A-Ph5	A-Ph6	A-Ph7	A-Ph8	A-Ph9	A-Ph10	A-Ph11	A-Ph12	A-Ph13	A-Ph14	A-Ph15	A-Ph16	B-AC1	B-AC2	B-AC3	B-AC4	B-AC5	B-AC6	B-AC7	B-AC8	B-AC9	B-AC10	B-AC11	B-AC12	B-AC13	B-AC14	B-AC15	B-AC16	B-DC1	B-DC2	B-DC3	B-DC4	B-DC5	B-DC6	B-DC7	B-DC8	B-DC9	B-DC10	B-DC11	B-DC12	B-DC13	B-DC14	B-DC15	B-DC16	B-Ph1	B-Ph2	B-Ph3	B-Ph4	B-Ph5	B-Ph6	B-Ph7	B-Ph8	B-Ph9	B-Ph10	B-Ph11	B-Ph12	B-Ph13	B-Ph14	B-Ph15	B-Ph16	aux-1	digaux	

3414.915	1	1	0	768	0.23951	0.068675	0.23031	0.17564	0.022972	0.08986	0.23348	0.09072	0.21663	0.070414	0.033409	0.12781	0.19875	0.060355	0.09879	0.33099	-2.8521	-2.4771	-2.625	-3.1396	-2.375	-2.9396	-3.0146	-2.3375	-3.2958	-2.4688	-2.5187	-3.1875	-2.3229	-2.9	-2.8958	-2.5229	-23.458	131.959	198.755	-17.987	32.327	224.382	269.115	301.293	52.756	260.571	326.056	33.701	263.618	-21.364	265.952	299.404	0.00045672	0.00042552	0.00011242	651.86	5.0521e-06	8.0568e-06	565.57	216.41	3.0743e-06	6.2575e-06	217.77	81.18	79.022	35.161	8.0151e-07	39.254	0.0035294	0.0058466	0.0016017	701.67	6.1931e-05	6.307e-05	567.59	218.11	5.4188e-05	6.5897e-05	220.62	82.472	80.568	35.919	5.9837e-05	40.067	290.902	7.288	121.332	-14.619	16.422	137.343	-16.612	-9.437	186.981	93.831	-12.122	-7.892	-5.636	-1.168	-5.720	-4.655	-8191	255	
3415.012	1	1	0	0	0.12477	0.13126	0.10224	0.18516	0.063523	0.054608	0.18903	0.1421	0.21398	0.16713	0.20937	0.095335	0.15961	0.14627	0.12718	0.20504	-2.7333	-2.625	-2.4146	-3.2208	-2.3542	-2.7083	-2.9792	-2.3875	-2.9667	-2.775	-2.2854	-3.2562	-2.2938	-2.8396	-3.0542	-2.3312	167.797	19.829	305.006	147.650	28.442	89.646	304.033	321.221	298.311	117.545	202.288	222.063	208.926	215.045	112.075	326.012	0.0006509	1.39e-05	0.00012785	649.01	6.02e-06	5.2317e-06	561.29	215.23	1.3638e-05	4.268e-06	213.76	80.538	78.707	35.184	5.5493e-06	38.939	0.0034477	0.0057224	0.0016141	698.81	6.15e-05	6.4669e-05	563.79	216.57	5.4011e-05	6.7311e-05	218.17	81.963	80.301	35.805	5.998e-05	39.828	309.273	146.490	54.661	-14.920	70.372	136.823	-16.204	-9.646	147.165	181.004	-12.125	-7.772	-5.557	-1.077	64.939	-4.691	-8191	255	
3415.109	1	1	0	0	0.20203	0.077361	0.084941	0.16263	0.057101	0.11527	0.26579	0.12106	0.1299	0.18391	0.09791	0.23402	0.1389	0.24744	0.15468	0.065382	-2.875	-2.6917	-2.3	-2.9437	-2.4583	-2.5646	-3.3021	-2.3021	-2.7479	-2.9229	-2.2646	-3.2083	-2.4813	-2.5458	-3.1312	-2.2583	85.409	192.332	163.235	15.235	128.730	252.180	297.989	25.926	97.764	331.560	26.377	5.872	274.206	-7.374	61.200	10.990	0.00018958	0.00039109	0.00020578	647.67	8.0359e-06	4.7449e-06	562.25	214.59	5.8561e-06	8.0308e-06	212.83	80.544	78.219	35.04	1.1779e-05	38.849	0.0035155	0.0058756	0.0016401	696.45	6.2624e-05	6.5419e-05	562.78	216.17	5.5179e-05	6.6982e-05	217.55	81.708	80.123	35.671	5.9425e-05	39.867	299.893	-19.159	60.098	-15.253	96.266	148.287	-16.023	-9.695	138.229	186.499	-12.043	-8.033	-5.466	-1.079	118.828	-4.781	-8191	255	
3415.206	1	1	0	0	0.122	0.25257	0.21771	0.097211	0.20349	0.28209	0.074053	0.053205	0.23937	0.051968	0.16638	0.19406	0.05227	0.30284	0.14761	0.050842	-2.5938	-2.8771	-2.2438	-3.1146	-2.4688	-2.4437	-3.0958	-2.4167	-2.8438	-3.0229	-2.3083	-3.375	-2.7417	-2.475	-3.3625	-2.4104	201.850	170.124	60.606	97.076	38.627	260.857	214.207	107.249	-13.387	29.135	320.098	-13.522	190.198	331.961	45.211	213.872	0.00051622	0.0008611	0.00012989	649.16	5.4651e-06	8.7693e-06	559.54	214.43	3.1317e-06	1.0218e-05	215.14	80.487	78.398	35.125	4.2126e-06	39.364	0.0035567	0.0059698	0.0016552	695.55	6.2746e-05	6.6061e-05	563.6	216.56	5.543e-05	6.6671e-05	218.09	82.103	80.335	35.879	5.9507e-05	40.124	320.997	35.951	44.828	-14.455	132.858	144.733	-15.792	-9.728	248.614	142.104	-11.928	-7.514	-5.551	-0.978	99.014	-4.998	-8191	255	
3415.300	1	1	0	0	0.24615	0.145	0.13186	0.20595	0.099083	0.22641	0.11002	0.26195	0.12097	0.088634	0.22708	0.35268	0.078093	0.23016	0.063447	0.18785	-2.5	-3.075	-2.1958	-3.1063	-2.775	-2.425	-3.3229	-2.4792	-2.8667	-3.25	-2.4708	-2.9688	-2.9188	-2.4042	-3.1042	-2.5312	234.656	156.501	270.553	127.458	249.386	148.452	133.966	97.947	7.565	54.179	104.840	-24.805	30.780	19.644	56.407	54.089	0.00044734	0.00079906	0.00018301	654.92	7.5845e-06	5.463e-06	559.64	213.94	9.6382e-06	4.9096e-06	214.86	80.943	77.833	35.078	4.1807e-06	39.299	0.0035711	0.0059704	0.0016575	702.15	6.493e-05	6.6862e-05	565.97	216.5	5.6336e-05	6.6866e-05	218.86	82.504	80.017	35.89	5.9971e-05	40.228	315.319	71.844	33.658	-15.287	99.613	167.036	-15.747	-9.822	87.928	-10.390	-12.460	-7.443	-5.398	-1.189	162.169	-5.021	-8191	255	
3415.396	1	1	0	0	0.12322	0.079829	0.037461	0.084781	0.16189	0.049302	0.25972	0.079197	0.21295	0.065454	0.1092	0.11594	0.075337	0.24965	0.13089	0.13817	-2.2104	-3.0812	-2.2438	-2.9521	-2.8875	-2.35	-3.3104	-2.5812	-2.5854	-3.1958	-2.3792	-2.9583	-3.0167	-2.4375	-3.1917	-2.75	-3.635	4.401	100.304	170.475	212.672	-1.569	303.883	241.242	191.539	309.873	298.041	220.958	302.021	-27.488	90.570	331.589	0.00040715	0.00024795	0.00013819	643.81	4.2322e-06	6.8339e-06	562.72	214.98	8.5419e-06	2.3935e-06	215.9	81.16	78.738	35.164	8.4381e-06	39.421	0.0036208	0.0060113	0.0016895	700.35	6.5458e-05	6.9e-05	566.28	216.95	5.7296e-05	6.7303e-05	219.88	82.71	80.299	35.943	5.9678e-05	40.411	325.515	64.629	76.306	-14.538	137.503	163.862	-15.744	-9.731	122.485	73.717	-11.932	-7.617	-5.580	-1.254	154.417	-5.081	-8191	255	
3415.517	1	1	0	0	0.3046	0.38953	0.27728	0.12034	0.32313	0.15873	0.13951	0.040044	0.19334	0.039286	0.55075	0.31898	0.19007	0.15657	0.10276	0.20273	-2.0896	-3.2792	-2.3292	-2.8812	-2.8875	-2.3958	-3.1792	-2.7958	-2.2271	-3.275	-2.3917	-2.75	-3.1146	-2.3521	-3.0771	-2.7438	330.072	306.082	213.048	318.481	146.326	12.352	0.107	283.553	304.095	45.216	-3.292	28.973	99.921	-9.230	173.514	277.512	0.00042065	0.00039926	9.6392e-05	651.27	3.1087e-06	5.4738e-06	562.06	214.61	5.3088e-06	6.517e-06	214.67	81.052	77.786	35.08	6.8236e-06	38.865	0.0036408	0.0059358	0.0016877	701.35	6.4268e-05	6.8509e-05	564.26	216.33	5.7298e-05	6.6857e-05	218.02	82.099	79.695	35.747	5.9092e-05	39.814	312.404	52.597	113.406	-15.055	209.795	224.264	-15.838	-9.955	210.041	188.148	-12.198	-7.743	-5.582	-1.102	75.507	-4.985	-8191	255	
3415.613	1	1	0	0	0.23518	0.16419	0.22815	0.094178	0.12693	0.24434	0.46238	0.22147	0.24234	0.13756	0.31293	0.15172	0.28253	0.34846	0.026353	0.11461	-1.8833	-3.1792	-2.2687	-2.5187	-3.0646	-2.2542	-2.9708	-2.8333	-2.2938	-3.2208	-2.5479	-2.6875	-3.1583	-2.3438	-2.9125	-3.0771	3.406	15.829	247.759	260.601	238.074	169.393	297.608	-3.043	142.786	-15.052	212.117	37.000	216.325	311.201	155.174	106.868	0.00047752	0.0008506	0.00014558	649.67	4.4413e-06	2.0042e-06	561.03	212.67	8.0522e-06	5.849e-06	212.02	79.992	77.666	34.801	7.3415e-06	38.502	0.0036359	0.0058886	0.0016977	699.13	6.4489e-05	6.7058e-05	561.52	214.75	5.6837e-05	6.5856e-05	216.67	81.341	79.407	35.549	5.9257e-05	39.578	-18.101	49.046	59.638	-14.192	93.700	166.461	-15.769	-9.553	128.602	176.608	-12.094	-7.320	-5.217	-1.407	75.189	-4.935	-8191	255	
3415.709	1	1	0	0	0.060516	0.38413	0.11439	0.04863	0.1899	0.065627	0.24962	0.31804	0.16959	0.14372	0.15631	0.041025	0.071702	0.24327	0.095967	0.20524	-1.7708	-3.2229	-2.4021	-2.3667	-3.3063	-2.3667	-3.0167	-3.0292	-2.2167	-3.15	-2.6125	-2.5458	-3.2083	-2.4042	-2.7687	-3.1167	196.813	227.491	294.797	178.203	19.492	56.523	297.059	278.244	185.875	188.903	325.366	310.679	12.458	-26.625	-21.408	-15.067	0.00029316	0.00033696	2.9222e-05	643.52	3.8809e-06	5.8991e-06	559.39	214.54	4.8906e-06	3.0421e-06	212.96	80.615	77.519	34.91	5.0904e-06	39.087	0.0035916	0.0058581	0.0017044	697.23	6.3494e-05	6.8336e-05	560.96	215.54	5.6727e-05	6.5327e-05	217.42	81.863	79.634	35.757	5.9278e-05	40.034	-19.328	67.758	72.361	-14.648	50.845	126.773	-16.055	-9.937	130.969	284.698	-11.859	-7.806	-5.544	-1.197	138.204	-4.475	-8191	255	
3415.805	1	1	0	0	0.49806	0.22812	0.026967	0.10719	0.086522	0.20456	0.048175	0.34013	0.23911	0.034876	0.18776	0.024103	0.033924	0.35327	0.044384	0.35322	-1.8	-3.0958	-2.7938	-2.4292	-3.2625	-2.4688	-2.775	-3.05	-2.1042	-3.2333	-2.8896	-2.3458	-3.1458	-2.4771	-2.5708	-3.2062	61.015	145.967	77.086	91.593	187.630	225.445	247.044	326.770	187.834	214.527	23.913	129.962	122.017	240.072	116.021	5.395	0.00057579	0.00042028	0.00017692	650.56	9.3761e-06	3.7512e-06	564.58	213.73	8.7e-06	4.7994e-06	214.05	81.229	78.373	35.045	7.5619e-06	39.605	0.0036466	0.0058605	0.0017074	698.76	6.2748e-05	6.9398e-05	565.71	215.74	5.6365e-05	6.6712e-05	218.75	82.448	80.109	35.882	6.0224e-05	40.426	323.478	91.744	67.652	-14.735	86.589	95.250	-15.885	-10.032	71.457	169.914	-12.165	-7.852	-5.420	-1.213	136.102	-5.017	-8191	255	
3415.901	1	1	0	0	0.10118	0.27168	0.11469	0.21551	0.17414	0.16953	0.3731	0.24954	0.16339	0.12951	0.17336	0.21238	0.17568	0.14985	0.26917	0.11982	-1.8417	-2.8875	-2.9437	-2.4625	-3.2896	-2.6583	-2.6583	-3.1229	-2.2938	-3.0917	-2.9417	-2.4437	-3.2208	-2.6417	-2.3812	-3.2792	8.679	178.971	253.205	11.845	319.802	247.207	274.637	253.452	106.904	10.146	318.490	301.494	35.546	221.417	239.969	215.849	0.00049666	0.0007284	1.0331e-05	651.32	6.3655e-06	5.8068e-06	566.02	214.1	1.0948e-05	5.2096e-06	214.36	81.087	77.784	35.09	4.9988e-06	39.475	0.0036908	0.0058262	0.0016929	700.83	6.4035e-05	6.8874e-05	566.29	216.01	5.6872e-05	6.67e-05	219.25	82.746	80.009	36.053	6.1116e-05	40.463	313.126	89.862	-23.775	-15.135	137.708	50.530	-15.967	-9.913	122.345	160.175	-11.903	-7.232	-5.004	-1.015	213.735	-4.682	-8191	255	
3415.996	1	1	0	0	0.019638	0.15371	0.077168	0.12732	0.071647	0.17121	0.18634	0.18135	0.10003	0.23116	0.196	0.37747	0.094025	0.23839	0.079476	0.058997	-1.8979	-2.7729	-2.9417	-2.2021	-3.1104	-2.7771	-2.4333	-3.2167	-2.5146	-2.7375	-3.2833	-2.2583	-3	-2.5854	-2.3125	-3.2917	201.090	327.262	157.066	47.377	310.807	57.833	247.979	239.086	316.714	235.522	302.568	298.364	92.413	-19.342	206.774	17.942	0.00033181	0.00029992	8.1892e-05	642.8	7.5711e-06	1.065e-05	556.16	212.16	1.127e-05	3.0457e-06	213.33	80.038	77.973	34.925	3.3664e-06	39.086	0.0036946	0.0059398	0.0017047	696.17	6.2046e-05	7.0187e-05	561.35	214.19	5.8261e-05	6.6831e-05	217.29	81.63	79.507	35.799	6.1618e-05	40.061	279.629	171.429	314.338	-14.681	125.379	168.257	-15.762	-9.747	180.941	117.579	-12.007	-7.585	-5.490	-1.480	87.021	-4.725	-8191	255	
3416.116	1	1	0	0	0.24092	0.23109	0.16647	0.10781	0.1047	0.15389	0.040389	0.22824	0.053632	0.069818	0.087852	0.26127	0.043383	0.22073	0.1562	0.073601	-2.0229	-2.7021	-3.1542	-2.3292	-3.0229	-2.7583	-2.4708	-3.3563	-2.6437	-2.5646	-3.1917	-2.3688	-3.0229	-2.9854	-2.2562	-3.3583	271.291	-20.620	4.338	304.886	149.097	184.414	228.302	-18.435	292.608	79.714	-27.441	8.665	307.537	206.878	71.358	318.185	0.00063884	0.00024179	0.00015644	643.71	4.1751e-06	4.4148e-06	555.41	212.2	4.0615e-06	2.5049e-06	211.35	80.266	77.432	34.839	6.5662e-06	39.033	0.003751	0.0058541	0.0017216	695.51	6.3227e-05	7.035e-05	558.81	213.89	5.7798e-05	6.7072e-05	215.79	81.65	79.223	35.673	6.1688e-05	39.97	312.455	109.763	113.876	-14.316	118.619	91.522	-15.846	-9.479	193.207	89.411	-11.875	-7.675	-5.178	-1.568	140.138	-4.930	-8191	255	
3416.213	1	1	0	0	0.031528	0.055333	0.16804	0.10072	0.078765	0.079739	0.39656	0.18123	0.13207	0.29705	0.19098	0.19255	0.1263	0.026886	0.21397	0.2141	-2.1958	-2.5438	-3.0771	-2.1937	-2.9813	-3.0042	-2.35	-3.1208	-2.6625	-2.6354	-3.3229	-2.3812	-3.2042	-3.0354	-2.2438	-3.2271	272.438	287.528	67.118	-7.638	113.785	78.319	195.799	299.354	-18.791	247.891	267.256	329.508	270.424	129.197	84.718	284.332	0.00069023	0.00044209	0.00011577	635.62	9.934e-06	5.3991e-06	560.13	211.63	8.6285e-06	2.3447e-06	212.14	79.947	77.664	35.057	9.4215e-06	39.222	0.0037979	0.0059453	0.0017207	693.77	6.317e-05	6.9633e-05	561.6	213.45	5.8789e-05	6.916e-05	217.01	81.882	79.487	35.704	6.2136e-05	40.198	318.075	57.021	11.134	-14.881	183.825	163.463	-16.015	-9.669	169.548	-21.957	-11.983	-7.483	-5.680	-1.287	127.988	-5.052	-8191	255	
3416.309	1	1	0	0	0.2373	0.18863	0.12381	0.27641	0.21608	0.050878	0.087808	0.26783	0.1672	0.11567	0.19009	0.22822	0.039986	0.154	0.099128	0.15802	-2.3667	-2.4771	-3.2021	-2.4625	-3.075	-2.9792	-2.4083	-3.1708	-2.7604	-2.4917	-3.1854	-2.5354	-2.8771	-3.3146	-2.1937	-3.2042	38.506	110.671	306.384	261.719	-21.891	281.676	46.540	-2.659	142.123	242.388	306.087	217.622	118.613	226.203	117.530	70.081	0.00067891	7.9246e-05	0.00025466	645.73	2.8231e-06	6.5133e-06	559.21	213.07	4.6353e-06	8.3891e-06	213.33	80.932	77.271	35.089	5.93e-06	39.344	0.0038301	0.0059781	0.0016956	699.25	6.4987e-05	6.8913e-05	562.36	214.42	5.8843e-05	6.8087e-05	218.44	82.542	79.519	35.882	6.2544e-05	40.391	328.048	47.797	78.754	-14.718	104.860	142.058	-16.106	-9.657	213.776	73.277	-11.935	-7.603	-5.510	-1.191	102.777	-4.599	-8191	255	
3416.405	1	1	0	0	0.20744	0.16273	0.14105	0.027693	0.24209	0.071721	0.1825	0.31988	0.22655	0.22708	0.33377	0.086994	0.12658	0.066331	0.1843	0.14748	-2.2833	-2.4271	-3.2333	-2.6208	-2.6479	-3.2354	-2.5875	-3.0667	-2.85	-2.325	-3.2667	-2.6312	-2.7521	-3.1792	-2.3271	-2.9813	273.652	27.003	267.316	215.409	235.308	19.384	305.840	275.415	273.457	152.817	40.197	20.274	151.365	125.481	258.431	-25.058	0.00034747	0.00011215	8.5432e-05	639.33	5.7558e-06	4.2603e-06	561.64	211.21	8.5246e-06	6.1225e-06	213.76	80.511	77.318	34.797	5.6716e-06	39.034	0.0037723	0.0060201	0.0016749	691.68	6.2854e-05	6.8394e-05	562.11	213.59	5.7621e-05	6.7299e-05	217.46	81.951	79.14	35.596	6.0496e-05	39.881	327.530	273.489	159.426	-15.582	115.519	69.323	-15.776	-9.692	-9.094	143.539	-11.894	-7.694	-5.541	-1.251	30.588	-4.747	-8191	255	
3416.477	1	1	0	0	0.048099	0.23209	0.19358	0.15751	0.23088	0.22448	0.33518	0.13456	0.15077	0.22678	0.077085	0.18216	0.064083	0.16185	0.14837	0.047531	-2.5938	-2.3375	-3.1125	-2.6792	-2.5417	-3.0771	-2.5708	-3.0833	-2.9958	-2.3937	-3.2729	-2.6833	-2.6875	-3.2583	-2.3854	-2.9792	227.158	31.884	169.333	298.130	278.990	265.647	251.722	255.884	72.135	41.625	186.225	49.818	143.459	260.149	121.454	263.930	0.00030639	0.00072161	0.00025144	642.52	4.4304e-06	4.3105e-06	556.72	210.79	7.4016e-06	1.8909e-06	210.94	79.811	76.888	34.733	4.1715e-06	38.776	0.003691	0.0059339	0.0016276	690.57	6.1989e-05	6.62e-05	558.17	212.1	5.6231e-05	6.6146e-05	215.19	81.263	78.638	35.479	6.0824e-05	39.696	-22.166	115.384	84.849	-14.658	90.381	167.972	-15.888	-9.892	319.214	103.041	-11.887	-8.209	-5.189	-1.548	165.225	-4.585	-8191	255	
3416.597	1	1	0	0	0.21278	0.17638	0.20433	0.075731	0.23205	0.34334	0.31795	0.071127	0.07108	0.29405	0.039368	0.25774	0.068564	0.24759	0.14648	0.15119	-2.7292	-2.0146	-2.95	-2.6562	-2.5104	-3.075	-2.2938	-2.7375	-3.1188	-2.1292	-2.9896	-2.7083	-2.225	-3.1396	-2.3812	-2.5896	171.533	273.767	212.802	320.096	298.703	97.107	115.781	309.113	58.515	53.594	326.538	317.847	229.254	318.906	264.925	147.531	0.00048419	0.00024975	0.00019291	642.31	9.0456e-07	6.6254e-06	556.96	208.98	2.7137e-06	6.1279e-06	212.8	79.841	76.692	34.672	1.3972e-06	38.908	0.0036241	0.0058264	0.0015935	691.13	6.2042e-05	6.5911e-05	558.38	211.81	5.705e-05	6.6691e-05	216.17	81.458	78.622	35.495	6.2407e-05	39.805	309.911	164.572	80.950	-14.955	263.248	90.889	-15.674	-9.636	81.753	170.428	-12.074	-7.892	-5.377	-0.903	150.024	-4.718	-8191	255	
3416.693	1	1	0	0	0.11228	0.021436	0.34364	0.15664	0.15788	0.22325	0.1128	0.30488	0.20799	0.11092	0.21952	0.21611	0.13628	0.18066	0.12813	0.1643	-2.7313	-2.1354	-2.9354	-2.9875	-2.2708	-3.1479	-2.5812	-2.6813	-3.1958	-2.3667	-2.7979	-2.9521	-2.2812	-3.0938	-2.5375	-2.4083	310.893	123.824	109.282	-19.784	161.101	-19.048	216.438	248.206	61.198	-26.116	224.829	305.022	9.291	256.907	75.958	224.683	0.00065165	0.00056949	0.00017641	642.72	3.1788e-06	5.2642e-06	555.17	210.34	9.9223e-06	5.0072e-06	213.13	80.16	77.161	34.795	3.6071e-06	39.101	0.0037577	0.0060858	0.0016872	695.76	6.5916e-05	6.915e-05	560.22	212.99	5.9293e-05	7.0995e-05	217.19	82.005	79.133	35.594	6.5324e-05	40.243	325.098	114.996	80.992	-15.177	78.872	156.773	-15.644	-9.581	95.777	140.433	-11.898	-7.753	-5.350	-1.069	67.748	-4.478	-8191	255	
3416.789	1	1	0	0	0.11906	0.1119	0.090958	0.12314	0.15467	0.19993	0.14618	0.27926	0.15265	0.2342	0.14616	0.062441	0.084036	0.28848	0.17114	0.019186	-2.8875	-2.1521	-2.7104	-2.9938	-2.1813	-3.1292	-2.7417	-2.3917	-3.1167	-2.4437	-2.8104	-3.075	-2.0646	-3.0333	-2.7854	-2.5479	15.562	89.470	173.900	35.809	234.816	154.563	252.154	173.514	224.143	46.518	325.648	14.539	65.547	295.184	38.721	-20.222	0.00046055	0.00095997	0.00016209	640.3	3.5072e-06	3.4199e-06	559.56	211.55	1.0898e-05	7.1525e-06	214.5	80.314	77.084	34.955	5.2149e-06	39.384	0.0039551	0.0063392	0.0017618	696.98	6.8199e-05	7.1803e-05	564.09	213.8	6.1357e-05	7.3872e-05	218.52	82.233	79.492	35.77	6.7331e-05	40.269	323.037	52.270	145.213	-14.928	199.507	107.533	-16.143	-9.756	195.959	141.333	-11.813	-7.654	-5.168	-1.184	96.646	-4.689	-8191	255	
3416.910	1	1	0	0	0.19885	0.13815	0.18876	0.080636	0.32984	0.068636	0.28365	0.23025	0.25434	0.17359	0.25784	0.17163	0.17681	0.11875	0.1524	0.071266	-2.8438	-2.6104	-2.5292	-3.1458	-2.3688	-3.125	-3.0708	-2.2333	-3.1729	-2.4229	-2.3896	-3.2396	-2.3208	-3.1271	-3.05	-2.3979	224.537	185.237	167.298	266.063	203.769	247.268	268.826	-16.796	-7.697	198.361	91.028	223.352	287.210	249.746	136.976	174.760	0.00019763	0.00028159	0.00017413	649.11	7.9107e-06	1.4867e-06	557.42	209.88	2.9297e-06	4.9217e-06	211.74	79.973	77.213	34.696	5.9157e-06	38.543	0.0040251	0.0066181	0.001851	701.98	7.1316e-05	7.4719e-05	561.24	213.11	6.2848e-05	7.7146e-05	216.91	81.715	79.134	35.529	7.0921e-05	39.637	-25.913	71.850	115.298	-14.901	59.262	257.485	-15.952	-9.467	51.126	17.272	-12.131	-8.198	-5.392	-1.190	106.297	-4.775	-8191	255	
3417.005	1	1	0	0	0.052061	0.11173	0.19062	0.07222	0.13814	0.27653	0.047818	0.028934	0.021537	0.36776	0.15592	0.19204	0.11436	0.23146	0.098831	0.30257	-2.8625	-2.4479	-2.4958	-3.0896	-2.2854	-2.7792	-2.9146	-2.4042	-3.1625	-2.7208	-2.5646	-3.2979	-2.3458	-2.9167	-2.9833	-2.2021	172.935	131.003	231.668	110.965	268.694	94.766	187.728	-26.502	-11.732	10.979	194.607	186.251	227.354	21.464	141.412	111.004	0.00043946	0.00018009	6.2799e-05	637.52	2.2246e-06	3.0244e-06	550.07	209.84	9.1433e-06	4.496e-06	208.95	78.62	75.959	34.138	5.9258e-06	38.442	0.0041462	0.0069757	0.0019318	700.72	7.3611e-05	7.6714e-05	557.58	212.06	6.5777e-05	8.0896e-05	214.85	80.574	78.484	35.022	7.221e-05	39.252	300.267	111.854	16.358	-15.315	120.127	149.424	-16.019	-9.874	82.575	112.419	-11.956	-7.791	-5.749	-1.135	107.395	-4.764	-8191	255	
3417.078	1	1	0	0	0.15326	0.060194	0.10533	0.23637	0.20196	0.035395	0.2613	0.18539	0.1556	0.16031	0.13589	0.25558	0.032149	0.10575	0.10289	0.16076	-2.8708	-2.7271	-2.2917	-3.3438	-2.4104	-2.6667	-3.1562	-2.325	-2.9896	-2.5646	-2.4458	-3.2458	-2.4896	-2.6917	-3.1083	-2.2542	57.792	250.333	-1.029	129.160	208.648	92.804	266.396	158.735	214.260	-15.852	10.996	222.803	152.193	85.247	70.839	241.349	0.00068761	0.00082375	7.4215e-05	631	6.836e-07	1.2578e-08	552.78	208.4	2.3069e-06	6.5479e-06	210.33	79.51	76.654	34.32	9.8859e-06	38.397	0.0041915	0.007022	0.0019268	696.21	7.2447e-05	7.5609e-05	557.15	211.24	6.2847e-05	7.6193e-05	215.33	81.066	78.54	35.028	6.8455e-05	39.452	305.813	69.643	9.441	-15.011	93.465	271.814	-16.276	-9.770	151.239	9.474	-12.132	-7.807	-5.656	-1.317	47.873	-4.644	-8191	255	
3417.197	1	1	0	0	0.022086	0.11017	0.33457	0.014058	0.15758	0.22485	0.3734	0.064087	0.094226	0.062463	0.2506	0.36431	0.30225	0.31939	0.13969	0.18794	-2.6396	-2.8896	-2.0938	-3.175	-2.4625	-2.6042	-3.325	-2.2604	-2.9708	-2.8479	-2.3417	-3.0938	-2.5271	-2.5125	-3.1604	-2.3375	207.017	20.156	19.373	236.355	45.048	204.548	251.453	14.640	62.914	24.717	315.253	-23.797	-1.564	308.068	183.372	322.792	0.00043416	0.00059135	0.0001396	642.36	1.0771e-05	2.5442e-06	553.33	210	8.9604e-06	5.9886e-06	213.72	79.516	77.164	34.449	8.2477e-06	38.779	0.0039912	0.0066734	0.0018561	694.98	7.0926e-05	7.4432e-05	560.22	212.67	6.28e-05	7.574e-05	217.49	81.626	79.298	35.201	6.7841e-05	39.732	307.764	77.217	50.706	-14.864	153.137	85.923	-15.661	-9.533	144.666	69.764	-11.884	-7.901	-5.122	-0.999	181.157	-4.914	-8191	255	
3417.293	1	1	0	0	0.089324	0.11948	0.12682	0.13579	0.21968	0.28498	0.2111	0.19856	0.32072	0.15845	0.23163	0.12453	0.13442	0.33273	0.16881	0.16772	-2.4771	-2.8646	-2.3187	-3.2333	-2.6688	-2.3812	-3.2396	-2.3229	-2.8583	-3.0271	-2.1271	-3.1625	-2.6312	-2.4896	-3.0687	-2.3458	285.215	210.345	286.945	22.281	119.137	3.120	301.628	142.561	309.494	232.672	241.648	250.309	133.918	211.664	119.172	12.607	0.00049475	0.00055229	8.3943e-05	647.9	4.2085e-06	7.1642e-06	555.45	209.6	1.0541e-05	8.007e-06	212.82	80.828	77.099	34.44	4.7796e-06	38.729	0.003954	0.006697	0.0018544	700.76	7.1909e-05	7.523e-05	561.81	213.16	6.3285e-05	7.4893e-05	218.06	82.076	79.214	35.211	6.7955e-05	39.594	310.975	43.472	51.324	-14.671	183.111	92.552	-15.597	-9.625	100.577	99.503	-11.695	-7.299	-5.058	-1.250	219.766	-5.043	-8191	255	
3417.389	1	1	0	0	0.14087	0.15308	0.070785	0.13904	0.26063	0.10671	0.15589	0.15311	0.1212	0.1613	0.1245	0.10293	0.15132	0.14965	0.13564	0.089512	-2.4125	-3.1729	-2.1125	-3.2396	-2.6854	-2.4833	-3.3146	-2.6021	-2.5542	-3.0854	-2.3958	-3.2062	-2.8896	-2.4271	-3.2458	-2.6396	62.238	65.190	44.999	-1.903	326.916	49.513	56.557	6.880	304.549	249.086	231.550	44.269	55.589	69.535	80.440	299.003	0.00044431	0.00071073	0.0001863	635.94	8.5273e-06	2.0346e-06	555.55	210.2	8.8839e-06	4.009e-06	211.79	79.533	76.434	34.196	2.2106e-06	37.951	0.0040495	0.0067275	0.0018882	699.34	7.1997e-05	7.5714e-05	560.14	212.77	6.3142e-05	7.658e-05	216.86	81.175	78.859	35.003	6.8465e-05	39.081	320.839	171.545	46.721	-15.044	98.957	140.546	-16.052	-9.818	127.178	243.542	-12.100	-7.726	-5.442	-1.240	318.170	-4.562	-8191	255	
3417.510	1	1	0	0	0.15902	0.17284	0.20298	0.12909	0.065435	0.1797	0.2119	0.33558	0.11965	0.25145	0.17012	0.11877	0.10269	0.036925	0.1468	0.15248	-2.0396	-3.2188	-2.4188	-2.925	-2.8833	-2.3604	-3.4437	-2.5146	-2.6	-3.2646	-2.2771	-2.7875	-3.0083	-2.2667	-3.0667	-2.8042	85.419	206.590	77.828	53.306	54.949	330.277	315.837	322.258	-11.955	24.418	255.790	221.017	268.304	28.953	87.472	204.796	0.00058149	0.0004528	4.9524e-05	638.57	6.7591e-06	5.51e-06	555.3	211.47	1.0253e-05	6.5084e-06	211.17	79.311	76.721	34.342	5.3585e-06	38.161	0.004043	0.0066834	0.001884	700.48	7.1061e-05	7.5647e-05	560.95	213.51	6.3776e-05	7.393e-05	216.55	81.13	79.036	34.979	6.7305e-05	39.33	310.204	30.431	-16.199	-14.369	121.304	130.209	-16.083	-9.791	166.932	96.651	-12.267	-7.718	-5.215	-1.286	211.127	-4.966	-8191	255	
3417.606	1	1	0	0	0.20111	0.11509	0.19023	0.23184	0.23372	0.1637	0.16132	0.18604	0.28395	0.24033	0.1357	0.24892	0.19492	0.21503	0.12867	0.14618	-2.2333	-3.3333	-2.2292	-2.7604	-2.825	-2.3833	-3.075	-2.7771	-2.3021	-3.1271	-2.4625	-2.6854	-3.0312	-2.2729	-3.05	-2.8708	96.968	325.183	-23.095	290.436	160.060	9.696	182.308	191.658	223.458	184.908	261.820	305.212	322.584	234.325	332.112	-14.841	0.00058242	0.00022556	0.00032526	646.9	3.8941e-06	3.1623e-06	556.02	209.93	9.4213e-06	1.3634e-05	211.31	79.884	77.097	34.407	5.3562e-06	38.325	0.0040036	0.0064982	0.001864	700.03	7.1652e-05	7.5602e-05	561.44	212.44	6.3312e-05	7.5213e-05	217.68	81.647	79.084	35.18	6.6233e-05	39.556	305.971	89.898	50.704	-15.117	125.170	135.400	-15.798	-9.515	159.534	49.899	-12.023	-7.547	-5.473	-1.121	75.213	-4.629	-8191	255	
3417.702	1	1	0	0	0.29738	0.084574	0.29062	0.21878	0.031767	0.23335	0.25778	0.11865	0.10751	0.18125	0.18215	0.052796	0.062891	0.2022	0.12615	0.16892	-1.9354	-3.2792	-2.5479	-2.575	-3.1146	-2.3229	-3.1312	-2.9146	-2.3958	-3.2625	-2.625	-2.4667	-3.3125	-2.5229	-3.0292	-3.0667	215.362	54.508	73.016	30.427	319.307	55.872	229.242	246.149	72.311	67.689	208.617	122.062	148.907	225.531	268.500	273.098	0.00034018	0.00016433	2.6547e-05	642.33	5.6764e-06	4.5054e-06	560.67	209.28	9.3401e-06	2.7682e-06	213.61	80.834	77.3	34.345	3.6822e-06	38.986	0.0039661	0.0064673	0.0018389	699.09	7.0943e-05	7.4296e-05	563.42	212.82	6.2093e-05	7.1745e-05	218.7	82.323	79.189	35.298	6.3727e-05	40.079	318.934	84.655	92.340	-14.469	319.904	104.795	-15.928	-10.242	135.562	144.748	-12.058	-7.483	-5.713	-1.093	150.387	-4.768	-8191	255	
3417.774	1	1	0	0	0.21559	0.047359	0.038044	0.13162	0.053706	0.060065	0.27822	0.21345	0.26175	0.27867	0.12457	0.25121	0.14752	0.032441	0.12972	0.31835	-1.9979	-3.125	-2.6375	-2.3708	-3.3	-2.2708	-2.9167	-3.0729	-2.3396	-3.15	-2.7833	-2.4521	-3.2521	-2.4437	-2.7062	-3.175	211.723	48.962	276.540	183.397	115.146	139.405	-15.180	309.440	247.781	33.753	76.574	15.844	142.919	154.752	14.248	66.289	0.00057761	0.00063379	0.00014083	640.12	3.9255e-06	8.9322e-06	558.51	209.79	1.592e-05	4.553e-06	213.66	80.364	76.338	34.258	2.9635e-06	38.57	0.0039292	0.0062602	0.0018362	693.12	6.7539e-05	7.226e-05	562.23	212.22	6.0484e-05	6.8869e-05	218.02	81.903	78.707	35.081	6.2773e-05	39.503	303.802	69.158	51.984	-14.455	59.542	172.254	-15.580	-9.722	112.496	-18.371	-12.019	-7.719	-5.298	-1.177	167.980	-4.902	-8191	255	
3417.894	1	1	0	0	0.15258	0.25582	0.051336	0.32237	0.070937	0.20632	0.11117	0.1449	0.22552	0.25734	0.11332	0.1621	0.2337	0.079119	0.35573	0.13083	-1.725	-3.1708	-2.9	-2.2479	-3.1229	-2.3854	-2.7375	-3.0938	-2.2667	-3.1375	-2.9729	-2.2687	-3.4562	-2.5625	-2.5583	-3.1833	105.920	307.003	90.472	238.034	138.152	1.868	241.159	212.445	7.784	270.041	191.257	30.600	42.723	303.149	92.093	31.409	0.00046415	0.00041795	6.203e-05	630.86	7.1145e-06	7.9936e-06	556.99	208.26	5.8945e-06	4.9588e-06	212.14	79.759	76.5	34.126	5.7886e-06	38.097	0.003821	0.0059951	0.0017518	691.04	6.3904e-05	6.9756e-05	558.26	211.57	5.7999e-05	6.5923e-05	216.4	81.082	78.505	34.903	6.0703e-05	39.166	314.955	37.433	91.932	-14.917	61.637	112.920	-15.785	-9.680	107.066	72.993	-12.352	-8.005	-5.542	-1.172	118.698	-4.711	-8191	255	
3417.989	1	1	0	0	0.20405	0.1307	0.26848	0.22194	0.11794	0.21001	0.086345	0.18179	0.20027	0.10294	0.28155	0.33776	0.11945	0.06639	0.14295	0.10105	-1.9354	-3.1188	-2.8375	-2.4083	-3.3438	-2.4021	-2.6604	-3.1937	-2.5167	-2.9292	-2.8688	-2.2062	-3.3583	-2.5833	-2.4083	-3.1188	56.974	-16.921	37.444	16.227	-15.494	22.924	286.099	77.411	154.062	149.328	230.966	-24.132	213.919	-16.962	107.799	38.906	0.0005152	0.00018138	0.0002508	639.4	7.3842e-06	2.2434e-06	556.64	211.62	1.889e-06	2.6415e-06	214.34	80.125	76.93	34.057	7.116e-06	38.106	0.0036171	0.0057737	0.001682	688.67	6.2269e-05	6.7949e-05	561.09	213.22	5.5855e-05	6.4323e-05	218.27	81.418	78.883	34.746	5.8972e-05	39.08	290.529	40.976	53.465	-15.144	131.983	62.213	-15.577	-9.725	-27.151	119.478	-12.166	-7.820	-5.603	-1.596	119.730	-4.733	-8191	255	
3418.085	1	1	0	0	0.41333	0.27521	0.1732	0.19271	0.2319	0.076036	0.1354	0.081005	0.32734	0.037659	0.21271	0.10531	0.087434	0.1936	0.19805	0.23568	-1.8146	-2.8354	-3.0687	-2.2313	-3.0354	-2.7896	-2.4146	-3.3958	-2.3	-2.8104	-3.025	-2.175	-3.2042	-2.6896	-2.3292	-3.2333	92.000	280.114	307.613	222.490	191.449	35.284	316.692	315.207	112.903	278.253	319.526	-26.031	193.342	298.268	49.619	72.790	0.00047816	0.0005856	0.00011545	640.18	4.3759e-06	2.2955e-06	564.92	213.14	4.3354e-06	2.9531e-06	215.58	80.994	77.704	34.19	8.1695e-06	38.776	0.0034979	0.0055191	0.0015815	687.32	5.6888e-05	6.1041e-05	564.43	213.83	5.0709e-05	5.7126e-05	218.71	81.898	78.912	34.745	5.251e-05	39.367	323.370	33.729	-18.194	-14.889	293.372	165.627	-16.023	-10.031	209.095	92.882	-12.110	-7.874	-5.704	-1.466	113.347	-4.804	-8191	255	
3418.181	1	1	0	0	0.21924	0.068671	0.057636	0.20912	0.1337	0.1748	0.13406	0.2357	0.1958	0.32783	0.25742	0.094299	0.034831	0.20875	0.15924	0.040276	-2.0062	-2.5417	-3.0833	-2.2833	-2.9521	-2.9688	-2.4917	-3.1917	-2.35	-2.6437	-3.3104	-2.3021	-2.9062	-2.9792	-2.2562	-3.2333	31.484	39.315	104.356	246.412	29.538	127.982	41.369	313.454	124.101	309.020	287.710	158.392	234.059	-20.188	107.008	139.815	0.00039609	0.00049899	0.00015186	647.94	4.168e-06	1.7574e-06	568.72	213.98	5.5353e-06	9.5659e-06	218.91	81.484	77.971	34.088	3.0485e-06	38.898	0.0031684	0.0049114	0.0014259	690.84	5.3681e-05	5.8623e-05	569.81	215.01	4.9094e-05	5.553e-05	221.46	82.842	79.197	34.793	5.1182e-05	39.648	328.911	164.744	-5.134	-14.610	112.259	56.266	-15.702	-9.892	-1.174	109.569	-12.088	-7.510	-5.660	-1.242	70.507	-4.583	-8191	255	
3418.302	1	1	0	0	0.15852	0.11146	0.068441	0.068654	0.062519	0.061853	0.13405	0.066682	0.18772	0.16313	0.32939	0.27964	0.094655	0.23478	0.23375	0.08079	-2.1208	-2.5563	-3.1771	-2.225	-2.7854	-2.8542	-2.4146	-3.1542	-2.5958	-2.5396	-3.2125	-2.3479	-2.9313	-3.2521	-2.2667	-3.3312	7.361	310.637	58.265	228.564	110.534	67.153	163.037	224.811	161.191	28.885	230.083	314.967	1.268	259.997	192.855	243.487	0.00058101	0.00044423	7.6929e-05	638.22	5.8502e-06	5.8518e-06	567.17	212.36	7.0589e-07	1.0929e-06	215.35	81.392	77.538	34.115	7.6427e-06	38.808	0.0031143	0.0048443	0.0013837	683.63	5.1166e-05	5.6734e-05	565.48	212.39	4.7768e-05	5.4251e-05	217.87	82.198	78.518	34.719	4.9133e-05	39.456	327.479	128.823	12.317	-14.679	112.213	124.490	-16.329	-9.490	-21.827	78.935	-12.273	-7.744	-5.333	-1.293	155.962	-5.036	-8191	255	
3418.373	1	1	0	0	0.095265	0.13213	0.16069	0.16139	0.048349	0.2011	0.43268	0.11187	0.2059	0.090656	0.12257	0.08846	0.23198	0.066789	0.14932	0.095619	-2.4292	-2.1708	-3.2792	-2.3125	-2.7062	-3.0146	-2.2542	-3.0917	-2.7562	-2.375	-3.4083	-2.4354	-2.7375	-3.1604	-2.2792	-3.1833	332.249	38.632	318.726	215.224	54.815	181.231	213.105	238.850	21.917	-24.832	296.704	10.770	-25.519	31.430	316.224	107.279	0.00044551	0.00033645	0.00016383	635.58	2.4566e-06	2.871e-06	561.42	207.53	1.0082e-05	4.6224e-06	212.46	80.613	76.658	34.407	8.5289e-06	39.125	0.002918	0.0045708	0.001291	672.94	4.7623e-05	5.1909e-05	559.62	208.68	4.464e-05	5.0605e-05	214.84	81.371	77.707	34.885	4.7287e-05	39.735	304.740	123.498	-9.620	-14.903	48.735	298.239	-15.705	-9.682	150.229	154.347	-12.000	-7.641	-5.620	-1.295	157.657	-4.776	-8191	255	
3418.470	1	1	0	0	0.082003	0.2759	0.14571	0.15674	0.19576	0.18972	0.23168	0.17408	0.13996	0.0149	0.23937	0.20107	0.15046	0.10932	0.27961	0.21111	-2.65	-2.2646	-3.2083	-2.5187	-2.6521	-3.2438	-2.3417	-3.0354	-2.8187	-2.4688	-3.2958	-2.6479	-2.4437	-3.2667	-2.2458	-3.0979	72.385	12.129	275.411	-20.023	112.063	218.000	210.182	190.886	180.580	57.906	289.977	305.426	170.884	317.033	202.201	314.497	0.00048557	0.0003597	0.00015158	637.78	2.5143e-06	5.1508e-06	559	205.29	1.025e-05	5.2046e-06	212.15	80.422	75.892	34.183	2.2253e-06	39.414	0.0029278	0.0046159	0.001284	670.98	4.759e-05	5.1492e-05	557.57	206.41	4.3763e-05	5.0208e-05	213.9	81.275	77.043	34.895	4.6728e-05	39.918	326.920	140.917	38.496	-14.991	144.451	134.104	-16.078	-9.598	167.619	188.039	-11.851	-7.955	-5.221	-1.407	19.745	-4.943	-8191	255	
3418.590	1	1	0	0	0.14992	0.20329	0.29342	0.22472	0.1317	0.46321	0.10716	0.17091	0.28156	0.31739	0.18604	0.17524	0.16229	0.12782	0.19424	0.21431	-2.5563	-2.175	-3.0875	-2.6896	-2.3688	-3.3333	-2.4875	-3.0812	-3.0333	-2.3771	-3.0583	-2.7938	-2.3167	-3.3104	-2.3521	-2.7625	-26.653	314.653	154.117	67.259	240.930	177.274	232.982	46.271	-25.903	196.051	312.592	89.056	251.624	325.345	89.588	320.413	0.00056466	0.0005307	7.2125e-05	625.89	8.442e-06	7.1937e-06	555.13	203.41	5.3198e-06	3.1164e-06	210.01	80.386	75.414	34.262	4.4745e-06	39.166	0.0028929	0.0045264	0.0012644	664.12	4.8772e-05	5.1299e-05	556.21	205.28	4.3308e-05	5.0666e-05	211.89	81.192	76.818	34.663	4.5362e-05	39.64	328.837	62.150	58.313	-14.859	138.837	192.394	-16.344	-9.500	184.270	190.219	-12.048	-7.715	-5.387	-0.930	142.650	-4.885	-8191	255	
3418.686	1	1	0	0	0.19232	0.29138	0.096032	0.14214	0.15807	0.053069	0.10813	0.14732	0.073864	0.19149	0.11771	0.21902	0.22715	0.066127	0.30621	0.1477	-2.8312	-2.2583	-3.0438	-2.8792	-2.3021	-3.2292	-2.4625	-2.6104	-3.1708	-2.3208	-2.9854	-2.8417	-2.3917	-3.2125	-2.5458	-2.5521	248.527	190.024	97.064	197.655	-1.156	265.576	-16.615	180.320	77.291	190.941	19.737	260.113	256.860	60.025	64.238	113.574	0.00034696	0.00028017	0.00019279	631.49	2.0163e-06	4.714e-06	558.55	203.77	3.932e-06	4.8252e-06	208.96	79.675	75.381	34.004	4.0312e-06	38.49	0.0027764	0.0042986	0.0011704	667.98	4.4971e-05	4.7922e-05	557.2	203.72	3.9369e-05	4.6535e-05	210.23	80.349	76.193	34.492	4.1961e-05	39.147	313.268	27.311	45.556	-15.231	208.687	109.047	-15.772	-9.846	66.273	93.689	-11.979	-7.928	-5.538	-1.216	165.757	-4.669	-8191	255	
3418.782	1	1	0	0	0.12608	0.18171	0.13671	0.25589	0.2295	0.1561	0.054009	0.35672	0.046863	0.17003	0.21215	0.089414	0.26037	0.32437	0.1357	0.19215	-2.8021	-2.2562	-2.8625	-2.9875	-2.2875	-3.2042	-2.6208	-2.6125	-3.3521	-2.4354	-3.0187	-3.0292	-2.2021	-3.3083	-2.7583	-2.4979	58.487	10.961	29.901	115.881	286.473	2.836	61.797	298.999	185.530	7.530	193.355	-21.210	201.473	-14.704	41.582	273.059	0.00041875	0.00011344	0.00017427	635.15	4.6646e-06	3.8163e-06	557.68	202.58	8.8252e-06	4.668e-06	208.19	79.07	75.101	33.591	9.6798e-06	37.965	0.0025649	0.0040599	0.0011545	665.62	4.3595e-05	4.4687e-05	553.01	203.26	3.861e-05	4.5208e-05	208.6	79.579	75.984	34.111	4.0749e-05	38.45	321.093	320.859	61.961	-15.169	127.638	140.757	-16.035	-9.704	206.533	206.158	-12.261	-7.750	-5.563	-1.497	105.126	-4.904	-8191	255	
3418.879	1	1	0	0	0.078849	0.12372	0.068021	0.13493	0.20604	0.13335	0.16998	0.13696	0.18341	0.13333	0.083398	0.10842	0.074898	0.17316	0.11408	0.092849	-3.0708	-2.4375	-2.7979	-3.1292	-2.2625	-3.1813	-2.8646	-2.3	-3.3083	-2.4813	-2.7812	-3.3063	-2.4896	-3.1104	-2.9583	-2.4375	-15.130	-10.173	136.343	313.079	310.532	146.549	139.349	254.076	135.146	212.736	-17.752	184.872	150.929	11.718	44.696	45.213	0.00030218	0.00036136	0.00014812	640.57	2.4256e-06	8.0646e-06	559.09	206.36	5.9197e-06	4.1856e-06	210.19	80.093	76.164	33.576	6.1125e-06	37.937	0.0024396	0.0039577	0.0010675	667.92	4.1478e-05	4.2982e-05	555.69	205.92	3.7467e-05	4.5289e-05	210.85	80.129	76.667	34.075	4.2714e-05	38.471	314.888	27.451	315.697	-14.698	231.494	116.919	-16.145	-9.529	137.727	178.709	-12.055	-8.038	-5.535	-1.094	87.237	-4.959	-8191	255	
3418.975	1	1	0	0	0.20629	0.18862	0.12036	0.11682	0.13386	0.31485	0.083355	0.22637	0.14	0.19837	0.21343	0.082527	0.17184	0.25869	0.19733	0.12605	-2.8542	-2.4167	-2.8083	-3.2958	-2.3521	-3.0208	-3	-2.4062	-3.25	-2.675	-2.5958	-3.2375	-2.4	-3.1375	-3.0438	-2.4292	50.699	228.422	58.581	57.605	156.777	195.294	112.397	289.695	180.500	169.092	330.746	51.505	229.871	28.016	122.234	270.962	0.00061017	0.00074474	8.0618e-05	641.04	3.9553e-06	4.8541e-06	565.86	209.09	7.464e-06	3.2728e-06	214	79.894	76.694	33.517	1.5264e-06	38.051	0.0025575	0.0042248	0.0011818	678.18	4.4865e-05	4.7545e-05	562.7	210.2	4.1227e-05	5.0615e-05	215.51	80.671	77.781	34.039	4.6957e-05	38.491	310.905	70.431	-5.047	-14.386	119.828	23.225	-16.112	-9.491	148.197	110.041	-12.421	-7.629	-5.807	-1.203	269.428	-5.253	-8191	255	
3419.069	1	1	0	0	0.29547	0.045422	0.29805	0.25906	0.091874	0.086174	0.09032	0.015225	0.1411	0.12145	0.016852	0.098982	0.14727	0.16714	0.15652	0.057991	-2.9833	-2.5687	-2.3875	-3.1792	-2.3937	-2.9458	-3.0958	-2.4521	-2.9875	-2.7083	-2.3771	-3.3563	-2.3708	-2.8354	-3.1229	-2.4	262.245	183.055	-7.600	84.012	56.811	214.636	247.441	183.149	254.703	315.115	-9.519	258.252	326.681	187.964	87.743	179.034	0.00049464	0.00086323	0.00021712	647.03	4.7903e-06	8.8536e-07	564.14	210.73	1.0504e-05	4.004e-06	212.89	80.203	76.231	33.577	7.1753e-06	37.734	0.0028261	0.0046241	0.0012793	682.98	5.0681e-05	5.2212e-05	563.46	210.79	4.5732e-05	5.5327e-05	215.92	81.145	77.875	34.196	5.2773e-05	38.515	293.290	51.529	92.815	-14.919	130.478	106.246	-16.038	-9.529	166.039	81.177	-11.877	-8.018	-5.845	-1.253	164.612	-4.759	-8191	255	
3419.190	1	1	0	0	0.046088	0.13102	0.21277	0.091162	0.14986	0.35123	0.28747	0.058629	0.20388	0.12754	0.24286	0.28438	0.037163	0.3632	0.078624	0.10862	-2.8063	-2.5104	-2.2583	-3.2125	-2.5292	-2.6167	-3.1188	-2.1625	-3.0021	-2.9375	-2.2875	-3.3333	-2.6188	-2.5938	-3.0187	-2.5167	224.526	136.852	148.123	319.477	77.185	216.500	230.265	-13.844	117.247	85.964	231.505	239.987	198.593	307.246	14.715	84.605	0.00046085	0.00056439	0.00015725	640.98	6.3084e-06	5.6458e-06	562.86	208.32	8.2791e-06	6.046e-06	208.46	78.751	75.486	33.262	1.3297e-06	37.047	0.0030957	0.0050873	0.0014229	683.94	5.6039e-05	5.8403e-05	560.96	209.47	4.8993e-05	5.9903e-05	212.92	79.847	77.241	33.862	5.5272e-05	37.887	315.461	45.943	69.203	-14.941	137.694	198.345	-15.970	-9.654	88.419	172.846	-12.136	-7.401	-5.817	-0.989	206.762	-5.129	-8191	255	
3419.286	1	1	0	0	0.042269	0.088659	0.048342	0.31915	0.154	0.23072	0.20315	0.14392	0.20987	0.16116	0.29916	0.19004	0.12991	0.26701	0.11197	0.20537	-2.4458	-2.9104	-2.2458	-3.1167	-2.5396	-2.5771	-3.1104	-2.3125	-2.8125	-2.9833	-2.3167	-3.2375	-2.6417	-2.5583	-3.2625	-2.4562	30.875	35.814	194.643	133.572	232.448	230.793	7.677	113.011	74.940	298.779	267.439	97.915	30.212	327.041	117.595	283.023	0.0002858	0.00087484	0.00017252	626.39	6.7093e-06	5.2465e-06	554.82	205.95	8.1826e-06	5.4232e-06	207.95	77.109	74.92	33.067	2.0704e-06	36.739	0.0032631	0.0054993	0.0015154	680.71	5.9435e-05	6.1465e-05	555.5	207.78	5.2575e-05	6.4268e-05	211.3	78.894	76.819	33.666	5.8305e-05	37.513	312.863	41.303	77.457	-15.542	116.714	106.260	-16.004	-9.810	244.404	152.554	-12.052	-7.388	-5.530	-1.201	74.908	-4.915	-8191	255	
3419.382	1	1	0	0	0.23459	0.13982	0.19061	0.17927	0.1696	0.10128	0.22645	0.24967	0.068959	0.035198	0.17248	0.084013	0.039294	0.2774	0.29958	0.29506	-2.4938	-3.125	-2.1917	-3.2042	-2.6271	-2.5062	-3.2438	-2.5146	-2.7917	-3.0417	-2.0646	-3.0521	-2.85	-2.425	-3.1437	-2.4375	296.583	176.567	321.598	200.747	153.805	167.039	236.911	25.442	316.879	171.711	140.959	291.316	30.583	263.670	194.827	30.370	0.00059914	0.00054942	0.00011441	635.13	1.1814e-05	3.9486e-06	555.71	206.75	1.544e-05	2.1617e-06	207.58	77.681	75.112	33.03	4.5097e-06	36.767	0.0035035	0.0058252	0.0016263	685.75	6.233e-05	6.4994e-05	555.32	208.42	5.4662e-05	6.5928e-05	211.81	79.066	76.876	33.685	5.9784e-05	37.655	312.331	323.408	26.814	-15.522	94.356	87.912	-15.932	-9.772	148.798	133.502	-12.017	-7.513	-5.069	-1.089	194.766	-5.074	-8191	255	
3419.478	1	1	0	0	0.10366	0.32689	0.20119	0.33991	0.10431	0.22286	0.083716	0.049562	0.1615	0.30563	0.25284	0.047486	0.158	0.29776	0.032003	0.097732	-2.3229	-3.0146	-1.9958	-3.1458	-2.8312	-2.1708	-3.2521	-2.6042	-2.6333	-3.1437	-2.4292	-3.0479	-2.8	-2.325	-3.2188	-2.575	177.418	242.497	250.568	-10.631	197.466	142.620	138.437	127.699	229.509	281.085	327.117	68.933	319.207	295.311	130.524	301.122	0.00034546	0.00099724	0.00013326	634.95	4.0167e-06	6.5567e-06	551.96	205.55	1.3822e-05	1.2582e-06	208.55	77.678	75.528	33.05	5.4254e-06	37.043	0.0035029	0.0058078	0.0016359	686.77	6.2225e-05	6.5624e-05	554.92	208.23	5.5339e-05	6.5833e-05	211.95	79.242	77.257	33.733	6.0263e-05	37.955	322.260	74.124	64.501	-15.099	131.413	125.260	-16.240	-10.020	134.256	276.309	-12.430	-7.555	-5.548	-1.292	189.073	-4.621	-8191	255	
3419.599	1	1	0	0	0.074924	0.23654	0.035441	0.26439	0.16609	0.023789	0.14924	0.17006	0.11732	0.097418	0.12675	0.16537	0.056843	0.2225	0.15986	0.096873	-2.2729	-3.2042	-2.2646	-2.9625	-3.1104	-2.1729	-3.1208	-2.5479	-2.4792	-3.375	-2.5438	-2.8937	-3.0771	-2.3375	-3.1042	-2.7375	125.857	302.574	2.232	292.684	215.825	248.259	159.869	282.502	86.570	74.594	210.557	3.467	314.801	274.709	137.750	138.205	0.00025155	0.00056428	0.00017788	638.19	1.038e-05	5.4779e-06	555.17	206.16	7.8731e-06	3.5242e-06	208.01	78.214	75.083	33.103	3.108e-06	36.818	0.0036667	0.0059186	0.0016708	686.52	6.3779e-05	6.7357e-05	555.91	208.5	5.6661e-05	6.6765e-05	212.15	79.483	77.007	33.784	6.0862e-05	37.662	-2.135	101.902	109.376	-14.430	80.533	253.592	-15.725	-10.221	173.221	109.017	-11.901	-7.672	-5.582	-1.154	142.893	-4.911	-8191	255	
3419.671	1	1	0	0	0.024445	0.20638	0.084647	0.26431	0.17536	0.30063	0.080944	0.062011	0.1998	0.16738	0.1817	0.066383	0.033289	0.23117	0.077634	0.27083	-2.1396	-3.3667	-2.4146	-2.675	-3.1813	-2.1958	-3.0583	-2.7542	-2.2771	-3.2562	-2.2771	-2.7	-3.2854	-2.4208	-3.025	-2.9833	165.774	169.234	121.846	277.802	120.970	287.631	126.099	259.754	281.467	55.591	251.874	-17.038	49.442	38.461	197.490	153.400	0.00028128	0.00070457	0.00016986	631.36	4.5923e-06	6.8797e-06	546.13	204.53	7.643e-06	4.6397e-06	205.92	77.357	74.615	32.828	3.7687e-06	36.387	0.0037372	0.0059547	0.0017293	686.91	6.5689e-05	6.8505e-05	549.99	207.13	5.7967e-05	6.6549e-05	209.47	78.511	76.438	33.56	6.0324e-05	37.232	-16.787	47.045	62.661	-14.595	130.404	71.178	-16.066	-10.383	213.212	258.482	-12.389	-7.969	-5.342	-1.209	120.514	-5.063	-8191	255	
3419.767	1	1	0	0	0.14087	0.12015	0.32809	0.18516	0.132	0.22404	0.19257	0.26664	0.16999	0.15388	0.25758	0.094563	0.16538	0.16366	0.047802	0.227	-2.0417	-3.0396	-2.325	-2.5125	-3.1854	-2.4958	-2.8958	-3.0375	-2.3583	-3.1292	-2.8417	-2.7146	-3.1958	-2.6333	-3.0583	-2.9208	-7.713	231.362	94.877	114.666	272.180	-19.805	248.123	272.104	107.802	309.283	250.196	232.297	204.674	54.719	107.432	262.285	0.00049383	0.00088497	8.9954e-05	628.92	6.1944e-06	4.3996e-06	547.56	205.27	5.5862e-06	6.6082e-06	206.25	77.077	74.695	32.975	3.5544e-06	36.423	0.0036935	0.0059155	0.0017236	684.43	6.2895e-05	6.9564e-05	548.99	206.76	5.6872e-05	6.7386e-05	209.27	78.316	76.346	33.578	6.1382e-05	37.349	-26.332	97.090	77.330	-15.002	171.888	119.032	-16.228	-9.560	62.639	106.863	-12.031	-7.808	-5.114	-1.386	178.912	-4.960	-8191	255	
3419.863	1	1	0	0	0.24392	0.13388	0.34722	0.22432	0.041389	0.020779	0.20663	0.19071	0.058918	0.24565	0.15451	0.3568	0.096015	0.23134	0.21572	0.26665	-1.9042	-3.1042	-2.7146	-2.6063	-3.1937	-2.3667	-2.7729	-3.1771	-2.3771	-3.1396	-2.6646	-2.5792	-3.1958	-2.2729	-2.7438	-3.2396	161.114	127.517	266.297	251.969	220.153	128.806	304.708	283.342	289.860	149.604	132.053	252.301	230.520	33.162	-14.242	157.653	0.00038873	0.00062357	0.00021789	637.94	7.5757e-06	7.2102e-06	549.42	205.58	5.1258e-06	2.9584e-06	207.98	76.707	74.766	32.903	1.093e-05	36.702	0.0037029	0.0059072	0.0017421	689.14	6.4913e-05	7.0765e-05	553	207.86	5.9473e-05	6.8187e-05	211.54	78.895	76.808	33.752	6.3423e-05	37.737	303.949	50.840	48.695	-15.078	100.074	167.115	-16.024	-9.474	205.736	320.102	-11.738	-8.112	-5.528	-1.025	148.620	-4.897	-8191	255	
3419.982	1	1	0	0	0.16919	0.11257	0.0766	0.16566	0.081818	0.019198	0.093132	0.15785	0.064213	0.32225	0.2022	0.196	0.2008	0.22135	0.17631	0.035953	-2.0604	-3.0292	-2.9458	-2.4062	-3.1417	-2.3708	-2.6583	-3.3396	-2.2646	-3.1854	-3.1021	-2.4	-3.1417	-2.6063	-2.4667	-3.2313	302.508	224.035	82.593	-8.485	143.206	31.011	91.561	-16.689	205.295	228.249	195.879	14.212	294.676	6.221	112.240	29.762	0.00044931	0.00043357	9.0614e-05	639.35	5.6577e-06	4.3928e-06	548.61	205.63	5.7412e-06	1.6402e-06	208.35	78.024	75.12	32.942	3.7159e-06	37.057	0.0038286	0.0059747	0.0018021	691.42	6.561e-05	7.0868e-05	554.17	208.08	5.9349e-05	6.8692e-05	211.82	79.215	77.021	33.867	6.3534e-05	38.033	-18.325	112.292	23.947	-14.545	86.407	19.219	-15.961	-10.171	172.731	189.632	-11.701	-7.667	-5.217	-1.564	129.767	-4.981	-8191	255	
3420.078	1	1	0	0	0.24903	0.15067	0.17933	0.06099	0.21711	0.19252	0.17542	0.15815	0.21432	0.10751	0.18222	0.077627	0.081059	0.27623	0.12627	0.15997	-1.9667	-2.8812	-2.8125	-2.2208	-3.1333	-2.5771	-2.575	-3.2854	-2.1792	-2.9521	-3.0729	-2.3208	-3.1562	-2.7313	-2.5396	-3.3292	123.394	272.471	120.442	328.772	220.602	327.459	122.012	-15.762	48.169	325.421	270.991	116.184	291.471	21.580	311.567	171.041	0.00027042	0.00042782	0.00024167	639.56	3.09e-06	2.2453e-06	550.62	204.75	2.318e-06	6.3962e-06	206.81	77.338	74.873	32.977	7.7346e-06	36.939	0.0039805	0.0062283	0.0018444	693.28	6.6756e-05	7.3844e-05	553.36	207.76	6.2107e-05	7.0543e-05	210.98	79	76.809	33.84	6.5371e-05	37.748	311.004	92.659	41.801	-14.789	64.500	65.408	-15.617	-9.763	198.945	136.662	-12.065	-7.703	-5.600	-1.336	135.893	-5.278	-8191	255	
3420.174	1	1	0	0	0.061961	0.20131	0.14414	0.088316	0.15843	0.10712	0.20092	0.18215	0.16235	0.08686	0.19607	0.22655	0.16555	0.18705	0.26312	0.14373	-2.1583	-2.8	-3.2042	-2.4146	-3.2292	-2.7583	-2.25	-3.2771	-2.4896	-2.6729	-3.1354	-2.2708	-2.975	-2.7854	-2.3417	-3.2854	329.507	222.487	46.200	149.684	214.196	199.312	114.796	327.606	28.246	22.608	248.935	10.429	-17.380	112.560	296.753	248.115	0.00021045	0.00060157	2.8618e-05	630.34	6.6395e-06	3.9301e-06	546.63	203.84	8.8439e-06	5.8242e-06	204.69	77.238	74.373	32.807	6.4512e-06	36.706	0.0039321	0.0062988	0.0018227	688.15	6.7615e-05	7.3757e-05	551.15	206.46	6.1786e-05	7.0794e-05	209.1	78.556	76.452	33.663	6.4406e-05	37.662	316.831	6.056	28.972	-14.690	103.654	74.990	-16.143	-9.702	272.221	97.694	-12.305	-7.765	-5.381	-1.128	156.918	-4.861	-8191	255	
3420.270	1	1	0	0	0.10329	0.18894	0.36872	0.11803	0.13681	0.21591	0.092073	0.17402	0.23029	0.14401	0.15923	0.1695	0.21075	0.10454	0.13994	0.32577	-2.125	-2.4542	-3.0396	-2.3521	-2.9021	-2.8292	-2.3688	-3.1854	-2.3521	-2.6417	-3.2271	-2.425	-2.8812	-3.0375	-2.2812	-3.3375	16.772	229.600	330.443	-17.846	45.602	80.318	98.948	-12.772	-4.227	284.584	211.505	-20.877	217.405	131.698	79.258	329.205	0.00040971	0.00065314	0.00019558	621.21	7.6579e-06	4.4665e-08	547.66	203.94	1.2364e-05	8.2999e-06	205.99	77.236	74.218	32.994	7.3979e-06	36.796	0.0039801	0.0062408	0.0017953	684.13	6.6184e-05	7.3335e-05	551.88	206.21	6.2204e-05	7.1818e-05	210.14	78.734	76.567	33.77	6.4814e-05	37.812	301.988	-15.416	88.445	-14.903	136.780	138.580	-15.843	-10.073	91.739	89.886	-12.222	-7.811	-5.499	-1.283	128.719	-4.720	-8191	255	
3420.366	1	1	0	0	0.14929	0.38907	0.14613	0.080661	0.22004	0.1311	0.14518	0.14542	0.124	0.071657	0.087155	0.16416	0.20342	0.11717	0.14075	0.21876	-2.2292	-2.3729	-3.2062	-2.3042	-3.0208	-2.9396	-2.4	-3.2313	-2.7104	-2.6125	-3.4042	-2.4979	-2.8792	-3.3333	-2.2729	-3.1396	102.861	318.160	285.305	60.745	170.417	-13.030	161.213	192.326	238.658	98.089	-2.017	235.791	247.554	9.447	-26.492	194.378	0.00055036	0.0004888	0.00019243	632.75	4.7635e-06	6.9851e-06	552.17	206.86	1.4168e-05	3.1848e-06	206.74	77.847	74.661	33.116	7.5816e-06	37.196	0.0039516	0.0062742	0.0017837	688.9	6.6619e-05	7.358e-05	555.62	208.16	6.2804e-05	7.1815e-05	212.08	79.695	77.079	33.965	6.5989e-05	38.109	299.984	90.700	50.720	-15.130	156.472	164.089	-15.883	-9.862	183.658	264.427	-11.938	-7.769	-5.415	-1.379	114.892	-5.044	-8191	255	
3420.462	1	1	0	0	0.062188	0.13775	0.091995	0.098761	0.19326	0.0536	0.2644	0.079806	0.11583	0.14712	0.063319	0.2756	0.2694	0.37559	0.029165	0.20983	-2.1688	-2.3667	-3.0271	-2.3854	-2.8063	-3.1167	-2.3104	-3.0229	-2.8521	-2.4521	-3.2354	-2.5917	-2.7667	-3.2438	-2.2521	-2.8208	113.160	318.122	128.899	153.580	26.638	-0.096	184.903	184.158	271.282	176.584	-8.447	319.061	302.450	300.923	-1.448	287.186	0.00051761	0.00046446	0.00012613	636.32	2.9695e-06	2.3762e-06	553.17	207.36	1.4195e-06	6.562e-06	207.81	78.157	74.779	33.133	6.8546e-06	36.961	0.0039717	0.0063386	0.0017624	691.7	6.6316e-05	7.2236e-05	556.06	208.6	6.0975e-05	7.0612e-05	212.39	79.685	76.852	33.928	6.4323e-05	37.909	298.481	102.020	83.344	-14.860	262.087	168.249	-15.921	-9.837	25.946	166.585	-12.071	-7.869	-5.340	-1.000	176.024	-5.200	-8191	255	
3420.559	1	1	0	0	0.0088369	0.10186	0.12218	0.13436	0.27373	0.21144	0.23272	0.057297	0.30083	0.24683	0.29976	0.07479	0.11014	0.5484	0.33993	0.074156	-2.6042	-2.2583	-3.2438	-2.5312	-2.625	-3.2917	-2.5958	-3.2292	-3.0625	-2.4125	-3.1292	-2.6854	-2.3812	-3.2417	-2.3417	-2.9104	62.339	125.156	79.292	215.685	325.317	242.257	255.277	161.150	307.707	235.946	250.856	136.001	287.044	305.425	286.830	288.935	0.00047463	0.00067609	9.4724e-05	630.84	2.8274e-06	3.5993e-06	549.51	206.02	1.0023e-05	3.0022e-06	204.85	76.81	74.064	32.914	6.1947e-06	36.515	0.0039333	0.0064412	0.0017543	689.7	6.8143e-05	7.229e-05	552.9	207.71	6.2743e-05	7.2157e-05	210.03	78.517	76.301	33.649	6.5825e-05	37.403	305.536	9.103	58.213	-14.912	117.582	25.887	-15.939	-9.493	284.007	191.076	-12.240	-7.757	-5.769	-1.233	-18.686	-4.702	-8191	255	
3420.679	1	1	0	0	0.095469	0.22728	0.078531	0.1194	0.14349	0.41308	0.13103	0.049177	0.21376	0.21174	0.11913	0.43253	0.34382	0.1413	0.12859	0.20397	-2.75	-2.1792	-3.2458	-2.7687	-2.4271	-3.2583	-2.4708	-2.9208	-3.1208	-2.3792	-3.0667	-2.8708	-2.4146	-3.3583	-2.4167	-2.7042	3.850	316.852	42.442	50.795	281.721	271.609	85.962	173.155	222.013	180.338	210.606	279.536	229.697	22.933	26.824	-10.334	0.00054586	0.00036109	7.6768e-05	629	4.6593e-06	1.3356e-06	547.57	203.62	1.8654e-06	5.1946e-06	206.52	77.208	74.184	32.751	4.7368e-06	36.643	0.0039765	0.0064108	0.0017775	685.96	6.7648e-05	7.0456e-05	550.95	206.93	6.1679e-05	7.2171e-05	210.07	78.396	76.327	33.651	6.5362e-05	37.537	326.618	69.795	52.075	-14.874	54.357	177.124	-15.834	-9.717	188.196	147.569	-12.512	-7.955	-5.611	-1.090	153.801	-4.804	-8191	255	
3420.775	1	1	0	0	0.30523	0.12471	0.10863	0.1839	0.15236	0.12457	0.12083	0.24087	0.023432	0.11553	0.15289	0.15127	0.11131	0.16093	0.19818	0.045649	-2.6417	-2.2875	-3.0083	-2.7958	-2.3937	-3.1396	-2.5062	-2.725	-3.25	-2.2896	-3.025	-2.9104	-2.3208	-3.2354	-2.5125	-2.5625	203.323	58.196	150.562	241.843	21.601	89.349	272.281	246.986	318.883	135.415	240.440	299.686	243.875	322.119	276.604	149.473	0.00042568	2.732e-05	0.00016033	628.33	6.6256e-06	4.1073e-06	549.14	204.33	2.0063e-05	1.712e-06	206.15	77.028	74.224	32.718	1.2548e-05	36.624	0.0039935	0.0064128	0.0017655	687.52	6.9677e-05	7.2341e-05	553.07	207.16	6.2359e-05	7.3356e-05	210.73	78.839	76.755	33.707	6.8088e-05	37.661	284.215	44.203	51.311	-15.323	121.640	107.452	-15.733	-9.744	176.387	106.633	-12.154	-8.008	-5.231	-1.400	135.185	-4.874	-8191	255	
3420.872	1	1	0	0	0.13995	0.12874	0.12315	0.21837	0.057046	0.070197	0.20451	0.14028	0.17189	0.070252	0.13153	0.20662	0.049064	0.24284	0.08367	0.11133	-2.8563	-2.3438	-2.7417	-3.1	-2.3229	-3.0938	-2.5854	-2.5062	-3.2188	-2.3542	-2.9313	-3.0187	-2.2917	-3.2854	-2.6854	-2.4333	255.902	13.937	26.740	203.267	167.979	16.350	316.309	187.456	198.954	87.385	309.327	303.297	89.150	251.918	133.583	118.151	0.00050494	3.1573e-05	8.8644e-05	630.47	2.9653e-06	6.6249e-06	550.26	206.87	1.7092e-05	2.3756e-06	207.29	77.464	75.117	33.057	4.0886e-06	37.081	0.0040453	0.0066212	0.0018231	691.98	7.1822e-05	7.4111e-05	555.52	208.26	6.2204e-05	7.4647e-05	211.34	79.183	77.08	33.813	6.885e-05	37.855	301.125	92.656	34.056	-15.140	153.131	138.117	-15.864	-9.458	109.776	207.961	-12.017	-8.038	-5.194	-0.964	125.695	-4.807	-8191	255	
3420.968	1	1	0	0	0.13643	0.29749	0.11052	0.1396	0.16802	0.029124	0.19206	0.1785	0.27454	0.13676	0.083935	0.15338	0.047976	0.14804	0.2417	0.15011	-2.9396	-2.2708	-2.6958	-3.2083	-2.2208	-3.1479	-2.7604	-2.4375	-3.3271	-2.3	-2.6625	-3.1521	-2.3792	-3.1333	-2.9833	-2.2292	131.741	243.820	321.149	119.864	164.772	60.491	66.149	268.066	-26.466	63.998	214.769	4.851	-9.909	285.635	118.001	26.044	0.00042901	0.00074347	0.00019001	639.3	6.681e-06	6.3896e-06	553	205.31	1.0219e-05	2.5098e-06	205.54	77.179	74.567	32.922	3.6931e-06	36.311	0.0040085	0.0066044	0.0018287	692.49	6.9962e-05	7.343e-05	555.45	208.17	6.3081e-05	7.7338e-05	210.57	78.871	76.861	33.644	7.0869e-05	37.409	-23.666	19.903	59.577	-15.111	148.905	53.408	-16.078	-9.637	141.648	103.293	-12.056	-7.763	-5.414	-0.976	221.652	-4.860	-8191	255	
3421.062	1	1	0	0	0.10882	0.15938	0.054338	0.10369	0.11438	0.080203	0.26998	0.074076	0.33004	0.43855	0.13153	0.18382	0.12229	0.35796	0.051129	0.11362	-2.9833	-2.5417	-2.5604	-3.0667	-2.2417	-2.8958	-2.9979	-2.4333	-3.2104	-2.5792	-2.6375	-3.2604	-2.3667	-3.0708	-3.0146	-2.1417	95.484	-10.051	55.803	224.259	219.379	87.849	258.631	167.826	56.909	31.151	226.420	64.095	98.157	255.636	146.132	200.272	0.0003596	0.00025928	0.00013121	629.59	9.2721e-06	6.6733e-06	543.5	203.31	1.3123e-05	5.1915e-06	203.58	76.109	74.28	32.683	5.749e-06	36.057	0.0040174	0.0068116	0.0018895	690.77	7.2244e-05	7.4646e-05	549.15	206.55	6.1933e-05	7.6322e-05	208.94	78.015	76.233	33.423	6.9718e-05	37.141	298.138	64.295	69.654	-15.327	82.233	106.232	-15.795	-10.105	167.007	119.062	-11.885	-7.540	-5.489	-1.569	9.623	-4.879	-8191	255	
3421.158	1	1	0	0	0.22646	0.17371	0.25857	0.1331	0.16368	0.11101	0.15131	0.20321	0.23491	0.14163	0.19938	0.11967	0.15354	0.02431	0.1045	0.069117	-2.8375	-2.6063	-2.525	-3.1771	-2.2396	-2.9375	-3.1292	-2.3521	-3.2125	-2.6312	-2.4375	-3.2687	-2.3937	-2.7667	-3.1521	-2.3021	-15.651	67.854	104.339	113.251	85.524	49.029	324.926	295.751	251.359	207.866	65.958	-8.366	248.283	286.572	99.327	110.718	0.00057354	0.00036817	0.00027877	630.55	5.711e-06	1.8933e-06	543.17	203.86	6.0666e-06	4.9481e-06	202.33	76.084	73.648	32.573	4.1249e-06	36.275	0.0040072	0.0068142	0.0018987	686.28	7.1427e-05	7.3971e-05	547.97	206.04	6.2585e-05	7.669e-05	208	77.911	76.155	33.501	6.713e-05	37.254	318.345	10.771	98.476	-14.987	179.627	209.289	-15.886	-9.777	89.448	62.386	-12.107	-7.859	-5.542	-1.096	189.612	-5.362	-8191	255	
3421.279	1	1	0	0	0.11361	0.20852	0.21823	0.0074606	0.081888	0.20024	0.042959	0.15582	0.10513	0.036393	0.088241	0.089329	0.41813	0.20595	0.09051	0.049033	-2.7188	-2.8396	-2.2729	-3.3167	-2.4292	-2.7208	-3.2604	-2.3438	-3.1146	-2.8271	-2.3396	-3.2229	-2.4833	-2.5979	-3.1229	-2.3792	67.358	237.027	104.141	20.126	117.183	211.133	227.526	44.635	303.962	182.543	191.156	281.895	2.268	296.650	264.004	127.690	0.00051793	0.00051854	5.9823e-05	638.93	2.6344e-06	6.726e-06	547.02	204.75	3.2424e-06	6.704e-06	204.8	76.473	74.743	32.707	8.4308e-06	36.13	0.0039189	0.006697	0.0018427	689.64	7.0945e-05	7.3045e-05	551.54	207.01	6.2448e-05	7.6733e-05	209.33	78.352	76.623	33.53	6.8068e-05	37.263	305.890	-0.488	195.824	-14.505	104.110	109.110	-15.718	-9.486	308.042	8.985	-12.278	-7.389	-5.230	-1.331	153.193	-5.237	-8191	255	
3421.375	1	1	0	0	0.21304	0.18545	0.22572	0.22653	0.088761	0.16699	0.22014	0.30777	0.36158	0.081194	0.19597	0.1231	0.14113	0.068967	0.1223	0.33069	-2.6729	-3.0479	-2.325	-3.3063	-2.6208	-2.5896	-3.1979	-2.4104	-2.9292	-3.0938	-2.0625	-3.1375	-2.6958	-2.5542	-3.1708	-2.5146	77.369	150.623	256.768	13.788	75.240	299.831	315.603	212.378	226.609	157.374	251.183	86.544	268.206	243.521	125.409	314.380	0.00062434	0.00037707	0.00016201	629.27	5.1388e-06	3.7877e-06	550.47	205.46	1.3283e-06	2.8458e-06	206.28	76.917	74.704	32.751	4.9673e-06	36.208	0.0039507	0.0066629	0.0018249	687.87	7.0879e-05	7.5204e-05	554.24	208.69	6.2396e-05	7.6135e-05	211.65	78.472	76.707	33.484	6.6673e-05	37.254	312.067	317.005	128.564	-14.478	226.415	213.655	-16.113	-9.807	19.592	120.926	-12.180	-7.921	-5.281	-1.316	-26.146	-4.603	-8191	255	
3421.471	1	1	0	0	0.24619	0.36217	0.099306	0.12817	0.2081	0.16767	0.18391	0.28223	0.2547	0.050039	0.17593	0.10453	0.13898	0.22956	0.10509	0.071518	-2.4062	-3.0521	-2.3792	-3.1	-2.6083	-2.2208	-3.3104	-2.5083	-2.7771	-3.2104	-2.4375	-3.0938	-2.7625	-2.4417	-3.3688	-2.5979	7.038	195.937	226.975	152.966	71.475	76.768	201.052	-16.897	107.552	-21.138	207.303	297.513	231.270	191.744	253.513	-5.942	0.00052775	0.00054825	9.1123e-05	636.95	6.1647e-06	4.7993e-07	545.24	205.28	3.4926e-06	5.0766e-06	204.33	76.173	74.256	32.248	6.1944e-06	35.415	0.0038962	0.0066361	0.0018337	690.77	7.0769e-05	7.4013e-05	551.38	208.1	6.2147e-05	7.5176e-05	209.48	77.742	76.393	33.228	6.614e-05	36.599	309.847	76.438	75.443	-15.151	178.510	243.248	-15.995	-9.893	21.675	80.174	-12.637	-7.788	-5.556	-1.341	40.096	-4.892	-8191	255	
3421.543	1	1	0	0	0.12641	0.27801	0.18778	0.24894	0.17108	0.064409	0.19536	0.11545	0.05803	0.049877	0.096143	0.13526	0.091575	0.19606	0.06489	0.24635	-2.0771	-3.0896	-2.15	-2.9896	-2.9125	-2.3083	-3.2604	-2.575	-2.6063	-3.2271	-2.4	-2.9625	-2.8438	-2.4021	-3.275	-2.6729	260.434	47.510	85.362	274.114	77.287	73.298	285.735	75.157	71.214	144.575	297.425	303.646	283.149	229.861	222.384	-2.887	0.00034256	0.00034624	0.00011021	629.95	4.1283e-06	4.8099e-06	543.36	203.49	2.5008e-06	2.2021e-06	203.06	75.658	73.666	32.282	6.1964e-06	35.522	0.0039694	0.0065416	0.0018518	684.48	7.1413e-05	7.3467e-05	547.02	206.79	6.1071e-05	7.2155e-05	207.56	77.114	76.047	33.22	6.4287e-05	36.779	304.315	52.556	53.400	-14.659	179.696	66.715	-15.968	-9.821	80.843	171.243	-12.381	-7.802	-5.752	-1.135	113.603	-4.964	-8191	255	
3421.639	1	1	0	0	0.068952	0.21437	0.29351	0.16899	0.1779	0.024321	0.075338	0.028373	0.064143	0.14032	0.42432	0.28756	0.19051	0.16362	0.16467	0.18491	-2.1021	-3.3375	-2.3958	-2.9417	-2.9625	-2.2854	-3.2229	-2.7771	-2.5208	-3.25	-2.4854	-2.8	-3.2938	-2.3604	-3.0875	-2.7458	-11.257	188.114	215.026	281.504	203.722	51.782	174.956	258.465	286.886	326.981	283.825	256.960	314.935	297.628	326.874	227.948	0.00030089	0.00019345	0.00018216	630.28	5.1891e-06	9.8411e-06	543.58	204.34	1.193e-05	5.7361e-06	204.08	76.218	73.654	32.482	4.7871e-06	35.936	0.0039046	0.0063415	0.0017879	685.89	6.9176e-05	7.2359e-05	547.97	206.9	6.1259e-05	7.0213e-05	208.58	77.603	75.995	33.334	6.4121e-05	37.009	319.190	257.868	135.614	-14.948	140.437	71.303	-16.091	-9.616	219.827	85.212	-12.192	-7.898	-5.392	-1.169	62.607	-4.759	-8191	255	
3421.760	1	1	0	0	0.14612	0.076212	0.10404	0.40493	0.28052	0.22205	0.30208	0.27165	0.18982	0.38179	0.18681	0.19758	0.13904	0.16628	0.19442	0.068772	-1.9021	-3.3208	-2.5938	-2.7104	-3.0583	-2.2938	-3.2188	-2.8771	-2.15	-3.0208	-2.65	-2.7646	-3.1646	-2.275	-2.9646	-2.9458	193.964	229.315	208.692	94.513	136.568	124.258	209.623	16.547	163.558	280.101	295.925	306.797	216.968	318.284	228.308	275.905	0.00038693	0.001013	0.00015117	640.14	5.9963e-06	8.2023e-06	545.52	204.12	1.6081e-06	6.8467e-06	205.39	76.371	73.93	32.566	7.2453e-06	36.184	0.0039574	0.0063952	0.0018657	687.75	6.995e-05	7.5117e-05	551.06	207.52	6.2343e-05	7.2834e-05	210.53	78.501	76.491	33.515	6.7204e-05	37.395	308.943	13.361	50.399	-14.908	114.795	185.597	-16.055	-9.644	167.394	80.525	-12.346	-7.611	-5.407	-1.560	175.036	-4.539	-8191	255	
3421.856	1	1	0	0	0.022962	0.26548	0.055962	0.065842	0.11231	0.094316	0.11344	0.15329	0.17407	0.25942	0.1202	0.13576	0.21446	0.10478	0.13679	0.072241	-1.9562	-3.2958	-2.4521	-2.6625	-3.2792	-2.2458	-3.0271	-2.9292	-2.3833	-3.075	-2.6833	-2.5375	-3.2396	-2.2917	-2.7646	-3.1979	256.960	160.642	319.783	33.941	150.066	87.957	190.740	59.830	78.737	150.776	41.480	212.584	235.616	36.420	150.999	65.021	0.00041432	0.00069889	0.00024377	632.09	3.2382e-06	3.958e-06	549.97	204.39	4.6775e-06	1.9126e-06	206.17	76.32	73.98	32.634	7.7017e-06	36.176	0.0040639	0.0065405	0.001898	690.8	7.1145e-05	7.7411e-05	553.63	207.68	6.444e-05	7.4826e-05	210.55	78.248	76.51	33.575	6.759e-05	37.363	311.237	323.069	59.467	-15.347	68.722	261.811	-15.740	-9.579	183.065	68.523	-12.171	-7.655	-5.618	-0.916	213.402	-4.826	-8191	255	
3421.952	1	1	0	0	0.19411	0.12664	0.13519	0.068693	0.15318	0.095607	0.23095	0.12516	0.2326	0.1777	0.19769	0.14822	0.18336	0.053166	0.12815	0.1464	-1.8354	-3.0812	-2.7479	-2.5646	-3.275	-2.2896	-2.9375	-3.2896	-2.3	-3.2146	-2.7917	-2.4437	-3.2479	-2.6833	-2.625	-3.1063	148.664	145.176	75.862	317.362	136.517	158.749	273.705	240.112	108.199	46.944	13.516	319.139	291.869	272.638	231.690	-14.185	0.00037644	0.00038112	0.00011785	621.03	1.4631e-06	8.0887e-06	542.71	202.44	9.6647e-06	7.0926e-06	200.2	75.944	73.24	32.455	8.1375e-06	36.008	0.0041203	0.0066434	0.0019638	684.74	7.2125e-05	7.8138e-05	547.8	205.47	6.5293e-05	7.559e-05	206.7	77.465	75.448	33.397	7.0169e-05	37.04	324.153	67.789	133.825	-15.215	24.997	170.390	-15.747	-9.754	122.354	162.176	-12.601	-7.757	-5.833	-1.162	85.834	-4.767	-8191	255	
3422.071	1	1	0	0	0.062584	0.13646	0.23885	0.11118	0.043737	0.12945	0.13127	0.23085	0.14063	0.12502	0.058861	0.31912	0.083952	0.093797	0.23542	0.074739	-1.8083	-2.9375	-2.9062	-2.5104	-3.1375	-2.5875	-2.7042	-3.2667	-2.2604	-2.9604	-2.9688	-2.5187	-3.2625	-2.7042	-2.6417	-3.0521	155.200	166.162	180.868	307.847	110.889	178.912	303.890	269.585	30.772	252.765	159.214	269.791	323.058	298.260	161.127	105.854	0.00040278	0.00045523	6.0369e-05	618.96	2.3915e-06	5.9641e-06	542.17	200.36	6.8602e-06	3.9671e-06	200.63	74.933	73.092	32.517	1.8727e-06	36.205	0.004284	0.0068187	0.0019967	684.77	7.547e-05	8.0417e-05	544.19	203.67	6.7731e-05	7.7553e-05	206.15	77.119	75.504	33.432	7.2309e-05	37.157	-13.878	18.421	117.833	-14.873	260.018	115.381	-15.957	-9.671	130.937	104.083	-12.529	-7.646	-5.438	-1.323	245.070	-5.046	-8191	255	
3422.142	1	1	0	0	0.15865	0.16242	0.11337	0.16146	0.12923	0.028193	0.1696	0.10775	0.37738	0.063791	0.096959	0.10018	0.37361	0.20491	0.44602	0.14759	-1.9333	-3.05	-2.9292	-2.1354	-3.2188	-2.6396	-2.475	-3.3167	-2.1479	-3.025	-3.0792	-2.3167	-3.0792	-2.7396	-2.3771	-3.1146	25.148	215.157	165.068	225.018	84.671	254.355	308.876	40.636	5.192	58.595	262.505	266.559	306.157	276.824	25.428	-17.736	0.00060333	0.00079399	0.00018729	628.59	4.912e-06	7.6969e-06	540.43	200.89	4.9578e-06	1.7293e-06	202.28	76.189	73.514	32.588	1.4493e-05	36.446	0.0044957	0.0071872	0.0020998	689.65	7.7127e-05	8.4935e-05	547.16	204.39	7.1398e-05	8.2657e-05	207.56	77.862	75.807	33.692	7.6524e-05	37.516	329.236	92.433	164.779	-15.106	312.760	258.748	-16.099	-9.579	110.483	102.805	-12.275	-7.650	-5.695	-1.008	142.653	-4.628	-8191	255	
3422.240	1	1	0	0	0.25785	0.13004	0.041201	0.15458	0.13504	0.090969	0.31213	0.071198	0.26863	0.081487	0.15464	0.16096	0.1649	0.063387	0.19108	0.16692	-2.0125	-2.9292	-3.2521	-2.3729	-3.2667	-2.7542	-2.5729	-3.2083	-2.2833	-2.8604	-3.3063	-2.2	-3.0229	-2.8292	-2.2667	-3.2479	79.985	19.844	217.152	277.212	225.306	39.640	307.414	71.654	254.379	258.202	148.065	76.365	327.598	199.170	161.009	276.144	0.00039854	0.00049068	6.3619e-05	617.86	5.4045e-06	6.1254e-06	542.08	202.95	6.026e-06	3.2759e-06	203.97	76.433	73.044	32.905	2.5468e-06	36.775	0.004512	0.007328	0.0021148	686.22	7.703e-05	8.5084e-05	550.51	205.49	7.0975e-05	8.3108e-05	209.78	78.483	76.142	33.925	7.4323e-05	37.804	319.016	115.634	43.575	-14.819	127.225	103.488	-15.775	-9.789	211.351	34.381	-12.367	-7.899	-5.365	-1.264	149.073	-5.037	-8191	255	
3422.359	1	1	0	0	0.23111	0.16723	0.18469	0.38952	0.3056	0.074958	0.016464	0.057175	0.055638	0.064988	0.1313	0.14545	0.10542	0.14038	0.17982	0.13991	-2.1583	-2.5417	-3.1188	-2.2812	-3.0375	-2.6771	-2.4354	-3.2417	-2.5667	-2.4958	-3.2854	-2.3521	-2.9208	-3.0396	-2.3625	-3.3104	-13.782	-19.662	330.953	141.209	283.165	308.748	235.692	269.581	11.396	101.943	250.767	258.660	41.467	-11.658	210.508	-22.569	0.00053379	0.0012108	4.0538e-05	620.13	7.7261e-07	6.4429e-06	540.72	201.27	1.0208e-05	6.9278e-06	202.93	75.318	72.832	32.675	4.7664e-06	35.832	0.0045019	0.0071512	0.0020486	689.76	7.7054e-05	8.4079e-05	547.37	205.14	7.1475e-05	8.1104e-05	207.97	77.372	75.683	33.621	7.288e-05	37.121	312.499	81.041	204.754	-15.462	209.057	179.481	-15.994	-9.521	217.998	263.721	-12.052	-8.122	-5.355	-0.972	161.476	-4.715	-8191	255	
3422.455	1	1	0	0	0.06553	0.14222	0.058263	0.17918	0.059995	0.11526	0.14737	0.22633	0.074879	0.084919	0.041792	0.20853	0.16457	0.10961	0.22513	0.17081	-2.2167	-2.4625	-3.1417	-2.3729	-2.8458	-3.0583	-2.3375	-3.1479	-2.7812	-2.6583	-3.2521	-2.4771	-2.85	-3.2417	-2.1813	-3.3042	217.151	6.571	298.615	125.961	118.667	148.150	12.514	290.555	237.662	276.652	80.271	254.550	-0.006	225.903	-6.372	10.230	0.0005561	7.465e-05	7.0201e-05	614.42	8.3224e-06	1.1217e-05	540.17	201.29	1.6173e-05	3.7689e-06	200.74	74.206	73.732	32.391	5.8196e-06	35.91	0.0044689	0.0071521	0.0019927	683.01	7.4937e-05	8.234e-05	545.04	204.21	6.896e-05	8.0325e-05	206.39	77.097	75.743	33.45	7.1804e-05	37.099	316.512	105.266	216.918	-15.196	117.731	98.543	-16.119	-9.504	122.492	169.459	-12.301	-7.705	-5.299	-1.210	87.005	-5.226	-8191	255	
3422.552	1	1	0	0	0.21744	0.12158	0.091949	0.16658	0.13949	0.12635	0.14541	0.083312	0.17852	0.17028	0.11934	0.23931	0.1121	0.16279	0.20348	0.12677	-2.475	-2.3917	-3.3417	-2.5104	-2.7875	-2.925	-2.4083	-3.1396	-2.9896	-2.3125	-3.2729	-2.4062	-2.5812	-3.1646	-2.2854	-3.0083	14.365	137.342	209.926	227.343	267.759	254.714	20.863	197.282	95.887	303.815	194.776	84.052	302.948	240.512	122.561	134.420	0.00045723	0.00079132	5.128e-05	618.66	1.8167e-06	5.6335e-06	542.28	202.72	9.5956e-06	7.0994e-06	201.77	75.214	73.527	32.422	7.6214e-06	36.419	0.0042779	0.0069623	0.00192	686.01	7.2563e-05	7.8192e-05	546.56	205.12	6.6181e-05	7.567e-05	207.58	77.384	75.813	33.55	6.9179e-05	37.249	-9.808	79.077	155.898	-14.884	80.628	27.711	-15.968	-9.588	133.589	172.715	-12.018	-7.884	-5.338	-1.252	219.970	-4.636	-8191	255	
3422.672	1	1	0	0	0.19653	0.24116	0.19003	0.3203	0.084786	0.35572	0.27616	0.023235	0.060176	0.12108	0.14809	0.12209	0.12247	0.053675	0.088902	0.33097	-2.625	-2.2854	-3.0646	-2.5979	-2.425	-3.1917	-2.4104	-2.925	-3.0125	-2.15	-3.2375	-2.9042	-2.4062	-3.2042	-2.3812	-2.75	191.774	159.185	-1.469	61.772	76.820	179.000	326.346	162.104	122.171	149.604	326.881	-21.614	279.044	-24.025	148.449	311.911	0.00045438	0.000131	0.00026118	620.35	4.2301e-06	9.4744e-07	543.43	202.52	3.8044e-06	4.0612e-06	204.65	76.049	74.254	32.926	6.9496e-06	36.495	0.0042446	0.0066051	0.0018523	681.26	7.1282e-05	7.5919e-05	548.54	206.09	6.4631e-05	7.4731e-05	209.25	77.996	76.168	33.622	6.7821e-05	37.52	303.134	-11.948	28.395	-14.614	139.908	276.169	-16.345	-9.751	-27.301	112.740	-12.515	-8.607	-6.249	-1.515	152.296	-4.885	-8191	255	
3422.768	1	1	0	0	0.059653	0.12829	0.10695	0.15234	0.15298	0.29327	0.063686	0.1927	0.18767	0.23996	0.18557	0.10752	0.14098	0.11929	0.15036	0.21417	-2.6063	-2.25	-3.0771	-2.7812	-2.2833	-3.2979	-2.3854	-2.8396	-3.0875	-2.4542	-3.1188	-2.7979	-2.2313	-3.3208	-2.525	-2.7521	24.453	117.452	271.371	198.753	23.581	33.653	-10.253	270.120	114.642	94.714	301.761	96.964	327.836	297.006	97.136	238.968	0.00044527	0.0003056	0.00023636	622.35	5.9619e-06	1.07e-05	546.3	203.19	7.2411e-06	4.8672e-06	204.35	76.064	73.506	32.621	6.2026e-06	36.417	0.0041547	0.0066431	0.001824	687.49	7.0609e-05	7.4895e-05	551.13	206.11	6.4568e-05	7.5738e-05	209.44	77.758	75.755	33.447	6.9118e-05	37.247	317.647	268.313	41.136	-15.222	216.934	185.084	-15.852	-9.277	179.637	102.131	-11.556	-7.526	-5.101	-1.158	83.171	-4.587	-8191	255	
3422.840	1	1	0	0	0.089463	0.20755	0.34522	0.19634	0.086862	0.089776	0.15889	0.23023	0.013367	0.10952	0.30609	0.27331	0.21361	0.12022	0.18206	0.1967	-2.8583	-2.3354	-3	-3.0812	-2.2958	-3.1146	-2.55	-2.4188	-2.9875	-2.1583	-3.0729	-2.8812	-2.3438	-3.2812	-2.5771	-2.4417	130.470	253.191	-7.145	168.074	139.941	253.103	325.911	53.855	323.853	131.485	323.461	312.541	278.876	222.134	264.964	111.463	0.00036894	0.00082132	0.0002902	630.25	6.0185e-06	6.3e-06	536.39	201.48	9.7321e-06	6.5017e-06	200.5	75.146	72.976	32.389	2.7276e-06	35.656	0.0041129	0.0066442	0.0018178	684.67	7.0638e-05	7.5327e-05	544.1	205.12	6.4632e-05	7.6649e-05	205.79	76.779	75.192	33.27	7.1137e-05	36.776	329.713	54.260	89.327	-14.816	130.881	109.035	-15.805	-9.432	113.533	153.657	-11.692	-7.652	-5.339	-0.972	88.705	-4.732	-8191	255	
3422.936	1	1	0	0	0.093165	0.12427	0.23477	0.11867	0.17445	0.15702	0.22855	0.10958	0.085464	0.16128	0.11066	0.16688	0.22316	0.10557	0.19877	0.22483	-2.8	-2.1437	-2.7687	-2.8771	-2.3583	-3.2458	-2.6771	-2.3646	-3.1958	-2.3521	-2.7833	-3.0646	-2.4354	-3.1271	-2.6562	-2.6771	214.420	135.290	85.005	2.374	138.902	-17.718	230.099	187.165	-26.105	314.634	299.947	252.029	-21.791	177.637	126.678	284.495	0.00046573	0.00077167	7.7507e-05	619.76	4.6729e-06	5.9099e-06	537.1	202.08	8.58e-06	5.4727e-06	200.55	74.063	73.211	32.655	8.156e-06	35.624	0.00414	0.006841	0.0019065	683.74	7.3201e-05	7.5484e-05	542.98	204.36	6.4186e-05	7.7634e-05	205.59	76.472	75.401	33.272	7.1721e-05	36.633	276.727	124.375	245.893	-14.701	123.682	174.809	-16.255	-9.661	186.027	152.018	-11.749	-7.927	-5.656	-1.146	126.211	-4.772	-8191	255	
3423.055	1	1	0	0	0.1799	0.11845	0.37977	0.20697	0.23054	0.053141	0.34255	0.23642	0.2449	0.20856	0.16672	0.12669	0.11601	0.0938	0.13178	0.34255	-2.8646	-2.2833	-2.8479	-2.9	-2.2146	-3.1146	-2.7396	-2.3875	-3.1833	-2.5667	-2.5938	-3.1583	-2.0854	-3.1083	-2.8771	-2.5042	178.133	-27.485	291.345	270.094	259.163	296.450	273.096	257.215	157.332	84.343	25.231	89.444	-25.460	295.760	249.470	274.981	0.00043674	0.00023669	0.00019154	619.67	7.7273e-06	8.7273e-06	539.06	201.66	8.0563e-06	3.6788e-06	201.84	74.705	73.751	32.464	4.3739e-06	35.58	0.0041234	0.0069756	0.0018815	684.18	7.4108e-05	7.7742e-05	545.44	204.67	6.4698e-05	7.8159e-05	206.76	76.771	75.717	33.347	7.0394e-05	36.832	328.050	-27.489	38.692	-14.719	154.016	76.856	-15.709	-9.701	84.998	149.252	-11.711	-7.837	-5.050	-0.788	137.881	-4.829	-8191	255	
3423.151	1	1	0	0	0.12158	0.090393	0.28125	0.083491	0.11987	0.46318	0.07627	0.012689	0.14456	0.25084	0.17481	0.21059	0.2231	0.1468	0.10374	0.13667	-2.9354	-2.5104	-2.5896	-3.2604	-2.3729	-2.9688	-2.95	-2.3396	-3.0812	-2.6104	-2.5292	-3.2667	-2.5875	-2.9562	-3.1688	-2.2542	223.728	21.634	126.016	156.176	160.188	166.363	136.666	211.054	137.662	229.993	51.545	307.521	-26.678	329.477	145.379	253.696	0.00036911	0.00049292	9.5047e-05	626.66	4.5415e-06	4.9238e-06	540.99	201.54	4.1049e-06	9.3729e-06	201.33	75.437	73.506	32.471	1.1695e-05	35.818	0.0040679	0.006774	0.0018581	683.94	7.2802e-05	7.6258e-05	547.77	204.85	6.3798e-05	7.8244e-05	207.73	77.356	75.713	33.438	7e-05	37	330.491	-0.632	32.312	-14.476	142.609	106.310	-16.081	-9.388	284.337	71.015	-11.658	-7.647	-5.471	-0.921	297.321	-4.748	-8191	255	
3423.247	1	1	0	0	0.21101	0.1767	0.29756	0.21409	0.054105	0.24877	0.18358	0.23472	0.15104	0.17749	0.053415	0.082335	0.072541	0.15821	0.08539	0.033752	-2.7771	-2.7062	-2.2292	-3.1375	-2.2292	-2.8292	-3.1083	-2.2562	-3.1479	-2.5917	-2.4125	-3.35	-2.5354	-2.7125	-3.1417	-2.3625	226.691	268.938	320.243	14.695	166.742	74.513	143.266	228.954	56.967	61.336	309.976	-21.188	237.758	329.257	240.923	104.536	0.00048306	0.00040551	0.00018888	632.75	4.2351e-07	2.5666e-06	543.61	203.19	6.4602e-06	4.9385e-06	201.47	74.757	73.143	32.481	2.0228e-06	35.407	0.004062	0.0068646	0.0018828	687.32	7.0433e-05	7.4173e-05	547.85	205.22	6.3412e-05	7.7297e-05	206.65	76.772	75.332	33.169	6.947e-05	36.526	308.210	10.386	62.657	-14.969	103.810	189.461	-15.833	-9.847	171.880	103.657	-11.978	-7.341	-5.681	-0.968	208.902	-5.048	-8191	255	
3423.368	1	1	0	0	0.17048	0.14113	0.24379	0.14284	0.30536	0.061371	0.10468	0.14263	0.22288	0.20584	0.28465	0.076093	0.0074772	0.098046	0.16289	0.29933	-2.5271	-2.9354	-2.5354	-3.0563	-2.4271	-2.625	-3.2354	-2.225	-3.0521	-2.975	-2.2062	-3.2188	-2.7229	-2.5583	-3.3021	-2.1917	301.151	278.514	131.625	24.775	6.553	80.279	4.952	278.329	240.068	267.540	286.088	39.596	74.381	158.989	306.476	243.769	0.00037556	0.0003256	0.00013956	621.74	6.9087e-06	2.4678e-06	538.81	200.94	1.0865e-05	3.2153e-06	199.61	74.699	72.846	32.39	5.5798e-06	35.55	0.0040312	0.0068229	0.0018916	680.56	7.2678e-05	7.4815e-05	543.48	204.13	6.2411e-05	7.6956e-05	204.94	76.497	75.156	33.158	6.8562e-05	36.48	308.957	49.320	73.230	-15.162	109.098	297.147	-15.776	-9.589	169.119	-14.827	-12.031	-7.734	-5.403	-1.133	273.280	-5.099	-8191	255	
3423.440	1	1	0	0	0.091912	0.30322	0.21391	0.12769	0.22875	0.26275	0.17949	0.05872	0.17657	0.21839	0.083252	0.26906	0.19797	0.16875	0.13505	0.080104	-2.6958	-3.0187	-2.2708	-3.3125	-2.6813	-2.5167	-3.3542	-2.3812	-2.8125	-3.0792	-2.3812	-3.2687	-2.9688	-2.4292	-3.1917	-2.4125	213.018	10.172	155.870	252.611	153.826	233.004	234.157	326.369	217.272	254.194	314.319	266.058	315.863	-4.327	306.819	242.620	0.00062879	0.00027891	0.00017478	628.42	2.8432e-06	5.6164e-06	539.6	202.21	6.8319e-06	7.0605e-06	201.59	74.43	72.846	32.39	6.3826e-06	35.562	0.0040245	0.0067709	0.0018606	679.98	7.1097e-05	7.4187e-05	543.73	204.24	6.1542e-05	7.5219e-05	205.94	76.375	75.125	33.138	6.6303e-05	36.667	-24.668	-24.273	8.350	-14.895	115.041	73.667	-16.140	-9.583	183.469	164.252	-11.971	-7.856	-5.451	-1.048	286.006	-4.745	-8191	255	
3423.536	1	1	0	0	0.17573	0.19161	0.071345	0.024992	0.21881	0.17137	0.15827	0.12412	0.17482	0.14465	0.1656	0.01469	0.27323	0.20663	0.049495	0.19604	-2.3354	-3.175	-2.3021	-3.1063	-2.8521	-2.5375	-3.3083	-2.475	-2.7042	-3.2417	-2.3417	-3.2917	-2.9125	-2.1875	-3.1396	-2.5542	326.838	257.433	265.233	81.020	151.503	102.253	279.518	288.363	267.993	94.894	198.637	98.025	-19.780	241.353	332.503	297.919	0.00051555	0.0002606	0.00024426	612.35	5.5881e-06	4.8467e-06	541.65	200.74	4.7933e-06	8.3604e-06	202.44	75.46	73.048	32.508	6.4378e-06	35.792	0.0038956	0.0065664	0.0018183	672.46	6.9512e-05	7.1785e-05	544.18	203.4	6.1194e-05	7.3757e-05	206.94	76.934	75.276	33.395	6.6643e-05	36.991	324.237	23.448	59.113	-14.681	118.395	111.498	-16.048	-9.316	142.687	2.216	-12.112	-7.723	-5.454	-0.594	140.184	-4.771	-8191	255	
3423.632	1	1	0	0	0.4139	0.10427	0.37824	0.078049	0.065339	0.23497	0.17546	0.13944	0.15716	0.084714	0.33033	0.18128	0.22365	0.14695	0.22044	0.16389	-2.2	-3.175	-2.3771	-2.9667	-2.9208	-2.3708	-3.3167	-2.6479	-2.6854	-3.1917	-2.5042	-2.95	-3.0375	-2.3438	-3.2833	-2.8208	326.990	310.812	173.317	276.240	119.141	170.249	274.793	230.765	7.118	192.616	2.245	258.799	306.324	217.952	133.740	245.296	0.00052533	0.00064036	0.00021378	616.44	3.083e-06	3.5417e-06	543.9	199.88	7.9989e-06	4.2519e-06	202.72	75.597	72.912	32.659	1.3067e-05	36.202	0.0040282	0.0066091	0.0018483	675.34	7.0886e-05	7.3612e-05	546.34	203.01	6.1294e-05	7.2696e-05	207.03	77.167	75.126	33.44	6.3561e-05	37.052	311.320	69.565	70.768	-14.770	308.620	116.953	-15.992	-10.008	144.396	74.995	-11.950	-7.366	-5.201	-0.855	162.012	-4.522	-8191	255	
3423.753	1	1	0	0	0.14744	0.060146	0.15986	0.046443	0.25325	0.23197	0.26001	0.19194	0.10135	0.19973	0.085092	0.22677	0.14527	0.17875	0.13583	0.32017	-2.0167	-3.0812	-2.2854	-2.7854	-3.0396	-2.3021	-3.2583	-2.7292	-2.3042	-3.1896	-2.5542	-2.8229	-3.1542	-2.3375	-3.2208	-2.7333	18.766	223.619	156.356	-25.178	219.473	75.028	183.953	209.083	-16.149	190.133	124.528	259.834	110.673	290.458	120.056	221.953	0.00044489	0.0001885	0.00010551	619.7	6.1267e-06	2.1905e-06	540.06	200.44	4.532e-06	9.4116e-06	200.46	75.4	72.737	32.609	4.0386e-06	35.614	0.0038944	0.0062681	0.0018001	671.64	6.793e-05	7.2512e-05	544.31	203.07	6.1186e-05	7.0104e-05	205.67	76.89	75.148	33.397	6.4111e-05	36.685	323.393	51.386	31.781	-15.112	107.482	230.791	-15.581	-9.916	197.962	99.720	-12.119	-7.815	-5.586	-1.132	176.883	-5.069	-8191	255	
3423.849	1	1	0	0	0.17123	0.31672	0.26822	0.24186	0.057012	0.15653	0.34663	0.13287	0.11994	0.10021	0.13365	0.39011	0.15604	0.41472	0.21379	0.15272	-1.9271	-3.1604	-2.5875	-2.7	-3.2188	-2.275	-3.0854	-2.9271	-2.5146	-3.1854	-2.5896	-2.5729	-3.2083	-2.3792	-2.8875	-2.7542	121.164	238.082	147.975	94.021	293.591	139.801	244.908	218.475	116.051	217.180	213.833	296.380	297.345	256.727	254.840	214.764	0.00020652	0.00022692	0.00013107	622.41	3.1482e-06	6.2351e-06	542.27	200.66	5.2081e-06	4.7376e-06	202.18	75.245	72.886	32.561	4.0028e-06	35.788	0.003833	0.0062246	0.0018363	675.03	6.9083e-05	7.3807e-05	544.6	203.73	6.3475e-05	7.3704e-05	206.35	76.991	75.361	33.474	6.6447e-05	36.971	323.032	150.374	137.760	-14.202	139.250	120.227	-15.655	-9.654	105.753	324.597	-12.295	-7.618	-5.399	-1.149	-7.774	-4.684	-8191	255	
3423.943	1	1	0	0	0.11133	0.1158	0.039016	0.026983	0.12698	0.083366	0.20543	0.046438	0.18202	0.13672	0.18438	0.22284	0.17407	0.25288	0.21862	0.24777	-1.9292	-3.3292	-2.5083	-2.675	-3.1646	-2.1729	-3.0312	-3.025	-2.3583	-3.1542	-2.7417	-2.5208	-3.3479	-2.3021	-2.9521	-3.1667	104.367	20.141	2.123	231.769	15.880	35.445	237.920	237.319	291.413	-1.679	322.328	290.253	221.827	-19.718	309.224	269.288	0.00027138	0.00031329	0.00015216	618.63	6.8803e-06	9.5092e-06	538.14	200.17	1.4587e-05	6.2373e-06	200.48	75.441	73.041	32.965	6.3624e-06	36.547	0.0040619	0.0064182	0.0018726	677.87	7.1111e-05	7.67e-05	544.37	203.4	6.3127e-05	7.3141e-05	206.79	77.127	75.524	33.742	6.5769e-05	37.505	313.431	216.617	105.994	-15.161	153.029	148.573	-15.858	-9.578	208.786	141.680	-12.168	-7.381	-5.295	-1.367	319.265	-5.032	-8191	255	
3424.041	1	1	0	0	0.027626	0.095082	0.19038	0.18276	0.15532	0.12599	0.1626	0.23577	0.20678	0.29322	0.36664	0.23447	0.063053	0.24766	0.15976	0.032171	-1.825	-3.0375	-2.6	-2.4854	-2.975	-2.4354	-2.8167	-3.1125	-2.2917	-3.2292	-2.8792	-2.6312	-3.1937	-2.5354	-2.7313	-3.2	8.881	118.129	44.581	5.625	107.462	259.900	327.944	320.834	250.926	-12.477	234.616	236.481	10.832	286.068	109.554	291.813	0.00055999	0.00020377	0.00010286	617.83	5.9042e-06	3.2593e-06	545.54	199.57	8.0745e-06	5.2736e-06	202.52	76.19	73.934	33.296	8.1794e-06	36.754	0.0039619	0.0063495	0.0018898	676.56	6.9366e-05	7.4421e-05	547.55	203.38	6.1783e-05	7.3064e-05	207.55	78.169	75.957	34.13	6.5233e-05	37.944	319.737	84.977	116.226	-14.668	198.818	160.680	-15.788	-9.446	140.892	115.864	-11.672	-7.620	-5.143	-1.212	145.272	-4.556	-8191	255	
3424.135	1	1	0	0	0.21897	0.049178	0.16935	0.12331	0.17557	0.19372	0.18771	0.084964	0.19992	0.079259	0.056992	0.23085	0.13056	0.17269	0.27378	0.040467	-1.9208	-3.0708	-2.9083	-2.3625	-3.1854	-2.7042	-2.8396	-3.2708	-2.3688	-3.0396	-3.1146	-2.4708	-3.2104	-2.7021	-2.6708	-3.25	170.533	2.605	58.203	79.168	85.282	234.695	-7.132	13.460	106.467	201.047	16.598	314.169	77.496	319.205	229.135	251.875	0.00043982	0.00058161	0.00017198	624.2	8.9093e-06	1.5682e-06	548.31	201.1	2.8596e-06	4.9731e-06	204.31	76.942	73.598	33.215	5.1127e-06	36.69	0.004059	0.0063642	0.0018568	678.76	6.8207e-05	7.3972e-05	550.11	204.6	6.2743e-05	7.2747e-05	209.26	78.511	75.933	34.071	6.6945e-05	37.871	313.863	67.252	22.896	-14.488	89.854	175.417	-15.605	-8.996	176.654	88.150	-12.385	-7.455	-5.031	-0.942	330.838	-4.747	-8191	255	
3424.232	1	1	0	0	0.20822	0.10739	0.074918	0.12679	0.12604	0.21787	0.21622	0.24477	0.16659	0.14248	0.070055	0.32998	0.14494	0.17723	0.16299	0.20328	-1.9458	-2.9375	-2.9688	-2.3812	-3.1937	-2.5979	-2.7625	-3.4542	-2.5021	-2.8667	-2.8917	-2.25	-3.0854	-2.7875	-2.4521	-3.3688	245.575	147.232	197.909	146.504	6.280	37.800	227.628	203.107	35.192	52.557	15.066	275.865	4.125	233.909	181.491	106.341	0.0005365	0.00084586	5.8027e-05	624.65	3.5399e-06	6.8635e-06	546.42	201.49	1.2493e-05	3.6183e-06	202.53	76.496	73.448	32.86	4.9391e-06	36.669	0.0040937	0.006491	0.0018936	681.5	6.997e-05	7.7238e-05	550.14	204.03	6.4962e-05	7.4657e-05	207.29	77.819	75.791	33.925	6.729e-05	37.609	309.754	108.315	10.076	-14.390	240.463	140.348	-15.766	-9.601	207.465	121.700	-12.021	-7.533	-5.668	-1.133	213.457	-4.952	-8191	255	
3424.352	1	1	0	0	0.037146	0.045241	0.12338	0.020893	0.2145	0.208	0.22731	0.18779	0.039599	0.16223	0.086068	0.188	0.066575	0.15876	0.2585	0.083921	-1.9458	-2.7313	-2.9792	-2.3063	-3.0792	-2.925	-2.3708	-3.2812	-2.4271	-2.8167	-3.3771	-2.4375	-3.2958	-2.725	-2.3146	-3.3104	313.854	224.352	201.927	0.803	121.869	212.499	295.473	318.206	123.206	29.897	-1.716	310.336	297.932	240.830	315.221	231.953	0.00037486	0.0003439	0.00022645	618.91	3.7744e-06	5.6852e-06	543.44	199.96	4.2099e-06	9.9015e-06	202.59	75.755	73.34	32.953	4.4009e-07	36.53	0.0040551	0.0065469	0.0018696	677.71	6.8895e-05	7.6528e-05	545.77	203.32	6.3317e-05	7.2287e-05	207.32	77.613	75.64	33.903	6.488e-05	37.545	303.762	12.082	115.105	-14.482	54.095	150.889	-15.750	-9.337	204.698	115.688	-11.566	-7.414	-5.348	-0.661	44.618	-4.665	-8191	255	
3424.448	1	1	0	0	0.25031	0.2166	0.20297	0.12238	0.11239	0.042624	0.089521	0.30206	0.054034	0.26534	0.10643	0.41441	0.12102	0.10508	0.022228	0.21017	-2.1521	-2.5438	-3.1479	-2.3187	-2.9958	-2.9771	-2.2833	-3.15	-2.5667	-2.5458	-3.1354	-2.4188	-3.0354	-2.9375	-2.4042	-3.175	317.971	289.932	57.996	-12.049	134.224	139.099	260.119	275.475	72.207	311.903	211.863	244.821	-20.651	69.607	112.980	58.669	0.00056607	0.00035286	0.00017088	617.4	7.1758e-06	4.156e-06	545.28	200.99	1.4908e-05	6.4732e-06	204.01	77.042	74.013	33.139	6.3352e-06	36.782	0.0039991	0.0063176	0.0018054	675.15	6.6873e-05	7.2711e-05	548.61	203.96	6.1594e-05	7.1091e-05	208.43	78.206	75.935	33.943	6.45e-05	37.86	311.250	234.423	32.986	-15.057	189.469	-13.041	-15.635	-9.236	125.253	127.179	-11.980	-7.579	-5.268	-1.005	107.805	-4.949	-8191	255	
3424.544	1	1	0	0	0.1151	0.040552	0.088562	0.22577	0.16373	0.1255	0.29264	0.16417	0.12792	0.048857	0.15997	0.22915	0.33016	0.24463	0.090991	0.16638	-2.1792	-2.5458	-3.1458	-2.2	-2.9667	-3.1396	-2.2792	-3.1896	-2.6562	-2.5521	-3.3688	-2.4688	-2.6937	-3.1437	-2.35	-3.0792	173.364	179.974	220.794	288.512	-13.368	-24.329	194.605	231.804	98.350	186.566	326.168	82.060	23.386	96.257	26.489	120.417	0.00061053	0.0004062	0.00017551	624.05	1.1993e-05	5.8905e-06	548.53	203.11	2.8381e-06	3.0813e-06	205.38	76.711	74.705	33.16	2.0578e-06	37.178	0.0039146	0.006355	0.0017861	681.06	6.8403e-05	7.3973e-05	552.11	205.61	6.3587e-05	7.3227e-05	210.26	78.706	76.678	34.046	6.6957e-05	38.008	326.017	311.004	325.166	-14.425	102.585	186.811	-16.005	-9.774	282.938	128.723	-12.159	-7.525	-5.388	-0.960	-21.915	-4.620	-8191	255	
3424.641	1	1	0	0	0.15931	0.17813	0.10097	0.14112	0.16195	0.047752	0.24224	0.09208	0.15853	0.051917	0.20451	0.14951	0.094124	0.14129	0.17906	0.092534	-2.4437	-2.3937	-3.0667	-2.3771	-2.7125	-3.1667	-2.4062	-3.0479	-2.8604	-2.3458	-3.2188	-2.3958	-2.5563	-3.2396	-2.2729	-3.0708	56.202	49.092	146.314	177.310	154.672	295.968	258.336	130.372	277.422	15.187	180.323	261.305	306.099	185.478	277.962	25.324	0.00067602	0.00049548	7.4301e-05	619	8.4578e-06	4.8635e-06	546.36	202.06	3.6298e-06	2.1776e-06	204.29	76.204	73.941	32.918	7.8176e-06	36.705	0.0040823	0.0065119	0.0018001	683.33	6.8633e-05	7.3621e-05	551.72	205.6	6.3113e-05	7.4095e-05	209.06	78.261	76.192	33.829	6.6444e-05	37.514	302.432	320.734	110.511	-14.964	261.277	303.746	-15.871	-9.429	212.326	205.424	-11.930	-7.848	-5.143	-0.999	179.594	-4.897	-8191	255	
3424.737	1	1	0	0	0.12003	0.074767	0.065896	0.17726	0.516	0.26076	0.089295	0.25685	0.15865	0.27917	0.11333	0.20658	0.20611	0.31285	0.15092	0.22096	-2.5354	-2.2229	-3.2271	-2.6042	-2.7417	-3.1875	-2.5208	-3.0958	-2.8458	-2.4354	-3.3396	-2.7792	-2.45	-3.1646	-2.3083	-2.8979	78.957	170.491	134.900	110.528	289.884	182.280	155.365	284.027	329.719	69.807	194.816	318.900	75.134	289.567	248.853	262.424	0.00047226	0.00046116	0.00017083	616.54	9.98e-06	7.5946e-06	545.62	201.56	9.5655e-06	1.7624e-06	201.65	76.103	73.698	32.774	8.1353e-06	36.282	0.0040089	0.0064761	0.0017844	678.21	6.8642e-05	7.4389e-05	546.63	204.54	6.2147e-05	7.2127e-05	206.66	77.707	75.671	33.722	6.6858e-05	37.311	315.149	-26.163	58.158	-14.864	153.179	139.903	-15.666	-9.233	208.707	203.496	-12.033	-7.825	-5.325	-1.296	145.789	-4.674	-8191	255	
#DATA ENDS
