BOXY.EXE: ISS Imagent and Oximeter Data Acquisition Program Version 0.80
Ascii Record File

#ACQ INFORMATION
2  Detector Channels 
16  External MUX Channels 
1  Auxiliary Channels 
5000  Waveform (CCF) Frequency (Hz)
1  Waveforms Skipped 
30  Waveforms Averaged 
1  Cycles Averaged 
16  Acquisitions per Waveform 
10.0806  Updata Rate (Hz) 

#FILE INFORMATION
TRUE -- External MUX Channel results are PARSED.
FALSE -- AC DC and Phase are NOT grouped.
TRUE -- Companion Program Settings File CREATED.
FALSE -- AC data not excluded
FALSE -- DC data not excluded
FALSE -- Phase data not excluded
FALSE -- Auxillary Chn. data not excluded
Tab delimiters

#CALIBRATION STATE
TRUE -- Waveform Calibration Values APPLIED.


#AUX CALIBRATION VALUES
Val Type	aux-1	

Term	1.0000e+00	
Factor	0.0000e+00	


#WF CALIBRATION VALUES
A = Detector Channel
Val Type	A-AC1	A-AC2	A-AC3	A-AC4	A-AC5	A-AC6	A-AC7	A-AC8	A-AC9	A-AC10	A-AC11	A-AC12	A-AC13	A-AC14	A-AC15	A-AC16	A-DC1	A-DC2	A-DC3	A-DC4	A-DC5	A-DC6	A-DC7	A-DC8	A-DC9	A-DC10	A-DC11	A-DC12	A-DC13	A-DC14	A-DC15	A-DC16	A-Ph1	A-Ph2	A-Ph3	A-Ph4	A-Ph5	A-Ph6	A-Ph7	A-Ph8	A-Ph9	A-Ph10	A-Ph11	A-Ph12	A-Ph13	A-Ph14	A-Ph15	A-Ph16	

Term	0.00000e+00	0.00000e+00	0.00000e+00	0.00000e+00	0.00000e+00	0.00000e+00	0.00000e+00	0.00000e+00	0.00000e+00	0.00000e+00	0.00000e+00	0.00000e+00	0.00000e+00	0.00000e+00	0.00000e+00	0.00000e+00	0.00000e+00	0.00000e+00	0.00000e+00	0.00000e+00	0.00000e+00	0.00000e+00	0.00000e+00	0.00000e+00	0.00000e+00	0.00000e+00	0.00000e+00	0.00000e+00	0.00000e+00	0.00000e+00	0.00000e+00	0.00000e+00	0.00000e+00	0.00000e+00	0.00000e+00	0.00000e+00	0.00000e+00	0.00000e+00	0.00000e+00	0.00000e+00	0.00000e+00	0.00000e+00	0.00000e+00	0.00000e+00	0.00000e+00	0.00000e+00	0.00000e+00	0.00000e+00	
Factor	1.00000e+00	1.00000e+00	1.00000e+00	1.00000e+00	1.00000e+00	1.00000e+00	1.00000e+00	1.00000e+00	1.00000e+00	1.00000e+00	1.00000e+00	1.00000e+00	1.00000e+00	1.00000e+00	1.00000e+00	1.00000e+00	1.00000e+00	1.00000e+00	1.00000e+00	1.00000e+00	1.00000e+00	1.00000e+00	1.00000e+00	1.00000e+00	1.00000e+00	1.00000e+00	1.00000e+00	1.00000e+00	1.00000e+00	1.00000e+00	1.00000e+00	1.00000e+00	X	X	X	X	X	X	X	X	X	X	X	X	X	X	X	X	

B = Detector Channel
Val Type	B-AC1	B-AC2	B-AC3	B-AC4	B-AC5	B-AC6	B-AC7	B-AC8	B-AC9	B-AC10	B-AC11	B-AC12	B-AC13	B-AC14	B-AC15	B-AC16	B-DC1	B-DC2	B-DC3	B-DC4	B-DC5	B-DC6	B-DC7	B-DC8	B-DC9	B-DC10	B-DC11	B-DC12	B-DC13	B-DC14	B-DC15	B-DC16	B-Ph1	B-Ph2	B-Ph3	B-Ph4	B-Ph5	B-Ph6	B-Ph7	B-Ph8	B-Ph9	B-Ph10	B-Ph11	B-Ph12	B-Ph13	B-Ph14	B-Ph15	B-Ph16	

Term	0.00000e+00	0.00000e+00	0.00000e+00	0.00000e+00	0.00000e+00	0.00000e+00	0.00000e+00	0.00000e+00	0.00000e+00	0.00000e+00	0.00000e+00	0.00000e+00	0.00000e+00	0.00000e+00	0.00000e+00	0.00000e+00	0.00000e+00	0.00000e+00	0.00000e+00	0.00000e+00	0.00000e+00	0.00000e+00	0.00000e+00	0.00000e+00	0.00000e+00	0.00000e+00	0.00000e+00	0.00000e+00	0.00000e+00	0.00000e+00	0.00000e+00	0.00000e+00	4.69297e+01	-1.27678e+02	-1.27972e+02	-1.88002e+02	-6.67894e+01	-6.28409e+01	-1.55213e+02	-1.62015e+02	-4.91738e+01	-6.38444e+01	-1.70390e+02	-1.71563e+02	-1.84555e+02	-1.77043e+02	-6.69105e+01	-1.49382e+02	
Factor	5.93376e-05	1.60034e-04	4.50777e-05	6.62379e-01	1.71948e-06	1.64504e-06	1.55997e-01	5.34235e-02	2.61917e-06	1.72808e-06	8.14009e-02	2.71226e-02	2.83956e-02	8.73549e-03	1.91468e-06	1.24596e-02	1.85792e-05	3.14846e-05	8.89000e-06	3.50234e-01	3.36969e-07	3.58884e-07	7.79026e-02	2.84634e-02	3.00588e-07	3.56692e-07	4.20802e-02	1.39855e-02	1.51021e-02	4.71687e-03	3.22088e-07	6.51153e-03	X	X	X	X	X	X	X	X	X	X	X	X	X	X	X	X	



#DISTANCE SETTINGS
A = Detector Channel
A-1	A-2	A-3	A-4	A-5	A-6	A-7	A-8	A-9	A-10	A-11	A-12	A-13	A-14	A-15	A-16	

2.5000e+00	3.0000e+00	2.5000e+00	3.0000e+00	2.0000e+00	3.0000e+00	1.5000e+00	3.0000e+00	3.0000e+00	3.0000e+00	3.0000e+00	3.0000e+00	3.0000e+00	3.0000e+00	1.5000e+00	3.0000e+00	

B = Detector Channel
B-1	B-2	B-3	B-4	B-5	B-6	B-7	B-8	B-9	B-10	B-11	B-12	B-13	B-14	B-15	B-16	

1.0000e+01	1.0000e+01	1.0000e+01	1.4400e+00	1.0000e+01	1.0000e+01	1.5100e+00	1.9400e+00	1.0000e+01	1.0000e+01	1.9900e+00	2.4900e+00	2.4100e+00	2.9000e+00	1.0000e+01	2.9800e+00	




#DATA BEGINS
time	group	step	mark	flag	A-AC1	A-AC2	A-AC3	A-AC4	A-AC5	A-AC6	A-AC7	A-AC8	A-AC9	A-AC10	A-AC11	A-AC12	A-AC13	A-AC14	A-AC15	A-AC16	A-DC1	A-DC2	A-DC3	A-DC4	A-DC5	A-DC6	A-DC7	A-DC8	A-DC9	A-DC10	A-DC11	A-DC12	A-DC13	A-DC14	A-DC15	A-DC16	A-Ph1	A-Ph2	A-Ph3	A-Ph4	A-Ph5	A-Ph6	A-Ph7	A-Ph8	A-Ph9	A-Ph10	A-Ph11	A-Ph12	A-Ph13	A-Ph14	A-Ph15	A-Ph16	B-AC1	B-AC2	B-AC3	B-AC4	B-AC5	B-AC6	B-AC7	B-AC8	B-AC9	B-AC10	B-AC11	B-AC12	B-AC13	B-AC14	B-AC15	B-AC16	B-DC1	B-DC2	B-DC3	B-DC4	B-DC5	B-DC6	B-DC7	B-DC8	B-DC9	B-DC10	B-DC11	B-DC12	B-DC13	B-DC14	B-DC15	B-DC16	B-Ph1	B-Ph2	B-Ph3	B-Ph4	B-Ph5	B-Ph6	B-Ph7	B-Ph8	B-Ph9	B-Ph10	B-Ph11	B-Ph12	B-Ph13	B-Ph14	B-Ph15	B-Ph16	aux-1	digaux	

3489.439	1	1	0	256	0.21099	0.071066	0.023108	0.091467	0.14348	0.098601	0.16406	0.32202	0.036425	0.24557	0.2654	0.14443	0.094033	0.045501	0.071615	0.079541	-2.6104	-2.6063	-2.0979	-3.0479	-2.2646	-2.6312	-3.1625	-2.2167	-2.7646	-2.6875	-2.2417	-3.0146	-2.5646	-2.5479	-3.0354	-2.2104	82.054	56.705	327.707	-14.741	252.892	148.906	315.100	303.171	286.909	153.026	188.104	58.332	35.125	283.031	118.385	157.022	0.00028316	0.0010652	0.00016279	588.14	4.689e-06	4.0112e-06	491.37	185.23	8.078e-06	1.2937e-05	186.62	70.837	66.976	34.895	3.5073e-06	38.785	0.0063384	0.011201	0.0030549	693.83	0.00011781	0.00012077	508.95	192.48	9.986e-05	0.00012464	197.3	74.781	71.501	36.41	0.00011282	40.723	303.019	65.682	-18.044	-14.211	164.890	160.408	-15.155	-8.635	50.653	145.091	-11.450	-7.371	-4.962	-1.673	117.973	-4.829	-8191	255	
3489.535	1	1	0	0	0.1957	0.18687	0.19551	0.321	0.13714	0.32053	0.20331	0.46134	0.12578	0.12652	0.16874	0.13639	0.17461	0.1197	0.19237	0.18606	-2.5583	-2.7062	-2.2604	-3.0458	-2.3458	-2.2354	-3.0083	-2.3125	-2.8792	-2.6688	-2.3542	-3.1188	-2.4979	-2.3354	-3.0729	-2.2292	266.356	38.223	78.130	172.438	156.170	99.741	234.098	214.948	243.468	161.165	269.294	266.177	183.878	-14.695	55.038	176.160	0.00069059	0.00096877	0.00026235	594.51	6.0578e-06	4.3271e-06	494.11	187.27	1.4777e-05	5.9093e-06	188.23	72.185	67.882	35.414	8.0798e-06	39.949	0.0063915	0.011191	0.0031162	698.71	0.00011985	0.00012339	511.44	194.05	0.00010304	0.00012876	200.18	76.16	72.632	37.026	0.00011301	41.702	313.598	101.183	98.619	-14.419	222.618	81.806	-15.303	-8.954	176.197	160.566	-11.467	-7.576	-5.222	-1.190	128.197	-5.377	-8191	255	
3489.631	1	1	0	0	0.26217	0.14009	0.22406	0.073078	0.15036	0.36534	0.20545	0.04208	0.18193	0.21135	0.091739	0.049681	0.097507	0.3061	0.076513	0.090011	-2.2708	-2.7938	-2.0563	-2.9292	-2.4604	-2.2479	-3.1333	-2.2729	-2.6188	-3.0229	-2.0729	-2.9875	-2.5833	-2.2146	-3.1104	-2.4833	9.630	25.969	81.286	208.226	293.937	264.558	105.574	113.839	187.521	132.320	85.540	25.161	11.174	236.733	8.753	11.982	0.00055529	0.00032179	0.00021879	595.09	3.6367e-06	6.4613e-06	502.16	188.65	1.1154e-05	7.201e-06	191.32	73.789	68.01	36.118	5.5243e-06	40.33	0.0065675	0.011319	0.0031382	700.54	0.00012124	0.0001245	519.39	196.47	0.00010354	0.00012689	203.53	77.839	73.349	37.59	0.00011013	42.283	-16.151	186.892	7.638	-14.190	303.242	195.401	-15.338	-8.661	135.868	108.635	-11.451	-7.139	-5.083	-1.460	110.376	-5.220	-8191	255	
3489.727	1	1	0	0	0.10783	0.063997	0.16168	0.1085	0.16901	0.039378	0.23794	0.096791	0.22223	0.32641	0.14207	0.35345	0.12968	0.1846	0.18285	0.17486	-2.0729	-2.9813	-1.9833	-2.9562	-2.85	-2.2521	-3.1437	-2.2042	-2.4292	-3.0208	-2.0438	-2.8229	-2.7354	-2.0833	-3.1375	-2.5312	46.058	177.446	129.534	288.783	228.806	156.710	213.471	124.028	323.159	-7.551	289.531	-23.567	79.821	46.561	38.531	4.198	0.00064338	0.00078286	4.6525e-05	610.44	4.5229e-06	1.4404e-06	500.03	187.48	9.1716e-06	9.2994e-06	190.27	71.979	67.696	35.27	4.8152e-06	39.209	0.0064312	0.010925	0.0030497	703.5	0.00011725	0.00012212	515.61	195.16	9.9731e-05	0.00012118	200	75.727	72.241	36.818	0.00010423	41.133	293.780	291.318	62.690	-13.950	194.041	168.685	-15.046	-8.881	102.737	159.569	-11.299	-7.510	-4.854	-1.437	75.957	-4.950	-8191	255	
3489.848	1	1	0	0	0.19464	0.15002	0.19463	0.25466	0.1453	0.1117	0.12295	0.081348	0.22517	0.16957	0.15422	0.16663	0.11794	0.13187	0.078832	0.059544	-1.9708	-2.9625	-2.2229	-2.8833	-2.9208	-2.1042	-3.0292	-2.5583	-2.3542	-3.0979	-2.4479	-2.7646	-3.0042	-2.2271	-3.2292	-2.6021	225.946	138.633	228.138	278.580	156.750	226.691	-16.699	297.041	296.186	62.866	303.334	303.722	320.629	240.484	78.208	29.102	0.0004705	0.00087849	0.00020772	583.01	4.345e-06	3.0421e-06	494.98	186.82	1.5651e-05	8.1066e-06	187.76	71.815	66.985	35.109	2.9562e-06	39.077	0.0061308	0.010279	0.0029283	685.21	0.00011147	0.00011729	509.74	193.06	9.6647e-05	0.0001135	198.4	75.04	71.331	36.493	9.9959e-05	40.939	301.635	56.070	141.284	-14.614	32.619	144.238	-15.122	-9.036	123.208	158.999	-11.412	-7.449	-5.019	-1.382	108.927	-5.214	-8191	255	
3489.942	1	1	0	0	0.10749	0.30743	0.099404	0.056847	0.29504	0.25116	0.38618	0.048314	0.056802	0.025911	0.28676	0.22541	0.17461	0.090414	0.071999	0.060855	-1.825	-3.0979	-2.3354	-2.7625	-3.1375	-2.2562	-3.0125	-2.9104	-2.0708	-3.075	-2.2604	-2.6312	-3.0479	-2.2417	-3.0625	-2.6646	270.641	163.903	37.317	236.608	186.199	195.539	197.953	174.526	-17.071	290.150	221.679	222.155	80.204	126.328	106.067	150.619	0.00043657	0.000225	0.00017363	586.88	8.1036e-06	6.2176e-06	499.82	187.3	6.8916e-06	4.2326e-06	188.59	72.85	67.951	35.144	1.3923e-05	39.554	0.0060122	0.0099883	0.0028968	683.78	0.0001079	0.00011325	513.59	193.25	9.3551e-05	0.00010965	198.94	75.763	71.636	36.537	9.7299e-05	41.333	-26.063	225.965	71.675	-13.607	122.596	114.402	-15.476	-9.251	133.986	89.277	-11.762	-7.498	-4.683	-1.217	81.465	-4.934	-8191	255	
3490.038	1	1	0	0	0.29933	0.11695	0.17121	0.089255	0.034364	0.24118	0.06521	0.51137	0.10855	0.03113	0.057176	0.095637	0.042434	0.23157	0.2624	0.27155	-1.9312	-3.0125	-2.175	-2.4396	-3.0208	-2.2562	-2.7104	-2.7896	-2.2708	-3.1688	-2.5521	-2.4854	-3.2792	-2.3187	-2.85	-2.8625	216.505	315.221	-8.501	274.874	-20.889	176.516	181.281	6.658	152.869	-9.160	294.867	42.259	329.392	256.037	187.403	205.665	0.00041323	0.00037779	0.00015972	592.35	1.2054e-05	2.6117e-06	503.08	188.57	9.0628e-06	1.4934e-06	192.41	73.721	67.889	35.303	3.109e-06	40.136	0.0058481	0.0094048	0.0027575	685.89	0.00010329	0.00011167	516.77	194.04	9.1757e-05	0.00010739	201.91	76.523	71.958	36.769	9.6358e-05	41.986	321.345	0.319	-9.227	-13.935	85.662	140.011	-14.903	-8.753	129.887	296.495	-11.550	-7.245	-5.094	-1.650	101.749	-4.781	-8191	255	
3490.136	1	1	0	0	0.28182	0.14418	0.11451	0.031835	0.19408	0.083627	0.079902	0.19335	0.12148	0.17793	0.20606	0.20368	0.28964	0.24559	0.16444	0.15612	-1.5021	-3.0208	-2.4938	-2.2917	-3.2521	-2.0896	-2.7896	-2.9146	-1.9604	-3.0146	-2.5625	-2.3104	-3.175	-2.25	-2.5917	-3.0521	238.983	-8.281	26.535	289.976	286.565	-6.322	307.949	131.458	155.473	316.705	-13.870	245.876	34.724	43.564	217.435	128.256	0.00030126	0.00059332	0.00011461	590.28	2.4446e-06	4.9482e-06	507.91	189.17	2.3967e-06	6.9721e-06	192.92	73.738	68.339	35.799	4.3267e-06	39.92	0.0058876	0.0094579	0.0028374	685.9	0.00010267	0.00011141	520.95	195.27	9.2893e-05	0.00010641	202.18	76.706	72.277	37.028	9.6478e-05	41.631	299.526	222.609	281.339	-13.514	308.953	123.484	-14.998	-9.011	308.948	92.831	-11.613	-7.101	-5.038	-1.639	233.611	-5.147	-8191	255	
3490.231	1	1	0	0	0.10455	0.17293	0.13278	0.17112	0.18855	0.20787	0.212	0.094745	0.078187	0.24387	0.16984	0.36187	0.16099	0.26636	0.023593	0.070869	-1.9583	-2.8521	-2.6104	-2.2729	-3.0958	-2.3083	-2.4979	-3.0896	-2.1208	-2.8688	-2.7521	-2.2104	-3.1583	-2.1625	-2.5625	-2.9958	327.401	86.151	310.650	126.330	11.595	64.460	262.422	291.216	167.855	319.436	312.185	-26.172	215.012	293.563	263.399	264.797	0.00055637	0.00059885	0.00023579	587.19	8.0852e-06	1.0711e-05	499.97	187.67	1.3126e-05	6.3483e-06	190.65	71.877	67.811	35.167	6.3284e-06	39.476	0.0058408	0.0092817	0.0027743	683.17	0.00010191	0.00011165	512.52	193.47	9.3024e-05	0.00010646	199.64	75.297	71.737	36.713	9.8336e-05	41.164	291.615	58.006	24.755	-13.655	203.443	181.551	-15.237	-8.986	51.860	96.842	-11.749	-7.176	-4.951	-1.283	254.557	-5.192	-8191	255	
3490.327	1	1	0	0	0.016916	0.16206	0.12061	0.34973	0.15726	0.1731	0.35031	0.24982	0.42895	0.097508	0.18897	0.21567	0.22153	0.25489	0.1168	0.30346	-1.7792	-2.7229	-2.7208	-2.2125	-2.9437	-2.5042	-2.35	-3.1833	-2.1813	-2.7625	-2.9833	-2.1708	-3.2	-2.5646	-2.3792	-3.425	283.079	120.343	23.788	-25.942	36.966	239.189	297.364	265.235	11.623	-17.753	185.557	234.405	-11.765	13.850	125.685	258.864	0.00088679	0.001012	9.6283e-05	584.77	4.9666e-06	5.4723e-06	496.91	186.94	2.1073e-05	5.0473e-06	191.21	72.857	68.562	35.842	5.228e-06	40.175	0.0059696	0.0094539	0.0028564	683.59	0.00010162	0.00011455	510.85	193.76	9.3615e-05	0.00010684	201.26	76.355	72.356	37.259	9.9441e-05	41.925	307.852	77.234	54.581	-14.738	158.063	268.211	-15.138	-8.562	60.320	202.799	-11.643	-7.332	-4.982	-1.351	8.913	-4.877	-8191	255	
3490.423	1	1	0	0	0.098301	0.26247	0.22867	0.23542	0.27706	0.038104	0.13207	0.032699	0.27528	0.12163	0.11274	0.10371	0.050476	0.23407	0.024836	0.11439	-1.9271	-2.6375	-2.8417	-2.0167	-3.0104	-2.5833	-2.2896	-2.9938	-2.0875	-2.6667	-3.1292	-2.2375	-3.0104	-2.8146	-2.1354	-2.9938	294.846	309.070	-5.223	-6.767	240.366	197.262	317.529	319.955	234.826	240.200	82.713	206.143	281.634	235.823	260.454	330.818	0.00053988	0.00091375	0.00017404	591.69	3.9994e-06	3.4251e-06	505.65	189.65	1.3674e-05	8.7119e-06	191.16	73.44	69.193	36.021	9.6686e-06	40.698	0.0059296	0.0093935	0.0027619	684.03	0.0001006	0.00011222	516.62	194.86	9.3449e-05	0.00010809	202.33	77.073	72.639	37.428	9.8575e-05	42.266	303.709	-2.566	20.989	-14.103	167.666	88.649	-15.611	-8.773	126.525	62.070	-11.332	-7.340	-4.608	-1.187	178.018	-5.174	-8191	255	
3490.519	1	1	0	0	0.2528	0.038168	0.10114	0.17548	0.080271	0.32197	0.080426	0.12804	0.25642	0.10647	0.027834	0.21191	0.31778	0.24617	0.2745	0.047756	-1.9979	-2.4292	-2.9062	-2.0312	-2.9458	-2.7833	-2.1708	-3.1125	-2.4875	-2.4313	-3.2104	-2.3563	-2.875	-2.725	-2.2542	-3.0875	102.193	180.015	312.542	308.626	29.048	62.678	154.189	258.419	113.968	43.196	274.539	211.809	296.797	271.961	235.132	208.364	0.00049606	8.6249e-05	0.00023064	584.17	4.757e-06	7.337e-06	511.77	191.91	1.1861e-05	7.0116e-06	194.54	76.142	69.832	36.571	7.5408e-06	41.675	0.0059953	0.0096042	0.0027876	687.11	0.00010249	0.00011559	522	197.22	9.733e-05	0.00011112	205	78.794	73.9	38.142	0.00010193	43.402	-24.023	185.914	13.154	-13.834	54.909	118.393	-15.221	-8.838	223.088	140.297	-11.704	-7.093	-4.695	-1.491	162.259	-5.063	-8191	255	
3490.640	1	1	0	0	0.23025	0.086721	0.25256	0.13926	0.17402	0.25119	0.27043	0.14931	0.10392	0.26826	0.16385	0.10128	0.21787	0.17222	0.099007	0.1661	-1.9771	-2.4792	-2.9813	-2.0271	-2.7208	-2.9562	-2.2708	-2.9688	-2.4729	-2.4313	-3.2521	-2.2396	-2.8083	-2.9875	-2.0687	-3.0646	26.451	276.647	155.389	119.172	98.506	129.078	321.174	305.465	39.256	295.852	311.844	282.655	294.123	267.741	228.864	325.042	0.00064024	3.8698e-05	7.6291e-05	594.41	9.8803e-06	3.1005e-06	508.57	193.46	7.7159e-06	4.3342e-06	197.69	76.042	70.531	37.034	6.1111e-06	41.759	0.0062315	0.0099135	0.00282	696.09	0.00010391	0.00011578	524.9	199.11	9.6282e-05	0.00010996	207.47	79.268	74.474	38.463	9.9764e-05	43.325	-25.348	-9.584	-12.667	-14.066	70.113	138.244	-15.145	-8.778	183.233	193.010	-11.129	-7.300	-4.916	-1.595	68.123	-4.964	-8191	255	
3490.736	1	1	0	0	0.052033	0.26241	0.070903	0.21479	0.36566	0.15621	0.24144	0.25449	0.21994	0.18213	0.33924	0.012678	0.17431	0.081498	0.050631	0.3089	-2.1104	-2.1708	-2.9708	-2.1562	-2.5938	-3.0667	-2.1792	-3.075	-2.7583	-2.2313	-3.1063	-2.5187	-2.5708	-3.1729	-2.0875	-3.0792	312.206	86.844	221.388	254.087	-26.117	-12.611	275.633	295.924	112.550	43.778	246.051	105.772	154.390	315.721	34.230	325.845	0.00046953	0.00017666	8.3335e-05	595.39	1.6307e-06	7.3332e-06	507.36	191.48	1.3257e-05	2.6276e-06	195.7	75.313	70.176	37.015	8.2674e-07	41.585	0.0060201	0.0094846	0.0026848	688.2	9.9317e-05	0.00010917	519.09	197.15	9.2807e-05	0.00010679	204.95	78.55	74.055	38.44	9.9715e-05	43.217	327.938	-3.375	14.572	-14.455	179.799	114.718	-15.440	-8.886	98.616	-4.394	-11.255	-7.133	-4.387	-1.648	52.359	-5.058	-8191	255	
3490.808	1	1	0	0	0.088996	0.24731	0.093351	0.13727	0.057895	0.22355	0.24103	0.10211	0.30269	0.14478	0.15972	0.068369	0.14929	0.20774	0.18832	0.17006	-2.2771	-2.2687	-3.05	-2.3625	-2.6417	-3.2125	-2.3104	-3.0792	-2.9	-2.1979	-3.3458	-2.4437	-2.4854	-3.1646	-2.2417	-2.8271	317.194	135.349	317.632	102.142	100.959	76.072	279.136	74.902	59.389	-26.136	243.816	158.618	289.604	-7.345	16.660	230.215	0.00037269	0.0010525	0.00028237	591.84	1.1155e-06	6.4325e-06	512.5	193.02	1.038e-05	7.7946e-06	197.97	76.315	71.481	37.613	7.2987e-06	42.413	0.006063	0.0097796	0.0027239	691.5	0.00010188	0.00011189	523.81	199.25	9.5728e-05	0.0001101	207.16	80.004	75.13	39.056	0.0001011	43.954	315.368	156.021	33.232	-13.841	323.549	103.040	-15.091	-8.781	106.554	232.972	-11.536	-7.251	-4.412	-1.676	193.212	-4.906	-8191	255	
3490.928	1	1	0	0	0.1199	0.31177	0.058311	0.19778	0.36706	0.084903	0.084614	0.20484	0.054948	0.17335	0.23685	0.13238	0.0043292	0.11356	0.02255	0.19743	-2.5	-2.1979	-2.9562	-2.5333	-2.3917	-3.1437	-2.3917	-2.7562	-2.9521	-2.2042	-2.95	-2.7021	-2.4375	-3.2458	-2.3833	-2.9083	-11.320	205.514	62.789	225.381	269.664	204.567	271.034	251.997	157.028	22.801	-25.690	190.230	248.061	166.894	103.007	309.235	0.00061812	0.00075885	0.00011535	591.62	8.0433e-06	3.8296e-06	513.01	194.03	8.7128e-06	4.9139e-06	198.74	77.08	71.66	37.459	6.2456e-06	42.389	0.006119	0.0098324	0.002705	692.71	0.00010437	0.00011109	526.61	200.32	9.4242e-05	0.00010957	208.43	80.264	75.274	38.989	0.00010025	44.05	292.537	13.349	47.272	-14.138	79.519	120.347	-15.649	-8.564	221.312	116.522	-11.482	-7.130	-4.980	-1.665	106.028	-5.465	-8191	255	
3491.024	1	1	0	0	0.093468	0.069322	0.083424	0.13176	0.19646	0.049428	0.030246	0.14692	0.026253	0.14407	0.079068	0.077076	0.16225	0.17115	0.066412	0.21556	-2.5479	-2.0979	-3.0646	-2.7188	-2.1542	-3.2979	-2.4146	-2.6979	-2.9125	-2.2687	-3.1708	-2.7542	-2.1729	-3.1792	-2.3021	-2.4792	108.128	131.197	306.212	63.853	129.278	69.582	-21.241	328.240	36.200	298.360	293.639	128.336	54.877	295.122	248.121	325.233	0.00048961	0.0011101	0.00013618	593.69	7.9148e-06	1.4521e-06	512.09	193.7	7.5003e-06	2.1279e-06	198.42	77.288	71.444	37.813	1.0062e-05	42.537	0.0059001	0.0094397	0.0026086	691.04	0.00010113	0.00010751	526.52	199.33	9.2494e-05	0.00010807	207.31	80.541	75.42	39.17	0.00010062	44.184	311.013	3.996	206.225	-13.819	328.719	313.774	-15.195	-8.684	87.731	286.835	-11.367	-7.296	-4.908	-1.329	134.793	-4.873	-8191	255	
3491.121	1	1	0	0	0.1061	0.27664	0.31123	0.10938	0.27036	0.19974	0.2038	0.13205	0.39839	0.28393	0.18415	0.2413	0.11926	0.15958	0.18389	0.1596	-2.6958	-2.1521	-2.8021	-2.7625	-2.1437	-3.1167	-2.45	-2.5479	-2.9875	-2.2396	-2.8937	-2.8771	-2.1521	-3.1375	-2.475	-2.4604	115.782	110.354	24.735	58.937	228.178	27.787	161.140	103.378	21.715	73.293	317.142	210.312	122.568	22.929	10.108	141.021	0.00038196	0.00068344	6.1486e-05	590.75	4.6738e-06	3.6241e-06	505.92	194.4	6.7333e-06	1.0544e-05	197.73	76.941	71.769	38.256	7.6828e-06	42.545	0.0059405	0.0097182	0.0026731	689.09	0.00010356	0.00010831	521.78	200	9.3283e-05	0.00011053	206.64	80.455	75.577	39.374	0.0001002	44.182	19.172	127.704	31.735	-13.923	123.476	56.105	-15.117	-8.431	147.813	139.465	-11.338	-7.452	-4.737	-1.319	119.003	-4.992	-8191	255	
3491.239	1	1	0	0	0.011554	0.30359	0.10493	0.082668	0.17111	0.15911	0.31189	0.29284	0.24881	0.32299	0.081718	0.20593	0.1362	0.16592	0.12146	0.2745	-2.7562	-2.2104	-2.8958	-3.0312	-2.1167	-3.1333	-2.5958	-2.3937	-3.1021	-2.4021	-2.6729	-2.9771	-2.1167	-3.0396	-2.5604	-2.4562	173.981	37.086	169.318	217.499	88.602	25.969	270.398	321.123	319.954	224.166	274.833	-4.250	308.350	264.966	244.423	318.790	0.00059298	0.0004452	0.0002646	592.85	3.8592e-06	2.3271e-06	507.22	192.84	8.7171e-06	1.7094e-06	198.67	76.891	71.825	38.254	1.0633e-05	43.132	0.0058223	0.009586	0.0026067	685.71	0.00010198	0.00010464	519.64	198.81	8.7799e-05	0.00010641	207.74	80.563	75.434	39.491	9.7157e-05	44.614	306.251	68.863	43.897	-14.529	50.781	31.875	-15.277	-8.571	193.892	66.671	-11.311	-7.331	-4.787	-1.773	196.536	-5.118	-8191	255	
3491.336	1	1	0	0	0.085672	0.24507	0.1136	0.20488	0.10678	0.096653	0.12479	0.21615	0.051009	0.21923	0.17748	0.22057	0.20414	0.024279	0.075546	0.21039	-2.6958	-2.4188	-2.5917	-2.8625	-2.3417	-3.0167	-2.7646	-2.4875	-3.0792	-2.4167	-2.4604	-3.0458	-2.2917	-2.8	-2.8708	-2.2958	48.068	325.707	311.195	243.994	-17.823	307.257	94.558	255.251	300.652	233.190	304.390	64.246	310.660	62.567	208.350	313.129	0.00062822	0.00068283	9.2811e-05	578.46	2.8648e-06	4.7447e-06	508.69	194.4	3.1659e-06	1.1205e-05	199.84	79.459	72.641	38.889	4.8456e-06	43.93	0.0056375	0.0094843	0.00256	678.28	0.00010087	0.00010447	519.9	200.27	8.8201e-05	0.00010802	209.39	82.339	76.858	40.22	0.00010102	45.52	303.327	52.090	263.069	-14.456	332.873	37.089	-15.552	-8.568	232.884	171.218	-11.436	-7.148	-4.776	-1.428	97.766	-5.070	-8191	255	
3491.407	1	1	0	0	0.1663	0.10646	0.1431	0.03326	0.069899	0.13456	0.24464	0.2526	0.21502	0.2819	0.069722	0.16491	0.16165	0.26422	0.14097	0.19057	-2.6188	-2.3917	-2.4479	-3.1	-2.0979	-2.8729	-2.9771	-2.2854	-2.9854	-2.4938	-2.4979	-3.2667	-2.4271	-2.7896	-2.8729	-2.2375	293.060	224.486	-10.558	19.994	283.517	178.000	237.020	8.046	173.770	144.556	309.510	227.564	284.155	90.083	-12.594	79.734	0.00092261	0.00094162	9.1881e-05	585.71	5.4537e-06	7.7364e-06	506.7	195.67	2.0226e-05	3.7613e-06	201.84	79.983	73.691	39.53	6.9693e-06	44.443	0.0057159	0.0098155	0.0027046	682.25	0.00010322	0.00010567	522.14	201.39	9.1134e-05	0.00011068	211.14	83.091	77.616	40.798	0.0001019	46.104	314.122	94.238	32.873	-14.278	86.772	260.401	-15.324	-8.989	111.408	134.453	-11.284	-7.077	-5.066	-1.365	179.876	-5.048	-8191	255	
3491.528	1	1	0	0	0.084798	0.13991	0.063101	0.089067	0.12087	0.22725	0.14855	0.35817	0.082482	0.084058	0.17267	0.0152	0.051749	0.14835	0.059753	0.18407	-2.8021	-2.6229	-2.3333	-2.9479	-2.4083	-2.7354	-3.0542	-2.1271	-2.875	-2.6792	-2.4396	-3.2521	-2.3333	-2.8042	-3	-2.3729	13.331	81.701	175.078	259.757	301.360	211.533	309.138	229.643	210.818	47.293	145.920	48.837	257.242	3.377	198.198	257.412	0.00045013	0.00014535	0.00021765	589.9	6.4853e-06	7.3633e-06	512.65	196.42	9.0615e-06	4.4222e-06	203.46	80.453	74.011	39.634	4.5893e-06	44.639	0.0057449	0.0098528	0.0026989	684.84	0.00010539	0.00010889	525.77	202.97	9.1005e-05	0.00011121	211.95	83.637	77.576	40.813	9.8995e-05	46.135	315.535	255.175	37.859	-13.887	131.840	71.268	-15.240	-9.351	170.773	38.890	-11.107	-7.279	-5.194	-1.334	64.308	-5.035	-8191	255	
3491.624	1	1	0	0	0.18019	0.20395	0.025429	0.26055	0.065817	0.13121	0.093973	0.21283	0.25687	0.044909	0.07562	0.01325	0.18983	0.052899	0.081706	0.21456	-2.7854	-2.6917	-2.4313	-3.2188	-2.3083	-2.5438	-3.1813	-2.2708	-3.0187	-2.7938	-2.2104	-3.2521	-2.4167	-2.6104	-3.0479	-2.3146	218.632	214.571	327.016	73.220	190.247	255.764	191.588	251.963	186.323	325.752	163.047	14.647	276.921	129.740	64.187	211.552	0.00027981	0.00034837	8.7503e-05	585.45	2.8863e-06	4.3605e-06	508.19	195.97	1.2828e-05	4.612e-06	200.86	80.017	73.718	39.53	1.5428e-05	44.043	0.005711	0.0097185	0.0026567	678.39	0.00010321	0.00010596	521.54	201.51	8.7219e-05	0.00010931	210.26	82.917	77.615	40.778	9.7194e-05	45.903	303.106	85.506	199.564	-13.280	325.589	117.437	-15.238	-8.773	139.126	192.518	-11.484	-7.336	-5.244	-1.596	76.414	-5.160	-8191	255	
3491.720	1	1	0	0	0.42137	0.39364	0.36686	0.11597	0.027739	0.12636	0.24877	0.073056	0.13814	0.12519	0.062175	0.34702	0.10504	0.27369	0.1727	0.14146	-2.5771	-2.9417	-2.2917	-3.4	-2.6833	-2.3583	-3.1813	-2.375	-2.7729	-2.9771	-2.3354	-2.9938	-2.5271	-2.3937	-3.1458	-2.3583	212.700	282.904	171.025	16.515	-24.709	186.463	311.410	285.305	208.495	169.659	24.309	27.428	143.047	-18.929	298.496	-8.890	0.00065243	0.00023645	0.0002544	593.88	7.4791e-06	5.9236e-06	508.18	196.91	6.2357e-06	8.7426e-06	202.26	80.066	73.863	39.529	5.4462e-06	44.647	0.0057065	0.0096994	0.0026902	683.35	0.00010535	0.00010669	519.22	202.37	9.0158e-05	0.0001117	210.81	82.997	77.962	40.981	9.861e-05	46.305	333.057	80.326	2.093	-14.264	181.845	178.834	-14.896	-8.794	58.465	51.352	-11.452	-7.407	-4.939	-1.860	180.516	-5.480	-8191	255	
3491.816	1	1	0	0	0.087083	0.035006	0.12554	0.066263	0.18143	0.11203	0.085453	0.33807	0.22565	0.18613	0.11768	0.19122	0.20975	0.049475	0.096864	0.11258	-2.3875	-2.9938	-2.1396	-3.2958	-2.5271	-2.3312	-3.3083	-2.3917	-2.5708	-3.0979	-2.2958	-3.0042	-2.6708	-2.3667	-3.2542	-2.3688	-11.510	329.226	37.184	22.788	130.124	-17.761	293.583	299.142	-23.146	257.264	4.068	51.446	6.549	12.146	316.623	17.084	0.00038066	0.00038902	0.00010354	591.28	4.0412e-06	7.9708e-06	506.15	197.19	1.1572e-05	3.6846e-06	203.73	81.158	74.93	40.156	1.9669e-06	45.264	0.0059368	0.010028	0.0027882	682.12	0.00010895	0.00011297	520.32	203.43	9.4688e-05	0.00011662	212.8	84.102	79.01	41.575	0.00010319	47.008	-19.291	59.477	16.195	-13.253	209.664	148.686	-15.147	-8.869	154.541	72.708	-11.500	-7.490	-5.142	-1.509	138.725	-5.253	-8191	255	
3491.937	1	1	0	0	0.19465	0.31532	0.039263	0.108	0.13775	0.055109	0.12004	0.14071	0.18843	0.17746	0.19318	0.056084	0.20715	0.18085	0.12692	0.13186	-2.1792	-3.0792	-2.1771	-2.8479	-2.7188	-2.2188	-3.1875	-2.5563	-2.5292	-3.2771	-2.0229	-2.8458	-2.9896	-2.3125	-3.0979	-2.6208	272.476	251.361	79.082	229.655	188.693	-0.759	276.013	272.290	251.122	168.417	134.418	319.961	45.614	212.206	134.589	320.070	0.00055811	0.00088329	0.00021343	587.04	2.5979e-06	6.1199e-06	505.65	198.26	9.0055e-06	1.1338e-05	203.51	81.934	75.277	41.045	7.1107e-06	46.171	0.0061645	0.01059	0.002976	690.9	0.00011658	0.00012004	522.19	205.58	0.0001003	0.00012144	215.44	85.538	80.288	42.493	0.00010998	48.062	314.593	82.896	39.722	-13.766	205.741	239.693	-15.149	-8.969	288.620	127.360	-11.508	-7.426	-4.739	-1.602	52.365	-5.183	-8191	255	
3492.009	1	1	0	0	0.16368	0.16677	0.15292	0.19051	0.32621	0.24271	0.062389	0.10866	0.12653	0.15409	0.25679	0.22786	0.41122	0.16035	0.3294	0.17134	-2.0958	-3.1396	-2.0125	-2.7021	-2.9604	-2.2646	-3.0583	-2.6229	-2.4375	-3.2021	-2.3937	-2.7417	-2.9458	-2.2896	-3.2375	-2.9417	-18.473	160.252	233.180	289.894	323.248	167.489	276.894	262.885	125.808	126.034	-13.475	210.616	324.545	105.430	258.140	99.258	0.00036714	0.00037704	0.0001741	592.91	1.1577e-05	4.2099e-06	508.78	199.72	1.4499e-05	7.3284e-06	203.83	82.217	75.809	40.965	7.2419e-06	45.429	0.0066978	0.011041	0.0031984	699.3	0.00012311	0.00012655	524.94	208.04	0.00010699	0.00012622	216.63	86.039	80.972	42.655	0.00011361	47.775	282.803	68.938	136.739	-13.935	98.978	47.752	-14.881	-9.101	139.142	74.812	-11.110	-7.079	-5.124	-1.667	81.315	-5.268	-8191	255	
3492.105	1	1	0	0	0.066636	0.14839	0.091302	0.10143	0.12308	0.23172	0.38026	0.18853	0.11031	0.077965	0.18919	0.28699	0.26197	0.14816	0.19399	0.033668	-1.8125	-3.1729	-2.4646	-2.5333	-2.9813	-2.325	-3.1125	-2.7771	-2.1354	-3.3333	-2.2604	-2.7458	-3.2104	-2.2875	-3.0583	-2.7917	94.925	0.318	191.674	293.629	6.169	85.729	287.832	43.355	95.699	223.428	146.784	307.491	212.009	297.583	224.986	190.286	0.00091569	0.00019325	0.00028643	580.94	3.1948e-06	7.9129e-06	503.48	198.84	2.9145e-06	4.6864e-06	201.73	80.385	75.154	40.522	1.1658e-05	45.175	0.0069612	0.011287	0.0032933	697.83	0.00012397	0.000129	517.08	206.45	0.00010864	0.00012682	213.23	84.653	80.02	42.251	0.00011455	47.233	306.122	32.051	71.339	-13.869	249.154	129.201	-14.928	-8.590	45.118	209.301	-11.812	-7.498	-5.160	-1.740	178.391	-5.165	-8191	255	
3492.201	1	1	0	0	0.06402	0.22285	0.19309	0.092868	0.19423	0.13912	0.12827	0.25541	0.090455	0.17832	0.10648	0.16182	0.17856	0.2433	0.10994	0.11818	-1.9208	-3.2104	-2.2646	-2.3125	-3.1479	-2.3042	-2.8125	-2.9062	-2.1604	-3.0146	-2.5229	-2.4062	-3.1167	-2.2687	-2.8021	-3.0604	317.647	56.028	100.247	43.486	267.220	260.391	-7.141	148.012	32.874	230.769	165.114	289.077	326.268	99.199	208.700	150.302	0.00050204	0.00045725	0.00012236	592.6	1.1558e-05	1.645e-05	502.08	198.27	1.0962e-05	4.1484e-06	203.36	81.708	75.589	40.74	4.0839e-06	45.416	0.0069029	0.011018	0.0032821	701.67	0.00012368	0.00013136	518.92	206.3	0.00010828	0.00012519	215.42	85.316	80.422	42.478	0.00011412	47.592	298.925	73.843	48.370	-13.519	96.389	199.417	-14.964	-8.922	169.865	211.137	-11.547	-7.542	-4.842	-1.929	150.083	-5.254	-8191	255	
3492.320	1	1	0	0	0.12553	0.066418	0.056142	0.14697	0.24405	0.15085	0.03097	0.066268	0.24045	0.19265	0.30532	0.088403	0.16341	0.21587	0.047606	0.19055	-1.9146	-3.0667	-2.4979	-2.425	-3.1396	-2.3604	-2.9021	-3.0687	-2.3187	-3.0146	-2.65	-2.2604	-3.1937	-2.4896	-2.5667	-2.9729	176.471	7.584	99.018	220.274	218.953	285.164	-24.491	219.446	318.740	61.514	185.473	323.652	198.172	55.145	22.273	286.839	0.00060009	0.00092933	0.00032555	588.95	7.5576e-06	3.2405e-06	503.39	199.08	1.1065e-05	7.543e-06	201.46	81.247	75.921	40.505	4.8713e-06	45.505	0.0068585	0.01108	0.0032823	700.87	0.00012011	0.00013143	520.67	206.79	0.00010881	0.00012466	215.62	85.361	80.195	42.246	0.00011365	47.545	332.726	52.557	322.822	-14.164	178.243	201.351	-15.220	-8.683	112.408	160.005	-11.491	-7.521	-5.526	-1.955	159.592	-5.111	-8191	255	
3492.416	1	1	0	0	0.16075	0.084666	0.1326	0.21574	0.20693	0.36033	0.10247	0.1741	0.13479	0.13317	0.19978	0.20491	0.092059	0.26574	0.037363	0.12571	-1.8667	-2.9021	-2.8917	-2.225	-3.2375	-2.5479	-2.6354	-3.1604	-2.2167	-2.9062	-2.8271	-2.3417	-3.3229	-2.5125	-2.4437	-3.3438	95.351	138.296	234.076	-20.820	30.606	62.435	213.548	269.184	-18.490	249.597	254.720	249.498	29.259	282.063	296.870	-23.778	0.00069348	0.00040813	3.4592e-05	587.01	3.5158e-06	5.6721e-06	506.6	198.95	7.8976e-06	5.3367e-06	203.82	82.263	75.663	40.791	1.062e-05	45.955	0.0068219	0.011075	0.003308	700.32	0.00011824	0.00013068	521.28	206.27	0.00010796	0.00012553	216.08	85.835	80.149	42.39	0.00011457	47.735	316.106	10.492	65.980	-14.316	36.489	137.422	-15.428	-8.611	-22.911	205.278	-11.337	-7.587	-5.124	-1.571	174.937	-4.776	-8191	255	
3492.512	1	1	0	0	0.23173	0.11329	0.15325	0.17454	0.1742	0.28407	0.17977	0.12752	0.26647	0.1076	0.35276	0.17334	0.12067	0.12325	0.031945	0.22551	-1.9438	-2.9104	-2.8937	-2.225	-3.125	-2.4542	-2.4854	-3.1604	-2.2583	-2.8333	-2.9625	-2.2271	-3.2667	-2.5958	-2.2938	-3.2396	36.698	262.473	314.542	178.761	272.866	319.985	293.506	306.717	181.192	181.476	150.275	194.831	66.749	34.167	327.143	304.213	0.00082971	0.0011679	0.00018893	588.33	5.8798e-06	4.1824e-06	502.52	197.58	1.7946e-05	9.4137e-06	201.86	80.598	74.984	40.062	2.2069e-06	44.786	0.0068642	0.011094	0.0032851	700.01	0.0001188	0.00013144	519.67	205.78	0.00010904	0.00012448	214.28	84.545	79.574	42.021	0.0001137	46.88	320.192	71.475	36.315	-13.823	257.735	117.192	-15.367	-8.478	162.180	87.634	-11.613	-7.325	-5.166	-1.679	204.630	-5.077	-8191	255	
3492.608	1	1	0	0	0.30288	0.38489	0.17578	0.13227	0.065308	0.063722	0.037746	0.11076	0.29377	0.25381	0.079402	0.10637	0.18359	0.10148	0.37271	0.20954	-1.9208	-2.7687	-2.9083	-2.2354	-3.0667	-2.6729	-2.3563	-3.0271	-2.3375	-2.725	-3.1646	-2.2667	-3.1	-2.775	-2.1333	-3.1458	210.634	13.172	302.066	202.482	285.217	77.437	45.590	226.619	56.354	293.138	132.513	3.045	206.491	72.919	108.255	227.853	0.00026626	0.00032504	0.00012238	585.26	8.3092e-06	2.5268e-06	498.38	198.41	6.5787e-06	5.8456e-06	203.53	81.003	75.244	40.609	5.8434e-06	45.257	0.0069311	0.010967	0.0032303	696.17	0.00011595	0.0001305	514.38	205.14	0.00010835	0.00012452	213.93	84.732	79.862	42.136	0.00011294	47.196	-19.428	93.522	29.719	-14.113	130.071	309.202	-15.282	-8.621	156.687	224.524	-11.433	-7.193	-4.673	-1.881	224.605	-5.324	-8191	255	
3492.704	1	1	0	0	0.14793	0.03824	0.29517	0.10085	0.22577	0.26667	0.32029	0.068496	0.1228	0.12679	0.25447	0.142	0.25862	0.16896	0.082742	0.039211	-2.125	-2.5708	-2.9729	-2.2542	-3.025	-2.85	-2.2958	-3.2562	-2.6354	-2.4771	-3.1604	-2.3146	-2.8625	-2.9854	-2.2146	-3.0417	220.499	45.986	27.373	195.898	215.334	298.885	310.299	279.123	275.973	43.513	2.830	-2.625	-11.698	332.466	239.484	26.681	0.00053002	0.00080664	0.00017841	594.5	7.442e-06	3.0914e-06	500.85	199.16	1.1331e-05	8.6486e-06	201.56	81.309	75.218	40.45	4.8112e-06	45.427	0.0068445	0.010975	0.0031549	699.01	0.00011583	0.00012963	520.35	205.78	0.00010866	0.00012345	215.04	85.124	79.852	42.182	0.00011409	47.31	321.950	46.673	104.272	-14.129	247.270	72.914	-15.041	-8.520	137.099	111.211	-11.867	-7.422	-5.063	-1.675	210.689	-5.319	-8191	255	
3492.801	1	1	0	0	0.071475	0.16368	0.1058	0.20798	0.15122	0.060905	0.15945	0.089246	0.26324	0.10075	0.088834	0.018749	0.42011	0.13516	0.050845	0.43534	-2.0729	-2.3479	-3.1292	-2.3771	-2.7896	-3.0312	-2.1833	-3.025	-2.6875	-2.4479	-3.2354	-2.4437	-2.7687	-3.1625	-2.1312	-3.1521	42.472	24.275	236.089	54.937	291.340	234.814	257.902	328.129	224.357	-4.793	155.226	274.231	-6.849	324.156	-13.187	317.305	0.00066385	0.00016678	0.00011719	592.38	1.3354e-05	3.8504e-06	500.43	199.41	1.584e-05	6.6126e-06	204.48	81.432	75.201	40.487	1.906e-06	45.265	0.0069496	0.011017	0.0031172	700.27	0.00011579	0.00012756	520.26	205.68	0.00010894	0.00012227	215.45	85.106	79.644	41.976	0.0001127	47.166	-9.167	154.692	128.915	-13.931	188.106	-18.498	-15.010	-8.669	170.596	109.547	-11.264	-7.567	-4.982	-1.666	257.425	-4.992	-8191	255	
3492.921	1	1	0	0	0.15199	0.083263	0.15462	0.065231	0.25512	0.22359	0.22782	0.25118	0.12232	0.18228	0.13774	0.076807	0.11704	0.20997	0.34062	0.17086	-2.475	-2.2521	-3.1458	-2.4771	-2.6042	-3.0625	-2.3979	-3.15	-2.6542	-2.1479	-3.2438	-2.4437	-2.6208	-3.0208	-2.2812	-3.025	34.446	-8.973	156.456	44.918	30.594	319.843	308.710	318.693	169.702	186.898	123.918	-16.569	330.206	279.490	217.759	-16.502	0.00058869	0.00085145	8.7006e-05	586.32	2.1468e-06	6.1801e-06	506.25	198.19	6.8132e-06	5.6833e-06	204.69	81.541	74.786	40.37	4.9055e-06	45.433	0.0068354	0.010796	0.0030609	698.36	0.00011528	0.00012581	523.07	204.78	0.00010923	0.00012223	215.13	85.338	79.365	41.912	0.00011281	47.141	306.569	72.143	117.043	-13.970	-25.035	90.459	-15.279	-8.724	34.862	222.266	-11.480	-7.211	-4.792	-1.818	187.589	-4.511	-8191	255	
3493.017	1	1	0	0	0.13067	0.1125	0.1945	0.15889	0.17506	0.078956	0.2449	0.23784	0.076746	0.20294	0.17172	0.2772	0.17504	0.26491	0.089078	0.10432	-2.3542	-2.1063	-3.0583	-2.4917	-2.6125	-3.2958	-2.3312	-2.8896	-2.8688	-2.1167	-3.2208	-2.5563	-2.7313	-3.1542	-2.3354	-2.975	-5.558	102.720	282.158	124.976	272.154	313.197	325.245	253.018	130.195	64.978	249.240	85.106	254.821	-21.460	98.638	314.676	0.00076286	0.00054789	0.00020361	587.57	4.0136e-06	6.2602e-06	501.52	198.09	1.7801e-05	3.1028e-06	201.14	80.758	74.914	40.234	5.1413e-06	44.582	0.0069091	0.010909	0.0030784	697.35	0.00011616	0.00012578	519.27	205.03	0.0001082	0.00012356	212.33	84.445	79.353	41.792	0.00011435	46.746	285.305	328.695	97.755	-13.302	164.856	96.296	-15.068	-8.547	92.729	203.525	-11.525	-7.575	-5.033	-1.798	251.851	-4.772	-8191	255	
3493.112	1	1	0	0	0.17439	0.2217	0.17814	0.26885	0.1614	0.37649	0.31735	0.25552	0.12948	0.1861	0.16225	0.086307	0.15515	0.17881	0.21385	0.1642	-2.4708	-2.0479	-3.0938	-2.7479	-2.5354	-3.225	-2.4604	-2.8604	-2.9062	-2.1188	-3.2021	-2.4833	-2.4667	-3.1958	-2.1562	-2.85	182.960	231.733	196.568	54.894	90.845	16.061	231.165	293.179	111.838	32.783	281.680	69.782	-10.927	-15.900	241.664	219.688	0.00038924	0.00049929	0.00010754	575.92	8.5813e-06	5.2626e-06	503.96	197.93	1.6037e-05	7.1877e-06	202.56	81.224	75.594	40.641	7.1432e-06	45.502	0.006854	0.011007	0.003032	696.11	0.00011594	0.00012322	520.52	205.08	0.00010738	0.00012406	214.06	85.303	79.995	42.069	0.00011431	47.369	295.798	67.953	11.502	-14.303	97.721	161.190	-14.940	-8.880	177.480	99.008	-11.398	-7.449	-4.784	-1.666	121.950	-5.280	-8191	255	
3493.210	1	1	0	0	0.1891	0.23317	0.15304	0.075254	0.23253	0.22558	0.15057	0.049579	0.13256	0.27188	0.2318	0.24417	0.081369	0.20216	0.25118	0.17339	-2.6542	-2.2542	-2.9208	-2.6458	-2.2417	-3.2229	-2.4104	-2.7271	-3.1792	-2.3	-3.125	-2.8021	-2.2979	-3.1604	-2.3917	-2.6312	-3.473	3.324	124.818	296.507	329.683	168.290	41.159	300.703	311.758	209.568	227.583	168.114	174.468	276.317	246.834	267.049	0.00056678	0.00020896	0.00015053	585.85	3.1844e-06	4.9408e-06	505.39	198.73	9.3876e-06	1.0078e-05	204.08	81.813	75.176	40.791	7.6803e-06	45.494	0.0067557	0.011071	0.0030058	701	0.00011631	0.00012199	522.68	205.86	0.00010608	0.0001249	215.48	85.562	79.978	42.126	0.00011556	47.428	300.850	61.762	27.731	-14.335	66.970	106.479	-14.710	-8.593	89.173	67.141	-11.511	-7.498	-4.914	-1.646	142.061	-5.142	-8191	255	
3493.304	1	1	0	0	0.093886	0.057004	0.12516	0.22937	0.23168	0.25401	0.19357	0.19566	0.22911	0.056218	0.091603	0.30401	0.21985	0.38952	0.20695	0.17687	-2.75	-2.3	-3.0583	-3.0042	-2.2062	-3.3063	-2.5667	-2.4604	-3.1875	-2.4375	-2.9	-2.9188	-2.2583	-3.2375	-2.5292	-2.5667	18.370	193.372	275.414	135.551	-14.213	168.043	113.678	252.099	321.347	168.500	69.325	250.021	29.031	232.950	17.875	310.257	0.00033286	0.00047007	7.6561e-05	587.88	8.9221e-06	7.694e-06	503.88	199.24	5.6379e-06	7.4953e-06	205.35	81.492	75.772	40.518	4.612e-06	45.488	0.0066685	0.010959	0.0030058	696.5	0.00011655	0.00012224	523.13	205.76	0.00010401	0.00012389	215.73	85.561	79.903	42.06	0.00011507	47.648	313.227	157.104	164.260	-14.002	134.030	131.497	-14.784	-8.829	96.379	294.109	-11.536	-7.118	-4.953	-1.763	116.401	-4.663	-8191	255	
3493.400	1	1	0	0	0.23737	0.15432	0.17738	0.094466	0.065877	0.12634	0.071164	0.047014	0.095641	0.075999	0.37587	0.13787	0.31111	0.35373	0.24981	0.18128	-2.7229	-2.2792	-2.8583	-2.9271	-2.2812	-3.2396	-3.0354	-2.5667	-3.0833	-2.3563	-2.7	-3.0958	-2.0854	-3.075	-2.6604	-2.3479	76.898	99.950	208.118	53.418	217.326	203.582	229.068	23.618	31.640	245.436	235.993	-11.231	-5.564	285.754	7.338	235.029	0.00061896	0.00058382	8.5072e-05	590.12	1.081e-05	6.569e-06	504.9	198.55	6.4598e-06	3.7626e-06	204.73	81.268	75.193	40.361	5.4623e-06	45.283	0.0066312	0.011012	0.0030217	698.29	0.00011778	0.0001229	523.36	205.98	0.00010365	0.00012656	214.33	85.175	79.891	41.9	0.00011575	47.131	308.372	82.612	59.289	-14.190	86.768	145.525	-15.230	-8.749	282.461	67.536	-11.639	-7.465	-5.141	-1.541	58.042	-5.167	-8191	255	
3493.496	1	1	0	0	0.1851	0.18307	0.17137	0.29486	0.12694	0.25725	0.13867	0.24774	0.12121	0.12422	0.10118	0.18446	0.14876	0.040353	0.14551	0.11594	-2.6	-2.3021	-2.6063	-3.0083	-2.2	-2.8688	-2.9667	-2.4083	-3.125	-2.3187	-2.4688	-2.9583	-2.2562	-3.1396	-2.7875	-2.2833	0.292	260.979	37.789	12.483	-6.775	274.526	332.884	17.130	268.540	144.247	230.135	294.927	179.159	210.478	53.561	51.139	0.00061574	0.0007888	0.00020692	583.07	4.7691e-06	3.2377e-06	504.03	197.88	8.8397e-06	4.7766e-06	202.4	80.712	75.26	40.513	9.758e-06	45.107	0.0065624	0.011285	0.003033	695.02	0.00011828	0.00012147	518.56	205.06	0.00010175	0.00012935	214.19	84.593	79.733	41.941	0.000116	47.138	309.902	-10.207	70.899	-13.697	136.099	240.240	-15.221	-8.407	119.905	56.773	-11.523	-7.392	-4.780	-1.551	59.422	-5.147	-8191	255	
3493.617	1	1	0	0	0.14505	0.39311	0.16246	0.30738	0.11227	0.30156	0.23561	0.1251	0.11125	0.24956	0.13995	0.20147	0.18019	0.26311	0.104	0.11846	-2.7271	-2.5625	-2.4521	-3.0812	-2.1958	-3.0312	-3.0646	-2.2833	-3.2271	-2.5646	-2.6167	-3.0979	-2.3771	-2.8312	-2.9042	-2.2062	286.553	310.239	240.087	219.940	161.752	32.345	313.396	269.278	295.049	-17.904	306.278	16.025	303.081	-21.158	216.685	209.346	0.00055878	0.00020584	4.0675e-05	581.46	1.2991e-05	4.9953e-06	501.68	199.7	1.022e-05	4.7668e-06	205.04	81.456	76.419	40.601	1.0895e-05	45.727	0.0065511	0.011329	0.0030703	697.88	0.00012058	0.00012245	521.45	206.73	0.00010329	0.00012927	215.42	85.677	80.713	42.325	0.00011698	47.825	318.324	23.980	109.240	-14.252	113.906	67.169	-15.495	-8.586	204.654	87.602	-11.390	-7.401	-5.048	-1.554	85.838	-5.023	-8191	255	
3493.713	1	1	0	0	0.15585	0.21685	0.10012	0.20498	0.34611	0.11659	0.042387	0.1714	0.20965	0.041199	0.12597	0.10524	0.27165	0.31598	0.11278	0.30794	-2.7208	-2.5604	-2.1833	-3.3125	-2.3417	-2.7208	-3.0875	-2.3625	-3.1417	-2.7396	-2.3563	-3.2208	-2.45	-2.6063	-3.1437	-2.2729	214.899	97.013	68.675	54.240	-20.984	312.120	78.545	245.882	174.451	226.172	257.237	-14.989	236.184	-25.195	219.787	286.552	0.00022459	0.0004157	0.00013751	588.26	4.6996e-06	4.038e-06	508.34	200.73	7.662e-06	6.9087e-06	205.76	82.44	76.13	40.911	2.8838e-07	46.114	0.0065538	0.011502	0.0031168	702.64	0.00012317	0.00012605	524.99	208.28	0.00010592	0.0001319	217.03	86.241	80.872	42.498	0.00011669	48.1	304.619	16.124	74.746	-14.239	2.217	142.928	-14.977	-8.390	46.447	143.164	-11.226	-7.817	-5.024	-1.456	265.735	-4.822	-8191	255	
3493.809	1	1	0	0	0.092728	0.056014	0.055951	0.087157	0.033716	0.22344	0.28928	0.10926	0.088823	0.35143	0.15328	0.045537	0.092531	0.062988	0.11098	0.21425	-2.7	-2.8292	-2.2062	-3.225	-2.5104	-2.5938	-3.2938	-2.2104	-2.8833	-2.8333	-2.2771	-3.1833	-2.6729	-2.5021	-3.0125	-2.4854	50.787	38.631	-24.735	5.471	264.565	223.761	264.380	225.145	326.328	0.200	298.862	222.649	30.816	252.942	31.667	290.291	0.00060288	0.00059248	0.00023419	583.08	4.0597e-06	6.3849e-06	505.43	200.02	5.4982e-06	7.2128e-06	206.31	82.236	76.147	41.269	1.9819e-06	46.11	0.0067266	0.01167	0.0032334	698.6	0.00012379	0.000127	525.08	208.22	0.00010413	0.00013155	217.82	86.404	81.007	42.766	0.0001165	47.961	310.710	10.140	67.175	-14.642	-1.869	140.514	-15.277	-8.835	71.626	149.623	-11.724	-7.324	-5.518	-1.508	279.379	-5.089	-8191	255	
3493.905	1	1	0	0	0.27627	0.094241	0.24477	0.11761	0.11961	0.058965	0.10014	0.066082	0.067376	0.13348	0.1674	0.17394	0.1336	0.29112	0.074772	0.036202	-2.5229	-2.9208	-2.2542	-3.0021	-2.7104	-2.5042	-3.3312	-2.2229	-2.8292	-2.9667	-2.3146	-3.1104	-2.7313	-2.4354	-3.2833	-2.2917	274.046	96.042	196.699	118.938	82.912	44.259	278.074	264.563	174.409	125.618	-8.125	-20.835	297.617	254.813	112.238	325.527	0.00035538	0.0002877	0.00014032	594.1	1.2036e-05	2.6812e-06	506.05	198.73	6.9795e-06	7.2663e-06	202.72	81.031	75.602	40.668	5.9333e-06	45.035	0.0066739	0.011556	0.0031641	699.68	0.00012412	0.00012633	521.83	206.26	0.00010445	0.00012894	214.4	84.953	80.235	42.21	0.0001123	47.032	261.227	36.802	36.986	-13.820	106.045	154.528	-15.147	-8.745	196.397	113.369	-11.370	-7.432	-4.809	-1.671	51.195	-4.949	-8191	255	
3494.002	1	1	0	0	0.096868	0.20473	0.14263	0.058521	0.21791	0.091778	0.24991	0.07157	0.15463	0.30245	0.13361	0.16315	0.036321	0.15392	0.19548	0.094674	-2.35	-2.9875	-2.1813	-2.8812	-2.8333	-2.3646	-3.1875	-2.6458	-2.8917	-3.1667	-2.375	-3.0542	-2.9208	-2.3958	-3.1104	-2.4875	80.504	37.666	276.400	234.200	297.210	75.155	238.404	220.657	205.825	157.547	240.759	181.942	-8.798	-23.212	259.317	125.026	0.00070217	0.00056889	0.00014451	580.84	9.4301e-06	6.8804e-06	500.11	198.23	1.4549e-05	5.9782e-06	203.59	81.368	75.264	40.514	5.5466e-06	45.172	0.0066273	0.011239	0.0031371	693.88	0.0001237	0.00012666	517.11	205.66	0.00010498	0.00012791	214.55	84.686	79.999	42.061	0.00011189	47.292	285.285	1.951	10.591	-13.851	195.219	172.888	-15.300	-8.857	178.784	213.335	-11.566	-7.187	-5.472	-1.599	130.097	-5.194	-8191	255	
3494.098	1	1	0	0	0.16907	0.075857	0.083362	0.23594	0.24543	0.042396	0.14631	0.096837	0.30854	0.13873	0.060324	0.14603	0.16749	0.34927	0.3685	0.085999	-2.175	-3.1542	-2.125	-2.8375	-2.9396	-2.3063	-3.1458	-2.5396	-2.3604	-3.2812	-2.2771	-3.0187	-3.075	-2.5229	-3.1667	-2.7146	305.082	188.946	49.234	12.574	105.188	116.573	103.153	257.020	275.199	98.981	126.457	0.419	54.222	-15.376	185.680	32.415	0.00074254	0.00084014	0.00017173	587	5.0963e-06	7.6336e-06	499.83	198.71	7.9241e-06	3.3352e-06	205.39	81.822	75.818	41.035	1.5394e-05	45.812	0.0066147	0.011207	0.0031607	695.55	0.00012289	0.00012771	518.49	206.88	0.00010669	0.0001276	216.03	85.92	80.838	42.65	0.00011369	47.99	332.596	190.896	68.671	-13.901	122.382	170.281	-14.959	-8.674	221.307	81.988	-11.594	-7.453	-4.829	-1.363	95.605	-5.015	-8191	255	
3494.192	1	1	0	0	0.1054	0.044819	0.046073	0.077736	0.087505	0.031932	0.042985	0.13369	0.15387	0.11122	0.23617	0.17748	0.1204	0.25615	0.15409	0.25377	-2.1375	-3.0979	-2.4062	-2.9083	-3.1833	-2.3646	-3.2313	-2.6688	-2.4417	-3.2833	-2.5563	-2.8083	-3.1771	-2.5729	-3.1271	-2.7687	0.030	312.635	256.444	23.350	308.237	151.655	-7.635	217.418	143.369	130.464	314.634	328.365	253.632	323.978	151.456	242.240	0.0007454	0.00053812	0.00030703	583.91	5.5753e-06	8.3615e-06	507.33	199.59	4.3306e-06	6.035e-06	206.45	83.207	77.055	41.466	1.9364e-05	46.243	0.0068038	0.011373	0.0032799	697.76	0.00012613	0.00012968	523.07	207.91	0.00011032	0.00013044	218.7	86.875	81.78	43.016	0.00011579	48.511	309.837	88.621	4.685	-14.510	165.482	31.714	-15.168	-8.614	252.365	73.562	-11.663	-7.275	-5.120	-1.464	123.963	-5.665	-8191	255	
3494.290	1	1	0	0	0.074152	0.13083	0.22989	0.16553	0.25652	0.1361	0.23909	0.18717	0.33235	0.082293	0.14385	0.1633	0.19759	0.32293	0.26043	0.069791	-2.0167	-3.1958	-2.3563	-2.7104	-3.1146	-2.2208	-2.9083	-2.8458	-2.3854	-3.2625	-2.5812	-2.6437	-3.2958	-2.4708	-2.8479	-2.9625	110.101	180.485	52.482	117.412	237.971	258.663	199.367	128.627	207.308	219.899	148.557	243.117	-18.997	293.523	1.612	63.812	0.00078132	0.00034362	0.00012351	588.47	8.6505e-06	6.791e-06	508.53	200.94	5.365e-06	8.1858e-06	205.78	83.113	76.447	41.195	1.1109e-05	46.046	0.0070478	0.011614	0.0033982	707.04	0.00012694	0.00013512	525.22	209.69	0.00011134	0.00012923	218.18	86.832	81.587	42.906	0.00011814	48.126	323.108	239.109	166.768	-13.680	124.515	8.470	-15.217	-8.869	-8.721	108.440	-11.419	-7.345	-4.922	-1.821	170.438	-4.887	-8191	255	
3494.409	1	1	0	0	0.10489	0.091781	0.17916	0.11757	0.12982	0.05657	0.11364	0.023155	0.31833	0.25108	0.15186	0.06497	0.21616	0.071226	0.1532	0.061848	-1.7938	-3.075	-2.3958	-2.4688	-3.2979	-2.3146	-2.9313	-3.0083	-2.2604	-3.1292	-2.7313	-2.7042	-3.4813	-2.5167	-2.7625	-3.1333	198.622	215.537	137.354	60.761	43.274	3.039	278.627	300.538	267.538	175.023	164.183	284.116	332.016	120.831	51.406	135.738	0.00050713	0.00066024	7.8632e-05	590.19	1.3037e-05	7.8972e-06	497.25	199.79	1.1608e-05	9.2159e-06	202.72	80.528	75.766	40.488	1.0356e-05	44.73	0.0071797	0.011516	0.0033879	703.31	0.00012586	0.00013461	515.82	207.03	0.00011187	0.00012897	214.16	84.626	80.488	42.222	0.00011658	47.045	315.307	82.967	57.717	-13.636	130.382	160.671	-14.914	-8.850	60.539	65.300	-11.491	-7.105	-4.855	-1.733	186.699	-5.299	-8191	255	
3494.505	1	1	0	0	0.11314	0.23319	0.017507	0.25762	0.036272	0.20923	0.1067	0.3445	0.13137	0.13398	0.48242	0.20031	0.24933	0.18376	0.14558	0.15732	-1.7604	-3.0062	-2.6042	-2.1854	-3.2542	-2.4625	-2.7875	-3.1	-2.2458	-3.0354	-2.8042	-2.3688	-3.1146	-2.5917	-2.5208	-3.0438	57.458	72.298	330.729	291.181	86.559	-22.629	242.473	279.051	66.756	209.589	328.565	291.566	264.712	207.094	317.997	164.768	0.00065647	0.00055219	0.00018673	588.24	4.9912e-06	8.3567e-06	494.95	197.66	1.6968e-05	3.915e-06	200.24	80.74	75.382	40.817	7.9839e-06	45.116	0.0071214	0.011346	0.0033882	700.35	0.00012318	0.00013575	514.33	206.25	0.00011169	0.00012882	214.18	85.116	80.105	42.408	0.00011693	47.416	322.373	29.559	144.896	-14.061	231.236	181.006	-15.241	-8.787	114.182	8.404	-11.824	-7.148	-5.155	-1.875	131.193	-4.904	-8191	255	
3494.601	1	1	0	0	0.19036	0.29073	0.21645	0.27122	0.098602	0.063366	0.21224	0.22112	0.21172	0.19373	0.021744	0.17838	0.1183	0.31167	0.072416	0.19175	-1.8167	-3.0833	-2.7104	-2.3021	-3.0417	-2.5625	-2.7125	-3.2396	-2.4917	-3.0021	-2.9708	-2.3042	-3.1667	-2.5875	-2.3375	-3.3125	290.489	250.320	65.081	238.368	-11.981	296.576	247.000	1.026	80.530	269.910	279.860	267.015	-24.073	321.024	171.552	225.274	0.00080121	0.00056166	0.00020772	582.41	2.7095e-06	8.5152e-06	499.64	199.23	1.2349e-05	2.4738e-06	202.34	81.905	75.646	40.809	7.8192e-06	45.586	0.0070812	0.011446	0.0033643	700.61	0.00012056	0.00013557	516.92	206.32	0.00011172	0.00012728	215.97	85.622	80.457	42.429	0.00011469	47.739	316.585	95.564	-3.478	-13.292	25.281	165.414	-15.062	-8.761	156.666	58.075	-12.006	-6.953	-5.051	-1.857	70.364	-5.155	-8191	255	
3494.697	1	1	0	0	0.082498	0.11252	0.074589	0.34672	0.031257	0.093325	0.19915	0.047051	0.35678	0.083473	0.062883	0.19539	0.23021	0.26175	0.10425	0.27482	-1.8396	-2.7125	-2.9604	-2.0854	-3.1771	-2.6125	-2.5667	-3.0604	-2.4583	-2.6292	-3.0042	-2.3625	-3.1562	-2.85	-2.4125	-3.1937	5.634	240.180	159.260	218.481	219.319	76.994	223.771	297.821	236.392	229.109	215.427	184.652	-24.986	43.211	183.609	310.764	0.00066705	0.00069677	2.6993e-05	575.4	2.4929e-06	5.9207e-06	497.59	197.46	1.2716e-05	3.8981e-06	202.17	80.269	75.074	40.289	8.0382e-06	44.494	0.0070784	0.010992	0.0032775	696.04	0.00011814	0.00013384	513.99	204.91	0.00011134	0.00012569	213.56	84.512	79.742	41.993	0.00011729	46.587	-1.628	45.927	-26.263	-13.859	46.659	164.066	-15.032	-8.621	106.731	48.963	-11.701	-7.546	-5.141	-1.801	102.707	-5.056	-8191	255	
3494.794	1	1	0	0	0.19331	0.29506	0.21605	0.17202	0.032916	0.074301	0.23084	0.088172	0.12366	0.13857	0.22343	0.13403	0.092628	0.14756	0.14827	0.25784	-1.9083	-2.6083	-3.0208	-2.275	-3.0438	-2.5187	-2.4938	-3.1792	-2.3563	-2.6333	-3.1562	-2.5062	-3.1625	-2.975	-2.2396	-3.3333	228.999	196.049	106.649	239.619	328.172	261.933	258.850	96.484	281.793	-19.689	0.753	240.425	249.857	298.575	27.849	-8.738	0.00052953	0.0009527	0.00010664	574.7	5.1567e-06	1.3002e-05	486.03	194.5	4.1927e-06	1.0787e-05	197.45	79.331	74.837	40.101	1.5288e-05	44.677	0.0071414	0.011319	0.0033371	695.19	0.00012133	0.00013728	504.79	203.41	0.00011416	0.00013047	210.64	83.676	79.468	41.874	0.00011946	46.61	307.670	80.977	177.941	-13.531	203.461	63.526	-15.080	-8.754	130.508	92.241	-11.922	-7.653	-5.181	-2.033	157.153	-4.950	-8191	255	
3494.890	1	1	0	0	0.10864	0.19898	0.16735	0.17854	0.10466	0.17063	0.046211	0.1435	0.080841	0.20787	0.30062	0.11393	0.15177	0.20913	0.097831	0.23329	-2.1646	-2.5646	-3.0563	-2.3042	-2.8438	-2.95	-2.3542	-3.2958	-2.6625	-2.425	-3.3104	-2.2771	-2.9062	-3.1771	-2.2125	-3.3146	211.025	291.605	106.025	75.817	262.282	9.078	265.271	55.937	21.699	317.101	29.103	176.993	241.726	-7.184	240.143	137.666	0.00047346	0.00086553	0.00028117	569.22	1.24e-05	7.3883e-06	492.02	197.46	8.286e-06	6.7516e-06	199.94	80.691	74.825	40.368	4.0139e-06	44.869	0.0072523	0.011469	0.0033121	693.28	0.00012072	0.00013597	509.86	204.49	0.00011243	0.00013028	212.08	84.54	79.518	41.987	0.00011696	46.834	309.026	38.731	102.969	-14.519	132.837	102.558	-15.131	-8.956	251.203	173.053	-11.832	-7.136	-5.034	-1.740	107.582	-5.240	-8191	255	
3495.010	1	1	0	0	0.10035	0.28771	0.23494	0.21052	0.22883	0.12022	0.19744	0.087775	0.30885	0.059306	0.010019	0.28583	0.32057	0.24195	0.12896	0.12564	-2.2833	-2.4479	-3.2104	-2.3875	-2.9646	-3.1063	-2.3708	-3.2167	-2.8479	-2.3229	-3.2667	-2.4792	-2.7104	-3.1063	-2.3542	-3.0687	327.576	100.031	169.408	326.089	72.817	271.717	318.923	330.163	247.373	254.951	137.078	168.101	281.858	328.201	293.983	189.818	0.00087898	5.5734e-05	0.00028336	576.22	6.7005e-06	9.3752e-06	497.01	196.96	5.6845e-06	7.2882e-06	201.83	81.405	75.046	40.155	1.7267e-06	45.166	0.0071152	0.011352	0.0032423	695.32	0.00011919	0.00013332	512.85	204.27	0.00011314	0.00012934	213.17	85.013	79.554	41.878	0.00011706	47.131	293.153	23.136	8.406	-13.849	126.859	206.714	-15.159	-8.483	257.890	156.344	-11.796	-7.529	-4.651	-1.863	105.613	-5.124	-8191	255	
3495.105	1	1	0	0	0.076703	0.19681	0.1404	0.098095	0.31187	0.19614	0.17965	0.15746	0.12805	0.29935	0.20356	0.22239	0.36207	0.16431	0.26747	0.055587	-2.2938	-2.475	-3.2125	-2.4021	-2.6729	-3.0667	-2.5062	-2.9396	-2.8604	-2.2313	-3.3104	-2.4396	-2.6875	-3.1771	-2.2271	-2.9125	200.196	-15.559	272.964	231.044	259.068	138.533	223.545	295.508	217.535	80.447	103.869	323.478	327.545	226.587	263.300	26.003	0.00032398	0.00031754	0.00013775	582.59	6.3374e-06	3.3983e-06	497.38	195.99	1.5978e-05	4.3397e-06	203.02	81.361	75.032	40.273	5.5545e-06	44.916	0.0070752	0.011381	0.0032198	697.69	0.00012061	0.00013218	513.69	203.83	0.00011239	0.00012833	213.77	85.118	79.6	41.811	0.0001194	47.071	296.653	22.188	18.729	-13.976	72.483	84.298	-15.151	-8.706	156.985	331.587	-11.148	-7.520	-4.896	-1.854	216.610	-4.865	-8191	255	
3495.178	1	1	0	0	0.046284	0.032347	0.23926	0.12745	0.24847	0.30625	0.29458	0.092851	0.054668	0.082433	0.094936	0.24385	0.13831	0.21671	0.19236	0.072673	-2.6521	-2.2333	-3.1167	-2.4688	-2.5812	-3.2313	-2.3333	-2.8667	-3.0667	-2.3312	-3.2604	-2.7104	-2.4271	-3.2375	-2.2042	-2.7958	95.916	146.882	106.718	203.527	-10.790	54.970	255.424	255.048	318.021	217.647	293.422	139.574	192.278	-8.638	44.030	34.895	0.00040051	0.0001638	0.00022375	582.79	6.8891e-06	7.562e-06	492.05	194.46	1.5925e-05	7.4931e-06	197.62	79.078	73.782	39.54	1.2089e-06	43.641	0.0070985	0.011415	0.0031183	696.42	0.00011875	0.00013072	509.38	202.08	0.00011138	0.00012781	208.65	82.943	78.205	41.058	0.00011828	45.638	320.169	209.408	39.121	-13.633	228.171	155.861	-15.217	-8.832	133.550	192.039	-11.368	-7.418	-5.207	-1.475	196.115	-5.030	-8191	255	
3495.273	1	1	0	0	0.12627	0.1042	0.18158	0.097151	0.23188	0.11273	0.31062	0.086602	0.12753	0.090638	0.21342	0.111	0.17808	0.27362	0.090572	0.17365	-2.7333	-2.3292	-3.1063	-2.7333	-2.2875	-3.1729	-2.4646	-2.7854	-3.1521	-2.1625	-2.9792	-2.7625	-2.3167	-3.3396	-2.3438	-2.7146	37.489	61.418	35.748	275.562	274.060	227.510	207.984	308.181	271.980	136.726	0.025	207.111	234.583	-12.703	4.019	-21.381	0.0004636	0.00061977	0.00024154	563.42	3.3535e-06	1.4841e-06	479.76	190.8	1.6255e-05	6.5399e-06	193.43	76.885	72.402	38.83	1.8342e-06	42.907	0.0069838	0.011266	0.0031111	682.73	0.00012045	0.00012723	497.69	198.47	0.00010994	0.00012789	204.1	80.978	76.991	40.342	0.00011896	44.823	308.591	96.408	105.303	-13.720	175.337	65.405	-15.366	-8.642	176.334	294.944	-11.491	-7.482	-4.613	-1.771	165.680	-5.247	-8191	255	
3495.393	1	1	0	0	0.077226	0.099291	0.19062	0.10161	0.26412	0.21434	0.12825	0.25625	0.17029	0.052188	0.075769	0.13792	0.13171	0.17608	0.21681	0.037225	-2.5979	-2.1688	-2.925	-2.7667	-2.3646	-3.2146	-2.575	-2.6312	-3.2062	-2.3771	-3.0375	-2.9896	-2.3688	-3.1833	-2.8	-2.6521	147.920	159.993	291.060	102.777	316.499	292.676	131.711	274.192	236.628	100.166	318.684	-23.445	208.305	236.641	-10.219	255.706	0.00042813	0.00022058	0.00024199	562.86	5.505e-06	1.0238e-05	476.64	190.76	8.5091e-06	8.5771e-06	192.27	77.281	72.779	38.976	8.0002e-06	43.486	0.0069391	0.011328	0.003115	685.38	0.00012054	0.0001274	497.07	198.95	0.00011045	0.00012922	204.7	81.57	77.546	40.65	0.00012076	45.495	299.129	250.045	125.141	-14.286	138.289	54.664	-15.153	-8.462	82.984	183.027	-11.407	-7.810	-4.947	-1.648	108.880	-4.985	-8191	255	
3495.489	1	1	0	0	0.099007	0.21665	0.14114	0.12508	0.093066	0.18281	0.11499	0.35235	0.092489	0.14426	0.16313	0.3411	0.11741	0.23635	0.15067	0.15735	-2.8667	-2.3125	-2.9583	-3.0604	-2.4417	-3.1396	-2.7188	-2.5708	-3.1854	-2.2521	-2.7146	-3.0854	-2.4625	-3.2854	-2.6646	-2.4	272.794	182.942	306.387	35.749	36.615	251.252	117.587	333.091	189.788	206.332	266.415	319.463	114.957	289.488	-1.799	288.759	0.00023042	0.00043211	0.00030333	572.45	1.4774e-05	8.7375e-06	479.47	192.7	1.4439e-05	7.695e-06	196.73	79.504	73.919	39.564	7.7454e-06	44.354	0.0070174	0.0116	0.0032127	689.63	0.00012571	0.00012956	501.55	200.42	0.00011064	0.00013292	208.28	83.572	78.709	41.271	0.00012489	46.316	308.846	19.625	34.687	-13.932	203.100	190.556	-15.440	-8.576	159.673	131.765	-11.578	-7.638	-4.850	-1.638	114.228	-5.003	-8191	255	
3495.585	1	1	0	0	0.040815	0.15137	0.074605	0.21026	0.39758	0.032632	0.065644	0.25747	0.1779	0.11676	0.20969	0.25966	0.27426	0.21155	0.099997	0.13495	-2.7313	-2.2521	-2.7687	-2.8937	-2.3771	-2.9458	-2.8896	-2.5167	-3.0625	-2.3625	-2.5854	-3.3583	-2.1813	-3.1021	-2.7854	-2.325	21.153	0.140	221.047	54.797	263.459	260.265	143.339	-4.727	153.182	109.717	276.103	27.529	271.089	6.180	275.126	301.501	0.00057603	0.00017246	0.00020524	579.73	8.1782e-06	1.2183e-05	488.25	194.03	1.2049e-05	8.4999e-06	197.96	79.831	74.075	39.969	7.8214e-06	44.638	0.0071081	0.011992	0.003241	694.47	0.00012805	0.00013105	507.25	202.7	0.00011147	0.00013875	211.22	84.162	79.279	41.628	0.00012573	46.806	283.453	183.626	52.997	-13.642	313.464	138.772	-15.023	-8.966	104.730	71.971	-11.218	-7.067	-4.952	-1.661	18.402	-5.194	-8191	255	
3495.682	1	1	0	0	0.1634	0.090233	0.017763	0.1021	0.018146	0.19024	0.22822	0.29816	0.1361	0.011332	0.28768	0.101	0.13539	0.13476	0.20402	0.1688	-2.8771	-2.3292	-2.4854	-3.1979	-2.125	-2.7646	-2.8667	-2.3292	-3.0979	-2.5208	-2.4417	-3.1813	-2.1083	-3.0062	-2.8937	-2.5771	312.059	33.404	13.393	248.461	-6.733	137.426	196.476	202.836	158.280	323.163	272.801	178.767	300.032	301.897	250.345	254.172	0.0003639	0.00049312	0.00019936	568.65	3.9031e-06	5.7114e-06	480.78	192.9	1.23e-05	8.38e-06	193.41	76.945	73.08	39.193	1.0035e-05	43.043	0.0071808	0.012199	0.0033395	694.16	0.0001307	0.00013391	501.5	201.06	0.00011234	0.00014021	206.78	81.862	77.94	40.904	0.00012631	45.142	325.499	90.499	51.406	-14.528	271.030	60.784	-15.067	-8.661	84.696	52.927	-11.299	-7.211	-4.954	-1.427	57.026	-4.896	-8191	255	
3495.802	1	1	0	0	0.25856	0.15538	0.04329	0.38641	0.31944	0.23558	0.22843	0.24485	0.39178	0.058057	0.094302	0.12705	0.17419	0.24463	0.10397	0.13473	-2.8354	-2.5833	-2.5125	-3.1375	-2.45	-2.7958	-3.1813	-2.1188	-3.0542	-2.7188	-2.4667	-3.3021	-2.5021	-2.7833	-3.1167	-2.3104	294.827	283.667	183.773	35.421	322.407	20.775	247.203	315.455	86.294	156.414	220.884	189.883	5.466	305.159	213.089	-21.892	0.00066331	0.0001484	0.0003668	568.27	6.4434e-06	3.565e-06	472.06	190.45	1.5423e-06	9.7173e-06	191.61	75.995	72.489	38.825	6.915e-06	42.51	0.0072051	0.012258	0.0033507	686.33	0.00012954	0.00013472	491.97	198.78	0.00011123	0.00014032	203.99	80.521	77.394	40.581	0.00012537	44.95	311.117	62.124	8.281	-13.724	118.137	101.436	-15.156	-8.770	95.081	137.060	-11.289	-6.970	-4.654	-1.797	302.534	-5.246	-8191	255	
3495.874	1	1	0	0	0.29491	0.020776	0.21564	0.16326	0.059817	0.074252	0.25015	0.1615	0.094954	0.23214	0.18542	0.041917	0.18499	0.13422	0.088268	0.17486	-2.8583	-2.7792	-2.3417	-2.9208	-2.5354	-2.8271	-3.225	-2.2896	-2.9375	-2.8083	-2.3708	-3.4042	-2.6	-2.6167	-3.0667	-2.2313	258.509	252.417	-13.603	304.523	-2.762	153.730	322.016	193.673	11.345	170.067	323.762	281.271	239.257	260.414	321.522	-15.794	0.00045542	0.0012277	0.00010699	564.68	9.2837e-06	5.2372e-06	474.13	191.11	1.0933e-05	3.9167e-06	192.75	77.068	72.617	39.174	9.3698e-06	43.261	0.007107	0.012359	0.0033997	682.99	0.0001315	0.0001346	495.56	199.67	0.00011164	0.00013962	205.56	81.45	77.637	40.795	0.0001251	45.411	332.427	53.148	51.252	-14.056	192.864	45.842	-14.785	-8.450	160.595	60.602	-11.649	-7.673	-4.733	-1.648	118.365	-5.087	-8191	255	
3495.970	1	1	0	0	0.090146	0.16865	0.12362	0.083465	0.071209	0.1397	0.049768	0.14969	0.14515	0.17173	0.25163	0.14364	0.037671	0.11144	0.18173	0.096181	-2.6021	-2.9229	-2.2833	-3.1417	-2.6333	-2.4	-3.0625	-2.2896	-3.1063	-3.0563	-2.2958	-3.075	-2.7583	-2.4604	-3.2271	-2.4062	135.925	40.432	220.014	312.972	24.945	40.179	212.398	292.858	331.893	236.133	312.525	215.525	300.672	229.499	251.487	7.012	0.00049016	0.0011325	0.00033222	569.24	5.4312e-06	1.0164e-05	484.29	192.16	1.8299e-06	1.1556e-07	195.9	78.418	73.581	39.482	1.0935e-05	44.325	0.0070858	0.012374	0.0034209	688.67	0.00013106	0.00013458	502.58	200.72	0.00011354	0.00014111	209.02	82.561	78.739	41.305	0.00012362	46.374	309.440	-19.912	111.725	-13.700	230.780	158.307	-14.985	-8.549	273.310	105.877	-11.256	-7.768	-5.157	-1.534	126.285	-5.212	-8191	255	
3496.091	1	1	0	0	0.034078	0.18188	0.12009	0.23263	0.017038	0.22398	0.10018	0.021773	0.0066926	0.066262	0.1526	0.19042	0.073816	0.27066	0.4535	0.34447	-2.6208	-3.2375	-2.1958	-3.1312	-2.8312	-2.3229	-3.1854	-2.3917	-2.8125	-3.1542	-2.125	-3.1271	-2.8542	-2.2708	-3.1875	-2.5062	178.150	322.967	272.939	249.184	251.487	302.657	305.164	138.803	301.291	124.595	196.966	266.821	115.328	277.487	298.305	288.722	0.00046202	0.00051226	0.00017801	571	6.3021e-06	3.1831e-06	486.17	194.39	3.6924e-06	1.2135e-05	196.59	78.824	73.589	39.463	1.0068e-05	43.727	0.0072608	0.012536	0.0034495	692.1	0.0001328	0.0001377	507.22	202.35	0.00011132	0.00013819	209.83	83.031	78.654	41.162	0.00011945	45.964	329.365	95.090	288.699	-13.415	151.840	208.661	-14.859	-8.792	51.924	55.515	-11.207	-6.924	-5.173	-1.789	129.309	-5.134	-8191	255	
3496.185	1	1	0	0	0.1357	0.052085	0.092552	0.23837	0.29556	0.2334	0.17772	0.16541	0.16771	0.091787	0.32596	0.25479	0.1005	0.13189	0.25482	0.12782	-2.2958	-3.125	-2.2438	-3.1646	-2.85	-2.4604	-3.2833	-2.6188	-2.7188	-3.1896	-2.3021	-2.9708	-2.8729	-2.4708	-3.1771	-2.5792	62.311	231.744	280.234	284.437	296.990	252.253	195.047	158.178	-8.440	46.879	290.046	-22.734	240.717	-13.512	46.527	-21.505	0.0005403	0.0010638	1.3096e-05	570.15	6.4846e-06	5.5081e-06	476.91	192.31	7.6811e-06	1.5632e-06	194.45	77.57	72.792	38.97	6.5393e-06	43.073	0.0070466	0.011982	0.0033359	683.19	0.00013251	0.00013432	496.21	200.33	0.00011273	0.00013491	205.49	81.692	77.676	40.766	0.00011807	45.296	305.535	318.152	218.519	-13.679	194.113	175.146	-15.225	-8.829	116.887	-26.204	-11.764	-7.548	-5.108	-1.529	52.258	-5.108	-8191	255	
3496.283	1	1	0	0	0.12147	0.15041	0.084759	0.19746	0.18361	0.17348	0.12669	0.13888	0.091431	0.059562	0.26854	0.16356	0.13088	0.41388	0.21127	0.17454	-2.175	-3.2042	-2.3583	-2.9479	-2.9354	-2.0958	-3.2958	-2.7104	-2.3375	-3.4062	-2.2792	-3.0375	-3.1417	-2.2917	-3.2792	-2.6833	215.502	289.224	-17.103	168.611	235.351	58.055	330.669	308.382	37.103	82.095	-23.661	291.056	308.071	3.408	145.948	285.297	0.00048221	0.00057223	6.5187e-05	563.58	3.484e-06	6.8747e-06	479.2	191.08	1.7313e-05	6.4898e-06	193.14	78.431	72.529	39.49	4.3463e-06	43.487	0.007053	0.011865	0.0033566	679.19	0.00012872	0.00013503	495.41	199.96	0.00011157	0.00013254	206.31	82	77.995	40.972	0.00011765	45.583	330.674	295.046	259.073	-14.124	305.687	56.203	-15.005	-8.464	125.798	263.744	-11.621	-7.383	-5.095	-1.690	215.057	-5.428	-8191	255	
3496.402	1	1	0	0	0.3725	0.036137	0.18693	0.16391	0.070376	0.2624	0.12428	0.35617	0.14228	0.16369	0.1495	0.14532	0.12262	0.40569	0.12821	0.20487	-1.8896	-3.1479	-2.3896	-2.6104	-3.0417	-2.3417	-3.1479	-2.6604	-2.3354	-3.1125	-2.5792	-2.8271	-2.9813	-2.25	-3.0458	-2.7917	257.799	131.486	152.446	169.921	145.306	237.936	38.109	332.405	201.145	95.060	325.306	237.629	268.163	263.358	297.274	69.645	0.00057572	0.00028097	0.00016282	567.48	7.2915e-06	4.0305e-06	481.86	192.7	7.0803e-06	4.9434e-06	197.11	79.135	74.086	39.493	3.541e-06	44.462	0.0070835	0.011697	0.0033796	682.53	0.00012987	0.00013568	499.52	201.21	0.00011297	0.00013264	209.17	83.342	78.935	41.37	0.00011999	46.636	331.419	209.217	-0.137	-14.321	47.944	8.872	-15.068	-8.972	221.975	330.101	-11.438	-7.552	-4.918	-1.719	177.174	-5.208	-8191	255	
3496.474	1	1	0	0	0.093223	0.041949	0.20272	0.18607	0.038029	0.18553	0.29962	0.22657	0.30875	0.19469	0.31223	0.50019	0.051519	0.18302	0.061207	0.088487	-1.8875	-3.1979	-2.325	-2.5687	-3.1167	-2.4083	-3.1042	-2.8979	-2.4833	-3.1646	-2.4875	-2.55	-3.1312	-2.2833	-2.7875	-3.0958	-22.671	-16.157	151.889	211.853	74.035	165.137	25.054	65.042	271.530	296.669	291.052	287.301	239.868	291.699	290.247	84.928	0.00067483	0.00092498	0.00014013	574.93	2.5992e-06	3.3679e-06	487.16	194.66	1.35e-05	4.9016e-06	198.72	80.35	74.249	40.094	1.0805e-05	44.9	0.0072709	0.011744	0.0034747	690.14	0.00013118	0.00013791	506.22	203.21	0.00011423	0.00013371	212.43	84.562	79.64	41.904	0.00012028	47.207	301.217	23.161	241.876	-14.043	280.362	6.707	-15.166	-8.855	308.343	12.268	-11.333	-7.104	-4.821	-1.694	74.080	-5.391	-8191	255	
3496.570	1	1	0	0	0.16238	0.12472	0.074714	0.048798	0.11434	0.12809	0.31052	0.09578	0.15036	0.10148	0.027089	0.075395	0.24987	0.25758	0.16561	0.3016	-1.8083	-3.1458	-2.5229	-2.4021	-3.3604	-2.2771	-2.8875	-3.0604	-2.3417	-3.1542	-2.8833	-2.4396	-3.2771	-2.2771	-2.6396	-3.125	110.250	204.994	110.375	286.686	171.395	315.519	295.306	17.097	209.877	284.611	-1.254	290.514	288.200	315.743	99.594	191.865	0.00081091	0.0011364	0.00019919	573.04	1.1392e-05	1.1931e-05	485.29	193.87	9.6883e-06	7.8086e-06	195.6	78.712	73.485	39.62	5.7019e-06	43.796	0.0073744	0.011814	0.0034754	691.07	0.00012803	0.00013836	504.15	202.39	0.00011401	0.0001318	209.84	82.895	78.3	41.239	0.00011839	45.913	-15.366	86.684	54.677	-14.431	97.365	140.674	-14.544	-8.595	173.983	120.171	-11.533	-7.451	-5.163	-1.509	226.028	-5.045	-8191	255	
3496.690	1	1	0	0	0.11738	0.12688	0.06929	0.086926	0.25715	0.20948	0.10486	0.24536	0.22889	0.32789	0.16119	0.24481	0.23479	0.072686	0.11496	0.13643	-1.925	-2.9083	-2.5979	-2.3271	-3.1063	-2.5229	-2.5833	-3.2104	-2.2458	-3.1813	-2.7604	-2.2812	-3.2292	-2.5062	-2.7188	-3.1396	298.678	305.216	277.344	151.975	283.199	189.213	313.278	325.084	251.680	226.217	28.684	180.670	-24.542	79.074	-0.612	49.846	0.0003906	0.00055493	0.0001841	561.74	3.7684e-06	5.6578e-06	476.89	191.93	1.3039e-05	1.7753e-06	194.03	77.684	72.984	39.209	6.0941e-06	43.208	0.007129	0.011399	0.0034255	683.49	0.00012626	0.00013771	495.26	200.08	0.00011335	0.00012994	207.03	81.695	77.847	40.851	0.00011808	45.554	316.325	20.690	70.143	-13.477	284.075	132.880	-14.851	-8.695	58.938	51.519	-11.427	-7.426	-4.878	-1.835	163.973	-4.817	-8191	255	
3496.786	1	1	0	0	0.20258	0.051126	0.25817	0.1241	0.19351	0.25714	0.32522	0.17572	0.2857	0.36422	0.057676	0.12531	0.15524	0.17859	0.17528	0.18333	-1.8729	-2.8708	-2.8688	-2.2062	-3.0563	-2.725	-2.4979	-3.2229	-2.3604	-2.9854	-2.9896	-2.3375	-3.1729	-2.7229	-2.4167	-3.2229	315.762	-26.723	256.349	304.795	53.541	7.238	299.164	249.159	249.466	198.826	237.573	295.291	32.814	7.848	64.980	65.831	0.00052694	0.00081582	0.00010771	567.16	5.2071e-06	7.9523e-06	481.01	191.22	1.0956e-05	3.6929e-06	195	77.525	72.934	39.341	5.7398e-06	43.696	0.0071277	0.011289	0.0033587	684.84	0.00012081	0.00013465	497.81	199.76	0.00011082	0.00012681	207.29	82.053	77.648	40.957	0.00011609	45.78	323.290	114.871	-8.006	-14.461	-8.567	64.227	-14.753	-9.080	130.151	110.806	-11.376	-7.307	-5.115	-1.909	161.436	-5.164	-8191	255	
3496.883	1	1	0	0	0.073226	0.29163	0.15787	0.42783	0.26207	0.23498	0.14454	0.25403	0.38164	0.1315	0.43469	0.14517	0.28647	0.19305	0.21634	0.10561	-1.9229	-2.9021	-2.9792	-2.2125	-3.1979	-2.8042	-2.6542	-3.375	-2.3479	-2.65	-3.1083	-2.4125	-3.0521	-2.6896	-2.4125	-3.4021	158.560	179.014	-9.711	53.514	35.485	65.890	-7.344	-19.914	292.352	184.659	26.420	236.690	329.286	244.622	51.806	308.533	0.00076581	0.0005619	0.00030959	567.46	1.3314e-05	2.4079e-06	488.13	193.63	6.5593e-06	7.1152e-06	199.32	79.163	73.427	39.48	1.2378e-05	44.548	0.0070541	0.011112	0.0033028	685.09	0.00011854	0.00013231	505.13	200.85	0.0001101	0.00012495	209.84	83.072	78.047	41.169	0.00011579	46.374	319.547	125.704	85.851	-13.856	150.418	-9.643	-15.259	-8.993	73.538	134.597	-11.162	-7.314	-4.904	-1.527	145.959	-5.029	-8191	255	
3496.979	1	1	0	0	0.28291	0.10305	0.12209	0.2293	0.11185	0.21706	0.20257	0.20257	0.097948	0.11669	0.26022	0.091304	0.17675	0.10872	0.078469	0.26255	-2.1417	-2.7125	-3.1292	-2.0875	-3.1458	-2.8104	-2.425	-3.1562	-2.7562	-2.6167	-3.2562	-2.4083	-2.8958	-2.9833	-2.3479	-3.1854	167.471	-17.161	220.912	98.801	72.162	130.061	312.966	-17.320	148.146	262.517	284.364	267.757	326.609	221.854	193.414	264.188	0.00058707	0.0010378	0.00035946	570.22	7.0026e-06	3.7e-06	488.23	193.22	6.4075e-06	6.8575e-06	197.41	78.543	73.601	39.22	2.3679e-06	43.764	0.0069358	0.011057	0.003211	684.36	0.00011738	0.00013058	505.48	200.68	0.00010952	0.0001235	208.62	82.493	77.946	40.924	0.00011373	45.748	320.743	162.031	69.832	-14.072	37.256	139.274	-15.468	-8.805	62.664	166.999	-11.572	-7.181	-4.954	-1.566	52.847	-4.849	-8191	255	
3497.099	1	1	0	0	0.12467	0.28753	0.053686	0.14947	0.09733	0.10243	0.20505	0.26971	0.14905	0.087885	0.19729	0.25922	0.10346	0.20488	0.21969	0.046482	-2.3146	-2.6667	-3.1063	-2.2604	-2.7313	-3.0396	-2.5042	-3.3042	-2.5542	-2.5938	-3.1417	-2.225	-3.0833	-3.0625	-2.3375	-3.1125	214.078	57.974	140.159	294.999	99.677	93.808	215.889	308.086	237.138	217.653	115.238	292.395	327.633	111.143	49.841	120.624	0.0003883	0.00043242	0.00016	567.99	1.4891e-06	1.9806e-06	483.19	193.59	1.2889e-05	5.5775e-06	195.33	77.27	73.25	39.026	9.2072e-07	43.226	0.0068419	0.010986	0.0031268	678.3	0.00011485	0.00012905	499.06	199.48	0.00010741	0.00012268	206.04	81.412	77.322	40.536	0.00011099	45.207	276.159	-11.426	19.922	-14.437	18.180	290.793	-14.664	-8.484	104.411	168.582	-11.211	-7.661	-4.665	-1.697	-13.015	-4.914	-8191	255	
3497.169	1	1	0	0	0.19387	0.021572	0.10488	0.094137	0.13131	0.0042147	0.088606	0.085337	0.26369	0.10227	0.10735	0.042397	0.17298	0.20591	0.34479	0.011683	-2.2687	-2.3063	-3.3333	-2.3146	-2.775	-3.1229	-2.3	-3.1146	-2.7438	-2.4083	-3.2333	-2.5958	-2.675	-3.1896	-2.2375	-3.1375	6.572	62.927	188.722	57.637	52.825	240.215	236.463	-6.862	172.584	128.929	144.907	147.541	318.247	321.891	237.917	25.090	0.00067901	0.00052486	0.00023692	560.19	1.1148e-05	2.549e-06	485.69	191.67	1.0889e-05	1.0057e-05	196.61	78.145	73.388	39.011	8.3394e-06	44.067	0.0067938	0.010745	0.0030198	676.6	0.00011244	0.00012504	499.58	198.62	0.00010488	0.00011921	207.58	82.037	77.225	40.613	0.00010831	45.601	331.182	31.501	19.932	-13.632	169.829	303.695	-14.822	-8.396	123.233	163.679	-11.046	-7.244	-4.689	-1.681	168.315	-5.196	-8191	255	
3497.265	1	1	0	0	0.29151	0.18652	0.037109	0.28417	0.16376	0.12708	0.1491	0.27534	0.20295	0.14315	0.19602	0.0176	0.095449	0.22135	0.20487	0.13863	-2.2562	-2.4479	-2.9792	-2.2854	-2.6146	-3.1646	-2.2021	-3.0417	-2.8854	-2.3146	-3.2812	-2.525	-2.3729	-3.2042	-2.35	-3.0563	144.140	-6.036	252.588	321.919	240.923	133.111	299.421	171.861	215.193	74.856	-16.659	-8.737	255.518	174.117	-15.543	-15.670	0.00080618	0.00040812	9.2491e-05	571.84	2.4028e-06	5.9384e-06	485.44	192.95	4.1676e-06	4.778e-06	199.68	79.125	73.427	39.26	1.754e-05	44.081	0.0066302	0.010564	0.0029541	676.95	0.00011295	0.00012287	503.36	199.81	0.00010466	0.00012147	209.17	82.863	77.6	40.858	0.00010969	46.064	317.803	137.561	277.604	-13.917	8.417	-9.089	-15.054	-8.790	115.302	120.996	-11.071	-7.094	-5.068	-1.456	99.130	-4.982	-8191	255	
3497.363	1	1	0	0	0.17854	0.18003	0.16405	0.14798	0.1368	0.27824	0.12836	0.1443	0.075581	0.33321	0.15692	0.18774	0.19754	0.085585	0.12911	0.084602	-2.3833	-2.1083	-3.1917	-2.5229	-2.5167	-3.1583	-2.2917	-2.7792	-3.1458	-2.2646	-3.0271	-2.7646	-2.4042	-3.4354	-2.3063	-2.8854	-23.328	25.103	328.268	267.193	28.757	44.570	219.448	177.322	114.091	96.066	311.097	11.285	-26.430	44.492	241.272	138.913	0.00036298	0.00054572	6.9422e-05	568.65	6.3759e-06	8.134e-06	493.62	194.4	7.2792e-06	3.9062e-06	200.93	80.139	73.746	39.615	9.1766e-06	44.423	0.0066022	0.010669	0.0029293	681.86	0.00011351	0.00012258	509.05	200.97	0.0001046	0.00012215	210.19	83.65	77.971	41.104	0.00011095	46.402	315.863	142.777	-14.593	-13.814	131.648	191.662	-15.076	-8.503	43.632	88.168	-11.519	-7.755	-4.908	-1.830	164.870	-4.845	-8191	255	
3497.482	1	1	0	0	0.14036	0.14922	0.071455	0.074236	0.071303	0.27926	0.1282	0.30167	0.18112	0.026013	0.091032	0.18824	0.058273	0.27965	0.052711	0.24061	-2.7875	-2.2083	-2.8854	-2.6021	-2.4271	-3.0896	-2.3708	-2.6917	-3.1271	-2.1583	-2.9854	-2.75	-2.3354	-3.0479	-2.3563	-2.7229	130.568	57.837	187.345	22.184	233.138	50.356	177.288	298.853	46.785	153.408	216.327	295.538	-6.018	245.102	266.351	306.004	0.00083709	0.00056172	7.6497e-05	573.14	1.1878e-05	7.8984e-06	490.74	193.54	4.7947e-06	6.2759e-06	198.29	79.183	73.154	39.177	4.5729e-06	43.825	0.0066579	0.010644	0.0029449	685.36	0.0001127	0.00011858	506.3	200.11	0.00010327	0.00012065	208.2	82.645	77.287	40.678	0.00010931	45.488	-22.830	120.995	67.478	-13.711	78.728	10.278	-14.966	-8.676	-19.983	124.210	-11.625	-7.382	-4.904	-1.722	120.162	-4.982	-8191	255	
3497.578	1	1	0	0	0.19898	0.12122	0.056322	0.17785	0.11518	0.19763	0.095086	0.10345	0.17686	0.12952	0.17789	0.18029	0.075005	0.19994	0.048762	0.26542	-2.6937	-2.2604	-2.8812	-2.7917	-2.3271	-3.1583	-2.5604	-2.6562	-3.2854	-2.4313	-2.8646	-2.9833	-2.3542	-3.4042	-2.6646	-2.775	145.988	-18.178	316.117	252.474	229.435	143.193	80.713	280.610	286.353	173.006	265.206	-22.200	319.243	249.478	1.823	-24.916	0.00074985	0.00014329	0.00013956	565.43	5.6623e-06	6.3946e-06	487.54	193.27	6.1533e-06	9.7121e-06	196.45	78.383	72.978	39.045	6.5814e-06	43.882	0.006476	0.010465	0.0029125	676.43	0.00011214	0.00011677	502.51	199.99	0.0001022	0.00012139	207.06	82.1	77.376	40.656	0.00011117	45.698	329.495	232.025	327.374	-14.168	150.286	299.404	-15.158	-8.424	97.591	136.785	-11.317	-7.812	-4.822	-1.939	107.996	-4.872	-8191	255	
3497.675	1	1	0	0	0.2528	0.1027	0.15636	0.17344	0.12271	0.061854	0.17391	0.14638	0.14388	0.068255	0.055776	0.15492	0.12483	0.17421	0.092956	0.12287	-2.8104	-2.2812	-2.9562	-3.025	-2.0458	-3.1042	-2.7	-2.2833	-3.0604	-2.575	-2.8958	-3.0167	-2.3688	-3.1854	-2.6417	-2.4604	36.848	76.331	132.840	-10.754	4.082	261.428	226.326	-12.427	332.872	34.529	190.983	-7.864	217.950	315.014	235.263	-21.453	0.00039353	0.00037414	0.0002124	576.42	3.9692e-06	3.6064e-06	489.9	195.04	7.2075e-06	2.145e-06	198.47	79.482	74.046	39.696	1.4459e-06	44.743	0.0064335	0.010895	0.0029379	680.94	0.00011652	0.00012119	505.99	201.76	0.00010432	0.00012628	209.62	83.455	78.357	41.271	0.0001166	46.508	-10.028	284.423	78.448	-14.452	157.806	99.580	-15.298	-8.404	107.598	161.076	-11.229	-7.281	-5.103	-1.774	118.195	-5.365	-8191	255	
3497.771	1	1	0	0	0.31033	0.23286	0.058611	0.19167	0.14752	0.24219	0.07761	0.13169	0.19263	0.11045	0.28028	0.32733	0.41071	0.14871	0.34136	0.17079	-2.9125	-2.4146	-2.6542	-3.0271	-2.2229	-3.0708	-2.8292	-2.2979	-3.1562	-2.4479	-2.7167	-3.1063	-2.3167	-2.95	-3.0354	-2.3375	275.209	259.694	87.961	169.642	18.812	145.678	258.390	179.173	-3.865	112.301	281.653	224.530	328.710	248.687	6.002	103.568	0.00063626	0.00085353	4.3841e-05	578.15	8.4187e-06	1.9497e-06	491.38	193.9	3.9696e-06	2.5625e-06	200.03	79.608	73.576	39.718	1.0719e-05	44.442	0.0065683	0.011267	0.0030725	687.26	0.00011867	0.00012253	509.48	202.2	0.0001033	0.00012719	210.6	83.518	78.495	41.212	0.00011501	46.412	323.497	41.353	215.713	-14.499	26.841	192.511	-15.128	-8.680	58.787	50.172	-11.164	-7.192	-4.482	-1.743	92.132	-5.030	-8191	255	
3497.867	1	1	0	0	0.11203	0.12131	0.12887	0.23637	0.041104	0.21929	0.20154	0.21273	0.061571	0.12113	0.054682	0.25883	0.08406	0.12092	0.064063	0.24599	-2.6854	-2.5438	-2.6042	-2.9729	-2.2521	-2.9417	-3.1875	-2.4562	-3.1813	-2.6646	-2.5938	-3.1937	-2.3083	-2.8833	-3.0917	-2.3958	327.186	63.581	277.410	266.430	219.418	14.111	167.604	201.528	25.938	98.747	54.458	-18.440	278.625	330.776	310.204	266.008	0.00041045	0.00049467	0.00018645	580.95	7.1105e-06	3.2885e-06	494.29	195.05	1.3545e-05	4.4406e-06	201.76	79.395	72.819	39.283	1.1058e-05	44.055	0.0064994	0.011284	0.0030703	684.9	0.00011661	0.00012027	512.12	202.11	0.00010224	0.00012577	211.2	83.135	77.788	40.876	0.00011478	45.995	-23.307	17.011	25.779	-13.437	170.650	-10.642	-15.171	-8.680	145.105	162.058	-11.466	-7.359	-4.902	-1.557	133.222	-4.894	-8191	255	
3497.963	1	1	0	0	0.18693	0.17708	0.12621	0.11392	0.2006	0.28928	0.13146	0.22836	0.03465	0.038984	0.25295	0.25982	0.21181	0.12352	0.15743	0.23993	-2.825	-2.7562	-2.3125	-3.0021	-2.3438	-2.6312	-3.0312	-2.3187	-2.8833	-2.7125	-2.3042	-3.2375	-2.3333	-2.8542	-2.9958	-2.4521	222.530	242.726	57.237	81.936	280.999	236.155	68.296	281.288	281.776	50.277	18.111	213.787	79.952	104.870	321.242	270.399	0.0005263	0.00042235	0.00015375	569.38	8.8315e-06	8.2267e-06	483.55	191.73	6.3034e-06	3.9265e-06	195.38	77.106	72.27	38.379	6.8787e-06	42.647	0.0063974	0.010946	0.0030505	678.02	0.00011634	0.00012006	503.88	199.19	0.00010003	0.00012425	205.98	80.682	76.505	40.069	0.00011113	44.629	309.669	133.441	91.561	-13.460	233.749	299.532	-14.816	-8.639	268.698	64.287	-11.008	-7.384	-4.534	-1.857	186.581	-4.935	-8191	255	
3498.084	1	1	0	0	0.18473	0.1189	0.18195	0.27658	0.078205	0.046615	0.26379	0.15421	0.14278	0.15708	0.10405	0.19752	0.10927	0.043989	0.35405	0.10422	-2.6146	-2.8208	-2.425	-3.1375	-2.225	-2.8271	-3.1646	-2.2708	-2.9896	-2.8104	-2.3646	-3.225	-2.5104	-2.5604	-3.1375	-2.3	37.905	62.679	102.849	144.111	178.232	-4.297	241.076	267.477	326.792	176.194	-2.170	210.922	-8.029	101.149	269.514	167.223	0.00044646	0.0003545	0.00014869	563.59	5.6341e-06	4.6206e-06	482.06	192.34	1.512e-05	5.132e-07	194.76	77.158	71.959	38.681	1.0912e-05	43.027	0.0063532	0.011129	0.0030719	673.01	0.00011746	0.0001223	499.92	199.23	0.0001035	0.00012693	206.2	80.79	77.017	40.246	0.00011426	44.919	303.779	121.547	119.663	-13.450	113.579	43.892	-15.221	-8.908	236.388	49.864	-11.138	-7.226	-5.041	-1.642	159.829	-5.118	-8191	255	
3498.180	1	1	0	0	0.20087	0.1677	0.26415	0.076833	0.0022643	0.038725	0.18546	0.26352	0.33742	0.065905	0.18992	0.21984	0.091655	0.16349	0.10306	0.1252	-2.6146	-2.8792	-2.3167	-3.1979	-2.55	-2.6271	-3.1312	-2.2208	-2.9875	-3.1521	-2.3729	-3.1562	-2.6437	-2.6625	-3.2729	-2.3312	263.477	-23.698	326.168	81.222	179.757	312.958	240.509	233.077	2.439	63.896	31.092	287.586	136.503	284.720	-12.660	246.275	0.00064828	0.00049668	0.00015448	566.54	4.7572e-06	7.4426e-06	481.27	192.22	6.6042e-06	7.2266e-06	194.88	77.871	72.755	38.931	7.5788e-06	43.702	0.0066223	0.01149	0.0031297	674.95	0.00012057	0.0001242	501.09	200.01	0.0001032	0.00012985	206.8	81.541	77.49	40.601	0.00011344	45.675	293.782	106.891	65.515	-13.544	80.705	133.694	-14.853	-8.506	123.100	87.366	-11.121	-7.224	-5.243	-1.374	180.665	-5.132	-8191	255	
3498.274	1	1	0	0	0.27936	0.12948	0.089137	0.40309	0.18098	0.15296	0.16613	0.10457	0.054194	0.30171	0.27632	0.17203	0.2079	0.2245	0.1736	0.2697	-2.4979	-3.0167	-2.2979	-2.9479	-2.6125	-2.4875	-3.1708	-2.6813	-2.6937	-3.075	-2.2542	-3.1729	-2.9979	-2.4125	-3.1792	-2.4208	207.035	163.582	70.287	176.978	38.152	71.163	224.766	237.492	217.464	284.481	302.253	262.520	8.065	4.197	279.012	240.245	0.00044533	0.00098653	4.2819e-05	574.25	8.1481e-06	1.1709e-05	488.35	195.78	1.1662e-05	1.0436e-05	197.16	79.351	73.135	39.316	5.2627e-06	44.331	0.006628	0.011502	0.0031356	682.03	0.00012295	0.00012679	506	202	0.00010362	0.0001286	210.12	82.934	78.113	40.942	0.00011253	46.184	-14.196	39.494	295.852	-13.980	154.290	170.944	-14.804	-8.697	186.711	91.762	-11.211	-7.169	-5.200	-1.617	254.435	-4.721	-8191	255	
3498.370	1	1	0	0	0.068209	0.1391	0.0052228	0.034264	0.1598	0.11285	0.19246	0.013847	0.15931	0.14274	0.2358	0.0682	0.26307	0.2198	0.14374	0.093462	-2.325	-3.1479	-2.1667	-2.9	-2.8625	-2.3396	-3.3563	-2.6562	-2.5625	-3.0792	-2.3875	-2.9542	-3.025	-2.3479	-3.0417	-2.5167	161.461	257.792	-0.119	71.230	162.454	73.919	230.876	96.707	181.199	167.077	298.793	40.679	-21.723	302.089	92.089	151.023	0.00053373	0.0009565	0.00030618	575.74	3.039e-06	5.1081e-06	488.44	193.19	8.9176e-06	4.2275e-06	196.16	78.835	72.342	38.715	1.5757e-05	43.289	0.0066186	0.011177	0.0031986	684.48	0.00012189	0.00012435	506.19	200.93	0.0001028	0.00012445	207.82	81.878	77.115	40.348	0.00010911	45.041	330.808	82.094	1.463	-13.872	316.881	231.194	-14.879	-8.658	185.510	145.509	-11.364	-7.335	-5.292	-1.624	129.915	-5.132	-8191	255	
3498.466	1	1	0	0	0.10378	0.091999	0.15358	0.23662	0.20006	0.11865	0.068544	0.20489	0.22288	0.21197	0.21648	0.054939	0.18943	0.25503	0.21608	0.11052	-2.0625	-3.1042	-2.1125	-2.9104	-2.8771	-2.2354	-3.1771	-2.725	-2.3542	-3.1542	-2.3063	-2.7938	-3.0458	-2.2938	-3.1896	-2.8	187.783	-21.484	324.952	295.231	165.052	263.176	177.819	40.076	-8.003	27.015	273.371	110.370	54.274	-7.780	72.414	166.861	0.00055468	0.0011586	0.00012197	565.62	5.9754e-06	2.4389e-06	481.15	189.89	1.0031e-05	5.1151e-06	192.44	76.316	71.652	38.447	1.0577e-05	42.524	0.0064973	0.010832	0.003094	673.11	0.00011999	0.00012419	496.49	197.72	0.00010234	0.00012187	203.94	79.972	76.288	39.992	0.00010869	44.602	-24.697	52.723	58.759	-13.839	119.296	124.473	-14.482	-8.614	190.594	173.192	-11.429	-7.166	-4.653	-1.557	114.250	-5.030	-8191	255	
3498.563	1	1	0	0	0.066444	0.24409	0.14472	0.1354	0.23676	0.12694	0.29238	0.21395	0.11073	0.014164	0.35686	0.33136	0.17026	0.037611	0.29664	0.096895	-2.0271	-3.1063	-2.3979	-2.6208	-3.0521	-2.1229	-3.0604	-2.8229	-2.1937	-3.075	-2.3563	-2.6437	-2.9979	-2.2542	-3.0375	-2.8708	136.108	177.128	110.127	-20.113	105.486	253.003	223.852	313.203	166.399	68.827	126.291	320.833	327.719	210.466	172.482	241.324	0.00044924	0.00065237	0.0001667	564.31	3.2443e-06	1.2088e-05	482.51	192.09	1.4275e-05	3.5486e-06	194.65	76.863	72.02	38.893	1.113e-05	43.212	0.0065366	0.010739	0.0031414	674.23	0.00011878	0.00012424	497.67	198.95	0.00010459	0.00012217	205.86	80.645	76.841	40.353	0.00011056	45.107	283.801	320.872	95.872	-13.433	287.634	139.612	-14.737	-8.716	167.126	144.738	-11.298	-7.478	-4.810	-1.525	290.267	-5.111	-8191	255	
3498.659	1	1	0	0	0.19871	0.094674	0.014308	0.089748	0.114	0.11619	0.094097	0.18213	0.039602	0.064063	0.19205	0.30797	0.23132	0.1715	0.11211	0.074839	-1.8062	-3.1208	-2.4021	-2.4062	-3.1188	-2.2417	-2.9375	-3.0979	-2.1979	-3.3854	-2.55	-2.6979	-3.2479	-2.4938	-2.7792	-3.0021	168.558	313.885	293.609	64.323	92.155	-10.669	15.031	236.130	208.688	228.208	218.246	55.709	8.414	306.476	255.725	244.599	0.00051082	0.00070868	0.00025161	572.72	4.0959e-06	7.8071e-06	481.43	192.27	7.7039e-06	6.3859e-06	195.05	78.008	72.849	38.919	8.009e-06	43.795	0.006631	0.010766	0.0032189	679.19	0.00011867	0.00012818	500.44	199.99	0.00010573	0.00012485	207.41	81.623	77.511	40.526	0.00011375	45.689	311.433	47.805	79.899	-13.565	88.583	84.938	-15.123	-9.199	237.478	119.924	-11.472	-7.080	-5.146	-1.367	59.089	-5.499	-8191	255	
3498.779	1	1	0	0	0.082094	0.29639	0.31265	0.098198	0.067848	0.087077	0.19904	0.18831	0.13617	0.25844	0.18603	0.026481	0.13897	0.20078	0.033649	0.26906	-1.8625	-3.1104	-2.7521	-2.4708	-3.1562	-2.4146	-3.0563	-3.0354	-2.4417	-3.0083	-2.5854	-2.2958	-3.1833	-2.3979	-2.6042	-3.0479	270.299	313.869	309.819	52.168	217.024	30.941	328.140	269.337	310.089	-13.193	21.423	31.577	-11.435	320.830	23.551	67.067	0.00079461	0.00046203	0.00015083	571.94	8.6006e-06	6.5124e-06	488.66	193.79	1.0182e-05	9.2256e-06	199.35	78.666	72.99	39.327	1.325e-05	43.964	0.0067893	0.010935	0.0032896	684.41	0.00011944	0.00013145	506.91	201.32	0.00011009	0.00012495	210.86	82.771	77.862	40.899	0.00011494	45.922	285.588	156.513	53.252	-14.066	82.677	151.766	-14.901	-8.767	83.053	240.773	-11.179	-7.082	-4.628	-1.527	87.053	-5.219	-8191	255	
3498.876	1	1	0	0	0.25843	0.14541	0.085914	0.10403	0.061912	0.11841	0.085915	0.14074	0.22437	0.22261	0.18152	0.22357	0.18543	0.16121	0.15744	0.12764	-1.7708	-2.9771	-2.775	-2.1417	-3.3479	-2.5479	-2.6375	-3.1458	-2.2458	-3.0375	-2.975	-2.3708	-3.2479	-2.6375	-2.5896	-3.2646	-2.498	246.810	317.960	276.617	93.516	210.773	140.511	238.317	92.738	17.735	272.804	321.620	245.703	309.627	325.570	-23.468	0.0004277	0.00048982	0.00013858	571.13	6.3015e-06	1.177e-05	485.34	191.85	9.1857e-06	1.3602e-06	194.53	76.889	72.329	38.936	4.1333e-06	43.154	0.0069098	0.010988	0.0032893	683.84	0.00011797	0.00013055	501.25	199.88	0.0001079	0.0001238	207.05	81.25	77.172	40.477	0.00011422	45.149	317.513	142.124	192.322	-13.426	92.926	178.341	-15.159	-8.663	149.530	52.237	-11.273	-7.459	-5.277	-1.540	169.657	-5.244	-8191	255	
3498.972	1	1	0	0	0.11473	0.19877	0.064835	0.20958	0.25267	0.19188	0.23861	0.15058	0.05335	0.16999	0.19418	0.16697	0.011662	0.14881	0.18462	0.06323	-1.7396	-2.9208	-2.8625	-2.2458	-3.1437	-2.5667	-2.4771	-3.3229	-2.3625	-2.7938	-2.9875	-2.4521	-3.1167	-2.7604	-2.3937	-3.2125	144.232	2.496	113.374	319.822	95.910	126.143	330.933	197.782	109.561	293.415	215.136	142.576	263.599	93.457	-5.338	139.932	0.00072548	0.00046914	0.00017737	563.26	1.4985e-05	1.7465e-05	480.33	193.06	5.7154e-06	8.8628e-06	195	77.683	72.466	39.204	7.2565e-06	43.579	0.0069253	0.010907	0.0032458	680.27	0.00011864	0.00013058	498.12	200.33	0.00010968	0.00012445	207.33	81.523	77.263	40.816	0.00011499	45.442	-20.368	190.233	17.878	-13.850	191.942	150.042	-15.099	-8.590	35.275	62.315	-11.311	-7.221	-4.717	-1.433	130.149	-5.212	-8191	255	
3499.043	1	1	0	0	0.056785	0.14347	0.21964	0.20382	0.10992	0.22639	0.33996	0.37523	0.18815	0.05321	0.24345	0.2387	0.10079	0.21956	0.10484	0.12351	-1.9542	-2.8292	-3.0479	-2.2729	-3.1208	-2.6729	-2.5396	-3.3521	-2.2708	-2.7938	-3.0125	-2.1958	-3.1104	-2.8187	-2.3688	-3.2042	260.488	-5.774	49.590	106.885	141.298	127.970	292.123	284.402	30.574	204.761	14.649	330.344	3.529	327.307	326.493	295.668	0.00067633	0.00035151	4.3916e-05	570.62	2.0702e-06	3.7727e-06	483.1	192.67	1.8355e-05	4.9099e-06	196.06	78.062	73.326	39.158	5.0877e-06	43.633	0.0069523	0.011146	0.003265	681.66	0.00011745	0.00013258	501.41	199.91	0.00011109	0.00012651	208.08	82.186	77.725	40.819	0.00011653	45.623	-16.042	5.914	195.770	-13.249	114.502	142.813	-15.000	-8.519	103.948	187.747	-11.155	-7.398	-4.185	-1.567	124.046	-4.986	-8191	255	
3499.162	1	1	0	0	0.10547	0.12691	0.24073	0.45117	0.1924	0.1507	0.27311	0.35064	0.15726	0.11842	0.1051	0.35275	0.3016	0.21334	0.2386	0.19273	-2.0083	-2.3875	-3.0146	-2.2167	-2.8833	-2.7583	-2.4042	-3.1729	-2.3417	-2.6188	-3.1771	-2.0687	-2.8542	-2.7333	-2.375	-3.0896	199.734	61.541	310.699	310.194	263.934	73.160	285.031	248.593	88.590	87.579	48.549	44.114	262.142	325.164	-19.218	241.885	0.00046496	0.00097264	0.00027775	566.74	5.9946e-06	6.5907e-06	486.61	193.53	1.0856e-05	7.9477e-06	195.86	78.327	73.14	39.1	7.2153e-06	43.901	0.0070454	0.011145	0.0032135	679.52	0.00011884	0.0001336	504.13	200.81	0.00011242	0.0001276	208.76	82.458	77.742	40.865	0.00011565	45.833	302.299	125.277	47.173	-14.531	148.971	81.255	-15.026	-8.629	174.954	177.180	-11.193	-7.372	-4.789	-1.351	235.885	-4.740	-8191	255	
3499.258	1	1	0	0	0.23903	0.0366	0.10191	0.07274	0.17964	0.070328	0.076934	0.077157	0.059069	0.17915	0.27574	0.053936	0.12589	0.1071	0.18347	0.25681	-2.0729	-2.3563	-3.1396	-2.2875	-2.8021	-3.05	-2.2604	-3.1479	-2.4229	-2.3312	-3.2062	-2.4042	-2.8271	-3.1	-2.0083	-3.1333	250.161	184.243	293.025	-14.700	85.630	242.045	187.083	301.254	103.269	52.565	258.300	152.503	-9.886	246.482	321.205	191.561	0.00034376	0.00042671	5.4724e-05	566.47	3.4239e-06	7.5022e-06	487	192.9	1.173e-05	4.5512e-06	196.31	77.273	73.127	39.133	4.7896e-06	43.134	0.007107	0.011338	0.0032467	684.46	0.0001204	0.00013325	505.06	200.58	0.00011387	0.00012811	207.69	81.886	77.519	40.791	0.00011858	45.22	329.842	281.708	74.954	-14.015	112.225	145.738	-15.129	-8.643	211.293	2.358	-11.284	-7.647	-4.412	-1.652	215.088	-5.032	-8191	255	
#DATA ENDS
