BOXY.EXE: ISS Imagent and Oximeter Data Acquisition Program Version 0.80
Ascii Record File

#ACQ INFORMATION
2  Detector Channels 
16  External MUX Channels 
1  Auxiliary Channels 
5000  Waveform (CCF) Frequency (Hz)
1  Waveforms Skipped 
30  Waveforms Averaged 
1  Cycles Averaged 
16  Acquisitions per Waveform 
10.0806  Updata Rate (Hz) 

#FILE INFORMATION
TRUE -- External MUX Channel results are PARSED.
FALSE -- AC DC and Phase are NOT grouped.
TRUE -- Companion Program Settings File CREATED.
FALSE -- AC data not excluded
FALSE -- DC data not excluded
FALSE -- Phase data not excluded
FALSE -- Auxillary Chn. data not excluded
Tab delimiters

#CALIBRATION STATE
TRUE -- Waveform Calibration Values APPLIED.


#AUX CALIBRATION VALUES
Val Type	aux-1	

Term	1.0000e+00	
Factor	0.0000e+00	


#WF CALIBRATION VALUES
A = Detector Channel
Val Type	A-AC1	A-AC2	A-AC3	A-AC4	A-AC5	A-AC6	A-AC7	A-AC8	A-AC9	A-AC10	A-AC11	A-AC12	A-AC13	A-AC14	A-AC15	A-AC16	A-DC1	A-DC2	A-DC3	A-DC4	A-DC5	A-DC6	A-DC7	A-DC8	A-DC9	A-DC10	A-DC11	A-DC12	A-DC13	A-DC14	A-DC15	A-DC16	A-Ph1	A-Ph2	A-Ph3	A-Ph4	A-Ph5	A-Ph6	A-Ph7	A-Ph8	A-Ph9	A-Ph10	A-Ph11	A-Ph12	A-Ph13	A-Ph14	A-Ph15	A-Ph16	

Term	0.00000e+00	0.00000e+00	0.00000e+00	0.00000e+00	0.00000e+00	0.00000e+00	0.00000e+00	0.00000e+00	0.00000e+00	0.00000e+00	0.00000e+00	0.00000e+00	0.00000e+00	0.00000e+00	0.00000e+00	0.00000e+00	0.00000e+00	0.00000e+00	0.00000e+00	0.00000e+00	0.00000e+00	0.00000e+00	0.00000e+00	0.00000e+00	0.00000e+00	0.00000e+00	0.00000e+00	0.00000e+00	0.00000e+00	0.00000e+00	0.00000e+00	0.00000e+00	0.00000e+00	0.00000e+00	0.00000e+00	0.00000e+00	0.00000e+00	0.00000e+00	0.00000e+00	0.00000e+00	0.00000e+00	0.00000e+00	0.00000e+00	0.00000e+00	0.00000e+00	0.00000e+00	0.00000e+00	0.00000e+00	
Factor	1.00000e+00	1.00000e+00	1.00000e+00	1.00000e+00	1.00000e+00	1.00000e+00	1.00000e+00	1.00000e+00	1.00000e+00	1.00000e+00	1.00000e+00	1.00000e+00	1.00000e+00	1.00000e+00	1.00000e+00	1.00000e+00	1.00000e+00	1.00000e+00	1.00000e+00	1.00000e+00	1.00000e+00	1.00000e+00	1.00000e+00	1.00000e+00	1.00000e+00	1.00000e+00	1.00000e+00	1.00000e+00	1.00000e+00	1.00000e+00	1.00000e+00	1.00000e+00	X	X	X	X	X	X	X	X	X	X	X	X	X	X	X	X	

B = Detector Channel
Val Type	B-AC1	B-AC2	B-AC3	B-AC4	B-AC5	B-AC6	B-AC7	B-AC8	B-AC9	B-AC10	B-AC11	B-AC12	B-AC13	B-AC14	B-AC15	B-AC16	B-DC1	B-DC2	B-DC3	B-DC4	B-DC5	B-DC6	B-DC7	B-DC8	B-DC9	B-DC10	B-DC11	B-DC12	B-DC13	B-DC14	B-DC15	B-DC16	B-Ph1	B-Ph2	B-Ph3	B-Ph4	B-Ph5	B-Ph6	B-Ph7	B-Ph8	B-Ph9	B-Ph10	B-Ph11	B-Ph12	B-Ph13	B-Ph14	B-Ph15	B-Ph16	

Term	0.00000e+00	0.00000e+00	0.00000e+00	0.00000e+00	0.00000e+00	0.00000e+00	0.00000e+00	0.00000e+00	0.00000e+00	0.00000e+00	0.00000e+00	0.00000e+00	0.00000e+00	0.00000e+00	0.00000e+00	0.00000e+00	0.00000e+00	0.00000e+00	0.00000e+00	0.00000e+00	0.00000e+00	0.00000e+00	0.00000e+00	0.00000e+00	0.00000e+00	0.00000e+00	0.00000e+00	0.00000e+00	0.00000e+00	0.00000e+00	0.00000e+00	0.00000e+00	4.69297e+01	-1.27678e+02	-1.27972e+02	-1.88002e+02	-6.67894e+01	-6.28409e+01	-1.55213e+02	-1.62015e+02	-4.91738e+01	-6.38444e+01	-1.70390e+02	-1.71563e+02	-1.84555e+02	-1.77043e+02	-6.69105e+01	-1.49382e+02	
Factor	5.93376e-05	1.60034e-04	4.50777e-05	6.62379e-01	1.71948e-06	1.64504e-06	1.55997e-01	5.34235e-02	2.61917e-06	1.72808e-06	8.14009e-02	2.71226e-02	2.83956e-02	8.73549e-03	1.91468e-06	1.24596e-02	1.85792e-05	3.14846e-05	8.89000e-06	3.50234e-01	3.36969e-07	3.58884e-07	7.79026e-02	2.84634e-02	3.00588e-07	3.56692e-07	4.20802e-02	1.39855e-02	1.51021e-02	4.71687e-03	3.22088e-07	6.51153e-03	X	X	X	X	X	X	X	X	X	X	X	X	X	X	X	X	



#DISTANCE SETTINGS
A = Detector Channel
A-1	A-2	A-3	A-4	A-5	A-6	A-7	A-8	A-9	A-10	A-11	A-12	A-13	A-14	A-15	A-16	

2.5000e+00	3.0000e+00	2.5000e+00	3.0000e+00	2.0000e+00	3.0000e+00	1.5000e+00	3.0000e+00	3.0000e+00	3.0000e+00	3.0000e+00	3.0000e+00	3.0000e+00	3.0000e+00	1.5000e+00	3.0000e+00	

B = Detector Channel
B-1	B-2	B-3	B-4	B-5	B-6	B-7	B-8	B-9	B-10	B-11	B-12	B-13	B-14	B-15	B-16	

1.0000e+01	1.0000e+01	1.0000e+01	1.4400e+00	1.0000e+01	1.0000e+01	1.5100e+00	1.9400e+00	1.0000e+01	1.0000e+01	1.9900e+00	2.4900e+00	2.4100e+00	2.9000e+00	1.0000e+01	2.9800e+00	




#DATA BEGINS
time	group	step	mark	flag	A-AC1	A-AC2	A-AC3	A-AC4	A-AC5	A-AC6	A-AC7	A-AC8	A-AC9	A-AC10	A-AC11	A-AC12	A-AC13	A-AC14	A-AC15	A-AC16	A-DC1	A-DC2	A-DC3	A-DC4	A-DC5	A-DC6	A-DC7	A-DC8	A-DC9	A-DC10	A-DC11	A-DC12	A-DC13	A-DC14	A-DC15	A-DC16	A-Ph1	A-Ph2	A-Ph3	A-Ph4	A-Ph5	A-Ph6	A-Ph7	A-Ph8	A-Ph9	A-Ph10	A-Ph11	A-Ph12	A-Ph13	A-Ph14	A-Ph15	A-Ph16	B-AC1	B-AC2	B-AC3	B-AC4	B-AC5	B-AC6	B-AC7	B-AC8	B-AC9	B-AC10	B-AC11	B-AC12	B-AC13	B-AC14	B-AC15	B-AC16	B-DC1	B-DC2	B-DC3	B-DC4	B-DC5	B-DC6	B-DC7	B-DC8	B-DC9	B-DC10	B-DC11	B-DC12	B-DC13	B-DC14	B-DC15	B-DC16	B-Ph1	B-Ph2	B-Ph3	B-Ph4	B-Ph5	B-Ph6	B-Ph7	B-Ph8	B-Ph9	B-Ph10	B-Ph11	B-Ph12	B-Ph13	B-Ph14	B-Ph15	B-Ph16	aux-1	digaux	

3448.169	1	1	0	256	0.18474	0.069508	0.10539	0.045274	0.091007	0.15484	0.17184	0.28416	0.066561	0.14925	0.26028	0.22689	0.18948	0.22382	0.20115	0.3207	-2.8354	-2.2896	-2.8667	-2.7667	-2.3187	-3.0833	-2.65	-2.6583	-3.0417	-2.3521	-2.9813	-3.0292	-2.4083	-3.1833	-2.525	-2.5896	136.153	249.904	15.879	182.871	11.866	126.911	71.594	223.011	261.462	331.695	163.527	256.023	313.251	281.395	-2.480	302.717	0.00062538	0.00094598	0.00020573	495.76	7.1063e-06	5.5231e-07	429.67	176.59	2.9563e-06	7.703e-06	173.35	70.293	70.571	38.118	4.5995e-06	37.956	0.0040242	0.0065275	0.001839	558.26	7.1733e-05	7.5267e-05	436.7	179.38	6.498e-05	7.7682e-05	178.33	71.996	73.174	39.151	7.4153e-05	38.983	313.201	61.396	84.040	-13.754	178.824	114.956	-15.102	-8.484	6.592	104.966	-11.158	-6.929	-4.250	-0.266	243.875	-4.377	-8191	255	
3448.241	1	1	0	0	0.21585	0.11908	0.16019	0.18971	0.19699	0.21004	0.053593	0.086648	0.026382	0.16275	0.073594	0.14192	0.063203	0.21794	0.27342	0.40001	-2.6667	-2.3167	-2.9104	-2.9083	-2.3021	-3.2354	-2.6792	-2.5021	-3.1896	-2.4562	-2.8333	-2.9979	-2.4896	-3.2271	-2.9583	-2.4188	-11.928	16.197	91.532	65.753	-7.607	94.649	210.428	186.704	157.394	34.025	327.134	-14.812	232.079	237.908	206.201	316.875	0.00049859	0.00035261	0.00011834	492.24	5.0929e-06	1.309e-06	426.73	174.98	1.108e-05	4.3234e-06	171.55	69.301	70.179	37.936	2.8279e-06	37.846	0.0044155	0.0073385	0.0020632	563.64	7.9636e-05	8.3935e-05	435.54	178.89	7.1375e-05	8.5688e-05	178.79	71.485	73.221	39.021	8.2016e-05	39.134	299.738	-1.979	75.703	-13.201	171.064	41.445	-14.491	-8.419	175.845	-12.685	-10.799	-7.161	-3.815	-0.170	63.267	-4.501	-8191	255	
3448.362	1	1	0	0	0.19536	0.21434	0.083412	0.25371	0.066214	0.20143	0.28348	0.26825	0.045052	0.25815	0.13619	0.12627	0.17526	0.03157	0.13167	0.10314	-2.8396	-2.2854	-2.7792	-2.9479	-2.4833	-3.2625	-3.0104	-2.2854	-3.2771	-2.4417	-2.6771	-3.4437	-2.3729	-3.0146	-3.0062	-2.5125	191.049	277.219	270.350	10.899	310.438	320.893	-21.681	-15.908	161.795	203.995	155.427	332.864	151.881	109.639	-26.199	37.601	0.00056388	0.0005187	0.00013161	490.72	3.6254e-06	6.5203e-06	428.63	177.2	8.2812e-06	3.8186e-06	173.5	69.622	70.425	38.391	9.7834e-06	38.397	0.0047454	0.0079485	0.0022289	569.58	8.54e-05	8.9418e-05	440.54	181.71	7.8323e-05	9.5735e-05	180.86	72.206	74.069	39.762	9.0205e-05	39.895	303.605	301.878	42.987	-13.790	75.088	193.278	-14.749	-8.626	140.732	233.739	-11.029	-7.038	-4.607	-0.129	84.037	-4.367	-8191	255	
3448.458	1	1	0	0	0.053255	0.31929	0.10346	0.14469	0.21856	0.17968	0.094635	0.11363	0.3047	0.10475	0.16997	0.089222	0.095933	0.014646	0.17872	0.30702	-2.8875	-2.6167	-2.6458	-3.1063	-2.3438	-3.0187	-2.9646	-2.3375	-2.9729	-2.7521	-2.675	-3.2062	-2.4229	-3.0396	-2.8771	-2.3396	237.948	58.904	198.588	204.102	203.208	307.326	146.324	-16.558	260.057	163.778	305.701	276.914	16.691	196.355	201.140	242.939	0.00046117	0.00063421	9.216e-05	493.15	1.6268e-06	8.7707e-06	432.68	177.57	1.5825e-06	5.4067e-06	173.13	69.712	71.051	39.023	9.8296e-07	38.802	0.005199	0.0086964	0.0024358	581.07	9.3206e-05	9.7846e-05	442.59	181.83	8.208e-05	9.9524e-05	181.76	72.813	74.456	40.156	8.9169e-05	40.388	-19.943	30.768	39.683	-12.971	185.807	143.067	-14.960	-8.445	96.277	91.880	-11.031	-7.158	-3.929	-0.076	0.379	-4.110	-8191	255	
3448.552	1	1	0	0	0.17989	0.050134	0.10205	0.092194	0.1396	0.1919	0.32964	0.16485	0.23812	0.061442	0.14013	0.13605	0.19189	0.27065	0.12399	0.11876	-2.9958	-2.6667	-2.4938	-3.3312	-2.3792	-2.9042	-3.2958	-2.3271	-3.0687	-2.9354	-2.4583	-3.3729	-2.3854	-2.8	-3.0187	-2.425	190.268	172.278	258.953	74.332	228.525	114.330	308.955	211.288	297.997	214.857	258.594	-20.690	258.326	310.763	186.627	49.373	0.0007082	0.00065542	0.00013245	499.02	1.2597e-05	4.2034e-06	428.51	177.32	2.1855e-05	6.9375e-06	172.93	69.847	71.61	39.081	1.1899e-05	38.657	0.005103	0.0086608	0.002423	580.73	9.3433e-05	9.6924e-05	442.83	182.23	8.1463e-05	9.8699e-05	181.92	72.677	74.441	40.171	8.9272e-05	40.009	-22.524	85.358	94.154	-13.408	163.485	113.939	-14.548	-8.314	149.620	157.097	-10.859	-6.820	-4.317	-0.379	203.694	-4.115	-8191	255	
3448.650	1	1	0	0	0.025696	0.2361	0.11967	0.11141	0.15043	0.24565	0.19264	0.1694	0.25031	0.14237	0.04625	0.031413	0.13345	0.14876	0.38447	0.10868	-2.9146	-2.7812	-2.4083	-3.3104	-2.55	-2.6896	-3.1833	-2.4375	-3.0563	-2.8667	-2.3021	-3.2146	-2.5917	-2.775	-3.2938	-2.3396	130.979	130.479	250.265	170.688	34.140	108.924	232.094	-22.134	297.066	63.892	321.325	294.815	310.806	24.940	323.098	-13.568	0.00067608	0.00055791	0.0001035	493.85	1.2079e-05	4.083e-06	431.01	176.41	7.679e-06	2.1814e-06	173.01	70.03	71.384	38.569	2.9584e-06	38.08	0.0050508	0.0085925	0.0023959	577.21	9.0976e-05	9.3898e-05	441.59	182.01	7.8466e-05	9.5662e-05	180.84	72.452	74.248	39.802	8.5158e-05	39.473	315.318	111.124	287.979	-13.138	146.214	180.963	-15.033	-8.562	57.171	202.852	-11.223	-7.211	-3.956	-0.323	127.003	-4.563	-8191	255	
3448.769	1	1	0	0	0.076634	0.26355	0.14727	0.3086	0.07452	0.22481	0.10457	0.037337	0.090141	0.2598	0.12054	0.026659	0.21823	0.13249	0.14998	0.090705	-2.6208	-2.9188	-2.2167	-3.2188	-2.65	-2.5604	-3.2313	-2.4896	-2.8667	-3.1396	-2.2542	-3.1833	-2.7271	-2.6875	-3.3375	-2.4521	80.779	-11.233	-5.144	258.633	145.094	251.170	320.558	266.273	92.467	75.775	137.766	12.789	3.090	228.136	51.116	208.968	0.00063181	0.00042927	0.00023498	498.37	3.3684e-06	4.794e-06	427.37	176.33	4.553e-06	7.7394e-06	173.1	69.344	70.709	38.566	1.1024e-05	38.2	0.0050163	0.0085206	0.0023729	576.91	9.1463e-05	9.5287e-05	440.5	181.41	7.9475e-05	9.6346e-05	180.65	72.237	74.196	39.719	8.4939e-05	39.651	319.478	139.303	87.217	-13.270	111.904	95.623	-14.879	-8.323	154.343	123.068	-10.957	-6.960	-4.317	-0.114	123.202	-4.526	-8191	255	
3448.841	1	1	0	0	0.24439	0.2055	0.028572	0.17059	0.13093	0.11915	0.30438	0.043663	0.10466	0.17184	0.095205	0.10209	0.042985	0.22664	0.029599	0.21648	-2.4396	-2.9917	-2.3438	-3.2458	-2.7479	-2.4521	-3.3583	-2.3167	-2.9	-3.1	-2.4583	-3.1458	-2.8125	-2.3375	-3.1583	-2.5208	55.300	328.152	287.920	216.020	222.695	142.355	234.514	262.785	-20.615	240.737	68.866	132.063	79.109	-7.686	64.883	83.252	0.0006077	0.00029583	6.2992e-05	487.42	1.1909e-05	6.6835e-06	435.55	178	1.1361e-05	3.6397e-06	175.64	70.943	71.644	39.033	4.9653e-06	39.076	0.0050238	0.0083039	0.0023502	573.44	8.9258e-05	9.2988e-05	444.15	182.76	7.7791e-05	9.2642e-05	182.77	73.165	74.972	40.216	8.3967e-05	40.455	325.453	-6.501	219.039	-13.609	97.961	119.322	-14.603	-9.016	194.082	120.431	-11.650	-7.207	-4.694	-0.214	111.180	-4.514	-8191	255	
3448.937	1	1	0	0	0.36305	0.013196	0.33587	0.11924	0.091738	0.067956	0.22903	0.12687	0.046836	0.074714	0.21905	0.28922	0.23228	0.19991	0.28494	0.2237	-2.2917	-3.025	-2.2979	-3.0854	-3.0563	-2.2625	-3.1063	-2.5604	-2.5417	-3.1333	-2.2229	-2.9396	-3.0625	-2.3729	-3.2917	-2.675	281.620	104.147	69.104	326.914	233.016	209.875	131.888	221.430	35.201	217.272	281.322	286.760	211.970	-23.870	35.427	277.096	0.00057718	0.00051818	0.00031833	497.99	3.97e-06	7.7521e-06	434.33	180.19	5.5205e-06	1.0583e-06	176.74	71.371	72.111	39.035	4.0258e-06	39.184	0.0049575	0.0082292	0.0023574	578.74	9.0117e-05	9.4732e-05	446.77	184.24	7.9297e-05	9.568e-05	184.52	73.879	75.373	40.376	8.4746e-05	40.594	304.680	171.075	42.215	-13.577	263.894	102.102	-15.013	-8.275	95.035	331.033	-11.546	-7.120	-4.360	-0.226	59.938	-4.457	-8191	255	
3449.033	1	1	0	0	0.14402	0.13116	0.19048	0.35727	0.10431	0.092319	0.21186	0.19855	0.20742	0.076703	0.19492	0.46914	0.24765	0.38764	0.1446	0.15786	-2.2562	-3.2687	-2.2375	-2.7104	-3.0729	-2.2896	-3.2021	-2.6542	-2.3979	-3.2958	-2.2104	-2.7396	-3.1562	-2.4146	-3.1375	-2.9354	225.642	235.994	115.959	250.125	55.579	177.328	134.341	242.559	-4.408	161.500	77.539	282.486	264.595	296.210	295.070	240.669	0.00058715	0.00060739	0.00014708	493.56	7.2234e-06	2.4276e-06	435.45	180.1	1.4584e-05	5.2748e-06	176.54	70.485	71.241	38.759	6.8955e-06	38.223	0.0051469	0.0083567	0.0023885	578.96	9.1462e-05	9.7046e-05	446.55	184.08	8.1534e-05	9.5938e-05	183.42	73.125	74.606	40.072	8.6779e-05	39.635	306.871	40.115	97.587	-13.722	162.055	5.158	-14.502	-8.781	113.366	63.905	-11.184	-6.937	-4.270	-0.537	55.447	-4.456	-8191	255	
3449.154	1	1	0	0	0.31448	0.10267	0.16376	0.08074	0.16045	0.1709	0.20181	0.1317	0.14242	0.024976	0.31405	0.16328	0.2153	0.24168	0.17632	0.38516	-2.025	-3.0938	-2.4479	-2.6521	-2.9688	-2.25	-3.1688	-2.8187	-2.1792	-3.375	-2.8208	-2.8	-3.2854	-2.3833	-3.1667	-2.9562	267.708	2.746	318.603	40.112	119.658	108.277	282.646	284.076	285.885	38.755	-13.011	216.286	245.374	284.717	294.863	272.800	0.00047904	0.00070199	0.00017069	493.16	1.8741e-06	9.8971e-06	431.39	177.53	6.1001e-06	1.3058e-06	174.28	70.054	71.466	38.673	2.2373e-06	38.304	0.0051869	0.0084567	0.0024347	578.14	9.1234e-05	9.5567e-05	443.01	182.64	7.9461e-05	9.341e-05	182.2	72.599	74.539	39.932	8.3984e-05	39.715	311.707	117.161	6.177	-13.740	100.850	59.701	-14.723	-8.577	187.791	99.319	-10.997	-7.078	-4.151	-0.272	195.632	-4.348	-8191	255	
3449.250	1	1	0	0	0.27197	0.12344	0.25183	0.26798	0.18064	0.090013	0.11824	0.19962	0.13781	0.31064	0.26253	0.16578	0.10215	0.31794	0.1956	0.15387	-2.1042	-3.2792	-2.5563	-2.5104	-3.4083	-2.2979	-2.9583	-3.1792	-2.2542	-3.225	-2.8063	-2.6333	-3.1729	-2.3417	-3.0229	-3.0583	274.955	267.592	84.525	-17.538	155.574	209.803	168.980	332.079	60.739	39.292	230.324	75.902	214.960	331.955	179.428	36.744	0.00047352	0.00024908	0.00016622	501.3	8.0497e-07	4.3222e-06	434.75	177.3	4.4244e-06	4.6135e-06	174.35	70.919	70.725	39.338	1.0955e-05	39.3	0.005064	0.0082376	0.0023646	575.07	8.7562e-05	9.3007e-05	444.13	182.26	7.7884e-05	9.0911e-05	182.4	73.297	74.258	40.315	8.1688e-05	40.562	309.374	85.643	22.782	-13.173	77.199	-16.156	-14.735	-8.568	184.306	141.908	-11.322	-7.147	-4.497	-0.358	136.553	-4.344	-8191	255	
3449.346	1	1	0	0	0.13418	0.057024	0.18701	0.029099	0.24145	0.18693	0.00081348	0.096758	0.17633	0.085812	0.11877	0.11084	0.12112	0.23067	0.30684	0.13594	-1.9	-3.1354	-2.6813	-2.5	-3.2854	-2.3937	-2.8896	-3.1083	-2.2396	-3.1521	-2.7729	-2.4229	-3.4604	-2.5208	-2.6479	-3.1667	13.999	299.942	253.762	283.746	154.335	327.740	180.000	164.041	242.322	123.805	308.015	-18.578	296.362	307.424	61.814	-16.050	0.00032989	0.00048988	0.0002285	502.57	2.6581e-06	6.6946e-06	435.27	179.14	9.6825e-06	6.9407e-06	176.48	72.226	72.561	39.739	8.7574e-06	39.855	0.0049615	0.0080554	0.0023372	575.84	8.7085e-05	9.3422e-05	446.63	183.54	7.8134e-05	8.956e-05	185.2	74.429	75.457	40.788	8.1521e-05	41.138	294.456	136.686	47.818	-13.523	217.124	103.888	-14.664	-8.491	251.823	151.423	-11.539	-6.642	-4.540	-0.289	91.351	-4.461	-8191	255	
3449.442	1	1	0	0	0.27966	0.28543	0.13302	0.07578	0.10751	0.22548	0.079789	0.17581	0.10729	0.19449	0.28864	0.028581	0.12015	0.16765	0.091446	0.17414	-1.9875	-3.15	-2.6771	-2.275	-3.35	-2.5167	-2.7917	-3.2542	-2.4021	-3.0938	-3.0958	-2.3292	-3.275	-2.5875	-2.5875	-3.2333	128.904	179.923	256.560	13.094	57.283	31.105	43.649	213.427	114.263	299.953	-26.298	136.695	316.558	322.117	-18.799	122.383	0.0003894	0.0011173	0.00016566	496.94	3.6055e-06	2.3787e-06	440.76	179.23	7.5916e-06	4.1834e-06	177.11	71.705	72.264	39.374	1.3638e-05	39.058	0.0048605	0.0077833	0.0022509	573.55	8.2406e-05	8.954e-05	447.65	183.81	7.3525e-05	8.6234e-05	185.1	74.328	75.059	40.465	7.8698e-05	40.498	318.832	47.020	-13.862	-13.516	148.201	187.314	-14.702	-8.704	150.598	135.980	-11.332	-7.272	-4.318	-0.140	164.092	-4.412	-8191	255	
3449.537	1	1	0	0	0.13998	0.26787	0.11695	0.047163	0.094976	0.2327	0.090577	0.29207	0.22384	0.18719	0.2684	0.19993	0.23552	0.13426	0.18736	0.18833	-2.0354	-3.0104	-3.1208	-2.3438	-3.2146	-2.575	-2.7104	-3.3104	-2.475	-3.0146	-2.875	-2.5229	-3.1312	-2.7146	-2.3479	-3.2729	307.275	171.021	224.126	207.585	170.427	71.034	332.596	8.199	204.818	76.409	260.895	154.774	267.538	-27.082	-11.731	232.558	0.00054532	0.00031551	7.882e-05	502.12	2.2791e-06	1.7883e-06	434.77	177.94	8.902e-06	2.6041e-06	177.8	71.775	71.62	38.799	4.6998e-06	38.866	0.0046681	0.0075502	0.0021804	569.72	8.1475e-05	8.7597e-05	444.02	182.86	7.2837e-05	8.4429e-05	183.97	73.919	74.595	39.928	7.8226e-05	39.961	315.075	136.653	96.113	-13.345	235.422	213.287	-14.547	-9.116	76.721	88.833	-11.578	-7.266	-4.138	-0.597	166.583	-4.356	-8191	255	
3449.633	1	1	0	0	0.14788	0.20691	0.098022	0.29466	0.082243	0.26271	0.15353	0.43998	0.088363	0.015949	0.29421	0.36026	0.18096	0.085627	0.21539	0.23443	-1.9896	-2.7771	-3.1437	-2.2979	-3.1188	-2.8125	-2.4229	-3.2583	-2.1979	-2.7146	-3.2917	-2.1646	-3.0771	-2.9792	-2.3187	-3.3167	101.793	99.807	19.707	265.910	101.559	331.898	232.144	233.250	315.278	71.181	208.033	298.672	281.392	288.408	-18.662	307.317	0.00048399	0.00030102	0.00031662	491.89	3.5509e-06	2.7747e-06	436.28	178.21	3.2322e-06	9.5956e-06	175.67	71.434	71.492	38.913	4.68e-06	38.791	0.0047702	0.0076299	0.002213	567.61	8.2321e-05	9.0194e-05	444.67	182.4	7.5634e-05	8.8435e-05	183.64	73.646	74.646	40.039	8.2198e-05	40.193	304.215	131.422	51.169	-13.939	146.962	221.276	-15.134	-8.424	234.921	109.536	-11.599	-7.379	-4.188	-0.745	156.616	-4.161	-8191	255	
3449.753	1	1	0	0	0.30228	0.16227	0.13614	0.032659	0.26448	0.10398	0.1742	0.40504	0.043086	0.10704	0.073628	0.079619	0.09869	0.11985	0.11746	0.081399	-2.1542	-2.7812	-3.0125	-2.4208	-3.0625	-2.8521	-2.1917	-3.3167	-2.5333	-2.5521	-3.4792	-2.5583	-2.9417	-3.0604	-2.3	-3.2333	152.865	-4.282	1.291	125.741	98.784	242.482	277.899	319.523	265.666	-7.469	315.252	20.651	290.406	329.957	141.571	255.928	0.00085045	0.00064556	0.00010729	490.53	1.698e-06	5.1793e-06	439.12	177.86	2.1272e-06	1.2017e-06	176.54	71.392	71.357	39.059	9.0199e-06	39.331	0.0050015	0.0080511	0.0023073	574.53	8.5473e-05	9.4786e-05	447.28	182.85	7.9507e-05	9.3331e-05	184.59	74.17	74.732	40.241	8.5582e-05	40.656	-24.123	73.750	83.445	-14.010	108.265	161.975	-14.504	-8.604	184.784	254.906	-11.166	-6.728	-3.902	-0.385	220.651	-4.474	-8191	255	
3449.849	1	1	0	0	0.027084	0.19483	0.14957	0.21639	0.22306	0.19284	0.14899	0.30243	0.2001	0.15186	0.060044	0.024843	0.069843	0.13529	0.3058	0.1969	-2.3521	-2.5125	-3.1312	-2.4146	-2.9854	-3.0792	-2.5146	-3.2562	-2.6417	-2.4729	-3.3979	-2.4896	-2.8	-3.2542	-2.4146	-3.2042	248.635	234.050	158.071	284.982	63.551	78.912	5.539	275.864	43.716	145.426	65.390	227.318	125.405	18.604	49.614	253.371	0.00065349	0.00047783	0.00018414	498.12	6.2106e-06	2.769e-06	437.61	178.79	2.6374e-06	2.3206e-06	177.29	71.033	72.464	39.355	8.2414e-06	39.482	0.0050863	0.0082654	0.0023431	577.93	8.766e-05	9.5255e-05	448.08	183.65	8.1648e-05	9.3761e-05	185.52	74.373	75.288	40.429	8.6983e-05	40.717	302.927	41.349	69.526	-13.750	161.636	64.235	-14.528	-8.127	273.438	105.904	-11.293	-6.876	-3.603	-0.241	119.913	-4.309	-8191	255	
3449.946	1	1	0	0	0.20343	0.30933	0.16546	0.20375	0.25681	0.067281	0.17974	0.088638	0.17875	0.13257	0.1287	0.093665	0.034619	0.23997	0.033846	0.080745	-2.4271	-2.5521	-3.2062	-2.4542	-2.7083	-3.2083	-2.4271	-3.2	-3.0021	-2.3521	-3.3646	-2.6292	-2.7458	-3.2917	-2.4021	-3.2104	122.168	175.668	174.312	199.373	281.015	177.042	233.659	255.504	306.349	-23.553	307.864	142.242	61.953	306.692	79.195	308.714	0.00026855	0.00050967	6.991e-05	488.97	4.8373e-06	1.062e-05	435.16	178.3	1.4043e-05	3.8495e-06	175.92	70.836	71.699	38.763	2.5311e-06	38.362	0.0051687	0.0082543	0.0023405	574.47	8.747e-05	9.4939e-05	447.01	182.53	8.0831e-05	9.3306e-05	183.72	73.238	74.431	39.888	8.5261e-05	39.652	-22.253	13.413	10.615	-13.627	158.970	159.508	-14.763	-8.243	240.702	107.392	-11.127	-7.041	-4.518	-0.348	139.224	-4.369	-8191	255	
3450.042	1	1	0	0	0.1746	0.085583	0.06768	0.22849	0.059124	0.2298	0.14902	0.23868	0.058727	0.20343	0.31231	0.28628	0.05018	0.18429	0.087682	0.081308	-2.5604	-2.3854	-3.1437	-2.6396	-2.5271	-3.2438	-2.4667	-3.1396	-3.025	-2.3542	-3.4437	-2.6896	-2.5417	-3.4667	-2.2833	-2.9771	270.934	223.016	302.777	91.276	87.406	8.053	188.114	304.925	149.619	-12.193	244.484	234.853	-23.516	66.543	220.267	295.762	0.0006177	0.00054398	0.00024797	491.47	8.9412e-06	9.2165e-06	433.96	178.29	1.4052e-05	5.6761e-06	174.76	69.9	70.612	38.691	7.6843e-06	38.162	0.0050325	0.0082092	0.0022864	570.72	8.5696e-05	9.2206e-05	443.67	181.81	7.8075e-05	9.1451e-05	181.64	72.807	73.97	39.73	8.2499e-05	39.6	-22.903	129.730	110.535	-13.487	227.356	144.170	-14.851	-8.088	187.534	141.127	-11.024	-7.263	-4.353	-0.390	104.130	-4.732	-8191	255	
3450.136	1	1	0	0	0.12118	0.22919	0.12649	0.10472	0.11723	0.35747	0.16766	0.040846	0.20977	0.13172	0.11224	0.1229	0.20414	0.12856	0.17135	0.09786	-2.8083	-2.3542	-3.0708	-2.8667	-2.475	-3.3187	-2.425	-2.8208	-3.0646	-2.4167	-3.2167	-2.9042	-2.4437	-3.3	-2.4896	-2.6729	217.572	135.137	95.023	315.175	130.697	330.303	226.845	124.004	202.892	77.306	214.221	230.927	252.491	167.648	86.565	284.290	0.00078749	0.00052851	0.00017779	493.26	1.0195e-05	2.385e-06	434.4	177.36	1.1241e-05	3.9721e-06	175.17	71.01	71.534	38.843	8.7705e-06	38.811	0.0049431	0.0079954	0.002248	570.29	8.5026e-05	9.1034e-05	443.59	181.43	7.7736e-05	9.1753e-05	182.69	73.342	74.372	39.956	8.4476e-05	40.122	331.655	110.681	231.221	-12.997	77.850	67.602	-14.689	-8.244	25.772	185.056	-11.223	-6.970	-4.016	-0.324	-21.762	-4.344	-8191	255	
3450.232	1	1	0	0	0.21123	0.18716	0.10691	0.29524	0.14948	0.24267	0.34741	0.18211	0.26791	0.070321	0.136	0.21854	0.19046	0.23483	0.077273	0.18982	-2.7896	-2.2729	-3.0042	-2.9062	-2.3292	-3.35	-2.4083	-2.8083	-3.1813	-2.2354	-3.1208	-2.9229	-2.3729	-3.35	-2.5875	-2.7208	175.839	279.394	226.382	91.401	36.847	273.864	202.264	309.938	252.545	21.556	175.361	-11.417	252.555	311.057	46.122	269.405	0.00066889	0.00054598	8.0208e-05	496.76	4.965e-06	3.7101e-06	434.79	176.95	6.1445e-06	3.2576e-06	176.02	70.99	71.778	39.212	3.0027e-06	39.33	0.0050724	0.0082236	0.002285	576.86	8.9783e-05	9.3853e-05	445.57	182.39	7.9905e-05	9.4247e-05	184.27	73.78	74.795	40.334	8.5453e-05	40.657	317.320	113.090	97.211	-12.549	192.183	67.095	-14.740	-8.284	131.579	111.117	-11.156	-7.298	-4.070	-0.041	148.621	-4.014	-8191	255	
3450.353	1	1	0	0	0.19245	0.14556	0.33785	0.11308	0.19796	0.036097	0.31197	0.093018	0.16216	0.12507	0.032573	0.0988	0.22602	0.2983	0.10668	0.40046	-2.8688	-2.2438	-2.9646	-2.9729	-2.2875	-3.3583	-2.7125	-2.4875	-3.2417	-2.4542	-3.0979	-2.875	-2.3542	-3.2188	-2.7271	-2.425	115.363	323.119	319.459	279.142	164.663	241.511	244.595	128.435	286.324	96.786	149.059	300.081	333.483	297.228	297.706	281.458	0.0005114	0.00048814	5.8567e-05	498.5	1.3289e-05	9.1273e-06	436.24	178.17	1.175e-05	4.8091e-06	175.65	70.804	71.039	38.771	1.4261e-05	38.308	0.0051081	0.0085176	0.0023286	578.17	9.0235e-05	9.4428e-05	446.85	182.92	7.9425e-05	9.5341e-05	183.73	73.434	74.428	39.832	8.6489e-05	39.648	331.873	103.989	291.202	-13.765	83.655	46.365	-15.266	-8.311	149.723	71.229	-11.077	-6.912	-4.513	-0.311	180.280	-4.519	-8191	255	
3450.449	1	1	0	0	0.25598	0.26359	0.072909	0.081278	0.058771	0.24524	0.21465	0.21826	0.12141	0.039786	0.26314	0.15623	0.24983	0.34695	0.15701	0.22901	-2.8271	-2.3771	-2.7938	-3.0646	-2.3604	-3.2021	-2.675	-2.2687	-3.3125	-2.4792	-2.8	-3.2042	-2.4104	-3.25	-2.9188	-2.4229	279.730	56.831	134.710	6.522	5.458	306.900	221.749	303.505	294.543	305.671	232.277	164.297	332.913	324.224	45.441	215.746	0.0006205	0.00037279	0.00018635	489.49	9.0862e-06	4.3658e-06	431.05	176.83	1.2606e-05	5.7798e-06	172.36	69.073	70.84	38.186	9.6698e-06	37.884	0.0051078	0.0084818	0.0023696	573.31	8.9267e-05	9.3469e-05	442.49	181.21	7.9185e-05	9.4977e-05	181.07	72.101	73.967	39.437	8.5802e-05	39.216	311.455	146.014	94.551	-14.242	70.062	74.522	-15.085	-8.224	177.909	126.575	-11.103	-7.228	-4.051	-0.224	147.511	-4.190	-8191	255	
3450.545	1	1	0	0	0.10908	0.16053	0.19131	0.17858	0.13251	0.25666	0.15652	0.16401	0.16301	0.27766	0.152	0.14471	0.064553	0.074973	0.049918	0.20852	-2.8729	-2.5938	-2.7042	-3.2229	-2.3083	-3.0125	-3.2042	-2.5583	-3.2729	-2.7812	-2.6042	-3.3667	-2.4208	-3.2438	-3.0583	-2.5229	51.799	66.123	47.151	57.800	8.722	230.070	284.804	328.557	307.899	183.402	318.227	218.963	44.329	-3.903	-13.376	270.629	0.00061558	0.00084979	4.78e-05	486.58	7.5929e-06	4.2954e-06	430.19	176.31	6.7707e-06	6.69e-06	174.22	69.666	70.946	38.701	1.176e-05	38.428	0.0050539	0.0082738	0.0023172	568.95	8.7748e-05	9.2217e-05	440.88	181.33	7.7468e-05	9.4587e-05	181.96	72.569	73.871	39.7	8.5979e-05	39.638	314.450	322.181	124.867	-13.210	127.095	144.401	-14.932	-8.425	215.346	114.272	-10.863	-7.099	-4.283	-0.182	212.069	-4.507	-8191	255	
3450.641	1	1	0	0	0.14946	0.14836	0.065586	0.086874	0.18972	0.14645	0.14433	0.1344	0.23833	0.19142	0.20028	0.043647	0.3081	0.29352	0.26312	0.30765	-2.9188	-2.5271	-2.3771	-3.1396	-2.2833	-2.9479	-3.1396	-2.2188	-3.1021	-2.6896	-2.6188	-3.2812	-2.5375	-2.9688	-3.0354	-2.4042	198.664	141.320	170.952	204.031	98.995	172.102	209.373	161.326	64.768	133.575	-18.867	13.784	37.072	-22.495	235.903	261.741	0.00058266	0.00068594	0.00028345	492.9	6.6361e-06	9.1651e-06	432.49	178.09	1.0541e-05	3.5685e-07	175.68	71.058	71.521	38.933	5.1358e-06	39.126	0.0049127	0.0083485	0.0022862	572	8.7359e-05	9.0546e-05	443.65	182.19	7.7384e-05	9.237e-05	183.03	73.313	74.48	39.996	8.3049e-05	40.282	306.528	74.095	55.856	-13.280	34.920	175.409	-14.735	-8.174	95.630	231.203	-11.178	-6.708	-3.930	-0.351	182.448	-4.027	-8191	255	
3450.713	1	1	0	0	0.24635	0.14024	0.13567	0.16142	0.25843	0.18922	0.092705	0.14639	0.12372	0.08273	0.095212	0.15111	0.11564	0.16303	0.2111	0.051723	-2.8021	-2.6875	-2.4208	-3.2812	-2.4646	-2.8958	-3.2958	-2.3167	-3.1125	-2.7729	-2.4896	-3.1729	-2.5625	-2.7396	-2.9208	-2.2875	32.385	240.751	6.600	232.829	147.635	280.208	267.735	244.636	155.303	122.777	306.944	287.907	315.847	297.241	256.953	306.545	0.00058951	0.00029852	9.4041e-05	496.25	4.8146e-06	1.0944e-05	436.2	178.35	7.2993e-06	2.6951e-06	176.51	71.47	71.176	39.069	7.8345e-06	38.479	0.0047631	0.0080465	0.0022664	570.41	8.563e-05	8.8882e-05	445.5	182.86	7.4727e-05	8.961e-05	184.24	73.95	74.599	40.186	8.0428e-05	40.009	333.296	267.146	332.336	-13.624	157.693	104.368	-14.541	-8.335	144.953	143.400	-11.468	-7.215	-4.293	-0.216	129.598	-4.157	-8191	255	
3450.834	1	1	0	0	0.091869	0.095337	0.11906	0.22117	0.19187	0.14862	0.15026	0.20718	0.19778	0.18645	0.090828	0.11475	0.16688	0.35461	0.1529	0.18798	-2.65	-2.8042	-2.1813	-3.1708	-2.4896	-2.4125	-3.3146	-2.3271	-2.9458	-2.8604	-2.4146	-3.1708	-2.6958	-2.75	-3.3312	-2.4896	194.836	266.914	-17.800	274.431	86.585	277.816	30.468	-13.782	284.451	176.476	172.053	206.757	87.328	302.750	329.660	279.374	0.00040223	0.00072025	7.0169e-05	496.56	2.8763e-07	4.1964e-06	429.58	176.99	1.0123e-06	4.0969e-06	175.38	70.279	71.284	38.713	2.3838e-06	38.148	0.0047299	0.007838	0.0021956	564.94	8.3593e-05	8.7359e-05	442.65	181.39	7.1686e-05	8.702e-05	182.45	72.769	74.154	39.61	7.7306e-05	39.228	324.310	38.556	50.875	-13.695	297.420	207.384	-14.928	-8.571	-24.007	119.438	-11.033	-6.753	-3.973	-0.158	133.632	-4.672	-8191	255	
3450.930	1	1	0	0	0.043546	0.20704	0.021879	0.15036	0.1194	0.14191	0.23608	0.092904	0.071223	0.12822	0.14482	0.15521	0.072261	0.10717	0.063251	0.26332	-2.5625	-2.8875	-2.2479	-3.1625	-2.6271	-2.6312	-3.3625	-2.4583	-2.8458	-3.0896	-2.3396	-3.2146	-2.7562	-2.5854	-3.1688	-2.525	239.759	93.491	278.583	53.932	99.515	221.020	215.038	199.455	331.348	27.401	219.725	214.201	72.469	313.645	-15.769	303.013	0.00066387	0.00061134	0.00018445	488.97	8.0468e-06	5.4827e-06	435.63	176.72	1.4842e-06	1.7758e-06	173.58	70.598	71.21	38.473	3.8067e-06	38.021	0.0045434	0.0076067	0.0021374	561.42	8.0488e-05	8.4721e-05	441.91	180.48	7.0321e-05	8.5449e-05	180.85	72.557	73.785	39.519	7.6295e-05	39.242	319.651	29.067	56.864	-13.916	49.538	260.416	-14.905	-8.626	-11.960	86.534	-10.772	-6.927	-3.920	0.103	119.689	-4.539	-8191	255	
3451.026	1	1	0	0	0.21884	0.2057	0.10436	0.25183	0.16969	0.11055	0.21493	0.088293	0.14975	0.16129	0.15836	0.12854	0.20596	0.2074	0.074474	0.28411	-2.3917	-3.1688	-2.3958	-3.1063	-2.7896	-2.3417	-3.2708	-2.4479	-2.5521	-3.1937	-2.375	-2.9979	-2.8833	-2.2333	-3.1521	-2.5833	112.200	308.695	150.443	213.961	5.046	72.983	309.003	318.001	1.777	171.575	63.284	228.491	294.043	274.580	295.807	238.193	0.0005609	9.41e-05	5.0786e-05	494.57	1.1782e-05	6.322e-06	432.59	176.04	5.9979e-06	9.737e-07	176.14	70.172	71.383	38.76	3.2272e-06	38.739	0.0044516	0.0074679	0.0020988	559.55	8.099e-05	8.4159e-05	440.42	180.86	7.1237e-05	8.5029e-05	182.8	73.163	74.287	39.77	7.6889e-05	39.929	310.895	1.790	25.230	-13.498	120.070	139.573	-14.765	-8.157	232.466	268.600	-11.290	-7.330	-4.242	-0.144	140.719	-4.500	-8191	255	
3451.122	1	1	0	0	0.20544	0.25194	0.10695	0.28702	0.29232	0.1161	0.13603	0.20487	0.22463	0.1103	0.093662	0.24879	0.16803	0.23509	0.19687	0.15394	-2.2979	-3.225	-2.0604	-2.9604	-2.8833	-2.2896	-3.225	-2.675	-2.5125	-3.2167	-2.4688	-2.8104	-3.1146	-2.3583	-3.1167	-2.7521	105.400	281.130	213.947	-16.507	48.652	109.784	206.789	276.823	293.905	249.304	255.438	268.073	325.061	25.603	304.578	240.457	0.00067904	0.00048351	5.9023e-05	491.69	5.0973e-06	5.2201e-06	432.98	177.2	6.1522e-06	2.3549e-06	176.61	71.374	71.785	38.981	1.6268e-06	39.356	0.0045573	0.0076368	0.0021555	564.98	8.3169e-05	8.6457e-05	443.54	181.98	7.1588e-05	8.6614e-05	184.07	73.723	74.702	40.194	7.783e-05	40.55	315.703	80.640	-20.377	-13.605	267.170	93.385	-14.436	-8.633	130.588	161.832	-11.691	-6.977	-4.299	-0.048	161.162	-4.626	-8191	255	
3451.241	1	1	0	0	0.099978	0.16165	0.21496	0.20706	0.10973	0.1812	0.070179	0.14164	0.22718	0.1568	0.16407	0.1494	0.038831	0.023861	0.20605	0.22312	-2.2583	-3.0812	-2.3708	-2.8563	-3.0187	-2.3333	-3.1604	-2.8854	-2.4625	-3.1479	-2.4646	-2.7979	-3.1896	-2.4104	-3.0479	-2.9688	251.926	267.858	125.808	291.662	256.933	39.693	139.633	-0.793	142.454	-22.651	92.656	271.355	269.083	-26.373	24.670	292.389	0.00031949	0.00069905	0.00011701	496.25	3.5094e-06	2.9009e-06	434.88	177.19	1.3658e-05	5.1583e-06	175.49	71.339	71.49	38.79	2.6098e-06	38.152	0.0047427	0.0076071	0.0021668	567.15	8.3971e-05	8.8793e-05	444.35	182.13	7.3496e-05	8.7874e-05	183.45	73.678	74.429	39.824	7.8355e-05	39.434	323.480	73.557	103.821	-13.114	105.865	168.468	-14.663	-8.529	146.384	133.106	-11.758	-6.757	-4.116	-0.320	156.583	-4.428	-8191	255	
3451.337	1	1	0	0	0.14903	0.20318	0.25674	0.20117	0.25423	0.05519	0.10102	0.19426	0.055535	0.21538	0.098109	0.10519	0.31798	0.10718	0.19469	0.16783	-1.9312	-3.1437	-2.4271	-2.6292	-3.1042	-2.5167	-3.0083	-3.0438	-2.3208	-3.3583	-2.5458	-2.7042	-3.2313	-2.6229	-2.9562	-3.0062	313.096	13.435	107.069	150.936	-18.414	81.337	23.187	302.278	97.465	139.333	-10.849	223.352	282.262	69.910	4.471	-4.209	0.00041537	0.00072098	7.7786e-05	486.4	5.7162e-06	2.6438e-06	430.07	178.44	5.6465e-06	9.9117e-06	173.77	70.461	70.47	38.052	3.7505e-06	37.785	0.0047438	0.0076818	0.0022065	561.92	8.4059e-05	8.8323e-05	440.74	181.09	7.432e-05	8.5639e-05	181.24	72.419	73.507	39.27	7.7633e-05	39.056	303.236	100.357	89.888	-13.597	64.028	43.744	-14.748	-8.321	271.914	130.714	-11.411	-6.739	-4.424	-0.114	319.235	-4.378	-8191	255	
3451.433	1	1	0	0	0.16365	0.17563	0.11	0.36616	0.076601	0.052081	0.11048	0.10314	0.059031	0.21571	0.13243	0.22512	0.036969	0.32379	0.12986	0.14771	-1.8833	-3.0854	-2.5021	-2.4771	-3.0875	-2.3729	-2.8375	-3.2354	-2.3187	-3.2417	-2.65	-2.6292	-3.15	-2.4479	-2.9229	-3.0687	145.642	86.993	101.993	318.429	286.503	215.533	180.156	108.607	157.344	74.294	287.010	250.749	4.561	-16.680	-16.407	4.002	0.00037084	0.00054107	0.00026148	489.16	5.6656e-06	4.3252e-06	431.92	176.02	1.4231e-05	4.0627e-06	174.32	70.428	71.173	38.589	8.716e-06	38.474	0.0046409	0.0074291	0.0021792	561.77	8.0653e-05	8.5668e-05	440.57	180.19	7.2645e-05	8.3571e-05	181.67	72.499	74.053	39.64	7.651e-05	39.652	317.728	92.228	91.797	-13.373	60.850	225.488	-14.509	-8.557	179.367	146.966	-11.035	-6.481	-4.324	-0.230	116.496	-4.316	-8191	255	
3451.529	1	1	0	0	0.18676	0.11567	0.088871	0.20259	0.13927	0.13761	0.23993	0.22236	0.15846	0.2601	0.24009	0.11685	0.14248	0.30581	0.096721	0.090412	-1.7979	-3.1271	-2.6271	-2.475	-3.1458	-2.2479	-2.7958	-3.2562	-2.3042	-3.1958	-2.7958	-2.3417	-3.2438	-2.7146	-2.7	-3.2146	133.633	65.458	58.578	78.662	326.152	123.324	-3.253	223.469	256.440	194.771	140.042	322.358	231.691	298.339	147.287	146.829	0.00030881	0.00056235	4.9575e-05	492.37	7.2098e-06	3.1115e-06	435.52	177.7	1.0021e-05	6.0992e-06	176.92	71.067	71.971	39.165	5.9045e-06	39.209	0.0046377	0.0073642	0.0021883	565.43	8.1467e-05	8.8482e-05	442.63	181.64	7.5064e-05	8.8157e-05	183.96	73.668	74.753	40.231	7.9687e-05	40.413	298.290	86.421	203.294	-14.264	63.444	64.834	-14.692	-8.362	210.908	169.562	-11.456	-6.983	-4.379	-0.221	197.827	-4.421	-8191	255	
3451.626	1	1	0	0	0.17012	0.13215	0.2331	0.062117	0.15529	0.19742	0.083186	0.069463	0.10907	0.20715	0.25686	0.054713	0.23237	0.13974	0.09241	0.25504	-1.8563	-2.9167	-2.8271	-2.4771	-3.2146	-2.6542	-2.8438	-3.2667	-2.2333	-3.1396	-3.0479	-2.3792	-3.2208	-2.7375	-2.3625	-3.4646	138.787	246.812	119.109	85.376	186.961	329.979	298.165	-24.369	111.835	70.200	254.471	265.166	-14.437	124.717	171.512	205.062	0.00057235	0.00076721	9.7311e-05	494.29	3.7157e-06	3.6156e-06	436.98	178.87	6.0834e-06	3.7241e-06	178.36	71.966	71.923	39.37	3.9979e-06	38.782	0.0048063	0.0077276	0.0022296	569.75	8.1948e-05	8.8719e-05	445.51	183.31	7.4694e-05	8.6458e-05	184.81	74.376	75.199	40.517	8.0151e-05	40.332	309.716	38.829	145.371	-13.872	173.836	-3.215	-14.796	-8.091	178.056	102.092	-11.208	-6.753	-3.956	-0.203	249.154	-4.175	-8191	255	
3451.722	1	1	0	0	0.2031	0.12179	0.10079	0.075838	0.26991	0.35745	0.24314	0.10184	0.10877	0.26812	0.18324	0.054013	0.087412	0.12808	0.043062	0.37729	-2	-3.1042	-3.0854	-2.2667	-3.325	-2.6417	-2.5125	-3.2542	-2.35	-2.725	-3.1792	-2.3542	-3.1771	-2.8187	-2.4125	-3.2042	51.249	285.020	158.453	163.679	74.899	157.254	218.209	210.815	171.871	159.973	270.473	273.008	222.985	271.399	164.572	271.332	0.00045651	0.00025298	8.7664e-05	496.39	6.7524e-06	8.1179e-06	437.22	178.98	8.204e-06	7.7275e-06	175.09	70.67	71.164	38.818	6.6078e-06	38.106	0.004903	0.0078892	0.0022346	570.8	8.3179e-05	9.1769e-05	444.68	182.67	7.7526e-05	8.9045e-05	183.06	73.239	74.318	39.875	8.0221e-05	39.266	308.782	84.950	-10.160	-13.745	120.856	177.019	-14.813	-8.262	207.903	134.910	-11.406	-6.796	-4.279	-0.266	40.644	-4.744	-8191	255	
3451.842	1	1	0	0	0.10834	0.034222	0.25763	0.24432	0.26174	0.075913	0.33689	0.060106	0.24412	0.080802	0.17251	0.30416	0.045998	0.15525	0.37723	0.18886	-1.9646	-2.6917	-2.9437	-2.1167	-2.9146	-2.6792	-2.3563	-2.9813	-2.525	-2.6542	-3.1792	-2.3771	-3.0979	-3.2271	-2.2875	-3.2438	171.375	213.153	191.691	300.732	99.039	239.802	233.283	304.747	253.518	111.431	274.476	323.176	29.967	287.862	279.487	288.307	0.0004162	0.0010093	0.0002181	492.18	1.2245e-05	1.0186e-05	429.89	177.32	4.2964e-06	4.1244e-06	173.35	70.082	71.398	38.243	9.6725e-06	38.075	0.0048991	0.007858	0.0022602	568.91	8.432e-05	9.0724e-05	440.56	181.28	7.7308e-05	8.9414e-05	181.4	72.695	74.27	39.519	8.2143e-05	39.217	302.156	41.464	50.210	-13.460	164.697	170.827	-14.752	-8.448	203.296	153.874	-11.574	-6.949	-4.247	-0.344	137.396	-4.200	-8191	255	
3451.937	1	1	0	0	0.20678	0.089129	0.22663	0.17697	0.076533	0.083622	0.13442	0.22413	0.23937	0.23296	0.061215	0.1339	0.34876	0.33674	0.16385	0.085016	-2.15	-2.5167	-3.2583	-2.2958	-3.0292	-3.0625	-2.4479	-3.3	-2.7271	-2.4729	-3.2292	-2.4729	-2.9313	-3.1292	-2.2125	-3.0896	280.154	39.454	289.028	90.784	94.461	71.895	267.502	300.687	301.721	73.821	-18.855	294.587	-17.402	-24.559	159.506	263.558	0.00046249	0.00048156	7.0215e-05	489.97	1.4424e-06	6.622e-06	432.15	176.36	1.1821e-05	4.6584e-06	176.49	70.073	71.267	38.832	3.9542e-06	38.398	0.0049389	0.0078706	0.0022481	568.39	8.3864e-05	9.1225e-05	441.05	181.24	7.5993e-05	8.987e-05	181.91	72.887	74.377	39.909	8.1527e-05	39.659	295.948	77.830	161.284	-13.862	258.688	105.926	-14.748	-8.345	182.330	151.693	-11.355	-7.437	-4.149	-0.320	66.631	-4.157	-8191	255	
3452.010	1	1	0	0	0.27332	0.26924	0.097752	0.072943	0.033526	0.10685	0.095498	0.15572	0.16771	0.12392	0.09316	0.21483	0.13588	0.26454	0.058963	0.0049836	-2.3125	-2.5042	-3.1437	-2.325	-2.85	-3.0938	-2.2375	-3.0979	-2.7562	-2.5125	-3.275	-2.5271	-2.8479	-3.4167	-2.4021	-3.1	193.812	219.323	95.759	28.026	295.509	231.986	293.042	23.420	50.262	63.001	8.167	180.795	291.320	281.186	215.781	198.713	0.00039051	0.00024413	0.00020247	486.8	6.3e-06	6.1199e-06	432.93	177.65	9.044e-06	5.3577e-06	175.99	71.097	71.434	38.748	1.2862e-05	38.803	0.0048239	0.0079323	0.0022218	567.5	8.2908e-05	9.0217e-05	442.88	182.08	7.6999e-05	8.7335e-05	183.06	73.467	74.626	39.978	7.9371e-05	40.105	310.330	105.344	28.140	-13.401	85.812	254.221	-14.640	-8.544	223.969	55.926	-11.256	-6.813	-4.435	-0.149	138.016	-4.245	-8191	255	
3452.129	1	1	0	0	0.075886	0.18725	0.05276	0.046033	0.12656	0.174	0.11381	0.10262	0.2912	0.14992	0.2202	0.075771	0.40793	0.11932	0.19563	0.22313	-2.525	-2.2458	-3.2438	-2.2958	-2.4688	-3.1396	-2.4062	-3.1813	-2.8063	-2.3396	-3.3458	-2.5396	-2.5646	-3.4	-2.3063	-2.9896	124.457	97.854	80.290	325.176	162.120	324.787	67.060	22.317	21.176	201.135	212.005	255.627	240.187	255.044	203.621	270.519	0.00054699	0.00041873	8.2779e-05	492.69	5.984e-06	6.033e-06	435.99	177.57	1.1653e-05	3.5554e-06	176.2	71.452	70.701	38.842	3.8535e-06	38.169	0.0047814	0.0077108	0.0021738	567.19	8.215e-05	8.9534e-05	442.88	182.24	7.5737e-05	8.8592e-05	182.97	73.265	74.113	39.721	7.8804e-05	39.333	316.487	45.851	118.396	-14.405	222.904	56.051	-14.852	-8.570	174.834	8.782	-11.270	-7.552	-4.301	-0.319	207.617	-4.488	-8191	255	
3452.225	1	1	0	0	0.17696	0.12244	0.30822	0.2179	0.14405	0.23078	0.21585	0.11811	0.22276	0.2433	0.17179	0.23571	0.32372	0.16576	0.20048	0.030157	-2.6583	-2.0812	-3.2417	-2.8458	-2.5479	-3.1708	-2.4729	-2.7542	-3.0875	-2.35	-3.225	-2.7	-2.5354	-3.2771	-2.4688	-2.9542	163.510	9.073	332.312	-24.070	175.806	239.877	161.785	157.069	196.828	310.364	11.638	-17.511	329.218	239.361	-9.507	4.349	0.0005619	0.00063763	0.00015403	495.43	4.2083e-07	7.0341e-06	428.96	178.48	1.2256e-05	6.554e-06	174.41	69.577	70.912	38.318	5.1444e-06	37.768	0.0047235	0.0077162	0.0021811	569.66	8.3224e-05	8.7368e-05	438.89	181.48	7.5612e-05	8.8752e-05	181.64	72.469	74.199	39.434	7.9716e-05	38.875	326.063	101.571	-1.427	-13.071	130.878	71.075	-15.054	-8.376	91.076	177.754	-11.660	-7.158	-4.049	-0.407	104.785	-4.755	-8191	255	
3452.321	1	1	0	0	0.22338	0.18487	0.24247	0.065006	0.16462	0.19045	0.14479	0.27675	0.17317	0.11821	0.13516	0.034892	0.017452	0.11284	0.19393	0.27852	-2.6604	-2.1937	-3.0312	-2.6458	-2.4458	-3.3021	-2.6854	-2.7479	-3.1333	-2.3896	-3.125	-2.8875	-2.4354	-3.1188	-2.6292	-2.6771	221.269	275.534	222.521	292.223	22.242	97.419	31.059	253.721	268.912	292.565	219.617	170.151	45.157	286.877	245.187	287.400	0.00062021	0.00076677	4.4859e-05	500.68	8.525e-06	7.202e-06	432.66	176.46	1.5058e-05	3.1446e-06	174.36	70.414	71.661	38.53	6.2178e-06	38.364	0.0047436	0.0077918	0.0021261	567.52	8.2722e-05	8.7177e-05	440.41	181.12	7.5103e-05	8.7544e-05	181.83	72.736	74.453	39.76	7.9155e-05	39.412	296.132	4.194	59.366	-13.927	143.605	148.221	-15.357	-8.537	143.820	276.306	-11.282	-6.874	-4.251	-0.509	147.909	-4.389	-8191	255	
3452.418	1	1	0	0	0.11247	0.03001	0.18495	0.16331	0.18481	0.14384	0.17829	0.17791	0.1585	0.12421	0.09932	0.27654	0.050189	0.13738	0.080022	0.2379	-2.8688	-2.2271	-3.1229	-2.8479	-2.3812	-3.3187	-2.6583	-2.6562	-3.3604	-2.3021	-2.9208	-2.9271	-2.2958	-3.2958	-2.625	-2.6729	2.087	242.797	243.170	305.957	316.469	232.512	211.618	37.384	42.633	185.908	286.008	216.473	17.054	250.940	297.787	43.633	0.00027256	0.00035381	0.00019804	491.95	1.1428e-05	9.2691e-06	431.98	178.23	1.4886e-05	7.9095e-06	176.56	70.591	72.146	38.878	8.1219e-06	38.549	0.0046697	0.0076836	0.002149	568.1	8.2814e-05	8.5592e-05	442.79	182.35	7.361e-05	8.7207e-05	183.31	73.409	74.993	40.033	8.1134e-05	39.833	321.890	78.391	33.566	-13.466	26.124	135.800	-15.352	-8.612	205.066	105.994	-11.296	-7.428	-4.285	-0.258	140.649	-4.797	-8191	255	
3452.538	1	1	0	0	0.061458	0.095115	0.11449	0.019018	0.028782	0.11591	0.20876	0.48342	0.15099	0.07163	0.15841	0.2602	0.42396	0.14649	0.14068	0.23213	-2.8312	-2.3292	-2.8708	-2.9437	-2.1896	-3.2125	-2.8771	-2.4938	-3.1312	-2.4875	-2.8021	-3.1063	-2.2958	-3.25	-2.6917	-2.4021	21.698	75.078	254.554	204.614	248.156	268.583	301.346	219.523	288.019	151.697	32.233	314.246	15.081	271.734	6.487	-19.488	0.00055102	0.00065445	0.00014662	488.44	6.865e-07	4.4565e-06	433.41	178.06	9.8592e-06	4.8112e-06	175.05	70.987	71.91	39.061	6.2562e-06	38.62	0.0046895	0.0077178	0.0021616	565.59	8.2676e-05	8.4598e-05	443.08	182.12	7.2693e-05	8.7853e-05	183.1	73.321	74.707	40.083	7.9723e-05	39.56	305.958	102.129	22.802	-15.024	156.474	214.500	-15.001	-8.314	139.865	88.263	-11.131	-7.552	-4.436	-0.206	122.232	-4.412	-8191	255	
3452.634	1	1	0	0	0.0333	0.041543	0.25173	0.13916	0.017105	0.2452	0.25794	0.13617	0.10626	0.25624	0.053301	0.14707	0.17698	0.14516	0.077259	0.21629	-2.8812	-2.4875	-2.7	-3.3583	-2.4083	-3.0646	-2.8479	-2.3792	-3.2771	-2.55	-2.6063	-3.2021	-2.2667	-3.0167	-2.8042	-2.4229	117.260	315.599	306.611	-20.632	48.099	141.275	196.565	279.375	17.676	150.665	239.741	-20.579	246.933	294.813	161.222	274.826	0.00039246	0.00032264	0.00011827	498.24	3.6333e-06	7.5405e-06	432.44	177.3	1.3741e-05	6.301e-06	175.2	70.299	71.162	38.391	5.9161e-06	37.627	0.0045878	0.007631	0.002118	564.93	8.1233e-05	8.2995e-05	440.97	181.76	7.153e-05	8.6167e-05	181.74	72.556	74.002	39.461	7.7174e-05	38.707	284.543	-14.710	43.482	-13.818	72.911	204.981	-14.841	-8.372	164.025	65.853	-11.278	-7.442	-4.247	-0.428	188.722	-4.397	-8191	255	
3452.706	1	1	0	0	0.20652	0.071399	0.16055	0.16126	0.16978	0.013871	0.18117	0.040342	0.25777	0.23742	0.083538	0.18737	0.24212	0.16586	0.038899	0.054627	-2.7438	-2.3792	-2.6708	-3.2896	-2.2062	-3.0542	-3.0958	-2.3083	-3.0896	-2.5812	-2.5583	-3.2729	-2.45	-2.9396	-3.0042	-2.4833	234.237	19.605	226.458	-25.532	305.250	183.168	293.346	287.186	270.065	299.656	296.727	270.454	314.469	44.762	239.279	144.292	0.00057142	0.00042587	0.00017545	487.6	8.7158e-06	4.5436e-06	429.13	176.23	9.6476e-06	1.017e-05	173.75	69.484	71.39	38.678	3.5066e-06	37.639	0.0045604	0.0075322	0.0020877	559.27	7.8667e-05	8.3021e-05	438.49	180.52	7.0429e-05	8.4758e-05	180.73	71.963	73.995	39.536	7.491e-05	38.789	313.434	74.561	109.879	-14.555	221.211	226.236	-15.131	-8.401	1.047	171.129	-11.478	-6.964	-4.227	-0.386	60.710	-4.685	-8191	255	
3452.802	1	1	0	0	0.21426	0.17855	0.2255	0.22329	0.18994	0.035287	0.18966	0.19188	0.2203	0.22429	0.20276	0.17862	0.098591	0.36113	0.095133	0.25408	-2.7792	-2.7042	-2.4188	-3.2208	-2.4938	-2.8646	-3.1125	-2.1729	-3.0375	-2.6813	-2.35	-3.2375	-2.6083	-3.0229	-3.1188	-2.5667	299.312	148.699	282.588	19.435	201.365	173.020	74.966	308.805	168.520	175.590	307.694	257.688	62.681	297.041	206.316	192.932	0.00029596	0.00020378	5.8705e-05	493.87	1.6484e-06	9.6323e-06	428.27	177.87	1.6075e-05	9.9237e-06	176.11	70.659	71.359	39.028	2.6053e-06	38.053	0.004401	0.0074339	0.0020377	560.15	7.8084e-05	8.2297e-05	438.93	181.4	6.8858e-05	8.344e-05	181.59	72.628	74.3	39.839	7.5909e-05	39.399	327.040	46.592	91.951	-14.059	221.381	173.388	-15.321	-8.924	128.681	173.656	-11.749	-7.078	-4.513	-0.443	252.455	-4.826	-8191	255	
3452.921	1	1	0	0	0.047562	0.27932	0.072177	0.083339	0.1599	0.074383	0.27768	0.10547	0.21738	0.19951	0.056198	0.19451	0.28607	0.33856	0.15402	0.024362	-2.8646	-2.9042	-2.425	-3.2104	-2.4229	-2.7271	-3.2292	-2.3729	-3.0417	-2.8979	-2.425	-3.3563	-2.4979	-2.675	-3.1562	-2.5438	86.507	145.683	76.503	20.993	240.870	260.203	-6.131	0.563	298.461	35.564	86.650	332.272	118.064	-3.381	200.802	293.656	0.00034436	0.00018444	0.00023369	494.84	6.8549e-06	6.7262e-06	434.29	178.65	8.8156e-06	1.644e-06	175.04	70.422	71.536	39.054	7.8799e-06	38.515	0.004415	0.0076176	0.0020804	563.86	8.1182e-05	8.4037e-05	442.15	182.6	7.2147e-05	8.7581e-05	183.11	73.037	74.755	40.131	7.9459e-05	39.786	329.008	22.932	108.213	-14.373	112.290	136.244	-15.131	-8.735	107.637	179.925	-11.414	-7.147	-4.686	-0.239	123.186	-4.960	-8191	255	
3453.017	1	1	0	0	0.54734	0.33328	0.2589	0.10012	0.029041	0.06369	0.24424	0.20756	0.16535	0.098542	0.074806	0.19715	0.31439	0.46453	0.036328	0.33756	-2.6229	-2.9813	-2.2708	-3.1771	-2.6104	-2.4708	-3.4167	-2.4792	-2.8937	-3.2479	-2.3292	-3.2104	-2.7833	-2.4854	-3.1937	-2.3937	84.530	139.679	25.231	287.640	2.342	286.007	177.246	207.959	293.199	98.740	292.535	325.539	330.980	297.369	22.438	298.232	0.00047917	0.00031843	0.00017453	492.05	4.2178e-06	5.3093e-06	432.51	178.58	9.1622e-06	8.6649e-06	176.77	70.793	71.753	39.147	7.8504e-06	38.139	0.0046644	0.0078834	0.0021852	566.16	8.3014e-05	8.7758e-05	443.12	183.04	7.2852e-05	8.7685e-05	183.25	73.014	74.972	40.086	7.7335e-05	39.339	-20.355	14.488	-1.801	-12.922	249.328	125.203	-15.415	-8.637	67.917	171.191	-11.402	-7.227	-4.598	-0.360	127.930	-4.923	-8191	255	
3453.115	1	1	0	0	0.2738	0.16162	0.24739	0.3325	0.27944	0.18293	0.094399	0.38442	0.1401	0.20694	0.14436	0.12533	0.13951	0.36656	0.12579	0.15898	-2.5333	-3.2646	-2.2896	-3.1104	-2.8625	-2.5604	-3.2896	-2.4646	-2.75	-3.1417	-2.4229	-3.1208	-3.0021	-2.5521	-3.2625	-2.6229	18.981	142.185	199.036	202.242	128.968	315.946	233.326	253.867	130.798	-15.040	310.371	193.587	146.681	327.678	205.775	33.421	0.0003348	0.0001252	0.00023286	491.2	1.0346e-05	3.2631e-06	431.79	177.29	3.7699e-06	5.7394e-06	174.87	70.089	71.843	38.824	4.2284e-06	37.635	0.0046342	0.0076384	0.0021544	560.68	8.3181e-05	8.5799e-05	441.47	182.35	7.3211e-05	8.7685e-05	182.05	72.424	74.729	39.911	7.9556e-05	39.031	287.193	8.791	59.856	-14.646	78.646	97.991	-14.957	-8.874	12.291	264.513	-11.593	-7.295	-4.943	-0.519	140.640	-4.662	-8191	255	
3453.234	1	1	0	0	0.13221	0.18487	0.11556	0.035598	0.14509	0.063934	0.12751	0.31204	0.16976	0.10526	0.07345	0.23281	0.13022	0.40947	0.24126	0.31663	-2.4208	-3.0604	-2.0958	-3.0104	-2.9396	-2.275	-3.1771	-2.375	-2.6292	-3.1604	-2.4208	-3.0563	-2.9417	-2.5312	-3.2104	-2.8312	101.716	62.279	253.732	200.639	311.909	92.514	22.211	239.877	284.779	226.868	35.052	72.054	25.819	306.769	-23.696	-26.007	0.00038213	0.00032357	0.00015095	493.77	3.6717e-06	9.0137e-06	431.06	177.83	2.8411e-06	5.8762e-06	172.58	70.197	71.328	39.326	1.0135e-05	38.242	0.004737	0.0078657	0.0022159	566.86	8.6012e-05	9.0381e-05	440.43	182.12	7.5696e-05	8.8911e-05	181.09	72.527	74.673	40.285	7.8439e-05	39.454	-6.661	78.331	17.802	-14.191	104.977	199.645	-15.145	-8.815	247.029	90.227	-11.675	-7.221	-4.631	-0.471	119.002	-4.809	-8191	255	
3453.306	1	1	0	0	0.11747	0.03406	0.086227	0.29674	0.32255	0.30512	0.29626	0.092905	0.37633	0.044803	0.36722	0.080336	0.073172	0.081123	0.22241	0.29339	-2.2417	-3.2604	-2.3896	-2.9042	-3.0333	-2.3688	-3.0271	-2.7583	-2.3312	-3.0729	-2.45	-2.8604	-3.0667	-2.4333	-2.9625	-2.8458	267.498	150.196	136.685	165.730	145.568	-5.044	210.562	-10.745	29.972	116.543	8.148	278.729	263.971	24.922	233.065	319.312	0.00052012	0.00035725	8.0033e-05	490.77	7.4336e-06	6.6169e-06	431.1	178.54	4.863e-06	4.2877e-06	175.58	70.765	72.513	39.356	2.3915e-06	38.592	0.0047019	0.0076522	0.0021838	565.66	8.3172e-05	8.7828e-05	442.23	183.37	7.4235e-05	8.7185e-05	183.36	73.368	75.45	40.606	7.6782e-05	39.948	-21.036	50.747	256.611	-13.598	173.172	99.294	-15.196	-8.536	-12.823	136.420	-11.943	-7.715	-4.521	-0.370	195.146	-4.924	-8191	255	
3453.402	1	1	0	0	0.24277	0.14372	0.071121	0.070259	0.21685	0.061714	0.059019	0.18944	0.090932	0.17648	0.08226	0.31219	0.058624	0.23112	0.095022	0.16064	-1.9833	-3.0604	-2.4229	-2.7792	-3.1979	-2.3333	-3.2958	-3.1104	-2.4146	-3.1813	-2.5271	-2.5125	-3.4833	-2.3875	-2.9875	-3.2125	-3.660	183.055	324.558	187.781	62.354	217.048	-19.668	326.871	236.263	259.908	126.703	3.470	266.501	68.030	262.289	290.705	0.00040696	0.00055565	0.00026052	492.1	6.0246e-06	6.8363e-06	431.57	180.51	1.7285e-05	9.7588e-07	178.14	71.593	72.537	39.689	6.7734e-06	38.707	0.0046725	0.0076569	0.0021768	567.7	8.2643e-05	8.8259e-05	444.78	184.7	7.3481e-05	8.7212e-05	184.82	74.016	75.554	40.786	7.7866e-05	40.058	314.391	27.101	88.628	-12.977	267.740	133.851	-14.807	-8.458	116.408	8.803	-12.000	-7.323	-4.504	-0.462	227.081	-5.061	-8191	255	
3453.522	1	1	0	0	0.15085	0.2124	0.14137	0.30311	0.19648	0.11909	0.48785	0.29537	0.31455	0.084266	0.17285	0.26717	0.18941	0.27814	0.12461	0.27563	-1.8875	-3.2292	-2.6417	-2.6042	-3.4167	-2.4896	-3.05	-3.2	-2.2792	-3.3625	-2.6625	-2.5625	-3.15	-2.2708	-2.8604	-3.1	313.171	89.495	318.734	298.139	99.522	208.578	318.877	263.258	28.209	-1.110	329.458	205.566	80.704	82.083	317.735	283.791	0.00045012	0.0011547	0.00019056	490.61	6.9788e-06	1.377e-06	435.33	177.57	3.0921e-06	5.197e-06	175.74	70.235	72.162	38.83	8.128e-06	37.659	0.0047163	0.0076395	0.0021966	569.1	8.3648e-05	8.8609e-05	444.95	183.5	7.5071e-05	8.8002e-05	183.28	72.909	74.899	40.014	7.944e-05	38.945	320.475	102.363	23.777	-13.712	132.028	248.928	-14.810	-8.499	193.340	102.116	-11.791	-7.149	-4.532	-0.636	216.912	-4.830	-8191	255	
3453.619	1	1	0	0	0.09466	0.24448	0.20929	0.18163	0.12021	0.20757	0.064987	0.32241	0.33259	0.14355	0.14974	0.1843	0.11046	0.37818	0.16991	0.26382	-1.9146	-3.0875	-2.6417	-2.2104	-3.3083	-2.4437	-2.8917	-3.2208	-2.2708	-3.1542	-2.8979	-2.4354	-3.15	-2.3708	-2.7229	-3.2708	296.127	298.166	231.514	-12.485	280.542	250.966	220.745	236.124	19.280	-13.238	307.233	330.627	256.745	3.603	147.248	68.580	0.00047848	0.00030078	0.00013989	493.44	5.2267e-06	4.9076e-06	427.05	177.59	4.6679e-06	1.0846e-05	174.11	70.328	72.054	39.005	5.0752e-06	37.979	0.004745	0.0076425	0.0022279	562.91	8.1324e-05	8.4866e-05	438.45	181.58	7.084e-05	8.1778e-05	180.71	72.584	74.565	40.051	7.3748e-05	39.094	326.539	41.514	79.434	-13.586	139.339	200.931	-15.207	-8.906	183.314	98.898	-11.645	-7.698	-4.568	-0.378	175.486	-4.646	-8191	255	
3453.715	1	1	0	0	0.047812	0.11236	0.17939	0.22725	0.075925	0.19394	0.30575	0.042192	0.212	0.29736	0.11788	0.37189	0.17667	0.14042	0.13304	0.11994	-1.85	-2.8917	-2.9458	-2.3604	-3.1979	-2.5417	-2.7562	-3.1958	-2.4688	-3.2042	-2.8771	-2.2833	-3.2313	-2.6312	-2.4958	-3.3688	300.041	233.844	98.918	278.527	-20.405	235.388	312.229	231.529	51.615	187.938	8.704	331.831	-6.857	329.534	274.010	237.155	0.00014338	0.00020887	0.00010286	490.47	6.7781e-06	4.4842e-06	430.74	178.46	4.2935e-06	7.5363e-06	174.65	70.985	72.154	39.138	6.1653e-06	38.964	0.0045718	0.0072446	0.0021152	562.5	7.6793e-05	8.5226e-05	441.01	182.13	7.0815e-05	8.2279e-05	182.42	73.176	75.185	40.466	7.7802e-05	39.997	296.603	72.928	110.784	-14.038	146.236	19.794	-15.260	-9.082	243.886	127.172	-12.335	-7.491	-4.622	-0.753	136.161	-4.765	-8191	255	
3453.835	1	1	0	0	0.19656	0.094307	0.044447	0.23824	0.16668	0.058851	0.29067	0.15098	0.21501	0.09334	0.19003	0.27455	0.15888	0.40484	0.203	0.34251	-1.7125	-2.9833	-2.9354	-2.4479	-3.1354	-2.5646	-2.5	-3.1542	-2.4104	-3.0312	-3.225	-2.3958	-3.0854	-3.0125	-2.3417	-3.4979	-16.062	309.354	119.601	228.463	47.466	89.819	219.215	224.093	9.292	167.964	27.601	260.472	-1.775	266.849	318.921	93.777	0.00047966	5.8283e-05	0.00013437	485.11	4.8211e-06	7.1628e-06	436.82	180.68	1.3569e-05	4.3733e-06	176.85	71.676	72.879	39.804	4.2633e-06	39.379	0.0045735	0.0074719	0.0021582	563.83	8.0752e-05	8.6778e-05	444.06	183.83	7.1643e-05	8.3593e-05	184.28	74.03	75.771	40.991	7.7766e-05	40.552	313.017	264.630	-12.366	-13.667	256.189	169.076	-14.505	-8.881	134.380	55.289	-11.529	-7.527	-4.785	-0.700	173.154	-5.194	-8191	255	
3453.907	1	1	0	0	0.11471	0.097199	0.036298	0.18653	0.20929	0.17266	0.069928	0.10234	0.029496	0.10533	0.13113	0.12421	0.13233	0.38926	0.17634	0.14373	-2.0875	-2.8708	-3.0458	-2.4938	-3.1083	-2.7729	-2.4146	-3.1854	-2.475	-2.7917	-3.0125	-2.4021	-3.1125	-3.075	-2.4	-3.375	315.679	-19.641	242.592	130.063	129.178	147.111	233.241	189.839	-20.649	204.355	-4.378	296.376	62.938	-8.484	150.832	231.925	0.00056136	0.00036841	8.0869e-05	494.88	6.3325e-06	8.3894e-06	435.88	180.2	5.8628e-06	2.409e-06	178.34	72.21	73.494	40.09	5.096e-06	39.325	0.0046555	0.0075057	0.0021303	566.84	7.8488e-05	8.6171e-05	445.95	184.37	7.2487e-05	8.4248e-05	185.24	74.672	76.227	41.25	7.6973e-05	40.547	298.975	95.706	124.066	-14.205	13.010	110.552	-14.547	-8.754	111.754	76.928	-11.076	-7.133	-4.336	-0.587	-15.977	-4.863	-8191	255	
3454.003	1	1	0	0	0.26323	0.17809	0.24205	0.22325	0.044239	0.3366	0.075173	0.24156	0.14916	0.22747	0.028905	0.12061	0.095006	0.18151	0.11027	0.12641	-2.2604	-2.4917	-3.2062	-2.3688	-2.9208	-2.9958	-2.3354	-3.3521	-2.5042	-2.7583	-3.1833	-2.15	-2.9771	-3.125	-2.2417	-3.2521	324.641	201.080	184.529	2.002	58.905	239.738	289.258	41.912	245.250	239.210	62.631	35.144	84.822	309.386	185.862	100.855	0.00049779	0.00098199	0.00010866	490.04	5.1949e-06	2.8415e-06	437.96	181.04	1.677e-05	7.4656e-06	177.4	71.766	73.11	39.719	4.1507e-06	39.199	0.0046027	0.0074208	0.0020804	561.65	7.8202e-05	8.5326e-05	445.75	184.05	7.203e-05	8.4268e-05	184.32	73.893	75.988	40.873	7.4448e-05	40.056	297.729	70.232	111.187	-14.219	59.885	123.843	-14.755	-8.694	181.359	165.429	-12.041	-7.395	-4.495	-0.572	231.531	-4.649	-8191	255	
3454.099	1	1	0	0	0.12566	0.024178	0.21447	0.10696	0.17697	0.051323	0.18995	0.28979	0.33725	0.041465	0.16888	0.31097	0.09522	0.13529	0.16125	0.28507	-2.1667	-2.4875	-3.4417	-2.3521	-2.8563	-3.0312	-2.3917	-3.1729	-2.5563	-2.3771	-3.4042	-2.4708	-2.9646	-3.3812	-2.2042	-3.2667	251.018	327.226	149.331	259.223	286.751	228.061	238.467	332.719	325.126	251.324	298.447	269.088	231.994	90.505	247.515	242.408	0.00039699	0.0004946	6.5584e-05	489.28	4.0018e-06	2.3219e-06	436.94	179.58	5.7763e-07	4.2931e-06	176.09	71.442	73.204	40.323	4.101e-06	39.485	0.0045782	0.007448	0.0020851	565.33	7.8743e-05	8.6154e-05	443.89	183.91	7.3236e-05	8.5232e-05	184.1	74.157	76.232	41.424	7.8575e-05	40.694	313.211	194.515	-12.563	-13.942	167.585	202.204	-15.283	-8.513	232.678	55.736	-11.591	-7.386	-4.554	-0.620	70.894	-4.796	-8191	255	
3454.218	1	1	0	0	0.064527	0.26805	0.16039	0.23789	0.25331	0.17612	0.066354	0.077877	0.1729	0.0096106	0.097001	0.089084	0.22066	0.23124	0.085546	0.16471	-2.2771	-2.3333	-3.1542	-2.4938	-2.6375	-3.1188	-2.2729	-3.1042	-2.9229	-2.3604	-3.1292	-2.4542	-2.4604	-3.1458	-2.1312	-3.05	311.054	145.152	160.774	192.353	25.037	156.988	38.227	331.399	27.041	-14.001	204.065	266.155	309.762	285.209	222.104	307.988	0.00047095	0.00066055	3.5229e-05	496.02	6.4156e-06	8.1713e-06	437.78	180.72	6.9021e-06	4.5718e-06	179.13	72.588	73.809	40.887	1.3309e-05	40.303	0.0047398	0.0077242	0.0021532	569.4	8.1935e-05	8.836e-05	446.98	185.03	7.5441e-05	8.7997e-05	186.24	75.15	76.877	42.056	7.9309e-05	41.667	-15.932	69.449	112.820	-13.716	153.584	192.107	-14.822	-8.637	161.444	130.348	-11.145	-6.950	-4.583	-0.955	128.026	-4.625	-8191	255	
3454.314	1	1	0	0	0.27293	0.18113	0.18535	0.030576	0.071217	0.13574	0.17325	0.15073	0.09415	0.14283	0.052747	0.39782	0.12584	0.30738	0.33351	0.12656	-2.4125	-2.4125	-3.2938	-2.6375	-2.4437	-3.1375	-2.1688	-2.8375	-2.75	-2.2417	-3.1792	-2.7625	-2.55	-3.3333	-2.05	-2.8396	135.309	144.248	23.995	233.710	33.243	56.227	317.421	231.877	111.084	222.380	165.705	156.522	232.963	-12.431	153.968	233.207	0.00067006	0.00040347	0.0001721	500.09	9.0554e-06	3.1302e-06	439.52	183.59	9.251e-06	3.6844e-06	181.71	73.546	75.012	41.781	5.9528e-06	41.644	0.0046359	0.0075054	0.0020909	573.97	7.9472e-05	8.5862e-05	448.7	186.68	7.2313e-05	8.4036e-05	188.17	76.124	77.782	42.809	7.7176e-05	42.67	310.029	115.948	37.058	-14.349	163.071	78.587	-14.844	-8.448	152.637	52.565	-11.890	-7.318	-4.183	-0.307	143.123	-4.524	-8191	255	
3454.410	1	1	0	0	0.1358	0.1152	0.1401	0.026559	0.12386	0.18722	0.17902	0.17536	0.19985	0.24661	0.1321	0.11516	0.033906	0.22143	0.2308	0.32049	-2.4917	-2.175	-3.1896	-2.6688	-2.4062	-3.2458	-2.5396	-2.7646	-3.0938	-2.1917	-3.1167	-2.8521	-2.3063	-3.2104	-2.4437	-2.8333	287.984	50.372	221.147	128.861	332.317	262.021	272.922	267.940	20.742	311.537	71.696	11.510	251.733	288.672	192.298	239.775	0.00063649	0.00042582	0.00016447	501.26	3.6056e-06	2.536e-06	439.94	183.16	2.2497e-06	4.9262e-06	181.62	73.811	74.781	41.681	1.0176e-05	41.344	0.0045879	0.0073564	0.0020306	568.2	7.7949e-05	8.1871e-05	449.74	186.73	7.0082e-05	8.1207e-05	187.54	76.204	77.583	42.795	7.7053e-05	42.378	321.810	85.783	67.623	-13.752	153.487	153.321	-14.806	-8.448	252.996	49.338	-11.549	-7.344	-4.356	-0.753	144.714	-4.706	-8191	255	
3454.507	1	1	0	0	0.19137	0.19552	0.16615	0.039655	0.20297	0.25294	0.13049	0.20527	0.073038	0.097914	0.14202	0.038444	0.12632	0.22294	0.12309	0.12752	-2.7104	-2.1583	-3.0771	-2.8417	-2.4062	-2.8438	-2.6146	-2.5521	-3.175	-2.1208	-3.0208	-2.8271	-2.2375	-3.2104	-2.5896	-2.6292	93.932	-23.477	270.623	2.246	247.526	189.922	281.503	174.644	245.418	-10.803	283.835	121.536	282.641	322.344	67.459	122.780	0.0008028	0.00036061	0.00011689	494.74	8.0382e-06	4.8164e-06	436.88	181.24	8.6924e-06	1.5143e-06	180.22	73.268	74.852	41.52	1.3537e-05	40.857	0.0045255	0.0074689	0.0020566	567.2	7.9066e-05	8.3748e-05	446.62	185.62	7.0063e-05	8.4363e-05	186.3	75.608	77.289	42.516	7.7368e-05	42	-24.376	90.628	59.500	-13.532	73.213	101.954	-14.767	-8.596	171.202	24.814	-11.427	-7.935	-4.228	-0.776	103.305	-4.764	-8191	255	
3454.603	1	1	0	0	0.21587	0.079057	0.1156	0.25094	0.084287	0.012345	0.229	0.23012	0.18338	0.08576	0.088304	0.18911	0.2958	0.0090921	0.17276	0.36079	-2.7479	-2.0625	-2.9104	-2.8604	-2.25	-3.0417	-2.6937	-2.425	-3.1688	-2.1917	-2.8583	-3.0292	-2.2687	-3.1688	-2.7313	-2.3438	110.380	149.844	90.750	228.594	-9.158	312.007	-15.021	7.321	249.029	274.405	123.912	-9.150	79.566	161.861	89.103	282.561	0.00052101	0.00060315	0.0002157	497.04	3.0052e-06	2.7266e-06	437.47	180.83	1.4707e-05	1.0284e-05	179.71	72.857	73.565	41.041	4.1485e-06	40.624	0.0045492	0.0073596	0.002044	565.93	7.6799e-05	8.017e-05	445.4	184.96	6.707e-05	8.0798e-05	185.57	75.184	76.541	41.99	7.4209e-05	41.683	322.248	29.814	-8.600	-14.276	284.569	62.257	-15.270	-8.703	139.017	93.600	-11.722	-7.462	-4.597	-0.600	178.042	-4.626	-8191	255	
3454.699	1	1	0	0	0.024452	0.083256	0.27719	0.16152	0.097345	0.10025	0.12119	0.077646	0.16388	0.17081	0.089187	0.11968	0.17219	0.2496	0.032118	0.019261	-2.8146	-2.1771	-2.8958	-3.0479	-2.2792	-3.1583	-2.8667	-2.4333	-3.2375	-2.5646	-2.7042	-3.2125	-2.0917	-3.0229	-2.7833	-2.3646	251.525	178.039	5.093	194.491	23.041	245.292	230.406	48.615	53.846	102.954	213.938	36.705	295.411	287.529	212.360	-12.177	0.00044117	0.0002983	0.00021999	494.14	2.9691e-06	4.5147e-06	439.56	181.27	9.1359e-06	4.7887e-06	179.81	72.999	73.597	40.586	2.2503e-06	40.627	0.0043881	0.0074817	0.0020398	566.99	7.8813e-05	8.2688e-05	447.52	185.62	7.2646e-05	8.7452e-05	186.52	75.378	76.649	41.779	8.0668e-05	41.672	284.828	81.088	43.275	-14.366	140.102	169.159	-15.339	-8.999	114.546	125.840	-11.495	-7.147	-4.551	-0.454	137.557	-4.347	-8191	255	
3454.795	1	1	0	0	0.046525	0.3269	0.3454	0.33666	0.283	0.072988	0.23708	0.1129	0.33406	0.34965	0.21976	0.17916	0.29036	0.11306	0.18579	0.21275	-2.6604	-2.2958	-2.4104	-3.1875	-2.0187	-2.9729	-2.9896	-2.4813	-3.1021	-2.4396	-2.4104	-3.0625	-2.4021	-2.8875	-2.8937	-2.325	238.540	305.351	310.186	-24.991	89.534	107.656	-0.553	-16.410	16.396	244.259	300.511	122.541	291.375	14.142	-6.790	263.441	0.00032903	0.00079111	8.3963e-05	501.12	8.9449e-07	3.9259e-06	437.77	181.51	9.2002e-06	6.7732e-06	182.03	73.46	74.117	40.672	7.697e-06	40.302	0.00462	0.0077644	0.0021307	567.72	8.0854e-05	8.3711e-05	446.87	185.21	6.9111e-05	8.5004e-05	187.55	75.876	76.588	41.647	7.5927e-05	41.57	304.600	31.816	280.721	-12.745	333.609	208.383	-14.922	-8.370	170.430	89.016	-11.590	-7.190	-4.586	-0.594	67.251	-4.811	-8191	255	
3454.916	1	1	0	0	0.25941	0.14413	0.10616	0.091778	0.14638	0.07688	0.11261	0.11917	0.20731	0.02586	0.064599	0.072365	0.22883	0.19215	0.22427	0.11149	-2.7208	-2.6021	-2.3625	-3.2229	-2.3688	-2.8083	-3.0167	-2.1792	-3.0771	-2.7396	-2.3688	-3.2042	-2.2875	-2.7875	-3.1	-2.3896	-1.055	110.618	112.651	158.331	140.382	324.205	14.084	-19.486	269.465	24.722	316.438	284.491	-23.645	330.351	277.802	71.619	0.00051324	0.00053369	9.3596e-05	493.63	3.8959e-06	8.676e-06	438.17	180.38	3.5321e-06	8.9795e-06	180.39	73.296	73.1	40.302	5.0805e-06	39.339	0.0044483	0.0073965	0.0020486	564.16	7.6724e-05	8.0063e-05	443.73	184.32	6.629e-05	8.071e-05	185.85	74.988	76.114	41.126	7.0422e-05	40.43	305.977	15.990	115.796	-14.217	9.799	94.608	-15.348	-8.772	252.913	136.985	-11.768	-7.319	-4.537	-0.342	54.804	-4.936	-8191	255	
3455.012	1	1	0	0	0.2149	0.19794	0.14913	0.17804	0.093338	0.23704	0.28454	0.19844	0.29304	0.1586	0.081485	0.17353	0.12623	0.36316	0.042337	0.31698	-2.8646	-2.525	-2.2625	-3.1437	-2.4521	-2.6792	-3.1583	-2.2021	-2.8396	-3.025	-2.225	-3.1146	-2.5333	-2.5354	-3.2542	-2.2917	273.684	117.107	39.797	248.417	54.779	123.157	279.482	-22.243	19.976	325.482	256.837	-4.542	27.769	30.761	227.052	-2.647	0.00038365	0.00092692	0.0001364	490.09	7.2751e-06	2.0252e-06	434.58	180.01	7.0179e-06	2.8677e-06	178.4	72.375	74.093	40.356	6.3262e-06	39.418	0.004171	0.0069633	0.0019335	555.43	7.3821e-05	7.5606e-05	442.98	184	6.4189e-05	7.8121e-05	184.48	74.678	76.268	41.326	7.1669e-05	40.626	302.311	118.463	32.780	-13.526	151.650	59.002	-14.921	-8.678	8.745	52.721	-11.385	-7.447	-4.522	-0.146	121.505	-4.810	-8191	255	
3455.106	1	1	0	0	0.15466	0.32639	0.11198	0.35399	0.16543	0.27892	0.19152	0.25939	0.13642	0.28875	0.16134	0.1861	0.094837	0.35404	0.19617	0.26272	-2.6104	-2.8146	-2.1854	-3.1833	-2.7396	-2.6292	-3.2687	-2.3542	-2.7188	-2.925	-2.2833	-3.1875	-2.7	-2.5812	-3.2167	-2.4688	314.037	294.543	196.029	134.198	39.628	177.882	34.996	327.628	256.227	124.314	-15.677	275.291	149.340	305.616	-12.278	151.401	0.00064442	0.00067597	0.00017218	490.99	5.9087e-06	8.8437e-06	433.44	180.14	7.9784e-06	6.4446e-06	179.89	72.683	73.824	40.291	1.929e-06	40.014	0.004286	0.0071542	0.0020093	560.45	7.805e-05	8.2504e-05	443.8	184.06	6.9549e-05	8.3482e-05	185.18	74.666	76.356	41.457	7.6819e-05	41.057	325.742	23.779	109.092	-14.528	167.166	161.775	-15.195	-8.797	129.923	110.282	-11.634	-7.351	-4.496	-0.496	265.454	-4.931	-8191	255	
3455.202	1	1	0	0	0.14434	0.28874	0.13766	0.15043	0.15492	0.18548	0.24562	0.11916	0.074492	0.094703	0.22466	0.085968	0.19087	0.17352	0.29618	0.30387	-2.4813	-2.8438	-2.0938	-3.0583	-2.7771	-2.4208	-3.1875	-2.3042	-2.8208	-3.1167	-2.2875	-2.9167	-2.8354	-2.4125	-3.3021	-2.3563	239.279	158.596	56.073	61.950	176.605	180.545	258.422	128.242	283.158	302.294	307.942	222.428	276.686	278.750	177.149	194.565	0.00018424	0.00092676	4.3857e-05	495.46	5.1265e-06	3.694e-06	437.57	179.55	2.0822e-06	2.9352e-06	180.43	72.976	73.842	41.038	6.5599e-06	40.398	0.0045859	0.0075684	0.0021424	567.37	8.3115e-05	8.5731e-05	445.74	184.74	7.0649e-05	8.5974e-05	186.62	75.188	76.984	41.929	7.4996e-05	41.681	-1.787	-22.113	81.700	-13.843	143.507	213.143	-15.117	-8.830	159.062	31.748	-11.289	-7.448	-4.098	-0.425	77.527	-4.613	-8191	255	
3455.299	1	1	0	0	0.32355	0.15724	0.3285	0.32904	0.14543	0.2397	0.24292	0.093717	0.21334	0.13565	0.10513	0.19779	0.079207	0.14517	0.18686	0.064411	-2.3771	-3.1396	-2.1125	-2.9938	-2.8104	-2.4604	-3.2854	-2.4708	-2.5958	-3.1021	-2.4458	-2.8875	-2.7958	-2.4542	-3.2396	-2.4854	22.822	266.698	311.993	248.985	195.315	-22.982	285.703	175.049	172.408	119.798	43.143	211.952	221.101	294.356	166.118	261.003	0.0007689	0.00060838	0.00025339	498.7	1.198e-06	3.1534e-06	437.18	182.27	6.9145e-06	1.4301e-06	180.78	73.019	74.278	40.95	2.8082e-06	40.076	0.0045514	0.0074218	0.0021013	565.73	8.1323e-05	8.4115e-05	447.28	186.4	7.0405e-05	8.4694e-05	186.91	75.364	76.93	41.911	7.465e-05	41.24	315.792	12.939	18.552	-13.736	108.251	108.937	-15.079	-8.877	101.282	183.651	-12.062	-7.298	-4.556	-0.656	315.785	-4.826	-8191	255	
3455.395	1	1	0	0	0.034299	0.21725	0.11383	0.074149	0.17682	0.16552	0.090179	0.13801	0.10909	0.12385	0.11485	0.23515	0.077996	0.23631	0.26367	0.20897	-2.2146	-3.0396	-2.2271	-2.7417	-3.0625	-2.075	-3.0479	-2.5604	-2.5021	-3.1167	-2.3292	-2.8167	-2.9396	-2.2021	-2.9896	-2.7271	28.744	78.773	127.740	236.656	281.326	71.912	249.381	179.923	266.880	114.551	270.078	174.356	243.371	229.754	193.887	277.807	0.0006411	0.00064163	6.6635e-05	497.96	4.2004e-06	1.6986e-06	435.94	181.5	2.7621e-06	4.3473e-06	177.2	71.654	73.176	40.075	8.0459e-06	39.042	0.0044529	0.0074317	0.0021048	565.49	8.1457e-05	8.4516e-05	444.14	184.84	7.0987e-05	8.4338e-05	184.17	74.129	76.128	41.201	7.437e-05	40.333	313.232	126.470	11.536	-13.986	154.860	78.101	-15.143	-8.765	176.249	98.533	-11.334	-7.332	-4.794	-0.372	88.422	-4.895	-8191	255	
3455.491	1	1	0	0	0.20841	0.25452	0.17962	0.26589	0.11711	0.24224	0.093141	0.14729	0.14572	0.31432	0.10932	0.092654	0.11958	0.16519	0.26035	0.32857	-2.0792	-3.0729	-2.2687	-2.6688	-3.1458	-2.1813	-3.0833	-2.7625	-2.2313	-3.2771	-2.475	-2.6125	-3.1688	-2.4437	-2.9375	-2.7583	180.538	193.475	47.282	258.442	184.669	84.505	174.250	-5.416	152.229	-15.476	107.024	212.511	167.325	243.776	172.180	297.055	0.00045137	0.0004844	0.00017033	492.55	1.9674e-06	6.8288e-07	433.08	180.13	1.0319e-05	5.9673e-06	177.13	71.572	72.963	40.096	7.8534e-06	39.478	0.0044903	0.0073363	0.0020717	561.72	7.95e-05	8.3777e-05	442.2	183.69	6.8532e-05	8.0925e-05	183.16	73.812	75.806	41.164	7.2175e-05	40.518	322.157	85.796	101.017	-14.248	-13.615	231.946	-14.729	-8.881	297.872	197.273	-11.709	-7.315	-4.740	-0.401	157.136	-4.706	-8191	255	
3455.611	1	1	0	0	0.30287	0.079116	0.27668	0.15256	0.19078	0.15747	0.20964	0.33871	0.079802	0.37066	0.24895	0.27826	0.03048	0.20533	0.13891	0.23478	-2.0625	-3.1042	-2.5583	-2.5667	-3.15	-2.3312	-2.9917	-2.9396	-2.375	-3.3312	-2.6375	-2.4375	-3.25	-2.35	-2.9	-3.0771	-3.804	215.356	147.800	-15.618	275.921	77.909	231.193	207.884	5.268	41.514	244.737	322.321	123.582	328.720	236.799	275.068	0.0005026	0.00067744	0.00011719	491.26	2.4966e-06	4.604e-06	433.91	178.83	8.1263e-06	8.7993e-06	178.07	72.074	73.542	40.251	6.0118e-06	39.445	0.0043358	0.0070087	0.0020288	559.96	7.5589e-05	8.1601e-05	442.39	183.68	6.7976e-05	7.9199e-05	184.06	74.292	76.14	41.378	7.2772e-05	40.766	320.872	44.122	82.353	-14.707	104.414	117.121	-15.319	-8.915	152.258	184.403	-11.883	-7.387	-4.523	-0.595	167.354	-4.640	-8191	255	
3455.708	1	1	0	0	0.18752	0.13439	0.20793	0.029698	0.20088	0.19634	0.16223	0.20048	0.15475	0.049923	0.24977	0.16761	0.024206	0.050411	0.10606	0.16623	-1.9271	-3.1979	-2.5458	-2.5354	-3.2521	-2.3229	-2.7687	-2.9896	-2.2438	-3.1708	-2.5271	-2.4375	-3.2521	-2.5271	-2.625	-3.1688	28.190	145.789	303.196	136.939	186.527	115.778	280.913	254.439	241.352	176.997	-10.073	300.949	279.640	277.770	225.088	-9.302	0.00048141	0.00056819	9.1246e-05	496.45	5.5689e-06	1.3901e-05	438.78	181.74	5.2505e-06	9.2509e-06	180.08	72.983	73.241	40.555	3.6008e-06	39.775	0.0043825	0.0070141	0.0020215	561.93	7.4845e-05	8.0869e-05	444.56	184.56	6.6097e-05	7.8367e-05	185.82	74.69	76.185	41.514	7.0909e-05	40.972	317.646	65.199	83.107	-13.335	160.465	103.863	-14.927	-8.685	151.249	169.657	-11.633	-6.999	-4.334	-0.305	148.476	-4.955	-8191	255	
3455.804	1	1	0	0	0.12798	0.28092	0.21025	0.19204	0.080624	0.26725	0.29123	0.13813	0.23243	0.28922	0.24203	0.23165	0.18941	0.07702	0.15045	0.16513	-1.8646	-3.0312	-2.7292	-2.3187	-3.2812	-2.5896	-2.7938	-3.3063	-2.3021	-2.9354	-2.7062	-2.4208	-3.2417	-2.5167	-2.525	-3.3167	195.389	209.645	276.652	273.459	106.397	242.154	302.393	232.317	143.123	80.188	216.594	-23.897	-20.114	282.971	281.409	129.172	0.0003839	0.00028804	6.8298e-05	489.19	4.9645e-06	3.3931e-06	436	181.5	3.2832e-06	3.2652e-06	177.8	71.859	73.281	39.99	2.7332e-06	38.828	0.0042998	0.0069454	0.002008	561.38	7.4905e-05	7.9835e-05	444.86	184.37	6.7728e-05	7.7376e-05	184.23	74.042	75.575	40.892	7.1481e-05	39.866	314.840	45.709	224.615	-13.423	44.597	186.948	-15.178	-8.703	129.517	157.338	-11.339	-7.392	-4.096	-0.567	97.969	-4.584	-8191	255	
3455.875	1	1	0	0	0.062162	0.015003	0.41458	0.07101	0.098633	0.16335	0.27281	0.12758	0.061332	0.16984	0.018688	0.28882	0.24129	0.20344	0.21758	0.1218	-1.8563	-3.0167	-2.7979	-2.2479	-3.2271	-2.5396	-2.5354	-3.2021	-2.2146	-2.8417	-3.0292	-2.3292	-3.1354	-2.6667	-2.3021	-3.2896	274.670	230.924	183.719	71.150	70.939	-13.230	14.694	181.249	118.005	18.897	257.121	200.194	328.017	4.704	259.906	204.812	0.00045644	0.00052082	0.00018211	492.59	5.1042e-06	1.9134e-06	427.86	179.3	1.4103e-05	8.1228e-06	176.74	71.13	72.886	39.675	4.0866e-06	38.795	0.0043088	0.0069143	0.0020456	558.67	7.4241e-05	8.1098e-05	439.24	183	6.7184e-05	7.7649e-05	181.96	73.237	75.208	40.785	7.0696e-05	39.789	330.323	85.979	129.828	-14.505	169.568	174.467	-15.206	-9.048	156.740	143.584	-11.347	-7.325	-4.278	-0.633	150.144	-4.569	-8191	255	
3455.996	1	1	0	0	0.14531	0.18609	0.18224	0.29673	0.12224	0.16606	0.24985	0.063343	0.053592	0.081847	0.21952	0.12709	0.20681	0.1983	0.14776	0.045811	-1.8458	-2.9062	-2.9542	-2.3354	-3.0292	-2.8354	-2.4958	-3.2229	-2.3979	-2.85	-3.1125	-2.3625	-3.1979	-2.6833	-2.4396	-3.3708	171.354	154.116	73.413	214.550	165.763	229.211	314.948	148.943	149.627	239.706	316.899	57.661	313.094	301.036	230.629	285.884	0.00030301	0.0005893	7.3062e-05	488.71	4.1082e-06	4.1216e-06	434.19	179.04	4.6696e-06	3.7318e-06	174.71	71.306	72.513	39.929	6.0872e-06	39.158	0.0043081	0.0070682	0.0019782	559.07	7.4526e-05	8.2051e-05	440.19	182.55	6.8234e-05	7.8586e-05	181.85	73.287	75.356	40.945	7.3415e-05	40.184	312.943	175.060	37.548	-13.982	-3.672	19.747	-15.308	-8.935	238.537	121.981	-11.918	-7.339	-4.396	-0.257	183.308	-4.464	-8191	255	
3456.090	1	1	0	0	0.25726	0.20984	0.12741	0.21877	0.13876	0.18366	0.075749	0.19273	0.25406	0.33094	0.041347	0.086036	0.07901	0.11551	0.16919	0.14571	-2.1708	-2.5854	-3.2021	-2.3667	-3.025	-2.9437	-2.6208	-3.2646	-2.4625	-2.4188	-3.1146	-2.3563	-3.0042	-2.9875	-2.3708	-3.2479	208.492	145.897	-24.347	237.027	252.391	145.714	127.360	261.774	82.416	119.011	-0.959	36.748	5.771	269.430	129.102	253.658	0.00029758	0.00069668	8.5791e-05	487.32	5.5687e-06	5.9046e-06	433.25	179.47	1.2983e-05	2.952e-06	177.01	71.533	73.422	40.026	3.8596e-06	38.993	0.0044773	0.0071341	0.0020222	559.75	7.6162e-05	8.2886e-05	441.57	183.1	7.0113e-05	8.077e-05	182.87	73.754	75.779	41.063	7.2424e-05	40.248	303.718	102.649	87.753	-14.041	57.679	315.277	-15.081	-8.494	117.542	45.041	-11.428	-7.235	-3.902	-0.378	208.423	-4.642	-8191	255	
3456.187	1	1	0	0	0.1176	0.16072	0.051435	0.10165	0.13649	0.16883	0.15117	0.19292	0.055373	0.21109	0.19681	0.28101	0.090611	0.077369	0.30187	0.3107	-2.2417	-2.5021	-3.2792	-2.5	-2.9875	-2.9437	-2.2854	-3.2604	-2.6354	-2.6479	-3.3312	-2.4708	-2.8063	-3.1667	-2.2938	-3.0917	137.476	126.819	238.662	249.037	183.359	146.794	258.848	273.280	199.194	69.578	302.793	316.390	46.822	264.119	221.772	315.246	0.00051154	0.0011071	0.00015209	490.72	5.1639e-06	3.9765e-06	429.77	179.1	5.5522e-06	5.3436e-06	173.57	71.222	73.261	39.734	6.7474e-06	38.354	0.0044568	0.0071673	0.0020239	562.69	7.6022e-05	8.3e-05	440.47	182.44	6.9771e-05	8.0124e-05	181.12	73.193	75.747	40.899	7.3772e-05	39.749	305.829	37.813	96.347	-13.184	153.750	132.263	-15.150	-8.418	222.604	146.887	-11.793	-7.648	-4.363	-0.604	167.589	-4.825	-8191	255	
3456.283	1	1	0	0	0.085597	0.16925	0.14978	0.28362	0.079856	0.06291	0.23171	0.092349	0.36102	0.21223	0.29096	0.048449	0.018343	0.16338	0.10748	0.26009	-2.2604	-2.2417	-3.1354	-2.3625	-2.7229	-3.1021	-2.3708	-3.1188	-2.8625	-2.3292	-3.2687	-2.4896	-2.8167	-3.325	-2.3104	-3.0875	238.570	182.937	282.378	105.421	17.753	243.812	319.482	232.292	44.512	55.625	253.345	150.199	285.924	302.934	289.640	97.450	0.00036313	0.00026153	8.3417e-05	489.07	1.1255e-05	8.7804e-06	426.92	178.42	7.3567e-06	8.6567e-06	174.52	70.831	73.204	39.798	1.2338e-05	39.015	0.0044789	0.0071089	0.0020139	558.28	7.5018e-05	8.1577e-05	437.56	182.09	6.8422e-05	7.9857e-05	180.82	73.206	75.566	41.033	7.3568e-05	40.187	316.479	265.097	315.655	-13.970	104.301	177.803	-15.196	-8.425	213.842	146.778	-11.721	-7.245	-4.227	-0.053	124.685	-4.723	-8191	255	
3456.403	1	1	0	0	0.182	0.1516	0.2003	0.17908	0.14782	0.05043	0.14431	0.096995	0.1229	0.18329	0.13875	0.32302	0.29412	0.16606	0.31091	0.12184	-2.5667	-2.3229	-3.0938	-2.5854	-2.5979	-3.075	-2.3021	-3.1208	-2.8667	-2.2917	-3.3312	-2.5833	-2.4292	-3.2812	-2.2417	-2.9813	110.522	333.308	10.987	314.863	324.301	16.910	28.166	248.148	94.926	-4.930	34.497	288.319	285.799	80.531	220.676	278.869	0.00038586	0.00081469	0.00011628	494.48	2.5734e-06	5.2747e-06	435.05	178.74	3.5773e-06	1.8317e-06	175.91	72.196	73.583	40.712	7.3214e-06	39.962	0.0043609	0.0070411	0.0019441	558.51	7.446e-05	8.0067e-05	440.78	182.87	6.6608e-05	7.7288e-05	182.04	74.309	76.204	41.59	7.0232e-05	41.032	297.331	77.742	121.900	-13.942	189.246	267.815	-15.055	-8.567	52.873	226.599	-10.767	-7.606	-4.064	-0.414	15.154	-4.499	-8191	255	
3456.475	1	1	0	0	0.12173	0.090587	0.11843	0.11816	0.049476	0.092943	0.049984	0.046218	0.3109	0.19332	0.24807	0.19619	0.028747	0.14323	0.26705	0.24129	-2.6771	-2.4313	-3.1271	-2.6958	-2.5521	-3.3479	-2.4271	-2.7417	-2.9896	-2.2417	-3.1417	-2.7062	-2.5125	-3.2875	-2.45	-2.7625	226.589	298.255	255.972	174.656	163.284	14.856	29.636	259.151	164.035	195.230	5.968	324.549	48.375	15.780	105.169	-0.585	0.00058992	0.00010364	0.00022492	493.33	7.6649e-06	6.269e-06	436.17	181.55	5.9971e-06	3.5161e-06	180.58	73.609	74.611	41.493	2.595e-06	41.29	0.00414	0.006684	0.0018447	555.12	7.0406e-05	7.3301e-05	443.79	184.38	6.272e-05	7.3565e-05	185.59	75.51	77.04	42.281	6.7162e-05	42.109	321.198	318.360	62.119	-13.459	83.369	182.114	-15.119	-8.528	145.802	164.190	-11.692	-7.096	-4.392	-0.168	180.760	-4.255	-8191	255	
3456.596	1	1	0	0	0.10636	0.098727	0.15158	0.25592	0.1935	0.18361	0.027301	0.15327	0.084382	0.15853	0.0099598	0.10298	0.25776	0.11619	0.080013	0.035492	-2.7708	-2.1083	-3	-2.8396	-2.3688	-3.2687	-2.5167	-2.6521	-3.1229	-2.4062	-3.2354	-2.7875	-2.5167	-3.3604	-2.4646	-2.5646	8.239	267.470	78.460	273.027	271.454	266.492	120.282	332.807	209.934	53.720	33.014	54.755	22.289	264.905	150.160	140.348	0.00033186	0.00049644	0.00014703	490.55	4.673e-06	4.98e-06	441.31	182.77	5.8765e-06	2.2327e-06	182.05	74.233	75.401	41.594	2.3604e-06	40.989	0.003972	0.006469	0.0017771	555.2	6.8175e-05	7.2086e-05	447.17	185.82	6.223e-05	7.3021e-05	187.19	76.215	77.572	42.398	6.8075e-05	42.051	327.661	74.959	90.560	-13.699	113.805	119.528	-15.021	-8.698	201.232	215.692	-11.798	-7.138	-4.083	-0.434	113.095	-4.291	-8191	255	
3456.692	1	1	0	0	0.24982	0.29997	0.23116	0.14939	0.13151	0.083245	0.13584	0.27249	0.13014	0.097333	0.095635	0.15032	0.1612	0.096125	0.14755	0.21199	-2.9042	-2.2708	-2.9146	-2.9792	-2.3312	-3.1937	-2.4958	-2.5583	-3.1417	-2.4083	-3.0229	-3.0354	-2.2625	-3.3146	-2.7562	-2.5542	317.695	15.015	25.796	143.059	57.055	238.703	318.610	239.352	77.193	44.749	225.536	315.577	244.089	66.612	56.665	239.846	0.0002602	0.00033268	0.00019357	495.71	8.8161e-06	3.3966e-06	440.17	182.37	5.8525e-06	5.8472e-06	181.96	73.949	75.15	40.514	5.0412e-06	39.735	0.0040471	0.0065853	0.0018362	560.14	7.0363e-05	7.4823e-05	446.78	185.42	6.3626e-05	7.4861e-05	186.43	75.332	77.163	41.711	6.9756e-05	40.794	319.952	118.804	122.766	-14.571	111.699	290.663	-15.074	-8.948	209.779	187.963	-11.278	-7.568	-4.131	-0.403	150.641	-4.777	-8191	255	
3456.788	1	1	0	0	0.13979	0.26986	0.090696	0.17044	0.17123	0.084584	0.12098	0.24195	0.24214	0.087625	0.076285	0.068787	0.18137	0.084975	0.045744	0.18381	-2.7542	-2.4292	-2.8417	-3.2542	-2.2562	-3.1917	-2.8625	-2.4042	-3.3187	-2.4083	-2.8187	-3.1417	-2.4708	-3.4313	-2.7396	-2.525	214.513	166.080	1.579	189.298	88.275	205.392	304.775	117.384	108.367	317.624	-3.986	168.856	297.972	321.757	144.176	-5.569	0.00050596	0.0005793	0.00023957	488.05	1.955e-06	1.1762e-06	437.8	181.66	3.1084e-06	9.0651e-07	178.3	72.703	73.722	40.923	3.795e-06	39.839	0.0040499	0.0067153	0.0018448	555.47	7.1152e-05	7.4119e-05	443.04	184.51	6.2755e-05	7.5599e-05	184.22	74.518	76.695	41.816	6.9242e-05	40.904	318.811	22.283	44.559	-13.350	78.148	267.411	-15.379	-8.635	179.484	83.196	-11.233	-7.400	-4.423	-0.404	117.990	-4.487	-8191	255	
3456.884	1	1	0	0	0.09713	0.032253	0.18641	0.064191	0.083205	0.23488	0.17818	0.059829	0.12349	0.16529	0.32811	0.25399	0.18322	0.16905	0.10238	0.067238	-3.0667	-2.5042	-2.5333	-3.0542	-2.2687	-3.1271	-2.85	-2.5396	-3.1729	-2.4792	-2.8417	-3.0812	-2.2938	-3.2	-2.9938	-2.3333	208.011	63.764	40.733	55.309	320.440	320.809	158.893	10.591	210.289	240.913	-23.361	210.615	-7.086	276.715	137.509	201.720	0.00056004	0.00062324	0.00013667	488.33	2.694e-06	3.1641e-06	435.22	181.81	1.5493e-06	3.2576e-06	177.84	72.899	74.751	41.318	5.0628e-06	40.369	0.004094	0.0067572	0.0018508	555.35	7.1734e-05	7.4836e-05	442.91	184.87	6.3468e-05	7.6172e-05	184.09	75.103	76.982	42.231	7.0397e-05	41.448	-19.061	49.135	34.346	-13.610	246.008	177.052	-14.832	-8.173	80.196	123.230	-11.252	-7.475	-4.252	-0.483	152.032	-4.849	-8191	255	
3457.005	1	1	0	0	0.026443	0.0065498	0.17037	0.28084	0.28866	0.3347	0.27424	0.36721	0.19646	0.071153	0.28798	0.14253	0.094827	0.28625	0.076667	0.22189	-2.8146	-2.4875	-2.4833	-3.2229	-2.4104	-2.9125	-3.1333	-2.3312	-3.4396	-2.5292	-2.4021	-3.2458	-2.1979	-2.9354	-2.975	-2.2833	104.115	106.903	322.825	53.717	299.244	222.919	104.371	314.967	11.294	-8.828	213.761	159.998	296.286	183.244	-20.403	10.693	0.00051262	0.001079	0.00020764	498.14	6.8512e-06	2.4687e-06	438.15	182.06	5.2779e-06	9.3386e-06	182.06	74.153	75.157	41.801	2.0607e-06	41.1	0.0041033	0.0067778	0.0018875	558.28	7.2235e-05	7.6514e-05	445.84	185.95	6.3843e-05	7.7401e-05	187.27	75.868	77.698	42.703	7.0394e-05	42.169	289.529	24.782	56.616	-13.975	24.394	69.507	-15.057	-8.546	62.926	200.649	-11.300	-7.487	-4.177	-0.640	142.942	-4.730	-8191	255	
3457.076	1	1	0	0	0.079142	0.17327	0.17187	0.023458	0.13624	0.24292	0.21121	0.014747	0.30907	0.036424	0.40483	0.13442	0.27163	0.13634	0.12586	0.13061	-2.8	-2.5396	-2.3	-3.2667	-2.4313	-2.8792	-3.2333	-2.3396	-2.9479	-2.7333	-2.2625	-3.3417	-2.3438	-2.725	-2.9792	-2.5021	297.360	67.964	266.047	214.929	65.840	331.829	188.770	322.457	196.490	-24.167	271.355	290.169	144.240	20.917	38.699	224.619	0.00043465	0.00035207	0.00010236	498.18	6.5337e-06	6.5949e-06	439.06	183.08	6.192e-06	6.3741e-06	183.34	74.375	75.017	41.656	2.0621e-06	40.862	0.0041844	0.0069233	0.0019392	560.19	7.4405e-05	7.6715e-05	446.84	186.81	6.4623e-05	7.7893e-05	187.28	76.261	77.706	42.588	7.021e-05	41.799	307.706	308.004	23.024	-13.879	106.556	51.087	-15.198	-8.694	19.793	62.307	-11.848	-7.234	-4.865	-0.219	89.369	-4.771	-8191	255	
3457.195	1	1	0	0	0.080487	0.14989	0.24829	0.09638	0.24097	0.031055	0.12869	0.14436	0.020144	0.16788	0.16836	0.15733	0.26081	0.19992	0.24651	0.16682	-2.7188	-2.8771	-2.3354	-3.2062	-2.6083	-2.5333	-3.3208	-2.3479	-3.0125	-2.9667	-2.475	-3.2854	-2.5375	-2.5792	-3.2417	-2.3292	272.729	324.545	140.567	103.224	239.825	5.787	55.389	-18.999	140.914	117.332	302.594	251.754	79.492	253.390	188.892	153.805	0.00034986	0.00020203	0.0002155	496.91	6.3096e-06	2.6934e-06	436.51	182.03	3.9608e-06	6.8767e-06	179.71	73.146	74.987	41.117	1.0361e-05	40.378	0.0041399	0.0069486	0.0019343	559.92	7.4161e-05	7.7048e-05	444.98	185.61	6.3755e-05	7.6866e-05	184.65	75.018	77.028	42.145	6.9949e-05	41.15	332.446	102.545	61.819	-13.067	103.660	122.917	-15.129	-8.580	78.577	193.378	-11.488	-7.277	-4.600	-0.592	103.044	-4.878	-8191	255	
3457.291	1	1	0	0	0.064836	0.18343	0.18448	0.066311	0.19789	0.099321	0.12441	0.25682	0.07104	0.11635	0.28844	0.18503	0.093963	0.1904	0.29843	0.13867	-2.4833	-2.8563	-2.4521	-3.2104	-2.7125	-2.4458	-3.1333	-2.4646	-2.725	-3.0854	-2.3354	-3.0167	-2.75	-2.4188	-3.1542	-2.3708	323.348	270.133	142.606	18.916	113.915	241.746	235.603	230.742	18.361	297.881	305.864	318.402	197.267	268.786	246.195	57.427	0.00044813	0.00043327	2.3894e-05	490.07	4.4521e-06	6.1856e-06	433.33	181.12	1.1709e-05	7.1412e-06	178.09	72.801	74.636	41.045	7.7606e-06	40.282	0.0040781	0.0067022	0.0018983	553.15	7.2622e-05	7.6181e-05	441.38	184.58	6.2586e-05	7.4057e-05	184	74.861	76.843	42.146	6.7596e-05	41.288	-21.985	44.448	162.138	-13.891	69.997	94.713	-14.672	-8.654	319.326	137.418	-11.976	-6.945	-4.327	-0.545	104.657	-4.880	-8191	255	
3457.388	1	1	0	0	0.23305	0.16353	0.081564	0.027192	0.14217	0.13513	0.16112	0.24096	0.18997	0.15962	0.035956	0.027599	0.046534	0.16157	0.14634	0.34975	-2.2542	-3.0604	-2.3375	-3.1083	-2.7208	-2.575	-3.3542	-2.6708	-2.7958	-3.0333	-2.4146	-3.0958	-2.8417	-2.4333	-3.1688	-2.6583	66.680	106.326	271.666	152.085	317.114	302.581	262.745	68.378	17.039	272.891	194.200	222.175	273.681	29.540	46.710	302.771	0.00051252	0.00071407	0.000277	498.01	2.1424e-06	3.698e-06	438.96	181.57	1.3024e-05	4.4272e-06	179.33	73.532	75.074	41.009	4.004e-06	40.764	0.0040267	0.0066159	0.001869	555.69	7.1788e-05	7.454e-05	445.11	185.18	6.2812e-05	7.478e-05	184.75	75.482	77.296	42.106	6.6607e-05	41.713	314.095	7.904	80.708	-14.398	133.126	130.605	-15.031	-8.503	219.361	120.304	-12.129	-7.511	-4.285	-0.206	164.473	-4.501	-8191	255	
3457.484	1	1	0	0	0.2897	0.15491	0.036345	0.062245	0.15923	0.12542	0.053304	0.22452	0.038891	0.18637	0.1628	0.03714	0.1656	0.2394	0.10872	0.0992	-2.2979	-3.2	-2.4188	-3.0604	-2.9396	-2.2979	-3.1125	-2.6063	-2.525	-3.3333	-2.4167	-2.9938	-2.9583	-2.2396	-3.1833	-2.7104	107.067	26.299	71.902	170.349	49.445	10.100	326.356	-7.658	288.488	61.506	13.659	110.940	307.100	-18.915	-9.881	140.387	0.00050944	0.00046846	0.00010784	490.88	3.2271e-06	1.7288e-06	437	182.91	3.7945e-06	1.0849e-05	179.94	73.541	74.927	41.615	3.6744e-06	41.109	0.0040736	0.0066128	0.0018818	555.32	7.1929e-05	7.4067e-05	444.96	185.71	6.2232e-05	7.3658e-05	185.96	75.681	77.448	42.525	6.3892e-05	42.048	325.653	74.577	129.095	-13.845	58.571	55.386	-14.789	-8.922	253.329	125.917	-11.375	-6.760	-4.101	-0.350	256.080	-4.308	-8191	255	
3457.580	1	1	0	0	0.18456	0.088652	0.3059	0.36774	0.15948	0.051123	0.092303	0.14607	0.012401	0.090248	0.12367	0.19604	0.20207	0.0977	0.16986	0.17263	-2.1604	-3.1417	-2.2625	-2.9375	-3.0333	-2.3521	-3.2646	-2.5938	-2.4042	-3.2458	-2.2417	-2.7417	-3.1042	-2.3021	-3.0042	-2.9521	-15.208	105.767	190.977	-23.535	188.539	28.312	322.352	130.497	135.256	99.477	140.897	254.248	251.866	76.235	231.014	-5.946	0.0003609	0.00069376	0.0002764	496.52	6.516e-06	4.1858e-06	437.62	183.87	1.4194e-05	1.1779e-05	180.22	73.37	75.281	41.387	6.0787e-06	40.207	0.0038652	0.0063756	0.0017896	552.57	6.7639e-05	7.108e-05	445.23	186.37	5.9852e-05	7.0334e-05	185.46	75.49	77.297	42.129	6.4275e-05	41.089	324.117	76.003	35.268	-13.943	16.326	137.827	-14.833	-8.537	190.202	110.539	-11.948	-7.288	-4.707	-0.516	38.214	-4.876	-8191	255	
3457.701	1	1	0	0	0.29532	0.13237	0.070247	0.22553	0.044536	0.10921	0.078528	0.16677	0.085079	0.16643	0.071052	0.066813	0.22271	0.16795	0.16402	0.19872	-2.0667	-3.3042	-2.5417	-2.7229	-3.25	-2.2271	-3.0896	-2.75	-2.4271	-3.1958	-2.4958	-2.6104	-3.0979	-2.3375	-2.9521	-2.9458	323.027	328.265	207.588	12.393	5.403	153.716	151.633	329.460	221.806	313.449	263.517	63.322	318.310	16.863	190.881	-11.458	0.00060592	0.00062565	3.9862e-05	497.86	2.3942e-06	1.4644e-06	433.56	181.24	6.6718e-06	8.3155e-06	176.5	72.721	74.039	40.596	9.7805e-06	39.715	0.0039492	0.0063303	0.0018148	555.4	7.0294e-05	7.3479e-05	440.32	184.26	6.2788e-05	7.3437e-05	182.61	74.496	76.185	41.605	6.5893e-05	40.677	318.879	10.561	-2.881	-14.076	123.073	153.887	-14.790	-8.509	168.874	178.528	-11.989	-6.901	-4.118	-0.299	175.680	-4.535	-8191	255	
3457.772	1	1	0	0	0.093159	0.21685	0.11736	0.07547	0.14464	0.38018	0.40939	0.088634	0.219	0.089703	0.24608	0.21986	0.19411	0.31519	0.35542	0.15534	-1.9208	-3.1875	-2.5604	-2.3812	-3.2521	-2.575	-2.9562	-3.0833	-2.2812	-3.2208	-2.7521	-2.5479	-3.1458	-2.2146	-2.7792	-2.9292	158.615	115.543	102.748	25.885	132.541	307.031	179.320	40.117	153.804	241.835	222.168	50.293	231.472	278.207	315.673	-25.915	0.00063309	0.00097036	0.00010212	493.06	1.7615e-06	4.6325e-06	436.71	180.54	1.0709e-05	2.1349e-06	176.55	72.367	74.246	41.043	1.0687e-05	40.3	0.0040028	0.0064366	0.0018735	551.55	6.9555e-05	7.4951e-05	440.42	183.87	6.2784e-05	7.3189e-05	182.66	74.618	76.749	41.982	6.5576e-05	41.162	-26.325	25.986	50.302	-14.141	117.420	102.534	-15.136	-8.895	162.443	160.282	-11.041	-6.938	-4.556	-0.323	95.786	-4.566	-8191	255	
3457.868	1	1	0	0	0.10176	0.17706	0.16438	0.31248	0.10172	0.094197	0.31825	0.09152	0.20819	0.16878	0.041536	0.17335	0.27577	0.027684	0.19902	0.17679	-1.8354	-3.1271	-2.5604	-2.3979	-3.3083	-2.3396	-2.8667	-3.25	-2.2792	-3.2042	-2.75	-2.4479	-3.0771	-2.6479	-2.8375	-3.225	320.750	257.414	238.326	170.725	142.461	248.719	204.242	308.992	-25.123	296.599	6.939	241.239	244.815	101.383	31.985	57.852	0.00028492	8.7859e-05	0.00024882	491.86	5.0174e-06	7.566e-06	439.52	182.19	3.4598e-06	1.9177e-06	178.19	74.01	74.824	41.472	1.7808e-07	41.104	0.0040544	0.0064305	0.0018927	554.1	6.9366e-05	7.5509e-05	443.75	185.19	6.2564e-05	7.2897e-05	184.8	75.442	77.387	42.335	6.7183e-05	42.003	321.811	178.078	113.268	-14.037	78.550	183.706	-14.713	-8.594	4.113	207.052	-11.904	-7.324	-4.356	-0.540	115.676	-4.445	-8191	255	
3457.965	1	1	0	0	0.21779	0.09011	0.30607	0.16875	0.13896	0.12558	0.23364	0.1144	0.21935	0.20913	0.055934	0.10774	0.2006	0.24005	0.070906	0.31839	-1.8896	-2.9792	-2.9	-2.4062	-3.4562	-2.4604	-2.6146	-3.2167	-2.3333	-2.9792	-3.0021	-2.375	-3.225	-2.7646	-2.5375	-3.2562	-9.802	246.814	278.505	318.698	74.141	138.614	95.169	-25.264	150.615	107.526	16.813	286.141	273.420	323.896	43.681	249.905	0.00054478	0.00099311	0.00016128	490.36	4.5043e-06	7.6455e-06	437.64	183.06	1.4162e-05	6.6791e-07	181.44	74.414	75.335	41.476	4.5576e-06	41.384	0.0040238	0.0064686	0.0018584	555.83	6.9468e-05	7.5411e-05	445.76	186.15	6.3032e-05	7.3818e-05	186.38	76.111	77.641	42.515	6.8592e-05	42.055	305.076	25.701	64.457	-13.092	69.873	144.601	-15.120	-8.579	112.219	252.904	-11.404	-7.105	-4.266	-0.190	105.670	-4.708	-8191	255	
#DATA ENDS
