BOXY.EXE: ISS Imagent and Oximeter Data Acquisition Program Version 0.80
Ascii Record File

#ACQ INFORMATION
2  Detector Channels 
16  External MUX Channels 
1  Auxiliary Channels 
5000  Waveform (CCF) Frequency (Hz)
1  Waveforms Skipped 
30  Waveforms Averaged 
1  Cycles Averaged 
16  Acquisitions per Waveform 
10.0806  Updata Rate (Hz) 

#FILE INFORMATION
TRUE -- External MUX Channel results are PARSED.
FALSE -- AC DC and Phase are NOT grouped.
TRUE -- Companion Program Settings File CREATED.
FALSE -- AC data not excluded
FALSE -- DC data not excluded
FALSE -- Phase data not excluded
FALSE -- Auxillary Chn. data not excluded
Tab delimiters

#CALIBRATION STATE
TRUE -- Waveform Calibration Values APPLIED.


#AUX CALIBRATION VALUES
Val Type	aux-1	

Term	1.0000e+00	
Factor	0.0000e+00	


#WF CALIBRATION VALUES
A = Detector Channel
Val Type	A-AC1	A-AC2	A-AC3	A-AC4	A-AC5	A-AC6	A-AC7	A-AC8	A-AC9	A-AC10	A-AC11	A-AC12	A-AC13	A-AC14	A-AC15	A-AC16	A-DC1	A-DC2	A-DC3	A-DC4	A-DC5	A-DC6	A-DC7	A-DC8	A-DC9	A-DC10	A-DC11	A-DC12	A-DC13	A-DC14	A-DC15	A-DC16	A-Ph1	A-Ph2	A-Ph3	A-Ph4	A-Ph5	A-Ph6	A-Ph7	A-Ph8	A-Ph9	A-Ph10	A-Ph11	A-Ph12	A-Ph13	A-Ph14	A-Ph15	A-Ph16	

Term	0.00000e+00	0.00000e+00	0.00000e+00	0.00000e+00	0.00000e+00	0.00000e+00	0.00000e+00	0.00000e+00	0.00000e+00	0.00000e+00	0.00000e+00	0.00000e+00	0.00000e+00	0.00000e+00	0.00000e+00	0.00000e+00	0.00000e+00	0.00000e+00	0.00000e+00	0.00000e+00	0.00000e+00	0.00000e+00	0.00000e+00	0.00000e+00	0.00000e+00	0.00000e+00	0.00000e+00	0.00000e+00	0.00000e+00	0.00000e+00	0.00000e+00	0.00000e+00	0.00000e+00	0.00000e+00	0.00000e+00	0.00000e+00	0.00000e+00	0.00000e+00	0.00000e+00	0.00000e+00	0.00000e+00	0.00000e+00	0.00000e+00	0.00000e+00	0.00000e+00	0.00000e+00	0.00000e+00	0.00000e+00	
Factor	1.00000e+00	1.00000e+00	1.00000e+00	1.00000e+00	1.00000e+00	1.00000e+00	1.00000e+00	1.00000e+00	1.00000e+00	1.00000e+00	1.00000e+00	1.00000e+00	1.00000e+00	1.00000e+00	1.00000e+00	1.00000e+00	1.00000e+00	1.00000e+00	1.00000e+00	1.00000e+00	1.00000e+00	1.00000e+00	1.00000e+00	1.00000e+00	1.00000e+00	1.00000e+00	1.00000e+00	1.00000e+00	1.00000e+00	1.00000e+00	1.00000e+00	1.00000e+00	X	X	X	X	X	X	X	X	X	X	X	X	X	X	X	X	

B = Detector Channel
Val Type	B-AC1	B-AC2	B-AC3	B-AC4	B-AC5	B-AC6	B-AC7	B-AC8	B-AC9	B-AC10	B-AC11	B-AC12	B-AC13	B-AC14	B-AC15	B-AC16	B-DC1	B-DC2	B-DC3	B-DC4	B-DC5	B-DC6	B-DC7	B-DC8	B-DC9	B-DC10	B-DC11	B-DC12	B-DC13	B-DC14	B-DC15	B-DC16	B-Ph1	B-Ph2	B-Ph3	B-Ph4	B-Ph5	B-Ph6	B-Ph7	B-Ph8	B-Ph9	B-Ph10	B-Ph11	B-Ph12	B-Ph13	B-Ph14	B-Ph15	B-Ph16	

Term	0.00000e+00	0.00000e+00	0.00000e+00	0.00000e+00	0.00000e+00	0.00000e+00	0.00000e+00	0.00000e+00	0.00000e+00	0.00000e+00	0.00000e+00	0.00000e+00	0.00000e+00	0.00000e+00	0.00000e+00	0.00000e+00	0.00000e+00	0.00000e+00	0.00000e+00	0.00000e+00	0.00000e+00	0.00000e+00	0.00000e+00	0.00000e+00	0.00000e+00	0.00000e+00	0.00000e+00	0.00000e+00	0.00000e+00	0.00000e+00	0.00000e+00	0.00000e+00	4.69297e+01	-1.27678e+02	-1.27972e+02	-1.88002e+02	-6.67894e+01	-6.28409e+01	-1.55213e+02	-1.62015e+02	-4.91738e+01	-6.38444e+01	-1.70390e+02	-1.71563e+02	-1.84555e+02	-1.77043e+02	-6.69105e+01	-1.49382e+02	
Factor	5.93376e-05	1.60034e-04	4.50777e-05	6.62379e-01	1.71948e-06	1.64504e-06	1.55997e-01	5.34235e-02	2.61917e-06	1.72808e-06	8.14009e-02	2.71226e-02	2.83956e-02	8.73549e-03	1.91468e-06	1.24596e-02	1.85792e-05	3.14846e-05	8.89000e-06	3.50234e-01	3.36969e-07	3.58884e-07	7.79026e-02	2.84634e-02	3.00588e-07	3.56692e-07	4.20802e-02	1.39855e-02	1.51021e-02	4.71687e-03	3.22088e-07	6.51153e-03	X	X	X	X	X	X	X	X	X	X	X	X	X	X	X	X	



#DISTANCE SETTINGS
A = Detector Channel
A-1	A-2	A-3	A-4	A-5	A-6	A-7	A-8	A-9	A-10	A-11	A-12	A-13	A-14	A-15	A-16	

2.5000e+00	3.0000e+00	2.5000e+00	3.0000e+00	2.0000e+00	3.0000e+00	1.5000e+00	3.0000e+00	3.0000e+00	3.0000e+00	3.0000e+00	3.0000e+00	3.0000e+00	3.0000e+00	1.5000e+00	3.0000e+00	

B = Detector Channel
B-1	B-2	B-3	B-4	B-5	B-6	B-7	B-8	B-9	B-10	B-11	B-12	B-13	B-14	B-15	B-16	

1.0000e+01	1.0000e+01	1.0000e+01	1.4400e+00	1.0000e+01	1.0000e+01	1.5100e+00	1.9400e+00	1.0000e+01	1.0000e+01	1.9900e+00	2.4900e+00	2.4100e+00	2.9000e+00	1.0000e+01	2.9800e+00	




#DATA BEGINS
time	group	step	mark	flag	A-AC1	A-AC2	A-AC3	A-AC4	A-AC5	A-AC6	A-AC7	A-AC8	A-AC9	A-AC10	A-AC11	A-AC12	A-AC13	A-AC14	A-AC15	A-AC16	A-DC1	A-DC2	A-DC3	A-DC4	A-DC5	A-DC6	A-DC7	A-DC8	A-DC9	A-DC10	A-DC11	A-DC12	A-DC13	A-DC14	A-DC15	A-DC16	A-Ph1	A-Ph2	A-Ph3	A-Ph4	A-Ph5	A-Ph6	A-Ph7	A-Ph8	A-Ph9	A-Ph10	A-Ph11	A-Ph12	A-Ph13	A-Ph14	A-Ph15	A-Ph16	B-AC1	B-AC2	B-AC3	B-AC4	B-AC5	B-AC6	B-AC7	B-AC8	B-AC9	B-AC10	B-AC11	B-AC12	B-AC13	B-AC14	B-AC15	B-AC16	B-DC1	B-DC2	B-DC3	B-DC4	B-DC5	B-DC6	B-DC7	B-DC8	B-DC9	B-DC10	B-DC11	B-DC12	B-DC13	B-DC14	B-DC15	B-DC16	B-Ph1	B-Ph2	B-Ph3	B-Ph4	B-Ph5	B-Ph6	B-Ph7	B-Ph8	B-Ph9	B-Ph10	B-Ph11	B-Ph12	B-Ph13	B-Ph14	B-Ph15	B-Ph16	aux-1	digaux	

3097.307	1	1	0	256	0.076747	0.11932	0.28145	0.17974	0.15248	0.12161	0.23919	0.13434	0.39545	0.071963	0.074554	0.25047	0.22888	0.1185	0.15252	0.17989	-2.6854	-3.2458	-2.3104	-3.0104	-2.6063	-2.7667	-3.4917	-2.3979	-2.8625	-3.1688	-2.3187	-3.2646	-2.5979	-2.4208	-3.1521	-2.3521	361.446	152.762	219.987	141.143	43.279	252.610	274.352	306.614	260.172	155.688	234.709	254.213	94.904	337.458	63.343	343.131	0.00046319	0.00031804	0.0001018	1046.6	2.0233e-06	3.6543e-06	1138.5	223.77	5.8502e-06	3.0022e-06	280.31	79.219	62.042	17.836	3.3458e-06	24.742	0.00029196	0.00027293	8.664e-05	1038.8	3.2272e-06	3.289e-06	1128.7	223.18	3.1161e-06	2.9605e-06	280.11	79.721	62.334	18.153	2.9303e-06	25.426	315.095	125.335	122.069	15.714	170.724	168.417	15.656	23.286	197.578	151.140	23.063	30.076	30.501	37.586	151.600	36.735	-8191	255	
3097.378	1	1	0	0	0.17063	0.22681	0.27791	0.17595	0.27316	0.055973	0.17596	0.13363	0.1377	0.16664	0.286	0.14895	0.15802	0.4321	0.18269	0.077993	-2.3833	-3.3104	-2.425	-3.0354	-2.9333	-2.3812	-3.4646	-2.575	-2.6729	-3.1125	-2.35	-2.9021	-2.9125	-2.3542	-3.2	-2.6667	18.601	163.943	306.960	334.901	185.211	342.759	25.763	169.302	197.823	76.897	212.029	258.471	148.098	358.218	298.741	144.157	0.00049981	0.00021636	8.922e-05	1039.9	3.771e-06	3.4893e-06	1135.4	223.72	1.7497e-06	2.8717e-06	278.88	79.506	62.101	17.869	4.1347e-06	25.045	0.00031078	0.00027582	8.3584e-05	1036.3	3.2693e-06	3.3152e-06	1125.8	223.26	3.0766e-06	3.1032e-06	279.8	79.722	62.246	18.116	3.0156e-06	25.374	316.543	81.949	107.770	15.752	158.161	155.170	15.934	23.333	164.254	149.336	23.111	30.484	30.332	37.647	182.416	37.168	-8191	255	
3097.476	1	1	0	0	0.18015	0.26347	0.20994	0.17644	0.087803	0.21224	0.2641	0.045008	0.18629	0.092783	0.23132	0.13189	0.15152	0.2595	0.19347	0.36227	-2.2854	-3.0146	-2.3521	-2.9271	-3.0167	-2.2062	-3.4062	-2.6104	-2.6167	-3.2479	-2.45	-2.9271	-3.1208	-2.1875	-3.1583	-2.7208	100.959	188.469	263.670	272.145	165.591	98.038	267.453	215.615	165.145	184.264	293.609	242.539	81.610	335.351	211.172	17.980	0.0005016	0.00033307	9.408e-05	1047.6	2.534e-06	1.5009e-06	1135.2	224.76	4.4153e-06	3.3061e-06	279.79	79.151	61.87	17.785	2.8954e-06	24.84	0.00031817	0.00026814	8.6233e-05	1035.5	3.1015e-06	3.4498e-06	1125.2	223.58	3.2977e-06	3.2117e-06	280.01	79.629	62.176	18.142	3.1216e-06	25.337	314.190	85.276	106.768	15.875	153.690	121.454	15.730	23.543	197.272	177.798	22.931	30.315	30.592	37.761	163.981	36.485	-8191	255	
3097.595	1	1	0	0	0.10542	0.15563	0.09952	0.10142	0.086513	0.14846	0.10707	0.32003	0.13383	0.19255	0.096402	0.24365	0.16662	0.16607	0.033585	0.17099	-2.2646	-3.2	-2.2958	-2.8937	-2.9542	-2.3021	-3.2125	-2.7562	-2.225	-3.3583	-2.3958	-2.8833	-3.0708	-2.4083	-2.975	-2.8979	14.584	197.561	259.081	323.736	336.897	97.351	99.697	36.492	71.645	209.037	259.324	318.502	286.325	272.290	259.436	60.945	0.00047284	0.00018866	7.8339e-05	1044.3	3.3307e-06	2.8143e-06	1130.6	222.84	5.1473e-06	3.8871e-06	280.69	79.086	62	18.013	4.5248e-06	24.775	0.00030803	0.00025253	8.7881e-05	1037.3	2.9702e-06	3.2815e-06	1123.4	223.14	3.1656e-06	3.0698e-06	280.36	79.674	62.268	18.178	2.8049e-06	25.326	314.942	110.039	98.909	16.221	152.341	152.457	15.894	23.449	222.442	167.155	22.680	30.538	30.676	37.400	149.245	36.799	-8191	255	
3097.691	1	1	0	0	0.080144	0.1323	0.055701	0.095028	0.25197	0.14006	0.21029	0.22765	0.11923	0.15061	0.12379	0.091552	0.13393	0.33447	0.27964	0.16583	-1.8979	-3.2458	-2.5458	-2.6896	-3.1167	-2.1917	-3.0271	-2.9333	-2.1708	-3.2812	-2.6688	-2.6583	-3.2938	-2.3896	-2.8646	-3.1917	300.339	316.483	117.383	243.861	306.353	347.936	254.664	314.088	61.128	287.651	362.661	316.328	11.239	229.422	330.998	289.298	0.00052341	0.00043963	0.00010738	1053.1	2.861e-06	2.244e-06	1134.7	223.19	5.8201e-06	3.5554e-06	279.91	78.745	62.215	17.74	3.8902e-06	24.875	0.00032069	0.00028034	8.6029e-05	1035.6	3.0489e-06	3.0587e-06	1126.8	222.8	3.3553e-06	2.8171e-06	280.12	79.562	62.304	18.104	2.8733e-06	25.379	316.045	119.088	100.158	16.116	154.469	175.889	16.234	23.611	219.027	162.501	22.849	30.638	30.877	37.541	155.101	36.887	-8191	255	
3097.787	1	1	0	0	0.15136	0.12227	0.16564	0.15035	0.066868	0.11527	0.36664	0.11256	0.19282	0.3224	0.031167	0.15781	0.13968	0.062646	0.15326	0.011307	-1.7896	-3.2229	-2.5146	-2.4292	-3.1604	-2.4583	-3.1479	-3.0229	-2.2604	-3.2562	-2.7667	-2.6937	-3.2021	-2.2208	-2.7812	-3.2229	291.380	277.897	352.432	303.438	268.803	117.165	293.813	317.140	299.404	212.236	289.166	12.946	145.264	153.343	213.918	140.522	0.00049911	0.00023918	0.00010204	1047.8	1.5885e-06	2.7965e-06	1131.6	222.81	5.1912e-06	1.949e-06	280.33	78.483	62.08	17.857	3.8341e-06	24.915	0.00030888	0.00026519	8.3251e-05	1039.5	2.8923e-06	3.2928e-06	1124.2	222.96	3.4161e-06	3.0237e-06	280.24	79.415	62.233	18.168	2.9283e-06	25.462	320.428	109.669	108.951	16.024	173.198	150.873	15.859	23.417	191.120	162.981	22.789	30.526	30.438	37.398	147.051	36.749	-8191	255	
3097.908	1	1	0	0	0.060842	0.2017	0.12003	0.12045	0.30971	0.11321	0.14419	0.039915	0.15085	0.071856	0.14739	0.0871	0.070866	0.28835	0.2055	0.09431	-1.7229	-3.0604	-2.9021	-2.3292	-3.2229	-2.425	-2.8063	-3.2146	-2.1958	-3.0792	-2.875	-2.2583	-3.2833	-2.5375	-2.6354	-3.3292	266.679	277.777	255.616	359.708	329.674	118.012	208.359	156.151	286.404	81.396	288.673	229.452	290.422	268.963	234.262	354.813	0.0004659	0.0001621	6.2727e-05	1055.5	4.0355e-06	2.9653e-06	1137.8	224.23	3.6543e-06	3.2737e-06	280.85	79.285	61.409	17.744	2.2992e-06	25.007	0.00030969	0.00027884	8.2677e-05	1040.5	3.0615e-06	3.378e-06	1126.6	223.39	3.3434e-06	3.0401e-06	279.95	79.595	61.856	18.137	3.1565e-06	25.368	317.305	80.184	83.329	15.838	173.223	165.774	15.970	23.428	192.253	145.361	22.697	30.414	30.859	37.288	154.610	36.941	-8191	255	
3098.004	1	1	0	0	0.38795	0.36501	0.2583	0.35437	0.098063	0.30225	0.2116	0.22022	0.21478	0.28301	0.21865	0.32009	0.15435	0.26868	0.17372	0.18403	-1.8458	-2.9167	-2.7792	-2.2354	-3.0667	-2.5438	-2.7083	-3.2729	-2.5312	-2.9396	-3.1813	-2.425	-3.2542	-2.6333	-2.3271	-3.2375	114.133	258.095	307.959	278.460	5.877	55.062	322.268	332.543	239.330	23.202	269.042	291.758	10.284	117.299	357.601	308.932	0.00049368	0.00023234	8.6568e-05	1053.4	2.7319e-06	2.4796e-06	1135	223.1	3.5573e-06	2.3615e-06	279.07	78.698	62.208	17.841	3.7797e-06	25.048	0.00031302	0.00027641	8.3307e-05	1040.4	3.1759e-06	3.3787e-06	1127.6	223.17	3.3866e-06	3.0876e-06	279.83	79.293	62.305	18.159	3.084e-06	25.434	324.100	105.344	96.133	15.771	153.133	172.195	15.910	23.417	223.340	184.579	22.938	30.113	30.630	37.304	174.259	36.762	-8191	255	
3098.076	1	1	0	0	0.19556	0.12794	0.14428	0.09705	0.15877	0.067076	0.25743	0.11393	0.12923	0.23002	0.24139	0.13291	0.1172	0.20063	0.18512	0.073172	-2.0417	-2.7021	-3.0354	-2.2083	-3.1625	-2.7417	-2.4688	-3.4771	-2.3479	-2.9688	-3.1583	-2.5542	-3.2167	-2.9104	-2.425	-3.55	167.947	313.715	117.411	87.612	6.355	222.094	284.129	157.439	310.957	262.978	7.531	72.878	310.634	89.314	138.909	329.999	0.00047958	0.00011115	6.5677e-05	1047.1	3.3772e-06	2.1477e-06	1137.1	223.25	5.3098e-06	1.8678e-06	280.6	78.806	61.999	17.943	2.9794e-06	24.821	0.00030586	0.00027693	6.899e-05	1037.9	2.9948e-06	3.215e-06	1128.2	223.05	3.3672e-06	3.0111e-06	280.05	79.589	62.246	18.179	3.1712e-06	25.4	316.005	155.493	99.284	15.835	159.408	158.593	16.324	23.468	203.092	182.090	23.004	30.281	31.096	37.306	178.641	36.569	-8191	255	
3098.172	1	1	0	0	0.030207	0.051979	0.054172	0.15721	0.048937	0.092046	0.26712	0.071319	0.12521	0.22994	0.25795	0.10104	0.2129	0.092096	0.12323	0.17345	-2.0792	-2.6917	-3.1854	-2.2542	-3.0417	-2.7	-2.4542	-3.3667	-2.6229	-2.7542	-3.225	-2.4583	-2.9896	-3.0687	-2.1604	-3.1604	205.635	148.558	197.298	256.696	207.535	324.740	298.032	176.146	77.724	154.723	29.709	22.673	104.112	315.151	313.794	32.940	0.00047484	0.00030102	7.8271e-05	1049.6	3.1701e-06	3.8271e-06	1137.1	222.47	6.1698e-06	3.5516e-06	281.57	79.084	62.126	17.723	3.2874e-06	24.95	0.00030602	0.00028585	7.6843e-05	1036.4	3.3205e-06	3.1724e-06	1126.8	222.78	3.0366e-06	3.3722e-06	280.03	79.47	62.265	18.025	3.0847e-06	25.358	316.309	86.838	83.596	15.792	168.230	145.753	16.099	23.475	191.511	172.171	22.909	30.097	30.974	37.428	169.706	36.703	-8191	255	
3098.291	1	1	0	0	0.19267	0.21113	0.27841	0.18756	0.21054	0.22536	0.2012	0.19406	0.063823	0.23891	0.13163	0.20838	0.088909	0.098428	0.1009	0.06294	-2.2125	-2.4271	-3.2417	-2.3	-2.8542	-3.1208	-2.4313	-3.3125	-2.5708	-2.4271	-3.3875	-2.4417	-2.8417	-3.1417	-2.4	-3.1792	199.159	200.998	302.798	103.914	217.445	126.241	364.039	25.650	101.434	287.271	305.155	166.112	322.325	77.202	266.884	281.820	0.00045892	0.00029522	7.9859e-05	1055.9	1.733e-06	3.2275e-06	1136.2	224.17	5.827e-06	3.1249e-06	279.01	78.693	61.984	17.784	2.1851e-06	24.736	0.00030737	0.00030678	8.0066e-05	1037.1	3.3318e-06	2.9675e-06	1126.8	223.52	3.3209e-06	3.4867e-06	279.87	79.443	62.316	18.059	3.2652e-06	25.329	316.594	111.977	107.039	15.662	187.734	164.881	16.066	23.439	207.370	157.408	22.899	30.457	30.758	37.409	130.387	37.207	-8191	255	
3098.387	1	1	0	0	0.16423	0.2038	0.19527	0.20998	0.29969	0.2585	0.35878	0.31815	0.27082	0.085847	0.19834	0.052532	0.18869	0.21196	0.17242	0.31152	-2.4354	-2.4771	-3.1896	-2.575	-2.7812	-3.1042	-2.4313	-3.1667	-2.8563	-2.275	-3.3708	-2.7396	-2.8292	-3.3667	-2.2208	-2.9396	185.193	276.585	48.430	83.267	332.036	309.947	291.112	336.870	151.401	110.697	20.764	116.968	315.061	302.890	269.171	181.644	0.00053018	0.00033621	6.3324e-05	1049.4	2.699e-06	1.7882e-06	1133.2	223.97	2.9882e-06	2.9819e-06	281.12	79.122	61.357	17.672	2.7546e-06	24.721	0.00031585	0.00031314	7.4343e-05	1037.4	3.1703e-06	3.0042e-06	1125.1	222.96	3.1543e-06	3.4413e-06	280.42	79.68	61.97	18.052	3.2309e-06	25.371	318.608	90.172	109.164	15.636	168.388	155.358	15.881	23.570	227.829	143.876	23.037	30.014	30.724	37.731	183.876	36.579	-8191	255	
3098.483	1	1	0	0	0.10369	0.21987	0.056028	0.19254	0.2642	0.218	0.24954	0.15178	0.25128	0.062967	0.1216	0.20397	0.10603	0.16251	0.15163	0.069833	-2.5833	-2.4	-3.2854	-2.5729	-2.4188	-3.25	-2.4292	-2.95	-3.0896	-2.3417	-3.3229	-2.4854	-2.5125	-3.1583	-2.325	-3.0979	13.037	67.173	333.315	273.275	231.918	8.126	295.741	170.218	46.336	115.249	243.825	7.673	327.760	196.222	330.648	320.011	0.00047702	0.00027683	0.00010829	1046.5	3.1925e-06	3.7615e-06	1133.7	224.6	4.6621e-06	1.8282e-06	280.06	79.114	61.592	17.681	2.5639e-06	24.893	0.00030996	0.00029773	7.1768e-05	1039.1	3.3669e-06	3.1552e-06	1125.1	223.41	3.2633e-06	3.3663e-06	280.34	79.519	62.036	18.114	3.2605e-06	25.434	319.189	93.105	105.626	15.832	174.113	169.717	15.817	23.755	197.133	143.447	23.007	30.376	30.651	37.409	176.308	37.017	-8191	255	
3098.604	1	1	0	0	0.13111	0.18646	0.18216	0.12748	0.028776	0.064501	0.075348	0.39097	0.03098	0.017627	0.18364	0.2724	0.12476	0.075399	0.17903	0.15005	-2.6854	-2.1896	-3.2792	-2.7708	-2.3833	-3.2854	-2.5458	-2.8563	-3.1042	-2.3229	-3.2188	-2.8479	-2.4917	-3.5479	-2.3292	-2.8375	302.322	50.711	120.148	15.762	71.701	333.497	310.781	22.613	348.755	142.158	327.006	279.265	239.427	60.806	209.974	29.918	0.00048764	0.00036987	9.2786e-05	1045.4	2.2301e-06	4.1172e-06	1134.4	223.54	6.2647e-06	4.3556e-06	281.12	78.359	62.001	17.746	4.8215e-06	24.911	0.00030799	0.00030861	7.9528e-05	1038.2	3.3697e-06	3.0557e-06	1124.6	223.08	3.2031e-06	3.3053e-06	280.61	79.265	62.205	18.084	3.4222e-06	25.395	317.898	90.392	100.499	15.934	156.421	164.404	15.797	23.979	174.508	178.295	22.977	29.929	30.374	37.501	172.579	37.140	-8191	255	
3098.676	1	1	0	0	0.10316	0.13833	0.1726	0.2059	0.10685	0.12658	0.17382	0.20929	0.10432	0.12285	0.13557	0.29065	0.1628	0.18321	0.083218	0.22526	-2.7	-2.3	-2.95	-2.9292	-2.4813	-3.3563	-2.7208	-2.7479	-3.2646	-2.2458	-3.0583	-2.8646	-2.3688	-3.0958	-2.5563	-2.6417	217.995	97.089	297.884	312.027	115.952	27.059	120.804	333.285	190.302	158.711	250.628	35.470	88.260	67.061	172.992	19.991	0.00053749	0.00030735	7.6647e-05	1047.7	3.0655e-06	2.667e-06	1135.5	223.93	5.0667e-06	2.0839e-06	280.23	79.019	61.596	17.835	5.313e-06	24.832	0.00030509	0.00031924	7.9325e-05	1038.7	3.3781e-06	2.9316e-06	1127.5	223.22	3.2282e-06	3.5483e-06	279.97	79.303	62.142	18.13	3.2202e-06	25.378	325.071	89.920	88.780	15.823	162.237	151.630	16.050	23.535	176.707	138.256	22.928	30.202	30.917	37.222	179.553	37.139	-8191	255	
3098.772	1	1	0	0	0.16234	0.23111	0.21032	0.10885	0.22294	0.13013	0.13974	0.1704	0.1657	0.13729	0.11792	0.29113	0.10323	0.093245	0.20172	0.33226	-2.8187	-2.3229	-2.7708	-3.0271	-2.3229	-3.1208	-2.8104	-2.6833	-3.175	-2.4229	-2.9958	-3.0938	-2.3812	-3.2208	-2.7771	-2.5792	273.538	113.027	66.497	195.778	353.887	250.355	295.742	266.129	207.291	58.896	167.813	309.967	208.554	333.539	270.616	21.619	0.00045399	0.00033469	7.1329e-05	1054.7	3.8703e-06	3.043e-06	1133.8	223.41	3.9444e-06	4.3622e-06	280.11	78.97	61.613	17.652	2.6132e-06	24.877	0.00031054	0.00031426	8.2103e-05	1041.1	3.5333e-06	3.2285e-06	1124.7	223.1	3.0146e-06	3.7133e-06	280.13	79.51	62.032	18.103	3.1954e-06	25.381	321.149	89.852	86.126	15.623	159.546	169.233	16.040	23.403	158.906	147.104	23.179	30.140	30.701	38.069	194.100	37.014	-8191	255	
3098.868	1	1	0	0	0.18723	0.04729	0.15702	0.09206	0.21703	0.26033	0.21248	0.097436	0.16455	0.11873	0.16516	0.090526	0.24803	0.1372	0.093384	0.17207	-2.9917	-2.3042	-2.7229	-3.1396	-2.1229	-3.1063	-3.0021	-2.425	-3.2229	-2.4688	-2.6583	-3.3	-2.4354	-2.9542	-2.8292	-2.4229	260.410	48.865	105.851	22.897	198.652	93.388	265.740	224.742	327.727	346.752	310.673	332.183	302.075	146.968	123.831	25.159	0.00046799	0.0003053	9.7009e-05	1038.9	2.8316e-06	2.9077e-06	1135.2	222.94	6.0282e-06	3.6561e-06	279.41	79.031	61.634	17.718	3.8735e-06	24.655	0.00030315	0.0003115	8.3473e-05	1033.3	3.4813e-06	3.1417e-06	1123.8	222.59	3.1756e-06	3.3826e-06	280.06	79.321	62.022	18.106	3.3598e-06	25.352	321.239	107.469	80.118	15.910	160.200	163.256	16.197	23.196	167.402	161.376	23.115	29.945	30.606	37.483	165.803	36.818	-8191	255	
3098.988	1	1	0	0	0.30573	0.38533	0.18722	0.17996	0.19623	0.22259	0.31074	0.2104	0.1284	0.11155	0.11475	0.070303	0.10286	0.13389	0.19829	0.33291	-3.0708	-2.4062	-2.6396	-3.2229	-2.3208	-3.0479	-3.1771	-2.4688	-3.0375	-2.675	-2.5833	-3.1937	-2.4042	-2.8479	-3.0687	-2.4938	70.929	326.835	356.035	120.563	309.673	144.427	257.801	303.002	274.027	228.346	73.581	330.945	180.001	332.747	178.142	26.612	0.00046379	0.00028099	0.00011861	1040.9	3.6083e-06	2.958e-06	1136.3	224.31	5.1106e-06	3.0561e-06	280.48	79.208	61.758	17.93	2.9049e-06	24.838	0.00030381	0.00030861	8.0473e-05	1036.8	3.4364e-06	3.1186e-06	1127	223.14	3.2758e-06	3.5208e-06	280.5	79.378	61.938	18.151	3.0115e-06	25.413	317.940	93.472	101.387	15.104	168.709	181.150	16.046	23.410	179.116	167.615	23.202	30.120	30.303	37.552	176.749	36.510	-8191	255	
3099.085	1	1	0	0	0.26578	0.098568	0.13939	0.07164	0.11574	0.03263	0.19543	0.3076	0.13646	0.04615	0.035255	0.35451	0.24083	0.12168	0.078616	0.10982	-2.9833	-2.7438	-2.4688	-3.1917	-2.5083	-2.8729	-3.3833	-2.4062	-3.1646	-2.8187	-2.3792	-3.3063	-2.4396	-2.8167	-3.1729	-2.2854	40.155	104.364	265.744	35.070	78.360	25.234	272.821	286.452	264.668	294.097	361.923	65.689	357.876	328.990	339.613	12.443	0.00048756	0.00032977	0.00011171	1060.1	2.68e-06	3.2444e-06	1135.5	222.08	5.1056e-06	2.1974e-06	280.27	78.584	61.598	17.574	2.8488e-06	24.932	0.00030814	0.00030658	8.9548e-05	1040.1	3.4294e-06	3.2703e-06	1126.5	222.93	3.2344e-06	3.4555e-06	280.32	79.195	61.892	18.016	2.882e-06	25.349	305.258	84.476	114.133	15.618	189.926	182.125	15.869	23.555	186.072	129.398	22.795	30.232	30.533	37.768	195.182	36.758	-8191	255	
3099.181	1	1	0	0	0.33496	0.082111	0.045	0.13814	0.025913	0.16432	0.17961	0.10693	0.19739	0.078103	0.25443	0.29721	0.10942	0.14322	0.19166	0.25422	-2.7396	-2.8063	-2.2479	-3.2167	-2.4875	-2.6625	-3.3979	-2.4188	-2.9542	-2.9896	-2.3083	-3.4229	-2.4938	-2.4958	-3.2854	-2.2146	344.913	97.537	91.090	304.947	153.171	248.941	228.540	52.019	154.232	330.320	40.970	336.836	94.057	112.760	246.750	278.880	0.00054419	0.00032808	5.2008e-05	1044.9	2.015e-06	1.825e-06	1137.6	222.93	5.4532e-06	3.8827e-06	281.31	79.229	61.65	17.894	2.6093e-06	24.842	0.00030303	0.00031445	8.1751e-05	1037.9	3.2847e-06	3.2479e-06	1127.6	223.07	3.4605e-06	3.2697e-06	280.65	79.549	62.167	18.115	3.0062e-06	25.363	316.889	102.933	82.799	15.993	134.316	185.506	15.782	23.232	174.963	154.541	23.037	30.183	30.717	37.455	182.410	36.853	-8191	255	
3099.277	1	1	0	0	0.16933	0.0405	0.071604	0.14822	0.11045	0.072707	0.047208	0.22742	0.29486	0.066151	0.10838	0.07248	0.21152	0.21594	0.2613	0.19593	-2.5333	-2.9833	-2.1417	-3.1771	-2.6229	-2.6375	-3.4667	-2.4542	-2.8771	-3.3083	-2.3271	-3.2646	-2.6312	-2.4292	-3.2458	-2.6375	349.048	130.255	174.681	29.543	312.724	100.397	6.970	296.687	237.249	71.271	103.949	57.798	35.815	243.200	344.546	58.199	0.00043518	0.00016256	9.0723e-05	1057.1	3.0785e-06	4.5718e-06	1141.3	223.26	3.2651e-06	1.5286e-06	280.69	78.411	61.955	17.768	3.1817e-06	24.643	0.0003054	0.0003073	9.2419e-05	1042.1	3.5768e-06	3.3967e-06	1131.5	223.6	3.3979e-06	3.1731e-06	280.6	79.276	62.113	18.091	3.0907e-06	25.277	317.716	139.578	87.086	15.720	159.708	175.963	16.058	23.315	215.395	181.143	22.915	29.994	30.527	37.248	155.415	36.567	-8191	255	
3099.371	1	1	0	0	0.12266	0.1414	0.14457	0.095065	0.18192	0.3778	0.11842	0.19229	0.12943	0.13084	0.23199	0.11964	0.25891	0.20464	0.21964	0.24431	-2.3333	-3.0521	-2.0979	-3.3375	-2.7062	-2.4604	-3.3292	-2.4062	-2.7062	-3.1229	-2.2687	-3.1208	-2.8729	-2.425	-3.3417	-2.4604	285.639	139.012	137.011	227.611	258.882	150.161	102.776	323.457	156.746	178.363	65.263	363.824	265.458	352.370	358.978	351.497	0.0004748	0.00030153	7.1034e-05	1045.8	1.6651e-06	2.2319e-06	1141.9	225.25	4.828e-06	3.5347e-06	278.88	78.759	61.929	17.867	3.0684e-06	25.029	0.00030667	0.00030907	9.0974e-05	1038.5	3.6049e-06	3.3698e-06	1130	223.49	3.3628e-06	3.0936e-06	279.9	79.378	62.095	18.113	3.1873e-06	25.44	315.094	77.918	115.246	15.549	226.948	175.097	15.883	23.419	200.172	179.773	22.709	30.388	30.214	37.615	132.307	36.902	-8191	255	
3099.467	1	1	0	0	0.20038	0.061554	0.22842	0.25281	0.099469	0.11373	0.086848	0.031287	0.18289	0.19723	0.17789	0.10256	0.14221	0.1582	0.1895	0.063554	-2.2875	-3.1896	-2.2833	-3.1646	-2.8479	-2.3417	-3.5563	-2.7646	-2.4167	-3.2917	-2.3417	-2.8458	-3.0417	-2.3229	-3.2583	-2.725	345.989	83.513	147.057	292.586	137.177	54.103	27.893	67.892	189.585	153.477	263.402	235.623	133.192	29.433	130.566	48.686	0.00051519	0.00031748	5.8906e-05	1058.7	2.1142e-06	2.0811e-06	1136.5	224.58	3.7415e-06	2.3883e-06	279.98	78.909	62.022	17.731	2.4235e-06	24.967	0.00031805	0.00030271	8.8455e-05	1041.4	3.2145e-06	3.6143e-06	1126.7	223.65	3.5106e-06	3.0259e-06	280.5	79.588	62.146	18.056	3.133e-06	25.4	310.899	114.320	117.732	15.868	136.177	155.752	15.718	23.335	193.921	149.658	22.924	30.349	30.627	37.445	153.517	36.386	-8191	255	
3099.588	1	1	0	0	0.27256	0.1057	0.18881	0.16362	0.2665	0.26251	0.26372	0.093884	0.29918	0.10142	0.2509	0.22627	0.1435	0.26701	0.10554	0.055404	-2.1146	-3.1562	-2.3604	-2.8833	-3.0625	-2.3563	-3.2542	-2.7896	-2.3042	-3.1333	-2.45	-2.8958	-3.1979	-2.3792	-3.3187	-2.8875	339.576	142.338	119.618	296.950	340.453	12.041	269.414	113.312	156.903	124.998	136.357	178.445	29.130	26.852	152.208	331.859	0.0005415	0.00036557	5.2888e-05	1045.7	2.9929e-06	1.8597e-06	1137.9	222.91	5.3804e-06	2.5474e-06	280.44	78.808	62.026	17.878	3.3234e-06	24.835	0.0003347	0.00030606	8.8678e-05	1040.6	3.1794e-06	3.6958e-06	1127.6	222.81	3.3973e-06	3.4019e-06	280.63	79.509	62.105	18.18	3.137e-06	25.356	314.454	102.659	98.926	15.548	187.635	179.314	15.870	23.244	187.137	148.952	23.077	30.397	30.351	37.426	167.899	36.448	-8191	255	
3099.683	1	1	0	0	0.26602	0.30411	0.19657	0.33671	0.20027	0.2187	0.31367	0.2198	0.34431	0.25213	0.262	0.22685	0.10371	0.14259	0.17399	0.18379	-1.7625	-3.275	-2.3542	-2.6729	-3.175	-2.4	-3.2687	-3.0104	-2.2604	-3.3167	-2.7667	-2.8833	-3.3438	-2.3458	-3.0187	-3.0021	58.883	56.180	138.335	360.098	155.967	145.621	274.766	84.543	244.063	75.049	11.434	16.442	259.415	137.270	306.885	341.713	0.00041186	0.00045172	7.7292e-05	1048.8	3.1256e-06	2.0346e-06	1142.5	222.27	2.6784e-06	1.9842e-06	280.67	79.103	61.422	17.82	2.3297e-06	24.846	0.00032394	0.00028776	8.8696e-05	1041.1	3.1984e-06	3.3645e-06	1130.8	222.77	3.5682e-06	3.0534e-06	280.75	79.646	61.924	18.138	3.3343e-06	25.347	315.102	90.069	119.151	16.153	143.489	139.538	16.002	23.429	210.590	142.090	22.980	29.959	30.786	37.828	163.713	36.908	-8191	255	
3099.779	1	1	0	0	0.09376	0.17296	0.056496	0.047922	0.19871	0.084111	0.20154	0.23063	0.049865	0.32033	0.18828	0.1079	0.32759	0.13278	0.15347	0.18815	-1.8896	-3.1958	-2.7271	-2.5438	-3.4	-2.3271	-3.0771	-3.1667	-2.2958	-3.1188	-2.8646	-2.4854	-3.2562	-2.3063	-2.8667	-3.1167	52.076	160.300	66.217	322.337	124.321	253.123	286.634	331.067	41.475	20.413	226.686	173.848	63.054	253.484	259.482	322.865	0.00048984	0.00022779	6.3596e-05	1051.9	4.121e-06	2.2637e-06	1142.9	223.76	3.2832e-06	2.2965e-06	280.15	78.488	61.855	17.787	2.509e-06	24.867	0.00032382	0.00028828	9.1271e-05	1042.7	3.0369e-06	3.2898e-06	1129	223.65	3.4342e-06	3.1775e-06	280.56	79.364	62.026	18.087	3.1155e-06	25.344	322.609	89.389	95.756	16.137	178.246	166.186	15.887	23.594	210.790	162.772	22.515	30.455	30.857	37.452	185.788	37.158	-8191	255	
3099.875	1	1	0	0	0.10793	0.06288	0.13855	0.066033	0.22043	0.091102	0.18122	0.24062	0.35397	0.041668	0.20271	0.44836	0.22171	0.053039	0.44983	0.19611	-1.9333	-3.025	-2.6688	-2.4333	-3.3312	-2.675	-3.0083	-3.3729	-2.2687	-3.2292	-2.9625	-2.45	-3.3271	-2.6417	-2.7313	-3.2917	318.645	84.586	21.096	294.465	140.532	66.689	272.007	266.847	345.827	288.505	69.177	299.049	277.095	229.073	295.455	106.419	0.00045554	0.00024726	3.8212e-05	1049.9	3.453e-06	2.5621e-06	1142.8	223.4	3.091e-06	2.6154e-06	281.4	78.811	61.38	17.808	2.1524e-06	24.854	0.00030807	0.00027779	8.5918e-05	1042.9	3.2082e-06	3.366e-06	1129.7	223.18	3.2783e-06	3.2808e-06	280.66	79.609	62.065	18.101	3.5282e-06	25.352	317.918	71.423	69.624	15.543	175.001	134.949	15.767	23.501	170.973	152.611	22.780	30.127	30.562	37.725	167.255	36.852	-8191	255	
3099.971	1	1	0	0	0.15206	0.10183	0.25537	0.12787	0.054356	0.11326	0.27855	0.1859	0.046151	0.28262	0.16143	0.057493	0.27874	0.33599	0.20452	0.014585	-1.9979	-3.0187	-3.0292	-2.2042	-3.2021	-2.6771	-2.8083	-3.4688	-2.3083	-3.0563	-3.0292	-2.4896	-3.3604	-2.7188	-2.4125	-3.375	158.353	89.611	166.353	76.964	5.169	119.665	259.516	38.633	194.855	243.994	180.485	122.394	325.930	75.231	315.960	15.734	0.00040429	0.00024926	5.9453e-05	1046.9	3.0932e-06	2.797e-06	1141.2	223.8	4.6623e-06	2.6007e-06	279.66	79.047	61.693	17.814	4.0449e-06	24.842	0.00032316	0.00027064	8.2992e-05	1039.9	3.1387e-06	3.2292e-06	1129.8	223.65	3.5225e-06	3.2875e-06	280.6	79.598	62.141	18.093	3.7268e-06	25.366	314.924	92.532	75.640	15.794	169.580	174.459	16.027	23.147	174.657	154.397	22.913	29.930	30.487	37.597	183.991	36.458	-8191	255	
3100.067	1	1	0	0	0.14954	0.1581	0.25314	0.11223	0.08055	0.20011	0.22593	0.24527	0.083545	0.05873	0.13504	0.12353	0.05449	0.1597	0.052168	0.11174	-2.0687	-2.8	-2.9813	-2.2438	-3.0563	-2.7771	-2.5062	-3.3083	-2.5542	-2.8979	-3.3312	-2.4625	-3.2833	-2.8	-2.2562	-3.3104	194.164	299.824	64.222	88.805	177.663	5.919	296.339	345.403	296.661	330.921	341.701	36.634	61.230	169.037	298.243	103.233	0.00049221	0.00023783	0.00012877	1039.7	3.1054e-06	2.8216e-06	1137.4	223.27	6.8197e-06	2.7985e-06	279.41	78.817	61.733	17.81	3.9038e-06	24.876	0.00031964	0.00030251	8.2899e-05	1039.9	3.1717e-06	3.5956e-06	1128.7	223.07	3.5701e-06	3.1686e-06	279.92	79.337	62.162	18.109	3.4524e-06	25.348	315.668	96.893	111.763	15.784	173.378	156.280	16.044	23.719	171.377	165.893	22.898	30.357	30.437	37.506	168.772	36.731	-8191	255	
3100.163	1	1	0	0	0.29902	0.15972	0.13566	0.36764	0.31718	0.23276	0.20289	0.12737	0.22138	0.11518	0.16091	0.23068	0.052319	0.058712	0.12584	0.17234	-2.1417	-2.675	-3.2417	-2.2375	-3.1479	-3.05	-2.5229	-3.4917	-2.675	-2.5271	-3.1542	-2.4125	-3.0375	-3.0708	-2.3083	-3.4771	249.676	276.926	235.319	236.361	236.084	274.998	362.332	261.099	263.891	202.217	9.825	339.809	337.429	156.688	274.480	191.449	0.00047256	0.00030923	8.1861e-05	1045.6	3.4944e-06	2.9335e-06	1143.3	222.77	5.0198e-06	2.7551e-06	279.35	78.803	62.318	17.739	3.4673e-06	24.826	0.00031712	0.00030114	8.1862e-05	1042.9	3.2068e-06	3.4894e-06	1129.3	223.11	3.3409e-06	3.5424e-06	280.23	79.537	62.294	18.051	3.3813e-06	25.336	320.522	108.013	84.778	15.717	185.034	176.831	15.991	23.725	181.861	165.640	22.956	30.283	30.760	37.003	162.003	36.614	-8191	255	
3100.259	1	1	0	0	0.058912	0.092627	0.097167	0.35745	0.13943	0.037187	0.2254	0.25717	0.30955	0.18217	0.18974	0.022575	0.10127	0.21568	0.1237	0.10904	-2.1208	-2.5667	-3.1917	-2.3083	-2.9917	-3.0292	-2.5187	-3.2458	-2.7292	-2.5271	-3.4271	-2.5229	-2.8958	-3.2396	-2.2229	-3.0583	210.671	136.694	181.265	172.826	131.133	323.407	354.600	283.319	248.588	165.689	31.948	257.650	130.921	301.262	307.647	259.846	0.00046119	0.00036717	0.00011926	1048.6	3.2693e-06	2.4641e-06	1141.1	223.83	4.495e-06	2.5546e-06	279.92	78.624	61.781	17.75	4.3318e-06	24.68	0.00032773	0.00030494	8.4455e-05	1040.7	3.2595e-06	3.3974e-06	1128.4	223.47	3.3102e-06	3.3811e-06	280.66	79.321	62.13	18.08	3.2611e-06	25.342	321.688	119.214	109.697	15.808	144.473	199.166	15.753	23.451	211.481	141.172	22.945	30.270	30.321	37.268	168.143	36.510	-8191	255	
3100.380	1	1	0	0	0.14276	0.28261	0.41348	0.26176	0.23686	0.19665	0.36488	0.35435	0.078207	0.078304	0.17165	0.24477	0.10705	0.23151	0.12291	0.018565	-2.425	-2.4479	-3.3271	-2.4479	-2.6042	-3.1708	-2.5062	-3.2771	-2.7812	-2.2854	-3.3271	-2.8146	-2.7021	-3.225	-2.3896	-3.0375	44.864	76.624	52.645	23.260	339.123	150.382	305.523	358.405	61.958	35.258	114.401	94.085	198.099	30.866	53.795	358.608	0.00049603	0.0002773	9.6416e-05	1057.5	1.819e-06	3.1252e-06	1141.3	223.4	4.627e-06	3.8021e-06	279.62	79.178	62.285	17.834	3.8122e-06	25.104	0.00032216	0.00033249	7.7973e-05	1040.7	3.2883e-06	3.301e-06	1129.7	223.19	3.3904e-06	3.4079e-06	280.43	79.458	62.244	18.151	3.5128e-06	25.403	312.863	106.123	121.846	15.354	132.525	157.896	15.860	23.621	209.619	168.498	22.593	30.384	30.327	37.296	172.816	36.640	-8191	255	
3100.476	1	1	0	0	0.1576	0.18198	0.24276	0.25405	0.31952	0.15891	0.062606	0.12295	0.093431	0.1342	0.29136	0.10009	0.090247	0.19661	0.23973	0.1489	-2.6646	-2.3688	-3.0604	-2.7458	-2.6188	-3.2708	-2.6146	-3.0917	-3.2479	-2.3896	-3.3792	-2.7167	-2.5521	-3.2729	-2.4479	-2.8667	278.450	171.706	190.962	201.207	6.399	44.557	251.894	59.148	235.051	361.306	11.811	87.979	290.562	363.273	118.582	321.156	0.00047475	0.00016931	9.3348e-05	1047.2	4.1327e-06	3.5525e-06	1140.2	222.47	3.8427e-06	3.9321e-06	279.5	79.128	61.996	17.819	4.9262e-06	24.943	0.00030125	0.0003098	8.0732e-05	1038.1	3.3086e-06	3.1843e-06	1128.3	223.24	3.4017e-06	3.5565e-06	280.05	79.384	62.256	18.1	3.3504e-06	25.431	322.029	95.793	81.122	15.088	157.126	149.831	15.659	23.274	182.287	146.965	22.740	30.085	30.929	37.311	176.456	36.628	-8191	255	
3100.548	1	1	0	0	0.012544	0.038989	0.0084789	0.1542	0.21022	0.25773	0.36241	0.20983	0.021551	0.071905	0.12731	0.17874	0.052591	0.10871	0.10792	0.18695	-2.7062	-2.2938	-3.1625	-2.65	-2.5021	-3.2188	-2.5625	-2.7979	-3.2125	-2.2146	-3.1917	-2.8979	-2.4479	-3.05	-2.4208	-2.8667	134.323	319.206	92.721	343.801	262.279	264.872	319.955	220.150	212.395	27.821	269.474	284.073	184.813	189.530	350.727	65.525	0.00047168	0.00031579	7.579e-05	1054.8	4.2326e-06	7.9119e-07	1137.1	222.6	3.49e-06	3.4111e-06	280.96	79.228	61.601	17.688	2.8141e-06	24.899	0.00031275	0.00031563	7.9047e-05	1041.8	3.6126e-06	2.8e-06	1127.7	222.66	3.0409e-06	3.3462e-06	280.56	79.461	62.002	18.095	3.2108e-06	25.365	319.888	104.680	87.015	15.602	182.767	176.622	15.902	23.799	175.076	139.972	22.708	30.257	31.016	37.722	167.575	36.452	-8191	255	
3100.669	1	1	0	0	0.13195	0.020961	0.24763	0.28115	0.23912	0.1098	0.22412	0.1631	0.076676	0.16338	0.082942	0.36846	0.17405	0.10268	0.13178	0.32127	-2.7229	-2.1458	-2.9771	-2.6312	-2.4813	-3.2792	-2.6667	-2.6188	-3.2687	-2.3729	-3.0979	-3.0563	-2.2958	-3.2313	-2.6208	-2.5958	142.544	67.389	201.721	40.950	275.605	112.952	275.779	313.323	150.047	246.073	325.181	67.155	49.834	72.293	79.642	283.876	0.000448	0.00027225	0.00011975	1052.1	1.4625e-06	3.3899e-06	1140.7	223.87	4.2186e-06	2.1098e-06	280.77	79.151	61.965	17.752	4.9523e-06	24.868	0.0002987	0.0003077	7.9232e-05	1043.1	3.4062e-06	3.2718e-06	1130	223.11	3.1487e-06	3.373e-06	280.96	79.576	62.163	18.156	3.2182e-06	25.413	321.393	112.406	96.581	15.561	159.765	158.818	15.877	23.370	166.462	159.940	22.762	30.146	30.860	37.422	156.314	36.562	-8191	255	
3100.763	1	1	0	0	0.22426	0.17049	0.22295	0.21746	0.12943	0.12052	0.21333	0.25515	0.42234	0.038764	0.24674	0.02323	0.28045	0.041577	0.1272	0.19547	-2.8042	-2.2188	-3.0125	-2.9604	-2.3688	-3.0625	-2.775	-2.5396	-3.4458	-2.4021	-3.0312	-3.1042	-2.3292	-3.3	-2.575	-2.4854	167.560	19.872	362.511	29.251	19.725	9.383	356.450	260.258	227.705	269.561	315.717	128.255	333.355	166.980	116.135	281.099	0.00048275	0.00029243	7.4459e-05	1062.7	3.3377e-06	2.8577e-06	1138.8	223.46	3.7451e-06	2.9894e-06	279.58	79.049	62.157	17.858	2.5355e-06	24.629	0.00028658	0.00029497	8.2844e-05	1040.4	3.442e-06	2.8688e-06	1126.8	223.05	2.9808e-06	3.1344e-06	280.71	79.344	62.287	18.121	3.2672e-06	25.31	320.238	100.901	110.060	15.232	152.704	159.164	15.646	23.392	175.343	148.461	23.161	30.113	30.661	37.816	130.587	36.777	-8191	255	
3100.859	1	1	0	0	0.20525	0.097934	0.12898	0.064424	0.13158	0.12411	0.22269	0.12566	0.15608	0.10294	0.21262	0.17622	0.073411	0.067401	0.13556	0.17976	-3.0375	-2.5333	-2.6875	-3.0479	-2.2875	-2.9688	-2.8917	-2.4333	-3.3833	-2.2875	-2.7604	-3.0312	-2.3396	-3.075	-2.8104	-2.45	144.380	154.251	143.477	283.141	278.116	39.924	357.286	299.383	97.389	297.237	346.961	48.984	159.361	101.923	324.278	34.967	0.00056063	0.00030924	0.00010416	1051.1	3.3852e-06	1.9749e-06	1139	223	4.5071e-06	2.6744e-06	279.85	78.956	61.433	17.858	3.0301e-06	24.815	0.00029386	0.00031367	7.6472e-05	1038.8	3.4139e-06	2.907e-06	1127	222.84	3.0353e-06	3.4153e-06	280.17	79.477	61.951	18.101	3.447e-06	25.324	318.368	132.490	102.877	15.714	153.827	145.756	16.002	23.280	200.007	172.606	22.747	29.920	30.773	37.125	173.684	36.992	-8191	255	
3100.955	1	1	0	0	0.14312	0.40671	0.2792	0.065986	0.23923	0.31973	0.24084	0.12201	0.28322	0.10795	0.06713	0.1176	0.085791	0.28283	0.028803	0.17167	-2.8708	-2.3833	-2.6125	-3.0292	-2.4333	-3.0229	-3.0208	-2.3333	-3.2271	-2.7646	-2.7917	-3.2313	-2.3792	-3.0021	-3	-2.3833	307.680	268.260	45.429	270.737	62.620	192.859	227.740	241.871	50.643	292.491	180.693	300.947	187.476	20.201	27.971	293.099	0.00048873	0.00024173	0.00014945	1052.6	2.5348e-06	3.3709e-06	1134.8	223.03	5.3484e-06	3.6039e-06	279.74	78.693	62.071	17.891	3.952e-06	24.865	0.00029386	0.00030737	8.7548e-05	1042.5	3.4441e-06	3.1515e-06	1127	223.21	3.0428e-06	3.2823e-06	280.5	79.279	62.121	18.155	3.0853e-06	25.282	309.974	100.537	88.822	15.459	180.951	163.033	15.882	23.606	182.017	199.910	22.895	30.225	30.691	37.738	175.232	36.795	-8191	255	
3101.076	1	1	0	0	0.12589	0.026621	0.18401	0.18131	0.16975	0.34513	0.3309	0.13788	0.097418	0.073706	0.053935	0.22475	0.079313	0.29631	0.083961	0.22597	-3.0167	-2.6646	-2.4417	-3.3583	-2.3625	-2.8229	-3.3354	-2.4958	-3.2625	-2.7354	-2.5646	-3.2521	-2.2521	-2.7271	-3.2458	-2.3771	35.152	278.059	96.353	338.968	37.393	244.164	334.051	283.752	118.429	20.247	165.891	327.475	170.067	201.105	98.404	238.350	0.00048828	0.00038009	9.5006e-05	1053.7	3.014e-06	1.2614e-06	1139.3	223.9	3.8315e-06	3.3899e-06	280.73	78.784	61.707	17.638	4.0331e-06	24.773	0.00029715	0.00031104	8.3084e-05	1041.2	3.496e-06	3.1761e-06	1126.7	223.5	2.9946e-06	3.4116e-06	280.94	79.48	61.972	18.114	2.8605e-06	25.32	323.363	104.813	93.377	15.634	155.686	194.912	15.985	23.318	208.257	158.914	22.762	29.796	30.315	37.757	152.869	36.512	-8191	255	
3101.172	1	1	0	0	0.18857	0.32591	0.23674	0.12068	0.13868	0.028609	0.42237	0.033144	0.13585	0.18455	0.095218	0.16615	0.08958	0.44567	0.13365	0.14782	-2.7479	-2.7729	-2.4104	-3.1937	-2.5563	-2.7229	-3.3438	-2.3187	-3.0563	-3.0208	-2.4958	-3.3042	-2.4479	-2.6125	-3.2604	-2.375	44.919	265.357	253.826	274.488	340.033	115.740	273.944	246.619	282.207	122.304	257.679	287.071	279.474	346.670	71.075	7.735	0.00053352	0.00028809	7.6764e-05	1054.6	3.767e-06	3.0606e-06	1138.3	222.6	6.0891e-06	4.2174e-06	281.24	79.197	61.754	17.719	3.6553e-06	25.023	0.00029452	0.00029805	8.6696e-05	1038.7	3.1998e-06	3.123e-06	1127.5	223.13	3.1073e-06	3.2957e-06	280.33	79.596	62.13	18.056	2.7995e-06	25.465	323.419	104.614	79.734	15.515	143.065	170.218	15.730	23.511	184.765	153.273	23.051	30.140	30.824	37.727	179.024	36.981	-8191	255	
3101.268	1	1	0	0	0.19315	0.25377	0.036389	0.12698	0.13914	0.1136	0.1967	0.075769	0.14041	0.12182	0.19017	0.13556	0.1468	0.064664	0.21435	0.16472	-2.6813	-3.0146	-2.2458	-3.3458	-2.7396	-2.6188	-3.4125	-2.3312	-2.9958	-3.1104	-2.3958	-3.3187	-2.8125	-2.4104	-3.3063	-2.4458	141.661	68.256	340.048	287.700	282.493	296.477	275.119	188.192	24.049	141.855	312.280	186.576	328.100	346.093	328.212	122.750	0.00048305	0.00027428	5.5547e-05	1056.9	2.1595e-06	2.7141e-06	1140	224.6	5.5334e-06	2.9657e-06	281.18	78.8	62.082	17.716	3.0095e-06	24.737	0.00029166	0.00027969	8.1936e-05	1044.4	3.2349e-06	3.4939e-06	1128.2	223.31	3.051e-06	3.0356e-06	280.92	79.322	62.209	18.062	3.0229e-06	25.261	320.496	45.075	105.758	15.618	146.237	193.554	16.085	23.311	205.283	163.063	22.997	30.259	30.898	38.211	137.353	36.827	-8191	255	
3101.364	1	1	0	0	0.15597	0.080452	0.29523	0.18854	0.16451	0.090027	0.2552	0.051844	0.30869	0.16543	0.2158	0.27531	0.006537	0.401	0.11528	0.24212	-2.2396	-3.1458	-2.2062	-3.1375	-2.6792	-2.4854	-3.2188	-2.4458	-2.8292	-3.15	-2.2938	-3.2479	-2.8042	-2.5458	-3.4229	-2.6854	185.643	98.212	283.839	266.364	37.818	32.370	6.951	216.728	261.725	201.519	184.193	19.512	353.963	331.570	33.504	337.363	0.00051347	0.00028641	5.3863e-05	1054.4	3.7272e-06	2.5268e-06	1136	223.23	4.2825e-06	2.825e-06	280.16	79.044	61.764	17.759	1.6833e-06	25.051	0.00029398	0.00026827	8.4214e-05	1042.9	3.0096e-06	3.3219e-06	1128.8	223.26	3.3259e-06	3.0988e-06	280.85	79.353	62.119	18.081	2.9746e-06	25.365	317.525	87.401	109.795	15.868	164.231	176.253	15.825	23.734	196.793	136.861	22.852	30.296	30.186	37.789	141.667	36.531	-8191	255	
3101.460	1	1	0	0	0.11245	0.2915	0.10057	0.13553	0.24814	0.24612	0.18071	0.089739	0.28233	0.099389	0.19489	0.11911	0.25768	0.15037	0.39864	0.12595	-2.125	-3.2479	-2.2396	-3.1937	-2.9	-2.2687	-3.5208	-2.7812	-2.5938	-3.2938	-2.3833	-3.1021	-3.2375	-2.525	-3.3229	-2.6417	339.056	353.981	71.591	81.863	309.836	167.070	332.177	117.574	239.843	310.811	258.353	17.068	357.454	260.803	357.339	133.062	0.0005035	0.00040826	7.9283e-05	1054.3	2.4267e-06	2.4867e-06	1135.9	223.92	6.1235e-06	2.9056e-06	279.63	79.181	61.456	17.769	2.6091e-06	24.937	0.00031109	0.00028205	8.54e-05	1040.1	2.8684e-06	3.4752e-06	1126.8	223.23	3.3415e-06	2.9286e-06	280.19	79.574	61.943	18.107	2.9867e-06	25.339	317.966	107.855	98.136	15.952	179.972	157.530	15.908	23.764	185.541	131.068	22.525	30.498	30.872	37.325	144.132	37.311	-8191	255	
3101.557	1	1	0	0	0.196	0.2061	0.11475	0.21379	0.014789	0.13166	0.11168	0.29873	0.18186	0.18826	0.081592	0.075738	0.27197	0.096042	0.15749	0.16938	-2.0396	-3.3646	-2.4771	-3.1354	-3.0563	-2.2687	-3.4292	-2.8229	-2.55	-3.5167	-2.5646	-3	-3.2167	-2.4458	-3.3583	-3.0521	152.734	307.006	259.400	148.795	87.597	296.724	280.046	331.466	59.770	314.210	195.688	222.465	339.039	84.804	319.985	357.144	0.00049563	0.00038312	8.544e-05	1050.9	1.8714e-06	3.8947e-06	1138.5	224.23	3.1206e-06	2.2578e-06	280.49	79.144	62.401	17.728	3.5996e-06	24.986	0.00033265	0.00026847	8.4548e-05	1040.8	3.0748e-06	3.4595e-06	1127.9	223.37	3.3722e-06	3.0735e-06	280.85	79.286	62.194	18.103	3.3933e-06	25.343	311.824	98.949	88.698	16.595	161.871	162.639	15.942	23.429	191.410	135.144	22.889	30.101	30.630	37.014	154.236	36.994	-8191	255	
3101.677	1	1	0	0	0.028112	0.31353	0.25088	0.22287	0.079732	0.20421	0.12694	0.12115	0.12643	0.11316	0.10578	0.2373	0.18987	0.16799	0.15103	0.15508	-2.1021	-3.3583	-2.6104	-2.6396	-3.2229	-2.4042	-3.4104	-2.9625	-2.3792	-3.3458	-2.6354	-2.9	-3.2021	-2.4729	-3.0208	-3.1792	185.465	204.341	33.458	118.905	262.818	253.861	52.139	350.983	271.705	79.395	55.457	334.581	179.978	341.760	140.946	167.102	0.00046617	0.00030149	4.7097e-05	1059.7	3.8954e-06	2.1773e-06	1136	223.43	4.3126e-06	2.5935e-06	279.09	79.249	62.286	17.724	5.2736e-06	24.717	0.00032316	0.00026887	8.2677e-05	1041.6	3.1829e-06	3.3758e-06	1126.3	223.15	3.4467e-06	3.0215e-06	280.06	79.446	62.234	18.067	3.1202e-06	25.285	319.436	86.679	91.172	16.105	161.278	139.408	15.929	23.540	193.524	166.919	22.895	30.345	30.424	37.521	175.110	36.485	-8191	255	
3101.772	1	1	0	0	0.1691	0.13204	0.038235	0.15939	0.2882	0.029264	0.15319	0.1997	0.21056	0.01556	0.14454	0.025362	0.10178	0.11001	0.36416	0.19726	-1.925	-3.2687	-2.7583	-2.5521	-3.2125	-2.2646	-3.2021	-3.2458	-2.3146	-3.025	-2.8958	-2.7687	-3.5438	-2.4771	-3.0333	-3.0458	147.621	127.191	290.924	285.493	8.382	273.659	321.093	17.554	196.623	100.465	35.898	174.204	84.559	178.270	80.801	103.137	0.00047451	0.00028295	6.3298e-05	1049.8	3.9773e-06	2.4851e-06	1137.9	223.13	3.7414e-06	2.8639e-06	280.11	79.398	62.002	17.846	2.6038e-06	24.929	0.00031616	0.000293	9.1104e-05	1043.6	3.2833e-06	3.6404e-06	1129.6	223.06	3.4536e-06	2.9791e-06	280.56	79.523	62.034	18.142	3.0914e-06	25.387	324.651	103.609	86.835	15.890	142.273	175.706	15.969	23.624	188.367	143.074	22.776	30.203	30.818	37.787	149.253	37.363	-8191	255	
3101.843	1	1	0	0	0.12486	0.11652	0.12637	0.1374	0.26166	0.10535	0.51447	0.10305	0.096116	0.021512	0.088163	0.11802	0.20022	0.12623	0.25979	0.090621	-1.9521	-3.3104	-2.6	-2.6125	-3.2875	-2.4458	-3.0417	-3.4771	-2.5208	-3.1896	-3.0312	-2.2646	-3.3792	-2.5396	-2.7667	-3.3438	37.505	245.086	155.452	17.022	334.658	195.990	290.119	35.100	351.073	234.027	253.002	64.798	318.068	291.289	266.658	349.839	0.00047937	0.00034014	6.5818e-05	1043.4	4.4563e-06	2.4356e-06	1138.1	223.43	4.3516e-06	3.8317e-06	281.26	78.569	62.149	17.856	3.53e-06	24.989	0.00033996	0.00028736	8.6955e-05	1039	3.4209e-06	3.2285e-06	1128.7	223.37	3.7981e-06	3.4807e-06	280.23	79.281	62.082	18.118	3.4685e-06	25.362	311.418	130.939	83.005	16.105	161.638	182.074	16.224	23.491	186.095	168.007	22.788	30.377	31.026	37.359	154.737	36.529	-8191	255	
3101.939	1	1	0	0	0.080441	0.096095	0.10989	0.26882	0.16149	0.16079	0.35649	0.30317	0.046714	0.074644	0.33576	0.28105	0.17515	0.47713	0.13805	0.083532	-2.0542	-3.175	-3.0042	-2.3792	-3.2979	-2.6188	-2.9417	-3.3521	-2.4521	-2.9958	-3.0958	-2.3542	-3.4146	-2.7188	-2.425	-3.4333	101.331	221.411	22.619	343.669	113.275	289.973	286.454	338.346	165.001	196.299	53.828	346.631	19.812	310.883	297.207	45.057	0.00052827	0.00037086	0.00010921	1045.6	4.0117e-06	1.7494e-06	1133.6	223.27	4.0465e-06	2.1345e-06	281.13	78.876	62.159	17.699	2.7941e-06	24.923	0.00033934	0.00031032	8.8733e-05	1041.5	3.1352e-06	3.6307e-06	1130.4	223.35	3.6045e-06	3.1909e-06	280.39	79.464	62.119	18.023	3.3282e-06	25.359	316.241	105.277	95.609	16.157	140.920	160.172	16.238	23.704	213.162	141.207	22.784	30.185	30.778	37.340	154.180	36.687	-8191	255	
3102.060	1	1	0	0	0.15928	0.27197	0.086876	0.19737	0.19218	0.14654	0.19191	0.2298	0.15259	0.23257	0.10334	0.25824	0.13394	0.17332	0.22356	0.11538	-2.0917	-2.9437	-3.2229	-2.3917	-3.1875	-2.7687	-2.7896	-3.5187	-2.4896	-2.9688	-3.2729	-2.4354	-3.2729	-2.9562	-2.4062	-3.4083	326.815	77.800	286.588	106.605	217.857	109.060	343.013	36.390	272.595	301.379	130.218	291.139	146.041	359.619	86.102	298.092	0.00050009	0.00038563	6.9718e-05	1054.3	2.0026e-06	3.0434e-06	1141.1	222.45	4.9111e-06	3.2498e-06	279.34	78.751	62.032	17.783	3.7498e-06	24.793	0.00032936	0.00029458	8.3622e-05	1041.9	3.1956e-06	3.6621e-06	1131.3	222.74	3.2081e-06	3.2214e-06	280.5	79.419	62.189	18.064	3.5282e-06	25.3	317.398	110.006	101.150	15.648	181.935	170.384	16.245	23.661	196.323	195.088	23.102	30.440	30.118	37.774	186.552	36.811	-8191	255	
3102.156	1	1	0	0	0.39826	0.12005	0.16365	0.11994	0.11632	0.055656	0.11022	0.11772	0.094928	0.023971	0.072414	0.12962	0.063188	0.21102	0.21539	0.26722	-2.3417	-2.8	-3.0083	-2.6771	-3.2938	-2.7729	-2.5958	-3.4354	-2.575	-2.8604	-3.3542	-2.4146	-3.2625	-2.9729	-2.2687	-3.4271	335.082	160.561	135.585	231.032	6.722	363.021	54.968	214.754	164.039	132.644	79.443	9.688	82.732	185.082	66.791	305.783	0.00047805	0.00040874	9.8038e-05	1051.6	1.6539e-06	1.9142e-06	1137.2	223.57	7.0742e-06	3.4902e-06	283.49	79.162	61.882	17.717	3.0166e-06	24.887	0.0003287	0.00032954	8.2696e-05	1041	3.1493e-06	3.5642e-06	1127.9	223.58	3.8062e-06	3.9021e-06	281	79.4	62.116	18.028	3.6879e-06	25.324	316.336	110.674	95.649	15.848	173.036	208.831	15.917	23.608	163.134	168.645	23.020	30.337	30.389	37.426	161.316	36.730	-8191	255	
3102.252	1	1	0	0	0.22228	0.19788	0.19671	0.14556	0.099121	0.059238	0.23516	0.15151	0.26297	0.14218	0.15589	0.02836	0.14822	0.12197	0.041068	0.37667	-2.1396	-2.7	-3.3146	-2.4625	-3.0687	-3.0604	-2.7292	-3.2333	-2.7021	-2.5604	-3.3396	-2.4167	-2.8833	-3.2417	-2.4896	-3.4292	290.789	161.926	257.645	356.113	245.488	11.648	292.190	316.342	153.526	290.615	303.329	239.279	56.823	70.446	94.918	295.629	0.00041712	0.00033831	0.000112	1047.6	2.964e-06	3.508e-06	1140	224.39	4.8482e-06	2.4291e-06	281.92	78.883	62.097	17.962	3.9669e-06	24.588	0.000322	0.00033984	8.6455e-05	1042	3.5052e-06	3.5604e-06	1128.8	223.25	3.4323e-06	3.3187e-06	281.38	79.338	62.086	18.15	3.6772e-06	25.277	316.530	113.332	121.089	15.570	166.452	163.978	15.826	23.463	186.827	155.171	23.383	30.051	30.665	37.400	167.741	36.801	-8191	255	
3102.349	1	1	0	0	0.10963	0.19031	0.16544	0.21891	0.15402	0.20011	0.21065	0.29066	0.16533	0.067688	0.029666	0.40494	0.04066	0.16851	0.050407	0.25869	-2.2896	-2.375	-3.2583	-2.5604	-2.9021	-3.2396	-2.6333	-3.3896	-2.9583	-2.5312	-3.4375	-2.6833	-2.9562	-3.1667	-2.3917	-3.2062	238.314	348.599	26.045	124.789	100.534	210.260	319.148	333.143	58.333	218.006	294.856	248.116	181.135	300.570	91.465	270.661	0.00054813	0.00027074	9.4989e-05	1047.7	2.499e-06	1.97e-06	1136	222.53	2.6511e-06	3.4636e-06	279.81	78.497	61.59	17.74	5.4636e-06	24.761	0.00031612	0.00032646	8.4918e-05	1038.1	3.5515e-06	3.378e-06	1128.1	222.54	3.3985e-06	3.5171e-06	279.96	79.294	62.01	18.051	3.4309e-06	25.292	320.244	97.851	99.832	15.640	141.829	163.121	16.051	23.577	182.800	145.272	22.983	30.108	30.924	37.356	169.978	37.113	-8191	255	
3102.469	1	1	0	0	0.10602	0.24598	0.12236	0.19386	0.21164	0.15084	0.33636	0.12337	0.14806	0.091884	0.21386	0.097011	0.042539	0.38221	0.26642	0.15395	-2.5563	-2.4417	-3.1896	-2.6271	-2.6917	-3.25	-2.6146	-3.0958	-3.0542	-2.3771	-3.3937	-2.7146	-2.7021	-3.1979	-2.2917	-3.0375	205.405	149.392	42.156	35.643	307.368	235.948	271.783	167.298	227.660	51.692	12.896	336.273	294.751	321.305	76.963	307.502	0.00047824	0.00017304	0.00010769	1050.6	1.9243e-06	3.2814e-06	1135.3	223.74	4.7147e-06	3.2714e-06	281.16	78.808	61.933	17.707	3.2097e-06	24.795	0.00031101	0.00028972	8.5325e-05	1038.6	3.5424e-06	3.3137e-06	1124.2	223.28	3.3609e-06	3.338e-06	280.25	79.327	62.116	18.023	3.4598e-06	25.269	319.103	84.643	94.656	15.944	133.253	154.898	16.180	23.577	203.447	165.353	23.235	29.851	31.025	37.420	150.621	37.000	-8191	255	
3102.541	1	1	0	0	0.18668	0.046436	0.063422	0.055578	0.23263	0.25823	0.078947	0.12235	0.11459	0.057361	0.098503	0.052064	0.18447	0.049941	0.089436	0.11614	-2.6479	-2.4417	-3.2188	-2.8896	-2.6979	-3.1833	-2.5604	-3.1229	-3.2271	-2.2958	-3.5042	-3.0479	-2.3187	-3.2917	-2.4583	-2.9042	243.128	312.897	107.017	159.947	54.350	51.893	122.063	239.865	35.050	251.920	109.696	333.113	349.497	264.942	202.893	269.859	0.00048247	0.00027451	6.8127e-05	1051.7	3.3326e-06	2.5307e-06	1136.2	223.19	5.4144e-06	3.0502e-06	280.63	79.057	61.655	17.718	1.5373e-06	24.631	0.00030679	0.00033669	7.9936e-05	1038.8	3.8049e-06	3.1843e-06	1126.5	223.01	3.5851e-06	3.6286e-06	280.52	79.389	62.059	18.042	3.4994e-06	25.299	322.187	100.392	73.762	15.936	146.502	160.187	15.867	23.661	166.189	172.717	23.008	30.558	30.512	37.465	186.902	36.977	-8191	255	
3102.637	1	1	0	0	0.094555	0.22128	0.01211	0.238	0.11309	0.18932	0.082911	0.29502	0.073382	0.013149	0.4003	0.11218	0.19789	0.18374	0.10803	0.070604	-2.7854	-2.3063	-3.0354	-2.9521	-2.375	-3.5208	-2.6958	-2.8708	-3.4167	-2.4521	-3.2083	-3.1208	-2.5604	-3.2292	-2.5833	-2.7458	324.720	281.051	309.561	364.025	319.759	75.626	284.711	315.337	290.081	101.372	356.306	247.775	296.954	135.248	312.025	230.743	0.00048833	0.00017263	0.00010855	1055.1	3.1219e-06	1.8907e-06	1139.8	223.34	3.4372e-06	3.5567e-06	279.49	78.154	61.647	17.668	3.3189e-06	24.897	0.00032111	0.000334	9.1326e-05	1041.2	3.7298e-06	3.5395e-06	1128.3	223.1	3.3046e-06	3.6546e-06	280.56	79.153	62.143	18.08	3.5712e-06	25.403	314.064	91.668	110.399	15.563	155.931	140.685	16.052	23.758	220.919	153.816	23.025	30.002	30.580	37.561	178.770	36.715	-8191	255	
3102.758	1	1	0	0	0.094666	0.24317	0.12965	0.026088	0.12824	0.10093	0.17208	0.058231	0.094513	0.078507	0.31288	0.040289	0.19647	0.1041	0.28273	0.064391	-2.9771	-2.3312	-3.0833	-2.9625	-2.4313	-3.3771	-2.9792	-2.6854	-3.4146	-2.3271	-3.0479	-3.2292	-2.3396	-3.2125	-2.7333	-2.5958	231.750	113.104	209.338	306.289	143.392	86.900	343.929	294.356	235.265	51.114	277.305	102.204	252.645	23.154	268.149	249.086	0.00050122	0.00031794	7.7935e-05	1054	2.4155e-06	2.2666e-06	1138.2	223.02	3.4544e-06	1.8155e-06	280.1	78.733	61.861	17.675	3.1163e-06	24.915	0.00030749	0.0003361	8.4622e-05	1041	3.5276e-06	3.4027e-06	1127.8	222.81	3.366e-06	3.8077e-06	280.2	79.288	62.102	18.035	3.2799e-06	25.362	315.908	135.701	95.306	16.049	149.419	150.243	16.097	23.488	222.769	163.142	23.128	30.287	30.557	37.502	164.092	36.391	-8191	255	
3102.852	1	1	0	0	0.053243	0.12638	0.092903	0.05063	0.16289	0.1406	0.22852	0.20361	0.17132	0.12175	0.12251	0.093717	0.39574	0.075374	0.080594	0.27299	-3.1354	-2.5292	-2.9125	-3.2479	-2.3229	-3.4333	-3.075	-2.5125	-3.3771	-2.55	-3.025	-3.2917	-2.3479	-3.1917	-3.0708	-2.4917	92.527	131.299	357.864	165.352	319.661	124.255	327.844	297.968	8.283	312.008	139.751	225.175	210.506	228.282	151.820	136.799	0.00049539	0.00032179	9.3422e-05	1043.7	1.697e-06	2.4499e-06	1137.4	223.77	4.684e-06	2.533e-06	279.66	78.464	61.689	17.723	3.5466e-06	24.8	0.00031356	0.00032383	8.8418e-05	1038.6	3.6252e-06	3.2344e-06	1127.1	223.32	3.3115e-06	3.7089e-06	280.76	79.114	62.002	18.035	3.3853e-06	25.309	312.069	93.835	85.448	15.912	165.051	137.019	16.157	23.589	186.192	157.366	23.179	30.022	30.726	37.586	155.897	37.056	-8191	255	
3102.948	1	1	0	0	0.1678	0.081157	0.1554	0.12295	0.069551	0.33003	0.10635	0.035448	0.13528	0.22912	0.29702	0.17832	0.343	0.2019	0.30399	0.21057	-2.9562	-2.6	-2.9104	-3.2604	-2.3292	-3.075	-3.0438	-2.4938	-3.3167	-2.775	-2.7521	-3.4437	-2.5375	-3.0333	-2.9688	-2.4896	268.498	19.254	68.914	318.898	220.505	255.720	297.932	257.837	321.523	256.858	279.183	134.632	278.809	179.391	323.915	169.662	0.00044532	0.00028948	7.2552e-05	1050.7	3.3122e-06	5.0566e-06	1139.3	223.42	4.0281e-06	2.7778e-06	279.9	79.115	61.877	17.804	3.0499e-06	24.842	0.00029351	0.00033039	8.9048e-05	1039.6	3.8134e-06	3.3944e-06	1127.4	222.9	3.3829e-06	3.4421e-06	281	79.303	61.814	18.065	3.182e-06	25.374	320.044	72.872	81.960	15.801	175.701	170.622	16.306	23.817	202.367	174.454	22.923	30.714	30.763	37.536	172.081	36.428	-8191	255	
3103.069	1	1	0	0	0.11531	0.16675	0.17296	0.10774	0.048645	0.23207	0.30801	0.1202	0.14007	0.20143	0.090874	0.419	0.15629	0.34712	0.17476	0.11568	-2.8625	-2.8646	-2.6188	-3.425	-2.3667	-3.1	-3.4729	-2.6292	-3.2083	-2.8417	-2.5062	-3.4188	-2.35	-2.975	-3.1604	-2.525	217.429	177.669	132.599	319.878	163.632	75.513	324.949	315.236	361.317	219.087	312.400	340.832	8.876	330.130	332.376	259.209	0.0004927	0.00026744	0.0001051	1057.3	3.9662e-06	3.5293e-06	1135.6	224.4	3.4841e-06	2.4422e-06	279.98	78.806	61.82	17.716	3.7686e-06	25.029	0.00030536	0.00033544	8.9993e-05	1042	3.5017e-06	3.1574e-06	1126.7	223.12	3.2069e-06	3.4057e-06	279.95	79.591	62.04	18.045	3.237e-06	25.387	323.698	106.934	90.977	16.295	170.011	164.063	15.710	23.465	214.916	184.414	22.901	30.139	30.475	37.808	156.069	36.495	-8191	255	
3103.140	1	1	0	0	0.1771	0.12672	0.40246	0.14842	0.31039	0.29286	0.19129	0.39876	0.12002	0.17659	0.3484	0.36726	0.14838	0.16484	0.13061	0.19759	-3.0062	-3	-2.3979	-3.3896	-2.35	-2.8479	-3.5771	-2.4708	-3.175	-3.0833	-2.6333	-3.3792	-2.8208	-2.9437	-3.4979	-2.4292	192.252	261.709	304.529	321.864	156.226	355.215	256.923	16.421	160.603	11.339	76.468	16.606	55.855	271.967	66.967	260.886	0.00051128	0.00029661	8.3079e-05	1045.8	3.3337e-06	2.5531e-06	1142.8	223.08	3.9164e-06	3.4554e-06	281.41	78.891	61.597	17.831	3.2846e-06	24.866	0.00030845	0.00030396	9.5438e-05	1039.1	3.7109e-06	3.5171e-06	1127.8	222.77	3.4718e-06	3.4235e-06	280.72	79.299	61.916	18.064	3.4141e-06	25.331	321.023	105.947	124.701	15.568	166.837	141.273	16.378	23.488	194.609	154.577	22.990	30.565	30.464	37.557	155.192	36.806	-8191	255	
3103.237	1	1	0	0	0.36121	0.044122	0.13358	0.2213	0.15787	0.1484	0.18734	0.1346	0.34914	0.18944	0.025122	0.063034	0.18432	0.14405	0.11255	0.14826	-2.7458	-3.0208	-2.2646	-3.4708	-2.7521	-2.575	-3.6354	-2.6229	-2.9896	-2.9396	-2.4729	-3.3875	-2.7458	-2.65	-3.2458	-2.45	85.164	149.228	317.337	6.591	149.655	253.886	10.678	362.135	135.779	51.240	316.965	25.967	357.504	316.539	342.038	37.604	0.00047266	0.00037798	6.5139e-05	1045.1	4.4948e-06	2.9207e-06	1137.9	222.18	5.7292e-06	1.6942e-06	279.51	78.378	61.806	17.792	4.4826e-06	24.758	0.00030091	0.00030684	9.0937e-05	1038.2	3.654e-06	3.2845e-06	1127.2	222.55	3.2927e-06	3.078e-06	280.28	79.187	61.938	18.054	3.1276e-06	25.339	322.480	98.690	112.879	15.724	145.621	147.872	16.045	23.458	179.136	187.857	23.449	30.640	30.318	37.800	168.925	36.637	-8191	255	
3103.357	1	1	0	0	0.15851	0.065386	0.15268	0.24517	0.16465	0.28592	0.16313	0.14573	0.1738	0.054062	0.041294	0.11179	0.079137	0.17517	0.28212	0.23645	-2.575	-3.1083	-2.2271	-3.2562	-2.8125	-2.6208	-3.5771	-2.45	-2.8667	-3.4188	-2.6562	-3.1958	-2.9313	-2.5896	-3.3354	-2.5979	207.808	83.402	340.104	305.788	170.398	242.810	223.334	213.244	239.088	299.830	254.394	103.953	28.900	206.736	66.147	266.961	0.00046008	0.00030835	9.3563e-05	1042.2	3.3202e-06	1.7352e-06	1134.1	223.56	4.1605e-06	3.0316e-06	282.45	78.935	61.375	17.72	3.2772e-06	25.056	0.0003023	0.00030691	9.2252e-05	1039.4	3.2981e-06	3.3384e-06	1126.9	222.91	3.1662e-06	3.2556e-06	281.03	79.397	61.782	18.059	3.1565e-06	25.381	322.055	80.207	89.172	15.952	154.568	198.720	15.957	23.463	153.595	164.152	23.110	30.213	31.203	37.812	170.089	37.215	-8191	255	
3103.453	1	1	0	0	0.13293	0.073209	0.18471	0.17249	0.16744	0.10506	0.36805	0.16717	0.15109	0.31551	0.17265	0.26977	0.17799	0.17828	0.19426	0.14552	-2.3896	-3.3479	-2.2833	-3.1604	-2.9083	-2.3708	-3.5396	-2.6188	-2.575	-3.3854	-2.6229	-3.0396	-3.2188	-2.5521	-3.4771	-2.8625	254.554	35.095	343.467	329.583	100.412	79.574	287.886	306.564	257.410	118.336	326.844	319.798	354.097	269.757	146.890	334.600	0.00050039	0.00031578	8.701e-05	1062	1.9928e-06	2.5963e-06	1137.3	222.57	4.8359e-06	3.4799e-06	281.24	78.921	61.857	17.76	3.9924e-06	24.849	0.00032475	0.00029379	9.1956e-05	1044.8	3.5929e-06	3.4692e-06	1126.9	222.86	3.3309e-06	3.4488e-06	280.44	79.228	61.963	18.055	3.0041e-06	25.313	318.386	83.146	86.998	15.469	151.653	162.877	15.935	23.825	188.154	167.021	22.751	30.600	30.619	37.720	167.799	36.882	-8191	255	
3103.550	1	1	0	0	0.22304	0.11466	0.0084166	0.034988	0.27577	0.24796	0.13783	0.22354	0.13338	0.1254	0.24657	0.03739	0.14362	0.17012	0.40484	0.29423	-2.4396	-3.2979	-2.4354	-3.1479	-3.175	-2.4083	-3.5083	-2.9667	-2.7229	-3.3187	-2.6875	-3.1188	-3.3583	-2.3333	-3.1375	-2.9292	284.638	229.653	97.102	323.081	117.494	147.269	335.571	226.971	131.959	52.972	264.388	154.493	267.096	277.000	26.202	246.483	0.00048105	0.00036662	8.9488e-05	1049.8	1.6411e-06	2.807e-06	1138.3	222.86	3.2391e-06	3.066e-06	278.44	79.001	61.452	17.611	3.5891e-06	24.752	0.00031209	0.00029989	9.0382e-05	1042	3.3823e-06	3.4782e-06	1128.1	223.15	3.3904e-06	3.2771e-06	279.96	79.34	62.016	18.006	3.1377e-06	25.317	321.328	93.072	77.293	15.760	147.697	160.641	15.782	23.394	207.670	134.794	22.967	30.173	30.613	37.831	173.183	36.911	-8191	255	
3103.646	1	1	0	0	0.17865	0.18557	0.080255	0.26317	0.050153	0.16297	0.05916	0.053422	0.26556	0.1642	0.21216	0.1945	0.32725	0.13734	0.20881	0.035427	-1.925	-3.4271	-2.5333	-2.8854	-3.2458	-2.425	-3.4979	-3.1208	-2.5771	-3.5187	-2.8708	-2.7667	-3.2313	-2.3083	-3.0854	-3.2562	14.651	351.243	125.710	295.495	183.627	351.648	46.918	322.106	110.484	274.946	309.651	338.788	37.474	310.853	28.699	188.304	0.00053265	0.00031264	0.00012155	1049.2	3.1004e-06	3.3561e-06	1139.7	221.69	5.9934e-06	4.1882e-06	281.07	78.985	62.025	17.755	3.7096e-06	24.672	0.00031623	0.00029202	9.2271e-05	1042.5	3.1415e-06	3.5447e-06	1130.1	222.72	3.5075e-06	3.2593e-06	280.54	79.458	62.208	18.054	3.3323e-06	25.258	319.975	139.260	94.234	16.118	159.483	178.271	15.872	23.550	194.764	178.088	22.740	30.300	30.430	37.446	166.237	36.566	-8191	255	
3103.717	1	1	0	0	0.055984	0.17628	0.20114	0.43954	0.090687	0.18828	0.22134	0.13736	0.07915	0.37975	0.076114	0.16919	0.24982	0.092712	0.20834	0.10506	-1.9542	-3.3042	-2.6292	-2.7125	-3.3187	-2.5646	-3.2938	-3.0812	-2.2333	-3.3875	-2.9458	-2.6042	-3.4104	-2.3583	-2.9979	-3.3	267.983	247.607	251.915	251.870	129.665	70.035	297.928	8.332	224.983	140.363	252.384	68.566	87.032	137.996	90.243	348.448	0.00047612	0.00040587	7.6574e-05	1048.7	3.7663e-06	3.5541e-06	1141.3	223.09	2.8408e-06	1.9712e-06	281.14	78.454	61.918	17.795	3.6923e-06	24.869	0.00032181	0.00030101	8.8826e-05	1041.7	3.1422e-06	3.2793e-06	1130.7	222.87	3.5607e-06	3.1864e-06	280.76	79.483	62.047	18.098	3.3101e-06	25.36	318.196	99.336	78.451	15.743	166.330	175.708	15.921	23.395	212.613	168.107	23.031	30.410	30.735	37.064	147.615	37.061	-8191	255	
3103.836	1	1	0	0	0.077022	0.27634	0.11335	0.16536	0.12427	0.15768	0.19575	0.031567	0.12249	0.33499	0.24828	0.1633	0.17213	0.13287	0.07363	0.197	-1.9188	-3.2854	-2.75	-2.5979	-3.2938	-2.5146	-3.1896	-3.2625	-2.2417	-3.3958	-3.0292	-2.4437	-3.3229	-2.4667	-2.8479	-3.2292	33.118	121.684	141.156	334.937	338.398	325.442	357.666	361.474	94.549	276.882	354.972	286.251	290.573	357.164	50.003	118.158	0.00049501	0.00020872	7.461e-05	1053.7	2.343e-06	3.1882e-06	1137.2	222.67	6.6414e-06	1.9907e-06	280.17	78.951	61.678	17.623	2.4999e-06	24.871	0.0003333	0.00028789	9.2826e-05	1043.2	3.3472e-06	3.5612e-06	1128.3	222.94	3.6628e-06	3.1746e-06	280.89	79.445	61.987	18.037	3.335e-06	25.299	314.703	107.412	77.074	16.085	170.334	189.272	16.295	23.646	190.817	149.583	23.019	30.231	30.713	37.364	171.694	36.897	-8191	255	
3103.932	1	1	0	0	0.037491	0.15253	0.11914	0.29043	0.18689	0.26386	0.20929	0.085056	0.34102	0.12318	0.35714	0.26888	0.27933	0.2876	0.19222	0.21862	-2.0625	-3.1125	-2.8917	-2.4583	-3.2938	-2.5042	-2.9562	-3.5354	-2.4	-3.1188	-3.25	-2.625	-3.4083	-2.6917	-2.8	-3.3021	183.568	229.973	163.659	258.227	139.736	253.560	298.942	326.971	285.651	228.226	264.933	353.761	51.735	54.513	263.736	233.857	0.00053118	0.00037906	8.6623e-05	1056.5	3.7226e-06	2.8998e-06	1141.5	223	5.2343e-06	1.9088e-06	278.44	78.962	61.493	17.8	3.4596e-06	24.987	0.00033574	0.00030822	8.8974e-05	1042	3.2784e-06	3.3346e-06	1128	222.98	3.5889e-06	3.428e-06	279.57	79.416	61.711	18.089	3.4994e-06	25.341	319.446	82.359	103.783	15.858	178.222	148.732	16.120	23.585	193.519	190.113	22.596	30.198	30.744	37.492	157.962	36.835	-8191	255	
3104.029	1	1	0	0	0.11066	0.1375	0.091874	0.19553	0.094093	0.24266	0.20563	0.053032	0.23777	0.18437	0.26501	0.23312	0.1935	0.25024	0.18689	0.1435	-2.0333	-3.0583	-2.9188	-2.4437	-3.4583	-2.7313	-2.7938	-3.4292	-2.3604	-2.9292	-3.2229	-2.4083	-3.3292	-2.7583	-2.5375	-3.3604	119.977	120.119	101.546	22.741	289.800	224.866	335.036	297.957	78.406	286.755	313.553	64.743	178.509	351.369	42.591	346.918	0.00045846	0.00029393	6.8981e-05	1037.3	3.2108e-06	3.1029e-06	1133.8	223.31	4.7853e-06	2.1137e-06	279.61	79.21	62.257	17.738	3.3384e-06	24.992	0.00032843	0.00030737	8.1195e-05	1037.7	3.3788e-06	3.4348e-06	1125.5	223.16	3.6196e-06	3.4183e-06	279.85	79.372	62.107	18.006	3.4135e-06	25.351	318.480	104.204	110.206	16.112	141.357	167.022	16.073	23.229	174.752	152.890	22.860	30.240	30.696	37.487	161.889	37.064	-8191	255	
3104.149	1	1	0	0	0.18709	0.17715	0.089261	0.077942	0.17621	0.19604	0.24819	0.14917	0.1088	0.15121	0.16809	0.29137	0.26232	0.054638	0.15173	0.14637	-2.2583	-2.8125	-3.3417	-2.5229	-3.2	-2.8292	-2.7021	-3.5042	-2.5896	-2.7917	-3.1292	-2.475	-3.0687	-3.1375	-2.4688	-3.6562	135.859	157.393	65.507	215.580	273.011	337.353	285.863	60.330	207.599	257.144	229.206	316.373	33.292	23.976	362.157	207.700	0.00049437	0.00031354	6.8845e-05	1050.9	4.2231e-06	2.94e-06	1135	222.91	6.1586e-06	1.6145e-06	280.07	78.778	61.512	17.729	2.1647e-06	24.853	0.00034194	0.00032534	8.0399e-05	1040.7	3.2532e-06	3.6621e-06	1125.9	222.83	3.52e-06	3.5186e-06	280.44	79.257	61.955	18.014	3.5906e-06	25.348	317.108	106.994	88.616	15.737	145.288	168.840	16.167	23.495	193.897	169.055	23.074	30.358	31.241	37.716	154.866	37.120	-8191	255	
3104.245	1	1	0	0	0.044811	0.050652	0.40504	0.044988	0.25114	0.11047	0.21584	0.14786	0.06926	0.20254	0.28828	0.25527	0.062084	0.21262	0.35652	0.10134	-2.4333	-2.6937	-3.1646	-2.5521	-3.0729	-3.1625	-2.5958	-3.5708	-2.7354	-2.7188	-3.3688	-2.4917	-3.3	-3.1292	-2.3312	-3.3896	149.606	147.021	31.931	185.772	157.488	260.009	36.844	341.213	53.837	163.565	309.392	243.318	155.915	181.067	318.688	85.936	0.00051165	0.00021043	7.4589e-05	1039.4	3.7727e-06	1.9754e-06	1135.2	223.6	5.0755e-06	3.5891e-06	279.38	78.418	61.558	17.689	3.2071e-06	24.745	0.00033377	0.00033492	8.2121e-05	1034.2	3.3114e-06	3.464e-06	1126	223.17	3.5319e-06	3.6858e-06	279.95	79.149	61.939	18.015	3.6181e-06	25.332	313.823	83.164	94.265	15.425	155.907	144.946	16.091	23.632	194.477	156.004	22.513	30.076	30.946	37.431	164.401	36.809	-8191	255	
3104.341	1	1	0	0	0.17005	0.12694	0.11462	0.20556	0.12874	0.35098	0.31443	0.12059	0.17563	0.19465	0.054896	0.32343	0.099349	0.15729	0.066644	0.17105	-2.4104	-2.5	-3.3354	-2.35	-2.925	-3.3937	-2.425	-3.3937	-3	-2.4771	-3.5833	-2.4292	-2.9104	-3.2625	-2.3854	-3.2604	98.128	352.269	226.807	43.051	306.899	189.001	266.573	217.513	165.475	143.690	222.559	357.721	135.808	329.478	296.298	356.394	0.00050918	0.0003381	5.4145e-05	1054.3	4.3189e-06	3.2998e-06	1134.1	223.98	3.7958e-06	2.8864e-06	280.54	78.434	61.955	17.73	3.5141e-06	24.869	0.00032715	0.00032613	8.3714e-05	1039.6	3.4511e-06	3.3765e-06	1125.4	223.22	3.5732e-06	3.7133e-06	280.13	79.155	62.1	18.005	3.7309e-06	25.302	318.921	81.406	82.823	15.810	163.241	148.334	16.052	23.310	221.633	151.495	22.494	30.573	30.914	38.171	169.156	36.763	-8191	255	
3104.438	1	1	0	0	0.093584	0.20969	0.19293	0.1381	0.075465	0.12785	0.069085	0.093741	0.13756	0.23064	0.14803	0.36014	0.30038	0.10911	0.037727	0.10795	-2.5146	-2.5729	-3.4104	-2.5208	-2.8604	-3.3479	-2.525	-3.3542	-2.9646	-2.3396	-3.4979	-2.6917	-2.8167	-3.3563	-2.3125	-3.1542	327.655	283.188	333.681	43.248	225.611	264.010	294.827	285.765	13.963	235.354	126.587	95.460	295.682	254.501	20.536	212.928	0.00047562	0.00031317	7.2691e-05	1044.6	2.4114e-06	3.6494e-06	1137.6	223.85	4.2827e-06	4.0862e-06	281.01	78.094	61.633	17.778	3.2455e-06	24.891	0.00032219	0.00034718	8.3603e-05	1036.2	3.5255e-06	3.467e-06	1126.7	222.99	3.7072e-06	3.8642e-06	280.47	79.206	61.798	18.058	3.5779e-06	25.328	317.123	139.823	111.678	16.055	158.515	153.560	16.228	23.387	152.481	164.735	23.043	29.818	30.738	37.539	146.825	37.080	-8191	255	
3104.534	1	1	0	0	0.084955	0.1237	0.12818	0.083319	0.27932	0.16858	0.34564	0.17088	0.16081	0.18555	0.14031	0.16276	0.08355	0.35125	0.25806	0.38888	-2.7562	-2.5104	-3.3063	-2.8083	-2.7062	-3.5042	-2.6375	-3.0583	-3.2	-2.4146	-3.5187	-2.8021	-2.5687	-3.4083	-2.5042	-2.9146	228.126	297.848	31.262	359.213	150.919	259.206	306.885	287.884	83.234	42.737	326.068	224.541	355.962	306.399	119.423	102.469	0.0004727	0.00040609	7.5553e-05	1036.6	4.2704e-06	3.3015e-06	1138.3	222.72	2.9681e-06	2.7862e-06	280.84	79.053	61.594	17.611	3.7416e-06	24.862	0.00032072	0.00035033	8.7789e-05	1037.9	3.6835e-06	3.206e-06	1127.7	222.69	3.5213e-06	3.8731e-06	280.58	79.306	61.927	17.99	3.7886e-06	25.307	317.608	93.685	85.413	15.586	163.051	139.836	15.917	23.696	187.311	148.384	23.023	30.341	30.886	37.869	176.902	37.074	-8191	255	
3104.630	1	1	0	0	0.11795	0.12013	0.10104	0.072787	0.028432	0.11405	0.04378	0.18136	0.12489	0.20908	0.14245	0.26511	0.020394	0.21315	0.16256	0.091878	-2.9167	-2.3396	-3.2271	-2.8708	-2.5146	-3.3979	-2.8542	-2.9479	-3.3312	-2.3563	-3.175	-3.1104	-2.5375	-3.3563	-2.6937	-2.9125	151.022	53.706	329.442	15.877	86.193	145.433	268.766	328.400	19.778	333.990	145.119	349.660	287.973	237.126	156.513	30.839	0.00047145	0.00029084	0.00013347	1040.9	2.0263e-06	2.5192e-06	1139.7	222	2.1452e-06	3.31e-06	282.45	78.917	61.319	17.699	2.626e-06	24.844	0.0003114	0.00034239	8.8678e-05	1037.8	3.7326e-06	3.5971e-06	1127.3	222.63	3.3816e-06	4.0559e-06	280.58	79.261	61.799	18.026	3.6309e-06	25.298	324.571	91.073	101.653	15.556	154.558	184.683	16.067	23.543	206.110	188.823	23.223	30.265	30.475	37.652	163.041	36.942	-8191	255	
3104.749	1	1	0	0	0.096374	0.060441	0.14884	0.14135	0.14684	0.29496	0.1729	0.26512	0.096646	0.12465	0.17084	0.15902	0.058598	0.12525	0.26151	0.3564	-3.025	-2.3771	-3.1417	-3.0896	-2.3604	-3.2229	-2.9271	-2.6479	-3.1771	-2.4708	-3.1271	-3.0604	-2.3937	-3.3021	-2.6458	-2.5312	70.938	262.250	350.729	168.888	148.703	59.884	331.146	240.912	103.133	244.009	19.724	313.274	143.894	234.704	233.831	12.180	0.00050043	0.00044937	0.00010093	1046.6	2.243e-06	3.0155e-06	1136.7	222.46	4.7013e-06	1.8414e-06	279.59	78.53	61.682	17.714	4.3595e-06	24.736	0.00031527	0.00038287	9.1067e-05	1038.3	3.7902e-06	3.5365e-06	1127.6	222.98	3.7843e-06	3.7861e-06	280.3	79.171	61.802	18.017	3.747e-06	25.283	326.176	108.865	120.537	15.653	139.868	179.727	16.247	23.367	197.334	168.101	23.066	30.003	30.339	37.762	143.008	37.100	-8191	255	
3104.845	1	1	0	0	0.17324	0.12611	0.063523	0.1496	0.21753	0.44013	0.21743	0.17559	0.19678	0.14022	0.27325	0.072633	0.1906	0.039215	0.049791	0.13325	-3.0479	-2.3021	-2.875	-3.2062	-2.2604	-3.1479	-2.9167	-2.4417	-3.3063	-2.4229	-3.0229	-3.3937	-2.5917	-3.2146	-2.9333	-2.525	321.694	309.772	88.837	138.419	323.411	65.523	262.266	309.755	17.436	98.383	71.641	288.181	190.539	121.341	143.429	15.854	0.00051959	0.00025326	0.00010606	1040.9	1.8895e-06	3.6879e-06	1139.9	223.42	3.7028e-06	3.3295e-06	280.46	78.187	61.332	17.674	3.3947e-06	24.488	0.00034201	0.00035223	9.9716e-05	1041.6	3.8597e-06	4.0412e-06	1128.7	223.01	3.5557e-06	3.9184e-06	280.25	78.993	61.809	17.989	3.6389e-06	25.21	313.870	106.571	101.347	15.877	147.788	152.207	15.700	23.752	192.661	182.183	23.145	30.268	30.482	37.751	207.142	36.905	-8191	255	
3104.941	1	1	0	0	0.1996	0.041745	0.092346	0.092393	0.35988	0.0053314	0.11719	0.074977	0.090424	0.17681	0.22188	0.13094	0.22877	0.11448	0.013061	0.16491	-3.0542	-2.5875	-2.8208	-3.3312	-2.3917	-3.1042	-3.1688	-2.65	-3.1396	-2.5604	-2.7458	-3.3979	-2.35	-3.0792	-3.1979	-2.3667	288.713	58.400	11.860	303.246	153.385	246.594	310.268	341.706	14.813	7.357	302.083	187.460	55.001	213.394	253.032	363.350	0.00048597	0.00043441	8.6512e-05	1044.4	3.3292e-06	3.3714e-06	1133.8	222.27	5.0778e-06	2.5131e-06	279.21	78.49	61.629	17.657	3.3617e-06	24.774	0.00033741	0.00036673	9.0456e-05	1037.4	3.8786e-06	3.4722e-06	1126.3	222.7	3.5764e-06	3.937e-06	280.51	79.091	61.871	18.004	3.5329e-06	25.295	317.693	107.784	103.726	15.418	164.847	166.494	15.863	23.747	174.188	171.049	22.873	29.945	30.984	37.604	163.182	36.783	-8191	255	
3105.013	1	1	0	0	0.068681	0.31743	0.25873	0.084179	0.11158	0.2823	0.07888	0.1189	0.28511	0.14002	0.345	0.076268	0.27327	0.10602	0.048634	0.20174	-2.9188	-2.7104	-2.5583	-3.3937	-2.4708	-2.9771	-3.2958	-2.6188	-3.175	-3.0563	-2.7812	-3.4104	-2.4479	-2.975	-3.1917	-2.4083	156.832	309.864	8.301	295.913	336.436	91.372	333.406	256.103	296.124	112.165	342.544	174.114	352.803	37.453	139.279	89.007	0.00048333	0.00032738	9.5744e-05	1048	2.7805e-06	3.4031e-06	1135.4	223.75	3.7893e-06	3.4641e-06	279.61	79.008	61.383	17.79	3.4016e-06	24.798	0.00033117	0.00033793	0.00010279	1041.5	4.031e-06	3.7414e-06	1126.8	223.27	3.3822e-06	3.8411e-06	280.13	79.355	61.969	18.001	3.7953e-06	25.225	317.631	88.343	77.206	15.759	186.047	183.624	15.624	23.622	193.385	163.531	22.967	30.159	30.370	37.818	170.982	36.703	-8191	255	
3105.133	1	1	0	0	0.27604	0.15641	0.07708	0.15163	0.050905	0.061523	0.15568	0.21088	0.097643	0.05831	0.22432	0.07045	0.21252	0.12318	0.086332	0.14859	-2.7375	-2.7417	-2.4688	-3.2229	-2.4833	-2.5917	-3.2396	-2.4667	-3.175	-2.9688	-2.4583	-3.3604	-2.4938	-2.7167	-3.25	-2.4875	81.885	230.515	32.738	56.659	328.044	114.078	310.873	325.802	83.852	117.259	342.426	363.914	35.527	212.624	271.386	216.571	0.00044627	0.00026334	5.5497e-05	1048.2	4.7583e-06	1.2491e-06	1134	223.08	5.2131e-06	1.865e-06	281.84	78.585	61.246	17.773	2.1453e-06	24.818	0.00031736	0.00035007	9.7938e-05	1041.8	3.8267e-06	3.6173e-06	1128.1	222.98	3.7937e-06	3.9704e-06	280.56	79.021	61.661	18.023	3.6986e-06	25.297	316.041	112.120	90.607	16.103	162.041	140.614	16.055	23.027	203.327	152.300	22.924	30.481	30.630	37.199	170.589	36.390	-8191	255	
3105.230	1	1	0	0	0.17123	0.12061	0.091707	0.21566	0.17428	0.11812	0.37251	0.24492	0.06771	0.18982	0.17043	0.15455	0.073764	0.25441	0.24108	0.10663	-2.6542	-3.1646	-2.4354	-3.3146	-2.5521	-2.675	-3.3729	-2.4021	-3.0333	-2.975	-2.2958	-3.425	-2.8521	-2.6813	-3.3125	-2.5458	294.885	82.811	221.689	277.850	328.023	118.134	35.678	340.983	114.369	95.145	16.949	342.813	30.529	17.347	238.899	341.534	0.00051511	0.00026289	0.00010053	1049.1	4.0616e-06	2.3074e-06	1143	223.34	1.6229e-06	2.758e-06	280.82	78.387	61.338	17.66	8.3811e-07	24.787	0.000346	0.00036548	0.00010492	1040.9	4.2114e-06	4.3403e-06	1130.5	222.82	3.8231e-06	4.0291e-06	279.71	79.221	61.82	17.993	3.7631e-06	25.243	316.380	110.758	106.100	15.631	143.364	130.514	15.964	23.639	199.401	148.387	22.760	30.507	30.197	37.393	190.628	36.913	-8191	255	
3105.326	1	1	0	0	0.26377	0.022602	0.15684	0.11561	0.107	0.11182	0.26091	0.34556	0.21431	0.34737	0.074652	0.09541	0.11295	0.24991	0.12996	0.10858	-2.7021	-3.4208	-2.4229	-3.4583	-2.7604	-2.6437	-3.5792	-2.6292	-2.9479	-3.2042	-2.4604	-3.2792	-2.9333	-2.4813	-3.3146	-2.5479	260.534	318.941	162.496	329.132	16.675	233.999	300.998	277.345	209.646	176.407	315.313	265.324	44.767	54.546	55.442	319.764	0.00042203	0.00032202	8.8839e-05	1058.4	3.4628e-06	4.267e-06	1140.2	222.8	4.51e-06	4.2145e-06	280.11	78.942	61.655	17.65	2.5482e-06	24.787	0.00034101	0.00035735	0.00010598	1045.6	3.8885e-06	3.9806e-06	1130.5	222.57	3.9552e-06	4.1146e-06	280.61	79.286	61.809	17.996	3.5785e-06	25.257	320.030	87.827	106.104	16.251	156.344	165.752	15.985	23.334	179.260	152.322	23.077	30.370	30.854	37.611	159.428	36.909	-8191	255	
3105.446	1	1	0	0	0.059626	0.11822	0.12863	0.20781	0.20349	0.22044	0.1694	0.44041	0.29926	0.20364	0.30353	0.23903	0.38015	0.21605	0.11538	0.13633	-2.3708	-3.1688	-2.4542	-3.3104	-2.8979	-2.4437	-3.5854	-2.7604	-2.8063	-3.2354	-2.4813	-3.1813	-2.9562	-2.425	-3.2	-2.8396	110.883	51.177	241.713	320.605	315.908	214.582	334.481	67.606	109.762	158.797	250.409	294.834	39.606	6.901	85.072	284.763	0.00046374	0.00038795	3.1619e-05	1043.5	2.7625e-06	2.277e-06	1136.2	222.88	5.439e-06	3.3861e-06	281.53	78.596	61.472	17.545	3.0312e-06	24.791	0.00032723	0.00035755	9.8327e-05	1040.1	3.8351e-06	3.8408e-06	1128.8	222.73	3.8532e-06	3.607e-06	280.72	79.214	61.861	17.984	3.494e-06	25.204	322.077	104.763	88.099	15.485	157.692	168.998	15.840	23.398	191.011	158.320	23.066	30.066	30.855	37.867	163.953	36.701	-8191	255	
3105.541	1	1	0	0	0.09155	0.19562	0.19433	0.048986	0.20835	0.13412	0.22331	0.0947	0.41753	0.31283	0.1846	0.12414	0.025331	0.21247	0.19293	0.11772	-2.4062	-3.4333	-2.3583	-3.0812	-3.1813	-2.5229	-3.5167	-3.0479	-2.5667	-3.4479	-2.5021	-3.0167	-3.3063	-2.1979	-3.2104	-2.7042	189.128	298.925	307.157	190.363	164.328	166.437	282.612	131.524	326.448	361.371	105.989	338.448	123.634	135.797	357.752	311.474	0.00049512	0.00041318	7.4102e-05	1046.8	2.3967e-06	2.6647e-06	1138.5	224.06	4.9592e-06	3.4722e-06	280.9	78.406	61.376	17.655	1.5597e-06	24.813	0.00034917	0.00033341	0.00010468	1043.3	3.3311e-06	4.1952e-06	1130.9	223.48	3.8813e-06	3.6219e-06	280.76	79.272	61.896	17.989	3.4416e-06	25.266	310.724	114.797	113.861	15.788	173.151	154.413	15.975	23.771	203.828	158.374	23.097	30.180	30.682	37.643	155.256	36.718	-8191	255	
3105.637	1	1	0	0	0.24032	0.078854	0.066212	0.11985	0.21288	0.12128	0.19012	0.098325	0.27984	0.057311	0.25189	0.084799	0.10671	0.056883	0.30032	0.25878	-2.1396	-3.3354	-2.2417	-2.8792	-3.3229	-2.4583	-3.3833	-2.9104	-2.2938	-3.4813	-2.8042	-2.8917	-3.3563	-2.3875	-3.2687	-3.0854	151.134	201.269	60.670	60.652	333.286	43.132	241.388	327.812	147.801	328.471	46.420	187.749	138.650	188.852	28.469	254.477	0.00046166	0.0004097	8.5736e-05	1060	3.1311e-06	2.3011e-06	1145.4	222.6	5.8893e-06	2.8355e-06	280.08	78.29	61.579	17.69	3.6894e-06	24.743	0.00033779	0.00032226	0.00010118	1047.6	3.607e-06	4.0307e-06	1131.2	223.08	4.0003e-06	3.7884e-06	280.47	79.161	61.841	17.996	3.6154e-06	25.25	322.411	95.664	101.828	16.200	140.046	212.979	16.064	23.670	173.846	156.420	23.070	30.457	30.577	37.604	175.957	36.480	-8191	255	
3105.710	1	1	0	0	0.28108	0.11788	0.28927	0.15771	0.1141	0.103	0.25001	0.17242	0.1593	0.057561	0.12793	0.11102	0.11825	0.27999	0.099519	0.11335	-2.1125	-3.4417	-2.5896	-2.7208	-3.4146	-2.3604	-3.0771	-3.1646	-2.3042	-3.175	-2.8167	-2.6104	-3.3563	-2.5167	-3.0479	-3.2333	46.999	249.980	359.381	231.766	170.922	297.369	316.782	286.207	332.351	221.602	43.469	248.358	361.896	138.522	53.340	28.188	0.0004769	0.00032651	2.0966e-05	1050.6	3.3963e-06	2.1214e-06	1141	222.73	6.245e-06	3.0824e-06	279.95	78.443	61.72	17.757	3.1522e-06	24.709	0.00034205	0.00033315	9.5364e-05	1044.2	3.4701e-06	3.7391e-06	1132.3	222.85	4.0892e-06	3.749e-06	280.35	79.18	62.044	18.023	3.5524e-06	25.189	320.796	109.609	113.009	16.039	171.793	149.514	16.084	23.557	200.858	168.977	22.914	30.268	30.340	37.372	177.177	36.687	-8191	255	
3105.829	1	1	0	0	0.10784	0.20728	0.18809	0.11099	0.1739	0.26668	0.30677	0.10105	0.39061	0.15815	0.09451	0.15842	0.18968	0.19804	0.37185	0.21593	-2.0812	-3.2229	-2.9583	-2.5958	-3.3896	-2.5583	-3.0792	-3.3667	-2.5396	-3.3167	-2.9583	-2.6396	-3.4667	-2.4792	-3.0125	-3.3563	173.992	204.425	10.127	45.609	72.579	44.618	323.564	7.338	206.060	176.270	19.093	303.916	128.234	30.485	296.942	323.183	0.00045809	0.00031409	7.2981e-05	1049.6	3.1253e-06	2.4594e-06	1141.2	223.13	4.3746e-06	3.644e-06	279.82	78.594	61.298	17.732	3.7012e-06	24.699	0.00034743	0.00032652	8.9715e-05	1045	3.5403e-06	3.7309e-06	1131.1	222.86	3.7824e-06	3.4034e-06	280.03	79.25	61.849	18.02	3.6523e-06	25.258	319.640	101.785	77.819	15.839	174.260	163.148	15.766	23.370	172.470	172.326	23.190	30.463	30.623	37.444	167.900	36.718	-8191	255	
3105.925	1	1	0	0	0.042506	0.16133	0.25917	0.2836	0.16006	0.17054	0.081385	0.22257	0.21368	0.20336	0.2372	0.09356	0.088458	0.12872	0.25078	0.24447	-1.9813	-3.3354	-3.1063	-2.5458	-3.3896	-2.5104	-2.9562	-3.3896	-2.4896	-3.2042	-3.1021	-2.5792	-3.3417	-2.7333	-2.7583	-3.4521	293.848	265.666	113.993	52.133	31.457	105.094	308.871	66.178	22.693	333.793	61.450	32.732	191.972	180.070	29.928	173.434	0.00044739	0.00029254	0.00010245	1055.7	3.2562e-06	1.849e-06	1140.2	222.21	4.2201e-06	2.5989e-06	281.18	79.076	62.048	17.743	3.0743e-06	24.728	0.00034004	0.0003319	9.2697e-05	1046.8	3.428e-06	3.9492e-06	1132.4	222.66	3.6941e-06	3.6524e-06	280.63	79.275	62.104	18.043	3.6564e-06	25.282	320.598	93.034	117.730	16.183	141.215	160.403	15.759	23.478	204.787	157.357	22.743	30.089	30.725	37.660	166.804	37.027	-8191	255	
3106.021	1	1	0	0	0.27494	0.080881	0.1214	0.25967	0.16431	0.05266	0.092856	0.33082	0.18654	0.094494	0.25591	0.059792	0.18591	0.13782	0.14099	0.26026	-2.0854	-3.1188	-3.0312	-2.4292	-3.2333	-2.7917	-2.8917	-3.3625	-2.3438	-2.8917	-3.1937	-2.4062	-3.2708	-2.7354	-2.5708	-3.2458	322.901	268.257	292.257	358.668	10.841	98.082	360.661	296.074	202.551	327.677	287.455	318.316	80.538	38.421	326.499	335.648	0.00048052	0.00033144	6.4113e-05	1055.5	1.8183e-06	3.6724e-06	1140.5	223.88	7.6427e-06	3.5812e-06	279.67	79.273	62.063	17.622	2.2151e-06	24.867	0.00033075	0.0003361	9.6327e-05	1042.9	3.4652e-06	3.9141e-06	1133.4	223.44	3.9715e-06	3.8225e-06	279.61	79.324	62.229	18.001	3.5879e-06	25.315	316.677	115.779	89.941	15.336	201.785	163.979	16.299	23.480	205.555	160.176	22.882	30.184	30.481	37.885	150.917	37.003	-8191	255	
3106.118	1	1	0	0	0.048512	0.054913	0.051232	0.18203	0.20921	0.21697	0.4183	0.21613	0.067682	0.14263	0.1902	0.10289	0.046314	0.08269	0.09312	0.10369	-2.0563	-2.8583	-3.1667	-2.4104	-3.4146	-2.9979	-2.6542	-3.5708	-2.4437	-2.8438	-3.3125	-2.2958	-3.2188	-3.1646	-2.3958	-3.4208	229.632	169.801	116.242	357.368	221.287	50.184	269.969	257.902	266.901	197.516	306.450	24.065	24.435	333.911	16.097	85.377	0.00046509	0.00022004	6.0077e-05	1057.7	3.768e-06	2.8452e-06	1143.4	223.81	3.5723e-06	4.0357e-06	280.63	78.969	61.502	17.706	2.8002e-06	24.917	0.00035792	0.00033019	8.9122e-05	1045.8	3.5185e-06	3.9948e-06	1133.5	223.19	4.0323e-06	3.9065e-06	280.64	79.355	61.927	17.978	3.8832e-06	25.303	318.588	139.073	110.794	15.536	166.837	178.506	16.055	23.476	196.494	170.181	22.726	30.316	30.550	37.384	149.552	36.586	-8191	255	
3106.238	1	1	0	0	0.16398	0.060798	0.054899	0.24156	0.22552	0.069394	0.30659	0.17357	0.091103	0.17369	0.10578	0.10809	0.23063	0.25333	0.056963	0.20038	-2.375	-2.8	-3.3292	-2.5729	-3.1542	-3.1375	-2.6688	-3.5563	-2.6437	-2.7146	-3.3396	-2.5208	-3.1333	-3.0521	-2.5	-3.3375	51.884	183.971	223.120	360.609	285.426	51.844	247.522	341.947	6.242	171.253	16.473	238.079	111.926	79.395	89.758	57.107	0.00051656	0.0002486	9.8599e-05	1060.4	2.8731e-06	2.54e-06	1148.8	222.28	5.8289e-06	3.2213e-06	279.65	78.258	61.274	17.724	1.6775e-06	24.721	0.00034612	0.00035584	9.0067e-05	1046.9	3.7748e-06	3.8401e-06	1136.4	222.96	3.7611e-06	3.9132e-06	280.42	79.084	61.989	18.009	3.8295e-06	25.284	324.300	104.227	91.354	15.772	169.082	155.314	15.938	23.590	166.624	132.773	22.653	30.219	30.643	37.285	159.350	37.084	-8191	255	
3106.310	1	1	0	0	0.22268	0.28356	0.12531	0.16384	0.18422	0.18389	0.20681	0.14038	0.13583	0.24908	0.33021	0.072774	0.088398	0.16661	0.2025	0.17898	-2.2479	-2.4917	-3.4083	-2.5479	-2.9396	-3.3354	-2.5333	-3.2417	-2.7562	-2.4813	-3.5667	-2.6542	-2.85	-3.2542	-2.4125	-3.2375	102.976	329.355	63.149	208.044	109.298	105.007	364.980	8.480	165.309	352.092	303.490	25.748	8.124	29.501	183.080	327.764	0.00050425	0.00031565	8.6765e-05	1057.1	3.88e-06	2.2114e-06	1141	223.14	4.9523e-06	3.4385e-06	281.01	79.056	61.565	17.654	4.942e-06	24.871	0.00034724	0.00037368	8.7715e-05	1046.4	3.5578e-06	3.7302e-06	1132.9	223.2	3.9615e-06	4.1101e-06	281.21	79.311	61.978	17.986	3.965e-06	25.351	317.464	105.202	95.538	15.916	164.849	172.291	16.052	23.371	178.437	169.843	22.902	29.842	30.439	37.939	176.674	36.416	-8191	255	
3106.431	1	1	0	0	0.19113	0.048154	0.1456	0.24285	0.045216	0.06642	0.24367	0.12329	0.038649	0.11073	0.087409	0.33363	0.044125	0.087169	0.016311	0.27118	-2.4417	-2.4771	-3.3104	-2.7229	-2.95	-3.2104	-2.6521	-3.2	-3.0438	-2.5104	-3.4521	-2.7021	-2.7083	-3.4375	-2.5521	-3.1917	331.224	299.759	354.261	34.172	291.049	291.349	322.358	22.186	244.233	329.871	60.367	350.284	104.582	358.038	214.976	284.668	0.0005402	0.00036497	0.00011731	1046.4	3.6181e-06	3.0233e-06	1138.5	223.93	4.5137e-06	3.3432e-06	280.73	78.654	62.018	17.692	3.1944e-06	24.761	0.00033462	0.00033039	9.7642e-05	1043.4	3.9587e-06	3.7488e-06	1130.9	223.37	3.6703e-06	3.9608e-06	281.35	79.011	62.109	18.013	4.1281e-06	25.298	322.410	119.800	101.723	16.264	148.064	149.497	16.039	23.483	192.227	131.501	22.834	30.546	29.951	37.666	163.009	36.899	-8191	255	
3106.527	1	1	0	0	0.016833	0.2694	0.30567	0.24977	0.20699	0.1122	0.28424	0.17193	0.065175	0.11673	0.20189	0.13507	0.12567	0.27225	0.090573	0.065143	-2.7	-2.325	-3.35	-2.5042	-2.4854	-3.3958	-2.6208	-3.1396	-3.0875	-2.3604	-3.2979	-2.9417	-2.7479	-3.1958	-2.5271	-3.0563	76.737	19.338	183.883	249.290	311.216	211.977	319.436	318.459	25.770	7.906	296.314	78.009	110.403	40.783	223.564	310.916	0.00046263	0.00019951	7.2362e-05	1044.5	4.3293e-06	4.4216e-06	1142	222.98	4.9141e-06	3.8578e-06	281.03	78.774	61.61	17.595	2.867e-06	24.979	0.00032781	0.00035479	9.4956e-05	1041.1	3.9095e-06	3.692e-06	1131.4	223.16	3.8738e-06	4.1592e-06	280.92	79.474	62.079	18.009	3.7382e-06	25.298	317.749	97.368	104.748	15.590	162.502	138.013	15.978	23.501	188.401	183.038	22.690	30.304	30.670	37.745	164.275	36.836	-8191	255	
3106.623	1	1	0	0	0.11582	0.083158	0.15322	0.25648	0.26585	0.19984	0.25682	0.013727	0.065202	0.12456	0.15519	0.31402	0.17578	0.21972	0.085147	0.12116	-2.8729	-2.3917	-3.3479	-2.8042	-2.5104	-3.5417	-2.8229	-2.8917	-3.2583	-2.4625	-3.4625	-3.1354	-2.4896	-3.3396	-2.5021	-2.8292	333.231	146.173	182.358	364.591	26.395	117.992	309.725	282.558	13.029	97.200	148.208	335.968	203.703	209.116	196.593	311.782	0.00056734	0.00037808	9.7055e-05	1045	4.7917e-06	1.9432e-06	1140.8	221.88	7.2455e-06	3.0809e-06	280.7	78.653	61.422	17.751	2.3865e-06	24.791	0.00033536	0.00037841	9.5271e-05	1042.3	4.0984e-06	3.63e-06	1132.2	223.1	3.8676e-06	4.1458e-06	280.68	79.187	61.919	18.021	3.8604e-06	25.317	314.862	118.374	75.533	16.227	154.012	160.508	15.835	23.660	195.209	156.201	22.675	30.044	30.811	37.872	197.058	36.792	-8191	255	
3106.719	1	1	0	0	0.19253	0.22481	0.11955	0.073748	0.17727	0.085154	0.24054	0.34391	0.16323	0.10363	0.42943	0.045087	0.17225	0.047399	0.14085	0.19577	-3.1167	-2.2729	-3.1	-2.975	-2.3375	-3.4083	-2.9396	-2.7125	-3.3271	-2.5354	-3.1833	-3.1417	-2.5312	-3.45	-2.8083	-2.825	300.961	97.980	334.113	319.086	176.463	83.591	261.475	220.410	191.480	228.733	281.559	319.552	138.886	292.740	75.628	265.683	0.00049803	0.00019456	7.5421e-05	1063.9	3.107e-06	3.4563e-06	1140.8	223.08	5.393e-06	3.5544e-06	281.67	78.517	61.516	17.584	2.58e-06	24.734	0.00035061	0.00036732	9.3567e-05	1047	3.979e-06	3.7922e-06	1132.3	223.37	3.902e-06	4.07e-06	281.68	79.229	61.809	17.99	4.0234e-06	25.302	314.185	84.743	82.277	15.788	187.223	144.826	15.829	23.502	184.592	148.652	23.177	29.965	30.509	37.286	137.588	36.983	-8191	255	
3106.838	1	1	0	0	0.20406	0.23289	0.15778	0.3757	0.16908	0.19098	0.13968	0.21862	0.26728	0.084172	0.18474	0.23242	0.22256	0.21906	0.24903	0.27947	-2.9854	-2.3229	-2.9021	-3.0875	-2.2854	-3.2292	-3.0479	-2.5979	-3.3458	-2.6	-2.9729	-3.1729	-2.5458	-3.3625	-2.9313	-2.4667	38.298	51.317	152.851	87.540	333.129	276.058	273.205	334.308	201.314	94.073	314.303	83.382	253.451	330.992	46.300	343.044	0.00040823	0.00030815	0.00010297	1068.3	3.0789e-06	2.0748e-06	1138.1	222.59	3.7732e-06	1.9955e-06	282.87	78.821	61.845	17.66	4.6342e-06	24.868	0.00032289	0.00037257	0.0001039	1048.3	4.0647e-06	3.6001e-06	1131.6	223.1	3.6534e-06	4.2305e-06	281.63	79.364	62.011	18.029	3.753e-06	25.307	311.163	108.333	88.336	15.689	150.881	146.773	15.844	23.354	205.461	153.561	22.827	30.263	30.690	37.745	163.479	36.901	-8191	255	
3106.910	1	1	0	0	0.12494	0.085432	0.11018	0.12916	0.32469	0.17302	0.06886	0.21361	0.21301	0.14817	0.22728	0.15982	0.14444	0.12388	0.16327	0.084086	-2.9938	-2.5896	-2.8625	-3.3625	-2.3792	-3.1521	-3.1562	-2.3917	-3.3	-2.4437	-2.775	-3.2479	-2.475	-3.1521	-2.9875	-2.3792	151.012	94.871	111.842	291.929	72.243	183.663	69.028	18.795	41.835	21.029	363.564	266.326	344.285	323.153	120.489	318.609	0.00051105	0.00031201	8.0783e-05	1055.7	4.0436e-06	1.7581e-06	1137.1	223.66	5.4751e-06	4.1089e-06	280.99	78.217	61.725	17.712	3.7675e-06	24.762	0.00034163	0.00036063	9.7234e-05	1045.1	4.1398e-06	3.9612e-06	1129.4	223.09	3.6985e-06	4.0522e-06	280.74	79.126	61.913	18.015	3.7832e-06	25.289	317.524	99.998	134.100	15.885	179.995	182.636	15.955	23.603	197.543	159.449	23.256	30.219	30.908	37.435	184.156	36.821	-8191	255	
3107.006	1	1	0	0	0.29282	0.30385	0.14157	0.27613	0.15807	0.061245	0.1534	0.33129	0.15708	0.18193	0.1676	0.064189	0.21845	0.24439	0.10057	0.13426	-2.9958	-2.6063	-2.6063	-3.3354	-2.3271	-2.9167	-3.3083	-2.4896	-3.3646	-2.6479	-2.6437	-3.2979	-2.2771	-2.8438	-3.0458	-2.3708	243.147	296.409	289.005	67.948	50.672	337.865	328.540	267.428	289.016	297.685	87.915	128.713	41.111	279.841	44.773	153.794	0.00047661	0.00042625	7.9831e-05	1049.1	2.9452e-06	2.5502e-06	1143.9	222.32	1.7524e-06	2.9659e-06	280.32	78.291	61.724	17.701	2.6376e-06	24.632	0.00033865	0.00036693	9.5753e-05	1042.2	4.1917e-06	3.846e-06	1132.2	222.66	3.7022e-06	4.1413e-06	280.84	79.238	61.936	18.024	3.5524e-06	25.164	315.808	102.534	90.988	15.891	196.688	137.977	15.947	23.665	205.582	183.635	23.152	29.927	30.561	37.819	167.018	37.092	-8191	255	
3107.102	1	1	0	0	0.10494	0.13349	0.068988	0.15606	0.14765	0.11013	0.02828	0.091833	0.21676	0.18005	0.1572	0.29974	0.11542	0.12843	0.07985	0.095277	-2.9	-2.8646	-2.5229	-3.4854	-2.5187	-2.9958	-3.4146	-2.3708	-3.2687	-2.7562	-2.6188	-3.4167	-2.6312	-2.7646	-3.1479	-2.4354	178.501	169.162	298.218	334.405	69.807	329.585	8.046	350.751	318.573	35.224	40.807	312.910	97.766	288.609	69.827	228.269	0.00049296	0.00034821	8.17e-05	1060.5	2.7738e-06	2.957e-06	1142	224.42	4.6947e-06	2.9166e-06	281.23	79.09	61.977	17.623	5.8695e-06	24.846	0.00033357	0.00035302	0.00010374	1044.3	4.0099e-06	3.6898e-06	1130.9	223.57	3.5006e-06	4.0128e-06	280.96	79.297	61.987	17.985	3.5604e-06	25.313	322.484	91.305	90.220	15.672	177.150	179.613	15.793	23.364	208.356	192.817	22.965	30.525	30.385	37.761	169.041	36.939	-8191	255	
#DATA ENDS
