BOXY.EXE: ISS Imagent and Oximeter Data Acquisition Program Version 0.80
Ascii Record File

#ACQ INFORMATION
2  Detector Channels 
16  External MUX Channels 
1  Auxiliary Channels 
5000  Waveform (CCF) Frequency (Hz)
1  Waveforms Skipped 
30  Waveforms Averaged 
1  Cycles Averaged 
16  Acquisitions per Waveform 
10.0806  Updata Rate (Hz) 

#FILE INFORMATION
TRUE -- External MUX Channel results are PARSED.
FALSE -- AC DC and Phase are NOT grouped.
TRUE -- Companion Program Settings File CREATED.
FALSE -- AC data not excluded
FALSE -- DC data not excluded
FALSE -- Phase data not excluded
FALSE -- Auxillary Chn. data not excluded
Tab delimiters

#CALIBRATION STATE
TRUE -- Waveform Calibration Values APPLIED.


#AUX CALIBRATION VALUES
Val Type	aux-1	

Term	1.0000e+00	
Factor	0.0000e+00	


#WF CALIBRATION VALUES
A = Detector Channel
Val Type	A-AC1	A-AC2	A-AC3	A-AC4	A-AC5	A-AC6	A-AC7	A-AC8	A-AC9	A-AC10	A-AC11	A-AC12	A-AC13	A-AC14	A-AC15	A-AC16	A-DC1	A-DC2	A-DC3	A-DC4	A-DC5	A-DC6	A-DC7	A-DC8	A-DC9	A-DC10	A-DC11	A-DC12	A-DC13	A-DC14	A-DC15	A-DC16	A-Ph1	A-Ph2	A-Ph3	A-Ph4	A-Ph5	A-Ph6	A-Ph7	A-Ph8	A-Ph9	A-Ph10	A-Ph11	A-Ph12	A-Ph13	A-Ph14	A-Ph15	A-Ph16	

Term	0.00000e+00	0.00000e+00	0.00000e+00	0.00000e+00	0.00000e+00	0.00000e+00	0.00000e+00	0.00000e+00	0.00000e+00	0.00000e+00	0.00000e+00	0.00000e+00	0.00000e+00	0.00000e+00	0.00000e+00	0.00000e+00	0.00000e+00	0.00000e+00	0.00000e+00	0.00000e+00	0.00000e+00	0.00000e+00	0.00000e+00	0.00000e+00	0.00000e+00	0.00000e+00	0.00000e+00	0.00000e+00	0.00000e+00	0.00000e+00	0.00000e+00	0.00000e+00	0.00000e+00	0.00000e+00	0.00000e+00	0.00000e+00	0.00000e+00	0.00000e+00	0.00000e+00	0.00000e+00	0.00000e+00	0.00000e+00	0.00000e+00	0.00000e+00	0.00000e+00	0.00000e+00	0.00000e+00	0.00000e+00	
Factor	1.00000e+00	1.00000e+00	1.00000e+00	1.00000e+00	1.00000e+00	1.00000e+00	1.00000e+00	1.00000e+00	1.00000e+00	1.00000e+00	1.00000e+00	1.00000e+00	1.00000e+00	1.00000e+00	1.00000e+00	1.00000e+00	1.00000e+00	1.00000e+00	1.00000e+00	1.00000e+00	1.00000e+00	1.00000e+00	1.00000e+00	1.00000e+00	1.00000e+00	1.00000e+00	1.00000e+00	1.00000e+00	1.00000e+00	1.00000e+00	1.00000e+00	1.00000e+00	X	X	X	X	X	X	X	X	X	X	X	X	X	X	X	X	

B = Detector Channel
Val Type	B-AC1	B-AC2	B-AC3	B-AC4	B-AC5	B-AC6	B-AC7	B-AC8	B-AC9	B-AC10	B-AC11	B-AC12	B-AC13	B-AC14	B-AC15	B-AC16	B-DC1	B-DC2	B-DC3	B-DC4	B-DC5	B-DC6	B-DC7	B-DC8	B-DC9	B-DC10	B-DC11	B-DC12	B-DC13	B-DC14	B-DC15	B-DC16	B-Ph1	B-Ph2	B-Ph3	B-Ph4	B-Ph5	B-Ph6	B-Ph7	B-Ph8	B-Ph9	B-Ph10	B-Ph11	B-Ph12	B-Ph13	B-Ph14	B-Ph15	B-Ph16	

Term	0.00000e+00	0.00000e+00	0.00000e+00	0.00000e+00	0.00000e+00	0.00000e+00	0.00000e+00	0.00000e+00	0.00000e+00	0.00000e+00	0.00000e+00	0.00000e+00	0.00000e+00	0.00000e+00	0.00000e+00	0.00000e+00	0.00000e+00	0.00000e+00	0.00000e+00	0.00000e+00	0.00000e+00	0.00000e+00	0.00000e+00	0.00000e+00	0.00000e+00	0.00000e+00	0.00000e+00	0.00000e+00	0.00000e+00	0.00000e+00	0.00000e+00	0.00000e+00	4.69297e+01	-1.27678e+02	-1.27972e+02	-1.88002e+02	-6.67894e+01	-6.28409e+01	-1.55213e+02	-1.62015e+02	-4.91738e+01	-6.38444e+01	-1.70390e+02	-1.71563e+02	-1.84555e+02	-1.77043e+02	-6.69105e+01	-1.49382e+02	
Factor	5.93376e-05	1.60034e-04	4.50777e-05	6.62379e-01	1.71948e-06	1.64504e-06	1.55997e-01	5.34235e-02	2.61917e-06	1.72808e-06	8.14009e-02	2.71226e-02	2.83956e-02	8.73549e-03	1.91468e-06	1.24596e-02	1.85792e-05	3.14846e-05	8.89000e-06	3.50234e-01	3.36969e-07	3.58884e-07	7.79026e-02	2.84634e-02	3.00588e-07	3.56692e-07	4.20802e-02	1.39855e-02	1.51021e-02	4.71687e-03	3.22088e-07	6.51153e-03	X	X	X	X	X	X	X	X	X	X	X	X	X	X	X	X	



#DISTANCE SETTINGS
A = Detector Channel
A-1	A-2	A-3	A-4	A-5	A-6	A-7	A-8	A-9	A-10	A-11	A-12	A-13	A-14	A-15	A-16	

2.5000e+00	3.0000e+00	2.5000e+00	3.0000e+00	2.0000e+00	3.0000e+00	1.5000e+00	3.0000e+00	3.0000e+00	3.0000e+00	3.0000e+00	3.0000e+00	3.0000e+00	3.0000e+00	1.5000e+00	3.0000e+00	

B = Detector Channel
B-1	B-2	B-3	B-4	B-5	B-6	B-7	B-8	B-9	B-10	B-11	B-12	B-13	B-14	B-15	B-16	

1.0000e+01	1.0000e+01	1.0000e+01	1.4400e+00	1.0000e+01	1.0000e+01	1.5100e+00	1.9400e+00	1.0000e+01	1.0000e+01	1.9900e+00	2.4900e+00	2.4100e+00	2.9000e+00	1.0000e+01	2.9800e+00	




#DATA BEGINS
time	group	step	mark	flag	A-AC1	A-AC2	A-AC3	A-AC4	A-AC5	A-AC6	A-AC7	A-AC8	A-AC9	A-AC10	A-AC11	A-AC12	A-AC13	A-AC14	A-AC15	A-AC16	A-DC1	A-DC2	A-DC3	A-DC4	A-DC5	A-DC6	A-DC7	A-DC8	A-DC9	A-DC10	A-DC11	A-DC12	A-DC13	A-DC14	A-DC15	A-DC16	A-Ph1	A-Ph2	A-Ph3	A-Ph4	A-Ph5	A-Ph6	A-Ph7	A-Ph8	A-Ph9	A-Ph10	A-Ph11	A-Ph12	A-Ph13	A-Ph14	A-Ph15	A-Ph16	B-AC1	B-AC2	B-AC3	B-AC4	B-AC5	B-AC6	B-AC7	B-AC8	B-AC9	B-AC10	B-AC11	B-AC12	B-AC13	B-AC14	B-AC15	B-AC16	B-DC1	B-DC2	B-DC3	B-DC4	B-DC5	B-DC6	B-DC7	B-DC8	B-DC9	B-DC10	B-DC11	B-DC12	B-DC13	B-DC14	B-DC15	B-DC16	B-Ph1	B-Ph2	B-Ph3	B-Ph4	B-Ph5	B-Ph6	B-Ph7	B-Ph8	B-Ph9	B-Ph10	B-Ph11	B-Ph12	B-Ph13	B-Ph14	B-Ph15	B-Ph16	aux-1	digaux	

3526.556	1	1	0	256	0.11671	0.22624	0.29663	0.22354	0.16109	0.14495	0.22507	0.24737	0.057219	0.17114	0.26883	0.087389	0.17425	0.047096	0.099084	0.27019	-2.0958	-3.1208	-2.45	-2.475	-3.1708	-2.3396	-2.9979	-3.0333	-2.3708	-3.1937	-2.5292	-2.4292	-3.1813	-2.4375	-2.7792	-3.0417	76.328	239.990	118.831	166.189	78.539	16.807	118.639	322.490	23.114	222.073	262.322	71.916	280.362	294.142	220.942	329.574	0.0008459	0.00049509	6.1724e-05	457.68	4.9015e-06	1.429e-05	365.97	178.33	1.3816e-05	4.0733e-06	170.07	79.257	77.358	42.382	6.9012e-06	44.542	0.0072916	0.011737	0.003463	579.57	0.00012688	0.00013552	387.12	186.87	0.00011274	0.00013318	183.76	82.889	82.536	44.218	0.0001201	46.845	329.611	234.844	126.033	-14.176	146.971	102.791	-14.873	-8.254	211.910	41.254	-11.614	-7.785	-5.238	-2.026	126.081	-5.639	-8191	255	
3526.653	1	1	0	0	0.19275	0.12488	0.1148	0.20155	0.21405	0.17315	0.41584	0.033732	0.075897	0.23207	0.20839	0.11191	0.20031	0.18258	0.3101	0.073593	-1.85	-3.2167	-2.5583	-2.4813	-3.3354	-2.3708	-2.8146	-3.2021	-2.2729	-3.0583	-2.6771	-2.3688	-3.2708	-2.5833	-2.5229	-3.1646	118.754	-1.833	166.986	4.042	-19.830	104.228	287.418	223.751	51.770	197.773	4.833	250.019	320.803	11.968	219.872	-4.427	0.00064116	0.00088596	0.00019565	454.28	5.3931e-06	7.3894e-06	367.39	179.87	6.7057e-06	7.4883e-07	170.74	79.041	77.988	42.768	1.6307e-05	44.808	0.007213	0.0117	0.0035128	581.75	0.00012694	0.00014015	390.13	188.69	0.00011567	0.0001343	184.65	83.418	83.217	44.484	0.00012528	47.033	323.176	38.475	56.822	-13.618	-7.424	131.985	-15.030	-8.485	214.757	138.378	-11.837	-7.553	-4.945	-2.085	146.560	-5.376	-8191	255	
3526.749	1	1	0	0	0.10896	0.29069	0.21114	0.18679	0.052251	0.20653	0.1333	0.18167	0.14486	0.12919	0.12619	0.16955	0.17598	0.15072	0.23344	0.15483	-1.8146	-2.9688	-2.7083	-2.3083	-3.0417	-2.5854	-2.5458	-3.1688	-2.2854	-2.8833	-2.9062	-2.4458	-3.1312	-2.6354	-2.6688	-3.3854	235.453	97.147	307.631	72.739	7.404	208.352	319.460	269.765	320.847	269.869	38.611	274.432	110.325	39.966	313.583	267.746	0.00033579	0.00076883	0.00013701	454.09	4.6632e-06	4.2153e-06	358.78	176.56	3.4359e-06	2.3062e-06	165.22	76.822	77.308	41.868	4.8264e-06	44	0.0075994	0.012321	0.0036349	581.93	0.00012958	0.00014039	382.08	184.78	0.00011416	0.00013263	178.74	81.3	81.65	43.726	0.00011881	45.863	6.662	33.535	31.055	-14.154	2.626	48.033	-15.080	-8.847	109.870	135.129	-11.526	-7.754	-5.216	-1.947	138.167	-5.492	-8191	255	
3526.845	1	1	0	0	0.13158	0.18808	0.19961	0.10099	0.12949	0.1386	0.17473	0.15888	0.25933	0.16094	0.1812	0.165	0.11912	0.39261	0.18643	0.085853	-2.05	-2.9208	-2.9688	-2.1104	-3.0583	-2.5667	-2.7708	-3.3583	-2.4917	-3.05	-3.3125	-2.4562	-3.3646	-2.8187	-2.5938	-3.2896	117.304	-15.594	312.299	88.125	-14.813	118.819	28.165	329.117	-23.138	165.604	324.088	247.325	304.555	260.131	235.186	229.181	0.00056874	0.00031814	0.00019789	446.2	1.4362e-06	5.9456e-06	356.41	173.35	1.0257e-05	1.2734e-05	164.54	77.157	76.027	41.953	1.0702e-05	44.113	0.0070368	0.011217	0.0033446	567.51	0.00011993	0.00013311	376.65	181.76	0.00011221	0.0001304	178.07	81.053	80.853	43.715	0.00012028	46.089	-17.260	110.608	96.100	-13.730	135.354	6.199	-15.018	-8.521	116.290	137.458	-11.539	-7.845	-5.534	-1.942	70.343	-5.598	-8191	255	
3526.941	1	1	0	0	0.074556	0.14695	0.27742	0.064074	0.094181	0.24511	0.069911	0.21828	0.25349	0.31177	0.15821	0.18081	0.10888	0.10468	0.11594	0.017957	-2.075	-2.8271	-3.0062	-2.4208	-2.9104	-2.7	-2.4229	-3.15	-2.3729	-2.7313	-3.1917	-2.1604	-3.1292	-2.9521	-2.3063	-3.0583	263.840	285.192	222.911	180.644	-15.910	188.588	230.442	280.364	97.202	222.240	77.259	298.474	-14.208	75.280	72.613	201.195	0.0007005	0.00060576	8.3481e-05	445.94	6.138e-06	2.3547e-06	360.15	175.39	5.9003e-06	1.4289e-05	165.86	77.734	76.561	42.166	5.374e-06	44.244	0.0073264	0.01177	0.0034317	570.92	0.00012423	0.00013925	381.06	183.4	0.00011715	0.0001354	179.95	81.928	81.526	43.894	0.00012149	46.404	319.176	129.744	62.458	-13.591	69.747	-11.371	-15.142	-8.723	77.757	127.735	-11.594	-7.664	-5.071	-2.344	64.674	-5.833	-8191	255	
3527.037	1	1	0	0	0.28028	0.26694	0.044695	0.033822	0.053872	0.31613	0.23226	0.10502	0.10399	0.2392	0.12635	0.14796	0.22764	0.047684	0.060728	0.12807	-2.3271	-2.5542	-3.2458	-2.2792	-3.0229	-2.9938	-2.5042	-3.2646	-2.5271	-2.4479	-3.3229	-2.2292	-2.9146	-2.9292	-2.4083	-3.0771	314.620	24.099	159.713	183.306	231.464	2.141	26.703	259.685	-3.232	-17.848	221.169	99.262	-14.673	272.885	10.216	261.025	0.00057251	0.00073004	0.00012943	451.88	2.7561e-06	2.9116e-06	364.06	176.91	8.026e-06	1.6636e-05	168.16	78.885	77.514	42.709	8.9116e-06	44.894	0.0073406	0.011666	0.0033464	572.62	0.00012518	0.00013725	383.91	184.8	0.00011715	0.00013664	182.19	83.118	82.852	44.511	0.00012684	47.083	13.271	163.216	81.249	-13.668	111.531	285.294	-14.937	-8.468	88.785	101.268	-11.341	-7.818	-5.456	-2.312	245.099	-5.311	-8191	255	
3527.133	1	1	0	0	0.28998	0.12162	0.13625	0.088394	0.15818	0.071799	0.16412	0.12751	0.064088	0.13347	0.2661	0.16415	0.15538	0.21345	0.1334	0.2321	-2.2604	-2.3792	-3.2229	-2.3563	-3.0729	-3.1312	-2.2542	-3.2167	-2.8063	-2.5271	-3.3521	-2.3042	-2.7	-3.2625	-2.3063	-3.2521	333.820	110.681	162.571	281.143	290.234	286.390	64.472	219.759	283.266	-24.113	279.789	306.396	-21.706	301.129	328.424	258.541	0.00036749	0.00033357	0.00026142	448.63	6.8283e-06	8.6896e-06	363.97	176.37	1.3274e-05	3.9967e-06	166.18	77.467	77.773	42.826	1.3535e-06	44.343	0.007688	0.012565	0.003515	585.21	0.00013375	0.00014786	385.2	185.61	0.00012774	0.00014694	180.83	82.6	83.098	44.612	0.00013827	46.698	325.679	128.303	19.098	-13.661	131.266	224.286	-15.325	-8.163	66.221	223.392	-11.582	-7.628	-5.416	-1.984	78.624	-5.436	-8191	255	
3527.252	1	1	0	0	0.1497	0.11953	0.15268	0.13698	0.15645	0.098312	0.14889	0.18385	0.35329	0.11996	0.088703	0.28783	0.088526	0.27387	0.02831	0.14854	-2.4625	-2.3104	-3.2	-2.55	-2.825	-3.1354	-2.3354	-3.1729	-2.8396	-2.1375	-3.4271	-2.4917	-2.7479	-3.2396	-2.1458	-3.0187	46.641	269.407	118.731	322.134	256.879	156.153	83.382	10.313	122.185	-13.423	14.611	225.488	274.236	-1.807	95.543	227.504	0.00056428	0.0012566	0.00014321	452.81	6.7803e-06	4.9906e-06	356.71	176.37	1.3927e-05	2.75e-06	164.85	78.034	78.074	42.671	4.9372e-06	44.298	0.0084237	0.01373	0.0038043	597.19	0.00014742	0.00016	382.87	186.45	0.00013943	0.00016039	180.93	83.14	83.786	44.823	0.00014783	46.909	298.667	88.465	30.434	-13.261	189.924	332.104	-15.220	-8.534	75.669	139.026	-11.614	-7.756	-5.338	-1.836	122.210	-5.479	-8191	255	
3527.348	1	1	0	0	0.27823	0.029199	0.283	0.27305	0.061077	0.012849	0.24157	0.095349	0.078053	0.043006	0.22438	0.19284	0.3035	0.2852	0.31778	0.20891	-2.4646	-2.3792	-3.1646	-2.6063	-2.3979	-3.1333	-2.4229	-2.9979	-2.8375	-2.3854	-3.2917	-2.7917	-2.3521	-3.4125	-2.4688	-3.1104	123.507	274.971	265.303	273.825	219.588	297.769	314.120	300.888	57.915	96.242	104.186	304.941	293.762	264.027	200.307	195.499	0.00038025	0.00073004	0.0001243	453.22	7.6825e-06	8.7998e-06	358.03	178.01	1.7732e-05	5.4936e-06	166.34	78.131	78.561	43.327	1.0038e-05	44.64	0.0089263	0.014412	0.0040443	608.5	0.00015447	0.0001678	386.38	188.17	0.00014283	0.00016732	183.18	83.605	84.679	45.255	0.00015339	47.487	311.170	53.406	93.463	-14.891	153.408	106.731	-15.032	-8.479	148.145	212.752	-12.610	-8.548	-5.625	-1.911	152.306	-5.108	-8191	255	
3527.444	1	1	0	0	0.17819	0.22123	0.10165	0.25171	0.063604	0.04961	0.14735	0.16401	0.13926	0.1719	0.35924	0.025123	0.29694	0.26775	0.25489	0.18648	-2.7083	-2.3979	-3.1458	-2.6792	-2.3563	-3.3146	-2.6312	-2.925	-3.0583	-2.3146	-3.1688	-2.6188	-2.2146	-3.2458	-2.5792	-2.6312	251.404	241.665	245.645	254.822	329.062	33.468	-3.356	270.428	11.630	261.539	205.322	117.341	332.175	295.935	51.893	238.374	0.00085707	0.00040467	0.00022689	453.5	8.4159e-06	4.0651e-06	362.08	179.74	4.0516e-06	3.9048e-06	170.84	80.167	80.211	43.804	1.1567e-05	45.998	0.009207	0.015146	0.0041576	618.28	0.00016279	0.00017255	392.78	191.4	0.00014744	0.00017366	188.16	86.083	87.054	46.138	0.00016575	48.87	313.971	39.888	93.770	-13.247	115.931	22.948	-15.046	-8.329	209.090	126.165	-11.913	-8.230	-5.842	-2.227	140.660	-5.546	-8191	255	
3527.565	1	1	0	0	0.070852	0.23771	0.13133	0.13265	0.057317	0.092587	0.12523	0.099742	0.1178	0.2555	0.18328	0.12964	0.070965	0.082501	0.072502	0.19547	-2.6208	-2.0792	-2.9917	-2.8792	-2.4229	-3.2354	-2.3833	-2.7062	-3.1125	-2.4792	-2.9729	-2.8542	-2.1792	-3.3208	-2.7333	-2.525	11.827	120.911	-3.433	125.880	-16.030	50.383	15.304	310.256	3.993	135.030	-10.171	199.328	50.898	274.843	274.203	224.395	0.00072552	0.00061165	0.00028896	457.09	6.0003e-07	4.0214e-06	365.17	184.65	7.7845e-06	7.2041e-06	172.8	82.503	81.653	44.632	9.282e-06	46.377	0.0097505	0.016088	0.0044329	632.96	0.00017061	0.00017922	398.84	195.89	0.00015558	0.00018384	191.8	88.428	89.03	46.97	0.00017151	49.285	307.735	165.124	80.049	-13.444	261.576	128.045	-15.463	-8.556	134.364	259.222	-11.366	-7.855	-5.387	-1.961	63.423	-5.433	-8191	255	
3527.637	1	1	0	0	0.15651	0.12895	0.16963	0.13689	0.26063	0.033338	0.136	0.2196	0.081945	0.23822	0.25708	0.38947	0.2359	0.15103	0.12717	0.28796	-2.7604	-2.3625	-2.9375	-2.8812	-2.3354	-3.2	-2.7083	-2.4271	-3.2188	-2.2125	-2.9146	-3.0667	-2.3	-3.2458	-2.8292	-2.4458	232.030	174.450	-9.319	297.715	178.215	329.076	277.774	123.093	197.608	218.327	271.216	27.769	277.910	260.454	143.961	288.677	0.00077372	0.00040441	0.00015884	458.09	4.4527e-06	2.2888e-06	362.57	183.64	1.5761e-05	1.3584e-05	170.61	80.411	80.876	43.959	1.4072e-05	45.625	0.0098776	0.01652	0.0045826	633.88	0.00017534	0.00018458	395.75	195.53	0.000154	0.00018689	188.91	86.767	87.759	46.249	0.0001674	48.308	280.433	24.697	10.007	-14.182	93.807	227.290	-14.579	-8.595	253.011	145.245	-11.134	-8.091	-5.584	-1.589	121.219	-5.846	-8191	255	
3527.733	1	1	0	0	0.24856	0.24538	0.20999	0.073194	0.040358	0.077538	0.058481	0.16846	0.28881	0.12387	0.31313	0.14217	0.19202	0.19547	0.13102	0.30553	-3.0021	-2.4437	-2.7979	-3.0125	-2.2667	-3.1312	-2.8021	-2.3312	-3.2542	-2.5083	-2.8875	-3.1729	-2.2104	-2.9875	-2.8271	-2.25	130.304	32.038	-15.531	267.590	-23.403	304.578	159.969	226.143	217.888	156.290	207.548	292.899	172.878	295.753	181.542	-12.045	0.00066527	0.0010478	0.00018661	451.76	7.8413e-06	9.5729e-06	357.95	181.02	1.0692e-05	3.0417e-06	169.45	80.054	80.312	43.996	3.5848e-06	45.879	0.0094483	0.015866	0.0043678	619.46	0.000167	0.00017265	389.82	192.13	0.00014547	0.00017666	187.35	85.985	87.092	46.231	0.00015944	48.507	-20.139	160.373	89.077	-14.338	152.828	187.699	-15.314	-8.692	142.719	135.497	-11.499	-7.745	-5.609	-1.857	206.460	-5.485	-8191	255	
3527.854	1	1	0	0	0.20289	0.033343	0.28859	0.17344	0.06924	0.14223	0.1857	0.21977	0.076524	0.18422	0.15117	0.19934	0.18626	0.10223	0.16011	0.24908	-2.8354	-2.5854	-2.6354	-3.1354	-2.1937	-2.8937	-2.8521	-2.2354	-3.2417	-2.6125	-2.5062	-3.1771	-2.3604	-2.8396	-2.9	-2.2542	260.941	305.953	44.739	17.274	263.080	301.945	192.858	77.638	232.263	316.446	11.154	72.448	203.122	316.358	46.016	-9.972	0.00060647	0.00065383	0.00025269	448.63	9.0364e-06	4.3002e-06	362.81	181.69	9.1875e-06	3.9214e-06	171.89	81.415	81.063	44.142	9.6303e-06	46.346	0.0092039	0.015645	0.0043263	617.36	0.00016715	0.00017303	393.3	193.28	0.00014406	0.00017725	189.72	87.312	87.937	46.488	0.00015839	48.935	-18.712	109.182	138.118	-13.199	157.739	263.054	-14.998	-8.453	-3.589	100.519	-11.395	-8.050	-5.522	-2.102	168.601	-5.246	-8191	255	
3527.950	1	1	0	0	0.055926	0.14358	0.34459	0.29385	0.15666	0.14559	0.082759	0.41573	0.38675	0.16858	0.14609	0.2101	0.21156	0.1845	0.20652	0.31742	-2.8167	-2.4167	-2.375	-3.2	-2.3583	-2.8708	-3.0271	-2.2292	-3.1583	-2.7604	-2.2062	-3.1521	-2.4	-2.7438	-2.9604	-2.15	166.391	55.701	322.595	-2.413	72.874	302.980	159.510	252.815	195.288	23.060	144.019	55.721	275.495	294.063	190.793	237.445	0.00079944	0.00094584	0.00018495	455.25	4.8766e-06	3.3413e-06	365.36	183.54	1.2319e-05	5.8857e-06	174.23	82.285	81.81	44.479	6.9653e-06	46.092	0.0090059	0.015454	0.0042317	613.83	0.0001638	0.00016969	395.92	194.96	0.00013969	0.00017405	190.76	87.688	88.146	46.597	0.00015248	48.9	316.983	94.354	97.116	-13.381	235.516	-13.418	-15.038	-8.703	95.910	200.457	-11.594	-8.058	-5.367	-1.780	92.739	-5.245	-8191	255	
3528.046	1	1	0	0	0.07971	0.08312	0.29451	0.18601	0.14014	0.34822	0.18081	0.27341	0.2072	0.11851	0.39153	0.23929	0.07008	0.17273	0.12637	0.060969	-2.6979	-2.7208	-2.45	-3.1604	-2.5083	-2.6708	-3.0792	-2.2854	-3.1813	-2.8625	-2.3458	-3.2042	-2.4938	-2.5771	-3.0875	-2.3438	146.675	154.222	267.293	-1.992	252.311	7.632	148.192	277.686	306.866	221.811	294.312	294.888	304.972	283.153	195.507	22.223	0.00061569	0.00010198	0.00030729	454.96	7.0734e-06	2.9179e-06	362.65	182.42	3.8217e-06	7.3847e-06	170.14	81.146	80.153	44.224	5.075e-06	45.689	0.0086559	0.01487	0.0040925	605.16	0.00015812	0.00016363	389.47	192.72	0.00013805	0.00017236	186.59	86.468	86.98	46.271	0.0001534	48.313	331.770	243.381	77.278	-13.026	188.551	76.290	-15.079	-8.492	164.800	264.168	-11.421	-8.223	-5.790	-1.687	86.818	-5.338	-8191	255	
3528.140	1	1	0	0	0.14911	0.056195	0.16401	0.11128	0.34392	0.16831	0.39349	0.32633	0.13214	0.21581	0.092545	0.10412	0.33768	0.19312	0.14175	0.089515	-2.4792	-2.7625	-2.3271	-3.0708	-2.5042	-2.3396	-3.1958	-2.3521	-2.8167	-2.7833	-2.1729	-3.3604	-2.7146	-2.2875	-3.2104	-2.4083	236.768	153.303	293.929	289.678	-20.114	291.146	297.465	54.028	320.387	266.663	300.739	11.406	-3.642	94.613	272.560	171.568	0.00071646	0.00064502	0.00023675	445.65	2.5799e-06	1.1554e-05	355.08	181.51	9.6373e-06	7.4336e-06	168.33	80.235	80.997	44.11	6.0335e-06	45.609	0.0088459	0.015254	0.0042564	607.97	0.00016664	0.00017162	387.23	192.3	0.00014409	0.00017659	186.81	86.192	87.83	46.354	0.0001576	48.539	-26.542	5.912	100.840	-13.551	51.334	132.066	-14.863	-8.654	276.730	141.342	-11.423	-7.812	-5.755	-1.926	-23.297	-5.388	-8191	255	
3528.238	1	1	0	0	0.31193	0.13221	0.12171	0.19085	0.051562	0.16097	0.12595	0.057119	0.33663	0.060482	0.046988	0.37505	0.23316	0.28057	0.22102	0.27624	-2.425	-3.1063	-2.2979	-3.2792	-2.7229	-2.3688	-3.2708	-2.3854	-2.6396	-3.1583	-2.1979	-2.9083	-2.8792	-2.4146	-3.2542	-2.5667	279.879	204.661	149.088	231.673	117.745	331.641	-26.090	124.049	95.093	201.744	277.060	305.698	285.478	307.432	316.217	292.769	0.00071962	0.00058479	0.0001781	452.9	1.2923e-05	5.971e-06	358.21	182.64	9.3167e-06	9.9306e-06	171.86	81.647	81.692	44.554	5.6318e-06	45.8	0.0091358	0.015602	0.0043705	614.2	0.00017146	0.00017708	390.29	194.09	0.00014879	0.00018025	189.53	87.358	88.586	46.831	0.00016073	49.091	327.574	79.980	55.169	-12.851	133.502	100.018	-15.120	-8.628	97.656	107.360	-11.890	-7.806	-5.100	-1.961	-2.360	-5.535	-8191	255	
3528.333	1	1	0	0	0.20781	0.19246	0.052872	0.093024	0.18946	0.31355	0.073639	0.084739	0.24569	0.13014	0.20907	0.26135	0.1401	0.21986	0.2183	0.15026	-2.2833	-3.0375	-2.3312	-3.0438	-2.85	-2.1333	-3.3042	-2.5792	-2.5771	-3.1583	-2.3812	-2.9708	-3.1354	-2.4583	-3.0875	-2.6625	304.428	237.879	219.904	19.383	52.830	189.594	4.564	236.759	330.650	216.329	12.492	48.053	-2.907	321.991	178.668	328.586	0.00097867	0.00089338	0.00034071	460	5.1723e-06	1.3154e-05	359.3	183.99	1.2843e-05	1.0452e-05	173.85	83.233	83.172	45.112	1.2341e-06	46.743	0.0094341	0.016177	0.0045135	622.58	0.00017579	0.00018097	393.46	195.73	0.0001512	0.00018149	192.98	89.007	90.1	47.541	0.0001646	49.98	314.771	87.618	320.310	-13.421	284.641	97.433	-15.203	-9.001	142.883	56.085	-11.848	-7.918	-5.356	-1.806	228.631	-5.329	-8191	255	
3528.429	1	1	0	0	0.062574	0.16414	0.13698	0.19141	0.036326	0.38744	0.097773	0.20112	0.097322	0.20423	0.069493	0.052533	0.1814	0.44049	0.023513	0.15433	-2.1083	-3.0667	-2.1896	-3.0625	-3.0771	-2.35	-3.3312	-2.4646	-2.3771	-3.1333	-2.3417	-2.8187	-3.1854	-2.2938	-3.15	-2.9	120.908	97.403	14.896	291.273	40.660	-14.263	-25.507	289.651	283.384	251.600	185.334	126.718	259.493	230.285	-23.065	-20.151	0.00073029	0.00084762	0.00015773	468	1.1744e-05	5.1975e-06	365.67	185.65	5.0668e-06	1.818e-05	173.18	83.089	83.867	45.282	5.8655e-06	46.854	0.0097345	0.016484	0.0046699	631.99	0.00017776	0.00018506	397.6	198.32	0.00015603	0.00018751	193.5	89.297	90.576	47.67	0.00016503	49.842	315.533	171.153	58.725	-13.211	174.519	-9.826	-14.957	-8.468	98.011	147.094	-11.830	-7.831	-5.276	-2.062	157.600	-5.702	-8191	255	
3528.525	1	1	0	0	0.117	0.1592	0.1014	0.12553	0.073721	0.26289	0.098133	0.058998	0.080389	0.23318	0.11281	0.22466	0.22559	0.23945	0.1701	0.20872	-1.9229	-3.3292	-2.3833	-2.8542	-3.0563	-2.2521	-3.3146	-2.775	-2.5729	-3.3063	-2.5292	-2.6604	-3.1917	-2.3125	-3.0563	-2.7458	228.322	22.700	78.668	142.376	80.264	17.966	233.211	312.763	208.808	47.851	172.006	247.985	-11.278	324.949	-19.270	241.678	0.00061377	0.0004004	0.0002432	460.71	1.0721e-05	1.54e-06	360.97	184.85	4.7026e-06	2.3264e-06	172.5	81.294	82.342	44.737	1.1937e-05	45.961	0.0099582	0.016588	0.0047689	634.08	0.00018272	0.00019078	394.09	197.24	0.00016099	0.00018946	191.66	88.071	90.105	47.336	0.00017492	49.296	-21.336	27.470	25.170	-13.131	80.813	191.335	-14.705	-8.592	140.762	73.516	-11.542	-7.550	-5.066	-1.779	174.331	-5.604	-8191	255	
3528.645	1	1	0	0	0.11802	0.12736	0.15627	0.33662	0.051939	0.19412	0.12615	0.11169	0.20584	0.12611	0.1436	0.06609	0.16152	0.16074	0.14573	0.19892	-2.0583	-3.1188	-2.4792	-2.5896	-3.2	-2.1625	-3.0229	-3.0292	-2.0646	-3.1292	-2.575	-2.7062	-3.2146	-2.525	-2.8458	-2.9979	33.716	160.496	197.466	304.156	31.028	262.447	232.173	290.085	138.049	117.158	31.572	302.700	270.479	249.730	122.764	270.909	0.00039543	6.3128e-05	0.00026787	456.66	1.3041e-05	1.0632e-05	358.9	183.2	7.4319e-06	1.1083e-05	170.07	81.887	82.905	44.715	2.0571e-05	46.067	0.010429	0.017206	0.0049995	638.37	0.00018739	0.00020079	393.52	196.95	0.00016733	0.00019654	191.89	88.687	90.273	47.317	0.00017835	49.397	321.586	117.450	314.954	-12.754	178.518	-3.946	-14.778	-8.546	121.874	300.138	-11.714	-7.598	-5.650	-1.917	185.863	-5.359	-8191	255	
3528.742	1	1	0	0	0.3058	0.26766	0.040263	0.21487	0.20982	0.063817	0.1259	0.23804	0.1185	0.12659	0.2144	0.18058	0.25589	0.15072	0.22589	0.27282	-1.8771	-3.0479	-2.6896	-2.5125	-3.3542	-2.4313	-2.7396	-2.8854	-2.3563	-3.2042	-2.7146	-2.2729	-3.3854	-2.3125	-2.7354	-2.9562	150.050	280.005	27.462	6.130	265.896	294.528	220.022	296.390	314.417	121.384	217.466	42.088	-8.202	4.739	33.016	285.043	0.00082571	0.0010761	0.00011241	460.12	6.8285e-06	7.6721e-06	357.87	183.99	5.6997e-06	3.3474e-06	171.51	82.182	82.349	44.704	5.1529e-06	46.196	0.010712	0.017536	0.0051947	644.21	0.00019609	0.00020934	396.35	198.57	0.00017585	0.00020232	193.51	89.187	90.622	47.639	0.00018338	49.706	326.129	63.943	327.656	-13.485	236.092	158.326	-14.846	-8.678	111.950	323.642	-11.835	-7.818	-5.431	-2.112	51.423	-5.619	-8191	255	
3528.838	1	1	0	0	0.19044	0.11339	0.20894	0.17326	0.070004	0.15903	0.079185	0.17386	0.096476	0.11147	0.43439	0.33385	0.10033	0.19675	0.040749	0.051966	-1.8125	-2.9	-2.6792	-2.3583	-3.1271	-2.4688	-2.7583	-3.3229	-2.2042	-2.9604	-2.7188	-2.3458	-3.325	-2.7104	-2.5667	-3.3167	206.875	315.748	12.076	88.650	134.492	315.355	312.800	292.299	197.528	7.835	284.212	229.480	26.039	307.016	-21.902	196.761	0.0003574	0.00083823	0.00020895	461.83	1.5046e-06	9.0742e-06	360.3	184.26	8.7084e-06	8.8059e-06	172.12	82.649	82.76	45.146	1.5908e-06	46.359	0.01097	0.018056	0.0052948	651.92	0.00019305	0.00021069	397.7	198.59	0.0001736	0.00020048	194.48	89.426	90.81	47.815	0.00018551	49.742	279.188	287.762	81.877	-13.429	34.950	66.863	-15.082	-8.645	58.022	23.385	-11.577	-7.910	-4.989	-2.188	29.114	-5.795	-8191	255	
3528.934	1	1	0	0	0.047368	0.15927	0.29132	0.35704	0.16339	0.24574	0.28649	0.16641	0.15779	0.067134	0.17834	0.22486	0.16767	0.10215	0.26501	0.13715	-1.7083	-2.9813	-2.9167	-2.1417	-3.2917	-2.5938	-2.4875	-3.1875	-2.1312	-2.9604	-3.0542	-2.1979	-3.2333	-2.6896	-2.3208	-3.4437	148.923	279.532	287.467	-0.738	139.854	111.692	-19.138	229.491	249.161	242.720	246.331	201.491	328.827	304.214	0.395	11.946	0.00062644	0.0012034	0.0001583	460.69	7.744e-06	3.4029e-06	356.57	182.4	1.5069e-05	4.0638e-06	169.24	80.532	82.612	44.289	1.541e-05	45.289	0.010974	0.017751	0.0052476	648.55	0.00019182	0.0002143	395.19	197.46	0.00017807	0.0002069	191.67	87.654	90.188	47.213	0.00018781	48.793	304.319	46.275	29.015	-14.199	182.296	89.959	-15.380	-8.561	251.009	60.511	-11.651	-7.956	-5.223	-2.083	330.753	-5.313	-8191	255	
3529.030	1	1	0	0	0.10425	0.15041	0.15229	0.049641	0.33492	0.090141	0.046852	0.089932	0.07085	0.056203	0.13216	0.0024805	0.14308	0.21438	0.15643	0.079325	-2.0896	-2.7896	-2.9583	-2.1688	-3.2042	-2.7021	-2.4167	-3.2438	-2.5021	-2.7604	-2.9396	-2.1625	-3.0812	-2.8333	-2.2979	-3.2083	38.840	19.384	292.861	28.363	122.975	332.746	250.520	301.533	91.603	28.264	128.597	269.156	316.638	257.413	272.843	-2.745	0.00055931	0.00060518	0.00014721	450.85	1.3953e-05	9.1992e-06	353.57	181.54	1.979e-06	6.9208e-06	167.03	80.339	81.88	44.277	1.0834e-05	45.384	0.011098	0.018149	0.0052729	647.32	0.00019553	0.00021467	390.7	195.58	0.00017791	0.00020789	189.67	87.309	89.583	47.104	0.0001857	48.647	286.938	110.717	112.133	-13.687	196.654	63.286	-15.081	-8.645	19.604	97.526	-12.149	-7.684	-5.191	-1.796	219.394	-5.158	-8191	255	
3529.126	1	1	0	0	0.19234	0.047974	0.1324	0.31877	0.11465	0.26869	0.25169	0.24179	0.093136	0.2084	0.21511	0.10472	0.31477	0.037816	0.15702	0.17377	-1.8687	-2.6292	-2.9313	-2.1792	-2.8896	-2.8604	-2.3021	-3.1479	-2.5458	-2.5167	-3.0438	-2.2771	-3.1083	-2.8604	-2.1437	-3.3042	330.263	142.089	-7.072	299.562	307.872	138.986	47.418	271.211	97.438	94.233	309.772	315.673	322.823	120.462	-16.371	86.651	0.00090628	0.0006102	0.00021865	460.17	7.6949e-06	1.4333e-05	355.22	181.67	1.3975e-05	9.893e-06	168.03	80.558	81.784	44.589	2.1033e-06	45.74	0.011172	0.018239	0.0053336	654.63	0.00019828	0.000218	393.29	196.27	0.00018033	0.00020578	190.62	87.863	89.89	47.262	0.00018676	49.021	307.355	135.473	-16.757	-14.166	187.309	122.576	-14.914	-8.352	107.388	80.183	-11.839	-7.866	-5.022	-2.085	91.827	-5.134	-8191	255	
3529.245	1	1	0	0	0.23347	0.13882	0.24628	0.025603	0.15577	0.12162	0.19763	0.20505	0.19981	0.13762	0.1903	0.10095	0.11618	0.45437	0.085257	0.27319	-2.0521	-2.2938	-3.1125	-2.2104	-2.8208	-2.8	-2.3229	-3.2667	-2.475	-2.5125	-3.3438	-2.2854	-2.7812	-3.1333	-2.1604	-2.9583	185.277	303.831	192.037	152.874	295.522	133.208	252.445	-19.788	72.273	101.786	212.359	27.083	-22.582	254.151	169.209	246.778	0.00077617	0.001138	0.00028758	458.37	8.4862e-06	6.1757e-06	362.72	184.57	3.9397e-06	6.108e-06	170.51	81.623	83.334	44.947	6.7599e-06	46.306	0.011176	0.01805	0.0052229	656.97	0.00019721	0.00021739	398.92	198.71	0.00018586	0.00021659	194.07	89.582	91.526	47.96	0.00021194	50.122	291.495	11.851	97.058	-13.400	10.236	31.658	-14.909	-8.496	196.478	156.832	-11.787	-7.974	-5.723	-1.767	237.943	-5.113	-8191	255	
3529.341	1	1	0	0	0.12618	0.16517	0.049153	0.1432	0.084989	0.11514	0.31068	0.26638	0.14041	0.097595	0.14502	0.11757	0.21978	0.14738	0.095788	0.028785	-2.4271	-2.1562	-3.2812	-2.3021	-2.8833	-2.9583	-2.2396	-2.9625	-3.0062	-2.3833	-3.075	-2.5083	-2.6063	-3.15	-2.2313	-2.9188	254.141	278.908	286.567	128.627	187.908	321.378	204.806	256.800	324.112	77.457	298.256	279.965	324.599	305.400	310.933	249.508	0.00014719	0.00060846	0.00011654	462.64	4.2316e-06	2.8791e-06	359.24	185.04	6.1107e-06	3.4959e-06	169.11	80.821	82.411	44.919	6.9519e-06	45.71	0.012691	0.020682	0.0059099	684.79	0.00021869	0.00024009	402.62	200.5	0.00019448	0.00022324	192.84	88.767	90.99	47.787	0.00020035	49.346	306.770	311.687	204.491	-13.511	84.092	270.797	-14.946	-8.400	46.121	149.428	-11.547	-8.013	-5.233	-1.693	166.332	-5.234	-8191	255	
3529.437	1	1	0	0	0.31916	0.14928	0.029049	0.13603	0.2698	0.17433	0.050616	0.13965	0.18516	0.15222	0.18693	0.32558	0.027273	0.16363	0.031427	0.40384	-2.2625	-2.2833	-3.0667	-2.5	-2.5083	-2.9396	-2.2875	-3	-2.9708	-2.125	-3.2729	-2.4792	-2.7125	-3.1708	-2.2687	-2.8708	147.970	186.133	108.426	23.323	156.089	69.917	182.910	281.356	38.950	24.098	265.021	310.145	155.100	-10.639	284.785	241.339	0.00076147	0.001177	0.00019744	460.91	1.1873e-05	6.2062e-06	357.11	183.12	1.2873e-05	9.352e-06	169.98	80.128	82.509	44.653	5.4807e-06	45.454	0.011692	0.018697	0.0051663	656.82	0.00019177	0.00020719	394.77	196.63	0.00017493	0.00020001	189.13	87.578	89.835	47.139	0.00017788	48.791	-24.701	35.037	95.827	-13.384	108.176	105.674	-14.741	-8.519	81.807	149.274	-12.059	-7.846	-4.866	-1.965	2.788	-5.193	-8191	255	
3529.509	1	1	0	0	0.034378	0.081007	0.045772	0.39012	0.22579	0.31539	0.45916	0.095973	0.23837	0.35125	0.13844	0.11072	0.11678	0.27727	0.20028	0.14142	-2.5	-2.2146	-3.15	-2.6354	-2.4021	-3.0271	-2.3417	-2.9688	-3.1292	-2.1229	-3.1042	-2.6188	-2.3104	-3.1167	-2.2062	-2.5729	274.441	288.460	266.129	118.472	266.095	172.535	268.942	133.748	66.112	-6.036	168.062	256.932	307.129	258.769	109.719	162.174	0.0007166	0.00087581	0.00010511	448.74	6.2284e-06	4.4098e-06	355.89	182.39	2.5311e-06	1.3105e-06	169.62	81.131	81.965	44.37	4.6523e-06	45.886	0.010655	0.017263	0.0047478	637.72	0.00018075	0.00019047	392	194.43	0.00015981	0.00018857	189.38	87.521	89.051	46.915	0.00016978	48.75	329.259	266.508	278.333	-13.776	130.932	-11.672	-15.261	-8.363	307.788	322.798	-11.202	-7.824	-5.055	-2.117	154.747	-5.421	-8191	255	
3529.630	1	1	0	0	0.21289	0.1937	0.07719	0.1833	0.26231	0.2008	0.15793	0.18651	0.056064	0.20588	0.17222	0.12693	0.23958	0.070679	0.16488	0.32258	-2.6208	-2.25	-2.9	-2.7562	-2.1417	-3.2313	-2.2667	-2.6771	-3.1125	-2.1312	-3.2375	-2.9313	-2.4562	-3.3312	-2.3771	-2.7292	212.922	86.964	93.538	-15.176	114.025	211.752	282.271	238.202	9.958	122.881	295.733	27.625	50.949	314.728	138.548	301.977	0.00063022	0.00051541	9.3168e-05	455.31	1.0804e-05	4.0204e-06	359.22	182.21	1.0312e-05	1.0091e-05	171.43	81.581	81.645	44.707	1.551e-05	45.981	0.00999	0.016297	0.0045067	630.87	0.00017478	0.00018524	393.41	195.53	0.00015783	0.00018517	190.71	87.858	88.782	46.901	0.00016534	48.848	318.990	104.686	49.217	-13.736	79.236	89.515	-15.193	-8.724	144.986	179.042	-11.254	-7.350	-5.172	-2.216	107.803	-5.175	-8191	255	
3529.726	1	1	0	0	0.26904	0.20038	0.070724	0.066546	0.1438	0.23288	0.18228	0.033953	0.22944	0.17311	0.16196	0.31879	0.37417	0.064273	0.12541	0.21597	-2.675	-2.0396	-2.7104	-2.9896	-2.2687	-3.2521	-2.5229	-2.5646	-3.0729	-2.2146	-2.9333	-2.7313	-2.2396	-3.3312	-2.6104	-2.5438	230.353	30.734	209.553	169.764	55.869	170.952	274.887	267.920	84.768	-2.911	267.419	240.651	224.887	81.933	206.103	216.353	0.00072405	0.00034748	0.00015092	450.88	1.0362e-05	7.2021e-06	361.16	183.27	1.6082e-05	1.1373e-05	173.56	81.759	81.564	44.454	7.6601e-06	45.82	0.009643	0.01599	0.0043898	626.05	0.00016664	0.00017506	395.28	195.27	0.00014835	0.00017843	191.37	87.697	88.373	46.579	0.00016122	48.674	324.115	165.494	305.566	-14.848	243.095	36.627	-14.882	-8.327	149.998	179.532	-11.287	-7.626	-5.096	-1.719	106.566	-5.588	-8191	255	
3529.822	1	1	0	0	0.12918	0.14577	0.14495	0.14258	0.045098	0.16472	0.18856	0.17089	0.13593	0.16672	0.35963	0.1398	0.13937	0.22664	0.090046	0.12502	-2.8542	-2.1813	-2.7271	-3.0854	-2.3354	-3.1646	-2.7021	-2.3896	-3.2208	-2.4813	-2.7375	-2.8896	-2.25	-3.2208	-2.7271	-2.4646	30.682	78.564	164.558	-9.981	169.251	160.304	166.526	266.255	148.220	18.255	322.164	330.724	192.076	313.232	243.961	123.900	0.00060856	0.0013099	0.00024839	463.78	7.1653e-06	2.4979e-06	356.88	181.04	9.883e-06	9.7042e-06	167.37	79.802	80.49	43.965	3.4484e-06	45.041	0.0091715	0.015407	0.0042225	620.8	0.00016285	0.00017158	390.34	192.51	0.00014451	0.00017543	185.82	85.909	87.334	46.266	0.00016327	48.041	-13.230	34.726	27.975	-13.277	79.992	128.132	-14.941	-8.527	-18.850	116.728	-11.181	-7.807	-5.301	-1.926	215.670	-5.028	-8191	255	
3529.943	1	1	0	0	0.22854	0.069887	0.10206	0.12346	0.28018	0.22731	0.10205	0.10071	0.11034	0.11039	0.080018	0.045913	0.15181	0.21154	0.17985	0.25153	-2.8208	-2.225	-2.6604	-3.1562	-2.2938	-3.0062	-2.9521	-2.5396	-3.1833	-2.5125	-2.6312	-3.2458	-2.1146	-2.9875	-2.8917	-2.375	93.268	276.823	92.219	194.978	71.801	146.064	38.486	252.391	312.279	332.669	123.291	-2.805	264.108	-9.925	146.980	167.814	0.00090069	0.00076668	0.00030722	454.89	5.8568e-06	6.2072e-06	351.57	181.59	4.9596e-06	6.5797e-06	168.28	80.365	81.575	43.934	7.9956e-06	45.672	0.009328	0.015806	0.0043002	620.11	0.00016877	0.00017509	387.28	193.35	0.00015255	0.00018542	187.04	86.463	88.269	46.387	0.00017076	48.48	-20.802	26.597	79.732	-14.189	92.755	108.674	-15.074	-8.705	170.000	201.045	-11.502	-8.011	-5.341	-2.058	173.810	-5.374	-8191	255	
3530.037	1	1	0	0	0.21767	0.053663	0.2443	0.24077	0.17137	0.082808	0.26996	0.06342	0.17635	0.12063	0.094396	0.10395	0.17912	0.077524	0.08322	0.084824	-2.9458	-2.5312	-2.5625	-3.1229	-2.2521	-2.7917	-2.9688	-2.3229	-3.2292	-2.5979	-2.4333	-3.1479	-2.4667	-2.9458	-2.8875	-2.2313	212.020	208.199	296.813	178.478	277.494	258.253	108.482	290.830	241.665	225.434	160.339	-9.493	296.309	219.793	266.458	10.327	0.00056721	0.00082737	2.4781e-05	455.2	2.893e-06	6.4487e-06	356.34	181.74	1.1796e-05	5.3293e-06	169.35	81.197	81.812	44.487	1.0275e-05	45.636	0.0096989	0.016593	0.0046349	631.28	0.00017769	0.0001856	390.71	194.59	0.00015715	0.00019449	189.52	87.415	89.09	46.881	0.00017711	48.912	324.618	138.731	141.163	-13.643	140.741	144.870	-15.185	-8.568	66.399	68.501	-11.569	-7.950	-5.014	-2.030	160.361	-5.596	-8191	255	
3530.110	1	1	0	0	0.1012	0.14055	0.33763	0.25394	0.18502	0.12665	0.04965	0.12965	0.1864	0.094318	0.15197	0.19115	0.066109	0.17889	0.16927	0.19989	-2.5833	-2.6542	-2.3646	-3.175	-2.1188	-2.8292	-2.9875	-2.1708	-3.0979	-2.7646	-2.4	-3.3833	-2.2875	-2.7042	-2.9958	-2.2	177.990	144.262	190.760	152.081	127.051	-5.279	14.932	88.195	91.215	181.407	293.748	-4.240	-23.813	256.406	296.968	275.046	0.00070135	0.00050894	6.5416e-05	461.52	9.9213e-06	3.5385e-06	361.56	183.6	1.3209e-05	1.0585e-05	171.74	81.685	82.422	44.681	1.0365e-05	46.209	0.0099858	0.017296	0.0047535	634.94	0.00018378	0.00019174	396.36	196.35	0.00016019	0.00019793	192.34	88.098	89.795	47.302	0.00018028	49.403	313.224	99.162	92.105	-14.049	146.116	249.124	-15.014	-8.546	133.696	237.107	-11.721	-7.735	-5.163	-1.909	186.636	-5.490	-8191	255	
3530.207	1	1	0	0	0.23996	0.24152	0.18676	0.24336	0.19063	0.14525	0.046178	0.13865	0.21561	0.097292	0.15985	0.082435	0.13573	0.023803	0.22081	0.090215	-2.7146	-2.725	-2.3875	-3.1333	-2.4104	-2.4354	-3.0708	-2.3458	-2.8563	-2.8833	-2.2854	-3.1375	-2.4979	-2.5646	-3.1229	-2.4021	98.118	144.570	317.862	223.301	-16.938	124.845	276.090	72.389	153.347	87.371	-5.577	43.177	207.519	260.506	149.024	290.267	0.00046502	0.00062191	5.3799e-05	463.76	5.3528e-06	6.0153e-06	363.31	185.21	9.9578e-06	9.9076e-06	171.19	81.62	82.422	44.746	1.2328e-05	45.549	0.010259	0.017917	0.0049304	642.55	0.00019291	0.00020108	398.82	198.13	0.00016846	0.00021043	193.03	88.657	90.638	47.494	0.00018777	49.262	290.949	83.560	233.127	-13.683	171.495	308.403	-15.246	-8.604	172.708	200.855	-11.326	-7.811	-5.041	-1.751	27.933	-5.388	-8191	255	
3530.325	1	1	0	0	0.12387	0.15232	0.28696	0.1527	0.24022	0.10156	0.21906	0.12116	0.15942	0.089649	0.19242	0.027935	0.25937	0.1395	0.13259	0.31291	-2.3542	-2.8583	-2.2479	-3.0208	-2.7438	-2.45	-3.2333	-2.4833	-2.8896	-2.9562	-2.2729	-3.1271	-2.5542	-2.5187	-3.3125	-2.5875	228.259	280.241	164.276	71.277	91.992	331.216	238.225	234.025	56.208	110.270	33.105	-21.714	95.975	274.330	218.959	290.284	0.00056593	0.0013404	0.00014157	456.34	5.916e-06	4.5156e-06	353.53	183.23	1.2385e-05	1.2005e-05	169.89	80.983	82.107	44.489	5.3176e-06	45.621	0.01092	0.01896	0.0052536	650.38	0.00020238	0.00021017	391.77	196.82	0.00017472	0.0002135	190.48	87.875	90.438	47.23	0.00018809	49.005	330.424	6.186	224.721	-13.703	182.260	85.268	-14.955	-8.384	146.814	147.358	-10.974	-7.923	-5.250	-1.892	200.482	-5.293	-8191	255	
3530.422	1	1	0	0	0.047681	0.065247	0.15328	0.20154	0.14257	0.098185	0.16722	0.13419	0.26678	0.099042	0.18781	0.225	0.2774	0.33386	0.10393	0.1123	-2.3396	-3.0958	-2.3021	-3.1083	-2.6083	-2.3438	-3.1042	-2.3854	-2.5708	-3.0812	-2.2458	-3.1312	-2.7271	-2.5687	-3.1229	-2.4437	122.235	49.381	163.018	262.841	322.598	91.464	238.506	299.303	-22.651	238.600	54.279	263.199	263.648	315.169	-25.961	38.474	0.00038418	0.00016394	0.00013488	443.99	9.3563e-06	6.7009e-06	355.3	181.22	8.5411e-06	1.0502e-05	169.39	80.806	82.055	44.649	1.2083e-05	45.577	0.010917	0.018853	0.005232	642.73	0.00020245	0.00020828	392.18	196.87	0.00017435	0.0002124	190.82	87.701	90.237	47.341	0.00018426	49.106	316.609	38.686	86.216	-12.988	204.629	117.871	-15.021	-8.537	188.735	118.647	-11.663	-7.405	-4.799	-1.966	178.872	-5.437	-8191	255	
3530.518	1	1	0	0	0.17941	0.091378	0.21259	0.1868	0.25428	0.22114	0.12014	0.10936	0.20374	0.26889	0.081987	0.34229	0.13982	0.1935	0.27436	0.24425	-2.1208	-3.0125	-2.1521	-2.8521	-2.8854	-2.0375	-3.1417	-2.5604	-2.5333	-3.55	-2.3083	-2.8229	-2.9667	-2.3375	-3.1063	-2.5229	64.447	211.779	140.286	272.929	120.094	176.513	33.604	218.780	215.712	29.253	145.344	326.368	156.303	19.941	105.755	262.870	0.00068351	0.00045385	8.5779e-05	450.1	4.7323e-06	5.5518e-06	359.42	183.46	8.0508e-06	7.6806e-06	172.04	81.723	82.157	44.809	8.6919e-06	46.102	0.0109	0.018551	0.0052178	648.02	0.0002032	0.00021418	396.08	198.16	0.00017603	0.00021159	193.32	88.88	90.822	47.595	0.00018904	49.737	327.954	230.039	97.615	-13.337	53.371	281.332	-15.157	-8.898	42.592	99.341	-11.664	-7.672	-5.141	-1.980	142.357	-5.585	-8191	255	
3530.614	1	1	0	0	0.20272	0.18749	0.21333	0.24823	0.069103	0.095902	0.12346	0.13522	0.11992	0.048061	0.22475	0.094672	0.041942	0.12772	0.064019	0.29349	-2.0146	-3.0104	-2.2708	-2.8812	-3.0438	-2.1833	-3.1667	-2.8542	-2.3563	-3.2562	-2.4167	-2.7917	-3.1271	-2.3625	-3.0229	-2.825	-4.970	137.827	32.848	149.246	288.175	33.197	172.992	258.752	313.235	-7.710	330.698	119.295	216.650	310.000	304.879	-2.497	0.00062293	0.00098318	0.00013005	460.9	1.4211e-05	8.7531e-06	358.72	184.95	1.5406e-05	5.2291e-06	174.24	82.509	83.939	45.075	4.124e-06	46.279	0.011383	0.018983	0.0053706	657.6	0.0002062	0.00021471	399.2	199.98	0.00018031	0.00021218	196.56	89.711	91.831	47.935	0.00018956	49.952	323.300	53.642	94.658	-13.619	64.582	196.641	-14.728	-8.295	163.828	80.842	-11.099	-7.701	-5.561	-2.046	128.714	-5.394	-8191	255	
3530.735	1	1	0	0	0.23882	0.17447	0.13934	0.30218	0.036126	0.20809	0.10316	0.21385	0.19438	0.19669	0.20441	0.2684	0.19564	0.23878	0.22949	0.1383	-2.0312	-3.2729	-2.3792	-2.6417	-3.1604	-2.3229	-3.1333	-3.0083	-2.3979	-3.2083	-2.6125	-2.7458	-3.1542	-2.0771	-2.85	-2.7833	238.860	246.073	15.845	269.144	284.455	286.216	320.242	254.953	113.532	90.487	244.753	268.127	-1.667	59.579	178.795	298.781	0.00069444	0.00058026	0.00016861	456	1.2908e-05	6.4061e-06	357.87	184.72	1.124e-05	5.378e-06	169.13	81.023	82.875	44.815	1.3561e-05	45.458	0.011255	0.018727	0.0053454	651.81	0.00020305	0.00021352	397.25	198.57	0.00017537	0.00020648	192.21	88.138	90.526	47.486	0.00018098	49.071	-19.859	81.010	101.476	-13.905	8.951	139.629	-14.698	-8.605	255.382	79.867	-11.553	-7.384	-5.252	-1.995	119.271	-5.318	-8191	255	
3530.806	1	1	0	0	0.062883	0.16351	0.22375	0.0424	0.14242	0.25471	0.081146	0.078027	0.22753	0.12597	0.02169	0.16884	0.18665	0.26601	0.28493	0.25551	-1.8375	-3.0625	-2.4896	-2.3729	-3.0792	-2.3063	-2.8187	-3.1604	-2.1896	-3.2438	-2.4688	-2.3146	-3.1979	-2.3292	-2.5542	-3.0812	310.730	298.025	327.157	320.357	106.957	25.167	188.269	198.109	29.417	99.892	139.589	-0.305	-13.583	304.009	252.816	315.114	0.00083391	0.000381	0.00031517	450.56	6.1848e-06	1.7878e-06	356.97	183.62	7.1496e-06	4.9478e-07	171.67	80.716	82.063	44.821	3.6169e-06	45.419	0.010881	0.01772	0.0052396	645.8	0.0001953	0.00020568	392.86	197.8	0.00017236	0.00020252	192.2	87.692	90.147	47.357	0.00018014	49.105	309.023	332.040	99.049	-13.037	200.242	285.345	-15.286	-8.936	130.646	220.854	-11.846	-7.567	-5.446	-2.044	67.287	-5.225	-8191	255	
3530.927	1	1	0	0	0.2692	0.12407	0.17961	0.26913	0.030984	0.42357	0.21723	0.22621	0.23668	0.2962	0.13091	0.095203	0.12545	0.12741	0.093613	0.17993	-1.8833	-2.9521	-2.7333	-2.2896	-3.1188	-2.3937	-2.725	-3.1146	-2.4521	-3.0312	-2.7583	-2.3937	-3.1458	-2.2396	-2.4813	-3.1042	40.858	100.272	112.991	126.415	1.390	212.166	255.046	-22.932	18.172	242.451	216.752	14.198	223.378	-22.961	223.172	250.692	0.00080984	0.00044787	0.00033927	456.01	4.7233e-06	2.23e-06	356.1	183.99	1.5586e-05	6.0888e-06	171.27	81.3	82.514	44.824	1.8976e-05	45.985	0.010682	0.017111	0.0050254	639.93	0.00018439	0.00019986	393.47	197.58	0.00016856	0.00019502	193.21	88.221	90.302	47.435	0.00017882	49.388	330.867	186.049	39.860	-14.484	70.046	183.924	-14.816	-8.463	164.332	136.609	-11.436	-7.519	-5.325	-1.959	141.533	-5.664	-8191	255	
3531.023	1	1	0	0	0.15989	0.15966	0.16703	0.23376	0.23536	0.1666	0.21346	0.19821	0.25128	0.22358	0.10467	0.063621	0.05013	0.15562	0.075126	0.32953	-1.9042	-2.9688	-2.7417	-2.3187	-2.9771	-2.4062	-2.5896	-3.1333	-2.3354	-2.8917	-2.9	-2.1875	-3.0271	-2.6896	-2.5417	-3.1021	86.597	67.049	176.687	157.641	329.752	150.831	297.569	212.981	63.497	30.743	290.226	-12.955	309.154	216.555	65.678	224.484	0.00036397	0.00045886	0.00018261	455.24	1.0021e-05	7.155e-06	364.97	184.82	1.5662e-05	2.7314e-06	174.65	82.616	83.367	45.491	6.4978e-06	46.651	0.010664	0.017359	0.0051636	648.34	0.0001882	0.00020704	401	199.9	0.00017427	0.00020207	196.04	89.674	91.27	48.204	0.00018957	50.204	-17.600	300.540	108.891	-13.417	143.842	295.835	-14.820	-8.432	-18.295	294.834	-11.330	-7.519	-5.336	-1.982	236.877	-5.466	-8191	255	
3531.119	1	1	0	0	0.10556	0.18767	0.2566	0.30345	0.012183	0.13562	0.19841	0.21201	0.12878	0.19707	0.2107	0.19378	0.15798	0.064988	0.22445	0.13594	-1.8312	-2.8	-2.9562	-2.2188	-3.0687	-2.4708	-2.5542	-3.1958	-2.2729	-2.7542	-2.9521	-2.2708	-3.2625	-2.7167	-2.3208	-3.4146	45.320	124.912	225.441	254.329	272.353	220.618	2.959	-26.164	60.393	260.740	195.417	223.764	159.530	145.534	-1.193	238.939	0.00035717	0.001873	0.00013777	458.52	8.5407e-06	3.5756e-06	367.07	187.47	2.6897e-05	5.8681e-06	176.07	82.844	83.499	45.448	1.8863e-06	46.754	0.011358	0.018519	0.005448	663.06	0.00019706	0.00021945	406.6	201.97	0.00018236	0.00021104	197.97	90.217	91.859	48.299	0.00019117	50.194	321.581	6.351	217.873	-12.829	27.007	114.082	-14.778	-8.376	85.217	171.283	-11.429	-7.277	-5.488	-1.914	305.125	-5.351	-8191	255	
3531.214	1	1	0	0	0.13375	0.12183	0.18094	0.17927	0.25184	0.052404	0.26324	0.12724	0.090199	0.083941	0.082033	0.098426	0.16064	0.30972	0.14864	0.081595	-1.9833	-2.9125	-3.1312	-2.3208	-3.175	-2.8875	-2.45	-3.3021	-2.4562	-2.7104	-3.1833	-2.175	-3.2333	-2.7083	-2.2167	-3.2771	260.904	304.818	100.174	238.506	252.276	182.276	111.830	92.342	218.947	145.233	191.180	91.843	293.902	328.783	292.957	252.349	0.00065893	0.00055671	5.6043e-05	465.28	4.7931e-06	1.1334e-05	359.51	186.33	8.5892e-06	1.5374e-05	172.75	81.649	83.239	45.377	5.9294e-06	46.13	0.011343	0.018527	0.0053899	660.89	0.00019313	0.0002155	400.27	199.58	0.00017677	0.00020552	193.62	88.706	91.128	47.988	0.00018418	49.686	305.693	122.096	-13.509	-13.225	29.022	154.904	-14.995	-8.344	75.349	157.475	-11.745	-7.646	-4.809	-1.630	217.541	-5.216	-8191	255	
3531.334	1	1	0	0	0.074355	0.07819	0.18347	0.045973	0.10272	0.088287	0.19487	0.30479	0.20118	0.2177	0.063787	0.25408	0.15571	0.19878	0.2345	0.17431	-1.9479	-2.6917	-3.0417	-2.2604	-2.9313	-2.9354	-2.3604	-3.3042	-2.5354	-2.5521	-3.2938	-2.3292	-2.9917	-2.9313	-2.1458	-3.3104	133.005	59.913	185.580	194.920	303.725	39.836	243.691	332.893	116.506	57.454	17.174	205.061	239.125	320.098	263.851	184.754	0.00056036	0.0020631	0.0005704	460.97	4.8995e-06	8.0113e-06	364.49	185.74	7.8331e-06	6.0601e-06	173.04	81.908	84.119	45.244	4.1893e-06	46.729	0.01124	0.018108	0.0052153	656.85	0.00019388	0.00021466	400.66	199.8	0.00017816	0.00020649	194.99	89.431	91.884	48.278	0.0001895	50.117	311.696	120.202	34.942	-13.364	54.372	152.612	-14.944	-8.126	228.249	201.220	-11.574	-7.755	-4.899	-1.734	332.141	-5.225	-8191	255	
3531.406	1	1	0	0	0.096788	0.19461	0.29023	0.08779	0.035535	0.15791	0.1973	0.28752	0.07745	0.12394	0.088795	0.18271	0.081569	0.12134	0.23492	0.18996	-2.1979	-2.4271	-3.0417	-2.2771	-2.9562	-2.9604	-2.3167	-3.1417	-2.7146	-2.2958	-3.4062	-2.3312	-2.8375	-3.15	-2.3333	-3.3125	320.038	275.871	4.306	276.312	190.127	292.795	8.822	-24.214	331.222	332.854	73.466	145.491	-7.578	298.056	288.540	278.085	0.00036329	0.0010232	0.00026666	460.33	9.0917e-06	2.7912e-06	363.27	186.77	2.6028e-06	2.2346e-05	175.13	83.555	84.436	45.631	1.3973e-05	46.842	0.011373	0.018656	0.005286	665.35	0.00019875	0.00022014	405.09	201.73	0.00018682	0.00021585	198.01	90.947	92.696	48.548	0.00019783	50.587	331.878	127.225	91.063	-12.753	285.247	131.019	-15.395	-8.556	132.220	128.901	-11.515	-7.605	-4.882	-2.100	173.490	-5.252	-8191	255	
3531.502	1	1	0	0	0.10789	0.17739	0.070756	0.16758	0.14505	0.20026	0.11838	0.19023	0.11138	0.25487	0.17052	0.15486	0.47323	0.12625	0.2001	0.17238	-2.3438	-2.175	-3.1396	-2.4833	-2.7792	-2.9062	-2.4271	-3.1208	-2.5604	-2.3208	-3.2854	-2.3979	-2.5729	-3.225	-2.1979	-3.1083	109.938	242.741	127.679	164.855	141.675	247.664	55.892	223.273	129.535	-1.854	-5.619	211.755	204.986	198.418	71.735	267.237	3.3417e-05	0.00077285	0.00039696	470.04	3.8833e-06	1.4124e-05	369.84	188.73	7.2253e-06	8.5193e-06	176.27	84.21	84.466	45.616	1.0782e-05	47.061	0.011816	0.019293	0.0054053	672.97	0.00020552	0.00022323	408.72	202.41	0.00018884	0.00021766	199.07	91.369	92.724	48.57	0.00019743	50.679	197.399	310.268	-5.904	-13.056	305.273	213.573	-15.111	-8.261	176.985	71.339	-11.189	-7.709	-4.866	-1.974	156.790	-5.215	-8191	255	
3531.598	1	1	0	0	0.20592	0.22617	0.32738	0.13917	0.15491	0.02299	0.13476	0.054982	0.21228	0.11196	0.16705	0.16487	0.3005	0.23437	0.23777	0.43397	-2.3812	-2.4229	-3.2042	-2.4167	-2.6167	-3.0729	-2.2042	-2.9604	-2.9146	-2.3208	-3.0167	-2.8187	-2.5104	-3.1063	-2.2687	-2.9792	39.398	284.691	201.928	108.346	280.052	158.923	6.213	119.669	89.218	111.895	114.221	289.206	248.438	241.518	82.626	248.386	0.00094245	0.00021739	0.00019417	459.8	8.5988e-06	7.9012e-06	365.47	185.58	1.5453e-05	9.5472e-06	174.05	81.989	83.499	45.408	9.5445e-06	46.465	0.011848	0.019074	0.0053516	672.35	0.00020371	0.00021812	404.88	200.74	0.00018547	0.00021337	195.18	89.579	91.754	48.177	0.00019354	49.902	325.733	259.053	90.895	-13.923	47.436	90.250	-14.975	-8.487	28.685	103.959	-11.600	-7.415	-4.783	-1.924	149.311	-5.344	-8191	255	
3531.719	1	1	0	0	0.31332	0.085118	0.21	0.35004	0.2673	0.0526	0.063221	0.026837	0.15406	0.1638	0.023407	0.274	0.15452	0.081187	0.15978	0.069095	-2.6917	-2.2458	-2.9604	-2.6604	-2.4437	-3.1813	-2.4021	-2.7313	-3.0167	-2.1937	-3.2687	-2.6646	-2.3146	-3.1813	-2.3854	-2.5146	184.475	163.270	-22.247	210.150	53.015	-18.670	327.405	283.685	19.435	84.545	6.268	286.126	269.466	46.912	1.996	80.867	0.00053589	0.00056933	0.00034489	467.81	8.823e-06	1.0151e-05	361.15	186.28	3.8048e-06	6.675e-06	170.93	82.99	83.862	45.691	4.0665e-06	46.722	0.011523	0.018801	0.005199	668.98	0.00020099	0.00021189	400.44	199.75	0.00018212	0.00021235	193.69	89.943	92.096	48.289	0.00019136	50.095	329.805	191.764	-14.416	-13.657	60.796	106.416	-14.730	-8.371	146.312	81.231	-11.336	-7.583	-5.086	-2.036	225.524	-5.518	-8191	255	
3531.815	1	1	0	0	0.12378	0.35901	0.11249	0.093226	0.14453	0.11278	0.2074	0.060207	0.2398	0.0073973	0.16858	0.1949	0.14451	0.10577	0.25438	0.092793	-2.625	-2.1771	-3.1104	-2.8396	-2.2125	-3.2979	-2.4437	-2.6208	-3.0563	-2.3292	-2.9813	-2.9938	-2.4813	-3.2062	-2.6583	-2.4313	138.703	131.771	82.974	195.607	21.633	287.836	297.689	107.775	124.670	159.854	-22.366	318.932	1.781	60.097	239.696	186.410	0.00045227	0.00048106	0.00030114	454.87	1.3095e-05	1.4139e-07	361.5	186.79	6.4087e-06	5.7482e-06	175.45	83.51	84.793	45.95	7.455e-06	47.447	0.011037	0.018245	0.0050357	655.93	0.00019332	0.00019972	400.38	199.87	0.00017086	0.00020107	195.31	90.283	92.235	48.388	0.00018625	50.648	-7.153	50.566	163.954	-13.244	153.024	6.185	-15.054	-8.421	69.042	77.488	-11.099	-7.747	-5.357	-1.804	242.117	-5.479	-8191	255	
3531.911	1	1	0	0	0.28073	0.091296	0.15217	0.23004	0.22336	0.20039	0.055941	0.19629	0.21237	0.12417	0.17694	0.089757	0.23469	0.2791	0.19132	0.24459	-2.7875	-2.2229	-2.7083	-2.9208	-2.1688	-3.1583	-2.6104	-2.5	-3.0062	-2.3146	-2.7354	-2.9396	-2.4854	-3.3396	-2.5729	-2.6271	23.879	148.726	256.015	124.184	312.247	186.306	179.814	-1.679	267.177	-17.991	281.225	209.348	273.370	-17.531	271.871	251.427	0.00068851	0.00066339	0.00027988	464.56	4.2268e-06	5.4854e-06	369.36	187.41	1.6298e-05	9.301e-06	177.37	85.107	85.582	46.291	1.0377e-05	48.067	0.01089	0.017925	0.0049528	658.71	0.00019225	0.00020309	407.23	202.19	0.000174	0.00020798	198.5	92.29	93.418	48.994	0.00019221	51.592	312.916	5.395	273.676	-13.200	169.476	112.379	-14.782	-8.413	137.254	78.017	-11.203	-7.590	-4.995	-1.596	127.765	-5.211	-8191	255	
3532.007	1	1	0	0	0.2489	0.03043	0.25918	0.11955	0.036234	0.20101	0.18668	0.15662	0.11668	0.10043	0.28289	0.20956	0.072534	0.14547	0.27716	0.12919	-2.8396	-2.2708	-2.6958	-3.0271	-2.2313	-3.1417	-2.6333	-2.2812	-3.1708	-2.4458	-2.8438	-3.3104	-2.3021	-3.1667	-2.9146	-2.2625	139.866	325.292	220.024	190.042	176.341	136.928	259.253	309.749	264.615	-10.103	252.127	29.162	192.003	321.143	139.015	252.908	0.00062807	0.00051787	9.2475e-05	469.02	6.5876e-06	8.0909e-06	372.51	191.32	1.793e-05	9.223e-06	181.56	86.682	86.417	47.12	1.1688e-05	48.338	0.011066	0.018871	0.0052257	673.67	0.00020423	0.0002148	415.67	207.06	0.00018202	0.00022166	203.46	93.938	95.175	49.759	0.00020151	51.924	294.473	171.609	26.773	-13.584	117.563	66.749	-14.980	-8.573	140.866	6.839	-11.405	-7.433	-5.215	-1.837	125.386	-4.964	-8191	255	
3532.103	1	1	0	0	0.30162	0.25059	0.20703	0.098899	0.026434	0.12305	0.21073	0.22865	0.0063113	0.28544	0.27144	0.26245	0.25146	0.23045	0.023603	0.27156	-2.9229	-2.4771	-2.6542	-3.075	-2.1063	-2.9208	-2.9042	-2.2458	-3.3312	-2.5042	-2.6125	-3.2417	-2.2188	-2.9771	-2.9188	-2.1354	126.026	-26.175	305.419	36.553	225.690	56.912	323.033	109.246	129.318	85.341	72.954	321.878	318.355	299.726	281.907	-11.697	0.00014145	0.00045829	0.00018302	462.58	4.3291e-06	7.6773e-06	364.4	189.63	7.9455e-06	6.101e-06	175.55	84.621	85.271	46.645	1.5864e-05	47.525	0.011351	0.019563	0.005394	672.37	0.00020774	0.00021644	409.19	205.31	0.00018134	0.00022052	198.84	92.145	94.218	49.343	0.00020234	51.103	294.334	146.056	21.051	-13.781	27.169	129.005	-15.275	-8.708	262.689	300.585	-11.924	-7.926	-5.119	-1.721	173.903	-5.116	-8191	255	
3532.198	1	1	0	0	0.069048	0.19759	0.22129	0.087663	0.20321	0.08028	0.025869	0.2562	0.095397	0.13786	0.095308	0.37265	0.12728	0.11182	0.16281	0.24007	-2.7583	-2.4562	-2.3833	-3.1813	-2.2042	-2.7	-2.9729	-2.3833	-3.1813	-2.6542	-2.4333	-3.2729	-2.4604	-2.8396	-3.225	-2.3667	-8.595	108.744	203.855	53.479	121.495	162.801	118.281	233.252	152.013	188.778	207.614	3.051	317.648	299.169	57.982	-23.219	0.00061322	0.00031333	0.00035622	471.98	1.0354e-05	5.1685e-06	362.24	188.87	2.8085e-06	5.8405e-06	175.14	84.475	85.893	46.606	5.0124e-06	47.745	0.011301	0.019548	0.0053315	668.62	0.00020511	0.00021458	405.04	203.15	0.0001766	0.00022038	197.9	91.734	94.485	49.43	0.0001995	51.324	306.985	108.567	105.600	-13.822	214.036	145.971	-15.033	-8.295	177.157	231.662	-11.607	-7.447	-5.048	-1.932	181.788	-4.898	-8191	255	
3532.296	1	1	0	0	0.20674	0.05964	0.28533	0.21143	0.26605	0.32476	0.096025	0.17722	0.1074	0.074123	0.20101	0.20217	0.045925	0.24432	0.078542	0.39379	-2.5354	-2.6937	-2.4396	-3.2708	-2.4042	-2.6854	-3.1167	-2.2708	-3.0917	-2.7667	-2.325	-3.3604	-2.3438	-2.5083	-3.2292	-2.2417	123.116	68.710	195.957	32.794	283.927	-24.444	315.183	251.477	321.834	245.947	250.641	62.769	77.029	268.183	281.800	207.015	0.00085188	0.000653	0.00023248	465.89	1.8186e-06	4.8174e-06	365.53	190.5	4.4178e-06	6.8586e-06	178.15	85.666	87.091	46.959	6.5719e-06	48.367	0.011385	0.019848	0.005488	673.4	0.00021321	0.00022311	408.99	205.97	0.0001873	0.00023474	201.86	93.416	96.03	50.059	0.00021169	52.23	313.320	153.887	47.648	-12.468	256.097	252.516	-15.151	-8.804	256.999	52.917	-10.969	-7.574	-5.235	-1.636	225.199	-5.150	-8191	255	
3532.415	1	1	0	0	0.20053	0.20239	0.059274	0.053213	0.1594	0.088263	0.29623	0.066812	0.35335	0.20755	0.29002	0.17225	0.011559	0.1786	0.19286	0.066077	-2.8542	-2.8187	-2.2042	-3.0542	-2.6479	-2.5958	-3.3667	-2.3479	-2.8729	-2.9042	-2.2	-3.1625	-2.6312	-2.4646	-3.1729	-2.2958	176.669	180.954	173.677	53.089	134.243	43.374	302.745	38.915	4.776	65.269	322.897	62.064	314.257	267.413	57.558	266.226	0.00084222	0.00077695	0.00050761	471.15	5.5661e-06	8.9071e-06	366.33	190.55	9.685e-06	1.9593e-06	178.58	86.592	87.226	47.253	8.3059e-06	48.446	0.012195	0.02099	0.0057548	679	0.00022338	0.00023351	412.57	207.38	0.00019446	0.00024021	204.18	94.419	96.517	50.241	0.00021196	52.442	299.432	54.001	41.152	-12.892	-6.583	162.231	-14.778	-8.291	49.628	192.424	-11.444	-7.782	-4.896	-1.599	21.029	-5.124	-8191	255	
3532.511	1	1	0	0	0.20778	0.32828	0.10673	0.19346	0.14001	0.26954	0.07012	0.2844	0.16065	0.097414	0.13966	0.092879	0.035016	0.26989	0.33449	0.23517	-2.5292	-2.9708	-2.1646	-3.1375	-2.6625	-2.3583	-3.2438	-2.4917	-2.8604	-3.0917	-2.2938	-3.1396	-2.6458	-2.2521	-3.1271	-2.4354	158.478	293.759	166.231	301.996	271.026	53.438	138.564	289.050	109.557	241.643	272.540	115.684	78.838	306.512	225.054	72.908	0.00038916	0.00017406	0.00019374	465.23	1.1999e-05	7.713e-06	365.67	190.34	5.7833e-06	2.1393e-06	175.53	84.791	86.101	46.573	7.9154e-06	47.165	0.012314	0.021194	0.0058588	682.26	0.00022866	0.00023464	410.06	206.43	0.0001942	0.00023569	200.65	92.875	95.11	49.628	0.0002073	51.285	319.494	-9.282	113.951	-13.585	326.004	120.324	-14.463	-8.729	220.123	51.989	-11.121	-7.552	-5.117	-1.662	214.861	-5.152	-8191	255	
3532.607	1	1	0	0	0.13697	0.15792	0.16387	0.18652	0.10222	0.1847	0.012942	0.049297	0.1679	0.085833	0.1541	0.18039	0.27057	0.17854	0.37407	0.11394	-2.2729	-3.2208	-2.2562	-2.9521	-2.6479	-2.425	-3.1979	-2.4417	-2.5187	-3.1479	-2.4167	-3.0271	-3.0687	-2.3521	-3.2833	-2.5708	61.232	198.403	228.469	78.620	126.109	259.536	4.502	15.801	228.281	76.022	135.584	276.489	-15.948	-17.968	10.030	-10.749	0.00081016	0.00070744	0.00014605	465.11	1.3545e-05	5.988e-06	361.11	187.54	8.2143e-06	4.4882e-06	173.64	83.068	85.082	46.293	1.103e-05	47.099	0.012164	0.02076	0.0057946	678.14	0.00022602	0.00023392	404.55	204.1	0.00019396	0.00023333	197.77	91.396	94.33	49.261	0.00020506	51.1	305.209	318.278	104.723	-13.420	201.740	149.567	-14.676	-8.535	289.738	57.387	-11.013	-7.385	-5.227	-1.545	137.280	-5.266	-8191	255	
3532.703	1	1	0	0	0.016742	0.090447	0.19082	0.27392	0.090757	0.15671	0.24713	0.10746	0.31671	0.061467	0.22708	0.044782	0.27868	0.45749	0.036123	0.20036	-1.8521	-3.0812	-2.3438	-2.9167	-2.9104	-2.2583	-3.1063	-2.5604	-2.5875	-3.0604	-2.4833	-2.7854	-2.9333	-2.2854	-3.1542	-2.7375	323.790	312.946	83.442	0.923	67.804	34.632	-11.525	-19.734	296.578	308.076	282.706	-24.455	207.684	263.253	238.264	134.291	0.00065565	0.00069794	0.0001855	463	1.4279e-05	3.6977e-06	364.55	187.94	1.3335e-05	2.0885e-06	175.32	84.49	85.053	46.555	1.5688e-05	47.503	0.01213	0.020351	0.005806	671.91	0.00022433	0.00023082	404.72	204.32	0.00019196	0.00022655	198.97	91.9	94.57	49.414	0.00020234	51.426	302.816	323.631	252.370	-13.852	66.602	109.162	-14.855	-8.341	112.818	43.116	-11.398	-7.287	-5.343	-1.700	93.320	-5.407	-8191	255	
3532.799	1	1	0	0	0.18779	0.18075	0.02547	0.12405	0.0794	0.27726	0.058205	0.33043	0.062727	0.14801	0.20402	0.16315	0.11397	0.26143	0.1536	0.15611	-2.0312	-3.0833	-2.3917	-2.875	-2.9021	-2.3063	-2.9896	-2.6958	-2.4396	-3.0542	-2.3542	-2.7792	-3.1833	-2.3875	-2.925	-2.8708	232.548	190.551	235.342	166.304	165.598	199.105	23.662	263.788	-11.027	280.613	22.725	-25.430	267.373	262.240	268.775	86.799	0.00070251	0.00166	0.00017875	459.18	1.3999e-06	5.604e-06	365.33	189.76	1.3919e-05	9.064e-06	179.54	85.366	86.461	46.885	1.3637e-05	48.273	0.01201	0.020002	0.0057443	675.03	0.00021962	0.00023024	408.64	206.12	0.00019215	0.00022759	202.37	93.225	95.324	49.865	0.00020216	52.184	285.977	18.694	81.518	-13.241	61.140	317.867	-14.740	-8.588	113.260	263.716	-11.009	-7.496	-5.287	-1.763	320.753	-5.383	-8191	255	
3532.895	1	1	0	0	0.14486	0.082035	0.23444	0.19135	0.13668	0.076137	0.06752	0.20672	0.022145	0.051597	0.077257	0.26356	0.13578	0.26473	0.1154	0.088569	-1.9688	-3.1979	-2.4521	-2.5021	-3.1083	-2.2521	-3.1229	-2.7958	-2.2	-3.2562	-2.4229	-2.5896	-3.2521	-2.55	-2.9167	-3.1667	66.060	258.557	52.385	-7.418	186.035	136.600	300.348	-25.365	139.730	304.193	325.757	311.569	16.265	298.965	74.314	236.013	0.00054562	0.0011631	7.1361e-05	466.21	1.4275e-06	2.6811e-06	370.56	192.19	2.2987e-06	1.446e-05	179.76	86.415	86.951	47.006	1.3873e-05	48.208	0.012115	0.020027	0.0058594	682.47	0.0002182	0.00023033	411.73	207.35	0.00019066	0.00022553	203.29	93.98	95.749	50.015	0.00020404	52.149	319.569	29.122	1.927	-13.901	43.981	321.501	-14.357	-8.404	159.855	64.467	-11.399	-7.602	-4.973	-1.818	47.229	-5.023	-8191	255	
3533.016	1	1	0	0	0.14426	0.18055	0.11847	0.26251	0.065971	0.30486	0.18477	0.1073	0.12845	0.40447	0.20946	0.21465	0.18926	0.099501	0.098024	0.076946	-1.9	-3.2417	-2.5854	-2.6021	-3.3125	-2.4313	-3.0625	-3.1542	-2.2646	-3.0021	-2.7979	-2.5563	-3.2667	-2.5521	-2.8875	-3.275	120.420	291.590	105.111	245.692	295.919	224.297	166.550	292.056	195.042	151.564	263.504	-17.183	-1.747	63.462	132.990	111.563	0.00024945	0.0011157	0.00023292	464.42	1.0364e-05	6.9167e-06	362.29	190.8	3.7612e-06	2.3429e-06	173.8	84.028	85.343	46.253	7.4996e-06	47.555	0.012106	0.019965	0.0058672	680.55	0.00021611	0.00023426	406.67	205.73	0.00019548	0.00022831	199.81	92.178	94.326	49.455	0.00020509	51.355	-25.869	123.295	321.771	-12.943	264.394	49.832	-14.947	-8.174	50.223	261.658	-11.627	-7.683	-5.156	-2.102	142.054	-5.384	-8191	255	
3533.110	1	1	0	0	0.23466	0.018589	0.0771	0.14604	0.038236	0.090313	0.17291	0.23445	0.17773	0.29005	0.16048	0.31843	0.072771	0.17443	0.31927	0.13801	-1.9625	-3.2313	-2.7792	-2.4604	-3.225	-2.4833	-2.8271	-3.2021	-2.3771	-3.1604	-2.9771	-2.3396	-3.3604	-2.7687	-2.6708	-3.2938	168.691	10.306	82.058	251.113	124.315	245.690	145.126	248.727	173.969	96.655	167.396	249.527	278.397	165.714	37.906	213.956	0.00054731	0.001231	0.00027747	461.31	4.8413e-06	1.2591e-05	359.2	187.47	1.9702e-05	2.8967e-06	175.05	83.622	85.022	46.514	3.0151e-06	47.306	0.012207	0.019991	0.0058815	678.67	0.00021499	0.0002346	403.09	203.44	0.00019391	0.0002239	198.66	91.39	93.927	49.454	0.00020411	51.225	-21.838	78.947	25.630	-13.650	144.673	174.840	-14.570	-8.251	163.276	36.985	-11.484	-7.635	-5.152	-1.558	240.365	-5.402	-8191	255	
3533.206	1	1	0	0	0.13702	0.17684	0.31907	0.20881	0.18476	0.31057	0.13368	0.30433	0.21676	0.086771	0.082544	0.11173	0.14941	0.32709	0.11083	0.13318	-1.9604	-3.025	-3.075	-2.3375	-3.225	-2.6604	-2.6167	-3.2333	-2.2208	-2.9583	-2.9875	-2.5104	-3.1375	-2.6958	-2.5062	-3.3063	194.042	45.782	-1.898	314.445	24.014	111.507	48.697	282.852	243.377	115.301	56.425	52.007	154.448	285.210	224.265	146.813	0.00028047	0.00087105	0.00010937	456.91	6.8122e-06	2.9709e-06	363.82	188.1	1.1711e-05	1.0741e-05	175.61	84.013	86.086	46.544	8.4575e-06	47.807	0.012064	0.019825	0.0057996	672.96	0.00021225	0.00023409	405.29	203.69	0.00019297	0.00022412	199.54	92.015	94.45	49.594	0.00020366	51.688	222.495	82.009	100.071	-14.019	227.071	255.015	-15.186	-8.368	114.733	246.968	-11.554	-7.322	-5.618	-1.650	209.612	-5.117	-8191	255	
3533.280	1	1	0	0	0.27436	0.15466	0.22114	0.20326	0.17366	0.075381	0.18778	0.20876	0.17444	0.24296	0.0995	0.11759	0.045793	0.13501	0.036378	0.09533	-1.8937	-2.7375	-3.2042	-2.3187	-3.1104	-2.7479	-2.4958	-3.4562	-2.4813	-2.8417	-3.2042	-2.0625	-3.2083	-2.8708	-2.6646	-3.2771	312.165	259.076	313.802	-17.306	96.552	171.971	11.511	-9.127	66.782	21.728	-23.087	211.233	309.457	52.155	264.647	320.341	0.00075252	0.00054058	0.00016287	467.74	1.5755e-06	2.8765e-06	365.91	189	1.5721e-05	2.1056e-06	177.11	85.249	86.378	46.714	6.7263e-06	48.612	0.012126	0.019708	0.0057243	677.73	0.00020903	0.00023224	408.65	204.88	0.00019468	0.00022364	201.44	93.104	94.967	49.866	0.00020694	52.258	-24.776	52.903	278.482	-13.615	149.354	116.745	-14.898	-8.143	199.138	-15.043	-11.233	-7.613	-4.836	-1.778	165.153	-5.344	-8191	255	
3533.399	1	1	0	0	0.27386	0.3316	0.20129	0.22269	0.17517	0.23565	0.054048	0.22321	0.13567	0.084804	0.16146	0.25634	0.26397	0.20347	0.37808	0.2272	-1.9417	-2.65	-3.1354	-2.15	-2.9875	-2.6771	-2.3021	-3.2083	-2.2229	-2.6646	-3.2042	-2.3333	-3.0938	-3.1583	-2.2188	-3.2687	237.895	184.248	263.947	205.714	76.024	33.923	326.565	115.889	286.647	77.014	251.337	177.503	247.026	309.580	225.123	209.630	0.0006296	0.00058785	0.00016839	464.73	3.274e-06	1.9526e-06	369.9	190.24	6.7719e-06	1.0856e-05	178.37	85.059	86.888	46.773	3.4139e-06	47.835	0.012288	0.020054	0.0057816	680.23	0.00021242	0.00023727	411.49	205.81	0.00019793	0.00022837	201.59	93.036	94.826	49.812	0.0002054	51.784	2.303	50.099	316.943	-13.279	-5.399	244.079	-14.883	-8.031	169.771	81.384	-11.329	-7.331	-5.233	-1.884	130.699	-5.108	-8191	255	
3533.495	1	1	0	0	0.16684	0.22209	0.083881	0.29203	0.12065	0.23702	0.1254	0.16137	0.29351	0.19568	0.018551	0.16648	0.29617	0.27727	0.26177	0.09097	-2.1479	-2.3042	-3.1437	-2.3021	-2.9396	-2.8729	-2.2104	-3.0854	-2.5354	-2.4604	-3.2	-2.2188	-2.7604	-3.1729	-2.3333	-3.2333	108.748	248.196	72.778	2.347	55.796	135.088	241.244	331.645	262.489	249.260	46.199	-23.060	-8.435	300.776	119.946	155.073	0.00082827	0.0016532	0.00021573	456.14	1.4174e-05	1.5481e-05	361.89	187.97	1.8791e-05	5.8271e-06	173.54	83.817	84.979	46.374	5.1131e-06	47.405	0.012298	0.01988	0.0056517	678.27	0.0002105	0.00023326	404.23	202.93	0.00019358	0.00022252	197.19	91.619	93.708	49.287	0.00020113	51.153	324.176	-3.643	32.998	-13.068	74.969	121.794	-14.576	-8.077	226.283	94.957	-11.764	-7.384	-4.889	-1.477	203.794	-5.022	-8191	255	
3533.591	1	1	0	0	0.23613	0.20504	0.18885	0.18833	0.28989	0.11887	0.22406	0.18395	0.18891	0.13439	0.12452	0.056724	0.15495	0.049337	0.085132	0.19556	-2.0771	-2.3875	-2.9938	-2.3688	-2.8417	-3.0271	-2.2062	-3.0833	-2.7667	-2.4146	-3.2646	-2.3563	-2.8937	-3.0396	-2.3958	-3.0563	288.849	139.746	205.403	-17.342	232.500	226.242	171.246	106.882	67.513	181.538	143.916	62.721	248.719	84.185	30.764	235.053	0.00065836	0.0010675	0.00026137	455.45	1.0428e-05	6.0675e-06	359.61	187.49	5.5631e-06	7.9168e-06	172.96	83.849	85.323	46.493	4.5728e-06	47.699	0.011897	0.019347	0.0054551	666.15	0.00020373	0.00022182	400.67	201.6	0.0001856	0.00021336	195.69	91.197	92.994	49.121	0.00019197	51.201	325.016	-2.244	322.298	-13.690	104.473	11.910	-14.347	-8.501	70.337	-15.239	-11.032	-7.466	-5.100	-1.716	186.662	-5.097	-8191	255	
3533.687	1	1	0	0	0.15374	0.070985	0.28551	0.25827	0.132	0.23128	0.14052	0.34609	0.23971	0.17115	0.082546	0.17465	0.14619	0.047798	0.2857	0.21707	-2.4292	-2.2062	-3.0417	-2.3396	-2.7354	-3.3375	-2.2687	-3.1958	-2.8312	-2.3125	-3.1708	-2.7125	-2.6417	-3.1833	-2.3917	-2.975	99.553	286.305	129.026	277.511	295.981	38.111	7.298	258.314	271.480	226.005	166.815	158.040	297.064	80.379	256.857	286.069	0.00067363	0.0017128	0.00030011	456.05	7.5793e-06	3.0061e-06	365.03	187.91	1.2473e-05	2.7503e-06	174.52	84.593	84.804	46.458	7.1567e-06	47.845	0.011443	0.018522	0.0051232	660.47	0.000195	0.00021295	402.86	201.6	0.00017954	0.00020645	196.72	91.886	92.946	49.138	0.00018937	51.269	-22.446	73.752	141.511	-12.774	71.928	120.451	-14.629	-8.404	200.852	263.087	-10.948	-7.725	-5.195	-1.537	160.219	-4.910	-8191	255	
3533.808	1	1	0	0	0.27968	0.10407	0.19133	0.11512	0.060297	0.16508	0.20338	0.22726	0.26457	0.11193	0.2863	0.15911	0.28809	0.2976	0.1474	0.19335	-2.45	-2.0604	-3.0187	-2.5042	-2.5312	-3.3521	-2.4729	-2.9479	-3.0292	-2.3854	-3.1208	-2.7146	-2.4458	-3.2229	-2.3104	-2.7917	227.255	130.643	122.750	332.026	-25.103	208.120	281.725	274.765	140.022	47.315	-14.305	115.098	181.289	-16.624	217.293	278.145	0.0007885	0.00064197	0.00039328	457.82	8.1715e-06	3.396e-06	367.86	188.43	2.2088e-06	7.5697e-06	177.75	85.268	85.501	46.426	7.1575e-06	47.978	0.011195	0.018158	0.0051272	659.17	0.0001955	0.00020933	406.28	202.08	0.0001781	0.00020784	198.78	92.291	93.354	49.149	0.00018854	51.42	323.824	30.829	76.730	-12.575	144.881	85.369	-14.354	-8.312	267.480	140.708	-11.690	-7.558	-4.990	-1.957	115.117	-5.115	-8191	255	
3533.904	1	1	0	0	0.11255	0.066169	0.12659	0.205	0.26457	0.093053	0.16177	0.1162	0.17143	0.13483	0.060376	0.14007	0.11964	0.24189	0.29416	0.12208	-2.6354	-2.3729	-2.9583	-2.7625	-2.4062	-3.3187	-2.4333	-2.8312	-3.0812	-2.2708	-2.9938	-2.8396	-2.2313	-3.3021	-2.5479	-2.7188	64.950	211.816	50.342	84.071	-12.397	114.157	301.230	312.069	36.946	52.470	219.203	207.031	266.792	-16.551	251.750	54.533	0.00029219	0.00025729	0.00032682	465.08	7.455e-06	4.0206e-06	363.63	187.26	1.1752e-05	6.9818e-06	173.52	84.157	84.725	45.984	8.9551e-06	47.222	0.011084	0.018264	0.0050328	661.06	0.00019367	0.00020522	401.56	201.1	0.00017446	0.0002054	194.76	90.969	92.526	48.668	0.00019059	50.641	304.048	68.183	69.229	-13.197	209.098	179.509	-14.567	-8.080	98.798	86.349	-11.010	-7.616	-5.144	-2.079	181.269	-4.984	-8191	255	
3533.976	1	1	0	0	0.18905	0.032373	0.2396	0.05216	0.31267	0.21204	0.15865	0.14344	0.19866	0.10181	0.20202	0.20221	0.21631	0.2598	0.18598	0.11947	-2.8083	-2.3167	-2.9833	-2.7604	-2.3146	-2.9771	-2.5729	-2.6188	-3.0979	-2.3854	-2.7833	-3.0875	-2.4062	-3.1312	-2.5042	-2.6542	183.889	107.073	253.005	72.675	13.295	38.237	121.209	186.365	43.631	310.685	300.798	238.405	25.320	260.746	92.290	313.412	0.00084901	0.0003285	0.00017553	456.97	1.03e-05	8.9425e-06	364.41	186.23	1.1346e-05	1.1819e-05	173.12	84.182	85.327	46.3	6.8228e-06	47.248	0.011047	0.018268	0.0050862	656.8	0.0001943	0.00020561	401.29	199.83	0.00017434	0.00020825	194.49	91.046	92.728	48.788	0.00019237	50.911	307.542	201.497	15.682	-13.863	100.069	150.559	-14.681	-8.440	159.389	206.911	-11.363	-7.479	-5.153	-1.649	330.895	-5.010	-8191	255	
3534.096	1	1	0	0	0.037093	0.12924	0.17376	0.1197	0.16758	0.12534	0.19353	0.1395	0.21704	0.11539	0.19304	0.06988	0.2654	0.24406	0.21334	0.33661	-2.6792	-2.2	-2.8042	-2.9729	-2.4229	-3.0958	-2.7	-2.4083	-3.1854	-2.4167	-2.8896	-3.0917	-2.2188	-3.0958	-2.7562	-2.4188	260.155	213.826	160.668	113.493	312.792	289.487	303.523	98.185	240.417	-4.832	199.339	65.503	39.531	-1.655	275.196	308.199	0.00043515	0.0013413	0.00014133	467.19	7.3322e-06	1.3099e-05	363.9	188.12	1.905e-05	7.4535e-06	175.62	84.707	85.587	46.712	3.2116e-06	48.002	0.011064	0.018539	0.0051237	659.4	0.00019672	0.00020555	403.65	201.97	0.00017517	0.00021185	198	92.026	93.623	49.324	0.00019443	51.617	-23.085	44.636	-4.129	-13.573	126.028	204.923	-14.647	-8.384	26.367	197.518	-11.103	-7.712	-5.138	-1.674	83.494	-4.911	-8191	255	
3534.191	1	1	0	0	0.38111	0.099476	0.23854	0.065441	0.076377	0.10799	0.38342	0.14056	0.16112	0.23758	0.32857	0.33402	0.10195	0.23922	0.2651	0.10943	-2.85	-2.4375	-2.5104	-3.1688	-2.1562	-3.1333	-2.6604	-2.4667	-3.1521	-2.3521	-2.6771	-3.15	-2.0771	-3.1208	-2.9896	-2.2271	209.839	152.065	-24.651	293.110	259.114	-11.962	231.384	236.871	2.774	139.885	321.677	317.683	-18.324	327.966	-3.199	126.137	0.00048522	0.00043413	0.00018859	465.19	3.125e-06	1.3434e-05	370.08	191.24	2.3387e-05	4.3105e-06	179.47	85.972	86.431	47.011	7.0931e-06	48.877	0.011196	0.019017	0.0052536	663.79	0.00020137	0.00020961	410.24	204.52	0.00017755	0.00021788	201.34	93.553	94.759	49.745	0.00019805	52.319	325.438	157.307	87.838	-13.318	1.432	133.446	-14.508	-8.339	171.707	151.704	-11.410	-7.235	-5.014	-1.717	174.215	-5.270	-8191	255	
3534.289	1	1	0	0	0.083211	0.086992	0.2417	0.065737	0.14835	0.17322	0.29199	0.3067	0.22906	0.31427	0.11954	0.20162	0.21653	0.099664	0.31478	0.20547	-2.6333	-2.2104	-2.5125	-3.2417	-2.2667	-2.9333	-3.1042	-2.2417	-2.9437	-2.4938	-2.5167	-3.2208	-2.3542	-2.9521	-2.8604	-2.3042	261.138	117.094	165.619	161.956	125.158	301.163	-18.921	214.293	8.839	232.632	291.053	328.521	277.898	207.749	194.467	272.780	0.00091206	0.00085873	0.00016939	464.25	4.835e-06	1.7614e-05	374.02	192.25	6.6547e-06	2.9679e-06	180.97	86.145	86.614	47.15	1.5271e-05	48.59	0.011151	0.01933	0.0052904	668.4	0.00020308	0.00021	413.07	205.58	0.00017475	0.00021743	202.45	93.618	95.008	49.799	0.00019688	52.154	329.635	96.903	306.973	-14.057	184.053	34.275	-15.049	-8.415	34.174	147.105	-10.729	-8.259	-5.004	-1.851	310.483	-5.134	-8191	255	
3534.407	1	1	0	0	0.12833	0.19196	0.16612	0.23887	0.32319	0.09985	0.20958	0.037496	0.27182	0.2268	0.018327	0.41997	0.34739	0.10598	0.12785	0.16466	-2.8458	-2.5458	-2.2771	-3.1479	-2.3083	-2.6917	-3.025	-2.3125	-3.2229	-2.8271	-2.1021	-3.3375	-2.4167	-2.6312	-3.1979	-2.4292	160.786	55.689	41.228	134.150	237.563	-8.053	83.431	266.542	151.806	33.946	45.977	-9.655	6.183	-7.514	321.424	-1.547	0.0010722	0.00054777	4.7825e-05	465.98	2.3042e-05	4.2059e-06	368.51	188.33	1.5858e-05	3.1761e-06	177.09	85.074	85.77	46.669	6.2482e-06	47.749	0.011219	0.019312	0.0052965	664.53	0.00020351	0.00021344	408.4	203.64	0.00017729	0.00022019	198.59	92.266	93.923	49.342	0.00019734	51.582	324.778	9.264	112.818	-12.996	168.038	181.805	-14.446	-8.296	142.570	327.280	-11.128	-7.422	-4.639	-1.397	146.939	-5.160	-8191	255	
3534.504	1	1	0	0	0.21859	0.19828	0.094106	0.11248	0.17092	0.27481	0.087152	0.32557	0.048577	0.19295	0.098292	0.050171	0.30056	0.21659	0.20362	0.094995	-2.6188	-2.7833	-2.2833	-3.2313	-2.4271	-2.525	-3.2667	-2.2958	-2.9813	-2.9479	-2.3396	-3.0854	-2.5167	-2.5125	-3.1688	-2.4375	256.525	183.171	312.120	-15.109	143.832	205.773	253.590	314.976	122.312	-15.443	222.207	19.354	250.042	274.181	78.716	299.859	0.0012199	0.00026089	1.9834e-05	467.2	3.684e-06	1.2852e-05	364.58	188.53	1.3954e-05	1.3349e-05	176.76	85.581	86.265	46.567	4.6392e-06	47.872	0.011249	0.019398	0.0053656	662.51	0.00020686	0.00021431	406.17	203.39	0.00017936	0.00022113	199.16	92.457	94.439	49.374	0.00019553	51.72	324.547	292.075	104.234	-12.834	212.375	108.719	-14.516	-8.112	100.127	148.841	-11.259	-7.402	-5.010	-1.738	83.478	-5.263	-8191	255	
3534.575	1	1	0	0	0.081035	0.15222	0.069185	0.045078	0.13332	0.033638	0.28917	0.2979	0.26494	0.16878	0.15177	0.17049	0.14241	0.18658	0.08325	0.070567	-2.6917	-2.95	-2.1667	-3.0125	-2.6625	-2.6333	-3.2854	-2.3812	-2.9562	-2.9479	-2.3479	-3.3271	-2.675	-2.475	-3.2396	-2.525	202.713	325.294	-4.796	197.365	160.213	0.648	258.768	317.430	19.065	81.731	258.956	316.772	270.273	-14.008	279.420	109.950	0.00047128	0.00076812	0.00016615	459.74	1.2371e-05	4.5517e-06	370.98	190.07	2.3451e-06	7.2018e-06	178.13	85.677	86.345	46.821	5.2513e-06	48.438	0.011239	0.019411	0.0053426	659.02	0.00020712	0.00021643	407.77	204.8	0.00017869	0.00022069	201.33	93.052	94.817	49.574	0.00019427	52.164	332.404	16.567	65.820	-13.402	152.216	181.606	-14.495	-8.124	119.835	305.314	-10.650	-7.432	-5.229	-1.714	-17.393	-5.270	-8191	255	
3534.696	1	1	0	0	0.16917	0.26151	0.093152	0.21872	0.12941	0.21084	0.08896	0.075367	0.36383	0.21676	0.086503	0.088402	0.036929	0.18886	0.22584	0.16195	-2.6354	-3.2125	-2.3438	-2.8896	-2.6312	-2.2438	-3.1917	-2.2271	-2.5687	-2.9646	-2.1708	-2.9583	-2.8438	-2.3771	-3.2854	-2.5292	0.959	307.859	71.516	181.708	202.158	-5.905	304.681	195.116	244.485	154.530	21.500	176.540	41.106	321.512	14.006	291.304	0.00066079	0.00076408	0.00025537	465.34	4.762e-06	5.8746e-06	374.04	192.01	2.9378e-06	1.4075e-05	182.98	86.665	86.944	47.45	1.4614e-05	49.08	0.011289	0.019438	0.0054214	670.87	0.00020915	0.00021746	413.32	206.63	0.00018038	0.00022148	204.78	94.342	95.72	50.188	0.0001931	52.848	278.309	89.839	236.159	-12.609	201.326	138.668	-14.361	-8.722	131.420	84.111	-11.325	-7.086	-4.853	-1.634	87.018	-5.113	-8191	255	
3534.792	1	1	0	0	0.098461	0.14062	0.27119	0.33986	0.07881	0.20512	0.15099	0.21053	0.24392	0.099373	0.036531	0.22568	0.21372	0.1812	0.061274	0.19973	-2.2542	-3.2438	-2.1625	-2.9188	-2.7417	-2.2208	-3.05	-2.6542	-2.5729	-3.0979	-2.2458	-2.7562	-2.9188	-2.3917	-3.2021	-2.7354	159.538	220.744	162.848	296.083	259.805	24.722	-1.940	183.267	243.055	58.771	226.520	309.788	314.440	30.476	86.031	306.264	0.00053202	0.00065179	0.00029975	467.12	7.8682e-06	4.5621e-06	371.82	191.76	8.537e-06	8.3121e-06	180.96	86.834	86.308	47.023	1.7452e-05	48.582	0.01135	0.019476	0.0054384	668.47	0.00020735	0.00021746	412.26	206.42	0.00018031	0.00021719	202.43	94.008	95.198	49.775	0.00019212	52.298	302.134	100.891	65.016	-13.552	141.910	-25.605	-14.735	-8.197	141.842	65.557	-11.396	-7.451	-5.302	-1.822	118.328	-5.445	-8191	255	
3534.888	1	1	0	0	0.076703	0.20943	0.078934	0.26362	0.070482	0.029424	0.18691	0.21717	0.075171	0.17227	0.063763	0.14992	0.19451	0.13019	0.19447	0.090947	-2.075	-3.0521	-2.1583	-2.7812	-3.0792	-2.1958	-3.0375	-2.5146	-2.4208	-3.3229	-2.4021	-2.8479	-3.0875	-2.3146	-3.0896	-2.7812	182.179	281.734	25.718	49.851	137.279	34.378	296.678	111.324	263.869	298.414	236.270	58.219	217.273	281.028	204.962	314.514	0.00096636	0.0014099	0.00019205	458.46	8.605e-06	5.5543e-06	368.73	189.34	2.3748e-05	3.5408e-06	177.14	85.756	85.792	46.658	8.6635e-06	48.283	0.011319	0.019011	0.0054277	660.71	0.00020543	0.00021498	405.95	204.26	0.00017691	0.00020956	199.3	92.344	93.863	49.366	0.00018629	51.805	298.500	96.046	3.291	-12.776	186.027	189.900	-14.463	-8.253	151.181	98.880	-10.809	-7.179	-5.374	-1.598	170.456	-5.178	-8191	255	
3534.984	1	1	0	0	0.34278	0.12345	0.050244	0.2372	0.13642	0.14672	0.079282	0.048814	0.27823	0.18456	0.095273	0.064683	0.43551	0.11235	0.1926	0.16286	-1.8813	-3.2208	-2.3979	-2.6937	-3.075	-2.25	-3.0604	-2.6854	-2.4125	-3.1104	-2.5146	-2.5687	-3.0104	-2.4125	-2.9604	-2.9792	179.040	177.244	20.172	57.581	49.605	106.071	261.414	116.559	325.957	59.571	3.348	-15.371	333.319	40.764	121.726	62.038	0.00078382	0.00051933	0.00032102	466.54	9.8953e-06	4.2592e-06	368.19	188.22	1.484e-05	7.1443e-06	178.08	85.955	86.005	46.781	4.5688e-06	48.537	0.011008	0.018271	0.0053165	658.6	0.00020032	0.00021361	407.11	203.82	0.0001773	0.00020797	200.71	92.834	94.017	49.585	0.0001885	52.144	311.011	8.712	81.068	-12.903	312.986	113.355	-14.621	-8.600	151.218	317.942	-11.025	-7.037	-4.924	-1.648	166.906	-5.213	-8191	255	
3535.105	1	1	0	0	0.21216	0.23952	0.10188	0.055062	0.14549	0.11812	0.23061	0.083906	0.042187	0.13939	0.23615	0.11409	0.042788	0.085651	0.14075	0.12529	-1.8292	-3.0292	-2.4146	-2.45	-3.3208	-2.3271	-2.8542	-3.0229	-2.2417	-3.3333	-2.6625	-2.4271	-3.1562	-2.4188	-3.0417	-3.1333	-16.349	-22.384	89.468	123.017	98.843	168.926	284.114	253.783	116.227	34.102	270.459	212.655	122.211	200.111	224.503	257.614	0.00069335	0.00031512	0.00012411	474.99	1.2709e-05	6.3752e-06	373.14	190.68	7.5847e-06	5.6074e-06	180.1	86.552	86.578	46.486	1.8374e-06	48.855	0.011299	0.018651	0.0054285	666.02	0.00020303	0.00021511	411.17	205.2	0.00017876	0.00020825	203.35	93.823	94.878	49.6	0.00019171	52.657	293.327	70.316	132.731	-13.786	61.260	123.825	-14.566	-8.285	129.370	56.056	-11.570	-7.474	-5.073	-1.718	102.236	-4.980	-8191	255	
3535.199	1	1	0	0	0.10498	0.14481	0.14707	0.23985	0.23909	0.14625	0.24182	0.14487	0.16014	0.19541	0.14734	0.21954	0.076999	0.33826	0.20792	0.1137	-1.7167	-3.1542	-2.6667	-2.4437	-3.1937	-2.6292	-2.9958	-3.2208	-2.2104	-3.1729	-2.7833	-2.6396	-3.2354	-2.5563	-2.7687	-3.2042	216.789	181.139	130.566	-4.893	255.869	146.861	211.137	270.500	175.712	66.269	301.913	70.049	288.859	39.024	199.061	269.452	0.00043707	0.000929	0.00010939	469.94	6.4271e-06	8.9568e-06	377.43	191.8	1.0718e-05	2.9799e-06	182.55	88.063	87.305	47.138	3.4461e-06	49.097	0.011488	0.018857	0.0055514	670.26	0.00020495	0.00022118	414.74	206.96	0.00018175	0.0002119	205.58	94.844	95.27	49.972	0.00019262	52.44	315.864	113.074	133.636	-13.112	201.676	183.645	-14.465	-8.318	102.011	303.873	-11.569	-7.075	-4.980	-1.819	40.027	-5.079	-8191	255	
3535.273	1	1	0	0	0.24162	0.1898	0.15801	0.044106	0.20762	0.075946	0.48349	0.27787	0.04132	0.21029	0.30207	0.25658	0.16526	0.10207	0.12943	0.084462	-1.7229	-2.9479	-2.7188	-2.3042	-3.2083	-2.5542	-2.7	-3.2083	-2.25	-3.1396	-2.8542	-2.3083	-3.1229	-2.6417	-2.5167	-3.1479	-7.422	157.797	128.198	292.211	85.924	6.131	226.355	14.111	123.302	249.462	123.392	11.775	231.701	160.170	320.604	292.208	0.00059153	0.001141	1.6131e-05	459.38	1.1963e-05	8.3366e-06	370.23	188.97	1.1555e-05	1.0704e-05	177.41	85.311	86.065	46.506	7.1662e-06	47.902	0.011427	0.018765	0.005476	667.33	0.00019969	0.00022028	408.23	204.31	0.00017986	0.00020561	200.65	92.681	93.754	49.231	0.00018829	51.491	295.280	61.431	236.096	-13.053	155.247	178.188	-14.717	-8.153	124.784	14.980	-11.171	-7.214	-5.060	-1.665	17.806	-5.039	-8191	255	
3535.369	1	1	0	0	0.077584	0.055739	0.31304	0.2937	0.14128	0.21538	0.17149	0.080638	0.29726	0.23353	0.12494	0.05736	0.15178	0.18851	0.1499	0.32436	-1.9479	-2.9021	-2.9042	-2.1958	-3.1646	-2.5542	-2.5896	-3.3604	-2.425	-2.9521	-3.1833	-2.3354	-3.2875	-2.8104	-2.2833	-3.2083	218.460	91.901	275.454	238.513	224.640	20.478	267.859	129.737	254.522	281.254	302.517	227.945	152.724	294.673	135.093	304.031	0.00058064	0.00040718	0.00028594	459.92	3.7973e-07	3.9492e-06	368.99	188.72	1.4737e-05	1.6949e-05	177.71	85.249	85.608	46.227	9.3068e-06	47.827	0.011196	0.018075	0.0053175	658.39	0.00019366	0.0002152	406.73	202.9	0.00017632	0.00020487	200.06	91.992	93.212	49.044	0.00018508	51.543	-9.764	29.932	70.473	-13.625	198.491	117.599	-14.399	-8.116	113.668	148.521	-11.440	-7.719	-4.981	-1.635	97.815	-5.416	-8191	255	
3535.488	1	1	0	0	0.068452	0.10321	0.16662	0.16539	0.19999	0.14644	0.077947	0.060053	0.11776	0.10516	0.20108	0.085067	0.15705	0.3541	0.038289	0.33454	-1.9062	-2.7375	-2.9396	-2.2062	-3.1917	-2.7542	-2.4458	-3.3333	-2.3396	-2.8083	-3.0583	-2.1958	-3.1354	-2.7125	-2.3083	-3.2208	56.866	131.309	214.226	250.052	329.059	214.272	122.596	333.012	107.739	131.803	239.822	5.536	121.409	298.204	159.402	297.131	0.00078486	5.6907e-05	0.00041718	461.91	1.4322e-05	1.3003e-05	369.39	188.57	8.3992e-06	9.4707e-06	178.65	86.721	85.836	46.666	4.3857e-06	48.849	0.011115	0.017827	0.0051901	656.19	0.00018772	0.00020899	406.39	202.39	0.00017359	0.00019914	200.52	93.042	93.383	49.363	0.00018284	52.016	310.819	49.633	87.809	-13.461	140.261	110.118	-14.061	-8.431	288.425	173.148	-11.121	-7.530	-4.919	-1.722	78.447	-5.355	-8191	255	
3535.584	1	1	0	0	0.17274	0.13108	0.15245	0.14882	0.16001	0.11381	0.10997	0.03904	0.26298	0.24667	0.19674	0.20755	0.20495	0.13815	0.042055	0.20389	-2.0729	-2.5958	-2.975	-2.2625	-2.8812	-2.9	-2.2229	-3.2479	-2.4333	-2.6375	-3.3104	-2.3604	-3.0458	-2.9458	-2.3312	-3.2479	215.084	129.674	-15.050	123.485	329.063	27.961	109.589	48.773	-20.539	127.285	268.259	283.068	69.503	319.257	130.390	156.100	0.00036249	0.00059955	7.7636e-05	469.97	4.6382e-06	6.9095e-06	375.33	192.75	7.221e-06	2.2891e-06	183.23	87.26	86.678	47.051	2.0481e-06	49.117	0.010851	0.017492	0.0050534	651.78	0.00018405	0.00020485	411.48	204.2	0.00016944	0.00019453	203.42	93.818	93.741	49.631	0.0001764	52.459	313.997	38.180	252.748	-13.435	120.547	199.660	-14.434	-8.314	9.370	109.857	-11.480	-7.569	-4.946	-1.802	217.986	-5.001	-8191	255	
3535.680	1	1	0	0	0.36069	0.16736	0.16728	0.079049	0.063751	0.13978	0.12594	0.26914	0.042378	0.21435	0.11057	0.25609	0.18748	0.1083	0.041976	0.22264	-2.1708	-2.4062	-3.1396	-2.3187	-2.7875	-3.0646	-2.3187	-3.2146	-2.5521	-2.3333	-3.1396	-2.2562	-2.8417	-3.1208	-2.1146	-3.1437	161.486	325.221	117.276	24.254	17.446	235.683	162.844	214.997	-7.658	150.244	309.481	305.715	291.266	323.860	21.814	-16.118	0.00096757	0.00068398	0.00015963	467.36	9.7421e-07	1.6349e-06	377.96	191.97	1.3821e-05	1.0649e-05	182.91	86.884	86.979	46.859	1.8315e-05	49.049	0.010425	0.01703	0.0048068	649.02	0.00017674	0.00019546	411.79	204.22	0.00016418	0.00018838	202.57	93.498	93.795	49.453	0.0001697	52.117	317.175	117.890	87.368	-13.669	175.824	105.553	-14.885	-8.158	122.693	150.634	-11.595	-7.188	-4.594	-1.825	104.129	-4.923	-8191	255	
3535.776	1	1	0	0	0.054044	0.15735	0.14828	0.048353	0.094579	0.16881	0.24963	0.42809	0.20421	0.11473	0.129	0.25229	0.18922	0.15674	0.28377	0.10052	-2.3187	-2.3146	-2.9979	-2.3375	-2.6854	-3.0021	-2.1437	-3.0958	-2.7083	-2.3438	-3.1042	-2.4688	-2.5458	-3.2417	-2.3792	-3.0083	138.425	100.183	322.588	286.850	177.679	111.213	265.076	282.951	196.729	38.721	40.858	289.075	173.764	33.900	249.628	17.321	0.00039224	0.00061003	0.00014521	468.49	9.4003e-06	1.138e-05	373.69	190.63	1.7784e-05	7.5446e-06	180.41	86.153	86.178	46.529	1.2603e-05	48.625	0.010192	0.016556	0.004659	643.34	0.00017343	0.00019098	407.88	202.28	0.00015993	0.00018507	199.03	92.334	92.7	49.014	0.00016573	51.62	267.710	110.649	117.263	-12.178	-19.368	85.732	-15.052	-8.157	139.916	53.413	-11.024	-7.596	-5.011	-1.520	114.251	-5.192	-8191	255	
3535.872	1	1	0	0	0.055383	0.21251	0.11112	0.01979	0.18742	0.14588	0.10468	0.096037	0.10753	0.17374	0.090342	0.12737	0.098366	0.27168	0.19482	0.12252	-2.3458	-2.1104	-3.2292	-2.4458	-2.5125	-3.25	-2.4604	-2.9896	-2.95	-2.2188	-3.0917	-2.5896	-2.3563	-3.3333	-2.3354	-2.9875	236.767	13.735	103.047	226.325	-26.042	240.095	266.033	226.670	11.149	72.856	241.810	57.693	-2.572	310.830	-15.729	135.880	0.00022862	0.00039286	0.0001297	471.61	2.9567e-06	1.1041e-05	372.23	190.02	1.5263e-05	4.697e-06	181.35	86.443	85.427	46.683	1.1411e-05	49.077	0.010023	0.016182	0.004474	638.91	0.00017198	0.0001845	405.32	201.36	0.00015668	0.00018062	199.43	92.515	92.581	49.034	0.00016544	51.815	251.531	259.639	1.467	-12.938	118.839	139.750	-14.374	-8.204	83.434	116.496	-11.090	-7.546	-4.913	-1.741	210.166	-4.926	-8191	255	
3535.969	1	1	0	0	0.21663	0.17166	0.18038	0.090228	0.089475	0.064928	0.33953	0.10987	0.12502	0.27025	0.20674	0.056809	0.035239	0.070266	0.11282	0.20577	-2.6167	-2.0167	-3.0917	-2.6	-2.4333	-3.25	-2.3167	-2.7583	-3.0833	-2.1833	-3.0958	-2.7375	-2.2583	-3.2083	-2.3937	-2.6375	271.221	55.172	159.138	143.315	58.046	278.201	266.529	45.467	323.722	206.634	188.803	187.795	98.662	299.739	258.938	305.060	0.00067337	0.0010798	8.6249e-05	461.34	9.9531e-06	9.8081e-06	373.79	190.74	1.3155e-05	9.5821e-06	183.06	87.187	86.081	46.653	7.2682e-06	49.119	0.0098488	0.016005	0.0044533	634.37	0.00017141	0.00018232	407.47	202.28	0.00015503	0.00017971	200.54	93.055	92.692	48.974	0.00016314	52.064	325.258	123.654	182.330	-12.233	118.393	173.323	-14.844	-7.881	220.115	173.546	-10.921	-7.505	-5.255	-1.529	127.049	-4.911	-8191	255	
3536.089	1	1	0	0	0.20252	0.14667	0.16916	0.089624	0.17771	0.10883	0.2424	0.17493	0.085014	0.05396	0.14756	0.13254	0.20088	0.042737	0.12598	0.0942	-2.8396	-2.2396	-2.9062	-2.7313	-2.1229	-3.1354	-2.4104	-2.5187	-3.1312	-2.2875	-2.9875	-2.9896	-2.4062	-3.2771	-2.4896	-2.6104	333.744	53.527	251.752	-3.706	168.407	20.436	278.499	267.719	132.582	297.892	250.355	295.518	309.101	-6.035	5.769	180.959	0.0004277	0.00056578	1.0651e-05	462.95	8.5699e-06	6.8895e-06	379.07	191.49	1.7664e-05	8.0477e-06	184.92	88.464	86.707	46.874	1.0005e-05	49.464	0.0097088	0.015844	0.0043354	635.01	0.00016637	0.0001744	411.19	203.2	0.00015127	0.00017678	202.38	93.856	92.995	49.125	0.00015834	52.346	310.780	167.808	319.239	-12.374	161.474	143.968	-14.733	-8.027	221.775	244.686	-11.107	-7.288	-4.890	-1.468	181.761	-4.978	-8191	255	
3536.185	1	1	0	0	0.30234	0.12546	0.23344	0.29169	0.45324	0.16295	0.16794	0.090104	0.08732	0.054274	0.18342	0.19228	0.2748	0.31661	0.10361	0.14536	-2.7542	-2.3833	-2.775	-3.0146	-2.1771	-3.1083	-2.5438	-2.5646	-3.3125	-2.4021	-2.7833	-3.0292	-2.2812	-2.9938	-2.5646	-2.5438	191.278	202.233	114.228	30.272	35.018	318.940	289.611	175.811	260.594	87.398	-5.903	21.323	9.969	247.577	144.642	285.214	0.00076196	0.00033878	0.00016117	466.71	4.5208e-06	6.4298e-06	380.43	189.08	1.0467e-05	1.0186e-05	181.68	86.612	85.253	46.586	1.2309e-05	48.841	0.0091792	0.015034	0.00418	629.6	0.00016085	0.00016808	410.16	201.54	0.00014402	0.00017148	198.26	92.442	91.858	48.694	0.00015897	51.623	331.688	163.004	62.186	-13.018	30.772	231.796	-14.717	-7.804	150.332	75.027	-11.165	-7.288	-4.668	-1.550	151.924	-5.185	-8191	255	
3536.280	1	1	0	0	0.13791	0.17209	0.22918	0.11936	0.08648	0.12092	0.082796	0.12921	0.076027	0.19548	0.30655	0.092061	0.33228	0.1086	0.072377	0.25749	-2.9167	-2.3438	-2.6833	-2.9437	-2.2417	-2.9021	-2.7292	-2.2938	-3.2188	-2.3167	-2.6667	-3.2354	-2.2875	-3.1104	-2.6562	-2.3083	254.647	39.813	271.866	161.380	46.346	-12.543	-15.775	247.661	43.096	210.182	305.313	296.669	307.093	-22.410	151.589	146.485	0.0006575	0.00045574	0.00011154	467.77	2.6939e-06	4.0787e-06	374.25	189.21	1.0637e-05	1.4103e-05	180.23	85.954	85.597	46.242	1.0994e-05	49.123	0.0090667	0.015261	0.004141	625.79	0.00016055	0.00016625	405.28	199.83	0.00014247	0.00017313	196.78	91.779	91.6	48.399	0.00015764	51.506	323.842	56.243	322.074	-13.177	185.550	171.489	-14.256	-8.204	39.728	117.187	-11.252	-7.439	-4.616	-1.554	49.911	-4.878	-8191	255	
3536.376	1	1	0	0	0.13233	0.23585	0.29976	0.23686	0.14328	0.28494	0.10964	0.12365	0.1121	0.022747	0.072731	0.14359	0.017692	0.34519	0.052459	0.24373	-2.8312	-2.4479	-2.6437	-3.2083	-2.2292	-3.0271	-2.9813	-2.2521	-3.1396	-2.5229	-2.6625	-3.1854	-2.2583	-3.0021	-2.8167	-2.4	325.252	29.466	301.316	70.238	67.053	252.165	255.221	291.960	-22.760	235.140	12.577	165.346	310.278	294.688	36.892	331.332	0.00059685	0.00041187	0.00033516	468.44	1.175e-05	2.615e-06	374.38	189.19	1.1299e-05	7.4013e-06	183.15	86.886	85.608	46.511	9.5309e-06	49.208	0.008974	0.015318	0.0041972	624.11	0.00016227	0.00016659	405.56	200.36	0.00014198	0.00017353	199.45	92.365	91.964	48.687	0.00015817	51.977	307.479	79.126	94.399	-13.068	102.588	75.028	-14.701	-8.382	183.458	65.586	-11.006	-7.271	-5.191	-1.466	218.736	-5.195	-8191	255	
#DATA ENDS
