BOXY.EXE: ISS Imagent and Oximeter Data Acquisition Program Version 0.80
Ascii Record File

#ACQ INFORMATION
2  Detector Channels 
16  External MUX Channels 
1  Auxiliary Channels 
5000  Waveform (CCF) Frequency (Hz)
1  Waveforms Skipped 
30  Waveforms Averaged 
1  Cycles Averaged 
16  Acquisitions per Waveform 
10.0806  Updata Rate (Hz) 

#FILE INFORMATION
TRUE -- External MUX Channel results are PARSED.
FALSE -- AC DC and Phase are NOT grouped.
TRUE -- Companion Program Settings File CREATED.
FALSE -- AC data not excluded
FALSE -- DC data not excluded
FALSE -- Phase data not excluded
FALSE -- Auxillary Chn. data not excluded
Tab delimiters

#CALIBRATION STATE
TRUE -- Waveform Calibration Values APPLIED.


#AUX CALIBRATION VALUES
Val Type	aux-1	

Term	1.0000e+00	
Factor	0.0000e+00	


#WF CALIBRATION VALUES
A = Detector Channel
Val Type	A-AC1	A-AC2	A-AC3	A-AC4	A-AC5	A-AC6	A-AC7	A-AC8	A-AC9	A-AC10	A-AC11	A-AC12	A-AC13	A-AC14	A-AC15	A-AC16	A-DC1	A-DC2	A-DC3	A-DC4	A-DC5	A-DC6	A-DC7	A-DC8	A-DC9	A-DC10	A-DC11	A-DC12	A-DC13	A-DC14	A-DC15	A-DC16	A-Ph1	A-Ph2	A-Ph3	A-Ph4	A-Ph5	A-Ph6	A-Ph7	A-Ph8	A-Ph9	A-Ph10	A-Ph11	A-Ph12	A-Ph13	A-Ph14	A-Ph15	A-Ph16	

Term	0.00000e+00	0.00000e+00	0.00000e+00	0.00000e+00	0.00000e+00	0.00000e+00	0.00000e+00	0.00000e+00	0.00000e+00	0.00000e+00	0.00000e+00	0.00000e+00	0.00000e+00	0.00000e+00	0.00000e+00	0.00000e+00	0.00000e+00	0.00000e+00	0.00000e+00	0.00000e+00	0.00000e+00	0.00000e+00	0.00000e+00	0.00000e+00	0.00000e+00	0.00000e+00	0.00000e+00	0.00000e+00	0.00000e+00	0.00000e+00	0.00000e+00	0.00000e+00	0.00000e+00	0.00000e+00	0.00000e+00	0.00000e+00	0.00000e+00	0.00000e+00	0.00000e+00	0.00000e+00	0.00000e+00	0.00000e+00	0.00000e+00	0.00000e+00	0.00000e+00	0.00000e+00	0.00000e+00	0.00000e+00	
Factor	1.00000e+00	1.00000e+00	1.00000e+00	1.00000e+00	1.00000e+00	1.00000e+00	1.00000e+00	1.00000e+00	1.00000e+00	1.00000e+00	1.00000e+00	1.00000e+00	1.00000e+00	1.00000e+00	1.00000e+00	1.00000e+00	1.00000e+00	1.00000e+00	1.00000e+00	1.00000e+00	1.00000e+00	1.00000e+00	1.00000e+00	1.00000e+00	1.00000e+00	1.00000e+00	1.00000e+00	1.00000e+00	1.00000e+00	1.00000e+00	1.00000e+00	1.00000e+00	X	X	X	X	X	X	X	X	X	X	X	X	X	X	X	X	

B = Detector Channel
Val Type	B-AC1	B-AC2	B-AC3	B-AC4	B-AC5	B-AC6	B-AC7	B-AC8	B-AC9	B-AC10	B-AC11	B-AC12	B-AC13	B-AC14	B-AC15	B-AC16	B-DC1	B-DC2	B-DC3	B-DC4	B-DC5	B-DC6	B-DC7	B-DC8	B-DC9	B-DC10	B-DC11	B-DC12	B-DC13	B-DC14	B-DC15	B-DC16	B-Ph1	B-Ph2	B-Ph3	B-Ph4	B-Ph5	B-Ph6	B-Ph7	B-Ph8	B-Ph9	B-Ph10	B-Ph11	B-Ph12	B-Ph13	B-Ph14	B-Ph15	B-Ph16	

Term	0.00000e+00	0.00000e+00	0.00000e+00	0.00000e+00	0.00000e+00	0.00000e+00	0.00000e+00	0.00000e+00	0.00000e+00	0.00000e+00	0.00000e+00	0.00000e+00	0.00000e+00	0.00000e+00	0.00000e+00	0.00000e+00	0.00000e+00	0.00000e+00	0.00000e+00	0.00000e+00	0.00000e+00	0.00000e+00	0.00000e+00	0.00000e+00	0.00000e+00	0.00000e+00	0.00000e+00	0.00000e+00	0.00000e+00	0.00000e+00	0.00000e+00	0.00000e+00	4.69297e+01	-1.27678e+02	-1.27972e+02	-1.88002e+02	-6.67894e+01	-6.28409e+01	-1.55213e+02	-1.62015e+02	-4.91738e+01	-6.38444e+01	-1.70390e+02	-1.71563e+02	-1.84555e+02	-1.77043e+02	-6.69105e+01	-1.49382e+02	
Factor	5.93376e-05	1.60034e-04	4.50777e-05	6.62379e-01	1.71948e-06	1.64504e-06	1.55997e-01	5.34235e-02	2.61917e-06	1.72808e-06	8.14009e-02	2.71226e-02	2.83956e-02	8.73549e-03	1.91468e-06	1.24596e-02	1.85792e-05	3.14846e-05	8.89000e-06	3.50234e-01	3.36969e-07	3.58884e-07	7.79026e-02	2.84634e-02	3.00588e-07	3.56692e-07	4.20802e-02	1.39855e-02	1.51021e-02	4.71687e-03	3.22088e-07	6.51153e-03	X	X	X	X	X	X	X	X	X	X	X	X	X	X	X	X	



#DISTANCE SETTINGS
A = Detector Channel
A-1	A-2	A-3	A-4	A-5	A-6	A-7	A-8	A-9	A-10	A-11	A-12	A-13	A-14	A-15	A-16	

2.5000e+00	3.0000e+00	2.5000e+00	3.0000e+00	2.0000e+00	3.0000e+00	1.5000e+00	3.0000e+00	3.0000e+00	3.0000e+00	3.0000e+00	3.0000e+00	3.0000e+00	3.0000e+00	1.5000e+00	3.0000e+00	

B = Detector Channel
B-1	B-2	B-3	B-4	B-5	B-6	B-7	B-8	B-9	B-10	B-11	B-12	B-13	B-14	B-15	B-16	

1.0000e+01	1.0000e+01	1.0000e+01	1.4400e+00	1.0000e+01	1.0000e+01	1.5100e+00	1.9400e+00	1.0000e+01	1.0000e+01	1.9900e+00	2.4900e+00	2.4100e+00	2.9000e+00	1.0000e+01	2.9800e+00	




#DATA BEGINS
time	group	step	mark	flag	A-AC1	A-AC2	A-AC3	A-AC4	A-AC5	A-AC6	A-AC7	A-AC8	A-AC9	A-AC10	A-AC11	A-AC12	A-AC13	A-AC14	A-AC15	A-AC16	A-DC1	A-DC2	A-DC3	A-DC4	A-DC5	A-DC6	A-DC7	A-DC8	A-DC9	A-DC10	A-DC11	A-DC12	A-DC13	A-DC14	A-DC15	A-DC16	A-Ph1	A-Ph2	A-Ph3	A-Ph4	A-Ph5	A-Ph6	A-Ph7	A-Ph8	A-Ph9	A-Ph10	A-Ph11	A-Ph12	A-Ph13	A-Ph14	A-Ph15	A-Ph16	B-AC1	B-AC2	B-AC3	B-AC4	B-AC5	B-AC6	B-AC7	B-AC8	B-AC9	B-AC10	B-AC11	B-AC12	B-AC13	B-AC14	B-AC15	B-AC16	B-DC1	B-DC2	B-DC3	B-DC4	B-DC5	B-DC6	B-DC7	B-DC8	B-DC9	B-DC10	B-DC11	B-DC12	B-DC13	B-DC14	B-DC15	B-DC16	B-Ph1	B-Ph2	B-Ph3	B-Ph4	B-Ph5	B-Ph6	B-Ph7	B-Ph8	B-Ph9	B-Ph10	B-Ph11	B-Ph12	B-Ph13	B-Ph14	B-Ph15	B-Ph16	aux-1	digaux	

3147.100	1	1	0	256	0.2931	0.23731	0.1707	0.16823	0.15866	0.32078	0.32489	0.0023073	0.18851	0.15509	0.10415	0.2877	0.21442	0.16248	0.10451	0.037083	-2.4146	-2.1688	-3.35	-2.5125	-2.6771	-3.2062	-2.5083	-3.2146	-2.7687	-2.4125	-3.2313	-2.6083	-2.7875	-3.1542	-2.3771	-3.1333	49.522	271.821	70.983	304.272	115.506	323.120	289.388	248.545	281.856	145.327	330.370	262.828	312.048	332.101	255.708	160.721	0.00047187	0.00019346	5.3844e-05	1051.6	3.6684e-06	2.7379e-06	1131.5	222.88	5.0332e-06	1.8815e-06	278.99	78.457	61.564	18.05	5.4581e-06	24.872	0.00032359	0.00034758	8.9048e-05	1039.6	3.8169e-06	3.8176e-06	1122.4	221.88	3.7592e-06	3.6331e-06	278.02	79.17	61.983	18.316	3.8583e-06	25.407	311.684	120.524	110.384	16.079	159.684	172.219	15.954	23.625	190.059	171.645	23.128	30.379	30.887	37.920	160.504	37.038	-8191	255	
3147.196	1	1	0	0	0.28314	0.090794	0.22665	0.064716	0.16571	0.31166	0.022419	0.18771	0.16587	0.15182	0.32412	0.15345	0.06706	0.081268	0.11828	0.13737	-2.4375	-2.2833	-3.1312	-2.4313	-2.6729	-3.2604	-2.5	-2.9708	-2.9	-2.2708	-3.4583	-2.6729	-2.7083	-3.375	-2.3458	-3.025	319.063	254.114	286.082	352.884	48.887	271.524	348.710	308.968	314.889	143.476	16.992	286.050	15.461	202.497	301.375	134.421	0.00045145	0.00021654	7.1412e-05	1046	2.7681e-06	1.5277e-06	1132.7	223.2	3.3233e-06	2.4954e-06	278.05	78.602	62.258	17.973	3.8009e-06	24.965	0.00033226	0.00037414	8.5066e-05	1040.2	3.7165e-06	3.1574e-06	1123.5	222.11	3.4962e-06	3.8857e-06	278.04	79.251	62.309	18.239	3.7798e-06	25.44	324.900	106.898	59.743	16.181	167.814	158.946	16.195	23.992	195.813	159.799	23.467	30.505	31.236	37.980	156.933	37.238	-8191	255	
3147.317	1	1	0	0	0.062585	0.14853	0.0027818	0.16605	0.17132	0.16074	0.1029	0.047234	0.11258	0.011001	0.079831	0.23682	0.079291	0.14867	0.11783	0.16233	-2.7729	-2.2583	-3.2875	-2.75	-2.5687	-3.25	-2.6104	-2.775	-3.0542	-2.4375	-3.2021	-2.8229	-2.5563	-3.4021	-2.3542	-2.7875	127.837	230.459	180.000	55.035	183.712	113.392	171.615	299.162	331.721	121.487	243.870	95.534	343.278	318.744	248.401	217.408	0.00052637	0.00031672	7.2608e-05	1050.9	3.0072e-06	1.6652e-06	1127.2	222.53	1.9415e-06	3.4034e-06	277.3	78.068	62.173	17.847	4.8134e-06	25.028	0.00033969	0.00033485	8.9159e-05	1041.2	3.7137e-06	3.5485e-06	1121.7	222.11	3.5958e-06	3.9125e-06	277.41	78.975	62.3	18.253	3.5269e-06	25.377	316.873	80.213	109.932	16.079	143.490	134.535	16.044	23.865	224.202	180.006	23.437	30.418	31.497	37.844	190.035	36.852	-8191	255	
3147.413	1	1	0	0	0.26509	0.1477	0.098303	0.14328	0.17054	0.25052	0.071491	0.11175	0.17552	0.077489	0.28985	0.25394	0.10227	0.06423	0.079115	0.17392	-2.875	-2.3479	-3.1917	-2.7729	-2.3646	-3.3792	-2.7104	-2.7	-3.3396	-2.3271	-3.1562	-3.0354	-2.5729	-3.3667	-2.5708	-2.6896	198.686	332.954	355.165	147.985	347.396	193.608	345.029	355.719	268.296	83.972	207.060	23.710	333.784	299.432	152.238	363.292	0.00050609	0.00027526	4.622e-05	1036.2	2.967e-06	3.3284e-06	1129.5	222.49	5.9439e-06	2.936e-06	277.47	78.572	61.929	17.771	9.0114e-07	24.847	0.0003369	0.00032711	8.5585e-05	1038.8	3.6891e-06	3.224e-06	1120.8	221.64	3.2219e-06	3.7683e-06	277.95	79.027	62.111	18.173	3.551e-06	25.413	318.637	101.947	137.676	16.474	165.556	181.339	16.306	24.043	163.377	157.189	23.635	30.344	31.010	38.074	174.560	36.955	-8191	255	
3147.509	1	1	0	0	0.076798	0.082724	0.27442	0.035995	0.21128	0.15477	0.12771	0.2925	0.38614	0.11145	0.13783	0.14067	0.13063	0.21274	0.021237	0.16463	-3	-2.2958	-2.9188	-2.8771	-2.3167	-3.3375	-2.8271	-2.6875	-3.225	-2.4396	-3.15	-3.1083	-2.4125	-3.4354	-2.7333	-2.5125	24.882	356.880	235.954	202.222	304.459	328.602	322.913	308.315	200.441	325.621	305.121	101.013	297.248	270.880	16.421	32.627	0.00047654	0.00039698	5.8975e-05	1052.3	3.9408e-06	2.3171e-06	1135.6	220.28	6.2668e-06	3.876e-06	276.73	78.732	61.698	17.928	3.3692e-06	24.828	0.00030013	0.00035919	8.6529e-05	1037.4	3.6751e-06	3.538e-06	1121.2	221.43	3.2996e-06	3.5365e-06	277.22	78.9	62.011	18.186	3.7094e-06	25.351	319.478	88.803	73.432	15.906	167.508	186.028	16.127	23.981	202.300	168.674	23.800	30.471	31.187	37.945	172.544	36.902	-8191	255	
3147.606	1	1	0	0	0.13193	0.32433	0.13893	0.17514	0.11074	0.21198	0.18058	0.38285	0.1357	0.28317	0.22171	0.13819	0.16891	0.051119	0.035145	0.19933	-3.0292	-2.3979	-2.6271	-3.1083	-2.3104	-3.2792	-3.0375	-2.5563	-3.3917	-2.3521	-2.8937	-3.0771	-2.2854	-3.0375	-2.8979	-2.3583	12.162	111.966	298.400	316.284	206.735	165.998	302.844	215.932	353.247	85.337	280.397	296.164	233.978	32.219	166.875	216.851	0.00050146	0.00031543	0.00011841	1048.5	3.5016e-06	3.725e-06	1129.4	220.94	4.6148e-06	2.2524e-06	276.43	77.735	61.521	17.873	4.5053e-06	24.859	0.00030393	0.00033459	9.2011e-05	1039.4	3.5466e-06	3.2808e-06	1119.6	221.14	3.2977e-06	3.6576e-06	276.55	78.749	61.947	18.196	3.7027e-06	25.384	315.742	118.742	101.173	15.989	156.114	161.071	16.090	23.756	206.005	128.590	23.250	30.344	30.812	38.097	182.099	37.091	-8191	255	
3147.702	1	1	0	0	0.1795	0.14333	0.074127	0.28131	0.17437	0.13859	0.21587	0.13895	0.12129	0.076571	0.16871	0.11402	0.051466	0.18095	0.11016	0.2006	-2.9604	-2.4458	-2.6125	-3.2438	-2.3125	-3.1813	-3.0646	-2.4479	-3.2208	-2.6354	-2.5646	-3.3146	-2.4146	-2.9958	-2.9	-2.5479	332.418	81.786	342.335	265.860	49.776	121.858	358.883	354.341	85.793	135.902	280.867	358.566	319.213	48.799	211.195	353.198	0.00046335	0.00025317	4.0941e-05	1039.9	2.969e-06	2.2294e-06	1129	221.32	7.1254e-06	3.3108e-06	276.41	78.223	61.712	17.887	4.0745e-06	24.754	0.000316	0.00033072	9.5975e-05	1033.9	3.7053e-06	3.3152e-06	1119	221.54	3.4104e-06	3.8278e-06	277	79.067	61.95	18.233	3.345e-06	25.294	312.027	77.261	94.895	16.146	172.067	163.913	16.174	23.776	195.054	190.677	23.254	30.767	31.009	37.916	168.931	37.410	-8191	255	
3147.798	1	1	0	0	0.11996	0.17538	0.084032	0.086584	0.069965	0.090208	0.34225	0.1178	0.24268	0.16665	0.085664	0.080583	0.12685	0.17071	0.30861	0.1796	-2.8354	-2.525	-2.3708	-3.2687	-2.325	-2.8042	-3.35	-2.3354	-3.0875	-2.6271	-2.5958	-3.3396	-2.4938	-2.8896	-3.1375	-2.4521	76.729	60.345	167.490	361.931	247.644	137.834	321.726	201.949	132.618	266.870	281.129	73.273	335.677	33.462	193.312	141.969	0.00049621	0.00033223	8.6404e-05	1034.2	3.2427e-06	2.6496e-06	1127.3	220.56	5.9527e-06	4.0526e-06	277.01	78.384	61.934	17.934	5.319e-06	24.882	0.00030783	0.00034443	9.466e-05	1032.1	3.8042e-06	3.4191e-06	1119.9	221.19	3.5056e-06	3.5944e-06	277.54	78.939	62.009	18.193	3.5832e-06	25.327	319.904	88.014	111.934	15.797	199.867	172.258	16.161	23.718	188.526	143.959	23.162	30.364	30.673	37.936	145.970	36.987	-8191	255	
3147.917	1	1	0	0	0.091008	0.03639	0.16662	0.065316	0.14481	0.092065	0.13883	0.18821	0.1144	0.21213	0.15751	0.44284	0.19493	0.30936	0.13526	0.13453	-2.8896	-2.8729	-2.5021	-3.2313	-2.4271	-2.8979	-3.3292	-2.5896	-3.1396	-2.9521	-2.4562	-3.3292	-2.5667	-2.5167	-3.2875	-2.4958	68.695	29.064	147.753	358.519	364.022	69.153	259.565	9.621	161.584	321.157	318.266	297.199	51.797	359.550	40.898	339.713	0.00051781	0.00032038	0.00010295	1048	2.9076e-06	2.2472e-06	1129.2	221.22	5.1794e-06	2.1374e-06	277	78.02	61.464	17.705	2.9811e-06	24.776	0.00030931	0.00033164	9.4827e-05	1035.6	3.7446e-06	3.5343e-06	1118.5	220.88	3.2401e-06	3.558e-06	277.14	78.822	61.745	18.19	3.4155e-06	25.265	322.906	80.670	104.167	16.455	155.677	148.906	16.165	23.961	206.224	142.850	23.155	30.680	30.983	38.259	170.298	37.476	-8191	255	
3148.013	1	1	0	0	0.14811	0.15426	0.0903	0.13426	0.13909	0.14943	0.16198	0.32122	0.046846	0.22154	0.1952	0.13408	0.15213	0.18754	0.071522	0.046164	-2.6646	-2.9646	-2.4125	-3.2875	-2.5917	-2.5646	-3.35	-2.6042	-2.9396	-2.9771	-2.4958	-3.1854	-2.6312	-2.4813	-3.2229	-2.3542	58.178	345.881	266.720	181.513	194.065	135.061	318.374	221.017	106.230	350.211	119.753	78.631	355.006	345.362	216.202	261.227	0.00047746	0.00029034	7.8153e-05	1047.3	1.5048e-06	1.2062e-06	1129.2	222.04	5.0545e-06	2.0539e-06	276.02	77.824	61.488	17.969	2.9473e-06	24.441	0.00032154	0.00032436	9.5512e-05	1036.8	3.6968e-06	3.63e-06	1118.6	220.81	3.3102e-06	3.4005e-06	276.5	78.83	61.962	18.255	3.2169e-06	25.222	318.984	82.225	108.581	16.330	174.571	221.461	16.423	23.722	169.203	144.855	23.732	30.670	31.243	37.908	144.986	36.620	-8191	255	
3148.109	1	1	0	0	0.098221	0.27292	0.17156	0.054317	0.11796	0.18666	0.27684	0.068204	0.10442	0.18756	0.23445	0.11635	0.17671	0.16669	0.12428	0.084439	-2.6292	-2.9917	-2.1458	-3.1917	-2.7021	-2.5104	-3.4708	-2.5479	-2.9042	-3.1292	-2.4146	-3.3396	-2.9375	-2.4375	-3.2396	-2.7083	138.749	53.681	245.131	300.249	50.640	324.918	264.731	314.434	347.701	212.265	85.356	60.716	208.023	111.897	177.452	248.062	0.00046161	0.00034523	0.00011718	1049.6	3.1202e-06	2.4214e-06	1128.8	220.95	5.1904e-06	1.9986e-06	276.61	78.716	61.259	17.843	1.4909e-06	24.793	0.00030269	0.00032455	9.6216e-05	1035.7	3.8056e-06	3.7167e-06	1118.5	220.92	3.5526e-06	3.4101e-06	277.07	79.016	61.853	18.179	3.3665e-06	25.241	323.172	92.850	79.734	15.941	146.031	182.944	16.217	23.507	215.597	171.626	23.407	30.408	30.684	37.753	182.148	37.298	-8191	255	
3148.181	1	1	0	0	0.044108	0.12984	0.09978	0.24869	0.12707	0.22794	0.28169	0.10767	0.168	0.14359	0.1821	0.24414	0.085491	0.051386	0.28362	0.063581	-2.2979	-3.1896	-2.15	-3.1312	-2.9	-2.4792	-3.4771	-2.5417	-2.6583	-3.0729	-2.2562	-3.1604	-3.0479	-2.4521	-3.2521	-2.6667	49.556	211.409	126.497	289.767	50.232	280.109	255.849	11.093	34.955	280.553	170.799	346.560	55.984	134.490	33.695	146.202	0.00047928	0.00026215	0.00011705	1036.8	2.6564e-06	3.0245e-06	1129.1	222.34	3.8563e-06	1.9567e-06	277.31	78.144	61.519	17.927	3.4476e-06	24.779	0.00030791	0.00029405	9.9809e-05	1033.3	3.4729e-06	3.8939e-06	1118.3	220.82	3.5914e-06	3.2325e-06	276.14	78.794	61.708	18.175	3.2189e-06	25.278	323.367	93.273	114.697	16.117	143.537	152.002	16.269	23.928	181.747	137.103	23.506	30.591	31.064	37.922	148.773	36.875	-8191	255	
3148.301	1	1	0	0	0.30419	0.080157	0.046528	0.15006	0.094622	0.053349	0.22363	0.25095	0.15203	0.15468	0.074652	0.061481	0.26262	0.19049	0.11906	0.089349	-2.1896	-2.9979	-2.2687	-3.0333	-3.0542	-2.3	-3.3875	-2.7208	-2.4333	-3.2562	-2.4021	-2.8729	-3.0875	-2.2042	-2.9958	-2.8458	107.982	122.893	188.255	224.816	21.845	337.015	309.918	278.918	58.905	32.859	27.539	181.404	295.366	15.993	49.952	106.663	0.00052439	0.00039447	4.7383e-05	1040.7	2.6948e-06	3.899e-06	1124	221.02	6.5567e-06	3.693e-06	275.43	78.074	61.848	17.792	3.8397e-06	24.661	0.00033253	0.00030481	8.8715e-05	1031.7	3.336e-06	3.6277e-06	1114.4	220.57	3.4806e-06	3.1515e-06	275.51	78.703	61.89	18.129	3.3933e-06	25.215	320.535	90.465	84.788	15.641	137.687	159.405	16.101	24.046	190.858	142.015	23.079	30.417	31.026	37.553	161.467	36.886	-8191	255	
3148.397	1	1	0	0	0.087667	0.13476	0.12468	0.13586	0.14983	0.15257	0.44487	0.18234	0.17488	0.078246	0.053827	0.37305	0.079497	0.11675	0.23452	0.16892	-1.9562	-3.3063	-2.2896	-2.8854	-3.1562	-2.3167	-3.3	-2.9792	-2.4562	-3.3417	-2.3167	-2.7667	-3.2562	-2.3833	-3.2292	-2.9479	70.933	55.777	212.039	298.799	63.716	6.834	263.352	332.917	339.401	223.180	336.446	273.384	27.429	111.222	127.374	51.109	0.00041787	0.00040404	0.0001058	1044.1	4.0983e-06	2.178e-06	1128.5	220.52	2.3568e-06	2.4393e-06	276.48	78.145	61.871	17.889	2.1657e-06	24.8	0.00031964	0.00030553	9.1437e-05	1030.7	3.3718e-06	3.5687e-06	1117	220.28	3.4799e-06	3.1679e-06	276.18	78.772	62.102	18.128	3.1464e-06	25.252	321.945	108.380	100.689	16.216	156.479	164.183	16.158	23.827	162.878	179.834	23.256	30.665	31.176	37.955	158.811	36.790	-8191	255	
3148.494	1	1	0	0	0.11538	0.042543	0.27034	0.094243	0.033528	0.22354	0.23856	0.072538	0.1801	0.30811	0.2212	0.11861	0.17278	0.2816	0.10893	0.066067	-1.975	-3.2833	-2.4562	-2.5125	-3.2396	-2.2542	-3.1979	-3.1688	-2.3417	-3.2271	-2.7333	-2.5125	-3.3771	-2.2708	-2.8646	-3.1792	320.438	183.972	109.277	134.595	58.891	226.985	289.670	54.444	79.731	161.344	261.799	67.197	297.684	265.047	308.501	318.778	0.00049106	0.00040201	6.1711e-05	1041.4	3.0912e-06	2.5482e-06	1125.1	220.63	4.4991e-06	2.2135e-06	275.54	77.95	61.708	17.91	3.6342e-06	24.785	0.00032285	0.00031281	8.677e-05	1030.8	3.3255e-06	3.9687e-06	1116.7	220.58	3.6045e-06	3.4547e-06	275.64	78.659	61.844	18.153	3.3142e-06	25.268	323.512	99.768	111.679	16.456	171.954	153.534	16.549	23.946	217.586	185.773	23.182	30.871	30.928	37.840	163.039	36.698	-8191	255	
3148.590	1	1	0	0	0.30489	0.012969	0.095578	0.064164	0.4141	0.22724	0.19445	0.18253	0.23886	0.11587	0.26229	0.1743	0.15473	0.29678	0.052103	0.34676	-1.8542	-3.3333	-2.6958	-2.2417	-3.3646	-2.3521	-2.9167	-3.2833	-2.1188	-3.2729	-2.8375	-2.6625	-3.2104	-2.6312	-2.8604	-3.1667	291.906	176.531	165.923	136.294	102.450	322.162	269.955	320.608	212.133	332.000	340.878	174.483	302.515	292.926	12.734	241.610	0.00047735	0.00027186	9.2058e-05	1044.2	2.8247e-06	2.6667e-06	1123.7	220.45	4.6111e-06	2.6445e-06	275.4	78.316	61.497	17.67	3.4546e-06	24.522	0.00032038	0.00028664	8.7807e-05	1030.6	3.383e-06	3.5873e-06	1116.2	220.3	3.7667e-06	3.4406e-06	275.86	78.743	61.518	18.098	3.5181e-06	25.189	319.890	111.351	101.922	16.211	169.731	176.076	16.324	23.789	185.701	171.298	23.392	30.865	30.807	37.961	169.381	36.538	-8191	255	
3148.686	1	1	0	0	0.20574	0.10085	0.13996	0.18315	0.1701	0.25422	0.14502	0.13963	0.13632	0.12233	0.16137	0.29832	0.34066	0.18018	0.11745	0.079845	-1.9062	-3.1979	-2.7521	-2.5438	-3.3312	-2.6125	-2.9854	-3.3167	-2.275	-3.2354	-3.1167	-2.5125	-3.2667	-2.4979	-2.5771	-3.2021	187.263	121.609	257.105	45.071	122.498	181.824	261.364	237.657	63.818	84.395	14.694	336.719	354.465	311.308	172.411	314.356	0.00042628	0.00026505	4.0191e-05	1044.4	2.9638e-06	2.8049e-06	1124	220.86	3.1404e-06	3.0515e-06	274.71	78.306	61.471	17.747	3.5341e-06	24.661	0.00031554	0.00029261	8.6603e-05	1031.2	3.3058e-06	3.6531e-06	1114.4	220.62	3.6377e-06	3.4896e-06	275.71	78.567	61.87	18.106	3.6215e-06	25.196	322.792	99.263	63.921	16.392	163.477	168.111	16.219	23.946	163.547	172.586	23.212	30.590	31.126	37.864	139.589	36.674	-8191	255	
3148.805	1	1	0	0	0.2247	0.13663	0.20182	0.16997	0.048989	0.21844	0.17112	0.16236	0.20966	0.071276	0.15708	0.26059	0.10974	0.32063	0.1294	0.18906	-1.8354	-2.9792	-3.0938	-2.2646	-3.3021	-2.6958	-2.5563	-3.3833	-2.475	-2.9729	-3.0563	-2.2854	-3.3083	-2.7208	-2.4604	-3.3708	228.912	239.004	56.888	78.104	236.737	277.276	116.532	262.741	71.466	142.727	27.443	359.269	343.393	32.948	188.088	299.216	0.00054019	0.00024279	0.00010671	1039	1.8436e-06	3.0349e-06	1126.3	219.61	5.2746e-06	1.6528e-06	275.42	78.059	61.792	17.816	3.4746e-06	24.749	0.00033795	0.00032534	9.2086e-05	1030.7	3.3556e-06	3.7758e-06	1115	220.4	3.6133e-06	3.24e-06	275.47	78.54	61.86	18.117	3.6731e-06	25.155	314.630	101.481	94.941	16.251	155.987	176.099	16.275	23.922	187.532	159.306	23.317	30.264	31.151	37.352	155.533	36.866	-8191	255	
3148.878	1	1	0	0	0.21327	0.21282	0.15217	0.25747	0.1869	0.1785	0.12968	0.059231	0.020631	0.15732	0.13457	0.23012	0.052704	0.10945	0.11289	0.082586	-1.9604	-2.9708	-3.1063	-2.1937	-3.1792	-2.8042	-2.5208	-3.4292	-2.3375	-2.7292	-3.3708	-2.2896	-3.1625	-2.7562	-2.2958	-3.2875	203.172	157.566	18.395	131.862	26.688	178.875	6.092	86.683	270.818	185.408	363.307	76.046	363.404	139.268	210.483	252.679	0.00043041	0.00036654	0.00011499	1039.7	2.5098e-06	1.4176e-06	1127.2	220.38	2.2378e-06	1.3526e-06	275.73	77.677	61.52	17.751	4.2208e-06	24.606	0.00032142	0.00032285	9.2271e-05	1031.5	3.1984e-06	3.4767e-06	1114.5	220.18	3.5526e-06	3.1552e-06	276	78.37	61.745	18.068	3.7047e-06	25.224	317.546	116.373	87.522	16.455	187.764	194.971	16.146	23.650	155.737	156.087	23.301	30.352	31.202	38.072	145.978	36.683	-8191	255	
3148.997	1	1	0	0	0.077843	0.12686	0.23887	0.19515	0.051029	0.13592	0.073417	0.22717	0.076911	0.16531	0.2179	0.31199	0.088863	0.1428	0.22942	0.15244	-1.8479	-2.6396	-3.3312	-2.325	-2.9458	-2.9	-2.5438	-3.2979	-2.6271	-2.6354	-3.2812	-2.3979	-3.0083	-3.0812	-2.3063	-3.4313	244.734	160.461	335.541	355.518	69.353	237.807	263.403	337.117	116.940	116.584	8.972	339.387	284.690	32.716	292.036	107.068	0.00045339	0.00022399	0.00010318	1038.1	3.1749e-06	2.952e-06	1124.1	220.39	4.5427e-06	3.1106e-06	275.42	78.279	61.418	17.912	4.8135e-06	24.921	0.00034519	0.00032291	8.7863e-05	1029.4	3.395e-06	3.473e-06	1115.4	220.2	3.4674e-06	3.6056e-06	275.22	78.686	61.759	18.105	3.5215e-06	25.253	314.775	84.900	95.424	16.289	179.082	158.429	16.429	23.749	176.545	157.635	23.280	30.343	31.234	38.007	186.074	36.702	-8191	255	
3149.093	1	1	0	0	0.13001	0.042889	0.07334	0.14625	0.19006	0.1852	0.20609	0.10037	0.11557	0.072788	0.07118	0.24813	0.024051	0.15646	0.24004	0.16009	-2.2979	-2.6562	-3.3333	-2.4833	-2.925	-3.1583	-2.6708	-3.2979	-2.9229	-2.4708	-3.4646	-2.5062	-2.9062	-3.1917	-2.4813	-3.3125	304.990	29.138	364.204	84.662	66.845	16.062	279.304	341.246	49.844	161.989	38.607	36.179	123.149	11.218	44.184	27.545	0.00047407	0.00027334	0.00010554	1033.6	2.7349e-06	3.4271e-06	1125.7	220.91	5.4056e-06	4.0748e-06	275.73	78.376	61.38	17.748	3.998e-06	24.704	0.00032951	0.00032705	8.1862e-05	1027.6	3.4631e-06	3.4229e-06	1113.7	220.28	3.5726e-06	3.6509e-06	275.55	78.598	61.734	18.078	3.7517e-06	25.181	323.387	78.478	104.180	16.282	158.439	171.059	16.218	24.082	195.590	149.102	23.347	30.562	31.370	37.923	158.861	37.097	-8191	255	
3149.189	1	1	0	0	0.21029	0.12491	0.2323	0.16544	0.19333	0.082134	0.1792	0.2635	0.27022	0.073591	0.077882	0.098326	0.16756	0.15868	0.063581	0.15597	-2.4938	-2.2604	-3.375	-2.5438	-2.8312	-3.2271	-2.2542	-3.3667	-2.9437	-2.3771	-3.3708	-2.7562	-2.8063	-3.3812	-2.5125	-3.0292	22.388	270.972	312.657	232.506	190.598	187.248	248.130	299.909	324.309	31.265	301.094	360.819	113.435	298.709	70.693	81.142	0.00043697	0.00016726	0.00011604	1052.4	2.8308e-06	1.6843e-06	1130.3	220.5	5.3324e-06	3.906e-06	275.06	77.875	61.838	17.812	4.3041e-06	24.872	0.00031952	0.00031071	8.853e-05	1036.3	3.4799e-06	3.4296e-06	1115.9	220.39	3.5883e-06	3.5045e-06	275.66	78.531	61.87	18.101	3.7671e-06	25.325	312.351	123.404	118.066	15.910	156.068	153.768	16.262	24.081	198.649	150.737	23.356	30.350	31.075	37.686	173.610	37.282	-8191	255	
3149.286	1	1	0	0	0.28304	0.26712	0.22983	0.094559	0.066187	0.18074	0.39305	0.24167	0.16029	0.19435	0.2251	0.10166	0.22363	0.047973	0.10575	0.072906	-2.4688	-2.3479	-3.0917	-2.5417	-2.7271	-3.1188	-2.5729	-3.1	-3.0104	-2.4437	-3.1667	-2.7542	-2.6312	-3.3958	-2.2875	-3.1021	180.531	309.108	128.242	358.313	200.272	23.264	305.947	361.547	65.349	7.639	11.971	351.908	256.725	208.290	321.857	252.808	0.0004974	0.00031476	6.7288e-05	1035.9	4.1853e-06	3.3855e-06	1123.4	220.52	2.0151e-06	2.8126e-06	275.54	78.407	61.743	17.823	4.7766e-06	24.634	0.00032967	0.00032829	8.3344e-05	1028.1	3.6484e-06	3.3982e-06	1113.8	220.22	3.3628e-06	3.6435e-06	275.87	78.685	61.876	18.095	3.3786e-06	25.277	316.989	96.112	80.462	15.717	170.944	126.263	16.286	24.205	235.201	148.137	23.145	30.570	30.699	37.133	174.877	37.598	-8191	255	
3149.406	1	1	0	0	0.16227	0.17976	0.096981	0.33816	0.29487	0.1649	0.19686	0.1834	0.083488	0.055687	0.24429	0.33095	0.18807	0.24033	0.13116	0.091677	-2.8583	-2.2062	-3.0542	-2.6979	-2.4813	-3.3604	-2.4938	-2.9271	-3.1063	-2.3292	-3.1708	-2.7167	-2.6104	-3.3729	-2.4271	-2.7313	91.174	134.443	354.232	327.914	268.725	243.638	273.649	14.619	304.869	25.504	344.686	318.495	322.943	275.891	115.231	307.363	0.00046201	0.00027822	9.5609e-05	1033.7	4.8914e-06	2.9296e-06	1120.9	219.9	4.4078e-06	1.7673e-06	275.75	77.426	61.569	17.691	2.3667e-06	24.888	0.00030067	0.00033636	9.0567e-05	1027.8	3.6372e-06	3.298e-06	1112.3	220.3	3.4148e-06	3.4651e-06	275.32	78.331	61.689	18.086	3.5899e-06	25.291	316.329	90.509	109.303	15.987	165.282	157.227	16.148	23.675	213.044	150.743	23.568	30.674	30.916	37.993	151.737	37.047	-8191	255	
3149.478	1	1	0	0	0.27431	0.058285	0.063486	0.2595	0.18029	0.20224	0.10962	0.081914	0.11691	0.14289	0.16512	0.12959	0.090787	0.095566	0.13864	0.10563	-2.9208	-2.3354	-3.0396	-2.8458	-2.3208	-3.3354	-2.6813	-2.7583	-3.2375	-2.5583	-3.1312	-3.0667	-2.4792	-3.1417	-2.6146	-2.5979	201.192	351.792	139.167	8.905	7.037	360.261	352.964	287.404	106.085	87.276	68.450	62.493	37.583	80.047	77.053	257.170	0.00049297	0.00033323	8.0738e-05	1047	3.2513e-06	3.633e-06	1121.3	221.04	5.5762e-06	2.875e-06	274.54	77.99	61.183	17.673	3.1384e-06	24.693	0.0003155	0.00034102	8.4548e-05	1029.9	3.6189e-06	3.2075e-06	1112.2	220.34	3.2539e-06	3.7356e-06	275.45	78.507	61.683	18.119	3.4873e-06	25.215	318.229	121.873	85.040	15.993	144.721	163.372	16.132	23.881	191.737	170.120	23.541	30.411	31.331	38.100	142.226	36.820	-8191	255	
3149.598	1	1	0	0	0.12818	0.29616	0.11521	0.14023	0.060245	0.1138	0.13662	0.18799	0.13846	0.094308	0.30613	0.26564	0.18375	0.21431	0.080947	0.15904	-2.9792	-2.2896	-2.8208	-2.9958	-2.4229	-3.2042	-2.8771	-2.5333	-3.3563	-2.4458	-2.9479	-3.2313	-2.2521	-3.3042	-2.7687	-2.5646	314.564	318.522	143.811	137.946	258.544	164.909	303.688	165.205	229.195	340.095	306.659	273.348	341.465	85.526	316.515	292.547	0.00048007	0.000267	9.6402e-05	1036.9	2.7836e-06	2.9713e-06	1121.3	219.89	4.7501e-06	2.1087e-06	276.43	78.355	61.122	17.768	3.8227e-06	24.708	0.00031345	0.00030816	8.0584e-05	1028.1	3.4588e-06	3.4042e-06	1111.2	219.69	3.366e-06	3.7044e-06	276.15	78.738	61.58	18.121	3.4437e-06	25.233	320.744	84.563	97.517	15.901	167.931	178.206	16.159	23.764	206.845	165.454	23.448	30.666	30.766	38.136	160.591	37.581	-8191	255	
3149.695	1	1	0	0	0.10596	0.14564	0.13254	0.36102	0.17733	0.17111	0.244	0.14519	0.13489	0.14424	0.16156	0.21714	0.11644	0.41694	0.065056	0.14099	-2.8771	-2.6979	-2.8417	-3.1312	-2.1958	-3.1688	-2.9521	-2.5229	-3.2438	-2.4313	-2.8583	-3.3792	-2.3896	-3.0875	-2.7979	-2.3542	132.132	64.308	187.235	332.698	184.621	315.125	262.834	342.258	237.076	190.340	264.555	338.172	351.708	249.122	333.279	299.828	0.00052285	0.00038172	4.8945e-05	1027.6	3.4252e-06	3.5208e-06	1122.5	220.33	4.3948e-06	3.6545e-06	275.03	77.973	61.572	17.836	2.6562e-06	24.742	0.00030226	0.00033761	8.201e-05	1029.2	3.4757e-06	3.1223e-06	1112.3	219.77	3.2457e-06	3.4688e-06	275.91	78.506	61.702	18.071	3.1531e-06	25.266	316.446	95.120	62.931	15.687	138.683	135.712	16.094	23.714	205.427	195.810	23.404	30.578	30.990	37.870	167.441	37.305	-8191	255	
3149.789	1	1	0	0	0.066799	0.18394	0.10089	0.17403	0.17724	0.18994	0.23187	0.14934	0.14236	0.18414	0.21775	0.13975	0.19008	0.47825	0.15434	0.24726	-2.8708	-2.575	-2.4292	-3.25	-2.3625	-2.9938	-3.1188	-2.4708	-3.3021	-2.5812	-2.7729	-3.2896	-2.3146	-3.0604	-3.0042	-2.425	86.938	258.249	285.411	351.218	326.870	264.365	307.741	349.934	114.843	112.002	234.913	275.879	94.140	293.078	200.048	18.725	0.00046393	0.00038398	5.949e-05	1044.8	2.6485e-06	2.8444e-06	1124.3	219.2	5.2147e-06	2.4851e-06	274.31	78.088	61.555	17.717	3.2439e-06	24.58	0.00030137	0.00032154	8.2381e-05	1034.3	3.4195e-06	3.1851e-06	1114.1	219.74	3.0647e-06	3.5067e-06	275.79	78.564	61.826	18.095	3.1739e-06	25.204	317.991	94.133	105.332	15.962	162.100	168.341	16.373	24.149	204.120	164.171	23.331	30.646	30.895	37.719	167.515	37.223	-8191	255	
3149.885	1	1	0	0	0.22899	0.20207	0.31419	0.077793	0.14046	0.13227	0.13389	0.035879	0.096775	0.081577	0.11788	0.23747	0.22152	0.17097	0.1485	0.11887	-2.7271	-2.7062	-2.2521	-3.1771	-2.3521	-2.8125	-3.1396	-2.4062	-3.1229	-2.8729	-2.5854	-3.4562	-2.4938	-2.9646	-3.25	-2.4583	240.936	33.696	301.365	289.509	102.040	41.417	253.421	200.480	136.214	187.029	20.981	40.802	282.990	323.644	87.469	129.007	0.00044446	0.000254	0.00012112	1037.4	4.3311e-06	3.6929e-06	1120.9	220.36	4.8507e-06	3.1827e-06	273.75	78.27	61.619	17.947	4.2818e-06	24.736	0.00029742	0.00030776	8.6659e-05	1029.7	3.7305e-06	3.4288e-06	1111.6	219.83	3.1862e-06	3.3849e-06	275.24	78.684	61.683	18.173	3.2846e-06	25.213	323.062	110.763	96.925	16.265	153.286	162.032	16.229	23.676	177.012	160.856	23.774	30.930	30.841	38.040	149.015	36.813	-8191	255	
3150.006	1	1	0	0	0.10192	0.20216	0.16351	0.33447	0.12178	0.054987	0.34281	0.043954	0.10857	0.2722	0.32014	0.23417	0.15749	0.1219	0.10283	0.29029	-2.9458	-2.9188	-2.3438	-3.3542	-2.6958	-2.8708	-3.2687	-2.3896	-2.8396	-2.8458	-2.4417	-3.2521	-2.4958	-2.7438	-3.1146	-2.4708	23.155	94.509	189.911	77.249	193.660	284.179	111.596	149.946	273.050	257.453	320.791	304.373	41.470	22.667	121.143	266.351	0.00051799	0.00030096	7.8107e-05	1045.6	2.6585e-06	2.2584e-06	1121	219.35	4.3319e-06	3.9276e-06	275.45	78.252	61.247	17.848	2.7264e-06	24.713	0.00030718	0.00029628	8.5955e-05	1030.7	3.2181e-06	3.2644e-06	1111.4	219.56	3.1875e-06	3.3291e-06	275.99	78.717	61.531	18.119	3.0994e-06	25.206	321.046	77.418	99.742	16.591	142.503	145.328	16.302	23.855	221.938	163.618	22.995	30.843	31.079	37.444	194.946	36.924	-8191	255	
3150.102	1	1	0	0	0.25758	0.15065	0.2588	0.05557	0.028967	0.22537	0.12366	0.07266	0.26285	0.19413	0.13539	0.14644	0.055976	0.2857	0.18534	0.13455	-2.7479	-2.7792	-2.3563	-3.2604	-2.6021	-2.4042	-3.3729	-2.3521	-2.825	-3.1375	-2.4271	-3.375	-2.6646	-2.5208	-3.2687	-2.4875	306.300	350.446	116.413	154.796	81.611	216.167	313.798	356.718	201.487	353.541	321.633	268.937	310.814	318.998	45.193	295.881	0.00042002	0.00041622	4.5632e-05	1047.6	3.4698e-06	2.7958e-06	1126.6	219.63	5.2118e-06	2.1269e-06	275.04	78.103	61.103	17.788	3.8216e-06	24.674	0.00029351	0.00030015	8.6807e-05	1032.9	3.647e-06	3.544e-06	1115.2	219.91	3.2031e-06	3.0958e-06	275.06	78.57	61.664	18.116	3.3175e-06	25.187	318.446	113.375	69.790	16.425	181.129	145.525	16.013	24.002	188.591	138.972	23.230	30.385	30.877	37.615	163.261	36.924	-8191	255	
3150.174	1	1	0	0	0.21415	0.17157	0.23073	0.074397	0.039517	0.18319	0.27444	0.19497	0.13911	0.046202	0.1929	0.041998	0.21573	0.21224	0.1284	0.11471	-2.4708	-3.1	-2.3563	-3.1583	-2.6667	-2.2271	-3.3979	-2.4479	-2.9229	-3.1354	-2.5042	-3.2604	-2.9229	-2.3771	-3.3646	-2.6417	363.231	229.101	75.700	351.097	364.841	54.213	329.667	276.828	185.559	202.082	336.514	247.783	341.614	133.012	329.956	331.780	0.00042984	0.00030574	2.0127e-05	1041.2	3.0647e-06	2.6335e-06	1128.1	220.18	2.9198e-06	1.9329e-06	275.57	78.312	61.616	17.778	3.5646e-06	24.811	0.00032529	0.0003178	8.7381e-05	1031.4	3.1991e-06	3.3339e-06	1116.6	220.15	3.2326e-06	3.1538e-06	275.14	78.754	61.777	18.129	3.0531e-06	25.185	310.375	88.651	95.539	15.831	168.977	153.405	16.265	23.867	206.252	164.946	23.422	31.029	31.092	38.482	159.092	37.108	-8191	255	
3150.270	1	1	0	0	0.18364	0.081676	0.11271	0.11313	0.17973	0.19854	0.21789	0.17366	0.31219	0.26223	0.35642	0.067862	0.16461	0.27513	0.05071	0.3725	-2.3021	-3.1521	-2.4396	-3.1333	-3.0167	-2.5062	-3.5583	-2.8146	-2.5229	-3.2896	-2.525	-3.0833	-2.9958	-2.2875	-3.2958	-2.6896	277.800	171.491	236.368	59.478	114.603	147.093	302.931	330.951	186.250	87.063	58.406	127.555	134.355	333.379	138.352	241.068	0.00049117	0.00031858	9.1409e-05	1039	3.3844e-06	3.9966e-06	1129.9	219.94	3.5449e-06	3.2355e-06	275.92	78.153	61.372	17.813	2.5721e-06	24.848	0.00030234	0.00028887	8.7159e-05	1030.7	3.3746e-06	3.6688e-06	1115.5	219.88	3.3578e-06	3.127e-06	275.72	78.695	61.762	18.14	2.9578e-06	25.249	318.359	111.422	104.484	16.672	135.255	181.510	16.343	23.780	194.235	153.204	23.425	30.965	31.542	37.748	162.742	36.777	-8191	255	
3150.366	1	1	0	0	0.33718	0.19501	0.068804	0.070859	0.065817	0.028158	0.25308	0.093291	0.053482	0.15329	0.010213	0.053058	0.11947	0.111	0.25404	0.13126	-2.0792	-3.3354	-2.3688	-2.9521	-3.0187	-2.2354	-3.4646	-2.6917	-2.4146	-3.3521	-2.6229	-2.8792	-3.1146	-2.2771	-3.2146	-2.8771	176.621	109.083	31.873	65.645	290.243	260.357	362.404	25.763	273.501	346.388	268.739	327.383	54.161	165.822	342.640	347.928	0.00048822	0.00032028	0.00010594	1037.9	2.7097e-06	3.6859e-06	1123.3	220.34	2.1546e-06	2.0071e-06	276.44	78.086	61.681	17.945	4.3628e-06	24.613	0.00031589	0.00027647	8.5955e-05	1030	3.244e-06	3.4737e-06	1114.8	219.86	3.4154e-06	2.8766e-06	275.75	78.615	61.777	18.136	3.1337e-06	25.156	319.427	71.929	99.803	16.030	158.865	168.318	16.407	23.710	215.493	136.375	23.200	30.673	30.998	38.050	168.138	36.856	-8191	255	
3150.487	1	1	0	0	0.2155	0.11896	0.264	0.18719	0.098077	0.021567	0.37343	0.12657	0.30412	0.13648	0.19867	0.24917	0.14815	0.17778	0.18853	0.035397	-2.0833	-3.2625	-2.6	-2.8563	-3.3583	-2.4333	-3.3708	-3.1417	-2.2583	-3.2979	-2.6667	-2.6646	-3.3104	-2.3042	-2.9896	-2.9896	79.830	233.009	16.995	38.117	64.457	81.259	310.272	255.827	128.891	37.587	354.933	333.751	278.409	17.160	266.076	362.052	0.00041455	0.00032787	9.7588e-05	1053.1	2.4381e-06	2.5481e-06	1124.4	220.27	4.752e-06	2.712e-06	275.38	78.021	61.266	17.773	4.2061e-06	24.809	0.00032324	0.00028343	8.577e-05	1033.9	3.1184e-06	3.701e-06	1114	220.32	3.5626e-06	3.0579e-06	275.71	78.604	61.68	18.116	3.1652e-06	25.219	322.116	122.395	86.821	16.247	142.857	137.393	16.146	24.138	215.230	146.585	23.422	30.818	30.688	38.241	167.033	36.720	-8191	255	
3150.583	1	1	0	0	0.18348	0.20789	0.21542	0.042845	0.11864	0.10024	0.45645	0.14705	0.28552	0.044746	0.10253	0.10002	0.065965	0.071891	0.044409	0.22619	-2.0667	-3.3229	-2.5646	-2.6646	-3.2708	-2.4292	-3.2479	-3.1354	-2.3542	-3.3125	-2.7938	-2.6917	-3.4021	-2.3979	-3.1229	-3.1854	292.823	268.304	142.915	170.263	231.388	39.166	321.712	78.121	255.506	35.852	7.364	320.657	110.804	131.038	176.468	286.266	0.00049271	0.00028958	6.2047e-05	1041.1	2.3336e-06	2.0447e-06	1130.6	220.24	6.1683e-06	3.0707e-06	275.54	78.016	61.51	17.835	3.4649e-06	24.717	0.00032444	0.00028979	8.4825e-05	1031.3	3.2054e-06	3.7249e-06	1117.9	220.01	3.7029e-06	3.1292e-06	275.53	78.728	61.84	18.173	3.4309e-06	25.269	314.995	95.897	108.834	16.025	179.417	121.560	16.471	23.802	186.067	179.814	23.352	30.304	31.233	38.114	163.441	37.106	-8191	255	
3150.679	1	1	0	0	0.12395	0.28465	0.056602	0.12414	0.077733	0.077783	0.083099	0.20321	0.20698	0.29657	0.24944	0.2207	0.15203	0.14749	0.11837	0.25389	-2.0062	-3.0646	-2.5333	-2.6063	-3.2562	-2.3312	-2.9229	-3.1458	-2.4562	-3.0771	-2.7104	-2.3458	-3.3438	-2.3937	-2.5812	-3.1937	124.638	317.328	29.616	261.646	43.524	132.991	320.398	331.106	269.418	229.795	365.381	347.238	171.227	117.474	141.510	262.236	0.00048509	0.00010234	9.8744e-05	1037.4	3.031e-06	2.7174e-06	1129.4	220.55	3.0583e-06	1.8304e-06	275.69	77.945	61.425	17.771	3.8865e-06	24.71	0.00031887	0.00028684	8.8307e-05	1033.3	3.2524e-06	3.6419e-06	1119.1	220.45	3.5175e-06	3.2734e-06	275.94	78.608	61.956	18.086	3.3799e-06	25.204	318.043	86.042	99.747	15.853	167.029	119.470	16.382	23.711	185.465	159.324	23.153	30.443	31.175	37.595	166.295	36.862	-8191	255	
3150.775	1	1	0	0	0.11361	0.036315	0.23299	0.29166	0.15177	0.3321	0.28929	0.092135	0.27349	0.35346	0.36316	0.10116	0.10821	0.042982	0.0037114	0.27219	-2.0333	-3.1917	-2.9188	-2.4688	-3.2146	-2.6771	-3.0625	-3.2542	-2.3667	-3.1188	-3.0292	-2.35	-3.2667	-2.5083	-2.6021	-3.3104	73.489	92.129	107.979	9.449	128.899	98.040	314.676	351.902	344.833	56.155	356.056	353.712	274.292	327.013	297.464	38.882	0.00047715	0.00027812	8.5286e-05	1033.7	3.6009e-06	1.9265e-06	1131	219.49	3.7342e-06	4.583e-06	275.28	77.977	61.186	17.812	2.6784e-06	24.766	0.00033667	0.00029589	8.4344e-05	1032.9	3.296e-06	3.544e-06	1119	220.04	3.6183e-06	3.7824e-06	276.04	78.545	61.539	18.091	3.596e-06	25.218	316.748	82.248	78.993	15.896	169.599	146.045	16.215	24.255	228.723	179.520	23.471	30.547	31.134	37.750	170.594	37.010	-8191	255	
3150.871	1	1	0	0	0.03002	0.0056925	0.21501	0.14918	0.20207	0.20773	0.14967	0.12976	0.18491	0.092155	0.25483	0.23637	0.14534	0.20275	0.24075	0.32279	-1.9312	-2.9896	-3.0583	-2.3083	-3.3479	-2.5396	-2.7625	-3.3771	-2.3583	-3.0396	-3.1896	-2.3708	-3.2333	-2.8	-2.4896	-3.3875	149.203	296.508	138.246	231.048	288.629	47.451	261.188	310.700	361.104	39.825	195.851	289.953	93.735	29.053	212.953	195.320	0.00047652	0.00025879	4.5125e-05	1038.8	3.873e-06	1.6701e-06	1127.5	220.99	5.4739e-06	3.5684e-06	277.75	77.915	61.503	17.787	3.5576e-06	24.664	0.00032916	0.00031852	9.0604e-05	1034.8	3.4918e-06	3.7541e-06	1118.4	220.43	3.6402e-06	3.6635e-06	276.84	78.563	61.872	18.119	3.3014e-06	25.208	322.495	96.410	110.341	16.024	149.499	146.531	16.346	23.861	202.549	167.990	23.065	30.480	31.046	37.181	165.253	37.186	-8191	255	
3150.967	1	1	0	0	0.059385	0.093767	0.10441	0.26794	0.067351	0.42569	0.26829	0.11616	0.11972	0.098522	0.31366	0.26987	0.15478	0.17266	0.05773	0.056971	-2.1125	-2.8646	-3.275	-2.3583	-3.3292	-2.7667	-2.5458	-3.425	-2.3375	-2.7521	-3.3604	-2.4437	-3.0187	-2.8229	-2.4396	-3.4146	344.623	205.614	243.158	225.181	331.578	48.067	268.138	345.894	221.258	331.664	310.833	256.759	318.374	318.923	146.989	342.501	0.00049052	0.000316	8.1852e-05	1048.5	1.9117e-06	2.2574e-06	1128.2	220.84	2.453e-06	7.8599e-07	274.73	78.136	61.485	17.62	3.3402e-06	24.735	0.00034519	0.00031596	8.7789e-05	1034.8	3.555e-06	3.5784e-06	1118.3	220.02	3.5081e-06	3.2563e-06	275.51	78.636	61.869	18.098	3.7926e-06	25.248	315.747	93.705	111.592	16.236	158.621	161.749	16.191	23.801	178.862	206.768	23.285	30.291	31.365	37.911	169.303	37.322	-8191	255	
3151.086	1	1	0	0	0.19094	0.11262	0.22058	0.1404	0.093482	0.10373	0.14971	0.018151	0.074271	0.076118	0.32084	0.20972	0.0093786	0.05991	0.11076	0.12864	-2.2917	-2.6562	-3.1625	-2.3229	-3.1021	-3.1292	-2.6312	-3.3375	-2.5708	-2.5021	-3.3042	-2.5375	-2.9917	-3.1917	-2.3042	-3.3604	117.552	105.883	232.024	294.976	272.389	279.293	33.232	286.384	311.172	262.108	10.973	332.966	57.534	362.564	155.131	365.252	0.00043123	0.00029056	5.5449e-05	1050.3	3.2331e-06	2.293e-06	1122.3	221.26	3.7409e-06	3.2253e-06	275.11	77.488	61.283	17.803	1.278e-06	24.778	0.00032548	0.00033256	8.7363e-05	1035.4	3.4392e-06	3.8072e-06	1114.6	220.61	3.7166e-06	3.723e-06	276.17	78.464	61.717	18.109	3.5953e-06	25.221	325.069	90.653	111.522	16.329	135.245	200.001	16.190	23.875	186.216	164.044	23.373	30.351	31.146	37.739	138.789	37.179	-8191	255	
3151.182	1	1	0	0	0.07389	0.15848	0.1985	0.27285	0.21608	0.028231	0.37842	0.17621	0.088956	0.11425	0.2329	0.25338	0.12199	0.20491	0.14813	0.16385	-2.3187	-2.4688	-3.1562	-2.3896	-2.7229	-3.1188	-2.5542	-3.2792	-2.6521	-2.4771	-3.3771	-2.3708	-2.8083	-3.2583	-2.2021	-3.3271	108.584	58.336	189.995	146.789	133.867	231.874	331.974	289.692	39.606	341.777	283.497	220.898	37.893	309.008	105.911	274.151	0.00052559	0.00024489	8.5196e-05	1039.8	4.5351e-06	2.6592e-06	1126.1	220.99	4.4443e-06	3.0174e-07	275.37	78.236	61.555	17.76	2.1695e-06	24.831	0.00034124	0.00033636	8.7215e-05	1035.2	3.7207e-06	3.5014e-06	1117.6	221.12	3.3998e-06	3.5521e-06	276.72	78.711	61.908	18.189	3.5504e-06	25.293	315.184	110.377	93.201	15.926	181.823	145.004	16.366	23.926	189.463	135.835	23.337	30.473	30.752	37.830	181.960	37.033	-8191	255	
3151.278	1	1	0	0	0.037727	0.33354	0.091042	0.11213	0.06286	0.20575	0.10756	0.24208	0.15108	0.14099	0.13785	0.15862	0.015636	0.45989	0.1774	0.23861	-2.5521	-2.45	-3.2354	-2.375	-2.6875	-3.2875	-2.4917	-3.2042	-2.9542	-2.3917	-3.4104	-2.5729	-2.7625	-3.3042	-2.2583	-3.1583	182.487	108.574	365.457	89.834	334.560	9.895	352.952	206.638	322.802	148.675	274.900	49.455	55.831	55.345	29.252	287.319	0.00047931	0.00030567	9.2969e-05	1042.2	3.3031e-06	3.5676e-06	1124.4	220.2	6.8709e-06	2.9776e-06	275.28	77.878	61.391	17.908	3.647e-06	24.864	0.00033009	0.00034259	7.8436e-05	1038.1	3.5543e-06	3.375e-06	1116.9	220.55	3.6759e-06	3.6145e-06	275.41	78.744	61.899	18.168	3.6282e-06	25.252	313.287	87.456	86.632	16.228	165.439	179.549	16.156	23.910	173.959	151.200	23.277	30.066	31.109	37.858	166.189	37.234	-8191	255	
3151.375	1	1	0	0	0.11321	0.078655	0.053462	0.16019	0.19584	0.18926	0.11923	0.32683	0.024573	0.039918	0.39664	0.27667	0.074266	0.2925	0.052951	0.20673	-2.6562	-2.3438	-3.1167	-2.7375	-2.5938	-3.2833	-2.6521	-3.0396	-3.1104	-2.3125	-3.3083	-2.8396	-2.55	-3.5	-2.3937	-2.9729	144.877	322.091	261.366	322.158	146.160	259.331	300.541	268.628	113.639	158.671	282.216	229.798	253.402	363.763	236.679	26.615	0.00044068	0.00017722	0.00012233	1042.1	4.2221e-06	2.5011e-06	1126.6	220.7	4.8616e-06	2.6785e-06	275.31	77.828	61.549	17.884	2.3575e-06	25.002	0.00032192	0.0003403	8.5955e-05	1035.8	3.6379e-06	3.3107e-06	1119	220.62	3.5795e-06	3.7089e-06	276.33	78.582	61.905	18.181	3.6785e-06	25.369	314.221	105.510	97.646	16.336	184.508	157.169	16.090	23.864	196.341	199.520	23.420	30.437	30.956	38.019	191.107	37.643	-8191	255	
3151.471	1	1	0	0	0.2134	0.07752	0.13145	0.11346	0.13846	0.071132	0.41632	0.12601	0.16392	0.22527	0.17101	0.11673	0.14254	0.19799	0.073356	0.073223	-2.8083	-2.3583	-3.1667	-2.7729	-2.5708	-3.2875	-2.5708	-2.8792	-3.2792	-2.3729	-3.4021	-3.0458	-2.4083	-3.3104	-2.4542	-2.8167	332.427	139.400	147.120	121.286	39.689	21.519	325.302	33.993	147.046	47.267	26.858	324.092	223.873	7.831	229.398	318.046	0.00050862	0.00030207	5.0422e-05	1045.4	1.4704e-06	3.0726e-06	1130.3	220.42	3.2035e-06	3.6342e-06	276.23	78.683	61.409	17.786	9.3975e-07	24.551	0.00032022	0.00036417	8.2566e-05	1036.2	3.8716e-06	3.2748e-06	1118.2	220.34	3.3353e-06	3.7022e-06	276.55	78.536	61.763	18.127	3.4323e-06	25.234	320.542	117.883	79.914	16.546	158.846	177.119	16.209	24.071	165.410	166.086	23.735	30.125	31.368	37.751	177.019	37.384	-8191	255	
3151.567	1	1	0	0	0.071398	0.12722	0.15257	0.1362	0.17776	0.29201	0.19182	0.1524	0.11498	0.18272	0.13943	0.23755	0.18535	0.10161	0.12428	0.31304	-2.7667	-2.3875	-3.1167	-3.1083	-2.2313	-3.2313	-2.8146	-2.6146	-3.3271	-2.4625	-3.1437	-3.1583	-2.3146	-3.4437	-2.7125	-2.5396	340.122	315.017	217.170	331.666	216.261	194.616	306.274	298.600	294.264	230.674	307.834	28.820	104.836	254.206	338.420	45.723	0.00045674	0.00040623	7.018e-05	1049.1	2.8204e-06	3.0641e-06	1126.5	221.02	5.5445e-06	1.6729e-06	276.56	78.155	61.83	17.927	4.0085e-06	24.75	0.00033145	0.00036706	8.2584e-05	1038.9	3.8927e-06	3.3249e-06	1119.6	220.53	3.4186e-06	3.5439e-06	277.07	78.615	61.956	18.171	3.5148e-06	25.304	315.921	92.155	92.467	15.808	149.111	164.704	16.299	24.052	219.477	154.263	23.301	30.425	31.241	37.710	161.006	37.066	-8191	255	
3151.663	1	1	0	0	0.23244	0.078732	0.026385	0.13854	0.16247	0.21506	0.1811	0.19519	0.17136	0.11725	0.13059	0.099769	0.13331	0.08597	0.14648	0.31617	-3.05	-2.4354	-2.9729	-3.1396	-2.2062	-3.3187	-2.9396	-2.7167	-3.4292	-2.3875	-2.9208	-3.0958	-2.4854	-3.375	-2.8521	-2.6208	18.354	220.928	126.133	110.962	24.233	132.658	163.065	109.414	286.662	85.946	228.818	215.142	353.637	90.264	178.892	312.371	0.00052981	0.00024335	0.00010119	1045.4	3.7667e-06	3.3807e-06	1127.7	221.21	6.3151e-06	2.9556e-06	278.48	78.037	61.663	17.914	3.0804e-06	24.687	0.00032312	0.00035151	8.8011e-05	1037.7	3.7284e-06	3.3055e-06	1120.8	220.71	3.473e-06	3.7638e-06	277.64	78.7	62.003	18.222	3.4786e-06	25.293	320.064	110.788	78.645	16.631	134.281	177.226	16.104	23.840	183.532	128.860	23.296	30.290	30.704	37.491	176.693	37.355	-8191	255	
3151.782	1	1	0	0	0.17435	0.11439	0.24728	0.1031	0.25702	0.10218	0.14178	0.12701	0.088349	0.293	0.11814	0.17604	0.27157	0.25713	0.22781	0.14189	-3.0083	-2.4	-2.9042	-3.2104	-2.3604	-3.2083	-3.0604	-2.4083	-3.2583	-2.4437	-2.8792	-3.2917	-2.3917	-3.1083	-3.05	-2.4125	177.967	134.741	304.726	288.699	173.396	220.596	327.936	292.256	257.898	106.036	211.892	245.425	345.412	305.136	207.209	80.908	0.00052148	0.00029473	0.00010886	1046.8	3.4431e-06	3.9217e-06	1127.2	220.83	4.7945e-06	2.5616e-06	276.5	78.619	60.859	17.857	3.8902e-06	24.934	0.00031577	0.00034738	8.5085e-05	1034.3	3.6814e-06	3.4184e-06	1120.3	220.54	3.314e-06	3.5231e-06	276.62	78.775	61.705	18.181	3.3745e-06	25.288	317.822	91.444	81.871	16.285	164.655	165.893	16.074	23.959	194.101	121.902	23.511	30.351	30.909	38.287	180.896	36.827	-8191	255	
3151.878	1	1	0	0	0.07533	0.15319	0.25772	0.20771	0.212	0.14293	0.28213	0.12356	0.17371	0.3518	0.17715	0.30365	0.16633	0.20096	0.21041	0.32385	-3.0312	-2.7125	-2.5854	-3.3146	-2.4708	-3.0271	-3.2	-2.4958	-3.2188	-2.6021	-2.725	-3.5167	-2.5125	-3.0208	-3.2104	-2.3812	196.842	231.108	50.493	102.091	175.411	96.434	266.694	236.008	45.531	79.288	300.177	273.257	359.851	275.735	247.128	356.955	0.00052126	8.9287e-05	0.00010636	1040.8	3.5209e-06	2.8406e-06	1132.8	219.74	6.056e-06	1.9866e-06	275.45	77.481	61.48	17.673	1.3158e-06	24.682	0.00032936	0.0003481	9.3141e-05	1035.5	3.6189e-06	3.6801e-06	1121.5	220.44	3.411e-06	3.5959e-06	276.77	78.598	61.809	18.141	3.5208e-06	25.203	317.003	123.023	117.816	16.636	189.584	171.324	16.355	23.961	190.834	182.291	23.337	30.708	31.134	37.920	167.363	37.174	-8191	255	
3151.974	1	1	0	0	0.17733	0.075394	0.093676	0.1129	0.12341	0.20022	0.064514	0.14933	0.10851	0.22697	0.28268	0.13885	0.076828	0.29613	0.42504	0.20249	-3.0062	-2.8396	-2.5438	-3.1813	-2.375	-3.0062	-3.4125	-2.4458	-3.275	-2.9729	-2.6104	-3.5917	-2.7042	-2.8458	-3.15	-2.3083	133.226	157.326	81.046	138.988	286.238	234.415	364.056	26.505	120.195	172.915	27.708	30.079	291.550	315.028	195.700	111.173	0.00052014	0.00024818	0.00011054	1041	2.4945e-06	2.25e-06	1130.7	220.12	4.0013e-06	2.747e-06	275.01	77.934	61.129	17.952	5.3467e-06	24.754	0.00031368	0.00032331	9.2363e-05	1033	3.8056e-06	3.5574e-06	1118.5	220.41	3.3841e-06	3.5773e-06	275.6	78.497	61.758	18.2	3.4215e-06	25.286	319.474	81.621	85.490	16.240	165.658	173.970	16.249	23.626	190.390	162.252	23.165	30.267	30.801	37.572	165.182	36.979	-8191	255	
3152.070	1	1	0	0	0.077485	0.098283	0.11015	0.057811	0.20767	0.11428	0.10209	0.080239	0.32272	0.12575	0.15621	0.10412	0.19268	0.15847	0.17224	0.2083	-2.7417	-2.7417	-2.4125	-3.3083	-2.525	-2.6167	-3.325	-2.4958	-3.1583	-3.2229	-2.5021	-3.4833	-2.5042	-2.6146	-3.4104	-2.325	308.619	261.839	124.398	278.465	68.252	310.082	320.971	74.122	96.141	296.370	319.386	249.308	278.140	301.459	113.588	360.465	0.00047952	0.00027399	7.4379e-05	1044	1.3587e-06	1.994e-06	1131.3	221.2	3.6641e-06	2.2725e-06	276.94	78.002	61.248	17.818	2.0517e-06	24.925	0.00031782	0.00032744	9.3234e-05	1038.3	3.6217e-06	3.4124e-06	1120	220.62	3.4017e-06	3.367e-06	276.48	78.678	61.853	18.156	3.3967e-06	25.295	317.239	89.028	113.417	15.998	130.041	135.320	16.020	23.712	223.075	158.608	23.162	30.505	30.576	37.745	162.031	36.688	-8191	255	
3152.167	1	1	0	0	0.097034	0.07681	0.32254	0.069627	0.18391	0.37075	0.1737	0.10941	0.12572	0.25608	0.27042	0.13507	0.021434	0.20368	0.3421	0.14951	-2.6479	-3.2146	-2.2792	-3.3	-2.7208	-2.7271	-3.6167	-2.4208	-2.8771	-3.1521	-2.4958	-3.2083	-2.8354	-2.525	-3.2354	-2.3208	27.227	56.923	275.419	318.124	212.639	310.669	314.929	310.611	356.959	76.151	191.681	226.668	8.426	221.842	62.626	150.908	0.00049048	0.00014397	0.00010504	1052.3	2.4913e-06	2.3291e-06	1133.1	220.27	4.855e-06	2.11e-06	275.12	78.394	61.687	17.949	5.5272e-06	24.88	0.00031472	0.00031039	9.2011e-05	1035.9	3.7628e-06	3.4864e-06	1121.1	220.52	3.4511e-06	3.5439e-06	276.42	78.961	61.993	18.221	3.551e-06	25.283	322.103	102.423	103.460	16.543	191.289	157.383	16.243	23.549	205.155	181.470	23.136	30.461	31.052	37.637	177.030	36.832	-8191	255	
3152.263	1	1	0	0	0.15539	0.025089	0.1336	0.46073	0.054409	0.024243	0.33142	0.12501	0.1634	0.14439	0.06142	0.29688	0.13706	0.13278	0.11048	0.13386	-2.5604	-3.1271	-2.3125	-3.2208	-2.8937	-2.6917	-3.6188	-2.7729	-2.7833	-3.1271	-2.4146	-3.4	-3.0021	-2.4125	-3.2562	-2.6771	226.719	48.070	19.183	334.281	149.622	241.414	292.424	248.573	276.204	78.478	187.919	203.265	96.276	284.946	151.691	55.815	0.00050847	0.00021058	0.00010308	1048.6	4.6426e-06	2.4353e-06	1131.2	219.67	3.4587e-06	2.0579e-06	276.29	78.386	61.616	17.883	3.1313e-06	24.667	0.00031836	0.00033026	9.7216e-05	1040.1	3.6133e-06	3.766e-06	1122.1	220.6	3.7029e-06	3.312e-06	276.91	78.737	61.754	18.133	2.9162e-06	25.216	314.858	88.999	110.007	16.281	177.855	166.477	16.066	23.759	172.189	152.777	23.376	30.359	30.997	38.108	157.769	37.317	-8191	255	
3152.359	1	1	0	0	0.19316	0.050683	0.13989	0.16735	0.075547	0.29833	0.19056	0.098916	0.048863	0.19218	0.076554	0.22601	0.072912	0.067856	0.25139	0.20864	-2.2875	-3.5333	-2.5083	-3.2125	-3.0646	-2.4104	-3.4062	-2.6542	-2.7229	-3.3333	-2.4229	-3.0375	-3.1188	-2.5229	-3.2062	-2.675	232.779	27.060	167.942	262.582	217.471	338.643	334.719	86.903	97.066	138.928	148.153	215.533	264.745	98.310	336.450	22.698	0.00050823	0.00033806	5.9234e-05	1053.9	3.0587e-06	1.4376e-06	1132.6	222.01	4.214e-06	2.9503e-06	276.74	78.044	61.798	17.819	3.2283e-06	24.511	0.00035827	0.00031721	9.6364e-05	1037.8	3.3241e-06	3.6883e-06	1121.3	220.98	3.6703e-06	3.5179e-06	276.09	78.645	61.83	18.185	3.3665e-06	25.128	321.461	109.556	115.262	16.105	160.059	169.228	16.290	23.894	170.652	133.486	23.546	30.610	30.993	37.967	155.586	37.038	-8191	255	
3152.478	1	1	0	0	0.18163	0.29943	0.18796	0.077713	0.14241	0.24442	0.28145	0.070176	0.13812	0.34924	0.16091	0.32769	0.3108	0.11438	0.068796	0.086867	-2.2979	-3.1646	-2.4771	-3.05	-3.2729	-2.525	-3.3104	-2.8125	-2.5229	-3.4083	-2.5	-3.0375	-3.2542	-2.3021	-3.1396	-2.8708	360.917	327.989	249.680	210.225	301.555	260.756	349.800	354.161	117.878	87.636	79.634	337.529	327.298	328.125	34.624	20.347	0.00049305	0.00030138	0.0001229	1037.2	2.6107e-06	1.2274e-06	1134.8	221.51	4.3965e-06	2.9237e-06	277.27	77.975	61.418	17.802	3.6607e-06	24.65	0.0003273	0.00033689	9.5882e-05	1034.4	3.4624e-06	3.6247e-06	1121.2	220.87	3.5782e-06	3.2006e-06	276.73	78.69	61.766	18.152	3.2873e-06	25.289	317.360	93.094	121.000	16.349	189.165	162.031	16.033	23.998	202.620	178.082	23.109	30.523	30.874	38.131	159.037	36.640	-8191	255	
3152.574	1	1	0	0	0.12317	0.15963	0.11192	0.04483	0.17093	0.077021	0.081834	0.21541	0.26819	0.15445	0.14569	0.20245	0.014691	0.19133	0.073819	0.30555	-2.0896	-3.2146	-2.6083	-2.8479	-3.1937	-2.3312	-3.4146	-2.9792	-2.3937	-3.475	-2.7521	-2.8937	-3.2167	-2.4167	-3.0292	-3.025	289.386	258.251	201.844	31.055	270.720	224.265	133.222	299.473	171.204	168.757	360.444	47.399	252.675	74.942	98.830	365.747	0.00048439	0.00025432	8.4259e-05	1039	1.7537e-06	2.18e-06	1132.1	220.81	6.1348e-06	2.3591e-06	275.15	77.988	61.611	17.922	5.5979e-06	24.748	0.00033141	0.00032055	9.2474e-05	1036.1	3.3276e-06	3.8176e-06	1121.1	221.06	3.6478e-06	3.4829e-06	276.03	78.863	62.009	18.166	3.3886e-06	25.265	320.187	99.681	93.509	16.758	124.026	177.780	16.356	23.763	199.410	147.143	23.378	30.339	30.619	38.241	171.063	37.160	-8191	255	
3152.670	1	1	0	0	0.12102	0.24658	0.097566	0.15202	0.33086	0.32985	0.10872	0.096936	0.11272	0.14867	0.26656	0.17734	0.19859	0.23637	0.19005	0.26555	-1.9083	-3.1771	-2.65	-2.5229	-3.3083	-2.4271	-3.2771	-3.175	-2.1937	-3.3208	-2.8354	-2.5375	-3.3417	-2.475	-2.7667	-3.0438	344.190	184.825	98.906	140.882	140.533	311.309	341.583	8.219	82.872	90.431	256.880	293.723	326.378	295.652	18.731	277.527	0.00048006	0.00024564	8.7379e-05	1047.7	3.1164e-06	1.8117e-06	1131.7	219.67	5.5163e-06	2.7615e-06	274.97	78.172	61.241	17.831	5.1409e-06	24.855	0.00033102	0.00029228	9.8531e-05	1039.4	3.2658e-06	3.8692e-06	1119.9	220.17	3.4561e-06	3.2801e-06	276.38	78.924	61.857	18.14	3.594e-06	25.315	312.583	105.047	100.442	16.356	180.166	141.459	16.431	23.806	189.524	149.095	23.139	30.714	30.683	37.717	169.190	36.954	-8191	255	
3152.766	1	1	0	0	0.014919	0.10967	0.17247	0.1089	0.19546	0.11515	0.22466	0.1139	0.30636	0.089807	0.070301	0.27844	0.10508	0.12765	0.16947	0.049218	-1.8917	-3.1792	-2.8708	-2.4917	-3.4146	-2.5479	-3.0292	-3.2812	-2.3729	-3.1937	-3.0312	-2.5146	-3.5146	-2.4271	-2.7771	-3.3271	224.777	347.815	127.417	57.964	15.121	130.559	304.262	301.598	312.931	96.401	271.102	14.033	259.375	187.468	60.410	305.644	0.00043046	0.00043	4.2784e-05	1043.2	2.4313e-06	2.2558e-06	1127.2	221.08	4.0611e-06	2.1991e-06	277.07	78.418	61.574	17.807	3.803e-06	24.829	0.00032649	0.00031714	8.853e-05	1038.2	3.2981e-06	3.5829e-06	1119.5	220.54	3.7749e-06	3.4064e-06	276.68	78.793	61.823	18.152	3.2605e-06	25.247	320.019	95.882	71.011	16.406	159.612	160.150	16.214	23.883	194.486	144.647	23.470	30.539	30.832	37.621	146.544	36.808	-8191	255	
3152.862	1	1	0	0	0.27006	0.11722	0.22162	0.089315	0.2089	0.20334	0.22201	0.11133	0.053565	0.098248	0.2631	0.19076	0.025595	0.19901	0.17395	0.1158	-1.8708	-3.125	-2.8979	-2.3063	-3.2146	-2.7708	-2.8771	-3.375	-2.4354	-3.05	-3.1458	-2.4854	-3.3917	-2.6688	-2.8312	-3.3812	39.611	26.193	264.789	60.746	234.038	189.173	278.422	307.120	291.384	260.224	67.088	204.220	100.752	25.234	31.734	196.928	0.00046918	0.00035552	5.7245e-05	1048.2	2.863e-06	3.6863e-06	1132.7	220.71	2.6091e-06	2.4538e-06	276.95	78.656	60.811	17.834	4.0991e-06	24.675	0.00033597	0.00031904	8.9437e-05	1039.3	3.4034e-06	3.6001e-06	1121	220.58	3.7004e-06	3.7423e-06	276.78	78.661	61.608	18.162	3.4578e-06	25.244	323.082	104.807	119.351	16.218	144.023	160.305	16.040	23.680	199.433	180.328	23.461	30.600	31.078	37.979	149.961	37.128	-8191	255	
3152.958	1	1	0	0	0.082463	0.023393	0.16838	0.17707	0.16698	0.044594	0.38286	0.21337	0.088832	0.29776	0.23673	0.13721	0.11054	0.25613	0.18477	0.075648	-1.9833	-2.9333	-3.025	-2.0875	-3.2771	-2.7375	-2.6479	-3.3	-2.4229	-3.0458	-3.1646	-2.4208	-3.3417	-2.8771	-2.6354	-3.3375	49.793	141.725	346.723	141.173	235.261	180.918	307.347	347.375	6.707	356.507	9.668	156.514	270.219	71.515	336.765	63.731	0.00052129	0.0002493	8.2186e-05	1048.9	2.6327e-06	4.0997e-06	1130.1	220.56	2.9664e-06	2.765e-06	275.78	78.055	61.613	17.928	3.5308e-06	24.864	0.00033505	0.00030842	8.1973e-05	1038.1	3.5234e-06	3.7145e-06	1121.4	221.08	3.5845e-06	3.4948e-06	275.98	78.646	61.803	18.138	3.4e-06	25.28	318.246	109.497	127.560	16.285	160.744	162.843	16.232	23.784	179.095	177.790	23.436	30.617	31.315	37.907	166.814	37.344	-8191	255	
3153.079	1	1	0	0	0.22647	0.1287	0.14242	0.21658	0.09152	0.064064	0.17969	0.20441	0.22939	0.1054	0.16568	0.27456	0.2671	0.26792	0.25483	0.10648	-1.9125	-2.8354	-3.2625	-2.2521	-3.1896	-2.9208	-2.5125	-3.45	-2.4625	-2.8125	-3.3208	-2.3583	-3.1208	-2.9167	-2.4062	-3.2771	254.371	245.807	226.852	26.370	340.667	234.370	359.058	308.767	95.827	338.357	330.807	316.250	55.468	334.126	17.479	336.951	0.00044778	0.00012371	7.7125e-05	1044.8	3.0892e-06	2.4363e-06	1129.7	219.95	6.5836e-06	3.25e-06	275.91	78.259	61.775	17.924	2.7449e-06	24.86	0.00033485	0.00032042	8.877e-05	1037.1	3.4266e-06	3.7115e-06	1120.3	220.29	3.6177e-06	3.934e-06	276.72	78.787	61.983	18.223	3.7926e-06	25.328	320.379	117.866	118.900	15.946	165.256	154.693	16.183	23.953	178.866	180.049	23.593	30.666	30.728	38.053	191.497	36.977	-8191	255	
3153.174	1	1	0	0	0.28795	0.10166	0.1135	0.34163	0.19206	0.20609	0.26414	0.12816	0.085734	0.2465	0.18403	0.21061	0.12162	0.03842	0.0659	0.25809	-2.2396	-2.7292	-3.2375	-2.4813	-3.0042	-3.1208	-2.65	-3.2708	-2.6542	-2.5958	-3.2896	-2.5083	-2.9646	-3.2	-2.4	-3.3125	74.576	235.244	321.231	314.293	83.236	187.266	304.830	342.511	210.838	299.888	281.783	265.413	260.881	309.798	222.549	232.086	0.00053951	0.00037636	6.9316e-05	1043.8	4.5166e-06	4.5039e-06	1128	221.24	4.8006e-06	2.5949e-06	276.42	77.977	61.363	17.82	3.3081e-06	24.679	0.00034677	0.00035597	9.1215e-05	1035.6	3.7425e-06	3.6165e-06	1119.2	220.47	3.7066e-06	3.6048e-06	276.4	78.349	61.852	18.152	3.9201e-06	25.275	315.479	82.409	101.434	16.060	173.594	175.812	16.412	23.731	197.840	130.542	23.075	30.322	30.879	37.738	203.369	37.073	-8191	255	
3153.270	1	1	0	0	0.23452	0.13569	0.082892	0.087453	0.15179	0.085874	0.39422	0.10595	0.18517	0.31647	0.25814	0.14368	0.24876	0.05437	0.030122	0.17269	-2.2875	-2.5083	-3.3021	-2.45	-2.9479	-3.2021	-2.4125	-3.2083	-2.775	-2.375	-3.4667	-2.6271	-2.8688	-3.4062	-2.3375	-3.1104	140.924	228.510	81.045	356.254	195.081	134.259	295.356	54.476	119.733	213.547	361.591	274.012	21.179	318.430	345.463	7.470	0.00046297	0.00040625	0.0001145	1046.3	2.3038e-06	1.933e-06	1131.5	221.33	5.3058e-06	3.3145e-06	276.39	77.961	61.151	17.78	2.9212e-06	24.65	0.00034286	0.00034305	9.09e-05	1037.1	3.6512e-06	3.701e-06	1119.3	220.85	3.8989e-06	3.662e-06	276.5	78.508	61.844	18.114	3.6711e-06	25.226	320.214	76.103	105.308	16.052	163.148	168.098	16.076	23.748	193.255	142.781	23.224	30.160	31.136	37.803	191.115	37.094	-8191	255	
3153.343	1	1	0	0	0.12856	0.095949	0.18201	0.14734	0.11434	0.13313	0.49399	0.12127	0.020358	0.038981	0.11063	0.12259	0.088795	0.076971	0.041124	0.14993	-2.6396	-2.4896	-3.3187	-2.6063	-2.7104	-3.2792	-2.7146	-3.3583	-2.7604	-2.3042	-3.3771	-2.7146	-2.6729	-3.2625	-2.4896	-3.1958	281.428	60.617	188.156	354.911	221.810	108.187	342.120	220.906	365.108	230.483	139.516	345.511	263.921	30.933	234.843	62.064	0.00046918	0.00023127	3.7807e-05	1043.2	3.7307e-06	2.2468e-06	1129.4	221.53	5.3064e-06	2.681e-06	276.75	78.223	61.829	17.734	3.958e-06	24.751	0.00033052	0.00034397	8.5566e-05	1031.4	3.7425e-06	3.5358e-06	1117.4	220.97	3.5732e-06	3.7096e-06	276.45	78.574	61.894	18.145	3.7282e-06	25.221	320.984	110.288	103.584	16.074	171.758	173.584	16.133	23.977	187.434	137.618	23.449	30.502	31.140	37.930	163.888	37.429	-8191	255	
3153.462	1	1	0	0	0.12955	0.19927	0.13774	0.13758	0.12914	0.089639	0.54914	0.13331	0.20494	0.29496	0.16022	0.18399	0.17843	0.096613	0.02912	0.22133	-2.7625	-2.4792	-3.2458	-2.7333	-2.6875	-3.3208	-2.5333	-3.0646	-2.9146	-2.1688	-3.4583	-2.9375	-2.4042	-3.2667	-2.4729	-2.9896	318.467	144.237	38.752	161.394	214.651	241.583	309.983	354.547	129.750	30.765	346.876	73.519	21.613	287.357	249.056	172.954	0.00050893	0.00034492	7.8682e-05	1049.1	2.3568e-06	2.3915e-06	1128.2	220.2	5.3975e-06	3.2808e-06	276.59	77.598	61.42	17.836	4.0657e-06	24.844	0.0003275	0.00035315	8.3955e-05	1035.6	3.5873e-06	3.5544e-06	1117	220.06	3.5062e-06	3.6204e-06	276.37	78.378	61.907	18.092	3.5228e-06	25.204	318.065	76.320	96.131	16.209	161.850	145.295	15.774	24.108	190.056	187.233	23.326	30.747	31.004	37.688	137.574	37.047	-8191	255	
3153.558	1	1	0	0	0.27865	0.072127	0.075111	0.19205	0.33611	0.10499	0.21184	0.12752	0.064685	0.069791	0.082574	0.14685	0.1537	0.12279	0.20576	0.16813	-2.7583	-2.3458	-2.9813	-2.6833	-2.3479	-3.2958	-2.6917	-2.8063	-3.2979	-2.4083	-3.2208	-3.0771	-2.525	-3.2458	-2.5771	-2.7729	314.883	339.339	239.519	363.121	173.432	299.055	351.284	32.183	23.961	124.015	242.875	279.760	230.493	311.121	196.161	163.763	0.00045864	0.0001736	9.0413e-05	1042.7	4.1443e-06	2.7675e-06	1121.2	222.03	4.1412e-06	3.5836e-06	276.61	78.01	61.75	17.748	2.826e-06	24.751	0.00031387	0.00033452	8.2103e-05	1032.2	3.5634e-06	3.206e-06	1115.3	221.33	3.6014e-06	3.6873e-06	276.49	78.499	61.863	18.088	3.4752e-06	25.223	317.302	116.263	107.427	15.669	155.022	163.177	16.313	23.988	211.946	151.229	23.572	30.442	31.273	38.034	175.695	37.297	-8191	255	
3153.654	1	1	0	0	0.32761	0.087946	0.20307	0.16849	0.081746	0.1236	0.36763	0.14084	0.10871	0.25602	0.11305	0.27043	0.1361	0.13139	0.10204	0.057269	-2.9167	-2.3083	-2.9104	-3.0229	-2.2687	-3.4208	-2.6729	-2.6292	-3.2771	-2.3896	-2.9854	-3.0792	-2.3937	-3.3312	-2.8312	-2.6667	311.861	106.800	159.317	346.708	236.152	113.300	332.742	316.765	264.459	262.851	25.923	275.622	78.807	348.889	365.671	175.805	0.00041177	0.00035407	4.7045e-05	1048.6	4.4603e-06	2.251e-06	1125.1	220.73	3.873e-06	2.1773e-06	275.46	78.291	61.36	17.725	3.435e-06	24.679	0.00029638	0.00033813	8.8937e-05	1036.6	3.8e-06	3.3974e-06	1116.1	220.39	3.3409e-06	3.9719e-06	275.82	78.633	61.802	18.123	3.5242e-06	25.248	315.250	104.934	90.258	16.143	152.031	142.882	16.233	23.938	191.323	157.154	23.573	30.184	31.239	37.660	176.363	37.214	-8191	255	
3153.750	1	1	0	0	0.077313	0.30527	0.19792	0.031394	0.14807	0.064239	0.18143	0.33592	0.13574	0.038485	0.096668	0.23919	0.25148	0.31058	0.12343	0.31315	-2.9896	-2.2979	-2.7646	-3.3042	-2.3646	-3.1979	-2.9062	-2.45	-3.3167	-2.4958	-2.9396	-3.1896	-2.1188	-3.2729	-2.7729	-2.3771	131.444	278.076	295.165	64.213	285.201	362.119	91.528	322.468	57.079	188.910	146.273	292.564	11.774	300.800	358.339	316.312	0.00048429	0.00042534	9.5807e-05	1049.1	2.6976e-06	3.3521e-06	1124.9	221.31	4.93e-06	2.981e-06	276.66	78.236	61.723	17.825	2.5794e-06	24.894	0.000297	0.00034686	8.4659e-05	1035.1	3.8162e-06	3.212e-06	1115.6	220.53	3.2614e-06	3.6308e-06	276.36	78.53	61.884	18.152	3.4779e-06	25.268	314.040	108.535	98.760	16.227	179.629	127.202	16.194	23.880	183.227	133.614	23.649	30.141	31.269	38.180	169.790	36.685	-8191	255	
3153.871	1	1	0	0	0.1229	0.039274	0.15972	0.19252	0.16569	0.26414	0.34193	0.1765	0.22118	0.26128	0.14522	0.13208	0.11393	0.099023	0.1634	0.15811	-2.9958	-2.5438	-2.6771	-3.2625	-2.2354	-3.1083	-3.0958	-2.5104	-3.2896	-2.525	-2.7479	-3.2188	-2.3417	-3.0375	-3.0292	-2.4458	197.282	69.607	280.952	318.198	76.121	244.605	282.933	273.266	314.206	248.725	77.887	283.487	132.332	248.416	208.177	346.236	0.00048623	0.0002542	0.00010286	1037.9	3.4405e-06	2.0951e-06	1127.5	220.53	2.5425e-06	2.9705e-06	276.54	78.095	61.109	17.744	2.9984e-06	24.812	0.00031047	0.00031734	9.2215e-05	1034.1	3.5459e-06	3.2823e-06	1117.5	220.63	3.3184e-06	3.4882e-06	276.47	78.662	61.755	18.12	3.2866e-06	25.234	317.035	113.261	95.848	16.024	166.713	181.846	16.191	23.829	228.813	142.056	23.375	30.536	31.058	37.985	134.172	36.850	-8191	255	
3153.943	1	1	0	0	0.11857	0.012321	0.10979	0.1528	0.29866	0.031425	0.27872	0.046419	0.32715	0.16877	0.19513	0.14326	0.048367	0.076393	0.27354	0.077527	-2.8854	-2.6437	-2.3937	-3.2313	-2.2562	-2.9354	-3.0625	-2.3812	-3.325	-2.8312	-2.6021	-3.4729	-2.2833	-2.9875	-3.2146	-2.3146	283.520	35.384	133.501	254.591	162.709	150.880	320.562	301.476	286.847	17.044	78.388	7.382	359.388	19.067	15.726	269.096	0.00052761	0.00021201	0.00011997	1034.9	2.9477e-06	2.6641e-06	1127.6	220.59	7.7712e-06	2.8104e-06	275.15	77.879	61.364	17.758	2.4285e-06	24.638	0.00030513	0.00031498	9.4771e-05	1033.2	3.6133e-06	3.4879e-06	1117.2	220.32	3.277e-06	3.393e-06	276.11	78.474	61.644	18.094	3.386e-06	25.147	313.944	96.610	99.339	15.829	169.729	148.975	16.132	23.989	203.392	188.286	23.144	30.697	30.791	37.874	162.689	36.716	-8191	255	
3154.039	1	1	0	0	0.11524	0.21188	0.014215	0.11299	0.086439	0.059906	0.34717	0.055061	0.15113	0.12805	0.22598	0.091665	0.20326	0.24387	0.21627	0.14563	-2.8729	-2.6042	-2.5438	-3.4083	-2.2667	-2.8354	-3.5146	-2.1979	-3.2646	-2.9208	-2.4979	-3.2625	-2.4313	-2.8646	-3.0938	-2.4208	134.971	354.830	309.987	209.548	168.555	275.053	312.316	10.755	135.468	118.274	29.021	126.835	354.279	288.360	27.803	242.414	0.00044535	0.00023377	7.2742e-05	1036.8	3.2953e-06	3.5347e-06	1123.2	219.59	2.7989e-06	2.0491e-06	277.16	78.044	61.057	17.763	2.4506e-06	24.808	0.00032088	0.0002991	8.2677e-05	1032.7	3.6498e-06	3.4169e-06	1117.1	220.21	3.5106e-06	3.4235e-06	276.53	78.601	61.604	18.155	3.3403e-06	25.212	312.407	105.338	106.078	16.654	164.728	169.057	16.101	23.705	177.840	138.297	23.249	30.812	30.457	38.209	141.564	36.851	-8191	255	
3154.160	1	1	0	0	0.092541	0.12853	0.034874	0.2453	0.051954	0.093387	0.29669	0.055808	0.26891	0.15866	0.084015	0.092325	0.13191	0.14225	0.090817	0.31333	-2.8229	-2.9083	-2.3563	-3.4	-2.5729	-2.6688	-3.3	-2.3333	-2.9938	-2.9688	-2.4292	-3.2271	-2.4875	-2.5187	-3.1583	-2.3	147.487	288.854	197.749	226.655	356.002	140.845	344.614	80.839	321.377	243.681	232.687	82.238	293.898	188.642	297.321	172.209	0.00041087	0.00027778	5.8793e-05	1052.9	3.2891e-06	3.2353e-06	1128.9	221.4	2.6785e-06	2.4451e-06	274.88	78.421	61.425	17.793	3.9844e-06	24.779	0.00031538	0.00032705	8.9641e-05	1039.6	3.8639e-06	3.6023e-06	1119.4	220.73	3.3716e-06	3.4911e-06	276.1	78.706	61.607	18.111	3.339e-06	25.242	314.118	90.496	111.204	15.730	154.958	174.089	16.197	23.791	163.999	163.568	23.472	30.630	30.839	37.863	177.751	36.724	-8191	255	
3154.254	1	1	0	0	0.14227	0.14423	0.046276	0.12443	0.16851	0.18978	0.17048	0.17781	0.053896	0.22141	0.24854	0.31723	0.091424	0.12308	0.10526	0.035471	-2.5875	-2.9208	-2.3833	-3.2188	-2.7583	-2.4938	-3.4917	-2.5187	-2.9583	-3.0229	-2.4833	-3.2896	-2.6625	-2.3271	-3.25	-2.4479	335.945	223.551	347.999	318.873	199.422	338.288	274.017	331.847	165.221	81.494	294.321	357.289	334.409	327.624	250.972	339.010	0.00049604	0.00027472	8.2083e-05	1040.1	3.7895e-06	2.4753e-06	1123.5	219.82	4.6723e-06	2.8495e-06	276.21	77.98	60.885	17.687	3.6529e-06	24.686	0.00033009	0.0003113	9.0085e-05	1033.5	3.654e-06	3.6487e-06	1116.4	220.13	3.6484e-06	3.5929e-06	276.35	78.652	61.489	18.128	3.2658e-06	25.232	321.195	75.062	100.376	16.768	162.224	166.941	16.338	23.961	200.380	158.856	23.660	30.324	30.794	38.069	165.441	36.881	-8191	255	
3154.352	1	1	0	0	0.11488	0.16697	0.17341	0.10689	0.18144	0.083224	0.21647	0.088166	0.10599	0.14169	0.12827	0.18472	0.24401	0.19716	0.018501	0.28446	-2.2979	-3.1208	-2.3396	-3.2	-2.8375	-2.0958	-3.6646	-2.4021	-2.8479	-3.4062	-2.3646	-3.1417	-2.9479	-2.5042	-3.2708	-2.4521	195.572	279.305	68.000	226.843	123.580	24.466	253.984	291.537	98.096	11.333	321.705	15.383	274.762	281.510	142.425	296.682	0.00048517	0.00025796	9.1731e-05	1045.3	2.5177e-06	2.654e-06	1129.2	219.48	3.8236e-06	2.0124e-06	276.51	78.407	61.477	17.692	3.45e-06	24.933	0.00031573	0.00030389	9.4549e-05	1034.1	3.5964e-06	3.6733e-06	1117.7	220.39	3.4073e-06	3.4971e-06	276.12	78.787	61.871	18.084	3.1075e-06	25.304	318.397	103.794	82.536	16.447	153.860	160.135	16.131	23.963	162.678	178.474	23.592	30.968	31.121	37.874	158.242	36.748	-8191	255	
3154.471	1	1	0	0	0.026737	0.11403	0.11753	0.31576	0.086946	0.22807	0.28501	0.15624	0.22333	0.10867	0.25809	0.43022	0.31148	0.13924	0.29632	0.2203	-2.3729	-3.25	-2.2583	-2.9938	-2.8937	-2.275	-3.4521	-2.8333	-2.475	-3.3542	-2.425	-2.9208	-3.0375	-2.3	-3.4396	-2.775	347.603	112.348	234.227	359.466	153.170	269.230	333.173	299.933	137.075	300.856	288.613	351.949	316.205	152.726	328.349	326.308	0.00047407	0.00033363	0.0001005	1044.5	3.576e-06	2.9293e-06	1124.6	220.59	4.5671e-06	4.6343e-06	275.85	77.742	61.516	17.767	3.5371e-06	24.771	0.00031577	0.00029996	8.8733e-05	1036.4	3.5964e-06	3.3922e-06	1117.8	220.61	3.3722e-06	3.3908e-06	276.33	78.369	61.817	18.126	3.0927e-06	25.283	322.661	102.684	94.215	16.436	156.889	154.285	16.261	23.926	178.189	153.223	23.628	30.725	31.153	38.017	159.782	36.964	-8191	255	
3154.542	1	1	0	0	0.21548	0.089485	0.23553	0.2155	0.11428	0.11052	0.26091	0.2376	0.067646	0.091725	0.15854	0.15968	0.17248	0.38743	0.19452	0.22667	-2.0583	-3.4583	-2.4854	-2.7458	-3.2125	-2.3396	-3.3854	-2.8958	-2.3	-3.3021	-2.6646	-2.7958	-3.2771	-2.3125	-3.0833	-2.9229	328.178	80.934	145.081	240.394	219.453	102.310	354.323	248.543	247.299	172.717	335.208	247.616	87.162	299.463	47.821	159.715	0.00041433	0.00031586	0.00011687	1049.6	4.616e-06	3.173e-06	1126.5	219.13	3.8858e-06	1.2948e-06	276.12	78.001	61.157	17.849	2.69e-06	24.805	0.00031256	0.00031885	9.1178e-05	1037.2	3.5796e-06	3.7002e-06	1118.7	220.36	3.473e-06	3.3611e-06	276.27	78.706	61.731	18.101	2.9444e-06	25.286	318.125	107.732	91.154	16.255	158.257	153.256	16.505	24.093	209.675	145.034	23.590	30.708	30.909	37.802	145.796	37.242	-8191	255	
3154.639	1	1	0	0	0.10221	0.17173	0.40421	0.14008	0.078721	0.17975	0.21245	0.24706	0.10711	0.20315	0.10222	0.30374	0.048042	0.087073	0.018023	0.25486	-2.1333	-3.1708	-2.5396	-2.7188	-3.2375	-2.4729	-3.3146	-2.9	-2.3458	-3.45	-2.7208	-2.6437	-3.3229	-2.4479	-3.0708	-3.1188	80.368	8.127	73.136	311.876	90.626	320.169	280.924	309.984	306.598	285.100	348.330	23.565	56.155	330.504	290.847	8.153	0.00050578	0.00024356	7.5239e-05	1044	4.3186e-06	1.8086e-06	1131.3	220.66	4.9615e-06	3.1473e-06	275.23	78.44	61.544	17.734	1.4416e-06	24.7	0.00033265	0.00030055	9.1363e-05	1035	3.3627e-06	3.6913e-06	1120.3	220.43	3.7492e-06	3.6078e-06	276.03	78.712	61.716	18.119	3.2054e-06	25.186	317.646	84.571	105.535	16.062	171.540	155.178	16.276	23.852	178.001	192.724	23.444	30.543	31.400	37.899	132.668	37.102	-8191	255	
3154.759	1	1	0	0	0.14186	0.15304	0.12127	0.11582	0.2197	0.31738	0.057266	0.16169	0.19815	0.17988	0.22653	0.14031	0.17306	0.11079	0.2742	0.18304	-1.8583	-3.1479	-2.4938	-2.6437	-3.3042	-2.3479	-2.9979	-3.1562	-2.2604	-3.1979	-2.7583	-2.6458	-3.2917	-2.5896	-2.8708	-3.1333	82.811	190.853	84.546	123.472	17.582	248.341	293.483	340.272	117.839	292.676	19.747	14.946	71.057	330.185	219.311	353.378	0.00055795	0.00016072	9.851e-05	1048	2.5091e-06	2.5815e-06	1122.9	219.65	4.666e-06	2.6087e-06	275.22	78.218	61.998	17.855	3.2848e-06	24.805	0.00032506	0.00029372	8.6344e-05	1037.5	3.3879e-06	3.769e-06	1117.5	220.2	3.7041e-06	3.237e-06	275.99	78.778	61.993	18.17	3.4e-06	25.273	323.802	78.415	92.888	16.268	182.172	154.768	16.345	24.487	197.579	188.595	23.478	30.421	30.847	38.352	177.304	37.031	-8191	255	
3154.855	1	1	0	0	0.096944	0.058469	0.16148	0.14152	0.07125	0.11695	0.056607	0.12873	0.16421	0.14889	0.11708	0.29714	0.056653	0.098272	0.070803	0.13539	-2.0917	-3.1542	-2.8083	-2.5979	-3.4292	-2.5333	-2.8438	-3.3438	-2.3542	-3.0938	-3.075	-2.4188	-3.1958	-2.5812	-2.8333	-3.3125	58.302	254.460	255.318	311.593	269.299	184.908	273.771	244.060	274.496	292.811	58.745	300.282	24.369	71.132	233.558	46.999	0.0005198	0.00029952	0.00011449	1049.6	1.1595e-06	2.7809e-06	1128	219.53	4.8083e-06	2.8926e-06	276.83	78.195	61.634	17.913	2.6255e-06	24.649	0.00032099	0.000297	9.5567e-05	1035.5	3.4027e-06	3.5051e-06	1119.2	219.96	3.6396e-06	3.4272e-06	276.65	78.86	61.943	18.173	3.0364e-06	25.263	316.855	97.549	68.181	15.920	178.897	152.608	16.341	23.520	190.695	175.027	23.135	30.375	31.328	37.679	168.170	36.948	-8191	255	
3154.951	1	1	0	0	0.22763	0.10778	0.18939	0.15915	0.047044	0.23776	0.31264	0.22246	0.10256	0.063738	0.11457	0.39982	0.19972	0.32951	0.037921	0.14482	-2.0104	-3.1354	-2.9542	-2.5229	-3.2979	-2.625	-2.8021	-3.3146	-2.4417	-2.9396	-3.05	-2.4521	-3.2188	-2.6813	-2.4625	-3.3104	271.142	270.322	36.084	110.910	281.395	89.111	222.147	312.515	218.848	162.827	331.231	347.526	359.111	19.915	195.031	252.828	0.00047149	0.0001848	5.2044e-05	1042.5	3.0146e-06	2.8186e-06	1133.9	221.3	4.0911e-06	4.0101e-06	276.59	78.004	61.194	17.626	3.8776e-06	24.87	0.00033551	0.0003014	8.4918e-05	1036.6	3.19e-06	3.5746e-06	1119.8	220.79	3.5732e-06	3.4213e-06	275.74	78.81	61.712	18.086	3.4705e-06	25.282	318.062	125.645	73.614	16.153	175.019	162.868	16.555	24.219	201.943	151.666	23.423	30.687	31.218	37.928	150.558	37.176	-8191	255	
3155.048	1	1	0	0	0.10641	0.027706	0.022061	0.2447	0.24064	0.12363	0.23683	0.31229	0.19045	0.11262	0.41328	0.16331	0.1499	0.085444	0.2105	0.12331	-2.0625	-3.0062	-3.1292	-2.3354	-3.2833	-2.9604	-2.75	-3.3625	-2.4604	-2.6375	-3.2854	-2.3646	-3.2	-2.9688	-2.5083	-3.3625	256.768	290.090	351.983	247.313	174.492	162.367	311.792	300.562	68.150	44.728	303.591	51.785	295.148	49.333	106.041	220.354	0.00049077	0.00038331	0.00011715	1041.8	1.8089e-06	2.4931e-06	1128.8	220.75	5.8101e-06	2.8193e-06	276.71	77.741	61.404	17.8	3.6101e-06	24.669	0.00031743	0.00032285	9.3752e-05	1032.9	3.4806e-06	3.5986e-06	1119.9	220.25	3.6697e-06	3.4867e-06	275.52	78.549	61.817	18.121	3.6161e-06	25.264	318.910	108.077	74.447	15.705	180.343	157.301	16.404	24.050	211.429	179.799	23.256	30.403	30.915	37.988	152.582	37.243	-8191	255	
3155.168	1	1	0	0	0.10558	0.085739	0.058211	0.18756	0.055869	0.089504	0.22258	0.10441	0.15441	0.13707	0.23317	0.12455	0.161	0.20282	0.16494	0.16179	-2.25	-2.8667	-3.1833	-2.2667	-3.1625	-2.8479	-2.6292	-3.4979	-2.5479	-2.5083	-3.3125	-2.3583	-3.1	-3.0583	-2.1729	-3.2479	42.066	332.129	171.726	210.050	272.900	98.009	249.083	74.192	326.277	54.959	172.975	359.204	319.735	320.205	180.450	232.714	0.00041944	0.00038289	9.7826e-05	1051.3	2.8041e-06	3.0547e-06	1131.2	219.71	4.3359e-06	3.9802e-06	275.77	78.005	61.627	17.703	4.7307e-06	24.779	0.00032808	0.00031852	8.6789e-05	1037.9	3.2349e-06	3.5507e-06	1118.7	220.4	3.5588e-06	3.3908e-06	275.64	78.579	61.82	18.097	3.7362e-06	25.123	318.052	76.365	110.482	15.978	155.164	170.055	16.419	24.092	222.862	195.714	23.495	30.821	31.170	37.565	156.797	36.999	-8191	255	
3155.240	1	1	0	0	0.14299	0.024492	0.27137	0.21276	0.10041	0.17463	0.43246	0.15168	0.034786	0.32349	0.12266	0.35528	0.16922	0.18811	0.21171	0.1898	-2.25	-2.5229	-3.2917	-2.5271	-2.9792	-3.0521	-2.4437	-3.2979	-2.6	-2.6729	-3.4083	-2.525	-2.9917	-2.8854	-2.4354	-3.1875	239.868	157.487	79.388	225.054	265.885	41.395	290.159	116.518	118.516	80.450	365.456	11.597	71.287	282.380	333.853	54.580	0.00043073	0.0003313	5.1001e-05	1046.4	3.5127e-06	3.1159e-06	1126.6	219.77	4.999e-06	2.0989e-06	275.53	77.942	61.464	17.683	3.0593e-06	24.711	0.00030102	0.00031432	8.1381e-05	1036.2	3.1387e-06	3.384e-06	1117.8	220.16	3.4918e-06	3.3239e-06	275.83	78.43	61.718	18.074	3.5108e-06	25.25	321.425	93.175	153.629	16.243	149.647	142.389	16.600	23.755	182.434	147.677	23.222	30.523	30.995	37.800	175.535	36.980	-8191	255	
3155.336	1	1	0	0	0.14423	0.06751	0.17467	0.17455	0.14528	0.228	0.096324	0.096377	0.18294	0.19312	0.15804	0.08519	0.17655	0.19651	0.13225	0.24825	-2.5042	-2.5375	-3.2479	-2.425	-2.8146	-3.2021	-2.4458	-3.2667	-2.8333	-2.5208	-3.4083	-2.5104	-2.9458	-3.2917	-2.1833	-3.2125	231.902	62.222	211.730	60.214	141.981	314.755	232.891	76.687	51.036	267.475	329.158	267.544	326.377	353.093	334.578	347.056	0.00057428	0.00034326	5.7236e-05	1047.9	3.6465e-06	1.3467e-06	1120.7	220.51	5.213e-06	3.0405e-06	276.07	78.248	61.001	17.795	3.4847e-06	24.816	0.00032103	0.00033905	8.5196e-05	1036.5	3.5248e-06	3.2404e-06	1117.1	220.09	3.4925e-06	3.6026e-06	275.81	78.523	61.726	18.089	3.7101e-06	25.242	318.927	92.938	99.591	16.406	162.760	128.126	16.207	23.958	202.281	176.895	23.429	30.424	31.160	38.274	143.141	36.928	-8191	255	
3155.432	1	1	0	0	0.08746	0.22092	0.085931	0.086097	0.11106	0.15166	0.0069214	0.10001	0.1639	0.21065	0.1931	0.0451	0.075947	0.13981	0.25274	0.23881	-2.3937	-2.3708	-3.2562	-2.7229	-2.7896	-3.3	-2.4417	-3.125	-2.9938	-2.3187	-3.3708	-2.6458	-2.6167	-3.3042	-2.3271	-3.075	9.453	154.780	356.557	234.083	60.797	334.616	353.390	240.532	80.470	268.145	246.835	93.258	15.490	66.321	328.341	311.453	0.00047163	0.00030429	6.4812e-05	1038.8	1.2252e-06	2.5941e-06	1128.5	220.6	3.6264e-06	2.0692e-06	276.06	77.877	62.277	17.899	3.7782e-06	24.802	0.00032452	0.00033256	8.4233e-05	1035	3.5887e-06	3.1761e-06	1117.6	220.36	3.391e-06	3.6799e-06	276.17	78.489	62.042	18.112	3.7094e-06	25.22	311.556	104.025	80.547	15.637	111.951	196.416	16.406	24.010	220.167	181.950	23.294	30.230	30.976	37.749	160.718	37.036	-8191	255	
3155.551	1	1	0	0	0.12532	0.14639	0.17001	0.14597	0.076762	0.1231	0.25647	0.16433	0.13091	0.11332	0.15138	0.18957	0.13795	0.1388	0.056068	0.23736	-2.7271	-2.1312	-3.2729	-2.8187	-2.5792	-3.2583	-2.6063	-2.9729	-3.1167	-2.2396	-3.3583	-2.7875	-2.4271	-3.3646	-2.3688	-2.8083	296.719	177.544	140.639	98.838	177.093	323.571	298.418	88.990	89.324	276.695	354.459	210.645	155.601	356.220	195.774	235.139	0.00056119	0.00024623	4.3353e-05	1050.8	3.1803e-06	3.0544e-06	1129.5	220.38	4.4974e-06	2.7277e-06	275.66	77.947	61.052	17.657	3.0127e-06	24.774	0.00033423	0.00032974	8.3862e-05	1037.3	3.6231e-06	3.443e-06	1117.8	220.14	3.5419e-06	3.9214e-06	276.88	78.585	61.733	18.076	3.4994e-06	25.252	317.262	101.067	90.211	16.155	166.953	183.975	16.473	24.041	171.546	197.586	23.604	30.411	31.295	37.933	152.753	37.155	-8191	255	
3155.647	1	1	0	0	0.17826	0.14819	0.23807	0.10344	0.1723	0.029705	0.19685	0.33587	0.072061	0.14116	0.16448	0.16793	0.19947	0.28079	0.16242	0.17914	-2.6771	-2.2562	-2.9583	-2.9271	-2.4	-3.4229	-2.8125	-2.7333	-3.2708	-2.3167	-3.0333	-2.875	-2.3917	-3.1646	-2.3688	-2.7917	311.634	140.521	148.256	188.472	185.815	322.689	218.454	283.962	116.165	10.171	59.333	23.747	32.729	292.967	91.496	198.066	0.00048427	0.00033298	6.7322e-05	1040.2	3.0469e-06	2.982e-06	1128.5	220.77	5.772e-06	3.1341e-06	276.43	78.072	61.369	17.82	2.3509e-06	24.745	0.00030528	0.000342	8.7696e-05	1033.9	3.5543e-06	3.1642e-06	1118.6	220.22	3.4818e-06	3.804e-06	276.24	78.526	61.772	18.145	3.6866e-06	25.276	323.238	96.542	84.353	15.796	147.415	146.435	16.358	23.773	187.025	163.740	23.303	30.140	30.816	37.689	175.886	37.113	-8191	255	
3155.743	1	1	0	0	0.19936	0.092736	0.091399	0.11457	0.17229	0.10747	0.21625	0.33089	0.206	0.29823	0.027062	0.15207	0.10988	0.025967	0.22644	0.14519	-2.9542	-2.4333	-2.8688	-3	-2.2958	-3.3458	-2.7625	-2.6	-3.1625	-2.3125	-3.0312	-3.2958	-2.2812	-3.375	-2.7562	-2.3917	312.191	255.478	305.335	25.915	286.578	31.319	319.940	315.066	177.847	30.548	105.987	21.177	198.802	22.720	234.684	282.392	0.00042428	0.00033057	0.00012634	1037.9	4.1663e-06	4.2672e-06	1118.8	220.36	5.4767e-06	2.9051e-06	276.02	78.057	61.975	17.875	5.2496e-06	24.708	0.00030981	0.00034194	9.2604e-05	1034	3.5599e-06	3.4505e-06	1116.1	220.41	3.3678e-06	3.7207e-06	275.83	78.527	61.855	18.152	3.545e-06	25.191	320.206	79.197	117.447	15.919	168.904	152.010	16.321	23.798	183.599	158.723	22.988	30.467	31.022	37.558	163.149	36.939	-8191	255	
3155.840	1	1	0	0	0.14351	0.1791	0.17375	0.036496	0.11047	0.12216	0.17171	0.23036	0.19572	0.16459	0.13453	0.099292	0.12311	0.13267	0.062471	0.30944	-2.8208	-2.4896	-2.85	-3.175	-2.2188	-3.2604	-3.0667	-2.45	-3.3792	-2.3708	-2.9	-3.1729	-2.3729	-3.1125	-2.8125	-2.3917	264.846	27.026	335.213	174.735	91.205	344.400	31.212	318.484	172.939	361.014	276.959	168.665	109.034	112.416	184.959	62.491	0.00051604	0.00044846	6.7174e-05	1043.1	3.6575e-06	2.6867e-06	1122	220.56	3.2903e-06	2.1222e-06	274.73	77.891	61.049	17.731	2.7026e-06	24.654	0.00029827	0.00033656	8.5974e-05	1031.1	3.6049e-06	3.1956e-06	1115.1	220.25	3.2094e-06	3.6814e-06	275.55	78.591	61.65	18.093	3.4262e-06	25.242	325.650	90.790	109.732	16.233	175.898	151.533	16.169	24.022	174.050	190.538	23.468	30.947	30.913	37.988	212.254	37.467	-8191	255	
3155.936	1	1	0	0	0.14541	0.2202	0.22912	0.12997	0.12519	0.18419	0.043318	0.13333	0.1403	0.18049	0.14146	0.2485	0.1486	0.056764	0.10791	0.33243	-2.8583	-2.425	-2.8375	-3.2667	-2.1854	-3.0958	-3.075	-2.3917	-3.1667	-2.5292	-2.6771	-3.3604	-2.4854	-3.0438	-3.0229	-2.4625	61.156	281.886	189.094	330.680	314.887	209.798	204.543	301.110	103.558	139.088	293.689	322.723	41.457	187.599	355.808	76.452	0.00046211	0.00030744	7.1033e-05	1044.5	2.6708e-06	2.2556e-06	1123.7	218.96	4.2042e-06	2.7643e-06	276.64	78.094	61.55	17.906	3.8207e-06	24.677	0.00031078	0.0003338	8.4399e-05	1032.6	3.6358e-06	3.2315e-06	1114.8	219.97	3.1386e-06	3.6256e-06	276.67	78.552	61.79	18.125	3.335e-06	25.21	319.361	113.905	100.814	16.022	179.281	150.092	16.090	24.002	171.462	175.565	23.258	30.472	30.741	37.758	172.183	37.004	-8191	255	
3156.032	1	1	0	0	0.055785	0.14438	0.23605	0.19059	0.25644	0.26116	0.22919	0.12516	0.048032	0.093712	0.25007	0.11029	0.087774	0.081714	0.077488	0.14036	-2.7604	-2.4958	-2.5625	-3.2729	-2.2562	-2.9479	-3.1792	-2.3229	-3.2375	-2.8021	-2.6083	-3.2542	-2.3833	-2.7479	-3.0417	-2.2125	129.930	260.721	316.062	275.246	255.997	327.916	276.403	69.540	23.833	288.111	243.934	114.143	225.710	225.599	252.431	201.640	0.00049844	0.00030214	8.6676e-05	1039.3	2.6754e-06	3.6599e-06	1131.3	221.29	3.407e-06	2.4973e-06	274.85	78.376	61.294	17.753	3.2199e-06	24.768	0.00030509	0.0003439	9.0363e-05	1030.3	3.6835e-06	3.2083e-06	1118.7	220.49	3.3916e-06	3.6918e-06	276.3	78.78	61.766	18.12	3.3276e-06	25.167	315.299	91.128	87.374	15.882	165.000	168.750	16.273	24.046	208.534	171.014	23.421	30.341	31.086	37.630	148.730	36.586	-8191	255	
3156.152	1	1	0	0	0.20646	0.085765	0.12452	0.30697	0.1818	0.18724	0.099679	0.091247	0.1233	0.1694	0.11431	0.11422	0.15072	0.14868	0.22924	0.15699	-2.9042	-2.9813	-2.475	-3.3354	-2.2646	-2.7812	-3.2479	-2.3083	-3.3208	-2.8729	-2.5312	-3.3042	-2.7458	-2.6354	-3.3625	-2.4562	40.107	336.516	111.100	344.479	297.844	29.947	311.072	291.217	233.490	78.546	300.974	13.167	6.489	136.022	271.300	199.492	0.00043071	0.0002717	7.9601e-05	1050.6	2.6945e-06	9.0476e-07	1130.7	218.9	2.8829e-06	3.1315e-06	273.27	78.555	61.795	17.824	2.4619e-06	24.661	0.00030067	0.00031635	8.6807e-05	1038.9	3.6702e-06	3.3825e-06	1119.6	220.01	3.3227e-06	3.4027e-06	275.57	78.781	61.886	18.16	3.2705e-06	25.187	323.360	90.251	112.919	16.207	183.934	135.970	16.172	24.056	207.230	154.711	23.564	30.599	30.675	38.102	171.925	37.060	-8191	255	
3156.249	1	1	0	0	0.24733	0.21954	0.078655	0.16842	0.20027	0.091012	0.24361	0.062329	0.15992	0.24662	0.20705	0.21955	0.22798	0.22943	0.12602	0.17471	-2.7979	-3.0542	-2.3563	-3.3667	-2.5667	-2.5042	-3.3396	-2.4813	-3.1458	-3.0646	-2.3812	-3.3667	-2.7146	-2.5708	-3.3958	-2.4458	120.306	29.263	197.733	60.004	131.858	55.323	318.512	251.086	233.271	130.435	350.656	334.827	331.669	11.634	324.531	331.822	0.00047469	0.00046177	6.022e-05	1044.2	3.2133e-06	2.4975e-06	1127	221.25	5.9042e-06	2.3144e-06	276.08	78.352	61.564	17.745	3.3817e-06	24.765	0.00030149	0.00032475	9.8846e-05	1036.9	3.5206e-06	3.6539e-06	1120.3	220.53	3.3246e-06	3.3915e-06	275.76	78.587	61.907	18.13	3.2511e-06	25.203	316.513	102.652	102.740	16.411	159.082	160.104	16.229	23.741	210.360	174.276	23.503	30.760	30.754	38.215	155.968	36.949	-8191	255	
3156.343	1	1	0	0	0.047496	0.12317	0.20132	0.26803	0.29444	0.22178	0.2225	0.47674	0.37188	0.095433	0.31714	0.3666	0.18782	0.073139	0.20474	0.059305	-2.6271	-3.1688	-2.0708	-3.2854	-2.6375	-2.4	-3.4437	-2.5167	-2.9292	-3.0917	-2.5417	-3.2812	-2.7479	-2.4333	-3.4479	-2.5312	253.075	71.403	284.386	342.892	42.217	106.708	317.632	129.082	281.119	332.025	338.398	355.065	29.175	170.207	343.049	229.467	0.00056328	0.0005173	0.00010017	1053.1	3.0073e-06	1.6367e-06	1127.2	220.25	6.7055e-06	2.9961e-06	275.45	77.826	61.855	17.798	1.5447e-06	24.708	0.00032711	0.00032475	9.3401e-05	1034.8	3.6751e-06	3.5073e-06	1118.6	220.4	3.6559e-06	3.3641e-06	276	78.737	61.96	18.167	3.3551e-06	25.199	314.813	93.028	75.306	16.245	157.249	146.238	16.159	24.008	182.850	169.631	23.143	30.326	30.883	38.269	132.916	36.776	-8191	255	
3156.439	1	1	0	0	0.24718	0.12108	0.03904	0.064769	0.0148	0.28573	0.33107	0.50818	0.12206	0.19303	0.16819	0.29224	0.12917	0.1825	0.12455	0.03421	-2.375	-3.0563	-2.4	-3.0938	-2.8979	-2.55	-3.4146	-2.5792	-2.7042	-3.3479	-2.3458	-3.2208	-2.9167	-2.5563	-3.275	-2.5333	262.803	171.677	10.141	158.903	119.097	322.388	278.291	303.548	9.753	64.092	301.045	190.166	173.827	17.845	216.778	198.182	0.0004614	0.00030193	5.6488e-05	1048.8	3.477e-06	2.4795e-06	1130.8	221.22	5.0852e-06	2.9533e-06	276.68	78.319	61.598	17.889	4.1911e-06	24.6	0.00032169	0.00030376	9.2326e-05	1040.1	3.7705e-06	3.4356e-06	1119.2	220.61	3.4173e-06	3.2414e-06	276.21	78.774	61.845	18.159	3.2497e-06	25.182	328.170	92.171	111.072	15.982	128.530	180.711	16.326	23.821	196.530	148.096	23.311	30.380	30.821	37.660	164.190	37.452	-8191	255	
3156.535	1	1	0	0	0.11253	0.018048	0.21009	0.24073	0.24015	0.2666	0.29711	0.051293	0.12826	0.13134	0.22186	0.20122	0.17988	0.070915	0.10011	0.26313	-2.1083	-3.1813	-2.3042	-3.0375	-3.1021	-2.5042	-3.3458	-2.6958	-2.5	-3.3583	-2.5708	-3.0625	-3.1104	-2.5	-3.15	-2.8167	11.327	156.698	351.789	251.719	362.643	35.798	231.194	99.550	82.786	31.066	290.092	358.747	275.253	216.371	7.516	272.493	0.00045235	0.00042738	5.3178e-05	1046.8	4.3509e-06	1.9989e-06	1129.8	220.49	5.4248e-06	2.7194e-06	275.54	78.419	61.712	17.833	4.0371e-06	24.568	0.00031972	0.00030619	9.4641e-05	1035.5	3.4525e-06	3.7182e-06	1119.9	220.53	3.6427e-06	3.1612e-06	275.39	78.678	61.773	18.139	3.2544e-06	25.203	311.865	101.326	113.087	16.306	166.372	181.640	16.199	23.758	209.574	130.776	23.416	30.736	31.225	37.865	171.642	37.269	-8191	255	
3156.631	1	1	0	0	0.11981	0.17105	0.027132	0.042941	0.23777	0.14443	0.23831	0.16583	0.10135	0.097755	0.059597	0.28297	0.09151	0.3428	0.092428	0.22565	-1.9937	-3.3208	-2.2917	-2.9292	-3.3208	-2.3979	-3.3854	-3.0146	-2.4458	-3.4313	-2.6521	-2.8563	-3.2917	-2.3125	-3.1271	-2.9729	333.932	309.248	257.825	361.155	248.754	136.178	265.683	291.898	47.644	219.035	334.766	328.004	347.408	77.031	94.630	241.985	0.0004536	0.00023668	0.00010556	1059.6	2.4903e-06	2.7562e-06	1125.7	220.72	4.0468e-06	2.5004e-06	275.18	78.195	61.417	17.847	4.316e-06	24.653	0.00032502	0.00030665	9.1567e-05	1039.4	3.3458e-06	3.698e-06	1118.8	220.16	3.5983e-06	3.3262e-06	275.42	78.666	61.634	18.131	3.4396e-06	25.172	319.899	102.707	94.305	16.333	161.084	152.847	16.509	24.120	200.687	176.834	23.475	30.400	31.234	38.147	170.713	36.861	-8191	255	
3156.728	1	1	0	0	0.036466	0.10905	0.10432	0.070716	0.17506	0.29483	0.085571	0.14579	0.073524	0.093627	0.20036	0.047608	0.060851	0.076606	0.27522	0.18529	-1.8854	-3.3167	-2.6208	-2.7854	-3.1104	-2.4125	-3.2521	-3.1542	-2.2646	-3.4542	-2.7208	-2.7708	-3.4688	-2.5271	-3.0271	-3.0333	292.308	134.450	22.763	164.591	219.093	113.344	294.103	263.746	27.200	160.352	55.103	106.039	91.385	216.280	293.652	352.293	0.00043205	0.0002715	7.011e-05	1050.6	3.0549e-06	2.7102e-06	1125.9	220.99	4.0611e-06	2.4544e-06	274.92	77.493	61.872	17.8	3.1182e-06	24.725	0.0003287	0.0003098	9.2437e-05	1037.7	3.3051e-06	3.5395e-06	1118	220.45	3.7016e-06	3.4094e-06	276.08	78.473	61.826	18.095	3.3833e-06	25.284	321.942	83.774	104.129	15.911	158.135	188.821	16.475	23.821	204.339	151.650	23.265	30.297	30.720	37.767	165.750	36.974	-8191	255	
3156.848	1	1	0	0	0.24024	0.13334	0.15083	0.076535	0.26369	0.10022	0.28767	0.083979	0.2113	0.049739	0.26188	0.16857	0.076579	0.2493	0.1429	0.2868	-2.0271	-3.2812	-2.6083	-2.5521	-3.2646	-2.2062	-3.1333	-3.2479	-2.3375	-3.1937	-2.8167	-2.6771	-3.3917	-2.4813	-2.725	-3.3688	70.154	294.363	248.490	189.570	270.366	119.450	284.314	101.269	29.210	55.212	246.421	215.128	315.709	271.783	292.628	80.155	0.00053394	0.00042221	6.0014e-05	1032.9	2.5116e-06	2.5394e-06	1131.7	219.78	5.556e-06	3.5461e-06	275.62	78.234	61.646	17.843	4.3765e-06	24.682	0.00033106	0.00031471	9.1289e-05	1033.2	3.4013e-06	3.9373e-06	1120.8	220.21	3.7267e-06	3.4919e-06	276.18	78.799	61.783	18.122	3.2766e-06	25.186	316.226	66.892	113.075	16.223	151.250	176.686	16.505	23.909	193.586	163.775	23.567	30.572	31.239	38.166	163.546	36.783	-8191	255	
3156.944	1	1	0	0	0.15768	0.087381	0.043192	0.053148	0.18899	0.22061	0.2658	0.17874	0.13385	0.12886	0.18837	0.11416	0.10089	0.042869	0.25082	0.13685	-2.0125	-3.1792	-2.8146	-2.5396	-3.1146	-2.3708	-2.8729	-3.3917	-2.3521	-3.0542	-3.025	-2.3521	-3.3438	-2.5083	-2.6437	-3.4375	118.506	183.123	199.622	128.118	255.358	57.164	39.185	309.551	36.662	192.917	139.141	82.454	26.077	26.996	203.365	40.726	0.00053719	0.00030524	9.5422e-05	1039.9	3.2209e-06	2.2817e-06	1129.9	220.31	4.0106e-06	3.2763e-06	277.49	78.3	61.024	17.805	3.6904e-06	24.551	0.00033992	0.0003115	9.3697e-05	1033.1	3.4034e-06	3.9238e-06	1120.4	220.65	3.7843e-06	3.286e-06	276.3	78.684	61.772	18.113	3.4873e-06	25.152	317.717	115.958	111.580	16.196	154.537	144.244	16.428	24.146	203.713	150.213	23.179	30.769	31.311	38.338	163.643	37.357	-8191	255	
#DATA ENDS
