BOXY.EXE: ISS Imagent and Oximeter Data Acquisition Program Version 0.80
Ascii Record File

#ACQ INFORMATION
2  Detector Channels 
16  External MUX Channels 
1  Auxiliary Channels 
5000  Waveform (CCF) Frequency (Hz)
1  Waveforms Skipped 
30  Waveforms Averaged 
1  Cycles Averaged 
16  Acquisitions per Waveform 
10.0806  Updata Rate (Hz) 

#FILE INFORMATION
TRUE -- External MUX Channel results are PARSED.
FALSE -- AC DC and Phase are NOT grouped.
TRUE -- Companion Program Settings File CREATED.
FALSE -- AC data not excluded
FALSE -- DC data not excluded
FALSE -- Phase data not excluded
FALSE -- Auxillary Chn. data not excluded
Tab delimiters

#CALIBRATION STATE
TRUE -- Waveform Calibration Values APPLIED.


#AUX CALIBRATION VALUES
Val Type	aux-1	

Term	1.0000e+00	
Factor	0.0000e+00	


#WF CALIBRATION VALUES
A = Detector Channel
Val Type	A-AC1	A-AC2	A-AC3	A-AC4	A-AC5	A-AC6	A-AC7	A-AC8	A-AC9	A-AC10	A-AC11	A-AC12	A-AC13	A-AC14	A-AC15	A-AC16	A-DC1	A-DC2	A-DC3	A-DC4	A-DC5	A-DC6	A-DC7	A-DC8	A-DC9	A-DC10	A-DC11	A-DC12	A-DC13	A-DC14	A-DC15	A-DC16	A-Ph1	A-Ph2	A-Ph3	A-Ph4	A-Ph5	A-Ph6	A-Ph7	A-Ph8	A-Ph9	A-Ph10	A-Ph11	A-Ph12	A-Ph13	A-Ph14	A-Ph15	A-Ph16	

Term	0.00000e+00	0.00000e+00	0.00000e+00	0.00000e+00	0.00000e+00	0.00000e+00	0.00000e+00	0.00000e+00	0.00000e+00	0.00000e+00	0.00000e+00	0.00000e+00	0.00000e+00	0.00000e+00	0.00000e+00	0.00000e+00	0.00000e+00	0.00000e+00	0.00000e+00	0.00000e+00	0.00000e+00	0.00000e+00	0.00000e+00	0.00000e+00	0.00000e+00	0.00000e+00	0.00000e+00	0.00000e+00	0.00000e+00	0.00000e+00	0.00000e+00	0.00000e+00	0.00000e+00	0.00000e+00	0.00000e+00	0.00000e+00	0.00000e+00	0.00000e+00	0.00000e+00	0.00000e+00	0.00000e+00	0.00000e+00	0.00000e+00	0.00000e+00	0.00000e+00	0.00000e+00	0.00000e+00	0.00000e+00	
Factor	1.00000e+00	1.00000e+00	1.00000e+00	1.00000e+00	1.00000e+00	1.00000e+00	1.00000e+00	1.00000e+00	1.00000e+00	1.00000e+00	1.00000e+00	1.00000e+00	1.00000e+00	1.00000e+00	1.00000e+00	1.00000e+00	1.00000e+00	1.00000e+00	1.00000e+00	1.00000e+00	1.00000e+00	1.00000e+00	1.00000e+00	1.00000e+00	1.00000e+00	1.00000e+00	1.00000e+00	1.00000e+00	1.00000e+00	1.00000e+00	1.00000e+00	1.00000e+00	X	X	X	X	X	X	X	X	X	X	X	X	X	X	X	X	

B = Detector Channel
Val Type	B-AC1	B-AC2	B-AC3	B-AC4	B-AC5	B-AC6	B-AC7	B-AC8	B-AC9	B-AC10	B-AC11	B-AC12	B-AC13	B-AC14	B-AC15	B-AC16	B-DC1	B-DC2	B-DC3	B-DC4	B-DC5	B-DC6	B-DC7	B-DC8	B-DC9	B-DC10	B-DC11	B-DC12	B-DC13	B-DC14	B-DC15	B-DC16	B-Ph1	B-Ph2	B-Ph3	B-Ph4	B-Ph5	B-Ph6	B-Ph7	B-Ph8	B-Ph9	B-Ph10	B-Ph11	B-Ph12	B-Ph13	B-Ph14	B-Ph15	B-Ph16	

Term	0.00000e+00	0.00000e+00	0.00000e+00	0.00000e+00	0.00000e+00	0.00000e+00	0.00000e+00	0.00000e+00	0.00000e+00	0.00000e+00	0.00000e+00	0.00000e+00	0.00000e+00	0.00000e+00	0.00000e+00	0.00000e+00	0.00000e+00	0.00000e+00	0.00000e+00	0.00000e+00	0.00000e+00	0.00000e+00	0.00000e+00	0.00000e+00	0.00000e+00	0.00000e+00	0.00000e+00	0.00000e+00	0.00000e+00	0.00000e+00	0.00000e+00	0.00000e+00	4.69297e+01	-1.27678e+02	-1.27972e+02	-1.88002e+02	-6.67894e+01	-6.28409e+01	-1.55213e+02	-1.62015e+02	-4.91738e+01	-6.38444e+01	-1.70390e+02	-1.71563e+02	-1.84555e+02	-1.77043e+02	-6.69105e+01	-1.49382e+02	
Factor	5.93376e-05	1.60034e-04	4.50777e-05	6.62379e-01	1.71948e-06	1.64504e-06	1.55997e-01	5.34235e-02	2.61917e-06	1.72808e-06	8.14009e-02	2.71226e-02	2.83956e-02	8.73549e-03	1.91468e-06	1.24596e-02	1.85792e-05	3.14846e-05	8.89000e-06	3.50234e-01	3.36969e-07	3.58884e-07	7.79026e-02	2.84634e-02	3.00588e-07	3.56692e-07	4.20802e-02	1.39855e-02	1.51021e-02	4.71687e-03	3.22088e-07	6.51153e-03	X	X	X	X	X	X	X	X	X	X	X	X	X	X	X	X	



#DISTANCE SETTINGS
A = Detector Channel
A-1	A-2	A-3	A-4	A-5	A-6	A-7	A-8	A-9	A-10	A-11	A-12	A-13	A-14	A-15	A-16	

2.5000e+00	3.0000e+00	2.5000e+00	3.0000e+00	2.0000e+00	3.0000e+00	1.5000e+00	3.0000e+00	3.0000e+00	3.0000e+00	3.0000e+00	3.0000e+00	3.0000e+00	3.0000e+00	1.5000e+00	3.0000e+00	

B = Detector Channel
B-1	B-2	B-3	B-4	B-5	B-6	B-7	B-8	B-9	B-10	B-11	B-12	B-13	B-14	B-15	B-16	

1.0000e+01	1.0000e+01	1.0000e+01	1.4400e+00	1.0000e+01	1.0000e+01	1.5100e+00	1.9400e+00	1.0000e+01	1.0000e+01	1.9900e+00	2.4900e+00	2.4100e+00	2.9000e+00	1.0000e+01	2.9800e+00	




#DATA BEGINS
time	group	step	mark	flag	A-AC1	A-AC2	A-AC3	A-AC4	A-AC5	A-AC6	A-AC7	A-AC8	A-AC9	A-AC10	A-AC11	A-AC12	A-AC13	A-AC14	A-AC15	A-AC16	A-DC1	A-DC2	A-DC3	A-DC4	A-DC5	A-DC6	A-DC7	A-DC8	A-DC9	A-DC10	A-DC11	A-DC12	A-DC13	A-DC14	A-DC15	A-DC16	A-Ph1	A-Ph2	A-Ph3	A-Ph4	A-Ph5	A-Ph6	A-Ph7	A-Ph8	A-Ph9	A-Ph10	A-Ph11	A-Ph12	A-Ph13	A-Ph14	A-Ph15	A-Ph16	B-AC1	B-AC2	B-AC3	B-AC4	B-AC5	B-AC6	B-AC7	B-AC8	B-AC9	B-AC10	B-AC11	B-AC12	B-AC13	B-AC14	B-AC15	B-AC16	B-DC1	B-DC2	B-DC3	B-DC4	B-DC5	B-DC6	B-DC7	B-DC8	B-DC9	B-DC10	B-DC11	B-DC12	B-DC13	B-DC14	B-DC15	B-DC16	B-Ph1	B-Ph2	B-Ph3	B-Ph4	B-Ph5	B-Ph6	B-Ph7	B-Ph8	B-Ph9	B-Ph10	B-Ph11	B-Ph12	B-Ph13	B-Ph14	B-Ph15	B-Ph16	aux-1	digaux	

3465.527	1	1	0	256	0.1374	0.092295	0.037677	0.22965	0.16798	0.13226	0.15751	0.19619	0.15334	0.19914	0.028582	0.17567	0.035418	0.22191	0.1379	0.21852	-2.8771	-2.45	-2.6917	-3.3167	-2.4854	-2.9396	-2.9667	-2.2583	-3.3125	-2.6271	-2.5667	-3.2917	-2.3458	-3.1688	-2.9667	-2.3479	144.527	169.206	238.435	-16.254	45.764	52.960	-1.805	298.760	299.662	111.412	120.986	205.460	118.859	236.635	317.218	218.366	0.00063975	0.00088673	0.00030823	543.32	1.8005e-06	3.6964e-06	451.86	202.77	4.9682e-06	2.3184e-06	192.72	82.472	88.589	46.608	5.4753e-06	43.02	0.0039878	0.0064841	0.0018107	604.66	6.6942e-05	7.0539e-05	458.02	205.62	5.7631e-05	6.91e-05	197.94	84.115	90.419	47.372	6.0439e-05	43.773	321.433	38.390	23.134	-13.425	119.668	85.166	-14.927	-8.513	95.682	66.799	-11.627	-7.358	-4.322	-0.466	125.972	-4.155	-8191	255	
3465.623	1	1	0	0	0.041989	0.21167	0.06841	0.33974	0.15945	0.28304	0.14265	0.22596	0.2314	0.079157	0.20581	0.22328	0.25912	0.2968	0.24022	0.27324	-2.9292	-2.6104	-2.6083	-3.3125	-2.3271	-2.8312	-3.1417	-2.2667	-2.9917	-2.7396	-2.4208	-3.2375	-2.4646	-2.8167	-3.2021	-2.225	297.531	175.302	155.962	62.107	152.715	-9.034	294.790	314.812	101.712	288.150	310.947	274.145	138.397	76.211	114.569	304.257	0.00051245	0.00051687	4.2133e-05	544.61	7.5644e-06	5.4951e-06	448.48	200.75	5.502e-06	6.893e-06	191.8	82.421	88.049	46.29	4.5145e-06	42.903	0.0035639	0.0057312	0.0015869	591.26	5.9169e-05	6.1671e-05	452.96	203.67	5.1241e-05	6.2275e-05	194.69	83.105	89.127	46.864	5.3879e-05	43.569	300.248	46.852	45.194	-14.346	186.864	150.720	-15.091	-8.054	129.851	51.767	-11.271	-7.039	-4.344	-0.045	81.202	-4.038	-8191	255	
3465.719	1	1	0	0	0.062784	0.18514	0.073068	0.26394	0.20358	0.26333	0.11596	0.26178	0.19243	0.15062	0.52588	0.25585	0.13936	0.13735	0.12651	0.16033	-2.6979	-2.5854	-2.3063	-3.125	-2.4229	-2.8083	-3.2854	-2.3458	-3.0979	-2.8333	-2.3667	-3.2792	-2.6125	-2.725	-3.2667	-2.4292	253.146	81.780	154.715	112.071	63.381	111.069	180.851	255.277	-7.593	-14.737	319.262	293.843	299.286	6.538	93.736	-23.593	0.0006214	0.00044558	4.2871e-05	534.2	8.5935e-06	2.1083e-06	450.85	201.69	1.0776e-05	6.2809e-06	193.44	82.291	87.324	46.011	8.5383e-06	43.182	0.0031883	0.005231	0.0014523	581.21	5.435e-05	5.725e-05	451.52	203.23	4.6958e-05	5.5679e-05	195.57	83.492	88.994	46.683	4.8704e-05	43.841	302.108	132.755	324.634	-13.149	119.576	-24.922	-14.889	-8.657	179.088	62.321	-11.303	-7.047	-4.199	-0.205	107.450	-4.123	-8191	255	
3465.840	1	1	0	0	0.19509	0.12203	0.082664	0.04861	0.17969	0.12646	0.19521	0.087458	0.19999	0.083941	0.085012	0.27737	0.14409	0.0799	0.21575	0.31019	-2.5771	-2.8292	-2.3375	-3.2792	-2.5896	-2.3646	-3.0729	-2.5458	-2.875	-2.9333	-2.2125	-3.2354	-2.3896	-2.4729	-3.0083	-2.5375	251.944	324.464	286.958	314.509	121.648	244.132	297.681	262.202	-14.543	150.041	261.069	311.637	245.401	223.828	176.189	25.757	0.00058937	5.7792e-05	5.5809e-05	533.23	9.3901e-06	9.0838e-07	452.05	201.85	9.2243e-06	4.9915e-06	193.94	83.12	87.609	46.372	5.9106e-06	44.269	0.0029397	0.0046841	0.0013203	577.04	5.0547e-05	5.2748e-05	451.54	203.19	4.4176e-05	5.362e-05	196.51	84.178	89.313	46.957	4.9129e-05	44.782	304.065	190.546	80.451	-14.465	190.940	30.176	-15.113	-8.298	182.049	56.381	-11.600	-7.252	-4.386	-0.041	146.717	-4.580	-8191	255	
3465.936	1	1	0	0	0.19864	0.15865	0.091216	0.20104	0.20938	0.12323	0.34657	0.092977	0.075403	0.22369	0.25288	0.059386	0.24194	0.057249	0.050378	0.46886	-2.4917	-3.0021	-2.3542	-2.9979	-2.6917	-2.425	-3.2104	-2.5312	-2.6229	-3.0396	-2.275	-3.1771	-2.9229	-2.5854	-3.2875	-2.5687	201.349	292.833	174.728	231.769	145.826	241.881	268.779	278.230	124.030	83.165	172.703	74.120	25.039	48.327	318.028	280.136	0.00034724	0.00065319	3.3118e-05	540.96	5.7753e-06	4.2263e-06	454.27	204.14	8.7232e-06	4.2069e-06	195.41	84.39	88.118	47	7.1987e-07	45.041	0.0030184	0.0048566	0.0013937	585.82	5.3268e-05	5.7175e-05	458.24	205.69	4.8048e-05	5.8224e-05	199.48	85.632	90.12	47.646	5.625e-05	45.925	290.287	65.693	140.578	-14.281	121.848	97.186	-14.965	-8.421	138.187	240.851	-11.746	-7.232	-4.221	-0.267	189.348	-4.428	-8191	255	
3466.008	1	1	0	0	0.27155	0.13651	0.12597	0.14644	0.18635	0.09767	0.088449	0.13477	0.047353	0.16207	0.12392	0.052657	0.16443	0.34607	0.17134	0.14929	-2.2479	-3.0917	-2.2125	-3.1375	-2.8417	-2.3292	-3.3667	-2.4688	-2.6792	-3.1396	-2.35	-3.1167	-3.0438	-2.2146	-3.2938	-2.6604	25.516	-5.216	168.078	317.413	228.546	304.080	22.046	2.852	206.618	140.074	178.005	128.572	279.229	291.848	57.051	-21.689	0.00048864	0.00049372	0.00028803	548.01	1.1997e-05	2.9002e-06	460.33	204.18	6.1757e-06	2.3324e-06	198.41	84.485	88.441	46.782	3.6982e-06	44.535	0.0034876	0.0055636	0.001596	596.8	6.2416e-05	6.51e-05	465.55	207.15	5.7332e-05	6.703e-05	202.57	85.891	90.763	47.795	6.3732e-05	45.619	320.745	25.014	57.859	-14.175	160.120	24.725	-14.911	-8.750	136.456	231.384	-11.406	-7.149	-4.230	-0.406	218.843	-3.735	-8191	255	
3466.104	1	1	0	0	0.038347	0.19424	0.24275	0.033561	0.16363	0.2846	0.22854	0.17373	0.26821	0.071512	0.2439	0.34195	0.01393	0.15015	0.073636	0.2299	-2.1771	-3.1375	-2.3563	-3.0167	-2.9583	-2.1792	-3.3104	-2.5604	-2.4375	-3.3438	-2.2542	-2.8375	-2.8854	-2.4062	-3.0958	-2.675	178.656	329.422	242.263	136.785	328.934	66.552	314.340	74.805	126.971	120.602	115.596	286.143	292.451	-0.745	226.962	9.376	0.0006621	0.00033622	0.00014246	542.35	1.3345e-05	5.708e-06	461.47	203.74	5.5397e-06	1.3453e-06	193.84	82.82	87.725	46.256	5.0851e-06	43.241	0.0038871	0.0064114	0.0017868	605.48	6.8649e-05	7.1811e-05	466.16	206.53	6.0625e-05	7.134e-05	199.52	84.527	89.73	47.091	6.3729e-05	44.248	319.449	43.275	27.514	-13.942	87.508	139.793	-14.935	-8.470	195.812	36.371	-11.212	-6.935	-4.216	-0.278	45.262	-4.544	-8191	255	
3466.223	1	1	0	0	0.15859	0.12191	0.11445	0.077094	0.23841	0.094708	0.15487	0.060682	0.12487	0.16243	0.12293	0.12163	0.18116	0.10981	0.21914	0.17753	-2.0687	-3.2	-2.2604	-2.7458	-3.0646	-2.175	-3.0875	-2.7562	-2.2583	-3.3792	-2.4771	-2.9396	-3.0792	-2.3479	-3.1604	-2.9021	177.722	213.679	283.727	202.645	-17.092	251.153	275.930	71.620	49.746	62.906	286.814	105.375	213.819	175.319	26.826	165.933	0.0005579	0.00048144	0.00012953	545.84	6.0029e-06	1.9425e-06	455.25	202.05	7.158e-06	6.4817e-06	190.97	81.908	86.834	46.018	3.8639e-06	43.265	0.003822	0.0061973	0.0017704	597.84	6.6329e-05	7.1595e-05	461.47	204.54	5.9628e-05	7.0051e-05	197.36	83.882	89.109	46.901	6.1377e-05	44.368	328.540	110.222	82.706	-13.644	114.640	168.967	-14.656	-8.363	175.131	139.948	-11.529	-6.575	-4.040	-0.347	111.036	-4.310	-8191	255	
3466.319	1	1	0	0	0.060385	0.12756	0.14596	0.20935	0.16756	0.093293	0.23178	0.085432	0.34256	0.15908	0.060449	0.12266	0.18987	0.31575	0.161	0.11201	-1.8687	-3.1958	-2.5604	-2.675	-3.1625	-2.15	-2.9917	-2.8979	-2.2438	-3.1688	-2.5625	-2.6104	-3.2479	-2.4271	-3.025	-3.05	327.390	249.558	-8.007	306.076	184.285	188.878	81.035	-16.863	-23.175	304.683	63.668	165.004	224.099	262.017	236.720	8.323	0.00043132	0.00042535	0.00014395	545.43	3.1521e-06	4.4562e-06	457.5	201.98	8.4192e-06	8.361e-06	193.1	82.588	86.416	46.126	7.332e-06	43.77	0.003803	0.0061697	0.0017727	603.08	6.7433e-05	7.2917e-05	463.9	204.71	6.2273e-05	7.2792e-05	199.11	84.234	89.206	46.949	6.7471e-05	44.862	-18.596	46.586	72.594	-13.475	161.432	116.581	-15.002	-8.296	123.310	122.050	-11.681	-6.855	-4.095	-0.069	187.598	-4.172	-8191	255	
3466.415	1	1	0	0	0.053515	0.17285	0.23592	0.088861	0.20317	0.098906	0.25387	0.024227	0.092571	0.14194	0.11652	0.31001	0.092506	0.11209	0.11481	0.15225	-1.8479	-3.0625	-2.625	-2.5458	-3.2542	-2.1042	-2.9833	-3.0875	-2.3271	-3.2896	-2.6625	-2.5167	-3.2375	-2.5354	-2.8125	-3.1583	29.854	120.080	24.316	150.925	143.502	328.176	326.593	191.258	216.180	273.257	271.898	15.728	155.504	329.552	285.404	261.362	0.00063468	0.00088289	0.00017348	544.36	2.1237e-06	1.5245e-05	462.3	202.3	2.655e-06	3.8136e-06	195.76	83.084	86.914	46.081	1.3243e-06	43.926	0.004175	0.006637	0.0019241	608.67	7.2515e-05	7.8278e-05	467.04	205.51	6.6601e-05	7.4909e-05	200.76	84.795	89.364	47.064	7.152e-05	45.198	323.095	26.191	51.037	-13.866	209.360	139.282	-15.017	-8.246	224.439	74.490	-11.602	-6.913	-4.179	-0.055	13.664	-4.130	-8191	255	
3466.511	1	1	0	0	0.23727	0.10154	0.10785	0.32403	0.13443	0.090264	0.28899	0.37738	0.28615	0.15203	0.041796	0.20846	0.037162	0.10649	0.14169	0.2282	-1.9458	-3.0542	-2.4813	-2.3396	-3.2458	-2.4958	-2.75	-3.0854	-2.2396	-3.0938	-2.9167	-2.4604	-3.15	-2.5542	-2.4104	-3.0938	314.782	-0.502	333.440	158.503	47.488	228.003	293.127	252.720	287.104	-19.923	242.423	289.372	163.267	281.568	282.348	32.155	0.0005527	0.00021932	0.00017617	546.03	4.8474e-06	5.7001e-06	458.41	202.12	8.8181e-06	6.0519e-06	194.57	83.424	86.467	45.639	3.8553e-06	43.654	0.0043658	0.006983	0.0020106	610.37	7.455e-05	7.961e-05	466.43	205.26	6.6279e-05	7.6872e-05	200.69	84.945	88.946	46.71	7.0404e-05	44.667	280.066	225.537	116.252	-13.074	114.534	142.802	-14.688	-8.474	208.093	94.165	-11.376	-7.041	-4.259	-0.338	-12.878	-4.067	-8191	255	
3466.608	1	1	0	0	0.092397	0.18263	0.17445	0.2652	0.15379	0.049252	0.33077	0.17081	0.22309	0.19034	0.10051	0.26998	0.087062	0.045545	0.077185	0.12238	-1.9167	-3.0271	-2.8042	-2.2958	-3.0792	-2.7271	-2.6688	-3.2646	-2.2896	-2.8896	-2.9208	-2.375	-3.0292	-2.7229	-2.4042	-3.3375	110.176	179.268	247.860	260.754	119.168	167.549	322.983	281.834	139.419	309.387	251.689	288.218	-18.246	30.825	230.965	88.598	0.00053623	0.00055927	7.0176e-05	547.21	3.5896e-06	3.9801e-06	459.74	202.29	4.7093e-06	9.3482e-06	194.45	81.092	86.097	45.344	5.0505e-06	42.506	0.0043009	0.0068076	0.00197	609.12	7.27e-05	7.9273e-05	465.53	204.15	6.7032e-05	7.8139e-05	198.85	83.492	88.231	46.221	7.1511e-05	43.724	307.091	127.469	59.082	-14.116	4.354	197.198	-14.658	-8.767	140.339	95.663	-11.338	-7.101	-4.060	-0.128	279.486	-4.164	-8191	255	
3466.704	1	1	0	0	0.18125	0.33707	0.39408	0.04188	0.042958	0.10399	0.32697	0.044354	0.3624	0.27741	0.13361	0.27731	0.094418	0.23915	0.10715	0.17418	-1.9104	-2.8271	-2.8229	-2.2458	-3.2604	-2.5625	-2.4708	-3.325	-2.2396	-2.8542	-3.1417	-2.2646	-3.0771	-3.0083	-2.3875	-3.3	-15.637	205.080	230.048	299.214	258.435	292.755	298.695	279.477	120.877	18.061	1.295	297.797	-0.101	282.569	130.805	262.047	0.00060177	0.00061153	0.00012089	544.91	5.5933e-06	3.5953e-06	452.86	199.85	7.0914e-06	2.4714e-06	192.36	81.298	85.55	44.797	7.3241e-06	42.788	0.0043577	0.006938	0.0019845	608.09	7.2835e-05	7.9794e-05	462.13	203.43	6.6904e-05	7.6852e-05	197.9	83.259	88.188	45.968	7.1723e-05	43.868	323.294	74.353	83.125	-13.461	57.082	183.630	-15.305	-8.367	126.871	9.597	-11.006	-6.841	-4.102	-0.122	164.962	-4.207	-8191	255	
3466.800	1	1	0	0	0.086864	0.021976	0.09801	0.25232	0.19867	0.10111	0.20857	0.087022	0.16923	0.13456	0.030437	0.12553	0.13102	0.19023	0.09307	0.13689	-2.1125	-2.6708	-3.1292	-2.25	-3.1708	-2.7687	-2.4292	-3.3667	-2.5854	-2.6625	-3.15	-2.4333	-2.9188	-2.9479	-2.4042	-3.1729	171.050	322.504	-15.151	168.575	269.515	234.828	189.444	89.636	133.156	53.874	244.035	331.773	65.890	262.732	260.875	259.017	0.00037883	0.00057686	0.0001581	539.8	5.9772e-06	2.1426e-06	457.95	200.49	1.2288e-05	5.9183e-06	192.8	81.647	86.264	45.126	1.1309e-05	43.778	0.0043766	0.0069598	0.0019925	608.67	7.3914e-05	8.0781e-05	464.24	203.27	6.7912e-05	7.8413e-05	199.51	83.994	88.494	46.121	7.1927e-05	44.624	325.802	-12.403	93.686	-13.728	154.766	293.689	-14.741	-8.452	221.176	146.860	-11.312	-6.710	-4.188	0.126	75.982	-4.280	-8191	255	
3466.920	1	1	0	0	0.36571	0.099555	0.093758	0.061952	0.23885	0.093157	0.2001	0.24958	0.098456	0.24106	0.07198	0.07139	0.25359	0.21791	0.11704	0.052519	-2.0979	-2.3375	-3.2021	-2.3021	-2.8792	-2.9437	-2.4	-3.2125	-2.6417	-2.5563	-3.2396	-2.3667	-2.8375	-3.1208	-2.3604	-3.2875	2.293	-11.535	58.075	189.990	57.308	108.593	309.892	248.888	-1.858	175.100	116.136	38.464	273.519	14.309	291.268	134.273	0.00052262	0.00027924	0.0001171	546.06	1.0826e-05	1.0036e-06	462.68	202.77	6.9985e-06	5.9226e-06	196.69	83.373	86.568	45.558	7.7844e-06	44.649	0.0043681	0.0069521	0.001987	609.24	7.4076e-05	7.9604e-05	466.89	204.65	6.7972e-05	7.7803e-05	201.82	85.131	88.813	46.601	7.2091e-05	45.527	331.850	190.688	130.492	-13.474	160.509	100.792	-14.787	-8.287	209.229	230.728	-11.101	-6.550	-3.662	0.055	95.460	-4.033	-8191	255	
3467.015	1	1	0	0	0.2449	0.08668	0.080924	0.039514	0.10433	0.14802	0.0058042	0.058036	0.21492	0.25547	0.068046	0.068146	0.22365	0.15709	0.32662	0.2785	-2.4333	-2.5292	-3.6125	-2.3708	-2.8271	-3.1646	-2.4917	-3.1937	-2.8896	-2.3625	-3.3667	-2.6667	-2.8833	-3.3438	-2.4708	-3.4604	288.969	3.553	218.869	208.865	48.810	92.064	-0.947	278.720	313.636	225.000	308.208	311.753	239.047	77.264	12.334	308.375	0.00047636	0.00033407	0.000251	550.19	7.2853e-06	7.1037e-06	460.62	200.99	1.2577e-05	3.084e-06	196.02	83.073	86.121	45.209	3.4726e-06	43.94	0.0043571	0.0069014	0.001975	613.18	7.3906e-05	8.0355e-05	468.05	204.87	6.8501e-05	7.8366e-05	202.63	85.471	88.634	46.357	7.3038e-05	44.852	318.355	72.040	71.159	-13.696	241.483	115.126	-14.538	-8.312	132.793	115.876	-11.230	-6.734	-3.902	-0.130	119.287	-3.647	-8191	255	
3467.111	1	1	0	0	0.2664	0.20411	0.079964	0.26742	0.24116	0.0091933	0.2619	0.18071	0.18813	0.23737	0.26193	0.034401	0.11935	0.070584	0.042912	0.24451	-2.4479	-2.3729	-3.1042	-2.6188	-2.6833	-3.2521	-2.3208	-3	-2.9771	-2.5167	-3.3812	-2.7104	-2.6708	-3.3312	-2.4167	-3.0292	208.448	213.808	247.036	250.687	-4.737	222.451	284.252	325.173	261.664	71.934	266.772	202.835	94.030	252.424	191.267	149.730	0.00064905	0.00040993	0.00026753	544.64	3.8003e-06	1.8013e-06	455.73	200.2	3.4753e-06	5.005e-06	193.41	82.342	85.502	45.02	1.813e-06	43.213	0.0044208	0.0071109	0.0020103	611.46	7.5555e-05	8.2336e-05	465.71	203.81	7.0859e-05	8.4493e-05	200.84	84.213	88.024	46.091	7.6437e-05	44.354	310.360	12.910	52.673	-13.376	132.678	85.658	-14.672	-8.117	174.703	158.213	-11.374	-6.802	-4.036	0.009	207.706	-4.398	-8191	255	
3467.207	1	1	0	0	0.21445	0.2221	0.26084	0.035761	0.16125	0.12658	0.28157	0.1921	0.2379	0.13055	0.34679	0.32278	0.13992	0.27306	0.19759	0.29332	-2.7625	-2.35	-3.275	-2.575	-2.4875	-3.4375	-2.5771	-3.0896	-3.1292	-2.5604	-3.15	-2.8104	-2.6792	-3.4167	-2.3479	-2.8688	-24.481	37.189	198.918	113.919	176.501	12.927	278.499	111.462	261.287	83.021	286.147	245.364	59.566	332.779	25.811	284.458	0.00046993	0.00020712	0.00027357	539.26	4.6623e-06	2.3614e-06	456.73	200.51	9.2406e-06	6.1043e-06	193.71	82.206	84.683	45.233	6.7438e-06	43.92	0.004674	0.0074958	0.0020531	611.68	7.885e-05	8.4078e-05	465.09	203.67	7.23e-05	8.3859e-05	200.77	84.58	87.84	46.191	7.7319e-05	45.051	306.966	87.691	126.061	-13.747	86.344	97.297	-14.685	-8.099	100.969	51.558	-11.586	-6.837	-4.342	-0.123	186.221	-3.922	-8191	255	
3467.303	1	1	0	0	0.028565	0.12792	0.068031	0.24349	0.16349	0.0074635	0.073388	0.21165	0.10157	0.076409	0.095955	0.15102	0.19516	0.24548	0.16604	0.098797	-2.9104	-2.2979	-3.1063	-2.8438	-2.2667	-3.3187	-2.6562	-2.9021	-3.0604	-2.4708	-3.225	-2.8208	-2.4313	-3.4083	-2.4854	-2.8292	9.919	287.177	161.006	162.798	311.333	37.931	239.187	215.091	9.148	210.522	69.765	302.082	-8.541	3.408	218.583	292.311	0.00054006	0.0006792	0.00030566	538.57	9.0608e-06	5.3897e-06	456.86	199.95	1.3807e-05	1.0215e-05	196.53	83.614	86.257	45.53	5.3615e-06	44.561	0.0046109	0.0075892	0.0020849	611.08	8.0609e-05	8.4743e-05	467.22	203.86	7.1293e-05	8.5013e-05	203.09	85.933	88.8	46.577	7.7639e-05	45.912	317.840	59.608	81.251	-13.968	109.562	122.608	-14.844	-8.408	187.815	180.150	-11.231	-7.056	-4.153	-0.405	88.472	-4.162	-8191	255	
3467.399	1	1	0	0	0.10554	0.15667	0.14571	0.1061	0.22303	0.24204	0.064663	0.28015	0.19042	0.21602	0.15981	0.31718	0.12617	0.17305	0.051199	0.19792	-2.9167	-2.2938	-3.0104	-2.8583	-2.3229	-3.5187	-2.725	-2.7167	-3.0958	-2.5917	-3.0667	-3.0458	-2.45	-3.2604	-2.7167	-2.4646	1.205	309.497	247.189	248.513	206.704	122.278	90.350	187.134	176.027	112.020	198.487	141.873	145.479	310.913	201.429	232.175	0.00049393	0.00059727	0.00022093	539.27	3.9942e-06	1.2451e-06	459.78	202.36	6.2793e-06	4.807e-06	197.6	84.915	86.28	45.871	7.0719e-06	45.152	0.0046536	0.0075707	0.0020999	613.9	7.88e-05	8.3569e-05	469.86	205.53	7.0596e-05	8.404e-05	204.64	86.765	88.97	46.827	7.5354e-05	46.523	318.048	94.158	51.946	-14.024	78.868	244.510	-15.459	-8.366	167.188	108.792	-11.430	-6.912	-4.448	-0.230	87.734	-4.057	-8191	255	
3467.520	1	1	0	0	0.19817	0.25	0.29655	0.15172	0.018725	0.23286	0.1221	0.029648	0.12314	0.21398	0.2271	0.077412	0.15255	0.13277	0.21976	0.20682	-2.8979	-2.4417	-2.8667	-3.2208	-2.4313	-3.3792	-2.9313	-2.6437	-3.5042	-2.3104	-2.9417	-3.3937	-2.4	-3.1979	-2.8563	-2.4542	138.774	92.210	223.414	83.181	-5.313	97.181	90.965	316.223	9.134	195.181	323.443	243.002	114.513	252.332	320.056	304.653	0.00069754	0.00057411	0.00011639	547.72	8.8808e-06	5.7956e-06	463	202.43	5.7951e-06	2.1732e-07	200.46	85.543	86.614	45.658	6.4051e-06	44.587	0.0044724	0.0072501	0.0019652	609.63	7.4764e-05	7.7224e-05	470.1	205.75	6.5913e-05	7.8284e-05	205.52	86.96	88.956	46.609	7.1747e-05	45.569	313.218	87.323	20.556	-13.387	186.770	138.906	-15.046	-8.163	163.511	62.259	-11.326	-7.333	-4.067	-0.114	152.907	-3.996	-8191	255	
3467.615	1	1	0	0	0.26466	0.16487	0.098584	0.25111	0.15549	0.12509	0.27167	0.095181	0.05507	0.156	0.24794	0.1378	0.020887	0.29801	0.21095	0.18031	-3.0375	-2.3625	-2.7833	-2.9313	-2.4313	-3.1208	-2.8937	-2.3583	-3.2479	-2.475	-2.6917	-3.2875	-2.4083	-3.2479	-2.9833	-2.5354	142.730	249.593	297.156	149.725	273.322	1.652	203.115	179.600	97.554	63.860	239.875	271.754	151.551	267.863	118.508	223.153	0.0003408	0.00074228	0.00014111	543.02	3.6631e-06	7.9531e-06	461.16	200.81	1.5282e-05	2.0257e-06	197.85	84.245	86.342	45.33	1.056e-05	44.222	0.0042255	0.0069285	0.0019423	607.33	7.4109e-05	7.7786e-05	467.77	204.65	6.6007e-05	7.8151e-05	204.21	86.106	88.459	46.403	7.1945e-05	45.204	306.924	87.543	92.924	-13.624	84.511	104.092	-15.051	-8.252	85.331	71.610	-10.971	-6.529	-4.126	0.138	121.102	-4.200	-8191	255	
3467.711	1	1	0	0	0.15129	0.25096	0.11613	0.086649	0.1239	0.42115	0.025936	0.19048	0.10383	0.35782	0.25199	0.084131	0.1936	0.2294	0.061614	0.29233	-2.8937	-2.4479	-2.4896	-3.0521	-2.4875	-2.8771	-2.9833	-2.2938	-3.0521	-2.5708	-2.5604	-3.4375	-2.4188	-3.025	-3.15	-2.3833	317.574	-7.622	156.282	-20.303	245.496	283.066	254.999	244.334	73.571	96.758	63.100	97.740	304.853	276.264	289.277	229.315	0.0005638	0.00075048	7.2747e-05	540.56	1.7346e-06	6.747e-06	459.48	201.5	7.121e-06	4.1407e-06	199.56	84.939	86.741	45.374	8.4653e-06	44.474	0.0042243	0.0069613	0.0019296	606.9	7.438e-05	7.8177e-05	466.51	204.62	6.5815e-05	7.9729e-05	204.34	86.296	88.559	46.364	7.3045e-05	45.532	306.038	3.023	77.321	-13.653	322.656	121.175	-14.996	-8.378	173.070	123.714	-11.333	-6.760	-4.042	-0.041	133.736	-4.209	-8191	255	
3467.807	1	1	0	0	0.25278	0.13985	0.02464	0.24622	0.2101	0.11913	0.12325	0.099823	0.088253	0.044073	0.1621	0.16763	0.22575	0.16315	0.23949	0.23976	-2.7542	-2.5792	-2.2417	-3.3021	-2.3146	-2.6896	-3.2333	-2.2396	-3.1604	-2.7521	-2.3854	-3.3312	-2.4208	-2.9854	-3.1542	-2.4396	193.482	4.018	45.287	226.907	181.631	109.070	197.561	161.878	171.798	319.395	-1.187	227.464	225.385	226.370	85.461	209.007	0.00063192	0.00038132	0.00016848	547.44	2.3659e-06	1.2858e-06	461.41	199.92	7.9365e-06	3.4416e-06	199.91	83.961	85.797	45.527	1.3031e-06	44.878	0.0042724	0.0070506	0.0020069	609.49	7.483e-05	7.8689e-05	470.15	204.11	6.6192e-05	8.0202e-05	205.24	86.409	88.581	46.476	7.3215e-05	46	307.862	88.263	57.385	-13.689	46.987	156.062	-14.980	-8.404	125.511	203.245	-11.088	-6.692	-4.071	0.224	125.497	-4.060	-8191	255	
3467.880	1	1	0	0	0.13222	0.088112	0.14023	0.10846	0.12407	0.15707	0.27687	0.13515	0.064862	0.35332	0.12413	0.15884	0.18482	0.07915	0.25864	0.22909	-2.8354	-2.7229	-2.4417	-3.2125	-2.5208	-2.5375	-3.2125	-2.4958	-2.9958	-3.1042	-2.3333	-3.2938	-2.6625	-2.5958	-3.2104	-2.4021	241.242	75.789	284.512	72.508	321.588	180.275	292.312	172.954	30.974	63.438	13.515	280.643	18.896	271.008	-24.963	268.341	0.00063206	0.00017719	0.00023336	539.56	7.3574e-06	4.7883e-06	461.74	201.66	1.2888e-05	5.9625e-06	199.68	84.789	85.303	45.26	2.8378e-06	43.812	0.0042882	0.0071389	0.0019929	604.88	7.6363e-05	7.9691e-05	469.67	204.36	6.5966e-05	8.0117e-05	204.35	86.153	88.054	46.213	7.241e-05	44.859	292.200	-25.894	63.329	-13.907	95.970	71.813	-15.091	-8.433	200.568	144.232	-11.001	-7.058	-4.165	-0.148	26.943	-4.091	-8191	255	
3467.999	1	1	0	0	0.15786	0.40038	0.21803	0.065322	0.33442	0.1479	0.12729	0.22644	0.03278	0.13389	0.11553	0.27782	0.26725	0.21276	0.19252	0.2178	-2.5583	-3.1437	-2.2062	-3.2396	-2.6958	-2.6188	-3.3583	-2.4167	-2.9229	-3.0458	-2.2333	-3.1542	-2.7	-2.5396	-3.2604	-2.4333	210.309	-13.588	17.865	101.232	298.007	4.398	320.069	140.148	32.675	27.619	279.288	317.245	103.334	277.548	182.345	191.228	0.00049905	0.00049076	0.00021933	540.09	8.9637e-06	4.3799e-06	461.47	200.79	3.9987e-06	1.6842e-06	196.77	83.593	84.783	44.938	6.6453e-06	43.972	0.0042944	0.0072035	0.0020082	605.87	7.7233e-05	8.1698e-05	466.34	203.84	6.6684e-05	8.0739e-05	202.67	85.207	87.511	46.045	7.239e-05	44.923	314.332	104.767	50.023	-13.664	221.375	69.343	-14.643	-8.395	217.931	227.709	-11.163	-6.586	-3.892	-0.063	113.694	-4.405	-8191	255	
3468.095	1	1	0	0	0.23021	0.28729	0.20709	0.065241	0.072456	0.13577	0.22471	0.19866	0.059021	0.13031	0.16509	0.096081	0.19179	0.1779	0.16858	0.22684	-2.3458	-3.2271	-2.2062	-3.2146	-2.7875	-2.4042	-3.325	-2.4646	-2.6896	-3.1625	-2.3417	-2.9542	-2.8937	-2.4958	-3.2167	-2.5625	266.810	228.641	200.611	92.560	191.375	321.530	147.396	326.447	242.448	48.114	314.672	111.159	138.257	269.838	-13.103	251.634	0.00075215	0.00090263	0.00014421	541.64	6.0787e-06	7.2094e-06	458.38	200.35	1.1202e-05	5.2251e-06	197.75	83.426	85.677	45.127	7.5219e-06	44.453	0.00431	0.0071591	0.0020047	605.51	7.765e-05	7.9356e-05	465.92	203.75	6.7791e-05	8.0164e-05	203.25	85.361	88.058	46.21	7.2907e-05	45.544	318.330	65.408	128.798	-13.218	73.777	215.140	-14.823	-8.299	203.670	260.577	-11.082	-6.922	-4.103	-0.187	233.623	-4.123	-8191	255	
3468.191	1	1	0	0	0.11562	0.11081	0.13676	0.24419	0.10435	0.087772	0.11038	0.22994	0.097034	0.21397	0.038689	0.12735	0.18807	0.16168	0.20279	0.19966	-2.0521	-3.2667	-2.4354	-3.1729	-2.9271	-2.5083	-3.2438	-2.6333	-2.6688	-3.2021	-2.4062	-2.8375	-2.9437	-2.475	-3.1562	-2.6562	-15.241	262.607	47.979	198.303	150.595	143.305	147.472	9.478	258.698	-23.405	-25.143	25.241	247.093	236.102	200.663	291.617	0.00056628	0.00020515	9.2528e-05	541.31	6.3197e-06	1.1307e-05	462.18	202.7	1.309e-05	3.7129e-06	200.98	85.09	85.987	45.602	6.4128e-06	45.21	0.0043611	0.0071556	0.0020091	606.81	7.7216e-05	8.0444e-05	469.86	204.79	6.9126e-05	8.1151e-05	206.23	86.871	88.741	46.701	7.3949e-05	46.564	312.231	177.531	94.854	-13.115	64.867	106.783	-14.992	-8.389	159.943	179.702	-11.190	-6.888	-4.242	-0.414	110.753	-4.156	-8191	255	
3468.312	1	1	0	0	0.15255	0.21995	0.2311	0.19439	0.13648	0.086316	0.20365	0.11076	0.039298	0.12734	0.18688	0.096028	0.22107	0.10254	0.10406	0.16006	-2.1312	-3.1604	-2.1792	-2.8167	-2.9062	-2.2417	-3.1896	-2.7625	-2.5854	-3.2646	-2.2896	-2.6917	-3.1875	-2.4062	-3.1354	-2.9562	115.169	43.684	282.286	254.829	72.188	129.250	-17.108	215.067	82.201	125.913	320.452	-14.790	242.659	276.122	200.747	2.129	0.00052601	0.00088314	0.00014434	545.18	7.3204e-06	6.7726e-06	464.24	202.83	9.6183e-06	7.6717e-06	201.34	85.851	86.269	45.919	7.3599e-06	45.984	0.0045406	0.0073364	0.0020691	612.6	7.8919e-05	8.2994e-05	472.39	205.95	6.9736e-05	8.1676e-05	207.33	87.747	89.33	46.914	7.4353e-05	47.204	301.282	43.963	124.224	-13.863	181.736	121.340	-14.382	-8.417	184.221	103.606	-11.256	-6.647	-4.100	-0.091	117.514	-4.101	-8191	255	
3468.408	1	1	0	0	0.05295	0.25525	0.13122	0.07313	0.26393	0.030002	0.20678	0.061239	0.22953	0.022095	0.16346	0.10689	0.24294	0.31976	0.18096	0.07991	-2.0583	-3.2646	-2.2667	-2.5896	-3.1813	-2.3125	-3.0646	-2.8417	-2.3292	-3.3229	-2.5146	-2.7396	-3.0875	-2.1229	-3.1063	-3.0833	93.696	40.427	168.214	197.948	181.123	193.661	310.848	261.399	140.506	221.518	195.368	-24.950	23.889	331.975	4.658	298.018	0.00049383	0.00069216	0.00021459	552.11	5.3986e-06	8.6697e-06	470.71	201.78	6.336e-06	6.3236e-06	201.23	85.542	86.475	45.803	4.7549e-06	45.364	0.0045417	0.0073614	0.0020994	615.64	7.8868e-05	8.3921e-05	475.21	206.03	7.0503e-05	8.3091e-05	208.01	87.894	89.412	46.849	7.3923e-05	46.545	331.119	100.502	159.017	-13.138	73.645	68.605	-14.551	-8.152	209.211	133.465	-10.951	-6.626	-4.233	0.006	93.677	-3.668	-8191	255	
3468.503	1	1	0	0	0.23283	0.2162	0.12675	0.071933	0.12973	0.41178	0.30807	0.13997	0.22881	0.25248	0.079531	0.11114	0.067111	0.14382	0.17433	0.15565	-1.8458	-3.1875	-2.6542	-2.4396	-2.9917	-2.4	-2.9313	-3.0042	-2.2604	-3.2042	-2.6604	-2.6292	-3.4042	-2.3042	-2.9417	-3.0646	169.232	186.665	183.498	180.878	288.547	278.081	239.513	277.202	163.812	135.417	21.945	210.580	224.489	329.590	308.493	301.938	0.00053379	0.0010571	0.00024602	550.14	8.867e-06	3.2194e-06	464.05	201.95	6.8416e-06	7.6485e-06	198.43	85.39	86.356	45.331	1.1917e-05	44.987	0.0045042	0.007224	0.0020768	613.84	7.9216e-05	8.4808e-05	472.38	205.72	6.9759e-05	8.0551e-05	205.98	87.381	88.823	46.516	7.3388e-05	46.04	329.931	114.875	25.396	-13.019	149.480	180.321	-14.515	-8.107	62.358	232.320	-10.797	-6.662	-3.820	0.009	106.900	-3.675	-8191	255	
3468.600	1	1	0	0	0.23858	0.10356	0.12824	0.14068	0.27692	0.21826	0.23053	0.22129	0.049141	0.14975	0.16375	0.070411	0.058899	0.20297	0.10162	0.25901	-1.8062	-3.1042	-2.5812	-2.4229	-3.2625	-2.3479	-2.8604	-3.0042	-2.2542	-3.1188	-2.7042	-2.5187	-3.3458	-2.6354	-2.6125	-3.1521	187.794	88.293	279.647	-10.536	242.416	199.527	220.705	251.910	324.782	-1.957	222.763	-18.140	110.177	257.546	14.168	7.829	0.00068882	0.00032048	0.00016661	540.79	8.5376e-06	2.5837e-06	463.49	201.92	1.7105e-06	6.7828e-06	201.99	85.296	86.807	45.853	6.915e-06	45.676	0.0044497	0.0072434	0.0020556	610.78	7.675e-05	8.3206e-05	471.38	205.32	6.9332e-05	8.0432e-05	207.03	87.574	89.204	46.856	7.3158e-05	46.681	319.964	181.920	324.241	-13.381	79.260	187.221	-14.832	-8.111	254.324	105.678	-11.195	-6.652	-3.568	0.156	192.659	-4.219	-8191	255	
3468.695	1	1	0	0	0.23757	0.1458	0.23652	0.25496	0.088107	0.06088	0.074049	0.33603	0.12786	0.11232	0.13221	0.21261	0.2354	0.27143	0.17984	0.084991	-1.8417	-3.0958	-2.7438	-2.4125	-3.2062	-2.5417	-2.6729	-3.1458	-2.125	-3.0417	-2.9604	-2.5021	-3.3292	-2.6333	-2.4875	-3.2438	26.213	304.674	229.055	225.323	128.662	-0.372	213.718	229.378	79.878	225.029	238.891	281.351	-15.791	309.232	100.249	-21.420	0.0006355	0.00029935	0.0001209	547.91	9.6577e-06	8.697e-06	468.17	203.14	1.336e-05	4.9716e-06	202.81	86.788	87.311	46.408	5.8299e-06	46.188	0.0044575	0.0070411	0.0020442	611.5	7.628e-05	8.2157e-05	474.1	206.31	6.8851e-05	7.9829e-05	208.32	88.514	89.674	47.393	7.3565e-05	47.373	305.196	162.260	224.531	-13.213	109.987	202.852	-14.499	-8.260	176.207	148.637	-11.430	-6.786	-4.269	0.140	191.145	-4.317	-8191	255	
3468.791	1	1	0	0	0.15484	0.19506	0.14873	0.037428	0.26768	0.12396	0.10748	0.09719	0.14965	0.18823	0.064645	0.20225	0.19114	0.085191	0.13283	0.14402	-1.7479	-2.7354	-2.9854	-2.2917	-3.2979	-2.4958	-2.6354	-3.3271	-2.2208	-2.775	-2.9875	-2.3937	-3.1063	-2.8187	-2.3396	-3.275	263.064	293.674	92.392	173.063	235.940	108.013	251.035	102.691	14.175	333.142	193.932	55.355	206.234	-22.661	90.162	299.820	0.00067969	0.00057306	0.00017478	544.89	3.3395e-06	4.3714e-06	469.47	204.2	1.4611e-05	7.0286e-06	203.64	86.608	87.339	46.587	1.4999e-05	46.658	0.0044402	0.007079	0.0020531	612.42	7.4892e-05	8.4074e-05	475.98	207.11	6.9429e-05	7.9391e-05	209.54	89.005	89.946	47.541	7.4419e-05	47.926	317.919	48.919	18.879	-13.932	32.189	227.614	-14.554	-8.275	164.695	160.538	-10.975	-6.953	-4.358	-0.423	165.269	-4.248	-8191	255	
3468.887	1	1	0	0	0.34397	0.29809	0.22403	0.12865	0.074588	0.13053	0.1563	0.21519	0.23633	0.098285	0.22879	0.14547	0.20992	0.064142	0.066242	0.2285	-1.7854	-2.9375	-3.1729	-2.2521	-3.0667	-2.7896	-2.3083	-3.1792	-2.3708	-2.7146	-3.1708	-2.2625	-3.2146	-2.9708	-2.3	-3.3833	84.105	88.676	183.893	292.050	250.200	272.981	25.912	214.392	16.178	59.508	15.004	126.035	226.351	29.924	294.459	125.104	0.00060204	0.00013554	0.00012681	551.81	1.0221e-05	6.4161e-06	471.71	204.79	9.0378e-06	8.4217e-06	202.87	86.887	87.8	46.096	6.2392e-06	45.952	0.0045201	0.0070686	0.002035	614.79	7.5908e-05	8.2919e-05	478.11	207.67	6.8716e-05	8.1063e-05	209.21	88.908	89.967	47.372	7.2846e-05	46.98	309.278	197.840	-4.131	-14.286	156.053	50.598	-14.854	-8.956	67.230	154.532	-11.609	-6.950	-4.220	-0.125	188.730	-4.373	-8191	255	
3469.008	1	1	0	0	0.1841	0.22727	0.22374	0.18205	0.2624	0.099144	0.20635	0.05294	0.019318	0.18038	0.092668	0.13799	0.21628	0.35597	0.28837	0.11617	-1.8937	-2.6146	-3.0604	-2.1875	-2.9271	-2.85	-2.4458	-3.3438	-2.4896	-2.6396	-3.1458	-2.3167	-2.9833	-2.9396	-2.2875	-3.0271	-26.208	98.222	317.121	172.139	99.255	235.558	255.798	71.036	102.409	185.723	233.670	300.136	192.825	54.312	227.156	326.548	0.00053373	0.00049643	0.00021947	548.91	5.8005e-06	6.0981e-06	467.5	203.47	1.2109e-05	1.91e-06	200.85	85.906	87.491	45.824	1.1693e-05	45.141	0.0044501	0.0070406	0.0020355	612.81	7.5357e-05	8.2559e-05	474.64	206.77	6.9233e-05	8.0459e-05	207.24	87.748	89.555	46.979	7.151e-05	46.22	306.782	122.892	74.641	-13.500	116.099	177.814	-14.933	-8.413	162.956	197.721	-11.333	-6.915	-4.331	-0.262	174.399	-4.337	-8191	255	
3469.104	1	1	0	0	0.11971	0.12394	0.23437	0.21159	0.10405	0.17176	0.12594	0.35718	0.14999	0.19521	0.23341	0.10113	0.27044	0.040848	0.13658	0.092141	-2.175	-2.4896	-3.1646	-2.2646	-2.9188	-3.0396	-2.3292	-3.1146	-2.4646	-2.2792	-3.3667	-2.4625	-2.7979	-3.1312	-2.1833	-3.1167	45.177	304.776	184.458	316.125	162.152	63.453	98.065	269.521	20.133	66.031	264.951	161.536	275.665	20.099	130.149	26.858	0.00051182	0.00027814	0.00016194	552.8	4.3976e-06	6.375e-06	463.08	203.34	1.0794e-05	1.7549e-06	201.9	85.628	86.435	46.253	6.4812e-06	45.877	0.0043962	0.0069427	0.0019971	613.91	7.5315e-05	8.0352e-05	471.53	206.87	6.8669e-05	8.0672e-05	206.11	87.618	89.466	47.294	7.3301e-05	46.791	2.744	73.230	-23.815	-14.076	123.501	170.432	-14.995	-8.255	145.409	147.295	-11.450	-6.683	-3.919	-0.342	183.586	-4.262	-8191	255	
3469.200	1	1	0	0	0.32826	0.1625	0.14292	0.2858	0.10326	0.074337	0.41444	0.091483	0.032301	0.15083	0.30952	0.21733	0.046656	0.41624	0.10558	0.27283	-2.2167	-2.2875	-3.0854	-2.5521	-2.7479	-2.9896	-2.1854	-3.0625	-2.8	-2.3083	-3.2875	-2.5	-2.6667	-3.2354	-2.2729	-3.0687	136.654	149.476	-12.602	78.913	112.235	258.060	-0.270	38.602	127.070	198.958	145.920	307.278	92.501	305.264	45.297	322.857	0.0005845	0.000293	0.00014477	543.43	2.7063e-06	4.1313e-06	467.84	204.42	7.5037e-06	7.8296e-06	200.23	86.499	87.93	46.636	4.1795e-06	46.289	0.0044313	0.0069731	0.0019577	612.31	7.4342e-05	7.944e-05	474.72	206.81	6.7142e-05	7.9408e-05	206.42	88.384	90.043	47.591	7.053e-05	47.417	310.412	70.360	55.809	-13.967	102.714	85.229	-14.479	-8.425	2.991	112.486	-11.386	-7.005	-4.016	0.058	64.990	-3.783	-8191	255	
3469.296	1	1	0	0	0.16484	0.1319	0.087975	0.26847	0.25481	0.15361	0.23175	0.037114	0.17607	0.057327	0.058505	0.21072	0.13384	0.30471	0.090472	0.20923	-2.575	-2.3729	-3.2542	-2.5333	-2.5729	-3.1104	-2.4229	-3.2021	-2.9646	-2.2167	-3.1813	-2.6125	-2.5583	-3.2896	-2.4729	-2.925	-11.075	100.364	178.504	9.342	328.730	287.313	320.207	48.239	53.670	306.845	199.693	33.401	215.639	310.745	26.580	240.511	0.00032341	0.0003692	0.00016697	545.58	4.0487e-06	8.8095e-06	468.5	204.62	6.8023e-06	1.4483e-06	202.46	87.327	88.27	46.677	1.9663e-06	46.597	0.0043646	0.0069221	0.0019582	614.33	7.3671e-05	7.8804e-05	474.5	207.76	6.6706e-05	7.8465e-05	208.13	89.05	90.177	47.656	7.0661e-05	47.731	326.405	33.721	329.515	-13.242	179.683	183.837	-14.734	-8.409	328.592	127.049	-10.929	-6.650	-4.093	0.120	79.418	-4.121	-8191	255	
3469.392	1	1	0	0	0.13337	0.31878	0.14709	0.10984	0.15472	0.15849	0.20395	0.2095	0.11997	0.28065	0.14756	0.03059	0.23558	0.19714	0.16987	0.24176	-2.5979	-2.2062	-3.0646	-2.6042	-2.5	-3.0354	-2.2875	-2.8729	-3.1896	-2.2229	-3.1375	-2.7146	-2.2854	-3.3375	-2.4562	-2.8146	62.913	113.709	135.051	297.218	275.823	295.386	282.916	241.245	315.348	318.365	315.897	-16.361	131.819	20.710	209.409	274.418	0.00079344	0.0010848	7.5558e-05	543.44	1.021e-05	2.1789e-06	470.13	204.02	1.1269e-05	2.5845e-06	203.27	85.454	87.643	46.206	2.4262e-06	45.271	0.0043609	0.0069005	0.0019212	612.49	7.3969e-05	7.843e-05	475.59	207.3	6.7543e-05	7.8253e-05	207.98	87.943	89.731	47.077	7.1465e-05	46.471	310.071	78.831	187.991	-14.782	132.141	105.740	-14.487	-8.161	162.065	172.561	-11.168	-7.091	-4.203	0.050	67.141	-4.287	-8191	255	
3469.489	1	1	0	0	0.14486	0.14173	0.16732	0.079199	0.21658	0.29274	0.39379	0.21418	0.36176	0.11586	0.058487	0.30635	0.13264	0.25322	0.097785	0.38242	-2.725	-2.3854	-3.0042	-2.8646	-2.2875	-3.2875	-2.5333	-2.55	-3.2354	-2.15	-2.9562	-2.9479	-2.3771	-3.1417	-2.3	-2.5917	270.704	-14.113	31.084	20.607	216.367	207.135	244.661	232.550	183.014	283.609	230.679	220.608	152.530	-21.496	277.773	119.314	0.00068489	0.00043329	0.00015699	546.95	1.9804e-06	2.5092e-06	463.58	202.93	2.7652e-06	8.7419e-06	197.96	85.555	86.451	46.145	7.2687e-06	44.957	0.0042852	0.00691	0.0019106	610.97	7.4048e-05	7.8018e-05	470.63	205.46	6.7241e-05	7.6843e-05	203.7	86.94	88.927	46.979	7.0726e-05	46.087	299.453	65.570	168.071	-14.153	124.120	183.022	-15.184	-8.297	32.621	177.523	-11.509	-7.133	-4.307	-0.420	123.823	-4.231	-8191	255	
3469.585	1	1	0	0	0.10293	0.16271	0.12766	0.13761	0.071745	0.16101	0.21064	0.32369	0.25436	0.13135	0.27931	0.34066	0.13444	0.2097	0.12232	0.27744	-2.8792	-2.15	-2.9646	-2.7896	-2.0625	-3.1958	-2.7354	-2.3458	-3.225	-2.3312	-2.8354	-3.0729	-2.3667	-3.1542	-2.5854	-2.4375	101.189	259.228	116.469	327.522	243.661	280.109	318.286	198.263	153.067	16.691	218.967	290.087	221.684	130.047	254.988	216.205	0.00047604	0.0006719	0.00024778	544.57	2.8955e-06	5.2512e-06	463.36	202.17	1.1164e-05	1.9176e-06	199.11	85.701	87.118	46.165	9.059e-06	45.749	0.0041744	0.0069338	0.0019202	608.69	7.2203e-05	7.538e-05	469.24	205.26	6.4063e-05	7.6453e-05	204.15	87.448	89.315	47.071	7.0399e-05	46.739	302.709	25.254	104.389	-13.199	72.248	50.590	-14.575	-8.278	156.578	15.808	-11.071	-7.072	-4.672	-0.410	149.214	-4.446	-8191	255	
3469.704	1	1	0	0	0.11722	0.036952	0.33132	0.19646	0.33767	0.19156	0.15175	0.11229	0.1809	0.17546	0.26181	0.11998	0.16012	0.11372	0.20418	0.074292	-2.6854	-2.275	-2.5417	-2.9229	-2.1854	-3.1729	-2.8167	-2.45	-3.2542	-2.4417	-2.8146	-3.3354	-2.0104	-2.9667	-2.7146	-2.3979	162.595	-10.976	318.253	140.631	216.690	226.247	-24.943	287.885	240.960	117.900	149.534	247.441	311.985	-22.082	197.781	258.794	0.00059984	0.00036713	6.7991e-05	546.09	2.9593e-06	1.0011e-05	464.25	202.15	5.8009e-06	7.316e-06	201.17	86.129	87.493	46.512	4.7016e-06	46.413	0.0041638	0.0068011	0.0018823	610.73	7.3238e-05	7.6193e-05	470.57	205.73	6.5993e-05	7.7686e-05	206.44	88.185	89.686	47.39	7.1416e-05	47.489	307.077	41.840	124.134	-14.749	271.841	78.415	-15.069	-8.369	140.837	112.811	-11.486	-6.937	-4.147	-0.388	141.723	-4.297	-8191	255	
3469.775	1	1	0	0	0.092554	0.18204	0.14648	0.18073	0.23293	0.1387	0.16071	0.42865	0.13029	0.21195	0.099194	0.26316	0.19491	0.078488	0.095112	0.17193	-2.9062	-2.4729	-2.5729	-3.2167	-2.2083	-2.9729	-2.7417	-2.3229	-3.1958	-2.4667	-2.5062	-3.2062	-2.2125	-3.0458	-2.9771	-2.3771	23.811	285.960	272.008	300.495	-11.584	179.308	305.855	239.075	100.636	275.598	219.933	6.916	11.618	329.394	-20.562	145.999	0.00059512	0.00054503	0.00011725	550.57	2.0935e-06	8.3686e-06	469.1	204.13	2.9565e-06	6.1033e-06	203.05	86.877	87.773	46.57	6.7356e-06	46.481	0.0041509	0.0068739	0.00194	613.72	7.4199e-05	7.8157e-05	473.73	206.69	6.5653e-05	8.0103e-05	207.86	88.877	90.003	47.558	7.2801e-05	47.643	-23.119	42.861	16.368	-13.020	273.539	91.996	-15.017	-8.271	295.926	83.608	-11.068	-6.549	-4.290	0.147	128.477	-3.837	-8191	255	
3469.871	1	1	0	0	0.26177	0.17644	0.30578	0.30969	0.19617	0.19273	0.17778	0.18035	0.20158	0.26822	0.13548	0.094988	0.0039514	0.21712	0.35657	0.1257	-2.7583	-2.6688	-2.4292	-3.1833	-2.1958	-3.0938	-2.9125	-2.3333	-3.1125	-2.6	-2.5667	-3.2562	-2.4771	-2.8	-3.0271	-2.3063	282.257	8.203	99.071	21.744	176.767	303.640	199.823	267.087	92.781	48.635	188.906	262.943	103.043	289.205	78.600	215.094	0.00067756	0.0006563	0.00020989	548.36	4.4205e-06	5.5223e-06	466.4	203.82	4.6588e-06	4.7374e-06	203.05	86.044	87.524	46.161	7.5777e-06	45.822	0.0042712	0.0070682	0.001962	612.19	7.4806e-05	7.7746e-05	474.26	207.03	6.5219e-05	7.8954e-05	208.1	88.262	89.649	47.285	7.2024e-05	46.858	302.377	32.081	85.397	-13.319	89.107	127.188	-14.788	-8.777	167.438	102.750	-11.232	-6.760	-4.343	-0.112	86.811	-3.989	-8191	255	
3469.968	1	1	0	0	0.094248	0.47856	0.37037	0.1279	0.027607	0.24879	0.19008	0.10918	0.10536	0.17753	0.12856	0.22114	0.30882	0.14781	0.045506	0.31239	-2.6417	-2.6396	-2.2771	-3.0083	-2.3104	-2.7292	-3.1813	-2.3125	-3.1625	-2.8917	-2.3958	-3.3958	-2.3979	-2.8333	-3.2021	-2.2708	6.740	1.276	100.927	114.105	28.739	-17.773	319.097	262.587	33.172	138.485	173.613	267.382	144.621	251.034	21.346	295.699	0.0008846	0.00064428	0.00010583	546.93	4.0735e-06	8.5421e-06	463.4	203.27	9.4231e-06	8.0432e-06	201.08	86.775	86.848	46.454	3.0926e-06	45.92	0.0042577	0.0069529	0.0019546	612.35	7.5329e-05	7.9189e-05	472.35	206	6.5459e-05	7.9368e-05	205.86	88.003	89.357	47.411	7.1788e-05	46.913	-23.956	109.236	135.018	-12.961	105.213	158.525	-14.565	-7.849	157.874	81.023	-11.040	-6.712	-4.110	0.099	154.091	-4.247	-8191	255	
3470.088	1	1	0	0	0.33185	0.10175	0.12012	0.22255	0.11189	0.43491	0.20047	0.17631	0.17419	0.16111	0.19731	0.21108	0.16043	0.20275	0.11948	0.096354	-2.7583	-2.6688	-2.2188	-3.2167	-2.5958	-2.5208	-3.2583	-2.2875	-2.8792	-2.9833	-2.4271	-3.0875	-2.6437	-2.6063	-3.2562	-2.2979	-9.767	159.206	-12.198	255.208	117.066	237.023	279.406	-23.515	112.370	20.759	216.660	259.236	245.669	231.116	276.023	327.547	0.00056077	0.00041431	5.3564e-05	547.44	3.0287e-06	5.3555e-06	465.29	201.44	9.4677e-06	5.6403e-06	201.53	86.269	87.341	46.279	7.3472e-06	46.015	0.0042274	0.0070224	0.0019384	609.3	7.4316e-05	7.7606e-05	471.79	205.54	6.5462e-05	7.8888e-05	206.83	88.172	89.544	47.355	6.9977e-05	47.137	-18.980	121.841	72.942	-13.683	117.742	145.307	-14.641	-8.096	117.061	99.419	-11.448	-6.356	-4.343	-0.092	220.280	-3.980	-8191	255	
3470.184	1	1	0	0	0.37179	0.15078	0.077814	0.098563	0.12575	0.036077	0.11921	0.086676	0.23524	0.16249	0.10969	0.041017	0.061019	0.080046	0.15565	0.076289	-2.5104	-2.8688	-2.1854	-3.0833	-2.7062	-2.4792	-3.2292	-2.2167	-2.6604	-3.0354	-2.1958	-3.05	-2.6042	-2.4708	-3.1958	-2.3833	265.041	194.720	-3.310	118.470	195.311	73.945	96.389	314.977	330.837	55.666	150.805	278.427	279.538	26.721	129.276	331.686	0.00057558	0.00063025	0.00013789	537.78	5.1295e-06	6.9631e-06	466.37	203.18	1.2168e-05	4.3143e-06	201.75	86.64	87.718	46.444	7.6826e-06	45.816	0.0042036	0.0069469	0.0019451	606.97	7.4113e-05	7.7538e-05	474.1	206.8	6.3868e-05	7.7888e-05	207.31	88.585	89.886	47.417	7.0039e-05	47.132	314.886	78.036	-6.701	-14.120	116.423	162.496	-15.100	-8.587	280.924	74.532	-11.365	-7.001	-4.289	0.009	89.612	-3.909	-8191	255	
3470.280	1	1	0	0	0.26716	0.11583	0.14572	0.13412	0.21596	0.13908	0.13752	0.26958	0.32031	0.11318	0.11131	0.1308	0.14056	0.12294	0.23191	0.076003	-2.3021	-2.9417	-2.1208	-3.1146	-2.6667	-2.4437	-3.1375	-2.4646	-2.5417	-3.2729	-2.3167	-3.1437	-3.0604	-2.3417	-3.1271	-2.5687	104.789	149.571	-10.888	-7.816	56.110	90.290	54.436	266.131	91.287	207.747	-12.754	329.543	-20.302	181.955	106.252	60.469	0.00064969	0.00040076	0.00028737	541.8	8.6941e-06	8.302e-06	464.18	203.94	1.1188e-05	8.2761e-06	199.26	85.416	87.087	46.291	5.3765e-06	45.285	0.0042476	0.0068951	0.0019443	609.29	7.397e-05	7.7892e-05	471.15	205.75	6.4643e-05	7.7267e-05	204.9	87.535	89.219	47.082	6.7917e-05	46.338	329.263	92.581	14.772	-13.452	68.145	104.017	-14.778	-8.399	158.492	123.318	-11.209	-6.510	-3.853	-0.189	230.594	-4.059	-8191	255	
3470.401	1	1	0	0	0.12311	0.11051	0.04777	0.10808	0.097915	0.24883	0.14554	0.06893	0.12769	0.2531	0.22813	0.28074	0.20403	0.14788	0.13644	0.23013	-2.1854	-3.275	-2.4521	-2.9167	-3.0417	-2.2896	-3.1917	-2.7958	-2.4354	-3.0854	-2.2958	-2.8479	-3.0062	-2.2188	-3.0979	-2.7708	314.357	274.429	13.857	19.145	88.099	307.039	208.792	287.126	63.497	66.254	290.974	308.453	210.195	309.797	79.254	180.840	0.00051319	0.00088896	0.00013799	545.9	5.3879e-06	6.3316e-06	461.37	201.64	2.7298e-06	3.6752e-06	198.95	86.125	86.791	46.303	6.6886e-06	45.514	0.0040795	0.0067607	0.0018712	605.9	7.0678e-05	7.4341e-05	468.16	205.08	6.142e-05	7.4156e-05	204.52	87.528	89.027	47.14	6.7607e-05	46.555	329.584	10.701	56.522	-13.664	184.522	117.117	-15.154	-8.174	250.777	193.697	-11.084	-6.964	-3.878	-0.143	121.329	-4.108	-8191	255	
3470.473	1	1	0	0	0.25029	0.12528	0.036241	0.13689	0.23117	0.25869	0.10081	0.090276	0.093723	0.22928	0.1873	0.080441	0.19238	0.26419	0.096526	0.074016	-2.1063	-3.1021	-2.3208	-2.9	-3.0438	-2.2417	-3.1083	-2.6792	-2.4729	-3.3396	-2.5312	-2.7729	-3.1146	-2.2958	-3.1271	-2.9167	252.294	230.273	161.673	52.744	-16.493	-9.615	248.653	279.021	180.493	202.345	65.637	305.436	327.654	8.567	102.478	130.308	0.00059227	0.00096218	9.3061e-05	543.82	1.3572e-05	2.1795e-06	462.54	202.85	9.9547e-06	3.4791e-06	198.56	85.816	87.242	45.945	3.4841e-06	46.075	0.0041019	0.0067927	0.0019347	605.56	7.4557e-05	7.6311e-05	469.55	204.96	6.5536e-05	7.5596e-05	205.03	87.446	89.134	47.031	6.9037e-05	47.046	317.469	82.236	118.400	-12.947	85.473	65.671	-14.900	-8.687	144.130	119.558	-10.856	-7.112	-4.648	-0.438	61.506	-4.647	-8191	255	
3470.569	1	1	0	0	0.18924	0.2835	0.19082	0.1368	0.15138	0.22333	0.19772	0.24856	0.18798	0.24957	0.24219	0.089517	0.17985	0.21105	0.19139	0.051896	-1.8625	-3.0854	-2.3667	-2.5771	-3.0375	-2.3271	-3.1729	-3.0167	-2.1979	-3.2604	-2.5687	-2.5729	-3.2458	-2.2833	-3.0125	-2.9875	176.691	193.468	10.056	163.421	122.329	228.843	158.604	176.680	80.792	231.977	330.319	83.095	119.643	199.262	182.037	286.626	0.00081388	0.00060794	6.5129e-05	542.22	5.6963e-06	9.9414e-07	467.57	201.56	4.7322e-06	6.3172e-06	198.74	86.033	86.692	46.11	1.021e-05	46.381	0.0042682	0.0069029	0.0019765	609.34	7.6358e-05	8.0374e-05	472.29	205.18	6.8493e-05	7.9637e-05	206.18	87.948	89.315	47.113	7.3025e-05	47.441	322.189	40.657	62.628	-13.251	143.747	101.852	-14.803	-8.676	150.342	165.079	-11.708	-7.107	-4.514	-0.297	167.806	-4.205	-8191	255	
3470.688	1	1	0	0	0.11492	0.087514	0.20355	0.13235	0.10677	0.043436	0.098415	0.11776	0.22835	0.14921	0.078955	0.3013	0.18348	0.222	0.16992	0.15775	-2.0042	-3.2271	-2.7229	-2.4313	-3.125	-2.3354	-2.8125	-3.0417	-2.1854	-3.2125	-2.4229	-2.5292	-3.1	-2.4083	-2.6937	-3.1	181.041	33.594	63.727	100.324	-22.684	249.535	219.395	109.475	285.179	4.918	235.306	294.616	291.158	313.746	312.700	198.015	0.00069362	0.00044513	0.00013941	551.55	1.0015e-05	1.592e-06	467.03	201.59	7.0874e-06	5.4846e-06	200.46	86.674	86.648	46.362	9.2494e-06	46.247	0.004481	0.0071871	0.0020789	617.37	7.7806e-05	8.2899e-05	473.82	205.85	7.0674e-05	8.3215e-05	207.2	88.682	89.48	47.347	7.4998e-05	47.547	318.843	93.521	127.703	-13.291	95.124	141.949	-15.222	-8.467	146.899	117.577	-11.087	-7.093	-4.308	-0.559	141.237	-4.534	-8191	255	
3470.784	1	1	0	0	0.18347	0.10047	0.090444	0.27639	0.052606	0.33478	0.082591	0.17002	0.21824	0.21959	0.19975	0.36003	0.13483	0.21409	0.22906	0.15382	-1.9583	-3.1188	-2.7687	-2.3021	-3.1896	-2.4583	-2.8812	-3.1917	-2.375	-3.0333	-2.9188	-2.3312	-3.0687	-2.6188	-2.7083	-3.1458	318.619	13.840	299.804	271.843	291.449	2.018	4.224	181.627	307.089	-17.917	25.834	255.499	20.137	323.107	166.839	81.753	0.00053893	0.00094185	0.00014694	550.92	3.1385e-06	6.6208e-06	465.18	202.29	8.2058e-06	1.8381e-06	199.63	85.99	86.533	46.095	3.0078e-06	45.722	0.004494	0.0071296	0.0020743	614.16	7.7223e-05	8.2408e-05	473.4	205.52	6.9106e-05	7.8897e-05	205.63	88.007	88.872	46.982	7.3562e-05	46.658	319.633	79.961	38.532	-14.024	207.314	180.038	-15.089	-8.558	304.324	119.686	-11.323	-6.763	-4.520	-0.761	21.299	-4.337	-8191	255	
3470.880	1	1	0	0	0.24264	0.062812	0.11442	0.33158	0.19748	0.099568	0.13378	0.2198	0.10451	0.12953	0.0645	0.20504	0.26297	0.24271	0.13563	0.25355	-2.0458	-2.9	-2.9437	-2.2979	-3.1521	-2.4938	-2.5812	-3.4313	-2.2417	-3.0646	-3.0104	-2.4771	-3.3583	-2.7896	-2.5729	-3.2167	226.310	174.775	85.968	265.944	328.438	102.779	1.595	64.136	288.825	269.536	279.176	17.508	301.942	327.299	87.571	274.345	0.00063166	0.00068676	0.00034732	541.74	5.2512e-06	3.5507e-06	461.59	200.66	9.84e-06	7.2427e-06	198.3	84.476	85.792	45.327	4.6138e-06	44.849	0.0045187	0.0071518	0.0020601	610.23	7.7897e-05	8.2884e-05	469.32	204.36	7.0408e-05	8.2926e-05	203.69	86.688	88.228	46.423	7.6202e-05	46.033	311.435	41.007	32.862	-14.316	220.671	142.173	-14.682	-8.469	173.136	144.009	-11.818	-6.780	-4.048	-0.220	119.742	-4.154	-8191	255	
3471.001	1	1	0	0	0.21567	0.20341	0.3005	0.17449	0.057635	0.16282	0.21468	0.12934	0.17719	0.074348	0.1186	0.19394	0.15765	0.10669	0.18416	0.11824	-1.6396	-2.9646	-2.8042	-2.3563	-3.1729	-2.6646	-2.5104	-3.2396	-2.2583	-2.8542	-3.2479	-2.2896	-3.2042	-2.8625	-2.325	-3.4208	-21.482	-8.355	232.074	39.403	267.469	176.428	-2.158	304.839	249.797	250.387	205.601	36.549	28.060	58.115	142.446	13.646	0.00060517	0.00089175	3.1614e-05	548.19	4.2931e-06	9.7994e-06	461.72	200.53	6.5508e-06	3.1275e-06	197.78	85.025	85.909	45.44	6.379e-06	45.574	0.0046064	0.0073043	0.0021496	614.84	7.9706e-05	8.8324e-05	469.65	203.95	7.299e-05	8.5667e-05	203.56	87.106	88.351	46.485	7.8133e-05	46.723	320.697	39.799	27.349	-13.311	54.613	162.372	-14.674	-8.389	62.741	159.187	-11.430	-6.221	-3.804	-0.101	146.162	-3.943	-8191	255	
3471.072	1	1	0	0	0.11496	0.11182	0.14767	0.25427	0.33145	0.20097	0.30982	0.079698	0.14541	0.20438	0.11076	0.2355	0.10578	0.075133	0.26702	0.33427	-1.9833	-2.6792	-3.0375	-2.4354	-3.125	-2.8187	-2.3	-3.1833	-2.3271	-2.6125	-3.0958	-2.3937	-3.1271	-2.9604	-2.1937	-3.2979	330.985	9.668	80.696	168.217	-7.966	166.779	98.618	308.283	255.933	224.636	244.067	265.090	306.328	319.731	253.080	265.205	0.00063503	0.0011379	0.000128	545.34	9.9977e-06	4.001e-06	464.03	202.34	1.6728e-05	7.4138e-06	199.91	85.616	86.01	45.636	6.8821e-06	46.376	0.0046882	0.0076232	0.002193	617.21	8.1036e-05	8.8208e-05	471.54	205.42	7.4799e-05	8.5899e-05	206.42	87.706	88.582	46.867	7.7166e-05	47.485	298.822	116.310	225.539	-13.225	81.725	235.485	-14.566	-8.266	150.842	122.458	-11.024	-6.819	-4.324	-0.093	149.769	-4.185	-8191	255	
3471.169	1	1	0	0	0.028686	0.1314	0.1409	0.31066	0.065141	0.11795	0.36879	0.13878	0.039047	0.33309	0.12781	0.051332	0.17279	0.14352	0.14997	0.050275	-2.1083	-2.4771	-3.1396	-2.3208	-3.0979	-3.0146	-2.6375	-3.2	-2.5875	-2.4437	-3.3021	-2.4792	-2.8375	-3.0979	-2.3979	-3.1396	273.490	258.103	306.831	282.310	260.526	242.504	226.346	313.843	135.081	259.233	39.663	287.040	106.508	20.397	263.377	59.614	0.00048534	0.00068659	9.5959e-05	540.79	2.9731e-06	4.8788e-06	465.66	202.61	9.5248e-06	5.4641e-06	201.53	86.213	86.608	46.084	7.3296e-06	46.308	0.0046821	0.0074993	0.0021432	613.95	8.049e-05	8.717e-05	474.78	205.91	7.5202e-05	8.6713e-05	208.09	88.498	89.367	47.115	8.0597e-05	47.543	-23.460	55.132	45.764	-13.784	26.815	126.587	-14.747	-8.447	131.578	98.649	-11.537	-6.922	-4.247	-0.307	208.858	-4.047	-8191	255	
3471.265	1	1	0	0	0.07481	0.10922	0.094755	0.2841	0.02847	0.12194	0.10026	0.255	0.25507	0.44307	0.0741	0.28014	0.11636	0.12031	0.21462	0.22302	-2.225	-2.3604	-3.1188	-2.4208	-2.7958	-3.1146	-2.2417	-3.1917	-2.9646	-2.3833	-3.3292	-2.3187	-2.6688	-3.1854	-2.2042	-2.9646	125.775	312.261	-1.461	194.203	212.295	211.271	279.613	249.422	293.666	-25.190	154.585	267.704	14.500	264.279	227.924	227.619	0.00079623	0.00012484	0.00019796	545.94	6.3315e-06	1.3761e-06	466.36	201.54	7.3076e-06	7.8994e-06	199.1	85.193	86.068	45.947	9.4861e-06	45.507	0.0048568	0.0078479	0.0022318	618.74	8.2384e-05	9.0357e-05	473.71	205.26	7.5786e-05	8.8051e-05	206.51	87.805	88.839	46.959	8.0084e-05	46.697	-21.574	272.393	44.888	-13.692	100.647	141.868	-14.942	-8.133	122.585	60.764	-10.767	-7.175	-4.346	-0.532	132.491	-4.296	-8191	255	
3471.385	1	1	0	0	0.14646	0.04291	0.086063	0.29734	0.074841	0.43852	0.11618	0.085694	0.19449	0.10107	0.07365	0.13123	0.21216	0.092785	0.065703	0.23096	-2.3563	-2.1771	-3.1625	-2.35	-2.6937	-2.9813	-2.1396	-3.0333	-2.8104	-2.1792	-3.3063	-2.5729	-2.5875	-3.1063	-2.1937	-2.9938	315.629	297.236	23.899	153.822	61.360	297.738	245.730	16.459	149.812	221.305	164.717	307.396	239.112	212.014	141.153	226.688	0.00065344	0.00066382	0.00019331	540.84	6.5872e-06	3.3436e-06	459.05	200.51	1.3014e-05	7.6036e-06	198.6	84.984	86.79	46.106	1.8014e-06	45.753	0.0048882	0.0078546	0.0022206	614.53	8.3239e-05	8.9926e-05	471.04	204.78	7.7994e-05	8.9567e-05	205.74	87.661	89.004	47.026	8.1653e-05	46.987	317.464	18.945	59.705	-13.698	111.711	51.363	-14.527	-8.287	117.862	187.478	-10.930	-6.830	-3.943	-0.194	268.907	-3.961	-8191	255	
3471.481	1	1	0	0	0.071647	0.11439	0.026296	0.26031	0.11498	0.1109	0.31569	0.27787	0.15192	0.29606	0.053408	0.23802	0.22537	0.23596	0.15517	0.13749	-2.4938	-2.2875	-3.2521	-2.6021	-2.4979	-3.3792	-2.4229	-2.9417	-3.1375	-2.3229	-3.1958	-2.4958	-2.35	-3.1	-2.4292	-2.7188	-18.549	279.468	145.547	326.508	315.584	219.464	243.455	272.845	231.082	187.193	220.918	284.272	290.861	319.692	122.884	310.640	0.00056246	0.00083447	0.00014381	536.22	4.5307e-06	3.9869e-06	466.43	201.82	4.9277e-06	3.8341e-06	199.78	85.785	86.843	46.089	5.0349e-06	46.356	0.0049001	0.0078819	0.0022418	617.36	8.5575e-05	9.1096e-05	473.9	205.63	7.7079e-05	8.9871e-05	206.56	88.268	89.476	47.142	8.2585e-05	47.553	330.127	71.443	46.145	-14.151	92.176	104.200	-14.980	-8.149	191.652	176.063	-11.074	-6.910	-4.158	0.064	199.215	-3.593	-8191	255	
3471.576	1	1	0	0	0.10654	0.25675	0.10527	0.18989	0.074057	0.11738	0.30568	0.19172	0.058528	0.16791	0.097858	0.2767	0.34148	0.070776	0.15653	0.088411	-2.6833	-2.1729	-3.125	-2.5667	-2.4542	-3.1146	-2.3792	-2.875	-3.0667	-2.0563	-2.9646	-2.625	-2.4167	-3.0375	-2.3688	-2.6271	14.899	115.529	189.389	192.597	-12.467	76.459	327.462	-14.117	132.661	175.567	271.557	126.355	300.331	314.361	236.502	195.487	0.00061488	0.00024094	9.0283e-05	547.41	4.3689e-06	1.942e-06	465.93	201.53	1.1723e-05	3.1363e-06	201.11	86.33	86.519	46.151	4.4586e-06	46.587	0.0049919	0.0080574	0.0022508	622.63	8.5474e-05	9.0938e-05	475.58	205.74	7.8163e-05	9.1321e-05	207.82	88.875	89.447	47.297	8.2649e-05	47.906	295.426	54.780	44.341	-13.038	108.348	333.502	-14.583	-8.139	107.701	264.788	-10.908	-6.881	-4.159	-0.222	148.549	-4.012	-8191	255	
3471.672	1	1	0	0	0.21261	0.18632	0.13646	0.088561	0.25032	0.2727	0.085255	0.32734	0.19099	0.38925	0.11918	0.070641	0.25888	0.2514	0.10687	0.13138	-2.6583	-2.1688	-3.0375	-2.8208	-2.2708	-3.2167	-2.3812	-2.6937	-3.1375	-2.2271	-2.9896	-2.9646	-2.3187	-3.2687	-2.5958	-2.6583	138.693	40.509	255.961	144.428	8.358	92.186	190.772	282.844	218.072	-20.712	21.879	212.416	28.923	-19.007	41.268	252.493	0.00040423	0.00063961	7.435e-05	541.44	7.4905e-06	4.1669e-06	466.8	201.74	4.172e-06	3.3323e-06	201.74	86.156	85.998	45.572	7.3574e-06	45.488	0.0049301	0.0079911	0.0022339	620.67	8.5976e-05	8.9984e-05	475.62	206.09	7.5826e-05	9.083e-05	207.98	88.359	88.931	46.84	8.3558e-05	46.763	288.287	29.589	54.224	-13.857	6.137	160.302	-14.604	-8.516	165.939	131.716	-11.122	-6.952	-3.764	0.147	102.257	-4.110	-8191	255	
3471.768	1	1	0	0	0.10346	0.069427	0.13541	0.21264	0.11399	0.10059	0.090861	0.073073	0.18096	0.11878	0.10288	0.072181	0.13701	0.045696	0.18311	0.34063	-2.8375	-2.3042	-3.0229	-3.0271	-2.0833	-3.0854	-2.6229	-2.4437	-3.1479	-2.2417	-2.8104	-2.9813	-2.2938	-3.275	-2.6292	-2.3187	80.306	78.189	134.560	265.802	166.155	135.119	18.231	304.115	295.717	76.352	295.002	191.193	9.232	172.153	296.492	36.485	0.00060962	0.00050838	6.4687e-05	546.51	1.8859e-06	5.5702e-06	464.32	200.59	9.9018e-06	5.6401e-06	196.44	84.585	85.771	45.297	9.7055e-06	44.837	0.0048481	0.0080215	0.002182	620.17	8.3809e-05	8.8227e-05	472.15	204.25	7.4382e-05	8.9021e-05	204.02	86.876	88.334	46.367	8.1431e-05	45.91	315.171	80.267	99.178	-14.239	170.307	261.751	-14.558	-8.231	48.216	142.608	-10.669	-6.785	-3.793	0.472	161.623	-4.098	-8191	255	
3471.864	1	1	0	0	0.20368	0.12898	0.038116	0.1742	0.14442	0.26564	0.14101	0.16981	0.23275	0.087582	0.22842	0.24202	0.11308	0.076315	0.18554	0.095869	-2.8875	-2.4271	-2.6875	-2.8521	-2.2354	-3.0167	-2.8167	-2.3854	-3.2167	-2.4583	-2.7021	-3.1354	-2.4271	-3.1479	-2.8	-2.4146	68.304	170.117	127.815	149.979	156.894	38.521	202.100	287.899	146.052	294.106	151.508	310.760	269.994	-2.852	-21.501	275.077	0.00044839	0.00062614	5.2048e-05	544.12	5.5846e-06	6.4286e-06	461.96	200.08	1.0846e-05	5.8162e-06	198.32	85.083	85.581	45.516	5.242e-06	45.092	0.0047189	0.0078037	0.002167	615.96	8.3893e-05	8.7198e-05	469.98	204.25	7.3637e-05	8.9292e-05	204.47	87.077	88.38	46.639	8.1092e-05	46.38	317.310	51.987	66.114	-13.760	90.140	87.782	-14.591	-7.776	130.558	141.894	-10.996	-7.133	-4.362	-0.060	26.785	-4.042	-8191	255	
3471.961	1	1	0	0	0.099659	0.44416	0.10333	0.14073	0.05627	0.31727	0.040414	0.068191	0.22034	0.13104	0.26991	0.14867	0.16008	0.14432	0.19781	0.10203	-2.9938	-2.3937	-2.4042	-3.1875	-2.1958	-2.8812	-2.9104	-2.3833	-3.1125	-2.725	-2.3312	-3.2667	-2.4021	-3.1458	-2.9146	-2.3625	125.788	266.424	214.485	193.140	78.865	10.673	265.331	11.732	24.523	32.852	0.788	39.214	236.677	-16.672	134.015	277.891	0.00033956	0.00029925	9.2459e-05	541.14	8.1146e-06	2.3684e-06	460.17	201.16	1.3906e-05	2.6081e-06	198.58	85.857	86.827	45.687	7.3174e-06	45.98	0.0047929	0.0079567	0.0021958	617.26	8.4646e-05	8.9055e-05	472.26	205.63	7.3625e-05	9.0687e-05	205.8	87.998	89.46	46.898	8.0931e-05	47.207	294.701	80.178	179.895	-13.653	125.143	-9.005	-14.784	-7.732	133.307	87.538	-10.998	-6.932	-4.348	0.092	138.193	-3.888	-8191	255	
3472.081	1	1	0	0	0.14491	0.22962	0.11297	0.16415	0.35293	0.052564	0.24884	0.21805	0.17783	0.063145	0.12327	0.056576	0.16314	0.11333	0.20065	0.16035	-2.8021	-2.4854	-2.375	-3.2146	-2.4938	-2.9042	-2.9521	-2.4229	-3.1042	-2.7354	-2.4792	-3.1937	-2.2917	-2.8458	-3.0687	-2.2792	13.217	331.205	73.391	195.511	274.125	166.680	45.156	235.277	114.841	304.253	-18.717	208.993	28.579	286.780	114.525	195.033	0.00043339	0.00048533	0.00013051	542.46	6.1726e-06	4.7466e-06	466.25	202.9	8.1755e-06	7.9283e-06	202.18	86.396	86.538	46.188	6.0015e-06	46.691	0.0046701	0.0080128	0.0021838	617.6	8.4136e-05	8.7554e-05	475.9	206.14	7.4106e-05	9.0151e-05	208.82	88.632	89.476	47.285	8.1108e-05	47.714	-18.092	109.421	49.304	-13.493	137.676	53.466	-14.347	-8.068	128.052	164.823	-10.854	-6.528	-3.874	0.535	146.129	-3.818	-8191	255	
3472.177	1	1	0	0	0.055483	0.19085	0.2136	0.16218	0.063007	0.13502	0.23081	0.050762	0.12525	0.19549	0.25529	0.12074	0.13516	0.20791	0.1622	0.20453	-2.8563	-2.7604	-2.1125	-3.2708	-2.4167	-2.6333	-3.2521	-2.3583	-2.8667	-2.9333	-2.2625	-3.1604	-2.3917	-2.5938	-3.2646	-2.25	53.646	175.543	-5.428	135.674	205.195	291.378	325.940	30.060	191.919	220.037	235.180	322.610	56.583	261.730	191.076	177.124	0.00046169	0.00024173	0.00036631	546.58	7.7301e-06	1.2678e-05	466.68	201.92	9.8374e-06	5.6916e-06	200.03	85.671	86.052	45.779	2.1033e-06	44.89	0.0047698	0.0080032	0.0021993	619.49	8.596e-05	8.8559e-05	475.64	205.99	7.4439e-05	9.0556e-05	207.53	87.914	88.982	46.845	8.0925e-05	46.376	292.357	11.126	76.705	-13.435	165.013	156.705	-14.396	-7.922	127.167	208.410	-11.310	-6.344	-4.081	-0.059	321.099	-3.973	-8191	255	
3472.273	1	1	0	0	0.17652	0.16664	0.15837	0.2501	0.09439	0.28162	0.15279	0.16822	0.10692	0.30979	0.26882	0.1611	0.042763	0.3268	0.2009	0.21448	-2.3521	-2.8312	-2.4479	-3.2021	-2.5667	-2.3979	-3.2646	-2.2917	-2.8729	-2.9792	-2.1229	-3.1271	-2.75	-2.6583	-3.1083	-2.3646	232.138	292.862	229.913	308.115	104.716	8.321	15.790	266.512	55.301	176.407	230.422	326.507	319.583	302.057	18.146	59.329	0.0004667	0.00011868	0.00013871	539.18	8.918e-06	4.5322e-06	462.12	200.5	5.7252e-06	7.4364e-06	196.87	85.374	85.633	45.539	4.4197e-06	45.201	0.0047359	0.0080881	0.0022328	613.9	8.5924e-05	9.0003e-05	472.74	204.64	7.4515e-05	9.0579e-05	204.95	87.368	88.474	46.641	8.019e-05	46.306	-25.397	307.374	72.035	-13.175	110.254	235.532	-14.366	-8.085	169.438	200.047	-11.025	-6.561	-4.118	0.039	254.153	-3.825	-8191	255	
3472.370	1	1	0	0	0.30792	0.13049	0.19718	0.10655	0.15488	0.062279	0.041541	0.23456	0.18446	0.18061	0.21017	0.19519	0.19325	0.14452	0.2147	0.073704	-2.4167	-2.8042	-2.2062	-3.0292	-2.7729	-2.4354	-3.2854	-2.5375	-2.7479	-3.1875	-2.3396	-2.9229	-2.7542	-2.4646	-3.2083	-2.3521	133.428	25.208	159.006	-23.844	-9.939	-10.143	59.816	321.562	217.841	210.237	292.731	35.724	61.128	277.878	-1.998	90.160	0.00078068	0.0004031	9.8863e-05	545.57	4.8785e-06	2.2682e-06	464.57	200.54	7.7728e-06	2.7755e-06	198.5	85.456	85.63	45.477	1.1579e-05	45.196	0.0047513	0.0078437	0.002251	617.65	8.6037e-05	9.0641e-05	472.83	205.1	7.626e-05	9.1834e-05	205.58	87.612	88.962	46.674	8.2041e-05	46.575	-25.447	150.995	24.993	-13.614	152.793	82.935	-14.354	-8.000	-4.178	235.957	-11.265	-6.918	-4.140	-0.128	65.546	-4.035	-8191	255	
3472.466	1	1	0	0	0.088648	0.041719	0.058528	0.15343	0.21176	0.3073	0.24908	0.34961	0.21694	0.26618	0.092718	0.11378	0.40746	0.049594	0.1924	0.206	-2.2438	-3.0729	-2.2375	-3.0125	-2.8667	-2.2292	-3.1521	-2.5187	-2.6	-3.3646	-2.2875	-3.0083	-2.8937	-2.3542	-3.1854	-2.4708	313.814	195.764	312.800	320.092	207.671	271.973	235.105	264.702	74.878	282.239	-18.200	280.775	197.015	298.733	135.367	297.715	0.00062053	3.6855e-05	0.00011356	543.69	1.5274e-06	6.4755e-07	464.59	202.08	6.4693e-06	1.3499e-07	198.45	86.264	86.228	45.652	4.1857e-06	45.595	0.0049898	0.0082189	0.0023456	623.68	8.8729e-05	9.2548e-05	474.43	205.72	7.6572e-05	9.1133e-05	206.65	88.335	89.16	46.876	8.2281e-05	46.913	313.053	282.330	331.082	-13.514	56.772	34.289	-14.515	-8.414	118.262	176.460	-10.780	-6.766	-4.046	-0.007	232.046	-3.718	-8191	255	
3472.560	1	1	0	0	0.28295	0.026208	0.0548	0.12372	0.16515	0.21723	0.2325	0.15844	0.12184	0.07428	0.31173	0.3034	0.11157	0.33135	0.035755	0.19712	-2.1458	-3.1875	-2.1542	-2.7333	-3.0458	-2.3167	-3.0896	-2.6792	-2.5187	-3.1146	-2.3958	-2.925	-3.1979	-2.3604	-3.0271	-2.6042	41.065	142.083	102.361	252.674	-22.442	293.896	154.620	257.707	175.457	73.911	294.143	113.234	-12.704	100.940	-11.117	25.776	0.00041473	0.0010666	2.7381e-05	546.28	9.3852e-06	5.5712e-07	463.59	201.87	7.0478e-06	1.7421e-06	200.18	85.796	86.015	45.47	6.2925e-06	44.644	0.0049181	0.0080159	0.0022823	619.54	8.5076e-05	8.8792e-05	473.56	205.69	7.3463e-05	8.6119e-05	205.95	87.677	88.993	46.605	7.6095e-05	45.968	296.753	75.563	314.383	-13.253	171.462	79.838	-14.090	-8.148	166.738	192.700	-10.622	-6.795	-4.351	-0.427	132.764	-4.439	-8191	255	
3472.681	1	1	0	0	0.19864	0.1652	0.11218	0.19337	0.23953	0.083707	0.23638	0.15714	0.088964	0.095958	0.12529	0.063387	0.11742	0.089357	0.13214	0.075839	-2.0667	-3.3271	-2.3833	-2.8187	-3.0104	-2.3187	-3.1937	-2.6979	-2.4125	-3.0458	-2.3542	-2.7	-2.9938	-2.3	-3.0021	-2.9021	309.319	302.827	24.413	286.008	231.917	-5.017	276.250	301.139	160.369	203.914	239.588	140.328	2.893	312.903	90.686	-9.961	0.00039367	0.0008607	0.00012562	543.49	7.8935e-06	3.3759e-06	462.85	201.62	3.9682e-06	6.0351e-06	198.27	85.03	86.138	45.436	5.2583e-06	44.438	0.0045758	0.0075541	0.0021316	612.75	8.0889e-05	8.6976e-05	471.35	204.97	7.4062e-05	8.6195e-05	204.58	87.023	88.755	46.342	7.7254e-05	45.725	331.733	125.634	45.483	-13.835	272.235	145.531	-14.842	-8.768	155.577	201.637	-11.052	-7.306	-4.320	-0.300	92.843	-4.289	-8191	255	
3472.777	1	1	0	0	0.028963	0.24328	0.072008	0.049068	0.12053	0.064251	0.16406	0.23335	0.25075	0.25282	0.1207	0.11047	0.040167	0.17064	0.19518	0.15477	-1.8792	-3.1	-2.5042	-2.5667	-3.1333	-2.1896	-2.9167	-3.0375	-2.2979	-3.2542	-2.6896	-2.5708	-3.1	-2.3729	-2.8229	-3.1063	98.246	12.764	266.028	210.053	310.118	177.585	328.845	6.210	233.907	115.151	62.146	310.047	-24.315	24.768	-22.309	318.591	0.00049702	0.00067932	7.1128e-05	538.05	8.6112e-06	7.8945e-06	462.45	199.76	8.7584e-06	9.4045e-06	197.58	84.81	85.444	45.307	1.1225e-05	44.623	0.0046948	0.0076645	0.0021672	614.87	8.369e-05	8.7468e-05	470.75	204.81	7.4494e-05	8.525e-05	204.56	86.843	88.402	46.275	7.7419e-05	45.759	307.373	96.959	159.206	-13.582	83.331	124.610	-14.830	-8.057	157.063	44.093	-11.264	-6.543	-4.070	0.090	133.310	-4.035	-8191	255	
3472.873	1	1	0	0	0.13459	0.020459	0.12533	0.1224	0.14671	0.24532	0.044849	0.14933	0.082022	0.10604	0.29641	0.092775	0.27378	0.17582	0.26929	0.28172	-1.8042	-2.9583	-2.6437	-2.3771	-3.0958	-2.0417	-2.9396	-2.975	-2.2875	-3.1896	-2.8063	-2.5146	-3.2146	-2.4625	-2.7104	-3.1375	172.272	97.444	5.317	154.957	233.258	142.154	64.397	230.921	135.265	94.083	275.775	6.343	-11.437	291.508	197.298	212.310	0.00053346	0.00068233	0.0001191	538.05	1.3318e-06	5.31e-06	465.95	201.05	5.4504e-06	5.5948e-06	200.39	85.339	86.177	45.208	3.0207e-06	45.377	0.0047148	0.0074829	0.002179	613.94	8.1365e-05	8.7993e-05	473.81	205.03	7.3721e-05	8.5481e-05	206.05	87.402	88.666	46.322	7.7166e-05	46.42	267.511	91.721	38.266	-14.354	149.300	35.784	-14.598	-8.230	238.077	119.177	-10.777	-6.883	-4.011	0.004	125.045	-3.742	-8191	255	
3472.945	1	1	0	0	0.104	0.22442	0.27043	0.10147	0.033525	0.095299	0.13372	0.29483	0.33211	0.022832	0.27271	0.22739	0.23015	0.11631	0.32974	0.13216	-1.8542	-2.9708	-2.6417	-2.4229	-3.0563	-2.4104	-2.7417	-3.0875	-2.1833	-3.1479	-2.7292	-2.375	-3.2396	-2.7083	-2.4854	-3.3083	295.059	276.660	167.524	274.103	165.847	214.037	230.323	50.845	60.257	136.195	37.905	-0.093	7.561	278.318	237.355	137.887	0.00061718	0.00029252	7.018e-05	541.82	5.6268e-06	4.3637e-06	467.62	202.01	8.6103e-06	1.9799e-06	200.63	86.095	87.017	45.523	6.8006e-06	45.933	0.0046728	0.0074209	0.0021772	613.75	8.0464e-05	8.819e-05	475.75	206.08	7.4212e-05	8.4451e-05	208.06	88.561	89.206	46.654	8.026e-05	47.202	328.301	92.054	315.590	-13.034	135.081	77.629	-14.732	-8.274	89.977	237.432	-11.164	-6.774	-4.304	-0.172	44.567	-4.149	-8191	255	
3473.065	1	1	0	0	0.10201	0.14818	0.18466	0.10861	0.11156	0.129	0.12114	0.14178	0.11324	0.052961	0.19329	0.10897	0.18135	0.34323	0.15953	0.022206	-1.9021	-3.0938	-2.9562	-2.2146	-3.1958	-2.6271	-2.5583	-3.2708	-2.5563	-3.025	-3.275	-2.3042	-3.4396	-2.6625	-2.4271	-3.3187	269.744	-26.535	133.444	30.734	-14.794	245.181	247.720	176.356	-17.191	187.784	289.683	-16.029	332.378	-20.170	250.935	216.055	0.00053257	0.00029599	0.00012176	552.52	1.9511e-06	1.7297e-06	469.89	202.51	6.889e-06	5.2768e-06	202.5	85.755	86.094	45.135	7.8337e-06	45.039	0.0048926	0.0077632	0.0022269	620.73	8.3424e-05	9.0721e-05	478.48	205.92	7.7011e-05	8.8347e-05	208.41	88.015	88.946	46.299	8.0662e-05	46.29	309.800	72.193	96.503	-13.592	-8.211	75.399	-14.508	-8.562	213.554	140.138	-11.404	-6.633	-3.900	-0.044	24.215	-4.206	-8191	255	
3473.162	1	1	0	0	0.31406	0.15595	0.13288	0.21717	0.08697	0.23104	0.097068	0.070964	0.11201	0.05752	0.097621	0.31271	0.25668	0.20802	0.14529	0.056781	-1.7917	-2.7708	-3.0875	-2.1729	-3.1542	-2.6292	-2.4813	-3.3458	-2.3708	-2.6333	-3.0979	-2.3667	-3.0271	-3.0458	-2.4021	-3.3	114.078	332.378	22.695	260.959	125.491	117.062	148.428	101.956	327.604	-16.491	15.975	194.425	-14.450	309.523	314.251	26.461	0.00038564	0.00035488	0.00022109	541.01	6.2286e-06	4.9797e-06	461.62	199.16	6.7183e-06	4.399e-06	195.42	84.02	84.658	44.42	9.1941e-06	43.868	0.0050374	0.0079915	0.0023064	620.65	8.6571e-05	9.4367e-05	473.12	203.76	7.973e-05	9.3641e-05	203.97	86.395	87.719	45.69	8.6246e-05	45.335	330.663	3.453	24.525	-13.057	189.952	63.605	-14.251	-8.186	204.705	123.540	-11.254	-6.802	-3.967	-0.026	125.902	-4.066	-8191	255	
3473.258	1	1	0	0	0.20152	0.053467	0.12783	0.21437	0.1417	0.069357	0.12498	0.18047	0.12626	0.15796	0.30318	0.3384	0.12523	0.16999	0.028824	0.45259	-2.0979	-2.6312	-3.1229	-2.2812	-3.0583	-2.8021	-2.3333	-3.2687	-2.5979	-2.4583	-3.1083	-2.4333	-2.8771	-3.0646	-2.2396	-3.2542	-0.308	182.141	275.306	18.807	189.320	267.077	139.052	325.234	154.730	246.279	318.512	-14.724	183.445	275.128	315.180	181.651	0.0003886	0.00034808	9.1264e-05	546.73	5.1287e-06	5.4366e-06	457.14	198.25	1.4566e-05	7.2727e-06	197.26	83.923	85.049	44.469	5.7918e-06	44.76	0.0051836	0.0082236	0.0023717	621.39	8.7437e-05	9.5225e-05	469.3	202.34	7.9154e-05	9.2351e-05	204.37	86.352	87.836	45.768	8.5039e-05	46.092	275.375	202.844	93.349	-13.432	191.532	90.465	-14.654	-8.365	213.393	115.701	-11.832	-7.221	-4.637	-0.806	181.601	-4.709	-8191	255	
3473.354	1	1	0	0	0.12674	0.21459	0.20418	0.084755	0.21438	0.11772	0.12526	0.18108	0.093436	0.090333	0.1144	0.16307	0.31972	0.091536	0.16224	0.14317	-2.3083	-2.6063	-3.0938	-2.3312	-2.8875	-3.0438	-2.4042	-3.1292	-2.6167	-2.5208	-3.275	-2.5917	-2.8354	-3.0208	-2.3104	-3.2833	-19.170	49.272	107.207	91.525	124.094	143.984	21.918	254.750	132.552	314.556	286.873	54.502	-11.168	313.668	327.889	310.772	0.00055759	0.00051072	0.00026841	531.52	8.3428e-06	4.4378e-06	462.27	199.43	5.5726e-06	1.6031e-06	198.34	85.115	84.987	45.102	5.0889e-07	45.49	0.0050496	0.008106	0.0023102	614.02	8.6473e-05	9.2604e-05	472.07	203.52	7.8676e-05	9.0621e-05	205.65	87.462	87.946	46.272	8.1633e-05	46.719	315.974	92.499	47.890	-13.766	89.146	115.345	-14.663	-8.698	80.534	174.408	-11.126	-6.730	-4.131	-0.418	-7.127	-4.261	-8191	255	
3473.473	1	1	0	0	0.21476	0.14121	0.16933	0.18244	0.080554	0.063049	0.14821	0.2007	0.20965	0.10493	0.21568	0.16507	0.23746	0.072764	0.11421	0.18387	-2.4083	-2.4021	-3.2208	-2.3458	-2.7125	-3.2083	-2.2542	-3.0417	-2.675	-2.4938	-3.1292	-2.3125	-2.8208	-3.0938	-2.2208	-3.1125	204.924	278.768	310.259	287.052	309.914	135.868	177.452	309.773	156.871	208.424	304.828	55.732	333.257	92.669	332.304	268.514	0.0005722	0.00033205	0.00015009	540.23	1.0375e-05	2.9421e-06	467.27	200.56	7.6126e-06	9.7252e-06	200.99	85.943	84.949	45.043	2.4215e-06	45.492	0.0049799	0.0080534	0.0022719	616.76	8.6152e-05	9.2148e-05	476.85	204.52	7.8355e-05	9.1801e-05	207.55	88.007	88.281	46.214	8.3268e-05	46.769	317.057	75.021	89.256	-13.572	102.775	234.449	-14.437	-8.136	193.683	78.068	-10.883	-6.788	-4.191	0.026	76.624	-3.685	-8191	255	
3473.569	1	1	0	0	0.049537	0.037323	0.12341	0.30801	0.063353	0.1729	0.093138	0.14748	0.29298	0.27662	0.12749	0.092484	0.07223	0.21391	0.20782	0.066539	-2.4083	-2.3063	-3.1833	-2.4042	-2.575	-3.1354	-2.4104	-2.9583	-2.875	-2.4125	-3.2333	-2.5792	-2.425	-3.0625	-2.1562	-3	214.856	150.328	23.388	108.824	210.709	181.612	242.230	267.710	15.213	-17.467	-25.404	66.264	69.948	123.313	67.755	305.615	0.00044207	0.00034413	8.4427e-05	543.79	4.0572e-06	5.3457e-06	464.5	198.77	7.2208e-06	1.03e-05	198.22	84.224	85.013	44.613	7.8801e-06	44.089	0.0050397	0.0080986	0.0022269	617.79	8.5822e-05	9.2471e-05	474.57	203.73	7.8261e-05	9.1329e-05	205.31	86.833	87.561	45.675	8.2413e-05	45.283	323.936	70.257	118.837	-13.427	101.713	138.825	-14.779	-8.082	250.238	117.873	-11.155	-7.250	-4.048	-0.081	119.915	-3.985	-8191	255	
3473.642	1	1	0	0	0.078914	0.23331	0.16239	0.055162	0.099258	0.016909	0.29731	0.092716	0.11836	0.19165	0.0032533	0.19161	0.12122	0.26527	0.15409	0.070229	-2.4167	-2.0354	-3.1083	-2.6312	-2.3167	-3.2896	-2.3708	-2.7375	-3.0917	-2.0479	-3.0354	-2.5854	-2.3729	-3.3	-2.2687	-2.8146	-10.582	208.570	120.646	39.566	133.947	285.578	88.793	65.072	98.104	80.899	253.283	262.579	141.772	282.433	312.292	235.701	0.00042474	0.00065427	0.00022324	531.96	4.3645e-06	3.5861e-06	462.24	198.05	3.9393e-06	1.1143e-05	196.94	83.391	84.153	44.29	6.8214e-06	44.139	0.0049871	0.0079524	0.0022255	615.22	8.4227e-05	9.0524e-05	470.52	202.11	7.7683e-05	9.1622e-05	203.48	86.007	87.15	45.511	8.4457e-05	45.375	1.354	73.690	179.291	-13.713	59.345	28.394	-14.788	-8.277	-10.897	138.134	-10.931	-7.004	-3.888	0.069	160.426	-4.009	-8191	255	
3473.761	1	1	0	0	0.046523	0.10495	0.11485	0.091794	0.082036	0.22656	0.122	0.2937	0.1309	0.27607	0.24069	0.16828	0.056392	0.16663	0.072106	0.36022	-2.7125	-2.1875	-3.0521	-2.6021	-2.4792	-3.175	-2.6375	-2.6417	-2.9917	-2.2	-3.0979	-2.8021	-2.2313	-3.1042	-2.4167	-2.5708	66.622	208.867	-18.695	245.132	123.411	273.745	278.943	228.926	120.997	115.038	81.511	142.174	50.311	54.476	158.435	316.055	0.00058393	8.4049e-05	8.9377e-05	539.6	1.1867e-05	8.7083e-06	461.61	197.38	3.6127e-06	7.6373e-06	197.46	84.798	84.468	44.566	4.8672e-06	44.836	0.0050628	0.0082181	0.0023111	618.72	8.7566e-05	9.162e-05	470.43	202.64	7.8118e-05	9.1454e-05	204.34	86.977	87.762	45.889	8.4295e-05	46.132	323.776	132.360	62.023	-13.094	117.815	113.348	-14.521	-8.245	159.783	90.998	-11.217	-6.704	-4.326	0.064	197.067	-3.909	-8191	255	
3473.857	1	1	0	0	0.15685	0.10238	0.26271	0.10507	0.19508	0.20197	0.30174	0.14027	0.14052	0.13893	0.09949	0.13661	0.075798	0.19867	0.08698	0.10751	-2.7708	-2.4208	-2.9354	-2.9792	-2.15	-3.1854	-2.6208	-2.7583	-3.0854	-2.2625	-3.0583	-3.1667	-2.3	-3.2812	-2.5167	-2.5979	298.249	10.635	163.179	117.860	270.102	316.830	289.512	168.270	243.932	-5.868	305.691	12.725	187.598	300.675	221.094	241.586	0.00043332	0.00015822	0.00014094	533.42	1.5972e-06	4.8972e-06	466.14	199.45	2.9206e-06	8.6184e-06	200.3	85.341	84.882	45.112	9.836e-06	45.726	0.0050927	0.0081644	0.0022651	618.81	8.7909e-05	9.2696e-05	474.23	203.84	7.7999e-05	9.3361e-05	207.3	87.84	88.136	46.27	8.5337e-05	47.035	312.399	155.154	108.206	-13.685	-20.517	265.870	-14.503	-8.189	158.605	102.834	-11.273	-6.487	-3.807	-0.195	176.525	-3.930	-8191	255	
3473.953	1	1	0	0	0.1583	0.10861	0.12695	0.22348	0.075489	0.2217	0.2789	0.12061	0.030764	0.12512	0.019644	0.31985	0.068449	0.21355	0.20319	0.18313	-2.8688	-2.2667	-2.9146	-2.8125	-2.3979	-3.3021	-2.7417	-2.4604	-3.1063	-2.1375	-2.7583	-3.2042	-2.3208	-3.2	-2.7479	-2.4333	273.141	283.566	253.807	43.342	275.404	116.922	161.044	273.111	254.667	230.833	69.754	256.904	286.065	3.249	251.970	6.218	0.0004888	0.00090855	0.00018055	544.17	8.4768e-07	1.2635e-05	468.71	200.16	5.5923e-06	7.8309e-06	201.54	85.618	84.859	45.059	6.6731e-06	45.539	0.005053	0.0082381	0.0022722	619.32	8.7946e-05	9.0882e-05	476.28	204.68	7.7122e-05	9.2497e-05	208.56	87.947	88.029	46.179	8.4774e-05	46.587	307.984	49.495	37.477	-13.697	15.595	120.911	-14.406	-8.033	139.334	100.263	-10.414	-6.808	-4.438	-0.035	83.972	-3.853	-8191	255	
3474.050	1	1	0	0	0.17039	0.17385	0.34951	0.1383	0.25646	0.17333	0.15496	0.19745	0.15345	0.22342	0.12201	0.021729	0.16593	0.12399	0.10178	0.069454	-2.7604	-2.3021	-2.4542	-3.1125	-2.2667	-2.8708	-2.8229	-2.45	-3.0104	-2.4854	-2.5042	-3.2333	-2.2729	-3.0271	-2.7188	-2.4771	19.100	111.874	154.988	47.040	191.969	-5.205	163.427	225.937	160.617	127.375	35.894	227.174	115.028	195.348	283.317	323.276	0.0006741	0.00019902	0.00030826	537.98	6.9992e-06	4.8252e-06	462.59	199.35	1.2905e-05	4.5286e-06	198.97	84.394	83.936	44.534	7.2363e-06	44.436	0.0049382	0.0082002	0.0022791	614.49	8.7237e-05	9.0748e-05	472.71	203.62	7.7035e-05	9.2324e-05	205.35	86.767	87.385	45.857	8.5227e-05	45.733	321.828	128.355	29.277	-13.111	134.333	171.859	-14.757	-8.029	201.427	91.747	-10.727	-6.665	-4.461	-0.066	127.176	-4.360	-8191	255	
3474.170	1	1	0	0	0.058542	0.13068	0.25362	0.076249	0.11175	0.048502	0.17042	0.25447	0.18897	0.12243	0.20245	0.1438	0.13162	0.27947	0.24492	0.18372	-2.8396	-2.4792	-2.6354	-2.9417	-2.2583	-2.9146	-2.8708	-2.2958	-2.9938	-2.3771	-2.3917	-3.1875	-2.3542	-2.9333	-2.8792	-2.3312	220.328	113.505	277.902	139.057	165.658	264.268	213.738	317.409	272.241	258.535	162.563	-8.311	62.995	304.900	100.798	300.488	0.00060833	0.0005907	0.00011383	540.45	3.4854e-06	7.0816e-06	460.88	199.02	1.5823e-06	7.5737e-06	196.8	84.612	85.224	44.71	4.0057e-06	44.53	0.0049615	0.0083712	0.0023242	616.19	8.9886e-05	9.3181e-05	471.23	203.15	7.8519e-05	9.4235e-05	204.77	86.663	87.899	46.014	8.7362e-05	46.012	325.309	120.364	171.002	-13.881	323.978	167.702	-15.219	-8.227	218.222	228.625	-11.195	-7.336	-4.619	-0.504	240.560	-4.585	-8191	255	
3474.242	1	1	0	0	0.21569	0.1202	0.04923	0.10729	0.25459	0.30337	0.070586	0.11714	0.1793	0.066697	0.22011	0.26117	0.099971	0.15316	0.090445	0.39351	-2.5938	-2.3292	-2.4396	-3.1042	-2.4604	-2.8063	-3.0417	-2.2188	-2.9229	-2.8771	-2.2375	-3.15	-2.0438	-2.6813	-3.0167	-2.2417	186.458	306.979	115.687	110.089	-11.260	73.911	178.027	240.579	29.074	174.081	131.698	319.690	299.046	-7.983	195.730	332.174	0.00047742	0.00030418	0.0001251	540.61	5.17e-06	1.0026e-05	459.47	198.96	3.5814e-06	2.3559e-06	198.09	85.314	85.285	45.08	5.4456e-06	45.474	0.0050456	0.0085679	0.0023925	619.15	9.0581e-05	9.4395e-05	473.6	203.84	7.9423e-05	9.6664e-05	206.43	87.72	88.387	46.335	8.8545e-05	47.011	323.721	86.721	13.086	-14.325	316.434	180.151	-14.884	-9.003	162.323	180.334	-11.614	-7.228	-4.759	-0.596	112.974	-4.530	-8191	255	
3474.363	1	1	0	0	0.10476	0.10319	0.26304	0.16971	0.15067	0.20531	0.28802	0.070435	0.12722	0.11095	0.14325	0.24716	0.25243	0.11921	0.17728	0.054045	-2.6875	-2.7292	-2.1604	-3.0021	-2.5687	-2.4646	-3.0417	-2.1958	-2.9271	-2.7542	-2.2875	-3.2104	-2.4667	-2.4062	-3.1771	-2.2521	292.408	230.767	235.910	273.858	149.375	242.276	287.470	-3.854	160.757	85.348	331.069	23.964	199.202	270.163	140.780	97.067	0.00041316	0.001078	0.00016254	548.24	2.2561e-06	1.3643e-05	464.27	201.19	1.2373e-05	5.3175e-06	201.37	86.254	85.562	45.378	3.3738e-06	46.546	0.0051422	0.0086702	0.0023762	622.09	9.1764e-05	9.5453e-05	476.59	205.72	8.05e-05	9.8348e-05	208.98	88.808	88.896	46.666	8.8841e-05	47.898	324.346	71.956	24.251	-14.119	172.219	131.445	-15.228	-8.962	169.484	63.100	-11.740	-7.706	-4.898	-0.510	166.926	-4.963	-8191	255	
3474.459	1	1	0	0	0.2211	0.12519	0.077264	0.27929	0.20161	0.16539	0.1796	0.11036	0.14474	0.15842	0.38587	0.038504	0.25936	0.23271	0.32531	0.13605	-2.4167	-2.8354	-2.1417	-3.05	-2.1792	-2.4813	-3.1	-2.2687	-2.7875	-3.0729	-2.1083	-3.0646	-2.4958	-2.4792	-3.1646	-2.325	301.278	8.389	231.726	296.460	291.904	-7.928	-1.563	0.717	231.355	244.062	316.723	218.105	328.060	-5.056	163.485	24.415	0.00055915	0.00085192	0.00012715	535.84	5.9624e-06	3.9531e-06	468.21	200.43	1.6657e-05	3.9782e-06	201.25	86.372	85.6	45.508	5.9921e-06	45.505	0.0051767	0.0086468	0.0024236	621.45	9.22e-05	9.6579e-05	479.33	205.68	8.0305e-05	9.6562e-05	209.45	88.888	88.981	46.636	8.579e-05	46.804	300.791	82.312	111.861	-13.775	131.267	140.611	-15.586	-8.752	203.418	74.714	-11.716	-7.309	-4.783	-0.802	204.426	-4.804	-8191	255	
3474.555	1	1	0	0	0.231	0.048612	0.32741	0.20184	0.11156	0.1038	0.19168	0.29738	0.12071	0.13509	0.32226	0.14531	0.2869	0.070639	0.11475	0.3109	-2.3667	-2.9771	-2.1375	-2.9542	-2.7958	-2.3875	-3.1583	-2.3417	-2.6021	-3.1937	-2.25	-3.2125	-2.7667	-2.2125	-3.0583	-2.6542	228.119	283.767	269.720	238.521	312.929	129.612	80.896	202.977	128.428	67.298	104.523	240.167	298.108	98.028	34.074	317.445	0.00061647	0.00049243	0.00016118	531.33	2.4931e-06	5.586e-07	463.18	199.45	4.0442e-06	3.7992e-06	199.8	85.524	85.176	45.253	7.2447e-06	44.904	0.005036	0.0084047	0.0023696	616.96	9.1781e-05	9.3289e-05	475.41	203.97	7.9974e-05	9.3742e-05	206.98	87.791	88.324	46.292	8.3138e-05	46.282	306.985	94.564	-10.663	-14.054	278.266	35.920	-15.442	-9.290	135.375	5.128	-12.039	-7.270	-4.899	-0.923	182.536	-4.708	-8191	255	
3474.649	1	1	0	0	0.13607	0.15549	0.22331	0.091457	0.044077	0.18432	0.30963	0.049131	0.030612	0.15106	0.10492	0.13722	0.28813	0.13163	0.15919	0.19079	-2.2521	-3.2458	-2.0417	-3.075	-2.8833	-2.3312	-3.1771	-2.4396	-2.4125	-3.1271	-2.4479	-2.95	-2.9646	-2.3583	-3.0667	-2.7188	133.709	-24.656	302.182	319.592	221.902	173.393	202.137	276.495	291.471	194.912	92.304	266.305	-0.673	318.378	195.470	34.773	0.00083054	0.00025707	8.8627e-05	538.65	4.2645e-06	8.7811e-06	463.14	199.69	2.104e-06	7.7179e-06	199.14	85.599	85.354	45.141	9.0438e-06	45.025	0.0050206	0.00822	0.0023193	617.19	8.8505e-05	9.3797e-05	473.17	204.35	7.8843e-05	9.2681e-05	206.98	87.88	88.537	46.362	8.4525e-05	46.759	312.113	235.167	147.300	-13.979	229.252	212.535	-15.348	-8.973	277.732	80.367	-11.753	-7.556	-4.969	-0.946	119.081	-4.656	-8191	255	
3474.770	1	1	0	0	0.15912	0.15926	0.094256	0.044318	0.14086	0.30662	0.32735	0.076513	0.13543	0.17375	0.062636	0.1477	0.12123	0.067437	0.14689	0.10469	-1.9896	-3.075	-2.1979	-2.8896	-2.9104	-2.3187	-3.225	-2.575	-2.4792	-3.2042	-2.3083	-2.7771	-3.1479	-2.4125	-3.1771	-2.8312	-17.287	220.132	53.654	244.293	36.736	91.957	297.552	213.180	195.156	279.997	270.175	239.527	87.090	216.492	180.914	135.445	0.00062956	0.00038191	0.00017082	539.66	4.8776e-06	3.0967e-06	466.69	200.72	8.5776e-06	3.9819e-06	200.04	86.159	85.494	45.577	3.5576e-06	45.934	0.0050826	0.0082328	0.0023701	619.68	9.1634e-05	9.5177e-05	476.1	205.31	8.0263e-05	9.5776e-05	208.18	88.435	88.734	46.737	8.6112e-05	47.34	300.849	55.784	-1.495	-13.958	-2.531	81.973	-15.399	-8.921	239.251	143.193	-12.066	-7.140	-4.778	-1.021	178.570	-4.823	-8191	255	
3474.866	1	1	0	0	0.28765	0.033012	0.23559	0.053443	0.19341	0.27334	0.13596	0.086829	0.21325	0.087423	0.084657	0.11573	0.24638	0.42952	0.039423	0.25823	-1.9708	-3.15	-2.2583	-2.7125	-3.0938	-2.1646	-3.05	-2.7625	-2.2833	-3.2375	-2.4958	-2.6333	-3.1354	-2.4104	-3.0042	-2.9479	307.719	125.737	140.643	36.197	174.413	209.619	291.643	46.512	245.645	299.429	171.544	239.385	8.138	307.909	24.491	241.869	0.00081409	0.00014481	0.00027367	542.49	3.3432e-06	6.4053e-06	464.35	201.54	1.0616e-05	6.6408e-06	201.03	86.119	85.943	45.58	3.4184e-06	45.906	0.0051909	0.0084995	0.0024327	624.3	9.2791e-05	9.9095e-05	478.19	206.19	8.3071e-05	9.5596e-05	209.95	89.074	88.94	46.853	8.6673e-05	47.376	322.706	-13.625	38.055	-14.274	-3.336	90.897	-15.368	-8.740	125.681	48.766	-11.988	-7.487	-5.061	-0.875	-23.438	-4.990	-8191	255	
3474.938	1	1	0	0	0.067996	0.23116	0.22064	0.053786	0.36833	0.28081	0.26239	0.045009	0.29505	0.10053	0.21893	0.14018	0.10628	0.15703	0.097531	0.22347	-1.9042	-3.1208	-2.3583	-2.5375	-2.9521	-2.2	-3.1646	-2.8604	-2.2687	-3.05	-2.45	-2.5687	-3.2854	-2.3271	-2.7083	-3.0417	-11.618	147.981	69.818	198.897	-7.423	197.251	213.128	277.834	172.753	88.669	-16.265	276.776	246.162	261.704	241.273	256.168	0.00044716	0.00083965	0.00032457	541.87	8.1354e-06	5.2541e-06	470.85	199.79	5.4668e-06	8.6522e-07	200.67	85.362	85.339	45.063	1.5511e-06	44.67	0.0053287	0.0085858	0.0024569	625.9	9.2876e-05	9.8765e-05	479.66	205.55	8.2433e-05	9.631e-05	208.35	88.098	88.533	46.288	8.6289e-05	46.142	294.226	58.744	69.517	-14.197	90.083	154.940	-15.059	-9.459	214.041	186.631	-11.753	-7.650	-4.909	-0.834	200.915	-5.172	-8191	255	
3475.034	1	1	0	0	0.16699	0.083596	0.38105	0.15268	0.091267	0.14066	0.20884	0.1527	0.15033	0.24592	0.10956	0.24143	0.23138	0.12972	0.12907	0.22087	-1.8958	-2.9875	-2.4708	-2.3875	-3.3063	-2.2396	-2.7854	-3.0854	-2.1521	-2.9333	-2.7583	-2.2812	-3.3688	-2.6083	-2.7646	-3.125	27.190	300.335	287.947	200.488	222.948	196.419	267.586	260.858	71.284	24.817	298.859	238.088	313.964	279.223	234.293	19.516	0.00064314	0.00073903	0.00023194	536.23	3.0058e-06	2.4032e-06	462.54	199.13	1.3276e-05	8.1024e-06	197.42	84.711	84.789	45.061	5.2436e-06	44.432	0.0051923	0.0085275	0.0024325	617.71	9.0214e-05	9.6144e-05	472.6	204.43	8.1155e-05	9.4765e-05	205.56	87.139	88.07	46.168	8.4568e-05	46.089	286.594	62.716	101.972	-14.356	227.147	161.416	-15.466	-9.111	189.242	147.084	-11.711	-7.314	-5.163	-0.885	86.064	-5.386	-8191	255	
3475.130	1	1	0	0	0.2649	0.095469	0.18926	0.19695	0.084519	0.032366	0.15207	0.081899	0.026739	0.2094	0.14138	0.084464	0.13553	0.43358	0.13911	0.2163	-1.7917	-3.0021	-2.5771	-2.3146	-3.0333	-2.5292	-2.5604	-3.0917	-2.3063	-2.9062	-2.8187	-2.1979	-3.1604	-2.5542	-2.4083	-3.1937	33.521	272.410	288.897	250.841	253.203	135.989	221.960	205.160	95.886	80.301	-0.476	164.798	310.699	315.590	225.820	267.842	0.00033937	0.0013746	0.00011569	537.24	6.9338e-06	9.732e-06	461.22	200.01	6.2417e-06	7.2449e-06	197.99	85.271	84.99	45.276	5.1967e-06	45.481	0.0052044	0.0083205	0.0023804	619.38	8.9113e-05	9.6677e-05	473.77	204.11	7.941e-05	9.4899e-05	206.58	88.099	88.488	46.396	8.7346e-05	46.987	315.312	72.194	104.623	-14.338	179.841	86.332	-15.155	-9.105	154.689	216.024	-11.747	-7.397	-4.638	-0.857	216.047	-4.979	-8191	255	
3475.251	1	1	0	0	0.20529	0.19698	0.27206	0.28061	0.16461	0.12919	0.30165	0.20202	0.12409	0.058133	0.016656	0.2154	0.14974	0.11453	0.05772	0.35893	-1.825	-2.7542	-2.8792	-2.3479	-3.0875	-2.5354	-2.5354	-3.3229	-2.3063	-2.6479	-2.9437	-2.1583	-3.0917	-2.5792	-2.2479	-3.225	147.920	162.774	65.107	259.345	130.851	186.269	237.731	149.224	265.246	279.970	166.548	305.743	302.016	73.441	-6.190	9.748	0.0005975	0.00077519	1.6572e-05	542.18	2.8884e-06	7.3987e-06	464.76	201.58	1.4074e-05	8.9662e-06	201.66	86.443	86.066	45.625	1.1512e-05	46.153	0.0051224	0.0082593	0.0024046	621.77	8.7893e-05	9.6038e-05	476.2	205.75	8.0794e-05	9.4599e-05	209.12	88.676	89.084	46.863	8.5903e-05	47.554	296.149	39.812	174.304	-14.033	100.428	218.040	-15.044	-9.187	159.237	106.241	-11.725	-7.260	-4.895	-1.005	103.011	-4.817	-8191	255	
3475.347	1	1	0	0	0.10348	0.20555	0.086243	0.046307	0.14834	0.02672	0.22502	0.21692	0.16433	0.044609	0.28142	0.086648	0.12976	0.038058	0.18293	0.30939	-1.8958	-2.7375	-3.1896	-2.2396	-2.8292	-2.675	-2.4	-3.0812	-2.3771	-2.65	-3.1167	-2.3438	-3.0292	-2.7562	-2.2125	-3.0125	58.712	293.418	293.178	8.889	318.815	20.109	318.863	-14.870	221.106	329.565	64.785	-14.763	179.349	269.902	209.426	256.595	0.00059497	0.00039609	0.0001622	544.28	1.2083e-05	3.6732e-06	469.11	201.17	9.0846e-06	4.6543e-06	203.44	87.111	85.833	45.936	5.5305e-06	45.918	0.0052117	0.0083592	0.0023925	619.85	8.9068e-05	9.6844e-05	478.74	206.21	8.1081e-05	9.4791e-05	210.49	89.342	89.113	46.885	8.5536e-05	47.232	312.136	59.628	9.430	-14.613	113.778	305.553	-15.317	-9.281	149.619	196.140	-11.866	-7.798	-4.838	-1.181	100.875	-4.889	-8191	255	
#DATA ENDS
