BOXY.EXE: ISS Imagent and Oximeter Data Acquisition Program Version 0.80
Ascii Record File

#ACQ INFORMATION
2  Detector Channels 
16  External MUX Channels 
1  Auxiliary Channels 
5000  Waveform (CCF) Frequency (Hz)
1  Waveforms Skipped 
30  Waveforms Averaged 
1  Cycles Averaged 
16  Acquisitions per Waveform 
10.0806  Updata Rate (Hz) 

#FILE INFORMATION
TRUE -- External MUX Channel results are PARSED.
FALSE -- AC DC and Phase are NOT grouped.
TRUE -- Companion Program Settings File CREATED.
FALSE -- AC data not excluded
FALSE -- DC data not excluded
FALSE -- Phase data not excluded
FALSE -- Auxillary Chn. data not excluded
Tab delimiters

#CALIBRATION STATE
TRUE -- Waveform Calibration Values APPLIED.


#AUX CALIBRATION VALUES
Val Type	aux-1	

Term	1.0000e+00	
Factor	0.0000e+00	


#WF CALIBRATION VALUES
A = Detector Channel
Val Type	A-AC1	A-AC2	A-AC3	A-AC4	A-AC5	A-AC6	A-AC7	A-AC8	A-AC9	A-AC10	A-AC11	A-AC12	A-AC13	A-AC14	A-AC15	A-AC16	A-DC1	A-DC2	A-DC3	A-DC4	A-DC5	A-DC6	A-DC7	A-DC8	A-DC9	A-DC10	A-DC11	A-DC12	A-DC13	A-DC14	A-DC15	A-DC16	A-Ph1	A-Ph2	A-Ph3	A-Ph4	A-Ph5	A-Ph6	A-Ph7	A-Ph8	A-Ph9	A-Ph10	A-Ph11	A-Ph12	A-Ph13	A-Ph14	A-Ph15	A-Ph16	

Term	0.00000e+00	0.00000e+00	0.00000e+00	0.00000e+00	0.00000e+00	0.00000e+00	0.00000e+00	0.00000e+00	0.00000e+00	0.00000e+00	0.00000e+00	0.00000e+00	0.00000e+00	0.00000e+00	0.00000e+00	0.00000e+00	0.00000e+00	0.00000e+00	0.00000e+00	0.00000e+00	0.00000e+00	0.00000e+00	0.00000e+00	0.00000e+00	0.00000e+00	0.00000e+00	0.00000e+00	0.00000e+00	0.00000e+00	0.00000e+00	0.00000e+00	0.00000e+00	0.00000e+00	0.00000e+00	0.00000e+00	0.00000e+00	0.00000e+00	0.00000e+00	0.00000e+00	0.00000e+00	0.00000e+00	0.00000e+00	0.00000e+00	0.00000e+00	0.00000e+00	0.00000e+00	0.00000e+00	0.00000e+00	
Factor	1.00000e+00	1.00000e+00	1.00000e+00	1.00000e+00	1.00000e+00	1.00000e+00	1.00000e+00	1.00000e+00	1.00000e+00	1.00000e+00	1.00000e+00	1.00000e+00	1.00000e+00	1.00000e+00	1.00000e+00	1.00000e+00	1.00000e+00	1.00000e+00	1.00000e+00	1.00000e+00	1.00000e+00	1.00000e+00	1.00000e+00	1.00000e+00	1.00000e+00	1.00000e+00	1.00000e+00	1.00000e+00	1.00000e+00	1.00000e+00	1.00000e+00	1.00000e+00	X	X	X	X	X	X	X	X	X	X	X	X	X	X	X	X	

B = Detector Channel
Val Type	B-AC1	B-AC2	B-AC3	B-AC4	B-AC5	B-AC6	B-AC7	B-AC8	B-AC9	B-AC10	B-AC11	B-AC12	B-AC13	B-AC14	B-AC15	B-AC16	B-DC1	B-DC2	B-DC3	B-DC4	B-DC5	B-DC6	B-DC7	B-DC8	B-DC9	B-DC10	B-DC11	B-DC12	B-DC13	B-DC14	B-DC15	B-DC16	B-Ph1	B-Ph2	B-Ph3	B-Ph4	B-Ph5	B-Ph6	B-Ph7	B-Ph8	B-Ph9	B-Ph10	B-Ph11	B-Ph12	B-Ph13	B-Ph14	B-Ph15	B-Ph16	

Term	0.00000e+00	0.00000e+00	0.00000e+00	0.00000e+00	0.00000e+00	0.00000e+00	0.00000e+00	0.00000e+00	0.00000e+00	0.00000e+00	0.00000e+00	0.00000e+00	0.00000e+00	0.00000e+00	0.00000e+00	0.00000e+00	0.00000e+00	0.00000e+00	0.00000e+00	0.00000e+00	0.00000e+00	0.00000e+00	0.00000e+00	0.00000e+00	0.00000e+00	0.00000e+00	0.00000e+00	0.00000e+00	0.00000e+00	0.00000e+00	0.00000e+00	0.00000e+00	-1.66874e+02	-1.31149e+02	-1.23274e+02	-1.81197e+02	-8.08868e+01	-6.69930e+01	-1.55623e+02	-1.62015e+02	-8.55906e+01	-6.15622e+01	-1.70159e+02	-1.69445e+02	-1.78137e+02	-1.75061e+02	-7.32031e+01	-1.48439e+02	
Factor	2.75494e-05	1.84498e-04	5.05242e-05	1.55230e-01	1.47176e-06	1.96328e-06	1.79019e-01	6.63743e-02	1.70374e-06	1.96810e-06	1.39122e-01	2.85069e-02	2.34487e-02	9.27554e-03	1.78204e-06	1.36717e-02	1.70489e-05	3.44555e-05	9.70341e-06	7.75244e-02	3.20128e-07	3.90521e-07	8.40011e-02	3.32531e-02	3.36799e-07	3.92224e-07	6.72449e-02	1.38968e-02	1.19525e-02	4.70239e-03	3.47354e-07	6.70891e-03	X	X	X	X	X	X	X	X	X	X	X	X	X	X	X	X	



#DISTANCE SETTINGS
A = Detector Channel
A-1	A-2	A-3	A-4	A-5	A-6	A-7	A-8	A-9	A-10	A-11	A-12	A-13	A-14	A-15	A-16	

2.5000e+00	3.0000e+00	2.5000e+00	3.0000e+00	2.0000e+00	3.0000e+00	1.5000e+00	3.0000e+00	3.0000e+00	3.0000e+00	3.0000e+00	3.0000e+00	3.0000e+00	3.0000e+00	1.5000e+00	3.0000e+00	

B = Detector Channel
B-1	B-2	B-3	B-4	B-5	B-6	B-7	B-8	B-9	B-10	B-11	B-12	B-13	B-14	B-15	B-16	

1.0000e+01	1.0000e+01	1.0000e+01	1.4400e+00	1.0000e+01	1.0000e+01	1.5100e+00	1.9400e+00	1.0000e+01	1.0000e+01	1.9900e+00	2.4900e+00	2.4100e+00	2.9000e+00	1.0000e+01	2.9800e+00	




#DATA BEGINS
time	group	step	mark	flag	A-AC1	A-AC2	A-AC3	A-AC4	A-AC5	A-AC6	A-AC7	A-AC8	A-AC9	A-AC10	A-AC11	A-AC12	A-AC13	A-AC14	A-AC15	A-AC16	A-DC1	A-DC2	A-DC3	A-DC4	A-DC5	A-DC6	A-DC7	A-DC8	A-DC9	A-DC10	A-DC11	A-DC12	A-DC13	A-DC14	A-DC15	A-DC16	A-Ph1	A-Ph2	A-Ph3	A-Ph4	A-Ph5	A-Ph6	A-Ph7	A-Ph8	A-Ph9	A-Ph10	A-Ph11	A-Ph12	A-Ph13	A-Ph14	A-Ph15	A-Ph16	B-AC1	B-AC2	B-AC3	B-AC4	B-AC5	B-AC6	B-AC7	B-AC8	B-AC9	B-AC10	B-AC11	B-AC12	B-AC13	B-AC14	B-AC15	B-AC16	B-DC1	B-DC2	B-DC3	B-DC4	B-DC5	B-DC6	B-DC7	B-DC8	B-DC9	B-DC10	B-DC11	B-DC12	B-DC13	B-DC14	B-DC15	B-DC16	B-Ph1	B-Ph2	B-Ph3	B-Ph4	B-Ph5	B-Ph6	B-Ph7	B-Ph8	B-Ph9	B-Ph10	B-Ph11	B-Ph12	B-Ph13	B-Ph14	B-Ph15	B-Ph16	aux-1	digaux	

668.615	1	1	0	256	0.086102	0.1276	0.21684	0.3538	0.25916	0.055079	0.17143	0.066913	0.056566	0.11152	0.26101	0.2019	0.11731	0.040221	0.18735	0.21822	-2.8854	-3.2458	-2.6437	-3.4333	-3.1417	-2.8688	-3.5583	-3.0271	-3.25	-3.3812	-2.8	-3.4	-3.0812	-3.2229	-3.325	-3.1375	181.050	-106.025	-72.644	177.458	165.037	151.015	-146.860	-69.557	-153.305	-101.692	143.869	-96.875	84.139	35.438	-30.705	38.713	0.00032	9.3895e-05	2.3808e-05	1235.7	7.4935e-07	2.8075e-06	1300.9	262.8	3.6769e-06	3.256e-06	324.96	89.164	68.213	20.847	2.6734e-06	28.707	0.0014736	0.0026384	0.0007448	1222	2.5481e-05	2.9558e-05	1293.2	262.14	2.5988e-05	2.9389e-05	327.33	90.419	69.106	21.359	2.557e-05	29.592	162.492	-43.361	-156.968	-147.700	4.569	-38.163	-148.038	-141.271	-46.482	-4.123	-140.902	-135.248	-133.590	-127.454	75.578	-128.367	-8191	255	
668.711	1	1	0	0	0.06866	0.20174	0.24651	0.23536	0.07154	0.13084	0.19316	0.1807	0.081149	0.16167	0.3078	0.12938	0.30061	0.040642	0.16972	0.023441	-2.7208	-3.3458	-2.8042	-3.4896	-3.1208	-3.125	-3.5167	-2.9375	-3.2417	-3.3833	-2.9833	-3.4813	-3.1542	-2.7729	-3.3563	-2.9979	73.917	67.894	-77.590	152.326	-38.251	198.616	143.424	64.177	152.315	34.250	181.651	125.183	111.373	-13.201	37.434	107.019	0.00036792	0.00029456	3.4504e-05	1233.6	3.9723e-06	8.7335e-07	1296.4	261.56	4.4947e-06	6.3412e-06	324.49	89.482	67.658	20.804	9.0277e-06	28.57	0.0014335	0.0025148	0.00071999	1220.2	2.437e-05	2.8355e-05	1288.6	261.71	2.4614e-05	2.7974e-05	326.17	90.468	68.814	21.348	2.491e-05	29.5	162.728	-55.462	-57.338	-147.660	-34.083	64.711	-147.762	-141.053	-83.510	-26.640	-140.873	-135.159	-133.573	-127.498	-71.769	-127.769	-8191	255	
668.783	1	1	0	0	0.14385	0.14029	0.090809	0.11906	0.3215	0.21782	0.27592	0.26431	0.12682	0.27373	0.070998	0.16517	0.14909	0.080216	0.17223	0.10335	-2.7708	-3.1896	-2.825	-3.3438	-2.9458	-2.8875	-3.4125	-2.9375	-3.0417	-3.3667	-3.025	-3.3792	-3.2583	-2.9646	-3.2792	-3.3167	120.891	151.111	-150.033	137.531	71.271	-3.220	96.619	134.588	68.599	-41.585	-96.222	-82.956	122.051	146.443	159.759	-147.970	0.00036126	0.00022314	0.00011647	1231.3	1.6236e-06	1.8294e-06	1298.6	260.66	4.5935e-06	5.6324e-06	323.4	88.74	67.984	20.88	3.0997e-06	28.669	0.0013905	0.0024438	0.00069319	1217.6	2.3831e-05	2.8619e-05	1291.2	261.41	2.4713e-05	2.801e-05	325.9	90.172	68.895	21.344	2.4842e-05	29.563	165.572	-150.700	-113.742	-147.579	-42.773	24.653	-147.965	-141.135	-68.296	16.681	-140.976	-135.147	-133.459	-127.544	-24.935	-128.001	-8191	255	
668.879	1	1	0	0	0.21666	0.20556	0.088519	0.26046	0.11418	0.10001	0.38646	0.064056	0.13795	0.10059	0.15285	0.028265	0.10043	0.094423	0.24485	0.21646	-2.4417	-3.15	-2.7458	-3.3354	-3.1729	-2.9188	-3.5687	-3.2667	-3.1312	-3.5333	-2.9146	-3.2229	-3.2938	-3.0375	-3.2521	-3.1833	-59.030	-113.415	90.397	-153.821	-85.716	-69.961	133.379	23.838	-55.866	114.514	82.382	192.928	146.364	-116.229	180.436	-132.889	0.00036635	0.00037421	0.00014298	1231	2.6631e-06	8.64e-06	1299.3	261.7	4.1828e-06	4.2529e-06	323.07	89.066	67.879	20.689	2.2779e-06	28.618	0.0013941	0.0024611	0.00070014	1218.4	2.3817e-05	2.7731e-05	1289	261.21	2.4861e-05	2.7827e-05	325.4	90.009	68.869	21.236	2.4589e-05	29.508	158.282	-65.882	-53.823	-147.637	-39.015	15.742	-147.828	-140.789	-105.139	-14.207	-140.901	-135.263	-133.429	-127.783	7.941	-128.225	-8191	255	
668.999	1	1	0	0	0.038622	0.23752	0.23516	0.36009	0.11311	0.0068062	0.13178	0.10603	0.10329	0.052155	0.10805	0.18146	0.47429	0.13263	0.014696	0.064491	-2.7458	-3.5271	-3.0021	-3.0687	-3.2479	-2.9771	-3.55	-3.2375	-2.8958	-3.5271	-2.9979	-3.3083	-3.3646	-2.8917	-3.0708	-3.0417	187.987	-135.478	-37.514	184.182	97.001	11.547	137.920	-116.716	178.496	-48.019	-18.309	130.391	198.611	-152.381	-144.327	-11.629	0.0002805	0.00016713	0.0001527	1232.1	2.804e-06	1.8421e-06	1298.4	261.27	4.7298e-06	4.8634e-06	321.42	88.599	67.248	20.508	1.5956e-06	28.399	0.0013802	0.0023877	0.00068255	1215.7	2.3115e-05	2.6751e-05	1287.6	260.68	2.401e-05	2.712e-05	324.51	89.618	68.368	21.086	2.4228e-05	29.229	155.914	-57.457	-63.257	-147.566	-64.020	-38.147	-147.768	-141.001	-36.514	-23.620	-141.215	-135.137	-133.320	-127.325	-80.057	-127.804	-8191	255	
669.095	1	1	0	0	0.078021	0.071602	0.17885	0.081082	0.03179	0.028953	0.14022	0.193	0.14249	0.24456	0.10367	0.24237	0.24133	0.13486	0.21298	0.20865	-2.5667	-3.2333	-2.8896	-3.1083	-3.4104	-2.9146	-3.4813	-3.475	-2.7771	-3.4062	-3.1188	-3.1292	-3.5042	-2.9083	-3.1625	-3.4896	162.452	123.974	-112.501	141.294	152.500	155.970	137.276	183.298	-117.945	22.250	168.310	-111.576	150.265	20.468	-84.905	186.353	0.00033219	0.0001892	9.6139e-05	1224.7	3.4023e-06	3.1051e-06	1292.5	258.23	2.7328e-06	2.8419e-06	320.22	87.8	67.015	20.441	2.0905e-06	28.078	0.00139	0.0024423	0.00068148	1210.9	2.3138e-05	2.7388e-05	1282.2	258.39	2.4914e-05	2.7127e-05	322.73	89.094	67.893	20.874	2.4695e-05	29.029	160.402	-13.899	-57.728	-147.512	-89.551	-29.339	-147.872	-141.339	-29.529	9.877	-140.911	-135.099	-133.299	-127.152	-35.571	-127.900	-8191	255	
669.192	1	1	0	0	0.19876	0.15961	0.17698	0.1342	0.12558	0.26307	0.086097	0.070495	0.12546	0.052691	0.2185	0.22126	0.2028	0.25509	0.20092	0.10319	-2.375	-3.3479	-3.1063	-3.1063	-3.4229	-3.0271	-3.2333	-3.3396	-2.6896	-3.3333	-3.2104	-2.9667	-3.3875	-3.025	-2.9854	-3.3771	-34.218	-137.837	-13.378	147.359	181.975	-121.897	132.267	40.020	64.425	-93.658	-8.749	172.814	-88.978	185.664	-19.558	119.930	0.00032628	0.00026709	5.0708e-05	1223.8	1.88e-06	4.795e-06	1286.5	257.78	4.3064e-06	4.1803e-06	318.43	87.358	66.605	20.34	4.3907e-06	28.08	0.0013833	0.0024964	0.00068864	1207.4	2.3616e-05	2.8187e-05	1274.7	257.2	2.448e-05	2.7698e-05	321.04	88.617	67.515	20.727	2.4706e-05	28.911	162.215	-28.054	-93.940	-147.474	-86.568	-66.557	-147.780	-140.880	-123.685	-33.784	-140.825	-135.122	-133.374	-127.350	-37.704	-127.812	-8191	255	
669.312	1	1	0	0	0.32187	0.21667	0.24901	0.28161	0.1586	0.12606	0.091118	0.18564	0.14184	0.097149	0.10356	0.22001	0.15056	0.16862	0.15356	0.1317	-2.5083	-3.4375	-3.2542	-2.9896	-3.4688	-3.1583	-3.2687	-3.3542	-2.9375	-3.2396	-3.4146	-2.8458	-3.3667	-3.0375	-3.0167	-3.5292	137.101	90.624	157.933	165.135	48.997	158.216	103.143	22.613	-145.767	-115.382	-111.501	92.232	187.505	68.453	103.103	29.386	0.00033074	0.00026598	8.28e-05	1215.6	5.3092e-06	3.6293e-06	1278.9	256.38	1.4243e-06	3.7574e-06	319.22	87.765	66.094	20.282	2.0815e-06	28.103	0.0013992	0.0024347	0.00069062	1200.7	2.3369e-05	2.7541e-05	1271.6	256.45	2.3835e-05	2.7029e-05	320.9	88.6	67.35	20.721	2.4526e-05	28.891	163.881	-91.694	-45.948	-147.582	-58.246	-8.712	-147.894	-141.045	-67.421	49.572	-140.649	-134.737	-133.565	-127.764	-65.834	-127.647	-8191	255	
669.407	1	1	0	0	0.26295	0.056865	0.18149	0.12997	0.036213	0.1296	0.26851	0.039274	0.031551	0.1287	0.32818	0.13485	0.13938	0.26856	0.16263	0.12955	-2.4104	-3.2625	-3.2833	-2.7958	-3.4	-3.15	-3.2854	-3.4354	-2.8729	-3.125	-3.4333	-3.0146	-3.4646	-3.2521	-3.0208	-3.4104	-44.125	62.244	68.009	81.139	-110.541	76.744	136.401	-153.396	122.125	143.963	153.902	48.847	158.028	183.826	133.459	-151.455	0.00032141	0.00038734	7.2982e-05	1214.4	3.125e-06	2.5313e-06	1278.6	255.92	3.6469e-06	3.6333e-06	316.94	87.445	66.736	20.272	2.8867e-06	28.124	0.0013426	0.0024102	0.0006798	1199.9	2.261e-05	2.7188e-05	1271	256.42	2.384e-05	2.6393e-05	320	88.462	67.507	20.748	2.4274e-05	28.921	169.833	-62.707	-42.078	-147.567	-20.756	-44.008	-147.734	-140.934	-90.424	17.355	-140.795	-135.033	-133.470	-127.521	-12.823	-127.921	-8191	255	
669.480	1	1	0	0	0.064609	0.3025	0.096025	0.4209	0.11045	0.27838	0.24338	0.18985	0.26406	0.10854	0.089477	0.056057	0.15519	0.072617	0.11315	0.084306	-2.5229	-3.1021	-3.3208	-3.1	-3.3396	-3.1979	-3.175	-3.3688	-3.0625	-3.2354	-3.3063	-2.925	-3.4021	-3.2542	-2.8063	-3.5604	-8.469	1.711	186.539	179.603	-22.994	33.796	77.234	196.221	85.619	169.252	150.184	-87.281	133.680	141.380	99.877	131.935	0.00035456	2.9868e-05	6.6186e-05	1213.5	2.4435e-06	2.0046e-06	1280.3	257.57	5.6267e-06	2.8227e-06	318.12	87.344	66.73	20.324	3.445e-06	28.148	0.001317	0.0023736	0.00067139	1200.7	2.2804e-05	2.6498e-05	1273.1	257.35	2.3698e-05	2.6024e-05	320.5	88.595	67.55	20.809	2.3896e-05	28.999	160.787	191.999	-45.552	-147.690	122.433	48.450	-147.828	-141.009	-50.931	20.279	-140.822	-134.974	-133.198	-127.451	-31.124	-127.621	-8191	255	
669.599	1	1	0	0	0.16293	0.026633	0.16264	0.32399	0.1297	0.032893	0.33351	0.14422	0.088552	0.19421	0.16135	0.05647	0.21088	0.23393	0.33458	0.038751	-2.6021	-3.1521	-3.4062	-2.9542	-3.2396	-3.2333	-3.0396	-3.4562	-3.2062	-3.0375	-3.4062	-2.8208	-3.3917	-3.3667	-2.8521	-3.2708	69.806	-47.139	118.882	178.521	39.567	-55.008	147.629	123.470	185.026	-16.497	177.328	-34.154	46.272	-63.051	182.941	10.515	0.00030799	0.00014576	8.7928e-05	1216.8	4.1144e-06	3.3034e-06	1280.8	257.78	1.8239e-06	5.5773e-06	317.77	87.355	67.19	20.257	4.0659e-06	28.105	0.0013199	0.0023011	0.00064287	1201.4	2.2061e-05	2.6015e-05	1271.2	256.84	2.2913e-05	2.6043e-05	320.06	88.582	67.65	20.747	2.2774e-05	28.932	167.819	-34.616	-86.199	-147.529	-71.442	30.353	-147.700	-140.841	-61.188	-35.277	-140.465	-134.663	-133.307	-127.715	9.868	-127.934	-8191	255	
669.695	1	1	0	0	0.17936	0.17898	0.074752	0.18966	0.20248	0.12379	0.21033	0.24625	0.22468	0.23931	0.2277	0.097794	0.064004	0.27154	0.16723	0.15584	-2.6521	-2.9188	-3.3583	-3.0563	-3.1146	-3.2854	-3.1271	-3.3563	-3.1771	-2.9271	-3.4354	-2.9458	-3.1604	-3.4354	-2.9125	-3.2875	-38.968	153.056	-136.542	39.431	-155.661	27.990	104.687	180.776	-133.311	-84.902	147.003	-78.477	90.922	161.759	131.483	-35.841	0.00036649	0.00035513	0.00013373	1215.3	2.6653e-06	6.3541e-06	1277.3	257.38	4.2111e-06	1.2866e-06	317.56	87.54	66.523	20.199	5.4336e-06	28.124	0.0012925	0.0022543	0.00062536	1199	2.1572e-05	2.5018e-05	1268.3	256.18	2.2335e-05	2.4983e-05	319.68	88.416	67.346	20.708	2.2829e-05	28.847	163.906	-34.540	-71.679	-147.656	-53.704	-34.202	-147.818	-140.698	-88.774	-26.874	-141.186	-134.879	-133.056	-127.448	-67.278	-128.257	-8191	255	
669.791	1	1	0	0	0.19482	0.15339	0.041583	0.01451	0.11772	0.059436	0.32786	0.15415	0.031463	0.035379	0.22838	0.097286	0.25514	0.14193	0.058329	0.23141	-2.8604	-2.8021	-3.2979	-3.2833	-3.0833	-3.3417	-3.1312	-3.2354	-3.2125	-3.0354	-3.3979	-3.1562	-2.9458	-3.3417	-3.0417	-3.1625	-9.034	-18.895	-44.825	-136.503	18.657	5.682	127.463	11.711	124.622	-58.503	-112.877	197.490	-133.914	50.869	-19.629	124.469	0.00034552	0.0001759	9.6938e-05	1211.7	4.063e-06	4.4676e-06	1276.5	255.95	5.7785e-06	2.277e-06	317.46	86.956	66.251	20.252	2.9762e-06	28.144	0.0012964	0.002244	0.0006153	1195.7	2.1621e-05	2.543e-05	1267.1	255.63	2.2313e-05	2.5476e-05	319.73	88.467	67.245	20.726	2.2414e-05	28.931	160.004	-95.165	197.409	-147.719	-37.221	2.210	-148.003	-140.954	-59.004	-32.443	-140.658	-134.940	-133.436	-127.141	-19.433	-127.959	-8191	255	
669.912	1	1	0	0	0.056589	0.16694	0.14455	0.052399	0.28663	0.068971	0.23159	0.089179	0.092967	0.17062	0.11951	0.34468	0.18688	0.040357	0.14445	0.088388	-2.8688	-2.7167	-3.3937	-3.0875	-2.8708	-3.3896	-2.9583	-3.2438	-3.2896	-2.7833	-3.5125	-3.2479	-2.8917	-3.6104	-3.0167	-3.1937	82.070	142.572	139.041	96.606	54.881	195.423	188.064	66.420	43.040	144.931	-91.595	164.378	-64.217	-36.789	162.241	-143.723	0.0003528	0.00015019	7.1507e-05	1208.2	5.4598e-06	2.8585e-06	1271	257.21	4.8743e-06	3.5112e-06	317.01	87.891	66.77	20.286	2.2432e-06	28.029	0.0012746	0.002195	0.00061564	1195.7	2.1515e-05	2.4678e-05	1266.2	256.08	2.1971e-05	2.473e-05	319.03	88.447	67.362	20.746	2.2244e-05	28.876	163.586	55.997	-52.348	-147.639	-68.266	-31.528	-147.598	-140.958	-82.604	-0.231	-140.809	-134.785	-133.420	-127.080	-102.738	-127.660	-8191	255	
670.008	1	1	0	0	0.072593	0.28917	0.1836	0.14602	0.17533	0.10977	0.15421	0.11936	0.23441	0.096913	0.2833	0.20283	0.17282	0.14516	0.10977	0.12139	-2.7708	-2.6063	-3.25	-3.2167	-2.825	-3.2833	-2.9813	-3.2229	-3.1937	-2.9792	-3.325	-3.2833	-3.0292	-3.4313	-2.8729	-3.1188	49.150	-28.310	170.668	186.387	-45.691	-1.595	178.459	62.207	-128.309	155.717	-27.805	-126.819	111.813	-120.283	93.853	-115.169	0.00029653	0.00067534	0.00010831	1212.9	2.3911e-06	6.2195e-06	1277	257.13	4.4611e-06	2.0431e-06	317.66	87.339	66.835	20.427	3.4923e-06	28.103	0.0012406	0.0021205	0.00059834	1196.2	2.1501e-05	2.4434e-05	1268	256.13	2.2241e-05	2.4938e-05	318.81	88.375	67.474	20.8	2.2448e-05	28.89	166.579	-74.996	-75.462	-147.603	-43.314	3.139	-147.934	-140.891	-40.017	-1.789	-140.876	-135.171	-133.336	-127.268	-28.770	-127.685	-8191	255	
670.080	1	1	0	0	0.1169	0.18515	0.10612	0.11133	0.085356	0.093282	0.16041	0.31528	0.14069	0.22454	0.32768	0.19874	0.19914	0.19985	0.072674	0.21518	-2.9854	-2.8458	-3.2354	-3.3604	-2.8958	-3.3125	-3.3646	-3.1771	-3.3646	-3.0667	-3.3958	-3.2979	-2.9479	-3.3875	-3.0896	-2.8812	19.434	-121.762	12.322	-102.174	-62.408	-96.618	132.042	147.357	-138.604	-112.891	58.605	120.704	109.518	-113.196	124.981	153.122	0.00030606	0.00020741	7.3418e-05	1208.8	1.9928e-06	1.5503e-06	1274.8	257.1	6.3024e-07	4.4135e-06	317.74	87.053	66.776	20.13	1.3718e-06	28.215	0.0012236	0.0021818	0.00060715	1197.1	2.095e-05	2.4857e-05	1266.8	256.33	2.1947e-05	2.5097e-05	319.54	88.491	67.544	20.763	2.3004e-05	28.972	166.436	-51.066	-70.089	-147.413	-32.082	48.522	-147.971	-140.843	-119.023	29.956	-141.109	-134.958	-133.422	-127.286	-97.065	-128.136	-8191	255	
670.176	1	1	0	0	0.13594	0.010033	0.028321	0.25805	0.27224	0.25147	0.10902	0.080182	0.12714	0.18854	0.17291	0.14308	0.16462	0.05981	0.30807	0.1954	-3.0771	-2.8438	-3.0167	-3.3729	-2.7583	-3.2521	-3.2917	-3.0396	-3.3208	-2.9021	-3.1354	-3.4708	-2.9833	-3.375	-3.0458	-2.8896	-89.122	80.518	-111.066	169.574	-16.132	-53.897	166.114	83.569	-140.207	120.954	-155.817	116.181	-109.653	167.871	192.586	-95.804	0.00033334	0.00034394	0.000102	1212.8	4.3365e-06	2.0243e-06	1276.7	256.97	4.7798e-06	5.9708e-06	318.27	87.772	67.073	20.382	5.3157e-06	28.205	0.0012503	0.0022114	0.00063113	1199.1	2.1323e-05	2.4864e-05	1269.3	257	2.2434e-05	2.5057e-05	320.13	88.644	67.585	20.833	2.2354e-05	28.925	157.309	-65.000	-75.801	-147.418	-27.727	-30.343	-147.971	-141.173	-78.721	-38.214	-141.040	-135.236	-133.248	-127.348	-36.401	-127.797	-8191	255	
670.297	1	1	0	0	0.14154	0.047345	0.072262	0.085729	0.22986	0.11243	0.32725	0.32907	0.19166	0.13097	0.15565	0.20888	0.23178	0.10005	0.26816	0.12194	-2.8792	-2.8729	-2.9458	-3.6271	-2.8042	-3.3125	-3.2396	-2.9896	-3.4771	-3.0938	-3.0917	-3.3625	-2.8833	-3.3979	-3.2062	-2.8833	107.749	197.013	-79.323	-148.435	-126.971	-26.382	184.183	28.195	-42.608	86.821	-147.336	177.840	-104.869	4.227	-26.822	92.600	0.00035512	0.0001753	8.4686e-05	1214.7	1.4905e-06	7.6081e-07	1283.1	257.05	4.2973e-06	2.6368e-06	319.85	87.355	66.636	20.363	3.5297e-06	28.279	0.0012911	0.0021899	0.00062437	1199.2	2.1188e-05	2.4827e-05	1271.8	257.19	2.2361e-05	2.5502e-05	320.56	88.785	67.572	20.824	2.2998e-05	28.946	160.196	-32.964	-68.888	-147.567	-33.904	45.986	-147.845	-141.036	-46.804	-26.966	-140.884	-135.222	-133.359	-127.676	29.451	-127.956	-8191	255	
670.391	1	1	0	0	0.070016	0.36071	0.11262	0.17913	0.11784	0.12217	0.47436	0.16434	0.12029	0.18173	0.19356	0.12914	0.014864	0.080766	0.28108	0.21277	-2.9979	-2.9437	-3.0563	-3.4792	-3.0438	-3.2083	-3.3583	-3.0979	-3.2938	-3.1354	-3.1063	-3.5625	-3.0833	-3.2313	-3.1729	-2.7687	-37.640	21.863	-30.344	-151.168	-93.901	-152.996	153.909	165.790	-68.956	174.494	11.399	98.317	-66.423	-118.957	65.474	133.023	0.00029463	0.00032978	0.00014834	1212.1	2.1194e-06	3.9151e-06	1274.7	256.84	3.5318e-06	3.4715e-06	318.92	87.488	66.656	20.489	3.133e-06	28.124	0.00127	0.0022684	0.0006264	1200	2.0997e-05	2.5198e-05	1270.3	256.78	2.1837e-05	2.5339e-05	321.07	88.7	67.647	20.859	2.2724e-05	28.973	167.247	-57.111	-44.196	-147.599	-87.498	-57.864	-147.844	-141.089	-67.334	-20.535	-140.792	-135.143	-133.680	-127.572	-43.057	-127.892	-8191	255	
670.487	1	1	0	0	0.34501	0.12213	0.15384	0.036729	0.1796	0.19615	0.23556	0.078958	0.11066	0.1138	0.14081	0.17137	0.27107	0.18811	0.34048	0.0938	-2.9083	-3.125	-3.0292	-3.6146	-3.0854	-3.1437	-3.4708	-3.0958	-3.2562	-3.1	-2.9875	-3.4625	-3.0604	-3.1625	-3.2854	-2.9021	32.993	35.732	-93.624	-63.843	-45.892	114.193	85.120	-58.977	94.657	131.438	-132.767	-158.491	-101.080	188.156	125.045	158.539	0.00037302	0.00014664	5.5507e-05	1216.1	8.2633e-07	3.9203e-06	1280.3	258.84	3.3578e-06	1.7889e-06	319.81	87.536	66.439	20.417	6.6396e-06	28.185	0.0012596	0.0022169	0.0006364	1202.5	2.104e-05	2.4458e-05	1272.3	257.49	2.2334e-05	2.5486e-05	321.09	88.784	67.504	20.872	2.2671e-05	28.972	167.033	-30.086	-126.406	-147.593	182.917	7.572	-147.910	-141.115	-86.479	149.982	-140.826	-135.177	-133.372	-127.488	-25.133	-128.109	-8191	255	
670.583	1	1	0	0	0.10824	0.12819	0.16907	0.25118	0.22605	0.15991	0.26675	0.29549	0.060426	0.038649	0.069419	0.1358	0.12893	0.093182	0.16039	0.078679	-2.7896	-3.0979	-2.6917	-3.4437	-2.9604	-3.0208	-3.3812	-2.8375	-3.1708	-3.2083	-2.7562	-3.3604	-3.1125	-2.9833	-3.3479	-2.9354	166.069	-20.812	74.243	182.771	14.921	170.062	172.272	172.262	-52.979	-105.070	16.200	72.209	-75.818	-64.160	143.847	-143.620	0.00031386	0.00035051	9.3424e-05	1214.9	1.7332e-06	2.6816e-06	1284.8	258.42	5.636e-06	3.1167e-06	318.6	87.511	66.903	20.32	1.2409e-06	28.126	0.0012493	0.0021983	0.00060857	1201.2	2.1959e-05	2.5089e-05	1273.5	257.12	2.1988e-05	2.6065e-05	321.06	88.573	67.577	20.854	2.2449e-05	29.014	164.210	-98.253	2.042	-147.635	-27.803	3.970	-147.914	-141.032	-60.662	9.689	-141.017	-134.979	-133.277	-127.547	-40.409	-127.954	-8191	255	
670.681	1	1	0	0	0.088351	0.14992	0.32414	0.066629	0.27923	0.10618	0.20592	0.11931	0.094281	0.1736	0.28194	0.35086	0.089805	0.12036	0.13294	0.24704	-2.9938	-3.2271	-2.8479	-3.4729	-3.0792	-3.0417	-3.4833	-3.0438	-3.375	-3.2625	-2.9125	-3.4104	-3.1333	-2.8667	-3.3896	-3.0917	-23.248	-106.964	29.272	32.833	-31.671	23.937	-138.511	-84.910	-30.139	72.539	-120.416	156.317	-156.840	-137.878	177.903	115.264	0.00036075	0.00018898	0.00015335	1216.8	1.836e-06	7.5906e-07	1282.1	258.4	6.0636e-06	1.8576e-06	317.49	87.519	66.641	20.41	1.3558e-06	28.289	0.0012471	0.0021913	0.00060927	1202	2.1279e-05	2.4513e-05	1272.3	257.41	2.1479e-05	2.5096e-05	319.95	88.681	67.527	20.841	2.2234e-05	28.93	162.143	-100.110	-62.537	-147.646	-37.226	12.696	-147.911	-141.197	-79.532	5.792	-141.170	-134.819	-133.290	-127.575	-79.135	-127.967	-8191	255	
670.776	1	1	0	0	0.2948	0.098441	0.19693	0.11297	0.049236	0.13867	0.30461	0.1528	0.15037	0.13484	0.04664	0.1173	0.17889	0.27809	0.3088	0.2304	-2.75	-3.1729	-2.8958	-3.3729	-3.1917	-3.1104	-3.5417	-3.1542	-3.1646	-3.3375	-3.075	-3.2958	-3.0229	-2.8438	-3.4958	-3.225	-132.822	47.487	50.774	105.609	-66.103	160.349	173.400	-100.004	-109.111	-100.569	-23.123	-141.822	161.005	-105.833	12.936	-12.587	0.0003213	0.00018436	6.5528e-05	1215.4	2.6616e-06	4.0261e-06	1278.9	257.27	2.4697e-06	4.7595e-06	319.08	87.47	66.705	20.492	3.8608e-06	28.08	0.0012427	0.0021362	0.00061036	1202	2.0582e-05	2.4453e-05	1270.4	257.03	2.2303e-05	2.4506e-05	320.62	88.632	67.605	20.855	2.1811e-05	28.911	162.280	-64.461	-127.962	-147.603	-99.723	0.207	-147.865	-140.853	-66.582	-8.348	-140.729	-134.947	-133.310	-127.317	-29.202	-127.775	-8191	255	
670.872	1	1	0	0	0.093207	0.22873	0.32926	0.17279	0.10438	0.070559	0.32612	0.063369	0.19489	0.064493	0.15671	0.13441	0.12417	0.077059	0.1796	0.015651	-2.5	-3.3958	-2.9813	-3.3875	-3.3771	-2.8104	-3.3729	-3.1479	-3.0396	-3.4396	-3.0604	-3.1625	-3.3854	-2.9125	-3.4333	-3.1208	55.376	105.966	24.019	184.233	61.953	-55.344	124.253	40.365	-82.669	191.320	156.258	157.701	99.627	10.443	-90.387	116.621	0.00031526	0.00068082	4.7809e-05	1212	3.9268e-06	3.3757e-06	1278.9	257.33	3.0539e-06	3.1493e-06	317.11	87.541	66.484	20.425	2.4379e-06	28.056	0.0012106	0.0021562	0.0006022	1199.4	2.0852e-05	2.4261e-05	1269.5	256.85	2.1735e-05	2.4054e-05	319.08	88.667	67.489	20.835	2.117e-05	28.879	167.722	-46.464	-102.299	-147.516	-85.939	-8.316	-147.763	-140.852	-101.087	10.695	-141.211	-134.977	-133.416	-127.182	-87.704	-127.970	-8191	255	
670.992	1	1	0	0	0.2187	0.21105	0.2657	0.15047	0.098512	0.15803	0.16057	0.098942	0.073591	0.16633	0.30935	0.083565	0.18837	0.12032	0.18842	0.095003	-2.4	-3.3979	-2.8625	-3.3417	-3.3083	-2.8688	-3.4958	-3.1562	-2.8979	-3.5375	-3.0542	-3.2583	-3.4229	-2.9708	-3.2021	-3.15	-29.890	75.801	130.021	74.926	-68.777	157.336	127.109	-0.213	-135.936	81.185	-125.192	-153.387	-142.126	25.294	145.503	81.839	0.00032454	0.0003078	0.00016196	1209.6	2.1888e-06	4.7265e-06	1274.3	256.6	3.7556e-06	3.1759e-06	317.86	87.466	66.308	20.354	1.15e-06	28.041	0.0012222	0.0021092	0.00060988	1197	2.0392e-05	2.3444e-05	1266.4	256.01	2.086e-05	2.3287e-05	319.2	88.463	67.265	20.786	2.0732e-05	28.846	164.253	-141.228	-79.136	-147.564	-83.225	29.268	-147.659	-141.082	-25.659	49.030	-140.542	-134.953	-133.534	-127.029	64.167	-127.678	-8191	255	
671.088	1	1	0	0	0.057654	0.074918	0.081716	0.29055	0.2176	0.044112	0.089412	0.10857	0.095148	0.23949	0.18856	0.15395	0.25359	0.26828	0.21958	0.11863	-2.4333	-3.4062	-3.0438	-3.1229	-3.3417	-2.8354	-3.2729	-3.1896	-2.8937	-3.4854	-3.0958	-3.1479	-3.3	-2.9083	-3.2208	-3.4813	178.375	103.105	184.231	198.522	162.090	160.286	41.542	-95.062	99.050	18.483	-125.280	-46.675	-122.132	-149.644	53.064	-94.235	0.00034486	0.00027134	0.00013447	1206.6	2.2323e-06	3.302e-06	1274.3	256.19	6.3257e-06	1.2788e-06	317.4	87.17	66.389	20.226	3.5988e-06	27.967	0.0011747	0.0020187	0.00057194	1194.3	1.9215e-05	2.333e-05	1262.8	254.86	2.0355e-05	2.2492e-05	318.83	88.043	67.109	20.712	2.056e-05	28.782	162.160	-63.731	-38.092	-147.470	-32.280	-27.528	-147.850	-140.851	-55.586	-22.857	-141.094	-134.940	-133.357	-127.358	-34.688	-127.983	-8191	255	
671.185	1	1	0	0	0.14421	0.10255	0.15749	0.15532	0.20094	0.059334	0.048048	0.072324	0.19917	0.10514	0.21251	0.25986	0.13182	0.07536	0.30604	0.1557	-2.5771	-3.4271	-3.1562	-3.2979	-3.3958	-2.9938	-3.3042	-3.2875	-2.8521	-3.1729	-3.2271	-3.05	-3.4333	-2.9229	-3.1917	-3.3875	177.691	-24.800	161.470	183.146	-3.166	111.334	76.436	39.805	-142.199	118.553	-144.150	164.039	130.541	-51.968	58.665	-38.368	0.00036896	0.00029082	7.2369e-05	1202.6	1.4477e-06	5.0619e-06	1269.9	254.95	3.0936e-06	1.9341e-06	316.08	86.934	66.404	20.235	4.0142e-06	28.034	0.0011802	0.0020146	0.00057396	1190.3	1.9681e-05	2.2871e-05	1259.9	254.67	1.9981e-05	2.2929e-05	317.97	88.082	67.086	20.718	2.004e-05	28.784	169.428	-84.496	-77.186	-147.600	-37.552	-54.397	-147.836	-141.064	-59.841	-56.968	-140.629	-134.889	-133.271	-127.103	-8.193	-127.603	-8191	255	
671.281	1	1	0	0	0.19398	0.041457	0.16032	0.1487	0.26484	0.089212	0.23034	0.16301	0.17254	0.14292	0.086685	0.12063	0.28508	0.316	0.22685	0.17869	-2.3354	-3.2958	-3.1125	-3.0687	-3.3104	-2.9833	-3.3042	-3.3417	-2.7375	-3.3187	-3.0917	-3.0042	-3.4188	-2.925	-2.9688	-3.2896	-54.301	36.239	-125.955	114.132	-65.662	-87.194	157.180	129.907	-73.549	-22.359	-98.435	-4.416	-145.740	-145.986	-144.608	-103.061	0.00033079	0.00025734	8.5796e-05	1205.6	9.4164e-07	3.914e-06	1270.6	256.53	3.6635e-06	2.0273e-06	314.83	87.145	66.037	20.284	2.0062e-06	27.917	0.0011524	0.0019777	0.00055926	1190.3	1.9361e-05	2.264e-05	1262	255.14	1.996e-05	2.251e-05	317.97	88.043	67.012	20.714	1.9751e-05	28.753	161.666	-54.873	-86.238	-147.269	-62.108	-18.451	-147.788	-141.076	-60.689	25.875	-141.161	-135.108	-133.396	-127.389	-97.227	-127.982	-8191	255	
671.377	1	1	0	0	0.28531	0.14092	0.22805	0.12188	0.24037	0.2525	0.15323	0.044736	0.077524	0.12935	0.10675	0.15888	0.14113	0.15156	0.051206	0.052781	-2.2646	-3.1437	-3.1833	-3.1521	-3.3167	-3.1771	-3.25	-3.4688	-2.9604	-3.3	-3.4062	-2.9271	-3.3854	-3.0729	-2.9938	-3.3021	108.092	-93.141	163.139	184.394	56.737	152.385	-113.774	20.250	-52.825	161.702	-68.134	135.888	-155.952	198.645	169.371	194.157	0.00035057	0.00050577	5.9673e-05	1200.3	2.2623e-06	1.2669e-06	1267	255.4	2.7489e-06	1.0283e-06	319.86	87.01	65.919	20.281	5.8295e-06	27.777	0.0011303	0.0019697	0.00054768	1188.1	1.8619e-05	2.1992e-05	1258.9	254.52	1.9348e-05	2.2303e-05	318.09	88.064	66.864	20.644	1.9648e-05	28.703	164.906	-84.961	183.592	-147.556	-106.622	56.716	-147.764	-141.165	-85.318	41.885	-140.685	-134.744	-133.439	-127.182	-39.064	-127.809	-8191	255	
671.471	1	1	0	0	0.095412	0.25201	0.069602	0.15568	0.21459	0.15381	0.21696	0.22762	0.091446	0.063403	0.1202	0.17858	0.31689	0.10105	0.20159	0.20073	-2.4375	-2.9938	-3.2062	-2.9292	-3.4104	-3.2417	-3.1521	-3.475	-3.0083	-3.1188	-3.3729	-3	-3.4	-3.0771	-2.7208	-3.5167	186.661	195.885	-119.860	-51.778	-39.024	-95.470	-155.334	65.648	-125.687	-103.019	-146.705	63.415	-122.066	-140.627	-52.298	190.005	0.0003265	0.00032139	6.7938e-05	1198.7	2.3995e-06	3.3502e-06	1264.6	255.28	2.6526e-06	5.6652e-06	316.1	86.572	65.979	20.245	1.8005e-06	27.909	0.0010971	0.0019355	0.00054654	1185	1.8424e-05	2.1814e-05	1255.1	254.15	1.9398e-05	2.1867e-05	317.51	87.721	66.897	20.648	1.9697e-05	28.695	168.402	-44.754	-61.691	-147.362	-59.913	34.642	-147.424	-141.087	-112.624	13.939	-141.128	-135.026	-133.529	-127.168	-41.784	-128.110	-8191	255	
671.592	1	1	0	0	0.041204	0.061838	0.10135	0.30004	0.16711	0.19116	0.27926	0.054505	0.12323	0.23593	0.14871	0.24003	0.10148	0.11211	0.12867	0.33725	-2.6	-3.0187	-3.3167	-3.0146	-3.4667	-3.2667	-3.0979	-3.4229	-2.9208	-3.1854	-3.3208	-3.0062	-3.1813	-3.2792	-2.775	-3.2646	-27.609	1.061	27.058	178.558	-126.330	-127.697	98.439	195.770	54.667	-13.085	-103.457	-80.286	35.673	189.101	178.147	92.036	0.00035589	3.7809e-05	8.4557e-05	1197.3	9.947e-07	7.0023e-06	1268.5	254.85	2.1487e-06	2.2704e-06	316.49	86.735	65.8	20.253	2.6607e-06	27.861	0.0011569	0.0019523	0.00053272	1183.5	1.882e-05	2.2074e-05	1256.1	253.66	1.9745e-05	2.2006e-05	316.9	87.633	66.67	20.652	1.9848e-05	28.626	163.955	-29.065	-44.030	-147.680	127.397	-9.020	-147.582	-141.137	-69.880	-70.000	-140.908	-135.101	-133.346	-127.358	-7.825	-128.064	-8191	255	
671.688	1	1	0	0	0.065365	0.14137	0.19212	0.10979	0.16986	0.10429	0.2334	0.10399	0.099793	0.18067	0.22873	0.089455	0.25562	0.13557	0.028528	0.057516	-2.45	-2.9646	-3.2625	-2.9458	-3.325	-3.3438	-3.1479	-3.3042	-2.9813	-2.95	-3.3563	-2.9229	-3.1792	-3.3625	-3.15	-3.2729	154.121	-134.881	166.204	-151.728	152.379	166.885	124.193	71.300	-6.628	122.307	68.170	61.824	97.926	122.669	56.828	59.393	0.00034715	0.00056461	7.4582e-05	1197.5	2.077e-06	3.1314e-06	1260	253.96	4.4293e-06	3.0715e-06	314.86	86.517	65.905	20.181	5.5824e-06	27.817	0.0011326	0.0019458	0.00054446	1183.5	1.8763e-05	2.1912e-05	1252.6	253.6	1.9495e-05	2.1566e-05	317.21	87.62	66.695	20.599	1.9752e-05	28.664	168.081	-87.133	2.297	-147.575	-41.555	6.180	-147.598	-140.837	-38.645	25.671	-140.537	-134.991	-133.425	-127.711	-34.267	-128.065	-8191	255	
671.784	1	1	0	0	0.15041	0.24983	0.056576	0.28231	0.16926	0.13258	0.23505	0.026369	0.064579	0.16935	0.16548	0.24446	0.18391	0.24451	0.32193	0.041857	-2.6292	-2.8458	-3.5208	-3.2104	-3.2771	-3.3063	-3.0083	-3.5	-3.1083	-2.8667	-3.4	-3.0854	-3.1521	-3.2083	-2.8875	-3.4062	8.198	57.337	-65.132	149.128	71.645	174.740	54.381	84.755	-63.601	16.741	-25.382	46.141	-136.563	164.757	128.183	-51.526	0.00033525	0.00058167	0.00012425	1197.8	4.5865e-06	3.7818e-06	1265.1	254.81	3.7001e-06	3.4155e-06	315.01	87.206	66.003	20.237	5.0476e-06	27.857	0.0010998	0.0019617	0.00053098	1183.5	1.7957e-05	2.1292e-05	1254.3	253.26	1.8713e-05	2.1087e-05	316.89	87.754	66.724	20.613	1.9066e-05	28.723	158.664	-96.241	-37.987	-147.661	-52.722	29.430	-148.102	-140.911	-89.200	6.687	-140.720	-135.084	-133.374	-127.128	-0.038	-127.926	-8191	255	
671.880	1	1	0	0	0.20215	0.023318	0.10689	0.28618	0.18282	0.14302	0.28202	0.22051	0.089946	0.15687	0.27418	0.19498	0.28101	0.16099	0.070189	0.11526	-2.6667	-2.8417	-3.2979	-3.1896	-3.0854	-3.3583	-3.1708	-3.2146	-3.2229	-2.85	-3.5875	-3.2042	-3.0542	-3.3438	-2.8042	-3.1813	-9.504	-17.126	-44.255	196.429	161.533	42.866	145.151	136.282	170.963	-156.486	-55.877	-45.749	-142.561	-115.705	-140.431	107.222	0.00031138	0.00038352	6.8987e-05	1201.6	4.3413e-06	2.7439e-06	1265.4	254.9	2.5465e-06	6.0521e-06	315.99	86.551	66.27	20.148	3.7233e-06	27.855	0.0011144	0.0019154	0.00053417	1184.1	1.8238e-05	2.096e-05	1255.6	253.13	1.8597e-05	2.1354e-05	316.87	87.535	66.687	20.568	1.9408e-05	28.642	163.229	-62.946	-95.855	-147.394	-47.943	3.735	-147.788	-140.901	-71.837	16.235	-140.691	-135.199	-133.238	-127.244	-53.287	-127.630	-8191	255	
671.952	1	1	0	0	0.14804	0.16588	0.24247	0.26779	0.14116	0.11149	0.019157	0.33885	0.066293	0.10704	0.11876	0.21008	0.22611	0.20804	0.27468	0.15731	-2.875	-2.9667	-3.25	-3.1521	-2.9875	-3.2771	-2.9667	-3.2896	-3.525	-3.0271	-3.3083	-3.0708	-2.925	-3.2458	-2.9542	-3.0938	138.423	-103.625	166.452	169.475	174.600	-14.977	199.650	93.549	98.463	-95.669	93.482	67.598	182.485	-83.204	91.201	-140.174	0.00036432	0.00032542	0.00011313	1194.7	3.5162e-06	2.0671e-06	1255.1	253.86	4.6287e-06	6.9467e-07	314.19	87.096	65.93	20.382	2.1384e-06	27.709	0.0010782	0.0018741	0.00052249	1179.7	1.826e-05	2.0714e-05	1250.9	253.39	1.885e-05	2.1138e-05	315.57	87.87	66.612	20.618	1.8618e-05	28.623	168.400	-48.509	-71.009	-147.613	-22.149	14.055	-147.795	-140.985	-32.531	-110.010	-140.889	-135.046	-133.136	-127.778	-17.897	-127.697	-8191	255	
672.073	1	1	0	0	0.21516	0.12852	0.2563	0.069637	0.12155	0.11019	0.32161	0.11017	0.079382	0.18527	0.078249	0.27956	0.24399	0.20099	0.17476	0.085462	-2.6688	-2.8208	-3.2604	-3.3146	-3.0125	-3.3479	-3.3333	-3.1562	-3.35	-3.0104	-3.1875	-3.3688	-2.9167	-3.3292	-3.1021	-3.1104	154.569	90.969	-46.949	105.102	-12.920	169.581	123.642	8.059	-35.186	-45.360	-119.885	199.547	-103.290	-72.508	-85.016	129.329	0.00034799	0.00046363	0.00015825	1194.6	2.6531e-06	3.4252e-06	1257.3	254.02	4.4246e-06	5.1904e-06	315.29	86.758	66.105	20.276	2.4147e-06	27.921	0.0010799	0.0018785	0.00051299	1181.2	1.7688e-05	2.0513e-05	1251.7	253.53	1.8876e-05	2.1187e-05	316.26	87.555	66.745	20.65	1.8647e-05	28.643	168.504	-53.935	-24.145	-147.666	-59.898	-34.931	-147.854	-141.060	-50.460	-6.137	-140.709	-134.871	-133.384	-127.666	-51.006	-127.822	-8191	255	
672.169	1	1	0	0	0.15921	0.12628	0.15885	0.1217	0.25887	0.21929	0.25645	0.07498	0.14781	0.12759	0.18228	0.21722	0.11823	0.035886	0.21634	0.17767	-2.9479	-2.9688	-3.2729	-3.4437	-2.9708	-3.4104	-3.2875	-3	-3.3458	-2.9562	-3.2479	-3.3833	-2.8604	-3.3833	-2.9979	-3.0333	-133.917	-3.913	46.457	195.226	-35.148	-45.579	111.337	-112.883	-127.710	63.797	-134.404	-142.760	-150.415	-90.471	121.732	6.478	0.00032947	0.00041499	0.00015846	1195.2	1.3571e-06	2.9672e-06	1260.8	253.79	2.588e-06	3.7109e-06	314.99	86.254	66.028	20.146	3.7137e-06	27.889	0.0010532	0.0017824	0.00050927	1180.3	1.7825e-05	1.9865e-05	1250.6	252.89	1.8024e-05	2.041e-05	316.09	87.437	66.661	20.631	1.8345e-05	28.661	167.209	-79.924	-47.459	-147.473	-119.804	3.280	-147.605	-140.792	-99.913	33.797	-140.562	-134.612	-133.240	-127.635	-49.156	-128.090	-8191	255	
672.265	1	1	0	0	0.12669	0.11899	0.23041	0.16986	0.17549	0.086575	0.21966	0.20025	0.094992	0.2423	0.093125	0.12381	0.097105	0.18082	0.15995	0.22915	-2.9938	-2.9208	-3.1562	-3.5021	-2.9042	-3.3708	-3.3	-2.8229	-3.5104	-3.1125	-3.0938	-3.4208	-2.9104	-3.3271	-3.1375	-2.9562	-137.279	94.832	41.825	104.620	185.961	49.874	-149.230	-141.413	102.925	13.431	159.706	-115.104	92.569	-85.640	92.289	-149.615	0.00032655	8.2908e-05	8.9818e-05	1192	2.7751e-06	2.4322e-06	1261.8	253.15	6.1324e-06	4.0839e-06	313.53	86.866	65.878	20.221	4.7732e-06	27.868	0.0010477	0.0018005	0.00050454	1177.9	1.7664e-05	1.9846e-05	1250.6	252.95	1.813e-05	2.0413e-05	315.71	87.736	66.588	20.601	1.8396e-05	28.666	163.159	-118.777	-64.202	-147.724	-78.912	8.262	-147.792	-140.872	-69.842	17.138	-140.974	-134.895	-133.839	-127.359	-46.671	-127.430	-8191	255	
672.386	1	1	0	0	0.33051	0.026103	0.18633	0.20689	0.24786	0.10203	0.36336	0.31111	0.18154	0.14479	0.29258	0.36616	0.2774	0.1916	0.22506	0.19494	-2.8937	-3.0667	-2.9854	-3.5396	-2.9	-3.2812	-3.4708	-2.8583	-3.5708	-3.1292	-2.9271	-3.4458	-3.0979	-3.175	-3.3937	-2.9208	124.237	170.535	-116.813	-131.186	126.976	-83.169	150.852	197.318	28.505	144.310	65.581	180.892	153.124	-140.691	-149.223	-30.127	0.00033306	0.00031112	0.00017106	1195.3	2.9508e-06	4.2672e-06	1254.1	253.58	3.0748e-06	4.6651e-06	314.89	86.507	66.443	20.331	4.1986e-06	27.966	0.0010491	0.0018004	0.00049372	1178.8	1.7618e-05	2.0641e-05	1249.3	253.01	1.7676e-05	1.9521e-05	316.21	87.59	66.785	20.673	1.7567e-05	28.704	160.579	-74.837	-62.091	-147.438	-36.293	-11.362	-147.618	-141.146	-51.957	28.808	-140.664	-134.569	-133.344	-127.436	-37.808	-127.635	-8191	255	
672.480	1	1	0	0	0.27262	0.055295	0.0062389	0.13583	0.17458	0.21439	0.19761	0.16777	0.042378	0.25809	0.23724	0.20974	0.24649	0.17418	0.22837	0.024547	-2.9375	-3.0104	-2.9979	-3.5833	-2.9729	-3.3479	-3.5438	-3.15	-3.4437	-3.1708	-3.0479	-3.3583	-2.9562	-3.125	-3.3354	-3.0729	-114.875	187.232	15.424	-152.991	49.038	189.900	165.545	-73.225	-7.071	197.174	123.190	149.526	176.053	-158.216	-13.505	90.117	0.00033269	0.00021351	0.00013007	1192.3	1.6417e-06	5.5382e-06	1263.8	253.86	5.6853e-06	4.3817e-06	314.29	86.729	65.627	20.3	5.3771e-07	27.795	0.001003	0.0017625	0.00049487	1178.2	1.6818e-05	1.9331e-05	1250.4	252.81	1.7165e-05	1.9873e-05	316.1	87.528	66.55	20.693	1.7114e-05	28.665	157.315	-66.803	-63.466	-147.532	-86.497	-21.612	-147.776	-140.827	-94.966	0.506	-140.847	-135.168	-133.381	-127.536	112.594	-127.729	-8191	255	
672.576	1	1	0	0	0.08997	0.18221	0.036518	0.36649	0.19787	0.1212	0.21406	0.13573	0.12838	0.32415	0.08634	0.16867	0.25301	0.41337	0.097444	0.27641	-2.9354	-3.15	-2.9021	-3.5979	-3.0021	-3.1333	-3.5125	-2.8354	-3.2104	-3.3312	-2.9667	-3.4271	-3.1354	-2.9979	-3.3875	-2.9	-102.327	79.148	171.423	170.142	-55.457	-103.956	116.416	72.784	-129.273	187.893	-58.974	189.104	94.716	146.316	-112.355	129.660	0.00034345	0.0004248	9.0649e-05	1188	3.7093e-06	3.2229e-06	1261.4	254.5	3.7369e-06	4.1113e-06	315.24	86.853	65.841	20.345	3.4465e-06	28.026	0.0010285	0.0017122	0.00048135	1174.8	1.6779e-05	1.9406e-05	1250.9	252.94	1.7065e-05	1.9226e-05	316.5	87.735	66.734	20.683	1.6934e-05	28.777	161.610	-27.323	-103.585	-147.421	-30.197	15.959	-147.651	-140.956	-73.947	-18.301	-140.618	-135.135	-133.361	-127.510	-54.279	-127.773	-8191	255	
672.672	1	1	0	0	0.22605	0.2041	0.06213	0.039058	0.098762	0.08352	0.23514	0.1667	0.3192	0.0028882	0.17189	0.15895	0.11403	0.18206	0.24242	0.21454	-2.7875	-3.075	-2.8125	-3.3812	-3.1521	-2.9208	-3.5979	-3.1229	-3.2292	-3.2125	-2.9708	-3.2896	-3.0417	-3.2521	-3.4854	-2.9292	-89.835	186.595	-48.560	-109.336	114.917	-133.190	162.132	-152.427	122.088	-91.264	-98.135	-149.273	-86.746	-70.751	-70.458	100.885	0.00037822	0.00040286	7.0975e-05	1191.1	2.6143e-06	4.9584e-06	1262.1	253.63	1.5681e-06	5.5579e-06	315.17	86.511	65.696	20.323	5.7124e-06	28.076	0.00099345	0.0016854	0.0004802	1174.5	1.6266e-05	1.9005e-05	1248.6	252.57	1.6755e-05	1.8788e-05	315.96	87.573	66.437	20.701	1.6803e-05	28.724	166.773	-78.759	-31.309	-147.569	-73.561	26.807	-147.528	-141.042	-45.285	23.599	-140.917	-134.839	-132.947	-127.205	-37.879	-127.601	-8191	255	
672.768	1	1	0	0	0.088275	0.16594	0.036849	0.53775	0.13165	0.059424	0.16009	0.20538	0.11872	0.19684	0.11364	0.15581	0.030852	0.18618	0.07052	0.097494	-2.7167	-3.0583	-2.8917	-3.4042	-3.0583	-3.0646	-3.5125	-3.0438	-3.1188	-3.4604	-2.9646	-3.4	-3.2562	-3	-3.4646	-3.1417	7.218	-7.138	9.948	130.606	-25.658	-80.154	45.536	138.426	47.934	33.345	-127.014	137.081	-119.909	101.915	-76.249	-55.146	0.00036235	0.00016927	8.44e-05	1187.8	3.1409e-06	1.7036e-06	1255	254.45	3.0751e-06	3.3388e-06	314.65	87.074	65.606	20.127	4.2358e-06	28.234	0.00097292	0.0016577	0.00047379	1174.8	1.6599e-05	1.9163e-05	1246.6	252.62	1.669e-05	1.9006e-05	315.09	87.724	66.487	20.686	1.6842e-05	28.833	166.414	-87.723	-55.807	-147.578	-43.653	-49.826	-147.898	-140.965	-131.812	26.619	-140.772	-134.732	-133.359	-127.603	-29.925	-127.863	-8191	255	
672.865	1	1	0	0	0.16216	0.075628	0.089345	0.10168	0.098175	0.30485	0.14696	0.21605	0.104	0.21762	0.095835	0.059503	0.21672	0.16674	0.19087	0.27864	-2.8167	-3.1604	-2.8542	-3.4521	-3.1708	-3.0354	-3.5	-3.2417	-2.9813	-3.3833	-3.0083	-3.4396	-3.4125	-2.775	-3.3583	-3.1792	-30.758	-89.977	46.925	153.937	135.984	-137.007	152.311	49.123	193.843	68.042	-51.129	8.916	191.521	-100.037	133.491	104.010	0.00034324	0.00033176	2.6841e-05	1189.6	3.046e-06	2.8106e-06	1254.3	253.85	3.1696e-06	4.9617e-06	317.01	86.959	66.076	20.252	2.4846e-06	28.232	0.00098059	0.0016405	0.00046374	1175.3	1.616e-05	1.9266e-05	1248.5	252.83	1.6655e-05	1.8459e-05	316.25	87.876	66.666	20.757	1.6717e-05	28.821	170.566	-46.917	-86.051	-147.674	-63.441	-0.188	-147.755	-140.898	-21.268	7.848	-140.751	-134.834	-133.401	-127.297	-15.006	-127.979	-8191	255	
672.961	1	1	0	0	0.012456	0.059521	0.18944	0.1849	0.13634	0.039641	0.070322	0.038153	0.15603	0.1359	0.1547	0.11652	0.25944	0.12795	0.088803	0.065361	-2.6854	-3.2292	-2.925	-3.3854	-3.2938	-2.7354	-3.5104	-3.3042	-2.9146	-3.4167	-2.9938	-3.2313	-3.5312	-2.7896	-3.2646	-3.1562	-8.882	58.081	-153.133	-152.837	30.373	58.245	85.311	-138.579	-42.346	-50.795	153.427	144.175	152.715	-0.653	115.396	-9.136	0.00034402	0.00037015	8.7784e-05	1188.8	2.8323e-06	3.9163e-06	1254.6	254.42	1.8435e-06	2.7673e-06	316.28	86.909	66.453	20.376	3.7789e-06	28.171	0.00096887	0.0016042	0.00046083	1173.9	1.5828e-05	1.8775e-05	1245.4	252.77	1.6206e-05	1.8705e-05	316.28	88.033	66.77	20.768	1.6579e-05	28.784	165.513	-48.554	-107.923	-147.466	-32.103	36.907	-147.678	-140.872	-85.301	-6.059	-140.543	-134.900	-133.617	-127.615	-10.773	-128.028	-8191	255	
673.081	1	1	0	0	0.043482	0.13576	0.22461	0.18426	0.32875	0.080642	0.33387	0.2153	0.29106	0.13669	0.24628	0.22257	0.21375	0.13327	0.095517	0.30257	-2.3458	-3.4	-2.9979	-3.3187	-3.3604	-2.95	-3.3937	-3.2583	-2.8625	-3.4	-3.2062	-3.05	-3.2167	-2.9646	-3.2062	-3.275	116.106	81.717	107.957	-51.105	138.352	174.559	134.742	-81.602	-76.402	-54.729	170.247	131.174	170.535	-91.340	171.589	-134.326	0.00033335	0.00048199	0.00010337	1187.2	1.8184e-06	5.785e-06	1254	253.55	3.3177e-06	3.9138e-06	314.43	87.405	65.824	20.399	3.2098e-06	28.075	0.00098922	0.0016419	0.00046578	1173.6	1.5928e-05	1.8326e-05	1245.6	252.21	1.6933e-05	1.8266e-05	315.22	88.064	66.631	20.806	1.6954e-05	28.771	166.445	-68.537	-105.804	-147.329	-54.151	34.851	-147.631	-141.020	-63.966	59.260	-140.823	-134.830	-133.374	-127.372	-35.642	-127.932	-8191	255	
673.178	1	1	0	0	0.10551	0.2115	0.043355	0.20119	0.17772	0.10751	0.099595	0.099278	0.17484	0.13372	0.10611	0.20498	0.059792	0.11995	0.092565	0.013583	-2.3104	-3.2521	-2.9604	-3.0896	-3.2979	-2.7625	-3.3375	-3.2625	-3.1229	-3.3812	-3.2292	-3.2708	-3.475	-2.9833	-3.2833	-3.4333	-87.230	130.520	-80.330	115.543	-92.470	193.367	-138.345	-128.324	159.237	186.610	-1.444	-152.524	156.160	44.758	5.517	77.774	0.0003429	0.00038118	7.5804e-05	1188.6	2.8509e-06	1.8461e-06	1261.7	253.91	3.3464e-06	3.1527e-06	315.83	87.255	66.248	20.347	5.9866e-06	28.064	0.00096404	0.0016521	0.00045729	1173.3	1.5958e-05	1.8376e-05	1245.7	252.55	1.6444e-05	1.8444e-05	316.32	87.86	66.77	20.823	1.6366e-05	28.759	162.237	-55.524	-99.076	-147.565	-85.116	-13.999	-147.866	-140.795	-129.054	-41.981	-141.005	-134.721	-133.400	-127.432	-40.054	-128.368	-8191	255	
673.249	1	1	0	0	0.12524	0.15273	0.19624	0.19172	0.10357	0.051305	0.17748	0.25857	0.070917	0.18458	0.052428	0.21615	0.22549	0.25015	0.12028	0.021395	-2.7583	-3.3146	-2.9583	-3.2438	-3.3688	-3.0438	-3.3063	-3.3646	-2.8438	-3.2333	-3.2333	-3.0417	-3.4146	-3.1104	-2.9354	-3.3375	-64.694	-66.144	-116.317	181.741	9.816	113.369	156.354	182.836	-140.967	-85.703	-10.179	180.178	-43.937	195.700	-15.670	125.856	0.00031757	0.00022382	0.00011347	1184.6	2.3054e-06	1.6979e-06	1260.2	254.46	2.9339e-06	2.7454e-06	313.17	87.382	66.312	20.485	4.0255e-06	28.256	0.00094802	0.0015567	0.00045018	1172.1	1.5411e-05	1.8141e-05	1247.1	252.69	1.6189e-05	1.8103e-05	315.15	88.097	66.87	20.878	1.6242e-05	28.924	164.269	-40.794	-75.581	-147.368	-35.275	-68.636	-147.633	-140.872	-23.099	16.617	-140.899	-134.948	-133.256	-127.309	-17.970	-127.983	-8191	255	
673.370	1	1	0	0	0.068853	0.2566	0.15782	0.18258	0.20547	0.076888	0.31386	0.31165	0.15595	0.098397	0.080638	0.12384	0.20953	0.16451	0.1173	0.41014	-2.3688	-3.3146	-2.9833	-2.9875	-3.2854	-3.1354	-3.1958	-3.4771	-2.8542	-3.2354	-3.4062	-2.8708	-3.3458	-3.1042	-2.9833	-3.3563	117.388	10.413	77.212	199.806	-0.287	87.507	105.067	-157.399	129.609	-106.137	69.116	9.470	153.161	-144.541	-91.585	185.240	0.00030543	0.00057397	0.00010346	1189.9	2.6845e-06	3.5012e-06	1255	253.16	4.6692e-06	1.8184e-06	315.38	87.004	65.963	20.537	3.4327e-06	28.289	0.00094071	0.001586	0.00043991	1174.4	1.5191e-05	1.7739e-05	1246.1	252.22	1.6138e-05	1.7778e-05	315.69	87.84	66.599	20.871	1.6278e-05	28.92	166.594	-45.419	-35.974	-147.400	-56.038	10.232	-147.653	-141.130	-62.508	-22.899	-141.037	-134.744	-133.376	-127.695	-31.978	-128.279	-8191	255	
673.464	1	1	0	0	0.060605	0.044832	0.13314	0.35399	0.25235	0.15193	0.27959	0.33046	0.10605	0.074719	0.20488	0.36026	0.20384	0.36262	0.14061	0.20057	-2.5021	-3.0417	-3.4021	-3.0771	-3.3417	-3.0958	-3.2708	-3.5604	-3.0563	-3.3167	-3.4375	-2.8917	-3.3708	-3.1125	-2.8479	-3.4875	36.454	185.744	90.893	138.032	-62.448	-131.246	82.055	111.877	-77.975	-2.622	119.560	146.243	-146.542	127.565	-103.728	152.679	0.00032093	0.00019624	4.4335e-05	1186.5	2.6565e-06	2.806e-06	1256.5	252.85	3.557e-06	2.7364e-06	313.94	87.339	66.03	20.551	2.8442e-06	28.086	0.00095459	0.0015578	0.00043485	1171.7	1.5085e-05	1.7914e-05	1246.2	252.45	1.5687e-05	1.7156e-05	314.84	87.932	66.641	20.916	1.6365e-05	28.878	166.433	-67.989	-66.670	-147.684	-35.192	-14.258	-147.588	-141.009	-50.449	8.172	-140.686	-134.894	-133.466	-127.715	19.266	-128.121	-8191	255	
673.560	1	1	0	0	0.24149	0.19164	0.043363	0.39749	0.03148	0.040854	0.15864	0.11884	0.083197	0.087414	0.12292	0.045838	0.10201	0.20831	0.17391	0.24119	-2.4792	-3.1813	-3.4167	-2.9854	-3.3271	-3.2438	-3.1813	-3.3833	-3.2438	-3.1417	-3.1729	-2.8854	-3.4271	-3.2375	-2.825	-3.4229	47.478	-140.329	81.063	189.558	-12.782	37.126	130.392	-157.169	43.865	-24.104	194.844	127.293	191.349	121.256	42.884	192.452	0.00032569	0.00077016	5.6961e-05	1186.6	8.9431e-07	3.6342e-06	1253.4	253.13	4.5034e-06	4.3076e-06	315.67	87.388	66.066	20.646	2.5447e-06	28.374	0.00093982	0.0015347	0.00043756	1172.4	1.4881e-05	1.7163e-05	1245.5	252.37	1.5557e-05	1.7158e-05	315.49	88.017	66.716	20.981	1.6245e-05	29.012	163.645	-44.573	-53.243	-147.524	-72.635	-18.939	-147.588	-140.915	-92.906	31.540	-140.390	-134.987	-133.301	-127.608	-16.531	-128.013	-8191	255	
673.657	1	1	0	0	0.19794	0.19152	0.06783	0.095821	0.22185	0.18089	0.32126	0.060277	0.13071	0.24855	0.1531	0.1013	0.27169	0.12253	0.051156	0.10723	-2.4146	-3.0312	-3.5312	-3.0979	-3.1146	-3.4104	-3.0667	-3.3792	-3.2021	-3.1875	-3.4521	-2.8917	-3.2708	-3.4229	-3.0625	-3.4292	-122.028	163.704	160.236	-70.900	193.218	146.135	178.342	59.781	102.069	29.993	39.109	114.082	132.015	-136.508	24.362	50.257	0.00029913	0.00026428	8.8079e-05	1188.6	1.758e-06	1.4533e-06	1256.5	254.14	3.7481e-06	3.1596e-06	314.69	87.136	66.189	20.632	3.8561e-06	28.204	0.00091904	0.0015254	0.00041474	1172.4	1.4855e-05	1.7081e-05	1247.5	252.44	1.5474e-05	1.7604e-05	315.7	88.065	66.874	20.994	1.5757e-05	28.939	157.569	-97.530	-65.018	-147.341	-27.139	60.200	-147.801	-140.750	-86.232	-31.884	-140.934	-134.999	-133.451	-127.455	-33.500	-128.023	-8191	255	
673.777	1	1	0	0	0.15778	0.17213	0.067996	0.15261	0.18207	0.081759	0.19018	0.11461	0.080168	0.16079	0.14156	0.187	0.22273	0.05209	0.17382	0.070466	-2.6854	-3.0208	-3.4917	-2.9667	-3.0229	-3.2396	-3.0708	-3.3104	-3.1646	-2.8187	-3.5	-3.1292	-3.1479	-3.3104	-2.8292	-3.4896	44.969	46.861	-17.301	86.906	-60.137	15.217	40.086	-154.822	-45.046	-123.810	190.596	156.841	-137.136	-143.876	91.016	107.244	0.00036368	0.00037991	6.7104e-05	1190.3	1.6687e-06	4.0484e-06	1257.5	253.58	2.8523e-06	1.85e-06	313.42	87.962	66.414	20.605	1.446e-06	28.275	0.00092746	0.0015792	0.00042818	1172.7	1.4932e-05	1.7137e-05	1246.6	252.22	1.5841e-05	1.7144e-05	314.37	88.313	66.95	20.963	1.5848e-05	28.98	162.297	-92.654	-48.257	-147.565	-62.021	9.147	-147.877	-141.056	-83.139	-83.881	-140.736	-135.235	-133.008	-127.730	-61.103	-128.160	-8191	255	
673.849	1	1	0	0	0.28266	0.11797	0.15729	0.10751	0.28716	0.21275	0.089512	0.18751	0.24553	0.20278	0.0973	0.22723	0.07669	0.39097	0.12258	0.10996	-2.7188	-2.9313	-3.2917	-3.1896	-3.1813	-3.2917	-3.0958	-3.2708	-3.2792	-2.8917	-3.4792	-3.1146	-3.0812	-3.3167	-2.9646	-3.2917	200.451	79.876	47.937	1.461	-18.023	-124.455	36.138	159.814	80.591	-76.461	-58.348	193.440	-76.879	158.018	-60.582	-44.866	0.00035669	0.00026632	3.2222e-05	1189.2	2.1293e-06	3.7101e-06	1260.1	254.29	3.7305e-06	3.511e-06	315.27	87.858	65.918	20.69	3.3376e-06	28.369	0.00093808	0.0015653	0.00042867	1173.5	1.5042e-05	1.7029e-05	1247	252.82	1.5574e-05	1.7509e-05	316.03	88.319	66.779	21.053	1.5965e-05	29.016	160.251	-67.577	-102.100	-147.579	-59.113	25.196	-147.810	-140.960	-59.406	40.690	-141.059	-135.048	-133.211	-127.807	-63.624	-128.044	-8191	255	
673.945	1	1	0	0	0.32072	0.11417	0.10243	0.14107	0.12175	0.16201	0.31373	0.061525	0.10362	0.1759	0.1166	0.18123	0.17741	0.10034	0.066012	0.323	-2.8	-2.8812	-3.3917	-3.1958	-3.0292	-3.2313	-3.0292	-3.2896	-3.2	-2.9792	-3.5	-3.2458	-3.0812	-3.3688	-2.8958	-3.3354	-57.863	-41.649	-15.682	-147.516	163.775	64.431	165.383	124.661	147.054	-67.280	83.193	-35.285	144.093	172.873	-35.073	94.198	0.00035245	0.00047353	3.9532e-05	1193.1	1.871e-06	1.363e-06	1259.1	254.58	1.784e-06	3.8938e-06	316.1	88.031	66.481	20.702	6.8221e-06	28.473	0.00091574	0.0015298	0.000428	1176.5	1.5228e-05	1.7149e-05	1250	253.04	1.5682e-05	1.7086e-05	315.38	88.51	67.009	21.051	1.5509e-05	28.992	164.401	-79.792	-34.903	-147.467	-94.705	27.581	-147.784	-141.187	-79.131	-29.323	-140.640	-134.868	-133.342	-127.837	-21.301	-127.977	-8191	255	
674.041	1	1	0	0	0.31044	0.15021	0.24921	0.16254	0.2835	0.04841	0.025643	0.0617	0.1521	0.095562	0.28393	0.10282	0.11455	0.24201	0.19251	0.0032044	-3.0229	-2.7646	-3.2167	-3.4896	-2.8021	-3.45	-3.0875	-3.1333	-3.5438	-2.8583	-3.4854	-3.3542	-2.9688	-3.4562	-2.9437	-3.2792	-2.832	-42.242	-91.467	161.826	172.202	-152.208	131.308	-6.150	-98.832	-117.425	145.432	-83.567	-39.331	46.508	-87.702	-28.318	0.00039526	0.00017194	0.00010583	1192.4	6.4913e-07	3.9326e-06	1263.1	252.89	4.0958e-06	4.9815e-06	315.03	87.349	66.663	20.473	5.5113e-06	28.26	0.00093311	0.0015379	0.00041727	1176.3	1.4977e-05	1.6722e-05	1250.1	252.51	1.5251e-05	1.7233e-05	315.21	88.367	67.06	21.065	1.5716e-05	28.982	152.999	-10.563	-31.180	-147.534	-13.339	19.909	-147.711	-140.961	-83.971	-2.533	-141.028	-134.941	-133.280	-127.762	-50.798	-128.190	-8191	255	
674.162	1	1	0	0	0.21912	0.11652	0.2065	0.0309	0.16919	0.03953	0.46652	0.047422	0.09094	0.11187	0.15434	0.244	0.14772	0.22145	0.16783	0.13606	-3.0646	-2.8688	-3.175	-3.2896	-2.8417	-3.3521	-3.2521	-3.2229	-3.4646	-3.0438	-3.2562	-3.2708	-2.9292	-3.3021	-3.0333	-3.25	-18.995	113.642	11.903	-6.355	156.654	-77.917	151.774	184.643	25.584	-113.004	-154.239	83.180	14.365	150.469	87.778	90.990	0.00033585	0.00025678	5.1569e-05	1189.2	3.5771e-06	2.6629e-06	1261	254.1	2.3855e-06	2.1491e-06	316.06	87.264	66.309	20.629	3.5255e-06	28.163	0.0009162	0.0014888	0.00042082	1175.5	1.4957e-05	1.6864e-05	1249.7	253.04	1.5251e-05	1.6963e-05	316.15	88.299	66.936	21.036	1.5211e-05	28.977	163.470	-74.946	-53.422	-147.515	-55.410	1.330	-147.631	-141.095	-30.377	15.323	-141.257	-134.932	-133.528	-127.867	-33.172	-128.054	-8191	255	
674.258	1	1	0	0	0.10699	0.16539	0.18919	0.032375	0.11535	0.1683	0.15308	0.31028	0.14569	0.08129	0.1543	0.13998	0.18341	0.15006	0.14964	0.042552	-3.0875	-2.9521	-3.0687	-3.4021	-2.9729	-3.4437	-3.3583	-3.0438	-3.4062	-3.1167	-3.0604	-3.2875	-2.7667	-3.375	-3.0521	-2.9688	88.358	-155.659	134.434	166.805	139.776	91.124	152.552	81.323	-8.465	-48.762	-24.322	35.258	147.678	-65.117	-85.238	-107.253	0.00038284	0.00023789	7.1569e-05	1189.7	1.3505e-06	3.5719e-06	1260.4	253.22	2.5612e-06	5.2488e-06	315.35	87.887	66.378	20.726	3.036e-06	28.405	0.00090941	0.0015296	0.00041814	1175	1.4883e-05	1.6903e-05	1249.9	252.5	1.5446e-05	1.7291e-05	316.01	88.394	66.944	21.062	1.5643e-05	29.044	162.628	-80.165	-40.934	-147.515	-73.865	6.346	-147.642	-140.851	-96.440	-19.805	-140.758	-135.138	-133.337	-127.642	-4.748	-128.138	-8191	255	
674.354	1	1	0	0	0.028945	0.077524	0.29817	0.13354	0.085146	0.262	0.28137	0.34942	0.17133	0.11036	0.22357	0.20948	0.18295	0.17983	0.23678	0.19107	-3.15	-2.975	-3.0375	-3.5729	-2.8187	-3.1146	-3.4229	-2.9833	-3.3604	-3.1521	-3.2917	-3.6604	-3.0708	-3.1063	-3.1833	-3.0292	144.724	191.642	-39.656	137.434	-121.795	42.520	97.772	126.293	119.381	-94.390	-147.908	125.754	86.229	177.208	190.186	-124.149	0.00035336	0.0003303	0.00011001	1192	3.9856e-06	3.6547e-06	1257.9	254.54	4.8089e-06	3.9749e-06	314.04	87.58	66.456	20.753	2.4032e-06	28.382	0.00089194	0.0014827	0.00041941	1175.8	1.49e-05	1.6284e-05	1248.6	252.85	1.4947e-05	1.6712e-05	315.36	88.326	67.052	21.08	1.5173e-05	29.035	162.095	-62.925	-85.408	-147.422	-42.157	5.480	-147.835	-140.905	-52.788	23.162	-140.893	-135.076	-133.403	-127.911	-30.128	-128.086	-8191	255	
674.475	1	1	0	0	0.23433	0.088029	0.074344	0.34126	0.08033	0.2408	0.30884	0.20285	0.16946	0.084632	0.13875	0.12858	0.22978	0.18711	0.086596	0.17615	-2.8667	-2.9604	-3.0125	-3.6479	-2.9833	-3.2583	-3.3646	-2.8063	-3.3083	-3.1521	-3.0542	-3.425	-2.9813	-3.0271	-3.2667	-2.8958	40.106	43.557	-56.547	183.738	-11.208	-128.335	148.743	41.674	-154.636	-1.697	55.976	29.153	189.096	122.364	-92.901	-61.170	0.0003393	0.00039912	0.00012316	1188.6	1.5961e-06	4.0722e-06	1261.9	253.01	2.5191e-06	3.5595e-06	313.81	87.418	66.529	20.651	4.9733e-06	28.169	0.00090032	0.0015373	0.00042768	1174.7	1.4544e-05	1.6536e-05	1249.2	252.94	1.4811e-05	1.6848e-05	315.17	88.188	67.045	21.081	1.5725e-05	28.924	167.490	-32.386	-100.348	-147.372	2.836	-15.597	-147.725	-140.960	-123.663	-55.651	-140.850	-134.793	-133.388	-127.464	-29.496	-128.232	-8191	255	
674.545	1	1	0	0	0.11577	0.042557	0.18396	0.20029	0.35838	0.20629	0.24796	0.13783	0.13664	0.13367	0.19182	0.082494	0.098671	0.3416	0.27237	0.13751	-2.9958	-3.1688	-2.8667	-3.5167	-3.0229	-3.3271	-3.4313	-3.0563	-3.15	-3.1125	-3.0125	-3.3417	-3.1125	-3.1729	-3.2271	-2.9667	46.981	-125.510	-147.107	129.978	139.392	-119.716	120.139	147.449	-28.716	-81.044	109.888	-61.673	-63.060	-48.544	81.927	-38.556	0.00036736	0.00028814	0.00010049	1190.7	2.3953e-06	3.4767e-06	1266.4	253.66	1.9232e-06	4.1638e-06	314.78	87.715	66.064	20.68	1.6915e-06	28.281	0.00089688	0.0015262	0.00042885	1175.4	1.5051e-05	1.6949e-05	1251.5	252.62	1.4913e-05	1.7097e-05	315.65	88.319	66.878	21.04	1.5783e-05	28.998	162.987	-41.320	-72.565	-147.599	-51.486	-71.673	-147.805	-140.813	-59.803	48.663	-140.386	-134.994	-133.358	-127.872	4.476	-128.316	-8191	255	
674.642	1	1	0	0	0.13265	0.080429	0.14071	0.12884	0.14503	0.40574	0.24497	0.0097848	0.19724	0.19617	0.1143	0.10236	0.11356	0.025974	0.12847	0.1828	-2.9354	-3.1437	-2.9979	-3.5854	-3.0458	-3.1833	-3.3563	-3.0875	-3.3104	-3.1792	-2.9271	-3.5375	-3.2104	-3.0208	-3.5021	-3.0187	120.911	-111.050	-82.366	-134.949	60.763	107.025	15.390	-33.182	180.196	-19.840	106.205	-68.184	114.567	196.481	141.296	-79.624	0.00036889	0.00042441	7.331e-05	1191.3	3.6657e-06	3.236e-06	1261.1	253.29	2.1046e-06	5.8903e-06	314.5	87.585	66.212	20.758	3.2986e-06	28.401	0.00092646	0.0015193	0.00044084	1175.6	1.4629e-05	1.7071e-05	1249.9	252.63	1.4651e-05	1.7215e-05	316.04	88.495	66.926	21.128	1.5032e-05	28.983	157.996	-44.527	-69.467	-147.575	-39.112	9.246	-147.616	-140.695	-57.854	15.678	-140.904	-134.980	-133.310	-127.792	-24.417	-127.814	-8191	255	
674.761	1	1	0	0	0.18666	0.099289	0.16466	0.13587	0.027101	0.14395	0.42732	0.13321	0.097786	0.094556	0.18792	0.23897	0.02095	0.078163	0.16952	0.1136	-2.8396	-3.2917	-2.9146	-3.3604	-3.1437	-2.9104	-3.5646	-2.9458	-3.1896	-3.4667	-2.9146	-3.3438	-3.125	-2.9792	-3.5	-3.1063	36.398	-41.264	59.321	-151.563	26.508	-151.379	150.700	-4.911	119.131	-1.338	-74.558	125.817	-34.004	-66.832	146.462	181.807	0.00034792	0.00010911	0.00013661	1192.6	2.9029e-06	6.0371e-07	1260.2	254.3	3.8333e-06	6.0319e-06	315.26	87.585	66.469	20.869	9.7155e-07	28.566	0.00090824	0.0014873	0.00041543	1176.1	1.4064e-05	1.6748e-05	1250.9	252.98	1.4743e-05	1.6881e-05	315.56	88.433	67.225	21.242	1.4597e-05	29.22	164.522	1.558	-77.426	-147.437	-54.058	-52.469	-147.926	-141.130	-64.946	4.864	-140.563	-134.808	-133.118	-127.817	-31.825	-128.253	-8191	255	
674.858	1	1	0	0	0.20366	0.056047	0.31415	0.19408	0.22368	0.17848	0.10194	0.083356	0.12252	0.25667	0.25141	0.14244	0.26872	0.061957	0.20988	0.20559	-2.6312	-3.2646	-2.7521	-3.4417	-3.1208	-2.8854	-3.5083	-3.0979	-3.2062	-3.3229	-3.0375	-3.4458	-3.1958	-2.9667	-3.3083	-3.0708	-138.170	-130.278	-34.767	131.235	-33.811	193.077	80.678	-41.850	-70.240	184.576	134.010	-143.536	-156.754	-99.617	114.469	154.325	0.00034012	4.6067e-05	0.00010863	1195.8	5.3843e-06	2.985e-06	1258.8	253.64	4.3995e-06	3.5591e-06	314.78	87.987	66.552	20.817	3.5315e-06	28.603	0.00087578	0.0014458	0.00041151	1175.9	1.411e-05	1.6868e-05	1251.4	252.62	1.4674e-05	1.5981e-05	315.79	88.622	67.186	21.246	1.4081e-05	29.179	162.533	-90.930	-66.860	-147.458	-25.911	-16.419	-147.861	-140.990	-68.527	16.295	-140.768	-134.869	-133.437	-127.787	-24.483	-128.083	-8191	255	
674.954	1	1	0	0	0.11591	0.12698	0.080774	0.19853	0.1199	0.082382	0.36898	0.11891	0.11528	0.098281	0.10436	0.015745	0.099093	0.061689	0.030162	0.21997	-2.675	-3.2542	-2.6604	-3.3063	-3.2833	-2.7938	-3.4896	-3.0938	-3.1771	-3.4771	-2.95	-3.3875	-3.225	-2.8771	-3.3187	-3.1333	173.599	-66.553	-14.915	-142.221	-88.556	-107.044	153.333	131.989	5.219	43.629	51.752	-122.687	-145.045	96.289	-72.293	165.923	0.00034218	0.00025748	9.9159e-05	1192.1	2.9277e-06	2.9257e-06	1264.5	253.54	3.9561e-06	2.7758e-06	317.39	88.209	66.643	20.905	2.6649e-06	28.444	0.00087929	0.0013867	0.00039541	1177.4	1.405e-05	1.5984e-05	1252.5	253.22	1.4621e-05	1.5462e-05	316.33	88.871	67.218	21.287	1.4094e-05	29.203	165.589	-95.171	-18.143	-147.443	-78.431	20.085	-147.782	-140.787	-86.247	-55.698	-140.812	-135.027	-133.575	-127.874	-83.800	-128.293	-8191	255	
675.074	1	1	0	0	0.23405	0.21103	0.15454	0.34212	0.079079	0.18713	0.20803	0.10137	0.11503	0.16401	0.26597	0.038974	0.10499	0.15397	0.15472	0.181	-2.6417	-3.4042	-3.0167	-3.1437	-3.1708	-2.875	-3.4062	-3.0979	-2.7771	-3.3875	-3.0146	-3.0354	-3.5229	-2.9396	-3.1083	-3.1771	124.600	133.683	111.542	119.696	161.773	-75.314	91.931	24.915	-64.757	-82.800	110.846	-92.440	160.670	-149.975	-118.252	132.639	0.00031034	0.00028102	6.6671e-05	1194.3	2.6133e-06	1.8433e-06	1261.4	253.88	4.2573e-06	6.6173e-06	314.58	88.169	66.379	20.901	3.8458e-06	28.553	0.00085553	0.0014008	0.00039363	1178.1	1.3844e-05	1.6203e-05	1250.2	253.12	1.4565e-05	1.5979e-05	314.94	88.846	67.188	21.284	1.4171e-05	29.217	166.131	-104.530	-47.438	-147.513	-38.043	-3.448	-147.749	-141.007	-70.385	10.635	-140.960	-135.126	-133.396	-127.919	1.550	-128.275	-8191	255	
675.146	1	1	0	0	0.14168	0.26458	0.085917	0.23769	0.076243	0.10755	0.1459	0.21544	0.12267	0.24887	0.19965	0.084072	0.20905	0.060971	0.16265	0.33771	-2.3708	-3.4062	-3.1437	-3.3042	-3.3563	-2.9042	-3.4479	-3.2542	-2.9167	-3.4375	-3.1396	-3.1646	-3.425	-2.8187	-3.2917	-3.2521	-22.488	-118.676	194.529	140.247	47.092	-10.920	63.505	142.521	60.072	25.282	185.980	117.754	-154.482	96.299	11.330	85.798	0.00039046	0.00028774	0.00010042	1195.9	2.7448e-06	8.9076e-07	1261.9	255.53	3.1798e-06	3.0445e-06	314.24	88.138	66.726	20.886	2.9388e-06	28.472	0.00087805	0.00139	0.00038589	1178	1.3663e-05	1.5421e-05	1250.8	253.26	1.4284e-05	1.5068e-05	315.7	88.789	67.366	21.282	1.3396e-05	29.171	163.696	-67.611	-40.460	-147.465	-87.045	8.814	-147.814	-141.267	-78.723	-42.234	-140.645	-135.229	-133.405	-127.730	-32.022	-128.345	-8191	255	
675.242	1	1	0	0	0.22925	0.053637	0.049264	0.35847	0.07672	0.1051	0.21542	0.19063	0.4077	0.18647	0.039775	0.074737	0.25705	0.21469	0.046894	0.14759	-2.5104	-3.2188	-3.0104	-3.15	-3.3333	-3.075	-3.3	-3.4833	-2.8104	-3.2667	-3.2146	-3.0292	-3.4188	-3.0062	-3.1417	-3.4271	-118.597	94.886	65.417	182.305	17.713	168.193	132.461	193.804	27.199	139.260	89.336	-26.498	110.592	-129.191	97.463	123.659	0.00036306	0.00041117	0.00013748	1193.2	1.5851e-06	4.5001e-06	1262.9	254.84	4.2993e-06	2.5891e-06	315.35	87.99	66.644	21.015	1.8308e-06	28.394	0.00086402	0.0013433	0.00038733	1177.2	1.3659e-05	1.5706e-05	1251.1	253.49	1.445e-05	1.6002e-05	316.08	88.836	67.309	21.376	1.4342e-05	29.194	167.222	-94.965	-63.691	-147.504	-59.197	3.073	-147.611	-141.089	-88.496	-60.389	-141.098	-135.159	-133.163	-127.989	-55.647	-128.223	-8191	255	
675.338	1	1	0	0	0.20475	0.094546	0.15875	0.31384	0.36754	0.16725	0.19576	0.12149	0.20542	0.083418	0.066064	0.10754	0.1841	0.10091	0.12243	0.21656	-2.5292	-3.2729	-2.9646	-3.1042	-3.4813	-3.0979	-3.2104	-3.4542	-2.8625	-3.1562	-3.2271	-3.0646	-3.4521	-2.9833	-3.0583	-3.4583	31.840	-145.093	169.266	110.031	-26.864	-9.806	138.538	128.662	-136.022	-2.375	64.720	121.712	141.063	107.233	71.692	-47.283	0.00035199	0.00022401	0.00010083	1193.7	3.3107e-06	3.6395e-06	1263.4	254.66	3.4812e-06	5.0737e-06	316.33	88.336	66.806	20.895	4.1365e-06	28.704	0.00087109	0.0014239	0.00039117	1178.4	1.3693e-05	1.5753e-05	1251.7	253.03	1.4536e-05	1.5502e-05	316.44	88.944	67.346	21.313	1.4176e-05	29.235	163.861	-84.526	-56.710	-147.678	-36.673	-42.610	-147.917	-141.106	-30.180	-0.651	-140.588	-135.465	-133.505	-127.992	12.265	-128.072	-8191	255	
675.457	1	1	0	0	0.17816	0.21731	0.18815	0.18819	0.12129	0.23158	0.097907	0.1886	0.11256	0.16401	0.13579	0.089191	0.24978	0.294	0.20915	0.11777	-2.4042	-3.25	-3.1	-3.1292	-3.3667	-3.0354	-3.1771	-3.4042	-3.0208	-3.175	-3.3708	-3.0167	-3.3271	-3.1729	-2.9104	-3.3812	6.651	122.000	-117.723	138.191	-31.454	-20.627	46.681	-152.961	127.168	142.912	79.782	64.824	175.471	-79.952	-133.658	-82.687	0.0003134	0.00048913	7.8614e-05	1195.6	1.5022e-06	5.4747e-06	1265.6	254.07	4.305e-06	5.5874e-06	316.29	87.981	67.061	21.049	3.1848e-06	28.645	0.00083035	0.0013759	0.00038634	1178.1	1.3471e-05	1.5422e-05	1253.7	253.51	1.4268e-05	1.485e-05	316.16	88.858	67.588	21.401	1.4062e-05	29.345	164.433	-86.104	-74.459	-147.406	-70.145	-23.022	-147.750	-141.030	-77.854	-31.685	-140.987	-134.921	-133.621	-128.127	-83.085	-127.972	-8191	255	
675.553	1	1	0	0	0.086386	0.059423	0.18243	0.13804	0.034647	0.10475	0.29442	0.082734	0.27255	0.27979	0.15763	0.29675	0.11697	0.25425	0.10479	0.11466	-2.5208	-3.1792	-3.2292	-2.7938	-3.3521	-3.1479	-3.0583	-3.3125	-3.0354	-3.1312	-3.3146	-3.0938	-3.5625	-3.2125	-2.9938	-3.5479	82.686	184.017	-104.854	-147.061	87.498	89.153	171.947	-62.620	130.673	-21.965	43.255	196.478	-53.514	160.689	131.578	13.628	0.00036162	0.00025383	0.00013868	1195	1.88e-06	2.2401e-06	1267.5	256.16	5.4304e-06	4.3108e-06	317.1	88.679	66.648	21.072	3.8567e-06	28.615	0.00083891	0.0013477	0.00038023	1177.8	1.3058e-05	1.5208e-05	1253.2	253.79	1.3708e-05	1.4841e-05	316.51	89.183	67.442	21.409	1.4142e-05	29.333	166.631	-126.469	-58.880	-147.482	-83.484	12.619	-147.617	-141.037	-55.969	-10.712	-140.957	-135.104	-133.373	-127.830	-39.324	-128.166	-8191	255	
675.649	1	1	0	0	0.19467	0.025294	0.071537	0.39877	0.063482	0.24618	0.11539	0.12646	0.075126	0.32652	0.1803	0.070727	0.15577	0.17695	0.26024	0.095683	-2.7083	-3.0479	-3.2417	-2.9625	-3.3688	-3.2208	-3.0062	-3.3667	-3.0771	-2.9708	-3.4229	-3.0687	-3.2042	-3.2792	-2.9042	-3.4208	27.234	107.152	-32.166	183.068	183.877	157.915	141.591	178.968	-30.097	177.254	-78.877	-13.155	152.787	155.127	181.643	105.287	0.00036853	0.0004098	4.5769e-05	1189.3	2.9333e-06	4.2169e-06	1260.6	254.4	4.6335e-06	4.8588e-06	315.73	88.3	66.765	21.134	3.1017e-06	28.669	0.00083049	0.0013558	0.00037967	1176	1.3103e-05	1.5238e-05	1252	253.11	1.3682e-05	1.4766e-05	315.72	89.138	67.453	21.43	1.3938e-05	29.231	162.440	-76.025	-107.975	-147.462	-69.910	43.083	-147.664	-140.882	-70.926	-30.508	-141.208	-134.742	-133.204	-128.119	-2.769	-128.242	-8191	255	
675.746	1	1	0	0	0.13063	0.30435	0.27551	0.097535	0.24938	0.056332	0.2379	0.20229	0.25716	0.16848	0.13587	0.11887	0.065115	0.14357	0.14834	0.20033	-2.6646	-3.1125	-3.5292	-3.2146	-3.4	-3.3708	-3.0958	-3.4771	-3.1854	-3.1583	-3.4792	-3.05	-3.3354	-3.3042	-2.8271	-3.4625	-10.130	-77.148	190.139	-34.491	-153.647	194.478	141.953	-117.004	44.292	161.236	116.977	-90.939	188.120	112.942	-110.876	-151.945	0.00034594	0.00023258	9.9382e-05	1192.4	2.6831e-06	3.5184e-06	1259.2	255	3.8426e-06	4.4098e-06	314.72	88.484	66.915	21.13	6.4822e-07	28.741	0.00081987	0.0013615	0.00037033	1175.8	1.3241e-05	1.5226e-05	1250.5	253.13	1.39e-05	1.5312e-05	315.43	89.085	67.555	21.427	1.3616e-05	29.239	164.507	-50.074	-9.309	-147.570	-47.369	-23.144	-147.735	-141.007	-61.791	-28.608	-140.896	-134.731	-133.485	-128.206	4.996	-128.185	-8191	255	
675.842	1	1	0	0	0.17219	0.25921	0.13103	0.021369	0.01476	0.22036	0.16364	0.19324	0.26478	0.096597	0.099495	0.18787	0.16259	0.16515	0.26071	0.13565	-2.6917	-2.9479	-3.5604	-3.0646	-3.0938	-3.3833	-3.1437	-3.4062	-3.1583	-2.925	-3.4292	-3.1479	-3.0458	-3.4604	-2.8688	-3.2792	-44.667	-122.690	71.246	191.838	93.984	-94.845	166.610	122.286	-42.240	-73.526	33.022	112.926	13.408	-51.114	184.328	133.925	0.00031726	0.00026697	9.4645e-05	1194.6	2.9601e-06	4.3053e-06	1266.1	256.06	4.6362e-06	4.3276e-06	316.17	88.287	67.333	21.064	4.3204e-06	28.817	0.000823	0.0013673	0.00035709	1178.4	1.3096e-05	1.4749e-05	1254	253.45	1.3264e-05	1.4914e-05	316.22	89.331	67.654	21.513	1.3579e-05	29.395	166.472	-120.239	-81.853	-147.391	-52.207	8.982	-147.798	-140.851	-58.536	37.805	-140.986	-134.802	-133.250	-128.256	-37.382	-128.506	-8191	255	
675.938	1	1	0	0	0.1669	0.12869	0.11702	0.1265	0.11049	0.062283	0.14867	0.1672	0.16001	0.24031	0.076703	0.24638	0.093478	0.066427	0.18672	0.2081	-2.7583	-2.9292	-3.3458	-3.2458	-2.9479	-3.3187	-3.1521	-3.3042	-3.2646	-3.0333	-3.5	-3.2562	-3.2521	-3.3563	-2.8563	-3.2667	184.607	-44.337	52.735	153.193	-58.297	1.704	146.362	-140.822	-14.730	-125.859	182.794	113.653	195.715	8.750	-148.722	31.177	0.0003758	0.000162	0.00013863	1193.9	2.9064e-06	4.2298e-06	1265.7	255.49	3.4127e-06	4.8391e-06	316.93	88.314	67.056	21.093	4.133e-06	28.823	0.00080194	0.001289	0.00036151	1178.9	1.29e-05	1.4741e-05	1253.7	254.06	1.3518e-05	1.4923e-05	316.91	89.158	67.623	21.527	1.3765e-05	29.387	161.744	-94.729	-48.023	-147.510	-37.323	4.001	-147.726	-141.058	-13.041	1.720	-140.934	-134.937	-132.908	-128.422	-6.594	-128.207	-8191	255	
676.034	1	1	0	0	0.18281	0.16444	0.18924	0.18102	0.11393	0.19931	0.093466	0.10056	0.1464	0.18763	0.20014	0.13992	0.078368	0.02849	0.094059	0.090695	-3.0854	-3.0062	-3.2521	-3.1437	-3.0563	-3.4375	-3.2333	-3.2021	-3.3042	-2.9125	-3.2812	-3.1688	-3.0896	-3.3917	-3.0312	-3.3125	62.789	4.262	88.991	166.433	137.901	-101.508	50.947	48.496	-10.526	95.980	196.823	-112.101	-152.960	-88.534	84.375	183.911	0.00036495	0.00034981	0.00013398	1194.4	1.8935e-06	3.604e-06	1264.4	255.65	1.6795e-06	4.6908e-06	316.54	88.696	67.212	21.238	3.7584e-06	28.88	0.00083078	0.0013357	0.0003736	1178.7	1.3393e-05	1.4231e-05	1254.4	253.99	1.3395e-05	1.4429e-05	315.9	89.267	67.863	21.634	1.329e-05	29.429	156.664	-101.036	-89.963	-147.539	-72.967	-5.838	-147.661	-140.877	-64.990	-2.536	-141.123	-134.819	-133.473	-127.850	12.066	-128.553	-8191	255	
676.155	1	1	0	0	0.1764	0.20801	0.037197	0.25288	0.16499	0.017091	0.14436	0.17616	0.051566	0.12189	0.23515	0.15344	0.21182	0.13815	0.0078458	0.17617	-2.975	-2.9042	-3.275	-3.4271	-2.9313	-3.4958	-3.2375	-3.0792	-3.3125	-2.7417	-3.3771	-3.2396	-3.175	-3.4167	-3.0458	-3.1396	-67.987	85.700	175.816	146.214	-25.026	-49.661	-47.538	89.799	133.401	-87.441	158.695	97.270	145.171	-134.196	186.870	75.751	0.00035351	0.00035783	0.00012009	1194.6	2.6081e-06	3.8205e-06	1268.2	255.61	4.5095e-06	2.6531e-06	318.04	89.592	67.372	21.526	3.0194e-06	29.014	0.00080432	0.0012892	0.00036826	1179.8	1.3325e-05	1.48e-05	1256.4	254.35	1.3137e-05	1.4885e-05	317.76	89.74	68.031	21.798	1.3246e-05	29.617	161.776	-65.634	-59.229	-147.564	-60.096	-18.052	-147.916	-141.067	-77.637	-4.007	-140.605	-134.942	-133.635	-128.246	-11.849	-128.601	-8191	255	
676.251	1	1	0	0	0.15094	0.15047	0.11464	0.29168	0.069825	0.12134	0.12882	0.089107	0.11974	0.066989	0.23943	0.13179	0.10156	0.16977	0.10308	0.15907	-2.8354	-2.9396	-3.2542	-3.4646	-2.9667	-3.3438	-3.3083	-3.1188	-3.5187	-2.8917	-3.0396	-3.2812	-3.0167	-3.4354	-3.0458	-2.9104	-93.328	127.715	-30.608	-135.239	-20.852	-84.435	-61.043	-25.968	8.039	24.924	57.220	152.928	143.720	-137.562	72.593	93.347	0.00032616	0.00029519	0.00010407	1197.8	3.5987e-06	2.7145e-06	1267.9	256.47	5.4763e-06	4.5516e-06	316.22	89.329	67.266	21.427	2.6933e-06	28.87	0.00078482	0.0012955	0.00035529	1182.2	1.2673e-05	1.4144e-05	1259	254.85	1.3069e-05	1.4606e-05	316.61	89.89	68.067	21.868	1.3081e-05	29.647	167.669	-72.741	-107.381	-147.383	-58.433	-9.888	-147.662	-140.794	-56.572	-31.848	-140.673	-135.338	-133.291	-128.115	-34.108	-128.513	-8191	255	
676.347	1	1	0	0	0.13159	0.12551	0.022317	0.243	0.11743	0.11056	0.21342	0.25262	0.096606	0.14689	0.28558	0.097167	0.1406	0.13568	0.2265	0.16616	-2.9208	-2.8812	-3.0333	-3.4	-2.9333	-3.2583	-3.4708	-2.8583	-3.2583	-3.1292	-3.05	-3.4021	-2.9646	-3.1208	-3.1979	-2.9542	-118.501	-135.089	-102.654	175.634	171.091	40.274	130.923	101.260	94.160	23.440	72.809	-29.627	153.446	-2.300	51.776	108.294	0.00032286	0.00034048	8.9445e-05	1201.2	3.7325e-06	3.223e-06	1274	255.36	2.253e-06	2.2512e-06	317.15	89.143	67.538	21.596	2.3086e-06	28.891	0.00079469	0.0012841	0.00034388	1182.3	1.2631e-05	1.4442e-05	1260.1	254.87	1.2691e-05	1.4344e-05	317.87	89.871	68.132	21.863	1.3131e-05	29.617	163.478	-96.488	-83.411	-147.638	-71.611	-27.085	-147.916	-140.908	-74.249	11.959	-141.058	-135.033	-133.366	-128.205	13.015	-128.523	-8191	255	
676.443	1	1	0	0	0.23802	0.13226	0.20309	0.2714	0.2155	0.14276	0.13023	0.12928	0.14281	0.095392	0.21762	0.081751	0.18013	0.28571	0.17566	0.12495	-3.0042	-2.925	-2.85	-3.3771	-2.9375	-3.1771	-3.3458	-2.9688	-3.2938	-3.0083	-3.1396	-3.4125	-2.8458	-3.3333	-3.1688	-3.0792	68.733	-23.312	78.065	185.863	163.527	-90.695	145.278	141.240	-118.632	51.041	79.455	-17.105	193.151	111.068	86.040	183.407	0.00032405	0.0003724	7.765e-05	1197.8	1.6932e-06	3.3664e-06	1269.6	254.95	2.2412e-06	2.4217e-06	315.05	88.934	67.384	21.348	3.0276e-06	28.911	0.00080733	0.0012952	0.00035848	1180.9	1.2263e-05	1.4297e-05	1258.4	254.62	1.2769e-05	1.4481e-05	317.38	89.71	68.029	21.772	1.3016e-05	29.616	165.875	-108.774	-64.658	-147.472	32.558	29.216	-147.948	-140.758	-83.325	-25.775	-140.795	-134.992	-133.476	-128.495	20.933	-128.691	-8191	255	
676.538	1	1	0	0	0.33968	0.17302	0.1748	0.26942	0.055012	0.15494	0.084916	0.06728	0.040823	0.024127	0.14061	0.22161	0.12774	0.18016	0.081476	0.19652	-2.9771	-3.1146	-3	-3.4938	-2.9021	-3.1417	-3.4729	-2.9062	-3.4875	-3.1542	-3.1937	-3.4271	-3.0062	-3.1792	-3.2833	-2.9042	186.348	128.175	-65.633	133.567	56.700	-148.031	-134.837	58.095	87.557	-126.105	-14.540	125.525	97.659	199.510	179.126	82.230	0.00034254	0.00048177	9.49e-05	1198.6	3.2679e-06	3.1832e-06	1271.5	255.14	2.4856e-06	3.4045e-06	317.18	88.998	67.951	21.654	4.479e-06	28.786	0.0008084	0.0012649	0.00036182	1182.4	1.2771e-05	1.4244e-05	1260	254.49	1.2743e-05	1.465e-05	317.37	89.915	68.191	21.948	1.3196e-05	29.606	165.471	-88.781	-29.690	-147.356	3.216	-32.946	-147.823	-141.048	-59.318	-33.789	-140.785	-135.149	-133.419	-128.615	12.199	-128.506	-8191	255	
676.634	1	1	0	0	0.14193	0.14271	0.081018	0.30334	0.19276	0.041708	0.010675	0.18221	0.11488	0.12724	0.099609	0.25133	0.045294	0.17527	0.198	0.19675	-2.9125	-3.1375	-2.9292	-3.4979	-3.1146	-3.2	-3.5417	-2.8271	-3.2896	-3.1292	-2.875	-3.5375	-2.9833	-3.1625	-3.25	-2.8354	-109.255	116.145	164.581	147.807	30.050	38.716	-82.105	130.425	-69.701	40.850	44.002	169.026	-64.061	130.908	165.615	139.699	0.00033106	0.00037228	0.00011826	1197.3	1.6074e-06	2.0084e-06	1269.7	257.55	5.4354e-06	3.6405e-06	317.81	89.485	67.611	21.449	2.627e-06	28.991	0.00079686	0.0012433	0.00035468	1183	1.3204e-05	1.3891e-05	1259.1	254.62	1.3171e-05	1.451e-05	317.36	89.807	68.128	21.804	1.3129e-05	29.577	168.958	-68.552	-53.078	-147.518	-26.611	-14.008	-147.785	-141.130	-58.929	-6.532	-140.759	-134.496	-133.555	-128.466	-99.460	-128.227	-8191	255	
676.754	1	1	0	0	0.11287	0.19354	0.1383	0.12716	0.15041	0.22897	0.13202	0.12669	0.29153	0.24842	0.24111	0.24619	0.2228	0.18347	0.1	0.14199	-2.9	-3.2104	-2.8042	-3.4437	-3.0812	-2.9688	-3.5729	-3.0333	-3.2542	-3.3854	-2.8542	-3.3146	-3.4125	-2.8812	-3.4896	-2.9958	49.621	-100.301	197.799	-131.427	68.471	83.551	107.896	134.322	127.405	3.086	192.032	-24.875	167.020	179.698	67.946	-130.884	0.00037362	0.00066311	0.00013517	1199.4	1.6702e-06	3.036e-06	1273.1	254.71	4.4712e-06	1.5791e-06	315.5	89.188	67.52	21.293	1.4543e-06	29.093	0.00081557	0.0013036	0.0003715	1183.1	1.2755e-05	1.4676e-05	1260.7	254.14	1.2873e-05	1.4512e-05	316.95	89.943	68.09	21.743	1.3134e-05	29.682	164.220	-102.756	-83.594	-147.621	-28.957	-16.147	-147.944	-140.856	-75.271	24.166	-140.826	-135.080	-133.496	-128.258	-40.463	-128.036	-8191	255	
676.850	1	1	0	0	0.25628	0.16126	0.30293	0.22906	0.044925	0.090673	0.23265	0.15836	0.30086	0.16689	0.25359	0.12405	0.26163	0.27107	0.15654	0.044927	-2.8292	-3.2958	-2.8458	-3.5146	-3.0896	-2.8896	-3.625	-3.1542	-3.1667	-3.3292	-2.7417	-3.2396	-3.0146	-2.8708	-3.5417	-3.0687	-79.701	-38.564	22.376	173.038	-24.943	162.559	73.577	106.179	145.502	-111.462	131.922	172.688	180.595	135.990	191.776	99.867	0.00036476	0.00019379	0.00012865	1199.8	1.5593e-06	3.1861e-06	1271.2	255.77	1.7409e-06	1.7482e-06	317.12	89.394	67.381	21.518	2.6311e-06	28.922	0.0008002	0.0013032	0.00036402	1184.7	1.2398e-05	1.4591e-05	1260.1	254.39	1.3434e-05	1.4383e-05	317.46	89.874	68.166	21.814	1.2883e-05	29.603	161.824	-60.101	-104.281	-147.499	-93.126	-32.384	-147.921	-141.279	-87.730	11.750	-140.745	-134.927	-133.236	-128.174	-26.212	-128.448	-8191	255	
676.947	1	1	0	0	0.1151	0.24832	0.14618	0.19353	0.17854	0.087087	0.13213	0.052661	0.28541	0.18337	0.029605	0.03251	0.17903	0.17668	0.11397	0.057232	-2.7021	-3.35	-2.6771	-3.4875	-3.2125	-3.0438	-3.4896	-3.0875	-3.1542	-3.4729	-2.9208	-3.3375	-3.3854	-3.0771	-3.3917	-3.0771	47.697	172.029	47.623	147.751	-155.262	-119.668	171.867	104.114	134.806	-10.147	-147.072	-127.243	5.684	130.819	40.340	168.705	0.00035469	0.00042971	4.0902e-05	1201.7	3.9097e-06	6.2914e-06	1270	255.42	5.3865e-06	3.5262e-06	318.32	88.911	67.487	21.523	2.8441e-06	28.86	0.00082683	0.0012717	0.00034896	1184.7	1.2798e-05	1.4763e-05	1258.7	254.06	1.3634e-05	1.4089e-05	317.7	89.673	68.057	21.83	1.2814e-05	29.599	163.910	-51.870	-88.888	-147.604	-22.616	31.340	-147.989	-141.029	-66.659	-12.821	-140.973	-134.930	-133.465	-128.155	-12.378	-128.564	-8191	255	
677.018	1	1	0	0	0.17801	0.063881	0.16035	0.049501	0.15345	0.22036	0.2792	0.33035	0.20765	0.054995	0.14885	0.20193	0.26739	0.16244	0.22895	0.26299	-2.5312	-3.3833	-2.8979	-3.2458	-3.2292	-3.0542	-3.5438	-3.0917	-3.0042	-3.2583	-2.9917	-3.1667	-3.3083	-2.8146	-3.1833	-3.1542	180.695	9.248	45.715	-114.078	-29.073	154.470	120.562	163.911	-78.991	129.850	164.558	153.043	-149.205	-1.190	190.541	-142.912	0.00038933	0.00043626	0.00011812	1198.2	2.8488e-06	2.1948e-06	1269.1	254.86	4.5e-06	5.0976e-06	315.71	89.099	67.011	21.354	7.7147e-07	28.711	0.00082243	0.0012587	0.00035882	1184.1	1.2603e-05	1.3766e-05	1259.3	254.41	1.3116e-05	1.4804e-05	317.39	89.558	67.816	21.766	1.294e-05	29.467	158.793	-70.886	-84.693	-147.428	-54.457	-3.074	-147.802	-140.867	-34.168	25.539	-141.011	-135.258	-133.648	-128.233	26.879	-128.261	-8191	255	
677.139	1	1	0	0	0.13362	0.21807	0.24897	0.024563	0.19581	0.20587	0.38773	0.089732	0.4093	0.17361	0.011628	0.41507	0.28628	0.1538	0.14949	0.096613	-2.5771	-3.3	-2.9437	-3.2729	-3.2875	-2.8896	-3.4562	-3.1229	-2.8333	-3.3917	-3.0229	-3.0458	-3.4333	-2.9604	-3.1417	-3.0833	96.167	-135.627	-106.739	139.316	1.451	-116.481	128.320	47.313	97.805	79.872	-105.258	131.579	-152.819	86.664	-28.743	56.911	0.00035006	0.00037154	0.00016952	1194	2.3217e-06	3.4638e-06	1268.9	255.11	2.5308e-06	1.7833e-06	316.32	89.086	67.125	21.33	2.0256e-06	28.925	0.00080765	0.0012924	0.00036857	1180.8	1.2626e-05	1.4346e-05	1259.8	254.38	1.3352e-05	1.4269e-05	316.85	89.668	67.765	21.715	1.3321e-05	29.503	161.706	-64.095	-118.840	-147.442	-79.752	-7.326	-147.767	-141.023	-74.356	31.790	-141.156	-134.974	-133.756	-128.019	-30.595	-128.221	-8191	255	
677.235	1	1	0	0	0.10686	0.19958	0.21605	0.25331	0.32302	0.20455	0.15727	0.18566	0.089547	0.15638	0.10435	0.028714	0.053334	0.051616	0.035613	0.11588	-2.4833	-3.0854	-3.0271	-3.3125	-3.4583	-2.9583	-3.325	-3.3187	-2.9188	-3.4542	-3.1708	-3.0417	-3.4271	-2.9813	-3.275	-3.3271	32.737	58.085	77.954	168.865	175.065	-124.966	144.415	155.491	35.266	170.259	99.715	151.481	117.157	-37.457	56.102	167.537	0.00034701	0.00032288	0.00017689	1201.3	2.6907e-06	3.9544e-06	1273.8	254.96	4.884e-06	4.544e-06	317.26	88.823	67.35	21.435	2.6032e-06	28.751	0.00080396	0.0012789	0.00036697	1183.7	1.2934e-05	1.4535e-05	1260.4	254.15	1.3046e-05	1.4236e-05	317.24	89.476	67.875	21.764	1.3157e-05	29.546	164.016	-98.466	-87.161	-147.564	-50.993	33.526	-147.736	-140.889	-48.837	22.373	-140.872	-134.898	-133.316	-128.460	-37.249	-128.050	-8191	255	
677.331	1	1	0	0	0.12652	0.15229	0.24404	0.32908	0.10498	0.093963	0.026056	0.18296	0.14531	0.17853	0.24656	0.18849	0.1322	0.14918	0.093583	0.070291	-2.3104	-3.2042	-3.1292	-3.0917	-3.3438	-2.9938	-3.3229	-3.2833	-2.8583	-3.3646	-3.1208	-2.9354	-3.5146	-3.1813	-3.2562	-3.2812	-97.870	-110.361	-19.424	172.639	142.213	4.904	10.997	-136.138	54.735	181.787	158.250	161.234	184.884	86.418	54.033	68.805	0.0003375	0.00044253	7.402e-05	1200.1	3.3196e-06	4.3159e-06	1272.4	254.99	3.7307e-06	4.4858e-06	318.57	88.976	67.404	21.304	2.8531e-06	28.882	0.00081298	0.0012786	0.00037065	1184.7	1.2829e-05	1.4521e-05	1262	254.31	1.3292e-05	1.4416e-05	317.24	89.551	67.883	21.666	1.3617e-05	29.471	157.666	-90.980	-33.294	-147.311	-58.495	-39.754	-147.820	-141.171	-89.079	-27.428	-141.249	-134.898	-133.529	-128.188	-34.305	-128.542	-8191	255	
677.427	1	1	0	0	0.084125	0.037619	0.10966	0.26255	0.018101	0.14215	0.25169	0.10187	0.16387	0.054054	0.23824	0.19243	0.32293	0.15112	0.11499	0.084123	-2.5062	-3.3187	-3.0896	-2.8729	-3.5146	-3.1771	-3.1937	-3.4562	-2.9375	-3.1958	-3.2354	-2.9625	-3.4625	-3.1312	-3.0792	-3.3292	139.351	117.496	147.903	-123.674	62.384	-146.556	118.431	188.051	156.627	-157.520	98.842	-139.405	124.554	-125.601	115.006	-47.547	0.00036212	0.0006473	0.000101	1198.5	3.5803e-06	3.7284e-06	1268.1	255.97	2.6756e-06	4.1526e-06	315.37	88.46	67.175	21.196	3.4661e-06	28.569	0.00080694	0.0013261	0.0003811	1183.4	1.2576e-05	1.5464e-05	1258.3	254.16	1.3612e-05	1.524e-05	316.83	89.211	67.719	21.535	1.3541e-05	29.354	158.115	-37.230	-57.293	-147.594	-36.310	39.440	-147.941	-140.837	-36.731	11.387	-140.854	-134.967	-133.608	-127.998	1.376	-128.375	-8191	255	
677.546	1	1	0	0	0.10485	0.082676	0.10665	0.18062	0.064716	0.03722	0.3318	0.24479	0.12774	0.14054	0.12148	0.21071	0.079482	0.27067	0.18588	0.19468	-2.4271	-3.0771	-3.2917	-2.8521	-3.2479	-3.0542	-3.1625	-3.5521	-3.0354	-3.1896	-3.3458	-2.9375	-3.4104	-3.0375	-2.9625	-3.3125	59.085	109.242	98.128	180.053	97.610	124.405	145.232	159.870	-58.904	-132.425	187.494	-130.916	116.657	108.838	-33.356	184.066	0.0003798	0.00065261	8.9605e-05	1202.2	2.9167e-06	4.3974e-06	1271.2	254.44	1.1583e-06	4.9179e-06	315.67	88.253	66.868	21.043	3.509e-06	28.436	0.00083841	0.0013123	0.00037645	1182.8	1.2985e-05	1.5331e-05	1258.8	253.83	1.3556e-05	1.4918e-05	316.43	88.987	67.439	21.413	1.4293e-05	29.153	160.057	-83.731	-99.695	-147.469	-40.034	12.626	-147.739	-141.010	-38.203	-52.638	-140.815	-134.862	-133.329	-128.007	-47.467	-128.297	-8191	255	
677.642	1	1	0	0	0.066959	0.03674	0.12513	0.12218	0.10885	0.15631	0.052976	0.10962	0.074705	0.098814	0.044372	0.43818	0.16961	0.30905	0.13903	0.35573	-2.5375	-2.9792	-3.2229	-3.1271	-3.3396	-3.1958	-3.1042	-3.2833	-3.1354	-3.2396	-3.3146	-3.0146	-3.4104	-3.1646	-2.8688	-3.2438	-3.748	7.989	7.694	115.935	-25.419	-148.407	102.845	-134.038	58.697	5.712	68.390	178.280	-144.282	-143.001	-53.540	158.314	0.00035397	0.00063309	0.00012715	1201.8	2.7536e-06	3.4053e-06	1266.9	253.62	2.2257e-06	1.9355e-06	314.1	87.614	66.58	20.632	2.8734e-06	28.059	0.00084978	0.0013446	0.00038848	1183.3	1.4045e-05	1.626e-05	1255.9	252.9	1.511e-05	1.6634e-05	315.21	88.266	67.022	21.005	1.6381e-05	28.772	165.209	-79.148	-48.672	-147.355	-37.305	6.196	-147.723	-140.897	-39.014	13.054	-140.548	-135.071	-133.403	-127.940	-31.418	-128.192	-8191	255	
677.716	1	1	0	0	0.19597	0.095218	0.19737	0.22456	0.1709	0.11999	0.1726	0.18324	0.23034	0.299	0.15368	0.15451	0.083905	0.09477	0.19909	0.0968	-2.5854	-3.0146	-3.4188	-2.925	-3.2958	-3.1354	-2.9938	-3.3875	-2.9062	-3.0229	-3.5104	-3.0979	-3.1875	-3.2875	-2.8625	-3.3042	-54.142	71.792	122.928	136.569	69.699	32.724	-119.972	-137.324	50.335	57.422	-70.341	57.855	-89.460	30.890	-135.728	84.294	0.00033444	0.00065835	8.1202e-05	1195.7	2.7333e-06	1.3182e-06	1257.9	251.64	5.1054e-06	4.5515e-06	312	86.814	65.458	20.18	3.9672e-06	27.589	0.00095964	0.0016758	0.00046649	1179.4	1.6565e-05	1.9273e-05	1250.9	251.29	1.7393e-05	2.0126e-05	313.41	87.295	66.227	20.626	1.8749e-05	28.457	159.105	-83.093	-111.755	-147.515	-30.953	-2.378	-147.944	-141.037	-113.101	-9.795	-140.576	-134.961	-133.329	-127.724	-3.854	-127.788	-8191	255	
677.835	1	1	0	0	0.23041	0.14367	0.19792	0.20946	0.22721	0.16804	0.13706	0.29284	0.10445	0.20175	0.051752	0.088865	0.28516	0.28645	0.25561	0.085285	-2.6146	-3.1104	-3.2938	-3.1063	-3.2167	-3.25	-2.9833	-3.3646	-3.1479	-2.8604	-3.4271	-3.0958	-3.125	-3.3396	-2.8771	-3.2917	-30.684	27.463	198.243	148.155	-126.724	-6.204	182.863	175.629	-40.969	-116.898	-113.470	-155.500	-98.950	82.516	-9.440	-74.279	0.0003538	0.00036172	5.3544e-05	1201.2	2.1482e-06	1.6144e-06	1267.2	251.88	4.4057e-06	3.0026e-07	312.41	86.269	65.456	20.01	3.243e-06	27.57	0.0010803	0.0018384	0.00051034	1183.9	1.8457e-05	2.1323e-05	1254.9	251.52	1.9715e-05	2.2067e-05	313.64	87.038	66	20.489	1.9608e-05	28.434	158.670	-34.297	-38.862	-147.495	-32.596	-31.160	-147.955	-141.160	-33.127	179.988	-140.778	-135.140	-133.621	-127.716	-35.783	-128.301	-8191	255	
677.931	1	1	0	0	0.15469	0.26196	0.09704	0.37972	0.18964	0.29574	0.06994	0.11666	0.070919	0.25695	0.11942	0.012032	0.21208	0.10593	0.1149	0.25781	-2.8	-2.8187	-3.2771	-3.2687	-3.1188	-3.3646	-3.0479	-3.4083	-3.2021	-2.9625	-3.3917	-3.1375	-3.0604	-3.3271	-3.1562	-3.1292	113.045	-31.561	10.393	135.803	16.899	51.099	-70.765	-151.696	187.455	-124.026	100.018	-119.954	166.311	29.702	105.797	68.765	0.00032821	0.00043279	5.2785e-05	1201.8	2.9151e-06	3.8399e-06	1266.2	251.61	2.3441e-06	1.4427e-06	311.09	85.9	65.229	20.152	4.4863e-06	27.506	0.0010972	0.0018989	0.00050973	1185	1.8037e-05	2.1309e-05	1255.8	251.08	1.8932e-05	2.1254e-05	312.75	86.892	65.982	20.481	1.8735e-05	28.346	165.931	-31.615	-22.489	-147.469	-89.766	-45.483	-147.653	-140.985	-61.479	-25.895	-140.791	-134.849	-133.310	-127.481	2.300	-127.801	-8191	255	
678.027	1	1	0	0	0.16696	0.13778	0.12888	0.26381	0.070728	0.13643	0.21592	0.13925	0.057768	0.14899	0.094168	0.2185	0.13667	0.040684	0.24769	0.30557	-2.8354	-2.9271	-3.0938	-3.2562	-2.9021	-3.4708	-3.1208	-3.1583	-3.2812	-2.7792	-3.3979	-3.0854	-2.9208	-3.3667	-2.8792	-3.2917	56.418	-68.732	128.028	158.579	146.069	-72.347	-155.850	172.548	-64.472	-95.606	159.881	118.176	102.596	32.449	-99.144	158.248	0.00030595	6.1848e-05	0.00014079	1205	2.9099e-06	2.8732e-06	1265.4	251.99	3.0959e-06	5.0906e-06	311.84	85.824	65.266	19.966	1.183e-06	27.478	0.0011038	0.0018822	0.00051844	1186.7	1.7976e-05	2.0927e-05	1254.4	251.21	1.8709e-05	2.1174e-05	312.98	86.682	65.924	20.399	1.8628e-05	28.318	165.224	135.030	-75.219	-147.445	-46.440	-23.268	-147.860	-140.772	-29.145	5.429	-140.873	-135.118	-133.268	-127.731	-3.077	-127.809	-8191	255	
678.123	1	1	0	0	0.1291	0.15416	0.086736	0.077655	0.27986	0.4233	0.16716	0.13892	0.20853	0.12227	0.054386	0.1274	0.26325	0.0072128	0.10592	0.095825	-2.8583	-2.7	-3.1542	-3.0271	-3.0458	-3.4042	-3.2521	-3.1188	-3.5375	-3.0042	-3.3979	-3.1271	-2.9521	-3.525	-3.0938	-3.0563	-45.580	171.532	51.492	-102.037	-96.314	-135.546	73.562	52.352	-108.399	111.028	70.765	97.451	121.554	128.743	96.533	186.053	0.00029336	0.00033971	0.0001239	1195.8	4.8335e-06	2.1387e-06	1259.2	253	2.0706e-06	5.9994e-06	312.06	85.558	64.916	19.93	2.932e-06	27.593	0.0010556	0.0018251	0.0005045	1184	1.771e-05	2.0094e-05	1251.9	251.08	1.8076e-05	1.9854e-05	312.98	86.548	65.789	20.367	1.8198e-05	28.268	173.262	-57.018	-59.499	-147.596	-59.734	-29.577	-147.880	-140.673	9.501	6.094	-140.555	-134.964	-133.235	-127.472	32.296	-127.873	-8191	255	
678.244	1	1	0	0	0.05374	0.22253	0.060388	0.10661	0.13376	0.13707	0.12702	0.18546	0.082202	0.13819	0.046692	0.20718	0.10239	0.18209	0.15293	0.18781	-2.8708	-2.9271	-3.1917	-3.3146	-2.9479	-3.6021	-3.1104	-3.1333	-3.3771	-3.0792	-3.3271	-3.3958	-2.9229	-3.4021	-3.0833	-3.0083	7.545	-118.514	-128.801	-97.910	-36.559	-76.573	121.620	143.302	-85.569	-97.341	-153.514	117.528	-4.776	-120.214	110.039	-41.281	0.00025677	0.00049495	0.00012886	1194.5	2.1096e-06	3.0646e-06	1257.9	249.65	4.6327e-06	3.3211e-06	312.82	85.074	64.594	19.967	3.0213e-06	27.394	0.0010308	0.0017683	0.00048853	1181	1.7106e-05	1.9109e-05	1248.8	250.03	1.6611e-05	1.8571e-05	312.09	86.276	65.608	20.32	1.7091e-05	28.14	162.138	-54.954	-87.880	-147.539	-55.892	146.116	-147.782	-140.654	-60.119	-27.389	-140.786	-134.955	-133.174	-127.469	-15.175	-127.878	-8191	255	
678.315	1	1	0	0	0.037229	0.3546	0.18455	0.2313	0.12194	0.26215	0.30672	0.11622	0.076346	0.30716	0.025034	0.093241	0.04266	0.10746	0.06351	0.16631	-3.1792	-3.0167	-3.2646	-3.6479	-2.7521	-3.4333	-3.2167	-3.0271	-3.4354	-2.9125	-3.2083	-3.4792	-3.0646	-3.3729	-3.1229	-3.1	45.367	46.075	21.458	-139.889	162.448	-43.045	163.990	111.866	55.349	-35.390	-54.713	16.100	27.702	101.204	-89.997	112.055	0.00032828	0.00025794	0.00011096	1191.4	2.6204e-06	3.7893e-06	1254.2	250.18	2.672e-06	3.3431e-06	310.27	85.38	64.535	20.018	4.0828e-06	27.51	0.00096941	0.0016338	0.00046615	1174.2	1.5855e-05	1.8194e-05	1243.7	248.81	1.6237e-05	1.8143e-05	311.22	86.176	65.457	20.32	1.6424e-05	28.124	164.691	-84.036	-56.605	-147.621	-54.555	-16.395	-147.843	-140.937	-54.677	19.490	-140.829	-134.960	-133.326	-127.223	-37.231	-127.898	-8191	255	
678.436	1	1	0	0	0.31231	0.18382	0.13631	0.36357	0.24911	0.12788	0.19852	0.23623	0.22061	0.3416	0.28473	0.14457	0.095367	0.18504	0.30566	0.27029	-3.05	-3.0979	-3.0812	-3.3625	-2.8333	-3.5042	-3.2875	-3.0167	-3.3646	-2.9792	-3.3125	-3.4333	-2.9062	-3.0958	-3.1708	-2.8125	98.087	-13.635	90.643	162.732	189.226	-78.484	117.978	5.261	-129.440	-20.633	170.042	147.189	102.844	-18.573	68.826	191.634	0.00032806	0.0002819	9.3374e-05	1186	3.618e-06	7.724e-07	1251.5	249.06	8.0214e-07	8.204e-07	308.27	85.557	64.753	19.982	3.6338e-06	27.457	0.00094785	0.0016246	0.00046156	1171.6	1.5646e-05	1.759e-05	1240.8	247.96	1.611e-05	1.8406e-05	309.81	86.313	65.388	20.29	1.6444e-05	28.144	161.139	-55.193	-52.797	-147.514	-55.769	3.340	-147.866	-140.692	36.396	-28.521	-140.736	-134.993	-133.379	-127.177	4.242	-127.762	-8191	255	
#DATA ENDS
