BOXY.EXE: ISS Imagent and Oximeter Data Acquisition Program Version 0.80
Ascii Record File

#ACQ INFORMATION
2  Detector Channels 
16  External MUX Channels 
1  Auxiliary Channels 
5000  Waveform (CCF) Frequency (Hz)
1  Waveforms Skipped 
30  Waveforms Averaged 
1  Cycles Averaged 
16  Acquisitions per Waveform 
10.0806  Updata Rate (Hz) 

#FILE INFORMATION
TRUE -- External MUX Channel results are PARSED.
FALSE -- AC DC and Phase are NOT grouped.
TRUE -- Companion Program Settings File CREATED.
FALSE -- AC data not excluded
FALSE -- DC data not excluded
FALSE -- Phase data not excluded
FALSE -- Auxillary Chn. data not excluded
Tab delimiters

#CALIBRATION STATE
TRUE -- Waveform Calibration Values APPLIED.


#AUX CALIBRATION VALUES
Val Type	aux-1	

Term	1.0000e+00	
Factor	0.0000e+00	


#WF CALIBRATION VALUES
A = Detector Channel
Val Type	A-AC1	A-AC2	A-AC3	A-AC4	A-AC5	A-AC6	A-AC7	A-AC8	A-AC9	A-AC10	A-AC11	A-AC12	A-AC13	A-AC14	A-AC15	A-AC16	A-DC1	A-DC2	A-DC3	A-DC4	A-DC5	A-DC6	A-DC7	A-DC8	A-DC9	A-DC10	A-DC11	A-DC12	A-DC13	A-DC14	A-DC15	A-DC16	A-Ph1	A-Ph2	A-Ph3	A-Ph4	A-Ph5	A-Ph6	A-Ph7	A-Ph8	A-Ph9	A-Ph10	A-Ph11	A-Ph12	A-Ph13	A-Ph14	A-Ph15	A-Ph16	

Term	0.00000e+00	0.00000e+00	0.00000e+00	0.00000e+00	0.00000e+00	0.00000e+00	0.00000e+00	0.00000e+00	0.00000e+00	0.00000e+00	0.00000e+00	0.00000e+00	0.00000e+00	0.00000e+00	0.00000e+00	0.00000e+00	0.00000e+00	0.00000e+00	0.00000e+00	0.00000e+00	0.00000e+00	0.00000e+00	0.00000e+00	0.00000e+00	0.00000e+00	0.00000e+00	0.00000e+00	0.00000e+00	0.00000e+00	0.00000e+00	0.00000e+00	0.00000e+00	0.00000e+00	0.00000e+00	0.00000e+00	0.00000e+00	0.00000e+00	0.00000e+00	0.00000e+00	0.00000e+00	0.00000e+00	0.00000e+00	0.00000e+00	0.00000e+00	0.00000e+00	0.00000e+00	0.00000e+00	0.00000e+00	
Factor	1.00000e+00	1.00000e+00	1.00000e+00	1.00000e+00	1.00000e+00	1.00000e+00	1.00000e+00	1.00000e+00	1.00000e+00	1.00000e+00	1.00000e+00	1.00000e+00	1.00000e+00	1.00000e+00	1.00000e+00	1.00000e+00	1.00000e+00	1.00000e+00	1.00000e+00	1.00000e+00	1.00000e+00	1.00000e+00	1.00000e+00	1.00000e+00	1.00000e+00	1.00000e+00	1.00000e+00	1.00000e+00	1.00000e+00	1.00000e+00	1.00000e+00	1.00000e+00	X	X	X	X	X	X	X	X	X	X	X	X	X	X	X	X	

B = Detector Channel
Val Type	B-AC1	B-AC2	B-AC3	B-AC4	B-AC5	B-AC6	B-AC7	B-AC8	B-AC9	B-AC10	B-AC11	B-AC12	B-AC13	B-AC14	B-AC15	B-AC16	B-DC1	B-DC2	B-DC3	B-DC4	B-DC5	B-DC6	B-DC7	B-DC8	B-DC9	B-DC10	B-DC11	B-DC12	B-DC13	B-DC14	B-DC15	B-DC16	B-Ph1	B-Ph2	B-Ph3	B-Ph4	B-Ph5	B-Ph6	B-Ph7	B-Ph8	B-Ph9	B-Ph10	B-Ph11	B-Ph12	B-Ph13	B-Ph14	B-Ph15	B-Ph16	

Term	0.00000e+00	0.00000e+00	0.00000e+00	0.00000e+00	0.00000e+00	0.00000e+00	0.00000e+00	0.00000e+00	0.00000e+00	0.00000e+00	0.00000e+00	0.00000e+00	0.00000e+00	0.00000e+00	0.00000e+00	0.00000e+00	0.00000e+00	0.00000e+00	0.00000e+00	0.00000e+00	0.00000e+00	0.00000e+00	0.00000e+00	0.00000e+00	0.00000e+00	0.00000e+00	0.00000e+00	0.00000e+00	0.00000e+00	0.00000e+00	0.00000e+00	0.00000e+00	-1.66874e+02	-1.31149e+02	-1.23274e+02	-1.81197e+02	-8.08868e+01	-6.69930e+01	-1.55623e+02	-1.62015e+02	-8.55906e+01	-6.15622e+01	-1.70159e+02	-1.69445e+02	-1.78137e+02	-1.75061e+02	-7.32031e+01	-1.48439e+02	
Factor	2.75494e-05	1.84498e-04	5.05242e-05	1.55230e-01	1.47176e-06	1.96328e-06	1.79019e-01	6.63743e-02	1.70374e-06	1.96810e-06	1.39122e-01	2.85069e-02	2.34487e-02	9.27554e-03	1.78204e-06	1.36717e-02	1.70489e-05	3.44555e-05	9.70341e-06	7.75244e-02	3.20128e-07	3.90521e-07	8.40011e-02	3.32531e-02	3.36799e-07	3.92224e-07	6.72449e-02	1.38968e-02	1.19525e-02	4.70239e-03	3.47354e-07	6.70891e-03	X	X	X	X	X	X	X	X	X	X	X	X	X	X	X	X	



#DISTANCE SETTINGS
A = Detector Channel
A-1	A-2	A-3	A-4	A-5	A-6	A-7	A-8	A-9	A-10	A-11	A-12	A-13	A-14	A-15	A-16	

2.5000e+00	3.0000e+00	2.5000e+00	3.0000e+00	2.0000e+00	3.0000e+00	1.5000e+00	3.0000e+00	3.0000e+00	3.0000e+00	3.0000e+00	3.0000e+00	3.0000e+00	3.0000e+00	1.5000e+00	3.0000e+00	

B = Detector Channel
B-1	B-2	B-3	B-4	B-5	B-6	B-7	B-8	B-9	B-10	B-11	B-12	B-13	B-14	B-15	B-16	

1.0000e+01	1.0000e+01	1.0000e+01	1.4400e+00	1.0000e+01	1.0000e+01	1.5100e+00	1.9400e+00	1.0000e+01	1.0000e+01	1.9900e+00	2.4900e+00	2.4100e+00	2.9000e+00	1.0000e+01	2.9800e+00	




#DATA BEGINS
time	group	step	mark	flag	A-AC1	A-AC2	A-AC3	A-AC4	A-AC5	A-AC6	A-AC7	A-AC8	A-AC9	A-AC10	A-AC11	A-AC12	A-AC13	A-AC14	A-AC15	A-AC16	A-DC1	A-DC2	A-DC3	A-DC4	A-DC5	A-DC6	A-DC7	A-DC8	A-DC9	A-DC10	A-DC11	A-DC12	A-DC13	A-DC14	A-DC15	A-DC16	A-Ph1	A-Ph2	A-Ph3	A-Ph4	A-Ph5	A-Ph6	A-Ph7	A-Ph8	A-Ph9	A-Ph10	A-Ph11	A-Ph12	A-Ph13	A-Ph14	A-Ph15	A-Ph16	B-AC1	B-AC2	B-AC3	B-AC4	B-AC5	B-AC6	B-AC7	B-AC8	B-AC9	B-AC10	B-AC11	B-AC12	B-AC13	B-AC14	B-AC15	B-AC16	B-DC1	B-DC2	B-DC3	B-DC4	B-DC5	B-DC6	B-DC7	B-DC8	B-DC9	B-DC10	B-DC11	B-DC12	B-DC13	B-DC14	B-DC15	B-DC16	B-Ph1	B-Ph2	B-Ph3	B-Ph4	B-Ph5	B-Ph6	B-Ph7	B-Ph8	B-Ph9	B-Ph10	B-Ph11	B-Ph12	B-Ph13	B-Ph14	B-Ph15	B-Ph16	aux-1	digaux	

626.025	1	1	0	256	0.14469	0.12475	0.16791	0.08094	0.31298	0.17159	0.34229	0.18996	0.20049	0.2701	0.36533	0.14706	0.062785	0.17597	0.36665	0.23226	-3.1188	-2.9313	-3.3125	-3.4688	-2.9167	-3.4083	-3.3521	-3.0563	-3.375	-3.0375	-3.1437	-3.3396	-2.7458	-3.3625	-3.2708	-3.1333	-70.861	19.756	15.117	154.989	-102.342	-97.837	148.721	120.878	-132.077	10.317	-89.521	164.785	-60.178	157.126	26.540	-22.816	0.00040189	0.00034074	9.8378e-05	1263.6	3.9906e-06	4.5027e-06	1324.9	267.9	4.9852e-06	5.0546e-06	329.31	92.084	73.45	21.786	3.9177e-06	29.622	0.0011685	0.0020037	0.0005552	1246.7	1.9344e-05	2.179e-05	1315	267.11	1.8947e-05	2.185e-05	331.45	92.873	74.172	22.164	1.9243e-05	30.377	161.771	-43.645	-36.548	-148.266	-89.250	-15.376	-148.248	-141.563	-64.000	10.809	-141.685	-135.371	-135.450	-128.720	14.696	-128.650	-8191	255	
626.144	1	1	0	0	0.22052	0.10997	0.40966	0.083443	0.072491	0.1389	0.088205	0.094446	0.20968	0.035012	0.11989	0.26523	0.21907	0.14172	0.17601	0.18103	-3.0812	-3.1104	-3.1333	-3.4417	-2.8104	-3.25	-3.4917	-3.0479	-3.3708	-3.2042	-3.2188	-3.5062	-3.1208	-3.2687	-3.1333	-3.1333	-127.379	24.552	146.375	-150.415	-107.819	-133.092	43.527	-94.820	102.302	-67.143	-116.196	181.857	-138.095	181.673	137.117	158.415	0.00035973	0.00082033	0.00010139	1258.1	3.7915e-06	5.4065e-06	1325.2	268.03	1.9564e-06	1.7985e-06	330.05	92.317	73.367	21.826	2.2651e-06	29.617	0.0010933	0.0018498	0.00052309	1241.4	1.8356e-05	2.0918e-05	1311.9	267.14	1.8949e-05	2.1737e-05	331.38	93.043	73.936	22.271	1.9746e-05	30.422	162.764	-76.179	-46.217	-147.995	-12.046	-21.951	-148.386	-141.661	-21.829	56.160	-141.746	-135.898	-135.401	-128.296	-53.598	-128.460	-8191	255	
626.216	1	1	0	0	0.17147	0.072342	0.33118	0.24199	0.23312	0.055532	0.02031	0.10604	0.10459	0.12777	0.14537	0.30162	0.12657	0.17954	0.11314	0.12902	-3.0875	-3.0687	-2.9708	-3.4854	-2.9437	-3.0354	-3.4417	-2.9833	-3.4458	-3.1688	-3.1646	-3.4896	-2.9792	-3.2979	-3.4271	-2.8	149.442	120.869	185.221	144.349	101.270	87.970	-136.816	147.325	-21.094	-48.148	-150.821	119.819	-120.570	149.748	-141.043	158.142	0.00033254	0.00032192	7.0397e-05	1261.9	2.4523e-06	4.3199e-06	1328.9	268.96	4.1686e-06	2.4919e-06	329.89	92.18	72.551	21.956	4.8279e-06	29.717	0.001135	0.0019283	0.00055491	1245	1.913e-05	2.2391e-05	1315.8	268.28	1.9458e-05	2.2198e-05	332.05	93.348	73.795	22.415	2.0499e-05	30.534	163.532	-47.314	-48.633	-148.047	-47.702	12.497	-148.262	-141.499	-38.191	-16.369	-141.330	-135.886	-135.063	-128.306	-27.344	-129.076	-8191	255	
626.312	1	1	0	0	0.0705	0.20224	0.18793	0.27719	0.028492	0.025458	0.17388	0.29165	0.1693	0.13169	0.28824	0.17375	0.16835	0.1861	0.15817	0.29262	-2.9417	-3.1063	-2.8479	-3.6125	-3.025	-3.1729	-3.4604	-2.8771	-3.3354	-3.3646	-3.1854	-3.5208	-3.1604	-3.0375	-3.4604	-3.0083	-81.076	184.776	113.113	168.158	132.329	-36.680	107.036	68.497	-33.628	60.873	168.164	-106.594	160.697	-45.791	-100.347	-131.643	0.0003452	0.00041664	6.4035e-05	1262.4	3.5702e-06	1.4073e-06	1332.5	269.96	4.7869e-06	1.806e-06	333.63	93.009	73.344	22.092	2.9756e-06	30.01	0.0011638	0.0019963	0.00056805	1250.2	2.0096e-05	2.2705e-05	1324.3	269.79	2.0524e-05	2.3564e-05	335.05	93.828	74.116	22.573	2.1373e-05	30.84	160.998	-92.332	32.661	-148.361	-83.181	27.584	-148.387	-141.556	-98.392	31.132	-141.520	-135.898	-135.045	-128.440	-63.389	-128.826	-8191	255	
626.433	1	1	0	0	0.19668	0.16887	0.051031	0.24917	0.12295	0.20346	0.11785	0.13389	0.14121	0.19437	0.11697	0.16728	0.15648	0.17722	0.11385	0.36081	-2.9917	-3.1354	-2.8354	-3.5042	-3.1437	-3.0271	-3.5458	-2.975	-3.3187	-3.1729	-3.0125	-3.5104	-3.0312	-3.1312	-3.5771	-2.8521	-69.481	103.734	51.150	159.810	-111.225	-126.611	86.955	77.298	-39.572	33.562	148.370	78.073	-143.376	161.626	141.380	-105.903	0.00038624	0.00037516	6.9539e-05	1278.7	4.3872e-06	3.838e-06	1343.9	270.74	4.5936e-06	4.4606e-06	334.99	93.083	73.434	22.256	3.9956e-06	30.195	0.0011834	0.0021469	0.00058768	1261.6	2.009e-05	2.3366e-05	1330.4	270.43	2.0033e-05	2.3051e-05	335.62	94.201	74.153	22.764	2.1345e-05	30.972	172.761	-97.966	-98.937	-148.509	-59.435	-21.462	-148.586	-141.920	-42.245	-18.653	-141.694	-135.743	-135.073	-128.649	-19.394	-129.194	-8191	255	
626.529	1	1	0	0	0.29803	0.040149	0.16671	0.10693	0.11368	0.10579	0.10408	0.089168	0.10886	0.13624	0.067082	0.12608	0.081788	0.37811	0.36009	0.018342	-2.6188	-3.2438	-2.9313	-3.7417	-3.1333	-3.0938	-3.7292	-2.9938	-3.1375	-3.3292	-2.9313	-3.4292	-3.2	-3.0375	-3.4521	-3.0354	40.046	-64.060	73.195	197.203	-80.284	4.967	-100.656	176.279	128.723	88.973	-146.564	143.243	-55.727	-122.268	119.310	-133.533	0.00038424	0.00026589	8.7267e-05	1280.2	3.6058e-06	1.7694e-06	1346.7	272.78	3.6536e-06	3.0007e-06	336.38	93.891	74.043	22.492	3.5316e-06	30.065	0.00123	0.0021225	0.00060701	1266.8	2.114e-05	2.4348e-05	1337	272.34	2.1718e-05	2.4107e-05	338.16	95.025	74.795	23.037	2.2551e-05	31.15	165.431	-42.346	-37.847	-148.135	-74.227	-69.852	-148.603	-141.940	-53.197	11.905	-141.481	-135.835	-135.043	-129.029	-15.863	-129.124	-8191	255	
626.625	1	1	0	0	0.030135	0.1848	0.13342	0.1908	0.17281	0.12423	0.26174	0.20615	0.29141	0.058267	0.083702	0.25117	0.35149	0.21766	0.13686	0.18643	-2.7667	-3.2812	-2.9667	-3.4646	-3.1896	-3.125	-3.5333	-3.1729	-2.9813	-3.2521	-3	-3.3833	-3.1792	-2.9354	-3.3604	-3.3521	173.451	152.031	33.510	103.184	-99.603	40.886	116.569	184.684	-94.927	-126.066	33.704	-148.010	177.333	-132.911	59.330	104.068	0.00034264	0.00033255	6.9855e-05	1278.7	3.7583e-06	4.1194e-06	1347.4	273.04	3.5916e-06	4.1925e-06	335.55	93.68	73.887	22.599	3.2357e-06	30.406	0.0012706	0.0021436	0.00059603	1267.2	2.0431e-05	2.333e-05	1335.7	271.86	1.9509e-05	2.1735e-05	336.15	94.968	74.649	22.989	1.7689e-05	31.168	170.887	-114.065	-70.273	-148.087	-64.053	1.118	-148.300	-142.072	-71.051	-27.143	-141.306	-135.820	-134.796	-128.955	-0.069	-128.787	-8191	255	
626.746	1	1	0	0	0.12248	0.1749	0.27471	0.27504	0.036053	0.24034	0.09361	0.12066	0.30968	0.11183	0.12071	0.15709	0.14536	0.14248	0.20922	0.1462	-2.7125	-3.3771	-3.0229	-3.4646	-3.2438	-3.0646	-3.7896	-3.2687	-3.0833	-3.4688	-3.0583	-3.4542	-3.4167	-2.8812	-3.3646	-3.2229	33.524	185.191	34.221	73.844	-119.793	27.340	24.256	159.831	-148.093	37.550	141.955	191.381	-81.823	-115.084	116.708	191.688	0.0004035	0.00033291	7.0067e-05	1280.3	4.5134e-06	4.6943e-06	1347.8	273.39	3.3477e-06	1.0441e-06	336.4	94.617	74.277	22.613	2.3792e-06	30.499	0.0010164	0.0016483	0.00046554	1266.4	1.6368e-05	1.8592e-05	1337.2	272.01	1.6405e-05	1.8428e-05	336.29	95.234	74.62	22.998	1.6308e-05	31.069	170.088	-63.365	-70.030	-148.120	-10.904	-52.466	-148.642	-141.785	-60.225	120.526	-141.359	-136.000	-134.999	-128.957	-6.265	-129.128	-8191	255	
626.842	1	1	0	0	0.10495	0.092705	0.11338	0.24031	0.28826	0.14793	0.21622	0.36665	0.26964	0.13117	0.13473	0.37538	0.25256	0.13625	0.20796	0.1795	-2.6604	-3.3792	-3.0875	-3.4562	-3.4521	-3.1	-3.4354	-3.2062	-3.1167	-3.4583	-3.2062	-3.3021	-3.3896	-2.9875	-3.3083	-3.2854	4.710	44.994	112.879	-149.157	-99.788	-111.215	151.299	146.875	157.766	-159.487	17.725	-120.628	127.711	124.549	-141.777	126.499	0.00036903	0.00049047	2.2149e-05	1279.1	1.4468e-06	5.093e-06	1340.3	272.72	2.5262e-06	3.431e-06	333.2	93.302	73.386	22.274	5.1444e-06	29.965	0.00095626	0.0015145	0.00044185	1260.5	1.5187e-05	1.7126e-05	1328.8	270.55	1.5563e-05	1.7175e-05	333.87	94.16	73.82	22.626	1.5611e-05	30.711	163.562	-46.333	-128.518	-148.195	-121.715	-2.437	-148.395	-141.749	-50.757	9.650	-141.787	-135.646	-134.995	-128.482	-50.607	-128.765	-8191	255	
626.914	1	1	0	0	0.24909	0.081689	0.099764	0.079248	0.089836	0.18204	0.12097	0.12083	0.14781	0.18116	0.18508	0.056204	0.19043	0.39656	0.058311	0.18399	-2.4792	-3.3937	-3.0062	-3.2167	-3.4125	-3.0229	-3.6458	-3.1396	-2.9188	-3.2896	-3.175	-3.0854	-3.5062	-2.9771	-3.2375	-3.3875	37.890	31.144	164.790	160.560	86.255	167.471	51.971	167.111	-13.194	-25.010	199.412	0.561	-153.667	-113.041	5.907	-78.891	0.00035211	0.00022697	7.9709e-05	1273.5	3.8675e-06	4.3455e-06	1342	269.85	3.3302e-06	4.6468e-06	330.58	93.201	72.708	22.195	3.1491e-06	29.784	0.00095463	0.0014955	0.00042228	1256	1.4803e-05	1.6229e-05	1327.4	269.1	1.5081e-05	1.6504e-05	332.65	93.833	73.436	22.498	1.529e-05	30.518	165.457	-49.167	-51.338	-148.057	-10.308	-35.005	-148.464	-141.978	-83.076	33.758	-141.527	-135.648	-134.768	-128.706	11.780	-129.336	-8191	255	
627.032	1	1	0	0	0.23059	0.088323	0.082267	0.27759	0.084925	0.15741	0.1497	0.15877	0.04296	0.095407	0.12279	0.069525	0.16427	0.094933	0.13188	0.095459	-2.6375	-3.3917	-3.0833	-3.1771	-3.525	-3.0833	-3.3354	-3.3771	-2.9375	-3.5	-3.1979	-3.0812	-3.4104	-3.0833	-3.2812	-3.4354	-62.729	45.377	-100.440	134.167	-104.449	-41.316	128.454	157.143	11.498	25.146	58.685	117.071	161.450	-127.610	145.541	-12.560	0.00035405	0.00020844	9.3771e-05	1269.6	4.184e-06	2.7715e-06	1334.1	269.8	3.5354e-06	8.6502e-07	333.89	92.823	72.05	21.804	2.3778e-06	29.777	0.00090494	0.0014766	0.00041045	1254.1	1.4525e-05	1.6714e-05	1323.6	268.42	1.5113e-05	1.6825e-05	332.55	93.118	72.958	22.268	1.5047e-05	30.374	169.674	-18.621	-77.866	-148.214	-34.962	-3.158	-148.550	-141.564	-106.540	90.569	-141.296	-135.607	-134.870	-128.178	-23.324	-128.624	-8191	255	
627.129	1	1	0	0	0.13949	0.18572	0.10203	0.13421	0.17145	0.27955	0.13298	0.30623	0.18128	0.054269	0.18021	0.35644	0.27542	0.21235	0.11007	0.33634	-2.5604	-3.3958	-3.2188	-2.9583	-3.4083	-3.1458	-3.1917	-3.3875	-2.9833	-3.3604	-3.2021	-3.2062	-3.6667	-3.0396	-3.0417	-3.55	9.322	132.466	87.787	197.243	-95.375	-131.015	139.927	182.901	-80.723	41.737	-159.246	-152.810	-148.666	-129.004	-98.033	125.249	0.00037889	0.00026882	0.00012835	1273.2	2.7609e-06	2.0529e-06	1331.1	269.19	3.9857e-06	6.2828e-07	330.05	92.163	72.323	21.667	4.1271e-06	29.569	0.00092977	0.0014596	0.00041868	1254	1.4783e-05	1.7444e-05	1321.9	267.99	1.6036e-05	1.7726e-05	331.61	92.826	72.622	22.133	1.6687e-05	30.282	160.662	-51.706	-57.522	-148.038	-101.901	-16.475	-148.278	-141.318	-40.522	102.505	-141.647	-135.726	-134.651	-128.301	-48.687	-128.903	-8191	255	
627.225	1	1	0	0	0.16928	0.17405	0.075388	0.35398	0.10441	0.25861	0.2484	0.29023	0.27722	0.13475	0.3437	0.15128	0.16417	0.17345	0.03854	0.1242	-2.5312	-3.3667	-3.3417	-3.1937	-3.3479	-3.1792	-3.4771	-3.6396	-3.0187	-3.4292	-3.4833	-3.1333	-3.3667	-3.1875	-3.2375	-3.5167	-49.805	-125.681	7.101	151.462	105.491	100.138	176.236	121.528	115.941	54.020	199.914	-128.575	-148.312	95.657	-148.637	-83.321	0.00032405	0.00052555	6.699e-05	1277.1	1.7529e-06	1.1346e-06	1334.2	269.81	1.7691e-06	2.0003e-06	328.83	91.789	71.616	21.563	1.7079e-06	29.244	0.0010015	0.0016671	0.00048446	1256.8	1.6613e-05	1.9728e-05	1323	267.86	1.7385e-05	1.902e-05	330.94	92.291	72.427	21.941	1.7651e-05	30.005	171.795	-70.354	-61.549	-148.273	-16.208	33.811	-148.458	-141.548	-42.206	-19.063	-141.557	-135.387	-134.700	-128.268	-48.383	-128.680	-8191	255	
627.321	1	1	0	0	0.19826	0.26387	0.24969	0.21881	0.18989	0.1714	0.18154	0.26451	0.23609	0.15279	0.25528	0.084046	0.091424	0.31549	0.1523	0.074412	-2.6625	-3.1417	-3.2875	-3.0938	-3.4333	-3.2104	-3.2375	-3.5583	-3.125	-3.2042	-3.6229	-2.9771	-3.4708	-3.2729	-3.025	-3.5146	122.075	60.546	155.217	174.253	96.519	120.011	197.765	124.569	-139.434	-98.745	144.355	157.677	0.481	-41.714	-154.323	101.695	0.00034913	0.00014241	0.0001422	1268.3	3.647e-06	1.6759e-06	1319.7	266.71	2.8159e-06	1.3261e-06	326.29	90.09	70.461	21.285	3.1701e-06	28.8	0.0010222	0.0016872	0.00047227	1248.4	1.6017e-05	1.8768e-05	1312	265.21	1.6573e-05	1.8347e-05	326.89	91.155	71.345	21.633	1.6475e-05	29.627	162.934	-135.446	-57.746	-148.065	-50.158	86.552	-148.285	-141.661	-78.665	40.449	-141.667	-135.340	-134.561	-128.486	-50.477	-128.671	-8191	255	
627.417	1	1	0	0	0.20509	0.21961	0.13897	0.13118	0.067921	0.10091	0.28334	0.208	0.13577	0.39204	0.27475	0.16831	0.10942	0.21554	0.23504	0.067509	-2.4458	-3.15	-3.3312	-3.0292	-3.3187	-3.2875	-3.0375	-3.6271	-3.1021	-3.0917	-3.3542	-3.1708	-3.2958	-3.4854	-2.9854	-3.5125	34.216	66.508	-152.498	15.427	-35.186	91.807	162.561	116.625	61.874	88.099	111.325	72.095	-81.012	167.770	148.383	-68.851	0.00032154	0.00026023	9.0908e-05	1259.3	1.5983e-06	3.3762e-06	1311.7	264.65	1.042e-06	8.3836e-07	323.62	89.682	70.613	21.159	2.4652e-06	28.796	0.00097736	0.0016613	0.00045026	1239.9	1.6026e-05	1.8623e-05	1301.6	263.08	1.7055e-05	1.8764e-05	325.63	90.691	71.047	21.539	1.7785e-05	29.516	156.077	-85.967	-30.949	-148.248	-50.584	-34.696	-148.534	-141.767	-158.206	-10.771	-141.516	-135.729	-134.559	-128.114	8.796	-128.378	-8191	255	
627.513	1	1	0	0	0.17683	0.14788	0.068514	0.21812	0.14028	0.2219	0.21307	0.33136	0.18985	0.13928	0.17591	0.11564	0.028117	0.14367	0.080528	0.05312	-2.6833	-3.0625	-3.2854	-3.1375	-3.2292	-3.4188	-3.1708	-3.4667	-3.2396	-3.0812	-3.5375	-3.1458	-3.3063	-3.3521	-3.1771	-3.4625	119.944	128.517	195.660	135.204	-74.180	-135.807	145.989	141.639	-68.067	-43.569	195.825	194.063	88.095	115.299	-65.505	96.831	0.00035929	0.00023436	0.00017427	1254.3	3.0422e-06	3.6225e-06	1313.8	263.31	5.4285e-06	3.3139e-06	327.05	89.3	70.072	21.033	4.6703e-06	28.679	0.0010313	0.0017231	0.00049055	1237.6	1.7668e-05	2.0919e-05	1303	262.55	1.8883e-05	2.1104e-05	326.13	90.513	70.851	21.464	1.909e-05	29.434	169.784	-74.489	-71.625	-148.084	-33.665	18.576	-148.446	-141.556	-49.740	-79.814	-141.367	-135.501	-134.794	-128.267	16.722	-128.541	-8191	255	
627.609	1	1	0	0	0.12165	0.11078	0.13149	0.095036	0.11824	0.2318	0.18654	0.45102	0.081242	0.10452	0.079713	0.055299	0.16449	0.16608	0.0483	0.028854	-2.6521	-3.1354	-3.5042	-3.2771	-3.1979	-3.3792	-3.3229	-3.3979	-3.4062	-3.0187	-3.4396	-3.0938	-3.2313	-3.5229	-2.9146	-3.3771	176.655	-124.607	194.712	-73.056	-64.158	-120.008	163.574	-139.234	108.593	-107.650	138.768	180.232	181.585	62.137	150.397	-131.344	0.00030883	0.00019638	8.9354e-05	1249.6	3.1525e-06	3.5261e-06	1313.5	261.71	4.9827e-06	2.6269e-06	322.26	88.983	69.559	20.951	5.4726e-06	28.824	0.0010808	0.0018592	0.00051127	1236.8	1.7764e-05	2.0617e-05	1301.7	260.94	1.8196e-05	2.061e-05	322.78	89.909	70.327	21.367	1.875e-05	29.307	165.099	41.066	-64.726	-148.214	-62.338	31.776	-148.504	-141.692	-53.498	23.922	-141.770	-135.767	-134.426	-128.077	-3.449	-128.596	-8191	255	
627.705	1	1	0	0	0.12848	0.20706	0.11913	0.43773	0.11095	0.20341	0.1276	0.091771	0.090532	0.19363	0.053231	0.15274	0.16369	0.14627	0.078878	0.21905	-2.8312	-2.9146	-3.3937	-3.3187	-3.1875	-3.4292	-3.1437	-3.4167	-3.25	-3.0354	-3.4917	-3.1188	-3.2292	-3.5604	-2.9146	-3.2833	152.131	-151.353	-140.438	123.066	-145.562	19.476	125.831	122.470	74.142	23.138	-105.660	98.195	-154.432	-19.067	18.536	96.526	0.00033288	8.0891e-05	5.3684e-05	1249.3	4.4855e-06	1.8258e-06	1311.6	262.09	5.2904e-06	3.9204e-06	320.64	89.121	69.75	21.045	4.0347e-06	28.724	0.0010507	0.0018258	0.00050027	1235.2	1.7999e-05	1.9882e-05	1301.1	261.18	1.7993e-05	2.024e-05	323.19	90.054	70.366	21.381	1.6993e-05	29.317	160.003	-138.247	-80.988	-147.972	-41.789	-34.436	-148.443	-141.339	-43.486	-18.484	-141.568	-135.518	-134.234	-127.947	-59.614	-128.381	-8191	255	
627.826	1	1	0	0	0.2053	0.28898	0.088225	0.1346	0.078344	0.11392	0.24047	0.16548	0.034985	0.068598	0.15671	0.17351	0.13739	0.1487	0.1606	0.15955	-2.975	-3.0438	-3.4	-3.4062	-2.9021	-3.5583	-3.0833	-3.2479	-3.2896	-2.7833	-3.5104	-3.4021	-2.9375	-3.3708	-3.2292	-3.3083	19.011	113.996	-83.216	126.169	-58.730	29.187	123.058	75.325	28.757	143.162	-60.345	-112.289	-78.754	161.467	184.661	71.634	0.00037877	0.00047408	6.9286e-05	1247.6	1.8199e-06	2.387e-06	1309	261.91	4.0281e-06	3.0963e-06	321.96	89.511	69.829	21.052	2.2788e-06	28.604	0.001005	0.0016226	0.0004544	1234.9	1.5778e-05	1.819e-05	1297.4	260.57	1.6265e-05	1.8883e-05	322.63	90.052	70.397	21.404	1.7374e-05	29.3	165.915	-70.862	-48.688	-148.167	-91.122	5.281	-148.338	-141.588	-84.670	-38.453	-141.280	-135.585	-134.463	-127.787	49.464	-128.441	-8191	255	
627.920	1	1	0	0	0.12523	0.19282	0.11677	0.33163	0.14086	0.14724	0.082823	0.21982	0.012647	0.19394	0.08675	0.21681	0.073188	0.24067	0.10929	0.13889	-3.0271	-2.9333	-3.35	-3.3771	-2.9875	-3.3625	-3.3312	-3.2042	-3.3875	-2.9208	-3.4521	-3.4167	-2.9792	-3.4708	-3.2313	-3.1708	-158.096	-24.330	9.585	153.624	-159.312	18.124	-44.775	136.843	47.091	116.610	-57.810	114.795	-132.190	161.870	33.714	196.453	0.00033203	0.00031919	0.00012179	1245.2	2.7535e-06	2.7625e-07	1308	261.79	2.615e-06	3.1309e-06	321.47	89.069	69.375	21.042	1.9116e-06	28.671	0.0010006	0.0017205	0.00047041	1231.9	1.6983e-05	1.9007e-05	1294.9	259.98	1.7154e-05	1.9704e-05	321.72	89.78	70.336	21.372	1.7635e-05	29.375	163.745	-56.662	-98.638	-148.051	-66.722	25.964	-148.532	-141.524	-44.907	-36.937	-141.568	-135.588	-134.391	-128.197	59.879	-127.991	-8191	255	
628.017	1	1	0	0	0.20754	0.15628	0.36248	0.3792	0.17047	0.04658	0.36714	0.077958	0.11928	0.14961	0.24306	0.12327	0.077846	0.31673	0.24033	0.045414	-3.0271	-3.0083	-3.1063	-3.4625	-2.9354	-3.4833	-3.3729	-3.1937	-3.4	-3.1021	-3.325	-3.3896	-2.9938	-3.4292	-3.1646	-3.0396	-122.606	26.262	-49.855	153.473	-23.503	-135.000	153.113	99.119	-70.729	45.437	159.096	156.621	-155.728	148.199	-93.788	105.544	0.0003686	0.00034982	0.00011963	1246	1.4031e-06	3.8579e-06	1307.6	261.42	4.2873e-06	4.2242e-06	322.19	89.437	69.524	20.893	4.2114e-06	28.693	0.001005	0.0017358	0.00046995	1233.4	1.671e-05	1.8905e-05	1296.4	260.55	1.7257e-05	1.9967e-05	322.94	90.013	70.117	21.393	1.7442e-05	29.428	166.001	-107.639	-54.834	-148.173	-77.290	-16.548	-148.224	-141.612	-73.822	16.182	-141.459	-135.794	-134.471	-127.978	-30.425	-127.846	-8191	255	
628.115	1	1	0	0	0.19045	0.14127	0.26698	0.071539	0.0251	0.065772	0.2363	0.078168	0.1005	0.19213	0.24977	0.14949	0.075917	0.15071	0.18759	0.14037	-3.2167	-3.0187	-3.1354	-3.4229	-3.025	-3.2771	-3.2917	-3.0292	-3.4979	-3.075	-3.1646	-3.275	-2.9646	-3.4042	-3.2062	-2.9125	43.055	-56.865	3.384	145.046	19.367	-49.095	81.632	-140.801	-82.424	-154.108	-157.999	59.522	-147.354	184.035	100.108	161.877	0.00033673	0.00030829	0.00012065	1253	2.436e-06	4.6024e-06	1311.8	262.75	3.3658e-06	2.3511e-06	323.38	89.735	69.885	21.329	3.0347e-06	28.94	0.0010035	0.0016521	0.00047482	1235.2	1.6865e-05	1.912e-05	1299.1	261.38	1.7148e-05	1.905e-05	324.16	90.528	70.753	21.625	1.6677e-05	29.594	166.795	-77.918	-51.538	-148.255	-81.419	8.885	-148.415	-141.464	-52.441	-42.169	-141.418	-135.658	-134.641	-128.205	-33.477	-128.526	-8191	255	
628.209	1	1	0	0	0.13896	0.11279	0.16922	0.14274	0.16644	0.030073	0.21166	0.086363	0.31299	0.081602	0.28003	0.021595	0.19196	0.026883	0.016948	0.080456	-2.9625	-3.0125	-3.1854	-3.5938	-2.9625	-3.3563	-3.4708	-3.0792	-3.7021	-3.1146	-3.1271	-3.4562	-3.0187	-3.3708	-3.3917	-3.0729	-51.304	79.675	-152.180	171.385	-38.492	111.519	145.757	95.757	22.720	-125.229	-1.270	-101.111	-2.789	47.087	-60.284	144.990	0.00031386	0.00021546	0.00011625	1253.1	2.2095e-06	1.1248e-06	1312.2	262.22	2.6903e-06	5.2141e-06	324.07	90.131	70.092	21.21	4.9766e-06	28.791	0.00096344	0.0016478	0.00046372	1237.6	1.605e-05	1.8642e-05	1300.1	261.82	1.6385e-05	1.8782e-05	323.96	90.521	70.694	21.58	1.6516e-05	29.542	164.105	-69.818	-63.841	-148.117	-47.160	17.752	-148.544	-141.722	-32.218	1.280	-141.439	-135.880	-134.313	-128.190	-39.523	-128.472	-8191	255	
628.305	1	1	0	0	0.035932	0.21821	0.13627	0.065244	0.19424	0.12885	0.19893	0.31529	0.13626	0.1181	0.021282	0.22951	0.074933	0.080773	0.04107	0.35104	-2.9167	-3.0875	-2.9938	-3.6396	-3.2146	-3.5333	-3.4667	-2.9375	-3.4062	-3.1917	-2.9167	-3.6417	-3.0458	-3.2542	-3.4125	-3	-96.558	116.338	143.646	200.075	30.252	74.886	192.277	134.673	-3.292	-99.886	-18.803	151.252	-140.650	112.079	184.530	120.536	0.00036614	0.00043582	6.4796e-05	1251.1	1.073e-06	1.6863e-06	1310.4	261.66	4.9597e-06	2.8577e-06	323.09	88.664	69.484	20.892	5.7893e-06	28.388	0.00096283	0.0016191	0.00045679	1232.8	1.5278e-05	1.725e-05	1296.4	260.6	1.5199e-05	1.6641e-05	323.2	89.724	69.927	21.225	1.4808e-05	29.097	160.793	-80.351	-85.402	-148.379	-87.236	-44.563	-148.367	-141.410	-26.963	14.614	-141.310	-135.259	-134.582	-127.753	-24.760	-128.740	-8191	255	
628.424	1	1	0	0	0.2067	0.25321	0.17762	0.35499	0.32083	0.22589	0.10698	0.21277	0.17648	0.30898	0.22254	0.24453	0.20193	0.14529	0.21044	0.18406	-2.9437	-3.0208	-2.9938	-3.5229	-2.9854	-3.1229	-3.3542	-2.9813	-3.3792	-3.1063	-3.1646	-3.5	-3.3563	-3.1479	-3.4188	-3.0479	162.566	106.847	-5.145	-148.627	-10.354	-126.638	111.487	175.601	-27.224	198.140	-7.702	-140.490	143.727	94.202	16.180	153.945	0.00038705	0.00035213	7.3173e-05	1226.8	2.6694e-06	3.3547e-06	1282.7	257.46	2.7964e-06	2.858e-06	316.89	87.781	67.895	20.388	2.5689e-06	27.924	0.00089592	0.0014349	0.00039936	1212.7	1.4162e-05	1.5988e-05	1271.8	256.24	1.3821e-05	1.5834e-05	316.76	88.168	68.391	20.758	1.3542e-05	28.591	160.877	-55.667	-37.501	-148.143	-89.757	33.408	-148.608	-141.223	-45.833	-1.497	-140.883	-135.175	-134.106	-127.279	-84.172	-128.274	-8191	255	
628.520	1	1	0	0	0.15959	0.14947	0.05162	0.26631	0.17273	0.23759	0.203	0.26804	0.18428	0.087495	0.027433	0.015025	0.18091	0.29149	0.01393	0.10938	-2.8312	-3.175	-2.8917	-3.6021	-3.1521	-3.1562	-3.5062	-3.0333	-3.1854	-3.4833	-3.1125	-3.4313	-3.275	-2.9583	-3.4979	-2.9125	53.244	-72.948	173.142	119.472	-96.962	-21.087	88.109	151.424	178.033	59.708	-13.194	145.550	-16.233	52.325	107.501	72.661	0.00034501	0.00039908	0.00012473	1200.4	3.7797e-06	3.5863e-06	1260.4	252.34	2.1813e-06	4.8355e-06	313.12	86.396	67.297	20.384	3.3342e-06	27.74	0.00080858	0.0013338	0.00037583	1187.6	1.298e-05	1.4819e-05	1248.6	251.47	1.3283e-05	1.4655e-05	311.95	86.861	67.614	20.601	1.3084e-05	28.388	164.112	-53.945	-83.327	-147.981	-62.326	1.741	-148.215	-141.370	-53.828	45.943	-141.274	-135.236	-133.993	-127.125	-23.503	-128.394	-8191	255	
628.616	1	1	0	0	0.26192	0.15348	0.18443	0.068624	0.15997	0.19292	0.047565	0.18205	0.079692	0.18696	0.037178	0.11795	0.22021	0.22567	0.22248	0.19278	-2.7229	-3.4146	-2.95	-3.4	-3.1417	-2.8708	-3.5438	-3.2083	-3.1208	-3.4146	-2.9188	-3.4188	-3.2896	-2.8792	-3.5104	-3.1813	-102.518	-7.046	-11.370	112.265	-41.439	-63.959	6.496	-119.158	-47.923	-60.602	-50.804	105.378	196.563	-140.276	176.178	154.397	0.00033441	0.00022068	5.2751e-05	1192	2.4659e-06	2.0401e-06	1245.6	251.16	4.6931e-06	2.8079e-06	313.69	85.821	67.11	20.087	3.2136e-06	27.76	0.00079739	0.0012581	0.00034862	1174.9	1.2694e-05	1.4003e-05	1237.7	249.5	1.2683e-05	1.3908e-05	311.03	86.705	67.601	20.48	1.2825e-05	28.331	169.193	-77.455	-38.233	-147.961	-67.840	17.220	-148.308	-141.409	-77.997	-36.727	-140.872	-135.471	-134.086	-127.571	-1.114	-128.199	-8191	255	
628.712	1	1	0	0	0.09647	0.15705	0.28079	0.014035	0.14977	0.1026	0.050555	0.18339	0.12108	0.28585	0.041009	0.050719	0.072215	0.12621	0.21429	0.2345	-2.6063	-3.2938	-2.8729	-3.2396	-3.4042	-3.0583	-3.6979	-3.0438	-2.9854	-3.4354	-3.0271	-3.3917	-3.2687	-2.8479	-3.5542	-3.1312	175.260	103.688	-106.943	-85.741	142.824	7.610	53.524	130.488	115.003	-26.445	91.458	-67.243	26.620	124.708	-89.050	155.030	0.00036294	0.00048617	9.0744e-05	1189.4	3.5362e-06	2.366e-06	1245.7	250.48	4.6602e-06	2.8528e-06	309.99	85.673	66.85	20.152	3.5826e-06	27.62	0.00075974	0.0012002	0.00035298	1172.8	1.2052e-05	1.3833e-05	1235.7	249.06	1.2412e-05	1.3571e-05	309.32	86.43	67.286	20.467	1.2172e-05	28.262	164.216	-78.136	-17.242	-148.052	-47.384	-19.719	-148.258	-141.369	-44.809	12.407	-141.076	-135.344	-133.940	-127.657	-14.816	-128.032	-8191	255	
628.809	1	1	0	0	0.18454	0.18287	0.22605	0.17668	0.12468	0.14868	0.29934	0.33062	0.076548	0.22951	0.4009	0.20386	0.21733	0.071856	0.10532	0.04198	-2.5917	-3.2333	-2.9333	-3.4375	-3.2979	-2.9042	-3.4125	-3.1312	-3.0812	-3.5792	-3.2313	-3.3792	-3.325	-2.7958	-3.3708	-3.4708	-41.204	-35.149	166.702	-62.225	-41.598	99.140	118.467	-118.328	72.672	13.454	117.954	199.731	-53.721	169.728	-153.225	57.715	0.00031951	0.00044642	5.4791e-05	1184.4	3.227e-06	2.2539e-06	1247.6	249.73	4.133e-06	2.3176e-06	307.24	85.725	66.496	20.167	2.6629e-06	27.61	0.00076294	0.001182	0.00034483	1169.3	1.2237e-05	1.3805e-05	1236.1	248.39	1.2693e-05	1.4006e-05	308.96	86.359	66.951	20.42	1.2805e-05	28.221	160.652	-80.058	-105.550	-148.138	-66.296	-21.922	-148.172	-141.300	-66.671	10.999	-141.427	-135.422	-134.462	-127.285	27.979	-128.108	-8191	255	
628.905	1	1	0	0	0.077813	0.052656	0.24034	0.1352	0.13583	0.21175	0.30334	0.21426	0.18919	0.063521	0.12009	0.22171	0.15526	0.24073	0.20582	0.17758	-2.5521	-3.5458	-2.9833	-3.1937	-3.2708	-2.9	-3.5875	-3.2083	-2.9646	-3.3625	-3.0271	-3.2604	-3.3521	-3.0938	-3.3167	-3.2729	47.063	-57.374	87.042	107.320	15.742	181.415	151.215	161.090	189.270	-130.937	189.768	85.185	69.852	-97.037	63.462	177.665	0.0003296	0.00033189	9.4819e-05	1185.8	2.7181e-06	1.0186e-06	1240.5	248.87	3.3307e-06	1.6877e-06	306.28	85.452	66.335	20.068	2.5446e-06	27.732	0.00078933	0.0012104	0.00035502	1168.3	1.2477e-05	1.4162e-05	1231	247.78	1.2577e-05	1.4015e-05	308.75	85.991	66.864	20.376	1.2605e-05	28.204	156.423	-77.558	-33.687	-147.957	-24.196	-134.281	-148.277	-140.943	-28.295	-6.017	-141.295	-135.310	-134.132	-127.693	-6.185	-128.047	-8191	255	
629.001	1	1	0	0	0.22794	0.074619	0.016504	0.37951	0.22742	0.045034	0.26312	0.21553	0.15896	0.017074	0.13473	0.051815	0.18768	0.27317	0.095727	0.20908	-2.3625	-3.3375	-3.1813	-3.1917	-3.4708	-2.9833	-3.6375	-3.4146	-2.9021	-3.4375	-3.1104	-3.1063	-3.5687	-2.9875	-3.3125	-3.3354	-104.677	162.674	125.389	-154.500	21.425	69.967	152.859	174.833	154.031	-133.785	79.517	77.245	163.417	128.984	-112.273	-142.042	0.00032962	0.00012894	0.00011595	1183.8	2.9501e-06	5.0232e-06	1240.4	248.94	4.1356e-06	2.466e-06	307.32	85.137	66.313	19.912	5.8464e-06	27.324	0.0007802	0.0012335	0.00034473	1167.1	1.2364e-05	1.4223e-05	1229.2	247.16	1.2811e-05	1.4044e-05	307.45	85.916	66.593	20.255	1.2376e-05	28.017	160.377	-72.843	-70.611	-147.978	-56.665	0.325	-148.298	-141.317	-76.485	-5.250	-140.894	-135.097	-134.039	-127.705	-15.304	-128.128	-8191	255	
629.097	1	1	0	0	0.13948	0.38016	0.13553	0.21866	0.39887	0.14734	0.25528	0.11716	0.25007	0.18789	0.14448	0.19613	0.097008	0.008315	0.30388	0.28943	-2.3417	-3.3479	-3.1479	-3.15	-3.3875	-3.1437	-3.3875	-3.3104	-2.8958	-3.4125	-3.2146	-3.0833	-3.5708	-3.1146	-3.1479	-3.4188	-125.684	42.546	-17.185	180.720	-131.386	-23.811	103.431	-147.989	159.393	-96.588	-108.621	-35.938	-117.838	5.373	-109.286	116.700	0.00036114	0.00036452	8.5955e-05	1177.7	2.8899e-06	6.5245e-06	1234.4	245.34	3.0438e-06	4.872e-06	308.55	84.879	65.841	19.904	3.0934e-06	27.372	0.00076855	0.0011931	0.00033129	1160	1.1856e-05	1.3748e-05	1222.8	245.22	1.2428e-05	1.3448e-05	306	85.344	66.364	20.17	1.2652e-05	27.945	172.070	-93.551	-72.163	-148.015	-26.836	-2.635	-148.465	-141.249	-89.875	-4.755	-141.285	-135.266	-134.315	-127.819	-0.374	-128.054	-8191	255	
629.218	1	1	0	0	0.26929	0.12087	0.021633	0.22804	0.38891	0.23419	0.11323	0.35404	0.12411	0.18163	0.32184	0.12353	0.28965	0.063784	0.093946	0.20239	-2.6625	-3.3563	-3.2354	-3.05	-3.5	-3.0979	-3.2521	-3.6229	-3.0646	-3.3646	-3.1854	-2.8646	-3.5875	-3.2083	-2.9583	-3.5583	99.344	104.077	-30.853	193.566	10.132	-28.559	141.372	154.062	117.634	-101.519	146.814	123.201	149.826	131.513	-4.193	-16.372	0.00031657	0.00042502	9.517e-05	1173.5	3.1253e-06	5.4249e-06	1232.2	246.61	3.5487e-06	4.4681e-06	305.32	85.14	65.662	19.909	2.6861e-06	27.506	0.00077597	0.0012428	0.00035761	1159.6	1.2559e-05	1.4393e-05	1222.1	244.91	1.3348e-05	1.4282e-05	306.43	85.468	66.17	20.176	1.3201e-05	27.99	159.323	-59.553	-52.913	-147.958	-109.750	-6.197	-148.229	-141.269	-55.759	4.625	-141.762	-135.317	-134.249	-127.666	-7.799	-128.170	-8191	255	
629.312	1	1	0	0	0.18984	0.16959	0.1089	0.31405	0.11537	0.10118	0.067406	0.11948	0.1469	0.083216	0.34908	0.091004	0.16123	0.12735	0.19479	0.15977	-2.5187	-3.2604	-3.2521	-3.0646	-3.3438	-3.1479	-3.1958	-3.4542	-3.0333	-3.1021	-3.4167	-2.9792	-3.45	-3.1792	-2.9667	-3.4625	-50.822	-106.926	-143.881	192.399	-19.586	-108.861	166.097	80.024	-153.496	39.447	113.009	-158.889	111.377	-108.306	-58.478	140.335	0.00032585	0.00020838	0.00016647	1180.3	2.1523e-06	3.2083e-06	1230	246.89	4.243e-06	3.7208e-06	306.49	84.963	65.683	19.787	1.4592e-06	27.131	0.00082627	0.0012599	0.0003604	1162.1	1.2773e-05	1.4595e-05	1221.2	245.27	1.3952e-05	1.4751e-05	305.87	85.301	66.311	20.191	1.3542e-05	27.948	161.312	-40.366	-48.096	-147.993	-46.827	63.910	-148.218	-141.179	-83.651	-5.823	-141.181	-135.578	-134.107	-127.548	-56.920	-127.716	-8191	255	
629.385	1	1	0	0	0.21918	0.23368	0.20843	0.21427	0.1204	0.065879	0.19435	0.078074	0.076499	0.11154	0.16243	0.23833	0.033739	0.22857	0.10437	0.10765	-2.5458	-3.1667	-3.325	-3.0208	-3.3146	-3.2646	-3.2896	-3.4208	-3.1688	-3.1333	-3.4813	-3.0438	-3.3625	-3.4667	-3.0125	-3.5312	170.080	19.198	-157.311	106.196	104.416	35.525	78.469	132.612	-3.370	-147.637	-24.167	164.786	84.628	-135.269	173.502	-132.592	0.00027289	0.0004265	0.00010854	1178.7	3.9796e-06	2.8169e-06	1231	245.69	2.117e-06	3.4481e-06	305.49	84.023	65.984	19.851	2.9915e-06	27.27	0.00082627	0.001359	0.00037712	1160.2	1.3074e-05	1.4893e-05	1222.4	245.07	1.3729e-05	1.5284e-05	306.22	85.173	66.181	20.164	1.4146e-05	27.963	160.473	-73.004	-81.786	-147.955	-63.254	-16.998	-148.224	-141.502	-53.652	13.396	-141.265	-135.284	-133.979	-127.254	-66.981	-128.001	-8191	255	
629.506	1	1	0	0	0.32194	0.10846	0.24797	0.21963	0.17215	0.29369	0.13012	0.12269	0.071876	0.022036	0.16545	0.33463	0.036942	0.26498	0.20136	0.13507	-2.7625	-3.0667	-3.2896	-3.1	-3.3542	-3.2208	-3.0417	-3.5812	-3.2417	-3.1292	-3.3563	-2.9521	-3.4375	-3.3833	-2.8792	-3.3688	70.661	157.648	101.384	171.812	193.901	-29.758	-75.369	122.364	-46.965	93.912	62.132	-153.817	-124.925	95.865	7.252	82.348	0.00031127	0.00019951	0.00010418	1179	1.189e-06	5.7614e-06	1235.4	245.53	5.5094e-06	2.6009e-06	304.34	84.283	65.696	19.933	2.8759e-06	27.339	0.00083944	0.0013742	0.0003736	1159.6	1.3107e-05	1.4715e-05	1222.4	244.79	1.3407e-05	1.4616e-05	305.46	85.218	66.19	20.216	1.266e-05	27.944	165.882	-11.192	-54.055	-147.981	-55.581	2.571	-148.103	-141.217	-60.109	-4.759	-141.690	-135.035	-133.994	-127.686	9.065	-127.955	-8191	255	
629.600	1	1	0	0	0.17677	0.13069	0.12967	0.19653	0.13145	0.019074	0.29848	0.20507	0.12575	0.19692	0.073975	0.28096	0.17962	0.11627	0.2412	0.13419	-2.6646	-2.9062	-3.4417	-3.1479	-3.2833	-3.3646	-3.0062	-3.2562	-3.1937	-3.1667	-3.5438	-3.1104	-3.2042	-3.3583	-3.0604	-3.3937	30.237	-113.377	-80.907	-130.208	148.156	126.443	112.788	170.933	-12.422	-139.311	-12.462	173.595	-157.908	-105.985	170.666	195.801	0.00036719	0.00027371	0.00010886	1170.9	2.1313e-06	6.2037e-06	1223.3	245.21	1.4275e-06	3.0279e-06	302.8	84.387	65.415	19.753	3.881e-06	27.483	0.00075644	0.00115	0.00032963	1153.6	1.1174e-05	1.2392e-05	1213.2	243.38	1.0941e-05	1.2024e-05	303.18	84.835	65.571	20.05	9.8801e-06	27.921	159.641	-81.046	-57.497	-147.865	-95.966	19.566	-148.052	-141.130	-88.377	25.448	-141.149	-134.833	-133.868	-127.219	-27.697	-127.992	-8191	255	
629.697	1	1	0	0	0.16213	0.35868	0.068242	0.29155	0.077432	0.1772	0.24579	0.055927	0.12368	0.19981	0.030222	0.1197	0.09878	0.20228	0.14454	0.19967	-2.9271	-3	-3.4417	-3.4146	-3.2104	-3.3312	-3.0667	-3.4292	-3.3604	-3.0125	-3.2979	-3.15	-3.1312	-3.5208	-3.0875	-3.4833	141.962	-142.975	-8.376	137.831	173.760	-125.386	156.159	129.929	69.343	111.895	-158.451	-153.423	-149.183	58.970	-97.527	130.592	0.00032186	0.00039726	5.9843e-05	1152.7	3.031e-06	3.5319e-06	1204.1	243.04	2.1372e-06	2.4304e-06	299.42	83.381	64.63	19.375	4.1655e-06	26.978	0.00061181	0.00093073	0.00025668	1136.4	9.1743e-06	9.833e-06	1194.1	240.79	9.2592e-06	9.8326e-06	299.46	83.936	64.869	19.733	9.6608e-06	27.496	162.228	-88.057	-63.412	-147.745	-57.142	1.915	-148.024	-141.586	-67.955	17.954	-141.213	-135.154	-133.718	-127.251	15.673	-127.661	-8191	255	
629.793	1	1	0	0	0.25738	0.085841	0.12421	0.18323	0.27867	0.23917	0.13398	0.11248	0.20088	0.31273	0.1229	0.26951	0.29225	0.11249	0.15258	0.16786	-2.9708	-2.9729	-3.6	-3.3042	-3.0958	-3.5417	-3.3146	-3.375	-3.3229	-2.9771	-3.375	-3.2938	-3.2708	-3.4625	-3.1937	-3.375	-76.410	48.087	63.278	143.336	28.853	-81.793	127.132	99.107	-147.109	194.176	189.315	111.196	188.524	143.587	107.261	156.332	0.00034601	0.00025575	0.00013079	1131.2	3.286e-06	5.0972e-06	1192	239.89	4.2085e-06	6.3438e-07	299.07	83.237	64.091	19.633	2.7226e-06	27.187	0.00062356	0.00094221	0.00026165	1115.6	9.9953e-06	1.1242e-05	1179.4	238.81	9.9517e-06	1.1296e-05	299.21	83.849	64.779	19.834	1.0016e-05	27.655	165.189	-67.823	-46.561	-147.749	-22.344	-24.100	-148.196	-141.340	-71.374	27.248	-141.305	-135.048	-133.525	-127.031	-22.181	-127.842	-8191	255	
629.913	1	1	0	0	0.26384	0.19825	0.11029	0.17852	0.19459	0.090692	0.30709	0.10612	0.23336	0.16106	0.29757	0.19082	0.043718	0.17575	0.063309	0.15529	-2.9292	-2.9229	-3.3104	-3.2833	-2.9833	-3.6083	-3.1104	-3.2875	-3.3375	-3.0396	-3.2146	-3.2604	-3.1604	-3.4354	-3.225	-3.2417	44.633	-144.436	135.312	117.738	-115.558	66.723	159.306	188.680	-25.085	-56.888	160.805	-89.495	50.825	9.454	10.822	186.121	0.00032224	0.00035757	8.2946e-05	1134.5	1.8742e-06	3.7704e-06	1190.1	240.51	2.7912e-06	4.6819e-06	298.8	83.342	64.3	19.751	3.3114e-06	27.111	0.00064999	0.00098894	0.00026228	1118.9	9.7599e-06	1.041e-05	1180.8	239.07	9.6002e-06	1.0748e-05	297.93	83.752	64.561	19.814	9.4553e-06	27.479	167.479	-58.767	-27.035	-147.908	-42.476	22.710	-148.175	-141.122	-34.427	-2.017	-140.692	-134.976	-133.899	-127.140	-14.585	-127.452	-8191	255	
630.010	1	1	0	0	0.158	0.15437	0.11723	0.13035	0.07599	0.24308	0.27859	0.067245	0.15838	0.19674	0.31079	0.20156	0.14071	0.11498	0.28781	0.19821	-2.975	-2.9979	-3.2708	-3.4208	-3.0958	-3.4542	-3.2833	-3.2896	-3.3875	-3.0458	-3.4354	-3.2313	-3.0312	-3.4938	-3.1688	-3.0208	45.701	-145.080	178.525	-10.488	171.974	73.603	181.796	-38.000	106.281	60.178	14.807	-99.851	0.107	135.359	-19.559	196.292	0.0003255	0.00020557	7.0365e-05	1129.3	2.6674e-06	3.1266e-06	1190.2	240.69	3.0064e-06	3.8295e-06	300.25	84.355	64.981	19.894	3.4526e-06	27.169	0.00059802	0.00090553	0.00025033	1111.7	9.273e-06	1.0006e-05	1178.4	239.84	8.989e-06	1.0007e-05	299.22	84.579	65.219	20.106	8.673e-06	27.823	165.381	-100.913	-81.863	-147.673	-58.450	4.025	-148.112	-141.057	-94.504	-4.774	-141.309	-134.925	-133.903	-127.333	-26.939	-128.029	-8191	255	
630.106	1	1	0	0	0.078995	0.35797	0.17226	0.17186	0.14298	0.27771	0.18737	0.28269	0.11774	0.28264	0.085369	0.012762	0.16137	0.16282	0.11776	0.11182	-3.1458	-2.975	-3.1896	-3.5583	-3.1292	-3.3333	-3.3354	-3.1375	-3.4271	-3.1437	-3.3583	-3.5292	-3.0542	-3.5479	-3.0938	-2.9646	93.588	32.270	-60.308	-157.688	70.568	-124.849	117.858	-157.600	-6.407	-111.832	-155.706	-36.323	137.040	-93.666	10.296	-69.864	0.00029228	0.00028962	4.9438e-05	1136.8	3.6502e-06	3.9482e-06	1197.6	242.99	3.1564e-06	2.6071e-06	304.04	84.325	65.141	20.06	3.4495e-06	27.484	0.00056961	0.00082952	0.00023019	1120.2	8.5367e-06	8.9559e-06	1183.9	241.57	8.2621e-06	9.0465e-06	302.25	84.974	65.473	20.243	8.2337e-06	27.942	159.055	-74.549	-67.065	-147.991	-44.844	-37.503	-148.120	-141.116	-54.888	28.074	-141.521	-134.963	-133.676	-127.460	-1.862	-128.058	-8191	255	
630.202	1	1	0	0	0.068404	0.26994	0.14536	0.1625	0.12626	0.10648	0.17491	0.053418	0.14984	0.062441	0.29527	0.13306	0.047612	0.21389	0.10361	0.11112	-2.9333	-3.05	-3.2104	-3.4896	-3.0208	-3.275	-3.3125	-3.0708	-3.5021	-3.2062	-3.175	-3.4417	-3.025	-3.2396	-3.2938	-3.0167	-150.424	-24.528	-97.667	-147.733	30.846	-11.633	108.181	161.882	129.452	-5.038	-93.333	175.876	-96.821	11.357	23.504	-144.224	0.00030413	0.00036155	0.00011368	1136.7	3.1965e-06	3.2384e-06	1195.8	244.19	3.4901e-06	5.0457e-06	301.65	84.089	65.318	19.928	1.7403e-06	27.422	0.00056006	0.00081049	0.0002232	1120.8	8.3473e-06	9.0812e-06	1184.5	242.69	8.6059e-06	8.8618e-06	302.29	84.916	65.57	20.184	8.3987e-06	27.957	166.914	-101.728	-68.901	-147.700	-55.796	-15.592	-148.171	-141.216	-40.391	-29.254	-141.003	-135.209	-133.866	-127.234	-7.145	-128.197	-8191	255	
630.298	1	1	0	0	0.0804	0.14515	0.39064	0.08504	0.1072	0.20078	0.18192	0.064464	0.1433	0.27132	0.081195	0.096762	0.38177	0.30487	0.1079	0.20192	-3.0187	-3.0146	-2.9562	-3.6708	-2.9521	-3.3479	-3.5812	-2.9417	-3.4208	-3.1667	-3.0646	-3.4896	-3.0646	-3.2875	-3.2687	-2.8229	-67.937	182.130	155.632	96.717	128.168	116.798	158.269	159.138	-155.457	135.250	-94.823	176.076	-93.021	-15.223	137.910	159.640	0.00034741	0.00044196	6.7661e-05	1136.4	1.1147e-06	5.0314e-06	1199.9	243.88	3.086e-06	4.383e-06	302.71	84.252	65.389	19.694	2.9714e-06	27.308	0.00056727	0.00081028	0.00022611	1120.5	8.3473e-06	9.2936e-06	1185.4	242.72	8.5729e-06	9.2965e-06	302.47	84.953	65.441	20.11	8.8394e-06	27.881	163.610	-93.728	-38.870	-147.801	-5.418	-38.091	-148.054	-141.166	-79.867	17.088	-141.049	-135.136	-133.992	-127.039	-26.080	-128.032	-8191	255	
630.392	1	1	0	0	0.063211	0.1757	0.20595	0.090639	0.18312	0.06956	0.4277	0.35174	0.027296	0.17373	0.14711	0.10519	0.10591	0.17881	0.12736	0.41145	-2.8312	-2.9375	-2.9979	-3.5646	-3.0021	-3.2167	-3.5458	-2.9062	-3.2729	-3.2646	-3.0708	-3.6458	-3.0583	-3.0687	-3.3063	-2.9188	-77.617	-34.615	-29.272	96.135	-61.914	-128.518	126.664	150.809	-100.862	-129.648	-107.768	118.532	-58.106	157.484	57.249	121.838	0.00038235	0.0005015	5.9262e-05	1133.6	2.834e-06	2.5078e-06	1197.4	244.67	3.8598e-06	3.0244e-06	303.23	83.784	65.08	19.85	1.6501e-06	27.385	0.0005781	0.0008331	0.00024742	1118.2	8.7202e-06	9.2057e-06	1184.9	242.48	8.9701e-06	1.0001e-05	302.85	84.668	65.347	20.13	8.838e-06	27.823	167.553	-86.568	-46.867	-147.850	-58.330	10.498	-148.160	-141.350	-27.694	2.658	-141.269	-134.804	-134.030	-127.556	-25.636	-127.817	-8191	255	
630.513	1	1	0	0	0.25291	0.065032	0.18525	0.23527	0.16646	0.26454	0.23839	0.065148	0.020665	0.41399	0.048363	0.22106	0.13488	0.18037	0.080904	0.24717	-2.8312	-3.2917	-3.1042	-3.625	-3.1167	-3.2167	-3.5583	-3.1146	-3.3125	-3.4104	-3.0396	-3.5312	-3.1708	-3.0146	-3.4708	-3.3104	145.885	154.274	161.041	189.123	36.448	-78.509	100.121	177.734	132.603	151.342	168.779	136.361	-153.801	192.035	20.661	168.994	0.00031718	0.00021228	9.2021e-05	1139.2	2.2746e-06	2.0879e-06	1201.2	244.4	2.6084e-06	1.8232e-06	302.95	84.154	65.124	19.838	4.2672e-06	27.565	0.00058971	0.00087172	0.00025249	1122.3	8.7575e-06	9.8379e-06	1188	242.77	8.7645e-06	9.5065e-06	302.87	84.849	65.469	20.09	8.4783e-06	27.946	166.570	-86.754	-68.635	-147.838	-85.084	-23.510	-148.161	-141.286	-69.473	3.674	-140.956	-135.208	-134.004	-127.579	-38.941	-128.073	-8191	255	
630.609	1	1	0	0	0.40135	0.094288	0.19073	0.22441	0.10576	0.17527	0.39012	0.23589	0.25625	0.22656	0.054684	0.17218	0.071776	0.15741	0.10792	0.38861	-2.775	-3.2313	-2.7938	-3.4417	-3.0229	-3.1688	-3.7062	-3.0312	-3.1937	-3.3125	-2.9167	-3.5042	-3.1708	-2.9042	-3.4542	-3.1312	-144.036	187.225	-44.718	143.406	-88.080	-108.454	125.404	71.203	-60.316	162.530	-15.435	-41.752	172.499	178.880	-67.581	-153.147	0.00031764	0.00059958	5.7907e-05	1137.1	2.5751e-06	2.2369e-06	1199.8	244.14	3.8983e-06	3.4684e-06	303.63	84.216	65.334	20.042	3.6208e-06	27.504	0.00057785	0.00089146	0.00025322	1123.6	8.9049e-06	9.8021e-06	1189.6	242.63	8.942e-06	9.5008e-06	303.77	84.962	65.564	20.209	9.1615e-06	27.959	160.903	-67.876	-72.356	-147.826	-55.540	-22.482	-148.145	-141.293	-55.391	6.127	-141.200	-135.287	-134.001	-127.405	-28.148	-128.158	-8191	255	
630.681	1	1	0	0	0.11403	0.15827	0.29804	0.31992	0.25155	0.076163	0.31535	0.23098	0.21356	0.12599	0.066973	0.18646	0.12134	0.17804	0.14346	0.11456	-2.7687	-3.5458	-2.8167	-3.4792	-3.2917	-2.9875	-3.4979	-3.2	-3.1937	-3.3667	-2.9688	-3.3854	-3.3167	-2.7833	-3.4062	-3.0396	-40.893	89.907	22.669	100.054	72.798	147.379	89.155	171.887	6.823	-117.451	-23.172	150.858	160.671	140.806	-130.726	74.550	0.00036167	0.00031528	9.3292e-05	1143.3	1.6209e-06	3.5175e-06	1199.9	243.63	3.5039e-06	2.7365e-06	303.42	84.776	65.347	19.979	3.1221e-06	27.379	0.00060463	0.00087991	0.00025932	1125.7	9.0896e-06	1.0064e-05	1188.7	242.44	9.3539e-06	1.0074e-05	303.69	85.118	65.595	20.178	9.2461e-06	27.893	159.867	-77.217	-55.406	-147.807	-22.846	24.077	-148.256	-141.160	-69.566	-6.899	-141.346	-134.921	-133.843	-127.598	-20.965	-128.135	-8191	255	
630.777	1	1	0	0	0.21533	0.06932	0.30333	0.51513	0.24433	0.20178	0.32953	0.14624	0.36228	0.045511	0.2545	0.14153	0.19716	0.20726	0.055572	0.056147	-2.5375	-3.2708	-3.05	-3.2938	-3.2708	-2.9021	-3.6583	-3.1521	-3.0563	-3.5292	-2.9208	-3.3375	-3.3167	-2.9313	-3.1354	-3.2854	192.161	125.929	38.653	176.771	-19.621	-126.522	-101.665	-87.965	-86.676	-60.691	136.016	-135.147	21.286	142.443	-2.507	140.817	0.00031472	0.00025202	0.00010371	1140.3	3.0873e-06	2.2654e-06	1206.9	245.83	3.5024e-06	3.0594e-06	304.83	84.193	65.384	20.034	4.5784e-06	27.408	0.00061983	0.00094107	0.00026353	1126.3	9.2584e-06	1.0821e-05	1192.3	243.36	9.5974e-06	1.047e-05	303.98	85.084	65.657	20.205	9.5559e-06	27.924	161.102	-32.105	-70.832	-147.744	-74.991	-3.150	-148.146	-141.276	-72.307	-21.234	-141.098	-135.333	-133.536	-127.311	-14.971	-128.103	-8191	255	
630.898	1	1	0	0	0.22784	0.0019151	0.16146	0.018069	0.15161	0.084778	0.083376	0.40064	0.066185	0.06293	0.29834	0.073268	0.098177	0.15931	0.28523	0.049558	-2.5833	-3.4354	-3.1437	-3.2854	-3.2833	-2.8771	-3.4938	-3.0938	-3.1021	-3.4708	-3.0938	-3.1	-3.4667	-3.0208	-3.3271	-3.2667	99.390	180.000	-138.225	94.238	34.019	90.280	161.156	130.808	37.255	182.344	144.869	39.011	126.215	69.237	172.234	-2.626	0.00033499	0.00042161	7.7882e-05	1144.8	3.6122e-06	4.2459e-06	1208.4	246.08	3.4702e-06	2.5872e-06	305.28	85.193	65.951	19.989	3.855e-06	27.479	0.00063262	0.00095298	0.00025627	1129.5	9.3404e-06	1.0732e-05	1196.8	244.52	9.8893e-06	1.0425e-05	304.51	85.432	66.037	20.283	9.4488e-06	28.023	162.180	-71.480	-32.350	-147.883	-34.941	-9.539	-148.192	-141.235	-55.367	-19.196	-141.283	-135.111	-133.971	-127.543	-26.468	-128.032	-8191	255	
630.994	1	1	0	0	0.06744	0.22294	0.096883	0.13158	0.30277	0.10007	0.28965	0.18332	0.056166	0.21247	0.096588	0.14976	0.16847	0.067715	0.035695	0.21169	-2.8042	-3.4604	-2.9771	-3.2104	-3.2479	-2.9542	-3.3854	-3.3417	-2.9625	-3.3354	-3.1104	-3.1292	-3.3771	-2.8875	-3.2521	-3.3917	-5.820	154.270	-13.619	165.669	98.132	116.330	186.910	173.475	-78.259	59.985	-8.181	-100.590	101.667	-122.647	-35.184	-91.944	0.00037777	0.00036938	0.00013251	1150.4	4.9187e-06	3.0968e-06	1209.5	247.06	4.6873e-06	1.1329e-06	304.86	85.195	65.604	20.102	3.644e-06	27.496	0.00063802	0.00090955	0.00026228	1133	9.4604e-06	1.05e-05	1201.1	244.92	9.5167e-06	1.0385e-05	305.67	85.558	66.142	20.361	9.5928e-06	28.085	163.483	-81.291	-40.656	-147.854	-51.556	2.342	-148.103	-141.569	-71.935	-37.525	-141.089	-135.285	-134.066	-127.637	-26.986	-128.406	-8191	255	
631.090	1	1	0	0	0.098416	0.18443	0.11586	0.10996	0.18552	0.2996	0.27802	0.15965	0.25455	0.19255	0.12795	0.13739	0.074199	0.055876	0.11904	0.11602	-2.4521	-3.3208	-3.1958	-3.3563	-3.3688	-3.025	-3.1896	-3.3271	-2.9229	-3.25	-3.2771	-2.9062	-3.3333	-2.9854	-3.1104	-3.4771	-155.552	-41.722	99.540	145.396	-101.225	-59.340	90.067	97.580	-32.901	95.078	116.380	-122.433	126.670	-36.339	172.048	-90.496	0.00033566	0.00022195	9.7236e-05	1155.6	2.5563e-06	3.5224e-06	1213.7	248.23	4.301e-06	1.2312e-06	308.29	84.668	65.989	20.129	3.0987e-06	27.429	0.00062203	0.00091687	0.00025876	1136.6	9.187e-06	1.0372e-05	1202.2	245.68	9.6409e-06	1.0033e-05	307.06	85.74	66.214	20.452	9.5356e-06	28.118	164.027	-34.322	-44.443	-147.829	-50.319	-17.336	-148.241	-141.521	-44.661	-4.681	-141.261	-135.271	-134.270	-127.704	-44.555	-128.395	-8191	255	
631.186	1	1	0	0	0.22709	0.194	0.037818	0.34188	0.24357	0.22898	0.19988	0.093996	0.33456	0.044659	0.16874	0.066928	0.18254	0.13934	0.11998	0.1624	-2.5479	-3.2062	-3.2646	-3.0708	-3.5062	-3.1312	-3.2896	-3.4917	-2.9042	-3.175	-3.2708	-2.9188	-3.4417	-3.0396	-3.1437	-3.5312	-20.626	120.527	-30.351	165.361	-33.415	-116.749	25.368	95.482	128.616	-155.451	178.348	183.475	-111.687	150.212	63.977	73.019	0.00032347	0.00029154	3.6076e-05	1159.7	2.2652e-06	1.1493e-06	1217.2	247.71	2.6068e-06	1.1159e-06	308.12	86.204	66.317	20.236	5.3635e-06	27.956	0.00062193	0.00090948	0.00025378	1140.3	9.1463e-06	1.0235e-05	1207	246.96	9.7377e-06	1.029e-05	307.45	86.372	66.578	20.506	9.7382e-06	28.455	167.708	-68.654	-114.051	-147.848	-65.752	20.521	-148.314	-141.272	-61.333	-8.964	-141.341	-135.184	-133.981	-127.775	-54.056	-127.997	-8191	255	
631.305	1	1	0	0	0.19263	0.045309	0.072059	0.092113	0.078523	0.12393	0.046401	0.15432	0.010826	0.27999	0.21963	0.20655	0.19002	0.11401	0.10776	0.1072	-2.5687	-3.0625	-3.3042	-3.1167	-3.3563	-3.225	-3.2021	-3.4896	-2.9854	-3.0771	-3.5125	-2.8729	-3.3875	-3.2042	-3.0917	-3.5229	42.920	-140.199	4.526	-155.004	-39.667	-50.144	-97.049	-110.562	32.908	-123.462	118.081	190.313	115.880	159.557	-57.632	92.710	0.0003442	0.00038649	7.104e-05	1159.6	2.9779e-06	3.8724e-06	1222.9	248.53	3.9418e-06	4.2326e-06	310.05	86.736	66.973	20.635	4.2139e-06	27.95	0.00061905	0.00089189	0.00024612	1144.1	8.8455e-06	9.8094e-06	1212.7	247.43	9.1469e-06	9.6348e-06	308.91	87.23	67.075	20.831	8.5029e-06	28.635	164.059	-58.052	-84.118	-147.763	-33.095	-28.631	-148.146	-141.251	-66.754	0.074	-140.700	-135.219	-134.163	-127.562	-27.696	-128.281	-8191	255	
631.378	1	1	0	0	0.36765	0.089315	0.14493	0.078476	0.13353	0.087878	0.45029	0.23161	0.093233	0.12926	0.17691	0.16559	0.18742	0.039841	0.070517	0.22363	-2.6063	-3.1646	-3.175	-3.0604	-3.4521	-3.1125	-3.1792	-3.5646	-3.1271	-3.1562	-3.5417	-2.9708	-3.3458	-3.3292	-2.9562	-3.3917	188.140	6.852	130.903	-146.585	89.484	29.960	195.774	-149.352	56.202	-91.638	150.695	108.580	4.468	176.164	-52.066	197.145	0.0003176	0.0003541	0.00010866	1166.6	2.4652e-06	3.7403e-06	1231	250.21	4.4625e-06	3.8735e-06	307.58	86.28	66.264	20.558	3.1895e-06	27.94	0.00057671	0.00081415	0.00023088	1147.1	8.4827e-06	9.196e-06	1215.4	247.57	9.175e-06	9.6381e-06	308.1	86.823	66.833	20.727	9.5819e-06	28.501	160.864	-70.495	-45.590	-147.857	-48.151	-33.496	-148.184	-141.153	-51.612	6.719	-141.121	-135.543	-133.926	-127.972	-17.964	-128.456	-8191	255	
631.475	1	1	0	0	0.22382	0.037303	0.15196	0.16757	0.16567	0.1591	0.13828	0.079197	0.11695	0.103	0.19763	0.11494	0.10959	0.23651	0.048689	0.18619	-2.6458	-3.2	-3.4229	-3.0583	-3.2229	-3.2042	-3.1	-3.5917	-3.1333	-3.2104	-3.5312	-3.0438	-3.2875	-3.3292	-2.775	-3.3083	65.514	75.918	-30.008	134.298	-119.894	152.654	-113.377	-137.675	67.448	99.416	50.451	134.366	143.061	107.213	-57.187	17.071	0.00035342	0.0003217	8.4066e-05	1171	1.9114e-06	5.0929e-06	1234.2	251.55	3.9079e-06	7.8076e-06	311.62	86.985	66.892	20.506	2.4445e-06	28.208	0.00062438	0.0009481	0.00025949	1153.1	9.5138e-06	1.0841e-05	1224.2	249.36	1.0201e-05	1.1369e-05	310.16	87.545	67.542	20.876	1.0461e-05	28.737	163.462	-78.315	-101.986	-147.937	-2.410	-6.073	-148.117	-141.156	-59.196	-5.802	-141.170	-135.354	-134.125	-128.230	6.740	-128.157	-8191	255	
631.593	1	1	0	0	0.14639	0.1984	0.11729	0.20051	0.18178	0.18951	0.28466	0.011613	0.40666	0.17515	0.13734	0.17333	0.22371	0.2286	0.38675	0.17549	-2.6667	-3.0646	-3.2958	-3.0667	-3.0854	-3.4104	-3.0521	-3.4375	-3.2208	-3.0938	-3.4479	-3.0417	-3.1813	-3.3583	-2.9229	-3.3625	-64.864	65.303	160.062	108.526	-37.464	196.949	110.162	-98.287	-120.238	-144.428	157.550	92.034	132.480	-147.813	186.167	-144.898	0.00033037	0.00040731	5.5257e-05	1175.2	2.4867e-06	2.7224e-06	1235.5	253.04	3.9777e-06	2.7777e-06	310.18	86.467	66.887	20.599	1.869e-06	28.246	0.00066885	0.0010458	0.00027853	1159.5	1.0053e-05	1.1018e-05	1228.1	249.81	1.0298e-05	1.1178e-05	310.26	87.243	67.307	20.88	1.0598e-05	28.718	165.456	-81.855	-76.177	-147.928	-33.154	13.742	-148.295	-141.302	-67.028	22.458	-141.147	-135.437	-134.104	-127.772	9.812	-128.175	-8191	255	
631.690	1	1	0	0	0.14269	0.30815	0.15436	0.24341	0.0067243	0.14927	0.18874	0.21759	0.22561	0.15392	0.19506	0.066886	0.29019	0.24383	0.15358	0.10292	-2.7458	-3.0417	-3.4104	-3.0479	-3.2854	-3.3833	-3.225	-3.4	-3.3917	-3.1063	-3.6083	-3.2458	-3.3125	-3.5312	-2.9542	-3.3604	79.415	150.388	10.926	166.950	-7.479	-100.107	120.359	136.083	136.995	138.643	-77.825	-137.916	177.292	118.966	177.712	152.512	0.00033292	0.00020877	2.1454e-05	1178.4	1.2175e-06	2.7369e-06	1237.7	250.32	2.1777e-06	2.4463e-06	309.76	86.818	67.202	20.56	2.3795e-06	27.995	0.00068757	0.0010163	0.00028312	1160.2	1.0053e-05	1.1075e-05	1226.7	248.97	1.0611e-05	1.1626e-05	309.49	87.421	67.449	20.868	1.0969e-05	28.629	160.829	-126.822	-123.390	-147.937	-26.807	48.538	-148.180	-141.085	-72.512	18.067	-141.185	-135.239	-133.773	-127.934	-4.253	-128.324	-8191	255	
631.786	1	1	0	0	0.23714	0.19834	0.17884	0.085265	0.16044	0.19651	0.17459	0.24187	0.30938	0.057479	0.07165	0.068193	0.25686	0.14305	0.1571	0.087279	-2.7917	-2.9833	-3.4229	-3.1562	-2.9896	-3.3542	-2.9938	-3.3729	-3.2208	-2.8917	-3.3354	-3.1729	-3.2188	-3.5438	-3.1542	-3.3563	-101.910	-34.735	59.757	-110.879	59.232	99.958	161.184	-122.448	171.714	-23.954	70.681	-82.629	28.656	151.390	191.730	-148.140	0.00037337	0.00028844	0.00013198	1175.5	3.8662e-06	1.5575e-06	1242.7	251.67	2.6652e-06	5.1443e-06	311.25	87.2	67.407	20.604	4.1012e-06	28.163	0.00069691	0.0010776	0.00029504	1161	1.0751e-05	1.1971e-05	1230.2	249.83	1.1e-05	1.186e-05	311.06	87.521	67.451	20.863	1.0733e-05	28.711	163.700	-54.648	-63.254	-148.198	-66.525	-28.412	-148.290	-141.512	-72.095	12.248	-141.000	-135.479	-133.902	-128.168	-8.985	-128.452	-8191	255	
631.906	1	1	0	0	0.053847	0.062437	0.098265	0.27112	0.12166	0.11107	0.35824	0.078856	0.15309	0.064535	0.23292	0.12039	0.35042	0.17623	0.10957	0.030871	-3.1021	-2.7292	-3.1646	-3.2458	-3.1125	-3.4479	-3.1792	-3.1063	-3.1437	-2.9479	-3.3958	-3.2208	-2.9	-3.4813	-2.8729	-3.2208	-70.842	-107.962	185.534	113.786	193.043	-147.699	89.769	97.206	23.301	-70.019	125.759	-6.358	-141.891	-12.308	122.855	156.961	0.00036927	0.00032462	0.00012431	1181.8	2.0547e-06	2.4919e-06	1243.8	251.14	3.4878e-06	3.9323e-06	311.44	87.291	67.403	20.861	2.5369e-06	28.255	0.00068025	0.0010221	0.00027879	1163.3	1.0225e-05	1.181e-05	1231	250.03	1.0385e-05	1.1366e-05	311.38	87.639	67.662	21.014	1.0726e-05	28.769	164.526	-92.420	-87.334	-148.112	-7.485	-25.793	-148.186	-141.319	-62.721	-16.927	-140.885	-135.343	-134.048	-127.826	-26.711	-128.154	-8191	255	
631.978	1	1	0	0	0.2425	0.15782	0.17291	0.15609	0.28323	0.21716	0.29789	0.16019	0.088874	0.10149	0.1047	0.13977	0.13234	0.13989	0.1311	0.13114	-3.1167	-3.0438	-3.1312	-3.2667	-3.0229	-3.2646	-3.1688	-3.0625	-3.4188	-2.7917	-3.3146	-3.3146	-3.1312	-3.3229	-3.0896	-3.1375	97.878	181.772	-35.449	169.281	132.153	-96.064	142.999	162.764	-87.224	128.625	-9.498	138.152	-119.127	29.332	149.411	146.204	0.00034566	0.00020331	7.3499e-05	1181.6	1.2916e-06	5.0744e-06	1242.5	251.67	3.2632e-06	3.6124e-06	312.38	87.42	67.216	20.8	3.1951e-06	28.186	0.00067688	0.0010147	0.00028516	1165.5	1.0565e-05	1.162e-05	1233.3	250.5	1.0981e-05	1.1697e-05	311.98	88.093	67.822	21.071	1.0716e-05	28.927	159.258	-75.568	-34.760	-147.901	-67.090	-10.548	-148.324	-141.250	-50.751	16.423	-141.401	-135.421	-134.425	-127.739	-33.107	-128.537	-8191	255	
632.074	1	1	0	0	0.26049	0.10609	0.15877	0.17153	0.083401	0.14838	0.29227	0.21464	0.064595	0.13108	0.043548	0.22313	0.14783	0.083309	0.019814	0.079534	-3.0125	-2.9292	-3.2812	-3.3854	-2.9333	-3.475	-3.3667	-3.1583	-3.6229	-3.1146	-3.3479	-3.5521	-3.025	-3.4604	-3.2854	-2.9896	121.834	-20.484	-140.057	150.490	176.917	-85.485	141.520	14.705	161.152	-14.903	124.705	76.094	186.249	3.205	129.041	15.346	0.00034506	0.0004105	0.00011136	1189.1	4.2243e-06	2.0538e-06	1247.9	252.61	3.8433e-06	2.3132e-06	311.79	87.437	67.543	21.095	1.7319e-06	28.423	0.00068735	0.0010327	0.00029102	1170.8	1.049e-05	1.1233e-05	1236.2	251.33	1.0242e-05	1.1245e-05	312.46	88.331	68.125	21.264	1.0389e-05	29.003	165.051	-80.202	-77.271	-147.907	-50.463	5.482	-148.189	-141.550	-57.370	29.861	-141.118	-135.358	-134.301	-128.189	1.715	-128.537	-8191	255	
632.195	1	1	0	0	0.16472	0.18767	0.051654	0.12357	0.091742	0.16766	0.23184	0.16261	0.12304	0.12918	0.18864	0.20622	0.34074	0.18656	0.16175	0.090174	-2.975	-3.0062	-3.1437	-3.6437	-2.7958	-3.3458	-3.4771	-3.1688	-3.4104	-3.1667	-3	-3.4604	-3.0146	-3.2833	-3.3729	-2.9542	159.152	131.444	-122.678	145.258	164.832	176.504	124.371	53.123	183.162	0.411	39.133	104.269	199.026	108.252	147.590	-78.522	0.00034117	0.00037937	0.00010594	1190.3	1.524e-06	2.5877e-06	1255	253.82	4.1214e-06	4.365e-06	314.83	87.704	68.188	21.064	2.3687e-06	28.603	0.00066277	0.00099619	0.00027911	1174.5	9.7572e-06	1.0669e-05	1243.3	252.62	9.8472e-06	1.1215e-05	314.66	88.683	68.595	21.364	9.6369e-06	29.224	162.597	-100.473	-50.748	-148.021	-73.946	6.050	-148.089	-141.373	-71.216	-30.583	-141.368	-135.588	-134.313	-128.381	-29.530	-128.257	-8191	255	
632.289	1	1	0	0	0.13995	0.086686	0.094972	0.078484	0.060954	0.2065	0.021452	0.17521	0.13987	0.098342	0.25053	0.075039	0.089259	0.092781	0.24026	0.093511	-3.1188	-3.0271	-3.0979	-3.5792	-2.9271	-3.2792	-3.4396	-3.0021	-3.4333	-3.1813	-3.075	-3.5417	-2.8875	-3.1667	-3.3521	-2.8833	170.655	33.826	2.639	-133.542	117.772	-117.217	157.302	127.747	62.611	148.493	144.614	0.468	30.647	-24.689	139.236	-94.906	0.00032908	0.00027329	0.00012746	1197.4	1.3134e-06	2.9615e-06	1258	252.95	3.8599e-06	3.9681e-06	315.35	88.218	68.025	20.97	1.3751e-06	28.357	0.00062019	0.0009547	0.00026957	1179.4	9.6485e-06	1.0572e-05	1246	252.48	9.8647e-06	1.0938e-05	313.59	88.582	68.366	21.253	1.0133e-05	28.988	159.273	-129.785	-80.209	-148.040	-57.489	-49.288	-148.248	-141.381	-75.098	10.979	-140.647	-135.338	-133.935	-128.131	30.588	-128.687	-8191	255	
632.385	1	1	0	0	0.13205	0.11677	0.34044	0.10202	0.15992	0.031224	0.28245	0.14027	0.067245	0.1614	0.038843	0.12379	0.034933	0.1098	0.16137	0.14069	-3.0208	-3.1312	-2.85	-3.4813	-3.0042	-3.1083	-3.6021	-3.0583	-3.3438	-3.1896	-3.1167	-3.3979	-2.9042	-3.1042	-3.2458	-2.8667	-46.719	188.257	75.213	-142.673	42.927	196.291	186.140	0.583	-29.430	101.213	-94.460	-142.776	-150.710	-107.983	163.265	134.474	0.00034827	0.00038197	5.4095e-05	1191.4	7.4164e-07	1.2018e-07	1256.3	253.54	8.9877e-07	3.4017e-06	313.3	88.126	68.055	20.996	4.6682e-06	28.491	0.00066121	0.00098988	0.00028459	1172.7	1.0075e-05	1.1345e-05	1242.3	252.04	1.0479e-05	1.1897e-05	313.28	88.287	68.202	21.296	1.1062e-05	29.047	164.969	-68.540	-66.204	-147.967	-91.258	41.264	-148.309	-141.418	-5.305	39.339	-140.959	-135.149	-134.091	-128.404	-28.766	-128.167	-8191	255	
632.481	1	1	0	0	0.24332	0.14894	0.16115	0.0012121	0.09663	0.060578	0.42664	0.26185	0.055613	0.15728	0.11591	0.19063	0.30161	0.16224	0.14352	0.088101	-2.9021	-3.1188	-2.8271	-3.5604	-3.1188	-3.2292	-3.525	-2.8083	-3.2646	-3.4458	-2.9688	-3.3792	-3.2208	-3.0792	-3.5667	-3.0583	-93.876	-50.293	24.314	180.000	75.585	149.360	144.666	168.912	73.025	188.513	-157.388	111.065	48.782	80.945	177.528	149.389	0.0003512	0.00044676	8.1786e-05	1191	8.5278e-07	3.5671e-06	1259	255.77	4.7511e-06	3.521e-06	314.72	87.985	68.146	20.915	2.4234e-06	28.494	0.0006675	0.0010335	0.00029234	1177.4	1.0312e-05	1.1189e-05	1246.3	252.73	1.027e-05	1.1104e-05	314.13	88.556	68.25	21.24	9.7433e-06	29.089	165.035	-87.059	-71.091	-147.964	27.409	6.113	-148.264	-141.366	-58.897	4.596	-141.435	-135.673	-133.973	-127.850	-1.064	-128.503	-8191	255	
632.555	1	1	0	0	0.28599	0.35037	0.45271	0.22097	0.26541	0.29965	0.27441	0.053922	0.19678	0.12628	0.23785	0.13065	0.083434	0.096337	0.18406	0.17989	-2.8125	-3.3271	-2.9313	-3.5229	-3.2417	-3.0833	-3.6646	-3.1	-3.1354	-3.4958	-3.0958	-3.5042	-3.1917	-3.2146	-3.6188	-3.1833	111.310	187.362	-110.135	-134.902	-5.937	191.862	96.876	-118.476	-120.381	-63.241	177.020	-8.031	136.792	116.480	-39.993	139.749	0.00033724	0.00055811	6.9955e-05	1192.8	1.9184e-06	2.8462e-06	1250.8	254.01	3.1457e-06	4.6897e-06	313.31	87.789	68.159	21.046	9.007e-07	28.607	0.00062971	0.00094975	0.00026191	1176.7	9.3051e-06	1.0237e-05	1243	252.63	9.7651e-06	1.0525e-05	313.5	88.645	68.586	21.363	9.7614e-06	29.141	165.749	-90.724	-10.422	-148.057	-40.981	-34.112	-148.136	-141.122	-83.198	10.726	-141.076	-135.518	-134.340	-127.917	25.812	-128.728	-8191	255	
632.674	1	1	0	0	0.1207	0.30822	0.1128	0.069523	0.14807	0.10003	0.25714	0.17562	0.24008	0.18619	0.059581	0.12375	0.18663	0.14153	0.069617	0.091911	-2.6396	-3.2854	-2.9229	-3.3833	-3.1542	-3.1271	-3.6312	-2.9479	-3.1833	-3.4854	-3.0542	-3.3333	-3.3229	-3	-3.3333	-3.0875	150.327	62.282	49.237	55.785	-150.599	111.619	138.355	-118.627	-126.644	-26.234	-145.069	-143.034	111.012	182.862	142.079	-66.365	0.00033742	0.00046578	7.297e-05	1197.1	2.2791e-06	4.4635e-06	1259	254.42	3.4177e-06	5.0812e-06	314.62	88.261	68.324	21.214	1.9069e-06	28.594	0.0006399	0.00096712	0.00027089	1178.6	9.8806e-06	1.0952e-05	1247.1	253.32	1.0163e-05	1.1117e-05	315.28	88.967	68.75	21.511	9.9589e-06	29.288	158.678	-70.651	-80.573	-147.970	-43.573	-27.202	-148.284	-141.219	-65.052	-0.656	-141.151	-135.515	-134.441	-128.346	-46.856	-128.702	-8191	255	
632.770	1	1	0	0	0.16186	0.15002	0.12598	0.079479	0.1409	0.14069	0.055858	0.14671	0.17653	0.17891	0.060284	0.14984	0.21589	0.13953	0.12554	0.18968	-2.4917	-3.3771	-2.8271	-3.2646	-3.2167	-2.8708	-3.3771	-3.1437	-3.0333	-3.2562	-2.9167	-3.4021	-3.3854	-3.0521	-3.4208	-3.2521	-96.740	108.223	140.966	132.915	165.276	-71.926	-144.058	141.214	-133.651	-106.106	9.939	106.623	122.335	-92.316	-31.511	130.296	0.00035391	0.00034817	3.9741e-05	1198.2	3.6721e-06	2.377e-06	1267.8	255.62	3.2565e-06	2.3094e-06	314.78	88.85	68.2	21.281	4.796e-06	28.793	0.00066366	0.00098277	0.00028376	1183.3	9.7045e-06	1.0996e-05	1254.4	253.6	1.0242e-05	1.0411e-05	314.98	89.326	68.711	21.524	9.9264e-06	29.323	167.960	-89.624	-64.939	-148.060	-20.993	36.641	-148.254	-141.403	-71.933	7.598	-141.292	-135.343	-134.137	-128.302	-29.860	-128.159	-8191	255	
632.866	1	1	0	0	0.20669	0.17439	0.30159	0.28412	0.2467	0.32025	0.16767	0.17823	0.043865	0.15365	0.033027	0.18206	0.091429	0.24693	0.20401	0.18525	-2.625	-3.3292	-3.0917	-3.4896	-3.3563	-2.875	-3.4833	-3.2396	-3.0583	-3.5604	-3.0979	-3.2667	-3.4667	-3.0062	-3.4729	-3.3583	196.894	-104.962	78.891	-82.205	-9.592	178.589	160.323	62.610	30.882	157.285	-6.207	-127.348	118.452	186.063	27.055	-38.357	0.00034365	0.00026318	0.00015466	1200.6	3.734e-06	3.0655e-06	1263.2	255.67	4.1863e-06	1.7078e-06	317.87	89.066	68.372	21.396	3.4439e-06	28.896	0.00063709	0.00094882	0.00027218	1181.9	9.6312e-06	1.0735e-05	1251.1	253.26	9.9686e-06	1.0227e-05	316.31	89.504	69.092	21.639	9.4538e-06	29.518	163.817	-69.201	-84.613	-147.884	-35.144	-51.161	-148.169	-141.348	-50.055	13.674	-141.264	-135.727	-134.172	-128.108	3.274	-128.540	-8191	255	
632.987	1	1	0	0	0.089722	0.11266	0.039182	0.30957	0.18685	0.20361	0.42771	0.1866	0.064897	0.25205	0.16828	0.046981	0.26743	0.16424	0.1858	0.058342	-2.5979	-3.3833	-3.0375	-3.2458	-3.3979	-2.9896	-3.6562	-3.5208	-2.9896	-3.4354	-3.3021	-3.1937	-3.4688	-3.0896	-3.275	-3.3521	102.789	79.161	-79.483	-153.116	100.285	-127.801	158.935	179.422	-153.525	-21.669	198.598	52.349	151.804	151.940	-136.164	162.299	0.00035308	0.0004568	9.7991e-05	1203.4	3.1785e-06	2.5595e-06	1268.8	256.57	5.1533e-06	1.6946e-06	318.98	89.485	69.388	21.627	4.1547e-06	29.07	0.00063074	0.0008751	0.00024942	1186	8.8882e-06	1.0079e-05	1256.2	254.81	9.022e-06	9.3545e-06	316.87	90.109	69.607	21.909	8.7483e-06	29.746	165.942	-67.992	-66.037	-148.068	-37.656	-25.881	-148.293	-141.559	-74.028	-72.640	-141.314	-135.528	-134.118	-128.393	-29.024	-128.522	-8191	255	
633.083	1	1	0	0	0.21076	0.07897	0.12884	0.16612	0.18593	0.20968	0.25279	0.048104	0.19272	0.080032	0.078475	0.10787	0.14248	0.28954	0.22842	0.11185	-2.5083	-3.4562	-3.175	-3.4417	-3.4917	-2.9271	-3.4437	-3.3187	-3.0833	-3.5729	-3.2125	-3.2521	-3.4646	-3.2062	-3.3604	-3.4042	-156.618	17.171	-56.142	195.695	-104.462	156.030	89.528	98.379	183.775	59.079	41.448	-16.873	-50.962	-142.954	-19.839	80.337	0.00036174	0.00034176	6.3111e-05	1202.9	3.9808e-06	4.8812e-06	1274.5	257.08	5.254e-06	3.2752e-06	316.79	89.905	69.513	21.605	4.1173e-06	29.208	0.00060108	0.00082557	0.00023719	1187.6	9.0249e-06	9.4229e-06	1258.3	255.42	9.0003e-06	9.4804e-06	317.09	90.481	69.865	22.021	8.7685e-06	29.797	164.154	-82.848	-88.272	-148.008	-44.905	-7.261	-148.287	-141.702	-38.005	2.439	-141.364	-135.575	-134.220	-128.651	-5.746	-128.574	-8191	255	
633.179	1	1	0	0	0.12772	0.06593	0.31801	0.20634	0.10823	0.10314	0.078107	0.11542	0.2888	0.11226	0.13453	0.34045	0.062787	0.046378	0.039288	0.047104	-2.3833	-3.3125	-3.2417	-3.2771	-3.4	-2.875	-3.3417	-3.4625	-2.8312	-3.1604	-3.1937	-3	-3.4833	-3.3146	-3.05	-3.4854	-50.440	58.935	45.407	163.979	183.426	4.492	159.192	145.474	173.645	8.030	142.220	-101.959	197.865	67.404	-157.740	130.782	0.00034548	0.00031015	5.4705e-05	1208.9	1.8163e-06	3.3412e-06	1278.3	257.48	1.6962e-06	3.1766e-06	318.54	90.294	69.274	21.756	4.3674e-06	29.299	0.00059646	0.0008405	0.00024823	1191.1	8.6768e-06	9.8956e-06	1261.6	255.28	9.5616e-06	9.804e-06	318.21	90.52	69.604	21.942	9.0696e-06	29.773	167.436	-53.571	-56.712	-148.112	-29.431	-10.739	-148.321	-141.434	-92.051	1.150	-141.063	-135.505	-134.236	-128.401	-43.111	-128.811	-8191	255	
633.275	1	1	0	0	0.1343	0.18819	0.091645	0.14614	0.16202	0.16549	0.11024	0.1627	0.17092	0.42334	0.085784	0.08956	0.12381	0.15037	0.19064	0.23991	-2.675	-3.2188	-3.2854	-3.225	-3.4	-3.1583	-3.2938	-3.5458	-2.9708	-3.2125	-3.4688	-3.1375	-3.4792	-3.2854	-3.0104	-3.475	38.091	-80.905	-117.127	189.027	93.953	117.419	-17.922	174.510	161.942	-7.386	73.264	2.315	-27.262	8.488	37.529	153.116	0.00033766	0.00045319	8.1682e-05	1210.8	1.9165e-06	3.7338e-06	1271.5	256.19	3.9901e-06	1.5016e-06	318.6	89.684	69.383	21.677	4.2623e-06	28.998	0.00063173	0.00087725	0.00025663	1190.2	9.2504e-06	1.0157e-05	1258.7	254.46	9.2458e-06	1.0303e-05	317.55	90.288	69.69	21.91	9.312e-06	29.658	161.176	-63.875	-20.054	-147.950	-25.345	-3.372	-148.239	-141.535	-46.357	11.695	-141.324	-135.662	-134.301	-128.698	-44.189	-129.101	-8191	255	
633.371	1	1	0	0	0.29691	0.14092	0.046767	0.32677	0.14765	0.12725	0.28797	0.17407	0.14807	0.039715	0.091116	0.083272	0.19123	0.0014852	0.067424	0.39956	-2.4896	-3.0833	-3.5958	-2.9354	-3.4646	-3.2062	-3.2438	-3.4813	-3.0521	-3.2458	-3.5229	-3.0979	-3.5312	-3.2875	-3.1188	-3.525	-42.754	101.396	-45.212	162.093	80.450	54.420	92.632	65.648	-43.361	-109.195	-129.294	-144.667	178.774	180.000	50.773	178.108	0.00036397	0.00036401	6.8345e-05	1200.5	1.3229e-06	3.2222e-06	1266.9	257.46	4.0638e-06	2.1953e-06	317.08	89.382	68.787	21.381	3.7571e-06	28.877	0.00062445	0.00092664	0.00026814	1187	9.2737e-06	9.9274e-06	1255.7	254.48	9.5048e-06	1.0411e-05	316.58	89.986	69.185	21.708	9.731e-06	29.548	164.236	-92.742	-67.213	-148.130	-52.447	0.658	-148.200	-141.359	-52.641	10.468	-141.768	-135.539	-133.898	-128.405	-84.321	-128.718	-8191	255	
633.467	1	1	0	0	0.17074	0.071251	0.12178	0.13069	0.15193	0.090263	0.18004	0.17457	0.32923	0.13095	0.17098	0.16747	0.056636	0.24088	0.10044	0.13473	-2.5938	-3.2354	-3.3167	-3.1562	-3.4313	-3.2917	-2.9833	-3.4625	-2.9958	-3.0729	-3.4104	-2.975	-3.3187	-3.45	-2.9146	-3.4854	-114.426	165.716	125.644	120.639	131.469	-125.026	131.272	91.561	68.347	-4.048	-129.684	84.098	-78.615	190.540	81.027	77.717	0.00036167	0.00030566	9.7882e-05	1202.8	2.246e-06	3.284e-06	1269	257.07	4.3205e-06	2.4824e-06	315.19	89.714	69.014	21.56	1.8096e-06	28.774	0.00063202	0.00094372	0.0002699	1188.6	9.6552e-06	1.079e-05	1258	255.29	9.8865e-06	1.0842e-05	316.4	90.124	69.395	21.837	1.0033e-05	29.6	163.850	-48.231	-33.610	-148.000	-85.754	-24.677	-148.358	-141.530	-59.502	-26.809	-141.263	-135.420	-134.147	-128.299	-64.123	-128.453	-8191	255	
633.586	1	1	0	0	0.16738	0.19174	0.16867	0.21341	0.16186	0.16469	0.11028	0.22794	0.023659	0.18012	0.38068	0.12434	0.086538	0.17378	0.19177	0.078719	-2.6813	-2.9604	-3.3375	-3.0917	-3.3729	-3.3333	-3.1271	-3.4042	-3.05	-3.0187	-3.4917	-3.1	-3.2604	-3.2375	-2.8042	-3.3125	-70.165	89.789	-142.289	188.243	96.101	17.011	193.331	-153.553	-34.159	-155.751	-147.396	-110.247	163.690	-139.030	-125.054	-67.418	0.00038091	0.00024917	7.1396e-05	1205.7	2.5784e-06	3.0665e-06	1266.8	257.88	5.1121e-06	2.9142e-06	318.03	89.498	69.309	21.38	2.0855e-06	28.901	0.00063692	0.00098234	0.00026703	1189.2	9.8226e-06	1.1166e-05	1256	254.83	9.9728e-06	1.0903e-05	316.78	90.069	69.494	21.81	1.0156e-05	29.621	160.834	-151.511	-82.591	-147.782	-44.602	-9.889	-148.469	-141.132	-67.884	9.162	-141.231	-135.338	-134.111	-128.647	0.279	-128.886	-8191	255	
633.682	1	1	0	0	0.16494	0.070104	0.097602	0.19117	0.12122	0.29607	0.13153	0.070401	0.28656	0.14252	0.19057	0.21591	0.068094	0.04828	0.034781	0.19894	-2.7438	-3.0208	-3.3187	-3.1896	-3.0687	-3.3979	-3.1729	-3.3521	-3.2917	-2.9437	-3.5792	-3.2792	-3.1729	-3.6479	-2.9354	-3.4083	87.184	-2.238	-120.417	159.509	123.085	-95.249	57.579	145.242	126.932	188.821	158.680	174.099	39.225	-110.928	-86.732	16.289	0.00034943	0.0003492	0.00010652	1210.6	2.8223e-06	3.6544e-06	1270.2	257.25	3.7122e-06	1.0263e-06	317.08	89.371	69.343	21.672	4.5013e-06	28.892	0.00063987	0.0009547	0.0002606	1192.2	9.3471e-06	9.7321e-06	1260.1	255.63	9.457e-06	1.019e-05	316.31	90.22	69.624	21.87	9.6145e-06	29.599	167.630	-81.324	-93.044	-148.096	-47.635	-39.664	-148.227	-141.292	-68.537	-0.049	-141.574	-135.782	-134.343	-128.295	-18.903	-128.580	-8191	255	
633.779	1	1	0	0	0.1188	0.2723	0.073736	0.30604	0.042363	0.12863	0.23287	0.24845	0.27816	0.27266	0.098071	0.082994	0.12858	0.22067	0.033549	0.26049	-2.8625	-2.8792	-3.3937	-3.2021	-3.1229	-3.3125	-3.2146	-3.3708	-3.35	-3.0854	-3.5438	-3.1833	-3.2125	-3.3688	-2.95	-3.3688	-30.699	-6.469	154.773	127.848	160.618	-3.901	145.834	115.650	91.084	156.975	153.031	121.224	181.228	-154.267	117.907	101.964	0.00034053	0.00036689	8.8709e-05	1203.5	2.5119e-06	2.9212e-06	1265.8	255.75	4.726e-06	3.5155e-06	318.09	89.677	69.035	21.397	3.891e-06	29.015	0.00061184	0.00093884	0.00024782	1186.8	9.1096e-06	1.0352e-05	1256.6	254.27	9.4795e-06	1.0486e-05	316.13	89.923	69.262	21.734	9.2765e-06	29.597	162.901	-72.774	-39.466	-147.927	-56.415	0.854	-148.204	-141.366	-49.633	-17.011	-141.131	-135.471	-133.910	-128.474	-17.886	-128.690	-8191	255	
633.850	1	1	0	0	0.076135	0.23299	0.033433	0.2621	0.2007	0.04543	0.23251	0.24576	0.064261	0.15565	0.093669	0.12129	0.30054	0.17391	0.23537	0.19317	-2.8771	-3.0563	-3.3229	-3.3646	-2.975	-3.6896	-3.225	-3.2812	-3.4938	-2.925	-3.4104	-3.3125	-3.0479	-3.5125	-3.1937	-3.2583	-42.061	102.227	-147.804	155.179	-4.828	137.376	136.340	141.485	135.188	-8.576	-125.009	140.409	142.775	113.326	15.124	-123.766	0.0003426	0.0004204	0.00012461	1198.7	4.414e-06	3.3625e-06	1269.3	256.55	4.4776e-06	3.1895e-06	315.63	89.166	68.513	21.226	3.9857e-06	28.829	0.00061507	0.00091149	0.00024703	1185.7	9.4745e-06	9.8452e-06	1256	253.94	9.5167e-06	1.0425e-05	315.11	89.605	68.843	21.566	9.3446e-06	29.355	163.227	-82.802	-45.816	-147.995	-66.210	-6.480	-148.245	-141.275	-76.023	18.456	-141.346	-135.292	-133.792	-128.093	15.364	-128.367	-8191	255	
633.971	1	1	0	0	0.0078508	0.34201	0.12198	0.12749	0.13463	0.10925	0.20726	0.10317	0.25855	0.14812	0.057807	0.14401	0.09347	0.0728	0.13859	0.304	-2.9333	-2.8292	-3.3333	-3.2917	-2.9458	-3.3396	-3.1958	-3.3063	-3.4562	-3.0146	-3.3688	-3.3875	-2.925	-3.325	-3.1688	-3.1521	137.031	187.048	-108.586	148.986	95.295	42.599	50.766	105.597	15.206	-139.245	-48.651	146.940	102.317	135.284	135.635	82.710	0.00033333	0.00039366	2.988e-05	1201.3	2.8049e-06	4.4103e-06	1263	254.59	3.4073e-06	4.5008e-06	314.55	88.405	68.463	21.165	2.9545e-06	28.662	0.00062708	0.00092183	0.0002665	1182.6	9.6739e-06	1.0215e-05	1249.3	253.06	9.6332e-06	1.0543e-05	314.88	89.072	68.651	21.473	9.8612e-06	29.313	162.747	-21.609	-81.858	-148.128	-25.118	-2.440	-148.340	-141.177	-39.261	-3.661	-141.260	-135.369	-133.928	-128.520	-44.056	-128.576	-8191	255	
634.067	1	1	0	0	0.06349	0.11107	0.13837	0.25851	0.26597	0.18494	0.22756	0.10247	0.2572	0.20783	0.068622	0.13684	0.22247	0.24273	0.077953	0.0678	-3.0979	-2.8688	-3.0667	-3.3542	-2.9354	-3.2979	-3.3229	-3.1375	-3.2604	-3.0292	-3.1854	-3.3458	-2.9729	-3.2417	-3.2729	-2.9708	-118.578	78.873	171.299	116.408	42.797	-114.724	144.550	162.970	117.531	187.773	193.771	195.552	-118.375	16.005	170.558	-129.636	0.00035827	0.00026041	6.4584e-05	1197.5	3.7009e-06	3.1534e-06	1257.1	254.57	3.8601e-06	4.3749e-06	314.19	88.602	68.061	21.132	3.4691e-06	28.585	0.00062299	0.00091364	0.00025599	1179.4	9.3391e-06	1.0531e-05	1245.6	252.82	9.843e-06	1.0565e-05	313.98	88.863	68.587	21.453	9.7295e-06	29.223	167.546	-92.398	-29.313	-147.941	-50.408	-20.770	-148.162	-141.523	-49.392	10.693	-141.338	-135.371	-133.750	-127.835	-45.230	-128.580	-8191	255	
634.163	1	1	0	0	0.14778	0.067862	0.37242	0.20294	0.21798	0.19869	0.26879	0.24125	0.14833	0.15835	0.20473	0.24786	0.15431	0.11231	0.12034	0.27865	-2.9583	-2.8479	-3.2062	-3.4688	-3.0854	-3.3833	-3.4229	-3.0812	-3.525	-3.075	-3.2667	-3.4125	-2.9333	-3.5417	-3.2083	-2.9208	-18.157	168.927	-76.138	163.809	55.613	159.235	108.179	-150.743	-35.148	10.625	160.202	147.059	149.083	-147.074	-39.664	134.141	0.00033511	0.00044022	0.00012851	1196.2	2.5728e-06	2.0783e-06	1263.3	254.83	4.2569e-06	1.0323e-06	316.64	88.356	68.308	21.38	4.5159e-06	28.784	0.00062239	0.00094028	0.00025833	1178.9	9.4511e-06	1.0335e-05	1248.6	253.25	9.7651e-06	1.0432e-05	314.54	89.229	68.746	21.628	9.4893e-06	29.457	160.737	-63.090	-64.482	-147.925	-83.071	1.346	-148.042	-141.398	-46.141	8.555	-141.091	-135.471	-134.200	-128.542	-17.840	-128.614	-8191	255	
634.259	1	1	0	0	0.081475	0.11227	0.19471	0.057	0.019128	0.065118	0.14485	0.13497	0.092214	0.18814	0.29939	0.24163	0.30436	0.073645	0.18594	0.15611	-3.0896	-3.0958	-2.9979	-3.4083	-2.8688	-3.3125	-3.4208	-3.1312	-3.3	-3.0708	-3.1271	-3.6042	-2.8896	-3.2062	-3.2229	-3.0021	15.533	-8.919	91.721	103.527	168.944	-26.775	98.679	160.634	-110.892	110.972	-144.109	104.711	170.053	-141.548	-105.484	134.810	0.00033949	0.00033914	8.6309e-05	1194.4	2.6358e-06	3.6177e-06	1261.3	255.36	2.8863e-06	4.682e-06	313.54	88.813	68.253	21.395	2.1894e-06	28.679	0.00059412	0.00090517	0.00024766	1182.3	9.2604e-06	9.7101e-06	1251.8	253.43	9.0627e-06	9.9968e-06	314.85	89.33	68.818	21.624	9.4053e-06	29.348	162.648	-108.283	-39.930	-148.153	-49.674	39.136	-148.221	-141.418	-65.971	-11.839	-141.072	-135.455	-134.089	-128.355	-22.045	-128.571	-8191	255	
634.378	1	1	0	0	0.1714	0.12755	0.15812	0.11572	0.15573	0.1372	0.11393	0.17799	0.23133	0.061452	0.048593	0.10259	0.15854	0.25496	0.12844	0.2645	-2.8875	-3.1083	-3.125	-3.6063	-2.8979	-3.3187	-3.3792	-2.8208	-3.2083	-3.1396	-3.0812	-3.5854	-3.0792	-3.1042	-3.2438	-3.0042	36.036	140.019	-41.445	27.089	112.435	-33.793	134.925	147.499	66.222	21.594	-158.926	-71.391	192.201	-117.883	-12.035	-78.645	0.00031297	0.00039762	9.7376e-05	1195.1	3.6021e-06	2.0966e-06	1256.3	253.7	2.6544e-06	3.6135e-06	313.87	88.162	68.041	21	4.3067e-06	28.537	0.00060126	0.00093209	0.00025599	1179.2	9.3671e-06	1.0728e-05	1245.8	252.2	9.5272e-06	1.0766e-05	313.7	88.752	68.248	21.266	9.4951e-06	29.063	162.798	-52.052	-54.381	-147.903	-33.480	2.179	-148.189	-141.283	-90.064	12.809	-141.237	-135.259	-134.039	-128.062	-19.196	-128.501	-8191	255	
634.474	1	1	0	0	0.1976	0.16197	0.16076	0.21281	0.080364	0.21689	0.2361	0.11064	0.1609	0.26627	0.081684	0.21191	0.19283	0.29961	0.0033612	0.17658	-2.9542	-3.1167	-2.8063	-3.6354	-2.9229	-3.3646	-3.6521	-3.0646	-3.3354	-3.2	-2.9813	-3.4583	-3.1604	-3.0333	-3.3438	-3.0458	-107.853	22.955	103.623	180.305	130.217	-152.209	138.042	-90.361	-131.972	-121.124	-148.526	128.733	145.215	-133.903	-72.235	137.038	0.0003343	0.00017782	6.8082e-05	1185.6	3.3311e-06	2.9437e-06	1247.6	252.13	4.7869e-06	2.6084e-06	309.65	86.728	67.235	20.471	3.9603e-06	28.079	0.00062939	0.00093769	0.00026601	1170.5	9.4578e-06	1.095e-05	1233.6	250.1	9.617e-06	1.1008e-05	309.89	87.19	67.215	20.778	1.0155e-05	28.61	159.435	-83.410	-25.373	-147.985	-38.551	-9.928	-148.065	-141.067	-30.563	38.521	-141.017	-135.327	-133.736	-127.442	18.328	-127.906	-8191	255	
634.548	1	1	0	0	0.12907	0.068299	0.16135	0.083249	0.13084	0.1813	0.17371	0.24344	0.17115	0.082056	0.41235	0.19243	0.026405	0.1298	0.15204	0.07821	-2.7938	-3.2667	-2.8563	-3.5875	-3.2104	-3.2021	-3.6271	-3.0812	-3.3125	-3.4958	-2.8688	-3.6146	-3.0375	-2.9833	-3.6458	-3.1312	176.644	-59.983	149.602	-118.632	91.617	-0.377	100.427	-112.329	-131.304	148.791	44.283	188.258	187.498	162.410	42.471	-9.532	0.00031217	0.00012264	0.00012843	1176.9	3.3362e-06	9.6593e-07	1231.8	248	1.3534e-06	6.3482e-06	305.61	85.077	65.481	20.121	3.4875e-06	27.506	0.00068075	0.0010124	0.00029773	1160.1	1.0306e-05	1.1825e-05	1222.9	246.06	1.1051e-05	1.1842e-05	305.59	85.704	65.964	20.392	1.0656e-05	28.087	166.709	-103.614	-43.066	-147.773	-80.577	25.497	-148.064	-141.093	-37.767	5.126	-141.341	-135.007	-133.812	-127.515	-10.127	-127.690	-8191	255	
634.667	1	1	0	0	0.17986	0.097669	0.24614	0.19537	0.12471	0.081182	0.074056	0.12638	0.21772	0.1438	0.10789	0.089701	0.22471	0.22002	0.11608	0.099895	-2.9833	-3.2083	-2.8958	-3.4646	-3.3125	-2.9208	-3.525	-3.0354	-3.1646	-3.3208	-2.9042	-3.3563	-3.2875	-3.1021	-3.5187	-3.1896	-71.406	-133.406	64.425	80.873	-49.392	58.242	142.426	167.759	-63.426	-143.363	-11.082	-6.913	-119.629	-135.522	96.163	146.994	0.00035783	0.00031032	0.00013008	1166.3	6.026e-07	5.8124e-06	1223.1	244.18	3.2136e-06	2.2452e-06	302.28	84.249	64.543	19.781	4.2931e-06	27.242	0.00071097	0.0010837	0.00030792	1150.3	1.0894e-05	1.2013e-05	1209.8	242.63	1.138e-05	1.1915e-05	301.49	84.75	65.052	20.074	1.1159e-05	27.77	161.874	-98.496	-54.328	-147.845	-52.584	-28.423	-148.111	-141.087	-72.948	-2.217	-141.096	-135.144	-133.922	-127.503	-33.572	-127.923	-8191	255	
634.763	1	1	0	0	0.12029	0.12001	0.13863	0.12884	0.075689	0.19348	0.33966	0.21581	0.098835	0.17353	0.21797	0.22402	0.21119	0.080072	0.1563	0.13362	-2.5917	-3.4917	-2.8646	-3.2458	-3.1104	-2.9646	-3.4729	-3.0833	-3.05	-3.4313	-3.0542	-3.1229	-3.3396	-2.8333	-3.4125	-3.2146	1.846	84.309	-37.449	-143.317	-49.099	108.169	124.759	164.614	180.987	-132.572	158.298	108.176	155.195	122.701	45.190	133.302	0.0003367	0.00051423	7.2161e-05	1156.3	2.791e-06	3.7208e-06	1211.7	241.91	2.4648e-06	2.5699e-06	298.28	83.18	63.771	19.666	1.8573e-06	26.89	0.00070518	0.0010842	0.00030541	1139.9	1.0819e-05	1.2549e-05	1201.5	239.86	1.1032e-05	1.1864e-05	298.63	83.913	64.431	19.889	1.079e-05	27.521	163.178	-68.693	-42.274	-147.938	-62.077	1.464	-148.127	-141.350	-44.875	-36.667	-141.044	-135.354	-133.720	-127.003	29.908	-128.053	-8191	255	
634.859	1	1	0	0	0.12514	0.24894	0.23499	0.39863	0.20835	0.10728	0.053142	0.17328	0.21518	0.1088	0.21974	0.056497	0.16831	0.14496	0.06546	0.27391	-2.6063	-3.5083	-3.0875	-3.2167	-3.4417	-2.9792	-3.4125	-3.2125	-3.0438	-3.3854	-3.1042	-3.2208	-3.3354	-2.8375	-3.4021	-3.2188	120.669	190.081	-101.211	199.350	58.567	168.943	-95.637	155.903	-124.559	102.563	-76.798	-143.349	180.920	95.483	-62.625	81.802	0.00032499	0.00045286	0.00010362	1144.8	4.3386e-06	2.4565e-06	1197.4	238.02	3.5707e-06	3.8207e-06	294.94	82.245	63.099	19.461	1.806e-06	26.608	0.00068945	0.0010642	0.00030141	1125.5	1.0327e-05	1.1559e-05	1182.6	236.13	1.053e-05	1.1123e-05	294.29	82.959	63.828	19.695	9.9155e-06	27.3	163.113	-51.268	-58.962	-147.958	-51.161	-43.618	-147.989	-141.145	-68.143	-17.819	-141.403	-134.992	-133.812	-127.323	-68.047	-128.040	-8191	255	
634.955	1	1	0	0	0.067657	0.10462	0.1778	0.096213	0.29621	0.059396	0.29764	0.093447	0.0033914	0.14361	0.14173	0.12448	0.079175	0.18682	0.14965	0.22989	-2.4708	-3.375	-3.0438	-3.3333	-3.4917	-2.9604	-3.5812	-3.2188	-2.9646	-3.3833	-3.1479	-2.9167	-3.3125	-3	-3.2687	-3.4521	32.720	107.027	50.672	165.717	4.058	131.715	158.777	80.839	154.528	-127.550	34.087	102.900	186.816	-142.319	-115.930	-129.052	0.00030047	0.00036884	7.6149e-05	1126.2	1.6465e-06	3.7045e-06	1179	236	4.5672e-06	2.3592e-06	293.24	81.903	63.064	19.334	4.113e-06	26.646	0.00063898	0.00095298	0.00027182	1110.3	9.5058e-06	1.073e-05	1172.1	234.56	9.9328e-06	1.0454e-05	292.69	82.752	63.435	19.558	9.7078e-06	27.164	165.730	-80.752	-81.902	-147.767	-6.691	-4.971	-148.028	-141.069	-72.510	-29.767	-140.681	-135.107	-133.619	-127.026	-37.883	-127.818	-8191	255	
635.076	1	1	0	0	0.07315	0.12932	0.11632	0.14007	0.17926	0.18738	0.26191	0.092565	0.19915	0.17482	0.21684	0.17232	0.16573	0.15106	0.09275	0.085057	-2.3479	-3.3563	-3.0792	-3.1542	-3.4	-2.9417	-3.2542	-3.2854	-2.8187	-3.4437	-3.1813	-2.9708	-3.5167	-2.9479	-3.15	-3.55	-116.592	-106.842	0.008	-154.764	74.685	16.375	90.833	14.563	-77.642	-120.136	137.065	-147.888	-135.037	147.760	-118.261	-82.808	0.00031344	0.00012576	3.7216e-05	1117.1	3.5751e-06	4.694e-06	1175.4	235.44	4.6109e-06	2.9462e-06	291.36	81.551	62.817	19.31	3.7035e-06	26.3	0.00061944	0.00089814	0.00026327	1103.6	9.4031e-06	1.075e-05	1166.9	233.58	1.0188e-05	1.0674e-05	291.8	82.378	63.147	19.501	9.6738e-06	27.037	167.663	-76.512	-71.322	-147.901	-73.899	12.502	-148.079	-141.122	-61.991	-36.665	-140.832	-135.158	-133.704	-126.927	-47.617	-127.731	-8191	255	
635.147	1	1	0	0	0.30644	0.053665	0.24506	0.23144	0.060521	0.13239	0.15533	0.10138	0.29839	0.14416	0.38017	0.23043	0.19078	0.18517	0.11939	0.17246	-2.4188	-3.4542	-3.2042	-2.9458	-3.4708	-2.9521	-3.2604	-3.3417	-2.9021	-3.475	-3.3479	-2.8583	-3.55	-3.0479	-2.925	-3.325	171.829	152.932	-61.822	-73.135	190.708	-147.722	86.505	154.542	-127.590	-52.308	148.210	187.607	-125.343	-71.183	-158.245	-145.846	0.00032242	0.00014774	8.6234e-05	1111.9	1.072e-06	4.8863e-06	1173	233.5	3.2857e-06	2.9939e-06	290.9	81.394	62.301	19.163	3.4581e-06	26.419	0.00064622	0.00093518	0.000272	1100.6	9.6178e-06	1.122e-05	1161.4	231.97	1.0151e-05	1.0921e-05	290.8	81.904	62.821	19.436	1.028e-05	26.954	158.567	-36.517	-85.677	-147.798	7.383	10.056	-147.970	-140.925	-113.353	-40.714	-140.903	-134.981	-133.407	-127.020	21.864	-127.705	-8191	255	
635.268	1	1	0	0	0.099544	0.10733	0.18626	0.052565	0.33788	0.16443	0.22167	0.19383	0.34162	0.094147	0.072936	0.1011	0.14745	0.021051	0.12038	0.099003	-2.5021	-3.2417	-3.0979	-2.9771	-3.3542	-3.1604	-3.2021	-3.4208	-2.9229	-3.1646	-3.4813	-2.9875	-3.3958	-3.0625	-2.9583	-3.3438	-133.714	82.195	-28.780	126.837	-90.718	105.651	140.144	155.251	122.066	32.997	130.144	176.945	174.727	-62.073	-84.317	-110.941	0.00030123	0.00023222	9.9807e-05	1114.7	2.3923e-06	1.4358e-06	1171.3	231.78	1.1342e-06	3.1589e-06	290.15	81.475	62.055	19.135	2.3699e-06	26.39	0.00064899	0.00095793	0.00028152	1097.9	9.5872e-06	1.1168e-05	1158.3	231.21	1.0032e-05	1.1029e-05	290.25	81.83	62.751	19.409	1.0695e-05	26.827	165.388	-90.309	-24.777	-147.852	-79.832	0.383	-148.040	-140.999	-123.991	15.075	-140.622	-134.891	-133.382	-127.241	1.532	-127.806	-8191	255	
635.362	1	1	0	0	0.17359	0.23957	0.18527	0.49644	0.1067	0.15894	0.16804	0.071774	0.16693	0.058257	0.05811	0.14118	0.32855	0.084017	0.11857	0.21743	-2.4333	-3.0833	-3.2042	-3.0229	-3.2854	-2.9854	-3.1875	-3.6396	-3.0146	-3.125	-3.4313	-3.0187	-3.2104	-3.1208	-3.0021	-3.5542	92.735	-92.826	74.215	147.505	-94.986	-14.884	65.149	-98.016	-73.913	-150.641	-88.174	161.936	-135.936	-24.924	-68.899	172.594	0.00031165	0.00027501	9.0749e-05	1109.1	1.7048e-06	3.0229e-06	1171.3	231.62	1.8562e-06	3.3801e-06	289.6	80.903	62.336	19.137	2.5679e-06	26.502	0.00064207	0.0010029	0.0002831	1095.9	9.8893e-06	1.1701e-05	1159.4	230.69	1.0064e-05	1.1168e-05	289.45	81.741	62.652	19.374	1.0396e-05	26.889	166.080	-32.090	-70.935	-147.623	-75.288	-17.370	-148.051	-141.044	-59.947	-13.111	-140.508	-134.970	-133.580	-127.054	0.552	-127.762	-8191	255	
635.459	1	1	0	0	0.19877	0.012394	0.22834	0.21278	0.27202	0.40171	0.090333	0.28369	0.070809	0.15603	0.2751	0.14956	0.1302	0.24016	0.22131	0.16247	-2.6792	-3.0146	-3.475	-3.0646	-3.1229	-3.2354	-3.0146	-3.4062	-3.0167	-3.1188	-3.4708	-2.8	-3.3167	-3.2146	-3.0292	-3.5604	153.798	-150.397	165.745	92.327	-130.422	-134.406	150.550	46.486	6.994	-119.079	69.828	89.230	149.327	109.835	76.750	104.360	0.00030153	5.1774e-05	0.00014019	1114.7	2.4956e-06	2.8192e-06	1169.4	232.49	2.7506e-06	3.9542e-06	290.02	81.414	62.59	19.137	3.0928e-06	26.36	0.00063983	0.0009954	0.00027485	1097.3	9.7592e-06	1.1024e-05	1158.1	230.85	1.053e-05	1.1312e-05	289.75	81.626	62.785	19.35	1.0073e-05	26.935	162.623	-109.461	-81.117	-147.750	-44.380	-1.935	-147.966	-140.980	-45.357	-36.559	-141.087	-135.112	-133.388	-126.977	-54.229	-127.547	-8191	255	
635.555	1	1	0	0	0.20316	0.27845	0.20198	0.088015	0.06791	0.19621	0.23231	0.12236	0.37168	0.064492	0.15122	0.16568	0.15744	0.21747	0.25942	0.15155	-2.5938	-2.8625	-3.275	-3.2313	-3.1125	-3.3458	-3.1792	-3.3521	-3.0229	-2.9521	-3.3438	-3.0417	-3.2562	-3.3479	-2.8042	-3.4479	106.579	-71.076	-74.864	187.583	46.190	-58.122	147.736	118.924	-52.854	-1.024	111.627	49.327	-132.002	153.623	187.166	-128.140	0.00029601	0.00036458	0.0001035	1111.3	2.3598e-06	3.3434e-06	1170.1	232.77	4.5426e-06	4.3622e-06	290.53	80.95	62.546	19.152	4.0532e-06	26.417	0.0006627	0.00096253	0.00027748	1096.6	1.0038e-05	1.1271e-05	1160.2	230.85	1.0237e-05	1.0938e-05	289.53	81.789	62.727	19.411	1.053e-05	26.947	161.379	-81.722	-59.919	-147.662	-64.199	-20.338	-148.178	-141.152	-62.914	-6.343	-140.584	-134.868	-133.497	-127.104	7.060	-127.732	-8191	255	
635.675	1	1	0	0	0.31706	0.13156	0.17426	0.34792	0.13139	0.12276	0.24927	0.051649	0.16488	0.15775	0.14535	0.29143	0.17405	0.19603	0.33253	0.27339	-2.7333	-2.9354	-3.3521	-3.275	-3.2042	-3.4188	-3.0521	-3.3521	-3.1125	-2.9938	-3.45	-3.0604	-3.1417	-3.1875	-2.9313	-3.1	-89.009	80.366	53.390	146.804	-134.807	-79.114	109.991	86.977	162.330	193.001	-7.125	180.865	-133.741	93.534	-37.212	-147.061	0.00030954	0.00013243	6.4522e-05	1109.6	3.2662e-06	2.9262e-06	1168.6	231.44	4.3315e-06	5.6266e-06	288.15	81.759	62.511	19.209	1.6768e-06	26.305	0.00063987	0.00095844	0.0002648	1095.7	9.8966e-06	1.0827e-05	1158.2	230.54	1.0004e-05	1.0995e-05	289.32	81.91	62.877	19.447	1.002e-05	26.98	168.698	-49.192	-32.536	-147.976	-58.606	-29.006	-147.838	-140.801	-61.500	-17.038	-140.997	-134.830	-133.449	-127.171	-43.479	-127.972	-8191	255	
635.747	1	1	0	0	0.22795	0.19683	0.25213	0.094236	0.13459	0.13903	0.29736	0.25939	0.12218	0.077894	0.22801	0.25452	0.091698	0.15065	0.14414	0.11378	-2.8667	-2.9271	-3.2458	-3.0875	-3.1708	-3.4271	-3.0729	-3.2521	-3.1417	-3.0646	-3.3125	-3.0917	-3.1979	-3.4854	-2.9708	-3.3958	117.467	-0.178	-99.472	-117.982	144.343	-110.628	87.385	193.064	78.941	-119.077	108.431	48.965	-21.020	-37.216	64.462	148.283	0.00030043	0.00038768	0.00011148	1111	2.7385e-06	3.9139e-06	1168.5	231.94	3.3198e-06	2.2766e-06	290.97	81.52	62.511	19.144	9.9797e-07	26.282	0.00064178	0.00093446	0.00026866	1097.1	9.6232e-06	1.0752e-05	1157.9	230.98	9.784e-06	1.0543e-05	290.23	81.884	62.847	19.403	9.8171e-06	26.944	167.058	-38.904	-89.447	-147.573	-52.756	-52.924	-148.050	-141.141	-85.145	-35.965	-140.696	-135.100	-133.627	-126.795	-22.390	-127.631	-8191	255	
635.843	1	1	0	0	0.18897	0.23179	0.1165	0.23767	0.15969	0.15289	0.27107	0.17022	0.22739	0.26113	0.057311	0.39015	0.13986	0.23309	0.25652	0.13183	-2.9729	-3.0208	-3.2833	-3.1667	-3.1792	-3.4896	-2.9979	-3.2958	-3.4021	-3.1188	-3.4208	-3.1854	-2.9167	-3.3229	-2.8729	-3.3083	52.805	-109.706	12.510	148.338	-64.714	124.898	164.576	-19.490	-80.033	-131.125	-137.184	184.389	-87.156	39.587	137.318	186.149	0.0003304	0.00042152	4.6201e-05	1113.7	4.3072e-06	5.5782e-06	1169.4	233.66	2.777e-06	5.8038e-06	291.28	81.788	62.653	19.165	2.7432e-06	26.486	0.00063251	0.00099289	0.00026878	1099.6	9.9466e-06	1.0639e-05	1161	231.78	1.0004e-05	1.1048e-05	290.49	82.16	62.838	19.466	9.7368e-06	26.992	167.347	-88.037	-75.303	-147.713	1.912	30.052	-147.925	-140.985	-88.115	-16.430	-141.007	-135.110	-133.658	-126.934	-23.454	-128.040	-8191	255	
#DATA ENDS
