BOXY.EXE: ISS Imagent and Oximeter Data Acquisition Program Version 0.80
Ascii Record File

#ACQ INFORMATION
2  Detector Channels 
16  External MUX Channels 
1  Auxiliary Channels 
5000  Waveform (CCF) Frequency (Hz)
1  Waveforms Skipped 
30  Waveforms Averaged 
1  Cycles Averaged 
16  Acquisitions per Waveform 
10.0806  Updata Rate (Hz) 

#FILE INFORMATION
TRUE -- External MUX Channel results are PARSED.
FALSE -- AC DC and Phase are NOT grouped.
TRUE -- Companion Program Settings File CREATED.
FALSE -- AC data not excluded
FALSE -- DC data not excluded
FALSE -- Phase data not excluded
FALSE -- Auxillary Chn. data not excluded
Tab delimiters

#CALIBRATION STATE
TRUE -- Waveform Calibration Values APPLIED.


#AUX CALIBRATION VALUES
Val Type	aux-1	

Term	1.0000e+00	
Factor	0.0000e+00	


#WF CALIBRATION VALUES
A = Detector Channel
Val Type	A-AC1	A-AC2	A-AC3	A-AC4	A-AC5	A-AC6	A-AC7	A-AC8	A-AC9	A-AC10	A-AC11	A-AC12	A-AC13	A-AC14	A-AC15	A-AC16	A-DC1	A-DC2	A-DC3	A-DC4	A-DC5	A-DC6	A-DC7	A-DC8	A-DC9	A-DC10	A-DC11	A-DC12	A-DC13	A-DC14	A-DC15	A-DC16	A-Ph1	A-Ph2	A-Ph3	A-Ph4	A-Ph5	A-Ph6	A-Ph7	A-Ph8	A-Ph9	A-Ph10	A-Ph11	A-Ph12	A-Ph13	A-Ph14	A-Ph15	A-Ph16	

Term	0.00000e+00	0.00000e+00	0.00000e+00	0.00000e+00	0.00000e+00	0.00000e+00	0.00000e+00	0.00000e+00	0.00000e+00	0.00000e+00	0.00000e+00	0.00000e+00	0.00000e+00	0.00000e+00	0.00000e+00	0.00000e+00	0.00000e+00	0.00000e+00	0.00000e+00	0.00000e+00	0.00000e+00	0.00000e+00	0.00000e+00	0.00000e+00	0.00000e+00	0.00000e+00	0.00000e+00	0.00000e+00	0.00000e+00	0.00000e+00	0.00000e+00	0.00000e+00	0.00000e+00	0.00000e+00	0.00000e+00	0.00000e+00	0.00000e+00	0.00000e+00	0.00000e+00	0.00000e+00	0.00000e+00	0.00000e+00	0.00000e+00	0.00000e+00	0.00000e+00	0.00000e+00	0.00000e+00	0.00000e+00	
Factor	1.00000e+00	1.00000e+00	1.00000e+00	1.00000e+00	1.00000e+00	1.00000e+00	1.00000e+00	1.00000e+00	1.00000e+00	1.00000e+00	1.00000e+00	1.00000e+00	1.00000e+00	1.00000e+00	1.00000e+00	1.00000e+00	1.00000e+00	1.00000e+00	1.00000e+00	1.00000e+00	1.00000e+00	1.00000e+00	1.00000e+00	1.00000e+00	1.00000e+00	1.00000e+00	1.00000e+00	1.00000e+00	1.00000e+00	1.00000e+00	1.00000e+00	1.00000e+00	X	X	X	X	X	X	X	X	X	X	X	X	X	X	X	X	

B = Detector Channel
Val Type	B-AC1	B-AC2	B-AC3	B-AC4	B-AC5	B-AC6	B-AC7	B-AC8	B-AC9	B-AC10	B-AC11	B-AC12	B-AC13	B-AC14	B-AC15	B-AC16	B-DC1	B-DC2	B-DC3	B-DC4	B-DC5	B-DC6	B-DC7	B-DC8	B-DC9	B-DC10	B-DC11	B-DC12	B-DC13	B-DC14	B-DC15	B-DC16	B-Ph1	B-Ph2	B-Ph3	B-Ph4	B-Ph5	B-Ph6	B-Ph7	B-Ph8	B-Ph9	B-Ph10	B-Ph11	B-Ph12	B-Ph13	B-Ph14	B-Ph15	B-Ph16	

Term	0.00000e+00	0.00000e+00	0.00000e+00	0.00000e+00	0.00000e+00	0.00000e+00	0.00000e+00	0.00000e+00	0.00000e+00	0.00000e+00	0.00000e+00	0.00000e+00	0.00000e+00	0.00000e+00	0.00000e+00	0.00000e+00	0.00000e+00	0.00000e+00	0.00000e+00	0.00000e+00	0.00000e+00	0.00000e+00	0.00000e+00	0.00000e+00	0.00000e+00	0.00000e+00	0.00000e+00	0.00000e+00	0.00000e+00	0.00000e+00	0.00000e+00	0.00000e+00	-1.66874e+02	-1.31149e+02	-1.23274e+02	-1.81197e+02	-8.08868e+01	-6.69930e+01	-1.55623e+02	-1.62015e+02	-8.55906e+01	-6.15622e+01	-1.70159e+02	-1.69445e+02	-1.78137e+02	-1.75061e+02	-7.32031e+01	-1.48439e+02	
Factor	2.75494e-05	1.84498e-04	5.05242e-05	1.55230e-01	1.47176e-06	1.96328e-06	1.79019e-01	6.63743e-02	1.70374e-06	1.96810e-06	1.39122e-01	2.85069e-02	2.34487e-02	9.27554e-03	1.78204e-06	1.36717e-02	1.70489e-05	3.44555e-05	9.70341e-06	7.75244e-02	3.20128e-07	3.90521e-07	8.40011e-02	3.32531e-02	3.36799e-07	3.92224e-07	6.72449e-02	1.38968e-02	1.19525e-02	4.70239e-03	3.47354e-07	6.70891e-03	X	X	X	X	X	X	X	X	X	X	X	X	X	X	X	X	



#DISTANCE SETTINGS
A = Detector Channel
A-1	A-2	A-3	A-4	A-5	A-6	A-7	A-8	A-9	A-10	A-11	A-12	A-13	A-14	A-15	A-16	

2.5000e+00	3.0000e+00	2.5000e+00	3.0000e+00	2.0000e+00	3.0000e+00	1.5000e+00	3.0000e+00	3.0000e+00	3.0000e+00	3.0000e+00	3.0000e+00	3.0000e+00	3.0000e+00	1.5000e+00	3.0000e+00	

B = Detector Channel
B-1	B-2	B-3	B-4	B-5	B-6	B-7	B-8	B-9	B-10	B-11	B-12	B-13	B-14	B-15	B-16	

1.0000e+01	1.0000e+01	1.0000e+01	1.4400e+00	1.0000e+01	1.0000e+01	1.5100e+00	1.9400e+00	1.0000e+01	1.0000e+01	1.9900e+00	2.4900e+00	2.4100e+00	2.9000e+00	1.0000e+01	2.9800e+00	




#DATA BEGINS
time	group	step	mark	flag	A-AC1	A-AC2	A-AC3	A-AC4	A-AC5	A-AC6	A-AC7	A-AC8	A-AC9	A-AC10	A-AC11	A-AC12	A-AC13	A-AC14	A-AC15	A-AC16	A-DC1	A-DC2	A-DC3	A-DC4	A-DC5	A-DC6	A-DC7	A-DC8	A-DC9	A-DC10	A-DC11	A-DC12	A-DC13	A-DC14	A-DC15	A-DC16	A-Ph1	A-Ph2	A-Ph3	A-Ph4	A-Ph5	A-Ph6	A-Ph7	A-Ph8	A-Ph9	A-Ph10	A-Ph11	A-Ph12	A-Ph13	A-Ph14	A-Ph15	A-Ph16	B-AC1	B-AC2	B-AC3	B-AC4	B-AC5	B-AC6	B-AC7	B-AC8	B-AC9	B-AC10	B-AC11	B-AC12	B-AC13	B-AC14	B-AC15	B-AC16	B-DC1	B-DC2	B-DC3	B-DC4	B-DC5	B-DC6	B-DC7	B-DC8	B-DC9	B-DC10	B-DC11	B-DC12	B-DC13	B-DC14	B-DC15	B-DC16	B-Ph1	B-Ph2	B-Ph3	B-Ph4	B-Ph5	B-Ph6	B-Ph7	B-Ph8	B-Ph9	B-Ph10	B-Ph11	B-Ph12	B-Ph13	B-Ph14	B-Ph15	B-Ph16	aux-1	digaux	

580.288	1	1	0	256	0.11676	0.079526	0.060683	0.085709	0.16846	0.074731	0.15431	0.10266	0.095766	0.026603	0.14561	0.19567	0.41552	0.27159	0.20689	0.076552	-2.9583	-3.175	-2.9292	-3.5333	-2.9354	-3.1354	-3.6146	-2.9188	-3.3604	-3.2979	-3.0083	-3.5271	-3.1729	-3.0521	-3.3854	-3.0375	66.003	-83.836	-28.710	100.351	-66.147	21.692	71.450	71.207	151.775	-121.228	-153.042	-136.681	159.888	-157.779	-87.671	-30.582	0.00032329	0.00028511	2.2137e-05	1239.4	2.5659e-06	2.9136e-06	1305.9	265.73	4.7997e-06	5.0819e-06	322.88	89.787	71.266	20.982	3.5323e-06	28.781	0.001706	0.0031853	0.00090628	1226.2	3.015e-05	3.5655e-05	1294.7	264.96	3.1044e-05	3.6336e-05	328.37	90.98	72.325	21.479	3.1808e-05	29.735	167.880	-95.305	159.877	-148.541	-9.086	23.280	-148.720	-142.247	-49.091	-15.955	-141.734	-136.436	-136.071	-128.504	-30.286	-128.907	-8191	255	
580.384	1	1	0	0	0.19581	0.049181	0.22034	0.25615	0.31222	0.30013	0.14378	0.14447	0.094593	0.14001	0.22367	0.21819	0.1649	0.2166	0.30837	0.12867	-2.9646	-3.2521	-2.9292	-3.4708	-3.1167	-2.9979	-3.6813	-3.1146	-3.2958	-3.3833	-3.0625	-3.4604	-3.3583	-3.0938	-3.5146	-2.9667	59.364	-152.413	-119.771	128.395	-22.881	-41.820	-11.485	180.793	-87.707	-69.022	131.564	-153.940	176.734	176.746	-81.682	-91.520	0.00030016	0.00026504	8.7807e-05	1241.9	4.7085e-06	2.2497e-06	1296.8	264	8.0273e-06	3.6137e-06	324.48	89.718	71.097	20.902	1.7533e-06	28.555	0.001718	0.0032209	0.00087672	1226.7	3.0575e-05	3.6676e-05	1292.1	264.56	3.2384e-05	3.7354e-05	328.36	91.025	72.375	21.431	3.3316e-05	29.665	160.196	-96.929	-46.329	-148.611	-85.572	34.539	-149.070	-142.301	-81.811	-9.037	-141.932	-135.887	-136.042	-128.534	-104.330	-128.635	-8191	255	
580.504	1	1	0	0	0.088475	0.076531	0.17486	0.07484	0.30176	0.049777	0.34491	0.28032	0.14731	0.088991	0.084064	0.15945	0.1921	0.17512	0.064903	0.13563	-2.9021	-3.475	-2.9021	-3.5771	-3.3458	-3.0042	-3.625	-3.1833	-3.2417	-3.3854	-2.9854	-3.2646	-3.3229	-3.0833	-3.3688	-2.9542	163.580	-159.031	178.275	124.962	43.056	-40.556	157.262	-127.478	-6.895	-66.313	17.520	186.588	189.152	113.913	-119.700	129.586	0.0003679	0.00066853	0.00016759	1242.8	2.638e-07	5.5043e-06	1302.3	263.69	4.0876e-06	2.2379e-06	325.49	89.599	71.288	21.013	2.5872e-06	28.858	0.0018239	0.0032502	0.0009438	1229.7	3.1664e-05	3.672e-05	1296.3	265.12	3.1625e-05	3.6385e-05	328.55	91.031	72.557	21.568	3.231e-05	29.862	166.750	-92.958	-47.379	-148.487	-78.365	2.119	-149.009	-141.931	-84.129	-21.007	-141.777	-136.188	-135.798	-128.408	-13.249	-129.077	-8191	255	
580.576	1	1	0	0	0.15185	0.11145	0.1007	0.19598	0.11195	0.25245	0.13097	0.097164	0.0018145	0.12934	0.2692	0.053327	0.066555	0.14681	0.18734	0.20654	-2.6229	-3.2896	-2.9979	-3.4458	-3.4125	-3.1188	-3.7146	-3.2021	-3.0729	-3.5458	-3.1667	-3.3521	-3.5938	-2.9625	-3.5229	-3.1937	49.051	74.414	182.463	163.018	160.677	192.495	116.905	-92.825	180.000	97.812	196.955	-11.136	-94.461	-129.706	29.559	142.598	0.00036884	0.00066061	6.2274e-05	1243.9	4.4713e-06	2.9707e-06	1301.2	265.2	3.6836e-06	5.6639e-06	324.66	89.907	71.555	20.812	4.5932e-06	28.641	0.0017212	0.0031525	0.00090019	1231.4	2.9976e-05	3.531e-05	1296.9	265.25	3.1565e-05	3.5446e-05	328.34	91.188	72.515	21.446	3.1427e-05	29.682	158.351	-88.666	22.795	-148.691	31.196	-43.727	-148.841	-142.327	-41.183	-33.011	-142.119	-135.952	-135.672	-128.367	-43.370	-128.739	-8191	255	
580.672	1	1	0	0	0.12441	0.15809	0.18275	0.092496	0.12034	0.29709	0.29159	0.20006	0.17834	0.01343	0.093785	0.1871	0.1595	0.25254	0.088099	0.017989	-2.6875	-3.5125	-3.1333	-3.3583	-3.4542	-2.9542	-3.4854	-3.3063	-2.9646	-3.3083	-3.1562	-3.1583	-3.3583	-2.7542	-3.5917	-3.2062	124.157	-102.167	-42.678	31.979	-125.177	-128.655	140.450	135.251	50.361	2.948	-47.239	-136.173	142.334	124.303	185.115	-40.241	0.0003089	0.00080163	0.00010854	1244.1	4.2985e-06	7.674e-06	1300.5	264.34	3.9448e-06	1.2162e-06	326.18	89.264	71.453	20.915	2.171e-06	28.559	0.0017191	0.0031141	0.00087312	1230.1	2.9336e-05	3.4915e-05	1293.6	264.73	3.0457e-05	3.4382e-05	328.65	90.714	72.185	21.441	2.8995e-05	29.615	164.162	-102.868	-33.712	-148.527	-20.752	-63.919	-148.908	-142.306	-10.237	17.446	-141.952	-135.806	-135.590	-128.170	18.879	-128.736	-8191	255	
580.768	1	1	0	0	0.11437	0.17672	0.036762	0.1397	0.094108	0.088728	0.15058	0.20664	0.017712	0.15217	0.2267	0.034944	0.13017	0.27614	0.18911	0.14191	-2.5833	-3.4292	-3.1437	-3.3708	-3.4521	-2.9354	-3.3854	-3.1979	-2.9854	-3.6896	-3.1354	-3.2083	-3.5354	-2.9896	-3.3896	-3.4708	188.039	21.801	-140.458	117.470	36.536	139.117	160.316	131.843	156.593	-40.341	62.704	-26.059	184.400	-146.082	-91.003	-147.992	0.00036786	0.00036846	7.0115e-05	1230.6	2.6488e-06	2.8076e-06	1291.8	262.97	2.4731e-06	4.6454e-06	322.66	88.784	70.463	20.793	2.5981e-06	28.542	0.0015931	0.0028561	0.00079631	1219.6	2.6461e-05	3.064e-05	1285.1	262.84	2.6613e-05	3.0234e-05	324.9	90.105	71.586	21.246	2.6216e-05	29.418	163.434	1.566	-34.181	-148.345	-39.449	2.116	-148.943	-142.015	-14.368	-13.423	-142.078	-135.769	-135.816	-128.495	-24.764	-128.894	-8191	255	
580.887	1	1	0	0	0.11285	0.081722	0.13452	0.33362	0.16402	0.24574	0.12537	0.089682	0.16056	0.21508	0.16538	0.065058	0.079985	0.14271	0.22252	0.2336	-2.5271	-3.5333	-2.9375	-3.2771	-3.4667	-3.075	-3.2375	-3.5271	-2.9771	-3.4604	-3.3417	-3.1875	-3.5125	-3.1292	-3.1375	-3.3937	-19.313	127.904	-103.634	157.578	109.860	5.111	-79.918	-91.743	-75.142	14.028	-87.930	63.478	184.591	145.018	139.618	166.154	0.00033907	0.00026773	0.00013377	1220.7	5.1658e-06	3.4152e-06	1276.8	259.47	4.2468e-06	2.084e-06	320.69	88.952	69.965	20.592	1.119e-06	28.55	0.0014327	0.0025203	0.00070936	1207.7	2.3879e-05	2.8105e-05	1271.8	260.06	2.4087e-05	2.65e-05	322.82	89.735	70.898	21.063	2.3448e-05	29.249	163.972	-109.419	-32.135	-148.659	-62.021	-44.997	-148.726	-141.970	-128.557	-39.769	-141.840	-136.092	-136.035	-128.115	-7.315	-128.472	-8191	255	
580.983	1	1	0	0	0.14877	0.30817	0.10982	0.17598	0.1864	0.094718	0.084825	0.13044	0.29968	0.13762	0.027632	0.0093041	0.18632	0.046133	0.19511	0.34254	-2.6083	-3.4375	-3.3854	-3.2208	-3.4854	-3.1063	-3.4042	-3.5312	-3.0833	-3.35	-3.325	-3.1833	-3.65	-3.0958	-3.1562	-3.5542	-56.565	24.500	-82.348	-131.095	165.313	-15.788	-143.836	129.664	-140.021	164.347	-130.024	-73.394	139.446	-37.486	-126.524	-30.103	0.00033372	0.00040967	0.00015818	1204.1	1.4355e-06	1.4016e-06	1259.7	257.81	1.5875e-06	3.9911e-06	317.2	87.751	69.876	20.528	5.653e-06	28.437	0.0012825	0.0022499	0.00064346	1189.3	2.1539e-05	2.5675e-05	1254.7	257.84	2.3275e-05	2.6006e-05	319.41	89.138	70.649	21.002	2.4334e-05	29.164	162.235	-87.611	-84.564	-148.510	-48.321	55.731	-148.843	-142.051	-87.650	-39.295	-141.615	-135.576	-135.519	-128.338	-25.797	-128.782	-8191	255	
581.080	1	1	0	0	0.18988	0.040125	0.14636	0.18336	0.10207	0.17032	0.36384	0.13408	0.17624	0.36654	0.20818	0.22008	0.067458	0.086318	0.12896	0.23861	-2.5208	-3.0812	-3.3979	-3.1667	-3.4083	-2.9813	-3.2313	-3.5792	-3.1771	-3.3667	-3.5125	-3.1875	-3.4729	-3.1771	-3.1146	-3.6083	-155.436	18.014	40.662	94.099	152.206	-86.159	106.653	145.326	-57.787	-93.224	-101.445	81.195	89.948	-47.692	-81.077	189.260	0.00028848	0.00060234	6.4419e-05	1202.6	2.6337e-06	4.3871e-06	1267.8	257.39	3.3987e-06	3.1849e-06	318.33	88.384	70.043	20.741	2.9741e-06	28.45	0.0013174	0.0023294	0.00066543	1188	2.1953e-05	2.6533e-05	1257.6	257.71	2.2398e-05	2.5181e-05	320.21	89.474	70.887	21.127	2.2168e-05	29.264	162.185	-52.999	-91.845	-148.511	-122.616	1.984	-148.893	-141.854	-96.077	-16.610	-142.028	-135.845	-135.669	-128.148	-25.606	-128.503	-8191	255	
581.176	1	1	0	0	0.15798	0.16804	0.19041	0.25199	0.083113	0.15248	0.13305	0.12318	0.1199	0.14678	0.25684	0.34863	0.12911	0.28193	0.032504	0.23619	-2.6729	-3.2	-3.4271	-3.0667	-3.3917	-3.2938	-3.1896	-3.525	-3.1646	-3.1958	-3.3604	-3.0229	-3.3937	-3.4208	-3.0271	-3.5542	-49.637	-25.687	-15.396	142.020	-94.155	84.928	-141.926	-57.402	52.175	45.811	-121.917	196.897	-38.799	-67.189	80.564	-59.112	0.00033083	0.00059637	8.0139e-05	1194.7	1.1083e-06	4.8676e-06	1261.1	256.74	5.1454e-06	3.7466e-06	315.28	87.543	69.777	20.474	3.4696e-06	28.435	0.001244	0.0021342	0.00060131	1181.9	2.0522e-05	2.4844e-05	1247.1	256.73	2.2114e-05	2.4922e-05	318.21	88.678	70.235	20.983	2.3101e-05	29.125	162.267	-13.155	-105.495	-148.396	-91.301	11.550	-148.727	-141.998	-63.585	-60.534	-141.698	-135.657	-135.331	-128.396	-35.590	-128.942	-8191	255	
581.272	1	1	0	0	0.13173	0.092537	0.11986	0.091197	0.20035	0.11694	0.11137	0.11434	0.20669	0.19014	0.15022	0.19019	0.16694	0.35387	0.21691	0.20729	-2.7042	-3.4188	-3.4167	-2.9875	-3.3812	-3.2646	-3.3167	-3.5062	-3.025	-3.1083	-3.5604	-3.0687	-3.3125	-3.0875	-2.9292	-3.5104	90.741	-21.608	-124.894	-76.368	-129.070	-69.544	-65.647	148.954	176.699	34.028	165.586	-119.460	42.160	186.512	116.569	144.664	0.00034114	0.00031661	7.9542e-05	1194.2	1.4934e-06	3.3705e-06	1264.3	259.41	5.4627e-06	3.5491e-06	320.74	89.901	71.294	21.127	4.0123e-06	28.923	0.0012699	0.0022329	0.00063432	1182	2.1398e-05	2.5063e-05	1255.1	258.58	2.1367e-05	2.3483e-05	322.64	90.601	71.918	21.581	2.2077e-05	29.73	168.296	-72.822	-28.164	-148.518	-34.271	-15.969	-148.749	-141.994	-36.932	36.852	-141.832	-135.896	-135.413	-128.501	-41.396	-128.846	-8191	255	
581.368	1	1	0	0	0.10407	0.16322	0.11227	0.24862	0.18783	0.17269	0.035532	0.17694	0.12733	0.072249	0.12772	0.26849	0.35222	0.080568	0.094671	0.043998	-2.7417	-3	-3.4458	-3.0021	-3.1542	-3.4229	-3.1083	-3.7229	-3.2521	-3.0042	-3.4979	-3.0625	-3.4125	-3.3979	-3.2271	-3.3812	141.671	-30.877	-32.987	142.285	-12.440	182.305	-142.712	-114.217	-31.252	-71.075	12.055	-150.856	-158.662	-37.765	-139.110	18.305	0.00038765	0.00059178	9.7906e-05	1216.7	2.989e-06	2.9189e-06	1268.5	260.73	4.6093e-06	1.8621e-06	317.96	88.574	69.964	20.58	1.1599e-06	28.457	0.0012984	0.002285	0.00064609	1198.7	2.2528e-05	2.754e-05	1262.8	259.66	2.5211e-05	2.9121e-05	320.87	89.488	70.757	21.087	2.785e-05	29.251	153.283	-124.619	-73.750	-148.567	-61.356	12.956	-148.760	-141.730	-66.140	26.637	-142.012	-135.410	-135.369	-128.181	-71.244	-129.015	-8191	255	
581.464	1	1	0	0	0.18097	0.22923	0.084655	0.11093	0.15183	0.16998	0.12211	0.04885	0.28142	0.17335	0.16448	0.080735	0.28314	0.048821	0.1283	0.16076	-2.9625	-3.0938	-3.3604	-3.1	-3.2417	-3.2479	-3.2687	-3.2896	-3.3979	-2.9854	-3.3688	-3.0958	-3.2583	-3.5396	-2.7938	-3.3896	198.218	136.962	117.837	134.134	36.523	-112.300	-49.746	76.764	59.256	-121.501	131.984	109.135	139.490	-66.025	-74.085	99.078	0.00034542	0.00042045	7.2372e-05	1203.5	1.3425e-06	2.4141e-06	1269	256.37	2.1547e-06	2.8155e-06	312.91	86.823	68.778	20.041	3.9383e-06	27.716	0.0015457	0.002788	0.00078927	1191.6	2.8153e-05	3.3305e-05	1259	256.74	3.1868e-05	3.6062e-05	318.04	88.255	69.867	20.64	3.2135e-05	28.518	165.221	-42.775	-37.329	-148.624	-42.610	-21.790	-148.771	-141.983	182.534	-6.897	-142.026	-135.846	-135.687	-127.935	-34.645	-128.432	-8191	255	
581.585	1	1	0	0	0.22102	0.24928	0.15053	0.066273	0.091031	0.1967	0.073913	0.20392	0.12778	0.060317	0.28738	0.23026	0.13884	0.16293	0.15752	0.2914	-2.9375	-3.0792	-3.4521	-3.1896	-3.1771	-3.5687	-3.2875	-3.2729	-3.4188	-3.0292	-3.325	-3.225	-3.0167	-3.4104	-2.9625	-3.4458	180.160	159.524	-94.080	128.980	-121.111	73.569	147.172	94.491	175.340	59.449	73.326	-14.595	170.591	-154.443	-49.257	-128.815	0.00033699	0.00021697	0.00012335	1165.2	2.2369e-06	1.2164e-06	1220	244.99	3.112e-06	6.1769e-06	302.44	84.545	66.457	19.364	2.532e-06	26.495	0.0016859	0.0030182	0.0008274	1154.9	2.7572e-05	3.1833e-05	1213.5	244.92	2.7377e-05	3.1232e-05	304.95	85.265	67.136	19.858	2.5574e-05	27.514	162.877	-82.361	-99.655	-148.486	-78.410	143.942	-148.461	-141.693	-93.530	5.678	-141.736	-135.744	-135.424	-127.643	-32.345	-128.292	-8191	255	
581.681	1	1	0	0	0.3393	0.1457	0.10188	0.16541	0.11111	0.15912	0.43976	0.14075	0.18304	0.08694	0.25346	0.14869	0.068889	0.35533	0.13391	0.10767	-2.8396	-2.8979	-3.4167	-3.3271	-2.9188	-3.4083	-3.1354	-3.1813	-3.2104	-3.0938	-3.3604	-3.2812	-3.2333	-3.4437	-3.0687	-3.3542	76.536	3.360	35.583	-91.733	131.227	-79.053	146.281	127.824	133.541	-8.672	99.031	199.639	100.297	144.270	33.294	154.355	0.00032057	0.00015149	8.253e-05	1125.7	1.4519e-06	4.375e-06	1179.6	236.52	1.8657e-06	1.7462e-06	291.46	82.509	65.312	19.078	3.4557e-06	26.409	0.0013828	0.0025095	0.0006756	1111.2	2.3515e-05	2.7213e-05	1171.3	236.63	2.3821e-05	2.6246e-05	295.35	83.478	65.658	19.542	2.3936e-05	27.315	171.364	3.832	-78.879	-148.387	-58.582	-51.493	-148.446	-141.386	-55.034	-37.018	-141.473	-135.275	-135.082	-127.671	-26.606	-128.095	-8191	255	
581.777	1	1	0	0	0.15817	0.3044	0.11983	0.11807	0.15076	0.22882	0.15453	0.13943	0.15587	0.069943	0.16773	0.2495	0.27193	0.27338	0.10277	0.22562	-3.0083	-2.8958	-3.2812	-3.2854	-3.0125	-3.3979	-3.2333	-3.2521	-3.4833	-3.1458	-3.3146	-3.425	-2.8812	-3.3417	-3.1646	-3.1104	-17.382	-70.927	-152.748	134.053	-98.375	-0.949	79.884	184.212	-124.819	-22.966	-86.664	117.023	73.106	55.104	-10.850	104.716	0.00030986	0.0002734	1.8826e-05	1115.9	1.4802e-06	7.6066e-06	1177.5	236.41	1.2348e-06	5.1623e-06	293.6	82.395	65.114	19.087	3.8733e-06	26.664	0.0013263	0.0023822	0.00066139	1105.6	2.3344e-05	2.7471e-05	1169.3	236.47	2.4927e-05	2.7873e-05	296.03	83.204	65.716	19.496	2.4168e-05	27.369	165.685	-119.330	-27.740	-148.301	-65.411	29.306	-148.582	-141.480	-118.719	-15.805	-141.290	-135.494	-135.033	-127.390	81.370	-128.132	-8191	255	
581.873	1	1	0	0	0.11749	0.06622	0.25875	0.20169	0.18967	0.16248	0.26942	0.063378	0.20918	0.14138	0.28434	0.087202	0.31985	0.14368	0.25355	0.15292	-3.0979	-3.0229	-3.4062	-3.5083	-2.9875	-3.4958	-3.3958	-3.2917	-3.5146	-3.0062	-3.5083	-3.5917	-2.8063	-3.2896	-3.2729	-3.1167	147.075	171.610	-152.897	154.296	121.026	-95.821	162.478	80.999	173.930	142.766	97.301	-18.440	168.449	-58.026	-73.931	159.921	0.00032695	0.00057916	7.1348e-05	1114.3	2.1233e-06	2.734e-06	1176.9	235.77	2.0538e-06	1.3394e-06	291.8	82.21	64.797	19.134	3.008e-06	26.45	0.0012859	0.0022728	0.00063042	1101.9	2.1198e-05	2.4716e-05	1166	235.24	2.1516e-05	2.4644e-05	294.53	82.993	65.35	19.495	2.1528e-05	27.242	166.281	-54.256	-98.624	-148.248	-44.192	-118.804	-148.470	-141.459	-91.909	138.824	-141.729	-135.496	-135.189	-127.528	-33.417	-128.166	-8191	255	
581.968	1	1	0	0	0.17329	0.17952	0.052316	0.23824	0.31428	0.18292	0.27843	0.1315	0.12914	0.23639	0.063671	0.16125	0.075829	0.08707	0.08528	0.039358	-3.1375	-2.9875	-3.2354	-3.5062	-2.9167	-3.3104	-3.3292	-2.9813	-3.4042	-3.1208	-3.2667	-3.4958	-3.1375	-3.4042	-3.3396	-2.875	-10.957	-36.958	-51.294	123.762	-60.290	-14.979	122.651	98.555	60.348	-33.141	-71.394	179.638	118.524	31.893	-0.291	113.243	0.00029554	0.00032197	5.5369e-05	1116.3	1.8716e-06	4.5752e-06	1174.1	235.19	3.2208e-06	2.4827e-06	293.88	81.772	64.535	19.039	5.8076e-06	26.664	0.0012157	0.0021209	0.00059955	1099	2.0714e-05	2.4454e-05	1165.2	235.2	2.1758e-05	2.5125e-05	295.39	83.05	65.614	19.52	2.3203e-05	27.402	160.920	-84.769	-34.607	-148.107	-48.614	-6.331	-148.519	-141.785	-10.845	-13.271	-141.599	-135.317	-135.203	-127.828	-26.419	-128.326	-8191	255	
582.064	1	1	0	0	0.19649	0.10698	0.2223	0.062669	0.2319	0.13044	0.19904	0.17307	0.12864	0.27974	0.17206	0.1821	0.20425	0.15383	0.12402	0.1187	-3.1021	-3.2354	-2.8729	-3.6021	-3.1396	-3.1875	-3.4583	-3.1292	-3.4021	-3.1167	-3.1229	-3.6771	-2.8937	-3.2062	-3.3917	-3.0479	87.959	-144.976	-154.083	-21.973	34.809	-111.797	119.246	161.226	-89.207	-86.366	-16.171	193.431	143.592	155.207	30.012	-155.594	0.00032852	0.00049084	0.00012212	1120.4	4.3513e-06	5.6046e-06	1181.2	236.67	6.6729e-06	4.6545e-06	291.35	81.877	64.827	19.196	1.4864e-06	26.402	0.0013009	0.0023916	0.00068138	1105.7	2.3733e-05	2.8264e-05	1173.5	236.73	2.4132e-05	2.8126e-05	295.74	83.043	65.637	19.521	2.4518e-05	27.213	161.551	-58.078	-107.285	-148.350	-10.911	-17.022	-148.539	-141.608	-52.946	4.513	-141.383	-135.297	-135.020	-127.778	-8.279	-128.313	-8191	255	
582.184	1	1	0	0	0.098897	0.24526	0.10011	0.065905	0.14788	0.11556	0.16491	0.093402	0.035624	0.13834	0.35298	0.10499	0.079903	0.088846	0.056103	0.046649	-3.0104	-3.3	-3.0146	-3.7146	-2.9854	-3.2	-3.5521	-3.1688	-3.5083	-3.1229	-3.1167	-3.5812	-3.0792	-3.1188	-3.3688	-2.9813	185.472	199.005	-116.131	91.877	12.043	-91.598	123.947	174.869	90.981	-29.943	-145.261	-43.199	-149.964	124.088	198.899	28.733	0.00034056	0.00025556	7.5388e-05	1121.4	2.4443e-06	3.774e-06	1182.6	237.29	3.5625e-06	1.6543e-06	292.28	81.988	64.951	19.135	3.733e-06	26.692	0.0013327	0.0023313	0.00064978	1108.2	2.1927e-05	2.5429e-05	1173.4	236	2.3499e-05	2.7254e-05	296.1	83.32	65.897	19.59	2.7165e-05	27.574	158.557	-38.849	-37.435	-148.378	-15.876	-9.564	-148.571	-141.546	-33.310	-47.471	-141.405	-135.760	-135.456	-127.693	-150.326	-128.272	-8191	255	
582.281	1	1	0	0	0.25697	0.10248	0.18185	0.22401	0.15741	0.15	0.27058	0.14307	0.15581	0.096635	0.0871	0.23689	0.30039	0.35183	0.25882	0.14974	-2.975	-3.2208	-2.9208	-3.6833	-3.0438	-3.2875	-3.5312	-3.0187	-3.3646	-3.3021	-3.0583	-3.4458	-3.05	-3.0542	-3.6125	-3.0667	-5.877	83.907	103.452	181.047	-56.431	-143.813	186.599	112.857	171.382	-6.116	103.912	123.559	193.146	198.630	-102.443	-157.994	0.00039733	0.00034221	0.00018821	1143.7	2.0198e-06	5.3095e-06	1206.7	240.81	4.4143e-06	1.9077e-06	298.64	83.464	66.431	19.46	3.0389e-06	26.906	0.0015629	0.002868	0.00083023	1132.8	2.9764e-05	3.4864e-05	1203	241.5	3.1023e-05	3.6385e-05	303.42	84.992	67.384	19.967	3.2178e-05	27.897	166.690	-114.783	-68.300	-148.446	-110.430	-51.961	-148.651	-141.756	-45.709	5.844	-141.459	-135.732	-135.495	-127.783	-32.145	-128.186	-8191	255	
582.377	1	1	0	0	0.16836	0.11878	0.16	0.24388	0.070973	0.14688	0.18568	0.079103	0.27291	0.14764	0.11847	0.084032	0.28589	0.056978	0.2736	0.13188	-3.1208	-3.1875	-2.8854	-3.5125	-3.2313	-3.2021	-3.5708	-3.0208	-3.3438	-3.5021	-2.9896	-3.4	-3.3333	-3.2938	-3.4688	-2.9	8.440	86.899	162.584	132.574	88.468	143.661	95.609	164.431	39.021	108.015	200.098	197.788	166.392	82.732	146.143	197.351	0.00031451	0.00040282	0.00012354	1160.3	4.6357e-06	4.5892e-06	1221.1	241.92	1.2189e-06	4.317e-06	299.55	83.479	66.364	19.566	4.9841e-06	27.155	0.0016711	0.0031258	0.00086518	1148.6	2.8898e-05	3.3837e-05	1214.1	243.16	2.8426e-05	3.3496e-05	303.9	85.044	67.366	20.008	2.8771e-05	27.901	171.143	-49.249	-68.584	-148.375	-99.699	-42.069	-148.637	-141.807	-144.344	-24.917	-141.845	-135.485	-135.474	-127.662	-9.585	-127.838	-8191	255	
582.448	1	1	0	0	0.17015	0.12836	0.18823	0.062686	0.055339	0.15051	0.28074	0.22153	0.199	0.20241	0.021414	0.072427	0.27157	0.068084	0.15648	0.068219	-2.8875	-3.1958	-2.8187	-3.5083	-3.1437	-3.2687	-3.6312	-2.9667	-3.2604	-3.425	-2.9521	-3.35	-3.3208	-3.0104	-3.4688	-3.0563	-76.159	-77.463	-135.081	86.072	109.305	-32.981	-98.224	-121.840	38.786	39.312	58.572	-60.475	159.022	36.139	-77.130	-153.361	0.00030659	0.0004095	6.0915e-05	1157.2	2.4821e-06	2.872e-06	1206.4	241.43	3.207e-06	3.1073e-06	298.16	82.953	66.194	19.284	4.3514e-06	26.757	0.0015487	0.0028547	0.00079976	1143.9	2.6999e-05	3.2202e-05	1202.3	242.13	2.7643e-05	3.1268e-05	302.46	84.383	66.889	19.814	2.7079e-05	27.712	158.934	-96.192	-48.413	-148.390	-103.316	82.279	-148.606	-141.886	-72.029	-69.089	-141.658	-135.550	-135.123	-127.716	-29.216	-128.656	-8191	255	
582.569	1	1	0	0	0.15154	0.091239	0.11346	0.18389	0.079063	0.28411	0.19432	0.1871	0.12043	0.081125	0.13261	0.082663	0.077975	0.2213	0.14541	0.090485	-2.7542	-3.375	-2.8521	-3.4542	-3.1458	-3.1708	-3.3563	-3.2313	-3.0708	-3.3979	-3.0458	-3.3	-3.4042	-2.95	-3.4583	-2.9792	-13.234	66.796	-123.445	176.136	1.564	118.108	172.469	162.787	-143.417	-98.563	-126.962	-150.500	74.932	-106.419	7.451	67.986	0.00029052	0.00042035	4.1569e-05	1144.4	1.5883e-06	4.2168e-06	1198.1	239.52	3.1004e-06	2.4956e-06	297.09	83.021	66.047	19.356	3.4016e-06	26.847	0.0014718	0.0026579	0.00073315	1132.3	2.4805e-05	2.8654e-05	1194.4	240.21	2.4927e-05	2.8237e-05	300.53	83.897	66.596	19.754	2.466e-05	27.709	157.422	-151.519	6.884	-148.416	-23.590	-16.476	-148.552	-141.647	-45.143	18.291	-141.220	-135.533	-135.171	-127.863	-49.249	-128.471	-8191	255	
582.665	1	1	0	0	0.21306	0.21632	0.26993	0.1505	0.19549	0.21342	0.066104	0.12196	0.10184	0.19669	0.13299	0.12574	0.17399	0.030406	0.23929	0.10909	-2.6917	-3.3354	-2.8417	-3.2854	-3.4208	-2.825	-3.4938	-3.325	-3.2542	-3.3417	-2.975	-3.4188	-3.4646	-2.925	-3.4354	-3.2625	136.417	-78.359	11.482	-151.718	94.141	-50.663	99.894	60.334	154.124	172.563	25.137	-127.404	164.308	196.329	-89.775	102.498	0.00032393	0.00048407	6.1892e-05	1142.8	2.5999e-06	2.1182e-06	1201.5	240.57	4.8554e-06	4.918e-06	298.53	83.086	66.229	19.276	2.088e-06	26.809	0.0013561	0.0024565	0.000698	1130.5	2.3459e-05	2.7965e-05	1193.5	240.39	2.5162e-05	2.7903e-05	299.56	84.182	66.605	19.787	2.4448e-05	27.683	159.507	-51.580	-99.394	-148.335	-24.404	-86.173	-148.618	-141.310	-87.650	-19.301	-141.297	-135.527	-135.140	-127.722	-36.938	-128.090	-8191	255	
582.761	1	1	0	0	0.16439	0.040884	0.1898	0.26486	0.061701	0.25583	0.062517	0.2374	0.17989	0.13022	0.25672	0.15379	0.1553	0.2195	0.16426	0.16318	-2.5354	-3.5854	-3.025	-3.4208	-3.6042	-2.9417	-3.35	-3.2771	-3.1333	-3.475	-3.1771	-3.15	-3.2917	-2.9979	-3.2229	-3.3875	-100.664	41.690	9.392	198.622	-36.185	192.768	84.849	179.951	-76.785	-104.339	123.933	56.709	149.583	-82.114	127.450	52.063	0.00027552	0.00038812	3.194e-05	1141.3	2.1715e-06	3.0534e-06	1205	238.64	1.8623e-06	1.7147e-06	297.36	82.806	65.922	19.21	1.6985e-06	26.84	0.0013504	0.0023377	0.00068067	1129.6	2.2612e-05	2.7204e-05	1192.5	239.23	2.3132e-05	2.58e-05	299.28	83.762	66.424	19.658	2.2603e-05	27.548	174.064	-28.239	-108.786	-148.387	-86.704	28.477	-148.828	-141.727	-143.722	-92.210	-141.484	-135.414	-135.220	-127.799	-60.241	-128.250	-8191	255	
582.857	1	1	0	0	0.23956	0.32442	0.14891	0.052699	0.22949	0.049095	0.16469	0.24884	0.19269	0.35721	0.079095	0.074786	0.25631	0.067277	0.13553	0.093323	-2.4396	-3.1437	-3.0958	-3.1937	-3.4604	-2.9479	-3.4771	-3.4229	-2.975	-3.5042	-3.1437	-3.05	-3.4354	-3.025	-3.225	-3.3104	-44.004	-141.576	122.558	68.430	-85.599	79.996	146.926	167.399	98.602	6.422	-84.392	43.229	199.071	110.918	163.759	134.042	0.00030107	0.00010685	0.00012938	1133.9	2.0091e-06	1.8221e-06	1190.5	239.54	4.9472e-06	4.0959e-06	294.42	82.931	65.868	19.37	5.7434e-06	26.84	0.0012618	0.0022213	0.00062941	1123.2	2.0984e-05	2.5137e-05	1186.1	238.89	2.2045e-05	2.439e-05	297.81	83.914	66.313	19.74	2.2302e-05	27.578	155.901	-130.346	-70.717	-148.330	37.137	-37.064	-148.381	-141.574	-47.220	25.759	-141.396	-135.758	-135.244	-127.809	-96.747	-128.214	-8191	255	
582.976	1	1	0	0	0.41899	0.060665	0.12945	0.14232	0.080955	0.18752	0.2394	0.17754	0.14981	0.31411	0.15217	0.10411	0.16259	0.023304	0.055175	0.11187	-2.5187	-3.4271	-3.1562	-3.2625	-3.4146	-3.1958	-3.3833	-3.3646	-3.0146	-3.3917	-3.375	-3.0542	-3.5104	-3.05	-3.0083	-3.5771	-65.720	181.988	-121.217	77.414	18.293	-73.103	174.985	173.087	-30.727	-158.408	-139.587	107.752	150.480	13.271	-53.922	-60.874	0.00031513	0.00029639	8.6045e-05	1137.2	1.5586e-06	2.7673e-06	1195.9	238.12	3.9475e-06	7.2656e-06	294.23	82.453	65.638	19.262	2.6077e-06	26.934	0.0012519	0.0022052	0.00061451	1121.8	2.1546e-05	2.5533e-05	1187.6	238.26	2.3243e-05	2.5508e-05	297.37	83.573	66.39	19.701	2.2776e-05	27.595	161.807	-80.315	-124.371	-148.234	-33.349	-9.740	-148.525	-141.450	-46.965	1.301	-141.856	-135.638	-135.518	-127.655	-51.697	-128.483	-8191	255	
583.048	1	1	0	0	0.23625	0.10802	0.13467	0.2982	0.097996	0.24141	0.17157	0.30762	0.25087	0.22502	0.14266	0.039019	0.11382	0.10567	0.23314	0.078823	-2.4604	-3.3708	-3.4021	-3.2938	-3.4208	-3.1167	-3.225	-3.4917	-3.1708	-3.1604	-3.2146	-3.0438	-3.3063	-3.0979	-2.9938	-3.5042	165.937	-43.869	-64.336	156.849	169.661	100.411	-97.996	112.928	-106.834	133.283	-65.982	-55.896	155.970	-54.887	-69.394	-18.072	0.00032597	0.00045035	0.0001285	1137	2.2659e-06	2.1986e-06	1194.4	239	4.2632e-06	1.1011e-06	297.4	82.421	65.797	19.443	2.0084e-06	26.973	0.0012773	0.0022227	0.00062474	1122.5	2.0929e-05	2.5312e-05	1186.8	238.56	2.1365e-05	2.38e-05	298.28	83.914	66.426	19.858	2.0353e-05	27.695	163.685	-126.803	-78.049	-148.335	-28.495	-10.746	-148.456	-141.779	-114.498	-75.796	-141.968	-135.515	-135.370	-127.835	-7.767	-128.345	-8191	255	
583.146	1	1	0	0	0.15747	0.18339	0.05576	0.2479	0.13344	0.21857	0.20732	0.066812	0.21771	0.16602	0.15381	0.20219	0.021072	0.078215	0.062775	0.021143	-2.6354	-3.2188	-3.4375	-3.0583	-3.3063	-3.2	-3.0708	-3.4333	-3.1229	-3.2687	-3.3812	-2.9313	-3.3063	-3.1896	-3.1833	-3.5208	96.838	116.839	35.740	170.588	160.620	-157.508	153.693	-122.847	-87.348	161.424	-142.203	93.613	7.380	-154.337	9.727	13.107	0.00033959	0.00010058	3.518e-05	1135.6	1.9773e-06	1.8213e-06	1200.3	239.89	2.6054e-06	3.3485e-06	297.66	83.17	66.026	19.546	4.1919e-06	27.307	0.0011286	0.0019513	0.00054319	1122.5	1.8223e-05	2.1523e-05	1190.1	239.58	1.9046e-05	2.1303e-05	299.52	84.469	66.793	19.979	1.9128e-05	27.896	162.072	-158.355	-103.296	-148.513	-53.903	-58.387	-148.479	-141.830	-59.991	-11.724	-141.868	-135.797	-135.257	-127.803	-48.747	-128.139	-8191	255	
583.265	1	1	0	0	0.15972	0.1064	0.048955	0.31323	0.21176	0.11999	0.14875	0.12632	0.074504	0.14628	0.040416	0.10457	0.037236	0.27192	0.18515	0.22833	-2.6646	-3.1021	-3.2208	-3.0042	-3.3083	-3.3083	-3.0375	-3.5354	-3.0438	-3.2042	-3.4792	-3.0708	-3.3604	-3.4875	-2.9292	-3.4667	-111.621	164.579	23.159	198.633	60.370	-37.755	132.983	148.888	127.551	-20.798	79.414	-27.826	23.123	138.244	13.290	-36.237	0.00030106	0.00039544	4.1688e-05	1136.7	2.8714e-06	6.8937e-07	1201.5	242.49	1.6627e-06	3.6948e-06	298.16	83.402	66.195	19.712	2.7759e-06	27.15	0.0011015	0.0019194	0.00053991	1123.2	1.8396e-05	2.1967e-05	1192.1	241.23	2.0124e-05	2.3028e-05	301.37	84.657	66.846	20.085	2.1395e-05	27.954	162.466	-77.048	-64.247	-148.334	-107.205	-77.565	-148.519	-141.631	-40.448	44.123	-141.855	-135.626	-135.265	-127.764	4.406	-128.339	-8191	255	
583.361	1	1	0	0	0.21859	0.093096	0.075159	0.17187	0.11963	0.19098	0.25557	0.20288	0.23842	0.17389	0.40025	0.21353	0.14748	0.16728	0.16573	0.062581	-2.4896	-3.1625	-3.4833	-3.2938	-3.35	-3.5104	-3.2354	-3.35	-3.1354	-3.0229	-3.4458	-2.9792	-3.3438	-3.4146	-2.8354	-3.4771	2.193	-39.519	-41.026	179.894	-95.023	153.264	100.988	139.783	-94.174	38.569	-132.466	-141.361	130.420	78.902	-155.878	80.621	0.00029011	0.0003738	0.0001098	1146.4	2.1424e-06	1.9945e-06	1203.2	243.31	3.3966e-06	1.1906e-06	303.94	84.201	66.459	19.726	3.6544e-06	27.545	0.0012051	0.0020953	0.00059072	1132.2	1.9456e-05	2.3548e-05	1197.2	242.81	2.0367e-05	2.268e-05	304.51	85.259	67.378	20.209	2.0106e-05	28.193	169.945	-106.805	-101.749	-148.441	-119.739	39.659	-148.621	-141.736	-25.078	13.598	-141.886	-135.680	-135.460	-128.231	-23.561	-128.243	-8191	255	
583.457	1	1	0	0	0.042327	0.16788	0.044722	0.25235	0.12193	0.15374	0.14502	0.086899	0.16248	0.14811	0.17144	0.206	0.13302	0.17126	0.10269	0.14259	-2.9625	-2.95	-3.4167	-3.1562	-3.2521	-3.3625	-3.0479	-3.4437	-3.1	-3.0979	-3.4604	-3.0167	-3.1875	-3.4146	-2.9125	-3.5312	-2.716	-102.167	-115.137	112.664	-44.089	-60.432	61.964	-105.010	99.020	66.402	198.934	-62.465	110.616	136.006	-47.925	170.131	0.00028818	0.00020246	0.00013263	1152.9	4.7747e-06	5.5757e-06	1213.2	246.68	4.0371e-06	3.4627e-06	306.82	85.662	67.82	20.109	2.7032e-06	27.88	0.0011257	0.001896	0.00051814	1136.6	1.8018e-05	2.085e-05	1203.3	245.52	1.8174e-05	1.9854e-05	307.85	86.483	68.169	20.539	1.7343e-05	28.461	152.442	-118.022	-46.370	-148.362	-91.553	-21.253	-148.532	-141.714	-30.535	40.622	-141.730	-135.785	-135.265	-127.793	-16.782	-128.314	-8191	255	
583.578	1	1	0	0	0.16308	0.25949	0.057194	0.19793	0.13613	0.18087	0.39699	0.060033	0.22838	0.1488	0.06917	0.37697	0.22792	0.099382	0.091545	0.22564	-2.7271	-2.8583	-3.4208	-3.325	-3.1688	-3.3208	-2.9333	-3.3979	-3.1792	-3.1104	-3.6354	-3.25	-3.0312	-3.5062	-2.9729	-3.2896	-156.391	-121.463	192.294	168.492	-24.576	24.076	118.576	-109.779	-0.108	-0.801	124.638	140.368	187.058	186.858	-31.472	-62.003	0.00036701	0.0001721	0.00015104	1148	1.6855e-06	7.3587e-07	1208.7	246.6	2.4437e-06	1.8366e-06	305.23	85.239	66.83	19.904	4.8765e-06	27.465	0.00098205	0.0016753	0.00046316	1134.9	1.6277e-05	1.874e-05	1199.4	246	1.6947e-05	1.8633e-05	306.37	85.828	67.484	20.282	1.7749e-05	28.159	163.346	-111.835	-58.007	-148.216	-43.426	-18.280	-148.780	-141.790	-74.263	-42.026	-141.657	-135.618	-135.356	-127.795	-35.292	-128.098	-8191	255	
583.674	1	1	0	0	0.11625	0.025658	0.075914	0.075928	0.063482	0.18975	0.1411	0.11092	0.20633	0.1216	0.21007	0.33088	0.27995	0.16171	0.069731	0.25715	-2.8812	-3.0187	-3.3479	-3.4313	-3.1792	-3.5583	-3.1292	-3.3187	-3.3729	-2.9354	-3.4604	-3.1688	-2.9208	-3.4729	-3.1083	-3.2375	177.396	119.496	22.440	187.212	36.648	14.140	-2.079	136.804	-27.035	35.349	124.284	188.528	132.259	-146.959	-102.056	195.055	0.00035215	0.00040482	6.9456e-05	1136	3.9359e-06	2.9056e-06	1196.5	245.02	3.1895e-06	3.7267e-06	302.5	84.11	66.157	19.783	2.373e-06	27.237	0.0010241	0.0017977	0.00048644	1122.4	1.6777e-05	1.9412e-05	1188.7	244	1.7208e-05	1.9306e-05	304.32	84.922	66.859	20.06	1.7737e-05	27.913	161.380	-89.762	-44.850	-148.371	-84.148	63.506	-148.505	-141.626	-48.302	29.258	-141.693	-135.768	-135.335	-128.041	14.990	-128.128	-8191	255	
583.746	1	1	0	0	0.23656	0.15002	0.24224	0.1755	0.21505	0.14013	0.14309	0.12227	0.067163	0.29122	0.201	0.29844	0.09168	0.16077	0.075971	0.27021	-2.9375	-3.0104	-3.3604	-3.4021	-2.875	-3.5479	-3.3104	-3.2896	-3.3729	-3.0958	-3.3271	-3.3438	-2.9938	-3.4708	-3.2917	-3.2021	149.851	-107.393	82.453	-89.248	95.783	-154.603	97.690	177.644	30.408	109.740	-0.616	95.543	184.139	148.607	-59.024	175.288	0.00035709	0.00033196	3.7474e-05	1123.8	1.8848e-06	3.4972e-06	1184.4	242.68	4.1772e-06	2.241e-06	298.64	83.359	65.836	19.52	1.1223e-06	27.106	0.0010028	0.0016768	0.00045374	1109.6	1.5679e-05	1.7695e-05	1173.2	241.63	1.5891e-05	1.814e-05	300.52	84.208	66.338	19.861	1.5449e-05	27.641	163.283	-86.399	-89.130	-148.355	-38.582	-11.891	-148.506	-141.555	-57.009	91.724	-141.511	-135.413	-135.236	-127.818	31.880	-128.024	-8191	255	
583.866	1	1	0	0	0.15362	0.0066525	0.076856	0.10897	0.07616	0.13444	0.24752	0.21577	0.19319	0.078705	0.065194	0.17106	0.25225	0.2298	0.23782	0.072108	-2.9729	-2.9375	-3.2708	-3.4375	-2.8312	-3.4313	-3.3333	-3.1042	-3.5333	-3.05	-3.3333	-3.4604	-3.1104	-3.2938	-3.2438	-2.9688	63.682	187.799	-53.053	187.999	167.569	-65.992	181.239	103.823	-21.227	-86.009	-146.948	-65.050	-122.394	-34.650	119.856	-86.482	0.00036193	0.00018123	6.6424e-05	1105.5	2.1752e-06	3.834e-06	1169.7	241.3	3.7572e-06	1.4627e-06	297.87	83.781	65.309	19.495	2.2424e-06	26.852	0.00088512	0.0014333	0.00038791	1093.7	1.4387e-05	1.5545e-05	1161.4	239.69	1.3821e-05	1.5184e-05	298.55	84.057	65.804	19.807	1.3067e-05	27.579	160.604	-78.694	-27.365	-148.309	-20.231	-36.852	-148.354	-141.640	-46.058	-69.993	-141.651	-135.557	-135.535	-127.561	31.771	-128.233	-8191	255	
583.961	1	1	0	0	0.12908	0.15037	0.26628	0.33668	0.095385	0.071588	0.1801	0.2116	0.131	0.161	0.27391	0.11376	0.11708	0.21601	0.27332	0.11664	-2.9958	-3.0542	-3.1104	-3.3812	-2.8	-3.4562	-3.3396	-2.9375	-3.4938	-3.1646	-3.1646	-3.3187	-2.8458	-3.3458	-3.1792	-2.9729	-6.879	85.599	88.115	171.571	162.016	105.490	49.850	115.639	186.564	113.030	181.339	172.747	195.376	102.880	90.020	183.959	0.00029887	0.00020942	8.0184e-05	1099.3	1.6831e-06	1.6312e-06	1165.1	238.86	2.6306e-06	1.661e-06	294	82.751	65.46	19.397	1.2932e-06	26.965	0.00078474	0.0013247	0.00035844	1085.2	1.263e-05	1.5008e-05	1155.1	238.13	1.3283e-05	1.5208e-05	297	83.277	65.588	19.699	1.3603e-05	27.421	166.075	-120.602	-57.820	-148.033	-52.271	-43.172	-148.585	-141.480	-25.708	56.405	-141.464	-135.331	-135.324	-127.800	-7.020	-128.395	-8191	255	
584.057	1	1	0	0	0.069006	0.25399	0.20403	0.29689	0.048881	0.20987	0.18622	0.22778	0.17562	0.11423	0.1281	0.1951	0.10131	0.15334	0.17573	0.06021	-2.8792	-3.0396	-2.9542	-3.5771	-2.9604	-3.2292	-3.4083	-3.0708	-3.4771	-3.1208	-3.1083	-3.4458	-3.0438	-3.2167	-3.1583	-3.0125	-34.126	-96.349	-22.701	152.938	85.640	90.035	82.274	-65.557	160.628	80.944	80.231	79.866	-49.399	74.228	-76.909	27.082	0.00027025	0.0005057	3.9631e-05	1099.3	2.5376e-06	3.4359e-06	1165.2	238.44	1.8373e-06	2.2629e-06	295.48	81.848	64.525	19.137	2.5969e-06	26.589	0.00083856	0.0013755	0.000394	1085	1.4024e-05	1.5935e-05	1153	237.01	1.4862e-05	1.7441e-05	296.11	82.64	65.023	19.502	1.6642e-05	27.193	171.371	-65.687	-45.714	-148.411	-38.258	34.895	-148.469	-141.704	-67.869	-65.211	-141.558	-135.718	-135.071	-127.598	-9.262	-128.284	-8191	255	
584.153	1	1	0	0	0.077335	0.06704	0.15345	0.10721	0.10809	0.16703	0.26868	0.1679	0.19005	0.18658	0.12176	0.22435	0.14201	0.18914	0.069997	0.10903	-2.85	-3.1042	-2.9542	-3.5604	-3.1875	-3.2271	-3.4604	-2.9417	-3.3146	-3.1604	-2.8125	-3.2854	-3.0875	-3.15	-3.3917	-3.2208	-129.584	-35.594	-116.613	131.727	131.192	8.804	144.908	34.547	96.828	-76.314	10.962	188.529	155.749	141.714	112.348	46.654	0.00030885	0.00037816	4.0753e-05	1094.4	1.4506e-06	2.5941e-06	1155.7	235.35	3.7005e-06	5.0414e-06	290.95	81.212	64.196	19.003	2.3599e-06	26.453	0.00091769	0.0015687	0.0004448	1083.2	1.5626e-05	1.7359e-05	1148.7	234.79	1.6152e-05	1.8341e-05	293.29	82.221	64.725	19.375	1.6478e-05	27.124	167.304	-44.767	-136.439	-148.208	-98.886	-39.166	-148.545	-141.396	-17.072	29.729	-141.420	-135.446	-134.940	-127.612	-27.977	-128.310	-8191	255	
584.274	1	1	0	0	0.066855	0.39834	0.16463	0.25357	0.18717	0.023582	0.056362	0.24178	0.13639	0.090695	0.074357	0.16398	0.16089	0.12943	0.17935	0.30788	-2.9437	-3.1333	-3.0333	-3.5417	-2.9813	-3.0083	-3.4729	-3.1979	-3.0729	-3.2521	-3.1333	-3.6188	-3.1542	-3.1375	-3.4688	-3.0125	48.620	136.369	-62.886	121.661	110.393	-132.723	97.493	110.678	181.860	191.092	-146.197	-9.935	-29.626	-78.645	189.604	-98.976	0.0002853	0.00047358	0.00014088	1089	3.1814e-06	1.1841e-06	1157.3	236.26	3.5017e-06	1.9779e-06	294.82	81.487	64.077	19.102	2.1307e-06	26.531	0.00092778	0.0016239	0.00046475	1079.2	1.5855e-05	1.7977e-05	1146.9	234.31	1.5976e-05	1.7916e-05	294.46	82.333	64.618	19.458	1.5822e-05	27.067	160.331	-78.263	-33.737	-148.247	-41.849	74.779	-148.507	-141.344	-56.449	5.481	-141.583	-135.171	-135.134	-127.219	3.801	-128.410	-8191	255	
584.345	1	1	0	0	0.073418	0.076825	0.14922	0.12837	0.11534	0.26808	0.18559	0.13814	0.16806	0.067126	0.11972	0.11509	0.23027	0.022468	0.16979	0.058886	-2.7625	-3.375	-2.9333	-3.4083	-3.1417	-3.1375	-3.4583	-2.8708	-3.2604	-3.4625	-2.975	-3.5354	-3.0687	-3.0229	-3.5083	-3.1688	-77.989	-14.640	-121.801	-153.291	187.606	-154.712	156.505	102.243	31.373	44.533	-159.563	123.850	168.441	-116.380	-120.580	62.669	0.00031326	0.00047748	6.0441e-05	1093.2	2.3317e-06	2.6671e-06	1152.6	235.28	2.7054e-07	3.7557e-06	292.11	81.333	64.355	19.209	2.4468e-06	26.366	0.00091293	0.0015442	0.00043645	1079.4	1.4623e-05	1.668e-05	1142.3	234.21	1.497e-05	1.6726e-05	293.53	82.278	64.698	19.43	1.455e-05	27.132	164.595	-95.387	-93.568	-148.205	-59.401	-4.183	-148.283	-141.611	22.542	21.881	-141.296	-135.539	-135.336	-127.240	-43.179	-128.119	-8191	255	
584.441	1	1	0	0	0.10052	0.29243	0.15431	0.32299	0.049148	0.055829	0.093318	0.065228	0.17933	0.14739	0.095041	0.16041	0.076168	0.10638	0.2595	0.13058	-2.6167	-3.2979	-2.9125	-3.4	-3.1583	-2.8917	-3.5458	-3.1125	-3.1354	-3.5187	-3.1292	-3.3896	-3.325	-2.9146	-3.3792	-3.1521	-32.054	-145.162	95.010	171.496	-129.410	114.817	87.851	-67.854	-82.694	-12.917	84.943	-41.855	-44.679	8.429	157.768	150.163	0.00028998	0.00028767	0.00013968	1091.6	2.8538e-06	3.2525e-06	1151.3	235.99	5.3557e-06	2.5453e-06	292.04	81.831	64.253	19.104	2.6874e-06	26.737	0.00085596	0.0014046	0.00040615	1074.3	1.3647e-05	1.6e-05	1140.6	234.12	1.4207e-05	1.5712e-05	292.85	82.469	64.79	19.509	1.3533e-05	27.306	151.711	-11.449	-84.878	-148.087	-80.884	-14.294	-148.542	-141.652	-76.564	-1.267	-141.205	-135.419	-134.965	-127.444	-9.817	-128.154	-8191	255	
584.537	1	1	0	0	0.17104	0.097121	0.11911	0.18927	0.18853	0.27134	0.19613	0.18737	0.10333	0.086585	0.17296	0.088985	0.046066	0.097585	0.12068	0.17107	-2.6125	-3.4208	-2.9479	-3.4417	-3.4188	-2.9896	-3.6708	-3.3646	-3.1437	-3.5917	-3.0667	-3.1896	-3.3583	-2.8688	-3.4708	-3.2521	-61.438	96.738	-85.824	179.300	-72.072	-89.048	91.032	167.669	183.724	45.278	142.514	-71.638	-6.608	-139.174	-29.327	156.012	0.00033697	0.00043749	0.00013477	1087.8	4.006e-06	2.6858e-06	1155.4	235.68	4.0231e-06	1.46e-06	293.36	81.905	64.648	19.106	3.5134e-06	26.558	0.00080456	0.0012817	0.00035381	1074.6	1.2002e-05	1.3406e-05	1142.3	234.29	1.2036e-05	1.3627e-05	292.73	82.538	64.806	19.437	1.2545e-05	27.13	158.115	-99.890	-59.268	-148.215	-77.640	-33.766	-148.336	-141.909	-49.441	-32.290	-141.436	-135.415	-135.322	-127.269	2.160	-128.238	-8191	255	
584.658	1	1	0	0	0.17236	0.13455	0.20194	0.18344	0.11142	0.076999	0.20275	0.09328	0.11711	0.13949	0.10205	0.14719	0.096054	0.14485	0.12334	0.09263	-2.6271	-3.3896	-3	-3.2	-3.3688	-3.0875	-3.4583	-3.1583	-3.0125	-3.4917	-3.0833	-3.2792	-3.3958	-3.0333	-3.5167	-3.1771	-72.448	-26.257	59.873	-73.802	137.620	76.504	161.803	165.907	135.617	185.224	125.203	33.460	-145.693	-148.602	110.094	115.015	0.00030878	0.00019699	0.00010627	1085.7	2.4828e-06	2.5097e-06	1154.5	234.73	1.2679e-06	4.3001e-06	293.35	81.578	64.269	19.134	1.8544e-06	26.548	0.00078482	0.0012431	0.00035312	1070.3	1.2258e-05	1.4127e-05	1139.5	233.94	1.2799e-05	1.3909e-05	293.01	82.574	64.791	19.451	1.2506e-05	27.239	171.277	6.337	-72.754	-148.264	-80.178	-36.747	-148.534	-141.351	-61.904	-30.921	-141.658	-135.640	-135.266	-127.641	-16.142	-128.445	-8191	255	
584.754	1	1	0	0	0.091664	0.16907	0.17604	0.178	0.03907	0.1975	0.50355	0.047841	0.10559	0.05941	0.043053	0.1544	0.16363	0.2291	0.13669	0.004555	-2.6771	-3.3854	-3.0958	-3.2562	-3.4375	-2.8646	-3.3958	-3.2854	-2.9271	-3.4458	-3.1917	-3.2104	-3.4292	-3.075	-3.2958	-3.1292	143.294	-81.104	75.931	146.907	81.038	-72.257	107.387	7.735	-55.697	158.125	-105.994	170.455	-104.773	-118.321	7.663	113.814	0.00033251	0.00026299	7.3518e-05	1083.9	2.398e-06	3.6107e-06	1149.5	236.12	3.6259e-06	3.2196e-06	292.95	82.478	64.577	19.268	1.178e-06	26.713	0.00078819	0.0012301	0.0003582	1071.1	1.279e-05	1.4141e-05	1140	234.96	1.307e-05	1.3835e-05	293.92	82.763	64.905	19.557	1.2082e-05	27.279	171.193	-100.719	-40.687	-148.376	-76.549	1.249	-148.390	-141.500	-91.266	-16.971	-141.512	-135.470	-135.100	-127.485	-3.922	-128.401	-8191	255	
584.849	1	1	0	0	0.3422	0.17822	0.066704	0.24201	0.24853	0.04219	0.080508	0.15766	0.28308	0.10691	0.11384	0.42173	0.11023	0.32827	0.1418	0.048199	-2.5875	-3.4083	-3.1396	-3.1583	-3.3438	-2.8271	-3.275	-3.4583	-2.8312	-3.1896	-3.1375	-3.1333	-3.4771	-2.9354	-3.1417	-3.4708	-36.199	132.455	-55.257	-156.466	60.130	-16.482	118.052	73.137	-59.546	83.569	117.790	199.977	-145.352	76.170	-47.923	-97.156	0.00030561	0.00012464	0.00011544	1087.4	3.2365e-06	2.6657e-06	1149.5	236.73	2.4582e-06	3.2768e-06	293.74	82.067	64.6	19.42	1.9619e-06	26.767	0.00076354	0.001191	0.00032901	1072.3	1.204e-05	1.3333e-05	1140.1	235.79	1.2201e-05	1.3571e-05	295.26	82.944	65.175	19.63	1.2021e-05	27.374	165.768	-69.741	-47.487	-148.020	-76.958	16.286	-148.337	-141.775	-51.414	1.097	-141.995	-135.720	-135.107	-127.733	-35.497	-128.018	-8191	255	
584.947	1	1	0	0	0.15123	0.20143	0.082411	0.27386	0.07483	0.1317	0.095479	0.17336	0.11374	0.23528	0.11977	0.19756	0.2229	0.15229	0.13796	0.18617	-2.4604	-3.3688	-3.0104	-3.2188	-3.4646	-3.1292	-3.3187	-3.3604	-2.9188	-3.2667	-3.3333	-3.1	-3.5729	-3.1396	-3.0708	-3.3812	-119.434	-91.481	179.136	174.630	115.568	-27.142	159.058	180.869	29.143	-47.953	32.245	106.989	103.104	56.092	-36.978	-31.320	0.00034896	0.00019759	0.0001212	1091.5	2.7855e-06	2.8783e-06	1153.6	236.8	2.89e-06	3.1051e-06	294.42	82.125	65.117	19.456	4.9986e-06	26.809	0.00076276	0.0011832	0.0003437	1073.2	1.2282e-05	1.4174e-05	1142.4	236.42	1.3045e-05	1.3939e-05	295.55	82.967	65.309	19.649	1.3543e-05	27.335	167.323	-136.747	-71.307	-147.851	-5.273	1.403	-148.108	-141.617	-73.033	-6.698	-141.456	-135.534	-135.262	-127.547	-16.949	-128.431	-8191	255	
585.041	1	1	0	0	0.20486	0.31266	0.11735	0.1392	0.28485	0.31941	0.16014	0.09108	0.17037	0.1132	0.092678	0.11273	0.22492	0.1384	0.15688	0.14652	-2.5708	-3.2833	-3.1312	-3.1542	-3.5146	-3.3229	-3.1667	-3.45	-2.9479	-3.2917	-3.3187	-2.9458	-3.2896	-3.2396	-3.1271	-3.5417	64.350	167.398	79.146	99.183	102.961	105.509	134.048	-3.135	-84.336	-66.650	150.480	-24.736	62.928	-59.478	158.065	-38.787	0.00031745	0.00028082	2.8086e-05	1089.5	4.3231e-06	4.3343e-06	1148.4	237.35	1.8961e-06	3.3391e-06	294.66	82.367	64.581	19.254	3.7711e-06	26.677	0.00081923	0.0013444	0.00037225	1074.5	1.3064e-05	1.538e-05	1144	236.31	1.3971e-05	1.5902e-05	295.56	82.95	65.038	19.552	1.5349e-05	27.228	164.994	-127.864	-3.147	-147.989	-25.806	-2.281	-148.538	-141.647	-95.983	-2.034	-141.159	-135.425	-135.169	-127.799	-94.171	-128.251	-8191	255	
585.137	1	1	0	0	0.19268	0.18677	0.16287	0.18213	0.14151	0.19993	0.23326	0.26716	0.20142	0.23728	0.22648	0.24029	0.18119	0.11948	0.1681	0.19997	-2.5667	-3.1646	-3.2938	-2.9333	-3.3083	-3.2667	-3.2042	-3.5563	-3.1354	-3.1562	-3.3604	-3.1104	-3.4958	-3.0021	-3.0021	-3.6375	151.685	-34.617	-116.268	161.456	52.380	-137.082	90.303	166.828	30.773	-74.326	129.591	-123.401	174.029	-34.130	162.725	21.188	0.00033226	0.0003496	6.5325e-05	1092.2	8.6692e-07	1.5929e-06	1151.8	237.97	4.5326e-06	3.779e-06	295	82.015	64.319	19.249	3.5387e-06	26.655	0.00091464	0.0015415	0.00043318	1077.9	1.5111e-05	1.7913e-05	1145.5	236.14	1.6482e-05	1.8672e-05	296.18	82.925	65.227	19.62	1.7955e-05	27.335	163.586	-139.871	-76.735	-148.035	87.415	22.717	-148.466	-141.709	-59.565	-59.190	-141.315	-135.505	-135.328	-127.643	183.443	-128.594	-8191	255	
585.258	1	1	0	0	0.06302	0.093195	0.26522	0.20938	0.085349	0.078309	0.26286	0.20551	0.20495	0.077377	0.042079	0.058693	0.087782	0.090208	0.048376	0.30207	-2.6979	-3.1354	-3.4792	-3.0917	-3.2208	-3.3583	-3.1917	-3.5792	-3.1375	-3.2062	-3.5	-3.1437	-3.35	-3.2604	-3.05	-3.3875	19.979	192.854	144.823	79.427	137.195	43.838	84.682	5.555	156.796	144.025	-66.274	65.660	-84.222	-6.721	-134.664	-124.310	0.00028064	0.00027506	6.0085e-05	1103.4	1.8201e-06	1.5499e-06	1166.8	238.81	3.6027e-06	3.7467e-06	294.97	82.71	65.118	19.313	2.4234e-06	26.879	0.00099093	0.001695	0.00047844	1089.2	1.6256e-05	1.9223e-05	1155.9	237.88	1.7587e-05	1.9562e-05	297.26	83.45	65.621	19.694	1.7955e-05	27.515	166.973	-44.287	-57.778	-148.218	-34.699	-21.013	-148.434	-141.580	-84.704	-18.133	-141.523	-135.558	-135.112	-127.930	-16.771	-128.355	-8191	255	
585.354	1	1	0	0	0.11535	0.075568	0.34953	0.19104	0.2087	0.064559	0.11936	0.19086	0.28804	0.061314	0.17857	0.098817	0.067577	0.30192	0.14241	0.075462	-2.5563	-2.9083	-3.3187	-3.15	-3.3458	-3.2583	-3.1	-3.4375	-3.2083	-3.0583	-3.5042	-3.0604	-3.2875	-3.3771	-3.0104	-3.4646	56.782	199.426	12.261	87.320	145.738	157.001	159.083	59.630	-87.329	-126.422	157.936	-54.338	123.365	119.874	185.657	-43.992	0.00033971	0.00055234	7.9831e-05	1108.8	2.4657e-06	3.9134e-06	1176.1	241.02	4.03e-06	2.9535e-06	297.13	82.827	65.585	19.331	4.0939e-06	26.843	0.0010332	0.001752	0.00049572	1096	1.6947e-05	1.9716e-05	1164	239.53	1.7648e-05	1.99e-05	298.89	83.756	66.047	19.783	1.7961e-05	27.538	163.894	-77.745	-84.598	-148.044	-63.478	-20.213	-148.360	-141.389	-62.104	-75.239	-141.495	-135.541	-135.185	-127.619	-88.350	-128.442	-8191	255	
585.450	1	1	0	0	0.28597	0.097123	0.1038	0.13035	0.090171	0.13028	0.28173	0.1905	0.15765	0.37637	0.2887	0.2279	0.10685	0.14489	0.014119	0.1177	-2.8333	-2.9583	-3.3104	-3.2542	-3.125	-3.3167	-2.9625	-3.2188	-3.3021	-3.0458	-3.5875	-3.0375	-3.2021	-3.3479	-3.0438	-3.4521	141.993	35.891	-51.063	108.883	112.868	69.861	-149.337	156.261	-39.340	-153.979	170.300	11.732	173.386	107.562	136.381	138.096	0.0003473	0.00021178	9.0004e-05	1113.9	1.2283e-06	2.6341e-06	1176.6	241.2	3.0839e-06	4.2768e-06	298.24	83.042	65.78	19.479	2.2844e-06	26.939	0.0010341	0.0017705	0.00048181	1099.7	1.6813e-05	1.9946e-05	1168.2	240.01	1.7322e-05	1.9611e-05	299.72	83.947	66.195	19.822	1.7533e-05	27.651	172.697	-37.938	-68.749	-148.299	-52.647	-52.712	-148.673	-141.658	-82.671	-23.856	-141.377	-135.806	-135.371	-127.817	-57.754	-128.214	-8191	255	
585.546	1	1	0	0	0.13087	0.058115	0.12021	0.20864	0.17991	0.19939	0.13271	0.052604	0.25004	0.17005	0.15367	0.16924	0.19532	0.072409	0.11421	0.15519	-2.7292	-3	-3.4083	-3.2583	-3.1167	-3.625	-3.1063	-3.3625	-3.2917	-2.9896	-3.5854	-3.2896	-3.1625	-3.5	-2.9375	-3.3917	-53.910	-66.758	-120.497	181.322	113.622	-17.414	92.030	76.773	101.305	99.196	8.835	165.833	190.228	169.423	-14.683	-60.953	0.00033392	0.00052176	5.1414e-05	1113.9	3.4674e-06	2.3672e-06	1177.1	241.51	3.6089e-06	4.3229e-06	297.91	83.051	65.274	19.55	3.1643e-06	26.843	0.0010236	0.0017418	0.00048446	1101.2	1.6746e-05	1.9476e-05	1167.1	240.26	1.7392e-05	1.9952e-05	299.54	83.889	66.096	19.864	1.7735e-05	27.667	165.966	-80.978	-66.730	-148.201	13.245	-71.139	-148.603	-141.388	-34.860	3.177	-141.644	-135.858	-135.057	-127.574	-82.265	-128.290	-8191	255	
585.642	1	1	0	0	0.092344	0.13605	0.19039	0.23246	0.1493	0.056847	0.20111	0.26522	0.24905	0.17298	0.20905	0.12211	0.12499	0.34798	0.14052	0.12828	-2.7667	-2.85	-3.2646	-3.1917	-2.9854	-3.5229	-3.0979	-3.0625	-3.4	-2.975	-3.3417	-3.4062	-3.075	-3.3458	-3.1354	-3.1896	-96.425	51.618	-103.381	149.421	5.884	64.323	183.094	-154.152	181.100	150.991	181.518	152.775	139.052	152.471	79.893	-133.606	0.00030677	0.00030091	7.2743e-05	1113.9	2.3369e-06	1.0441e-06	1178.6	241.71	2.754e-06	5.0171e-06	298.78	83.475	65.4	19.459	4.9234e-06	26.942	0.0010062	0.0017365	0.00048034	1100.9	1.6975e-05	1.902e-05	1169.5	240.35	1.7803e-05	1.9718e-05	300.54	84.187	66.234	19.877	1.7683e-05	27.704	160.541	-94.590	15.202	-148.140	14.362	-1.243	-148.604	-141.571	-62.272	-22.232	-141.586	-135.846	-135.186	-127.933	-44.452	-128.128	-8191	255	
585.738	1	1	0	0	0.10008	0.2828	0.11945	0.13683	0.10626	0.08669	0.34617	0.2475	0.17	0.048115	0.22849	0.052536	0.2428	0.075031	0.080866	0.35147	-3.1354	-3.0604	-3.3292	-3.2396	-2.8625	-3.3625	-3.3354	-3.0833	-3.475	-3.0021	-3.2812	-3.3729	-3.0646	-3.6396	-2.9938	-3.2583	101.417	-61.231	-119.330	37.331	114.844	121.707	136.769	149.906	-22.947	178.688	-4.693	20.530	162.607	-89.149	102.015	127.127	0.00031778	0.00039782	0.0001216	1115.1	2.1721e-06	6.3389e-06	1177.8	241.33	2.8903e-06	1.9252e-06	297.9	83.215	65.797	19.519	7.8243e-07	27.043	0.0010291	0.0017345	0.00049528	1100.7	1.681e-05	1.9411e-05	1169.8	240.53	1.7806e-05	2.0377e-05	299.84	83.896	66.209	19.845	1.8738e-05	27.67	159.770	-53.890	-58.079	-148.101	-48.464	24.417	-148.581	-141.561	-78.431	-38.107	-141.654	-135.360	-134.945	-127.734	-83.254	-128.412	-8191	255	
585.835	1	1	0	0	0.14215	0.10192	0.21968	0.15009	0.16758	0.21976	0.16274	0.22611	0.23821	0.19058	0.26574	0.16032	0.17445	0.19729	0.13481	0.077838	-3	-2.9229	-3.1458	-3.3312	-3.0458	-3.4292	-3.3	-3.2208	-3.4688	-3.1521	-3.2562	-3.525	-2.9021	-3.5292	-3.15	-3.1458	16.684	62.290	77.353	168.186	43.073	-31.609	128.654	186.523	26.690	116.416	107.938	-28.379	121.796	-130.153	89.405	72.003	0.00032539	0.00012845	5.6709e-05	1118.4	2.951e-06	2.1629e-06	1180.4	241.75	3.1407e-06	5.6683e-06	297.08	83.076	65.315	19.468	3.8821e-06	26.988	0.0010813	0.0019019	0.00052271	1103.9	1.81e-05	2.0735e-05	1170.8	241.1	1.9465e-05	2.1881e-05	300.49	84.052	66.271	19.858	1.9709e-05	27.691	163.884	-57.701	-62.738	-148.191	-61.584	53.162	-148.459	-141.679	-57.597	15.848	-141.524	-135.575	-135.263	-127.550	10.896	-128.176	-8191	255	
585.954	1	1	0	0	0.13216	0.075344	0.10069	0.095864	0.097478	0.17134	0.12001	0.29943	0.22921	0.11332	0.081686	0.11738	0.2749	0.16171	0.30393	0.30742	-3.0646	-3	-3.1542	-3.5563	-2.9104	-3.4625	-3.2958	-3	-3.4396	-3.0521	-3.2396	-3.5333	-3.0375	-3.3396	-3.225	-3.075	-130.359	15.884	195.673	169.835	-145.088	-32.267	146.777	-141.081	-119.440	117.013	27.989	83.060	108.425	42.665	184.335	174.791	0.00027509	0.0002994	1.1084e-05	1123.2	2.5603e-06	3.7224e-06	1184.3	243.33	3.9754e-06	4.0395e-06	301.29	83.409	65.805	19.676	5.4569e-06	27.175	0.0011217	0.001948	0.00053906	1109.3	1.8938e-05	2.2067e-05	1176.7	242.22	1.9395e-05	2.1822e-05	302.58	84.339	66.491	20.014	1.9516e-05	27.761	165.601	-158.067	-51.188	-148.203	-86.311	-28.700	-148.747	-141.553	-103.918	-20.232	-141.758	-135.701	-135.208	-127.467	-44.430	-128.327	-8191	255	
586.050	1	1	0	0	0.044307	0.1789	0.17197	0.18257	0.09586	0.057487	0.12878	0.17299	0.12762	0.23052	0.2548	0.16347	0.22632	0.20515	0.19891	0.070972	-2.8167	-2.8792	-3.1646	-3.4562	-2.9062	-3.2917	-3.3542	-2.9813	-3.4792	-3.0708	-3.2396	-3.4167	-3.1417	-3.2729	-3.2875	-2.9333	183.641	38.917	-96.624	160.833	-12.872	-48.143	161.231	113.786	178.949	144.135	-137.356	-94.279	135.997	194.407	-86.234	17.298	0.00030883	0.00034751	9.0547e-05	1121.7	3.8195e-06	2.2707e-06	1188.6	242.76	4.1361e-06	4.1424e-06	302.21	84.368	66.267	19.712	2.1495e-06	27.137	0.0010798	0.0018947	0.00053395	1110.6	1.8141e-05	2.0594e-05	1181.2	241.97	1.8575e-05	2.0636e-05	303.34	84.641	66.795	20.003	1.8476e-05	27.861	161.724	-129.182	-115.836	-148.459	-37.877	-44.477	-148.694	-141.680	-113.285	16.956	-141.672	-135.518	-135.334	-127.647	-34.969	-128.324	-8191	255	
586.146	1	1	0	0	0.098298	0.24895	0.18714	0.27112	0.16644	0.14531	0.13239	0.2261	0.19904	0.062777	0.24069	0.16063	0.09212	0.038579	0.20241	0.012052	-2.9688	-2.9167	-3.0583	-3.3146	-3.0479	-3.1292	-3.3896	-3.0479	-3.5229	-3.2042	-3.0021	-3.5771	-2.9688	-3.3333	-3.1667	-3.0896	128.162	99.117	-89.700	113.500	176.067	-65.980	46.167	155.491	78.423	56.487	113.330	-80.817	-146.898	154.299	40.116	200.213	0.00034353	0.00042791	5.5209e-05	1130.2	1.3187e-06	4.687e-06	1191.1	243.97	2.8413e-06	2.026e-06	299.44	83.6	66.313	19.625	4.0884e-06	27.13	0.0010173	0.0018109	0.00049857	1115.8	1.7254e-05	2.0213e-05	1182.1	242.57	1.8106e-05	2.0528e-05	302.28	84.536	66.82	19.997	1.8456e-05	27.828	167.172	-15.488	-66.539	-148.362	-63.651	-6.524	-148.350	-141.789	0.036	40.397	-141.532	-135.432	-135.314	-127.884	-36.396	-128.644	-8191	255	
586.217	1	1	0	0	0.13608	0.10184	0.23567	0.35231	0.067954	0.17919	0.26637	0.14533	0.28499	0.090244	0.24534	0.097788	0.21625	0.30489	0.25345	0.12782	-2.9458	-3.0646	-2.9437	-3.5563	-3.0062	-3.1771	-3.5938	-3.1646	-3.4042	-3.2854	-3.1104	-3.4688	-3.0833	-3.1375	-3.3667	-2.9146	45.209	-32.184	23.434	158.795	152.521	-51.491	136.758	-146.116	96.413	-145.828	129.206	-159.187	155.057	5.981	48.493	125.615	0.00033239	0.00026363	0.00011768	1132.5	1.9742e-06	4.0653e-06	1187.9	244.02	2.5442e-06	3.4918e-06	303.6	83.691	65.846	19.726	3.1318e-06	27.015	0.0010341	0.0017687	0.00050773	1117.2	1.6628e-05	1.9195e-05	1181	242.66	1.7526e-05	2.0133e-05	303.75	84.469	66.731	20.053	1.7779e-05	27.861	163.631	-129.991	-50.497	-148.275	-83.826	-86.419	-148.678	-141.551	-39.098	-86.542	-141.508	-135.782	-135.231	-127.783	-14.472	-128.108	-8191	255	
586.338	1	1	0	0	0.12281	0.22399	0.1543	0.023947	0.17771	0.29993	0.29689	0.17038	0.10133	0.063649	0.36886	0.014444	0.31826	0.19104	0.16056	0.17314	-2.8396	-3.2708	-2.9292	-3.4521	-3.1979	-3.2042	-3.5312	-3.1396	-3.0583	-3.4771	-2.9479	-3.4562	-3.2833	-3.0708	-3.5271	-3.0896	-5.662	-69.674	-131.814	-63.935	44.703	53.493	111.390	-135.163	-62.791	-31.714	-102.110	-30.560	186.711	163.744	-34.891	10.259	0.00033915	0.00032853	0.00015957	1127.6	1.384e-06	4.264e-06	1183.2	242.97	2.073e-06	2.4758e-06	300.53	83.807	66.243	19.626	2.8565e-06	27.231	0.0010199	0.0017351	0.00048325	1113	1.6825e-05	1.9479e-05	1177.4	242.04	1.667e-05	1.8526e-05	301.41	84.47	66.565	19.966	1.6832e-05	27.812	162.597	-69.505	-55.749	-148.208	-34.339	38.116	-148.355	-141.742	-80.791	-25.571	-141.937	-135.560	-134.973	-127.571	-42.744	-128.834	-8191	255	
586.434	1	1	0	0	0.011827	0.18876	0.14712	0.17654	0.12107	0.1521	0.067018	0.069295	0.058856	0.15778	0.22629	0.083313	0.11472	0.32285	0.15838	0.12896	-2.8417	-3.3271	-3.0667	-3.5208	-3.1437	-2.8896	-3.5563	-3.1167	-3.3125	-3.5604	-3.0438	-3.4354	-3.375	-2.9042	-3.5083	-3.1063	-37.357	21.908	-132.981	196.489	-125.398	135.960	74.391	195.235	-11.061	41.071	-106.624	28.245	-104.071	163.436	-14.632	-78.974	0.00033617	0.00033389	0.00014543	1121	2.5135e-06	1.5407e-06	1183	241.24	3.9862e-06	4.7567e-06	301.13	83.285	65.833	19.822	2.8022e-06	27.151	0.00097122	0.0016286	0.00046059	1108.4	1.6192e-05	1.8317e-05	1174	241.45	1.6695e-05	1.8711e-05	301.99	84.253	66.366	20.017	1.7198e-05	27.823	170.477	-71.104	-79.986	-148.202	-95.986	-25.402	-148.592	-141.551	-38.627	-7.694	-141.591	-135.467	-135.306	-127.658	-21.942	-128.326	-8191	255	
586.530	1	1	0	0	0.23202	0.27922	0.13752	0.21265	0.11508	0.2602	0.20233	0.095762	0.18764	0.10568	0.20745	0.09538	0.1029	0.086344	0.13293	0.23168	-2.7458	-3.4229	-2.9875	-3.5021	-3.3146	-2.9542	-3.5646	-3.1917	-2.9646	-3.575	-3.0229	-3.3958	-3.4333	-3.1542	-3.5417	-3.0042	46.094	94.108	90.255	116.199	99.905	-102.634	-128.640	-118.393	188.943	96.136	45.853	127.487	-73.270	27.952	21.316	165.826	0.00036234	0.00032061	0.00018491	1122.4	2.1931e-06	5.9313e-06	1184.3	242.14	1.5183e-06	3.3254e-06	301.66	83.81	65.972	19.687	2.7505e-06	27.239	0.00099871	0.0016942	0.00048343	1109.2	1.5973e-05	1.9187e-05	1177.3	241.61	1.6549e-05	1.8518e-05	302.05	84.523	66.546	19.972	1.6767e-05	27.85	165.765	-58.158	-47.061	-148.340	-94.683	-31.119	-148.369	-141.632	196.922	19.647	-141.307	-135.541	-135.323	-127.778	-29.257	-128.657	-8191	255	
586.627	1	1	0	0	0.09149	0.26847	0.13364	0.21657	0.24072	0.22193	0.12979	0.12794	0.029562	0.25018	0.2016	0.079504	0.30037	0.25394	0.13324	0.057069	-2.7708	-3.4813	-2.9667	-3.4625	-3.3354	-3.0187	-3.475	-3.3854	-3.125	-3.5917	-3.1354	-3.3896	-3.3375	-2.9354	-3.275	-3.2375	-97.387	149.394	-28.412	-142.167	-58.842	133.140	59.837	93.333	121.969	-26.844	185.286	-122.348	86.710	158.251	-66.722	-54.132	0.00030618	0.00027829	9.2514e-05	1123.3	1.498e-06	3.6369e-06	1184.2	241.29	4.3607e-06	2.7074e-06	300.51	83.857	66.188	19.73	4.6134e-06	27.152	0.0009465	0.0016257	0.00045531	1110.5	1.6113e-05	1.8748e-05	1176.5	241.41	1.6164e-05	1.7536e-05	301.73	84.604	66.551	20.035	1.6007e-05	27.831	165.632	177.608	-26.224	-148.378	-42.953	-14.984	-148.606	-141.591	-68.737	7.079	-141.506	-135.147	-135.235	-127.640	10.225	-128.546	-8191	255	
586.747	1	1	0	0	0.14834	0.1169	0.12626	0.12718	0.23757	0.53797	0.24852	0.35131	0.032655	0.20885	0.11972	0.23741	0.18128	0.15427	0.11501	0.25029	-2.5938	-3.3354	-2.9583	-3.1917	-3.4042	-3.0104	-3.725	-3.4188	-3.2021	-3.4875	-3.1729	-3.1813	-3.4729	-3.2292	-3.2146	-3.4896	98.681	-153.438	135.745	155.412	-120.274	-151.743	158.060	167.195	145.263	166.514	-88.137	191.871	169.082	187.988	35.785	-143.597	0.00033675	0.00030022	5.9663e-05	1118.8	1.5152e-06	2.0224e-06	1182.6	242.02	4.8173e-06	4.0956e-06	299.88	83.859	65.887	19.614	1.3183e-06	27.148	0.00094543	0.0015044	0.00044704	1105.5	1.5145e-05	1.746e-05	1174.2	241.51	1.5559e-05	1.7233e-05	301.4	84.5	66.39	20.002	1.5474e-05	27.808	163.338	-44.551	-28.798	-148.404	-41.496	-6.092	-148.445	-141.465	-57.966	-0.110	-141.507	-135.432	-135.227	-127.872	-20.306	-128.377	-8191	255	
586.842	1	1	0	0	0.24089	0.29872	0.199	0.17955	0.12368	0.13941	0.16386	0.018175	0.15804	0.080338	0.084376	0.098207	0.097856	0.1485	0.24077	0.16186	-2.6188	-3.275	-3.2938	-3.2167	-3.4437	-2.8417	-3.3771	-3.4229	-2.8917	-3.4583	-3.1521	-3.0708	-3.4521	-3.0167	-3.2542	-3.4646	-44.447	5.147	-122.655	169.727	13.499	-86.981	80.913	-92.505	-148.915	-85.137	88.823	-142.569	-131.827	-111.941	6.212	-155.079	0.00035235	0.00043223	5.8641e-05	1119.9	2.8039e-06	2.1463e-06	1184.7	242.47	1.5445e-06	2.5207e-06	298.88	83.899	65.714	19.653	1.6902e-06	27.293	0.00093343	0.0015346	0.00043041	1105.2	1.4805e-05	1.7252e-05	1173.5	241.06	1.5139e-05	1.7491e-05	300.79	84.378	66.282	19.996	1.5428e-05	27.868	159.242	-69.082	-66.540	-148.296	-67.994	-52.576	-148.626	-141.479	-68.803	10.013	-141.495	-135.466	-135.408	-127.751	19.793	-128.286	-8191	255	
586.939	1	1	0	0	0.12953	0.048578	0.1402	0.28134	0.17087	0.062689	0.057826	0.17962	0.053483	0.21467	0.12786	0.057535	0.15637	0.27181	0.30059	0.25254	-2.4646	-3.3583	-3.2417	-3.1167	-3.4292	-3.0396	-3.2625	-3.3958	-3.0917	-3.2604	-3.1729	-3.0875	-3.3792	-3.0667	-3.2021	-3.5104	-124.535	155.313	175.071	-140.006	145.093	150.916	-153.570	-116.687	-14.728	-113.784	1.640	-30.848	-72.212	-129.979	-117.504	60.954	0.000324	0.00025127	0.00012791	1117.4	2.2577e-06	3.1091e-06	1178.8	242.47	1.7121e-06	5.7292e-06	300.15	83.645	65.834	19.524	1.9831e-06	27.25	0.000927	0.0015288	0.00043469	1103.1	1.4979e-05	1.715e-05	1170.1	241.05	1.5388e-05	1.7438e-05	300.67	84.37	66.36	19.933	1.6291e-05	27.767	166.792	-9.309	-66.023	-148.290	-49.957	-19.873	-148.394	-141.823	-17.525	2.560	-141.684	-135.401	-135.150	-127.891	0.880	-128.493	-8191	255	
587.036	1	1	0	0	0.27683	0.11364	0.051278	0.18252	0.089987	0.13085	0.038326	0.24232	0.06832	0.34492	0.27664	0.1367	0.20719	0.20367	0.21252	0.16078	-2.4396	-3.0146	-3.2625	-3.3104	-3.4333	-3.1167	-3.1917	-3.5146	-2.8875	-3.2646	-3.2271	-3.0167	-3.4813	-3.1958	-3.0167	-3.4188	150.994	64.485	82.221	148.850	-123.488	141.609	172.706	55.130	63.593	194.232	166.221	-159.653	-19.529	-141.544	-17.908	196.562	0.00029824	0.00050263	5.1127e-05	1114.5	2.0117e-06	1.7532e-06	1174.4	241.65	3.6639e-06	3.8817e-06	299.15	82.973	65.268	19.53	3.9631e-06	26.667	0.00097591	0.0016432	0.00045424	1102	1.5846e-05	1.8584e-05	1169	240.47	1.6776e-05	1.8747e-05	300.85	84.144	66.168	19.857	1.7372e-05	27.516	163.768	-86.489	-23.469	-148.158	-94.548	32.518	-148.677	-141.913	-76.544	45.146	-141.564	-135.583	-135.267	-127.978	-23.069	-128.156	-8191	255	
587.130	1	1	0	0	0.40776	0.055553	0.12288	0.037983	0.15961	0.19951	0.15882	0.14162	0.11766	0.25759	0.18318	0.27892	0.057351	0.20646	0.068447	0.10103	-2.5625	-3.1979	-3.3208	-3.1208	-3.4792	-3.1437	-3.2542	-3.4521	-3.0167	-3.2208	-3.4979	-2.9896	-3.4792	-3.2313	-2.9688	-3.2792	147.350	67.260	-7.127	-24.266	-152.087	-29.861	190.470	-143.852	141.258	199.581	93.169	6.321	152.340	137.989	188.013	108.365	0.00027667	0.00018884	0.00013278	1114.6	1.8977e-06	4.5251e-06	1173.2	240.13	2.1858e-06	1.2424e-06	297.24	82.547	65.185	19.416	3.9254e-06	26.805	0.00098233	0.0016297	0.00048919	1100.4	1.6575e-05	1.9028e-05	1166.1	239.53	1.7481e-05	1.9631e-05	298.84	83.493	65.809	19.77	1.7763e-05	27.514	165.309	-51.479	-65.030	-148.300	-82.304	-3.496	-148.606	-141.525	-67.841	17.340	-141.765	-135.292	-135.186	-128.102	-25.232	-128.130	-8191	255	
587.226	1	1	0	0	0.3224	0.033601	0.19224	0.082992	0.13991	0.19268	0.12805	0.013391	0.12669	0.062155	0.053557	0.055529	0.085765	0.11563	0.064657	0.024451	-2.6646	-3.1146	-3.3438	-3.0417	-3.2625	-3.2208	-3.0729	-3.55	-3.3229	-3.0625	-3.3458	-2.9271	-3.2104	-3.1375	-2.7229	-3.5312	197.388	110.446	186.280	69.666	-36.885	-80.323	137.575	-93.738	100.037	154.236	-14.977	112.335	198.365	-103.911	193.145	-127.328	0.00033093	0.00053024	9.8529e-05	1108.5	3.1298e-06	4.597e-06	1173.4	239.62	3.3185e-06	5.2197e-06	296.31	82.688	64.889	19.34	1.8064e-06	26.573	0.00099327	0.0016839	0.00048592	1096.2	1.5674e-05	1.8677e-05	1162.9	238.54	1.7289e-05	1.9021e-05	297.68	83.365	65.608	19.695	1.7272e-05	27.318	167.729	-81.451	-56.978	-148.056	-67.405	-35.380	-148.327	-141.575	-114.069	-7.639	-141.572	-135.534	-135.282	-127.881	-75.458	-128.309	-8191	255	
587.347	1	1	0	0	0.29976	0.25835	0.014165	0.28393	0.22016	0.080594	0.067507	0.099569	0.18101	0.015584	0.18205	0.083545	0.17796	0.097963	0.16332	0.1588	-2.6792	-2.9917	-3.4146	-3.0271	-3.2292	-3.4917	-3.15	-3.4292	-3.0646	-3.0792	-3.3937	-3.1625	-3.2646	-3.3667	-3.1063	-3.3	180.852	-65.528	19.243	-145.424	-4.088	-111.657	113.828	172.945	-13.181	-152.344	12.426	187.968	171.886	-77.501	46.019	-87.705	0.00025082	2.1101e-05	0.00010288	1107.5	1.7677e-06	3.8134e-06	1164.9	238.17	2.88e-06	3.216e-06	295.25	82.535	64.896	19.252	2.3892e-06	26.758	0.00097264	0.0017271	0.00047727	1091.4	1.586e-05	1.9056e-05	1158.6	237.6	1.6691e-05	1.9561e-05	297.06	83.281	65.448	19.686	1.673e-05	27.453	156.025	60.429	-73.000	-148.192	-30.070	34.713	-148.553	-141.502	-68.453	32.438	-141.378	-135.363	-135.194	-127.692	22.507	-128.473	-8191	255	
587.443	1	1	0	0	0.32363	0.20361	0.15465	0.13114	0.11001	0.09053	0.15299	0.21689	0.078392	0.25591	0.32099	0.050068	0.11874	0.17094	0.14064	0.058817	-2.7417	-2.9104	-3.3104	-3.3	-3.1354	-3.3021	-3.0583	-3.3812	-3.3292	-2.9271	-3.4813	-3.0625	-3.1708	-3.5167	-2.9792	-3.3167	-76.749	76.459	8.437	48.622	168.090	-1.792	88.506	169.669	199.706	-88.219	112.594	-109.566	184.481	-158.903	192.189	95.950	0.00030691	0.00038319	6.9509e-05	1109.4	3.8565e-06	1.6364e-06	1169.7	239.08	3.5998e-06	5.1554e-06	296.37	82.434	65.046	19.282	2.928e-06	26.541	0.00097303	0.0016477	0.00046085	1095.7	1.5877e-05	1.8156e-05	1161.7	237.66	1.6975e-05	1.8566e-05	297.62	83.128	65.405	19.608	1.6876e-05	27.278	166.308	-77.770	-36.832	-148.097	-26.197	-28.077	-148.473	-141.696	-57.178	-86.857	-141.617	-135.544	-135.030	-127.625	-14.113	-127.787	-8191	255	
587.515	1	1	0	0	0.076987	0.11528	0.16934	0.18395	0.41219	0.17387	0.26191	0.16932	0.17987	0.27142	0.069053	0.17999	0.16374	0.21217	0.014925	0.15259	-2.9771	-3.0438	-3.4333	-3.1312	-3.1	-3.3896	-3.2313	-3.3646	-3.225	-3.05	-3.6167	-3.2396	-3.0167	-3.4354	-2.9292	-3.2125	55.644	-145.930	42.743	176.543	36.999	192.779	98.668	142.245	67.081	54.200	139.550	133.421	194.637	154.666	-23.902	155.534	0.00029672	0.00026481	9.5108e-05	1103.2	1.3534e-06	4.37e-07	1164.3	237.92	2.8104e-06	1.3691e-06	296.67	82.192	64.881	19.279	4.1031e-06	26.53	0.00095527	0.0016536	0.00045436	1090.6	1.6092e-05	1.8325e-05	1158.5	237.17	1.6076e-05	1.8532e-05	296.86	83.158	65.401	19.576	1.6604e-05	27.313	157.872	-67.289	-74.346	-148.323	149.352	-37.174	-148.293	-141.483	-71.130	-1.948	-141.358	-135.593	-135.696	-127.820	-27.744	-128.081	-8191	255	
587.611	1	1	0	0	0.11035	0.088568	0.20582	0.29662	0.079965	0.27849	0.22536	0.24551	0.12816	0.24382	0.15387	0.14564	0.17071	0.22336	0.066168	0.23287	-2.8333	-2.8854	-3.3479	-3.4354	-3.0083	-3.3333	-3.2167	-3.1646	-3.3771	-2.8458	-3.4208	-3.2979	-3.1875	-3.5458	-3.1937	-3.1667	-55.991	-56.798	116.875	99.678	-31.300	-1.213	129.459	160.628	-49.551	-70.045	-23.297	48.555	-6.407	-37.298	150.736	157.159	0.00028054	0.00029188	7.2813e-05	1104	3.0978e-06	3.3612e-06	1168.7	237.32	2.2528e-06	4.5108e-06	295.94	82.908	65.27	19.404	6.0479e-06	26.871	0.00094571	0.001665	0.00044696	1092.9	1.6096e-05	1.781e-05	1160.2	237.18	1.5731e-05	1.8163e-05	297.02	83.412	65.555	19.694	1.5881e-05	27.484	160.158	-13.827	-100.407	-148.246	-69.259	3.028	-148.388	-141.214	-48.351	6.795	-141.407	-135.335	-135.119	-127.660	-56.031	-128.100	-8191	255	
587.731	1	1	0	0	0.0092579	0.11038	0.32382	0.18727	0.39091	0.11523	0.27351	0.23904	0.13662	0.053193	0.083026	0.16308	0.14604	0.12649	0.21	0.10041	-3.0042	-2.9521	-3.2146	-3.4062	-2.8417	-3.4437	-3.2958	-3.125	-3.4625	-3.0521	-3.2521	-3.4854	-3.0354	-3.3146	-3.0938	-3.2396	-119.907	-24.740	-103.693	193.127	137.149	-82.080	122.376	132.323	-20.597	-150.028	179.293	115.265	124.420	-107.366	-6.836	172.740	0.00035176	0.00043111	0.00013758	1112.1	1.1053e-07	3.3172e-06	1167.9	238.14	3.5669e-06	2.451e-06	295.39	82.498	64.854	19.373	3.4298e-06	26.773	0.00091048	0.0015038	0.00042507	1095.9	1.5043e-05	1.6805e-05	1162.7	237.53	1.5421e-05	1.722e-05	296.3	83.212	65.471	19.652	1.542e-05	27.382	162.706	-55.076	-73.688	-148.072	-151.412	-41.260	-148.491	-141.549	-92.782	-24.315	-141.519	-135.604	-134.914	-127.807	-21.555	-128.463	-8191	255	
587.826	1	1	0	0	0.10475	0.050109	0.063375	0.32598	0.039715	0.17371	0.18347	0.29327	0.037107	0.11706	0.19159	0.054048	0.23123	0.1655	0.025396	0.21202	-3.0875	-3.0854	-3.3729	-3.3854	-3.0333	-3.3688	-3.5583	-3.0542	-3.5542	-3.0896	-3.3104	-3.3521	-3.05	-3.5	-3.1646	-3.0604	69.899	-149.388	-135.950	176.741	160.772	-119.130	141.498	130.951	-8.038	24.372	196.451	-86.536	129.861	195.524	99.678	-89.042	0.00033972	0.00035443	0.00010607	1102.7	6.888e-07	4.9203e-06	1167.5	238.31	3.5995e-06	2.9653e-06	295.78	82.244	65.298	19.408	3.0855e-06	26.74	0.00090441	0.0014611	0.00041409	1090.2	1.4246e-05	1.6382e-05	1156.8	237.42	1.4258e-05	1.587e-05	296.52	83.052	65.593	19.673	1.4163e-05	27.365	158.320	-116.189	-93.983	-148.248	-56.548	-47.351	-148.509	-141.135	-19.641	-1.200	-141.359	-135.441	-135.099	-127.787	-19.849	-128.345	-8191	255	
587.922	1	1	0	0	0.27709	0.12746	0.10734	0.13654	0.10208	0.084172	0.14702	0.080016	0.17885	0.19326	0.1864	0.077298	0.051019	0.23144	0.15172	0.16892	-3.0667	-2.9146	-3.1646	-3.6646	-2.8396	-3.3187	-3.1813	-2.9521	-3.4583	-3.1688	-3.2562	-3.425	-2.9792	-3.3521	-3.325	-3.1	-144.026	-118.322	49.264	61.616	-70.374	-135.830	121.581	-107.833	-93.563	-24.596	98.202	5.963	151.887	-139.422	119.427	63.657	0.00035053	0.00051794	6.3466e-05	1101.6	3.0992e-06	1.1678e-06	1160.8	236.03	3.0526e-06	3.4759e-06	293.23	81.691	64.563	19.212	7.7095e-07	26.768	0.00084204	0.0013673	0.00038161	1085	1.3387e-05	1.4816e-05	1151.3	235.64	1.3411e-05	1.5404e-05	293.7	82.564	65.035	19.517	1.4063e-05	27.266	166.699	-69.480	-56.109	-148.154	-52.330	-35.899	-148.488	-141.437	-62.821	31.619	-141.184	-135.383	-135.143	-127.248	-104.536	-128.077	-8191	255	
588.020	1	1	0	0	0.038001	0.10253	0.32258	0.071928	0.24931	0.21512	0.17534	0.23545	0.23681	0.19805	0.1603	0.21833	0.26434	0.122	0.15012	0.16044	-3.0563	-3.1792	-3.0854	-3.6292	-2.9437	-3.4667	-3.4333	-3.05	-3.3104	-3.15	-3.1333	-3.5333	-2.9208	-3.2167	-3.2687	-2.8438	173.890	-84.709	21.333	-143.824	-1.576	-146.591	91.105	129.498	-42.665	-31.654	-81.537	24.953	125.475	60.435	-54.465	196.550	0.00029381	0.00036957	5.8187e-05	1089.4	2.8471e-06	2.7036e-06	1154.7	234.7	2.202e-06	4.8418e-07	294.25	81.585	64.588	19.361	1.5221e-06	26.454	0.00080382	0.0013342	0.00036881	1076	1.3189e-05	1.4748e-05	1143.3	234.58	1.3266e-05	1.5016e-05	293.95	82.543	64.885	19.534	1.3582e-05	27.183	163.523	-87.518	-9.451	-148.185	-14.070	18.133	-148.336	-141.463	-46.044	22.524	-142.072	-135.446	-135.181	-127.570	-15.890	-128.147	-8191	255	
588.114	1	1	0	0	0.032056	0.18948	0.35938	0.24643	0.10529	0.12669	0.18763	0.22292	0.26755	0.18596	0.3182	0.033117	0.058263	0.15462	0.14289	0.1218	-2.8604	-3.2625	-3.1208	-3.5812	-2.9938	-3.2	-3.6646	-2.9917	-3.3625	-3.2375	-3.0938	-3.5958	-3.075	-3.2771	-3.3354	-3.0667	165.593	-69.521	-131.941	-154.904	-53.249	46.051	144.987	127.151	175.605	103.415	171.467	-29.632	-20.612	-10.127	24.221	-5.821	0.00033202	0.0004285	0.00015418	1089.9	1.9064e-06	3.6357e-06	1152	234.55	5.0423e-06	2.6191e-06	294.37	81.667	64.472	19.381	4.2918e-06	26.703	0.00077888	0.001318	0.00036735	1074.4	1.3151e-05	1.4706e-05	1142.3	234.72	1.2743e-05	1.4887e-05	294.34	82.715	64.85	19.592	1.3304e-05	27.335	167.543	-63.796	-96.284	-148.202	-54.243	-27.019	-148.423	-141.457	-60.584	11.752	-141.552	-135.243	-135.008	-127.497	-22.944	-128.515	-8191	255	
588.210	1	1	0	0	0.24425	0.11444	0.27824	0.16134	0.20032	0.16539	0.31581	0.10976	0.046288	0.15221	0.15653	0.26128	0.25161	0.19741	0.20818	0.14881	-2.9375	-3.3021	-2.9417	-3.4542	-3.1917	-3.0979	-3.575	-2.9813	-3.3354	-3.4375	-3.0792	-3.3333	-3.1688	-2.9542	-3.5521	-3.0333	-97.689	-128.707	104.354	107.182	19.930	88.854	78.194	29.117	-144.248	-111.124	-123.455	132.883	-88.917	162.233	-31.927	-9.920	0.00031845	0.00019848	6.4592e-05	1089.1	3.7075e-06	4.0005e-06	1152.2	235.98	5.3044e-06	3.6246e-06	294.12	82.134	64.72	19.274	3.569e-06	26.693	0.00076166	0.0012842	0.00034876	1074.2	1.2264e-05	1.3751e-05	1141.7	235	1.2469e-05	1.4276e-05	293.95	82.764	64.966	19.595	1.2854e-05	27.249	167.805	-75.194	-50.556	-148.035	2.058	18.153	-148.594	-141.284	-30.820	-10.361	-141.476	-135.454	-135.466	-127.643	-30.492	-128.203	-8191	255	
588.307	1	1	0	0	0.081245	0.26183	0.24646	0.01689	0.18314	0.0090276	0.06245	0.23577	0.13099	0.029276	0.19617	0.042057	0.077655	0.26288	0.21058	0.19251	-2.7917	-3.2646	-2.9583	-3.5354	-3.1708	-3.0896	-3.6188	-3.1104	-3.1833	-3.325	-3.0104	-3.4854	-3.2854	-2.9229	-3.5792	-3.0687	4.180	50.416	-22.617	144.830	-8.144	-106.853	89.241	-148.642	20.570	-42.826	-49.834	-154.538	-63.160	-91.565	-34.822	25.230	0.00033329	0.00011239	6.5912e-05	1084.9	4.5341e-06	1.9018e-06	1150.5	237.1	2.6939e-06	3.7913e-06	292.52	82.467	64.869	19.266	3.152e-06	26.719	0.00075661	0.0012268	0.00035476	1071.9	1.2156e-05	1.4111e-05	1140.6	235.61	1.2367e-05	1.4546e-05	294.17	82.964	65.155	19.585	1.2794e-05	27.354	166.420	-28.568	-44.032	-148.147	-45.722	-46.259	-148.304	-141.464	-53.365	21.124	-141.378	-135.540	-134.991	-127.535	0.286	-128.495	-8191	255	
588.427	1	1	0	0	0.21686	0.39642	0.10257	0.17453	0.1385	0.20122	0.18667	0.18875	0.094604	0.091151	0.097564	0.19108	0.019158	0.16947	0.31184	0.20101	-2.8146	-3.5375	-2.8792	-3.5458	-3.3229	-3.1	-3.6396	-3.0521	-3.2958	-3.5687	-2.9271	-3.4062	-3.2333	-2.975	-3.3583	-3.1688	-100.714	35.444	117.132	146.506	-147.592	159.536	140.073	136.789	1.335	-18.878	124.765	-46.542	2.307	162.614	-45.660	47.176	0.00031194	0.00040656	8.0521e-05	1091.3	3.5844e-06	4.1058e-06	1151.5	237.76	4.6444e-06	3.0261e-06	294.05	82.607	64.558	19.444	5.2423e-06	26.841	0.00076347	0.0012485	0.00035672	1075.5	1.2444e-05	1.4093e-05	1141	235.62	1.2672e-05	1.3622e-05	294.32	83	65.114	19.674	1.2147e-05	27.345	159.980	-79.594	-30.797	-148.143	-77.438	-5.416	-148.540	-141.502	-36.883	31.335	-141.589	-135.382	-135.536	-127.628	-36.102	-128.048	-8191	255	
588.523	1	1	0	0	0.074958	0.14799	0.22012	0.12755	0.14638	0.32917	0.062536	0.07973	0.15706	0.11479	0.059773	0.23226	0.14167	0.16194	0.070363	0.18371	-2.5479	-3.4417	-3.0271	-3.2917	-3.2938	-3.0771	-3.4938	-3.0271	-3.1312	-3.4729	-3.0167	-3.3354	-3.3354	-2.9813	-3.4729	-3.0896	156.363	-65.558	-136.451	-138.265	-123.166	44.751	-147.357	177.106	-81.766	-17.020	188.816	130.434	-152.193	-73.935	-89.921	161.187	0.00032982	0.00036079	3.7602e-05	1089.4	1.6907e-06	2.5148e-06	1152.5	236.35	3.1012e-06	3.2812e-06	294.4	82.029	64.89	19.26	3.3542e-06	26.656	0.00076521	0.0012066	0.00033699	1075.4	1.2101e-05	1.3654e-05	1142.6	235.65	1.2615e-05	1.3679e-05	294.52	82.815	65.12	19.622	1.2291e-05	27.281	163.857	-72.307	-66.768	-148.155	-38.510	-51.053	-148.381	-141.249	-76.809	5.215	-141.482	-135.524	-135.225	-127.795	-21.290	-128.049	-8191	255	
588.619	1	1	0	0	0.1299	0.11046	0.13338	0.17987	0.23242	0.32758	0.23208	0.04634	0.17964	0.1695	0.18016	0.25712	0.14285	0.27851	0.35734	0.017023	-2.6521	-3.35	-2.9958	-3.2896	-3.4292	-3.0604	-3.4083	-3.2583	-2.9813	-3.3563	-3.0604	-3.1688	-3.3667	-2.9292	-3.3063	-3.1625	-35.514	-58.920	-114.394	129.613	16.205	-85.594	124.687	178.603	197.658	68.020	-21.561	-56.935	65.794	-96.366	-106.776	-57.104	0.00029154	0.00041367	0.00012442	1089.5	2.775e-06	3.7481e-06	1149.3	236.76	3.7294e-06	3.92e-06	296.63	81.87	64.757	19.147	1.9441e-06	26.496	0.00076592	0.0012026	0.0003544	1074.5	1.2411e-05	1.4107e-05	1140.9	235.72	1.304e-05	1.436e-05	295.03	82.554	65.077	19.52	1.3639e-05	27.185	160.449	-100.664	-82.818	-148.177	-15.805	-12.477	-148.482	-141.576	-68.091	-17.723	-141.767	-135.513	-135.297	-127.231	-17.853	-127.984	-8191	255	
588.740	1	1	0	0	0.21572	0.11086	0.057867	0.058122	0.29557	0.010174	0.19769	0.14344	0.20028	0.1866	0.14974	0.34612	0.17494	0.099487	0.1697	0.060052	-2.5979	-3.4583	-3.1	-3.2021	-3.4188	-2.8125	-3.4562	-3.1896	-3.0604	-3.4437	-3.0833	-3.2438	-3.4917	-3.3292	-3.3646	-3.1833	77.727	-33.444	137.014	-28.459	-76.933	88.146	161.498	189.151	-137.561	101.845	185.980	118.262	126.831	-25.171	195.728	42.353	0.00031144	0.00033702	5.599e-05	1089.8	1.7616e-06	4.4885e-06	1151	237.17	4.0911e-06	2.4869e-06	295.46	81.883	64.453	19.165	5.8433e-06	26.344	0.00081771	0.0013018	0.00037702	1074.8	1.3123e-05	1.5008e-05	1141	235.53	1.3964e-05	1.5258e-05	295.01	82.518	64.917	19.5	1.3849e-05	27.069	157.501	-101.203	-46.066	-148.118	-50.054	-7.126	-148.390	-141.396	-59.356	45.826	-141.606	-135.264	-134.807	-127.429	-49.696	-128.364	-8191	255	
588.812	1	1	0	0	0.24634	0.17633	0.095044	0.28743	0.11814	0.092539	0.16909	0.11924	0.090091	0.121	0.037907	0.058295	0.026043	0.31836	0.1783	0.034988	-2.4667	-3.3333	-3.0292	-3.15	-3.4125	-3.0396	-3.2458	-3.2687	-2.9167	-3.4708	-3.2854	-2.85	-3.6104	-3.1604	-3.0833	-3.3354	-125.674	-102.583	-121.418	-143.661	32.570	-118.629	190.796	177.404	23.732	-82.479	142.126	134.698	199.598	190.790	37.771	160.101	0.00036249	0.00039053	4.9614e-05	1087.1	3.7547e-06	5.1114e-06	1150.4	236.25	3.089e-06	3.5282e-06	291.94	81.73	64.695	19.098	4.352e-06	26.627	0.0008712	0.001392	0.00040162	1072.9	1.3599e-05	1.5599e-05	1141.8	235.45	1.4335e-05	1.5376e-05	294.56	82.642	64.986	19.49	1.4102e-05	27.175	159.709	-95.429	-50.572	-148.192	-44.390	-0.891	-148.281	-141.383	-83.779	-12.861	-141.349	-135.339	-135.169	-127.552	-55.572	-128.610	-8191	255	
588.908	1	1	0	0	0.19445	0.17684	0.14032	0.087695	0.29168	0.22681	0.043321	0.26504	0.054202	0.11642	0.1324	0.17992	0.096377	0.16369	0.05787	0.17897	-2.4917	-3.2896	-3.1771	-3.0417	-3.4875	-3.0708	-3.1833	-3.4667	-2.8125	-3.3042	-3.2479	-3.1521	-3.4708	-3.1937	-3.1208	-3.4542	-14.438	100.483	83.048	-110.652	170.580	111.248	26.888	-152.328	-139.678	-47.992	179.344	196.863	-121.009	-100.910	-94.061	109.531	0.000336	0.00019707	4.4465e-05	1089.2	1.856e-06	9.284e-07	1149.2	235.95	4.0613e-06	4.143e-06	294.61	81.312	64.58	19.098	2.1046e-06	26.594	0.00083415	0.0013852	0.000398	1073.5	1.3329e-05	1.5676e-05	1142.1	235.46	1.3555e-05	1.5396e-05	295.03	82.421	64.978	19.501	1.4462e-05	27.213	165.920	-16.275	-45.874	-148.059	-25.451	11.239	-148.310	-141.343	-86.882	10.489	-141.382	-135.380	-135.085	-127.348	-21.439	-127.974	-8191	255	
589.027	1	1	0	0	0.12572	0.2055	0.07149	0.45636	0.044193	0.14227	0.26077	0.13626	0.37324	0.10591	0.19255	0.23165	0.09676	0.38431	0.1035	0.091577	-2.5292	-3.225	-3.1542	-2.9708	-3.45	-3.1604	-3.3958	-3.5292	-2.8542	-3.1604	-2.9896	-2.9396	-3.3083	-3.2104	-3.0896	-3.4229	-64.399	-74.386	200.147	135.316	-19.736	-129.896	99.141	189.664	99.207	-89.879	128.937	-92.444	-155.009	107.597	48.557	-159.062	0.00032125	0.00017003	2.4173e-05	1085.8	3.0374e-06	2.287e-06	1150.9	237.3	2.7121e-06	3.169e-06	291.91	82.176	64.602	19.085	4.2089e-06	26.323	0.00081295	0.001358	0.00037775	1072.5	1.3545e-05	1.5631e-05	1141.2	235.53	1.3767e-05	1.5097e-05	293.7	82.597	64.905	19.467	1.3846e-05	27.105	162.020	-95.602	-9.222	-147.998	-38.168	12.631	-148.450	-141.612	-51.571	-1.838	-141.314	-135.425	-135.241	-127.952	-40.394	-127.990	-8191	255	
589.123	1	1	0	0	0.12984	0.11231	0.045569	0.13547	0.23707	0.23563	0.084218	0.26183	0.11963	0.15885	0.26128	0.20012	0.32587	0.25233	0.065988	0.10769	-2.6125	-3.3354	-3.1667	-2.9979	-3.4375	-3.3021	-3.2333	-3.5833	-3.1229	-3.15	-3.3979	-2.9771	-3.4396	-3.2479	-2.9542	-3.4854	80.338	88.823	64.069	74.577	-70.046	-16.564	-69.101	144.410	15.250	-86.855	195.001	190.733	-123.776	162.868	4.306	60.018	0.00031368	0.0002884	5.5726e-05	1085.8	2.9828e-06	3.7524e-06	1152.3	236.8	1.7569e-06	3.5552e-06	293.25	81.886	64.657	19.144	2.4777e-06	26.487	0.0008366	0.0013616	0.00038518	1073.6	1.3306e-05	1.5404e-05	1141.9	235.6	1.4073e-05	1.6035e-05	294.69	82.549	65.013	19.503	1.4327e-05	27.234	164.940	-63.618	-52.670	-148.213	-18.667	-1.503	-148.404	-141.733	-11.913	54.824	-141.409	-135.471	-135.052	-127.694	-19.079	-128.288	-8191	255	
589.219	1	1	0	0	0.071952	0.14188	0.058117	0.27755	0.063754	0.12037	0.39533	0.15506	0.0063425	0.20137	0.12632	0.056173	0.05699	0.13669	0.13466	0.20705	-2.7562	-3.2083	-3.2396	-3.1021	-3.2417	-3.2542	-3.0042	-3.4917	-3.0563	-3.1708	-3.3688	-3.0292	-3.35	-3.3417	-2.8917	-3.4521	165.037	129.852	195.724	165.949	143.499	32.078	124.165	115.470	2.583	126.651	183.345	147.324	-85.559	-98.438	159.536	93.714	0.00030144	0.00027175	7.0403e-05	1085.9	1.8385e-06	3.5524e-06	1149.7	237.56	3.095e-06	3.6994e-06	294.59	81.997	64.353	19.355	3.8085e-06	26.712	0.00081472	0.0013751	0.00037477	1073.7	1.288e-05	1.5444e-05	1141.3	235.72	1.362e-05	1.5262e-05	295.05	82.62	64.969	19.611	1.3608e-05	27.239	158.411	-85.192	-60.292	-148.019	-29.529	36.496	-148.369	-141.274	-68.565	21.323	-141.558	-135.324	-135.498	-127.712	-60.197	-128.200	-8191	255	
589.315	1	1	0	0	0.12187	0.23295	0.12157	0.11104	0.059322	0.27697	0.044974	0.053311	0.21506	0.10885	0.22457	0.11131	0.20189	0.02074	0.16858	0.14079	-2.6521	-2.8729	-3.4667	-3.0375	-3.0625	-3.4979	-3.0729	-3.4708	-3.2417	-2.9458	-3.5438	-3.0708	-3.1125	-3.4854	-2.8688	-3.4188	-68.724	123.946	60.767	69.955	-69.231	78.146	118.012	130.226	161.272	192.151	112.019	109.237	-3.144	6.869	7.884	188.144	0.00032255	0.00021493	6.4263e-05	1089.3	3.0081e-06	3.7983e-06	1148.3	236.23	4.6289e-06	3.0997e-06	294.69	82.374	64.279	19.267	2.8519e-06	26.75	0.00081884	0.001365	0.00037637	1073.7	1.3032e-05	1.4953e-05	1140.9	235.55	1.3555e-05	1.4822e-05	294.79	82.542	64.87	19.56	1.3386e-05	27.307	166.226	-112.053	-49.123	-148.172	-49.490	35.794	-148.427	-141.196	-94.527	14.127	-141.529	-135.096	-135.107	-127.531	-54.779	-127.988	-8191	255	
589.411	1	1	0	0	0.1512	0.10219	0.21055	0.1593	0.29802	0.076256	0.11091	0.26691	0.12301	0.22402	0.24656	0.34622	0.16888	0.10445	0.25992	0.068829	-2.6937	-2.9229	-3.4729	-3.3271	-3.1896	-3.3438	-3.025	-3.5208	-3.1125	-3.0792	-3.55	-3.1312	-3.1708	-3.3458	-3.0187	-3.3396	12.063	-114.462	-7.618	187.631	159.950	191.440	-53.050	61.076	197.920	31.947	83.855	151.168	-152.350	-21.076	-124.487	153.350	0.00034585	0.00022981	0.00012576	1088.6	2.4642e-06	4.9419e-07	1156.2	236.2	2.7175e-06	3.417e-06	294.15	81.867	65.054	19.393	8.5662e-07	26.538	0.00080748	0.0013177	0.00036426	1074.2	1.3179e-05	1.4911e-05	1142.8	235.5	1.392e-05	1.5358e-05	294	82.729	65.069	19.664	1.3281e-05	27.188	164.909	-89.791	-80.670	-148.037	-51.688	-94.115	-148.315	-141.718	-22.729	-27.863	-141.451	-135.559	-135.234	-127.668	-33.853	-127.906	-8191	255	
589.508	1	1	0	0	0.12695	0.19268	0.17407	0.15782	0.15416	0.43454	0.2723	0.061627	0.16246	0.098155	0.068279	0.13968	0.090724	0.044133	0.044723	0.077083	-2.8438	-3.0417	-3.4292	-3.2229	-3.1437	-3.4875	-3.2271	-3.2833	-3.4354	-3.0104	-3.4104	-3.1646	-2.9083	-3.4854	-3.1167	-3.4	1.670	-91.603	106.442	-126.491	-10.728	176.005	148.773	90.842	10.802	-49.769	-45.817	-109.148	-100.257	-34.697	56.369	-36.900	0.00031914	0.00027251	5.8018e-05	1086.4	2.9352e-06	3.6622e-06	1150	237.16	2.8749e-06	3.6383e-06	295.42	82.359	64.758	19.239	2.5939e-06	26.563	0.00080396	0.0013748	0.00036176	1072.7	1.3364e-05	1.4495e-05	1141.3	235.99	1.3255e-05	1.4942e-05	295.39	82.83	65.076	19.593	1.3354e-05	27.23	167.729	-36.804	-93.461	-148.093	-35.504	-20.151	-148.319	-141.244	-85.956	8.299	-141.251	-135.703	-135.107	-127.912	-32.105	-128.510	-8191	255	
589.604	1	1	0	0	0.1276	0.1201	0.09002	0.22262	0.049521	0.10956	0.22155	0.22266	0.29883	0.0093596	0.31515	0.19024	0.28775	0.024006	0.041609	0.12711	-2.9104	-2.9625	-3.4188	-3.2458	-2.9021	-3.5687	-3.1417	-3.2729	-3.3458	-2.9313	-3.2229	-3.2354	-3.1229	-3.5938	-3.2292	-3.1458	-51.297	154.567	-128.545	161.345	-157.125	79.144	95.532	63.487	-60.232	46.567	184.529	89.789	-131.462	-39.320	-63.684	18.191	0.00036046	0.00032321	6.2263e-05	1087.9	2.906e-06	2.5684e-06	1151.8	237.6	4.7491e-06	2.9388e-06	294.93	82.17	64.617	19.309	3.7168e-06	26.739	0.00080105	0.0013289	0.00036212	1074.4	1.2931e-05	1.4728e-05	1144	236.01	1.3379e-05	1.4363e-05	294.67	82.848	65.299	19.649	1.3215e-05	27.324	165.896	-105.890	-38.179	-148.170	-48.484	-34.102	-148.425	-141.461	-53.826	-17.320	-141.521	-135.337	-135.055	-127.752	-18.130	-128.047	-8191	255	
589.700	1	1	0	0	0.20323	0.080883	0.16204	0.30466	0.142	0.16525	0.2615	0.071405	0.10867	0.04883	0.17645	0.1889	0.26473	0.15447	0.1522	0.183	-2.9521	-2.9	-3.1042	-3.4562	-3.1458	-3.5042	-3.3583	-3.0979	-3.3021	-2.9708	-3.3333	-3.1958	-3.1167	-3.3875	-3.125	-3.0667	113.772	-92.551	-132.159	133.669	22.664	-28.496	112.234	37.719	182.190	161.794	129.318	-148.154	110.426	51.364	36.810	-139.855	0.00033454	0.00023719	5.815e-05	1085.1	3.7219e-06	3.9491e-06	1147.8	237.57	3.1589e-06	3.4175e-06	294.34	82.245	65.228	19.458	2.4697e-06	26.588	0.00078638	0.0013093	0.00035284	1074.1	1.2882e-05	1.4401e-05	1141.9	236.52	1.2622e-05	1.4721e-05	295.15	82.977	65.307	19.677	1.2909e-05	27.286	168.364	-42.702	-88.445	-148.137	-52.535	25.971	-148.323	-141.414	-12.125	-14.726	-141.796	-135.255	-135.047	-127.274	-82.618	-128.204	-8191	255	
589.819	1	1	0	0	0.18488	0.19397	0.1389	0.073865	0.28135	0.16753	0.20934	0.23538	0.10558	0.14185	0.11577	0.034745	0.13948	0.091167	0.1396	0.22789	-2.9771	-2.9708	-3.1792	-3.3063	-2.9958	-3.2354	-3.0812	-3.0875	-3.3792	-3.0875	-3.3229	-3.3604	-3.0292	-3.2771	-3.0438	-2.8563	-93.825	-5.807	192.185	-136.691	-131.555	94.085	86.955	18.644	86.735	-110.430	-128.970	114.039	-96.894	-49.021	-74.771	-108.654	0.00033682	9.3002e-05	4.5567e-05	1087.7	1.0821e-06	1.7965e-06	1154.3	236.86	2.6634e-06	2.7243e-06	297.77	82.394	64.563	19.412	4.2218e-06	26.704	0.00076226	0.0012301	0.00035961	1075.8	1.239e-05	1.4165e-05	1144.7	236.83	1.2651e-05	1.4292e-05	295.48	83.007	65.168	19.648	1.2762e-05	27.369	159.314	-119.850	-59.781	-148.057	-36.068	-19.460	-148.268	-141.466	-37.527	-21.175	-141.750	-135.137	-135.311	-127.445	18.431	-128.462	-8191	255	
589.915	1	1	0	0	0.09271	0.22439	0.13559	0.1246	0.22068	0.077588	0.19014	0.12912	0.23178	0.20603	0.22553	0.29992	0.23359	0.22119	0.1371	0.036641	-2.8917	-2.8771	-3.2	-3.4	-2.8708	-3.3667	-3.275	-3.0354	-3.3937	-3.0812	-3.2042	-3.425	-2.8896	-3.4042	-3.2708	-3.0146	-118.053	-32.849	-122.379	-118.533	-50.427	-7.262	111.170	169.123	-76.572	-15.244	31.559	191.929	139.021	-157.489	-66.434	22.565	0.00032951	0.00035945	5.7159e-05	1090.3	1.4341e-06	6.0261e-06	1151.6	238.44	2.7462e-06	2.7828e-06	295.69	83.034	65.136	19.475	4.6484e-06	26.904	0.00077011	0.0012232	0.00034107	1076.1	1.2227e-05	1.3418e-05	1146.1	237.01	1.2629e-05	1.3663e-05	295.98	83.375	65.435	19.728	1.256e-05	27.433	166.607	-81.359	16.598	-148.170	-75.463	-21.182	-148.366	-141.566	-67.698	13.980	-141.549	-135.500	-134.984	-127.437	-40.432	-128.203	-8191	255	
590.011	1	1	0	0	0.035533	0.050929	0.049091	0.07538	0.092214	0.184	0.032438	0.27702	0.25518	0.2374	0.18035	0.25735	0.069659	0.153	0.30687	0.36949	-3.1417	-3.0625	-3.0208	-3.4271	-3.0708	-3.4375	-3.5375	-2.9875	-3.3312	-3.1375	-3.0708	-3.5854	-2.925	-3.3667	-3.3812	-3.0812	-82.119	-144.533	124.844	-110.992	-17.062	-107.332	-18.849	-90.253	-68.800	-121.392	-157.141	2.033	188.292	136.175	-95.402	109.598	0.00029898	0.00024431	0.00014892	1094.1	1.4542e-06	3.6301e-06	1156.3	239.24	2.3335e-06	4.8276e-06	295.81	82.638	65.397	19.552	4.6148e-06	26.789	0.00074109	0.0011702	0.00033837	1078.1	1.1842e-05	1.3423e-05	1146.2	237.16	1.1978e-05	1.3605e-05	296.41	83.3	65.625	19.777	1.2267e-05	27.413	166.056	-57.690	-67.992	-148.055	-29.852	-11.960	-148.355	-141.335	-91.308	30.893	-141.478	-135.827	-135.178	-127.673	-60.146	-128.269	-8191	255	
590.107	1	1	0	0	0.064492	0.13917	0.1439	0.094142	0.15547	0.11726	0.24461	0.15181	0.09909	0.15397	0.16117	0.070911	0.17318	0.16684	0.03397	0.25859	-2.9625	-3.0229	-3.0375	-3.4979	-3.1208	-3.2687	-3.3771	-2.9792	-3.375	-3.3604	-3.0646	-3.4583	-3.0687	-3.1917	-3.3958	-3.0021	-57.212	-133.100	180.651	177.039	-120.007	-108.372	119.045	32.593	163.591	119.831	161.645	185.355	70.646	138.968	-13.497	54.446	0.00035334	0.00038174	6.0173e-05	1092.4	2.5807e-06	2.5129e-06	1160	237.99	1.2959e-06	2.0293e-06	295.22	83.173	65.233	19.488	1.3602e-06	26.734	0.00076976	0.0012097	0.00032891	1078.5	1.2138e-05	1.306e-05	1149.2	237.23	1.1931e-05	1.3729e-05	295.91	83.52	65.546	19.77	1.1832e-05	27.377	165.471	-48.380	-33.431	-148.309	-89.114	42.254	-148.214	-141.361	-116.158	-42.269	-141.120	-135.553	-135.035	-127.517	1.703	-128.315	-8191	255	
#DATA ENDS
