BOXY.EXE: ISS Imagent and Oximeter Data Acquisition Program Version 0.80
Ascii Record File

#ACQ INFORMATION
2  Detector Channels 
16  External MUX Channels 
1  Auxiliary Channels 
5000  Waveform (CCF) Frequency (Hz)
1  Waveforms Skipped 
30  Waveforms Averaged 
1  Cycles Averaged 
16  Acquisitions per Waveform 
10.0806  Updata Rate (Hz) 

#FILE INFORMATION
TRUE -- External MUX Channel results are PARSED.
FALSE -- AC DC and Phase are NOT grouped.
TRUE -- Companion Program Settings File CREATED.
FALSE -- AC data not excluded
FALSE -- DC data not excluded
FALSE -- Phase data not excluded
FALSE -- Auxillary Chn. data not excluded
Tab delimiters

#CALIBRATION STATE
TRUE -- Waveform Calibration Values APPLIED.


#AUX CALIBRATION VALUES
Val Type	aux-1	

Term	1.0000e+00	
Factor	0.0000e+00	


#WF CALIBRATION VALUES
A = Detector Channel
Val Type	A-AC1	A-AC2	A-AC3	A-AC4	A-AC5	A-AC6	A-AC7	A-AC8	A-AC9	A-AC10	A-AC11	A-AC12	A-AC13	A-AC14	A-AC15	A-AC16	A-DC1	A-DC2	A-DC3	A-DC4	A-DC5	A-DC6	A-DC7	A-DC8	A-DC9	A-DC10	A-DC11	A-DC12	A-DC13	A-DC14	A-DC15	A-DC16	A-Ph1	A-Ph2	A-Ph3	A-Ph4	A-Ph5	A-Ph6	A-Ph7	A-Ph8	A-Ph9	A-Ph10	A-Ph11	A-Ph12	A-Ph13	A-Ph14	A-Ph15	A-Ph16	

Term	0.00000e+00	0.00000e+00	0.00000e+00	0.00000e+00	0.00000e+00	0.00000e+00	0.00000e+00	0.00000e+00	0.00000e+00	0.00000e+00	0.00000e+00	0.00000e+00	0.00000e+00	0.00000e+00	0.00000e+00	0.00000e+00	0.00000e+00	0.00000e+00	0.00000e+00	0.00000e+00	0.00000e+00	0.00000e+00	0.00000e+00	0.00000e+00	0.00000e+00	0.00000e+00	0.00000e+00	0.00000e+00	0.00000e+00	0.00000e+00	0.00000e+00	0.00000e+00	0.00000e+00	0.00000e+00	0.00000e+00	0.00000e+00	0.00000e+00	0.00000e+00	0.00000e+00	0.00000e+00	0.00000e+00	0.00000e+00	0.00000e+00	0.00000e+00	0.00000e+00	0.00000e+00	0.00000e+00	0.00000e+00	
Factor	1.00000e+00	1.00000e+00	1.00000e+00	1.00000e+00	1.00000e+00	1.00000e+00	1.00000e+00	1.00000e+00	1.00000e+00	1.00000e+00	1.00000e+00	1.00000e+00	1.00000e+00	1.00000e+00	1.00000e+00	1.00000e+00	1.00000e+00	1.00000e+00	1.00000e+00	1.00000e+00	1.00000e+00	1.00000e+00	1.00000e+00	1.00000e+00	1.00000e+00	1.00000e+00	1.00000e+00	1.00000e+00	1.00000e+00	1.00000e+00	1.00000e+00	1.00000e+00	X	X	X	X	X	X	X	X	X	X	X	X	X	X	X	X	

B = Detector Channel
Val Type	B-AC1	B-AC2	B-AC3	B-AC4	B-AC5	B-AC6	B-AC7	B-AC8	B-AC9	B-AC10	B-AC11	B-AC12	B-AC13	B-AC14	B-AC15	B-AC16	B-DC1	B-DC2	B-DC3	B-DC4	B-DC5	B-DC6	B-DC7	B-DC8	B-DC9	B-DC10	B-DC11	B-DC12	B-DC13	B-DC14	B-DC15	B-DC16	B-Ph1	B-Ph2	B-Ph3	B-Ph4	B-Ph5	B-Ph6	B-Ph7	B-Ph8	B-Ph9	B-Ph10	B-Ph11	B-Ph12	B-Ph13	B-Ph14	B-Ph15	B-Ph16	

Term	0.00000e+00	0.00000e+00	0.00000e+00	0.00000e+00	0.00000e+00	0.00000e+00	0.00000e+00	0.00000e+00	0.00000e+00	0.00000e+00	0.00000e+00	0.00000e+00	0.00000e+00	0.00000e+00	0.00000e+00	0.00000e+00	0.00000e+00	0.00000e+00	0.00000e+00	0.00000e+00	0.00000e+00	0.00000e+00	0.00000e+00	0.00000e+00	0.00000e+00	0.00000e+00	0.00000e+00	0.00000e+00	0.00000e+00	0.00000e+00	0.00000e+00	0.00000e+00	-4.59321e+01	-1.32836e+02	-1.28772e+02	-1.81533e+02	-4.93772e+01	-6.39361e+01	-1.55347e+02	-1.62015e+02	-3.57999e+01	-6.45174e+01	-1.73666e+02	-1.69368e+02	-1.82170e+02	-1.77333e+02	-5.38375e+01	-1.50313e+02	
Factor	1.91885e-05	1.52369e-04	4.12016e-05	1.59053e-01	1.58558e-06	1.69154e-06	1.55876e-01	4.96054e-02	1.24853e-06	1.69721e-06	8.45981e-02	2.71889e-02	2.28968e-02	8.45572e-03	1.61081e-06	1.22530e-02	1.69761e-05	4.43923e-05	1.24624e-05	8.12505e-02	4.02155e-07	5.11337e-07	7.47858e-02	2.54041e-02	3.86709e-07	5.08020e-07	4.20734e-02	1.35596e-02	1.18818e-02	4.37770e-03	4.34692e-07	6.11801e-03	X	X	X	X	X	X	X	X	X	X	X	X	X	X	X	X	



#DISTANCE SETTINGS
A = Detector Channel
A-1	A-2	A-3	A-4	A-5	A-6	A-7	A-8	A-9	A-10	A-11	A-12	A-13	A-14	A-15	A-16	

2.5000e+00	3.0000e+00	2.5000e+00	3.0000e+00	2.0000e+00	3.0000e+00	1.5000e+00	3.0000e+00	3.0000e+00	3.0000e+00	3.0000e+00	3.0000e+00	3.0000e+00	3.0000e+00	1.5000e+00	3.0000e+00	

B = Detector Channel
B-1	B-2	B-3	B-4	B-5	B-6	B-7	B-8	B-9	B-10	B-11	B-12	B-13	B-14	B-15	B-16	

1.0000e+01	1.0000e+01	1.0000e+01	1.4400e+00	1.0000e+01	1.0000e+01	1.5100e+00	1.9400e+00	1.0000e+01	1.0000e+01	1.9900e+00	2.4900e+00	2.4100e+00	2.9000e+00	1.0000e+01	2.9800e+00	




#DATA BEGINS
time	group	step	mark	flag	A-AC1	A-AC2	A-AC3	A-AC4	A-AC5	A-AC6	A-AC7	A-AC8	A-AC9	A-AC10	A-AC11	A-AC12	A-AC13	A-AC14	A-AC15	A-AC16	A-DC1	A-DC2	A-DC3	A-DC4	A-DC5	A-DC6	A-DC7	A-DC8	A-DC9	A-DC10	A-DC11	A-DC12	A-DC13	A-DC14	A-DC15	A-DC16	A-Ph1	A-Ph2	A-Ph3	A-Ph4	A-Ph5	A-Ph6	A-Ph7	A-Ph8	A-Ph9	A-Ph10	A-Ph11	A-Ph12	A-Ph13	A-Ph14	A-Ph15	A-Ph16	B-AC1	B-AC2	B-AC3	B-AC4	B-AC5	B-AC6	B-AC7	B-AC8	B-AC9	B-AC10	B-AC11	B-AC12	B-AC13	B-AC14	B-AC15	B-AC16	B-DC1	B-DC2	B-DC3	B-DC4	B-DC5	B-DC6	B-DC7	B-DC8	B-DC9	B-DC10	B-DC11	B-DC12	B-DC13	B-DC14	B-DC15	B-DC16	B-Ph1	B-Ph2	B-Ph3	B-Ph4	B-Ph5	B-Ph6	B-Ph7	B-Ph8	B-Ph9	B-Ph10	B-Ph11	B-Ph12	B-Ph13	B-Ph14	B-Ph15	B-Ph16	aux-1	digaux	

845.832	1	1	0	768	0.034517	0.15109	0.11373	0.21784	0.23621	0.10442	0.14664	0.078534	0.11009	0.09424	0.22831	0.18173	0.096476	0.2232	0.19089	0.17942	-3.6917	-3.4917	-3.9125	-3.9688	-3.6813	-4.2063	-3.9417	-3.7292	-4.0125	-3.55	-4.0104	-4.1312	-3.6479	-4	-3.7896	-3.8083	-118.224	2.143	87.716	193.999	-124.419	120.295	144.664	184.296	-1.280	-11.959	218.702	176.248	-41.412	-19.836	186.256	212.944	0.00017703	0.00036213	8.4193e-05	1220.3	2.9962e-06	2.0413e-06	1277.5	250.5	2.0152e-06	2.9339e-06	311.97	87.087	68.002	19.864	3.4454e-06	28.118	0.00033694	0.00046954	0.00012156	1202.1	5.4014e-06	4.8076e-06	1262.1	248.7	4.4544e-06	5.331e-06	310.1	87.529	68.581	20.144	4.5045e-06	28.416	-70.287	-42.083	-38.224	-122.756	-15.444	27.834	-122.703	-115.569	-11.697	17.019	-115.896	-109.291	-109.103	-102.581	32.958	-102.125	-8191	255	
845.928	1	1	0	0	0.22827	0.13933	0.08374	0.24536	0.19026	0.063207	0.23648	0.19492	0.1361	0.092175	0.1189	0.1888	0.1066	0.0844	0.10872	0.16071	-3.6917	-3.8146	-3.925	-4.0188	-3.5896	-4.075	-4.0792	-3.6479	-3.9938	-3.6333	-3.9521	-4.0687	-3.6375	-3.9875	-3.7896	-3.6437	-75.551	-58.497	99.854	172.651	158.428	190.966	159.443	171.403	155.674	186.763	-110.593	17.388	65.695	42.683	70.619	66.450	0.00017202	0.0004499	9.6349e-05	1213.1	2.9494e-06	3.1845e-06	1272.4	250.37	2.245e-06	2.4583e-06	313.02	86.892	68.505	19.855	2.6838e-06	27.887	0.00031466	0.00047657	0.00012987	1199.2	5.5455e-06	4.5999e-06	1259	248.82	4.5841e-06	4.9585e-06	310.2	87.56	68.648	20.143	4.9772e-06	28.416	-71.230	-64.705	-43.143	-122.638	17.722	49.433	-122.468	-115.716	11.944	18.367	-115.890	-109.215	-109.053	-101.936	16.242	-102.427	-8191	255	
846.024	1	1	0	0	0.18194	0.12135	0.25985	0.082909	0.16541	0.18107	0.11743	0.32684	0.26632	0.063965	0.096305	0.10821	0.2519	0.14665	0.032989	0.19323	-3.5646	-3.6312	-3.725	-4.1937	-3.4583	-3.9167	-4.1	-3.5687	-4.0771	-3.7188	-3.6604	-4.0479	-3.7375	-3.925	-3.9333	-3.7167	208.625	-3.092	-17.466	-100.730	226.342	18.610	-121.508	186.531	-31.250	152.066	-10.104	75.830	-19.518	201.071	73.132	210.795	0.0001831	0.00031946	4.8191e-05	1219.6	3.0842e-06	2.384e-06	1276.1	249.68	2.044e-06	3.199e-06	312.11	87.37	68.491	19.941	2.8808e-06	28.257	0.00032601	0.00045225	0.00013701	1201.9	5.3855e-06	5.3786e-06	1261.2	248.28	4.5607e-06	5.5946e-06	309.97	87.493	68.635	20.162	4.9329e-06	28.532	-67.052	-39.390	-65.701	-122.558	28.618	-23.248	-122.261	-115.364	-1.479	4.766	-116.007	-109.247	-108.738	-102.160	50.876	-102.702	-8191	255	
846.120	1	1	0	0	0.13807	0.22441	0.085668	0.26326	0.16978	0.30485	0.18796	0.14371	0.2728	0.15599	0.12561	0.29093	0.055585	0.10679	0.17573	0.1978	-3.6708	-3.9104	-3.7458	-4.1937	-3.5687	-3.8083	-3.9917	-3.6833	-4.0583	-3.9854	-3.7771	-4.1083	-3.7146	-4.0021	-4.1146	-3.5875	136.589	-47.950	-32.577	119.137	115.630	175.168	161.465	-125.642	-1.142	-94.735	153.133	134.632	32.176	-60.396	86.184	193.733	0.00018388	0.00030099	6.6396e-05	1216.4	1.9407e-06	3.3481e-06	1275.8	249.84	2.2926e-06	3.4363e-06	310.71	86.669	68.649	20.09	2.6959e-06	28.084	0.00032209	0.00043884	0.00013467	1198.9	5.3269e-06	5.3413e-06	1260.7	248.24	4.5503e-06	5.3067e-06	309.73	87.46	68.58	20.217	4.6666e-06	28.506	-71.971	-64.470	-31.376	-122.597	19.104	35.677	-122.555	-115.356	18.789	19.441	-115.999	-109.231	-108.476	-101.888	22.948	-102.555	-8191	255	
846.216	1	1	0	0	0.020938	0.11467	0.12484	0.3229	0.14246	0.13012	0.32311	0.23839	0.19098	0.088278	0.17429	0.15748	0.22805	0.15019	0.46259	0.088947	-3.6813	-3.9313	-3.6021	-4.1479	-3.7	-3.6792	-4.2479	-3.6479	-3.8479	-3.9208	-3.6167	-4.2812	-3.7792	-3.8917	-3.9979	-3.5438	1.261	141.848	85.534	216.064	196.073	47.697	176.347	157.558	147.413	198.117	224.101	0.450	208.610	173.656	19.626	-90.950	0.00020959	0.00029318	7.6176e-05	1219.4	3.3659e-06	4.1184e-06	1273.8	250.2	2.0327e-06	2.6101e-06	313.26	87.361	68.503	19.939	1.2361e-06	28.2	0.00031289	0.00047139	0.0001374	1200.1	4.9482e-06	4.9834e-06	1259.3	248.5	4.9176e-06	5.1934e-06	310.85	87.53	68.523	20.18	4.8287e-06	28.492	-70.692	-47.076	-63.352	-122.615	15.016	21.971	-122.596	-115.447	30.530	15.401	-115.748	-109.480	-109.163	-101.987	7.954	-102.603	-8191	255	
846.313	1	1	0	0	0.087461	0.13808	0.22758	0.14501	0.21789	0.19201	0.29516	0.10638	0.17351	0.25881	0.13921	0.25386	0.040849	0.20273	0.29875	0.32457	-3.6583	-3.9	-3.5146	-4.1396	-3.625	-3.8	-4.275	-3.7708	-3.8771	-4.1	-3.8146	-4.0833	-3.8229	-3.7417	-4.0417	-3.65	-56.455	52.292	9.035	218.785	-43.781	40.741	138.658	224.260	19.878	179.379	-121.070	209.429	144.260	-122.822	-49.555	154.438	0.00017023	0.00039174	7.7686e-05	1220.9	2.1997e-06	3.7455e-06	1278.1	248.78	2.5057e-06	4.06e-06	311.66	86.765	68.113	20.027	3.6107e-06	28.029	0.00030299	0.00043523	0.00012901	1200.7	4.7128e-06	5.1379e-06	1258.1	247.97	4.8661e-06	5.1321e-06	310.11	87.563	68.562	20.19	4.8858e-06	28.442	-77.446	-29.338	-34.782	-122.640	18.007	26.784	-122.388	-115.428	27.214	15.712	-115.814	-108.837	-108.841	-102.186	14.637	-102.629	-8191	255	
846.433	1	1	0	0	0.08223	0.06194	0.085731	0.15204	0.089982	0.26659	0.25685	0.064573	0.18934	0.099899	0.13267	0.19514	0.23725	0.016209	0.1517	0.20781	-3.5729	-4.0229	-3.5708	-4.1396	-4.0333	-3.8354	-4.2438	-3.7458	-3.9583	-4.1833	-3.7979	-3.9271	-3.9271	-3.6333	-4.1292	-3.7542	7.593	-32.292	173.600	187.061	193.372	147.459	156.995	112.853	143.168	111.639	-41.120	2.059	133.623	53.098	177.652	-124.631	0.00017112	0.0003525	8.3475e-05	1217.8	2.0411e-06	4.1432e-06	1276.4	249.52	2.157e-06	3.6434e-06	312.69	87.018	68.226	20.097	2.5009e-06	28.073	0.00029949	0.00043902	0.00012948	1199.3	4.9934e-06	5.2561e-06	1258.8	247.72	4.7154e-06	4.9553e-06	310.14	87.491	68.479	20.232	4.3922e-06	28.47	-75.663	-42.861	-26.179	-122.898	6.135	33.409	-122.591	-115.314	18.913	20.666	-116.227	-109.104	-109.100	-102.077	19.599	-102.698	-8191	255	
846.528	1	1	0	0	0.10257	0.13598	0.14248	0.25101	0.094215	0.12145	0.17531	0.20326	0.2196	0.089465	0.29078	0.075824	0.22479	0.15234	0.044371	0.23294	-3.3771	-3.975	-3.6542	-4.0771	-3.8604	-3.4938	-4.2833	-3.7833	-3.85	-4.0875	-3.6562	-3.9875	-4.0333	-3.6479	-4.0729	-3.7625	-64.236	52.479	8.847	213.457	115.860	-116.841	128.138	139.963	-61.856	-9.663	165.494	190.028	79.881	192.230	-42.868	-57.929	0.00017137	0.00023298	7.3444e-05	1210.1	2.7834e-06	4.4251e-06	1267	248.32	2.4649e-06	2.9366e-06	310.07	87.417	68.502	19.992	3.308e-06	28.14	0.00033068	0.00039426	0.00012273	1195.1	4.7898e-06	4.9685e-06	1254.4	247.39	4.7992e-06	4.8548e-06	309.14	87.464	68.475	20.167	4.3053e-06	28.465	-66.629	-44.121	-36.876	-122.665	15.306	25.093	-122.496	-115.530	29.005	-18.064	-115.778	-109.045	-108.956	-102.087	47.109	-102.203	-8191	255	
846.624	1	1	0	0	0.086762	0.14941	0.34053	0.20931	0.046301	0.014454	0.35941	0.1136	0.11421	0.013617	0.1354	0.17887	0.077166	0.13807	0.18812	0.13835	-3.2354	-4.0479	-3.6125	-3.9208	-3.8854	-3.6021	-4.2792	-3.8187	-3.4771	-4.15	-3.7604	-4.0542	-4.1583	-3.6146	-4.0396	-3.8438	-112.015	-21.913	75.425	-121.126	-129.853	164.968	184.057	222.032	129.799	45.200	126.465	-10.891	170.636	112.866	215.655	158.072	0.00019138	0.00028873	5.797e-05	1212.5	3.6278e-06	3.2579e-06	1267.9	248.32	1.7152e-06	2.4025e-06	312.45	87.372	68.337	19.92	2.4335e-06	28.106	0.00033142	0.00044235	0.00011959	1195.8	4.9557e-06	4.553e-06	1254.5	247.22	4.6929e-06	4.7151e-06	309.93	87.774	68.54	20.145	4.3016e-06	28.424	-71.462	-39.087	-20.387	-122.483	26.810	-6.822	-122.417	-115.692	27.838	42.967	-115.939	-109.198	-108.575	-102.199	37.081	-102.082	-8191	255	
846.722	1	1	0	0	0.046773	0.19657	0.15612	0.27881	0.14969	0.15519	0.28896	0.18162	0.12917	0.09761	0.11958	0.18896	0.044072	0.11277	0.17231	0.17336	-3.2938	-4.1042	-3.5375	-4	-4.0896	-3.7875	-4.2479	-4.0083	-3.7708	-4.0667	-4.0396	-4.0167	-4.1833	-3.6188	-4.0521	-3.9229	-47.626	-70.250	177.970	201.766	189.745	-31.034	190.942	125.111	213.790	-19.738	-129.196	159.111	208.759	115.917	-79.266	147.741	0.00018155	0.00029176	5.5987e-05	1212.4	2.4882e-06	4.1021e-06	1267.1	249.16	1.5221e-06	3.3353e-06	311.84	86.94	68.21	20.09	2.845e-06	27.987	0.00031165	0.00041719	0.00011582	1194.9	4.6248e-06	4.6372e-06	1253.3	247.13	4.7436e-06	4.3192e-06	309.23	87.384	68.323	20.183	4.0082e-06	28.432	-73.597	-49.466	-35.852	-122.580	34.209	30.529	-122.595	-115.300	35.047	17.292	-115.878	-109.219	-108.824	-102.249	34.080	-102.935	-8191	255	
846.816	1	1	0	0	0.17664	0.023725	0.11786	0.13854	0.13895	0.13814	0.20736	0.23906	0.24936	0.23473	0.094329	0.2536	0.14099	0.25643	0.13715	0.30676	-3.2208	-4.0729	-3.7917	-3.8625	-4.125	-3.5208	-4.1583	-4.0646	-3.5917	-3.8875	-3.7458	-3.7458	-4.1667	-3.7438	-3.9437	-4.0542	116.839	200.411	130.886	208.997	46.416	69.358	93.908	68.908	10.060	-12.013	43.508	181.259	42.123	171.473	-89.703	194.212	0.0001977	0.00023142	9.5581e-05	1209.3	9.381e-07	3.4812e-06	1269	247.94	3.0788e-06	2.0846e-06	311.15	87.239	68.409	19.896	1.6948e-06	28.285	0.00033698	0.0003876	0.00011419	1191.8	4.6332e-06	4.7703e-06	1254.7	247.44	4.6147e-06	4.3213e-06	309.09	87.397	68.41	20.149	4.2989e-06	28.472	-74.567	-55.059	-27.741	-122.695	2.083	44.545	-122.244	-115.707	21.538	14.540	-116.097	-109.264	-109.180	-102.120	31.029	-102.610	-8191	255	
846.912	1	1	0	0	0.17393	0.15546	0.25005	0.11677	0.061368	0.3044	0.29776	0.083032	0.032179	0.12662	0.15772	0.083646	0.12023	0.026689	0.1801	0.12309	-3.2604	-3.9042	-3.9813	-3.7292	-4.1354	-3.6333	-4.05	-4.0125	-3.5521	-4.0271	-3.9104	-3.6396	-4.0875	-3.6917	-4.0333	-4.225	113.185	-131.477	-106.529	-15.114	126.254	214.689	113.344	-109.152	-34.982	-76.699	223.480	-66.327	-78.902	191.507	-29.297	122.691	0.00017915	0.00030016	9.2016e-05	1206.7	3.0086e-06	2.3857e-06	1274.6	248.86	2.3785e-06	2.9929e-06	311.32	86.914	68.015	19.935	2.8936e-06	28.192	0.00030571	0.00040702	0.00010544	1191.6	4.5167e-06	4.8098e-06	1255.4	247.39	4.4818e-06	4.7151e-06	308.61	87.399	68.331	20.162	4.5253e-06	28.49	-74.597	-44.558	-56.152	-122.780	13.394	22.205	-122.461	-115.544	1.155	38.230	-116.049	-109.061	-108.678	-102.010	33.034	-102.306	-8191	255	
847.033	1	1	0	0	0.12145	0.22579	0.12944	0.33183	0.071601	0.24256	0.071885	0.18442	0.10835	0.21107	0.12798	0.062179	0.19464	0.12176	0.25173	0.26744	-3.0979	-4.0292	-3.8396	-3.8	-4.2188	-3.7062	-3.9125	-4.2188	-3.7771	-3.9813	-4.0312	-3.5125	-4.1562	-3.8354	-3.725	-4.0396	61.485	116.455	90.970	206.782	2.387	167.936	109.822	151.229	-84.309	-124.894	166.445	197.910	-76.295	111.898	144.992	-107.074	0.00018699	0.00027182	7.2126e-05	1209.9	2.66e-06	2.4401e-06	1268.1	248.49	2.0647e-06	4.0879e-06	310.39	86.823	68.199	19.956	3.9754e-06	28.179	0.00031275	0.00038196	0.00010281	1190	4.6541e-06	4.2835e-06	1252.6	246.62	4.452e-06	4.3012e-06	309.44	87.292	68.378	20.149	4.5407e-06	28.488	-70.435	-37.465	-49.748	-122.414	23.742	24.485	-122.575	-115.518	3.022	5.340	-115.879	-109.127	-108.586	-102.193	29.191	-102.327	-8191	255	
847.129	1	1	0	0	0.062343	0.10674	0.21383	0.15238	0.1822	0.18416	0.039665	0.22255	0.17645	0.066836	0.16924	0.27485	0.10292	0.027157	0.26304	0.053154	-3.3875	-3.9479	-3.9354	-3.7833	-4.1146	-3.8375	-3.7708	-4.2708	-3.6937	-3.8563	-4.0583	-3.7583	-4.1167	-3.8833	-3.5646	-4.1687	48.889	-39.906	-130.265	222.167	165.004	163.914	-130.148	131.670	34.352	-54.050	129.966	191.109	147.826	-65.777	-58.440	129.878	0.00017963	0.00034423	7.803e-05	1207.1	3.5617e-06	2.9762e-06	1259	246.54	1.8709e-06	2.9224e-06	309.87	86.415	67.968	20.053	2.1435e-06	27.968	0.00031452	0.00040332	0.00010536	1188.7	4.3609e-06	4.3549e-06	1245.4	245.9	4.2345e-06	3.9414e-06	307.81	87.15	68.316	20.159	4.1531e-06	28.379	-66.926	-30.274	-48.025	-122.587	-1.146	26.323	-122.415	-115.520	8.619	25.020	-115.933	-108.934	-108.807	-101.662	29.253	-102.527	-8191	255	
847.225	1	1	0	0	0.10741	0.051267	0.18849	0.1651	0.060092	0.23105	0.22082	0.25716	0.18242	0.11152	0.031389	0.2281	0.045883	0.31062	0.083023	0.37498	-3.3021	-3.7729	-3.9938	-3.9021	-4.1333	-3.8917	-3.8729	-4.2188	-3.7229	-3.8021	-4.1333	-3.7104	-4.0146	-3.8979	-3.5521	-4.0938	51.285	23.082	193.116	119.994	-46.444	-61.518	190.909	120.578	-131.984	142.610	-16.813	-108.394	152.273	99.994	81.956	172.077	0.00015653	0.00027584	9.8573e-05	1199.9	2.6649e-06	2.476e-06	1261	248.83	2.3151e-06	3.5977e-06	310.22	86.179	67.782	19.942	2.1369e-06	28.139	0.00031278	0.00036892	0.00010741	1183.3	4.5703e-06	4.4976e-06	1246.1	246.21	4.5736e-06	4.2494e-06	307.79	87.002	68.273	20.099	4.3759e-06	28.483	-73.163	-67.559	-57.567	-122.577	-5.829	40.708	-122.399	-115.585	13.190	25.261	-115.742	-109.215	-108.950	-101.774	-12.762	-102.306	-8191	255	
847.321	1	1	0	0	0.22684	0.15079	0.17113	0.32575	0.14178	0.17546	0.29413	0.17923	0.21974	0.19441	0.085275	0.081913	0.19665	0.19024	0.19303	0.092137	-3.3125	-3.9375	-3.9896	-3.8021	-4.1062	-4.0292	-3.7208	-4.0104	-3.6979	-3.7542	-4.1813	-3.5687	-3.8937	-4.0479	-3.5354	-4.0021	-14.423	68.438	201.506	205.911	-3.625	-96.784	150.303	185.929	158.848	-77.744	214.796	30.201	176.715	168.590	127.561	165.455	0.00019803	0.00025985	0.00012411	1199.7	2.4572e-06	3.3435e-06	1262.7	247.56	3.2466e-06	3.0889e-06	309.01	87.21	68.287	20.033	2.533e-06	28.23	0.00030157	0.00040138	0.00010567	1185	4.3852e-06	4.2175e-06	1245.8	245.95	4.0322e-06	4.3467e-06	307.14	87.326	68.322	20.168	4.0336e-06	28.456	-72.653	-21.715	-53.677	-122.680	8.773	17.997	-122.399	-115.274	-4.336	-5.737	-116.019	-109.097	-109.016	-101.742	17.903	-102.170	-8191	255	
847.417	1	1	0	0	0.22528	0.16588	0.082009	0.053213	0.16468	0.20477	0.29802	0.16612	0.21097	0.026371	0.15024	0.20162	0.1136	0.22702	0.084922	0.10236	-3.4271	-3.6583	-4.1333	-3.7625	-3.9042	-4.2	-3.8729	-4.0542	-3.7521	-3.5708	-4.1896	-3.6312	-3.9625	-3.9458	-3.5187	-4.1062	95.939	-16.941	176.751	167.860	203.847	31.599	-129.125	54.772	-42.180	64.772	171.863	150.208	-125.396	196.774	138.533	139.405	0.00017774	0.00023949	9.1559e-05	1201.8	1.3797e-06	2.9509e-06	1258.4	247.53	2.635e-06	3.0558e-06	307.48	86.632	67.557	19.921	3.494e-06	28.031	0.00030026	0.00038131	9.8712e-05	1181.9	4.4664e-06	3.9565e-06	1242.5	245.24	4.5398e-06	4.1457e-06	306.82	86.979	67.924	20.095	4.2029e-06	28.339	-72.082	-28.035	-47.368	-122.625	19.540	14.777	-122.361	-115.604	23.927	12.576	-115.627	-109.395	-108.474	-101.969	44.451	-102.434	-8191	255	
847.514	1	1	0	0	0.10269	0.056945	0.10425	0.10111	0.07172	0.13012	0.10878	0.26979	0.15411	0.1593	0.17184	0.1709	0.3519	0.22075	0.050367	0.19284	-3.5875	-3.6708	-4.1708	-3.825	-3.7812	-4.0958	-3.8583	-4.0167	-3.9104	-3.5938	-4.2646	-3.7771	-3.8229	-3.9646	-3.5521	-3.975	218.142	104.758	93.672	166.547	188.531	135.929	196.633	164.770	17.000	-11.445	150.880	107.494	-76.423	152.690	-44.507	-107.045	0.00019199	0.00036043	0.00012445	1198.9	2.3534e-06	2.7906e-06	1251.1	246.91	2.7512e-06	3.3581e-06	308.32	86.682	67.744	19.932	2.5084e-06	27.836	0.00030451	0.00039629	9.4221e-05	1181.5	4.4136e-06	4.2068e-06	1239.8	245.02	4.2562e-06	4.1213e-06	306.86	86.96	67.93	20.1	3.9439e-06	28.271	-71.301	-34.724	-40.126	-122.398	36.831	18.354	-122.376	-115.214	-1.488	30.413	-115.854	-108.962	-108.761	-102.041	24.747	-102.426	-8191	255	
847.608	1	1	0	0	0.26411	0.19788	0.080709	0.23655	0.12471	0.13682	0.09894	0.20387	0.089968	0.015697	0.23649	0.10661	0.24186	0.28484	0.06776	0.18217	-3.6729	-3.5833	-4.0792	-3.9542	-3.6396	-4.0979	-3.7438	-3.9938	-4.0396	-3.6333	-4.1354	-3.7604	-3.8271	-4.1104	-3.6354	-4.0396	137.201	118.510	8.504	-129.943	34.311	-26.804	187.105	150.939	94.987	60.748	169.264	218.351	183.982	115.993	182.993	174.577	0.00016773	0.00031303	0.00011267	1195.2	3.5326e-06	3.7473e-06	1249.3	247.19	1.8216e-06	3.0812e-06	307.82	86.18	67.954	19.923	2.9641e-06	27.769	0.00030656	0.0003888	0.00010118	1176.9	4.4614e-06	4.1599e-06	1237.4	245.11	4.0137e-06	4.3319e-06	306.55	86.977	67.937	20.021	3.8651e-06	28.225	-74.739	-45.019	-42.154	-122.568	7.639	33.125	-122.504	-115.352	9.658	35.873	-115.790	-108.826	-108.560	-102.053	10.151	-101.890	-8191	255	
847.704	1	1	0	0	0.1946	0.16155	0.1086	0.26469	0.16032	0.26162	0.19698	0.24159	0.038163	0.27977	0.082625	0.088088	0.30623	0.18804	0.084068	0.079775	-3.6021	-3.4479	-3.8875	-4.1146	-3.6667	-4.1917	-3.8583	-3.9271	-4.1667	-3.7083	-4.0125	-3.9	-3.5417	-4.1646	-3.6813	-3.7833	209.258	-60.598	-103.765	188.006	134.663	-66.241	100.092	-79.484	-112.482	88.388	214.603	209.583	-115.743	118.302	198.158	157.744	0.00018979	0.00022608	6.1891e-05	1197.7	2.1021e-06	3.1401e-06	1256.2	246.5	2.7388e-06	2.4162e-06	310.29	86.194	67.736	19.755	4.0708e-06	28.02	0.00028813	0.00037807	0.0001032	1178.2	4.1104e-06	3.8372e-06	1238.2	244.98	4.1031e-06	4.3976e-06	307.22	86.803	68.077	20.026	4.3125e-06	28.339	-77.931	-54.414	-46.713	-122.551	29.281	25.468	-122.411	-115.260	18.505	6.260	-116.071	-109.423	-108.764	-101.808	12.437	-102.262	-8191	255	
847.825	1	1	0	0	0.073668	0.1001	0.097641	0.20606	0.13522	0.24973	0.070619	0.089217	0.085373	0.12329	0.17379	0.26651	0.064012	0.16724	0.1063	0.24119	-3.7896	-3.5104	-3.9938	-4.1083	-3.5917	-4.1167	-3.9188	-3.7208	-3.9396	-3.6875	-3.975	-3.8854	-3.7167	-4.1458	-3.775	-3.6875	83.511	216.539	192.947	187.654	11.051	-82.005	148.989	129.043	35.189	48.998	63.696	132.444	201.333	-63.088	216.123	202.202	0.00019869	0.00025421	0.00010993	1192.8	3.3652e-06	2.8164e-06	1252.5	247.71	1.7767e-06	2.5035e-06	308.3	86.273	67.953	20.015	2.9197e-06	27.939	0.00028813	0.00036069	0.00010313	1175.5	4.5443e-06	3.5474e-06	1237.3	245.47	3.7688e-06	4.1467e-06	306.41	86.764	67.879	20.06	3.8488e-06	28.309	-73.479	-46.120	-21.083	-122.519	46.615	16.702	-122.544	-115.706	17.865	28.307	-116.033	-109.302	-109.013	-102.202	-8.238	-102.110	-8191	255	
847.921	1	1	0	0	0.075633	0.16445	0.04209	0.40118	0.11205	0.27901	0.38378	0.29786	0.093942	0.083172	0.11218	0.26944	0.25509	0.14936	0.25835	0.26508	-3.7562	-3.5667	-3.6667	-3.9688	-3.4938	-4.05	-4.0583	-3.6604	-4.1354	-3.7354	-3.925	-4.0667	-3.7917	-4.0396	-3.9437	-3.3312	35.519	101.492	93.582	216.017	218.886	161.526	167.724	155.214	59.370	-39.039	220.725	53.944	-126.057	163.205	160.371	213.348	0.00017129	0.00034987	6.5036e-05	1196.7	3.037e-06	3.2044e-06	1255.1	246	2.2218e-06	4.4578e-06	309.13	86.194	68.303	19.957	2.2171e-06	27.864	0.00028927	0.00039731	9.5623e-05	1177.1	4.4455e-06	3.9053e-06	1238	244.65	3.8453e-06	4.1806e-06	306.39	86.93	68.044	20.072	3.9639e-06	28.31	-73.771	-54.056	-38.911	-122.531	3.615	23.015	-122.395	-115.102	9.264	18.371	-115.792	-109.230	-108.848	-102.113	15.286	-102.454	-8191	255	
847.993	1	1	0	0	0.020869	0.13661	0.19745	0.054818	0.17338	0.2617	0.37058	0.05367	0.20611	0.1263	0.099171	0.24895	0.058612	0.14276	0.069485	0.11108	-3.5396	-3.675	-3.7208	-4.2083	-3.6063	-4.0479	-4.0771	-3.6854	-4.0583	-3.7917	-3.8083	-4.1687	-3.6562	-3.8937	-3.8417	-3.5896	194.049	-14.476	208.332	-119.803	28.147	96.038	182.134	-131.066	-8.896	-0.580	-90.454	186.994	69.506	201.418	114.022	-39.735	0.00016614	0.00036113	9.1496e-05	1195.1	2.3247e-06	2.8684e-06	1252.1	246.04	2.8409e-06	4.1512e-06	307.64	86.622	67.579	19.936	4.3573e-06	28.042	0.00028916	0.00037511	0.00010557	1178.1	4.2922e-06	4.0161e-06	1238.4	244.51	3.8937e-06	4.0684e-06	305.88	86.837	67.874	20.061	3.8787e-06	28.362	-71.483	-57.732	-46.152	-122.607	17.586	25.259	-122.372	-115.296	-14.364	19.389	-115.964	-109.176	-108.814	-102.134	20.169	-102.748	-8191	255	
848.113	1	1	0	0	0.31659	0.23728	0.2224	0.2306	0.27782	0.13679	0.27192	0.24692	0.11807	0.16587	0.044763	0.14602	0.080755	0.039135	0.18282	0.060522	-3.7854	-3.7521	-3.9062	-4.2146	-3.625	-3.9	-4.0458	-3.6604	-4.0542	-3.975	-3.7229	-4.2188	-3.7771	-3.9729	-4.075	-3.625	169.023	35.471	127.225	187.899	209.511	35.948	189.764	201.747	-86.228	95.308	29.072	216.233	-30.785	-95.474	-42.206	-81.709	0.00018228	0.00028584	7.9084e-05	1196.8	1.6628e-06	2.8716e-06	1255.8	247.08	1.2502e-06	2.3691e-06	308.72	86.819	67.69	19.906	2.172e-06	28.041	0.00028665	0.00033553	0.00010196	1178.3	4.2603e-06	3.9373e-06	1238.6	244.84	3.4917e-06	3.9456e-06	306.83	87.189	68.017	20.129	3.8543e-06	28.367	-71.664	-64.672	-27.312	-122.486	7.864	16.413	-122.384	-115.503	-6.699	6.803	-115.465	-108.986	-109.217	-101.885	22.017	-102.542	-8191	255	
848.209	1	1	0	0	0.096902	0.16376	0.10355	0.12804	0.058129	0.047026	0.16583	0.21079	0.1619	0.067878	0.091865	0.29489	0.13474	0.098708	0.13333	0.13529	-3.7354	-3.9417	-3.65	-4.3667	-3.5687	-3.7583	-4.1354	-3.6688	-3.9437	-3.85	-3.8063	-4.175	-3.7333	-3.8271	-3.9833	-3.6083	-90.505	-8.668	159.401	225.063	-93.023	-87.998	213.900	154.450	53.413	-8.976	-129.532	136.827	-122.162	218.530	189.697	-46.799	0.00018219	0.00029824	3.9283e-05	1197.9	2.5279e-06	3.2179e-06	1250.6	245.96	2.5532e-06	3.0827e-06	307.37	86.363	67.632	19.829	2.7236e-06	28.059	0.00029011	0.00037031	0.00010204	1178.1	4.613e-06	4.3038e-06	1236.2	245.03	4.1378e-06	4.7161e-06	306.34	86.992	68.059	20.048	4.0055e-06	28.349	-70.598	-80.385	-40.386	-122.528	20.065	12.400	-122.271	-115.675	15.169	20.528	-115.656	-109.041	-108.624	-101.891	16.117	-102.624	-8191	255	
848.306	1	1	0	0	0.12331	0.16459	0.1483	0.17688	0.18557	0.34811	0.28296	0.40762	0.16344	0.12312	0.11218	0.23688	0.25789	0.058575	0.27449	0.032218	-3.4875	-3.8583	-3.6521	-4.0854	-3.8146	-3.7979	-4.2917	-3.7	-3.775	-3.8292	-3.6833	-4.0479	-3.8375	-3.7021	-4.1562	-3.6167	117.667	79.053	115.355	150.662	191.800	71.082	151.312	161.892	-13.036	47.641	188.484	175.723	201.102	-45.598	-94.456	101.615	0.00018572	0.00033463	0.00010427	1191.3	1.8545e-06	2.8698e-06	1252.3	246.33	2.6976e-06	2.6972e-06	306.83	87.369	67.918	19.957	2.8439e-06	28.017	0.00029217	0.00035292	0.00010746	1176.9	4.2327e-06	4.193e-06	1236.5	244.86	4.0177e-06	4.2663e-06	305.69	87.305	68.167	20.108	3.4748e-06	28.417	-68.953	-51.220	-21.769	-122.555	10.228	21.438	-122.472	-115.552	12.841	57.803	-115.934	-109.237	-108.868	-101.940	37.558	-102.517	-8191	255	
848.402	1	1	0	0	0.12185	0.057438	0.16604	0.091148	0.14194	0.039087	0.16062	0.17664	0.099477	0.19531	0.15735	0.29062	0.28394	0.11835	0.050543	0.24581	-3.5187	-3.8312	-3.6646	-4.0646	-3.8187	-3.5792	-4.1792	-3.8354	-3.8333	-3.8729	-3.6917	-3.9958	-3.8708	-3.6562	-4.0021	-3.8333	-113.910	-26.592	126.222	44.891	148.462	-67.662	73.081	138.264	116.702	99.645	184.993	-95.277	100.473	105.888	151.296	203.701	0.0001735	0.00043587	8.1902e-05	1196.1	3.27e-06	2.5831e-06	1251.3	247.93	2.1488e-06	3.0826e-06	306.97	86.369	68.071	19.959	3.3188e-06	28.255	0.00029786	0.00036383	0.00010056	1178.9	4.3198e-06	4.4327e-06	1239.5	245.38	4.1007e-06	3.6853e-06	306.28	87.058	68.12	20.146	3.5255e-06	28.44	-81.084	-40.098	-33.783	-122.587	21.661	27.173	-122.482	-115.390	33.402	23.306	-115.762	-109.339	-108.526	-102.141	33.405	-102.614	-8191	255	
848.522	1	1	0	0	0.099242	0.16397	0.099412	0.089632	0.17367	0.30298	0.17008	0.22715	0.050553	0.22051	0.30692	0.089537	0.19169	0.13206	0.14692	0.14351	-3.5667	-3.9938	-3.4	-3.9813	-3.8812	-3.5271	-4.3208	-3.7938	-3.6833	-3.8896	-3.6917	-3.9625	-3.8812	-3.3688	-4.0375	-3.8	-80.462	141.742	-111.301	168.493	83.797	44.436	105.296	210.544	197.032	71.800	223.523	-27.288	180.912	89.122	146.867	82.990	0.0001807	0.00025671	7.0445e-05	1200.9	2.7112e-06	2.4541e-06	1249.7	247.34	1.6868e-06	2.6722e-06	309.24	86.737	68.155	19.968	1.2165e-06	28.013	0.00028304	0.00031426	9.7129e-05	1178.6	4.081e-06	3.9501e-06	1238.4	245.91	3.996e-06	3.4979e-06	306.67	87.193	68.217	20.187	3.8561e-06	28.39	-77.869	-32.119	-60.948	-122.567	-2.925	20.266	-122.689	-115.428	20.998	0.699	-115.753	-109.357	-108.643	-101.850	41.348	-102.820	-8191	255	
848.617	1	1	0	0	0.23084	0.049832	0.024097	0.085705	0.11224	0.063386	0.20292	0.16001	0.043252	0.13886	0.31254	0.154	0.26129	0.059674	0.18332	0.10053	-2.975	-3.8229	-3.5458	-4.0354	-3.875	-3.6042	-4.1479	-3.7792	-3.7208	-3.9188	-3.5687	-3.9104	-3.9708	-3.5854	-3.9292	-3.8521	192.894	-79.765	209.610	93.060	13.357	94.789	-125.241	94.973	72.445	178.485	214.886	128.542	-132.053	-85.415	-38.318	212.001	0.00017877	0.00031149	9.7726e-05	1201.4	3.6176e-06	4.5753e-06	1251.7	247.96	2.2712e-06	3.7938e-06	307.8	86.667	67.812	19.955	3.2215e-06	27.988	0.00029146	0.00034709	0.00010536	1179.6	4.3332e-06	4.3069e-06	1237.6	245.69	4.0604e-06	4.1615e-06	306.72	87.346	68.155	20.129	3.6967e-06	28.414	-68.576	-49.161	-44.541	-122.431	34.682	34.613	-122.478	-115.654	5.996	44.827	-115.720	-109.344	-108.845	-102.126	22.223	-102.449	-8191	255	
848.713	1	1	0	0	0.14475	0.030688	0.14813	0.32447	0.12017	0.094621	0.16854	0.083885	0.10912	0.22632	0.28018	0.10073	0.21838	0.17442	0.14165	0.10385	-3.0958	-4.0104	-3.5187	-3.9938	-3.8563	-3.5625	-4.0396	-3.9667	-3.5833	-4.1354	-3.7333	-3.6854	-4.1333	-3.5917	-3.925	-3.875	-57.837	-66.608	206.371	142.450	-98.391	-0.353	146.030	108.234	117.583	48.115	152.101	-48.097	-132.466	138.954	123.599	-101.217	0.00016844	0.00025382	5.766e-05	1195.1	1.8886e-06	2.6939e-06	1259.7	247.33	2.5767e-06	3.2446e-06	309.19	86.289	67.741	19.958	2.8503e-06	28.002	0.00028272	0.00032138	9.9491e-05	1179.6	4.1078e-06	4.1152e-06	1239.5	245.33	4.3118e-06	3.6048e-06	307.01	87.061	68.077	20.126	3.7737e-06	28.298	-76.267	-52.567	-35.693	-122.579	11.372	34.849	-122.519	-115.628	17.571	27.369	-115.595	-108.956	-108.788	-101.783	61.209	-102.544	-8191	255	
848.809	1	1	0	0	0.033169	0.099872	0.065361	0.24245	0.18487	0.22663	0.24282	0.1878	0.14783	0.030345	0.27915	0.14997	0.22094	0.21242	0.11713	0.16995	-3.0271	-4.1438	-3.6375	-3.7396	-4.0854	-3.5667	-3.9562	-3.9479	-3.675	-4.0646	-3.7938	-3.825	-4.1687	-3.6458	-3.8438	-3.9354	71.146	149.090	78.331	-108.372	-119.956	77.694	114.873	158.887	-4.051	208.020	178.450	171.464	-61.959	167.739	-96.051	65.969	0.00016909	0.00025919	0.00011435	1196.3	2.5833e-06	4.6654e-06	1249.7	246.01	1.5583e-06	2.0713e-06	308.77	86.315	67.596	19.995	2.5064e-06	28.046	0.00028711	0.00035403	0.00011081	1178.6	4.0944e-06	4.0332e-06	1236.4	244.95	4.0822e-06	3.7816e-06	307.42	87.118	68.033	20.112	3.7483e-06	28.48	-71.814	-71.910	-36.728	-122.537	30.203	14.179	-122.279	-115.359	18.773	29.470	-115.648	-109.070	-109.007	-102.071	47.502	-102.557	-8191	255	
848.905	1	1	0	0	0.10995	0.13739	0.23268	0.30649	0.17458	0.20148	0.077218	0.032221	0.1521	0.15326	0.22144	0.1517	0.097821	0.09442	0.11505	0.18652	-3.2062	-3.9021	-3.6625	-3.7646	-4.0083	-3.5646	-3.8979	-4.2542	-3.4667	-3.9833	-3.7333	-3.7	-4.0083	-3.6937	-3.9042	-3.9875	90.482	93.522	-59.818	162.707	-41.925	67.707	51.559	120.637	195.385	-50.837	108.077	-126.224	201.585	-102.412	-28.730	28.488	0.00019213	0.00034143	9.6284e-05	1193.3	1.7963e-06	3.4133e-06	1258.6	245.73	1.4859e-06	3.2894e-06	306.94	86.925	68.369	19.967	2.4292e-06	28.05	0.00030872	0.00032582	9.8037e-05	1176.9	3.8908e-06	4.2473e-06	1239.2	244.92	4.1088e-06	4.0811e-06	306.57	87.39	68.317	20.15	3.8796e-06	28.41	-73.086	-40.936	-31.486	-122.578	5.309	16.197	-122.287	-115.677	-20.808	22.665	-115.840	-109.098	-108.593	-101.901	6.388	-102.557	-8191	255	
849.001	1	1	0	0	0.24764	0.088099	0.23018	0.33418	0.1253	0.16086	0.15501	0.20929	0.062237	0.039437	0.17313	0.17404	0.23181	0.12028	0.29555	0.20485	-3.2021	-4.0875	-3.8875	-3.7313	-4.0583	-3.5979	-3.8396	-4.1708	-3.5812	-3.8583	-3.9104	-3.6063	-3.9229	-3.7021	-3.7208	-3.9917	120.040	-18.554	127.631	133.876	209.868	156.757	170.068	114.526	64.518	50.631	68.811	-34.622	105.191	-61.539	101.643	-66.779	0.00018225	0.00041012	0.00010997	1200.1	2.829e-06	3.4762e-06	1253.5	246.35	2.0982e-06	3.4888e-06	308.02	86.744	67.769	19.911	2.9283e-06	28.168	0.00029305	0.00038963	9.3104e-05	1180.3	4.4472e-06	4.177e-06	1240.2	245.23	3.9984e-06	4.0028e-06	306.83	87.314	68.192	20.102	4.1866e-06	28.381	-73.721	-27.484	-57.900	-122.481	18.897	47.187	-122.543	-115.517	7.005	11.414	-115.966	-109.054	-108.896	-102.048	29.277	-102.217	-8191	255	
849.122	1	1	0	0	0.31741	0.1806	0.20791	0.080832	0.13814	0.084144	0.10079	0.25351	0.09731	0.089924	0.23163	0.21853	0.092275	0.11228	0.28749	0.11449	-3.1792	-3.7375	-3.7417	-3.5854	-4.0917	-3.6854	-3.8333	-4.1312	-3.6104	-3.8563	-3.9542	-3.5958	-3.9333	-3.7812	-3.5062	-4.0542	3.672	-94.310	115.057	67.067	99.638	-112.984	169.249	183.720	59.085	64.604	131.987	194.502	64.281	33.580	72.760	130.384	0.0001936	0.00038071	7.1791e-05	1197.3	2.6226e-06	3.6601e-06	1257	246.33	2.563e-06	2.9206e-06	310.1	86.71	67.82	20.036	1.7697e-06	28.106	0.00030316	0.00037012	0.00010211	1180.5	4.3952e-06	3.9703e-06	1239.6	244.96	4.1684e-06	4.062e-06	307.67	87.413	68.183	20.134	3.9267e-06	28.386	-68.441	-33.466	-28.874	-122.512	12.346	30.745	-122.514	-115.418	15.326	8.455	-115.950	-109.205	-108.543	-101.625	20.890	-102.455	-8191	255	
849.218	1	1	0	0	0.20021	0.045862	0.13403	0.092672	0.25871	0.13629	0.21066	0.059454	0.048862	0.29479	0.50548	0.072041	0.11146	0.23039	0.076081	0.12146	-3.125	-3.925	-3.9125	-3.6167	-3.8229	-3.9625	-3.725	-4.1354	-3.6125	-3.8563	-4.0938	-3.6083	-3.9417	-3.7854	-3.6479	-4.0521	40.014	156.516	-122.205	207.114	-88.832	-51.293	209.691	98.551	64.317	105.929	196.355	172.469	94.677	-121.079	216.601	-103.752	0.0001653	0.00024808	6.264e-05	1195.9	1.7376e-06	3.5018e-06	1254.2	246.36	2.6924e-06	3.7261e-06	307.93	86.379	68.347	20.052	2.3159e-06	28.088	0.00029263	0.00037271	9.5701e-05	1178.8	4.505e-06	4.2995e-06	1238.5	244.9	4.1974e-06	4.1658e-06	306.61	87.029	68.272	20.099	3.9349e-06	28.462	-74.032	-48.088	-48.225	-122.685	12.988	23.183	-122.646	-115.321	8.155	4.633	-115.408	-108.850	-108.914	-101.580	-1.893	-102.577	-8191	255	
849.290	1	1	0	0	0.010798	0.043354	0.13598	0.20793	0.050114	0.056913	0.31806	0.2253	0.092289	0.06494	0.1537	0.20544	0.051633	0.057795	0.086998	0.094113	-3.2875	-3.7438	-4.0771	-3.6604	-3.7625	-4.1167	-3.6625	-4.1062	-3.7104	-3.7542	-4.075	-3.5167	-3.6896	-4.0792	-3.5187	-4.1	160.819	-1.053	224.318	213.926	-73.011	140.364	176.832	219.087	-61.637	183.573	147.577	174.923	92.992	-115.776	193.835	18.226	0.00016994	0.00012737	6.5662e-05	1202.9	2.8503e-06	4.3904e-06	1259.4	247.01	2.6359e-06	3.3279e-06	309.45	87.04	68.101	19.879	3.1054e-06	28.136	0.00029988	0.00036522	9.1183e-05	1179.7	3.9595e-06	3.8712e-06	1239.9	245.34	4.0411e-06	3.9382e-06	307.18	87.127	68.177	20.118	3.7673e-06	28.478	-75.625	-2.540	-32.258	-122.622	-0.817	43.166	-122.274	-115.569	9.019	36.295	-115.701	-108.901	-108.648	-102.352	1.365	-102.212	-8191	255	
849.386	1	1	0	0	0.10998	0.23151	0.28436	0.21982	0.24905	0.12428	0.13489	0.1433	0.18992	0.099798	0.25457	0.17739	0.11544	0.24161	0.11557	0.21809	-3.4	-3.7167	-4.0042	-3.4542	-3.8896	-3.9646	-3.6	-4.0292	-3.8854	-3.5312	-4.2083	-3.6458	-3.7917	-3.9958	-3.5833	-3.8958	220.841	4.851	94.667	192.605	-31.443	-96.301	66.553	52.564	117.624	159.620	-129.366	173.288	128.875	192.711	91.258	-82.178	0.00016469	0.00036366	7.8161e-05	1199.1	3.2175e-06	3.527e-06	1260.3	248.33	2.8167e-06	3.3638e-06	310.55	86.928	68.333	20.083	2.9498e-06	28.301	0.00029418	0.00039546	9.8764e-05	1180.1	4.3056e-06	3.9724e-06	1242.5	245.78	4.1692e-06	4.0017e-06	307.3	87.16	68.325	20.172	3.8887e-06	28.476	-73.009	-63.235	-31.275	-122.311	37.589	32.407	-122.493	-115.442	25.990	38.435	-115.666	-108.842	-108.657	-101.908	30.112	-102.306	-8191	255	
849.482	1	1	0	0	0.17239	0.084944	0.13819	0.029139	0.061379	0.26058	0.31267	0.14433	0.071451	0.066068	0.26096	0.16189	0.20497	0.15374	0.29585	0.33304	-3.4604	-3.525	-3.9188	-3.7771	-3.7208	-4	-3.7479	-3.7708	-3.8312	-3.5604	-4.175	-3.6896	-3.8146	-4.0667	-3.5104	-4.0437	128.387	-131.296	-79.349	157.874	216.432	130.905	136.554	149.781	-52.075	-14.742	122.889	109.847	211.991	-14.127	-48.719	139.243	0.00017603	0.00038142	9.1371e-05	1198.4	3.2696e-06	2.3737e-06	1255.1	246.43	3.9144e-06	2.6646e-06	309.04	86.049	68.39	19.887	2.748e-06	28.018	0.00028852	0.00038751	9.9725e-05	1179.9	4.4765e-06	3.9107e-06	1239.7	245.34	4.2167e-06	4.1255e-06	306.7	87.1	68.283	20.146	4.0571e-06	28.364	-73.631	-43.068	-39.393	-122.805	18.915	25.594	-122.500	-115.609	-2.044	43.695	-115.793	-109.481	-108.681	-101.987	6.478	-102.132	-8191	255	
849.601	1	1	0	0	0.1905	0.1155	0.1272	0.27377	0.047852	0.12743	0.33543	0.24497	0.18845	0.11249	0.10965	0.040377	0.33893	0.1193	0.1279	0.19133	-3.6188	-3.4833	-3.8667	-3.9417	-3.6396	-4	-3.6958	-3.775	-3.7625	-3.5187	-3.9104	-3.7938	-3.5187	-4.1146	-3.4521	-3.8417	84.619	-21.931	-76.914	149.328	41.719	-89.653	115.061	-90.629	178.942	-95.950	5.377	28.591	156.384	178.066	189.726	-25.534	0.00019441	0.00027283	6.4748e-05	1198.7	1.5394e-06	3.5577e-06	1253.2	246.53	3.6351e-06	3.9913e-06	308.42	86.693	67.928	20.059	2.7862e-06	28.009	0.00029372	0.00036957	9.9387e-05	1180	4.2042e-06	3.9192e-06	1240.7	245.3	3.9638e-06	4.2145e-06	306.96	87.339	68.226	20.168	4.0481e-06	28.431	-74.368	-34.835	-51.393	-122.676	44.950	36.549	-122.617	-115.455	-3.917	16.059	-115.511	-109.129	-108.868	-102.240	17.425	-102.419	-8191	255	
849.697	1	1	0	0	0.1505	0.059905	0.049865	0.27494	0.039331	0.1574	0.23791	0.18523	0.16906	0.046441	0.29352	0.16334	0.13863	0.35073	0.21548	0.060364	-3.4667	-3.5146	-3.8208	-3.8396	-3.4667	-4.0583	-3.7479	-3.7958	-3.8854	-3.4333	-4.0521	-3.8042	-3.5542	-4.0146	-3.6458	-3.7458	119.169	-49.124	166.065	142.358	162.306	89.976	-125.001	179.831	59.330	162.859	175.157	-119.538	-71.183	220.803	179.060	167.875	0.00019538	0.00030091	6.1797e-05	1199.5	2.8199e-06	4.3961e-06	1259.5	247.1	1.9288e-06	2.4857e-06	308.38	87.047	68.764	19.903	2.046e-06	27.942	0.00029086	0.0003667	9.8686e-05	1181	4.4899e-06	4.3432e-06	1241.6	245.76	3.8606e-06	4.0208e-06	307.92	87.453	68.493	20.201	3.8814e-06	28.526	-73.348	-27.164	-24.552	-122.577	-3.144	18.132	-122.379	-115.443	15.226	12.664	-115.595	-109.092	-108.909	-101.944	22.141	-102.430	-8191	255	
849.793	1	1	0	0	0.13753	0.071103	0.17218	0.19578	0.13492	0.087133	0.17026	0.18206	0.10497	0.090932	0.11023	0.122	0.255	0.28984	0.11871	0.17024	-3.6562	-3.4667	-3.8125	-3.975	-3.5042	-3.8354	-3.6333	-3.5938	-4.0667	-3.5104	-3.8688	-3.8896	-3.5812	-4.0813	-3.7146	-3.5292	198.256	-110.389	47.714	16.111	-32.899	115.548	170.137	199.160	-2.951	-53.214	-96.887	-98.916	-129.838	-81.368	220.143	-127.462	0.00018613	0.00038963	7.4501e-05	1193.9	2.0442e-06	4.2578e-06	1251.2	246.46	2.1416e-06	2.6152e-06	309.97	87.303	67.924	20.046	3.2812e-06	28.23	0.00028661	0.00037632	9.7648e-05	1180.9	4.1221e-06	3.9245e-06	1239.7	245.82	3.7809e-06	4.2039e-06	307.39	87.528	68.404	20.206	4.1875e-06	28.569	-74.169	-42.602	-61.593	-122.594	-13.126	27.742	-122.392	-115.278	25.826	17.240	-115.981	-109.059	-108.440	-102.051	6.961	-102.494	-8191	255	
849.889	1	1	0	0	0.205	0.11149	0.070942	0.1199	0.11445	0.13043	0.10636	0.24847	0.31584	0.16624	0.19778	0.083742	0.10784	0.21622	0.038448	0.32657	-3.6625	-3.4062	-3.8208	-4.0292	-3.3875	-3.8271	-4.0208	-3.6063	-3.9938	-3.675	-3.8604	-3.9542	-3.3979	-3.8438	-3.7896	-3.4167	157.377	139.878	152.383	-106.827	83.409	-114.434	134.446	165.259	143.905	-70.400	131.061	-123.915	162.770	139.985	193.304	117.673	0.00018849	0.00024967	6.5319e-05	1200.8	2.0819e-06	3.4873e-06	1258.2	247.5	2.5426e-06	3.7637e-06	309.48	87.187	67.916	19.917	3.6002e-06	28.003	0.00028601	0.0003569	0.00010619	1180.7	4.5938e-06	3.9533e-06	1242.1	245.83	3.8921e-06	4.1838e-06	307.89	87.546	68.397	20.204	4.0608e-06	28.478	-66.356	-36.084	-69.405	-122.682	24.725	11.802	-122.641	-115.392	-8.715	10.908	-115.657	-109.442	-108.652	-101.990	15.071	-102.552	-8191	255	
849.986	1	1	0	0	0.092532	0.31791	0.18122	0.23271	0.13499	0.029322	0.22429	0.19494	0.14542	0.21127	0.27141	0.095913	0.22254	0.22537	0.34729	0.19546	-3.7271	-3.5521	-3.6312	-4.0854	-3.3917	-3.9479	-4.0125	-3.5875	-4.0521	-3.8375	-3.7188	-3.9938	-3.525	-3.7104	-4.0146	-3.4771	-119.952	118.837	140.252	216.767	-116.050	136.250	115.475	-129.363	130.430	170.367	-65.725	-57.892	157.335	205.292	-42.238	92.602	0.00017749	0.00025026	7.2573e-05	1202.8	2.2055e-06	2.6304e-06	1256.5	247.8	2.7281e-06	2.8287e-06	308.09	86.773	68.024	20.011	2.7192e-06	28.298	0.00027374	0.00038002	0.00010211	1183	4.4069e-06	4.129e-06	1242.6	246.53	3.8961e-06	3.9308e-06	307.67	87.581	68.324	20.221	3.8045e-06	28.601	-73.813	-38.214	-31.583	-122.597	13.842	57.025	-122.589	-115.245	15.222	43.329	-115.978	-109.071	-108.883	-102.099	14.115	-102.661	-8191	255	
850.082	1	1	0	0	0.22716	0.095554	0.28732	0.26419	0.21775	0.40392	0.063021	0.069711	0.23406	0.10049	0.20021	0.14124	0.31114	0.072975	0.29115	0.033463	-3.4729	-3.6708	-3.5542	-4.1125	-3.6	-3.8292	-4.0958	-3.5938	-3.7583	-3.7188	-3.6875	-3.9208	-3.6042	-3.8104	-3.8083	-3.7396	-13.474	-6.585	-21.854	154.820	165.306	-0.311	169.587	84.154	114.551	158.665	-127.723	123.726	202.621	187.040	127.647	106.042	0.0001855	0.00040899	0.00012776	1200.7	2.5315e-06	2.6892e-06	1255.4	247.59	2.6314e-06	4.9474e-06	310.53	86.641	67.809	19.939	2.564e-06	27.709	0.00029404	0.00036402	9.5545e-05	1182.1	4.5469e-06	4.2867e-06	1243.6	246.08	3.942e-06	4.333e-06	308.47	87.511	68.357	20.194	3.6396e-06	28.416	-72.555	-51.317	-30.700	-122.645	17.987	12.778	-122.429	-115.534	5.846	19.304	-115.604	-109.295	-109.028	-101.788	12.605	-102.521	-8191	255	
850.202	1	1	0	0	0.12838	0.084844	0.10234	0.27532	0.22477	0.055307	0.21025	0.048918	0.14887	0.067639	0.16437	0.10254	0.088888	0.08111	0.030106	0.14289	-3.4104	-3.7333	-3.5833	-4.1542	-3.4708	-3.8625	-4.1188	-3.5917	-3.9125	-3.7042	-3.5583	-4.0104	-3.5667	-3.7479	-4.1521	-3.6042	-124.264	-32.175	109.374	171.022	-51.082	141.660	123.139	185.489	-48.183	-94.522	111.713	-6.704	-73.568	8.667	167.979	212.862	0.0001897	0.00025826	7.7499e-05	1203.1	2.7864e-06	3.335e-06	1260.5	247.83	2.673e-06	3.3864e-06	309.4	86.262	67.393	19.976	2.2018e-06	27.896	0.00029927	0.00036466	9.8401e-05	1183.6	4.4698e-06	3.785e-06	1244.4	246.18	4.0693e-06	3.9065e-06	307.95	87.422	68.304	20.202	3.5138e-06	28.403	-70.511	-25.160	-38.431	-122.492	50.771	11.754	-122.260	-115.586	1.613	16.088	-116.161	-109.345	-109.405	-102.207	22.783	-102.933	-8191	255	
850.298	1	1	0	0	0.17159	0.09461	0.16238	0.26959	0.017966	0.14578	0.1744	0.17215	0.23694	0.17863	0.25225	0.10925	0.19086	0.068643	0.13954	0.23968	-3.5333	-3.825	-3.5333	-4.1875	-3.6021	-3.3833	-4.1396	-3.5812	-3.7167	-3.9292	-3.4146	-4.1521	-3.7687	-3.625	-3.9167	-3.6229	-44.692	188.090	3.443	203.387	-125.949	-24.076	108.897	164.417	-103.163	-57.445	-101.082	-31.413	219.569	-62.533	-76.532	53.431	0.00016588	0.00015968	0.00011468	1189.7	1.628e-06	4.2868e-06	1252.9	244.52	3.8775e-06	3.0435e-06	305.49	86.219	67.322	19.848	2.9069e-06	27.766	0.00029089	0.0003494	0.00010105	1179.3	4.5511e-06	4.1184e-06	1242.2	245.44	4.2546e-06	4.0165e-06	307.05	87.42	68.225	20.19	3.6913e-06	28.478	-72.894	-41.498	-49.889	-122.704	13.532	37.332	-122.849	-115.788	5.294	26.331	-116.311	-109.525	-109.028	-102.507	0.736	-103.097	-8191	255	
850.395	1	1	0	0	0.14037	0.36122	0.14409	0.31905	0.16149	0.23896	0.075781	0.15359	0.090798	0.15711	0.16852	0.21802	0.34555	0.16527	0.11773	0.045257	-3.4333	-3.8979	-3.4396	-4.2604	-3.9062	-3.6708	-4.2042	-3.7313	-3.7604	-3.9896	-3.5	-3.9167	-3.8396	-3.4625	-3.875	-3.7417	22.106	45.224	178.533	-127.916	-2.728	-96.889	-5.924	161.413	-87.548	-122.861	-35.039	-62.270	-106.941	-40.010	-111.416	-93.226	0.000167	0.00027414	9.1896e-05	1186.4	2.5031e-06	2.7325e-06	1245.3	246.65	2.2428e-06	3.3772e-06	309.56	86.511	67.777	19.934	2.5416e-06	28.03	0.0002847	0.00032952	9.9959e-05	1178.5	4.2218e-06	4.0246e-06	1239.8	246.03	3.7261e-06	3.6609e-06	308.22	87.449	68.452	20.238	3.7302e-06	28.549	-72.216	-56.298	-17.906	-122.753	14.166	-5.646	-122.827	-115.680	32.977	13.283	-115.961	-109.459	-108.787	-101.914	16.017	-102.408	-8191	255	
850.515	1	1	0	0	0.098664	0.14451	0.20054	0.34949	0.14229	0.11604	0.098331	0.3483	0.15697	0.16678	0.039369	0.16804	0.30246	0.13935	0.21026	0.17427	-3.3354	-3.8583	-3.425	-3.9667	-3.8708	-3.5354	-4.1188	-3.6063	-3.7292	-4.0146	-3.5708	-3.8146	-3.9375	-3.325	-4.0792	-3.6979	-72.194	213.498	140.820	207.805	-66.779	-63.447	144.164	187.528	220.436	114.432	-11.008	185.057	0.501	210.230	-20.400	-2.940	0.00019224	0.00034917	7.4909e-05	1193.8	1.6882e-06	4.2465e-06	1248.8	246.34	2.9389e-06	4.1259e-06	308.26	86.694	68.057	19.879	3.8165e-06	27.904	0.00029114	0.00033868	0.00010279	1180.1	4.1037e-06	4.0715e-06	1241.9	245.75	4.0081e-06	3.7488e-06	307.96	87.57	68.503	20.201	3.5717e-06	28.453	-74.731	-55.892	-26.746	-122.831	6.556	34.801	-122.624	-115.743	28.808	14.985	-115.936	-109.298	-109.169	-101.969	36.262	-102.633	-8191	255	
850.587	1	1	0	0	0.063847	0.17612	0.149	0.31613	0.2178	0.10284	0.25769	0.12965	0.069468	0.010537	0.056525	0.16787	0.30165	0.19175	0.0736	0.24609	-3.2146	-3.9437	-3.5333	-4	-3.8542	-3.4062	-3.9521	-3.6896	-3.5229	-3.9292	-3.7396	-3.8063	-3.9708	-3.5604	-3.9125	-3.7521	107.142	-94.234	-131.420	142.178	-89.140	-16.757	182.154	168.470	-105.435	46.717	-66.282	137.658	-116.070	-68.537	9.305	171.225	0.00018697	0.00041768	9.4288e-05	1185.2	3.1526e-06	2.4998e-06	1242.4	245.06	2.3313e-06	2.5866e-06	305.55	85.401	66.585	19.505	4.0192e-06	27.469	0.0002963	0.00033868	0.00010583	1180	4.1506e-06	4.0545e-06	1239.7	245.5	4.0274e-06	4.0917e-06	307.3	87.105	67.983	20.018	3.924e-06	28.305	-73.036	-49.380	-49.745	-122.681	22.966	25.413	-122.632	-115.878	36.253	4.961	-115.890	-109.571	-109.121	-102.218	20.678	-103.064	-8191	255	
850.681	1	1	0	0	0.2767	0.11627	0.068151	0.16059	0.19846	0.024909	0.19813	0.29027	0.0226	0.20992	0.22101	0.15332	0.16158	0.1789	0.20376	0.20406	-2.9062	-3.8312	-3.5896	-3.7229	-3.8667	-3.6333	-4.1229	-3.8729	-3.4938	-4.0333	-3.6375	-3.7333	-3.8521	-3.6604	-3.9625	-3.9042	-15.742	32.767	-127.816	200.934	-102.405	54.383	-117.663	194.602	216.384	-19.545	-0.366	179.992	-111.310	141.099	153.547	120.097	0.00017748	0.00025353	9.5452e-05	1172.4	1.8917e-06	4.0119e-06	1239.1	242.43	1.7332e-06	3.397e-06	305.43	85.872	66.781	19.562	2.2811e-06	27.611	0.00029984	0.00035403	0.00010949	1175.4	4.0693e-06	4.5136e-06	1239.4	244.67	4.0427e-06	4.0377e-06	306.79	87.188	68.038	19.982	3.9249e-06	28.258	-70.507	-57.238	-42.873	-123.163	-31.522	31.150	-123.120	-116.099	-12.716	6.588	-115.857	-109.468	-109.700	-102.419	17.313	-102.767	-8191	255	
850.777	1	1	0	0	0.21129	0.21835	0.13108	0.1293	0.11815	0.092211	0.15556	0.2361	0.22108	0.17192	0.1843	0.23578	0.073266	0.13638	0.14782	0.04386	-3.0604	-3.875	-3.6417	-3.8875	-3.825	-3.6208	-4.0708	-3.8563	-3.5438	-3.9708	-3.6604	-3.725	-3.9979	-3.5479	-3.7667	-4.05	-105.607	47.381	92.174	153.982	-49.367	155.556	135.911	132.814	-122.970	24.711	194.849	221.533	217.754	205.241	36.198	14.862	0.00017962	0.00026037	7.1339e-05	1179.5	2.6502e-06	3.5624e-06	1245.8	244.73	1.7559e-06	3.8876e-06	307.73	85.771	68.006	19.839	2.7673e-06	27.838	0.00029241	0.00038057	0.00010837	1176.7	4.1774e-06	4.1472e-06	1240.6	245.28	4.1829e-06	4.0758e-06	308.06	87.153	68.243	20.124	4.1486e-06	28.376	-72.960	-70.002	-19.900	-123.108	31.463	20.043	-122.717	-115.806	-15.475	13.818	-116.202	-109.306	-108.823	-102.620	43.312	-102.921	-8191	255	
850.898	1	1	0	0	0.31566	0.19353	0.29853	0.1915	0.052528	0.17367	0.080422	0.047098	0.23438	0.10355	0.20177	0.19846	0.21581	0.079179	0.096513	0.16127	-3.0687	-3.8521	-3.7062	-3.7188	-4.1417	-3.6583	-3.8833	-3.8333	-3.5563	-3.8104	-3.7771	-3.5521	-4.0167	-3.3563	-3.7146	-3.9437	123.854	-130.388	217.553	188.664	-117.773	-0.334	87.915	-102.073	80.366	199.158	193.679	213.290	-46.932	52.734	81.664	42.475	0.00018556	0.00028316	7.6765e-05	1194.5	4.0984e-06	2.0931e-06	1251	246.1	2.5167e-06	3.1583e-06	308.17	86.564	67.771	20.027	1.6388e-06	27.983	0.00029185	0.00036096	0.00010214	1180.6	4.1648e-06	4.1706e-06	1242	245.96	4.2192e-06	3.6366e-06	308.5	87.304	68.362	20.185	4.0852e-06	28.427	-75.338	-62.700	-72.357	-122.780	14.618	17.361	-122.515	-115.344	11.299	22.241	-116.140	-109.517	-109.351	-101.993	9.506	-102.472	-8191	255	
850.994	1	1	0	0	0.16219	0.17025	0.085878	0.33351	0.10696	0.15236	0.060286	0.1842	0.10992	0.13041	0.16228	0.20026	0.098993	0.16371	0.21384	0.06019	-3.0708	-3.85	-3.6833	-3.7646	-3.875	-3.7729	-3.8563	-4.0583	-3.3937	-3.7542	-3.6958	-3.4688	-3.8167	-3.55	-3.5062	-3.9333	58.977	104.943	-0.074	178.476	139.616	45.495	160.669	138.482	109.460	7.988	113.753	9.617	208.980	121.523	77.304	133.760	0.00018641	0.00033413	9.1864e-05	1194.3	2.8317e-06	2.345e-06	1252.3	246.35	2.0135e-06	3.5639e-06	309.69	86.804	67.997	19.88	3.0468e-06	28.077	0.00029871	0.00037363	0.00010305	1182	4.3718e-06	4.1599e-06	1241.3	245.82	3.9904e-06	3.9255e-06	308.16	87.323	68.413	20.155	3.9802e-06	28.499	-76.685	-34.298	-24.993	-122.639	5.236	7.234	-122.817	-115.741	-19.106	15.086	-115.855	-109.206	-108.963	-102.175	33.056	-102.364	-8191	255	
851.090	1	1	0	0	0.12645	0.054362	0.06502	0.28469	0.30495	0.10051	0.14447	0.075951	0.16147	0.13482	0.31139	0.26986	0.34092	0.13918	0.29301	0.16058	-2.9854	-3.9021	-3.8646	-3.4042	-3.8333	-3.6292	-3.6083	-4.0917	-3.6479	-3.8333	-3.9292	-3.4146	-3.8833	-3.8729	-3.525	-3.9375	-115.456	77.878	-14.893	-125.886	67.517	-47.316	145.091	-127.418	-108.388	-23.734	169.623	158.222	187.996	131.221	-95.631	-47.043	0.00019234	0.00034562	8.2406e-05	1193.1	2.9307e-06	3.9064e-06	1251.6	246.32	3.0017e-06	3.5756e-06	309.15	86.581	68.009	19.908	4.2759e-06	28.15	0.00029956	0.00038381	0.00010287	1181.3	4.3458e-06	4.1706e-06	1242.3	245.94	4.2143e-06	4.1488e-06	308.35	87.239	68.362	20.199	4.2047e-06	28.505	-73.485	-63.046	-52.009	-122.726	15.230	34.201	-122.461	-115.542	-9.935	26.382	-116.029	-109.170	-108.773	-102.149	10.118	-102.839	-8191	255	
851.162	1	1	0	0	0.11866	0.11585	0.16323	0.077366	0.167	0.15727	0.02211	0.20041	0.25182	0.087819	0.073713	0.064747	0.12721	0.075481	0.045546	0.083701	-3.1542	-3.7625	-3.8063	-3.5438	-3.9333	-3.6	-3.7604	-4.0188	-3.5187	-3.5792	-3.9729	-3.5938	-3.7729	-3.7938	-3.4625	-4.0813	57.860	78.271	81.168	134.359	26.179	34.105	77.643	148.023	218.650	-111.507	128.634	203.781	223.681	181.694	-87.926	31.016	0.00018859	0.00028265	5.9184e-05	1196	2.3293e-06	2.9167e-06	1250.8	246.86	2.1005e-06	2.565e-06	308.97	86.413	68.313	19.998	2.6547e-06	28.169	0.00031501	0.00037077	9.3156e-05	1182.5	4.1908e-06	4.0854e-06	1244.8	246.38	4.1185e-06	4.297e-06	308.24	87.508	68.441	20.247	3.9322e-06	28.582	-65.949	-40.652	-39.939	-122.696	-4.690	26.944	-122.466	-115.490	7.272	20.186	-115.746	-109.081	-108.970	-101.991	25.598	-102.450	-8191	255	
851.283	1	1	0	0	0.21024	0.16747	0.19852	0.097605	0.12286	0.086615	0.27799	0.22424	0.10689	0.17469	0.14033	0.19478	0.038852	0.20368	0.10612	0.19819	-3.1854	-3.5792	-3.825	-3.4813	-3.9896	-3.7687	-3.7042	-3.8292	-3.5646	-3.6312	-4.0667	-3.65	-3.8396	-3.9938	-3.6104	-4.0375	16.894	-118.386	-112.977	165.115	103.894	-41.573	221.740	166.193	-126.861	-92.570	-122.985	-119.341	-130.871	202.695	159.191	141.007	0.00017627	0.0002671	0.00011911	1199.1	1.6186e-06	2.2289e-06	1260	247.29	2.5008e-06	3.8745e-06	308.27	87.181	68.356	19.991	2.1807e-06	28.25	0.0002847	0.00041322	9.783e-05	1184.8	4.1011e-06	3.9511e-06	1245.6	246.41	4.0911e-06	4.2113e-06	308.16	87.695	68.565	20.248	4.1051e-06	28.676	-75.961	-55.673	-31.065	-122.699	44.242	21.173	-122.661	-115.376	-7.868	7.088	-115.922	-109.298	-108.857	-101.917	27.019	-102.736	-8191	255	
851.379	1	1	0	0	0.1196	0.11696	0.07704	0.23715	0.027687	0.026919	0.13568	0.010745	0.21592	0.31931	0.26175	0.24697	0.28059	0.1232	0.15949	0.12155	-3.3667	-3.5625	-3.9062	-3.8563	-3.8646	-3.8583	-3.7062	-4	-3.6458	-3.6604	-4	-3.7188	-3.6979	-4.0146	-3.4562	-3.7708	184.338	206.519	48.697	219.995	80.841	-42.115	109.339	-131.116	96.884	137.152	161.472	201.380	-104.951	189.231	27.823	-38.957	0.00019864	0.00027551	7.7134e-05	1199.2	2.4267e-06	3.483e-06	1259.3	247.93	2.1164e-06	4.2564e-06	310.18	87.498	68.707	20.101	3.2547e-06	28.268	0.00029623	0.0003888	0.00010237	1185.2	4.2352e-06	4.0321e-06	1246.9	247.1	4.1652e-06	4.1319e-06	309.64	87.98	68.864	20.361	3.866e-06	28.619	-69.726	-46.900	-37.505	-122.738	34.381	37.689	-122.534	-115.682	1.817	26.334	-115.936	-109.340	-108.803	-102.439	33.741	-102.099	-8191	255	
851.475	1	1	0	0	0.078688	0.10639	0.021632	0.17889	0.052265	0.22159	0.085666	0.20509	0.05672	0.10728	0.30207	0.066523	0.092041	0.17579	0.032766	0.17484	-3.4542	-3.6	-4.0771	-3.8125	-3.6708	-3.9167	-3.7521	-3.9458	-3.8229	-3.5854	-4.0896	-3.8833	-3.5292	-4.1146	-3.4854	-3.7229	128.634	146.352	-114.728	205.399	58.889	-85.224	-73.966	99.200	-10.728	134.845	194.995	72.547	-13.099	-78.622	-8.737	168.726	0.00018482	0.00037237	0.00010583	1202	2.951e-06	2.29e-06	1263.4	249.04	1.5886e-06	2.0854e-06	313.61	87.224	68.531	20.166	2.8843e-06	28.166	0.00029818	0.00037188	9.7518e-05	1185.3	4.3408e-06	3.5889e-06	1249	247.91	4.1201e-06	3.7149e-06	310.7	87.833	68.844	20.304	4.1649e-06	28.602	-70.116	-44.812	-48.107	-122.577	3.051	22.654	-122.560	-115.056	11.133	25.273	-115.743	-109.339	-108.745	-102.098	33.348	-102.538	-8191	255	
851.596	1	1	0	0	0.047546	0.11574	0.10433	0.2158	0.17597	0.066171	0.30413	0.021487	0.16689	0.29698	0.32781	0.27295	0.17285	0.17025	0.21262	0.0059188	-3.5583	-3.4833	-3.9021	-3.7146	-3.6688	-4.1021	-3.6208	-4.0062	-3.9958	-3.5062	-3.9354	-3.9396	-3.775	-4.0771	-3.7083	-3.9604	188.315	140.378	82.737	211.870	175.603	-33.710	140.258	166.580	83.309	-105.243	141.565	166.582	181.732	-68.106	-42.680	22.020	0.00020068	0.00023213	9.5086e-05	1201.7	3.6518e-06	2.8075e-06	1261.1	248.57	3.0124e-06	3.8876e-06	307.33	86.263	67.772	19.786	3.4486e-06	27.912	0.00029135	0.00038631	9.7985e-05	1186.5	4.3181e-06	3.6561e-06	1248.5	247.03	4.0548e-06	3.9922e-06	309.32	87.742	68.479	20.247	3.8642e-06	28.563	-73.682	-62.788	-43.721	-122.620	-9.408	10.282	-122.542	-115.623	11.979	37.537	-115.948	-109.674	-108.948	-102.518	13.795	-102.774	-8191	255	
851.690	1	1	0	0	0.097722	0.10543	0.27026	0.090765	0.11911	0.22841	0.23862	0.094214	0.11935	0.024602	0.17865	0.23161	0.38679	0.30915	0.10472	0.10898	-3.4333	-3.4083	-3.8083	-3.9292	-3.4979	-3.9188	-3.7	-3.8	-3.9354	-3.4646	-3.9396	-3.8812	-3.4	-4.025	-3.7167	-3.6917	-108.300	-8.216	-103.701	202.630	-111.834	-95.027	152.170	176.072	82.694	-122.925	220.094	211.037	160.411	-72.079	-110.584	-93.045	0.0001664	0.00032561	9.9551e-05	1198.1	1.8077e-06	1.2141e-06	1253.9	247.84	2.7991e-06	3.2895e-06	310.37	86.707	68.286	20.122	2.9499e-06	28.176	0.00027756	0.00038242	9.8193e-05	1184.6	4.1028e-06	3.9234e-06	1244.8	247.41	3.8832e-06	4.1658e-06	310.24	88.049	68.89	20.359	3.7972e-06	28.696	-71.153	-50.361	-34.628	-122.465	25.897	5.805	-122.590	-115.674	1.508	11.669	-116.104	-109.182	-108.974	-102.199	6.825	-102.252	-8191	255	
851.786	1	1	0	0	0.086828	0.13933	0.1432	0.13239	0.24013	0.078309	0.05577	0.081868	0.15901	0.091011	0.017568	0.28959	0.2222	0.1326	0.13594	0.12004	-3.6042	-3.4437	-3.8375	-4.075	-3.5458	-4.0021	-3.8875	-3.7042	-4.175	-3.6	-3.8312	-3.7875	-3.5917	-3.8	-3.6625	-3.6792	217.188	146.332	-53.978	-122.764	-49.906	166.861	-46.967	150.434	206.560	-68.669	42.595	184.163	151.829	-130.941	-123.375	181.432	0.00017929	0.00020792	0.00010538	1198.5	1.8132e-06	4.6382e-06	1260.6	246.84	2.6212e-06	3.7387e-06	310.38	87.344	68.37	19.996	2.4416e-06	28.296	0.00029167	0.00036873	9.7181e-05	1186.1	4.4086e-06	4.1663e-06	1247.5	247.6	3.9807e-06	4.1774e-06	310.32	87.984	68.807	20.35	4.0291e-06	28.658	-68.340	-48.548	-27.654	-122.859	-14.745	32.728	-122.579	-115.423	33.906	39.914	-115.971	-109.627	-108.656	-102.005	8.544	-102.595	-8191	255	
851.882	1	1	0	0	0.087262	0.16197	0.1083	0.13628	0.0776	0.25208	0.25524	0.16323	0.14879	0.2306	0.20905	0.19792	0.11907	0.21334	0.10939	0.22962	-3.7604	-3.6354	-3.8438	-4.0708	-3.4625	-3.9833	-3.9292	-3.5667	-4.0146	-3.5771	-3.9813	-4.0938	-3.4917	-3.7938	-3.6625	-3.525	113.367	-28.757	38.176	-101.086	85.364	124.040	153.163	203.687	175.458	122.149	182.688	169.364	192.073	-110.207	-53.751	22.040	0.00019861	0.00030102	0.00010084	1198.6	2.9614e-06	3.0074e-06	1262.5	249.74	1.6639e-06	4.044e-06	311.87	87.483	68.045	20.17	2.4257e-06	28.347	0.00030118	0.0003704	9.8998e-05	1187.4	4.3852e-06	3.8137e-06	1249.8	248.9	4.0161e-06	4.098e-06	311.29	88.296	68.997	20.428	3.9811e-06	28.757	-69.518	-49.114	-34.631	-122.723	11.843	37.635	-122.495	-115.595	35.025	15.316	-115.850	-109.558	-109.082	-102.024	22.798	-102.578	-8191	255	
851.978	1	1	0	0	0.15974	0.35848	0.22859	0.22756	0.1929	0.20119	0.10032	0.18671	0.19763	0.085078	0.21171	0.16851	0.35438	0.10569	0.11061	0.11209	-3.85	-3.7062	-3.6437	-4.0854	-3.4292	-3.9833	-3.925	-3.5687	-4.1021	-3.6667	-3.7062	-4.1417	-3.6375	-3.9271	-3.8958	-3.7687	-11.307	-108.288	102.212	197.260	140.667	135.665	125.347	116.464	163.695	-99.429	176.033	75.912	152.604	215.177	12.421	159.131	0.00017192	0.00022352	7.1886e-05	1205.3	3.2086e-06	2.4303e-06	1268.3	248.68	2.5678e-06	3.0062e-06	313.39	87.784	68.591	20.224	2.1121e-06	28.318	0.00028891	0.00037262	9.6661e-05	1189.3	4.6047e-06	4.2558e-06	1253.4	248.62	3.826e-06	3.9012e-06	311.76	88.514	69.124	20.447	3.6016e-06	28.793	-74.249	-26.239	-10.122	-122.564	12.155	50.614	-122.516	-115.635	0.425	31.544	-115.772	-109.122	-109.048	-102.244	10.049	-102.747	-8191	255	
852.075	1	1	0	0	0.10607	0.26703	0.081246	0.1395	0.07395	0.12909	0.38245	0.35559	0.14225	0.11616	0.23201	0.24575	0.23922	0.071227	0.11944	0.18973	-3.6937	-3.7687	-3.5833	-3.925	-3.6813	-3.9708	-4.0583	-3.4708	-4.0708	-3.6771	-3.6021	-4.0333	-3.6604	-3.7188	-4.0271	-3.4292	-58.627	-79.594	34.452	217.713	-74.655	-109.704	135.760	154.992	37.324	91.501	188.749	-84.001	-23.780	79.366	94.012	79.102	0.00018099	0.00039099	0.0001095	1208.9	2.3731e-06	2.3056e-06	1268.1	248.83	1.8397e-06	2.6673e-06	312.92	87.453	68.815	20.059	2.9479e-06	28.362	0.00030168	0.00037428	0.00010271	1191.7	4.3131e-06	3.835e-06	1252.5	248.69	3.747e-06	3.7826e-06	311.95	88.34	69.178	20.443	3.6949e-06	28.838	-77.574	-38.274	-47.963	-122.796	20.696	19.900	-122.570	-115.833	2.378	50.988	-116.185	-109.594	-109.091	-102.233	23.931	-102.572	-8191	255	
852.195	1	1	0	0	0.0905	0.18709	0.14781	0.25294	0.30387	0.044159	0.53102	0.17446	0.052694	0.15159	0.10044	0.097535	0.18442	0.07695	0.25047	0.087703	-3.6354	-3.7104	-3.5708	-4	-3.7375	-3.8958	-4.2875	-3.6146	-3.9688	-3.9521	-3.5479	-4.0396	-3.8708	-3.6896	-3.9479	-3.5167	47.010	-131.326	11.577	218.651	150.789	-99.097	125.946	171.559	158.573	62.785	-42.206	213.422	163.315	203.353	-29.899	11.166	0.00019976	0.00034514	0.00010653	1201	2.8482e-06	2.5736e-06	1258.3	250.2	2.385e-06	2.6889e-06	312.27	87.171	68.693	20.235	2.6071e-06	28.354	0.00029075	0.00035014	0.00010689	1189	4.2243e-06	3.9522e-06	1249.4	249.42	3.8437e-06	3.8112e-06	312.08	88.477	69.169	20.461	3.7972e-06	28.843	-72.471	-29.129	-36.323	-122.734	37.842	24.007	-122.632	-115.662	17.513	30.950	-115.793	-109.633	-108.827	-102.150	16.416	-102.724	-8191	255	
852.291	1	1	0	0	0.091613	0.21749	0.23282	0.36983	0.17449	0.12042	0.074069	0.26288	0.027798	0.094967	0.11767	0.086221	0.14587	0.088048	0.18997	0.20465	-3.425	-3.9479	-3.4813	-4.0625	-3.6875	-3.6333	-4.0167	-3.4833	-3.8812	-3.8812	-3.6583	-3.9813	-3.7354	-3.5583	-4.0271	-3.5396	221.242	-44.176	216.123	160.949	-81.752	52.690	139.419	119.600	1.404	-2.625	-102.234	87.093	113.032	152.762	121.640	162.911	0.00017736	0.00027194	8.8594e-05	1203.8	2.747e-06	3.3334e-06	1266	249.55	2.7849e-06	3.3624e-06	313.98	87.702	68.505	20.205	3.4284e-06	28.428	0.00028566	0.00034663	0.0001098	1190.9	4.3667e-06	3.9107e-06	1254.3	249.82	4.0073e-06	3.7869e-06	312.7	88.762	69.193	20.481	3.7972e-06	28.889	-76.050	-49.186	-43.978	-122.460	-0.317	7.277	-122.562	-115.588	-1.866	12.087	-116.034	-109.489	-109.113	-102.188	42.203	-102.655	-8191	255	
852.388	1	1	0	0	0.080719	0.02925	0.1337	0.12332	0.048923	0.065782	0.11818	0.20614	0.27397	0.19987	0.19546	0.19698	0.14311	0.19091	0.237	0.15468	-3.3729	-3.8854	-3.3312	-4.1854	-3.7271	-3.525	-4.0958	-3.6688	-3.7	-4.0083	-3.5604	-3.9667	-3.7625	-3.5396	-3.9979	-3.75	32.197	-111.799	115.172	-9.889	68.901	186.140	149.266	-126.837	-9.250	0.229	120.882	-109.518	58.334	-13.658	142.262	150.159	0.00017373	0.00018588	7.8136e-05	1205.3	2.9633e-06	2.5571e-06	1264.8	249.26	2.1617e-06	2.7208e-06	312.19	87.592	68.532	20.265	4.6942e-06	28.279	0.00029669	0.00033849	0.00011169	1191.7	4.2293e-06	4.1109e-06	1255.2	249.3	3.8945e-06	3.7096e-06	313.13	88.44	69.171	20.517	3.6378e-06	28.72	-74.881	-44.708	-22.267	-122.456	20.747	4.827	-122.694	-115.845	18.359	22.553	-116.249	-109.394	-109.082	-102.357	17.904	-102.327	-8191	255	
852.459	1	1	0	0	0.17772	0.16789	0.075111	0.4056	0.098988	0.24022	0.18401	0.27898	0.21698	0.1792	0.20492	0.083035	0.070053	0.20825	0.094884	0.1833	-3.3688	-3.875	-3.4146	-3.825	-3.8063	-3.5354	-4.1438	-3.6396	-3.5521	-4.0396	-3.5375	-4.0479	-3.6792	-3.6458	-3.9938	-3.7458	128.396	-68.661	67.057	153.608	-27.939	91.015	123.633	-127.256	84.495	194.907	-131.462	214.331	161.987	130.370	138.389	167.087	0.00018654	0.00029931	8.3518e-05	1199.4	3.0426e-06	2.7057e-06	1260.9	249.14	2.3063e-06	3.0123e-06	312.12	87.885	68.815	20.173	2.6288e-06	28.248	0.00028064	0.0003421	0.00010886	1190.9	4.0852e-06	4.0683e-06	1251.4	249.32	4.1515e-06	3.861e-06	312.9	88.533	69.244	20.476	3.8923e-06	28.747	-74.476	-47.079	-54.297	-122.532	6.505	4.676	-122.672	-115.691	2.743	27.978	-116.636	-109.383	-109.000	-102.092	19.419	-102.801	-8191	255	
852.578	1	1	0	0	0.17106	0.24161	0.092007	0.11114	0.33779	0.1315	0.32675	0.26804	0.094998	0.13287	0.098713	0.18831	0.14294	0.20505	0.1542	0.25721	-3.15	-3.9562	-3.5104	-3.9833	-4.0083	-3.525	-3.9958	-3.7958	-3.6667	-4.0792	-3.6958	-3.85	-3.9458	-3.4313	-3.8312	-3.8833	50.664	113.233	170.590	-121.305	172.060	125.315	159.833	178.985	90.396	31.033	139.391	136.148	-107.090	61.797	14.853	106.132	0.00018901	0.00036101	8.7024e-05	1204.3	2.539e-06	3.7542e-06	1266.9	250.41	1.5315e-06	2.6638e-06	312.82	87.727	68.827	20.007	2.5354e-06	28.219	0.00029712	0.0003334	0.00010788	1193.8	4.0592e-06	4.1525e-06	1253.6	249.68	3.9291e-06	3.8334e-06	312.42	88.526	69.069	20.372	3.7148e-06	28.696	-73.536	-30.936	-30.322	-122.660	32.734	31.532	-122.872	-115.575	-20.495	34.861	-115.901	-109.422	-109.030	-102.174	19.580	-102.465	-8191	255	
852.674	1	1	0	0	0.31629	0.10949	0.1114	0.089388	0.12884	0.034748	0.13315	0.21019	0.097893	0.12711	0.12104	0.19707	0.071131	0.053331	0.3492	0.056103	-3.2438	-4.0729	-3.5771	-3.9854	-3.9375	-3.5042	-4.075	-3.9479	-3.4667	-4.0042	-3.6229	-3.8583	-3.975	-3.7104	-4	-3.7854	118.280	-110.063	-0.208	-132.881	91.053	-120.760	164.433	204.709	-124.591	-128.798	167.635	202.310	159.904	224.869	-64.782	176.944	0.00016722	0.00032716	3.7897e-05	1205.9	3.3351e-06	2.1244e-06	1262.2	250.4	2.3529e-06	3.1593e-06	315.37	88.021	68.345	20.095	2.9275e-06	28.317	0.00029935	0.00033396	9.5545e-05	1192.2	4.2075e-06	4.2217e-06	1253.1	249.9	4.0846e-06	3.8176e-06	313.26	88.568	69.071	20.41	3.7963e-06	28.753	-74.946	-40.293	-30.342	-122.852	6.064	20.363	-122.488	-115.257	16.082	22.762	-115.687	-109.354	-108.917	-102.311	1.562	-102.702	-8191	255	
852.770	1	1	0	0	0.17752	0.21442	0.15734	0.26913	0.12334	0.073675	0.080253	0.14857	0.081986	0.073581	0.15862	0.35951	0.21857	0.17393	0.045963	0.15779	-3.1396	-3.9479	-3.55	-3.7938	-3.9625	-3.5729	-4.0625	-4.1271	-3.5604	-4.0583	-3.8375	-3.6	-4.075	-3.5104	-3.9771	-3.925	65.995	-84.272	200.659	213.454	-116.246	20.362	172.676	-132.696	153.760	37.928	93.547	199.824	213.666	49.360	57.251	22.145	0.00018451	0.00039021	0.00010242	1203.4	2.0273e-06	3.1618e-06	1262.9	250.1	2.9495e-06	4.6819e-06	311.9	87.806	68.891	20.156	3.7524e-06	28.286	0.00030557	0.00035116	9.7388e-05	1189.5	3.9805e-06	4.3155e-06	1252.6	249.47	4.1877e-06	4.1668e-06	312.07	88.242	69.136	20.356	4.0454e-06	28.784	-75.189	-56.618	-45.554	-122.759	1.916	10.435	-122.695	-115.507	17.041	28.445	-115.949	-109.253	-109.234	-102.026	21.136	-102.241	-8191	255	
852.867	1	1	0	0	0.030854	0.21371	0.11775	0.30253	0.15127	0.019597	0.081654	0.37551	0.1286	0.15421	0.20384	0.061675	0.049175	0.13504	0.17386	0.2551	-3.0042	-3.9917	-3.7729	-3.5417	-3.8812	-3.6979	-3.9292	-3.9542	-3.4583	-3.8708	-3.7812	-3.4979	-4.1042	-3.6604	-3.7771	-4.0437	-23.183	50.764	-124.325	189.637	-120.137	85.332	116.120	203.653	55.220	31.093	153.904	219.548	185.589	48.520	-18.444	184.148	0.00018712	0.00029071	8.3435e-05	1199	2.0949e-06	2.0003e-06	1257.9	248.86	2.0173e-06	3.4394e-06	311.88	87.78	68.446	20.179	2.418e-06	28.21	0.00030398	0.0003556	0.00010484	1188.5	3.8808e-06	3.9256e-06	1252.9	249.05	4.0612e-06	4.0568e-06	312.35	88.393	68.971	20.411	3.7773e-06	28.73	-70.372	-59.241	-57.013	-122.618	7.286	41.182	-122.627	-115.772	-33.345	25.869	-115.896	-109.662	-108.786	-102.665	34.965	-102.692	-8191	255	
852.987	1	1	0	0	0.20222	0.2149	0.1117	0.030134	0.060834	0.2152	0.14042	0.077595	0.11377	0.1031	0.071348	0.3336	0.1001	0.1228	0.091557	0.23501	-3.1125	-3.8292	-3.8542	-3.6437	-4.0146	-3.5542	-3.7458	-4.1687	-3.5125	-3.9271	-3.9458	-3.65	-3.9479	-3.7917	-3.6	-4.1458	134.830	-41.544	79.391	166.210	174.316	-20.731	-2.984	-65.320	199.591	152.241	131.038	196.823	-85.120	148.433	194.798	203.470	0.00016922	0.00031709	7.4948e-05	1205.8	2.8753e-06	2.9186e-06	1259	250.69	2.3883e-06	3.3419e-06	313.32	87.684	68.81	20.09	2.9173e-06	28.479	0.00029874	0.00034413	9.9517e-05	1191.2	4.1799e-06	4.3123e-06	1251.6	249.38	4.1708e-06	3.9467e-06	312.67	88.362	69.106	20.371	3.7664e-06	28.727	-68.860	-60.972	-45.691	-122.706	24.758	5.771	-122.528	-115.888	-1.836	33.722	-115.726	-109.350	-109.179	-101.924	55.512	-102.765	-8191	255	
853.059	1	1	0	0	0.17535	0.1086	0.1941	0.24379	0.17012	0.037214	0.27995	0.16286	0.14558	0.0088479	0.12849	0.15332	0.26727	0.15074	0.097272	0.20754	-3.1896	-3.8833	-3.7	-3.6146	-4.0021	-3.6312	-3.75	-4.1188	-3.4417	-3.8417	-4.1146	-3.7	-3.9813	-3.6312	-3.6562	-4.0542	207.860	62.285	61.538	-121.985	219.621	23.427	149.357	50.171	69.434	-63.054	198.260	191.918	225.688	-109.691	214.550	181.796	0.00018346	0.00029976	9.5263e-05	1202.6	2.5143e-06	3.0234e-06	1256.9	249.43	2.0137e-06	2.4973e-06	311.68	87.309	68.584	19.971	2.9869e-06	28.294	0.00031317	0.00032046	9.8634e-05	1191	4.1933e-06	4.0012e-06	1251.5	249.47	4.1346e-06	4.0303e-06	312.96	88.203	69.026	20.343	3.9874e-06	28.734	-70.345	-47.381	-30.573	-122.759	10.585	6.314	-122.617	-115.685	18.256	23.831	-116.041	-109.225	-109.006	-102.553	33.472	-102.704	-8191	255	
853.155	1	1	0	0	0.176	0.192	0.30894	0.11828	0.095309	0.098489	0.20123	0.21781	0.10495	0.17615	0.25999	0.16125	0.1534	0.17729	0.025452	0.093471	-3.1729	-3.8042	-4.0021	-3.6771	-3.8146	-3.6688	-3.6479	-4.1833	-3.5646	-3.6792	-4.1833	-3.7125	-3.8937	-3.8688	-3.5375	-4.1667	-71.446	176.852	-98.183	87.012	56.655	76.332	173.370	200.556	11.038	186.625	138.109	126.622	110.632	153.805	84.192	122.450	0.00018694	0.00028863	8.4142e-05	1200.6	2.4385e-06	3.1048e-06	1261.4	249.13	1.966e-06	3.4704e-06	312.07	86.9	68.584	20.134	2.4918e-06	28.284	0.00030278	0.00036975	9.7388e-05	1191.1	4.3961e-06	3.8936e-06	1253.2	249.67	4.0218e-06	4.0102e-06	312.39	88.166	69.018	20.381	3.9122e-06	28.658	-73.891	-62.180	-54.656	-122.672	34.298	9.029	-122.711	-115.638	17.241	18.110	-116.015	-109.392	-108.882	-102.238	41.290	-102.642	-8191	255	
853.276	1	1	0	0	0.033042	0.13823	0.088181	0.26617	0.021816	0.10927	0.17023	0.2689	0.11786	0.29102	0.19304	0.15197	0.12156	0.083662	0.27947	0.21583	-3.3708	-3.5563	-4.0042	-3.6625	-3.8104	-3.9021	-3.6167	-3.9583	-3.6979	-3.7583	-4.0813	-3.4333	-3.8187	-4.0292	-3.4854	-4.0146	-85.152	168.670	190.067	153.331	213.316	74.113	156.144	63.686	171.145	-31.366	204.461	-108.636	-1.223	81.474	-13.271	165.237	0.00017956	0.00017447	6.9426e-05	1201.2	2.706e-06	3.4947e-06	1264	250.79	1.3982e-06	3.4167e-06	313.85	87.413	68.723	19.978	2.6389e-06	28.13	0.00030617	0.00036753	9.7336e-05	1189.9	4.474e-06	4.0268e-06	1253.1	249.74	4.3037e-06	4.0049e-06	312.15	88.368	69.152	20.324	4.0155e-06	28.611	-72.804	-49.113	-48.862	-122.663	24.387	13.147	-122.813	-115.663	4.265	26.725	-115.994	-109.454	-108.931	-102.359	16.201	-102.295	-8191	255	
853.372	1	1	0	0	0.23472	0.10825	0.12383	0.11704	0.17946	0.11255	0.20755	0.31011	0.16805	0.19983	0.26012	0.14564	0.11668	0.19857	0.12178	0.15257	-3.4313	-3.5104	-3.9917	-3.875	-3.9	-3.725	-3.7333	-3.9437	-3.9875	-3.4938	-4.1604	-3.6271	-3.7854	-3.9813	-3.4646	-3.9167	-123.443	180.811	38.484	210.988	-34.092	-105.264	143.800	186.527	-131.459	167.847	111.941	184.199	-88.661	-120.230	219.546	124.410	0.00018164	0.00028972	0.00010722	1203.8	2.3465e-06	3.8541e-06	1266.9	251.05	2.3136e-06	2.8407e-06	310.22	86.305	67.256	19.803	2.7522e-06	27.98	0.00029981	0.00039343	0.00010253	1191.6	4.2679e-06	3.785e-06	1255.1	249.39	4.0177e-06	4.1001e-06	311.68	87.979	68.662	20.226	4.4148e-06	28.569	-74.698	-40.386	-26.450	-122.703	38.678	21.739	-122.770	-115.701	14.719	30.423	-116.246	-109.431	-109.067	-102.223	27.769	-102.803	-8191	255	
853.468	1	1	0	0	0.042012	0.20502	0.16143	0.1823	0.061215	0.1577	0.15524	0.21899	0.17698	0.077517	0.15034	0.1823	0.22745	0.22967	0.072626	0.20262	-3.3604	-3.4562	-3.9938	-3.8625	-3.7583	-3.9667	-3.8083	-3.8854	-4.0333	-3.4813	-4.1167	-3.6833	-3.8854	-4.1188	-3.5333	-4.0542	66.391	54.024	-45.533	146.504	82.418	219.075	168.700	-93.555	209.174	14.543	170.924	169.850	191.120	-89.844	-13.594	181.334	0.0001725	0.00039239	8.337e-05	1204	2.6428e-06	2.7757e-06	1264.9	251.12	2.047e-06	3.2895e-06	314.52	87.267	68.496	20.213	3.138e-06	28.269	0.00029167	0.00040425	0.00010219	1193.5	4.262e-06	4.1152e-06	1253.6	249.68	3.7849e-06	4.3827e-06	312.89	88.222	68.986	20.39	4.1187e-06	28.719	-71.185	-44.693	-45.261	-122.713	-13.727	31.199	-122.732	-115.750	8.604	23.110	-116.141	-109.214	-108.767	-101.910	25.445	-102.711	-8191	255	
853.564	1	1	0	0	0.12437	0.10959	0.097931	0.22636	0.21171	0.18517	0.24386	0.058968	0.066581	0.15622	0.18564	0.13821	0.17611	0.28222	0.13472	0.30615	-3.6021	-3.6104	-4	-3.7188	-3.6917	-4.1104	-3.8021	-3.8271	-4	-3.5104	-3.9271	-3.6771	-3.6417	-4.2271	-3.5771	-3.8854	54.617	-109.194	-92.103	206.305	211.651	-25.420	155.184	206.239	87.414	136.621	-79.423	150.172	-45.066	115.843	3.098	193.836	0.00018741	0.00024317	5.4589e-05	1209.5	2.696e-06	2.2306e-06	1266	250.49	2.4695e-06	2.9812e-06	311.42	86.876	68.148	19.966	2.7363e-06	28.111	0.00029489	0.00037909	0.00010497	1192.6	4.3056e-06	3.9181e-06	1254.3	249.68	3.8856e-06	4.4452e-06	312.09	88.299	69.004	20.345	3.9829e-06	28.698	-71.729	-40.720	-88.451	-122.862	12.730	18.662	-122.286	-115.506	12.225	28.973	-116.267	-109.212	-109.169	-102.728	27.745	-102.800	-8191	255	
853.683	1	1	0	0	0.025922	0.1294	0.2062	0.20478	0.14142	0.34534	0.22051	0.16664	0.13184	0.090457	0.028205	0.2732	0.23159	0.1871	0.11252	0.24597	-3.5604	-3.35	-4.0417	-3.9396	-3.5729	-4.0687	-3.8542	-3.8229	-4.0396	-3.5646	-3.95	-3.8771	-3.5542	-4.0583	-3.6333	-3.5083	96.318	-111.104	199.458	221.977	22.274	24.179	107.803	202.174	64.704	71.349	-119.502	192.658	-113.404	21.801	77.371	-122.334	0.00018568	0.00034614	8.1724e-05	1193.6	1.4566e-06	3.6278e-06	1259.1	249.12	2.0843e-06	2.8258e-06	309.97	86.714	67.843	20.047	3.2346e-06	28.206	0.00029411	0.00040628	9.8583e-05	1190.5	4.1204e-06	4.0971e-06	1254.3	249.07	3.8179e-06	4.1552e-06	311.94	88.143	68.918	20.324	3.972e-06	28.657	-71.995	-37.028	-41.529	-122.811	10.486	12.728	-122.713	-116.013	18.362	34.163	-116.092	-109.096	-108.927	-102.454	33.707	-102.883	-8191	255	
853.755	1	1	0	0	0.10968	0.2986	0.12999	0.25064	0.17717	0.081693	0.079893	0.015002	0.18521	0.13059	0.13046	0.12031	0.10445	0.20848	0.11845	0.078824	-3.5896	-3.5354	-3.8021	-3.8875	-3.4375	-4.0542	-3.7604	-3.6104	-3.9396	-3.6667	-3.8937	-4.0312	-3.5542	-4.1292	-3.8354	-3.6562	190.277	62.911	-25.057	183.260	199.005	171.002	-99.142	212.665	49.884	58.955	152.569	36.617	159.881	-84.464	66.436	215.811	0.00018414	0.00018278	6.7762e-05	1198.6	3.3279e-06	2.4809e-06	1255.4	246.66	2.1057e-06	4.4922e-06	307.42	85.943	68.133	19.915	3.0591e-06	27.948	0.0003125	0.00036929	9.9258e-05	1191.5	4.5661e-06	3.9479e-06	1254	248.64	3.8558e-06	4.5849e-06	311.33	88.091	68.974	20.285	3.9222e-06	28.655	-70.824	-30.153	-53.617	-122.766	3.365	15.789	-122.743	-115.782	37.084	12.517	-116.401	-109.544	-109.043	-102.435	25.012	-102.649	-8191	255	
853.875	1	1	0	0	0.21924	0.1001	0.23698	0.17558	0.13033	0.11221	0.33626	0.20337	0.24534	0.099558	0.12651	0.06125	0.16523	0.096372	0.11593	0.20281	-3.5792	-3.5125	-3.7687	-4.0729	-3.4708	-3.9625	-3.9125	-3.675	-3.9458	-3.5896	-3.8958	-4.0813	-3.7604	-3.9271	-3.7917	-3.5667	173.817	182.975	-117.333	130.809	81.122	29.211	140.213	168.202	0.347	97.283	218.390	128.843	178.811	-42.466	-48.662	221.078	0.00018007	0.00033065	7.3017e-05	1194.4	2.4279e-06	2.4104e-06	1257.9	248.94	2.8044e-06	3.6882e-06	311.62	86.601	68.062	19.904	2.2752e-06	27.887	0.0003014	0.00039158	0.000105	1192.4	4.5795e-06	4.0204e-06	1254.2	249.34	4.1942e-06	4.2758e-06	312.27	88.163	68.879	20.308	3.9557e-06	28.619	-73.817	-45.786	-45.053	-122.834	23.407	32.798	-122.842	-115.839	15.423	30.675	-116.251	-109.760	-108.904	-102.493	8.586	-102.898	-8191	255	
853.971	1	1	0	0	0.13673	0.12621	0.14878	0.38412	0.15832	0.23627	0.20845	0.2674	0.19971	0.066664	0.13661	0.10086	0.071105	0.090476	0.18464	0.14476	-3.6396	-3.6792	-3.7208	-4.0896	-3.5771	-3.9854	-3.9729	-3.6479	-4.0229	-3.675	-3.7042	-4.0813	-3.5812	-3.8438	-3.9667	-3.7354	-0.841	178.119	95.599	-110.307	28.384	-76.521	169.300	159.391	158.676	-26.680	165.485	50.576	0.812	195.988	12.020	220.699	0.00020309	0.0003151	0.00011196	1198.8	2.0888e-06	3.1829e-06	1259.5	248.36	2.1008e-06	2.8339e-06	310.47	87.115	68.048	20.107	3.5115e-06	28.213	0.00030136	0.0003864	9.9024e-05	1192.4	4.5871e-06	3.916e-06	1254.3	249.07	4.0645e-06	4.4494e-06	311.9	88.323	68.949	20.393	4.1151e-06	28.735	-74.723	-31.252	-51.680	-122.793	11.860	30.397	-122.991	-115.763	6.551	27.564	-116.363	-109.664	-109.196	-102.173	35.895	-102.323	-8191	255	
854.068	1	1	0	0	0.046082	0.2771	0.15811	0.1452	0.05599	0.084216	0.26286	0.18209	0.25112	0.18285	0.065698	0.11736	0.13625	0.068604	0.066353	0.23517	-3.6958	-3.7167	-3.6625	-4.1583	-3.6583	-3.7583	-4.2958	-3.4479	-3.9313	-3.6708	-3.7542	-3.9896	-3.7687	-3.9854	-4.1208	-3.4667	-7.377	59.927	75.849	138.827	115.508	-37.972	122.173	-106.972	-71.597	176.702	-76.645	200.347	-41.331	135.233	132.758	-96.928	0.00016555	0.00028103	7.4839e-05	1201.8	3.8801e-06	3.6872e-06	1253.1	248.08	2.4778e-06	2.9387e-06	311.65	87.219	68.571	20.159	2.15e-06	28.437	0.00027494	0.00037669	0.00010183	1193.4	4.4371e-06	4.1386e-06	1254.3	249.18	4.0637e-06	4.2176e-06	312.34	88.336	69.007	20.39	3.8733e-06	28.709	-74.255	-23.339	-67.927	-122.793	6.104	35.748	-122.837	-115.898	21.128	8.553	-116.342	-109.355	-108.841	-102.155	5.162	-102.581	-8191	255	
854.164	1	1	0	0	0.059213	0.089465	0.25417	0.22408	0.078772	0.081327	0.17809	0.12976	0.10369	0.065051	0.29627	0.092012	0.28463	0.15583	0.059187	0.077852	-3.5062	-3.7438	-3.5187	-4.2438	-3.6271	-3.6729	-4.1208	-3.6667	-3.8	-3.7667	-3.7083	-4.1708	-3.6729	-3.7729	-3.9417	-3.6688	-99.109	-67.341	84.154	-131.494	140.254	162.584	167.208	184.407	134.615	-31.772	-88.181	-12.047	225.530	-119.175	83.553	76.295	0.00017504	0.00035504	7.2818e-05	1210.6	2.7513e-06	3.4915e-06	1262.5	249.28	2.0477e-06	3.2614e-06	311.44	87.041	68.785	19.994	3.8973e-06	28.114	0.00029825	0.00037918	0.00010884	1196.3	4.4086e-06	3.9767e-06	1255.7	249.46	4.1354e-06	4.1361e-06	313.14	88.268	69.156	20.374	3.9168e-06	28.7	-73.462	-48.353	-63.489	-122.607	31.364	21.519	-122.525	-115.609	24.236	24.182	-115.918	-109.529	-109.260	-102.321	17.778	-102.708	-8191	255	
854.284	1	1	0	0	0.074354	0.057516	0.050878	0.23033	0.34773	0.078134	0.068075	0.17519	0.12181	0.10043	0.061457	0.15586	0.046962	0.10346	0.093277	0.25733	-3.425	-3.8833	-3.4292	-4.1312	-3.6854	-3.6	-4.0938	-3.5687	-3.6354	-3.7875	-3.5167	-3.8542	-3.625	-3.6625	-4.0292	-3.7313	117.240	140.985	159.516	-89.278	-42.581	161.672	-86.268	165.409	-57.481	19.383	172.453	195.117	93.226	219.590	-31.662	112.171	0.00018534	0.0003896	8.5343e-05	1213.6	3.5748e-06	2.604e-06	1255.3	249.98	1.193e-06	2.6208e-06	310.47	87.204	67.882	19.892	3.0063e-06	27.904	0.00029715	0.00036355	0.00010609	1196.5	4.3877e-06	4.1131e-06	1255	249.67	3.8856e-06	4.0758e-06	312.45	88.507	68.791	20.335	3.7746e-06	28.708	-72.051	-40.694	-32.772	-122.743	4.737	7.626	-122.996	-115.696	4.383	7.281	-116.049	-109.725	-109.229	-102.619	38.999	-102.993	-8191	255	
854.356	1	1	0	0	0.19359	0.094868	0.23022	0.082887	0.017211	0.12936	0.28863	0.13088	0.12984	0.11075	0.18905	0.17255	0.13234	0.073936	0.19334	0.034683	-3.3	-4.0396	-3.4562	-4.0417	-3.6667	-3.6083	-4.1	-3.55	-3.6958	-3.8958	-3.4688	-3.7021	-3.8271	-3.5792	-3.8354	-3.6292	90.851	77.565	-62.435	22.007	94.207	212.219	158.612	-80.498	-132.217	-3.222	-124.344	88.369	219.400	43.936	206.685	101.345	0.00017885	0.00027907	0.00011009	1210.2	2.5976e-06	3.6583e-06	1258.2	248.05	2.7143e-06	3.9318e-06	311.54	87.216	68.274	20.066	3.0989e-06	28.039	0.0003049	0.00040184	0.00011115	1195.8	4.3592e-06	4.4327e-06	1254.4	249.06	3.8993e-06	3.9012e-06	312.81	88.409	69.025	20.398	4.0807e-06	28.678	-74.473	-43.395	-37.538	-122.808	30.096	32.295	-122.769	-115.613	0.010	21.297	-116.081	-109.639	-109.424	-102.125	17.324	-102.521	-8191	255	
854.452	1	1	0	0	0.17963	0.070367	0.063143	0.13696	0.082689	0.19611	0.09707	0.024222	0.18756	0.23212	0.15814	0.14478	0.091426	0.21105	0.11616	0.097534	-3.3688	-3.9375	-3.4437	-4.0542	-3.8937	-3.525	-4.1646	-3.7208	-3.725	-3.9708	-3.6646	-3.9062	-3.8625	-3.7292	-4.0292	-3.6562	58.086	197.895	75.053	194.264	-35.029	142.198	54.621	128.057	127.987	-131.668	33.116	205.438	31.869	214.902	181.011	-124.110	0.00017281	0.00025632	0.00010408	1207.2	3.7782e-06	2.2697e-06	1263.4	250.58	1.9122e-06	2.7537e-06	311.18	86.962	68.571	20.019	2.0677e-06	28.207	0.00029924	0.00037696	0.00011626	1195.7	4.5133e-06	4.2089e-06	1256.7	249.91	4.1354e-06	3.8673e-06	312.74	88.541	69.143	20.393	3.886e-06	28.723	-74.729	-37.511	-52.185	-122.906	25.055	24.510	-122.648	-115.836	4.582	13.202	-116.240	-109.187	-109.117	-102.567	18.856	-102.319	-8191	255	
854.548	1	1	0	0	0.28229	0.063711	0.11956	0.20755	0.031025	0.12051	0.12773	0.097385	0.055851	0.11119	0.17474	0.14405	0.20735	0.10989	0.27061	0.26911	-3.1479	-3.9292	-3.4479	-4.0271	-3.9	-3.5521	-4.1333	-3.7042	-3.6771	-4.0458	-3.7083	-3.8417	-4.0271	-3.5396	-3.9667	-3.6583	-13.242	-65.434	114.975	195.239	-66.163	119.285	196.459	194.975	119.269	-82.918	-79.708	-42.398	206.529	199.395	49.559	151.179	0.00019353	0.00033515	9.379e-05	1196.1	2.5599e-06	3.2924e-06	1258.1	247.84	2.6003e-06	2.4538e-06	312.21	86.849	68.124	19.952	3.7645e-06	28.247	0.00029365	0.00038973	0.00011154	1191.8	4.231e-06	4.1717e-06	1256.2	249.46	4.365e-06	4.0218e-06	312.49	88.301	69.015	20.393	4.0943e-06	28.763	-71.980	-74.434	-41.882	-123.097	-5.553	28.144	-122.772	-115.956	21.360	28.418	-116.120	-109.437	-108.970	-102.064	29.435	-102.994	-8191	255	
854.667	1	1	0	0	0.12207	0.1515	0.2074	0.36301	0.058585	0.17913	0.31796	0.055937	0.1904	0.22172	0.1149	0.19155	0.23693	0.19663	0.059862	0.09749	-3.1396	-4.0062	-3.4625	-3.7667	-3.9042	-3.4938	-4.0729	-3.9	-3.6229	-4.0896	-3.7625	-3.5479	-3.975	-3.3875	-3.8042	-3.8875	-71.450	17.089	-32.070	226.053	222.077	-34.069	180.921	176.868	-6.753	214.868	206.393	156.372	139.774	-115.090	191.111	-66.205	0.00017686	0.00048821	0.00010793	1203.6	3.1368e-06	4.3746e-06	1265.7	248.69	2.5256e-06	3.3734e-06	310.54	86.232	67.927	20.008	2.617e-06	28.357	0.00030522	0.00036633	0.00010783	1194.8	4.4983e-06	4.2111e-06	1256.9	249.82	4.0999e-06	4.0303e-06	312.36	88.289	68.764	20.44	3.8117e-06	28.759	-73.878	-46.766	-48.888	-123.047	-5.460	27.173	-122.648	-115.770	4.830	20.793	-116.272	-109.352	-109.101	-102.354	28.072	-102.692	-8191	255	
854.763	1	1	0	0	0.023786	0.15349	0.20604	0.30827	0.26947	0.034778	0.23561	0.056306	0.16772	0.20261	0.15576	0.19608	0.077427	0.30188	0.10382	0.18581	-2.9667	-3.9708	-3.7104	-3.8438	-4.1479	-3.625	-4.1729	-3.8563	-3.4271	-4	-3.8438	-3.6854	-4.2521	-3.3937	-3.8271	-4.0062	-98.922	-96.102	103.442	155.087	40.886	119.284	112.688	185.291	69.367	69.789	206.804	62.169	-19.284	167.684	164.242	107.040	0.00016808	0.00030114	9.2464e-05	1212.9	3.3864e-06	2.3851e-06	1273.8	251.43	2.394e-06	3.0529e-06	315.7	88.076	69.112	20.212	3.0306e-06	28.41	0.00030914	0.00037188	0.00010873	1197	4.6357e-06	4.2761e-06	1259.1	250.55	4.373e-06	4.133e-06	313.54	88.54	69.314	20.445	3.7275e-06	28.842	-68.359	-61.740	-23.334	-122.389	41.306	37.714	-122.503	-115.737	12.229	-2.638	-115.633	-109.354	-108.978	-102.152	15.661	-102.251	-8191	255	
854.859	1	1	0	0	0.21684	0.19471	0.25158	0.19405	0.0073791	0.19065	0.068186	0.20094	0.18694	0.083022	0.40554	0.27134	0.16576	0.16837	0.17528	0.16775	-3.1625	-3.8292	-3.7417	-3.7521	-4.1083	-3.6562	-3.8438	-4.1687	-3.3458	-3.9313	-3.9854	-3.6875	-4.1167	-3.5812	-3.7667	-3.9333	-58.135	-103.735	169.717	-112.793	-86.212	180.679	-99.162	220.317	71.951	32.012	-105.360	217.103	104.818	-39.033	-70.821	134.962	0.00016906	0.0002487	8.232e-05	1218.6	1.9918e-06	3.4642e-06	1275	250.95	2.5846e-06	2.7534e-06	316.81	88.066	69.242	20.222	3.8958e-06	28.587	0.00030911	0.00037197	0.0001051	1200.8	4.1497e-06	4.1013e-06	1259.3	250.07	4.4125e-06	4.0695e-06	314.59	88.702	69.369	20.432	3.9494e-06	28.839	-63.655	-33.609	-49.567	-122.463	27.184	34.652	-122.224	-115.588	21.528	3.188	-115.661	-109.220	-108.830	-102.468	17.379	-102.428	-8191	255	
854.956	1	1	0	0	0.24972	0.12481	0.32045	0.10641	0.12967	0.049226	0.16802	0.03484	0.16527	0.032772	0.02362	0.2361	0.23731	0.25403	0.14523	0.15099	-3.0521	-3.7583	-3.6437	-3.6396	-3.9333	-3.7708	-3.8375	-4.0604	-3.5583	-3.775	-3.8083	-3.7021	-4.0146	-3.6375	-3.6792	-4.0896	39.584	-24.072	129.879	-105.221	16.042	60.112	171.277	-61.094	-129.555	136.881	54.280	-46.628	151.374	124.167	119.965	41.919	0.00019707	0.00037309	7.553e-05	1217	2.6083e-06	3.5192e-06	1278.2	253.21	2.4786e-06	3.8769e-06	316.01	87.785	69.114	20.36	3.5745e-06	28.782	0.00031583	0.00035495	0.00010302	1199.6	3.9151e-06	4.1099e-06	1259.9	251.45	4.0371e-06	3.7001e-06	313.74	88.65	69.343	20.514	3.9303e-06	28.862	-70.405	-38.974	-52.308	-122.538	22.513	42.208	-122.395	-115.665	-0.675	35.226	-116.103	-109.040	-109.116	-102.257	33.234	-102.096	-8191	255	
855.052	1	1	0	0	0.19092	0.17435	0.17017	0.19922	0.19054	0.12804	0.069058	0.18883	0.12424	0.014388	0.057084	0.13833	0.07038	0.056584	0.11561	0.1148	-3.3	-3.7458	-3.6396	-3.6813	-4.0042	-3.7125	-3.7396	-4.0729	-3.4896	-3.7938	-4.1146	-3.6583	-3.9542	-3.8375	-3.5354	-4.1042	-75.931	95.187	29.489	186.078	-11.377	-122.197	-52.076	-86.704	-1.363	204.262	-13.929	-119.919	187.764	-119.980	73.727	206.021	0.00019218	0.00025675	8.9922e-05	1220.7	3.8627e-06	3.4235e-06	1283.6	252.03	2.5128e-06	4.273e-06	317.06	88.358	69.499	20.447	2.3095e-06	28.584	0.00030186	0.00035708	0.00010328	1200.1	4.1698e-06	4.0481e-06	1263.2	250.48	4.2385e-06	3.7107e-06	314.05	88.89	69.483	20.521	3.8959e-06	28.927	-68.819	-59.551	-60.151	-122.390	7.147	-5.230	-122.464	-115.288	2.235	27.762	-115.958	-109.183	-108.836	-102.057	16.094	-102.746	-8191	255	
855.148	1	1	0	0	0.069559	0.1278	0.29192	0.26954	0.14402	0.21332	0.29149	0.39538	0.17987	0.21195	0.094443	0.14106	0.14603	0.12467	0.2718	0.20462	-3.3083	-3.7792	-3.8104	-3.6458	-3.8771	-3.85	-3.7479	-4.0667	-3.7375	-3.5771	-4.0479	-3.5854	-3.8458	-3.8875	-3.5771	-4.1813	-115.051	25.514	136.287	140.503	129.746	208.264	184.023	161.600	-0.854	109.631	147.979	-109.812	126.060	-97.777	121.421	180.598	0.00018208	0.00035697	9.3458e-05	1221.1	3.6492e-06	2.6731e-06	1285.6	254.04	2.3205e-06	3.056e-06	315.98	89.078	69.795	20.395	3.0254e-06	28.797	0.00029408	0.00035051	9.4506e-05	1200.3	4.288e-06	4.0268e-06	1262	251.02	3.9348e-06	3.843e-06	314.41	88.956	69.589	20.553	3.6967e-06	28.918	-73.897	-34.893	-39.497	-122.465	16.696	38.324	-122.219	-115.535	24.981	20.711	-115.612	-109.437	-108.452	-101.985	12.267	-102.545	-8191	255	
855.244	1	1	0	0	0.16688	0.06731	0.097146	0.33603	0.17304	0.20154	0.25536	0.11672	0.027733	0.15388	0.22183	0.18537	0.17149	0.10626	0.19623	0.11913	-3.0979	-3.6104	-4.1083	-3.5563	-3.6958	-3.8812	-3.7562	-4.0687	-3.7333	-3.6458	-3.9813	-3.6167	-3.7458	-3.8771	-3.3333	-4.1542	170.990	-46.285	197.323	-132.272	193.778	75.866	160.632	-94.366	28.304	88.596	128.009	224.482	58.034	131.591	34.420	143.254	0.00018377	0.00023494	5.9219e-05	1223.1	2.6081e-06	2.6129e-06	1286.5	253.81	3.1084e-06	2.1249e-06	315.83	89.345	69.478	20.509	3.0367e-06	28.905	0.00028378	0.00034691	9.9985e-05	1200.5	4.009e-06	3.867e-06	1264	250.81	4.1531e-06	3.8832e-06	313.86	89.205	69.546	20.572	3.8171e-06	28.933	-74.024	-54.082	-31.426	-122.464	20.484	17.950	-122.459	-115.426	7.558	15.093	-115.826	-109.150	-108.871	-101.926	17.205	-102.385	-8191	255	
855.365	1	1	0	0	0.25644	0.095522	0.19536	0.30873	0.1567	0.081965	0.26057	0.38952	0.16425	0.14886	0.32474	0.27254	0.073078	0.11018	0.075645	0.087555	-3.2792	-3.525	-4.0083	-3.6813	-3.7396	-4.1729	-3.7104	-4	-3.775	-3.5938	-4.2667	-3.5708	-3.7625	-4.1417	-3.475	-4.0771	196.325	121.718	112.822	184.049	-82.877	-45.197	161.554	141.700	145.172	122.721	220.583	208.959	191.219	195.179	-125.263	-102.018	0.00017836	0.00029044	0.00011847	1227	2.5596e-06	3.7735e-06	1282.7	254.05	3.1189e-06	3.1107e-06	318.05	88.565	70.092	20.317	2.8606e-06	28.821	0.00030016	0.00036883	9.905e-05	1202.3	4.0794e-06	3.9192e-06	1262.2	251.13	3.971e-06	3.9382e-06	314.77	88.896	69.546	20.505	4.0191e-06	28.894	-73.308	-50.205	-41.500	-122.450	17.175	37.919	-122.206	-115.571	2.758	35.197	-115.656	-109.048	-108.585	-101.984	9.989	-102.312	-8191	255	
855.461	1	1	0	0	0.065631	0.13817	0.055636	0.16758	0.069889	0.21445	0.033842	0.10583	0.12226	0.21358	0.11523	0.10387	0.22768	0.19875	0.18172	0.16709	-3.3708	-3.6667	-3.9479	-3.7625	-3.7917	-4.0167	-3.8875	-4.1854	-3.7438	-3.6708	-4.0062	-3.9354	-3.7604	-3.9521	-3.5792	-3.8563	165.441	162.367	192.583	-109.407	74.602	64.105	197.250	191.483	215.081	73.366	-93.113	-129.285	213.753	133.185	-108.985	-79.403	0.00017375	0.00028322	9.5603e-05	1229.5	3.6045e-06	3.2139e-06	1285.1	253.81	2.3371e-06	3.4413e-06	316.7	88.893	70.043	20.645	3.3896e-06	28.644	0.0003032	0.00037992	9.4195e-05	1200.1	4.3776e-06	4.0385e-06	1263.8	250.72	3.9162e-06	4.4558e-06	314.55	88.994	69.613	20.599	4.1033e-06	28.893	-71.649	-58.408	-50.278	-122.378	23.320	0.390	-122.334	-115.541	3.956	14.688	-115.680	-108.801	-108.685	-102.190	18.933	-102.219	-8191	255	
855.557	1	1	0	0	0.20068	0.16817	0.17028	0.28266	0.11734	0.11546	0.26408	0.23065	0.09152	0.060417	0.14052	0.19188	0.1544	0.077323	0.068048	0.20478	-3.3458	-3.35	-3.7438	-3.8167	-3.5771	-3.9042	-3.7833	-3.8333	-3.7625	-3.5354	-4.0729	-3.8583	-3.6125	-4.0917	-3.6771	-3.8333	179.815	-11.231	-42.488	200.453	117.894	126.638	182.893	130.674	155.792	64.341	164.733	166.474	-92.570	-23.207	-122.398	186.019	0.00019525	0.00034222	6.0669e-05	1222.4	2.2453e-06	3.7887e-06	1287.6	255.76	1.9078e-06	3.8149e-06	315.8	89.15	69.683	20.429	2.9819e-06	28.89	0.00028919	0.00038594	9.2845e-05	1200.4	4.2184e-06	3.6166e-06	1263.2	251.58	3.7575e-06	4.1753e-06	314.02	89.096	69.566	20.555	3.7927e-06	28.957	-73.826	-36.650	-29.136	-122.532	37.967	40.280	-122.232	-115.324	7.520	22.128	-115.493	-108.939	-108.815	-102.160	50.808	-102.510	-8191	255	
855.651	1	1	0	0	0.13794	0.28145	0.1588	0.26552	0.12702	0.20887	0.17535	0.19477	0.12002	0.066709	0.015207	0.2231	0.26282	0.1337	0.097094	0.082983	-3.6813	-3.4792	-3.9125	-3.8729	-3.4771	-4.0563	-3.8438	-3.8604	-4.0542	-3.6667	-3.925	-3.8646	-3.5167	-4.0396	-3.6188	-3.8167	-36.130	158.821	-34.227	177.903	-58.393	-128.295	107.054	174.340	65.389	134.000	73.256	134.972	-103.606	157.630	111.379	216.071	0.00020304	0.00035022	9.5123e-05	1232.1	2.615e-06	3.3984e-06	1285.4	254.72	2.9722e-06	1.8079e-06	317.46	88.847	69.94	20.556	2.2282e-06	28.857	0.00031126	0.00035477	9.6609e-05	1201.9	4.5971e-06	3.8382e-06	1262.5	251.59	3.9267e-06	3.7911e-06	314.17	88.907	69.526	20.545	3.8162e-06	28.967	-71.820	-34.985	-32.983	-122.620	18.001	-14.765	-122.315	-115.444	22.479	13.454	-115.908	-108.727	-108.591	-101.844	27.759	-102.174	-8191	255	
#DATA ENDS
