BOXY.EXE: ISS Imagent and Oximeter Data Acquisition Program Version 0.80
Ascii Record File

#ACQ INFORMATION
2  Detector Channels 
16  External MUX Channels 
1  Auxiliary Channels 
5000  Waveform (CCF) Frequency (Hz)
1  Waveforms Skipped 
30  Waveforms Averaged 
1  Cycles Averaged 
16  Acquisitions per Waveform 
10.0806  Updata Rate (Hz) 

#FILE INFORMATION
TRUE -- External MUX Channel results are PARSED.
FALSE -- AC DC and Phase are NOT grouped.
TRUE -- Companion Program Settings File CREATED.
FALSE -- AC data not excluded
FALSE -- DC data not excluded
FALSE -- Phase data not excluded
FALSE -- Auxillary Chn. data not excluded
Tab delimiters

#CALIBRATION STATE
TRUE -- Waveform Calibration Values APPLIED.


#AUX CALIBRATION VALUES
Val Type	aux-1	

Term	1.0000e+00	
Factor	0.0000e+00	


#WF CALIBRATION VALUES
A = Detector Channel
Val Type	A-AC1	A-AC2	A-AC3	A-AC4	A-AC5	A-AC6	A-AC7	A-AC8	A-AC9	A-AC10	A-AC11	A-AC12	A-AC13	A-AC14	A-AC15	A-AC16	A-DC1	A-DC2	A-DC3	A-DC4	A-DC5	A-DC6	A-DC7	A-DC8	A-DC9	A-DC10	A-DC11	A-DC12	A-DC13	A-DC14	A-DC15	A-DC16	A-Ph1	A-Ph2	A-Ph3	A-Ph4	A-Ph5	A-Ph6	A-Ph7	A-Ph8	A-Ph9	A-Ph10	A-Ph11	A-Ph12	A-Ph13	A-Ph14	A-Ph15	A-Ph16	

Term	0.00000e+00	0.00000e+00	0.00000e+00	0.00000e+00	0.00000e+00	0.00000e+00	0.00000e+00	0.00000e+00	0.00000e+00	0.00000e+00	0.00000e+00	0.00000e+00	0.00000e+00	0.00000e+00	0.00000e+00	0.00000e+00	0.00000e+00	0.00000e+00	0.00000e+00	0.00000e+00	0.00000e+00	0.00000e+00	0.00000e+00	0.00000e+00	0.00000e+00	0.00000e+00	0.00000e+00	0.00000e+00	0.00000e+00	0.00000e+00	0.00000e+00	0.00000e+00	0.00000e+00	0.00000e+00	0.00000e+00	0.00000e+00	0.00000e+00	0.00000e+00	0.00000e+00	0.00000e+00	0.00000e+00	0.00000e+00	0.00000e+00	0.00000e+00	0.00000e+00	0.00000e+00	0.00000e+00	0.00000e+00	
Factor	1.00000e+00	1.00000e+00	1.00000e+00	1.00000e+00	1.00000e+00	1.00000e+00	1.00000e+00	1.00000e+00	1.00000e+00	1.00000e+00	1.00000e+00	1.00000e+00	1.00000e+00	1.00000e+00	1.00000e+00	1.00000e+00	1.00000e+00	1.00000e+00	1.00000e+00	1.00000e+00	1.00000e+00	1.00000e+00	1.00000e+00	1.00000e+00	1.00000e+00	1.00000e+00	1.00000e+00	1.00000e+00	1.00000e+00	1.00000e+00	1.00000e+00	1.00000e+00	X	X	X	X	X	X	X	X	X	X	X	X	X	X	X	X	

B = Detector Channel
Val Type	B-AC1	B-AC2	B-AC3	B-AC4	B-AC5	B-AC6	B-AC7	B-AC8	B-AC9	B-AC10	B-AC11	B-AC12	B-AC13	B-AC14	B-AC15	B-AC16	B-DC1	B-DC2	B-DC3	B-DC4	B-DC5	B-DC6	B-DC7	B-DC8	B-DC9	B-DC10	B-DC11	B-DC12	B-DC13	B-DC14	B-DC15	B-DC16	B-Ph1	B-Ph2	B-Ph3	B-Ph4	B-Ph5	B-Ph6	B-Ph7	B-Ph8	B-Ph9	B-Ph10	B-Ph11	B-Ph12	B-Ph13	B-Ph14	B-Ph15	B-Ph16	

Term	0.00000e+00	0.00000e+00	0.00000e+00	0.00000e+00	0.00000e+00	0.00000e+00	0.00000e+00	0.00000e+00	0.00000e+00	0.00000e+00	0.00000e+00	0.00000e+00	0.00000e+00	0.00000e+00	0.00000e+00	0.00000e+00	0.00000e+00	0.00000e+00	0.00000e+00	0.00000e+00	0.00000e+00	0.00000e+00	0.00000e+00	0.00000e+00	0.00000e+00	0.00000e+00	0.00000e+00	0.00000e+00	0.00000e+00	0.00000e+00	0.00000e+00	0.00000e+00	-1.66874e+02	-1.31149e+02	-1.23274e+02	-1.81197e+02	-8.08868e+01	-6.69930e+01	-1.55623e+02	-1.62015e+02	-8.55906e+01	-6.15622e+01	-1.70159e+02	-1.69445e+02	-1.78137e+02	-1.75061e+02	-7.32031e+01	-1.48439e+02	
Factor	2.75494e-05	1.84498e-04	5.05242e-05	1.55230e-01	1.47176e-06	1.96328e-06	1.79019e-01	6.63743e-02	1.70374e-06	1.96810e-06	1.39122e-01	2.85069e-02	2.34487e-02	9.27554e-03	1.78204e-06	1.36717e-02	1.70489e-05	3.44555e-05	9.70341e-06	7.75244e-02	3.20128e-07	3.90521e-07	8.40011e-02	3.32531e-02	3.36799e-07	3.92224e-07	6.72449e-02	1.38968e-02	1.19525e-02	4.70239e-03	3.47354e-07	6.70891e-03	X	X	X	X	X	X	X	X	X	X	X	X	X	X	X	X	



#DISTANCE SETTINGS
A = Detector Channel
A-1	A-2	A-3	A-4	A-5	A-6	A-7	A-8	A-9	A-10	A-11	A-12	A-13	A-14	A-15	A-16	

2.5000e+00	3.0000e+00	2.5000e+00	3.0000e+00	2.0000e+00	3.0000e+00	1.5000e+00	3.0000e+00	3.0000e+00	3.0000e+00	3.0000e+00	3.0000e+00	3.0000e+00	3.0000e+00	1.5000e+00	3.0000e+00	

B = Detector Channel
B-1	B-2	B-3	B-4	B-5	B-6	B-7	B-8	B-9	B-10	B-11	B-12	B-13	B-14	B-15	B-16	

1.0000e+01	1.0000e+01	1.0000e+01	1.4400e+00	1.0000e+01	1.0000e+01	1.5100e+00	1.9400e+00	1.0000e+01	1.0000e+01	1.9900e+00	2.4900e+00	2.4100e+00	2.9000e+00	1.0000e+01	2.9800e+00	




#DATA BEGINS
time	group	step	mark	flag	A-AC1	A-AC2	A-AC3	A-AC4	A-AC5	A-AC6	A-AC7	A-AC8	A-AC9	A-AC10	A-AC11	A-AC12	A-AC13	A-AC14	A-AC15	A-AC16	A-DC1	A-DC2	A-DC3	A-DC4	A-DC5	A-DC6	A-DC7	A-DC8	A-DC9	A-DC10	A-DC11	A-DC12	A-DC13	A-DC14	A-DC15	A-DC16	A-Ph1	A-Ph2	A-Ph3	A-Ph4	A-Ph5	A-Ph6	A-Ph7	A-Ph8	A-Ph9	A-Ph10	A-Ph11	A-Ph12	A-Ph13	A-Ph14	A-Ph15	A-Ph16	B-AC1	B-AC2	B-AC3	B-AC4	B-AC5	B-AC6	B-AC7	B-AC8	B-AC9	B-AC10	B-AC11	B-AC12	B-AC13	B-AC14	B-AC15	B-AC16	B-DC1	B-DC2	B-DC3	B-DC4	B-DC5	B-DC6	B-DC7	B-DC8	B-DC9	B-DC10	B-DC11	B-DC12	B-DC13	B-DC14	B-DC15	B-DC16	B-Ph1	B-Ph2	B-Ph3	B-Ph4	B-Ph5	B-Ph6	B-Ph7	B-Ph8	B-Ph9	B-Ph10	B-Ph11	B-Ph12	B-Ph13	B-Ph14	B-Ph15	B-Ph16	aux-1	digaux	

603.000	1	1	0	256	0.050055	0.11887	0.13066	0.35579	0.074266	0.28087	0.39266	0.1475	0.12505	0.067337	0.2473	0.047251	0.20136	0.31835	0.18073	0.13477	-2.5875	-3.3458	-3.2542	-3.175	-3.2333	-3.1208	-3.3146	-3.3438	-2.95	-3.2854	-3.3292	-3.0479	-3.4646	-3.1625	-2.9938	-3.5021	-66.961	195.568	181.543	-155.398	-67.574	164.750	146.635	97.288	-25.042	175.799	119.898	167.571	11.325	126.119	182.612	-86.982	0.00067137	0.00045349	0.00013356	1383.2	2.6752e-06	6.3623e-06	1380.7	374.88	7.2227e-06	3.9812e-06	428.24	140.23	123.23	41.333	6.0255e-06	50.969	0.00086047	0.0010441	0.00029349	1400.7	1.0817e-05	1.1559e-05	1404.9	381.64	1.1231e-05	1.1964e-05	436.87	143.23	126.38	42.521	1.0932e-05	52.777	162.682	-93.585	-62.016	-150.246	-12.559	-20.662	-150.663	-145.994	-69.576	-15.856	-146.011	-142.325	-141.914	-136.714	-58.942	-137.445	-8191	255	
603.121	1	1	0	0	0.011485	0.090083	0.10289	0.18227	0.14562	0.23528	0.24858	0.19524	0.16469	0.063009	0.11224	0.19346	0.10277	0.060232	0.27632	0.18599	-2.6	-3.2083	-3.35	-3.2083	-3.2604	-3.1437	-3.2062	-3.4583	-3.1354	-3.05	-3.4208	-2.9646	-3.2854	-3.3396	-2.9771	-3.5	-99.610	-131.912	-31.102	-41.593	-7.274	23.590	133.929	58.364	56.661	126.791	77.785	158.411	-141.095	151.009	101.949	118.996	0.00068782	0.00054286	0.00015187	1379.8	4.5127e-06	5.3596e-06	1374	374.13	6.0438e-06	6.5974e-06	426.01	139	123.54	41.289	5.0718e-06	51.066	0.00084978	0.0010347	0.00027952	1398.5	1.0316e-05	1.1219e-05	1401.7	380.99	1.0347e-05	1.1303e-05	434.9	142.67	126.14	42.336	1.056e-05	52.629	160.540	-84.672	-74.442	-150.343	-55.748	-10.633	-150.588	-145.976	-55.156	-12.899	-146.111	-142.263	-142.018	-136.566	-47.021	-137.650	-8191	255	
603.217	1	1	0	0	0.17915	0.12237	0.23661	0.22356	0.14068	0.2959	0.17025	0.12028	0.13667	0.22687	0.15487	0.10029	0.30723	0.2075	0.24443	0.15623	-2.65	-2.9375	-3.2479	-3.0833	-3.3	-3.3292	-3.1542	-3.6063	-3.125	-3.0563	-3.5396	-3.1854	-3.2896	-3.3688	-3.0312	-3.4021	85.066	42.194	-140.745	195.467	-84.648	-99.032	32.106	28.739	-152.901	187.956	-156.736	32.021	157.048	-146.788	164.326	-101.597	0.00065131	0.00064673	9.3762e-05	1369.6	4.0743e-06	3.0634e-06	1371.7	371.44	5.2021e-06	4.2868e-06	425.27	138.78	123.21	41.13	5.5109e-06	50.672	0.00079039	0.00095722	0.00026023	1391.9	9.6752e-06	1.0303e-05	1396	379.01	9.9622e-06	1.0528e-05	433.01	142.04	125.6	42.198	1.0222e-05	52.373	162.289	-84.168	-74.835	-150.314	-49.968	-14.186	-150.677	-146.185	-59.602	5.239	-146.607	-142.335	-142.062	-136.664	-43.281	-137.666	-8191	255	
603.311	1	1	0	0	0.33229	0.089472	0.10659	0.15916	0.19401	0.1891	0.27968	0.049697	0.2602	0.18957	0.27507	0.17008	0.17291	0.030481	0.21214	0.2904	-2.5167	-2.9437	-3.5521	-3.0854	-3.2708	-3.3604	-3.0187	-3.3	-2.9729	-3.1021	-3.5438	-3.0687	-3.2875	-3.3417	-2.7729	-3.3521	-21.295	-149.151	61.915	190.982	-159.981	167.315	147.897	170.583	133.823	-70.496	173.335	145.370	131.720	180.228	96.176	134.884	0.0006488	0.00042249	0.0001325	1370.1	3.7356e-06	6.068e-06	1360.1	370.69	6.1311e-06	6.0348e-06	421.33	137.87	121.9	40.966	5.246e-06	50.763	0.00076116	0.00094078	0.00025625	1385.7	9.2324e-06	9.8525e-06	1386.9	377.37	9.7609e-06	1.0548e-05	431.39	141.52	124.86	42.017	1.007e-05	52.365	161.266	-60.503	-79.956	-150.275	-47.350	-18.997	-150.753	-145.955	-64.048	-22.170	-146.054	-142.211	-141.847	-136.573	-49.341	-137.748	-8191	255	
603.385	1	1	0	0	0.025339	0.10291	0.21561	0.076615	0.051983	0.15127	0.011512	0.050897	0.23884	0.28639	0.27429	0.1479	0.12828	0.18241	0.28897	0.30154	-2.7938	-2.8354	-3.375	-3.2271	-3.025	-3.4062	-3.1771	-3.5292	-3.1292	-3.0687	-3.5396	-3.0167	-3.1292	-3.4771	-2.9375	-3.225	-91.912	103.945	-159.156	-103.966	-66.628	-156.371	4.746	-74.150	6.713	23.682	-134.172	175.174	-59.013	167.138	-87.981	125.178	0.00062615	0.00056672	0.00016132	1364.1	4.1068e-06	4.1635e-06	1359.2	368.46	6.937e-06	6.6526e-06	424.29	138.4	122	40.968	3.868e-06	50.582	0.00076411	0.00095578	0.0002567	1383.8	9.5732e-06	1.0298e-05	1388.2	376.82	1.004e-05	1.0748e-05	431.43	141.73	125.15	42.1	9.752e-06	52.309	161.296	-89.453	-65.367	-150.394	-57.568	-16.682	-150.681	-145.988	-60.104	9.966	-146.198	-142.196	-141.983	-136.581	-15.833	-137.482	-8191	255	
603.504	1	1	0	0	0.055404	0.074177	0.17073	0.19911	0.048638	0.1379	0.32778	0.041257	0.1806	0.17731	0.099737	0.25743	0.19841	0.14533	0.04006	0.25566	-2.8729	-2.8604	-3.4313	-3.2458	-3.25	-3.5396	-3.1458	-3.3833	-3.3146	-2.7	-3.2979	-3.3167	-3.0708	-3.5687	-2.9333	-3.3417	-46.665	95.020	73.014	104.503	-141.117	-111.102	183.533	-79.204	14.793	-148.342	-134.400	119.138	148.484	-90.854	-76.543	187.862	0.00068685	0.00058569	0.00014579	1367.1	4.2089e-06	3.3322e-06	1362.6	370.89	7.8562e-06	3.9215e-06	420.73	138.21	121.94	40.874	5.2846e-06	50.44	0.00077107	0.00093238	0.00025613	1386.2	9.1863e-06	9.8354e-06	1388.6	376.69	9.5988e-06	9.6822e-06	430.28	141.41	124.64	41.992	8.8749e-06	52.225	161.478	-83.162	-85.332	-150.014	-69.085	-2.566	-150.624	-146.027	-60.030	-19.487	-146.370	-142.400	-141.948	-136.678	-30.875	-137.543	-8191	255	
603.600	1	1	0	0	0.11682	0.07406	0.10081	0.17733	0.06825	0.10202	0.15989	0.29379	0.27335	0.064792	0.26027	0.039911	0.017216	0.19729	0.17985	0.084554	-2.7438	-2.8875	-3.3604	-3.1417	-2.9125	-3.4354	-3.2896	-3.2188	-3.2333	-2.8875	-3.3396	-3.4521	-2.9938	-3.4396	-3.0542	-3.3229	163.826	-105.490	194.225	130.840	14.733	119.617	85.698	126.933	178.678	128.819	147.468	180.013	-11.699	-140.142	-139.843	104.489	0.00067384	0.00040738	0.00019011	1357.7	3.606e-06	7.1739e-06	1359	369.01	5.657e-06	6.3789e-06	419.92	137.77	121.48	40.818	5.5241e-06	50.478	0.00072532	0.00081774	0.00023094	1378.4	8.7515e-06	9.1919e-06	1379.5	375.46	8.3842e-06	8.9852e-06	429.53	141.28	124.4	41.92	8.7852e-06	52.136	160.908	-62.066	-68.368	-150.242	-61.332	-14.988	-150.593	-145.958	-69.067	1.555	-146.188	-142.115	-141.927	-136.696	-49.112	-137.447	-8191	255	
603.696	1	1	0	0	0.25196	0.15376	0.080044	0.31281	0.09875	0.14884	0.20039	0.14885	0.070265	0.063235	0.20886	0.21484	0.30426	0.12027	0.12101	0.29133	-2.9021	-2.8625	-3.25	-3.2271	-2.9333	-3.3771	-3.3521	-3.1708	-3.5208	-2.9437	-3.4396	-3.3583	-3.0375	-3.4979	-3.1813	-3.1667	-49.442	118.617	-72.161	163.007	144.614	43.182	66.681	143.506	8.305	69.642	-143.505	189.373	-153.672	130.485	189.171	-121.934	0.00065395	0.00040673	0.00010112	1351.7	3.6068e-06	4.2676e-06	1357.5	369.9	5.0528e-06	4.6742e-06	423.12	138.18	121.75	40.876	3.8512e-06	50.377	0.00071364	0.00081092	0.00023428	1375.1	8.7402e-06	9.0471e-06	1381.4	375.37	8.7785e-06	9.3938e-06	430.43	141.16	124.74	41.868	8.9241e-06	52.084	159.574	-88.308	-51.666	-150.219	-49.801	-15.188	-150.590	-146.018	-64.917	-7.135	-146.045	-142.333	-141.818	-136.870	-29.150	-137.396	-8191	255	
603.792	1	1	0	0	0.10461	0.12167	0.30701	0.17933	0.13835	0.17278	0.15045	0.092025	0.25191	0.1278	0.24317	0.15073	0.042631	0.084984	0.082293	0.10782	-3.0021	-2.9958	-3.2854	-3.3771	-2.9979	-3.4667	-3.3667	-3.1292	-3.5792	-3.0458	-3.4479	-3.2958	-3.0792	-3.4521	-3.3146	-2.8667	-158.113	195.885	-32.183	153.445	-8.687	7.836	137.078	-55.820	-116.195	-136.383	109.136	138.954	142.893	75.228	-128.906	107.530	0.00064997	0.00045799	0.00010588	1356.9	2.8318e-06	5.952e-06	1350	368.5	6.3385e-06	4.8874e-06	421.7	137.4	121.4	40.721	5.0212e-06	50.445	0.00071921	0.00084201	0.00023945	1375.7	8.5861e-06	9.1333e-06	1377.8	374.69	8.6866e-06	9.2573e-06	429.42	140.71	124.27	41.842	8.4226e-06	51.991	161.839	-59.344	-63.518	-150.268	-45.117	-9.844	-150.539	-145.978	-67.518	-13.796	-146.127	-142.310	-141.865	-136.451	-38.079	-137.462	-8191	255	
603.913	1	1	0	0	0.14662	0.13869	0.36361	0.16733	0.27731	0.23132	0.11824	0.2411	0.21747	0.14013	0.16852	0.26681	0.16068	0.17109	0.18476	0.16541	-3.0604	-2.9917	-3.15	-3.5417	-2.7771	-3.5104	-3.4333	-3.1792	-3.5021	-3.1021	-3.3438	-3.4854	-3.0917	-3.4208	-3.2562	-3.0854	83.801	162.312	122.840	-147.712	-110.814	-163.119	11.415	162.850	-41.785	-43.756	-86.872	101.892	-147.033	-53.920	183.328	79.052	0.00063076	0.00045208	0.00010011	1355.8	4.5965e-06	4.3205e-06	1359.2	368.35	4.6362e-06	4.7025e-06	419.83	137.82	121.38	40.908	5.5144e-06	50.725	0.00069328	0.00079212	0.00021544	1375.3	8.3653e-06	8.4963e-06	1377.7	374.71	8.1905e-06	8.3969e-06	428.45	140.85	124.35	41.999	7.8133e-06	52.143	160.880	-80.145	-78.467	-150.267	-60.332	-34.798	-150.914	-145.921	-60.506	-13.588	-146.127	-142.220	-141.936	-136.733	-46.086	-137.762	-8191	255	
603.984	1	1	0	0	0.14669	0.1349	0.23453	0.24103	0.18251	0.038459	0.1199	0.056282	0.20326	0.23537	0.13871	0.29143	0.13754	0.34363	0.059667	0.22809	-3.0167	-2.8833	-3.0917	-3.5583	-2.9562	-3.3604	-3.5292	-2.9792	-3.3542	-3.1104	-3.05	-3.5667	-3.2792	-3.3229	-3.3854	-3.0208	-61.393	-89.576	-5.816	191.609	128.740	169.453	130.357	76.784	31.136	-47.511	97.522	90.094	162.732	178.132	4.344	73.159	0.00066872	0.00042687	0.00014845	1359.6	2.9878e-06	5.8246e-06	1355.8	367.94	5.4723e-06	3.9097e-06	421.81	137.85	121.76	40.802	5.8833e-06	50.367	0.00066118	0.00073728	0.00019829	1377.5	7.8378e-06	8.2148e-06	1381.1	374.23	7.7148e-06	7.8747e-06	429.21	141.05	124.43	42.011	7.6555e-06	52.138	162.346	-71.028	-68.700	-150.202	-73.310	-16.621	-150.734	-145.967	-60.721	-4.398	-146.188	-142.255	-141.889	-136.522	-29.161	-137.624	-8191	255	
604.105	1	1	0	0	0.17771	0.14755	0.27846	0.088368	0.089925	0.14709	0.083761	0.22228	0.094747	0.17798	0.4308	0.1503	0.12596	0.075486	0.2247	0.19742	-2.9708	-3.1417	-2.9396	-3.65	-2.9958	-3.0938	-3.3771	-2.9313	-3.2292	-3.0312	-3.0542	-3.4167	-3.2604	-3.1562	-3.3063	-3.0229	-122.761	177.229	-87.164	-149.553	-82.361	-72.329	-45.321	127.938	192.017	-18.253	167.079	164.213	-52.583	-141.356	70.072	67.224	0.00064017	0.00049419	0.00015668	1354.6	4.6745e-06	4.5895e-06	1355.1	366.37	5.1503e-06	3.0068e-06	418.42	137.21	121.63	40.789	4.5037e-06	50.585	0.00066047	0.00070993	0.00020019	1374.1	7.6757e-06	7.5908e-06	1380.5	374	7.7948e-06	7.7481e-06	428.86	140.7	124.38	41.979	7.5781e-06	52.031	161.793	-86.711	-70.160	-150.285	-26.525	-21.633	-150.647	-145.943	-60.614	-16.970	-146.246	-142.339	-141.872	-136.506	-21.891	-137.477	-8191	255	
604.201	1	1	0	0	0.083783	0.04556	0.28193	0.32506	0.058526	0.049412	0.26874	0.17032	0.11892	0.067635	0.1765	0.24955	0.25429	0.026722	0.15102	0.038393	-2.9292	-3.2958	-3.1958	-3.525	-3.0979	-3.1833	-3.4208	-2.9375	-3.2167	-3.3521	-2.9625	-3.5958	-3.0854	-3.1417	-3.3563	-3.0896	-92.505	-20.750	32.164	111.727	-19.293	-104.957	145.705	129.700	-83.100	-99.178	-148.307	148.215	132.710	-98.222	87.040	-115.546	0.00063911	0.00039712	0.00014892	1353.9	2.6634e-06	4.3804e-06	1355.2	367.8	6.2711e-06	4.1494e-06	419.38	137.14	122.01	40.928	5.1003e-06	50.434	0.00064519	0.00068674	0.00019845	1372.4	7.3783e-06	7.76e-06	1378.6	374.32	7.5696e-06	7.6002e-06	428.18	140.54	124.29	41.879	7.3777e-06	52.05	159.841	-71.342	-85.346	-150.183	-47.451	-26.882	-150.670	-145.961	-68.565	-2.919	-146.141	-142.432	-141.765	-136.675	-50.688	-137.310	-8191	255	
604.297	1	1	0	0	0.2543	0.14783	0.05507	0.40231	0.1004	0.08544	0.28195	0.13513	0.020298	0.10965	0.14548	0.37608	0.28779	0.22895	0.21497	0.090817	-2.7896	-3.2479	-2.8771	-3.5667	-3.2	-3.0521	-3.6625	-3.0958	-3.1417	-3.375	-2.8896	-3.3854	-3.3438	-3.125	-3.3979	-3.0771	-17.096	181.223	18.843	177.129	168.812	91.010	179.797	83.970	-79.200	-147.542	172.745	111.635	87.946	146.474	-68.025	2.800	0.00068556	0.00037063	7.8566e-05	1356.1	2.5801e-06	5.9701e-06	1354.9	366.91	5.6227e-06	6.0595e-06	418.25	136.83	121.26	40.707	4.1393e-06	50.183	0.00065485	0.0006978	0.00019203	1370.4	7.2069e-06	7.8535e-06	1375.1	373.4	7.5338e-06	7.4956e-06	426.72	140.32	123.94	41.864	7.3646e-06	51.935	158.645	-76.138	-57.346	-150.256	-58.741	-22.228	-150.779	-146.004	-69.532	-1.116	-146.180	-142.232	-141.842	-136.568	-36.474	-137.694	-8191	255	
604.393	1	1	0	0	0.15835	0.2469	0.084075	0.4283	0.17008	0.1844	0.24008	0.06526	0.091727	0.076394	0.12769	0.088474	0.064999	0.13781	0.11596	0.16556	-2.6708	-3.0917	-2.9583	-3.5062	-3.2646	-3.0438	-3.5042	-3.1813	-3.1604	-3.3063	-2.7625	-3.4062	-3.1437	-3.0604	-3.4125	-3.1396	0.202	60.828	87.300	184.347	-150.002	76.313	76.106	-95.451	83.924	122.759	-88.120	-148.479	142.816	170.442	40.103	126.944	0.00065909	0.00033498	0.00012557	1348.7	4.023e-06	4.3579e-06	1354.7	366.3	5.5594e-06	5.2079e-06	417.39	137.35	121.01	40.756	3.8679e-06	50.172	0.00064825	0.00070605	0.00019461	1368.5	7.4476e-06	7.5696e-06	1375.3	372.85	7.651e-06	7.6533e-06	426.76	140.35	123.81	41.856	7.403e-06	51.905	161.924	-72.686	-57.323	-150.196	-49.172	-20.363	-150.472	-146.083	-76.361	-10.267	-146.133	-142.259	-141.844	-136.600	-39.175	-137.503	-8191	255	
604.512	1	1	0	0	0.10527	0.17707	0.18578	0.41109	0.19771	0.28018	0.16672	0.31537	0.26801	0.14363	0.18961	0.14943	0.18044	0.14001	0.34469	0.086291	-2.6667	-3.4292	-2.8312	-3.3375	-3.2583	-2.7354	-3.5687	-3.3146	-3.1437	-3.4437	-3.0896	-3.2354	-3.4437	-2.8667	-3.4062	-3.2854	147.436	169.385	112.196	156.074	-72.996	-95.671	85.503	120.892	28.303	-47.464	155.314	-140.913	159.160	172.899	194.419	71.214	0.0006679	0.00043282	0.00016015	1355.3	3.1209e-06	4.2499e-06	1350	367.4	4.9531e-06	4.8432e-06	418.77	137.25	120.91	40.683	6.2089e-06	50.411	0.00067006	0.00070706	0.00019943	1370.5	7.2449e-06	7.8926e-06	1373.1	373.2	7.8551e-06	8.1354e-06	427.57	140.35	123.87	41.839	7.665e-06	51.937	160.590	-93.960	-75.274	-150.155	-61.909	-17.822	-150.575	-145.922	-59.155	-8.692	-146.049	-142.283	-142.190	-136.659	-22.748	-137.576	-8191	255	
604.608	1	1	0	0	0.10817	0.055178	0.23298	0.25628	0.076956	0.14176	0.31484	0.16739	0.10136	0.11009	0.074801	0.063008	0.14467	0.24031	0.18964	0.16544	-2.4167	-3.3979	-2.8083	-3.4188	-3.3896	-3.0563	-3.3625	-3.275	-2.8396	-3.5625	-3.2396	-3.3167	-3.5292	-2.9583	-3.2875	-3.2188	-53.002	188.715	-137.034	190.363	4.197	-5.320	117.246	178.753	-45.443	-46.821	-88.016	108.715	189.635	125.908	145.001	195.630	0.00066673	0.00052639	0.00011435	1354.8	3.8972e-06	5.4935e-06	1358.1	366.89	4.7206e-06	5.4557e-06	418.58	137.38	121.47	40.785	4.5279e-06	50.394	0.00067013	0.00071531	0.00019938	1370.3	7.523e-06	7.8552e-06	1377.9	373.56	7.8579e-06	7.762e-06	427.91	140.7	124.17	41.919	7.6461e-06	52.015	162.465	-75.052	-73.837	-150.231	-69.321	-27.819	-150.735	-145.959	-74.166	-20.000	-146.156	-142.349	-141.859	-136.536	-32.297	-137.404	-8191	255	
604.680	1	1	0	0	0.39122	0.076606	0.14271	0.11952	0.10834	0.1527	0.21853	0.13113	0.1287	0.12872	0.12297	0.11772	0.1841	0.11464	0.11978	0.11693	-2.5479	-3.5187	-3.0146	-3.2125	-3.4667	-3.1708	-3.3875	-3.1833	-2.9208	-3.3333	-3.1896	-3.1479	-3.5021	-3.0667	-3.1229	-3.2896	-16.143	13.376	175.443	173.515	76.151	-38.620	128.033	127.381	45.988	31.335	29.813	155.111	-104.348	-42.434	-26.921	66.149	0.00067404	0.00045602	0.00012456	1352.8	3.4024e-06	4.2255e-06	1354.8	368.38	5.7703e-06	5.0212e-06	418.21	137.9	121.74	40.812	3.1541e-06	50.459	0.00069165	0.00072615	0.00019989	1374.1	7.1829e-06	7.7722e-06	1380	374.19	8.039e-06	8.1109e-06	427.71	140.72	124.39	41.947	7.6071e-06	52.044	158.937	-77.846	-74.793	-150.148	-56.188	-15.086	-150.572	-146.040	-67.680	-1.427	-146.187	-142.176	-141.993	-136.580	-20.774	-137.391	-8191	255	
604.801	1	1	0	0	0.17416	0.042318	0.096808	0.14932	0.14897	0.094924	0.038886	0.25065	0.16965	0.11938	0.21278	0.20101	0.27219	0.18319	0.060164	0.097541	-2.4813	-3.2854	-3.0563	-3.2667	-3.4542	-2.9	-3.4333	-3.4875	-2.9083	-3.3812	-3.2021	-2.9896	-3.6167	-3.1813	-3.25	-3.4479	123.725	-150.471	15.906	35.494	-4.697	25.414	149.335	108.513	-142.376	80.179	161.435	119.165	183.593	-84.535	66.338	115.956	0.00064909	0.00065989	0.00015712	1358.4	3.1232e-06	5.5519e-06	1352.9	366.72	4.8094e-06	4.7274e-06	420.64	137.23	121.47	41.035	4.2829e-06	50.393	0.00067247	0.00071682	0.0001991	1375.1	7.455e-06	8.2229e-06	1379.3	373.73	7.9562e-06	7.9066e-06	428.61	140.54	124.37	42.039	7.7496e-06	51.946	161.716	-65.151	-72.646	-150.067	-47.972	-21.137	-150.661	-146.075	-56.020	-26.830	-146.142	-142.282	-141.943	-136.646	-41.056	-137.421	-8191	255	
604.897	1	1	0	0	0.13207	0.11612	0.14507	0.2761	0.078475	0.060851	0.29864	0.38536	0.074064	0.25201	0.15208	0.14692	0.15079	0.05731	0.03191	0.05835	-2.5292	-3.3083	-3.3167	-3.0875	-3.3979	-3.0396	-3.2417	-3.3667	-2.9958	-3.4125	-3.4125	-3.1021	-3.5646	-3.1604	-3.0875	-3.4313	-139.909	-3.612	-128.798	141.322	105.684	-55.924	147.645	108.946	124.293	-12.937	128.683	-13.058	86.552	-100.664	110.893	152.888	0.00066532	0.00058371	0.00012864	1354.2	3.4089e-06	6.5719e-06	1355.5	367.47	6.5394e-06	3.4192e-06	418.16	136.99	121.08	40.79	3.7712e-06	50.546	0.0006719	0.00072601	0.00020664	1375	7.3189e-06	8.0106e-06	1379.5	374.03	7.8243e-06	7.69e-06	428.34	140.7	124.05	41.9	7.7684e-06	52.102	160.972	-59.475	-84.656	-150.297	-36.594	-4.350	-150.678	-145.969	-55.960	2.360	-146.219	-142.377	-141.793	-136.376	-30.655	-137.348	-8191	255	
604.993	1	1	0	0	0.20607	0.16426	0.12119	0.31195	0.018339	0.17707	0.053177	0.23788	0.26044	0.12083	0.25269	0.13948	0.10852	0.053602	0.22319	0.1855	-2.4583	-3.2438	-3.2333	-3.1896	-3.5146	-3.0604	-3.1	-3.6042	-3.0083	-3.2271	-3.3917	-2.9896	-3.5438	-3.3479	-2.9792	-3.4104	53.131	-158.660	-63.565	104.162	-100.291	14.969	15.285	124.191	187.537	130.242	123.698	-134.933	189.348	152.125	-97.004	107.747	0.00066281	0.00047898	0.0001567	1358.6	4.7981e-06	5.0592e-06	1357.9	367.14	5.674e-06	2.5994e-06	419.12	137.48	121.49	40.746	4.9402e-06	50.331	0.00067506	0.00070239	0.0002041	1375	7.591e-06	8.1082e-06	1379	373.59	7.9737e-06	7.8216e-06	427.63	140.45	124.03	41.953	7.7844e-06	51.95	163.115	-66.134	-59.705	-150.168	-49.888	-19.318	-150.647	-146.105	-50.838	-2.438	-146.161	-142.302	-141.984	-136.505	-27.145	-137.565	-8191	255	
605.089	1	1	0	0	0.10378	0.20395	0.13691	0.14111	0.067044	0.28561	0.057914	0.19291	0.19824	0.11327	0.19199	0.19535	0.22891	0.071533	0.1871	0.16838	-2.4833	-3.0646	-3.1833	-3.2333	-3.2708	-3.1188	-3.1792	-3.525	-3.15	-3.0938	-3.4333	-3.0354	-3.4396	-3.2687	-2.9813	-3.4688	70.657	-52.021	54.882	115.257	188.982	-146.302	-100.702	98.852	-8.050	-61.258	107.236	158.961	145.226	-158.041	-98.551	-140.606	0.00065127	0.0005423	0.00014238	1355.1	4.1996e-06	4.6014e-06	1356.4	366.07	5.1041e-06	3.8865e-06	420.35	136.65	121.35	40.757	4.0957e-06	50.416	0.00067304	0.00072486	0.00020648	1374.5	7.497e-06	8.3401e-06	1380.1	374.04	8.0046e-06	8.1378e-06	428.72	140.43	124.14	42.018	7.9776e-06	51.923	161.268	-69.358	-64.554	-150.167	-36.660	-11.624	-150.641	-145.962	-75.818	-2.790	-146.164	-142.171	-141.901	-136.411	-33.951	-137.338	-8191	255	
605.208	1	1	0	0	0.044901	0.28457	0.16093	0.26413	0.11555	0.30704	0.021421	0.15729	0.18253	0.18709	0.011314	0.12302	0.43692	0.48463	0.069604	0.33235	-2.5208	-3.0979	-3.4562	-2.9833	-3.2333	-3.2125	-3.1896	-3.5396	-3.1333	-2.9792	-3.3979	-2.8167	-3.4167	-3.2646	-3.0708	-3.3812	61.238	-85.499	12.721	107.444	-28.610	-42.508	51.376	-101.220	-40.195	13.339	18.559	15.292	116.351	118.153	17.815	133.733	0.0006877	0.00040607	0.00011402	1359.2	3.3486e-06	5.1573e-06	1360.7	368.69	6.2396e-06	5.0377e-06	420.71	137.28	121.55	40.909	5.5082e-06	50.453	0.00068227	0.00073627	0.00020775	1375.8	7.9058e-06	8.1912e-06	1383.5	374.04	8.1954e-06	8.7556e-06	428.12	140.8	124.24	41.962	8.2909e-06	52.078	160.237	-89.968	-76.534	-150.302	-31.219	-14.490	-150.709	-146.068	-60.311	-11.038	-146.145	-142.135	-141.781	-136.729	-25.011	-137.816	-8191	255	
605.281	1	1	0	0	0.23917	0.1114	0.049204	0.22036	0.21172	0.1748	0.23175	0.10773	0.1318	0.26974	0.15495	0.27684	0.3483	0.32951	0.079545	0.20308	-2.6833	-2.9354	-3.3438	-3.15	-3.2687	-3.2729	-3.0333	-3.5	-3.125	-2.8979	-3.3542	-3.0375	-3.3979	-3.3479	-2.8771	-3.3937	100.663	165.640	70.080	-115.758	-125.195	-38.793	157.358	-51.490	174.240	20.086	164.513	132.910	174.953	165.582	-112.900	25.590	0.00066156	0.00055707	0.000132	1366.3	3.9581e-06	5.5343e-06	1363.4	368.48	5.2453e-06	4.3263e-06	422.63	138.05	122	40.87	3.5601e-06	50.734	0.00070106	0.00075242	0.00021711	1382.1	7.9865e-06	8.4068e-06	1386.7	375.07	8.2516e-06	8.9157e-06	429.58	141.16	124.49	42.046	8.2555e-06	52.169	161.627	-77.830	-59.836	-150.376	-53.083	-14.626	-150.965	-146.165	-61.969	-11.758	-146.178	-142.423	-141.911	-136.793	-41.468	-137.596	-8191	255	
605.378	1	1	0	0	0.11419	0.14295	0.16	0.41102	0.17064	0.042933	0.14274	0.32412	0.099079	0.218	0.098967	0.19552	0.22619	0.17488	0.092871	0.069896	-2.6542	-2.9	-3.4708	-3.2333	-3.0563	-3.3375	-3.0646	-3.4313	-3.1521	-2.9917	-3.5917	-3.2042	-3.325	-3.5021	-2.85	-3.3438	-135.257	74.541	-27.103	155.862	-90.012	-23.354	181.870	187.024	-51.952	157.168	177.089	-160.185	177.735	-79.094	-75.847	-61.206	0.00066459	0.00033009	0.00014999	1361.8	3.4191e-06	6.0175e-06	1366.7	369.14	5.4453e-06	4.5428e-06	421.27	137.97	121.74	41.12	5.0878e-06	50.371	0.00068504	0.00075781	0.00020682	1380.6	7.9405e-06	8.1969e-06	1387.2	375.33	8.1533e-06	8.4565e-06	429.36	140.93	124.54	42.107	8.1389e-06	52.052	161.850	-98.928	-66.598	-150.296	-55.350	-12.209	-150.720	-146.020	-63.136	-21.995	-146.199	-142.217	-141.928	-136.674	-38.519	-137.531	-8191	255	
605.474	1	1	0	0	0.069581	0.12937	0.32869	0.23729	0.12254	0.164	0.11331	0.19432	0.14014	0.052859	0.041894	0.17859	0.078066	0.29089	0.12696	0.33548	-2.8	-3.0083	-3.5625	-3.2583	-3.1167	-3.4146	-3.1167	-3.3771	-3.2	-2.8542	-3.5708	-3.2021	-3.2	-3.65	-2.9771	-3.3438	-53.268	-27.912	121.386	155.216	-70.702	-82.328	-145.021	-134.666	28.160	-96.109	-62.047	-58.318	1.902	121.532	-46.344	150.936	0.00064336	0.00045273	0.00014051	1365.1	5.1355e-06	4.7558e-06	1361.6	368.47	5.988e-06	4.7097e-06	421.14	137.74	121.51	41.021	4.6899e-06	50.406	0.00069907	0.00078401	0.00021283	1383.7	8.2906e-06	8.3588e-06	1388.4	375.04	8.0446e-06	8.7213e-06	429.65	141	124.45	42.084	8.2229e-06	52.139	162.616	-81.078	-70.527	-150.248	-68.255	-34.268	-150.611	-145.914	-68.563	-7.037	-146.402	-142.406	-142.056	-136.558	-44.335	-137.659	-8191	255	
605.593	1	1	0	0	0.12894	0.22251	0.22629	0.29237	0.097701	0.1577	0.34065	0.0065542	0.25901	0.080838	0.10034	0.30437	0.12368	0.058242	0.27056	0.11868	-2.8604	-2.7938	-3.2542	-3.3312	-3.1354	-3.4146	-3.2896	-3.2875	-3.4062	-2.9417	-3.3688	-3.15	-3.0417	-3.6604	-2.9542	-3.3625	132.009	0.413	-31.949	130.624	11.572	132.306	98.764	114.410	20.591	150.785	158.870	160.693	177.236	-51.404	-39.697	190.915	0.00064797	0.000431	0.00011327	1363.5	3.8889e-06	4.6551e-06	1365.2	368.8	5.427e-06	4.4628e-06	420.67	138.25	121.41	41.288	4.1451e-06	50.663	0.00069257	0.00078386	0.00021032	1383	8.2406e-06	8.4548e-06	1389.1	375.53	8.1681e-06	8.6657e-06	429.92	141.31	124.73	42.261	8.4024e-06	52.178	162.565	-79.080	-67.690	-150.447	-50.711	-6.200	-150.747	-145.926	-56.420	-13.344	-146.064	-142.223	-141.949	-136.302	-37.129	-137.577	-8191	255	
605.689	1	1	0	0	0.17005	0.054592	0.11076	0.2256	0.20773	0.057861	0.18568	0.39616	0.073902	0.30022	0.3012	0.12251	0.22001	0.2765	0.089602	0.14459	-2.8292	-2.7042	-3.2458	-3.4125	-2.9354	-3.5187	-3.2812	-3.2229	-3.3833	-3.0021	-3.3688	-3.4542	-3.0458	-3.4	-3.1646	-3.1646	-10.719	-1.440	-17.640	174.680	-121.450	190.607	63.240	128.270	25.169	-111.114	59.476	-66.163	189.769	148.549	-135.905	155.729	0.00066842	0.00038606	0.00016099	1367.4	2.9372e-06	5.4966e-06	1366.8	370.32	4.8975e-06	4.959e-06	422.61	138.36	122.16	41.323	6.8508e-06	50.568	0.00068085	0.00077912	0.00020929	1385.2	8.1299e-06	8.4564e-06	1392.9	375.94	8.3175e-06	8.8414e-06	430.53	141.34	124.91	42.259	8.178e-06	52.141	160.418	-59.466	-64.127	-150.317	-55.997	-22.043	-150.723	-146.058	-82.353	0.293	-146.268	-142.277	-141.981	-136.732	-29.674	-137.582	-8191	255	
605.785	1	1	0	0	0.23285	0.14681	0.34764	0.41378	0.078639	0.26611	0.14195	0.36504	0.2046	0.33366	0.082771	0.22901	0.1292	0.019689	0.14855	0.072628	-3.0604	-3.0458	-3.2542	-3.4125	-2.8604	-3.4354	-3.3042	-3.2104	-3.4792	-3.0854	-3.1917	-3.5375	-2.8771	-3.5125	-3.1604	-3.2479	187.533	53.263	-82.178	134.385	96.428	98.028	149.467	61.568	152.800	119.529	124.044	-163.427	173.879	141.300	0.848	193.177	0.00065253	0.00044909	0.00014013	1363.7	4.3875e-06	4.3414e-06	1372.1	370.73	6.0327e-06	4.9239e-06	421.9	139.25	121.91	41.116	3.7683e-06	50.565	0.0006979	0.00078695	0.00020632	1385.2	8.1506e-06	8.1822e-06	1392.5	376.55	8.1407e-06	8.5252e-06	430.37	141.67	124.8	42.203	7.9436e-06	52.243	162.089	-71.164	-73.487	-150.201	-57.211	-33.964	-150.779	-146.070	-59.682	-10.217	-146.230	-142.185	-141.840	-136.728	-39.034	-137.539	-8191	255	
605.906	1	1	0	0	0.11376	0.12546	0.18494	0.32007	0.23269	0.11017	0.0046197	0.27005	0.10489	0.1566	0.085026	0.44487	0.299	0.29712	0.078226	0.16705	-2.975	-3.0292	-3.1271	-3.2208	-3.0146	-3.4354	-3.4708	-3.1104	-3.5687	-3.0542	-3.2271	-3.5687	-2.8542	-3.4813	-3.3417	-3.0917	-87.854	-121.390	97.313	152.485	176.518	36.608	61.527	171.033	7.976	51.183	96.577	173.232	153.140	-122.350	-74.480	170.334	0.00068289	0.0005661	0.00013097	1369.1	4.0325e-06	5.3914e-06	1372.5	370.03	4.9432e-06	5.1807e-06	422.3	138.43	121.94	41.094	4.464e-06	50.622	0.00069076	0.00074115	0.00021014	1385.6	7.7264e-06	8.2725e-06	1391.8	375.86	8.1779e-06	8.3879e-06	430.21	141.5	124.89	42.233	7.9074e-06	52.222	161.889	-76.395	-78.390	-150.188	-49.727	-35.123	-150.494	-146.027	-76.692	-2.028	-146.187	-142.286	-142.139	-136.413	-24.935	-137.607	-8191	255	
605.977	1	1	0	0	0.037558	0.12862	0.34297	0.11189	0.23428	0.11878	0.065958	0.034782	0.17085	0.035293	0.046909	0.10189	0.047186	0.27971	0.27131	0.24681	-3.0687	-3.0354	-3.1188	-3.4104	-2.9042	-3.3063	-3.3187	-2.9708	-3.3542	-3.1188	-3.125	-3.5417	-2.9854	-3.3833	-3.2667	-2.9271	-123.262	-37.167	76.028	76.151	14.583	164.514	174.688	19.393	-20.506	95.074	-80.139	-67.914	171.567	-108.681	164.396	192.769	0.00068024	0.00043239	0.00012103	1363.9	3.0891e-06	4.899e-06	1369	369.95	6.1992e-06	5.2043e-06	422.84	138.19	121.87	41.114	4.8553e-06	50.793	0.00068561	0.00073555	0.00020244	1383.4	7.8098e-06	7.9748e-06	1389.9	375.88	8.0193e-06	8.1411e-06	430.17	141.45	124.71	42.206	8.1353e-06	52.268	161.140	-91.340	-71.086	-150.293	-71.284	1.761	-150.833	-145.976	-66.264	-12.886	-146.039	-142.301	-142.036	-136.671	-37.867	-137.542	-8191	255	
606.073	1	1	0	0	0.11923	0.092813	0.16352	0.15704	0.16538	0.081702	0.17676	0.22725	0.23454	0.1973	0.1252	0.15194	0.090492	0.30803	0.19467	0.086855	-2.9208	-3.2833	-3.0708	-3.6833	-2.9896	-3.1542	-3.4854	-3.025	-3.2208	-3.2604	-3.1104	-3.5875	-3.1917	-3.3604	-3.2542	-3.0958	-30.105	-102.620	-127.461	125.456	97.752	60.228	134.759	184.097	60.994	-121.638	164.339	140.147	142.263	158.959	-158.998	13.289	0.00066651	0.00048687	0.00014326	1370	3.9886e-06	5.5235e-06	1365.9	369.48	4.613e-06	5.0666e-06	421.5	139.05	122.21	41.15	3.5974e-06	50.794	0.00068455	0.00077819	0.00021036	1385.8	7.7144e-06	8.0903e-06	1390.3	376.19	7.9625e-06	8.2751e-06	429.18	141.66	124.84	42.203	7.9501e-06	52.245	164.605	-77.956	-71.085	-150.295	-36.645	-23.386	-150.613	-145.870	-50.548	-6.629	-146.185	-142.166	-141.855	-136.826	-30.511	-137.571	-8191	255	
606.194	1	1	0	0	0.20591	0.13784	0.17668	0.19928	0.31213	0.04009	0.23192	0.24305	0.15494	0.078431	0.20841	0.071877	0.19883	0.12472	0.21469	0.34276	-2.8396	-3.0729	-2.8688	-3.5479	-2.9958	-3.0875	-3.5521	-2.9396	-3.3771	-3.1771	-3.0771	-3.3792	-3.0646	-3.1083	-3.5062	-3.0354	122.089	-22.496	67.536	-158.190	67.156	-109.005	139.862	167.846	18.216	-103.952	-161.737	134.276	142.818	141.965	-156.273	146.111	0.00064343	0.00047988	0.00017967	1362.1	4.6335e-06	3.905e-06	1367.4	367.51	5.7353e-06	4.3591e-06	420.36	138	122	41.001	4.2648e-06	50.622	0.00067776	0.0007647	0.00020917	1385	8.0539e-06	8.5256e-06	1390.8	375.76	8.0235e-06	8.5006e-06	428.35	141.4	124.75	42.143	8.1295e-06	52.193	162.501	-78.463	-70.456	-150.350	-41.822	-7.351	-150.797	-146.144	-65.515	-11.310	-146.218	-142.170	-141.860	-136.699	-32.044	-137.440	-8191	255	
606.290	1	1	0	0	0.037927	0.16587	0.10031	0.22619	0.062322	0.16908	0.19857	0.049379	0.068315	0.055006	0.16246	0.18107	0.080114	0.051277	0.012446	0.1247	-2.9333	-3.1542	-2.8563	-3.5375	-3.1729	-2.9854	-3.5625	-3.1604	-3.3542	-3.1562	-3.0208	-3.4167	-3.1417	-3.0667	-3.4062	-3.1458	148.004	-36.851	-104.884	164.865	-7.712	115.613	146.629	166.117	-144.806	-114.015	-5.752	163.726	183.623	151.503	-140.015	190.888	0.00062386	0.00057174	0.00011843	1363.8	4.6656e-06	4.342e-06	1363	368.61	6.5093e-06	5.2728e-06	422.37	138.27	121.54	41.068	5.239e-06	50.625	0.00068107	0.00075479	0.0002154	1382.2	8.2153e-06	8.5435e-06	1387.9	374.71	8.4382e-06	8.4769e-06	430.07	141.17	124.41	42.204	8.2533e-06	52.165	159.917	-69.993	-74.502	-150.339	-48.996	-11.534	-150.575	-145.811	-69.174	4.195	-146.145	-142.459	-142.072	-136.705	-47.498	-137.434	-8191	255	
606.385	1	1	0	0	0.090972	0.10077	0.15966	0.095397	0.21124	0.13054	0.23162	0.060728	0.18526	0.25247	0.1273	0.14545	0.022485	0.16961	0.26277	0.12433	-2.8771	-3.1104	-2.8729	-3.4396	-3.2	-2.9125	-3.7167	-3.2354	-3.2	-3.5167	-2.9833	-3.35	-3.3125	-3.1708	-3.3479	-3.2021	65.158	-150.773	139.806	-150.143	98.815	-30.088	111.742	-116.815	136.163	49.817	-72.652	128.697	-52.925	98.922	44.990	65.462	0.00064093	0.00058761	0.00010926	1365.3	3.6321e-06	5.5944e-06	1365.5	369	7.3179e-06	4.2157e-06	420.5	137.73	121.96	41.017	5.6714e-06	50.412	0.00067741	0.00076506	0.00021471	1384.3	8.0972e-06	8.5955e-06	1390	375.32	8.3589e-06	8.6363e-06	429.25	141.1	124.71	42.136	8.3662e-06	52.155	161.475	-85.345	-88.287	-150.321	-66.981	-2.488	-150.669	-146.020	-74.081	-7.064	-146.207	-142.171	-141.983	-136.764	-49.631	-137.529	-8191	255	
606.505	1	1	0	0	0.17301	0.088715	0.19161	0.16087	0.059137	0.04955	0.26307	0.068852	0.064293	0.13998	0.19139	0.16852	0.085712	0.18404	0.036967	0.31631	-2.8146	-3.3812	-2.9854	-3.3417	-3.325	-2.8688	-3.4521	-3.2521	-3.0938	-3.5167	-2.9646	-3.3812	-3.3917	-2.9333	-3.2771	-3.1729	163.098	-109.993	-21.673	59.267	121.770	-120.662	95.839	-131.589	-101.907	42.438	149.252	98.445	-147.489	148.780	38.727	73.033	0.00067246	0.00041807	0.00011076	1367.6	3.2958e-06	5.5849e-06	1366.1	369.19	5.6322e-06	4.4827e-06	420.5	137.79	122.32	41.047	4.394e-06	50.493	0.00070167	0.00076498	0.00022552	1385.7	8.1933e-06	8.6785e-06	1391.9	375.56	8.2123e-06	8.4729e-06	429.06	141.21	124.92	42.159	7.3545e-06	52.216	161.605	-68.341	-80.695	-150.225	-51.719	-7.741	-150.830	-146.092	-70.856	1.239	-146.051	-142.521	-141.899	-136.479	-46.972	-137.610	-8191	255	
606.577	1	1	0	0	0.097617	0.17091	0.03968	0.35388	0.22314	0.29313	0.27481	0.1486	0.11232	0.05938	0.19962	0.13195	0.19456	0.082708	0.17847	0.072375	-2.6208	-3.3563	-3.0563	-3.3542	-3.3729	-2.7521	-3.5563	-3.2771	-2.8854	-3.4354	-2.9417	-3.2708	-3.3563	-3.0292	-3.3104	-3.2208	-1.622	169.315	-34.514	110.081	-18.402	164.556	161.846	122.848	181.344	-70.259	82.768	-119.314	81.936	178.047	-145.792	-33.013	0.00066606	0.00041328	0.00012766	1362.2	4.1596e-06	4.5579e-06	1361.5	368	4.2128e-06	6.0207e-06	419.3	138.13	121.93	41.362	5.6813e-06	50.518	0.00065347	0.00066334	0.00018713	1382.8	6.8868e-06	7.3752e-06	1385.6	374.74	7.1752e-06	7.0747e-06	428.84	141.27	124.74	42.255	7.0694e-06	52.213	160.804	-91.233	-72.650	-150.190	-59.430	-1.079	-150.730	-146.006	-54.575	-19.616	-146.043	-142.364	-141.940	-136.855	-49.012	-137.350	-8191	255	
606.673	1	1	0	0	0.12009	0.12637	0.10422	0.35417	0.21625	0.2121	0.046538	0.085794	0.020257	0.078298	0.22562	0.23182	0.23984	0.20923	0.048878	0.18842	-2.6979	-3.3354	-2.875	-3.1833	-3.2792	-2.875	-3.5708	-3.2583	-2.9479	-3.5125	-3.0917	-3.1583	-3.3896	-2.9625	-3.3104	-3.1583	125.815	138.175	-82.189	174.941	52.840	-70.784	152.153	147.345	131.732	22.618	187.794	-152.463	148.634	-106.345	-25.230	93.558	0.00067507	0.00056475	0.00016365	1367.4	3.9581e-06	4.339e-06	1366.6	369.21	6.3298e-06	5.4934e-06	420.31	137.56	121.59	40.966	3.5659e-06	50.533	0.0006556	0.00067633	0.00019522	1385.8	7.2882e-06	7.6021e-06	1389.9	374.87	7.8825e-06	7.7481e-06	428.78	140.84	124.36	42.081	7.3704e-06	52.129	161.071	-96.216	-80.675	-150.206	-38.066	-21.843	-150.658	-146.082	-64.904	-17.518	-146.380	-142.119	-141.891	-136.512	-36.364	-137.640	-8191	255	
606.769	1	1	0	0	0.19919	0.23906	0.1189	0.37059	0.25975	0.075422	0.19852	0.10489	0.19405	0.10093	0.14595	0.19328	0.045283	0.096724	0.14736	0.024421	-2.5979	-3.4	-2.9792	-3.1271	-3.4813	-3.0375	-3.5062	-3.2687	-2.8854	-3.4125	-3.1083	-3.2062	-3.4896	-3.1875	-3.2146	-3.425	-58.552	-132.648	57.845	189.241	48.424	73.399	59.338	64.778	-84.288	97.881	129.209	171.721	-105.946	169.698	-85.705	51.241	0.00065708	0.00059319	0.00014987	1364.5	4.4478e-06	5.6596e-06	1364.7	369.62	4.7199e-06	4.8362e-06	421.31	138.07	122.09	41.096	4.6422e-06	50.614	0.0006659	0.00068595	0.00019916	1382.8	7.4803e-06	8.0382e-06	1389.8	375.68	7.9597e-06	7.887e-06	429.7	141.49	125.04	42.202	7.7301e-06	52.303	161.957	-89.711	-71.644	-150.302	-70.037	-20.536	-150.809	-146.065	-67.010	-14.381	-146.017	-142.385	-141.867	-136.736	-26.563	-137.554	-8191	255	
606.865	1	1	0	0	0.15112	0.070655	0.2533	0.16139	0.11523	0.13941	0.13167	0.15317	0.068214	0.16823	0.30245	0.21615	0.17405	0.3519	0.12994	0.3348	-2.4833	-3.1958	-3.0896	-3.1229	-3.4938	-2.9625	-3.5146	-3.4104	-2.9604	-3.1479	-3.25	-3.0583	-3.4771	-3.1125	-3.1146	-3.5458	108.816	-48.753	150.550	193.151	-23.684	170.533	123.508	-44.328	109.409	84.610	141.601	169.648	167.794	178.200	123.460	48.046	0.00067367	0.00056711	0.00017023	1369.2	3.643e-06	5.6162e-06	1371.1	369.62	6.2086e-06	5.6893e-06	421.74	138.34	122.3	40.977	4.0667e-06	50.511	0.00067517	0.00071395	0.00020634	1387.9	7.447e-06	8e-06	1393.8	375.65	7.9372e-06	8.0177e-06	430.15	141.21	124.88	42.103	8.2207e-06	52.241	161.710	-81.408	-79.874	-150.273	-45.629	-13.386	-150.610	-146.032	-60.283	-3.535	-146.205	-142.025	-141.843	-136.640	-40.422	-137.496	-8191	255	
606.986	1	1	0	0	0.17059	0.097619	0.25045	0.17479	0.13005	0.13985	0.13451	0.30361	0.082248	0.19681	0.20398	0.13437	0.11242	0.19521	0.10208	0.051973	-2.4917	-3.2583	-3.2146	-3.1437	-3.4833	-3.1229	-3.3187	-3.4	-3.0687	-3.3187	-3.2833	-3.075	-3.3917	-3.2083	-3.1312	-3.4229	83.199	-141.023	-22.324	116.527	-2.792	3.551	132.413	144.502	160.459	99.577	68.526	175.745	-112.548	146.387	112.234	-126.433	0.00066321	0.00045795	0.00014557	1369.5	5.1795e-06	3.5306e-06	1365.3	368.94	6.4687e-06	2.6742e-06	423.06	137.23	122.12	40.939	5.1339e-06	50.659	0.00069122	0.00074137	0.00021071	1387.6	8.0792e-06	8.4995e-06	1390.9	375.13	8.3533e-06	8.6101e-06	430.01	141.03	124.82	42.145	8.5181e-06	52.244	160.972	-73.360	-85.524	-150.148	-55.989	-16.349	-150.640	-146.053	-61.497	10.429	-146.059	-142.296	-141.756	-136.641	-53.669	-137.409	-8191	255	
607.082	1	1	0	0	0.10053	0.11953	0.38724	0.44238	0.016337	0.35524	0.15597	0.22666	0.1944	0.14516	0.13004	0.086298	0.21119	0.045557	0.24598	0.098825	-2.6167	-3.2042	-3.3583	-3.1583	-3.3958	-3.1354	-3.3542	-3.5625	-3.0042	-3.3125	-3.4188	-2.9875	-3.5417	-3.1625	-2.9271	-3.5479	-30.706	193.088	117.085	150.584	185.949	-38.193	-12.224	99.124	-162.965	61.125	143.160	159.940	-106.733	81.327	32.993	-149.970	0.00064276	0.00051577	0.00017685	1369.3	3.4491e-06	7.02e-06	1367.3	368.27	5.1735e-06	5.8687e-06	420.84	137.39	121.61	40.916	5.5721e-06	50.613	0.00069279	0.00077109	0.00022463	1388.7	8.0265e-06	8.7102e-06	1393.4	375.31	8.4733e-06	8.5472e-06	429.27	141.15	124.73	42.154	8.4631e-06	52.232	160.583	-74.642	-81.764	-150.137	-59.710	-18.900	-150.584	-146.061	-53.617	-13.143	-146.004	-142.150	-141.940	-136.448	-21.705	-137.679	-8191	255	
607.154	1	1	0	0	0.21274	0.064019	0.14984	0.10313	0.10318	0.28092	0.078745	0.21689	0.43231	0.067784	0.17284	0.20875	0.058098	0.063378	0.14662	0.10358	-2.6542	-3.1792	-3.2833	-2.9854	-3.2271	-3.2708	-3.3792	-3.4896	-3.0458	-3.2604	-3.5375	-3.0958	-3.5104	-3.3667	-2.9313	-3.4396	127.404	79.604	-80.413	94.188	-68.077	134.997	100.944	163.870	106.248	-24.825	2.890	-133.724	-63.968	-69.047	66.794	-106.696	0.00066046	0.00070445	9.7095e-05	1367.7	4.1583e-06	6.2146e-06	1366.5	368.44	6.1923e-06	4.2949e-06	422.8	138.16	121.73	41.016	5.0588e-06	50.529	0.00069094	0.00079456	0.00021386	1387.6	7.9558e-06	8.5662e-06	1393.2	374.97	8.5533e-06	8.4908e-06	430.38	141.29	124.51	42.153	8.0999e-06	52.138	162.038	-77.663	-75.340	-150.409	-60.693	-8.497	-150.615	-145.917	-64.404	-22.558	-146.289	-142.315	-141.942	-136.522	-39.979	-137.101	-8191	255	
607.274	1	1	0	0	0.11645	0.20033	0.12517	0.27967	0.26364	0.17935	0.29804	0.058262	0.027122	0.31782	0.24465	0.16257	0.13142	0.3768	0.19138	0.058605	-2.7646	-3.1625	-3.3021	-3.2167	-3.2562	-3.3792	-2.9896	-3.5396	-3.1875	-3.05	-3.4979	-3.0979	-3.4	-3.3208	-2.8667	-3.5417	71.179	-76.777	74.206	175.860	-13.789	-105.668	112.486	177.207	11.980	4.424	155.010	111.162	154.995	180.814	148.109	-84.412	0.00067093	0.00037795	0.00012832	1366.6	4.5214e-06	4.7966e-06	1363.6	367.47	5.6517e-06	5.8019e-06	421.2	137.53	122.09	41.026	7.3607e-06	50.528	0.00067961	0.00075881	0.00020693	1385.8	7.6677e-06	8.1969e-06	1390.4	374.82	8.4495e-06	8.0708e-06	429.16	140.95	124.68	42.2	8.0514e-06	52.201	159.293	-84.739	-69.100	-150.152	-43.382	0.507	-150.762	-146.023	-79.155	2.434	-146.271	-142.330	-141.867	-136.509	-29.857	-137.542	-8191	255	
607.371	1	1	0	0	0.12593	0.21067	0.22023	0.21423	0.13138	0.21386	0.16591	0.20892	0.24631	0.26545	0.070564	0.076318	0.20943	0.089336	0.036426	0.19249	-2.7042	-3.0167	-3.3187	-3.1813	-3.3375	-3.4333	-3.1583	-3.3688	-3.2583	-2.9917	-3.4646	-3.1188	-3.2438	-3.325	-3.0417	-3.4688	174.551	12.527	155.981	139.853	-33.860	0.607	-34.968	170.316	-150.826	165.820	95.569	95.235	153.897	143.318	91.804	51.033	0.00064833	0.00048095	9.131e-05	1369.2	3.2318e-06	5.4128e-06	1364	368.67	3.7512e-06	4.9627e-06	420.94	137.93	121.41	41.164	5.3015e-06	50.695	0.00067521	0.00075343	0.00020405	1386.1	7.8565e-06	8.1887e-06	1390.2	374.74	8.0916e-06	8.6453e-06	428.86	140.97	124.46	42.188	8.2149e-06	52.275	160.674	-79.980	-76.928	-150.194	-51.390	-11.465	-150.757	-146.155	-57.895	-7.410	-146.308	-142.140	-141.753	-136.644	-35.894	-137.449	-8191	255	
607.467	1	1	0	0	0.30507	0.033653	0.24229	0.33407	0.19631	0.34066	0.071858	0.17572	0.021006	0.11235	0.29242	0.43486	0.045415	0.2191	0.07372	0.14996	-2.7646	-2.9688	-3.2938	-3.2687	-3.0646	-3.2729	-3.2708	-3.3438	-3.3208	-3.0625	-3.4292	-3.125	-3.2146	-3.575	-2.975	-3.2229	-11.869	-17.155	-154.592	165.195	-34.394	-57.224	185.634	158.901	-69.328	-36.932	174.320	174.100	44.902	177.473	148.524	80.289	0.00067949	0.00044403	0.00017729	1369	3.9698e-06	5.9775e-06	1370.6	368.47	5.784e-06	5.258e-06	421.01	138.1	121.44	41.172	3.5498e-06	50.269	0.00070039	0.00077877	0.00021056	1387	8.1699e-06	8.3279e-06	1392.3	374.46	8.0916e-06	8.615e-06	429.2	141.02	124.35	42.175	8.0347e-06	52.081	162.310	-69.315	-69.078	-150.302	-42.288	-12.528	-150.595	-146.036	-80.232	-3.294	-146.185	-142.370	-141.901	-136.449	-63.073	-137.777	-8191	255	
607.586	1	1	0	0	0.073279	0.12463	0.18795	0.12086	0.15583	0.20427	0.45226	0.20225	0.1553	0.020406	0.14451	0.17233	0.093879	0.1423	0.12413	0.27585	-2.8312	-2.8583	-3.4667	-3.2542	-2.9729	-3.4146	-3.15	-3.1688	-3.4604	-2.8833	-3.3458	-3.3021	-3.0708	-3.5687	-3.0479	-3.3937	164.082	120.412	116.466	175.163	175.373	9.857	-139.820	173.334	122.474	156.706	156.688	137.104	-40.031	-70.818	-96.903	-150.071	0.00068911	0.00052147	0.00017688	1368.3	2.8993e-06	4.4569e-06	1368.1	368.22	4.9323e-06	5.1445e-06	418.69	137.31	121.62	40.976	4.3306e-06	50.616	0.00069748	0.00077525	0.00021216	1385.5	7.9358e-06	8.1684e-06	1388.7	374.45	8.2979e-06	8.4565e-06	428.16	140.61	124.24	42.104	8.4103e-06	52.175	163.349	-83.564	-63.474	-150.192	-68.800	-8.656	-150.585	-146.060	-59.133	-9.376	-146.003	-142.432	-141.862	-136.674	-30.827	-137.477	-8191	255	
607.682	1	1	0	0	0.062513	0.14062	0.096541	0.10342	0.11634	0.10787	0.38442	0.12805	0.24059	0.21918	0.21251	0.043964	0.32814	0.19292	0.099049	0.2376	-2.9083	-2.6542	-3.2354	-3.2458	-2.9292	-3.5604	-3.2729	-3.2208	-3.2708	-3.0938	-3.3104	-3.3833	-3.0187	-3.6458	-3.0396	-3.2021	-119.631	94.814	139.103	-132.590	39.634	-84.255	188.861	113.394	-115.044	137.519	-2.270	71.413	-85.242	107.492	130.113	67.701	0.00065055	0.00035119	0.00013638	1367.1	4.5687e-06	5.0218e-06	1363.8	366.38	5.7389e-06	4.332e-06	420.98	137.56	121.37	41.057	4.9258e-06	50.398	0.00069012	0.00077403	0.00021994	1385.9	8.1779e-06	8.4344e-06	1389.4	373.66	8.4775e-06	8.7262e-06	428.18	140.66	124.11	42.101	8.4516e-06	52.126	161.636	-77.782	-69.748	-150.285	-45.781	-5.842	-150.665	-146.231	-63.294	-18.359	-146.299	-142.292	-141.506	-136.593	-20.394	-137.729	-8191	255	
607.778	1	1	0	0	0.179	0.23285	0.085087	0.17971	0.29757	0.18526	0.067921	0.18671	0.30342	0.19993	0.1709	0.28559	0.086722	0.18414	0.13561	0.12293	-3.0896	-2.8063	-3.3	-3.2958	-2.8104	-3.5083	-3.2375	-3.1667	-3.3646	-3.0042	-3.3729	-3.45	-3.1417	-3.3063	-2.9313	-3.1458	-62.539	-116.390	5.025	161.791	-136.896	-140.335	-129.408	182.583	31.654	-95.179	-81.230	-145.095	175.011	54.108	52.811	-163.231	0.0006737	0.00034309	0.00010702	1362.8	4.8961e-06	2.4528e-06	1363.9	366.5	5.0001e-06	5.0084e-06	418.93	137.11	121.11	40.961	5.8115e-06	50.512	0.00069712	0.00081006	0.00022029	1383.4	8.0899e-06	8.6085e-06	1388.5	373.59	8.354e-06	8.87e-06	427.9	140.43	123.94	42.078	8.0948e-06	52.043	161.869	-86.615	-52.510	-150.264	-60.666	16.599	-150.600	-145.885	-71.321	-15.943	-146.008	-142.214	-141.978	-136.589	-41.342	-137.743	-8191	255	
607.874	1	1	0	0	0.21751	0.078353	0.25003	0.24079	0.080757	0.13063	0.20792	0.059024	0.1027	0.1127	0.10596	0.072206	0.083951	0.31644	0.18638	0.097388	-3.1042	-3	-3.1042	-3.5271	-2.9521	-3.3646	-3.2812	-2.9458	-3.375	-3.0021	-3.3917	-3.3833	-3.0833	-3.5021	-3.3083	-3.375	76.868	148.006	-16.607	145.927	120.042	47.019	99.149	89.428	-43.880	152.896	-137.600	88.447	183.353	-63.632	-118.861	-105.269	0.00065371	0.0005467	0.00012461	1363.5	5.0307e-06	6.4336e-06	1361.1	366.98	4.6502e-06	4.0925e-06	420.54	137.03	121.19	40.848	4.054e-06	50.29	0.00068632	0.00072256	0.00020828	1383.4	7.6777e-06	7.5818e-06	1386.2	373.36	7.625e-06	8.0684e-06	427.79	140.21	124.03	41.995	7.5687e-06	51.92	161.577	-86.823	-36.494	-150.247	-35.963	-32.165	-150.661	-145.965	-61.850	-27.875	-146.093	-142.328	-142.017	-136.750	-33.314	-137.554	-8191	255	
607.970	1	1	0	0	0.17448	0.09578	0.048897	0.50493	0.21011	0.10576	0.15368	0.26099	0.36319	0.22932	0.22012	0.11444	0.28434	0.31504	0.22379	0.28824	-2.9333	-3.0271	-3.1458	-3.6354	-3.0083	-3.2375	-3.3063	-3.15	-3.325	-3.2375	-3.2938	-3.2917	-3.1417	-3.4125	-3.2333	-2.7687	-113.125	83.555	103.050	127.648	141.937	-35.753	116.763	-99.049	-57.037	20.053	147.377	187.229	132.703	107.190	80.353	102.140	0.0006739	0.00071458	0.0001288	1358.8	2.9638e-06	3.8069e-06	1359.6	366.6	4.8665e-06	3.3712e-06	416.9	137.01	121.03	41.082	3.1774e-06	50.489	0.00064104	0.00070627	0.00019486	1378.8	7.433e-06	7.485e-06	1382.8	373.23	7.3948e-06	7.9205e-06	426.67	140.37	123.81	42.045	7.5405e-06	51.975	162.916	-79.262	-56.205	-150.222	-58.191	-11.764	-150.701	-146.238	-81.738	-15.314	-146.133	-141.997	-141.993	-136.572	-54.480	-137.398	-8191	255	
608.066	1	1	0	0	0.15028	0.16212	0.0066095	0.13605	0.033526	0.12361	0.40045	0.3684	0.14575	0.11224	0.15329	0.14578	0.17433	0.10417	0.089397	0.23246	-3.0479	-2.9875	-3.0083	-3.5146	-2.9021	-3.1688	-3.4458	-3.1021	-3.2896	-3.225	-3.1083	-3.3896	-3.1	-3.1813	-3.3208	-3.2271	157.822	138.177	-163.588	-130.099	119.562	118.827	125.620	-139.100	37.664	-8.387	187.590	161.448	-35.676	194.628	151.797	24.919	0.00065384	0.00045599	0.00013549	1358.3	5.0104e-06	4.6263e-06	1357.8	365.35	5.9035e-06	3.9361e-06	417.41	136.56	120.55	40.87	4.6228e-06	50.473	0.00066459	0.00074517	0.00019631	1379.1	7.5037e-06	7.8088e-06	1381.9	372.26	7.5436e-06	7.8069e-06	426.47	139.86	123.59	41.948	7.848e-06	51.926	158.574	-85.161	-63.187	-150.249	-46.281	-14.470	-150.704	-145.979	-53.468	-27.284	-146.227	-142.300	-141.825	-136.570	-45.673	-137.272	-8191	255	
608.162	1	1	0	0	0.17254	0.16539	0.1477	0.39126	0.064734	0.16393	0.52041	0.0051368	0.22794	0.11898	0.094238	0.060445	0.044815	0.082774	0.047343	0.051279	-3.1583	-3.0062	-2.9917	-3.6521	-2.975	-3.1813	-3.4729	-2.9229	-3.2833	-3.1813	-3.0667	-3.3729	-3.2792	-3.225	-3.4271	-3.0417	170.217	18.564	33.811	152.674	-124.055	42.937	157.690	97.299	-5.279	166.838	-45.102	164.570	107.476	158.535	45.909	57.264	0.00065734	0.00033776	0.00011381	1359.4	4.0202e-06	4.7299e-06	1356.5	365.4	7.3523e-06	4.7954e-06	415.85	136.02	120.44	40.729	5.1288e-06	50.207	0.00066679	0.00074244	0.00021281	1376.6	7.7318e-06	8.0634e-06	1380.6	371.98	8.3007e-06	8.5995e-06	425.87	139.77	123.33	41.877	8.487e-06	51.76	159.973	-99.713	-69.099	-150.161	-50.151	-16.337	-150.665	-146.024	-74.354	2.530	-146.218	-142.131	-141.943	-136.757	-22.550	-137.542	-8191	255	
608.281	1	1	0	0	0.042914	0.16653	0.067746	0.24751	0.14578	0.10473	0.15308	0.1265	0.20692	0.177	0.053553	0.25619	0.25225	0.18665	0.21052	0.13349	-2.85	-3.0479	-2.8438	-3.5083	-3.0229	-2.9708	-3.4125	-3.0292	-3.025	-3.3375	-3.1979	-3.6125	-3.1458	-3.0208	-3.2917	-2.7583	155.410	149.683	165.755	173.649	-51.848	-112.874	98.646	-1.351	137.846	-34.978	-116.745	-101.118	141.263	124.703	184.903	-90.017	0.00065869	0.00064038	0.00010687	1358.6	4.0691e-06	4.0265e-06	1358.4	366.09	5.2846e-06	2.5677e-06	417.89	136.73	120.25	40.778	5.1918e-06	50.05	0.0006919	0.00076728	0.00022011	1378.3	8.3593e-06	8.681e-06	1382.4	372.44	8.3112e-06	8.8332e-06	425.73	139.67	123.3	41.882	8.2301e-06	51.749	160.770	-74.621	-67.945	-150.285	-45.892	-8.966	-150.488	-145.861	-69.967	14.309	-146.204	-142.191	-141.886	-136.801	-32.636	-137.253	-8191	255	
608.377	1	1	0	0	0.19711	0.17429	0.078701	0.27906	0.15982	0.28669	0.23706	0.26921	0.31239	0.093868	0.12654	0.048622	0.30373	0.27226	0.48172	0.26011	-2.6333	-3.2396	-3.0125	-3.6188	-3.0521	-2.9688	-3.5354	-3.1646	-3.2021	-3.2792	-3.0021	-3.4833	-3.2271	-3.0542	-3.3708	-3.0979	62.558	-148.355	-156.210	-163.390	-80.464	-148.332	99.202	112.352	-101.685	102.603	-121.653	127.528	-139.852	177.716	112.097	156.504	0.00066796	0.00051355	0.00010831	1357.8	3.4174e-06	4.8251e-06	1352.4	365.76	5.9658e-06	5.4661e-06	419.29	136.87	120.18	40.712	5.1281e-06	50.045	0.00071641	0.00082959	0.00022577	1377	8.454e-06	9.2928e-06	1378.5	371.65	8.9582e-06	8.843e-06	426.42	139.53	123.06	41.827	8.2417e-06	51.678	161.694	-80.630	-74.949	-150.218	-48.571	-37.047	-150.614	-145.781	-58.955	14.938	-145.998	-142.120	-141.802	-136.385	-24.764	-137.551	-8191	255	
608.451	1	1	0	0	0.34474	0.11512	0.2219	0.21638	0.039818	0.14644	0.29154	0.16183	0.1142	0.13684	0.14512	0.22444	0.023198	0.076592	0.14779	0.19192	-2.6146	-3.3708	-3.0854	-3.6542	-3.3271	-2.9146	-3.6229	-3.2208	-3.0563	-3.5333	-3.0208	-3.5208	-3.2938	-3.0479	-3.4104	-3.1688	-99.041	195.340	12.701	172.017	9.949	-64.189	96.445	192.963	-159.847	-1.470	99.437	150.420	123.977	31.472	195.833	124.029	0.00065443	0.00062041	0.0001313	1356.5	4.0885e-06	4.0567e-06	1357	365.86	6.0851e-06	4.0605e-06	415.84	136.53	120.3	40.675	4.5211e-06	49.855	0.00070969	0.00078458	0.0002229	1377.2	8.442e-06	8.6338e-06	1382.5	371.77	8.6207e-06	8.5529e-06	425.33	139.64	123.09	41.837	8.482e-06	51.634	162.552	-79.524	-65.291	-150.264	-32.824	-5.342	-150.651	-145.818	-70.495	0.486	-146.048	-142.185	-141.594	-136.451	-45.385	-137.370	-8191	255	
608.547	1	1	0	0	0.21685	0.11446	0.068983	0.35316	0.062084	0.19548	0.16189	0.14459	0.21711	0.21777	0.056061	0.17901	0.17662	0.045319	0.18806	0.18997	-2.6417	-3.3875	-2.9125	-3.5812	-3.2104	-2.8312	-3.6375	-3.2896	-2.9771	-3.3708	-2.8354	-3.1125	-3.4417	-2.9375	-3.2542	-3.2729	171.754	-46.751	9.424	-152.418	91.975	-9.669	141.060	-120.231	32.581	96.718	-120.040	166.535	146.749	195.115	-99.255	169.012	0.00065297	0.00051661	0.00015746	1360.1	2.123e-06	6.7828e-06	1355.6	364.96	5.7086e-06	5.0505e-06	415.02	136.29	120.06	40.707	4.5634e-06	49.967	0.00072145	0.00082334	0.00023697	1378.2	8.4781e-06	9.3042e-06	1379.7	371.04	8.9638e-06	9.1878e-06	426.04	139.31	122.99	41.775	8.4313e-06	51.635	159.866	-68.516	-62.824	-150.337	-53.607	-31.676	-150.639	-145.965	-65.358	-18.204	-146.350	-142.492	-141.945	-136.539	-46.718	-137.388	-8191	255	
608.666	1	1	0	0	0.21743	0.16456	0.16947	0.2878	0.13521	0.16841	0.1753	0.23081	0.075693	0.15422	0.22986	0.2009	0.0676	0.17291	0.015495	0.24728	-2.5667	-3.4042	-2.9354	-3.225	-3.2167	-2.8646	-3.5875	-3.2938	-2.9688	-3.3583	-3.2292	-3.2396	-3.4688	-3.0417	-3.2208	-3.4208	98.382	-95.168	-51.533	-146.410	-101.634	7.749	131.162	-151.816	112.000	168.650	128.944	-152.186	124.264	-139.825	112.447	169.496	0.00066141	0.00055279	0.00016738	1360.2	3.4088e-06	3.2836e-06	1355.4	365.4	6.0039e-06	3.788e-06	416.54	136.19	120.8	40.581	3.6198e-06	50.2	0.00070731	0.00081258	0.00023545	1379.7	8.438e-06	9.1065e-06	1383.3	371.69	8.8269e-06	8.709e-06	425.26	139.29	123.11	41.793	8.0384e-06	51.678	162.139	-72.272	-80.755	-150.304	-38.190	-23.577	-150.437	-145.864	-76.137	-23.105	-146.097	-142.120	-141.760	-136.740	-56.051	-137.652	-8191	255	
608.762	1	1	0	0	0.21185	0.30203	0.17167	0.43996	0.14314	0.055989	0.085983	0.076742	0.11321	0.15586	0.18159	0.046568	0.08643	0.086059	0.15496	0.072923	-2.5208	-3.3083	-3.0604	-3.4062	-3.4688	-2.8417	-3.4521	-3.3854	-2.9	-3.3063	-3.3021	-3.1083	-3.3229	-3.0542	-3.1292	-3.4313	-162.168	-107.502	11.151	179.764	67.568	129.297	191.347	87.972	-34.490	-34.835	36.888	185.087	166.859	-156.488	115.940	101.804	0.00068226	0.0004602	0.00014175	1356.3	3.7065e-06	4.8848e-06	1354.2	364.1	4.8122e-06	3.5849e-06	416.54	135.96	119.97	40.691	4.8513e-06	49.897	0.00069481	0.0007339	0.00021309	1375.4	7.7578e-06	8.1871e-06	1378	370.35	7.8608e-06	7.9131e-06	424.47	139.17	122.79	41.711	7.568e-06	51.469	159.699	-91.849	-68.966	-150.274	-42.954	-8.398	-150.557	-145.967	-77.219	-4.384	-146.482	-142.126	-141.957	-136.271	-47.383	-137.302	-8191	255	
608.858	1	1	0	0	0.095227	0.14294	0.18968	0.28908	0.15551	0.27255	0.2794	0.1754	0.32434	0.35093	0.11399	0.041284	0.3199	0.16077	0.075686	0.18434	-2.4021	-3.4562	-2.8875	-3.125	-3.3646	-2.8854	-3.5583	-3.4292	-2.9333	-3.3896	-3.5	-3.0708	-3.4479	-3.1958	-3.1542	-3.3812	-79.421	-143.576	39.489	-161.589	166.537	143.319	135.251	140.374	-144.518	-97.500	113.060	122.694	118.086	195.969	103.315	-134.577	0.00064802	0.00048913	0.00013355	1354	4.3989e-06	4.9056e-06	1350.1	364.19	6.4245e-06	5.4286e-06	415.21	135.95	119.56	40.637	4.5394e-06	50.033	0.00065002	0.00066793	0.00019104	1372	7.2049e-06	7.7754e-06	1373.5	370.14	7.6208e-06	7.6067e-06	423.47	138.87	122.58	41.7	7.6476e-06	51.567	162.505	-81.956	-63.355	-150.225	-53.761	-14.369	-150.718	-146.042	-57.008	-4.347	-146.031	-142.188	-141.916	-136.391	-22.372	-137.732	-8191	255	
608.954	1	1	0	0	0.24881	0.04567	0.010344	0.21689	0.25888	0.18614	0.22664	0.13363	0.070889	0.014943	0.051235	0.16125	0.14797	0.20111	0.13104	0.18184	-2.4188	-3.1958	-3.0479	-3.1604	-3.3875	-3.0771	-3.2375	-3.3937	-3.0542	-3.5042	-3.3729	-3.0646	-3.5917	-3.1604	-2.8208	-3.4417	137.480	174.625	140.306	161.973	165.301	1.230	-50.503	170.072	-135.992	-12.053	125.273	-50.442	-86.698	170.538	169.885	-114.341	0.00064007	0.00037676	0.00011847	1354.8	3.9907e-06	4.2185e-06	1353.5	363.12	5.9067e-06	4.4741e-06	415.29	135.2	119.96	40.669	5.8774e-06	49.91	0.00065635	0.00070203	0.00019732	1371.9	7.4823e-06	7.9837e-06	1374.1	369.82	7.745e-06	7.7423e-06	423.64	138.67	122.62	41.77	7.9443e-06	51.516	160.605	-96.209	-86.630	-150.246	-57.826	-17.990	-150.647	-145.749	-63.344	-14.485	-146.119	-142.015	-141.835	-136.587	-37.781	-137.320	-8191	255	
609.075	1	1	0	0	0.049745	0.16886	0.13482	0.19125	0.042607	0.099249	0.16589	0.06643	0.12158	0.26968	0.16793	0.27249	0.19112	0.22869	0.11839	0.13453	-2.4979	-3.0229	-2.9583	-3.175	-3.4375	-3.2042	-3.2458	-3.4271	-2.7812	-3.2687	-3.3854	-2.9021	-3.3875	-3.2208	-3.0312	-3.5229	-122.717	179.648	91.850	148.274	194.558	119.051	170.998	84.419	22.563	-150.449	107.409	148.548	-136.306	97.165	-39.721	102.749	0.00068747	0.00044747	0.00014056	1348.7	3.4633e-06	6.5337e-06	1348.7	362.13	7.018e-06	4.5664e-06	414.16	135.03	119.87	40.537	4.2771e-06	49.717	0.00066853	0.00069212	0.00020088	1369.4	7.4603e-06	7.8739e-06	1372.7	368.93	7.8229e-06	7.5274e-06	423.27	138.5	122.56	41.659	7.6418e-06	51.406	163.208	-68.925	-60.813	-150.192	-61.800	-25.797	-150.698	-145.889	-57.380	-8.239	-146.202	-142.319	-141.860	-136.783	-54.028	-137.466	-8191	255	
609.147	1	1	0	0	0.19551	0.19073	0.048641	0.21888	0.39462	0.22525	0.35798	0.32134	0.12662	0.15136	0.048203	0.12718	0.11261	0.062383	0.021843	0.090194	-2.5146	-3.1937	-3.4458	-3.0646	-3.3104	-3.2458	-3.0521	-3.5312	-2.9896	-3.2313	-3.425	-2.9229	-3.3	-3.3396	-2.8229	-3.5062	79.336	169.698	161.399	126.443	192.892	4.791	161.561	155.264	160.023	-64.324	-20.620	0.920	36.883	-42.741	23.673	194.285	0.00063549	0.0004732	0.00013322	1349.2	4.0896e-06	5.5538e-06	1348	364.01	6.3731e-06	3.7192e-06	413.86	134.88	119.61	40.534	5.218e-06	49.851	0.00066437	0.00069055	0.00019852	1368.4	7.2509e-06	7.9739e-06	1370.4	369.22	7.7043e-06	7.8396e-06	423.01	138.31	122.3	41.624	7.8285e-06	51.472	160.966	-64.523	-69.737	-150.328	-59.063	1.035	-150.567	-145.964	-69.886	-24.715	-146.203	-142.385	-141.844	-136.354	-39.852	-137.435	-8191	255	
609.267	1	1	0	0	0.15217	0.09098	0.19841	0.15427	0.082228	0.063445	0.15787	0.096324	0.12589	0.23603	0.086269	0.086877	0.26565	0.30961	0.053204	0.044564	-2.675	-3.3146	-3.4417	-3.125	-3.2	-3.3771	-3.0917	-3.4229	-3.0625	-2.9958	-3.4958	-3	-3.3583	-3.2854	-2.7771	-3.4896	11.951	-126.270	70.732	98.207	-64.932	112.299	148.300	146.455	56.871	-16.751	-79.180	135.318	160.162	189.617	58.648	-110.500	0.00063909	0.00057229	0.00017887	1346.7	4.4427e-06	3.788e-06	1343.7	362.49	5.6603e-06	2.923e-06	414.06	135.61	119.52	40.724	4.5797e-06	49.836	0.00066157	0.0007039	0.00019102	1367	7.2956e-06	7.8055e-06	1368.3	368.86	7.4861e-06	7.6492e-06	422.58	138.59	122.17	41.687	7.4023e-06	51.441	161.953	-64.217	-83.606	-150.110	-49.516	-9.717	-150.631	-145.866	-78.759	-25.280	-146.213	-142.132	-141.815	-136.785	-47.019	-137.537	-8191	255	
609.362	1	1	0	0	0.26024	0.21244	0.12791	0.078206	0.13927	0.23357	0.0026734	0.17434	0.17815	0.064845	0.13497	0.32804	0.11317	0.025097	0.16617	0.15251	-2.6729	-2.9583	-3.3937	-3.1375	-3.2438	-3.3708	-2.9542	-3.4333	-3.2479	-2.9875	-3.4125	-3.2188	-3.275	-3.4938	-3.025	-3.3104	176.026	39.263	-49.619	69.998	-116.475	185.862	180.000	169.132	157.904	184.556	25.014	133.791	184.502	-96.657	5.042	160.326	0.0006598	0.00057558	0.0001499	1343.3	3.4878e-06	5.2765e-06	1344.7	361.19	5.0999e-06	3.8031e-06	414.72	134.53	119.13	40.402	4.3377e-06	49.731	0.00065489	0.00070878	0.00018871	1362.5	7.2196e-06	7.6607e-06	1366.4	368.07	7.3542e-06	7.6762e-06	421.58	138.14	122.11	41.524	7.6244e-06	51.356	161.440	-74.827	-72.446	-150.055	-34.905	-14.979	-150.680	-145.846	-69.430	-14.678	-145.969	-142.060	-141.795	-136.705	-51.552	-137.387	-8191	255	
609.458	1	1	0	0	0.1204	0.10089	0.14479	0.13745	0.20925	0.15703	0.18474	0.12012	0.19034	0.122	0.063396	0.097882	0.29809	0.11474	0.27533	0.3022	-2.8604	-2.8375	-3.6042	-3.45	-3.2208	-3.4375	-2.9854	-3.5521	-3.2271	-3.0833	-3.2708	-3.0312	-3.0187	-3.3979	-2.8521	-3.2667	102.701	-156.103	86.217	-143.015	73.199	28.177	143.462	169.007	122.356	15.478	-7.251	109.990	-131.064	-143.069	-71.551	115.931	0.00064916	0.000611	0.00011953	1343.2	4.1243e-06	4.2794e-06	1338.9	362.06	5.3275e-06	4.561e-06	413.46	134.96	119.47	40.566	4.7256e-06	49.599	0.00063734	0.00068875	0.00019273	1362.8	7.3736e-06	7.6973e-06	1365.7	368.36	7.5752e-06	7.9883e-06	421.83	138.53	122.23	41.661	7.8205e-06	51.371	160.725	-67.743	-71.874	-150.190	-63.003	-4.395	-150.566	-146.016	-57.111	-18.934	-146.324	-142.167	-141.650	-136.615	-28.419	-137.356	-8191	255	
609.556	1	1	0	0	0.15157	0.2253	0.2217	0.42748	0.14731	0.218	0.31123	0.10694	0.29094	0.032105	0.27432	0.251	0.12192	0.19107	0.097763	0.12753	-2.7896	-2.7042	-3.3438	-3.1937	-3.1458	-3.4083	-2.9604	-3.3354	-3.2042	-2.8937	-3.6146	-3.2854	-3.1917	-3.3729	-3.1375	-3.2604	35.255	-120.408	-129.665	145.104	161.981	-56.054	91.720	186.719	-157.957	-27.036	-144.570	191.375	-162.756	68.946	125.373	160.059	0.00066237	0.00057467	0.0001801	1349.8	4.0032e-06	5.1585e-06	1343.6	362.95	5.5374e-06	5.6397e-06	414.76	134.56	119.42	40.682	4.714e-06	50.022	0.00066775	0.0007461	0.00019989	1364.8	7.6651e-06	7.7356e-06	1368.5	368.99	7.9015e-06	8.1885e-06	422.72	138.38	122.24	41.654	7.8061e-06	51.542	161.175	-63.444	-65.984	-150.077	-53.166	-13.775	-150.469	-145.957	-61.226	-4.016	-146.094	-142.121	-141.783	-136.399	-36.045	-137.349	-8191	255	
609.675	1	1	0	0	0.27437	0.070075	0.075696	0.09673	0.069616	0.017059	0.31464	0.072823	0.14192	0.33264	0.091289	0.099831	0.18907	0.33013	0.13918	0.1393	-2.9583	-3.0042	-3.525	-3.3708	-3.0417	-3.4479	-3.1896	-3.1813	-3.4167	-2.9562	-3.2708	-3.1479	-2.9688	-3.5229	-2.9813	-3.0708	188.261	-160.640	157.779	-75.233	-104.961	-134.980	172.571	128.312	102.408	-45.444	142.221	-158.072	153.381	186.101	151.150	157.567	0.00066264	0.00046997	0.0001377	1349.5	3.0035e-06	4.9713e-06	1348.1	362.56	7.0364e-06	5.3833e-06	415.65	135.24	120.03	40.721	3.5692e-06	49.887	0.00066991	0.0007067	0.00019985	1368.3	7.5984e-06	8.0252e-06	1372.2	368.88	7.839e-06	8.2661e-06	423.59	138.57	122.48	41.698	7.7272e-06	51.555	162.153	-64.429	-64.153	-150.202	-60.345	-23.507	-150.625	-145.799	-62.343	-21.657	-146.072	-142.219	-141.811	-136.656	-28.323	-137.391	-8191	255	
609.746	1	1	0	0	0.13947	0.18248	0.25934	0.18316	0.37262	0.11041	0.18547	0.032002	0.13998	0.10577	0.059921	0.46086	0.22517	0.27746	0.099862	0.099126	-2.8521	-2.7646	-3.275	-3.3875	-2.875	-3.4437	-3.1896	-3.2292	-3.4792	-3.025	-3.3458	-3.3375	-3.0208	-3.5	-3.175	-3.2146	130.986	-107.975	-135.983	141.185	72.935	-123.181	125.103	183.002	123.794	-83.705	154.670	140.966	183.680	-75.343	160.475	80.725	0.00062561	0.00059451	0.00013667	1351	4.5738e-06	5.3685e-06	1352.3	361.96	6.371e-06	4.6283e-06	415.32	135.45	120.24	40.718	3.7118e-06	49.929	0.00066778	0.00071725	0.00021073	1368.7	7.5964e-06	7.8047e-06	1373.4	369.21	7.6987e-06	7.972e-06	423.64	138.71	122.63	41.735	7.7098e-06	51.501	161.476	-72.958	-52.303	-150.222	-65.902	-31.808	-150.752	-145.735	-59.811	2.045	-146.015	-142.156	-141.781	-136.498	-34.364	-137.562	-8191	255	
609.842	1	1	0	0	0.13994	0.36693	0.22924	0.29443	0.11465	0.10746	0.11756	0.31544	0.030152	0.08238	0.021175	0.15266	0.19678	0.13695	0.13712	0.12478	-2.9813	-2.9146	-3.0833	-3.5646	-2.9667	-3.4	-3.3146	-3.0125	-3.4125	-3.0729	-3.1458	-3.2875	-2.9667	-3.4521	-3.2354	-2.9688	-155.693	-33.882	-55.706	126.312	164.308	39.038	143.137	146.599	-91.530	-20.615	74.115	-129.123	134.779	19.173	-156.911	121.946	0.00065759	0.00052268	0.00010834	1352.4	4.255e-06	5.2853e-06	1352.9	361.47	5.0157e-06	4.2675e-06	414.05	136.08	120.47	40.561	4.8654e-06	49.876	0.00065411	0.00072974	0.00020286	1371.7	7.561e-06	7.8088e-06	1375.7	369.35	8.0292e-06	8.1811e-06	423.94	138.83	122.8	41.716	7.5412e-06	51.517	163.305	-72.912	-96.911	-150.120	-57.542	-20.402	-150.496	-145.997	-59.234	-2.570	-146.113	-142.140	-141.986	-136.799	-41.130	-137.761	-8191	255	
609.963	1	1	0	0	0.24468	0.16218	0.156	0.30089	0.19519	0.095788	0.26941	0.12237	0.075039	0.15773	0.24133	0.13726	0.21318	0.10301	0.14683	0.3856	-3.0229	-2.8438	-3.1125	-3.4417	-2.925	-3.3396	-3.55	-3.1813	-3.3583	-3.1083	-3.1813	-3.4437	-3.0958	-3.6125	-3.1063	-3.0208	13.534	57.497	174.373	-151.947	106.988	175.207	-158.127	121.424	-140.857	174.867	-123.318	-52.797	119.893	-89.872	-139.524	168.716	0.0006236	0.00050796	0.00010273	1350.8	4.5687e-06	4.4694e-06	1352.3	361.89	5.7749e-06	3.9834e-06	417.28	135.84	120.01	40.543	5.218e-06	49.656	0.00065983	0.00072206	0.00020302	1370.6	7.5023e-06	7.6021e-06	1374.5	369.11	7.7092e-06	7.9262e-06	424.06	138.8	122.51	41.703	7.6671e-06	51.535	159.805	-91.355	-67.652	-150.239	-57.169	-16.949	-150.623	-145.920	-69.743	-27.308	-146.087	-142.388	-141.638	-136.462	-27.262	-137.265	-8191	255	
610.059	1	1	0	0	0.05901	0.06276	0.31118	0.35003	0.13031	0.034292	0.10275	0.063935	0.069066	0.29616	0.39204	0.024543	0.12282	0.18318	0.21924	0.11122	-3.1229	-2.9479	-3.0021	-3.4542	-3.0458	-3.4292	-3.5708	-3.1667	-3.4792	-3.3104	-3.1813	-3.4771	-3.1417	-3.2667	-3.4396	-2.8646	2.758	-96.999	-86.784	172.564	-46.773	178.631	147.603	152.160	-30.585	-103.330	139.545	194.838	117.332	-154.355	-144.527	170.284	0.00064094	0.00074791	0.00019513	1348.1	3.8111e-06	4.3884e-06	1351.7	362.77	5.535e-06	4.3964e-06	412.95	135.86	119.44	40.686	4.0367e-06	49.886	0.00066778	0.00072364	0.00020541	1368.1	8.0005e-06	7.9658e-06	1372.9	369.1	7.7906e-06	8.2686e-06	422.56	138.75	122.48	41.691	7.7851e-06	51.537	161.038	-67.375	-75.509	-150.254	-42.918	1.615	-150.577	-146.054	-54.959	0.152	-146.141	-142.110	-142.004	-136.555	-22.701	-137.417	-8191	255	
610.155	1	1	0	0	0.038273	0.085798	0.039834	0.1579	0.10878	0.18906	0.12389	0.2505	0.17985	0.11635	0.30165	0.25931	0.13467	0.2156	0.15784	0.12671	-2.9896	-3.1583	-2.9542	-3.5062	-3.0333	-3.1792	-3.3521	-2.9958	-3.2604	-3.1792	-2.9854	-3.5792	-3.1917	-3.0583	-3.35	-3.0812	-120.246	12.467	188.992	150.044	52.545	-39.286	-158.629	141.118	168.541	75.128	7.753	172.712	64.993	125.753	-81.787	13.722	0.00068014	0.00068716	0.00011765	1346.5	3.2712e-06	4.0535e-06	1342.9	362.34	4.6417e-06	5.7938e-06	413.62	135.45	119.71	40.535	3.7999e-06	49.758	0.0006654	0.00074718	0.00020375	1367.4	7.5377e-06	7.9561e-06	1369.5	369.14	7.9681e-06	8.3184e-06	422.84	138.57	122.46	41.638	7.5774e-06	51.523	163.133	-58.850	-71.762	-150.188	-40.385	-28.709	-150.416	-145.838	-56.962	-12.235	-146.006	-142.242	-141.720	-136.667	-42.547	-137.270	-8191	255	
610.252	1	1	0	0	0.075925	0.086778	0.31179	0.057681	0.094677	0.15885	0.39127	0.15593	0.13708	0.19591	0.034801	0.15848	0.12326	0.24718	0.060021	0.14862	-2.8646	-3.1542	-2.9688	-3.5417	-3.0062	-3.1458	-3.5708	-3.1	-3.3625	-3.1479	-2.8896	-3.3896	-3.35	-3.1521	-3.4688	-3.0146	106.813	-51.826	-18.842	-100.258	34.433	26.451	145.093	-106.909	180.782	-138.897	175.407	173.929	-112.785	-143.973	19.692	104.026	0.00069473	0.00053629	9.4987e-05	1346.8	4.2084e-06	2.963e-06	1350.4	362.77	6.0356e-06	6.9729e-06	416.06	135.23	119.74	40.526	4.1512e-06	49.737	0.00067702	0.00074058	0.00020604	1366.9	7.5357e-06	8.1359e-06	1372.3	368.78	7.6966e-06	7.9164e-06	423.88	138.72	122.4	41.682	7.9653e-06	51.439	160.146	-86.400	-74.697	-150.176	-47.375	-17.862	-150.521	-145.966	-58.204	-5.844	-145.997	-142.093	-141.830	-136.544	-49.501	-137.459	-8191	255	
610.348	1	1	0	0	0.091933	0.063452	0.064286	0.18342	0.17969	0.22644	0.26268	0.1004	0.098926	0.048679	0.089141	0.06158	0.239	0.25493	0.14257	0.25496	-2.8479	-3.1792	-2.7521	-3.6167	-3.0458	-3.0812	-3.6458	-3.0458	-3.2333	-3.3021	-3.0333	-3.2062	-3.2271	-3.0792	-3.4313	-2.9792	-139.389	193.758	163.773	-133.021	34.043	-89.582	122.139	107.934	118.597	-64.096	-127.210	75.532	-154.111	-103.448	21.524	71.373	0.00067072	0.00061019	0.00014162	1352.1	3.988e-06	4.9423e-06	1344.9	363.39	4.9203e-06	5.001e-06	415.36	135.51	119.51	40.571	4.4506e-06	49.799	0.00067119	0.00073799	0.00020998	1368.9	7.7698e-06	8.3523e-06	1372	369.21	8.1112e-06	8.3764e-06	423.29	138.42	122.25	41.635	7.8234e-06	51.48	159.185	-76.104	-57.339	-150.149	-58.420	-27.181	-150.467	-146.022	-65.284	0.970	-146.072	-142.329	-141.893	-136.529	-23.042	-137.336	-8191	255	
610.444	1	1	0	0	0.20721	0.07677	0.2429	0.22381	0.10888	0.31253	0.14244	0.22829	0.080164	0.067856	0.25058	0.090738	0.38017	0.27675	0.1036	0.15823	-2.8083	-3.4417	-2.7917	-3.4271	-3.2646	-3.0667	-3.5896	-3.1688	-3.1104	-3.2458	-2.9917	-3.1813	-3.1688	-3.075	-3.325	-3.1917	34.905	-93.244	60.966	123.592	194.576	124.381	80.573	-152.822	-96.372	22.123	167.720	161.047	190.014	151.051	15.451	10.113	0.00064183	0.00049883	0.0001833	1350.4	3.7381e-06	4.5029e-06	1347.5	362.66	4.8011e-06	3.6306e-06	413.37	135.39	119.47	40.547	6.5294e-06	49.86	0.00068018	0.0007413	0.00022761	1369	7.9485e-06	8.3287e-06	1372.3	368.98	8.053e-06	8.0692e-06	422.88	138.54	122.18	41.646	7.9544e-06	51.475	162.201	-89.947	-61.961	-150.150	-60.565	-24.569	-150.718	-145.756	-67.609	9.221	-146.316	-142.346	-141.514	-136.563	-47.201	-137.325	-8191	255	
610.538	1	1	0	0	0.1945	0.2098	0.1395	0.16744	0.044992	0.15038	0.085094	0.27935	0.099462	0.24347	0.18635	0.20346	0.22215	0.21011	0.089787	0.13212	-2.6583	-3.3771	-2.8187	-3.3917	-3.2792	-2.9833	-3.4813	-3.0833	-3.1063	-3.2146	-3.0917	-3.325	-3.3125	-2.9708	-3.2167	-3.2021	7.581	-121.156	-22.114	145.283	-105.996	-72.682	139.730	190.786	190.697	-129.421	149.365	-154.281	95.138	101.214	166.217	137.765	0.00061982	0.00022152	9.6826e-05	1350.2	2.4309e-06	3.1679e-06	1349.3	363.37	5.0926e-06	5.6833e-06	415.42	134.93	119.21	40.555	4.9441e-06	49.715	0.00068373	0.00073857	0.00021485	1368.2	7.9405e-06	8.2953e-06	1373	369.12	8.1526e-06	8.204e-06	423.67	138.38	122.23	41.635	8.1563e-06	51.404	162.671	-77.691	-103.643	-150.222	-75.813	-20.318	-150.513	-146.057	-63.953	-11.404	-146.159	-141.956	-141.554	-136.443	-48.486	-137.520	-8191	255	
610.636	1	1	0	0	0.25816	0.069817	0.11703	0.43838	0.13464	0.24219	0.35201	0.19446	0.14044	0.1038	0.16587	0.28315	0.11218	0.10545	0.064883	0.19432	-2.4542	-3.3396	-2.8417	-3.3708	-3.2188	-2.9667	-3.4208	-3.1667	-3.025	-3.3333	-3.0812	-3.4625	-3.3979	-2.9583	-3.3917	-3.2667	155.999	66.493	136.792	138.037	119.810	-101.348	145.067	170.564	-122.865	-127.131	194.464	91.586	184.165	101.950	138.474	-143.759	0.00062166	0.00052971	8.7425e-05	1350	3.9964e-06	5.6461e-06	1352.4	362.91	5.8967e-06	5.8288e-06	414.03	135.29	119.18	40.666	4.9669e-06	49.957	0.00067624	0.00075852	0.00020834	1368.6	7.8558e-06	8.4881e-06	1374.6	369.16	8.4656e-06	8.3503e-06	423.6	138.5	122.33	41.681	8.1107e-06	51.479	160.752	-75.855	-65.315	-150.195	-63.842	1.684	-150.607	-146.025	-57.765	-9.927	-146.252	-142.189	-141.706	-136.584	-30.300	-137.501	-8191	255	
610.753	1	1	0	0	0.09929	0.36946	0.19724	0.24708	0.11254	0.306	0.082183	0.11424	0.12158	0.24312	0.093532	0.15433	0.16979	0.23586	0.37457	0.17331	-2.5312	-3.3167	-3.025	-3.2604	-3.3083	-2.9083	-3.55	-3.3542	-2.9938	-3.3625	-3.1688	-3.0687	-3.3812	-3.0146	-3.0042	-3.2479	79.200	-129.947	191.916	144.372	138.950	46.292	141.687	-158.447	-93.325	-28.218	115.353	24.504	114.480	191.520	-13.715	18.659	0.00066498	0.00049231	8.8378e-05	1348.5	3.1782e-06	4.9151e-06	1343.5	361.84	6.5078e-06	4.7317e-06	412.2	135.23	119.39	40.422	4.4449e-06	49.847	0.00069655	0.00074603	0.00020899	1369	7.5297e-06	8.2294e-06	1370	369.22	8.1505e-06	8.1051e-06	422.33	138.55	122.18	41.612	8.0767e-06	51.346	162.846	-76.701	-77.540	-150.140	-54.575	0.036	-150.808	-145.844	-50.275	-15.951	-146.001	-142.187	-141.796	-136.625	-40.996	-137.408	-8191	255	
610.849	1	1	0	0	0.24997	0.098424	0.24511	0.48186	0.23196	0.075155	0.26298	0.048379	0.2198	0.03983	0.14829	0.17438	0.25566	0.11649	0.13505	0.20071	-2.2854	-3.4167	-3.0667	-3.2167	-3.3375	-3.0687	-3.5	-3.2604	-2.8333	-3.3521	-3.2729	-3.175	-3.6188	-2.9958	-3.175	-3.3021	-14.289	-86.121	-64.227	-138.642	162.793	-39.874	102.340	7.719	-82.547	152.737	194.213	136.699	176.783	-68.556	-108.400	160.236	0.00063329	0.00060274	0.00014172	1347.7	5.0403e-06	4.1803e-06	1346.7	362.81	5.491e-06	3.6487e-06	414.76	135.35	119.23	40.632	3.3022e-06	49.879	0.0006768	0.00076513	0.00021046	1368.5	7.8118e-06	8.4702e-06	1372.1	369.25	8.3351e-06	8.195e-06	422.88	138.4	122.21	41.674	7.9508e-06	51.44	160.590	-73.107	-74.450	-150.195	-51.996	-11.278	-150.640	-146.058	-70.981	-41.022	-146.006	-142.202	-141.710	-136.803	-31.643	-137.436	-8191	255	
610.947	1	1	0	0	0.1557	0.03883	0.26245	0.28716	0.17988	0.18749	0.2699	0.28631	0.12211	0.044709	0.12589	0.094798	0.10814	0.13043	0.11425	0.032721	-2.3208	-3.3625	-3.0854	-3.2375	-3.3312	-2.9958	-3.3042	-3.4562	-3.0625	-3.3063	-3.2396	-3.2417	-3.4708	-3.1146	-2.9813	-3.4292	90.085	-126.513	-83.003	184.506	-130.708	-22.660	65.038	118.765	23.247	-43.139	-158.107	92.621	117.520	183.435	126.882	-161.843	0.00066347	0.00039802	0.00017943	1352.3	4.586e-06	5.2553e-06	1350.5	363.42	4.4647e-06	4.9795e-06	414.1	135.6	119.67	40.538	5.0417e-06	50.062	0.00067911	0.00074144	0.00021101	1369	7.7698e-06	8.4027e-06	1373.3	369.24	8.119e-06	8.0349e-06	422.05	138.72	122.51	41.689	7.8524e-06	51.556	162.881	-60.814	-66.629	-150.190	-41.324	0.817	-150.559	-145.911	-57.307	-23.327	-146.157	-142.260	-141.994	-136.458	-30.755	-137.450	-8191	255	
611.042	1	1	0	0	0.40574	0.10763	0.16803	0.25319	0.075253	0.045274	0.32276	0.11983	0.11866	0.098297	0.12337	0.29983	0.18244	0.055578	0.079437	0.22292	-2.5875	-3.1688	-3.1979	-3.0292	-3.5604	-3.1333	-3.2833	-3.5417	-3.0875	-3.1854	-3.5208	-3.0917	-3.3896	-3.225	-3.0292	-3.5187	41.693	181.911	-115.969	-137.645	-129.928	-84.789	99.989	-35.014	-79.282	88.786	145.896	113.408	-151.447	187.006	29.985	154.352	0.00065257	0.00033671	0.0001487	1351.4	3.6702e-06	5.8327e-06	1352.2	363.4	4.6909e-06	4.5146e-06	414.17	135.23	119.83	40.584	4.2447e-06	49.794	0.00067645	0.00074883	0.00020593	1369.8	7.5717e-06	8.2807e-06	1374.4	369.49	8.1372e-06	8.1983e-06	423.3	138.68	122.49	41.653	7.9153e-06	51.502	162.892	-76.804	-62.501	-150.106	-43.864	-37.269	-150.659	-145.878	-56.536	-14.842	-146.116	-142.144	-141.793	-136.459	-40.749	-137.494	-8191	255	
611.138	1	1	0	0	0.24795	0.17793	0.1631	0.086397	0.16297	0.14099	0.11945	0.078983	0.10203	0.16331	0.3482	0.28026	0.18659	0.29046	0.25654	0.13265	-2.6125	-3.1458	-3.2146	-3.0062	-3.4021	-3.1104	-3.1188	-3.5083	-3.0604	-3.3438	-3.4604	-2.925	-3.2771	-3.1688	-3.025	-3.4229	37.660	193.643	-156.904	143.974	115.103	34.739	-161.500	174.446	3.656	18.132	156.914	122.205	194.180	157.560	-65.779	-96.501	0.00065817	0.0005385	0.00012439	1350.6	3.7851e-06	6.8271e-06	1348	362.97	5.1805e-06	5.3269e-06	415.56	135.43	119.39	40.573	5.2827e-06	49.957	0.0006762	0.00072055	0.00020126	1370.1	7.563e-06	8.0569e-06	1373.8	369.41	8.0965e-06	8.2964e-06	423.51	138.64	122.45	41.65	8.0195e-06	51.559	162.341	-62.306	-83.481	-150.183	-58.394	-22.605	-150.506	-145.967	-70.942	-10.953	-146.155	-142.241	-141.850	-136.384	-21.907	-137.556	-8191	255	
611.259	1	1	0	0	0.05332	0.091608	0.14887	0.3731	0.11173	0.18514	0.20562	0.24626	0.21379	0.25323	0.30448	0.21535	0.17638	0.13935	0.17113	0.051429	-2.5854	-3.2125	-3.3042	-3.0417	-3.4771	-3.1458	-2.9771	-3.4	-2.9979	-2.9688	-3.325	-3.0354	-3.425	-3.3354	-2.7667	-3.5812	-15.201	134.674	0.176	153.078	132.029	-131.785	135.077	128.029	151.059	31.544	124.027	148.798	-158.092	190.385	29.200	99.380	0.00067301	0.00066299	0.00013492	1353.6	3.4623e-06	4.7028e-06	1353	362.27	5.9553e-06	4.9599e-06	412.94	135.4	119.99	40.561	4.5605e-06	49.663	0.00067947	0.00072321	0.00020783	1370	7.8411e-06	7.9772e-06	1374.2	368.95	8.1695e-06	8.3045e-06	422.62	138.54	122.54	41.605	8.2924e-06	51.427	160.350	-63.546	-50.841	-150.179	-50.320	-16.313	-150.676	-145.784	-51.600	-7.583	-146.166	-142.274	-141.752	-136.445	-37.525	-137.494	-8191	255	
611.355	1	1	0	0	0.1656	0.083383	0.2009	0.20723	0.044991	0.16375	0.15862	0.14717	0.16217	0.21214	0.087553	0.083658	0.18664	0.1586	0.33749	0.14781	-2.6167	-3.1521	-3.3167	-3.2458	-3.1896	-3.3583	-3.0708	-3.4729	-3.2917	-3.0271	-3.6312	-3.1562	-3.2271	-3.4458	-2.7938	-3.4229	142.922	-58.774	84.238	151.732	-142.644	72.697	133.691	130.566	-70.345	156.382	44.661	-105.229	111.519	-134.860	-43.059	136.333	0.00066785	0.00045278	0.00016159	1351.8	4.0516e-06	4.4257e-06	1351	363.59	5.9799e-06	5.0365e-06	415.06	135.19	119.8	40.576	4.3367e-06	49.79	0.00067641	0.00074488	0.00019955	1369.2	7.6997e-06	8.1586e-06	1371.9	369.31	7.9253e-06	8.1934e-06	423.2	138.5	122.44	41.657	7.8726e-06	51.428	161.467	-93.825	-64.390	-150.211	-67.522	-33.640	-150.732	-146.043	-64.975	-10.646	-146.301	-142.305	-141.971	-136.464	-61.930	-137.638	-8191	255	
611.451	1	1	0	0	0.11465	0.10141	0.15562	0.11703	0.041672	0.030829	0.054993	0.30191	0.12109	0.089745	0.13842	0.26137	0.16875	0.12148	0.31551	0.2398	-2.7292	-3.0187	-3.4813	-3.2729	-3.1958	-3.3937	-2.9292	-3.3937	-3.2292	-2.9146	-3.4938	-3.1604	-3.3333	-3.3833	-2.8937	-3.4125	-155.072	-132.261	-26.340	52.484	89.143	-52.446	-114.197	153.611	-10.003	-97.911	-162.576	133.322	-111.459	-36.999	44.169	93.862	0.00067741	0.00045979	0.00015701	1352.8	3.5765e-06	5.1774e-06	1347.4	363.38	5.5009e-06	4.4692e-06	413.58	135.29	119.61	40.511	3.5974e-06	49.927	0.00067418	0.00074438	0.00020933	1369.7	7.8538e-06	8.1155e-06	1372.5	369.26	8.0263e-06	8.2269e-06	423.38	138.64	122.45	41.648	7.9132e-06	51.446	161.003	-70.667	-84.932	-150.096	-44.550	-22.124	-150.570	-145.691	-70.276	-9.172	-146.009	-142.300	-141.956	-136.407	-66.680	-137.439	-8191	255	
611.547	1	1	0	0	0.11586	0.068238	0.13891	0.043264	0.058468	0.043024	0.025737	0.14438	0.22274	0.18401	0.24524	0.081701	0.013336	0.11688	0.14487	0.14378	-2.7604	-3.1146	-3.3167	-3.2917	-3.1833	-3.4604	-3.0917	-3.5042	-3.2167	-3.0438	-3.35	-3.1562	-3.1417	-3.4354	-3.0062	-3.1063	6.862	36.094	50.293	-119.728	72.988	139.296	-97.013	85.692	-75.508	130.030	-44.989	-139.734	-30.009	192.200	-36.455	90.276	0.00065318	0.0004907	0.00017248	1353.7	2.9903e-06	5.475e-06	1353.8	362.66	5.4288e-06	4.1706e-06	414.71	135.13	119.68	40.567	4.223e-06	50.039	0.0006686	0.000739	0.0001985	1369.1	7.491e-06	7.8511e-06	1372.6	369.71	7.6952e-06	8.4181e-06	423.31	138.55	122.45	41.65	7.9588e-06	51.475	162.305	-90.923	-91.006	-150.058	-59.265	-11.026	-150.402	-145.844	-52.829	-44.468	-146.212	-142.180	-141.939	-136.467	-47.654	-137.299	-8191	255	
611.643	1	1	0	0	0.11311	0.20181	0.063413	0.40174	0.10507	0.22282	0.20828	0.070557	0.28099	0.076784	0.042435	0.1398	0.07317	0.30186	0.3144	0.05137	-2.6958	-2.7271	-3.2771	-3.4188	-3.0812	-3.4062	-3.2062	-3.1958	-3.2	-2.7167	-3.4062	-3.3542	-3.0417	-3.5042	-2.9771	-3.1979	-38.461	71.449	41.619	182.679	58.448	-98.835	-154.383	187.300	-10.997	191.016	8.459	175.379	117.207	114.912	-4.423	86.447	0.00062469	0.00045269	0.00015766	1346.7	3.535e-06	6.7927e-06	1346.9	361.95	6.3322e-06	3.2605e-06	413.33	135.23	119.32	40.589	5.5482e-06	50.041	0.00066554	0.00075587	0.00020149	1369.8	7.6804e-06	8.1139e-06	1372.9	368.79	7.9127e-06	8.1452e-06	423.11	138.58	122.24	41.671	7.8553e-06	51.497	160.994	-78.131	-64.794	-150.141	-56.557	-22.867	-150.482	-145.997	-61.261	-27.331	-146.178	-142.034	-141.716	-136.337	-31.834	-137.279	-8191	255	
611.739	1	1	0	0	0.19304	0.1421	0.26068	0.27015	0.10057	0.12075	0.073361	0.10899	0.13106	0.15984	0.085983	0.4045	0.12072	0.28871	0.13434	0.25535	-2.8021	-3.0229	-3.4083	-3.1229	-2.8292	-3.3542	-3.2896	-3.275	-3.4396	-2.8667	-3.5	-3.2792	-3.1833	-3.4604	-3.0667	-3.1229	-86.899	42.915	80.279	165.383	-142.072	-64.002	92.843	165.970	67.358	142.211	38.569	-132.916	117.958	104.532	-136.613	151.435	0.00066644	0.0004055	0.00012443	1351.4	3.2865e-06	3.5588e-06	1348.4	362.78	5.9377e-06	3.3976e-06	414.84	135.36	119.35	40.527	3.4244e-06	49.87	0.00066451	0.00076125	0.00020424	1370.7	7.9565e-06	8.1586e-06	1372.8	369.25	7.9709e-06	8.3879e-06	422.81	138.62	122.41	41.703	8.1679e-06	51.529	161.589	-75.036	-76.377	-150.249	-51.138	-16.863	-150.692	-146.071	-63.280	-15.918	-146.045	-141.850	-141.743	-136.430	-33.733	-137.346	-8191	255	
611.835	1	1	0	0	0.21018	0.1204	0.19722	0.15452	0.29647	0.097216	0.33233	0.33458	0.17527	0.21762	0.05553	0.22393	0.1982	0.32949	0.078535	0.14313	-2.8937	-2.7938	-3.125	-3.4	-2.9125	-3.2792	-3.1333	-3.1063	-3.3167	-2.9875	-3.2562	-3.3896	-3.0417	-3.3625	-3.1625	-3.1021	106.921	81.623	110.140	162.260	94.854	114.573	153.542	106.161	66.779	62.432	-57.970	124.872	172.072	94.986	-15.215	139.806	0.00065792	0.00053791	0.00012777	1351.7	3.179e-06	4.3831e-06	1347.1	364	6.044e-06	5.6248e-06	414.58	135.5	120.05	40.578	4.3341e-06	49.809	0.00067751	0.00072364	0.0001975	1370.1	7.8558e-06	8.122e-06	1373.4	369.73	8.1014e-06	8.1918e-06	422.96	138.8	122.55	41.631	7.8618e-06	51.44	161.591	-81.789	-74.333	-150.223	-49.538	-2.819	-150.581	-145.776	-59.261	-10.761	-145.970	-141.994	-141.670	-136.579	-29.890	-137.693	-8191	255	
611.930	1	1	0	0	0.2579	0.23853	0.048359	0.31337	0.057906	0.080697	0.23463	0.24845	0.020688	0.045809	0.089075	0.17785	0.1058	0.14202	0.061092	0.1955	-2.9813	-2.8271	-3.0896	-3.4958	-2.9354	-3.2854	-3.4229	-3.0375	-3.3729	-3.0292	-3.1917	-3.5875	-3.1312	-3.5438	-3.3771	-3.1	148.745	6.779	-149.008	137.219	15.095	-82.062	144.566	155.614	192.734	-80.617	-26.396	108.557	-114.850	-158.992	-84.130	124.033	0.00065198	0.0003179	0.00010696	1350.7	3.7706e-06	4.4918e-06	1349.1	363.05	5.0063e-06	3.6248e-06	414.65	135.83	119.56	40.542	4.7011e-06	49.827	0.00069442	0.00072364	0.00020555	1368.4	7.5944e-06	7.9137e-06	1374.1	369.46	7.9309e-06	7.9809e-06	423.2	138.79	122.45	41.634	7.8799e-06	51.485	162.996	-90.197	-61.757	-150.295	-48.567	-5.940	-150.548	-145.911	-67.552	-21.948	-146.057	-142.046	-141.661	-136.614	-37.481	-137.270	-8191	255	
612.028	1	1	0	0	0.19789	0.12712	0.29531	0.39556	0.19255	0.18884	0.21477	0.18885	0.08043	0.12484	0.21705	0.14307	0.39834	0.09005	0.060107	0.10368	-2.9562	-2.9729	-3.2583	-3.4333	-2.9313	-3.2938	-3.3979	-2.9688	-3.3563	-3.1208	-3.0625	-3.4104	-3.0021	-3.35	-3.1167	-2.9479	65.142	-79.807	121.406	160.610	-112.316	102.966	133.714	-10.359	148.157	82.296	63.692	-116.062	145.048	84.539	42.733	-129.608	0.0006469	0.00041735	0.00015067	1352.6	4.1358e-06	4.6765e-06	1347.2	361.91	4.1971e-06	3.9866e-06	415.54	135.33	119.39	40.534	4.3385e-06	49.83	0.00066359	0.0007563	0.00020232	1370.2	7.7871e-06	7.943e-06	1372.3	368.66	7.818e-06	8.2669e-06	423.54	138.58	122.38	41.636	7.9334e-06	51.435	163.233	-82.933	-69.808	-150.218	-59.330	-28.095	-150.610	-145.969	-75.894	-16.645	-146.090	-142.071	-141.936	-136.559	-24.479	-137.288	-8191	255	
612.147	1	1	0	0	0.26011	0.25562	0.14065	0.049719	0.2624	0.29309	0.21623	0.27693	0.16794	0.072504	0.088426	0.121	0.14305	0.067333	0.31168	0.11412	-2.9813	-3.1896	-3.0646	-3.6125	-3.0687	-3.1375	-3.6167	-2.9208	-3.4313	-2.8771	-2.9167	-3.6458	-3.1437	-3.1979	-3.325	-3.1417	-157.810	42.435	-98.691	149.565	132.108	5.740	113.305	149.845	-35.499	18.893	156.463	-16.692	135.063	-117.928	177.822	141.595	0.00063583	0.00048243	0.00012183	1348.6	4.4102e-06	5.6837e-06	1348.1	363.11	7.2829e-06	4.8877e-06	415.15	135.7	119.39	40.48	5.3695e-06	49.925	0.00066189	0.00072787	0.00020519	1368.9	7.8158e-06	8.1586e-06	1373.8	369.26	7.6727e-06	8.0324e-06	423.43	138.67	122.36	41.639	7.7373e-06	51.5	161.792	-76.710	-63.420	-150.128	-53.741	-1.900	-150.592	-145.975	-68.414	1.887	-145.985	-142.248	-141.931	-136.537	-41.168	-137.325	-8191	255	
612.243	1	1	0	0	0.086136	0.19845	0.14925	0.17415	0.090638	0.08817	0.18579	0.10154	0.1938	0.15807	0.066272	0.027965	0.092756	0.20582	0.11479	0.16798	-2.9667	-3.225	-3.0104	-3.6437	-3.0979	-3.1417	-3.4938	-2.9896	-3.2979	-3.1625	-2.9479	-3.4958	-3.15	-3.0667	-3.4688	-3.0146	-37.931	0.995	-152.641	125.653	-14.809	151.843	147.491	149.895	-5.823	-155.458	88.058	181.737	-71.175	-157.569	138.661	46.865	0.00064152	0.0004942	0.00016279	1348.4	3.5787e-06	5.0724e-06	1349	364.28	4.7735e-06	5.3315e-06	413.45	134.68	120.04	40.439	4.8171e-06	50.006	0.00065862	0.0007357	0.00020442	1368	7.8305e-06	8.1375e-06	1372.1	369.5	7.9548e-06	7.8804e-06	422.11	138.34	122.51	41.633	7.7026e-06	51.463	162.262	-89.140	-70.962	-150.116	-40.146	-4.727	-150.673	-145.854	-50.095	-18.976	-146.095	-142.110	-141.888	-136.408	-31.515	-137.616	-8191	255	
612.339	1	1	0	0	0.0637	0.2555	0.33066	0.042651	0.11449	0.17819	0.17175	0.19941	0.046781	0.15045	0.080296	0.13244	0.18383	0.059624	0.21903	0.1179	-2.9313	-3.2	-2.9229	-3.6167	-3.0292	-3.1937	-3.6958	-3.0938	-3.1813	-3.3917	-2.9042	-3.4604	-3.2167	-3.1979	-3.4729	-3.1458	-29.229	-88.580	-56.927	173.117	50.655	178.356	-134.261	81.692	-142.916	-112.758	35.597	137.458	-22.855	-127.833	-32.782	194.139	0.0006783	0.00054319	0.0001387	1350.7	4.1734e-06	4.4195e-06	1344.6	363.6	5.0962e-06	3.9435e-06	415.33	134.8	119.38	40.488	6.8817e-06	49.941	0.00065375	0.00072514	0.00020832	1369.2	7.7738e-06	7.943e-06	1372.6	369.52	7.8874e-06	7.8527e-06	422.83	138.54	122.3	41.564	7.8719e-06	51.438	161.378	-82.862	-72.735	-149.994	-52.439	-16.381	-150.675	-145.810	-59.319	3.819	-146.181	-141.993	-141.733	-136.519	-46.879	-137.487	-8191	255	
612.435	1	1	0	0	0.14319	0.11529	0.080684	0.40748	0.058495	0.11868	0.21047	0.13461	0.13074	0.0659	0.22979	0.040164	0.076707	0.21342	0.13399	0.27839	-2.925	-3.275	-2.9208	-3.6104	-3.0042	-3.0458	-3.6104	-3.025	-3.1833	-3.2104	-2.95	-3.3979	-3.2625	-3.3083	-3.6208	-3.1437	145.824	52.612	96.606	114.715	166.216	1.290	114.512	141.318	97.111	7.591	176.042	-64.576	31.842	118.321	102.167	112.137	0.00064292	0.00038909	0.00010677	1347.4	4.9373e-06	5.0673e-06	1349.1	362.03	5.3084e-06	4.2121e-06	413.24	135.45	119.71	40.539	5.8655e-06	50.027	0.00066654	0.00071502	0.00020543	1368.1	7.613e-06	7.9764e-06	1372.8	369.21	7.5303e-06	8.021e-06	423.21	138.63	122.39	41.597	7.8408e-06	51.522	160.284	-63.156	-68.528	-150.149	-51.068	-4.975	-150.531	-145.651	-49.122	-17.278	-145.823	-142.264	-141.685	-136.462	-38.371	-137.344	-8191	255	
612.531	1	1	0	0	0.22991	0.34999	0.091797	0.065051	0.10906	0.14286	0.14337	0.089446	0.22197	0.10104	0.019937	0.26163	0.19002	0.15473	0.14101	0.10109	-2.6729	-3.25	-2.8896	-3.3792	-3.1979	-3.0792	-3.6229	-3.1167	-3.1458	-3.4938	-2.8812	-3.35	-3.3438	-3.1396	-3.4542	-3.1125	-141.833	-101.382	-99.681	108.802	-132.383	62.136	105.620	-60.765	-69.536	46.391	-122.071	146.339	-158.264	169.228	126.820	105.461	0.00063257	0.00049687	0.00012598	1349.2	3.9958e-06	5.7522e-06	1350.6	362.8	5.8024e-06	4.873e-06	414.25	135.41	119.9	40.494	5.2994e-06	50.009	0.00066558	0.00071718	0.00020276	1370.6	7.6464e-06	8.1041e-06	1373.2	368.93	7.8993e-06	7.9515e-06	422.88	138.6	122.41	41.633	7.6939e-06	51.507	163.760	-63.452	-41.611	-150.247	-54.138	-5.354	-150.698	-145.854	-58.688	-9.054	-145.908	-142.055	-141.958	-136.471	-50.080	-137.480	-8191	255	
612.627	1	1	0	0	0.1289	0.18652	0.13296	0.19593	0.033919	0.52869	0.12824	0.12519	0.10022	0.24012	0.088095	0.18576	0.086164	0.2519	0.036886	0.29269	-2.5896	-3.4688	-2.9167	-3.3771	-3.3875	-2.8271	-3.5792	-3.225	-2.8812	-3.3729	-3.1604	-3.2458	-3.4292	-2.8667	-3.3625	-3.2125	80.083	139.761	-29.422	142.822	27.701	-90.956	110.938	19.798	67.214	166.523	118.591	-156.232	178.918	132.234	63.216	174.386	0.00063808	0.00044128	0.00014323	1351.3	3.479e-06	4.3834e-06	1344.3	363.73	4.5898e-06	5.953e-06	412.37	134.83	119.53	40.568	5.6893e-06	49.826	0.0006594	0.00071667	0.00020286	1370	7.4263e-06	7.9796e-06	1371.3	369.59	8.0369e-06	7.7481e-06	422.59	138.32	122.38	41.592	7.6454e-06	51.406	161.224	-69.178	-70.996	-150.090	-59.932	-6.804	-150.741	-145.902	-58.381	-13.130	-146.067	-142.098	-141.873	-136.456	-37.343	-137.412	-8191	255	
612.748	1	1	0	0	0.14518	0.193	0.38172	0.095507	0.2329	0.065809	0.21164	0.1421	0.14887	0.1324	0.33701	0.19924	0.27823	0.14219	0.11222	0.15947	-2.475	-3.4021	-2.9771	-3.2896	-3.3479	-2.9562	-3.4958	-3.475	-2.9583	-3.4708	-3.225	-2.9271	-3.5958	-3.0208	-3.2458	-3.3104	12.559	-127.734	166.691	126.685	-108.010	-98.420	-113.597	-44.832	-111.189	-91.015	107.638	-159.689	138.933	-10.796	-145.603	160.069	0.00062453	0.00053643	0.00015952	1352.9	3.8912e-06	5.2851e-06	1345.1	362.43	4.3436e-06	4.9665e-06	415.52	135.92	119.33	40.543	4.7297e-06	49.867	0.00066956	0.00071926	0.00019987	1371.2	7.4797e-06	7.8682e-06	1374	369.16	7.7604e-06	7.8706e-06	423.73	138.61	122.37	41.632	7.6223e-06	51.458	161.740	-75.158	-62.473	-150.286	-68.442	-17.364	-150.650	-145.758	-70.119	-1.776	-146.044	-142.223	-141.898	-136.599	-41.887	-137.193	-8191	255	
612.842	1	1	0	0	0.16546	0.13827	0.044195	0.24735	0.1485	0.23891	0.19255	0.1369	0.22337	0.12443	0.10397	0.10425	0.2425	0.023387	0.011941	0.25233	-2.6542	-3.3438	-3.1417	-3.2396	-3.5833	-2.9188	-3.4271	-3.4667	-3.0146	-3.4292	-3.0708	-3.2208	-3.4	-3.0833	-3.2333	-3.3521	-133.130	-33.702	44.953	153.463	149.790	185.051	98.751	130.241	-63.100	-153.765	130.008	51.463	-147.606	-157.717	-153.988	117.655	0.0006544	0.00049097	0.00011956	1350.9	4.0592e-06	5.9913e-06	1347.9	362.49	5.1678e-06	4.5221e-06	416.09	135.51	119.6	40.561	4.8471e-06	49.874	0.00066096	0.00072543	0.00020494	1371.8	7.415e-06	8.0935e-06	1374.2	369.53	7.8727e-06	7.8363e-06	423.27	138.73	122.4	41.717	7.6259e-06	51.49	161.895	-91.009	-69.222	-150.344	-71.710	-34.310	-150.478	-145.745	-63.293	-1.594	-145.969	-142.247	-141.864	-136.752	-40.556	-137.370	-8191	255	
#DATA ENDS
