BOXY.EXE: ISS Imagent and Oximeter Data Acquisition Program Version 0.80
Ascii Record File

#ACQ INFORMATION
2  Detector Channels 
16  External MUX Channels 
1  Auxiliary Channels 
5000  Waveform (CCF) Frequency (Hz)
1  Waveforms Skipped 
30  Waveforms Averaged 
1  Cycles Averaged 
16  Acquisitions per Waveform 
10.0806  Updata Rate (Hz) 

#FILE INFORMATION
TRUE -- External MUX Channel results are PARSED.
FALSE -- AC DC and Phase are NOT grouped.
TRUE -- Companion Program Settings File CREATED.
FALSE -- AC data not excluded
FALSE -- DC data not excluded
FALSE -- Phase data not excluded
FALSE -- Auxillary Chn. data not excluded
Tab delimiters

#CALIBRATION STATE
TRUE -- Waveform Calibration Values APPLIED.


#AUX CALIBRATION VALUES
Val Type	aux-1	

Term	1.0000e+00	
Factor	0.0000e+00	


#WF CALIBRATION VALUES
A = Detector Channel
Val Type	A-AC1	A-AC2	A-AC3	A-AC4	A-AC5	A-AC6	A-AC7	A-AC8	A-AC9	A-AC10	A-AC11	A-AC12	A-AC13	A-AC14	A-AC15	A-AC16	A-DC1	A-DC2	A-DC3	A-DC4	A-DC5	A-DC6	A-DC7	A-DC8	A-DC9	A-DC10	A-DC11	A-DC12	A-DC13	A-DC14	A-DC15	A-DC16	A-Ph1	A-Ph2	A-Ph3	A-Ph4	A-Ph5	A-Ph6	A-Ph7	A-Ph8	A-Ph9	A-Ph10	A-Ph11	A-Ph12	A-Ph13	A-Ph14	A-Ph15	A-Ph16	

Term	0.00000e+00	0.00000e+00	0.00000e+00	0.00000e+00	0.00000e+00	0.00000e+00	0.00000e+00	0.00000e+00	0.00000e+00	0.00000e+00	0.00000e+00	0.00000e+00	0.00000e+00	0.00000e+00	0.00000e+00	0.00000e+00	0.00000e+00	0.00000e+00	0.00000e+00	0.00000e+00	0.00000e+00	0.00000e+00	0.00000e+00	0.00000e+00	0.00000e+00	0.00000e+00	0.00000e+00	0.00000e+00	0.00000e+00	0.00000e+00	0.00000e+00	0.00000e+00	0.00000e+00	0.00000e+00	0.00000e+00	0.00000e+00	0.00000e+00	0.00000e+00	0.00000e+00	0.00000e+00	0.00000e+00	0.00000e+00	0.00000e+00	0.00000e+00	0.00000e+00	0.00000e+00	0.00000e+00	0.00000e+00	
Factor	1.00000e+00	1.00000e+00	1.00000e+00	1.00000e+00	1.00000e+00	1.00000e+00	1.00000e+00	1.00000e+00	1.00000e+00	1.00000e+00	1.00000e+00	1.00000e+00	1.00000e+00	1.00000e+00	1.00000e+00	1.00000e+00	1.00000e+00	1.00000e+00	1.00000e+00	1.00000e+00	1.00000e+00	1.00000e+00	1.00000e+00	1.00000e+00	1.00000e+00	1.00000e+00	1.00000e+00	1.00000e+00	1.00000e+00	1.00000e+00	1.00000e+00	1.00000e+00	X	X	X	X	X	X	X	X	X	X	X	X	X	X	X	X	

B = Detector Channel
Val Type	B-AC1	B-AC2	B-AC3	B-AC4	B-AC5	B-AC6	B-AC7	B-AC8	B-AC9	B-AC10	B-AC11	B-AC12	B-AC13	B-AC14	B-AC15	B-AC16	B-DC1	B-DC2	B-DC3	B-DC4	B-DC5	B-DC6	B-DC7	B-DC8	B-DC9	B-DC10	B-DC11	B-DC12	B-DC13	B-DC14	B-DC15	B-DC16	B-Ph1	B-Ph2	B-Ph3	B-Ph4	B-Ph5	B-Ph6	B-Ph7	B-Ph8	B-Ph9	B-Ph10	B-Ph11	B-Ph12	B-Ph13	B-Ph14	B-Ph15	B-Ph16	

Term	0.00000e+00	0.00000e+00	0.00000e+00	0.00000e+00	0.00000e+00	0.00000e+00	0.00000e+00	0.00000e+00	0.00000e+00	0.00000e+00	0.00000e+00	0.00000e+00	0.00000e+00	0.00000e+00	0.00000e+00	0.00000e+00	0.00000e+00	0.00000e+00	0.00000e+00	0.00000e+00	0.00000e+00	0.00000e+00	0.00000e+00	0.00000e+00	0.00000e+00	0.00000e+00	0.00000e+00	0.00000e+00	0.00000e+00	0.00000e+00	0.00000e+00	0.00000e+00	-1.66874e+02	-1.31149e+02	-1.23274e+02	-1.81197e+02	-8.08868e+01	-6.69930e+01	-1.55623e+02	-1.62015e+02	-8.55906e+01	-6.15622e+01	-1.70159e+02	-1.69445e+02	-1.78137e+02	-1.75061e+02	-7.32031e+01	-1.48439e+02	
Factor	2.75494e-05	1.84498e-04	5.05242e-05	1.55230e-01	1.47176e-06	1.96328e-06	1.79019e-01	6.63743e-02	1.70374e-06	1.96810e-06	1.39122e-01	2.85069e-02	2.34487e-02	9.27554e-03	1.78204e-06	1.36717e-02	1.70489e-05	3.44555e-05	9.70341e-06	7.75244e-02	3.20128e-07	3.90521e-07	8.40011e-02	3.32531e-02	3.36799e-07	3.92224e-07	6.72449e-02	1.38968e-02	1.19525e-02	4.70239e-03	3.47354e-07	6.70891e-03	X	X	X	X	X	X	X	X	X	X	X	X	X	X	X	X	



#DISTANCE SETTINGS
A = Detector Channel
A-1	A-2	A-3	A-4	A-5	A-6	A-7	A-8	A-9	A-10	A-11	A-12	A-13	A-14	A-15	A-16	

2.5000e+00	3.0000e+00	2.5000e+00	3.0000e+00	2.0000e+00	3.0000e+00	1.5000e+00	3.0000e+00	3.0000e+00	3.0000e+00	3.0000e+00	3.0000e+00	3.0000e+00	3.0000e+00	1.5000e+00	3.0000e+00	

B = Detector Channel
B-1	B-2	B-3	B-4	B-5	B-6	B-7	B-8	B-9	B-10	B-11	B-12	B-13	B-14	B-15	B-16	

1.0000e+01	1.0000e+01	1.0000e+01	1.4400e+00	1.0000e+01	1.0000e+01	1.5100e+00	1.9400e+00	1.0000e+01	1.0000e+01	1.9900e+00	2.4900e+00	2.4100e+00	2.9000e+00	1.0000e+01	2.9800e+00	




#DATA BEGINS
time	group	step	mark	flag	A-AC1	A-AC2	A-AC3	A-AC4	A-AC5	A-AC6	A-AC7	A-AC8	A-AC9	A-AC10	A-AC11	A-AC12	A-AC13	A-AC14	A-AC15	A-AC16	A-DC1	A-DC2	A-DC3	A-DC4	A-DC5	A-DC6	A-DC7	A-DC8	A-DC9	A-DC10	A-DC11	A-DC12	A-DC13	A-DC14	A-DC15	A-DC16	A-Ph1	A-Ph2	A-Ph3	A-Ph4	A-Ph5	A-Ph6	A-Ph7	A-Ph8	A-Ph9	A-Ph10	A-Ph11	A-Ph12	A-Ph13	A-Ph14	A-Ph15	A-Ph16	B-AC1	B-AC2	B-AC3	B-AC4	B-AC5	B-AC6	B-AC7	B-AC8	B-AC9	B-AC10	B-AC11	B-AC12	B-AC13	B-AC14	B-AC15	B-AC16	B-DC1	B-DC2	B-DC3	B-DC4	B-DC5	B-DC6	B-DC7	B-DC8	B-DC9	B-DC10	B-DC11	B-DC12	B-DC13	B-DC14	B-DC15	B-DC16	B-Ph1	B-Ph2	B-Ph3	B-Ph4	B-Ph5	B-Ph6	B-Ph7	B-Ph8	B-Ph9	B-Ph10	B-Ph11	B-Ph12	B-Ph13	B-Ph14	B-Ph15	B-Ph16	aux-1	digaux	

558.656	1	1	0	768	0.060572	0.099124	0.070093	0.16967	0.059784	0.29684	0.4421	0.35294	0.31668	0.12271	0.14944	0.18439	0.10795	0.3146	0.1256	0.27994	-2.7125	-3.2896	-2.9104	-3.5021	-3.4354	-2.9646	-3.575	-3.4458	-3.1479	-3.4979	-3.2354	-3.3083	-3.425	-3.1292	-3.4542	-3.4125	-155.616	-40.044	-4.944	170.221	-61.552	72.585	112.259	-134.969	-144.810	-73.531	4.679	184.237	-125.034	144.322	127.145	93.491	0.00070506	0.00058339	0.00017035	1389.1	3.4217e-06	4.8824e-06	1396	380.46	6.6749e-06	5.8683e-06	432.24	146.49	127.66	44.22	4.4416e-06	53.938	0.00057781	0.00048618	0.0001403	1408.1	5.3521e-06	5.3957e-06	1412.8	386.18	5.8498e-06	5.1153e-06	440.47	149.8	130.36	45.343	5.206e-06	55.534	162.104	-74.179	-78.981	-150.980	-44.729	-31.966	-151.342	-146.621	-69.211	-1.622	-146.765	-142.993	-142.781	-137.930	-24.842	-138.306	-8191	255	
558.752	1	1	0	0	0.30618	0.19141	0.10876	0.23776	0.24361	0.21326	0.18778	0.15597	0.11757	0.23508	0.29205	0.07156	0.11965	0.11545	0.11333	0.28676	-2.5833	-3.4833	-3.0896	-3.5667	-3.5646	-2.9938	-3.4833	-3.3646	-3.2271	-3.5542	-3.2375	-3.4917	-3.6125	-3.2333	-3.6354	-3.3833	-150.333	150.579	-127.553	124.174	-24.758	59.647	-145.365	120.767	17.321	-153.434	-151.546	194.714	71.523	69.644	-91.487	106.120	0.00071477	0.00054584	0.0001426	1394.9	4.1436e-06	5.519e-06	1389.9	380.69	5.3328e-06	4.667e-06	434.43	146.27	127.45	44.296	5.4548e-06	53.838	0.00057526	0.00047642	0.00013282	1414.2	5.3588e-06	5.259e-06	1415.4	386.45	5.2407e-06	5.0752e-06	440.66	149.79	130.32	45.309	5.0844e-06	55.488	163.171	-78.343	-75.118	-150.906	-57.554	-9.042	-151.242	-146.800	-53.775	-2.429	-147.216	-143.062	-142.617	-137.655	-49.096	-138.307	-8191	255	
558.848	1	1	0	0	0.043789	0.14342	0.09252	0.082008	0.0785	0.044542	0.29157	0.24605	0.11421	0.28448	0.2296	0.16389	0.044635	0.52852	0.10318	0.036842	-2.6458	-3.4458	-3.3208	-3.4375	-3.4021	-3.1042	-3.6542	-3.6292	-3.2167	-3.5604	-3.175	-3.2208	-3.7479	-3.0854	-3.4208	-3.4271	90.959	-141.911	11.136	36.157	-39.642	64.047	157.851	50.183	-140.016	116.581	-143.940	-114.275	-152.876	156.440	188.596	59.457	0.0006803	0.00059576	0.00011547	1396.3	4.0475e-06	4.2375e-06	1390.1	382.2	5.4692e-06	5.213e-06	435.01	147.09	128.26	44.466	4.192e-06	54.171	0.00055462	0.00045941	0.0001243	1413.7	4.9693e-06	5.1175e-06	1416.9	387.84	5.2646e-06	4.7729e-06	443.12	150.35	131.16	45.638	5.0931e-06	55.774	159.030	-82.073	-76.404	-150.922	-38.001	-29.693	-151.347	-146.669	-68.497	-13.345	-147.102	-143.043	-142.522	-137.798	-16.382	-138.528	-8191	255	
558.944	1	1	0	0	0.11446	0.16777	0.1567	0.27656	0.2402	0.18757	0.16136	0.1503	0.25091	0.12646	0.23277	0.14759	0.16325	0.10445	0.086182	0.22878	-2.6479	-3.6437	-3.4062	-3.4583	-3.4062	-3.1104	-3.6396	-3.5646	-2.9396	-3.3667	-3.2375	-3.1083	-3.4625	-3.1396	-3.2375	-3.4938	-105.122	22.675	127.881	154.688	51.705	62.518	-116.489	147.633	-76.642	164.163	-83.942	139.052	130.761	-104.929	123.994	59.198	0.00069432	0.00058798	0.00017014	1401.9	3.5897e-06	6.2454e-06	1397.6	381.88	6.1153e-06	5.3546e-06	430.34	146.01	127.15	43.939	6.2981e-06	53.637	0.00056599	0.00044799	0.00012354	1420	5.1721e-06	5.176e-06	1419.2	387.61	5.5474e-06	5.1455e-06	440.69	149.55	130.09	45.114	5.3666e-06	55.226	161.227	-76.618	-73.528	-150.843	-50.885	-19.238	-151.162	-146.699	-64.467	-9.886	-147.171	-143.127	-142.596	-137.752	-46.563	-138.307	-8191	255	
559.040	1	1	0	0	0.14734	0.19312	0.17391	0.33666	0.20394	0.017091	0.19062	0.25817	0.1372	0.1395	0.2357	0.16571	0.29498	0.27663	0.1938	0.16202	-2.6292	-3.4521	-3.1896	-3.2458	-3.5187	-3.2854	-3.3937	-3.6042	-3.0938	-3.4896	-3.4021	-3.2292	-3.6562	-3.3854	-3.0729	-3.4521	111.153	177.782	81.954	122.788	-158.335	137.303	98.884	-146.433	-53.076	8.861	-149.288	187.668	126.319	125.793	-8.453	-13.974	0.00069114	0.00053153	0.00012723	1392.3	4.4953e-06	3.633e-06	1387.7	376.92	5.6561e-06	4.5259e-06	428.51	144.9	125.99	43.609	4.3542e-06	53.395	0.00057394	0.00045768	0.00013257	1411.8	5.3321e-06	4.8945e-06	1411.3	384.01	5.6814e-06	5.1406e-06	437.28	148.27	128.93	44.779	5.2899e-06	55.015	162.667	-80.106	-72.635	-150.826	-56.227	-8.552	-151.261	-146.535	-74.253	-10.859	-146.920	-143.186	-142.669	-137.610	-33.778	-138.251	-8191	255	
559.136	1	1	0	0	0.13269	0.17725	0.28714	0.42498	0.28487	0.35034	0.18139	0.10839	0.15054	0.20463	0.09221	0.27718	0.11738	0.18927	0.093511	0.043747	-2.7	-3.4854	-3.5062	-3.1583	-3.5417	-3.2687	-3.3667	-3.5667	-3.1292	-3.3667	-3.4333	-3.1917	-3.5958	-3.3479	-3.0854	-3.7083	-9.167	116.018	24.620	148.135	-83.346	-26.575	160.140	145.225	-67.302	181.668	-131.176	-162.536	-87.929	-154.553	-39.517	-79.297	0.00071114	0.00048211	0.00012547	1389.4	4.1624e-06	4.78e-06	1382.3	375.21	6.5404e-06	5.0348e-06	425.86	144.34	125.06	43.158	3.9324e-06	52.726	0.00057334	0.00046221	0.00013304	1408.3	5.1007e-06	4.9824e-06	1407	381.95	5.7523e-06	5.0384e-06	434.13	147.11	127.69	44.354	5.4983e-06	54.42	162.085	-92.695	-72.068	-150.898	-45.917	-15.064	-151.369	-146.581	-63.786	-4.415	-146.833	-143.111	-142.358	-137.400	-34.402	-138.573	-8191	255	
559.257	1	1	0	0	0.1248	0.12087	0.067722	0.31549	0.30407	0.029968	0.17158	0.15219	0.18843	0.10326	0.15566	0.22292	0.11145	0.062505	0.074515	0.20297	-2.5917	-3.2812	-3.4062	-3.1625	-3.4833	-3.1729	-3.3667	-3.5312	-3.1708	-3.0917	-3.4562	-3.2625	-3.4917	-3.2458	-2.9146	-3.5542	-142.842	177.346	118.845	189.103	6.121	70.866	53.462	148.523	58.881	-30.309	140.686	146.563	119.174	158.855	145.303	-159.989	0.00071046	0.00040161	0.00012783	1383.4	3.5099e-06	3.8945e-06	1371.9	370.64	5.9936e-06	5.2212e-06	424.69	142.02	123.63	42.899	5.3671e-06	52.262	0.00057316	0.00046623	0.00013565	1399.2	5.1381e-06	5.4868e-06	1396	378.48	5.8112e-06	5.4895e-06	431.76	145.36	126.58	44.066	5.6959e-06	53.926	161.447	-89.172	-76.065	-150.869	-45.982	-25.470	-151.175	-146.636	-57.879	-5.853	-146.619	-143.099	-142.493	-137.319	-31.327	-138.332	-8191	255	
559.351	1	1	0	0	0.16694	0.11646	0.26346	0.13301	0.21113	0.072878	0.19333	0.22357	0.096581	0.20837	0.1237	0.15137	0.049599	0.10335	0.26713	0.047944	-2.7104	-3.1792	-3.3833	-3.175	-3.2854	-3.2708	-3.2521	-3.6667	-3.2625	-3.0604	-3.5542	-3.1896	-3.5771	-3.4646	-3.0979	-3.5604	-53.471	-51.967	138.510	153.425	192.920	-81.697	56.697	150.095	152.993	-17.204	40.950	-64.549	44.764	149.351	-22.475	93.946	0.00069485	0.00044543	0.00011134	1375.1	3.338e-06	5.957e-06	1370.6	370.24	5.7576e-06	4.4409e-06	419.34	141.89	123.09	42.999	5.0029e-06	52.18	0.00056261	0.00048496	0.00013508	1392.9	5.4088e-06	5.2639e-06	1391.8	376.75	5.5951e-06	5.1806e-06	428.56	145.22	126	44.054	5.6105e-06	53.661	163.156	-95.435	-70.978	-150.974	-37.790	-25.215	-151.310	-146.682	-68.372	-9.268	-146.694	-142.842	-142.358	-137.408	-38.225	-138.294	-8191	255	
559.448	1	1	0	0	0.12235	0.067299	0.090589	0.24873	0.090362	0.11623	0.019021	0.1456	0.15595	0.15277	0.27512	0.13609	0.18126	0.15155	0.045069	0.13245	-2.7333	-2.975	-3.3875	-3.2292	-3.2708	-3.3958	-3.2333	-3.5792	-3.175	-3.35	-3.3958	-3.2188	-3.2896	-3.5771	-3.0125	-3.4688	-33.852	-106.975	-161.024	141.038	90.178	23.934	171.726	170.299	37.581	43.953	-154.355	133.892	161.088	-147.941	-102.007	167.589	0.00066743	0.00033916	0.00011915	1363.4	4.0874e-06	5.1115e-06	1358	366.05	5.3769e-06	5.1491e-06	416.91	139.66	122.01	42.516	4.433e-06	51.23	0.00056126	0.00049056	0.0001292	1384	5.5235e-06	5.3762e-06	1381.1	372.64	5.6779e-06	5.7902e-06	424.62	142.85	124.25	43.405	5.9e-06	52.892	160.010	-72.350	-64.562	-150.890	-50.445	-17.235	-151.215	-146.616	-74.429	-13.110	-147.128	-142.944	-142.212	-137.440	-35.595	-138.347	-8191	255	
559.544	1	1	0	0	0.10147	0.23676	0.19048	0.34456	0.10694	0.10101	0.11123	0.035315	0.083579	0.22861	0.063104	0.039069	0.13786	0.14912	0.10748	0.22078	-3.0187	-3	-3.5479	-3.3333	-3.1729	-3.4958	-3.3312	-3.4771	-3.2438	-3.0833	-3.5021	-3.4896	-3.3042	-3.5354	-3.1771	-3.4396	58.215	166.701	-141.306	135.362	141.433	94.989	74.147	-125.514	-113.700	7.498	127.117	118.037	-48.843	-157.755	67.562	124.110	0.00066673	0.00061589	0.00012498	1357.7	2.9041e-06	5.4697e-06	1351.7	364.16	6.2654e-06	5.1277e-06	413.7	138.31	121.05	42.124	5.0367e-06	51.28	0.00058098	0.00052487	0.00014339	1376.1	5.8463e-06	5.7545e-06	1374.3	370.76	6.0245e-06	6.0484e-06	422.32	142.11	123.6	43.268	6.0071e-06	52.881	162.911	-86.868	-73.987	-150.894	-40.697	-16.265	-151.183	-146.694	-55.715	-8.059	-146.873	-142.824	-142.261	-137.227	-43.995	-138.129	-8191	255	
559.640	1	1	0	0	0.28481	0.13932	0.1198	0.27509	0.058464	0.071553	0.2529	0.24073	0.12878	0.21345	0.1529	0.28419	0.10689	0.059553	0.03414	0.14478	-3.0521	-3.2	-3.5521	-3.2979	-3.1063	-3.6354	-3.1354	-3.3708	-3.3875	-2.9708	-3.6937	-3.2167	-3.1937	-3.7083	-3.1167	-3.3104	5.123	-161.763	143.917	185.970	12.914	-7.464	113.601	168.576	183.119	-126.233	-102.790	73.426	116.696	139.938	28.499	152.915	0.00067541	0.00058181	0.00010897	1360.1	4.3673e-06	4.5094e-06	1350.9	364.77	6.5071e-06	3.5052e-06	413.1	138.51	121.04	42.107	5.2964e-06	51.202	0.00058986	0.0005706	0.00014507	1379.4	6.1638e-06	6.1173e-06	1375.5	371.18	6.3543e-06	6.0885e-06	423.25	142.07	123.87	43.299	6.0736e-06	52.863	161.765	-72.424	-74.957	-150.854	-52.481	-25.248	-151.145	-146.534	-64.115	5.328	-146.728	-142.700	-142.374	-137.223	-43.229	-138.302	-8191	255	
559.736	1	1	0	0	0.052534	0.13048	0.13005	0.34275	0.15857	0.13846	0.2605	0.11118	0.038312	0.043475	0.29231	0.22362	0.10475	0.13463	0.067455	0.1861	-2.9208	-2.9188	-3.4562	-3.375	-3.0292	-3.5271	-3.2479	-3.2667	-3.4458	-3.1063	-3.4125	-3.3146	-3.1521	-3.6833	-3.1063	-3.2958	76.653	17.410	148.975	155.299	80.411	-6.164	121.001	44.567	113.184	73.377	136.165	150.158	-105.393	117.726	3.259	-86.603	0.00069752	0.00053783	0.00013807	1363	3.6573e-06	4.7845e-06	1348.5	364.37	6.6705e-06	5.2252e-06	412.94	138.64	121.15	42.32	5.5524e-06	51.185	0.00060843	0.00056873	0.00015645	1379.6	6.2932e-06	5.8993e-06	1373.8	370.57	6.2434e-06	6.2592e-06	422.92	142.13	123.89	43.385	6.3349e-06	52.806	161.698	-85.240	-83.038	-150.849	-46.845	-26.981	-151.230	-146.480	-56.826	-28.870	-146.647	-143.094	-142.262	-137.385	-51.181	-137.980	-8191	255	
559.857	1	1	0	0	0.25496	0.24516	0.22007	0.35211	0.077072	0.28704	0.24161	0.25638	0.31207	0.043391	0.084003	0.14905	0.12327	0.06149	0.1447	0.084991	-2.9167	-2.9771	-3.2687	-3.5271	-3.0646	-3.5792	-3.1937	-3.3792	-3.6479	-3.0438	-3.3083	-3.6104	-2.8625	-3.4813	-3.2792	-3.2938	-100.530	-123.887	64.940	173.785	192.168	-86.643	150.600	190.158	118.416	165.315	162.791	-119.012	-83.515	-130.947	-109.288	81.043	0.00066088	0.00047822	0.00014082	1359	3.3283e-06	4.0726e-06	1347.7	364.39	4.3888e-06	5.5434e-06	414.95	139.69	121.37	42.25	5.4733e-06	51.431	0.00059984	0.00055739	0.00015224	1376.6	6.1565e-06	5.9831e-06	1372.3	370.37	6.1333e-06	6.323e-06	422.81	142.57	124.09	43.425	6.2365e-06	53.085	162.144	-72.363	-52.978	-150.940	-60.437	14.775	-151.265	-146.457	-68.493	-4.365	-147.216	-142.828	-142.493	-137.256	-44.798	-138.223	-8191	255	
559.953	1	1	0	0	0.14327	0.098	0.017106	0.22182	0.31544	0.14575	0.29746	0.15866	0.2106	0.076015	0.19416	0.12105	0.15356	0.16384	0.088121	0.074001	-3.1854	-3.1437	-3.3	-3.475	-3.0354	-3.3292	-3.4333	-3.1104	-3.5687	-2.925	-3.4396	-3.4875	-3.1458	-3.3896	-3.3125	-3.1521	36.563	148.797	74.738	192.162	140.688	118.386	182.616	192.662	-119.502	111.366	94.723	82.863	159.916	92.079	-99.066	195.190	0.00067407	0.0004542	0.00013625	1360.9	3.2072e-06	4.4518e-06	1354.2	365.95	6.1603e-06	3.76e-06	415.12	139.63	121.48	42.396	5.1594e-06	51.341	0.00058815	0.00056744	0.00015622	1376.9	6.4126e-06	5.7903e-06	1374.6	372.02	6.0834e-06	5.9422e-06	424.6	142.98	124.47	43.609	6.3667e-06	53.162	161.045	-82.720	-66.164	-150.992	-64.081	-10.131	-151.307	-146.537	-77.230	-27.999	-146.844	-142.888	-142.487	-137.327	-30.725	-138.164	-8191	255	
560.049	1	1	0	0	0.026329	0.17219	0.046039	0.38773	0.13868	0.0037227	0.20271	0.25305	0.022576	0.068329	0.096387	0.20243	0.20209	0.26787	0.10585	0.1886	-3.2542	-3.0312	-3.3812	-3.7062	-3.0083	-3.4771	-3.4792	-3.3187	-3.6271	-3.0625	-3.2708	-3.4917	-3.1729	-3.5438	-3.2917	-3.0938	64.110	192.422	-61.799	165.909	-106.839	164.098	124.427	157.219	179.217	2.981	150.588	181.132	185.645	51.012	108.345	161.809	0.00066464	0.00058443	0.0001454	1357.4	3.3989e-06	5.7245e-06	1349.3	365.42	5.7852e-06	4.7792e-06	416.66	140.15	121.85	42.629	5.1309e-06	51.718	0.00058822	0.00056378	0.00015756	1374.1	6.1771e-06	6.1751e-06	1372.5	371.4	6.188e-06	6.1424e-06	424.12	143.09	124.66	43.705	6.1735e-06	53.359	159.611	-65.779	-76.960	-150.901	-38.175	-6.497	-151.277	-146.568	-63.366	-3.301	-146.876	-143.150	-142.553	-137.260	-49.303	-138.104	-8191	255	
560.145	1	1	0	0	0.15705	0.12694	0.39746	0.25539	0.35259	0.13419	0.13275	0.1652	0.053199	0.13894	0.21984	0.21399	0.5774	0.096416	0.14625	0.22082	-3.1437	-3.175	-3.1792	-3.7667	-2.9271	-3.5083	-3.5021	-2.9958	-3.4042	-3.0958	-3.4167	-3.7687	-3.1729	-3.3812	-3.2479	-3.075	71.108	-89.944	-137.676	179.826	-27.541	20.872	139.956	156.841	-62.138	67.610	193.821	176.184	155.141	-81.364	89.283	103.954	0.00067292	0.00057651	0.00012867	1360	4.1651e-06	4.0788e-06	1353.8	365.5	4.9857e-06	6.2506e-06	416.83	140.42	122.4	42.719	3.8935e-06	51.88	0.00058602	0.00055165	0.00015	1376.8	6.1304e-06	5.7691e-06	1375.8	372.91	5.9452e-06	5.9765e-06	425.1	143.86	125.27	43.795	5.7096e-06	53.466	161.867	-58.969	-82.115	-150.888	-39.685	-13.516	-151.463	-146.651	-66.183	-8.639	-146.832	-142.964	-142.384	-137.357	-37.506	-138.294	-8191	255	
560.217	1	1	0	0	0.18897	0.10748	0.049154	0.15466	0.23555	0.20097	0.32109	0.14399	0.10588	0.14776	0.042668	0.034304	0.17836	0.17178	0.27852	0.14229	-3.1083	-3.1208	-3.1167	-3.8292	-3.0792	-3.2771	-3.6417	-3.0667	-3.5312	-3.1562	-3.1458	-3.7062	-3.1458	-3.4062	-3.3354	-3.0708	123.735	-153.748	-78.408	135.093	11.627	-20.808	136.085	189.582	83.749	31.957	12.347	-131.387	112.983	-57.401	-52.900	38.424	0.00067531	0.0004344	0.00016874	1361.2	4.7325e-06	4.3437e-06	1352	366.81	6.8411e-06	4.0495e-06	417.56	140.99	123.08	42.74	4.95e-06	51.762	0.00058954	0.00053334	0.00015131	1378.1	5.943e-06	5.9432e-06	1376.1	373.43	5.9613e-06	5.9692e-06	425.5	144.19	125.59	43.878	6.1373e-06	53.449	161.183	-93.931	-64.172	-150.992	-39.878	-8.044	-151.396	-146.456	-62.710	0.920	-146.853	-142.911	-142.458	-137.470	-31.699	-138.359	-8191	255	
560.336	1	1	0	0	0.10765	0.24717	0.10423	0.21422	0.14885	0.064153	0.38533	0.19371	0.03719	0.12266	0.09587	0.3134	0.11252	0.15034	0.044675	0.30379	-2.8937	-3.2542	-3.2333	-3.6833	-3.2292	-3.2542	-3.725	-3.2417	-3.4771	-3.4688	-3.1021	-3.7062	-3.2354	-3.3187	-3.3375	-3.2562	64.151	104.396	138.026	124.018	181.617	-34.423	140.908	-142.732	63.915	-131.624	-129.450	103.537	-157.696	3.624	155.173	151.086	0.00064826	0.00047775	0.00015709	1363.2	4.4819e-06	3.7896e-06	1350.9	368.8	5.7424e-06	4.6288e-06	419.64	141.08	123.18	42.888	5.077e-06	51.754	0.0005895	0.00055811	0.00015734	1380.7	6.1298e-06	6.1133e-06	1378.2	374.67	5.9838e-06	6.0975e-06	427.09	144.38	125.73	43.923	6.0823e-06	53.543	163.161	-71.264	-64.648	-150.875	-54.546	-20.821	-151.259	-146.721	-72.444	-12.850	-146.697	-142.815	-142.718	-137.406	-16.664	-138.315	-8191	255	
560.432	1	1	0	0	0.21299	0.16383	0.21915	0.066426	0.1137	0.095418	0.24743	0.085971	0.34163	0.098279	0.26917	0.18181	0.086522	0.39783	0.098711	0.10189	-2.85	-3.1375	-2.8083	-3.5042	-3.0229	-3.1604	-3.7375	-3.1542	-3.3021	-3.3792	-3.1	-3.6333	-3.4042	-3.1417	-3.3646	-3.1479	128.770	62.048	-83.648	161.576	-143.791	195.428	118.199	-38.479	-69.655	-93.689	-123.891	162.706	-135.735	170.110	-48.408	-136.919	0.00069963	0.00060042	0.00014595	1364.8	4.3363e-06	4.9638e-06	1353.5	367.82	5.8053e-06	5.2796e-06	420.04	142.11	123.35	42.894	4.7736e-06	52.272	0.00059714	0.00055287	0.00016059	1383.9	6.1198e-06	6.2394e-06	1379.7	374.57	6.3466e-06	5.9324e-06	427.73	144.76	126.09	44.012	5.9137e-06	53.836	159.894	-69.634	-82.421	-150.851	-67.498	-24.982	-151.234	-146.560	-74.881	-6.698	-147.036	-142.744	-142.499	-137.356	-40.834	-138.226	-8191	255	
560.528	1	1	0	0	0.12002	0.28252	0.093973	0.23742	0.16984	0.21709	0.10789	0.247	0.05419	0.27225	0.055376	0.20906	0.10284	0.21549	0.10572	0.13772	-2.7167	-3.2708	-3.0396	-3.4646	-3.2479	-3.1625	-3.8271	-3.2083	-3.2125	-3.3833	-3.0896	-3.3583	-3.2562	-3.0563	-3.5917	-3.2896	-36.647	41.743	95.772	164.094	-143.513	178.184	147.682	-128.964	-108.771	9.581	-84.094	167.450	105.667	14.269	-151.902	-40.246	0.00071906	0.00043355	0.00013769	1371.9	4.7162e-06	6.0561e-06	1366.7	371.74	3.6774e-06	3.5208e-06	424.43	142.8	124.95	43.415	4.8987e-06	52.64	0.00060971	0.00055782	0.00015843	1391	5.9984e-06	6.1645e-06	1391	378.04	5.9691e-06	5.97e-06	431.32	146.16	127.49	44.468	6.0476e-06	54.298	162.199	-86.734	-59.886	-150.894	-51.110	-21.071	-151.408	-146.613	-67.029	-19.294	-146.868	-143.027	-142.506	-137.576	-30.336	-138.374	-8191	255	
560.624	1	1	0	0	0.15132	0.11757	0.11942	0.23846	0.24843	0.12195	0.16622	0.23446	0.089316	0.19721	0.029749	0.194	0.040988	0.36942	0.046236	0.065357	-2.7062	-3.3937	-2.9188	-3.5875	-3.3771	-2.9437	-3.7354	-3.2458	-3.1146	-3.4229	-3.2167	-3.3563	-3.5375	-3.1771	-3.4229	-3.2896	66.847	74.307	-41.290	139.307	50.451	63.215	160.177	113.243	-102.740	115.381	14.455	-64.915	-127.705	168.117	159.143	175.709	0.00067864	0.00047511	0.00012141	1374.3	3.3661e-06	2.7437e-06	1364.9	371.81	6.7564e-06	5.2469e-06	420.66	142	123.89	42.98	6.9286e-06	52.1	0.00060179	0.0005538	0.00015382	1393.3	5.8757e-06	6.3932e-06	1390.4	377.89	6.3894e-06	6.1718e-06	430.12	145.36	126.47	44.15	6.1735e-06	53.861	160.592	-84.403	-72.918	-150.757	-49.486	-7.629	-151.192	-146.628	-51.143	-14.990	-146.617	-142.918	-142.522	-137.667	-47.195	-138.428	-8191	255	
560.745	1	1	0	0	0.254	0.0769	0.095268	0.08288	0.14229	0.20126	0.042027	0.21144	0.10258	0.17377	0.23824	0.36498	0.29729	0.24939	0.06683	0.28157	-2.6021	-3.4271	-3.1312	-3.5542	-3.4104	-2.9688	-3.6625	-3.3792	-3.1979	-3.6396	-3.2188	-3.4354	-3.4479	-3.2042	-3.5438	-3.5042	164.377	-118.446	105.105	124.270	130.401	141.227	191.352	137.955	-67.159	91.526	109.859	155.532	159.980	181.246	168.305	91.111	0.00068802	0.0005142	0.00013528	1377.3	4.2545e-06	5.6613e-06	1365.1	373.21	5.7e-06	5.0315e-06	423.63	143.05	124.27	43.52	5.9285e-06	52.598	0.00061635	0.00056658	0.00015944	1391.5	6.1211e-06	6.2866e-06	1390.5	378.52	6.3859e-06	6.0468e-06	431.53	146.11	127.13	44.528	5.9825e-06	54.205	161.817	-70.899	-85.993	-151.058	-35.608	-21.545	-151.214	-146.624	-61.133	-8.885	-147.096	-142.929	-142.513	-137.265	-46.130	-138.565	-8191	255	
560.816	1	1	0	0	0.12624	0.14448	0.093366	0.24987	0.095217	0.17738	0.32701	0.061225	0.33257	0.29258	0.19263	0.076169	0.015184	0.25373	0.15838	0.23592	-2.6583	-3.3563	-2.8937	-3.3771	-3.3875	-3.2	-3.5583	-3.3583	-2.8563	-3.4021	-3.3771	-3.4104	-3.4646	-2.9896	-3.1958	-3.3792	14.110	-118.326	-69.224	75.160	64.847	64.349	119.729	153.254	-154.712	145.261	-159.740	86.452	2.048	136.853	83.291	76.533	0.00071446	0.00045086	0.00012251	1377.9	3.8007e-06	5.5087e-06	1371.8	372.93	5.0995e-06	4.9992e-06	423.44	143.81	125.23	43.511	4.1824e-06	53.011	0.00060836	0.0005332	0.00014899	1394.4	6.0678e-06	5.8977e-06	1393	379.09	6.3171e-06	5.7665e-06	432.77	146.68	127.87	44.61	6.0042e-06	54.483	160.576	-82.520	-60.218	-150.792	-45.065	-11.579	-151.373	-146.729	-54.565	-0.160	-146.706	-142.974	-142.581	-137.496	-37.881	-138.188	-8191	255	
560.937	1	1	0	0	0.035344	0.11881	0.054441	0.13663	0.017172	0.057612	0.14763	0.24375	0.18942	0.12065	0.16839	0.22426	0.20326	0.038486	0.24009	0.11357	-2.7417	-3.25	-3.2333	-3.1813	-3.4583	-3.0125	-3.4354	-3.6229	-2.9708	-3.2396	-3.4437	-3.3104	-3.5563	-3.2667	-3.2104	-3.425	88.099	122.835	-92.167	120.036	80.405	-109.437	161.232	169.471	-117.978	99.645	190.050	114.064	91.641	69.756	81.090	161.320	0.0007	0.00048911	0.0001502	1380.7	3.4616e-06	4.3363e-06	1378.3	375.92	5.0005e-06	4.7893e-06	426.23	145.1	126.61	44.307	6.0843e-06	53.611	0.00059646	0.00051238	0.00014814	1397.7	5.6783e-06	5.6756e-06	1399.2	381.93	5.9957e-06	5.3865e-06	435.39	148.61	129.28	45.412	5.6908e-06	55.285	161.180	-69.829	-75.105	-150.847	-49.645	-4.552	-151.361	-146.616	-73.608	13.450	-147.007	-143.026	-142.579	-137.549	-27.549	-138.182	-8191	255	
561.033	1	1	0	0	0.16779	0.091759	0.14721	0.042796	0.21573	0.078076	0.22923	0.19386	0.11868	0.030122	0.14468	0.21547	0.4354	0.19944	0.18927	0.13539	-2.6333	-3.3083	-3.0521	-3.1688	-3.3396	-2.9813	-3.4188	-3.6958	-3.0333	-3.4479	-3.4229	-3.1208	-3.525	-3.2583	-3.2042	-3.6208	90.918	-86.368	194.081	139.137	-41.401	-15.948	152.381	145.424	-130.261	81.861	148.915	-162.259	129.277	195.037	173.727	144.553	0.00067031	0.00060702	0.00016343	1388	3.9452e-06	3.632e-06	1385.9	378.86	6.3659e-06	5.2237e-06	432.47	147.5	128.99	44.945	4.1318e-06	54.63	0.00058336	0.0004991	0.0001445	1405.9	5.2308e-06	5.5421e-06	1408.5	385.64	5.5726e-06	5.0973e-06	440.15	150.65	131.61	46.041	5.2805e-06	56.251	159.782	-81.345	-68.924	-150.856	-51.621	-22.130	-151.422	-146.744	-64.810	-2.480	-146.993	-143.046	-142.465	-137.687	-37.413	-138.633	-8191	255	
561.129	1	1	0	0	0.14785	0.16559	0.048886	0.49553	0.1735	0.20571	0.17492	0.25117	0.14316	0.085927	0.071607	0.2244	0.23205	0.090464	0.18352	0.063982	-2.6	-3.3771	-3.4167	-3.1771	-3.5	-3.1229	-3.3583	-3.5812	-3.0354	-3.45	-3.4604	-3.0396	-3.5375	-3.2667	-3.05	-3.7271	-22.998	-31.996	-74.503	155.825	8.092	152.630	140.017	135.676	-115.723	-36.572	-139.926	-69.755	177.594	143.848	94.760	136.965	0.00071984	0.00044363	0.00014957	1399.7	3.2506e-06	5.0532e-06	1397.9	384.15	6.2042e-06	4.1037e-06	435.66	149.77	130.45	45.635	5.8184e-06	55.271	0.00057838	0.00044964	0.00013271	1415.2	5.0213e-06	5.0963e-06	1420.2	390.63	5.5179e-06	4.9396e-06	444.09	152.87	133.24	46.759	5.4043e-06	56.976	160.980	-81.226	-71.507	-150.767	-64.098	-10.284	-151.346	-146.884	-61.506	-13.168	-146.755	-143.070	-142.855	-137.951	-40.825	-138.417	-8191	255	
561.225	1	1	0	0	0.077682	0.026539	0.26938	0.04411	0.089254	0.17285	0.26827	0.12741	0.054792	0.18529	0.11694	0.20602	0.26355	0.20709	0.12032	0.14788	-2.5167	-3.2333	-3.3792	-3.1104	-3.4417	-3.1521	-3.2521	-3.4292	-2.8667	-3.3187	-3.3229	-3.1271	-3.4688	-3.3167	-3.0417	-3.6771	9.681	159.248	-113.468	-137.076	154.099	-88.024	149.996	156.446	-117.632	-159.209	120.463	192.474	111.269	-136.419	-134.723	164.761	0.00069722	0.00045498	0.00016262	1407.3	3.386e-06	4.946e-06	1402.5	385.61	6.7365e-06	5.0026e-06	440.14	150.42	131.79	45.96	4.6636e-06	55.647	0.00056695	0.00044986	0.00012916	1424.8	5.2641e-06	4.98e-06	1426.5	393.13	5.3004e-06	4.853e-06	447.92	153.99	134.62	47.192	5.2139e-06	57.25	160.948	-74.808	-67.100	-150.908	-42.729	-3.057	-151.124	-146.787	-68.733	-9.774	-147.181	-142.992	-142.609	-137.802	-30.293	-138.757	-8191	255	
561.344	1	1	0	0	0.065916	0.1519	0.10034	0.19945	0.044018	0.092535	0.23721	0.010459	0.077605	0.24935	0.13513	0.22134	0.13341	0.12647	0.027158	0.1815	-2.7354	-3.2292	-3.4771	-3.1583	-3.3396	-3.2604	-3.2458	-3.6208	-3.2646	-3.25	-3.5167	-2.9896	-3.4646	-3.3771	-2.9562	-3.4375	81.139	-125.513	30.305	158.893	-117.662	75.150	113.291	-153.771	-44.175	-79.801	-152.951	88.602	170.452	173.080	-164.325	99.625	0.00071303	0.00047653	0.00012788	1408.4	4.7611e-06	4.6972e-06	1400.5	388.09	5.749e-06	4.5461e-06	437.37	150.17	131.33	45.938	6.2433e-06	55.444	0.00055824	0.0004256	0.00012699	1426.6	5.1087e-06	5.1402e-06	1426.1	393.78	5.3439e-06	4.8799e-06	447	153.87	134.22	47.076	5.2943e-06	57.138	164.005	-83.973	-66.519	-151.015	-58.525	-24.064	-151.162	-146.779	-59.240	-16.991	-146.730	-143.047	-142.697	-137.695	-36.021	-138.660	-8191	255	
561.440	1	1	0	0	0.074607	0.15711	0.30708	0.24123	0.064254	0.42928	0.16622	0.31467	0.14823	0.18825	0.1832	0.082034	0.21864	0.22881	0.25582	0.14277	-2.7687	-3.0542	-3.3917	-3.2833	-3.3042	-3.3958	-3.0083	-3.5375	-3.2875	-3.1458	-3.5062	-3.075	-3.4167	-3.4354	-2.9521	-3.5896	-127.844	13.638	-66.870	-128.363	28.306	66.167	160.426	169.825	134.248	-10.216	162.490	148.858	142.297	-141.868	191.729	18.337	0.00070649	0.00050848	0.00015953	1406.6	4.2257e-06	5.0796e-06	1404.7	385.94	5.6259e-06	4.4913e-06	440.02	150.32	131.45	45.894	5.0303e-06	55.44	0.00056272	0.00045969	0.00012046	1423.7	5.2188e-06	4.7668e-06	1426	393.09	5.2127e-06	4.8137e-06	447.64	154.17	134.39	47.12	5.13e-06	57.214	160.499	-85.576	-67.038	-150.823	-36.594	-15.312	-151.274	-146.631	-68.989	-23.366	-146.929	-143.062	-142.892	-137.697	-50.295	-138.568	-8191	255	
561.537	1	1	0	0	0.073365	0.15055	0.32617	0.46246	0.080505	0.17639	0.2606	0.11061	0.091667	0.28805	0.11361	0.25213	0.14408	0.22579	0.31717	0.14346	-2.8229	-2.9979	-3.3854	-3.1125	-3.1646	-3.4042	-3.2396	-3.5667	-3.2708	-3.1708	-3.5312	-3.2562	-3.3521	-3.4625	-3.0396	-3.4333	49.782	-23.186	-102.210	126.105	-127.523	84.368	95.826	-156.731	13.144	178.994	-113.598	168.786	176.351	-89.596	-67.899	179.638	0.00071647	0.000619	0.00015002	1402.5	4.5803e-06	4.6185e-06	1403.6	386.57	6.9539e-06	5.0268e-06	437.89	149.99	130.78	45.559	4.8355e-06	54.996	0.00055679	0.00047197	0.00012509	1423	5.1327e-06	4.5951e-06	1423.5	392.2	5.0562e-06	5.0777e-06	445.61	153.33	133.68	46.803	5.0714e-06	56.896	162.178	-96.201	-79.291	-150.883	-50.870	-14.211	-151.316	-146.722	-68.357	-5.494	-147.142	-143.080	-142.606	-137.888	-28.732	-138.473	-8191	255	
561.633	1	1	0	0	0.24332	0.080966	0.1458	0.057114	0.071704	0.29141	0.27759	0.33732	0.24447	0.24087	0.11489	0.32565	0.15834	0.18242	0.19845	0.2725	-3.0042	-2.9146	-3.3146	-3.3937	-3.1792	-3.3583	-3.1917	-3.6437	-3.2896	-3.0583	-3.5	-3.175	-3.3312	-3.4854	-3.0938	-3.4396	-143.177	-115.448	-134.758	42.968	55.379	-162.275	56.284	144.935	147.255	156.301	-28.936	134.986	-55.185	-139.837	88.214	177.898	0.00069795	0.00054283	0.00016327	1398.1	3.9198e-06	4.2141e-06	1401.4	386.31	6.0656e-06	5.4475e-06	437.23	149.8	130.18	45.605	5.1604e-06	55.153	0.00057099	0.00044196	0.00011953	1417.9	5.1234e-06	4.7692e-06	1420.9	391.69	5.3965e-06	4.6446e-06	444.63	153.02	133.35	46.719	5.0533e-06	56.786	162.997	-81.223	-75.253	-150.839	-58.660	-18.041	-151.336	-146.538	-59.242	-6.474	-146.885	-143.127	-142.826	-137.974	-44.333	-138.740	-8191	255	
561.729	1	1	0	0	0.25239	0.055299	0.30452	0.13144	0.097764	0.19553	0.36559	0.096874	0.086763	0.045523	0.085876	0.35067	0.1601	0.27722	0.037737	0.031146	-2.9146	-2.9188	-3.4646	-3.525	-3.1146	-3.4979	-3.125	-3.2479	-3.3792	-2.9958	-3.5062	-3.3583	-3.0979	-3.7479	-2.9813	-3.1312	-50.470	181.428	163.194	152.630	-116.744	164.465	106.614	-141.063	174.992	178.132	-54.914	162.070	-133.260	143.108	169.850	-85.078	0.00071834	0.00051852	0.00016457	1395.9	4.6884e-06	5.2713e-06	1395.6	385.85	6.7279e-06	5.1775e-06	435.3	149.19	129.79	45.378	5.0023e-06	54.847	0.00056006	0.00046479	0.00012214	1417.1	5.2061e-06	4.4804e-06	1418.6	390.92	5.125e-06	4.7917e-06	443.76	152.41	132.81	46.512	5.1271e-06	56.502	161.861	-77.757	-71.106	-150.784	-44.316	-11.001	-151.301	-146.684	-66.088	-16.872	-146.670	-143.015	-142.637	-137.796	-30.320	-138.423	-8191	255	
561.825	1	1	0	0	0.042356	0.10553	0.24953	0.20266	0.163	0.19618	0.34524	0.085345	0.078256	0.28537	0.26689	0.16093	0.19671	0.14103	0.12316	0.078887	-2.95	-2.9792	-3.4604	-3.5563	-2.9979	-3.4417	-3.1083	-3.3979	-3.3729	-2.8354	-3.45	-3.4896	-2.9646	-3.5187	-3.1979	-3.1396	-8.449	189.716	113.798	167.936	-32.585	169.435	93.615	27.923	30.647	141.330	119.408	150.960	102.795	193.875	148.089	99.806	0.0007161	0.00050728	0.00013217	1396.2	3.5454e-06	5.443e-06	1388.7	382.29	5.9799e-06	5.4746e-06	434.45	147.82	129.34	45.125	4.1407e-06	54.203	0.00056719	0.00042495	0.00012525	1413.8	5.3875e-06	4.8823e-06	1412.9	388.73	5.2323e-06	5.1095e-06	442.45	151.35	132.11	46.147	5.1459e-06	56.066	159.756	-82.436	-76.791	-150.986	-50.583	19.441	-151.211	-146.746	-65.909	-0.068	-146.845	-143.167	-142.635	-137.431	-25.847	-138.279	-8191	255	
561.921	1	1	0	0	0.27773	0.27771	0.094537	0.16016	0.20597	0.029017	0.31147	0.065262	0.10298	0.022587	0.13193	0.068119	0.06685	0.16793	0.15105	0.061535	-3.0125	-3.0187	-3.3333	-3.7708	-3.0125	-3.4896	-3.5021	-3.0979	-3.6312	-2.9708	-3.3937	-3.5792	-3.1688	-3.5854	-3.2375	-3.2646	136.058	192.832	49.679	185.866	-93.115	-91.246	146.602	192.263	-107.362	106.013	172.062	-19.531	158.487	-126.027	-95.019	-104.550	0.000713	0.0006171	0.00012798	1391.1	3.3885e-06	4.4076e-06	1386.4	381.24	5.8281e-06	4.4698e-06	430.73	147.57	128.12	44.685	4.4989e-06	54.093	0.00057377	0.00047943	0.00013187	1409.8	5.5375e-06	5.2411e-06	1408.7	387.16	5.3362e-06	5.3808e-06	440.27	150.69	131.29	45.836	5.371e-06	55.832	160.276	-82.098	-74.831	-150.756	-41.203	-23.107	-151.259	-146.591	-72.035	-4.989	-146.803	-143.065	-142.509	-137.635	-50.587	-138.374	-8191	255	
562.042	1	1	0	0	0.26602	0.036296	0.14415	0.1374	0.20501	0.091317	0.18069	0.26461	0.10457	0.21732	0.26479	0.22435	0.099967	0.072139	0.10977	0.079646	-3.0646	-2.9167	-3.2771	-3.5771	-3.025	-3.4938	-3.4938	-3.0646	-3.6833	-3.2354	-3.3583	-3.6375	-3.1167	-3.5708	-3.3458	-3.15	-76.471	126.780	-28.453	149.334	-23.100	-116.681	133.582	139.660	-67.808	168.575	108.094	179.293	60.034	156.478	-128.054	194.246	0.00073143	0.00038706	0.00013799	1391.1	3.2611e-06	5.0499e-06	1384.5	377.99	6.2269e-06	5.843e-06	429.22	145.28	126.96	44.113	5.7953e-06	53.176	0.00057551	0.00050147	0.00013318	1406	5.3935e-06	5.3306e-06	1404.2	384.43	5.6386e-06	5.4437e-06	436.8	148.76	129.65	45.169	5.6669e-06	55.021	160.078	-82.174	-77.606	-150.897	-56.156	-17.879	-151.232	-146.659	-76.723	-18.310	-146.907	-143.252	-142.601	-137.507	-25.986	-138.234	-8191	255	
562.114	1	1	0	0	0.18141	0.23989	0.051056	0.065631	0.12513	0.14631	0.091933	0.20255	0.26305	0.19522	0.25257	0.10621	0.0045782	0.28204	0.17028	0.28584	-3.1917	-3.125	-3.2167	-3.5896	-3.0792	-3.3042	-3.4688	-3.2562	-3.3688	-3.1458	-3.2208	-3.8104	-3.2521	-3.3083	-3.4062	-3.2562	-84.281	-81.902	-53.259	92.700	1.536	-13.171	126.095	179.463	140.252	-41.984	97.878	-159.142	108.241	147.245	-83.030	103.328	0.00069505	0.00062608	0.00012667	1376.6	4.4913e-06	4.9937e-06	1371.3	373.98	5.9649e-06	5.0551e-06	424.33	142.9	124.76	43.305	5.2885e-06	52.638	0.00058009	0.00051525	0.00014727	1395.8	5.777e-06	5.5853e-06	1394.1	380.39	5.7333e-06	6.0925e-06	432.29	146.39	127.55	44.477	5.9166e-06	54.289	161.576	-63.613	-79.629	-150.827	-59.317	-21.442	-151.339	-146.441	-71.764	-2.320	-146.751	-143.009	-142.426	-137.662	-42.840	-138.163	-8191	255	
562.210	1	1	0	0	0.094317	0.12891	0.19742	0.37645	0.055459	0.22998	0.22691	0.33089	0.15377	0.22162	0.1745	0.1709	0.16571	0.18283	0.11871	0.20517	-3.1646	-3.1063	-3.1521	-3.5833	-3.1167	-3.1188	-3.6312	-3.1458	-3.4042	-3.1458	-3.1	-3.5354	-3.1396	-3.4104	-3.3833	-2.9875	71.724	78.415	143.459	191.049	73.215	-10.185	-162.956	84.227	38.889	156.325	-135.650	76.899	72.599	94.035	103.631	111.904	0.00067857	0.00051059	0.00014505	1367.8	3.9592e-06	5.2685e-06	1361.7	370.62	4.7817e-06	5.8105e-06	421.4	140.73	123.4	42.873	4.9088e-06	52.1	0.00059184	0.00054598	0.00015358	1386.5	6.1698e-06	5.9318e-06	1384.8	376.8	6.2069e-06	6.3924e-06	428.86	144.72	126.32	44.027	6.1677e-06	53.703	160.725	-65.477	-70.822	-150.852	-50.903	-31.163	-151.247	-146.509	-70.550	-1.832	-146.981	-142.987	-142.389	-137.271	-36.638	-138.167	-8191	255	
562.306	1	1	0	0	0.13116	0.10413	0.23342	0.21107	0.21741	0.18307	0.20819	0.14007	0.075773	0.23155	0.074347	0.13833	0.32405	0.20693	0.18481	0.29624	-3.0729	-3.2354	-3.1104	-3.7979	-3.1813	-3.2083	-3.5271	-2.9208	-3.2646	-3.2292	-3.0625	-3.7646	-3.2583	-3.2104	-3.475	-3.1292	46.436	130.122	190.314	163.498	155.558	-83.647	154.598	133.349	131.484	88.320	77.885	158.005	157.438	-143.220	130.847	85.489	0.00065225	0.00047186	0.00017852	1366.7	3.6049e-06	5.6885e-06	1356.9	368.93	6.065e-06	5.4114e-06	418.41	140.78	122.73	42.683	4.0279e-06	51.686	0.0005966	0.0005767	0.00016528	1384.6	6.1791e-06	6.3834e-06	1381.3	375.1	6.515e-06	6.3091e-06	427.01	143.9	125.54	43.749	6.6128e-06	53.393	159.987	-84.111	-67.801	-150.931	-63.563	-17.882	-151.161	-146.553	-59.868	-3.616	-146.744	-142.763	-142.492	-137.447	-27.774	-138.235	-8191	255	
562.425	1	1	0	0	0.024555	0.11994	0.14921	0.336	0.17713	0.1533	0.32414	0.17685	0.057088	0.07964	0.17374	0.50468	0.082702	0.25355	0.24436	0.26052	-3.0333	-3.2729	-2.8792	-3.7458	-3.1354	-3.2979	-3.5417	-3.1542	-3.1604	-3.4625	-3.0604	-3.4771	-3.4021	-3.1979	-3.575	-3.1688	-64.721	-17.314	-84.941	169.310	-39.298	190.170	148.039	44.214	-115.165	119.772	-102.556	184.110	-107.824	134.118	-73.260	134.719	0.00067298	0.0005529	0.00011089	1360.9	4.6093e-06	6.0338e-06	1354.3	366.96	4.8015e-06	5.1966e-06	415.81	140.64	122.44	42.393	5.3707e-06	51.487	0.00060676	0.00059917	0.0001673	1379.1	6.68e-06	6.7145e-06	1378.1	373.42	6.7311e-06	6.6335e-06	425.5	143.48	124.85	43.473	6.6728e-06	53.19	161.660	-88.079	-52.496	-150.860	-57.965	-15.397	-151.181	-146.614	-81.632	-11.729	-146.776	-142.929	-142.372	-137.390	-37.179	-138.143	-8191	255	
562.521	1	1	0	0	0.24642	0.068557	0.11889	0.26754	0.14736	0.036494	0.21839	0.28621	0.35897	0.11371	0.14132	0.22519	0.32975	0.12032	0.18543	0.28244	-2.8479	-3.3729	-2.8708	-3.5458	-3.2062	-3.0542	-3.7125	-3.2521	-3.3125	-3.4813	-3.175	-3.4167	-3.4167	-3.0979	-3.5042	-3.1583	-140.456	-108.216	152.865	145.136	76.770	-126.287	-163.170	-153.119	37.129	131.731	-129.515	89.554	189.356	-155.138	150.631	-163.525	0.0006639	0.00051919	0.0001114	1363.5	3.6915e-06	3.9726e-06	1353.8	366.65	5.1416e-06	4.7543e-06	416.6	140.02	122.34	42.378	5.9614e-06	51.557	0.0006285	0.0005963	0.00017268	1381.2	6.744e-06	7.0147e-06	1378.3	373.09	7.1935e-06	6.6645e-06	425.27	143.34	124.89	43.475	6.7488e-06	53.236	162.353	-91.873	-83.494	-150.939	-41.409	1.674	-151.336	-146.678	-65.984	-27.353	-146.676	-142.889	-142.231	-137.262	-55.149	-138.080	-8191	255	
562.617	1	1	0	0	0.32788	0.087499	0.094087	0.17266	0.15196	0.19049	0.38967	0.06327	0.23124	0.14814	0.18985	0.087797	0.026269	0.018596	0.10417	0.19671	-2.7208	-3.1708	-2.8833	-3.3729	-3.4146	-3.0938	-3.5312	-3.3479	-3.1437	-3.4771	-3.0583	-3.4917	-3.3958	-3.1083	-3.425	-3.2896	-70.807	-50.210	34.612	69.649	97.273	-4.672	116.435	-100.148	-148.859	120.979	81.160	43.333	163.393	179.473	158.975	140.012	0.00070774	0.000357	0.00015988	1364.9	2.683e-06	5.4656e-06	1354.5	366.66	5.3653e-06	5.0199e-06	418.45	140.58	122.28	42.408	5.1042e-06	51.615	0.00064068	0.00062386	0.0001744	1382.7	6.4192e-06	6.7064e-06	1378.6	373.18	6.8391e-06	6.6229e-06	425.35	143.71	125.07	43.476	6.6432e-06	53.227	162.511	-82.964	-80.324	-150.812	-55.630	-25.298	-151.094	-146.431	-68.673	-32.293	-146.942	-142.898	-142.357	-137.485	-28.307	-138.288	-8191	255	
562.713	1	1	0	0	0.2027	0.15596	0.05043	0.18705	0.11617	0.13926	0.1855	0.24427	0.15487	0.23518	0.22555	0.082577	0.23326	0.084181	0.099012	0.21829	-2.5917	-3.45	-2.8875	-3.4458	-3.425	-3.0396	-3.6958	-3.175	-2.9979	-3.4688	-3.1354	-3.2667	-3.5417	-3.1125	-3.2562	-3.3375	-114.166	41.661	-4.394	120.425	-65.003	99.251	138.712	71.870	-110.731	-62.103	97.429	-84.632	-147.023	-15.415	-134.375	88.555	0.0007081	0.00045524	0.00013926	1363.4	3.5016e-06	5.4091e-06	1359.1	366.35	7.4995e-06	5.8907e-06	419.23	140.22	122.02	42.551	4.7075e-06	51.472	0.00062548	0.0005884	0.00016928	1381.9	6.5379e-06	6.8414e-06	1379.9	373.26	6.971e-06	6.3875e-06	425.35	143.53	125.01	43.568	6.7437e-06	53.224	161.234	-84.226	-69.661	-150.858	-39.619	-8.404	-151.306	-146.474	-55.996	-0.568	-146.641	-142.847	-142.320	-137.373	-24.209	-137.987	-8191	255	
562.809	1	1	0	0	0.20437	0.15994	0.1822	0.32962	0.10144	0.21387	0.14269	0.26237	0.17865	0.067592	0.058373	0.27355	0.2736	0.24962	0.064212	0.11975	-2.6958	-3.6125	-3.1146	-3.4396	-3.5042	-3.1083	-3.7313	-3.4958	-3.0396	-3.5312	-3.2188	-3.3521	-3.5687	-3.2708	-3.3625	-3.3854	-118.486	-90.745	139.602	157.409	33.986	34.328	99.339	184.071	22.199	-35.641	-87.201	-119.084	-148.727	-134.931	-73.092	-101.917	0.00066805	0.00041384	0.00016093	1370.4	4.3591e-06	3.7888e-06	1360.5	366.42	7.0029e-06	4.8622e-06	418.26	140.6	122.22	42.44	4.563e-06	51.658	0.00062615	0.00060412	0.00017474	1384.7	6.5439e-06	6.874e-06	1381.1	373.5	6.9605e-06	6.7847e-06	426	143.66	124.92	43.514	6.7843e-06	53.288	163.786	-79.378	-73.317	-150.868	-58.012	-13.290	-151.165	-146.641	-66.074	-7.963	-146.797	-142.964	-142.307	-137.317	-41.980	-138.033	-8191	255	
562.905	1	1	0	0	0.067579	0.090832	0.24875	0.07937	0.16191	0.19376	0.36536	0.21219	0.14828	0.092574	0.20562	0.11129	0.24065	0.14066	0.11285	0.21697	-2.6875	-3.35	-3.2542	-3.3021	-3.5479	-2.8875	-3.3375	-3.4938	-3.0312	-3.4042	-3.3792	-3.2104	-3.6896	-3.3125	-3.3292	-3.5812	25.373	-109.539	169.131	131.803	-12.649	-140.510	162.859	126.175	-91.957	62.063	-128.845	162.941	114.180	180.591	145.835	-1.473	0.00067367	0.00050998	0.00015651	1364.9	3.0175e-06	3.8666e-06	1357.4	368.3	6.1742e-06	4.5811e-06	418.14	140.26	122.55	42.482	3.7321e-06	51.439	0.00062839	0.00060103	0.00017786	1384.4	6.554e-06	6.6283e-06	1381.3	373.86	6.9205e-06	6.4791e-06	426.66	143.61	125.23	43.563	6.7872e-06	53.247	159.539	-82.764	-67.115	-150.860	-50.568	-34.860	-151.171	-146.641	-64.801	-27.433	-146.897	-142.914	-142.405	-137.256	-22.214	-138.144	-8191	255	
563.026	1	1	0	0	0.23292	0.22945	0.20134	0.21966	0.23213	0.086472	0.30188	0.23466	0.35793	0.050489	0.11884	0.14411	0.12352	0.055383	0.10242	0.21293	-2.6063	-3.3979	-3.2542	-3.2521	-3.5417	-3.1562	-3.3604	-3.5062	-2.9896	-3.45	-3.4396	-3.1521	-3.4896	-3.0875	-3.3375	-3.4792	89.244	50.368	-3.951	157.095	72.539	52.175	180.452	123.242	-130.385	-116.053	-108.199	139.590	190.993	85.940	-74.431	182.650	0.00062854	0.0005565	0.00015058	1365	3.7774e-06	4.6209e-06	1355.5	367.91	4.5903e-06	4.7343e-06	416.98	140.42	122.37	42.415	5.217e-06	51.878	0.00062417	0.00060225	0.0001725	1383	6.6273e-06	6.7438e-06	1381.2	374.24	6.8637e-06	6.533e-06	425.94	143.63	125.18	43.539	6.7488e-06	53.274	161.353	-82.172	-76.648	-150.949	-56.502	-15.711	-151.155	-146.464	-52.417	4.442	-146.755	-143.012	-142.362	-137.357	-46.150	-138.329	-8191	255	
563.122	1	1	0	0	0.13862	0.18136	0.24085	0.36175	0.18621	0.35771	0.28312	0.1405	0.19985	0.10469	0.14533	0.43247	0.10493	0.11413	0.057912	0.27878	-2.5521	-3.2146	-3.3063	-3.3125	-3.5542	-3.225	-3.5375	-3.5333	-3.1354	-3.4292	-3.4375	-3.2792	-3.4333	-3.4667	-3.1104	-3.5979	-19.264	-112.714	82.595	148.513	-71.271	-34.607	139.356	171.564	142.483	95.130	-47.247	143.015	-133.584	-134.698	-104.250	126.949	0.00067497	0.00052403	0.00014915	1362	3.6384e-06	5.1653e-06	1356.5	368.23	6.416e-06	5.026e-06	417.82	140.61	122.45	42.43	5.0504e-06	51.632	0.00063468	0.00059378	0.00016969	1382.6	6.6086e-06	6.9448e-06	1381.5	374.05	6.7339e-06	6.8157e-06	426.32	143.76	125.28	43.556	6.7141e-06	53.342	162.099	-73.650	-74.072	-150.893	-39.534	-9.390	-151.210	-146.400	-74.191	-28.458	-146.753	-142.707	-142.462	-137.445	-55.894	-138.223	-8191	255	
563.217	1	1	0	0	0.17776	0.24097	0.27992	0.18869	0.20787	0.036468	0.30444	0.13258	0.29973	0.2976	0.17344	0.23587	0.23737	0.21393	0.30069	0.13196	-2.6125	-3.2979	-3.3792	-3.1792	-3.5875	-3.3	-3.3187	-3.5354	-3.0812	-3.3333	-3.5	-3.0792	-3.6271	-3.3042	-3.0917	-3.4604	110.908	-40.440	86.442	-160.652	-46.605	-67.865	84.610	-41.108	-61.490	158.541	-142.301	134.323	-147.722	-161.198	146.718	60.712	0.0006715	0.00055428	0.00012637	1367	4.6704e-06	6.1659e-06	1356.6	369.02	5.9855e-06	3.7314e-06	418.85	140.81	122.97	42.683	3.8872e-06	51.795	0.00061482	0.00060089	0.00016866	1385.4	6.3272e-06	6.6559e-06	1382.1	375.13	6.8777e-06	6.6229e-06	426.96	143.9	125.64	43.759	6.4811e-06	53.442	160.405	-73.219	-65.073	-150.632	-56.478	-5.685	-151.229	-146.510	-55.908	-7.867	-146.888	-142.811	-142.310	-137.247	-33.935	-138.218	-8191	255	
563.337	1	1	0	0	0.18985	0.067953	0.2166	0.060387	0.11367	0.19932	0.021946	0.20913	0.30397	0.14581	0.14007	0.14378	0.24257	0.059242	0.20073	0.050605	-2.6292	-3.1792	-3.3292	-3.2167	-3.3958	-3.3854	-3.3187	-3.7375	-2.9854	-3.3312	-3.6146	-3.0812	-3.6125	-3.3979	-3.0646	-3.5583	116.563	0.183	-98.427	175.143	-81.179	54.902	74.862	156.401	-143.680	194.141	176.586	-70.050	-140.483	-12.319	159.232	190.387	0.00067561	0.00068519	0.00014337	1364.5	4.9402e-06	5.8678e-06	1361	369.17	6.267e-06	5.3803e-06	417.68	140.71	122.85	42.497	5.1004e-06	51.822	0.00061642	0.00061876	0.00016777	1383.7	6.4406e-06	6.4647e-06	1382.6	374.9	6.6588e-06	6.5975e-06	426.62	143.92	125.45	43.626	6.7553e-06	53.441	160.460	-83.660	-68.392	-150.795	-50.631	-5.955	-151.390	-146.618	-61.577	-19.026	-146.896	-142.873	-142.415	-137.518	-29.481	-138.261	-8191	255	
563.409	1	1	0	0	0.27839	0.053387	0.33829	0.40391	0.21503	0.15687	0.34243	0.29237	0.18913	0.37626	0.027856	0.046196	0.040794	0.1799	0.1057	0.22765	-2.6292	-3.0417	-3.3521	-3.2729	-3.2687	-3.1646	-3.3208	-3.4	-3.1771	-3.0479	-3.5875	-3.0917	-3.3479	-3.3792	-3.1083	-3.5521	-13.726	50.827	193.932	160.440	-34.122	164.423	59.869	34.691	79.960	191.672	40.597	1.791	96.121	83.255	-41.582	162.661	0.00068635	0.00056022	0.00016977	1366.2	3.49e-06	3.6754e-06	1364	368.85	6.2561e-06	6.1083e-06	419.91	141.46	122.86	42.719	3.784e-06	52.005	0.00061799	0.00058445	0.00016848	1383.7	6.4272e-06	6.3834e-06	1383.2	374.64	6.769e-06	6.7275e-06	427.14	144.23	125.62	43.778	6.5389e-06	53.554	161.154	-73.106	-85.768	-150.909	-38.535	-21.255	-151.364	-146.454	-64.687	-9.972	-146.919	-142.710	-142.391	-137.327	-45.381	-138.074	-8191	255	
563.505	1	1	0	0	0.1491	0.24998	0.1271	0.33308	0.085672	0.13939	0.21761	0.23559	0.26294	0.13342	0.26685	0.25189	0.24476	0.068795	0.098436	0.34622	-2.5833	-3.0208	-3.4396	-3.3292	-3.1646	-3.5708	-3.0917	-3.4313	-3.2667	-3.15	-3.5958	-3.2479	-3.4771	-3.4979	-2.95	-3.6167	-17.298	141.475	-89.882	169.106	90.333	-108.906	146.165	104.971	-7.369	-0.588	180.236	190.586	110.007	-134.373	161.830	130.228	0.00068635	0.00047435	0.00017786	1365.9	3.9007e-06	4.5156e-06	1356.9	368.68	4.5556e-06	6.747e-06	417.06	141.43	123.32	42.743	4.6414e-06	52.176	0.00061561	0.00059077	0.00015877	1384.4	6.4973e-06	6.3704e-06	1379.8	375.25	6.5093e-06	6.3875e-06	426.65	144.63	126.03	43.878	6.4101e-06	53.681	161.106	-84.963	-82.195	-150.772	-49.451	-10.305	-151.365	-146.572	-68.191	-3.441	-146.583	-142.780	-142.468	-137.442	-21.839	-138.357	-8191	255	
563.601	1	1	0	0	0.13264	0.2517	0.31268	0.12726	0.16929	0.18195	0.28245	0.18761	0.042549	0.21829	0.18444	0.073264	0.13176	0.091721	0.15217	0.081553	-2.8729	-2.9146	-3.3937	-3.1188	-3.1437	-3.4333	-3.3521	-3.3563	-3.3563	-3.0583	-3.6604	-3.2354	-3.1917	-3.7438	-3.05	-3.4979	194.944	-100.593	28.859	165.842	-100.304	151.613	101.742	62.582	-103.176	-48.199	140.360	134.499	148.752	-157.795	72.560	-108.818	0.0006794	0.00048175	0.00016994	1365.9	4.0285e-06	4.9343e-06	1362.3	368.84	5.9304e-06	3.9351e-06	418.55	140.89	123	42.741	5.6039e-06	51.911	0.00062296	0.00059852	0.00015903	1385.5	6.3379e-06	6.4045e-06	1383.4	374.98	6.5507e-06	6.5207e-06	427.1	144.36	125.91	43.895	6.3262e-06	53.535	159.428	-78.464	-71.115	-150.921	-40.649	-11.421	-151.152	-146.918	-64.654	-2.530	-146.847	-143.090	-142.462	-137.461	-36.776	-138.444	-8191	255	
563.722	1	1	0	0	0.22971	0.10074	0.10432	0.13705	0.039938	0.078932	0.44671	0.3148	0.25895	0.035068	0.18914	0.21891	0.14245	0.17484	0.038397	0.15188	-2.8792	-2.8688	-3.2938	-3.2083	-3.0438	-3.3333	-3.1458	-3.3604	-3.3729	-2.7958	-3.4688	-3.3271	-2.9833	-3.5125	-3.1333	-3.1854	-72.120	-5.024	-144.920	-155.135	-64.179	-49.765	131.554	106.019	24.526	-55.217	186.455	157.386	66.619	128.736	82.348	-87.061	0.00068943	0.0004497	0.00013349	1364.3	4.1762e-06	4.8217e-06	1357.5	369.1	6.464e-06	5.097e-06	417.92	141.58	123.32	42.839	4.7613e-06	52.101	0.00058904	0.00059816	0.00015641	1383.4	6.2698e-06	6.0474e-06	1381.7	375.04	6.3795e-06	6.4488e-06	426.65	144.54	126.03	43.88	6.2386e-06	53.665	158.912	-82.724	-68.743	-150.816	-54.874	-19.268	-151.294	-146.573	-57.799	-11.232	-146.972	-143.037	-142.541	-137.525	-35.069	-138.084	-8191	255	
563.818	1	1	0	0	0.19155	0.047875	0.20393	0.16715	0.18289	0.1887	0.17431	0.13802	0.25022	0.20223	0.075975	0.26805	0.3113	0.28257	0.16767	0.21849	-3.1229	-3.025	-3.3708	-3.5479	-3.0646	-3.4354	-3.2292	-3.3792	-3.5146	-3.1083	-3.3521	-3.4	-3.0896	-3.5771	-3.1333	-3.2375	179.456	51.270	107.532	-144.089	-30.346	-54.542	98.820	107.972	-13.463	-31.844	-145.413	171.269	121.078	179.880	-146.363	94.134	0.00064445	0.0004873	0.00014854	1364.4	4.1143e-06	5.0825e-06	1361.2	369.21	8.0257e-06	5.0822e-06	420.14	142.72	123.73	43.112	4.8268e-06	52.144	0.00058545	0.00056744	0.0001537	1382.8	6.1158e-06	6.0767e-06	1382.8	375.59	6.1725e-06	6.4619e-06	428.51	145.1	126.44	44.182	6.1909e-06	53.824	159.668	-80.646	-73.683	-150.872	-35.920	-15.214	-151.186	-146.655	-61.575	-16.669	-146.765	-142.989	-142.436	-137.572	-35.113	-138.189	-8191	255	
563.914	1	1	0	0	0.17563	0.11523	0.12846	0.22902	0.055607	0.1914	0.25741	0.074944	0.087113	0.16648	0.024383	0.30362	0.28867	0.16771	0.28763	0.1103	-3.0229	-3.0667	-3.1167	-3.4688	-2.9479	-3.5438	-3.3625	-3.2396	-3.4813	-2.9104	-3.3937	-3.4354	-3.0625	-3.4979	-3.1917	-3.1	187.002	76.171	61.862	141.938	-39.568	9.436	120.234	163.312	-19.061	-106.570	49.441	141.649	137.095	-122.852	-45.834	93.066	0.00066031	0.0004956	0.00014098	1369.4	3.5821e-06	4.1832e-06	1362.3	368.94	5.8234e-06	4.6578e-06	420.29	141.72	123.37	42.964	4.0715e-06	52.27	0.00059838	0.00055588	0.00015206	1385.3	6.0831e-06	5.7919e-06	1384	375.56	6.1115e-06	6.3238e-06	428.08	145.12	126.27	44.04	5.9456e-06	53.821	161.183	-85.247	-80.534	-150.832	-45.066	3.180	-151.243	-146.401	-57.390	-12.593	-146.967	-142.608	-142.517	-137.288	-43.649	-138.135	-8191	255	
563.986	1	1	0	0	0.1729	0.065495	0.33714	0.12833	0.14419	0.071567	0.18424	0.26124	0.14085	0.14635	0.14205	0.15745	0.15724	0.072251	0.14761	0.13444	-3.1208	-3.0729	-3.125	-3.6979	-3.0167	-3.425	-3.475	-3.0312	-3.4292	-3.1646	-3.4792	-3.4146	-3.1229	-3.425	-3.2417	-2.9542	184.016	64.144	-106.777	-147.565	-9.591	-48.061	110.989	138.681	104.566	-156.753	80.839	-25.489	102.061	102.373	159.308	153.210	0.00064823	0.00044484	0.00016201	1364.1	3.7353e-06	5.7756e-06	1358.1	368.84	6.5501e-06	6.1644e-06	420.55	141.29	123.32	43.097	4.5799e-06	52.02	0.00058442	0.00056363	0.00015875	1383.5	6.1858e-06	5.9774e-06	1382.6	375.6	6.1424e-06	6.3687e-06	428.27	145.02	126.27	44.141	6.1967e-06	53.749	163.819	-59.649	-70.914	-150.940	-64.523	-13.860	-151.235	-146.536	-49.091	-3.964	-146.915	-142.986	-142.301	-137.243	-37.118	-138.089	-8191	255	
564.106	1	1	0	0	0.041611	0.29354	0.35346	0.26134	0.094936	0.073974	0.39333	0.28574	0.13828	0.22773	0.27554	0.138	0.075197	0.16135	0.062683	0.41505	-3.0958	-3.0729	-3.1604	-3.7042	-2.9229	-3.3854	-3.4917	-3.1437	-3.3375	-2.9521	-3.3625	-3.5479	-3.175	-3.475	-3.3854	-2.9604	191.382	168.443	189.798	164.704	141.653	-22.340	170.775	167.880	-73.761	61.737	-152.108	118.084	-9.900	-27.882	99.277	135.053	0.00067539	0.00052339	0.00013053	1366.9	3.2233e-06	4.499e-06	1362.3	369.48	6.1727e-06	3.2759e-06	418.88	141.7	124.02	43.001	4.9789e-06	52.138	0.00058904	0.0005828	0.00015839	1383.9	6.0931e-06	6.0498e-06	1383.7	375.86	6.1059e-06	6.1064e-06	428.15	145.01	126.6	44.059	5.8869e-06	53.824	160.204	-76.359	-64.692	-150.889	-47.039	-7.878	-151.141	-146.416	-70.599	-3.297	-146.680	-142.982	-142.533	-137.464	-35.764	-138.339	-8191	255	
564.203	1	1	0	0	0.18607	0.22663	0.072659	0.30406	0.069432	0.15141	0.17035	0.2565	0.24546	0.1076	0.23003	0.1012	0.17738	0.17544	0.03482	0.19203	-3.1479	-3.2521	-3.0812	-3.7375	-3.1167	-3.3812	-3.6146	-3.1188	-3.6354	-3.2979	-3.1813	-3.4104	-3.1104	-3.2604	-3.3771	-3.0458	-113.190	-10.935	-13.192	159.607	-8.392	80.791	173.145	169.473	65.833	-121.721	186.355	127.790	103.875	133.269	-64.440	45.731	0.00068264	0.00056725	0.00014473	1366.5	3.4824e-06	5.289e-06	1360.7	370.53	6.0457e-06	5.43e-06	419.17	142.54	124.42	43.212	4.7247e-06	52.509	0.00059408	0.00056995	0.00015691	1384.9	6.2498e-06	6.1564e-06	1383.8	376.52	6.2097e-06	6.1473e-06	428.29	145.36	126.87	44.196	6.0042e-06	54.063	159.555	-71.302	-62.774	-150.778	-50.901	-18.579	-151.217	-146.405	-72.017	-10.569	-146.939	-142.896	-142.517	-137.294	-53.787	-138.047	-8191	255	
564.299	1	1	0	0	0.15765	0.13424	0.11562	0.27831	0.17597	0.28475	0.32659	0.23654	0.25569	0.19948	0.24236	0.27206	0.21294	0.18552	0.074875	0.1736	-2.8688	-3.1437	-3.1271	-3.7021	-3.0417	-3.2917	-3.5833	-3.1312	-3.4646	-3.3292	-3.0687	-3.5938	-3.2	-3.3	-3.4958	-3.0417	146.943	-135.507	-55.269	100.968	-77.285	-132.181	165.247	83.164	-160.467	187.436	-123.359	163.808	161.001	143.156	142.907	110.968	0.00068743	0.000379	0.00015563	1366.9	3.8994e-06	3.9046e-06	1362.5	370.73	4.3322e-06	3.0272e-06	420.95	142.16	124.05	43.019	4.979e-06	52.328	0.00059252	0.00052616	0.00015766	1385.6	5.9697e-06	5.9774e-06	1385.5	376.75	6.2596e-06	6.1653e-06	429.17	145.47	126.83	44.173	6.1359e-06	53.945	161.299	-69.216	-63.090	-150.766	-57.899	-8.358	-151.147	-146.433	-77.687	4.144	-146.766	-142.894	-142.344	-137.433	-43.353	-138.153	-8191	255	
564.418	1	1	0	0	0.21251	0.13974	0.15926	0.25392	0.088779	0.13186	0.2142	0.14029	0.12476	0.12934	0.21662	0.13969	0.25721	0.089536	0.14656	0.046651	-2.8917	-3.2354	-2.7979	-3.6167	-2.9667	-3.1208	-3.6229	-3.1646	-3.2646	-3.3021	-3.0083	-3.5896	-3.3792	-3.2354	-3.4479	-2.9917	79.267	-43.855	-116.759	-121.247	13.912	24.054	142.582	116.374	168.555	132.768	99.423	-80.579	-134.486	-129.998	37.622	58.827	0.00068505	0.00042402	0.00012895	1367.4	4.841e-06	6.4473e-06	1362.5	369.51	5.222e-06	6.2252e-06	420.44	142.07	123.86	43.115	4.3006e-06	52.168	0.00059593	0.00053456	0.00015542	1386.5	6.2218e-06	6.2011e-06	1385.1	376.46	6.1122e-06	6.1677e-06	428.91	145.52	126.71	44.166	5.8392e-06	53.9	160.996	-65.277	-69.138	-150.776	-45.639	-12.241	-151.231	-146.524	-66.677	0.687	-146.779	-142.925	-142.452	-137.191	-40.001	-138.439	-8191	255	
564.514	1	1	0	0	0.34353	0.15027	0.23335	0.23709	0.10851	0.15479	0.35085	0.39077	0.18813	0.0829	0.21064	0.079949	0.085949	0.0777	0.22994	0.177	-2.8583	-3.25	-2.9167	-3.5333	-3.1813	-3.0833	-3.5479	-3.0667	-3.225	-3.1896	-2.9583	-3.45	-3.1375	-3.175	-3.3542	-3.2354	181.171	-147.377	-24.536	177.294	56.131	24.847	148.276	158.580	65.341	120.519	178.661	122.908	167.056	-49.381	-148.258	168.683	0.00066811	0.00043365	0.00016077	1366.1	2.6236e-06	5.9125e-06	1363.2	370.22	5.4437e-06	6.6656e-06	420.51	142.08	124.37	42.986	2.7392e-06	52.381	0.00059483	0.00051992	0.00016237	1385.6	6.1124e-06	6.3273e-06	1385.8	376.32	6.1803e-06	6.1375e-06	429.32	145.4	126.88	44.165	5.8457e-06	53.956	160.495	-83.113	-71.750	-150.844	-51.324	-18.309	-151.043	-146.422	-66.433	-16.979	-146.941	-143.115	-142.552	-137.503	-52.701	-138.364	-8191	255	
564.610	1	1	0	0	0.19909	0.14035	0.09096	0.18338	0.14541	0.13734	0.068066	0.18443	0.069792	0.13121	0.075616	0.034267	0.35674	0.24193	0.22012	0.20383	-2.7833	-3.5333	-2.9167	-3.4062	-3.1625	-2.975	-3.6	-3.3312	-3.0938	-3.3896	-3.0458	-3.3563	-3.275	-3.0312	-3.1958	-3.1771	-9.848	158.774	18.868	127.189	55.913	22.429	114.368	166.936	-130.312	72.146	-44.779	132.741	169.327	134.831	-144.129	63.936	0.00068151	0.00054667	0.00015173	1365.7	4.8036e-06	5.3406e-06	1364	368.91	4.7319e-06	4.6607e-06	421.17	142.97	124.11	42.989	3.3843e-06	52.269	0.00060555	0.00052559	0.00016215	1386.2	5.841e-06	6.1328e-06	1385	376.04	6.1192e-06	5.7583e-06	428.66	145.62	126.92	44.169	5.9412e-06	53.943	161.490	-83.464	-66.929	-150.844	-64.412	-15.494	-151.111	-146.639	-78.406	-6.769	-146.781	-142.989	-142.503	-137.415	-20.642	-138.077	-8191	255	
564.706	1	1	0	0	0.15739	0.3205	0.28273	0.15018	0.03833	0.14276	0.25439	0.32664	0.18086	0.040812	0.041765	0.20528	0.19038	0.21385	0.085197	0.079837	-2.7125	-3.2938	-2.9188	-3.3375	-3.35	-3.1	-3.6104	-3.3354	-2.9229	-3.4854	-3.0208	-3.425	-3.4125	-3.05	-3.3417	-3.4125	-134.583	-123.742	-122.160	-61.030	-81.616	-49.008	-123.384	147.893	86.250	-153.568	33.213	166.670	164.981	167.953	-27.157	112.588	0.00069485	0.00052718	0.00015646	1370.9	4.4941e-06	4.7408e-06	1362.4	371.3	4.6875e-06	5.6863e-06	420.65	142.22	124.12	43.114	5.2329e-06	52.393	0.00059891	0.00054619	0.00015469	1387.7	5.879e-06	6.2142e-06	1386.6	377.03	6.1529e-06	6.0067e-06	429.08	145.45	126.93	44.204	5.9014e-06	53.876	161.850	-83.860	-64.478	-150.667	-56.776	-12.953	-151.236	-146.556	-66.263	-2.326	-147.041	-142.881	-142.393	-137.291	-54.723	-138.174	-8191	255	
564.802	1	1	0	0	0.11377	0.075007	0.17308	0.15829	0.25415	0.24336	0.44591	0.11956	0.13387	0.20517	0.12161	0.19232	0.23518	0.1235	0.10271	0.17203	-2.6813	-3.3792	-3.0104	-3.5104	-3.2792	-3.0667	-3.6458	-3.3812	-3.0583	-3.3542	-3.2208	-3.2333	-3.5167	-3.0104	-3.2396	-3.3646	3.161	146.751	85.133	-139.243	10.768	76.931	158.493	-9.575	-25.952	71.716	-33.069	143.328	125.718	138.364	-86.368	-134.810	0.00065656	0.00057487	0.00013855	1366.3	4.4547e-06	4.5643e-06	1368.8	370.25	6.3407e-06	4.2515e-06	420.6	142.17	124.64	43.033	5.3217e-06	52.23	0.00059717	0.0005538	0.00015625	1386.4	6.0337e-06	6.3273e-06	1386.6	376.22	6.4294e-06	6.1506e-06	429.23	145.28	126.83	44.138	6.243e-06	53.899	160.931	-77.451	-47.199	-150.881	-55.770	-17.000	-151.224	-146.568	-54.719	-0.197	-146.782	-142.715	-142.296	-137.632	-52.228	-137.977	-8191	255	
564.898	1	1	0	0	0.30318	0.16477	0.1691	0.28522	0.04451	0.091843	0.32155	0.30398	0.084356	0.021964	0.085837	0.12443	0.080957	0.17717	0.17374	0.13014	-2.5625	-3.5854	-3.0667	-3.3604	-3.5292	-2.8688	-3.5187	-3.5	-2.975	-3.3333	-3.2229	-3.2146	-3.5292	-3.05	-3.3292	-3.3854	-135.035	-1.911	25.551	172.911	-117.237	133.944	185.471	117.901	-120.567	-80.169	-72.634	140.573	157.460	127.883	-97.866	43.490	0.00069017	0.00043185	0.00012891	1368.3	4.1728e-06	3.3709e-06	1362.2	370.24	5.6968e-06	5.3268e-06	420.89	142.55	124.06	42.902	3.8069e-06	52.277	0.00060502	0.00053873	0.0001572	1387.5	5.9237e-06	6.1816e-06	1385.5	376.78	6.3999e-06	5.9978e-06	429.41	145.52	126.74	44.114	6.0375e-06	53.877	161.056	-72.589	-69.490	-150.817	-55.161	-18.275	-151.283	-146.526	-59.038	-2.277	-146.616	-142.811	-142.411	-137.346	-45.933	-138.503	-8191	255	
565.019	1	1	0	0	0.16263	0.098691	0.18801	0.46448	0.15923	0.19559	0.17714	0.20177	0.066573	0.20713	0.064047	0.18944	0.22017	0.12939	0.18718	0.10412	-2.4104	-3.3979	-3	-3.2313	-3.4792	-3.1083	-3.3729	-3.4708	-3.0563	-3.3937	-3.1854	-2.9917	-3.4583	-3.1833	-3.2271	-3.4979	-125.693	76.354	10.743	167.751	78.726	-154.480	124.477	-9.161	-147.034	23.864	30.440	149.096	173.848	76.159	-74.236	-75.349	0.00065524	0.00049231	0.00015749	1370.5	4.4024e-06	5.4097e-06	1364.2	370.71	6.8155e-06	4.8724e-06	421.56	141.8	123.77	43.133	6.2474e-06	52.282	0.00059671	0.00054878	0.00015954	1386.9	6.1218e-06	6.0433e-06	1387	376.74	6.2315e-06	5.8703e-06	429.98	145.38	126.84	44.226	6.159e-06	53.977	161.692	-84.519	-51.831	-150.774	-54.044	-24.262	-151.151	-146.533	-60.076	-17.368	-146.840	-142.755	-142.478	-137.364	-31.534	-138.314	-8191	255	
565.115	1	1	0	0	0.0070866	0.18348	0.061435	0.15032	0.074824	0.17454	0.26844	0.13717	0.15385	0.12984	0.1395	0.082511	0.15699	0.29828	0.32204	0.1041	-2.5021	-3.3729	-3.1271	-3.225	-3.3625	-3.1833	-3.3896	-3.3333	-2.9667	-3.2604	-3.3708	-3.2479	-3.5958	-3.2583	-3.1688	-3.5958	-60.908	-132.340	-80.002	178.030	54.070	10.530	174.892	-33.395	-89.961	187.261	125.920	59.886	-150.254	-154.593	-60.791	138.766	0.00067298	0.00040214	0.00014293	1368.2	4.656e-06	5.5997e-06	1366.5	370.79	5.3453e-06	4.833e-06	421.74	142.61	124.46	43.39	6.1445e-06	52.487	0.00059493	0.00053306	0.00014947	1388.1	6.1651e-06	5.8806e-06	1388.6	377.42	6.362e-06	5.8654e-06	430.25	145.88	127.21	44.382	6.0903e-06	54.153	160.564	-89.591	-77.437	-150.714	-46.867	-18.364	-151.298	-146.436	-62.843	-3.300	-146.879	-142.726	-142.445	-137.495	-42.201	-138.371	-8191	255	
565.210	1	1	0	0	0.1197	0.067334	0.27187	0.1243	0.042299	0.057226	0.18174	0.12918	0.056338	0.20607	0.21823	0.085681	0.18709	0.13391	0.30372	0.085761	-2.4958	-3.2792	-3.4646	-3.1896	-3.4229	-3.2083	-3.1708	-3.7	-2.9479	-3.1375	-3.6479	-3.0729	-3.4313	-3.325	-2.975	-3.6	27.231	151.038	-44.927	36.704	130.751	-3.677	116.255	-133.222	-157.042	156.272	99.039	-7.272	118.122	161.683	-60.563	-87.070	0.00068935	0.00049949	0.00010384	1375.7	4.1872e-06	3.3707e-06	1363.9	372.02	6.537e-06	5.9619e-06	423.51	142.68	124.26	43.17	5.6797e-06	52.321	0.0005976	0.00051511	0.00014561	1390.5	6.0371e-06	5.7708e-06	1388.9	378	6.1283e-06	6.0803e-06	431.03	145.83	127.09	44.223	5.8638e-06	54.046	161.232	-75.251	-77.572	-150.878	-67.343	-9.568	-151.401	-146.582	-55.605	-12.492	-146.763	-142.949	-142.449	-137.469	-44.208	-138.213	-8191	255	
565.283	1	1	0	0	0.1289	0.22727	0.087957	0.34311	0.32465	0.17983	0.27079	0.21258	0.36056	0.059673	0.1908	0.11598	0.064888	0.083886	0.13545	0.12185	-2.725	-3.0708	-3.2542	-3.1146	-3.2771	-3.2021	-3.4396	-3.5812	-2.9417	-3.2812	-3.3125	-2.9375	-3.4729	-3.1833	-2.9875	-3.425	112.570	-59.010	-132.189	146.869	-157.338	125.488	113.403	-151.773	-2.117	-110.014	119.215	95.445	171.690	-73.006	-162.830	-55.660	0.00066754	0.0004204	0.00015165	1368.8	4.6773e-06	4.5157e-06	1362.9	370.89	5.6148e-06	4.3769e-06	420.7	142.47	124.06	43.002	4.8662e-06	52.57	0.0005851	0.00054023	0.00013831	1386.9	5.6276e-06	5.7114e-06	1386.5	376.79	6.0792e-06	5.2476e-06	428.32	145.4	126.9	44.134	5.8196e-06	53.989	161.215	-79.230	-68.303	-150.802	-54.999	-10.223	-151.323	-146.677	-72.171	-26.595	-146.649	-142.879	-142.305	-137.391	-43.591	-138.392	-8191	255	
565.402	1	1	0	0	0.085757	0.065604	0.087212	0.2463	0.1357	0.16607	0.29	0.056755	0.21604	0.027025	0.35735	0.072375	0.14222	0.23574	0.15512	0.12543	-2.6521	-2.9958	-3.4208	-3.1792	-3.3583	-3.2771	-3.3292	-3.5563	-3.1875	-3.2021	-3.5938	-3.1646	-3.5083	-3.5312	-2.9667	-3.6312	-19.846	-115.455	-21.941	136.704	-120.048	-67.997	108.609	-22.749	5.832	41.374	187.807	75.612	95.600	-154.047	20.817	15.762	0.00069505	0.00051801	0.00010285	1369.5	3.578e-06	3.079e-06	1363.8	370.21	4.5797e-06	4.0674e-06	421.78	142.17	124.1	43.231	4.8775e-06	52.412	0.00058613	0.00050937	0.00013819	1384.2	5.4182e-06	5.4095e-06	1384.4	376.74	5.7523e-06	5.4127e-06	429.27	145.32	126.91	44.235	5.5229e-06	54	161.143	-81.541	-66.628	-150.899	-78.452	-17.499	-151.149	-146.577	-46.448	12.439	-146.886	-142.733	-142.537	-137.416	-25.999	-138.224	-8191	255	
565.498	1	1	0	0	0.15449	0.10885	0.16034	0.12211	0.14019	0.088803	0.03648	0.054032	0.13824	0.21156	0.19894	0.48452	0.1729	0.13702	0.11642	0.0053881	-2.7958	-3.0646	-3.4562	-3.4083	-3.4437	-3.5625	-2.9688	-3.4292	-3.0687	-3.1437	-3.2979	-3.15	-3.2646	-3.3458	-2.9271	-3.3604	6.670	150.829	-65.525	146.728	69.345	-11.307	137.114	177.113	-160.513	-64.724	71.151	143.536	145.971	-99.962	-58.935	-55.524	0.00069119	0.00058032	0.00017322	1366	5.1901e-06	3.604e-06	1363.1	370.91	4.9406e-06	5.0482e-06	419.66	142.21	124.44	43.047	4.6872e-06	52.564	0.00058428	0.00047699	0.00013263	1384.3	5.3701e-06	5.3493e-06	1383.8	377.06	5.299e-06	5.4552e-06	429.11	145.69	127.31	44.273	5.5157e-06	54.208	161.842	-90.981	-60.810	-150.812	-47.242	-6.377	-151.136	-146.653	-71.244	-18.138	-146.586	-142.784	-142.424	-137.457	-35.461	-138.269	-8191	255	
565.594	1	1	0	0	0.099024	0.2907	0.1979	0.064872	0.21886	0.14739	0.29505	0.036951	0.11867	0.13574	0.2173	0.07974	0.35481	0.18282	0.095257	0.16173	-2.9521	-3.0583	-3.3646	-3.225	-3.1854	-3.5687	-3.1354	-3.4396	-3.1854	-2.7792	-3.7458	-3.1458	-3.1958	-3.4688	-3.0812	-3.3104	-145.815	-70.410	186.215	-120.614	36.134	-1.376	151.789	26.691	182.298	79.697	-154.362	-122.737	143.539	143.199	106.019	128.643	0.00071088	0.00050784	0.00014346	1367.9	4.5065e-06	5.2355e-06	1361.1	372.34	5.57e-06	4.8664e-06	422.73	142.98	124.46	43.535	4.5598e-06	52.938	0.0005771	0.00047714	0.0001294	1383.7	5.4655e-06	5.2045e-06	1384.7	377.95	5.4891e-06	5.4045e-06	430.46	146.41	127.67	44.568	5.2588e-06	54.487	161.428	-80.623	-66.377	-150.862	-58.273	-17.690	-151.194	-146.452	-73.378	-8.998	-146.982	-142.825	-142.249	-137.423	-40.614	-138.310	-8191	255	
565.690	1	1	0	0	0.43171	0.074845	0.11091	0.15143	0.295	0.18323	0.36731	0.2037	0.15014	0.065569	0.022338	0.023056	0.16354	0.057519	0.18643	0.11643	-2.8063	-3.0917	-3.5417	-3.3208	-2.9375	-3.5333	-3.2292	-3.3104	-3.2917	-2.8583	-3.5687	-3.3063	-3.025	-3.5458	-3.1146	-3.3063	82.869	121.669	-49.062	156.496	-101.509	51.730	-159.517	-100.754	-98.163	94.944	-56.734	117.567	152.456	-43.321	166.955	126.907	0.00071818	0.00047793	0.0001517	1364.4	3.7354e-06	5.9035e-06	1363.3	372.28	5.8446e-06	5.8485e-06	422.83	143.46	125.41	43.336	4.6235e-06	52.658	0.00056283	0.00046422	0.00012503	1384.4	5.1641e-06	4.8034e-06	1385.7	377.94	5.2569e-06	4.9706e-06	430.6	146.54	128.05	44.554	5.0714e-06	54.39	160.262	-77.059	-78.175	-150.657	-34.490	-22.718	-151.230	-146.548	-50.856	-9.441	-146.899	-142.942	-142.352	-137.491	-49.094	-138.516	-8191	255	
565.811	1	1	0	0	0.21259	0.11235	0.30081	0.14129	0.11443	0.23644	0.066732	0.19467	0.18285	0.074527	0.03454	0.17556	0.33973	0.36691	0.062969	0.22086	-2.8771	-2.85	-3.2625	-3.3438	-2.9646	-3.4188	-3.2042	-3.3312	-3.3604	-3.0125	-3.5625	-3.5187	-3.1375	-3.4958	-2.9479	-3.2854	-133.312	153.779	17.962	-161.232	-73.413	-35.180	78.745	83.228	0.688	-35.500	-33.652	134.215	167.404	155.324	82.583	146.254	0.00066967	0.00039666	0.0001542	1363.6	4.6695e-06	6.2336e-06	1362.4	373.35	6.0312e-06	5.5992e-06	421.73	143.8	125.58	43.688	5.2608e-06	52.794	0.00053963	0.00045689	0.00012372	1382.8	5.2894e-06	4.8978e-06	1383.9	379	4.9348e-06	4.9853e-06	430.85	146.93	128.32	44.771	4.9158e-06	54.503	160.316	-63.036	-71.862	-150.688	-42.108	-19.256	-151.157	-146.529	-52.153	1.184	-146.962	-142.884	-142.253	-137.293	-41.062	-138.319	-8191	255	
565.883	1	1	0	0	0.18996	0.12026	0.095169	0.31765	0.10758	0.10521	0.12523	0.23959	0.12936	0.20073	0.04286	0.15429	0.21657	0.24177	0.31393	0.23109	-3.0187	-2.9521	-3.2583	-3.3708	-3.0458	-3.4292	-3.3292	-3.3229	-3.4042	-3.0187	-3.3542	-3.3729	-2.925	-3.5125	-3.05	-3.3083	-19.184	2.700	26.956	168.568	112.886	166.083	109.441	152.464	162.209	157.096	-98.014	160.892	151.280	185.560	-74.690	-153.702	0.00066831	0.00048955	0.00015047	1368.6	4.3608e-06	4.4765e-06	1364.6	373.59	5.8338e-06	4.2821e-06	423.41	143.53	125.46	43.699	5.7451e-06	53.101	0.00054482	0.00045359	0.0001278	1386.4	5.1067e-06	4.7326e-06	1385.3	379.56	5.0218e-06	4.7884e-06	431.34	147.25	128.44	44.869	4.7443e-06	54.76	161.966	-76.790	-65.442	-150.778	-53.210	-18.547	-151.237	-146.374	-50.575	-17.972	-146.841	-143.103	-142.372	-137.457	-31.937	-138.382	-8191	255	
565.979	1	1	0	0	0.058124	0.049032	0.056965	0.41265	0.25279	0.1458	0.15646	0.19065	0.19446	0.17743	0.29769	0.12885	0.12736	0.33983	0.077803	0.069267	-3.0333	-2.9583	-3.1208	-3.3646	-2.9708	-3.4542	-3.4333	-3.2125	-3.5438	-3.0521	-3.3354	-3.6146	-3.0062	-3.4083	-3.3083	-3.1875	154.107	-58.759	120.780	195.154	188.391	-122.875	104.340	126.386	-81.525	46.310	126.239	184.429	148.291	-152.576	-23.957	123.954	0.00069633	0.00051148	0.00013845	1367	4.6874e-06	4.4657e-06	1363.1	373.84	5.4555e-06	4.9996e-06	425.72	144.89	126.13	43.624	5.1287e-06	53.136	0.00054201	0.00044003	0.00011933	1385.4	4.934e-06	4.7505e-06	1386.1	380.74	4.998e-06	4.5531e-06	433.33	147.7	128.98	44.922	4.9505e-06	54.713	160.750	-70.611	-72.961	-150.855	-55.528	-17.493	-151.202	-146.407	-68.032	-9.799	-146.767	-143.088	-142.551	-137.216	-40.984	-138.322	-8191	255	
566.099	1	1	0	0	0.22726	0.11573	0.21664	0.15089	0.18773	0.15792	0.12456	0.12971	0.12197	0.1652	0.13138	0.19558	0.2196	0.12058	0.28201	0.18769	-2.9229	-3.0854	-3.1021	-3.5062	-3.0208	-3.5104	-3.6146	-2.9396	-3.6458	-3.0792	-3.2354	-3.6479	-3.0187	-3.3104	-3.1625	-2.9917	-42.858	195.663	34.359	135.261	118.851	-125.649	104.448	-162.322	190.427	140.329	86.159	70.849	108.893	152.656	105.234	120.358	0.00069509	0.00058364	9.9079e-05	1365.5	3.5379e-06	4.5525e-06	1359.8	373.24	5.9807e-06	5.6209e-06	422.52	144.11	125.53	43.713	5.1859e-06	53.225	0.00052685	0.00043048	0.00011832	1384.3	4.8873e-06	4.6903e-06	1383.5	379.14	5.0681e-06	4.7222e-06	431.18	147.13	128.39	44.726	4.779e-06	54.622	161.408	-70.970	-71.066	-150.860	-47.203	-10.317	-151.227	-146.340	-52.980	-6.721	-146.816	-142.845	-142.449	-137.370	-39.204	-138.250	-8191	255	
566.196	1	1	0	0	0.11249	0.060739	0.22679	0.19565	0.2235	0.0564	0.29264	0.22184	0.1002	0.31019	0.19053	0.10431	0.27711	0.068039	0.11492	0.063809	-3.0125	-3.0396	-2.9813	-3.5167	-2.9958	-3.325	-3.55	-3.0083	-3.4938	-3.1646	-3.2396	-3.3812	-3.1271	-3.2604	-3.4437	-3.0167	-122.126	-105.766	-64.265	173.112	131.609	164.286	137.832	35.125	-20.126	107.248	-93.351	113.824	152.083	-133.978	136.511	62.879	0.00068477	0.00044596	0.00015397	1365.5	3.9463e-06	6.8789e-06	1357.6	372.68	6.6131e-06	4.3668e-06	421.41	143.52	125.12	43.529	5.8041e-06	52.796	0.00053239	0.00042488	0.00012267	1382.3	4.944e-06	4.5577e-06	1380.1	378.36	4.9545e-06	4.8162e-06	430.08	146.71	128.01	44.634	4.7124e-06	54.419	162.495	-77.142	-74.627	-150.841	-57.426	-16.405	-151.126	-146.524	-69.061	-15.113	-146.405	-142.832	-142.383	-137.325	-38.739	-138.219	-8191	255	
566.290	1	1	0	0	0.19274	0.13163	0.18034	0.20695	0.22462	0.17281	0.32121	0.37495	0.17785	0.10429	0.29594	0.21269	0.27672	0.20272	0.090245	0.32741	-2.8708	-3.2833	-2.9396	-3.5646	-2.8958	-3.2354	-3.5021	-2.8208	-3.4562	-3.2104	-2.9146	-3.5021	-3.1792	-3.2208	-3.4708	-3.1854	-59.539	-104.499	93.050	129.265	-89.716	42.932	121.433	175.673	-72.203	-64.167	141.033	184.147	117.476	180.545	-121.446	16.875	0.00069464	0.00057902	0.00014128	1359	4.4269e-06	5.3721e-06	1358.4	371.01	5.5308e-06	5.6738e-06	421.86	143.47	124.77	43.427	2.7435e-06	52.61	0.00053572	0.00043457	0.00012404	1378.4	5.1107e-06	4.8994e-06	1379.5	377.56	4.9088e-06	5.0368e-06	429.13	146.36	127.59	44.492	4.7407e-06	54.275	160.330	-74.870	-68.110	-150.770	-49.509	-28.318	-151.221	-146.806	-62.954	-11.419	-147.044	-142.717	-142.349	-137.404	-46.848	-138.054	-8191	255	
566.388	1	1	0	0	0.052687	0.088367	0.15431	0.069401	0.18936	0.19553	0.089771	0.14679	0.21395	0.099738	0.078422	0.12184	0.12602	0.3409	0.10189	0.19201	-2.8167	-3.1875	-2.9292	-3.575	-3.1458	-3.2896	-3.5792	-3.175	-3.3937	-3.3	-3.0438	-3.6188	-3.0917	-3.2083	-3.5542	-3.1458	-134.790	127.349	-51.498	136.801	145.403	188.122	87.193	139.926	118.144	192.354	-60.275	165.016	183.759	156.952	117.259	-85.341	0.00071329	0.0004607	0.0001287	1362.1	3.731e-06	5.0295e-06	1356.5	370.21	6.1367e-06	5.3048e-06	421.03	142.7	124.71	43.312	4.3587e-06	52.847	0.00054336	0.00043364	0.00012194	1379.1	5.098e-06	4.9702e-06	1378.5	376.89	5.0899e-06	4.8031e-06	429.4	146.13	127.49	44.402	5.1148e-06	54.25	162.145	-80.586	-70.875	-150.913	-50.728	-17.930	-151.238	-146.529	-67.255	-10.462	-146.796	-142.734	-142.411	-137.212	-40.344	-138.021	-8191	255	
566.507	1	1	0	0	0.11654	0.089077	0.060215	0.052133	0.13565	0.17209	0.13359	0.30386	0.090319	0.12105	0.11994	0.35007	0.01746	0.14277	0.17323	0.18048	-2.9792	-3.3063	-2.8563	-3.6146	-3.3396	-2.9188	-3.675	-3.0479	-3.3146	-3.5083	-3.0438	-3.5	-3.4292	-3.1604	-3.3958	-3.2083	-32.037	129.707	44.484	163.026	-67.032	-116.970	121.248	136.716	-154.139	-116.153	53.429	145.177	86.346	188.739	165.355	66.936	0.00066652	0.00058812	0.00013936	1362.2	3.2887e-06	4.4924e-06	1353.2	368.78	5.3437e-06	5.2138e-06	419.4	142.25	124.32	43.181	4.7343e-06	52.403	0.00053814	0.00045338	0.00012584	1378.8	5.1321e-06	4.9759e-06	1377.4	375.84	5.2849e-06	4.7557e-06	428.07	145.45	126.93	44.226	4.8456e-06	53.946	162.249	-93.152	-68.232	-150.792	-50.795	-18.427	-151.149	-146.503	-71.916	-3.183	-146.898	-142.834	-142.497	-137.136	-45.074	-138.204	-8191	255	
566.578	1	1	0	0	0.14165	0.069215	0.070851	0.31861	0.10217	0.075282	0.18888	0.19018	0.29114	0.10315	0.26138	0.35798	0.12072	0.23379	0.045178	0.21796	-2.7562	-3.4396	-2.9437	-3.6437	-3.1333	-3.1583	-3.6125	-3.1229	-3.0479	-3.3896	-3.1271	-3.3729	-3.2438	-3.1146	-3.3479	-3.1437	-143.668	-48.869	8.183	-145.679	-28.042	-10.238	-152.841	174.539	-161.698	2.143	4.611	143.818	13.702	163.664	-4.450	113.095	0.00069195	0.00066872	0.0001514	1363	4.4451e-06	5.4407e-06	1353.3	368.27	4.8192e-06	5.19e-06	419.99	142.22	124.16	42.995	4.529e-06	52.66	0.00054688	0.00045883	0.00013193	1376.9	5.2034e-06	5.0808e-06	1375.1	375.23	5.1509e-06	5.1504e-06	427.92	145.29	126.81	44.211	4.9462e-06	54.076	161.930	-70.466	-72.425	-150.792	-58.232	-13.890	-151.154	-146.498	-64.117	-9.100	-146.564	-142.809	-142.434	-137.366	-31.092	-137.994	-8191	255	
566.675	1	1	0	0	0.16334	0.087802	0.0902	0.22861	0.28366	0.093581	0.30987	0.26394	0.20672	0.07656	0.10576	0.020045	0.15732	0.073454	0.11713	0.092525	-2.65	-3.4313	-2.9521	-3.5604	-3.35	-3.1146	-3.675	-3.2812	-3.0854	-3.4708	-3.1729	-3.475	-3.5146	-3.2208	-3.425	-3.2729	2.259	-145.816	-16.237	146.880	191.617	51.005	157.646	130.827	-49.003	65.302	145.642	185.365	195.215	-163.993	117.049	-89.931	0.00069234	0.00042663	0.00012442	1359.8	4.6502e-06	4.1919e-06	1356.1	370.46	4.5989e-06	5.3833e-06	419.85	142.74	124.22	43.11	4.0556e-06	52.399	0.00055732	0.00044914	0.00012637	1377.1	5.04e-06	4.9246e-06	1377	375.7	5.1951e-06	5.1161e-06	428.28	145.73	127.02	44.232	5.0091e-06	54.078	159.667	-67.713	-71.053	-150.725	-61.349	-32.700	-150.896	-146.444	-82.254	-15.547	-146.783	-142.859	-142.205	-137.219	-24.995	-138.215	-8191	255	
566.795	1	1	0	0	0.20048	0.061941	0.09337	0.14103	0.2156	0.1672	0.22287	0.15961	0.2887	0.12404	0.05406	0.30773	0.15626	0.26563	0.11737	0.10001	-2.5792	-3.4542	-2.8833	-3.4146	-3.3396	-2.9417	-3.5583	-3.3812	-3.2354	-3.5167	-3.1167	-3.3125	-3.5104	-3.0833	-3.35	-3.2583	23.348	194.099	62.681	164.160	-127.326	-110.206	163.893	-160.844	-81.050	101.414	-88.021	162.992	-145.968	119.169	-22.307	24.410	0.00069483	0.00053488	0.00013134	1359.1	3.9997e-06	5.1391e-06	1356.2	370.32	5.9426e-06	3.8706e-06	419.5	142.8	124.87	43.173	5.9687e-06	52.469	0.00055242	0.0004617	0.00013019	1379.3	5.126e-06	5.3143e-06	1378.2	376.9	5.3109e-06	4.9036e-06	428.72	145.97	127.35	44.332	4.9469e-06	54.175	161.753	-80.361	-65.510	-150.714	-52.913	-16.649	-151.266	-146.610	-61.016	-1.230	-146.868	-142.726	-142.668	-137.526	-42.688	-138.241	-8191	255	
566.891	1	1	0	0	0.20447	0.1719	0.27161	0.17751	0.10527	0.14624	0.21586	0.26136	0.095113	0.22058	0.28566	0.10405	0.2645	0.20803	0.19069	0.26802	-2.7229	-3.5458	-3.0542	-3.3187	-3.4688	-2.9375	-3.5604	-3.4062	-3.0563	-3.5292	-3.2313	-3.3	-3.6042	-3.0687	-3.4375	-3.4125	20.766	16.503	-10.074	148.235	168.411	158.414	66.942	131.098	125.191	-134.388	-3.212	131.335	52.425	135.647	51.546	104.220	0.00067104	0.00047239	0.00018168	1365.4	4.034e-06	5.3369e-06	1356.1	370.71	5.014e-06	5.581e-06	421.73	142.65	124.47	43.275	4.5959e-06	52.37	0.00055022	0.00044168	0.00012746	1380.7	4.988e-06	4.9246e-06	1379.5	376.94	5.3137e-06	4.9951e-06	430.26	146	127.45	44.362	5.0316e-06	54.094	160.778	-90.219	-79.970	-150.735	-63.859	-28.362	-151.183	-146.549	-64.433	-26.880	-146.844	-142.908	-142.277	-137.237	-45.286	-137.966	-8191	255	
566.987	1	1	0	0	0.18131	0.26462	0.20534	0.20854	0.23881	0.094447	0.2236	0.1983	0.16032	0.07806	0.19912	0.18009	0.11416	0.26382	0.098843	0.15556	-2.6125	-3.4229	-3.1646	-3.25	-3.3563	-3.0312	-3.5979	-3.6333	-3.0479	-3.4354	-3.2917	-3.2	-3.6312	-3.0792	-3.2292	-3.6354	194.437	-37.138	167.258	167.639	34.791	-14.814	108.185	161.334	-74.856	50.684	-38.805	158.630	116.398	-142.456	-46.330	66.708	0.00069821	0.00046742	0.00013831	1361	3.8385e-06	6.244e-06	1358.5	371.65	5.6949e-06	5.1701e-06	421.46	143.04	124.62	43.21	6.4877e-06	52.527	0.00056059	0.00044469	0.00012821	1378.4	5.0373e-06	5.2403e-06	1381.5	376.76	5.3719e-06	4.8342e-06	428.98	146.16	127.49	44.36	5.1148e-06	54.311	162.663	-59.570	-74.985	-150.726	-55.177	9.298	-151.197	-146.453	-72.351	-7.042	-146.946	-142.973	-142.319	-137.317	-33.314	-138.316	-8191	255	
567.084	1	1	0	0	0.039511	0.1433	0.17155	0.21115	0.12872	0.23141	0.085854	0.39509	0.11927	0.12718	0.07878	0.2959	0.14986	0.074513	0.27479	0.12956	-2.6188	-3.4188	-3.2	-3.2167	-3.5229	-3.1021	-3.35	-3.5979	-2.9104	-3.1979	-3.1854	-3.1437	-3.5312	-3.2021	-3.2229	-3.6354	95.922	-76.867	119.470	157.248	88.382	117.678	-162.600	129.375	139.554	192.489	144.146	193.744	-93.651	153.499	160.423	71.326	0.00068145	0.00044871	0.00017225	1364.3	3.9914e-06	4.1999e-06	1360.5	372.61	5.9472e-06	5.5559e-06	422.23	142.69	124.66	43.278	5.0568e-06	52.703	0.00055096	0.00045309	0.00012833	1381.4	4.9613e-06	4.8872e-06	1380.7	377.35	5.4302e-06	4.9567e-06	429.25	146.11	127.53	44.386	5.1025e-06	54.266	162.909	-63.106	-74.576	-150.822	-50.565	-23.992	-151.171	-146.529	-61.696	-5.354	-146.853	-142.735	-142.440	-137.169	-42.078	-138.157	-8191	255	
567.180	1	1	0	0	0.097705	0.2074	0.26993	0.19213	0.07141	0.13992	0.2076	0.16793	0.11067	0.1253	0.045242	0.12616	0.23976	0.25486	0.1259	0.068467	-2.7292	-3.4437	-3.2729	-3.2542	-3.5229	-3.3187	-3.3	-3.5604	-3.1958	-3.3792	-3.4479	-3.0854	-3.4979	-3.2083	-3.1375	-3.6729	194.723	3.017	-159.745	152.504	-52.586	106.055	-158.420	120.241	-86.963	98.291	-77.555	-154.620	-159.240	-36.141	-45.524	46.342	0.00068512	0.00045689	0.00012646	1361.9	3.544e-06	4.1172e-06	1353.6	372.48	5.2953e-06	3.9004e-06	421.01	143.01	124.65	43.453	4.7807e-06	52.478	0.00055015	0.0004472	0.00012277	1381	5.0587e-06	5.0158e-06	1379.5	377.47	5.2548e-06	4.9208e-06	429.55	146.1	127.38	44.407	5.3247e-06	54.159	162.252	-80.179	-68.176	-150.605	-52.435	-25.062	-151.202	-146.492	-68.322	-14.650	-146.519	-142.952	-142.487	-137.227	-39.940	-137.922	-8191	255	
567.276	1	1	0	0	0.12364	0.093675	0.16415	0.22583	0.23262	0.082388	0.11731	0.028079	0.087586	0.26508	0.18314	0.1262	0.16104	0.16918	0.067579	0.31753	-2.6167	-3.3063	-3.325	-3.1917	-3.2917	-3.2833	-3.0812	-3.675	-2.8958	-3.3771	-3.5875	-3.0708	-3.5604	-3.4375	-3.125	-3.5292	188.500	-25.771	75.814	-128.641	-84.253	121.577	132.175	-8.318	24.406	-29.602	141.313	132.996	184.988	131.422	-126.859	174.768	0.0007051	0.00046343	0.00012989	1363	3.7445e-06	3.5781e-06	1359	370.71	5.1722e-06	5.9631e-06	421.4	142.72	124.63	43.24	7.5507e-06	52.597	0.00055757	0.00045804	0.00012505	1379.9	5.2001e-06	4.9775e-06	1379.8	376.63	5.1909e-06	4.9216e-06	429.42	145.72	127.31	44.296	5.5787e-06	54.144	161.412	-63.101	-80.246	-150.833	-51.283	-10.036	-151.229	-146.579	-57.290	-5.792	-146.867	-142.632	-142.468	-137.389	-24.946	-138.178	-8191	255	
567.372	1	1	0	0	0.10333	0.25478	0.012926	0.3381	0.027236	0.078742	0.47126	0.15586	0.059762	0.23054	0.086261	0.024682	0.30042	0.15344	0.28601	0.056485	-2.5458	-3.2042	-3.4688	-3.2438	-3.1333	-3.3375	-3.0521	-3.3833	-3.2417	-3.0812	-3.5083	-2.9896	-3.4917	-3.2854	-2.9833	-3.5458	114.952	-37.663	43.188	125.924	113.172	49.099	162.759	185.676	-159.818	-143.467	64.107	-45.364	177.562	25.441	-82.412	-111.127	0.00067547	0.00049917	0.00018267	1368.9	3.055e-06	4.6531e-06	1357.4	370.79	6.2472e-06	4.561e-06	421.06	143.17	124.42	43.176	4.1945e-06	52.363	0.00056041	0.00046508	0.00013294	1382.7	5.1294e-06	5.0516e-06	1379	376.84	5.2807e-06	5.1635e-06	428.98	145.9	127.43	44.329	5.2429e-06	54.087	161.668	-82.154	-60.053	-150.711	-52.625	-0.686	-151.166	-146.443	-61.280	-7.323	-146.690	-143.065	-142.405	-137.307	-52.430	-138.341	-8191	255	
567.468	1	1	0	0	0.095853	0.091659	0.27997	0.33081	0.29217	0.17752	0.22238	0.13685	0.13575	0.06657	0.096988	0.19086	0.2427	0.11891	0.28227	0.060923	-2.6813	-3.1583	-3.4146	-3.2917	-3.2062	-3.4708	-3.2708	-3.5083	-3.2083	-2.9917	-3.5229	-3.1354	-3.2292	-3.3771	-2.9917	-3.5333	-92.772	123.896	-119.345	128.535	22.084	-93.302	152.803	141.287	-0.876	121.218	136.208	93.296	78.649	75.467	179.733	-77.606	0.00070579	0.00051095	0.00014305	1364.1	3.5391e-06	3.7802e-06	1359.7	370.43	5.538e-06	5.9416e-06	423.3	143.17	124.6	43.373	5.732e-06	52.663	0.00056641	0.00047821	0.00012796	1380.5	5.1667e-06	5.0524e-06	1380.7	376.68	5.4477e-06	5.1912e-06	429.66	146.17	127.32	44.453	5.2972e-06	54.14	161.518	-78.232	-69.776	-150.702	-57.296	-17.236	-151.186	-146.456	-57.638	-2.190	-146.903	-142.737	-142.433	-137.374	-48.770	-138.345	-8191	255	
567.587	1	1	0	0	0.085978	0.26547	0.17881	0.25126	0.064947	0.16398	0.20196	0.11056	0.32652	0.15007	0.30798	0.21826	0.062237	0.093663	0.20965	0.0096822	-2.9396	-3.1208	-3.3833	-3.1854	-3.2542	-3.5042	-3.1354	-3.6104	-3.2292	-3.0354	-3.4771	-3.1146	-3.4062	-3.4458	-3.1063	-3.6146	-11.038	69.909	172.659	131.244	64.047	-138.284	158.795	99.310	24.886	96.708	106.828	-150.621	-54.786	133.532	-79.750	-104.076	0.00064733	0.00048033	0.00011449	1364.8	3.7232e-06	5.6442e-06	1354.6	370.12	5.8459e-06	5.4649e-06	420.09	143.3	124.76	43.278	5.0289e-06	52.588	0.00054951	0.00046996	0.00012331	1382.6	5.2381e-06	4.8587e-06	1380.2	376.91	5.353e-06	4.9919e-06	428.97	146.2	127.74	44.427	5.3536e-06	54.287	161.867	-59.773	-74.808	-150.756	-53.566	-8.042	-151.154	-146.442	-58.847	-15.276	-146.812	-142.853	-142.307	-137.200	-32.795	-138.183	-8191	255	
567.683	1	1	0	0	0.35463	0.107	0.23612	0.34462	0.13372	0.11512	0.39496	0.25656	0.086867	0.057869	0.09138	0.078128	0.05584	0.12561	0.10299	0.19932	-2.9646	-2.9833	-3.4208	-3.3271	-3.2354	-3.6667	-3.2354	-3.3312	-3.2396	-3.0146	-3.5229	-3.2958	-3.1521	-3.8563	-3.2458	-3.2687	-32.663	-113.151	28.560	156.166	71.464	152.996	123.655	-15.074	-124.698	-26.707	-82.402	-15.823	-139.791	153.910	131.673	-141.647	0.00070964	0.00050182	0.00015135	1363.7	4.3963e-06	4.5886e-06	1360.4	371.14	5.6228e-06	5.1974e-06	420.61	143.28	124.73	43.329	3.9668e-06	52.567	0.00056201	0.00048747	0.00013067	1381.6	5.126e-06	4.8115e-06	1381.1	377.35	5.2106e-06	5.3032e-06	429.41	146.21	127.57	44.469	5.075e-06	54.248	161.305	-74.842	-80.171	-150.817	-45.980	-22.595	-151.197	-146.417	-67.944	-9.192	-146.601	-143.067	-142.330	-137.261	-46.630	-138.291	-8191	255	
567.779	1	1	0	0	0.22625	0.15175	0.17487	0.17899	0.26076	0.18035	0.075544	0.15278	0.17098	0.12397	0.18253	0.15413	0.026727	0.29798	0.035618	0.062824	-2.9792	-2.9188	-3.3979	-3.4271	-3.2438	-3.5625	-3.3167	-3.3417	-3.3417	-2.9688	-3.5854	-3.5687	-3.1417	-3.6854	-3.0625	-3.4229	186.829	114.836	-33.167	-137.190	-31.744	8.857	184.946	63.640	-147.972	39.900	-152.904	106.540	42.765	-127.056	3.887	164.537	0.00064411	0.0005572	0.00014719	1362.4	4.0262e-06	4.9e-06	1356.3	370.58	6.684e-06	5.904e-06	422.59	142.62	124.8	43.442	4.0258e-06	52.663	0.00053679	0.00046917	0.00011953	1379.9	5.1854e-06	5.0019e-06	1380.7	377.02	5.2611e-06	4.9249e-06	430.03	146.08	127.72	44.456	5.2675e-06	54.219	161.138	-75.243	-61.393	-150.681	-64.193	-7.170	-151.181	-146.704	-62.692	-1.903	-146.842	-142.826	-142.452	-137.511	-34.183	-138.313	-8191	255	
567.876	1	1	0	0	0.10828	0.20806	0.18914	0.42065	0.17529	0.26357	0.19506	0.21508	0.13654	0.042385	0.057198	0.14855	0.25903	0.044646	0.27189	0.20118	-2.8875	-2.8563	-3.4125	-3.4646	-3.1375	-3.5729	-3.2	-3.1771	-3.6229	-3.1604	-3.4458	-3.5563	-3.2417	-3.4042	-3.3958	-3.2729	192.454	162.169	140.788	145.969	134.923	167.807	60.937	177.705	-45.900	-59.253	92.954	-107.592	-143.406	63.949	54.942	-111.729	0.00068524	0.00055723	0.00014888	1365.1	3.1654e-06	5.9619e-06	1355.5	370.89	6.3328e-06	6.2274e-06	421.34	143.11	124.99	43.369	5.9126e-06	52.751	0.00055	0.00048769	0.00012325	1380.7	5.3948e-06	4.8693e-06	1380	376.99	5.3179e-06	5.0924e-06	430.05	146.22	127.92	44.601	5.2436e-06	54.35	159.336	-66.615	-77.437	-150.616	-61.272	-4.990	-151.122	-146.569	-67.286	-8.768	-146.727	-142.927	-142.589	-137.167	-44.973	-138.178	-8191	255	
567.972	1	1	0	0	0.037533	0.093977	0.2084	0.39352	0.15922	0.22623	0.14026	0.068424	0.11713	0.13172	0.23129	0.064391	0.20425	0.2152	0.21051	0.25738	-2.9958	-3.0042	-3.3667	-3.6083	-3.2146	-3.3812	-3.3958	-3.2771	-3.6437	-3.2104	-3.4396	-3.6333	-3.0687	-3.6542	-3.3083	-3.075	117.765	86.102	-68.304	161.623	-4.088	-133.126	145.242	156.474	-139.130	-162.317	95.798	168.487	120.599	-90.348	-10.940	-126.680	0.00070517	0.00055126	0.00016965	1363.4	2.9039e-06	4.386e-06	1360.8	370.99	5.8354e-06	3.5201e-06	421.55	143.77	125.14	43.431	4.4357e-06	53.088	0.00055178	0.00045654	0.00012772	1382.9	5.4515e-06	4.9612e-06	1381.6	377.59	5.1348e-06	4.9706e-06	431.04	146.81	127.97	44.605	5.1199e-06	54.532	160.972	-72.208	-79.575	-150.738	-60.142	-16.575	-151.188	-146.372	-64.046	-5.830	-146.969	-142.960	-142.527	-137.554	-54.965	-138.186	-8191	255	
568.068	1	1	0	0	0.18125	0.18884	0.062877	0.17127	0.10773	0.27122	0.19813	0.32454	0.14073	0.25077	0.11278	0.12124	0.23412	0.15566	0.12902	0.079852	-2.9417	-3.1542	-3.3042	-3.6542	-3.1083	-3.375	-3.5083	-3.1625	-3.6021	-3.0646	-3.1917	-3.7562	-3.1854	-3.4792	-3.2979	-3.2375	158.787	123.790	174.161	134.468	-80.446	-29.141	98.288	162.862	-163.542	-129.024	96.697	117.247	172.480	142.204	-29.288	-115.888	0.00069389	0.00044052	0.00012477	1362.2	3.8558e-06	6.258e-06	1361.5	371.38	5.1713e-06	4.2817e-06	424.13	144.18	125.08	43.497	5.4968e-06	52.608	0.00054556	0.00046106	0.00012574	1382.9	5.2968e-06	4.849e-06	1382.7	377.73	5.0001e-06	4.9208e-06	430.86	146.8	127.97	44.632	5.2494e-06	54.48	161.531	-68.206	-67.751	-150.726	-57.603	-15.399	-151.062	-146.277	-58.213	-20.096	-147.008	-142.805	-142.546	-137.275	-40.951	-138.034	-8191	255	
568.188	1	1	0	0	0.17967	0.18783	0.15883	0.13922	0.090232	0.083811	0.15463	0.077519	0.075064	0.24741	0.22615	0.11781	0.099099	0.28409	0.14745	0.20831	-3.0521	-3.0542	-3.1542	-3.5979	-3.1604	-3.2521	-3.6396	-3.0021	-3.4688	-3.15	-3.2521	-3.6437	-3.2125	-3.3958	-3.5187	-2.875	179.678	164.430	-14.937	191.815	-108.829	-31.060	92.583	-46.301	157.662	-5.294	179.513	-63.300	175.683	159.585	-51.925	139.547	0.00070502	0.00049833	0.00015496	1365.7	3.4124e-06	5.5836e-06	1364.9	371.76	4.8985e-06	5.3162e-06	421.32	143.69	125.07	43.705	5.634e-06	52.732	0.00055459	0.00044878	0.00013041	1382.4	5.0033e-06	4.8742e-06	1383.3	377.86	4.8934e-06	4.8284e-06	430.6	146.87	128.09	44.738	5.1401e-06	54.558	162.960	-104.793	-77.146	-150.746	-56.562	-10.052	-151.151	-146.492	-73.968	-16.306	-146.801	-142.984	-142.334	-137.585	-52.241	-138.263	-8191	255	
568.283	1	1	0	0	0.13102	0.10213	0.18914	0.096063	0.092317	0.15757	0.38597	0.25099	0.10153	0.34757	0.046471	0.27858	0.2301	0.032258	0.13009	0.12217	-3.0979	-3.1583	-2.9583	-3.6437	-2.9729	-3.4188	-3.5542	-3.1375	-3.5187	-3.3312	-3.3083	-3.6042	-3.3458	-3.2687	-3.4958	-2.9958	-13.869	-19.910	20.190	47.693	138.761	12.565	129.781	186.564	108.774	-50.672	117.054	169.795	-156.596	-141.413	-151.259	69.955	0.00071435	0.00047861	0.00016244	1364.9	4.603e-06	4.4994e-06	1359.9	371.87	6.8215e-06	5.3704e-06	423.69	143.39	125.65	43.582	4.122e-06	52.967	0.00055334	0.0004495	0.00012214	1382.2	5.1354e-06	4.9645e-06	1385.3	378.46	5.2421e-06	5.0875e-06	430.96	146.8	128.4	44.663	5.0873e-06	54.465	160.441	-82.727	-64.215	-150.759	-51.300	-38.528	-151.262	-146.503	-60.573	-24.021	-146.992	-142.912	-142.312	-137.399	-27.329	-138.225	-8191	255	
568.379	1	1	0	0	0.05945	0.03367	0.15433	0.3163	0.15013	0.33298	0.14044	0.32514	0.14	0.11636	0.11636	0.11172	0.21112	0.18455	0.0082046	0.14571	-3.0271	-3.2833	-3.1292	-3.6375	-3.2479	-3.1312	-3.6312	-3.0833	-3.2646	-3.3729	-2.9958	-3.6063	-3.3854	-3.1437	-3.575	-3.0979	-98.314	-89.881	-39.151	165.600	171.455	51.648	88.785	126.659	-123.739	115.444	170.659	150.423	161.479	-153.666	-100.813	179.027	0.00067707	0.00051725	0.00017369	1367.9	2.2961e-06	4.1678e-06	1360.8	372.1	5.7401e-06	4.2729e-06	423.8	144.03	125.59	43.573	6.4464e-06	52.931	0.00052706	0.00045668	0.00013128	1384.2	5.0867e-06	4.8848e-06	1382.9	378.4	5.2765e-06	4.9739e-06	431.5	146.95	128.37	44.755	5.3514e-06	54.603	159.363	-79.703	-71.884	-150.708	-30.129	4.252	-151.176	-146.350	-61.441	-10.887	-146.577	-142.997	-142.415	-137.281	-35.687	-138.285	-8191	255	
568.475	1	1	0	0	0.18889	0.15848	0.14912	0.27448	0.08809	0.094758	0.21186	0.21257	0.28498	0.1886	0.1273	0.22685	0.033866	0.073841	0.034559	0.1152	-2.9521	-3.3312	-2.9292	-3.7771	-3.1125	-3.0354	-3.6271	-3.1917	-3.2125	-3.4333	-3.0312	-3.4479	-3.3292	-3.35	-3.55	-3.3812	-29.667	71.521	-124.098	169.415	36.936	-106.717	85.884	150.557	68.115	32.257	-154.119	93.769	86.943	27.566	-36.455	15.404	0.00067772	0.00051152	0.00013969	1364.8	3.5679e-06	4.1472e-06	1358.2	371.21	6.1989e-06	4.3345e-06	422.65	144.16	125.25	43.666	5.5508e-06	53.114	0.0005538	0.00044641	0.0001291	1383.7	5.1807e-06	5.1142e-06	1383.7	377.94	5.1215e-06	5.0433e-06	430.95	147.07	128.32	44.733	4.9484e-06	54.56	162.220	-60.197	-75.144	-150.905	-43.353	-10.942	-151.068	-146.365	-69.031	-14.406	-146.641	-143.046	-142.418	-137.343	-35.931	-137.974	-8191	255	
#DATA ENDS
