BOXY.EXE: ISS Imagent and Oximeter Data Acquisition Program Version 0.80
Ascii Record File

#ACQ INFORMATION
2  Detector Channels 
16  External MUX Channels 
1  Auxiliary Channels 
5000  Waveform (CCF) Frequency (Hz)
1  Waveforms Skipped 
30  Waveforms Averaged 
1  Cycles Averaged 
16  Acquisitions per Waveform 
10.0806  Updata Rate (Hz) 

#FILE INFORMATION
TRUE -- External MUX Channel results are PARSED.
FALSE -- AC DC and Phase are NOT grouped.
TRUE -- Companion Program Settings File CREATED.
FALSE -- AC data not excluded
FALSE -- DC data not excluded
FALSE -- Phase data not excluded
FALSE -- Auxillary Chn. data not excluded
Tab delimiters

#CALIBRATION STATE
TRUE -- Waveform Calibration Values APPLIED.


#AUX CALIBRATION VALUES
Val Type	aux-1	

Term	1.0000e+00	
Factor	0.0000e+00	


#WF CALIBRATION VALUES
A = Detector Channel
Val Type	A-AC1	A-AC2	A-AC3	A-AC4	A-AC5	A-AC6	A-AC7	A-AC8	A-AC9	A-AC10	A-AC11	A-AC12	A-AC13	A-AC14	A-AC15	A-AC16	A-DC1	A-DC2	A-DC3	A-DC4	A-DC5	A-DC6	A-DC7	A-DC8	A-DC9	A-DC10	A-DC11	A-DC12	A-DC13	A-DC14	A-DC15	A-DC16	A-Ph1	A-Ph2	A-Ph3	A-Ph4	A-Ph5	A-Ph6	A-Ph7	A-Ph8	A-Ph9	A-Ph10	A-Ph11	A-Ph12	A-Ph13	A-Ph14	A-Ph15	A-Ph16	

Term	0.00000e+00	0.00000e+00	0.00000e+00	0.00000e+00	0.00000e+00	0.00000e+00	0.00000e+00	0.00000e+00	0.00000e+00	0.00000e+00	0.00000e+00	0.00000e+00	0.00000e+00	0.00000e+00	0.00000e+00	0.00000e+00	0.00000e+00	0.00000e+00	0.00000e+00	0.00000e+00	0.00000e+00	0.00000e+00	0.00000e+00	0.00000e+00	0.00000e+00	0.00000e+00	0.00000e+00	0.00000e+00	0.00000e+00	0.00000e+00	0.00000e+00	0.00000e+00	0.00000e+00	0.00000e+00	0.00000e+00	0.00000e+00	0.00000e+00	0.00000e+00	0.00000e+00	0.00000e+00	0.00000e+00	0.00000e+00	0.00000e+00	0.00000e+00	0.00000e+00	0.00000e+00	0.00000e+00	0.00000e+00	
Factor	1.00000e+00	1.00000e+00	1.00000e+00	1.00000e+00	1.00000e+00	1.00000e+00	1.00000e+00	1.00000e+00	1.00000e+00	1.00000e+00	1.00000e+00	1.00000e+00	1.00000e+00	1.00000e+00	1.00000e+00	1.00000e+00	1.00000e+00	1.00000e+00	1.00000e+00	1.00000e+00	1.00000e+00	1.00000e+00	1.00000e+00	1.00000e+00	1.00000e+00	1.00000e+00	1.00000e+00	1.00000e+00	1.00000e+00	1.00000e+00	1.00000e+00	1.00000e+00	X	X	X	X	X	X	X	X	X	X	X	X	X	X	X	X	

B = Detector Channel
Val Type	B-AC1	B-AC2	B-AC3	B-AC4	B-AC5	B-AC6	B-AC7	B-AC8	B-AC9	B-AC10	B-AC11	B-AC12	B-AC13	B-AC14	B-AC15	B-AC16	B-DC1	B-DC2	B-DC3	B-DC4	B-DC5	B-DC6	B-DC7	B-DC8	B-DC9	B-DC10	B-DC11	B-DC12	B-DC13	B-DC14	B-DC15	B-DC16	B-Ph1	B-Ph2	B-Ph3	B-Ph4	B-Ph5	B-Ph6	B-Ph7	B-Ph8	B-Ph9	B-Ph10	B-Ph11	B-Ph12	B-Ph13	B-Ph14	B-Ph15	B-Ph16	

Term	0.00000e+00	0.00000e+00	0.00000e+00	0.00000e+00	0.00000e+00	0.00000e+00	0.00000e+00	0.00000e+00	0.00000e+00	0.00000e+00	0.00000e+00	0.00000e+00	0.00000e+00	0.00000e+00	0.00000e+00	0.00000e+00	0.00000e+00	0.00000e+00	0.00000e+00	0.00000e+00	0.00000e+00	0.00000e+00	0.00000e+00	0.00000e+00	0.00000e+00	0.00000e+00	0.00000e+00	0.00000e+00	0.00000e+00	0.00000e+00	0.00000e+00	0.00000e+00	-1.66874e+02	-1.31149e+02	-1.23274e+02	-1.81197e+02	-8.08868e+01	-6.69930e+01	-1.55623e+02	-1.62015e+02	-8.55906e+01	-6.15622e+01	-1.70159e+02	-1.69445e+02	-1.78137e+02	-1.75061e+02	-7.32031e+01	-1.48439e+02	
Factor	2.75494e-05	1.84498e-04	5.05242e-05	1.55230e-01	1.47176e-06	1.96328e-06	1.79019e-01	6.63743e-02	1.70374e-06	1.96810e-06	1.39122e-01	2.85069e-02	2.34487e-02	9.27554e-03	1.78204e-06	1.36717e-02	1.70489e-05	3.44555e-05	9.70341e-06	7.75244e-02	3.20128e-07	3.90521e-07	8.40011e-02	3.32531e-02	3.36799e-07	3.92224e-07	6.72449e-02	1.38968e-02	1.19525e-02	4.70239e-03	3.47354e-07	6.70891e-03	X	X	X	X	X	X	X	X	X	X	X	X	X	X	X	X	



#DISTANCE SETTINGS
A = Detector Channel
A-1	A-2	A-3	A-4	A-5	A-6	A-7	A-8	A-9	A-10	A-11	A-12	A-13	A-14	A-15	A-16	

2.5000e+00	3.0000e+00	2.5000e+00	3.0000e+00	2.0000e+00	3.0000e+00	1.5000e+00	3.0000e+00	3.0000e+00	3.0000e+00	3.0000e+00	3.0000e+00	3.0000e+00	3.0000e+00	1.5000e+00	3.0000e+00	

B = Detector Channel
B-1	B-2	B-3	B-4	B-5	B-6	B-7	B-8	B-9	B-10	B-11	B-12	B-13	B-14	B-15	B-16	

1.0000e+01	1.0000e+01	1.0000e+01	1.4400e+00	1.0000e+01	1.0000e+01	1.5100e+00	1.9400e+00	1.0000e+01	1.0000e+01	1.9900e+00	2.4900e+00	2.4100e+00	2.9000e+00	1.0000e+01	2.9800e+00	




#DATA BEGINS
time	group	step	mark	flag	A-AC1	A-AC2	A-AC3	A-AC4	A-AC5	A-AC6	A-AC7	A-AC8	A-AC9	A-AC10	A-AC11	A-AC12	A-AC13	A-AC14	A-AC15	A-AC16	A-DC1	A-DC2	A-DC3	A-DC4	A-DC5	A-DC6	A-DC7	A-DC8	A-DC9	A-DC10	A-DC11	A-DC12	A-DC13	A-DC14	A-DC15	A-DC16	A-Ph1	A-Ph2	A-Ph3	A-Ph4	A-Ph5	A-Ph6	A-Ph7	A-Ph8	A-Ph9	A-Ph10	A-Ph11	A-Ph12	A-Ph13	A-Ph14	A-Ph15	A-Ph16	B-AC1	B-AC2	B-AC3	B-AC4	B-AC5	B-AC6	B-AC7	B-AC8	B-AC9	B-AC10	B-AC11	B-AC12	B-AC13	B-AC14	B-AC15	B-AC16	B-DC1	B-DC2	B-DC3	B-DC4	B-DC5	B-DC6	B-DC7	B-DC8	B-DC9	B-DC10	B-DC11	B-DC12	B-DC13	B-DC14	B-DC15	B-DC16	B-Ph1	B-Ph2	B-Ph3	B-Ph4	B-Ph5	B-Ph6	B-Ph7	B-Ph8	B-Ph9	B-Ph10	B-Ph11	B-Ph12	B-Ph13	B-Ph14	B-Ph15	B-Ph16	aux-1	digaux	

646.551	1	1	0	256	0.22335	0.04476	0.18239	0.31795	0.12086	0.020958	0.19211	0.08038	0.20054	0.093212	0.1438	0.15199	0.1055	0.19251	0.074414	0.33032	-2.8417	-3.2979	-2.8333	-3.5479	-3.1271	-3.0042	-3.55	-2.9271	-3.2917	-3.3083	-3.0187	-3.3896	-3.0812	-3.0771	-3.3396	-2.9	-99.898	-96.230	-71.158	-135.349	-9.801	-81.316	125.090	182.662	83.324	61.804	140.672	139.608	172.712	169.241	-145.050	124.109	0.00065149	0.00044247	0.00012675	1291.5	3.3192e-06	5.0441e-06	1285.5	353.94	5.6607e-06	4.7618e-06	406.2	133.37	113.12	40.462	4.8857e-06	49.448	0.00067201	0.00075666	0.0002125	1306.6	7.9358e-06	8.0667e-06	1308.5	359.31	7.6278e-06	8.0659e-06	414.45	136.83	115.65	41.536	7.8915e-06	50.93	161.343	-83.179	-64.376	-149.531	-57.285	-6.091	-149.964	-145.361	-54.037	-7.443	-145.311	-141.644	-139.974	-135.912	-33.569	-136.895	-8191	255	
646.672	1	1	0	0	0.039142	0.23503	0.19465	0.11256	0.39331	0.17245	0.068364	0.30866	0.1569	0.30922	0.21298	0.26988	0.23784	0.22391	0.22038	0.1338	-2.7729	-3.3625	-2.8167	-3.4562	-3.0729	-2.9646	-3.4896	-2.8688	-3.1417	-3.3292	-2.9917	-3.5792	-3.125	-3.2083	-3.4604	-3.0375	173.457	-125.468	-19.577	132.314	-137.735	-20.317	67.365	117.949	-11.382	-145.913	-109.696	-110.986	106.132	144.637	143.359	35.865	0.00065559	0.00040585	0.00016193	1286.3	3.8712e-06	4.3588e-06	1289.7	354.12	4.9239e-06	5.2711e-06	408.44	133.89	112.92	40.617	5.1418e-06	49.335	0.00066924	0.00072098	0.00020986	1303.9	7.553e-06	8.0106e-06	1310.6	360.01	7.818e-06	7.994e-06	415.99	137.17	115.82	41.676	7.843e-06	51.022	160.098	-100.975	-66.965	-149.614	-39.648	-15.733	-150.096	-145.185	-52.783	-5.337	-145.438	-141.674	-139.943	-135.863	-9.707	-136.837	-8191	255	
646.768	1	1	0	0	0.084155	0.11656	0.24063	0.086847	0.18195	0.097754	0.17778	0.14223	0.14247	0.069433	0.21308	0.12254	0.19322	0.15501	0.052485	0.074776	-2.6188	-3.1917	-2.6667	-3.3771	-3.2062	-2.8354	-3.5354	-3.1104	-3.0958	-3.3479	-2.9104	-3.2542	-3.2188	-2.7333	-3.3479	-3.0917	-79.396	-146.594	-107.901	-108.146	166.400	178.435	195.244	79.871	137.615	-58.671	45.052	-132.054	-112.031	-147.759	-150.766	138.829	0.00063536	0.00031003	0.00011853	1289.4	4.2095e-06	4.6287e-06	1289.7	355.78	7.0146e-06	5.625e-06	408.47	134.07	113.08	40.623	6.6154e-06	49.639	0.0006703	0.00071438	0.00019777	1307.7	7.399e-06	7.7445e-06	1312.2	361.46	7.6453e-06	7.8494e-06	416.81	137.42	116.09	41.753	7.4095e-06	51.109	164.629	-64.391	-55.485	-149.535	-60.732	-8.818	-149.854	-145.408	-63.892	-12.105	-145.442	-141.559	-140.089	-135.967	-38.941	-136.949	-8191	255	
646.864	1	1	0	0	0.11142	0.17856	0.3049	0.089482	0.18412	0.024391	0.24141	0.10672	0.17009	0.12155	0.22173	0.30025	0.24874	0.080368	0.25492	0.29693	-2.4208	-3.2438	-2.8917	-3.3083	-3.1521	-2.8125	-3.5938	-3.15	-2.9646	-3.4229	-3.0958	-3.2333	-3.5208	-3.025	-3.4271	-3.2313	126.555	29.983	174.803	157.670	-50.976	102.556	151.997	126.422	-24.914	-129.424	31.441	-104.611	157.330	118.987	-100.869	-154.589	0.00065345	0.000464	0.00015726	1289.4	3.2052e-06	4.542e-06	1287.7	354.83	5.0613e-06	5.3594e-06	410.5	134.19	113.57	40.622	4.4469e-06	49.364	0.00065652	0.00068775	0.00019409	1306.5	7.1315e-06	7.6583e-06	1309.4	361.34	7.3408e-06	7.4898e-06	416.92	137.45	116.15	41.734	7.1989e-06	51.069	162.782	-67.133	-48.816	-149.544	-53.972	-12.290	-149.920	-145.253	-64.120	-0.730	-145.803	-141.632	-139.828	-136.126	-45.087	-136.889	-8191	255	
646.983	1	1	0	0	0.10247	0.18897	0.2897	0.52958	0.089887	0.15239	0.15119	0.16587	0.25544	0.23361	0.18692	0.15537	0.17081	0.043855	0.20798	0.25309	-2.3208	-3.0771	-2.9	-3.1333	-3.2979	-3.0083	-3.4	-3.0917	-2.8729	-3.4583	-2.925	-3.1792	-3.3104	-2.8937	-3.1917	-3.2646	21.126	195.889	152.479	159.490	-19.237	-142.001	188.681	176.366	-93.306	84.781	120.000	65.271	117.315	-64.840	30.738	146.486	0.0006423	0.00032554	0.00014294	1283.5	4.8407e-06	5.4298e-06	1282.5	353.69	6.2591e-06	4.4691e-06	409.17	134.13	113.11	40.45	6.1124e-06	49.228	0.00064516	0.00066255	0.000193	1303.8	7.1088e-06	7.4988e-06	1308.3	360.35	7.8123e-06	7.3583e-06	416.08	137.37	115.79	41.636	7.183e-06	50.879	162.148	-99.795	-73.427	-149.488	-44.630	-18.969	-149.925	-145.358	-67.710	-32.531	-145.717	-141.656	-139.944	-135.708	-41.522	-137.047	-8191	255	
647.079	1	1	0	0	0.054547	0.18441	0.25543	0.32304	0.17563	0.24838	0.2287	0.20837	0.12617	0.28557	0.12798	0.12698	0.26733	0.05801	0.18477	0.144	-2.2812	-3.1979	-3.0604	-3.2812	-3.3063	-3.075	-3.3396	-3.1937	-2.7771	-3.1417	-3.2104	-3.0583	-3.4458	-2.9813	-2.9708	-3.2542	69.627	-157.708	-143.961	142.773	186.886	181.132	195.363	191.659	173.794	97.114	-123.013	129.660	-130.924	-131.094	-8.221	187.300	0.0006372	0.0005326	0.00016448	1283.1	2.879e-06	4.2946e-06	1284.1	353.98	5.6838e-06	2.9879e-06	406.73	134.2	112.9	40.57	2.9172e-06	49.218	0.00065247	0.00067389	0.0001913	1301.2	7.1942e-06	7.7209e-06	1306.1	359.93	7.5296e-06	7.5291e-06	414.89	137.22	115.76	41.584	7.3596e-06	50.904	161.881	-78.258	-75.480	-149.483	-44.412	-21.258	-149.841	-145.244	-60.171	-5.662	-145.617	-141.605	-139.851	-135.981	-36.430	-136.645	-8191	255	
647.175	1	1	0	0	0.084943	0.26413	0.22625	0.26997	0.047455	0.15883	0.15974	0.080641	0.19202	0.30397	0.23668	0.29099	0.11067	0.045638	0.13352	0.27608	-2.4229	-3.2979	-3.0396	-2.9917	-3.3063	-2.9	-3.2104	-3.3875	-2.9333	-3.2771	-3.1771	-3.0896	-3.45	-2.9854	-3.2604	-3.4021	-138.887	174.227	-124.523	150.042	-103.446	76.014	118.274	136.417	170.153	-155.079	-28.180	74.284	124.953	-153.195	-46.432	74.304	0.00064243	0.00044133	0.00016448	1280.4	3.4837e-06	5.8585e-06	1285.8	354.32	6.304e-06	4.2215e-06	406.09	134.33	112.85	40.608	5.5664e-06	49.441	0.00064491	0.00067296	0.00019419	1300.9	7.0935e-06	7.6298e-06	1307.5	360.11	7.5654e-06	7.3125e-06	414.21	137.31	115.85	41.63	7.0896e-06	50.895	160.970	-81.756	-77.787	-149.600	-51.695	-12.827	-149.974	-145.109	-47.681	-11.158	-145.440	-141.539	-139.961	-136.049	-34.134	-137.052	-8191	255	
647.271	1	1	0	0	0.17225	0.14299	0.11078	0.19133	0.14161	0.17313	0.30643	0.090847	0.20885	0.25181	0.074085	0.031822	0.33374	0.10775	0.25671	0.17325	-2.3063	-3.0875	-3.0958	-3.0292	-3.4229	-3.0042	-3.3375	-3.3667	-2.8354	-3.2042	-3.2208	-3.1063	-3.4354	-3.0583	-3.0125	-3.4667	-139.302	69.457	-74.857	150.088	-73.594	-128.569	164.893	97.305	121.028	-140.813	-14.311	-96.388	141.678	181.845	107.811	147.910	0.0006022	0.00047845	0.00012857	1284.6	2.8612e-06	3.7272e-06	1279.9	353.37	5.7234e-06	5.2704e-06	406.98	134.05	112.71	40.518	5.0326e-06	49.408	0.00064157	0.00065114	0.00018137	1300.6	6.9848e-06	7.4183e-06	1304.3	359.73	7.2896e-06	7.2414e-06	415.16	137.36	115.72	41.595	7.2575e-06	50.935	161.288	-74.401	-70.225	-149.726	-47.288	-6.973	-149.797	-145.184	-62.317	-12.850	-145.309	-141.283	-140.208	-135.969	-39.597	-136.789	-8191	255	
647.367	1	1	0	0	0.087955	0.30359	0.040376	0.21377	0.2617	0.18976	0.22561	0.11507	0.2534	0.055765	0.18036	0.38407	0.21236	0.26419	0.095801	0.30364	-2.5458	-3.2313	-3.2542	-3.1208	-3.4167	-2.9188	-3.0208	-3.4208	-2.9938	-3.3375	-3.3312	-3.0833	-3.4729	-3.1208	-2.9062	-3.4437	3.266	-83.801	-4.385	-131.973	116.346	-17.075	134.112	-141.668	152.801	-106.605	177.700	139.401	-115.511	-72.061	-141.936	186.211	0.00064238	0.00052345	0.00010414	1285.4	4.2787e-06	5.8622e-06	1281.5	352.86	5.8741e-06	5.5956e-06	407.09	133.75	112.7	40.522	4.8301e-06	49.179	0.00063471	0.00065272	0.00018527	1300.5	6.6673e-06	7.4402e-06	1302.8	359.17	7.3135e-06	7.3656e-06	414.46	137.08	115.54	41.495	7.0788e-06	50.784	162.632	-99.224	-74.301	-149.578	-62.066	-14.101	-149.805	-145.347	-42.776	-5.028	-145.638	-141.612	-139.913	-136.154	-40.413	-136.892	-8191	255	
647.463	1	1	0	0	0.05814	0.082225	0.10043	0.20344	0.017164	0.45039	0.082255	0.16485	0.022402	0.091487	0.28322	0.19842	0.030255	0.26797	0.23224	0.23761	-2.4729	-3.1312	-3.3187	-2.9979	-3.2896	-3.3167	-3.3042	-3.4562	-2.9375	-3.2396	-3.1875	-3.0604	-3.3167	-3.2	-2.7729	-3.6562	80.551	87.619	-85.195	173.812	-116.720	-126.512	-7.654	169.645	167.670	53.896	105.264	-94.020	180.617	-146.054	10.548	-94.979	0.00064377	0.00032583	0.00013929	1279.3	3.8134e-06	4.4391e-06	1279.4	351.88	6.229e-06	5.866e-06	405.3	133.72	112.47	40.241	5.1711e-06	49.117	0.00063592	0.00065982	0.00018978	1297.6	7.1995e-06	7.2857e-06	1301.6	358.33	7.3198e-06	7.5577e-06	413.89	136.68	115.25	41.368	7.5441e-06	50.677	162.004	-73.859	-74.053	-149.620	-69.406	-3.934	-149.937	-145.183	-60.004	-9.465	-145.334	-141.524	-139.805	-135.892	-40.052	-136.810	-8191	255	
647.584	1	1	0	0	0.14786	0.056427	0.17601	0.20854	0.17323	0.096794	0.13314	0.099961	0.099848	0.15868	0.087964	0.19997	0.06147	0.25318	0.16288	0.21475	-2.7479	-3.0771	-3.3125	-2.8479	-3.2958	-3.3146	-2.9813	-3.4	-2.9792	-3.0479	-3.4313	-2.8917	-3.3125	-3.2854	-2.8479	-3.2521	136.436	-50.596	160.292	170.646	-155.835	105.760	122.491	82.299	77.451	51.692	121.972	126.823	141.389	-156.763	168.586	157.014	0.00063645	0.00039058	0.00013034	1278.2	3.9814e-06	3.5191e-06	1280.7	351.85	4.1615e-06	4.3899e-06	404.66	133.3	112.51	40.282	5.4472e-06	48.956	0.00064391	0.00066341	0.00019029	1294.6	7.0768e-06	7.2669e-06	1302.5	358.22	7.2152e-06	7.6337e-06	412.96	136.63	115.38	41.427	7.356e-06	50.641	160.614	-75.596	-51.477	-149.502	-52.630	-34.955	-149.840	-145.283	-68.228	-3.145	-145.419	-141.650	-139.948	-135.905	-41.807	-136.755	-8191	255	
647.680	1	1	0	0	0.1389	0.1517	0.16246	0.43452	0.13411	0.023046	0.14534	0.25925	0.13022	0.22812	0.11773	0.15316	0.013465	0.27763	0.16155	0.13205	-2.7167	-3.0396	-3.4625	-3.1625	-3.1854	-3.4	-3.1333	-3.4083	-3.0458	-2.9979	-3.4542	-3.0167	-3.2625	-3.3354	-2.9792	-3.3917	-38.788	-30.986	-105.941	142.647	-69.858	-54.169	195.894	125.292	139.158	-69.209	142.016	124.419	-96.203	-160.748	136.361	65.333	0.0006367	0.00043225	0.00012136	1279.2	2.8716e-06	4.6569e-06	1282.2	352.49	6.6874e-06	4.059e-06	405.59	133.81	112.49	40.568	3.7185e-06	49.383	0.00063891	0.00066793	0.00018792	1295.6	6.9915e-06	7.28e-06	1302.1	358.44	7.3485e-06	7.3101e-06	413.52	136.89	115.28	41.482	7.2612e-06	50.772	162.596	-63.075	-86.591	-149.566	-63.002	-2.531	-149.767	-145.185	-71.552	-4.702	-145.768	-141.434	-139.948	-136.052	-34.325	-136.843	-8191	255	
647.775	1	1	0	0	0.16705	0.32661	0.1359	0.18288	0.10916	0.086775	0.028004	0.079112	0.06409	0.21656	0.17512	0.28361	0.2512	0.066028	0.2454	0.10114	-2.6437	-2.8937	-3.3937	-3.2042	-3.0938	-3.3729	-3.0417	-3.3688	-3.2313	-2.9896	-3.4083	-3.1521	-3.2354	-3.3812	-2.8708	-3.3396	70.978	-2.892	-16.124	-117.081	4.125	-127.284	44.503	126.480	114.616	122.127	87.485	92.892	156.885	-63.242	-28.048	-149.765	0.00063253	0.00059918	0.00015148	1278.8	3.6742e-06	4.3099e-06	1278.1	351.88	4.8851e-06	5.0093e-06	405.56	133.46	112.23	40.144	6.4815e-06	49.046	0.00062683	0.00067863	0.00019229	1295.7	6.9688e-06	7.3556e-06	1302	358.34	7.4685e-06	7.7146e-06	413.02	136.61	115.11	41.315	7.5788e-06	50.7	159.144	-94.806	-87.252	-149.595	-61.386	-29.211	-149.990	-145.210	-53.129	-3.366	-145.293	-141.522	-139.810	-135.891	-33.443	-136.585	-8191	255	
647.848	1	1	0	0	0.25251	0.3281	0.17666	0.30063	0.13266	0.065719	0.34108	0.23869	0.17295	0.11234	0.22412	0.19461	0.15012	0.23465	0.17238	0.31973	-2.7104	-2.8583	-3.2729	-3.2646	-2.9479	-3.4938	-3.0708	-3.2625	-3.2792	-2.8438	-3.3917	-3.2854	-2.9042	-3.3854	-2.8833	-3.2667	-117.224	37.327	70.968	155.900	-27.498	76.602	163.686	-160.406	-17.223	169.414	-109.062	79.233	-117.360	140.418	-70.954	-141.161	0.00065448	0.00043103	0.00014902	1277.5	3.6887e-06	3.2399e-06	1277.5	351.63	5.2879e-06	5.8321e-06	404.65	133.47	112.02	40.385	3.8515e-06	49.11	0.00065585	0.00071574	0.00018982	1296.7	7.2442e-06	7.5623e-06	1299.4	357.32	7.4622e-06	8.1141e-06	412.65	136.44	115.06	41.364	7.754e-06	50.599	162.585	-86.141	-62.455	-149.507	-48.442	4.233	-150.017	-145.328	-58.481	-5.619	-145.515	-141.435	-139.997	-136.053	-20.332	-136.685	-8191	255	
647.944	1	1	0	0	0.067333	0.27532	0.088775	0.29825	0.066904	0.086969	0.14302	0.12557	0.24464	0.13465	0.14438	0.24164	0.25342	0.19857	0.084704	0.27132	-2.7917	-2.95	-3.2854	-3.3042	-2.9333	-3.4604	-3.0958	-3.1458	-3.2896	-2.8375	-3.3625	-3.4375	-3.0187	-3.5208	-2.9958	-3.2104	186.910	181.939	-24.772	169.526	-74.872	-63.359	138.292	107.675	-28.366	183.081	-118.401	152.442	83.591	119.628	-143.792	142.118	0.00062803	0.00034153	0.00014736	1280.3	3.8437e-06	4.1116e-06	1282.2	351.74	4.889e-06	4.9169e-06	406.73	132.88	111.86	40.221	4.659e-06	49.013	0.00064349	0.0007016	0.00019674	1297.8	7.6571e-06	7.7177e-06	1304.4	357.66	7.7169e-06	8.4124e-06	413.29	136.22	114.78	41.238	7.8292e-06	50.44	161.733	-83.233	-78.725	-149.514	-58.118	-7.036	-150.129	-145.080	-40.334	-22.809	-145.504	-141.509	-139.811	-135.748	-8.782	-136.870	-8191	255	
648.063	1	1	0	0	0.1744	0.22995	0.19594	0.28958	0.072182	0.097201	0.10512	0.4311	0.030216	0.25531	0.018349	0.084721	0.12911	0.3433	0.26623	0.32604	-2.9625	-2.7229	-3.1708	-3.5333	-2.8729	-3.5104	-3.2083	-3.1604	-3.4458	-2.9625	-3.3229	-3.3417	-2.9979	-3.4021	-3.0917	-3.1042	145.031	80.691	97.189	157.499	-37.071	119.076	122.056	-157.656	190.559	191.150	83.721	157.995	164.707	-159.905	109.944	144.634	0.00063306	0.00049183	0.00013931	1279.2	2.9891e-06	5.5168e-06	1278.4	349.84	5.387e-06	4.967e-06	404.14	132.43	111.89	39.857	4.6743e-06	48.944	0.00066171	0.00073433	0.00019795	1297.9	7.6371e-06	7.4646e-06	1300.5	356.13	7.8944e-06	8.0243e-06	411.91	135.98	114.54	41.055	7.505e-06	50.476	160.015	-79.452	-76.791	-149.610	-49.138	-4.258	-149.980	-145.216	-59.117	-14.258	-145.444	-141.643	-139.959	-135.801	-23.618	-137.012	-8191	255	
648.159	1	1	0	0	0.16589	0.21868	0.28546	0.1894	0.28296	0.20223	0.34896	0.062911	0.12926	0.036786	0.13187	0.20422	0.2672	0.26935	0.086034	0.17877	-2.95	-2.9396	-3.0938	-3.325	-2.95	-3.2625	-3.4	-3.1729	-3.3271	-3.1625	-3.3438	-3.3708	-3.0292	-3.3104	-3.1562	-3.0438	-44.825	-6.145	9.913	157.475	-158.116	94.949	163.910	85.746	190.353	-161.256	109.225	-156.110	-140.765	166.062	192.118	48.984	0.0006311	0.0004747	0.0001407	1277.9	3.9169e-06	4.7794e-06	1278.7	349.74	6.1696e-06	4.7314e-06	402.26	132.37	111.7	40.055	5.7634e-06	48.733	0.00066274	0.00073799	0.00019575	1295	7.8065e-06	7.8511e-06	1300.5	355.8	7.6692e-06	8.0014e-06	411.46	135.78	114.42	41.087	7.7402e-06	50.36	163.285	-100.126	-64.963	-149.658	-44.610	-37.682	-150.057	-145.173	-45.626	7.404	-145.587	-141.477	-139.757	-135.773	-47.849	-136.891	-8191	255	
648.255	1	1	0	0	0.16323	0.29137	0.11393	0.31867	0.14997	0.11044	0.14935	0.15328	0.048061	0.17171	0.39734	0.21911	0.37683	0.17828	0.046963	0.071813	-2.9458	-3.0229	-2.9667	-3.4167	-2.8542	-3.3375	-3.2896	-3.1167	-3.4354	-2.9104	-3.0854	-3.4458	-2.9708	-3.2188	-3.2354	-2.7938	90.138	82.316	-143.559	130.383	136.625	154.837	124.265	82.856	57.621	-157.282	190.785	-116.327	131.409	89.607	-35.271	124.807	0.00063305	0.00039979	0.00011803	1274.5	4.5292e-06	4.5854e-06	1279	349.21	4.454e-06	5.6802e-06	404.17	132.92	112.16	40.103	4.6902e-06	48.963	0.00064999	0.00071387	0.00020007	1294.4	7.5744e-06	7.5908e-06	1300.3	355.97	7.7338e-06	8.1092e-06	411.96	135.87	114.63	41.086	7.7236e-06	50.472	159.850	-84.790	-64.054	-149.603	-53.116	-3.505	-149.943	-145.350	-60.001	-10.437	-145.460	-141.456	-139.890	-136.057	-30.126	-136.828	-8191	255	
648.352	1	1	0	0	0.22441	0.20429	0.12672	0.45074	0.373	0.10196	0.42074	0.13017	0.12413	0.25399	0.11696	0.079425	0.28491	0.085649	0.072007	0.29974	-2.9813	-2.9667	-2.9313	-3.6646	-2.8646	-3.1792	-3.35	-3.1042	-3.1312	-3.1396	-2.8896	-3.3417	-2.9875	-3.2479	-3.3854	-2.9188	-55.093	-9.137	-147.133	132.901	-6.164	-53.378	130.674	35.124	98.492	58.650	106.779	139.953	174.813	116.492	3.974	162.099	0.00060837	0.00027293	0.0001663	1277.3	2.9048e-06	5.0157e-06	1278.7	349.59	4.5488e-06	5.3906e-06	403.84	132.73	112.23	40.031	5.3938e-06	48.768	0.00064949	0.00070871	0.00020595	1295.8	7.7858e-06	7.8666e-06	1301.7	355.96	7.9162e-06	8.4361e-06	411.89	135.75	114.56	41.031	7.7496e-06	50.326	162.705	-101.875	-89.069	-149.659	-51.221	0.615	-149.833	-145.154	-63.100	0.780	-145.546	-141.601	-140.059	-136.037	-40.355	-136.802	-8191	255	
648.448	1	1	0	0	0.20625	0.17583	0.14453	0.31868	0.15965	0.030959	0.20989	0.34672	0.11027	0.085011	0.16173	0.094957	0.044016	0.044682	0.268	0.012277	-2.8604	-3.0958	-2.9833	-3.5583	-2.9042	-2.9667	-3.4917	-2.8937	-3.2208	-3.1583	-3.075	-3.4854	-3.0312	-3.0833	-3.3458	-2.9875	180.473	192.378	-143.580	180.302	27.083	13.729	132.502	153.844	-122.357	159.385	-52.876	156.305	85.797	-72.053	156.305	108.714	0.00061183	0.00046882	0.00012284	1279.5	3.5927e-06	4.089e-06	1278.1	349.67	3.6422e-06	4.0906e-06	403.52	132.85	111.47	39.991	4.8123e-06	48.77	0.00065997	0.0007367	0.00020527	1297.1	7.8011e-06	8.1326e-06	1302.7	356.15	7.8776e-06	8.0602e-06	411.22	135.81	114.27	41.02	8.1245e-06	50.252	160.614	-82.127	-76.850	-149.476	-48.439	-15.042	-149.955	-145.091	-50.786	-17.160	-145.462	-141.465	-139.837	-135.903	-22.291	-136.784	-8191	255	
648.544	1	1	0	0	0.19704	0.096243	0.071658	0.17661	0.27754	0.057862	0.22136	0.076001	0.08727	0.059136	0.19804	0.19243	0.11034	0.15502	0.313	0.16779	-2.8896	-3.1771	-2.7771	-3.5104	-3.2208	-2.9562	-3.5625	-2.9104	-3.2438	-3.2438	-3.0375	-3.4021	-3.1229	-3.1625	-3.2479	-2.9979	126.456	32.239	-86.059	196.527	-13.910	71.777	78.438	-50.467	11.547	-38.912	94.220	103.081	88.887	18.439	146.366	164.512	0.0006496	0.00041706	0.00016726	1283.4	3.8276e-06	6.4675e-06	1282.6	349.36	4.9269e-06	4.8117e-06	403.51	132.32	111.91	40.015	4.6159e-06	48.781	0.0006567	0.00073074	0.00021048	1299.3	7.7117e-06	8.1741e-06	1302.5	356.28	7.8811e-06	8.5774e-06	411.55	135.67	114.6	41.103	8.1824e-06	50.403	159.343	-68.366	-74.735	-149.501	-55.014	-32.459	-149.958	-145.296	-67.722	14.800	-145.443	-141.591	-139.952	-135.627	-61.652	-136.934	-8191	255	
648.664	1	1	0	0	0.13444	0.11348	0.099316	0.20334	0.20906	0.073463	0.19458	0.077515	0.13827	0.18026	0.12828	0.07457	0.098248	0.13101	0.055728	0.10933	-2.7729	-3.0792	-2.7458	-3.2354	-3.0792	-2.8833	-3.6167	-2.8833	-3.1333	-3.2104	-2.8771	-3.2	-3.3	-2.9729	-3.3979	-2.9125	173.134	72.213	149.579	131.105	15.485	-37.239	114.529	129.177	-80.354	39.378	-95.706	135.393	109.200	-16.392	-23.723	20.986	0.00061576	0.00044037	0.00014698	1290.1	2.6962e-06	4.5458e-06	1291.6	352.19	6.3843e-06	4.1226e-06	407.32	133.56	112.45	40.234	4.979e-06	49.319	0.00067709	0.0007947	0.00022734	1304.6	7.9952e-06	8.8982e-06	1314.3	358.4	8.7392e-06	8.9664e-06	415.36	136.96	115.37	41.437	8.838e-06	50.843	163.681	-79.112	-66.769	-149.480	-36.179	-20.409	-150.172	-145.281	-60.387	2.451	-145.597	-141.622	-139.953	-135.862	-11.030	-136.890	-8191	255	
648.761	1	1	0	0	0.16831	0.18936	0.17042	0.20292	0.25118	0.0879	0.4695	0.32963	0.19738	0.033974	0.11681	0.131	0.18971	0.12909	0.24235	0.27348	-2.6937	-3.1896	-2.7458	-3.4792	-3.1437	-3.1271	-3.5375	-3.1188	-3.1208	-3.2896	-2.9917	-3.3792	-3.3521	-3.0312	-3.3458	-3.0104	-140.825	136.823	-41.047	195.421	80.057	113.739	158.188	145.852	2.633	157.629	-35.367	58.120	122.526	156.002	129.110	-3.208	0.00065515	0.0006154	9.9001e-05	1309	3.6617e-06	4.0043e-06	1311.6	358.05	5.548e-06	4.8285e-06	412.11	134.73	114.41	40.875	4.4291e-06	49.72	0.00073413	0.00085091	0.00023826	1327.1	8.8249e-06	9.3798e-06	1335.7	364.55	9.2564e-06	9.8489e-06	421.41	138.58	117.13	42.035	9.3091e-06	51.436	161.649	-84.662	-45.256	-149.705	-59.063	8.306	-150.049	-145.257	-70.097	1.058	-145.535	-141.675	-140.036	-135.914	-25.159	-137.220	-8191	255	
648.855	1	1	0	0	0.090884	0.24165	0.31947	0.24254	0.081778	0.21681	0.3058	0.16808	0.25498	0.088849	0.31631	0.23824	0.16093	0.10856	0.17511	0.261	-2.8312	-3.2542	-2.7771	-3.4125	-3.1396	-2.8396	-3.5333	-3.1167	-3.1042	-3.4667	-2.9938	-3.2729	-3.2021	-2.9688	-3.3125	-3.2354	-8.691	34.431	116.941	153.336	123.239	75.842	163.126	92.199	-62.071	119.891	135.755	176.254	-141.277	-141.674	125.031	181.505	0.000675	0.00046122	0.00021408	1326	4.5416e-06	3.6447e-06	1331.7	362.92	3.0869e-06	4.8547e-06	417.13	137.04	115.23	41.313	2.8023e-06	50.105	0.00074951	0.00088723	0.00025168	1344.6	9.091e-06	1.041e-05	1354.9	368.62	9.7124e-06	1.0248e-05	425.26	139.95	118.16	42.404	9.8214e-06	51.862	164.608	-84.220	-68.123	-149.832	-49.435	-9.516	-150.038	-145.450	-50.167	-13.565	-145.526	-141.789	-139.993	-136.000	-26.779	-137.103	-8191	255	
648.953	1	1	0	0	0.15456	0.17664	0.070962	0.1628	0.21018	0.12995	0.26376	0.30226	0.18937	0.37001	0.21317	0.013929	0.38268	0.14239	0.11642	0.17991	-2.5438	-3.3146	-2.9104	-3.2396	-3.3812	-2.9188	-3.5104	-3.1667	-2.9354	-3.3521	-3.1625	-3.2438	-3.1792	-3.0875	-3.2708	-3.3	-18.115	138.420	-50.145	-163.030	-116.611	-31.212	144.457	148.418	-14.619	-8.570	-118.678	149.356	61.361	19.957	-61.901	84.609	0.00068064	0.00044493	0.00013712	1339.6	4.2981e-06	4.1658e-06	1338.1	363.47	6.104e-06	5.5658e-06	420.08	137.71	116.37	41.761	4.4787e-06	50.424	0.00078094	0.00093575	0.00026203	1357.7	9.6472e-06	1.0301e-05	1367.2	370.85	1.0282e-05	1.0663e-05	427.72	140.92	118.87	42.761	1.0167e-05	52.181	161.355	-79.849	-53.080	-149.635	-37.957	-6.762	-150.187	-145.490	-63.227	-7.044	-145.615	-141.516	-140.330	-136.235	-21.449	-137.260	-8191	255	
649.072	1	1	0	0	0.17075	0.12644	0.14778	0.042536	0.16798	0.058929	0.03285	0.0405	0.020838	0.12087	0.19182	0.12828	0.080646	0.3672	0.31886	0.13174	-2.3583	-3.2792	-3.05	-3.3083	-3.525	-2.9479	-3.4104	-3.4104	-2.925	-3.4125	-3.1833	-3.1729	-3.3875	-2.9667	-3.0438	-3.2812	59.750	65.101	-86.544	83.009	-85.611	-67.250	139.434	33.258	-119.680	-103.426	40.961	79.055	188.868	-156.114	-11.373	132.385	0.00064744	0.00057154	0.00012418	1351.5	4.815e-06	5.2306e-06	1354	366.71	4.4586e-06	5.8215e-06	418.54	138.52	116.3	41.9	3.8798e-06	50.759	0.00080542	0.00097653	0.00027814	1370.3	1.0028e-05	1.1113e-05	1378.5	373.34	1.0396e-05	1.099e-05	429	141.88	119.67	43.067	1.0481e-05	52.507	162.024	-74.642	-63.856	-149.763	-48.044	-30.513	-150.114	-145.551	-55.992	2.526	-145.773	-141.773	-140.091	-136.182	-23.393	-136.914	-8191	255	
649.143	1	1	0	0	0.099674	0.17717	0.1718	0.14558	0.11978	0.17586	0.12313	0.14552	0.061217	0.13602	0.13809	0.034142	0.28628	0.18285	0.098646	0.09375	-2.4667	-3.5146	-3.1063	-2.9542	-3.3187	-2.8979	-3.3812	-3.3063	-2.8583	-3.3208	-3.0146	-3.2021	-3.4625	-3.0938	-3.2375	-3.3667	65.230	-38.725	70.750	-21.050	190.456	-105.088	193.220	-145.218	-88.678	-59.624	-151.088	130.039	185.054	-35.721	122.983	-85.645	0.0006483	0.0004612	0.0001819	1356.5	3.3156e-06	4.4904e-06	1358.8	368.55	5.0925e-06	4.3206e-06	425.34	139.56	116.82	42.117	6.3972e-06	51.139	0.00081426	0.0010086	0.00028605	1376.7	9.996e-06	1.1475e-05	1383.9	374.65	1.0752e-05	1.1245e-05	431.99	142.6	120.12	43.276	1.0823e-05	52.757	160.970	-84.383	-73.536	-149.654	-53.127	-30.763	-150.036	-145.482	-69.912	-14.079	-145.690	-141.999	-140.131	-136.161	1.060	-136.973	-8191	255	
649.240	1	1	0	0	0.3729	0.12776	0.11745	0.18965	0.077817	0.20228	0.23617	0.18523	0.11178	0.10569	0.16335	0.19473	0.23834	0.1136	0.16717	0.043465	-2.3958	-3.2104	-3.1521	-3.0687	-3.3354	-3.1542	-3.2542	-3.2854	-2.9562	-3.1542	-3.0021	-2.9833	-3.3854	-3.2562	-3.1458	-3.3833	-130.830	-146.358	183.082	175.959	-13.623	134.224	93.699	112.048	-93.748	-7.045	155.241	181.699	-157.889	105.312	188.620	152.169	0.0006617	0.00033904	0.00014342	1362.4	3.9107e-06	3.3498e-06	1366.2	369.92	5.4274e-06	6.9863e-06	422.46	139.57	117.63	42.234	4.0831e-06	51.052	0.00082076	0.00098055	0.00028765	1380.5	1.0229e-05	1.1266e-05	1387.4	375.82	1.0526e-05	1.1358e-05	431.63	142.99	120.58	43.416	1.046e-05	52.774	160.701	-77.176	-63.248	-149.776	-51.769	-27.780	-150.303	-145.496	-57.496	5.908	-145.622	-141.867	-140.399	-136.293	-35.060	-137.131	-8191	255	
649.360	1	1	0	0	0.27852	0.23045	0.0026753	0.30198	0.22575	0.062446	0.24134	0.11727	0.054106	0.19967	0.043147	0.22368	0.35073	0.168	0.47926	0.21039	-2.4354	-3.2521	-3.2479	-3.0458	-3.2812	-3.2021	-3.1104	-3.3604	-2.8625	-3.2146	-3.3667	-2.9729	-3.4542	-3.1125	-2.9271	-3.5708	-41.340	41.619	-83.602	178.668	-67.877	-25.880	149.287	152.654	7.530	85.523	178.814	109.503	67.341	189.731	83.437	-162.732	0.00065288	0.00061774	0.00017907	1363.4	3.9711e-06	5.0172e-06	1363.5	368.73	4.1083e-06	3.5919e-06	422.72	139.54	117.48	42.124	5.2871e-06	50.813	0.00081234	0.00097007	0.00027891	1382.2	1.0051e-05	1.1201e-05	1387.4	375.82	1.0762e-05	1.112e-05	431.4	142.84	120.44	43.373	1.1023e-05	52.649	161.607	-79.154	-76.795	-149.628	-62.896	3.779	-150.202	-145.454	-67.273	1.839	-145.601	-141.783	-140.165	-136.234	-32.026	-137.129	-8191	255	
649.456	1	1	0	0	0.29067	0.11961	0.090085	0.34351	0.11811	0.28325	0.16188	0.074739	0.18243	0.22568	0.29773	0.067599	0.1763	0.25732	0.11744	0.28352	-2.65	-3.2083	-3.2292	-3.0604	-3.1896	-3.1354	-3.1458	-3.6854	-2.9042	-3.1042	-3.2188	-2.8167	-3.2313	-3.0146	-2.9875	-3.4833	125.325	189.331	-147.816	161.354	8.683	62.492	-83.136	78.984	59.119	-70.690	155.279	118.144	38.484	182.370	7.343	-62.012	0.00065166	0.00067244	0.00015055	1364.6	3.6736e-06	2.5183e-06	1367.1	369.61	5.9407e-06	6.6992e-06	423.9	138.86	117.98	42.196	3.799e-06	51.139	0.00082069	0.0010464	0.00029585	1383.7	1.0279e-05	1.1422e-05	1390.6	376.22	1.1168e-05	1.1225e-05	431.7	142.9	120.68	43.354	1.1122e-05	52.906	160.484	-87.173	-73.544	-149.846	-45.777	-7.208	-150.299	-145.329	-61.378	-15.709	-145.628	-141.899	-140.130	-136.522	-46.022	-137.087	-8191	255	
649.553	1	1	0	0	0.086989	0.22312	0.12586	0.17994	0.068947	0.2493	0.095722	0.20947	0.16502	0.073134	0.16628	0.056219	0.16982	0.13377	0.11587	0.093139	-2.6104	-2.9875	-3.3021	-3.0062	-3.2729	-3.1729	-2.9354	-3.4479	-3.1063	-2.9979	-3.475	-2.7812	-3.3771	-3.3208	-2.8937	-3.4542	-18.217	62.309	-9.322	171.886	64.489	-88.466	154.311	87.247	-38.277	105.162	167.490	122.667	150.685	174.832	-86.900	183.374	0.00065914	0.00054264	0.00019574	1364.7	3.8588e-06	2.9927e-06	1365.3	369.32	4.6075e-06	4.0654e-06	421.88	139.98	117.94	42.475	4.4003e-06	51.34	0.00081167	0.0010105	0.0002887	1384.2	1.0306e-05	1.1158e-05	1391.6	376.02	1.0782e-05	1.1173e-05	431.91	143.16	120.9	43.566	1.0573e-05	52.935	160.430	-77.267	-69.759	-149.717	-47.328	-10.090	-150.165	-145.374	-50.228	4.134	-145.283	-141.696	-140.097	-136.160	-39.968	-136.977	-8191	255	
649.649	1	1	0	0	0.14284	0.18362	0.25214	0.15092	0.10855	0.24086	0.28093	0.05652	0.15951	0.098211	0.15576	0.15438	0.049077	0.14666	0.15574	0.12442	-2.7083	-3.0583	-3.4271	-3.1458	-3.0271	-3.35	-3.1646	-3.3458	-3.0896	-2.9167	-3.4417	-3.1063	-3.2771	-3.3167	-2.9083	-3.3417	35.179	160.999	18.366	-138.027	179.021	-128.819	118.901	76.628	182.570	51.810	74.862	90.602	48.501	184.498	-113.565	171.142	0.00065092	0.00074924	0.0001037	1363.3	4.7876e-06	3.1387e-06	1369.5	368.1	5.751e-06	4.1799e-06	425.1	139.68	117.96	42.37	6.7468e-06	51.385	0.0007873	0.00099964	0.00027531	1383.6	1.0224e-05	1.091e-05	1392.2	375.65	1.0827e-05	1.0901e-05	432.07	143.16	120.93	43.556	1.055e-05	52.958	159.616	-74.142	-78.308	-149.847	-71.253	-10.730	-150.151	-145.731	-63.419	14.175	-145.512	-141.917	-140.031	-136.270	-16.087	-136.888	-8191	255	
649.745	1	1	0	0	0.11675	0.11323	0.27855	0.14203	0.11546	0.25375	0.20462	0.102	0.245	0.036552	0.043617	0.072279	0.067488	0.16602	0.22992	0.13524	-2.7	-2.8917	-3.3875	-3.1979	-2.9167	-3.3479	-3.1604	-3.4979	-3.2729	-3.0625	-3.4562	-3.0542	-3.1813	-3.4729	-2.8396	-3.4042	-92.413	-65.893	157.471	159.178	147.575	-116.865	123.231	-136.339	-24.237	127.339	78.757	-130.828	74.864	-145.504	-38.310	182.145	0.00065072	0.00057928	0.00012326	1368.8	4.109e-06	4.6871e-06	1364.2	369.65	4.8873e-06	3.5455e-06	424.29	140.29	117.99	42.505	4.6157e-06	51.352	0.00081337	0.001004	0.00028023	1386.6	1.018e-05	1.1047e-05	1392	375.99	1.0519e-05	1.1224e-05	432.96	143.53	121.02	43.587	1.0766e-05	53.087	161.628	-92.108	-70.266	-149.842	-34.476	-37.195	-150.086	-145.525	-50.120	-29.568	-145.805	-141.679	-140.289	-136.472	-50.524	-136.906	-8191	255	
649.841	1	1	0	0	0.13428	0.083868	0.13877	0.12364	0.099017	0.2403	0.24793	0.17042	0.21697	0.19906	0.1381	0.12204	0.20783	0.21388	0.092207	0.25593	-2.9188	-2.8125	-3.3021	-3.2354	-3.1104	-3.4292	-3.1833	-3.275	-3.3271	-2.9167	-3.3812	-3.1604	-3.0625	-3.2979	-2.9979	-3.2229	-59.335	126.257	172.294	-162.680	7.901	183.696	106.856	-137.638	-20.348	104.076	100.523	147.314	132.053	195.597	173.864	73.840	0.00068458	0.00048304	9.5223e-05	1366	4.18e-06	4.5836e-06	1367.5	370.77	7.1742e-06	5.1553e-06	424.9	140.34	118	42.483	3.326e-06	51.349	0.00083362	0.0010477	0.0002799	1383.8	1.068e-05	1.1275e-05	1392.4	376.82	1.0962e-05	1.1326e-05	432.6	143.55	121.1	43.67	1.0448e-05	53.046	161.291	-64.911	-63.113	-149.749	-40.781	-37.619	-150.018	-145.559	-54.165	0.620	-145.741	-141.773	-140.246	-136.094	-40.264	-137.144	-8191	255	
649.937	1	1	0	0	0.054057	0.13219	0.18509	0.12834	0.051264	0.15183	0.10094	0.23112	0.16497	0.2897	0.15231	0.12037	0.32799	0.11628	0.22235	0.060617	-2.8667	-2.9333	-3.3458	-3.2771	-2.8896	-3.3312	-3.0062	-3.2333	-3.2979	-2.9604	-3.3063	-3.1729	-2.9229	-3.5042	-3.1146	-3.1646	90.702	17.385	-8.402	110.299	55.403	128.707	171.532	-137.333	187.023	-136.781	8.866	-120.236	180.282	77.696	23.065	-78.882	0.00066593	0.00045338	9.3723e-05	1366.4	4.4206e-06	5.158e-06	1364.5	371.15	6.7046e-06	4.0732e-06	423.24	140.28	118.53	42.748	4.1803e-06	51.414	0.00081977	0.0010118	0.00026711	1385.9	1.0607e-05	1.1083e-05	1392.7	376.82	1.0806e-05	1.1579e-05	432.12	143.72	121.44	43.773	1.0539e-05	53.136	164.735	-76.054	-55.237	-149.776	-33.427	-0.090	-150.091	-145.557	-56.492	-21.453	-145.721	-141.654	-140.265	-136.450	-43.704	-137.341	-8191	255	
650.033	1	1	0	0	0.24368	0.027812	0.23902	0.38553	0.23558	0.07937	0.15902	0.29218	0.15444	0.17028	0.12353	0.12153	0.1809	0.28785	0.061454	0.16107	-2.9375	-2.8688	-3.2167	-3.2792	-2.975	-3.4354	-3.2625	-2.9792	-3.6729	-3.0396	-3.2562	-3.3187	-3.125	-3.4062	-3.0875	-3.0687	159.163	191.494	84.152	127.698	-84.004	21.191	135.675	171.707	107.911	-6.340	98.991	20.144	67.832	160.384	63.765	148.627	0.00066756	0.0004919	0.00013931	1371.4	3.7881e-06	3.6484e-06	1367.2	370.58	5.5574e-06	7.9337e-06	425.19	141.33	118.9	42.682	3.8531e-06	51.701	0.00079899	0.00096195	0.00027186	1388.5	9.9273e-06	1.0284e-05	1394.8	377.21	1.0039e-05	1.0621e-05	433.75	144.47	121.86	43.919	1.0011e-05	53.382	162.949	-83.714	-75.232	-149.722	-52.132	-13.478	-150.155	-145.492	-50.213	-18.980	-145.415	-141.759	-140.296	-136.368	-34.588	-137.150	-8191	255	
650.152	1	1	0	0	0.29299	0.23137	0.071722	0.19909	0.014257	0.046807	0.21435	0.32345	0.053032	0.10309	0.11089	0.17489	0.065463	0.21793	0.17422	0.042618	-2.8917	-2.9292	-3.1625	-3.4458	-3.0479	-3.3771	-3.2042	-3.1042	-3.325	-2.9708	-3.2812	-3.35	-2.9708	-3.375	-2.9729	-2.8896	-38.704	25.322	-141.725	189.168	-142.966	38.339	112.024	144.499	133.193	27.423	146.583	90.941	194.365	102.573	-57.608	169.220	0.00064052	0.00056768	0.00011115	1367	4.4612e-06	5.2896e-06	1371.1	370.91	7.182e-06	5.253e-06	425.32	141.22	118.57	42.572	4.7752e-06	51.425	0.00078979	0.00094487	0.00026727	1387.8	9.9326e-06	1.039e-05	1395.7	377.21	9.9587e-06	1.053e-05	433.47	144.32	121.56	43.839	1.033e-05	53.209	162.198	-79.112	-69.172	-149.789	-42.014	9.487	-150.176	-145.287	-70.807	-24.749	-145.594	-141.753	-140.183	-136.338	-31.309	-137.234	-8191	255	
650.248	1	1	0	0	0.13336	0.23386	0.13046	0.15109	0.050828	0.29272	0.090797	0.074037	0.13882	0.34525	0.2626	0.32649	0.099397	0.11616	0.045191	0.29714	-2.9604	-2.8604	-3.0563	-3.4688	-2.9375	-3.2208	-3.3375	-2.9062	-3.3312	-3.1583	-3.0021	-3.2854	-2.9458	-3.3521	-3.3396	-2.9167	10.384	192.802	33.289	119.767	96.502	18.413	28.107	-142.567	-123.384	24.885	178.682	185.682	-162.444	-39.752	-30.269	149.306	0.00068453	0.0003961	0.00014322	1367.4	5.0994e-06	3.5819e-06	1372.1	372.02	5.7264e-06	5.6581e-06	425.03	140.84	118.92	42.846	4.9541e-06	51.535	0.00079217	0.00097308	0.00026674	1387.5	9.8379e-06	1.0197e-05	1396	377.73	1.002e-05	1.0928e-05	433.72	144.13	121.69	43.881	1.0177e-05	53.264	160.546	-80.588	-71.215	-149.786	-34.711	-9.444	-150.023	-145.842	-58.985	-3.783	-145.800	-141.753	-140.245	-136.377	-47.693	-136.964	-8191	255	
650.344	1	1	0	0	0.18282	0.29395	0.08044	0.21067	0.13497	0.26902	0.39099	0.11201	0.04618	0.24968	0.10171	0.47443	0.1348	0.094625	0.25358	0.12872	-2.8729	-2.9583	-2.9396	-3.4958	-2.8646	-3.275	-3.3958	-2.9104	-3.3167	-2.9208	-3.0208	-3.3104	-2.9083	-3.2583	-3.3063	-2.9875	25.677	191.117	70.916	-144.527	19.771	-150.652	142.303	138.859	2.741	159.621	147.334	142.812	182.887	142.793	79.481	-137.713	0.00064687	0.0007368	0.00016931	1367.8	2.3898e-06	3.1659e-06	1372.1	371.3	5.5034e-06	4.0893e-06	424.82	141.44	119.09	42.844	5.416e-06	51.782	0.00078624	0.00095994	0.00027087	1387.7	9.7472e-06	1.0203e-05	1398.9	377.76	9.7377e-06	1.0392e-05	433.68	144.82	122.14	43.976	9.7165e-06	53.411	159.973	-75.435	-67.248	-149.788	-52.965	-22.792	-150.137	-145.529	-55.717	7.098	-145.792	-142.012	-140.164	-136.435	-60.600	-137.433	-8191	255	
650.441	1	1	0	0	0.11276	0.13708	0.20877	0.25383	0.27412	0.25296	0.31138	0.26046	0.28542	0.3108	0.25279	0.11713	0.28935	0.25097	0.2191	0.31379	-2.9813	-2.9958	-2.9917	-3.6458	-3.1083	-3.0792	-3.5792	-2.9104	-3.1167	-3.0687	-3.0271	-3.4792	-3.125	-3.2562	-3.3604	-2.725	75.414	83.828	66.213	-139.923	111.321	-133.406	146.502	140.849	179.192	101.220	158.293	181.402	158.336	23.713	-74.060	100.984	0.00064149	0.00063974	0.00015239	1370.3	3.2786e-06	5.2008e-06	1371	370.86	6.8687e-06	5.1957e-06	424.76	141.42	118.64	42.72	5.2278e-06	51.504	0.0007645	0.00090848	0.00025029	1389.5	9.139e-06	9.9485e-06	1397.2	377.04	9.0936e-06	9.7656e-06	433.14	144.6	121.79	43.883	9.2519e-06	53.288	159.803	-73.751	-66.321	-149.841	-45.583	-19.055	-150.198	-145.353	-61.188	-35.239	-145.725	-141.891	-140.186	-136.129	-50.985	-137.261	-8191	255	
650.537	1	1	0	0	0.07021	0.088867	0.046613	0.19875	0.19483	0.16364	0.26252	0.089818	0.10719	0.10548	0.046542	0.07828	0.21648	0.18824	0.06413	0.41774	-2.925	-3.1458	-2.8042	-3.4979	-2.9708	-3.1	-3.5125	-2.9583	-3.275	-3.1792	-2.9229	-3.4604	-3.1646	-2.8708	-3.4521	-2.9271	-99.880	155.431	-67.121	171.023	-56.688	30.172	138.236	-101.446	-131.106	-51.230	-140.349	141.193	122.231	-151.273	164.526	140.548	0.00067445	0.00064059	0.00015221	1369.6	4.3172e-06	4.7433e-06	1372	370.89	7.1924e-06	3.5491e-06	423.51	140.77	118.91	42.696	4.063e-06	51.525	0.00075683	0.00089197	0.00024956	1389.5	9.1997e-06	9.7053e-06	1395	377.16	9.4213e-06	1.0029e-05	433.13	144.44	121.98	43.896	9.1477e-06	53.333	159.733	-68.861	-73.034	-149.632	-59.112	-22.953	-150.006	-145.480	-67.111	-28.927	-145.919	-141.850	-140.306	-136.272	-30.655	-137.148	-8191	255	
650.633	1	1	0	0	0.29716	0.19038	0.11673	0.26995	0.10665	0.078604	0.097928	0.28199	0.13934	0.10289	0.27104	0.084266	0.18151	0.21535	0.24153	0.114	-2.6979	-3.2042	-2.8646	-3.6771	-3.0896	-2.8812	-3.5521	-2.9896	-3.0521	-3.3104	-2.925	-3.5729	-3.075	-3.1229	-3.4875	-3.0021	-95.780	38.668	183.933	145.777	-148.737	-65.062	137.028	88.329	84.037	88.748	132.576	141.075	-146.753	187.663	-47.085	195.629	0.00065353	0.00036144	0.00010526	1371.1	4.3874e-06	5.9469e-06	1369.7	370.22	5.3906e-06	6.4507e-06	427.09	142.76	119.26	43.081	4.4154e-06	51.883	0.00073555	0.00085356	0.00023872	1390.8	9.0876e-06	9.4701e-06	1396.5	377.86	8.8066e-06	9.4134e-06	434.53	145.34	122.48	44.208	8.5674e-06	53.544	159.477	-80.449	-64.119	-149.652	-55.783	-30.734	-150.085	-145.493	-55.566	-15.086	-145.825	-141.850	-140.250	-136.359	-49.691	-137.462	-8191	255	
650.754	1	1	0	0	0.047791	0.051065	0.29816	0.13164	0.117	0.17541	0.070547	0.1589	0.14648	0.056659	0.24736	0.16608	0.14297	0.15555	0.28375	0.061291	-2.7687	-3.3396	-2.9479	-3.5375	-3.1271	-2.8917	-3.4188	-3.1896	-3.0833	-3.2354	-2.9792	-3.3729	-3.2792	-3.0854	-3.25	-2.9854	-57.704	-99.328	78.625	142.964	41.025	145.694	82.384	25.222	-131.709	-14.584	154.414	126.875	64.222	-23.818	-36.624	44.152	0.00065921	0.00053738	0.0001472	1372.3	3.2067e-06	5.2505e-06	1370.2	371.2	6.3252e-06	4.7572e-06	424.44	141.92	119.01	42.904	4.2079e-06	51.404	0.00072344	0.00079169	0.00022637	1391.9	8.5407e-06	9.0519e-06	1396.9	377.55	8.7203e-06	8.8626e-06	433.46	145.03	122.11	43.991	8.3734e-06	53.26	162.650	-58.282	-79.910	-149.793	-56.958	3.299	-149.970	-145.580	-43.590	-18.351	-145.633	-141.890	-140.268	-136.080	-35.397	-136.895	-8191	255	
650.848	1	1	0	0	0.049752	0.2183	0.19116	0.3297	0.096076	0.12201	0.11184	0.34425	0.076801	0.12424	0.19476	0.15582	0.16403	0.20308	0.3039	0.12438	-2.5479	-3.1146	-2.9833	-3.3896	-3.1542	-3.0646	-3.4188	-3.0938	-2.9854	-3.4667	-3.1125	-3.2542	-3.2167	-2.9583	-3.3333	-3.2438	152.653	89.428	162.071	164.132	-70.930	72.808	156.125	-135.386	-95.529	-57.750	75.037	191.683	168.440	175.100	-23.125	166.827	0.0006812	0.00054034	0.00015779	1375.1	4.1478e-06	5.0623e-06	1375.9	370.65	6.013e-06	4.6515e-06	424.51	141.1	118.93	42.63	4.8206e-06	51.586	0.00073324	0.00079886	0.00023432	1390.4	8.1933e-06	9.0357e-06	1397.8	376.89	8.8305e-06	9.0824e-06	432.82	144.38	121.86	43.846	8.7656e-06	53.26	160.079	-88.428	-67.037	-149.608	-57.683	-22.370	-150.167	-145.430	-67.617	-14.185	-145.796	-141.868	-140.370	-136.112	-37.941	-137.078	-8191	255	
650.944	1	1	0	0	0.21676	0.21825	0.14728	0.26444	0.13162	0.1551	0.13788	0.16329	0.095641	0.14448	0.11808	0.10058	0.26243	0.26539	0.15351	0.14917	-2.5583	-3.3937	-2.8604	-3.4	-3.3208	-2.9896	-3.6437	-3.2604	-2.8667	-3.3021	-3.0333	-3.2687	-3.3438	-2.9875	-3.4604	-3.2687	131.181	-102.388	-0.426	139.983	-62.260	25.280	-109.632	57.588	-93.422	85.452	166.493	-52.437	-159.314	-134.647	-28.076	-73.036	0.00065616	0.00056983	0.00017778	1370.7	3.3723e-06	4.8158e-06	1377.3	371.4	5.421e-06	3.3969e-06	423.51	141.11	118.39	42.733	4.8315e-06	51.659	0.00071666	0.00080655	0.00023353	1388.9	8.6881e-06	9.0495e-06	1397.9	377.12	8.9287e-06	9.0563e-06	432.43	144.55	121.61	43.849	8.6535e-06	53.254	161.411	-86.249	-63.233	-149.767	-61.211	-9.041	-150.160	-145.327	-62.076	-24.319	-145.785	-141.907	-140.209	-136.454	-43.997	-137.435	-8191	255	
651.042	1	1	0	0	0.014373	0.22844	0.12378	0.28868	0.2041	0.1915	0.076378	0.074593	0.19899	0.15979	0.30036	0.21682	0.096726	0.013897	0.17809	0.017286	-2.5375	-3.4167	-2.9458	-3.1521	-3.3229	-3.0417	-3.4729	-3.3854	-2.8417	-3.4667	-3.1458	-3.1813	-3.4667	-2.8958	-3.0812	-3.3104	-11.147	80.568	99.313	97.231	-9.278	86.618	73.713	84.920	-132.052	-105.319	150.311	-162.939	-118.143	169.924	195.746	-147.567	0.00066966	0.00052507	0.0001536	1373.8	5.1252e-06	6.7633e-06	1370.4	370.9	6.3233e-06	4.2604e-06	422.95	140.91	118.76	42.876	5.5161e-06	51.629	0.00072926	0.00081157	0.00022372	1390.6	8.2366e-06	9.03e-06	1396.2	376.92	8.7575e-06	8.812e-06	432.54	144.34	121.71	43.924	8.6137e-06	53.272	163.296	-58.893	-57.625	-149.927	-40.352	-14.710	-150.164	-145.543	-72.026	-2.149	-145.683	-141.669	-140.306	-135.976	-43.283	-137.068	-8191	255	
651.136	1	1	0	0	0.32271	0.20718	0.11702	0.16114	0.217	0.081415	0.21618	0.2189	0.18055	0.026726	0.060216	0.14094	0.064608	0.24668	0.20553	0.29186	-2.2333	-3.1979	-3.1083	-3.1021	-3.3688	-2.95	-3.3146	-3.4042	-2.8354	-3.4146	-3.3104	-2.975	-3.425	-2.9271	-3.1125	-3.3812	160.738	136.900	-61.418	157.596	-136.162	-9.665	139.545	111.745	-118.655	-37.345	-34.553	155.836	56.140	111.475	184.855	153.691	0.00063775	0.00041143	0.00014574	1372	4.862e-06	4.2961e-06	1374.3	369.17	5.2295e-06	5.8163e-06	424.91	141.36	118.49	42.599	4.6405e-06	51.678	0.0007038	0.00079212	0.00021964	1389.6	8.2059e-06	8.873e-06	1397.2	376.4	8.5428e-06	8.9411e-06	432.92	144.49	121.52	43.734	8.4653e-06	53.312	160.324	-84.299	-48.184	-149.854	-37.704	-9.493	-150.134	-145.486	-51.381	-13.483	-145.886	-141.975	-140.086	-136.115	-43.425	-137.231	-8191	255	
651.233	1	1	0	0	0.078618	0.29055	0.095798	0.056878	0.071407	0.071203	0.12133	0.092002	0.10772	0.14682	0.11434	0.32449	0.25765	0.21123	0.1969	0.29492	-2.5646	-3.2958	-3.1833	-3.1521	-3.3729	-2.9813	-3.1	-3.4271	-2.9729	-3.4	-3.2729	-2.9729	-3.3812	-2.9896	-3.0396	-3.2583	34.457	143.116	97.959	-29.134	75.859	-46.211	42.829	-99.763	140.928	42.000	66.863	171.989	-110.899	136.048	177.609	67.309	0.0006943	0.00060769	0.00012635	1365.7	3.1013e-06	5.2009e-06	1368.7	370.09	6.2435e-06	4.8674e-06	423.62	141.18	118.96	42.571	3.3391e-06	51.586	0.00072195	0.00075716	0.00022348	1387.2	8.1519e-06	8.7135e-06	1393.7	376.49	8.5287e-06	8.5186e-06	433.03	144.41	121.71	43.841	8.2591e-06	53.206	164.282	-72.274	-56.810	-149.964	-55.943	-17.185	-149.991	-145.588	-70.585	-17.425	-146.014	-141.997	-140.182	-136.231	-37.507	-137.033	-8191	255	
651.329	1	1	0	0	0.23756	0.12459	0.16658	0.18715	0.16019	0.036326	0.16299	0.18603	0.19122	0.058897	0.22861	0.075356	0.16537	0.12882	0.074592	0.18451	-2.4521	-3.3146	-3.1396	-3.0146	-3.475	-3.0125	-3.0958	-3.5375	-2.8229	-3.0646	-3.2396	-3.0125	-3.4688	-2.9896	-3.0521	-3.4167	-91.637	-18.680	102.687	169.643	171.454	114.101	125.372	62.763	-80.690	-69.562	156.597	-130.349	-119.218	-140.460	184.577	156.696	0.0006665	0.0004121	0.00014298	1372.4	5.1256e-06	3.2949e-06	1367.5	369.49	6.7273e-06	4.6954e-06	423.14	141.09	118.33	42.766	5.2812e-06	51.55	0.00071122	0.00076269	0.00021726	1389.2	7.8145e-06	8.6061e-06	1393.8	376.39	8.4088e-06	8.3813e-06	431.68	144.45	121.68	43.789	8.5095e-06	53.113	162.126	-94.088	-58.086	-149.711	-55.589	-28.072	-150.207	-145.367	-74.269	-10.940	-145.816	-141.997	-140.249	-136.266	-31.399	-137.093	-8191	255	
651.425	1	1	0	0	0.097792	0.1921	0.13371	0.28601	0.054503	0.03682	0.18497	0.10181	0.17739	0.048444	0.076064	0.28516	0.27663	0.19707	0.29082	0.023117	-2.4646	-3.1479	-3.3104	-2.9313	-3.1562	-3.1396	-3.1479	-3.5521	-2.9333	-3.1979	-3.3458	-2.9792	-3.3458	-3.1729	-2.7396	-3.3063	129.109	148.162	-106.741	136.717	33.712	-57.474	-132.637	-147.886	178.209	179.782	185.291	100.946	112.512	-149.815	1.521	190.671	0.0006599	0.00054253	0.00013066	1367.3	3.5295e-06	6.3627e-06	1367.8	368.2	6.3013e-06	4.227e-06	422.56	140.57	118.06	42.473	3.531e-06	51.347	0.00069343	0.00078142	0.00022253	1385.9	7.9592e-06	8.537e-06	1392.2	375.78	8.366e-06	8.5464e-06	431.5	143.88	121.13	43.625	8.351e-06	53.047	160.678	-82.100	-80.863	-149.837	-52.014	-23.751	-150.086	-145.463	-67.651	13.592	-145.715	-141.864	-140.042	-136.443	-47.383	-137.036	-8191	255	
651.545	1	1	0	0	0.23064	0.053886	0.22629	0.068346	0.21428	0.2179	0.3984	0.11172	0.26789	0.10629	0.10098	0.17875	0.20222	0.22671	0.21813	0.19378	-2.4604	-3.2292	-3.2479	-3.0229	-3.2458	-2.9708	-3.1813	-3.4667	-3.0375	-2.9729	-3.4208	-2.8021	-3.3396	-3.1375	-2.975	-3.3875	123.362	-58.258	131.358	177.574	-93.420	-159.226	189.889	111.855	-60.266	76.428	131.937	-22.572	108.427	165.040	109.462	159.088	0.00067006	0.00047306	0.00014092	1362.7	4.5684e-06	3.9343e-06	1371	367.74	5.0688e-06	5.8294e-06	423.04	139.78	118.05	42.246	6.2007e-06	51.351	0.0006962	0.00077266	0.00021285	1383.4	7.9538e-06	8.5597e-06	1391	374.95	8.4509e-06	8.5529e-06	431.51	143.25	120.88	43.431	8.2077e-06	52.87	161.090	-87.166	-81.677	-149.868	-50.324	-13.243	-150.121	-145.402	-74.444	-2.577	-145.683	-141.911	-140.161	-136.091	-40.339	-137.033	-8191	255	
651.617	1	1	0	0	0.188	0.23439	0.17444	0.11541	0.14	0.088631	0.34553	0.093968	0.3242	0.068568	0.31409	0.25268	0.214	0.19818	0.096752	0.013151	-2.4271	-2.8792	-3.2833	-3.075	-3.0167	-3.2083	-3.1042	-3.4146	-3.0187	-3.0104	-3.3708	-3.1792	-3.1688	-3.3458	-2.8104	-3.4542	183.688	-23.871	-103.369	116.022	36.498	-80.927	135.312	148.167	168.409	193.930	-160.309	135.847	-137.862	112.700	4.827	-133.775	0.00066264	0.00049008	0.00014104	1363.5	6.4025e-06	4.2501e-06	1365.2	368.6	6.573e-06	5.1469e-06	424.6	139.46	117.07	42.172	5.9314e-06	51.233	0.00070014	0.00077424	0.00021774	1384.4	8.286e-06	8.5077e-06	1389.2	374.88	8.6214e-06	8.7319e-06	431.26	142.88	120.36	43.317	8.6455e-06	52.727	163.099	-93.256	-72.823	-149.757	-40.037	-32.528	-150.182	-145.604	-67.232	-1.183	-145.566	-141.769	-140.385	-136.232	-24.923	-137.169	-8191	255	
651.713	1	1	0	0	0.20753	0.28882	0.15468	0.09083	0.22153	0.072639	0.12171	0.263	0.14664	0.14945	0.078456	0.26922	0.027181	0.23281	0.20146	0.041133	-2.7458	-2.7167	-3.5292	-3.0312	-3.125	-3.4417	-2.9813	-3.2979	-3.0167	-2.8896	-3.3708	-3.2313	-3.1146	-3.3438	-2.9188	-3.3292	119.120	8.655	45.905	144.882	177.151	176.933	154.557	-157.530	-127.124	-100.142	-118.185	133.879	-10.656	148.069	-105.706	174.723	0.00064332	0.00044168	0.00016089	1362.6	3.5069e-06	4.533e-06	1365.4	367.4	5.2585e-06	4.9872e-06	420.89	139.12	116.69	42.073	5.6487e-06	50.834	0.00070998	0.00079341	0.000214	1381.2	8.1699e-06	8.6655e-06	1388	373.93	8.4894e-06	8.7041e-06	429.87	142.53	119.92	43.167	8.4783e-06	52.505	164.284	-68.144	-58.789	-149.645	-44.964	-5.296	-150.181	-145.382	-55.863	-7.170	-145.540	-141.813	-140.293	-136.021	-43.840	-136.925	-8191	255	
651.834	1	1	0	0	0.13173	0.063182	0.29697	0.25033	0.21317	0.18282	0.11497	0.30549	0.18712	0.079401	0.30574	0.17567	0.22379	0.058327	0.29269	0.18857	-2.7708	-2.8625	-3.2604	-3.0687	-3.0458	-3.4521	-3.1458	-3.325	-3.1771	-2.9167	-3.4104	-3.0792	-3.1125	-3.4667	-2.9208	-3.1875	-115.509	4.477	-104.610	172.761	-109.423	-99.357	154.024	168.764	136.883	189.413	123.853	-108.958	86.911	37.946	62.082	98.134	0.00066543	0.00034262	0.00014557	1361.7	4.4261e-06	4.2427e-06	1360.6	366.52	4.6118e-06	4.8551e-06	420.64	138.51	116.89	41.927	6.1158e-06	50.868	0.00071133	0.00077611	0.00022063	1379.7	8.4267e-06	8.7233e-06	1385.2	372.86	8.5035e-06	9.0759e-06	429.05	142.04	119.66	43.067	8.6556e-06	52.452	163.002	-87.260	-72.814	-149.810	-39.164	-19.100	-150.001	-145.607	-67.443	-9.617	-145.678	-141.704	-140.166	-136.193	-33.039	-137.254	-8191	255	
651.928	1	1	0	0	0.069176	0.25204	0.061853	0.36311	0.081952	0.22177	0.25804	0.052065	0.11491	0.097474	0.084565	0.10936	0.23578	0.18598	0.24172	0.14926	-2.7354	-2.8146	-3.0938	-3.2521	-2.9417	-3.3854	-3.1417	-3.1708	-3.1583	-2.8625	-3.3187	-3.1771	-3.0375	-3.4792	-3.0354	-3.0458	70.980	62.184	-135.121	136.550	-46.215	121.522	43.750	-79.990	177.791	168.503	-131.795	-145.571	182.072	146.994	-79.488	129.308	0.00067122	0.00058839	9.2571e-05	1362.9	4.0712e-06	4.4938e-06	1360.3	365.94	5.9129e-06	5.5852e-06	422.3	138.53	116.44	41.761	4.7102e-06	50.711	0.00071225	0.00081171	0.00022009	1379.9	8.3793e-06	8.7648e-06	1385	372.6	8.2747e-06	8.9019e-06	429.96	142.13	119.68	43.035	8.3966e-06	52.429	163.081	-88.423	-85.402	-149.757	-50.805	-33.162	-150.161	-145.441	-54.653	-8.088	-145.723	-141.881	-140.137	-135.998	-27.146	-136.945	-8191	255	
652.026	1	1	0	0	0.27481	0.25193	0.15133	0.37169	0.096565	0.04251	0.21347	0.24517	0.10619	0.16298	0.18548	0.038817	0.06489	0.13813	0.13411	0.15259	-2.8542	-2.8187	-3.3	-3.2625	-2.8792	-3.4125	-3.1833	-3.2167	-3.4667	-2.7708	-3.2979	-3.2021	-3.1188	-3.4562	-3.1396	-3.2021	77.792	79.121	182.020	-137.691	-42.659	163.649	63.494	-158.256	173.460	31.328	50.123	98.306	-162.588	183.790	-129.031	131.908	0.00062997	0.00063722	0.00017633	1361.8	5.0076e-06	3.7686e-06	1361.8	365.9	4.4146e-06	4.4098e-06	420.53	138.83	117.41	42.033	4.6062e-06	51.078	0.00070529	0.00079843	0.00022453	1379.4	8.3693e-06	8.598e-06	1384.4	372.95	8.3456e-06	9.0628e-06	428.9	142.24	119.94	43.12	8.5775e-06	52.579	163.864	-77.950	-69.946	-149.675	-32.150	-6.760	-150.042	-145.463	-68.032	-6.050	-145.742	-141.980	-140.227	-136.227	-50.764	-136.983	-8191	255	
652.145	1	1	0	0	0.27748	0.10032	0.12091	0.31475	0.041306	0.28732	0.21071	0.11401	0.24881	0.2537	0.24965	0.43442	0.19049	0.054695	0.18283	0.096552	-2.9083	-2.9458	-3.1708	-3.3688	-2.7667	-3.525	-3.3375	-3.175	-3.4104	-2.8042	-3.3792	-3.325	-3.0875	-3.3	-3.1271	-3.0563	-77.618	92.728	-126.493	-161.079	-36.217	-72.108	126.048	4.886	192.541	130.664	158.590	152.167	91.026	-64.341	3.433	89.504	0.00066843	0.00056852	0.00013347	1359.7	3.1472e-06	5.1968e-06	1362.2	367.31	5.3467e-06	4.0784e-06	422.42	139.19	117.01	41.879	4.0987e-06	50.768	0.00070817	0.00080791	0.00021863	1379.8	8.306e-06	8.7298e-06	1385.3	373.45	8.2726e-06	8.5064e-06	428.89	142.26	119.68	43.116	8.4016e-06	52.549	163.887	-97.642	-67.710	-149.787	-55.477	-8.208	-150.111	-145.305	-63.661	0.558	-145.843	-141.714	-140.153	-136.077	-45.117	-136.923	-8191	255	
652.241	1	1	0	0	0.059274	0.17704	0.29889	0.28617	0.081306	0.14264	0.21407	0.04656	0.2064	0.28406	0.12981	0.16108	0.17245	0.20125	0.12174	0.18423	-2.8542	-2.9854	-3.0292	-3.4333	-2.9083	-3.3583	-3.2875	-3.1208	-3.3979	-3.2292	-3.2979	-3.4521	-3.0542	-3.3854	-3.2146	-3.0771	-6.031	-106.034	-76.061	148.887	-108.575	152.979	109.844	-84.949	22.370	-7.830	60.325	37.730	-85.691	169.461	71.433	-147.854	0.00066759	0.00048124	0.00015608	1360.4	4.0544e-06	4.2477e-06	1362.2	366.23	5.7806e-06	3.7669e-06	420.77	139.39	116.7	41.857	4.59e-06	50.849	0.00070824	0.00079843	0.00022227	1380.5	8.3433e-06	8.598e-06	1385.9	373.46	8.4621e-06	8.9166e-06	429.28	142.34	119.76	43.084	8.3553e-06	52.465	162.344	-82.209	-58.526	-149.814	-36.369	-13.117	-150.148	-145.523	-67.107	-7.056	-145.482	-141.738	-140.020	-136.019	-28.984	-137.180	-8191	255	
652.313	1	1	0	0	0.19688	0.37337	0.10165	0.18444	0.091468	0.068136	0.058189	0.13243	0.31512	0.17252	0.14331	0.10286	0.14732	0.097384	0.14417	0.2166	-3.0146	-3.1042	-2.9708	-3.5563	-3.0417	-3.3167	-3.475	-3.0417	-3.3292	-3.0062	-3.0875	-3.2854	-3.0375	-3.3917	-3.3708	-2.9771	136.579	-149.991	-130.054	155.938	-80.114	-111.981	102.932	112.150	145.071	21.769	26.877	-38.685	-37.498	-68.786	195.986	134.084	0.00065571	0.00056944	0.00011296	1358	3.0132e-06	5.5163e-06	1360.9	366.39	5.5653e-06	5.2689e-06	420.12	138.91	117	42.075	4.6634e-06	50.859	0.00069691	0.00081322	0.00022356	1378.7	8.382e-06	8.458e-06	1385.9	373.19	8.514e-06	8.8553e-06	428.69	142.2	119.73	43.089	8.2555e-06	52.433	160.782	-75.133	-63.921	-149.762	-39.079	-15.739	-150.184	-145.612	-52.427	2.557	-145.721	-141.779	-140.032	-136.019	-24.131	-137.153	-8191	255	
652.434	1	1	0	0	0.16938	0.092963	0.25228	0.04253	0.18195	0.25686	0.31727	0.26542	0.26226	0.11388	0.092561	0.38466	0.20501	0.16527	0.18867	0.14131	-2.7542	-3.2625	-2.7896	-3.4313	-3.0021	-3.1833	-3.6979	-2.9979	-3.1396	-3.0646	-2.9854	-3.325	-3.0833	-3.1479	-3.2771	-2.9688	139.514	41.925	131.398	33.446	-91.875	23.333	188.474	108.282	-33.981	84.548	126.598	-101.799	195.842	-125.394	54.168	120.096	0.00069385	0.00038937	0.00012646	1361.1	3.423e-06	4.9696e-06	1362.8	366.46	5.8068e-06	5.1366e-06	420.37	138.11	116.66	41.772	4.7444e-06	50.61	0.00068959	0.0007993	0.00022031	1379.5	8.4974e-06	8.7493e-06	1385.4	372.82	8.4677e-06	8.6935e-06	428.6	141.64	119.47	42.97	8.5044e-06	52.266	162.489	-80.792	-85.033	-149.676	-42.696	3.423	-150.012	-145.458	-51.583	-5.608	-145.705	-141.836	-140.277	-136.008	-34.494	-137.098	-8191	255	
652.530	1	1	0	0	0.19355	0.099793	0.25427	0.32018	0.25779	0.075372	0.23443	0.076378	0.068061	0.34688	0.29605	0.054146	0.11581	0.28875	0.061286	0.22233	-2.7687	-3.0542	-2.8354	-3.6042	-3.2542	-3.1208	-3.7	-2.9521	-3.2708	-3.3771	-2.9562	-3.5542	-3.0021	-3.1771	-3.3646	-3.0354	-69.748	13.845	11.276	141.082	-87.237	134.904	189.841	-63.638	104.970	-18.804	-130.728	-2.501	-151.114	191.064	-32.962	85.453	0.00066288	0.00047307	0.00014589	1356.9	3.5105e-06	4.9445e-06	1356.6	364.77	6.0696e-06	6.3379e-06	419.38	138.3	116.29	41.714	4.2285e-06	50.16	0.00069076	0.00078673	0.00022843	1376	8.5207e-06	8.9503e-06	1380.6	371.8	8.5603e-06	9.0163e-06	426.82	141.32	119.1	42.768	8.4031e-06	52.121	162.675	-72.059	-69.537	-149.672	-48.099	-12.369	-150.244	-145.415	-71.878	-14.846	-145.520	-141.938	-139.946	-136.038	-23.269	-137.139	-8191	255	
652.626	1	1	0	0	0.14571	0.17834	0.25471	0.26057	0.19203	0.31875	0.17623	0.17559	0.18166	0.066092	0.13984	0.25681	0.14085	0.093442	0.057794	0.099431	-2.9583	-3.2875	-2.8312	-3.4562	-3.0479	-3.0792	-3.5938	-3.1833	-3.1063	-3.3354	-2.9667	-3.4313	-3.1146	-2.9229	-3.3708	-2.8979	-159.005	61.602	153.343	155.874	142.092	-88.709	183.416	108.699	19.871	-139.226	111.895	108.535	-3.777	89.270	-121.017	117.248	0.00065083	0.00064746	0.00010002	1358.3	5.2579e-06	4.9963e-06	1357.5	365.13	7.1178e-06	4.4865e-06	418.44	137.43	115.91	41.583	5.0542e-06	50.609	0.00070565	0.00079377	0.00022378	1376.9	8.288e-06	8.6207e-06	1380.1	371.25	8.6733e-06	8.9337e-06	426.51	141.1	118.89	42.818	8.4154e-06	52.198	163.039	-65.233	-78.854	-149.731	-58.777	-5.070	-150.101	-145.509	-71.127	3.396	-145.853	-141.588	-140.061	-136.062	-39.465	-137.076	-8191	255	
652.746	1	1	0	0	0.22621	0.15819	0.27628	0.25397	0.092737	0.33096	0.32333	0.22737	0.22236	0.10612	0.2824	0.17679	0.2124	0.062612	0.06717	0.15452	-2.6562	-3.1771	-2.7417	-3.4771	-3.0417	-2.9146	-3.5396	-2.9917	-3.0542	-3.475	-3.125	-3.2208	-3.2146	-2.8625	-3.4313	-3.1417	-35.846	35.443	-24.371	170.946	193.634	126.004	140.477	68.740	117.561	88.687	148.366	196.249	86.784	184.561	43.611	-1.347	0.00064521	0.00057699	0.00015441	1356.8	3.8089e-06	5.5866e-06	1356.5	364.57	5.8886e-06	4.5281e-06	418.6	137.59	116.35	41.642	6.4645e-06	50.636	0.00070319	0.00078372	0.00022803	1376.7	8.41e-06	8.947e-06	1379.5	371.21	8.7077e-06	8.8079e-06	426.47	141.27	119.05	42.812	8.393e-06	52.311	163.504	-82.995	-75.164	-149.642	-48.354	-8.210	-150.229	-145.503	-69.217	-14.952	-145.409	-141.390	-140.139	-136.093	-43.317	-137.142	-8191	255	
652.843	1	1	0	0	0.20194	0.19048	0.11971	0.10189	0.23088	0.11042	0.3693	0.32912	0.18083	0.20044	0.073491	0.10523	0.14418	0.30786	0.092911	0.10131	-2.6937	-3.3021	-2.8542	-3.4104	-3.1604	-3.0625	-3.5146	-3.1333	-3.0438	-3.5229	-3.0687	-3.3542	-3.3208	-2.825	-3.4021	-3.1833	-147.940	-132.666	-93.440	-28.976	108.218	52.264	144.366	147.408	-106.955	91.470	-85.488	154.347	26.831	-157.833	188.577	3.307	0.00063381	0.00049195	0.00013207	1355.6	4.1572e-06	4.2994e-06	1354.2	363.82	5.9935e-06	5.4814e-06	418.76	138.16	115.59	41.816	4.5393e-06	50.81	0.00071531	0.00079477	0.00022312	1374.6	8.2686e-06	8.7582e-06	1380.1	371	8.7006e-06	8.566e-06	427	141.4	118.95	42.885	8.3068e-06	52.323	160.965	-62.318	-56.511	-149.740	-51.899	-4.909	-150.102	-145.378	-69.591	-1.818	-145.809	-141.625	-140.014	-136.046	-27.088	-137.054	-8191	255	
652.914	1	1	0	0	0.080332	0.33134	0.096552	0.21379	0.1017	0.15656	0.30961	0.1156	0.16747	0.067409	0.12107	0.16568	0.10162	0.28141	0.33609	0.2413	-2.6229	-3.4271	-2.8583	-3.35	-3.4688	-2.875	-3.6021	-3.1208	-2.8688	-3.2271	-3.1354	-3.1833	-3.4938	-2.9583	-3.2854	-3.1729	134.750	-4.562	-50.126	110.792	135.017	161.952	94.280	108.641	-155.428	-84.979	129.795	147.357	69.387	-162.355	-4.527	151.129	0.00066348	0.00056535	7.7876e-05	1359	3.7754e-06	4.8701e-06	1354.7	363.42	5.5901e-06	4.5375e-06	418.08	138.71	116.3	41.641	4.8267e-06	50.699	0.00070465	0.00078946	0.00021713	1376.3	8.3027e-06	8.755e-06	1379.1	371.14	8.5568e-06	8.6592e-06	426.96	141.57	119.1	42.827	8.1961e-06	52.29	161.629	-69.058	-51.740	-149.750	-44.854	21.153	-150.022	-145.443	-79.572	-20.913	-145.656	-141.719	-140.062	-136.073	-34.237	-137.021	-8191	255	
653.010	1	1	0	0	0.22965	0.16332	0.058048	0.30885	0.1422	0.098115	0.21019	0.098398	0.17218	0.035064	0.056834	0.11455	0.023694	0.23133	0.11279	0.15138	-2.4021	-3.3125	-3.0542	-3.2854	-3.3646	-2.9396	-3.5458	-3.3979	-2.7208	-3.4813	-3.0771	-3.2229	-3.5896	-2.8167	-3.0271	-3.3958	-91.359	-46.102	171.470	164.640	186.976	173.246	171.665	-113.319	-35.542	-123.860	-101.131	-92.551	90.903	-160.381	194.756	-87.384	0.00065106	0.00053788	0.00011736	1358	4.4878e-06	4.501e-06	1357.2	365.74	5.8732e-06	5.4948e-06	419.64	138.67	116.26	41.713	5.2026e-06	50.481	0.00070177	0.00078436	0.0002253	1377.2	8.1192e-06	8.8282e-06	1382.2	371.79	8.7884e-06	8.5448e-06	428.27	141.65	119.27	42.938	8.4747e-06	52.197	160.320	-83.689	-87.874	-149.772	-48.892	-29.527	-150.018	-145.443	-68.303	-31.485	-145.637	-141.715	-140.302	-136.209	-42.182	-137.266	-8191	255	
653.129	1	1	0	0	0.14039	0.27683	0.067457	0.17955	0.33055	0.24727	0.19813	0.21951	0.23544	0.087205	0.07967	0.11269	0.28302	0.085598	0.16173	0.14593	-2.4604	-3.25	-3.1229	-3.2479	-3.45	-2.9604	-3.2646	-3.4417	-2.9333	-3.2146	-3.3229	-3.2083	-3.5875	-3.1208	-3.4021	-3.475	-127.849	-16.706	-1.881	147.787	47.492	13.708	90.131	129.999	-139.336	-76.851	179.459	98.886	195.348	136.686	128.875	94.903	0.00064711	0.0005436	0.00010012	1356.3	3.7949e-06	5.9128e-06	1354	366.76	6.5809e-06	5.0466e-06	420.24	138.02	116.09	41.55	3.7662e-06	50.416	0.0006903	0.000769	0.00022235	1376.9	8.2233e-06	8.8803e-06	1381.4	371.49	8.6094e-06	8.6976e-06	427.59	141.49	119.16	42.824	8.4935e-06	52.179	158.570	-82.549	-49.467	-149.642	-36.831	-0.486	-150.002	-145.473	-66.102	-28.631	-145.753	-141.829	-140.172	-135.924	-27.258	-137.150	-8191	255	
653.225	1	1	0	0	0.098149	0.13297	0.019702	0.096355	0.11054	0.24022	0.17035	0.29184	0.16091	0.20905	0.12975	0.21186	0.27005	0.32877	0.32494	0.23228	-2.5125	-3.4292	-3.0375	-3.2188	-3.3438	-2.7771	-3.2292	-3.3417	-2.725	-3.2125	-3.1708	-2.9396	-3.5938	-2.9896	-3.1146	-3.5938	-126.895	-29.754	-31.262	102.904	75.872	-125.895	26.092	67.573	-21.390	-110.428	-159.673	159.132	188.433	171.078	137.449	-24.093	0.00062461	0.00048442	0.00015026	1357.1	3.8672e-06	4.3988e-06	1355.5	363.59	5.2082e-06	2.6438e-06	418.24	137.88	116.11	41.638	6.5145e-06	50.546	0.00070969	0.0008115	0.00022587	1377	7.9745e-06	9.1683e-06	1380	370.68	8.8564e-06	8.6412e-06	426.91	141.08	118.86	42.769	8.919e-06	52.134	160.097	-78.076	-71.764	-149.702	-49.538	-24.526	-150.111	-145.475	-49.270	-0.019	-145.679	-141.923	-140.149	-135.976	-22.511	-136.978	-8191	255	
653.322	1	1	0	0	0.097624	0.095303	0.11925	0.33286	0.065232	0.12993	0.18244	0.1871	0.22679	0.28376	0.13136	0.17855	0.058578	0.18415	0.15537	0.054344	-2.4229	-3.2125	-3.2458	-3.0833	-3.3125	-3.2167	-3.1833	-3.4646	-2.9333	-3.2208	-3.1979	-2.85	-3.3063	-3.1	-2.9208	-3.6396	161.941	-102.060	-83.369	-148.386	-118.107	187.311	98.650	162.018	-23.393	-73.327	182.358	170.329	155.046	111.571	-88.051	-57.264	0.00067093	0.00047595	0.00014221	1354.4	4.7494e-06	5.7636e-06	1355.5	364.32	6.1086e-06	6.0746e-06	419.21	137.99	115.79	41.728	4.6592e-06	50.376	0.00072497	0.00080497	0.00022447	1376.1	8.5314e-06	8.9779e-06	1379	370.95	8.7392e-06	9.0064e-06	426.38	141.09	118.76	42.732	8.6954e-06	52.032	160.117	-96.009	-67.499	-149.820	-62.834	-31.646	-150.156	-145.474	-54.591	6.822	-145.867	-141.947	-139.990	-136.183	-43.451	-137.119	-8191	255	
653.418	1	1	0	0	0.16859	0.14889	0.28575	0.16146	0.23825	0.1497	0.17585	0.13448	0.21717	0.042336	0.036171	0.076789	0.10364	0.17741	0.22601	0.087157	-2.6083	-3.1167	-3.2458	-2.8	-3.4	-3.0208	-3.2167	-3.3917	-2.9771	-3.175	-3.4167	-2.8292	-3.4188	-3.0479	-2.8896	-3.3771	-10.844	-73.252	101.305	158.796	-11.248	104.048	93.325	159.926	-20.128	46.556	-30.336	-158.273	160.923	-129.046	70.318	192.718	0.00063871	0.0005497	0.00013112	1359.2	4.5761e-06	3.478e-06	1359.6	365.5	5.1361e-06	5.8803e-06	416.91	137.47	115.91	41.759	5.9912e-06	50.52	0.00071072	0.00084531	0.00023252	1377.6	8.5674e-06	9.0316e-06	1381.8	371.3	8.7785e-06	9.3341e-06	426.35	140.9	118.71	42.781	8.9024e-06	52.182	164.052	-85.318	-74.311	-149.713	-42.466	-0.003	-149.922	-145.542	-60.475	4.057	-145.641	-141.976	-139.874	-136.019	-43.450	-136.891	-8191	255	
653.514	1	1	0	0	0.13014	0.10084	0.18813	0.31194	0.12291	0.21192	0.52074	0.17523	0.14071	0.17076	0.044464	0.021495	0.13269	0.17991	0.098484	0.19693	-2.5958	-3.0833	-3.3833	-3.1813	-3.3729	-3.2354	-3.0021	-3.3937	-3.0667	-2.9167	-3.4958	-3.0896	-3.2958	-3.3417	-2.8812	-3.4229	75.506	46.310	-108.653	137.971	-47.311	-55.719	140.145	-94.412	150.308	-157.954	79.049	-55.689	-112.934	193.440	-34.029	177.192	0.00062965	0.00064155	0.00013004	1354.9	3.1641e-06	4.2667e-06	1359.9	364.87	5.4043e-06	4.401e-06	416.75	137.66	115.79	41.62	4.8717e-06	50.392	0.00071666	0.00083325	0.00022692	1377.1	8.5147e-06	9.0357e-06	1382	370.87	8.8269e-06	9.1977e-06	427.02	141	118.62	42.719	9.0044e-06	52.031	163.691	-87.055	-63.155	-149.525	-55.454	-38.295	-150.021	-145.295	-59.292	6.255	-145.597	-141.889	-140.152	-136.187	-42.626	-137.138	-8191	255	
653.610	1	1	0	0	0.036317	0.11216	0.14234	0.025891	0.16776	0.22473	0.22266	0.20575	0.18917	0.11979	0.096582	0.21984	0.28245	0.14536	0.10257	0.13601	-2.6542	-3.1729	-3.2354	-3.0563	-3.1208	-3.2417	-3.0521	-3.525	-3.1646	-2.9208	-3.5896	-2.9313	-3.175	-3.3917	-2.8021	-3.4125	23.514	-68.461	-93.706	75.783	-62.059	95.214	70.119	174.178	-47.609	-74.004	169.044	109.212	157.344	81.146	70.105	-160.797	0.00064275	0.00039629	0.00012482	1355.7	3.7742e-06	4.1123e-06	1355.5	363.13	6.2245e-06	5.1352e-06	419.77	137.37	115.61	41.442	3.2285e-06	50.406	0.00071967	0.00082442	0.00023543	1375.1	8.5748e-06	9.1048e-06	1380.8	370.6	9.1125e-06	9.4077e-06	427.3	140.8	118.37	42.661	9.0826e-06	52.024	161.960	-74.918	-55.775	-149.759	-70.853	-30.829	-150.073	-145.307	-71.143	-18.105	-145.748	-141.726	-139.998	-136.164	-27.991	-137.328	-8191	255	
653.706	1	1	0	0	0.21448	0.1501	0.17361	0.1876	0.1568	0.21792	0.30504	0.1425	0.19632	0.24784	0.27203	0.2323	0.095201	0.15843	0.10476	0.11331	-2.7146	-2.9625	-3.4354	-3.2854	-2.9979	-3.3875	-3.0083	-3.3771	-3.0208	-2.8792	-3.2812	-3.1271	-3.2812	-3.4792	-3.05	-3.3604	-123.199	51.130	-68.661	161.894	-59.960	163.695	37.258	110.437	-54.009	-117.507	123.289	125.671	129.174	164.158	-159.815	106.952	0.00066565	0.00044908	0.00011766	1355	4.2341e-06	4.7388e-06	1357.9	363.94	5.0843e-06	5.1192e-06	417.18	138.41	115.85	41.74	4.0559e-06	50.762	0.00073204	0.00081128	0.00023563	1374.4	8.5127e-06	8.982e-06	1381.7	370.52	8.6642e-06	9.2736e-06	426.46	141.43	119	42.9	8.3792e-06	52.34	160.760	-81.361	-83.512	-149.649	-66.349	-10.715	-150.147	-145.489	-67.971	-6.123	-145.692	-141.645	-140.214	-136.214	-25.831	-136.851	-8191	255	
653.827	1	1	0	0	0.034999	0.28003	0.27136	0.1147	0.086348	0.18427	0.086392	0.16412	0.14487	0.19492	0.075628	0.15868	0.23022	0.22012	0.1403	0.20558	-2.6417	-2.6708	-3.3521	-3.2687	-3.1146	-3.4167	-3.2042	-3.1813	-3.2875	-2.7917	-3.3458	-3.0021	-2.9458	-3.6688	-2.8458	-3.2938	154.218	153.065	149.947	-159.661	-109.360	36.088	62.971	95.932	131.756	-39.059	55.969	174.153	161.303	149.450	-145.707	158.226	0.00066118	0.00055237	0.00016698	1359.1	2.54e-06	7.7198e-06	1355.4	365.38	5.7676e-06	5.6165e-06	420.68	139.04	116.58	42.05	6.1766e-06	50.648	0.00069705	0.00078451	0.00021859	1375.1	8.2773e-06	8.6541e-06	1381.1	371.86	8.1505e-06	8.517e-06	427.84	142.15	119.44	43.053	8.4574e-06	52.462	161.304	-61.297	-64.421	-149.732	-70.198	-14.806	-150.119	-145.404	-73.397	-8.442	-145.562	-141.700	-140.143	-136.157	-34.328	-137.160	-8191	255	
653.923	1	1	0	0	0.23558	0.096232	0.20607	0.21801	0.11356	0.071437	0.11264	0.060181	0.084305	0.13452	0.086265	0.14494	0.095586	0.21322	0.075349	0.1116	-2.7188	-2.8667	-3.1958	-3.5333	-3.0208	-3.3208	-3.0979	-3.3187	-3.4313	-2.8917	-3.275	-3.2979	-2.8458	-3.55	-2.8729	-3.0792	105.070	114.671	-33.815	-150.004	167.532	98.012	-161.027	135.750	-153.264	31.708	42.458	92.778	-163.429	-157.618	161.406	178.415	0.00066066	0.00054118	0.00012748	1356.6	3.7739e-06	4.1215e-06	1357.7	364.25	5.6794e-06	5.7363e-06	420.23	138.31	117	41.794	5.0682e-06	50.706	0.00068877	0.00077948	0.00020927	1374.5	8.0379e-06	8.4637e-06	1379.7	371.57	8.3653e-06	8.9117e-06	427.82	141.71	119.64	43.004	8.3727e-06	52.472	159.608	-84.886	-70.442	-149.813	-40.490	9.002	-149.976	-145.492	-48.256	-12.201	-145.356	-141.897	-140.079	-136.183	-29.836	-137.071	-8191	255	
654.017	1	1	0	0	0.087738	0.083304	0.20725	0.28529	0.2301	0.13763	0.097102	0.21101	0.065591	0.070636	0.17658	0.047375	0.33774	0.027918	0.16957	0.28047	-2.8104	-2.7333	-3.2	-3.3708	-2.9125	-3.5375	-3.2542	-3.0271	-3.325	-3	-3.425	-3.2292	-3.0563	-3.5229	-2.7625	-3.1208	138.613	-35.934	-9.241	-155.361	125.595	-0.751	129.554	192.966	-70.589	-40.290	105.171	-77.259	188.504	-26.520	171.231	-152.304	0.00066299	0.00044495	0.00012827	1353.3	3.8111e-06	6.8606e-06	1355.4	364.62	6.7475e-06	4.2348e-06	419.58	138.49	116.61	41.866	4.2445e-06	50.827	0.00070277	0.00078235	0.00022027	1371.6	8.4347e-06	8.7997e-06	1378.5	371.4	8.7434e-06	8.9656e-06	427.91	141.82	119.5	43.103	8.8033e-06	52.509	161.609	-67.459	-67.253	-149.674	-65.541	-34.904	-150.147	-145.382	-64.735	-20.870	-145.692	-141.742	-140.207	-136.020	-32.314	-137.117	-8191	255	
654.114	1	1	0	0	0.021623	0.17734	0.057511	0.051763	0.031565	0.067114	0.12203	0.24217	0.11978	0.12531	0.27091	0.15691	0.026066	0.065353	0.16744	0.2509	-2.9042	-2.9417	-3.1021	-3.4375	-3.1625	-3.425	-3.3375	-3.1688	-3.1896	-2.8979	-3.325	-3.2625	-2.9604	-3.3083	-3.2625	-3.3125	161.516	-12.602	33.726	185.070	-10.215	193.090	188.046	-58.577	187.007	-64.990	110.640	140.369	116.067	43.177	75.343	74.598	0.00064393	0.000681	0.00013032	1355.6	3.5498e-06	4.7006e-06	1355.3	367.29	7.9826e-06	4.5838e-06	419.35	139	117.47	42.203	4.7788e-06	50.893	0.00069265	0.00082607	0.00022769	1375.5	8.4367e-06	9.0357e-06	1381.9	372.81	8.9336e-06	9.1552e-06	428.3	142.64	120.07	43.28	8.7157e-06	52.708	159.049	-81.693	-64.046	-149.624	-60.222	-25.892	-149.923	-145.386	-44.952	0.672	-145.214	-141.725	-140.088	-136.139	-42.780	-137.265	-8191	255	
654.210	1	1	0	0	0.016152	0.15732	0.21357	0.47908	0.19333	0.20705	0.33809	0.36303	0.18642	0.15317	0.15911	0.10972	0.11815	0.11055	0.19874	0.17239	-3.0854	-2.8	-3.0958	-3.6792	-2.8708	-3.4229	-3.4146	-3.1333	-3.3208	-3.0167	-3.2729	-3.6333	-2.9792	-3.3812	-3.0854	-3.1479	79.965	-3.453	14.930	172.786	-32.588	-123.632	144.042	155.889	23.745	83.449	110.254	-154.803	-160.730	-45.061	26.579	175.063	0.00063421	0.00066201	0.0001537	1356.9	4.5967e-06	6.3369e-06	1363.5	367.08	5.4301e-06	4.6415e-06	421.63	140.36	117.31	42.405	5.6284e-06	50.978	0.00070394	0.00081652	0.00023199	1375	8.5521e-06	8.8006e-06	1383	372.89	8.8326e-06	9.1274e-06	429.65	143.39	120.24	43.447	8.7816e-06	52.841	163.699	-81.326	-59.458	-149.784	-42.169	-7.512	-150.034	-145.327	-52.541	-28.689	-145.437	-141.735	-140.234	-136.216	-35.186	-137.039	-8191	255	
654.306	1	1	0	0	0.18343	0.15929	0.13292	0.30838	0.093698	0.14579	0.3087	0.088179	0.22361	0.08427	0.22202	0.16684	0.13136	0.1627	0.019118	0.048884	-2.9604	-2.9562	-3.0417	-3.5104	-2.9979	-3.3229	-3.4813	-3.1625	-3.3854	-3.1958	-3.1542	-3.3021	-3.1521	-3.3521	-3.3792	-2.9688	72.503	-131.841	35.662	140.987	-18.638	87.003	130.318	143.184	155.739	112.981	110.683	178.010	139.809	-154.784	-136.023	22.726	0.00069699	0.00045913	0.00013173	1353.3	4.0663e-06	3.5597e-06	1360.4	366.75	5.9376e-06	4.1832e-06	420.81	140.06	117.71	42.414	5.393e-06	51.127	0.00071779	0.00081581	0.00022829	1374.7	8.5054e-06	8.7631e-06	1384.2	373.06	8.4516e-06	9.0612e-06	429.35	143.35	120.66	43.523	8.5297e-06	52.88	162.141	-58.915	-62.594	-149.484	-40.966	2.590	-149.970	-145.260	-75.172	-14.391	-145.794	-141.744	-139.862	-136.124	-51.141	-136.828	-8191	255	
654.402	1	1	0	0	0.064765	0.034266	0.24752	0.52401	0.086196	0.20601	0.14891	0.29503	0.062331	0.016017	0.08313	0.085882	0.23183	0.18007	0.26875	0.44136	-2.9646	-3.2104	-2.9146	-3.6417	-2.7625	-3.2396	-3.45	-2.9896	-3.35	-3.3146	-3.025	-3.3688	-3.0583	-2.9917	-3.2979	-2.9938	-27.100	130.442	49.138	183.407	-95.629	-6.029	152.226	114.503	100.768	16.498	23.721	187.290	158.503	153.132	98.288	163.166	0.00066017	0.00040967	0.00011859	1356.2	4.1528e-06	3.6806e-06	1360.5	366.52	5.8227e-06	4.6334e-06	422.06	140.25	117.11	42.314	4.6821e-06	51.326	0.00071097	0.00081049	0.00022473	1374.3	8.4714e-06	8.8551e-06	1383.5	373.15	8.6087e-06	8.9231e-06	429.48	143.36	120.45	43.475	8.3597e-06	52.952	163.044	-81.614	-45.258	-149.673	-72.315	-36.032	-150.057	-145.458	-68.733	-16.218	-145.620	-141.764	-140.111	-136.005	-28.650	-136.930	-8191	255	
654.523	1	1	0	0	0.09739	0.10188	0.17299	0.16623	0.11023	0.12723	0.21983	0.31773	0.1124	0.16513	0.19552	0.026967	0.21818	0.30699	0.070702	0.1543	-2.9375	-3.0729	-2.9021	-3.7438	-3.0667	-3.0104	-3.4708	-2.9938	-3.2812	-3.225	-3.0563	-3.4333	-3.0375	-3.0104	-3.4375	-3.1292	-161.133	-75.375	164.970	127.061	155.045	-46.355	110.886	184.589	-56.570	-46.573	46.336	-24.702	181.798	140.463	-71.318	61.941	0.0006411	0.00036185	0.00014015	1353.9	3.5488e-06	6.8942e-06	1357.4	367.41	4.8288e-06	4.0605e-06	422.18	141.18	118.24	42.7	4.6498e-06	51.61	0.00069002	0.00076893	0.00022336	1373.6	8.28e-06	8.9079e-06	1382.1	373.47	8.3393e-06	8.745e-06	429.84	144.2	121.22	43.841	8.2048e-06	53.359	161.796	-56.202	-71.874	-149.802	-41.762	-27.886	-150.151	-145.495	-46.979	-9.553	-145.625	-141.815	-140.044	-136.194	-39.709	-137.135	-8191	255	
654.619	1	1	0	0	0.16983	0.1482	0.20266	0.074904	0.15231	0.18123	0.33134	0.26861	0.099087	0.12388	0.33247	0.14267	0.15863	0.071839	0.22803	0.11529	-2.9854	-3.2458	-2.7375	-3.6125	-3.0854	-2.9667	-3.5708	-3.0333	-3.0375	-3.2104	-2.8708	-3.4083	-3.0354	-3.2229	-3.4292	-3.0729	68.732	-4.820	-131.025	101.887	54.244	35.290	85.756	138.033	-96.153	55.399	193.687	-91.042	-161.059	-154.597	70.658	141.679	0.00068998	0.00049433	0.00012035	1357.3	4.3191e-06	5.2065e-06	1360.8	367.72	5.4027e-06	5.7138e-06	422.89	142.11	118.73	43.107	5.5904e-06	51.948	0.00069581	0.00078365	0.00022376	1375.8	8.1292e-06	8.6574e-06	1385	374.9	8.4333e-06	8.803e-06	431.67	145.18	122	44.236	8.5044e-06	53.632	159.837	-99.582	-67.756	-149.573	-37.132	-8.696	-149.986	-145.443	-59.442	-3.027	-145.736	-141.820	-139.999	-136.538	-22.062	-137.065	-8191	255	
654.715	1	1	0	0	0.18341	0.080767	0.1701	0.34563	0.19036	0.15952	0.23704	0.14539	0.12174	0.069566	0.22099	0.1145	0.10422	0.2435	0.1415	0.24968	-2.9146	-3.1562	-2.9854	-3.3792	-3.1604	-3.025	-3.5604	-3.1896	-3.075	-3.475	-3.1708	-3.4313	-3.3458	-3.0687	-3.3625	-3.2625	140.766	102.151	36.834	149.879	151.095	-95.071	134.476	108.316	141.582	172.704	181.371	25.021	75.075	166.119	-49.494	165.032	0.00065811	0.00032234	0.00011647	1363.5	5.0164e-06	6.5729e-06	1364.2	367.84	6.2901e-06	6.128e-06	423.58	142.21	118.91	42.958	6.3154e-06	52.035	0.00071211	0.00083038	0.00022655	1380.4	8.3693e-06	8.9592e-06	1389.7	375.46	8.5954e-06	8.8479e-06	432.78	145.47	122.22	44.174	8.4458e-06	53.587	159.354	-88.498	-70.991	-149.671	-47.091	-22.585	-150.002	-145.319	-62.190	-7.301	-145.519	-141.731	-140.132	-136.391	-34.345	-136.933	-8191	255	
654.787	1	1	0	0	0.15964	0.19248	0.055112	0.3117	0.20487	0.14702	0.14936	0.17163	0.040876	0.094771	0.21221	0.15011	0.10875	0.14833	0.072937	0.11013	-2.7833	-3.4375	-2.9188	-3.4229	-3.2812	-3.0958	-3.45	-3.1188	-3.0271	-3.3958	-3.2458	-3.3812	-3.3854	-3.0812	-3.5042	-3.2313	-40.951	91.267	-69.624	181.586	-90.511	104.054	55.085	-149.631	-146.010	127.216	21.089	105.907	-5.752	-149.641	32.169	-127.879	0.0006954	0.00054601	0.00012837	1359.4	4.689e-06	5.7964e-06	1371.7	369.07	5.1022e-06	5.1981e-06	422.62	141.4	118.98	43.051	5.2458e-06	51.9	0.00071552	0.00079025	0.00022953	1379.4	8.4847e-06	8.995e-06	1392	375.88	8.7757e-06	8.8569e-06	432.31	145.01	122.08	44.146	8.5862e-06	53.521	162.683	-76.643	-83.000	-149.715	-38.222	-20.813	-150.330	-145.561	-71.274	-7.839	-145.621	-141.966	-140.088	-136.276	-18.412	-136.996	-8191	255	
654.907	1	1	0	0	0.23668	0.094675	0.27124	0.24941	0.085079	0.17584	0.27915	0.069893	0.14233	0.29907	0.21146	0.3163	0.069911	0.10291	0.21484	0.085457	-2.5438	-3.3042	-2.8875	-3.4208	-3.2396	-2.975	-3.5083	-3.2333	-2.8833	-3.4583	-3.0812	-3.2125	-3.4333	-2.9333	-3.4104	-3.2604	-120.367	-107.986	132.863	157.569	-57.136	-2.646	142.096	-84.021	110.977	28.992	59.319	-124.534	-147.372	148.653	-53.596	161.573	0.00066642	0.00055991	0.00015817	1361.8	3.6509e-06	5.2386e-06	1368	369.1	6.8389e-06	5.4774e-06	424	140.98	118.43	43.033	4.3097e-06	51.713	0.0007249	0.00081875	0.00022906	1380.6	8.1953e-06	9.2e-06	1390.3	375.46	8.9406e-06	9.2802e-06	432.59	144.7	121.77	44.002	8.7555e-06	53.351	161.059	-72.928	-75.337	-149.605	-61.608	-24.005	-150.120	-145.472	-46.765	3.179	-145.494	-141.865	-140.111	-136.190	-33.656	-137.464	-8191	255	
655.002	1	1	0	0	0.11945	0.22056	0.21863	0.29695	0.16595	0.20395	0.14276	0.022306	0.059117	0.21306	0.29984	0.16563	0.11547	0.11234	0.10433	0.086963	-2.5687	-3.4646	-2.9688	-3.3563	-3.45	-2.7313	-3.4625	-3.3396	-2.9313	-3.5208	-3.2646	-3.3354	-3.3458	-2.9729	-3.2146	-3.4833	-110.526	112.757	-84.146	175.714	-115.075	51.277	180.400	-53.006	152.456	-108.164	-5.605	-111.192	-62.785	155.673	-35.216	120.792	0.00066404	0.00059357	0.00014542	1360.7	3.3456e-06	3.4511e-06	1364.6	368.41	5.3418e-06	3.7493e-06	424.46	141.27	119	42.869	2.6515e-06	51.619	0.00074358	0.00082657	0.0002275	1380.3	8.7528e-06	8.8404e-06	1389.2	375.37	9.1427e-06	9.1225e-06	433.22	144.74	121.8	44.006	8.7939e-06	53.457	161.787	-86.456	-67.104	-149.627	-38.972	-9.132	-150.097	-145.689	-86.419	-6.765	-145.524	-141.623	-140.047	-136.316	-36.683	-137.142	-8191	255	
655.098	1	1	0	0	0.26318	0.12034	0.049822	0.31261	0.11205	0.098543	0.14405	0.18471	0.10552	0.099799	0.34124	0.036626	0.21378	0.11718	0.22837	0.18658	-2.5042	-3.3583	-3.1396	-3.0833	-3.5187	-2.9542	-3.5208	-3.4583	-2.9562	-3.4938	-3.2167	-3.1188	-3.5083	-3	-3.1479	-3.3646	-151.118	-119.340	-113.651	145.157	-46.070	-110.776	53.809	148.479	14.437	-95.573	140.071	-161.794	-128.617	50.652	55.322	160.375	0.00069818	0.00031195	0.00014782	1360.1	3.277e-06	4.9865e-06	1365.6	369.66	5.7079e-06	4.9502e-06	423.28	141.44	118.84	42.811	4.9087e-06	51.631	0.00074262	0.00083433	0.00023165	1381.4	8.4067e-06	9.213e-06	1390.3	375.77	9.0031e-06	8.9108e-06	431.69	144.68	121.78	43.965	8.6571e-06	53.375	160.496	-68.095	-72.709	-149.616	-36.806	-8.417	-150.039	-145.386	-45.584	-12.341	-145.455	-141.792	-140.146	-136.287	-40.235	-137.255	-8191	255	
655.194	1	1	0	0	0.22329	0.33458	0.14314	0.29285	0.13405	0.14321	0.11423	0.21956	0.060776	0.056635	0.31326	0.042789	0.20767	0.18656	0.15751	0.30415	-2.3625	-3.2583	-2.9917	-3.0771	-3.5208	-3.0604	-3.2313	-3.5062	-2.9458	-3.2708	-3.25	-3.1021	-3.4208	-3.0375	-3.1437	-3.3542	-139.480	-80.327	-34.933	146.190	-30.532	141.092	141.570	-146.891	16.699	-0.228	-85.695	-113.717	111.588	-80.192	-10.753	19.723	0.00066974	0.000534	0.00014833	1361.6	4.1061e-06	6.223e-06	1370	369.55	5.4362e-06	4.7654e-06	423.65	140.96	118.93	42.87	5.966e-06	51.746	0.00073424	0.00079413	0.0002311	1381.2	8.4034e-06	9.2163e-06	1391.6	376.25	9.2192e-06	8.8986e-06	431.78	144.71	121.96	44.015	8.6607e-06	53.361	160.315	-78.449	-63.962	-149.696	-51.798	-19.636	-150.118	-145.498	-72.345	-11.961	-145.526	-141.777	-140.153	-136.271	-42.614	-137.054	-8191	255	
655.315	1	1	0	0	0.28844	0.27215	0.078472	0.22319	0.14801	0.039593	0.24544	0.17312	0.34767	0.045744	0.27909	0.1893	0.32764	0.078324	0.1301	0.28243	-2.3063	-3.1708	-3.1312	-3.1312	-3.35	-3.1	-3.1083	-3.5771	-3.0208	-3.3604	-3.2125	-2.9562	-3.5479	-3.3708	-2.9333	-3.5792	189.228	-141.723	101.403	141.833	179.865	174.171	124.433	158.648	-34.422	43.357	164.959	-156.681	186.021	9.021	-117.286	-149.656	0.00069101	0.00051454	0.0001512	1360.6	3.4693e-06	4.8188e-06	1370.2	369.2	6.5511e-06	4.5138e-06	424.07	141.38	118.73	42.97	3.7613e-06	51.629	0.00074919	0.00083691	0.00022633	1381.4	8.3253e-06	8.934e-06	1392.3	375.97	8.9301e-06	9.0579e-06	432.88	144.61	121.8	44.011	8.8771e-06	53.382	162.011	-84.670	-57.535	-149.742	-31.130	-22.458	-149.949	-145.557	-85.002	2.703	-145.544	-141.566	-140.246	-136.249	-36.374	-137.149	-8191	255	
655.411	1	1	0	0	0.30332	0.13593	0.045681	0.33117	0.1309	0.1513	0.38458	0.13721	0.086355	0.13365	0.46059	0.15242	0.13465	0.15002	0.061206	0.20185	-2.7417	-3.2792	-3.2792	-3.0312	-3.2292	-3.125	-3.1104	-3.5333	-2.8292	-3.0896	-3.4083	-3.0458	-3.5042	-3.3833	-3.0354	-3.5271	104.828	-19.210	28.354	137.221	76.162	37.796	156.364	-83.588	18.532	-19.840	-99.192	38.909	-104.314	-53.105	12.614	-152.499	0.00066938	0.00047259	0.000133	1358	4.7017e-06	5.7066e-06	1367.8	368.47	5.4286e-06	4.4656e-06	422.39	140.86	118.4	42.632	5.6162e-06	51.848	0.00072632	0.0008087	0.00022605	1380.3	8.3513e-06	9.1211e-06	1390.5	375.93	9.0424e-06	8.9305e-06	431.96	144.63	121.6	43.852	8.5825e-06	53.43	161.067	-75.277	-62.492	-149.610	-51.583	-22.079	-150.107	-145.414	-71.015	-14.681	-145.676	-141.806	-140.030	-136.185	-32.746	-137.331	-8191	255	
655.507	1	1	0	0	0.046237	0.15234	0.13452	0.16076	0.18283	0.10963	0.10144	0.23212	0.15073	0.25903	0.19557	0.08064	0.20769	0.34329	0.14905	0.041875	-2.6875	-3.1229	-3.3771	-3.1979	-3.3479	-3.275	-3.0854	-3.5812	-3.1208	-3.1396	-3.4896	-3.1396	-3.2938	-3.3792	-2.8271	-3.5917	-151.360	122.378	48.570	112.648	127.756	-35.674	-130.842	101.817	-9.519	66.727	-111.731	132.657	5.924	94.609	196.175	112.596	0.00069998	0.00042567	0.00010258	1362.3	3.1768e-06	6.9659e-06	1367.8	369.61	5.4432e-06	5.7954e-06	422.96	141.18	118.88	42.81	3.8879e-06	51.529	0.00072621	0.00080755	0.00022283	1380.1	8.0559e-06	8.7843e-06	1389.7	375.73	8.6873e-06	8.8545e-06	432.09	144.63	121.7	43.958	8.8047e-06	53.335	162.192	-67.613	-78.786	-149.810	-43.537	-17.693	-150.018	-145.469	-45.851	-10.455	-145.661	-141.936	-140.064	-136.399	-38.515	-137.312	-8191	255	
655.603	1	1	0	0	0.17512	0.14139	0.17396	0.13401	0.26702	0.069992	0.51869	0.1403	0.035608	0.22158	0.21917	0.20951	0.19269	0.22532	0.14558	0.25481	-2.8479	-2.9854	-3.3854	-3.3063	-3.3271	-3.225	-3.0854	-3.6333	-3.2	-3.1417	-3.3646	-3.1708	-3.275	-3.3917	-2.8688	-3.5438	-148.472	66.382	58.621	140.416	-117.767	55.297	146.736	174.598	64.160	-43.621	179.121	162.461	-160.152	163.033	-131.621	-3.242	0.00064622	0.00045951	0.00010841	1361	5.5499e-06	5.3496e-06	1368.2	369.18	7.0421e-06	5.6099e-06	424.61	140.46	118.61	42.82	5.0553e-06	51.518	0.00070596	0.00081229	0.00022445	1380.4	8.1519e-06	9.0235e-06	1389.6	375.38	8.5301e-06	8.6722e-06	431.81	144.31	121.48	43.894	8.432e-06	53.345	163.622	-72.083	-59.577	-149.587	-45.059	-11.499	-150.176	-145.426	-62.571	-17.045	-145.721	-141.675	-140.083	-136.142	-38.365	-137.031	-8191	255	
655.699	1	1	0	0	0.098211	0.025512	0.18281	0.21764	0.093805	0.14197	0.34264	0.1518	0.176	0.15543	0.17825	0.10521	0.028341	0.092084	0.19775	0.071001	-2.8083	-2.9479	-3.4896	-3.1333	-3.1312	-3.4333	-3.0833	-3.4146	-3.2083	-3.0812	-3.65	-3.1688	-3.2313	-3.4271	-2.9	-3.3521	-112.621	109.273	-47.637	112.079	-11.447	154.748	121.920	93.514	-40.152	128.356	60.054	181.846	-11.784	-133.130	-109.519	-24.254	0.00065635	0.00049963	0.00013735	1360.8	3.5513e-06	4.3e-06	1364.2	368.05	4.2394e-06	4.9566e-06	424.56	140.79	118.1	42.877	4.6805e-06	51.617	0.00070898	0.00081358	0.00021677	1379.7	7.9859e-06	8.4654e-06	1388.1	375.09	8.4621e-06	9.0015e-06	432.37	144.23	121.26	43.895	8.5341e-06	53.291	161.830	-75.000	-65.397	-149.568	-34.229	2.617	-150.040	-145.380	-71.345	-17.346	-145.664	-141.854	-140.030	-136.374	-20.977	-136.967	-8191	255	
655.795	1	1	0	0	0.08651	0.17144	0.054752	0.43127	0.12078	0.20122	0.29744	0.12603	0.1672	0.099264	0.064292	0.33896	0.2056	0.065871	0.078676	0.088303	-2.7479	-2.85	-3.4604	-3.2	-3.1146	-3.3417	-3.1229	-3.2146	-3.3396	-3.0458	-3.6458	-3.325	-3.0896	-3.45	-3.1792	-3.4875	-75.253	-109.245	29.397	114.622	48.180	89.745	135.191	138.088	6.213	188.283	73.039	195.983	-121.402	91.011	-10.746	-159.672	0.00066227	0.00044274	0.00013057	1355.5	3.5349e-06	5.5006e-06	1364.3	368.78	6.7585e-06	4.7513e-06	423.44	140.52	118.39	42.424	5.7883e-06	51.667	0.00070355	0.00079879	0.00021232	1377.7	8.0539e-06	8.5532e-06	1385.1	374.58	8.3014e-06	8.7311e-06	431.85	144.19	121.36	43.711	8.4537e-06	53.252	161.241	-90.810	-67.422	-149.706	-57.027	-23.429	-150.098	-145.462	-57.277	-13.915	-145.602	-141.808	-140.172	-136.080	-53.178	-136.984	-8191	255	
655.916	1	1	0	0	0.13505	0.12786	0.096563	0.2113	0.12801	0.14214	0.35665	0.078992	0.096307	0.034761	0.10704	0.36414	0.32271	0.16809	0.17971	0.1009	-2.925	-2.8708	-3.6042	-3.3625	-3.0708	-3.5292	-3.175	-3.3	-3.3771	-2.8875	-3.425	-3.2188	-3.0958	-3.6437	-3.1875	-3.1688	170.020	-0.705	23.624	183.331	152.132	147.018	148.263	100.652	-126.488	182.754	60.784	-142.040	124.673	145.369	-125.548	109.791	0.00066367	0.00059629	0.00017942	1357.3	3.7866e-06	4.3279e-06	1362.1	366.2	6.0601e-06	5.0005e-06	423.23	141.05	118.1	42.411	5.3948e-06	51.604	0.00069506	0.00078365	0.00021303	1377.4	8.2113e-06	8.4296e-06	1385.2	373.87	8.3477e-06	8.7441e-06	430.36	144.29	121.16	43.705	8.1534e-06	53.244	161.692	-80.644	-77.675	-149.629	-52.503	-0.307	-149.923	-145.209	-69.697	-31.266	-145.556	-141.683	-140.133	-136.365	-42.164	-136.677	-8191	255	
656.010	1	1	0	0	0.15646	0.14688	0.21827	0.31261	0.29272	0.10616	0.46558	0.27058	0.17677	0.28672	0.11453	0.26428	0.24738	0.24814	0.13996	0.20996	-3.0187	-2.9271	-3.3896	-3.3667	-3.1958	-3.4437	-3.275	-3.2479	-3.3333	-2.8875	-3.4938	-3.2667	-2.9292	-3.4458	-3.2229	-3.1625	-89.887	195.794	-19.461	149.055	-48.468	-47.034	162.902	176.250	90.642	149.801	129.053	-146.361	154.630	70.479	44.371	-98.573	0.00067049	0.00063025	0.00016241	1359.1	3.7353e-06	3.4129e-06	1364.8	368.7	6.6533e-06	4.259e-06	422.79	140.78	118.31	42.681	5.1836e-06	51.579	0.00069137	0.00077116	0.00021186	1378.1	8.384e-06	8.3311e-06	1386.5	375.08	8.354e-06	8.6461e-06	431.47	144.23	121.32	43.843	8.2612e-06	53.257	160.741	-86.889	-68.984	-149.607	-50.770	-24.541	-149.984	-145.273	-66.793	-15.802	-145.688	-141.695	-140.196	-136.187	-44.445	-136.984	-8191	255	
656.082	1	1	0	0	0.22262	0.1014	0.098279	0.2261	0.073634	0.1949	0.18237	0.091612	0.11461	0.024649	0.15755	0.081098	0.26983	0.13259	0.08899	0.094338	-3.1542	-2.9375	-3.1188	-3.4021	-3.1333	-3.4542	-3.2625	-3.2083	-3.3958	-3.0521	-3.375	-3.3438	-3.1229	-3.4437	-3.1083	-3.0833	-97.404	-93.755	64.356	168.727	-27.993	-128.842	131.245	21.094	117.136	28.688	115.697	-34.531	186.986	-130.323	-146.242	-144.751	0.00067102	0.00063191	0.00017266	1356.6	3.3238e-06	4.0766e-06	1362.4	368.02	5.7881e-06	4.537e-06	423.41	140.4	118.1	42.61	4.8142e-06	51.619	0.00068124	0.00080999	0.00021315	1376.4	8.1039e-06	8.1472e-06	1387.3	374.46	8.1653e-06	8.5129e-06	431.48	144.15	121.44	43.788	8.4783e-06	53.301	160.217	-62.810	-61.367	-149.683	-63.953	-1.300	-150.122	-145.368	-95.110	4.183	-145.542	-141.607	-140.048	-136.046	-51.545	-136.924	-8191	255	
656.204	1	1	0	0	0.11044	0.2138	0.37479	0.21394	0.18801	0.037769	0.21536	0.15608	0.12109	0.25477	0.2563	0.040062	0.15412	0.12392	0.18289	0.092908	-2.9396	-3.0229	-3.1312	-3.5458	-2.8271	-3.4667	-3.3896	-2.9938	-3.2958	-3.1979	-3.1104	-3.475	-2.9938	-3.2792	-3.1833	-3.1083	-23.726	0.545	182.464	70.481	-114.538	-101.585	96.943	118.760	-43.795	46.381	93.392	64.309	153.462	-97.685	38.866	-49.453	0.00064934	0.00043315	0.00012427	1354.5	3.7659e-06	5.5074e-06	1359.3	367.38	5.5034e-06	5.5762e-06	423.05	140.52	118.23	42.691	6.2514e-06	51.517	0.00068664	0.00073692	0.00021519	1375.2	8.0592e-06	8.358e-06	1385.1	374.45	8.2649e-06	8.5292e-06	430.93	143.88	121.24	43.768	8.0854e-06	53.143	161.794	-61.182	-82.816	-149.653	-42.037	-12.056	-150.096	-145.314	-68.132	8.246	-145.738	-141.755	-139.881	-136.384	-30.708	-137.048	-8191	255	
656.299	1	1	0	0	0.22779	0.16708	0.10553	0.31575	0.088098	0.077745	0.050747	0.25685	0.11982	0.096075	0.21629	0.093552	0.089308	0.26227	0.25352	0.068339	-2.9604	-2.9042	-3.2062	-3.5104	-2.8812	-3.2083	-3.3854	-2.9625	-3.3083	-3.1063	-3.125	-3.4437	-2.9458	-3.3208	-3.2958	-2.8583	101.035	-136.560	-51.557	113.452	-107.646	-102.351	-88.939	182.098	78.648	63.495	148.068	-146.488	162.364	-153.659	3.112	-78.646	0.00067823	0.00048926	0.00013253	1360.3	4.0233e-06	5.0054e-06	1365.1	368.05	5.6578e-06	4.8047e-06	422.92	141.23	118.07	42.646	5.3935e-06	51.614	0.00069254	0.00073878	0.00021495	1377.9	8.0726e-06	8.2872e-06	1387.1	374.52	7.9765e-06	8.602e-06	431.34	144.27	121.27	43.834	8.0709e-06	53.223	160.011	-68.439	-75.066	-149.721	-62.700	0.813	-150.072	-145.344	-54.049	-23.058	-145.454	-141.610	-139.892	-136.202	-46.647	-136.933	-8191	255	
656.395	1	1	0	0	0.21953	0.35755	0.21247	0.21122	0.12592	0.11291	0.1552	0.23378	0.21775	0.070917	0.17407	0.15817	0.18582	0.14989	0.075157	0.30423	-3.0042	-3.1854	-2.9688	-3.5854	-3.0854	-3.2438	-3.6063	-2.9333	-3.3979	-3.1083	-3.1167	-3.4479	-3.225	-3.2458	-3.4667	-2.8708	-85.170	-14.040	-109.658	121.110	21.006	-60.176	-116.745	-154.247	149.230	167.174	-145.607	130.953	142.240	21.531	44.110	132.634	0.00065385	0.00069918	0.00013451	1358.9	3.5244e-06	5.874e-06	1362.2	368.39	5.7899e-06	6.5828e-06	424.78	141.35	118.62	42.589	5.439e-06	51.533	0.00068384	0.00076032	0.00020703	1378.9	7.9985e-06	8.1521e-06	1387.2	374.99	7.8306e-06	8.4124e-06	431.97	144.52	121.59	43.855	7.9674e-06	53.23	160.170	-72.039	-70.534	-149.705	-60.847	-23.005	-150.132	-145.240	-60.663	-16.976	-145.500	-141.618	-139.992	-136.266	-37.037	-136.911	-8191	255	
#DATA ENDS
