BOXY.EXE: ISS Imagent and Oximeter Data Acquisition Program Version 0.80
Ascii Record File

#ACQ INFORMATION
2  Detector Channels 
16  External MUX Channels 
1  Auxiliary Channels 
5000  Waveform (CCF) Frequency (Hz)
1  Waveforms Skipped 
30  Waveforms Averaged 
1  Cycles Averaged 
16  Acquisitions per Waveform 
10.0806  Updata Rate (Hz) 

#FILE INFORMATION
TRUE -- External MUX Channel results are PARSED.
FALSE -- AC DC and Phase are NOT grouped.
TRUE -- Companion Program Settings File CREATED.
FALSE -- AC data not excluded
FALSE -- DC data not excluded
FALSE -- Phase data not excluded
FALSE -- Auxillary Chn. data not excluded
Tab delimiters

#CALIBRATION STATE
TRUE -- Waveform Calibration Values APPLIED.


#AUX CALIBRATION VALUES
Val Type	aux-1	

Term	1.0000e+00	
Factor	0.0000e+00	


#WF CALIBRATION VALUES
A = Detector Channel
Val Type	A-AC1	A-AC2	A-AC3	A-AC4	A-AC5	A-AC6	A-AC7	A-AC8	A-AC9	A-AC10	A-AC11	A-AC12	A-AC13	A-AC14	A-AC15	A-AC16	A-DC1	A-DC2	A-DC3	A-DC4	A-DC5	A-DC6	A-DC7	A-DC8	A-DC9	A-DC10	A-DC11	A-DC12	A-DC13	A-DC14	A-DC15	A-DC16	A-Ph1	A-Ph2	A-Ph3	A-Ph4	A-Ph5	A-Ph6	A-Ph7	A-Ph8	A-Ph9	A-Ph10	A-Ph11	A-Ph12	A-Ph13	A-Ph14	A-Ph15	A-Ph16	

Term	0.00000e+00	0.00000e+00	0.00000e+00	0.00000e+00	0.00000e+00	0.00000e+00	0.00000e+00	0.00000e+00	0.00000e+00	0.00000e+00	0.00000e+00	0.00000e+00	0.00000e+00	0.00000e+00	0.00000e+00	0.00000e+00	0.00000e+00	0.00000e+00	0.00000e+00	0.00000e+00	0.00000e+00	0.00000e+00	0.00000e+00	0.00000e+00	0.00000e+00	0.00000e+00	0.00000e+00	0.00000e+00	0.00000e+00	0.00000e+00	0.00000e+00	0.00000e+00	0.00000e+00	0.00000e+00	0.00000e+00	0.00000e+00	0.00000e+00	0.00000e+00	0.00000e+00	0.00000e+00	0.00000e+00	0.00000e+00	0.00000e+00	0.00000e+00	0.00000e+00	0.00000e+00	0.00000e+00	0.00000e+00	
Factor	1.00000e+00	1.00000e+00	1.00000e+00	1.00000e+00	1.00000e+00	1.00000e+00	1.00000e+00	1.00000e+00	1.00000e+00	1.00000e+00	1.00000e+00	1.00000e+00	1.00000e+00	1.00000e+00	1.00000e+00	1.00000e+00	1.00000e+00	1.00000e+00	1.00000e+00	1.00000e+00	1.00000e+00	1.00000e+00	1.00000e+00	1.00000e+00	1.00000e+00	1.00000e+00	1.00000e+00	1.00000e+00	1.00000e+00	1.00000e+00	1.00000e+00	1.00000e+00	X	X	X	X	X	X	X	X	X	X	X	X	X	X	X	X	

B = Detector Channel
Val Type	B-AC1	B-AC2	B-AC3	B-AC4	B-AC5	B-AC6	B-AC7	B-AC8	B-AC9	B-AC10	B-AC11	B-AC12	B-AC13	B-AC14	B-AC15	B-AC16	B-DC1	B-DC2	B-DC3	B-DC4	B-DC5	B-DC6	B-DC7	B-DC8	B-DC9	B-DC10	B-DC11	B-DC12	B-DC13	B-DC14	B-DC15	B-DC16	B-Ph1	B-Ph2	B-Ph3	B-Ph4	B-Ph5	B-Ph6	B-Ph7	B-Ph8	B-Ph9	B-Ph10	B-Ph11	B-Ph12	B-Ph13	B-Ph14	B-Ph15	B-Ph16	

Term	0.00000e+00	0.00000e+00	0.00000e+00	0.00000e+00	0.00000e+00	0.00000e+00	0.00000e+00	0.00000e+00	0.00000e+00	0.00000e+00	0.00000e+00	0.00000e+00	0.00000e+00	0.00000e+00	0.00000e+00	0.00000e+00	0.00000e+00	0.00000e+00	0.00000e+00	0.00000e+00	0.00000e+00	0.00000e+00	0.00000e+00	0.00000e+00	0.00000e+00	0.00000e+00	0.00000e+00	0.00000e+00	0.00000e+00	0.00000e+00	0.00000e+00	0.00000e+00	-1.46573e+02	-1.30403e+02	-1.37663e+02	-1.82827e+02	-7.22735e+01	-6.30001e+01	-1.58910e+02	-1.62015e+02	-7.72400e+01	-6.72005e+01	-1.71070e+02	-1.70740e+02	-1.82889e+02	-1.76704e+02	-6.79015e+01	-1.49758e+02	
Factor	2.11726e-05	1.42107e-04	4.06141e-05	1.78644e-01	1.31213e-06	1.57184e-06	1.76680e-01	4.86151e-02	1.17736e-06	1.44838e-06	9.37926e-02	2.76980e-02	2.41818e-02	8.94260e-03	1.48299e-06	1.30437e-02	5.47952e-06	6.70541e-06	1.89136e-06	9.01438e-02	7.13655e-08	7.35607e-08	8.41523e-02	2.47218e-02	7.09250e-08	7.32396e-08	4.60402e-02	1.36710e-02	1.23919e-02	4.56909e-03	7.18436e-08	6.45217e-03	X	X	X	X	X	X	X	X	X	X	X	X	X	X	X	X	



#DISTANCE SETTINGS
A = Detector Channel
A-1	A-2	A-3	A-4	A-5	A-6	A-7	A-8	A-9	A-10	A-11	A-12	A-13	A-14	A-15	A-16	

2.5000e+00	3.0000e+00	2.5000e+00	3.0000e+00	2.0000e+00	3.0000e+00	1.5000e+00	3.0000e+00	3.0000e+00	3.0000e+00	3.0000e+00	3.0000e+00	3.0000e+00	3.0000e+00	1.5000e+00	3.0000e+00	

B = Detector Channel
B-1	B-2	B-3	B-4	B-5	B-6	B-7	B-8	B-9	B-10	B-11	B-12	B-13	B-14	B-15	B-16	

1.0000e+01	1.0000e+01	1.0000e+01	1.4400e+00	1.0000e+01	1.0000e+01	1.5100e+00	1.9400e+00	1.0000e+01	1.0000e+01	1.9900e+00	2.4900e+00	2.4100e+00	2.9000e+00	1.0000e+01	2.9800e+00	




#DATA BEGINS
time	group	step	mark	flag	A-AC1	A-AC2	A-AC3	A-AC4	A-AC5	A-AC6	A-AC7	A-AC8	A-AC9	A-AC10	A-AC11	A-AC12	A-AC13	A-AC14	A-AC15	A-AC16	A-DC1	A-DC2	A-DC3	A-DC4	A-DC5	A-DC6	A-DC7	A-DC8	A-DC9	A-DC10	A-DC11	A-DC12	A-DC13	A-DC14	A-DC15	A-DC16	A-Ph1	A-Ph2	A-Ph3	A-Ph4	A-Ph5	A-Ph6	A-Ph7	A-Ph8	A-Ph9	A-Ph10	A-Ph11	A-Ph12	A-Ph13	A-Ph14	A-Ph15	A-Ph16	B-AC1	B-AC2	B-AC3	B-AC4	B-AC5	B-AC6	B-AC7	B-AC8	B-AC9	B-AC10	B-AC11	B-AC12	B-AC13	B-AC14	B-AC15	B-AC16	B-DC1	B-DC2	B-DC3	B-DC4	B-DC5	B-DC6	B-DC7	B-DC8	B-DC9	B-DC10	B-DC11	B-DC12	B-DC13	B-DC14	B-DC15	B-DC16	B-Ph1	B-Ph2	B-Ph3	B-Ph4	B-Ph5	B-Ph6	B-Ph7	B-Ph8	B-Ph9	B-Ph10	B-Ph11	B-Ph12	B-Ph13	B-Ph14	B-Ph15	B-Ph16	aux-1	digaux	

1426.583	1	1	0	256	0.092701	0.28357	0.14203	0.25751	0.11458	0.065586	0.14924	0.1147	0.15962	0.18148	0.13816	0.19165	0.13655	0.13725	0.1555	0.25549	-2.9292	-3.3792	-3.1854	-3.4167	-3.5396	-3.1771	-3.5229	-3.3792	-3.3187	-3.3729	-3.2354	-3.3958	-3.7396	-3.2729	-3.3667	-3.4958	73.332	285.930	335.116	325.856	85.749	2.239	340.755	33.136	195.187	54.862	139.555	219.888	299.409	47.552	45.685	110.381	0.00016072	0.00022268	6.3742e-05	1118.5	2.1319e-06	2.0944e-06	1188.6	236.17	1.4913e-06	2.4712e-06	292.4	82.897	64.93	18.327	2.5253e-06	26.163	8.3232e-05	4.515e-05	1.2471e-05	1096.8	5.9843e-07	4.6297e-07	1167.3	233.82	5.9355e-07	4.1518e-07	289.28	82.891	64.882	18.468	5.0365e-07	26.342	127.035	79.982	82.801	-2.152	147.562	137.210	-1.980	4.820	130.073	141.724	4.785	11.215	11.938	18.535	147.295	18.372	-8191	255	
1426.702	1	1	0	0	0.058101	0.080839	0.079695	0.1126	0.30145	0.37569	0.39054	0.19737	0.046272	0.30296	0.12808	0.19586	0.20309	0.20796	0.20737	0.3382	-2.7729	-3.3792	-3.3917	-3.2875	-3.5229	-3.4188	-3.4562	-3.6458	-3.1458	-3.3771	-3.4688	-3.2833	-3.6833	-3.0333	-3.4146	-3.3667	16.530	168.912	90.430	-1.542	206.223	331.885	257.014	311.816	265.561	118.216	110.226	-9.957	299.177	44.921	40.445	3.087	0.00015421	0.0003375	5.5345e-05	1113	2.7864e-06	3.0625e-06	1183.8	235.61	2.8511e-06	2.2825e-06	292.61	83.225	64.5	18.425	1.7721e-06	26.205	7.5401e-05	4.061e-05	1.0623e-05	1090.7	5.6572e-07	4.5163e-07	1160.6	233.11	5.9917e-07	4.2723e-07	289.3	82.794	64.685	18.515	4.9377e-07	26.404	115.568	81.959	67.163	-1.866	145.696	143.871	-1.879	5.062	152.197	116.903	4.910	11.419	11.740	18.688	175.713	18.398	-8191	255	
1426.798	1	1	0	0	0.21632	0.15399	0.30588	0.20264	0.086909	0.058914	0.42236	0.2069	0.059007	0.17643	0.20103	0.10311	0.16997	0.16792	0.22422	0.061896	-2.6729	-3.4604	-3.2438	-3.3042	-3.6583	-3.0479	-3.5396	-3.6792	-3.2438	-3.5417	-3.4458	-3.1479	-3.5396	-3.3563	-3.3083	-3.6375	34.922	155.012	151.758	4.366	208.250	240.032	307.486	6.052	121.435	338.813	160.377	67.026	319.755	39.317	274.825	340.666	0.00014878	0.00028327	7.7778e-05	1111.7	3.0056e-06	3.4533e-06	1183.1	235.03	1.4121e-06	2.2448e-06	290.99	82.982	64.73	18.457	2.1644e-06	26.144	7.7878e-05	4.311e-05	1.3322e-05	1090.4	6.182e-07	5.0619e-07	1160.1	232.99	6.0803e-07	4.2403e-07	288.25	82.782	64.658	18.512	5.1667e-07	26.353	111.385	86.563	89.876	-2.117	169.171	128.822	-1.958	4.996	170.795	150.893	4.742	11.296	11.741	18.669	163.681	17.928	-8191	255	
1426.871	1	1	0	0	0.15839	0.051585	0.056852	0.16214	0.30781	0.24397	0.35973	0.22582	0.063134	0.16433	0.057544	0.21802	0.08994	0.1818	0.076651	0.14515	-2.8	-3.5417	-3.4042	-3.1979	-3.5771	-3.3708	-3.3875	-3.6792	-3.1292	-3.45	-3.425	-3.3292	-3.6542	-3.3208	-3.4542	-3.4167	150.050	123.055	206.303	302.492	3.271	118.007	290.962	204.401	26.465	336.534	169.361	329.503	329.680	340.211	93.332	250.998	0.00017036	0.00033869	7.0215e-05	1103.7	2.9189e-06	2.0244e-06	1173.3	234.09	1.3053e-06	1.783e-06	293.14	82.723	65.002	18.3	2.6357e-06	26.015	7.4967e-05	3.9785e-05	1.1805e-05	1086.9	5.6899e-07	4.3753e-07	1156.9	232.65	5.5602e-07	4.1899e-07	288.63	82.834	64.819	18.5	4.5276e-07	26.372	116.536	60.711	83.570	-1.948	147.376	147.040	-1.911	5.160	153.489	142.378	5.196	11.512	11.720	18.450	163.812	18.184	-8191	255	
1426.990	1	1	0	0	0.25596	0.072835	0.17392	0.09156	0.16109	0.20334	0.17747	0.27529	0.10503	0.18659	0.3531	0.050553	0.18093	0.11065	0.051021	0.21796	-2.9083	-3.4125	-3.3417	-3.525	-3.6125	-3.3625	-3.5146	-3.5062	-3.0125	-3.4938	-3.5479	-3.2083	-3.6333	-3.3917	-3.3438	-3.6667	297.163	113.619	-3.699	334.659	109.588	325.132	228.296	299.560	224.830	342.626	245.618	249.063	57.272	345.800	119.591	228.979	0.00015159	0.0002005	7.2275e-05	1117.1	1.9551e-06	2.1594e-06	1188.1	236.64	1.5082e-06	2.6254e-06	294.12	82.99	65.396	18.68	2.4974e-06	26.52	7.6177e-05	3.8039e-05	1.2897e-05	1094.8	6.0185e-07	4.6021e-07	1167.8	234.17	6.596e-07	4.7804e-07	290.59	83.021	65.271	18.67	6.6829e-07	26.449	117.607	87.609	75.409	-2.030	140.138	136.810	-1.950	5.146	143.291	153.475	4.882	11.385	11.578	18.679	157.550	17.982	-8191	255	
1427.086	1	1	0	0	0.1655	0.30591	0.19046	0.46126	0.42146	0.092024	0.17954	0.10635	0.24086	0.040449	0.32699	0.1638	0.28682	0.123	0.15992	0.1204	-3.0542	-3.2854	-3.6063	-3.3625	-3.6479	-3.3875	-3.3667	-3.6917	-3.2104	-3.3146	-3.5187	-3.1229	-3.6292	-3.4479	-3.1042	-3.5458	182.096	6.284	75.096	258.111	335.230	-4.843	302.642	149.868	61.752	54.016	301.874	264.392	2.002	344.841	333.628	57.310	0.00014689	0.00031664	6.6343e-05	1130.2	2.8092e-06	1.7279e-06	1195.4	238.23	1.8448e-06	1.5258e-06	295.01	83.675	66.046	18.73	1.9133e-06	26.396	8.8563e-05	6.4609e-05	1.6675e-05	1105	8.0554e-07	6.668e-07	1176.7	235.74	8.1194e-07	6.8601e-07	292.08	83.669	65.714	18.79	7.7816e-07	26.616	126.717	67.876	85.344	-2.195	151.471	161.794	-1.853	4.894	173.859	119.791	4.667	11.115	11.499	18.430	133.110	17.764	-8191	255	
1427.182	1	1	0	0	0.16465	0.06294	0.23266	0.16381	0.055506	0.058744	0.19464	0.35676	0.041711	0.051031	0.19919	0.079919	0.15545	0.084728	0.21347	0.17503	-2.7333	-3.3229	-3.6021	-3.2521	-3.4917	-3.5396	-3.2375	-3.4917	-3.3604	-3.4104	-3.6292	-3.3083	-3.4354	-3.4667	-3.2167	-3.6104	102.532	-7.481	239.678	304.381	250.716	199.705	290.914	311.202	157.687	182.745	272.398	12.237	84.330	287.658	205.987	14.985	0.0001676	0.0002921	9.5339e-05	1135.6	2.1959e-06	2.5184e-06	1206.4	239.2	2.0261e-06	2.855e-06	296	84.208	65.987	18.812	1.9543e-06	26.572	9.5538e-05	6.82e-05	1.824e-05	1114.5	8.0524e-07	7.2488e-07	1186.2	236.78	8.2406e-07	7.8244e-07	293.31	84.185	66.012	18.864	8.7559e-07	26.783	123.755	79.196	79.264	-2.147	155.086	147.489	-2.035	4.602	141.038	139.931	5.094	11.565	11.661	18.944	141.461	18.311	-8191	255	
1427.279	1	1	0	0	0.08682	0.03296	0.13739	0.27944	0.12619	0.15544	0.36467	0.22223	0.12441	0.17308	0.15827	0.083368	0.037836	0.073587	0.21461	0.021758	-3.1875	-3.1146	-3.5438	-3.4625	-3.5479	-3.6604	-3.5354	-3.7062	-3.4896	-3.1813	-3.7146	-3.4208	-3.4042	-3.7021	-3.025	-3.5771	282.346	335.352	258.320	343.412	313.103	209.751	282.460	81.035	194.552	292.235	241.750	272.376	35.130	126.626	143.038	1.743	0.00014828	0.00025709	5.2119e-05	1141	2.5579e-06	3.6899e-06	1212.3	240.64	2.7722e-06	2.615e-06	299.1	84.171	66.282	18.726	3.0424e-06	26.643	9.8141e-05	7.4989e-05	2.062e-05	1121.1	9.3652e-07	8.2373e-07	1192.4	238.49	9.699e-07	9.0863e-07	295	84.36	66.283	18.885	7.8714e-07	26.824	125.785	77.328	78.593	-2.189	154.279	131.710	-2.093	4.835	152.726	128.513	4.738	11.226	11.623	18.528	148.748	18.082	-8191	255	
1427.399	1	1	0	0	0.16996	0.095949	0.20301	0.19846	0.1559	0.24562	0.25061	0.26155	0.15004	0.21812	0.20072	0.061432	0.13494	0.33869	0.21487	0.027852	-2.9417	-3.3125	-3.5792	-3.3479	-3.3625	-3.5438	-3.3438	-3.4292	-3.1792	-3.2667	-3.675	-3.2104	-3.4021	-3.675	-3.1604	-3.3458	4.436	278.061	34.432	8.263	52.903	84.320	259.220	309.724	77.632	284.107	337.063	263.729	273.200	323.211	170.938	94.269	0.00015358	0.0002863	6.6345e-05	1152.1	3.2366e-06	3.5293e-06	1214.2	241.58	2.1222e-06	3.8338e-06	299.37	84.116	66.607	19.003	2.967e-06	26.662	0.00010157	7.9459e-05	1.9004e-05	1125.5	9.7607e-07	7.8495e-07	1196.5	238.96	9.5217e-07	8.5278e-07	295.36	84.58	66.4	18.955	8.2291e-07	26.855	112.649	64.054	58.040	-2.060	152.964	127.496	-1.909	4.961	148.117	140.954	4.877	11.140	11.557	18.246	150.637	17.723	-8191	255	
1427.495	1	1	0	0	0.047748	0.32437	0.025717	0.30511	0.12875	0.10391	0.039228	0.18786	0.080067	0.024461	0.1807	0.082266	0.28567	0.28007	0.191	0.32779	-2.9917	-3.2458	-3.3354	-3.3333	-3.05	-3.4458	-3.3458	-3.3917	-3.4708	-3.2375	-3.5563	-3.525	-3.4354	-3.4813	-3.2313	-3.325	75.173	311.702	20.747	335.407	76.803	52.083	219.228	313.404	183.718	298.354	300.024	40.742	287.242	320.980	179.272	320.143	0.00013976	0.00042063	8.2807e-05	1146	3.3928e-06	3.0643e-06	1216.9	241.83	1.473e-06	1.4584e-06	299.8	84.182	66.3	18.935	2.0931e-06	26.655	0.00010341	8.0856e-05	1.941e-05	1128.1	9.9599e-07	7.8618e-07	1199.2	239.57	9.6576e-07	8.8177e-07	296.31	84.42	66.198	18.995	8.7993e-07	26.812	120.185	82.548	65.075	-2.307	150.105	121.131	-1.957	5.177	143.781	127.388	4.741	10.925	11.834	18.797	159.708	17.983	-8191	255	
1427.591	1	1	0	0	0.20772	0.13106	0.28113	0.16607	0.0227	0.073837	0.13834	0.26458	0.13601	0.043584	0.34141	0.196	0.17792	0.16137	0.18278	0.12424	-3.2	-3.0583	-3.3354	-3.3875	-3.325	-3.4625	-3.2604	-3.2938	-3.4542	-3.0687	-3.3917	-3.3292	-3.3083	-3.5729	-3.1896	-3.1896	117.597	-4.319	291.150	322.274	50.035	191.118	282.512	281.487	61.754	182.225	288.342	9.662	103.910	17.091	11.571	287.557	0.00013392	0.00038009	7.7384e-05	1155.4	2.0998e-06	2.2622e-06	1217.3	242.85	3.3718e-06	1.9267e-06	299.18	84.507	66.208	18.902	3.1505e-06	26.524	0.00010714	8.2938e-05	2.3071e-05	1131	1.112e-06	8.861e-07	1200.9	240.3	1.105e-06	9.3426e-07	295.95	84.608	66.335	18.961	9.8396e-07	26.711	114.293	88.365	70.371	-2.314	135.689	146.549	-1.949	5.269	175.584	166.144	4.623	10.889	11.525	18.411	157.387	17.958	-8191	255	
1427.688	1	1	0	0	0.2934	0.2002	0.31341	0.047573	0.14478	0.1783	0.097605	0.27233	0.2368	0.20974	0.11646	0.059017	0.3162	0.1392	0.25601	0.1275	-3.0604	-2.9875	-3.4854	-3.2458	-3.1188	-3.4667	-3.6875	-3.4646	-3.3771	-3.1646	-3.5312	-3.3688	-3.1479	-3.3958	-3.3354	-3.3146	259.006	256.088	304.109	21.415	214.650	262.063	301.274	306.068	171.044	10.750	48.701	170.687	101.352	316.608	277.879	197.496	0.00015512	0.00032766	6.4501e-05	1159	3.3528e-06	2.8047e-06	1225.1	243.17	8.9835e-07	1.5517e-06	297.94	84.402	66.167	18.842	4.1633e-06	26.349	0.00011308	8.65e-05	2.4339e-05	1133.9	1.0403e-06	8.0288e-07	1205.2	240.79	9.8276e-07	8.6575e-07	296.24	84.43	66.292	18.915	8.5075e-07	26.527	118.887	73.762	56.313	-2.234	170.358	131.885	-1.822	4.790	111.036	124.280	4.774	11.515	11.254	18.463	145.992	18.251	-8191	255	
1427.782	1	1	0	0	0.15989	0.2173	0.21788	0.13575	0.14541	0.070677	0.22771	0.10956	0.11291	0.15946	0.093484	0.21458	0.058814	0.18129	0.21786	0.19982	-2.8854	-3.2521	-3.4688	-3.4271	-3.15	-3.5687	-3.5729	-3.2562	-3.4479	-3.4021	-3.3833	-3.3083	-3.0812	-3.6542	-3.2438	-3.3479	121.677	189.135	19.755	218.551	264.867	72.194	240.896	296.663	244.940	25.332	344.126	313.526	69.174	31.651	48.509	10.592	0.00016481	0.00020661	7.775e-05	1155.4	2.4359e-06	3.8381e-06	1217.6	242.33	2.2488e-06	1.3594e-06	298.95	84.194	66.344	18.836	2.1434e-06	26.373	9.6485e-05	6.8395e-05	1.9355e-05	1129.5	9.386e-07	6.6986e-07	1201.3	239.89	8.248e-07	7.594e-07	296.13	84.32	66.324	18.798	7.9941e-07	26.453	124.328	68.376	90.099	-2.189	148.293	152.142	-1.851	4.813	139.738	134.118	4.718	11.217	11.283	18.394	136.768	18.336	-8191	255	
1427.878	1	1	0	0	0.26518	0.28029	0.21479	0.2047	0.025896	0.28291	0.2701	0.060147	0.12558	0.26647	0.20483	0.057191	0.06811	0.056201	0.15684	0.23023	-3.0292	-3.1167	-3.1458	-3.8229	-3.1542	-3.3917	-3.3583	-3.1729	-3.5521	-3.2438	-3.3646	-3.5312	-3.3312	-3.3271	-3.3104	-3.4792	229.740	334.969	105.070	342.209	97.137	255.080	253.141	5.133	171.648	282.606	70.062	235.793	66.962	116.140	294.944	118.250	0.00015218	0.00029375	0.00012543	1147.1	2.3116e-06	3.3138e-06	1208.2	240.92	2.3173e-06	2.7175e-06	299.97	83.729	65.555	18.621	1.9119e-06	26.108	9.354e-05	6.704e-05	2.0813e-05	1125.9	8.2189e-07	6.5929e-07	1191.5	238.55	7.7101e-07	7.1729e-07	294.63	83.865	65.641	18.72	7.3984e-07	26.355	122.906	71.923	73.421	-1.869	133.486	126.571	-2.044	4.931	139.613	129.037	4.486	11.111	11.499	18.665	144.055	18.144	-8191	255	
1427.999	1	1	0	0	0.20767	0.24213	0.02858	0.2048	0.15873	0.14425	0.09922	0.32974	0.065289	0.22778	0.1283	0.11403	0.14545	0.357	0.29019	0.02779	-3.1146	-3.2333	-3.0729	-3.6375	-3.2333	-3.5854	-3.6063	-3.0875	-3.5771	-3.1833	-3.2812	-3.6104	-3.3646	-3.3208	-3.2833	-3.5125	101.767	346.490	56.626	3.927	213.034	275.479	48.921	283.733	59.806	185.691	153.604	112.116	10.677	236.481	260.087	257.370	0.00015992	0.00022423	8.0563e-05	1143.9	2.3312e-06	1.6173e-06	1204.9	239.64	2.4423e-06	2.6645e-06	296.8	83.2	65.617	18.59	2.6262e-06	26.061	8.6987e-05	6.2039e-05	1.8425e-05	1118.1	7.8829e-07	6.6097e-07	1184.6	237.5	7.1206e-07	6.5199e-07	293.16	83.43	65.61	18.639	6.9673e-07	26.257	114.669	69.136	70.459	-2.183	142.092	167.376	-2.153	5.105	145.727	127.063	4.811	11.194	11.656	18.913	148.419	18.304	-8191	255	
1428.095	1	1	0	0	0.10191	0.26736	0.040619	0.13011	0.127	0.16128	0.08759	0.079192	0.067909	0.21575	0.13796	0.018552	0.28519	0.24386	0.29023	0.038105	-3.0021	-3.1146	-3.3646	-3.6063	-3.1833	-3.3854	-3.5333	-3.3708	-3.4583	-3.2188	-3.4208	-3.5958	-3.2354	-3.3604	-3.5187	-3.0771	133.162	-1.597	330.685	43.257	20.790	74.623	78.721	314.883	324.315	39.431	144.798	293.681	288.050	29.553	73.919	171.847	0.00013448	0.00021471	7.1408e-05	1131.2	2.5867e-06	2.1458e-06	1200.8	238.23	1.7927e-06	2.0118e-06	295.52	82.298	65.32	18.536	2.3705e-06	25.823	8.2923e-05	5.5166e-05	1.543e-05	1110	7.3655e-07	5.6305e-07	1181.4	235.89	6.6773e-07	5.1664e-07	291.91	82.877	65.098	18.502	5.7759e-07	26.022	117.371	85.924	77.913	-2.029	144.223	118.015	-2.052	4.940	157.046	146.030	4.404	11.366	11.691	18.995	163.535	18.401	-8191	255	
1428.167	1	1	0	0	0.15138	0.16631	0.047161	0.076296	0.099028	0.15645	0.14175	0.20354	0.15017	0.21507	0.13366	0.080834	0.16256	0.15558	0.17563	0.10279	-3.0396	-3.4	-3.1917	-3.5521	-3.3063	-3.2896	-3.6333	-3.3792	-3.5646	-3.3312	-3.1312	-3.6042	-3.325	-3.2458	-3.4875	-3.2938	-11.025	226.019	40.219	279.874	113.739	55.570	266.158	247.084	257.913	145.217	323.228	111.823	86.625	158.085	26.536	74.965	0.00016409	0.00027399	7.3062e-05	1125.5	2.4887e-06	3.7312e-06	1193.3	236.8	1.5192e-06	3.0381e-06	294.14	82.198	65.175	18.364	2.3477e-06	25.973	7.8665e-05	5.2651e-05	1.4851e-05	1106.2	6.9106e-07	5.8986e-07	1177.7	235.1	6.497e-07	5.9812e-07	291.31	82.806	65.139	18.485	6.1501e-07	26.076	115.477	67.906	74.961	-2.118	153.530	128.932	-2.064	5.159	143.213	119.213	4.782	11.171	11.865	18.572	158.014	17.980	-8191	255	
1428.263	1	1	0	0	0.20866	0.053003	0.23859	0.22569	0.15476	0.26121	0.39078	0.12878	0.14813	0.082005	0.070462	0.15034	0.086757	0.14003	0.15538	0.17248	-3.1979	-3.3646	-3.2854	-3.45	-3.2646	-3.3417	-3.575	-3.3479	-3.4167	-3.525	-3.4	-3.4896	-3.4479	-3.1396	-3.2271	-3.2188	180.866	92.373	204.833	227.151	134.087	77.561	315.974	77.322	46.308	208.434	1.911	218.754	211.546	146.844	294.650	258.507	0.00015778	0.00031626	6.8057e-05	1129.1	2.4238e-06	1.2832e-06	1200.5	238.29	2.5216e-06	2.6628e-06	294.34	82.439	64.812	18.273	2.5788e-06	25.902	8.2318e-05	5.5306e-05	1.5781e-05	1108.8	7.4681e-07	5.7776e-07	1179.5	235.82	6.9654e-07	5.3328e-07	291.03	82.848	65.031	18.454	5.8972e-07	26.075	121.049	84.106	70.061	-2.035	158.516	171.022	-1.988	5.031	148.203	137.922	5.164	11.138	11.316	18.456	126.340	18.072	-8191	255	
1428.383	1	1	0	0	0.070535	0.22072	0.0018057	0.35685	0.27043	0.34834	0.12307	0.27052	0.18259	0.21441	0.12938	0.043139	0.039794	0.080566	0.04571	0.12497	-2.8208	-3.5312	-3.1521	-3.6312	-3.3104	-3.3083	-3.4958	-3.2812	-3.3583	-3.4521	-3.2771	-3.6875	-3.2708	-3.1562	-3.6625	-3.4146	292.557	225.651	180.000	217.257	245.889	270.483	211.560	325.470	208.011	25.494	239.375	-6.213	237.934	291.840	178.378	335.429	0.00013826	0.00026027	4.5829e-05	1122.1	2.7848e-06	3.0547e-06	1189.6	235.38	2.497e-06	3.6837e-06	290.79	82.466	64.692	18.281	1.9748e-06	25.86	8.0538e-05	4.9816e-05	1.4587e-05	1105.4	7.1588e-07	5.3531e-07	1174.8	234.78	6.8797e-07	5.3404e-07	290.36	82.649	64.813	18.439	5.74e-07	25.98	114.697	59.598	71.536	-2.079	152.613	166.708	-1.955	4.761	159.522	137.053	4.572	10.840	11.514	18.804	135.851	18.099	-8191	255	
1428.480	1	1	0	0	0.20799	0.21511	0.14052	0.24033	0.30397	0.28027	0.29964	0.31075	0.17944	0.098059	0.14064	0.03396	0.27058	0.19025	0.061523	0.068947	-3	-3.5667	-3.2375	-3.6063	-3.5854	-3.1417	-3.6875	-3.4479	-3.4542	-3.6375	-3.3167	-3.6146	-3.2875	-3.0125	-3.5146	-3.3646	207.188	230.306	85.836	178.801	120.225	245.878	300.931	275.278	67.112	225.093	72.622	112.569	253.304	-12.202	59.872	301.540	0.00015667	0.00020075	9.6643e-05	1118.8	2.4877e-06	1.8143e-06	1177	235.21	1.927e-06	2.4607e-06	292.07	81.514	64.053	18.292	2.9287e-06	25.535	8.5264e-05	4.9341e-05	1.4508e-05	1099.5	7.0637e-07	5.6259e-07	1167.5	234.02	6.8709e-07	5.2946e-07	289.85	82.356	64.449	18.448	5.9151e-07	25.902	119.056	78.615	65.997	-1.997	151.632	121.380	-2.046	4.627	152.340	131.730	4.627	11.379	11.500	18.835	142.789	17.885	-8191	255	
1428.576	1	1	0	0	0.095602	0.15538	0.10563	0.11637	0.13676	0.27074	0.29247	0.1004	0.061253	0.33844	0.15574	0.25325	0.10406	0.21499	0.20234	0.064744	-2.8208	-3.5396	-3.2271	-3.5292	-3.325	-3.1833	-3.6729	-3.5271	-3.0938	-3.5875	-3.3292	-3.3292	-3.3563	-3.2729	-3.6188	-3.3604	341.530	122.288	289.593	344.649	76.832	311.722	295.608	18.489	89.285	247.624	324.721	235.936	272.008	183.886	194.438	23.078	0.00016419	0.00022377	7.1164e-05	1111.4	2.2672e-06	1.9507e-06	1174.9	234.07	1.2827e-06	3.7542e-06	291.58	81.757	64.034	18.252	3.5026e-06	25.684	8.6668e-05	4.9592e-05	1.4181e-05	1097.9	6.9016e-07	5.6841e-07	1167	234.04	7.0822e-07	5.7524e-07	289.01	82.394	64.532	18.389	5.9196e-07	25.978	114.664	78.814	75.556	-2.368	150.002	139.127	-1.847	4.800	160.926	133.394	4.627	11.339	11.670	18.527	134.934	18.002	-8191	255	
1428.672	1	1	0	0	0.32319	0.16312	0.11254	0.18328	0.1179	0.15386	0.27083	0.52959	0.097337	0.061675	0.23441	0.14972	0.081421	0.12213	0.28856	0.18131	-2.8646	-3.6813	-3.2583	-3.2583	-3.5396	-3.2812	-3.6688	-3.2729	-3.0833	-3.5583	-3.2938	-3.2333	-3.3708	-3.275	-3.3333	-3.4979	226.654	162.419	108.126	322.746	344.927	145.714	331.318	332.929	17.986	218.393	9.210	276.785	171.315	308.442	74.095	67.112	0.00015399	0.00024235	5.8761e-05	1109.3	1.4293e-06	3.0324e-06	1173.5	235.16	2.3165e-06	1.8554e-06	291.69	81.303	64.12	18.289	2.3794e-06	25.755	8.7056e-05	4.8991e-05	1.469e-05	1096.3	7.3997e-07	5.8757e-07	1165.9	234.44	6.9447e-07	5.7569e-07	289.42	82.276	64.67	18.434	6.3971e-07	26.001	120.189	45.464	56.027	-2.327	127.967	169.518	-1.998	5.249	144.714	134.965	4.721	11.283	11.630	18.419	130.372	18.378	-8191	255	
1428.768	1	1	0	0	0.26872	0.34284	0.052266	0.18214	0.15037	0.25235	0.13927	0.17808	0.23302	0.2276	0.085889	0.1145	0.24103	0.11557	0.11749	0.22218	-2.7875	-3.3833	-3.1833	-3.525	-3.625	-3.0708	-3.5896	-3.4542	-3.2021	-3.4729	-3.1708	-3.1625	-3.4625	-3.1417	-3.5042	-3.3187	157.938	117.011	117.025	31.236	8.261	187.873	243.709	47.706	266.359	100.354	340.892	169.286	281.791	339.794	308.232	257.090	0.00014412	0.00028451	7.8536e-05	1109.3	2.4177e-06	1.7825e-06	1180.8	234.65	1.6307e-06	3.0067e-06	291.36	82.487	64.547	18.176	3.5597e-06	25.575	8.1576e-05	4.9271e-05	1.6447e-05	1098.7	6.8288e-07	5.9937e-07	1169.3	233.94	7.1294e-07	5.2656e-07	289.45	82.695	64.572	18.399	6.6291e-07	25.935	123.955	77.952	93.715	-2.140	155.730	116.584	-2.344	4.775	150.984	145.806	4.344	10.718	11.672	18.179	132.090	17.864	-8191	255	
1428.862	1	1	0	0	0.33579	0.064145	0.22768	0.26907	0.26024	0.06939	0.21641	0.3979	0.080764	0.19996	0.30027	0.12462	0.16516	0.26675	0.088193	0.20248	-2.7354	-3.425	-3.5479	-3.3812	-3.5542	-3.2812	-3.5375	-3.6167	-3.1896	-3.4625	-3.4271	-3.2146	-3.5229	-3.4708	-3.3458	-3.5208	246.836	36.306	108.397	312.303	69.263	108.259	295.057	314.315	18.247	139.676	308.138	257.537	325.567	228.856	336.555	259.723	0.00014242	0.00028065	9.1892e-05	1111	2.3819e-06	3.0718e-06	1178.9	234.7	2.373e-06	1.3492e-06	291.89	82.056	64.271	18.219	2.4455e-06	25.588	8.1645e-05	5.7583e-05	1.6802e-05	1099.6	7.2079e-07	6.0473e-07	1169.9	234.5	7.3821e-07	5.3648e-07	290.29	82.488	64.74	18.414	6.3941e-07	26.007	114.309	85.586	68.225	-2.224	141.336	173.920	-2.028	4.660	154.859	181.458	4.783	11.142	11.126	18.850	131.220	18.003	-8191	255	
1428.960	1	1	0	0	0.37223	0.086872	0.054925	0.34476	0.090843	0.14535	0.14117	0.27096	0.19428	0.054785	0.17806	0.14791	0.068855	0.14985	0.12201	0.18523	-2.625	-3.4417	-3.2938	-3.2958	-3.4875	-3.3	-3.3917	-3.7125	-3.2062	-3.4229	-3.4833	-3.2396	-3.3563	-3.3542	-3.3729	-3.5604	114.012	228.185	70.345	18.300	22.222	334.101	198.857	346.008	131.598	222.734	290.759	195.175	264.962	277.946	180.221	82.483	0.00015171	0.0002854	8.0932e-05	1113.4	2.2445e-06	3.2161e-06	1183	234.57	2.1032e-06	3.1054e-06	292.71	81.106	64.739	18.23	2.6722e-06	25.632	8.4499e-05	4.9299e-05	1.4433e-05	1101.7	6.5522e-07	5.2075e-07	1172.3	234.04	7.0038e-07	5.7173e-07	290.87	82.264	64.644	18.399	6.3387e-07	25.966	118.367	75.410	71.569	-2.479	150.058	134.171	-2.276	5.059	181.861	138.384	4.475	11.156	11.734	18.650	139.785	18.035	-8191	255	
1429.079	1	1	0	0	0.15103	0.12226	0.17128	0.11984	0.19763	0.31033	0.19112	0.23423	0.17074	0.1105	0.30031	0.38626	0.28985	0.17617	0.065499	0.23544	-2.6021	-3.4625	-3.425	-3.1104	-3.4479	-3.4104	-3.3812	-3.5229	-3.2042	-3.4104	-3.6063	-3.3063	-3.4562	-3.1104	-3.2188	-3.2875	119.201	-0.019	273.170	286.751	-12.351	18.117	292.802	29.566	267.693	272.816	300.526	313.118	301.736	264.387	258.356	309.249	0.00014979	0.00030179	0.00010647	1118.3	2.5071e-06	3.2056e-06	1180.4	234.67	1.6861e-06	3.8696e-06	290.23	81.508	64.594	18.324	2.8726e-06	25.776	8.2216e-05	5.1045e-05	1.5131e-05	1101.8	7.2629e-07	5.701e-07	1170.5	234.01	6.8384e-07	5.7203e-07	289.54	82.399	64.685	18.405	6.2698e-07	26.047	118.761	87.969	89.093	-2.397	151.094	135.165	-1.796	4.932	147.464	138.689	4.660	11.028	11.586	18.552	147.039	17.945	-8191	255	
1429.175	1	1	0	0	0.11227	0.1883	0.21914	0.10835	0.13582	0.22407	0.21424	0.20742	0.14445	0.11798	0.19043	0.26283	0.15847	0.1178	0.10102	0.23693	-2.6479	-3.3812	-3.4396	-3.1375	-3.5812	-3.5292	-3.1521	-3.3271	-3.3292	-3.4542	-3.4042	-3.2208	-3.4646	-3.3167	-3.0917	-3.5208	261.640	216.797	17.959	254.937	227.603	124.646	284.503	0.551	202.753	285.153	2.206	252.187	334.136	52.555	269.408	299.084	0.00016052	0.00026793	8.608e-05	1116.1	2.5035e-06	2.3024e-06	1179.1	233.74	1.7773e-06	2.7244e-06	291.08	81.674	64.428	18.214	1.016e-06	25.518	8.2387e-05	5.7024e-05	1.5288e-05	1100.8	6.9566e-07	5.937e-07	1166.9	233.92	7.0038e-07	5.1512e-07	290.06	82.462	64.634	18.397	6.2609e-07	25.931	127.345	90.315	73.662	-2.270	155.068	142.953	-2.190	4.925	133.039	126.320	4.408	11.078	11.553	18.503	121.359	17.901	-8191	255	
1429.271	1	1	0	0	0.043126	0.20968	0.25872	0.16123	0.28464	0.081877	0.13412	0.22957	0.21715	0.12114	0.1402	0.14425	0.11694	0.2038	0.38747	0.17872	-3.0021	-3.3063	-3.4771	-3.4062	-3.4583	-3.2729	-3.4104	-3.5938	-3.3063	-3.1083	-3.5917	-3.3083	-3.2854	-3.4625	-3.25	-3.3937	229.727	52.228	73.507	333.436	1.006	191.204	247.238	331.601	291.821	202.366	-0.862	293.580	137.728	-10.742	328.935	233.195	0.00015493	0.00023694	7.8899e-05	1112.2	2.18e-06	3.6118e-06	1183	235.31	1.6127e-06	2.3621e-06	292.37	81.294	64.522	18.181	2.4806e-06	25.694	8.0161e-05	5.6437e-05	1.491e-05	1100.4	6.7589e-07	5.4665e-07	1171.3	234.45	6.7866e-07	5.5708e-07	289.88	82.274	64.711	18.411	6.0319e-07	26.044	123.176	81.710	84.424	-2.421	154.273	121.635	-1.977	4.775	147.169	126.980	4.618	10.838	11.419	18.346	130.195	17.794	-8191	255	
1429.392	1	1	0	0	0.13216	0.16059	0.17225	0.092138	0.11668	0.2546	0.023108	0.13212	0.27345	0.31205	0.1699	0.1015	0.028786	0.055377	0.27713	0.16474	-2.8833	-3.3875	-3.5042	-3.2792	-3.5521	-3.3521	-3.3375	-3.5458	-3.15	-3.2292	-3.4729	-3.0438	-3.4	-3.5312	-3.1292	-3.5563	64.535	196.666	289.150	197.186	161.500	318.450	343.891	289.273	98.708	326.122	161.868	284.093	311.383	103.345	32.715	262.617	0.00015245	0.00025117	6.539e-05	1116.1	2.7025e-06	2.2271e-06	1188.6	234.98	1.8461e-06	2.0068e-06	290.65	81.615	64.383	18.211	3.3904e-06	25.647	8.1987e-05	5.145e-05	1.4973e-05	1100.4	7.0979e-07	5.6351e-07	1172	234.26	6.7615e-07	5.5998e-07	289.36	82.251	64.663	18.367	6.0199e-07	26.033	122.718	108.212	76.677	-2.163	173.263	167.079	-2.202	4.937	151.425	129.328	4.845	11.299	11.432	18.395	152.737	18.161	-8191	255	
1429.464	1	1	0	0	0.086772	0.12388	0.16321	0.1825	0.11596	0.16189	0.2773	0.31157	0.26844	0.29006	0.19249	0.16319	0.17631	0.10503	0.22384	0.15055	-2.8708	-3.1104	-3.4813	-3.6333	-3.1958	-3.4604	-3.3521	-3.5646	-3.2771	-3.2021	-3.5417	-3.1479	-3.2562	-3.6479	-3.1562	-3.3792	249.977	280.299	275.916	267.026	249.216	239.597	236.440	253.990	317.919	331.703	276.218	204.370	220.935	76.129	148.173	291.461	0.00016798	0.00029518	7.8542e-05	1116.2	2.5684e-06	1.6575e-06	1182	234.07	2.448e-06	2.6423e-06	293.27	82.42	64.692	18.2	2.2035e-06	25.76	7.9385e-05	5.1241e-05	1.318e-05	1101.6	6.7946e-07	5.6442e-07	1170.2	233.95	7.1797e-07	5.3251e-07	290.38	82.562	64.818	18.401	5.6262e-07	25.955	119.478	81.747	62.537	-2.108	161.296	144.391	-1.862	4.817	149.547	128.765	4.676	11.333	11.450	18.322	136.495	17.897	-8191	255	
1429.560	1	1	0	0	0.027094	0.12051	0.19256	0.11964	0.029021	0.2617	0.31711	0.078648	0.095963	0.25271	0.050825	0.2219	0.1423	0.10182	0.21847	0.18696	-3.2208	-3.1688	-3.4083	-3.5	-3.2958	-3.45	-3.4604	-3.3187	-3.0438	-3.375	-3.5875	-3.1958	-3.3771	-3.4313	-3.3833	-3.4458	167.658	285.291	154.717	65.185	-4.631	242.091	325.771	134.161	206.941	-1.944	180.730	96.687	35.113	302.377	137.275	189.518	0.00016095	0.0002615	7.9297e-05	1112.7	2.8644e-06	3.1182e-06	1184.4	236.14	1.6661e-06	2.1805e-06	290.72	81.294	64.265	18.21	1.6258e-06	25.682	8.2478e-05	5.409e-05	1.3732e-05	1100.3	6.918e-07	5.4941e-07	1170.5	234.35	6.5354e-07	5.7463e-07	289.85	82.263	64.718	18.398	5.5529e-07	25.889	115.264	67.341	51.055	-2.060	168.736	146.616	-2.024	4.930	166.888	168.045	4.791	11.129	11.690	18.314	123.831	18.112	-8191	255	
1429.681	1	1	0	0	0.11343	0.1583	0.27401	0.27965	0.10801	0.27574	0.34493	0.20485	0.043986	0.060292	0.28314	0.20742	0.23377	0.096751	0.071166	0.12231	-2.8625	-3.1	-3.3229	-3.4062	-3.1167	-3.4854	-3.5042	-3.4813	-3.6083	-3.1042	-3.5083	-3.3937	-3.2	-3.5354	-3.0312	-3.2833	224.485	311.041	332.164	245.683	96.840	286.598	260.403	244.123	39.582	84.573	305.153	309.368	322.691	181.465	274.625	156.617	0.0001506	0.00032116	9.485e-05	1108.7	2.665e-06	3.0198e-06	1175.4	234.08	1.8568e-06	2.9311e-06	289.33	81.479	63.777	18.136	2.4254e-06	25.435	7.9487e-05	5.0291e-05	1.3437e-05	1095.9	6.8927e-07	4.947e-07	1164.7	233.31	6.4143e-07	4.6355e-07	288.3	82.138	64.288	18.317	5.4407e-07	25.877	121.597	71.382	65.390	-2.222	162.015	157.520	-2.194	4.952	156.704	151.587	4.248	11.260	11.498	18.490	139.909	18.073	-8191	255	
1429.775	1	1	0	0	0.04706	0.15774	0.097774	0.29491	0.18115	0.079892	0.32434	0.14619	0.14377	0.34689	0.07071	0.011348	0.22082	0.19685	0.2252	0.24725	-3.1104	-3.075	-3.525	-3.4646	-3.0854	-3.7542	-3.2562	-3.225	-3.4938	-3.1667	-3.4188	-3.4083	-3.1562	-3.6708	-3.2917	-3.3583	9.821	77.668	264.097	287.992	306.314	62.988	264.683	277.508	298.047	148.272	147.576	320.949	47.330	18.298	90.875	31.141	0.00014878	0.00035805	8.757e-05	1105.4	3.2435e-06	3.2378e-06	1173.6	233.45	1.7997e-06	2.8094e-06	290.41	81.384	64.025	18.133	2.1114e-06	25.475	7.072e-05	4.6463e-05	1.218e-05	1091.3	6.4021e-07	4.6542e-07	1161.1	232.69	5.7272e-07	4.5653e-07	288.15	81.866	64.346	18.307	5.5544e-07	25.827	123.646	92.647	68.648	-2.250	149.275	150.536	-2.096	4.979	156.972	142.678	4.644	10.987	11.586	19.275	157.941	18.476	-8191	255	
1429.871	1	1	0	0	0.15518	0.13972	0.0664	0.28885	0.039399	0.033113	0.3622	0.079131	0.11722	0.15276	0.083455	0.027238	0.16358	0.098832	0.17905	0.10851	-2.9646	-3.2479	-3.3979	-3.3792	-3.1562	-3.4729	-3.6229	-3.3604	-3.3667	-3.3688	-3.4771	-3.4771	-3.2313	-3.4208	-3.2583	-3.4208	142.535	75.632	152.104	246.926	253.697	154.327	249.923	242.316	159.254	20.050	339.099	282.773	30.450	124.062	321.695	308.498	0.00016641	0.00025847	5.1712e-05	1102.8	3.068e-06	2.2922e-06	1170	233.32	1.3328e-06	2.7457e-06	287.91	81.026	63.901	18.031	1.1675e-06	25.425	8.0047e-05	4.8377e-05	1.3795e-05	1090.2	6.3709e-07	4.7814e-07	1158.7	232.64	5.9991e-07	5.2595e-07	287.5	81.739	64.317	18.316	6.0079e-07	25.788	122.522	69.965	67.832	-2.207	142.031	153.520	-2.027	4.991	178.786	136.922	4.668	11.286	11.605	18.319	133.921	17.828	-8191	255	
1429.967	1	1	0	0	0.20181	0.082735	0.12959	0.29162	0.21372	0.22924	0.13422	0.14055	0.18608	0.1487	0.14853	0.21029	0.10017	0.10733	0.096666	0.18475	-2.9979	-3.0854	-3.3583	-3.4208	-3.2854	-3.3417	-3.4417	-3.2875	-3.5375	-3.0729	-3.5292	-3.5708	-3.0604	-3.4521	-3.2167	-3.1333	169.011	263.220	89.416	336.627	69.489	287.676	275.068	273.133	135.257	144.210	337.588	321.860	322.445	155.891	79.736	254.560	0.00017494	0.00024398	8.6264e-05	1108.1	2.7011e-06	3.5198e-06	1174.3	232.65	1.9152e-06	2.1584e-06	291.34	81.2	64.105	18.103	2.6669e-06	25.406	8.0275e-05	5.2149e-05	1.5336e-05	1092.9	6.799e-07	5.1048e-07	1163.1	232.76	6.2015e-07	5.3679e-07	288.59	81.916	64.206	18.275	6.1172e-07	25.858	120.024	65.034	79.719	-2.143	144.113	148.948	-2.032	4.856	130.582	146.175	4.602	10.974	11.501	18.496	143.375	18.195	-8191	255	
1430.063	1	1	0	0	0.26025	0.038319	0.46865	0.14197	0.080752	0.30413	0.3698	0.23503	0.1529	0.28794	0.17912	0.078711	0.10536	0.13149	0.17248	0.096272	-3.0521	-3.1583	-3.4083	-3.5771	-3.1667	-3.4708	-3.5542	-3.1146	-3.45	-3.2771	-3.2479	-3.4354	-3.1375	-3.3063	-3.3042	-3.1917	235.570	225.929	336.732	88.377	83.023	247.643	318.786	311.756	87.947	124.126	331.532	35.479	20.124	22.944	114.629	49.943	0.00013594	0.00033757	7.9242e-05	1103.7	3.2149e-06	3.2841e-06	1174	233.47	2.4445e-06	2.7527e-06	288.93	81	63.904	18.149	1.5666e-06	25.587	8.0789e-05	5.2288e-05	1.3921e-05	1091.2	6.8451e-07	5.0481e-07	1162.4	232.97	6.4158e-07	5.0749e-07	288.46	81.79	64.253	18.282	5.2221e-07	25.882	122.345	80.937	52.402	-2.237	152.731	145.323	-2.195	4.815	139.167	132.180	4.684	11.095	11.509	18.732	161.129	17.966	-8191	255	
1430.160	1	1	0	0	0.19338	0.1026	0.055433	0.07419	0.068455	0.21385	0.40641	0.37393	0.070485	0.27671	0.36925	0.049515	0.14755	0.076349	0.10115	0.063428	-3.0062	-3.0812	-3.2229	-3.4604	-2.95	-3.4021	-3.5104	-3.3229	-3.2938	-3.3271	-3.4083	-3.4896	-3.3417	-3.2833	-3.3479	-3.2604	24.090	297.524	95.089	27.760	191.030	10.467	285.674	298.086	80.792	77.459	313.416	258.524	244.148	68.462	313.151	140.941	0.00016185	0.00023388	0.00010276	1104.9	2.7187e-06	3.1712e-06	1168.2	233.2	1.0613e-06	3.3354e-06	288.65	81.438	64.271	18.101	2.5605e-06	25.399	7.6839e-05	4.7776e-05	1.3957e-05	1092.2	6.5537e-07	5.3592e-07	1160.2	232.6	6.2148e-07	5.049e-07	287.79	81.951	64.382	18.317	5.9615e-07	25.83	117.124	77.903	72.690	-2.310	151.538	137.486	-2.101	5.119	154.269	138.404	4.674	11.532	11.377	18.444	143.887	18.083	-8191	255	
1430.256	1	1	0	0	0.18067	0.072224	0.1376	0.26243	0.14277	0.16701	0.091035	0.298	0.14591	0.26351	0.16283	0.036806	0.20157	0.18911	0.13868	0.25197	-3.0479	-3.1646	-3.2333	-3.4771	-3.2708	-3.2438	-3.5708	-3.3646	-3.2646	-3.4479	-3.4854	-3.4958	-3.225	-3.3688	-3.4729	-3.2708	256.271	-1.212	121.904	-2.637	45.954	235.643	18.773	221.554	329.232	279.525	64.919	263.915	262.574	261.377	85.390	292.041	0.00014071	0.00014578	7.7657e-05	1102.5	3.4183e-06	3.7464e-06	1176.8	232.98	1.3854e-06	1.807e-06	290.86	81.509	64.063	18.093	1.7355e-06	25.427	7.6622e-05	4.9606e-05	1.4169e-05	1090.1	6.7753e-07	5.5998e-07	1162.1	232.55	6.0345e-07	5.1985e-07	288.23	81.963	64.39	18.307	5.3074e-07	25.788	116.029	96.184	55.235	-2.213	146.394	152.497	-2.212	4.916	130.206	130.384	4.396	11.195	11.581	18.741	126.211	17.857	-8191	255	
1430.352	1	1	0	0	0.23294	0.16136	0.18159	0.28327	0.04136	0.34485	0.078303	0.063044	0.070389	0.32244	0.062631	0.091845	0.26975	0.1003	0.12068	0.12253	-3.0687	-3.2188	-3.1729	-3.5583	-3.2625	-3.2833	-3.5792	-3.0062	-3.2875	-3.5021	-3.4333	-3.4062	-3.4354	-3.1979	-3.3396	-3.3125	259.093	340.403	128.797	248.067	297.583	220.329	323.248	88.118	255.959	82.648	145.928	345.245	251.595	294.831	257.682	201.615	0.00016061	0.00026188	9.7793e-05	1106.1	2.4413e-06	2.3135e-06	1171.1	232.94	3.1395e-06	1.6756e-06	289.84	81.561	63.789	18.148	2.327e-06	25.501	8.0583e-05	4.6295e-05	1.3945e-05	1093.3	6.4125e-07	5.2029e-07	1161.7	232.85	6.5886e-07	4.8491e-07	288.25	82.087	64.231	18.271	5.044e-07	25.86	123.750	73.859	73.357	-1.966	144.267	151.044	-2.076	4.861	152.340	136.329	4.745	10.986	11.533	18.683	137.482	17.782	-8191	255	
1430.472	1	1	0	0	0.12983	0.1365	0.10288	0.018495	0.091862	0.10151	0.16324	0.036695	0.29385	0.14037	0.18214	0.19462	0.22133	0.14393	0.048413	0.096065	-2.9917	-3.6063	-3.0729	-3.4479	-3.1375	-3.3563	-3.5958	-3.1917	-3.0979	-3.55	-3.1813	-3.3521	-3.5021	-3.2625	-3.4542	-3.1208	184.051	244.598	29.088	81.808	310.681	98.210	5.738	123.070	148.645	303.476	341.659	264.057	282.648	33.950	53.557	0.239	0.00014229	0.00033258	4.9578e-05	1110.8	3.1017e-06	2.695e-06	1168.5	233.26	1.6569e-06	1.9434e-06	289.2	81.51	64.156	18.195	2.7636e-06	25.336	7.4704e-05	4.8489e-05	1.2743e-05	1094	6.4853e-07	4.7876e-07	1160.6	232.54	6.5044e-07	4.669e-07	288.52	81.861	64.228	18.344	5.3778e-07	25.796	125.042	58.052	58.658	-2.179	161.866	132.685	-1.632	5.003	150.569	155.703	4.744	11.369	11.639	18.603	132.871	18.059	-8191	255	
1430.569	1	1	0	0	0.25505	0.17349	0.1664	0.088891	0.13894	0.15393	0.11079	0.17203	0.046964	0.26868	0.078977	0.10646	0.1179	0.11497	0.071407	0.037851	-2.9229	-3.6417	-3.0917	-3.2917	-3.4604	-3.4062	-3.7062	-3.3792	-3.2188	-3.5833	-3.3396	-3.4437	-3.2917	-3.2229	-3.5208	-3.2708	333.280	9.448	303.277	157.331	325.627	220.490	308.584	330.663	214.788	73.718	271.724	72.512	321.678	314.795	284.083	323.003	0.0001636	0.00026682	8.4743e-05	1102.4	2.2605e-06	2.6885e-06	1174.1	232.4	1.968e-06	2.2382e-06	287.94	81.473	63.977	18.088	2.5312e-06	25.47	7.8266e-05	4.9369e-05	1.3649e-05	1090.6	6.0616e-07	5.1508e-07	1162.2	232.41	6.599e-07	4.6202e-07	287.38	81.999	64.208	18.308	5.1997e-07	25.83	126.419	71.429	84.679	-2.078	155.799	152.248	-2.050	4.703	160.774	150.344	4.806	11.044	11.518	18.340	160.712	17.694	-8191	255	
1430.665	1	1	0	0	0.11715	0.16035	0.17578	0.23463	0.2065	0.034819	0.16564	0.078078	0.052532	0.11348	0.076164	0.22171	0.14117	0.19771	0.1949	0.017728	-2.8896	-3.7188	-3.1937	-3.3667	-3.2812	-3.2062	-3.5062	-3.4083	-3.2458	-3.4646	-3.275	-3.4896	-3.2333	-3.1063	-3.4437	-3.3542	168.613	177.070	165.004	255.591	209.228	78.449	257.007	55.536	61.318	36.970	89.456	242.073	157.973	-11.221	256.655	265.156	0.00014658	0.00026656	0.00011664	1102.5	2.5626e-06	2.8904e-06	1173.3	232.69	2.2194e-06	2.5665e-06	289.59	81.124	63.806	17.935	3.4556e-06	25.432	7.757e-05	4.2593e-05	1.3488e-05	1091.8	6.2876e-07	4.4734e-07	1161.7	232.45	6.1557e-07	4.4066e-07	287.37	81.899	64.119	18.227	5.1608e-07	25.798	118.687	46.726	75.897	-2.131	156.387	142.844	-2.052	5.031	146.035	128.324	4.645	11.072	11.574	18.488	137.617	17.796	-8191	255	
1430.761	1	1	0	0	0.11829	0.26214	0.21548	0.38107	0.076203	0.076256	0.1526	0.03131	0.22093	0.21096	0.10651	0.11882	0.15272	0.23509	0.13621	0.31968	-2.5396	-3.4771	-3.1917	-3.5667	-3.3333	-2.9042	-3.5938	-3.5125	-3.2396	-3.4917	-3.2833	-3.3375	-3.4625	-3.2104	-3.4	-3.15	83.321	127.686	251.485	334.166	-2.983	330.436	107.680	202.593	248.238	270.593	222.536	329.142	129.063	18.513	243.626	249.719	0.00013794	0.00019747	7.7191e-05	1106	1.7437e-06	2.1776e-06	1178.8	231.82	2.3545e-06	3.1081e-06	289.13	80.925	63.602	18.111	2.1876e-06	25.379	7.5264e-05	3.79e-05	1.3035e-05	1089.7	5.7405e-07	4.2788e-07	1161.8	232	6.0153e-07	4.3593e-07	287.52	81.831	64.158	18.259	4.8e-07	25.83	114.852	86.717	80.652	-2.048	135.342	155.463	-2.021	4.857	161.656	160.692	4.683	10.973	11.393	18.189	154.269	18.166	-8191	255	
1430.855	1	1	0	0	0.26282	0.067652	0.084093	0.32105	0.2194	0.13764	0.014862	0.1664	0.08135	0.057012	0.152	0.24737	0.22145	0.13591	0.11593	0.012202	-2.7208	-3.5125	-3.0896	-3.2146	-3.4292	-3.1312	-3.4458	-3.4917	-3.1583	-3.3979	-3.0896	-3.3646	-3.6333	-3.0833	-3.3688	-3.3667	192.492	297.640	138.670	272.288	242.716	126.672	13.396	248.030	194.346	230.750	277.449	36.834	252.642	225.139	268.327	236.116	0.00014475	0.00023502	8.3542e-05	1101.7	2.0801e-06	3.5984e-06	1171.1	232.39	1.944e-06	2.3338e-06	288.3	81.023	63.961	18.038	2.4421e-06	25.327	7.4099e-05	3.491e-05	1.2321e-05	1086.3	5.9397e-07	4.4703e-07	1159	231.73	5.5957e-07	4.3761e-07	287.65	81.661	64.072	18.259	5.1233e-07	25.755	111.379	82.094	59.862	-2.258	143.890	142.109	-2.230	4.960	158.536	144.789	4.840	11.279	11.481	18.615	142.865	18.351	-8191	255	
1430.953	1	1	0	0	0.19859	0.35505	0.10348	0.11114	0.25868	0.14886	0.22647	0.23838	0.054967	0.14325	0.1269	0.1037	0.30482	0.27562	0.078584	0.051047	-2.8604	-3.3896	-3.1896	-3.4313	-3.6875	-3.4	-3.5812	-3.6813	-3.1688	-3.4458	-3.2917	-3.4667	-3.6958	-3.3875	-3.2375	-3.5521	305.990	113.939	97.724	11.494	273.284	36.490	321.544	310.480	323.217	142.796	336.816	246.082	295.891	295.022	147.944	292.913	0.00014853	0.00027591	6.1684e-05	1103.4	2.576e-06	2.1557e-06	1174.5	232.42	1.1898e-06	1.7342e-06	288.24	80.83	63.941	18.125	2.6135e-06	25.588	7.3894e-05	4.3641e-05	1.1837e-05	1088.3	5.9085e-07	4.4474e-07	1159.3	231.98	6.1394e-07	4.3593e-07	287.27	81.896	64.061	18.309	5.5529e-07	25.841	126.866	70.489	91.449	-2.095	159.456	114.025	-2.007	4.903	149.905	127.882	4.762	10.745	11.642	18.468	161.854	17.598	-8191	255	
1431.072	1	1	0	0	0.12773	0.10982	0.2453	0.27449	0.12483	0.052054	0.21908	0.12082	0.1434	0.072507	0.22712	0.085588	0.093982	0.089818	0.073342	0.2577	-2.7958	-3.4813	-3.4375	-3.4479	-3.5521	-3.2083	-3.4958	-3.6833	-3.2	-3.3917	-3.425	-3.2313	-3.5667	-3.4333	-3.1521	-3.5229	337.730	90.779	177.462	327.313	71.053	172.659	273.085	321.665	168.613	195.059	311.552	317.802	188.953	298.287	159.020	261.505	0.0001501	0.00031312	9.1011e-05	1103.7	2.3716e-06	1.9064e-06	1170.1	233.31	1.9381e-06	2.3868e-06	289.35	80.655	63.626	18.203	2.2073e-06	25.558	7.8757e-05	4.2747e-05	1.2503e-05	1090.4	6.0423e-07	4.3707e-07	1159.3	232.36	5.9961e-07	4.5195e-07	287.63	81.513	64.029	18.303	5.2206e-07	25.797	115.929	85.188	53.922	-2.363	159.115	121.192	-1.945	5.055	174.908	116.630	4.519	11.070	11.220	18.522	139.519	18.264	-8191	255	
1431.168	1	1	0	0	0.10067	0.12563	0.23259	0.071849	0.06154	0.047012	0.18197	0.089101	0.1395	0.21105	0.30111	0.26067	0.05285	0.12321	0.07721	0.10135	-2.7687	-3.3042	-3.3063	-3.6562	-3.3792	-3.3	-3.3625	-3.5938	-3.2042	-3.4771	-3.4437	-3.3667	-3.5354	-3.3688	-3.3833	-3.6604	308.351	317.496	201.102	339.267	146.454	-8.749	312.538	338.164	288.520	175.067	54.992	308.511	253.921	70.014	343.538	346.380	0.00013233	0.00020786	7.4015e-05	1099.2	2.2886e-06	3.0871e-06	1173.3	232.15	1.6125e-06	2.8031e-06	288.65	80.331	63.933	18.055	2.2333e-06	25.347	7.4385e-05	4.1546e-05	1.1596e-05	1088.7	5.6141e-07	4.4826e-07	1160.3	231.4	5.5381e-07	4.2067e-07	287.03	81.567	64.145	18.257	4.8255e-07	25.709	122.699	72.792	47.580	-2.169	132.697	157.705	-2.084	5.004	137.785	142.112	4.599	11.224	11.593	18.624	152.038	18.222	-8191	255	
1431.264	1	1	0	0	0.179	0.11252	0.14617	0.0055588	0.092407	0.077295	0.23031	0.023724	0.20766	0.33445	0.021534	0.34097	0.2998	0.093039	0.24028	0.15228	-3.0042	-3.2938	-3.4229	-3.4458	-3.4313	-3.0896	-3.4521	-3.5625	-3.2375	-3.4083	-3.5875	-3.2667	-3.5604	-3.5021	-3.1125	-3.4917	154.550	120.745	-3.754	41.785	11.165	282.298	298.727	147.968	291.848	211.255	308.020	237.291	268.942	244.438	17.731	-2.257	0.0001534	0.00025379	8.4106e-05	1100.3	2.5975e-06	3.4745e-06	1169.3	232.8	2.4614e-06	2.3848e-06	288.44	81.407	63.336	17.958	1.4969e-06	25.545	7.2101e-05	3.9101e-05	1.1734e-05	1088	5.3063e-07	4.5286e-07	1156.5	231.85	6.1114e-07	4.1258e-07	286.55	81.854	63.963	18.188	4.3211e-07	25.823	122.725	94.243	76.102	-2.234	155.678	129.369	-2.118	4.856	149.301	167.403	5.041	11.138	11.686	18.763	148.117	17.884	-8191	255	
1431.361	1	1	0	0	0.070131	0.032778	0.17331	0.2371	0.1346	0.21374	0.10904	0.12764	0.06543	0.039674	0.28173	0.14187	0.14596	0.079096	0.16705	0.035843	-2.6625	-3.6042	-3.6521	-3.2458	-3.4375	-3.4083	-3.4396	-3.6729	-3.3208	-3.175	-3.6333	-3.3875	-3.5854	-3.3333	-3.2125	-3.7104	325.804	133.053	144.006	334.476	132.700	323.867	193.969	336.282	206.731	301.468	156.099	182.736	34.443	70.268	-3.149	87.035	0.00015255	0.00026275	9.2606e-05	1099.1	2.4688e-06	1.4116e-06	1160.2	231.8	2.3524e-06	1.3502e-06	288.09	80.348	63.525	17.961	2.781e-06	25.345	7.3517e-05	3.8277e-05	1.0138e-05	1084.1	5.1636e-07	3.7163e-07	1152.1	231.03	5.0682e-07	3.6635e-07	285.41	81.193	63.741	18.124	4.5037e-07	25.648	117.579	71.913	69.227	-2.178	164.523	122.727	-2.078	4.822	164.087	125.061	4.920	11.094	11.397	18.678	151.222	18.209	-8191	255	
1431.457	1	1	0	0	0.038601	0.25361	0.19485	0.21992	0.049761	0.14438	0.055737	0.17886	0.23176	0.10188	0.27734	0.096596	0.041617	0.27378	0.033175	0.14582	-2.9979	-2.9792	-3.3771	-3.2542	-3.4229	-3.5583	-3.45	-3.5187	-3.3875	-3.4104	-3.4375	-3.2875	-3.2042	-3.3104	-3.1917	-3.6458	283.199	292.176	340.002	223.455	180.479	238.498	201.782	323.584	44.521	314.771	322.108	332.140	92.073	69.427	52.575	20.733	0.000142	0.00024949	7.8216e-05	1078.6	2.7906e-06	3.2582e-06	1151.8	229.34	2.1986e-06	2.3123e-06	284.36	80.205	63.083	17.785	2.2475e-06	25.143	6.7238e-05	3.7271e-05	9.5474e-06	1071.4	5.1428e-07	3.1876e-07	1140.6	228.84	4.2703e-07	3.485e-07	283.54	80.81	63.235	17.986	3.9768e-07	25.554	115.493	77.718	82.007	-2.175	152.121	143.708	-1.958	5.041	149.935	132.775	4.767	11.177	11.711	18.755	153.896	18.476	-8191	255	
1431.553	1	1	0	0	0.11481	0.13497	0.1073	0.13732	0.30496	0.10589	0.28972	0.24707	0.1108	0.07558	0.22901	0.096452	0.038739	0.14933	0.11052	0.40031	-3.1021	-3.2208	-3.5479	-3.3042	-3.4833	-3.3042	-3.1333	-3.5875	-3.4333	-3.2958	-3.4938	-3.3438	-3.575	-3.3875	-2.9562	-3.4042	220.402	220.528	-2.452	343.318	109.147	25.714	234.543	242.427	253.590	18.324	248.563	335.686	187.468	149.332	80.243	286.803	0.00014865	0.00016894	5.6108e-05	1076.6	2.6393e-06	2.183e-06	1141.3	228.13	2.2664e-06	1.9963e-06	283.15	79.598	62.488	17.745	3.6866e-06	25.035	6.5526e-05	3.1949e-05	8.2313e-06	1060.2	5.0565e-07	3.0574e-07	1131.2	227.33	4.5865e-07	3.3873e-07	281.26	80.351	62.677	17.873	3.9993e-07	25.457	119.585	79.844	61.828	-2.118	144.310	135.625	-1.927	5.353	134.890	133.086	4.722	11.388	11.649	18.986	134.541	18.322	-8191	255	
1431.649	1	1	0	0	0.15784	0.11527	0.077506	0.15619	0.13159	0.12936	0.046938	0.068596	0.14775	0.37652	0.159	0.25368	0.070105	0.036068	0.21943	0.080636	-3.0062	-3.1458	-3.3563	-3.2958	-3.3333	-3.6271	-3.1813	-3.4437	-3.5375	-3.2438	-3.4917	-3.3042	-3.4271	-3.5604	-3.3146	-3.3542	227.623	146.401	59.673	319.806	148.278	292.194	230.666	282.966	184.335	303.687	213.793	295.459	93.729	195.444	261.991	3.812	0.00015814	0.00032428	7.5109e-05	1065.6	3.4176e-06	1.9846e-06	1130.2	226.66	1.939e-06	2.4907e-06	281.41	78.979	62.038	17.613	2.7836e-06	25.085	6.2318e-05	3.4267e-05	8.4559e-06	1050.5	4.7726e-07	2.9164e-07	1121.2	225.73	4.0398e-07	3.0913e-07	279.74	79.911	62.472	17.801	3.5263e-07	25.252	116.178	72.458	59.556	-2.140	157.770	143.133	-1.845	5.212	156.436	163.979	4.626	11.260	11.606	18.626	151.321	18.341	-8191	255	
1431.768	1	1	0	0	0.31415	0.21823	0.14031	0.18436	0.089206	0.069655	0.076948	0.10808	0.13845	0.10843	0.11765	0.17579	0.082197	0.30789	0.17598	0.16398	-2.9938	-3.1833	-3.5167	-3.4688	-3.2521	-3.5917	-3.4333	-3.4354	-3.4813	-3.2333	-3.5771	-3.575	-3.2417	-3.4938	-3.1396	-3.4938	127.714	222.574	300.329	73.672	77.705	210.095	40.922	336.203	87.528	47.657	13.085	301.112	32.098	239.216	34.276	164.319	0.00014751	0.00025565	6.8479e-05	1054.2	1.8767e-06	3.0954e-06	1113	224.24	1.9102e-06	2.1039e-06	278.5	78.549	61.725	17.608	2.7895e-06	24.937	5.8026e-05	2.59e-05	7.9201e-06	1037.6	4.5882e-07	2.5808e-07	1104.2	222.73	4.0738e-07	2.9296e-07	277.36	79.329	61.935	17.715	3.7972e-07	25.147	124.154	80.595	63.660	-2.168	151.449	158.708	-1.983	5.267	138.091	155.045	4.861	11.353	11.372	18.596	133.115	18.282	-8191	255	
1431.864	1	1	0	0	0.11258	0.17511	0.17742	0.12191	0.1552	0.037219	0.23499	0.27824	0.039931	0.19552	0.15858	0.20461	0.13822	0.088891	0.12407	0.0777	-3.1021	-3.3583	-3.4042	-3.4042	-3.1292	-3.4083	-3.325	-3.3271	-3.5104	-3.3333	-3.3917	-3.3896	-3.4146	-3.5042	-3.3104	-3.4688	333.758	329.823	258.761	323.028	88.366	183.637	259.682	260.556	140.866	282.032	333.340	89.989	39.037	340.901	335.670	67.608	0.00014132	0.00025892	6.891e-05	1041.8	2.1211e-06	2.1418e-06	1106.9	223.23	1.5199e-06	2.7689e-06	277.98	78.681	61.118	17.538	2.4311e-06	24.891	5.774e-05	2.9141e-05	8.054e-06	1029.9	4.2938e-07	2.2942e-07	1099.3	222.44	3.9762e-07	2.6961e-07	276.7	79.252	61.679	17.72	3.3841e-07	25.231	116.253	73.329	51.768	-1.780	144.955	156.942	-2.006	4.907	158.167	143.137	4.752	11.504	11.819	18.932	150.183	18.405	-8191	255	
1431.936	1	1	0	0	0.079047	0.13332	0.15527	0.12388	0.06685	0.20272	0.18281	0.10441	0.23582	0.05897	0.23803	0.14238	0.13032	0.13426	0.063925	0.11612	-2.9167	-2.975	-3.5542	-3.6417	-3.2062	-3.6	-3.45	-3.6021	-3.5729	-3.1312	-3.5312	-3.4688	-3.4313	-3.4917	-3.3688	-3.4375	268.690	266.435	43.844	-10.664	298.902	346.374	264.370	253.621	344.768	201.822	304.987	23.218	232.178	316.932	202.907	296.049	0.00014119	0.0002739	7.6524e-05	1047.2	1.44e-06	2.5615e-06	1112.8	222.97	1.613e-06	2.9935e-06	276.6	78.812	61.667	17.52	1.8157e-06	24.978	5.5572e-05	2.8093e-05	7.0217e-06	1030.8	4.6224e-07	2.7739e-07	1101.2	222.2	3.9866e-07	3.0761e-07	276.49	79.433	61.867	17.725	3.5578e-07	25.281	119.582	79.699	58.812	-2.076	150.995	143.267	-1.847	5.197	157.793	137.342	5.050	11.509	11.695	18.637	144.085	18.555	-8191	255	
1432.034	1	1	0	0	0.22121	0.17326	0.14178	0.1986	0.084889	0.2058	0.29246	0.26668	0.10192	0.11391	0.1825	0.050073	0.12643	0.11806	0.12734	0.10668	-2.9875	-3.3729	-3.4021	-3.5563	-3.3937	-3.5687	-3.5229	-3.3917	-3.6146	-3.4437	-3.5708	-3.7021	-3.2438	-3.5021	-3.4833	-3.5417	277.102	140.640	274.462	55.111	341.698	111.463	342.210	268.953	140.467	72.290	3.377	252.426	281.125	187.506	99.986	173.297	0.0001544	0.00031678	8.5455e-05	1045.6	1.929e-06	1.4879e-06	1111.1	222.69	2.3636e-06	2.6048e-06	277.51	78.966	61.513	17.543	1.7753e-06	24.999	6.1896e-05	3.2465e-05	7.1477e-06	1029.3	4.554e-07	2.8949e-07	1100.2	222.43	4.1151e-07	3.1463e-07	276.79	79.472	61.977	17.711	3.2779e-07	25.268	124.565	71.939	80.580	-1.911	132.296	150.245	-1.944	5.125	159.670	129.828	4.567	11.441	11.616	18.817	135.612	18.134	-8191	255	
1432.153	1	1	0	0	0.080455	0.11446	0.155	0.24849	0.16526	0.11817	0.25753	0.15391	0.20611	0.18066	0.20845	0.28212	0.24092	0.19355	0.21137	0.131	-3.0083	-3.3021	-3.3729	-3.4396	-3.2333	-3.4854	-3.4417	-3.1479	-3.7938	-3.4854	-3.4229	-3.7188	-3.5146	-3.325	-3.3521	-3.2542	204.423	279.528	161.625	312.866	14.240	84.308	327.270	243.893	300.251	22.534	296.743	7.636	-5.483	81.443	74.271	332.155	0.00014459	0.00023898	7.2847e-05	1042.1	2.16e-06	2.6946e-06	1111.4	223.15	2.205e-06	1.9637e-06	279.32	78.896	61.382	17.676	2.3559e-06	25.219	6.1862e-05	2.6137e-05	8.6254e-06	1029.5	4.9673e-07	2.7371e-07	1102	222.82	3.923e-07	2.8274e-07	277.4	79.385	61.913	17.856	3.5263e-07	25.374	123.141	69.869	71.227	-1.976	145.703	154.357	-1.780	4.999	141.692	148.950	4.708	11.291	11.613	18.749	144.698	18.343	-8191	255	
1432.249	1	1	0	0	0.28462	0.2051	0.08258	0.052023	0.10999	0.054762	0.14514	0.23761	0.16877	0.21256	0.2531	0.13671	0.12236	0.14206	0.27782	0.14052	-3.1854	-3.4646	-3.3958	-3.6917	-3.1229	-3.3458	-3.5812	-3.4833	-3.4	-3.3375	-3.3479	-3.6146	-3.2875	-3.4646	-3.5208	-3.3542	-5.599	17.759	84.414	179.982	141.127	154.170	288.335	54.605	7.740	24.290	286.746	84.261	278.421	310.551	60.436	304.899	0.00016544	0.00016061	7.9811e-05	1042.7	2.1365e-06	2.1386e-06	1115.6	223.1	1.8047e-06	3.1643e-06	280.19	78.915	61.915	17.604	3.1445e-06	25.114	6.1622e-05	2.6137e-05	8.2353e-06	1031.6	4.331e-07	2.9532e-07	1104.1	222.57	4.3501e-07	2.9097e-07	276.94	79.543	61.978	17.793	3.4635e-07	25.395	119.523	74.263	65.067	-2.179	154.816	134.818	-1.926	5.185	144.823	151.450	4.896	11.287	11.834	18.749	142.221	18.218	-8191	255	
1432.345	1	1	0	0	0.28349	0.092871	0.12636	0.018545	0.092426	0.24179	0.13998	0.19899	0.18173	0.13284	0.031008	0.20014	0.23505	0.16708	0.21398	0.15005	-2.9188	-3.4479	-3.3812	-3.7229	-3.4083	-3.2687	-3.5583	-3.3771	-3.3812	-3.1125	-3.3292	-3.6979	-3.4688	-3.3979	-3.6271	-3.1437	22.139	-11.584	344.860	253.445	75.641	341.795	221.619	226.340	169.113	-11.385	125.523	346.553	309.392	241.368	154.939	247.239	0.00013509	0.00022258	8.8629e-05	1045.3	2.5227e-06	2.3427e-06	1113.9	223.26	1.8287e-06	2.2475e-06	278.76	79.049	61.77	17.812	2.5818e-06	25.065	5.8277e-05	2.597e-05	7.2896e-06	1031.9	4.441e-07	2.7647e-07	1103.2	222.81	3.9777e-07	2.8975e-07	277.09	79.665	62.053	17.94	3.2824e-07	25.476	122.088	72.458	80.303	-2.067	175.245	137.112	-1.674	5.086	145.425	139.251	5.066	11.196	11.740	18.910	140.226	18.553	-8191	255	
1432.441	1	1	0	0	0.33932	0.048729	0.17951	0.27075	0.2849	0.18185	0.29448	0.11202	0.023943	0.15706	0.097904	0.11735	0.19497	0.025697	0.24739	0.26943	-3.1104	-3.4333	-3.2021	-3.4854	-3.2479	-3.3271	-3.6375	-3.3396	-3.4833	-3.4146	-3.2479	-3.6083	-3.3812	-3.0979	-3.3604	-3.4062	232.894	87.713	21.246	-10.350	124.278	301.328	290.326	70.519	123.898	190.747	258.864	316.697	310.796	324.657	166.915	220.981	0.00014632	0.00025335	9.6428e-05	1044.9	2.4624e-06	2.8321e-06	1109.6	222.4	1.5454e-06	2.1584e-06	279.74	79.118	61.756	17.88	2.5472e-06	25.058	6.1051e-05	2.1415e-05	7.9319e-06	1028.9	4.1615e-07	2.9807e-07	1102.2	222.41	3.8359e-07	2.5542e-07	277.61	79.765	62.095	18.077	3.4006e-07	25.527	125.330	81.818	73.303	-1.767	141.570	131.067	-2.085	5.154	159.665	134.255	5.151	11.073	12.009	18.618	141.188	18.307	-8191	255	
1432.562	1	1	0	0	0.17039	0.14353	0.16448	0.053084	0.11722	0.054098	0.20845	0.076974	0.23414	0.1827	0.26792	0.32984	0.12402	0.046464	0.25053	0.24777	-3.0187	-3.2125	-3.1083	-3.5187	-3.3479	-3.2396	-3.5938	-3.3833	-3.4583	-3.2958	-3.1688	-3.3542	-3.2854	-3.1833	-3.3333	-3.2708	239.378	42.083	278.373	91.118	267.981	2.297	35.646	254.387	4.940	205.573	11.983	301.074	42.418	251.855	331.512	300.881	0.00014334	0.00016846	8.3351e-05	1044.3	2.2501e-06	2.3937e-06	1114.3	223.78	2.0255e-06	2.6959e-06	277.22	78.614	62.096	17.853	2.4437e-06	25.292	5.9487e-05	2.7813e-05	7.2423e-06	1030.7	4.2908e-07	2.7585e-07	1102.4	222.48	4.1668e-07	2.9067e-07	277.26	79.635	62.276	18.02	3.0923e-07	25.633	124.811	78.215	103.378	-1.904	148.306	136.347	-1.963	5.028	142.684	138.805	5.000	11.187	11.742	18.722	129.447	18.431	-8191	255	
1432.633	1	1	0	0	0.14441	0.06748	0.090399	0.081092	0.15319	0.37677	0.18355	0.066058	0.22623	0.29292	0.1631	0.23198	0.1442	0.16081	0.28691	0.18116	-2.9229	-3.3167	-3.0687	-3.6292	-3.2854	-3.0687	-3.5208	-3.3479	-3.2729	-3.6583	-3.0729	-3.3521	-3.6	-3.1625	-3.4396	-3.2188	20.919	27.212	320.740	332.460	332.151	339.482	-1.705	280.598	31.733	32.746	296.066	15.162	263.175	233.457	116.847	279.080	0.00013395	0.00026021	7.7183e-05	1046	2.1542e-06	3.0052e-06	1112.4	223.86	2.0954e-06	2.6184e-06	278.57	79.415	61.981	17.801	2.3676e-06	25.199	6.0389e-05	2.7618e-05	7.5654e-06	1032.8	4.218e-07	2.806e-07	1102.3	222.87	4.2008e-07	2.6809e-07	277.16	79.861	62.256	18.068	3.3766e-07	25.631	117.995	75.042	99.348	-2.244	158.024	148.179	-2.069	4.898	149.467	160.639	4.989	11.293	11.697	18.507	141.721	18.219	-8191	255	
1432.754	1	1	0	0	0.10499	0.17252	0.28437	0.15904	0.25094	0.13154	0.25038	0.1009	0.12207	0.16086	0.12119	0.37098	0.11135	0.11535	0.27195	0.24014	-2.8583	-3.5896	-3.2438	-3.375	-3.5292	-3.3729	-3.4437	-3.2604	-3.3563	-3.4688	-3.1833	-3.3958	-3.6354	-3.3917	-3.5438	-3.4021	263.371	283.186	282.055	273.526	52.890	172.649	289.616	277.455	314.115	342.893	311.768	340.175	301.918	324.371	186.162	280.963	0.00016365	0.00023	7.6645e-05	1044.9	2.3351e-06	3.3283e-06	1112.4	223.39	2.446e-06	2.9535e-06	278.44	78.95	62.24	17.803	3.2822e-06	25.571	6.4556e-05	2.3245e-05	7.6915e-06	1032	4.2358e-07	2.852e-07	1104.6	222.58	4.322e-07	2.3727e-07	277.64	79.749	62.237	18.072	3.4365e-07	25.756	119.580	74.801	68.192	-1.854	166.796	144.203	-1.941	5.038	139.846	141.882	4.850	11.242	11.792	18.763	148.684	18.054	-8191	255	
1432.848	1	1	0	0	0.11796	0.10057	0.21819	0.21937	0.18121	0.19265	0.14115	0.33269	0.069063	0.22001	0.21095	0.24047	0.19277	0.14254	0.016268	0.057383	-2.9917	-3.5604	-3.1625	-3.4667	-3.5083	-3.3063	-3.5938	-3.4958	-3.4667	-3.5792	-3.1625	-3.3708	-3.5396	-3.3292	-3.3708	-3.4104	204.173	70.304	-8.627	-0.100	291.196	224.817	340.296	5.764	323.716	134.763	-9.507	337.905	333.835	21.366	98.587	49.994	0.00013322	0.00027249	7.042e-05	1045.9	3.2244e-06	1.9678e-06	1112.5	223.58	2.1532e-06	2.5686e-06	281.05	79.156	61.612	17.993	2.9999e-06	25.568	6.1553e-05	2.4042e-05	7.7506e-06	1031.9	4.0277e-07	2.5103e-07	1101.9	222.67	4.3131e-07	2.2857e-07	277.63	79.966	62.156	18.178	3.2464e-07	25.852	109.534	67.737	89.332	-1.889	163.508	168.175	-1.897	4.992	166.957	168.060	4.653	10.919	11.836	18.591	171.367	18.326	-8191	255	
1432.944	1	1	0	0	0.21009	0.30611	0.12051	0.024166	0.33091	0.038654	0.11514	0.18931	0.15821	0.081553	0.10239	0.17888	0.21503	0.21312	0.29238	0.34533	-2.9583	-3.4646	-3.1896	-3.4583	-3.5396	-3.0917	-3.7167	-3.4875	-3.1104	-3.7313	-3.5104	-3.2313	-3.4583	-3.1771	-3.2583	-3.425	241.716	288.615	329.133	334.296	303.823	187.999	209.344	289.662	101.343	-10.416	7.288	278.427	317.106	54.667	302.898	314.675	0.00013987	0.00019997	9.0021e-05	1043.5	2.2984e-06	2.9044e-06	1106.9	223.31	2.2341e-06	2.3842e-06	279.74	79.331	62.258	17.971	2.6338e-06	25.591	6.1451e-05	2.5229e-05	7.5575e-06	1029.7	4.0217e-07	2.924e-07	1101	222.92	4.1994e-07	2.4398e-07	277.98	80.006	62.432	18.174	3.1222e-07	25.797	119.919	54.145	79.846	-1.955	141.179	140.287	-1.893	4.808	147.785	147.241	5.102	11.390	11.475	18.585	153.478	18.377	-8191	255	
1433.041	1	1	0	0	0.20534	0.05074	0.27735	0.027142	0.12825	0.21201	0.19525	0.2354	0.094511	0.1616	0.092966	0.20332	0.21751	0.15468	0.094709	0.10164	-2.9625	-3.4521	-3.1042	-3.3375	-3.5229	-3.0042	-3.5771	-3.5875	-3.1542	-3.4625	-3.3896	-3.2708	-3.3563	-3.1979	-3.4333	-3.4125	266.309	17.537	300.246	272.739	60.635	128.533	218.526	278.397	214.697	308.361	237.370	327.495	68.905	-8.715	62.562	219.015	0.00014221	0.00028826	8.5272e-05	1040.5	1.9434e-06	2.3607e-06	1108	224.28	1.8451e-06	2.052e-06	278.58	79.451	61.711	17.878	3.4518e-06	25.518	5.7957e-05	2.3874e-05	8.1368e-06	1029.8	3.8612e-07	2.9378e-07	1099.6	222.92	3.9496e-07	2.6305e-07	277	79.897	62.159	18.101	3.3183e-07	25.674	119.596	79.442	76.414	-1.717	150.287	141.202	-1.880	5.135	148.480	152.688	4.892	11.488	11.336	18.684	126.064	18.714	-8191	255	
1433.161	1	1	0	0	0.18072	0.16158	0.20799	0.11861	0.090676	0.31677	0.38379	0.16029	0.18693	0.17935	0.10357	0.1225	0.088609	0.08904	0.31605	0.16142	-2.8	-3.4229	-3.4062	-3.5229	-3.5229	-3.2	-3.4354	-3.6625	-3.1896	-3.4104	-3.5333	-3.3812	-3.4958	-3.2062	-3.2292	-3.4813	102.499	294.174	167.248	292.809	30.327	33.684	303.855	155.690	173.221	157.770	284.336	253.093	316.431	272.075	29.833	34.257	0.00013731	0.00022937	6.9189e-05	1044.9	2.3374e-06	2.5876e-06	1108.7	223.7	2.1207e-06	3.0215e-06	278.62	78.281	61.685	17.845	2.5535e-06	25.217	6.1165e-05	2.5997e-05	8.0737e-06	1030.3	3.876e-07	2.9256e-07	1099.2	222.74	4.2127e-07	2.5832e-07	276.77	79.439	62.038	17.951	3.6101e-07	25.448	121.693	73.448	98.247	-2.041	167.395	140.768	-1.712	5.128	146.979	130.348	4.768	11.225	11.746	18.518	155.163	18.713	-8191	255	
1433.233	1	1	0	0	0.14571	0.080639	0.12405	0.12793	0.18147	0.24561	0.11675	0.25232	0.1418	0.23254	0.20676	0.15784	0.31051	0.086841	0.14915	0.056978	-2.9042	-3.4729	-3.4979	-3.3542	-3.6375	-3.2625	-3.4042	-3.3771	-3.2896	-3.5833	-3.2604	-3.2167	-3.6	-3.2667	-3.0354	-3.4188	181.576	68.925	91.076	319.091	211.859	288.365	324.930	247.969	263.882	261.248	291.322	313.044	305.292	14.361	27.145	95.315	0.00016266	0.00020304	9.0674e-05	1043.8	2.8017e-06	3.6038e-06	1107.8	222.56	1.2235e-06	1.7265e-06	276.81	78.721	61.608	17.698	2.4075e-06	25.135	6.5503e-05	2.7017e-05	8.2353e-06	1028.3	4.2492e-07	3.229e-07	1098.7	222.51	4.3648e-07	2.716e-07	276.49	79.54	61.988	17.828	3.8766e-07	25.35	121.806	70.776	66.058	-2.031	158.572	139.103	-1.728	5.039	161.548	138.462	4.743	11.251	11.596	18.511	153.965	18.226	-8191	255	
1433.329	1	1	0	0	0.20495	0.16759	0.07442	0.23117	0.25736	0.095342	0.047479	0.20653	0.26975	0.21114	0.20641	0.038178	0.044134	0.16208	0.11581	0.09376	-2.9208	-3.3792	-3.4458	-3.1063	-3.4104	-3.3312	-3.1708	-3.7104	-3.2833	-3.55	-3.4375	-3.25	-3.725	-3.3458	-3.1354	-3.4833	271.843	-1.428	200.944	329.117	188.891	283.303	35.091	333.964	166.693	34.389	315.455	340.308	60.814	328.314	237.400	274.959	0.00015469	0.00024997	8.457e-05	1042.6	1.5714e-06	2.325e-06	1115.9	223.61	1.2286e-06	1.9436e-06	280.76	79.292	61.661	17.785	3.2081e-06	25.047	6.4499e-05	2.9979e-05	8.7712e-06	1031.6	4.3176e-07	3.1907e-07	1104.5	223.56	4.2718e-07	3.1936e-07	278.23	79.701	62.179	17.892	3.8017e-07	25.437	121.896	64.998	57.356	-1.945	148.766	137.174	-1.752	5.069	143.417	148.150	4.959	11.183	11.519	18.486	152.551	18.149	-8191	255	
1433.425	1	1	0	0	0.10512	0.18297	0.024288	0.37419	0.27039	0.098767	0.039333	0.068478	0.11363	0.19231	0.2285	0.13631	0.12859	0.044156	0.25956	0.32729	-2.7479	-3.3375	-3.4437	-3.275	-3.2854	-3.3021	-3.3979	-3.4271	-3.4188	-3.2583	-3.3854	-3.3354	-3.6771	-3.5375	-3.1979	-3.4188	234.255	298.860	217.287	345.473	137.083	93.019	239.935	166.483	129.862	195.734	331.189	0.469	93.566	157.579	38.721	-6.835	0.00016102	0.00021017	7.4507e-05	1046.2	2.7731e-06	3.0909e-06	1110.5	224.9	1.8137e-06	2.7262e-06	278.88	79.27	61.625	17.565	2.8273e-06	25.064	6.2341e-05	3.0188e-05	8.3023e-06	1034.3	4.6239e-07	2.8704e-07	1105.3	224.36	4.517e-07	2.9021e-07	278.02	79.627	62.222	17.839	3.914e-07	25.403	116.414	63.862	57.144	-2.040	159.989	145.186	-1.673	5.092	169.211	127.238	4.592	11.340	11.632	18.697	126.975	18.151	-8191	255	
1433.546	1	1	0	0	0.033342	0.15117	0.17136	0.15128	0.2293	0.12423	0.13758	0.22557	0.11353	0.54221	0.20949	0.24308	0.11585	0.21308	0.19557	0.2474	-2.7625	-3.3063	-3.5833	-3.4729	-3.4313	-3.5333	-3.3187	-3.425	-3.2396	-3.2333	-3.3375	-3.4292	-3.3875	-3.3792	-3.1562	-3.4562	129.975	265.917	319.809	297.857	141.262	53.998	322.885	-3.530	271.992	75.415	204.327	166.878	264.121	68.076	211.125	11.477	0.00014727	0.00022415	8.3127e-05	1049.7	1.801e-06	2.4499e-06	1115.8	224.86	2.1447e-06	2.0264e-06	280.05	79.316	62.041	17.766	2.6862e-06	24.937	6.2535e-05	3.1376e-05	8.188e-06	1036.1	4.9079e-07	3.0681e-07	1107.2	224.47	4.7682e-07	3.1249e-07	278.68	79.89	62.316	17.913	3.5293e-07	25.426	121.141	81.612	80.439	-1.965	152.080	126.880	-1.890	5.034	153.909	170.136	4.910	11.265	11.921	18.425	132.461	18.327	-8191	255	
1433.642	1	1	0	0	0.068751	0.12452	0.091227	0.11383	0.19844	0.10712	0.30938	0.14704	0.12613	0.15344	0.029348	0.095096	0.076864	0.28441	0.14452	0.13419	-2.8458	-3.3021	-3.3917	-3.2667	-3.3438	-3.5396	-3.25	-3.6312	-3.2438	-3.2042	-3.4396	-3.1521	-3.2729	-3.7188	-3.1854	-3.4208	66.902	22.573	118.540	30.113	205.607	120.294	247.918	280.887	106.205	211.642	41.735	236.523	325.905	59.425	147.247	244.594	0.00015699	0.00026883	7.3102e-05	1052.7	2.8173e-06	3.0322e-06	1123.5	224.52	1.6416e-06	2.3956e-06	280.03	78.879	62.138	17.713	2.9053e-06	24.921	6.2763e-05	2.9238e-05	7.6639e-06	1038.3	4.3057e-07	2.7647e-07	1110.5	224.51	4.0516e-07	2.9616e-07	278.46	79.798	62.41	17.901	3.3228e-07	25.332	119.751	82.758	79.734	-1.963	157.520	127.811	-1.846	4.893	140.259	158.819	4.868	11.292	11.867	18.535	164.563	18.273	-8191	255	
1433.738	1	1	0	0	0.19879	0.050922	0.13076	0.196	0.29072	0.22237	0.15467	0.12599	0.13932	0.25904	0.070919	0.1123	0.14343	0.054517	0.20253	0.16235	-2.8917	-3.2604	-3.5604	-3.2833	-3.4104	-3.5833	-3.5604	-3.4	-3.3354	-3.2708	-3.5896	-3.3083	-3.4917	-3.6458	-3.2146	-3.5208	271.837	252.014	128.249	275.219	61.664	99.423	275.653	61.368	145.417	84.006	342.435	82.765	149.930	257.895	268.464	338.359	0.00015746	0.00030559	7.407e-05	1041.3	2.039e-06	3.1561e-06	1107.9	222.68	2.0975e-06	2.9247e-06	276.54	78.778	61.703	17.62	2.5863e-06	25.123	5.9784e-05	2.7408e-05	6.6749e-06	1027.8	3.9786e-07	2.3539e-07	1097.2	222.09	3.6659e-07	2.5374e-07	276.31	79.442	62.072	17.822	2.995e-07	25.406	123.804	83.923	67.546	-2.110	150.643	139.699	-1.761	5.061	138.825	139.892	5.028	11.271	11.940	18.907	144.023	18.087	-8191	255	
1433.834	1	1	0	0	0.069237	0.053362	0.14031	0.24877	0.061343	0.071323	0.20045	0.11041	0.32871	0.079849	0.31573	0.11607	0.27353	0.2961	0.18297	0.13662	-2.8792	-3.0167	-3.6354	-3.4062	-3.3417	-3.3458	-3.3292	-3.3438	-3.6771	-3.1125	-3.3021	-3.3167	-3.475	-3.3229	-3.1312	-3.4104	171.669	107.120	40.201	318.170	341.624	189.871	265.227	216.432	27.364	298.798	226.738	-7.462	281.471	-0.231	304.301	309.040	0.00014415	0.00033688	5.9425e-05	1036.3	2.3286e-06	2.8232e-06	1110.6	222.95	1.8352e-06	2.3346e-06	276.91	79.128	61.88	17.71	2.2643e-06	25.294	5.7261e-05	2.3329e-05	5.5795e-06	1023.2	3.9192e-07	2.3064e-07	1097	222.18	3.561e-07	2.3833e-07	276.42	79.838	62.278	17.99	2.7824e-07	25.57	123.034	69.793	72.082	-2.124	143.955	141.719	-1.889	5.286	151.428	127.259	4.883	11.545	11.692	18.505	156.546	18.185	-8191	255	
1433.929	1	1	0	0	0.079466	0.11755	0.15029	0.32931	0.16874	0.16845	0.34286	0.11775	0.18384	0.21676	0.085792	0.18691	0.11902	0.17074	0.22434	0.21731	-2.9854	-3.1354	-3.3896	-3.5417	-3.2375	-3.4688	-3.4479	-3.4833	-3.5292	-3.1292	-3.5312	-3.5479	-3.2771	-3.4229	-3.1917	-3.5271	319.353	107.341	141.956	340.856	-1.181	20.403	256.519	274.456	307.013	311.897	272.251	198.079	297.429	239.743	111.282	204.357	0.00015959	0.00021737	8.0775e-05	1036.1	2.0978e-06	2.4064e-06	1109.5	222.26	2.2321e-06	2.2357e-06	276.78	79.245	61.83	17.878	2.6568e-06	25.432	5.5994e-05	2.6403e-05	6.4818e-06	1022.7	4.0321e-07	2.2436e-07	1096.9	222.08	3.3852e-07	2.4169e-07	276.16	79.871	62.244	18.068	2.9276e-07	25.609	116.867	61.841	77.016	-1.965	152.632	145.347	-1.719	4.541	150.135	145.621	4.552	11.365	11.761	18.839	144.120	18.030	-8191	255	
1434.025	1	1	0	0	0.088651	0.091479	0.21321	0.36607	0.13839	0.13016	0.12641	0.20072	0.10415	0.11137	0.14465	0.33285	0.077862	0.1145	0.21007	0.09534	-3.1542	-3.2146	-3.4479	-3.5125	-3.2625	-3.5542	-3.4083	-3.2333	-3.4229	-3.2208	-3.3333	-3.3896	-3.3937	-3.6521	-3.2271	-3.3	158.449	168.025	7.801	344.278	43.925	341.823	290.773	134.020	215.511	52.283	286.899	313.448	41.919	289.521	268.031	10.786	0.00014407	0.00033231	7.606e-05	1029.6	3.0561e-06	2.4178e-06	1101.6	223.14	1.7005e-06	2.0937e-06	279.36	79.127	62.156	17.957	2.4619e-06	25.713	5.5903e-05	2.4754e-05	5.4613e-06	1018.8	3.8924e-07	1.6306e-07	1089.2	221.81	3.4428e-07	2.1026e-07	276.45	79.926	62.233	18.126	2.4666e-07	25.851	121.671	61.351	54.870	-1.809	137.474	139.534	-1.906	5.228	132.170	135.077	4.924	11.554	11.709	18.538	142.006	17.966	-8191	255	
1434.145	1	1	0	0	0.093545	0.14127	0.21497	0.15514	0.13895	0.20623	0.22709	0.13479	0.12466	0.025986	0.085651	0.13894	0.072673	0.11219	0.1228	0.19346	-3.0125	-3.025	-3.4146	-3.5375	-3.0333	-3.5271	-3.5521	-3.1813	-3.4	-3.0667	-3.5563	-3.4562	-3.1042	-3.3875	-3.2958	-3.1333	170.740	71.620	139.382	306.458	114.455	129.516	32.966	179.637	143.808	219.094	301.980	231.923	148.562	97.966	218.956	197.411	0.00015991	0.00023452	8.4375e-05	1027.7	2.6554e-06	3.7664e-06	1098.3	221.67	1.2012e-06	1.8183e-06	278.27	79.475	62.192	18.166	1.5193e-06	25.643	5.3425e-05	2.0214e-05	5.5086e-06	1015.7	3.8671e-07	2.0766e-07	1087.8	221.31	2.9434e-07	1.6799e-07	276.24	80.022	62.311	18.241	2.5504e-07	25.957	124.255	66.092	74.822	-2.073	141.217	129.634	-1.919	5.079	134.844	133.601	4.986	11.382	11.679	18.736	122.807	17.973	-8191	255	
1434.242	1	1	0	0	0.19181	0.11373	0.15254	0.253	0.24748	0.15974	0.22489	0.26926	0.066817	0.088811	0.21283	0.077794	0.19558	0.042372	0.072142	0.33952	-3.1146	-3.4021	-3.2229	-3.6312	-3.1542	-3.5479	-3.4313	-3.1229	-3.4417	-3.2375	-3.3312	-3.5083	-3.1583	-3.4646	-3.4083	-3.1896	199.077	141.341	152.972	317.286	193.358	81.959	191.606	303.825	130.484	309.601	320.327	276.240	226.780	95.730	101.616	267.651	0.00013583	0.00024743	6.5396e-05	1029.5	2.602e-06	2.3526e-06	1097.6	222.02	1.6547e-06	2.3698e-06	279.78	79.595	62.244	18.076	3.4518e-06	25.623	5.0834e-05	2.0368e-05	5.1933e-06	1017.6	3.3363e-07	1.6858e-07	1086.7	221.61	3.2965e-07	1.7959e-07	277.44	80.35	62.539	18.293	2.3409e-07	26.014	120.596	77.521	67.434	-1.864	148.176	164.741	-1.529	5.299	144.139	112.912	4.933	11.480	11.492	18.758	161.707	17.952	-8191	255	
1434.336	1	1	0	0	0.105	0.18806	0.063754	0.23845	0.036324	0.20423	0.073737	0.041886	0.13468	0.1427	0.13323	0.31539	0.071983	0.12907	0.060591	0.073475	-3.0125	-3.2458	-3.3937	-3.6667	-3.0646	-3.2646	-3.6021	-3.2583	-3.4625	-3.4167	-3.3021	-3.5667	-3.1688	-3.3604	-3.3979	-3.3	219.157	70.003	211.245	4.213	260.344	241.282	299.500	259.449	323.167	231.888	80.594	345.698	31.157	295.956	29.730	-3.599	0.00017062	0.00023579	7.0355e-05	1031.1	2.5309e-06	2.9411e-06	1099.6	222.95	2.1183e-06	2.2707e-06	279.49	79.877	61.909	18.204	2.3743e-06	25.84	5.814e-05	1.7476e-05	5.4771e-06	1016.7	3.3527e-07	1.98e-07	1090.1	222.2	3.1872e-07	1.7776e-07	277.86	80.445	62.469	18.322	2.4472e-07	25.994	121.647	68.564	62.489	-2.067	166.586	138.788	-1.888	5.312	148.295	132.305	4.909	11.158	11.958	18.625	130.597	18.163	-8191	255	
1434.432	1	1	0	0	0.27519	0.16706	0.2571	0.1915	0.17011	0.21303	0.26691	0.18087	0.086987	0.022801	0.26153	0.16733	0.13292	0.026965	0.23287	0.13868	-3.05	-3.3312	-3.2021	-3.6042	-3.0812	-3.3521	-3.5625	-3.525	-3.3104	-3.3792	-3.2333	-3.6292	-3.1521	-3.125	-3.4688	-3.4229	62.363	170.371	309.029	148.336	81.012	13.050	248.269	4.329	209.463	0.117	308.724	105.533	328.046	315.405	193.241	61.702	0.00015845	0.00027367	8.3267e-05	1030.6	2.7987e-06	2.2347e-06	1101.4	222.19	2.7122e-06	2.8922e-06	280.22	80.159	62.485	18.145	2.1989e-06	25.818	5.4498e-05	1.9865e-05	6.3479e-06	1016.5	3.8285e-07	1.7854e-07	1090.4	222.18	3.4251e-07	2.0355e-07	278.59	80.585	62.621	18.312	2.4861e-07	26.061	122.878	84.476	98.239	-2.230	141.039	172.681	-1.648	5.318	172.313	141.318	4.930	11.594	12.320	18.404	139.756	18.561	-8191	255	
1434.528	1	1	0	0	0.11418	0.13921	0.089789	0.24833	0.11485	0.12128	0.16749	0.12489	0.1479	0.14416	0.17743	0.072638	0.25257	0.30625	0.091076	0.029243	-3.0542	-3.1813	-3.0104	-3.6021	-3.5125	-3.3771	-3.4979	-3.2	-3.5708	-3.425	-3.2438	-3.2938	-3.3729	-3.2792	-3.4	-3.1979	59.327	204.896	34.380	333.518	305.137	120.782	260.312	14.032	45.292	5.022	326.505	7.063	297.971	259.945	46.616	272.254	0.00014327	0.00021717	9.8199e-05	1026.4	1.8859e-06	2.6111e-06	1102	224.18	1.3126e-06	2.6712e-06	279.61	80.047	62.48	18.281	2.649e-06	25.706	5.5663e-05	2.0954e-05	6.0799e-06	1015.5	3.5787e-07	2.5792e-07	1089.5	223.14	3.6497e-07	2.3376e-07	278.72	80.629	62.495	18.395	2.7899e-07	25.998	118.908	91.116	80.650	-1.764	143.264	135.855	-1.854	4.929	154.408	131.316	4.932	11.545	11.764	18.640	155.504	18.078	-8191	255	
1434.624	1	1	0	0	0.35507	0.23734	0.18181	0.25926	0.23163	0.10073	0.38542	0.10459	0.24238	0.19657	0.22402	0.02231	0.14695	0.31778	0.04148	0.142	-2.7354	-3.3208	-3.2938	-3.5062	-3.2062	-3.1583	-3.6479	-3.2062	-3.5521	-3.5125	-3.2229	-3.3812	-3.225	-3.3667	-3.5938	-3.2458	287.339	109.193	62.921	240.260	248.941	147.281	261.831	281.967	33.464	64.512	165.043	275.752	258.461	118.601	312.058	60.389	0.00014985	0.00029734	7.9444e-05	1029.4	1.8683e-06	1.7217e-06	1102.2	223.15	1.6522e-06	2.2224e-06	281.5	79.495	62.479	18.077	2.7833e-06	25.775	6.0777e-05	2.0507e-05	6.8207e-06	1018	3.5876e-07	2.262e-07	1091.1	222.59	3.8669e-07	2.1285e-07	279.15	80.617	62.638	18.276	2.8962e-07	26.063	119.324	67.316	64.543	-1.874	141.856	156.229	-1.825	5.347	144.685	148.376	4.944	11.424	11.882	18.442	149.819	17.901	-8191	255	
1434.721	1	1	0	0	0.2452	0.024077	0.25152	0.12304	0.21906	0.12621	0.21133	0.27525	0.090668	0.059324	0.14293	0.27696	0.16476	0.16812	0.12147	0.16398	-3.1063	-3.5646	-3.1292	-3.5333	-3.0833	-3.2583	-3.7417	-3.4458	-3.5062	-3.4188	-3.2521	-3.5917	-3.5771	-3.2854	-3.5917	-3.0604	104.520	163.524	201.656	308.693	253.117	270.689	294.769	317.564	271.971	101.024	22.232	17.952	43.391	268.152	285.091	327.362	0.00015359	0.00026838	6.2988e-05	1029.5	1.9656e-06	2.1602e-06	1101.8	223.99	2.3456e-06	1.7607e-06	280.52	79.749	62.417	18.099	3.3365e-06	25.629	5.7398e-05	2.4768e-05	6.1233e-06	1019.4	4.1779e-07	2.5915e-07	1091.8	222.77	3.5876e-07	2.0461e-07	279.04	80.539	62.728	18.267	3.2449e-07	25.917	118.413	82.257	74.756	-1.869	132.671	154.456	-1.783	5.149	171.835	147.741	4.990	11.125	11.594	18.818	146.394	18.271	-8191	255	
1434.841	1	1	0	0	0.23424	0.13459	0.11405	0.18398	0.14737	0.08063	0.14953	0.10818	0.11606	0.27823	0.25208	0.13206	0.16681	0.30334	0.058469	0.29288	-2.6625	-3.475	-3.2521	-3.5062	-3.2792	-3.3	-3.7625	-3.4188	-3.325	-3.5167	-3.3708	-3.4125	-3.2687	-3.1896	-3.3667	-3.4104	238.275	265.842	154.934	311.103	222.833	258.682	309.376	209.795	101.377	91.900	336.463	173.708	302.117	273.169	3.410	316.862	0.00014988	0.00022917	7.3773e-05	1035.7	2.4102e-06	2.3444e-06	1102.4	223.04	2.5505e-06	2.5854e-06	281.7	79.522	62.365	18.002	2.2311e-06	25.478	6.0435e-05	2.2812e-05	6.1745e-06	1021.4	3.5162e-07	2.4827e-07	1092.4	222.46	4.09e-07	2.2765e-07	279.11	80.206	62.551	18.195	2.8393e-07	25.887	119.257	85.066	83.341	-1.894	144.563	131.552	-1.696	5.340	159.412	133.004	4.740	11.212	11.850	18.807	171.623	17.926	-8191	255	
1434.937	1	1	0	0	0.080035	0.10671	0.14929	0.16909	0.04803	0.073055	0.09299	0.37124	0.11311	0.17334	0.14914	0.078028	0.1462	0.048295	0.25629	0.22924	-2.9313	-3.6667	-3.3417	-3.4271	-3.575	-3.2562	-3.6875	-3.2521	-3.4	-3.7167	-3.4521	-3.5167	-3.4417	-3.1354	-3.6083	-3.3854	223.172	-8.649	283.024	301.003	-0.140	206.585	243.887	333.344	17.065	194.477	315.694	95.867	273.241	87.597	106.250	89.330	0.0001614	0.00026369	8.6393e-05	1039.8	2.1524e-06	2.7348e-06	1103.3	222.4	1.5907e-06	2.3397e-06	282.2	79.437	62.313	17.874	1.9079e-06	25.491	6.1142e-05	2.4042e-05	6.6749e-06	1021.3	3.4776e-07	2.8214e-07	1092	221.5	3.7502e-07	2.3025e-07	278.61	80.195	62.25	18.095	3.0219e-07	25.739	118.271	86.958	60.562	-1.877	145.166	142.399	-1.648	5.230	166.101	137.631	4.897	11.381	11.615	18.824	151.320	18.400	-8191	255	
1435.034	1	1	0	0	0.27287	0.23301	0.28604	0.13354	0.036724	0.18136	0.15879	0.20995	0.27812	0.16334	0.2482	0.12757	0.28393	0.17803	0.17958	0.13139	-2.7521	-3.4854	-3.05	-3.4208	-3.3708	-3.1271	-3.5104	-3.6479	-3.0458	-3.6604	-3.4479	-3.2708	-3.4437	-3.2229	-3.3396	-3.5	300.964	257.777	62.103	-2.482	182.221	-4.028	264.908	24.453	222.691	164.464	322.045	106.032	274.526	-12.240	-6.525	193.923	0.00014563	0.0002119	7.3078e-05	1036	2.178e-06	2.8175e-06	1103	222.27	2.1897e-06	2.9589e-06	278.35	79.208	61.916	17.834	3.0378e-06	25.406	6.0286e-05	2.1206e-05	7.128e-06	1020.1	3.6292e-07	2.9148e-07	1091.4	221.69	3.9097e-07	2.4779e-07	276.31	79.797	62.066	17.984	3.2195e-07	25.588	116.745	75.372	67.822	-1.761	168.602	151.998	-1.878	5.166	128.849	117.324	4.883	11.448	11.852	18.743	147.230	18.423	-8191	255	
1435.105	1	1	0	0	0.26944	0.20449	0.11343	0.039372	0.11249	0.21022	0.098398	0.28919	0.24682	0.13682	0.039165	0.18448	0.24631	0.14918	0.14229	0.30632	-2.9229	-3.4125	-3.2729	-3.4833	-3.4771	-3.1396	-3.7292	-3.4646	-3.0146	-3.6	-3.1771	-3.4333	-3.5917	-3.0438	-3.2729	-3.3458	240.901	121.672	225.515	95.783	269.425	343.179	250.693	213.735	55.682	338.313	87.064	203.135	-8.340	23.317	264.976	265.256	0.00013529	0.00020189	5.2546e-05	1027.8	2.6002e-06	2.1912e-06	1097.1	221.5	1.4419e-06	2.0128e-06	276.04	78.645	61.316	17.617	2.6039e-06	25.067	5.4624e-05	2.4237e-05	6.5409e-06	1015.2	4.0084e-07	2.521e-07	1087.4	220.9	4.1225e-07	2.2308e-07	274.91	79.143	61.552	17.841	3.3542e-07	25.42	123.542	71.855	59.920	-1.844	152.557	157.792	-1.914	5.353	151.299	124.777	4.895	11.410	11.632	18.957	156.637	18.414	-8191	255	
1435.224	1	1	0	0	0.13104	0.0087195	0.15408	0.28192	0.098704	0.28519	0.055877	0.18169	0.23082	0.035764	0.084662	0.042795	0.11349	0.20729	0.13913	0.16574	-2.6917	-3.2792	-3.1688	-3.2687	-3.4979	-3.2062	-3.5646	-3.5563	-3.1688	-3.6292	-3.3833	-3.2833	-3.5292	-3.1104	-3.3042	-3.3812	52.574	51.664	89.324	-8.581	345.249	140.363	3.758	320.125	151.531	15.530	47.897	1.652	80.806	159.670	336.335	213.112	0.00015448	0.00028421	7.698e-05	1031.9	2.1014e-06	3.0886e-06	1099	222.34	1.416e-06	1.8428e-06	278.71	79.13	61.745	17.803	3.1937e-06	25.271	6.1565e-05	2.6361e-05	7.0611e-06	1016	3.9325e-07	2.9899e-07	1087.6	221.46	4.0738e-07	2.1133e-07	276.48	79.592	61.867	17.91	3.4979e-07	25.473	123.528	82.120	74.748	-1.968	150.857	147.610	-1.635	5.131	130.742	143.942	5.090	11.061	11.937	18.987	152.658	18.415	-8191	255	
1435.320	1	1	0	0	0.11856	0.16853	0.33234	0.11171	0.080089	0.11095	0.16826	0.22167	0.17516	0.2194	0.026217	0.23956	0.061971	0.15876	0.3527	0.049872	-2.7833	-3.4708	-3.3688	-3.1813	-3.4854	-3.1437	-3.4521	-3.4896	-3.2604	-3.2354	-3.3458	-3.3229	-3.5542	-3.1312	-3.4354	-3.5083	290.959	288.670	248.048	257.625	324.820	211.634	260.533	175.689	119.247	295.276	289.584	273.936	342.613	15.858	273.478	229.400	0.00014756	0.00030561	9.1372e-05	1035.4	3.0093e-06	1.6087e-06	1104.2	223.39	2.119e-06	2.7382e-06	279.14	79.014	61.583	17.671	2.7907e-06	25.3	6.1713e-05	2.6961e-05	6.9468e-06	1020.2	3.9117e-07	2.4597e-07	1092.6	222	4.1713e-07	2.5756e-07	276.44	79.571	61.947	17.913	3.3901e-07	25.552	128.631	68.424	88.670	-1.932	145.862	159.173	-1.841	5.390	147.264	124.710	5.339	11.413	11.869	18.361	154.560	17.872	-8191	255	
1435.416	1	1	0	0	0.081627	0.047497	0.064671	0.4308	0.077082	0.10213	0.33046	0.15905	0.17327	0.095925	0.29747	0.22883	0.15917	0.16214	0.2136	0.12104	-2.7292	-3.3104	-3.2833	-3.0979	-3.5271	-3.3875	-3.4437	-3.5708	-3.1583	-3.5771	-3.5917	-3.0104	-3.3875	-3.4729	-3.1792	-3.4417	244.155	228.405	42.529	315.156	47.609	243.026	246.956	287.403	234.440	40.596	332.879	10.710	250.414	292.548	-12.807	260.402	0.00014628	0.00022517	7.6084e-05	1038.9	2.9651e-06	2.9109e-06	1106	222.43	1.5748e-06	2.1164e-06	277.6	78.977	61.439	17.908	2.5915e-06	25.194	6.1165e-05	2.2729e-05	7.4118e-06	1024.3	4.2671e-07	2.9317e-07	1094.1	222.12	4.0472e-07	2.7892e-07	276.75	79.712	62.023	17.955	3.4365e-07	25.508	125.710	74.179	78.936	-1.986	151.901	139.632	-1.789	5.134	163.016	106.329	4.808	11.087	11.711	18.916	152.483	18.431	-8191	255	
1435.513	1	1	0	0	0.18371	0.17133	0.18654	0.231	0.1396	0.18287	0.069294	0.24609	0.14035	0.069302	0.14195	0.093075	0.1108	0.015935	0.14312	0.093821	-2.875	-3.2875	-3.3187	-3.3354	-3.4979	-3.3646	-3.3812	-3.4917	-3.1021	-3.3729	-3.5667	-3.2271	-3.5	-3.5708	-3.0438	-3.45	326.567	232.396	208.532	300.733	81.425	161.799	193.081	251.192	215.179	155.700	304.698	330.132	93.099	122.834	175.866	132.688	0.00015112	0.00024138	8.3111e-05	1040.5	1.9585e-06	2.1114e-06	1105.5	223.04	2.4298e-06	2.0945e-06	278.64	78.703	61.529	17.898	2.4954e-06	25.107	5.8597e-05	2.9238e-05	7.2226e-06	1025	4.1451e-07	2.7953e-07	1094.3	222.22	4.356e-07	2.6519e-07	276.19	79.656	61.723	17.923	3.2943e-07	25.402	116.270	78.712	80.109	-2.020	151.225	124.972	-1.749	5.056	144.016	122.080	4.640	11.302	11.676	18.809	147.143	18.252	-8191	255	
1435.633	1	1	0	0	0.21561	0.0086995	0.2574	0.09342	0.12944	0.2229	0.050823	0.11967	0.34267	0.19968	0.17585	0.10891	0.13858	0.22489	0.059091	0.10656	-3.05	-3.3875	-3.4354	-3.3042	-3.4313	-3.4979	-3.3688	-3.6813	-3.2438	-3.1292	-3.4021	-3.3042	-3.5438	-3.3625	-3.2833	-3.5958	193.797	76.188	180.576	225.131	180.117	295.632	146.453	253.377	42.781	315.455	155.053	33.541	293.031	305.480	8.072	193.855	0.00014316	0.00022399	7.987e-05	1037.1	2.1148e-06	1.9292e-06	1109.9	223.84	1.8413e-06	2.2402e-06	278.74	78.123	61.877	17.639	1.7523e-06	25.104	6.0389e-05	2.8191e-05	7.0886e-06	1022.6	4.1303e-07	2.8321e-07	1095.4	222.81	4.2688e-07	3.2195e-07	276.24	79.182	62.018	17.843	3.4275e-07	25.361	120.929	68.928	66.352	-2.111	141.674	145.427	-1.959	5.070	137.177	131.455	4.850	11.397	12.060	19.062	133.589	18.270	-8191	255	
1435.729	1	1	0	0	0.021755	0.19335	0.079815	0.15062	0.12336	0.043203	0.43551	0.045179	0.11287	0.075863	0.12341	0.089008	0.2093	0.06306	0.27836	0.13881	-2.8812	-3.2417	-3.4458	-3.3229	-3.2958	-3.4042	-3.2125	-3.6396	-3.3854	-3.2	-3.6833	-3.4042	-3.3833	-3.4771	-3.1104	-3.6167	266.789	7.254	11.621	260.562	78.963	74.178	267.031	183.040	211.624	21.773	322.884	259.440	330.356	306.659	168.122	118.692	0.00014001	0.00027223	5.8247e-05	1047.4	1.642e-06	2.914e-06	1113.5	223.68	1.6454e-06	2.3764e-06	278.68	79.712	62.05	17.91	1.953e-06	25.378	6.0332e-05	2.8051e-05	7.7191e-06	1027.9	4.0842e-07	3.088e-07	1099.8	223.1	3.9038e-07	3.4117e-07	277.37	79.79	62.324	17.965	3.7553e-07	25.493	118.581	76.754	74.733	-1.921	139.410	149.097	-1.795	5.187	134.002	137.601	4.881	11.229	11.770	18.821	147.763	18.349	-8191	255	
1435.825	1	1	0	0	0.03166	0.059195	0.02503	0.088258	0.029684	0.072027	0.21347	0.18229	0.12425	0.17878	0.15751	0.25862	0.079279	0.25312	0.28773	0.36921	-2.9021	-3.3438	-3.4604	-3.475	-3.4396	-3.4688	-3.2812	-3.3958	-3.2458	-3.225	-3.6979	-3.2792	-3.2333	-3.2479	-3.0833	-3.5979	48.777	35.045	157.133	49.233	108.220	223.982	276.760	274.352	108.610	258.489	345.249	19.289	45.131	-8.165	235.788	11.667	0.00013688	0.00019427	6.3488e-05	1050	2.8428e-06	2.5979e-06	1115.7	224.28	2.2884e-06	1.9541e-06	282.35	79.941	62.338	18.039	3.0008e-06	25.214	5.9955e-05	2.8568e-05	7.3684e-06	1033.9	4.4663e-07	2.5654e-07	1105.2	223.87	4.6264e-07	3.1752e-07	278.62	80.221	62.717	18.132	3.9155e-07	25.606	126.854	90.263	63.719	-1.988	144.128	144.322	-1.824	5.014	157.813	141.363	4.675	11.399	11.281	18.885	146.080	18.693	-8191	255	
1435.922	1	1	0	0	0.063639	0.07706	0.22652	0.031423	0.11234	0.051256	0.14154	0.21634	0.036917	0.15299	0.21033	0.11869	0.15437	0.14683	0.20938	0.081429	-2.9333	-3.0708	-3.4688	-3.3563	-3.4313	-3.4646	-3.2708	-3.4542	-3.4583	-3.2313	-3.4771	-3.2396	-3.3729	-3.375	-3.2792	-3.4583	205.795	15.450	117.795	238.913	7.983	194.393	222.365	327.631	203.449	56.006	211.570	224.451	109.758	-11.226	209.718	268.815	0.00015665	0.00028082	6.9453e-05	1060.9	2.5202e-06	3.4439e-06	1128.1	225.57	2.5326e-06	2.7003e-06	283.2	79.984	62.473	17.921	2.224e-06	25.374	6.1953e-05	3.0496e-05	8.1013e-06	1043.1	4.8588e-07	2.9608e-07	1114.3	225.14	4.3235e-07	3.1157e-07	280.31	80.629	62.84	18.158	3.6595e-07	25.734	116.737	70.326	59.720	-2.026	144.540	141.908	-1.782	5.136	141.878	146.027	4.795	11.405	11.580	18.806	156.216	18.429	-8191	255	
1436.018	1	1	0	0	0.054782	0.12804	0.25037	0.22753	0.28373	0.050708	0.12315	0.23437	0.20397	0.29208	0.086545	0.075936	0.16041	0.16827	0.21726	0.15582	-3.0146	-2.8833	-3.4562	-3.4458	-3.2604	-3.4625	-3.3771	-3.4	-3.4958	-3.2292	-3.35	-3.5146	-3.2833	-3.6625	-3.0354	-3.3937	86.934	258.751	47.095	297.523	226.216	71.838	312.805	-5.516	88.897	220.928	329.353	301.652	196.990	232.075	72.385	107.320	0.00014891	0.0002513	0.00010442	1057.4	2.5262e-06	1.6593e-06	1119.8	225.8	1.8654e-06	3.0237e-06	282.57	79.947	62.34	17.929	2.722e-06	25.482	6.2044e-05	3.4379e-05	8.582e-06	1042.8	4.6179e-07	3.1033e-07	1111.7	225.25	4.2363e-07	3.1371e-07	280.04	80.422	62.746	18.119	3.8361e-07	25.734	115.334	68.359	67.487	-2.170	143.434	134.660	-1.813	4.967	149.930	139.838	4.625	11.160	11.900	18.927	143.291	18.114	-8191	255	
1436.114	1	1	0	0	0.025317	0.33857	0.10184	0.20442	0.26067	0.16877	0.014928	0.12213	0.08322	0.037612	0.11855	0.082651	0.22269	0.092669	0.1368	0.039087	-3.2229	-3.2667	-3.4479	-3.4375	-3.0083	-3.3187	-3.5	-3.3625	-3.5604	-3.2958	-3.4083	-3.4562	-3.3396	-3.4854	-3.1437	-3.3146	270.745	109.310	98.312	253.295	166.491	253.963	266.395	290.302	11.091	14.791	12.091	135.080	42.840	15.096	109.877	134.736	0.00014741	0.0002675	5.9363e-05	1055.7	3.07e-06	2.6388e-06	1124.2	225.75	1.8883e-06	1.9375e-06	280.55	79.914	62.363	17.895	2.8867e-06	25.385	6.1051e-05	3.5664e-05	8.318e-06	1041.9	5.1041e-07	2.7984e-07	1112.5	225.08	4.3294e-07	3.1508e-07	279.3	80.406	62.699	18.071	3.926e-07	25.61	120.240	73.027	74.253	-2.001	149.650	176.966	-1.957	5.061	150.654	125.626	4.650	11.235	11.494	18.367	141.487	18.056	-8191	255	
1436.233	1	1	0	0	0.20764	0.11779	0.092519	0.2444	0.099217	0.13558	0.025043	0.093275	0.20912	0.23412	0.14234	0.28013	0.080748	0.045788	0.14473	0.070896	-2.9688	-3.3625	-3.4062	-3.4042	-3.2687	-3.4292	-3.3667	-3.4813	-3.525	-3.0542	-3.4917	-3.5875	-3.2833	-3.4229	-3.4854	-3.4333	253.802	295.738	248.820	321.798	147.427	297.364	-6.586	22.488	193.084	29.971	343.781	189.412	24.766	99.360	341.838	95.044	0.00014619	0.00034706	6.4287e-05	1054.5	2.4623e-06	3.8961e-06	1118.9	225.8	2.0323e-06	2.011e-06	279.06	79.61	62.433	17.797	2.9275e-06	25.258	6.6177e-05	3.2088e-05	8.1131e-06	1040.2	5.0313e-07	3.0191e-07	1109.8	224.93	4.2984e-07	3.2576e-07	278.85	79.994	62.606	17.979	3.7209e-07	25.499	122.542	81.983	75.944	-2.091	156.385	130.966	-1.912	5.204	151.809	130.305	4.983	11.143	11.873	18.948	142.676	17.702	-8191	255	
1436.329	1	1	0	0	0.082854	0.11581	0.094597	0.35008	0.10849	0.20883	0.034736	0.21151	0.10425	0.2059	0.21164	0.28139	0.082303	0.27828	0.080763	0.061788	-3.15	-3.3083	-3.5021	-3.4708	-3.1542	-3.6083	-3.3604	-3.3083	-3.7188	-3.3479	-3.3792	-3.5271	-3.4813	-3.4813	-3.4125	-3.2521	324.678	102.913	164.187	303.618	230.528	68.628	89.601	333.410	133.303	77.020	286.723	197.439	132.218	-0.768	167.331	336.434	0.00015218	0.00030692	7.2281e-05	1054.1	2.6637e-06	3.1766e-06	1116.2	225.24	1.9959e-06	2.5735e-06	279.91	79.549	62.627	17.704	2.6869e-06	25.268	6.3186e-05	2.9616e-05	8.5702e-06	1040.5	4.8023e-07	3.0252e-07	1108.7	224.82	4.7948e-07	3.2409e-07	278.91	80.01	62.671	17.93	3.905e-07	25.493	120.084	83.452	82.847	-1.924	165.549	136.245	-1.904	4.848	129.545	137.994	4.996	11.710	11.703	18.659	143.108	18.143	-8191	255	
1436.401	1	1	0	0	0.045571	0.18283	0.078384	0.24303	0.086865	0.15784	0.16973	0.15238	0.23699	0.033134	0.21905	0.026486	0.13805	0.14101	0.016767	0.25065	-3.025	-3.3292	-3.2812	-3.5083	-3.2417	-3.4042	-3.3187	-3.1	-3.5208	-3.2062	-3.2396	-3.4562	-3.2104	-3.4688	-3.2771	-3.0958	51.430	61.498	18.231	312.914	290.700	153.384	275.507	16.395	280.356	42.361	12.208	278.483	233.935	276.117	243.293	72.316	0.00015568	0.0003314	9.0564e-05	1049.7	3.1868e-06	1.7605e-06	1120.1	225.37	1.4607e-06	1.4528e-06	281.54	79.198	62.3	17.843	2.5475e-06	25.262	6.3186e-05	3.1096e-05	8.8027e-06	1038	4.664e-07	3.4957e-07	1110.8	224.45	4.1994e-07	3.0578e-07	279.3	79.866	62.51	17.975	3.8676e-07	25.554	123.124	84.579	57.900	-1.864	136.304	160.493	-1.887	4.855	128.088	122.202	4.582	11.210	11.845	18.704	119.962	18.326	-8191	255	
#DATA ENDS
