BOXY.EXE: ISS Imagent and Oximeter Data Acquisition Program Version 0.80
Ascii Record File

#ACQ INFORMATION
2  Detector Channels 
16  External MUX Channels 
1  Auxiliary Channels 
5000  Waveform (CCF) Frequency (Hz)
1  Waveforms Skipped 
30  Waveforms Averaged 
1  Cycles Averaged 
16  Acquisitions per Waveform 
10.0806  Updata Rate (Hz) 

#FILE INFORMATION
TRUE -- External MUX Channel results are PARSED.
FALSE -- AC DC and Phase are NOT grouped.
TRUE -- Companion Program Settings File CREATED.
FALSE -- AC data not excluded
FALSE -- DC data not excluded
FALSE -- Phase data not excluded
FALSE -- Auxillary Chn. data not excluded
Tab delimiters

#CALIBRATION STATE
TRUE -- Waveform Calibration Values APPLIED.


#AUX CALIBRATION VALUES
Val Type	aux-1	

Term	1.0000e+00	
Factor	0.0000e+00	


#WF CALIBRATION VALUES
A = Detector Channel
Val Type	A-AC1	A-AC2	A-AC3	A-AC4	A-AC5	A-AC6	A-AC7	A-AC8	A-AC9	A-AC10	A-AC11	A-AC12	A-AC13	A-AC14	A-AC15	A-AC16	A-DC1	A-DC2	A-DC3	A-DC4	A-DC5	A-DC6	A-DC7	A-DC8	A-DC9	A-DC10	A-DC11	A-DC12	A-DC13	A-DC14	A-DC15	A-DC16	A-Ph1	A-Ph2	A-Ph3	A-Ph4	A-Ph5	A-Ph6	A-Ph7	A-Ph8	A-Ph9	A-Ph10	A-Ph11	A-Ph12	A-Ph13	A-Ph14	A-Ph15	A-Ph16	

Term	0.00000e+00	0.00000e+00	0.00000e+00	0.00000e+00	0.00000e+00	0.00000e+00	0.00000e+00	0.00000e+00	0.00000e+00	0.00000e+00	0.00000e+00	0.00000e+00	0.00000e+00	0.00000e+00	0.00000e+00	0.00000e+00	0.00000e+00	0.00000e+00	0.00000e+00	0.00000e+00	0.00000e+00	0.00000e+00	0.00000e+00	0.00000e+00	0.00000e+00	0.00000e+00	0.00000e+00	0.00000e+00	0.00000e+00	0.00000e+00	0.00000e+00	0.00000e+00	0.00000e+00	0.00000e+00	0.00000e+00	0.00000e+00	0.00000e+00	0.00000e+00	0.00000e+00	0.00000e+00	0.00000e+00	0.00000e+00	0.00000e+00	0.00000e+00	0.00000e+00	0.00000e+00	0.00000e+00	0.00000e+00	
Factor	1.00000e+00	1.00000e+00	1.00000e+00	1.00000e+00	1.00000e+00	1.00000e+00	1.00000e+00	1.00000e+00	1.00000e+00	1.00000e+00	1.00000e+00	1.00000e+00	1.00000e+00	1.00000e+00	1.00000e+00	1.00000e+00	1.00000e+00	1.00000e+00	1.00000e+00	1.00000e+00	1.00000e+00	1.00000e+00	1.00000e+00	1.00000e+00	1.00000e+00	1.00000e+00	1.00000e+00	1.00000e+00	1.00000e+00	1.00000e+00	1.00000e+00	1.00000e+00	X	X	X	X	X	X	X	X	X	X	X	X	X	X	X	X	

B = Detector Channel
Val Type	B-AC1	B-AC2	B-AC3	B-AC4	B-AC5	B-AC6	B-AC7	B-AC8	B-AC9	B-AC10	B-AC11	B-AC12	B-AC13	B-AC14	B-AC15	B-AC16	B-DC1	B-DC2	B-DC3	B-DC4	B-DC5	B-DC6	B-DC7	B-DC8	B-DC9	B-DC10	B-DC11	B-DC12	B-DC13	B-DC14	B-DC15	B-DC16	B-Ph1	B-Ph2	B-Ph3	B-Ph4	B-Ph5	B-Ph6	B-Ph7	B-Ph8	B-Ph9	B-Ph10	B-Ph11	B-Ph12	B-Ph13	B-Ph14	B-Ph15	B-Ph16	

Term	0.00000e+00	0.00000e+00	0.00000e+00	0.00000e+00	0.00000e+00	0.00000e+00	0.00000e+00	0.00000e+00	0.00000e+00	0.00000e+00	0.00000e+00	0.00000e+00	0.00000e+00	0.00000e+00	0.00000e+00	0.00000e+00	0.00000e+00	0.00000e+00	0.00000e+00	0.00000e+00	0.00000e+00	0.00000e+00	0.00000e+00	0.00000e+00	0.00000e+00	0.00000e+00	0.00000e+00	0.00000e+00	0.00000e+00	0.00000e+00	0.00000e+00	0.00000e+00	-1.46573e+02	-1.30403e+02	-1.37663e+02	-1.82827e+02	-7.22735e+01	-6.30001e+01	-1.58910e+02	-1.62015e+02	-7.72400e+01	-6.72005e+01	-1.71070e+02	-1.70740e+02	-1.82889e+02	-1.76704e+02	-6.79015e+01	-1.49758e+02	
Factor	2.11726e-05	1.42107e-04	4.06141e-05	1.78644e-01	1.31213e-06	1.57184e-06	1.76680e-01	4.86151e-02	1.17736e-06	1.44838e-06	9.37926e-02	2.76980e-02	2.41818e-02	8.94260e-03	1.48299e-06	1.30437e-02	5.47952e-06	6.70541e-06	1.89136e-06	9.01438e-02	7.13655e-08	7.35607e-08	8.41523e-02	2.47218e-02	7.09250e-08	7.32396e-08	4.60402e-02	1.36710e-02	1.23919e-02	4.56909e-03	7.18436e-08	6.45217e-03	X	X	X	X	X	X	X	X	X	X	X	X	X	X	X	X	



#DISTANCE SETTINGS
A = Detector Channel
A-1	A-2	A-3	A-4	A-5	A-6	A-7	A-8	A-9	A-10	A-11	A-12	A-13	A-14	A-15	A-16	

2.5000e+00	3.0000e+00	2.5000e+00	3.0000e+00	2.0000e+00	3.0000e+00	1.5000e+00	3.0000e+00	3.0000e+00	3.0000e+00	3.0000e+00	3.0000e+00	3.0000e+00	3.0000e+00	1.5000e+00	3.0000e+00	

B = Detector Channel
B-1	B-2	B-3	B-4	B-5	B-6	B-7	B-8	B-9	B-10	B-11	B-12	B-13	B-14	B-15	B-16	

1.0000e+01	1.0000e+01	1.0000e+01	1.4400e+00	1.0000e+01	1.0000e+01	1.5100e+00	1.9400e+00	1.0000e+01	1.0000e+01	1.9900e+00	2.4900e+00	2.4100e+00	2.9000e+00	1.0000e+01	2.9800e+00	




#DATA BEGINS
time	group	step	mark	flag	A-AC1	A-AC2	A-AC3	A-AC4	A-AC5	A-AC6	A-AC7	A-AC8	A-AC9	A-AC10	A-AC11	A-AC12	A-AC13	A-AC14	A-AC15	A-AC16	A-DC1	A-DC2	A-DC3	A-DC4	A-DC5	A-DC6	A-DC7	A-DC8	A-DC9	A-DC10	A-DC11	A-DC12	A-DC13	A-DC14	A-DC15	A-DC16	A-Ph1	A-Ph2	A-Ph3	A-Ph4	A-Ph5	A-Ph6	A-Ph7	A-Ph8	A-Ph9	A-Ph10	A-Ph11	A-Ph12	A-Ph13	A-Ph14	A-Ph15	A-Ph16	B-AC1	B-AC2	B-AC3	B-AC4	B-AC5	B-AC6	B-AC7	B-AC8	B-AC9	B-AC10	B-AC11	B-AC12	B-AC13	B-AC14	B-AC15	B-AC16	B-DC1	B-DC2	B-DC3	B-DC4	B-DC5	B-DC6	B-DC7	B-DC8	B-DC9	B-DC10	B-DC11	B-DC12	B-DC13	B-DC14	B-DC15	B-DC16	B-Ph1	B-Ph2	B-Ph3	B-Ph4	B-Ph5	B-Ph6	B-Ph7	B-Ph8	B-Ph9	B-Ph10	B-Ph11	B-Ph12	B-Ph13	B-Ph14	B-Ph15	B-Ph16	aux-1	digaux	

1234.434	1	1	0	768	0.061335	0.10075	0.16645	0.28725	0.032759	0.09038	0.079662	0.13659	0.11221	0.11942	0.341	0.27199	0.096153	0.18526	0.27617	0.1094	-2.8479	-3.3875	-3.5229	-3.3896	-3.3312	-3.55	-3.4729	-3.5146	-3.4333	-3.4688	-3.8708	-3.4938	-3.3333	-3.5312	-3.3042	-3.5979	-31.103	-96.770	142.835	208.025	26.304	89.101	133.232	-49.838	-0.143	184.271	143.071	167.470	178.151	-20.507	205.937	221.219	0.00033236	0.00049542	0.00013396	1351.8	3.487e-06	4.3821e-06	1345.1	366.39	2.6007e-06	4.0368e-06	418.35	139.24	121.32	41.789	3.5046e-06	51.707	0.00027814	0.00024417	6.6375e-05	1358.5	2.8797e-06	2.8053e-06	1359.4	369.57	3.0294e-06	3.026e-06	422.49	141.86	123.43	42.527	3.172e-06	52.684	181.503	-34.366	-56.947	-110.152	36.139	8.630	-110.245	-105.479	-30.451	26.501	-106.165	-102.319	-101.592	-96.768	10.239	-97.366	-8191	255	
1234.531	1	1	0	0	0.24049	0.10552	0.1549	0.32694	0.2918	0.10149	0.2049	0.16819	0.091277	0.1471	0.17064	0.25914	0.28465	0.13706	0.15676	0.20736	-3.1167	-3.4146	-3.4625	-3.4458	-3.3042	-3.6562	-3.4083	-3.55	-3.3312	-3.4271	-3.775	-3.5104	-3.3229	-3.5292	-3.2396	-3.6042	165.020	115.175	11.613	184.806	-89.516	209.334	129.069	49.292	66.032	-116.679	82.132	90.088	185.059	188.739	43.383	211.909	0.00029898	0.00025844	0.00017009	1353.9	4.317e-06	5.2443e-06	1348.9	365.66	3.2644e-06	4.4967e-06	419.5	140.3	121.65	41.935	3.7259e-06	51.964	0.0003439	0.00033301	8.8712e-05	1361.8	4.01e-06	3.8629e-06	1362.9	370.91	4.5835e-06	4.334e-06	423.59	142.83	123.9	42.753	4.4158e-06	53.053	185.602	-44.138	-59.722	-110.150	5.898	-8.537	-110.151	-105.587	-42.586	20.445	-106.126	-102.193	-101.535	-96.729	57.873	-97.141	-8191	255	
1234.627	1	1	0	0	0.18585	0.18438	0.086907	0.23374	0.056281	0.14299	0.30326	0.12846	0.077302	0.15475	0.13872	0.027509	0.2688	0.26063	0.042959	0.17772	-3.0271	-3.2208	-3.3312	-3.4896	-3.2812	-3.7583	-3.3417	-3.3146	-3.4833	-3.4417	-3.4938	-3.3354	-3.3104	-3.9396	-3.4313	-3.5771	-58.300	-44.228	218.288	186.247	-93.264	-85.282	154.746	96.088	96.202	234.930	212.994	34.928	198.937	-89.326	45.447	-83.018	0.00035505	0.00047556	0.00011605	1358.1	3.4053e-06	3.0638e-06	1352.3	368.46	4.5704e-06	4.2101e-06	420.88	139.69	121.59	42.016	4.8776e-06	51.641	0.00044889	0.00040513	0.00010857	1366.5	4.7458e-06	4.1701e-06	1369.7	372.84	4.7738e-06	4.3535e-06	425.78	143.16	124.22	42.874	5.1491e-06	53.015	183.192	-31.638	-58.036	-110.161	26.275	36.640	-110.406	-105.605	-14.226	45.766	-106.061	-102.169	-101.511	-96.701	-8.410	-97.044	-8191	255	
1234.723	1	1	0	0	0.094158	0.29308	0.25451	0.078293	0.064865	0.1417	0.48982	0.39247	0.13398	0.14022	0.21144	0.14118	0.21403	0.36438	0.021197	0.25916	-3.05	-2.9667	-3.5146	-3.6583	-3.375	-3.7062	-3.4667	-3.6604	-3.4	-3.1396	-3.3896	-3.5896	-3.4917	-3.6875	-3.3292	-3.2396	-58.285	-78.954	-103.138	160.406	57.126	-3.595	195.363	159.313	-101.976	-36.905	215.079	174.051	-87.859	221.230	223.294	189.141	0.00032233	0.0002724	0.00015466	1364.7	2.7692e-06	5.4734e-06	1359.6	369.24	3.6901e-06	4.022e-06	425.47	141.24	123.52	42.654	3.9459e-06	52.574	0.00054718	0.00052021	0.00015976	1374.7	7.5216e-06	6.9952e-06	1376.6	375.53	9.4635e-06	8.9561e-06	432.93	145.64	126.88	43.861	1.1617e-05	54.602	180.190	-36.276	-3.356	-110.028	4.863	27.586	-110.410	-105.600	-15.458	0.585	-105.990	-102.064	-101.655	-96.655	-1.248	-97.037	-8191	255	
1234.817	1	1	0	0	0.12079	0.15307	0.16686	0.19134	0.056417	0.18488	0.39365	0.12626	0.17091	0.13696	0.052317	0.080421	0.054212	0.2606	0.044572	0.30684	-3.2521	-3.3667	-3.4188	-3.6063	-3.2313	-3.5625	-3.4958	-3.3771	-3.7104	-3.3083	-3.5083	-3.4354	-3.3854	-3.9313	-3.4771	-3.5042	212.359	-59.912	-41.491	-123.311	167.745	155.006	209.959	80.559	94.320	82.140	-90.279	-51.686	33.335	209.264	153.206	202.846	0.00030527	0.00038986	0.00025154	1393.7	9.551e-06	6.1334e-06	1393.1	380.7	2.0994e-06	6.4105e-07	434.18	144.39	125.9	43.641	5.1458e-06	53.267	0.0010699	0.001105	0.00034691	1416.9	1.3378e-05	1.228e-05	1421.1	388.83	1.3254e-05	1.2389e-05	444.7	149	129.74	44.727	1.2636e-05	55.248	194.762	-21.500	-77.197	-110.090	32.029	36.243	-110.306	-105.713	-95.960	29.665	-105.721	-102.149	-101.510	-96.744	29.058	-97.263	-8191	255	
1234.915	1	1	0	0	0.2162	0.013971	0.25295	0.41913	0.076606	0.12157	0.19086	0.18359	0.087717	0.080748	0.14961	0.10286	0.29941	0.1653	0.06817	0.28251	-3.1167	-3.3042	-3.4229	-3.7417	-3.4167	-3.5792	-3.5792	-3.3	-3.5667	-3.2396	-3.4562	-3.5854	-3.5104	-3.8	-3.6604	-3.2	-59.890	232.773	-48.956	164.139	-41.947	-90.937	207.670	218.466	-3.940	112.085	187.602	140.157	-8.688	68.481	-32.491	209.177	0.00030239	0.00055507	3.8825e-05	1407	3.7438e-06	4.7459e-06	1396.5	380.57	8.1387e-07	4.6914e-06	430.95	143.32	125.07	43.126	4.5328e-06	53.018	0.00091631	0.00095492	0.00029489	1424.3	9.362e-06	9.15e-06	1420.5	387.24	8.2639e-06	8.2616e-06	440.11	147.14	128.08	44.102	8.6226e-06	54.465	183.105	-20.032	-29.013	-110.299	-20.980	60.117	-110.249	-105.753	-97.139	52.854	-106.252	-102.421	-101.777	-96.770	-5.012	-97.203	-8191	255	
1235.034	1	1	0	0	0.21872	0.17641	0.1862	0.20469	0.055121	0.15811	0.31303	0.2097	0.12619	0.12153	0.036534	0.28786	0.31574	0.28522	0.042067	0.35579	-3.1958	-3.4062	-3.4729	-3.8667	-3.1792	-3.4521	-3.7625	-3.4	-3.6604	-3.4083	-3.525	-3.6021	-3.1979	-3.5792	-3.5125	-3.3875	-112.374	155.804	-45.352	209.088	41.566	6.636	181.886	225.127	-50.305	-98.126	-121.321	-119.302	207.175	203.533	126.058	-23.334	0.0003254	0.00034526	7.4559e-05	1402.7	4.0737e-06	5.0055e-06	1391.4	377.24	3.55e-06	2.8591e-06	433.12	142.91	124.82	43.039	5.1837e-06	52.729	0.00063613	0.00070351	0.00022015	1416.3	7.196e-06	7.6213e-06	1412.8	384.53	7.1309e-06	7.609e-06	439.38	146.67	127.55	43.928	8.3412e-06	54.19	188.502	-40.018	-71.753	-110.344	7.384	53.329	-110.339	-105.795	28.296	40.803	-106.079	-102.063	-101.605	-96.940	-1.552	-97.285	-8191	255	
1235.130	1	1	0	0	0.2939	0.12933	0.054243	0.18911	0.24834	0.0086143	0.045595	0.20936	0.22968	0.13531	0.31221	0.31618	0.051394	0.16364	0.2416	0.12554	-3.2583	-3.5604	-3.5812	-3.7417	-3.2562	-3.625	-3.6042	-3.2667	-3.5	-3.4062	-3.3479	-3.9042	-3.3854	-3.5	-3.4771	-3.3875	116.824	228.714	198.341	199.102	228.371	-70.690	81.183	206.747	129.304	115.546	154.405	171.994	-99.763	175.878	167.921	105.068	0.0003624	0.00018701	0.00010866	1395.8	5.7997e-06	6.7639e-06	1397.9	377.88	4.2548e-06	2.1199e-06	431.89	142.88	124.91	42.97	3.5792e-06	53.067	0.0006086	0.00071214	0.00021548	1411.4	6.9891e-06	7.9921e-06	1412.7	384.5	7.2536e-06	8.0699e-06	439.04	146.6	127.87	44.021	8.5982e-06	54.282	180.869	16.034	-28.222	-110.271	51.915	37.619	-110.466	-105.838	-36.642	80.883	-105.974	-101.940	-101.663	-96.668	6.285	-97.244	-8191	255	
1235.226	1	1	0	0	0.049488	0.083555	0.15766	0.36285	0.092679	0.21882	0.21788	0.23555	0.07116	0.20704	0.051564	0.064825	0.1233	0.070754	0.057668	0.078942	-3.1771	-3.4	-3.2896	-3.6292	-3.3896	-3.4375	-3.8333	-3.4604	-3.6792	-3.5042	-3.4708	-3.6354	-3.3563	-3.5708	-3.5292	-3.3583	153.150	187.757	116.575	199.354	55.103	-8.910	146.459	188.894	-1.738	145.123	-23.208	90.859	-63.712	200.151	-61.631	167.415	0.00038919	0.00055557	0.00011336	1404.8	4.0498e-06	2.6248e-06	1393	378.69	7.8063e-07	2.9015e-07	431.65	142.72	124.73	42.684	5.2053e-06	53.043	0.00064161	0.00079124	0.00022913	1417.4	7.9751e-06	9.061e-06	1415.4	385.59	8.0379e-06	9.0187e-06	439.43	146.61	127.94	43.996	8.6787e-06	54.326	181.069	-48.731	-81.761	-110.362	24.852	122.167	-110.330	-105.748	31.315	-48.062	-106.062	-102.013	-101.495	-96.877	32.938	-97.379	-8191	255	
1235.322	1	1	0	0	0.18034	0.28558	0.14583	0.18562	0.099041	0.12695	0.30277	0.19226	0.29813	0.17784	0.13584	0.14392	0.096415	0.22953	0.17994	0.36159	-2.9208	-3.2146	-3.2708	-3.6	-3.1604	-3.3125	-3.6375	-3.5312	-3.5083	-3.4625	-3.3042	-3.5812	-3.4688	-3.3708	-3.5208	-3.425	140.242	216.312	19.591	205.904	-24.296	-11.421	193.757	208.441	160.655	119.291	94.714	184.829	192.563	229.131	116.256	231.934	0.00040029	0.00033034	0.00018356	1400.4	1.7726e-06	4.5613e-06	1392.9	378.59	2.6409e-06	1.9328e-06	430.98	142.71	124.32	42.755	7.0807e-06	52.383	0.00071356	0.00085751	0.00022481	1415.9	8.4816e-06	9.403e-06	1412.9	384.8	8.3575e-06	9.284e-06	438.18	146.3	127.22	43.763	8.0195e-06	53.967	177.741	-35.269	-22.272	-110.364	93.677	40.655	-110.261	-105.695	8.136	58.746	-106.200	-102.121	-101.683	-96.615	-2.639	-97.328	-8191	255	
1235.419	1	1	0	0	0.3143	0.27251	0.12838	0.14497	0.28541	0.21228	0.23742	0.15971	0.2204	0.33939	0.12673	0.10488	0.18563	0.17363	0.19056	0.026356	-3.0875	-3.2354	-3.2188	-3.7667	-3.4938	-3.4167	-3.8063	-3.5146	-3.3708	-3.5417	-3.5167	-3.6875	-3.4688	-3.2583	-3.4833	-3.3396	204.105	143.812	82.535	116.936	-75.571	161.969	-95.030	152.994	75.584	132.317	161.335	-106.296	-117.336	-111.049	236.057	-21.092	0.00033922	0.00041713	0.00017018	1394	5.9353e-07	6.5908e-06	1386.2	375.81	6.185e-07	4.8996e-06	428.23	141.94	123.28	42.428	3.5206e-06	52.458	0.00071066	0.00081201	0.00019909	1407.8	8.3417e-06	8.7107e-06	1405.4	382.04	8.2183e-06	8.5768e-06	435.58	145.53	126.81	43.576	7.3521e-06	53.917	185.212	-42.590	-28.651	-110.180	168.768	59.874	-110.205	-105.823	-20.956	59.922	-106.227	-102.028	-101.660	-97.012	-28.365	-97.313	-8191	255	
1235.515	1	1	0	0	0.15222	0.090578	0.098981	0.24241	0.084002	0.074152	0.039907	0.24725	0.11294	0.085718	0.2548	0.23954	0.11196	0.26255	0.13788	0.20279	-3.0229	-3.5604	-3.3396	-3.425	-3.45	-3.1958	-3.9104	-3.6	-3.3354	-3.5896	-3.2479	-3.575	-3.3812	-3.3833	-3.6125	-3.3479	174.827	43.830	-103.031	201.590	-43.132	133.480	207.409	165.647	-37.696	-35.555	218.245	169.308	-51.031	-1.616	-117.484	155.362	0.0003493	0.00052329	0.0001488	1390.4	3.4578e-06	2.7788e-06	1373.8	372.86	4.2702e-06	5.9153e-06	424.81	140.92	122.92	42.155	1.7851e-06	52.455	0.0007166	0.00076788	0.0001858	1399.2	8.2522e-06	8.067e-06	1394.1	379.61	8.0493e-06	7.7101e-06	431.85	144.59	125.94	43.224	6.5518e-06	53.615	179.474	-34.143	-65.555	-110.186	10.813	47.051	-110.146	-105.870	12.348	45.308	-106.227	-102.080	-101.796	-96.860	-11.632	-97.316	-8191	255	
1235.635	1	1	0	0	0.21875	0.088337	0.082203	0.26887	0.10431	0.057707	0.20115	0.21986	0.053594	0.096372	0.10366	0.16546	0.20672	0.34402	0.13704	0.26058	-2.8292	-3.5146	-3.1396	-3.6417	-3.5208	-3.3458	-3.7188	-3.4229	-3.2396	-3.5729	-3.2625	-3.2167	-3.5917	-3.4271	-3.5687	-3.4583	100.702	141.360	-0.185	214.872	140.656	65.262	164.874	200.113	-52.628	-72.776	-98.628	-87.231	222.764	157.089	-101.935	122.502	0.00032838	0.00047545	0.0001506	1371	2.8881e-06	6.3955e-06	1371	371.61	3.4194e-06	5.5404e-06	422.99	141.37	121.96	42.072	5.5364e-06	52.173	0.00067568	0.00064506	0.00017116	1387.6	7.614e-06	6.8681e-06	1388.5	377.84	7.5483e-06	6.7527e-06	430.19	144.45	125.49	43.116	6.587e-06	53.509	187.566	-32.669	-56.394	-110.068	16.357	31.672	-110.311	-105.571	-13.020	20.412	-105.961	-102.099	-101.403	-96.724	1.636	-97.225	-8191	255	
1235.730	1	1	0	0	0.063788	0.069484	0.12116	0.13821	0.086603	0.091369	0.14423	0.28385	0.25045	0.10578	0.19765	0.41913	0.15996	0.01831	0.19654	0.27694	-2.7771	-3.6229	-3.2979	-3.3646	-3.3396	-3.1354	-3.5021	-3.525	-3.2188	-3.5479	-3.3708	-3.4292	-3.6063	-3.3542	-3.4521	-3.3208	84.317	8.588	96.104	225.363	102.838	-86.320	165.657	186.223	209.346	-80.630	169.773	178.120	213.604	163.725	-81.991	145.555	0.00030006	0.00067556	6.8769e-05	1378.9	5.2586e-06	7.2383e-06	1365.8	371.08	5.5644e-06	3.7543e-06	423.2	140.21	122.94	42.023	2.7193e-06	52.394	0.00065644	0.00061602	0.00016928	1390.2	7.5573e-06	6.6182e-06	1386.1	377.76	7.5322e-06	6.5606e-06	430.72	144.51	125.79	43.07	6.6705e-06	53.622	192.777	-46.731	-18.968	-110.315	32.979	15.744	-110.186	-105.779	0.203	-5.211	-105.959	-102.221	-101.526	-96.668	19.160	-97.136	-8191	255	
1235.826	1	1	0	0	0.18707	0.18677	0.2157	0.14474	0.069279	0.059913	0.30182	0.19755	0.14125	0.25148	0.17843	0.10851	0.095849	0.13569	0.14601	0.15782	-2.7854	-3.4979	-3.3125	-3.4125	-3.5187	-3.1333	-3.6063	-3.4833	-3.1958	-3.5687	-3.3917	-3.5417	-3.6979	-3.1729	-3.3187	-3.5958	-14.108	102.088	19.830	-96.271	131.404	-1.624	128.465	167.030	118.765	144.425	-35.905	167.730	-78.876	200.694	-69.281	79.930	0.00035139	0.00068465	9.1231e-05	1378.5	4.1113e-07	6.8302e-06	1370.7	371.29	4.2139e-06	4.6255e-06	423.9	140.42	122.49	41.98	4.9244e-06	52.024	0.00061646	0.00057964	0.00017086	1389.2	6.8596e-06	6.2812e-06	1387.9	377.5	6.7751e-06	6.101e-06	430.25	144.13	125.3	43.001	6.5297e-06	53.44	190.659	-39.415	4.155	-110.117	-121.758	38.335	-110.330	-105.649	4.004	32.003	-106.149	-102.157	-101.580	-96.737	-22.369	-97.298	-8191	255	
1235.922	1	1	0	0	0.076654	0.14559	0.057487	0.21128	0.18435	0.15113	0.16838	0.38524	0.13384	0.10486	0.26775	0.0586	0.22056	0.15946	0.077547	0.10713	-2.8021	-3.4646	-3.2896	-3.5417	-3.5438	-3.4396	-3.5396	-3.2167	-3.1333	-3.2438	-3.4167	-3.3146	-3.5687	-3.5563	-3.3875	-3.4917	114.563	-29.560	156.778	234.701	44.831	-109.319	226.246	178.937	157.241	94.299	127.232	62.401	-92.623	-56.146	-24.870	-77.529	0.00031579	0.00037806	7.2748e-05	1371.5	5.5496e-06	3.8165e-06	1371.3	370.08	4.9472e-06	4.6662e-06	422.62	140.24	122.41	42.078	4.5852e-06	51.724	0.00055126	0.0005273	0.00016619	1384.8	6.1591e-06	5.7483e-06	1384.1	375.88	5.9067e-06	5.6629e-06	429.2	143.66	124.98	42.843	6.257e-06	53.238	184.470	-39.017	-8.087	-110.267	18.537	54.610	-110.353	-105.717	-40.774	37.112	-106.035	-102.157	-101.486	-96.616	10.271	-97.007	-8191	255	
1235.996	1	1	0	0	0.10153	0.13732	0.26469	0.13844	0.18146	0.22968	0.3724	0.16324	0.14112	0.016504	0.056445	0.062375	0.17269	0.17774	0.16532	0.13632	-2.5646	-3.4958	-3.4333	-3.2771	-3.4375	-3.375	-3.4771	-3.6417	-3.2458	-3.4417	-3.4917	-3.2521	-3.5375	-3.4625	-3.0896	-3.6	-74.273	-69.221	149.193	-91.691	-90.718	-37.928	225.228	190.725	-27.393	-94.385	179.527	-17.635	-38.045	222.982	26.451	-39.429	0.00035445	0.00023692	0.0001127	1366.1	2.0599e-06	1.4696e-06	1357.8	369.68	2.9906e-06	3.5936e-06	421.69	139.95	122.19	41.952	3.5995e-06	51.816	0.00049996	0.0005094	0.00015738	1380.3	5.4152e-06	5.5914e-06	1380.2	374.67	5.407e-06	5.5067e-06	427.6	143.35	124.67	42.743	6.2258e-06	53.111	189.119	-34.456	-59.974	-110.158	-2.580	2.167	-110.276	-105.566	-33.041	50.015	-106.089	-101.861	-101.585	-96.325	29.096	-97.241	-8191	255	
1236.114	1	1	0	0	0.085053	0.077051	0.051528	0.10671	0.06467	0.043061	0.18064	0.17925	0.11269	0.11994	0.10273	0.09575	0.17355	0.14657	0.091712	0.323	-2.9208	-3.3833	-3.3146	-3.1729	-3.425	-3.3021	-3.5229	-3.7292	-3.2125	-3.4437	-3.7583	-3.3812	-3.7458	-3.4562	-3.3063	-3.8167	126.111	23.926	139.980	182.893	42.135	151.974	171.317	-60.149	115.209	-62.000	-104.550	-94.432	-119.736	198.465	-43.463	163.844	0.0003301	0.00044861	0.00017868	1368.2	4.8524e-06	4.5171e-06	1361.4	369.83	3.0623e-06	4.1437e-06	420.16	140.4	122.09	41.976	2.9272e-06	52.129	0.00050086	0.00054199	0.00016484	1381.8	5.5838e-06	6.0435e-06	1381.4	375.25	5.7281e-06	6.366e-06	428.11	143.44	124.75	42.878	6.8174e-06	53.249	185.358	-43.527	-29.368	-110.315	22.805	24.573	-110.055	-105.801	-6.270	61.491	-105.984	-102.143	-101.629	-96.713	34.080	-97.236	-8191	255	
1236.211	1	1	0	0	0.15795	0.11646	0.2839	0.17152	0.18755	0.17202	0.16314	0.02651	0.12091	0.1084	0.15136	0.37174	0.037443	0.09391	0.28056	0.15754	-2.8229	-3.3792	-3.3375	-3.1917	-3.3542	-3.3937	-3.4854	-3.6771	-3.475	-3.4708	-3.4021	-3.1854	-3.6	-3.2667	-3.2417	-3.5708	33.116	-67.703	64.277	207.018	67.409	198.807	153.150	91.233	-41.799	30.316	120.416	-93.251	129.877	49.736	-114.952	182.404	0.00036528	0.00044571	0.00018794	1366.7	4.087e-06	7.1446e-06	1362.4	368.41	4.1727e-06	3.7705e-06	422.18	140.04	121.98	42.027	5.1987e-06	51.852	0.00051938	0.00060965	0.00017808	1378.1	5.9711e-06	6.6005e-06	1379.3	374.53	5.9165e-06	6.632e-06	428.89	143.27	124.57	42.851	6.399e-06	53.124	181.796	-42.196	-58.869	-110.234	-1.566	45.801	-110.261	-105.698	-41.312	-1.317	-105.865	-101.729	-101.660	-96.742	10.271	-97.172	-8191	255	
1236.307	1	1	0	0	0.035311	0.1427	0.26068	0.0798	0.13419	0.090731	0.17977	0.2793	0.069901	0.034482	0.14057	0.25547	0.25749	0.19264	0.15825	0.12062	-2.8	-2.9813	-3.45	-3.2042	-3.5646	-3.2458	-3.3042	-3.7229	-3.2438	-3.1521	-3.6125	-3.2542	-3.525	-3.35	-3.2979	-3.7396	-114.607	89.977	60.392	235.782	-26.242	-21.075	33.018	183.065	90.677	-3.323	-117.505	-103.295	122.718	-31.615	43.022	-1.200	0.00035739	0.00053452	0.00013699	1366.9	3.7649e-06	6.2611e-06	1354.9	367	2.0512e-06	2.1504e-06	419.5	140.13	121.37	41.58	4.4834e-06	51.652	0.00051319	0.00057178	0.00015463	1375.9	5.5064e-06	5.992e-06	1370.7	372.44	5.3095e-06	5.7116e-06	425.12	142.48	123.94	42.582	5.0141e-06	52.814	185.011	-70.257	-38.572	-110.345	3.521	39.613	-110.327	-105.685	-47.246	48.356	-106.088	-102.230	-101.560	-96.614	-21.235	-97.264	-8191	255	
1236.427	1	1	0	0	0.1244	0.035146	0.098924	0.16447	0.056173	0.26343	0.20631	0.11006	0.26363	0.081441	0.18441	0.2383	0.29323	0.31585	0.15776	0.17406	-3.0042	-3.2333	-3.3396	-3.1271	-3.3688	-3.6562	-3.5646	-3.4208	-3.1958	-3.3354	-3.6146	-3.375	-3.3854	-3.3667	-3.1604	-3.625	-102.403	-43.206	72.122	126.425	140.856	-54.267	168.534	-82.269	60.115	38.506	214.664	-115.045	-108.662	-109.733	7.598	170.122	0.00036409	0.00043468	0.0001298	1356.9	2.1043e-06	6.5556e-06	1347.2	366	2.4015e-06	4.8653e-06	419.51	138.96	120.61	41.645	4.2748e-06	51.556	0.00046405	0.00049584	0.00012778	1366.5	5.0461e-06	5.3644e-06	1364.6	371.24	5.1641e-06	5.3804e-06	424.06	141.79	123.3	42.422	4.701e-06	52.669	188.636	25.324	-36.144	-110.055	9.147	36.384	-110.111	-105.563	0.153	14.617	-105.813	-101.989	-101.404	-96.695	26.650	-96.951	-8191	255	
1236.523	1	1	0	0	0.18027	0.11088	0.068098	0.20975	0.28693	0.039063	0.067104	0.2184	0.16547	0.10132	0.23363	0.31353	0.17732	0.14551	0.089211	0.18782	-2.9667	-3.1292	-3.2438	-3.4917	-3.4792	-3.4125	-3.2792	-3.5958	-3.2938	-3.3583	-3.8146	-3.4583	-3.2292	-3.5	-3.1729	-3.4854	151.957	58.502	143.555	228.317	43.207	-26.953	-112.014	105.179	216.244	-24.433	227.983	199.868	-121.006	172.312	160.355	127.715	0.00035599	0.00022163	9.1455e-05	1354.7	1.756e-06	4.4086e-06	1342.3	365.49	3.6314e-06	6.3053e-06	418.47	138.7	120.48	41.394	1.3553e-06	51.294	0.00047481	0.00047822	0.00011722	1361.1	5.0762e-06	5.1186e-06	1360.9	370.12	5.1827e-06	4.9016e-06	422.74	141.8	123.13	42.224	4.3274e-06	52.427	184.452	-39.808	-47.245	-110.323	42.439	9.775	-110.292	-105.577	-45.586	12.064	-105.979	-101.945	-101.440	-96.631	9.834	-97.221	-8191	255	
1236.595	1	1	0	0	0.18663	0.10114	0.29193	0.03372	0.13891	0.16501	0.17964	0.23081	0.14005	0.11284	0.20479	0.21339	0.12756	0.21828	0.28023	0.35092	-3.1542	-3.2771	-3.6333	-3.5854	-3.475	-3.6562	-3.2896	-3.4188	-3.3833	-3.2208	-3.5667	-3.525	-3.6042	-3.6312	-3.4479	-3.3812	-10.221	208.404	-34.207	34.152	137.482	3.621	163.307	144.419	-37.881	-60.428	209.141	195.070	-109.820	-117.961	-17.066	178.078	0.00033508	0.0005394	0.00013749	1342	2.0994e-06	4.3669e-06	1341.1	364.16	3.0848e-06	4.5928e-06	414.82	138.6	120.18	41.414	2.6843e-06	51.347	0.000446	0.00042451	0.00010947	1354.3	4.8471e-06	4.5315e-06	1356.8	369.14	4.8996e-06	4.4058e-06	420.7	141.5	122.67	42.191	4.179e-06	52.424	179.323	-31.635	-42.616	-110.278	16.729	15.224	-110.206	-105.653	-46.058	45.359	-105.989	-102.019	-101.631	-96.671	-0.988	-97.035	-8191	255	
1236.716	1	1	0	0	0.33832	0.088759	0.092527	0.090295	0.099637	0.17812	0.2175	0.20015	0.14093	0.082724	0.30531	0.37161	0.18592	0.050761	0.10837	0.28612	-2.8292	-2.9333	-3.3708	-3.5208	-3.3021	-3.6729	-3.4437	-3.3979	-3.4854	-3.4354	-3.7021	-3.5042	-3.3688	-3.6937	-3.4042	-3.5042	39.453	170.089	203.439	-99.724	97.949	-111.233	144.279	203.958	232.149	212.097	209.686	178.933	199.331	179.139	56.689	200.317	0.00030945	0.00046096	0.0001682	1347.6	2.5514e-06	3.8436e-06	1340.3	364.14	4.3165e-06	3.6634e-06	416.82	137.84	120.51	41.367	3.1714e-06	51.2	0.00043634	0.00038335	0.00010733	1356.7	4.733e-06	4.1755e-06	1353.6	368.66	4.8433e-06	4.2207e-06	420.94	141.16	122.9	42.113	4.2469e-06	52.44	182.726	-32.759	-47.103	-110.071	26.429	57.088	-110.282	-105.671	-24.183	2.286	-105.815	-102.204	-101.603	-96.499	-18.310	-97.290	-8191	255	
1236.810	1	1	0	0	0.10275	0.3647	0.1815	0.12942	0.24173	0.063995	0.21432	0.4837	0.26553	0.1298	0.057296	0.033372	0.35362	0.18256	0.21629	0.25576	-3.1771	-3.0896	-3.3604	-3.3604	-3.2917	-3.6937	-3.4854	-3.3812	-3.4938	-3.2604	-3.6729	-3.4938	-3.2562	-3.5	-3.0854	-3.2333	4.511	-32.344	192.538	-14.030	100.431	-9.293	195.924	180.359	102.797	96.134	36.400	170.306	191.049	142.440	61.025	227.394	0.00033265	0.00056674	0.0001131	1341.7	3.2813e-06	2.634e-06	1336	363	2.9127e-06	4.3411e-06	417.29	138.62	120.45	41.495	2.9899e-06	51.214	0.00043436	0.00037981	0.0001089	1353.9	4.6203e-06	4.0601e-06	1354.7	368.7	4.6859e-06	4.077e-06	421.26	141.3	122.73	42.253	4.3748e-06	52.445	188.952	-47.143	-43.925	-110.271	25.430	87.588	-110.253	-105.536	-20.517	22.403	-105.849	-102.188	-101.402	-96.769	15.042	-97.166	-8191	255	
1236.908	1	1	0	0	0.23878	0.17842	0.21783	0.20448	0.33582	0.14158	0.30771	0.20937	0.13835	0.15003	0.047417	0.17044	0.13097	0.13235	0.1296	0.20359	-3.0292	-3.1208	-3.1917	-3.5396	-3.1292	-3.4542	-3.4271	-3.4792	-3.2875	-3.1562	-3.5	-3.6333	-3.35	-3.4688	-3.2875	-3.4792	169.957	-12.651	-103.674	221.442	61.935	75.850	218.432	177.682	62.775	88.689	-47.553	110.951	174.737	119.610	97.687	-0.861	0.00029901	0.00039634	0.00012895	1346.5	2.6937e-06	1.5862e-06	1335.9	362.12	2.4189e-06	5.5052e-06	416.84	138.31	120.74	41.307	3.3912e-06	51.214	0.0004155	0.00038073	0.0001158	1354.2	4.3414e-06	4.0051e-06	1352.5	368.01	4.2227e-06	3.8915e-06	421.29	141.23	122.81	42.127	4.4107e-06	52.449	191.162	-26.828	-28.262	-110.084	-12.777	26.746	-110.331	-105.613	7.854	30.354	-105.964	-102.075	-101.589	-96.687	-3.836	-97.317	-8191	255	
1237.027	1	1	0	0	0.18024	0.2763	0.21766	0.085594	0.22633	0.33842	0.3387	0.23687	0.2129	0.14322	0.41502	0.2412	0.10508	0.22458	0.21883	0.12443	-2.9792	-3.2021	-3.2479	-3.7	-3.1292	-3.2417	-3.3667	-3.4208	-3.6437	-3.375	-3.3625	-3.5062	-3.375	-3.5458	-3.5417	-3.2792	75.020	-27.091	-7.646	156.745	191.755	70.290	173.047	188.026	131.502	-27.360	222.349	204.157	-74.671	-113.512	-91.223	-57.091	0.00028902	0.0003606	0.00013583	1346.8	2.9579e-06	3.0758e-06	1338.3	364.26	1.918e-06	4.8582e-06	416.97	138.93	120.5	41.394	3.8269e-06	51.116	0.00039091	0.00038207	0.00011869	1355.1	4.3079e-06	4.3005e-06	1355.9	369.31	4.4573e-06	4.3518e-06	422.6	142.03	122.99	42.23	4.8605e-06	52.416	184.372	-48.016	-45.386	-110.016	43.949	4.887	-110.290	-105.549	-7.450	13.874	-105.867	-101.944	-101.628	-96.564	29.797	-97.314	-8191	255	
1237.123	1	1	0	0	0.19735	0.13537	0.10561	0.23523	0.15191	0.062154	0.14244	0.086021	0.21485	0.10232	0.31174	0.30416	0.15883	0.090382	0.22184	0.099054	-2.8521	-3.0958	-3.4833	-3.675	-3.2458	-3.3167	-3.425	-3.5583	-3.6042	-3.3646	-3.2479	-3.4396	-3.2646	-3.5521	-3.5062	-3.3208	118.845	-116.155	64.910	156.707	155.070	200.874	138.440	-98.016	117.357	-46.197	217.821	182.335	-92.724	180.361	102.661	210.226	0.00034479	0.0005339	0.00012552	1347.3	2.4746e-06	3.5625e-06	1341.2	365.01	4.7812e-06	3.9819e-06	418.62	138.74	120.72	41.631	4.9979e-06	51.166	0.00040361	0.00040773	0.00012614	1355.8	4.2568e-06	4.3756e-06	1357.3	369.84	4.1747e-06	4.3053e-06	423.46	141.5	123	42.285	4.7328e-06	52.332	188.185	-43.126	-8.777	-110.204	-1.196	45.762	-110.141	-105.677	-16.080	-8.779	-106.044	-102.210	-101.444	-96.584	3.535	-97.087	-8191	255	
1237.219	1	1	0	0	0.19116	0.13843	0.10227	0.21734	0.18708	0.13502	0.18949	0.1811	0.13806	0.24255	0.12936	0.26007	0.31404	0.034355	0.12094	0.26407	-3.1375	-3.175	-3.3396	-3.7271	-3.1521	-3.2875	-3.5563	-3.5021	-3.6021	-3.4354	-3.2625	-3.5604	-3.5604	-3.3583	-3.6792	-3.2771	153.986	175.022	206.809	220.450	-21.478	-80.644	118.497	112.999	155.320	93.438	150.165	-102.003	210.218	-106.872	208.415	183.876	0.00029771	0.00034753	8.8642e-05	1352.4	2.4615e-06	3.2022e-06	1342.7	365.19	3.6194e-06	3.696e-06	418.39	138.86	120.21	41.523	3.6381e-06	51.129	0.00039158	0.00041674	0.00012663	1357.1	4.2971e-06	4.7997e-06	1360.8	370.25	4.4894e-06	4.8556e-06	423.47	141.84	122.94	42.388	5.0258e-06	52.389	178.575	-43.550	-43.094	-110.185	2.169	17.688	-110.174	-105.510	-23.888	0.081	-105.985	-101.903	-101.482	-96.546	46.706	-96.953	-8191	255	
1237.291	1	1	0	0	0.076787	0.11598	0.25936	0.40291	0.38775	0.15178	0.31023	0.23614	0.20151	0.16857	0.22632	0.39134	0.20843	0.37449	0.056042	0.09879	-2.9833	-3.2562	-3.2104	-3.6458	-3.1729	-3.2229	-3.5687	-3.275	-3.3896	-3.4979	-3.3375	-3.5458	-3.2687	-3.2896	-3.3417	-3.325	191.503	190.975	225.136	230.320	63.874	95.425	188.130	208.653	110.895	31.240	157.036	172.891	73.359	167.781	-15.404	158.982	0.0003385	0.00037952	0.00016625	1346.8	1.9136e-06	3.3003e-06	1346	365.03	3.6608e-06	4.443e-06	418.36	138.99	120.77	41.679	3.6535e-06	51.265	0.00042049	0.00045806	0.00012871	1358.5	4.5284e-06	5.0441e-06	1361.8	370.67	4.7694e-06	5.1204e-06	424.22	142.14	123.43	42.468	4.9207e-06	52.491	185.106	-24.301	-79.732	-110.214	20.633	20.769	-110.268	-105.517	-41.393	21.837	-105.914	-102.030	-101.331	-96.645	11.134	-97.082	-8191	255	
1237.412	1	1	0	0	0.19659	0.072194	0.21847	0.15414	0.090984	0.23134	0.098203	0.28407	0.085002	0.12649	0.10633	0.25463	0.38406	0.11764	0.11553	0.063621	-3.2	-3.4667	-3.1729	-3.6271	-3.3979	-3.3438	-3.7083	-3.3083	-3.2438	-3.5021	-3.3187	-3.5792	-3.3688	-3.3771	-3.5042	-3.2438	129.595	87.519	-79.349	233.441	86.883	147.630	-66.297	153.009	116.098	187.250	206.383	-116.805	215.674	223.747	197.196	191.471	0.00036503	0.00045762	0.00016598	1352.1	5.2865e-06	3.6889e-06	1349.7	367.13	5.2768e-07	5.8583e-06	421.38	139.69	121.47	41.743	3.5644e-06	51.268	0.00043853	0.00048191	0.00013047	1363	4.8863e-06	5.2948e-06	1366	372.3	5.0782e-06	5.372e-06	426.06	142.5	123.94	42.684	5.1907e-06	52.709	186.067	-35.354	-58.823	-110.065	12.423	51.815	-110.291	-105.750	-26.510	28.765	-106.081	-102.168	-101.533	-96.474	13.447	-97.303	-8191	255	
1237.508	1	1	0	0	0.1638	0.17415	0.1752	0.17795	0.14164	0.15951	0.22303	0.35838	0.26576	0.056398	0.088885	0.1273	0.0055064	0.15313	0.11187	0.24905	-2.8312	-3.3063	-3.3083	-3.5792	-3.3625	-3.1729	-3.425	-3.2854	-3.3167	-3.6937	-3.1229	-3.4729	-3.4042	-3.3812	-3.4667	-3.5958	228.250	42.464	-70.701	198.105	234.558	12.323	174.790	230.665	167.713	-70.555	225.606	-101.119	28.111	-31.070	-66.963	-119.821	0.00035567	0.00042868	0.00017685	1365.8	3.4787e-06	3.697e-06	1362.4	370.31	3.0161e-06	6.3342e-06	425.68	141.24	123.04	42.463	4.0547e-06	52.092	0.00050724	0.00056447	0.00014468	1375.9	6.2177e-06	6.6304e-06	1379.1	376.02	6.7614e-06	6.8758e-06	431.39	144.68	125.94	43.448	6.2026e-06	53.641	188.181	-1.358	-49.298	-109.967	52.742	55.975	-110.286	-105.723	-34.346	31.102	-106.018	-102.105	-101.651	-96.597	-8.757	-97.339	-8191	255	
1237.604	1	1	0	0	0.052876	0.11023	0.10989	0.16871	0.061215	0.072295	0.091353	0.23191	0.2681	0.093554	0.21338	0.19031	0.28611	0.28924	0.12678	0.16186	-2.8854	-3.2667	-3.2354	-3.525	-3.3229	-3.2542	-3.6708	-3.3479	-3.2292	-3.6167	-3.4229	-3.625	-3.3937	-3.2458	-3.7313	-3.5708	76.027	-85.100	-97.090	136.692	151.341	-106.815	171.551	201.293	83.343	-73.502	156.712	187.923	123.434	189.505	-82.148	122.725	0.0003081	0.00020788	3.8397e-05	1375.1	2.472e-07	5.9745e-06	1374.6	375.11	1.3561e-06	6.836e-06	427.12	141.97	123.52	42.709	2.4493e-06	52.629	0.0006279	0.00065044	0.00016013	1389.8	7.2423e-06	6.9061e-06	1393.1	380.63	7.1534e-06	6.9436e-06	434.51	145.27	126.8	43.706	5.906e-06	53.998	182.383	-7.073	-60.861	-110.148	221.101	69.511	-110.344	-105.833	-55.148	22.660	-105.965	-101.938	-101.506	-96.817	23.990	-97.360	-8191	255	
1237.700	1	1	0	0	0.090438	0.12546	0.12288	0.26149	0.25971	0.1077	0.18183	0.10169	0.2148	0.11095	0.15587	0.27359	0.014653	0.17398	0.14072	0.21768	-2.8312	-3.4938	-3.2104	-3.4396	-3.3958	-3.0917	-3.45	-3.35	-3.25	-3.7083	-3.2625	-3.4604	-3.5042	-3.1792	-3.6896	-3.4792	129.895	130.440	146.998	235.201	30.548	-121.637	151.357	130.352	-41.714	124.973	-20.027	84.781	145.718	217.477	140.021	93.166	0.00028792	0.00054503	0.00018209	1386.8	1.3139e-06	5.3424e-06	1384.5	378.7	3.2851e-06	3.545e-06	430.98	142.8	124.33	42.91	4.0182e-06	52.963	0.00061987	0.00060208	0.00015639	1397.6	7.0491e-06	6.3681e-06	1399.5	384.09	7.0093e-06	6.1323e-06	436.8	146.07	127.26	43.857	5.7846e-06	54.184	182.140	-42.371	-29.961	-110.240	47.352	51.546	-110.096	-105.767	-28.103	5.552	-105.941	-102.304	-101.627	-96.557	64.233	-97.391	-8191	255	
1237.819	1	1	0	0	0.19959	0.18201	0.10746	0.25813	0.046719	0.21293	0.18863	0.10142	0.19629	0.18452	0.1569	0.31953	0.30027	0.18194	0.23471	0.075207	-2.9125	-3.3063	-3.225	-3.4167	-3.1167	-3.0604	-3.7229	-3.5646	-2.975	-3.4	-3.4729	-3.3021	-3.575	-3.5563	-3.5104	-3.6396	63.953	137.572	-90.944	176.194	168.681	112.374	207.686	176.616	-11.622	-28.116	140.739	-85.444	-105.088	188.536	46.234	10.515	0.00033197	0.00061147	6.3587e-05	1387.6	5.4676e-06	7.4173e-06	1381.9	377.95	6.2246e-06	4.6456e-06	429.53	142.6	124.5	42.885	4.8481e-06	53.244	0.00058456	0.00053342	0.00014939	1398.7	6.4479e-06	5.6272e-06	1400.6	384.49	6.0874e-06	5.2665e-06	436.51	146.41	127.46	43.893	5.1929e-06	54.277	193.163	-47.190	-61.810	-110.190	18.691	33.053	-110.203	-105.954	-33.224	6.942	-106.263	-102.186	-101.571	-96.699	24.268	-97.402	-8191	255	
1237.892	1	1	0	0	0.090974	0.3757	0.081307	0.14534	0.29101	0.19419	0.12794	0.16144	0.073088	0.13105	0.20104	0.069286	0.17319	0.051812	0.055642	0.21071	-2.7938	-3.5625	-3.3292	-3.2646	-3.6021	-3.1271	-3.4708	-3.6625	-3.375	-3.4542	-3.5187	-3.4188	-3.6271	-3.4146	-3.4167	-3.6417	113.979	-8.109	-83.328	-108.841	23.297	62.009	177.979	194.180	-9.675	217.069	203.225	180.035	159.858	140.703	-13.064	115.523	0.00032047	0.00037063	6.0877e-05	1380.8	3.8336e-06	2.4014e-06	1377.6	378.03	4.7737e-06	6.0789e-06	428.59	142.91	124.63	42.953	2.9418e-06	52.739	0.00048747	0.00043518	0.00012779	1394.1	4.8479e-06	4.2757e-06	1395.6	383.01	4.4993e-06	3.9118e-06	434.36	146.02	126.87	43.857	3.9185e-06	54.06	187.638	-75.977	-66.277	-110.213	10.460	23.095	-110.388	-105.724	7.875	28.451	-106.309	-102.084	-101.651	-96.632	3.866	-97.204	-8191	255	
1237.988	1	1	0	0	0.057903	0.13347	0.13679	0.10143	0.20108	0.2448	0.15734	0.16032	0.162	0.26255	0.20224	0.1655	0.062043	0.23085	0.11817	0.13193	-2.9979	-3.2792	-3.4104	-3.4417	-3.3208	-3.3917	-3.6792	-3.7229	-3.1042	-3.4562	-3.3375	-3.075	-3.575	-3.4458	-3.3875	-3.4479	-61.013	-47.533	-86.623	111.684	10.257	151.345	227.880	158.713	-111.031	222.645	-117.632	-116.521	176.108	121.962	140.597	102.537	0.00033162	0.00036381	0.00010217	1378.7	2.597e-06	4.8973e-06	1368.5	376.73	2.7577e-06	5.0773e-06	429.32	143.15	123.92	43.205	4.8663e-06	52.953	0.00034819	0.00030721	8.9926e-05	1387.9	3.3836e-06	3.1699e-06	1385.7	381.68	3.3415e-06	3.0886e-06	432.94	145.48	126.41	43.772	3.3949e-06	53.964	185.232	-37.455	-39.562	-110.082	12.351	9.934	-110.253	-105.766	-26.344	1.081	-105.978	-102.086	-101.595	-96.791	3.511	-96.999	-8191	255	
1238.107	1	1	0	0	0.19871	0.24684	0.19509	0.40239	0.30434	0.29902	0.20984	0.10995	0.18074	0.13843	0.14559	0.16111	0.22995	0.22814	0.1271	0.2288	-2.95	-3.3229	-3.2604	-3.3729	-3.6417	-3.2604	-3.5312	-3.5938	-3.3688	-3.5625	-3.5417	-3.0667	-3.5292	-3.4292	-3.3083	-3.5958	215.960	91.809	-119.157	-121.553	13.527	51.921	77.339	223.930	-121.735	-121.281	163.430	231.677	226.877	-114.872	-50.712	-39.563	0.00031847	0.00024944	9.9223e-05	1373	1.575e-06	4.8723e-06	1372.6	375.54	2.049e-06	5.5333e-06	429.02	142.59	123.74	42.867	4.6453e-06	52.735	0.00031118	0.00027753	8.4354e-05	1383.3	3.0825e-06	3.0161e-06	1385.6	380.74	3.1318e-06	3.0483e-06	432.65	145.3	126.1	43.623	3.2388e-06	53.838	184.645	-35.973	-44.983	-109.995	-32.645	26.924	-110.122	-105.422	-20.519	27.081	-106.001	-102.137	-101.589	-96.802	22.512	-97.332	-8191	255	
1238.203	1	1	0	0	0.12804	0.080891	0.23268	0.25099	0.43037	0.41963	0.21968	0.21255	0.21988	0.089375	0.11891	0.14862	0.24886	0.346	0.11488	0.11631	-3	-3.5062	-3.3771	-3.5438	-3.3438	-3.2042	-3.7167	-4.0021	-3.325	-3.2792	-3.4521	-3.3063	-3.5375	-3.5	-3.1521	-3.5417	1.718	159.574	61.940	165.082	103.756	56.611	-123.131	-117.500	25.076	-88.154	24.365	173.570	196.875	-114.613	215.584	197.631	0.00035863	0.00051824	0.00016379	1368.9	3.5388e-06	1.9277e-06	1370.3	375.71	1.672e-06	2.6017e-06	427.34	142.4	123.66	42.814	3.4905e-06	52.672	0.00029932	0.0002865	8.123e-05	1380.9	2.9559e-06	2.9599e-06	1383.2	380.52	2.9935e-06	2.9628e-06	432.23	145.13	125.97	43.605	3.2654e-06	53.802	186.033	-28.265	-36.620	-110.136	31.676	84.717	-110.217	-105.660	-5.653	28.998	-106.027	-102.044	-101.454	-96.378	11.889	-97.349	-8191	255	
1238.300	1	1	0	0	0.019271	0.10136	0.027613	0.12831	0.19457	0.1483	0.069223	0.12391	0.038204	0.084261	0.32443	0.12259	0.26401	0.1075	0.26488	0.2329	-2.7729	-3.4083	-3.1437	-3.4542	-3.6396	-3.3396	-3.4021	-3.7167	-3.2271	-3.375	-3.4521	-3.175	-3.7083	-3.4396	-3.1063	-3.6083	48.161	229.338	28.183	-104.685	58.325	85.471	189.418	47.277	221.708	154.608	-18.305	-29.851	220.274	57.056	212.740	209.518	0.00035723	0.00068572	9.0106e-05	1376.1	3.1237e-06	2.8305e-06	1373.3	375.83	2.307e-06	5.6602e-06	427.63	142.14	123.23	42.785	4.3621e-06	52.657	0.00030678	0.00030159	8.6396e-05	1382.7	3.2418e-06	3.4279e-06	1385.9	380.61	3.3562e-06	3.6299e-06	431.83	145.07	126.07	43.565	3.98e-06	53.812	186.405	-44.826	-69.758	-110.067	11.524	18.309	-110.220	-105.732	-23.709	21.061	-105.755	-101.760	-101.587	-96.635	28.197	-97.185	-8191	255	
1238.396	1	1	0	0	0.18595	0.07621	0.23453	0.18955	0.15563	0.13703	0.21768	0.31285	0.10836	0.18237	0.1171	0.17939	0.19221	0.10206	0.15673	0.22467	-2.9083	-3.2458	-3.2625	-3.4917	-3.3563	-3.3458	-3.2375	-3.7562	-3.4208	-3.2417	-3.6271	-3.3292	-3.4896	-3.6167	-3.1396	-3.4521	157.682	-1.987	93.882	173.176	131.497	57.950	145.362	175.626	43.678	198.950	173.023	138.617	173.936	139.177	203.798	157.449	0.00035101	0.00050806	0.00018805	1374.6	5.9509e-06	4.1056e-06	1369.3	374.46	2.935e-06	6.0301e-06	427.81	142.26	123.81	42.784	4.5025e-06	52.665	0.0003739	0.00039221	0.00011105	1384.1	4.2718e-06	4.6061e-06	1386.4	380.6	4.5806e-06	4.9382e-06	432.91	145.24	126.4	43.657	4.759e-06	53.888	182.549	-53.824	-41.056	-110.216	33.289	19.753	-110.275	-105.749	-15.555	-2.935	-106.173	-102.181	-101.874	-96.523	12.712	-97.273	-8191	255	
1238.492	1	1	0	0	0.31227	0.066864	0.10925	0.34798	0.049973	0.34418	0.23787	0.12078	0.19319	0.06555	0.11293	0.2015	0.034028	0.13837	0.18642	0.18485	-2.9917	-3.2687	-3.6771	-3.3312	-3.2417	-3.3146	-3.5875	-3.5375	-3.2083	-3.2896	-3.6	-3.3458	-3.4729	-3.5479	-3.2438	-3.6437	33.135	153.376	211.112	193.947	-100.040	204.913	201.018	-115.481	180.427	-92.772	144.803	-115.902	28.228	208.182	-87.178	120.069	0.00034456	0.00061144	0.00019309	1372.7	1.8702e-06	3.3364e-06	1373.9	377.18	3.3399e-06	4.6593e-06	429.48	142.09	123.96	42.959	7.4727e-06	52.748	0.00043931	0.00046681	0.00012091	1385.9	4.8427e-06	5.0899e-06	1389.2	381.76	4.7533e-06	4.888e-06	433.37	145.18	126.4	43.662	4.1388e-06	53.856	180.198	-23.966	-40.824	-110.045	-29.733	19.833	-110.309	-105.789	13.358	22.237	-106.045	-102.014	-101.690	-96.599	19.487	-97.239	-8191	255	
1238.588	1	1	0	0	0.17728	0.15273	0.22643	0.13993	0.31899	0.12292	0.37854	0.32125	0.11214	0.07561	0.054473	0.049537	0.29408	0.14271	0.07934	0.14484	-2.8958	-3.2521	-3.5292	-3.3583	-3.1792	-3.4313	-3.2854	-3.525	-3.5167	-3.4771	-3.7938	-3.4667	-3.3438	-3.4938	-3.2	-3.5646	-79.696	18.431	197.890	141.208	206.044	182.787	216.086	179.046	18.603	-82.652	168.993	-123.729	220.662	27.174	160.764	149.323	0.00032874	0.00035907	0.00013723	1378.7	3.9816e-06	5.6516e-06	1371.4	377.29	2.558e-06	5.7722e-06	428.77	141.87	124.35	42.859	4.4756e-06	52.61	0.00041755	0.00041713	0.00010495	1387.2	4.5222e-06	4.5635e-06	1387.7	381.46	4.5461e-06	4.3674e-06	433.14	145.01	126.5	43.61	4.0387e-06	53.858	185.372	-40.580	-47.931	-110.149	16.432	6.869	-110.274	-105.769	-29.111	22.576	-106.103	-102.040	-101.422	-96.419	28.322	-97.124	-8191	255	
1238.709	1	1	0	0	0.43564	0.20908	0.25611	0.30774	0.11217	0.066728	0.30201	0.23969	0.1253	0.12238	0.18093	0.10815	0.32129	0.041105	0.14303	0.22522	-2.9646	-3.2958	-3.4792	-3.3	-3.4813	-3.5896	-3.4542	-3.6583	-3.35	-3.2604	-3.6	-3.1542	-3.2771	-3.675	-3.3104	-3.4938	100.981	-53.036	-59.354	169.463	103.497	143.330	220.638	177.758	-106.042	156.326	-113.174	67.131	223.337	201.277	215.059	95.981	0.00035196	0.00044099	0.0001439	1379.8	2.8436e-06	5.1692e-06	1374.5	375.4	4.6672e-06	5.1882e-06	428.29	142.15	123.71	42.907	1.7645e-06	52.877	0.0004252	0.00039429	0.00010278	1387.6	4.5928e-06	4.2638e-06	1388.7	380.62	4.5927e-06	4.1557e-06	433.18	145.33	126.31	43.609	3.9899e-06	53.943	183.731	-32.452	-30.346	-109.993	-11.001	27.962	-110.280	-105.554	-12.581	30.828	-106.043	-102.216	-101.911	-96.725	46.543	-97.318	-8191	255	
1238.805	1	1	0	0	0.25511	0.19903	0.089879	0.045029	0.091941	0.13341	0.13362	0.15513	0.17526	0.2911	0.10127	0.11726	0.32401	0.094621	0.14175	0.1701	-2.9792	-3.2792	-3.575	-3.4813	-2.9667	-3.4458	-3.4229	-3.4771	-3.3292	-3.1875	-3.6979	-3.6292	-2.975	-3.5104	-3.5187	-3.6063	-70.714	-64.825	229.316	-76.420	-44.805	-73.534	190.749	-123.651	60.537	-93.034	232.921	78.711	-92.168	79.918	-42.274	-109.484	0.00033996	0.00059879	0.00012979	1375.4	4.9878e-06	6.4113e-06	1373.9	376.89	3.3709e-06	4.8438e-06	428.82	142.17	123.69	42.789	4.9593e-06	52.769	0.00043231	0.00038887	0.00010697	1386.6	4.6737e-06	4.0927e-06	1389.3	381.22	4.5136e-06	3.9096e-06	433.43	145.23	126.2	43.645	3.857e-06	53.895	187.470	-55.849	-57.958	-110.012	24.500	35.898	-110.230	-105.707	-26.972	25.420	-106.019	-102.142	-101.311	-96.654	-14.506	-97.181	-8191	255	
1238.899	1	1	0	0	0.067604	0.047538	0.25243	0.15308	0.036064	0.21192	0.069779	0.12685	0.12464	0.21064	0.20504	0.38988	0.23215	0.12757	0.16341	0.077617	-3.05	-3.1229	-3.3812	-3.6542	-3.4167	-3.6167	-3.3875	-3.4208	-3.4208	-3.2375	-3.6604	-3.3604	-3.2542	-3.5125	-3.2438	-3.3646	-14.610	219.846	-107.152	45.297	-111.041	-19.652	178.406	-92.912	-17.778	-56.256	168.038	175.233	-74.059	173.523	-41.379	209.907	0.00032847	0.00051351	0.00015454	1381.5	2.2542e-06	6.1164e-06	1375.4	376.3	2.3019e-06	4.3069e-06	428.69	141.58	123.92	42.778	4.0748e-06	52.683	0.00038117	0.00032861	9.5781e-05	1389.3	3.8198e-06	3.3665e-06	1389	381.2	3.7914e-06	3.2804e-06	432.62	144.94	126.13	43.553	3.5486e-06	53.924	182.831	-52.939	-34.675	-110.120	8.521	31.464	-110.330	-105.616	16.210	4.635	-106.105	-102.204	-101.563	-96.712	30.793	-96.937	-8191	255	
1238.995	1	1	0	0	0.11471	0.11521	0.11936	0.21038	0.23639	0.1582	0.12381	0.16866	0.25206	0.14574	0.17222	0.28454	0.21392	0.2154	0.12663	0.11289	-3.0271	-3.2125	-3.5854	-3.5729	-3.1896	-3.5792	-3.4958	-3.4062	-3.3021	-3.175	-3.5354	-3.4979	-3.2125	-3.5979	-3.4979	-3.2125	-117.093	202.632	-119.549	-88.275	218.386	116.607	193.689	188.271	-119.189	-55.261	138.573	-103.975	115.643	148.152	73.336	-13.434	0.00031074	0.00058794	0.00014508	1381.5	2.848e-06	5.7408e-06	1373.7	375.31	2.9027e-06	4.6189e-06	428.08	142.54	124.07	42.828	5.0377e-06	52.627	0.00035479	0.00031027	9.4347e-05	1389.9	3.7355e-06	3.4833e-06	1390.3	380.88	3.8626e-06	3.4999e-06	433.07	145.13	126.19	43.583	3.8616e-06	53.87	189.775	-47.247	-72.745	-110.257	53.855	35.669	-110.287	-105.763	-23.063	53.627	-106.175	-102.020	-101.856	-96.723	22.795	-97.246	-8191	255	
1239.116	1	1	0	0	0.18839	0.36018	0.17519	0.3472	0.090862	0.18692	0.15918	0.17145	0.21158	0.075833	0.3206	0.12378	0.108	0.14513	0.078826	0.26472	-3.0146	-3.2521	-3.325	-3.7938	-3.1292	-3.4083	-3.5458	-3.4104	-3.4229	-3.1458	-3.4375	-3.6542	-3.1604	-3.6417	-3.6312	-3.2458	-18.310	142.818	-0.431	192.808	50.589	183.776	144.940	199.569	152.000	33.652	156.230	185.338	232.888	163.459	181.306	128.511	0.00033834	0.00057302	0.00018391	1385.3	3.0196e-06	4.8907e-06	1375.8	377.79	5.2701e-06	3.5327e-06	428.26	142.65	123.37	42.746	5.2603e-06	52.746	0.00036184	0.00032249	0.00010023	1390.2	3.5782e-06	3.5052e-06	1391.1	381.67	3.5448e-06	3.5205e-06	433.26	145.36	126.24	43.536	3.7589e-06	53.937	181.785	-41.274	-41.361	-110.282	15.207	18.826	-110.112	-105.798	-13.143	5.861	-105.880	-102.276	-101.534	-96.677	2.007	-97.360	-8191	255	
1239.188	1	1	0	0	0.1728	0.15076	0.16365	0.21007	0.21606	0.16621	0.099348	0.21059	0.095474	0.11844	0.28951	0.064504	0.17861	0.16783	0.10465	0.15399	-3.1063	-3.3688	-3.1937	-3.5312	-3.25	-3.5229	-3.5708	-3.3167	-3.4479	-3.1208	-3.3125	-3.5021	-3.1208	-3.5021	-3.4417	-3.1833	155.236	-83.293	-60.474	-86.200	176.817	0.378	29.070	-83.583	149.782	114.017	220.664	187.698	-118.094	-105.140	179.779	-79.536	0.00032475	0.00031793	0.00017821	1380.4	2.6172e-06	4.7705e-06	1379.2	377.19	3.1331e-06	5.7661e-06	427.74	142.73	124.11	42.734	2.8801e-06	52.444	0.00033405	0.00031271	9.8299e-05	1389	3.3936e-06	3.4425e-06	1390.2	381.32	3.4162e-06	3.4066e-06	432.9	145.24	126.36	43.59	3.6592e-06	53.753	185.781	-33.995	-33.775	-110.048	38.846	27.539	-110.184	-105.590	-46.930	13.319	-106.153	-102.475	-101.608	-96.706	34.586	-97.222	-8191	255	
1239.284	1	1	0	0	0.33616	0.24124	0.11978	0.13005	0.16801	0.048816	0.13009	0.21928	0.071404	0.1097	0.19515	0.22927	0.15538	0.26609	0.20036	0.14617	-3.1542	-3.2271	-3.2521	-3.7417	-3.2875	-3.4375	-3.4375	-3.2812	-3.475	-3.2792	-3.2521	-3.725	-3.4125	-3.2771	-3.1875	-3.1896	-111.431	-89.532	-62.704	-72.599	-22.283	95.545	230.113	162.306	-29.003	231.286	-62.052	205.416	183.564	202.025	133.461	161.174	0.000342	0.00039425	0.00011442	1375.7	2.7701e-06	4.1114e-06	1371.8	377.34	4.3831e-06	4.3725e-06	429.72	141.93	124.1	42.768	2.1478e-06	52.57	0.00031815	0.00030494	8.9867e-05	1386.4	3.2943e-06	3.357e-06	1388	381.19	3.2831e-06	3.4066e-06	433.84	145.22	126.15	43.596	3.5004e-06	53.827	182.635	-24.133	-38.771	-110.274	-5.528	43.828	-110.199	-105.712	-33.445	16.004	-105.843	-102.009	-101.576	-96.523	25.043	-97.241	-8191	255	
1239.380	1	1	0	0	0.2304	0.12233	0.17838	0.20801	0.059393	0.095873	0.25399	0.27943	0.056259	0.14313	0.31455	0.20415	0.16544	0.14705	0.19716	0.17777	-3.3021	-3.1562	-3.35	-3.7229	-3.0896	-3.4875	-3.875	-3.35	-3.3917	-3.3	-3.4521	-3.3792	-3.3479	-3.5146	-3.4646	-3.2438	198.833	20.900	-91.077	164.133	-102.270	228.087	228.989	156.538	-79.030	173.250	224.057	136.628	-118.047	165.954	216.412	171.074	0.0003347	0.00050417	0.00013875	1379.3	2.7844e-06	5.0869e-06	1376.6	376.53	3.7083e-06	4.0864e-06	425.83	141.75	124.48	43.048	5.2798e-06	52.627	0.00032393	0.00031081	8.7097e-05	1388.3	3.1735e-06	3.3904e-06	1389.8	380.86	3.1678e-06	3.1398e-06	432.1	144.82	126.33	43.575	2.9854e-06	53.724	184.773	-25.772	-49.801	-110.333	3.492	33.029	-110.279	-105.595	-13.086	-17.439	-105.793	-102.194	-101.584	-96.563	3.092	-97.204	-8191	255	
1239.501	1	1	0	0	0.19521	0.07409	0.31088	0.22485	0.018641	0.13619	0.21601	0.13904	0.015381	0.041811	0.24358	0.37298	0.093652	0.06073	0.13958	0.26043	-3.0687	-3.6562	-2.9188	-3.6979	-3.4292	-3.1937	-3.7687	-3.2542	-3.3021	-3.2812	-3.1021	-3.6063	-3.5833	-3.3229	-3.4583	-3.3271	-67.013	147.868	84.565	232.338	41.460	148.013	214.876	144.030	52.051	113.120	-56.157	170.677	188.026	217.362	-100.556	222.272	0.00034895	0.00043943	8.2037e-05	1375.7	2.8444e-06	3.8701e-06	1369.7	375.18	2.8059e-06	4.5886e-06	427.48	142.31	123.76	42.906	3.7467e-06	52.543	0.00029866	0.00027693	7.5339e-05	1385.9	2.9648e-06	3.0704e-06	1384.1	379.81	3.0804e-06	3.014e-06	431.2	144.88	125.99	43.527	2.7892e-06	53.666	184.908	-37.743	-52.210	-110.010	2.595	10.567	-110.311	-105.636	-1.138	16.011	-106.159	-101.986	-101.810	-96.807	3.067	-97.206	-8191	255	
1239.597	1	1	0	0	0.12483	0.092672	0.071508	0.24157	0.29412	0.1886	0.12696	0.30041	0.10728	0.19819	0.19061	0.35066	0.28744	0.14836	0.069118	0.17385	-3.0125	-3.3688	-3.1646	-3.5771	-3.1208	-3.3854	-3.5812	-3.5021	-3.4542	-3.575	-3.2375	-3.3104	-3.5	-3.4396	-3.5396	-3.2313	205.391	-81.148	234.565	-99.339	66.595	128.418	-121.765	141.881	36.210	168.534	69.956	206.083	164.151	103.367	-67.447	228.697	0.0003527	0.00043173	0.00010414	1375.2	3.3706e-06	4.9036e-06	1368.8	374.64	3.2384e-06	3.8107e-06	426.32	142.15	123.59	42.699	4.845e-06	52.637	0.00030334	0.00026931	6.9003e-05	1384.1	2.8976e-06	2.8201e-06	1384.5	379.16	2.8946e-06	2.6966e-06	430.85	144.62	125.85	43.448	2.6872e-06	53.693	187.203	-19.766	-41.087	-110.328	-4.148	31.964	-110.125	-105.781	-15.859	7.003	-105.904	-102.131	-101.622	-96.720	3.492	-97.230	-8191	255	
1239.693	1	1	0	0	0.036344	0.17053	0.30158	0.069015	0.09783	0.091595	0.13626	0.14487	0.18248	0.26319	0.19936	0.21994	0.042904	0.12091	0.14858	0.22493	-3.0812	-3.4646	-2.9625	-3.6104	-3.3729	-3.3458	-3.4813	-3.3729	-3.2917	-3.4313	-3.2313	-3.5687	-3.4729	-3.1479	-3.4437	-3.3042	99.328	6.231	58.172	219.408	172.594	230.797	217.686	175.041	-98.360	113.212	132.252	159.213	-38.585	-21.377	37.081	137.300	0.00034669	0.0004582	0.00016111	1375	2.3352e-06	3.4559e-06	1364.3	374.76	3.2838e-06	5.188e-06	426.89	142.53	123.76	42.722	4.3451e-06	52.588	0.00028692	0.00025286	6.4732e-05	1381.5	2.7575e-06	2.6506e-06	1381.7	379.63	2.881e-06	2.4964e-06	430.64	144.78	125.72	43.346	2.4467e-06	53.486	183.821	-24.511	-26.066	-110.180	30.260	42.980	-110.157	-105.793	-39.037	31.666	-105.963	-102.104	-101.548	-96.723	14.016	-97.351	-8191	255	
1239.789	1	1	0	0	0.37838	0.20001	0.080207	0.13208	0.15511	0.20542	0.21345	0.18997	0.24202	0.27999	0.28121	0.080317	0.15279	0.10599	0.13152	0.072244	-2.725	-3.4792	-3.2771	-3.4375	-3.2625	-3.3312	-3.7479	-3.1937	-3.3812	-3.6417	-3.3021	-3.5375	-3.5125	-3.3896	-3.4062	-3.2708	-23.120	21.559	226.194	210.665	129.729	190.538	190.382	130.574	121.440	48.880	199.456	-103.912	-104.588	89.596	77.651	162.487	0.00032751	0.00042386	0.00012548	1378.1	4.1916e-06	4.493e-06	1369.6	374.89	2.9152e-06	4.9214e-06	426.24	141.66	123.68	42.689	4.7695e-06	52.505	0.00027159	0.00022173	6.1248e-05	1382	2.63e-06	2.3628e-06	1381.1	379.2	2.7116e-06	2.3267e-06	430.47	144.39	125.7	43.309	2.4642e-06	53.563	184.631	-16.681	-61.600	-110.104	-1.684	6.942	-110.267	-105.693	-0.492	56.345	-106.068	-102.278	-101.534	-96.567	22.157	-97.398	-8191	255	
1239.883	1	1	0	0	0.21322	0.14555	0.21179	0.31634	0.080406	0.12872	0.21065	0.25315	0.20964	0.21637	0.24822	0.051191	0.094483	0.19102	0.14278	0.28102	-2.85	-3.6813	-3.0729	-3.5354	-3.3896	-3.0021	-3.7417	-3.4208	-3.1771	-3.6521	-3.4104	-3.4479	-3.3917	-3.3271	-3.5479	-3.4437	227.829	212.228	97.482	205.089	221.175	-31.911	137.158	152.169	147.883	0.612	228.110	136.950	218.408	-103.420	118.441	-75.740	0.00032057	0.00061091	0.00011629	1370.8	2.8702e-06	4.7513e-06	1367	375.55	3.7522e-06	4.6406e-06	425.98	142.51	123.95	42.54	2.0442e-06	52.319	0.00026335	0.00022059	6.2379e-05	1380	2.5708e-06	2.4065e-06	1380.9	378.78	2.6326e-06	2.3527e-06	430.24	144.59	125.68	43.301	2.4225e-06	53.478	185.408	-50.108	-70.243	-110.186	31.946	16.367	-110.269	-105.843	0.649	26.617	-106.225	-102.280	-101.535	-96.572	17.201	-97.310	-8191	255	
1239.980	1	1	0	0	0.085514	0.15234	0.19265	0.12086	0.18703	0.26665	0.21468	0.13777	0.11361	0.14605	0.095427	0.19682	0.16481	0.23848	0.052827	0.11478	-2.7687	-3.3438	-3.2167	-3.2938	-3.6437	-3.1042	-3.3729	-3.3896	-3.3479	-3.7521	-3.4833	-3.1354	-3.5646	-3.4646	-3.4146	-3.5812	151.109	190.123	133.802	218.787	-100.742	164.795	110.426	194.871	-112.406	165.440	133.124	221.807	-81.606	146.567	56.404	133.931	0.00031808	0.00046205	0.00011552	1369.3	3.7823e-06	3.7255e-06	1368.6	373.26	1.7745e-06	4.2989e-06	425.62	142.08	123.25	42.74	4.0379e-06	52.593	0.00027258	0.00022311	6.416e-05	1381.3	2.6607e-06	2.3631e-06	1380.8	378.31	2.6864e-06	2.4523e-06	430.57	144.43	125.57	43.274	2.6694e-06	53.54	185.472	-52.437	-40.606	-110.147	8.076	29.294	-110.264	-105.665	9.445	33.153	-105.944	-101.882	-101.598	-96.512	26.884	-97.321	-8191	255	
1240.078	1	1	0	0	0.12437	0.10332	0.033836	0.25416	0.12848	0.17924	0.19778	0.13111	0.35227	0.22056	0.1676	0.096543	0.27569	0.30047	0.020631	0.15009	-2.7375	-3.1208	-3.1354	-3.4125	-3.6625	-3.1729	-3.8042	-3.6854	-2.9896	-3.375	-3.5583	-3.3208	-3.4875	-3.3771	-3.3729	-3.5042	41.264	78.894	-117.409	159.089	102.328	-102.905	-111.369	174.591	207.585	-23.360	16.177	207.802	-84.460	181.270	174.934	-87.180	0.00034438	0.000471	0.00014124	1368.8	2.3954e-06	4.5786e-06	1366.2	372.78	2.7301e-06	5.0296e-06	427.53	141.58	123.41	42.719	3.616e-06	52.482	0.0002773	0.00022597	6.736e-05	1377.9	2.681e-06	2.4968e-06	1381.1	377.97	2.6479e-06	2.5693e-06	431.1	144.29	125.52	43.311	2.7245e-06	53.624	184.754	-59.164	-32.714	-110.034	1.921	23.166	-110.231	-105.459	-39.388	6.691	-105.893	-101.915	-101.518	-96.618	7.588	-96.888	-8191	255	
1240.196	1	1	0	0	0.11502	0.24393	0.15924	0.15215	0.31335	0.044873	0.32211	0.11884	0.11082	0.27222	0.081305	0.1563	0.21301	0.2002	0.11512	0.10903	-2.6896	-3.4854	-3.4938	-3.2479	-3.3708	-3.3958	-3.6667	-3.6229	-3.0854	-3.4521	-3.5563	-3.2604	-3.5375	-3.3729	-3.2125	-3.7188	-103.469	-68.803	32.700	168.099	-42.753	110.523	171.730	-91.713	143.809	-108.728	191.714	47.142	192.497	169.425	-43.668	172.770	0.00034646	0.00049874	0.00010649	1371.8	1.8076e-06	5.2366e-06	1362.3	373.28	3.0197e-06	5.3727e-06	426.26	141.74	122.81	42.665	3.6498e-06	52.525	0.0002658	0.00022568	6.6603e-05	1380.4	2.6069e-06	2.4747e-06	1381.4	378.35	2.6167e-06	2.5313e-06	430.3	144.38	125.36	43.311	2.6973e-06	53.57	187.332	-25.079	-47.496	-110.090	18.373	21.524	-110.146	-105.685	-9.054	9.723	-106.139	-102.120	-101.722	-96.794	-6.718	-97.003	-8191	255	
1240.293	1	1	0	0	0.079044	0.058948	0.18089	0.11681	0.18927	0.15247	0.020977	0.12861	0.18735	0.3098	0.14978	0.27261	0.25166	0.078037	0.13726	0.21572	-2.8333	-3.3042	-3.3375	-3.4396	-3.3792	-3.1167	-3.575	-3.6375	-3.1979	-3.3708	-3.4688	-3.3917	-3.5583	-3.1792	-3.4896	-3.5604	102.607	116.651	-102.507	150.655	-22.911	-50.890	-13.815	204.686	82.124	124.086	204.330	207.837	-88.272	190.202	4.366	213.284	0.00033777	0.00061245	0.0001618	1372.6	2.9497e-06	5.4478e-06	1363.2	372.85	3.8343e-06	4.6273e-06	427.36	141.74	122.99	42.671	5.257e-06	52.416	0.00026619	0.00023782	6.8365e-05	1379.9	2.5458e-06	2.5107e-06	1381	378.26	2.6517e-06	2.5492e-06	430.61	144.63	125.42	43.254	2.6768e-06	53.451	182.011	-37.474	-12.574	-110.003	15.651	21.582	-110.304	-105.791	-33.819	32.224	-105.956	-102.112	-101.607	-96.646	31.296	-97.146	-8191	255	
1240.389	1	1	0	0	0.14631	0.096493	0.091884	0.34878	0.083833	0.12276	0.19009	0.17211	0.21914	0.18129	0.099004	0.19024	0.086428	0.098926	0.1634	0.25369	-2.8229	-3.2458	-3.4167	-3.3542	-3.4729	-3.4354	-3.2958	-3.7917	-3.225	-3.5875	-3.6042	-3.1562	-3.4062	-3.55	-3.1937	-3.5646	76.486	14.697	160.548	173.939	63.290	-122.295	140.117	157.544	-72.705	234.339	114.134	131.242	-96.195	68.923	-99.429	194.608	0.00034067	0.00040609	0.0001217	1368.7	1.6675e-06	4.4762e-06	1363.3	374.04	3.759e-06	3.098e-06	427.51	142.07	123.44	42.499	5.4767e-06	52.31	0.00026412	0.00023551	6.4799e-05	1379.7	2.4539e-06	2.5011e-06	1380.5	378.51	2.571e-06	2.5104e-06	430.91	144.63	125.36	43.302	2.5235e-06	53.399	180.555	-46.159	-32.757	-110.156	20.404	32.818	-110.217	-105.637	-29.086	21.637	-106.183	-102.099	-101.461	-96.575	0.282	-97.159	-8191	255	
1240.485	1	1	0	0	0.15758	0.20478	0.095477	0.39505	0.10213	0.18196	0.34039	0.055544	0.10647	0.23131	0.086333	0.24291	0.068866	0.2569	0.17765	0.2725	-2.7604	-3.225	-3.5583	-3.2542	-3.4167	-3.125	-3.2938	-3.7396	-3.35	-3.3396	-3.5604	-3.3563	-3.7229	-3.575	-3.0896	-3.3792	93.844	41.931	156.642	204.274	191.304	-2.222	179.793	-91.265	179.663	68.340	29.283	154.517	-83.961	79.650	-46.479	235.627	0.00032485	0.00044059	0.00012635	1369.9	2.4371e-06	3.5206e-06	1363.5	373.86	3.1637e-06	5.112e-06	426.38	141.21	123.44	42.635	3.5394e-06	52.625	0.00026245	0.00022772	6.1296e-05	1376.4	2.5238e-06	2.4264e-06	1379.7	378.22	2.4333e-06	2.3768e-06	429.58	144.37	125.48	43.248	2.3906e-06	53.458	184.454	-37.366	-33.185	-109.852	-17.279	25.193	-110.067	-105.685	5.016	10.443	-105.996	-102.275	-101.451	-96.600	15.867	-97.099	-8191	255	
1240.581	1	1	0	0	0.11696	0.15626	0.27061	0.45236	0.15092	0.041882	0.37539	0.18603	0.01146	0.20913	0.086495	0.45347	0.18184	0.11873	0.20727	0.26458	-3.1063	-3.1604	-3.3271	-3.3271	-3.6	-3.3229	-3.2812	-3.4542	-3.5417	-3.1917	-3.5333	-3.1125	-3.6271	-3.4625	-3.1292	-3.3458	-21.289	76.915	-33.293	233.721	226.912	85.512	175.782	170.997	125.502	181.015	233.435	175.366	190.353	-93.210	14.793	123.230	0.00035715	0.00050576	0.0001601	1370.2	5.5139e-06	4.0985e-06	1363.5	373.26	2.3974e-06	6.1756e-06	427.63	141.62	122.98	42.578	3.803e-06	52.456	0.00025927	0.00021868	5.7332e-05	1377.7	2.4526e-06	2.3365e-06	1378.4	377.94	2.5127e-06	2.2739e-06	430.24	144.43	125.35	43.248	2.2143e-06	53.547	181.426	-35.643	-57.036	-110.036	15.087	42.552	-110.058	-105.642	-28.472	23.170	-106.174	-102.006	-101.461	-96.771	7.659	-97.278	-8191	255	
1240.677	1	1	0	0	0.25496	0.079205	0.13818	0.14355	0.058465	0.036632	0.17445	0.33958	0.22185	0.075009	0.2581	0.42036	0.27806	0.12517	0.1567	0.28131	-3.1333	-3.3792	-3.4688	-3.2917	-3.3479	-3.4938	-3.4167	-3.5604	-3.4417	-3.2417	-3.55	-3.2812	-3.4604	-3.5792	-3.0375	-3.5771	-58.638	190.899	-9.965	204.855	-97.250	171.936	16.139	164.087	25.596	51.942	227.728	228.351	213.407	233.769	108.707	116.807	0.00033427	0.00037574	0.00015312	1371.2	4.5222e-06	4.2088e-06	1363.1	373.9	3.3036e-06	4.5613e-06	427.18	141.21	122.56	42.439	4.3995e-06	52.486	0.00025452	0.00021216	5.838e-05	1376.9	2.506e-06	2.3227e-06	1378.4	378.49	2.4578e-06	2.337e-06	429.74	144.09	125.34	43.19	2.2924e-06	53.509	183.007	-23.157	-40.059	-110.241	4.375	31.810	-110.049	-105.491	-29.411	40.403	-105.738	-102.153	-101.627	-96.645	13.134	-97.105	-8191	255	
1240.798	1	1	0	0	0.21924	0.25891	0.026444	0.078718	0.12427	0.099237	0.27464	0.094163	0.21736	0.19546	0.18707	0.40965	0.29796	0.11692	0.16731	0.10343	-2.9708	-3.1583	-3.3458	-3.4625	-3.0604	-3.3917	-3.4417	-3.6437	-3.2854	-3.0875	-3.8729	-3.2313	-3.3229	-3.4208	-3.2687	-3.4979	194.678	-72.221	-75.085	169.957	223.845	-68.068	153.427	194.843	20.236	31.560	-95.370	128.900	137.364	-109.961	77.601	188.457	0.00034171	0.0004881	0.00017181	1370.5	4.2793e-06	3.109e-06	1366.7	373.36	2.3238e-06	3.6961e-06	423.61	141.31	122.76	42.586	4.2518e-06	52.596	0.00026081	0.00021249	5.9747e-05	1378.6	2.5611e-06	2.3406e-06	1378.9	378.13	2.593e-06	2.4256e-06	429.82	144.19	125.28	43.23	2.4774e-06	53.543	184.401	-44.683	-38.326	-110.055	20.503	41.617	-110.048	-105.694	-46.340	6.068	-106.026	-102.135	-101.634	-96.708	26.512	-97.171	-8191	255	
1240.892	1	1	0	0	0.14968	0.16029	0.19525	0.083043	0.11533	0.088238	0.13721	0.24492	0.10771	0.087348	0.35055	0.15237	0.35977	0.19634	0.21333	0.16641	-3.0917	-3.0563	-3.4896	-3.4896	-3.2833	-3.5062	-3.3396	-3.5625	-3.475	-3.3396	-3.6646	-3.4875	-3.3125	-3.5604	-3.0917	-3.2208	-116.060	-87.746	217.628	104.679	-109.525	130.118	210.934	187.481	144.135	-120.987	203.806	141.998	-55.612	203.906	84.588	168.534	0.00031982	0.00040894	0.00011832	1367.3	4.1659e-06	7.1322e-06	1363.7	372.02	3.6087e-06	4.0144e-06	426.23	141.79	122.91	42.641	5.1793e-06	52.267	0.00027955	0.00022674	6.2415e-05	1376.1	2.6933e-06	2.4785e-06	1379.1	378.1	2.7346e-06	2.4761e-06	430.39	144.58	125.39	43.278	2.5455e-06	53.45	182.067	-29.132	-31.133	-110.214	19.597	33.171	-110.282	-105.605	-7.889	8.380	-106.011	-102.236	-101.581	-96.601	10.909	-97.367	-8191	255	
1240.988	1	1	0	0	0.20743	0.23094	0.20853	0.071439	0.061033	0.11452	0.30169	0.23226	0.23859	0.14088	0.14829	0.089391	0.32879	0.20174	0.27269	0.096908	-3.1063	-3.3458	-3.4625	-3.4854	-3.0354	-3.4833	-3.4813	-3.4042	-3.2146	-3.2396	-3.5625	-3.4229	-3.2417	-3.5833	-3.3167	-3.1625	3.418	152.512	103.771	-50.988	-26.014	-62.651	136.466	191.869	150.001	81.376	126.173	-117.064	-102.373	-117.669	31.771	192.953	0.00031282	0.00049488	0.00010245	1369	2.4321e-06	4.4274e-06	1363	374.46	3.5019e-06	5.0571e-06	425.27	141.56	123.18	42.487	4.4272e-06	52.429	0.00027446	0.00023159	6.4046e-05	1377.4	2.6914e-06	2.328e-06	1379.5	378.63	2.7005e-06	2.418e-06	430.36	144.37	125.36	43.253	2.5226e-06	53.534	179.007	-46.042	-46.267	-110.178	-28.929	24.324	-110.289	-105.625	-10.352	28.369	-105.993	-102.045	-101.631	-96.667	7.640	-97.187	-8191	255	
1241.060	1	1	0	0	0.17492	0.073775	0.22808	0.16058	0.054616	0.058963	0.26285	0.27557	0.16896	0.25878	0.23083	0.12984	0.14467	0.084577	0.17602	0.080785	-3.0354	-3.225	-3.3083	-3.4625	-3.1708	-3.4437	-3.4333	-3.4708	-3.3167	-3.2458	-3.5271	-3.4083	-3.0438	-3.5646	-3.4583	-3.1854	145.189	-34.579	65.095	157.638	9.244	152.176	209.711	145.595	100.948	-64.252	167.582	74.999	132.539	141.179	-99.872	-44.834	0.00035238	0.0005193	0.00015555	1372.7	2.8103e-06	3.7521e-06	1361.5	372.49	2.3747e-06	2.7883e-06	425.03	141.33	123.13	42.429	3.5933e-06	52.443	0.00026772	0.0002196	6.3494e-05	1378.6	2.5495e-06	2.3242e-06	1379.4	377.97	2.5062e-06	2.2192e-06	430.08	144.27	125.38	43.295	2.4181e-06	53.545	188.800	-25.911	-31.754	-110.083	26.361	26.835	-110.190	-105.661	-19.416	36.205	-105.886	-102.210	-101.725	-96.767	-9.047	-97.322	-8191	255	
1241.158	1	1	0	0	0.26869	0.11923	0.23116	0.076521	0.23859	0.11695	0.1939	0.09442	0.21078	0.0793	0.38602	0.020432	0.29153	0.085915	0.15106	0.24374	-2.9896	-3.1354	-3.3021	-3.7396	-3.2062	-3.3854	-3.5979	-3.4938	-3.5146	-3.3375	-3.3375	-3.5854	-3.3896	-3.8354	-3.375	-3.3021	187.380	63.260	-82.556	167.846	186.993	97.521	167.193	-94.317	184.918	45.690	190.583	63.596	175.118	155.876	81.714	205.717	0.00031894	0.00055208	0.00012235	1372.9	5.6965e-06	5.0351e-06	1367.1	373.58	3.7258e-06	3.9168e-06	426.08	141.24	123.06	42.479	4.2939e-06	52.564	0.00025335	0.00020759	6.0689e-05	1381.8	2.3467e-06	2.2252e-06	1382.3	378.59	2.3308e-06	2.219e-06	430.3	144.4	125.43	43.3	2.3262e-06	53.552	182.687	-36.666	-24.749	-110.114	4.788	33.383	-110.240	-105.643	-4.625	22.036	-106.095	-102.112	-101.638	-96.689	8.571	-97.142	-8191	255	
1241.277	1	1	0	0	0.16452	0.31484	0.16648	0.27135	0.073964	0.12545	0.19909	0.13307	0.19641	0.079361	0.14134	0.14103	0.31339	0.065255	0.1352	0.13011	-3.0042	-3.2062	-3.2875	-3.7896	-3.2333	-3.5333	-3.4979	-3.4104	-3.6063	-3.5417	-3.4604	-3.525	-3.0583	-3.2958	-3.3563	-3.4104	142.719	164.234	-62.758	-110.291	140.769	-63.659	165.557	193.892	135.880	7.810	2.359	113.173	149.062	35.865	49.206	186.884	0.00033242	0.00064594	0.00013319	1368.5	2.5291e-06	4.0068e-06	1369.6	374.18	4.527e-06	1.3816e-06	424.96	141.23	123.13	42.449	3.5921e-06	52.369	0.00024471	0.00020232	5.7474e-05	1380	2.2416e-06	2.1972e-06	1380.8	378.75	2.2984e-06	2.085e-06	430.12	144.34	125.51	43.255	2.253e-06	53.414	188.271	-45.445	-46.679	-110.296	-10.914	29.026	-110.314	-105.732	-31.482	-19.451	-106.040	-102.301	-101.566	-96.587	1.341	-97.449	-8191	255	
1241.373	1	1	0	0	0.10905	0.25882	0.10908	0.14973	0.13643	0.049431	0.30199	0.17554	0.32951	0.12399	0.12068	0.14085	0.32933	0.077726	0.22786	0.16179	-3.2208	-3.3708	-3.3729	-3.6813	-3.1792	-3.5167	-3.4417	-3.1729	-3.4917	-3.3583	-3.3625	-3.6708	-3.4271	-3.2896	-3.2417	-3.1708	-79.067	-46.819	123.816	82.774	68.654	214.085	194.244	166.040	14.346	114.816	186.179	223.508	-101.311	-9.391	-0.298	20.451	0.00035668	0.00041032	0.00013128	1372.3	3.4735e-06	5.0038e-06	1365.1	373.33	1.7973e-06	2.9645e-06	425.86	141.97	123.54	42.573	3.7593e-06	52.644	0.00024536	0.00020038	5.7584e-05	1378.3	2.2189e-06	2.1429e-06	1379.6	378.59	2.1956e-06	2.0823e-06	430.45	144.43	125.56	43.29	2.1822e-06	53.525	182.473	-34.569	-42.012	-110.182	-8.375	34.369	-110.151	-105.870	-4.861	40.115	-106.092	-102.127	-101.740	-96.606	29.959	-97.266	-8191	255	
1241.469	1	1	0	0	0.084913	0.081816	0.20112	0.32584	0.29269	0.24217	0.10098	0.22753	0.18464	0.034674	0.079351	0.23635	0.19111	0.30724	0.19266	0.076844	-3.0521	-3.3	-3.2167	-3.6833	-3.2188	-3.3958	-3.5125	-3.2979	-3.6208	-3.4167	-3.4292	-3.5854	-3.4562	-3.3083	-3.4167	-3.2458	75.355	52.367	232.068	204.627	-21.696	-48.480	228.165	128.849	-19.746	217.851	-65.256	199.768	-105.240	227.725	78.882	222.742	0.00035792	0.00053229	0.00013008	1369.6	3.3739e-06	5.4347e-06	1366.8	373.63	3.8042e-06	4.0922e-06	427.01	141.46	123.65	42.621	4.8167e-06	52.481	0.00023906	0.00018791	5.2828e-05	1377.9	2.1462e-06	2.0983e-06	1380.8	378.52	2.1932e-06	2.0258e-06	430.02	144.33	125.69	43.292	2.0954e-06	53.421	183.865	-23.441	-44.456	-110.116	16.883	26.872	-110.149	-105.749	-25.054	26.158	-105.980	-101.872	-101.498	-96.897	11.237	-97.304	-8191	255	
1241.590	1	1	0	0	0.16852	0.33183	0.075181	0.27421	0.13557	0.10031	0.11774	0.15944	0.21132	0.12339	0.29792	0.1599	0.306	0.33604	0.10009	0.14172	-3.1479	-3.4458	-3.2208	-3.7313	-3.2729	-3.3563	-3.7479	-3.3875	-3.5167	-3.5312	-3.2125	-3.6729	-3.2646	-3.2875	-3.4583	-3.3167	-82.605	-41.907	-92.051	226.823	164.109	-18.675	155.266	146.805	-86.635	207.892	-66.227	217.507	192.303	-81.430	57.718	194.225	0.00032294	0.00045278	0.00012432	1368.2	1.6197e-06	3.265e-06	1365.8	373.66	3.9232e-06	3.4106e-06	425.05	141.59	123.21	42.464	4.3522e-06	52.237	0.00023595	0.000188	5.3443e-05	1378.4	2.1819e-06	2.0577e-06	1379.1	378.44	2.2635e-06	2.0388e-06	429.88	144.45	125.6	43.269	2.0676e-06	53.428	186.215	-31.598	-61.840	-110.145	21.644	10.580	-110.250	-105.629	-33.776	36.437	-106.151	-102.029	-101.547	-96.534	20.759	-96.805	-8191	255	
1241.661	1	1	0	0	0.02676	0.08725	0.11156	0.20996	0.086181	0.05363	0.31415	0.068905	0.13724	0.10711	0.098018	0.060113	0.28456	0.095188	0.21816	0.048797	-3.0083	-3.3688	-3.2438	-3.7	-3.4729	-3.3688	-3.8479	-3.4833	-3.3208	-3.3792	-3.3688	-3.4583	-3.4313	-3.425	-3.3688	-3.2542	124.816	72.026	-59.707	107.959	17.484	-39.376	140.913	164.770	-120.598	89.649	111.893	67.402	136.345	121.397	154.568	-95.710	0.00031929	0.00049322	0.00010838	1373.8	1.7844e-06	5.7333e-06	1364.5	373.71	2.7814e-06	4.5442e-06	426.32	141.23	123.47	42.506	4.403e-06	52.385	0.00023454	0.0001823	4.8533e-05	1378.9	2.081e-06	1.9097e-06	1379.8	377.61	2.1634e-06	1.8942e-06	429.47	144.09	125.32	43.243	1.9118e-06	53.349	184.135	-31.814	-44.590	-110.060	-25.982	25.981	-110.255	-105.536	7.955	12.884	-106.062	-101.885	-101.817	-96.636	17.396	-97.120	-8191	255	
1241.758	1	1	0	0	0.14977	0.32114	0.089006	0.2029	0.29122	0.21313	0.36226	0.23988	0.025321	0.04644	0.2626	0.066228	0.10144	0.25308	0.18587	0.19777	-2.8917	-3.3187	-3.0563	-3.4292	-3.2458	-3.15	-3.6271	-3.4313	-3.3146	-3.525	-3.3667	-3.6333	-3.5625	-3.3208	-3.475	-3.3729	24.811	12.192	118.853	147.434	16.288	-60.949	196.827	143.041	15.158	210.123	-109.670	-16.338	231.932	219.515	112.543	146.304	0.00029545	0.00034039	8.7822e-05	1364.3	4.1142e-06	5.6031e-06	1366.3	373.75	3.3199e-06	4.966e-06	426.1	141.71	122.59	42.526	4.7887e-06	52.363	0.00022589	0.000175	4.7004e-05	1375.1	2.0546e-06	1.8916e-06	1379.6	378.08	2.1365e-06	1.8923e-06	429.92	144.31	125.28	43.226	1.985e-06	53.431	184.113	-35.341	-49.501	-110.227	-7.448	35.588	-110.186	-105.671	-23.806	27.895	-106.173	-102.086	-101.514	-96.650	16.368	-97.249	-8191	255	
1241.878	1	1	0	0	0.23277	0.090585	0.092253	0.27338	0.037798	0.31759	0.16948	0.20705	0.075636	0.072693	0.077433	0.1968	0.23809	0.18952	0.21951	0.21802	-2.8	-3.4417	-3.2896	-3.7042	-3.4813	-3.1979	-3.5271	-3.6021	-3.3937	-3.65	-3.3479	-3.5833	-3.5292	-3.3333	-3.4271	-3.3625	174.998	64.955	-5.251	197.127	-2.506	199.143	137.718	193.885	-120.588	103.677	-102.991	-58.487	205.137	107.185	74.391	133.596	0.00032547	0.00044608	6.407e-05	1369.5	2.6562e-06	3.7249e-06	1362.8	373.15	3.874e-06	4.6826e-06	425.16	141.56	123.22	42.442	4.4742e-06	52.408	0.00023492	0.00017307	4.8206e-05	1376.7	2.0706e-06	1.9205e-06	1379.2	377.88	2.0568e-06	1.9225e-06	428.96	144.39	125.41	43.231	1.9917e-06	53.449	186.314	-32.766	-57.964	-110.298	-0.339	33.366	-110.353	-105.681	-0.259	15.096	-106.020	-101.986	-101.356	-96.689	-3.105	-97.032	-8191	255	
1241.973	1	1	0	0	0.21504	0.086758	0.28131	0.25276	0.055307	0.089483	0.40547	0.025078	0.12962	0.41484	0.035772	0.23913	0.12639	0.2554	0.27028	0.12219	-2.825	-3.4021	-3.2625	-3.5271	-3.475	-3.3458	-3.6854	-3.5729	-3.2938	-3.6937	-3.2875	-3.425	-3.6396	-3.1813	-3.475	-3.3708	59.350	136.881	-36.248	195.328	-61.814	174.981	173.965	-49.972	35.017	205.995	-112.482	141.850	79.672	-120.813	225.486	35.573	0.00033787	0.00040287	0.00012214	1366.4	1.6188e-06	4.2372e-06	1366.3	373.95	2.133e-06	4.7653e-06	425.85	141.65	123.52	42.577	4.7078e-06	52.412	0.00022644	0.00016913	4.7264e-05	1377.3	1.9599e-06	1.7838e-06	1378.4	378.15	2.0985e-06	1.7701e-06	430.01	144.26	125.48	43.235	1.9308e-06	53.401	188.517	-56.151	-36.749	-110.202	-4.779	17.285	-110.274	-105.602	-13.986	40.622	-106.159	-101.814	-101.538	-96.708	44.213	-97.155	-8191	255	
1242.069	1	1	0	0	0.079446	0.18223	0.070798	0.32341	0.14124	0.27813	0.30382	0.25412	0.054411	0.20966	0.22664	0.052492	0.26739	0.20166	0.12181	0.11549	-2.675	-3.5625	-3.2854	-3.4458	-3.6813	-3.1562	-3.65	-3.5021	-3.0958	-3.4833	-3.2958	-3.2583	-3.4938	-3.425	-3.375	-3.5229	126.180	-95.767	-13.419	-68.956	83.533	137.387	181.401	159.530	71.018	-80.555	162.201	180.415	185.938	-47.420	35.592	201.870	0.00033783	0.00055972	0.00014866	1370.2	4.154e-06	5.6514e-06	1362.7	373.63	2.8545e-06	4.3613e-06	423.82	141.74	123.36	42.695	4.1672e-06	52.355	0.00021943	0.00017503	4.5924e-05	1378.2	1.9513e-06	1.7707e-06	1379.7	378.05	2.0168e-06	1.7602e-06	429.91	144.37	125.46	43.334	1.8456e-06	53.442	184.622	-33.608	-40.639	-110.221	5.008	32.757	-110.266	-105.614	-12.370	24.785	-106.027	-102.150	-101.522	-96.609	16.742	-97.443	-8191	255	
1242.189	1	1	0	0	0.27059	0.07573	0.27196	0.20791	0.13965	0.052454	0.036069	0.19481	0.30529	0.1635	0.10084	0.16462	0.2353	0.17765	0.20514	0.058861	-2.7313	-3.4688	-3.1813	-3.0542	-3.6	-3.375	-3.4104	-3.6896	-3.0583	-3.3833	-3.3771	-3.5854	-3.6021	-3.25	-3.1729	-3.3792	-75.394	-91.446	71.001	175.600	78.564	224.837	122.866	177.054	28.855	230.081	235.017	137.978	165.453	128.018	-30.873	173.220	0.00033399	0.00044259	0.00013355	1371.8	2.2298e-06	4.7575e-06	1364.3	372.36	3.4378e-06	3.8733e-06	425.49	141.55	123.06	42.616	4.5199e-06	52.125	0.00021693	0.00016191	4.7256e-05	1378.9	1.9113e-06	1.7255e-06	1379.5	377.9	1.919e-06	1.6772e-06	429.47	144.32	125.39	43.317	1.9104e-06	53.426	180.870	-51.032	-50.141	-110.185	8.106	35.031	-110.428	-105.672	-17.058	20.557	-106.040	-102.157	-101.850	-96.664	23.412	-96.893	-8191	255	
1242.286	1	1	0	0	0.24016	0.254	0.028778	0.44618	0.044127	0.25582	0.18928	0.19641	0.20744	0.28478	0.23722	0.22869	0.084312	0.21377	0.16916	0.20873	-2.8271	-3.4083	-3.3354	-3.3646	-3.3958	-3.1833	-3.4396	-3.5104	-3.3896	-3.4417	-3.6354	-3.2875	-3.4875	-3.5292	-3.325	-3.5	-94.304	-19.335	-22.432	-108.112	94.470	87.807	-108.044	172.067	46.934	117.726	193.482	203.237	224.573	233.899	-41.007	-118.919	0.00032468	0.0005182	0.00012997	1372.2	3.8761e-06	4.398e-06	1364.2	372.82	3.8567e-06	4.4991e-06	424.84	141	123.51	42.433	2.9853e-06	52.587	0.00021471	0.00016167	4.5365e-05	1377.7	1.9227e-06	1.6832e-06	1380.6	377.95	1.9268e-06	1.6982e-06	429.65	144.27	125.43	43.284	1.8256e-06	53.468	184.042	-49.132	-49.990	-110.348	10.389	33.834	-110.309	-105.667	-20.522	25.705	-105.896	-102.014	-101.632	-96.506	37.609	-97.484	-8191	255	
1242.357	1	1	0	0	0.24818	0.12648	0.059993	0.16344	0.22764	0.027126	0.27281	0.26545	0.07265	0.16548	0.1949	0.14916	0.17228	0.22287	0.15381	0.35346	-2.7646	-3.2146	-3.4354	-3.5083	-3.5875	-3.35	-3.3792	-3.6562	-3.2854	-3.4458	-3.5958	-3.1583	-3.5292	-3.3333	-3.4354	-3.6604	180.465	-52.758	141.473	211.294	182.675	-10.681	195.662	204.504	-14.679	-82.784	166.810	159.960	-114.963	60.577	232.021	137.156	0.00032204	0.00041326	0.00013574	1366.9	3.4193e-06	5.0999e-06	1364.7	374.8	3.4506e-06	5.4389e-06	426.64	141.11	123.35	42.47	3.8433e-06	52.274	0.00021625	0.00016008	4.7351e-05	1378.2	1.8619e-06	1.7371e-06	1379.7	378.24	1.9438e-06	1.7539e-06	429.3	144.27	125.39	43.229	1.8654e-06	53.472	184.478	-38.397	-40.369	-110.150	8.549	25.265	-110.212	-105.766	-3.987	46.382	-106.002	-102.050	-101.506	-96.606	28.851	-97.178	-8191	255	
1242.478	1	1	0	0	0.030313	0.31137	0.18168	0.14462	0.047923	0.10323	0.11105	0.13161	0.25384	0.043857	0.11569	0.05292	0.056164	0.167	0.099896	0.084828	-2.7854	-3.475	-3.3271	-3.2729	-3.4104	-3.4208	-3.3937	-3.6646	-3.1604	-3.375	-3.5208	-3.2771	-3.6333	-3.4062	-3.1792	-3.6208	164.920	151.150	-82.450	183.239	-31.842	-91.076	184.555	220.422	29.583	161.604	-104.419	231.065	179.053	121.538	95.486	-12.432	0.00032271	0.00043048	0.00011363	1375.3	3.9917e-06	4.845e-06	1361.8	372.28	2.4829e-06	3.255e-06	423.92	141.9	123.32	42.651	4.393e-06	52.389	0.00021266	0.00016054	4.6173e-05	1379.8	1.8501e-06	1.7563e-06	1377.6	377.6	1.908e-06	1.7436e-06	429.22	144.39	125.42	43.284	1.8271e-06	53.462	182.885	-43.682	-34.942	-110.137	15.123	36.053	-110.252	-105.831	-0.321	24.297	-105.839	-102.154	-101.634	-96.462	15.276	-97.301	-8191	255	
1242.574	1	1	0	0	0.063639	0.1848	0.078649	0.08292	0.23097	0.037678	0.25231	0.2187	0.22619	0.1753	0.17404	0.18914	0.092113	0.23223	0.21778	0.24725	-2.8875	-3.3312	-3.6063	-3.5604	-3.4208	-3.4688	-3.3792	-3.6479	-3.2104	-3.2708	-3.4625	-3.2042	-3.6896	-3.5625	-3.1729	-3.4521	131.942	151.895	164.224	212.909	89.103	-33.856	172.118	157.068	53.189	-89.658	-91.350	164.995	222.645	190.895	151.719	172.018	0.00035533	0.00041368	0.00013783	1369.2	3.7171e-06	4.9659e-06	1366.4	372.68	3.7486e-06	5.2771e-06	425.53	141.52	122.91	42.461	4.2742e-06	52.248	0.00021436	0.0001603	4.5436e-05	1378.1	1.8722e-06	1.7169e-06	1379.9	378.18	1.9525e-06	1.7484e-06	430.27	144.36	125.45	43.23	1.822e-06	53.362	182.815	-34.102	-45.495	-110.186	3.957	45.005	-110.156	-105.729	-41.590	29.025	-105.921	-102.118	-101.609	-96.757	16.414	-97.009	-8191	255	
1242.670	1	1	0	0	0.13955	0.2126	0.15361	0.15196	0.29845	0.27647	0.15895	0.1606	0.081888	0.30999	0.20802	0.22745	0.32339	0.31307	0.25374	0.22679	-2.7417	-3.2292	-3.3625	-3.2583	-3.2625	-3.3417	-3.35	-3.5646	-3.5104	-3.3021	-3.7104	-3.2542	-3.3042	-3.4917	-3.1375	-3.5	-27.239	211.562	96.243	-90.372	78.828	8.696	154.951	205.637	186.342	117.477	142.643	163.788	228.593	234.123	216.241	167.076	0.0003347	0.00040254	0.00015432	1368.8	2.8152e-06	3.4336e-06	1368.3	374.49	3.8561e-06	5.1309e-06	424.8	140.92	122.79	42.599	3.7007e-06	52.232	0.00021555	0.0001685	4.4151e-05	1380	1.893e-06	1.7668e-06	1379.5	378.03	1.934e-06	1.7381e-06	429.6	143.9	125.27	43.269	1.8479e-06	53.366	186.531	-43.033	-40.031	-109.960	11.874	34.603	-110.374	-105.584	-46.288	32.862	-105.881	-102.113	-101.692	-96.843	13.930	-97.250	-8191	255	
1242.766	1	1	0	0	0.42103	0.076257	0.1851	0.01946	0.19904	0.018873	0.053296	0.12728	0.14602	0.06709	0.17275	0.11885	0.15639	0.048848	0.01787	0.098486	-2.8833	-3.0896	-3.5979	-3.3063	-3.4688	-3.4292	-3.4042	-3.4792	-3.1667	-3.0542	-3.5187	-3.5125	-3.3146	-3.75	-3.3292	-3.6375	108.105	209.376	-8.606	126.336	-17.857	-43.024	-26.125	-64.268	59.685	98.384	183.884	19.245	-68.852	83.751	107.881	-85.361	0.00033202	0.00048666	0.00013849	1368.9	2.9916e-06	3.9609e-06	1364.2	372.62	3.0098e-06	4.1383e-06	426.14	141.32	122.76	42.562	4.5814e-06	52.331	0.00021806	0.00016533	4.5452e-05	1378.5	1.8827e-06	1.6953e-06	1379.2	378.03	1.9918e-06	1.7518e-06	430.18	144.1	125.38	43.266	1.7564e-06	53.405	187.567	-36.706	-28.792	-110.245	22.542	35.093	-110.310	-105.579	-36.509	6.002	-105.930	-102.067	-101.572	-96.616	6.467	-97.249	-8191	255	
1242.861	1	1	0	0	0.12677	0.13364	0.12011	0.39221	0.12809	0.24168	0.23775	0.32156	0.18628	0.11468	0.39942	0.050284	0.21761	0.29675	0.20055	0.15773	-3.1333	-3.2646	-3.4437	-3.4854	-3.3208	-3.7208	-3.5229	-3.6375	-3.3937	-3.2521	-3.6458	-3.4708	-3.5271	-3.8292	-3.2521	-3.4125	164.836	31.276	-73.110	223.778	-82.838	-86.683	214.544	177.169	-10.120	152.364	120.107	230.175	204.550	233.291	155.556	123.574	0.00034102	0.00052187	0.00010782	1364.8	3.2089e-06	5.1541e-06	1366.1	372.85	3.6052e-06	3.827e-06	426.09	141.42	122.8	42.604	4.3627e-06	52.284	0.00021359	0.00015875	4.4896e-05	1377.7	1.8848e-06	1.713e-06	1379.5	377.78	1.9819e-06	1.7634e-06	429.79	144.02	125.4	43.257	1.8564e-06	53.343	185.247	-36.886	-31.121	-110.061	9.869	30.933	-110.098	-105.657	-24.960	27.425	-105.910	-101.982	-101.488	-96.661	12.826	-97.428	-8191	255	
1242.957	1	1	0	0	0.23426	0.14676	0.21839	0.1636	0.21436	0.14383	0.16736	0.068671	0.098729	0.19533	0.25229	0.15248	0.20612	0.24724	0.064446	0.1917	-2.9729	-3.2812	-3.6021	-3.5333	-3.1229	-3.5396	-3.3417	-3.5771	-3.3896	-3.2292	-3.5563	-3.4188	-3.3979	-3.6875	-3.1417	-3.5229	64.495	-78.787	17.402	222.239	-99.643	9.353	187.117	110.436	-100.460	74.260	183.502	87.630	-48.739	213.508	-51.361	148.843	0.0003199	0.0005272	0.00010211	1371.5	2.6187e-06	4.2146e-06	1360.7	372.88	3.247e-06	4.2228e-06	424.03	141.11	122.83	42.362	5.4591e-06	52.523	0.0002156	0.00016406	4.5129e-05	1379.6	1.9267e-06	1.7771e-06	1379.5	378.02	1.9761e-06	1.7361e-06	428.79	144.1	125.3	43.167	1.8356e-06	53.447	181.093	-36.777	-44.398	-110.287	13.248	29.508	-110.244	-105.574	-18.736	31.949	-106.020	-102.218	-101.576	-96.642	13.822	-97.195	-8191	255	
1243.053	1	1	0	0	0.13506	0.11686	0.24965	0.23486	0.20194	0.1817	0.21343	0.23093	0.082308	0.19562	0.1768	0.047437	0.16892	0.13753	0.088141	0.096385	-3.125	-3.3583	-3.5604	-3.4979	-3.2667	-3.425	-3.4688	-3.4125	-3.4521	-3.1729	-3.6875	-3.5479	-3.4021	-3.5812	-3.0771	-3.3771	-109.851	-101.943	100.838	234.444	-53.385	49.995	124.646	149.492	80.665	177.847	163.603	212.447	208.032	-103.336	-108.869	7.530	0.00033223	0.00043917	0.00010353	1367.8	2.417e-06	4.8286e-06	1361.4	371.62	2.4905e-06	4.1551e-06	424.97	141.33	122.69	42.57	3.938e-06	52.431	0.00021201	0.00016157	4.4045e-05	1379	1.883e-06	1.6907e-06	1380.5	377.27	1.9144e-06	1.7378e-06	429.8	144.1	125.15	43.247	1.9013e-06	53.438	187.398	-43.506	-41.202	-110.100	-14.480	23.051	-110.297	-105.610	-34.485	26.791	-106.176	-102.227	-101.697	-96.640	5.173	-97.320	-8191	255	
1243.149	1	1	0	0	0.082394	0.13189	0.15593	0.081506	0.061697	0.094379	0.01814	0.1127	0.10798	0.064694	0.23165	0.21552	0.32273	0.11764	0.211	0.041759	-3.0958	-3.2271	-3.4167	-3.6021	-3.0229	-3.3458	-3.4771	-3.2354	-3.5833	-3.2958	-3.5479	-3.7083	-3.2396	-3.5146	-3.0875	-3.2979	1.952	161.106	-4.188	143.536	-21.284	-17.804	233.929	-24.489	47.518	65.847	-123.105	198.953	219.831	-111.263	-33.328	-44.431	0.00033415	0.00044924	0.00010055	1368.6	3.2453e-06	4.2127e-06	1365.1	373.06	2.8275e-06	3.6465e-06	424	141.81	122.66	42.468	4.0698e-06	52.581	0.00021699	0.00016508	4.4943e-05	1379.1	1.9089e-06	1.7651e-06	1381	377.57	1.9326e-06	1.8208e-06	428.99	144.33	125.13	43.172	1.8991e-06	53.44	183.248	-35.136	-37.298	-110.126	13.724	37.726	-110.219	-105.629	-26.855	17.058	-105.873	-102.138	-101.688	-96.681	11.405	-97.061	-8191	255	
1243.270	1	1	0	0	0.13983	0.090466	0.12559	0.21367	0.09477	0.10828	0.20086	0.18374	0.14824	0.057655	0.16411	0.15372	0.23028	0.11705	0.16291	0.17898	-3.1375	-3.2771	-3.4854	-3.5667	-3.3271	-3.4208	-3.4021	-3.2667	-3.5667	-3.1813	-3.4771	-3.775	-3.4604	-3.6521	-3.3208	-3.2333	125.420	84.839	-6.345	177.356	162.954	82.173	145.915	201.236	46.625	38.213	197.975	168.054	-71.455	145.511	65.188	172.304	0.00033728	0.00042397	0.0001571	1369.3	3.6525e-06	3.8063e-06	1363.8	372.65	3.8044e-06	3.6739e-06	425.42	141.44	122.71	42.532	3.8931e-06	52.218	0.00022176	0.00016687	4.8328e-05	1379.3	1.9724e-06	1.8208e-06	1381.1	377.48	2.0172e-06	1.8549e-06	429.49	144.35	125.27	43.21	1.9537e-06	53.422	185.772	-26.550	-43.265	-110.280	16.384	32.306	-110.308	-105.584	-47.363	25.109	-106.064	-101.893	-101.587	-96.630	0.589	-97.254	-8191	255	
1243.366	1	1	0	0	0.16291	0.117	0.11488	0.23355	0.04067	0.090634	0.28135	0.24944	0.076851	0.11971	0.27922	0.23878	0.36959	0.22431	0.15416	0.20453	-3.0417	-3.1917	-3.4	-3.6562	-3.2146	-3.4646	-3.5479	-3.1979	-3.4375	-3.2479	-3.3583	-3.7708	-3.275	-3.3542	-3.4021	-3.1458	171.681	168.211	190.934	187.055	142.782	105.446	128.180	126.666	220.958	222.307	168.274	54.936	181.552	171.637	-51.105	178.106	0.00030232	0.00051057	0.00011609	1369.3	3.0624e-06	4.8369e-06	1359.2	372.62	1.15e-06	4.1673e-06	424.4	141.15	123.17	42.334	4.4783e-06	52.256	0.00021511	0.00016713	4.6949e-05	1378.4	1.9156e-06	1.8153e-06	1379.1	377.86	1.9026e-06	1.7063e-06	429.13	144.34	125.49	43.199	1.9898e-06	53.416	184.045	-23.509	-59.596	-110.311	18.633	23.223	-110.316	-105.521	15.347	26.104	-105.994	-102.130	-101.553	-96.558	12.538	-97.254	-8191	255	
1243.462	1	1	0	0	0.042357	0.09898	0.12755	0.21537	0.2588	0.13852	0.14061	0.25594	0.20202	0.14423	0.15906	0.089337	0.21016	0.35347	0.063523	0.10718	-2.9458	-3.3521	-3.1375	-3.6875	-3.2146	-3.3875	-3.5583	-3.4292	-3.4625	-3.2729	-3.3208	-3.6063	-3.4708	-3.4646	-3.5667	-3.125	-50.355	215.398	168.308	153.483	113.723	-22.229	161.710	123.459	56.855	220.911	107.734	213.817	140.896	-112.036	23.922	213.332	0.00033661	0.0003751	0.00014481	1363.4	2.0806e-06	5.5798e-06	1359.9	371.64	2.8545e-06	3.9995e-06	424.43	141.77	122.41	42.532	4.2438e-06	52.367	0.00021719	0.00016695	4.81e-05	1377.5	1.9181e-06	1.8473e-06	1380.2	377.39	2.0056e-06	1.8228e-06	429.04	144.59	125.26	43.268	1.947e-06	53.47	184.988	-44.613	-48.615	-110.191	31.909	24.251	-110.331	-105.680	-33.833	22.517	-106.038	-102.200	-101.631	-96.663	18.381	-97.140	-8191	255	
1243.558	1	1	0	0	0.040111	0.13787	0.144	0.10066	0.16975	0.22438	0.032635	0.21801	0.15749	0.21332	0.10146	0.1471	0.22464	0.14535	0.27087	0.1966	-3.0229	-3.3729	-3.3187	-3.6875	-3.2583	-3.3042	-3.5312	-3.3979	-3.5354	-3.4708	-3.2771	-3.5438	-3.525	-3.2896	-3.5	-3.1208	164.922	-35.950	97.317	177.844	95.747	102.898	-87.402	193.899	220.182	211.540	211.015	83.811	164.576	-105.909	80.411	-85.300	0.0003309	0.00045391	0.00012213	1375.4	2.6454e-06	4.5959e-06	1367.6	372.88	2.268e-06	3.0742e-06	425.11	141.6	123.62	42.394	4.5187e-06	52.628	0.00022028	0.00017373	4.8419e-05	1382.6	1.9749e-06	1.8813e-06	1382	378.05	1.9918e-06	1.8409e-06	429.34	144.37	125.69	43.199	1.9886e-06	53.449	183.932	-26.888	-35.403	-110.118	-0.739	27.626	-110.377	-105.725	-28.862	32.969	-105.980	-102.062	-101.788	-96.832	19.111	-97.363	-8191	255	
1243.654	1	1	0	0	0.23062	0.072109	0.12583	0.4374	0.10338	0.23574	0.04298	0.25977	0.066876	0.089121	0.3379	0.21042	0.17348	0.26189	0.19683	0.27959	-3.1979	-3.4437	-3.1125	-3.6271	-3.4396	-3.575	-3.7167	-3.2854	-3.3312	-3.3896	-3.3042	-3.5375	-3.55	-3.2854	-3.6042	-3.275	214.194	-103.498	-48.854	198.732	7.380	192.027	194.230	-100.134	123.954	189.001	165.333	184.576	-89.095	108.208	31.624	220.781	0.00033515	0.00032646	0.00012765	1363.8	2.307e-06	5.3989e-06	1347.9	368.69	3.5784e-06	3.489e-06	420.04	139.71	121.57	41.911	5.0129e-06	51.273	0.00022364	0.00017299	4.8127e-05	1379.8	1.9529e-06	1.8237e-06	1378.4	376.91	1.9345e-06	1.8165e-06	428.93	144.07	125.35	43.079	1.8973e-06	53.165	185.515	-29.452	-40.996	-110.384	-12.962	34.079	-110.466	-105.806	-32.622	25.108	-106.366	-102.226	-101.779	-96.782	8.655	-97.529	-8191	255	
1243.750	1	1	0	0	0.22275	0.21623	0.097888	0.26923	0.12072	0.25352	0.15328	0.12393	0.17484	0.089859	0.1444	0.37385	0.42818	0.11127	0.07208	0.054373	-2.9021	-3.5771	-3.1583	-3.6167	-3.2729	-3.2146	-3.65	-3.4979	-3.4104	-3.4896	-3.3271	-3.7792	-3.5312	-3.2938	-3.5583	-3.3333	175.538	-94.537	-0.876	180.676	-107.283	114.859	206.312	198.976	210.076	59.746	-104.751	147.846	-102.467	229.490	22.940	-103.150	0.00030725	0.00041858	0.00011133	1344.8	3.0571e-06	4.8475e-06	1346.4	367.78	3.6667e-06	3.6687e-06	416.83	139.11	120.59	41.763	3.4997e-06	51.425	0.00021864	0.00017257	4.5491e-05	1375.9	2.007e-06	1.8177e-06	1379.2	377.34	2.0304e-06	1.7718e-06	427.93	143.94	124.9	43.11	1.9082e-06	53.249	186.347	-38.285	-40.954	-110.274	5.934	43.495	-110.554	-105.975	-18.747	50.365	-106.213	-102.381	-101.800	-96.828	6.509	-97.594	-8191	255	
1243.871	1	1	0	0	0.021559	0.089654	0.096512	0.34845	0.096832	0.038065	0.2337	0.12172	0.1228	0.25788	0.35514	0.036899	0.15612	0.074357	0.13695	0.097639	-3	-3.5021	-2.9979	-3.4854	-3.2229	-3.1646	-3.7354	-3.4479	-3.3354	-3.45	-3.4604	-3.5479	-3.6042	-3.3396	-3.45	-3.5542	-81.248	17.083	-58.611	225.994	122.950	100.559	192.685	137.630	195.673	122.972	146.524	-80.717	215.463	184.337	66.817	193.251	0.00032751	0.00051286	0.00015111	1346.8	3.9716e-06	5.2922e-06	1346.9	367.87	3.0711e-06	5.5972e-06	417.84	139.97	121.37	41.636	3.7705e-06	51.483	0.00022322	0.00017349	4.6078e-05	1377.2	1.9309e-06	1.7463e-06	1379.4	376.87	1.9852e-06	1.8678e-06	428.18	144.04	125.08	43.059	1.8911e-06	53.208	182.240	-23.659	-58.754	-110.430	-3.687	37.590	-110.436	-105.981	-17.333	25.942	-106.479	-102.361	-101.935	-97.159	9.374	-97.332	-8191	255	
1243.966	1	1	0	0	0.19354	0.28701	0.1744	0.14708	0.098729	0.10801	0.24338	0.34551	0.12133	0.12037	0.1873	0.24729	0.13667	0.21303	0.12009	0.11168	-2.8563	-3.3063	-2.9979	-3.5729	-3.5021	-3.2938	-3.6021	-3.4146	-3.2604	-3.5312	-3.2333	-3.6354	-3.5292	-3.3271	-3.5417	-3.1333	39.110	229.805	-85.037	205.480	2.267	165.095	218.136	168.157	-88.343	160.753	-78.276	-103.301	215.035	107.240	-23.470	220.998	0.00032885	0.0004379	0.00010312	1351.2	1.9855e-06	3.2112e-06	1343.6	366.81	2.8595e-06	3.5236e-06	419.16	138.54	120.9	41.811	3.3387e-06	51.388	0.00022156	0.00016703	4.6847e-05	1376.3	2.0234e-06	1.7802e-06	1376.2	376.66	1.9559e-06	1.8601e-06	428.45	143.54	124.82	43.088	1.9594e-06	53.175	186.079	-34.058	-29.729	-110.370	21.913	38.029	-110.422	-105.968	-19.534	17.802	-106.472	-102.391	-101.794	-97.114	17.132	-97.633	-8191	255	
1244.062	1	1	0	0	0.11948	0.11217	0.071139	0.31109	0.11333	0.036201	0.16444	0.059224	0.078027	0.11395	0.075758	0.31089	0.17337	0.076001	0.063899	0.12267	-2.8458	-3.525	-3.1708	-3.4479	-3.5083	-3.3063	-3.7	-3.4083	-3.1521	-3.5958	-3.4313	-3.2542	-3.6229	-3.5333	-3.5312	-3.4021	-47.055	38.749	27.380	-107.587	231.272	126.864	139.785	54.947	-8.787	78.736	152.226	-86.748	-104.912	-42.259	150.461	154.897	0.00032818	0.00035053	0.00014238	1345.1	2.4479e-06	4.7071e-06	1343.9	365.62	3.8249e-06	3.2382e-06	416.26	138.8	120.82	41.728	2.2451e-06	51.495	0.00023029	0.00018086	4.8395e-05	1375.2	2.0947e-06	1.8494e-06	1376.8	376.23	2.127e-06	1.9045e-06	428.17	143.75	124.85	43.056	1.8964e-06	53.21	182.456	-10.430	-55.169	-110.435	-7.573	19.979	-110.470	-106.083	-11.007	43.687	-106.390	-102.418	-101.873	-96.867	-29.876	-97.636	-8191	255	
1244.158	1	1	0	0	0.22324	0.20478	0.019122	0.13474	0.18743	0.049019	0.10121	0.19882	0.12004	0.16682	0.1463	0.18545	0.17338	0.1121	0.13812	0.15384	-2.8812	-3.4417	-3.3667	-3.3333	-3.5229	-3.3937	-3.7313	-3.5083	-3.1937	-3.5208	-3.5187	-3.6312	-3.7958	-3.4729	-3.4437	-3.5479	-4.998	147.260	-38.415	100.787	-2.670	187.926	145.322	150.696	-52.215	-71.946	134.477	174.134	172.727	113.784	27.899	122.023	0.00031705	0.00042252	0.00013265	1345	3.4534e-06	4.5008e-06	1339.4	364.96	2.6364e-06	4.5382e-06	416.58	138.64	120.57	41.541	2.5864e-06	51.174	0.00021984	0.00017454	4.7154e-05	1374.2	2.0073e-06	1.8094e-06	1376.8	376.25	2.0379e-06	1.7594e-06	427.71	143.59	124.68	42.921	1.8878e-06	53.144	180.500	-37.411	-40.146	-110.503	46.004	30.228	-110.609	-105.968	-33.054	17.845	-106.181	-102.458	-102.209	-96.904	6.764	-97.472	-8191	255	
1244.254	1	1	0	0	0.10959	0.059274	0.24987	0.05622	0.026655	0.19169	0.18627	0.067633	0.067057	0.16905	0.27882	0.048174	0.20862	0.089261	0.13601	0.22161	-2.7375	-3.3792	-3.4375	-3.3937	-3.4542	-3.3312	-3.7292	-3.7208	-3.3521	-3.45	-3.4875	-3.4542	-3.7167	-3.4271	-3.4792	-3.4979	126.188	156.921	-90.997	10.841	96.060	83.423	231.100	223.695	208.432	201.217	144.251	193.121	168.263	-33.541	202.860	118.983	0.00034104	0.0004368	0.00014562	1344.8	4.2225e-06	4.2046e-06	1338.6	364.52	3.1227e-06	3.6298e-06	416.37	138.23	120.3	41.653	3.9928e-06	51.239	0.00022609	0.00017	4.9542e-05	1374.5	1.9324e-06	1.7722e-06	1376	375.88	2.0084e-06	1.8284e-06	426.97	143.56	124.61	42.914	2.0302e-06	53.119	188.312	-30.008	-40.900	-110.436	6.920	29.775	-110.582	-105.984	-44.148	37.595	-106.390	-102.128	-101.739	-96.831	-4.845	-97.483	-8191	255	
#DATA ENDS
