BOXY.EXE: ISS Imagent and Oximeter Data Acquisition Program Version 0.80
Ascii Record File

#ACQ INFORMATION
2  Detector Channels 
16  External MUX Channels 
1  Auxiliary Channels 
5000  Waveform (CCF) Frequency (Hz)
1  Waveforms Skipped 
30  Waveforms Averaged 
1  Cycles Averaged 
16  Acquisitions per Waveform 
10.0806  Updata Rate (Hz) 

#FILE INFORMATION
TRUE -- External MUX Channel results are PARSED.
FALSE -- AC DC and Phase are NOT grouped.
TRUE -- Companion Program Settings File CREATED.
FALSE -- AC data not excluded
FALSE -- DC data not excluded
FALSE -- Phase data not excluded
FALSE -- Auxillary Chn. data not excluded
Tab delimiters

#CALIBRATION STATE
TRUE -- Waveform Calibration Values APPLIED.


#AUX CALIBRATION VALUES
Val Type	aux-1	

Term	1.0000e+00	
Factor	0.0000e+00	


#WF CALIBRATION VALUES
A = Detector Channel
Val Type	A-AC1	A-AC2	A-AC3	A-AC4	A-AC5	A-AC6	A-AC7	A-AC8	A-AC9	A-AC10	A-AC11	A-AC12	A-AC13	A-AC14	A-AC15	A-AC16	A-DC1	A-DC2	A-DC3	A-DC4	A-DC5	A-DC6	A-DC7	A-DC8	A-DC9	A-DC10	A-DC11	A-DC12	A-DC13	A-DC14	A-DC15	A-DC16	A-Ph1	A-Ph2	A-Ph3	A-Ph4	A-Ph5	A-Ph6	A-Ph7	A-Ph8	A-Ph9	A-Ph10	A-Ph11	A-Ph12	A-Ph13	A-Ph14	A-Ph15	A-Ph16	

Term	0.00000e+00	0.00000e+00	0.00000e+00	0.00000e+00	0.00000e+00	0.00000e+00	0.00000e+00	0.00000e+00	0.00000e+00	0.00000e+00	0.00000e+00	0.00000e+00	0.00000e+00	0.00000e+00	0.00000e+00	0.00000e+00	0.00000e+00	0.00000e+00	0.00000e+00	0.00000e+00	0.00000e+00	0.00000e+00	0.00000e+00	0.00000e+00	0.00000e+00	0.00000e+00	0.00000e+00	0.00000e+00	0.00000e+00	0.00000e+00	0.00000e+00	0.00000e+00	0.00000e+00	0.00000e+00	0.00000e+00	0.00000e+00	0.00000e+00	0.00000e+00	0.00000e+00	0.00000e+00	0.00000e+00	0.00000e+00	0.00000e+00	0.00000e+00	0.00000e+00	0.00000e+00	0.00000e+00	0.00000e+00	
Factor	1.00000e+00	1.00000e+00	1.00000e+00	1.00000e+00	1.00000e+00	1.00000e+00	1.00000e+00	1.00000e+00	1.00000e+00	1.00000e+00	1.00000e+00	1.00000e+00	1.00000e+00	1.00000e+00	1.00000e+00	1.00000e+00	1.00000e+00	1.00000e+00	1.00000e+00	1.00000e+00	1.00000e+00	1.00000e+00	1.00000e+00	1.00000e+00	1.00000e+00	1.00000e+00	1.00000e+00	1.00000e+00	1.00000e+00	1.00000e+00	1.00000e+00	1.00000e+00	X	X	X	X	X	X	X	X	X	X	X	X	X	X	X	X	

B = Detector Channel
Val Type	B-AC1	B-AC2	B-AC3	B-AC4	B-AC5	B-AC6	B-AC7	B-AC8	B-AC9	B-AC10	B-AC11	B-AC12	B-AC13	B-AC14	B-AC15	B-AC16	B-DC1	B-DC2	B-DC3	B-DC4	B-DC5	B-DC6	B-DC7	B-DC8	B-DC9	B-DC10	B-DC11	B-DC12	B-DC13	B-DC14	B-DC15	B-DC16	B-Ph1	B-Ph2	B-Ph3	B-Ph4	B-Ph5	B-Ph6	B-Ph7	B-Ph8	B-Ph9	B-Ph10	B-Ph11	B-Ph12	B-Ph13	B-Ph14	B-Ph15	B-Ph16	

Term	0.00000e+00	0.00000e+00	0.00000e+00	0.00000e+00	0.00000e+00	0.00000e+00	0.00000e+00	0.00000e+00	0.00000e+00	0.00000e+00	0.00000e+00	0.00000e+00	0.00000e+00	0.00000e+00	0.00000e+00	0.00000e+00	0.00000e+00	0.00000e+00	0.00000e+00	0.00000e+00	0.00000e+00	0.00000e+00	0.00000e+00	0.00000e+00	0.00000e+00	0.00000e+00	0.00000e+00	0.00000e+00	0.00000e+00	0.00000e+00	0.00000e+00	0.00000e+00	-1.46573e+02	-1.30403e+02	-1.37663e+02	-1.82827e+02	-7.22735e+01	-6.30001e+01	-1.58910e+02	-1.62015e+02	-7.72400e+01	-6.72005e+01	-1.71070e+02	-1.70740e+02	-1.82889e+02	-1.76704e+02	-6.79015e+01	-1.49758e+02	
Factor	2.11726e-05	1.42107e-04	4.06141e-05	1.78644e-01	1.31213e-06	1.57184e-06	1.76680e-01	4.86151e-02	1.17736e-06	1.44838e-06	9.37926e-02	2.76980e-02	2.41818e-02	8.94260e-03	1.48299e-06	1.30437e-02	5.47952e-06	6.70541e-06	1.89136e-06	9.01438e-02	7.13655e-08	7.35607e-08	8.41523e-02	2.47218e-02	7.09250e-08	7.32396e-08	4.60402e-02	1.36710e-02	1.23919e-02	4.56909e-03	7.18436e-08	6.45217e-03	X	X	X	X	X	X	X	X	X	X	X	X	X	X	X	X	



#DISTANCE SETTINGS
A = Detector Channel
A-1	A-2	A-3	A-4	A-5	A-6	A-7	A-8	A-9	A-10	A-11	A-12	A-13	A-14	A-15	A-16	

2.5000e+00	3.0000e+00	2.5000e+00	3.0000e+00	2.0000e+00	3.0000e+00	1.5000e+00	3.0000e+00	3.0000e+00	3.0000e+00	3.0000e+00	3.0000e+00	3.0000e+00	3.0000e+00	1.5000e+00	3.0000e+00	

B = Detector Channel
B-1	B-2	B-3	B-4	B-5	B-6	B-7	B-8	B-9	B-10	B-11	B-12	B-13	B-14	B-15	B-16	

1.0000e+01	1.0000e+01	1.0000e+01	1.4400e+00	1.0000e+01	1.0000e+01	1.5100e+00	1.9400e+00	1.0000e+01	1.0000e+01	1.9900e+00	2.4900e+00	2.4100e+00	2.9000e+00	1.0000e+01	2.9800e+00	




#DATA BEGINS
time	group	step	mark	flag	A-AC1	A-AC2	A-AC3	A-AC4	A-AC5	A-AC6	A-AC7	A-AC8	A-AC9	A-AC10	A-AC11	A-AC12	A-AC13	A-AC14	A-AC15	A-AC16	A-DC1	A-DC2	A-DC3	A-DC4	A-DC5	A-DC6	A-DC7	A-DC8	A-DC9	A-DC10	A-DC11	A-DC12	A-DC13	A-DC14	A-DC15	A-DC16	A-Ph1	A-Ph2	A-Ph3	A-Ph4	A-Ph5	A-Ph6	A-Ph7	A-Ph8	A-Ph9	A-Ph10	A-Ph11	A-Ph12	A-Ph13	A-Ph14	A-Ph15	A-Ph16	B-AC1	B-AC2	B-AC3	B-AC4	B-AC5	B-AC6	B-AC7	B-AC8	B-AC9	B-AC10	B-AC11	B-AC12	B-AC13	B-AC14	B-AC15	B-AC16	B-DC1	B-DC2	B-DC3	B-DC4	B-DC5	B-DC6	B-DC7	B-DC8	B-DC9	B-DC10	B-DC11	B-DC12	B-DC13	B-DC14	B-DC15	B-DC16	B-Ph1	B-Ph2	B-Ph3	B-Ph4	B-Ph5	B-Ph6	B-Ph7	B-Ph8	B-Ph9	B-Ph10	B-Ph11	B-Ph12	B-Ph13	B-Ph14	B-Ph15	B-Ph16	aux-1	digaux	

2414.060	1	1	0	512	0.21705	0.28328	0.18242	0.13432	0.27985	0.15734	0.1844	0.06085	0.19947	0.20897	0.050207	0.29467	0.079056	0.22862	0.20735	0.088955	-2.4604	-2.6667	-2.9813	-2.7812	-3	-2.9125	-2.7313	-3.1063	-2.9688	-2.8854	-3.3271	-2.8083	-2.9167	-2.8958	-2.8	-3.2562	100.260	168.436	256.026	306.411	149.780	111.810	149.667	61.485	175.304	200.750	-22.839	-45.653	246.894	250.175	263.179	17.201	0.00024165	0.00057679	0.00014928	342.7	3.6401e-06	3.8032e-06	456.23	129.99	3.6096e-06	3.1049e-06	226.08	117.86	70.105	41.099	3.5981e-06	71.312	0.00079907	0.0009061	0.00025462	359.23	9.4195e-06	9.7699e-06	474.51	136.1	9.3578e-06	9.4384e-06	235.75	122.69	73.997	42.755	8.7119e-06	74.07	135.416	34.618	34.055	-36.753	102.057	173.361	-37.337	-32.191	100.681	86.895	-33.207	-30.337	-28.928	-25.468	102.021	-27.140	-8191	255	
2414.179	1	1	0	0	0.18401	0.29437	0.1518	0.16575	0.15528	0.1667	0.14756	0.13749	0.10955	0.16819	0.23104	0.15011	0.2722	0.20719	0.1058	0.29273	-2.3021	-2.7271	-2.9896	-2.8833	-3.0187	-3.0687	-2.7854	-3.1479	-2.8812	-2.7854	-3.1083	-2.9562	-3.0875	-3.1083	-2.7708	-3.1896	125.185	209.572	288.812	145.639	-25.522	180.778	147.610	225.054	108.711	199.054	18.310	237.090	214.251	-32.642	135.782	237.927	0.00028749	0.00047444	0.000126	340.42	3.5826e-06	5.5192e-06	454.04	130.02	2.9961e-06	6.1577e-06	229.99	120.72	72.26	42.363	6.3135e-06	73.285	0.00074857	0.00077614	0.00022254	355.52	8.0528e-06	8.3009e-06	471.62	136.11	7.5334e-06	7.7578e-06	238.04	125.79	75.661	43.99	7.3215e-06	75.89	143.306	86.296	12.707	-37.169	63.381	100.276	-36.892	-31.908	89.069	99.118	-33.542	-30.348	-29.204	-25.616	143.493	-27.000	-8191	255	
2414.275	1	1	0	0	0.05832	0.19938	0.09491	0.15402	0.24699	0.046709	0.12325	0.14076	0.17778	0.19122	0.3335	0.17281	0.20963	0.16928	0.20422	0.13687	-2.4208	-3.0021	-3.1042	-2.925	-2.925	-3.2771	-3.0167	-3.0792	-2.9813	-2.8312	-3.2083	-2.9625	-2.9125	-3.3021	-2.7583	-3.1646	169.549	296.265	270.513	67.736	89.043	116.180	212.067	291.925	243.550	101.593	-3.682	310.126	273.054	278.638	214.942	146.497	0.0002905	0.00061609	9.3235e-05	343.07	3.7231e-06	3.8915e-06	454.85	132.68	2.1588e-06	1.7099e-06	231.79	120.86	72.379	42.04	4.9457e-06	72.043	0.00067243	0.00067526	0.00019803	355.48	7.4149e-06	7.7432e-06	470.6	137.62	7.5658e-06	7.4939e-06	239.68	125.48	75.88	43.574	7.5279e-06	74.708	135.933	46.871	63.907	-36.866	82.240	71.569	-37.155	-31.588	183.410	120.831	-33.161	-30.473	-28.922	-25.675	131.986	-27.086	-8191	255	
2414.371	1	1	0	0	0.23266	0.2492	0.049576	0.25625	0.26211	0.032394	0.30328	0.2079	0.1905	0.21359	0.20931	0.25559	0.18554	0.13564	0.11502	0.26327	-2.5271	-2.7042	-3.0062	-2.8979	-2.9562	-3.1583	-2.9042	-2.8521	-2.8479	-2.8688	-3.2479	-2.9083	-3.0146	-3.1854	-2.7292	-3.0958	175.094	71.784	293.520	136.595	245.675	103.600	211.125	167.806	227.528	238.131	-45.572	288.373	245.210	283.110	64.869	272.980	0.00031106	0.00034611	0.00013782	342.76	4.5965e-06	3.5879e-06	454.98	133.75	4.0736e-06	5.6362e-06	233.43	121.52	73.259	42.271	4.1378e-06	73.048	0.00069398	0.00071659	0.00020715	355.55	7.6734e-06	7.8575e-06	470.37	139.06	7.5519e-06	7.3151e-06	241.51	126.28	76.622	43.933	7.0697e-06	75.487	147.923	0.133	6.489	-36.861	113.276	81.345	-37.292	-31.704	87.891	136.073	-33.322	-30.441	-28.925	-25.524	102.503	-27.330	-8191	255	
2414.467	1	1	0	0	0.040604	0.2267	0.21445	0.22887	0.15482	0.011911	0.16456	0.0043912	0.092075	0.074149	0.15458	0.14154	0.11665	0.18533	0.058551	0.30837	-2.6042	-2.7125	-3.1375	-2.9042	-2.9458	-3.2667	-2.7896	-3.0208	-3.1917	-2.8417	-3.3667	-3.3958	-3.0438	-3.2562	-2.8375	-3.1875	162.524	-22.701	-40.496	138.842	77.713	81.572	241.008	274.809	178.294	34.262	296.635	271.032	81.648	-16.760	307.477	307.303	0.00027719	0.00047224	4.8604e-05	341.98	1.7062e-06	3.458e-06	457.2	134.5	2.2607e-06	2.7824e-06	235.67	122.76	74.147	42.463	4.4213e-06	73.081	0.00064711	0.00065026	0.00018858	356.35	7.0539e-06	7.2577e-06	472.3	139.9	7.1467e-06	6.8593e-06	243.97	127.76	77.419	44.173	6.9708e-06	75.74	144.854	12.084	41.481	-37.255	124.343	156.886	-37.220	-31.858	62.645	149.632	-33.289	-30.489	-28.989	-25.278	85.387	-27.169	-8191	255	
2414.588	1	1	0	0	0.18235	0.20197	0.3144	0.15959	0.16355	0.14182	0.17835	0.2232	0.1022	0.081187	0.22343	0.15235	0.33569	0.10731	0.20474	0.1792	-2.5354	-2.9188	-2.9688	-2.9292	-2.8792	-3.2542	-2.9417	-3.0896	-3.0146	-2.9146	-3.0625	-3.0083	-2.725	-3.3042	-2.8833	-2.9875	122.226	196.552	127.139	202.052	187.192	-23.589	245.522	282.527	-5.406	206.772	-43.942	9.807	240.651	-20.485	178.957	225.005	0.00031721	0.00061074	0.0001122	346	4.1293e-06	4.787e-06	462.29	136.03	4.5395e-06	2.4801e-06	237.49	121.98	73.102	41.489	2.2551e-06	71.687	0.00063105	0.00062782	0.00018464	357.85	6.9559e-06	7.3037e-06	476.76	141.14	7.3381e-06	7.1139e-06	244.75	126.4	76.38	43.231	7.6406e-06	74.477	139.363	34.629	-25.754	-36.852	82.185	98.569	-37.101	-31.913	100.967	88.003	-33.417	-30.134	-29.066	-25.600	151.447	-27.189	-8191	255	
2414.659	1	1	0	0	0.082054	0.10384	0.10617	0.12715	0.19983	0.1062	0.045446	0.078423	0.16251	0.14819	0.096191	0.057985	0.24004	0.45313	0.30288	0.10298	-2.7417	-2.6271	-3.05	-2.8583	-2.7833	-3.0062	-2.8479	-2.6937	-3.1333	-2.8917	-3.0563	-2.9667	-2.9125	-3.0917	-2.8854	-3.0479	60.057	187.030	86.509	-20.647	-41.686	66.745	179.851	102.347	-1.316	283.282	239.192	-11.594	262.324	263.409	-36.537	55.914	0.00026726	0.00050388	0.0001375	347.45	4.1685e-06	5.0633e-06	463.93	134.17	2.8028e-06	1.6437e-06	230.51	119.53	71.608	40.897	3.2998e-06	70.247	0.0006795	0.00069117	0.00020786	361.25	7.5395e-06	7.9927e-06	478.67	139.57	8.0521e-06	7.7573e-06	240.97	124.08	75.101	42.47	7.9215e-06	72.934	137.935	31.325	36.696	-37.139	92.898	124.497	-37.230	-31.936	96.770	132.128	-33.245	-30.323	-28.947	-25.494	108.881	-27.140	-8191	255	
2414.755	1	1	0	0	0.034348	0.092533	0.18655	0.14207	0.25705	0.083531	0.096219	0.17844	0.059879	0.092677	0.13771	0.072287	0.17632	0.10386	0.22711	0.40958	-2.6354	-2.7604	-2.7542	-3.1479	-2.8187	-3.0771	-2.9979	-2.7083	-3.2812	-2.7333	-2.9708	-3.2708	-2.7271	-3.2042	-2.9917	-3.1146	124.183	74.545	285.778	227.366	-29.403	203.251	194.130	144.098	33.139	102.014	274.393	18.983	274.787	25.536	3.118	224.871	0.00028391	0.00034046	0.00013516	345.88	3.6089e-06	3.9795e-06	459.02	133	1.9811e-06	5.4343e-06	231.27	118.17	70.881	40.205	3.1799e-06	69.569	0.00070253	0.00073248	0.0002095	361.04	7.8611e-06	8.3459e-06	476.68	138.78	8.2546e-06	8.1925e-06	240.29	122.62	74.265	41.838	8.4507e-06	72.069	145.755	14.703	-12.139	-37.309	137.454	63.574	-37.227	-31.967	88.264	125.954	-33.610	-30.534	-28.887	-25.354	117.062	-27.149	-8191	255	
2414.852	1	1	0	0	0.19473	0.092442	0.20638	0.12028	0.080898	0.20102	0.084026	0.16124	0.19015	0.22386	0.13265	0.090294	0.17125	0.22773	0.20106	0.15957	-2.8125	-2.8333	-2.9792	-3.2021	-2.9313	-3.1604	-2.9146	-2.8458	-3.0708	-3.0104	-2.8312	-3.1646	-2.8208	-3.0417	-2.9104	-2.7875	10.874	126.453	291.580	280.999	274.144	118.553	0.809	216.036	180.360	43.554	27.596	107.425	283.630	-9.555	295.507	278.980	0.00027404	0.00045705	7.6044e-05	347.31	3.9269e-06	2.7067e-06	461.63	133.3	4.5136e-06	1.4901e-06	229.58	117.26	70.039	39.899	7.018e-06	68.48	0.00072408	0.00077026	0.00021657	362.14	8.1736e-06	8.6178e-06	478.27	138.89	8.5444e-06	8.6678e-06	240.1	122.08	73.637	41.425	9.0072e-06	71.137	148.397	50.578	75.202	-37.136	87.483	77.635	-37.400	-31.799	90.965	101.326	-33.552	-30.253	-29.098	-25.129	114.283	-27.115	-8191	255	
2414.948	1	1	0	0	0.18523	0.027037	0.20195	0.0091884	0.25266	0.1291	0.2929	0.14783	0.24451	0.22783	0.12122	0.14165	0.34544	0.25327	0.099274	0.36494	-2.5979	-2.9188	-2.8583	-3.1312	-2.9521	-2.9625	-3.0708	-2.7729	-3.0479	-3.1	-2.8979	-3.1229	-2.8812	-3.0458	-3.1271	-2.9896	71.887	127.330	45.085	294.955	110.036	117.660	230.735	219.318	151.239	44.718	132.584	280.051	296.818	254.421	280.939	229.442	0.00025651	0.0004084	0.0001494	347.87	2.8869e-06	4.9754e-06	463.29	132	2.3677e-06	3.6279e-06	226.95	114.15	68.556	38.674	3.6012e-06	67.307	0.00076891	0.00083162	0.00023482	364.26	8.7565e-06	9.1865e-06	482.78	137.75	9.3142e-06	9.7108e-06	237.33	119.38	72.042	40.412	1.0069e-05	69.98	151.811	14.009	11.038	-37.559	83.285	99.476	-37.307	-31.999	77.977	130.307	-33.399	-30.094	-28.871	-25.322	149.070	-27.150	-8191	255	
2415.067	1	1	0	0	0.16268	0.23526	0.26253	0.044149	0.1308	0.25168	0.36633	0.14907	0.12497	0.085219	0.11094	0.1228	0.079625	0.29756	0.24042	0.18247	-2.7333	-2.8625	-2.7687	-3.2375	-2.925	-2.8812	-2.9437	-2.9292	-3.025	-2.9875	-2.7646	-3.1625	-2.9542	-3.0333	-3.2313	-2.8958	204.504	307.251	272.221	275.697	263.189	-15.267	239.834	56.964	115.089	113.824	239.212	219.778	-17.310	166.337	107.403	262.388	0.00025043	0.00046863	0.00011666	348.8	4.4369e-06	4.588e-06	463.32	130.34	3.3788e-06	1.9867e-06	225.11	113.24	67.967	38.64	3.4858e-06	67.176	0.00083203	0.00092341	0.00025399	366.33	9.6743e-06	1.0018e-05	483.65	136.26	9.6628e-06	1.0106e-05	235.3	118.5	71.523	40.321	1.0322e-05	69.746	142.414	32.821	14.475	-37.082	117.126	130.802	-37.482	-31.926	132.037	51.388	-33.454	-30.219	-28.986	-25.251	124.949	-27.086	-8191	255	
2415.163	1	1	0	0	0.10772	0.25844	0.12717	0.30144	0.19734	0.23414	0.19614	0.11216	0.25474	0.12328	0.1694	0.16867	0.023837	0.28798	0.16754	0.14255	-2.7375	-2.9833	-2.7958	-3.1229	-2.9833	-2.8396	-3.2083	-2.8292	-2.9396	-3.0271	-2.8729	-3.0854	-2.8333	-3.1312	-3.1771	-3.0854	65.713	242.247	154.237	23.985	115.607	86.428	-19.036	267.749	113.043	154.204	139.046	122.277	298.067	-36.534	309.701	229.112	0.00028141	0.00052083	0.00012542	349.68	1.3654e-06	3.1954e-06	459.81	127.29	3.4817e-06	4.2368e-06	217.41	109.95	65.297	37.83	4.3762e-06	65.698	0.00084976	0.00096487	0.00026341	365.15	1.0268e-05	1.058e-05	479.8	133.26	1.0572e-05	1.1198e-05	228.15	115.08	69.26	39.562	1.1177e-05	68.417	139.159	9.485	45.440	-36.857	93.931	52.709	-37.328	-32.084	111.295	83.717	-33.351	-30.224	-28.830	-25.519	104.016	-26.896	-8191	255	
2415.259	1	1	0	0	0.19053	0.20033	0.19031	0.22209	0.082152	0.23168	0.14116	0.4355	0.13787	0.13959	0.13977	0.2614	0.29509	0.1014	0.19343	0.13898	-2.7062	-2.9375	-2.8208	-2.9417	-2.9479	-2.85	-3.15	-2.9646	-3.0271	-3.0646	-2.8708	-3.2167	-2.8021	-2.95	-3.1229	-2.8937	122.773	30.334	189.703	249.225	104.109	155.048	27.485	-19.666	-29.871	67.618	150.890	31.509	275.165	54.228	291.010	10.650	0.00022609	0.00035826	0.00014058	347.57	4.88e-06	5.9156e-06	460.59	125.06	1.8985e-06	4.7824e-06	217.05	109.31	64.712	37.434	2.5955e-06	65.281	0.00092075	0.0010545	0.00027862	365.97	1.1087e-05	1.1212e-05	481.76	131.83	1.1005e-05	1.1712e-05	227.77	114.27	68.663	39.175	1.118e-05	68	139.686	28.697	-3.061	-37.055	158.063	123.513	-37.443	-32.050	76.627	108.133	-32.968	-30.150	-28.923	-25.327	129.463	-27.138	-8191	255	
2415.355	1	1	0	0	0.14415	0.077961	0.10863	0.205	0.15955	0.057644	0.05661	0.2424	0.28087	0.16548	0.16637	0.13189	0.23088	0.18203	0.070895	0.21756	-2.6562	-2.9979	-2.8583	-3.0542	-3.0583	-2.7188	-3.125	-3.0083	-2.7687	-2.9938	-2.8937	-3.1375	-3.0312	-2.8833	-3.0104	-3.0208	2.617	15.950	-11.299	179.686	-44.243	-44.015	78.418	-5.294	166.635	80.440	284.525	271.284	276.326	25.534	185.975	243.614	0.00025873	0.00043493	0.00014485	350.46	5.3287e-06	1.5414e-06	462.85	125.26	1.4176e-06	1.9082e-06	218.37	109.98	64.834	37.785	3.2287e-06	66.099	0.00092457	0.001071	0.00027797	367.59	1.1306e-05	1.1096e-05	482.02	131.78	1.069e-05	1.1396e-05	227.76	114.9	69.047	39.525	1.0787e-05	68.871	138.415	15.203	20.857	-37.327	99.448	72.113	-37.163	-31.621	77.561	54.003	-33.352	-30.068	-28.607	-25.402	80.254	-26.963	-8191	255	
2415.451	1	1	0	0	0.048171	0.074902	0.13238	0.11387	0.17643	0.2484	0.16956	0.15835	0.35502	0.05242	0.10704	0.199	0.19189	0.2136	0.11538	0.14888	-2.4208	-2.9729	-2.8375	-3.0021	-3.0479	-2.7313	-3.1917	-2.9604	-2.8792	-3.275	-2.8854	-2.9896	-3.0479	-2.9479	-3.1521	-3.0208	265.070	50.359	91.424	183.017	231.835	270.286	211.034	-13.526	303.189	167.655	-14.929	-41.495	215.375	25.350	84.117	113.317	0.00028782	0.00026471	8.3254e-05	347.81	5.0695e-06	5.1462e-06	462.84	126.23	4.2274e-07	3.177e-06	219.55	111.56	65.583	38.085	5.0393e-06	66.508	0.00089603	0.0010251	0.00027394	366.2	1.0943e-05	1.0632e-05	482.9	132.43	1.0614e-05	1.1111e-05	230.18	116.22	69.602	39.884	1.1037e-05	69.398	142.660	57.390	-29.326	-37.161	100.675	141.212	-37.442	-31.854	-0.488	110.672	-33.438	-30.086	-28.870	-25.335	110.333	-27.064	-8191	255	
2415.547	1	1	0	0	0.1316	0.017439	0.15815	0.19403	0.1007	0.064286	0.28744	0.26849	0.17356	0.11625	0.11571	0.14532	0.052572	0.15469	0.20178	0.19413	-2.3563	-3.1688	-2.7438	-2.8646	-2.9104	-2.7729	-3.0396	-2.8812	-2.6333	-3.1667	-2.9333	-3.0833	-3.0125	-2.8292	-3.0271	-3.1042	233.274	285.234	55.336	-39.577	307.596	-16.022	102.260	280.245	183.276	132.032	307.983	293.922	266.279	280.873	111.796	296.445	0.00025449	0.00054013	7.6489e-05	346.46	2.4276e-06	4.4224e-06	461.52	126.33	1.1197e-06	3.6355e-06	219.68	111.27	66.522	38.479	3.8218e-06	66.688	0.00090063	0.0010217	0.00028138	365.42	1.1066e-05	1.0631e-05	480.96	133.02	1.0441e-05	1.0848e-05	229.93	116.36	70.218	40.094	1.0567e-05	69.524	136.647	27.549	66.312	-37.226	112.612	94.746	-37.202	-31.714	52.900	93.745	-33.448	-30.241	-28.809	-25.190	95.784	-27.084	-8191	255	
2415.668	1	1	0	0	0.049126	0.12366	0.041744	0.089551	0.41331	0.19424	0.040485	0.065298	0.040625	0.13359	0.08017	0.23184	0.26552	0.16472	0.18663	0.24649	-2.3875	-2.9667	-2.9667	-2.8146	-3.1333	-2.8125	-3.1	-3.1021	-2.8375	-2.9708	-2.9813	-3.1417	-3.0521	-2.8	-2.8812	-3.1229	-1.572	1.585	-21.358	118.870	132.770	-12.381	194.462	-40.623	14.904	96.155	-10.427	200.667	241.504	262.398	40.208	169.325	0.00025147	0.00043816	0.00014477	349.04	5.6791e-06	3.0155e-06	461.61	127.44	1.2584e-06	3.802e-06	222.4	113.39	67.267	38.951	2.5427e-06	67.355	0.0008635	0.00096776	0.00027137	364.73	1.0387e-05	1.0152e-05	479.69	133.85	9.8125e-06	1.0266e-05	232.43	118.25	71.229	40.54	1.0195e-05	70.196	141.547	11.106	42.363	-37.013	93.518	107.198	-37.432	-31.909	60.204	125.834	-33.265	-30.181	-29.021	-25.256	97.226	-27.258	-8191	255	
2415.764	1	1	0	0	0.31643	0.059163	0.16211	0.11232	0.090784	0.088207	0.079611	0.077611	0.080111	0.12431	0.12258	0.29492	0.10247	0.20632	0.14954	0.070771	-2.4625	-2.8354	-2.8479	-2.9125	-3.1042	-2.9125	-3.0917	-2.9167	-2.7354	-3.0687	-2.8812	-2.7979	-3.275	-3.0125	-2.8937	-2.9813	63.190	-28.026	121.974	249.145	308.773	186.247	247.925	188.000	-9.697	249.560	296.813	252.794	-32.869	-48.754	29.894	288.522	0.0002974	0.00021492	0.00013319	346.9	1.9441e-06	2.7278e-06	460.48	129.19	3.6683e-06	5.0991e-06	223.12	113.44	67.147	38.516	7.691e-07	67.531	0.00083894	0.00093972	0.00027174	364.77	1.0415e-05	1.0234e-05	480.53	134.86	9.7575e-06	1.0382e-05	233.68	118.48	70.999	40.318	1.0383e-05	70.194	136.298	15.687	43.583	-37.070	121.582	119.884	-37.205	-31.816	43.872	72.828	-33.326	-30.141	-28.873	-25.507	87.545	-27.030	-8191	255	
2415.860	1	1	0	0	0.31823	0.11793	0.049842	0.11048	0.34783	0.22097	0.13898	0.041825	0.16876	0.11725	0.061035	0.083311	0.15151	0.18229	0.1077	0.25603	-2.5312	-3.0062	-2.9979	-2.8458	-3.0646	-2.6854	-3.1146	-3.0438	-2.7583	-3.1188	-2.9729	-2.8646	-3.1771	-2.9167	-2.9854	-3.2375	261.621	-46.408	-41.381	298.637	88.706	119.768	-13.807	27.145	175.830	21.523	174.835	178.619	142.467	267.461	-29.574	301.285	0.00024499	0.00039456	0.00019536	349.24	3.1366e-06	1.1338e-06	461.71	129.21	2.8558e-06	4.19e-06	224.86	114.31	67.584	38.908	4.8541e-06	68.631	0.00086301	0.00096279	0.00027579	365.29	1.0166e-05	1.0448e-05	482.97	135.64	9.9332e-06	1.0162e-05	235.26	119.17	71.558	40.725	9.8328e-06	71.273	137.815	22.708	51.495	-37.025	84.875	-16.090	-37.492	-31.989	52.640	136.227	-33.427	-29.957	-28.950	-25.316	123.676	-27.075	-8191	255	
2415.956	1	1	0	0	0.066367	0.19577	0.10884	0.089803	0.18772	0.097897	0.10547	0.072461	0.098151	0.086267	0.22168	0.070249	0.23103	0.16637	0.17508	0.12436	-2.3417	-3.025	-2.9542	-2.6708	-2.9854	-2.9896	-2.9188	-2.9708	-2.7562	-3.1188	-2.9813	-2.8208	-3.0583	-2.775	-2.8812	-3.2479	30.364	179.740	50.933	9.342	-40.140	97.936	260.484	168.643	31.830	259.484	293.190	81.295	290.711	9.702	134.528	-24.504	0.00028582	0.00047438	9.6618e-05	347.98	9.4944e-07	2.0074e-06	463.24	127.62	2.0185e-06	1.7606e-06	221.14	114.12	68.036	39.395	2.3591e-06	69.082	0.00081627	0.0008903	0.00025971	363.16	9.3994e-06	9.6859e-06	480.39	133.79	9.2096e-06	9.4243e-06	232.67	119.13	71.526	41.213	9.2178e-06	71.736	151.352	17.213	-0.632	-37.308	5.335	105.580	-37.400	-32.081	125.465	44.841	-33.574	-30.204	-28.833	-25.597	64.165	-26.959	-8191	255	
2416.051	1	1	0	0	0.25429	0.24028	0.089165	0.037442	0.2162	0.094774	0.13539	0.22616	0.23418	0.10526	0.2122	0.28185	0.15232	0.24734	0.12835	0.23334	-2.3312	-2.9021	-2.9479	-2.7333	-2.9771	-2.9562	-2.9021	-3.05	-2.9104	-3.1562	-3.1354	-2.7042	-3.1375	-2.9354	-2.7167	-3.1542	25.513	139.864	48.826	299.178	171.729	249.808	158.115	-12.157	280.034	308.465	74.637	307.510	150.519	294.400	-43.553	145.746	0.0002913	0.0005127	7.0749e-05	345.66	2.9049e-06	3.1839e-06	458.36	126.1	3.8667e-06	2.7779e-06	220.51	113.19	66.891	39.085	2.4647e-06	68.271	0.00077931	0.00084981	0.0002498	360.11	9.0426e-06	9.5111e-06	477.22	131.95	9.17e-06	9.3657e-06	230.07	117.77	70.488	40.759	9.5769e-06	70.961	144.055	40.637	4.456	-37.452	154.009	88.818	-37.335	-31.720	126.995	61.512	-33.687	-30.269	-28.712	-25.492	123.714	-27.130	-8191	255	
2416.147	1	1	0	0	0.060233	0.1838	0.13335	0.1591	0.13716	0.098039	0.15366	0.22723	0.27938	0.012568	0.23005	0.21692	0.14476	0.21701	0.070736	0.05808	-2.3792	-2.9708	-2.9646	-2.6771	-3.0042	-2.8146	-2.8229	-3.1937	-2.9062	-3.0021	-3.05	-2.7438	-3.125	-3.0146	-2.9083	-3.2938	-22.367	198.952	251.221	298.456	47.637	56.514	-13.536	-24.461	292.076	90.980	272.747	235.206	-1.248	275.096	184.015	304.111	0.00024761	0.00035198	0.00013063	345.23	2.6884e-06	4.7227e-06	460.84	125.34	2.4632e-06	5.4435e-06	218.22	113.35	66.6	39.314	4.2918e-06	68.76	0.00080641	0.00086567	0.00025578	361.06	9.1685e-06	9.7198e-06	478.17	131.21	9.1351e-06	9.2737e-06	229.21	118.16	70.362	41.003	8.9686e-06	71.437	140.035	28.838	-9.550	-37.252	142.575	79.167	-37.274	-31.939	51.305	108.033	-33.362	-30.367	-28.396	-25.345	127.316	-27.108	-8191	255	
2416.268	1	1	0	0	0.073825	0.095504	0.29683	0.32874	0.0037665	0.20236	0.19008	0.14412	0.046678	0.095192	0.10069	0.11086	0.18788	0.24011	0.2837	0.18976	-2.3875	-2.7396	-3.0542	-2.7271	-2.8604	-3.0521	-2.8771	-3.1646	-3.1562	-3.0021	-3.0792	-3.0625	-3.1854	-3.1208	-2.7729	-3.3708	-16.518	259.587	-48.804	252.687	95.216	210.085	264.313	20.230	-14.117	60.799	304.297	300.858	-35.941	217.323	-10.146	289.163	0.00024529	0.00047197	0.00011362	345.78	3.4992e-06	7.9232e-06	460.07	126.09	1.5859e-06	3.0948e-06	218.7	113.38	66.643	38.987	4.7673e-06	68.618	0.00077191	0.00082063	0.00024378	360.53	8.884e-06	9.5554e-06	478.09	131.55	9.2819e-06	9.2706e-06	229.62	117.97	70.196	40.666	9.1436e-06	71.183	136.677	46.416	27.873	-36.982	71.200	63.652	-37.164	-31.771	37.787	100.004	-33.243	-30.082	-28.748	-25.528	85.706	-27.114	-8191	255	
2416.364	1	1	0	0	0.045277	0.2083	0.20082	0.12751	0.16361	0.27239	0.16632	0.12385	0.34433	0.15104	0.16784	0.18988	0.16091	0.23522	0.15627	0.14802	-2.4562	-2.7188	-3.1333	-2.6896	-2.9708	-3.1708	-2.9771	-3.125	-3.0083	-2.9521	-3.0563	-2.8854	-2.9167	-3.1792	-2.8333	-3.1333	165.978	284.995	110.442	105.162	165.742	95.949	33.376	237.672	68.672	255.218	0.262	268.347	238.480	-37.514	-36.466	-36.807	0.0002856	0.00053388	0.00013785	347.56	4.4516e-06	4.3308e-06	462.46	126.24	3.3918e-06	4.0166e-06	220.43	112.58	66.513	38.768	3.2597e-06	68.052	0.00081821	0.00086216	0.00024816	362.6	9.2681e-06	9.9961e-06	480.86	132.08	9.6066e-06	9.4543e-06	230.6	117.71	70.189	40.482	9.3756e-06	70.726	136.385	69.741	-3.668	-37.265	130.831	76.167	-37.455	-31.737	100.090	121.492	-33.575	-30.251	-28.752	-25.157	103.583	-27.252	-8191	255	
2416.460	1	1	0	0	0.094241	0.14865	0.077663	0.14856	0.10847	0.0576	0.20803	0.073162	0.063079	0.15245	0.26271	0.25379	0.10726	0.043143	0.29481	0.27497	-2.6083	-2.8312	-3.15	-2.7292	-2.9917	-3.0958	-2.8063	-3.0312	-2.8167	-2.6125	-2.9458	-3.0667	-3.0958	-3.1375	-2.7875	-3.0083	90.256	219.385	270.535	303.556	276.087	253.141	225.763	270.206	173.924	239.031	212.378	273.775	168.458	265.410	-31.695	148.310	0.00030288	0.00026981	0.00014581	345.9	3.1189e-06	3.2807e-06	459.79	125.97	1.7765e-06	2.6556e-06	220.38	113.75	67.308	39.589	2.159e-06	69.393	0.000835	0.00089867	0.00024864	362	9.2829e-06	9.7572e-06	477.94	131.87	9.457e-06	9.1807e-06	229.89	118.62	70.857	41.311	9.1256e-06	71.933	140.456	24.473	-8.227	-37.136	171.711	157.369	-37.403	-31.821	130.254	134.530	-33.264	-30.259	-28.575	-25.545	51.867	-27.010	-8191	255	
2416.532	1	1	0	0	0.15259	0.1042	0.078327	0.06945	0.23742	0.12978	0.18955	0.29931	0.113	0.050666	0.28431	0.14161	0.23758	0.064954	0.076371	0.1391	-2.5854	-2.7917	-3.0646	-2.7687	-2.9396	-3.2625	-2.8521	-2.9	-2.8417	-2.7438	-3.1458	-3.0104	-2.9188	-3.3729	-2.7771	-3.2292	152.428	16.237	148.066	241.399	106.821	309.966	100.581	244.132	7.089	258.134	262.990	229.403	210.289	244.136	245.825	292.579	0.00030956	0.00070491	0.00011614	344.94	2.6869e-06	6.018e-07	458.84	125.44	1.1222e-06	4.7991e-06	220.31	114.17	67.18	40.004	2.5469e-06	69.733	0.0007988	0.00081034	0.00023156	359.39	8.7754e-06	9.2227e-06	475.95	131.16	9.0496e-06	8.6964e-06	229.39	119.14	70.804	41.662	8.8034e-06	72.392	138.290	38.961	1.783	-36.871	115.290	129.748	-37.063	-31.652	146.019	97.632	-33.175	-30.290	-28.810	-25.475	127.228	-27.179	-8191	255	
2416.628	1	1	0	0	0.12694	0.18298	0.04864	0.027989	0.17017	0.20936	0.11172	0.23846	0.23697	0.36777	0.15443	0.27731	0.21838	0.2152	0.3209	0.11817	-2.7125	-2.8063	-3.1083	-3	-2.8104	-3.0958	-2.9313	-2.9958	-2.9958	-2.7896	-2.9583	-2.85	-2.8146	-3.2917	-2.9146	-2.9458	303.810	14.615	28.800	291.898	61.268	216.401	100.839	96.077	243.720	-15.053	36.808	247.659	251.172	241.661	136.821	172.407	0.00027632	0.00047874	0.00011893	341.94	3.8793e-06	4.2645e-06	458.52	123.47	3.7614e-06	3.0305e-06	217.96	113.93	66.851	39.771	3.7703e-06	69.803	0.00077972	0.00079782	0.00022665	358.46	8.6334e-06	8.9172e-06	474.98	129.67	8.9716e-06	8.7093e-06	227.47	118.72	70.105	41.512	8.8481e-06	72.495	140.018	72.145	79.125	-37.169	98.604	92.831	-37.388	-31.704	87.660	97.225	-33.158	-30.063	-29.061	-25.535	145.459	-27.153	-8191	255	
2416.748	1	1	0	0	0.18237	0.072975	0.16145	0.41604	0.24027	0.2754	0.29103	0.15163	0.089486	0.11332	0.12787	0.088319	0.16708	0.084207	0.13056	0.22551	-2.6458	-2.7729	-3.1042	-3.0667	-2.8083	-3.0979	-3.0979	-2.9104	-3.1542	-2.775	-3.1771	-3.2188	-2.875	-3.1063	-2.95	-2.9542	-0.095	250.937	268.673	287.465	13.095	16.820	-29.008	-24.062	88.518	118.684	127.938	47.349	296.906	-46.020	261.072	217.235	0.0002457	0.00021339	0.00012207	343.28	6.3636e-06	5.4285e-06	455.89	123.62	2.6168e-06	3.6307e-06	217.9	112.38	66.084	39.621	7.7739e-06	69.303	0.00076728	0.00078878	0.00022968	359.07	8.6233e-06	8.9543e-06	476.48	129.14	8.8115e-06	8.8084e-06	226.94	117.68	69.667	41.282	9.1137e-06	72.098	141.144	85.902	10.129	-37.224	60.994	54.807	-37.049	-32.019	128.792	124.676	-33.480	-30.069	-28.998	-25.482	81.819	-27.091	-8191	255	
2416.845	1	1	0	0	0.20268	0.19054	0.14765	0.18055	0.38397	0.21378	0.083602	0.19027	0.027888	0.21403	0.11401	0.11049	0.15597	0.22287	0.20756	0.31426	-2.7562	-2.8937	-3.0458	-3.0438	-2.7271	-3.1771	-2.8812	-2.9354	-3.1083	-3.0854	-3.1417	-2.8792	-2.6708	-3.0167	-2.9313	-2.8917	170.833	32.111	30.687	301.884	106.373	161.325	198.107	282.821	99.147	92.425	22.757	-39.153	178.856	227.876	12.112	-32.320	0.00026224	0.00042972	0.00016147	344.38	4.1137e-06	1.7946e-06	458.75	123.72	3.5045e-06	1.4676e-06	217.66	112.44	65.976	39.129	1.4828e-06	68.274	0.00077543	0.00082034	0.00023034	359.84	8.6737e-06	9.0526e-06	476.78	129.38	9.0565e-06	9.1728e-06	227.04	117.06	69.539	40.785	9.4016e-06	70.852	149.804	23.345	42.400	-37.286	97.553	-27.089	-37.540	-31.516	99.027	135.486	-33.507	-30.251	-28.729	-25.513	97.358	-26.995	-8191	255	
2416.941	1	1	0	0	0.14635	0.10317	0.23156	0.1818	0.097211	0.092799	0.073919	0.059459	0.12661	0.04659	0.14597	0.28337	0.099173	0.29222	0.023258	0.36375	-2.7646	-2.8646	-2.9271	-3.1688	-2.7354	-3.2125	-3.0396	-2.9542	-3.1646	-2.8937	-3.075	-3.25	-2.85	-3.25	-2.9104	-2.9208	-6.391	307.869	122.254	52.991	-9.985	101.327	-30.600	204.064	226.824	82.715	194.769	291.041	267.610	289.732	209.858	190.265	0.00028383	0.00027876	6.2321e-05	343.05	4.228e-06	5.2001e-06	460.71	124.4	2.4831e-06	1.7694e-06	216.89	111.75	65.426	38.41	6.4854e-06	67.346	0.00079638	0.0008685	0.00024042	360.81	9.0658e-06	9.3603e-06	478.53	129.94	9.3046e-06	9.7882e-06	226.62	116.56	69.139	40.08	9.8189e-06	70.012	137.446	49.817	31.446	-37.025	122.662	126.708	-37.275	-31.783	91.247	95.095	-33.057	-30.331	-28.589	-25.503	125.793	-27.130	-8191	255	
2417.060	1	1	0	0	0.14817	0.3648	0.053735	0.15567	0.3173	0.060586	0.30601	0.2037	0.12673	0.076853	0.093406	0.11477	0.08498	0.39608	0.20051	0.13022	-2.7792	-2.75	-2.7562	-2.9708	-2.8729	-3.0521	-3.2562	-2.8292	-3.0771	-3.0104	-3	-3.2271	-2.7375	-3.0938	-3.0375	-2.8958	-24.425	130.195	27.473	40.645	16.058	258.712	195.170	298.288	264.591	218.976	300.380	-33.385	260.734	285.843	286.342	216.977	0.00026943	0.00035014	9.4454e-05	347.13	2.7312e-06	2.6293e-06	463.83	124.37	2.537e-06	3.2416e-06	216.92	109.7	64.393	37.434	8.4602e-07	66.284	0.00079953	0.00089031	0.00024186	363.36	9.205e-06	9.476e-06	481.13	130.13	9.2752e-06	1.0021e-05	226.43	114.72	68.036	39.18	1.0465e-05	68.763	140.202	49.287	20.319	-37.219	136.074	47.831	-37.437	-32.068	102.238	52.929	-33.028	-29.999	-28.686	-25.378	261.810	-26.919	-8191	255	
2417.131	1	1	0	0	0.17942	0.1013	0.039409	0.17114	0.17374	0.080261	0.18141	0.059732	0.25304	0.19021	0.33712	0.21097	0.15466	0.15812	0.11464	0.26524	-2.5792	-2.7542	-2.7958	-3.1375	-2.9271	-3.0104	-2.8542	-2.85	-2.9479	-2.9333	-2.9271	-2.9979	-2.9062	-3.1396	-3.1271	-2.7292	235.109	298.810	46.962	53.649	10.413	109.075	19.191	5.949	245.150	195.384	289.865	15.059	239.026	-46.564	-48.863	110.805	0.00024946	0.00034016	4.3466e-05	348.11	2.8567e-06	2.1721e-06	463.11	123.26	3.5378e-06	4.0379e-07	215.88	109.26	64.084	37.44	1.9236e-06	65.982	0.00084068	0.00097127	0.00026269	365.38	9.863e-06	1.0009e-05	485.21	129.76	9.8581e-06	1.0571e-05	225.98	114.15	67.598	39.027	1.0376e-05	68.665	129.481	42.130	-12.020	-37.309	108.645	103.169	-37.130	-31.697	119.129	174.698	-33.073	-30.123	-28.494	-25.135	83.767	-27.042	-8191	255	
2417.229	1	1	0	0	0.093171	0.22646	0.18662	0.091522	0.11651	0.069672	0.23519	0.15973	0.08282	0.1879	0.099365	0.043704	0.20202	0.051938	0.093653	0.1118	-2.4667	-2.9021	-2.6625	-3.2313	-3.025	-3.0833	-2.9604	-2.8625	-2.8583	-2.875	-2.9917	-3.1104	-3.0146	-2.7292	-3.1104	-2.9854	42.240	-47.853	150.965	88.500	-19.660	-47.297	199.937	297.217	0.942	55.020	245.937	305.357	267.316	222.820	179.947	22.737	0.00024959	0.00042464	0.00013172	351.26	5.7659e-06	8.0324e-06	466.3	123.33	1.1582e-06	2.1889e-06	214.18	108.26	63.424	37.131	4.1419e-06	65.517	0.00083648	0.00096881	0.00026169	367.17	1.0127e-05	1.0037e-05	486.01	129.32	9.6461e-06	1.0505e-05	224.75	113.04	67.105	38.774	1.0012e-05	68.181	149.138	5.294	28.847	-37.019	101.364	124.610	-37.269	-31.801	103.797	101.461	-33.265	-30.184	-28.762	-25.314	98.492	-27.049	-8191	255	
2417.348	1	1	0	0	0.0073482	0.066506	0.14013	0.053433	0.024473	0.16305	0.081319	0.22731	0.12491	0.077546	0.29688	0.039331	0.13674	0.17721	0.097791	0.047814	-2.4958	-2.9104	-2.8896	-3.0812	-2.8292	-2.9354	-3.2521	-2.825	-3.0604	-2.9875	-2.9062	-3.1729	-2.8271	-2.8625	-3.1437	-2.7667	159.739	185.765	-44.156	227.960	21.542	161.310	86.704	-44.867	221.626	-28.688	256.155	254.285	203.827	264.626	200.868	195.073	0.00024521	0.00037058	0.00012856	348.46	2.5616e-06	5.0449e-06	461.47	123.01	1.5726e-06	4.2493e-06	214.08	108.17	63.01	37.192	4.1514e-06	65.792	0.00080875	0.00092719	0.00024982	364.6	9.7084e-06	9.5558e-06	481.46	128.23	9.0499e-06	9.8689e-06	223.06	112.6	66.644	38.763	9.2823e-06	68.236	136.634	55.767	-24.171	-37.008	130.999	95.018	-37.415	-31.821	113.986	97.044	-33.367	-29.918	-28.613	-25.341	67.308	-26.956	-8191	255	
2417.444	1	1	0	0	0.1551	0.089347	0.082077	0.11227	0.22398	0.044346	0.20857	0.11657	0.13089	0.16788	0.23241	0.26694	0.13309	0.36487	0.29467	0.089605	-2.5438	-2.8833	-2.7083	-2.9417	-2.775	-2.9583	-3.1562	-2.8271	-3.0438	-3.0646	-2.7896	-3.2354	-2.8812	-2.8917	-3.2271	-2.9938	252.516	200.932	220.178	215.191	-13.167	143.089	202.893	12.084	78.519	20.684	-13.584	221.174	111.582	274.577	160.506	225.668	0.00028199	0.00029177	0.00011874	347.52	4.7735e-06	2.8791e-06	461.96	122.7	2.115e-06	4.4199e-06	214.98	109.19	64.119	37.727	4.3304e-06	66.755	0.00075725	0.00087648	0.00023307	362.35	9.2008e-06	9.0837e-06	480.75	127.95	8.6391e-06	9.2071e-06	224.06	114.13	67.531	39.364	8.6705e-06	69.355	137.182	56.544	32.652	-37.362	93.952	101.837	-37.178	-32.227	74.171	133.506	-33.244	-30.015	-28.847	-25.345	102.954	-27.080	-8191	255	
2417.540	1	1	0	0	0.10563	0.2976	0.14384	0.14695	0.016669	0.24988	0.20633	0.27194	0.12469	0.10835	0.097949	0.1587	0.19425	0.27547	0.076195	0.32346	-2.5375	-3.0187	-2.575	-3.025	-2.9542	-2.7333	-3.1063	-2.8396	-2.8979	-3.0771	-2.7938	-3.1437	-2.825	-2.75	-3.1437	-2.8792	142.711	202.267	136.802	216.093	249.495	41.837	212.174	253.038	95.533	282.211	22.277	208.533	-35.145	-10.813	189.513	302.414	0.00027267	0.00035186	0.00010495	347.06	1.9711e-06	4.1402e-06	462.69	124.3	3.747e-06	4.3831e-06	215.51	110.46	64.556	38.061	2.7938e-06	67.29	0.00073186	0.00082736	0.00022668	361.83	8.9079e-06	8.8552e-06	480.71	129.28	8.5184e-06	9.0324e-06	225.94	115.24	68.228	39.556	8.5575e-06	69.739	139.928	49.510	64.293	-37.296	126.298	100.850	-37.464	-31.899	67.105	89.060	-33.204	-30.203	-28.777	-25.259	173.883	-26.890	-8191	255	
2417.661	1	1	0	0	0.19552	0.067222	0.13556	0.26002	0.11763	0.1133	0.070531	0.077835	0.2637	0.12089	0.099565	0.26593	0.1439	0.2179	0.084157	0.051453	-2.3104	-3.0021	-2.6813	-2.8958	-2.8958	-2.6229	-3.1188	-2.9583	-3.0062	-2.95	-2.9813	-3.1	-3.1021	-2.9208	-3.2479	-2.9292	111.745	246.191	32.790	292.809	260.968	148.313	146.224	157.383	245.797	-40.836	214.458	302.119	281.389	-41.081	303.213	100.229	0.00026491	0.00022708	0.00010294	347.55	2.4035e-06	5.9261e-06	463.53	123.22	7.5281e-07	3.0119e-06	217.85	110.98	65.128	38.018	1.5222e-06	67.08	0.00074323	0.00082917	0.00022829	362.03	8.9854e-06	8.7464e-06	481.94	129.39	8.3947e-06	8.7834e-06	226.88	115.68	68.434	39.629	8.4344e-06	69.601	140.582	10.621	63.258	-37.202	30.066	105.995	-37.424	-31.682	50.106	75.293	-32.986	-30.110	-28.629	-25.445	91.702	-26.925	-8191	255	
2417.757	1	1	0	0	0.25599	0.032616	0.084792	0.18279	0.25653	0.2123	0.23383	0.082351	0.25308	0.1146	0.18862	0.11332	0.19741	0.14409	0.087465	0.079323	-2.4625	-3.1167	-2.6979	-2.8833	-3.0312	-3.0229	-3.1417	-2.9896	-2.8375	-3.0583	-2.8729	-3.0604	-3.1	-2.8042	-3.2396	-3.1063	32.312	267.427	166.588	247.089	221.803	182.328	270.610	108.153	113.104	237.510	239.392	288.901	292.077	295.340	110.629	191.151	0.00025639	0.00043037	1.2073e-05	346.3	3.1079e-06	4.7165e-06	459.44	122.92	7.5906e-07	2.4962e-06	214.36	109.87	64.241	37.838	6.2983e-06	66.62	0.00072649	0.00078941	0.00022383	360.92	8.6339e-06	8.5537e-06	477.58	128.45	8.3554e-06	8.4117e-06	224.03	114.36	67.849	39.367	8.3273e-06	69.18	129.333	-17.428	111.418	-37.020	113.824	99.735	-37.448	-31.752	71.770	59.221	-33.615	-30.126	-28.712	-25.269	93.863	-27.250	-8191	255	
2417.829	1	1	0	0	0.06412	0.071402	0.34224	0.13915	0.17785	0.23599	0.059733	0.039805	0.40311	0.14732	0.16355	0.24921	0.19259	0.36124	0.098017	0.36153	-2.4292	-3.25	-2.7396	-2.9	-3.275	-2.775	-3.0771	-3.0625	-2.7687	-3.2188	-2.9417	-2.9167	-3.1875	-2.9688	-3.0625	-2.9688	130.631	198.684	305.431	164.059	161.896	-6.279	231.743	153.595	301.858	289.396	274.909	249.166	33.555	306.145	215.580	-33.308	0.00028911	0.00053178	6.448e-05	345.21	6.2649e-06	4.1684e-06	461.37	123.12	5.1908e-06	5.2854e-06	214.71	110.08	64.453	37.694	1.3715e-06	66.187	0.00072475	0.00077044	0.00022672	359.54	8.5364e-06	8.6828e-06	477.97	128.66	8.5376e-06	8.5361e-06	224.97	114.34	67.76	39.235	8.7077e-06	68.732	132.407	-2.076	-27.249	-37.109	81.122	122.419	-37.310	-31.699	79.362	72.995	-33.214	-30.218	-28.871	-25.280	21.176	-27.059	-8191	255	
2417.949	1	1	0	0	0.16132	0.036341	0.43112	0.22175	0.091532	0.1588	0.092578	0.057173	0.042295	0.092194	0.32868	0.15946	0.091995	0.26568	0.21766	0.5803	-2.4146	-3.1937	-2.9188	-2.9	-3.0771	-2.85	-3.0979	-3.1063	-2.6312	-3.0875	-2.8771	-2.8271	-3.1312	-2.7646	-3.0438	-2.9896	175.275	291.958	170.602	-38.638	131.612	77.454	-30.673	-4.978	111.280	251.689	31.010	188.385	-14.661	-1.641	178.042	235.189	0.00023331	0.00025678	6.4435e-05	346.24	5.4286e-06	4.2234e-06	462.39	122.89	4.1131e-06	4.7863e-06	214.75	108.73	64.257	37.689	6.5157e-07	66.434	0.00075905	0.00081374	0.00023962	361.76	8.9263e-06	9.3025e-06	480.39	128.51	8.867e-06	8.7103e-06	224.22	113.91	67.487	39.162	8.769e-06	69.053	150.522	46.878	105.562	-37.189	67.398	84.198	-37.560	-31.904	108.665	81.581	-33.155	-30.046	-28.820	-25.445	109.427	-27.114	-8191	255	
2418.044	1	1	0	0	0.13085	0.18572	0.1695	0.16934	0.17895	0.17854	0.12737	0.1309	0.13757	0.13369	0.078644	0.2206	0.22303	0.11751	0.1209	0.35294	-2.3187	-2.9813	-3.0979	-2.775	-2.9417	-2.8667	-2.9396	-3.075	-2.7521	-3.3167	-3.0292	-2.9375	-3.1292	-2.6958	-2.9958	-3.0771	122.125	104.326	145.210	178.446	46.287	89.773	20.319	292.101	76.536	7.826	206.139	12.376	13.264	237.156	275.698	247.634	0.00026224	0.00048947	0.00017924	343.72	2.9006e-06	3.7733e-06	461.27	123.05	1.6334e-06	1.8041e-06	216.21	110.08	64.587	37.683	2.7474e-06	66.497	0.00075132	0.00077621	0.00023258	360.59	8.2473e-06	8.7281e-06	480.73	128.56	8.3074e-06	8.3605e-06	225.59	114.71	67.761	39.247	8.6961e-06	69.1	144.530	16.492	34.975	-37.145	119.977	149.100	-37.507	-31.820	77.425	166.912	-33.051	-30.209	-28.586	-25.029	128.772	-26.910	-8191	255	
2418.140	1	1	0	0	0.1437	0.34434	0.36841	0.18415	0.074156	0.061684	0.22768	0.32796	0.16937	0.047061	0.31709	0.20459	0.062486	0.069424	0.18374	0.23255	-2.2125	-2.9688	-2.8646	-2.8438	-3.2583	-2.7729	-2.9813	-3.1063	-2.8438	-3.0333	-2.9146	-2.7687	-3.1312	-2.9896	-2.9437	-3.1312	28.820	281.104	180.891	240.449	98.797	221.959	217.550	231.786	291.624	-6.777	283.752	292.532	174.603	-5.610	97.227	239.829	0.0002531	0.00044849	8.1208e-05	346.73	2.6076e-06	4.1951e-06	463.41	123.58	1.0183e-06	4.2342e-06	215.87	108.73	63.861	36.942	5.0582e-07	64.737	0.00075757	0.00080923	0.00023722	362.82	8.7177e-06	9.3975e-06	481.63	129.39	9.0951e-06	9.1342e-06	225.36	113.34	67.325	38.456	9.2921e-06	67.244	137.174	13.934	24.911	-37.310	82.479	140.925	-37.478	-31.623	162.106	97.238	-33.301	-30.065	-28.855	-25.201	126.591	-26.937	-8191	255	
2418.236	1	1	0	0	0.1707	0.17355	0.11154	0.14738	0.1229	0.20948	0.043309	0.11437	0.33944	0.27643	0.1724	0.14616	0.35223	0.093997	0.19783	0.24279	-2.4521	-3.0521	-3.1917	-2.7062	-3.0125	-2.7208	-3.0583	-3.0708	-2.8312	-3.0083	-3.1458	-2.8396	-2.9729	-2.7958	-2.8854	-3.0625	43.214	12.659	112.460	264.654	86.531	113.558	15.764	-26.634	39.514	266.830	169.711	-17.842	53.467	238.973	191.330	281.359	0.00022055	0.00071208	0.00013793	346.76	4.3101e-06	1.7563e-06	465.18	125.67	2.4778e-06	4.2789e-06	216.35	108.44	63.795	36.397	1.7348e-06	64.382	0.00079762	0.00085188	0.00025173	364.98	9.0259e-06	9.8299e-06	484.08	131.17	9.5449e-06	9.4758e-06	227.18	112.88	67.409	38.051	9.2759e-06	66.875	144.618	57.167	60.299	-36.697	93.872	97.040	-37.396	-32.133	132.052	97.035	-33.251	-30.172	-28.852	-25.119	126.925	-26.726	-8191	255	
2418.332	1	1	0	0	0.19566	0.13381	0.1531	0.26884	0.18825	0.10632	0.23175	0.11601	0.12112	0.19985	0.16966	0.084229	0.090152	0.17141	0.21372	0.1659	-2.5521	-2.8563	-3.0833	-2.7042	-3.1771	-2.9167	-2.9938	-3.1604	-2.9521	-3.0354	-3.1437	-2.875	-3.2438	-2.825	-2.5896	-3.1979	149.248	164.782	36.528	44.325	263.885	195.927	266.568	301.497	225.110	228.946	59.960	70.218	-8.169	-11.908	163.809	149.415	0.00023888	0.00042989	0.00016148	349.86	6.9069e-07	2.7778e-06	468.61	127.02	2.8923e-06	4.3717e-06	220.98	109.13	64.897	36.467	3.3166e-06	64.477	0.0007949	0.00084118	0.00023813	365.97	8.652e-06	9.3364e-06	486.64	132.69	9.0413e-06	9.1011e-06	231.04	114.09	68.307	38.117	8.8805e-06	67.037	135.194	19.804	291.433	-37.351	21.216	113.780	-37.141	-31.834	93.337	103.398	-33.694	-30.193	-28.833	-24.929	74.685	-26.956	-8191	255	
2418.428	1	1	0	0	0.10331	0.072035	0.07045	0.059375	0.18456	0.17972	0.22385	0.28067	0.17649	0.078093	0.25627	0.28752	0.080648	0.1265	0.11251	0.12071	-2.3521	-2.7104	-3.0833	-2.6854	-2.9667	-2.8625	-2.8354	-3.0875	-2.8979	-2.9104	-3.1063	-3.0458	-3.1333	-2.9688	-2.7458	-3.2062	-19.643	-13.197	-6.744	52.959	298.695	30.164	257.772	102.325	53.663	110.445	284.199	233.907	237.526	65.399	75.745	282.640	0.00020702	0.00026694	8.7506e-05	353.53	6.3535e-07	4.6047e-06	476.96	128.95	2.2644e-06	2.3677e-06	224.01	109.5	64.872	35.924	2.7048e-06	63.447	0.00077511	0.00081953	0.00023415	369.5	8.7554e-06	9.3814e-06	493.29	134.68	9.2185e-06	9.3281e-06	233.73	114.1	68.384	37.568	9.5356e-06	65.992	141.827	36.171	68.365	-37.289	201.286	72.697	-37.176	-32.201	112.236	90.799	-33.379	-29.825	-28.928	-25.133	173.167	-27.017	-8191	255	
2418.525	1	1	0	0	0.28355	0.24241	0.28335	0.21881	0.22976	0.22032	0.23604	0.26123	0.076318	0.067119	0.058583	0.27246	0.072085	0.27486	0.18456	0.15833	-2.3792	-2.8063	-2.9833	-2.7062	-3.0083	-2.9792	-2.8708	-3.05	-2.9042	-2.9375	-3.1625	-2.8021	-3.0021	-3.0979	-2.5792	-3.1958	290.857	-21.039	167.118	242.464	205.715	130.706	203.717	124.406	52.538	235.150	162.984	-30.625	272.864	-44.055	4.017	129.151	0.00025694	0.0002247	0.00013188	355.27	3.1158e-06	3.731e-06	479.37	129.08	2.1347e-06	6.0072e-06	221.72	107.39	64.037	35.716	3.5027e-06	62.496	0.00082114	0.0008859	0.00024652	372.94	9.2793e-06	9.8443e-06	496.92	135.08	9.7538e-06	9.87e-06	232.31	112.58	67.627	37.225	9.6906e-06	65.137	139.644	96.780	42.233	-36.827	122.720	71.583	-37.232	-31.928	83.396	69.535	-33.032	-30.149	-28.804	-25.017	114.078	-26.905	-8191	255	
2418.621	1	1	0	0	0.16847	0.02788	0.059649	0.051354	0.094226	0.04503	0.1018	0.31981	0.12873	0.057889	0.098198	0.17025	0.064554	0.21211	0.12716	0.1652	-2.6	-2.7854	-3.1271	-2.775	-3.0104	-3.1354	-2.8917	-2.8917	-2.9188	-2.7292	-2.8583	-2.6188	-2.95	-3.0187	-2.7896	-2.9479	186.547	-45.496	140.069	150.623	11.787	-32.990	-29.540	259.037	97.252	216.711	19.004	239.970	-46.628	266.375	253.341	139.876	0.00024145	0.00022928	7.924e-05	355.33	3.892e-06	3.4709e-06	474.27	128.73	3.8502e-06	4.1746e-06	224.7	108.54	65.013	36.159	1.9846e-06	63.219	0.00082363	0.00089274	0.00024397	372.22	9.4161e-06	9.741e-06	493.28	134.76	9.4663e-06	9.5659e-06	232.89	113.54	68.568	37.748	9.5597e-06	66.003	142.328	79.654	47.924	-37.246	88.505	63.640	-37.584	-31.874	91.193	89.164	-33.530	-30.129	-28.908	-25.276	63.913	-26.756	-8191	255	
2418.741	1	1	0	0	0.22237	0.23322	0.1785	0.015633	0.29439	0.065281	0.23903	0.21208	0.11271	0.1545	0.11246	0.10606	0.21518	0.2246	0.076652	0.23492	-2.4792	-2.6271	-3.0833	-2.8583	-2.8458	-3.0312	-2.7625	-2.9625	-3.0917	-2.7583	-3.1458	-3.0521	-2.7896	-3.2458	-2.7854	-3.1063	262.046	221.570	232.366	16.581	-28.367	47.429	206.132	-24.684	-27.584	251.441	246.511	25.118	243.834	41.098	43.173	200.135	0.00025427	0.00047758	0.0001029	352.75	4.5203e-06	2.474e-06	474.33	129.9	3.1324e-06	2.3117e-06	225.22	109.69	65.228	36.157	4.3066e-06	63.207	0.00081235	0.0008941	0.00024582	370.95	9.6446e-06	9.7741e-06	494.63	136.03	9.9168e-06	1.018e-05	235.39	114.56	68.886	37.805	1.0728e-05	65.851	145.287	37.652	86.999	-36.925	79.378	90.028	-37.369	-31.776	42.803	160.424	-33.615	-30.167	-28.860	-25.188	92.185	-26.941	-8191	255	
2418.837	1	1	0	0	0.173	0.042588	0.17823	0.11154	0.19746	0.21711	0.23195	0.039747	0.16287	0.15845	0.40905	0.30371	0.26832	0.28077	0.15574	0.034734	-2.6833	-2.7292	-2.95	-2.8917	-2.9021	-3.1958	-3.0396	-2.9375	-3.0354	-2.8125	-3.0854	-2.9667	-2.8833	-3.1021	-2.7417	-2.9458	20.452	186.430	75.204	256.844	219.378	70.209	192.602	-21.097	232.849	193.392	248.015	252.588	244.717	178.426	95.164	282.661	0.00023417	0.00033736	0.00014669	355.07	1.9783e-06	3.004e-06	478.95	131.84	2.3479e-06	6.4009e-06	227.64	109.49	65.312	36.098	2.0691e-06	63.071	0.00088656	0.0010015	0.00027127	373.89	1.062e-05	1.0653e-05	498.44	137.8	1.0739e-05	1.0923e-05	237.94	114.83	69.068	37.827	1.0894e-05	65.866	125.789	52.834	4.981	-36.963	61.156	107.944	-37.363	-31.932	116.387	133.564	-32.997	-29.881	-28.773	-25.133	149.419	-26.933	-8191	255	
2418.932	1	1	0	0	0.31238	0.20814	0.13671	0.030259	0.029739	0.23118	0.054857	0.24895	0.16006	0.1341	0.036696	0.078073	0.077878	0.086874	0.10749	0.40273	-2.6604	-2.7729	-2.9875	-3.0917	-2.9	-2.9979	-2.8229	-2.9292	-2.9917	-2.7854	-2.9771	-3.1021	-2.9625	-3.0646	-2.8646	-3.025	83.868	34.915	15.992	176.700	-12.614	-10.738	42.209	240.023	-12.545	150.861	246.742	144.702	-39.740	208.210	181.349	226.396	0.00024873	0.00046628	0.00011345	357.85	3.7023e-06	4.6821e-06	480.38	132.9	3.4905e-06	3.6191e-06	228.74	110.33	65.013	35.95	3.6806e-06	62.34	0.0008899	0.0009951	0.00027412	375.61	1.0754e-05	1.063e-05	501.46	139.04	1.0604e-05	1.1328e-05	239.21	115.1	69.042	37.526	1.1394e-05	65.023	138.194	64.795	38.196	-37.079	176.156	138.222	-37.416	-32.113	91.593	128.389	-33.496	-30.118	-28.889	-25.212	97.383	-26.729	-8191	255	
2419.030	1	1	0	0	0.13042	0.13354	0.1795	0.14536	0.14852	0.23555	0.19672	0.060871	0.18413	0.16188	0.14585	0.19416	0.22651	0.08742	0.18777	0.17971	-2.6396	-2.775	-2.9458	-3.0542	-2.8021	-2.9896	-2.825	-2.8292	-3.2188	-2.7458	-3.0083	-3.1021	-2.7479	-3.3688	-2.9708	-3.0979	220.503	83.528	98.539	-11.690	122.116	9.363	-36.920	147.753	24.416	101.890	50.664	300.232	204.387	270.905	23.930	270.622	0.00022348	0.0003269	0.00013589	356.71	2.2803e-06	3.0984e-07	478.12	131.69	3.4255e-06	1.8169e-06	227.25	108.75	64.838	35.524	2.3994e-06	61.794	0.00091298	0.0010574	0.00029066	375.7	1.1264e-05	1.1114e-05	498.16	138.59	1.1087e-05	1.1695e-05	237.52	113.89	68.692	37.248	1.1739e-05	64.608	145.405	60.622	58.971	-37.108	103.343	159.754	-37.523	-32.044	89.651	112.614	-33.440	-30.391	-28.839	-25.183	125.009	-26.645	-8191	255	
2419.124	1	1	0	0	0.089018	0.16603	0.11975	0.052371	0.07719	0.18247	0.14635	0.09813	0.053523	0.14694	0.091169	0.17042	0.16522	0.1263	0.18316	0.10049	-2.6521	-2.7354	-3.1583	-3.1958	-2.8021	-2.9875	-2.9979	-2.5375	-3.1354	-2.8812	-2.9396	-3.1354	-2.8438	-3.2729	-3.1771	-3.0229	-10.517	285.120	235.504	239.145	304.070	221.286	277.105	187.487	4.469	48.176	126.733	296.965	-9.729	203.481	239.681	-5.482	0.00028052	0.00048965	7.2313e-05	356.01	4.8061e-07	8.0396e-06	477.4	131.24	3.0762e-06	1.2914e-06	225.02	107.53	64.049	35.289	1.5133e-06	61.381	0.00094127	0.0011012	0.00030036	375.07	1.1772e-05	1.18e-05	499.57	138.28	1.1252e-05	1.2354e-05	236.74	112.85	68.04	36.923	1.2231e-05	64.237	139.117	30.200	31.226	-37.306	245.830	98.314	-37.324	-32.095	75.378	295.975	-33.418	-29.960	-28.727	-25.218	86.910	-26.887	-8191	255	
2419.222	1	1	0	0	0.22396	0.21106	0.27445	0.11464	0.14421	0.021436	0.34086	0.090377	0.22447	0.15919	0.17604	0.37753	0.091071	0.061111	0.10475	0.13199	-2.6917	-2.6854	-2.7604	-3.0729	-2.6458	-3.0125	-3.05	-2.8854	-2.9417	-2.8979	-2.9521	-3.1937	-2.8979	-3.1833	-3.0187	-2.7708	5.875	141.498	183.609	186.643	-40.219	278.036	269.071	303.561	226.703	31.451	270.942	266.514	92.465	83.015	35.933	239.191	0.00026096	0.00049624	0.00018036	356.22	2.3143e-06	3.8604e-06	479.16	130.25	2.2365e-06	6.9819e-06	224.42	106.45	63.092	34.81	1.7646e-06	61.214	0.00096828	0.0011435	0.00031715	376.69	1.2089e-05	1.2048e-05	501.53	137.54	1.1612e-05	1.2567e-05	235.93	111.76	67.296	36.623	1.2248e-05	63.897	126.533	47.639	-20.468	-37.119	125.070	125.090	-37.342	-32.126	91.278	59.078	-33.328	-29.948	-28.514	-25.338	93.670	-26.833	-8191	255	
2419.341	1	1	0	0	0.10213	0.17237	0.13767	0.039753	0.25739	0.15093	0.25192	0.058187	0.048678	0.24435	0.04908	0.085096	0.46751	0.18199	0.10682	0.13921	-2.5938	-2.7896	-2.7687	-3.0854	-2.8667	-3	-2.7333	-2.7208	-3.0479	-2.9646	-2.8812	-3.0438	-2.8104	-2.9729	-2.9188	-2.8875	-5.201	4.321	-20.961	159.195	-9.525	224.924	6.602	274.666	84.239	107.192	20.396	286.960	288.901	265.692	241.515	303.951	0.00025698	0.00030658	0.0001324	360.09	4.296e-06	3.1988e-06	479.36	129.42	1.8972e-06	3.8885e-06	221.32	106.11	62.652	34.721	1.3765e-06	60.802	0.00096214	0.0011325	0.00031677	377.62	1.2026e-05	1.2088e-05	501.33	135.94	1.1493e-05	1.2248e-05	233.27	110.84	66.353	36.466	1.1795e-05	63.535	149.065	27.391	51.359	-37.384	68.598	93.529	-37.458	-32.199	62.571	150.016	-33.339	-29.996	-28.864	-25.066	199.226	-26.681	-8191	255	
2419.437	1	1	0	0	0.21795	0.099233	0.16873	0.14151	0.20187	0.36069	0.11819	0.15582	0.074629	0.053172	0.22134	0.24802	0.26016	0.066856	0.076058	0.22477	-2.5563	-3.0417	-2.8854	-3.1417	-2.9042	-2.9813	-3.325	-2.7667	-3.125	-3.1167	-2.7562	-2.9542	-2.9354	-3.0604	-3.15	-2.9958	200.799	282.645	165.748	287.275	208.492	152.008	289.815	235.296	233.368	206.617	205.696	282.705	24.555	6.765	-28.793	165.684	0.00027004	0.00033137	9.5787e-05	358.21	4.4275e-07	3.8412e-06	474.18	127.09	1.303e-06	4.3621e-06	217.82	103.6	61.291	34.02	4.2275e-06	59.654	0.00096119	0.0011255	0.00031907	375.73	1.2085e-05	1.2051e-05	496.99	134.14	1.1474e-05	1.1962e-05	229.75	108.45	65.219	35.814	1.179e-05	62.393	141.099	18.104	18.865	-37.008	80.279	110.208	-37.453	-32.249	183.198	95.718	-33.424	-30.186	-28.789	-25.139	113.718	-26.538	-8191	255	
2419.533	1	1	0	0	0.23339	0.16452	0.13935	0.16782	0.058821	0.15755	0.10816	0.21818	0.23342	0.13627	0.078957	0.082427	0.14686	0.31437	0.075493	0.20199	-2.5792	-2.9104	-2.825	-3.1792	-2.6708	-2.7875	-3.1042	-2.8312	-3.0792	-3.0042	-2.8312	-3.0729	-2.8854	-2.9521	-3.1437	-3.0917	272.383	276.530	124.425	240.771	120.206	110.035	246.392	246.577	299.964	307.158	281.401	-18.921	182.469	257.232	57.324	222.899	0.000234	0.00046336	5.2732e-05	355.24	1.5941e-06	4.4979e-06	475.6	126.45	3.3323e-06	3.8178e-06	216.33	103.08	60.68	33.674	2.5683e-06	59.435	0.00097138	0.0011166	0.0003193	373.77	1.2136e-05	1.2275e-05	497.82	133.35	1.1824e-05	1.2351e-05	228.02	107.5	64.494	35.437	1.1691e-05	61.979	140.365	63.658	12.713	-37.257	-4.711	130.765	-37.381	-31.976	133.882	113.043	-33.409	-29.858	-28.660	-25.062	78.749	-26.958	-8191	255	
2419.629	1	1	0	0	0.070692	0.041935	0.0861	0.13283	0.20654	0.21678	0.048921	0.16714	0.084431	0.11688	0.058371	0.018848	0.13843	0.3504	0.2039	0.27569	-2.55	-2.8604	-2.6771	-3.2542	-2.8792	-2.7938	-3.1375	-2.7167	-3.1	-2.8917	-3.0125	-3.0187	-2.9729	-2.975	-3.1333	-2.8021	-5.729	166.857	175.658	147.379	10.328	41.928	81.252	76.448	-32.745	-28.471	-33.098	71.606	263.376	-16.691	249.782	143.803	0.00024637	0.00031292	0.0001228	354.97	3.0408e-06	1.8594e-06	473.22	124.98	3.2577e-06	2.7861e-06	215.86	102.33	60.268	33.778	1.8431e-06	59.578	0.00097411	0.0011187	0.0003172	373.9	1.1927e-05	1.2332e-05	496.06	132.48	1.156e-05	1.1805e-05	227.23	107.2	64.154	35.426	1.1183e-05	62.107	137.725	51.988	-21.919	-37.152	105.420	113.941	-37.840	-31.951	180.023	122.952	-33.451	-30.037	-28.559	-24.841	98.776	-26.468	-8191	255	
2419.726	1	1	0	0	0.18317	0.096119	0.18994	0.17092	0.087893	0.10184	0.085987	0.13104	0.17326	0.23697	0.10046	0.1029	0.16705	0.29835	0.062133	0.099574	-2.5708	-3.2125	-2.7896	-2.9562	-3.1271	-2.8271	-3.2167	-2.9042	-2.85	-3.1479	-2.8563	-3.0333	-2.9813	-2.7917	-3.0521	-2.9542	43.904	-33.036	62.579	222.034	-43.673	168.350	26.332	-39.669	199.886	294.860	262.974	238.192	-18.718	-15.900	203.781	289.603	0.00025415	0.00025901	0.00012117	354.38	2.3825e-06	3.5739e-06	476.09	125.77	5.3202e-06	3.2261e-06	215.61	102.45	60.203	33.672	1.7239e-06	59.545	0.00096248	0.0010627	0.00030756	372.6	1.1617e-05	1.197e-05	496.34	132.25	1.1605e-05	1.1713e-05	226.86	107.18	63.848	35.287	1.1194e-05	62.018	131.420	12.374	6.550	-37.134	140.323	47.017	-37.282	-32.068	130.651	107.341	-33.645	-29.826	-28.619	-25.056	65.672	-26.461	-8191	255	
2419.822	1	1	0	0	0.21409	0.32934	0.38039	0.31068	0.05375	0.1983	0.069677	0.12121	0.18169	0.18069	0.18426	0.005725	0.12263	0.094931	0.12589	0.13913	-2.3208	-2.9833	-2.7333	-3.0729	-2.9167	-2.6333	-3.0646	-2.9062	-2.8708	-3.2313	-2.8104	-2.8812	-3.0375	-2.7396	-3.0917	-3.0292	18.518	4.827	307.377	127.124	37.746	20.168	67.306	257.549	181.011	227.662	295.149	183.822	-2.061	294.670	61.088	272.107	0.00023612	0.00013708	0.00015637	351.45	2.7053e-06	6.404e-06	473.89	125.21	2.8563e-06	3.452e-06	214.18	102.19	60.211	33.542	7.6924e-06	59.063	0.00096425	0.0010459	0.00030879	372.15	1.1427e-05	1.1844e-05	494.22	131.7	1.1323e-05	1.1291e-05	226.13	106.79	63.977	35.262	1.1095e-05	61.724	143.529	-11.595	53.029	-37.091	41.729	89.704	-37.644	-32.123	58.863	99.139	-33.235	-29.898	-28.683	-25.022	90.512	-26.699	-8191	255	
2419.918	1	1	0	0	0.23216	0.072312	0.044102	0.3253	0.47001	0.13369	0.37477	0.30433	0.088305	0.10517	0.33325	0.16801	0.038192	0.22368	0.225	0.078496	-2.2438	-3.1375	-2.6771	-3.0396	-2.8604	-2.7729	-3.1292	-2.9229	-2.7	-3.0312	-2.7313	-2.9854	-3.0812	-2.6854	-3.0417	-2.9146	78.408	240.018	106.432	218.610	92.956	229.549	246.487	9.576	49.195	148.795	293.380	232.986	107.672	-42.606	248.525	48.022	0.00022617	0.00036309	0.00021002	349.26	4.2928e-06	4.2669e-06	470.69	124.85	1.1018e-06	1.7313e-06	215.25	101.78	60.266	33.578	2.6052e-06	59.362	0.00095182	0.0010202	0.00030414	368.59	1.1128e-05	1.1639e-05	489.98	131.31	1.1241e-05	1.1059e-05	225.69	106.69	63.737	35.219	1.0889e-05	61.898	142.069	12.736	16.487	-36.949	121.880	93.286	-37.531	-32.200	110.670	144.393	-33.290	-29.852	-28.816	-25.198	191.460	-26.720	-8191	255	
2420.014	1	1	0	0	0.10472	0.039511	0.20636	0.17835	0.1719	0.17341	0.10686	0.091844	0.074573	0.34638	0.13832	0.055152	0.07657	0.19913	0.13589	0.08759	-2.2271	-2.9604	-2.7292	-2.9583	-3.1688	-2.8083	-3.3104	-2.9146	-2.9333	-3.075	-3.0708	-3.1958	-3.1208	-2.8125	-3.0167	-3.0979	-13.064	-17.395	85.524	37.519	61.192	189.498	188.206	184.671	-31.752	73.006	182.078	179.604	198.092	36.081	97.301	40.206	0.0002952	7.8551e-05	8.7951e-05	351.52	2.8752e-06	2.5892e-06	470.05	125.77	5.3694e-06	5.7472e-06	217.04	103.05	60.867	33.812	2.4544e-06	59.85	0.00093062	0.0010026	0.00029198	368.8	1.078e-05	1.1576e-05	489.59	132.15	1.1124e-05	1.0838e-05	227.57	107.86	64.407	35.514	1.0899e-05	62.393	142.249	42.932	-6.269	-37.248	76.546	126.205	-37.391	-31.882	128.919	98.114	-33.707	-30.092	-28.746	-25.084	117.098	-26.738	-8191	255	
2420.133	1	1	0	0	0.10776	0.037407	0.081235	0.071517	0.14927	0.22861	0.1277	0.1699	0.18875	0.16104	0.14069	0.19323	0.21548	0.40286	0.16916	0.098867	-2.4292	-3.1708	-2.8063	-2.8	-2.9333	-2.8438	-2.9896	-3.1417	-2.8187	-3.1417	-2.9146	-2.9625	-3.075	-2.8063	-2.9813	-3.1292	237.935	250.368	244.500	50.048	-18.954	-32.545	218.307	113.185	13.022	32.277	155.346	42.988	-39.075	-11.968	292.125	154.514	0.00027015	3.0748e-05	0.00011856	353.66	1.7514e-06	1.8672e-06	469.92	126.67	2.5214e-06	2.2781e-06	218.86	103.57	61.458	33.94	1.9855e-06	60.294	0.00091798	0.00098472	0.00028861	369.3	1.0486e-05	1.1094e-05	492.24	132.83	1.0949e-05	1.0726e-05	229.85	108.81	64.973	35.566	1.1092e-05	62.704	141.885	188.011	51.475	-37.273	50.960	178.701	-37.485	-32.010	167.161	112.533	-33.606	-29.827	-28.700	-25.272	66.010	-26.676	-8191	255	
2420.229	1	1	0	0	0.065304	0.3017	0.060983	0.076032	0.20462	0.15696	0.24244	0.10255	0.3022	0.17408	0.23252	0.15851	0.26497	0.22512	0.072424	0.114	-2.1167	-3.0812	-2.9917	-2.7958	-3.1271	-2.9792	-3.0896	-3.0396	-2.8083	-3.0979	-2.9437	-2.9021	-3.0083	-2.8354	-3.0167	-3.1375	131.387	294.033	23.095	154.663	204.585	280.752	49.793	-18.115	-5.667	134.591	-30.527	298.958	235.551	248.752	209.512	177.607	0.00024843	0.00035993	6.0025e-05	352.41	3.5973e-08	4.2817e-06	475.56	127.43	3.6124e-06	5.5312e-06	218.53	103.64	61.172	33.585	4.6233e-06	59.002	0.00092059	0.00099269	0.00028974	370.69	1.0599e-05	1.137e-05	495.45	133.84	1.0904e-05	1.1033e-05	230	108.81	64.999	35.232	1.0887e-05	61.691	139.910	70.066	135.977	-37.282	146.003	70.996	-37.359	-31.977	202.151	114.414	-33.375	-29.903	-28.639	-24.868	98.974	-26.661	-8191	255	
2420.302	1	1	0	0	0.20839	0.075987	0.095414	0.19032	0.14845	0.11328	0.13435	0.2979	0.15013	0.07633	0.11391	0.14295	0.25669	0.21644	0.15336	0.089242	-2.2812	-3.0208	-3.025	-3.0125	-3.1375	-2.8729	-2.8542	-3.0833	-2.8771	-3.1021	-3.1188	-2.8979	-3.0958	-3.0187	-2.8563	-3.3771	28.273	19.239	262.379	279.514	8.715	30.397	175.053	229.289	281.877	-11.238	25.537	46.975	304.570	-39.382	287.451	306.570	0.00019931	0.00066995	0.00010121	355.22	4.4055e-06	2.9589e-06	475.81	128.72	1.6258e-06	5.4553e-06	221.07	104.36	62.17	34.278	4.4959e-06	60.703	0.00093409	0.0010173	0.0002867	372.65	1.0546e-05	1.1256e-05	496.8	134.71	1.0819e-05	1.094e-05	231.16	109.45	65.887	35.956	1.098e-05	63.329	147.796	69.589	56.360	-37.139	102.004	110.089	-37.383	-32.311	114.443	92.045	-33.210	-30.286	-28.739	-25.267	97.262	-26.507	-8191	255	
2420.421	1	1	0	0	0.24419	0.24709	0.091469	0.12016	0.1225	0.21558	0.21373	0.038088	0.20818	0.33893	0.18023	0.32809	0.30479	0.16346	0.11947	0.28831	-2.2771	-3.0292	-3.0021	-2.8792	-3.0417	-2.9729	-2.8937	-3.2854	-3.0354	-2.9854	-3.0479	-2.8479	-3.0375	-3.1583	-2.8	-3.1917	295.017	206.513	243.431	18.148	206.428	143.560	239.514	223.774	164.728	40.858	234.511	294.969	264.880	-16.681	209.185	299.644	0.00021363	0.00012404	8.1309e-05	351.82	2.7444e-06	2.1714e-06	474.96	129.11	2.1801e-06	2.9887e-06	222.81	105.11	62.329	34.254	5.28e-06	60.466	0.00089409	0.0009828	0.00027389	370.36	1.024e-05	1.0852e-05	495.02	135.45	1.0797e-05	1.1158e-05	233.05	110.37	66.109	35.987	1.121e-05	63.17	145.330	7.405	51.872	-37.182	144.472	119.736	-37.554	-31.962	103.196	86.432	-33.431	-30.219	-28.607	-25.029	128.454	-26.699	-8191	255	
2420.517	1	1	0	0	0.1038	0.24379	0.20883	0.20645	0.44003	0.056508	0.21683	0.22353	0.15816	0.12491	0.027023	0.11103	0.15603	0.17707	0.076259	0.17193	-2.3688	-2.8646	-3.05	-2.7188	-2.9854	-2.9167	-2.9375	-3.1896	-2.8833	-3.0083	-3.1396	-2.9667	-3.0292	-3.2375	-2.8771	-3.2167	198.580	201.310	9.228	203.414	248.149	162.127	12.047	226.401	309.829	192.449	146.736	51.096	13.955	114.023	140.785	99.923	0.00024917	0.00039245	0.00015788	354.32	2.0304e-06	1.6962e-06	478.57	129.23	2.4238e-06	6.8948e-06	221.77	104.6	61.694	34.021	2.6788e-06	59.709	0.00091458	0.0010409	0.0002813	374.18	1.0849e-05	1.1401e-05	498.35	135.54	1.1239e-05	1.1538e-05	233.04	109.73	65.702	35.597	1.1706e-05	62.484	141.830	42.438	36.329	-36.901	64.952	125.462	-37.347	-31.954	136.853	116.414	-33.398	-29.977	-28.264	-25.213	113.493	-26.589	-8191	255	
2420.614	1	1	0	0	0.20412	0.20277	0.19217	0.15361	0.058583	0.16399	0.13718	0.034953	0.052	0.099522	0.15044	0.42036	0.06189	0.21709	0.18459	0.10538	-2.4021	-2.9646	-3.1562	-2.7625	-2.9542	-2.9771	-2.9	-3.0896	-2.9062	-2.9062	-3.0479	-2.8854	-3.125	-3.0104	-2.7396	-3.1083	201.419	24.747	172.439	177.978	304.798	204.408	-20.934	236.828	191.990	308.267	-31.328	296.439	89.514	254.557	257.901	257.076	0.00026431	0.00039975	8.5983e-05	355.36	4.7398e-06	6.7865e-06	481.49	128.26	2.4137e-06	2.2377e-06	220.82	104.4	61.394	33.656	2.9297e-06	58.904	0.00094828	0.0010716	0.00029145	374.75	1.1432e-05	1.1608e-05	501.55	135.13	1.1453e-05	1.1895e-05	232.27	109.33	65.221	35.296	1.1885e-05	61.596	139.411	32.139	-6.729	-37.129	93.127	45.422	-37.515	-31.837	79.407	91.726	-33.539	-29.794	-28.684	-25.029	117.565	-26.589	-8191	255	
2420.710	1	1	0	0	0.29512	0.2096	0.15936	0.044605	0.13855	0.14005	0.073411	0.0082106	0.14081	0.16208	0.14731	0.2454	0.19661	0.15398	0.042093	0.056826	-2.6437	-2.9229	-3.1333	-2.9313	-2.8396	-3.1604	-2.9833	-3.1125	-2.8854	-2.8417	-3.2896	-2.8667	-2.9542	-3.2792	-2.8271	-3.2646	267.551	265.206	187.194	186.846	280.535	23.366	268.055	64.773	259.358	169.229	36.420	272.111	-48.627	-2.798	307.734	47.415	0.00021433	0.00030528	7.6425e-05	356.93	3.415e-06	3.1598e-06	477.94	127.89	2.2809e-06	2.511e-06	218.48	102.5	60.709	33.21	3.1986e-06	58.234	0.00098646	0.0011245	0.00030275	376.48	1.1816e-05	1.1869e-05	499.78	134.46	1.1839e-05	1.2563e-05	230.17	107.39	64.701	34.764	1.2238e-05	60.812	136.414	23.534	37.235	-37.229	67.478	119.897	-37.652	-32.061	100.558	105.715	-33.487	-30.272	-28.757	-25.165	83.677	-26.613	-8191	255	
2420.830	1	1	0	0	0.15052	0.16879	0.072614	0.16583	0.10192	0.10477	0.14443	0.14238	0.059343	0.13635	0.2028	0.19112	0.044105	0.15868	0.25865	0.2255	-2.5083	-2.8937	-3.075	-2.7438	-2.9521	-3.0125	-2.7375	-3.0792	-2.9042	-2.7229	-3.1104	-2.9875	-2.9292	-3.05	-2.9062	-3.0708	52.519	287.860	258.015	244.385	275.999	306.862	61.165	169.008	55.430	258.579	106.314	103.413	186.951	281.476	161.180	280.737	0.00017395	0.00018461	0.0001082	358.78	2.1858e-06	4.4056e-06	478.47	127.44	4.1815e-06	8.2081e-07	218.25	101.78	60.413	32.996	5.7052e-06	58.145	0.0009851	0.0011556	0.0003081	377.2	1.2076e-05	1.1877e-05	500.96	134.1	1.1805e-05	1.248e-05	229.32	106.93	64.364	34.593	1.2409e-05	60.592	134.727	70.014	52.003	-37.336	153.925	141.331	-37.724	-31.866	140.414	198.940	-33.402	-29.920	-28.445	-25.004	114.333	-26.897	-8191	255	
2420.925	1	1	0	0	0.09675	0.13346	0.0058308	0.11313	0.30396	0.076755	0.10646	0.04156	0.15949	0.28514	0.036857	0.17493	0.11522	0.13565	0.2595	0.15473	-2.5479	-2.6771	-3.1146	-2.8688	-2.7812	-3.0229	-2.8979	-3.1229	-2.8958	-2.7562	-3.1063	-3.0854	-2.7771	-3.1458	-2.7104	-3.0958	105.884	215.611	290.896	127.936	285.385	299.166	254.464	-19.802	216.298	-3.197	233.326	-26.086	225.376	-34.956	245.125	48.706	0.00022434	0.0005657	2.0568e-05	358.84	2.235e-06	2.8289e-06	481.33	126.93	1.9041e-06	4.6068e-06	217.45	101.37	60.095	32.519	5.3928e-06	57.39	0.00098899	0.0011546	0.00031373	377.9	1.2541e-05	1.2153e-05	502.66	134.03	1.2129e-05	1.2907e-05	229.22	106.43	63.801	34.194	1.2692e-05	60.238	131.848	30.476	8.003	-37.318	91.598	79.176	-37.388	-32.085	65.314	102.161	-33.312	-29.856	-28.599	-25.073	41.365	-26.607	-8191	255	
2421.023	1	1	0	0	0.10634	0.070843	0.058151	0.15151	0.19661	0.13487	0.25208	0.23005	0.13929	0.21325	0.22885	0.17746	0.30038	0.23345	0.17435	0.29937	-2.575	-2.6312	-3.05	-2.7854	-2.8208	-3.2521	-2.9521	-3.1521	-2.9271	-2.7438	-3.1333	-2.9604	-2.8312	-3.0354	-2.9833	-2.9437	200.196	247.720	289.373	100.770	71.606	-27.529	31.299	254.747	207.141	45.790	254.073	-29.962	112.628	296.067	98.230	218.877	0.00023896	0.00025459	0.000123	358.12	3.1727e-06	3.9112e-06	482.68	127.52	3.2153e-06	5.5365e-06	218.99	101.88	59.978	32.618	2.6343e-06	57.894	0.001014	0.0011902	0.00032147	378.87	1.2563e-05	1.2163e-05	504.11	134.08	1.1742e-05	1.2356e-05	229.46	106.68	63.818	34.221	1.1889e-05	60.443	154.156	0.648	98.805	-36.898	88.893	132.649	-37.419	-32.044	50.006	60.287	-33.462	-29.667	-28.714	-25.037	78.398	-26.502	-8191	255	
2421.119	1	1	0	0	0.11631	0.090799	0.068876	0.095883	0.20508	0.2539	0.145	0.20657	0.17959	0.13674	0.29019	0.26291	0.14776	0.039804	0.02921	0.060024	-2.6312	-2.4667	-2.8063	-2.9521	-2.8375	-3.1729	-2.9542	-2.9375	-3.1354	-2.9208	-3.0083	-3.1042	-2.8958	-3.0187	-2.8625	-3.0396	131.888	53.442	222.123	34.910	125.215	145.881	-47.134	241.060	250.317	234.183	240.814	131.862	287.656	-31.701	287.161	232.178	0.00022501	0.00027934	0.00010041	358.45	1.9567e-06	2.5402e-06	480.31	127.37	7.2026e-07	5.5048e-06	217.16	101.27	60.132	32.58	2.3774e-06	57.571	0.00095733	0.0011227	0.00031146	377.86	1.2229e-05	1.1679e-05	501.2	133.99	1.1438e-05	1.2126e-05	228.45	106.1	63.722	34.216	1.2058e-05	60.158	132.959	31.351	77.602	-37.094	71.183	95.679	-37.666	-31.899	203.311	98.504	-33.315	-29.935	-28.640	-24.946	137.630	-26.595	-8191	255	
2421.213	1	1	0	0	0.17206	0.0066245	0.073315	0.12985	0.11927	0.085733	0.13808	0.26905	0.068059	0.15725	0.13264	0.35628	0.17725	0.056927	0.099112	0.20677	-2.5021	-2.6958	-3.025	-3.025	-2.8333	-3.2771	-2.9417	-2.8729	-3.1625	-2.8167	-2.9104	-3.0042	-2.7229	-3.1937	-2.7896	-2.8417	56.253	234.372	-15.007	-19.911	245.487	-19.290	-19.695	199.327	298.923	124.698	11.688	224.396	30.691	297.659	237.785	266.544	0.00022969	0.00056454	7.7053e-05	355.79	2.5685e-06	1.4213e-06	475.82	126.92	4.2449e-06	3.3053e-06	216.97	100.77	59.6	32.653	3.7136e-06	57.595	0.00095442	0.0011139	0.00031099	375.24	1.1974e-05	1.1746e-05	498.55	133.8	1.1366e-05	1.2085e-05	227.83	106.03	63.612	34.29	1.1905e-05	60.197	142.188	71.033	11.249	-36.952	45.785	59.727	-37.480	-32.239	87.571	114.494	-33.055	-30.074	-28.552	-24.801	239.021	-26.644	-8191	255	
2421.309	1	1	0	0	0.12121	0.088823	0.03833	0.25087	0.1372	0.19755	0.21276	0.28944	0.25617	0.09122	0.082674	0.22381	0.10282	0.089566	0.052064	0.32092	-2.4521	-2.8542	-2.925	-3.0312	-2.7396	-3.0458	-3.0229	-2.725	-3.0021	-2.7896	-2.9167	-3.0833	-2.8333	-2.9771	-2.9771	-2.9792	219.044	249.560	99.072	244.464	207.552	129.168	192.413	232.205	194.312	289.349	160.458	204.154	-34.833	-27.013	54.616	255.694	0.00024022	0.00040346	0.00010224	352.57	6.6652e-06	3.7187e-06	477.45	126.39	1.9297e-06	1.2536e-06	217.31	101.28	59.936	32.765	3.2409e-06	58.142	0.00095151	0.0011147	0.00031798	374.58	1.2078e-05	1.1879e-05	499.03	133.38	1.1409e-05	1.2186e-05	228.02	106.4	63.789	34.44	1.1684e-05	60.603	135.614	92.327	45.240	-37.120	100.035	74.421	-37.676	-32.217	107.572	189.200	-33.683	-29.718	-28.502	-24.887	67.353	-26.634	-8191	255	
2421.430	1	1	0	0	0.1631	0.13879	0.11832	0.094997	0.12838	0.2437	0.1898	0.013086	0.069289	0.051065	0.034431	0.24131	0.10529	0.15444	0.15805	0.19496	-2.8812	-2.8542	-2.7562	-3.0146	-2.7375	-3.1792	-2.9396	-2.7875	-3.0896	-2.875	-2.9375	-3.2292	-2.7854	-3.0292	-3.2104	-2.8333	237.430	214.146	214.418	111.918	119.943	155.830	231.904	296.053	138.586	94.870	-21.625	-38.875	29.679	-5.998	129.028	140.540	0.00023132	0.00012472	0.00011025	356.55	1.007e-06	4.9947e-06	480.31	126.95	3.4512e-06	3.5716e-06	218.1	102.46	60.294	33.049	2.9921e-06	58.689	0.0009511	0.0011013	0.00031764	374.39	1.1817e-05	1.1913e-05	499.2	133.58	1.1255e-05	1.186e-05	229.36	107.09	64.262	34.697	1.1344e-05	61.211	141.937	14.626	-4.144	-37.270	48.613	45.952	-37.657	-31.618	113.059	169.249	-33.442	-30.145	-28.352	-25.084	44.941	-26.577	-8191	255	
2421.526	1	1	0	0	0.064477	0.17853	0.30424	0.08736	0.076178	0.076753	0.2697	0.14201	0.1473	0.04303	0.17712	0.20235	0.26971	0.29488	0.15451	0.1496	-2.6854	-3.0167	-2.9292	-3.1167	-2.6917	-2.9625	-3.0292	-2.9271	-3.2125	-3.0333	-2.8271	-2.9792	-2.8125	-2.9437	-3.0917	-3.0521	-4.612	-33.170	147.452	134.939	197.393	117.305	225.613	268.638	95.305	209.594	186.843	-27.819	214.957	147.867	7.979	269.347	0.00023556	0.00044923	9.9098e-05	353.01	1.7338e-06	6.7188e-06	476.76	126.26	1.4635e-06	2.1782e-06	217.69	101.77	60.201	32.987	7.8324e-06	58.177	0.00092885	0.001063	0.00031207	372.21	1.1676e-05	1.2084e-05	497.18	133.5	1.127e-05	1.1425e-05	229.1	106.52	63.899	34.538	1.1227e-05	60.491	138.808	13.663	36.607	-37.165	122.193	138.477	-37.671	-31.950	122.205	101.327	-33.615	-30.205	-28.339	-25.186	90.013	-26.619	-8191	255	
2421.598	1	1	0	0	0.1515	0.12753	0.14545	0.095224	0.24797	0.089468	0.09878	0.14938	0.057979	0.16587	0.17774	0.22767	0.14296	0.25274	0.07474	0.28077	-2.6063	-3.0583	-2.6854	-3.0896	-2.7917	-3.0187	-3.1292	-2.8458	-3.2687	-2.9083	-2.6042	-3.1354	-2.8083	-3.0271	-2.9792	-2.9583	-7.872	86.937	270.780	220.610	184.199	104.659	222.099	-7.619	-36.496	8.384	-31.841	155.267	65.629	-15.955	150.985	267.980	0.00021961	0.00048291	6.1876e-05	352.88	3.7373e-06	2.5567e-06	473.21	126.88	1.8473e-06	4.1463e-06	217.17	101.31	59.974	32.679	1.709e-06	57.629	0.00093789	0.0010536	0.00030636	372.43	1.1334e-05	1.1984e-05	494.87	133.41	1.1307e-05	1.1443e-05	228.39	106.23	63.815	34.325	1.1217e-05	60.216	133.901	23.756	-1.690	-36.980	48.005	40.823	-37.559	-32.024	112.743	125.197	-33.498	-29.914	-28.526	-25.111	141.740	-26.789	-8191	255	
2421.694	1	1	0	0	0.26905	0.28264	0.11033	0.20962	0.15093	0.22726	0.17526	0.062807	0.03833	0.16296	0.077707	0.31792	0.335	0.099048	0.24504	0.037729	-2.5	-2.9833	-2.8104	-3.1958	-2.7938	-2.8625	-3.1125	-2.7375	-3.1271	-3.0896	-2.7542	-3.1854	-2.8937	-2.8875	-3.1458	-2.9667	120.688	91.729	52.877	132.730	16.929	133.345	67.083	257.944	12.619	16.755	31.679	-41.714	85.303	243.872	22.368	4.215	0.00019459	0.00035212	9.7017e-05	354.04	5.5444e-06	3.4614e-06	474.56	127.1	2.1187e-06	3.4496e-06	216.93	101.4	59.839	32.67	2.0332e-06	57.708	0.00095788	0.001054	0.00031047	373.33	1.1418e-05	1.192e-05	496.51	133.39	1.1298e-05	1.1426e-05	228.26	106.34	63.719	34.295	1.1128e-05	60.303	144.321	39.190	40.333	-37.325	119.057	75.245	-37.760	-32.016	98.135	74.205	-33.105	-30.030	-28.650	-25.233	38.772	-26.741	-8191	255	
2421.815	1	1	0	0	0.1232	0.076603	0.18166	0.10365	0.28625	0.1656	0.076067	0.28549	0.19871	0.278	0.038322	0.27385	0.43086	0.093366	0.2638	0.11779	-2.3917	-3.05	-2.6896	-2.9396	-2.85	-2.9667	-3.2375	-2.9375	-3.0438	-3.0479	-2.7104	-3.175	-2.8125	-2.9229	-2.9833	-3.0021	162.619	291.970	115.070	273.936	221.980	6.220	183.242	-45.730	179.259	-26.874	97.683	-8.219	304.792	-11.544	66.163	282.220	0.00024734	0.0003705	0.00010739	355.08	4.6869e-06	3.5217e-06	477.07	127.29	2.2071e-06	1.8382e-06	218.12	101.89	60.2	32.757	6.2171e-06	57.849	0.00095983	0.0010404	0.00030543	373.96	1.1082e-05	1.1916e-05	498.6	133.8	1.1435e-05	1.1307e-05	229.63	106.92	63.949	34.383	1.1079e-05	60.49	140.200	31.501	7.193	-37.078	161.067	164.698	-37.376	-32.074	91.423	109.818	-33.584	-30.097	-28.834	-25.174	122.665	-26.420	-8191	255	
2421.911	1	1	0	0	0.29285	0.10014	0.17661	0.14234	0.23901	0.077525	0.26358	0.23866	0.1331	0.16322	0.10091	0.064203	0.24613	0.036684	0.1374	0.19362	-2.5104	-3.0667	-2.7479	-2.9792	-2.8208	-2.8604	-2.975	-2.9188	-2.8063	-3.0458	-2.7521	-3.025	-3.0917	-2.7979	-3.1042	-2.9854	156.940	134.436	21.054	141.085	223.347	230.071	283.562	205.584	12.100	61.581	-46.942	-39.237	221.615	5.836	41.473	172.798	0.00019859	0.00055673	8.6173e-05	354.99	3.7299e-06	2.824e-06	479.23	127.57	7.6568e-07	6.5313e-06	219.28	102.78	60.485	33.045	3.799e-06	58.309	0.00096193	0.0010362	0.00030082	374.53	1.1175e-05	1.2029e-05	500.05	134.35	1.1549e-05	1.1122e-05	230.5	107.51	64.315	34.693	1.114e-05	60.806	134.225	51.856	31.721	-37.088	61.504	79.076	-37.569	-31.972	309.138	128.431	-33.461	-29.932	-28.774	-25.027	119.076	-26.685	-8191	255	
2422.005	1	1	0	0	0.17229	0.11063	0.32671	0.15279	0.15345	0.091604	0.29295	0.066992	0.29953	0.17918	0.23354	0.17445	0.23262	0.1924	0.48927	0.096421	-2.5604	-3.0563	-2.7417	-2.8083	-3.0521	-2.8563	-3.1333	-2.8479	-3.0271	-3.2875	-2.8104	-3.0646	-3.1271	-2.8792	-3.0625	-2.9125	140.064	222.729	253.136	182.666	-4.216	-31.590	-20.526	94.894	-10.831	165.217	218.954	205.730	167.821	211.302	2.614	9.300	0.00021787	0.00024657	0.00010283	354.6	3.5074e-06	3.5969e-06	477.09	127.58	5.177e-07	1.5921e-06	219.52	102.6	61.1	33.209	1.6841e-06	58.513	0.00096647	0.0010281	0.0002958	372.98	1.0852e-05	1.1529e-05	494.53	134.07	1.1362e-05	1.0977e-05	229.61	107.68	64.643	34.894	1.1073e-05	61.071	139.821	101.499	34.954	-36.596	99.677	129.629	-37.724	-32.194	291.497	154.137	-33.219	-29.988	-28.779	-25.285	115.160	-26.839	-8191	255	
2422.103	1	1	0	0	0.048638	0.10121	0.17763	0.15961	0.20029	0.19613	0.01178	0.2118	0.073391	0.16689	0.25625	0.11875	0.12055	0.076253	0.13557	0.061122	-2.5979	-2.9979	-2.8396	-3.0604	-2.9292	-2.8333	-3.1729	-3.0042	-2.8917	-3.2042	-2.9333	-3.0938	-3.0563	-2.9167	-3.2229	-3.2208	43.848	60.692	31.710	121.766	58.086	76.282	250.791	277.545	-5.912	203.789	-28.399	76.269	-25.683	-5.029	73.511	1.309	0.00023788	0.00032103	4.8185e-05	354.17	2.3974e-06	4.5874e-06	472.34	126.93	8.0676e-07	5.5805e-06	219.09	102.48	60.681	33.106	2.6574e-06	58.669	0.00094574	0.0010255	0.0002944	372.33	1.0923e-05	1.168e-05	495.12	134.01	1.1532e-05	1.1232e-05	229.57	107.45	64.478	34.739	1.1324e-05	61.01	142.877	2.530	57.767	-37.239	119.043	121.031	-37.285	-31.751	197.958	121.893	-33.609	-29.887	-28.741	-25.226	66.199	-26.877	-8191	255	
2422.222	1	1	0	0	0.18496	0.1493	0.10846	0.1743	0.050272	0.14877	0.17148	0.39839	0.20728	0.057597	0.13067	0.1524	0.15738	0.13451	0.076632	0.024315	-2.4125	-3.1646	-2.9375	-2.7625	-3.2333	-2.8	-3.0333	-3.1	-2.9333	-3.1063	-2.8333	-2.8458	-3.0729	-2.8354	-3.1333	-3.1354	31.835	57.512	299.532	18.704	54.056	204.015	-31.370	264.864	206.655	136.574	-12.435	255.528	184.754	257.673	-1.220	-34.944	0.00023415	0.00034749	4.7504e-05	354.07	2.7791e-06	4.4168e-06	474.99	128.03	3.1641e-06	3.1372e-06	219.18	103.17	61.347	33.685	3.3316e-06	59.533	0.00095887	0.0010347	0.00029215	372.56	1.0856e-05	1.1483e-05	496.28	133.93	1.1309e-05	1.1147e-05	229.95	108.19	64.912	35.199	1.1263e-05	61.985	143.894	65.373	63.451	-37.336	46.961	88.689	-37.355	-32.041	63.502	112.021	-33.665	-30.107	-28.901	-25.095	114.610	-26.633	-8191	255	
2422.294	1	1	0	0	0.090365	0.15666	0.11271	0.15388	0.13917	0.20294	0.27908	0.2387	0.11632	0.25359	0.21978	0.052368	0.101	0.074808	0.23406	0.10056	-2.2417	-3.2396	-2.9104	-2.9458	-3.125	-2.9042	-2.9229	-3.0187	-2.6688	-3.0938	-2.9896	-2.9417	-3.175	-2.7354	-2.9917	-3.0583	186.345	303.214	23.801	166.317	108.508	282.526	280.360	153.144	215.125	193.331	215.612	217.143	153.145	216.732	140.814	289.689	0.00023365	0.00035033	7.0749e-05	352.99	4.1818e-06	1.4607e-06	473.11	127.94	1.7633e-06	3.2784e-06	221.3	104	61.59	33.871	5.9844e-06	59.455	0.00090424	0.0010032	0.00027938	371.06	1.0401e-05	1.0841e-05	495.25	134.08	1.0819e-05	1.0911e-05	231.35	109.14	65.337	35.476	1.1228e-05	61.911	137.894	48.847	8.773	-37.075	96.183	30.102	-37.547	-32.092	80.383	102.743	-33.239	-29.891	-28.671	-25.250	138.094	-26.737	-8191	255	
2422.390	1	1	0	0	0.18331	0.042286	0.11742	0.092106	0.18615	0.041608	0.26311	0.24452	0.17818	0.12174	0.16368	0.19185	0.17179	0.40288	0.093662	0.31769	-2.4313	-3.0354	-2.8937	-2.6708	-3.0667	-2.9354	-2.9229	-3.1771	-2.7646	-3.1479	-2.8875	-2.8292	-3.2229	-2.95	-2.9083	-3.2438	144.974	85.855	137.237	293.742	188.826	182.066	151.571	97.584	-42.105	148.129	115.701	-16.145	285.569	294.535	35.465	242.327	0.00024455	0.00050441	0.00010894	352.3	2.7961e-06	1.5482e-06	474.55	127.72	1.8672e-06	3.4467e-06	218.59	102.65	61.405	33.267	3.8714e-06	58.511	0.00091674	0.0010259	0.00028219	371.57	1.0752e-05	1.1182e-05	495.1	134.19	1.088e-05	1.1275e-05	229.94	107.7	64.918	34.925	1.1237e-05	61.033	134.198	68.634	38.809	-37.156	81.935	145.441	-37.408	-32.025	84.642	24.955	-33.534	-29.943	-28.633	-25.238	120.833	-26.596	-8191	255	
2422.510	1	1	0	0	0.034116	0.14805	0.119	0.24132	0.18501	0.23697	0.18489	0.34175	0.024696	0.19749	0.06296	0.057743	0.043962	0.041138	0.12272	0.45222	-2.3187	-3.0333	-2.7479	-2.8104	-3.0792	-2.7708	-2.8042	-3.0958	-2.9083	-2.9792	-2.95	-2.7729	-3.1479	-2.8021	-2.7896	-3.0625	201.033	213.828	-36.206	-24.550	-23.450	13.145	245.965	193.159	-44.649	255.742	-19.807	92.960	283.155	-1.892	71.624	286.159	0.00021227	0.00072677	0.00015251	354.35	3.3327e-06	5.3084e-06	471.01	127.84	2.6348e-06	2.4059e-06	218.21	102.96	61.368	33.325	2.1147e-06	58.625	0.00090453	0.0010345	0.00028204	371.7	1.0781e-05	1.0887e-05	494.74	134.28	1.0729e-05	1.1387e-05	229.47	107.98	65.138	34.991	1.133e-05	61.211	133.585	25.830	4.178	-37.107	151.496	113.310	-37.099	-32.145	206.601	137.685	-33.540	-30.039	-28.343	-25.297	112.170	-26.762	-8191	255	
2422.607	1	1	0	0	0.082447	0.04411	0.20726	0.02503	0.051729	0.084143	0.45423	0.24018	0.25189	0.0064591	0.099772	0.29107	0.070148	0.2241	0.13005	0.19027	-2.4521	-2.8021	-3.0021	-2.7812	-3.0292	-2.9958	-2.7687	-3.0625	-2.7958	-2.8667	-3.1833	-2.7667	-3.1146	-2.95	-2.6875	-3.0917	219.459	306.150	239.062	250.040	255.604	16.031	261.230	150.611	146.008	116.646	255.794	-40.685	125.784	-22.745	220.576	179.902	0.0002882	0.0003544	2.8961e-05	353.28	3.0565e-06	5.5571e-06	473.31	128.72	1.5674e-06	3.9841e-06	220.76	103.85	61.268	33.643	4.4021e-06	58.847	0.00090073	0.0010264	0.00027962	371.71	1.0842e-05	1.0812e-05	495.79	134.76	1.068e-05	1.145e-05	231.29	108.6	65.183	35.138	1.1468e-05	61.501	139.283	24.107	146.918	-37.576	103.739	98.094	-37.361	-31.752	137.285	91.400	-33.246	-29.943	-28.755	-25.152	105.550	-26.430	-8191	255	
2422.703	1	1	0	0	0.27296	0.19191	0.15605	0.15522	0.19005	0.12804	0.074259	0.081313	0.27119	0.12751	0.22658	0.26068	0.20577	0.097626	0.11136	0.10665	-2.35	-2.8896	-2.9437	-2.7188	-2.9938	-3.0312	-2.6771	-3.1417	-2.7292	-3.0146	-3.0583	-2.7396	-3.1104	-2.7604	-2.8042	-3.0521	235.997	149.504	200.318	-31.972	87.869	237.863	193.585	303.745	284.372	227.542	292.045	-24.058	261.587	180.125	-10.764	170.360	0.00022134	0.0003909	8.5817e-05	353.65	3.0015e-06	4.8377e-06	478.83	128.43	2.0753e-06	5.4416e-06	222.22	104.38	61.998	33.615	2.0082e-06	59.266	0.00089553	0.0010509	0.00028323	372.19	1.1066e-05	1.0802e-05	498.3	135.28	1.0679e-05	1.1474e-05	232.68	109.33	65.637	35.297	1.1251e-05	61.965	146.156	48.041	15.156	-37.291	78.552	108.062	-37.399	-32.130	66.366	100.098	-33.328	-29.911	-28.723	-25.011	145.071	-26.578	-8191	255	
2422.823	1	1	0	0	0.20162	0.069287	0.20693	0.18302	0.23143	0.26636	0.18152	0.24392	0.18493	0.16733	0.15713	0.13452	0.1473	0.13583	0.033465	0.25972	-2.4313	-2.9521	-2.9979	-2.7354	-2.9	-3.0187	-2.8438	-3.0792	-2.9417	-2.8958	-3.1375	-2.8375	-2.9104	-2.9771	-2.7521	-3.0312	96.639	171.800	304.840	298.128	16.350	64.865	258.541	113.424	82.370	19.720	214.002	-9.697	266.849	235.701	98.264	195.261	0.00020611	0.00040787	0.00017056	353.84	5.4261e-06	4.1086e-06	478.62	128.83	1.7547e-06	3.9509e-06	221.56	103.54	61.558	33.751	3.6723e-06	58.981	0.00088516	0.0010585	0.00027964	372.56	1.1101e-05	1.1106e-05	499	135.57	1.0717e-05	1.1459e-05	232.21	108.73	65.539	35.375	1.1034e-05	61.783	130.679	40.384	41.592	-37.149	107.667	61.837	-37.182	-31.952	98.138	114.352	-33.420	-30.116	-28.727	-25.120	26.110	-26.569	-8191	255	
2422.895	1	1	0	0	0.13055	0.13313	0.31696	0.21958	0.12412	0.086938	0.2946	0.14172	0.1214	0.14135	0.39907	0.20442	0.078181	0.13672	0.089033	0.431	-2.5792	-2.7479	-2.9292	-2.7958	-2.9917	-3.0438	-2.8521	-3.0667	-3.0125	-2.675	-3.1083	-2.8354	-2.9917	-2.8896	-2.7875	-3.0292	229.500	282.307	-24.589	37.022	182.678	301.237	187.069	154.392	237.643	187.660	215.555	198.196	85.993	77.267	54.120	292.755	0.00024265	0.00058295	0.00015364	354.98	5.4633e-06	4.1313e-06	473.36	128.08	1.9129e-06	3.877e-06	220.17	103.93	61.982	33.845	2.3715e-06	59.548	0.00088384	0.0010397	0.000282	371.58	1.112e-05	1.0804e-05	494.55	134.95	1.0363e-05	1.1298e-05	231.13	108.75	65.633	35.498	1.0709e-05	62.014	147.825	22.374	58.134	-37.367	136.323	60.773	-37.197	-31.662	113.352	149.838	-33.327	-30.009	-28.475	-25.223	140.577	-26.615	-8191	255	
2422.991	1	1	0	0	0.07286	0.10723	0.048316	0.1885	0.13515	0.14703	0.42561	0.10069	0.097949	0.22545	0.27055	0.15478	0.037086	0.24639	0.077982	0.22653	-2.5104	-2.7812	-3.1063	-2.7833	-2.8229	-3.0687	-2.8187	-3.0208	-2.875	-2.8479	-3.1229	-2.8438	-2.7521	-3.2562	-2.7729	-3	136.561	288.164	73.824	15.789	245.265	202.287	238.564	7.497	160.692	-29.948	164.471	185.664	24.116	275.604	34.093	134.943	0.00026699	0.00030314	0.00021498	353.96	2.0866e-06	3.7745e-06	473	129.09	3.1967e-06	2.2292e-06	221.68	104.59	61.894	33.866	4.8639e-06	59.683	0.00087997	0.0010192	0.00027699	371.51	1.0914e-05	1.0737e-05	493.73	135.15	1.0314e-05	1.0947e-05	232.1	109.31	65.716	35.544	1.0641e-05	62.09	147.632	45.772	35.127	-37.074	183.806	75.594	-37.613	-31.945	98.331	126.181	-33.520	-29.993	-28.521	-25.113	162.908	-26.624	-8191	255	
2423.110	1	1	0	0	0.33715	0.36031	0.15271	0.09829	0.15756	0.25374	0.17398	0.21912	0.080352	0.084125	0.20468	0.22408	0.06089	0.31278	0.14412	0.023381	-2.4667	-2.9333	-3.0896	-2.8958	-2.8417	-3.2583	-2.7208	-3.0146	-3.15	-2.775	-3.1896	-3.025	-2.6771	-3.3229	-2.7812	-3.1604	-12.983	93.633	290.378	-40.571	305.580	133.202	84.450	296.118	118.150	272.766	81.174	243.088	82.250	310.053	75.470	298.573	0.00019787	0.00038602	0.00014809	353.91	2.3213e-06	4.8858e-06	475.74	128.61	2.2228e-06	4.2565e-06	222.34	104.5	61.841	33.871	3.6237e-06	59.517	0.00088879	0.0010233	0.00028176	372.06	1.1185e-05	1.1015e-05	497.04	134.95	1.0535e-05	1.1034e-05	232.45	109.2	65.638	35.456	1.0762e-05	62.273	132.586	8.985	36.145	-37.276	108.111	106.276	-37.167	-31.751	66.291	110.845	-33.152	-30.112	-28.697	-25.085	96.696	-26.707	-8191	255	
2423.206	1	1	0	0	0.32792	0.15527	0.1302	0.069331	0.13165	0.13623	0.14571	0.20564	0.15536	0.040679	0.054202	0.054939	0.12112	0.18977	0.20036	0.23875	-2.6333	-2.6021	-3.0104	-2.825	-2.725	-3.2104	-2.8729	-3.0021	-3.0208	-2.7667	-3.1625	-3.1312	-2.875	-3.1604	-2.8625	-2.9646	225.993	29.520	123.282	13.665	64.540	222.729	-34.149	141.035	84.258	46.205	112.043	102.145	16.533	296.825	279.658	161.260	0.00017839	0.00053889	0.00015285	356.33	4.1434e-06	4.0748e-06	479.44	128.81	1.7588e-06	3.6721e-06	220.67	104.64	61.817	33.925	1.0889e-06	59.632	0.00089164	0.001006	0.00028885	373.15	1.1048e-05	1.0894e-05	498.72	135.63	1.0468e-05	1.0805e-05	232.53	109.52	65.674	35.578	1.0555e-05	62.165	129.912	65.826	8.375	-37.113	125.891	-0.239	-37.338	-31.924	92.644	77.255	-33.572	-29.930	-28.719	-25.061	169.970	-26.848	-8191	255	
2423.302	1	1	0	0	0.37702	0.089856	0.17162	0.31627	0.17071	0.044937	0.3041	0.21482	0.070367	0.069173	0.10717	0.077267	0.2079	0.32469	0.2057	0.17522	-2.625	-2.6562	-2.9729	-2.9708	-2.8458	-3.1333	-3.0938	-2.8125	-3.1229	-2.9583	-2.9833	-3.0146	-2.6292	-3.2687	-2.7687	-3.0042	158.131	100.018	244.978	215.225	110.257	243.274	221.145	97.659	89.445	52.275	169.141	16.812	302.787	269.026	130.552	166.841	0.00023016	0.00032092	0.00011091	355.98	1.4079e-06	2.4608e-06	476.7	128.93	2.7223e-06	3.9729e-06	220.68	103.4	61.426	33.673	3.3877e-06	58.899	0.00088811	0.0009962	0.0002892	372.51	1.0932e-05	1.0939e-05	495.46	135.22	1.0567e-05	1.0643e-05	231.37	108.37	65.308	35.279	1.0681e-05	61.42	136.040	-16.957	61.820	-37.266	41.113	169.047	-37.685	-32.028	82.336	133.702	-33.385	-30.186	-28.548	-25.081	84.493	-26.546	-8191	255	
2423.398	1	1	0	0	0.14159	0.26381	0.24939	0.19951	0.17419	0.15286	0.20157	0.40132	0.28985	0.315	0.082843	0.15914	0.33624	0.21502	0.3867	0.1668	-2.6583	-2.9167	-2.9792	-3.0187	-3.0458	-3.0687	-2.9958	-2.9542	-3.0958	-2.825	-2.9479	-3.0354	-2.5875	-3.1208	-2.7354	-2.8021	240.686	-47.292	293.564	-36.315	180.377	-6.695	33.141	8.091	162.414	148.916	20.857	271.773	224.464	-16.122	92.052	287.803	0.00028236	0.00070562	4.8478e-05	354.64	4.0507e-06	1.8462e-06	475.66	128.81	3.9266e-06	3.1819e-06	221.07	103.49	61.38	33.408	1.6119e-06	58.613	0.00088968	0.00098374	0.00029478	373.72	1.0763e-05	1.1173e-05	497.13	135.15	1.0559e-05	1.0764e-05	231.85	108.25	65.186	35.056	1.0565e-05	61.288	133.153	18.250	82.869	-37.151	96.964	82.862	-37.306	-31.805	100.233	95.928	-33.296	-30.101	-28.472	-24.967	81.644	-26.755	-8191	255	
2423.470	1	1	0	0	0.044661	0.1022	0.16032	0.20852	0.1327	0.063327	0.1295	0.039766	0.079867	0.049952	0.10891	0.18303	0.21256	0.061627	0.093228	0.15919	-2.6083	-2.6833	-2.9958	-3.0187	-2.6833	-3.1396	-2.9146	-2.7	-3.1125	-2.6813	-2.9875	-3.1437	-2.6896	-2.9646	-2.8875	-2.8937	194.352	-39.965	5.926	221.875	214.681	304.561	181.243	305.017	295.545	30.737	309.112	234.822	71.402	28.154	263.387	133.577	0.00025109	0.00033081	0.00017868	357.87	3.4282e-06	5.6211e-06	479.89	128.98	2.2112e-06	1.5995e-06	220.43	103.52	61.271	33.446	1.5205e-06	58.819	0.00089413	0.00099325	0.00029376	374.2	1.0694e-05	1.1128e-05	499.02	135.62	1.0746e-05	1.0617e-05	232.13	108.58	65.078	35.027	1.0612e-05	61.37	137.923	49.937	12.683	-37.359	94.705	118.797	-37.218	-32.011	181.635	44.540	-33.432	-29.976	-28.894	-25.035	141.755	-26.621	-8191	255	
2423.591	1	1	0	0	0.17665	0.13779	0.28448	0.23373	0.18452	0.21923	0.22949	0.05651	0.14403	0.091357	0.1754	0.13548	0.35856	0.10907	0.17303	0.26591	-2.5125	-2.8646	-3.0146	-3.0042	-2.6104	-2.9688	-3.1521	-2.7083	-3.0292	-2.7208	-2.8896	-3.0979	-2.6875	-3.1958	-2.8021	-2.7562	113.972	217.155	-38.010	138.686	137.212	137.639	67.879	79.741	-2.648	181.921	277.557	302.861	58.606	226.227	34.537	252.744	0.00024636	0.00042726	7.2705e-05	358.24	1.3084e-06	2.9312e-06	479.71	129.09	2.725e-06	2.7304e-06	222.01	103.89	61.655	33.343	4.6369e-06	58.941	0.00090623	0.00098408	0.00029243	375.61	1.0513e-05	1.1209e-05	500.86	135.91	1.0563e-05	1.0783e-05	233.3	108.73	65.248	35.052	1.0524e-05	61.501	135.874	39.882	58.342	-37.134	232.858	129.389	-37.692	-32.002	111.801	111.467	-33.443	-29.922	-28.625	-24.965	120.032	-26.619	-8191	255	
2423.687	1	1	0	0	0.099159	0.11346	0.25535	0.14002	0.10347	0.16062	0.054558	0.12932	0.36718	0.16365	0.087881	0.11535	0.17161	0.16814	0.25465	0.33057	-2.5083	-2.7729	-2.8417	-2.9792	-2.6729	-2.9562	-3.1312	-2.7979	-3.1292	-2.9604	-2.8917	-3.2104	-2.8937	-2.8979	-3.0812	-2.6646	137.822	219.792	239.270	168.264	90.810	11.405	103.568	118.495	265.943	63.797	221.163	-32.988	83.197	137.543	145.890	277.441	0.00020579	0.00019027	0.00011736	359.05	1.6902e-06	3.6813e-06	478.73	129	3.4848e-06	3.3552e-06	221.28	103.86	61.829	33.535	5.3608e-06	58.785	0.00091002	0.00097712	0.00029281	376.76	1.0575e-05	1.1312e-05	499.61	135.7	1.0866e-05	1.0699e-05	232.26	108.51	65.286	35.131	1.0715e-05	61.373	142.089	78.973	17.217	-37.214	56.617	108.510	-37.421	-32.280	86.320	109.080	-33.610	-29.973	-28.621	-24.998	113.914	-26.646	-8191	255	
2423.783	1	1	0	0	0.14144	0.052462	0.061414	0.13001	0.33896	0.23639	0.18295	0.30223	0.069276	0.13957	0.2978	0.052771	0.34399	0.23677	0.018193	0.028079	-2.7229	-2.8812	-2.6813	-3.0896	-2.75	-2.8542	-3.1625	-2.7521	-3.0625	-2.9729	-2.8187	-3.0146	-2.9021	-2.7938	-3.0833	-2.7646	-2.923	221.972	282.986	200.863	222.483	141.748	309.341	81.698	70.064	202.527	280.487	246.378	277.602	236.404	178.057	115.867	0.00026158	0.00039706	0.0001577	357.55	1.4706e-06	1.3807e-06	477.27	129.67	2.1242e-06	1.7472e-06	222.58	104.51	61.875	33.958	4.2141e-06	59.4	0.00091372	0.00098496	0.0002844	374.26	1.0218e-05	1.1165e-05	497.78	135.56	1.0757e-05	1.0515e-05	232.65	109.08	65.649	35.507	1.062e-05	61.873	145.251	58.747	31.867	-37.028	134.503	53.859	-37.142	-31.852	83.661	106.036	-33.533	-29.984	-28.558	-25.098	124.728	-26.737	-8191	255	
2423.904	1	1	0	0	0.26562	0.33687	0.11917	0.13201	0.14191	0.27975	0.17187	0.2543	0.15817	0.21822	0.2456	0.096519	0.24828	0.21158	0.089861	0.15857	-2.3063	-2.8521	-2.5896	-2.9646	-2.875	-2.9083	-3.1375	-2.8771	-2.85	-2.9458	-2.7667	-3.2062	-3.0104	-2.8438	-3.1896	-2.8396	259.396	202.378	54.105	73.034	211.735	218.204	206.156	283.940	-28.932	190.012	245.566	186.905	144.091	227.301	98.627	298.255	0.00020438	0.00030122	0.00014462	357.52	8.6577e-07	2.6077e-06	476.31	129.65	2.7399e-06	1.9611e-06	223.19	104.67	62.311	34.077	3.2159e-06	59.099	0.00091099	0.00097599	0.00028247	373.91	1.0349e-05	1.1197e-05	497.82	136.22	1.1012e-05	1.0804e-05	233.42	109.43	65.962	35.534	1.0974e-05	61.89	139.841	73.625	66.334	-37.040	99.290	119.683	-37.496	-32.104	80.397	157.554	-33.406	-29.898	-28.921	-25.126	139.841	-26.781	-8191	255	
#DATA ENDS
