BOXY.EXE: ISS Imagent and Oximeter Data Acquisition Program Version 0.80
Ascii Record File

#ACQ INFORMATION
2  Detector Channels 
16  External MUX Channels 
1  Auxiliary Channels 
5000  Waveform (CCF) Frequency (Hz)
1  Waveforms Skipped 
30  Waveforms Averaged 
1  Cycles Averaged 
16  Acquisitions per Waveform 
10.0806  Updata Rate (Hz) 

#FILE INFORMATION
TRUE -- External MUX Channel results are PARSED.
FALSE -- AC DC and Phase are NOT grouped.
TRUE -- Companion Program Settings File CREATED.
FALSE -- AC data not excluded
FALSE -- DC data not excluded
FALSE -- Phase data not excluded
FALSE -- Auxillary Chn. data not excluded
Tab delimiters

#CALIBRATION STATE
TRUE -- Waveform Calibration Values APPLIED.


#AUX CALIBRATION VALUES
Val Type	aux-1	

Term	1.0000e+00	
Factor	0.0000e+00	


#WF CALIBRATION VALUES
A = Detector Channel
Val Type	A-AC1	A-AC2	A-AC3	A-AC4	A-AC5	A-AC6	A-AC7	A-AC8	A-AC9	A-AC10	A-AC11	A-AC12	A-AC13	A-AC14	A-AC15	A-AC16	A-DC1	A-DC2	A-DC3	A-DC4	A-DC5	A-DC6	A-DC7	A-DC8	A-DC9	A-DC10	A-DC11	A-DC12	A-DC13	A-DC14	A-DC15	A-DC16	A-Ph1	A-Ph2	A-Ph3	A-Ph4	A-Ph5	A-Ph6	A-Ph7	A-Ph8	A-Ph9	A-Ph10	A-Ph11	A-Ph12	A-Ph13	A-Ph14	A-Ph15	A-Ph16	

Term	0.00000e+00	0.00000e+00	0.00000e+00	0.00000e+00	0.00000e+00	0.00000e+00	0.00000e+00	0.00000e+00	0.00000e+00	0.00000e+00	0.00000e+00	0.00000e+00	0.00000e+00	0.00000e+00	0.00000e+00	0.00000e+00	0.00000e+00	0.00000e+00	0.00000e+00	0.00000e+00	0.00000e+00	0.00000e+00	0.00000e+00	0.00000e+00	0.00000e+00	0.00000e+00	0.00000e+00	0.00000e+00	0.00000e+00	0.00000e+00	0.00000e+00	0.00000e+00	0.00000e+00	0.00000e+00	0.00000e+00	0.00000e+00	0.00000e+00	0.00000e+00	0.00000e+00	0.00000e+00	0.00000e+00	0.00000e+00	0.00000e+00	0.00000e+00	0.00000e+00	0.00000e+00	0.00000e+00	0.00000e+00	
Factor	1.00000e+00	1.00000e+00	1.00000e+00	1.00000e+00	1.00000e+00	1.00000e+00	1.00000e+00	1.00000e+00	1.00000e+00	1.00000e+00	1.00000e+00	1.00000e+00	1.00000e+00	1.00000e+00	1.00000e+00	1.00000e+00	1.00000e+00	1.00000e+00	1.00000e+00	1.00000e+00	1.00000e+00	1.00000e+00	1.00000e+00	1.00000e+00	1.00000e+00	1.00000e+00	1.00000e+00	1.00000e+00	1.00000e+00	1.00000e+00	1.00000e+00	1.00000e+00	X	X	X	X	X	X	X	X	X	X	X	X	X	X	X	X	

B = Detector Channel
Val Type	B-AC1	B-AC2	B-AC3	B-AC4	B-AC5	B-AC6	B-AC7	B-AC8	B-AC9	B-AC10	B-AC11	B-AC12	B-AC13	B-AC14	B-AC15	B-AC16	B-DC1	B-DC2	B-DC3	B-DC4	B-DC5	B-DC6	B-DC7	B-DC8	B-DC9	B-DC10	B-DC11	B-DC12	B-DC13	B-DC14	B-DC15	B-DC16	B-Ph1	B-Ph2	B-Ph3	B-Ph4	B-Ph5	B-Ph6	B-Ph7	B-Ph8	B-Ph9	B-Ph10	B-Ph11	B-Ph12	B-Ph13	B-Ph14	B-Ph15	B-Ph16	

Term	0.00000e+00	0.00000e+00	0.00000e+00	0.00000e+00	0.00000e+00	0.00000e+00	0.00000e+00	0.00000e+00	0.00000e+00	0.00000e+00	0.00000e+00	0.00000e+00	0.00000e+00	0.00000e+00	0.00000e+00	0.00000e+00	0.00000e+00	0.00000e+00	0.00000e+00	0.00000e+00	0.00000e+00	0.00000e+00	0.00000e+00	0.00000e+00	0.00000e+00	0.00000e+00	0.00000e+00	0.00000e+00	0.00000e+00	0.00000e+00	0.00000e+00	0.00000e+00	-1.46573e+02	-1.30403e+02	-1.37663e+02	-1.82827e+02	-7.22735e+01	-6.30001e+01	-1.58910e+02	-1.62015e+02	-7.72400e+01	-6.72005e+01	-1.71070e+02	-1.70740e+02	-1.82889e+02	-1.76704e+02	-6.79015e+01	-1.49758e+02	
Factor	2.11726e-05	1.42107e-04	4.06141e-05	1.78644e-01	1.31213e-06	1.57184e-06	1.76680e-01	4.86151e-02	1.17736e-06	1.44838e-06	9.37926e-02	2.76980e-02	2.41818e-02	8.94260e-03	1.48299e-06	1.30437e-02	5.47952e-06	6.70541e-06	1.89136e-06	9.01438e-02	7.13655e-08	7.35607e-08	8.41523e-02	2.47218e-02	7.09250e-08	7.32396e-08	4.60402e-02	1.36710e-02	1.23919e-02	4.56909e-03	7.18436e-08	6.45217e-03	X	X	X	X	X	X	X	X	X	X	X	X	X	X	X	X	



#DISTANCE SETTINGS
A = Detector Channel
A-1	A-2	A-3	A-4	A-5	A-6	A-7	A-8	A-9	A-10	A-11	A-12	A-13	A-14	A-15	A-16	

2.5000e+00	3.0000e+00	2.5000e+00	3.0000e+00	2.0000e+00	3.0000e+00	1.5000e+00	3.0000e+00	3.0000e+00	3.0000e+00	3.0000e+00	3.0000e+00	3.0000e+00	3.0000e+00	1.5000e+00	3.0000e+00	

B = Detector Channel
B-1	B-2	B-3	B-4	B-5	B-6	B-7	B-8	B-9	B-10	B-11	B-12	B-13	B-14	B-15	B-16	

1.0000e+01	1.0000e+01	1.0000e+01	1.4400e+00	1.0000e+01	1.0000e+01	1.5100e+00	1.9400e+00	1.0000e+01	1.0000e+01	1.9900e+00	2.4900e+00	2.4100e+00	2.9000e+00	1.0000e+01	2.9800e+00	




#DATA BEGINS
time	group	step	mark	flag	A-AC1	A-AC2	A-AC3	A-AC4	A-AC5	A-AC6	A-AC7	A-AC8	A-AC9	A-AC10	A-AC11	A-AC12	A-AC13	A-AC14	A-AC15	A-AC16	A-DC1	A-DC2	A-DC3	A-DC4	A-DC5	A-DC6	A-DC7	A-DC8	A-DC9	A-DC10	A-DC11	A-DC12	A-DC13	A-DC14	A-DC15	A-DC16	A-Ph1	A-Ph2	A-Ph3	A-Ph4	A-Ph5	A-Ph6	A-Ph7	A-Ph8	A-Ph9	A-Ph10	A-Ph11	A-Ph12	A-Ph13	A-Ph14	A-Ph15	A-Ph16	B-AC1	B-AC2	B-AC3	B-AC4	B-AC5	B-AC6	B-AC7	B-AC8	B-AC9	B-AC10	B-AC11	B-AC12	B-AC13	B-AC14	B-AC15	B-AC16	B-DC1	B-DC2	B-DC3	B-DC4	B-DC5	B-DC6	B-DC7	B-DC8	B-DC9	B-DC10	B-DC11	B-DC12	B-DC13	B-DC14	B-DC15	B-DC16	B-Ph1	B-Ph2	B-Ph3	B-Ph4	B-Ph5	B-Ph6	B-Ph7	B-Ph8	B-Ph9	B-Ph10	B-Ph11	B-Ph12	B-Ph13	B-Ph14	B-Ph15	B-Ph16	aux-1	digaux	

1304.203	1	1	0	256	0.11678	0.092634	0.16208	0.25502	0.18653	0.15124	0.33183	0.33215	0.052829	0.045623	0.036034	0.18906	0.041395	0.086151	0.10255	0.17357	-2.6729	-3.4604	-3.1896	-3.275	-3.3771	-3.1417	-3.5125	-3.5042	-3.3833	-3.4854	-3.2979	-3.2729	-3.4229	-3.3042	-3.2771	-3.5312	-40.858	-49.488	235.746	236.383	214.698	41.190	174.936	154.029	25.957	61.840	92.334	214.582	-39.019	165.697	5.262	-116.252	0.00030373	0.00032811	0.00015256	1286.1	4.0359e-06	4.704e-06	1282.4	353.39	4.2715e-06	1.1441e-06	404.69	134.83	117.74	40.803	4.5984e-06	50.254	0.00036613	0.0003527	9.5494e-05	1307.9	3.8057e-06	3.5746e-06	1313.2	361.76	3.814e-06	3.701e-06	414.45	139.7	121.53	41.969	3.7104e-06	52.003	183.946	-44.457	-36.931	-109.814	-1.072	6.981	-110.109	-105.480	-25.407	2.243	-105.870	-101.854	-101.530	-96.318	15.957	-96.736	-8191	255	
1304.299	1	1	0	0	0.098462	0.13686	0.083587	0.18001	0.057018	0.028037	0.15227	0.051997	0.31478	0.14456	0.29083	0.3269	0.09808	0.28924	0.0875	0.1303	-2.6125	-3.5292	-3.325	-3.2833	-3.4083	-3.0958	-3.5687	-3.6479	-3.2021	-3.4646	-3.3187	-3.1896	-3.6125	-3.275	-3.25	-3.9083	-36.379	65.080	-77.144	224.941	113.778	135.618	171.890	-81.782	-15.887	-83.477	199.494	173.998	194.329	232.733	121.596	148.498	0.00034015	0.00066334	0.00012035	1289.9	3.2814e-06	4.2036e-06	1293	354.13	1.9222e-06	4.5744e-06	406.18	135.15	118.52	40.799	1.7056e-06	50.29	0.00035784	0.00033967	9.3874e-05	1312.7	3.641e-06	3.3862e-06	1319.9	362.99	3.4606e-06	3.5063e-06	414.87	139.88	121.83	42.015	3.6278e-06	52.114	191.543	-15.293	-37.346	-109.742	39.998	-10.271	-109.909	-105.458	-15.804	36.295	-105.832	-102.053	-101.335	-96.411	-16.191	-96.842	-8191	255	
1304.395	1	1	0	0	0.046685	0.31535	0.093449	0.15578	0.18716	0.2278	0.23771	0.11093	0.10274	0.15012	0.29582	0.20436	0.39639	0.49642	0.048565	0.10111	-2.9437	-3.3917	-3.0396	-3.2938	-3.4979	-3.4979	-3.6667	-3.825	-3.3604	-3.2104	-3.5625	-3.2708	-3.6271	-3.5979	-3.1792	-3.5771	109.588	10.559	-108.337	-96.502	93.629	130.838	-102.132	165.600	184.254	235.924	-115.160	182.928	-103.340	184.534	65.184	143.568	0.00033237	0.00043026	0.00015389	1293.9	2.7071e-06	4.1797e-06	1287.6	354.85	3.3843e-06	2.7711e-06	403.99	135.94	117.94	40.726	4.1272e-06	50.578	0.00033459	0.00032824	9.2956e-05	1315.2	3.6889e-06	3.5231e-06	1319.1	363	3.6509e-06	3.7015e-06	414.38	140.15	121.66	42.007	3.7061e-06	52.2	186.737	-47.594	-49.164	-109.872	-8.750	23.519	-110.123	-105.258	-68.743	45.266	-105.906	-102.065	-101.453	-96.537	28.556	-96.832	-8191	255	
1304.491	1	1	0	0	0.18078	0.11255	0.11483	0.11922	0.13712	0.23027	0.12291	0.16211	0.1207	0.090235	0.1442	0.30237	0.058112	0.079884	0.14625	0.10999	-2.9021	-3.4521	-3.4292	-3.3146	-3.3688	-3.2583	-3.2729	-3.5729	-3.0812	-3.275	-3.4625	-3.3729	-3.5812	-3.2687	-3.175	-3.4771	-22.299	87.042	-57.559	-27.867	136.882	224.317	-110.144	211.767	-66.183	210.595	-32.843	202.685	172.608	208.257	-4.387	59.865	0.00029464	0.00027014	0.0001177	1288.9	2.5527e-06	5.9536e-06	1290.4	353.66	3.4324e-06	3.2181e-06	405.88	135.94	118.41	40.817	2.6849e-06	50.527	0.00034253	0.00032679	9.4438e-05	1312.9	3.4556e-06	3.3593e-06	1318.6	362.5	3.3081e-06	3.3297e-06	414.95	139.96	121.8	42.045	3.3105e-06	52.054	180.435	-49.788	-43.963	-109.809	13.541	28.425	-109.886	-105.293	8.631	28.675	-105.655	-101.722	-101.306	-96.573	44.889	-97.009	-8191	255	
1304.587	1	1	0	0	0.1016	0.13683	0.070742	0.31151	0.33231	0.1327	0.044691	0.29819	0.29524	0.060143	0.29751	0.12416	0.14547	0.17852	0.10783	0.091961	-2.7125	-3.1	-3.4938	-3.5354	-3.5583	-3.4479	-3.3458	-3.6958	-3.3979	-3.2708	-3.4	-3.2229	-3.4188	-3.3833	-3.1917	-3.55	-41.244	206.540	146.436	-112.260	-36.667	168.668	-118.121	-114.332	208.109	-16.265	201.614	195.383	0.593	101.529	55.042	-51.122	0.00032363	0.00043222	0.00012188	1295.8	2.4078e-06	4.2677e-06	1286.4	354.78	3.4141e-06	2.0149e-06	406.01	136.33	118.48	40.712	3.2433e-06	50.303	0.0003173	0.00029973	8.2881e-05	1315.8	3.2819e-06	3.1306e-06	1316	362.68	3.1844e-06	3.087e-06	414.67	140.25	121.82	42.019	3.2125e-06	52.071	180.755	-55.099	-45.263	-109.820	-0.635	33.154	-109.934	-105.407	-24.795	17.617	-105.553	-101.875	-101.335	-96.420	42.028	-97.111	-8191	255	
1304.684	1	1	0	0	0.084132	0.16022	0.26154	0.096568	0.12352	0.16065	0.17508	0.18781	0.20308	0.40888	0.2401	0.39911	0.24635	0.20763	0.063472	0.24605	-2.9208	-3.3833	-3.6562	-3.5146	-3.5479	-3.4625	-3.2979	-3.6562	-3.2667	-3.0958	-3.5375	-3.2083	-3.3792	-3.4188	-3.1021	-3.5062	-13.005	231.110	-104.151	27.871	36.584	133.063	116.840	183.375	154.930	-109.442	200.597	201.035	-122.881	-104.994	-94.617	72.769	0.00031645	0.00045625	0.00013261	1291.7	3.7612e-06	4.3721e-06	1294.3	354.04	4.2061e-06	2.3544e-06	404.64	135.81	118.69	40.768	4.4795e-06	50.376	0.00031185	0.00029296	8.3555e-05	1316.1	3.295e-06	3.2137e-06	1320.6	363.01	3.2411e-06	3.1678e-06	415.18	139.99	121.89	42.015	3.1423e-06	52.048	187.701	-39.992	-64.449	-109.936	-28.039	37.190	-110.040	-105.376	-11.697	51.942	-105.586	-101.915	-101.407	-96.383	6.627	-96.950	-8191	255	
1304.780	1	1	0	0	0.043011	0.17298	0.23842	0.06465	0.088324	0.24939	0.19245	0.16479	0.20439	0.20021	0.18984	0.30135	0.09894	0.10468	0.15415	0.18959	-2.8458	-3.0167	-3.3563	-3.1271	-3.2125	-3.4	-3.2625	-3.55	-3.3833	-3.3688	-3.475	-3.325	-3.4854	-3.5208	-3.2083	-3.5687	87.608	181.518	62.962	182.442	-68.684	-2.775	117.978	152.143	-6.682	71.391	152.289	211.260	197.831	168.117	53.216	-109.690	0.00033227	0.0003916	0.00017198	1294.9	4.8046e-06	5.746e-06	1297.9	354.67	3.1146e-06	4.7828e-06	408.51	136.43	118.97	40.973	3.6634e-06	50.723	0.00031188	0.00029196	8.1813e-05	1319.2	3.2969e-06	3.296e-06	1325.5	363.45	3.2497e-06	3.2167e-06	416.09	140.45	122.36	42.109	3.0776e-06	52.218	184.309	-33.931	-34.182	-109.928	19.600	21.840	-109.867	-105.332	-21.041	29.293	-105.922	-101.875	-101.471	-96.515	19.827	-96.920	-8191	255	
1304.876	1	1	0	0	0.13915	0.2151	0.20502	0.13834	0.13209	0.25066	0.22711	0.34938	0.15138	0.12746	0.092215	0.23925	0.096197	0.059868	0.14491	0.1233	-2.7229	-3.1021	-3.4625	-3.2958	-3.2333	-3.4854	-3.3917	-3.5146	-3.2396	-3.325	-3.6688	-3.4125	-3.4083	-3.4729	-3.2333	-3.4646	-10.322	182.682	167.084	162.802	-30.879	218.398	188.954	-121.699	115.300	122.637	101.440	138.597	-56.474	-83.733	235.251	155.001	0.00031558	0.00048325	0.0001898	1304.6	2.0055e-06	3.6145e-06	1299	355.32	3.0773e-06	4.2549e-06	406.39	135.88	118.52	40.741	4.6966e-06	50.472	0.00031871	0.00030084	8.4918e-05	1323.2	3.4203e-06	3.2312e-06	1325.8	363.9	3.3543e-06	3.1171e-06	415.47	140.48	122.01	41.968	3.0625e-06	52.063	181.531	-39.811	-43.599	-109.832	23.593	37.305	-109.951	-105.319	-38.990	49.042	-105.634	-102.041	-101.240	-96.417	17.631	-96.904	-8191	255	
1304.995	1	1	0	0	0.11381	0.11703	0.21501	0.046542	0.11331	0.21053	0.13981	0.11322	0.14957	0.11482	0.25407	0.18934	0.13834	0.13104	0.18292	0.12511	-3.0521	-3.2208	-3.3125	-3.1708	-3.1146	-3.5833	-3.3625	-3.6292	-3.6458	-3.1083	-3.3521	-3.3479	-3.3583	-3.6604	-3.4146	-3.4875	-85.349	-33.452	112.361	49.159	-118.088	39.429	50.221	202.141	207.923	51.726	80.688	224.972	-84.627	-24.617	-16.886	8.227	0.00030565	0.00049358	0.00017213	1298.8	3.3337e-06	3.4721e-06	1302.2	354.71	3.1621e-06	4.844e-06	406.56	135.68	118.41	40.984	4.0913e-06	50.625	0.00031826	0.00027467	8.0387e-05	1321.8	3.2085e-06	3.0522e-06	1327.2	363.13	3.2466e-06	2.8585e-06	415.67	140.38	121.96	42.085	3.0016e-06	52.258	183.805	-31.286	-38.235	-109.791	2.118	46.449	-109.886	-105.395	-42.061	-11.402	-105.857	-101.805	-101.256	-96.604	23.004	-96.992	-8191	255	
1305.091	1	1	0	0	0.026277	0.12887	0.19446	0.17308	0.21033	0.23285	0.088622	0.11322	0.11906	0.27832	0.021533	0.075697	0.13847	0.31416	0.29348	0.36679	-3.0812	-2.9625	-3.3146	-3.3604	-3.2229	-3.6542	-3.4417	-3.6063	-3.3896	-3.1292	-3.6937	-3.4625	-3.4354	-3.5104	-3.0667	-3.2667	124.935	84.089	208.567	233.847	142.958	-10.800	228.800	227.681	114.071	-60.638	207.530	33.373	129.643	-37.300	-6.218	153.137	0.00029625	0.00038934	0.00013531	1302.4	3.466e-06	3.8851e-06	1297.9	354.75	2.5027e-06	4.7775e-06	406.86	136.18	118.2	40.843	4.0584e-06	50.225	0.00031809	0.0002671	8.0363e-05	1323.3	3.1657e-06	3.0653e-06	1325.3	363.47	3.2395e-06	2.8834e-06	415.1	140.42	121.97	42.076	2.9839e-06	52.057	185.379	-48.856	-25.690	-109.861	18.047	48.037	-109.933	-105.374	-24.918	31.850	-105.753	-101.790	-101.375	-96.252	-13.994	-97.033	-8191	255	
1305.164	1	1	0	0	0.087687	0.057071	0.20068	0.33924	0.21554	0.089397	0.29974	0.23452	0.12508	0.085698	0.20104	0.12946	0.17484	0.34932	0.070065	0.083421	-2.9792	-3.2792	-3.4437	-3.5687	-3.325	-3.5062	-3.475	-3.2458	-3.4313	-3.2854	-3.6292	-3.4958	-3.2896	-3.3229	-3.0938	-3.0854	178.043	78.154	156.989	127.496	183.437	-3.349	-108.554	153.160	213.951	127.271	229.911	-15.327	169.881	-103.536	17.176	223.150	0.00030669	0.00046186	0.00013727	1293.8	2.4387e-06	4.8507e-06	1291.7	354.07	2.771e-06	4.7252e-06	405.66	135.71	118.02	40.752	4.2687e-06	50.281	0.00030583	0.00025922	7.6001e-05	1318.4	2.9403e-06	2.7639e-06	1321.7	362.48	2.8998e-06	2.499e-06	414.11	140.02	121.63	41.999	2.5154e-06	52.081	182.694	-46.516	-38.380	-109.883	-9.252	12.929	-110.015	-105.251	-17.775	35.189	-105.592	-101.847	-101.324	-96.091	11.932	-96.947	-8191	255	
1305.283	1	1	0	0	0.15859	0.25552	0.25542	0.1997	0.21624	0.32396	0.30741	0.15037	0.22344	0.16796	0.15454	0.19893	0.15956	0.17111	0.1274	0.15107	-2.9292	-3.2708	-3.3812	-3.8167	-3.2958	-3.2875	-3.2667	-3.2354	-3.3875	-3.1958	-3.3729	-3.4771	-3.225	-3.5354	-3.2313	-3.1542	114.520	114.747	-58.143	-115.419	36.678	9.693	202.300	195.478	197.421	6.743	88.897	-115.345	199.979	194.982	82.507	222.090	0.00032872	0.00035788	0.00010361	1287.6	1.9659e-06	3.2882e-06	1281.1	352.71	4.2993e-06	4.3222e-06	405.06	134.92	117.73	40.809	3.0124e-06	50.154	0.00027758	0.00022709	6.5752e-05	1310.9	2.4993e-06	2.4094e-06	1313.8	361.16	2.5944e-06	2.4085e-06	412.81	139.29	121.28	41.935	2.4165e-06	51.894	184.803	-49.382	-41.931	-109.968	42.275	28.254	-110.018	-105.323	-31.388	29.354	-105.549	-101.754	-101.523	-96.124	50.067	-96.915	-8191	255	
1305.379	1	1	0	0	0.22635	0.12323	0.2464	0.20697	0.074692	0.23671	0.11796	0.22766	0.26841	0.1524	0.26967	0.17237	0.23416	0.15261	0.035883	0.14153	-2.8333	-2.9542	-3.2604	-3.6562	-3.3271	-3.5771	-3.4917	-3.1896	-3.3792	-3.1542	-3.1771	-3.4458	-3.1458	-3.5271	-3.3333	-3.4583	59.324	190.317	53.216	226.057	-47.800	-79.445	-20.423	159.965	-107.732	172.123	213.680	109.580	110.841	214.469	16.657	229.162	0.0002981	0.00052398	8.5858e-05	1278.3	3.7439e-06	5.2426e-06	1278.3	352.98	3.1401e-06	4.818e-06	402.66	135.81	117.44	40.82	2.8987e-06	50.117	0.00025591	0.00020031	6.0492e-05	1303.9	2.3551e-06	2.2425e-06	1309.8	360.71	2.5016e-06	2.2686e-06	411.91	139.55	121.05	41.899	2.4969e-06	51.826	184.811	-23.923	-61.907	-109.852	17.620	22.063	-109.786	-105.217	-24.812	6.316	-105.655	-101.605	-101.263	-96.301	40.347	-96.945	-8191	255	
1305.475	1	1	0	0	0.15782	0.14412	0.092099	0.18033	0.11868	0.35369	0.0972	0.377	0.10269	0.29509	0.052403	0.15989	0.25197	0.1412	0.085026	0.087939	-3.1146	-3.2062	-3.2604	-3.7333	-3.2354	-3.2771	-3.4021	-3.1771	-3.325	-3.1979	-3.3083	-3.6146	-3.4792	-3.5708	-3.5271	-3.2354	-9.912	199.960	-17.506	175.844	87.421	37.022	112.106	169.837	181.090	89.218	-108.706	-110.137	-100.679	98.471	-58.662	-48.326	0.00031829	0.00058307	0.00012483	1280.7	2.0424e-06	5.4083e-06	1281.2	352.63	3.0794e-06	2.7625e-06	403.01	135.05	117.23	40.57	2.6768e-06	50.185	0.00026271	0.00021443	6.0133e-05	1303.8	2.3368e-06	2.4736e-06	1308.1	360.17	2.5738e-06	2.304e-06	411.59	139.49	121.04	41.843	2.5286e-06	51.84	186.803	-34.391	-29.963	-109.773	19.131	60.716	-109.971	-105.529	-41.930	4.742	-105.568	-101.848	-101.142	-96.363	48.289	-97.052	-8191	255	
1305.596	1	1	0	0	0.20549	0.15928	0.1383	0.18921	0.11871	0.042225	0.12715	0.12354	0.19901	0.056858	0.21431	0.3677	0.1456	0.025721	0.11627	0.12319	-2.9167	-3.1437	-3.2271	-3.7438	-3.2	-3.4292	-3.5958	-3.1458	-3.3167	-3.4667	-3.425	-3.7687	-3.3771	-3.3521	-3.3937	-3.0729	-5.489	127.357	9.580	-96.219	31.478	59.692	160.372	147.072	-114.808	96.314	126.998	159.275	231.507	205.304	178.338	113.818	0.00030219	0.00040969	0.00013308	1280.2	3.8793e-06	4.695e-06	1279.7	350.44	2.41e-06	2.6922e-06	404.19	134.68	117.5	40.684	2.8483e-06	50.078	0.00026328	0.00021886	6.4617e-05	1304.9	2.4658e-06	2.3639e-06	1309.2	359.65	2.5221e-06	2.3447e-06	411.79	139.15	121.01	41.85	2.5355e-06	51.774	185.232	-16.648	-62.313	-109.769	7.791	39.143	-109.972	-105.238	-6.103	18.537	-105.765	-101.994	-101.489	-96.146	-13.622	-96.946	-8191	255	
1305.692	1	1	0	0	0.15349	0.17371	0.31507	0.30711	0.052202	0.16952	0.15985	0.35326	0.29658	0.076552	0.29032	0.27718	0.2205	0.096375	0.11734	0.082961	-3.0417	-3.4708	-3.2042	-3.6312	-3.2104	-3.2479	-3.5854	-3.1542	-3.3958	-3.3375	-3.175	-3.6	-3.3937	-3.5396	-3.5958	-3.3063	-96.026	-27.010	206.613	232.180	224.848	8.797	-107.857	137.813	109.536	103.797	209.072	173.544	-111.211	195.548	181.887	164.402	0.00033151	0.00041903	0.0001401	1279.7	3.6949e-06	5.5602e-06	1278.2	350.96	2.2622e-06	2.1867e-06	402.88	134.77	117.41	40.598	3.0123e-06	50.246	0.00025822	0.00021661	6.0011e-05	1303.6	2.3461e-06	2.3653e-06	1306.4	360.18	2.5242e-06	2.3652e-06	412.27	139.2	120.87	41.767	2.3879e-06	51.741	184.379	-39.639	-41.665	-109.818	14.226	36.394	-109.982	-105.316	26.699	32.726	-105.870	-102.059	-101.171	-96.533	1.746	-97.113	-8191	255	
1305.787	1	1	0	0	0.15207	0.032124	0.22815	0.16391	0.22917	0.072472	0.10343	0.23506	0.04508	0.15363	0.18003	0.16088	0.25428	0.071319	0.14974	0.16863	-3.0042	-3.3417	-3.0542	-3.6813	-3.1708	-3.3479	-3.7896	-3.4083	-3.275	-3.4896	-3.3729	-3.5167	-3.2938	-3.3333	-3.7562	-3.2083	-2.313	97.196	159.361	-117.037	-0.964	12.790	190.226	132.003	222.740	203.072	26.183	183.753	-78.863	118.852	206.030	159.289	0.00034225	0.00048208	8.0286e-05	1271.3	3.4698e-06	5.5493e-06	1276.6	351.76	2.8223e-06	3.3625e-06	404.81	134.77	117.47	40.511	4.3611e-06	50.283	0.00025868	0.00021383	5.693e-05	1298.1	2.383e-06	2.186e-06	1304.5	360.15	2.4193e-06	2.3153e-06	411.59	139.35	120.9	41.737	2.2926e-06	51.801	184.673	-45.688	-48.871	-109.807	-12.121	36.695	-109.859	-105.500	-18.064	19.662	-105.702	-101.746	-101.292	-95.963	17.806	-96.780	-8191	255	
1305.885	1	1	0	0	0.14644	0.044702	0.21805	0.19398	0.11877	0.29599	0.11601	0.1838	0.24142	0.055637	0.25399	0.17681	0.087339	0.27935	0.1266	0.25932	-3.0042	-3.2938	-3.0333	-3.5917	-3.3354	-3.2917	-3.6021	-3.3896	-3.2479	-3.5646	-3.1458	-3.3688	-3.375	-3.2667	-3.5542	-3.3187	50.338	215.876	-59.182	-71.765	170.320	162.594	-59.144	156.467	-76.227	178.763	159.724	-104.245	180.951	185.032	-96.728	213.409	0.0003159	0.00055423	0.00012422	1276.4	3.2154e-06	3.7271e-06	1276	351.09	3.23e-06	3.9275e-06	401.36	134.85	117.47	40.685	3.2716e-06	50.275	0.00024756	0.0002108	5.5834e-05	1297.7	2.3341e-06	2.1739e-06	1301.1	359.47	2.3689e-06	2.2634e-06	411.03	139.26	120.83	41.847	2.3319e-06	51.755	188.422	-40.851	-24.321	-109.766	-6.939	18.385	-109.885	-105.360	-13.818	24.151	-105.623	-101.821	-101.352	-96.309	18.756	-97.012	-8191	255	
1305.979	1	1	0	0	0.1123	0.11107	0.16054	0.15099	0.058252	0.19695	0.22613	0.27629	0.045443	0.36907	0.12746	0.19761	0.29921	0.31629	0.15818	0.083793	-3.025	-3.4271	-3.325	-3.4208	-3.3083	-3.0667	-3.6167	-3.5354	-3.4083	-3.5479	-3.2	-3.3937	-3.3312	-3.275	-3.5062	-3.2625	28.256	2.677	229.799	-54.632	-12.614	104.620	112.221	159.013	-103.182	154.106	141.470	94.569	161.760	-112.091	174.951	101.884	0.00029713	0.0003605	0.00014185	1274.4	2.7244e-06	3.5129e-06	1268.5	350.48	3.5282e-06	3.9681e-06	402.22	134.96	117.39	40.521	2.0022e-06	50.169	0.0002433	0.00020123	5.2993e-05	1295.2	2.3088e-06	2.079e-06	1297.7	358.85	2.3513e-06	2.224e-06	410.62	139.11	120.84	41.733	2.2047e-06	51.691	182.356	-25.049	-59.908	-109.841	0.504	43.575	-109.949	-105.302	1.502	19.176	-105.803	-101.795	-101.429	-96.321	41.611	-96.877	-8191	255	
1306.075	1	1	0	0	0.030373	0.33042	0.10478	0.010259	0.083435	0.32314	0.30564	0.20439	0.070443	0.17221	0.16589	0.17602	0.042632	0.10427	0.045141	0.20308	-2.8146	-3.4354	-3.0563	-3.5167	-3.5417	-3.2479	-3.3563	-3.3229	-3.1396	-3.5687	-3.3937	-3.4208	-3.5771	-3.3396	-3.3833	-3.5396	40.489	47.776	38.174	17.701	96.161	4.013	171.777	107.180	-15.516	-83.151	224.359	44.415	-39.804	-40.413	59.152	173.212	0.00034601	0.00060635	0.00014242	1270.5	4.3573e-06	4.7065e-06	1268.5	350.49	4.3187e-06	3.3367e-06	401.36	134.91	117.17	40.572	3.7868e-06	49.936	0.0002414	0.0002066	5.2852e-05	1292.7	2.3161e-06	2.0684e-06	1297.9	358.91	2.2993e-06	2.1725e-06	410.36	139.04	120.69	41.699	2.101e-06	51.662	184.421	-23.775	-42.254	-109.859	-5.813	44.681	-109.978	-105.386	-15.161	0.726	-105.904	-101.760	-101.304	-96.356	8.061	-96.931	-8191	255	
1306.171	1	1	0	0	0.063949	0.07156	0.29677	0.088105	0.28169	0.17304	0.080427	0.23739	0.19411	0.12084	0.25339	0.2072	0.33377	0.28183	0.25468	0.11518	-2.8937	-3.4125	-3.1083	-3.3	-3.3583	-3.1354	-3.5875	-3.3063	-3.0604	-3.4729	-3.2521	-3.5563	-3.6646	-3.4021	-3.3229	-3.4042	230.072	-46.003	39.589	-38.864	199.130	148.005	-51.613	179.845	42.380	79.539	174.914	-119.116	186.922	-110.267	-27.396	110.564	0.0003425	0.00046502	0.0001183	1264	3.956e-06	3.3934e-06	1264.3	349.69	3.9379e-06	3.3989e-06	399.3	134.6	116.69	40.444	2.7479e-06	50.25	0.00023394	0.00019333	5.1094e-05	1291	2.2325e-06	1.927e-06	1294.9	358.87	2.1666e-06	2.042e-06	409.6	138.95	120.53	41.667	2.0188e-06	51.784	187.941	-44.410	-29.261	-109.787	10.674	36.447	-109.832	-105.316	-22.322	9.522	-105.790	-101.695	-101.377	-96.497	6.059	-96.826	-8191	255	
1306.292	1	1	0	0	0.097994	0.082689	0.1973	0.11177	0.047371	0.050088	0.15677	0.31961	0.1345	0.23965	0.076043	0.12926	0.27545	0.16248	0.073877	0.19614	-2.7021	-3.4771	-3.2292	-3.5292	-3.5521	-3.1604	-3.3688	-3.4396	-3.1854	-3.4646	-3.4125	-3.5208	-3.7396	-3.3542	-3.4021	-3.3708	177.314	235.337	-97.904	-107.568	106.510	-116.378	223.759	203.403	10.476	142.019	82.162	169.438	-114.391	-23.089	-12.381	98.609	0.00035165	0.0004705	0.00014813	1268.3	3.8563e-06	3.6329e-06	1262.4	348.79	3.5588e-06	3.7257e-06	400.68	134.62	117.44	40.511	4.5441e-06	50.201	0.00022758	0.00017727	4.9293e-05	1290.7	2.1447e-06	1.8205e-06	1293.9	358.58	2.0432e-06	1.8755e-06	410.46	138.97	120.76	41.753	1.9396e-06	51.746	182.027	-18.476	-52.882	-109.968	22.363	20.259	-110.002	-105.417	-37.022	18.045	-105.378	-101.631	-101.289	-96.513	11.620	-96.730	-8191	255	
1306.388	1	1	0	0	0.23735	0.070247	0.13856	0.11582	0.08615	0.12899	0.14181	0.082608	0.072422	0.11606	0.039279	0.067782	0.25756	0.18403	0.11017	0.21157	-2.775	-3.3167	-3.1437	-3.2583	-3.3063	-3.2146	-3.5104	-3.6583	-3.1417	-3.6083	-3.2833	-3.2062	-3.6021	-3.2042	-3.3417	-3.6021	93.777	-83.919	-33.695	219.633	145.676	76.142	182.190	-121.049	-111.064	129.234	207.637	164.320	209.077	130.063	-36.738	82.649	0.00033739	0.00038367	0.00013862	1264.1	2.3599e-06	3.2768e-06	1268.5	351.2	2.9663e-06	3.6256e-06	400.54	134.55	117.5	40.738	3.2339e-06	50.441	0.00022065	0.00017584	4.9952e-05	1288.9	2.0714e-06	1.7716e-06	1296.6	358.76	2.0005e-06	1.8113e-06	410.16	139.04	120.76	41.878	1.9375e-06	51.865	186.446	-25.487	-53.467	-109.715	37.580	39.499	-109.875	-105.520	-12.083	31.873	-105.390	-101.861	-101.320	-96.528	24.086	-96.807	-8191	255	
1306.460	1	1	0	0	0.27278	0.063661	0.075473	0.22007	0.22936	0.14363	0.15404	0.15948	0.1338	0.058696	0.16511	0.25392	0.21282	0.11591	0.22587	0.16975	-2.925	-3.3958	-3.1792	-3.2438	-3.5396	-3.2542	-3.4542	-3.7167	-3.2875	-3.4729	-3.5854	-3.1604	-3.4354	-3.2417	-3.0979	-3.4625	235.769	215.142	-109.346	205.086	19.423	235.906	135.436	203.170	-99.122	-17.714	134.224	205.259	200.272	90.314	100.754	201.508	0.00030698	0.00049655	9.1731e-05	1267.5	2.8624e-06	4.1563e-06	1269.9	349.23	1.3458e-06	4.1291e-06	402.35	135.33	117.14	40.55	1.3361e-06	50.163	0.00021582	0.00017245	5.0255e-05	1290.2	1.997e-06	1.9034e-06	1296.9	358.2	2.0432e-06	1.9584e-06	410.75	139.33	120.72	41.756	2.0755e-06	51.826	182.314	-52.124	-48.525	-109.725	7.043	44.679	-109.903	-105.208	-2.106	29.189	-105.614	-101.886	-101.080	-96.335	24.107	-97.086	-8191	255	
1306.556	1	1	0	0	0.3195	0.13119	0.057811	0.21977	0.28957	0.14171	0.17283	0.2344	0.18255	0.38098	0.14367	0.16267	0.094381	0.31621	0.037094	0.085142	-2.5958	-3.4021	-3.225	-3.3563	-3.4479	-3.3812	-3.3458	-3.5979	-3.3937	-3.3354	-3.4688	-3.3396	-3.4958	-3.4458	-3.425	-3.4854	-0.811	45.436	220.610	154.420	162.241	-3.290	153.442	192.867	145.284	45.848	213.636	-112.721	-0.807	218.958	199.509	60.152	0.00034781	0.00060817	0.00010199	1265.5	3.3378e-06	5.976e-06	1273.8	349.78	3.164e-06	4.8091e-06	402.04	134.55	117.58	40.639	2.6345e-06	50.247	0.00022961	0.00018598	5.4112e-05	1290.3	2.1527e-06	2.0605e-06	1299.4	358.77	2.0932e-06	2.0113e-06	410.79	139.01	120.97	41.789	2.0962e-06	51.735	183.931	-41.889	-37.477	-109.735	-0.018	34.228	-109.845	-105.312	-34.817	28.036	-105.611	-101.897	-101.267	-96.254	26.271	-97.107	-8191	255	
1306.676	1	1	0	0	0.056382	0.26625	0.11652	0.23308	0.21765	0.18358	0.07478	0.42044	0.265	0.16966	0.14174	0.32939	0.14307	0.13635	0.18319	0.23978	-2.8583	-3.3063	-3.475	-3.3354	-3.4208	-3.2625	-3.1312	-3.4083	-3.3208	-3.3729	-3.475	-3.2479	-3.5229	-3.4229	-3.2792	-3.6229	98.351	221.250	-109.593	151.328	-22.336	-46.227	188.513	152.087	96.471	-10.892	-24.520	47.348	179.839	181.067	53.650	171.746	0.00031341	0.00042985	0.00014948	1266.4	2.2217e-06	3.9107e-06	1267.3	350.23	3.2402e-06	3.9929e-06	402.35	134.79	117.59	40.862	4.3117e-06	50.133	0.0002292	0.00019352	5.4246e-05	1293.1	2.132e-06	2.1184e-06	1298	358.46	2.1461e-06	2.0179e-06	410.41	139.04	120.77	41.834	2.1354e-06	51.743	185.332	-38.596	-28.831	-109.743	7.461	11.415	-109.921	-105.426	-20.909	19.445	-105.851	-101.753	-101.357	-96.575	33.737	-96.850	-8191	255	
1306.773	1	1	0	0	0.098507	0.13793	0.12981	0.35749	0.050528	0.040998	0.34439	0.03492	0.11178	0.3282	0.035246	0.12003	0.19258	0.27747	0.26819	0.18767	-2.675	-3.2229	-3.3375	-3.3333	-3.1729	-3.2229	-3.2708	-3.7333	-3.2583	-3.3896	-3.45	-3.0875	-3.4833	-3.2125	-2.95	-3.4292	-32.672	-19.795	228.613	214.051	188.953	-123.104	184.240	131.582	190.466	235.435	-18.807	-91.290	99.835	216.374	-119.541	195.639	0.00031345	0.00045925	0.00012024	1266.2	3.8972e-06	4.0728e-06	1264.8	349.71	2.4507e-06	3.7979e-06	401.91	135.35	116.91	40.547	3.5513e-06	50.097	0.00023113	0.00019458	5.7375e-05	1291.6	2.1853e-06	2.1575e-06	1297.2	358.32	2.2217e-06	2.0681e-06	410.08	139.15	120.51	41.736	2.1677e-06	51.713	181.940	-30.698	-42.210	-109.754	4.678	41.713	-109.704	-105.218	-24.913	37.125	-105.916	-101.982	-101.439	-96.396	40.892	-96.929	-8191	255	
1306.869	1	1	0	0	0.1513	0.18191	0.1898	0.22429	0.17312	0.43639	0.12348	0.40809	0.086464	0.21671	0.18927	0.11566	0.15633	0.041411	0.051139	0.21121	-2.9083	-3.4396	-3.7375	-3.3438	-3.5229	-3.3479	-3.4771	-3.6312	-3.4208	-3.5208	-3.6896	-3.3271	-3.4292	-3.4479	-3.1937	-3.4979	16.581	137.819	-31.411	193.638	14.067	195.153	201.052	155.074	155.130	-50.371	173.242	160.405	220.168	52.292	203.286	163.784	0.00031182	0.0004901	0.00012618	1273.8	2.9989e-06	4.7983e-06	1272.1	348.96	2.3703e-06	5.4211e-06	402.19	135.33	116.72	40.501	2.9477e-06	50.069	0.00023983	0.00019141	5.5866e-05	1293.1	2.2055e-06	2.1579e-06	1297.7	358.17	2.3015e-06	2.0518e-06	410.83	138.99	120.54	41.66	2.1192e-06	51.759	183.314	-37.051	-50.406	-109.738	2.628	38.568	-109.818	-105.438	-2.670	23.026	-105.742	-101.775	-101.288	-96.310	28.147	-97.056	-8191	255	
1306.965	1	1	0	0	0.18242	0.079493	0.28614	0.16957	0.056011	0.20593	0.25503	0.30029	0.081741	0.16065	0.27589	0.055362	0.028926	0.1469	0.10991	0.22028	-2.6271	-2.9708	-3.4188	-3.4562	-3.4375	-3.5583	-3.4583	-3.5521	-3.35	-3.0792	-3.6688	-3.3792	-3.4646	-3.5833	-3.2188	-3.5333	-65.164	119.662	-121.518	205.476	189.245	113.143	205.276	210.563	1.554	-80.604	-121.831	-67.471	-30.074	211.002	-68.651	-88.129	0.00034271	0.00049551	7.8884e-05	1267.8	2.784e-06	5.2935e-06	1265.6	349.58	3.2855e-06	3.7711e-06	401.75	135.18	117.06	40.644	3.0403e-06	50.253	0.00024799	0.00019905	5.5137e-05	1290.5	2.2202e-06	2.2436e-06	1296.2	357.95	2.3302e-06	2.219e-06	409.83	138.87	120.49	41.741	2.224e-06	51.734	185.483	-18.885	-59.465	-109.824	19.550	22.260	-109.889	-105.342	-24.284	35.021	-105.603	-101.963	-101.131	-96.383	17.025	-96.980	-8191	255	
1307.084	1	1	0	0	0.1143	0.11796	0.059788	0.21649	0.044775	0.045717	0.17668	0.38299	0.072696	0.050974	0.10089	0.22676	0.26673	0.083429	0.22355	0.24277	-2.8208	-3.2292	-3.6708	-3.475	-3.2792	-3.425	-3.3292	-3.55	-3.3187	-3.4125	-3.5625	-3.4062	-3.4333	-3.6167	-3.2083	-3.3187	206.654	6.513	205.557	-108.677	11.773	25.386	-111.911	169.581	233.282	74.719	201.724	214.315	89.676	-86.138	45.889	191.636	0.00030934	0.0005652	0.00011187	1271.7	2.4785e-06	4.2608e-06	1270.2	350.29	2.6794e-06	3.5577e-06	403.37	134.85	117.18	40.532	4.2815e-06	50.197	0.00025161	0.00019877	5.6063e-05	1290.8	2.327e-06	2.3046e-06	1297.6	358.38	2.4655e-06	2.1168e-06	410.38	138.91	120.44	41.656	2.2819e-06	51.695	188.632	-51.597	-40.411	-109.715	11.135	23.327	-109.790	-105.288	-4.590	22.162	-105.712	-101.885	-101.341	-96.311	16.029	-97.045	-8191	255	
1307.155	1	1	0	0	0.087448	0.14967	0.05094	0.0992	0.20896	0.042841	0.14773	0.16413	0.015982	0.38657	0.12292	0.11624	0.19176	0.12294	0.12972	0.15348	-3.1604	-3.0354	-3.4042	-3.4583	-3.1479	-3.6521	-3.5292	-3.3375	-3.5438	-3.2313	-3.6854	-3.325	-3.2979	-3.5646	-3.3125	-3.3	-19.993	106.097	137.755	215.769	-103.597	92.227	214.150	53.699	-75.463	171.963	78.041	-74.375	-106.606	173.653	-79.094	151.607	0.00031289	0.00046667	8.7627e-05	1271.4	1.8989e-06	3.9162e-06	1269.6	349.49	3.112e-06	3.5645e-06	401.97	134.69	116.6	40.601	4.0509e-06	50.004	0.00026048	0.00020439	5.6741e-05	1293.2	2.3961e-06	2.2651e-06	1298.9	357.6	2.5056e-06	2.2153e-06	409.36	138.88	120.31	41.704	2.3273e-06	51.601	188.571	-32.118	-53.203	-109.668	20.034	37.305	-109.948	-105.344	-24.223	33.940	-105.507	-101.851	-101.340	-96.313	27.378	-96.885	-8191	255	
1307.276	1	1	0	0	0.17912	0.413	0.19163	0.096014	0.027844	0.17525	0.22397	0.14986	0.14884	0.24817	0.098847	0.17649	0.28051	0.19084	0.22563	0.26336	-2.9708	-3.3521	-3.3688	-3.325	-3.1896	-3.7542	-3.4708	-3.475	-3.3312	-3.2542	-3.6167	-3.5333	-3.2042	-3.5042	-3.3604	-3.475	-70.121	-30.654	9.138	86.970	-26.929	167.428	212.168	186.524	108.765	110.504	172.691	203.405	139.750	-102.136	-77.791	142.915	0.00031702	0.00054873	0.00013394	1272.8	3.839e-06	4.5983e-06	1273.5	350.23	3.0607e-06	4.2602e-06	401.25	134.24	117.07	40.423	3.3952e-06	50.327	0.00025867	0.00020379	5.9578e-05	1296	2.3717e-06	2.3126e-06	1300.4	358.55	2.6038e-06	2.2173e-06	409.92	138.84	120.4	41.617	2.4895e-06	51.68	184.331	-43.457	-45.172	-109.794	-2.125	28.322	-110.009	-105.173	-36.783	42.612	-105.548	-101.835	-101.298	-96.271	28.062	-96.913	-8191	255	
1307.372	1	1	0	0	0.1823	0.16106	0.23765	0.07522	0.25919	0.15062	0.029841	0.20629	0.055795	0.17291	0.19593	0.1864	0.13093	0.1022	0.36834	0.12793	-2.9875	-3.1292	-3.3812	-3.5146	-3.2313	-3.6146	-3.4938	-3.4979	-3.4917	-3.2979	-3.5062	-3.3937	-3.2979	-3.5771	-3.3458	-3.3167	-24.639	191.743	-11.575	-49.401	11.023	57.796	74.666	169.167	-30.944	175.278	-119.885	227.967	-116.397	-76.196	177.145	212.872	0.0003207	0.00036113	0.00016172	1269.2	2.2838e-06	4.5325e-06	1269.5	348.52	3.6204e-06	4.4336e-06	398.62	134.09	116.28	40.222	3.3633e-06	49.615	0.00026597	0.00022157	6.3999e-05	1294.5	2.4591e-06	2.3846e-06	1299.9	357.44	2.6442e-06	2.3565e-06	408.22	138.58	120.01	41.478	2.5844e-06	51.45	183.436	-39.662	-57.036	-109.957	13.154	37.543	-109.899	-105.232	-32.569	6.267	-105.656	-101.924	-101.338	-96.324	33.341	-96.924	-8191	255	
1307.468	1	1	0	0	0.22526	0.207	0.09082	0.20932	0.44034	0.29478	0.15858	0.36516	0.29072	0.15586	0.29333	0.2448	0.22956	0.070844	0.13984	0.098267	-3.0729	-3.1229	-3.3125	-3.525	-3.3271	-3.5375	-3.5958	-3.1958	-3.3771	-3.2771	-3.4646	-3.5604	-3.2708	-3.4917	-3.2667	-3.3521	223.764	31.156	-122.972	120.248	-24.088	138.325	165.587	200.780	44.012	69.440	200.856	176.428	215.342	205.194	-53.826	123.369	0.00031495	0.00028826	0.00011951	1261	3.7723e-06	4.5592e-06	1260.2	346.9	3.3977e-06	5.517e-06	395.82	133.18	115.65	39.778	4.7637e-06	49.471	0.00027144	0.00022793	6.3908e-05	1288	2.5384e-06	2.4767e-06	1292.3	356.8	2.6708e-06	2.6159e-06	407.07	138.05	119.7	41.216	2.9143e-06	51.158	180.958	-25.918	-46.253	-110.043	10.308	34.813	-110.069	-105.298	-29.848	28.008	-105.938	-101.941	-101.300	-96.341	1.413	-97.201	-8191	255	
1307.565	1	1	0	0	0.22073	0.16991	0.11812	0.063955	0.098483	0.23094	0.15268	0.29062	0.073109	0.10775	0.26953	0.13342	0.1163	0.39382	0.055445	0.11027	-3.0708	-3.2938	-3.3167	-3.7542	-3.1958	-3.5896	-3.4813	-3.375	-3.3521	-3.175	-3.1521	-3.4208	-3.3125	-3.4646	-3.5458	-3.3146	-87.822	59.846	-91.010	178.880	224.967	74.195	137.749	162.082	60.552	94.817	213.420	233.347	-115.936	236.197	29.978	214.708	0.00033293	0.00032103	0.00011183	1254.3	3.2451e-06	2.3975e-06	1252.2	346.42	3.9981e-06	3.5852e-06	392.76	132.68	114.93	39.891	2.9909e-06	49.126	0.00028017	0.00025096	7.16e-05	1284.2	2.7043e-06	2.6965e-06	1287.9	355.6	2.8411e-06	2.802e-06	404.91	137.4	119.04	41.153	3.1539e-06	51.021	182.308	-38.356	-60.074	-109.892	0.580	44.867	-110.194	-105.569	-26.337	7.152	-105.805	-102.215	-101.547	-96.315	12.189	-96.801	-8191	255	
1307.685	1	1	0	0	0.16648	0.37192	0.12155	0.21472	0.099847	0.31471	0.31445	0.03466	0.24934	0.12192	0.20731	0.14971	0.1013	0.22646	0.16585	0.22447	-3.0979	-3.3458	-3.4583	-3.6604	-3.2125	-3.4313	-3.3563	-3.3417	-3.3187	-3.4125	-3.4542	-3.5979	-3.1437	-3.3458	-3.3625	-3.0792	21.515	187.138	-118.508	195.700	144.407	76.488	232.983	163.259	119.181	-99.584	145.259	122.608	221.967	173.360	-69.059	119.267	0.00030909	0.0004794	0.00013515	1251	1.617e-06	3.1229e-06	1254	344.53	1.3156e-06	3.368e-06	393.88	132.63	114.91	39.828	5.408e-06	48.985	0.00029371	0.00027991	7.974e-05	1278	3.0003e-06	2.959e-06	1283.3	354.22	3.1414e-06	3.14e-06	404.16	137.06	118.73	41.069	3.3681e-06	50.897	187.199	-47.792	-24.178	-109.831	-13.809	8.080	-109.838	-105.285	-14.321	-7.819	-105.861	-101.772	-101.325	-96.303	27.010	-97.155	-8191	255	
1307.757	1	1	0	0	0.023379	0.034803	0.1081	0.11428	0.23578	0.10943	0.17939	0.2519	0.12911	0.08802	0.22823	0.21644	0.21689	0.36479	0.050704	0.037614	-3.0125	-3.2333	-3.1188	-3.5438	-3.1521	-3.3979	-3.4458	-3.15	-3.325	-3.3917	-3.3896	-3.5563	-3.375	-3.4396	-3.5687	-3.2417	98.569	82.411	191.863	-74.607	229.887	11.421	113.574	192.621	113.919	139.438	166.559	-122.036	-64.797	174.650	-30.186	31.255	0.00031872	0.00039719	0.00012968	1254.2	2.2723e-06	4.8961e-06	1255.9	345.47	3.3328e-06	5.5561e-06	394.07	132.63	114.9	39.765	4.7233e-06	49.291	0.00031947	0.0003142	8.7842e-05	1278.6	3.3238e-06	3.5436e-06	1287.1	355.1	3.5513e-06	3.6252e-06	405.43	137.42	118.96	41.109	3.6763e-06	50.955	182.610	-23.285	-4.212	-109.725	11.309	35.328	-109.949	-105.431	-31.031	34.431	-105.861	-102.001	-101.287	-96.481	40.151	-96.967	-8191	255	
1307.853	1	1	0	0	0.11875	0.23937	0.30661	0.25624	0.11241	0.11261	0.15003	0.16844	0.29511	0.0047854	0.23756	0.11629	0.18639	0.1202	0.2354	0.15117	-3.0792	-3.2812	-3.0854	-3.6	-3.2562	-3.4396	-3.7042	-3.2604	-3.3063	-3.3375	-3.05	-3.5083	-3.4333	-3.4479	-3.5979	-3.2562	168.308	3.642	-87.540	206.548	225.078	-120.276	-94.925	-57.145	-21.561	-17.703	176.486	-119.758	219.979	157.973	20.078	-112.890	0.00032294	0.00033653	0.00011766	1259.3	2.9072e-06	4.878e-06	1260.9	346.96	4.2245e-06	6.1078e-06	398.52	133.2	115.41	39.947	3.2757e-06	49.168	0.00035852	0.0003497	9.3969e-05	1286.4	3.7015e-06	3.8183e-06	1294.3	356.79	3.7607e-06	3.8844e-06	407.55	137.99	119.52	41.211	3.6981e-06	51.08	181.519	-23.973	-39.719	-109.778	-8.611	11.271	-109.806	-105.372	-15.950	36.877	-105.945	-101.759	-101.300	-96.398	37.485	-96.897	-8191	255	
1307.974	1	1	0	0	0.11498	0.053824	0.016206	0.090952	0.035352	0.20782	0.13646	0.13213	0.25986	0.094752	0.11614	0.046828	0.11367	0.28723	0.13089	0.090931	-2.8187	-3.2021	-3.1729	-3.5458	-3.2333	-3.2354	-3.7562	-3.3	-3.4917	-3.5021	-3.3104	-3.4042	-3.3583	-3.3917	-3.4813	-3.1437	6.127	150.736	118.087	-85.501	-49.725	111.201	153.519	197.688	137.958	-46.379	114.182	-21.912	-78.497	217.074	184.073	70.407	0.00029491	0.0004181	0.0001203	1261.7	3.5191e-06	4.2841e-06	1264.5	349.35	1.0475e-06	5.1106e-06	398.72	133.28	116.37	40.12	2.7877e-06	49.581	0.00037135	0.00036927	9.5395e-05	1292.3	4.0057e-06	4.0537e-06	1299.2	358.03	4.0723e-06	4.0137e-06	408.21	138.08	119.83	41.332	3.883e-06	51.188	186.846	-37.771	-35.122	-109.901	22.068	2.217	-109.806	-105.319	31.199	26.153	-105.618	-101.706	-101.211	-96.173	38.041	-97.069	-8191	255	
1308.068	1	1	0	0	0.25388	0.11267	0.13183	0.54357	0.10108	0.30906	0.33263	0.21687	0.18319	0.25137	0.040199	0.1207	0.28234	0.18075	0.19365	0.21254	-2.8083	-3.475	-3.0187	-3.4083	-3.1479	-3.1688	-3.3521	-3.3208	-3.2	-3.45	-3.2062	-3.5208	-3.4688	-3.3312	-3.5583	-3.4479	166.086	225.511	73.278	207.638	122.445	9.254	200.453	203.275	22.580	73.271	-29.496	-120.017	229.705	-45.115	-44.022	-37.442	0.00033914	0.00056957	0.00011299	1273.6	2.1143e-06	5.7158e-06	1268.9	349.01	3.5939e-06	5.4639e-06	399.37	133.13	115.71	40.016	1.6835e-06	49.396	0.00038296	0.00038115	9.7279e-05	1297.7	4.1477e-06	4.0348e-06	1301.1	358.81	4.3081e-06	4.0198e-06	408.72	138.13	119.85	41.361	3.8821e-06	51.132	181.807	-42.456	-51.850	-109.743	-12.910	19.410	-109.921	-105.220	-16.475	32.661	-105.839	-101.788	-101.249	-96.261	32.604	-97.037	-8191	255	
1308.164	1	1	0	0	0.12645	0.17835	0.15094	0.27321	0.2142	0.070477	0.17258	0.20286	0.20787	0.1062	0.097301	0.11432	0.13103	0.081105	0.14265	0.22797	-2.8979	-3.5104	-3.2438	-3.5667	-3.3854	-3.0854	-3.4979	-3.3792	-3.1521	-3.4354	-3.1813	-3.5958	-3.575	-3.3937	-3.5146	-3.4167	-93.828	-89.848	25.917	213.416	94.934	15.584	178.922	228.843	203.161	98.958	204.916	142.954	124.200	-53.734	-32.908	114.841	0.00032269	0.00047873	0.00012779	1267.9	3.4115e-06	4.0429e-06	1268.5	348.99	4.9077e-06	6.3289e-06	398.14	133.64	116.1	40.094	3.21e-06	49.253	0.00038892	0.00036494	9.6455e-05	1296.1	4.1985e-06	3.8589e-06	1299.4	358.17	4.1717e-06	3.889e-06	408.4	138.13	119.99	41.278	3.7296e-06	51.038	176.176	-49.846	-53.365	-109.865	7.458	16.268	-109.814	-105.380	-20.606	38.057	-105.577	-101.836	-101.429	-96.403	19.305	-97.009	-8191	255	
1308.260	1	1	0	0	0.21537	0.12455	0.25617	0.15722	0.10172	0.27085	0.052355	0.22162	0.27922	0.13713	0.018564	0.29888	0.20943	0.33659	0.017012	0.21641	-2.7354	-3.45	-3.1604	-3.3625	-3.4792	-2.9938	-3.7313	-3.5917	-3.2417	-3.4688	-3.2062	-3.2542	-3.4792	-3.1979	-3.5583	-3.3875	108.967	220.624	174.723	200.985	142.019	-101.495	62.655	164.146	-26.021	210.817	201.308	178.881	201.348	-86.327	125.821	-61.956	0.00027227	0.00038966	9.7922e-05	1269.8	3.2887e-06	3.8195e-06	1266.8	349.2	3.6503e-06	5.0734e-06	398.31	133.39	116.32	40.053	3.3509e-06	49.246	0.00036953	0.00033267	9.2401e-05	1294.6	3.6828e-06	3.3006e-06	1299.4	358.22	3.4022e-06	3.0634e-06	407.26	138.05	119.65	41.241	3.0697e-06	50.975	184.817	-30.495	-60.501	-109.906	11.574	50.841	-110.063	-105.372	-12.298	5.958	-105.634	-101.767	-101.198	-96.579	57.803	-96.745	-8191	255	
1308.356	1	1	0	0	0.16901	0.24322	0.25257	0.22467	0.28004	0.1527	0.37298	0.47336	0.11069	0.2114	0.065065	0.16635	0.17579	0.23601	0.20625	0.16606	-2.8708	-3.3542	-3.3104	-3.4354	-3.375	-3.1125	-3.3896	-3.3604	-3.1813	-3.3833	-3.4813	-3.3333	-3.5792	-3.3104	-3.2604	-3.3917	94.124	-85.308	31.705	170.466	74.052	-100.727	185.793	209.038	53.931	-16.215	-118.239	206.962	-110.878	210.332	-93.011	124.483	0.00028508	0.00027221	0.00016709	1266.8	3.4987e-06	5.5448e-06	1259.8	347.4	4.1797e-06	3.0879e-06	396.55	133.94	115.53	39.832	4.8371e-06	49.673	0.00029224	0.00025307	6.9787e-05	1288.1	2.8185e-06	2.5023e-06	1289.9	356.31	2.6006e-06	2.4421e-06	406.4	137.88	119.43	41.084	2.3671e-06	51.074	181.906	-38.684	-41.813	-109.787	28.245	19.468	-110.016	-105.278	-27.127	18.046	-105.780	-101.755	-101.217	-96.506	17.370	-97.091	-8191	255	
1308.453	1	1	0	0	0.15931	0.028429	0.25685	0.13936	0.1199	0.29338	0.05375	0.28734	0.10277	0.069308	0.3292	0.18886	0.12879	0.31255	0.21813	0.093017	-2.6479	-3.4104	-3.0958	-3.4854	-3.4604	-3.2771	-3.6312	-3.5479	-3.1354	-3.3417	-3.3229	-3.35	-3.6333	-3.3333	-3.5271	-3.3479	174.498	-68.939	89.746	216.457	129.807	99.457	147.153	180.928	-72.519	138.023	-110.761	-116.675	231.086	201.587	158.548	-85.568	0.00031799	0.00045586	0.00015021	1263.6	2.3391e-06	4.6462e-06	1257.7	348.2	1.5543e-06	6.0375e-06	396.75	133.91	116.13	40.316	2.8838e-06	49.828	0.00024849	0.00019552	5.5559e-05	1286	2.1166e-06	1.9963e-06	1287.6	356.07	2.1155e-06	1.9468e-06	405.67	137.64	119.41	41.349	2.0107e-06	51.297	185.002	-20.700	-56.625	-109.879	37.712	1.344	-109.721	-105.383	-32.309	14.333	-105.550	-101.862	-101.244	-96.223	12.104	-96.960	-8191	255	
1308.549	1	1	0	0	0.1278	0.29294	0.054616	0.21213	0.12204	0.085775	0.16643	0.094955	0.16799	0.067631	0.18233	0.27786	0.045826	0.30059	0.011469	0.28358	-2.5354	-3.3458	-3.2958	-3.2	-3.3958	-3.1625	-3.6792	-3.6083	-3.2438	-3.5354	-3.3542	-3.2625	-3.7375	-3.4167	-3.4062	-3.6208	-75.703	202.382	66.432	-100.285	145.692	133.328	173.765	56.062	155.267	164.639	225.232	-97.645	192.901	-98.704	118.001	169.069	0.00030889	0.00050668	0.00010295	1258.5	3.4184e-06	6.211e-06	1253	347.85	2.0532e-06	3.9616e-06	396.78	133.88	115.82	40.276	3.4233e-06	49.904	0.00021872	0.00017375	4.8332e-05	1280.8	1.9728e-06	1.7822e-06	1284.5	355.54	1.9261e-06	1.8147e-06	405.16	137.7	119.41	41.332	1.8932e-06	51.275	182.378	-32.409	-82.463	-109.725	22.925	47.160	-109.876	-105.309	6.030	20.158	-105.589	-101.576	-101.312	-96.284	52.288	-96.993	-8191	255	
1308.645	1	1	0	0	0.05401	0.17683	0.46049	0.16256	0.20784	0.28668	0.2661	0.35884	0.076659	0.17822	0.17207	0.33589	0.21528	0.20201	0.148	0.42922	-2.7917	-3.3187	-3.3812	-3.5083	-3.7083	-3.5625	-3.4333	-3.7271	-3.3	-3.525	-3.6333	-3.2875	-3.5896	-3.3042	-3.2333	-3.5417	169.686	193.466	160.729	157.479	-79.649	-63.121	182.891	216.981	236.713	74.110	183.619	-95.300	-76.010	-35.053	83.645	116.886	0.00031297	0.00036504	9.8843e-05	1254.3	2.3571e-06	3.7288e-06	1253.6	345.42	4.1579e-06	5.6549e-06	397.7	133.96	116.12	40.239	2.4549e-06	49.866	0.00022129	0.000168	4.7942e-05	1276.6	1.8662e-06	1.7832e-06	1279.1	353.76	1.811e-06	1.7773e-06	404.62	137.61	119.33	41.3	1.7977e-06	51.233	184.015	-39.926	-49.138	-109.635	15.198	32.218	-109.762	-105.121	-22.192	20.866	-105.740	-101.730	-101.080	-96.388	22.669	-96.691	-8191	255	
1308.766	1	1	0	0	0.067476	0.34135	0.14955	0.016808	0.13362	0.11068	0.19996	0.2399	0.12639	0.072141	0.09852	0.34707	0.19482	0.028765	0.13556	0.1619	-2.6854	-3.4125	-3.5	-3.4333	-3.6458	-3.3521	-3.5375	-3.6396	-3.3375	-3.2625	-3.8063	-3.2875	-3.5708	-3.4625	-3.1562	-3.6042	58.487	209.369	-92.227	214.603	58.468	76.332	170.175	89.320	118.783	-106.763	97.228	-106.600	173.505	74.936	130.378	119.936	0.00032553	0.00037015	0.00012655	1252.4	2.8327e-06	4.9596e-06	1252.5	344.94	2.0243e-06	4.7518e-06	397.07	133.21	115.81	40.184	2.1293e-06	49.41	0.00021388	0.00016185	4.6929e-05	1270.1	1.9232e-06	1.8085e-06	1277.4	352.7	1.9274e-06	1.7533e-06	404.52	137.09	118.81	41.23	1.9124e-06	51.045	183.796	-37.672	-28.200	-109.786	14.231	46.334	-109.800	-105.151	-5.233	37.226	-105.747	-101.610	-101.172	-96.153	6.410	-97.033	-8191	255	
1308.860	1	1	0	0	0.021329	0.15189	0.048608	0.22385	0.054767	0.20986	0.4393	0.3908	0.1165	0.10331	0.28457	0.083198	0.19884	0.067728	0.12047	0.234	-2.8708	-3.3146	-3.5479	-3.325	-3.4854	-3.4708	-3.4271	-3.7667	-3.3563	-3.3375	-3.4396	-3.2021	-3.3312	-3.4708	-3.0062	-3.4208	36.346	124.131	44.428	219.729	142.481	198.786	159.521	182.223	60.721	-27.265	226.233	223.005	204.664	121.073	11.263	-15.081	0.00031854	0.0004981	0.00015946	1252.7	3.0673e-06	5.2269e-06	1249.2	345.95	2.7028e-06	4.0831e-06	396.54	133.28	115.52	40.031	4.5704e-06	49.457	0.00021765	0.00017089	4.8076e-05	1270.5	1.937e-06	1.8479e-06	1275	353.17	1.9937e-06	1.8553e-06	403.99	136.69	118.79	41.108	1.8428e-06	51.097	188.688	-20.743	-40.855	-109.564	30.082	37.329	-109.894	-105.171	-14.349	17.575	-105.577	-101.805	-101.053	-96.176	5.579	-96.864	-8191	255	
1308.958	1	1	0	0	0.11419	0.090521	0.077867	0.25909	0.087644	0.108	0.09705	0.1441	0.12108	0.21482	0.19867	0.21303	0.050879	0.16793	0.062976	0.059911	-2.9292	-3.2938	-3.5854	-3.4313	-3.6771	-3.375	-3.2104	-3.5083	-3.2021	-3.2188	-3.6771	-3.3187	-3.4125	-3.3104	-3.0792	-3.425	97.330	168.294	-92.024	191.061	-15.698	-11.749	123.220	138.889	-110.811	53.956	-119.668	164.256	-106.226	-45.691	44.643	150.994	0.00031125	0.00050797	0.00011601	1250.9	2.7205e-06	4.2174e-06	1250.8	344.7	3.0716e-06	3.15e-06	398.04	133.61	115.3	40.154	2.7946e-06	49.734	0.00021759	0.0001694	4.6523e-05	1269.9	1.96e-06	1.8379e-06	1276	352.94	1.9454e-06	1.7965e-06	404.17	137.13	118.82	41.171	1.8034e-06	51.211	180.748	-34.087	-61.385	-109.741	10.572	32.432	-109.805	-105.176	-9.918	17.631	-105.796	-101.564	-101.001	-96.177	-8.322	-96.882	-8191	255	
1309.054	1	1	0	0	0.20496	0.14406	0.17129	0.19787	0.22152	0.28523	0.021085	0.27622	0.28234	0.23609	0.1195	0.043067	0.091637	0.096612	0.12938	0.09201	-3.1229	-3.2042	-3.5312	-3.2667	-3.2667	-3.4271	-3.2271	-3.4979	-3.3333	-3.2333	-3.5917	-3.3792	-3.4479	-3.4104	-3.1188	-3.5208	180.893	75.438	-63.107	144.885	228.827	104.872	-113.014	204.219	160.445	184.899	121.952	212.035	-113.085	-4.695	-94.578	169.700	0.00031487	0.00041282	8.7517e-05	1252.7	2.494e-06	2.9421e-06	1253.8	343.92	3.0966e-06	4.8709e-06	397.52	133.46	116.17	40.493	2.7701e-06	49.86	0.0002075	0.00016208	4.451e-05	1271.5	1.9444e-06	1.7434e-06	1279.4	353.39	1.9129e-06	1.6874e-06	404.75	137.48	119.44	41.409	1.8022e-06	51.386	186.240	-39.214	-64.548	-109.779	-16.481	14.274	-109.726	-105.135	-3.668	38.521	-105.653	-101.553	-101.001	-96.206	-0.664	-96.847	-8191	255	
1309.148	1	1	0	0	0.14695	0.19	0.15986	0.23114	0.1839	0.1559	0.31158	0.19163	0.19919	0.246	0.31541	0.032476	0.24528	0.20095	0.25971	0.080089	-3.1146	-3.1771	-3.4188	-3.3625	-3.1479	-3.4167	-3.4437	-3.4479	-3.4604	-3.2354	-3.6729	-3.2771	-3.1875	-3.5062	-3.4167	-3.5	181.640	-75.469	191.649	202.559	61.236	100.864	188.342	128.046	-37.204	157.224	199.156	77.185	-117.277	183.580	-12.691	-110.787	0.00030309	0.00059098	0.00010815	1254.8	3.9915e-06	5.626e-06	1259.9	347.53	2.0348e-06	5.2662e-06	397.36	133.95	116.49	40.421	3.8287e-06	50.023	0.00021433	0.00015615	4.3974e-05	1275.5	1.8302e-06	1.7222e-06	1284.4	355.31	1.8472e-06	1.6416e-06	405.83	137.93	119.81	41.53	1.7192e-06	51.544	186.007	-22.331	-60.328	-109.605	15.181	14.808	-109.880	-105.158	-45.574	49.125	-105.487	-101.717	-101.150	-96.262	4.498	-96.843	-8191	255	
1309.245	1	1	0	0	0.17063	0.34149	0.15956	0.22452	0.041842	0.030951	0.31376	0.31352	0.22992	0.11475	0.26397	0.10611	0.30132	0.067247	0.22779	0.19427	-3.1021	-3.2333	-3.3875	-3.3458	-3.0271	-3.3958	-3.3271	-3.45	-3.3604	-3.2146	-3.6229	-3.3333	-3.2125	-3.3604	-3.2875	-3.2938	-68.296	167.620	-27.596	212.469	-84.707	83.679	205.287	156.762	225.065	-51.970	183.602	209.490	-92.779	65.781	-19.274	139.505	0.00032506	0.00042739	0.00014145	1254.9	3.4823e-06	3.1582e-06	1259.3	346.49	2.8534e-06	3.6068e-06	396.36	134.06	116.3	40.296	3.7656e-06	49.931	0.00021232	0.00015522	4.4991e-05	1276.9	1.822e-06	1.6795e-06	1283.4	354.98	1.9363e-06	1.7195e-06	406.07	138.12	119.71	41.467	1.8277e-06	51.458	186.219	-33.331	-43.033	-109.642	7.453	42.113	-109.799	-105.286	-16.276	29.412	-105.526	-101.662	-100.976	-96.313	26.650	-96.772	-8191	255	
1309.365	1	1	0	0	0.032267	0.11273	0.12397	0.2273	0.22843	0.18514	0.24917	0.24832	0.11982	0.092432	0.021018	0.14001	0.14368	0.12631	0.13794	0.21912	-3.1208	-3.3187	-3.5729	-3.5938	-3.1708	-3.4313	-3.4667	-3.3958	-3.4938	-3.0875	-3.4854	-3.4146	-3.2438	-3.6312	-3.3375	-3.4708	113.229	109.283	171.546	191.683	79.819	30.206	187.385	176.321	32.143	188.679	-90.207	-110.431	222.279	211.253	-108.654	-116.126	0.00033383	0.00041073	0.00012365	1254.9	3.9742e-06	4.4925e-06	1258.2	349.15	3.4294e-06	4.1099e-06	399.35	134.38	116.38	40.408	4.2533e-06	50.22	0.00021598	0.00015443	4.4289e-05	1276.5	1.8276e-06	1.6943e-06	1280.7	355.57	1.8738e-06	1.7347e-06	406.4	138.19	119.78	41.446	1.8133e-06	51.583	184.051	-32.667	-41.627	-109.476	4.972	47.373	-109.789	-105.210	-6.938	0.733	-105.569	-101.871	-101.148	-96.375	-10.177	-96.733	-8191	255	
1309.461	1	1	0	0	0.074296	0.099999	0.12182	0.26771	0.076484	0.086874	0.14168	0.21085	0.29309	0.19054	0.20665	0.29985	0.11953	0.14468	0.050975	0.011065	-3.2229	-3.1688	-3.5292	-3.625	-3.2479	-3.6542	-3.375	-3.3167	-3.3896	-3.1271	-3.4521	-3.5396	-3.3396	-3.4833	-3.1688	-3.2146	60.602	232.163	234.640	217.506	25.762	158.543	161.855	200.246	95.483	-9.216	-84.444	236.245	157.743	-98.640	143.208	64.771	0.00031543	0.00035103	0.00011914	1260.5	2.3017e-06	5.2457e-06	1267.7	349.97	2.8191e-06	4.2967e-06	402.25	134.46	117.49	40.645	3.9939e-06	50.179	0.00021173	0.00015868	4.477e-05	1279.7	1.8424e-06	1.7365e-06	1290.3	356.79	1.9905e-06	1.6856e-06	409.32	138.54	120.49	41.671	1.8453e-06	51.673	180.589	-27.930	-22.036	-109.714	12.561	23.323	-110.009	-105.312	-32.999	33.465	-105.751	-101.695	-101.196	-96.310	32.872	-96.574	-8191	255	
1309.557	1	1	0	0	0.085567	0.23314	0.29341	0.24453	0.13027	0.17659	0.47255	0.10477	0.1517	0.089282	0.37982	0.24934	0.091222	0.18558	0.077595	0.13124	-3.0354	-3.0229	-3.1583	-3.4854	-2.9604	-3.4604	-3.2583	-3.2958	-3.4521	-3.0625	-3.2604	-3.3792	-3.0229	-3.4667	-3.2917	-3.3167	42.393	101.971	145.764	193.523	226.613	48.331	196.200	124.368	1.487	228.108	173.027	198.922	201.563	161.118	214.725	147.220	0.00030482	0.00053554	0.00014303	1269.4	1.7361e-06	4.6061e-06	1265.8	350.06	3.1827e-06	2.6209e-06	400.57	133.97	117	40.697	3.982e-06	50.189	0.00021738	0.00016466	4.6787e-05	1288.3	1.9044e-06	1.7865e-06	1292	357.28	1.968e-06	1.7848e-06	408.63	138.22	120.2	41.618	2.0115e-06	51.544	184.736	-31.946	-46.320	-109.741	1.853	41.589	-110.013	-105.281	-15.393	19.613	-105.731	-101.993	-101.044	-96.213	36.666	-96.687	-8191	255	
1309.629	1	1	0	0	0.265	0.15241	0.20205	0.11973	0.013456	0.024954	0.11924	0.50259	0.1041	0.21952	0.17837	0.27885	0.042772	0.12626	0.087063	0.13319	-3.1167	-3.3479	-3.2979	-3.6375	-3.1292	-3.5396	-3.2938	-3.2229	-3.4813	-3.3167	-3.4604	-3.6063	-3.1979	-3.375	-3.4229	-3.2042	52.052	-23.407	-7.292	-94.333	56.225	141.864	139.746	210.442	66.542	94.668	184.409	128.693	149.313	179.972	207.501	117.364	0.0003127	0.00032635	0.00010967	1269.4	1.6146e-06	4.6533e-06	1268.5	347.37	3.5149e-06	3.7652e-06	400.86	134.08	116.24	40.035	4.1331e-06	49.722	0.00022299	0.00017605	4.808e-05	1286.7	2.0205e-06	2.0358e-06	1292.3	355.73	2.22e-06	1.9968e-06	407.95	137.84	119.49	41.206	2.3119e-06	51.173	181.130	-32.615	-50.714	-109.724	25.574	39.187	-109.930	-105.204	-7.433	38.507	-105.450	-101.536	-101.114	-96.168	26.301	-96.617	-8191	255	
1309.750	1	1	0	0	0.16205	0.067493	0.23319	0.43546	0.13114	0.20644	0.14301	0.072494	0.10405	0.20701	0.064992	0.20946	0.057877	0.1751	0.095134	0.24347	-3.2458	-3.3208	-3.2771	-3.625	-3.2062	-3.3771	-3.5438	-3.5521	-3.4917	-3.2562	-3.4437	-3.6521	-3.3021	-3.4708	-3.5729	-3.4729	115.577	53.545	-59.154	178.652	186.853	176.995	194.620	88.864	160.391	-37.461	214.628	198.722	-55.624	210.076	192.306	-114.938	0.00031471	0.00053657	0.00013902	1268.6	2.2057e-06	5.1173e-06	1266.5	347.16	2.2256e-06	3.894e-06	396.64	133.62	116.3	40.059	4.2763e-06	49.526	0.00024498	0.00021171	5.7076e-05	1284.4	2.4046e-06	2.3664e-06	1289.6	355.17	2.5314e-06	2.3835e-06	405.55	137.43	119.35	41.172	2.5594e-06	50.958	185.214	-33.497	-25.821	-109.739	3.565	41.468	-109.926	-105.229	-49.693	60.010	-106.053	-101.704	-101.199	-96.217	37.666	-96.618	-8191	255	
1309.846	1	1	0	0	0.27388	0.17336	0.06885	0.16286	0.19804	0.14185	0.073403	0.33339	0.092218	0.2528	0.011405	0.17179	0.35755	0.1879	0.10154	0.29054	-2.9354	-3.2875	-3.2021	-3.7958	-3.4437	-3.4375	-3.6562	-3.1104	-3.3187	-3.3542	-3.3	-3.5896	-3.3479	-3.4542	-3.3187	-3.1292	-59.473	116.965	120.085	140.746	66.266	-38.893	90.601	188.269	187.306	164.141	194.458	-120.360	232.866	224.580	188.450	153.801	0.00032327	0.00040384	0.00014857	1268.2	2.1145e-06	5.0609e-06	1268.9	347.95	2.1681e-06	4.503e-06	401.14	133.76	115.87	39.953	4.9004e-06	49.506	0.00026925	0.00023618	6.6871e-05	1286.3	2.686e-06	2.6339e-06	1291.2	355.37	2.7439e-06	2.7201e-06	406.87	137.74	119.24	41.102	2.929e-06	51.017	186.146	-30.760	-26.150	-109.806	1.843	28.515	-109.920	-105.239	-33.516	29.149	-105.648	-101.828	-101.186	-95.984	0.229	-96.871	-8191	255	
1309.940	1	1	0	0	0.15994	0.21073	0.14091	0.13168	0.057553	0.133	0.21244	0.36728	0.37451	0.15153	0.162	0.090075	0.17229	0.054664	0.14604	0.39632	-3.2729	-3.4083	-3.1063	-3.6521	-3.3417	-3.4021	-3.7313	-3.3583	-3.4208	-3.4646	-3.0667	-3.6813	-3.3125	-3.275	-3.5208	-3.3	-31.795	14.711	56.188	-113.103	87.577	162.739	180.853	194.004	49.867	180.276	-24.208	195.136	221.341	149.642	-74.658	193.532	0.0003174	0.00048188	8.5076e-05	1273.6	2.5218e-06	4.7858e-06	1278.6	350.61	3.1215e-06	4.5645e-06	402.58	134.66	115.97	40.306	4.4258e-06	49.869	0.00029889	0.00027211	7.541e-05	1292.9	2.9632e-06	2.9769e-06	1300.9	357.51	3.1361e-06	2.9708e-06	408.8	138.3	119.73	41.303	3.0415e-06	51.137	181.772	-53.448	-38.641	-109.715	17.176	35.094	-109.948	-105.231	-41.263	13.033	-105.574	-101.893	-101.180	-96.270	9.590	-97.015	-8191	255	
1310.038	1	1	0	0	0.092945	0.071411	0.09582	0.24037	0.072701	0.2638	0.063977	0.38774	0.062161	0.13579	0.04887	0.068001	0.19127	0.053845	0.26265	0.11042	-3.0542	-3.5354	-3.0083	-3.7	-3.3375	-3.35	-3.7292	-3.55	-3.3563	-3.3917	-3.2354	-3.7375	-3.5125	-3.3146	-3.4313	-3.4396	-42.005	-39.579	141.773	-88.404	97.533	123.149	-91.314	179.635	58.988	205.047	199.544	-62.911	196.080	218.565	10.729	-8.716	0.00031007	0.00058731	0.00010949	1280.7	2.1274e-06	5.3676e-06	1283.5	351.65	3.6031e-06	5.0666e-06	403.72	134.93	117.02	40.211	3.7845e-06	49.802	0.00029982	0.00027988	7.5489e-05	1302.3	3.0257e-06	3.0319e-06	1309.3	359.18	3.0044e-06	2.909e-06	409.91	138.66	120.34	41.375	2.7995e-06	51.315	177.871	-42.391	-37.526	-109.754	58.047	37.497	-109.806	-105.295	-22.577	29.794	-105.850	-101.643	-101.327	-96.046	8.464	-96.752	-8191	255	
1310.157	1	1	0	0	0.045335	0.018172	0.11091	0.19081	0.090912	0.14084	0.13711	0.1749	0.14687	0.20408	0.071676	0.016479	0.12429	0.08801	0.14043	0.064299	-2.9813	-3.525	-3.0667	-3.5312	-3.3563	-3.2917	-3.5104	-3.2458	-3.5896	-3.5062	-3.2021	-3.6	-3.5292	-3.5292	-3.6896	-3.3563	92.263	207.832	216.902	-93.159	54.811	15.714	59.185	-108.223	-71.418	180.159	205.515	58.628	55.724	104.799	-77.967	-54.294	0.00035256	0.00020764	0.00011425	1288	2.6297e-06	4.064e-06	1287.4	352.96	2.7934e-06	4.6444e-06	403.35	135.22	117.27	40.37	4.3458e-06	49.945	0.00028756	0.00026053	6.9314e-05	1307.3	2.9246e-06	2.8224e-06	1312.7	360.41	2.8772e-06	2.8377e-06	410.73	138.9	120.53	41.456	2.6488e-06	51.467	184.744	-3.363	-27.265	-109.742	9.486	47.906	-110.022	-105.457	-35.468	21.522	-105.726	-101.994	-101.446	-96.397	27.299	-96.951	-8191	255	
1310.253	1	1	0	0	0.12754	0.36745	0.10235	0.16953	0.33634	0.12009	0.15804	0.3271	0.11847	0.1615	0.13851	0.1287	0.1651	0.088007	0.091355	0.15123	-3.0375	-3.5458	-3.1688	-3.6063	-3.3292	-3.2	-3.6833	-3.4042	-3.2396	-3.6521	-3.4646	-3.4854	-3.5792	-3.2938	-3.4271	-3.425	-102.333	-120.946	47.367	229.933	86.763	-20.958	207.098	195.977	197.657	-51.794	2.267	157.029	-105.997	-99.905	201.706	173.826	0.00033181	0.00041546	0.00013342	1291.1	3.0682e-06	4.2601e-06	1288.5	352.24	1.9663e-06	4.4461e-06	404.91	135.3	117.52	40.414	2.2161e-06	50.017	0.00028497	0.00024911	6.6493e-05	1308.7	2.7204e-06	2.5424e-06	1313.3	360.18	2.7532e-06	2.5738e-06	411.28	139.02	120.69	41.525	2.5533e-06	51.489	188.641	-42.544	-17.929	-109.754	-10.799	13.751	-109.861	-105.396	-21.049	27.044	-105.643	-101.882	-101.231	-96.174	23.994	-96.743	-8191	255	
1310.325	1	1	0	0	0.23421	0.089895	0.19685	0.35934	0.051927	0.17367	0.068223	0.14426	0.1852	0.15043	0.18154	0.076431	0.20022	0.2403	0.12226	0.1126	-2.9208	-3.6417	-3.2917	-3.7062	-3.5	-3.15	-3.6708	-3.4417	-3.1792	-3.4688	-3.3563	-3.3937	-3.5479	-3.2188	-3.6917	-3.4104	132.254	45.854	54.822	153.775	109.278	42.829	216.336	-121.746	-19.933	29.246	-103.133	33.073	162.099	-120.546	-35.694	186.400	0.0003355	0.00028028	0.00011805	1295	2.688e-06	5.3116e-06	1290.4	354.01	3.6794e-06	3.9455e-06	402.89	135.26	117.56	40.442	3.7276e-06	50.19	0.0002728	0.00022765	6.4838e-05	1310	2.6851e-06	2.424e-06	1314.1	360.53	2.7441e-06	2.405e-06	410.56	138.83	120.46	41.477	2.4888e-06	51.441	187.315	-21.759	-52.593	-109.751	-1.454	17.127	-109.878	-105.347	-19.271	19.574	-105.491	-101.749	-101.174	-96.127	20.168	-96.799	-8191	255	
1310.446	1	1	0	0	0.11999	0.12341	0.074237	0.015388	0.2385	0.11804	0.24107	0.054568	0.17867	0.13744	0.054896	0.12469	0.047103	0.19191	0.087389	0.095227	-2.8521	-3.5438	-3.5292	-3.6188	-3.6958	-3.2604	-3.6958	-3.5771	-3.2042	-3.6292	-3.3438	-3.2938	-3.475	-3.4396	-3.3083	-3.45	-38.934	20.441	179.879	140.548	66.321	-119.979	185.643	166.307	-27.148	227.726	107.477	236.346	149.426	-86.415	-69.300	204.579	0.00030139	0.00049234	0.00016412	1292.2	2.7038e-06	4.5759e-06	1291.3	352.25	3.8348e-06	4.2086e-06	403.22	134.95	116.98	40.597	4.9642e-06	49.972	0.0002647	0.0002209	6.4688e-05	1309.1	2.57e-06	2.4565e-06	1312.8	359.81	2.6362e-06	2.4122e-06	410.9	138.74	120.53	41.526	2.5127e-06	51.468	184.940	-32.782	-53.826	-109.679	0.813	36.483	-109.761	-105.193	-36.850	30.719	-105.728	-101.694	-101.092	-96.084	26.119	-97.125	-8191	255	
1310.542	1	1	0	0	0.25505	0.43255	0.26824	0.22708	0.34706	0.20695	0.19833	0.030393	0.12479	0.12823	0.14742	0.099102	0.078604	0.020971	0.15151	0.043885	-2.6271	-3.3958	-3.1583	-3.2958	-3.4667	-3.2646	-3.5104	-3.4792	-3.3563	-3.6042	-3.3958	-3.2104	-3.5812	-3.5354	-3.3	-3.5875	97.714	-55.066	25.293	189.446	54.957	68.900	156.288	228.071	174.663	-30.215	221.416	165.917	-112.327	-30.464	136.543	216.394	0.0002897	0.00038432	0.00012186	1292.3	4.0336e-06	3.3591e-06	1287.3	352.46	3.1803e-06	2.8025e-06	403.96	135.08	117.05	40.662	3.8665e-06	50.125	0.00026095	0.00022099	6.4641e-05	1307.6	2.5213e-06	2.4234e-06	1309.5	359.62	2.4955e-06	2.342e-06	410.88	138.89	120.39	41.476	2.4635e-06	51.426	189.392	-40.182	-39.162	-109.650	28.090	21.996	-109.710	-105.175	-3.551	26.056	-105.749	-101.730	-101.488	-96.656	-5.152	-96.952	-8191	255	
1310.638	1	1	0	0	0.070985	0.19348	0.10606	0.16548	0.23949	0.1037	0.1689	0.096631	0.18893	0.30527	0.24374	0.085576	0.11769	0.34769	0.031761	0.13402	-2.8063	-3.4146	-3.3104	-3.2938	-3.4313	-3.2167	-3.6021	-3.5563	-3.2833	-3.3187	-3.5375	-3.2292	-3.6208	-3.5229	-3.35	-3.5187	179.413	-11.195	233.114	212.795	221.122	197.364	204.565	175.669	-88.060	-3.243	-99.954	-52.965	130.724	175.519	114.479	162.196	0.00033257	0.00034405	9.8273e-05	1287.4	4.2694e-06	4.8717e-06	1287.6	353.43	2.4844e-06	3.6035e-06	402.77	134.75	117.25	40.554	3.1619e-06	49.894	0.00026007	0.0002171	6.0224e-05	1304.1	2.489e-06	2.2859e-06	1308.2	359.41	2.3528e-06	2.252e-06	409.46	138.51	120.29	41.481	2.3674e-06	51.377	183.427	-8.758	-12.759	-109.735	13.606	32.543	-109.751	-105.209	-36.368	24.666	-105.704	-101.784	-101.333	-96.291	43.131	-96.840	-8191	255	
1310.758	1	1	0	0	0.043119	0.11042	0.11527	0.29712	0.084722	0.19689	0.21323	0.13198	0.20905	0.21363	0.018589	0.11067	0.12601	0.062947	0.027532	0.206	-2.8604	-3.3083	-3.1854	-3.3438	-3.5271	-3.3167	-3.5646	-3.5417	-3.1479	-3.6521	-3.8125	-3.4292	-3.6292	-3.3354	-3.2792	-3.5167	46.070	-36.856	101.972	189.300	63.640	-79.080	174.233	232.472	-68.990	-15.314	-53.940	192.821	204.169	232.603	219.204	146.931	0.00033643	0.00029386	0.00013656	1285.4	2.2927e-06	3.5724e-06	1282.1	351.68	1.9631e-06	3.68e-06	403.54	134.96	117.35	40.491	2.2668e-06	49.985	0.00025396	0.00021204	5.9416e-05	1301.5	2.3768e-06	2.2946e-06	1306	359.35	2.3553e-06	2.2497e-06	410.19	138.45	120.21	41.475	2.4223e-06	51.272	182.776	-56.591	-34.029	-109.899	18.976	17.760	-109.713	-105.380	-51.787	27.412	-105.387	-101.762	-101.140	-96.178	45.733	-96.822	-8191	255	
1310.855	1	1	0	0	0.15028	0.1466	0.06489	0.19002	0.16352	0.13299	0.3592	0.13977	0.029102	0.31175	0.14783	0.22682	0.088002	0.020015	0.12545	0.20801	-2.8604	-3.6708	-3.4396	-3.3312	-3.5187	-3.4375	-3.4562	-3.7313	-3.1333	-3.4729	-3.7542	-3.1688	-3.5333	-3.3375	-3.275	-3.6104	12.299	69.735	124.097	161.372	21.312	17.083	158.749	121.574	-23.776	47.587	214.295	151.131	9.435	156.624	-107.220	58.226	0.00035153	0.00050595	9.8118e-05	1286.5	3.3746e-06	5.8727e-06	1282	352.1	3.6286e-06	3.3076e-06	400.89	134.7	117.4	40.336	4.6086e-06	50.066	0.00025073	0.00020827	6.0614e-05	1299.9	2.3481e-06	2.3216e-06	1305.6	359.17	2.4016e-06	2.2659e-06	408.56	138.31	120.39	41.396	2.4077e-06	51.334	184.807	-48.486	-54.346	-109.580	32.793	41.712	-109.709	-105.193	-3.900	31.546	-105.803	-101.544	-100.942	-96.517	21.409	-96.690	-8191	255	
1310.926	1	1	0	0	0.08886	0.16268	0.22536	0.30096	0.082762	0.20968	0.27734	0.1389	0.22334	0.15934	0.11671	0.19107	0.17883	0.057531	0.16247	0.13534	-2.7646	-3.3833	-3.4583	-3.1271	-3.4729	-3.4229	-3.5187	-3.575	-3.1437	-3.3333	-3.7729	-3.1458	-3.4188	-3.1833	-3.2625	-3.5646	125.601	-46.400	154.516	-120.502	-15.066	187.933	198.004	157.193	35.534	-50.150	159.789	177.214	194.496	68.684	16.024	205.722	0.00030587	0.0003992	0.00012766	1281.6	3.3466e-06	3.3076e-06	1282.6	352	3.3628e-06	2.5758e-06	401.89	134.77	117.15	40.48	3.3662e-06	49.94	0.00024473	0.00020711	6.0153e-05	1299.1	2.3433e-06	2.3176e-06	1304.9	359.02	2.4116e-06	2.2872e-06	409.08	138.2	120.04	41.442	2.3183e-06	51.333	181.877	-23.888	-52.047	-109.646	15.864	39.208	-109.801	-105.242	-6.750	7.467	-105.683	-101.682	-101.417	-96.588	28.767	-96.722	-8191	255	
1311.045	1	1	0	0	0.1505	0.10044	0.15324	0.44674	0.18279	0.1491	0.036256	0.070679	0.086129	0.095463	0.15765	0.108	0.35555	0.19493	0.23646	0.10836	-2.9688	-3.0896	-3.375	-3.3063	-3.5417	-3.3896	-3.2958	-3.7146	-3.4271	-3.2271	-3.4271	-3.1979	-3.2062	-3.6437	-3.3438	-3.6042	118.013	195.479	-14.777	229.324	-79.179	191.862	95.224	106.151	23.716	209.672	193.327	38.298	-99.617	171.694	-26.469	131.678	0.00031796	0.00048085	8.1409e-05	1279.8	4.3587e-06	4.6084e-06	1273.7	351.45	2.7319e-06	4.1595e-06	404.21	134.9	117.51	40.176	3.2987e-06	50.105	0.00025562	0.00021319	5.9211e-05	1298.6	2.4325e-06	2.3181e-06	1301.8	358.81	2.3593e-06	2.2485e-06	409.63	138.4	120.21	41.323	2.2759e-06	51.329	181.419	-31.903	-36.862	-109.853	0.473	-0.980	-109.887	-105.186	-22.159	28.537	-105.531	-101.688	-101.084	-96.378	16.177	-96.998	-8191	255	
1311.141	1	1	0	0	0.11277	0.14708	0.095152	0.38327	0.11419	0.13802	0.23763	0.22576	0.18653	0.078801	0.29573	0.084792	0.33266	0.10299	0.11302	0.24743	-2.7271	-2.9354	-3.3208	-3.3417	-3.4708	-3.2979	-3.0812	-3.6521	-3.3187	-3.2375	-3.4833	-3.2917	-3.2938	-3.4521	-3.2125	-3.4688	158.668	-50.423	45.277	226.221	191.257	164.564	217.229	200.473	74.505	102.175	29.791	189.341	-80.376	185.918	86.122	97.604	0.0003152	0.00038107	0.00013821	1280.7	2.5075e-06	3.7223e-06	1279.5	351.53	2.5019e-06	3.277e-06	400.92	134.88	116.84	40.392	4.0688e-06	49.967	0.00025088	0.00020859	5.7671e-05	1298.8	2.3072e-06	2.2189e-06	1302.8	358.44	2.4228e-06	2.1896e-06	408.83	138.24	120.07	41.368	2.2646e-06	51.26	182.553	-28.164	-55.607	-109.758	14.555	66.349	-109.774	-105.312	-45.022	38.488	-105.601	-101.725	-101.098	-96.253	-1.188	-96.977	-8191	255	
1311.237	1	1	0	0	0.21772	0.093463	0.028362	0.10717	0.23853	0.18387	0.21561	0.04729	0.12025	0.30542	0.15861	0.26533	0.1344	0.23874	0.29552	0.028238	-3.0167	-3.1	-3.4896	-3.3271	-3.2333	-3.6208	-3.4	-3.5917	-3.325	-3.1354	-3.6562	-3.1875	-3.2604	-3.6771	-3.2146	-3.5438	-40.803	191.243	-17.637	-106.902	-91.424	144.509	95.175	143.856	112.972	-35.886	-42.054	215.146	-117.029	-77.536	-43.842	43.115	0.0003232	0.0004827	0.00010859	1280.9	1.5616e-06	4.3783e-06	1280.1	351.22	3.3585e-06	4.3818e-06	401.3	134.66	116.87	40.341	4.9819e-06	49.848	0.00024521	0.00020526	5.5834e-05	1298.3	2.3444e-06	2.1052e-06	1304.9	358.47	2.3388e-06	2.1993e-06	408.93	138.27	120.07	41.366	2.2583e-06	51.323	183.517	-35.625	-58.317	-109.789	39.502	29.076	-109.841	-105.120	-35.792	5.208	-105.748	-101.784	-101.083	-96.482	24.542	-97.030	-8191	255	
1311.334	1	1	0	0	0.063654	0.19478	0.22822	0.11374	0.10875	0.090456	0.25734	0.045136	0.062621	0.040594	0.13317	0.35835	0.11109	0.21202	0.067089	0.16812	-3.1937	-3.2396	-3.2375	-3.1833	-3.1667	-3.5375	-3.4104	-3.5646	-3.3979	-3.0812	-3.6979	-3.4875	-3.3458	-3.7083	-3.2646	-3.4896	-20.446	-85.772	155.156	-96.936	96.047	-58.225	-70.256	185.027	33.336	47.923	-45.168	173.378	218.345	-102.778	-121.987	112.927	0.0003334	0.00052582	0.00012401	1285.6	2.1816e-06	5.6877e-06	1281.7	351.34	2.9601e-06	3.9549e-06	404.92	134.42	117.07	40.249	4.8563e-06	49.867	0.00024724	0.0002015	5.7127e-05	1300.6	2.294e-06	2.1498e-06	1304.3	358.49	2.3294e-06	2.1412e-06	409.57	138.33	120.11	41.342	2.1914e-06	51.294	182.414	-41.016	-30.002	-109.776	17.825	44.877	-109.975	-105.314	0.122	20.601	-105.499	-101.696	-101.278	-96.190	14.556	-96.968	-8191	255	
1311.454	1	1	0	0	0.072767	0.1882	0.074035	0.083851	0.23666	0.055492	0.41974	0.3841	0.10516	0.38063	0.16506	0.24156	0.14245	0.23717	0.015615	0.21305	-3.0271	-2.9875	-3.3792	-3.4833	-3.3771	-3.6146	-3.5292	-3.45	-3.4333	-3.225	-3.4417	-3.2771	-3.2833	-3.7354	-3.3688	-3.4333	38.609	175.287	-46.159	115.484	114.607	77.067	208.568	108.981	169.342	-37.126	60.181	143.781	225.102	177.629	149.465	59.286	0.00034917	0.00037583	0.00012128	1283.8	3.5942e-06	4.7666e-06	1281.2	350.73	1.8927e-06	3.5453e-06	402.59	134.36	116.65	40.462	3.0719e-06	49.951	0.00025586	0.00019923	5.5168e-05	1300.8	2.3189e-06	2.1772e-06	1302.9	358.56	2.283e-06	2.132e-06	409.07	138.35	120.07	41.463	2.2411e-06	51.266	184.338	-30.377	-41.545	-109.779	2.986	27.800	-110.004	-105.224	-18.981	11.502	-105.617	-101.831	-101.334	-96.291	26.358	-96.815	-8191	255	
1311.526	1	1	0	0	0.21541	0.12276	0.035929	0.088953	0.21627	0.21598	0.096284	0.11772	0.14289	0.11295	0.20483	0.11259	0.11569	0.12688	0.11263	0.11015	-3.1833	-3.1188	-3.3979	-3.45	-3.1833	-3.4729	-3.4042	-3.4938	-3.5292	-3.3042	-3.4562	-3.3937	-3.4833	-3.8229	-3.2833	-3.3104	11.828	10.661	-84.987	134.184	8.139	-29.803	-114.197	28.878	-6.424	86.007	-35.071	68.971	105.014	-10.520	209.126	217.316	0.00034279	0.00050717	0.00012203	1282.7	2.4825e-06	4.0994e-06	1283.4	351.14	3.2268e-06	3.6885e-06	401.58	134.44	116.93	40.352	4.2831e-06	49.955	0.0002398	0.00020217	5.4266e-05	1299.3	2.2669e-06	2.1386e-06	1303.5	358.69	2.2557e-06	2.113e-06	408.44	138.22	120	41.348	2.2321e-06	51.278	183.519	-32.566	-33.563	-109.784	-4.242	26.761	-110.058	-105.214	-12.720	30.361	-105.860	-101.902	-101.211	-96.077	16.049	-97.018	-8191	255	
1311.622	1	1	0	0	0.075058	0.076234	0.18376	0.2462	0.17243	0.11858	0.16501	0.099887	0.16191	0.19905	0.14682	0.43435	0.061228	0.39482	0.16336	0.17015	-2.8375	-3.0521	-3.45	-3.7979	-3.3104	-3.3917	-3.3333	-3.3875	-3.5896	-3.3333	-3.3729	-3.4542	-3.2271	-3.5833	-3.4688	-3.2687	101.175	114.351	150.433	227.307	86.295	43.531	219.944	209.603	23.839	215.912	-111.569	220.439	135.119	181.599	145.924	223.963	0.00033612	0.00042962	0.00013102	1281.9	2.2108e-06	4.1787e-06	1276.1	350.72	3.9396e-06	3.6224e-06	401.82	134.08	117.09	40.417	4.1279e-06	49.802	0.00024333	0.00019995	5.5901e-05	1300.7	2.1903e-06	2.0648e-06	1303.5	358.14	2.2282e-06	2.0876e-06	409.24	138.06	120.1	41.355	2.2251e-06	51.259	184.409	-7.243	-41.988	-109.751	-0.061	40.971	-110.028	-105.138	-18.820	27.395	-105.595	-101.776	-101.363	-96.284	9.740	-96.825	-8191	255	
1311.718	1	1	0	0	0.043806	0.14007	0.2853	0.14891	0.073244	0.031698	0.22171	0.18365	0.15574	0.13704	0.16803	0.18921	0.08614	0.022349	0.097432	0.30038	-3.1042	-3.2979	-3.2687	-3.5167	-3.05	-3.5687	-3.5167	-3.5458	-3.4729	-3.2708	-3.2729	-3.6417	-3.3375	-3.3229	-3.3771	-3.3417	-20.165	59.836	-46.749	-115.425	-100.608	43.270	202.699	189.369	77.806	18.447	155.467	-95.896	-25.209	144.332	221.970	-104.343	0.00032318	0.0005283	0.00012726	1277.3	2.011e-06	3.2211e-06	1278.7	351.53	3.2914e-06	4.768e-06	401.02	134.37	116.83	40.326	4.1911e-06	49.973	0.00023951	0.00019448	5.5436e-05	1298.6	2.1984e-06	2.1647e-06	1302.7	358	2.2306e-06	2.1656e-06	408.81	138.28	120.01	41.377	2.2331e-06	51.342	187.392	-53.020	-60.110	-109.660	-3.851	59.881	-109.928	-105.193	-27.541	20.634	-105.543	-101.534	-101.146	-96.046	8.788	-96.897	-8191	255	
1311.837	1	1	0	0	0.13549	0.20107	0.18954	0.03764	0.14978	0.28	0.23608	0.28995	0.19186	0.070945	0.1377	0.089395	0.19763	0.025837	0.15436	0.20781	-3.2542	-3.0896	-3.0042	-3.6521	-3.3771	-3.375	-3.4062	-3.425	-3.4313	-3.3312	-3.3896	-3.6312	-3.4188	-3.3	-3.5833	-3.3979	-33.157	151.704	171.610	-97.995	35.286	18.313	142.703	222.918	208.302	-75.637	-75.934	181.959	109.068	81.884	78.314	173.154	0.00032779	0.00054238	0.00010603	1279.2	4.1059e-06	3.1491e-06	1279	350.12	2.8371e-06	5.1358e-06	400.74	134.74	117.35	40.169	3.5933e-06	49.803	0.00023464	0.00019711	5.284e-05	1299.8	2.2016e-06	2.1638e-06	1302.8	357.9	2.2358e-06	2.1366e-06	409.2	138.44	120.33	41.318	2.2629e-06	51.288	187.236	-46.725	-26.679	-109.716	3.932	46.613	-109.857	-105.107	-15.780	33.057	-105.612	-101.658	-101.423	-96.223	32.768	-96.890	-8191	255	
1311.933	1	1	0	0	0.12262	0.13442	0.16181	0.13059	0.24124	0.24228	0.16805	0.075121	0.17362	0.17683	0.22656	0.26621	0.18811	0.15553	0.14798	0.096003	-2.9188	-3.2	-3.1521	-3.7167	-3.0917	-3.1875	-3.675	-3.1625	-3.2479	-3.2229	-3.4146	-3.4979	-3.3167	-3.5375	-3.4479	-3.1333	12.589	-75.785	-1.118	200.895	234.646	-11.344	182.937	-96.361	228.024	-20.486	168.463	209.980	210.749	55.035	178.133	147.251	0.00033298	0.00039336	0.00013249	1283.6	2.996e-06	5.3112e-06	1279.5	349.98	2.8426e-06	4.2493e-06	403.08	134.47	116.67	40.288	3.9482e-06	49.562	0.00023951	0.00019451	5.6559e-05	1301.3	2.2044e-06	2.0976e-06	1304.8	358.06	2.2033e-06	2.0692e-06	409.31	138.44	120.06	41.374	2.2786e-06	51.238	185.212	-54.919	-31.421	-109.727	29.678	38.117	-109.906	-105.328	-16.840	29.368	-105.465	-101.682	-101.299	-96.413	22.884	-96.879	-8191	255	
1312.029	1	1	0	0	0.086801	0.090698	0.083002	0.051899	0.12183	0.19166	0.27708	0.15242	0.11422	0.22182	0.1772	0.11792	0.16741	0.13686	0.053419	0.057079	-3.1813	-3.2771	-3.2167	-3.7604	-3.2521	-3.15	-3.5875	-3.2646	-3.4104	-3.5167	-3.2333	-3.5	-3.25	-3.4583	-3.7396	-3.2958	43.446	-38.067	30.427	100.725	54.500	111.888	223.470	184.816	108.217	84.578	178.432	157.631	127.178	-70.891	155.017	-68.062	0.00032293	0.00031099	0.00010949	1280.1	4.319e-06	3.7364e-06	1280.1	350.01	1.9791e-06	3.3483e-06	401.82	134.18	116.66	40.287	3.4457e-06	49.902	0.0002371	0.00020418	5.4152e-05	1299	2.3088e-06	2.1475e-06	1302.2	357.57	2.2442e-06	2.1195e-06	408.2	138.04	119.98	41.321	2.139e-06	51.168	184.285	-46.468	-49.959	-109.718	15.879	48.300	-109.754	-105.121	-12.741	51.262	-105.598	-101.994	-101.056	-96.410	14.536	-96.906	-8191	255	
1312.126	1	1	0	0	0.11054	0.10798	0.077173	0.1825	0.16903	0.15388	0.094877	0.14812	0.20229	0.19139	0.35832	0.17134	0.055233	0.15382	0.25632	0.13469	-2.8229	-3.4917	-3.3063	-3.7125	-3.0792	-3.0979	-3.4271	-3.5854	-3.45	-3.4958	-3.2521	-3.3729	-3.3667	-3.3563	-3.4	-3.1937	5.927	91.233	205.646	188.225	152.645	-15.134	155.238	166.947	196.432	39.547	197.000	82.678	85.785	151.680	5.676	203.007	0.00031418	0.00030931	8.6902e-05	1276	3.2259e-06	4.1316e-06	1277.5	350.85	3.0873e-06	5.4725e-06	402.31	134.52	116.37	40.323	3.7662e-06	49.786	0.00023467	0.00019404	5.4345e-05	1295.1	2.1932e-06	2.1138e-06	1299.8	357.76	2.2538e-06	2.0722e-06	408.69	138.18	119.68	41.353	2.1094e-06	51.248	186.441	-24.074	-42.265	-109.657	-1.845	29.607	-109.860	-105.276	-4.944	32.308	-105.510	-101.673	-101.127	-96.264	39.301	-96.646	-8191	255	
1312.222	1	1	0	0	0.045186	0.063699	0.15465	0.21738	0.21407	0.14686	0.23255	0.10846	0.059553	0.12234	0.066749	0.073759	0.13661	0.34515	0.23701	0.26384	-2.7562	-3.6146	-3.1271	-3.5187	-3.3312	-3.2188	-3.5917	-3.4333	-3.3	-3.625	-3.4188	-3.5062	-3.5708	-3.1125	-3.3187	-3.15	43.593	-73.464	-51.785	-76.215	30.347	-112.675	130.548	214.407	-86.104	-12.097	140.331	217.427	-99.771	36.662	-39.111	116.936	0.00028007	0.00036186	0.00010724	1280.2	3.1746e-06	4.5977e-06	1272.6	350.36	2.7617e-06	3.6869e-06	401.58	134.07	116.69	40.424	4.9127e-06	49.509	0.00023311	0.000197	5.2371e-05	1295.6	2.152e-06	2.0899e-06	1297.8	357.51	2.19e-06	1.9489e-06	408.25	138.08	119.89	41.318	2.0806e-06	51.161	184.269	-23.992	-53.141	-109.865	11.718	42.125	-109.852	-105.245	-5.820	46.260	-105.730	-101.995	-101.233	-96.240	7.072	-96.937	-8191	255	
1312.318	1	1	0	0	0.12415	0.088401	0.19447	0.036529	0.18819	0.068844	0.18431	0.14599	0.10296	0.21001	0.1513	0.14144	0.1273	0.10406	0.23839	0.22756	-2.9896	-3.475	-3.1667	-3.3583	-3.2521	-3.2333	-3.7062	-3.3187	-3.3042	-3.2646	-3.0667	-3.4896	-3.5708	-3.3812	-3.5521	-3.4417	-9.493	204.093	18.367	218.580	188.393	88.292	144.267	-33.696	127.716	187.475	-96.903	202.517	170.587	66.966	167.105	223.590	0.00035079	0.00066542	0.00013205	1273.3	2.9555e-06	6.3512e-06	1276.1	350.68	3.0439e-06	5.3416e-06	400.05	134.94	116.14	40.389	3.6412e-06	49.677	0.00023536	0.00019038	5.1725e-05	1292.8	2.1835e-06	2.1083e-06	1300.2	357.84	2.2074e-06	1.9837e-06	408.06	138.2	119.82	41.36	2.0757e-06	51.245	183.780	-37.853	-32.980	-109.753	11.399	30.259	-109.906	-105.288	-36.573	20.519	-105.587	-101.891	-101.129	-96.125	24.234	-96.971	-8191	255	
1312.438	1	1	0	0	0.10408	0.17253	0.23713	0.10698	0.12397	0.35205	0.28265	0.13027	0.087362	0.17041	0.033806	0.49491	0.12687	0.099895	0.1753	0.32392	-2.9625	-3.4437	-3.0812	-3.2542	-3.2458	-3.075	-3.6104	-3.3396	-3.2188	-3.3917	-3.4188	-3.5979	-3.5083	-3.2729	-3.4333	-3.3229	183.566	187.284	204.372	118.116	95.502	95.332	206.903	-105.160	11.914	135.808	-77.717	147.433	12.163	-1.575	200.747	155.581	0.00028781	0.00049022	0.00011455	1280.1	2.8042e-06	5.633e-06	1272.8	349.44	2.5168e-06	3.7231e-06	399.88	134.32	117.32	40.221	2.359e-06	49.946	0.00023051	0.00019439	5.3033e-05	1297	2.1879e-06	1.9858e-06	1300.1	357.7	2.208e-06	1.9676e-06	408.04	138.07	120.07	41.314	2.0333e-06	51.293	178.434	-27.400	-52.252	-109.627	17.267	36.040	-109.831	-105.131	-11.304	23.129	-105.712	-101.829	-100.948	-96.308	13.198	-96.661	-8191	255	
1312.535	1	1	0	0	0.1046	0.10757	0.22097	0.34439	0.1755	0.14873	0.40521	0.16737	0.07433	0.10086	0.12293	0.29431	0.1981	0.059074	0.23625	0.24101	-2.6333	-3.325	-3.1229	-3.3063	-3.4125	-3.1521	-3.4417	-3.375	-3.2083	-3.4583	-3.2667	-3.2229	-3.4896	-3.1833	-3.4292	-3.3125	14.402	154.181	234.926	189.367	26.153	-101.722	140.092	208.744	-82.038	137.950	235.850	168.550	168.649	-11.131	164.233	-101.134	0.00030526	0.00035823	0.00013952	1275.3	3.4935e-06	2.9458e-06	1272.3	349.63	1.8741e-06	4.3889e-06	402.53	134.71	116.84	40.529	4.7229e-06	50.144	0.00023064	0.00018021	4.9999e-05	1295.9	2.101e-06	1.8473e-06	1299.4	357.41	2.0614e-06	1.7965e-06	408.62	138.33	120.16	41.538	1.9064e-06	51.52	181.866	-30.114	-63.717	-109.877	-9.015	26.071	-109.935	-105.156	-27.585	57.552	-105.873	-101.550	-101.264	-96.199	20.357	-96.891	-8191	255	
1312.631	1	1	0	0	0.15164	0.22535	0.092558	0.14018	0.10157	0.20613	0.04815	0.24573	0.063329	0.028607	0.16717	0.051024	0.22705	0.27191	0.16859	0.18743	-2.7521	-3.4375	-3.1708	-3.5312	-3.6271	-3.2167	-3.6396	-3.4813	-3.0625	-3.3042	-3.2521	-3.1854	-3.4583	-3.3646	-3.4917	-3.6562	-30.288	-23.267	77.231	194.324	-13.728	232.965	149.389	135.443	110.905	195.182	81.128	134.798	174.084	176.537	-117.559	-54.678	0.00033367	0.00035847	9.7319e-05	1278.6	2.4826e-06	2.892e-06	1272.9	348.71	3.0025e-06	2.7348e-06	400.43	133.92	116.9	40.459	2.9744e-06	50.04	0.00021939	0.00016852	5.0413e-05	1296.1	1.9487e-06	1.8304e-06	1297.6	356.75	2.0279e-06	1.7693e-06	408.17	138.1	119.82	41.365	1.9256e-06	51.333	182.376	-24.416	-47.605	-109.609	-7.530	42.235	-109.975	-105.172	-3.771	31.895	-105.620	-101.769	-101.179	-96.114	15.813	-96.829	-8191	255	
1312.727	1	1	0	0	0.10731	0.10329	0.040345	0.19834	0.43864	0.04762	0.34789	0.3417	0.040999	0.18364	0.047533	0.1862	0.024103	0.17179	0.029218	0.2091	-2.6854	-3.3812	-3.2771	-3.2708	-3.5167	-3.3042	-3.6063	-3.5292	-3.2729	-3.5708	-3.5021	-3.4	-3.6375	-3.2896	-3.2667	-3.8271	63.395	83.653	206.544	-116.005	34.527	-43.666	208.588	176.052	-37.293	16.743	178.392	55.441	133.144	-115.064	63.590	150.414	0.00031292	0.00045968	9.7304e-05	1273.2	4.3927e-06	4.0744e-06	1273.3	349.29	3.037e-06	3.8695e-06	400.74	134.34	116.87	40.622	3.0796e-06	50.047	0.00021737	0.00016548	4.8375e-05	1291.1	1.9374e-06	1.875e-06	1295.4	356.62	1.9769e-06	1.7874e-06	407.63	138	119.77	41.436	1.9065e-06	51.315	185.235	-42.522	-39.856	-109.742	14.996	42.588	-109.985	-105.169	-0.812	36.906	-105.660	-101.751	-101.153	-96.067	-10.790	-97.244	-8191	255	
1312.823	1	1	0	0	0.11118	0.33447	0.11584	0.22324	0.24267	0.21805	0.15124	0.27061	0.1962	0.023347	0.091788	0.10286	0.19477	0.33583	0.14227	0.057383	-2.6625	-3.2917	-3.3104	-3.1813	-3.2875	-3.2146	-3.2729	-3.4979	-3.25	-3.5208	-3.5062	-3.3396	-3.6958	-3.3688	-3.3063	-3.4854	-121.837	35.329	142.644	173.778	-39.005	137.610	142.836	182.871	-19.320	60.532	-97.429	234.100	187.426	-81.048	54.432	221.153	0.00031927	0.00038201	7.2729e-05	1273.9	3.1994e-06	5.9239e-06	1266.1	349.4	1.904e-06	3.3625e-06	400.36	134.29	116.91	40.472	1.3099e-06	50.095	0.00021084	0.00016506	4.6177e-05	1289.4	1.8613e-06	1.7773e-06	1293.3	356.37	1.986e-06	1.7481e-06	406.9	137.91	119.82	41.375	1.7958e-06	51.365	186.223	-44.322	-67.653	-109.841	-19.096	30.526	-109.678	-105.248	-37.733	28.498	-105.681	-101.826	-100.974	-96.238	36.645	-96.612	-8191	255	
1312.919	1	1	0	0	0.2295	0.24828	0.14698	0.43004	0.18128	0.15618	0.078317	0.2065	0.14473	0.11775	0.30823	0.17195	0.08722	0.21787	0.12062	0.22287	-2.7625	-3.2708	-3.3125	-3.125	-3.4417	-3.1958	-3.475	-3.6729	-3.1292	-3.5771	-3.575	-3.3125	-3.4354	-3.3646	-3.2062	-3.7313	185.075	213.256	-24.870	230.890	-119.627	195.470	187.971	153.642	128.898	57.875	223.105	-5.817	198.295	156.896	-27.471	170.195	0.00029945	0.00047558	9.9737e-05	1270	2.594e-06	3.9799e-06	1262.8	349.17	3.1555e-06	4.0373e-06	400.31	133.81	116.52	40.402	3.7669e-06	50.048	0.00021098	0.00016738	4.8253e-05	1285.8	1.8797e-06	1.7903e-06	1289.1	355.92	1.9296e-06	1.7016e-06	406.69	137.53	119.56	41.407	1.8833e-06	51.214	189.447	-55.956	-38.371	-109.693	5.721	18.198	-109.832	-105.301	-40.788	38.753	-105.654	-101.479	-101.035	-96.208	15.933	-96.865	-8191	255	
1313.014	1	1	0	0	0.24919	0.14773	0.038839	0.080674	0.15659	0.29886	0.15595	0.21354	0.24352	0.29785	0.057446	0.41494	0.19219	0.28607	0.051128	0.28733	-3.0167	-3.4333	-3.3896	-3.4271	-3.4979	-3.1854	-3.3	-3.4625	-3.1854	-3.3479	-3.5896	-3.2083	-3.4458	-3.2375	-3.0667	-3.5125	89.927	-68.307	71.988	-90.871	-33.478	203.735	197.990	204.077	-89.102	35.263	176.443	-57.909	221.854	197.106	131.243	118.329	0.0002956	0.00050673	0.00012317	1270.7	2.6721e-06	4.3568e-06	1264.3	348.37	3.5388e-06	4.4204e-06	399.84	134.36	116.79	40.372	4.4303e-06	49.9	0.00021263	0.00016025	4.7528e-05	1284.8	1.878e-06	1.7504e-06	1288	355.1	1.9451e-06	1.8051e-06	406.27	137.79	119.64	41.346	1.8431e-06	51.24	185.203	-48.274	-41.900	-109.711	18.726	32.267	-109.702	-105.246	4.598	21.506	-105.574	-101.814	-100.957	-96.268	17.725	-96.777	-8191	255	
1313.134	1	1	0	0	0.22364	0.12309	0.18428	0.10364	0.24076	0.077696	0.29823	0.1899	0.066777	0.24868	0.12306	0.10569	0.18767	0.11425	0.13502	0.19761	-2.8667	-3.3688	-3.7104	-3.4313	-3.3417	-3.3333	-3.1896	-3.4354	-3.1542	-3.3167	-3.7104	-3.3625	-3.6312	-3.4229	-2.9958	-3.4	-33.625	31.789	2.742	139.690	-56.108	93.757	188.907	164.984	156.071	103.820	226.008	-54.095	204.750	-101.918	118.834	154.203	0.0003042	0.00036726	0.00012597	1270.1	3.8067e-06	4.5588e-06	1267.6	348.99	3.8455e-06	4.6189e-06	397.9	134.22	116.43	40.275	3.9402e-06	49.774	0.00021585	0.00015937	4.5739e-05	1286.3	1.8998e-06	1.8068e-06	1290.3	355.32	1.9312e-06	1.7384e-06	406.53	137.74	119.65	41.373	1.8872e-06	51.242	188.562	-29.190	-50.892	-109.834	38.647	21.174	-109.930	-105.276	-31.254	21.287	-105.477	-101.548	-101.102	-96.368	2.419	-96.961	-8191	255	
1313.230	1	1	0	0	0.061149	0.028911	0.18198	0.18336	0.095039	0.058152	0.3189	0.072129	0.034458	0.12635	0.13489	0.1076	0.12507	0.24668	0.078116	0.10159	-2.8833	-3.1583	-3.4917	-3.2104	-3.3458	-3.3958	-3.1708	-3.6146	-3.5646	-3.4229	-3.7396	-3.3083	-3.3854	-3.375	-3.0729	-3.5062	-86.342	-32.161	173.760	231.458	192.236	-106.110	160.581	141.965	106.746	185.080	-83.466	-105.289	143.328	215.526	103.903	201.577	0.00030292	0.00067189	0.00011006	1267.3	3.1715e-06	3.6758e-06	1265	348.43	2.4291e-06	3.2139e-06	397.7	134.52	116.68	40.548	3.2282e-06	49.952	0.00021826	0.00016833	4.5085e-05	1285.2	1.8939e-06	1.7619e-06	1289.3	355.63	1.9575e-06	1.7272e-06	406.35	138.05	119.76	41.446	1.8952e-06	51.296	186.357	-28.884	-53.576	-109.581	22.712	40.684	-109.827	-105.176	-28.924	17.531	-105.597	-101.681	-100.922	-96.274	30.226	-96.774	-8191	255	
1313.327	1	1	0	0	0.12854	0.25182	0.12638	0.2674	0.15013	0.059508	0.24813	0.21357	0.09278	0.13559	0.32538	0.28002	0.26853	0.25677	0.15781	0.23231	-3.0208	-3.2396	-3.65	-3.2833	-3.125	-3.3354	-3.25	-3.5812	-3.3354	-3.3021	-3.5896	-3.2375	-3.2271	-3.525	-3.1208	-3.4958	-53.481	46.762	213.523	184.455	-97.957	119.105	100.262	170.412	21.375	5.480	204.348	164.662	60.701	-81.696	-94.394	107.855	0.00033112	0.00039534	0.00013501	1267	3.3559e-06	6.0279e-06	1266.4	348.74	2.5321e-06	4.9617e-06	398.71	133.85	116.79	40.489	4.6358e-06	50.038	0.00021628	0.0001615	4.3229e-05	1284.5	1.9169e-06	1.7627e-06	1289.8	355.96	1.8813e-06	1.703e-06	406.62	137.66	119.92	41.392	1.8696e-06	51.322	180.774	-61.566	-50.273	-109.606	2.359	54.393	-109.821	-105.440	-16.333	34.082	-105.651	-101.914	-101.037	-96.200	1.913	-96.744	-8191	255	
1313.423	1	1	0	0	0.17448	0.36595	0.1286	0.13066	0.082165	0.16995	0.22163	0.22134	0.11462	0.14166	0.15404	0.082822	0.23405	0.12946	0.11341	0.22971	-2.775	-3.0042	-3.5062	-3.3688	-3.3125	-3.5354	-3.3875	-3.5938	-3.5646	-3.2458	-3.4375	-3.2833	-3.3458	-3.6917	-3.3625	-3.675	115.169	87.962	130.024	-113.198	172.708	-81.436	109.002	152.392	-19.503	102.745	35.525	-109.411	-87.072	-54.455	-105.597	155.501	0.00031736	0.00048456	0.00011398	1269.5	2.3565e-06	4.3858e-06	1268.4	348.76	2.716e-06	3.8595e-06	399.31	134.29	116.64	40.366	3.1733e-06	49.996	0.00021691	0.00016717	4.4616e-05	1285.2	1.8589e-06	1.6822e-06	1291.8	356.03	1.9431e-06	1.7304e-06	406.84	138.05	119.72	41.412	1.8784e-06	51.339	183.000	-17.736	-48.148	-109.737	-13.583	38.245	-109.848	-105.326	-22.846	18.006	-105.722	-101.850	-101.349	-96.292	22.417	-96.896	-8191	255	
1313.519	1	1	0	0	0.13013	0.2829	0.062631	0.081991	0.12409	0.23774	0.14067	0.32351	0.32135	0.048345	0.27355	0.064161	0.091483	0.21582	0.1695	0.17303	-3.0042	-3.0417	-3.3521	-3.3521	-3.2375	-3.7229	-3.4313	-3.2833	-3.4271	-3.375	-3.5938	-3.1896	-3.0833	-3.525	-3.475	-3.2812	-86.898	188.798	-73.575	-37.760	235.378	224.262	175.307	204.606	111.888	-8.564	220.752	32.095	196.487	-90.451	-12.712	-118.164	0.0003099	0.00049288	5.1253e-05	1265.9	4.4619e-06	4.5359e-06	1265.1	348.07	2.413e-06	4.1103e-06	400.28	134.39	117.12	40.484	2.7432e-06	50.005	0.00021465	0.00016491	4.5487e-05	1285.1	1.916e-06	1.6711e-06	1290.3	355.59	1.9439e-06	1.7562e-06	407.05	138.05	120	41.444	1.863e-06	51.357	183.757	-49.991	-40.847	-109.592	21.584	34.107	-109.882	-105.296	-24.761	32.163	-105.747	-101.459	-101.339	-96.168	12.237	-96.867	-8191	255	
1313.615	1	1	0	0	0.1908	0.27908	0.099625	0.17029	0.22888	0.1699	0.16653	0.1546	0.1594	0.10775	0.18767	0.13035	0.13792	0.081226	0.10585	0.2852	-2.8792	-3.0729	-3.4167	-3.3104	-3.1729	-3.3792	-3.5646	-3.2625	-3.4479	-3.1458	-3.425	-3.5875	-3.3542	-3.4313	-3.2917	-3.3146	-82.667	90.106	-78.777	194.385	136.537	-45.740	167.015	-114.480	14.654	26.780	151.201	153.024	236.041	2.237	134.887	166.672	0.00034059	0.0005381	8.956e-05	1261.5	3.2659e-06	2.9298e-06	1264.9	349.37	2.8237e-06	4.0403e-06	401.6	134.24	116.53	40.389	3.6377e-06	50.128	0.00021484	0.0001617	4.5637e-05	1284.4	1.9217e-06	1.6787e-06	1290.7	356.42	1.898e-06	1.7845e-06	407.56	137.96	119.8	41.425	1.9541e-06	51.373	185.398	-39.441	-53.529	-109.790	0.926	14.618	-109.830	-105.138	-12.612	2.131	-105.771	-101.780	-101.150	-96.216	14.077	-96.921	-8191	255	
1313.711	1	1	0	0	0.14926	0.059721	0.11051	0.098014	0.1911	0.080503	0.19391	0.32661	0.25266	0.14882	0.2579	0.15305	0.19399	0.25639	0.2873	0.13226	-3.0312	-3.2479	-3.4688	-3.725	-3.3187	-3.4833	-3.3604	-3.3312	-3.3583	-3.1125	-3.4146	-3.5896	-3.325	-3.3625	-3.1833	-3.3854	178.792	219.928	-32.871	202.432	158.176	-118.116	154.405	210.472	110.223	115.941	122.202	146.912	159.867	-121.177	116.858	127.988	0.00031907	0.00038186	0.00014129	1268.6	4.0337e-06	5.1407e-06	1264	347.68	2.3204e-06	4.6636e-06	398.97	134.62	116.47	40.387	3.6362e-06	49.698	0.00021141	0.00016304	4.5814e-05	1286.1	1.9261e-06	1.7664e-06	1290.9	355.56	1.9134e-06	1.8217e-06	406.82	138.28	119.69	41.426	1.923e-06	51.272	183.754	-46.700	-36.264	-109.832	17.173	40.739	-109.863	-105.024	-15.293	16.172	-105.491	-101.854	-101.147	-96.341	24.850	-96.591	-8191	255	
1313.807	1	1	0	0	0.30144	0.27222	0.23647	0.3219	0.091497	0.02376	0.11054	0.35912	0.15772	0.10966	0.1134	0.36461	0.067968	0.10212	0.14136	0.084936	-3.1458	-3.3063	-3.3312	-3.4833	-3.1375	-3.5792	-3.5812	-3.45	-3.4333	-3.1042	-3.2229	-3.5604	-3.2896	-3.6021	-3.4479	-3.2771	40.128	-15.120	-80.034	200.038	-38.113	82.704	155.206	-95.405	37.786	-113.831	-99.745	204.163	226.830	203.888	119.204	-22.327	0.00030759	0.00032323	0.00013486	1266.2	2.3082e-06	5.6494e-06	1266	348.24	2.2448e-06	4.3217e-06	397.9	134.16	116.64	40.321	3.3985e-06	49.868	0.00020835	0.00015604	4.7158e-05	1287.2	1.8821e-06	1.7302e-06	1291.6	355.51	1.906e-06	1.7707e-06	406.85	137.91	119.75	41.352	1.9296e-06	51.357	180.139	-27.022	-47.798	-109.617	17.644	25.570	-109.898	-105.433	-10.122	28.807	-105.686	-101.785	-101.283	-96.168	18.052	-96.788	-8191	255	
1313.926	1	1	0	0	0.16783	0.22338	0.11582	0.26793	0.12976	0.24323	0.26172	0.2264	0.19791	0.25265	0.27152	0.10583	0.25689	0.098267	0.23165	0.11977	-3.0271	-3.4792	-3.3625	-3.5958	-3.2354	-3.2083	-3.4667	-3.4292	-3.5521	-3.225	-3.3	-3.5479	-3.2104	-3.625	-3.5583	-3.2604	-41.839	141.281	179.237	168.408	118.697	205.594	156.234	219.756	139.141	87.452	108.710	167.512	-89.733	153.220	168.158	121.403	0.00034852	0.00043769	0.00013135	1266.5	1.5761e-06	4.8621e-06	1267.2	348.19	1.5768e-06	3.2068e-06	398.28	133.63	116.86	40.449	3.0185e-06	50.065	0.0002107	0.00016546	4.5991e-05	1285.6	1.8772e-06	1.7558e-06	1291.6	355.82	1.8472e-06	1.723e-06	406.91	137.83	119.8	41.358	1.8666e-06	51.343	186.443	-48.196	-47.268	-109.688	-1.258	27.997	-109.903	-105.530	-43.915	38.767	-105.688	-101.612	-101.130	-96.513	20.394	-96.995	-8191	255	
1314.022	1	1	0	0	0.35955	0.1052	0.14944	0.092729	0.14516	0.17239	0.14989	0.1969	0.16135	0.16474	0.025956	0.18527	0.083792	0.054676	0.09805	0.3822	-3.0625	-3.0542	-3.0896	-3.4042	-3.3271	-3.3563	-3.7521	-3.2542	-3.3042	-3.2812	-3.3021	-3.6	-3.4854	-3.4813	-3.375	-3.1958	36.012	189.307	186.267	176.772	-119.229	204.769	86.249	214.362	44.100	219.220	-122.597	116.499	-116.530	-103.804	63.340	55.242	0.00031049	0.00056716	0.00012691	1265.9	2.5024e-06	3.3597e-06	1265	347.98	2.2643e-06	2.5505e-06	400.35	133.68	116.34	40.467	3.1123e-06	49.766	0.00021202	0.00016363	4.715e-05	1285.7	1.9211e-06	1.7328e-06	1290.8	355.43	1.8485e-06	1.7553e-06	408.18	137.91	119.77	41.399	1.8081e-06	51.292	183.526	-39.758	-47.491	-109.746	19.072	30.582	-109.749	-105.225	18.174	10.007	-105.789	-101.823	-101.185	-96.168	3.864	-96.485	-8191	255	
#DATA ENDS
