BOXY.EXE: ISS Imagent and Oximeter Data Acquisition Program Version 0.80
Ascii Record File

#ACQ INFORMATION
2  Detector Channels 
16  External MUX Channels 
1  Auxiliary Channels 
5000  Waveform (CCF) Frequency (Hz)
1  Waveforms Skipped 
30  Waveforms Averaged 
1  Cycles Averaged 
16  Acquisitions per Waveform 
10.0806  Updata Rate (Hz) 

#FILE INFORMATION
TRUE -- External MUX Channel results are PARSED.
FALSE -- AC DC and Phase are NOT grouped.
TRUE -- Companion Program Settings File CREATED.
FALSE -- AC data not excluded
FALSE -- DC data not excluded
FALSE -- Phase data not excluded
FALSE -- Auxillary Chn. data not excluded
Tab delimiters

#CALIBRATION STATE
TRUE -- Waveform Calibration Values APPLIED.


#AUX CALIBRATION VALUES
Val Type	aux-1	

Term	1.0000e+00	
Factor	0.0000e+00	


#WF CALIBRATION VALUES
A = Detector Channel
Val Type	A-AC1	A-AC2	A-AC3	A-AC4	A-AC5	A-AC6	A-AC7	A-AC8	A-AC9	A-AC10	A-AC11	A-AC12	A-AC13	A-AC14	A-AC15	A-AC16	A-DC1	A-DC2	A-DC3	A-DC4	A-DC5	A-DC6	A-DC7	A-DC8	A-DC9	A-DC10	A-DC11	A-DC12	A-DC13	A-DC14	A-DC15	A-DC16	A-Ph1	A-Ph2	A-Ph3	A-Ph4	A-Ph5	A-Ph6	A-Ph7	A-Ph8	A-Ph9	A-Ph10	A-Ph11	A-Ph12	A-Ph13	A-Ph14	A-Ph15	A-Ph16	

Term	0.00000e+00	0.00000e+00	0.00000e+00	0.00000e+00	0.00000e+00	0.00000e+00	0.00000e+00	0.00000e+00	0.00000e+00	0.00000e+00	0.00000e+00	0.00000e+00	0.00000e+00	0.00000e+00	0.00000e+00	0.00000e+00	0.00000e+00	0.00000e+00	0.00000e+00	0.00000e+00	0.00000e+00	0.00000e+00	0.00000e+00	0.00000e+00	0.00000e+00	0.00000e+00	0.00000e+00	0.00000e+00	0.00000e+00	0.00000e+00	0.00000e+00	0.00000e+00	0.00000e+00	0.00000e+00	0.00000e+00	0.00000e+00	0.00000e+00	0.00000e+00	0.00000e+00	0.00000e+00	0.00000e+00	0.00000e+00	0.00000e+00	0.00000e+00	0.00000e+00	0.00000e+00	0.00000e+00	0.00000e+00	
Factor	1.00000e+00	1.00000e+00	1.00000e+00	1.00000e+00	1.00000e+00	1.00000e+00	1.00000e+00	1.00000e+00	1.00000e+00	1.00000e+00	1.00000e+00	1.00000e+00	1.00000e+00	1.00000e+00	1.00000e+00	1.00000e+00	1.00000e+00	1.00000e+00	1.00000e+00	1.00000e+00	1.00000e+00	1.00000e+00	1.00000e+00	1.00000e+00	1.00000e+00	1.00000e+00	1.00000e+00	1.00000e+00	1.00000e+00	1.00000e+00	1.00000e+00	1.00000e+00	X	X	X	X	X	X	X	X	X	X	X	X	X	X	X	X	

B = Detector Channel
Val Type	B-AC1	B-AC2	B-AC3	B-AC4	B-AC5	B-AC6	B-AC7	B-AC8	B-AC9	B-AC10	B-AC11	B-AC12	B-AC13	B-AC14	B-AC15	B-AC16	B-DC1	B-DC2	B-DC3	B-DC4	B-DC5	B-DC6	B-DC7	B-DC8	B-DC9	B-DC10	B-DC11	B-DC12	B-DC13	B-DC14	B-DC15	B-DC16	B-Ph1	B-Ph2	B-Ph3	B-Ph4	B-Ph5	B-Ph6	B-Ph7	B-Ph8	B-Ph9	B-Ph10	B-Ph11	B-Ph12	B-Ph13	B-Ph14	B-Ph15	B-Ph16	

Term	0.00000e+00	0.00000e+00	0.00000e+00	0.00000e+00	0.00000e+00	0.00000e+00	0.00000e+00	0.00000e+00	0.00000e+00	0.00000e+00	0.00000e+00	0.00000e+00	0.00000e+00	0.00000e+00	0.00000e+00	0.00000e+00	0.00000e+00	0.00000e+00	0.00000e+00	0.00000e+00	0.00000e+00	0.00000e+00	0.00000e+00	0.00000e+00	0.00000e+00	0.00000e+00	0.00000e+00	0.00000e+00	0.00000e+00	0.00000e+00	0.00000e+00	0.00000e+00	-5.53345e+01	-1.27015e+02	-1.27340e+02	-1.81716e+02	-4.47746e+01	-6.81240e+01	-1.57128e+02	-1.62015e+02	-4.21788e+01	-6.97516e+01	-1.72142e+02	-1.70362e+02	-1.80059e+02	-1.77178e+02	-5.13089e+01	-1.50265e+02	
Factor	1.80857e-05	1.60277e-04	4.48908e-05	1.58796e-01	1.75125e-06	1.97752e-06	1.70809e-01	6.08193e-02	1.37557e-06	1.84322e-06	8.34618e-02	2.77414e-02	2.97006e-02	8.95166e-03	1.69608e-06	1.25925e-02	1.30705e-05	2.57931e-05	7.13724e-06	8.02894e-02	2.50439e-07	2.91465e-07	8.12663e-02	3.08636e-02	2.52611e-07	2.90207e-07	4.12275e-02	1.37531e-02	1.53383e-02	4.59568e-03	2.66348e-07	6.24348e-03	X	X	X	X	X	X	X	X	X	X	X	X	X	X	X	X	



#DISTANCE SETTINGS
A = Detector Channel
A-1	A-2	A-3	A-4	A-5	A-6	A-7	A-8	A-9	A-10	A-11	A-12	A-13	A-14	A-15	A-16	

2.5000e+00	3.0000e+00	2.5000e+00	3.0000e+00	2.0000e+00	3.0000e+00	1.5000e+00	3.0000e+00	3.0000e+00	3.0000e+00	3.0000e+00	3.0000e+00	3.0000e+00	3.0000e+00	1.5000e+00	3.0000e+00	

B = Detector Channel
B-1	B-2	B-3	B-4	B-5	B-6	B-7	B-8	B-9	B-10	B-11	B-12	B-13	B-14	B-15	B-16	

1.0000e+01	1.0000e+01	1.0000e+01	1.4400e+00	1.0000e+01	1.0000e+01	1.5100e+00	1.9400e+00	1.0000e+01	1.0000e+01	1.9900e+00	2.4900e+00	2.4100e+00	2.9000e+00	1.0000e+01	2.9800e+00	




#DATA BEGINS
time	group	step	mark	flag	A-AC1	A-AC2	A-AC3	A-AC4	A-AC5	A-AC6	A-AC7	A-AC8	A-AC9	A-AC10	A-AC11	A-AC12	A-AC13	A-AC14	A-AC15	A-AC16	A-DC1	A-DC2	A-DC3	A-DC4	A-DC5	A-DC6	A-DC7	A-DC8	A-DC9	A-DC10	A-DC11	A-DC12	A-DC13	A-DC14	A-DC15	A-DC16	A-Ph1	A-Ph2	A-Ph3	A-Ph4	A-Ph5	A-Ph6	A-Ph7	A-Ph8	A-Ph9	A-Ph10	A-Ph11	A-Ph12	A-Ph13	A-Ph14	A-Ph15	A-Ph16	B-AC1	B-AC2	B-AC3	B-AC4	B-AC5	B-AC6	B-AC7	B-AC8	B-AC9	B-AC10	B-AC11	B-AC12	B-AC13	B-AC14	B-AC15	B-AC16	B-DC1	B-DC2	B-DC3	B-DC4	B-DC5	B-DC6	B-DC7	B-DC8	B-DC9	B-DC10	B-DC11	B-DC12	B-DC13	B-DC14	B-DC15	B-DC16	B-Ph1	B-Ph2	B-Ph3	B-Ph4	B-Ph5	B-Ph6	B-Ph7	B-Ph8	B-Ph9	B-Ph10	B-Ph11	B-Ph12	B-Ph13	B-Ph14	B-Ph15	B-Ph16	aux-1	digaux	

813.663	1	1	0	256	0.04303	0.12438	0.16701	0.19911	0.074125	0.24611	0.13918	0.1371	0.18768	0.024084	0.18981	0.18753	0.013485	0.13913	0.10211	0.1713	-2.1583	-2.8771	-2.6063	-2.9229	-2.8104	-2.6875	-3.2042	-2.8812	-2.4979	-2.9271	-2.8104	-2.675	-3.0438	-2.6312	-2.9604	-2.7271	182.661	33.266	155.995	168.018	-36.965	147.088	168.603	70.091	-9.546	70.031	-109.243	152.260	45.397	195.945	181.304	-136.930	0.00018693	0.00033305	5.4897e-05	1257.8	1.4719e-06	4.9611e-06	1312.6	269.87	3.5251e-06	3.9939e-06	331.24	91.817	72.617	21.027	2.7428e-06	29.699	0.00039476	0.00053322	0.00014703	1235.7	5.7945e-06	6.2046e-06	1295.5	267.12	5.7022e-06	5.9752e-06	329.33	92.777	73.029	21.285	5.6172e-06	30.013	-79.593	-39.020	-77.615	-127.837	-0.315	25.177	-128.003	-121.423	-9.187	42.202	-121.333	-115.004	-114.336	-107.475	5.758	-108.117	-8191	255	
813.760	1	1	0	0	0.24517	0.10107	0.07889	0.29078	0.15324	0.051988	0.035004	0.17329	0.15513	0.26152	0.15443	0.16511	0.11277	0.15691	0.3093	0.19337	-2.0625	-3.0729	-2.7938	-2.7375	-3.05	-2.7375	-2.9062	-3.1396	-2.725	-2.8563	-2.9896	-2.8167	-3.0812	-2.4604	-2.7271	-3.1542	125.404	37.805	-28.859	-130.575	199.970	193.658	-11.431	-121.979	74.885	125.046	165.028	-66.438	-81.346	80.548	126.724	155.678	0.00020823	0.00054662	9.4129e-05	1255.9	3.5872e-06	5.2877e-06	1309.5	268.41	1.8265e-06	3.5193e-06	331.43	91.715	72.773	21.105	3.12e-06	29.673	0.00039963	0.00052457	0.0001547	1234.6	5.6933e-06	5.9052e-06	1294.5	266.5	5.8606e-06	6.1748e-06	329.03	92.533	72.901	21.36	5.8242e-06	29.973	-78.870	-42.329	-31.813	-128.098	18.390	-6.593	-127.754	-121.115	-2.555	28.341	-121.298	-114.676	-114.527	-107.631	1.103	-107.844	-8191	255	
813.856	1	1	0	0	0.029641	0.097892	0.23826	0.44149	0.20154	0.18401	0.121	0.067826	0.23967	0.23328	0.060833	0.16726	0.31589	0.037799	0.084754	0.035377	-2.0333	-3.1	-2.7562	-3.0083	-3.0583	-2.6167	-2.9167	-3.1354	-2.65	-2.8729	-2.9375	-2.6521	-3.0438	-2.8042	-2.9333	-3.0583	143.825	-18.250	192.489	175.108	220.062	74.596	-131.477	-74.525	-134.135	91.395	-104.476	203.766	213.820	-118.130	75.362	-115.463	0.00017783	0.00030782	0.00011014	1250.4	2.3379e-06	1.9618e-06	1310.4	266.18	3.1606e-06	3.1109e-06	329.5	91.265	72.617	20.962	3.6374e-06	29.363	0.00040363	0.00053682	0.0001484	1231.1	5.4935e-06	5.8694e-06	1291.4	265.06	5.7427e-06	5.8017e-06	327.83	92.141	72.769	21.194	5.6388e-06	29.826	-79.688	-54.709	-51.110	-127.915	19.697	37.271	-127.727	-121.214	-20.382	2.481	-121.340	-114.508	-114.390	-106.989	-15.130	-107.830	-8191	255	
813.952	1	1	0	0	0.20265	0.10729	0.13893	0.22722	0.17176	0.23369	0.40258	0.018297	0.25664	0.1586	0.2655	0.11524	0.12938	0.29512	0.28021	0.092402	-2.325	-2.8937	-2.8812	-2.7458	-3.0333	-2.9729	-2.85	-3.0583	-2.6625	-2.7812	-2.9167	-2.5542	-3.0042	-2.7271	-2.8438	-3.0542	104.382	-44.561	187.683	-118.156	41.091	62.539	179.157	148.703	-114.602	105.344	210.615	62.677	119.599	-122.932	167.925	111.095	0.00019108	0.0001663	0.00012523	1245.3	3.1955e-06	1.8439e-06	1304.7	265.39	3.5227e-06	2.829e-06	327.34	91.179	71.911	20.766	1.7853e-06	29.357	0.00038749	0.00053639	0.00014606	1225.1	5.542e-06	5.788e-06	1285.6	263.15	5.679e-06	5.9003e-06	325.7	91.985	72.281	21.123	5.5778e-06	29.695	-80.584	-43.536	-31.181	-127.800	-45.960	-17.616	-127.826	-121.066	18.389	45.725	-121.599	-114.696	-114.214	-107.840	6.661	-107.996	-8191	255	
814.046	1	1	0	0	0.214	0.36861	0.11745	0.32144	0.051516	0.050245	0.11196	0.41058	0.058925	0.39959	0.099144	0.12293	0.24856	0.20512	0.077882	0.25903	-2.2979	-2.9479	-2.6875	-2.8	-3	-2.6333	-2.7583	-3.1521	-2.5958	-2.8479	-3	-2.6146	-3.0521	-2.6979	-2.8375	-3.2479	-64.276	151.299	-108.619	217.673	183.581	157.284	-85.179	118.012	-59.223	-74.091	10.062	219.756	171.826	169.241	-84.356	-123.961	0.00019215	0.00029748	0.00010542	1247.3	3.031e-06	1.589e-06	1306.5	264.15	1.9576e-06	3.0566e-06	324.56	91.135	71.939	20.702	2.765e-06	29.352	0.00040211	0.00055364	0.0001529	1225.6	5.973e-06	6.0704e-06	1287.4	262.16	5.9032e-06	6.0333e-06	324.04	91.671	72.118	21.05	5.9368e-06	29.686	-79.977	-51.261	-41.176	-128.064	12.012	29.381	-127.916	-121.531	-15.331	24.885	-121.138	-114.587	-114.236	-107.255	-2.720	-107.682	-8191	255	
814.142	1	1	0	0	0.028375	0.29295	0.082331	0.43088	0.10299	0.11891	0.49399	0.14017	0.10945	0.18133	0.10176	0.2147	0.083256	0.22548	0.16876	0.10839	-2.3438	-2.7062	-2.9104	-2.8833	-3.0917	-2.7729	-2.8896	-2.8833	-2.6667	-2.8167	-3.1	-2.7583	-2.6521	-2.8021	-2.7062	-2.9833	139.410	211.267	28.733	187.984	1.023	146.664	182.317	94.394	2.471	44.609	-117.393	105.381	49.651	-97.564	30.122	202.170	0.00020666	0.00035874	7.9483e-05	1246.5	2.9598e-06	2.8721e-06	1306.3	264.36	1.196e-06	3.9422e-06	324.07	90.72	71.315	20.866	3.5725e-06	29.158	0.00042106	0.00054746	0.00014572	1227.1	6.0418e-06	6.3345e-06	1287.4	261.95	6.0095e-06	6.1554e-06	323.71	91.32	72.002	21.066	5.9928e-06	29.537	-90.850	-57.051	-38.760	-127.947	26.130	69.746	-127.872	-120.953	20.058	-0.003	-121.121	-114.467	-114.366	-107.800	11.877	-108.048	-8191	255	
814.263	1	1	0	0	0.16033	0.16881	0.19096	0.14185	0.075341	0.1383	0.27015	0.17449	0.13532	0.17625	0.18598	0.22138	0.048495	0.16731	0.16954	0.10856	-2.2979	-2.7938	-3.0104	-2.9437	-3.2583	-2.875	-2.8063	-3.0667	-2.7729	-2.7417	-3.3042	-2.7354	-2.6771	-3.0167	-2.6813	-2.9479	-74.405	177.811	88.878	167.092	-107.167	217.946	193.095	-52.847	220.219	128.361	201.636	206.431	32.391	-35.278	60.251	-51.379	0.00018529	0.00028141	8.5741e-05	1251.2	9.7058e-07	4.4438e-06	1298.9	262.37	2.819e-06	5.6164e-07	323.97	90.513	71.33	20.804	3.6719e-06	29.348	0.00041978	0.00055874	0.00015986	1228.4	6.1556e-06	6.2616e-06	1284	261.22	5.8821e-06	6.3356e-06	322.74	91.281	72.08	21.034	6.2364e-06	29.666	-84.934	-50.151	-81.484	-128.023	-16.708	18.168	-127.824	-121.141	-20.186	-11.916	-121.354	-114.788	-114.189	-107.340	35.703	-108.134	-8191	255	
814.359	1	1	0	0	0.11765	0.12078	0.086107	0.18566	0.17619	0.10941	0.15718	0.1315	0.22166	0.087032	0.12127	0.33869	0.0091263	0.12758	0.28386	0.44716	-2.5854	-2.9833	-3.0771	-2.6813	-2.8375	-3.1479	-2.9104	-3.0625	-2.7792	-2.6521	-3.3771	-2.8208	-2.9562	-3.0062	-2.5208	-2.9813	41.394	206.967	-40.578	167.727	162.676	90.105	-137.489	203.778	29.349	82.452	8.651	161.870	-66.823	218.240	121.135	206.474	0.00021383	0.00041662	0.00011376	1247.1	2.7992e-06	3.1183e-06	1305.6	263.44	2.0998e-06	2.0961e-06	325.74	90.555	71.126	20.873	1.2047e-06	29.231	0.00041627	0.0005797	0.00015222	1228.5	6.2824e-06	6.1942e-06	1287.4	261.3	6.0253e-06	6.2739e-06	323.48	91.338	71.71	21.011	6.0389e-06	29.651	-85.454	-19.746	-32.035	-128.000	-22.912	22.089	-128.052	-121.216	16.355	19.495	-121.374	-114.500	-114.423	-107.246	35.342	-107.937	-8191	255	
814.455	1	1	0	0	0.13648	0.090961	0.073608	0.23121	0.13228	0.092759	0.44941	0.025178	0.4166	0.20888	0.17887	0.068671	0.21358	0.10412	0.13213	0.061529	-2.6792	-2.7875	-3.0875	-2.925	-2.8854	-3.0958	-2.8729	-2.9958	-2.7229	-2.6188	-3.1125	-2.9583	-2.95	-3.2292	-2.5375	-2.9208	-45.771	88.354	140.540	213.231	-60.988	91.457	172.834	57.968	-111.411	-89.351	209.215	-14.532	-116.992	-98.754	122.039	84.799	0.00018072	0.00043969	9.4133e-05	1253	1.3873e-06	2.6771e-06	1306.8	263.08	3.6981e-06	4.1928e-06	325.42	91.034	71.048	20.86	2.1828e-06	29.267	0.0004084	0.00057212	0.00016276	1229.1	6.1817e-06	6.4766e-06	1287.8	260.96	6.2021e-06	6.2002e-06	322.95	91.308	71.592	21.068	6.0073e-06	29.545	-87.997	-38.589	-45.122	-127.852	53.598	-7.399	-127.633	-120.673	39.027	5.574	-121.556	-114.693	-114.299	-107.599	33.615	-107.608	-8191	255	
814.527	1	1	0	0	0.22057	0.10977	0.12983	0.15887	0.20378	0.21099	0.20294	0.21284	0.10906	0.15187	0.19814	0.33048	0.19998	0.15959	0.12326	0.17436	-2.3937	-2.6896	-3.2167	-3.0333	-2.6792	-3.1917	-2.8208	-3.0833	-3.1271	-2.7687	-3.0312	-2.7729	-2.7354	-3.1583	-2.7354	-2.9333	214.629	139.041	194.959	216.611	45.833	29.880	151.292	94.266	-47.261	151.259	172.109	-121.068	-89.687	-91.445	14.196	-120.839	0.00018727	0.00042663	9.5922e-05	1257.6	3.5558e-06	2.8496e-06	1308.5	262.79	2.5157e-06	2.8307e-06	325.23	90.574	71.333	20.821	2.0934e-06	29.096	0.00041112	0.00058819	0.00015543	1232.1	6.3841e-06	6.5798e-06	1289.1	261.27	6.13e-06	6.5641e-06	323.01	91.288	71.827	21.028	6.2442e-06	29.598	-74.661	-48.749	-50.183	-128.045	29.278	-1.572	-127.904	-120.935	16.238	5.637	-121.198	-114.505	-114.104	-107.313	23.130	-108.172	-8191	255	
814.648	1	1	0	0	0.20774	0.17643	0.016302	0.28954	0.061417	0.18085	0.33988	0.021674	0.29907	0.087832	0.26275	0.23023	0.015989	0.15829	0.054474	0.19979	-2.5458	-2.5333	-3.0271	-3.0042	-2.7229	-3.2917	-3.1021	-2.9771	-3.0771	-2.7083	-3.3	-3.0542	-2.6937	-3.0458	-2.7333	-2.7479	-77.992	-101.210	-60.885	140.129	157.398	55.171	70.803	-49.529	-78.869	-37.856	202.737	149.974	47.298	101.352	92.372	86.241	0.00020262	0.00040907	8.3515e-05	1255.5	2.8656e-06	2.7769e-06	1321.1	264.32	3.1668e-06	3.5594e-06	326.97	91.009	71.705	20.838	3.9908e-06	29.429	0.00043331	0.00059937	0.00016487	1236	6.6716e-06	6.8336e-06	1299.3	262.25	6.4816e-06	6.8773e-06	324.93	91.68	72.114	21.125	6.8307e-06	29.754	-81.511	-49.468	-47.115	-128.123	21.276	26.518	-127.845	-121.049	29.313	20.066	-121.048	-114.650	-114.584	-107.659	45.132	-107.562	-8191	255	
814.744	1	1	0	0	0.17743	0.14242	0.18811	0.44594	0.14858	0.20507	0.29561	0.22055	0.14283	0.059257	0.031704	0.23341	0.31804	0.16341	0.16524	0.4534	-2.4229	-2.55	-2.9	-3.0708	-2.7188	-3.3479	-3.0708	-2.9313	-3.1583	-2.7917	-3.0312	-3.0146	-2.6021	-3.1	-2.8229	-2.9417	-6.047	133.584	185.664	194.815	39.747	43.753	164.093	209.779	-75.828	215.035	160.569	-38.952	220.564	-82.035	-124.555	-93.629	0.00017492	0.00029215	0.00011709	1266.1	3.2869e-06	4.9828e-06	1318.2	264.81	3.207e-06	2.5625e-06	328.2	91.349	71.436	20.985	2.7191e-06	29.363	0.00045809	0.0006415	0.00017601	1247.5	7.0504e-06	6.9229e-06	1305.1	262.95	6.6658e-06	7.4051e-06	325.81	91.756	72.116	21.128	7.3551e-06	29.719	-81.537	-64.461	-27.800	-128.046	2.266	3.346	-128.207	-121.182	-38.913	-6.068	-121.270	-114.625	-113.998	-107.649	55.711	-107.867	-8191	255	
814.840	1	1	0	0	0.10767	0.16168	0.070004	0.23637	0.21786	0.22203	0.23068	0.15442	0.048528	0.14702	0.13468	0.087549	0.14269	0.16455	0.093471	0.2684	-2.675	-2.5792	-2.825	-3.1625	-2.7479	-3.2521	-3.1417	-2.7958	-3.0375	-2.6271	-3.0083	-3.2708	-2.7938	-3.0062	-2.8812	-2.7771	-46.557	182.730	90.755	187.009	60.027	-49.118	176.970	-87.044	-59.927	121.647	34.113	59.490	15.074	-119.523	150.095	-127.184	0.00021616	0.00027482	0.00013848	1272.8	1.9188e-06	3.5566e-06	1329.9	264.86	3.9697e-06	5.5169e-06	328.53	91.178	72.022	20.999	3.9737e-06	29.493	0.00047035	0.00068346	0.00018413	1251	7.5006e-06	7.6862e-06	1310.7	263.34	7.1357e-06	7.6222e-06	326.21	91.772	72.345	21.173	7.3967e-06	29.797	-82.607	-46.059	-40.197	-128.019	-7.710	15.075	-128.030	-121.212	5.396	0.600	-121.417	-114.660	-114.500	-107.525	18.421	-108.301	-8191	255	
814.936	1	1	0	0	0.074909	0.066314	0.44807	0.44112	0.21604	0.12989	0.31771	0.24898	0.10692	0.31149	0.10494	0.18218	0.20529	0.052989	0.092577	0.08235	-2.7167	-2.5354	-2.9	-3.2875	-2.6542	-3.1437	-3.2313	-2.7708	-2.8542	-2.475	-2.9458	-3.1208	-2.6479	-2.9979	-2.95	-2.7021	138.727	-92.658	-58.574	-132.737	170.529	202.665	56.607	179.254	-45.215	-46.609	-4.552	-133.237	200.473	-125.312	-109.500	13.082	0.00019871	0.00041618	0.00011257	1276	4.0948e-06	3.2161e-06	1335.8	265.35	1.608e-06	4.9634e-06	327.78	90.934	72.047	20.917	2.4916e-06	29.492	0.00047446	0.00072688	0.00019398	1257.6	7.6472e-06	7.4955e-06	1315.1	263.21	7.462e-06	7.7769e-06	325.73	91.815	72.381	21.197	7.6409e-06	29.818	-82.168	-69.509	-75.620	-128.116	-6.947	11.816	-128.072	-120.973	-8.642	24.531	-121.513	-114.679	-114.255	-107.555	30.619	-108.079	-8191	255	
815.055	1	1	0	0	0.42122	0.23149	0.086678	0.30444	0.14643	0.19463	0.067325	0.20493	0.14055	0.25881	0.2121	0.19186	0.33109	0.30307	0.13872	0.10649	-2.8187	-2.7979	-2.7792	-3.175	-2.6979	-2.8563	-3.1833	-2.6604	-3.0792	-3.0271	-2.8479	-3.2333	-3.0083	-2.7292	-3.0479	-2.8333	4.329	-36.553	-121.703	137.950	-5.658	38.323	-66.245	-115.766	-106.786	32.508	-74.217	-96.073	-91.350	-61.744	-0.420	-23.470	0.00017779	0.00017454	0.00014554	1294.9	2.7055e-06	2.1636e-06	1345.9	265.94	2.8033e-06	4.4506e-06	330.21	92.116	72.731	21.092	2.4784e-06	29.537	0.00049208	0.00071753	0.00020011	1271.6	7.7208e-06	7.8945e-06	1327.3	264.95	7.783e-06	7.9952e-06	328.1	92.535	72.949	21.356	7.3917e-06	30.01	-80.564	-59.007	-70.285	-128.293	74.414	-14.323	-128.048	-120.822	-35.012	31.531	-121.167	-114.911	-114.473	-107.514	24.344	-108.096	-8191	255	
815.151	1	1	0	0	0.27654	0.11359	0.31075	0.39975	0.12335	0.1428	0.11221	0.089104	0.064653	0.14951	0.20194	0.18348	0.10889	0.20092	0.088894	0.2089	-2.7375	-2.9354	-2.7396	-3.1688	-2.5958	-3.0479	-3.2375	-2.65	-3.1625	-3.0125	-2.7521	-3.0354	-2.7062	-2.9333	-2.9417	-2.8208	81.629	59.037	-69.543	180.559	-133.946	-34.718	144.327	41.616	-57.359	-23.674	203.488	135.606	49.029	212.706	40.970	214.377	0.00018235	0.00018612	9.1452e-05	1298.4	4.2955e-06	4.2716e-06	1348	268.58	3.406e-06	4.1247e-06	329.32	91.605	72.644	21.159	2.695e-06	29.498	0.0004978	0.0007257	0.00020622	1278.9	7.7824e-06	8.0378e-06	1332.4	266.47	7.7167e-06	7.971e-06	328.42	92.479	73.034	21.323	7.8223e-06	29.912	-86.595	-18.411	-40.321	-128.118	45.538	16.562	-128.160	-121.292	-1.484	13.112	-121.624	-114.898	-114.593	-107.836	20.806	-108.511	-8191	255	
815.225	1	1	0	0	0.31491	0.27645	0.12475	0.14451	0.19299	0.098784	0.27751	0.24784	0.034255	0.30211	0.1386	0.10431	0.2745	0.2072	0.16105	0.068019	-2.6271	-2.7188	-2.7313	-3.1625	-2.8146	-2.8646	-3.1167	-2.7562	-2.9521	-2.7875	-2.6542	-3.1875	-2.8146	-2.5146	-3.025	-2.525	167.143	-129.447	91.223	217.428	-27.132	33.833	213.102	95.652	85.625	204.618	212.337	78.830	-98.720	133.753	-110.465	197.172	0.00016863	0.00033578	4.3609e-05	1304.1	3.7028e-06	3.6928e-06	1359.7	269.48	1.899e-06	3.0289e-06	331.36	92.16	73.031	21.059	2.8776e-06	29.75	0.00050052	0.00076869	0.00020995	1282.3	8.1862e-06	8.7373e-06	1340.3	266.94	8.053e-06	8.3755e-06	329.25	92.872	73.324	21.426	8.4416e-06	30.14	-82.737	-67.580	-48.082	-128.202	24.305	0.007	-128.053	-121.218	-47.570	14.653	-121.446	-114.835	-114.912	-107.516	29.527	-107.938	-8191	255	
815.344	1	1	0	0	0.036017	0.12825	0.15171	0.12281	0.13062	0.030603	0.29141	0.15815	0.085662	0.11946	0.023756	0.079315	0.25953	0.053708	0.11003	0.30024	-2.525	-2.9333	-2.5021	-2.9917	-2.8563	-2.6396	-3.1771	-2.6333	-2.7542	-3.0354	-2.7271	-2.8875	-2.775	-2.7146	-3.0167	-2.6146	-109.344	167.498	174.881	157.689	-118.697	-100.080	164.171	147.425	121.275	121.271	-92.192	108.924	100.098	77.342	-31.887	192.158	0.00018759	0.0004779	9.7312e-05	1324.2	3.9368e-06	4.4227e-06	1379.3	271.93	5.0723e-06	3.9627e-06	335.68	93.108	73.068	21.388	2.0869e-06	29.758	0.00054033	0.00082242	0.00022713	1303	8.4606e-06	8.9279e-06	1359.8	270.1	8.0609e-06	8.997e-06	333.36	93.648	73.972	21.613	8.0998e-06	30.223	-80.769	-57.086	-28.358	-128.187	22.025	-0.304	-127.825	-121.221	17.627	-9.012	-121.170	-114.444	-114.020	-107.837	-25.932	-108.343	-8191	255	
815.440	1	1	0	0	0.23023	0.18839	0.08692	0.25448	0.12678	0.28742	0.23203	0.13387	0.1979	0.044308	0.31372	0.2197	0.22118	0.2532	0.10101	0.085582	-2.5458	-3.1708	-2.5708	-3.2583	-2.8292	-2.6	-3.0979	-2.9375	-2.75	-2.85	-2.6521	-3.0583	-3.0312	-2.8312	-3.1437	-2.8833	-54.137	-58.763	10.507	171.736	159.525	66.844	159.763	178.579	7.894	163.345	159.921	114.549	-111.616	123.037	61.524	-71.160	0.00018386	0.00054377	8.9857e-05	1328.9	2.1166e-06	5.7235e-06	1383.7	274.94	2.491e-06	1.8109e-06	334	93.074	73.538	21.334	1.522e-06	29.903	0.0005198	0.00078991	0.0002187	1308	8.2728e-06	8.9565e-06	1365.4	272.19	7.9457e-06	8.9136e-06	333.73	93.93	74.291	21.623	8.1874e-06	30.339	-77.196	-44.792	-37.534	-128.181	10.566	3.079	-127.852	-121.346	24.089	10.269	-121.310	-114.929	-114.503	-107.865	41.588	-108.133	-8191	255	
815.536	1	1	0	0	0.10725	0.20091	0.26676	0.18791	0.082229	0.15093	0.24937	0.18096	0.10701	0.064375	0.24572	0.07461	0.19569	0.20525	0.1936	0.07703	-2.2042	-2.95	-2.6542	-3.0104	-2.9292	-2.6125	-3.375	-3.0458	-2.5687	-3.1542	-2.8583	-2.9729	-2.8979	-2.6917	-3.1083	-3.0042	-57.936	-17.080	108.875	156.584	218.255	-116.505	157.794	-109.116	167.785	120.848	146.115	201.663	193.187	186.304	-110.093	-138.204	0.00017925	0.00041315	0.00013091	1331.1	2.8835e-06	2.3993e-06	1387.1	273.99	1.4586e-06	1.9969e-06	335.27	93.308	74.457	21.473	5.2685e-06	30.136	0.0005391	0.00079781	0.00021666	1311.9	8.4288e-06	8.5503e-06	1370.9	272.71	8.1446e-06	8.8809e-06	335.1	94.317	74.751	21.785	8.3467e-06	30.504	-88.438	-50.783	-49.679	-128.267	22.092	17.079	-128.280	-121.294	-53.438	28.761	-121.377	-115.161	-114.681	-107.914	42.144	-108.231	-8191	255	
815.632	1	1	0	0	0.035414	0.25167	0.4555	0.2213	0.15147	0.20784	0.299	0.44679	0.36371	0.19124	0.29207	0.18931	0.057617	0.15369	0.25985	0.2433	-2.3979	-2.7729	-2.6146	-3.1896	-3.0042	-2.4854	-3.1312	-2.9417	-2.7812	-3.1396	-2.7979	-2.6833	-2.8542	-2.8542	-3.2021	-2.8729	-116.453	-132.026	159.924	177.346	93.831	122.239	164.658	141.482	191.685	137.225	133.201	183.328	204.774	-65.748	-98.746	144.677	0.00020261	0.0001206	0.00012672	1349.7	2.4487e-06	3.3642e-06	1402.4	276.12	9.7742e-07	4.4366e-06	337.84	94.228	74.756	21.644	2.2205e-06	30.153	0.00052868	0.00077788	0.00021962	1326.7	8.5499e-06	8.8448e-06	1382.2	274.74	8.4946e-06	8.988e-06	337.5	94.909	75.32	21.924	8.3733e-06	30.645	-81.004	-39.445	-63.274	-128.304	18.218	-55.665	-128.216	-121.395	-89.791	14.977	-121.704	-115.034	-114.456	-107.794	-10.316	-108.036	-8191	255	
815.753	1	1	0	0	0.10448	0.049854	0.052173	0.060617	0.093596	0.24971	0.18689	0.2877	0.071808	0.20777	0.20983	0.13856	0.29235	0.33083	0.10057	0.24738	-2.175	-2.95	-2.7771	-2.875	-3.2625	-2.4958	-3.1917	-2.8688	-2.6625	-3.0146	-2.8042	-2.7833	-3.1063	-2.625	-2.8167	-2.8125	187.729	-59.289	43.459	220.291	94.022	-126.107	189.094	177.839	101.333	-53.022	-119.775	163.362	185.801	198.082	80.172	92.559	0.00018832	0.00044959	0.00011288	1355.6	2.7052e-06	5.3635e-06	1405.3	278.31	1.8377e-06	4.4583e-06	341.46	94.385	74.956	21.678	3.0935e-06	30.322	0.00053619	0.00076353	0.000218	1332.6	8.5968e-06	8.7221e-06	1384.5	276.35	8.1393e-06	9.0285e-06	339.08	95.146	75.242	21.968	8.3883e-06	30.664	-83.020	-41.852	-64.610	-128.136	91.873	10.749	-128.257	-121.319	-42.853	9.910	-121.764	-114.531	-114.659	-108.200	-12.838	-108.197	-8191	255	
815.824	1	1	0	0	0.092715	0.039568	0.11864	0.28769	0.24986	0.063248	0.42142	0.14659	0.18176	0.28333	0.23106	0.26938	0.29282	0.25038	0.063992	0.16599	-2.2	-3.0583	-2.7333	-2.9167	-3.1875	-2.8812	-2.9729	-2.925	-2.6458	-3.1521	-2.9667	-2.6792	-3.2687	-2.7062	-2.7042	-3.0479	210.932	-115.784	21.152	166.389	216.413	113.341	181.613	216.558	13.749	77.604	166.876	-133.984	212.062	198.586	174.932	17.611	0.00021058	0.000215	0.00014223	1358.6	2.2907e-06	2.7476e-06	1405.8	278.35	4.3427e-06	4.9769e-06	341.25	93.402	74.619	21.776	4.804e-06	30.084	0.00054509	0.00083322	0.00022142	1334	8.4987e-06	9.3166e-06	1385.7	276	8.3977e-06	8.6887e-06	338.98	94.481	75.051	21.899	8.2851e-06	30.496	-80.486	-17.575	-57.075	-128.448	7.877	31.617	-128.217	-121.557	-18.420	12.922	-121.426	-115.036	-114.577	-107.874	22.287	-108.264	-8191	255	
815.945	1	1	0	0	0.15987	0.20535	0.095178	0.26306	0.27135	0.21237	0.13936	0.077611	0.22298	0.31523	0.20244	0.16609	0.072228	0.19144	0.33266	0.19951	-2.1708	-2.9229	-2.7958	-2.9813	-3.0896	-2.6792	-3.0896	-3.1063	-2.7333	-3.0458	-2.8771	-2.6625	-3.1646	-2.7583	-2.7958	-3.25	-39.381	166.545	-65.544	161.122	52.706	204.232	155.419	47.674	-33.611	-20.320	120.553	-109.962	82.545	159.027	-101.697	56.953	0.00018749	0.00038769	5.8294e-05	1350.1	4.6118e-06	2.0282e-06	1402.6	276.3	2.1865e-06	1.6138e-06	338.94	93.211	74.238	21.594	3.8352e-06	29.984	0.00053328	0.0007761	0.00022518	1328.4	8.1236e-06	8.8885e-06	1381.2	274.47	8.0867e-06	8.3985e-06	337.48	94.401	74.656	21.759	8.4455e-06	30.4	-85.512	-30.672	-29.757	-128.236	26.849	-4.993	-128.120	-121.459	34.776	-27.827	-121.466	-115.020	-114.616	-107.721	-5.650	-108.164	-8191	255	
816.041	1	1	0	0	0.11584	0.091663	0.10397	0.3729	0.045294	0.038648	0.064803	0.2342	0.1816	0.10194	0.071563	0.14096	0.11475	0.19009	0.16805	0.11794	-2.3417	-2.975	-2.8271	-2.7729	-3.1208	-2.8729	-2.9813	-3.0438	-2.7083	-3.0021	-2.9125	-2.7792	-3.1042	-2.7354	-2.6917	-3.3146	154.988	-26.161	-120.200	201.419	89.275	219.794	90.287	197.076	-25.330	114.648	67.003	179.894	-74.060	-45.060	196.272	64.136	0.00018916	0.00024901	0.00013408	1346.1	2.9723e-06	4.2504e-06	1382.6	274.6	3.5588e-06	2.5611e-06	335.16	92.887	73.43	21.287	3.8788e-06	29.895	0.00053287	0.00078481	0.00020952	1321	7.894e-06	8.3875e-06	1368.9	272.46	7.912e-06	8.2528e-06	333.97	93.624	73.997	21.531	7.8406e-06	30.208	-82.605	-33.441	-43.436	-128.276	-36.928	19.764	-128.119	-121.480	27.079	22.318	-121.352	-114.961	-114.588	-107.538	6.100	-107.872	-8191	255	
816.135	1	1	0	0	0.10489	0.29433	0.054697	0.22989	0.10877	0.17089	0.34993	0.20186	0.24012	0.29567	0.25793	0.14594	0.059362	0.12713	0.16478	0.1551	-2.1979	-2.8667	-3.0771	-2.8812	-3.0062	-2.7854	-2.9292	-3.2104	-2.5396	-3.0396	-3.1521	-2.7792	-2.9437	-2.7792	-2.7396	-3.2375	11.608	-108.628	134.547	-60.971	194.418	25.546	115.600	-135.126	-76.783	-63.736	105.934	194.321	-93.714	-8.301	99.492	118.437	0.00017544	0.00025762	0.00013044	1330.6	4.9715e-06	5.4952e-06	1380.8	272.43	3.9183e-06	4.469e-06	334.7	93.222	73.765	21.311	2.7709e-06	29.83	0.00049336	0.00074338	0.00020546	1310.7	8.1142e-06	8.2922e-06	1362.8	270.83	7.732e-06	8.2461e-06	333.4	93.759	74.105	21.596	8.0354e-06	30.213	-81.171	-21.285	-59.948	-127.949	-1.115	41.407	-127.921	-121.330	4.823	21.236	-121.425	-115.015	-114.507	-107.639	7.545	-107.991	-8191	255	
816.232	1	1	0	0	0.28333	0.12822	0.20649	0.15834	0.26445	0.21668	0.17236	0.28853	0.14966	0.13263	0.18349	0.076905	0.34776	0.14161	0.15304	0.202	-2.3667	-2.6813	-3.1125	-2.9688	-2.8583	-2.6063	-2.9625	-3.3479	-2.8021	-2.6958	-3.1688	-2.7146	-2.9021	-2.9167	-2.7542	-3.1375	-23.233	67.729	-80.108	52.891	82.495	216.498	137.722	85.267	194.861	12.212	-107.338	185.572	-4.730	-44.513	124.270	-127.290	0.00018668	0.00012126	0.00011886	1326.7	1.9185e-06	3.439e-06	1389.7	272.75	1.7826e-06	5.8697e-06	335.16	93.036	73.556	21.411	4.5301e-06	29.824	0.00049668	0.00078766	0.00021293	1309.9	8.0208e-06	8.6857e-06	1366.1	271.07	8.1909e-06	8.7316e-06	334.44	93.736	74.119	21.631	8.3961e-06	30.274	-77.386	-120.295	-53.299	-128.277	19.074	2.403	-127.884	-121.457	29.213	21.691	-121.367	-115.089	-114.520	-108.129	39.621	-108.009	-8191	255	
816.352	1	1	0	0	0.20801	0.19906	0.12824	0.25773	0.10821	0.14017	0.1652	0.14223	0.041415	0.23006	0.11055	0.19649	0.28897	0.26989	0.045237	0.049649	-2.2542	-2.55	-3.1417	-2.7708	-3.0458	-2.9146	-2.8646	-3.2271	-3.0229	-2.6979	-3.1188	-2.6042	-2.9167	-2.8792	-2.5917	-2.9271	199.570	158.794	53.732	147.859	159.651	128.801	147.819	-44.234	-38.786	2.345	134.848	85.160	-125.406	-129.217	-114.389	-74.066	0.00020295	0.00038622	0.00014549	1334.1	3.0393e-06	5.785e-06	1386.7	273.13	3.2189e-06	2.4281e-06	334.38	92.343	73.841	21.37	2.124e-06	29.606	0.00052925	0.00079572	0.00021696	1311.8	7.989e-06	8.7816e-06	1365.4	271.11	8.2225e-06	8.7298e-06	333.64	93.324	74.169	21.503	8.4777e-06	30.189	-83.532	-36.016	-38.786	-128.125	-28.844	8.064	-128.016	-121.265	0.476	-4.995	-121.482	-114.769	-114.539	-107.825	42.732	-107.791	-8191	255	
816.424	1	1	0	0	0.20566	0.41859	0.13042	0.19714	0.17274	0.13353	0.14373	0.10595	0.12893	0.13435	0.19398	0.20547	0.11536	0.1126	0.23986	0.097817	-2.35	-2.8583	-3.2875	-2.8542	-2.8667	-2.8	-2.8854	-3.2083	-2.9813	-2.6896	-3.2458	-2.7417	-2.9417	-3.075	-2.8354	-2.9271	90.350	-7.748	192.801	125.934	-99.489	133.911	-129.870	-22.675	-85.982	154.394	189.360	118.199	115.741	-109.604	-104.300	-18.370	0.00018968	0.00040871	0.00012062	1335.7	2.6406e-06	4.5004e-06	1387.2	272.97	3.3999e-06	4.1401e-06	335.65	92.656	73.322	21.331	1.9272e-06	29.724	0.0005216	0.00079002	0.00021287	1311.9	8.1476e-06	8.5023e-06	1363.7	271.57	7.9067e-06	8.3289e-06	333.65	93.274	73.866	21.521	7.8828e-06	30.17	-86.315	-75.658	-8.765	-128.211	12.781	37.144	-127.961	-121.396	31.488	24.092	-121.367	-114.597	-114.429	-107.452	3.616	-108.272	-8191	255	
816.520	1	1	0	0	0.052292	0.21174	0.16052	0.17994	0.13598	0.053601	0.23095	0.11679	0.11072	0.084054	0.12831	0.32289	0.20338	0.13496	0.13755	0.12412	-2.3667	-2.6813	-3.2167	-2.9375	-2.8917	-3.1083	-2.9625	-2.925	-2.7667	-2.6792	-3.2771	-2.8604	-2.7354	-2.975	-2.6417	-2.9583	-114.547	49.872	-114.296	118.615	-47.956	94.235	160.259	177.384	-111.579	42.627	171.022	151.902	-103.383	30.195	-118.387	-77.295	0.00015654	0.0003072	4.0593e-05	1323.6	9.132e-07	2.1276e-06	1372.9	272.26	4.7838e-06	5.0263e-06	333.92	92.436	72.913	21.173	2.5277e-06	29.788	0.00049744	0.00072941	0.00020554	1302.3	7.7923e-06	8.2284e-06	1354.1	269.74	7.5831e-06	8.5508e-06	331.94	93.198	73.612	21.436	7.7979e-06	30.102	-78.048	-36.428	-47.370	-128.182	-20.827	43.262	-128.270	-121.309	28.598	-5.212	-121.293	-114.827	-114.425	-107.679	-6.611	-108.456	-8191	255	
816.616	1	1	0	0	0.16756	0.23321	0.2185	0.11175	0.12384	0.072273	0.1371	0.12801	0.27595	0.13413	0.2807	0.083145	0.24413	0.32443	0.055717	0.13017	-2.425	-2.4604	-3.0812	-3.0042	-2.8604	-3.1562	-2.7521	-3.1021	-3.0104	-2.7313	-3.1646	-2.7292	-2.8208	-3.2812	-2.725	-2.8396	29.346	62.394	-31.661	-75.737	125.873	-110.725	217.530	112.662	-46.201	201.409	145.868	-78.675	-80.237	184.812	195.066	83.925	0.0001919	0.00045916	9.6626e-05	1324.5	2.5701e-06	2.9844e-06	1373.4	272.05	1.976e-06	4.5843e-06	333.03	92.701	73.132	21.28	2.5544e-06	29.906	0.00049861	0.00075864	0.00020045	1300.5	7.8106e-06	8.0809e-06	1354	270.02	7.6867e-06	8.1337e-06	332.5	93.337	73.796	21.524	7.6342e-06	30.145	-86.346	-41.575	-49.535	-128.083	18.274	22.790	-128.225	-121.286	25.556	17.022	-121.276	-114.775	-114.379	-107.641	35.158	-107.898	-8191	255	
816.712	1	1	0	0	0.14291	0.14698	0.23897	0.13289	0.056053	0.16672	0.31902	0.1333	0.23966	0.097555	0.090065	0.24188	0.32987	0.2003	0.19265	0.21413	-2.6063	-2.7479	-2.9271	-2.9625	-2.9021	-3.1167	-3.0229	-2.9208	-2.8958	-2.7542	-3.2958	-2.8792	-2.5604	-3.125	-2.8229	-2.7458	161.789	-111.362	102.514	167.459	60.094	35.974	169.422	117.405	9.721	16.873	77.774	113.791	-130.972	194.118	180.593	79.493	0.00019354	0.00022506	9.3994e-05	1321.7	2.0765e-06	2.1857e-06	1370.2	270.69	1.4626e-06	1.8173e-06	333.1	92.457	73.516	21.271	1.7311e-06	29.901	0.00049638	0.00073639	0.00020134	1301.1	7.6968e-06	8.1301e-06	1353.9	269.52	7.6125e-06	8.2491e-06	332	93.183	73.812	21.515	7.8423e-06	30.155	-84.892	-34.761	-35.534	-128.161	-9.019	-16.825	-128.243	-121.271	2.487	12.594	-120.973	-114.841	-114.374	-107.290	11.476	-108.279	-8191	255	
816.833	1	1	0	0	0.19171	0.12389	0.3265	0.17568	0.16551	0.15695	0.054302	0.14051	0.16527	0.20424	0.19693	0.24239	0.16519	0.24166	0.12013	0.01349	-2.7896	-2.5208	-2.8187	-2.9062	-2.825	-3.0958	-2.9	-2.9521	-2.9917	-2.5729	-3.1354	-2.9562	-2.6958	-3.1271	-2.6312	-2.7812	-93.696	94.526	209.890	181.054	-119.247	192.127	110.709	-133.794	190.955	187.457	38.971	162.478	188.719	-112.200	-10.624	-89.187	0.00019455	0.00029451	0.00012711	1320.6	3.0987e-06	1.141e-06	1372.6	271.31	3.0218e-06	4.1855e-06	334.54	92.396	73.018	21.234	2.4643e-06	29.535	0.00050278	0.00073731	0.00019892	1299.5	7.7688e-06	7.9813e-06	1353.1	269.88	7.7988e-06	8.3374e-06	332.31	93.327	73.78	21.467	7.6042e-06	30.104	-78.286	-50.404	16.551	-128.050	-17.433	8.669	-128.169	-121.424	16.444	-6.959	-121.244	-114.839	-114.711	-107.614	7.502	-107.989	-8191	255	
816.929	1	1	0	0	0.22894	0.059092	0.12479	0.17105	0.10517	0.052697	0.14871	0.22125	0.11179	0.15805	0.15459	0.3861	0.32978	0.30158	0.15118	0.063207	-2.6958	-2.5812	-3.0167	-3.125	-2.5917	-3.0042	-2.9688	-2.8021	-3.2021	-2.65	-3.1854	-2.9229	-2.7104	-3.0938	-2.9146	-2.575	-79.379	-52.882	104.873	162.935	-48.067	-44.729	186.703	172.932	-108.582	-60.440	160.954	203.692	195.353	-133.089	164.464	198.560	0.00019445	0.00035799	5.6863e-05	1318.9	3.5839e-06	1.2504e-06	1374.7	270.39	2.205e-06	2.6655e-06	333.27	92.023	73.611	21.314	3.0822e-06	29.735	0.00049731	0.00075504	0.00019388	1298.7	8.0678e-06	8.1167e-06	1355.5	269.72	7.4452e-06	8.3507e-06	332.63	93.109	73.9	21.51	7.9033e-06	30.096	-87.678	-53.773	-21.364	-128.157	-10.034	27.212	-128.125	-121.253	18.313	-17.692	-121.467	-114.969	-114.707	-107.644	29.804	-108.108	-8191	255	
817.025	1	1	0	0	0.13089	0.22325	0.0084738	0.50433	0.10213	0.13578	0.26117	0.37257	0.30273	0.15575	0.17029	0.121	0.09209	0.16746	0.18678	0.20635	-2.7313	-2.75	-2.6437	-3.1979	-2.7667	-2.975	-2.9542	-2.8937	-2.9396	-2.8042	-3.05	-2.9542	-2.6625	-2.9396	-3.0917	-2.6667	81.888	-68.540	45.888	197.543	-89.872	75.895	161.832	220.555	190.781	-33.822	57.275	68.942	-124.916	-132.585	-65.679	82.568	0.00019158	0.00022122	0.00010097	1324.4	4.7862e-06	3.2714e-06	1371.7	272.28	4.0535e-06	3.4664e-06	335.27	92.66	73.389	21.131	2.4213e-06	29.662	0.00049815	0.00072199	0.0002002	1300.2	7.8737e-06	8.1295e-06	1354	270.22	7.6809e-06	8.3017e-06	332.46	93.408	73.765	21.49	7.713e-06	30.168	-76.695	43.549	-68.314	-128.219	-3.341	-0.906	-128.120	-121.297	28.202	5.960	-121.465	-114.981	-114.631	-107.843	-16.502	-107.715	-8191	255	
817.121	1	1	0	0	0.27057	0.053154	0.043061	0.36331	0.23445	0.15976	0.26909	0.32585	0.044545	0.058857	0.088711	0.086974	0.217	0.42818	0.18095	0.12336	-2.4792	-2.7708	-2.7062	-3.3958	-2.4583	-2.9562	-3.0729	-2.6042	-3.0375	-2.5854	-2.7646	-3.2062	-2.7292	-2.8354	-2.8937	-2.6167	49.291	-43.369	-71.959	132.028	68.401	-107.557	150.131	-110.792	172.042	55.385	-53.283	149.977	-91.299	192.731	97.209	207.286	0.00019775	0.00033204	0.000114	1322.3	2.816e-06	4.4894e-06	1373	271.34	1.9966e-06	8.4773e-07	332.68	92.652	73.131	21.191	8.6327e-07	29.743	0.00049908	0.00074709	0.00019682	1300.7	7.6812e-06	7.8951e-06	1353.1	269.97	7.7994e-06	8.2461e-06	331.71	93.461	73.868	21.446	7.9033e-06	30.084	-84.592	-85.161	-36.388	-128.483	-12.937	48.605	-128.179	-121.069	31.135	-30.916	-121.439	-114.944	-114.517	-107.806	28.660	-107.991	-8191	255	
817.216	1	1	0	0	0.21239	0.25063	0.022451	0.14038	0.043336	0.19035	0.4284	0.15929	0.017874	0.31952	0.14865	0.18123	0.12463	0.075848	0.11228	0.10718	-2.7479	-2.7396	-2.7104	-3.3292	-2.5625	-2.9083	-3.1688	-2.675	-3.0667	-2.7479	-2.7667	-3.1813	-2.6542	-2.775	-3.2167	-2.8021	-22.662	23.692	-55.080	179.857	189.902	-63.381	150.689	18.725	-103.225	173.771	179.281	199.918	137.790	-53.903	-98.442	26.619	0.00019479	0.00044942	9.2296e-05	1320.4	3.4648e-06	3.5751e-06	1369.9	270.79	2.461e-06	3.6057e-06	333.73	92.566	72.879	21.174	2.9502e-06	29.796	0.00050749	0.00076794	0.00020258	1299.6	8.1737e-06	8.4659e-06	1351.4	269.24	7.8583e-06	8.4269e-06	332.53	93.239	73.58	21.452	7.9411e-06	30.134	-81.078	-41.249	-22.370	-128.092	11.625	11.793	-128.175	-121.165	30.132	2.919	-121.499	-114.912	-114.759	-107.633	33.191	-108.069	-8191	255	
817.312	1	1	0	0	0.27025	0.021812	0.13612	0.23085	0.17545	0.24345	0.31175	0.30834	0.27075	0.03107	0.2896	0.095502	0.071031	0.14998	0.22353	0.21918	-2.4708	-3.0271	-2.6229	-3.0917	-2.7812	-2.8292	-3.0875	-2.8417	-3.025	-2.8063	-2.7271	-3.0917	-2.8292	-2.8458	-3.0417	-2.6542	-72.476	-126.554	-15.704	170.559	36.971	-130.072	187.423	121.064	66.646	-71.449	-77.869	194.455	189.412	65.989	-9.227	1.263	0.00018676	0.00027664	8.6604e-05	1325.3	1.7835e-06	2.967e-06	1374.5	270.07	3.3328e-06	3.3676e-06	334.06	92.318	73.768	21.068	6.825e-07	29.608	0.0005006	0.00074773	0.00020982	1298.9	7.9624e-06	8.3863e-06	1354.5	269.72	7.9178e-06	8.3265e-06	332.45	93.179	73.963	21.431	7.8972e-06	30.066	-89.298	-45.882	-64.726	-128.186	-14.915	-6.833	-128.016	-121.320	5.986	20.912	-121.363	-114.939	-114.515	-107.225	41.825	-107.968	-8191	255	
817.433	1	1	0	0	0.26049	0.1836	0.22345	0.16377	0.2178	0.10338	0.10976	0.11151	0.10333	0.30817	0.17409	0.27856	0.21412	0.10022	0.25382	0.19032	-2.6896	-3.0521	-2.4313	-3.3417	-2.7938	-2.7021	-3.2792	-2.7458	-2.9521	-2.9375	-2.5708	-3.1271	-2.9396	-2.7125	-3.1771	-2.7354	119.546	23.686	-57.908	177.721	47.168	-22.224	96.004	113.713	-117.673	-138.962	95.907	-101.763	-100.288	27.064	-85.115	210.316	0.00020147	0.00032341	0.00016339	1320.2	3.1176e-06	2.7358e-06	1372.8	271.69	2.9212e-06	2.7174e-06	332.69	92.756	73.742	21.241	3.3377e-06	29.633	0.00051732	0.00076837	0.00020915	1298.7	7.7495e-06	8.3626e-06	1355.7	269.84	7.6999e-06	8.2824e-06	331.93	93.245	73.898	21.54	7.46e-06	30.125	-86.772	-39.913	-61.484	-128.271	22.859	-2.469	-128.025	-121.224	-21.890	21.026	-121.615	-114.650	-114.473	-107.518	-11.576	-107.746	-8191	255	
817.529	1	1	0	0	0.22748	0.030219	0.25048	0.21013	0.19366	0.05285	0.05076	0.42955	0.22024	0.17998	0.17262	0.068593	0.15911	0.23567	0.25219	0.2169	-2.3854	-2.9792	-2.4688	-3.0062	-2.95	-2.8021	-3.1604	-2.8583	-2.7313	-3.025	-2.8812	-3.0833	-2.925	-2.9437	-3.0042	-2.6979	22.922	141.475	48.551	165.652	83.286	-46.922	53.875	201.561	6.559	151.766	-48.390	129.272	93.966	-50.329	18.055	-120.316	0.00021657	0.00048613	4.5923e-05	1319.5	4.712e-06	4.0179e-06	1373.3	271.52	2.6179e-06	3.2311e-06	334.88	92.681	73.264	21.208	4.8268e-06	29.727	0.00049445	0.0007207	0.00020099	1299.5	7.7443e-06	7.8325e-06	1354.4	269.7	7.6757e-06	8.2068e-06	332.5	93.29	73.746	21.485	7.9061e-06	30.167	-79.426	-69.671	-69.534	-128.143	21.110	-12.327	-128.002	-121.487	11.712	26.124	-121.513	-114.847	-114.667	-107.568	47.325	-108.094	-8191	255	
817.625	1	1	0	0	0.2062	0.11987	0.25251	0.21211	0.20758	0.035352	0.06379	0.10363	0.14873	0.10314	0.15735	0.17078	0.19558	0.24367	0.067296	0.12336	-2.4979	-2.8583	-2.7562	-3.1688	-2.9792	-2.7354	-3.0646	-2.9104	-2.8438	-3.0042	-2.8271	-2.9521	-2.9396	-2.7771	-2.9833	-3.025	125.685	48.728	60.526	195.732	184.918	-72.553	49.408	106.732	13.063	76.586	-91.103	-98.742	206.860	-120.541	140.329	180.002	0.00019818	0.00011217	0.00013409	1319.7	5.0606e-06	3.9071e-06	1376.2	272.37	2.8326e-06	2.2205e-06	332.1	92.209	73.598	21.256	4.0839e-06	29.757	0.00049148	0.00073559	0.00020451	1298.6	7.7276e-06	8.3086e-06	1354.2	270.28	7.8236e-06	7.8707e-06	331.8	93.347	73.743	21.443	7.7174e-06	30.109	-78.044	-32.247	-55.883	-128.256	-34.387	-4.843	-128.127	-121.302	-22.575	-27.082	-121.326	-114.517	-114.615	-107.426	32.331	-108.234	-8191	255	
817.721	1	1	0	0	0.12829	0.035397	0.012195	0.19815	0.17847	0.177	0.29753	0.11455	0.20858	0.23502	0.1316	0.25693	0.29312	0.14984	0.20909	0.12917	-2.3042	-3.1896	-2.6521	-2.9771	-3.0167	-2.8187	-3.0187	-2.9896	-2.6958	-3.225	-2.7062	-2.8958	-3.0208	-2.7687	-2.8354	-2.875	-46.922	-86.071	-81.751	220.633	167.003	-58.356	151.981	70.394	-96.514	73.457	157.293	104.592	-127.932	213.872	-13.068	159.058	0.00018516	0.00035633	6.584e-05	1323	2.2751e-06	3.3328e-06	1370	270.73	3.8138e-06	4.7909e-06	333.68	92.472	73.189	20.996	5.6826e-06	29.89	0.00050319	0.00072565	0.00020873	1299.5	7.9926e-06	8.3687e-06	1354.4	269.85	7.8362e-06	8.1331e-06	332.28	93.154	73.706	21.472	7.7291e-06	30.166	-81.606	-52.730	-58.166	-128.122	3.524	50.259	-127.992	-121.336	17.549	25.002	-121.327	-114.884	-114.605	-107.853	23.878	-107.950	-8191	255	
817.817	1	1	0	0	0.36498	0.074193	0.083835	0.074214	0.10849	0.18596	0.36184	0.16837	0.24365	0.2907	0.1417	0.051689	0.12601	0.15181	0.16106	0.057629	-2.4542	-3.1125	-2.7562	-3.1417	-2.9562	-2.5708	-3.1083	-3.2021	-2.6188	-3.2396	-3.0625	-2.8167	-3.3479	-2.7958	-2.9271	-2.9188	125.477	118.162	17.772	148.374	-54.338	-115.862	165.359	166.654	154.623	-56.026	127.271	-46.095	216.982	173.354	189.227	56.500	0.00019666	0.000415	8.9169e-05	1321.8	2.5375e-06	1.8168e-06	1375.3	272.37	3.4882e-06	4.8212e-06	333.75	92.827	73.372	21.399	3.1127e-06	29.64	0.00050537	0.00073865	0.0002085	1300.4	7.9149e-06	8.4063e-06	1356	270.36	7.7283e-06	8.0762e-06	331.99	93.373	73.772	21.557	7.7019e-06	30.157	-84.002	-56.916	-27.150	-128.125	21.535	14.959	-128.313	-121.456	-15.610	29.038	-121.589	-114.402	-114.101	-107.653	37.386	-107.985	-8191	255	
817.913	1	1	0	0	0.088793	0.13635	0.10595	0.37055	0.31353	0.25238	0.26205	0.12649	0.25619	0.13249	0.20801	0.22482	0.13062	0.13766	0.1593	0.095402	-2.2229	-3.0021	-2.5812	-2.9208	-3.2917	-2.6312	-3	-3.0708	-2.6521	-2.9833	-2.975	-2.7604	-3.0583	-2.625	-2.9354	-3.0458	171.822	-134.062	24.051	174.361	71.090	101.740	145.109	213.185	-88.246	-36.669	120.272	-99.005	28.001	164.317	143.949	152.289	0.00018187	0.00021193	9.9272e-05	1322.6	6.8362e-07	5.3298e-06	1367.8	271.44	1.9084e-06	4.9751e-06	333.68	92.075	73.575	21.173	5.5788e-06	29.739	0.00050776	0.00073322	0.00020374	1300.5	7.7652e-06	8.0791e-06	1352.4	269.59	7.3957e-06	8.1748e-06	332.77	93.226	73.885	21.461	7.5338e-06	30.114	-78.274	-69.724	-35.491	-128.330	2.012	45.726	-128.103	-121.383	-12.386	6.043	-121.541	-114.725	-114.603	-107.810	25.845	-107.846	-8191	255	
818.032	1	1	0	0	0.10598	0.16291	0.059134	0.41643	0.17932	0.1048	0.36584	0.066908	0.066642	0.1796	0.2419	0.055596	0.29991	0.23593	0.098931	0.20403	-2.1625	-2.875	-2.8771	-2.6688	-3.0479	-2.7542	-3.2042	-3.0646	-2.6688	-3.0563	-3.0062	-2.6312	-3.1729	-3.0042	-2.9	-3.175	-76.163	183.041	-46.472	181.501	210.847	-8.960	164.381	119.369	199.012	203.149	196.431	24.373	145.788	169.473	117.578	176.028	0.00020893	0.00033577	0.00010333	1324.3	1.9049e-06	5.2508e-06	1368	271.66	2.9662e-06	4.0598e-06	334.33	92.651	73.125	21.342	1.7397e-06	29.616	0.00050754	0.00073962	0.0002052	1299.7	7.6838e-06	8.5169e-06	1352.5	269.49	7.8636e-06	8.3211e-06	332.77	93.41	73.915	21.505	7.6348e-06	30.103	-78.362	-27.078	-60.696	-128.330	58.086	-3.600	-128.029	-121.375	-2.008	22.124	-121.389	-114.823	-114.416	-107.191	-15.027	-108.133	-8191	255	
818.128	1	1	0	0	0.18715	0.21875	0.095825	0.26358	0.31168	0.19271	0.13513	0.10518	0.041847	0.079781	0.25105	0.20455	0.078271	0.26992	0.26385	0.15446	-2.1708	-2.8917	-2.9062	-2.7917	-3.1208	-2.9125	-2.8875	-3.1729	-2.4979	-2.9188	-3.0833	-2.5896	-2.925	-2.95	-2.8646	-3.3479	111.096	161.797	195.828	197.235	107.813	2.817	119.577	-59.529	-95.197	179.913	-135.387	-104.422	191.378	91.152	9.755	210.967	0.00019387	0.00026202	8.2847e-05	1318.8	2.0512e-06	3.861e-06	1376.4	269.8	2.5373e-06	4.0522e-06	336.27	92.452	73.039	21.265	2.772e-06	29.841	0.00049436	0.00070915	0.0002035	1298.6	7.4652e-06	8.2691e-06	1353.5	269.46	7.6562e-06	7.8761e-06	332.65	93.502	73.638	21.522	7.4012e-06	30.174	-84.473	-37.851	-52.510	-128.137	-52.830	29.250	-127.821	-121.133	4.352	5.128	-121.458	-114.646	-114.350	-107.939	19.261	-107.862	-8191	255	
818.225	1	1	0	0	0.16687	0.25096	0.12619	0.38077	0.18047	0.15606	0.16875	0.08215	0.42078	0.12158	0.19829	0.021215	0.15238	0.24855	0.091629	0.21055	-2.3479	-3.0833	-3.0333	-2.7417	-3.0812	-2.9833	-2.8583	-3.2375	-2.6729	-3	-3.1729	-2.6875	-2.8354	-2.8354	-2.6937	-3.1917	156.291	-113.927	-43.151	192.627	-91.980	11.132	110.413	167.642	147.604	67.214	201.099	15.343	52.307	206.288	-98.091	167.458	0.00018996	0.00023547	0.00014342	1314.1	4.7924e-06	3.9012e-06	1368	270.77	3.2805e-06	3.512e-06	332.74	92.257	73.08	21.2	1.8054e-06	29.503	0.00049477	0.00071463	0.00019602	1295.5	7.5126e-06	8.2406e-06	1348	269.16	7.3815e-06	7.7679e-06	331.15	93.261	73.632	21.441	7.7641e-06	30.025	-83.534	-41.127	-45.793	-128.354	-5.883	1.213	-128.024	-121.301	-2.327	13.279	-121.493	-115.112	-114.194	-107.732	-3.932	-108.184	-8191	255	
818.321	1	1	0	0	0.096184	0.28751	0.16327	0.1871	0.18945	0.16026	0.286	0.27442	0.12994	0.16203	0.11669	0.15749	0.15119	0.15404	0.21366	0.34519	-2.2042	-2.5812	-2.875	-2.9938	-3.1312	-2.9229	-2.8438	-3	-2.7354	-2.8208	-3.4667	-2.6833	-3	-2.9875	-2.4042	-3.0125	-38.038	-0.199	-2.527	132.908	-95.802	69.988	130.096	155.603	-33.006	29.446	-108.894	178.956	-67.661	138.439	-45.894	102.885	0.00018729	0.00038752	0.00010101	1315.6	3.7284e-06	4.6446e-06	1369.1	272.16	2.7672e-06	6.0308e-06	333.49	92.504	72.754	21.162	2.4471e-06	29.569	0.00049867	0.00072989	0.00019529	1294.6	7.5982e-06	8.257e-06	1348.3	269.75	7.6425e-06	8.0454e-06	331.61	93.155	73.674	21.417	7.7718e-06	30.089	-78.568	-46.152	-62.878	-128.256	-10.393	2.116	-128.159	-121.340	-0.036	-8.813	-121.266	-114.699	-114.486	-107.681	28.128	-108.104	-8191	255	
818.394	1	1	0	0	0.10695	0.13568	0.067219	0.19275	0.17217	0.43955	0.18094	0.11586	0.25924	0.25046	0.20678	0.23924	0.091568	0.16523	0.17866	0.12171	-2.5208	-2.9479	-3.2313	-2.8646	-3.0396	-3.0292	-2.825	-3.1271	-3.0729	-2.8688	-3.1771	-2.5979	-2.9229	-3.0125	-2.5771	-3.2625	183.837	42.091	-63.127	-131.334	-136.365	-78.417	68.773	113.566	97.938	200.199	174.962	107.301	178.405	56.344	114.778	-122.919	0.0001829	0.00032573	0.00010265	1313.7	1.3651e-06	4.3753e-06	1368.2	270.21	2.1307e-06	4.911e-06	332.03	92.625	72.91	21.193	3.8039e-06	29.624	0.00048807	0.00072871	0.00019752	1293	7.7391e-06	8.0608e-06	1349.4	269.11	7.3994e-06	7.9426e-06	331.58	93.305	73.691	21.506	7.46e-06	30.054	-85.742	-73.259	-43.554	-128.003	58.157	40.225	-128.038	-121.232	-29.694	40.730	-121.249	-114.860	-114.495	-107.425	6.900	-107.988	-8191	255	
818.513	1	1	0	0	0.021248	0.2048	0.11994	0.26225	0.16711	0.2977	0.3526	0.083929	0.25696	0.087843	0.13692	0.20436	0.24435	0.10487	0.10786	0.24799	-2.4979	-2.6854	-2.9271	-2.7854	-2.8646	-3.125	-2.9188	-2.9125	-2.9896	-2.7313	-3.2604	-2.8354	-2.8958	-3.1875	-2.6729	-3.1021	-1.257	-118.945	41.672	-132.983	143.240	216.654	147.412	26.266	18.149	85.391	166.720	181.354	198.297	89.692	-82.561	112.679	0.00019682	0.00035188	7.9096e-05	1312.7	1.6879e-06	4.9098e-06	1367.3	271.68	1.9552e-06	4.991e-06	334.27	93.109	73.108	21.236	2.9309e-06	29.867	0.00049722	0.00072565	0.00019382	1292.2	7.4782e-06	8.0068e-06	1346.3	269.12	7.471e-06	8.0333e-06	331.93	93.137	73.668	21.463	7.8673e-06	30.139	-85.270	-35.616	-55.904	-128.254	69.933	-8.755	-128.080	-121.362	-76.936	34.509	-121.659	-114.996	-114.420	-107.626	6.341	-107.810	-8191	255	
818.609	1	1	0	0	0.18902	0.12821	0.10668	0.13748	0.10075	0.14674	0.18694	0.15042	0.15302	0.19475	0.26831	0.10117	0.2001	0.15669	0.095236	0.25442	-2.5375	-2.5958	-3.0875	-2.7188	-2.8292	-3.1667	-2.9917	-3.0458	-3.0479	-2.5792	-3.0312	-2.8917	-2.9229	-3.2521	-2.8187	-2.9271	187.335	-68.977	175.448	149.907	96.271	156.675	182.823	-137.250	12.367	28.808	172.399	135.194	-105.800	161.423	0.922	182.230	0.00019039	0.00031674	8.9651e-05	1311.9	2.979e-06	2.7784e-06	1372.5	271.9	4.1109e-06	5.7892e-06	333.35	92.672	72.816	21.358	2.3725e-06	29.828	0.00049965	0.00073467	0.00019549	1292.2	7.7083e-06	7.7876e-06	1348.8	269.56	7.7794e-06	7.9728e-06	331.62	93.07	73.615	21.49	7.7158e-06	30.131	-90.279	-17.751	-11.956	-128.110	-0.108	39.773	-127.957	-121.337	-18.410	22.305	-121.407	-114.889	-114.590	-107.666	58.707	-107.898	-8191	255	
818.705	1	1	0	0	0.072209	0.15955	0.2835	0.034894	0.10548	0.14322	0.10931	0.062658	0.058732	0.21975	0.1267	0.11894	0.20367	0.34811	0.28113	0.23208	-2.4021	-2.5292	-2.9125	-2.9333	-2.8854	-3.1396	-2.9729	-2.8521	-2.9771	-2.4958	-3.075	-2.9458	-2.7062	-3.0958	-2.7229	-2.9167	151.865	83.589	71.442	41.887	-59.644	8.355	216.535	-37.194	-44.777	107.319	112.663	148.599	131.514	118.446	187.218	125.547	0.00021751	0.00023868	8.2909e-05	1311.2	8.2492e-07	4.0235e-06	1369.1	271.2	2.6427e-06	4.4456e-06	334.1	92.468	73.226	21.204	2.7466e-06	29.695	0.00049044	0.0007214	0.00019873	1292.9	7.5606e-06	7.9643e-06	1348.9	269.26	7.5589e-06	8.0212e-06	331.75	93.177	73.706	21.438	7.6975e-06	30.176	-84.695	-48.180	-9.472	-128.281	64.944	27.472	-128.278	-121.261	-5.270	14.560	-121.672	-114.639	-114.613	-108.005	-43.684	-107.923	-8191	255	
818.826	1	1	0	0	0.11548	0.26814	0.083936	0.26704	0.15117	0.19031	0.13392	0.40208	0.25027	0.14212	0.16971	0.043537	0.054532	0.060873	0.24791	0.20716	-2.3563	-2.6167	-2.9021	-2.9708	-2.6792	-3.1188	-3.0917	-3.0083	-3.0271	-2.5625	-3.0042	-2.9479	-2.6292	-3.1792	-2.9917	-3.0812	201.439	-30.182	-27.956	104.356	152.650	19.847	-135.676	132.884	67.659	120.243	132.116	5.646	71.625	181.674	3.700	122.012	0.00020621	0.00034899	8.2761e-05	1312.4	3.1806e-06	1.3953e-06	1362.5	271.46	3.4838e-06	2.9827e-06	333.76	91.912	73.082	21.231	4.0215e-06	29.748	0.00049262	0.00072753	0.00019467	1292.9	7.9248e-06	7.943e-06	1346.3	269.52	7.7457e-06	8.2407e-06	331.74	93.157	73.602	21.452	7.7607e-06	30.071	-81.863	-77.291	-92.158	-128.251	-55.150	49.921	-128.195	-121.072	0.024	-6.693	-121.579	-115.203	-114.464	-107.696	21.006	-107.788	-8191	255	
818.922	1	1	0	0	0.37764	0.2439	0.24032	0.208	0.11911	0.17272	0.24507	0.14167	0.12221	0.061129	0.058864	0.23405	0.090538	0.3455	0.1015	0.39109	-2.8312	-2.8167	-2.9271	-2.9542	-2.5687	-3.0771	-2.9896	-3.0083	-3.1937	-2.6458	-3.0146	-3.1854	-2.675	-3.2271	-2.8937	-2.6479	29.747	22.846	200.096	203.657	-122.117	84.892	158.232	178.918	14.270	54.884	-106.596	206.614	92.881	198.190	36.984	167.112	0.00017342	0.00033803	2.4268e-05	1313.6	3.999e-06	6.2702e-06	1372.9	271.86	2.4197e-06	2.6715e-06	332.76	92.506	73.259	21.119	3.7047e-06	29.631	0.0004991	0.00073387	0.00020774	1291.7	7.8544e-06	8.1598e-06	1347.2	269.28	7.5836e-06	8.2552e-06	331.1	93.068	73.614	21.355	7.6403e-06	30.045	-84.159	-52.001	-9.696	-128.046	-1.421	15.497	-128.103	-120.920	31.003	36.453	-121.453	-114.507	-114.298	-107.590	40.093	-107.940	-8191	255	
818.994	1	1	0	0	0.19612	0.25318	0.10874	0.13922	0.31521	0.018772	0.31925	0.063054	0.23121	0.21767	0.1711	0.21021	0.22975	0.27606	0.19568	0.15988	-2.6562	-2.7125	-2.9792	-3.2167	-2.8333	-2.9562	-2.8354	-2.6979	-3.225	-2.9938	-3.0146	-3.0021	-2.725	-2.9583	-2.6271	-2.5292	-6.132	-62.073	124.417	198.464	130.145	194.282	161.093	-61.859	135.724	-57.682	157.493	-109.368	75.179	-108.998	58.719	89.551	0.00015841	0.00021013	7.914e-05	1312	2.0049e-06	5.3045e-06	1359.2	271.42	9.194e-07	1.8857e-06	332.03	92.217	73.099	21.12	2.6628e-06	29.759	0.00048783	0.00073451	0.00020454	1291	8.0276e-06	8.291e-06	1344.4	269.24	7.5125e-06	7.9136e-06	331.12	93.029	73.619	21.432	7.8434e-06	30.12	-86.768	-33.810	-73.178	-128.199	-64.533	5.045	-127.971	-121.062	-45.619	15.099	-121.674	-115.110	-114.152	-107.503	23.255	-107.981	-8191	255	
819.114	1	1	0	0	0.28195	0.17538	0.12514	0.34442	0.26061	0.1198	0.17585	0.066664	0.18538	0.05523	0.38944	0.19181	0.028072	0.15261	0.15608	0.086107	-2.7229	-2.7396	-2.6458	-3.0354	-2.6042	-2.8771	-3.1667	-2.6854	-2.9875	-2.8396	-3.1917	-3.2542	-2.7521	-3.0938	-3.0625	-2.7313	-72.989	-59.179	89.853	178.382	-47.225	43.609	131.199	177.849	163.570	96.467	159.930	164.900	-38.673	-88.461	161.544	171.818	0.00019857	0.00038789	9.8041e-05	1315.7	1.8248e-06	5.3438e-06	1359.7	270.71	3.2699e-06	3.9876e-06	334.56	92.29	72.831	21.186	4.6852e-06	29.71	0.00048663	0.00070695	0.00019453	1290.8	7.654e-06	7.9552e-06	1344.2	268.95	7.191e-06	7.8688e-06	331.91	93.014	73.504	21.414	7.4505e-06	30.076	-82.724	-37.446	-61.205	-128.220	35.573	37.956	-128.020	-121.494	-6.033	-4.789	-121.414	-114.648	-114.331	-107.957	14.732	-108.324	-8191	255	
819.209	1	1	0	0	0.091917	0.20709	0.086258	0.12521	0.072805	0.097935	0.47572	0.023183	0.24958	0.10655	0.24704	0.19702	0.11921	0.12669	0.15055	0.1736	-2.5896	-2.7833	-2.6646	-3.0667	-2.4146	-2.9958	-3.1271	-2.7062	-2.9333	-2.85	-2.9062	-3.1479	-2.7458	-2.8583	-3.0646	-2.8438	135.372	28.480	69.174	-65.768	38.453	-100.529	170.564	195.403	199.975	65.071	159.965	149.216	144.525	-57.832	-23.637	-113.966	0.00018514	0.00035917	0.0001302	1308.5	1.5735e-06	3.9193e-06	1365.1	270.52	1.5034e-06	2.2845e-06	333.77	92.097	72.894	21.224	3.0688e-06	29.51	0.00048644	0.00073312	0.00020621	1289.4	7.5533e-06	7.9995e-06	1345	268.87	7.3983e-06	8.0805e-06	331.44	92.861	73.396	21.41	7.6037e-06	30.059	-85.741	-52.427	-55.924	-128.003	3.035	31.019	-128.049	-121.219	-23.737	28.045	-120.940	-115.138	-114.142	-107.509	4.822	-107.825	-8191	255	
819.305	1	1	0	0	0.36317	0.14604	0.46421	0.26726	0.03588	0.15066	0.1566	0.19842	0.15961	0.33001	0.06427	0.36281	0.24238	0.12147	0.070044	0.085833	-2.7021	-2.9313	-2.7417	-3.2625	-2.6042	-2.9062	-3.3063	-2.6688	-3.0854	-2.8667	-2.8771	-3.1646	-2.95	-2.9021	-3.0354	-2.7208	36.359	92.644	189.156	196.411	-71.505	174.245	-79.898	164.769	-33.918	121.616	56.568	138.990	-50.371	-79.635	34.878	9.021	0.00019519	0.00028172	0.00013618	1311	6.6022e-07	3.6755e-06	1362.2	271.25	2.3267e-06	3.2712e-06	333.55	91.838	72.838	21.088	4.2405e-06	29.534	0.00048217	0.00070754	0.00020384	1290.1	7.7693e-06	8.1459e-06	1345.6	269.19	7.5694e-06	8.0617e-06	331.62	92.867	73.438	21.383	7.5748e-06	29.962	-87.615	-67.144	-40.243	-128.064	-66.549	24.847	-127.971	-121.525	6.676	20.456	-121.108	-114.723	-114.946	-107.962	18.742	-107.779	-8191	255	
819.426	1	1	0	0	0.033938	0.19436	0.1432	0.14524	0.12602	0.27029	0.13155	0.3394	0.26695	0.20909	0.093149	0.069334	0.093439	0.21236	0.11447	0.063252	-2.4729	-2.7625	-2.7146	-3.425	-2.9437	-2.7479	-3.1208	-2.7188	-2.9479	-3.0187	-2.7625	-3.2458	-3.1271	-2.9042	-3.0833	-2.6958	-33.985	66.575	84.696	-135.439	130.390	121.573	147.123	195.431	-42.183	-60.889	160.561	-135.264	116.325	-112.626	21.469	-46.309	0.0002005	0.00024453	0.00013697	1308.5	3.2848e-06	2.0426e-06	1366.8	269.94	3.8615e-06	3.922e-06	334.64	92.137	73.059	21.177	1.5796e-06	29.479	0.00048892	0.00071356	0.00020289	1289	7.5747e-06	7.9764e-06	1345.2	268.77	7.4846e-06	8.3017e-06	331.92	92.982	73.548	21.453	7.7274e-06	30.003	-86.306	-82.346	-26.142	-128.211	42.142	27.759	-128.001	-121.013	19.822	-5.387	-121.280	-114.913	-114.253	-107.465	40.162	-108.238	-8191	255	
819.522	1	1	0	0	0.14564	0.11717	0.16776	0.14793	0.14806	0.12307	0.33618	0.025701	0.12675	0.18128	0.46767	0.19695	0.082568	0.23923	0.1166	0.27615	-2.2812	-3.0771	-2.6333	-3.3021	-2.8167	-2.7396	-3.0958	-2.7292	-2.7562	-2.7729	-2.7104	-3.1583	-2.8958	-2.6813	-3.2542	-2.8625	105.574	87.262	151.412	-127.812	49.547	-110.351	-126.579	215.854	-59.820	-15.936	166.708	129.549	210.967	-95.623	-80.245	121.593	0.00019493	0.00044899	9.0663e-05	1310.8	2.7141e-06	4.7554e-06	1367.8	271.25	2.2865e-06	4.1775e-06	333.56	92.168	73.155	21.132	3.3398e-06	29.617	0.00049197	0.00075063	0.0002061	1290.6	8.0114e-06	8.3262e-06	1347.3	268.92	7.4336e-06	8.0859e-06	330.68	92.782	73.581	21.409	7.5121e-06	30.029	-81.870	-53.337	-78.545	-128.228	30.371	0.856	-128.061	-121.371	27.347	25.751	-121.069	-114.582	-114.732	-107.601	27.733	-107.988	-8191	255	
819.593	1	1	0	0	0.13767	0.18327	0.12809	0.22658	0.11923	0.080504	0.1484	0.38085	0.024749	0.19862	0.23167	0.14774	0.27711	0.25985	0.0633	0.15141	-2.4625	-3.1375	-2.8812	-3.2188	-2.8063	-2.6583	-3.3	-2.7958	-2.825	-3.0396	-2.7604	-3.1083	-2.8104	-2.6688	-3.1958	-2.9188	-111.810	-49.955	48.566	-123.168	87.744	-87.377	205.081	146.421	131.526	-14.212	-28.419	-136.318	-113.029	-109.433	-81.550	129.130	0.00019863	0.00038881	0.0001376	1308.9	1.1524e-06	4.21e-06	1366.1	271.3	3.19e-06	1.9481e-06	333.4	91.952	72.48	21.177	4.0543e-06	29.806	0.00048807	0.00074838	0.00020673	1289.2	7.9217e-06	8.1677e-06	1345.9	269.18	7.4936e-06	8.0919e-06	331.36	92.944	73.398	21.395	7.5055e-06	30.138	-82.626	-34.608	-61.678	-128.009	21.013	39.908	-128.131	-121.290	64.386	21.849	-121.365	-114.612	-114.643	-107.393	6.145	-108.239	-8191	255	
819.714	1	1	0	0	0.20079	0.19593	0.24107	0.10991	0.16555	0.016617	0.1316	0.23	0.076299	0.14636	0.22252	0.052815	0.10908	0.23302	0.22304	0.37599	-2.1458	-2.9271	-2.5417	-3.2188	-3.0583	-2.85	-3.3	-2.8729	-2.8458	-3.1312	-2.6937	-2.9542	-3.0625	-2.7542	-3.3312	-2.8812	-84.677	75.956	-116.591	181.309	84.974	94.769	160.366	140.187	-127.965	0.432	218.818	173.233	-80.765	-87.331	-81.408	-106.205	0.00017698	0.00034738	0.00013262	1308.7	2.8073e-06	3.0714e-06	1363	269.46	1.21e-06	3.7181e-06	331.85	91.779	73.251	21.217	2.2812e-06	29.718	0.00050085	0.00072672	0.00020456	1289.6	7.7453e-06	8.0851e-06	1345.2	268.48	7.3473e-06	8.1439e-06	330.86	92.834	73.604	21.393	7.6658e-06	30.083	-83.245	-17.458	-32.348	-128.183	-6.400	-8.815	-128.084	-121.069	2.697	16.011	-121.197	-114.629	-113.973	-107.201	26.139	-108.272	-8191	255	
819.810	1	1	0	0	0.16602	0.12106	0.14259	0.1403	0.33433	0.19133	0.30428	0.30456	0.05765	0.063037	0.14435	0.11087	0.2078	0.23983	0.25953	0.18191	-2.1833	-3.0708	-2.6521	-3.0771	-3.1479	-2.6333	-3.1479	-2.9292	-2.6792	-3.2458	-3.0771	-2.9708	-3.2104	-2.5083	-2.9604	-3.1063	190.930	-24.690	37.880	-137.677	-14.062	158.830	162.505	163.113	19.218	-91.182	161.850	213.005	-75.190	-63.404	204.133	-138.025	0.00017514	0.00046798	8.72e-05	1309.5	4.8338e-06	3.8436e-06	1365.2	271.79	2.8291e-06	2.911e-06	333.54	93.026	73.162	20.981	3.7248e-06	29.659	0.00049875	0.00073629	0.00020175	1290.4	7.4985e-06	8.0438e-06	1346.2	269.12	7.5952e-06	8.1355e-06	330.93	93.217	73.517	21.34	7.3612e-06	30.033	-81.305	-37.865	-51.898	-128.143	22.320	-14.323	-128.115	-121.134	-29.302	24.973	-121.162	-114.579	-114.140	-107.733	11.625	-107.916	-8191	255	
819.906	1	1	0	0	0.19048	0.20877	0.2495	0.17415	0.092239	0.20728	0.24208	0.061548	0.23888	0.033835	0.086061	0.041715	0.19846	0.15674	0.099901	0.096637	-2.3458	-3.0458	-2.5375	-3.1042	-3.2062	-2.7562	-3.0438	-2.9625	-2.6542	-3.1771	-2.9437	-2.9521	-3.0083	-2.7333	-2.9604	-3.0292	203.336	196.466	163.089	-76.936	178.022	175.455	188.914	-117.264	178.743	130.259	-121.546	79.045	41.746	-95.207	103.767	-119.909	0.00020213	0.00026176	8.3043e-05	1315.2	3.3946e-06	1.482e-06	1367.8	271.18	1.6871e-06	2.2782e-06	334.54	91.861	73.126	20.922	4.1034e-06	29.658	0.00049393	0.00069453	0.00020401	1289.6	7.7208e-06	7.8289e-06	1346	268.76	7.6478e-06	8.0653e-06	332.11	92.909	73.61	21.296	7.7568e-06	29.985	-80.305	-48.509	-57.631	-128.175	-28.612	-34.315	-128.139	-121.173	-27.655	22.173	-121.616	-114.949	-114.456	-107.797	33.196	-108.179	-8191	255	
820.001	1	1	0	0	0.25685	0.084714	0.15242	0.27572	0.065491	0.1163	0.21157	0.3465	0.017055	0.22008	0.32807	0.14997	0.045789	0.059242	0.064002	0.13871	-2.4208	-3.1771	-2.7458	-2.925	-2.9396	-2.7229	-3.1312	-3.0438	-2.6542	-3.1542	-2.8292	-2.6875	-3.1146	-2.6229	-3.15	-3.1083	206.506	158.021	38.228	180.824	51.860	45.030	159.103	155.404	-137.453	173.522	136.100	9.159	-102.245	-36.379	88.963	-80.688	0.00020882	0.00037778	7.1167e-05	1307.3	3.5841e-06	3.3212e-06	1367.4	269.23	2.5076e-06	3.3813e-06	331.62	92.053	72.6	21.003	4.0741e-06	29.608	0.00050929	0.00070297	0.0002081	1287.6	7.7109e-06	8.0481e-06	1347.2	268.19	7.7757e-06	7.8471e-06	330.02	92.747	73.463	21.339	7.5249e-06	30.057	-81.171	-61.648	-43.949	-128.007	11.896	53.655	-128.103	-121.036	-4.834	-40.079	-121.175	-114.692	-114.467	-107.443	22.191	-107.780	-8191	255	
820.097	1	1	0	0	0.15944	0.10066	0.35714	0.077243	0.23451	0.14166	0.24637	0.42113	0.0961	0.041649	0.23145	0.05586	0.15606	0.16967	0.093809	0.079554	-2.0646	-2.7771	-2.8417	-2.9417	-3.1854	-2.6937	-3.0958	-2.975	-2.6292	-2.8042	-2.9688	-2.7417	-3.3	-2.6958	-2.8396	-3.0042	188.393	105.818	-4.493	185.482	31.419	-78.516	117.526	119.352	88.189	-41.132	155.608	210.117	200.997	198.651	206.459	-93.273	0.00018436	0.00025033	0.00014647	1311.9	1.3008e-06	3.3918e-06	1368.7	271.21	3.2552e-06	4.0518e-06	330.86	92.194	73.005	21.228	2.9103e-06	29.519	0.00049486	0.00072291	0.00020398	1290.9	7.8215e-06	8.3134e-06	1345.5	268.93	7.7378e-06	8.1863e-06	330.31	92.898	73.558	21.41	7.8462e-06	29.915	-80.978	-119.240	-38.092	-128.180	-33.189	0.684	-127.909	-121.372	-1.145	-25.314	-121.402	-114.824	-114.150	-107.672	51.682	-107.739	-8191	255	
820.217	1	1	0	0	0.076295	0.083649	0.18856	0.17377	0.24976	0.19453	0.15226	0.1515	0.10044	0.21959	0.12065	0.085661	0.23478	0.18851	0.14499	0.052306	-2.3646	-2.8063	-2.7479	-2.8542	-3.05	-2.8	-2.9604	-3.0146	-2.5021	-2.9875	-3.0458	-2.65	-3.0542	-3.0271	-2.8438	-3.1312	151.667	135.037	-8.067	208.327	-83.048	112.426	101.249	210.020	74.470	91.714	142.220	-61.009	194.458	-89.682	133.926	170.524	0.00018814	0.00029649	9.0356e-05	1314.8	4.9832e-06	3.478e-06	1365	270.26	1.9528e-06	3.2592e-06	331.83	91.667	72.796	21.216	1.9025e-06	29.69	0.00050115	0.00073483	0.00020695	1291.1	7.7208e-06	7.8696e-06	1345.2	268.89	7.512e-06	8.1445e-06	330.78	92.611	73.549	21.405	7.6215e-06	30.019	-82.978	-56.089	-80.570	-128.140	-13.354	11.044	-127.924	-121.231	21.589	45.337	-121.159	-114.987	-114.746	-107.484	32.731	-108.195	-8191	255	
820.289	1	1	0	0	0.23304	0.078328	0.22378	0.36245	0.23894	0.18247	0.24309	0.15356	0.18969	0.25163	0.27462	0.16305	0.10692	0.10645	0.19521	0.15171	-2.1708	-2.7604	-2.9875	-2.6146	-2.9604	-2.8375	-2.9729	-3.35	-2.7958	-2.9604	-3.1125	-2.6208	-2.9479	-2.8875	-2.6042	-3.0354	-80.248	201.442	-35.705	131.685	47.722	-97.016	139.616	136.999	-47.249	-103.845	176.213	186.905	-82.862	-118.911	152.032	72.660	0.00017246	0.00030146	0.00010748	1313.6	2.8245e-06	4.0007e-06	1367.2	270.14	3.6267e-06	4.6621e-06	333.19	91.785	73.067	21.095	4.7423e-06	29.712	0.00048516	0.00073532	0.00020512	1291.8	7.7912e-06	7.9291e-06	1344.8	269.13	7.6199e-06	7.9372e-06	331.13	92.711	73.444	21.336	7.6742e-06	29.998	-89.515	-82.148	-36.437	-128.111	-0.861	19.281	-127.954	-121.189	32.302	-11.722	-121.354	-114.842	-113.994	-107.405	14.464	-108.108	-8191	255	
820.385	1	1	0	0	0.060789	0.14295	0.24693	0.13588	0.17396	0.079387	0.26288	0.034098	0.03351	0.33013	0.12512	0.31668	0.30447	0.10631	0.11651	0.16971	-2.1708	-2.7104	-3.0542	-2.9437	-3.0292	-2.8229	-2.9458	-3.2333	-2.8625	-2.8417	-3.0271	-2.6333	-2.9042	-3.0646	-2.6	-2.9542	-47.489	-63.025	213.000	-5.955	-131.912	36.496	209.231	209.361	195.559	-90.934	125.467	191.873	141.985	151.192	214.697	-47.541	0.00018988	0.00016229	7.8871e-05	1311.4	3.0896e-06	1.9926e-06	1368.9	269.76	2.9353e-06	4.2752e-06	332.75	92.549	73.368	20.981	3.5649e-06	29.448	0.00051343	0.00073397	0.00020658	1290.3	7.714e-06	8.2029e-06	1347	268.76	7.6178e-06	8.1699e-06	330.73	93.069	73.552	21.339	7.4167e-06	29.95	-79.464	-43.071	-63.136	-128.230	39.976	-49.785	-127.820	-121.154	-15.560	7.099	-121.398	-114.682	-114.468	-107.670	28.004	-108.203	-8191	255	
820.506	1	1	0	0	0.18841	0.20884	0.21198	0.1181	0.18926	0.060914	0.068273	0.075318	0.19504	0.086262	0.16853	0.22421	0.33038	0.11431	0.16768	0.14548	-2.3604	-2.7521	-3.1104	-2.8271	-2.7812	-2.9875	-2.7146	-2.9771	-2.7562	-2.8979	-3.1625	-2.8479	-2.9188	-2.9938	-2.5438	-2.9854	168.962	97.908	14.474	215.721	-51.831	54.058	-31.585	208.409	188.488	5.500	172.546	193.140	151.783	110.537	-98.928	-131.922	0.00018212	0.0004095	5.7269e-05	1313.5	4.04e-06	3.9672e-06	1361.8	272.36	3.3988e-06	3.5459e-06	335.5	92.256	73.199	21.19	2.9321e-06	29.528	0.00049004	0.00072957	0.00019141	1290.3	7.8293e-06	7.9631e-06	1345	269.44	7.4157e-06	8.1022e-06	331.25	92.998	73.493	21.4	7.9322e-06	30.03	-77.601	-68.994	-62.461	-128.150	6.362	-3.636	-127.993	-121.393	-26.131	-24.306	-121.194	-114.674	-114.494	-107.842	12.435	-107.724	-8191	255	
820.602	1	1	0	0	0.0533	0.37939	0.16296	0.25072	0.26839	0.20827	0.1331	0.24295	0.1174	0.34703	0.22018	0.13678	0.26014	0.40173	0.096087	0.22696	-2.6688	-2.7062	-3.1771	-2.6458	-2.8729	-2.9542	-2.7771	-3.1104	-2.9396	-2.7833	-3.15	-2.5458	-2.6833	-2.9875	-2.7417	-3.0042	-67.664	80.740	78.208	131.614	-7.128	165.173	171.967	150.686	-35.711	77.702	215.178	190.441	206.463	155.227	92.926	178.421	0.00021087	0.00017356	5.7599e-05	1307.9	2.4123e-06	5.0439e-06	1367.5	269.76	2.3026e-06	2.654e-06	331.38	91.656	73.026	21.058	2.7361e-06	29.785	0.00049053	0.00073011	0.00019342	1289.6	7.5935e-06	8.1914e-06	1345.6	269.04	7.813e-06	8.0158e-06	331.1	92.839	73.483	21.362	7.6142e-06	30.031	-84.948	-69.844	-61.067	-128.170	-9.095	56.506	-128.211	-121.157	-15.075	71.795	-121.271	-114.721	-114.392	-107.694	-25.100	-107.896	-8191	255	
820.698	1	1	0	0	0.077279	0.12064	0.21642	0.48941	0.07422	0.21971	0.26602	0.21075	0.096431	0.27808	0.095508	0.26877	0.19219	0.0020488	0.023401	0.23336	-2.5458	-2.6688	-3.0833	-2.8563	-2.7708	-2.9	-2.8771	-2.9958	-2.9042	-2.7562	-3.2625	-3.0812	-2.8604	-3.0396	-2.8125	-2.8625	-130.430	49.475	134.574	210.090	103.463	-1.440	160.220	140.510	14.621	122.008	-74.175	-99.871	15.313	180.000	30.963	0.212	0.00018563	0.00029446	0.00010345	1310.7	2.3053e-06	2.5367e-06	1362.8	271.05	3.3336e-06	3.431e-06	333.17	92.228	72.963	21.185	4.2317e-06	29.524	0.00049671	0.00070168	0.00019471	1289.9	7.6718e-06	7.8453e-06	1345.8	269.08	7.6525e-06	8.2316e-06	331.14	92.915	73.524	21.38	7.5571e-06	30.008	-85.960	-8.787	-71.626	-128.067	5.421	88.328	-128.171	-121.073	3.801	15.539	-121.291	-114.702	-114.240	-107.877	1.978	-108.147	-8191	255	
820.794	1	1	0	0	0.14328	0.034233	0.21802	0.094557	0.14356	0.39433	0.43501	0.18599	0.057924	0.1109	0.1065	0.11536	0.17287	0.13657	0.10738	0.054921	-2.5104	-2.5229	-2.8812	-2.6646	-2.5917	-3.1833	-2.7521	-2.8312	-2.95	-2.7292	-3.0875	-3.0667	-2.9125	-3.2792	-2.7646	-2.9042	18.903	22.661	-107.081	188.535	194.607	-85.209	207.454	-119.116	51.430	-60.226	-63.732	-132.875	-116.890	89.414	158.306	148.141	0.0001805	0.00014697	7.5136e-05	1313.3	3.7831e-06	4.5755e-06	1363.4	270.98	2.763e-06	3.0114e-06	332.78	92.575	73.141	21.264	5.361e-06	29.707	0.00050722	0.00071742	0.00019769	1290.1	7.7015e-06	7.9188e-06	1345.5	269.3	7.4331e-06	8.0043e-06	330.94	92.889	73.395	21.368	7.814e-06	29.942	-81.511	-83.163	-31.780	-128.163	-3.625	34.348	-127.957	-121.226	7.562	9.208	-121.455	-114.828	-114.228	-107.669	11.574	-108.242	-8191	255	
820.890	1	1	0	0	0.18866	0.17109	0.26444	0.23244	0.10593	0.10033	0.2653	0.20375	0.1528	0.18717	0.037368	0.16992	0.15219	0.27438	0.15052	0.16457	-2.4813	-2.6167	-2.8563	-3.0187	-2.6937	-3.1333	-3.1021	-2.95	-3.0458	-2.6125	-3.1437	-3.0667	-2.6729	-3.075	-2.6583	-2.9333	105.156	-59.769	219.951	121.103	-36.869	60.833	-132.533	179.738	211.069	50.485	180.531	195.626	121.416	156.639	-15.833	90.616	0.0001901	0.00028311	0.00010236	1307.5	3.1782e-06	5.0686e-06	1362.6	270.66	2.5824e-06	5.6404e-06	332.2	92.823	73.189	21.038	2.6075e-06	29.498	0.00049355	0.00071345	0.00020099	1289.2	7.5643e-06	8.2181e-06	1345.7	269.01	7.7836e-06	8.0387e-06	331.17	92.974	73.507	21.358	7.7424e-06	30.01	-74.125	-18.945	-12.845	-128.057	-2.349	19.431	-127.903	-121.000	5.798	14.985	-121.037	-115.119	-114.064	-107.705	10.495	-107.727	-8191	255	
820.987	1	1	0	0	0.14934	0.20304	0.094301	0.099189	0.10054	0.17394	0.13142	0.27652	0.07534	0.16469	0.15195	0.18615	0.25514	0.14362	0.18989	0.095736	-2.7833	-2.5979	-2.8688	-3.3396	-2.8063	-3.1125	-3.0083	-2.8896	-3.0542	-2.6854	-2.9062	-2.9125	-2.4833	-2.9542	-2.6833	-2.6729	-125.324	89.334	-126.027	106.320	47.787	-23.285	115.868	-119.885	168.389	-63.899	-95.731	83.160	-117.903	211.206	-38.919	109.685	0.00019463	0.00031137	6.5108e-05	1312.4	2.4706e-06	3.0757e-06	1361.1	269.63	2.5735e-06	2.2157e-06	334.36	92.134	72.791	21.305	3.2585e-06	29.723	0.00048938	0.00071076	0.00019146	1290.5	7.6556e-06	7.8131e-06	1343.3	268.5	7.592e-06	7.8767e-06	331.41	92.852	73.431	21.4	7.708e-06	30.005	-78.929	-28.685	-4.537	-128.253	17.524	-18.126	-127.874	-121.099	17.898	9.198	-121.352	-114.843	-114.227	-108.148	45.918	-107.881	-8191	255	
821.107	1	1	0	0	0.23272	0.069848	0.19727	0.023714	0.20832	0.062104	0.32254	0.074649	0.19712	0.13784	0.37256	0.15607	0.34771	0.14112	0.12798	0.14984	-2.4938	-2.5687	-2.8479	-3.3458	-2.6771	-3.1458	-3.2167	-2.7771	-2.9021	-2.5708	-2.8146	-3.0417	-2.8208	-3.0125	-2.8854	-2.8458	82.217	140.975	-60.157	-118.593	54.165	-34.314	163.202	74.869	132.435	203.839	-135.090	154.784	68.661	160.248	-137.704	179.841	0.00020688	0.00040905	7.7481e-05	1308	2.1218e-06	3.1183e-06	1360.4	271.3	2.0077e-06	3.1984e-06	331.1	92.561	73.169	21.1	2.0322e-06	29.578	0.00049238	0.00074112	0.0002001	1289	7.5685e-06	7.9364e-06	1344	269.24	7.481e-06	8.0012e-06	330.8	92.932	73.56	21.355	7.5643e-06	29.942	-78.505	-31.089	-23.782	-128.155	11.187	-6.753	-128.059	-121.141	32.865	-9.554	-121.123	-114.521	-114.450	-107.401	-11.615	-107.816	-8191	255	
821.202	1	1	0	0	0.19551	0.050042	0.25145	0.10401	0.13019	0.10571	0.20462	0.23266	0.088759	0.093292	0.23384	0.20045	0.29164	0.13503	0.32538	0.14991	-2.8229	-2.7458	-2.8854	-3.1625	-2.65	-3.1375	-3.0021	-2.8521	-2.9375	-2.7792	-2.8604	-3.1604	-2.8896	-3.0312	-2.9604	-2.6917	92.231	45.338	81.903	8.629	-85.863	40.320	205.349	168.545	85.036	135.451	216.018	-121.600	162.892	-85.285	64.886	172.221	0.00019492	0.00035252	0.00010862	1310.9	1.6892e-06	5.1108e-06	1361.9	270.45	2.8546e-06	4.5891e-06	332.01	92.227	72.6	21.331	2.2819e-06	29.629	0.00047724	0.00071608	0.00019889	1288.7	7.8257e-06	8.1471e-06	1345.8	269.03	7.4925e-06	8.1482e-06	331.48	92.864	73.362	21.441	7.88e-06	29.997	-79.835	-29.561	-68.087	-128.100	4.381	-19.602	-128.068	-121.365	11.445	29.137	-121.322	-114.945	-114.253	-107.398	6.684	-108.188	-8191	255	
821.298	1	1	0	0	0.095673	0.16523	0.037791	0.19782	0.29099	0.025969	0.31208	0.16093	0.20679	0.1586	0.095366	0.0591	0.42411	0.17468	0.057865	0.15503	-2.6833	-2.7667	-2.9479	-3.2583	-2.4938	-2.7646	-3.1458	-2.8792	-3.0271	-2.9271	-2.7708	-3.0271	-2.6917	-2.9375	-3.1688	-2.8479	161.942	-81.586	-46.003	-128.089	140.496	-44.638	152.002	170.032	-8.261	162.762	-105.966	77.751	83.174	213.482	27.539	-101.909	0.000193	0.0002837	6.8226e-05	1312.1	2.9917e-06	4.7887e-06	1366.9	270.87	1.7714e-06	3.0603e-06	332.18	92.645	73.075	21.178	2.4157e-06	29.679	0.0004951	0.00073274	0.00020239	1288.5	7.6478e-06	8.025e-06	1343.9	268.93	7.1831e-06	8.0931e-06	330.63	92.992	73.644	21.334	7.5904e-06	30	-83.225	-47.775	-71.891	-128.181	32.581	25.141	-128.021	-121.382	-51.902	-3.499	-121.312	-114.794	-114.403	-107.609	6.692	-108.080	-8191	255	
821.394	1	1	0	0	0.057381	0.18385	0.13521	0.17281	0.26717	0.18762	0.16125	0.18398	0.052895	0.21706	0.25204	0.10667	0.10489	0.25159	0.13059	0.12361	-2.6708	-2.9979	-2.7542	-3.3833	-2.9021	-2.7458	-3.3271	-2.5042	-2.9583	-3.1833	-2.8917	-3.2542	-3.05	-2.8812	-3.2313	-2.6917	63.077	22.202	181.169	176.049	159.365	70.119	124.738	179.238	129.701	13.494	182.991	145.987	-73.428	200.621	117.838	-3.198	0.00020348	0.00047249	9.0325e-05	1312.6	2.3992e-06	4.5184e-06	1361.4	270.01	3.7082e-06	3.9066e-06	333.22	92.622	73.041	21.167	4.9761e-06	29.706	0.00047593	0.00071485	0.00019981	1289.1	7.8455e-06	8.0469e-06	1343.5	268.88	7.6904e-06	7.9922e-06	330.98	93.1	73.573	21.406	7.7285e-06	30	-83.446	-37.017	-24.544	-128.123	8.716	1.565	-127.626	-121.244	14.557	-11.382	-120.947	-114.847	-114.149	-108.001	38.826	-108.113	-8191	255	
821.515	1	1	0	0	0.35712	0.13817	0.14734	0.16148	0.20604	0.27878	0.31382	0.20069	0.044741	0.13789	0.12477	0.26471	0.10069	0.17743	0.14947	0.24429	-2.5375	-2.8708	-2.4562	-3.2125	-2.6063	-2.9708	-3.3375	-2.6792	-2.75	-2.9917	-2.4979	-3.2271	-2.7604	-2.9375	-3.2542	-2.6458	-4.061	-77.128	200.316	161.573	145.772	-78.607	179.841	151.286	19.372	-134.618	95.262	151.608	-138.236	-92.909	147.969	71.439	0.00021022	0.00041823	8.3828e-05	1314	1.8236e-06	2.3279e-06	1368.2	271.08	4.6982e-06	4.5111e-06	333.28	92.104	72.999	21.102	1.7614e-06	29.773	0.00049453	0.00069631	0.0001974	1290.5	7.6592e-06	8.3147e-06	1346.3	269.34	7.7709e-06	8.1705e-06	331.64	92.777	73.505	21.41	7.5549e-06	30.096	-81.913	-40.124	-92.582	-128.270	50.612	34.278	-128.094	-121.252	42.187	-18.378	-120.877	-114.712	-114.419	-107.737	78.383	-107.865	-8191	255	
821.585	1	1	0	0	0.041425	0.15737	0.25079	0.15499	0.16275	0.073938	0.19603	0.14282	0.024549	0.15284	0.1426	0.33276	0.18511	0.2635	0.18412	0.052429	-2.5	-2.8604	-2.4083	-3.1542	-2.6	-2.7396	-3.1708	-2.8271	-3.0271	-3.0292	-2.6896	-3.2042	-2.9854	-2.7333	-3.1708	-3.1292	173.865	181.221	-77.193	144.469	-19.419	46.481	157.280	-120.273	195.513	-45.172	181.359	-130.315	-21.925	206.587	61.352	-81.241	0.00019417	0.00039338	5.2652e-05	1311.9	3.7558e-06	4.0836e-06	1363	270.18	2.6989e-06	3.8741e-06	334.91	92.165	73.205	21.281	4.1826e-06	29.592	0.00047364	0.00071737	0.00020989	1290.9	7.953e-06	7.8046e-06	1343.8	269.2	7.5557e-06	7.9734e-06	331.66	92.882	73.661	21.461	7.5366e-06	30.02	-84.685	-57.467	-66.583	-128.106	22.575	16.880	-128.148	-121.123	-10.377	-7.237	-121.513	-114.934	-114.684	-107.594	29.533	-107.966	-8191	255	
821.681	1	1	0	0	0.38901	0.201	0.35618	0.38284	0.18859	0.13616	0.062264	0.2473	0.055665	0.10191	0.17768	0.32597	0.24472	0.092644	0.12171	0.17352	-2.6021	-3.1333	-2.6958	-3.1917	-2.9562	-2.5875	-3.0646	-2.8917	-2.8125	-3.1188	-2.7396	-2.9688	-2.9479	-2.6167	-2.8396	-2.5646	-116.742	211.633	191.874	150.289	56.011	150.898	158.104	118.699	175.619	92.641	188.241	185.165	112.010	-113.385	111.137	213.064	0.00018969	0.00021592	0.00010763	1315.9	3.9458e-06	1.879e-06	1364.5	270.68	3.4187e-06	3.6167e-06	332.39	91.94	73.976	21.119	2.576e-06	29.599	0.00049766	0.00071334	0.00020484	1293	7.6921e-06	8.2114e-06	1347.3	269.52	8.0309e-06	8.1318e-06	331.65	92.966	73.71	21.383	7.8501e-06	30.038	-75.859	-78.200	-48.758	-128.054	44.531	42.250	-128.112	-121.031	-7.166	-17.983	-121.336	-115.167	-114.684	-107.801	2.305	-108.053	-8191	255	
821.777	1	1	0	0	0.094794	0.063138	0.24896	0.29724	0.28746	0.14725	0.20523	0.25825	0.041358	0.1043	0.29353	0.13123	0.16027	0.48438	0.087355	0.14582	-2.1542	-3.0104	-2.725	-3.1125	-3.1042	-2.6167	-3.1063	-2.8688	-2.7875	-3.0479	-2.725	-2.9562	-2.9292	-2.875	-3.0708	-2.9437	106.959	20.166	58.000	191.712	98.936	22.151	139.702	193.616	-2.843	54.191	183.868	211.384	59.680	109.637	-4.163	-8.129	0.00018918	0.00020839	3.5289e-05	1311.6	2.9102e-06	4.3391e-06	1365	270.35	3.0013e-06	5.0964e-06	333.79	92.747	72.534	21.093	1.7229e-06	29.467	0.00048906	0.00074698	0.00020555	1291	7.9467e-06	8.4974e-06	1347.1	269.12	7.552e-06	8.182e-06	331.94	93.133	73.545	21.445	7.5765e-06	29.956	-82.604	-61.776	-46.256	-128.090	30.425	-30.106	-127.983	-121.344	5.063	22.559	-121.189	-114.804	-114.534	-107.414	27.386	-108.186	-8191	255	
821.897	1	1	0	0	0.18214	0.20125	0.17334	0.30218	0.038563	0.10547	0.14557	0.12172	0.096766	0.069987	0.2825	0.26677	0.20276	0.11205	0.088084	0.2726	-2.2521	-2.8833	-2.6083	-2.8833	-3	-2.6083	-3.0396	-3.0125	-2.7062	-3.2125	-2.7979	-3.1792	-3.1188	-2.7812	-2.9146	-2.9	97.402	48.766	-37.358	215.452	57.408	-82.094	151.488	-39.826	108.911	-57.966	104.057	-125.840	189.766	-57.055	-11.157	110.434	0.00019433	0.00042202	9.673e-05	1312.6	3.751e-06	4.6234e-06	1374.5	271.59	3.1108e-06	2.5229e-06	334.5	92.376	72.782	21.139	3.5341e-06	29.41	0.00051351	0.00072344	0.00020271	1292.6	7.5925e-06	8.2363e-06	1349.4	269.82	7.6878e-06	8.1899e-06	332.43	92.861	73.583	21.392	7.9006e-06	30.022	-78.170	-52.450	-30.163	-128.093	47.262	-13.724	-127.990	-121.036	11.356	12.550	-121.224	-114.685	-114.414	-107.460	18.666	-107.965	-8191	255	
821.994	1	1	0	0	0.26824	0.13478	0.062213	0.1632	0.12825	0.18503	0.059329	0.16091	0.20878	0.15282	0.12209	0.13272	0.26705	0.18332	0.27003	0.10496	-2.3708	-3.1542	-2.5604	-2.7979	-2.7729	-2.6229	-3.0625	-2.975	-2.625	-3.2167	-2.8583	-2.9021	-3.1396	-2.8771	-2.9396	-3.0271	-41.838	-114.152	51.822	180.585	-16.275	18.742	153.752	-6.679	194.704	-129.412	211.186	-123.288	116.459	-51.373	-124.536	19.570	0.00018742	0.00064331	7.7339e-05	1312	3.1117e-06	5.6435e-06	1368.1	270.48	5.6544e-06	2.5397e-06	332.87	92.386	72.839	21.123	2.8595e-06	29.634	0.0004917	0.00072403	0.00019709	1291.6	7.6613e-06	8.1544e-06	1347	269.39	7.6694e-06	7.812e-06	331.41	93.032	73.527	21.397	7.7591e-06	29.986	-87.845	-43.298	-74.957	-128.053	-20.276	7.607	-128.102	-121.063	8.789	-15.201	-121.403	-115.216	-114.335	-107.703	13.783	-108.214	-8191	255	
822.090	1	1	0	0	0.29964	0.20612	0.35629	0.1572	0.19148	0.014543	0.24504	0.38405	0.25131	0.088898	0.17026	0.21358	0.16737	0.050086	0.17536	0.19387	-2.3312	-3.0333	-3.0854	-3.0938	-3.1667	-2.6688	-3.2083	-3.0438	-2.7792	-3.0938	-2.9271	-2.8333	-3.3146	-2.9229	-3.0021	-2.975	53.563	113.647	-31.466	139.098	177.572	4.987	195.096	139.194	-97.131	-25.544	163.363	113.515	-111.680	99.292	148.526	-93.749	0.00018203	0.00016419	0.00010402	1316.6	3.312e-06	4.497e-06	1366.5	272.45	3.3304e-06	2.3228e-06	333.95	92.257	73.74	20.976	5.0245e-06	29.475	0.00049619	0.00072387	0.00020227	1292.9	7.69e-06	8.1507e-06	1347.8	269.9	7.9151e-06	7.7086e-06	332.28	93.132	73.771	21.373	7.7446e-06	29.997	-83.230	-7.848	-38.608	-128.092	-21.234	38.987	-127.979	-121.294	22.444	-62.024	-121.089	-114.661	-114.259	-107.765	-7.872	-108.036	-8191	255	
822.186	1	1	0	0	0.19376	0.3335	0.19404	0.28427	0.18533	0.099467	0.18166	0.17223	0.1836	0.21577	0.18644	0.1913	0.2285	0.085249	0.18508	0.1244	-2.2938	-3.1	-2.9542	-2.9792	-3.225	-2.7854	-3.225	-3.1813	-2.8229	-3.0146	-3.2208	-2.8417	-3.1542	-2.9208	-3.0292	-3.2667	-135.709	-18.085	-50.280	218.567	108.645	-114.039	150.647	-127.002	-4.239	36.954	202.371	182.701	217.550	153.050	-131.612	181.735	0.0002001	0.0003926	8.6451e-05	1317.6	1.7058e-06	5.8211e-06	1368.4	271.62	3.0222e-06	2.261e-06	335.66	92.515	73.25	21.259	2.701e-06	29.657	0.00050624	0.00071544	0.00019555	1295.6	7.7432e-06	8.6395e-06	1348	269.79	7.8457e-06	8.3289e-06	332.05	93.006	73.694	21.475	7.6625e-06	30.005	-85.184	-83.510	-52.108	-128.064	36.944	5.841	-128.071	-121.239	2.759	16.408	-121.505	-114.817	-114.835	-107.301	3.088	-108.114	-8191	255	
822.282	1	1	0	0	0.23998	0.2458	0.14066	0.41509	0.04726	0.047447	0.28954	0.23421	0.12832	0.071433	0.042954	0.26618	0.23986	0.11893	0.14475	0.11826	-2.2812	-2.9729	-2.8688	-2.7417	-3.1125	-2.8604	-2.8479	-3.1271	-2.5854	-2.875	-2.9604	-2.8271	-3.0312	-2.9562	-2.8792	-3.2583	127.499	-128.979	133.704	194.598	5.086	-29.572	193.201	151.623	83.713	-51.238	-94.136	-52.348	-125.864	3.502	-85.525	6.686	0.00020902	0.0003579	0.00014957	1316.3	3.1228e-06	3.9845e-06	1364.2	270.92	2.7243e-06	2.1212e-06	333.74	92.498	73.271	21.355	2.7474e-06	29.813	0.00051043	0.00070904	0.00021147	1293.6	7.9441e-06	8.458e-06	1347.9	269.7	7.4604e-06	8.0115e-06	332.07	93.234	73.646	21.494	7.718e-06	30.059	-79.806	-28.599	-42.677	-128.019	-7.695	9.616	-127.840	-121.165	11.023	35.658	-121.285	-114.744	-114.359	-107.748	-5.484	-107.883	-8191	255	
822.378	1	1	0	0	0.088444	0.018947	0.28519	0.37396	0.05426	0.13597	0.14964	0.15984	0.25641	0.23537	0.088181	0.15415	0.12515	0.2409	0.092302	0.29148	-2.5062	-3.1125	-2.9917	-2.9729	-2.825	-2.7854	-2.9146	-3.4583	-2.8458	-3.0729	-3.225	-2.7042	-2.9354	-3.0375	-2.7562	-3.1813	-32.082	175.992	158.556	116.872	-55.972	58.675	177.762	-124.544	-83.309	9.353	44.799	29.445	195.842	112.320	68.082	-133.481	0.00019731	0.00033895	8.7026e-05	1313.8	2.3344e-06	3.009e-06	1369.9	272.29	2.8683e-06	6.5289e-06	336.7	92.717	72.977	21.149	4.1774e-06	29.698	0.0005076	0.00074397	0.00020702	1293.2	7.8612e-06	8.1562e-06	1349.7	270.05	7.8104e-06	7.896e-06	332.99	93.311	73.662	21.448	7.8362e-06	30.08	-84.146	-13.235	-50.586	-128.097	39.324	-14.427	-128.101	-121.077	27.941	17.863	-121.244	-114.779	-114.258	-107.737	-8.821	-107.983	-8191	255	
822.474	1	1	0	0	0.098183	0.14101	0.043693	0.11079	0.064448	0.20513	0.15139	0.19405	0.25041	0.19488	0.31727	0.23915	0.22228	0.091124	0.16108	0.1776	-2.4479	-2.9125	-2.9458	-2.7792	-2.9188	-3.1042	-2.9479	-3.1729	-2.8979	-2.9479	-3.1354	-2.7708	-2.9354	-3.0312	-2.4562	-3.0208	167.145	-136.141	30.936	209.437	16.816	-4.445	199.078	157.195	46.145	-114.880	147.743	-114.666	-58.017	220.531	-64.347	155.342	0.00021775	0.00025513	5.2482e-05	1317.9	2.0533e-06	1.9884e-06	1369.4	271.4	3.2325e-06	4.5762e-06	334.6	92.897	73.476	21.133	2.0832e-06	29.654	0.00049916	0.00073543	0.00020636	1294.8	7.5111e-06	8.3863e-06	1349	270.17	7.652e-06	8.0291e-06	332.4	93.281	73.608	21.39	7.9538e-06	29.987	-81.706	-22.626	-59.411	-128.216	23.157	-43.661	-128.153	-121.005	20.175	1.369	-121.450	-115.107	-114.330	-107.508	9.038	-107.953	-8191	255	
822.593	1	1	0	0	0.1017	0.054238	0.17879	0.33875	0.23113	0.20378	0.15778	0.23356	0.11286	0.18479	0.02984	0.14151	0.25147	0.25659	0.080473	0.13329	-2.0708	-2.8833	-3.2146	-2.8667	-2.8854	-3.2458	-2.9979	-3.1521	-3.0687	-2.8458	-3.2354	-2.8646	-2.8937	-3.0479	-2.7271	-3.0729	194.446	-11.628	-75.151	173.612	126.020	34.919	123.845	150.570	-116.833	-34.462	5.251	-124.756	-116.741	88.230	-41.579	183.898	0.00017086	0.0004146	0.00010743	1320.4	3.1618e-06	3.7306e-06	1369.3	271.75	3.5135e-06	2.0585e-06	333.8	92.681	72.857	21.143	2.0875e-06	29.5	0.00049826	0.00075606	0.00019845	1294.8	7.8147e-06	8.2327e-06	1348.3	269.72	7.5531e-06	8.2788e-06	332.13	93.252	73.656	21.417	7.9744e-06	29.993	-92.749	-24.793	-43.558	-128.220	-11.650	26.805	-128.078	-121.481	17.352	2.119	-121.540	-114.772	-114.656	-107.585	54.732	-107.630	-8191	255	
822.689	1	1	0	0	0.3526	0.075019	0.042532	0.14539	0.40156	0.31489	0.36142	0.31959	0.13843	0.046367	0.20297	0.17959	0.36574	0.073538	0.22009	0.12893	-2.4062	-2.4562	-2.9958	-2.8083	-2.7958	-2.9646	-2.775	-2.7729	-2.725	-2.8667	-3.2667	-2.7333	-2.95	-3.2208	-2.6875	-3.05	-38.211	-71.603	-97.554	-65.225	-18.347	142.829	110.679	138.035	-26.473	189.397	66.340	-118.920	-117.029	-20.964	187.817	-9.040	0.00019307	0.00042508	0.00016319	1314.3	1.8855e-06	3.9416e-06	1366.6	271.27	2.042e-06	3.4699e-06	334.87	92.475	73.106	21.201	4.6821e-06	29.669	0.00050262	0.00073526	0.00020731	1292.4	7.8272e-06	8.3614e-06	1347.3	269.65	7.6962e-06	8.2673e-06	332.67	93.065	73.545	21.387	8.0315e-06	30.01	-89.338	-66.045	-39.572	-128.097	4.705	12.799	-128.005	-121.006	-10.128	24.570	-121.334	-114.653	-114.182	-107.450	-7.259	-107.895	-8191	255	
822.786	1	1	0	0	0.24565	0.16511	0.31197	0.20826	0.24683	0.1414	0.22219	0.32251	0.078023	0.041781	0.17072	0.094751	0.15262	0.26525	0.12648	0.18685	-2.4813	-2.6854	-2.7021	-2.9521	-2.7167	-3.2542	-3.1354	-3.2292	-3.25	-2.6042	-3.2917	-2.9458	-2.8688	-3.0521	-2.7625	-2.9271	147.738	71.515	119.992	128.220	-33.796	72.120	119.977	-37.137	-29.040	39.606	215.144	-103.553	-59.507	-64.446	172.219	-138.023	0.00017548	0.00036966	8.803e-05	1311.4	2.4451e-06	3.6837e-06	1366	271.62	1.2261e-06	4.4939e-06	332.54	92.467	72.864	21.205	2.8229e-06	29.547	0.00051021	0.00075665	0.00020578	1290.6	7.7897e-06	8.1197e-06	1345.6	269.87	7.6857e-06	8.2745e-06	331.63	93.058	73.433	21.371	7.5349e-06	29.974	-83.559	-24.084	-73.307	-127.930	-3.101	56.741	-127.866	-121.482	14.413	32.934	-121.496	-114.731	-114.324	-107.456	28.471	-107.864	-8191	255	
822.882	1	1	0	0	0.093236	0.23015	0.15702	0.19964	0.27988	0.11162	0.23372	0.075786	0.20563	0.27325	0.046416	0.11461	0.18921	0.01816	0.21803	0.12052	-2.5875	-2.5604	-3.2562	-3.1854	-2.8146	-3.2042	-2.9062	-2.9271	-3.1292	-2.8104	-3.2	-2.8583	-2.6875	-2.9417	-2.475	-2.7771	81.399	115.227	204.565	206.017	-45.458	137.039	164.063	-87.914	218.932	-94.559	210.221	35.835	-7.313	74.584	123.460	76.622	0.0001808	0.00032891	0.00014612	1309.9	3.9034e-06	3.8887e-06	1361.4	270.7	2.5878e-06	4.9044e-06	331.79	91.456	73.049	21.145	4.566e-06	29.498	0.00048761	0.00074128	0.00019413	1287.7	7.8137e-06	8.1003e-06	1342.6	268.8	7.5194e-06	8.0254e-06	330.78	92.611	73.4	21.328	7.9499e-06	29.929	-84.673	-50.173	-51.204	-128.265	29.257	7.418	-128.008	-121.183	-2.109	16.095	-121.219	-114.873	-114.470	-107.350	2.541	-107.932	-8191	255	
822.978	1	1	0	0	0.18322	0.038029	0.25845	0.19836	0.148	0.24865	0.23149	0.12469	0.13229	0.055504	0.090807	0.16731	0.10922	0.25839	0.080567	0.15074	-2.5479	-2.6583	-3.1854	-3.1625	-2.7083	-3.0438	-3.1063	-3.1104	-3.0458	-2.8458	-2.9583	-3.0292	-2.5625	-3.375	-2.9354	-2.9146	-100.844	51.128	167.004	124.866	-61.353	-24.221	202.472	201.680	214.256	9.173	108.768	154.509	-91.166	-87.347	35.734	-82.089	0.0002092	0.00025948	0.00011583	1307	2.2513e-06	5.2657e-06	1361.9	270.02	2.2259e-06	1.3461e-06	331.95	91.816	72.916	21.199	3.3152e-06	29.454	0.00049823	0.00071705	0.00020762	1287.3	7.7709e-06	8.297e-06	1341.8	268.42	7.3862e-06	8.3035e-06	331.19	92.572	73.414	21.415	7.7002e-06	29.914	-84.562	-33.608	-20.704	-128.053	16.440	-18.667	-128.161	-121.213	41.739	38.536	-121.147	-114.743	-114.214	-107.385	-7.549	-107.940	-8191	255	
823.074	1	1	0	0	0.24597	0.11974	0.23954	0.28109	0.24981	0.25634	0.37735	0.025706	0.15285	0.19777	0.26053	0.22422	0.29122	0.13071	0.1242	0.16372	-2.6333	-2.7396	-2.7729	-3.125	-2.8917	-3.1958	-3.0229	-2.825	-3.1917	-2.7167	-3.1479	-3.1125	-2.5167	-2.9479	-2.8458	-2.9	87.460	-69.441	32.077	127.690	202.017	170.542	203.264	21.640	51.926	0.297	201.303	73.113	165.845	170.610	153.233	-125.154	0.000208	0.00023289	7.8436e-05	1308.3	2.6268e-06	4.351e-06	1358.2	270.55	2.065e-06	4.6011e-06	332.72	91.949	72.017	20.929	2.1046e-06	29.573	0.00049747	0.00073043	0.00019614	1286.3	7.4834e-06	8.0202e-06	1339.2	268.56	7.291e-06	8.0049e-06	330.66	92.626	73.108	21.239	7.2025e-06	29.794	-89.772	-30.969	-47.698	-128.184	-4.591	7.036	-127.927	-120.921	-19.679	21.184	-121.447	-115.025	-114.245	-107.800	-17.759	-108.033	-8191	255	
823.195	1	1	0	0	0.13352	0.10591	0.30583	0.20757	0.062581	0.080597	0.18822	0.12987	0.071197	0.049848	0.078116	0.043983	0.18492	0.24652	0.30143	0.14206	-2.8854	-2.7292	-3.0062	-3.2708	-2.5812	-3.1521	-3.0479	-2.9083	-3.0271	-2.6604	-2.925	-2.8812	-2.8396	-3.1458	-2.7438	-3.1417	-72.274	168.086	-35.237	97.630	156.814	196.713	206.980	-126.179	208.005	90.418	130.789	88.237	-99.894	208.410	136.398	169.483	0.00021307	0.00034415	0.00015181	1302.4	1.7836e-06	4.3992e-06	1357	270.07	2.2931e-06	2.7274e-06	330.28	91.884	72.272	20.947	2.04e-06	29.424	0.00047691	0.00071388	0.00018955	1278.4	7.6123e-06	7.7809e-06	1333.8	267.63	7.2115e-06	7.7848e-06	329.72	92.563	72.914	21.199	7.5515e-06	29.865	-82.247	-35.863	-44.391	-128.067	12.056	45.793	-128.061	-121.297	6.978	52.966	-121.288	-114.870	-114.088	-107.586	-4.341	-108.045	-8191	255	
823.291	1	1	0	0	0.14906	0.018028	0.0067333	0.50684	0.11061	0.052484	0.49542	0.21379	0.080316	0.10881	0.28161	0.13779	0.064328	0.25968	0.17155	0.21068	-2.8146	-2.5708	-2.825	-3.2042	-2.8354	-2.9896	-3.0354	-2.5542	-2.9813	-2.8417	-3.0979	-3.0187	-2.4854	-2.8958	-3.0333	-2.8688	7.403	152.472	-11.645	172.014	-70.534	24.273	156.357	103.265	109.657	-66.133	167.185	-122.719	-25.904	17.805	-66.129	191.583	0.00021471	0.00046783	9.2335e-05	1297.4	2.9009e-06	2.8716e-06	1351.2	270.14	2.0874e-06	4.1963e-06	332.01	91.887	72.369	20.847	2.4968e-06	29.386	0.0004939	0.00074026	0.00019074	1276.5	7.5627e-06	7.9497e-06	1334	267.26	7.6388e-06	7.9039e-06	329.64	92.356	73.143	21.208	7.637e-06	29.813	-73.817	-30.288	-74.551	-128.282	26.058	15.647	-127.786	-121.020	-13.370	5.840	-121.083	-114.940	-114.137	-107.386	15.765	-107.923	-8191	255	
823.385	1	1	0	0	0.13072	0.23748	0.14158	0.20134	0.053725	0.081687	0.26433	0.13368	0.25304	0.10665	0.14699	0.15531	0.08722	0.12104	0.062638	0.25864	-2.8771	-2.9917	-2.6417	-3.2146	-2.7021	-3.1083	-3.2854	-2.7687	-3.1063	-3.0687	-3.0229	-3.275	-2.8875	-2.9375	-3.1021	-2.7521	21.716	131.061	42.303	188.875	217.282	-67.810	211.969	-114.931	201.666	214.450	82.943	209.774	-106.192	103.432	-97.150	152.376	0.00018385	0.0002348	8.0357e-05	1298.5	2.673e-06	2.9814e-06	1349.7	269.36	7.374e-07	2.9565e-06	330.33	91.054	72.763	20.967	1.617e-06	29.541	0.00048778	0.00072522	0.00019702	1278.9	7.6509e-06	8.0432e-06	1334.3	267.5	7.3604e-06	8.0472e-06	329.53	92.346	73.328	21.244	7.5654e-06	29.864	-81.943	-32.692	-34.648	-128.276	4.969	-18.781	-128.134	-121.199	-1.279	13.987	-121.207	-114.471	-114.328	-107.708	26.530	-107.813	-8191	255	
823.459	1	1	0	0	0.30945	0.20044	0.091914	0.11824	0.045345	0.054338	0.31859	0.20735	0.46405	0.2418	0.071539	0.10067	0.14137	0.20738	0.13012	0.078432	-2.65	-2.925	-2.6083	-3.1813	-2.8438	-2.875	-3.1854	-2.6833	-2.8729	-2.925	-2.7792	-3.275	-2.8542	-2.7708	-2.8833	-2.7438	171.264	132.177	10.029	187.590	152.735	-107.757	176.261	140.205	43.422	90.108	-108.133	38.138	174.469	217.247	151.673	-40.217	0.00018471	0.00028019	0.00013953	1300.4	3.9279e-06	2.8099e-06	1350.2	268.73	2.8414e-06	4.0346e-06	331.44	91.763	72.113	20.924	2.5584e-06	29.56	0.00048974	0.00072876	0.0001966	1277.1	7.5726e-06	7.8507e-06	1332.4	267.27	7.1973e-06	8.2189e-06	329.45	92.248	72.898	21.21	7.4e-06	29.802	-80.395	-47.077	-31.160	-128.123	-8.034	-11.160	-127.982	-120.859	9.252	-0.634	-121.350	-114.829	-114.119	-107.697	52.588	-108.257	-8191	255	
#DATA ENDS
