BOXY.EXE: ISS Imagent and Oximeter Data Acquisition Program Version 0.80
Ascii Record File

#ACQ INFORMATION
2  Detector Channels 
16  External MUX Channels 
1  Auxiliary Channels 
5000  Waveform (CCF) Frequency (Hz)
1  Waveforms Skipped 
30  Waveforms Averaged 
1  Cycles Averaged 
16  Acquisitions per Waveform 
10.0806  Updata Rate (Hz) 

#FILE INFORMATION
TRUE -- External MUX Channel results are PARSED.
FALSE -- AC DC and Phase are NOT grouped.
TRUE -- Companion Program Settings File CREATED.
FALSE -- AC data not excluded
FALSE -- DC data not excluded
FALSE -- Phase data not excluded
FALSE -- Auxillary Chn. data not excluded
Tab delimiters

#CALIBRATION STATE
TRUE -- Waveform Calibration Values APPLIED.


#AUX CALIBRATION VALUES
Val Type	aux-1	

Term	1.0000e+00	
Factor	0.0000e+00	


#WF CALIBRATION VALUES
A = Detector Channel
Val Type	A-AC1	A-AC2	A-AC3	A-AC4	A-AC5	A-AC6	A-AC7	A-AC8	A-AC9	A-AC10	A-AC11	A-AC12	A-AC13	A-AC14	A-AC15	A-AC16	A-DC1	A-DC2	A-DC3	A-DC4	A-DC5	A-DC6	A-DC7	A-DC8	A-DC9	A-DC10	A-DC11	A-DC12	A-DC13	A-DC14	A-DC15	A-DC16	A-Ph1	A-Ph2	A-Ph3	A-Ph4	A-Ph5	A-Ph6	A-Ph7	A-Ph8	A-Ph9	A-Ph10	A-Ph11	A-Ph12	A-Ph13	A-Ph14	A-Ph15	A-Ph16	

Term	0.00000e+00	0.00000e+00	0.00000e+00	0.00000e+00	0.00000e+00	0.00000e+00	0.00000e+00	0.00000e+00	0.00000e+00	0.00000e+00	0.00000e+00	0.00000e+00	0.00000e+00	0.00000e+00	0.00000e+00	0.00000e+00	0.00000e+00	0.00000e+00	0.00000e+00	0.00000e+00	0.00000e+00	0.00000e+00	0.00000e+00	0.00000e+00	0.00000e+00	0.00000e+00	0.00000e+00	0.00000e+00	0.00000e+00	0.00000e+00	0.00000e+00	0.00000e+00	0.00000e+00	0.00000e+00	0.00000e+00	0.00000e+00	0.00000e+00	0.00000e+00	0.00000e+00	0.00000e+00	0.00000e+00	0.00000e+00	0.00000e+00	0.00000e+00	0.00000e+00	0.00000e+00	0.00000e+00	0.00000e+00	
Factor	1.00000e+00	1.00000e+00	1.00000e+00	1.00000e+00	1.00000e+00	1.00000e+00	1.00000e+00	1.00000e+00	1.00000e+00	1.00000e+00	1.00000e+00	1.00000e+00	1.00000e+00	1.00000e+00	1.00000e+00	1.00000e+00	1.00000e+00	1.00000e+00	1.00000e+00	1.00000e+00	1.00000e+00	1.00000e+00	1.00000e+00	1.00000e+00	1.00000e+00	1.00000e+00	1.00000e+00	1.00000e+00	1.00000e+00	1.00000e+00	1.00000e+00	1.00000e+00	X	X	X	X	X	X	X	X	X	X	X	X	X	X	X	X	

B = Detector Channel
Val Type	B-AC1	B-AC2	B-AC3	B-AC4	B-AC5	B-AC6	B-AC7	B-AC8	B-AC9	B-AC10	B-AC11	B-AC12	B-AC13	B-AC14	B-AC15	B-AC16	B-DC1	B-DC2	B-DC3	B-DC4	B-DC5	B-DC6	B-DC7	B-DC8	B-DC9	B-DC10	B-DC11	B-DC12	B-DC13	B-DC14	B-DC15	B-DC16	B-Ph1	B-Ph2	B-Ph3	B-Ph4	B-Ph5	B-Ph6	B-Ph7	B-Ph8	B-Ph9	B-Ph10	B-Ph11	B-Ph12	B-Ph13	B-Ph14	B-Ph15	B-Ph16	

Term	0.00000e+00	0.00000e+00	0.00000e+00	0.00000e+00	0.00000e+00	0.00000e+00	0.00000e+00	0.00000e+00	0.00000e+00	0.00000e+00	0.00000e+00	0.00000e+00	0.00000e+00	0.00000e+00	0.00000e+00	0.00000e+00	0.00000e+00	0.00000e+00	0.00000e+00	0.00000e+00	0.00000e+00	0.00000e+00	0.00000e+00	0.00000e+00	0.00000e+00	0.00000e+00	0.00000e+00	0.00000e+00	0.00000e+00	0.00000e+00	0.00000e+00	0.00000e+00	-5.53345e+01	-1.27015e+02	-1.27340e+02	-1.81716e+02	-4.47746e+01	-6.81240e+01	-1.57128e+02	-1.62015e+02	-4.21788e+01	-6.97516e+01	-1.72142e+02	-1.70362e+02	-1.80059e+02	-1.77178e+02	-5.13089e+01	-1.50265e+02	
Factor	1.80857e-05	1.60277e-04	4.48908e-05	1.58796e-01	1.75125e-06	1.97752e-06	1.70809e-01	6.08193e-02	1.37557e-06	1.84322e-06	8.34618e-02	2.77414e-02	2.97006e-02	8.95166e-03	1.69608e-06	1.25925e-02	1.30705e-05	2.57931e-05	7.13724e-06	8.02894e-02	2.50439e-07	2.91465e-07	8.12663e-02	3.08636e-02	2.52611e-07	2.90207e-07	4.12275e-02	1.37531e-02	1.53383e-02	4.59568e-03	2.66348e-07	6.24348e-03	X	X	X	X	X	X	X	X	X	X	X	X	X	X	X	X	



#DISTANCE SETTINGS
A = Detector Channel
A-1	A-2	A-3	A-4	A-5	A-6	A-7	A-8	A-9	A-10	A-11	A-12	A-13	A-14	A-15	A-16	

2.5000e+00	3.0000e+00	2.5000e+00	3.0000e+00	2.0000e+00	3.0000e+00	1.5000e+00	3.0000e+00	3.0000e+00	3.0000e+00	3.0000e+00	3.0000e+00	3.0000e+00	3.0000e+00	1.5000e+00	3.0000e+00	

B = Detector Channel
B-1	B-2	B-3	B-4	B-5	B-6	B-7	B-8	B-9	B-10	B-11	B-12	B-13	B-14	B-15	B-16	

1.0000e+01	1.0000e+01	1.0000e+01	1.4400e+00	1.0000e+01	1.0000e+01	1.5100e+00	1.9400e+00	1.0000e+01	1.0000e+01	1.9900e+00	2.4900e+00	2.4100e+00	2.9000e+00	1.0000e+01	2.9800e+00	




#DATA BEGINS
time	group	step	mark	flag	A-AC1	A-AC2	A-AC3	A-AC4	A-AC5	A-AC6	A-AC7	A-AC8	A-AC9	A-AC10	A-AC11	A-AC12	A-AC13	A-AC14	A-AC15	A-AC16	A-DC1	A-DC2	A-DC3	A-DC4	A-DC5	A-DC6	A-DC7	A-DC8	A-DC9	A-DC10	A-DC11	A-DC12	A-DC13	A-DC14	A-DC15	A-DC16	A-Ph1	A-Ph2	A-Ph3	A-Ph4	A-Ph5	A-Ph6	A-Ph7	A-Ph8	A-Ph9	A-Ph10	A-Ph11	A-Ph12	A-Ph13	A-Ph14	A-Ph15	A-Ph16	B-AC1	B-AC2	B-AC3	B-AC4	B-AC5	B-AC6	B-AC7	B-AC8	B-AC9	B-AC10	B-AC11	B-AC12	B-AC13	B-AC14	B-AC15	B-AC16	B-DC1	B-DC2	B-DC3	B-DC4	B-DC5	B-DC6	B-DC7	B-DC8	B-DC9	B-DC10	B-DC11	B-DC12	B-DC13	B-DC14	B-DC15	B-DC16	B-Ph1	B-Ph2	B-Ph3	B-Ph4	B-Ph5	B-Ph6	B-Ph7	B-Ph8	B-Ph9	B-Ph10	B-Ph11	B-Ph12	B-Ph13	B-Ph14	B-Ph15	B-Ph16	aux-1	digaux	

832.102	1	1	0	256	0.054987	0.16829	0.26672	0.23491	0.069355	0.17787	0.24302	0.13943	0.19399	0.26776	0.27489	0.20489	0.10126	0.10813	0.14917	0.2053	-2.3521	-2.9813	-2.6042	-3.2229	-3.1417	-2.8187	-3.1771	-2.8854	-2.7333	-3.1917	-2.8833	-2.9458	-2.9458	-2.6604	-3.2396	-2.9083	-100.657	44.108	19.085	130.134	99.628	67.793	104.036	91.376	195.318	-93.299	147.209	165.274	181.872	109.014	187.723	-97.627	0.0004145	0.00065898	0.00017927	1548.2	4.7095e-06	4.8106e-06	1525	410.91	4.1034e-06	4.3967e-06	465.54	152.91	135.23	46.007	2.7776e-06	56.48	0.00096624	0.0014264	0.00039429	1573	1.459e-05	1.6025e-05	1547.4	420.19	1.4475e-05	1.5506e-05	474.75	157.53	138.78	47.56	1.4365e-05	58.227	-83.227	-32.439	-63.916	-129.920	8.973	25.347	-130.038	-125.298	-5.546	34.492	-125.827	-121.282	-120.972	-116.392	5.241	-117.096	-8191	255	
832.222	1	1	0	0	0.3012	0.21609	0.21365	0.339	0.26128	0.072103	0.22914	0.27285	0.18416	0.14435	0.047833	0.19678	0.35929	0.29764	0.25785	0.30939	-2.1437	-3.15	-2.8979	-3.1771	-3.1583	-2.5625	-3.1813	-3.0812	-2.9854	-3.0458	-2.7917	-2.9083	-3.2812	-2.7687	-3.0833	-3.0667	-131.346	197.798	-42.701	183.992	-38.519	-73.997	169.506	213.284	18.701	114.401	155.204	190.180	-136.791	192.332	-92.516	164.351	0.00040921	0.00057562	0.00019958	1548.4	5.0535e-06	5.0335e-06	1523.6	411.67	5.6011e-06	8.8604e-06	463.32	152.28	134.39	46.001	4.197e-06	56.191	0.00096776	0.0013638	0.00038891	1570.4	1.4207e-05	1.5654e-05	1546.7	420.52	1.416e-05	1.5374e-05	473.47	156.94	138.56	47.402	1.4667e-05	58.081	-82.767	-42.539	-48.903	-129.904	-17.568	-1.299	-129.874	-125.274	9.875	-10.132	-125.742	-121.499	-120.845	-116.474	27.156	-117.342	-8191	255	
832.294	1	1	0	0	0.13748	0.18047	0.15312	0.23003	0.33169	0.097152	0.19168	0.080932	0.15213	0.17324	0.18885	0.14342	0.17268	0.31712	0.24949	0.059998	-2.3958	-3.0625	-2.8208	-3.1354	-3.0208	-2.8688	-3.2729	-3.15	-2.4521	-2.9854	-3.0542	-2.9896	-3.2604	-2.8896	-2.7979	-2.9437	128.187	-82.422	-46.887	176.192	62.162	83.034	132.408	-102.490	-62.636	-78.620	-131.991	205.620	148.745	167.131	186.534	-131.804	0.00040175	0.00082251	0.00021387	1540.9	3.0878e-06	5.7352e-06	1520	409.6	5.4592e-06	5.8593e-06	463.14	152.03	133.47	45.836	4.5837e-06	56.086	0.00095162	0.0014288	0.00039561	1568.7	1.4462e-05	1.5778e-05	1543	419.76	1.4771e-05	1.5735e-05	473.21	156.66	137.95	47.253	1.4603e-05	57.885	-81.861	-53.026	-58.253	-129.828	14.344	-3.584	-129.863	-125.529	-10.616	12.117	-125.917	-121.299	-120.963	-116.535	6.858	-117.205	-8191	255	
832.390	1	1	0	0	0.023476	0.20552	0.098424	0.15199	0.18268	0.15829	0.32505	0.19955	0.10708	0.09395	0.36008	0.26537	0.27236	0.17167	0.17187	0.081555	-2.0396	-2.9542	-2.8542	-3.0292	-3.1562	-2.9979	-2.9688	-3.1104	-2.7271	-3.1583	-3.0146	-2.8042	-3.1021	-2.85	-2.9854	-3.1354	-137.650	-120.543	122.407	161.852	101.478	34.364	166.327	164.604	93.418	55.039	214.370	157.730	9.231	86.022	-131.847	135.888	0.00040018	0.00070024	0.00014673	1546.5	3.2224e-06	7.5036e-06	1513.9	410.5	4.741e-06	5.7539e-06	461.13	152.6	133.67	45.806	5.9175e-06	56.026	0.00097642	0.0013895	0.00039878	1570.2	1.4178e-05	1.5492e-05	1540.3	419.12	1.4263e-05	1.5172e-05	472.53	156.76	137.98	47.264	1.4975e-05	57.813	-84.673	-53.238	-42.295	-129.947	62.177	3.636	-129.870	-125.400	-0.365	-1.046	-125.704	-121.363	-121.062	-116.307	9.964	-116.979	-8191	255	
832.511	1	1	0	0	0.15741	0.20629	0.17843	0.37303	0.095686	0.21484	0.20681	0.26182	0.19593	0.1556	0.25982	0.18517	0.26391	0.15285	0.12389	0.03127	-2.0687	-3.0667	-2.7208	-2.7333	-2.9292	-2.7604	-3.0479	-3.1937	-2.5875	-2.8979	-2.8729	-2.8979	-3.1896	-3.1125	-2.7646	-3.1688	-12.469	32.356	-122.215	208.169	167.632	-11.609	-105.380	140.419	35.202	184.874	173.713	151.173	212.694	-140.164	156.731	119.499	0.00038504	0.00065438	9.6484e-05	1549.5	6.2846e-06	6.2028e-06	1517.7	411.4	4.1759e-06	6.0858e-06	463.08	152.08	133.69	45.898	4.2631e-06	56.222	0.00096191	0.0014107	0.00039124	1570.6	1.4757e-05	1.6014e-05	1544	420.03	1.4819e-05	1.6216e-05	473.3	156.55	137.89	47.252	1.5456e-05	58.01	-81.850	-70.577	-59.318	-129.998	4.125	-4.357	-129.913	-125.329	21.943	-10.287	-125.826	-121.338	-121.023	-116.620	25.981	-116.963	-8191	255	
832.605	1	1	0	0	0.2361	0.084363	0.04188	0.31052	0.19096	0.11803	0.13125	0.32745	0.22838	0.14367	0.046103	0.11545	0.055966	0.32329	0.10617	0.08502	-2.1708	-2.8104	-2.9	-3.0375	-3.2625	-2.9313	-2.9521	-3.1312	-2.8708	-2.7479	-2.8563	-2.7604	-3.15	-3.0708	-2.5625	-3.1646	-99.084	-139.346	194.506	170.016	154.775	-49.951	-140.825	-140.340	-47.836	-40.189	138.155	-114.256	157.955	157.160	16.878	-141.268	0.00039987	0.00040984	0.00017011	1548.1	6.1515e-06	3.2812e-06	1524.9	412.4	4.9108e-06	6.4901e-06	463.71	152.31	133.68	45.78	6.1513e-06	56.279	0.00098671	0.0014825	0.00040935	1573.9	1.4927e-05	1.6291e-05	1548.1	420.31	1.5215e-05	1.6044e-05	472.72	156.69	137.85	47.262	1.5232e-05	57.915	-84.733	-75.468	-32.693	-129.735	5.035	31.166	-129.929	-125.266	-9.845	11.750	-125.549	-121.572	-120.983	-116.363	-0.262	-116.807	-8191	255	
832.701	1	1	0	0	0.16585	0.13173	0.086718	0.4038	0.024952	0.19303	0.031697	0.094851	0.42773	0.069043	0.13302	0.20258	0.2072	0.24088	0.15632	0.03019	-2.3187	-3.0146	-3.1375	-2.9792	-2.9667	-2.8229	-2.9437	-3.2146	-2.8396	-2.7771	-3.2979	-2.8792	-3.1667	-2.8875	-2.7604	-3.2979	7.568	-61.103	-75.224	204.006	181.393	-41.468	34.948	120.581	-99.994	143.079	193.225	169.883	94.668	190.784	81.415	216.010	0.00039677	0.00050083	0.00016077	1554.4	6.1688e-06	3.6489e-06	1530.3	410.84	3.3327e-06	6.8041e-06	463.32	152.47	134.24	45.958	3.7844e-06	56.09	0.00097087	0.001415	0.00038474	1574.6	1.448e-05	1.5747e-05	1547.7	420.02	1.451e-05	1.5721e-05	473.09	156.66	138.17	47.318	1.4806e-05	57.951	-82.816	-40.128	-41.797	-129.828	-8.881	9.919	-129.698	-125.460	-11.202	38.020	-125.787	-121.502	-121.120	-116.265	42.911	-117.037	-8191	255	
832.797	1	1	0	0	0.30268	0.13976	0.25161	0.27693	0.094619	0.08052	0.18327	0.20698	0.1663	0.11092	0.29689	0.36543	0.16887	0.13977	0.27171	0.22976	-2.5	-2.9396	-2.9646	-2.9521	-3.1437	-3.0042	-2.8312	-3.2792	-2.8896	-2.85	-3.2354	-2.8063	-3.0604	-3.0021	-2.7146	-3.3563	64.448	155.496	-62.325	168.051	170.913	21.851	158.255	166.924	-29.055	5.691	-137.468	166.329	-119.472	153.951	108.263	79.052	0.00041753	0.00067184	0.00019716	1552.7	4.854e-06	7.8484e-06	1526.5	411.92	5.0791e-06	7.1756e-06	465.37	153.02	134.13	45.851	5.7435e-06	56.251	0.00095889	0.0014483	0.00040007	1574.6	1.4293e-05	1.6022e-05	1550.2	420.11	1.4508e-05	1.5931e-05	474.51	157.09	138.15	47.187	1.5534e-05	57.956	-83.646	-57.387	-74.534	-129.936	-4.799	-7.838	-129.940	-125.334	-19.988	4.926	-125.765	-121.630	-121.081	-116.351	20.031	-117.034	-8191	255	
832.918	1	1	0	0	0.10437	0.043528	0.092991	0.27442	0.24972	0.042193	0.093407	0.092555	0.20635	0.042922	0.31612	0.081204	0.13504	0.14243	0.10319	0.125	-2.5438	-2.8563	-2.9688	-2.9125	-2.9792	-3.1979	-3.0458	-3.0042	-2.7354	-2.8708	-3.1917	-2.8396	-3.1479	-3.1958	-2.7021	-3.1833	209.454	55.388	108.203	178.804	127.490	155.664	178.424	141.298	180.166	159.102	-73.662	194.043	206.379	189.312	-107.410	177.407	0.00041348	0.00049986	0.00019481	1559.4	3.9364e-06	7.8457e-06	1527.3	410.51	2.8879e-06	4.9873e-06	463.61	152.89	133.18	45.876	4.8025e-06	56.26	0.00098865	0.0014746	0.00040034	1581.9	1.4846e-05	1.6725e-05	1551.2	420.35	1.5032e-05	1.6175e-05	474.28	156.85	138.11	47.267	1.5389e-05	57.97	-86.489	-31.906	-35.473	-129.982	-11.511	32.333	-129.914	-125.442	-22.528	-0.901	-125.859	-121.563	-120.832	-116.424	11.546	-116.997	-8191	255	
832.990	1	1	0	0	0.13909	0.15499	0.082863	0.44373	0.33852	0.12453	0.064454	0.19581	0.025003	0.12661	0.07109	0.1016	0.13259	0.14041	0.28742	0.20943	-2.4625	-2.6979	-3.0458	-3.0333	-3.075	-3.0875	-2.6375	-3.0604	-2.7771	-2.7271	-3	-2.9021	-2.8625	-3	-2.5187	-3.1792	125.800	87.598	145.244	188.324	88.004	111.142	148.731	100.060	-106.230	133.861	36.987	206.096	203.108	176.994	-92.837	211.052	0.00040225	0.00057701	0.00016691	1559.5	3.9512e-06	6.4731e-06	1527.3	410.6	5.7338e-06	5.9139e-06	463.73	152.48	134.39	45.994	2.7843e-06	56.54	0.00098971	0.001442	0.00040553	1581.2	1.4854e-05	1.6237e-05	1551.7	420.14	1.5013e-05	1.6006e-05	473.37	156.76	138.12	47.285	1.4943e-05	58.015	-86.344	-38.071	-60.047	-129.940	-11.956	12.620	-129.957	-125.421	14.380	-12.373	-125.669	-121.375	-120.995	-116.307	19.650	-117.146	-8191	255	
833.110	1	1	0	0	0.13717	0.099965	0.066884	0.1657	0.095165	0.22689	0.26203	0.11738	0.053844	0.071206	0.34739	0.36765	0.19213	0.11868	0.087183	0.15004	-2.5771	-2.7875	-3	-3.1333	-2.9396	-3.2292	-3.025	-2.9958	-2.9938	-2.8104	-3.1396	-2.775	-2.7396	-3.2396	-2.7708	-3.1042	-59.994	112.152	28.879	110.422	72.918	66.692	133.166	104.246	187.122	210.878	171.634	182.858	192.659	189.705	-53.619	-143.143	0.00042227	0.00055036	0.00016183	1555.6	5.0672e-06	5.9873e-06	1524.1	410.77	3.9281e-06	4.9871e-06	464.51	152.56	134.21	45.822	3.933e-06	56.153	0.00097887	0.0014139	0.00038996	1576.6	1.4595e-05	1.5939e-05	1548.1	420	1.4677e-05	1.5645e-05	473.34	156.77	138.09	47.305	1.5365e-05	57.995	-83.002	-49.004	-62.859	-129.940	2.443	-5.264	-130.022	-125.378	30.556	13.939	-125.784	-121.434	-120.843	-116.463	6.370	-117.115	-8191	255	
833.206	1	1	0	0	0.37403	0.1089	0.23865	0.1883	0.15152	0.11223	0.10734	0.12545	0.062108	0.099628	0.18588	0.094924	0.088801	0.067359	0.14126	0.11101	-2.3812	-2.6792	-3.1354	-3.0354	-2.6354	-3.075	-2.9813	-3.0729	-3.0625	-2.4854	-3.0854	-3.1854	-2.7542	-3.2271	-2.6667	-2.9917	47.822	-137.693	73.080	-129.840	13.670	205.399	122.937	54.046	-25.304	113.121	131.018	139.269	182.843	125.387	116.537	-107.813	0.00041795	0.00074764	0.00013508	1556.3	4.1034e-06	7.0466e-06	1528.7	412.25	3.2818e-06	7.5815e-06	461.99	151.9	134.12	45.799	5.4367e-06	56.113	0.00098775	0.0014549	0.00040178	1578.9	1.5029e-05	1.649e-05	1551.4	420.65	1.4865e-05	1.6052e-05	473.17	156.48	137.99	47.226	1.5361e-05	57.92	-83.190	-49.112	-80.142	-129.797	-9.314	0.166	-129.873	-125.294	3.617	-0.299	-125.576	-121.546	-120.903	-116.367	26.934	-117.087	-8191	255	
833.303	1	1	0	0	0.31274	0.16417	0.13896	0.46887	0.34996	0.2475	0.092666	0.02441	0.064755	0.11854	0.41281	0.05432	0.25632	0.31416	0.16125	0.025797	-2.4729	-2.425	-2.9542	-3.1542	-2.775	-2.8771	-2.8354	-3.1792	-2.9813	-2.7042	-3.1271	-3.1063	-3.0021	-3.2125	-2.9875	-2.8021	157.285	39.268	118.613	156.137	-102.380	112.040	154.617	139.118	-60.907	125.376	164.525	-110.049	-109.073	162.762	109.619	198.333	0.00040192	0.000579	0.0001742	1555.9	4.5066e-06	7.4463e-06	1522.6	411.31	4.8333e-06	7.258e-06	464.23	151.53	134.35	45.924	5.4021e-06	56.264	0.00098726	0.0014059	0.00039166	1577	1.4367e-05	1.5743e-05	1547.4	420.48	1.4421e-05	1.5888e-05	474.09	156.4	138.14	47.286	1.528e-05	57.957	-86.337	-51.780	-58.660	-129.985	21.600	15.158	-129.943	-125.324	-13.917	33.877	-125.734	-121.595	-121.176	-116.536	3.418	-117.052	-8191	255	
833.399	1	1	0	0	0.091004	0.014078	0.38871	0.41851	0.18445	0.058529	0.19498	0.38401	0.033257	0.13429	0.32428	0.03735	0.2164	0.082461	0.15122	0.2419	-2.5729	-2.4917	-2.875	-3.1562	-2.6042	-3.0563	-3.2375	-2.9125	-3.2479	-2.9396	-3.2229	-3.2188	-2.4479	-2.9604	-2.9167	-2.7125	-129.732	-117.483	187.614	198.666	181.229	142.832	96.464	123.606	37.391	-128.807	211.145	88.717	-138.988	-128.794	-34.818	59.525	0.00041345	0.00035548	0.00018797	1559.7	3.0472e-06	4.7097e-06	1531.9	411.62	4.8725e-06	8.2012e-06	465.76	152.37	133.62	45.855	5.2534e-06	56.556	0.0009743	0.0014372	0.00040424	1579.3	1.4939e-05	1.59e-05	1548.7	420.47	1.477e-05	1.6074e-05	474.05	156.68	138.04	47.241	1.5693e-05	58.032	-82.857	-67.252	-61.814	-129.924	-14.160	8.820	-130.117	-125.520	-6.036	0.860	-125.725	-121.499	-120.950	-116.399	1.952	-117.147	-8191	255	
833.518	1	1	0	0	0.11272	0.22217	0.10745	0.22273	0.10013	0.071069	0.15154	0.13119	0.25299	0.13224	0.15263	0.19955	0.12628	0.23698	0.1922	0.1215	-2.5708	-2.7042	-2.9	-3.3833	-2.6813	-3.0854	-2.9375	-2.8187	-3.2146	-2.8688	-3.1146	-3.3417	-2.8771	-3.0458	-2.9354	-2.6542	-69.319	-75.555	-90.939	199.392	1.695	103.463	150.357	171.850	-132.108	139.068	1.038	189.185	182.006	-122.966	206.772	-129.809	0.00043613	0.00062881	0.00012781	1561	2.5439e-06	8.1252e-06	1525.2	412.09	4.3327e-06	4.4763e-06	463.16	151.89	134.18	45.97	5.2485e-06	56.093	0.00099164	0.0014315	0.00040544	1579.6	1.4667e-05	1.6159e-05	1550.1	420.15	1.4831e-05	1.627e-05	473.04	156.49	138.11	47.292	1.5415e-05	57.938	-85.469	-44.549	-82.573	-130.086	-6.629	-2.109	-129.901	-125.420	7.487	-2.039	-125.754	-121.352	-120.998	-116.587	12.231	-117.084	-8191	255	
833.591	1	1	0	0	0.2148	0.21924	0.18329	0.22485	0.18261	0.20401	0.41886	0.22903	0.072191	0.09964	0.19154	0.26646	0.051719	0.19293	0.1319	0.27383	-2.7042	-2.6729	-2.6688	-3.2687	-2.8771	-3.1604	-3.1583	-2.9375	-3.2771	-2.9646	-3.0187	-3.2583	-2.8708	-3	-3.0417	-2.6312	-90.065	152.777	71.188	139.240	9.419	4.934	125.208	169.201	-111.398	-14.228	67.365	127.871	74.925	-125.451	214.192	196.240	0.00038831	0.00042213	0.00011203	1560.8	5.4491e-06	4.5608e-06	1530.1	412.84	5.0961e-06	6.9759e-06	464.22	151.46	134.47	45.793	6.0865e-06	56.409	0.00097514	0.0014272	0.00039537	1580.3	1.4774e-05	1.5926e-05	1552.1	420.65	1.4367e-05	1.5882e-05	473.13	156.39	138.29	47.295	1.5442e-05	57.983	-82.278	-73.377	-17.838	-129.824	19.383	21.267	-130.007	-125.255	-13.042	33.430	-125.802	-121.375	-120.882	-116.417	-0.202	-117.030	-8191	255	
833.685	1	1	0	0	0.16312	0.12284	0.079511	0.40824	0.080788	0.088911	0.18724	0.22174	0.14163	0.1413	0.10713	0.023841	0.064864	0.22105	0.095791	0.16017	-2.7354	-2.8646	-2.6604	-3.2333	-2.6021	-2.9104	-3.2396	-2.8563	-3.0646	-3.0229	-3.0479	-3.3396	-2.8729	-3.2458	-3.0438	-2.7729	39.049	-47.318	85.077	212.003	-36.998	124.770	147.740	51.177	51.935	32.460	-118.479	137.639	182.099	126.039	169.939	180.554	0.00041253	0.00055008	0.0001395	1558.2	2.186e-06	4.86e-06	1528.9	411.42	3.3242e-06	7.2163e-06	463.43	152.13	134.24	45.905	3.6661e-06	56.402	0.00097452	0.0014254	0.00040392	1580.4	1.5155e-05	1.6361e-05	1550.2	420.61	1.4956e-05	1.6243e-05	474.06	156.61	138.18	47.272	1.575e-05	58.056	-84.162	-47.337	-48.780	-129.995	21.841	14.805	-129.912	-125.297	-35.766	10.292	-125.891	-121.409	-120.841	-116.497	34.384	-117.245	-8191	255	
833.782	1	1	0	0	0.073405	0.28459	0.27669	0.32572	0.16441	0.058756	0.31628	0.19898	0.2492	0.10637	0.27403	0.20186	0.30753	0.18496	0.25333	0.081779	-2.5563	-2.7708	-2.6063	-3.325	-2.6104	-2.8312	-3.2354	-2.9708	-3.1146	-3.0646	-2.7896	-3.2	-2.7188	-2.9104	-3	-2.7458	47.850	-87.075	18.520	209.644	80.876	57.288	116.849	139.961	88.160	71.246	202.708	206.278	-87.404	-72.631	44.464	80.379	0.00042399	0.00060597	0.0001709	1561.8	3.7313e-06	6.3099e-06	1528.7	413.25	4.4931e-06	3.9983e-06	463.12	152.2	133.97	46.053	2.1853e-06	56.261	0.00098315	0.0015009	0.00039989	1583.1	1.5104e-05	1.6406e-05	1553.7	421.29	1.4682e-05	1.6516e-05	473.83	156.77	138.14	47.397	1.5266e-05	57.92	-81.644	-52.099	-46.585	-129.900	-8.277	34.947	-129.972	-125.241	-21.205	-16.247	-126.071	-121.312	-120.993	-116.400	41.528	-117.425	-8191	255	
833.902	1	1	0	0	0.23934	0.13521	0.17545	0.17567	0.17954	0.14675	0.21059	0.072986	0.15862	0.31252	0.026605	0.28736	0.081602	0.36209	0.12555	0.17457	-2.2833	-2.7646	-2.5	-3.225	-2.8646	-2.9271	-3.3854	-2.8979	-2.8792	-3.0979	-2.6208	-3.2104	-2.8563	-2.6917	-3.3083	-2.8688	61.262	-97.974	-65.925	139.935	-91.808	121.610	150.779	160.882	155.669	199.729	27.306	141.342	-131.048	153.787	78.972	171.007	0.00041457	0.00045201	0.00019922	1556.8	2.7771e-06	7.2235e-06	1523.8	410.01	5.2416e-06	8.2904e-06	463.77	152.35	133.68	45.798	2.7696e-06	56.088	0.00099949	0.0014609	0.00040902	1580.5	1.4994e-05	1.6201e-05	1551.1	419.7	1.481e-05	1.6386e-05	473.68	156.65	138	47.331	1.5347e-05	57.901	-82.245	-65.011	-40.471	-129.675	-22.324	-15.558	-130.137	-125.382	12.014	-1.529	-125.678	-121.682	-121.072	-116.369	-31.255	-117.142	-8191	255	
833.998	1	1	0	0	0.15779	0.15333	0.10889	0.30772	0.079618	0.32961	0.2323	0.10148	0.10375	0.17744	0.28621	0.15241	0.24548	0.17313	0.26088	0.10524	-2.6479	-3.025	-2.7313	-3.2396	-3.0042	-2.7	-3.2542	-2.8354	-2.9188	-2.9333	-2.825	-2.9542	-2.9979	-2.775	-3.0958	-2.9396	88.853	-94.834	87.594	163.231	81.857	-71.216	154.555	104.674	118.569	164.753	175.965	113.462	137.978	160.758	-59.624	216.330	0.00040401	0.00063222	0.00013201	1542.8	4.8597e-06	6.2194e-06	1525.4	410.19	4.536e-06	6.7966e-06	464.37	152.84	133.91	46.036	5.5589e-06	56.343	0.0009801	0.0014512	0.00040046	1578.5	1.5214e-05	1.6371e-05	1552.5	420.05	1.4869e-05	1.6277e-05	474.93	157.04	138.15	47.349	1.5144e-05	58.087	-85.562	-44.828	-57.016	-130.129	-8.267	23.764	-130.019	-125.434	-13.023	-4.642	-125.667	-121.434	-121.077	-116.510	15.486	-117.161	-8191	255	
834.095	1	1	0	0	0.10694	0.43037	0.079857	0.20066	0.2546	0.097059	0.12892	0.10707	0.12852	0.12282	0.091026	0.19895	0.053369	0.17573	0.15169	0.082417	-2.5583	-3.0125	-2.7417	-3.2417	-2.9479	-2.8646	-3.4896	-2.8792	-2.7875	-2.9813	-2.7125	-3.0583	-2.9792	-2.7667	-2.9417	-2.8396	207.713	83.652	118.058	-99.833	-12.262	-112.132	119.334	44.606	8.601	123.720	45.584	196.620	190.842	-132.417	77.646	38.783	0.0004349	0.00034818	0.00012802	1559.9	3.4941e-06	5.5024e-06	1523.7	412.08	3.856e-06	3.9058e-06	464.86	152.3	134.05	46.111	5.1356e-06	56.358	0.00097718	0.0013952	0.00039952	1581.1	1.4786e-05	1.5633e-05	1550.6	420.73	1.4637e-05	1.5926e-05	474.09	156.86	138	47.409	1.5312e-05	57.932	-85.634	-39.697	-89.497	-129.737	31.567	17.847	-129.942	-125.430	-12.026	1.299	-125.748	-121.385	-120.901	-116.491	1.687	-117.290	-8191	255	
834.191	1	1	0	0	0.15911	0.19364	0.21063	0.305	0.1197	0.10975	0.31748	0.30744	0.087502	0.23404	0.19809	0.36293	0.049807	0.11458	0.13223	0.16217	-2.2917	-3.0958	-2.6833	-3.1521	-3.1437	-2.7625	-3.4771	-3.1562	-2.725	-3.1521	-2.7917	-3.1417	-3.325	-2.9042	-3.0292	-3.1271	-38.714	109.498	191.144	163.848	203.017	136.057	117.574	140.499	57.025	24.660	115.516	171.531	180.278	197.708	113.595	114.962	0.00041699	0.00063275	0.00018568	1557.4	5.2696e-06	5.2768e-06	1533.8	412.27	4.56e-06	7.3203e-06	464.61	152.33	134	46.154	4.0855e-06	56.369	0.00098353	0.0014083	0.00040077	1581.5	1.4325e-05	1.623e-05	1554.5	420.64	1.4822e-05	1.5776e-05	474.4	156.83	138.14	47.474	1.5038e-05	58.074	-87.093	-67.239	-47.162	-129.823	34.013	5.477	-129.859	-125.263	-20.396	25.101	-125.724	-121.647	-120.938	-116.570	43.822	-117.266	-8191	255	
834.287	1	1	0	0	0.23369	0.13552	0.09684	0.20765	0.39955	0.31831	0.12927	0.17718	0.20959	0.028395	0.44416	0.16586	0.34606	0.21578	0.065736	0.42514	-2.3833	-3.15	-2.7438	-3.0062	-2.9854	-2.6562	-3.1813	-2.8979	-2.6792	-3.025	-3.0542	-3.0062	-3.2417	-2.8354	-3.0042	-2.925	171.907	-86.070	96.257	178.142	30.264	-34.652	168.430	126.001	109.891	34.461	178.319	136.860	177.357	147.652	26.521	188.744	0.000405	0.00068097	0.00014049	1559.4	6.35e-06	6.8968e-06	1528.4	412.75	4.0903e-06	7.7754e-06	465.54	152.92	134.58	46.024	4.6751e-06	56.496	0.00097691	0.0014044	0.00038947	1580.3	1.4541e-05	1.5723e-05	1549.5	420.76	1.4702e-05	1.5507e-05	474.21	156.89	138.25	47.391	1.5002e-05	58.082	-82.340	-64.863	-49.596	-129.874	8.522	0.384	-129.950	-125.414	-28.041	0.421	-125.590	-121.425	-120.936	-116.529	15.885	-117.099	-8191	255	
834.383	1	1	0	0	0.20937	0.16527	0.091747	0.13225	0.20304	0.12328	0.33062	0.16963	0.02456	0.29564	0.15668	0.29572	0.33734	0.2407	0.16939	0.24552	-2.2125	-3.0708	-2.7792	-3.1292	-3.2583	-2.8063	-3.3438	-3.2042	-2.5854	-3.1042	-2.9292	-3.0208	-3.4354	-3.0042	-2.8646	-2.9125	1.581	125.229	-127.977	136.573	43.330	106.051	132.039	125.108	211.361	79.181	197.369	176.978	178.397	183.695	180.720	153.116	0.00040492	0.00044455	8.1386e-05	1560.4	5.6205e-06	5.8396e-06	1534.5	413.15	4.6161e-06	7.5863e-06	463.8	152.39	134.54	46.172	5.0676e-06	56.62	0.00096828	0.0013706	0.00039576	1580.9	1.4602e-05	1.6321e-05	1553.5	420.98	1.497e-05	1.5381e-05	473.87	156.72	138.23	47.371	1.4834e-05	58.154	-83.926	-66.994	-92.102	-129.669	-0.743	33.064	-129.740	-125.287	-0.072	7.975	-125.681	-121.488	-120.860	-116.401	4.051	-117.053	-8191	255	
834.479	1	1	0	0	0.14216	0.18884	0.22543	0.26374	0.14995	0.12928	0.31088	0.15894	0.174	0.065193	0.22012	0.23829	0.12092	0.18806	0.11285	0.18611	-2.3375	-3.1125	-3.0479	-2.9333	-3.0833	-2.7583	-3.0646	-3.1583	-2.5417	-3.2521	-3.0938	-2.9604	-3.0771	-2.8438	-3.0417	-3.1813	-20.551	158.386	-12.257	134.846	84.395	41.588	189.221	143.838	209.742	-17.475	150.444	169.195	116.252	-86.925	92.632	161.483	0.00039348	0.00057755	0.00012968	1560.9	3.9285e-06	6.5516e-06	1532.7	411.34	6.3992e-06	5.0059e-06	463.1	152.13	134.1	45.669	6.3178e-06	56.007	0.00098437	0.0014308	0.00039197	1580.1	1.447e-05	1.5901e-05	1550.7	419.71	1.5079e-05	1.6159e-05	472.15	156.4	137.84	47.138	1.5556e-05	57.68	-82.948	-52.428	-58.617	-129.956	27.284	-6.616	-129.938	-125.310	-6.296	5.484	-126.042	-121.531	-120.898	-116.280	6.795	-117.119	-8191	255	
834.600	1	1	0	0	0.12856	0.12458	0.038628	0.37292	0.18952	0.10363	0.23285	0.14298	0.21073	0.26065	0.095422	0.14697	0.10983	0.12833	0.17436	0.37158	-2.1542	-3.0521	-2.9	-2.9021	-3.1562	-2.8083	-2.8958	-3.175	-2.7646	-2.8708	-3.0708	-2.8458	-3.2	-3.0187	-2.6833	-3.3167	-13.297	15.663	205.647	135.856	148.161	128.597	211.657	-95.935	101.557	54.102	115.066	175.429	164.714	86.027	149.490	156.287	0.00042969	0.00047183	0.00021596	1558.1	4.2575e-06	7.3852e-06	1528.3	412.08	5.2667e-06	6.6747e-06	464.68	151.53	134.34	45.621	6.0669e-06	56.045	0.0010064	0.0014837	0.00041085	1578.3	1.4921e-05	1.6793e-05	1548.1	419.55	1.5424e-05	1.6489e-05	472.12	155.97	137.66	47.024	1.5803e-05	57.707	-83.717	-49.519	-50.072	-129.952	20.984	18.870	-129.831	-125.391	3.859	30.507	-125.841	-121.599	-120.879	-116.565	7.648	-117.270	-8191	255	
834.694	1	1	0	0	0.18343	0.19245	0.1506	0.27121	0.15278	0.13091	0.31886	0.16937	0.10973	0.083921	0.18676	0.096561	0.21049	0.096451	0.20432	0.50491	-2.4667	-3.0354	-3.0521	-2.7938	-3.0792	-2.7708	-2.9542	-3.375	-2.7542	-3.0687	-3.1792	-2.8958	-3.1188	-2.9479	-2.5979	-3.0833	72.065	-127.335	64.324	134.196	122.260	-43.428	158.049	88.141	-8.189	-62.700	174.365	-104.304	-102.732	96.072	-109.219	201.336	0.00041676	0.00053714	0.00011289	1560.6	5.6909e-06	6.5634e-06	1528.1	410.6	4.3227e-06	7.4219e-06	464.7	151.58	133.29	45.82	5.7634e-06	56.063	0.0010171	0.0014798	0.0004158	1578.4	1.5443e-05	1.6884e-05	1551.1	419.52	1.5408e-05	1.636e-05	472.85	156.23	137.55	47.095	1.5869e-05	57.687	-85.699	-35.793	-45.563	-129.913	20.053	5.180	-130.137	-125.346	0.946	1.041	-125.819	-121.341	-120.904	-116.426	6.115	-117.347	-8191	255	
834.790	1	1	0	0	0.15936	0.24153	0.093853	0.34227	0.24596	0.083311	0.19916	0.21137	0.14645	0.10819	0.13367	0.13246	0.15567	0.20073	0.23487	0.066291	-2.2104	-2.7292	-2.9333	-2.9646	-3.1188	-2.9042	-2.8167	-3.2812	-2.9375	-3.1396	-3.2479	-2.7083	-2.875	-2.8563	-2.4875	-3.3646	-129.449	-0.511	-98.097	158.803	197.488	-139.504	97.004	126.335	124.369	148.641	189.992	-39.032	-126.882	76.942	-96.152	184.533	0.00041688	0.00075627	0.00011794	1561.8	4.25e-06	6.3348e-06	1536.7	411.65	5.0232e-06	7.5198e-06	464.45	152.25	133.66	45.866	6.011e-06	56.064	0.0010213	0.0014821	0.00040835	1582.7	1.5228e-05	1.6757e-05	1555.3	419.25	1.5299e-05	1.661e-05	473.75	156.2	137.7	47.125	1.6018e-05	57.739	-83.006	-37.184	-39.386	-129.931	3.910	0.944	-129.916	-125.248	5.982	20.256	-125.826	-121.311	-120.717	-116.551	9.422	-117.263	-8191	255	
834.886	1	1	0	0	0.28628	0.057348	0.17205	0.37055	0.11199	0.1119	0.29479	0.027765	0.07764	0.23635	0.27158	0.071661	0.13714	0.057092	0.13393	0.095959	-2.5604	-3.0167	-3.1604	-3.0438	-2.8583	-2.8479	-2.8271	-3.1979	-2.9188	-2.9896	-3.2854	-2.8417	-3.1229	-2.9417	-2.5167	-3.2438	209.876	-95.050	128.514	207.210	-75.372	-77.743	144.321	166.386	-141.641	163.654	201.242	49.319	117.232	-99.235	-125.363	87.720	0.00040463	0.00070858	0.00012051	1568.4	6.8262e-06	8.3884e-06	1534.6	413.75	2.9451e-06	7.2096e-06	462.59	151.98	133.85	45.89	5.9559e-06	56.179	0.001009	0.0014887	0.00041429	1586.6	1.5125e-05	1.6792e-05	1555.6	420.67	1.5092e-05	1.6496e-05	473.09	156.35	137.83	47.202	1.597e-05	57.875	-84.544	-52.519	-66.519	-129.855	10.916	20.020	-129.972	-125.419	15.409	-7.681	-125.895	-121.521	-120.974	-116.448	-8.421	-116.936	-8191	255	
834.983	1	1	0	0	0.086584	0.2945	0.17547	0.40747	0.14583	0.13875	0.14446	0.16362	0.28848	0.26027	0.33578	0.034492	0.12298	0.32015	0.13018	0.12127	-2.3646	-2.7333	-3.0667	-3.05	-2.8375	-3.3438	-2.8417	-3.2417	-2.9104	-2.8896	-3.2188	-2.9313	-2.9021	-2.9167	-2.6	-3.0979	104.497	-65.980	-138.166	202.866	9.224	-57.316	-120.952	152.314	-141.267	80.168	173.216	24.667	161.558	197.721	64.683	195.073	0.00041111	0.00036925	0.00016629	1567.9	5.5988e-06	2.8523e-06	1536.3	412.61	7.0275e-06	8.4899e-06	466.28	151.63	134.05	45.824	5.6746e-06	56.029	0.0010234	0.0015129	0.0004106	1586	1.5406e-05	1.6631e-05	1558.3	420.49	1.5081e-05	1.6683e-05	474.13	156.29	137.97	47.16	1.5555e-05	57.82	-87.960	-55.359	-44.239	-130.013	-7.327	1.167	-129.983	-125.033	7.428	-2.899	-125.931	-121.515	-121.114	-116.550	16.050	-117.172	-8191	255	
835.079	1	1	0	0	0.29147	0.23497	0.14566	0.31999	0.15169	0.052317	0.24082	0.32998	0.10626	0.30161	0.068688	0.13502	0.094952	0.26005	0.15193	0.21494	-2.6708	-2.4417	-3.0729	-3.15	-2.9667	-3.1479	-3.0604	-3.1667	-2.9167	-2.8146	-3.1646	-2.7271	-2.9729	-3.2938	-2.5792	-3.2667	-100.980	-10.724	-90.583	188.063	4.426	-81.388	84.775	146.536	45.571	-74.623	189.714	133.690	138.823	213.018	124.422	47.659	0.00041582	0.0006177	0.00014424	1571.7	7.1353e-06	6.0179e-06	1537.8	411.57	5.3952e-06	6.564e-06	462.79	152.1	134.64	45.829	5.3023e-06	56.21	0.0010081	0.0014842	0.00040624	1589.3	1.4904e-05	1.668e-05	1559	420.5	1.537e-05	1.6415e-05	473.42	156.45	138.26	47.19	1.541e-05	57.826	-84.258	-52.301	-66.011	-129.918	-0.923	12.297	-129.951	-125.381	-6.321	3.161	-125.769	-121.196	-120.804	-116.423	21.848	-117.058	-8191	255	
835.199	1	1	0	0	0.2173	0.11491	0.10756	0.19341	0.20144	0.098601	0.40485	0.26102	0.293	0.057598	0.22367	0.11421	0.086436	0.25687	0.030082	0.14605	-2.7396	-2.8312	-3.1188	-2.9938	-2.5833	-3.2167	-2.9667	-3.2021	-3.0583	-2.6375	-3.3354	-2.9	-2.7417	-3.0208	-2.7104	-3.0708	157.058	164.475	96.362	215.666	-79.171	120.176	165.142	212.292	3.486	1.775	211.565	-47.763	89.424	-88.617	145.144	131.021	0.00039812	0.00040847	8.3541e-05	1571.5	4.5509e-06	4.8118e-06	1538.9	412.92	4.4603e-06	7.9076e-06	466.17	152.38	133.93	45.828	5.6081e-06	56.396	0.0010023	0.0014788	0.00040751	1588.8	1.492e-05	1.6403e-05	1558	421.11	1.4996e-05	1.6876e-05	474.07	156.42	138.01	47.176	1.5923e-05	57.871	-80.294	-43.689	-80.964	-129.811	-22.480	17.284	-130.007	-125.412	-26.781	14.482	-125.706	-121.420	-120.892	-116.336	24.801	-117.024	-8191	255	
835.296	1	1	0	0	0.17551	0.13803	0.1396	0.37503	0.16155	0.15518	0.34309	0.16532	0.11684	0.098089	0.2438	0.17025	0.074211	0.05016	0.10436	0.058151	-2.6396	-2.6333	-2.9	-3.1396	-2.85	-3.2479	-3.175	-3.1979	-3.1937	-2.6813	-3.2687	-3.1167	-3.0542	-3.3021	-2.775	-2.8021	-48.353	72.876	-105.317	196.827	177.122	-94.719	151.910	145.818	183.930	-8.726	156.365	73.174	141.877	80.713	173.407	-55.977	0.00040186	0.0006427	0.00022003	1569.6	5.2035e-06	8.5521e-06	1534.4	415.25	4.4526e-06	4.9452e-06	464.42	152.46	134.4	46.108	5.1982e-06	56.442	0.0010012	0.0015398	0.0004004	1585.5	1.5144e-05	1.6668e-05	1557.4	421.77	1.5325e-05	1.6975e-05	473.7	156.52	138.12	47.352	1.6041e-05	57.843	-84.668	-25.850	-52.155	-129.741	39.282	12.759	-129.976	-125.416	-7.934	27.542	-125.439	-121.330	-120.762	-116.382	16.735	-116.985	-8191	255	
835.392	1	1	0	0	0.22902	0.3021	0.10175	0.029352	0.19193	0.14507	0.35519	0.046379	0.15584	0.11042	0.14701	0.14284	0.13302	0.072255	0.038599	0.26958	-2.5375	-2.7208	-2.9042	-3.1688	-2.7646	-3.1417	-3.0833	-3.0646	-3.1479	-2.8521	-3.0979	-2.9813	-2.5542	-3.0333	-2.8792	-2.9542	-107.739	25.659	69.642	153.840	-85.022	46.130	125.884	122.105	100.920	161.416	-87.966	135.773	207.602	42.836	-77.767	169.901	0.00042501	0.00062436	0.00015461	1571.2	3.7266e-06	8.5485e-06	1541.8	414.32	3.7663e-06	3.1578e-06	466.6	152.88	134.79	45.979	5.0076e-06	56.488	0.0010055	0.0015198	0.00040697	1588.3	1.5292e-05	1.6902e-05	1558.7	420.87	1.5498e-05	1.6932e-05	474.52	156.58	138.24	47.319	1.6072e-05	57.939	-86.888	-56.821	-46.212	-129.723	29.687	4.535	-130.050	-125.392	10.485	-0.235	-125.704	-121.158	-120.810	-116.288	3.361	-117.111	-8191	255	
835.463	1	1	0	0	0.067793	0.094085	0.092991	0.34422	0.18418	0.11338	0.1179	0.096542	0.20469	0.083443	0.29157	0.1879	0.14882	0.33151	0.12456	0.080044	-2.8063	-2.7708	-3.1562	-3.3479	-2.9437	-3.3396	-3.0229	-3	-3.3229	-2.8208	-3.1	-2.9917	-2.6792	-3.0708	-2.8542	-2.8729	166.510	8.254	207.381	165.685	-16.983	59.369	-129.227	189.938	-49.630	-25.497	147.354	-141.135	210.377	5.043	15.178	-136.730	0.00042017	0.00045317	0.0001017	1579	3.668e-06	6.8867e-06	1538.8	413.8	3.5293e-06	5.5143e-06	466.76	152.22	134.33	46.213	5.3891e-06	56.629	0.0010164	0.0015141	0.00042192	1593.3	1.5557e-05	1.7073e-05	1560.9	421.53	1.5757e-05	1.7504e-05	474.33	156.42	138.04	47.314	1.668e-05	58.018	-86.393	-93.693	-46.529	-129.778	-15.927	-10.919	-129.753	-125.526	-11.987	13.771	-125.626	-121.268	-120.956	-116.296	14.690	-117.013	-8191	255	
835.582	1	1	0	0	0.099339	0.058857	0.10328	0.1852	0.041721	0.23377	0.10255	0.32348	0.14303	0.15897	0.48779	0.18876	0.29653	0.18902	0.13452	0.17259	-2.5104	-2.6646	-2.8979	-3.1792	-2.5583	-2.9396	-3.0771	-2.7833	-3.2042	-3	-2.9229	-3.225	-2.775	-3.1458	-3.125	-2.8917	17.470	5.936	135.852	164.618	-88.913	114.177	90.756	141.773	5.375	53.148	187.065	182.737	196.297	-124.322	-37.828	156.310	0.0004299	0.00036887	0.00015444	1572.6	3.3783e-06	7.6972e-06	1545.4	414.08	5.1184e-06	6.0583e-06	464.68	152.84	135.48	46.014	1.6854e-06	56.186	0.0010253	0.001521	0.0004186	1591.2	1.5724e-05	1.692e-05	1562.3	421.7	1.5557e-05	1.6987e-05	474.64	156.72	138.37	47.259	1.6546e-05	57.803	-83.464	-86.462	-46.799	-129.985	22.878	27.347	-129.822	-125.484	-12.912	18.575	-125.550	-121.529	-120.733	-116.395	15.532	-116.875	-8191	255	
835.678	1	1	0	0	0.1733	0.11494	0.093991	0.028186	0.064609	0.12767	0.28162	0.15934	0.14008	0.31175	0.23992	0.094008	0.11903	0.22577	0.086897	0.31028	-2.5604	-2.8937	-2.8479	-3.3708	-2.5875	-2.9375	-3.2083	-2.7625	-2.9333	-2.8625	-3.0208	-3.4125	-2.9062	-3.1979	-3.0521	-2.9146	113.433	-90.312	180.082	-90.956	90.276	198.693	162.409	175.995	191.988	-140.925	105.357	94.820	42.668	153.400	-66.409	142.015	0.0003854	0.00046192	9.9874e-05	1572.6	4.8098e-06	6.2258e-06	1545.2	414.84	4.0793e-06	5.5001e-06	467.09	152.74	134.86	46.127	7.4285e-06	56.223	0.0010333	0.0015611	0.00043046	1591.6	1.5575e-05	1.7147e-05	1562.1	421.43	1.5524e-05	1.7267e-05	474.89	156.54	138.22	47.285	1.6424e-05	57.875	-84.327	-69.883	-47.094	-129.923	1.170	-8.885	-130.050	-125.471	-41.985	16.932	-125.881	-121.403	-120.781	-116.583	-7.738	-116.985	-8191	255	
835.775	1	1	0	0	0.27383	0.054524	0.30829	0.097569	0.19726	0.23412	0.36161	0.21922	0.18429	0.071097	0.121	0.095404	0.23409	0.31812	0.029671	0.0099307	-2.8396	-2.9542	-2.7646	-3.4792	-2.8187	-3.0354	-3.275	-2.8375	-2.9792	-2.8021	-2.6312	-3.1042	-2.6604	-2.6792	-2.9729	-2.7375	12.284	76.445	83.473	200.530	210.272	-29.644	164.253	-135.433	78.910	-57.974	184.290	203.950	184.646	-132.929	125.042	-132.095	0.00041934	0.00068405	0.00016122	1575.5	6.4904e-06	6.2966e-06	1552.7	414.5	3.4482e-06	5.7617e-06	465.94	153.26	134.66	45.925	5.6966e-06	56.346	0.0010003	0.0015441	0.00042171	1592.8	1.5866e-05	1.7368e-05	1562.8	421.68	1.5328e-05	1.734e-05	474.4	156.82	138.21	47.3	1.6328e-05	57.944	-85.150	-50.444	-45.955	-129.770	25.407	19.656	-129.946	-125.308	9.043	-20.070	-125.479	-121.192	-120.863	-116.433	3.565	-117.103	-8191	255	
835.871	1	1	0	0	0.19028	0.04529	0.11393	0.24363	0.14845	0.20723	0.12351	0.27651	0.13163	0.10199	0.18127	0.24224	0.19686	0.10611	0.27042	0.29217	-2.7458	-3.0375	-2.725	-3.3917	-2.8396	-2.8	-3.3104	-2.9875	-2.775	-2.9229	-2.8104	-3.2042	-2.9583	-3.0417	-3.1333	-3.0771	79.654	-12.067	-50.470	-138.462	138.217	-89.157	119.820	-113.533	-12.258	27.486	199.629	169.089	201.237	-114.635	-116.327	-134.829	0.00043276	0.00036143	0.00015638	1576.5	4.4874e-06	8.5692e-06	1538.5	416.2	4.6519e-06	7.0884e-06	465.37	152.35	135.05	46.147	3.1986e-06	56.613	0.001012	0.0015012	0.00041414	1588.8	1.489e-05	1.6204e-05	1557	421.99	1.4695e-05	1.6152e-05	474.02	156.61	138.29	47.348	1.551e-05	57.93	-88.191	-54.546	-73.984	-129.793	-7.174	5.404	-129.779	-125.265	-1.325	14.513	-125.742	-121.198	-120.862	-116.372	-5.976	-117.008	-8191	255	
835.991	1	1	0	0	0.36404	0.18674	0.062327	0.27762	0.12704	0.18497	0.18523	0.30169	0.19562	0.22895	0.079319	0.069207	0.14887	0.14704	0.034247	0.2967	-2.725	-3.1875	-2.7562	-3.3146	-3.0083	-2.6583	-3.3229	-2.6042	-2.8833	-2.9271	-2.7958	-3.0458	-2.7167	-2.8021	-2.9313	-2.7896	-72.439	-22.830	74.282	157.470	102.101	-133.853	146.414	156.421	170.981	187.565	173.792	209.139	-142.432	178.040	-80.853	163.987	0.00039994	0.0005876	0.00010374	1563.6	5.4658e-06	7.8984e-06	1542	414.82	3.5285e-06	6.3145e-06	467.05	152.39	134.59	46.218	3.1243e-06	56.541	0.0009582	0.00145	0.00040666	1583.5	1.4814e-05	1.6533e-05	1554.8	421.11	1.4894e-05	1.6132e-05	474.39	156.59	138.25	47.372	1.5818e-05	57.934	-89.725	-49.714	-51.709	-129.929	9.963	-4.849	-129.763	-125.038	25.419	27.266	-125.626	-121.338	-120.899	-116.228	18.334	-117.035	-8191	255	
836.087	1	1	0	0	0.094822	0.16248	0.41213	0.47585	0.20217	0.13011	0.25485	0.13533	0.12038	0.3379	0.3229	0.060543	0.27821	0.16014	0.13738	0.18225	-2.45	-2.9667	-2.5062	-3.2625	-2.8333	-2.7438	-3.3625	-2.9792	-2.825	-3.1646	-2.7542	-3.1292	-2.9875	-2.7667	-3.0396	-3.0792	203.862	-120.371	200.958	197.104	18.144	203.564	128.927	187.974	-105.572	141.576	-124.896	-87.806	94.834	146.978	-70.742	73.115	0.00040858	0.00039355	0.00015689	1567.1	2.9939e-06	4.7942e-06	1541.8	414.67	2.9957e-06	5.036e-06	465.96	152.71	134.35	46.059	3.5652e-06	56.488	0.00097569	0.0014745	0.00040047	1585.1	1.4824e-05	1.657e-05	1556.8	421.48	1.4779e-05	1.6746e-05	474.19	156.72	137.99	47.265	1.5403e-05	57.901	-85.556	-74.397	-47.098	-130.017	-36.623	9.210	-129.850	-125.451	26.307	6.475	-125.933	-121.566	-120.897	-116.361	50.564	-117.103	-8191	255	
836.159	1	1	0	0	0.15295	0.16126	0.23938	0.27228	0.12125	0.063181	0.41543	0.2705	0.24169	0.11738	0.3437	0.070319	0.092102	0.11139	0.34768	0.072185	-2.6021	-2.9396	-2.725	-3.1771	-3.0208	-2.6979	-3.1708	-3.0687	-2.7021	-3.0438	-2.9104	-2.9938	-3.2167	-2.7292	-2.9229	-2.8354	-119.583	154.019	79.727	198.033	-121.128	55.761	164.564	154.942	3.518	74.819	123.603	48.548	-99.608	-25.312	91.535	40.858	0.00041541	0.00058323	0.00018892	1571.4	6.0214e-06	2.6321e-06	1536.8	414.47	4.1509e-06	8.4488e-06	463.62	152.49	134.69	46.099	3.9278e-06	56.253	0.00099802	0.0014424	0.00040467	1583.9	1.5152e-05	1.5964e-05	1552.5	421.03	1.508e-05	1.5866e-05	473.31	156.62	138.15	47.282	1.5707e-05	57.949	-87.311	-54.376	-73.801	-129.777	14.021	-11.776	-129.947	-125.270	2.721	11.556	-125.670	-121.267	-120.936	-116.383	14.447	-117.045	-8191	255	
836.280	1	1	0	0	0.097573	0.25553	0.084109	0.22805	0.24318	0.055399	0.25033	0.45432	0.011136	0.070625	0.087442	0.12738	0.1709	0.19699	0.33381	0.23489	-2.4604	-3.0125	-2.6312	-3.2542	-2.8333	-2.7333	-3.25	-3.0229	-2.7062	-3.2083	-3.1437	-3.0646	-3.1354	-2.9167	-3.0208	-2.925	81.725	26.115	-82.833	172.290	-128.733	-82.424	177.890	130.814	81.143	119.966	109.159	81.652	-125.904	-141.981	164.925	-99.741	0.000405	0.0005145	0.00014575	1570.2	4.5352e-06	4.4366e-06	1537.3	413.66	4.1421e-06	5.3382e-06	466.35	152.32	134.97	45.916	5.2086e-06	56.426	0.00099325	0.0014724	0.00040719	1584.9	1.5111e-05	1.653e-05	1555.1	421.01	1.4851e-05	1.6449e-05	474.52	156.51	138.14	47.264	1.5394e-05	57.861	-85.089	-56.809	-61.126	-129.890	25.687	22.313	-129.873	-125.230	-22.474	-14.120	-125.549	-121.377	-121.006	-116.420	18.088	-117.040	-8191	255	
836.376	1	1	0	0	0.064735	0.065445	0.16146	0.2498	0.18121	0.22246	0.27244	0.45063	0.38597	0.1194	0.50616	0.2435	0.17378	0.13606	0.10542	0.28165	-2.1979	-3.0375	-2.6542	-3.1458	-3.1083	-2.5917	-3.3146	-3.2229	-2.6542	-3.4	-2.7854	-3.025	-2.9688	-2.7396	-2.9938	-3.0208	191.335	178.478	-46.153	-128.442	137.167	110.623	117.295	167.761	7.645	-51.566	134.546	136.861	159.013	78.981	48.285	181.351	0.00040168	0.0007719	0.00012223	1570.5	5.0739e-06	7.1659e-06	1537.4	413.59	5.6296e-06	6.8138e-06	465.72	152.27	134.81	46.063	5.9062e-06	56.418	0.00099336	0.0014597	0.00041201	1586.3	1.5087e-05	1.6485e-05	1555.4	421.01	1.5063e-05	1.6427e-05	473.49	156.39	138.21	47.327	1.562e-05	57.927	-85.139	-48.866	-55.047	-129.842	26.461	38.219	-129.885	-125.123	-5.011	-1.045	-125.582	-121.366	-120.638	-116.597	-4.945	-117.042	-8191	255	
836.472	1	1	0	0	0.089391	0.288	0.13128	0.22394	0.21207	0.19459	0.40024	0.15931	0.24123	0.080513	0.24749	0.19987	0.22907	0.12645	0.043839	0.28448	-2.3417	-3.1042	-2.8563	-2.9979	-3.2625	-2.7812	-3.1688	-3.3	-2.7771	-3.1854	-3.1875	-2.9188	-3.3708	-2.9458	-3.0438	-3.1562	131.214	-88.657	144.978	75.036	-7.310	171.250	-127.739	187.086	-37.364	10.357	-133.361	-114.676	168.979	-104.262	-67.395	184.755	0.00038125	0.00045791	0.00014388	1571.2	3.4333e-06	5.2415e-06	1544.6	414.85	2.5828e-06	6.6436e-06	466.52	152.96	134.7	45.963	7.1558e-06	56.216	0.0010068	0.0014749	0.00041444	1585.9	1.5106e-05	1.6912e-05	1559.6	421.04	1.5383e-05	1.6381e-05	474.32	156.78	138.35	47.292	1.5455e-05	57.872	-83.269	-45.839	-40.031	-129.914	4.392	1.715	-129.894	-125.277	1.912	-1.897	-125.653	-121.456	-121.026	-116.285	11.911	-117.079	-8191	255	
836.591	1	1	0	0	0.10969	0.062596	0.094904	0.3009	0.063456	0.39459	0.27213	0.36458	0.28767	0.33233	0.16241	0.17568	0.069464	0.13966	0.10562	0.056846	-2.4062	-2.8521	-2.6708	-3.0354	-3.0958	-2.5521	-3.1396	-3.1333	-2.6396	-3.1688	-3.1521	-3.0438	-3.2458	-2.9688	-2.9583	-3.2438	25.473	-48.650	-0.625	153.303	142.075	167.618	95.175	-95.786	-53.279	-99.403	63.487	199.119	95.095	-115.305	-64.711	101.315	0.0004581	0.00067231	0.00013708	1569.5	4.6954e-06	6.9507e-06	1539.3	413.51	5.1303e-06	5.6813e-06	465.41	153.43	134.35	46.06	6.2768e-06	56.539	0.0010087	0.0014549	0.00041371	1587.2	1.5028e-05	1.7049e-05	1557.9	421.1	1.506e-05	1.6144e-05	473.88	156.73	138.24	47.323	1.5649e-05	57.86	-85.053	-45.605	-58.528	-129.885	-1.420	1.463	-129.878	-125.510	-15.291	17.652	-125.712	-121.583	-121.038	-116.423	16.568	-117.146	-8191	255	
836.687	1	1	0	0	0.2594	0.16708	0.22827	0.35324	0.10014	0.20533	0.22032	0.29634	0.26532	0.072276	0.15385	0.43908	0.20702	0.22397	0.10575	0.13419	-2.2479	-3.1271	-2.8979	-3.1146	-3.0833	-2.8854	-3.0896	-3.0979	-2.6937	-2.9188	-2.9729	-2.9792	-3.2188	-2.8958	-3.0292	-3.2021	10.014	184.475	-24.728	169.332	1.031	4.245	153.789	179.651	105.212	115.626	160.042	142.466	-89.742	-133.156	8.471	164.188	0.00041467	0.00058994	0.00016615	1572.2	3.7292e-06	9.0727e-06	1539.3	414.49	4.9243e-06	6.0562e-06	466.61	152.35	134.74	46.078	4.1817e-06	56.312	0.00099584	0.0014679	0.00040709	1587.7	1.4907e-05	1.6627e-05	1556.5	421.77	1.4941e-05	1.611e-05	474.97	156.5	138.44	47.342	1.5293e-05	57.959	-84.363	-39.239	-56.984	-129.802	-9.162	12.800	-130.002	-125.244	2.750	3.197	-125.627	-121.225	-120.949	-116.345	-33.700	-117.085	-8191	255	
836.759	1	1	0	0	0.29162	0.041962	0.13409	0.38277	0.011914	0.20472	0.19582	0.10348	0.26942	0.066124	0.013922	0.12784	0.1387	0.25083	0.094102	0.10365	-2.3375	-3.0958	-2.9521	-2.8896	-3.0062	-2.8354	-2.8833	-3.2917	-2.65	-2.7396	-3.0812	-2.6854	-3.1667	-3.2146	-2.8083	-3.3208	149.149	49.973	13.490	168.134	-131.503	-97.849	172.950	-115.043	56.356	-112.514	140.498	12.150	-118.965	-113.775	142.676	117.787	0.00042519	0.00054544	0.00017103	1568.2	6.7277e-06	5.1005e-06	1535.6	415.09	5.7236e-06	5.8459e-06	466.55	152.6	134.94	45.979	5.2372e-06	56.499	0.00099061	0.0014475	0.00041368	1585	1.484e-05	1.6199e-05	1555.8	421.83	1.5116e-05	1.624e-05	474.35	156.74	138.34	47.305	1.5344e-05	57.974	-85.745	-48.308	-81.965	-129.689	3.692	34.093	-129.809	-125.280	2.776	5.187	-125.657	-121.372	-120.825	-116.389	-13.558	-116.993	-8191	255	
836.879	1	1	0	0	0.29294	0.14017	0.2927	0.17483	0.37961	0.20495	0.27141	0.30069	0.27809	0.36903	0.17974	0.39791	0.18875	0.11815	0.11236	0.14466	-2.4771	-2.8812	-3.0187	-2.8937	-2.9396	-2.9875	-2.7958	-3.1875	-2.6083	-2.8792	-3.0958	-2.9521	-3.1792	-3.1667	-3.0083	-3.425	163.085	157.920	-123.714	188.845	145.995	-80.997	160.772	129.742	-53.098	192.363	65.429	134.907	87.619	215.204	-42.678	-68.221	0.00042455	0.00045375	0.00014528	1572.1	5.8059e-06	6.4297e-06	1534	413.09	4.0535e-06	4.6153e-06	467.26	152.12	134.32	45.871	6.3019e-06	56.403	0.0010062	0.0014858	0.00041249	1587.7	1.4976e-05	1.6537e-05	1557.2	421.44	1.5123e-05	1.665e-05	474.58	156.59	137.92	47.297	1.5971e-05	57.914	-84.376	-84.784	-51.114	-129.850	37.699	28.561	-129.855	-125.296	12.691	33.338	-125.837	-121.457	-120.742	-116.448	16.937	-117.168	-8191	255	
836.976	1	1	0	0	0.16428	0.055665	0.19036	0.26904	0.18648	0.28138	0.10967	0.086677	0.25968	0.019707	0.056493	0.14038	0.34301	0.079733	0.13018	0.11854	-2.5417	-2.8104	-3.0083	-2.9708	-2.8	-3.0125	-2.7958	-3.1375	-2.8375	-2.8625	-3.4604	-2.9875	-3.2229	-3.3396	-2.7417	-3.3125	9.202	170.514	-124.970	207.804	-28.037	167.578	193.716	160.568	194.349	48.273	135.714	-127.430	-114.160	-114.784	-76.866	163.665	0.00043545	0.00044183	0.00020273	1574	4.8954e-06	8.2193e-06	1535.8	413.91	3.5614e-06	5.5749e-06	466.72	152.56	134.41	46	4.4805e-06	56.12	0.0010219	0.0014613	0.00041722	1587.8	1.517e-05	1.6963e-05	1556.4	421.11	1.5292e-05	1.6913e-05	474.14	156.55	138.15	47.278	1.6273e-05	57.825	-84.531	-74.519	-60.069	-129.843	1.328	-8.198	-129.899	-125.404	-25.079	7.383	-125.754	-121.357	-120.985	-116.344	-13.206	-117.276	-8191	255	
837.072	1	1	0	0	0.090395	0.082303	0.25401	0.48003	0.068123	0.11463	0.34496	0.18177	0.17684	0.10505	0.116	0.20097	0.15952	0.14043	0.045058	0.16861	-2.4771	-2.9062	-2.9375	-3.1396	-3.0875	-3.0479	-2.8563	-3.1667	-2.8521	-2.6396	-3.1771	-2.7958	-2.8271	-3.0625	-2.55	-3.0375	64.799	-104.055	-93.401	195.775	-29.181	-106.399	169.539	34.362	205.278	195.617	26.689	191.476	115.190	115.401	2.242	-118.615	0.00042176	0.00063479	0.0001386	1570	5.4015e-06	5.9692e-06	1540.3	414.95	4.975e-06	6.8519e-06	465.34	152.81	134.82	46.145	3.3587e-06	56.646	0.0010035	0.0014853	0.00041554	1588.2	1.4786e-05	1.6739e-05	1559	421.69	1.5529e-05	1.6474e-05	474.84	156.78	138.31	47.354	1.5865e-05	58.084	-85.357	-46.140	-75.497	-129.756	7.348	11.011	-129.877	-125.289	-17.566	27.812	-125.613	-121.473	-120.931	-116.478	4.126	-116.876	-8191	255	
837.168	1	1	0	0	0.11657	0.094278	0.19351	0.22644	0.16864	0.17344	0.21228	0.32248	0.089591	0.1803	0.28435	0.24556	0.39625	0.19127	0.20223	0.30513	-2.4146	-2.7375	-3.0792	-2.9583	-2.9083	-3.0708	-2.9583	-3.1542	-3	-2.8688	-3.4167	-3.0687	-3.1083	-3.3292	-2.775	-3.2292	-95.872	-119.345	113.395	199.012	-120.644	177.169	108.567	140.381	167.524	184.373	195.898	170.932	70.421	-137.028	-135.293	190.221	0.00039125	0.00074753	0.00014349	1575.8	4.1226e-06	7.6491e-06	1546.2	414.61	7.8571e-06	6.1236e-06	468.17	152.49	135.02	46.226	5.6174e-06	56.511	0.0010364	0.0015376	0.00040611	1592.8	1.522e-05	1.6794e-05	1563.3	422.14	1.5481e-05	1.671e-05	475.44	157.01	138.38	47.415	1.5998e-05	58.129	-79.073	-53.234	-58.118	-129.840	10.697	-1.332	-130.013	-125.130	5.083	3.977	-125.788	-121.394	-120.751	-116.432	22.020	-116.974	-8191	255	
837.288	1	1	0	0	0.097516	0.42487	0.15774	0.064624	0.20506	0.18107	0.13331	0.13889	0.036038	0.067047	0.1855	0.16195	0.082486	0.098623	0.26777	0.30116	-2.7042	-2.5771	-3.1375	-3.0083	-2.8125	-3.3083	-3.1604	-3.0729	-3.1063	-2.7833	-3.175	-3.0604	-2.9521	-3.4062	-2.8167	-3.3479	-40.890	155.679	102.943	213.686	151.585	58.121	132.288	-117.920	113.034	-14.046	145.021	-67.805	-102.691	180.913	113.767	196.164	0.00041695	0.00046551	0.00021215	1578.8	3.8552e-06	5.3789e-06	1545.6	415.03	4.3099e-06	5.1254e-06	467.1	152.25	135.09	46.113	3.8482e-06	56.4	0.001016	0.0015027	0.00040667	1592.8	1.5167e-05	1.6957e-05	1562.9	421.9	1.5406e-05	1.6776e-05	475.15	156.88	138.38	47.396	1.5511e-05	58.049	-80.006	-57.862	-66.730	-129.867	-5.738	14.345	-129.986	-125.195	16.715	-16.170	-125.974	-121.302	-120.840	-116.493	-1.575	-116.855	-8191	255	
837.383	1	1	0	0	0.236	0.038376	0.021043	0.14537	0.1001	0.086657	0.30742	0.17916	0.16974	0.033309	0.17628	0.1496	0.3237	0.071241	0.12186	0.19782	-2.6562	-2.8292	-3.2562	-3.0333	-2.7292	-3.1354	-2.9417	-3.0396	-3.0979	-2.5396	-3.1708	-2.875	-2.7229	-2.9833	-2.8479	-2.9354	206.638	47.338	-39.707	192.214	-81.045	87.188	-125.965	-126.298	-77.493	113.898	209.226	-142.609	179.933	180.659	-19.365	191.088	0.00041396	0.00051616	0.00015028	1573.3	4.159e-06	5.1497e-06	1545.4	415.6	3.645e-06	4.3377e-06	465.69	152.74	134.75	46.303	5.4114e-06	56.737	0.0010015	0.0014566	0.00040105	1590.9	1.4969e-05	1.6092e-05	1562.4	422.14	1.5148e-05	1.6629e-05	474.39	157	138.55	47.458	1.5634e-05	58.098	-82.171	-48.235	-66.956	-129.760	-4.622	16.660	-129.957	-125.389	10.381	5.604	-125.837	-121.296	-120.993	-116.294	13.320	-117.132	-8191	255	
837.456	1	1	0	0	0.24763	0.13273	0.12556	0.39346	0.29651	0.15177	0.19283	0.18937	0.12996	0.12927	0.26072	0.065374	0.36104	0.20884	0.10488	0.036053	-2.5917	-2.5083	-2.9208	-3.2146	-2.7583	-3.2458	-3.1521	-2.9938	-3.2188	-2.7083	-3.0646	-3.1292	-2.6896	-3.0479	-2.6937	-2.8333	140.412	105.754	-78.364	195.741	-137.599	-106.907	147.685	187.394	-140.994	126.563	127.368	157.179	211.200	179.592	-118.961	-101.486	0.00043253	0.00044304	0.00012378	1575.1	4.9542e-06	5.198e-06	1540	413.39	3.6391e-06	6.2551e-06	466.94	153.14	134.43	46.132	7.1419e-06	56.351	0.00099987	0.0014769	0.00040154	1592.3	1.4968e-05	1.6312e-05	1560.1	421.35	1.488e-05	1.6473e-05	475.2	156.9	138.25	47.358	1.5666e-05	58.042	-82.120	-50.808	-69.915	-129.814	-8.040	3.746	-129.977	-125.293	12.950	12.979	-125.642	-121.340	-120.798	-116.339	-17.117	-117.259	-8191	255	
837.552	1	1	0	0	0.38083	0.16031	0.34808	0.47569	0.074511	0.24954	0.21614	0.14907	0.29576	0.36627	0.12223	0.17591	0.047985	0.39416	0.0921	0.17784	-2.6625	-2.6562	-2.7979	-3.0938	-2.6625	-3.0583	-3.2521	-2.825	-3.2125	-2.8708	-3.1708	-3.3771	-2.825	-3.2375	-2.9417	-3.0687	209.904	-62.582	-138.788	156.014	132.021	172.360	106.521	170.851	179.999	-125.696	33.854	75.469	-81.291	165.096	-23.359	34.394	0.00044213	0.0005431	0.00016075	1574	6.1103e-06	5.5691e-06	1545.7	413.79	4.6968e-06	5.7544e-06	466.82	153.54	135.51	46.073	5.1015e-06	56.577	0.00099518	0.0014653	0.00040922	1590.7	1.5356e-05	1.6359e-05	1560.9	421.81	1.4928e-05	1.6463e-05	475.98	157.17	138.69	47.347	1.5646e-05	58.08	-85.817	-49.625	-61.436	-129.947	12.141	-33.070	-129.807	-125.260	-10.162	-0.432	-125.846	-121.461	-120.745	-116.587	10.450	-117.038	-8191	255	
837.671	1	1	0	0	0.18863	0.18923	0.1351	0.35507	0.2231	0.25217	0.11778	0.018031	0.023459	0.21498	0.089083	0.2358	0.27456	0.16187	0.13144	0.20108	-2.8125	-2.7188	-2.5667	-3.2833	-2.5542	-2.9396	-3.0146	-2.6792	-3.1	-2.7292	-3.0167	-3.1375	-2.7438	-3.1146	-3.1813	-2.9437	151.666	-86.536	193.867	156.868	134.737	41.140	134.296	-3.324	-8.084	164.998	-115.825	-132.046	170.503	6.922	-111.259	184.075	0.00042314	0.00065179	0.00016649	1571.8	4.8869e-06	3.3765e-06	1545.5	414.01	5.1202e-06	4.6524e-06	466.56	153.48	135.04	46.049	5.0411e-06	56.622	0.0009984	0.0014574	0.00040067	1590.4	1.5084e-05	1.6583e-05	1560.5	421.68	1.5215e-05	1.6647e-05	475.15	157.16	138.58	47.37	1.5549e-05	58.117	-84.404	-62.335	-50.492	-129.674	28.660	18.239	-129.902	-125.278	32.365	-42.988	-125.759	-121.272	-120.608	-116.425	22.676	-116.952	-8191	255	
837.767	1	1	0	0	0.11389	0.31825	0.065835	0.28538	0.08162	0.12428	0.22922	0.31059	0.26322	0.25807	0.35157	0.15827	0.077201	0.17409	0.1374	0.1076	-2.4854	-2.8021	-2.8896	-3.4562	-2.5583	-2.9625	-3.2375	-2.8438	-3.2083	-3.0458	-2.7542	-3.4021	-2.7208	-2.9917	-3.05	-2.9875	111.352	-60.809	-109.013	179.058	-35.694	-23.725	-114.526	-126.704	-3.453	63.760	173.751	-95.754	-76.198	-83.321	72.728	116.665	0.0004059	0.00050952	0.00011508	1574.7	4.9592e-06	7.0124e-06	1547.7	413.99	4.2813e-06	5.3639e-06	467.23	153.11	135.47	46.149	3.3478e-06	56.875	0.0009981	0.00151	0.00040676	1592.1	1.549e-05	1.6042e-05	1562.9	422.04	1.5054e-05	1.6486e-05	475.43	157.05	138.76	47.44	1.5734e-05	58.169	-82.796	-48.359	-34.720	-129.934	-11.280	4.980	-130.041	-125.356	-20.675	4.641	-125.814	-121.295	-120.723	-116.147	39.553	-117.187	-8191	255	
837.864	1	1	0	0	0.096471	0.13074	0.094158	0.16737	0.22549	0.22355	0.14712	0.069666	0.08148	0.15751	0.1937	0.31676	0.19534	0.10219	0.15013	0.13825	-2.7521	-2.9521	-2.825	-3.5104	-2.7104	-3.0354	-3.3229	-2.7604	-3.1667	-2.8604	-2.925	-3.2479	-2.8417	-2.95	-3.0771	-2.9062	215.185	-84.759	-122.761	177.400	83.894	12.822	151.029	71.023	47.735	-76.190	212.498	161.045	164.665	188.850	120.859	-114.445	0.00043328	0.00029569	0.00020326	1580.6	3.2569e-06	4.6767e-06	1546.9	415.18	4.826e-06	8.4418e-06	466.23	153.76	135.1	46.31	4.0762e-06	56.586	0.0009954	0.0014699	0.00040418	1595.2	1.5041e-05	1.6261e-05	1563.5	422.54	1.4778e-05	1.6438e-05	475.17	157.32	138.59	47.451	1.5943e-05	58.148	-84.755	-44.290	-68.066	-129.778	25.224	3.493	-130.018	-125.370	11.837	-7.969	-125.739	-121.339	-120.760	-116.321	3.767	-116.895	-8191	255	
837.960	1	1	0	0	0.061596	0.13726	0.14956	0.48248	0.112	0.038434	0.17144	0.15791	0.064015	0.096576	0.049985	0.24069	0.19586	0.10297	0.16451	0.27809	-2.55	-2.9167	-2.7625	-3.2333	-2.8417	-2.7313	-3.4167	-2.9708	-2.9688	-2.95	-2.9062	-3.1979	-2.9521	-3.0583	-3.1479	-2.9042	-125.908	114.014	-115.828	-142.246	-116.889	65.539	188.225	132.748	118.676	52.224	-103.809	-75.491	-122.041	-102.359	66.889	175.003	0.00040837	0.00063514	0.00011713	1580.4	6.6056e-06	6.1655e-06	1549.3	415.35	5.7488e-06	4.6195e-06	469.07	154	134.87	46.458	5.0692e-06	56.828	0.00097215	0.0014451	0.00040792	1594.9	1.4938e-05	1.6037e-05	1565.7	422.79	1.4993e-05	1.6347e-05	476.28	157.49	138.78	47.576	1.5225e-05	58.212	-85.921	-55.158	-57.983	-129.912	14.441	-8.188	-129.851	-125.317	15.635	-8.410	-125.568	-121.471	-120.829	-116.369	-0.528	-117.126	-8191	255	
838.056	1	1	0	0	0.20294	0.24861	0.21741	0.18908	0.26667	0.046671	0.28715	0.30343	0.1047	0.098869	0.24095	0.12422	0.12727	0.144	0.21484	0.13573	-2.5375	-2.9729	-2.7979	-3.55	-2.9792	-2.8812	-3.2979	-2.7917	-2.75	-2.8583	-2.7042	-3.3	-2.8438	-2.8354	-2.9792	-2.8792	-62.769	137.546	142.798	181.283	-65.350	-90.321	165.387	186.146	191.003	13.927	178.803	-107.582	-97.605	-82.653	-65.610	143.426	0.00044076	0.0005932	0.00012323	1579.3	5.1217e-06	6.0369e-06	1550.5	415.53	5.8302e-06	6.2067e-06	469.72	153.86	135.69	46.547	5.7803e-06	57.034	0.00098388	0.001466	0.00040367	1597.8	1.4794e-05	1.5986e-05	1567.7	422.62	1.4739e-05	1.5639e-05	476.78	157.45	139	47.694	1.5399e-05	58.468	-87.480	-47.005	-51.501	-129.863	-9.415	30.967	-129.942	-125.503	-15.171	6.263	-125.740	-121.317	-120.883	-116.264	11.950	-116.973	-8191	255	
838.152	1	1	0	0	0.13971	0.078671	0.16951	0.16074	0.08853	0.19573	0.15923	0.34045	0.27798	0.1353	0.43	0.33337	0.22143	0.091557	0.18479	0.31624	-2.5292	-3.1083	-2.6625	-3.2583	-2.8125	-2.8646	-3.25	-2.9062	-2.8875	-3.0083	-2.6271	-3.2646	-2.9875	-2.8583	-3.1208	-3.0021	-66.258	-124.213	166.492	-141.605	77.376	26.470	102.165	152.492	177.258	180.192	216.313	208.410	206.608	-139.425	186.276	117.469	0.00040352	0.00056351	0.00013266	1577.8	4.1714e-06	6.0833e-06	1551.2	414.62	2.4481e-06	7.0837e-06	470.17	153.52	135.94	46.279	4.2304e-06	56.817	0.00096934	0.0014353	0.00040316	1595.3	1.482e-05	1.6134e-05	1566.2	422.6	1.4751e-05	1.625e-05	476.65	157.55	139.07	47.548	1.5418e-05	58.296	-82.738	-46.001	-58.162	-129.764	13.183	16.114	-129.875	-125.229	-4.620	-11.059	-125.995	-121.412	-120.695	-116.225	19.983	-117.085	-8191	255	
838.273	1	1	0	0	0.18674	0.12414	0.32528	0.17525	0.065151	0.098667	0.2516	0.20823	0.15288	0.16154	0.14194	0.1007	0.090039	0.22553	0.18828	0.28317	-2.4562	-3.1646	-2.7292	-3.35	-2.9313	-2.8125	-3.2562	-3.0771	-2.7229	-2.9396	-2.8646	-3.0646	-3.2229	-2.7958	-3.1437	-3.1896	184.019	214.869	-69.741	193.926	216.222	133.109	126.712	-121.635	53.591	161.773	126.203	188.519	67.226	215.732	-42.866	83.462	0.00038813	0.00042573	0.00014822	1575.1	3.3039e-06	7.0578e-06	1551.7	415.21	5.1067e-06	5.9574e-06	468.5	153.3	135.51	46.508	7.3531e-06	56.91	0.00098478	0.0014394	0.00040177	1595.4	1.5082e-05	1.6549e-05	1567.6	422.79	1.5013e-05	1.6517e-05	476.64	157.68	139.09	47.584	1.5152e-05	58.292	-84.610	-25.505	-34.834	-129.724	-6.885	12.347	-130.023	-125.377	-16.203	-17.176	-125.784	-121.458	-120.896	-116.408	4.766	-117.068	-8191	255	
838.369	1	1	0	0	0.0637	0.21724	0.21518	0.4152	0.20225	0.21349	0.33065	0.27923	0.046519	0.18208	0.20367	0.022601	0.13601	0.059334	0.11467	0.075652	-2.4458	-3.2396	-2.7896	-3.1937	-3.2687	-2.6646	-3.3563	-3.2083	-2.6021	-2.9562	-2.7417	-3.0812	-3.1792	-2.7792	-2.95	-3.1021	-25.745	70.643	47.407	177.537	-22.268	-61.961	167.187	149.099	0.501	-106.087	-141.248	51.282	139.426	-85.687	-69.115	193.899	0.00040602	0.00042012	0.00015317	1582.9	7.7701e-06	2.9486e-06	1545.4	416.35	4.5084e-06	1.0264e-05	467.81	153.87	135.25	46.3	5.3086e-06	56.979	0.00097936	0.0014244	0.00039841	1596.6	1.489e-05	1.6481e-05	1564.9	423.19	1.4898e-05	1.6421e-05	475.99	157.72	138.85	47.524	1.4918e-05	58.278	-83.620	-63.213	-70.505	-129.884	19.159	-9.155	-129.920	-125.372	-13.028	-14.790	-125.568	-121.411	-120.742	-116.547	8.029	-117.298	-8191	255	
838.465	1	1	0	0	0.096293	0.1614	0.14525	0.2672	0.22037	0.22252	0.2282	0.16369	0.3007	0.13325	0.071639	0.19194	0.2613	0.43048	0.17495	0.15056	-2.3521	-3.15	-2.6312	-3.1292	-3.0083	-2.7479	-3.2792	-3.2062	-2.5167	-3.1208	-2.9042	-2.8292	-3.025	-2.7479	-2.7708	-3.0354	-51.594	-2.402	33.499	187.661	10.597	67.933	206.419	11.187	110.372	41.214	-51.976	-143.050	132.048	197.732	27.121	-84.837	0.00043033	0.00051237	9.3103e-05	1577.4	6.5286e-06	8.6405e-06	1548.3	415.86	5.8171e-06	8.4548e-06	467.44	153.47	135.51	46.465	6.5054e-06	56.931	0.00098459	0.0014331	0.00039967	1595.4	1.4935e-05	1.6251e-05	1566	422.76	1.518e-05	1.6102e-05	476.48	157.61	138.9	47.63	1.5379e-05	58.201	-83.862	-77.611	-25.578	-129.795	41.257	19.695	-129.746	-125.290	-7.500	7.611	-125.982	-121.526	-120.967	-116.478	-14.856	-117.214	-8191	255	
838.561	1	1	0	0	0.25554	0.13873	0.086444	0.12408	0.38047	0.24896	0.29569	0.18343	0.36439	0.10943	0.13984	0.17339	0.15059	0.14581	0.16495	0.2029	-2.0271	-3.0396	-2.6396	-2.9562	-3.0229	-2.8104	-3.2562	-3.2646	-2.6333	-3.1146	-3.0229	-2.8625	-3.4396	-3.0354	-2.9437	-3.2896	180.407	51.829	188.429	108.788	3.070	82.554	117.735	188.388	65.739	-80.494	158.014	199.792	121.377	133.929	97.088	187.824	0.00043025	0.00045119	0.00016849	1581.3	5.5789e-06	6.281e-06	1547.3	414.88	5.5356e-06	3.5907e-06	468	153.76	134.87	46.363	4.8407e-06	56.835	0.0010055	0.0014576	0.00041177	1597.7	1.5217e-05	1.6576e-05	1567.3	422.75	1.5146e-05	1.5998e-05	476.25	157.64	138.94	47.566	1.5488e-05	58.29	-84.029	-75.261	-42.592	-129.783	12.803	-8.584	-129.837	-125.231	5.511	-16.856	-125.827	-121.526	-120.871	-116.449	7.147	-117.287	-8191	255	
838.656	1	1	0	0	0.13333	0.025361	0.1522	0.16833	0.16034	0.027636	0.15128	0.22643	0.12785	0.16452	0.16822	0.059853	0.26923	0.19515	0.20876	0.1799	-2.4042	-3.0667	-2.8854	-2.9479	-3.0771	-2.7542	-3.0312	-3.5417	-2.8167	-3.2583	-3.2979	-3.0438	-3.2896	-2.9854	-2.8396	-3.2542	-78.776	-1.332	-3.525	182.166	36.900	-72.016	155.489	160.443	-131.632	-45.977	130.201	40.907	140.436	135.200	-123.179	180.735	0.00046636	0.00039144	0.00018708	1576.7	5.8654e-06	6.7179e-06	1543.5	415.68	4.2734e-06	8.8402e-06	466.34	153.82	134.92	46.327	5.1964e-06	56.658	0.001002	0.0014107	0.00040299	1595.5	1.4862e-05	1.6593e-05	1565	423.06	1.5158e-05	1.5689e-05	475.9	157.72	138.89	47.541	1.5491e-05	58.268	-84.695	-20.234	-54.945	-129.681	12.091	32.867	-129.756	-125.346	10.169	-13.895	-125.901	-121.532	-120.852	-116.377	-13.077	-116.977	-8191	255	
838.752	1	1	0	0	0.13191	0.25445	0.14453	0.30981	0.10649	0.29315	0.061578	0.16441	0.13076	0.063485	0.1512	0.13829	0.16712	0.10198	0.27493	0.13537	-2.2375	-2.9938	-2.7354	-2.7542	-3.1625	-2.8688	-3.0771	-3.2542	-2.7146	-2.9458	-2.9167	-2.8146	-3.1854	-2.9813	-2.9646	-3.2729	134.777	-100.603	-43.991	157.231	132.707	-28.491	-136.362	123.457	-1.610	-137.140	185.935	56.454	-70.313	-118.515	145.665	81.811	0.0003846	0.00066112	0.00011657	1579.1	4.4391e-06	7.9601e-06	1543.8	415.38	4.1017e-06	3.4208e-06	466.31	153.67	135	46.136	4.6718e-06	56.717	0.00099627	0.0014711	0.00041641	1597.9	1.4813e-05	1.6313e-05	1565.7	422.78	1.5175e-05	1.6125e-05	476.41	157.47	138.8	47.615	1.5136e-05	58.192	-88.416	-42.377	-8.266	-129.972	27.469	8.092	-130.106	-125.432	-9.234	-23.579	-125.463	-121.413	-120.964	-116.378	25.282	-117.053	-8191	255	
838.848	1	1	0	0	0.13037	0.14972	0.21851	0.41692	0.093995	0.078713	0.12235	0.21537	0.16176	0.19258	0.12178	0.22061	0.30128	0.29107	0.099105	0.18734	-2.3375	-2.9646	-3.0125	-2.7646	-3.1	-3.0771	-3.1188	-3.2417	-2.9792	-3.075	-3.2958	-2.7188	-3.1958	-3.0687	-2.6375	-3.2	181.664	-25.546	182.515	170.462	74.986	54.960	83.685	191.290	41.778	35.652	199.007	197.309	155.070	114.162	-30.630	138.636	0.00039724	0.00036224	0.00017599	1577.1	2.6416e-06	4.4546e-06	1546.5	414.94	5.2187e-06	7.288e-06	468.43	153.8	135.5	46.399	7.1165e-06	56.766	0.0009908	0.0014438	0.00040913	1597.4	1.4812e-05	1.6549e-05	1566.2	423.03	1.4722e-05	1.5992e-05	476.96	157.65	138.97	47.63	1.5332e-05	58.303	-81.302	-50.059	-50.403	-129.793	10.555	-6.328	-129.951	-125.353	-5.273	0.765	-125.959	-121.441	-120.957	-116.242	7.249	-116.958	-8191	255	
838.944	1	1	0	0	0.27077	0.10989	0.061784	0.20415	0.19947	0.14607	0.50334	0.16055	0.24302	0.14809	0.14008	0.20124	0.049445	0.087196	0.093833	0.044321	-2.5104	-2.9396	-2.95	-2.9542	-3.075	-2.8271	-2.85	-3.3688	-2.6813	-2.7521	-2.9833	-2.8312	-3.1583	-3.35	-2.6542	-3.2479	82.695	39.500	-142.466	197.035	84.684	-24.081	173.955	118.658	44.220	-34.051	-99.762	137.017	-18.229	-76.111	-80.975	-114.492	0.00041856	0.00053211	0.00013719	1575	4.3534e-06	3.9251e-06	1545.8	413.1	3.9495e-06	8.3041e-06	467.45	153.31	135.55	46.211	4.1755e-06	56.826	0.00097683	0.0014338	0.00040021	1597.4	1.4547e-05	1.5763e-05	1567.4	422.52	1.4969e-05	1.6085e-05	476.03	157.57	139.18	47.629	1.57e-05	58.313	-84.135	-30.488	-60.100	-129.841	-7.581	17.638	-129.764	-125.232	8.908	33.062	-125.869	-121.531	-120.968	-116.544	3.793	-116.831	-8191	255	
839.063	1	1	0	0	0.056164	0.31648	0.17177	0.42822	0.12514	0.13191	0.23761	0.23777	0.10215	0.16054	0.10507	0.23124	0.16341	0.24677	0.076497	0.23132	-2.3104	-2.5938	-3.0125	-3.0729	-3.1375	-2.85	-2.8021	-3.2396	-2.9062	-2.8792	-3.3396	-2.7625	-3.0604	-3.1312	-2.525	-3.075	-58.110	7.844	123.284	183.884	194.657	-23.690	123.931	172.945	-19.063	-137.863	122.526	-26.012	204.792	-115.978	185.899	161.100	0.00042451	0.00039026	0.00016379	1580.2	2.2666e-06	4.3136e-06	1544	415.66	4.7347e-06	7.8258e-06	464.81	153.96	135.11	46.229	4.2701e-06	56.558	0.00098007	0.0014175	0.00039796	1597.8	1.4554e-05	1.6136e-05	1566.9	422.79	1.4758e-05	1.6068e-05	475.43	157.83	139.05	47.614	1.5368e-05	58.274	-84.429	-37.681	-25.835	-129.962	19.558	38.866	-129.922	-125.444	30.837	-19.903	-125.666	-121.634	-121.015	-116.382	28.520	-116.945	-8191	255	
839.159	1	1	0	0	0.18206	0.14171	0.041575	0.34488	0.28625	0.045096	0.12489	0.20597	0.23948	0.10209	0.11795	0.28504	0.2303	0.19799	0.056403	0.062439	-2.5625	-2.85	-3.0875	-2.9625	-2.9021	-2.8958	-2.8333	-3.1042	-2.875	-2.6833	-3.4021	-3.1979	-2.9479	-3.0771	-2.6604	-3.1312	172.123	-50.240	66.740	176.453	-47.383	89.756	137.974	-141.076	-135.611	89.435	43.391	136.319	187.072	-140.808	51.176	125.710	0.00039767	0.00060927	0.00017513	1577.6	6.6795e-06	3.2839e-06	1543.4	415.46	3.2952e-06	6.6828e-06	466.92	153.65	135.65	46.337	5.9462e-06	56.599	0.00098405	0.0014496	0.00039716	1597.6	1.4879e-05	1.6109e-05	1566.8	422.98	1.4746e-05	1.6205e-05	476.34	157.63	139.15	47.637	1.5318e-05	58.187	-83.370	-60.351	-79.939	-129.891	25.211	23.898	-129.956	-125.385	31.417	7.568	-125.642	-121.319	-120.845	-116.339	17.365	-116.950	-8191	255	
839.255	1	1	0	0	0.23346	0.12579	0.13978	0.27406	0.052674	0.21713	0.31731	0.20947	0.14939	0.08881	0.15274	0.15106	0.19216	0.42743	0.10679	0.043973	-2.65	-2.6979	-3.1396	-3.0646	-2.7417	-3.2354	-2.9604	-3.2646	-3.225	-2.5896	-3.3104	-3.0375	-3.0396	-3.3354	-2.6042	-3.1063	66.241	-127.165	201.083	201.831	-82.832	-124.434	148.068	148.248	-64.563	163.895	110.660	164.847	-140.786	167.620	24.094	-13.815	0.0004064	0.00029854	0.00013119	1579	4.6718e-06	9.5314e-06	1543.9	414.79	5.2572e-06	5.2988e-06	466.02	153.16	135.62	46.302	6.2328e-06	56.779	0.00096951	0.001422	0.0003953	1597.4	1.468e-05	1.6112e-05	1566.9	422.67	1.4693e-05	1.5878e-05	476.64	157.62	139.14	47.593	1.5292e-05	58.374	-86.296	-46.320	-46.714	-129.874	24.968	10.391	-129.962	-125.359	-8.446	-13.056	-125.578	-121.420	-121.061	-116.511	8.880	-116.939	-8191	255	
839.351	1	1	0	0	0.028292	0.35921	0.197	0.29278	0.23738	0.086241	0.39329	0.11614	0.13681	0.097056	0.13824	0.43953	0.14124	0.2328	0.15306	0.44834	-2.6333	-2.5667	-3.0979	-2.9875	-2.7812	-3.1375	-2.9021	-2.9396	-3.0875	-2.7292	-3.3979	-3.0812	-2.725	-3.15	-2.8812	-3.1146	193.294	-137.781	-55.934	189.375	107.236	-3.219	157.652	-137.562	-137.784	54.559	185.104	181.583	208.606	-135.344	119.426	158.540	0.00040915	0.0004296	0.00019952	1574.5	2.7568e-06	4.1246e-06	1544.6	414.96	4.1038e-06	5.3311e-06	468.61	153.63	135.32	46.352	5.7027e-06	56.775	0.00099434	0.0014411	0.00039027	1596.9	1.4714e-05	1.6164e-05	1568	423.37	1.5033e-05	1.5937e-05	476.46	157.92	139.17	47.696	1.5445e-05	58.364	-82.712	-36.550	-47.569	-129.923	11.520	-19.186	-129.851	-125.521	-36.217	30.399	-125.719	-121.566	-120.670	-116.433	33.262	-117.167	-8191	255	
839.447	1	1	0	0	0.1403	0.022604	0.15422	0.1888	0.057984	0.20451	0.30032	0.17003	0.17837	0.1851	0.3578	0.0035644	0.36807	0.072771	0.055111	0.14355	-2.9208	-2.5875	-2.7875	-3.1083	-2.8229	-3.2104	-2.9042	-3.1312	-3.0333	-2.7812	-2.8958	-2.9854	-2.8854	-3.2625	-2.9104	-3.0104	192.658	107.481	154.696	190.569	-47.618	105.712	142.599	118.801	-87.236	139.660	115.149	23.078	194.083	117.084	-100.885	159.401	0.00040926	0.00051391	0.00010124	1581.7	6.0436e-06	5.4375e-06	1541	415.76	4.3105e-06	6.3599e-06	467.85	152.67	135.75	46.401	4.765e-06	56.847	0.0009713	0.001462	0.00038645	1599.2	1.4597e-05	1.5604e-05	1564.3	423.44	1.4654e-05	1.5713e-05	476.25	157.42	139.03	47.64	1.523e-05	58.444	-81.767	-53.028	-63.697	-129.780	29.808	-9.178	-130.056	-125.449	9.347	3.595	-125.796	-121.445	-120.751	-116.370	23.280	-116.988	-8191	255	
839.544	1	1	0	0	0.052757	0.27341	0.30887	0.096339	0.2489	0.24806	0.15602	0.12852	0.19052	0.13277	0.06518	0.35863	0.23192	0.14121	0.11802	0.2608	-2.7167	-2.7542	-3.2292	-3.2917	-2.6104	-3.4021	-3.0646	-2.8458	-3.2021	-2.8083	-2.9979	-2.8958	-2.5042	-3.1813	-2.8021	-2.9167	78.846	96.678	172.306	-118.724	142.042	-121.451	185.030	-108.360	58.516	-77.550	143.729	169.563	164.630	160.090	159.408	165.930	0.00041678	0.00057195	9.4206e-05	1580.3	6.4107e-06	5.2793e-06	1542.9	414.65	4.5828e-06	6.5115e-06	467.54	153.3	135.3	46.332	6.0919e-06	56.532	0.00096166	0.0014313	0.00038006	1595.7	1.443e-05	1.5315e-05	1566.4	422.66	1.4314e-05	1.56e-05	476.42	157.89	139.19	47.701	1.5298e-05	58.316	-86.395	-38.318	-52.726	-129.874	-5.617	18.458	-129.929	-125.213	-4.287	15.226	-125.822	-121.394	-120.734	-116.440	18.775	-116.895	-8191	255	
839.664	1	1	0	0	0.097757	0.085972	0.15617	0.16364	0.039478	0.19902	0.34038	0.087036	0.089502	0.25513	0.20352	0.26091	0.088897	0.26486	0.078347	0.14115	-2.5979	-2.675	-3.1542	-3.3438	-2.6333	-2.9688	-3.0542	-2.625	-3.1521	-2.7292	-3	-3.2021	-2.8458	-3.0667	-2.9729	-2.8792	31.126	57.868	202.684	175.613	-134.454	82.986	167.626	174.212	101.400	156.144	181.123	127.641	3.217	208.464	5.518	145.969	0.00040025	0.00061895	0.0001675	1577.7	8.3061e-06	6.4473e-06	1546.2	415.56	5.3664e-06	5.6782e-06	467.56	153.67	135.82	46.428	4.6553e-06	56.793	0.0009526	0.0014112	0.00038345	1596.7	1.4559e-05	1.5459e-05	1565.4	423.57	1.4542e-05	1.5706e-05	476.45	157.94	139.44	47.684	1.4611e-05	58.408	-82.593	-61.261	-46.713	-129.892	33.615	-3.104	-129.800	-125.285	4.063	3.446	-125.838	-121.543	-120.922	-116.388	-10.215	-117.103	-8191	255	
839.760	1	1	0	0	0.027944	0.10807	0.11115	0.24672	0.32304	0.18844	0.095274	0.17748	0.12326	0.074179	0.41625	0.18464	0.085181	0.079847	0.10919	0.12445	-2.8771	-2.9167	-2.8375	-3.1688	-2.6188	-2.9125	-3.1667	-2.8187	-3.0417	-2.8625	-3.025	-3.2687	-2.9083	-3.0625	-2.9062	-2.8146	-25.114	163.020	-118.075	165.494	41.989	-29.864	-87.119	159.941	121.125	-131.458	159.333	-142.768	-96.833	144.602	167.504	50.816	0.00043085	0.00064037	0.00013762	1580.2	4.1801e-06	6.6118e-06	1551.1	415.7	4.42e-06	6.5393e-06	467.39	153.32	135.36	46.281	6.6388e-06	56.654	0.00095412	0.001383	0.00038496	1597.4	1.4423e-05	1.5414e-05	1569	423.8	1.426e-05	1.5514e-05	477.18	157.8	139.19	47.619	1.524e-05	58.347	-84.767	-64.077	-74.054	-129.921	20.707	9.562	-129.920	-125.294	1.418	4.932	-125.739	-121.504	-120.911	-116.487	-21.657	-116.914	-8191	255	
839.857	1	1	0	0	0.25407	0.1445	0.054347	0.46224	0.031753	0.11057	0.19228	0.23592	0.088681	0.15796	0.1998	0.31315	0.29293	0.20903	0.047408	0.17073	-2.5729	-2.5896	-2.7562	-3.3375	-2.65	-2.9646	-3.2354	-3.0458	-2.9917	-3.2	-2.9833	-3.2938	-3.0229	-2.9292	-2.9104	-2.7583	176.481	18.989	208.930	186.673	-105.945	7.240	124.378	153.555	201.653	23.827	212.811	190.274	214.604	-118.665	-3.354	109.652	0.0004134	0.00064065	0.00017556	1576.3	7.9711e-06	4.53e-06	1547.2	415.29	3.2135e-06	8.0271e-06	466.85	153.33	135.34	46.361	6.0383e-06	56.82	0.00093599	0.001402	0.00038929	1596.1	1.425e-05	1.5576e-05	1567.9	422.85	1.4179e-05	1.5839e-05	476.68	157.78	139.06	47.618	1.4592e-05	58.378	-83.663	-35.246	-33.254	-129.837	-3.652	-18.727	-129.942	-125.387	-2.785	26.789	-125.866	-121.333	-120.994	-116.379	24.622	-116.801	-8191	255	
839.953	1	1	0	0	0.19182	0.1893	0.12575	0.23834	0.26159	0.10186	0.085615	0.25762	0.29246	0.092284	0.33313	0.091413	0.1072	0.31047	0.20632	0.13813	-2.6854	-2.8125	-2.5542	-3.1688	-2.8125	-2.8021	-3.1146	-2.875	-3.0687	-3.1854	-2.9354	-3.1188	-2.6771	-2.9417	-2.9333	-2.775	165.093	134.132	206.101	139.721	120.254	-110.751	153.846	139.720	-122.286	-130.698	128.697	-118.667	-137.594	-46.121	-98.836	148.411	0.0003945	0.00063317	0.00016056	1572.4	7.1314e-06	6.309e-06	1549.5	414.57	4.8198e-06	5.1329e-06	467.03	153.49	135.54	46.477	5.1469e-06	56.83	0.00094543	0.0013636	0.00038586	1595	1.4369e-05	1.5624e-05	1567.1	422.92	1.399e-05	1.5805e-05	476.69	157.97	139.36	47.751	1.4708e-05	58.457	-82.198	-71.056	-24.573	-129.832	-2.672	38.913	-130.006	-125.305	-2.075	3.919	-125.651	-121.244	-121.134	-116.655	-9.716	-116.960	-8191	255	
840.047	1	1	0	0	0.21728	0.26064	0.148	0.38574	0.21099	0.18915	0.25993	0.057784	0.10215	0.16321	0.31632	0.057802	0.24677	0.20767	0.12791	0.20811	-2.4771	-2.9021	-2.5958	-3.0792	-2.7167	-2.9021	-3.1292	-2.9396	-2.9167	-2.7396	-2.8896	-3.25	-2.8417	-2.7583	-2.9521	-2.7313	10.612	-89.511	64.872	214.351	78.939	-14.829	90.197	-19.374	-115.658	121.013	214.893	-75.937	206.894	204.169	24.947	205.392	0.00042518	0.00045939	0.00018078	1578.4	5.0647e-06	6.2641e-06	1545	414.36	5.6272e-06	6.9628e-06	466.9	154.21	135.57	46.384	6.8999e-06	56.95	0.00094366	0.0013636	0.00038135	1596.6	1.3892e-05	1.5795e-05	1567.3	422.99	1.3872e-05	1.5429e-05	476.22	158.25	139.33	47.674	1.4524e-05	58.392	-81.625	-46.796	-61.606	-129.895	20.749	-16.829	-130.001	-125.297	-1.312	14.583	-125.790	-121.375	-120.822	-116.414	1.947	-116.856	-8191	255	
840.143	1	1	0	0	0.18839	0.088914	0.29359	0.41857	0.081702	0.19908	0.096146	0.35178	0.14198	0.13518	0.41688	0.07212	0.12299	0.34764	0.087713	0.23085	-2.725	-3.1292	-2.6792	-3.225	-2.9583	-2.75	-3.2542	-2.7812	-2.7958	-3.075	-2.7417	-3.0625	-2.8229	-2.9417	-3.2354	-2.9854	-139.346	156.086	12.393	194.631	102.739	8.539	-138.049	139.375	-55.111	24.243	163.864	-85.272	216.487	-141.148	156.778	211.368	0.00041473	0.000554	0.00018814	1577.7	6.0794e-06	7.484e-06	1541.7	414.11	4.4247e-06	5.9598e-06	467.86	153.79	135.49	46.338	6.7273e-06	56.728	0.00094424	0.0013653	0.00037818	1598.6	1.4135e-05	1.5366e-05	1566.9	423.3	1.3967e-05	1.5385e-05	476.91	158.27	139.53	47.698	1.4796e-05	58.408	-84.387	-37.754	-65.912	-129.791	10.060	7.044	-130.043	-125.491	7.524	-14.474	-125.724	-121.517	-121.004	-116.518	-5.396	-117.035	-8191	255	
840.239	1	1	0	0	0.15473	0.14755	0.15098	0.2723	0.14708	0.25408	0.12127	0.13428	0.28661	0.24785	0.37138	0.27003	0.06044	0.17717	0.19423	0.23278	-2.5312	-3.1708	-2.7833	-3.3042	-2.9437	-2.6437	-3.4542	-2.9813	-3.0167	-3.15	-2.9083	-3.1354	-3.0083	-2.7604	-3.1833	-2.9375	-57.223	71.035	12.657	170.899	68.240	29.976	189.696	138.641	63.118	-24.290	-132.893	189.259	27.261	208.951	38.786	173.019	0.00041825	0.00056527	0.00014774	1576.9	5.1835e-06	7.5199e-06	1541.9	413.9	3.4518e-06	3.7476e-06	468.67	153.51	136.11	46.448	5.68e-06	56.928	0.0009319	0.001376	0.00037735	1599.1	1.4158e-05	1.5454e-05	1567.4	423.12	1.385e-05	1.5108e-05	477.58	158.16	139.64	47.805	1.4207e-05	58.633	-81.886	-51.959	-45.145	-129.972	20.188	5.254	-129.740	-125.418	-8.986	-31.187	-125.691	-121.387	-120.950	-116.446	39.330	-117.069	-8191	255	
840.360	1	1	0	0	0.23502	0.20109	0.21892	0.33747	0.19757	0.073486	0.23693	0.16835	0.042624	0.18548	0.16913	0.30851	0.030789	0.096576	0.20143	0.22393	-2.4417	-3.1437	-2.6208	-3.2208	-3.0563	-2.5771	-3.3438	-2.9417	-2.7167	-2.9292	-2.8354	-2.9208	-2.9792	-2.7625	-2.8271	-2.95	19.483	12.913	-76.179	197.678	-140.139	-94.942	192.281	179.652	42.512	23.478	155.350	135.739	95.556	137.840	169.185	-1.111	0.00044261	0.00046837	0.00020179	1581.1	5.7434e-06	8.1346e-06	1549.1	415.82	3.8648e-06	6.1971e-06	466.67	154.17	135.82	46.376	6.6961e-06	57.011	0.00095897	0.0013558	0.0003743	1601.5	1.4005e-05	1.4909e-05	1570.3	423.21	1.3801e-05	1.5002e-05	477.47	158.41	139.7	47.836	1.4751e-05	58.551	-79.643	-61.965	-45.672	-129.797	1.297	6.075	-130.199	-125.398	24.066	-5.126	-125.790	-121.447	-120.785	-116.382	8.842	-117.482	-8191	255	
840.456	1	1	0	0	0.033468	0.20562	0.20501	0.23003	0.20188	0.053253	0.36291	0.10215	0.21875	0.14511	0.19695	0.27638	0.1364	0.1111	0.19948	0.28208	-2.275	-3.0125	-2.4979	-3.0229	-2.9104	-2.6542	-3.4208	-3.1479	-2.925	-3.1167	-2.8042	-3.0312	-3.0542	-2.9229	-2.9521	-3.1083	74.461	-90.498	-107.326	-136.771	-92.645	177.372	151.629	196.610	108.496	-111.219	-116.943	206.613	201.940	-126.035	-19.444	-120.247	0.00041501	0.00043168	0.00010486	1578.6	6.3174e-06	7.9892e-06	1542.8	414.69	3.1399e-06	8.1262e-06	469.45	153.92	135.71	46.626	6.1128e-06	57.099	0.00093593	0.0013523	0.00036577	1598.6	1.3965e-05	1.5013e-05	1567.8	423.36	1.3845e-05	1.4886e-05	477.72	158.51	139.69	47.9	1.4524e-05	58.633	-85.119	-67.859	-48.825	-129.856	9.116	11.846	-129.860	-125.418	20.561	-17.451	-125.406	-121.392	-120.713	-116.322	30.492	-117.269	-8191	255	
840.552	1	1	0	0	0.25155	0.054264	0.18636	0.10973	0.081404	0.088558	0.24388	0.21108	0.17182	0.041065	0.21827	0.19966	0.25586	0.12227	0.3239	0.12953	-2.3042	-3.2479	-2.9313	-3.2021	-3.1167	-2.6271	-3.1583	-3.2083	-2.9313	-3.0125	-2.8521	-3.2812	-3.2604	-3.0729	-3.0938	-3.2188	-11.284	-66.186	-104.141	149.188	191.456	15.929	-143.317	197.130	69.760	-50.169	63.771	129.812	-56.951	147.354	-68.833	7.921	0.00041686	0.00048454	8.0352e-05	1575.8	6.9824e-06	7.5493e-06	1547.8	415.29	3.4633e-06	6.1079e-06	465.67	154.64	136.58	46.617	3.744e-06	57.076	0.00094846	0.0013412	0.00038128	1598.1	1.3566e-05	1.5221e-05	1567.7	423.94	1.3787e-05	1.4843e-05	476.68	158.5	139.93	47.889	1.4066e-05	58.673	-85.352	-59.388	-56.970	-129.919	17.427	10.511	-129.967	-125.360	13.802	-19.137	-125.626	-121.464	-121.139	-116.642	36.552	-117.092	-8191	255	
840.624	1	1	0	0	0.2223	0.044362	0.094538	0.24848	0.042476	0.20764	0.39313	0.10357	0.13349	0.16943	0.20467	0.23103	0.30592	0.25272	0.11141	0.22369	-2.2771	-3.1437	-2.7438	-2.9542	-3.1771	-2.7708	-3.1083	-3.1208	-2.7625	-3.1083	-3.0479	-2.9958	-3.2917	-2.9813	-2.8187	-3.1167	-16.692	142.518	118.678	181.979	45.860	67.218	150.712	176.226	57.356	-127.343	-94.272	182.511	215.096	159.957	11.886	143.198	0.00042467	0.00040023	0.00016151	1577.1	6.7777e-06	4.3598e-06	1547.6	415.11	2.8547e-06	3.6017e-06	468	153.88	135.87	46.542	5.713e-06	56.999	0.00094034	0.0013229	0.00037561	1598	1.3629e-05	1.4701e-05	1569.7	423.39	1.3854e-05	1.4944e-05	477.2	158.45	139.71	47.864	1.4285e-05	58.579	-83.207	-47.372	-73.767	-129.888	0.403	6.287	-129.870	-125.452	-28.536	36.562	-125.724	-121.173	-120.705	-116.319	7.886	-116.999	-8191	255	
840.745	1	1	0	0	0.012785	0.10925	0.31637	0.27223	0.15481	0.1903	0.23723	0.18695	0.087159	0.062858	0.15878	0.26673	0.307	0.059366	0.054877	0.49228	-2.2771	-3.05	-2.8812	-3.1542	-3.1979	-2.7562	-3.1417	-3.1104	-2.6417	-3.1458	-3.0542	-2.9125	-3.2542	-3.0271	-2.9333	-3.2	-64.887	47.576	127.279	-132.385	-105.280	29.643	116.364	121.392	198.526	-42.258	82.242	-134.394	191.352	208.818	132.044	123.744	0.00045242	0.0005616	0.00012626	1575.3	4.0852e-06	6.172e-06	1541.6	415.02	4.9737e-06	4.7703e-06	469.05	154.15	135.87	46.482	3.9622e-06	56.981	0.0009469	0.0013156	0.00037424	1596.7	1.363e-05	1.47e-05	1567.8	423.48	1.3988e-05	1.4855e-05	478.11	158.26	139.61	47.812	1.4262e-05	58.582	-84.418	-39.574	-61.668	-129.974	24.277	17.092	-129.923	-125.344	10.003	14.577	-125.986	-121.548	-120.951	-116.545	26.899	-117.119	-8191	255	
840.841	1	1	0	0	0.18571	0.057169	0.16513	0.44173	0.2002	0.10201	0.41618	0.15251	0.16109	0.068084	0.12696	0.31652	0.091957	0.26113	0.095398	0.29752	-2.4396	-2.9958	-2.9062	-2.9771	-3.05	-2.7812	-2.9021	-3.1	-2.7479	-3.2354	-3.2687	-2.95	-3.1271	-3.0292	-2.5667	-3.1667	187.282	-37.535	-92.576	191.951	-93.468	64.114	130.302	154.827	-40.979	-89.140	110.903	181.857	145.918	114.939	-2.039	122.423	0.00041406	0.00048837	0.00014693	1578.6	6.1491e-06	7.3144e-06	1546	414.01	3.639e-06	3.9774e-06	466.55	153.69	135.34	46.31	4.3822e-06	56.39	0.00092482	0.0013067	0.00036809	1600.5	1.3647e-05	1.5149e-05	1568.5	423.19	1.376e-05	1.4771e-05	476.1	158.2	139.49	47.766	1.4005e-05	58.264	-89.156	-25.477	-65.446	-129.828	10.209	-13.513	-129.879	-125.321	30.147	8.267	-125.753	-121.304	-120.981	-116.487	10.448	-117.066	-8191	255	
840.937	1	1	0	0	0.088697	0.12728	0.11326	0.34419	0.26169	0.21821	0.37289	0.28759	0.1091	0.22875	0.098915	0.33972	0.22333	0.15969	0.17215	0.075512	-2.1437	-2.7125	-2.8958	-2.8	-3.0458	-2.8104	-3.1604	-3.3688	-2.7292	-3.2062	-3.3187	-2.6688	-3.3167	-2.9708	-2.9104	-3.4354	-31.155	-74.740	190.656	139.546	132.810	-51.838	185.543	-120.044	-139.279	185.680	61.432	-80.621	178.892	186.574	-111.285	-126.858	0.00038625	0.00072186	0.00011523	1577.4	5.3422e-06	5.9246e-06	1538.4	414.21	5.5006e-06	4.979e-06	466.45	152.94	135.18	46.13	5.239e-06	56.471	0.00094456	0.0013416	0.00037204	1595.8	1.371e-05	1.5287e-05	1562.4	422.49	1.3953e-05	1.4961e-05	475.96	157.58	139.25	47.619	1.4351e-05	58.301	-87.730	-51.423	-23.702	-130.010	24.453	-14.761	-129.948	-125.154	0.924	-7.624	-125.944	-121.564	-121.041	-116.633	11.920	-117.327	-8191	255	
841.033	1	1	0	0	0.24114	0.19155	0.035853	0.27127	0.24489	0.12827	0.32561	0.31558	0.23979	0.17863	0.18575	0.3185	0.073548	0.17057	0.16898	0.094361	-2.3208	-2.7417	-3.0062	-2.9188	-3.0167	-2.9562	-2.8854	-3.1604	-2.5979	-2.7583	-3.4333	-2.8229	-3.1875	-3.1208	-2.7562	-3.3	-104.967	-43.515	-119.019	197.555	114.235	150.807	163.238	108.249	-36.762	22.742	136.117	186.749	131.953	-128.137	159.568	142.845	0.00042037	0.00054579	0.00015979	1576.9	2.5977e-06	5.8102e-06	1545.5	415.18	4.0772e-06	5.2397e-06	464.87	153.32	135.22	46.43	5.0519e-06	56.647	0.00092074	0.0013431	0.00038505	1597.2	1.4099e-05	1.5705e-05	1567.6	423.08	1.4083e-05	1.5266e-05	476.01	157.95	139.15	47.73	1.473e-05	58.414	-81.853	-23.679	-55.271	-129.861	12.090	21.739	-130.113	-125.522	7.554	-3.323	-125.666	-121.408	-121.038	-116.655	17.845	-117.082	-8191	255	
841.152	1	1	0	0	0.063684	0.10933	0.076173	0.27963	0.090335	0.052997	0.24644	0.25527	0.030104	0.26661	0.43564	0.15472	0.15297	0.24943	0.089226	0.15355	-2.6188	-2.8833	-3.2271	-2.8438	-2.7521	-2.9771	-2.7854	-2.9833	-2.7125	-2.6917	-3.2417	-2.9771	-3.0771	-3.2875	-2.7979	-3.175	21.675	72.452	-69.102	172.803	-2.935	167.112	154.675	170.870	130.339	-69.442	165.937	155.272	184.931	176.259	79.028	145.374	0.00040667	0.00055764	0.00014109	1570.5	4.6179e-06	5.954e-06	1538.7	415.19	3.8127e-06	6.5956e-06	466.21	153.58	135.18	46.425	4.7974e-06	56.891	0.00093944	0.0013315	0.00037835	1593.8	1.3731e-05	1.5358e-05	1563.4	423.36	1.3973e-05	1.5195e-05	476.5	157.88	139.17	47.784	1.4561e-05	58.428	-86.058	-60.120	-51.331	-129.852	-12.319	12.191	-130.036	-125.220	21.213	-7.679	-126.037	-121.414	-120.923	-116.588	2.046	-116.923	-8191	255	
841.225	1	1	0	0	0.13052	0.20083	0.15425	0.27086	0.19673	0.038749	0.34405	0.21035	0.14706	0.16135	0.11005	0.11414	0.1642	0.39983	0.15121	0.25509	-2.5104	-2.6937	-3.1333	-2.9437	-3.0062	-2.9979	-2.7979	-3.1125	-2.9521	-2.4604	-2.9646	-2.6542	-2.7896	-3.025	-2.5229	-3.1417	50.036	-93.747	199.641	180.841	4.273	62.258	93.562	204.902	203.007	140.418	121.635	211.060	196.372	126.163	-33.534	-134.409	0.00042103	0.00055624	9.8159e-05	1572.3	6.0074e-06	5.4349e-06	1534.3	412.87	2.1099e-06	7.4884e-06	465.59	153.34	135.23	46.15	5.9285e-06	56.759	0.00093411	0.0013382	0.00036688	1593.3	1.3573e-05	1.4827e-05	1562.1	421.96	1.4016e-05	1.4994e-05	475.71	157.78	139.14	47.565	1.3987e-05	58.357	-87.335	-70.653	-51.420	-129.886	10.277	29.996	-130.005	-125.537	-28.223	14.692	-125.771	-121.515	-121.034	-116.490	31.935	-117.223	-8191	255	
841.344	1	1	0	0	0.11655	0.28242	0.10186	0.24522	0.27282	0.15226	0.26632	0.082506	0.048463	0.066421	0.035731	0.25933	0.24258	0.17911	0.22399	0.080576	-2.2625	-2.4667	-3.0146	-2.8563	-2.7542	-3.0417	-2.9083	-2.9521	-3.0125	-2.6396	-3.1167	-2.8438	-2.8812	-3.2729	-2.5812	-3.0375	205.256	-3.147	-127.869	175.743	-138.082	-53.637	211.960	170.072	-59.934	19.732	120.285	116.304	138.966	176.523	-134.996	72.610	0.00039662	0.00041732	0.00017418	1566.7	5.4517e-06	6.3631e-06	1538.2	412.33	3.3662e-06	5.1266e-06	466.07	153.5	135.55	46.188	6.5781e-06	56.651	0.00091145	0.0013246	0.00036007	1589.8	1.3739e-05	1.5096e-05	1561	422.22	1.3757e-05	1.4886e-05	475.87	158.03	139.17	47.591	1.4201e-05	58.291	-83.483	-63.028	-41.698	-130.047	11.210	13.164	-129.879	-125.212	16.956	-5.033	-125.796	-121.478	-120.759	-116.575	8.134	-117.136	-8191	255	
841.440	1	1	0	0	0.13959	0.14011	0.11109	0.50814	0.22165	0.047165	0.36828	0.17949	0.19563	0.20666	0.088854	0.12218	0.13461	0.17571	0.18316	0.26324	-2.6417	-2.7042	-3.1	-2.9688	-2.7417	-2.9833	-2.8208	-2.8646	-3.125	-2.5375	-3.1063	-2.825	-2.9667	-3.1458	-2.6396	-2.9229	-110.324	151.357	-66.264	203.047	157.379	74.162	141.355	205.583	-102.327	187.959	-103.592	147.953	-69.162	-57.580	6.435	-128.720	0.00040224	0.00059118	0.00021982	1567	6.198e-06	7.2104e-06	1540.3	414.13	5.3245e-06	3.5798e-06	466.58	154.75	135.67	46.434	5.0336e-06	56.797	0.00094857	0.0013362	0.00035591	1591.9	1.3791e-05	1.4792e-05	1562.7	422.52	1.3658e-05	1.4851e-05	476.24	158.23	139.36	47.729	1.4224e-05	58.446	-84.928	-50.047	-68.895	-129.761	34.082	40.719	-129.969	-125.362	-4.528	-41.305	-125.729	-121.505	-120.772	-116.301	8.830	-117.114	-8191	255	
841.537	1	1	0	0	0.12655	0.049624	0.29693	0.34416	0.19057	0.23159	0.13554	0.28674	0.056248	0.14314	0.34976	0.18347	0.071423	0.29865	0.10399	0.051826	-2.6021	-2.6625	-2.7854	-3.125	-2.6937	-3.0604	-3.0604	-2.9792	-2.95	-2.4604	-3.0354	-3.1625	-2.6958	-3.1771	-2.8604	-2.7917	16.489	60.029	50.386	177.338	191.231	206.978	-114.222	153.052	84.104	-108.817	138.857	191.038	-101.542	-68.655	70.423	-11.670	0.00039822	0.00033832	0.00014	1570.5	5.5064e-06	5.7898e-06	1533	414.31	3.9429e-06	6.675e-06	466.26	153.41	135.55	46.528	4.8161e-06	57.032	0.00092833	0.0013415	0.00035634	1591.9	1.3616e-05	1.4389e-05	1561.3	423.56	1.38e-05	1.4929e-05	476.44	158.13	139.34	47.811	1.3799e-05	58.491	-86.385	-69.631	-26.290	-130.040	18.200	14.942	-129.979	-125.234	9.792	0.798	-125.668	-121.586	-120.806	-116.614	26.699	-117.165	-8191	255	
841.633	1	1	0	0	0.088952	0.0991	0.21167	0.30197	0.16729	0.13191	0.13252	0.31644	0.19435	0.13181	0.1821	0.12768	0.17636	0.30077	0.083244	0.49965	-2.4104	-2.6	-2.9167	-3.0833	-2.5312	-3.0625	-3.1813	-2.8375	-2.875	-2.7062	-3.0292	-3.0375	-2.5583	-3.0125	-2.6646	-2.8	50.256	192.678	-119.270	181.166	-112.429	169.957	109.421	-135.673	-28.118	-132.119	189.739	66.313	154.803	192.752	144.527	172.960	0.00039843	0.00034787	0.00015722	1571.3	3.9134e-06	8.7683e-06	1536.1	414.16	4.0237e-06	4.4882e-06	467.3	153.88	135.55	46.395	4.0891e-06	56.887	0.00091592	0.001293	0.00035367	1593.2	1.3599e-05	1.4301e-05	1560	423.53	1.3378e-05	1.4298e-05	476.47	158.18	139.48	47.806	1.4093e-05	58.519	-82.831	-64.562	-58.730	-129.842	33.152	-0.105	-130.105	-125.474	-1.128	24.950	-125.729	-121.328	-121.031	-116.429	0.824	-116.824	-8191	255	
841.753	1	1	0	0	0.12491	0.041733	0.4512	0.12878	0.079153	0.35575	0.10728	0.29045	0.19682	0.11379	0.044062	0.23595	0.26569	0.12432	0.1867	0.12696	-2.6125	-2.7792	-2.95	-3.4354	-2.8542	-3.225	-3.1708	-2.8354	-3.3812	-2.8083	-3.15	-3.3479	-2.9604	-3.1667	-2.7833	-2.7125	-43.497	75.479	-103.689	167.251	-34.860	-51.059	119.616	134.873	155.668	-98.296	48.623	154.364	-100.787	116.422	186.931	210.843	0.00041083	0.00037595	0.00010048	1573.2	4.1198e-06	7.8988e-07	1538.2	413.05	5.2093e-06	5.2435e-06	466.96	154.06	135.45	46.411	3.7424e-06	56.562	0.00089307	0.0013211	0.00034779	1592.3	1.308e-05	1.4619e-05	1561.5	422.36	1.3179e-05	1.469e-05	476.6	158.14	139.34	47.709	1.4095e-05	58.291	-79.851	-45.848	-40.555	-130.045	38.517	29.127	-129.883	-125.187	-7.463	-3.430	-125.940	-121.330	-120.654	-116.394	36.478	-117.039	-8191	255	
841.825	1	1	0	0	0.064961	0.092838	0.1876	0.11128	0.2677	0.1228	0.087982	0.31512	0.090909	0.058046	0.13154	0.1086	0.19035	0.28618	0.10844	0.27122	-2.4729	-2.5583	-2.7375	-3.2812	-2.5854	-3.0167	-3.2792	-2.6417	-3.1979	-2.7354	-3.1271	-3.1917	-2.8042	-3.2354	-2.8875	-2.8167	38.782	-99.999	22.659	-113.975	23.280	47.100	166.057	204.964	-19.138	-40.849	147.470	-72.087	181.926	209.322	107.819	157.419	0.00038579	0.00071347	0.00012319	1568.2	6.5439e-06	6.1631e-06	1536.2	413.24	6.4713e-06	7.4308e-06	466.94	153.68	135.14	46.182	4.4804e-06	56.505	0.00090829	0.0013306	0.00036262	1591.7	1.3708e-05	1.4676e-05	1560	422.51	1.3463e-05	1.4899e-05	476.06	157.93	139.24	47.629	1.4287e-05	58.201	-86.148	-43.921	-40.299	-129.816	11.893	-6.966	-129.892	-125.271	-3.934	5.977	-125.798	-121.318	-120.911	-116.355	44.072	-117.139	-8191	255	
841.921	1	1	0	0	0.15507	0.094663	0.062523	0.37294	0.1673	0.37716	0.20874	0.19294	0.16187	0.01164	0.2764	0.20643	0.15115	0.2552	0.23061	0.20283	-2.5146	-2.7104	-2.7354	-3.1833	-2.7062	-2.8812	-3.3083	-3.0062	-3.0271	-2.9	-2.9396	-3.2562	-2.8958	-2.9	-3.0187	-2.7979	-5.378	-83.923	5.872	196.247	-63.665	19.422	101.777	177.577	207.883	148.193	193.372	-104.898	199.449	-119.114	40.269	201.533	0.00043795	0.00067795	0.00017071	1570.9	5.8211e-06	7.8573e-06	1543.3	414.44	5.6876e-06	7.021e-06	467.79	153.59	134.94	46.072	8.0941e-06	56.651	0.00092471	0.001349	0.00036776	1590.8	1.3675e-05	1.4802e-05	1562.7	422.58	1.3585e-05	1.4897e-05	475.5	157.65	139.1	47.545	1.4329e-05	58.354	-84.085	-51.652	-58.307	-129.891	-11.891	8.660	-129.886	-125.235	8.874	12.874	-125.828	-121.404	-120.666	-116.481	8.152	-116.813	-8191	255	
#DATA ENDS
