BOXY.EXE: ISS Imagent and Oximeter Data Acquisition Program Version 0.80
Ascii Record File

#ACQ INFORMATION
2  Detector Channels 
16  External MUX Channels 
1  Auxiliary Channels 
5000  Waveform (CCF) Frequency (Hz)
1  Waveforms Skipped 
30  Waveforms Averaged 
1  Cycles Averaged 
16  Acquisitions per Waveform 
10.0806  Updata Rate (Hz) 

#FILE INFORMATION
TRUE -- External MUX Channel results are PARSED.
FALSE -- AC DC and Phase are NOT grouped.
TRUE -- Companion Program Settings File CREATED.
FALSE -- AC data not excluded
FALSE -- DC data not excluded
FALSE -- Phase data not excluded
FALSE -- Auxillary Chn. data not excluded
Tab delimiters

#CALIBRATION STATE
TRUE -- Waveform Calibration Values APPLIED.


#AUX CALIBRATION VALUES
Val Type	aux-1	

Term	1.0000e+00	
Factor	0.0000e+00	


#WF CALIBRATION VALUES
A = Detector Channel
Val Type	A-AC1	A-AC2	A-AC3	A-AC4	A-AC5	A-AC6	A-AC7	A-AC8	A-AC9	A-AC10	A-AC11	A-AC12	A-AC13	A-AC14	A-AC15	A-AC16	A-DC1	A-DC2	A-DC3	A-DC4	A-DC5	A-DC6	A-DC7	A-DC8	A-DC9	A-DC10	A-DC11	A-DC12	A-DC13	A-DC14	A-DC15	A-DC16	A-Ph1	A-Ph2	A-Ph3	A-Ph4	A-Ph5	A-Ph6	A-Ph7	A-Ph8	A-Ph9	A-Ph10	A-Ph11	A-Ph12	A-Ph13	A-Ph14	A-Ph15	A-Ph16	

Term	0.00000e+00	0.00000e+00	0.00000e+00	0.00000e+00	0.00000e+00	0.00000e+00	0.00000e+00	0.00000e+00	0.00000e+00	0.00000e+00	0.00000e+00	0.00000e+00	0.00000e+00	0.00000e+00	0.00000e+00	0.00000e+00	0.00000e+00	0.00000e+00	0.00000e+00	0.00000e+00	0.00000e+00	0.00000e+00	0.00000e+00	0.00000e+00	0.00000e+00	0.00000e+00	0.00000e+00	0.00000e+00	0.00000e+00	0.00000e+00	0.00000e+00	0.00000e+00	0.00000e+00	0.00000e+00	0.00000e+00	0.00000e+00	0.00000e+00	0.00000e+00	0.00000e+00	0.00000e+00	0.00000e+00	0.00000e+00	0.00000e+00	0.00000e+00	0.00000e+00	0.00000e+00	0.00000e+00	0.00000e+00	
Factor	1.00000e+00	1.00000e+00	1.00000e+00	1.00000e+00	1.00000e+00	1.00000e+00	1.00000e+00	1.00000e+00	1.00000e+00	1.00000e+00	1.00000e+00	1.00000e+00	1.00000e+00	1.00000e+00	1.00000e+00	1.00000e+00	1.00000e+00	1.00000e+00	1.00000e+00	1.00000e+00	1.00000e+00	1.00000e+00	1.00000e+00	1.00000e+00	1.00000e+00	1.00000e+00	1.00000e+00	1.00000e+00	1.00000e+00	1.00000e+00	1.00000e+00	1.00000e+00	X	X	X	X	X	X	X	X	X	X	X	X	X	X	X	X	

B = Detector Channel
Val Type	B-AC1	B-AC2	B-AC3	B-AC4	B-AC5	B-AC6	B-AC7	B-AC8	B-AC9	B-AC10	B-AC11	B-AC12	B-AC13	B-AC14	B-AC15	B-AC16	B-DC1	B-DC2	B-DC3	B-DC4	B-DC5	B-DC6	B-DC7	B-DC8	B-DC9	B-DC10	B-DC11	B-DC12	B-DC13	B-DC14	B-DC15	B-DC16	B-Ph1	B-Ph2	B-Ph3	B-Ph4	B-Ph5	B-Ph6	B-Ph7	B-Ph8	B-Ph9	B-Ph10	B-Ph11	B-Ph12	B-Ph13	B-Ph14	B-Ph15	B-Ph16	

Term	0.00000e+00	0.00000e+00	0.00000e+00	0.00000e+00	0.00000e+00	0.00000e+00	0.00000e+00	0.00000e+00	0.00000e+00	0.00000e+00	0.00000e+00	0.00000e+00	0.00000e+00	0.00000e+00	0.00000e+00	0.00000e+00	0.00000e+00	0.00000e+00	0.00000e+00	0.00000e+00	0.00000e+00	0.00000e+00	0.00000e+00	0.00000e+00	0.00000e+00	0.00000e+00	0.00000e+00	0.00000e+00	0.00000e+00	0.00000e+00	0.00000e+00	0.00000e+00	-5.53345e+01	-1.27015e+02	-1.27340e+02	-1.81716e+02	-4.47746e+01	-6.81240e+01	-1.57128e+02	-1.62015e+02	-4.21788e+01	-6.97516e+01	-1.72142e+02	-1.70362e+02	-1.80059e+02	-1.77178e+02	-5.13089e+01	-1.50265e+02	
Factor	1.80857e-05	1.60277e-04	4.48908e-05	1.58796e-01	1.75125e-06	1.97752e-06	1.70809e-01	6.08193e-02	1.37557e-06	1.84322e-06	8.34618e-02	2.77414e-02	2.97006e-02	8.95166e-03	1.69608e-06	1.25925e-02	1.30705e-05	2.57931e-05	7.13724e-06	8.02894e-02	2.50439e-07	2.91465e-07	8.12663e-02	3.08636e-02	2.52611e-07	2.90207e-07	4.12275e-02	1.37531e-02	1.53383e-02	4.59568e-03	2.66348e-07	6.24348e-03	X	X	X	X	X	X	X	X	X	X	X	X	X	X	X	X	



#DISTANCE SETTINGS
A = Detector Channel
A-1	A-2	A-3	A-4	A-5	A-6	A-7	A-8	A-9	A-10	A-11	A-12	A-13	A-14	A-15	A-16	

2.5000e+00	3.0000e+00	2.5000e+00	3.0000e+00	2.0000e+00	3.0000e+00	1.5000e+00	3.0000e+00	3.0000e+00	3.0000e+00	3.0000e+00	3.0000e+00	3.0000e+00	3.0000e+00	1.5000e+00	3.0000e+00	

B = Detector Channel
B-1	B-2	B-3	B-4	B-5	B-6	B-7	B-8	B-9	B-10	B-11	B-12	B-13	B-14	B-15	B-16	

1.0000e+01	1.0000e+01	1.0000e+01	1.4400e+00	1.0000e+01	1.0000e+01	1.5100e+00	1.9400e+00	1.0000e+01	1.0000e+01	1.9900e+00	2.4900e+00	2.4100e+00	2.9000e+00	1.0000e+01	2.9800e+00	




#DATA BEGINS
time	group	step	mark	flag	A-AC1	A-AC2	A-AC3	A-AC4	A-AC5	A-AC6	A-AC7	A-AC8	A-AC9	A-AC10	A-AC11	A-AC12	A-AC13	A-AC14	A-AC15	A-AC16	A-DC1	A-DC2	A-DC3	A-DC4	A-DC5	A-DC6	A-DC7	A-DC8	A-DC9	A-DC10	A-DC11	A-DC12	A-DC13	A-DC14	A-DC15	A-DC16	A-Ph1	A-Ph2	A-Ph3	A-Ph4	A-Ph5	A-Ph6	A-Ph7	A-Ph8	A-Ph9	A-Ph10	A-Ph11	A-Ph12	A-Ph13	A-Ph14	A-Ph15	A-Ph16	B-AC1	B-AC2	B-AC3	B-AC4	B-AC5	B-AC6	B-AC7	B-AC8	B-AC9	B-AC10	B-AC11	B-AC12	B-AC13	B-AC14	B-AC15	B-AC16	B-DC1	B-DC2	B-DC3	B-DC4	B-DC5	B-DC6	B-DC7	B-DC8	B-DC9	B-DC10	B-DC11	B-DC12	B-DC13	B-DC14	B-DC15	B-DC16	B-Ph1	B-Ph2	B-Ph3	B-Ph4	B-Ph5	B-Ph6	B-Ph7	B-Ph8	B-Ph9	B-Ph10	B-Ph11	B-Ph12	B-Ph13	B-Ph14	B-Ph15	B-Ph16	aux-1	digaux	

2262.280	1	1	0	256	0.2343	0.12783	0.043208	0.32172	0.17431	0.0902	0.25001	0.15777	0.20882	0.2097	0.087443	0.28269	0.13008	0.25084	0.24396	0.11955	-2.0958	-2.525	-2.3771	-2.8167	-2.4167	-2.4958	-2.9125	-2.325	-2.5646	-2.5938	-2.3812	-2.7917	-2.5563	-2.3417	-2.4479	-2.5563	47.411	-167.164	87.317	127.836	-160.510	113.558	97.051	-97.969	84.421	95.387	175.642	141.583	122.078	156.167	68.626	-34.681	0.00045272	0.0017709	0.00031594	685.36	2.7102e-06	9.7477e-06	703.07	188.48	2.9068e-06	2.3233e-05	224.93	97.262	67.188	24.64	1.0186e-05	46.609	0.015967	0.031739	0.0087277	759.93	0.00030899	0.00036108	783.92	220.54	0.00031141	0.00035904	270.75	111.73	84.038	29.697	0.00032333	53.277	-90.212	-153.734	-113.034	-164.688	-30.410	-155.292	-165.107	-159.196	-138.654	67.950	-160.798	-156.183	-154.902	-151.122	-63.074	-152.718	-8191	255	
2262.399	1	1	0	0	0.08434	0.15416	0.27498	0.12573	0.072779	0.21222	0.17179	0.34377	0.1132	0.20649	0.18745	0.28322	0.19204	0.16192	0.27499	0.18586	-2.0542	-2.5167	-2.2583	-2.8417	-2.5	-2.2146	-2.7292	-2.4667	-2.4521	-2.7188	-2.4771	-2.8042	-2.4792	-2.3583	-2.6792	-2.2417	-113.487	-36.099	-129.720	-84.225	-101.302	136.455	155.761	-85.861	-139.503	148.394	149.055	-157.689	-87.915	118.214	16.570	36.429	0.00046311	0.0014103	0.0005445	681.5	5.2678e-06	1.1247e-05	712.33	188.42	7.4747e-06	7.997e-06	227.43	97.153	67.133	24.585	7.6183e-06	46.655	0.015973	0.031228	0.0085617	758.46	0.0002996	0.00034843	783.36	218.2	0.00029736	0.00034137	269.93	111.38	83.516	29.632	0.00032076	53.262	-79.995	-22.885	-89.407	-164.921	135.293	26.577	-164.811	-159.414	45.268	-128.914	-160.809	-156.273	-155.353	-150.850	-3.236	-152.686	-8191	255	
2262.495	1	1	0	0	0.11198	0.40488	0.22223	0.28747	0.27861	0.14716	0.12382	0.32485	0.2521	0.065082	0.13232	0.10718	0.16372	0.32654	0.19237	0.031493	-2.0583	-2.4083	-2.2521	-2.6708	-2.6771	-2.2625	-2.8229	-2.5021	-2.5563	-2.7521	-2.2021	-2.7146	-2.3688	-2.1875	-2.6312	-2.5312	156.524	101.437	34.895	-111.894	12.003	125.676	23.790	-173.251	-65.879	-0.843	-72.676	124.603	-112.873	129.166	138.026	-164.385	0.00059749	0.0013173	0.00010142	683.54	1.4885e-05	6.5431e-06	711.54	187.18	9.0214e-06	8.5457e-06	226.86	97.895	66.45	24.621	1.466e-05	46.678	0.016217	0.03147	0.008758	761.17	0.0003075	0.00035987	786.51	219.88	0.00031208	0.00036005	272.44	112.3	84.276	29.896	0.00033135	53.752	-91.011	69.657	-173.565	-164.804	10.000	-62.638	-164.856	-159.582	32.808	56.389	-160.445	-155.815	-154.750	-151.038	19.590	-152.954	-8191	255	
2262.592	1	1	0	0	0.34655	0.14981	0.10034	0.15678	0.23279	0.18207	0.27901	0.31479	0.10933	0.20505	0.17781	0.15188	0.24283	0.040823	0.15089	0.094426	-1.9146	-2.5479	-2.3438	-2.6354	-2.5521	-2.2229	-2.7062	-2.5896	-2.4208	-2.7646	-2.4292	-2.7521	-2.7042	-2.3063	-2.6417	-2.4979	177.106	-49.095	-100.592	-48.600	18.311	-92.085	11.160	133.661	52.780	139.398	-111.795	-50.120	35.010	88.406	92.174	-101.786	0.000312	0.0013891	0.00020349	686.32	1.0724e-05	1.2812e-05	705.34	188.3	3.663e-06	1.4678e-06	224.59	96.941	65.978	24.421	2.0997e-05	46.276	0.016567	0.032372	0.0089997	763.58	0.00031855	0.00037424	789.31	222.28	0.00032972	0.00038039	273.29	112.6	84.945	29.991	0.00034561	53.48	-96.202	88.225	-6.094	-164.563	-52.310	-145.164	-165.075	-159.274	92.686	177.393	-160.948	-156.098	-155.709	-150.998	-60.666	-152.926	-8191	255	
2262.688	1	1	0	0	0.018287	0.040408	0.04575	0.10047	0.2291	0.14029	0.057989	0.072903	0.24581	0.15053	0.11508	0.16448	0.22092	0.24086	0.10599	0.17101	-1.9062	-2.8438	-2.3812	-2.5271	-2.8625	-2.3271	-2.8083	-2.5396	-2.3292	-2.8688	-2.4771	-2.725	-2.575	-2.3896	-2.6479	-2.7958	-124.777	-18.783	60.993	142.184	66.207	13.412	97.223	5.323	-137.375	-156.463	75.619	69.883	108.866	72.823	49.560	154.720	0.00043815	0.00087847	0.00049669	681.19	1.9816e-05	4.3064e-06	700.38	186.82	5.0881e-06	1.8079e-05	224.07	96.145	66.422	24.278	1.4634e-05	46.402	0.017519	0.034096	0.0095495	765.97	0.00033842	0.0003965	788.17	223.22	0.00034542	0.00039578	274.78	112.73	85.434	30.137	0.00035606	53.655	-99.030	172.896	120.507	-164.751	-46.954	-76.373	-165.105	-160.032	-65.764	-153.666	-160.889	-155.942	-155.446	-150.888	96.514	-152.731	-8191	255	
2262.784	1	1	0	0	0.079423	0.075845	0.10032	0.17263	0.064013	0.10462	0.23407	0.1408	0.1132	0.31268	0.21383	0.11794	0.12518	0.30104	0.16833	0.071153	-1.7917	-2.4542	-2.4042	-2.4083	-2.5625	-2.3104	-2.6604	-2.7021	-2.1937	-2.6458	-2.7479	-2.3792	-2.7104	-2.2854	-2.3875	-2.7542	27.105	6.790	40.442	152.740	181.435	-82.457	160.260	41.071	-68.380	-26.142	81.174	51.396	37.407	173.010	83.974	118.813	0.00037248	0.00065664	0.0004141	677.34	5.2273e-06	1.191e-05	700.82	186.3	1.8925e-06	1.5408e-05	225.54	95.592	66.017	24.286	4.3772e-06	45.972	0.017488	0.034124	0.0094026	761.83	0.00033195	0.00038407	784.72	222.72	0.00033957	0.00039191	274.88	112.99	85.877	30.24	0.0003751	54.039	-98.189	181.849	-135.741	-164.727	-123.700	20.181	-165.508	-159.416	-16.779	-7.129	-160.527	-156.110	-154.953	-150.992	59.910	-152.974	-8191	255	
2262.878	1	1	0	0	0.23759	0.15884	0.065384	0.18526	0.19892	0.16349	0.17708	0.0763	0.20682	0.30847	0.066521	0.22573	0.14158	0.12824	0.1008	0.24427	-1.7687	-2.625	-2.5458	-2.3312	-2.7062	-2.2333	-2.6875	-2.6458	-2.0917	-2.5958	-2.5687	-2.5021	-2.65	-2.3271	-2.5479	-2.4958	-104.672	-103.758	54.351	153.499	-166.621	-60.389	182.288	88.020	-126.004	-106.758	89.610	62.597	-7.588	138.898	-45.450	128.140	0.00023777	0.0012866	0.00023338	683.59	1.5367e-05	1.674e-05	702.17	187.59	9.3599e-06	1.6605e-05	223.62	96.516	65.904	24.379	1.3476e-05	45.805	0.018898	0.037142	0.01036	775.26	0.0003641	0.00042422	797.9	226.96	0.00037082	0.00042581	279.27	114.21	87.035	30.499	0.00038597	54.101	-71.137	-141.255	-51.406	-164.653	-27.387	-13.559	-165.225	-159.272	-43.711	-74.104	-160.664	-156.117	-155.606	-151.167	-106.655	-152.559	-8191	255	
2262.976	1	1	0	0	0.05027	0.14944	0.11916	0.14913	0.31893	0.22071	0.23284	0.39396	0.16031	0.17379	0.14917	0.13162	0.18313	0.12803	0.1813	0.15464	-1.8646	-2.6292	-2.3479	-2.4729	-2.5479	-2.3646	-2.575	-2.6667	-2.4021	-2.6833	-2.7375	-2.2104	-2.8833	-2.3146	-2.2896	-2.7875	105.658	73.905	156.093	-140.062	-162.793	44.036	156.656	42.465	41.225	95.183	-165.471	52.522	-65.720	-122.074	92.942	-52.994	0.00042785	0.00072019	0.000532	679.26	1.8151e-05	1.6839e-05	696.66	186.86	6.8254e-06	7.3248e-06	224.24	95.885	66.417	24.439	3.27e-06	45.846	0.01871	0.036181	0.0099712	767.41	0.00034398	0.00039564	787.63	222.65	0.00033675	0.00038331	272.57	111.76	84.416	29.714	0.00034319	53.067	-90.683	55.933	-37.429	-164.755	-16.230	-23.612	-165.072	-159.494	6.454	-41.401	-160.721	-155.985	-154.958	-151.203	154.013	-152.998	-8191	255	
2263.095	1	1	0	0	0.097439	0.19992	0.08556	0.18947	0.21814	0.12454	0.20464	0.068478	0.17204	0.10898	0.15984	0.10321	0.092958	0.28268	0.17368	0.28204	-1.6812	-2.3896	-2.4667	-2.3333	-2.7438	-2.5021	-2.6771	-2.6708	-2.3187	-2.6833	-2.5687	-2.2396	-2.6125	-2.4167	-2.3458	-2.9375	-141.673	139.768	-160.298	-67.588	80.578	-71.275	106.704	55.173	-93.163	-63.655	65.414	-46.928	99.697	-172.013	17.286	161.092	0.00052203	0.00050837	0.00044289	678.27	1.7301e-05	8.5329e-06	699.39	186.48	7.2646e-06	2.2267e-05	224.14	94.68	66.092	23.958	1.0879e-05	45.345	0.017105	0.033125	0.0092156	759.45	0.00032347	0.00037794	781.51	220.71	0.00033246	0.00038218	272.24	111.4	84.272	29.654	0.00035509	52.918	-90.988	28.276	-103.765	-164.629	-41.754	-57.803	-165.150	-159.552	-20.910	-122.137	-160.789	-155.826	-154.791	-150.790	152.426	-152.830	-8191	255	
2263.191	1	1	0	0	0.19751	0.12836	0.21455	0.28177	0.31183	0.10929	0.11994	0.19722	0.32532	0.27279	0.1755	0.37319	0.27453	0.19276	0.16679	0.19083	-1.7042	-2.6146	-2.5167	-2.4354	-2.6021	-2.3583	-2.2229	-2.8708	-2.4417	-2.5396	-2.725	-2.3896	-2.6729	-2.7729	-2.275	-2.8458	-174.880	146.664	89.578	118.277	125.759	-152.015	81.189	-89.544	34.037	-12.992	-77.790	-14.015	97.045	-157.313	-33.967	-104.455	0.00033467	0.0010839	0.00029668	674.41	8.8862e-06	9.2123e-06	695.91	186.58	7.0337e-06	5.836e-06	222.61	95.35	65.919	23.797	1.0284e-05	45.479	0.017574	0.034171	0.0094626	760.12	0.00032523	0.00037781	779.91	219.41	0.00032179	0.00036884	269.45	110.8	83.461	29.377	0.00033897	52.485	-86.984	-31.413	99.652	-164.637	44.343	-133.197	-164.924	-159.730	53.980	-89.785	-160.475	-155.691	-155.297	-150.716	31.051	-152.957	-8191	255	
2263.287	1	1	0	0	0.11314	0.21904	0.25479	0.27534	0.20412	0.17924	0.11824	0.24333	0.1943	0.065438	0.15794	0.12504	0.062063	0.23667	0.040047	0.17627	-1.9729	-2.4604	-2.6354	-2.4104	-2.7313	-2.4854	-2.3875	-2.7667	-2.325	-2.3354	-2.7271	-2.4021	-2.6979	-2.5896	-2.4271	-2.7646	21.535	-58.621	148.771	138.784	73.381	-46.824	30.177	-0.624	182.426	-107.003	13.163	-118.391	99.284	-171.142	-4.581	114.070	0.00027228	0.0010529	0.00019098	679.28	1.0833e-05	9.6705e-06	702.2	184.8	2.7067e-06	2.6916e-06	223.73	95.421	65.005	23.852	1.2023e-05	45.41	0.016675	0.032217	0.0089859	755.98	0.00031135	0.00036274	778.77	217.95	0.00031414	0.00036077	269.13	110.25	82.851	29.223	0.00033428	52.528	-63.811	-61.443	-63.898	-164.546	16.376	-109.110	-164.886	-159.430	-38.421	-148.393	-160.512	-156.195	-155.249	-150.675	0.043	-152.479	-8191	255	
2263.384	1	1	0	0	0.029872	0.21528	0.27481	0.30107	0.19693	0.28865	0.23488	0.099503	0.26861	0.28074	0.3185	0.20023	0.15621	0.12974	0.23807	0.046199	-2.2729	-2.4583	-2.8375	-2.425	-2.4729	-2.6083	-2.4583	-2.7896	-2.5083	-2.4125	-2.7958	-2.4542	-2.6208	-2.7104	-2.3271	-2.7646	-151.774	62.590	11.372	-63.348	-119.167	-44.400	126.141	174.008	152.334	47.924	113.441	167.988	176.959	-46.572	106.536	161.534	0.00036411	0.00021046	0.00037409	673.6	1.643e-05	4.0025e-06	699.64	183.72	1.5563e-05	1.1139e-05	221.96	94.062	65.35	23.509	2.6924e-06	45.153	0.016586	0.032242	0.0089554	753.61	0.00030935	0.00035832	775.01	215.58	0.00030029	0.00034399	264.09	108.59	81.542	28.567	0.00031662	51.402	-102.379	-13.806	181.271	-164.676	48.092	-12.644	-165.120	-158.841	-18.590	-47.823	-160.680	-155.744	-155.691	-150.871	72.026	-152.904	-8191	255	
2263.480	1	1	0	0	0.12767	0.25462	0.028097	0.12327	0.059771	0.15454	0.24966	0.31328	0.10715	0.51552	0.30721	0.11198	0.35368	0.28319	0.23108	0.11543	-2.075	-2.5417	-2.6708	-2.6188	-2.4833	-2.7604	-2.4417	-2.6854	-2.5167	-2.4271	-2.85	-2.5187	-2.5896	-2.7562	-2.2667	-2.5729	-32.360	47.226	-48.281	-13.833	67.560	30.418	124.147	50.714	127.863	37.685	72.695	-58.110	-130.123	80.333	61.497	-62.358	0.00039121	0.00099467	0.00016146	671.94	2.992e-06	1.7155e-05	693.96	182.68	1.2662e-05	2.0167e-05	220.05	94.569	64.756	23.506	1.2523e-05	44.804	0.015847	0.031196	0.0086946	748.76	0.00030363	0.00035435	770.27	214.1	0.00029757	0.00034083	262.66	108.1	81.044	28.556	0.00031607	51.343	-111.710	-16.616	-148.019	-164.401	83.186	-127.477	-164.868	-159.697	57.549	69.096	-160.439	-156.037	-155.219	-151.060	-150.324	-153.012	-8191	255	
2263.576	1	1	0	0	0.13204	0.17634	0.085256	0.17391	0.32177	0.25412	0.044244	0.20267	0.16103	0.082042	0.17013	0.23784	0.078814	0.12069	0.22399	0.20264	-2.2792	-2.3146	-2.525	-2.4562	-2.3146	-2.8812	-2.4833	-2.8979	-2.7208	-2.0667	-2.7333	-2.5729	-2.4562	-2.7313	-2.5062	-2.6667	83.423	-141.640	145.884	-94.392	-88.597	133.409	52.212	-133.909	-131.102	-82.643	72.955	-101.345	142.481	-148.581	-44.018	21.698	0.00041135	0.00086018	0.00033906	672.88	2.079e-05	1.2152e-05	698.16	184.32	6.5661e-06	5.8895e-06	220.67	93.578	64.785	23.678	1.5405e-05	44.673	0.015909	0.030945	0.0085196	746.35	0.00030148	0.00035213	770.79	214.87	0.00030627	0.00035061	264.95	108.52	81.818	28.913	0.00033349	51.675	-81.268	-125.585	-30.547	-164.895	-133.471	-149.474	-164.850	-159.236	162.021	-137.182	-160.933	-155.897	-154.785	-151.062	-33.125	-152.661	-8191	255	
2263.696	1	1	0	0	0.28114	0.19071	0.021474	0.10496	0.30025	0.20688	0.25426	0.13425	0.27481	0.29617	0.046677	0.16702	0.30345	0.11964	0.1049	0.074203	-2.2771	-2.4083	-2.5667	-2.5687	-2.4604	-2.6188	-2.4	-2.6542	-2.6646	-2.2208	-2.8063	-2.6542	-2.3229	-2.8104	-2.4542	-2.45	-153.516	145.269	34.765	-18.642	-139.973	-71.851	38.237	182.491	127.891	-78.220	5.482	-60.784	-61.233	139.563	113.781	130.246	0.00034822	0.00083153	0.0005046	668.09	2.6556e-06	1.6203e-05	692.51	183.41	4.8123e-06	4.2368e-06	220.89	93.442	64.66	23.63	6.8778e-06	44.872	0.016839	0.033013	0.0090752	750.84	0.00031872	0.00037172	773.18	216.68	0.00032124	0.00036853	267.3	109.57	83.231	29.258	0.00035344	52.241	-78.868	87.867	-10.256	-164.766	-16.963	63.323	-165.112	-159.451	40.676	-132.676	-160.437	-156.439	-155.173	-151.179	-15.788	-152.724	-8191	255	
2263.791	1	1	0	0	0.11104	0.0991	0.21235	0.20648	0.50808	0.06196	0.25128	0.19184	0.16814	0.075894	0.21806	0.24125	0.18051	0.12492	0.25943	0.14251	-2.2979	-2.2833	-2.4208	-2.4771	-2.2896	-2.6813	-2.5854	-2.525	-2.7708	-2.5229	-2.7062	-2.7021	-2.3521	-2.8458	-2.2812	-2.5042	-140.822	98.241	79.324	73.869	-4.685	-0.879	83.510	-14.364	-137.309	-51.306	-119.560	-159.209	162.318	-16.348	7.408	39.123	0.00037777	0.00079488	0.0003476	670.04	3.0555e-06	8.3257e-06	692.82	182.89	1.0421e-05	1.9004e-05	220.71	93.809	65.002	23.71	2.0561e-05	44.616	0.017736	0.034505	0.0094924	755.08	0.00033057	0.00038394	777.62	218.1	0.00033188	0.00038213	268.8	109.73	83.458	29.325	0.00035229	51.902	-74.219	-150.900	75.457	-164.782	-36.341	171.572	-165.053	-159.490	-96.888	15.583	-160.738	-155.949	-154.851	-151.119	173.151	-152.864	-8191	255	
2263.887	1	1	0	0	0.18152	0.06584	0.04971	0.057561	0.13223	0.24129	0.37727	0.065299	0.17642	0.37928	0.17565	0.04968	0.37913	0.29175	0.16374	0.13353	-2.2062	-2.2792	-2.4771	-2.6708	-2.3229	-2.5958	-2.4875	-2.5479	-2.85	-2.4583	-2.3563	-2.8833	-2.1604	-2.8	-2.4208	-2.5979	147.175	-126.347	-176.112	-44.599	85.603	-87.841	121.905	-138.987	137.574	-41.790	-4.721	119.509	169.901	154.361	73.612	165.331	0.00038206	0.00042684	0.00041426	665.58	9.6229e-06	9.7507e-06	684.93	183.25	8.5326e-06	2.9695e-06	218.99	94.431	64.911	23.822	1.1937e-05	44.888	0.017314	0.033498	0.0090839	748.58	0.00031495	0.00036386	766.74	216.04	0.00031473	0.00036111	265.12	108.92	82.466	28.987	0.00032696	51.674	-72.077	-129.723	-23.366	-164.680	42.812	-71.413	-164.850	-159.460	7.443	-40.217	-160.490	-156.025	-155.066	-150.692	5.781	-152.735	-8191	255	
2263.983	1	1	0	0	0.36105	0.057371	0.23048	0.18955	0.23713	0.074478	0.16359	0.20825	0.27964	0.25302	0.094455	0.15715	0.22116	0.11786	0.050537	0.15637	-2.5604	-2.3625	-2.7167	-2.7333	-2.4083	-2.7479	-2.8271	-2.3417	-2.8833	-2.3063	-2.5875	-2.5812	-2.2708	-2.7604	-2.5354	-2.3833	3.138	-150.530	-86.041	171.903	-152.123	156.279	169.765	98.539	5.050	123.820	-85.541	110.064	179.845	43.870	22.426	92.427	0.0005072	0.00050766	0.00011151	672.74	4.1578e-06	3.6512e-06	691	183.21	4.889e-06	4.6555e-06	220.65	94.607	65.419	23.723	1.0381e-05	44.608	0.016315	0.031795	0.0087585	747.16	0.00030842	0.00035773	766.54	215.84	0.00030602	0.00035202	264.8	109.17	82.502	28.933	0.00032914	51.699	-81.693	-100.023	33.241	-164.549	21.071	28.638	-164.980	-159.287	-57.129	-70.032	-160.547	-156.156	-155.302	-150.704	-38.992	-152.612	-8191	255	
2264.079	1	1	0	0	0.26995	0.1802	0.25807	0.22569	0.099674	0.13796	0.22227	0.23204	0.25862	0.057438	0.23294	0.15778	0.37751	0.011995	0.079666	0.23346	-2.2979	-2.3417	-2.3729	-2.55	-2.3583	-2.575	-2.6208	-2.525	-2.6896	-2.4292	-2.3187	-2.6479	-2.2354	-2.5479	-2.5438	-2.2104	-16.923	-157.268	-62.422	126.787	-110.422	137.482	54.892	-136.907	-52.774	104.653	48.326	143.166	-132.140	78.724	21.634	128.383	0.00031647	0.00028912	0.00037304	670.49	1.6233e-05	2.0987e-05	691.34	184.89	9.689e-06	2.6587e-06	220.93	95.098	65.668	23.933	9.4745e-06	45.553	0.016413	0.031755	0.0087613	747.48	0.00030708	0.00035769	767.94	217.52	0.00031302	0.00036346	267.47	110.03	83.243	29.345	0.00034117	52.551	-80.940	154.449	-157.546	-164.499	-74.394	-47.039	-164.808	-159.681	-39.512	-55.686	-160.949	-156.228	-155.038	-150.883	27.634	-152.834	-8191	255	
2264.175	1	1	0	0	0.15045	0.15703	0.17301	0.091673	0.23994	0.30293	0.30179	0.10793	0.096888	0.24595	0.14725	0.031467	0.21374	0.092074	0.069671	0.24443	-2.2896	-2.2917	-2.375	-2.7667	-2.4396	-2.5292	-2.6104	-2.15	-2.6333	-2.4854	-2.4083	-2.7896	-2.4562	-2.5417	-2.5687	-2.3438	-81.673	153.454	-62.434	-40.581	-85.206	-147.291	147.250	16.790	42.469	63.283	171.951	17.393	-17.292	-4.445	-141.494	-74.854	0.00043812	0.00059286	0.00039383	677.57	2.4767e-05	1.1515e-05	695.61	185.35	4.6234e-06	1.5242e-05	222.24	95.147	66.647	23.999	7.7076e-06	45.152	0.017052	0.033282	0.0092501	756.47	0.00032366	0.00037299	776.12	219.05	0.00031711	0.00036662	268.84	110.41	83.347	29.275	0.00033278	52.372	-112.900	-87.650	-18.361	-164.476	-9.813	3.603	-165.060	-159.381	150.218	4.545	-160.450	-155.792	-154.152	-150.755	-77.353	-152.865	-8191	255	
2264.272	1	1	0	0	0.15673	0.11722	0.19006	0.16852	0.090696	0.060799	0.12986	0.067931	0.086167	0.15539	0.20611	0.13824	0.34883	0.19522	0.053075	0.096237	-2.1771	-2.4021	-2.2313	-2.8104	-2.2375	-2.5521	-2.8979	-2.25	-2.8104	-2.7167	-2.3125	-2.7521	-2.4729	-2.4479	-2.8229	-2.2729	152.716	93.419	-126.620	179.685	-34.108	23.995	177.036	102.121	108.252	130.188	-28.188	-101.301	130.799	-115.710	-137.595	112.005	0.000403	0.0016377	0.00035494	675.53	1.098e-05	2.5369e-06	697.85	184.51	1.3196e-05	1.1166e-05	224.07	94.889	65.914	24.098	1.5098e-05	45.583	0.016552	0.032466	0.009006	753.3	0.00031299	0.00036333	777.18	218.36	0.00031477	0.00036194	269.33	110.11	83.385	29.459	0.00033807	52.674	-67.670	-158.514	-110.145	-164.505	-134.386	-32.480	-164.821	-159.388	-51.830	69.774	-160.368	-155.792	-154.941	-151.218	101.712	-153.035	-8191	255	
2264.368	1	1	0	0	0.1712	0.14796	0.21263	0.20753	0.057761	0.049833	0.21948	0.30058	0.11923	0.12696	0.18011	0.268	0.19937	0.069861	0.13882	0.20957	-2.1292	-2.5542	-2.3	-2.6437	-2.4417	-2.4437	-2.9	-2.1396	-2.6271	-2.6063	-2.2562	-2.9083	-2.3729	-2.4146	-2.6958	-2.4792	-51.231	14.696	49.964	-171.920	-118.854	6.924	161.525	115.798	60.074	-158.310	139.354	97.599	-41.997	-88.505	-35.791	115.599	0.00040215	0.0006161	9.1923e-05	679.28	2.347e-06	1.275e-05	699.3	185.34	7.6567e-06	1.6002e-05	222.61	95.83	65.64	24.142	8.2418e-06	45.78	0.016688	0.032861	0.009088	756.91	0.00031835	0.00037087	780.09	219.05	0.00032355	0.00037247	270.91	111.05	84.069	29.634	0.00034555	52.907	-69.468	-124.851	-74.702	-164.606	-13.670	43.436	-164.652	-159.576	36.385	-29.234	-160.404	-155.814	-155.286	-151.018	-60.229	-152.731	-8191	255	
2264.488	1	1	0	0	0.139	0.18233	0.33303	0.051107	0.23809	0.055552	0.32016	0.13114	0.10812	0.16355	0.16742	0.081111	0.10608	0.10076	0.095853	0.046692	-2.15	-2.4333	-2.2125	-2.7562	-2.5187	-2.4396	-2.8271	-2.4875	-2.4271	-2.5958	-2.0896	-2.75	-2.7792	-2.4708	-2.8479	-2.3125	-96.931	-139.369	-168.513	17.468	-146.762	62.286	137.484	-159.229	-22.369	-5.199	62.328	-12.830	-78.245	166.829	174.762	143.918	0.00041459	0.00077646	0.00051175	679.49	2.6133e-05	1.212e-05	703.17	186.34	1.4243e-05	1.827e-05	224.67	95.224	66.106	24.322	8.9997e-06	46.049	0.017122	0.033757	0.0093296	759.79	0.00032258	0.00037647	783.72	220.26	0.00032407	0.00037652	272.13	111.48	84.548	29.879	0.0003489	53.38	-93.866	107.731	37.905	-164.503	-132.069	-57.520	-164.762	-159.305	-40.541	-22.971	-160.493	-155.882	-154.947	-150.533	-160.439	-152.835	-8191	255	
2264.585	1	1	0	0	0.088159	0.14734	0.22143	0.03601	0.28655	0.14503	0.22463	0.17786	0.17965	0.078067	0.1989	0.27582	0.060069	0.1114	0.14614	0.26672	-2.1125	-2.5896	-2.2604	-2.5917	-2.5187	-2.5333	-2.8521	-2.3979	-2.5542	-2.6458	-2.4604	-2.7083	-2.4208	-2.3729	-2.7229	-2.5625	171.428	18.719	79.925	127.247	169.569	-26.190	80.053	143.069	71.010	-47.020	-47.596	86.445	132.126	-134.751	-148.904	-176.426	0.00052779	0.0018128	0.00037088	682.28	7.8043e-06	7.0612e-06	705.41	185.96	5.0871e-06	1.1431e-05	224.1	95.886	66.041	24.402	5.9302e-06	45.74	0.017421	0.034512	0.0094567	766.23	0.00033371	0.00039289	791.88	223.11	0.00034499	0.0003976	276.22	112.96	85.95	30.313	0.00037313	53.765	-63.685	110.995	-4.425	-164.407	-51.107	170.382	-164.973	-159.799	0.376	48.911	-160.743	-155.979	-155.153	-150.800	-49.062	-152.785	-8191	255	
2264.656	1	1	0	0	0.28777	0.21686	0.069132	0.16056	0.14514	0.13203	0.23224	0.23807	0.21146	0.17809	0.11036	0.23724	0.12567	0.09505	0.064102	0.17884	-1.9792	-2.8083	-2.3354	-2.7479	-2.5083	-2.3604	-2.8438	-2.5375	-2.4125	-2.6917	-2.4979	-2.5792	-2.6229	-2.1646	-2.6854	-2.7	153.916	165.299	-65.516	154.935	-4.558	-35.857	164.004	44.392	110.556	-54.156	-111.507	136.616	84.006	10.370	154.188	63.973	0.00038157	0.00060899	0.00017537	679.57	7.0542e-06	1.8448e-05	698.66	186.26	7.0715e-06	1.624e-05	223.49	95.367	65.816	24.154	1.5795e-05	45.511	0.018769	0.03688	0.010184	771.14	0.00035805	0.00042168	791.78	224.78	0.00035944	0.00041268	275.95	112.47	86.216	30.291	0.00037228	53.456	-89.544	35.672	-25.978	-164.767	-176.420	31.446	-165.175	-159.563	-175.070	-51.916	-160.743	-156.029	-155.066	-151.191	-26.256	-152.790	-8191	255	
2264.777	1	1	0	0	0.24889	0.062704	0.13121	0.16133	0.14601	0.20733	0.20985	0.21726	0.053431	0.153	0.12908	0.29454	0.10759	0.041651	0.1187	0.16494	-2.1396	-2.6312	-2.2333	-2.6792	-2.5479	-2.3333	-2.6396	-2.6771	-2.2708	-2.7417	-2.375	-2.6208	-2.8271	-2.4292	-2.5625	-2.6188	-98.883	-110.919	143.238	-141.149	160.112	3.055	114.322	108.748	89.682	-53.241	111.469	113.284	0.928	140.575	30.058	36.502	0.00049559	0.00079435	0.00010283	680.81	4.5659e-06	1.2307e-05	703.54	186.09	9.2222e-06	9.4565e-06	223.48	96.413	66.253	24.172	1.3862e-05	45.811	0.018498	0.035809	0.0099244	769.12	0.00034784	0.00040553	792.71	223.5	0.00034696	0.00039829	274.4	112.57	85.574	30.072	0.00036283	53.55	-84.314	-160.111	-84.404	-164.667	66.539	-72.656	-165.039	-159.466	112.858	68.176	-160.983	-155.974	-155.478	-150.925	-27.326	-152.801	-8191	255	
2264.871	1	1	0	0	0.30521	0.17521	0.18521	0.0041573	0.27678	0.13834	0.42062	0.14578	0.23469	0.16499	0.13426	0.16452	0.24177	0.046562	0.41163	0.26199	-1.95	-2.825	-2.35	-2.3167	-2.7313	-2.175	-2.7687	-2.65	-2.3458	-2.7562	-2.4479	-2.4146	-2.6854	-2.35	-2.5896	-2.5687	12.129	109.013	81.471	-135.585	-135.127	152.565	117.651	169.122	129.146	72.739	83.025	102.235	164.495	-24.202	158.644	126.721	0.00032076	0.0016041	0.00035423	683.63	2.6361e-05	1.9767e-05	709.32	189.19	1.151e-05	5.8276e-06	226.38	95.619	66.633	24.402	1.1794e-05	46.08	0.018112	0.035513	0.0098847	770.9	0.00034579	0.00039859	796.55	224.6	0.00034259	0.00039142	276.46	112.32	85.516	30.16	0.00035555	53.62	-104.218	-111.759	-112.789	-164.642	-72.984	-49.626	-164.766	-159.483	-10.726	-40.181	-160.932	-156.065	-154.603	-150.865	165.116	-152.434	-8191	255	
2264.967	1	1	0	0	0.2417	0.16591	0.036088	0.32616	0.25144	0.31099	0.15436	0.12903	0.078337	0.21768	0.075186	0.16041	0.15903	0.1692	0.051666	0.022103	-1.7687	-2.7042	-2.425	-2.3917	-2.7562	-2.2271	-2.6458	-2.7208	-2.2687	-2.8708	-2.4833	-2.2708	-2.8354	-2.4437	-2.6646	-2.7333	109.580	-173.141	27.002	136.414	96.058	113.073	-111.035	127.400	175.734	166.946	181.712	85.230	-90.686	59.046	16.698	-41.299	0.00020536	0.0012631	0.00033052	688.57	5.0818e-06	4.5935e-06	710.45	189.54	2.6265e-06	1.4625e-05	227.96	97.23	67.361	24.539	4.7118e-06	46.463	0.017641	0.034	0.0093005	768.17	0.00032297	0.00037209	791.6	222.82	0.00031894	0.0003675	274.58	112.32	85.076	30.085	0.00034063	53.493	-79.728	48.227	79.185	-164.547	106.889	-149.639	-164.778	-159.679	-35.652	-60.986	-160.653	-155.911	-155.005	-151.053	97.568	-152.769	-8191	255	
2265.088	1	1	0	0	0.16931	0.16407	0.10854	0.2926	0.14083	0.28561	0.14368	0.26239	0.35587	0.11486	0.28532	0.10737	0.14979	0.28546	0.15033	0.20653	-1.6708	-2.6771	-2.5604	-2.4667	-2.7938	-2.475	-2.7313	-2.6917	-2.3312	-2.6937	-2.4333	-2.6104	-2.75	-2.5833	-2.575	-2.7667	71.267	-137.007	-107.403	133.141	153.023	140.029	56.763	58.468	4.425	-71.829	-156.738	157.806	151.477	103.966	29.759	125.395	0.00046957	0.00094747	0.00024176	691.05	4.2255e-06	8.5504e-06	713.41	188.29	2.5784e-06	1.182e-05	226.55	96.198	66.58	24.404	1.1744e-05	46.102	0.01689	0.032517	0.0091197	769.37	0.00032304	0.00037529	796.18	223.29	0.00033211	0.00038196	275.33	112.87	85.732	30.303	0.00036185	53.868	-99.101	41.034	-143.071	-164.353	29.404	117.027	-164.957	-159.634	86.785	-75.888	-160.072	-155.968	-155.437	-150.918	-92.849	-152.849	-8191	255	
2265.184	1	1	0	0	0.2494	0.26061	0.15229	0.17968	0.08735	0.10575	0.27611	0.15639	0.23368	0.053164	0.13859	0.12241	0.2375	0.1207	0.16773	0.33743	-1.8479	-2.55	-2.5563	-2.3563	-2.7146	-2.425	-2.5542	-2.8458	-2.4542	-2.6042	-2.8104	-2.4479	-2.8208	-2.4125	-2.4292	-2.8937	-131.450	17.400	149.592	123.877	40.560	166.946	127.374	131.449	-172.275	-171.880	-115.819	77.901	168.504	-125.092	149.798	128.019	0.00047205	0.00082892	0.00027263	691.69	8.4779e-06	1.7022e-05	717.94	189.41	8.7448e-06	1.0062e-05	227.65	96.427	66.993	24.494	3.7889e-06	46.551	0.018002	0.035024	0.0097226	778.16	0.00034089	0.00039638	803.9	225.77	0.00033904	0.00038598	276.46	112.73	85.314	30.119	0.00034815	53.592	-75.952	-103.277	-130.064	-164.721	-32.840	71.709	-164.853	-159.738	-88.040	-52.571	-160.194	-155.854	-155.008	-151.057	-102.840	-152.630	-8191	255	
2265.256	1	1	0	0	0.24247	0.18755	0.093476	0.34621	0.16451	0.16816	0.12297	0.079591	0.2115	0.13543	0.14348	0.2994	0.22392	0.15956	0.32535	0.060042	-1.7167	-2.4313	-2.4396	-2.3583	-2.6354	-2.7062	-2.4208	-2.9104	-2.3604	-2.5979	-2.6396	-2.3063	-2.6958	-2.4833	-2.3271	-2.7875	37.660	104.077	1.942	142.362	-52.766	14.391	42.883	92.129	145.131	176.143	-56.773	81.333	-143.765	-121.941	67.685	54.276	0.00052076	0.00063545	0.00026889	691.38	1.6147e-05	1.3297e-06	714.75	191.79	1.1921e-05	5.8318e-06	230.25	97.037	67.515	24.407	6.8892e-06	46.7	0.017292	0.033397	0.0092983	772.45	0.0003231	0.00037544	797.73	224.3	0.00032456	0.00036908	276.02	112.9	85.055	30.039	0.00034284	53.783	-84.753	110.234	-174.812	-164.608	-10.706	126.467	-165.140	-159.385	-95.731	85.781	-160.344	-155.737	-154.951	-150.538	-3.443	-152.813	-8191	255	
2265.376	1	1	0	0	0.18891	0.15574	0.095153	0.18907	0.33035	0.10442	0.33969	0.29274	0.15963	0.089348	0.151	0.0026816	0.18938	0.11214	0.074413	0.21866	-1.8917	-2.4604	-2.8	-2.3125	-2.625	-2.5854	-2.2292	-2.8937	-2.4271	-2.3771	-2.8583	-2.3812	-2.7042	-2.5458	-2.1479	-2.8417	61.426	47.535	136.330	125.890	154.430	-97.142	-171.425	57.638	-13.683	-15.951	126.742	-70.524	170.343	119.742	-8.093	136.339	0.00064701	0.0019174	9.9681e-05	693.72	4.3832e-07	1.8097e-05	719.14	189.17	1.5434e-05	7.3125e-06	228.71	97.65	68.032	24.681	1.8137e-05	46.655	0.017043	0.033242	0.0093313	773.63	0.0003227	0.00038134	803.19	225	0.0003319	0.00038411	278.4	113.68	86.021	30.383	0.00035573	54.022	-79.867	-110.976	182.487	-164.371	84.610	148.218	-164.898	-159.495	-64.685	172.938	-160.922	-155.948	-155.488	-150.852	80.337	-152.815	-8191	255	
2265.473	1	1	0	0	0.20451	0.099174	0.099978	0.17436	0.27135	0.15052	0.035248	0.10536	0.066449	0.076677	0.19612	0.08208	0.27348	0.031158	0.21491	0.39393	-1.8917	-2.4562	-2.7167	-2.4146	-2.7125	-2.65	-2.5062	-2.7792	-2.5167	-2.5	-2.9625	-2.4458	-2.6	-2.7208	-2.4958	-2.75	98.356	181.238	63.248	8.678	155.746	-50.340	137.733	-17.727	131.460	84.684	80.320	33.338	-127.140	14.166	-39.656	133.261	0.00053322	0.0014713	0.00012833	694.07	1.8451e-05	6.03e-06	714.25	188.51	1.2999e-05	8.3874e-06	227.09	96.241	67.617	24.532	1.3194e-05	46.24	0.017707	0.034522	0.0095653	777.1	0.00033326	0.00039531	803.39	226.09	0.00034372	0.00039983	278.89	113.38	86.832	30.559	0.00037723	54.117	-91.441	-126.334	-93.191	-164.444	39.698	-170.026	-164.929	-159.593	-22.602	-15.270	-160.769	-155.832	-155.004	-150.968	-83.385	-152.755	-8191	255	
2265.569	1	1	0	0	0.17092	0.25721	0.013596	0.20197	0.14792	0.1134	0.095338	0.18788	0.12704	0.24534	0.029215	0.12808	0.20537	0.12252	0.23154	0.11318	-2.0604	-2.5062	-2.8042	-2.5917	-2.6458	-2.7854	-2.3646	-2.7583	-2.5875	-2.3604	-2.8458	-2.4021	-2.4625	-2.7604	-2.1167	-2.6771	181.449	28.676	72.151	67.234	176.592	-32.249	-57.100	174.330	-174.272	-64.187	-67.433	139.258	111.749	-107.825	44.959	154.918	0.00044572	0.0013182	0.00010195	690.47	1.2027e-05	1.6486e-05	719.96	190.73	7.9957e-06	2.3821e-05	227.25	97.212	66.824	24.373	9.4427e-06	46.054	0.01876	0.036923	0.010272	784	0.00036197	0.00042364	814.44	229.24	0.00036634	0.00042109	281.95	114.52	87.519	30.753	0.00038574	54.314	-74.077	-99.616	-11.492	-164.942	-109.290	-13.729	-165.305	-159.296	97.868	68.794	-160.893	-156.080	-155.070	-150.965	69.988	-152.721	-8191	255	
2265.665	1	1	0	0	0.40417	0.15595	0.18132	0.1874	0.11964	0.058923	0.27226	0.18644	0.13665	0.12329	0.12521	0.15392	0.23199	0.20165	0.25844	0.33777	-2.1646	-2.3063	-2.8271	-2.5042	-2.4771	-2.6042	-2.4542	-2.7667	-2.6833	-2.3771	-2.8979	-2.4479	-2.4417	-2.8063	-2.4938	-2.7729	77.868	-126.428	-121.328	119.874	118.784	136.490	89.934	-79.992	-108.282	-38.838	-173.157	-145.664	-10.512	45.091	-0.753	137.538	0.00059037	0.0013902	0.00029737	688.35	7.9347e-06	1.0578e-05	721.92	189.88	1.3454e-05	1.7738e-05	227.54	96.992	66.921	24.616	1.1184e-05	46.458	0.018991	0.036962	0.010205	781.5	0.00035246	0.00041417	811.52	227.87	0.00035805	0.00041088	281.73	114.2	86.928	30.597	0.00037673	54.411	-84.330	-83.673	4.402	-164.430	-71.859	112.284	-164.923	-159.492	-48.478	-99.355	-160.733	-156.094	-154.809	-150.986	64.898	-152.767	-8191	255	
2265.784	1	1	0	0	0.047331	0.10607	0.073531	0.1616	0.32488	0.38535	0.1263	0.30428	0.12311	0.21231	0.070061	0.23096	0.1507	0.056204	0.085359	0.19497	-2.2521	-2.2313	-2.6625	-2.3812	-2.3563	-2.6875	-2.3396	-2.5917	-2.5438	-2.3937	-2.8625	-2.6229	-2.5354	-2.5583	-2.1208	-2.6333	-165.988	-165.347	96.232	-152.103	174.860	-152.878	67.474	-108.591	43.771	140.229	31.814	118.461	166.772	151.492	179.318	110.431	0.00045662	0.0016445	0.00014249	694.56	1.4414e-06	4.5371e-06	720.76	191.74	3.2972e-06	1.6721e-05	229.55	97.523	67.11	24.556	1.2218e-05	46.519	0.018648	0.036145	0.0099267	783.35	0.00034781	0.00040129	811.99	227.79	0.00035218	0.00040435	280.83	114.5	86.813	30.583	0.00036743	54.133	-90.367	-75.544	9.450	-164.753	-52.959	58.684	-165.248	-159.795	-52.165	-96.981	-160.380	-155.825	-155.442	-151.128	27.792	-152.837	-8191	255	
2265.880	1	1	0	0	0.049115	0.24019	0.14729	0.19606	0.35531	0.30981	0.20834	0.09049	0.18034	0.28001	0.30419	0.23736	0.091269	0.19065	0.29804	0.093321	-2.2229	-2.2812	-2.7146	-2.5938	-2.3521	-2.8187	-2.7062	-2.4833	-2.7604	-2.3667	-2.8854	-2.7062	-2.3812	-2.7938	-2.3563	-2.6	150.980	111.221	-76.236	114.501	59.238	-16.374	70.525	35.678	101.239	-157.253	-125.444	163.877	30.747	114.446	64.880	-153.044	0.00034784	0.00067931	0.00032693	694.38	1.2585e-05	1.9156e-05	721.29	189.96	1.3629e-05	1.6333e-05	228.57	96.635	66.684	24.499	1.1866e-05	46.286	0.018294	0.035412	0.0096918	780.19	0.00033993	0.00039511	806.74	226.45	0.00034549	0.00039806	278	113.37	86.335	30.355	0.00036093	53.968	-98.149	-123.424	-92.474	-164.658	44.934	72.805	-165.137	-159.831	-49.414	175.337	-161.155	-155.881	-155.236	-150.791	-84.767	-153.002	-8191	255	
2265.952	1	1	0	0	0.10251	0.19789	0.2141	0.38995	0.061023	0.15361	0.12071	0.16582	0.11291	0.080527	0.32041	0.39022	0.065557	0.18439	0.2845	0.33336	-2.4479	-2.2188	-2.6292	-2.7125	-2.3292	-2.6937	-2.5	-2.2708	-2.7646	-2.2667	-2.7667	-2.7021	-2.4646	-2.725	-2.5333	-2.5125	-42.764	1.256	-113.593	130.707	127.285	-78.720	161.547	29.306	-74.445	-62.397	110.004	115.245	-0.655	109.748	156.271	139.465	0.00033099	0.0012923	0.00060354	695.14	2.523e-05	1.4213e-05	720.55	189.96	1.0216e-05	1.1926e-05	228.44	96.964	67.242	24.513	1.1762e-05	46.508	0.017885	0.034695	0.0095683	778.98	0.00033557	0.00039094	805.61	226.01	0.0003385	0.00039111	277.81	112.98	86.092	30.346	0.00036043	53.892	-89.420	94.992	9.515	-164.842	-53.825	-104.735	-165.257	-159.360	-10.186	-94.529	-160.406	-155.787	-155.221	-151.026	-52.628	-152.860	-8191	255	
2266.050	1	1	0	0	0.13124	0.14586	0.17061	0.1424	0.16189	0.30294	0.31049	0.074348	0.073765	0.040187	0.20394	0.18117	0.21736	0.35678	0.068749	0.18017	-2.2896	-2.2667	-2.55	-2.8167	-2.2375	-2.7938	-2.5396	-2.4229	-2.9125	-2.475	-2.5292	-2.6917	-2.4833	-2.675	-2.5667	-2.3021	170.593	-72.145	170.122	116.049	-10.200	-115.650	151.141	133.070	94.212	-164.290	175.982	-13.470	98.500	-161.236	179.936	-133.327	0.00051462	0.00074503	0.00011031	690.83	1.4232e-05	8.5132e-06	720.63	188.86	9.822e-06	1.4698e-05	231.03	96.485	66.694	24.359	6.9349e-06	45.701	0.018113	0.035257	0.0098525	781.39	0.00035076	0.00040851	813.09	228.26	0.00036052	0.00041341	281.79	114.13	86.857	30.4	0.00038216	53.982	-94.927	121.566	-36.946	-164.216	12.060	26.970	-165.099	-159.327	-139.654	26.379	-160.857	-155.589	-155.476	-151.120	-139.366	-152.835	-8191	255	
2266.168	1	1	0	0	0.14106	0.20643	0.013632	0.026834	0.24325	0.18914	0.21905	0.11706	0.1428	0.17978	0.12001	0.12095	0.1793	0.19266	0.11378	0.14464	-2.4062	-2.25	-2.55	-2.7417	-2.3688	-2.7438	-2.6146	-2.4458	-2.9542	-2.3771	-2.7146	-2.9062	-2.35	-2.8021	-2.6833	-2.4417	-4.005	-100.197	134.124	119.373	-150.198	109.864	126.140	-137.978	100.294	2.852	141.252	-16.809	-19.162	159.538	-154.158	-34.290	0.00058004	0.00097365	0.00013714	689.19	1.6302e-05	5.5702e-06	722.44	191.03	1.3774e-05	1.7711e-05	227.78	95.925	66.503	24.107	8.8222e-06	45.359	0.018839	0.036636	0.010126	783.05	0.0003529	0.00040625	811.55	227.71	0.000352	0.00040768	280.58	113.77	86.35	30.269	0.00037912	53.561	-93.317	-51.976	-71.263	-164.458	-2.623	-128.594	-165.148	-159.723	-11.917	39.363	-160.439	-155.647	-154.941	-150.752	-118.677	-153.066	-8191	255	
2266.265	1	1	0	0	0.22792	0.20477	0.25795	0.19129	0.021875	0.15315	0.079284	0.30346	0.075539	0.16904	0.24795	0.25452	0.090556	0.11298	0.030428	0.095494	-2.3458	-2.5104	-2.4917	-2.725	-2.4083	-2.9354	-2.8333	-2.4417	-2.7479	-2.5563	-2.4417	-2.8417	-2.4104	-2.6958	-2.5458	-2.4729	-124.238	-53.783	149.483	171.427	56.327	-22.464	-72.056	-167.884	94.674	112.771	-131.257	88.249	87.040	134.644	-76.000	18.275	0.00040573	0.0019363	0.00047711	689.72	1.6469e-05	5.9514e-06	712.27	187.55	6.1995e-06	1.2691e-05	225.98	95.45	65.178	23.721	1.0439e-05	45.372	0.019017	0.037104	0.01033	783.34	0.00036213	0.00042029	809.26	226.67	0.0003553	0.00040399	276.63	111.8	84.859	29.696	0.00036368	52.807	-74.826	-146.388	-77.937	-164.604	-156.603	-18.702	-165.143	-159.491	-115.139	-38.096	-160.866	-156.114	-155.295	-151.146	69.552	-152.810	-8191	255	
2266.361	1	1	0	0	0.32846	0.19383	0.074726	0.27442	0.089322	0.12382	0.11392	0.033239	0.26585	0.16546	0.26082	0.2692	0.17385	0.29124	0.12226	0.029677	-2.2854	-2.4646	-2.3312	-2.8646	-2.5	-2.6562	-2.7	-2.2042	-2.7375	-2.5812	-2.5062	-2.8208	-2.3021	-2.5271	-2.9021	-2.4896	-121.985	173.354	-142.452	125.359	-82.817	-2.025	131.512	-48.781	-167.120	46.353	157.186	71.757	120.725	43.013	-37.930	-18.345	0.00056716	0.001336	6.9826e-05	690.81	1.2756e-05	1.8802e-05	715.02	187.61	1.0197e-06	1.7072e-05	225.82	95.313	65.407	23.914	1.7778e-05	45.238	0.017844	0.034783	0.0096283	775.12	0.0003303	0.00038471	799.75	223.45	0.00032693	0.00037776	273.07	110.94	84.279	29.612	0.00035457	52.705	-95.326	67.922	-138.840	-164.603	-4.946	75.870	-165.065	-159.499	-48.498	59.744	-161.279	-155.832	-155.104	-150.862	-177.013	-152.551	-8191	255	
2266.457	1	1	0	0	0.033269	0.20679	0.066515	0.2566	0.20963	0.097601	0.043655	0.13135	0.096134	0.20283	0.16379	0.29986	0.17513	0.23028	0.17052	0.18991	-2.2313	-2.675	-2.2833	-2.75	-2.5333	-2.5938	-2.7188	-2.5	-2.7188	-2.7083	-2.3375	-2.7521	-2.7604	-2.3563	-2.6813	-2.4833	94.722	-28.054	79.093	163.707	26.662	52.735	160.139	-170.660	-92.315	-76.186	-140.090	154.283	-113.418	83.542	-29.380	-146.298	0.00036301	0.00047726	0.00035488	689.51	6.2022e-06	1.4239e-05	717.3	187.7	7.9159e-06	5.7059e-06	227.61	95.117	66.143	23.736	6.6924e-06	45.414	0.017483	0.034543	0.0095783	774.35	0.00033137	0.00039069	802.14	224.41	0.00033557	0.0003885	276.27	111.47	84.656	29.678	0.00036149	52.78	-99.948	21.638	85.040	-164.613	80.455	-36.771	-165.112	-159.585	-29.732	142.128	-160.626	-155.973	-154.781	-150.968	-26.910	-152.904	-8191	255	
2266.553	1	1	0	0	0.052729	0.2622	0.099118	0.15896	0.31005	0.091993	0.12507	0.21667	0.26483	0.1684	0.12389	0.20935	0.19744	0.14993	0.19114	0.19773	-2.1417	-2.6125	-2.2146	-2.8083	-2.6583	-2.4208	-2.9146	-2.3875	-2.6292	-2.8187	-2.3667	-2.8792	-2.6354	-2.4938	-2.7562	-2.5667	-162.432	135.766	106.583	-162.683	86.062	-158.469	123.602	97.768	-152.652	-85.631	31.189	14.904	9.519	107.774	50.654	169.374	0.00038207	0.00037726	0.00048815	689.43	9.8525e-06	9.7204e-06	711.64	187.62	9.8298e-06	6.8372e-06	227.81	95.78	65.643	23.813	5.4194e-06	45.384	0.017782	0.034978	0.0096372	772.49	0.00033239	0.00038746	798.93	223	0.00032909	0.00037849	274.63	110.9	83.567	29.266	0.00034178	52.28	-91.334	-170.457	-93.924	-164.882	-103.827	151.171	-164.859	-160.227	115.574	156.506	-160.597	-156.016	-155.002	-150.901	-34.218	-152.699	-8191	255	
2266.649	1	1	0	0	0.11441	0.27763	0.33134	0.23685	0.22824	0.097282	0.11968	0.082064	0.099238	0.066307	0.11748	0.14995	0.067789	0.13807	0.066347	0.32242	-2.1646	-2.45	-2.1979	-2.7417	-2.5438	-2.2458	-2.85	-2.4688	-2.6042	-2.8854	-2.4333	-2.7146	-2.6917	-2.3104	-2.7313	-2.5417	-156.432	-135.639	-152.322	-171.464	-67.694	77.903	143.775	137.378	91.828	134.531	106.257	-152.436	155.336	142.985	176.016	169.334	0.00054388	0.0011351	0.00042294	689.63	2.3905e-05	9.1877e-06	712.8	188.66	6.155e-06	2.0634e-05	224.24	94.835	65.066	23.773	5.8551e-06	44.765	0.017042	0.03337	0.0092621	769.14	0.00032529	0.00038227	796.74	223.45	0.00033617	0.00038987	272.82	111.06	84.554	29.728	0.00037199	52.572	-94.724	-177.167	-127.377	-164.745	-55.332	33.694	-164.971	-159.586	-81.308	56.665	-160.987	-156.149	-155.482	-150.569	-72.048	-152.582	-8191	255	
2266.770	1	1	0	0	0.092094	0.10923	0.14666	0.18001	0.068812	0.26374	0.13072	0.10142	0.074158	0.1244	0.35955	0.21261	0.21654	0.11422	0.13658	0.22785	-2.1042	-2.7417	-2.1917	-2.4938	-2.5958	-2.3042	-2.8667	-2.4938	-2.3646	-2.8521	-2.4021	-2.6937	-2.6854	-2.4333	-2.7625	-2.5667	-47.290	29.046	-128.026	79.247	22.833	181.216	134.988	119.868	70.394	-127.627	119.890	128.227	141.411	144.265	-102.924	106.806	0.00044994	0.0010341	0.00070174	687.23	3.2067e-06	1.1188e-05	715.21	188.8	4.5843e-06	1.3313e-05	225.11	94.949	65.93	24	9.809e-06	45.171	0.018741	0.037065	0.010257	778.57	0.00036471	0.0004219	807.75	227.3	0.00036179	0.00041754	278.24	112.23	86.251	30.133	0.00037292	53.166	-91.871	-82.809	180.842	-164.631	49.926	-168.686	-164.810	-159.571	109.403	178.383	-160.215	-155.671	-155.081	-150.809	-100.958	-152.638	-8191	255	
2266.866	1	1	0	0	0.010807	0.54201	0.085835	0.29913	0.056377	0.0080142	0.13525	0.24749	0.063149	0.080074	0.07371	0.11269	0.099555	0.18214	0.032956	0.19757	-2.0792	-2.7854	-2.3875	-2.6646	-2.6708	-2.3729	-2.8167	-2.6688	-2.4062	-2.7542	-2.3208	-2.5042	-2.7646	-2.475	-2.8958	-2.5792	-106.864	-48.534	-60.457	11.560	-36.852	71.820	99.484	42.267	-92.122	94.015	-49.884	-100.692	-158.226	150.857	-147.098	23.345	0.00053452	0.0012943	9.8649e-05	692.6	7.144e-06	1.6388e-05	723.83	190.8	1.5188e-05	1.0048e-05	226.13	95.293	66.083	24.042	5.6996e-06	45.612	0.018343	0.035316	0.0096689	776.86	0.00033373	0.0003865	805.59	225.53	0.00033181	0.00038105	275.45	111.55	84.846	29.895	0.00035407	53.27	-97.883	-141.235	-75.675	-164.609	-17.329	-121.018	-164.931	-159.498	55.544	-61.302	-161.012	-155.588	-155.108	-150.891	127.170	-152.395	-8191	255	
2266.960	1	1	0	0	0.24889	0.24898	0.19279	0.15047	0.40393	0.05395	0.12057	0.29404	0.26115	0.29826	0.25201	0.37571	0.12558	0.14901	0.20145	0.3457	-1.7979	-2.6083	-2.4375	-2.575	-2.7125	-2.2917	-2.7354	-2.7062	-2.475	-2.925	-2.3958	-2.5	-2.6771	-2.3229	-2.5708	-2.6333	116.699	-69.441	4.832	87.351	70.933	-71.769	-102.663	102.787	10.216	61.810	88.144	171.715	34.952	145.467	-47.331	161.566	0.00028572	0.00083335	0.00035636	692.19	4.4073e-06	2.4679e-05	720.19	189.79	6.1508e-06	1.6801e-05	227.43	96.277	66.082	24.255	5.1267e-06	46.064	0.018046	0.035267	0.0097816	780.44	0.00034929	0.00040626	809.39	227.87	0.00035483	0.00040511	279.66	113.21	86.484	30.223	0.00037028	53.636	-81.987	-35.672	-37.517	-164.411	-14.793	-28.908	-165.221	-159.479	168.127	-152.612	-160.653	-155.672	-155.269	-151.430	-26.826	-152.836	-8191	255	
2267.056	1	1	0	0	0.22315	0.073122	0.092653	0.31968	0.19582	0.18425	0.13806	0.11254	0.17634	0.083116	0.17195	0.20386	0.16248	0.12176	0.15771	0.13574	-1.8708	-2.8375	-2.3729	-2.4938	-2.775	-2.1708	-2.6312	-2.6	-2.3333	-2.7104	-2.5083	-2.3	-2.6896	-2.3292	-2.5312	-2.7687	55.942	-49.769	-149.420	152.726	118.037	-7.079	119.400	-68.855	-72.564	-109.386	155.217	171.342	97.816	101.597	78.913	82.107	0.00033479	0.0020846	0.00017515	689.44	5.8747e-06	1.6159e-05	722.95	190.81	6.1147e-06	3.7772e-06	225.45	95.624	66.513	24.317	1.0192e-05	45.86	0.018301	0.035128	0.0096817	778.11	0.00033832	0.00039051	805.8	227	0.00033811	0.00038933	276.66	112.11	86	30.136	0.00036628	53.494	-96.914	-123.649	109.636	-164.467	-166.638	-43.440	-164.848	-159.729	-33.459	61.080	-161.103	-156.129	-155.376	-151.100	-110.702	-152.670	-8191	255	
2267.177	1	1	0	0	0.20155	0.11667	0.23575	0.28855	0.052999	0.039184	0.27476	0.13034	0.12759	0.37079	0.098131	0.17554	0.15642	0.12672	0.15169	0.093774	-1.9542	-2.6312	-2.3167	-2.6083	-2.725	-2.4021	-2.6625	-3.0083	-2.3125	-2.7229	-2.6292	-2.2062	-2.625	-2.5729	-2.4083	-2.7687	148.771	50.968	94.857	126.506	55.695	103.415	108.835	123.647	131.041	30.631	179.333	115.253	128.062	-150.909	-170.687	102.169	0.0005359	0.00062582	0.00040123	694.68	1.2927e-05	9.6627e-06	726.17	191.67	4.1046e-06	2.2092e-05	229.67	95.988	66.427	24.472	1.8706e-06	45.729	0.018211	0.035426	0.0098402	782.57	0.00034682	0.0004008	811.53	228.61	0.00034608	0.00039854	279.01	112.78	86.05	30.226	0.00036422	53.663	-93.916	-43.146	-107.178	-164.955	-29.652	52.746	-165.046	-159.685	122.867	-11.836	-160.850	-156.140	-154.752	-151.053	49.403	-152.618	-8191	255	
2267.249	1	1	0	0	0.059088	0.44325	0.13437	0.079517	0.13583	0.1678	0.16628	0.25733	0.1611	0.08373	0.11574	0.39114	0.2526	0.23876	0.045152	0.25255	-1.8062	-2.5583	-2.4188	-2.4083	-2.7167	-2.3979	-2.6042	-2.6979	-2.3333	-2.5812	-2.5812	-2.4229	-2.6312	-2.4833	-2.3729	-2.9854	-1.251	115.207	89.114	136.794	63.355	-59.062	29.674	147.645	130.469	136.428	159.918	3.201	-9.565	151.693	78.879	123.412	0.00037483	0.00073936	0.00017421	701.07	1.193e-05	1.5631e-05	730.4	193.8	7.1704e-06	6.3093e-06	228.67	97.351	66.752	24.55	7.098e-06	46.889	0.018045	0.034955	0.0096777	786.63	0.00033807	0.00039349	817.81	229.4	0.0003382	0.00038455	278.93	112.84	85.196	30.083	0.00034132	53.78	-108.783	147.913	105.763	-164.576	-2.321	-77.185	-165.208	-159.352	84.854	120.827	-160.521	-155.780	-155.290	-150.785	75.696	-152.741	-8191	255	
2267.345	1	1	0	0	0.099648	0.21811	0.10355	0.27771	0.22369	0.11827	0.30756	0.12512	0.23802	0.098505	0.058716	0.090853	0.1105	0.27391	0.11561	0.008639	-1.8208	-2.575	-2.4729	-2.2104	-2.6042	-2.4354	-2.5	-2.8	-2.4542	-2.7625	-2.6604	-2.2125	-2.6542	-2.5708	-2.3604	-2.8229	110.343	5.569	24.445	48.765	-102.224	27.464	-71.351	-99.074	10.014	154.480	62.902	176.909	110.215	152.626	106.332	-37.064	0.00036478	0.0010658	0.00051261	706.99	1.1875e-05	6.8071e-06	742.42	196.32	5.8702e-06	2.4533e-05	232.39	98.762	67.79	25.147	5.5889e-06	47.448	0.016568	0.031672	0.0088567	780.92	0.00030284	0.00035592	819.04	228.31	0.00030989	0.00035693	278.16	113.14	84.943	30.218	0.00032507	54.043	-74.505	-172.652	-103.640	-164.910	-23.849	65.017	-165.308	-159.777	45.666	-18.822	-160.867	-155.569	-155.023	-150.922	-115.080	-152.274	-8191	255	
2267.441	1	1	0	0	0.12244	0.20214	0.17986	0.11101	0.074772	0.40357	0.16961	0.19423	0.13718	0.13232	0.15828	0.066549	0.10447	0.1728	0.075954	0.081914	-1.9375	-2.4458	-2.6417	-2.3021	-2.6104	-2.4958	-2.4292	-2.9562	-2.3604	-2.7188	-2.8729	-2.35	-2.5167	-2.4292	-2.2354	-2.825	24.026	-45.983	90.918	71.693	-136.523	149.897	78.656	71.331	102.208	-123.573	-9.467	70.245	-139.683	98.533	157.285	113.226	0.00044071	0.0008587	0.00041611	708.48	9.015e-06	6.3201e-06	742.38	196.23	1.4228e-05	9.9918e-06	232.74	97.552	68.044	24.996	2.1066e-05	47.173	0.016063	0.031264	0.0086871	784.49	0.00030354	0.00035297	821.01	228.37	0.00031085	0.00035956	277.8	112.66	85.14	30.368	0.00033454	54.085	-94.694	-141.990	-59.513	-164.553	51.131	7.603	-165.343	-159.633	-135.554	-70.977	-161.070	-155.865	-155.191	-150.942	-39.957	-152.715	-8191	255	
2267.562	1	1	0	0	0.062016	0.17406	0.28552	0.071236	0.098309	0.041813	0.20821	0.065107	0.15854	0.10145	0.18032	0.33177	0.030217	0.17832	0.17106	0.1984	-1.9583	-2.3625	-2.5979	-2.4188	-2.6896	-2.5	-2.3229	-2.8479	-2.2812	-2.2188	-2.6896	-2.3396	-2.6229	-2.5208	-2.3583	-2.7333	180.815	-108.278	44.835	-6.223	-82.771	156.501	-168.162	151.875	-160.078	-157.910	-149.167	106.911	18.785	-102.889	-128.460	152.671	0.00051437	0.0015161	0.00030214	708.72	1.2764e-05	3.0092e-05	747.89	195.45	2.6897e-06	4.6913e-06	233.31	97.608	68.264	25.03	5.6878e-06	47.21	0.016788	0.032565	0.0090821	788.49	0.00031282	0.00036613	828.99	228.82	0.00031651	0.00036351	278.85	113.35	85.834	30.426	0.00034039	54.536	-78.513	-131.385	40.615	-164.488	-84.122	-44.439	-165.183	-159.384	32.060	-56.198	-160.739	-155.943	-155.559	-150.970	27.812	-152.752	-8191	255	
2267.658	1	1	0	0	0.12117	0.2703	0.27136	0.17983	0.12102	0.26201	0.10736	0.27858	0.12503	0.1285	0.13012	0.15301	0.13323	0.18362	0.33694	0.018231	-1.8188	-2.1417	-2.6	-2.4083	-2.3458	-2.5187	-2.2958	-2.7917	-2.4125	-2.3125	-2.8271	-2.4292	-2.3438	-2.6771	-2.3125	-2.5958	66.120	87.379	37.471	157.168	4.927	174.094	99.237	-173.686	38.146	80.719	-3.119	-174.543	99.616	146.013	97.076	155.066	0.00043999	0.0014654	0.00014154	712.28	1.256e-05	2.306e-05	760.08	196.97	1.692e-05	7.1943e-06	232.65	98.567	68.231	25.046	1.2912e-05	47.268	0.017137	0.033559	0.0092037	795.3	0.00032341	0.00037609	839.07	231.52	0.00033201	0.00038698	283.27	114.79	87.162	30.876	0.00036269	55.099	-78.857	-21.788	-18.612	-164.816	-163.498	-32.958	-165.228	-159.621	27.442	-57.723	-160.529	-155.978	-155.459	-150.630	173.865	-152.590	-8191	255	
2267.752	1	1	0	0	0.34292	0.15537	0.14581	0.309	0.013519	0.37852	0.16884	0.070721	0.26333	0.29144	0.07637	0.19751	0.078904	0.14928	0.1181	0.11125	-2.1375	-2.3208	-2.6375	-2.4917	-2.5333	-2.7125	-2.5375	-2.7333	-2.5583	-2.5167	-2.85	-2.5625	-2.4458	-2.6813	-2.1917	-2.3542	-121.416	-103.817	-168.146	124.528	18.929	153.320	158.553	113.774	156.485	74.719	156.058	112.423	130.135	169.265	80.188	72.701	0.00037974	0.0013865	0.00019755	718.33	1.5767e-05	7.0473e-06	759.8	198.23	7.0609e-06	1.5115e-05	235	99.094	68.019	25.156	6.286e-06	47.767	0.018161	0.034978	0.0096593	801.12	0.00033327	0.00038692	842.35	232.73	0.00032912	0.00037989	283.55	115.27	86.901	30.881	0.00035639	55.31	-85.780	-87.687	41.188	-164.738	-11.868	-44.631	-165.217	-159.454	-31.203	-80.915	-160.621	-155.987	-155.361	-151.039	149.584	-152.449	-8191	255	
2267.850	1	1	0	0	0.02833	0.082457	0.21331	0.4402	0.033911	0.077775	0.1039	0.13975	0.22236	0.14057	0.16449	0.10733	0.063364	0.089002	0.11575	0.12199	-2.0979	-2.2833	-2.5521	-2.2854	-2.3292	-2.7375	-2.3583	-2.6146	-2.4854	-2.2771	-2.5833	-2.5646	-2.4229	-2.7375	-2.3354	-2.4771	-77.569	68.816	59.758	117.714	101.722	-107.908	163.027	134.866	78.871	114.403	157.647	115.593	-167.880	-149.221	142.113	175.994	0.00053958	0.00095545	0.00016258	711.73	2.052e-05	4.4231e-06	752.99	196.1	5.9253e-06	1.065e-05	234.1	97.648	67.888	24.933	5.1811e-06	47.164	0.018034	0.035553	0.0097286	800.56	0.00034535	0.00040284	842.8	234.43	0.0003559	0.00041024	285.01	115.2	88.293	31.233	0.00038728	55.228	-97.859	-65.582	45.768	-164.876	92.757	164.312	-165.019	-159.721	159.943	65.043	-160.751	-156.037	-155.434	-150.698	112.666	-152.370	-8191	255	
2267.945	1	1	0	0	0.23316	0.30133	0.10055	0.11228	0.14518	0.1202	0.22132	0.19252	0.14139	0.19221	0.15287	0.12985	0.18069	0.080381	0.088886	0.16013	-2.1021	-2.3	-2.6188	-2.6417	-2.3646	-2.6937	-2.5521	-2.4792	-2.6542	-2.3	-2.6479	-2.3646	-2.2938	-2.8146	-2.4875	-2.6146	133.201	166.088	167.438	90.532	10.697	60.355	95.322	-148.947	94.398	-26.313	81.046	-119.019	173.709	-32.806	115.042	107.822	0.00049613	0.0010896	0.00053881	710.64	7.8283e-06	1.8313e-05	745.81	196.92	5.6157e-06	1.1201e-05	231.4	97.705	67.691	24.71	3.5221e-06	46.312	0.019578	0.038361	0.010691	807.78	0.00037849	0.0004437	846.31	238.35	0.00038817	0.0004439	288.55	116.12	89.364	31.338	0.00040281	55.245	-76.529	-121.862	-25.307	-164.640	-176.171	-9.271	-165.399	-159.901	162.860	161.294	-160.872	-155.641	-155.308	-150.879	154.611	-152.637	-8191	255	
2268.041	1	1	0	0	0.17123	0.018064	0.27739	0.39822	0.11555	0.21859	0.38598	0.048271	0.18102	0.20645	0.13559	0.24701	0.15364	0.2127	0.012773	0.091342	-2.2833	-2.1813	-2.6271	-2.4417	-2.2604	-2.5687	-2.6188	-2.4313	-2.8125	-2.4292	-2.4854	-2.5083	-2.4167	-2.8604	-2.3771	-2.5	-44.279	151.790	-82.315	-168.145	46.074	72.654	70.909	126.651	25.038	-63.753	-80.857	1.811	-59.596	176.337	35.335	-124.762	0.00039273	0.0016278	0.00039167	709.52	3.582e-05	8.4627e-06	752.55	196.99	5.1035e-06	1.0559e-05	234.07	96.227	67.223	24.536	1.2687e-05	46.954	0.020018	0.038857	0.010709	807.04	0.00038226	0.00044381	851.4	239.14	0.00039529	0.00045455	291.84	116.66	89.972	31.449	0.00041984	55.669	-116.421	-47.077	-11.490	-164.561	-99.742	52.095	-164.969	-159.823	7.751	4.427	-160.436	-156.333	-154.983	-151.184	-61.649	-152.706	-8191	255	
2268.137	1	1	0	0	0.15672	0.16517	0.18861	0.12602	0.097093	0.016464	0.10905	0.10017	0.1616	0.15815	0.22747	0.26335	0.34841	0.10186	0.22516	0.27915	-2.3854	-2.3792	-2.5625	-2.5625	-2.3667	-2.8792	-2.5438	-2.4437	-2.5604	-2.3354	-2.6229	-2.625	-2.3	-2.9104	-2.4125	-2.475	32.627	170.816	-94.301	-90.826	64.157	8.558	-55.199	166.014	164.683	34.842	83.307	166.708	110.407	126.477	63.811	109.242	0.00045326	0.0015984	0.00045698	708.82	1.1047e-05	1.9971e-05	757.42	197.72	1.6264e-05	2.9707e-06	234.54	97.779	67.573	24.906	4.0178e-06	46.865	0.020743	0.040538	0.011134	814.16	0.0003915	0.00045358	855.93	240.49	0.00039444	0.00045553	292.6	117.61	90.443	31.702	0.0004229	55.873	-81.120	169.994	-28.074	-164.741	-163.540	-10.170	-164.994	-159.550	9.218	107.244	-160.968	-155.867	-155.119	-150.813	-61.011	-152.603	-8191	255	
2268.257	1	1	0	0	0.11169	0.14288	0.14052	0.041825	0.059908	0.13637	0.052685	0.15925	0.14462	0.22351	0.11694	0.29981	0.11032	0.44116	0.2429	0.18168	-2.2833	-2.2875	-2.5229	-2.6417	-2.3875	-2.7521	-2.5	-2.5083	-2.7083	-2.4813	-2.3875	-2.7917	-2.1688	-2.6813	-2.4729	-2.2313	-3.686	-70.508	-66.030	149.782	75.719	-134.384	118.890	-175.915	-13.274	84.356	65.001	143.985	72.428	88.176	-130.255	-160.220	0.00050036	0.0012304	0.00046044	707.35	7.1543e-06	5.8353e-06	751.21	196.53	8.6034e-06	1.1449e-05	230.18	96.189	67.277	24.627	9.9322e-06	46.03	0.021001	0.041039	0.011237	814.73	0.00039536	0.00046486	853.74	241.32	0.00041172	0.00047477	293.45	117.7	91.782	32.096	0.00045847	56.018	-85.289	-113.892	-142.910	-164.748	-85.325	166.310	-165.136	-159.658	32.640	6.264	-161.100	-155.960	-155.351	-151.245	141.312	-152.703	-8191	255	
2268.354	1	1	0	0	0.21087	0.098082	0.22495	0.34662	0.042378	0.1767	0.33353	0.21	0.10548	0.15013	0.33127	0.42767	0.12503	0.09982	0.21226	0.20753	-2.2521	-2.4062	-2.5604	-2.6542	-2.2167	-2.5896	-2.7521	-2.2687	-2.7313	-2.325	-2.5604	-2.5583	-2.3333	-2.5208	-2.3833	-2.3417	7.013	-17.722	-156.335	113.015	15.328	-7.522	-104.935	126.679	171.678	-173.656	98.207	127.320	133.988	20.722	-98.306	-150.807	0.00047035	0.00032246	0.00011013	706.21	1.2694e-05	1.3857e-05	749.91	196.73	5.8594e-06	1.2515e-05	231.03	96.804	67.899	24.71	9.3264e-06	46.233	0.022914	0.044927	0.01257	826.67	0.00043869	0.00051365	868.9	246.66	0.00045011	0.00052178	299.85	119.32	93.269	32.415	0.00047533	56.439	-88.745	181.594	50.554	-164.557	116.473	-29.493	-165.420	-159.959	-25.644	59.413	-161.565	-155.579	-155.274	-151.163	69.052	-152.697	-8191	255	
2268.450	1	1	0	0	0.16554	0.1312	0.33165	0.096637	0.047831	0.15405	0.18789	0.28237	0.13008	0.1182	0.24541	0.095005	0.15096	0.16565	0.2159	0.17155	-2.4583	-2.2417	-2.3812	-2.725	-2.4042	-2.5833	-2.5979	-2.1917	-2.6771	-2.475	-2.4	-2.7396	-2.1875	-2.5021	-2.6333	-2.2583	170.441	171.369	-110.764	-132.033	-134.549	21.458	120.343	140.657	53.465	34.587	3.662	-97.917	177.927	-111.945	93.251	-138.628	0.00062355	0.0023828	6.5868e-05	709.77	1.6585e-05	2.0508e-05	750.66	196.77	7.3578e-06	1.2735e-05	231.77	97.566	67.179	24.667	4.5308e-06	46.724	0.023136	0.045415	0.012475	828.42	0.0004365	0.00050486	868.27	244.26	0.00042953	0.00049064	295.05	118	90.971	31.659	0.00043649	56.136	-77.366	-49.099	-14.133	-164.362	24.672	-169.769	-165.053	-159.684	-83.736	-30.547	-160.700	-155.699	-155.277	-151.136	-59.013	-152.769	-8191	255	
2268.546	1	1	0	0	0.12504	0.0030113	0.095441	0.21622	0.08476	0.13605	0.10529	0.18541	0.055283	0.19875	0.034119	0.30746	0.15029	0.092856	0.047155	0.2282	-2.1417	-2.4104	-2.1958	-2.5917	-2.2708	-2.6208	-2.8292	-2.4313	-2.4021	-2.4729	-2.2771	-2.8708	-2.2833	-2.4562	-2.6417	-2.3042	2.713	8.499	-21.185	133.405	-102.887	45.674	-69.237	-168.147	70.643	139.045	87.441	74.019	85.433	168.653	173.080	82.002	0.00047831	0.0003704	0.00010948	714.54	1.4064e-05	1.3445e-05	756.64	197.09	8.3234e-06	1.4872e-05	238	97.656	67.425	24.828	6.4266e-06	46.547	0.021724	0.042546	0.011884	823.49	0.00041656	0.00048591	870.27	243.23	0.00041744	0.00048439	298.92	118.9	92.026	32.231	0.00046617	56.902	-72.018	-53.205	65.534	-164.562	-73.971	-42.555	-165.236	-159.897	-55.610	-49.156	-160.827	-155.935	-154.971	-150.919	-108.987	-152.445	-8191	255	
2268.642	1	1	0	0	0.25596	0.07817	0.13485	0.16496	0.078915	0.08625	0.055422	0.084725	0.13507	0.23389	0.21804	0.023053	0.1286	0.14597	0.080788	0.28412	-2.1479	-2.4229	-2.1667	-2.7958	-2.5521	-2.5042	-2.7062	-2.2104	-2.5021	-2.6625	-2.1771	-2.6875	-2.5375	-2.1896	-2.7729	-2.3937	-33.689	-115.441	-137.238	81.303	22.214	27.940	-7.027	111.733	86.245	-119.248	-99.639	115.171	-115.924	68.371	-60.156	-127.761	0.00041813	0.0009396	0.00046509	712.76	1.0738e-05	1.5188e-05	755.88	195.28	3.0819e-06	1.2021e-05	231.96	96.141	66.883	24.386	2.0751e-05	45.884	0.023712	0.047253	0.01324	839.08	0.00047174	0.00055395	884.38	250.06	0.00048694	0.0005607	305.97	120.84	95.499	33.227	0.00053103	57.425	-89.534	-58.079	-55.617	-164.579	52.204	-116.511	-164.958	-159.670	-164.560	-107.721	-160.600	-156.169	-155.242	-151.105	31.343	-152.348	-8191	255	
2268.738	1	1	0	0	0.14575	0.21181	0.21064	0.32823	0.043255	0.18856	0.020695	0.26992	0.37312	0.097403	0.14237	0.35228	0.042277	0.054997	0.080159	0.17756	-2.0979	-2.6729	-2.1063	-2.6167	-2.7146	-2.3917	-2.9688	-2.3896	-2.4375	-2.7125	-2.2208	-2.6854	-2.4958	-2.4104	-2.8396	-2.3542	47.026	95.396	-88.210	-168.128	37.323	12.050	-132.361	135.067	143.521	164.538	112.584	132.869	-49.506	-77.431	-29.577	121.641	0.00053465	0.00035752	0.00034375	708.97	2.3277e-05	1.1534e-05	743.65	194.34	1.0093e-05	2.7554e-05	231.37	95.736	66.551	24.464	1.0686e-05	46.042	0.026063	0.05132	0.014142	842.19	0.00048947	0.00056957	879.96	249.78	0.00049055	0.00056871	306.14	120.57	95.544	33.083	0.00052641	57.185	-104.729	-65.781	30.193	-164.573	-93.340	8.637	-165.094	-159.637	-61.537	55.194	-160.879	-155.974	-155.086	-150.978	155.306	-152.876	-8191	255	
2268.857	1	1	0	0	0.22009	0.21613	0.31849	0.27564	0.31192	0.19756	0.30359	0.16547	0.17117	0.20382	0.42221	0.16469	0.1912	0.22616	0.25665	0.32249	-1.9708	-2.5771	-2.1792	-2.6813	-2.5729	-2.2229	-2.8729	-2.2583	-2.3792	-2.4708	-2.1771	-2.7479	-2.6083	-2.3792	-2.7854	-2.3771	-74.642	5.639	-51.642	-173.591	-164.478	98.708	30.770	118.325	97.383	-171.020	54.757	120.689	27.513	75.777	-68.600	109.221	0.00049113	0.00095617	0.00031684	706.67	1.0908e-05	1.3408e-05	742.78	195.79	2.6899e-05	7.1505e-06	230.91	95.279	66.658	24.364	1.0373e-05	45.142	0.026041	0.050953	0.01413	841.65	0.00049945	0.00057907	884.25	252.54	0.00051279	0.00059356	309	121.45	96.664	33.444	0.0005563	57.533	-90.782	86.776	45.187	-164.911	-8.553	43.805	-165.181	-159.774	10.920	54.810	-161.259	-155.845	-155.146	-150.871	124.122	-152.899	-8191	255	
2268.953	1	1	0	0	0.077986	0.24456	0.27299	0.10632	0.068118	0.14402	0.15094	0.12226	0.14623	0.06364	0.20645	0.023149	0.24132	0.095473	0.08236	0.22692	-1.9354	-2.5021	-2.3438	-2.6292	-2.4458	-2.2167	-2.8125	-2.5	-2.3083	-2.8417	-2.2375	-2.6708	-2.5792	-2.3812	-2.6979	-2.4292	68.387	-34.119	-6.978	-177.321	103.408	16.933	116.726	48.317	80.962	-138.704	80.386	-161.066	153.933	135.095	-69.325	171.746	0.00050565	0.00046609	0.00031344	707.19	1.3218e-05	2.846e-05	739.9	196.24	7.882e-06	1.1325e-05	231.64	95.069	66.86	24.4	7.831e-06	45.339	0.02803	0.055295	0.015355	854.65	0.0005364	0.00062216	887.32	255.02	0.00052557	0.00060396	309.23	121.54	96.478	33.083	0.00052809	56.973	-70.915	11.646	-94.355	-164.682	-114.945	16.198	-165.001	-159.963	-63.820	-4.827	-160.875	-155.777	-154.823	-150.817	11.164	-152.594	-8191	255	
2269.049	1	1	0	0	0.074307	0.059018	0.22821	0.16567	0.096743	0.033779	0.32191	0.05158	0.14237	0.13249	0.22915	0.14206	0.067859	0.25738	0.16008	0.30286	-1.8188	-2.7396	-2.2229	-2.7083	-2.7458	-2.2521	-2.7667	-2.5583	-2.2604	-2.7396	-2.525	-2.4188	-2.7062	-2.3563	-2.6333	-2.7125	-97.472	171.021	-119.513	157.288	-174.717	169.568	171.762	-38.398	-21.274	169.573	72.434	-175.571	69.502	-123.380	75.280	125.766	0.00056226	0.00013265	0.00033285	703.69	1.4706e-05	1.731e-05	733.49	194.26	9.6274e-06	1.7805e-05	228.31	94.992	66.245	24.103	5.6536e-06	44.767	0.025679	0.049695	0.013669	832.52	0.00047382	0.00054817	863.48	246.62	0.00046704	0.0005314	297.45	117.75	92.713	32.055	0.00048177	55.468	-87.230	25.958	-28.899	-164.715	-105.739	-0.106	-165.025	-159.456	-80.707	-71.667	-161.100	-155.993	-155.572	-150.944	-90.781	-152.749	-8191	255	
2269.121	1	1	0	0	0.29186	0.14663	0.16485	0.12858	0.25694	0.21106	0.21696	0.30035	0.057713	0.22768	0.17247	0.23419	0.27306	0.034812	0.27161	0.19209	-1.6458	-2.6604	-2.4042	-2.5771	-2.7542	-2.3521	-2.8187	-2.6854	-2.3042	-2.5083	-2.5021	-2.425	-2.7229	-2.3083	-2.4313	-2.6146	49.597	109.746	177.354	166.801	145.724	-63.726	97.781	63.866	-73.874	172.448	115.781	135.051	112.050	138.647	-120.440	-145.881	0.0003539	0.0013343	0.00010492	701.68	2.1362e-05	1.1786e-05	737.02	194.33	6.9571e-06	8.0697e-06	230.24	95.165	65.976	23.947	6.4504e-06	45.217	0.023835	0.046442	0.012772	821.57	0.00044537	0.00051693	857.52	243.44	0.00044754	0.00051243	295.78	116.91	91.788	31.673	0.0004653	55.156	-105.753	-77.248	-97.189	-164.535	-37.842	177.743	-165.038	-160.133	-78.546	-50.126	-160.944	-156.034	-155.067	-150.949	-71.457	-152.637	-8191	255	
2269.242	1	1	0	0	0.26088	0.18359	0.0096488	0.087226	0.16087	0.21023	0.25718	0.13051	0.05893	0.19646	0.13052	0.24127	0.19799	0.23549	0.23489	0.12987	-1.8813	-2.5542	-2.5042	-2.3854	-2.7021	-2.3396	-2.6458	-2.7458	-2.2625	-2.5917	-2.6208	-2.3	-2.7	-2.3771	-2.4562	-2.6646	-61.539	-14.886	170.970	-75.772	-87.137	26.168	100.298	77.574	69.043	132.263	-88.482	178.111	144.478	98.524	0.450	-68.459	0.00056052	0.0017994	0.00031586	702.15	9.4734e-06	1.5694e-05	739.14	194.86	7.7623e-06	1.1682e-05	228.55	95.295	66.103	23.866	6.3601e-06	44.995	0.022914	0.04413	0.012257	816.22	0.00042333	0.0004878	851.7	240.04	0.00041515	0.00046929	288.48	115.31	89.222	30.881	0.00041977	54.079	-109.343	18.854	-4.808	-164.584	108.367	121.340	-165.220	-159.638	26.868	-54.315	-161.098	-155.723	-155.582	-150.584	-45.611	-152.873	-8191	255	
2269.338	1	1	0	0	0.15263	0.040435	0.16341	0.24178	0.077127	0.12415	0.34647	0.10894	0.024758	0.072972	0.25224	0.11559	0.10365	0.10889	0.24647	0.17263	-1.7104	-2.4521	-2.4042	-2.3125	-2.75	-2.3438	-2.6271	-2.6896	-2.2833	-2.5687	-2.6896	-2.3688	-2.6875	-2.2854	-2.4417	-2.5792	-64.013	89.110	58.590	28.006	-72.008	124.841	131.037	116.109	-102.650	-151.188	-172.463	-41.445	-82.660	165.095	-143.344	-137.164	0.00036461	0.00053684	0.00029051	698.25	5.9047e-06	1.2399e-05	736.33	193.22	6.9711e-06	8.8054e-06	228.35	95.105	65.59	23.958	1.9768e-05	44.808	0.020659	0.040011	0.011116	800.42	0.00038928	0.0004543	838.63	235.45	0.00039372	0.00045131	286.54	114.67	88.369	30.661	0.00042135	53.991	-89.838	98.779	-124.886	-164.378	1.251	56.876	-165.138	-160.136	-56.352	178.206	-160.489	-156.014	-155.743	-151.051	47.761	-152.813	-8191	255	
2269.434	1	1	0	0	0.11977	0.094173	0.041767	0.31366	0.15424	0.21138	0.25267	0.28813	0.28671	0.34001	0.15863	0.091283	0.10039	0.14555	0.10849	0.18634	-1.7938	-2.675	-2.6042	-2.325	-2.7646	-2.2938	-2.5604	-2.8854	-2.25	-2.7125	-2.5896	-2.1875	-2.7521	-2.5042	-2.4354	-2.8021	-162.672	54.326	119.327	146.011	62.219	-81.202	120.908	76.979	76.191	-30.528	36.707	-38.148	-126.170	70.931	60.905	21.342	0.00035703	0.0011108	0.00041479	696.89	5.3541e-06	1.9462e-05	727.38	192.05	1.6978e-05	9.8567e-06	223.8	93.077	65.559	23.47	2.5547e-05	43.942	0.020801	0.040665	0.011327	800	0.00039495	0.00045797	832.19	233.9	0.00039764	0.00045413	283.02	113.16	87.908	30.389	0.00042148	53.158	-80.362	-121.797	-164.760	-164.522	66.110	-45.742	-165.159	-160.103	135.799	-177.444	-161.031	-155.985	-155.025	-150.782	65.508	-152.704	-8191	255	
2269.530	1	1	0	0	0.30445	0.18245	0.10458	0.12016	0.10492	0.16377	0.083281	0.35537	0.20447	0.29021	0.10725	0.078949	0.14625	0.093345	0.084336	0.30461	-2.0229	-2.4792	-2.425	-2.2896	-2.4958	-2.3646	-2.4188	-2.8667	-2.2875	-2.6771	-2.5708	-2.2896	-2.7313	-2.5938	-2.5083	-2.9375	121.639	161.575	-113.950	115.342	28.682	-114.448	156.524	120.658	17.514	31.818	-159.560	-173.082	160.059	-100.185	-17.411	111.132	0.00051786	0.0036641	0.00029657	695.83	7.0079e-06	2.6159e-06	725.68	190.31	1.2713e-05	5.8721e-06	224.31	93.633	65	23.345	3.91e-06	44.217	0.020883	0.040809	0.011367	798.14	0.00039073	0.00045618	828.39	232.71	0.00038962	0.00044599	282.51	112.57	87.209	30.263	0.00041381	53.102	-90.703	-125.149	172.202	-164.832	-103.966	-145.181	-165.199	-159.483	-46.358	-103.094	-160.441	-155.981	-155.383	-151.623	-58.807	-152.736	-8191	255	
2269.649	1	1	0	0	0.08015	0.11358	0.14091	0.20867	0.15175	0.18814	0.24759	0.18375	0.066882	0.27786	0.21527	0.14875	0.11023	0.13262	0.0072569	0.29829	-1.7313	-2.4542	-2.5354	-2.3458	-2.4896	-2.5354	-2.3771	-2.7458	-2.2479	-2.3063	-2.6188	-2.35	-2.5667	-2.5604	-2.2625	-2.7396	48.654	103.533	-34.767	96.876	111.740	57.391	154.977	114.274	124.642	-28.415	124.184	140.112	-116.621	-136.989	27.967	-168.485	0.00025138	0.00062213	0.0001441	693.43	1.6284e-05	1.6925e-05	726.93	192.09	7.6023e-06	7.8593e-06	226.52	93.333	65.891	23.598	2.4019e-05	44.294	0.020409	0.040051	0.011151	796.74	0.00038555	0.00045215	831.62	234.25	0.0003934	0.00045295	284.66	113.36	88.055	30.601	0.00042366	53.591	-87.095	-97.649	-125.491	-164.676	-92.244	0.345	-164.985	-159.805	-84.271	178.215	-161.072	-156.219	-155.338	-150.851	-18.007	-153.140	-8191	255	
2269.722	1	1	0	0	0.15932	0.21247	0.15381	0.34095	0.22395	0.19782	0.14543	0.15711	0.098911	0.04545	0.12724	0.38434	0.20343	0.14749	0.098875	0.19024	-2.0312	-2.2729	-2.65	-2.1562	-2.4979	-2.6604	-2.4896	-2.9313	-2.3187	-2.3042	-2.8583	-2.3208	-2.5958	-2.4917	-2.1979	-2.7771	-6.591	40.464	-106.560	112.859	-138.037	63.406	150.090	49.110	-63.242	47.260	29.619	156.598	49.739	160.622	-82.103	133.582	0.00053913	0.00060742	0.00022198	699.57	9.0907e-06	1.0941e-05	734.52	192.6	1.1605e-05	1.3746e-05	227.41	94.306	66.141	23.911	9.7181e-06	44.988	0.021153	0.041318	0.011483	804.8	0.00039795	0.00046356	839.88	235.65	0.00039305	0.0004544	285.3	113.74	88.176	30.786	0.00041376	53.789	-93.019	-126.224	-158.641	-164.386	-75.379	-53.881	-165.007	-159.623	-163.686	-75.312	-160.939	-156.135	-154.993	-150.937	-107.135	-152.887	-8191	255	
2269.819	1	1	0	0	0.20851	0.2294	0.084414	0.21699	0.042176	0.060793	0.15245	0.32772	0.19073	0.13448	0.17891	0.087414	0.18182	0.2995	0.16275	0.11624	-1.9438	-2.2729	-2.8042	-2.5021	-2.5271	-2.6375	-2.3521	-2.6792	-2.4208	-2.3417	-2.8146	-2.45	-2.4729	-2.6667	-2.2271	-2.6583	-161.543	20.186	70.143	173.138	36.139	12.270	112.667	161.231	110.826	150.853	133.278	-153.438	-135.585	-138.151	62.825	132.273	0.00053392	0.00086115	0.00042606	702.84	1.8681e-05	1.8239e-05	734.45	192.44	5.0313e-06	1.8462e-05	226.18	94.222	65.777	23.986	1.4436e-05	44.759	0.02036	0.039952	0.01097	800.65	0.00038472	0.00044938	836.37	234.48	0.00039111	0.00045374	284.84	114.13	88.549	30.904	0.00042979	53.887	-89.755	-122.864	-54.461	-164.496	-7.512	137.140	-165.141	-160.197	-70.061	-162.745	-160.739	-155.727	-154.962	-150.825	78.924	-152.848	-8191	255	
2269.937	1	1	0	0	0.1549	0.22725	0.074616	0.19196	0.13738	0.037854	0.036172	0.33798	0.091913	0.2563	0.034853	0.16586	0.22125	0.068325	0.18832	0.065306	-2.0958	-2.3563	-2.6333	-2.5125	-2.4354	-2.8042	-2.4875	-2.5771	-2.4896	-2.275	-2.7208	-2.4354	-2.3667	-2.7271	-2.2917	-2.6562	-81.467	-105.605	9.313	56.997	-40.880	114.888	158.633	52.492	104.168	120.223	-18.161	-65.803	153.264	5.964	71.027	-70.494	0.00046046	0.0014295	0.00032647	695.98	1.0697e-05	4.1245e-06	728.26	191.15	1.1497e-05	2.6306e-05	225.58	93.899	65.945	23.747	6.4123e-06	44.585	0.02156	0.042393	0.011797	807.53	0.00041842	0.000494	843.61	238.42	0.00043111	0.0004986	289.6	115.02	90.512	31.209	0.00044586	54.115	-71.663	-125.259	-30.456	-164.408	-58.306	40.102	-165.138	-159.818	-89.046	-64.966	-161.152	-155.928	-154.807	-151.437	87.752	-152.889	-8191	255	
2270.034	1	1	0	0	0.13717	0.25861	0.13122	0.14382	0.08877	0.06548	0.074777	0.38552	0.14734	0.13101	0.27302	0.20682	0.24137	0.24945	0.2552	0.26958	-2.2771	-2.2979	-2.4313	-2.6104	-2.4021	-2.7208	-2.5187	-2.6854	-2.7896	-2.3312	-2.8396	-2.4729	-2.4646	-2.8292	-2.275	-2.5917	19.554	-156.740	3.568	-68.873	123.520	20.661	-15.469	-131.090	113.365	-125.840	-162.582	76.291	130.522	129.606	-94.762	-10.286	0.00052143	0.001762	0.00027878	698.07	2.3104e-05	1.8159e-05	736.86	191.98	8.7271e-06	1.3422e-05	227.51	94.677	65.888	23.904	6.6928e-06	45.145	0.021642	0.041988	0.011418	801.33	0.00039348	0.00045747	836.38	234.54	0.00039185	0.00045298	284.49	113.86	88.748	30.909	0.00042562	54.156	-102.236	-99.347	68.081	-164.600	49.830	83.012	-165.047	-159.878	-91.917	36.484	-160.951	-156.009	-155.261	-151.099	-10.759	-152.436	-8191	255	
2270.130	1	1	0	0	0.090514	0.26182	0.2186	0.27426	0.28272	0.06694	0.16174	0.16539	0.25389	0.13804	0.07007	0.28701	0.15805	0.15381	0.25084	0.21768	-2.3542	-2.2438	-2.5854	-2.4729	-2.2479	-2.7875	-2.6104	-2.6042	-2.6792	-2.4354	-2.7396	-2.5312	-2.3542	-2.7479	-2.4375	-2.5875	76.824	-156.021	-103.975	106.079	52.717	-6.855	-57.870	138.632	87.820	-149.157	-153.337	110.443	164.314	-176.220	5.552	111.529	0.00041034	0.0014266	0.00018431	697.89	1.7257e-05	1.7587e-05	733.27	192.69	2.0345e-06	7.0999e-06	226.83	93.891	65.913	24.101	9.5088e-06	45.087	0.021645	0.042291	0.011854	810.77	0.00042181	0.0004945	849.05	239.76	0.00043145	0.00049666	291.79	116.21	91.063	31.548	0.00045663	54.951	-94.626	2.586	108.983	-164.574	48.418	22.699	-165.122	-160.027	-172.543	129.798	-160.793	-155.945	-155.309	-150.762	-113.514	-152.823	-8191	255	
2270.250	1	1	0	0	0.25117	0.090515	0.082814	0.088931	0.022775	0.087058	0.20244	0.085193	0.13807	0.21226	0.17993	0.12363	0.092654	0.11197	0.049815	0.23945	-2.4104	-2.1937	-2.5583	-2.6771	-2.3271	-2.8917	-2.5042	-2.275	-2.7833	-2.3875	-2.6937	-2.7458	-2.2542	-2.7729	-2.5438	-2.6208	-31.055	64.716	-23.140	127.462	21.937	-121.843	131.850	-53.092	70.645	87.327	-142.504	88.917	78.808	-125.868	1.221	-91.017	0.00037686	0.00092513	0.00013298	700.48	9.9384e-06	9.889e-06	736.07	194.31	8.7892e-06	2.1777e-05	225.96	94.871	66.414	24.132	1.1993e-05	45.053	0.022485	0.043833	0.012076	816.15	0.000426	0.00049619	850.15	241.25	0.00042807	0.00049135	291.18	116.37	91.087	31.552	0.00045333	54.801	-67.448	-50.560	-64.396	-164.585	87.754	71.458	-165.102	-159.617	-105.642	-27.461	-160.136	-155.793	-154.790	-151.038	-119.562	-152.614	-8191	255	
2270.347	1	1	0	0	0.25005	0.045738	0.11729	0.20816	0.12661	0.36496	0.11031	0.32	0.050164	0.13557	0.19889	0.089358	0.12171	0.10811	0.087288	0.15288	-2.3146	-2.1479	-2.5833	-2.8937	-2.1708	-2.7062	-2.6979	-2.3812	-2.6792	-2.2625	-2.7625	-2.95	-2.175	-2.6479	-2.4062	-2.3396	-27.927	-62.475	-131.472	169.087	36.095	17.442	-125.018	130.919	135.359	55.580	127.245	69.692	15.484	-61.342	87.322	-46.901	0.00036321	0.0016738	0.00019678	697.98	6.8932e-06	3.4045e-06	729.78	192.82	1.5166e-05	8.8936e-06	226.43	94.745	66.65	24.091	1.4188e-05	44.493	0.022634	0.044036	0.012238	816.58	0.00043766	0.00051208	851.87	243.04	0.00045426	0.00052367	296.08	117.48	92.858	31.938	0.00048722	55.283	-102.019	-72.836	144.221	-164.422	-120.560	156.085	-164.715	-159.677	-25.475	-38.423	-160.868	-156.140	-155.170	-150.864	89.156	-152.818	-8191	255	
2270.418	1	1	0	0	0.26306	0.31595	0.18235	0.26184	0.11392	0.16525	0.21463	0.079748	0.12891	0.1044	0.21388	0.055527	0.18394	0.12714	0.076403	0.32446	-2.4	-2.2896	-2.4333	-2.6021	-2.2708	-2.7188	-2.6229	-2.3646	-2.8375	-2.4083	-2.4667	-2.6708	-2.3812	-2.7167	-2.7375	-2.475	135.132	-19.995	151.474	177.260	-70.984	-110.229	-145.630	-80.254	-46.564	128.722	151.336	129.995	-56.636	-31.924	-48.990	-141.726	0.00028546	0.0016748	0.00020316	695.31	9.779e-06	1.7997e-05	725	193.65	1.1513e-05	1.1982e-05	224.64	93.865	66.246	23.822	2.0237e-05	44.287	0.024087	0.047008	0.013	820.8	0.00046468	0.00054184	855.09	245.81	0.00048406	0.00055673	299.03	118.58	94.165	32.217	0.0005135	55.708	-75.334	-115.210	-44.377	-164.651	44.926	-109.485	-164.947	-159.455	-36.864	-87.023	-160.189	-156.005	-155.290	-151.113	160.197	-152.772	-8191	255	
2270.539	1	1	0	0	0.087757	0.22394	0.22094	0.13906	0.10574	0.285	0.10292	0.23841	0.18666	0.20383	0.21728	0.18305	0.33371	0.12141	0.29463	0.26121	-2.4229	-2.4375	-2.4833	-2.8354	-2.4646	-2.6667	-2.6208	-2.4146	-2.5875	-2.4708	-2.5854	-2.8542	-2.3167	-2.6771	-2.6104	-2.4854	54.381	172.644	37.080	-3.772	-48.038	-69.504	9.173	56.752	-60.715	-137.405	91.542	-170.439	-10.235	-6.569	-110.438	-156.299	0.00051874	0.00085631	0.00024868	692.49	1.4616e-05	4.3517e-06	728.39	192.88	4.972e-06	1.0195e-05	227.9	94.858	66.695	24.098	1.4963e-05	45.421	0.025218	0.04925	0.013623	825.6	0.00047666	0.00055569	861.65	246.98	0.00048022	0.00054753	300.19	118.64	93.363	32.214	0.0004915	55.763	-104.720	139.903	-6.300	-164.475	38.188	108.614	-164.809	-159.808	138.366	150.198	-160.939	-155.994	-155.440	-150.735	-66.259	-152.291	-8191	255	
2270.633	1	1	0	0	0.17279	0.099366	0.18291	0.10662	0.12672	0.22254	0.073398	0.050834	0.18405	0.043529	0.039752	0.076994	0.22871	0.046892	0.10638	0.19786	-2.4083	-2.4729	-2.2771	-2.8646	-2.4562	-2.5187	-2.8667	-2.3417	-2.7083	-2.6854	-2.5583	-2.7646	-2.3771	-2.7021	-2.8063	-2.4229	-107.848	50.292	-150.842	98.209	123.956	-138.320	-157.073	-171.946	-21.675	-148.297	127.631	-155.566	131.990	-114.762	63.769	-53.144	0.00032692	0.00075736	0.00019249	697.7	1.1896e-05	6.7651e-06	734.63	195.43	8.4382e-06	7.4567e-06	230.37	94.906	67.072	24.185	2.0108e-05	44.911	0.023944	0.046828	0.012978	823.09	0.00045184	0.0005229	860.72	244.4	0.00044717	0.00051601	296.08	117.49	92.272	31.885	0.00047173	55.311	-94.500	98.609	-138.826	-164.658	-61.713	-57.693	-165.154	-159.406	-85.979	42.428	-160.698	-155.855	-155.370	-150.913	-143.110	-152.415	-8191	255	
2270.729	1	1	0	0	0.1051	0.15283	0.065199	0.21744	0.14019	0.15341	0.29857	0.21792	0.080606	0.14231	0.26147	0.12913	0.2117	0.19486	0.047418	0.27472	-2.3646	-2.575	-2.2396	-2.8667	-2.5438	-2.4229	-2.8542	-2.3292	-2.575	-2.5208	-2.1708	-2.75	-2.5146	-2.2771	-2.9562	-2.4333	-46.489	99.746	128.772	130.771	141.687	-161.281	109.926	88.066	-174.265	66.705	-62.703	143.733	1.448	146.886	-171.344	-2.317	0.0002113	0.0018177	0.0003683	703.55	6.0748e-06	2.8342e-05	736.18	195.13	4.9992e-06	6.1712e-06	229.53	95.728	66.422	24.304	2.178e-05	45.276	0.022988	0.044862	0.012319	816.32	0.00042457	0.00049288	849.11	240.44	0.00041817	0.00048082	291.33	116.28	90.548	31.51	0.00044017	54.915	-98.359	-111.871	115.735	-164.686	-12.517	-90.987	-164.772	-159.976	134.009	-51.481	-160.865	-155.826	-154.927	-150.836	-26.744	-152.674	-8191	255	
2270.826	1	1	0	0	0.20155	0.21476	0.14004	0.053173	0.17585	0.12797	0.10592	0.16218	0.1424	0.064694	0.042553	0.2968	0.15985	0.11325	0.27871	0.21741	-2.3187	-2.5062	-2.1854	-2.9604	-2.5938	-2.4104	-2.9396	-2.4562	-2.6708	-2.6542	-2.425	-2.7667	-2.5687	-2.3042	-2.8063	-2.4958	83.341	-136.652	-13.153	-139.644	-141.151	98.432	106.909	157.936	29.128	167.477	-120.134	77.464	-12.739	74.080	-57.017	9.678	0.00037124	0.0016481	0.00020078	704.23	6.4031e-06	6.7899e-06	740.32	194.15	1.0612e-05	1.3837e-05	230.83	95.575	67.113	24.228	9.6025e-06	45.644	0.02157	0.042473	0.011784	814.2	0.00041333	0.00048657	854.89	241.07	0.00042543	0.00049694	295.4	117.35	91.928	31.875	0.0004764	55.751	-78.125	-133.591	161.254	-164.597	-105.692	143.931	-164.938	-159.318	-66.660	106.122	-160.959	-155.829	-155.268	-151.410	-81.182	-152.553	-8191	255	
2270.946	1	1	0	0	0.097785	0.27055	0.15503	0.12057	0.23358	0.18504	0.090211	0.31874	0.087658	0.18315	0.1765	0.19316	0.28022	0.11621	0.14612	0.020333	-2.1375	-2.725	-2.3063	-2.8104	-2.5833	-2.4854	-2.6875	-2.4479	-2.5604	-2.7875	-2.4083	-2.8333	-2.6354	-2.3958	-2.85	-2.7542	-135.065	-152.998	-14.380	167.365	148.710	43.046	-153.255	-172.303	7.587	-146.755	-165.690	41.995	118.904	-106.307	-30.023	-58.181	0.00035789	0.00061984	0.00048055	706.99	2.6385e-06	2.3899e-05	744.5	193.98	1.06e-05	7.3612e-06	230.07	95.69	66.798	24.238	1.1156e-05	45.501	0.023824	0.047471	0.013187	829.99	0.00046788	0.00054714	871.49	246.55	0.00046414	0.00053685	299.86	118.45	92.852	32.087	0.00047476	55.909	-68.427	-2.836	-44.805	-164.873	108.669	-106.674	-165.361	-159.707	-23.615	-112.884	-160.452	-156.132	-155.257	-150.475	-106.185	-152.611	-8191	255	
2271.018	1	1	0	0	0.36256	0.18413	0.11001	0.028536	0.095395	0.22524	0.29761	0.13762	0.14977	0.088872	0.31261	0.03516	0.16029	0.1658	0.04333	0.10484	-2.0708	-2.7104	-2.4604	-2.8583	-2.5333	-2.2854	-2.8833	-2.4583	-2.4771	-2.7667	-2.2562	-2.6083	-2.6104	-2.3563	-2.6521	-2.6437	-20.278	-166.305	-26.723	44.282	5.188	-92.201	138.841	139.457	163.018	6.597	136.057	41.171	-161.880	78.873	-108.687	170.840	0.00048609	0.00061412	0.00017011	706.54	6.9193e-06	1.6476e-05	747.47	195.11	1.2877e-05	1.8085e-05	232.32	95.726	66.813	24.305	1.0138e-05	45.661	0.023189	0.045229	0.012346	819.59	0.00042558	0.00049384	858.31	240.72	0.00041849	0.00047648	292.19	116.39	90.288	31.479	0.00043212	55.077	-81.483	91.297	-11.841	-164.504	-5.019	-59.516	-164.935	-159.857	37.034	-27.654	-160.854	-155.960	-155.680	-150.941	39.172	-152.369	-8191	255	
2271.114	1	1	0	0	0.14578	0.089771	0.083296	0.14225	0.16195	0.33403	0.029366	0.29659	0.14115	0.066572	0.1314	0.23395	0.16349	0.15644	0.29383	0.27397	-1.9958	-2.8604	-2.2938	-2.6604	-2.5896	-2.2979	-2.9188	-2.8021	-2.4854	-2.8187	-2.6458	-2.7146	-2.7625	-2.3604	-2.5354	-2.7188	-79.740	-133.323	-5.332	75.902	84.330	150.880	-153.579	157.395	114.203	0.538	150.043	128.559	0.970	156.454	120.325	56.447	0.00049503	0.00055552	0.00029771	707.09	1.8472e-05	1.9421e-05	745.2	196.13	4.6747e-06	1.5014e-05	228.29	95.455	66.451	24.137	6.4274e-06	45.673	0.021676	0.042782	0.01187	818.13	0.00042531	0.0004984	858.28	243.59	0.00044357	0.00051493	296.83	117.8	93.034	32.126	0.00047612	55.839	-93.082	90.183	-89.311	-164.738	-60.987	116.204	-165.050	-159.951	134.103	-46.946	-161.121	-155.999	-155.510	-150.947	-72.094	-152.849	-8191	255	
2271.210	1	1	0	0	0.12131	0.10495	0.11962	0.179	0.3728	0.11559	0.19067	0.095473	0.087083	0.36781	0.093904	0.1612	0.13451	0.13708	0.090767	0.16635	-2.0083	-2.7604	-2.375	-2.6042	-2.6292	-2.2062	-2.7062	-2.6167	-2.2583	-2.8104	-2.4521	-2.3146	-2.8854	-2.2313	-2.5833	-2.7125	56.718	-97.179	100.397	-152.799	-150.398	27.663	72.726	-46.903	-20.725	-20.044	-64.294	20.489	100.012	175.240	76.652	70.128	0.00041758	0.002165	0.00033406	704.99	1.2439e-05	1.8511e-05	737.68	194.34	7.2603e-06	1.9883e-05	229.49	95.219	66.886	24.212	1.2088e-05	45.73	0.0236	0.045854	0.012654	824.09	0.00044652	0.00051815	860.99	245.03	0.00045515	0.00051829	297.64	117.87	92.706	31.981	0.00046068	55.718	-90.412	78.964	-167.421	-164.653	-25.304	-65.911	-165.045	-159.735	-43.588	134.358	-161.223	-156.183	-155.532	-150.943	-0.196	-152.663	-8191	255	
2271.331	1	1	0	0	0.076902	0.14093	0.25421	0.30865	0.17258	0.019933	0.23865	0.076362	0.1679	0.18075	0.10986	0.17377	0.12224	0.20313	0.17656	0.18907	-1.8062	-2.6542	-2.5167	-2.5604	-2.7604	-2.3146	-2.5583	-2.7438	-2.1917	-2.6625	-2.5083	-2.5812	-2.9688	-2.2583	-2.6021	-2.7646	-99.460	-103.271	-136.166	144.747	-78.245	-154.474	143.476	108.368	7.587	108.338	-167.928	-152.339	169.609	-113.173	170.529	-69.393	0.00035779	0.00071897	0.0008419	709.57	2.0494e-05	8.5455e-06	749.65	196.1	2.0247e-05	1.9411e-05	230.45	95.572	67.423	24.257	3.6118e-06	45.71	0.022967	0.044416	0.012211	823.41	0.00043188	0.0005035	865.07	244.98	0.00044905	0.0005168	298.85	118.95	93.441	32.397	0.00048672	56.609	-91.235	-97.882	36.429	-164.697	83.901	87.037	-165.071	-159.918	60.370	-34.763	-160.906	-156.034	-155.338	-151.181	152.766	-152.551	-8191	255	
2271.427	1	1	0	0	0.088949	0.090789	0.16685	0.080404	0.13061	0.039555	0.21697	0.51158	0.16406	0.22722	0.2177	0.12028	0.1483	0.30245	0.13689	0.33959	-1.8771	-2.7083	-2.5062	-2.5917	-2.7521	-2.4708	-2.6562	-2.6312	-2.4333	-2.7396	-2.5917	-2.575	-2.7042	-2.5062	-2.5708	-2.9229	19.526	-69.369	-168.316	-19.960	-98.132	128.033	42.389	142.156	130.935	112.039	-159.955	75.946	-145.244	106.746	89.527	112.159	0.00068006	0.00045529	0.00026712	709.92	1.1201e-05	5.7342e-06	746.38	196.82	7.1065e-06	1.3155e-05	231.03	96.004	67.063	24.24	1.2831e-05	45.568	0.024468	0.047912	0.013353	838.39	0.00047116	0.0005473	878.59	249.6	0.00047624	0.0005436	302.79	119.6	93.623	32.355	0.00048401	56.081	-89.158	179.764	144.843	-164.715	-99.779	34.317	-165.025	-159.774	-5.443	-92.868	-160.884	-155.764	-155.368	-150.947	-11.537	-152.721	-8191	255	
2271.523	1	1	0	0	0.048956	0.11317	0.060583	0.099468	0.22926	0.04214	0.12557	0.053716	0.099753	0.26638	0.11718	0.12121	0.11965	0.11901	0.14329	0.23243	-1.9854	-2.65	-2.575	-2.2979	-2.6562	-2.3375	-2.3854	-2.7729	-2.2646	-2.7896	-2.6375	-2.3979	-2.8167	-2.3917	-2.525	-2.9125	28.678	-114.759	124.208	74.058	91.573	-31.726	135.052	-128.273	178.437	160.242	122.452	-101.697	-153.459	137.949	130.714	-61.266	0.00029315	0.0011905	0.00025034	708.86	1.183e-05	2.1638e-05	744.65	195.06	9.147e-06	5.4893e-06	229.35	95.805	67.475	24.412	2.2054e-05	45.891	0.023529	0.045213	0.012593	826.84	0.00043615	0.00050772	862.44	244.84	0.00044419	0.00051009	296.78	118.29	92.787	32.146	0.00047436	56.111	-105.716	-129.057	-9.314	-164.622	92.270	-174.906	-164.949	-159.780	-48.692	50.172	-161.087	-156.184	-155.415	-151.287	-79.330	-152.477	-8191	255	
2271.619	1	1	0	0	0.32452	0.06837	0.26096	0.13215	0.051648	0.16005	0.39615	0.32227	0.24488	0.16161	0.084436	0.083121	0.23851	0.16944	0.051577	0.17613	-2.0375	-2.5625	-2.5604	-2.4833	-2.8063	-2.6083	-2.5396	-2.7687	-2.3917	-2.3833	-2.7396	-2.4583	-2.7083	-2.55	-2.4188	-2.8688	149.760	68.547	165.381	71.722	-79.469	84.291	161.003	155.991	-34.879	-156.206	155.023	-114.307	144.231	144.204	-10.377	143.613	0.00043762	0.00098321	0.00028031	710.28	5.4478e-06	2.208e-05	737.42	194.74	4.9064e-06	7.7596e-06	230.02	95.363	67.412	24.154	1.4082e-05	45.866	0.02332	0.045568	0.012714	828.33	0.00044867	0.00052599	866.35	246.44	0.00046068	0.00053488	301.76	119.43	94.267	32.575	0.00050578	56.661	-83.468	-28.123	108.862	-164.609	49.440	-55.183	-165.057	-159.713	99.558	-132.610	-160.536	-156.038	-155.012	-151.233	71.592	-152.613	-8191	255	
2271.715	1	1	0	0	0.20602	0.17583	0.13211	0.058697	0.20453	0.12408	0.23185	0.051101	0.050913	0.18307	0.032612	0.20644	0.35399	0.097289	0.103	0.043559	-1.9917	-2.375	-2.6417	-2.4208	-2.7313	-2.5812	-2.5729	-2.6833	-2.3312	-2.5667	-2.8979	-2.4417	-2.7479	-2.8	-2.4146	-2.9958	-85.351	76.731	-23.345	-104.236	-48.224	-136.126	-177.274	32.425	-31.324	59.285	19.119	171.454	178.644	23.998	-56.109	-36.427	0.00037628	0.0016695	5.4639e-05	710.01	1.2233e-05	8.2975e-06	743.73	195.09	1.1716e-05	6.8199e-06	231.67	95.768	66.477	24.395	1.8423e-05	45.556	0.024796	0.048669	0.013561	837.89	0.0004681	0.00054649	875.87	248.27	0.00047205	0.00054258	302.39	119.67	93.64	32.434	0.00049092	56.679	-104.617	-163.917	-112.830	-164.688	123.398	-29.521	-164.975	-159.570	-50.642	-148.908	-160.973	-155.815	-155.436	-150.629	53.839	-152.902	-8191	255	
2271.812	1	1	0	0	0.067789	0.18283	0.22508	0.11234	0.16936	0.15479	0.27368	0.22322	0.10463	0.096024	0.17341	0.24828	0.091588	0.098068	0.2747	0.33138	-2.2396	-2.4146	-2.6021	-2.4375	-2.3854	-2.7083	-2.45	-2.7208	-2.4125	-2.3271	-2.8375	-2.4646	-2.5021	-2.7417	-2.4125	-2.8979	15.679	9.882	0.721	69.421	18.210	1.385	132.837	108.880	-60.533	30.713	66.621	96.396	-107.081	78.756	-15.359	33.116	0.00052198	0.0011436	0.00044768	712.58	1.8892e-05	1.5307e-05	747	196.82	3.7111e-06	6.9677e-06	230.81	95.405	66.81	24.232	1.5161e-05	45.438	0.024325	0.047636	0.013283	837.28	0.00046129	0.00054216	876.04	248.71	0.00047009	0.00054443	302.7	119.53	93.942	32.568	0.00049591	56.328	-95.631	-137.136	-159.943	-164.807	94.138	-36.353	-165.256	-160.100	-100.190	96.030	-161.073	-155.963	-155.351	-150.512	-39.518	-152.736	-8191	255	
2271.930	1	1	0	0	0.13882	0.22919	0.061899	0.17311	0.25516	0.18903	0.30474	0.23019	0.28823	0.10329	0.083941	0.13291	0.15075	0.19939	0.051256	0.23793	-2.1458	-2.4208	-2.5542	-2.4625	-2.5167	-2.7271	-2.4042	-2.8854	-2.4667	-2.4521	-2.8917	-2.575	-2.5333	-2.7375	-2.2896	-2.9167	-38.339	27.500	-33.885	95.726	101.630	-164.478	154.762	-63.183	-5.772	139.616	156.413	8.172	113.347	-94.511	-38.710	102.638	0.0003065	0.00087853	0.00034869	707.1	4.8172e-06	1.8053e-05	742.51	195.4	1.0315e-05	4.2157e-06	229.6	95.259	67.188	24.211	7.2804e-06	45.401	0.024501	0.048007	0.013357	835.99	0.0004691	0.00055103	874.11	248.45	0.00047813	0.00055086	301.55	118.9	94.138	32.535	0.00050033	56.07	-94.392	-80.785	115.676	-164.651	93.813	52.295	-165.161	-159.807	-52.416	102.528	-160.648	-155.853	-155.330	-151.171	24.082	-152.794	-8191	255	
2272.027	1	1	0	0	0.010589	0.059123	0.10125	0.29048	0.057667	0.048945	0.072354	0.15306	0.11435	0.070402	0.23402	0.3704	0.21512	0.28638	0.1546	0.10721	-2.2417	-2.4229	-2.6958	-2.4125	-2.6021	-2.8125	-2.4875	-2.5958	-2.4833	-2.3438	-2.7875	-2.5146	-2.5187	-2.7917	-2.25	-2.7271	53.471	37.676	76.668	73.228	-144.011	161.294	20.316	-110.539	49.620	79.038	-148.039	37.920	58.370	17.445	-105.364	-25.809	0.00044546	0.00044983	0.00054919	708.01	9.5169e-06	5.4885e-06	738.36	194.08	3.3922e-06	1.1532e-05	229.88	95.368	66.482	24.03	1.1656e-05	45.022	0.024459	0.047944	0.013228	829.63	0.00046304	0.00053931	864.89	245.16	0.00046309	0.00053154	299.14	118.33	93.341	32.229	0.00050176	55.955	-73.857	19.110	-41.617	-164.638	66.732	-175.860	-164.843	-159.541	112.425	-86.744	-161.134	-156.143	-155.124	-150.738	89.952	-152.665	-8191	255	
2272.123	1	1	0	0	0.13423	0.22675	0.09488	0.25434	0.094853	0.083314	0.18281	0.099992	0.071903	0.14726	0.18064	0.13349	0.23773	0.17693	0.24665	0.074924	-2.1562	-2.175	-2.75	-2.6	-2.5396	-2.6333	-2.4896	-2.7542	-2.5958	-2.2854	-2.9229	-2.6771	-2.3208	-2.8104	-2.4792	-2.7542	-112.669	39.783	-22.483	84.052	-49.922	134.941	149.752	82.290	-64.750	-20.172	94.942	153.919	-104.861	131.564	111.179	-154.456	0.00038521	0.00085064	3.7085e-05	700.13	2.4437e-05	1.4947e-05	736.62	193.56	2.6962e-06	1.499e-05	226.87	94.592	65.712	23.693	5.8449e-06	44.695	0.025045	0.049958	0.013759	835.31	0.00048983	0.00057519	872.05	249.18	0.00050928	0.00058768	305.41	120.33	95.81	32.818	0.00054758	56.6	-96.408	-76.228	-141.580	-164.951	13.038	-31.350	-165.131	-160.067	111.449	-100.110	-160.679	-155.835	-155.506	-151.024	-64.476	-152.484	-8191	255	
#DATA ENDS
