BOXY.EXE: ISS Imagent and Oximeter Data Acquisition Program Version 0.80
Ascii Record File

#ACQ INFORMATION
2  Detector Channels 
16  External MUX Channels 
1  Auxiliary Channels 
5000  Waveform (CCF) Frequency (Hz)
1  Waveforms Skipped 
30  Waveforms Averaged 
1  Cycles Averaged 
16  Acquisitions per Waveform 
10.0806  Updata Rate (Hz) 

#FILE INFORMATION
TRUE -- External MUX Channel results are PARSED.
FALSE -- AC DC and Phase are NOT grouped.
TRUE -- Companion Program Settings File CREATED.
FALSE -- AC data not excluded
FALSE -- DC data not excluded
FALSE -- Phase data not excluded
FALSE -- Auxillary Chn. data not excluded
Tab delimiters

#CALIBRATION STATE
TRUE -- Waveform Calibration Values APPLIED.


#AUX CALIBRATION VALUES
Val Type	aux-1	

Term	1.0000e+00	
Factor	0.0000e+00	


#WF CALIBRATION VALUES
A = Detector Channel
Val Type	A-AC1	A-AC2	A-AC3	A-AC4	A-AC5	A-AC6	A-AC7	A-AC8	A-AC9	A-AC10	A-AC11	A-AC12	A-AC13	A-AC14	A-AC15	A-AC16	A-DC1	A-DC2	A-DC3	A-DC4	A-DC5	A-DC6	A-DC7	A-DC8	A-DC9	A-DC10	A-DC11	A-DC12	A-DC13	A-DC14	A-DC15	A-DC16	A-Ph1	A-Ph2	A-Ph3	A-Ph4	A-Ph5	A-Ph6	A-Ph7	A-Ph8	A-Ph9	A-Ph10	A-Ph11	A-Ph12	A-Ph13	A-Ph14	A-Ph15	A-Ph16	

Term	0.00000e+00	0.00000e+00	0.00000e+00	0.00000e+00	0.00000e+00	0.00000e+00	0.00000e+00	0.00000e+00	0.00000e+00	0.00000e+00	0.00000e+00	0.00000e+00	0.00000e+00	0.00000e+00	0.00000e+00	0.00000e+00	0.00000e+00	0.00000e+00	0.00000e+00	0.00000e+00	0.00000e+00	0.00000e+00	0.00000e+00	0.00000e+00	0.00000e+00	0.00000e+00	0.00000e+00	0.00000e+00	0.00000e+00	0.00000e+00	0.00000e+00	0.00000e+00	0.00000e+00	0.00000e+00	0.00000e+00	0.00000e+00	0.00000e+00	0.00000e+00	0.00000e+00	0.00000e+00	0.00000e+00	0.00000e+00	0.00000e+00	0.00000e+00	0.00000e+00	0.00000e+00	0.00000e+00	0.00000e+00	
Factor	1.00000e+00	1.00000e+00	1.00000e+00	1.00000e+00	1.00000e+00	1.00000e+00	1.00000e+00	1.00000e+00	1.00000e+00	1.00000e+00	1.00000e+00	1.00000e+00	1.00000e+00	1.00000e+00	1.00000e+00	1.00000e+00	1.00000e+00	1.00000e+00	1.00000e+00	1.00000e+00	1.00000e+00	1.00000e+00	1.00000e+00	1.00000e+00	1.00000e+00	1.00000e+00	1.00000e+00	1.00000e+00	1.00000e+00	1.00000e+00	1.00000e+00	1.00000e+00	X	X	X	X	X	X	X	X	X	X	X	X	X	X	X	X	

B = Detector Channel
Val Type	B-AC1	B-AC2	B-AC3	B-AC4	B-AC5	B-AC6	B-AC7	B-AC8	B-AC9	B-AC10	B-AC11	B-AC12	B-AC13	B-AC14	B-AC15	B-AC16	B-DC1	B-DC2	B-DC3	B-DC4	B-DC5	B-DC6	B-DC7	B-DC8	B-DC9	B-DC10	B-DC11	B-DC12	B-DC13	B-DC14	B-DC15	B-DC16	B-Ph1	B-Ph2	B-Ph3	B-Ph4	B-Ph5	B-Ph6	B-Ph7	B-Ph8	B-Ph9	B-Ph10	B-Ph11	B-Ph12	B-Ph13	B-Ph14	B-Ph15	B-Ph16	

Term	0.00000e+00	0.00000e+00	0.00000e+00	0.00000e+00	0.00000e+00	0.00000e+00	0.00000e+00	0.00000e+00	0.00000e+00	0.00000e+00	0.00000e+00	0.00000e+00	0.00000e+00	0.00000e+00	0.00000e+00	0.00000e+00	0.00000e+00	0.00000e+00	0.00000e+00	0.00000e+00	0.00000e+00	0.00000e+00	0.00000e+00	0.00000e+00	0.00000e+00	0.00000e+00	0.00000e+00	0.00000e+00	0.00000e+00	0.00000e+00	0.00000e+00	0.00000e+00	-5.53345e+01	-1.27015e+02	-1.27340e+02	-1.81716e+02	-4.47746e+01	-6.81240e+01	-1.57128e+02	-1.62015e+02	-4.21788e+01	-6.97516e+01	-1.72142e+02	-1.70362e+02	-1.80059e+02	-1.77178e+02	-5.13089e+01	-1.50265e+02	
Factor	1.80857e-05	1.60277e-04	4.48908e-05	1.58796e-01	1.75125e-06	1.97752e-06	1.70809e-01	6.08193e-02	1.37557e-06	1.84322e-06	8.34618e-02	2.77414e-02	2.97006e-02	8.95166e-03	1.69608e-06	1.25925e-02	1.30705e-05	2.57931e-05	7.13724e-06	8.02894e-02	2.50439e-07	2.91465e-07	8.12663e-02	3.08636e-02	2.52611e-07	2.90207e-07	4.12275e-02	1.37531e-02	1.53383e-02	4.59568e-03	2.66348e-07	6.24348e-03	X	X	X	X	X	X	X	X	X	X	X	X	X	X	X	X	



#DISTANCE SETTINGS
A = Detector Channel
A-1	A-2	A-3	A-4	A-5	A-6	A-7	A-8	A-9	A-10	A-11	A-12	A-13	A-14	A-15	A-16	

2.5000e+00	3.0000e+00	2.5000e+00	3.0000e+00	2.0000e+00	3.0000e+00	1.5000e+00	3.0000e+00	3.0000e+00	3.0000e+00	3.0000e+00	3.0000e+00	3.0000e+00	3.0000e+00	1.5000e+00	3.0000e+00	

B = Detector Channel
B-1	B-2	B-3	B-4	B-5	B-6	B-7	B-8	B-9	B-10	B-11	B-12	B-13	B-14	B-15	B-16	

1.0000e+01	1.0000e+01	1.0000e+01	1.4400e+00	1.0000e+01	1.0000e+01	1.5100e+00	1.9400e+00	1.0000e+01	1.0000e+01	1.9900e+00	2.4900e+00	2.4100e+00	2.9000e+00	1.0000e+01	2.9800e+00	




#DATA BEGINS
time	group	step	mark	flag	A-AC1	A-AC2	A-AC3	A-AC4	A-AC5	A-AC6	A-AC7	A-AC8	A-AC9	A-AC10	A-AC11	A-AC12	A-AC13	A-AC14	A-AC15	A-AC16	A-DC1	A-DC2	A-DC3	A-DC4	A-DC5	A-DC6	A-DC7	A-DC8	A-DC9	A-DC10	A-DC11	A-DC12	A-DC13	A-DC14	A-DC15	A-DC16	A-Ph1	A-Ph2	A-Ph3	A-Ph4	A-Ph5	A-Ph6	A-Ph7	A-Ph8	A-Ph9	A-Ph10	A-Ph11	A-Ph12	A-Ph13	A-Ph14	A-Ph15	A-Ph16	B-AC1	B-AC2	B-AC3	B-AC4	B-AC5	B-AC6	B-AC7	B-AC8	B-AC9	B-AC10	B-AC11	B-AC12	B-AC13	B-AC14	B-AC15	B-AC16	B-DC1	B-DC2	B-DC3	B-DC4	B-DC5	B-DC6	B-DC7	B-DC8	B-DC9	B-DC10	B-DC11	B-DC12	B-DC13	B-DC14	B-DC15	B-DC16	B-Ph1	B-Ph2	B-Ph3	B-Ph4	B-Ph5	B-Ph6	B-Ph7	B-Ph8	B-Ph9	B-Ph10	B-Ph11	B-Ph12	B-Ph13	B-Ph14	B-Ph15	B-Ph16	aux-1	digaux	

772.464	1	1	0	256	0.06861	0.19627	0.073798	0.11159	0.2344	0.02235	0.16651	0.27414	0.061395	0.060605	0.19147	0.1447	0.34073	0.10805	0.29058	0.16789	-2.5292	-3.0125	-2.7292	-2.9896	-2.65	-2.6208	-3.55	-2.9313	-2.8354	-3.0833	-2.7667	-3.0083	-3.0875	-2.9125	-3.2083	-2.6937	70.842	6.523	-116.499	153.870	173.774	201.608	129.376	73.463	78.280	59.877	12.599	219.817	-37.371	52.086	116.506	42.496	0.00022856	0.00054043	0.00015612	1309.3	3.3515e-06	5.1957e-06	1382	276.61	1.9374e-06	4.0925e-06	340.74	95.93	76.62	22.258	9.8327e-07	31.026	0.00088762	0.001493	0.00042395	1292.5	1.5311e-05	1.694e-05	1364.6	276.46	1.5058e-05	1.6738e-05	341.38	96.932	77.134	22.647	1.5313e-05	31.592	-77.132	-30.558	-55.350	-128.377	-133.107	39.518	-128.137	-121.315	38.227	-2.474	-121.593	-114.967	-114.563	-108.023	-35.050	-108.508	-8191	255	
772.585	1	1	0	0	0.13091	0.13844	0.13002	0.14721	0.1387	0.22011	0.26611	0.22207	0.3509	0.1251	0.21434	0.10889	0.29011	0.12809	0.20062	0.15837	-2.3583	-2.975	-2.9167	-3.3271	-3.0292	-2.5271	-3.2229	-3.1688	-2.8125	-3.2958	-2.6625	-2.8521	-3.0646	-2.8292	-3.0958	-2.7771	-107.189	-10.705	-92.455	152.369	-15.488	73.656	135.767	169.477	50.590	20.601	109.971	217.486	190.451	179.124	158.038	111.120	0.00021971	0.00029504	0.00012351	1317.2	3.3366e-06	7.0885e-06	1379	278.42	2.3881e-06	5.9978e-06	342.01	95.798	75.578	22.232	3.4405e-06	31.039	0.00089762	0.001488	0.00040666	1296.7	1.4833e-05	1.7029e-05	1363.8	277.14	1.5018e-05	1.6718e-05	342.29	96.937	76.794	22.685	1.5571e-05	31.717	-81.729	-39.245	-4.817	-128.286	-27.096	-6.159	-128.208	-121.434	-6.526	-1.893	-121.605	-115.142	-115.305	-108.223	24.892	-108.302	-8191	255	
772.656	1	1	0	0	0.072232	0.23535	0.20255	0.063635	0.25291	0.35717	0.21924	0.047606	0.13906	0.19179	0.14963	0.14538	0.20901	0.17113	0.18509	0.15654	-2.3688	-3.0917	-2.8625	-3.0771	-2.8312	-2.5563	-3.0875	-2.9938	-3.0458	-3.2646	-2.8729	-2.6625	-3.1125	-2.7542	-3.1312	-2.8708	63.197	-8.472	-45.980	136.982	-87.987	188.315	189.992	148.719	79.246	49.048	-133.774	195.341	174.879	-137.150	-112.498	134.679	0.00021611	0.0002369	5.6944e-05	1311	6.6042e-06	5.186e-06	1380.6	278.49	2.314e-06	1.1413e-06	344.05	96.272	75.712	22.256	2.2704e-06	30.971	0.00088177	0.0014808	0.00041151	1294.8	1.4867e-05	1.6444e-05	1364.6	277.57	1.4914e-05	1.6278e-05	342.6	97.208	76.794	22.711	1.4979e-05	31.592	-80.801	-75.421	-4.599	-128.154	-7.705	-5.237	-128.330	-121.487	-16.372	39.736	-121.310	-115.070	-114.619	-107.771	-6.048	-108.185	-8191	255	
772.777	1	1	0	0	0.18576	0.12301	0.21453	0.15678	0.17752	0.07004	0.23846	0.090223	0.068552	0.31836	0.1486	0.28436	0.06079	0.10703	0.24446	0.048198	-2.2542	-2.9875	-2.7625	-2.9167	-2.9208	-2.6854	-3	-3.0438	-2.8229	-3.1646	-2.9188	-2.9771	-3.0521	-2.6104	-3.2479	-3.2292	212.964	138.540	-13.935	215.382	-91.417	-72.259	116.279	-124.443	173.992	172.402	195.578	117.628	126.821	40.277	53.542	-139.392	0.00017419	0.00018955	4.6157e-05	1313.5	1.3061e-06	7.4374e-06	1382.3	277.8	2.9575e-06	4.8572e-06	342.84	95.958	76.351	22.36	4.3366e-06	31.005	0.00088158	0.0014522	0.00040647	1294.7	1.4888e-05	1.6573e-05	1363.5	276.85	1.4846e-05	1.6336e-05	342.01	97.084	76.971	22.703	1.5023e-05	31.631	-82.450	-95.341	4.184	-128.233	54.353	47.982	-128.130	-121.652	11.028	24.400	-121.558	-115.089	-114.728	-108.105	19.951	-108.382	-8191	255	
772.873	1	1	0	0	0.040106	0.20794	0.30745	0.07371	0.17342	0.0097015	0.39873	0.054703	0.1162	0.23402	0.28402	0.15757	0.10245	0.27063	0.076098	0.081543	-2.2729	-3.2417	-2.7812	-2.9979	-2.9021	-2.9646	-3.3688	-3.1896	-2.8333	-3.1104	-2.7792	-2.7812	-3.2083	-2.8438	-2.7917	-2.8396	-1.217	195.597	-112.506	-105.960	-118.662	135.703	136.577	137.761	207.781	29.076	193.383	-138.208	146.317	-85.158	-26.337	-34.028	0.00017241	0.00028125	8.2542e-05	1312.2	2.1481e-06	3.0625e-06	1378.8	277.14	3.5773e-06	4.0641e-06	340.47	95.355	76.146	22.166	2.2739e-06	30.902	0.00086325	0.0014446	0.0004058	1292.2	1.4783e-05	1.6167e-05	1362.7	276.23	1.4737e-05	1.595e-05	341.2	96.776	76.708	22.574	1.4504e-05	31.45	-86.575	-37.764	-21.655	-128.410	34.888	-5.746	-128.206	-121.397	16.973	-10.346	-121.302	-114.982	-114.703	-108.087	33.585	-107.950	-8191	255	
772.967	1	1	0	0	0.14474	0.13705	0.19367	0.17148	0.23205	0.12636	0.48714	0.074936	0.17534	0.22146	0.18251	0.26989	0.12196	0.18262	0.23078	0.20839	-2.2458	-3.0771	-2.9396	-3.1042	-3.2125	-2.7771	-3.2042	-3.1958	-2.6813	-3.0583	-3.0708	-2.825	-3.2708	-2.8688	-3.0708	-3.3917	28.801	139.354	-13.978	-122.339	71.330	193.590	206.508	162.327	190.111	45.102	205.793	135.086	211.972	10.318	-131.770	131.291	0.00019112	0.00038123	7.3693e-05	1300	5.0745e-06	1.6802e-06	1363.8	275.66	2.7824e-06	6.5984e-06	340.27	94.762	74.684	22.021	3.8012e-06	30.706	0.00085252	0.0014062	0.00039197	1283	1.4102e-05	1.5341e-05	1349	274.31	1.3965e-05	1.5345e-05	338.21	96.024	75.882	22.378	1.385e-05	31.237	-78.958	-43.513	-3.777	-128.213	8.113	6.337	-128.141	-121.324	39.679	2.351	-121.501	-114.947	-114.592	-108.049	54.983	-108.132	-8191	255	
773.065	1	1	0	0	0.091536	0.018438	0.16542	0.13136	0.15248	0.14581	0.10379	0.093903	0.19699	0.18676	0.14772	0.065036	0.20143	0.25136	0.22114	0.2247	-2.4229	-2.8042	-2.9646	-2.8146	-3.1083	-2.7396	-2.9917	-3.2792	-2.7104	-3.2812	-3.1354	-2.7125	-3.1667	-2.7313	-2.8958	-3.1208	75.679	138.248	-41.702	35.845	24.116	126.198	138.167	143.859	-88.061	11.070	34.928	-108.530	146.977	201.476	200.511	170.815	0.00020749	0.00051994	7.8396e-05	1285.8	2.7599e-06	2.569e-06	1358.4	273.54	3.0978e-06	6.57e-06	338.13	94.892	74.92	21.951	4.0078e-06	30.505	0.00081707	0.0013199	0.00036575	1267.9	1.3127e-05	1.4516e-05	1337.5	272.29	1.2758e-05	1.4411e-05	336.83	95.636	75.722	22.356	1.354e-05	31.204	-84.467	-39.998	-40.458	-128.310	-2.901	22.609	-127.923	-121.379	-3.010	12.980	-121.585	-115.259	-114.770	-107.919	18.391	-108.264	-8191	255	
773.184	1	1	0	0	0.092461	0.10154	0.10562	0.29668	0.33991	0.064101	0.12469	0.21449	0.054969	0.13245	0.16235	0.16463	0.079147	0.15667	0.044534	0.13423	-2.3708	-2.9958	-3.1229	-2.8771	-3.0708	-2.875	-2.7667	-3.1792	-2.7417	-2.9562	-3.0479	-2.8771	-3.225	-2.8312	-2.8396	-3.0104	-24.952	5.607	172.231	203.332	-117.066	94.802	149.765	145.128	80.237	178.291	79.327	-85.953	212.384	170.071	-11.412	124.710	0.00022993	0.00027139	0.00017365	1275.7	8.9713e-07	5.7995e-06	1337.7	272.8	2.0045e-06	3.6684e-06	335.89	94.68	74.644	21.93	3.1865e-06	30.301	0.00078968	0.0012457	0.0003491	1257.9	1.2834e-05	1.4424e-05	1324.8	271.17	1.3044e-05	1.3626e-05	334.45	95.341	75.35	22.276	1.2717e-05	31.04	-79.359	-12.689	-12.059	-128.240	18.679	-12.870	-127.924	-121.115	45.161	-5.731	-121.407	-114.893	-114.682	-107.531	-4.447	-108.021	-8191	255	
773.256	1	1	0	0	0.18748	0.088682	0.25606	0.23418	0.26896	0.25562	0.41631	0.18061	0.037132	0.075536	0.12913	0.38059	0.028526	0.073206	0.19037	0.12549	-2.1271	-2.9854	-3.1854	-2.8854	-3.1562	-2.8729	-2.8917	-3.1104	-2.5979	-2.7938	-3.1396	-2.6396	-2.9708	-3.0958	-3.0417	-3.3271	-62.664	-87.937	-100.646	210.866	-100.636	-114.145	101.756	94.467	-1.782	77.002	113.526	140.248	111.890	-31.798	-60.222	191.815	0.00022007	0.00016134	5.4523e-05	1270.8	5.3266e-06	4.456e-06	1329.6	269.65	3.458e-06	5.2178e-06	332.36	94.259	74.509	21.886	3.7242e-06	30.625	0.00076068	0.0012153	0.00033567	1247.4	1.24e-05	1.3686e-05	1312.5	268.82	1.199e-05	1.3271e-05	332.2	95.15	75.167	22.256	1.2462e-05	31.113	-82.672	-30.633	-46.707	-128.210	-25.938	-4.801	-128.218	-121.071	6.281	4.043	-121.373	-114.896	-114.550	-108.351	-4.435	-108.146	-8191	255	
773.352	1	1	0	0	0.19068	0.061768	0.094075	0.12138	0.051733	0.12292	0.060889	0.10038	0.18644	0.16277	0.38456	0.081299	0.18299	0.18842	0.099307	0.17627	-2.6667	-2.8167	-3.0542	-2.7521	-3.0125	-3.0146	-2.8	-3.225	-3.0146	-2.8083	-3.1396	-2.6625	-2.925	-3.0167	-2.7417	-3.3312	-61.739	201.806	-111.372	144.728	129.953	187.081	189.155	187.978	101.882	143.007	163.894	118.989	42.298	-38.007	203.238	179.792	0.00016422	0.0005627	8.8459e-05	1257.7	2.0124e-06	4.2276e-06	1322.3	268.74	2.6353e-06	3.8111e-06	333.67	94.28	74.263	22.066	2.0566e-06	30.561	0.00072604	0.001144	0.00032632	1238.9	1.1721e-05	1.2879e-05	1305	268.23	1.1734e-05	1.2895e-05	331.63	95.193	75.213	22.277	1.1875e-05	31.026	-84.835	-28.974	-38.551	-128.130	-26.224	3.876	-127.993	-121.138	-40.840	32.293	-121.460	-114.896	-114.323	-108.171	13.531	-108.339	-8191	255	
773.448	1	1	0	0	0.22543	0.22879	0.019693	0.075464	0.15073	0.12832	0.051095	0.41635	0.11992	0.15731	0.038004	0.14155	0.16508	0.068282	0.10929	0.25712	-2.4354	-2.6479	-3.2042	-2.9833	-3.1167	-3.0021	-2.8688	-3.0438	-2.6813	-2.8604	-3.3729	-2.7125	-2.9229	-3.0354	-2.6312	-3.0104	158.940	101.301	212.884	152.081	-102.171	-57.018	128.564	146.990	68.886	-73.538	17.478	-12.180	196.380	202.121	121.649	155.388	0.00020029	0.00036419	7.2683e-05	1248.6	4.7038e-06	3.5867e-06	1316.7	269.43	2.1416e-06	4.4872e-06	334.39	94.095	74.206	22.023	4.1099e-06	30.704	0.00069576	0.0011289	0.00030464	1230.2	1.1406e-05	1.2294e-05	1300.6	268.18	1.1609e-05	1.2518e-05	331.63	94.978	74.84	22.247	1.2002e-05	31.127	-86.762	-63.679	-58.080	-128.161	0.279	44.972	-128.056	-121.094	48.745	0.424	-121.297	-115.153	-114.342	-108.057	22.579	-108.766	-8191	255	
773.569	1	1	0	0	0.14301	0.18562	0.19603	0.20231	0.21852	0.013999	0.15604	0.27226	0.19062	0.11146	0.11513	0.13071	0.35923	0.16057	0.10743	0.014604	-2.6417	-2.6542	-3.0417	-2.9188	-2.9521	-3.0042	-2.7687	-3.2292	-2.9729	-2.7917	-3.2771	-3.1333	-2.95	-3.0417	-2.8292	-2.9479	-37.239	209.970	190.694	190.903	-131.154	-7.888	-57.259	-64.176	-129.228	131.634	-98.443	-22.858	-80.665	-102.978	-131.818	-23.410	0.00017252	0.00020744	5.2969e-05	1247.8	2.5735e-06	4.1287e-06	1313.9	268.85	4.4933e-06	1.6969e-06	331.29	93.989	74.52	21.993	2.8421e-06	30.778	0.00071588	0.0010993	0.00030806	1226.7	1.1436e-05	1.2536e-05	1298.5	267.7	1.1684e-05	1.2247e-05	331.05	95.004	75.21	22.259	1.1537e-05	31.167	-78.020	-60.053	-41.315	-128.000	39.556	59.602	-128.005	-121.369	10.425	23.872	-121.369	-115.199	-114.563	-108.049	40.827	-108.203	-8191	255	
773.665	1	1	0	0	0.26506	0.13033	0.2715	0.21415	0.19269	0.035831	0.19303	0.053259	0.17344	0.086643	0.082033	0.078324	0.12539	0.23893	0.028311	0.27916	-2.4979	-2.6083	-3.1604	-3.0042	-2.7521	-2.9437	-2.9708	-2.9958	-2.95	-2.7125	-3.1542	-3.1271	-2.8208	-3.0833	-2.7208	-3.1354	157.239	212.375	160.408	207.242	98.575	87.385	171.071	143.577	7.403	-5.701	-67.709	-59.896	-119.414	111.858	189.184	172.770	0.00022131	0.00040509	3.9403e-05	1244.6	2.5675e-06	5.9111e-06	1313.2	269.12	2.9239e-06	4.4389e-06	334.54	94.225	74.973	22.098	4.5645e-06	30.8	0.0006953	0.0010828	0.00029739	1226	1.1229e-05	1.2025e-05	1296.2	267.58	1.1452e-05	1.2267e-05	331.96	95.273	75.312	22.4	1.1464e-05	31.215	-90.180	-72.050	-76.247	-128.409	-20.839	-14.502	-128.113	-121.158	28.266	2.857	-121.351	-115.211	-114.174	-108.067	39.243	-108.225	-8191	255	
773.761	1	1	0	0	0.16693	0.15278	0.10184	0.08448	0.17434	0.2157	0.37709	0.12907	0.15829	0.077003	0.090861	0.155	0.093089	0.32808	0.22427	0.097902	-2.2875	-2.5333	-3.0542	-3.0021	-2.7521	-3.0917	-3.0625	-2.9604	-3.1167	-2.5458	-3.2625	-3.0521	-2.6854	-3.0062	-2.6417	-3.0333	139.916	-114.722	106.184	-122.904	75.619	33.621	131.455	215.733	-128.801	126.073	136.297	81.466	-62.113	216.080	69.742	123.098	0.00017984	0.00010783	8.6056e-05	1247.6	3.706e-06	4.1731e-06	1312.3	269.12	1.2625e-06	3.4377e-06	332.43	94.61	74.248	22.124	2.4645e-06	30.846	0.00068566	0.0011022	0.00029389	1227	1.145e-05	1.1857e-05	1296.8	267.78	1.1105e-05	1.2006e-05	331.42	95.53	75.33	22.461	1.1116e-05	31.298	-86.124	-65.882	-65.492	-128.177	-9.673	-8.359	-127.974	-121.166	-0.657	23.079	-121.229	-115.054	-114.297	-108.009	16.179	-108.175	-8191	255	
773.857	1	1	0	0	0.07601	0.095186	0.031325	0.21403	0.1888	0.1633	0.26634	0.26447	0.16026	0.16478	0.17072	0.18601	0.15019	0.058609	0.21027	0.26105	-2.8583	-2.6417	-2.8229	-2.9625	-2.7479	-3.1833	-2.9604	-2.7771	-3.0417	-2.8	-3.0646	-3.1083	-2.775	-3.1583	-2.8667	-2.7083	-27.327	-121.929	22.133	-126.604	112.524	15.958	185.007	-119.329	75.324	28.817	70.357	110.438	-74.840	35.835	35.676	127.767	0.0001903	0.00038486	0.0001171	1240	3.0726e-06	3.2629e-06	1308.2	268.14	4.1247e-06	5.8256e-06	330.53	95.067	75.049	22.05	5.1957e-06	30.906	0.00067512	0.001068	0.0002926	1223.1	1.1001e-05	1.1908e-05	1292.8	267.02	1.1083e-05	1.1649e-05	330.8	95.757	75.677	22.414	1.0979e-05	31.334	-81.354	-53.355	-23.885	-128.295	10.036	14.970	-128.118	-121.128	13.083	19.148	-121.189	-114.662	-114.421	-108.265	-4.575	-108.145	-8191	255	
773.953	1	1	0	0	0.30383	0.16888	0.25567	0.19077	0.1762	0.21686	0.421	0.35557	0.18053	0.023533	0.10893	0.11419	0.30454	0.16616	0.21284	0.13517	-2.725	-2.8792	-2.7438	-3.0833	-2.7667	-3.2229	-2.8438	-2.6021	-2.9021	-2.9083	-2.775	-2.8438	-2.7062	-3.0438	-2.7417	-2.8688	-56.165	47.427	-134.929	-123.286	208.212	122.347	149.387	169.843	-75.799	178.648	194.538	56.135	206.067	125.539	220.194	133.410	0.00021465	0.00032105	6.6714e-05	1246.2	2.4761e-06	5.1229e-06	1309.3	267.72	2.0274e-06	4.2858e-06	333.45	94.196	75.19	22.31	3.5245e-06	30.905	0.00066134	0.0010313	0.00028641	1223.6	1.0705e-05	1.1416e-05	1292.9	267.36	1.0565e-05	1.1492e-05	331.37	95.452	75.512	22.5	1.0909e-05	31.42	-81.812	-52.529	-45.410	-128.124	24.664	30.110	-127.813	-121.409	25.554	-2.304	-121.578	-114.916	-114.451	-108.279	33.163	-108.580	-8191	255	
774.048	1	1	0	0	0.077724	0.3559	0.16258	0.26097	0.094019	0.34145	0.033439	0.19876	0.13233	0.26915	0.31085	0.042081	0.12412	0.21052	0.027685	0.23141	-2.5938	-2.6979	-2.7875	-3.2854	-2.8	-3.2313	-3.1229	-2.7833	-2.9854	-2.8875	-2.9667	-3.1	-2.6458	-3.1625	-3.0187	-2.6875	-49.187	-62.084	160.982	-131.207	-97.077	125.790	34.496	48.643	2.738	207.481	-5.454	-89.550	-84.033	94.268	177.158	201.546	0.00020402	0.00031007	0.00012349	1242.3	1.6407e-06	8.7783e-07	1310.1	267.28	2.7088e-06	6.4458e-06	331.83	94.24	74.972	22.227	1.3624e-06	30.736	0.00063983	0.001043	0.00029234	1221.3	1.0792e-05	1.127e-05	1294	266.71	1.0217e-05	1.1452e-05	329.91	95.493	75.526	22.493	1.1105e-05	31.324	-85.003	-24.918	-89.138	-128.155	28.427	-32.791	-127.936	-121.161	-7.082	-23.105	-121.371	-114.650	-114.843	-108.090	17.905	-108.221	-8191	255	
774.146	1	1	0	0	0.27725	0.23469	0.040049	0.29169	0.15801	0.20956	0.22228	0.13652	0.15332	0.1611	0.16946	0.071508	0.1642	0.18121	0.19817	0.26246	-2.6521	-2.8167	-2.8833	-3.1646	-2.4813	-2.7583	-3.3563	-2.8375	-3.1458	-2.7729	-3.0479	-3.3	-2.7479	-3.1479	-3.2229	-2.8542	185.987	-45.810	22.699	187.129	132.335	114.018	124.933	-69.008	185.626	210.027	-1.469	124.464	78.649	151.038	-80.624	170.341	0.00019601	0.0003048	0.00012189	1240.5	2.6641e-06	4.5506e-06	1311.6	268.94	3.09e-06	4.261e-06	331.04	94.847	74.823	22.084	3.0782e-06	30.717	0.00064721	0.0010441	0.00029285	1221.3	1.0637e-05	1.1476e-05	1294.9	267.18	1.057e-05	1.1461e-05	330.12	95.587	75.447	22.42	1.0959e-05	31.309	-86.747	-7.571	-59.805	-128.109	37.747	4.664	-127.898	-121.206	23.900	-1.526	-121.519	-115.063	-114.855	-107.998	29.117	-108.332	-8191	255	
774.265	1	1	0	0	0.23637	0.20911	0.12695	0.31084	0.29502	0.13236	0.19705	0.14063	0.24075	0.038331	0.13425	0.16397	0.24974	0.060257	0.18855	0.20527	-2.6437	-2.8312	-2.7188	-3.1667	-2.7125	-3.0521	-3.1271	-2.7042	-3.1562	-2.7562	-2.7896	-3.3479	-2.8937	-2.8771	-2.9542	-2.8271	-83.358	-57.176	137.512	-119.274	10.912	176.219	151.422	-8.457	-22.002	-86.353	188.521	160.471	218.786	98.651	76.253	155.072	0.00018661	0.00030439	0.00012246	1241.9	3.4703e-06	2.5223e-06	1317.7	267.21	2.3747e-06	3.3331e-06	330.73	94.541	74.318	22.172	2.3564e-06	30.744	0.00065426	0.0010123	0.00028753	1223.6	1.0837e-05	1.1467e-05	1297.2	266.17	1.0416e-05	1.1663e-05	329.78	95.436	75.276	22.469	1.0926e-05	31.162	-76.595	-49.396	-38.187	-128.030	2.734	21.925	-128.015	-121.543	43.642	31.119	-121.238	-114.936	-114.484	-108.229	-15.950	-108.304	-8191	255	
774.361	1	1	0	0	0.12614	0.17764	0.15083	0.078873	0.27269	0.19912	0.2007	0.075181	0.012088	0.20955	0.14774	0.087587	0.33473	0.14589	0.05676	0.12964	-2.7771	-2.7604	-2.6979	-3.3125	-2.9729	-2.8667	-3.2938	-2.7542	-2.8375	-2.9875	-2.8146	-3.1	-2.8458	-2.8333	-3.1625	-2.6917	207.869	-26.333	154.274	29.923	54.667	-6.663	47.195	27.077	-91.319	150.845	-130.627	88.764	165.757	-63.968	-27.542	161.440	0.00018747	0.00015516	0.00013871	1239.4	6.3052e-06	3.1614e-06	1309.5	265.71	5.7289e-06	6.7458e-06	330.51	94.576	74.105	21.926	2.6563e-06	30.766	0.00066238	0.0010309	0.00028989	1219.8	1.0742e-05	1.1803e-05	1293.2	265.68	1.0394e-05	1.1593e-05	329.5	95.169	75.037	22.343	1.0845e-05	31.254	-82.359	-9.480	-57.387	-128.277	10.580	20.950	-128.187	-121.127	30.353	18.797	-121.220	-114.848	-114.631	-107.777	5.484	-108.375	-8191	255	
774.457	1	1	0	0	0.11412	0.13968	0.19669	0.060519	0.20195	0.10459	0.082888	0.1907	0.097926	0.20284	0.18542	0.093045	0.26346	0.12941	0.094024	0.14809	-2.5583	-3.0271	-2.6125	-2.9646	-2.8083	-2.7792	-3.4146	-2.9417	-2.8042	-3.0229	-2.9021	-3.2313	-2.9417	-2.7854	-3.0417	-2.8958	113.957	127.258	1.355	194.887	65.380	-71.164	154.438	-113.634	218.794	139.379	178.409	186.356	164.433	193.682	144.218	159.881	0.00018773	0.0002499	7.1449e-05	1239	3.51e-06	1.398e-06	1310.4	268.48	1.7609e-06	2.0821e-06	329.76	94.872	74.36	22.05	3.6049e-06	30.714	0.00063956	0.0010313	0.00028939	1219.9	1.0606e-05	1.1206e-05	1293.9	266.01	1.0565e-05	1.134e-05	329.45	95.294	75.071	22.333	1.0687e-05	31.143	-82.835	-113.070	-16.183	-128.053	-8.813	33.284	-127.946	-121.363	27.474	-19.527	-121.511	-115.008	-114.718	-108.047	33.575	-108.367	-8191	255	
774.553	1	1	0	0	0.090031	0.12617	0.1486	0.24727	0.11753	0.10192	0.13375	0.20101	0.25891	0.24876	0.11772	0.31399	0.21396	0.15486	0.070769	0.069939	-2.6479	-3.1625	-2.8729	-3.2375	-2.9646	-2.6479	-3.2542	-2.9938	-3.05	-3.1208	-2.7438	-2.8583	-3.0104	-2.6917	-3.1646	-2.8979	38.615	163.249	-132.736	172.004	-85.572	88.252	1.283	165.528	183.835	111.098	184.469	-108.190	149.506	-102.649	40.834	71.605	0.00019537	0.00034449	8.2613e-05	1241.5	3.4776e-06	3.827e-06	1315.2	266.77	3.8044e-06	1.1545e-06	331.31	94.138	74.587	22.034	1.2346e-06	30.707	0.00064724	0.001032	0.00027697	1219.8	1.0564e-05	1.153e-05	1294.3	265.34	1.0583e-05	1.1501e-05	329.77	95.016	75.101	22.348	1.0602e-05	31.179	-79.591	-35.635	-41.306	-128.198	-5.733	41.888	-128.033	-121.087	7.283	-43.847	-121.240	-115.011	-114.351	-107.857	-35.045	-108.203	-8191	255	
774.649	1	1	0	0	0.16797	0.16635	0.38197	0.1897	0.18709	0.13664	0.23147	0.074318	0.21289	0.2123	0.34408	0.26329	0.2544	0.24551	0.0035199	0.20692	-2.3792	-3.1583	-2.5604	-3.3292	-3.0167	-2.6917	-3.1521	-2.7708	-2.8417	-3.1813	-2.8896	-3.1625	-3.0729	-2.7313	-2.9542	-2.9375	219.841	-18.263	-4.268	157.816	41.684	152.239	-123.880	-65.209	-118.227	12.207	197.070	120.378	162.058	-37.061	196.603	105.530	0.00021471	0.00024641	4.4222e-05	1240.1	2.9298e-06	5.614e-06	1302.4	267.51	3.0611e-06	2.5475e-06	330.33	94.488	74.782	22.212	5.2526e-06	30.544	0.00064538	0.0010159	0.00028644	1221.6	1.0505e-05	1.1473e-05	1292.3	265.54	1.0524e-05	1.1273e-05	329.85	95.261	75.419	22.459	1.0615e-05	31.221	-90.480	-84.624	-73.188	-128.359	-19.532	11.567	-128.021	-121.098	-14.934	16.738	-121.472	-115.051	-114.609	-107.737	42.637	-108.231	-8191	255	
774.745	1	1	0	0	0.26778	0.10982	0.069087	0.36362	0.33723	0.16446	0.17966	0.24732	0.081535	0.1538	0.082866	0.27072	0.24618	0.20293	0.082299	0.27091	-2.3396	-2.9917	-2.6562	-3.0875	-2.9083	-2.6333	-3.2833	-2.9333	-2.8187	-3.2313	-2.8917	-3.0687	-3.2354	-2.7979	-3.0292	-2.9708	-95.618	117.373	201.538	174.673	202.589	148.397	151.666	200.160	189.516	12.793	-113.274	-105.979	-124.608	-86.396	-60.583	132.489	0.00020924	0.00030501	0.00010099	1240.2	2.6545e-06	4.1824e-06	1312.3	268.63	2.226e-06	4.893e-06	331.18	94.844	74.555	22.215	4.1485e-06	30.96	0.00065587	0.0010085	0.00027808	1223.2	1.0415e-05	1.1371e-05	1294	266.34	1.0383e-05	1.1446e-05	329.93	95.706	75.388	22.495	1.0892e-05	31.311	-79.856	-25.557	-47.468	-128.140	41.668	45.206	-128.046	-121.129	65.166	19.219	-121.396	-115.135	-114.434	-108.017	52.149	-108.723	-8191	255	
774.866	1	1	0	0	0.24492	0.22815	0.051886	0.23468	0.19481	0.024939	0.19929	0.17996	0.26341	0.26801	0.10193	0.25284	0.14445	0.10045	0.28256	0.34318	-2.3917	-3.2188	-2.7583	-3.0083	-3.1021	-2.7021	-3.2	-3.1146	-2.5354	-2.9229	-2.9625	-3.0125	-3.1354	-2.4437	-3.0396	-3.0687	205.470	113.618	92.515	-118.210	-110.776	-23.798	154.692	126.120	-58.204	119.899	-81.543	-133.754	-60.376	137.848	-19.359	120.216	0.00018246	0.00030155	0.00012557	1237.6	8.6157e-07	2.7215e-06	1312.1	267.99	1.1077e-06	4.666e-06	330.02	94.431	74.78	22.045	3.1106e-06	30.75	0.00065573	0.0010117	0.00029193	1222.4	1.0552e-05	1.1443e-05	1294.5	266.6	1.0559e-05	1.1369e-05	329.83	95.427	75.565	22.468	1.0731e-05	31.242	-84.183	-57.975	-51.863	-127.936	71.760	35.822	-128.096	-121.178	25.581	28.025	-121.488	-115.017	-114.342	-107.920	31.597	-108.441	-8191	255	
774.960	1	1	0	0	0.14139	0.10421	0.035614	0.28043	0.081459	0.18899	0.25852	0.20899	0.21798	0.06335	0.319	0.12497	0.2191	0.19083	0.049315	0.26949	-2.0792	-3.0333	-2.7146	-3.0396	-3.1667	-2.6271	-3.1333	-3.1021	-2.8146	-3.0417	-2.8792	-2.7354	-3.1708	-2.8563	-2.8708	-3.3542	-103.119	-9.491	202.011	220.417	-85.156	45.312	127.453	178.293	119.032	213.273	-100.161	196.353	-127.830	110.953	-59.010	44.188	0.00024238	0.00030757	0.00012782	1243	3.0284e-06	3.7643e-06	1312.3	268.21	1.9169e-06	2.0784e-06	332.15	94.897	74.928	22.116	3.4997e-06	30.744	0.0006688	0.0010378	0.00029187	1223.2	1.0914e-05	1.1688e-05	1295.1	266.37	1.033e-05	1.1353e-05	329.98	95.389	75.558	22.405	1.0775e-05	31.289	-82.259	-45.870	-43.408	-128.158	-14.571	8.484	-127.986	-121.148	24.188	13.729	-121.350	-115.103	-114.378	-108.004	33.347	-108.389	-8191	255	
775.057	1	1	0	0	0.26417	0.14123	0.19616	0.26358	0.10728	0.34146	0.18817	0.27873	0.05353	0.12073	0.17069	0.13568	0.21483	0.17526	0.2118	0.048283	-2.2208	-3.0333	-3.1063	-2.6958	-3.0312	-2.9437	-3.1042	-3.1188	-2.9104	-3.0833	-3.2583	-2.6917	-3.0979	-2.9729	-2.8771	-3.0354	-133.342	-81.914	20.895	140.720	54.204	-49.584	193.321	-114.108	49.379	96.684	71.147	16.963	-133.941	187.804	2.773	-16.900	0.00017667	0.00033787	0.00012854	1241.5	2.5163e-06	5.1137e-06	1318.9	266.33	3.4798e-06	3.4821e-06	329.38	94.291	74.449	21.843	1.9336e-06	30.594	0.00064301	0.0010234	0.00028942	1223.6	1.0754e-05	1.1725e-05	1296.7	265.6	1.0906e-05	1.1676e-05	328.99	95.156	74.89	22.296	1.1025e-05	31.147	-83.601	-15.112	-69.422	-128.091	36.218	4.983	-127.912	-121.145	-15.744	9.419	-121.305	-114.784	-114.474	-108.176	52.234	-108.383	-8191	255	
775.128	1	1	0	0	0.22337	0.20972	0.17511	0.42546	0.21875	0.29499	0.071522	0.19062	0.19083	0.16925	0.11355	0.22713	0.20718	0.18495	0.11771	0.24247	-2.2375	-3.0979	-2.9979	-2.9146	-3.1542	-2.8063	-2.9333	-3.1	-2.8	-2.9375	-2.9792	-2.8688	-3.3125	-2.8438	-2.6208	-3.2	213.257	-68.979	20.373	180.676	-138.309	129.245	81.523	-113.936	175.567	80.874	15.461	-113.833	80.823	-7.707	78.163	-38.330	0.00019967	0.00034638	9.148e-05	1241.6	3.3311e-06	1.1177e-06	1314.5	266.21	2.5482e-06	6.274e-06	329.46	94.767	74.614	21.905	4.6622e-06	30.68	0.00067441	0.0010333	0.00028961	1222.2	1.0815e-05	1.2039e-05	1295.2	265.3	1.0572e-05	1.1557e-05	329.02	95.337	75.109	22.314	1.0763e-05	31.132	-87.337	-60.083	-28.499	-128.135	61.836	-33.471	-127.972	-121.238	-12.077	8.539	-121.245	-115.210	-114.478	-108.108	36.999	-108.506	-8191	255	
775.249	1	1	0	0	0.14619	0.053484	0.16739	0.47882	0.083996	0.11575	0.16191	0.067131	0.1319	0.20906	0.081632	0.26941	0.35518	0.40381	0.37121	0.34132	-2.1771	-2.9125	-2.9938	-2.8333	-2.9188	-2.8833	-2.9021	-3.1937	-2.7333	-2.6625	-3.1542	-2.7292	-3.1354	-2.9417	-2.4646	-3.0854	-14.100	88.837	115.875	-118.820	215.431	88.069	114.380	142.411	20.751	-47.450	162.998	169.192	181.799	174.781	214.674	-129.786	0.00020731	0.000476	8.7682e-05	1235.8	2.4315e-06	2.8851e-06	1307.4	263.61	1.5757e-06	2.6653e-06	327.22	92.507	73.172	21.609	3.129e-06	30.09	0.00066635	0.0010588	0.00028327	1217.1	1.0578e-05	1.1891e-05	1287.4	263.8	1.101e-05	1.1876e-05	326.04	93.856	73.954	21.911	1.152e-05	30.63	-87.126	-24.814	-28.962	-127.976	-8.756	19.027	-127.924	-121.175	42.657	10.645	-121.335	-114.789	-114.618	-108.151	34.681	-108.314	-8191	255	
775.345	1	1	0	0	0.27489	0.19682	0.11441	0.2398	0.03582	0.12632	0.28195	0.17503	0.16617	0.20698	0.16499	0.17785	0.28521	0.13197	0.2398	0.13513	-2.5	-2.8417	-3.0375	-2.9313	-2.9729	-2.8542	-2.9542	-3.2208	-2.8125	-2.7979	-3.3625	-2.6229	-2.8792	-2.9333	-2.6021	-3.0396	-6.204	-89.245	114.589	196.668	-104.790	-41.094	193.460	140.046	-7.094	216.557	105.109	182.178	203.143	132.662	-94.284	-96.128	0.00017974	0.00020992	5.1705e-05	1230.7	6.4911e-06	2.7422e-06	1305.9	264.27	2.2299e-06	4.683e-06	326.16	92.837	73.264	21.613	3.6614e-06	29.991	0.00068065	0.0010569	0.00029846	1212.2	1.0919e-05	1.2347e-05	1284.1	262.95	1.1217e-05	1.1643e-05	325.19	93.879	73.996	21.871	1.1389e-05	30.571	-81.629	-17.768	-22.976	-127.829	14.597	31.349	-127.945	-121.349	-73.032	26.268	-121.158	-114.670	-114.309	-107.959	-40.972	-107.770	-8191	255	
775.441	1	1	0	0	0.28295	0.18978	0.16002	0.29071	0.034048	0.17246	0.16579	0.17782	0.19462	0.11912	0.16248	0.096887	0.1037	0.17469	0.3769	0.10949	-2.3812	-2.75	-3.1104	-2.7521	-2.7833	-2.9917	-2.8521	-3.2062	-2.8312	-2.8354	-3.3146	-2.7771	-2.9854	-3.1521	-2.6792	-3.2625	172.702	-28.867	29.223	193.309	203.211	-34.318	55.031	202.194	-2.880	189.746	-133.676	139.566	-133.516	160.654	164.119	-126.340	0.00020395	0.00060235	8.7788e-05	1227.8	2.5086e-06	2.2016e-06	1292.8	264.13	3.9489e-06	4.2577e-07	326.33	92.865	72.685	21.537	4.439e-06	30.088	0.00067447	0.0010866	0.00029084	1205.2	1.0968e-05	1.1996e-05	1275.6	262.71	1.1172e-05	1.2114e-05	324.21	93.374	73.617	21.787	1.1373e-05	30.591	-86.395	-19.587	-38.193	-128.101	-12.772	-15.533	-128.025	-120.905	33.109	54.387	-121.357	-114.631	-114.241	-108.047	4.013	-107.878	-8191	255	
775.537	1	1	0	0	0.071388	0.26581	0.16592	0.22831	0.14302	0.2896	0.17401	0.31253	0.15549	0.07883	0.34891	0.30447	0.22194	0.16353	0.10473	0.19611	-2.5687	-2.7958	-3.0062	-2.8542	-3.0375	-3.2417	-3.0396	-3.2083	-2.9083	-2.7708	-3.275	-3.0375	-2.9833	-3.1583	-2.9021	-2.9292	64.285	14.163	42.608	181.227	87.085	-128.800	133.539	127.848	65.818	-38.609	87.547	157.516	-124.332	86.820	181.249	191.991	0.0001927	0.0002696	6.5633e-05	1220.4	2.0817e-06	3.5251e-06	1285.3	261.73	2.4116e-06	3.5646e-06	325.23	92.154	73.011	21.37	4.7778e-06	30.082	0.00068155	0.0010634	0.00029113	1200.6	1.1017e-05	1.1667e-05	1269.5	260.9	1.1015e-05	1.1865e-05	323.37	93.155	73.677	21.737	1.1144e-05	30.5	-84.269	-12.987	-42.911	-127.993	-53.101	26.981	-128.046	-120.766	4.075	48.073	-121.289	-114.783	-114.366	-107.505	18.662	-107.946	-8191	255	
775.658	1	1	0	0	0.11828	0.18485	0.23541	0.16606	0.05197	0.13791	0.19125	0.13113	0.081447	0.10229	0.29692	0.23594	0.112	0.26015	0.12778	0.061486	-2.5417	-2.8354	-2.9333	-2.9562	-2.9104	-3.0958	-3.0083	-3.1646	-3.0458	-2.7979	-3.1937	-2.8583	-2.8146	-3.1979	-2.7583	-3.2979	-134.949	153.251	29.587	-136.817	99.604	114.103	176.912	156.179	-78.536	70.494	-47.250	88.150	144.580	190.775	28.244	71.695	0.00019469	0.00028255	9.6318e-05	1221.4	3.5246e-06	2.2873e-06	1289.1	261.94	2.5694e-06	3.5029e-06	323.87	92.869	73.412	21.605	3.3716e-06	30.35	0.00069255	0.0010707	0.00029614	1200.9	1.1235e-05	1.2005e-05	1271.6	260.93	1.1545e-05	1.2179e-05	323.99	93.468	73.89	21.902	1.1735e-05	30.67	-82.303	-21.872	-69.449	-128.074	53.482	-12.563	-128.074	-121.044	-7.307	11.991	-121.067	-115.156	-114.244	-107.603	12.078	-108.459	-8191	255	
775.754	1	1	0	0	0.09575	0.02302	0.087273	0.16826	0.12881	0.15429	0.14665	0.23249	0.11744	0.14633	0.15189	0.33803	0.037331	0.10859	0.16916	0.20832	-2.5792	-2.8875	-3.15	-3.2188	-2.7583	-3.1562	-2.925	-3.1792	-2.9313	-2.7438	-3.1771	-3.0083	-2.7708	-3.2229	-2.9708	-3.0167	-107.633	129.449	100.094	162.528	10.558	161.410	-105.746	149.301	91.229	89.784	62.502	176.639	-123.164	186.688	-94.719	167.883	0.00020311	0.0003191	0.0001054	1234.3	1.8189e-06	3.7932e-06	1301.5	263.22	3.8476e-06	5.4768e-06	326.93	92.92	73.291	21.762	2.9697e-06	30.211	0.00069669	0.0011484	0.00032002	1213.4	1.2016e-05	1.2732e-05	1284.4	262.75	1.1916e-05	1.3443e-05	326.52	94.143	74.279	22.031	1.2778e-05	30.733	-84.263	-45.776	-58.519	-128.069	25.265	8.184	-128.087	-121.278	16.524	-11.140	-121.489	-115.449	-114.624	-108.027	13.627	-108.189	-8191	255	
775.826	1	1	0	0	0.25061	0.10912	0.16628	0.20007	0.25591	0.14599	0.13087	0.20188	0.12966	0.2157	0.12307	0.18008	0.38136	0.26327	0.16731	0.23457	-2.6521	-2.7896	-3.0271	-3.0729	-2.925	-3.1708	-2.9437	-2.8583	-2.9917	-2.5792	-3.1354	-3.0958	-2.4792	-3.2729	-2.9146	-2.7938	135.691	-129.091	-59.985	216.553	-70.522	69.689	160.099	-134.326	-110.885	156.506	43.062	-130.338	158.614	-117.699	-52.606	-118.292	0.00021033	0.00043722	0.00012348	1238.9	2.0807e-06	5.4825e-06	1312	264.44	2.386e-06	2.6618e-06	325.42	92.99	72.968	21.512	3.7678e-06	30.09	0.00074216	0.0012248	0.00031988	1220.4	1.2563e-05	1.3679e-05	1292.6	263.36	1.2554e-05	1.3931e-05	325.6	93.666	73.905	21.836	1.4105e-05	30.573	-80.647	-28.985	-82.051	-128.039	-24.570	8.375	-128.153	-121.234	-0.285	-9.157	-120.947	-114.809	-114.429	-107.647	48.717	-108.402	-8191	255	
775.946	1	1	0	0	0.136	0.11407	0.015746	0.13566	0.15439	0.094028	0.28663	0.090806	0.22058	0.087558	0.13722	0.22045	0.087822	0.13251	0.13777	0.23933	-2.8104	-2.7625	-2.7708	-3.2333	-2.7604	-2.9896	-3.1375	-2.9917	-3.0146	-2.9854	-2.9271	-3.0875	-2.775	-3.1437	-2.9042	-2.8542	207.876	214.721	-114.222	220.338	58.516	156.745	173.312	-88.572	161.275	131.834	33.569	-116.891	-124.328	-40.025	-7.460	145.431	0.0001688	0.00031347	7.4238e-05	1251.6	2.9194e-06	1.6158e-06	1329.4	265.73	2.4291e-06	5.8779e-06	329.82	92.681	74.069	21.64	3.9664e-06	30.287	0.00082064	0.0013775	0.00038929	1234.2	1.4454e-05	1.5553e-05	1308.2	264.57	1.4515e-05	1.6227e-05	329.4	94.049	74.895	22.04	1.5695e-05	30.837	-78.615	-39.412	-110.285	-128.127	-44.221	102.036	-128.395	-121.477	-33.030	39.719	-121.529	-114.955	-114.255	-107.962	29.570	-108.408	-8191	255	
776.041	1	1	0	0	0.1755	0.34904	0.13806	0.35802	0.10628	0.28255	0.15455	0.093438	0.065799	0.35951	0.08853	0.228	0.27977	0.18894	0.13181	0.084362	-2.8354	-2.7146	-2.9938	-3.0625	-2.8271	-3.1312	-2.9146	-2.8583	-3.1813	-2.7375	-3.0354	-3.3042	-2.775	-3.2479	-3.0687	-2.6	186.898	176.340	91.826	153.908	133.423	57.551	174.529	202.955	220.388	95.450	77.717	186.201	-138.108	69.053	-48.290	-61.957	0.00019635	0.00050895	0.00011773	1274.6	8.8513e-06	1.8945e-06	1344.1	269.19	3.407e-06	3.2086e-06	333.84	93.961	74.408	21.898	4.2255e-06	30.536	0.00088093	0.0015812	0.00043057	1256.3	1.6739e-05	1.7952e-05	1330.4	268.14	1.629e-05	1.8343e-05	332.98	95.24	75.567	22.309	1.8227e-05	31.161	-85.182	-69.901	-55.949	-128.325	-40.677	14.151	-128.135	-121.242	-7.993	-108.202	-121.555	-115.016	-114.927	-108.435	20.356	-108.547	-8191	255	
776.139	1	1	0	0	0.18558	0.19791	0.14209	0.089434	0.16449	0.045217	0.29865	0.23145	0.11529	0.10497	0.13696	0.12342	0.12805	0.17072	0.23243	0.24133	-2.8375	-2.8396	-2.5875	-3.2521	-2.5625	-3.1479	-3.0417	-2.7562	-3.1021	-2.7125	-3.0208	-3.3479	-2.9042	-3	-3.0604	-2.9458	2.577	-134.706	-35.036	-26.652	173.312	-19.921	123.780	138.018	130.713	76.434	-16.740	76.533	208.065	128.512	151.425	206.932	0.0002012	0.00037516	0.00016708	1299.8	2.1982e-06	5.3878e-06	1368.2	272.17	5.8323e-06	6.1733e-06	336.09	94.116	74.928	22.006	2.123e-06	30.708	0.0010329	0.0018157	0.00048686	1281	1.8205e-05	1.9974e-05	1350.1	272.63	1.8905e-05	2.1031e-05	337.4	95.709	76.322	22.497	2.0029e-05	31.387	-85.004	-61.217	-56.870	-128.366	61.884	17.621	-128.403	-121.635	28.121	-34.449	-121.375	-115.122	-114.727	-108.533	80.271	-108.512	-8191	255	
776.258	1	1	0	0	0.14406	0.13999	0.064371	0.22703	0.19295	0.018023	0.27095	0.23117	0.15795	0.15206	0.16923	0.1644	0.27939	0.18324	0.1679	0.12015	-2.6583	-2.9104	-3.0875	-3.2521	-2.6437	-3.1167	-3.3854	-2.8146	-2.9688	-2.9146	-2.7438	-3.3521	-2.9813	-3.0438	-3.1542	-2.8917	84.080	210.637	118.798	178.350	165.949	186.840	145.335	-113.658	-24.973	207.272	164.862	-106.718	69.361	215.305	106.542	-136.443	0.00017401	0.00037637	0.00010542	1324.6	1.1827e-05	1.0777e-06	1402.1	277.77	1.9192e-06	6.3627e-06	342.6	95.487	76.452	22.17	5.6335e-06	30.827	0.0011279	0.0019164	0.00053535	1307.8	2.1021e-05	2.2889e-05	1381	277.35	2.1008e-05	2.4113e-05	343.05	96.974	77.664	22.715	2.2347e-05	31.563	-76.151	-18.836	-65.204	-128.421	77.723	64.609	-128.459	-121.593	-95.200	54.908	-121.527	-115.215	-114.869	-108.416	17.072	-108.230	-8191	255	
776.354	1	1	0	0	0.12397	0.084079	0.069532	0.19438	0.092929	0.22512	0.18447	0.30803	0.15249	0.22517	0.12573	0.0034192	0.22902	0.093518	0.19333	0.19957	-2.6312	-3.2083	-2.8625	-3.2896	-2.9854	-2.9958	-3.2875	-2.9729	-3.3458	-3.1271	-2.9875	-3.2125	-3.1188	-3.0354	-3.1854	-2.8042	94.137	86.060	-107.438	-133.152	-65.270	50.889	162.303	145.147	-50.938	189.130	-125.044	32.412	218.518	15.663	83.841	113.513	0.00020804	0.00061582	9.6288e-05	1349.7	2.9733e-06	7.5112e-06	1412.4	280.63	3.1187e-06	2.1922e-06	343.32	95.826	76.175	22.295	3.6452e-06	30.835	0.0012225	0.0021948	0.00059352	1329	2.2196e-05	2.4578e-05	1395.1	279.77	2.1682e-05	2.5064e-05	344.03	96.938	77.493	22.701	2.3926e-05	31.676	-76.712	-93.726	-50.548	-128.445	-1.213	44.757	-128.271	-121.467	35.603	66.592	-121.772	-115.272	-114.642	-108.333	49.374	-108.555	-8191	255	
776.425	1	1	0	0	0.15841	0.12717	0.23906	0.33899	0.1079	0.22499	0.39065	0.24289	0.057604	0.081237	0.29444	0.42064	0.25336	0.1474	0.12637	0.10614	-2.6167	-2.9021	-2.6917	-3.4979	-2.9208	-2.9667	-3.6063	-3.05	-3.1562	-3.2458	-3.0021	-3.2229	-3.0687	-2.7958	-3.3292	-3.0083	-17.377	95.450	-86.085	152.609	65.497	147.606	140.593	155.629	15.085	146.573	136.893	208.431	-21.910	209.977	64.374	191.723	0.00018659	0.0005493	0.00015666	1348	5.2776e-06	2.9983e-06	1409.2	279.87	1.9873e-06	4.3483e-06	344.51	95.178	76.268	22.097	1.4789e-06	30.844	0.0012333	0.0022201	0.00063272	1329.5	2.2808e-05	2.5679e-05	1397.6	279.74	2.2964e-05	2.5881e-05	344.55	97.034	77.628	22.626	2.4325e-05	31.567	-75.894	-22.467	-16.846	-128.346	-43.530	80.646	-128.257	-121.279	110.025	24.286	-121.468	-114.777	-114.575	-108.142	7.396	-108.497	-8191	255	
776.546	1	1	0	0	0.083006	0.11022	0.16094	0.30724	0.053243	0.29519	0.16617	0.35358	0.12971	0.10528	0.09029	0.26824	0.31046	0.1878	0.066817	0.18154	-2.5583	-3.1813	-2.6708	-3.2958	-3.1896	-2.9229	-3.2667	-2.9542	-3.0312	-3.0292	-2.825	-3.2667	-3.1937	-2.8563	-3.0833	-2.8542	110.616	43.072	190.451	171.372	13.575	46.952	194.650	158.509	6.049	158.935	204.933	-120.107	-98.702	189.574	-18.899	62.155	0.0002422	0.00045459	0.00016686	1351	5.8208e-06	4.9049e-06	1405.8	277.76	4.6824e-06	1.3952e-06	341.74	94.858	75.954	21.866	2.879e-06	30.332	0.001319	0.0023209	0.00065367	1333	2.3285e-05	2.6333e-05	1392.8	277.9	2.2394e-05	2.5656e-05	341.57	96.204	77.076	22.4	2.3294e-05	31.223	-79.941	-33.365	-56.950	-128.607	-19.237	56.915	-128.130	-121.240	1.947	-25.309	-121.642	-115.144	-114.950	-107.857	6.638	-108.487	-8191	255	
776.642	1	1	0	0	0.18715	0.24863	0.10334	0.18329	0.20259	0.14804	0.23965	0.30628	0.17948	0.069645	0.17969	0.20042	0.25763	0.22263	0.17704	0.31764	-2.5917	-3.2458	-2.7875	-3.1271	-2.9417	-2.8208	-3.3125	-2.7875	-2.8396	-3.1979	-2.925	-2.8604	-3.0417	-2.8604	-3.4208	-3.05	205.560	176.867	11.436	194.498	175.849	-110.747	189.215	178.678	-53.668	-133.499	-113.326	218.203	171.237	176.080	108.460	88.921	0.00023944	0.00043095	0.00010355	1328.1	5.6254e-06	2.4149e-06	1382.7	274.25	4.3625e-06	4.1532e-06	334.78	93.354	74.664	21.645	2.4524e-06	30.106	0.0012726	0.0021976	0.00061444	1307.7	2.1921e-05	2.4434e-05	1367.2	272.48	2.1333e-05	2.4238e-05	335.53	95.03	75.896	22.187	2.2321e-05	30.911	-84.319	-18.376	8.635	-128.211	-25.636	-12.501	-128.284	-121.522	16.390	-3.354	-121.711	-114.891	-114.457	-108.105	22.796	-108.197	-8191	255	
776.738	1	1	0	0	0.11865	0.077686	0.12025	0.32064	0.063367	0.048663	0.14972	0.13426	0.27051	0.24043	0.1476	0.14153	0.14547	0.14892	0.12351	0.18309	-2.4292	-3.1896	-2.8771	-3.0146	-3.1729	-2.8792	-3.2354	-3.0292	-3.1229	-3.3125	-2.75	-3.1312	-3.2833	-2.7667	-2.8854	-3.3979	-126.559	26.509	24.882	152.977	-27.282	137.465	119.656	116.058	22.646	16.181	143.598	166.618	174.646	-138.944	19.297	-12.710	0.00014936	0.00073169	0.00011781	1314.4	5.5068e-06	6.6093e-06	1375.3	271.32	1.6674e-06	5.2188e-06	334.67	93.604	73.817	21.537	2.6435e-06	29.981	0.0012272	0.0021812	0.00059639	1298.5	2.1828e-05	2.4459e-05	1359.5	270.88	2.1716e-05	2.4172e-05	334.03	94.768	75.469	22.045	2.2414e-05	30.748	-81.620	-56.247	-40.296	-128.289	40.107	33.487	-128.359	-121.146	-18.827	17.542	-121.664	-115.116	-114.670	-108.142	12.107	-108.191	-8191	255	
776.834	1	1	0	0	0.24572	0.14829	0.15646	0.41315	0.2745	0.047347	0.17088	0.11562	0.1224	0.075348	0.10069	0.051713	0.1149	0.074921	0.19852	0.37384	-2.5729	-3.2458	-2.8167	-2.9167	-3.4042	-2.9625	-3.4125	-3.0375	-2.7396	-3.1458	-3	-2.9604	-3.3333	-3.0167	-3.1604	-3.1562	-134.481	139.886	-54.294	158.282	163.129	-32.639	38.419	-14.014	-138.769	88.424	-119.092	118.574	-14.371	-83.165	49.598	156.878	0.00019781	0.00023318	7.6812e-05	1304.4	3.4187e-06	7.1348e-06	1364.1	267.92	4.5899e-06	2.9336e-06	331.16	92.209	73.065	21.351	3.3976e-06	29.875	0.0012122	0.0021028	0.00058549	1285.6	2.0966e-05	2.3654e-05	1346.1	267.81	2.0366e-05	2.2541e-05	330.02	93.629	74.402	21.75	2.0169e-05	30.425	-85.048	-107.992	-51.259	-128.433	80.882	3.193	-128.200	-121.140	10.380	-30.313	-121.560	-115.022	-114.690	-107.880	41.876	-108.000	-8191	255	
776.955	1	1	0	0	0.10452	0.15002	0.11348	0.39187	0.16983	0.023576	0.088677	0.15899	0.14004	0.14432	0.41656	0.1489	0.093974	0.16957	0.12985	0.31213	-2.4292	-3.2958	-3.0062	-3.0187	-3.2667	-3.0792	-3.2604	-3.1021	-3.1	-3.2333	-3.0021	-2.7417	-3.1979	-3.125	-3.1188	-3.2	-84.096	31.410	166.783	128.650	179.352	32.998	39.221	-63.337	-19.211	-114.142	111.529	179.861	68.601	-61.247	-139.173	195.890	0.00022476	0.00035516	0.00012942	1279.5	1.3937e-06	6.0282e-06	1335.4	263.75	1.6548e-06	2.3007e-06	323.02	90.778	72.454	21.134	6.7416e-07	29.333	0.0011193	0.001932	0.0005355	1262.5	1.8926e-05	2.1565e-05	1320.4	263.19	1.8487e-05	2.1166e-05	323.92	92.161	73.32	21.497	1.8945e-05	30.108	-87.554	27.085	-65.452	-128.191	215.242	20.113	-127.988	-121.356	25.248	19.252	-121.415	-114.588	-114.198	-107.116	45.079	-107.960	-8191	255	
777.049	1	1	0	0	0.18889	0.072085	0.20126	0.067782	0.16698	0.20026	0.12273	0.26571	0.28533	0.14704	0.1401	0.20925	0.12208	0.15066	0.12111	0.32384	-2.1708	-3.2438	-3.1188	-3.0312	-3.3563	-2.7896	-3.1063	-3.2104	-2.8438	-3.2021	-3.05	-3.1688	-3.1604	-2.9354	-3.0438	-3.1354	39.001	-94.994	-5.211	206.370	219.686	51.464	175.572	136.647	11.056	46.490	199.665	-96.215	-54.532	-138.791	-42.000	117.418	0.00019681	0.00014188	0.00014552	1261.1	2.2629e-06	4.4873e-06	1325	260.81	5.4357e-06	6.9988e-06	321.08	91.156	72.017	21.024	3.8789e-06	29.309	0.0010703	0.0018287	0.00051776	1243.1	1.8299e-05	2.076e-05	1306.6	261.18	1.8152e-05	2e-05	322.8	92.091	73.173	21.415	1.8697e-05	30.047	-85.133	71.550	-36.888	-128.116	42.062	-1.263	-128.061	-121.209	21.476	84.487	-121.421	-114.815	-114.535	-107.747	36.726	-108.076	-8191	255	
777.121	1	1	0	0	0.074949	0.33045	0.19935	0.12093	0.087301	0.15348	0.17866	0.35403	0.27233	0.11229	0.32274	0.23512	0.043844	0.068767	0.21888	0.24711	-2.3792	-3.2208	-3.1312	-2.8521	-3.1271	-2.8667	-3.0167	-3.2333	-2.9417	-3.1833	-3.3438	-2.6521	-3.2062	-3.1292	-2.9437	-3.2833	68.056	-91.225	14.352	199.007	-86.404	184.176	199.597	124.034	219.591	136.536	-136.109	201.903	184.639	187.373	-106.918	177.992	0.00020149	0.0003289	0.0001468	1257.8	4.1323e-06	5.8924e-06	1314.9	259.67	2.8428e-06	5.826e-06	320.77	90.012	71.836	20.952	4.8814e-06	29.224	0.0010361	0.0017468	0.00049625	1237.9	1.7615e-05	1.9334e-05	1298.5	259.45	1.6878e-05	1.8948e-05	320.06	91.327	72.601	21.241	1.7532e-05	29.823	-91.757	-71.933	-87.069	-128.030	56.136	31.146	-128.000	-120.751	-36.725	-36.179	-121.192	-114.883	-114.175	-107.693	27.323	-108.023	-8191	255	
777.219	1	1	0	0	0.054875	0.2682	0.12909	0.32506	0.10654	0.12826	0.23156	0.20174	0.18536	0.075058	0.15302	0.16633	0.14313	0.1017	0.21942	0.099239	-2.3292	-3.4146	-3.1	-2.9229	-3.2479	-3.2208	-3.0938	-3.35	-3.2	-3.0438	-3.5208	-3.1375	-3.1729	-3.0875	-3.0312	-3.3625	53.136	-77.379	-82.221	-98.947	-70.594	104.732	-108.343	144.241	194.114	29.761	-128.758	-77.280	202.144	-49.402	-36.477	-83.823	0.00016365	0.00035368	0.00012296	1239.9	2.8721e-06	4.4374e-06	1298.1	258.22	3.5697e-06	2.1366e-06	320.36	89.414	71.295	20.785	1.824e-06	29.124	0.0009804	0.0016151	0.00045998	1221.7	1.6578e-05	1.867e-05	1284.7	257.7	1.6462e-05	1.8061e-05	319.35	90.851	72.198	21.169	1.681e-05	29.681	-80.340	-78.867	-52.318	-128.167	10.215	-2.026	-128.012	-121.182	44.258	34.724	-121.301	-114.889	-114.220	-107.486	126.318	-108.221	-8191	255	
777.338	1	1	0	0	0.04987	0.0985	0.10318	0.16409	0.21561	0.1588	0.11707	0.22823	0.07699	0.20096	0.24966	0.14799	0.1286	0.19744	0.21107	0.21085	-2.3812	-2.9479	-3.2292	-2.9125	-3.2417	-2.8167	-3.2458	-3.5521	-3.0208	-2.8375	-3.5208	-2.8063	-3.1625	-3.2458	-2.8312	-3.2125	191.241	155.771	95.233	-106.313	-58.161	197.454	105.674	-43.489	101.057	116.554	170.937	-128.522	179.851	112.615	5.411	142.527	0.00017836	0.00034284	4.7398e-05	1239.7	3.6511e-06	4.488e-06	1300.1	258.37	8.8783e-07	2.281e-06	318.48	89.626	71.509	20.648	1.4912e-06	29.209	0.00096145	0.0016304	0.00045867	1218.2	1.64e-05	1.875e-05	1283.5	257.26	1.6654e-05	1.8879e-05	317.34	90.692	72.084	21.099	1.7337e-05	29.756	-75.799	-110.400	-82.358	-127.994	19.692	44.884	-128.073	-120.997	25.510	-40.287	-121.499	-114.783	-114.445	-107.673	127.831	-107.641	-8191	255	
777.434	1	1	0	0	0.10377	0.16755	0.037926	0.14828	0.065786	0.24737	0.16373	0.13736	0.13848	0.098113	0.15646	0.047068	0.080047	0.097664	0.17406	0.032356	-2.6354	-3.0438	-3.1521	-3.0542	-3.1979	-3.1771	-2.9104	-3.3312	-2.8688	-3.0396	-3.3958	-2.8833	-3.0375	-3.15	-2.7021	-3.4813	-25.880	221.038	48.901	188.355	136.723	10.140	80.384	94.171	-28.472	56.730	142.173	190.532	-126.963	161.418	34.526	190.614	0.00019036	0.00028217	5.6715e-05	1233.5	3.2602e-06	6.5355e-06	1292.7	256.4	2.5543e-06	3.8965e-06	315.84	89.251	70.805	20.674	2.284e-06	28.944	0.00097825	0.0016302	0.00044782	1211.1	1.6195e-05	1.8153e-05	1273.8	255.48	1.6385e-05	1.7972e-05	316.15	90.519	71.734	21.074	1.6702e-05	29.639	-81.059	-30.746	-49.105	-127.995	66.778	13.641	-128.074	-120.779	-14.479	37.696	-121.198	-114.836	-114.439	-107.398	49.546	-107.863	-8191	255	
777.530	1	1	0	0	0.098379	0.21935	0.020237	0.30204	0.21206	0.11602	0.12608	0.07699	0.10832	0.18499	0.38348	0.3775	0.16198	0.1884	0.28486	0.10595	-2.6333	-2.9958	-3.1354	-2.8021	-2.9208	-3.2917	-3.0021	-3.2938	-3.0438	-2.9292	-3.3	-3.0167	-2.8833	-3.0792	-2.6813	-3.2125	-20.691	43.860	-81.202	162.777	12.414	68.271	139.271	166.272	-7.749	0.840	-115.520	-82.827	-93.307	210.174	-56.401	-7.765	0.00023033	0.00041272	0.00010789	1222.8	1.0246e-06	2.7762e-06	1281.4	255.2	2.0442e-06	1.3873e-06	314.26	89.215	70.334	20.676	3.189e-06	28.873	0.00094369	0.0016108	0.00043333	1204	1.619e-05	1.7877e-05	1265.4	254.18	1.5711e-05	1.7417e-05	314.29	89.997	71.403	20.97	1.6637e-05	29.547	-80.098	-62.669	-33.069	-127.971	103.149	69.360	-128.034	-121.123	9.469	-10.187	-120.893	-114.791	-114.487	-107.351	-20.068	-108.337	-8191	255	
777.626	1	1	0	0	0.068575	0.09947	0.070901	0.23871	0.14945	0.13853	0.28178	0.166	0.082698	0.047072	0.20503	0.18994	0.20985	0.16942	0.067764	0.050208	-2.7583	-2.9583	-3.3312	-2.9542	-3.0771	-3.3312	-2.8375	-2.9771	-3.0438	-2.8292	-3.2729	-3.0729	-2.7292	-3.2667	-2.8229	-3.3	-131.609	-57.461	-51.288	-106.650	-3.145	213.963	140.357	128.809	-62.063	171.182	201.964	-132.768	210.615	183.198	-11.703	157.522	0.00016087	0.00015548	8.7073e-05	1217.3	3.4108e-06	5.9669e-06	1271.6	253.62	2.5076e-06	3.1847e-06	314.27	88.748	70.405	20.609	6.348e-06	28.999	0.00092863	0.0015825	0.00042346	1196.1	1.5696e-05	1.7425e-05	1257.8	253.21	1.519e-05	1.6882e-05	313.83	90.042	71.409	20.983	1.6004e-05	29.54	-86.877	-102.363	-125.836	-128.010	40.213	2.100	-127.814	-121.060	51.621	30.661	-121.109	-114.383	-114.676	-107.397	1.479	-107.955	-8191	255	
777.723	1	1	0	0	0.25414	0.14559	0.26635	0.33454	0.03408	0.17263	0.16142	0.17167	0.095227	0.15142	0.02703	0.31254	0.062253	0.29039	0.1455	0.28054	-2.8208	-2.5854	-3.1896	-3.2167	-2.9583	-3.2521	-3.0125	-3.2917	-3.1	-2.8354	-3.2938	-3.0104	-2.8812	-3.2458	-3.2125	-2.9771	-21.747	-38.255	215.113	182.864	50.775	99.934	135.459	209.433	207.259	-135.252	184.748	-115.846	190.663	185.066	213.958	194.445	0.00022449	0.00053649	0.00014733	1210.4	5.2202e-07	1.9907e-06	1265.2	252.43	2.7192e-06	2.9911e-06	310.75	88.836	70.448	20.767	4.9289e-06	28.949	0.00089214	0.0015194	0.00040605	1190.7	1.5157e-05	1.6629e-05	1250.6	251.89	1.507e-05	1.6704e-05	311.36	89.602	71.3	20.996	1.5203e-05	29.496	-80.587	-6.112	-56.818	-127.855	96.883	59.967	-127.984	-121.143	-43.072	-24.842	-121.123	-114.564	-114.187	-107.620	30.307	-108.016	-8191	255	
777.819	1	1	0	0	0.25088	0.17917	0.04772	0.016393	0.2751	0.1285	0.049683	0.11234	0.12857	0.14905	0.43117	0.34788	0.15451	0.23444	0.095107	0.19196	-2.6771	-2.8042	-3.1021	-3.2479	-2.8771	-3.1646	-3.0187	-3.2521	-3.0729	-2.5312	-3.3542	-3.0958	-2.8083	-3.3958	-2.9813	-3.0167	20.725	-34.370	135.058	15.381	-115.314	19.378	58.651	200.664	32.387	-79.127	210.273	140.041	-104.051	107.170	-70.419	180.492	0.00018757	0.0004233	0.00013463	1200.5	1.2842e-06	2.3953e-06	1256.9	252.38	3.2775e-06	5.1514e-06	312.05	88.532	70.123	20.736	4.557e-06	29.142	0.00085944	0.0014467	0.00039595	1180.8	1.425e-05	1.5985e-05	1244.9	251.4	1.4159e-05	1.5989e-05	311.55	89.745	71.055	20.995	1.4406e-05	29.509	-92.704	-33.174	-8.069	-128.116	74.674	99.136	-128.106	-120.795	-0.355	12.795	-121.480	-114.676	-114.609	-107.343	53.343	-107.828	-8191	255	
777.939	1	1	0	0	0.11005	0.10037	0.20328	0.13191	0.36412	0.081924	0.22893	0.2057	0.1394	0.15678	0.24456	0.10724	0.40503	0.49201	0.032001	0.22458	-2.9208	-2.625	-3.025	-3.3021	-2.6937	-3.1958	-2.9875	-2.9583	-3.2562	-3.0438	-3.0667	-3.1354	-2.8667	-3.2271	-3.1375	-2.9771	145.321	-28.983	105.270	-89.559	160.054	118.632	147.662	75.325	-95.311	154.546	207.070	-78.689	-79.752	183.653	130.132	133.006	0.00019121	0.00049239	0.00010611	1201.6	3.6485e-06	2.7226e-06	1258.5	252.01	2.8003e-06	1.1556e-06	313.17	88.752	70.54	20.604	2.196e-06	29.073	0.00082053	0.0013933	0.00038504	1181	1.4147e-05	1.5466e-05	1247.7	251.08	1.3715e-05	1.5576e-05	312.28	89.649	71.241	20.926	1.4338e-05	29.44	-89.629	-55.392	9.395	-127.841	1.186	-10.191	-128.107	-121.199	-18.515	6.919	-121.184	-114.499	-114.189	-107.217	76.180	-107.725	-8191	255	
778.035	1	1	0	0	0.15356	0.26367	0.33302	0.21768	0.081037	0.25257	0.054937	0.10643	0.10637	0.14266	0.19441	0.17731	0.093675	0.057256	0.050798	0.1777	-2.8375	-2.9979	-3.0687	-3.3104	-2.7125	-3.1708	-3.2562	-3.0646	-3.1167	-2.8771	-3.2458	-3.1562	-2.9125	-3.2042	-2.9083	-2.9104	217.466	-134.444	156.305	204.110	17.100	-100.163	91.417	-107.155	-87.359	38.724	201.802	-102.317	214.112	141.403	-93.080	168.225	0.00020738	0.00030085	0.0001706	1196.5	1.2583e-06	1.7384e-06	1267	252.31	2.6722e-06	5.6014e-06	312.24	88.36	70.208	20.588	4.0508e-06	28.981	0.00081241	0.0013166	0.0003632	1182.7	1.3766e-05	1.462e-05	1249.4	251.64	1.3081e-05	1.4076e-05	312.08	89.658	70.978	20.96	1.3871e-05	29.431	-86.651	21.618	-75.667	-127.794	87.524	27.167	-128.033	-121.057	-10.060	-8.901	-121.388	-114.803	-114.176	-107.410	10.304	-108.191	-8191	255	
778.130	1	1	0	0	0.20981	0.096868	0.11298	0.31994	0.083133	0.17328	0.21379	0.071873	0.14381	0.23341	0.13394	0.070718	0.17933	0.055401	0.13062	0.19079	-3.0417	-2.7292	-3.1917	-3.2521	-2.8375	-3.1979	-2.9667	-2.8187	-3.2812	-3.0854	-2.9	-3.1729	-2.8417	-3.1125	-3.1479	-2.7458	115.409	192.128	-123.459	177.179	128.057	77.431	178.047	-14.327	-22.974	210.257	-13.048	149.479	-101.567	104.877	182.087	105.007	0.00017597	0.00059896	6.8515e-05	1206	2.1038e-06	5.0283e-06	1266	252.65	2.3394e-06	4.7843e-06	313.79	88.879	70.174	20.593	5.4293e-06	29.002	0.00076925	0.0012873	0.0003352	1184.6	1.2961e-05	1.3636e-05	1250.4	251.76	1.2298e-05	1.3446e-05	312.74	89.778	71.009	20.947	1.2665e-05	29.459	-83.201	-62.543	-30.535	-128.034	205.492	-9.848	-128.196	-121.086	-29.818	44.872	-121.360	-114.465	-114.232	-107.481	15.217	-107.713	-8191	255	
778.226	1	1	0	0	0.33117	0.24153	0.05072	0.11828	0.13102	0.012157	0.27329	0.065812	0.15745	0.12185	0.26313	0.026627	0.18374	0.17543	0.22866	0.055083	-2.9062	-3.0271	-3.0333	-3.6104	-2.6917	-3.125	-3.3896	-2.9229	-3.35	-3.1271	-2.8646	-3.1542	-2.9229	-3.1417	-3.1417	-3.0521	-58.838	143.704	98.165	-136.577	-112.345	121.284	143.988	125.089	24.707	-72.230	146.554	220.368	122.903	-119.058	176.728	-19.570	0.00017405	0.00038765	6.068e-05	1201.1	3.9274e-06	3.5548e-06	1266.7	252.46	2.2364e-06	2.4422e-06	312.89	88.967	70.521	20.648	5.3313e-06	29.124	0.00072577	0.0012374	0.00033121	1184.3	1.2312e-05	1.3478e-05	1252.5	252.38	1.1932e-05	1.3559e-05	312.61	89.948	71.25	20.978	1.2572e-05	29.578	-77.972	-60.563	-37.364	-127.987	-2.113	20.387	-127.990	-121.002	-4.795	39.223	-120.815	-114.459	-114.759	-108.080	52.320	-108.113	-8191	255	
778.322	1	1	0	0	0.19935	0.19603	0.20941	0.2785	0.089168	0.212	0.26645	0.22483	0.20416	0.16276	0.18708	0.22863	0.20541	0.13382	0.19675	0.14667	-2.8	-2.9083	-2.7604	-3.375	-2.7479	-3.1208	-3.3521	-2.6875	-3.1125	-3.2438	-2.9667	-3.0833	-2.9229	-3.1479	-3.1667	-2.9188	87.417	183.677	87.783	134.190	-19.796	-38.564	178.828	-85.833	43.000	-70.132	-130.914	173.404	125.494	-8.346	29.777	204.081	0.00019025	0.0001049	0.00017651	1207.6	3.5125e-06	6.9304e-07	1267	253.59	1.1677e-06	9.4883e-07	314.11	88.71	70.791	20.743	3.1335e-06	29.101	0.00072163	0.0012041	0.00033734	1186.2	1.2405e-05	1.3193e-05	1251.3	252.33	1.2589e-05	1.3719e-05	313.34	89.887	71.231	20.984	1.3273e-05	29.624	-77.685	-45.178	-25.178	-127.882	42.251	30.642	-127.935	-121.192	-3.313	92.059	-121.283	-114.718	-113.899	-107.905	17.796	-108.094	-8191	255	
778.418	1	1	0	0	0.10375	0.088993	0.1822	0.18189	0.17016	0.08989	0.29273	0.13582	0.13993	0.13146	0.16392	0.14294	0.037348	0.30422	0.24959	0.11495	-2.6417	-3.0521	-3.0812	-3.5042	-2.8688	-3.0812	-3.4188	-2.8771	-3.2146	-3.1667	-2.8917	-3.425	-3.0042	-2.9437	-3.3479	-2.9458	64.387	28.381	84.552	211.100	124.151	-65.230	140.231	97.606	-33.973	196.621	200.901	-57.375	-99.732	139.790	-122.995	212.444	0.00018345	7.4497e-05	0.00014148	1203.6	1.1666e-06	7.0463e-06	1268.4	253.1	3.4231e-06	5.0591e-06	314.72	88.871	70.403	20.674	2.7944e-07	28.958	0.00075689	0.0012803	0.00035627	1186.9	1.3274e-05	1.4676e-05	1253.1	252.49	1.3486e-05	1.5102e-05	314	89.862	71.244	21.04	1.3984e-05	29.497	-80.859	34.559	-36.926	-128.009	10.910	-29.092	-127.891	-120.931	6.865	-6.525	-121.187	-114.790	-114.505	-107.832	-73.741	-107.615	-8191	255	
778.514	1	1	0	0	0.16628	0.20859	0.14492	0.10957	0.050097	0.15317	0.49385	0.087838	0.20119	0.16695	0.056263	0.074732	0.082663	0.26136	0.098904	0.076672	-2.7708	-3.2604	-2.675	-3.3646	-3	-2.8354	-3.5125	-2.8708	-2.9958	-3.1333	-2.8042	-3.1417	-3.0604	-2.9521	-3.1104	-3.0354	27.011	-42.298	172.436	-97.154	145.366	1.239	162.794	213.912	151.480	164.489	216.051	111.403	134.276	210.117	76.096	198.629	0.00016946	0.00020314	0.00011921	1204.5	2.8548e-06	4.4845e-06	1273.3	252.79	2.7624e-06	2.9626e-06	312.57	89.617	70.46	20.649	1.4411e-06	28.91	0.00080337	0.0013873	0.00037869	1186.5	1.387e-05	1.5793e-05	1256.8	252.5	1.3679e-05	1.5595e-05	312.98	90.021	71.414	20.996	1.4705e-05	29.534	-85.703	-72.039	-23.696	-128.143	0.039	-14.265	-127.825	-120.947	-27.453	-27.170	-121.166	-114.453	-114.367	-107.481	-1.100	-107.985	-8191	255	
778.611	1	1	0	0	0.039454	0.27243	0.1978	0.039326	0.044403	0.10756	0.45362	0.27905	0.047475	0.11759	0.05698	0.17477	0.16778	0.083287	0.19519	0.17233	-2.6208	-3.1083	-2.8646	-3.2562	-3	-2.8063	-3.1729	-2.8187	-3.0187	-3.1708	-2.9688	-3.0979	-3.1708	-2.8292	-3.2188	-3.0625	155.265	31.571	8.406	-135.676	-1.986	43.873	141.072	-112.478	200.468	42.055	178.818	171.115	24.775	-48.884	84.841	108.411	0.00019488	0.00045225	0.00016507	1208.1	1.9612e-06	3.7105e-06	1265.3	252.29	3.3308e-06	2.1461e-06	315.57	88.833	70.51	20.678	1.051e-06	28.898	0.00083738	0.001397	0.00039017	1190.1	1.4213e-05	1.5876e-05	1254.2	252.64	1.4435e-05	1.6208e-05	313.95	90.169	71.519	21.051	1.4738e-05	29.653	-85.649	-1.325	-43.430	-128.221	-86.004	27.768	-128.015	-120.999	-1.018	49.599	-121.123	-114.595	-114.320	-107.717	-126.480	-108.085	-8191	255	
778.731	1	1	0	0	0.24352	0.26901	0.088074	0.040325	0.15954	0.033549	0.27023	0.05331	0.12647	0.21191	0.01458	0.15525	0.1827	0.17766	0.2235	0.21496	-2.4437	-3.2333	-2.9333	-3.4021	-2.8729	-2.5646	-3.2875	-3.1458	-2.9229	-3.2	-2.75	-3.1188	-3.0396	-2.7104	-3.2	-2.8208	-138.880	-16.268	-35.190	78.282	-9.938	-38.667	123.140	130.363	195.954	-19.835	131.322	134.719	-103.637	191.200	-10.614	-60.408	0.000153	3.9555e-05	5.6801e-05	1209.1	2.7505e-06	4.5696e-06	1266.9	255.19	9.3943e-07	3.2399e-06	315.65	88.752	70.694	20.679	2.8656e-06	29.019	0.00085024	0.0014365	0.00040098	1190.8	1.4615e-05	1.6187e-05	1255.6	253.52	1.4498e-05	1.5847e-05	314.92	90.177	71.554	21.091	1.4882e-05	29.72	-87.284	-8.888	38.554	-127.911	-34.866	12.994	-128.075	-121.154	11.347	82.556	-121.198	-114.802	-114.092	-107.809	52.243	-107.884	-8191	255	
778.827	1	1	0	0	0.23154	0.2621	0.095317	0.18483	0.19671	0.25118	0.14714	0.16113	0.15164	0.1072	0.15144	0.12017	0.15278	0.057141	0.088915	0.27011	-2.4521	-3.3417	-3.1292	-3.1854	-2.9854	-2.7604	-3.2958	-3.1688	-3.1	-3.1646	-2.7375	-3.0208	-3.3417	-2.9188	-3.0812	-3.0917	182.564	-108.748	31.849	165.305	-103.535	-25.785	145.317	139.321	94.080	-58.572	-1.873	217.940	158.599	205.461	-81.500	137.506	0.00016022	0.00035963	9.5977e-05	1205.7	3.2539e-06	4.2739e-06	1267.5	253.59	2.6581e-06	2.2154e-06	314.71	89.333	70.662	20.753	3.4921e-06	29.058	0.00086328	0.0014628	0.00039906	1189.1	1.4545e-05	1.6507e-05	1255.1	253.55	1.4553e-05	1.6608e-05	314.7	90.28	71.672	21.082	1.5247e-05	29.618	-76.842	-75.603	4.464	-128.045	-10.431	-37.684	-127.950	-120.869	50.333	112.515	-121.236	-115.053	-114.345	-107.844	40.884	-107.989	-8191	255	
778.924	1	1	0	0	0.013605	0.18215	0.28517	0.18525	0.15623	0.19754	0.38571	0.071486	0.041629	0.059188	0.331	0.094361	0.086711	0.21307	0.11776	0.10493	-2.4562	-3.1458	-2.7854	-2.9792	-3.2438	-2.8708	-3.2812	-3.1479	-2.7562	-3.1042	-3.0917	-3.0854	-3.3833	-2.9313	-3.0458	-3.0229	86.208	-86.803	154.333	-79.432	162.067	-34.782	87.538	76.695	122.936	50.258	-114.199	-103.063	151.464	136.530	75.732	-36.652	0.00019054	0.00012136	8.4844e-05	1208.7	4.8835e-06	3.6079e-06	1272.8	253.78	4.1494e-06	3.5809e-06	315.18	89.78	71.152	20.769	2.8047e-06	29.113	0.0008669	0.0014707	0.00040369	1192.7	1.4767e-05	1.681e-05	1258.5	253.14	1.488e-05	1.6347e-05	315.11	90.538	71.824	21.148	1.5429e-05	29.641	-73.811	-30.250	-102.318	-127.918	10.962	-46.137	-128.095	-121.139	-32.753	4.112	-121.346	-115.111	-114.176	-108.012	-40.558	-107.974	-8191	255	
779.018	1	1	0	0	0.10582	0.10751	0.21243	0.31987	0.18082	0.24062	0.39358	0.12899	0.17826	0.20968	0.39966	0.030039	0.039494	0.11581	0.10266	0.2122	-2.3229	-3.0687	-2.9396	-2.9333	-3.0479	-2.8542	-3.1854	-3.1688	-2.6688	-3.1813	-2.8875	-3.0021	-3.2708	-2.675	-2.5687	-3.1542	87.528	-85.352	162.365	156.304	-60.881	168.817	106.604	-132.263	-25.200	164.836	164.635	172.381	-127.440	54.632	-132.578	139.706	0.00014768	0.00035253	0.00010645	1211.3	5.188e-06	6.6772e-06	1274	255.11	3.4467e-06	2.4451e-06	314.64	89.455	71.086	20.81	2.5651e-06	29.033	0.00085527	0.0014135	0.0003969	1192	1.4443e-05	1.6236e-05	1256.3	253.76	1.4592e-05	1.6257e-05	315.38	90.687	71.991	21.107	1.4874e-05	29.656	-80.122	-32.154	-84.917	-128.054	5.827	-0.029	-127.964	-120.917	-13.710	20.445	-120.993	-114.504	-114.550	-107.513	45.781	-107.798	-8191	255	
779.114	1	1	0	0	0.088347	0.1848	0.081926	0.18782	0.094396	0.20364	0.36551	0.1679	0.17233	0.24078	0.19804	0.23448	0.11263	0.19714	0.1744	0.055036	-2.3917	-2.7396	-2.8021	-3.0292	-3.0625	-2.7708	-3.0354	-3.0854	-2.7875	-3.2479	-2.9771	-2.7542	-3.2167	-2.9292	-2.8438	-3.2042	84.786	-115.347	131.345	175.894	184.077	-91.338	185.639	77.251	97.824	-131.770	143.350	-59.313	-92.997	109.438	-56.333	-129.261	0.00020752	0.0001778	9.5039e-05	1211.8	5.2484e-06	4.8503e-06	1273.2	255.21	3.2133e-06	1.1798e-06	316.92	89.789	70.881	20.668	6.6483e-06	29.159	0.00085819	0.0014192	0.00039545	1192.1	1.4597e-05	1.577e-05	1259.1	254.07	1.4859e-05	1.5929e-05	316.36	90.62	71.858	21.107	1.4996e-05	29.653	-89.498	-24.121	21.616	-128.173	59.812	12.949	-127.867	-121.087	-26.559	-106.765	-121.264	-114.750	-114.423	-107.745	-5.448	-108.274	-8191	255	
779.210	1	1	0	0	0.087058	0.048408	0.20094	0.2886	0.097478	0.1525	0.27468	0.33785	0.097203	0.24561	0.19057	0.01213	0.27015	0.16374	0.065616	0.097035	-2.1875	-2.7292	-2.95	-2.8229	-3.1813	-2.8958	-3.2062	-3.1688	-2.6604	-2.8229	-3.2292	-2.6875	-3.2	-2.8521	-2.7479	-3.3271	136.441	154.332	-137.793	-91.540	-24.988	-13.395	176.126	155.571	106.551	204.723	-100.534	179.704	143.404	-111.022	156.919	44.917	0.00017788	0.0002474	0.00010475	1213.1	2.2259e-06	3.3337e-06	1274.6	253.82	8.1776e-07	3.1248e-06	316.52	89.634	71.043	20.785	2.651e-06	29.346	0.00084691	0.0014352	0.00039265	1193.3	1.415e-05	1.5926e-05	1258.4	253.83	1.4682e-05	1.5791e-05	315.92	90.661	71.924	21.16	1.5213e-05	29.763	-84.464	-54.419	-34.586	-127.910	-15.908	-51.607	-127.987	-121.166	-129.750	45.997	-121.232	-114.734	-114.308	-107.283	-16.377	-107.644	-8191	255	
779.306	1	1	0	0	0.1573	0.095306	0.076507	0.30666	0.078061	0.31555	0.15403	0.32507	0.31805	0.10573	0.2279	0.12951	0.051184	0.26333	0.22871	0.08044	-2.3063	-2.8125	-3.1646	-2.9062	-3.1021	-2.9292	-3.0312	-3.2542	-2.7417	-2.9208	-3.1646	-2.5979	-3.0521	-3	-2.7646	-3.175	171.984	139.525	-135.077	-118.220	-124.956	-120.402	165.520	190.667	-122.524	-78.435	-123.282	-138.380	144.317	9.892	127.079	80.681	0.00018577	0.00032905	9.7606e-05	1208.7	6.2628e-06	4.2067e-06	1266.6	255.82	1.373e-06	3.135e-06	316.99	89.765	70.897	20.931	4.5064e-06	29.197	0.00083583	0.0013587	0.00038383	1193.3	1.398e-05	1.5589e-05	1255.3	254.5	1.3597e-05	1.5362e-05	316.5	90.666	71.818	21.183	1.45e-05	29.764	-88.473	6.487	-74.274	-127.778	20.325	26.676	-127.859	-121.080	-28.583	16.495	-121.247	-114.796	-114.427	-107.447	10.156	-107.849	-8191	255	
779.427	1	1	0	0	0.19299	0.24546	0.14683	0.33453	0.21337	0.32326	0.14078	0.11	0.10044	0.076282	0.1175	0.09631	0.16637	0.14833	0.15855	0.14858	-2.4938	-2.9667	-3.0042	-3.0062	-2.9917	-2.95	-3.0083	-3.2271	-2.9938	-2.8771	-3.0729	-2.7042	-3.1792	-2.7542	-2.7833	-3.2167	112.505	-26.776	-56.113	162.001	193.199	-43.569	93.617	200.851	35.736	180.879	-138.933	95.207	-67.391	-19.560	9.873	171.183	0.00018689	0.00058003	0.00014147	1211.3	3.3969e-06	3.636e-06	1276.5	254.32	4.14e-06	6.6348e-06	315.47	89.451	71.109	20.769	2.8793e-06	29.171	0.00084858	0.0014021	0.00037805	1192.7	1.3994e-05	1.5477e-05	1260.5	254.32	1.412e-05	1.5625e-05	316.07	90.605	71.676	21.15	1.4639e-05	29.727	-85.542	-71.719	-28.131	-128.094	-27.716	40.983	-128.059	-121.242	10.439	13.260	-120.968	-114.514	-114.666	-107.753	4.721	-108.071	-8191	255	
779.523	1	1	0	0	0.23033	0.055612	0.12035	0.44772	0.32074	0.25489	0.50874	0.24989	0.047568	0.15351	0.11962	0.1038	0.081683	0.046383	0.076432	0.11386	-2.4667	-2.6667	-3.0542	-2.8479	-3.0521	-3.0896	-2.8917	-3.125	-3.0146	-2.8	-3.2042	-2.8625	-2.9792	-3.1083	-2.6813	-3.1292	-72.793	181.438	-70.431	178.636	67.638	64.644	138.109	173.605	85.420	-4.552	-112.704	144.952	15.144	150.738	64.981	58.994	0.00018832	0.00031613	0.00016744	1211.7	2.5774e-06	1.9286e-06	1278	254.58	2.6112e-06	2.1015e-06	315.68	89.6	70.903	20.927	2.6959e-06	29.192	0.00081162	0.0013591	0.00037784	1193.7	1.3534e-05	1.5364e-05	1259.4	254.53	1.346e-05	1.5238e-05	316.16	90.844	71.953	21.237	1.4068e-05	29.768	-85.214	-17.792	-56.339	-128.071	-15.690	-29.578	-127.855	-121.159	-23.208	23.132	-121.359	-114.779	-114.236	-107.498	32.524	-107.993	-8191	255	
779.619	1	1	0	0	0.1237	0.11187	0.17026	0.33247	0.13163	0.055309	0.33966	0.16465	0.13086	0.012422	0.25323	0.12743	0.11302	0.19529	0.27986	0.17622	-2.6646	-2.8	-2.9625	-3.0438	-3.0167	-3.0625	-2.9958	-3.0292	-2.9104	-2.7771	-3.0646	-2.9208	-2.8208	-3.2479	-2.5896	-3.0417	104.718	-67.689	-25.333	203.262	119.913	-55.854	118.352	146.588	190.152	9.132	183.606	-125.220	-86.231	-33.241	106.250	81.397	0.00019525	0.0004837	0.00014618	1210.9	2.0354e-06	1.9127e-06	1276.2	253.48	3.5224e-06	3.6048e-06	316.45	89.447	70.771	20.746	7.1528e-06	29.196	0.00079245	0.0013444	0.00036726	1191.9	1.3504e-05	1.5024e-05	1258.9	253.93	1.3791e-05	1.5054e-05	316.59	90.703	71.847	21.156	1.3903e-05	29.706	-87.358	-28.875	-32.348	-128.076	17.455	10.864	-128.080	-121.067	-20.180	2.327	-121.322	-114.783	-114.299	-107.597	19.676	-107.780	-8191	255	
779.715	1	1	0	0	0.13755	0.22235	0.2197	0.23421	0.032487	0.21977	0.25732	0.31733	0.20648	0.2092	0.1171	0.078284	0.17884	0.31605	0.1983	0.19405	-2.6167	-2.9208	-3.0646	-2.8583	-2.8042	-3.1813	-2.8521	-2.9542	-3.0417	-2.6771	-3.1417	-2.9479	-3.0563	-3.3125	-2.8729	-3.1125	100.221	32.753	67.412	136.446	158.222	48.253	210.441	167.454	17.119	-32.634	168.923	220.359	-132.248	-52.436	211.783	218.741	0.00018923	0.00033148	9.9431e-05	1210.1	3.3055e-06	2.0479e-06	1278.5	255.24	3.1008e-06	4.5779e-06	316.8	89.416	71.332	20.869	4.4803e-06	29.086	0.00080985	0.0013462	0.00037109	1191.7	1.3767e-05	1.4993e-05	1259.4	254.37	1.3976e-05	1.5628e-05	316.69	90.675	72.1	21.201	1.4146e-05	29.68	-78.943	-63.276	-82.195	-128.051	1.222	12.582	-127.807	-120.961	-12.494	-19.809	-121.460	-114.836	-114.299	-107.443	7.383	-107.676	-8191	255	
779.812	1	1	0	0	0.11454	0.089432	0.090287	0.14301	0.1581	0.2512	0.32538	0.14531	0.12127	0.14742	0.077342	0.1039	0.12479	0.31136	0.054371	0.24419	-2.7542	-2.7562	-3	-3.1958	-2.8625	-3.1979	-3.0458	-2.9979	-3.025	-2.6396	-3.2708	-3.1021	-2.8917	-3.1875	-2.7687	-2.9042	-64.809	136.797	-12.788	194.856	135.466	108.967	114.754	135.711	-31.048	124.065	-129.000	167.661	164.901	153.243	66.667	-115.065	0.00018147	0.00029387	9.3958e-05	1209.1	2.8852e-06	2.7351e-06	1278.6	257.35	3.4782e-06	8.0375e-06	316.2	89.535	71.64	20.917	6.4009e-06	29.168	0.0008193	0.001393	0.00038502	1195	1.371e-05	1.5484e-05	1262	255.74	1.4253e-05	1.5859e-05	316.97	90.838	72.022	21.245	1.4751e-05	29.728	-82.359	-72.265	-31.071	-128.030	33.229	31.692	-127.910	-121.184	-13.873	11.726	-121.355	-114.993	-114.354	-107.254	26.526	-108.034	-8191	255	
779.908	1	1	0	0	0.086649	0.19575	0.096862	0.23231	0.31537	0.034267	0.29665	0.31934	0.14783	0.36581	0.27375	0.26341	0.28928	0.2614	0.18406	0.21806	-2.6583	-2.6396	-2.9479	-3.2417	-2.8667	-3.0604	-2.6917	-2.9479	-3.3167	-2.8583	-2.9854	-2.9813	-2.7104	-3.075	-2.7417	-2.8771	74.450	82.122	-96.246	188.782	39.693	209.743	212.093	142.222	128.525	160.732	178.028	-27.101	156.062	159.822	150.879	-129.018	0.00020098	0.0004886	0.000123	1213.3	3.446e-07	1.0063e-06	1279.2	255.99	1.9491e-06	5.6212e-06	317.62	89.581	70.825	20.89	2.8083e-06	29.276	0.00081301	0.0013806	0.00036801	1196.3	1.3744e-05	1.5054e-05	1262.3	255.6	1.3612e-05	1.5347e-05	317.66	90.777	71.894	21.22	1.4411e-05	29.801	-75.334	-33.613	-50.117	-128.028	208.815	-37.944	-127.953	-121.112	3.150	-1.015	-121.377	-115.036	-114.348	-107.216	18.844	-108.154	-8191	255	
780.027	1	1	0	0	0.21394	0.27336	0.14059	0.23997	0.019292	0.13647	0.20287	0.21933	0.12356	0.090171	0.18917	0.28505	0.037323	0.063178	0.12891	0.13759	-2.8187	-2.7333	-3.0208	-3.0604	-2.7833	-3.1	-3.15	-2.6708	-3.025	-2.9042	-3.0479	-2.8771	-2.7188	-3.1833	-2.9333	-2.7271	-122.339	-95.702	-67.597	-128.498	25.190	165.164	81.646	204.271	7.985	-42.697	205.448	-108.457	175.359	142.266	179.998	168.236	0.00017317	0.0002572	9.5482e-05	1215.6	3.9403e-06	2.4581e-06	1275.9	256.17	1.9952e-06	2.5743e-06	319.32	89.856	70.846	20.871	6.8979e-06	29.176	0.00080765	0.0013716	0.00037389	1196.2	1.3811e-05	1.4827e-05	1261.4	255.49	1.3717e-05	1.4972e-05	317.71	90.913	71.995	21.175	1.4433e-05	29.775	-86.198	-16.774	-74.077	-127.970	-49.113	-3.623	-127.809	-120.879	-3.003	-24.969	-121.126	-114.775	-114.327	-107.730	27.103	-107.989	-8191	255	
780.123	1	1	0	0	0.1235	0.26348	0.1951	0.32146	0.13215	0.042683	0.15696	0.30758	0.31081	0.053542	0.20126	0.2481	0.12031	0.078022	0.10841	0.1276	-2.5354	-2.9313	-2.8417	-3.1562	-2.8937	-3.0312	-3.1188	-2.825	-3.1562	-3.0417	-2.7854	-3.1375	-2.9833	-2.9625	-2.9375	-2.775	69.850	-41.698	152.763	215.854	147.816	-67.254	73.298	203.586	-43.921	56.923	-82.019	124.636	-13.660	23.295	156.747	-57.325	0.0002036	0.00024037	6.8979e-05	1216.1	5.0471e-06	4.3788e-06	1279.7	256.7	3.8467e-06	4.0285e-06	319.11	89.549	71.118	20.731	2.0846e-06	29.42	0.00083423	0.0013895	0.00038459	1198.5	1.3617e-05	1.5116e-05	1264	256.11	1.3764e-05	1.5547e-05	317.75	90.821	72.102	21.18	1.4585e-05	29.84	-86.744	-64.653	-111.604	-128.172	60.681	-7.010	-127.927	-121.047	19.792	59.020	-121.394	-114.901	-114.467	-107.786	-26.091	-108.137	-8191	255	
780.219	1	1	0	0	0.32191	0.016933	0.2117	0.26845	0.075022	0.10578	0.25816	0.14504	0.092695	0.059281	0.1109	0.18721	0.049079	0.31722	0.083864	0.1057	-2.7479	-2.8729	-2.7521	-3.2396	-2.8958	-2.8875	-3.1104	-2.7	-3.025	-2.7812	-2.8604	-3.1667	-2.9688	-2.7958	-2.8625	-2.6979	61.330	90.122	-63.382	182.741	-107.109	-0.976	96.417	177.346	51.201	-2.433	-106.442	-104.250	-66.887	183.233	-56.036	41.276	0.00018741	0.00057489	6.5558e-05	1218.8	3.8824e-06	4.3698e-06	1281.5	256.38	3.8732e-06	1.7088e-06	319.77	89.666	71.163	20.818	4.0884e-06	29.273	0.00081459	0.0013546	0.00037636	1199	1.3754e-05	1.5238e-05	1265.4	255.87	1.3723e-05	1.5514e-05	317.94	90.761	72.172	21.208	1.4353e-05	29.794	-82.482	-17.101	-48.133	-128.211	34.939	-17.086	-128.235	-121.059	43.449	-94.220	-121.033	-114.533	-114.214	-107.468	43.634	-108.002	-8191	255	
780.291	1	1	0	0	0.022279	0.035667	0.13743	0.12132	0.067954	0.072752	0.22447	0.23813	0.23555	0.05207	0.22844	0.1155	0.18862	0.19158	0.067807	0.065768	-2.6958	-2.8563	-2.8021	-3.3167	-2.8312	-2.9896	-3.2604	-2.5042	-2.9125	-2.8979	-2.8312	-3.1875	-2.7104	-3.0104	-2.9917	-2.7667	-83.944	-94.217	160.732	219.816	-1.506	-47.085	102.508	145.562	-131.037	32.107	207.183	-52.729	-99.531	158.632	115.390	72.025	0.00017864	0.00033322	0.00016381	1217.2	3.9268e-06	3.8617e-06	1283.4	257.3	3.815e-06	1.7106e-06	317.72	89.644	71.385	20.994	3.164e-06	29.055	0.00081113	0.0013861	0.00038587	1199.8	1.399e-05	1.5522e-05	1266.3	256.2	1.3587e-05	1.5678e-05	317.92	90.988	72.17	21.262	1.4731e-05	29.738	-73.958	-58.624	-25.585	-128.173	41.569	3.805	-128.004	-121.084	-22.870	53.815	-121.149	-114.900	-114.128	-107.290	21.993	-107.793	-8191	255	
780.411	1	1	0	0	0.21612	0.22307	0.052154	0.21131	0.13631	0.27644	0.20614	0.20517	0.3893	0.10054	0.064053	0.29926	0.12575	0.17383	0.24655	0.048583	-2.6167	-3.0771	-2.6188	-3.3167	-2.8125	-2.8146	-3.5146	-2.7771	-2.9271	-3.0438	-2.85	-3.1958	-2.6958	-2.9313	-3.0396	-2.8604	148.481	-121.983	76.495	194.750	163.115	-88.647	170.748	219.339	-55.844	176.215	170.707	219.608	154.215	94.088	-25.377	15.422	0.00021976	0.0003275	0.00015321	1220.4	1.7925e-06	4.7752e-06	1286.7	257.49	3.6382e-06	1.937e-06	319.39	89.698	71.677	21.01	2.6853e-06	29.312	0.00082851	0.0013931	0.00039227	1201.5	1.4186e-05	1.5801e-05	1270.8	257.07	1.4411e-05	1.5966e-05	318.9	91.157	72.489	21.299	1.4943e-05	29.844	-76.885	-42.942	-29.610	-127.904	24.791	9.129	-127.882	-120.988	-31.843	-45.727	-121.857	-114.683	-114.427	-107.808	-20.261	-107.856	-8191	255	
780.507	1	1	0	0	0.22423	0.25746	0.18725	0.11512	0.2622	0.14947	0.20918	0.27778	0.13264	0.16301	0.067926	0.15646	0.19419	0.15489	0.22673	0.15644	-2.7313	-2.8458	-2.6375	-3.2583	-2.7729	-2.8958	-3.4313	-2.7812	-3.0187	-3.0583	-2.7646	-3.0229	-2.9521	-2.9437	-3.0542	-3.0354	-18.483	-28.500	-121.610	108.856	111.732	-3.409	135.491	-61.815	-5.078	195.730	159.641	-39.250	171.799	148.609	-105.955	177.827	0.00018697	0.00032343	0.000104	1223.8	4.9513e-06	6.1008e-06	1288.6	257.03	2.983e-06	3.2504e-06	319.04	90.295	71.764	20.846	4.1573e-06	29.449	0.00083382	0.0014063	0.00038572	1205.1	1.4378e-05	1.5935e-05	1271.1	257.01	1.4079e-05	1.5682e-05	319.55	91.346	72.344	21.288	1.4467e-05	29.921	-77.506	-60.335	-20.982	-128.088	5.094	3.111	-128.157	-121.154	-28.195	-10.430	-121.275	-114.647	-114.278	-107.668	51.613	-108.441	-8191	255	
780.604	1	1	0	0	0.16904	0.15117	0.1806	0.30756	0.1622	0.1746	0.080059	0.051504	0.10644	0.13307	0.18952	0.18142	0.28844	0.06909	0.18554	0.29484	-2.6	-3.0187	-2.5271	-3.0771	-3.175	-2.6312	-3.4854	-2.7771	-2.7104	-2.9521	-2.825	-3.2125	-2.9854	-2.6188	-3.2854	-2.825	192.858	35.722	215.637	192.474	-115.122	199.348	171.228	155.042	-91.702	141.608	201.784	-119.383	192.237	-106.487	182.781	186.205	0.0001802	0.00028128	0.00011283	1223.4	1.0459e-06	3.3126e-06	1291.3	257.46	4.193e-06	2.8364e-06	320.04	89.892	71.231	20.897	2.8051e-06	29.235	0.00084852	0.0014245	0.00039027	1205.7	1.4336e-05	1.5848e-05	1271.5	257.65	1.4379e-05	1.537e-05	319.78	91.28	72.463	21.333	1.4597e-05	29.861	-85.875	-3.476	-70.164	-128.115	-33.843	9.685	-127.947	-121.195	11.381	-55.350	-121.429	-114.767	-114.280	-107.642	42.280	-108.155	-8191	255	
780.700	1	1	0	0	0.18438	0.10142	0.11742	0.11789	0.22929	0.16293	0.19199	0.13692	0.24125	0.2338	0.024657	0.34318	0.10162	0.16879	0.022924	0.075812	-2.6063	-2.9688	-2.5729	-3.0625	-3.2125	-2.8	-3.2521	-2.8396	-2.7167	-3.3875	-2.9062	-3.1167	-2.9667	-2.6958	-3.1792	-2.8604	96.029	48.138	80.508	142.081	103.162	-15.188	109.664	-46.614	187.000	157.467	-19.487	203.639	206.041	139.380	-81.808	166.228	0.0001939	0.0002458	0.00014282	1224.4	3.1646e-06	5.8902e-06	1288.6	258.05	2.709e-06	8.3773e-07	320.3	90.492	72.247	21.014	3.7562e-06	29.335	0.00084327	0.0014238	0.00039586	1207.4	1.4202e-05	1.5929e-05	1271.8	257.35	1.4338e-05	1.5574e-05	319.59	91.446	72.59	21.299	1.4786e-05	29.898	-71.143	-30.950	-32.037	-128.020	-1.719	-12.121	-127.607	-121.127	36.076	2.889	-121.349	-114.846	-114.356	-107.167	-0.287	-108.071	-8191	255	
780.819	1	1	0	0	0.17246	0.077836	0.25417	0.30932	0.02577	0.13293	0.31161	0.091783	0.13506	0.13349	0.21786	0.11612	0.11933	0.048505	0.29376	0.159	-2.3979	-2.8229	-2.7313	-3.25	-2.9833	-2.6312	-3.2125	-3.0021	-2.8875	-3.0167	-2.6854	-2.7938	-3.2167	-2.975	-3.1833	-3.0604	102.067	177.505	-50.191	200.780	74.649	98.348	-135.776	-98.011	21.319	75.781	190.409	106.396	-108.306	54.042	129.898	213.128	0.00020237	0.00029799	7.3778e-05	1226.1	1.4682e-06	3.3742e-06	1289.2	257.88	3.1127e-06	2.8089e-06	322.15	90.336	71.819	20.934	4.9799e-06	29.417	0.00084144	0.0013949	0.00038843	1209.7	1.4216e-05	1.6179e-05	1272.5	257.74	1.4659e-05	1.6146e-05	320.67	91.459	72.64	21.275	1.4761e-05	30.024	-78.590	-67.024	-57.634	-127.961	79.911	14.068	-127.929	-121.048	-37.214	-14.630	-121.543	-114.787	-114.681	-107.364	30.260	-107.923	-8191	255	
780.892	1	1	0	0	0.13318	0.046061	0.16716	0.30146	0.21769	0.20998	0.21966	0.05497	0.095605	0.21009	0.2559	0.10168	0.22027	0.10657	0.19622	0.21595	-2.4521	-2.9146	-2.7333	-2.95	-3.1729	-2.8271	-3.3312	-2.9125	-2.8208	-3.4021	-2.9792	-2.9208	-3.0125	-2.8479	-3.0563	-3.1813	-107.189	-76.229	80.959	209.647	83.879	220.769	134.040	209.846	-88.811	-19.716	179.006	-86.829	-74.891	75.052	165.354	-5.867	0.00023221	0.00016038	0.00018941	1223.1	3.038e-06	4.4618e-06	1290.4	258.67	3.285e-06	2.9833e-06	320.87	90.365	71.66	21.082	3.0185e-06	29.362	0.00086197	0.0014276	0.00040702	1208.7	1.4572e-05	1.5823e-05	1274.2	258.18	1.4817e-05	1.5924e-05	320.55	91.632	72.616	21.368	1.4989e-05	29.889	-81.061	-89.019	-49.270	-128.110	3.794	41.146	-127.803	-121.130	34.344	8.280	-121.229	-115.046	-114.349	-107.704	-28.718	-108.029	-8191	255	
780.988	1	1	0	0	0.16623	0.14136	0.10857	0.052148	0.031641	0.10279	0.23856	0.17419	0.232	0.18796	0.32849	0.13459	0.098791	0.20519	0.19824	0.14655	-2.3979	-2.8104	-2.7146	-3.1063	-3.2583	-2.6521	-2.9521	-3.1917	-2.6583	-3.1896	-2.9875	-2.7208	-3.0729	-2.75	-3.025	-3.2	-126.087	137.932	-101.060	-54.552	123.039	-28.025	128.590	-94.395	159.967	41.834	203.246	209.124	-112.612	-106.837	100.574	-35.575	0.00015857	0.00033046	0.00011425	1221.5	6.5746e-07	3.0524e-06	1282.7	258.35	5.9028e-06	3.7452e-06	321.43	90.403	71.661	20.968	2.2631e-06	29.437	0.00085364	0.001494	0.0003975	1206.6	1.4376e-05	1.6422e-05	1270.8	257.99	1.4886e-05	1.6276e-05	320.42	91.623	72.744	21.371	1.5405e-05	30.033	-91.435	-30.871	-79.384	-127.962	14.030	57.062	-127.958	-121.290	-2.578	4.155	-121.097	-114.884	-114.432	-107.484	9.093	-108.270	-8191	255	
781.107	1	1	0	0	0.17664	0.28518	0.11384	0.16928	0.20143	0.10405	0.2119	0.093067	0.15185	0.23157	0.20091	0.20482	0.12371	0.11164	0.17844	0.19719	-2.2667	-2.9354	-2.9854	-2.975	-3.1208	-2.6312	-3.0167	-3.1604	-2.6833	-2.975	-3.1437	-2.9208	-3.0333	-3.0104	-2.8729	-3.1937	-73.716	-128.176	209.516	190.369	-14.417	-60.910	146.140	191.095	80.921	105.008	215.757	143.712	-27.157	-125.814	109.944	-117.840	0.0001955	0.000301	0.00010033	1225.6	1.727e-06	1.9758e-06	1290.9	259.31	1.8659e-06	3.1513e-06	321.98	90.541	71.97	21.015	1.8153e-06	29.435	0.00086845	0.0014567	0.00040699	1207.7	1.4518e-05	1.6192e-05	1273.5	258.38	1.4975e-05	1.5895e-05	320.48	91.684	72.687	21.368	1.5415e-05	29.976	-76.131	-63.294	-87.043	-128.128	54.854	-67.771	-127.996	-121.349	-58.022	-14.712	-121.425	-115.022	-114.331	-107.584	27.466	-108.324	-8191	255	
781.203	1	1	0	0	0.068482	0.11477	0.12042	0.27115	0.20239	0.15326	0.1227	0.21706	0.24258	0.087857	0.2383	0.34489	0.20083	0.19277	0.033808	0.24362	-2.1896	-2.9854	-3.0646	-2.6896	-3.2771	-3.0729	-2.9	-3.0771	-2.8479	-3.1813	-2.9708	-2.875	-3.2125	-2.8042	-2.8458	-3.2854	110.257	-133.988	21.691	147.896	127.878	171.244	171.328	90.397	204.029	-122.979	207.367	185.510	210.381	201.179	-86.838	193.560	0.00021692	0.00037538	8.3585e-05	1223.8	5.7992e-06	4.3104e-06	1286.5	259.42	4.9679e-06	4.1614e-06	321.13	90.34	71.235	21.046	2.0465e-06	29.323	0.00087406	0.0014629	0.00040287	1206.7	1.495e-05	1.693e-05	1272.3	258.18	1.4741e-05	1.6883e-05	320.88	91.581	72.573	21.368	1.5647e-05	29.957	-81.132	23.784	-47.760	-127.937	43.977	-5.695	-127.756	-120.956	-38.521	4.704	-121.422	-115.144	-114.501	-107.591	32.954	-107.987	-8191	255	
781.299	1	1	0	0	0.23567	0.091026	0.10824	0.21317	0.11704	0.16779	0.29536	0.12159	0.15556	0.152	0.10841	0.23319	0.08177	0.25005	0.16497	0.13561	-2.4458	-2.9229	-2.8021	-2.8604	-3.1375	-2.9542	-3.0083	-3.0604	-2.7146	-3.0021	-3.2875	-2.825	-3.0875	-2.9208	-2.9	-3.275	49.726	-26.463	-22.382	169.830	17.218	57.303	193.119	102.054	214.637	46.458	169.686	208.341	-38.434	-67.499	208.624	-50.338	0.0001719	0.00020801	5.6869e-05	1219.9	2.8648e-06	2.7882e-06	1288.1	258.48	1.0988e-06	4.1813e-06	320.97	90.538	71.767	20.92	4.9782e-06	29.229	0.00088223	0.0014833	0.00042134	1204.4	1.4763e-05	1.6793e-05	1272.9	258.12	1.5434e-05	1.7045e-05	320.52	91.635	72.593	21.329	1.5859e-05	29.98	-86.831	-69.521	-47.864	-127.968	-50.617	10.727	-127.928	-120.916	-9.316	30.906	-121.384	-115.045	-114.448	-107.741	44.857	-107.893	-8191	255	
781.420	1	1	0	0	0.19411	0.14747	0.13196	0.34102	0.36338	0.10715	0.24674	0.22489	0.19527	0.234	0.18026	0.13583	0.22134	0.16227	0.27803	0.082644	-2.4333	-2.7188	-2.9771	-3.0146	-2.875	-2.9792	-2.8042	-3.1354	-2.7146	-2.7729	-3.1354	-2.5917	-3.1333	-2.8646	-2.5062	-3.2	-33.000	131.568	-95.526	181.432	-105.195	-6.117	216.434	-81.496	-37.466	9.096	92.204	201.318	212.119	196.761	-92.462	8.524	0.00019838	0.00015468	3.9644e-05	1226.3	2.6398e-06	5.5826e-06	1287.7	257.86	4.1692e-06	1.3392e-06	320.45	89.856	71.763	21.014	5.4413e-06	29.418	0.00091292	0.0015207	0.0004194	1207.3	1.5176e-05	1.6456e-05	1272.1	257.83	1.53e-05	1.6882e-05	319.88	91.398	72.719	21.327	1.5977e-05	29.974	-82.192	-98.456	49.284	-128.042	17.412	4.015	-127.967	-121.277	7.109	17.955	-121.430	-114.564	-114.500	-107.343	38.611	-108.096	-8191	255	
781.492	1	1	0	0	0.15634	0.077859	0.11592	0.043631	0.079585	0.071965	0.16265	0.17766	0.12959	0.1359	0.18021	0.079205	0.17403	0.15388	0.054575	0.09137	-2.5396	-2.7812	-3.0042	-2.7604	-3.025	-3.1521	-2.9083	-3.0792	-2.7313	-2.8646	-3.35	-2.8479	-2.9917	-2.9688	-2.6292	-3.0438	176.672	-21.918	102.864	-13.111	-135.024	67.817	200.088	80.564	-5.397	37.199	31.940	-55.744	-67.663	-95.351	133.340	98.851	0.0001846	0.00033307	4.6499e-05	1222.3	2.8177e-06	2.8749e-06	1287.3	258.9	3.4388e-06	1.0917e-06	321.52	90.077	71.61	20.936	4.3313e-06	29.489	0.00089713	0.0015137	0.00041827	1204.6	1.5336e-05	1.7317e-05	1270.8	258.15	1.5212e-05	1.6937e-05	320.88	91.325	72.554	21.31	1.5856e-05	29.983	-79.802	-40.130	-95.325	-128.047	-29.782	-3.046	-127.867	-121.032	18.292	70.612	-121.295	-114.751	-114.317	-107.685	14.824	-107.979	-8191	255	
781.588	1	1	0	0	0.12525	0.12648	0.25983	0.39028	0.25756	0.22294	0.23302	0.1438	0.16407	0.12148	0.29759	0.3143	0.1229	0.18863	0.17371	0.065698	-2.6437	-2.6729	-2.9792	-2.8438	-2.8354	-3.0938	-2.9208	-3.1688	-2.8729	-2.6833	-3.2729	-3.0792	-2.9167	-3.025	-2.7	-3.1021	145.711	132.508	-39.821	179.422	-136.536	-98.517	158.790	115.830	37.291	136.797	166.159	192.668	145.730	-132.061	-15.246	-64.678	0.00017094	0.00012282	8.7872e-05	1221.5	3.0612e-06	2.2381e-06	1279	258.6	4.3986e-06	3.39e-06	318.94	90.019	71.537	21.037	3.4386e-06	29.432	0.0008901	0.0015076	0.00041222	1201.5	1.5079e-05	1.7516e-05	1265.9	258.08	1.5176e-05	1.7131e-05	319.4	91.315	72.555	21.309	1.5813e-05	29.949	-90.955	-40.749	-13.356	-128.182	-18.694	-44.090	-127.954	-121.106	-30.873	3.455	-121.198	-114.508	-114.505	-107.705	25.061	-107.870	-8191	255	
781.708	1	1	0	0	0.14449	0.25905	0.30873	0.080391	0.122	0.13555	0.40946	0.16582	0.17912	0.079455	0.11103	0.074532	0.097456	0.026396	0.020899	0.11499	-2.7313	-2.6458	-3.0896	-2.9729	-2.9708	-3.1833	-2.9854	-3.1354	-2.8479	-2.8729	-3.4458	-3.0479	-2.9354	-3.225	-2.5333	-2.8646	89.459	-76.447	-51.551	142.934	127.636	44.395	148.635	155.023	13.589	-53.384	120.740	-40.348	-108.072	2.404	86.586	92.513	0.00017469	0.00047001	0.0001611	1221.3	1.3642e-06	3.644e-06	1281.5	257.6	2.8138e-06	4.4197e-06	319.1	90.084	70.98	20.936	4.7663e-06	29.358	0.00088975	0.0015149	0.00040028	1200.3	1.5155e-05	1.6897e-05	1265.1	256.87	1.5239e-05	1.647e-05	318.66	91.197	72.326	21.255	1.5523e-05	29.844	-75.629	-24.490	-58.082	-127.939	41.616	-21.327	-127.931	-120.824	2.434	18.366	-121.151	-114.680	-114.292	-107.422	19.310	-107.837	-8191	255	
781.805	1	1	0	0	0.04814	0.093637	0.19801	0.30174	0.20258	0.1825	0.1942	0.13969	0.1257	0.24478	0.061418	0.14972	0.1334	0.14192	0.12183	0.16916	-2.5479	-2.6542	-3.1646	-3.2938	-2.8937	-3.1583	-2.975	-3.0708	-3.2167	-2.8354	-3.2729	-2.9542	-2.7875	-3.2229	-2.6292	-3.05	-28.924	175.721	175.887	135.212	167.614	221.009	162.938	125.064	66.948	-42.316	-83.096	95.812	74.226	-40.726	185.457	-109.037	0.00019511	0.0002311	5.7883e-05	1212.7	5.5539e-06	4.3229e-06	1274.4	257.44	1.2137e-06	4.711e-06	319.1	90.076	72.04	20.977	3.1598e-06	29.427	0.00087943	0.0014738	0.00040828	1195	1.5014e-05	1.647e-05	1259	257.06	1.4646e-05	1.6384e-05	319.07	91.07	72.548	21.237	1.5411e-05	29.892	-76.693	-43.033	-29.279	-128.049	63.084	27.001	-127.920	-120.857	49.879	33.764	-120.938	-114.916	-114.062	-107.564	-16.951	-107.969	-8191	255	
781.901	1	1	0	0	0.086084	0.11394	0.21616	0.35762	0.224	0.069682	0.14316	0.21546	0.087693	0.1802	0.26702	0.071083	0.03308	0.13244	0.15372	0.2182	-2.5875	-2.85	-2.8583	-2.9792	-2.3708	-3.0312	-3.0396	-2.9104	-3.1667	-2.7208	-2.9188	-2.9458	-2.6375	-3.0229	-2.9104	-2.9875	190.643	209.464	-93.802	197.047	105.786	189.296	181.895	105.946	-86.692	120.689	-120.600	7.198	-84.086	-83.842	68.927	7.337	0.00020098	0.00031726	8.6018e-05	1208.8	5.3923e-06	3.8656e-06	1273.1	256.49	3.3982e-06	4.3428e-06	319.13	89.644	71.227	20.831	1.481e-06	29.255	0.00086461	0.0014789	0.00041463	1191.9	1.4956e-05	1.644e-05	1256.7	256.22	1.4907e-05	1.6555e-05	317.92	90.95	72.148	21.229	1.5233e-05	29.833	-85.249	-44.827	-29.064	-127.904	0.164	-39.860	-127.991	-120.936	32.156	-7.649	-121.263	-114.601	-114.350	-107.148	34.900	-108.187	-8191	255	
781.995	1	1	0	0	0.056135	0.18043	0.40634	0.20583	0.15683	0.070593	0.35166	0.18105	0.15759	0.25175	0.063443	0.34532	0.2449	0.058372	0.23006	0.087561	-2.7604	-2.4542	-2.6333	-3.0292	-2.7104	-3.1125	-3.1375	-3.0479	-3.0563	-2.5771	-2.9542	-2.9271	-2.7417	-3.1625	-2.8875	-3.0146	9.779	29.024	-106.674	185.515	-100.101	211.726	167.865	-107.084	138.017	198.155	26.481	204.975	-47.420	186.792	16.814	-71.414	0.00017583	0.00029266	0.00010319	1203.7	5.5538e-06	6.1023e-06	1267.3	256	3.2161e-06	6.4084e-06	316.56	89.707	71.048	20.979	3.775e-06	29.275	0.00084438	0.0014672	0.00039783	1185.1	1.468e-05	1.6395e-05	1250.2	255.08	1.4911e-05	1.6353e-05	316.72	90.748	72.031	21.215	1.4787e-05	29.744	-85.605	-80.764	-28.988	-128.069	27.265	-4.317	-127.982	-120.982	18.193	-6.068	-120.947	-114.746	-114.451	-107.473	2.273	-107.696	-8191	255	
782.116	1	1	0	0	0.18929	0.19703	0.14842	0.17674	0.18021	0.10308	0.19218	0.10076	0.36309	0.2548	0.16754	0.22405	0.19374	0.22633	0.025091	0.19742	-2.7479	-2.6625	-2.9938	-3.2375	-2.6021	-2.8792	-3.2604	-2.8854	-3	-2.9625	-3.1729	-3.0375	-2.7229	-2.9417	-2.9583	-2.8583	-133.473	-135.584	188.996	-138.794	-90.377	-100.515	75.799	181.667	102.260	-92.313	205.269	216.702	158.871	79.375	67.567	170.871	0.00013364	0.0003622	0.0001353	1199.4	2.9684e-06	3.4628e-06	1254.7	255.1	3.6031e-06	4.1012e-06	316.37	89.353	71.003	20.853	2.2422e-06	29.097	0.00082883	0.0014316	0.00038305	1178	1.4213e-05	1.5742e-05	1241.2	253.95	1.3918e-05	1.558e-05	315.46	90.527	71.687	21.176	1.4519e-05	29.665	-82.381	-4.715	-50.254	-127.897	-4.450	-27.722	-127.990	-120.913	-3.669	17.310	-121.276	-114.727	-114.686	-107.364	16.799	-107.851	-8191	255	
782.187	1	1	0	0	0.14652	0.090958	0.07061	0.27711	0.10433	0.21245	0.21432	0.1719	0.1932	0.2267	0.22852	0.037713	0.2117	0.1975	0.072238	0.10238	-2.5979	-2.6937	-2.7104	-3.1729	-2.7271	-3.0563	-3.0771	-2.5708	-3.1271	-3.0042	-3	-3.2104	-2.6813	-3.0729	-3.1396	-2.775	-94.319	139.531	69.703	-126.747	48.954	-121.445	126.467	133.441	19.978	-72.987	-70.257	141.720	73.771	120.033	-100.427	210.314	0.00019208	0.00026181	0.00012883	1187.3	1.2617e-06	4.6224e-06	1248.1	254.11	2.6662e-06	2.023e-06	315.85	89.356	70.808	20.94	2.6974e-06	29.11	0.00082442	0.0013796	0.00038181	1170.6	1.3982e-05	1.5468e-05	1234.6	253.5	1.3904e-05	1.5206e-05	314.58	90.377	71.559	21.157	1.4019e-05	29.684	-81.797	-57.478	-78.368	-127.974	-21.607	15.012	-127.963	-120.894	-14.231	0.330	-121.321	-114.746	-114.716	-107.616	31.357	-108.294	-8191	255	
782.284	1	1	0	0	0.42114	0.27847	0.12384	0.18361	0.070522	0.10833	0.19947	0.28992	0.17403	0.0083476	0.14033	0.16143	0.38805	0.060387	0.12639	0.28371	-2.7854	-2.8563	-2.6646	-3.2938	-2.6458	-2.975	-3.1146	-2.8917	-3.1	-2.8563	-2.7667	-3.1063	-2.8667	-3.0062	-3.0667	-2.7375	85.331	-12.229	-27.880	166.183	-33.282	196.753	117.412	214.609	-137.605	-87.879	168.462	25.062	116.698	-111.721	67.252	-86.496	0.00018001	0.00053118	5.7578e-05	1184.1	2.6984e-06	4.4131e-06	1247.8	254.34	4.2556e-06	2.6706e-06	315.08	89.537	70.686	20.82	2.7894e-06	29.278	0.00080283	0.0013645	0.00038361	1167	1.3712e-05	1.5014e-05	1233.5	253.32	1.3473e-05	1.5054e-05	314.91	90.627	71.6	21.176	1.383e-05	29.69	-87.455	-62.130	-99.894	-127.767	-10.831	13.546	-127.839	-120.964	-10.627	26.484	-121.183	-114.718	-114.083	-107.796	23.749	-107.967	-8191	255	
#DATA ENDS
