BOXY.EXE: ISS Imagent and Oximeter Data Acquisition Program Version 0.80
Ascii Record File

#ACQ INFORMATION
2  Detector Channels 
16  External MUX Channels 
1  Auxiliary Channels 
5000  Waveform (CCF) Frequency (Hz)
1  Waveforms Skipped 
30  Waveforms Averaged 
1  Cycles Averaged 
16  Acquisitions per Waveform 
10.0806  Updata Rate (Hz) 

#FILE INFORMATION
TRUE -- External MUX Channel results are PARSED.
FALSE -- AC DC and Phase are NOT grouped.
TRUE -- Companion Program Settings File CREATED.
FALSE -- AC data not excluded
FALSE -- DC data not excluded
FALSE -- Phase data not excluded
FALSE -- Auxillary Chn. data not excluded
Tab delimiters

#CALIBRATION STATE
TRUE -- Waveform Calibration Values APPLIED.


#AUX CALIBRATION VALUES
Val Type	aux-1	

Term	1.0000e+00	
Factor	0.0000e+00	


#WF CALIBRATION VALUES
A = Detector Channel
Val Type	A-AC1	A-AC2	A-AC3	A-AC4	A-AC5	A-AC6	A-AC7	A-AC8	A-AC9	A-AC10	A-AC11	A-AC12	A-AC13	A-AC14	A-AC15	A-AC16	A-DC1	A-DC2	A-DC3	A-DC4	A-DC5	A-DC6	A-DC7	A-DC8	A-DC9	A-DC10	A-DC11	A-DC12	A-DC13	A-DC14	A-DC15	A-DC16	A-Ph1	A-Ph2	A-Ph3	A-Ph4	A-Ph5	A-Ph6	A-Ph7	A-Ph8	A-Ph9	A-Ph10	A-Ph11	A-Ph12	A-Ph13	A-Ph14	A-Ph15	A-Ph16	

Term	0.00000e+00	0.00000e+00	0.00000e+00	0.00000e+00	0.00000e+00	0.00000e+00	0.00000e+00	0.00000e+00	0.00000e+00	0.00000e+00	0.00000e+00	0.00000e+00	0.00000e+00	0.00000e+00	0.00000e+00	0.00000e+00	0.00000e+00	0.00000e+00	0.00000e+00	0.00000e+00	0.00000e+00	0.00000e+00	0.00000e+00	0.00000e+00	0.00000e+00	0.00000e+00	0.00000e+00	0.00000e+00	0.00000e+00	0.00000e+00	0.00000e+00	0.00000e+00	0.00000e+00	0.00000e+00	0.00000e+00	0.00000e+00	0.00000e+00	0.00000e+00	0.00000e+00	0.00000e+00	0.00000e+00	0.00000e+00	0.00000e+00	0.00000e+00	0.00000e+00	0.00000e+00	0.00000e+00	0.00000e+00	
Factor	1.00000e+00	1.00000e+00	1.00000e+00	1.00000e+00	1.00000e+00	1.00000e+00	1.00000e+00	1.00000e+00	1.00000e+00	1.00000e+00	1.00000e+00	1.00000e+00	1.00000e+00	1.00000e+00	1.00000e+00	1.00000e+00	1.00000e+00	1.00000e+00	1.00000e+00	1.00000e+00	1.00000e+00	1.00000e+00	1.00000e+00	1.00000e+00	1.00000e+00	1.00000e+00	1.00000e+00	1.00000e+00	1.00000e+00	1.00000e+00	1.00000e+00	1.00000e+00	X	X	X	X	X	X	X	X	X	X	X	X	X	X	X	X	

B = Detector Channel
Val Type	B-AC1	B-AC2	B-AC3	B-AC4	B-AC5	B-AC6	B-AC7	B-AC8	B-AC9	B-AC10	B-AC11	B-AC12	B-AC13	B-AC14	B-AC15	B-AC16	B-DC1	B-DC2	B-DC3	B-DC4	B-DC5	B-DC6	B-DC7	B-DC8	B-DC9	B-DC10	B-DC11	B-DC12	B-DC13	B-DC14	B-DC15	B-DC16	B-Ph1	B-Ph2	B-Ph3	B-Ph4	B-Ph5	B-Ph6	B-Ph7	B-Ph8	B-Ph9	B-Ph10	B-Ph11	B-Ph12	B-Ph13	B-Ph14	B-Ph15	B-Ph16	

Term	0.00000e+00	0.00000e+00	0.00000e+00	0.00000e+00	0.00000e+00	0.00000e+00	0.00000e+00	0.00000e+00	0.00000e+00	0.00000e+00	0.00000e+00	0.00000e+00	0.00000e+00	0.00000e+00	0.00000e+00	0.00000e+00	0.00000e+00	0.00000e+00	0.00000e+00	0.00000e+00	0.00000e+00	0.00000e+00	0.00000e+00	0.00000e+00	0.00000e+00	0.00000e+00	0.00000e+00	0.00000e+00	0.00000e+00	0.00000e+00	0.00000e+00	0.00000e+00	-5.53345e+01	-1.27015e+02	-1.27340e+02	-1.81716e+02	-4.47746e+01	-6.81240e+01	-1.57128e+02	-1.62015e+02	-4.21788e+01	-6.97516e+01	-1.72142e+02	-1.70362e+02	-1.80059e+02	-1.77178e+02	-5.13089e+01	-1.50265e+02	
Factor	1.80857e-05	1.60277e-04	4.48908e-05	1.58796e-01	1.75125e-06	1.97752e-06	1.70809e-01	6.08193e-02	1.37557e-06	1.84322e-06	8.34618e-02	2.77414e-02	2.97006e-02	8.95166e-03	1.69608e-06	1.25925e-02	1.30705e-05	2.57931e-05	7.13724e-06	8.02894e-02	2.50439e-07	2.91465e-07	8.12663e-02	3.08636e-02	2.52611e-07	2.90207e-07	4.12275e-02	1.37531e-02	1.53383e-02	4.59568e-03	2.66348e-07	6.24348e-03	X	X	X	X	X	X	X	X	X	X	X	X	X	X	X	X	



#DISTANCE SETTINGS
A = Detector Channel
A-1	A-2	A-3	A-4	A-5	A-6	A-7	A-8	A-9	A-10	A-11	A-12	A-13	A-14	A-15	A-16	

2.5000e+00	3.0000e+00	2.5000e+00	3.0000e+00	2.0000e+00	3.0000e+00	1.5000e+00	3.0000e+00	3.0000e+00	3.0000e+00	3.0000e+00	3.0000e+00	3.0000e+00	3.0000e+00	1.5000e+00	3.0000e+00	

B = Detector Channel
B-1	B-2	B-3	B-4	B-5	B-6	B-7	B-8	B-9	B-10	B-11	B-12	B-13	B-14	B-15	B-16	

1.0000e+01	1.0000e+01	1.0000e+01	1.4400e+00	1.0000e+01	1.0000e+01	1.5100e+00	1.9400e+00	1.0000e+01	1.0000e+01	1.9900e+00	2.4900e+00	2.4100e+00	2.9000e+00	1.0000e+01	2.9800e+00	




#DATA BEGINS
time	group	step	mark	flag	A-AC1	A-AC2	A-AC3	A-AC4	A-AC5	A-AC6	A-AC7	A-AC8	A-AC9	A-AC10	A-AC11	A-AC12	A-AC13	A-AC14	A-AC15	A-AC16	A-DC1	A-DC2	A-DC3	A-DC4	A-DC5	A-DC6	A-DC7	A-DC8	A-DC9	A-DC10	A-DC11	A-DC12	A-DC13	A-DC14	A-DC15	A-DC16	A-Ph1	A-Ph2	A-Ph3	A-Ph4	A-Ph5	A-Ph6	A-Ph7	A-Ph8	A-Ph9	A-Ph10	A-Ph11	A-Ph12	A-Ph13	A-Ph14	A-Ph15	A-Ph16	B-AC1	B-AC2	B-AC3	B-AC4	B-AC5	B-AC6	B-AC7	B-AC8	B-AC9	B-AC10	B-AC11	B-AC12	B-AC13	B-AC14	B-AC15	B-AC16	B-DC1	B-DC2	B-DC3	B-DC4	B-DC5	B-DC6	B-DC7	B-DC8	B-DC9	B-DC10	B-DC11	B-DC12	B-DC13	B-DC14	B-DC15	B-DC16	B-Ph1	B-Ph2	B-Ph3	B-Ph4	B-Ph5	B-Ph6	B-Ph7	B-Ph8	B-Ph9	B-Ph10	B-Ph11	B-Ph12	B-Ph13	B-Ph14	B-Ph15	B-Ph16	aux-1	digaux	

752.033	1	1	0	768	0.215	0.2349	0.067228	0.040257	0.16563	0.11686	0.036288	0.19939	0.25781	0.1551	0.22894	0.17414	0.2893	0.19301	0.11153	0.21488	-2.5667	-2.9792	-2.7687	-3.2854	-2.9979	-2.8438	-3.25	-2.8375	-3.125	-3.0146	-2.8125	-3.1708	-2.9875	-2.8271	-3.0208	-3.0187	-115.287	132.910	98.848	-94.025	-120.564	-41.492	78.880	141.174	215.975	126.358	170.137	76.461	178.825	-104.926	-33.668	-26.568	0.00035852	0.00037351	0.00015845	1362.4	4.3787e-06	6.0754e-06	1359.9	368.24	3.561e-06	5.8123e-06	420.08	140.26	121.85	41.926	4.2001e-06	52.304	0.00048971	0.00054488	0.00014782	1375.9	5.9891e-06	5.9271e-06	1374.9	374.38	5.8927e-06	5.9323e-06	426.7	143.45	124.61	43.026	5.9623e-06	53.326	-82.569	-58.120	-64.271	-129.821	1.468	18.418	-129.940	-125.048	3.164	31.916	-125.775	-121.372	-120.862	-116.291	7.878	-117.073	-8191	255	
752.129	1	1	0	0	0.17928	0.18322	0.23464	0.12511	0.15124	0.2723	0.16901	0.40088	0.059498	0.15552	0.35831	0.12404	0.10137	0.24833	0.29986	0.13341	-2.3125	-3.1021	-2.8292	-3.1271	-3.0021	-2.9125	-3.4313	-2.9542	-2.8521	-3.1271	-2.9625	-3.2292	-3.0292	-2.9771	-2.9	-3.0833	-33.013	-7.960	127.344	-132.481	44.797	-106.389	207.853	144.920	-110.654	73.264	216.405	103.333	191.211	137.574	22.261	-122.886	0.00038772	0.00055958	0.00013368	1361.2	5.1809e-06	6.6367e-06	1361.5	368.09	3.6681e-06	4.9894e-06	419.36	139.99	122	42.129	4.7324e-06	51.911	0.00051027	0.00055068	0.00015048	1374.5	5.8921e-06	5.9908e-06	1376.6	373.49	5.8811e-06	5.9136e-06	426.57	143.28	124.7	43.055	5.8824e-06	53.302	-84.777	-48.504	-28.452	-129.926	0.030	16.817	-129.920	-125.026	4.134	5.868	-125.714	-121.306	-120.835	-116.279	4.062	-116.949	-8191	255	
752.225	1	1	0	0	0.27882	0.14465	0.08917	0.32794	0.16315	0.27356	0.15769	0.21491	0.20187	0.13576	0.27165	0.22961	0.22458	0.25237	0.017987	0.18621	-2.4333	-3.1854	-2.7021	-3.3708	-3.0542	-2.8958	-3.3063	-3.0208	-2.9542	-3.1729	-3.0521	-2.9667	-3.0646	-2.9854	-2.9646	-3.0062	164.691	71.329	58.227	137.528	-21.884	-85.533	-108.435	215.864	-73.353	-4.342	167.189	108.946	-62.777	127.319	-47.589	169.060	0.00038407	0.00043713	0.00013082	1359.1	4.0085e-06	5.7103e-06	1360.5	368.26	4.9632e-06	5.0846e-06	420.41	140.39	121.31	41.943	5.7874e-06	51.903	0.00050561	0.00054123	0.00014944	1373.6	6.1441e-06	5.8955e-06	1373.6	373.84	5.95e-06	5.7098e-06	427.25	143.43	124.41	43.053	5.9374e-06	53.359	-82.960	-39.993	-45.331	-129.711	0.019	20.292	-129.960	-125.179	1.799	6.056	-125.771	-121.389	-120.653	-116.677	11.047	-117.106	-8191	255	
752.321	1	1	0	0	0.071877	0.30676	0.10469	0.062113	0.060913	0.17289	0.27894	0.10985	0.064054	0.18666	0.087355	0.32997	0.17418	0.11386	0.27095	0.3244	-2.4208	-3.2708	-2.8479	-3.0979	-3.1042	-2.7667	-3.1312	-3.05	-2.8417	-2.9813	-2.9792	-3.1396	-3.0479	-2.7667	-3.1688	-2.9896	149.221	67.011	-131.668	116.990	-98.709	27.110	51.186	156.188	51.092	173.007	171.689	194.300	139.282	147.419	147.092	196.155	0.00036831	0.00056873	0.00014801	1361.6	4.7185e-06	5.5177e-06	1357.3	366.14	3.5514e-06	5.0635e-06	419.41	139.93	121.33	42.116	3.9777e-06	51.924	0.0005012	0.00052575	0.00015027	1374.4	5.9333e-06	5.9192e-06	1374.9	373.04	5.9932e-06	5.9239e-06	427.2	143.25	124.37	43.075	5.7892e-06	53.236	-82.838	-36.099	-51.201	-129.895	7.441	4.592	-129.968	-125.278	-10.123	-16.555	-125.701	-121.245	-120.710	-116.342	-14.814	-117.033	-8191	255	
752.418	1	1	0	0	0.31448	0.31282	0.11035	0.039066	0.25228	0.13752	0.23843	0.28179	0.20773	0.1569	0.10058	0.29434	0.30127	0.058035	0.055063	0.18729	-2.2583	-3.15	-2.8833	-2.9292	-3.0875	-2.55	-3.1771	-3.1521	-2.7396	-3.1437	-2.9917	-3.1604	-3.2167	-3.0667	-3.0625	-3.0875	-74.096	-9.946	-95.124	192.441	-35.806	-95.136	93.826	-141.511	-73.706	3.829	193.820	-140.039	-106.110	-8.111	-61.083	180.350	0.00036227	0.00055767	0.00015327	1359.7	4.8159e-06	3.6118e-06	1358.7	367.09	5.4298e-06	6.5509e-06	420.48	139.5	122.15	42.103	4.9178e-06	52.055	0.00049927	0.00053499	0.00015494	1374.3	5.9083e-06	6.1475e-06	1375.3	373.56	6.0574e-06	6.0248e-06	427.53	143.19	124.8	43.078	5.787e-06	53.316	-84.149	-63.700	-48.992	-129.711	5.363	2.190	-129.870	-125.389	0.451	2.304	-125.914	-121.199	-120.821	-115.986	1.781	-117.094	-8191	255	
752.514	1	1	0	0	0.29467	0.13229	0.4665	0.11883	0.11006	0.2539	0.18286	0.052139	0.087785	0.13143	0.15962	0.46646	0.14783	0.10677	0.33668	0.097206	-2.6083	-3.1479	-2.9208	-3.0333	-3.0917	-2.8604	-3.2792	-2.9521	-2.9646	-3.2417	-3.1208	-3.0667	-3.1292	-2.875	-3.1188	-3.05	-140.184	-134.817	203.002	-137.204	162.614	36.895	171.650	-57.238	-118.458	47.024	192.942	-126.598	197.200	-142.434	149.447	142.805	0.00036364	0.00057193	9.0421e-05	1361	3.9003e-06	2.9673e-06	1357.7	368.58	3.9175e-06	3.3606e-06	420.58	139.92	121.81	42.122	4.8132e-06	52.065	0.00049965	0.00053021	0.00014605	1375.1	5.7747e-06	6.0941e-06	1374.8	373.63	6.1032e-06	5.7781e-06	427.57	143.4	124.82	43.068	6.0883e-06	53.333	-86.006	-46.310	-53.741	-129.769	27.606	28.437	-130.000	-125.209	4.598	20.131	-125.782	-121.221	-120.664	-116.352	13.419	-116.961	-8191	255	
752.633	1	1	0	0	0.23801	0.070986	0.064233	0.20368	0.17453	0.06926	0.048454	0.20797	0.38377	0.21565	0.15266	0.12011	0.2875	0.2782	0.22247	0.21753	-2.2833	-3.0396	-2.7188	-3.0875	-3.1479	-2.6583	-3.3542	-3.0021	-2.6063	-3.0125	-3.1271	-3.1146	-3.2083	-2.9062	-2.9729	-3.0896	6.397	-104.388	-106.776	-120.719	155.467	18.278	13.375	120.478	-71.369	163.745	162.206	200.122	154.465	-131.475	20.959	-66.686	0.00037035	0.00056311	0.00014333	1359.6	5.293e-06	3.0695e-06	1358.6	367.92	3.9598e-06	4.8189e-06	421.22	139.68	121.94	42.101	3.7404e-06	52.106	0.000507	0.00054655	0.00014905	1375.2	5.9098e-06	5.924e-06	1376.3	373.1	6.2058e-06	5.9964e-06	427.59	143.11	124.79	43.104	5.8819e-06	53.326	-85.321	-61.353	-53.702	-129.861	6.765	-7.178	-130.032	-125.172	11.424	18.782	-125.639	-121.509	-120.716	-116.412	3.160	-116.735	-8191	255	
752.729	1	1	0	0	0.23573	0.13854	0.14145	0.29541	0.14596	0.068203	0.26404	0.088625	0.21647	0.21618	0.11959	0.20777	0.10147	0.29918	0.15122	0.2618	-2.4542	-3	-2.925	-3.0062	-3.1208	-2.8896	-2.9792	-3.2896	-2.6083	-2.9083	-3.0896	-2.9208	-3.1917	-2.9792	-2.8292	-3.2812	69.534	40.337	193.521	200.991	103.997	-56.712	211.511	161.443	72.533	152.925	184.002	140.984	138.192	209.525	-122.191	89.024	0.00038643	0.00044175	0.00012411	1363.1	3.1245e-06	5.0472e-06	1356.1	367.74	3.7276e-06	7.0292e-06	421.55	140.42	121.39	41.97	5.5406e-06	51.924	0.0005116	0.00052269	0.00015138	1374.7	5.7893e-06	5.935e-06	1375.6	374.02	6.0516e-06	5.9644e-06	427.96	143.43	124.64	43.027	6.0211e-06	53.325	-81.816	-59.223	-49.033	-129.866	6.543	9.933	-130.012	-125.168	3.642	14.381	-125.779	-121.408	-120.669	-116.327	1.121	-117.018	-8191	255	
752.825	1	1	0	0	0.12352	0.20049	0.070005	0.14355	0.1743	0.14658	0.1003	0.16689	0.36696	0.12688	0.24242	0.27982	0.17822	0.18858	0.13252	0.20217	-2.2438	-2.975	-2.9854	-2.9625	-3.3208	-2.8021	-3.0396	-3.2646	-2.95	-2.9771	-3.1542	-2.7146	-3.2917	-3.0125	-2.7875	-3.3917	0.643	-75.527	89.562	-10.482	192.003	-77.241	73.438	71.276	171.006	-108.453	161.542	189.820	108.867	190.792	113.729	168.472	0.00037101	0.00025732	0.00011063	1361.1	5.0333e-06	5.2508e-06	1363.7	367.59	4.4494e-06	3.4739e-06	420.22	139.89	121.65	41.982	4.8736e-06	51.981	0.00050823	0.00053322	0.00014942	1375.9	5.8164e-06	5.7012e-06	1377.3	373.6	5.8964e-06	5.6572e-06	427.79	143.44	124.67	43.055	5.9912e-06	53.3	-81.752	-59.624	-55.576	-130.042	6.260	7.649	-129.779	-125.119	-14.126	-0.070	-125.448	-121.040	-120.771	-116.406	12.920	-117.059	-8191	255	
752.921	1	1	0	0	0.2406	0.18337	0.27254	0.22222	0.12164	0.18477	0.096617	0.15118	0.1581	0.31566	0.2482	0.19998	0.0062811	0.28492	0.010387	0.33385	-2.3333	-2.9729	-3.0833	-3.1292	-2.8208	-3.0104	-2.9437	-3.2958	-2.7375	-2.8646	-3.1417	-2.8271	-3.1125	-2.9562	-2.9521	-3.1646	-119.489	27.184	-13.636	201.436	11.168	89.769	116.441	137.941	186.928	-6.213	163.745	113.657	18.220	158.633	61.355	215.986	0.00038105	0.00038434	0.00014807	1365.2	3.8578e-06	6.3155e-06	1357.7	368.28	4.1693e-06	3.9729e-06	419.25	139.74	122.1	41.946	4.2895e-06	52.178	0.00051049	0.0005366	0.00014468	1376.6	5.7512e-06	5.9356e-06	1374.7	374.07	6.0753e-06	5.8265e-06	427.06	143.28	124.81	43.077	5.8513e-06	53.308	-83.299	-54.192	-58.960	-129.978	13.742	5.888	-129.947	-125.235	-2.074	20.007	-125.902	-121.370	-120.770	-116.475	-3.167	-116.997	-8191	255	
753.017	1	1	0	0	0.20049	0.18678	0.26436	0.32967	0.16676	0.20143	0.30919	0.1993	0.034978	0.23455	0.36107	0.18284	0.16786	0.060057	0.073576	0.23556	-2.4583	-2.9104	-3.1458	-2.9313	-2.9437	-2.8958	-2.9188	-3.2042	-3.0333	-2.8646	-3.3354	-2.8458	-3.1562	-3.1583	-2.6312	-3.2583	189.903	-88.870	-55.439	157.492	-80.043	102.571	38.479	213.969	-81.812	-69.458	142.608	138.994	-121.152	-57.016	-8.272	119.011	0.00038883	0.00054341	0.00014453	1359.5	3.5867e-06	5.87e-06	1359.9	367.63	3.3103e-06	4.2018e-06	421.14	139.62	121.65	42.205	4.8193e-06	51.897	0.00050953	0.00054354	0.0001486	1374.1	5.8968e-06	6.0005e-06	1374.6	374.12	5.9169e-06	5.8259e-06	427.76	143.3	124.63	43.154	5.9723e-06	53.274	-82.644	-52.791	-38.830	-129.714	15.996	10.084	-129.734	-125.224	-3.220	-12.533	-125.896	-121.439	-120.892	-116.367	9.853	-117.247	-8191	255	
753.113	1	1	0	0	0.12472	0.19482	0.26135	0.32126	0.20318	0.03854	0.28262	0.22836	0.20257	0.17718	0.26773	0.11724	0.1839	0.062953	0.32764	0.36547	-2.3042	-2.6292	-3.2792	-2.9667	-2.9646	-3.1396	-2.6854	-3.1417	-3.0979	-2.9479	-3.2833	-3.0417	-2.875	-3.1083	-2.8104	-3.2125	191.263	-88.375	96.105	138.945	-50.629	-141.476	-110.190	165.158	25.897	103.559	143.495	-7.642	101.307	-132.235	2.230	111.359	0.00041231	0.00066801	0.00013792	1358.9	4.9212e-06	4.8114e-06	1357.1	366.92	4.1261e-06	5.9531e-06	421.43	140.56	121.65	42.272	4.4265e-06	52.178	0.0005088	0.0005265	0.0001457	1373.4	5.9881e-06	5.8609e-06	1375.1	373.33	5.9937e-06	6.0284e-06	427.9	143.45	124.51	43.12	6.1771e-06	53.344	-83.587	-51.581	-53.029	-129.798	15.112	4.714	-129.930	-125.255	-1.441	27.000	-125.738	-121.438	-120.732	-116.573	18.742	-117.172	-8191	255	
753.234	1	1	0	0	0.14356	0.25385	0.051037	0.27845	0.081014	0.14179	0.44808	0.12018	0.080476	0.17803	0.18284	0.26571	0.39971	0.12216	0.10388	0.12493	-2.5312	-2.65	-3.1042	-2.9354	-2.8083	-3.175	-2.9833	-2.9583	-2.9729	-2.7375	-3.2188	-3.0354	-2.8771	-3.2938	-2.6729	-3.0146	107.477	67.940	6.970	200.833	-68.813	-86.290	130.238	172.030	28.265	7.068	151.477	74.807	-136.571	140.337	-6.704	-54.331	0.00037132	0.00041682	0.00017424	1358.5	4.9216e-06	4.7711e-06	1360.6	368.03	4.9096e-06	5.529e-06	421.01	139.2	121.55	42.028	4.3498e-06	52.005	0.00049741	0.0005351	0.00014724	1373.8	6.0465e-06	6.0012e-06	1374.9	373.19	5.9242e-06	5.734e-06	427.07	143.21	124.51	42.994	5.7565e-06	53.28	-84.215	-47.386	-47.046	-129.663	8.521	19.474	-129.805	-125.148	-5.691	14.031	-125.755	-121.414	-120.890	-116.120	3.071	-116.763	-8191	255	
753.328	1	1	0	0	0.099534	0.16405	0.14466	0.24868	0.24808	0.17361	0.18922	0.15277	0.11773	0.43837	0.060608	0.17983	0.19921	0.14104	0.2609	0.27376	-2.4083	-2.7292	-3.0583	-2.8896	-3.0229	-3.1354	-2.8354	-3.2188	-2.9938	-2.6521	-3.0312	-3.1208	-2.8896	-3.1771	-2.8021	-3.0062	59.960	213.284	-88.461	169.328	190.301	115.681	164.127	-93.907	26.220	154.641	69.346	-132.943	-107.099	110.577	117.927	208.835	0.00037579	0.00038289	0.00011767	1361.2	5.0874e-06	7.001e-06	1358.7	365.57	3.7086e-06	5.2262e-06	421.11	139.63	121.63	42.015	3.5895e-06	52.014	0.00050144	0.00054085	0.00014793	1374.1	6.0277e-06	5.672e-06	1374.6	372.85	5.8711e-06	6.0164e-06	427.83	143.25	124.48	43.123	6.166e-06	53.298	-84.557	-62.517	-62.125	-129.870	18.668	-0.676	-129.710	-125.281	-9.058	4.648	-125.780	-121.398	-120.819	-116.525	18.699	-116.929	-8191	255	
753.424	1	1	0	0	0.24123	0.15265	0.18039	0.13655	0.079225	0.19333	0.2406	0.24065	0.24125	0.035141	0.15065	0.14375	0.26458	0.1875	0.3432	0.053606	-2.4938	-2.7208	-3.0917	-2.9188	-2.7854	-3.1063	-2.9167	-2.9604	-2.8958	-2.6375	-3.2104	-2.9604	-2.725	-3.4125	-2.7271	-2.9229	17.525	-117.254	-85.862	178.025	106.342	104.352	144.826	183.174	89.132	78.160	201.427	144.714	166.006	164.715	153.129	-126.790	0.00038038	0.00038844	0.00016483	1358.9	4.8114e-06	6.3516e-06	1360.4	367.38	4.4475e-06	4.0968e-06	420.68	140.06	121.69	42.019	2.7552e-06	51.967	0.0005076	0.00052339	0.00014383	1373.2	5.8081e-06	5.8609e-06	1374.9	373.28	5.7985e-06	5.8398e-06	427.73	143.3	124.67	43.138	5.7454e-06	53.273	-84.741	-59.361	-45.119	-129.808	2.413	-3.330	-129.937	-125.094	3.028	-6.496	-125.614	-121.304	-120.595	-116.411	-16.439	-116.904	-8191	255	
753.521	1	1	0	0	0.14913	0.17227	0.12354	0.15634	0.17274	0.072056	0.20186	0.076071	0.032966	0.10217	0.098075	0.25776	0.24711	0.23761	0.14579	0.17325	-2.6667	-2.7229	-3.0167	-3.0938	-2.7125	-2.9479	-3.0083	-3.0687	-3.0104	-2.9396	-3.1958	-2.9104	-2.8792	-3.1208	-2.8083	-2.9	58.938	27.380	151.100	153.970	130.682	44.003	127.439	-58.812	157.608	-11.328	122.970	141.370	92.829	149.609	-142.107	-111.584	0.00040848	0.0005578	0.00014034	1363.1	5.3654e-06	5.2354e-06	1359.5	368.09	4.9902e-06	6.6319e-06	421.69	140.65	122.29	41.973	3.4412e-06	51.975	0.00050711	0.00051694	0.00014026	1374.9	5.7737e-06	5.4905e-06	1374.8	373.61	5.7179e-06	5.838e-06	427.95	143.46	124.76	42.995	5.8619e-06	53.327	-86.242	-52.694	-64.595	-129.774	13.455	29.030	-129.907	-125.331	-7.676	14.375	-125.545	-121.545	-120.986	-116.290	-8.824	-117.157	-8191	255	
753.594	1	1	0	0	0.13029	0.15417	0.18812	0.12248	0.33376	0.066155	0.30628	0.22432	0.097388	0.15454	0.16241	0.2033	0.30877	0.15284	0.06257	0.24391	-2.6729	-2.6125	-2.9208	-3.1312	-2.6021	-3.0375	-2.85	-2.7188	-3.2	-2.7188	-2.9896	-3.1667	-2.6729	-3.2438	-2.8917	-2.6688	130.870	128.535	159.965	157.132	96.583	65.183	150.051	102.256	48.706	176.107	-138.912	-101.553	206.482	207.933	128.801	188.648	0.00038595	0.0004605	0.0001238	1360.2	6.0984e-06	4.7954e-06	1358.3	367.47	5.3007e-06	4.429e-06	421.23	139.95	121.18	42.139	4.3644e-06	52.109	0.00050286	0.00054101	0.00013937	1374.5	5.8018e-06	5.7255e-06	1374.1	373.9	5.8669e-06	5.9541e-06	427.66	143.32	124.5	43.047	6.0139e-06	53.309	-85.943	-33.542	-51.582	-129.817	23.335	6.223	-129.972	-125.160	4.281	16.200	-125.753	-121.601	-120.964	-116.293	19.080	-116.847	-8191	255	
753.713	1	1	0	0	0.093761	0.1166	0.22919	0.32222	0.20269	0.17759	0.37768	0.32933	0.2987	0.19307	0.038287	0.11386	0.029865	0.25181	0.037474	0.14206	-2.7104	-2.6875	-2.7021	-3.3583	-2.5938	-2.9667	-3.1437	-2.8812	-3.1063	-2.8354	-3.0229	-3.0438	-2.8479	-3.1042	-2.8458	-2.7229	-4.032	-123.153	16.626	180.504	-79.197	69.036	165.345	200.014	-77.411	65.968	-132.278	186.560	34.780	-132.866	32.696	128.522	0.00039719	0.00050374	0.00017888	1363.3	3.7396e-06	5.1211e-06	1359.8	367.66	4.4775e-06	5.2231e-06	422.81	139.96	122.2	41.98	4.4862e-06	52.183	0.00048987	0.00053515	0.00014306	1374.9	5.9745e-06	5.6793e-06	1375.5	374.05	5.6301e-06	5.6445e-06	427.94	143.15	124.81	43.112	5.8286e-06	53.339	-83.626	-42.110	-56.525	-129.826	10.787	9.132	-130.124	-125.347	9.002	6.224	-125.672	-121.464	-120.651	-116.202	10.396	-117.130	-8191	255	
753.809	1	1	0	0	0.13293	0.17702	0.14595	0.33331	0.11597	0.22735	0.34632	0.052096	0.16951	0.24765	0.21393	0.074336	0.16167	0.017606	0.094844	0.07985	-3.0208	-2.7917	-2.7687	-3.3312	-2.7708	-2.9333	-3.1688	-2.7833	-3.0125	-3.0667	-2.9708	-3.1521	-2.8854	-3.0854	-2.9813	-3.0104	154.682	162.167	148.513	154.757	73.401	108.798	195.142	-96.693	84.167	100.126	93.671	169.153	-58.902	-48.165	142.217	140.634	0.00039297	0.00029344	0.00012682	1365.3	5.2051e-06	4.6099e-06	1360.9	368.15	4.0471e-06	4.5623e-06	420.78	139.86	121.49	42.099	4.2434e-06	52.078	0.00049611	0.00051871	0.00014328	1376.7	5.8822e-06	5.839e-06	1374.7	374.18	5.6895e-06	5.7425e-06	427.17	143.33	124.52	43.054	5.7098e-06	53.345	-85.835	-61.405	-54.554	-129.712	13.387	26.225	-129.946	-125.067	8.941	14.511	-125.813	-121.314	-120.863	-116.473	-2.929	-116.744	-8191	255	
753.905	1	1	0	0	0.054086	0.27235	0.055575	0.27078	0.24654	0.10714	0.21246	0.080182	0.047639	0.1784	0.023835	0.30213	0.18901	0.30992	0.2534	0.19228	-2.8563	-2.9125	-2.6625	-3.5458	-2.7687	-2.7354	-3.4437	-2.7396	-3.0104	-3.0292	-2.8187	-3.2854	-2.9708	-2.9479	-2.975	-2.9375	117.516	96.690	76.225	191.781	193.141	39.878	182.101	64.961	166.766	-51.635	25.958	188.239	147.102	157.632	110.528	204.505	0.00039435	0.00056094	0.00014543	1363.3	5.4381e-06	5.3446e-06	1356.4	368.32	4.5125e-06	6.0374e-06	420.77	140.05	121.92	42.136	3.9774e-06	52.375	0.00049712	0.00053327	0.00014801	1375.8	5.9928e-06	5.7601e-06	1375.4	374.12	5.7816e-06	5.8483e-06	428.19	143.52	124.69	43.118	5.7725e-06	53.39	-88.534	-44.500	-70.518	-129.758	5.614	17.944	-129.988	-125.138	3.536	18.485	-125.713	-121.445	-120.691	-116.349	10.916	-117.191	-8191	255	
754.001	1	1	0	0	0.25519	0.058041	0.17472	0.24671	0.39317	0.080713	0.22061	0.29476	0.21599	0.04802	0.082431	0.16299	0.058356	0.26327	0.077113	0.1574	-2.6813	-2.9667	-2.825	-3.3625	-2.7375	-2.9375	-3.3917	-2.7521	-2.9333	-2.9854	-2.8708	-3.0938	-2.9208	-3.1688	-3.1063	-2.9188	183.518	-17.265	-29.054	189.144	99.307	157.013	106.828	51.780	-27.758	-49.686	168.076	168.815	156.514	199.431	-72.429	-39.884	0.00036887	0.00045039	0.0001201	1357	4.9132e-06	5.003e-06	1360	367.72	4.5493e-06	5.3748e-06	420.56	140.28	121.78	42.163	4.2147e-06	51.698	0.00049039	0.00052677	0.00014787	1374.4	5.9745e-06	5.751e-06	1376.1	373.91	5.6832e-06	5.7219e-06	428.32	143.34	124.7	43.111	5.7437e-06	53.254	-83.571	-33.124	-58.437	-129.834	12.026	27.884	-129.810	-125.095	-10.888	14.038	-125.844	-121.186	-120.734	-116.345	13.528	-117.131	-8191	255	
754.122	1	1	0	0	0.21061	0.079398	0.22753	0.24071	0.12969	0.19337	0.33325	0.46038	0.17537	0.056258	0.10758	0.13202	0.31229	0.37301	0.10404	0.26553	-2.5458	-3.0021	-2.8583	-3.2542	-3.025	-2.9562	-3.4479	-2.9375	-3	-3.0708	-2.9813	-3.175	-2.9958	-2.7146	-3.3812	-2.8458	161.120	45.850	12.271	209.761	-12.024	144.028	179.114	158.612	-66.951	163.172	4.650	176.470	162.833	133.536	129.004	179.884	0.00039674	0.00050697	0.00015724	1362.9	4.6848e-06	6.3704e-06	1360.1	368.08	5.0865e-06	6.1526e-06	421.35	140.45	121.93	42.125	4.2636e-06	52.081	0.00051013	0.0005294	0.00014448	1375.9	5.7956e-06	5.8378e-06	1373.8	374.01	5.7537e-06	5.766e-06	427.95	143.41	124.67	43.124	5.5922e-06	53.418	-86.235	-52.275	-50.251	-129.734	25.489	-0.844	-129.934	-125.298	-0.685	-12.250	-125.566	-120.953	-120.705	-116.167	-0.897	-117.168	-8191	255	
754.194	1	1	0	0	0.39788	0.041618	0.13356	0.31629	0.35702	0.10291	0.13295	0.40548	0.22742	0.10458	0.17197	0.2241	0.30505	0.10015	0.38695	0.36069	-2.4229	-3.0958	-2.7333	-3.0062	-2.975	-2.85	-3.3104	-2.9667	-2.9104	-2.9917	-2.9688	-3.0938	-3.0687	-2.7979	-3.0542	-3.0563	-113.874	130.077	122.422	183.074	2.028	46.839	159.475	205.676	32.191	-49.257	-81.296	187.607	111.398	195.961	176.778	130.466	0.00038366	0.00039958	0.00016104	1363.9	5.7437e-06	6.4531e-06	1357.6	367.27	5.7251e-06	6.4934e-06	421.06	140.3	121.79	42.052	4.9119e-06	52.041	0.00049224	0.00051887	0.00014447	1376.3	5.7815e-06	5.7498e-06	1375	373.65	5.7237e-06	5.6113e-06	427.61	143.31	124.75	43.087	5.5733e-06	53.359	-83.903	-62.523	-51.189	-129.667	2.235	9.006	-129.907	-124.949	-3.277	-9.976	-125.597	-121.397	-120.638	-116.347	2.542	-117.135	-8191	255	
754.314	1	1	0	0	0.1346	0.085989	0.30154	0.082065	0.24054	0.18022	0.34507	0.25111	0.059394	0.27592	0.32053	0.08515	0.21254	0.27936	0.15345	0.14278	-2.4146	-3.0958	-2.4313	-3.175	-2.9854	-2.5917	-3.2104	-2.9958	-2.8854	-3.1542	-2.8979	-3.0542	-3.1146	-2.6667	-3.0417	-3.1937	190.005	-87.667	1.676	80.508	-51.877	2.212	175.995	-123.904	148.597	11.195	199.101	-93.717	-117.893	216.597	-121.855	209.771	0.00036305	0.00047586	0.00014069	1362.7	4.6387e-06	4.7961e-06	1359.7	367.32	5.0778e-06	4.6647e-06	420.21	140.35	121.98	42.069	5.3551e-06	52.308	0.0004936	0.00051946	0.00014359	1375	5.6359e-06	5.7182e-06	1374.8	373.33	5.7922e-06	5.6475e-06	427.43	143.57	124.58	43.148	5.6111e-06	53.448	-85.728	-59.420	-51.251	-129.891	10.214	22.661	-129.825	-124.973	1.043	-8.883	-125.548	-121.345	-120.977	-116.408	27.260	-116.947	-8191	255	
754.409	1	1	0	0	0.17137	0.12295	0.011828	0.2619	0.13693	0.16875	0.22631	0.10065	0.17665	0.055394	0.17728	0.15552	0.048029	0.199	0.1453	0.095147	-2.2667	-3.2062	-2.9542	-2.9667	-3.0292	-2.7792	-3.3812	-3.1792	-2.7938	-3.2708	-2.9229	-2.9729	-3.1521	-2.9042	-2.8625	-3.0229	121.636	-31.125	198.276	187.893	-122.422	-97.699	86.971	90.083	-43.162	-106.420	192.353	126.790	189.179	-135.175	165.262	127.187	0.00036956	0.0005145	0.00012593	1362.7	4.1019e-06	6.1758e-06	1360.8	367.88	5.7906e-06	6.3244e-06	421.23	140.06	122.16	42.133	4.0613e-06	51.941	0.00050455	0.00050592	0.00014823	1376	5.5034e-06	5.8767e-06	1375.4	373.78	5.5511e-06	5.5659e-06	428.07	143.45	124.75	43.112	5.5278e-06	53.364	-82.998	-37.393	-34.706	-129.940	11.349	-2.741	-130.098	-125.188	1.356	-1.222	-125.898	-121.210	-120.704	-116.368	12.162	-117.113	-8191	255	
754.505	1	1	0	0	0.17031	0.0095196	0.15508	0.28795	0.095539	0.16217	0.039479	0.12965	0.088758	0.12233	0.24521	0.082825	0.12391	0.30148	0.10479	0.089264	-2.4854	-3.1437	-2.7042	-3.1125	-3.1292	-2.6937	-3.1771	-3.1667	-2.825	-2.95	-3.225	-2.7979	-3.4229	-2.8937	-2.9125	-3.125	-95.490	-96.909	155.074	158.965	186.846	-26.665	-80.204	-50.530	186.910	192.115	193.325	-55.470	153.567	16.198	67.221	-11.502	0.00039572	0.00061851	0.00013945	1361.7	3.3174e-06	4.9913e-06	1356.1	368.97	3.6172e-06	5.0069e-06	421.43	140.55	121.57	42.175	3.7834e-06	52.239	0.00049842	0.00052489	0.00013776	1375.5	5.6187e-06	5.6605e-06	1375.6	374.09	5.6127e-06	5.4293e-06	427.95	143.67	124.83	43.155	5.6749e-06	53.428	-83.490	-62.838	-55.068	-129.855	20.024	10.825	-129.915	-125.160	-6.484	15.205	-125.560	-121.380	-120.781	-116.308	-12.354	-116.873	-8191	255	
754.603	1	1	0	0	0.081388	0.18016	0.062859	0.30904	0.023552	0.071954	0.1103	0.29936	0.14776	0.1329	0.090363	0.32971	0.075332	0.2334	0.057971	0.11878	-2.3521	-3.0333	-2.6542	-2.95	-3.1562	-2.8563	-3.1063	-3.0667	-2.8083	-3.0938	-2.9542	-2.9479	-3.3521	-2.9958	-2.9562	-3.0708	19.653	93.932	66.335	202.370	35.575	156.915	161.818	101.548	-30.211	16.394	178.851	-142.761	-126.478	210.769	193.712	25.345	0.00036896	0.00045493	0.00014912	1366.2	4.2601e-06	4.8876e-06	1361	367.48	4.8264e-06	6.1101e-06	423.52	140.88	122.6	42.223	4.037e-06	52.274	0.00048756	0.00048077	0.000145	1376.8	5.5164e-06	5.649e-06	1375.2	374.09	5.709e-06	5.5436e-06	429.27	143.8	125.09	43.364	5.6161e-06	53.519	-84.290	-46.984	-72.209	-129.811	26.080	10.160	-129.735	-125.063	5.937	7.356	-125.780	-121.289	-120.812	-116.323	4.017	-117.203	-8191	255	
754.722	1	1	0	0	0.24311	0.030367	0.093291	0.46965	0.030785	0.079737	0.26565	0.093499	0.22386	0.090688	0.058305	0.095462	0.18366	0.097235	0.2249	0.12114	-2.2708	-3.1063	-2.9604	-2.8417	-3.0208	-2.9875	-3.1625	-3.2271	-2.6104	-3.0187	-3.0583	-2.9458	-3.2125	-2.8354	-2.9479	-3.2792	-105.203	148.817	73.227	156.350	-140.884	-34.338	157.035	133.417	43.076	138.041	46.717	101.429	-117.315	88.869	11.077	70.336	0.00037301	0.00043862	0.00014033	1360.4	3.4473e-06	5.8932e-06	1360.3	367.96	3.9294e-06	4.638e-06	422.46	140.25	122.68	42.336	3.9305e-06	52.138	0.0004902	0.00050657	0.00013875	1375.9	5.433e-06	5.485e-06	1375	374.6	5.5711e-06	5.3912e-06	428.94	143.83	125.27	43.316	5.5722e-06	53.541	-84.735	-37.820	-56.060	-129.752	30.224	3.370	-129.945	-125.117	-2.890	-11.253	-125.836	-121.366	-120.903	-116.316	26.308	-117.071	-8191	255	
754.818	1	1	0	0	0.19092	0.13705	0.17087	0.24582	0.034142	0.032161	0.10572	0.36257	0.22087	0.27401	0.20299	0.29166	0.18658	0.21313	0.19508	0.025581	-2.5271	-2.9562	-2.9125	-3.0479	-3.2125	-2.7833	-3.2521	-3.2521	-2.7938	-3.0542	-3.0708	-2.8229	-2.9896	-2.9083	-2.8083	-3.4583	-87.470	-0.374	110.371	190.462	-62.587	43.738	129.444	138.006	92.094	-18.010	36.370	93.341	-108.245	162.058	188.045	176.184	0.00039907	0.00051647	0.00012708	1362.4	5.355e-06	5.1351e-06	1362.5	367.72	3.9847e-06	6.2645e-06	421.36	140.96	122.92	42.473	3.8904e-06	52.372	0.000493	0.00047309	0.00013937	1376.9	5.554e-06	5.567e-06	1378.4	374.47	5.7643e-06	5.578e-06	429.39	144.1	125.51	43.397	5.6782e-06	53.656	-86.050	-46.070	-54.788	-129.836	13.481	-2.819	-130.083	-125.208	-3.056	1.702	-125.607	-121.285	-120.771	-116.220	8.444	-117.081	-8191	255	
754.889	1	1	0	0	0.17948	0.031339	0.27866	0.060136	0.081681	0.10623	0.1628	0.080809	0.12575	0.034438	0.15779	0.1046	0.28024	0.062916	0.15912	0.22541	-2.3854	-2.875	-3.0583	-2.8021	-3.1042	-2.925	-2.9437	-3.0958	-2.6271	-2.9	-3.0354	-2.9562	-3.15	-2.8021	-2.8271	-3.1562	123.297	-129.804	1.724	199.381	-81.161	59.884	138.867	180.485	-4.035	-130.998	-73.461	-17.444	134.444	-13.955	132.368	147.695	0.00038922	0.00056546	0.0001623	1366.3	5.8892e-06	5.5714e-06	1359	368.12	4.2626e-06	4.9812e-06	423.92	140.69	122.49	42.418	2.6063e-06	52.457	0.00049486	0.0004941	0.00013794	1379.7	5.5582e-06	5.5992e-06	1378.8	374.68	5.6274e-06	5.5611e-06	429.72	144.24	125.58	43.421	5.3392e-06	53.631	-83.669	-59.624	-58.274	-129.917	29.132	10.160	-129.700	-125.288	3.341	2.543	-125.688	-121.285	-121.113	-116.280	-12.302	-116.987	-8191	255	
755.010	1	1	0	0	0.35854	0.06292	0.1288	0.35114	0.23381	0.083732	0.26401	0.20337	0.11747	0.17817	0.19217	0.17555	0.11666	0.093756	0.19889	0.25648	-2.3583	-2.8458	-3.0583	-2.8	-3.2042	-2.9688	-2.9625	-3.2917	-2.8604	-3.1458	-3.2458	-2.8187	-3.2646	-3.2896	-2.7354	-3.2292	-124.890	99.184	26.878	202.067	-78.283	-84.905	144.977	165.159	-98.779	7.212	52.580	176.744	16.642	-40.338	-95.417	206.747	0.00037106	0.00046721	0.00014063	1364	4.2867e-06	4.8038e-06	1362.4	369.06	4.852e-06	3.8412e-06	424.45	141.49	123.23	42.537	5.4848e-06	52.476	0.00048418	0.00048475	0.00013321	1380.1	5.4971e-06	5.5336e-06	1377.1	375.27	5.539e-06	5.2086e-06	430.81	144.6	125.68	43.536	5.4551e-06	53.823	-83.528	-57.428	-48.698	-129.870	11.417	17.006	-129.928	-125.165	-6.440	-20.596	-125.575	-121.357	-120.963	-116.370	-10.613	-117.090	-8191	255	
755.106	1	1	0	0	0.13116	0.31352	0.09523	0.31767	0.025513	0.1316	0.016351	0.084734	0.021416	0.11077	0.17293	0.17572	0.098391	0.34139	0.22021	0.16789	-2.3958	-2.8146	-3.2667	-3.0208	-3.2188	-3.1292	-2.8958	-3.2771	-2.8833	-3.0521	-3.2333	-3	-3.0646	-3.0708	-2.6312	-3.1	61.026	118.123	157.747	211.984	-48.065	-128.880	-86.907	115.270	-120.428	209.302	209.405	-82.208	-91.105	-68.388	169.444	142.537	0.0003897	0.00050069	0.00016534	1367.3	4.9058e-06	5.54e-06	1365.6	369.09	4.5418e-06	4.1273e-06	423.68	140.93	122.69	42.393	5.6143e-06	52.772	0.0004963	0.00049383	0.00013281	1382	5.3975e-06	5.4899e-06	1380.9	375.31	5.4595e-06	5.3041e-06	430.29	144.47	125.78	43.511	5.6932e-06	53.895	-83.526	-48.876	-50.071	-129.758	18.180	38.649	-129.969	-125.172	-18.214	1.091	-125.660	-121.319	-120.860	-116.333	11.765	-117.021	-8191	255	
755.202	1	1	0	0	0.22562	0.10853	0.10443	0.21662	0.12346	0.23909	0.17415	0.1418	0.24063	0.16479	0.28689	0.2834	0.056087	0.063296	0.1146	0.038016	-2.425	-2.7396	-3.1875	-3.0417	-2.9146	-3.2062	-2.8896	-3.1458	-3.1521	-2.5938	-3.3771	-2.8812	-2.85	-3.1354	-2.3333	-3.2667	-110.671	-79.299	47.727	185.941	141.288	76.020	-120.202	142.381	132.563	46.849	-137.788	192.622	88.221	-116.771	-123.771	153.571	0.00039476	0.00033804	0.00011192	1367.9	5.2745e-06	4.8933e-06	1365.3	370	4.4176e-06	6.2985e-06	423.35	141.48	122.93	42.535	2.5884e-06	52.654	0.00048552	0.00048787	0.00013299	1382.8	5.3688e-06	5.2306e-06	1380.4	376.21	5.2648e-06	5.5587e-06	431.13	144.87	126	43.689	5.5223e-06	53.897	-82.521	-42.399	-61.504	-129.610	24.682	13.541	-129.848	-125.260	-14.402	-2.438	-125.760	-121.318	-120.778	-116.277	39.174	-116.974	-8191	255	
755.323	1	1	0	0	0.038198	0.14457	0.22447	0.20017	0.085094	0.17892	0.22229	0.14138	0.25025	0.089244	0.23786	0.13742	0.041821	0.12931	0.16845	0.37111	-2.4167	-2.9625	-3.1604	-3.0062	-2.875	-3.1333	-2.8125	-3.0375	-2.8979	-2.6	-3.2833	-2.9167	-3.0229	-3.0792	-2.6708	-2.9854	-99.470	127.461	193.807	-121.184	-20.775	106.670	177.783	149.284	89.282	109.424	138.979	183.901	-106.174	90.276	-7.125	137.100	0.00035202	0.00058073	0.0001529	1366.3	5.596e-06	4.5555e-06	1367.1	370.23	4.6548e-06	7.1654e-06	425.19	141.21	123.38	42.454	5.3804e-06	52.577	0.00047854	0.00049464	0.00012657	1381.5	5.3062e-06	5.2166e-06	1380.6	375.93	5.4248e-06	5.5254e-06	431.47	144.72	126.16	43.555	5.5123e-06	53.936	-83.936	-47.595	-53.822	-129.777	6.766	22.079	-129.722	-125.125	2.124	5.806	-125.515	-121.340	-120.755	-116.271	3.745	-117.025	-8191	255	
755.417	1	1	0	0	0.16067	0.29831	0.12311	0.057267	0.10222	0.18594	0.18444	0.17574	0.16102	0.13838	0.081016	0.11025	0.04386	0.25769	0.13063	0.15069	-2.6583	-2.6479	-3.025	-3.0854	-2.7958	-3.0729	-2.8917	-2.9938	-2.9833	-2.8417	-3.2562	-2.8146	-2.8104	-3.2354	-2.7583	-3.0125	143.988	105.600	63.219	-79.604	60.228	-70.154	203.566	189.608	-67.962	-47.755	85.711	27.265	27.111	202.125	33.731	104.147	0.00036653	0.0004101	0.00016339	1366.9	4.2257e-06	5.2906e-06	1365.7	369.18	4.5507e-06	5.1669e-06	422.89	140.93	123.14	42.363	6.4695e-06	52.626	0.00048916	0.00048195	0.00013598	1382.7	5.5775e-06	5.4504e-06	1382.9	375.6	5.5701e-06	5.6336e-06	431.5	144.54	125.91	43.469	5.7148e-06	53.936	-87.146	-53.756	-55.697	-129.820	1.376	-3.568	-129.796	-125.277	0.958	4.035	-125.612	-121.429	-120.678	-116.102	3.690	-117.066	-8191	255	
755.491	1	1	0	0	0.13692	0.039401	0.18512	0.26602	0.25374	0.073698	0.26347	0.073017	0.20335	0.2346	0.14941	0.20719	0.17567	0.1104	0.10097	0.34367	-2.6771	-2.7792	-2.9479	-3.0583	-2.6479	-3.1521	-3.0333	-2.8937	-3.1312	-2.8771	-2.9896	-3.2	-2.8438	-3.3646	-2.95	-2.8271	195.259	10.861	132.103	155.653	-61.935	211.917	109.976	210.073	-53.008	-79.458	168.657	203.486	181.359	-129.472	-135.576	-94.114	0.00038917	0.00048828	0.00013918	1370.2	4.8739e-06	6.9816e-06	1369.8	370.91	3.1967e-06	5.8984e-06	426.59	141.47	122.93	42.51	3.2667e-06	52.57	0.00049213	0.00051774	0.00013143	1383.8	5.7622e-06	5.502e-06	1384.6	376.14	5.5595e-06	5.7715e-06	432.3	144.71	125.88	43.516	5.5206e-06	53.878	-85.076	-32.861	-38.890	-129.727	1.830	16.786	-129.926	-125.069	-4.378	3.505	-125.668	-121.342	-120.695	-116.322	1.694	-116.915	-8191	255	
755.585	1	1	0	0	0.18802	0.18457	0.034355	0.16208	0.052035	0.11177	0.52825	0.36987	0.20442	0.18803	0.33273	0.37926	0.11869	0.089709	0.055275	0.14285	-2.7958	-2.4667	-2.9188	-3.0667	-2.7708	-3.1458	-3.0896	-2.8625	-3.1937	-2.8396	-3.1417	-3.2667	-2.6063	-3.2583	-2.7792	-2.8312	200.754	87.722	-27.651	158.850	-88.718	-54.755	207.127	208.136	-50.665	123.575	138.438	197.213	-50.541	130.875	-29.961	163.148	0.00038739	0.00072793	0.00019308	1375.7	4.0097e-06	5.0939e-06	1370.3	370.65	5.0408e-06	5.8027e-06	424.38	141.07	123.57	42.425	4.4962e-06	52.809	0.00048835	0.00050791	0.00013605	1385.8	5.6401e-06	5.3909e-06	1383.7	375.9	5.4048e-06	5.2419e-06	431.59	144.67	126.42	43.593	5.4379e-06	54.012	-83.884	-56.363	-66.241	-129.587	-9.624	-5.086	-129.690	-125.195	-4.764	10.615	-125.856	-121.197	-120.706	-116.299	0.242	-117.014	-8191	255	
755.683	1	1	0	0	0.20529	0.085012	0.19096	0.19112	0.12618	0.1061	0.22338	0.38638	0.14308	0.20836	0.10687	0.11202	0.14555	0.088657	0.11094	0.19101	-2.7938	-2.7771	-3.1	-3.2604	-2.7792	-3.0125	-3.0125	-2.9625	-3.0521	-2.875	-2.9396	-3.125	-2.6958	-3.2083	-2.7833	-3.0833	-88.532	-126.401	193.284	169.241	-127.523	-117.485	144.832	174.392	118.636	68.602	-11.176	-118.475	176.336	67.651	77.162	209.900	0.00038948	0.00050099	0.00010888	1370.9	5.8337e-06	6.2759e-06	1371	370.74	4.1276e-06	4.9112e-06	425.78	141.72	124.28	42.635	5.2893e-06	52.586	0.00047604	0.00048625	0.00013036	1383.5	5.4919e-06	5.216e-06	1384.7	376.87	5.348e-06	5.3313e-06	431.6	145.15	126.72	43.703	5.3264e-06	53.96	-84.477	-63.718	-53.308	-129.909	13.972	25.152	-129.991	-125.374	-18.044	9.270	-125.819	-121.557	-120.871	-116.358	10.215	-116.919	-8191	255	
755.802	1	1	0	0	0.14388	0.19197	0.063154	0.54887	0.16666	0.10715	0.067046	0.20893	0.20907	0.13268	0.13873	0.1333	0.05465	0.12304	0.16898	0.14899	-2.4979	-2.7188	-2.8417	-3.1875	-2.7167	-2.9562	-3.2604	-2.8167	-3.0479	-2.9042	-2.8604	-3.2687	-2.7896	-2.9646	-3.025	-2.7687	68.176	215.333	-12.763	194.966	68.005	52.749	-90.344	128.722	106.492	59.712	-123.047	-40.569	101.021	198.810	-31.689	-99.082	0.00039377	0.00051572	9.9338e-05	1368.6	5.1895e-06	5.7045e-06	1367.3	369.95	4.4073e-06	4.9398e-06	426.29	141.78	123.42	42.773	3.9563e-06	52.583	0.00047699	0.00047895	0.00013399	1382.8	5.4763e-06	5.278e-06	1382	376.04	5.1359e-06	5.2715e-06	431.92	145.15	126.29	43.737	5.3492e-06	53.948	-82.764	-46.266	-53.760	-129.753	15.026	7.253	-129.727	-125.391	9.451	-15.299	-125.726	-121.390	-120.971	-116.202	8.476	-116.908	-8191	255	
755.898	1	1	0	0	0.072659	0.1187	0.1257	0.31458	0.3045	0.14246	0.11316	0.3689	0.051233	0.36228	0.2626	0.25911	0.019985	0.29076	0.15729	0.19237	-2.6292	-2.8146	-2.5646	-3.3708	-2.5292	-2.9354	-3.3083	-2.6708	-2.9521	-3.1167	-2.9604	-3.2417	-2.8104	-3.1	-2.9437	-2.6312	6.375	105.293	-34.363	199.030	216.277	13.967	150.552	178.339	71.248	181.648	170.035	98.801	-94.196	185.795	205.402	106.826	0.00038886	0.00049491	0.00015924	1372.4	3.0637e-06	5.422e-06	1367.3	370.48	3.397e-06	5.4206e-06	425.7	141.59	123.69	42.834	4.3569e-06	52.795	0.0004859	0.00048867	0.00013091	1383.8	5.423e-06	5.0533e-06	1383.5	376.23	5.4327e-06	5.3555e-06	431.93	144.88	126.25	43.681	5.3614e-06	53.94	-84.383	-40.340	-59.292	-129.910	33.879	6.550	-129.789	-125.212	-2.232	6.166	-125.681	-121.470	-120.832	-116.271	28.821	-116.943	-8191	255	
755.994	1	1	0	0	0.38521	0.13614	0.051394	0.043649	0.1473	0.14221	0.22136	0.18563	0.16936	0.21502	0.27894	0.10078	0.122	0.057559	0.11277	0.028628	-2.5667	-2.8354	-2.9	-3.1208	-2.7583	-2.95	-3.1875	-2.8167	-2.9396	-2.8229	-2.9667	-3.2812	-2.8771	-3.0083	-3.2521	-2.5917	71.001	-102.566	-92.556	164.793	108.771	179.487	189.218	185.502	-33.967	173.788	74.080	138.932	89.527	79.804	136.360	118.087	0.0003688	0.00066654	0.00013222	1370.8	4.956e-06	4.3518e-06	1366.7	369.73	4.0193e-06	5.3591e-06	425.4	141.59	123.09	42.565	6.2539e-06	52.626	0.0004804	0.00050356	0.00013412	1383.3	5.4256e-06	5.2391e-06	1381.8	376.37	5.239e-06	5.3471e-06	431.78	144.77	126.03	43.54	5.3225e-06	53.892	-83.874	-53.910	-42.111	-129.880	4.614	10.478	-129.848	-125.131	9.851	-6.403	-125.812	-121.264	-120.848	-116.426	4.133	-117.042	-8191	255	
756.090	1	1	0	0	0.22836	0.18677	0.22839	0.36637	0.19074	0.14397	0.30998	0.25817	0.18355	0.15309	0.092358	0.33266	0.081784	0.35244	0.058956	0.18357	-2.7083	-2.9458	-2.7438	-3.3354	-2.9292	-2.7292	-3.2875	-2.625	-2.9458	-2.9875	-2.9354	-3.075	-2.9104	-2.8167	-3.0271	-2.7687	158.509	-139.323	-27.855	204.946	204.717	59.084	201.963	166.810	98.866	-11.864	114.246	155.142	-54.483	188.852	-21.872	162.915	0.00037347	0.00038611	0.00014118	1372.7	3.6594e-06	6.8212e-06	1371	371.07	4.8668e-06	5.301e-06	424.98	141.47	123.68	42.545	4.8791e-06	52.728	0.00049407	0.00048507	0.00014059	1385.1	5.4909e-06	5.5427e-06	1383.1	376.34	5.3496e-06	5.2987e-06	431.48	144.89	126.18	43.547	5.5295e-06	53.924	-84.364	-64.913	-43.265	-129.862	6.806	9.658	-129.808	-125.304	-2.413	-21.919	-125.742	-121.324	-120.650	-116.556	22.630	-116.694	-8191	255	
756.187	1	1	0	0	0.32399	0.12499	0.2464	0.1449	0.22961	0.11304	0.29828	0.3156	0.099849	0.12159	0.13028	0.31283	0.11419	0.22514	0.105	0.20161	-2.5479	-3.0625	-2.6	-3.1042	-2.8271	-2.8604	-3.1562	-2.7938	-3.0062	-2.9667	-2.7167	-3.0687	-2.9521	-2.9542	-3.0771	-2.8771	1.988	57.235	-70.361	100.458	-20.611	-42.942	187.000	199.547	135.622	-47.299	-75.308	157.526	173.234	117.188	49.449	-131.440	0.00037323	0.00055968	0.00014413	1368.6	4.8955e-06	5.5791e-06	1362.6	370.11	4.2505e-06	4.8705e-06	425.95	141.97	123.54	42.674	5.4622e-06	52.916	0.00048151	0.00048641	0.00013809	1381.6	5.4074e-06	5.2798e-06	1381	376.29	5.4727e-06	5.344e-06	431.82	145.13	126.42	43.634	5.2931e-06	54.013	-83.866	-63.669	-70.462	-129.775	-5.824	12.951	-129.915	-125.015	-7.294	13.754	-125.566	-121.298	-120.625	-116.495	0.159	-117.000	-8191	255	
756.283	1	1	0	0	0.37415	0.08631	0.045687	0.2248	0.042841	0.14289	0.1698	0.35691	0.12656	0.11381	0.23821	0.41412	0.20705	0.10174	0.043376	0.21826	-2.5458	-3.0458	-2.7896	-3.1896	-3.0812	-2.8875	-3.2687	-2.9813	-2.6125	-3.0396	-2.7979	-3.2062	-2.95	-2.8771	-3.2292	-2.6854	-17.685	-122.769	-25.243	-140.324	60.578	115.751	152.144	194.716	116.931	150.739	160.425	190.442	138.653	134.245	-22.341	190.721	0.00038849	0.00045315	0.00015579	1369.3	4.8153e-06	5.5276e-06	1368.4	369.64	4.0365e-06	4.5981e-06	425.68	141.39	122.8	42.467	4.125e-06	52.529	0.00048669	0.00047588	0.00013075	1383.6	5.2169e-06	5.4808e-06	1380.9	376.29	5.4269e-06	5.1717e-06	431.82	145	125.98	43.581	5.3597e-06	53.881	-85.525	-56.647	-45.672	-129.703	10.619	-5.386	-129.862	-125.117	-1.935	2.892	-125.681	-121.186	-120.831	-116.341	9.943	-117.114	-8191	255	
756.403	1	1	0	0	0.11249	0.15122	0.20938	0.088339	0.041529	0.10915	0.27883	0.17798	0.21427	0.063522	0.19851	0.11627	0.048497	0.215	0.20869	0.12968	-2.4313	-3.1229	-2.6312	-3.0792	-3.0729	-2.6792	-3.2333	-2.9396	-2.9083	-2.9521	-2.7875	-3.1021	-3.1667	-2.7208	-3.0354	-3.1	38.547	118.588	41.120	67.493	-104.448	46.998	-141.755	159.494	96.573	177.330	-73.932	-110.939	193.602	182.267	-10.536	-49.862	0.0003995	0.00054784	0.00013568	1369.6	5.07e-06	4.127e-06	1367	370.53	3.9203e-06	6.6446e-06	425	141.39	123.39	42.606	5.1101e-06	52.692	0.00048394	0.00048899	0.0001342	1382.4	5.4486e-06	5.55e-06	1382.5	375.67	5.4564e-06	5.2751e-06	430.89	144.75	125.82	43.56	5.1666e-06	53.909	-85.395	-44.401	-49.973	-129.861	3.262	20.593	-129.840	-125.244	7.017	7.657	-125.625	-121.132	-120.620	-116.320	8.229	-116.912	-8191	255	
756.498	1	1	0	0	0.092055	0.21474	0.3169	0.26614	0.12605	0.26662	0.30289	0.050222	0.15537	0.12567	0.19601	0.13939	0.33371	0.15379	0.29428	0.092515	-2.3042	-2.9021	-2.6625	-3.1625	-3.0396	-2.7604	-3.1813	-2.9646	-2.6208	-3.2479	-2.9271	-2.8667	-3.1208	-2.7333	-2.9979	-2.9813	184.361	186.158	-130.344	-140.789	-76.549	-129.192	167.450	-108.202	208.779	14.817	208.329	-26.959	163.008	180.064	-105.063	-102.760	0.00040103	0.00038983	9.4697e-05	1371	4.7982e-06	6.7828e-06	1362.2	369.87	3.9136e-06	4.9538e-06	424.2	141.79	123.23	42.591	4.8758e-06	52.451	0.00048407	0.00048534	0.00013351	1382.1	5.5717e-06	5.499e-06	1380.2	376.47	5.5327e-06	5.2443e-06	431.42	144.72	125.92	43.564	5.3597e-06	53.722	-83.691	-51.056	-63.881	-129.743	3.550	-6.008	-129.876	-125.388	0.926	21.066	-125.814	-121.180	-120.676	-116.189	16.819	-117.188	-8191	255	
756.594	1	1	0	0	0.30683	0.079435	0.14746	0.25177	0.021429	0.094723	0.16979	0.19362	0.19039	0.16663	0.35663	0.079465	0.17264	0.1357	0.15608	0.18088	-2.225	-2.9938	-2.7042	-2.8563	-2.9979	-2.6646	-3.1562	-3.1646	-2.5396	-3.1875	-3.1125	-2.9437	-3.2208	-3.0021	-3	-3.0583	105.274	50.100	-9.613	118.397	64.679	52.948	-121.046	189.023	111.226	71.414	-132.125	207.450	8.727	82.755	30.989	190.112	0.00038243	0.00053356	0.00013678	1362.9	4.2205e-06	5.5531e-06	1365.7	369.01	4.1368e-06	5.4347e-06	423.78	141.03	122.41	42.366	4.186e-06	52.411	0.00048385	0.00048722	0.00013414	1381.2	5.2806e-06	5.1541e-06	1380.3	375.84	5.589e-06	5.1276e-06	430.76	144.54	125.72	43.499	5.4507e-06	53.655	-87.565	-41.753	-65.426	-129.885	6.827	21.796	-129.967	-125.294	-10.061	22.734	-125.476	-121.264	-120.884	-116.276	5.951	-117.194	-8191	255	
756.715	1	1	0	0	0.12251	0.1728	0.18778	0.075699	0.064625	0.27939	0.27553	0.34603	0.088907	0.14278	0.2191	0.17043	0.18465	0.13598	0.15032	0.18975	-2.1417	-2.8167	-2.9083	-2.8229	-2.9313	-2.6979	-3.0333	-3.1562	-2.5229	-2.7188	-2.9333	-3.0833	-3.2375	-2.9437	-2.9333	-3.075	-31.370	-28.429	58.691	59.209	74.561	-71.569	175.096	149.209	213.525	178.719	95.310	176.270	143.438	-124.584	126.483	204.365	0.00040049	0.00060212	0.00015062	1366.7	4.7314e-06	5.4951e-06	1362.9	369.29	4.3477e-06	5.4656e-06	423.94	141.23	123.1	42.411	5.2107e-06	52.437	0.00048816	0.00049055	0.00013558	1381.5	5.4345e-06	5.454e-06	1378.9	375.85	5.6459e-06	5.4166e-06	430.77	144.47	125.84	43.44	5.3386e-06	53.723	-82.420	-74.101	-70.574	-129.759	3.889	-14.186	-129.835	-125.167	-0.684	-7.702	-125.804	-121.236	-120.904	-116.345	13.322	-116.818	-8191	255	
756.786	1	1	0	0	0.11674	0.26552	0.20352	0.40709	0.19643	0.10788	0.2457	0.14328	0.23038	0.12395	0.16791	0.23465	0.12985	0.3496	0.11406	0.092217	-2.3083	-2.9313	-2.8042	-2.8646	-3.1542	-2.8083	-2.9688	-3.2417	-2.8354	-2.8208	-3.1562	-3.0021	-3.1979	-2.8229	-2.775	-3.1292	51.004	80.583	75.940	168.872	102.090	26.713	107.841	2.636	20.521	-7.739	152.177	125.193	147.443	195.542	-52.390	157.031	0.00038011	0.00042432	9.4023e-05	1365.3	3.3712e-06	6.1889e-06	1360.3	370.42	4.2234e-06	5.0877e-06	424.24	141.26	122.48	42.428	5.5616e-06	52.285	0.00049829	0.00048727	0.00013718	1379.4	5.3542e-06	5.485e-06	1378.2	375.82	5.4727e-06	5.1457e-06	430.7	144.3	125.47	43.413	5.5711e-06	53.654	-84.159	-68.425	-51.920	-129.886	21.457	14.177	-129.688	-125.307	4.610	-8.054	-125.912	-121.188	-120.717	-116.287	7.489	-117.121	-8191	255	
756.882	1	1	0	0	0.31843	0.09035	0.25062	0.24818	0.18299	0.096743	0.13137	0.17299	0.13758	0.18612	0.090237	0.076807	0.19952	0.24146	0.19807	0.12502	-2.1521	-2.8417	-2.9458	-2.725	-3.15	-2.9875	-2.75	-3.1375	-2.6312	-3.0375	-3.1229	-2.8583	-3.125	-3.0542	-2.7188	-3.3125	159.673	30.613	67.293	207.286	-101.517	176.818	171.717	114.463	132.759	-47.176	122.816	-121.877	-140.207	-97.652	-101.992	82.671	0.00037283	0.000662	0.00016338	1368	4.1573e-06	6.0962e-06	1364.4	366.61	4.4891e-06	4.2101e-06	423.26	141.07	122.92	42.242	4.3743e-06	52.267	0.00048301	0.00049308	0.00013486	1380	5.5008e-06	5.4334e-06	1379.5	374.18	5.5011e-06	5.3501e-06	430.78	144.28	125.74	43.292	5.6987e-06	53.57	-86.152	-55.001	-54.508	-129.806	31.169	-2.418	-129.913	-125.300	4.192	1.781	-125.851	-121.270	-121.104	-116.421	27.504	-117.199	-8191	255	
756.979	1	1	0	0	0.14725	0.1904	0.14992	0.19675	0.33452	0.080236	0.25118	0.27598	0.32658	0.25881	0.22821	0.38947	0.16907	0.12506	0.097404	0.23304	-2.4604	-2.7917	-3.0771	-2.7625	-3.0625	-3.075	-3.0083	-3.0625	-2.7125	-3.0438	-3.175	-2.8458	-3.1688	-3.1208	-2.7333	-3.2625	94.027	179.906	210.533	135.610	32.148	-74.244	159.782	71.011	191.698	-31.943	-118.934	149.251	-99.681	-137.606	-31.519	-139.485	0.00037805	0.00060243	0.00016978	1367.3	5.2413e-06	4.3981e-06	1365.1	369.72	3.8024e-06	6.6041e-06	423.56	141.07	122.34	42.395	4.4178e-06	52.292	0.00048279	0.00050216	0.0001358	1379.6	5.506e-06	5.6028e-06	1380.5	375.55	5.3727e-06	5.4734e-06	431.04	144.38	125.69	43.383	5.5584e-06	53.677	-83.260	-55.524	-52.950	-129.739	7.221	2.938	-129.788	-125.178	-6.011	-12.501	-125.770	-121.342	-120.482	-116.446	11.594	-116.937	-8191	255	
757.099	1	1	0	0	0.095664	0.17045	0.036056	0.18991	0.10044	0.055358	0.096759	0.40241	0.052063	0.15767	0.17566	0.088417	0.26509	0.063376	0.16838	0.16952	-2.4354	-2.8479	-2.8646	-2.8708	-3.0708	-2.9833	-2.8812	-3.2646	-2.7313	-2.9333	-3.1729	-2.8708	-3.1125	-3.2771	-2.4854	-3.1312	-31.688	-113.848	91.648	146.954	-68.342	-86.171	112.873	148.040	163.833	211.503	181.373	163.616	206.808	-67.588	118.389	91.513	0.0003982	0.00051326	0.00015248	1369.7	3.8344e-06	6.1876e-06	1360.8	370.51	4.1059e-06	4.3452e-06	426.01	141.88	122.71	42.428	2.495e-06	52.551	0.00048987	0.00049732	0.00013895	1381.7	5.3145e-06	5.4389e-06	1378.2	375.93	5.5543e-06	5.5157e-06	431.26	144.45	125.68	43.433	5.6455e-06	53.76	-84.706	-49.539	-52.824	-129.758	-5.260	1.133	-129.719	-125.200	5.556	0.813	-125.755	-121.641	-120.804	-116.361	12.122	-117.014	-8191	255	
757.195	1	1	0	0	0.30743	0.15202	0.077991	0.34756	0.06157	0.10253	0.26744	0.13513	0.17966	0.050726	0.17371	0.21182	0.20261	0.17467	0.15885	0.074536	-2.5021	-2.7375	-3.0333	-2.8917	-2.9375	-3.0542	-2.9083	-3.1771	-2.7042	-2.7708	-3.3208	-2.85	-3.0312	-3.0417	-2.5583	-3.3729	103.903	182.143	-127.157	141.276	153.277	-66.875	84.801	157.559	146.296	196.521	148.827	150.236	112.392	-140.535	206.274	62.451	0.00036907	0.00055278	0.0001023	1367.5	4.7857e-06	4.7822e-06	1361.6	368.17	5.1884e-06	4.4337e-06	423.57	141.06	122.97	42.413	4.2086e-06	52.328	0.00048802	0.00051581	0.00013666	1380.6	5.3651e-06	5.4795e-06	1380.5	375.19	5.5548e-06	5.3011e-06	430.79	144.34	125.64	43.471	5.6544e-06	53.723	-85.591	-53.024	-59.424	-129.679	8.456	11.297	-129.783	-125.162	2.496	0.448	-125.574	-121.197	-120.863	-116.386	-7.073	-117.004	-8191	255	
757.291	1	1	0	0	0.16902	0.092	0.058651	0.16422	0.10192	0.16169	0.25428	0.11604	0.18695	0.081429	0.025645	0.15967	0.40448	0.1211	0.16095	0.13446	-2.4188	-2.8229	-3.3167	-2.9437	-2.9104	-3.0625	-2.7188	-3.2104	-2.9958	-2.6542	-3.2417	-2.9104	-2.8396	-3.1146	-2.8937	-3.0458	-40.344	161.103	-48.476	152.215	-60.018	107.110	161.338	-132.793	-55.151	126.678	-95.105	208.866	129.322	117.170	134.790	45.788	0.00038364	0.00046145	0.00015894	1369.3	3.5109e-06	4.9122e-06	1361.2	369.97	4.0653e-06	4.1095e-06	423.88	141.65	123.05	42.501	4.7121e-06	52.58	0.00047792	0.00048749	0.00013486	1382.1	5.2138e-06	5.247e-06	1380.2	375.97	5.3743e-06	5.2999e-06	430.54	144.84	125.9	43.552	5.4568e-06	53.827	-82.883	-58.002	-46.318	-129.803	0.857	3.369	-129.817	-125.123	-8.684	3.298	-125.799	-121.435	-120.790	-116.349	-8.484	-117.070	-8191	255	
757.363	1	1	0	0	0.10784	0.10053	0.20019	0.28124	0.076021	0.15584	0.35225	0.30414	0.012957	0.1457	0.39303	0.2797	0.26792	0.19284	0.17257	0.047161	-2.4396	-2.6875	-3.0375	-3.2125	-3.0208	-3.0083	-2.9896	-3.1521	-3.0646	-2.8021	-3.1354	-2.9021	-2.8125	-3.1021	-2.65	-3.0187	111.979	-42.328	93.584	-138.251	-120.638	92.625	156.635	176.720	-112.255	6.862	197.823	73.648	-114.533	171.825	-41.799	149.189	0.00035942	0.0004619	0.00016144	1368.5	5.09e-06	4.8834e-06	1364.6	368.88	3.4594e-06	6.1362e-06	426.32	141.45	122.55	42.626	5.4525e-06	52.456	0.00047822	0.00049399	0.00012973	1381.1	5.4778e-06	5.2822e-06	1381.2	375.48	5.2543e-06	5.3573e-06	431.67	144.71	125.82	43.479	5.5129e-06	53.667	-84.012	-48.643	-45.701	-129.814	-2.573	18.324	-129.760	-125.120	-10.122	14.655	-125.836	-121.446	-120.597	-116.379	4.814	-116.850	-8191	255	
757.482	1	1	0	0	0.26275	0.3011	0.21265	0.16889	0.2503	0.17285	0.20265	0.27267	0.20054	0.069773	0.41562	0.21979	0.35374	0.19691	0.17649	0.15134	-2.5792	-2.5854	-2.9562	-3.1146	-2.7438	-3.0292	-2.9188	-2.875	-2.8187	-2.525	-3.1333	-2.8854	-2.6979	-3.0792	-3.0375	-2.8583	74.788	-128.853	93.877	188.118	80.691	84.095	142.105	87.092	-83.567	47.807	163.800	78.659	88.948	212.423	-111.461	148.733	0.00039578	0.00043513	0.00013154	1364	4.0702e-06	5.5964e-06	1363.4	368.61	3.7319e-06	6.786e-06	423.43	141.09	123.54	42.57	5.792e-06	52.52	0.00048263	0.00049754	0.00013472	1379.3	5.4152e-06	5.2549e-06	1380.5	375.46	5.4396e-06	5.2878e-06	431.15	144.68	126.15	43.535	5.4357e-06	53.745	-85.349	-41.024	-52.039	-129.799	19.112	12.255	-129.793	-124.944	-10.546	6.694	-125.592	-121.478	-120.908	-116.145	-8.249	-116.778	-8191	255	
757.578	1	1	0	0	0.11392	0.17938	0.15844	0.27266	0.19696	0.062653	0.14319	0.17425	0.26964	0.11089	0.15103	0.21232	0.28333	0.19643	0.23468	0.32287	-2.6188	-2.6583	-2.7729	-2.9854	-2.5604	-3.1813	-2.9729	-2.9958	-3.0625	-2.6896	-3.0979	-3.0771	-2.775	-3.1896	-2.7687	-2.8083	131.372	-29.744	150.852	178.493	208.060	49.102	108.218	190.083	154.736	-51.536	-70.068	167.904	-106.449	-140.055	43.729	195.249	0.00037968	0.00041499	0.00011892	1363.1	3.3927e-06	4.4019e-06	1363.2	369.57	3.4996e-06	5.5514e-06	423.73	140.98	122.68	42.36	4.2591e-06	52.495	0.00047018	0.00048636	0.00013274	1378.6	5.4575e-06	5.0138e-06	1379.2	375.86	5.288e-06	5.2854e-06	430.89	144.48	125.85	43.402	5.4069e-06	53.764	-82.784	-43.524	-62.447	-129.697	3.933	-1.416	-129.881	-125.208	1.102	10.652	-125.690	-121.323	-120.817	-116.384	0.113	-116.944	-8191	255	
757.676	1	1	0	0	0.1975	0.12171	0.19072	0.30354	0.1085	0.25561	0.25055	0.15319	0.10841	0.082678	0.045515	0.19559	0.11594	0.23536	0.1495	0.0031271	-2.7125	-2.7479	-2.9437	-3.0167	-2.8354	-3.1562	-3.1417	-2.7833	-3.1208	-2.6708	-3.0375	-3.1875	-2.8583	-3.2125	-3.025	-2.6375	83.398	132.127	-117.335	167.074	-126.896	-0.092	120.045	-69.486	63.860	-95.350	214.703	43.999	105.473	-108.893	201.470	-107.090	0.00037137	0.00048917	0.00014818	1366.7	5.0255e-06	5.5654e-06	1367	369.51	3.6198e-06	5.0864e-06	424.15	140.76	123	42.575	4.5843e-06	52.625	0.00047149	0.0004999	0.00013235	1379.1	5.5863e-06	5.0703e-06	1380.7	375.56	5.2569e-06	5.3525e-06	431.22	144.51	125.79	43.453	5.6144e-06	53.754	-83.930	-53.824	-76.359	-130.080	6.121	3.441	-129.988	-125.074	8.555	15.408	-125.791	-121.190	-120.680	-116.197	13.876	-116.937	-8191	255	
757.795	1	1	0	0	0.045189	0.11912	0.037534	0.39196	0.080148	0.099612	0.2634	0.043364	0.082509	0.031824	0.24152	0.19077	0.060233	0.12751	0.2772	0.061975	-2.6833	-2.6771	-2.8875	-3.1146	-2.5563	-3.0375	-3.175	-2.7812	-2.8833	-2.8521	-2.9	-3.2687	-2.6479	-3.1354	-2.9354	-2.9958	137.519	195.926	111.031	143.013	100.034	15.460	161.537	100.810	30.962	77.593	182.636	187.296	65.485	163.401	42.688	-63.084	0.00038594	0.00038546	0.00015582	1366.2	4.0764e-06	6.4423e-06	1367.2	369.9	3.6487e-06	4.7978e-06	425.6	140.7	122.6	42.412	5.0366e-06	52.323	0.00046812	0.0004956	0.00013116	1380.2	5.591e-06	5.5561e-06	1381	375.84	5.3132e-06	5.3682e-06	431.94	144.39	125.78	43.508	5.4102e-06	53.616	-85.197	-41.202	-50.143	-129.797	-1.122	14.901	-129.871	-125.254	-20.666	14.866	-125.662	-121.206	-120.965	-116.275	10.493	-116.948	-8191	255	
757.891	1	1	0	0	0.21813	0.19703	0.13163	0.067424	0.13983	0.074364	0.10478	0.29615	0.14414	0.104	0.19371	0.18339	0.092773	0.1845	0.12342	0.20285	-2.5458	-2.5958	-2.9667	-3.2917	-2.625	-2.9208	-3.2833	-2.7917	-3	-2.7687	-2.8312	-3.2188	-3.0646	-2.7708	-2.8646	-2.7604	32.849	-33.924	199.450	191.343	-86.304	11.896	133.033	196.069	187.272	-76.206	155.027	164.705	165.295	193.874	9.732	182.816	0.00040188	0.00055116	0.00018061	1368.3	6.2816e-06	4.1556e-06	1367.4	370.2	4.906e-06	5.1886e-06	424.79	141.66	122.73	42.25	3.579e-06	52.513	0.00049191	0.00050436	0.00013662	1380.9	5.5425e-06	5.4279e-06	1381.8	375.7	5.3327e-06	5.6173e-06	431.31	144.67	125.68	43.401	5.4374e-06	53.699	-83.700	-48.524	-50.667	-129.818	-10.604	7.623	-129.898	-125.022	-5.448	-7.026	-125.646	-121.564	-120.716	-116.332	-0.254	-117.164	-8191	255	
757.987	1	1	0	0	0.12597	0.33451	0.032956	0.43078	0.10401	0.043642	0.27195	0.10911	0.14114	0.35071	0.23471	0.10294	0.16775	0.22344	0.11123	0.13196	-2.5271	-2.6562	-2.6	-3.2667	-2.7042	-2.8479	-3.0812	-2.7729	-2.9167	-2.9	-2.8646	-3.0333	-2.7021	-3.0062	-2.9813	-2.6188	142.730	42.019	-64.936	180.044	157.018	67.231	197.250	142.820	190.561	89.372	190.055	129.488	-139.570	-91.915	104.482	143.385	0.00038283	0.00047926	0.00012198	1368.3	3.9827e-06	5.1824e-06	1364.6	369.38	4.8691e-06	5.3179e-06	425.36	142.08	122.57	42.232	4.5705e-06	52.213	0.00047601	0.00048244	0.00013848	1381.7	5.5905e-06	5.5372e-06	1382.1	375.5	5.6585e-06	5.4656e-06	431.21	144.8	125.69	43.385	5.4862e-06	53.636	-83.817	-67.818	-73.834	-129.996	-9.008	-12.808	-129.886	-125.059	1.088	-2.507	-125.585	-121.165	-120.737	-116.193	-0.998	-117.003	-8191	255	
758.083	1	1	0	0	0.11754	0.096996	0.082309	0.12165	0.29315	0.059031	0.056346	0.13689	0.1033	0.21501	0.099925	0.16161	0.061465	0.13877	0.085148	0.07263	-2.5187	-2.7646	-2.4458	-3.4542	-2.7417	-2.7917	-3.1063	-2.8792	-3.0083	-2.9292	-2.5375	-3.0417	-3.0021	-2.7354	-3.1208	-2.925	210.774	-64.990	35.299	202.565	114.616	23.985	215.146	177.603	-32.978	-80.944	-87.199	188.970	-139.884	207.861	34.727	-103.869	0.00037794	0.00058604	0.00011717	1367.4	2.9566e-06	4.0805e-06	1365.3	370.28	4.7932e-06	3.6064e-06	424.32	142.31	122.53	42.482	4.6717e-06	52.59	0.00048222	0.00050232	0.00013837	1382.2	5.4846e-06	5.4929e-06	1382.3	376.22	5.4722e-06	5.3573e-06	431.61	145.02	125.75	43.517	5.459e-06	53.742	-80.355	-45.176	-50.528	-129.808	-11.942	-9.091	-129.960	-125.360	-9.964	-9.660	-125.840	-121.279	-120.798	-116.235	19.746	-117.020	-8191	255	
758.180	1	1	0	0	0.097414	0.29476	0.27065	0.39587	0.17387	0.088432	0.13856	0.16974	0.147	0.2667	0.13212	0.12515	0.037398	0.10377	0.074915	0.33181	-2.5646	-2.8646	-2.8083	-3.2812	-2.7812	-2.8521	-3.4333	-2.8354	-3.0771	-3.1312	-2.7021	-3.1271	-2.8937	-2.8937	-2.9458	-2.8104	167.446	-106.602	97.230	210.002	189.862	191.534	159.017	107.377	-109.230	128.077	-116.979	168.714	-81.041	-30.161	-86.290	-128.153	0.00036905	0.00040194	0.00016721	1370.6	5.1051e-06	7.0277e-06	1365	370.32	4.8752e-06	4.295e-06	426.02	141.2	123.17	42.35	3.4372e-06	52.327	0.00048301	0.00048024	0.00013877	1381.5	5.6093e-06	5.5178e-06	1382.9	376.16	5.5153e-06	5.3011e-06	431.9	144.59	126.02	43.47	5.3259e-06	53.684	-84.749	-41.138	-41.379	-129.687	5.386	-3.082	-129.944	-125.221	-8.985	20.099	-125.633	-121.247	-120.696	-116.377	14.189	-116.744	-8191	255	
758.276	1	1	0	0	0.22399	0.14032	0.20921	0.19663	0.28201	0.085378	0.19957	0.26776	0.022403	0.13524	0.099162	0.15807	0.21367	0.069579	0.16395	0.17373	-2.5312	-3.1937	-2.725	-3.2708	-3.0563	-2.7479	-3.2833	-2.9875	-2.7375	-2.9313	-2.8333	-3.2146	-2.9104	-2.7479	-3.2229	-2.8146	-119.519	190.440	82.201	215.989	91.322	37.390	164.825	126.298	-124.527	-65.916	153.086	-101.006	129.165	158.692	189.288	-66.785	0.00037961	0.00042279	0.00013171	1370.2	6.0125e-06	4.1003e-06	1368.6	369.77	4.3198e-06	4.3974e-06	425.58	141.56	122.64	42.529	4.1974e-06	52.665	0.00048576	0.00046428	0.00013866	1383.6	5.4345e-06	5.369e-06	1381.9	375.87	5.5032e-06	5.4105e-06	431.36	144.97	125.86	43.542	5.4113e-06	53.878	-83.603	-47.639	-60.077	-129.954	9.582	18.618	-129.874	-125.332	-3.963	11.444	-125.612	-121.295	-120.887	-116.289	18.043	-117.090	-8191	255	
758.396	1	1	0	0	0.14668	0.13535	0.056941	0.29955	0.054379	0.24296	0.2019	0.13045	0.10274	0.13047	0.22412	0.26213	0.1331	0.048034	0.18273	0.11735	-2.3438	-3.1479	-2.7042	-2.9938	-2.95	-2.5875	-3.0542	-2.9938	-2.8688	-3.1333	-2.7958	-2.9688	-2.9458	-2.8417	-3.3125	-2.9104	162.813	129.799	208.373	-134.837	15.694	-113.916	140.352	136.802	202.067	-77.751	161.915	158.506	54.834	144.209	-135.060	105.635	0.0003601	0.00045422	0.0001262	1371.5	4.7804e-06	7.0486e-06	1363.4	370.11	4.9216e-06	5.7338e-06	425.07	141.82	123.9	42.49	4.8715e-06	52.758	0.00047539	0.00049216	0.00013201	1382.4	5.5488e-06	5.4413e-06	1381.5	375.79	5.3927e-06	5.2806e-06	431.82	145.04	126.45	43.525	5.039e-06	53.927	-84.917	-64.284	-50.900	-129.611	7.856	-1.361	-129.830	-125.374	-6.036	-2.931	-125.762	-121.192	-120.817	-116.408	10.487	-116.844	-8191	255	
758.491	1	1	0	0	0.18314	0.13862	0.23311	0.46635	0.15297	0.053012	0.14044	0.23658	0.11293	0.12949	0.20908	0.1615	0.11914	0.11805	0.10277	0.23654	-2.3167	-3.0708	-2.6458	-3.0563	-2.9917	-2.8396	-3.0187	-3.0896	-2.8854	-3.05	-3.0146	-2.9146	-2.8854	-2.75	-2.9396	-3.0312	-37.101	138.376	170.706	-134.942	102.788	4.072	191.943	142.877	186.604	-104.504	178.087	167.162	-136.700	-83.893	-129.189	-102.485	0.00040725	0.00043144	0.00014921	1371	4.7599e-06	5.9241e-06	1364.6	371.14	4.3705e-06	4.6576e-06	426.35	142.24	123.76	42.612	4.1469e-06	52.583	0.00047277	0.00046986	0.00013568	1383.3	5.3176e-06	5.3891e-06	1382.4	377.09	5.4427e-06	5.1687e-06	432.88	145.42	126.59	43.666	5.1389e-06	54	-84.838	-56.468	-43.169	-129.728	13.933	10.070	-129.773	-125.271	16.206	-2.216	-125.722	-121.306	-121.276	-116.308	32.866	-117.084	-8191	255	
758.587	1	1	0	0	0.043591	0.14524	0.031232	0.13265	0.24981	0.12978	0.25558	0.11397	0.12391	0.11882	0.15546	0.26138	0.13553	0.046747	0.10751	0.10994	-2.25	-3.15	-2.5187	-2.8792	-3.2438	-2.7854	-3.0875	-3.1896	-2.6792	-2.8417	-2.6875	-2.7917	-3.2875	-2.7792	-2.8042	-3.0646	147.524	8.273	153.121	165.456	166.778	51.020	165.288	206.579	63.316	-46.974	91.509	205.757	76.704	127.638	-80.632	210.797	0.00040575	0.00034828	0.00018463	1371.8	2.2444e-06	4.7827e-06	1368.5	370.41	4.4625e-06	5.8612e-06	425.07	141.98	123.01	42.605	5.6986e-06	52.739	0.00047844	0.00045047	0.0001293	1386.4	5.2952e-06	5.2458e-06	1384.9	377.12	5.3717e-06	5.1258e-06	432.93	145.24	126.34	43.591	5.4651e-06	53.966	-85.234	-64.060	-60.138	-129.750	17.296	10.471	-129.918	-125.139	1.661	12.321	-125.445	-121.544	-120.844	-116.437	5.301	-116.849	-8191	255	
758.659	1	1	0	0	0.25349	0.18037	0.14855	0.37014	0.1156	0.23423	0.19047	0.17165	0.077755	0.0924	0.051488	0.11474	0.15152	0.34747	0.081163	0.19796	-2.2562	-3.0021	-2.6708	-2.925	-2.9104	-2.7521	-3.1417	-3.0208	-2.4688	-2.9021	-2.9437	-2.9625	-3.1479	-2.6396	-2.9813	-3.2687	-78.379	110.710	70.318	141.244	72.791	-18.378	118.786	193.289	-83.372	95.548	170.759	166.596	-96.651	-100.364	8.314	54.563	0.00038841	0.00026411	0.00016749	1367.9	4.9704e-06	5.1534e-06	1371.2	370.46	4.1406e-06	5.6861e-06	425.96	141.71	123.44	42.521	4.8447e-06	52.522	0.00048794	0.00047959	0.00013229	1383.8	5.3109e-06	5.5403e-06	1383.8	376.61	5.3322e-06	5.2606e-06	432.5	145.21	126.23	43.595	5.2609e-06	53.897	-85.556	-68.445	-55.644	-129.778	14.650	19.108	-129.757	-125.054	-10.176	2.480	-125.805	-121.107	-120.883	-116.464	4.245	-116.843	-8191	255	
758.779	1	1	0	0	0.11668	0.29748	0.19779	0.33228	0.028826	0.17124	0.076847	0.14947	0.20025	0.025542	0.30912	0.14474	0.18131	0.10705	0.1281	0.13598	-2.1979	-2.8604	-2.8438	-2.9417	-3.0563	-2.7708	-3.0375	-3.3187	-2.5854	-2.9604	-3.2042	-2.7687	-3.1521	-2.85	-3.0354	-3.2104	-50.381	22.698	-25.423	145.212	205.411	-61.689	116.303	160.888	-11.356	-96.935	113.714	-138.096	136.205	167.583	208.745	147.309	0.00038769	0.00049417	0.00015786	1373.3	3.0517e-06	5.2812e-06	1367.4	370.6	3.2846e-06	6.0198e-06	424.85	141.52	123.34	42.462	4.8234e-06	52.782	0.00049431	0.00047599	0.00013518	1382.5	5.2978e-06	5.4644e-06	1383.8	376.48	5.3169e-06	5.2455e-06	432.25	144.94	125.99	43.508	5.2632e-06	53.932	-85.440	-53.163	-44.059	-129.777	15.116	1.921	-129.730	-125.300	11.643	6.377	-125.719	-121.287	-121.219	-116.345	15.504	-117.116	-8191	255	
758.875	1	1	0	0	0.29575	0.13783	0.18956	0.13276	0.084854	0.18374	0.17784	0.16378	0.11066	0.24401	0.15886	0.27365	0.0972	0.21174	0.18431	0.26375	-2.2083	-3.1104	-3.0625	-2.8187	-2.9771	-2.7646	-3.0833	-3.2646	-2.5771	-3.125	-3.2687	-2.9354	-3.1896	-3.0396	-2.7792	-3.1979	-53.840	-19.507	123.734	164.332	54.244	63.573	-142.076	-112.016	-109.364	191.730	109.185	103.832	40.700	175.181	-120.948	130.463	0.00039018	0.00047787	0.00010684	1366.6	4.2528e-06	5.46e-06	1367.8	370.34	4.7256e-06	6.2148e-06	424.65	141.55	122.97	42.38	5.1638e-06	52.786	0.00048108	0.00048367	0.0001348	1381.9	5.518e-06	5.2816e-06	1382.2	376.39	5.5006e-06	5.2987e-06	432.22	145.07	126.01	43.507	5.3314e-06	53.907	-82.593	-58.699	-46.433	-129.687	25.651	25.476	-129.824	-125.331	7.853	2.265	-125.571	-121.226	-120.859	-116.351	11.899	-117.055	-8191	255	
758.971	1	1	0	0	0.063175	0.14366	0.23252	0.37714	0.16307	0.10044	0.36485	0.11017	0.013945	0.078196	0.10125	0.15463	0.11495	0.11699	0.21188	0.071282	-2.4479	-2.7771	-2.9542	-2.9625	-3.0979	-2.6917	-2.8438	-3.2188	-2.8229	-2.8854	-3.0854	-2.7583	-2.9292	-2.75	-2.8417	-3.2562	204.385	-52.507	16.329	-131.790	15.072	80.853	114.931	125.018	23.315	59.891	41.895	174.721	-14.170	-57.039	-127.844	112.637	0.00038981	0.00056413	0.00013562	1369.8	3.8628e-06	4.8669e-06	1369	370.25	3.8976e-06	6.377e-06	426	141.85	123.14	42.577	3.6397e-06	52.585	0.00047903	0.00048007	0.0001354	1383.7	5.3427e-06	5.3976e-06	1384.2	376.28	5.4427e-06	5.2691e-06	431.26	145.06	126.04	43.613	5.5428e-06	53.868	-84.054	-55.118	-57.134	-129.919	12.263	2.073	-129.735	-125.161	14.796	5.893	-125.784	-121.162	-120.824	-116.433	15.171	-116.792	-8191	255	
759.068	1	1	0	0	0.43877	0.07759	0.27634	0.074481	0.10776	0.28977	0.061745	0.053019	0.045914	0.2839	0.20985	0.096096	0.05642	0.32595	0.22636	0.071119	-2.2	-2.6312	-3.1792	-3.1458	-3.0896	-2.9146	-2.8937	-3.3458	-2.7958	-2.7896	-3.2583	-2.9583	-3.0083	-2.95	-2.5625	-3.1854	77.002	137.564	179.266	-124.089	101.471	-41.250	165.189	70.594	186.876	65.980	170.934	-131.161	67.035	141.811	-51.455	-50.625	0.00037701	0.00058954	0.00010842	1372.7	4.8786e-06	4.0938e-06	1369.4	370.95	2.7104e-06	5.1612e-06	425.09	141.08	123.25	42.563	4.3114e-06	52.514	0.00047441	0.00048851	0.00013736	1383.9	5.4763e-06	5.3028e-06	1383.8	376.73	5.5516e-06	5.3114e-06	431.99	144.91	126.15	43.505	5.5672e-06	53.803	-88.680	-53.172	-47.996	-129.765	20.913	15.889	-130.006	-125.226	10.056	2.216	-125.452	-121.259	-121.002	-116.415	3.065	-117.074	-8191	255	
759.164	1	1	0	0	0.22447	0.083859	0.15832	0.13716	0.20537	0.082902	0.17038	0.31334	0.16052	0.36735	0.21496	0.151	0.12051	0.091947	0.10504	0.26412	-2.575	-2.7646	-3.0021	-2.6667	-2.9938	-3.075	-2.8667	-2.9771	-2.7812	-2.7708	-3.325	-2.6146	-2.9771	-3.1937	-2.5375	-3.0833	25.027	-35.166	21.959	109.708	-34.196	-13.035	102.817	134.804	-22.223	-137.848	62.230	116.055	-25.462	193.715	142.111	-121.047	0.00037799	0.00058296	0.00016012	1367.5	4.4421e-06	5.865e-06	1369.1	370.39	4.3727e-06	4.7515e-06	424.34	141.46	123.17	42.546	5.0486e-06	52.398	0.00047702	0.00050318	0.00013382	1382.9	5.3265e-06	5.4468e-06	1382.8	376.5	5.5548e-06	5.3682e-06	431.87	144.95	126.07	43.582	5.4102e-06	53.796	-84.291	-57.663	-49.533	-129.742	18.078	9.096	-129.700	-125.301	2.210	-0.549	-125.631	-121.546	-120.719	-116.345	15.350	-117.191	-8191	255	
759.260	1	1	0	0	0.29546	0.10491	0.1179	0.10448	0.25671	0.14357	0.087338	0.19962	0.12352	0.16768	0.18592	0.32926	0.2827	0.052295	0.12874	0.25694	-2.4292	-2.7354	-3.1771	-3.0146	-2.7625	-3.0687	-2.8979	-3.0646	-2.7167	-2.7188	-3.2917	-2.9104	-3.0396	-3.3063	-2.7917	-2.9938	-12.630	27.256	146.557	186.069	-90.721	158.886	-18.611	-89.310	-30.795	42.107	208.171	174.029	208.936	-1.307	42.289	134.352	0.00037642	0.00047685	0.00014046	1372.3	3.2173e-06	3.6622e-06	1369.2	371.97	4.6865e-06	3.5505e-06	424.63	142.29	123.19	42.436	3.9911e-06	52.443	0.00047713	0.00047191	0.00013033	1384.3	5.4027e-06	5.3162e-06	1383.7	376.94	5.628e-06	5.3936e-06	431.51	145.02	126.13	43.511	5.5794e-06	53.734	-83.184	-46.268	-46.723	-129.847	18.871	16.129	-129.857	-125.318	-0.824	0.951	-125.701	-121.305	-120.825	-116.243	26.143	-117.068	-8191	255	
759.356	1	1	0	0	0.15872	0.10247	0.24441	0.26976	0.14991	0.041828	0.3953	0.074553	0.18704	0.084757	0.030335	0.096375	0.11758	0.097796	0.26693	0.12177	-2.2354	-2.6542	-2.9104	-3.2125	-2.6333	-3.1021	-2.975	-2.975	-3.0312	-2.5229	-3.1771	-3.0854	-2.7521	-3.2479	-2.7958	-3.1375	-100.970	-98.631	171.722	166.538	50.968	87.751	211.624	-108.096	11.102	179.867	-26.931	52.632	191.259	75.470	-64.402	86.404	0.00037266	0.00037895	0.00014228	1368.6	4.2802e-06	7.1221e-06	1365.1	371.36	3.6996e-06	5.5812e-06	425.16	141.7	123.83	42.505	4.1849e-06	52.648	0.00048522	0.00050001	0.00013266	1383.3	5.5775e-06	5.25e-06	1383.5	376.39	5.4027e-06	5.3954e-06	432.51	144.89	126.31	43.533	5.6871e-06	53.811	-84.834	-53.259	-42.271	-129.560	14.434	-3.342	-129.830	-125.291	-9.850	8.445	-125.591	-121.220	-120.752	-116.324	22.139	-117.071	-8191	255	
759.477	1	1	0	0	0.095307	0.17572	0.12822	0.26812	0.2541	0.34199	0.28211	0.27057	0.051058	0.18188	0.047331	0.17121	0.20384	0.17057	0.062623	0.26514	-2.5521	-2.7062	-2.8875	-2.9542	-2.6729	-3.0583	-3.0729	-2.9938	-2.9229	-2.6917	-3.225	-2.9313	-2.8667	-3.1	-2.7188	-2.8937	-67.483	-101.620	39.669	204.292	-63.051	213.373	160.340	178.009	122.837	125.102	173.224	130.168	-117.713	112.624	29.981	205.879	0.00040727	0.00051869	0.00010298	1371.5	4.3147e-06	4.4188e-06	1365.8	370.74	3.7733e-06	4.8337e-06	425.74	141.4	123.59	42.604	4.7181e-06	52.563	0.00048222	0.00049061	0.00013231	1382.7	5.4079e-06	5.2276e-06	1383.3	376.43	5.3785e-06	5.3773e-06	431.91	144.62	126.18	43.568	5.5123e-06	53.764	-84.762	-49.658	-56.291	-129.709	14.948	18.111	-129.768	-125.487	10.874	24.550	-125.973	-121.375	-120.637	-116.383	21.861	-117.061	-8191	255	
759.571	1	1	0	0	0.27123	0.083999	0.27689	0.30723	0.15137	0.26959	0.35209	0.14517	0.070448	0.10896	0.14667	0.099756	0.19406	0.1303	0.16947	0.21452	-2.5771	-2.6146	-2.7708	-2.9896	-2.7083	-2.8875	-2.925	-2.9188	-2.9708	-2.6979	-3.1813	-3.0333	-2.7562	-3.3042	-2.6479	-3.0208	48.871	10.103	64.797	167.600	-37.331	103.198	173.811	183.006	74.712	141.529	89.893	88.412	-139.024	75.064	29.001	116.053	0.00039391	0.00057071	0.00010193	1370.5	2.9567e-06	5.8525e-06	1368.5	370.36	4.012e-06	6.3331e-06	426.72	141.5	122.99	42.361	4.565e-06	52.591	0.0004838	0.00052011	0.00013843	1384.3	5.3557e-06	5.5652e-06	1383.1	376.32	5.3443e-06	5.523e-06	432.07	144.63	125.95	43.427	5.59e-06	53.796	-83.096	-61.162	-33.763	-130.001	-3.209	5.295	-129.804	-125.135	-11.550	10.387	-125.659	-121.458	-120.775	-116.458	12.260	-117.254	-8191	255	
759.667	1	1	0	0	0.23589	0.26625	0.20927	0.16195	0.32274	0.1623	0.23601	0.23695	0.11502	0.10572	0.055285	0.25846	0.09258	0.15231	0.117	0.14893	-2.6562	-2.6667	-3.0271	-3.1667	-2.675	-3.1437	-2.95	-2.8333	-3.0292	-2.8333	-3.0833	-3.0792	-2.6771	-3.0708	-2.8187	-3.025	-61.007	20.572	133.689	163.616	-38.587	183.262	136.166	199.187	162.384	41.656	47.334	-129.454	144.225	-114.819	-63.770	72.598	0.00038261	0.0003981	0.00011139	1369.9	4.0366e-06	6.3947e-06	1368.1	369.32	4.6199e-06	5.1318e-06	426.07	141.85	123	42.369	4.2215e-06	52.533	0.00048767	0.0004913	0.00013588	1382.3	5.2263e-06	5.3739e-06	1382.7	376.22	5.3432e-06	5.3047e-06	432.06	144.94	126.12	43.525	5.7015e-06	53.836	-86.094	-38.396	-40.468	-129.700	11.088	23.340	-129.943	-125.126	9.625	-3.521	-125.794	-121.557	-120.926	-116.444	-2.200	-117.055	-8191	255	
759.763	1	1	0	0	0.0236	0.094262	0.11526	0.20146	0.1075	0.10336	0.28199	0.14881	0.26685	0.12312	0.13776	0.15224	0.11045	0.10602	0.11102	0.0053894	-2.5438	-2.5479	-2.8937	-3.0896	-2.5812	-3.25	-3.0354	-2.9708	-3.1167	-2.6146	-3.0771	-3.1917	-2.7687	-3.1792	-2.9667	-2.9667	-66.147	-118.937	-70.104	195.512	137.882	-83.768	112.084	-1.463	112.385	-112.624	185.889	-120.253	125.293	69.727	181.156	-83.707	0.00036844	0.00056074	0.00017834	1372.2	4.5163e-06	4.3722e-06	1364.6	370.9	3.2526e-06	5.3528e-06	423.29	141.23	123.08	42.487	4.6321e-06	52.7	0.0004804	0.0004848	0.00013721	1384.6	5.5023e-06	5.3569e-06	1381.8	376.52	5.2806e-06	5.4051e-06	431.46	144.75	126.07	43.578	5.2926e-06	53.875	-83.827	-54.464	-59.785	-129.844	16.879	10.633	-129.740	-125.236	7.889	19.375	-125.444	-121.379	-120.921	-116.255	10.270	-116.748	-8191	255	
759.884	1	1	0	0	0.076524	0.1902	0.29951	0.15021	0.31725	0.30446	0.25821	0.2376	0.14711	0.1026	0.064693	0.11161	0.12728	0.10503	0.10773	0.27972	-2.5792	-2.8937	-2.9354	-3.1188	-2.7875	-3.0646	-3.2687	-2.7333	-3.3125	-2.7729	-3.0062	-3.2521	-2.7896	-3.0938	-3.0729	-2.8646	-57.457	-60.073	185.507	135.259	-75.853	-14.347	166.456	133.412	181.311	133.236	-2.832	182.693	209.035	30.644	18.278	111.114	0.00039047	0.00053267	0.00015459	1371.2	6.1495e-06	5.6533e-06	1373	370.23	4.266e-06	4.8084e-06	425.3	141.73	123.07	42.508	4.1948e-06	52.771	0.00046387	0.00050125	0.0001357	1383.8	5.4867e-06	5.2865e-06	1384.6	376.56	5.5017e-06	5.4371e-06	432.21	145.14	126.06	43.533	5.6438e-06	53.824	-87.757	-53.945	-43.259	-129.915	3.099	3.153	-129.756	-125.177	0.826	-5.731	-125.656	-121.328	-120.729	-116.404	3.176	-117.054	-8191	255	
759.956	1	1	0	0	0.13339	0.15151	0.074669	0.24807	0.10155	0.13035	0.070929	0.23261	0.28618	0.076052	0.375	0.12487	0.13448	0.24309	0.25989	0.13762	-2.6229	-2.8646	-2.9	-3.4021	-2.5438	-2.7	-3.3688	-2.8646	-3.1542	-2.775	-2.6063	-3.3458	-2.8708	-2.7958	-2.9938	-3.0667	-4.219	-55.611	189.392	167.996	110.421	67.551	129.870	168.415	-49.637	-50.850	148.390	63.148	149.228	163.917	-17.537	191.888	0.00038442	0.00057313	0.00016449	1367	4.7339e-06	6.7051e-06	1365.5	370.28	5.1948e-06	6.577e-06	426.22	141.66	123.09	42.48	5.3218e-06	52.365	0.00047427	0.00050039	0.0001415	1382.9	5.471e-06	5.5142e-06	1383.6	376.46	5.4664e-06	5.4946e-06	432.19	144.82	126.05	43.612	5.4191e-06	53.786	-82.770	-43.555	-60.833	-129.801	3.074	7.348	-129.782	-125.415	-4.610	23.434	-125.761	-121.353	-120.580	-116.494	13.530	-116.868	-8191	255	
760.076	1	1	0	0	0.27809	0.15617	0.1452	0.075218	0.13337	0.21305	0.16922	0.14923	0.084256	0.24342	0.23129	0.07761	0.23461	0.31294	0.092456	0.11494	-2.575	-2.8063	-2.5187	-3.2396	-2.85	-2.9917	-3.2542	-2.7083	-3.0521	-2.8167	-2.7313	-3.3917	-2.8042	-2.9021	-2.8937	-2.6188	-92.883	53.652	109.853	-20.477	18.459	152.999	183.081	165.878	163.808	115.246	113.903	-8.996	128.493	209.759	128.960	201.417	0.00040507	0.00050135	0.00011486	1373.3	3.2627e-06	5.839e-06	1369.8	369.95	3.7449e-06	5.2319e-06	424.01	141.33	123.72	42.492	5.9681e-06	52.445	0.00047863	0.00049614	0.00013332	1385.7	5.3719e-06	5.4577e-06	1384.2	376.2	5.4343e-06	5.419e-06	431.43	144.8	126.4	43.579	5.4041e-06	53.757	-83.659	-47.785	-57.661	-129.763	17.786	15.979	-129.861	-125.154	-8.178	-0.255	-125.731	-121.306	-120.598	-116.431	7.527	-116.871	-8191	255	
760.172	1	1	0	0	0.16231	0.21109	0.24793	0.20119	0.24309	0.16544	0.42416	0.13986	0.019609	0.28704	0.38752	0.10568	0.24948	0.25751	0.20769	0.14769	-2.5958	-3.0979	-2.6937	-3.1437	-2.8021	-2.8292	-3.3083	-2.75	-2.7958	-2.9646	-2.8583	-3.1458	-3.0042	-2.5958	-3.0292	-2.8542	157.736	-17.654	-116.117	132.126	-21.929	41.920	167.568	121.614	215.528	74.486	172.376	73.543	-120.051	162.441	35.094	99.392	0.00037256	0.0004468	0.00013548	1368.5	4.087e-06	5.9858e-06	1367.5	371.04	3.8416e-06	5.0944e-06	424.36	141.11	123.4	42.377	4.5318e-06	52.607	0.00049161	0.00048582	0.00014037	1385	5.6719e-06	5.7006e-06	1384.4	376.45	5.7453e-06	5.569e-06	432.06	144.8	126.16	43.434	5.6233e-06	53.81	-84.357	-58.796	-53.538	-129.742	5.821	14.653	-129.877	-125.331	-7.013	-10.161	-125.462	-121.221	-120.893	-116.185	13.833	-117.095	-8191	255	
760.269	1	1	0	0	0.38684	0.24859	0.23279	0.27287	0.14703	0.34469	0.23225	0.14062	0.15606	0.16947	0.37957	0.10346	0.40257	0.29188	0.16181	0.10504	-2.3583	-2.875	-2.4271	-3.2479	-2.7521	-2.7896	-3.1646	-2.7167	-3.0854	-3.0563	-2.7146	-3.1708	-2.9333	-2.8063	-3.0229	-2.75	100.681	-69.952	61.472	201.279	-117.575	64.336	134.273	-141.888	18.310	-16.764	215.167	-134.433	-135.565	-105.838	193.278	122.920	0.00039963	0.00043915	0.00012389	1369.2	4.1974e-06	5.0441e-06	1368.4	369.84	2.9662e-06	3.8122e-06	424.96	141.19	123.04	42.519	3.7784e-06	52.847	0.00048955	0.00050248	0.000143	1384.8	5.5764e-06	5.7261e-06	1384.9	376.59	5.6616e-06	5.543e-06	431.62	144.8	126.08	43.574	5.4984e-06	53.887	-84.686	-46.324	-50.705	-129.702	11.807	15.339	-129.930	-125.193	-10.929	5.258	-125.614	-121.150	-120.818	-116.291	10.432	-116.948	-8191	255	
760.365	1	1	0	0	0.1691	0.11608	0.12017	0.1535	0.13959	0.27627	0.24101	0.1214	0.086349	0.09021	0.098563	0.23298	0.091926	0.21119	0.24729	0.15201	-2.5375	-3.2479	-2.5938	-3.2146	-3.0563	-2.7438	-3.4292	-2.8438	-2.7292	-3.2313	-2.8833	-2.9396	-3.1375	-2.7938	-2.9958	-2.8917	25.822	138.638	-51.651	179.935	179.461	189.981	157.805	-73.395	-0.245	54.761	100.000	173.298	25.090	175.195	-63.750	153.886	0.00037132	0.00048493	0.00016975	1374.9	5.514e-06	5.7802e-06	1375.5	369.75	3.241e-06	6.4042e-06	426.15	141.75	123.44	42.683	5.0929e-06	52.66	0.00049194	0.00050485	0.00014092	1387.1	5.614e-06	5.6162e-06	1386.4	376.79	5.4995e-06	5.5315e-06	432.31	144.94	126.24	43.603	5.6838e-06	53.891	-84.699	-52.971	-55.714	-129.941	5.845	5.674	-129.828	-125.214	1.567	11.839	-125.727	-121.281	-120.923	-116.432	6.195	-116.961	-8191	255	
760.459	1	1	0	0	0.16711	0.082891	0.31006	0.06037	0.24163	0.10747	0.071408	0.14857	0.047624	0.36159	0.26056	0.16081	0.16636	0.087318	0.045366	0.21707	-2.5625	-3.1312	-2.5667	-3.0667	-3.0375	-2.7979	-3.2042	-2.8937	-2.9167	-3.2229	-2.7917	-2.925	-3.0354	-2.8792	-3.1375	-2.7458	213.071	126.305	162.117	209.456	183.837	195.912	128.713	170.973	-13.260	9.008	213.231	179.441	-81.405	211.025	43.652	-79.056	0.00040133	0.00038102	0.00015336	1376.8	5.045e-06	4.8999e-06	1368.9	370.18	4.0754e-06	5.7733e-06	425.88	142.21	123.51	42.412	5.4793e-06	52.616	0.0004966	0.00051801	0.00014083	1387.8	5.6531e-06	5.5275e-06	1386.4	376.5	5.6806e-06	5.5575e-06	432.61	145.26	126.34	43.57	5.5833e-06	53.904	-84.018	-69.574	-45.494	-129.874	-3.724	15.337	-129.903	-125.375	-3.952	7.729	-125.435	-121.221	-120.743	-116.226	4.462	-116.908	-8191	255	
760.555	1	1	0	0	0.15873	0.30368	0.22199	0.36463	0.17609	0.15431	0.36839	0.28586	0.058758	0.13598	0.22963	0.20191	0.052084	0.10987	0.2364	0.21846	-2.2979	-3.05	-2.7771	-3.3187	-2.9604	-2.6063	-3.2438	-3.2104	-2.6958	-3.0833	-2.9562	-3	-3.1208	-2.8063	-3.1083	-3.1021	13.823	181.733	67.947	176.679	198.124	-120.905	111.966	216.410	198.928	175.334	-119.728	-117.290	72.220	161.566	-71.704	146.928	0.00040252	0.00052056	0.00015815	1374.3	4.3311e-06	5.2658e-06	1377.3	370.82	4.5401e-06	6.0156e-06	426.88	141.61	123.19	42.48	5.121e-06	52.727	0.0004817	0.0004927	0.0001348	1386.1	5.3077e-06	5.4644e-06	1387.6	376.73	5.5395e-06	5.3253e-06	432.91	145.31	126.41	43.631	5.4224e-06	53.906	-86.954	-58.774	-42.706	-129.552	19.591	13.093	-129.861	-125.177	-12.119	2.326	-125.657	-121.286	-120.931	-116.387	12.087	-116.904	-8191	255	
760.651	1	1	0	0	0.36805	0.21844	0.056796	0.26091	0.13533	0.11752	0.33985	0.22521	0.028639	0.30029	0.21684	0.18743	0.18747	0.21625	0.17096	0.11552	-2.1083	-2.95	-2.8896	-3.0479	-2.9938	-2.8	-3.1958	-2.9854	-2.5792	-3.0229	-3.0354	-2.9833	-3.1562	-2.8583	-3.025	-2.8646	-77.401	141.908	41.004	165.982	152.204	-79.846	173.693	186.049	140.449	-46.006	131.053	152.268	173.311	-130.483	117.578	-102.738	0.00039786	0.0004477	0.00016751	1374.5	6.1568e-06	6.8232e-06	1369.8	371.01	5.0846e-06	4.6344e-06	426.91	141.81	123.29	42.426	5.0498e-06	52.849	0.00049627	0.00047776	0.00014157	1387.4	5.5389e-06	5.6496e-06	1385.4	377.08	5.6632e-06	5.3326e-06	432.55	145.07	126.23	43.639	5.6699e-06	53.898	-84.542	-46.097	-46.252	-129.794	25.560	1.034	-129.831	-125.348	-4.824	3.475	-125.818	-121.253	-120.893	-116.277	-4.965	-116.911	-8191	255	
760.748	1	1	0	0	0.054717	0.24074	0.32617	0.38669	0.069765	0.25718	0.10984	0.21698	0.13068	0.19768	0.30651	0.18134	0.12467	0.35337	0.059547	0.17593	-2.3646	-3.0833	-2.9333	-2.8833	-3.0958	-2.9021	-3.2333	-3.0896	-2.6375	-3.0167	-2.9792	-2.9021	-3.075	-2.9042	-2.9625	-3.0854	100.464	-34.329	80.809	204.371	-55.882	143.848	162.148	138.150	60.601	64.970	143.319	-107.729	196.387	173.827	86.383	184.792	0.00038671	0.0005775	0.00012545	1369.1	5.8428e-06	6.741e-06	1368.3	370.82	2.5078e-06	5.4052e-06	424.04	141.7	123.55	42.502	4.8913e-06	52.793	0.00048837	0.00047749	0.00013399	1384.2	5.4935e-06	5.5251e-06	1384.5	376.74	5.4438e-06	5.3138e-06	431.48	145.01	126.25	43.539	5.585e-06	53.868	-83.696	-53.419	-61.613	-129.828	13.223	-0.377	-129.816	-125.231	3.823	-4.454	-125.790	-121.302	-120.919	-116.489	-0.022	-117.152	-8191	255	
760.844	1	1	0	0	0.21507	0.050516	0.16946	0.41317	0.14071	0.13948	0.13375	0.26131	0.2474	0.10331	0.24494	0.12867	0.27317	0.12973	0.23674	0.11947	-2.2521	-2.9958	-2.8375	-2.7771	-3.1188	-2.6604	-3.1771	-3.1	-2.5521	-2.8979	-3.1271	-2.9083	-3.1646	-2.8479	-2.6479	-3.4208	-65.957	178.409	111.753	158.816	-83.835	59.391	108.229	-130.994	-14.618	-115.155	195.084	-84.227	0.122	134.719	-127.010	-110.678	0.0003803	0.00040248	0.00014138	1368.5	4.6829e-06	6.5066e-06	1369	370.09	3.384e-06	4.1426e-06	424.29	140.77	123.01	42.576	4.8996e-06	52.431	0.00049023	0.00049211	0.00014089	1383.8	5.649e-06	5.7164e-06	1384.4	376.39	5.8606e-06	5.5925e-06	431.24	144.55	125.79	43.45	5.6871e-06	53.687	-81.979	-59.704	-38.990	-129.877	12.118	13.850	-129.511	-125.523	-18.762	7.560	-125.809	-121.375	-120.933	-116.371	17.877	-117.083	-8191	255	
760.964	1	1	0	0	0.11336	0.1291	0.11515	0.2294	0.15253	0.071041	0.23737	0.20084	0.20035	0.12712	0.10296	0.095848	0.13985	0.23001	0.2025	0.20319	-2.4292	-2.9771	-2.7833	-2.9521	-3.0854	-2.6396	-2.8937	-3.2833	-2.6333	-2.8646	-3.0958	-2.8479	-3.2042	-2.9917	-2.8042	-3.3	100.006	-141.796	150.078	174.964	-2.475	-85.202	160.852	147.353	69.279	24.140	-120.960	172.659	-120.463	-128.882	-42.480	-131.066	0.00038704	0.00062412	0.00014536	1370.8	5.2931e-06	6.8709e-06	1368	369.02	4.0418e-06	5.0025e-06	424.29	141.36	123.27	42.365	5.2759e-06	52.419	0.00049962	0.00051172	0.00014078	1385	5.6865e-06	5.5785e-06	1383.9	375.8	5.9679e-06	5.7473e-06	431.4	144.68	125.84	43.448	5.7997e-06	53.673	-82.956	-54.005	-44.015	-129.785	22.197	5.309	-129.759	-125.079	-2.820	8.485	-125.662	-121.464	-120.981	-116.339	16.350	-116.950	-8191	255	
761.061	1	1	0	0	0.019324	0.05796	0.1116	0.040534	0.13509	0.20658	0.17643	0.15596	0.072906	0.17772	0.21627	0.36573	0.11237	0.14826	0.27627	0.2002	-2.2479	-2.9875	-2.7979	-2.7833	-3.1729	-2.9583	-2.9146	-3.25	-2.8063	-2.7417	-3.2208	-2.775	-3.0333	-2.9958	-2.6375	-3.2104	-115.127	141.881	-118.995	-14.996	-140.616	131.364	165.235	89.414	-84.427	174.598	181.708	172.738	205.385	-20.959	112.260	68.329	0.00039405	0.00045297	0.0001689	1369	5.5811e-06	5.8005e-06	1366	369.3	4.1309e-06	6.0044e-06	424.89	141.51	122.58	42.339	3.3202e-06	52.245	0.00049717	0.00050479	0.00014266	1384	5.6615e-06	5.7601e-06	1383.2	376.04	5.8706e-06	5.633e-06	431.67	144.84	125.73	43.399	5.6771e-06	53.643	-85.363	-53.125	-52.748	-129.853	14.502	7.070	-129.803	-125.298	23.704	-24.960	-125.613	-121.330	-120.760	-116.257	18.689	-117.095	-8191	255	
761.157	1	1	0	0	0.051105	0.022808	0.076048	0.065012	0.15637	0.14558	0.063828	0.11848	0.099355	0.090788	0.12884	0.22425	0.19223	0.19935	0.14543	0.012863	-2.4417	-2.8521	-2.9375	-2.9292	-3.0125	-3.0792	-2.7792	-3.1375	-2.8688	-2.7687	-3.2792	-2.9125	-2.8812	-3.1625	-2.8229	-3.0708	-136.946	121.764	-55.935	-112.932	119.531	66.311	60.092	149.431	-128.577	18.984	179.145	132.412	212.005	129.766	-14.655	-0.859	0.00036667	0.00043011	0.00014043	1373.1	5.9227e-06	5.5696e-06	1371.7	371.31	5.1479e-06	5.6814e-06	425.69	141.47	123.16	42.342	4.4526e-06	52.733	0.00050632	0.00051172	0.00014408	1385	5.6683e-06	5.8627e-06	1384.1	376.3	5.8958e-06	5.5841e-06	432.01	144.45	125.88	43.393	5.8513e-06	53.672	-84.665	-75.056	-51.436	-129.828	3.729	3.031	-129.855	-125.197	0.861	19.642	-125.645	-121.443	-120.552	-116.300	2.758	-117.044	-8191	255	
761.253	1	1	0	0	0.2013	0.12088	0.064141	0.26917	0.20458	0.072039	0.16648	0.077463	0.22981	0.067086	0.22612	0.22913	0.1474	0.11852	0.10159	0.14317	-2.5042	-2.5687	-3.1937	-2.8708	-2.9667	-3.2104	-2.7729	-3.2167	-2.8458	-2.725	-3.2042	-2.9646	-2.7958	-2.9771	-2.8333	-3.0583	166.756	27.107	-50.718	189.590	-80.142	95.987	210.326	197.682	9.152	113.780	149.920	156.566	-71.198	164.933	185.463	41.955	0.00037463	0.00055494	0.00014233	1372.5	4.4265e-06	6.936e-06	1372.6	370.57	3.6935e-06	6.4078e-06	424.16	141.08	123.16	42.367	3.4617e-06	52.359	0.00048394	0.00053746	0.00014438	1384.3	5.9291e-06	5.7765e-06	1384.7	376.39	5.6974e-06	5.786e-06	431.34	144.55	126	43.409	5.8386e-06	53.706	-85.905	-46.416	-49.033	-129.877	5.761	-1.408	-129.971	-125.081	-9.237	27.448	-125.637	-121.143	-120.980	-116.296	6.976	-117.161	-8191	255	
761.349	1	1	0	0	0.29432	0.14725	0.2466	0.33449	0.15063	0.14261	0.12663	0.13997	0.0086183	0.10035	0.079822	0.067741	0.1564	0.13371	0.27191	0.22713	-2.4437	-2.6625	-3.0229	-3.05	-2.8792	-2.925	-2.975	-3.2604	-2.9188	-2.8854	-3.2479	-2.8271	-3.0583	-3.0979	-2.6521	-3.2021	149.816	177.821	160.148	192.625	-114.454	104.282	165.842	103.695	69.025	3.641	-116.541	-134.121	-79.697	-95.226	134.761	-22.048	0.0003714	0.00049488	0.00014087	1372	5.222e-06	5.476e-06	1367.3	370.88	5.2611e-06	5.7239e-06	424.24	141.1	123.32	42.536	5.4059e-06	52.696	0.0005055	0.00050925	0.00014408	1384.5	5.8957e-06	5.6326e-06	1383.8	376.29	5.7895e-06	5.6742e-06	431.92	144.65	126.1	43.468	6.0189e-06	53.686	-83.407	-48.243	-69.712	-129.849	14.605	-10.124	-129.939	-125.140	-2.732	-9.668	-125.552	-121.393	-120.616	-116.159	20.617	-117.257	-8191	255	
761.445	1	1	0	0	0.12215	0.066883	0.081341	0.25061	0.17223	0.13838	0.066556	0.19115	0.14345	0.2672	0.1948	0.15797	0.32168	0.087874	0.096242	0.18765	-2.4062	-2.4875	-3.0167	-2.9833	-2.6354	-3.1	-2.8583	-3.025	-2.8375	-2.675	-3.0208	-2.9938	-2.8854	-3.275	-2.5417	-3.0312	171.721	-14.878	95.848	214.418	97.013	130.737	119.182	169.352	78.751	104.909	211.895	-129.116	208.373	187.585	57.774	160.722	0.00037183	0.00058481	0.00015143	1375.5	3.722e-06	5.3905e-06	1359.6	370.08	4.7069e-06	4.9919e-06	424.94	141.6	123.15	42.386	4.5062e-06	52.502	0.00049377	0.00052763	0.00014802	1384.3	5.6573e-06	5.6824e-06	1382.7	376.45	5.7158e-06	5.7255e-06	431.17	144.67	125.95	43.442	5.8741e-06	53.744	-85.688	-50.244	-64.423	-129.929	11.561	18.666	-129.933	-125.191	-1.500	6.275	-125.686	-121.197	-120.677	-116.149	15.413	-117.213	-8191	255	
761.564	1	1	0	0	0.031059	0.29373	0.082957	0.15137	0.08656	0.18924	0.20492	0.39106	0.07209	0.12648	0.09631	0.19765	0.14962	0.073714	0.027367	0.10366	-2.5125	-2.4417	-2.9333	-3.075	-2.8	-3.2292	-3.0187	-2.8854	-3.2646	-2.8312	-3.0917	-2.8729	-2.9708	-3.2667	-2.8354	-3.0396	-73.591	189.793	-140.306	195.951	142.072	66.609	152.102	190.054	159.361	174.291	90.894	175.572	198.669	132.937	-109.517	191.601	0.00037885	0.00050834	0.00016181	1367.3	5.7166e-06	6.6494e-06	1365.5	370.01	3.2494e-06	4.8892e-06	424.83	141.3	123.07	42.379	4.4438e-06	52.671	0.00048091	0.00053032	0.00014211	1383.5	5.7006e-06	5.6793e-06	1383.2	376.21	5.7716e-06	5.6959e-06	431.34	144.65	125.91	43.42	5.6577e-06	53.738	-84.891	-35.071	-46.925	-129.770	10.472	-4.396	-129.952	-125.352	8.244	13.153	-125.831	-121.345	-120.789	-116.297	-5.406	-117.007	-8191	255	
761.660	1	1	0	0	0.21986	0.27161	0.21397	0.35219	0.084985	0.12971	0.19916	0.050043	0.11915	0.12106	0.098999	0.1194	0.23277	0.39162	0.10735	0.17288	-2.6646	-2.4104	-3.1167	-3.1833	-2.7417	-3.2188	-2.9458	-2.6521	-2.9146	-2.6583	-2.9375	-2.9604	-2.7229	-3.1688	-2.7375	-2.7625	34.374	-78.833	-53.956	198.388	-19.344	37.017	143.769	110.872	-125.692	137.592	173.017	-30.914	130.135	163.704	-8.077	-124.028	0.00038292	0.00048654	0.00014735	1373	5.6663e-06	4.8946e-06	1369	368.78	2.4895e-06	5.471e-06	423.87	141.63	123.85	42.661	5.3102e-06	52.341	0.00050085	0.00053827	0.00014139	1385.4	5.7267e-06	5.5044e-06	1383.5	376.22	5.7411e-06	5.7346e-06	431.42	144.92	126.07	43.475	5.9651e-06	53.632	-84.299	-69.619	-53.210	-129.774	7.795	3.355	-129.841	-125.284	4.778	-7.656	-125.901	-121.518	-121.056	-116.424	15.476	-116.815	-8191	255	
761.756	1	1	0	0	0.18548	0.14635	0.060274	0.68833	0.049203	0.022784	0.12366	0.23081	0.21736	0.34793	0.26002	0.13939	0.32116	0.15627	0.14267	0.093635	-2.7479	-2.6792	-2.9	-2.9646	-2.7854	-3.2375	-2.9813	-2.6375	-3.0375	-2.6979	-3.0042	-3.275	-2.6188	-3.0604	-3.0563	-2.7625	32.415	-51.941	144.824	159.675	180.402	105.247	111.570	-68.330	115.810	95.294	-127.008	141.094	67.088	178.605	130.514	-114.290	0.00037455	0.00027296	0.00015387	1373.8	2.999e-06	5.5676e-06	1368.1	371.34	3.8102e-06	3.861e-06	425.26	141.47	123.51	42.374	4.2307e-06	52.473	0.00048802	0.00053032	0.0001448	1386.2	5.7283e-06	5.7734e-06	1384	377.08	5.6822e-06	5.5974e-06	431.86	144.96	126.25	43.516	5.6688e-06	53.782	-85.532	-65.125	-44.857	-129.745	44.714	2.023	-129.997	-125.141	2.602	-3.085	-125.518	-121.338	-120.622	-116.263	-6.409	-116.990	-8191	255	
761.853	1	1	0	0	0.2461	0.13512	0.063552	0.086897	0.0566	0.06953	0.18369	0.13695	0.21457	0.16092	0.14837	0.19292	0.12133	0.34624	0.1614	0.14422	-2.5708	-2.7729	-2.9521	-3.0417	-2.6333	-3.0271	-3.2	-2.9583	-3.1792	-2.7625	-3.2042	-3.1833	-2.8104	-3.1625	-2.7938	-2.8187	-60.177	24.570	-5.444	183.608	106.404	1.958	150.706	168.762	-5.251	185.549	-76.354	159.212	-97.924	-138.016	89.365	51.699	0.00037238	0.00049473	0.00012754	1370	4.881e-06	4.4778e-06	1363.3	370.22	3.4634e-06	6.0496e-06	425.79	140.85	123.55	42.435	3.9631e-06	52.57	0.0004887	0.00051833	0.00013953	1382.9	5.8337e-06	5.6411e-06	1383.1	376.4	5.6032e-06	5.5218e-06	432.04	144.74	126.02	43.446	5.8475e-06	53.831	-85.662	-46.683	-64.946	-129.715	16.629	4.576	-129.737	-125.201	-1.366	-3.383	-125.753	-121.247	-120.887	-116.292	4.514	-117.052	-8191	255	
#DATA ENDS
