BOXY.EXE: ISS Imagent and Oximeter Data Acquisition Program Version 0.80
Ascii Record File

#ACQ INFORMATION
2  Detector Channels 
16  External MUX Channels 
1  Auxiliary Channels 
5000  Waveform (CCF) Frequency (Hz)
1  Waveforms Skipped 
30  Waveforms Averaged 
1  Cycles Averaged 
16  Acquisitions per Waveform 
10.0806  Updata Rate (Hz) 

#FILE INFORMATION
TRUE -- External MUX Channel results are PARSED.
FALSE -- AC DC and Phase are NOT grouped.
TRUE -- Companion Program Settings File CREATED.
FALSE -- AC data not excluded
FALSE -- DC data not excluded
FALSE -- Phase data not excluded
FALSE -- Auxillary Chn. data not excluded
Tab delimiters

#CALIBRATION STATE
TRUE -- Waveform Calibration Values APPLIED.


#AUX CALIBRATION VALUES
Val Type	aux-1	

Term	1.0000e+00	
Factor	0.0000e+00	


#WF CALIBRATION VALUES
A = Detector Channel
Val Type	A-AC1	A-AC2	A-AC3	A-AC4	A-AC5	A-AC6	A-AC7	A-AC8	A-AC9	A-AC10	A-AC11	A-AC12	A-AC13	A-AC14	A-AC15	A-AC16	A-DC1	A-DC2	A-DC3	A-DC4	A-DC5	A-DC6	A-DC7	A-DC8	A-DC9	A-DC10	A-DC11	A-DC12	A-DC13	A-DC14	A-DC15	A-DC16	A-Ph1	A-Ph2	A-Ph3	A-Ph4	A-Ph5	A-Ph6	A-Ph7	A-Ph8	A-Ph9	A-Ph10	A-Ph11	A-Ph12	A-Ph13	A-Ph14	A-Ph15	A-Ph16	

Term	0.00000e+00	0.00000e+00	0.00000e+00	0.00000e+00	0.00000e+00	0.00000e+00	0.00000e+00	0.00000e+00	0.00000e+00	0.00000e+00	0.00000e+00	0.00000e+00	0.00000e+00	0.00000e+00	0.00000e+00	0.00000e+00	0.00000e+00	0.00000e+00	0.00000e+00	0.00000e+00	0.00000e+00	0.00000e+00	0.00000e+00	0.00000e+00	0.00000e+00	0.00000e+00	0.00000e+00	0.00000e+00	0.00000e+00	0.00000e+00	0.00000e+00	0.00000e+00	0.00000e+00	0.00000e+00	0.00000e+00	0.00000e+00	0.00000e+00	0.00000e+00	0.00000e+00	0.00000e+00	0.00000e+00	0.00000e+00	0.00000e+00	0.00000e+00	0.00000e+00	0.00000e+00	0.00000e+00	0.00000e+00	
Factor	1.00000e+00	1.00000e+00	1.00000e+00	1.00000e+00	1.00000e+00	1.00000e+00	1.00000e+00	1.00000e+00	1.00000e+00	1.00000e+00	1.00000e+00	1.00000e+00	1.00000e+00	1.00000e+00	1.00000e+00	1.00000e+00	1.00000e+00	1.00000e+00	1.00000e+00	1.00000e+00	1.00000e+00	1.00000e+00	1.00000e+00	1.00000e+00	1.00000e+00	1.00000e+00	1.00000e+00	1.00000e+00	1.00000e+00	1.00000e+00	1.00000e+00	1.00000e+00	X	X	X	X	X	X	X	X	X	X	X	X	X	X	X	X	

B = Detector Channel
Val Type	B-AC1	B-AC2	B-AC3	B-AC4	B-AC5	B-AC6	B-AC7	B-AC8	B-AC9	B-AC10	B-AC11	B-AC12	B-AC13	B-AC14	B-AC15	B-AC16	B-DC1	B-DC2	B-DC3	B-DC4	B-DC5	B-DC6	B-DC7	B-DC8	B-DC9	B-DC10	B-DC11	B-DC12	B-DC13	B-DC14	B-DC15	B-DC16	B-Ph1	B-Ph2	B-Ph3	B-Ph4	B-Ph5	B-Ph6	B-Ph7	B-Ph8	B-Ph9	B-Ph10	B-Ph11	B-Ph12	B-Ph13	B-Ph14	B-Ph15	B-Ph16	

Term	0.00000e+00	0.00000e+00	0.00000e+00	0.00000e+00	0.00000e+00	0.00000e+00	0.00000e+00	0.00000e+00	0.00000e+00	0.00000e+00	0.00000e+00	0.00000e+00	0.00000e+00	0.00000e+00	0.00000e+00	0.00000e+00	0.00000e+00	0.00000e+00	0.00000e+00	0.00000e+00	0.00000e+00	0.00000e+00	0.00000e+00	0.00000e+00	0.00000e+00	0.00000e+00	0.00000e+00	0.00000e+00	0.00000e+00	0.00000e+00	0.00000e+00	0.00000e+00	-5.53345e+01	-1.27015e+02	-1.27340e+02	-1.81716e+02	-4.47746e+01	-6.81240e+01	-1.57128e+02	-1.62015e+02	-4.21788e+01	-6.97516e+01	-1.72142e+02	-1.70362e+02	-1.80059e+02	-1.77178e+02	-5.13089e+01	-1.50265e+02	
Factor	1.80857e-05	1.60277e-04	4.48908e-05	1.58796e-01	1.75125e-06	1.97752e-06	1.70809e-01	6.08193e-02	1.37557e-06	1.84322e-06	8.34618e-02	2.77414e-02	2.97006e-02	8.95166e-03	1.69608e-06	1.25925e-02	1.30705e-05	2.57931e-05	7.13724e-06	8.02894e-02	2.50439e-07	2.91465e-07	8.12663e-02	3.08636e-02	2.52611e-07	2.90207e-07	4.12275e-02	1.37531e-02	1.53383e-02	4.59568e-03	2.66348e-07	6.24348e-03	X	X	X	X	X	X	X	X	X	X	X	X	X	X	X	X	



#DISTANCE SETTINGS
A = Detector Channel
A-1	A-2	A-3	A-4	A-5	A-6	A-7	A-8	A-9	A-10	A-11	A-12	A-13	A-14	A-15	A-16	

2.5000e+00	3.0000e+00	2.5000e+00	3.0000e+00	2.0000e+00	3.0000e+00	1.5000e+00	3.0000e+00	3.0000e+00	3.0000e+00	3.0000e+00	3.0000e+00	3.0000e+00	3.0000e+00	1.5000e+00	3.0000e+00	

B = Detector Channel
B-1	B-2	B-3	B-4	B-5	B-6	B-7	B-8	B-9	B-10	B-11	B-12	B-13	B-14	B-15	B-16	

1.0000e+01	1.0000e+01	1.0000e+01	1.4400e+00	1.0000e+01	1.0000e+01	1.5100e+00	1.9400e+00	1.0000e+01	1.0000e+01	1.9900e+00	2.4900e+00	2.4100e+00	2.9000e+00	1.0000e+01	2.9800e+00	




#DATA BEGINS
time	group	step	mark	flag	A-AC1	A-AC2	A-AC3	A-AC4	A-AC5	A-AC6	A-AC7	A-AC8	A-AC9	A-AC10	A-AC11	A-AC12	A-AC13	A-AC14	A-AC15	A-AC16	A-DC1	A-DC2	A-DC3	A-DC4	A-DC5	A-DC6	A-DC7	A-DC8	A-DC9	A-DC10	A-DC11	A-DC12	A-DC13	A-DC14	A-DC15	A-DC16	A-Ph1	A-Ph2	A-Ph3	A-Ph4	A-Ph5	A-Ph6	A-Ph7	A-Ph8	A-Ph9	A-Ph10	A-Ph11	A-Ph12	A-Ph13	A-Ph14	A-Ph15	A-Ph16	B-AC1	B-AC2	B-AC3	B-AC4	B-AC5	B-AC6	B-AC7	B-AC8	B-AC9	B-AC10	B-AC11	B-AC12	B-AC13	B-AC14	B-AC15	B-AC16	B-DC1	B-DC2	B-DC3	B-DC4	B-DC5	B-DC6	B-DC7	B-DC8	B-DC9	B-DC10	B-DC11	B-DC12	B-DC13	B-DC14	B-DC15	B-DC16	B-Ph1	B-Ph2	B-Ph3	B-Ph4	B-Ph5	B-Ph6	B-Ph7	B-Ph8	B-Ph9	B-Ph10	B-Ph11	B-Ph12	B-Ph13	B-Ph14	B-Ph15	B-Ph16	aux-1	digaux	

794.792	1	1	0	256	0.16144	0.16019	0.20988	0.33912	0.21358	0.14421	0.41403	0.082624	0.18256	0.038116	0.1398	0.07417	0.14951	0.20082	0.24264	0.17424	-2.5708	-2.8417	-2.5417	-3.3792	-2.8917	-2.6271	-3.3604	-3.0292	-2.8875	-2.9521	-2.6813	-2.9875	-3.175	-2.8167	-3.1083	-2.8271	27.199	84.996	158.431	210.957	-8.655	-30.686	132.292	211.126	50.168	146.641	-141.018	-140.383	199.579	142.719	181.653	97.573	0.0004452	0.00046983	0.0001973	1512.3	4.7161e-06	6.1918e-06	1494.3	403.15	3.5716e-06	4.0727e-06	453.21	150.98	132.79	45.791	4.1751e-06	55.887	0.00065023	0.00083425	0.00022219	1534.1	8.5707e-06	9.2352e-06	1513.5	410.12	8.4261e-06	9.1173e-06	462.14	155	136.5	47.059	8.7651e-06	57.534	-85.041	-38.884	-38.216	-130.132	12.913	-3.595	-130.050	-125.433	-13.196	6.404	-125.882	-121.585	-121.085	-116.796	3.256	-117.290	-8191	255	
794.888	1	1	0	0	0.058841	0.08555	0.0024613	0.2862	0.026445	0.043487	0.12046	0.27869	0.16899	0.16101	0.19387	0.33915	0.15268	0.40243	0.16044	0.13745	-2.325	-3.0083	-2.4562	-3.175	-2.7625	-2.7562	-3.2875	-2.9292	-2.975	-2.9583	-2.8542	-2.9979	-2.7938	-2.8292	-3.3375	-2.8583	-139.918	135.098	112.843	107.639	214.117	-39.541	121.164	148.650	-60.011	-0.919	102.318	-118.341	209.849	-118.200	90.594	-69.367	0.00040254	0.00049535	0.00015649	1511.3	3.7789e-06	5.92e-06	1491.1	401.64	4.668e-06	4.5121e-06	453.88	150.47	132.44	45.658	4.2114e-06	56.006	0.00066592	0.00079292	0.00023355	1531.2	8.7758e-06	8.9838e-06	1509.6	409.59	8.6093e-06	8.945e-06	462.28	154.92	136.21	46.987	8.7945e-06	57.628	-84.631	-41.832	-55.952	-129.855	25.360	10.779	-129.922	-125.651	-5.310	0.496	-125.918	-121.352	-120.998	-116.539	6.038	-117.216	-8191	255	
794.984	1	1	0	0	0.12828	0.32388	0.24804	0.41523	0.11038	0.24723	0.19799	0.41944	0.1747	0.31457	0.18303	0.089488	0.19314	0.10377	0.23148	0.079434	-2.5729	-3.1667	-2.7208	-3.2708	-2.9688	-2.6167	-3.2333	-3.1562	-2.6708	-3.2625	-2.9521	-3.1396	-3.1375	-2.6688	-2.9125	-3.0208	-77.922	-60.444	-1.926	207.430	78.371	9.190	197.279	155.239	33.115	62.804	108.848	205.861	-26.915	123.168	61.247	-119.562	0.00040103	0.00059181	0.0001517	1515.1	4.334e-06	5.5404e-06	1483.5	401.66	2.5759e-06	6.643e-06	452.84	150.83	132.54	45.805	4.7044e-06	56.141	0.00066469	0.00082844	0.00022444	1534.6	8.5196e-06	8.8812e-06	1508.9	410.02	8.8045e-06	8.9553e-06	461.43	154.86	136.37	47.035	8.5132e-06	57.676	-82.978	-56.407	-41.684	-130.024	-7.585	23.627	-130.071	-125.548	-19.022	6.223	-125.854	-121.633	-121.084	-116.672	3.061	-117.254	-8191	255	
795.105	1	1	0	0	0.11418	0.14322	0.12295	0.18234	0.16683	0.2058	0.30376	0.20678	0.071674	0.095547	0.2152	0.16452	0.23608	0.17063	0.17897	0.1412	-2.1625	-3.1146	-2.725	-3.0104	-2.95	-2.7417	-3.1083	-3.0104	-2.6063	-3.2896	-2.8812	-3.0146	-3.1292	-2.9771	-3.1667	-2.9792	79.428	26.789	79.884	-135.219	-71.253	-61.217	140.977	109.852	159.022	10.960	216.256	-139.246	19.075	-124.908	-76.378	89.374	0.00040258	0.00041491	0.00015899	1509.4	5.4255e-06	5.1225e-06	1483.8	401.38	5.6417e-06	5.2908e-06	452.82	151.21	132.59	45.819	3.9525e-06	56.393	0.00065336	0.00078438	0.00021666	1527.1	8.3203e-06	8.6365e-06	1505.3	409.5	8.3477e-06	8.5956e-06	461.42	155.05	136.24	47.054	8.3711e-06	57.748	-84.466	-81.600	-34.879	-130.013	28.678	-4.550	-129.952	-125.358	-5.593	19.445	-125.926	-121.352	-120.807	-116.669	5.371	-117.073	-8191	255	
795.201	1	1	0	0	0.081673	0.031235	0.1687	0.25707	0.019056	0.25972	0.13424	0.22877	0.2448	0.034893	0.36428	0.26128	0.15027	0.20528	0.064443	0.33433	-2.2521	-3.0229	-2.7625	-3.2604	-3.0125	-2.7229	-3.1417	-2.9271	-2.7896	-3.2333	-3.0271	-3.0708	-3.2208	-2.7833	-2.9917	-3.0062	138.244	-0.071	-41.552	-142.319	-25.278	32.043	-98.916	198.808	157.592	-42.874	210.226	-87.609	157.161	184.062	104.293	89.021	0.00042186	0.00056183	0.00015382	1515.2	5.4335e-06	3.5739e-06	1485.2	400.84	4.5823e-06	3.4207e-06	453.54	151.62	132.71	45.846	3.4741e-06	56.16	0.00064775	0.00079717	0.00021778	1529.7	8.3062e-06	8.8466e-06	1504.8	409.18	8.6903e-06	8.9789e-06	461.24	155.18	136.33	46.981	8.3439e-06	57.568	-88.388	-45.385	-49.558	-129.881	26.000	-19.454	-130.018	-125.518	6.998	3.139	-125.848	-121.558	-121.045	-116.628	33.896	-117.232	-8191	255	
795.297	1	1	0	0	0.043801	0.14442	0.12934	0.36462	0.30713	0.16753	0.21502	0.17415	0.15332	0.13323	0.22562	0.19912	0.13644	0.12743	0.1469	0.22934	-2.325	-3.0625	-2.9083	-2.9333	-3.2521	-2.9104	-3.3021	-3.2125	-2.6042	-3.0646	-3.1312	-3.0396	-3.4375	-2.8458	-2.9938	-3.125	-140.462	-111.684	59.496	172.229	196.241	177.036	74.596	-124.930	111.039	-57.990	195.468	-125.027	132.903	157.635	-31.880	131.810	0.00040849	0.0006879	0.00011075	1511.3	4.2019e-06	6.5931e-06	1486.9	401.65	5.774e-06	6.2444e-06	453.9	151.4	132.72	45.894	5.0153e-06	56.004	0.00065753	0.00078852	0.00022094	1527.9	8.504e-06	8.9838e-06	1504	408.27	8.4872e-06	8.5279e-06	461.1	154.99	136.03	46.947	8.3373e-06	57.465	-84.809	-58.843	-37.472	-129.878	-6.250	4.531	-130.057	-125.437	-13.064	13.871	-125.927	-121.317	-120.896	-116.265	14.905	-117.183	-8191	255	
795.393	1	1	0	0	0.23466	0.21393	0.17932	0.18417	0.077017	0.12175	0.27139	0.12921	0.10486	0.21355	0.20846	0.30674	0.10898	0.18638	0.10722	0.035511	-2.2292	-3.1396	-3.075	-2.9479	-3.1813	-2.7542	-3.0375	-3.2208	-2.7667	-3.1562	-3.3042	-2.8937	-3.1292	-2.7667	-2.7604	-3.3021	-78.771	104.916	41.126	181.091	126.921	-74.444	163.952	-139.572	29.493	-109.909	131.983	172.197	-42.444	159.420	-9.806	213.213	0.00041837	0.00063504	0.00013849	1509.2	5.1767e-06	6.6865e-06	1484.1	401.44	4.5459e-06	6.14e-06	452.83	150.64	132.8	45.615	4.5801e-06	55.951	0.00065467	0.0007653	0.00022164	1526.1	8.2874e-06	8.6602e-06	1500.6	407.87	8.5698e-06	8.3362e-06	459.11	154.21	135.68	46.787	8.5187e-06	57.348	-83.445	-58.546	-58.029	-129.822	2.371	25.705	-129.952	-125.440	-12.887	-1.246	-125.674	-121.571	-120.995	-116.395	-3.484	-117.221	-8191	255	
795.488	1	1	0	0	0.086194	0.28327	0.13037	0.21042	0.14526	0.1288	0.12608	0.32611	0.13621	0.18886	0.26054	0.048483	0.2948	0.29376	0.26675	0.15674	-2.1021	-2.7604	-3.1354	-2.9854	-3.0104	-2.8771	-3.0917	-3.2146	-2.8063	-3.0687	-3	-2.8563	-3.1208	-2.975	-3.0292	-3.1396	75.792	108.785	-79.597	-108.472	-71.750	104.983	154.029	133.203	17.426	105.684	156.683	-111.629	-134.283	196.927	-69.801	139.382	0.00040199	0.00044776	0.00018745	1502.2	6.5506e-06	4.544e-06	1482.1	400.93	5.5212e-06	5.0531e-06	449.65	150.56	132.41	45.396	5.2933e-06	55.736	0.0006563	0.00078954	0.00022076	1519.6	8.349e-06	8.6122e-06	1496.5	407.22	8.4461e-06	8.6959e-06	458.19	154.29	135.56	46.675	8.4471e-06	57.288	-86.718	-51.067	-52.764	-129.915	21.330	24.513	-129.863	-125.319	6.999	12.830	-125.948	-121.381	-120.982	-116.447	-4.047	-117.309	-8191	255	
795.584	1	1	0	0	0.17459	0.12528	0.074692	0.13773	0.14031	0.26154	0.21014	0.27647	0.36062	0.14507	0.10552	0.36378	0.21104	0.1855	0.090166	0.10253	-2.1021	-2.9562	-2.8312	-3.0208	-3.0021	-2.9229	-2.8896	-3.0563	-2.7042	-2.7542	-2.9938	-2.8521	-3.1583	-3.0708	-2.7792	-3.1375	200.321	-121.092	174.745	193.679	-38.301	-93.935	164.282	-135.366	-104.148	38.202	86.452	185.272	-117.724	138.273	-46.451	193.268	0.00038585	0.00058834	0.00015979	1502.3	3.9793e-06	6.2971e-06	1480.1	399.42	4.2155e-06	7.4051e-06	449.11	150.36	131.91	45.562	6.5643e-06	56.008	0.00064563	0.00078604	0.00021968	1518.8	8.121e-06	8.6189e-06	1495.5	406.98	8.323e-06	8.6089e-06	458.05	153.98	135.45	46.738	8.491e-06	57.275	-84.549	-32.936	-52.586	-129.919	9.570	4.834	-129.905	-125.415	-18.686	11.304	-125.639	-121.585	-121.097	-116.397	7.679	-117.033	-8191	255	
795.680	1	1	0	0	0.05314	0.25882	0.15228	0.31441	0.091803	0.24102	0.1924	0.25626	0.26878	0.2	0.11834	0.29833	0.042513	0.23981	0.076683	0.15388	-2.2875	-2.8063	-3.075	-2.5958	-2.8937	-2.7229	-2.9646	-3.3063	-2.6354	-2.9271	-3.125	-2.8521	-2.9021	-3.1937	-2.6229	-3.2792	46.101	131.979	141.960	160.958	131.633	-137.586	137.180	163.771	-115.812	-9.174	-52.687	121.844	179.612	171.347	-101.760	158.613	0.00041108	0.00052799	0.00017483	1507.4	4.9799e-06	7.6106e-06	1474.6	400.97	4.3047e-06	4.5684e-06	450.94	149.99	131.83	45.506	4.2242e-06	55.735	0.00064487	0.00078406	0.00021775	1519.4	8.0881e-06	8.8527e-06	1491.8	407.26	8.0946e-06	8.7636e-06	458.06	153.87	135.14	46.662	8.5653e-06	57.169	-85.496	-50.675	-50.870	-129.889	17.008	9.322	-129.891	-125.286	26.370	10.392	-125.603	-121.628	-120.948	-116.556	27.381	-117.007	-8191	255	
795.801	1	1	0	0	0.11059	0.099249	0.29266	0.3305	0.18958	0.15496	0.397	0.12124	0.037675	0.37777	0.073701	0.22169	0.32977	0.12682	0.13833	0.19843	-2.2542	-2.9396	-2.9771	-2.8937	-2.9604	-2.9271	-2.9833	-3.2083	-2.8875	-2.8042	-3.3875	-3.0167	-2.9854	-3.2229	-2.6813	-3.0083	23.506	-47.913	192.293	187.536	179.996	-76.997	94.281	-141.102	23.772	-43.486	128.770	-109.167	211.489	151.406	-96.356	69.720	0.00040901	0.0004882	0.00010539	1492	4.541e-06	7.4605e-06	1469.9	401.25	4.3511e-06	5.7602e-06	448.14	149.71	131.55	45.524	5.4303e-06	55.419	0.00064255	0.0007912	0.00021553	1512.4	8.1993e-06	8.7761e-06	1490.3	407.62	8.6477e-06	8.9456e-06	457.21	153.77	134.93	46.661	8.8261e-06	56.982	-84.309	-57.383	-40.727	-129.813	-1.020	7.549	-129.951	-125.620	0.740	21.434	-125.646	-121.500	-120.692	-116.310	17.488	-117.253	-8191	255	
795.897	1	1	0	0	0.16069	0.24993	0.14983	0.13528	0.087412	0.30874	0.18343	0.14449	0.22284	0.17789	0.23936	0.12774	0.12446	0.29378	0.13515	0.1887	-2.4708	-2.6813	-3.0187	-2.9688	-2.9062	-3.1437	-2.9417	-3.2208	-2.9125	-2.5771	-3.2521	-2.7812	-3.0229	-3.2396	-2.7479	-3.1063	17.025	-110.215	-29.153	106.443	-43.467	196.024	196.643	164.192	172.212	170.549	191.248	-105.500	-131.654	169.800	-126.081	175.729	0.00040904	0.0003011	0.00017771	1501.4	4.108e-06	7.2894e-06	1475.3	398.66	4.799e-06	4.837e-06	451.15	150.13	131.74	45.566	7.3495e-06	55.461	0.00066799	0.00082511	0.00021861	1516.8	8.5791e-06	9.0567e-06	1493.1	407.07	8.6914e-06	8.988e-06	458.25	153.78	135.28	46.633	8.8516e-06	57.033	-84.402	-47.333	-51.312	-130.059	20.401	-4.898	-130.026	-125.190	-10.916	13.860	-125.979	-121.499	-121.020	-116.408	10.974	-117.144	-8191	255	
795.993	1	1	0	0	0.2496	0.03617	0.23555	0.34471	0.1198	0.14127	0.092843	0.13367	0.083452	0.16395	0.29405	0.37774	0.32356	0.18905	0.20757	0.46427	-2.4583	-2.6521	-2.9333	-2.8292	-2.8542	-3.1562	-2.9979	-3.0979	-3.0292	-2.7812	-3.3833	-3.075	-3.0271	-3.3167	-2.6542	-3.0625	161.296	70.689	168.004	206.305	-128.584	142.572	155.637	141.410	154.128	156.627	155.448	67.719	208.115	151.957	152.722	174.006	0.0004216	0.00053339	0.00015434	1502.7	1.9226e-06	8.4825e-06	1472.9	400.1	4.9626e-06	4.6285e-06	449.25	149.77	131.54	45.414	6.582e-06	55.833	0.00067041	0.00085321	0.00022314	1517.7	8.7163e-06	8.9049e-06	1491.6	406.94	8.5251e-06	9.211e-06	457.8	153.74	135.3	46.687	9.1224e-06	57.157	-82.866	-55.676	-63.615	-129.931	-18.407	27.517	-129.847	-125.272	1.025	11.287	-126.017	-121.452	-120.830	-116.528	11.458	-117.113	-8191	255	
796.089	1	1	0	0	0.11923	0.11718	0.19351	0.27708	0.11639	0.12143	0.096213	0.16112	0.24969	0.16725	0.26077	0.13242	0.097148	0.13479	0.26695	0.13142	-2.5854	-2.5604	-3.0938	-3.1	-2.8042	-3.05	-3.0146	-3.0333	-3.1063	-2.6792	-3.0438	-3.0271	-2.7875	-3.3104	-2.6437	-2.8875	157.007	99.002	195.374	195.564	16.308	-59.090	-15.457	184.872	204.656	208.617	-105.363	201.357	-137.447	-38.968	-18.676	135.360	0.00042799	0.00054635	0.00012912	1497.9	5.1256e-06	6.5436e-06	1476.7	399.35	5.0547e-06	4.5039e-06	450.09	150	132.61	45.683	5.3464e-06	55.769	0.00066695	0.00083994	0.00021888	1516.5	8.6725e-06	8.9899e-06	1494.1	407.23	8.5298e-06	8.9638e-06	458.15	153.64	135.46	46.732	8.6458e-06	57.218	-83.306	-50.875	-48.674	-129.825	-6.754	-6.094	-129.984	-125.402	1.557	15.336	-125.675	-121.654	-120.881	-116.556	4.558	-117.073	-8191	255	
796.185	1	1	0	0	0.29742	0.19228	0.18778	0.23607	0.087113	0.27802	0.28423	0.26844	0.10465	0.049434	0.18709	0.18656	0.16534	0.1619	0.094972	0.37649	-2.7604	-2.5646	-3.2938	-3.0271	-2.6542	-3.1333	-3.2313	-2.8208	-3.075	-2.9229	-3.0563	-3.2208	-2.95	-3.2083	-2.925	-3.075	171.962	155.451	-71.175	177.096	12.613	-121.428	135.197	207.718	75.389	-4.143	173.790	161.719	-97.863	-69.621	8.311	30.625	0.00043036	0.00060092	0.00010633	1500.4	6.7e-06	8.0487e-06	1472.2	400.26	5.5044e-06	6.5394e-06	452.02	150.37	132.59	45.687	4.1618e-06	55.901	0.00066771	0.0008099	0.00022044	1516.5	8.4429e-06	8.8423e-06	1492.6	407.49	8.4925e-06	8.8428e-06	458.74	154.39	135.63	46.803	8.6225e-06	57.29	-84.557	-43.762	-44.013	-129.836	17.773	-5.825	-130.098	-125.205	-4.941	5.531	-125.737	-121.420	-120.733	-116.584	12.894	-117.201	-8191	255	
796.281	1	1	0	0	0.1436	0.18495	0.16299	0.34174	0.29829	0.17535	0.38302	0.053004	0.031253	0.17558	0.12052	0.32766	0.18749	0.053391	0.054716	0.12855	-2.4979	-2.6208	-3.0896	-3.0417	-2.6375	-3.1562	-3.1521	-2.7562	-3.0979	-2.7021	-3.1167	-3.1458	-2.8375	-3.2667	-2.9146	-2.9083	49.388	185.499	95.314	194.092	169.885	-66.959	175.079	39.786	70.821	190.935	107.128	109.162	28.188	4.365	213.234	100.195	0.00040495	0.00047337	0.00010652	1498.7	4.1637e-06	5.3264e-06	1474.8	401.11	5.0254e-06	6.1428e-06	450.55	150.44	132.03	45.554	4.0343e-06	56.093	0.00065843	0.00080184	0.00021046	1517.3	8.5791e-06	8.6869e-06	1492.7	407.4	8.6693e-06	9.072e-06	458.77	154.13	135.58	46.738	8.6691e-06	57.269	-79.806	-43.530	-41.657	-130.004	-4.271	22.210	-130.024	-125.195	-0.787	16.015	-125.727	-121.615	-120.809	-116.663	0.685	-117.027	-8191	255	
796.377	1	1	0	0	0.1564	0.27552	0.20217	0.49156	0.21224	0.43414	0.28364	0.10536	0.14031	0.096932	0.12895	0.12817	0.14383	0.18038	0.12582	0.18197	-2.8042	-2.7625	-2.8458	-3.0917	-2.6792	-3.1312	-3.2188	-2.7625	-3.0229	-2.7917	-3.1188	-3.2208	-2.7333	-3.2125	-2.7562	-2.9125	-85.670	27.060	65.615	176.173	167.644	-57.533	189.827	70.288	-85.891	3.181	184.506	67.485	205.954	185.820	40.935	94.250	0.00040595	0.00067094	0.00015991	1501.2	5.2264e-06	6.3162e-06	1472.9	399.54	3.2768e-06	7.5387e-06	451.26	149.97	132.26	45.389	3.7983e-06	55.909	0.0006825	0.00083365	0.00022305	1518.1	8.6907e-06	8.8168e-06	1494.4	407.3	8.6577e-06	9.15e-06	458.6	154.3	135.6	46.704	8.7401e-06	57.375	-82.833	-58.735	-64.552	-129.852	9.604	0.662	-129.897	-125.367	3.584	5.134	-125.871	-121.533	-120.807	-116.566	-3.280	-117.137	-8191	255	
796.474	1	1	0	0	0.20071	0.28091	0.14807	0.17177	0.19703	0.14476	0.27613	0.060779	0.048444	0.26943	0.31662	0.5235	0.18115	0.23642	0.23674	0.26574	-2.7625	-2.8292	-2.7208	-3.3479	-2.8604	-3.2271	-3.2	-2.7854	-3.1813	-2.8104	-2.9979	-3.3542	-2.9667	-3.1167	-2.9667	-2.6937	-92.804	147.672	-106.162	132.468	2.896	-41.291	126.622	148.648	-27.798	-83.724	183.810	188.083	208.782	179.624	-63.258	-108.922	0.00042107	0.00056228	0.00014071	1502.6	5.4693e-06	4.9112e-06	1474.1	399.68	5.8652e-06	5.5681e-06	449.42	149.76	132.26	45.711	6.1075e-06	56.07	0.00066374	0.00084102	0.00022737	1517.5	8.6991e-06	8.7154e-06	1492.9	407.44	8.5367e-06	8.8973e-06	458.21	154.06	135.54	46.818	8.7063e-06	57.368	-81.478	-41.150	-63.368	-129.922	-4.995	9.713	-129.985	-125.446	-4.798	-0.671	-125.911	-121.392	-120.790	-116.282	6.514	-116.907	-8191	255	
796.592	1	1	0	0	0.23264	0.20719	0.1568	0.17979	0.25718	0.010651	0.041878	0.1647	0.10791	0.059999	0.15055	0.095832	0.24015	0.13253	0.086625	0.22192	-2.7292	-2.8375	-2.7542	-3.4188	-2.5708	-2.7938	-3.2521	-2.6625	-2.9583	-2.9896	-2.9667	-3.3125	-2.85	-3.0812	-2.8021	-2.8167	46.715	-78.054	66.428	185.733	216.574	-55.756	72.098	164.723	-89.475	131.047	68.094	123.564	203.190	64.820	165.559	-121.042	0.00040641	0.00048255	0.00014426	1498.2	5.8549e-06	6.7524e-06	1478.5	400.09	5.1341e-06	4.2266e-06	451.7	150.03	131.88	45.688	5.3995e-06	55.835	0.00065941	0.0008056	0.00022903	1518.7	8.8379e-06	9.0172e-06	1496.2	407.38	8.804e-06	9.1814e-06	458.76	154.16	135.49	46.795	9.1751e-06	57.324	-83.486	-47.260	-66.026	-129.902	-3.304	17.091	-130.035	-125.115	-12.344	6.267	-125.941	-121.366	-120.888	-116.358	-1.924	-117.359	-8191	255	
796.689	1	1	0	0	0.17819	0.13576	0.19696	0.42393	0.087805	0.29488	0.22759	0.28434	0.15137	0.073127	0.11366	0.45423	0.069646	0.22754	0.165	0.15977	-2.7292	-2.9854	-2.6271	-3.1667	-2.7458	-3.0187	-3.3771	-2.65	-2.9667	-2.9313	-2.7625	-3.0104	-2.9958	-2.9833	-3.0167	-2.7583	98.949	-89.122	-98.864	138.905	-95.865	104.414	-74.460	151.663	23.158	138.312	-134.736	168.151	-95.052	-85.132	49.787	-12.506	0.00041093	0.0004497	0.00018069	1500.3	4.9277e-06	5.5394e-06	1480.8	399.46	4.2927e-06	6.3237e-06	452.2	149.71	131.65	45.597	6.3955e-06	55.687	0.00065696	0.00086713	0.00023369	1519.7	9.1556e-06	9.4866e-06	1496.6	407.15	8.6951e-06	9.2546e-06	459.27	153.99	135.39	46.72	9.0558e-06	57.253	-83.054	-67.626	-52.102	-129.768	5.500	4.593	-129.878	-125.338	-18.431	2.466	-125.622	-121.425	-121.042	-116.519	13.993	-117.313	-8191	255	
796.785	1	1	0	0	0.33879	0.19611	0.15975	0.2373	0.15323	0.36168	0.30378	0.37645	0.073776	0.1244	0.18368	0.1561	0.27505	0.083117	0.036551	0.32281	-2.6854	-3.05	-2.6437	-3.3229	-2.7021	-2.7542	-3.1979	-2.7917	-3.0542	-3.0521	-2.85	-3.0417	-2.9854	-2.9333	-3.3771	-2.7854	-17.021	79.942	195.467	191.523	118.592	83.377	133.945	170.405	152.388	183.992	168.707	91.446	-128.417	164.473	99.901	124.693	0.00039835	0.00059831	0.00013913	1504.8	5.6051e-06	6.2721e-06	1476.9	400.48	4.7913e-06	7.4353e-06	450.54	150.37	132.55	45.499	5.9144e-06	56.002	0.00067256	0.00084881	0.0002367	1519.1	9.0278e-06	9.1241e-06	1495.9	407.63	8.774e-06	9.4934e-06	458.11	154.17	135.72	46.791	9.0581e-06	57.314	-86.505	-47.349	-57.287	-129.869	15.222	4.026	-129.924	-125.361	4.934	-1.496	-125.828	-121.362	-120.777	-116.378	15.972	-117.212	-8191	255	
796.881	1	1	0	0	0.14936	0.30107	0.2148	0.20773	0.25102	0.11004	0.148	0.34651	0.047378	0.20456	0.20962	0.25843	0.11361	0.12962	0.12428	0.087983	-2.4208	-2.8229	-2.5354	-3.4208	-3.0292	-2.7833	-3.2042	-2.9833	-2.9771	-3.1562	-2.7292	-3.1354	-3.1146	-2.8875	-3.2417	-3.1104	167.894	99.469	-23.542	-116.316	-122.373	75.793	116.237	-123.249	-40.768	187.807	139.371	-135.397	103.029	118.981	80.945	76.380	0.00040453	0.00056116	0.00013302	1507.5	5.7266e-06	6.3815e-06	1476.8	399.96	5.0851e-06	5.399e-06	451.29	150.56	131.33	45.706	4.8539e-06	56.134	0.00067594	0.00083983	0.00023441	1522.1	8.972e-06	9.4593e-06	1494.7	407.25	8.9782e-06	9.4825e-06	459.05	154.38	135.18	46.838	9.1635e-06	57.428	-83.399	-68.177	-64.495	-129.875	19.994	6.536	-130.219	-125.322	-1.715	2.860	-125.811	-121.446	-121.042	-116.519	-2.776	-117.177	-8191	255	
796.977	1	1	0	0	0.11661	0.3231	0.21867	0.22236	0.13492	0.11422	0.20968	0.34227	0.27895	0.20429	0.099801	0.3746	0.066979	0.1598	0.15334	0.15606	-2.5104	-2.9417	-2.5833	-3.0979	-2.9208	-2.7854	-3.0958	-2.9688	-3	-3.1375	-2.9354	-3.1854	-3.1125	-2.7458	-2.9854	-2.8167	-80.417	192.177	186.853	149.933	-28.402	43.378	175.427	138.536	27.710	81.256	-75.291	187.781	46.506	139.108	-100.472	126.309	0.00038435	0.0003661	0.00015483	1505	5.5186e-06	5.4915e-06	1472.9	400.8	3.8608e-06	6.1216e-06	452.35	150.3	131.89	45.615	4.8404e-06	56.133	0.00066973	0.00082705	0.00023556	1521.5	8.9918e-06	9.4459e-06	1496.2	408.14	8.7866e-06	9.2769e-06	458.93	154.23	135.51	46.866	8.8405e-06	57.471	-84.960	-31.738	-45.340	-129.918	23.098	5.658	-129.941	-125.280	-4.003	0.262	-125.716	-121.447	-120.701	-116.829	1.286	-116.976	-8191	255	
797.073	1	1	0	0	0.30179	0.038039	0.098833	0.52004	0.10156	0.2172	0.19483	0.21995	0.3892	0.036085	0.048644	0.289	0.13087	0.12121	0.14734	0.13544	-2.4375	-2.8104	-2.5542	-3.1458	-3.0542	-2.6417	-3.1208	-2.7271	-2.8792	-3.15	-2.9208	-2.9542	-2.8792	-2.5833	-2.9583	-2.9375	179.691	106.714	213.670	203.678	203.550	212.709	133.453	187.051	99.595	185.279	186.501	-134.708	0.459	203.160	-9.442	-15.704	0.00040603	0.00034332	0.00022866	1504.5	6.7255e-06	8.3321e-06	1473.8	399.07	3.949e-06	4.0272e-06	447.41	150.15	131.97	45.634	5.059e-06	56.034	0.00066499	0.00083247	0.00023331	1521.7	8.7601e-06	9.5576e-06	1496	407.65	8.7035e-06	9.1161e-06	458.35	153.99	135.47	46.885	9.027e-06	57.44	-85.159	-69.318	-62.131	-129.719	11.069	-5.259	-129.875	-125.401	-11.468	1.212	-125.627	-121.440	-121.059	-116.534	-4.964	-117.143	-8191	255	
797.194	1	1	0	0	0.094676	0.24346	0.3695	0.021143	0.07529	0.46146	0.037954	0.15272	0.047159	0.087534	0.025605	0.1482	0.14631	0.27127	0.13334	0.11945	-2.2771	-3.075	-2.6188	-3.1625	-2.9271	-2.7208	-3.1125	-3.225	-2.5396	-3.0687	-2.8667	-3.0583	-3.0958	-2.825	-2.8229	-3.0292	190.282	-74.956	-102.886	-5.976	180.722	-123.010	0.795	187.589	75.220	47.308	-14.085	-118.070	118.607	196.412	-37.747	174.737	0.00041197	0.00056447	0.00011336	1501	5.2281e-06	4.7673e-06	1472.9	399.51	4.4572e-06	6.979e-06	452.58	151.17	132.22	45.584	3.7938e-06	56.124	0.0006764	0.00083403	0.00023275	1518.6	9.0993e-06	9.5024e-06	1494.6	407.08	9.0466e-06	9.2751e-06	459.97	154.32	135.55	46.806	8.9909e-06	57.486	-84.335	-56.601	-66.513	-129.912	26.449	8.633	-129.812	-125.369	5.729	13.434	-125.827	-121.453	-120.915	-116.251	3.057	-117.006	-8191	255	
797.290	1	1	0	0	0.21189	0.28686	0.33017	0.31822	0.14683	0.17388	0.48637	0.032889	0.15452	0.34526	0.069841	0.32844	0.075505	0.38885	0.17123	0.2118	-2.1792	-3.05	-2.6292	-2.875	-3.0729	-2.6542	-3.1542	-3.2438	-2.7083	-3.1396	-2.9792	-2.8458	-3.1604	-2.8042	-2.9896	-3.1958	-113.176	5.791	67.600	178.691	204.364	0.527	158.244	8.525	-135.896	-137.648	-98.931	198.870	177.699	188.374	206.190	152.671	0.00039215	0.00051265	0.0001714	1509.6	4.5468e-06	5.2512e-06	1479.1	401.99	4.2385e-06	4.6329e-06	450.45	150.8	132.56	45.656	3.6348e-06	55.885	0.00066766	0.00084967	0.00023244	1521.8	8.9803e-06	9.5479e-06	1494.7	408.1	8.8482e-06	9.5333e-06	458.52	154.46	135.51	46.829	9.098e-06	57.334	-86.550	-73.998	-50.200	-129.847	24.159	1.580	-129.923	-125.540	-7.103	-15.541	-125.717	-121.463	-120.970	-116.303	-17.885	-117.319	-8191	255	
797.362	1	1	0	0	0.21878	0.071095	0.067432	0.38581	0.18287	0.20368	0.33788	0.2956	0.17647	0.20486	0.040088	0.14128	0.25671	0.42189	0.22372	0.042319	-2.1979	-3.1125	-2.8375	-2.9188	-3.05	-2.5333	-3.2208	-3.1688	-2.4396	-2.9417	-3.1021	-2.8354	-3.3312	-2.8417	-2.8354	-3.1021	35.516	-79.023	-66.283	167.481	16.702	160.801	155.662	176.128	23.406	-65.797	186.999	187.176	166.052	165.241	-116.866	-73.384	0.00041021	0.00062098	0.00013568	1504.3	4.4807e-06	5.6996e-06	1475.9	401.22	3.8858e-06	5.1787e-06	451.76	150.23	132.09	45.759	4.8793e-06	55.835	0.00067847	0.00084295	0.00024002	1520.3	8.6647e-06	9.3985e-06	1495.2	407.9	8.9251e-06	9.3235e-06	458.82	154.13	135.51	46.845	9.1358e-06	57.262	-82.780	-28.359	-66.483	-130.033	8.031	6.891	-129.954	-125.272	11.794	-1.073	-125.605	-121.366	-120.755	-116.431	19.452	-117.171	-8191	255	
797.481	1	1	0	0	0.12662	0.16283	0.28437	0.090259	0.11661	0.070665	0.21352	0.016536	0.16273	0.13406	0.071332	0.091061	0.11785	0.12095	0.076816	0.21341	-2.0229	-3.0062	-2.8167	-2.9646	-3.1167	-2.5875	-2.9667	-3.0646	-2.4667	-2.8292	-2.9958	-2.6458	-3.2146	-2.9708	-2.8021	-3.0542	147.026	-8.276	57.515	26.676	88.134	35.448	205.025	-44.532	-119.007	-139.186	-39.819	53.455	199.193	184.336	-43.751	-76.127	0.00040907	0.00044912	0.00019162	1496.1	5.288e-06	5.1905e-06	1467.3	397.44	4.3486e-06	5.5985e-06	451.28	150.11	132.09	45.521	7.2034e-06	56.004	0.0006932	0.0008422	0.00023102	1517.6	8.744e-06	9.4216e-06	1495.7	407.08	8.8872e-06	9.1705e-06	459.29	154.14	135.42	46.782	9.1824e-06	57.341	-83.943	-39.583	-59.008	-129.976	6.172	-5.264	-129.996	-125.288	18.634	10.103	-125.699	-121.481	-121.003	-116.238	12.542	-117.206	-8191	255	
797.577	1	1	0	0	0.18844	0.086711	0.099802	0.18087	0.059207	0.13902	0.41792	0.29849	0.2095	0.16283	0.18094	0.12003	0.25863	0.25074	0.11108	0.12222	-2.2792	-2.6292	-2.8396	-2.7062	-3.0458	-2.675	-2.9125	-2.9313	-2.7958	-2.8375	-3.1375	-2.7729	-3.0271	-2.9646	-2.6604	-3.3063	178.950	182.743	-86.560	154.045	10.297	91.152	112.328	131.109	206.513	64.876	188.037	193.925	-129.324	139.054	215.686	126.651	0.00039716	0.0006328	0.00012916	1504	4.5517e-06	5.9815e-06	1480.9	400.51	4.3679e-06	4.4778e-06	449.3	150.2	132.02	45.442	3.9446e-06	55.256	0.00067436	0.00082769	0.00023617	1520	8.876e-06	9.3633e-06	1498.2	407.65	8.8651e-06	9.2183e-06	458.95	154.24	135.73	46.72	8.8394e-06	57.217	-83.088	-53.857	-48.712	-129.795	1.317	4.289	-130.045	-125.323	12.220	-13.840	-125.868	-121.409	-120.912	-116.283	18.415	-116.808	-8191	255	
797.673	1	1	0	0	0.11743	0.020711	0.2026	0.29896	0.2392	0.17185	0.16936	0.18087	0.17196	0.23225	0.18797	0.13184	0.11033	0.16381	0.17878	0.027095	-2.2896	-2.7792	-2.8521	-2.8146	-3.2083	-2.8771	-2.8417	-3.0438	-2.7396	-2.7812	-3.1479	-2.9146	-3.1937	-3.1813	-2.7396	-3.1833	213.378	64.778	44.353	191.288	207.103	151.936	114.388	117.485	-11.055	42.022	-66.283	175.191	26.173	196.968	-47.990	54.443	0.00039182	0.00038354	0.00010501	1502.8	3.6153e-06	6.052e-06	1476.6	400.32	5.3547e-06	6.4968e-06	451.46	150.28	131.71	45.547	4.9781e-06	55.75	0.00068732	0.0008551	0.00023205	1520.1	8.8953e-06	9.455e-06	1496.4	407.51	9.2824e-06	9.5811e-06	458.98	154.2	135.41	46.753	9.1052e-06	57.285	-84.362	-42.761	-31.496	-129.854	14.519	5.631	-130.009	-125.448	5.962	15.205	-125.785	-121.549	-120.972	-116.426	16.629	-116.991	-8191	255	
797.769	1	1	0	0	0.1411	0.1521	0.20336	0.13419	0.15193	0.19742	0.18408	0.3505	0.14027	0.074855	0.21101	0.13256	0.38834	0.13322	0.060159	0.17956	-2.2188	-2.6771	-2.9292	-2.9188	-3.0792	-2.9542	-2.7812	-3.1479	-2.7208	-2.9292	-3.2562	-2.7875	-3.1354	-2.9854	-2.8	-3.2729	158.712	-59.568	24.215	187.939	-88.472	-70.140	200.216	109.714	151.703	-60.443	109.957	197.870	198.418	210.172	-10.648	129.124	0.00042739	0.00044372	0.00011991	1504.7	5.356e-06	6.277e-06	1477.6	401.48	3.2214e-06	6.5045e-06	451.34	150.63	132.01	45.609	4.1935e-06	55.638	0.00069206	0.00085225	0.00022977	1521.2	8.7815e-06	9.5321e-06	1496	407.88	9.0077e-06	9.4474e-06	459.23	154.34	135.54	46.755	9.356e-06	57.217	-81.929	-62.894	-50.835	-130.065	17.490	21.478	-129.910	-125.323	-2.188	9.739	-125.841	-121.366	-120.791	-116.472	-9.686	-116.907	-8191	255	
797.865	1	1	0	0	0.26658	0.098069	0.23329	0.15656	0.1709	0.17304	0.27387	0.4333	0.20221	0.17779	0.0044169	0.17683	0.14882	0.1801	0.066032	0.07526	-2.25	-2.5979	-3.1292	-3.0542	-2.9021	-2.9458	-2.7	-3.2583	-2.8854	-2.8646	-3.1021	-2.8833	-3.1083	-3.1583	-2.4958	-3.05	73.673	102.502	150.208	157.511	174.641	-1.380	178.794	158.034	-54.965	17.127	172.478	152.209	-116.493	134.074	104.426	60.782	0.00041514	0.00077741	0.00011494	1503.9	6.6762e-06	7.6496e-06	1476	399.99	3.9258e-06	5.3077e-06	451.98	149.99	132.35	45.61	3.2435e-06	55.822	0.00069445	0.00086111	0.00024188	1520.2	8.8854e-06	9.5686e-06	1495.8	407.6	8.7856e-06	9.0823e-06	459.29	153.94	135.46	46.771	9.5614e-06	57.312	-86.873	-48.089	-38.714	-129.866	15.044	5.255	-129.815	-125.189	22.958	16.310	-125.662	-121.382	-120.921	-116.409	29.548	-117.305	-8191	255	
797.986	1	1	0	0	0.1345	0.025839	0.13275	0.19695	0.27673	0.044253	0.2465	0.26984	0.091472	0.062545	0.22058	0.30793	0.22377	0.090781	0.095566	0.34951	-2.2812	-2.6521	-2.9646	-2.9688	-2.8708	-3.2646	-2.9958	-3.2146	-3.1937	-2.7583	-3.1792	-2.9979	-2.8688	-3.0187	-2.6875	-2.9521	125.383	192.704	163.513	172.061	-69.863	-106.023	62.709	93.526	-51.580	0.363	-71.386	216.247	126.082	-126.548	107.877	156.469	0.00041995	0.00054048	0.00016539	1500	5.0871e-06	7.5885e-06	1474.2	398.54	4.9405e-06	7.0381e-06	449.53	150.09	131.6	45.515	3.689e-06	55.294	0.00068982	0.00085622	0.00024027	1520.4	8.9923e-06	9.7264e-06	1495.8	407.36	9.2603e-06	9.7582e-06	458.69	153.96	135.12	46.74	9.2906e-06	57.138	-84.750	-52.030	-43.682	-129.887	13.364	15.529	-129.958	-125.422	-13.202	15.459	-125.799	-121.338	-121.053	-116.494	23.952	-117.317	-8191	255	
798.057	1	1	0	0	0.2505	0.097047	0.22288	0.096042	0.26847	0.077882	0.27964	0.29961	0.10474	0.15739	0.067764	0.21066	0.16429	0.13761	0.072958	0.3358	-2.5167	-2.7396	-3.0708	-3.0708	-2.9875	-3.0958	-2.9542	-3.0771	-3.0479	-2.7167	-3.2021	-2.9146	-2.8771	-3.2812	-2.775	-2.8271	-115.910	-8.111	1.187	155.482	80.367	29.626	151.697	166.224	3.372	140.051	136.705	153.409	124.194	160.596	-135.311	141.683	0.00039287	0.00054706	0.00019606	1468.3	5.9649e-06	3.5286e-06	1472.4	399.82	4.5024e-06	5.9469e-06	449.84	150.6	132.01	45.542	6.0513e-06	55.871	0.00067359	0.0008717	0.000232	1510.7	9.1504e-06	9.1945e-06	1495.1	406.95	9.0624e-06	9.3906e-06	457.87	154.02	135.48	46.714	9.3827e-06	57.296	-84.297	-46.904	-57.170	-130.165	6.864	-0.384	-129.959	-125.418	2.156	3.874	-125.757	-121.551	-120.935	-116.441	22.472	-117.199	-8191	255	
798.154	1	1	0	0	0.10094	0.10655	0.094627	0.26778	0.053826	0.059887	0.19376	0.32074	0.16614	0.11882	0.31428	0.11552	0.21884	0.19364	0.25663	0.093787	-2.425	-2.6229	-2.8979	-3.0271	-2.7396	-3.2125	-3.0729	-3.1792	-2.8937	-2.4688	-3.2792	-3.1083	-2.8563	-3.3333	-2.7562	-2.9104	112.179	41.519	49.116	161.185	58.846	-58.169	141.204	159.306	17.240	151.733	210.938	170.020	208.101	-108.895	-134.653	170.921	0.00039154	0.00067845	0.00019637	1496.8	5.8259e-06	6.1323e-06	1470.5	399.57	2.9861e-06	3.8897e-06	450.41	150.22	132.4	45.762	4.8261e-06	56.093	0.00066619	0.00081872	0.00022908	1516.1	8.8885e-06	9.3409e-06	1493	407.32	8.9593e-06	9.2534e-06	458.65	154.38	135.59	46.874	9.2079e-06	57.517	-83.019	-23.675	-52.127	-129.926	12.014	2.549	-129.960	-125.276	-18.115	-16.925	-125.702	-121.546	-120.806	-116.503	21.014	-117.144	-8191	255	
798.274	1	1	0	0	0.13455	0.42161	0.18146	0.29094	0.26945	0.19333	0.17069	0.25393	0.13301	0.073287	0.41156	0.089849	0.23282	0.17528	0.19695	0.15289	-2.4229	-2.6208	-3.1333	-3.2167	-2.725	-3.0417	-3.1	-2.9813	-3.425	-2.8792	-3.3083	-3.1958	-2.7562	-3.2229	-2.7333	-2.8417	82.283	196.905	56.709	148.683	59.209	67.435	155.352	204.149	1.572	210.447	165.147	63.635	131.611	-109.089	-32.688	107.076	0.00040333	0.0005306	0.00020831	1507.2	4.4269e-06	6.5062e-06	1478.7	401.93	5.0816e-06	6.1468e-06	453.11	150.34	132.06	45.794	4.529e-06	55.739	0.00065935	0.00083957	0.00022789	1519.5	8.7951e-06	9.1532e-06	1495.9	408.04	8.6651e-06	9.2479e-06	459.3	154.36	135.67	46.841	9.1535e-06	57.381	-84.314	-41.061	-38.019	-129.968	3.670	14.683	-130.106	-125.288	-19.479	-11.182	-125.872	-121.544	-120.973	-116.533	-10.021	-117.079	-8191	255	
798.370	1	1	0	0	0.13026	0.16395	0.23122	0.30597	0.089133	0.25978	0.21428	0.10036	0.18174	0.1464	0.15169	0.13536	0.28496	0.10013	0.22647	0.11916	-2.5354	-2.5667	-2.9437	-3.3979	-2.6354	-2.9896	-3.0167	-2.9042	-3.1167	-2.6417	-3.1083	-3.1063	-2.8854	-3.1729	-2.7938	-2.7521	156.690	63.148	-39.791	194.633	99.561	-91.604	139.747	162.289	48.631	207.338	-98.172	-94.439	160.779	-112.918	38.173	168.756	0.00041547	0.00060425	0.0001314	1504.4	5.7507e-06	7.3925e-06	1478.7	400.98	5.3586e-06	5.8842e-06	451.49	150.8	132.97	45.604	3.9986e-06	55.688	0.00067803	0.00086536	0.00023465	1520.8	9.01e-06	9.5935e-06	1498.6	408.05	8.7635e-06	9.5581e-06	459.68	154.34	135.66	46.811	9.1746e-06	57.333	-83.851	-60.516	-42.914	-129.877	7.117	22.819	-130.056	-125.406	2.265	-12.159	-125.787	-121.255	-120.887	-116.490	6.936	-117.062	-8191	255	
798.467	1	1	0	0	0.30483	0.1559	0.12471	0.16794	0.19653	0.12682	0.19569	0.10257	0.21017	0.15686	0.10573	0.31474	0.38582	0.075721	0.18836	0.1218	-2.5438	-2.6521	-2.8104	-3.3187	-2.6729	-3.1167	-3.0479	-2.7938	-3.1375	-2.8125	-2.9604	-2.9562	-2.7125	-3.2188	-3.0625	-2.6792	-132.453	-8.079	-49.202	172.481	-22.305	-129.347	134.965	172.280	73.483	159.140	-141.204	-58.680	202.271	202.907	124.926	198.878	0.00039519	0.0004983	0.00012597	1498.4	5.5633e-06	7.1003e-06	1473.7	399.27	6.0358e-06	6.2441e-06	446.14	148.82	129.84	45.057	4.3146e-06	55.092	0.0006804	0.0008473	0.0002337	1519.7	8.876e-06	9.3536e-06	1496	407.75	8.623e-06	9.2528e-06	458.43	154.06	135.27	46.753	8.8905e-06	57.236	-83.548	-47.319	-46.210	-130.008	13.215	21.774	-129.971	-125.583	-9.921	10.561	-126.086	-121.577	-121.105	-116.599	9.483	-117.352	-8191	255	
798.585	1	1	0	0	0.1599	0.17432	0.0020324	0.27507	0.19959	0.1701	0.42464	0.2225	0.19234	0.13408	0.051637	0.27925	0.20917	0.31573	0.23989	0.17852	-2.7687	-2.8688	-2.8083	-3.2188	-2.6437	-2.8021	-3.1479	-2.7708	-3.1417	-2.8271	-2.7438	-3.3833	-3.0792	-3.1708	-2.7042	-2.5187	-141.372	158.057	180.000	165.458	-107.707	-15.927	146.054	159.138	120.459	195.459	-131.910	151.086	180.190	195.926	-19.876	87.813	0.0004192	0.00059335	0.00018725	1478.9	4.4239e-06	6.1365e-06	1453.8	398.22	4.0868e-06	6.0202e-06	450.15	150.58	130.7	45.181	5.3164e-06	55.24	0.00065674	0.00084252	0.00023223	1514.3	9.1447e-06	9.0798e-06	1490.9	407.29	8.8666e-06	9.5938e-06	459.24	154.26	135.43	46.78	8.9815e-06	57.23	-85.813	-54.716	-56.540	-130.139	-5.616	18.894	-130.237	-125.163	4.890	33.681	-125.841	-121.452	-121.205	-116.538	11.937	-117.056	-8191	255	
798.657	1	1	0	0	0.11743	0.20963	0.16723	0.13018	0.1381	0.27411	0.22897	0.10517	0.14191	0.029307	0.14861	0.33011	0.1316	0.0061663	0.069599	0.40102	-2.7271	-2.8146	-2.5458	-3.2021	-2.7625	-3.1188	-3.4313	-2.6792	-2.9958	-2.9479	-2.9146	-3.4562	-2.9375	-2.7188	-3.0333	-2.8792	45.580	-102.922	-1.208	124.873	21.135	-47.787	71.138	153.159	79.370	189.489	88.219	210.465	139.162	18.493	98.314	171.795	0.00043212	0.00057363	0.00012486	1482.4	2.2654e-06	6.5109e-06	1463.9	397.73	5.4639e-06	6.7256e-06	449.49	149.68	131.39	45.611	5.3927e-06	55.841	0.00067103	0.00083919	0.00023482	1512.4	8.8624e-06	9.3894e-06	1492.6	406.89	8.9661e-06	9.3289e-06	458.67	154.07	135.36	46.788	9.4304e-06	57.322	-84.178	-83.043	-67.799	-130.011	39.390	11.592	-130.007	-125.526	1.046	11.872	-125.898	-121.302	-120.752	-116.697	19.108	-116.964	-8191	255	
798.753	1	1	0	0	0.14271	0.039598	0.043325	0.13552	0.28435	0.12877	0.16758	0.29849	0.1456	0.11891	0.25482	0.089778	0.38307	0.21788	0.086808	0.15178	-2.5333	-2.8521	-2.7687	-3.2208	-2.7625	-2.7313	-3.0875	-2.7708	-3.275	-3	-2.8583	-3.1583	-2.7396	-2.9646	-3.1312	-2.7208	-60.681	-52.793	12.449	181.007	-25.518	-19.393	198.163	160.197	-142.709	26.003	-128.821	-56.306	147.814	145.628	-34.559	206.895	0.00040731	0.00062628	0.00010552	1502.9	4.5568e-06	7.0645e-06	1478.9	401.17	3.5415e-06	4.5777e-06	451.39	150.03	132.39	45.617	4.2565e-06	55.911	0.00069184	0.0008581	0.00023873	1519.8	9.4311e-06	9.4325e-06	1496.7	408.47	9.1692e-06	9.6639e-06	458.71	154.05	135.67	46.744	9.1469e-06	57.291	-84.015	-44.541	-68.787	-129.944	-2.893	10.689	-130.127	-125.361	-10.574	8.087	-125.966	-121.616	-121.199	-116.411	4.196	-116.988	-8191	255	
798.874	1	1	0	0	0.078182	0.077042	0.08896	0.091335	0.18947	0.074753	0.17972	0.1846	0.10943	0.11355	0.078544	0.059321	0.072713	0.11511	0.28475	0.042744	-2.6354	-3.0146	-2.8312	-3.5271	-2.7667	-2.8312	-3.3896	-2.8063	-2.9604	-3.1979	-2.8875	-3.1646	-2.7396	-2.7792	-3.1042	-2.85	35.227	-42.208	-117.552	-57.640	139.675	-114.382	-133.786	163.679	-70.334	83.698	126.953	127.275	-119.277	-78.433	155.546	88.123	0.00040294	0.00045	0.00016285	1505.2	4.2525e-06	4.4449e-06	1474	400.6	3.1052e-06	6.4707e-06	449.08	149.78	129.82	44.699	4.2472e-06	55.598	0.00068563	0.00087766	0.00023859	1519.7	9.224e-06	9.7416e-06	1494.9	407.86	9.0735e-06	9.4571e-06	459.31	154.02	134.91	46.578	8.9171e-06	57.234	-83.897	-49.699	-57.024	-129.823	15.782	0.307	-130.098	-125.408	-0.135	-0.528	-125.805	-121.485	-121.399	-116.660	8.236	-117.213	-8191	255	
798.970	1	1	0	0	0.15835	0.27516	0.17993	0.15273	0.16333	0.12632	0.30671	0.19596	0.037153	0.077619	0.10821	0.093194	0.29746	0.085967	0.11886	0.34533	-2.4542	-3.0312	-2.6271	-2.9771	-2.9854	-2.6896	-3.2667	-2.7021	-2.8792	-3.0604	-2.8375	-2.9562	-2.9875	-2.8667	-3.0521	-2.8063	188.956	153.711	-125.856	213.519	-47.289	38.576	98.057	134.445	195.357	176.901	179.057	179.035	178.884	151.925	185.683	132.696	0.00041724	0.00072621	0.00011078	1496.3	5.274e-06	1.8715e-06	1456	394.84	4.7394e-06	6.2311e-06	452.1	150.24	132.05	45.569	4.9259e-06	55.619	0.0007054	0.00087159	0.00024009	1518.5	9.2469e-06	9.7702e-06	1492.1	406.89	8.9382e-06	9.5073e-06	459.77	154.03	135.44	46.729	9.2229e-06	57.271	-86.620	-44.811	-45.818	-129.963	18.126	7.495	-130.146	-125.678	-15.878	27.664	-125.940	-121.478	-120.888	-116.497	-1.549	-117.021	-8191	255	
799.066	1	1	0	0	0.10195	0.2114	0.10347	0.12428	0.248	0.21114	0.17734	0.14936	0.20275	0.30476	0.047385	0.2638	0.01803	0.033905	0.16933	0.41642	-2.3396	-3.1437	-2.8458	-3.0646	-2.9188	-2.7604	-3.1437	-2.8187	-2.6437	-3.1104	-2.8771	-3.1083	-3.0438	-2.6771	-3.2396	-2.9375	190.228	154.864	-69.651	189.355	-64.090	139.766	141.090	110.271	168.564	126.260	186.496	-143.418	100.402	-13.841	214.893	179.939	0.00039731	0.00044113	0.00016869	1502.3	3.5121e-06	7.6932e-06	1481.8	400.44	4.6458e-06	8.2025e-06	450.7	150.43	131.87	45.61	4.9493e-06	55.659	0.00067945	0.00085762	0.00025004	1519.5	9.3528e-06	9.5862e-06	1497.4	407.68	9.3455e-06	9.54e-06	459.03	154.05	135.25	46.681	9.5103e-06	57.176	-86.551	-45.781	-53.193	-129.972	16.634	0.108	-129.797	-125.467	-21.170	19.720	-125.639	-121.319	-121.104	-116.317	11.099	-117.200	-8191	255	
799.187	1	1	0	0	0.35536	0.13061	0.19662	0.38263	0.12628	0.20866	0.15315	0.146	0.13694	0.019541	0.23318	0.10749	0.078958	0.11687	0.058522	0.26235	-2.1854	-3.1417	-2.7896	-2.9146	-2.9292	-2.7354	-3.1937	-2.7812	-2.9792	-2.9646	-2.65	-3.0125	-2.9479	-2.6125	-3.1125	-2.7146	-107.952	-85.283	-5.380	194.338	82.654	175.057	156.756	98.980	-0.670	136.785	174.796	143.541	178.485	131.351	176.457	174.323	0.00041311	0.00059356	0.00015182	1501.5	5.3266e-06	4.4959e-06	1477.7	402.37	6.0479e-06	7.6647e-06	451.23	149.81	132.09	45.528	6.1697e-06	55.601	0.00068656	0.00088164	0.00024029	1519.3	9.1781e-06	9.7896e-06	1494.9	408.01	9.2661e-06	9.7534e-06	458.99	153.8	135.2	46.667	9.4526e-06	57.09	-84.578	-62.352	-62.272	-129.942	26.741	11.376	-129.954	-125.371	6.311	7.102	-125.895	-121.584	-120.913	-116.397	-7.123	-116.939	-8191	255	
799.283	1	1	0	0	0.47728	0.13476	0.064155	0.20967	0.086631	0.20457	0.30878	0.11477	0.076461	0.15123	0.096874	0.29681	0.14088	0.16145	0.26056	0.29251	-2.1813	-3.1792	-2.6479	-3.0563	-3.1146	-2.6188	-3.3063	-2.9667	-2.8292	-3.2646	-2.9062	-2.975	-3.1437	-2.8438	-3.0708	-2.9333	-33.715	92.851	200.168	139.484	185.866	-63.673	-87.066	124.402	93.547	55.798	9.513	-128.188	59.838	26.747	37.618	136.533	0.00041714	0.00043698	0.00014796	1502.7	4.3666e-06	5.8328e-06	1474.7	399.4	5.8664e-06	7.3059e-06	451.91	150.99	132.13	45.509	5.7019e-06	55.809	0.00070161	0.00086616	0.00024772	1517.5	9.2026e-06	9.9967e-06	1494.4	407.45	9.5318e-06	9.7225e-06	459.35	154	135.46	46.689	9.4931e-06	57.181	-85.490	-61.897	-48.159	-129.975	8.500	7.704	-130.009	-125.323	-4.251	0.340	-125.638	-121.621	-120.802	-116.604	-6.133	-117.185	-8191	255	
799.355	1	1	0	0	0.045934	0.18841	0.16543	0.18713	0.31333	0.20162	0.23799	0.12025	0.061711	0.14031	0.13422	0.39631	0.45875	0.074596	0.19095	0.22104	-2.2083	-3.0792	-3.0187	-2.9146	-3.0083	-2.6833	-3.2854	-3.0438	-2.55	-3.2021	-3.0021	-2.8979	-2.9833	-2.8625	-3.0333	-3.0708	198.157	-52.854	151.028	203.466	-73.229	-139.738	132.958	-94.863	0.385	165.846	191.639	168.580	199.982	-115.973	47.002	-130.674	0.00039886	0.00063995	0.00013605	1508.5	4.2411e-06	7.6231e-06	1474.6	402.81	4.7655e-06	3.3991e-06	451.95	150.14	132.04	45.425	3.744e-06	55.673	0.00068718	0.00086912	0.00024525	1521.1	9.3074e-06	9.6797e-06	1495.9	408.12	9.3982e-06	9.5369e-06	459.61	153.95	135.47	46.677	9.3089e-06	57.224	-86.051	-48.549	-54.554	-129.913	-9.154	-3.559	-129.855	-125.364	7.215	-12.587	-125.840	-121.630	-120.770	-116.464	9.559	-117.098	-8191	255	
799.451	1	1	0	0	0.10476	0.14121	0.2166	0.14922	0.32971	0.077428	0.18175	0.034898	0.15662	0.19885	0.12251	0.27064	0.17245	0.042759	0.16882	0.25544	-2.0833	-3.125	-2.9562	-2.9062	-2.9458	-2.7687	-3.0667	-3.2146	-2.4437	-2.9313	-3.2458	-2.9062	-3.1646	-2.8042	-3.125	-2.9562	206.301	-64.845	184.437	-61.178	16.731	-66.738	169.084	12.103	184.837	-96.979	85.703	24.965	133.808	145.850	-10.921	170.909	0.00039541	0.00059693	0.0001833	1507.3	4.8847e-06	4.2758e-06	1484.9	401.97	4.6071e-06	4.9182e-06	451.66	150.43	131.7	45.433	4.5573e-06	55.739	0.00069426	0.00086659	0.00023916	1520.6	9.0633e-06	9.9171e-06	1497.2	408.41	9.4813e-06	9.5007e-06	458.47	154.14	135.38	46.628	9.1186e-06	57.244	-87.593	-56.862	-54.187	-129.976	9.331	4.161	-129.897	-125.315	9.600	18.912	-125.853	-121.376	-120.819	-116.737	24.837	-117.255	-8191	255	
799.547	1	1	0	0	0.14888	0.14065	0.20189	0.21087	0.26261	0.10271	0.20282	0.24041	0.086983	0.26206	0.20922	0.21983	0.089629	0.16705	0.20369	0.324	-2.2875	-2.775	-2.8937	-3.0354	-3.1833	-2.8479	-3.2271	-3.0458	-2.7146	-3.0646	-3.0563	-2.6937	-3.2229	-2.8604	-2.9188	-3.1417	208.475	80.053	-115.018	159.822	175.814	29.595	183.166	-108.098	-116.457	33.392	213.464	108.406	-62.523	-133.087	-136.651	124.085	0.0004092	0.00064703	0.0001304	1504.8	4.3594e-06	3.2628e-06	1475.4	400.36	2.2898e-06	5.7126e-06	450.35	150.11	132.08	45.401	6.1418e-06	54.745	0.00068234	0.0008537	0.00023898	1519.5	8.902e-06	9.7137e-06	1494.6	408.03	9.2513e-06	9.6464e-06	458.5	153.89	135.38	46.654	9.3472e-06	57.04	-87.093	-68.294	-65.105	-129.952	-7.553	-0.693	-129.979	-125.458	-14.806	-5.034	-125.887	-121.519	-120.917	-116.455	-2.836	-117.498	-8191	255	
799.666	1	1	0	0	0.32144	0.076259	0.40582	0.46352	0.11704	0.16622	0.24403	0.21285	0.19012	0.10429	0.28387	0.35571	0.05777	0.29226	0.12662	0.034465	-2.3854	-2.7083	-3.0271	-2.7125	-2.9354	-2.9833	-3.2438	-3.2875	-2.8187	-2.8646	-3.1	-2.85	-3.0604	-3	-2.7062	-3.0917	207.782	-46.573	171.806	-106.343	83.175	-134.354	190.245	128.933	-95.595	-36.674	118.421	164.892	-47.850	-75.932	-133.437	186.444	0.00041534	0.00075782	0.00018785	1481.1	4.0819e-06	4.3939e-06	1462.1	394.75	3.5682e-06	5.1913e-06	443.11	147.47	130.15	44.882	4.7822e-06	55.362	0.00068852	0.00087858	0.00024418	1514.5	8.9574e-06	9.7398e-06	1494.7	407.15	9.4724e-06	9.4136e-06	457.57	153.57	135.05	46.503	9.5713e-06	57.117	-85.491	-36.351	-39.740	-130.013	-8.861	-9.980	-130.150	-125.678	5.056	15.908	-126.094	-121.825	-121.202	-116.561	1.266	-117.050	-8191	255	
799.762	1	1	0	0	0.16059	0.12571	0.15602	0.29247	0.32923	0.23831	0.076459	0.18519	0.064937	0.3099	0.05628	0.12403	0.1464	0.097362	0.032237	0.3522	-2.6729	-3.025	-2.9292	-2.8208	-3.1521	-2.9688	-2.8667	-3.2313	-2.95	-2.9062	-3.1583	-2.7417	-3.0542	-2.9104	-2.7333	-3.0312	-104.271	77.473	-17.444	195.159	-107.752	127.793	85.020	95.106	79.247	-52.302	130.326	-131.167	109.063	160.124	0.391	184.810	0.00039831	0.00048233	0.00016749	1492.4	5.87e-06	5.7912e-06	1468.7	399.08	4.424e-06	5.2695e-06	449.92	149.56	131.35	45.382	4.0004e-06	55.304	0.00068933	0.00086708	0.00024171	1518.6	8.9939e-06	9.6341e-06	1495	408.01	9.234e-06	9.7225e-06	459.27	154.11	135.48	46.658	9.4054e-06	57.102	-85.778	-47.275	-45.749	-130.038	-10.272	14.678	-130.108	-125.601	-15.770	27.685	-125.954	-121.558	-120.956	-116.558	15.035	-117.267	-8191	255	
799.858	1	1	0	0	0.18907	0.051503	0.2107	0.26276	0.13834	0.14606	0.4212	0.27064	0.10304	0.12021	0.017762	0.15431	0.035372	0.18177	0.063075	0.21677	-2.4875	-2.7292	-3.1146	-2.9979	-3.1354	-3.0062	-2.8979	-3.1667	-2.4958	-2.6875	-3.2271	-2.8771	-3.05	-3.0854	-2.5938	-3.0229	-74.871	47.340	18.503	161.924	114.181	79.143	171.255	209.755	-14.667	133.560	-137.710	-133.768	-51.159	148.785	20.638	176.013	0.00041703	0.00035178	0.00015789	1502.1	4.5459e-06	8.0052e-06	1475.8	400.12	6.322e-06	5.1392e-06	449.12	149.46	131.9	45.41	5.2459e-06	55.468	0.00069758	0.00088572	0.00023962	1520.8	9.1123e-06	9.9499e-06	1499	407.84	9.4098e-06	9.8682e-06	459.54	153.99	135.62	46.652	9.6945e-06	57.184	-82.734	-58.511	-61.180	-130.096	11.120	9.962	-130.134	-125.401	-9.347	-7.907	-125.812	-121.572	-120.733	-116.592	14.784	-117.219	-8191	255	
799.954	1	1	0	0	0.13418	0.052009	0.18587	0.27657	0.12277	0.21439	0.29272	0.19224	0.10809	0.091153	0.26416	0.26366	0.22289	0.034819	0.11221	0.12883	-2.4021	-2.7896	-3.0771	-2.9833	-2.8667	-2.9667	-2.8021	-3.2979	-2.9646	-2.9104	-3.1875	-2.7521	-2.8937	-3.1229	-2.8083	-3.3438	-61.192	214.215	53.463	166.989	148.582	-120.168	162.027	118.711	-107.667	192.107	130.262	96.833	39.909	-49.684	66.525	43.772	0.00041096	0.00048805	0.00018028	1501.9	6.2121e-06	5.9565e-06	1477.3	400.53	3.1843e-06	5.8404e-06	451.97	150.27	131.86	45.264	4.3667e-06	55.451	0.0007033	0.00088481	0.00024876	1523.7	9.6194e-06	1.0043e-05	1498.4	408.15	9.3771e-06	9.7745e-06	459.68	154.17	135.58	46.676	9.4182e-06	57.183	-83.197	-66.783	-47.225	-129.899	-6.161	-9.897	-129.945	-125.483	-16.513	15.850	-126.129	-121.537	-120.942	-116.523	0.517	-117.226	-8191	255	
800.050	1	1	0	0	0.31525	0.084731	0.08673	0.06802	0.13814	0.2507	0.33081	0.058803	0.20778	0.055212	0.14331	0.23369	0.16745	0.16959	0.18432	0.36982	-2.4958	-2.475	-3.0625	-3.0187	-2.8792	-3.0375	-2.8917	-2.8542	-2.8854	-2.7042	-3.2562	-2.9583	-3.0646	-3.2313	-2.6188	-3.1562	114.879	61.482	164.013	213.648	-84.092	206.768	170.201	137.714	86.175	16.369	136.277	190.451	177.286	85.008	-111.220	142.094	0.00044178	0.00054662	0.00015918	1491	5.8083e-06	5.4818e-06	1472.2	401.07	3.236e-06	6.8544e-06	450.91	150.32	131.84	45.476	7.4965e-06	55.948	0.00070183	0.00088519	0.00023916	1520.7	8.9443e-06	9.6335e-06	1498.7	409.15	9.4066e-06	9.8628e-06	460.08	154.22	135.64	46.646	9.477e-06	57.358	-85.725	-72.374	-42.090	-130.113	15.754	-18.299	-130.098	-125.399	-15.178	-4.339	-125.575	-121.725	-120.880	-116.580	2.608	-117.134	-8191	255	
800.147	1	1	0	0	0.27094	0.082782	0.107	0.24867	0.15599	0.19915	0.43812	0.073802	0.15144	0.18461	0.41906	0.23983	0.20963	0.2153	0.25123	0.15375	-2.4104	-2.6271	-2.8688	-2.9313	-2.5104	-2.9958	-2.8792	-3.1104	-3.1708	-2.7083	-3.2479	-2.8958	-2.8854	-3.2021	-2.6208	-2.7875	82.982	-79.413	-123.573	161.315	178.587	80.187	149.208	159.859	74.832	-77.797	188.784	99.048	130.853	158.961	125.968	133.413	0.0003715	0.00037289	0.00017021	1504.6	3.6151e-06	6.5338e-06	1478.9	403.12	3.385e-06	3.6542e-06	452.65	150.12	131.86	45.613	5.0891e-06	55.866	0.0006929	0.00090152	0.00023905	1525.3	9.2975e-06	9.6979e-06	1501.1	409.35	9.3708e-06	9.8852e-06	460.43	154.23	135.35	46.714	9.7933e-06	57.319	-86.120	-71.004	-62.916	-129.888	-1.311	29.472	-129.959	-125.373	-16.305	29.412	-125.811	-121.413	-120.967	-116.460	-9.431	-117.150	-8191	255	
800.267	1	1	0	0	0.13093	0.30196	0.23207	0.2675	0.13992	0.1988	0.096429	0.20901	0.18458	0.16655	0.17164	0.14049	0.13677	0.158	0.072441	0.1964	-2.5167	-2.4271	-2.9771	-3.0521	-2.4938	-2.9958	-2.8187	-3.1188	-3	-2.6354	-3.2604	-3.0104	-2.725	-3.1917	-2.75	-2.8854	195.631	140.886	-83.099	150.585	80.569	24.494	-9.439	119.035	59.054	-42.462	-43.721	-73.598	-37.260	165.139	181.643	114.075	0.00040606	0.00064441	0.00012832	1511.5	4.4125e-06	7.671e-06	1481.8	401.17	4.1116e-06	6.4758e-06	451.3	150.93	131.74	45.522	5.3195e-06	55.939	0.00070036	0.00089126	0.00024337	1527.7	9.1353e-06	9.7993e-06	1502.2	408.4	9.6382e-06	9.6542e-06	459.72	154.36	135.6	46.686	9.5741e-06	57.29	-84.623	-51.358	-54.739	-129.890	-22.428	-1.825	-130.068	-125.405	12.716	24.223	-125.850	-121.403	-121.059	-116.465	6.221	-117.211	-8191	255	
800.363	1	1	0	0	0.24885	0.14724	0.25612	0.24315	0.2867	0.23125	0.23045	0.29583	0.12724	0.23998	0.15423	0.035589	0.17577	0.020767	0.057498	0.29267	-2.5771	-2.4188	-2.9708	-3.0396	-2.7542	-3.2625	-3.15	-3.0292	-3.0979	-2.8667	-3.2417	-3.1479	-2.7708	-3.3021	-2.8375	-2.8438	156.892	106.148	-126.656	138.645	15.259	-26.201	157.374	147.671	139.215	-13.088	81.902	52.643	204.236	-134.468	-28.943	140.898	0.00042442	0.00075603	8.7667e-05	1509.7	5.4705e-06	9.5135e-06	1482.8	401.36	4.7618e-06	6.0055e-06	450.62	149.91	130.41	44.686	5.1634e-06	55.108	0.00068735	0.00088266	0.00024029	1525.8	9.4661e-06	9.9863e-06	1501.6	408.93	9.3003e-06	9.7552e-06	459.06	154.43	135.19	46.451	9.77e-06	57.08	-82.424	-39.539	-57.610	-130.000	11.150	-13.311	-129.981	-125.410	5.221	12.159	-125.600	-121.385	-121.264	-116.604	4.618	-117.099	-8191	255	
800.458	1	1	0	0	0.1181	0.13176	0.1989	0.13048	0.13967	0.12583	0.27114	0.22828	0.051416	0.2979	0.18622	0.051286	0.22455	0.078413	0.26886	0.20421	-2.5417	-2.7438	-2.9562	-3.5	-2.8854	-3.0167	-2.9917	-2.8396	-3.2375	-2.9542	-3.1562	-3.1104	-2.75	-3.1479	-2.7604	-2.7562	22.673	117.668	-111.943	164.107	-141.655	19.536	-122.038	159.211	105.075	-16.105	-142.237	-122.697	-121.987	192.216	175.948	-127.916	0.00039463	0.00061617	0.00017379	1506.3	6.1012e-06	5.8975e-06	1476.9	398.95	3.8068e-06	5.4761e-06	451.01	148.94	132.58	45.248	5.6707e-06	55.726	0.00069462	0.00091528	0.00024378	1523.9	9.3914e-06	9.959e-06	1501.9	407.93	9.2024e-06	9.7993e-06	459.81	154.13	135.64	46.662	9.3438e-06	57.198	-83.253	-49.970	-39.031	-129.921	36.397	-2.423	-129.881	-125.568	11.406	14.273	-125.579	-121.329	-120.717	-116.642	2.577	-117.238	-8191	255	
800.556	1	1	0	0	0.043081	0.15265	0.16309	0.28835	0.20523	0.16646	0.20781	0.30182	0.15214	0.15211	0.19775	0.14312	0.072013	0.16335	0.1952	0.37511	-2.5729	-2.85	-2.8896	-3.1521	-2.6	-2.9021	-3.1437	-2.9396	-3.2479	-2.9479	-2.9125	-3.1604	-2.6771	-2.8771	-3.0479	-2.8833	-116.993	117.633	52.152	176.379	95.072	73.041	158.775	178.377	187.881	-23.329	134.793	175.978	48.498	171.199	168.235	127.176	0.00042132	0.00055819	0.0001242	1504.8	7.1093e-06	3.1966e-06	1478.6	400.65	4.0465e-06	5.3565e-06	451.14	150.15	132.19	45.371	5.1857e-06	55.863	0.00069581	0.00088959	0.00023422	1525.7	9.5845e-06	9.6044e-06	1500.5	408.98	8.9266e-06	9.7056e-06	460.25	154.2	135.68	46.688	9.5159e-06	57.386	-83.314	-57.147	-41.454	-129.905	13.518	9.436	-130.055	-125.453	7.096	10.348	-125.746	-121.522	-120.889	-116.398	3.471	-117.132	-8191	255	
800.650	1	1	0	0	0.34563	0.10077	0.080242	0.36539	0.1101	0.16238	0.25165	0.19387	0.071926	0.1688	0.096681	0.073233	0.26501	0.33009	0.17111	0.21578	-2.6354	-2.7167	-2.5833	-3.0896	-2.4979	-2.9021	-3.4292	-2.8146	-3.0729	-2.9021	-2.8354	-3.3146	-2.8438	-3.0396	-2.9146	-2.9875	172.795	-14.562	42.319	171.522	132.891	112.773	148.001	-98.098	71.155	92.375	161.101	110.111	103.733	-111.862	199.536	168.541	0.00043023	0.00058874	0.00016185	1507.7	2.8731e-06	6.4887e-06	1479.9	401.89	5.0401e-06	4.6319e-06	452.03	150.56	131.87	45.355	5.5494e-06	55.92	0.00069663	0.0008911	0.00024262	1526.2	9.5767e-06	9.5947e-06	1501.6	409.33	9.4271e-06	9.7963e-06	461	154.36	135.52	46.674	9.2401e-06	57.348	-82.217	-45.226	-46.701	-129.850	16.760	18.632	-129.860	-125.433	-16.950	38.372	-125.696	-121.275	-120.790	-116.484	-19.018	-117.147	-8191	255	
800.746	1	1	0	0	0.26241	0.090864	0.23009	0.30967	0.033756	0.13796	0.25807	0.14931	0.061627	0.18176	0.15368	0.21248	0.13265	0.10045	0.093349	0.42877	-2.5854	-2.8917	-2.725	-3.3396	-2.5792	-2.6188	-3.3125	-2.7021	-3.1	-2.8292	-2.8146	-3.0563	-2.9021	-2.9583	-3.1979	-2.7062	-34.711	43.289	70.409	172.073	116.257	178.691	146.924	-112.750	-131.964	-126.124	44.123	127.893	-139.450	-75.002	-33.143	202.986	0.00041373	0.0007323	0.00011939	1505.8	4.5188e-06	5.6972e-06	1480.8	402.17	6.1385e-06	4.6871e-06	450.46	150.09	132.1	45.467	3.6313e-06	55.827	0.00069255	0.00088094	0.00024255	1526	9.5923e-06	9.7343e-06	1502.8	409.39	9.1977e-06	9.8507e-06	460.25	154.16	135.62	46.696	9.553e-06	57.268	-84.373	-63.714	-69.306	-130.056	19.593	-3.155	-129.933	-125.422	-14.831	19.559	-125.974	-121.487	-120.801	-116.458	19.264	-117.194	-8191	255	
800.842	1	1	0	0	0.11682	0.16856	0.22659	0.33875	0.056024	0.19502	0.40035	0.13624	0.255	0.13436	0.11169	0.14265	0.040507	0.010818	0.21879	0.21224	-2.6542	-2.7646	-2.5104	-3.3458	-2.7812	-2.7625	-3.1188	-2.7854	-2.8604	-2.8208	-2.8104	-3.1083	-2.825	-2.9938	-3.0417	-2.4313	-105.221	-49.717	-80.533	-135.347	55.824	-119.362	170.853	169.714	-26.332	-134.987	-99.495	-95.051	162.052	194.748	-29.125	169.896	0.00042069	0.00067951	0.00011504	1501.3	5.9937e-06	6.8251e-06	1478.3	401.44	5.5074e-06	6.1895e-06	451.48	150.56	131.11	45.371	5.8088e-06	55.758	0.00069805	0.00091931	0.00024433	1524.6	9.1676e-06	9.8291e-06	1500.5	409.13	9.115e-06	9.9626e-06	460.79	154.57	135.39	46.682	9.6463e-06	57.314	-83.840	-60.480	-70.833	-129.746	8.304	6.858	-129.837	-125.312	-11.175	2.913	-125.863	-121.577	-121.191	-116.525	46.617	-117.235	-8191	255	
800.963	1	1	0	0	0.28678	0.10032	0.23043	0.35183	0.2185	0.098094	0.32489	0.18219	0.26561	0.21512	0.10268	0.21956	0.237	0.29075	0.18017	0.03373	-2.5	-2.9646	-2.5604	-3.2146	-2.6792	-2.6688	-3.3708	-2.9188	-2.9354	-3.0042	-2.6833	-3.0917	-2.9958	-2.6854	-3.1375	-2.7833	-3.785	80.054	-78.696	173.851	171.151	165.016	162.298	97.483	-81.544	-88.138	208.703	-118.657	163.261	-106.841	133.789	-74.885	0.00039618	0.00047422	0.00014677	1504	5.0558e-06	8.6829e-06	1474.1	400.85	5.2208e-06	6.3395e-06	450.26	150.36	132.33	45.244	5.1744e-06	55.804	0.00068977	0.00086891	0.00023754	1526.1	9.2448e-06	9.7993e-06	1501	409.21	9.0072e-06	9.8344e-06	459.8	154.33	135.81	46.646	9.5658e-06	57.436	-84.956	-52.965	-61.839	-129.953	32.888	0.604	-130.305	-125.382	2.348	15.505	-125.835	-121.472	-120.994	-116.513	3.121	-116.997	-8191	255	
801.059	1	1	0	0	0.30013	0.16123	0.14413	0.14655	0.17169	0.14274	0.25661	0.064151	0.28883	0.37212	0.052478	0.18466	0.21144	0.05748	0.0568	0.28827	-2.5187	-2.9271	-2.4854	-3.2104	-2.8688	-2.7021	-3.3396	-2.6146	-2.7771	-3.1167	-2.7208	-3.2313	-2.9479	-2.7333	-3.1312	-2.9354	211.386	98.783	-61.695	-121.145	151.722	-115.815	215.845	190.515	109.581	73.183	159.488	151.755	128.047	190.554	-30.027	101.877	0.00041603	0.00051164	0.00014689	1503.4	5.0088e-06	5.5874e-06	1477.2	401.09	5.2755e-06	4.4443e-06	450.57	149.71	131.51	45.41	4.9842e-06	55.414	0.00068046	0.0008667	0.00023893	1525.9	9.3492e-06	9.585e-06	1500.9	409.15	9.2813e-06	9.6095e-06	460.83	154.29	135.39	46.75	9.4576e-06	57.209	-86.179	-61.032	-53.679	-130.016	31.948	20.747	-130.015	-125.615	4.452	7.550	-125.735	-121.280	-121.101	-116.573	5.715	-117.255	-8191	255	
801.155	1	1	0	0	0.15375	0.14475	0.14604	0.248	0.20779	0.070171	0.14501	0.12813	0.15983	0.10249	0.17104	0.38841	0.147	0.18009	0.067987	0.05855	-2.5083	-2.9604	-2.4688	-3.2271	-2.9667	-2.7938	-3.2625	-2.9979	-2.4729	-3.1875	-2.7396	-3.0187	-3.025	-2.8396	-2.9042	-2.8812	60.139	-46.756	-50.936	142.449	34.790	28.148	188.618	111.234	-60.025	163.774	83.372	-39.621	92.655	39.829	38.177	126.835	0.00038695	0.00060817	0.00011495	1505.1	5.348e-06	4.4327e-06	1474	397.28	4.3156e-06	6.4754e-06	442.86	148.74	130.28	44.908	4.1176e-06	55.688	0.0006844	0.00088857	0.00025612	1527.5	9.4295e-06	9.8133e-06	1501.4	408.65	9.6276e-06	9.7443e-06	459.29	154.19	135.44	46.576	9.3788e-06	57.272	-83.897	-54.446	-49.877	-130.045	19.220	11.105	-130.143	-125.505	-6.865	4.961	-126.233	-121.653	-121.279	-116.613	15.620	-117.053	-8191	255	
801.227	1	1	0	0	0.23184	0.18448	0.13041	0.43066	0.24179	0.1064	0.32211	0.10222	0.38033	0.069894	0.25461	0.13241	0.32475	0.19412	0.15247	0.16003	-2.175	-3.0708	-2.6833	-3.1521	-3.0292	-2.6271	-3.1521	-3.1125	-2.7333	-3.1292	-3.0521	-2.6542	-3.0646	-2.8812	-2.9021	-2.9729	101.944	-105.133	-26.915	152.930	-43.338	20.394	187.804	-130.437	117.241	1.631	198.398	191.382	173.356	-129.822	75.930	158.577	0.00038374	0.00062772	0.00011084	1510.4	4.7435e-06	4.1914e-06	1482.8	402.81	4.5146e-06	4.0633e-06	453.92	150.38	132.71	45.348	4.6045e-06	55.746	0.00069173	0.00088836	0.00024289	1526.4	9.285e-06	9.8005e-06	1503.4	409.69	9.1361e-06	9.5315e-06	461.06	154.52	135.76	46.692	9.3544e-06	57.303	-83.126	-42.312	-36.714	-129.968	-5.668	2.524	-129.899	-125.482	-8.679	1.325	-125.570	-121.535	-120.840	-116.386	-4.031	-116.867	-8191	255	
801.348	1	1	0	0	0.16714	0.26775	0.10482	0.17387	0.072149	0.15332	0.3876	0.19367	0.14303	0.1745	0.23305	0.1203	0.31736	0.14691	0.1658	0.1606	-2.1167	-3.0042	-2.8646	-2.9875	-3.1188	-2.5458	-2.9833	-3.0917	-2.7958	-3.1646	-2.9375	-2.9938	-2.9271	-2.8187	-3.1083	-2.9667	189.458	-72.435	-22.273	146.833	-38.974	17.047	163.396	193.107	-69.370	204.119	209.825	128.448	115.594	170.045	85.679	127.931	0.00041413	0.00031779	0.00012607	1506.1	3.2495e-06	5.1558e-06	1479.2	398.14	3.2572e-06	4.4856e-06	452.79	150.27	131.95	45.427	4.1816e-06	54.517	0.00069138	0.00088486	0.00024652	1526.7	9.1702e-06	1.0105e-05	1503	408.74	9.4434e-06	9.7026e-06	460.44	154.57	135.59	46.778	9.4232e-06	56.995	-83.880	-50.083	-57.053	-129.914	16.602	5.246	-129.950	-125.338	1.654	0.065	-125.809	-121.470	-120.981	-116.550	-0.948	-117.413	-8191	255	
801.444	1	1	0	0	0.15862	0.28128	0.18714	0.090517	0.216	0.018334	0.21283	0.090974	0.27462	0.13551	0.10385	0.30115	0.10443	0.21384	0.24223	0.33148	-2.2917	-2.8438	-2.7958	-2.9562	-2.9792	-2.8312	-3.1354	-2.9771	-2.5563	-3.1208	-2.8688	-2.9125	-3.3	-2.95	-2.875	-2.9771	-135.123	76.069	42.389	-16.965	86.056	-10.566	141.967	103.673	-68.500	-77.523	-108.528	192.893	-93.746	190.019	-64.764	111.079	0.00039413	0.00052297	0.00014497	1489.1	4.485e-06	7.1472e-06	1467.6	397.92	4.4308e-06	5.3712e-06	446.98	148.06	129.78	44.618	4.3372e-06	55.203	0.00068658	0.00088196	0.00024356	1521.9	9.3022e-06	9.9523e-06	1498.9	408.71	9.5534e-06	9.647e-06	459.51	153.9	135.28	46.544	9.5403e-06	57.159	-81.487	-69.734	-50.035	-130.102	30.874	-3.628	-130.183	-125.497	10.911	9.376	-126.012	-121.712	-121.233	-116.626	6.710	-117.273	-8191	255	
801.538	1	1	0	0	0.11465	0.12751	0.18505	0.17712	0.33238	0.35225	0.25235	0.13033	0.23511	0.25538	0.12755	0.1399	0.17494	0.11417	0.04091	0.078182	-2.3646	-2.9938	-2.7938	-2.6208	-2.9875	-2.7604	-3.3125	-3.2896	-2.675	-3.0687	-2.9042	-2.8146	-3.2542	-2.9479	-2.8021	-2.975	61.205	46.715	5.790	153.411	12.091	97.131	167.066	192.949	158.615	-74.325	161.446	-22.999	24.436	-33.520	-121.275	140.648	0.00042643	0.0006381	0.00016392	1495.8	5.0885e-06	6.9326e-06	1472.5	397.82	3.2339e-06	7.0415e-06	446.51	149.19	130.96	45.065	5.0237e-06	55.284	0.00069492	0.00088718	0.00024356	1523.5	9.0601e-06	1.0048e-05	1500	408.48	9.4213e-06	9.6179e-06	459.88	154.23	135.39	46.664	9.5358e-06	57.213	-86.165	-68.150	-51.504	-130.129	8.914	20.640	-130.099	-125.568	-3.399	-14.496	-125.881	-121.498	-120.811	-116.531	9.015	-117.514	-8191	255	
801.636	1	1	0	0	0.067367	0.21877	0.18829	0.30644	0.21332	0.0093751	0.35144	0.29878	0.1658	0.11821	0.24192	0.10995	0.097983	0.040087	0.1841	0.1556	-2.2292	-2.9896	-3.0687	-2.9458	-3.1146	-2.8396	-2.9646	-3.1271	-2.8271	-2.8479	-3.1458	-2.5604	-3.2604	-3.0104	-2.8625	-3.15	-128.432	94.869	31.743	-126.336	-136.452	62.733	143.734	123.132	143.124	152.615	193.882	46.032	169.826	176.715	13.480	108.239	0.00039656	0.00057104	0.00016317	1504.9	7.063e-06	5.9689e-06	1478.5	401.51	4.9628e-06	4.7531e-06	448.93	147.73	130.74	45.015	5.1518e-06	54.828	0.00069105	0.00087707	0.0002429	1526.4	9.0403e-06	9.7434e-06	1502	409.87	9.5524e-06	9.5478e-06	460.42	153.9	135.46	46.653	9.5081e-06	57.229	-82.704	-40.611	-68.258	-129.912	-2.746	15.124	-129.977	-125.482	-4.436	0.057	-125.879	-121.858	-121.070	-116.718	11.428	-117.295	-8191	255	
801.755	1	1	0	0	0.21527	0.24428	0.13638	0.33722	0.1835	0.074006	0.27368	0.1163	0.039068	0.14486	0.24922	0.37142	0.12954	0.1798	0.086232	0.26047	-2.1229	-2.5938	-2.9271	-2.9833	-3.0958	-2.8167	-2.8104	-3.0396	-2.6771	-2.9562	-3.2729	-2.6063	-2.8792	-2.9833	-2.6792	-3.1604	171.197	-101.271	201.383	192.559	131.039	104.691	179.858	-136.735	-137.194	172.017	135.798	156.931	94.379	113.088	31.981	180.477	0.00040224	0.00039525	0.00016294	1492.8	5.9391e-06	6.6615e-06	1470	399.21	4.2392e-06	5.0471e-06	449.72	149.57	130.81	45.212	3.8336e-06	55.208	0.00069998	0.0008523	0.00024122	1524.2	9.1525e-06	9.789e-06	1500.6	408.9	9.5445e-06	9.7244e-06	460.14	154.17	135.45	46.743	9.5569e-06	57.186	-83.089	-53.864	-41.957	-130.095	1.718	-3.784	-129.916	-125.564	-1.755	18.384	-126.099	-121.734	-120.854	-116.539	-13.704	-117.444	-8191	255	
801.827	1	1	0	0	0.29171	0.080375	0.108	0.33751	0.08745	0.35424	0.069418	0.35419	0.10053	0.16403	0.087953	0.18545	0.2831	0.099084	0.30292	0.12541	-2.3583	-2.825	-2.9021	-2.85	-2.8625	-2.8333	-2.8604	-3.0687	-2.8875	-2.9938	-3.3438	-2.7354	-3.1333	-3.2438	-2.6792	-2.9917	165.152	-61.239	147.327	140.499	-62.358	180.525	129.036	210.422	121.293	-139.656	202.841	165.410	176.859	-123.403	156.486	10.724	0.00039593	0.0005013	0.00012497	1496.3	3.9837e-06	7.9231e-06	1463.8	398.45	4.618e-06	5.8503e-06	449.01	149.63	131.32	45.274	5.6076e-06	55.353	0.00070333	0.00088427	0.00024124	1524.6	9.1342e-06	9.9323e-06	1498.9	408.77	9.364e-06	9.6675e-06	459.88	154.19	135.67	46.683	9.9254e-06	57.195	-85.463	-43.925	-39.255	-129.987	-8.919	3.478	-130.210	-125.638	0.781	8.376	-126.038	-121.896	-120.869	-116.598	6.231	-117.110	-8191	255	
801.947	1	1	0	0	0.066633	0.12224	0.004772	0.10051	0.13277	0.04316	0.33675	0.082225	0.35194	0.11503	0.21732	0.35615	0.058816	0.071627	0.20162	0.34425	-2.4375	-2.7396	-3.0979	-2.6813	-2.7875	-3.0625	-2.7833	-2.9729	-2.5375	-2.7583	-3.0854	-2.8333	-2.9625	-2.9646	-2.5521	-3.1146	44.167	-106.863	79.219	145.097	84.368	113.799	164.652	136.625	-10.174	211.258	-47.100	122.238	127.200	-17.660	-103.810	182.857	0.00038266	0.00056278	0.00014043	1499.2	5.1946e-06	6.6073e-06	1468.2	398.01	4.3953e-06	7.5952e-06	447.98	149.21	131.73	45.062	5.9375e-06	55.289	0.00068511	0.00089529	0.00024113	1525.2	9.165e-06	9.7945e-06	1499.3	408.23	9.4455e-06	9.9317e-06	459.45	153.93	135.71	46.584	9.3694e-06	57.25	-88.104	-47.247	-64.810	-129.910	7.616	15.468	-129.991	-125.557	7.768	0.288	-126.142	-121.408	-121.014	-116.477	7.687	-117.311	-8191	255	
802.043	1	1	0	0	0.2741	0.31344	0.22048	0.1086	0.14983	0.20671	0.15144	0.11104	0.11641	0.16349	0.2595	0.22473	0.13552	0.34897	0.10645	0.11512	-2.525	-2.5896	-3.0875	-3.0396	-3.0646	-3.1479	-2.9521	-3.2479	-2.8417	-2.8438	-3.0292	-2.7375	-3.05	-3.1854	-2.6333	-3.15	-41.379	171.943	126.031	188.548	103.633	39.142	156.463	-118.648	-38.693	20.219	147.664	210.306	-72.857	183.922	99.903	186.913	0.00038698	0.00043809	0.00017694	1499.2	5.4195e-06	4.5525e-06	1474.1	398.08	4.8511e-06	7.5527e-06	448.62	149.09	131.1	45.243	3.9028e-06	55.337	0.00069911	0.00088906	0.0002407	1525.7	9.1561e-06	9.6165e-06	1501.8	408.22	9.2056e-06	9.8187e-06	460.02	154.05	135.47	46.741	9.5614e-06	57.299	-84.084	-40.413	-55.457	-129.945	-15.263	-17.287	-130.036	-125.409	11.685	5.371	-126.053	-121.822	-120.908	-116.592	2.784	-117.326	-8191	255	
802.139	1	1	0	0	0.064497	0.14889	0.11706	0.046234	0.18294	0.2797	0.48765	0.21231	0.015093	0.1477	0.078921	0.083054	0.26641	0.17398	0.036502	0.1599	-2.4771	-2.5687	-3.0083	-2.9333	-2.9062	-3.1875	-3.0042	-3.1708	-2.725	-2.4896	-3.2562	-3.0917	-3.0146	-3.2292	-2.6792	-2.9938	196.225	-57.292	24.076	193.038	-17.136	118.343	169.775	154.362	-13.413	10.625	-116.351	154.768	-115.123	178.660	-45.033	-97.009	0.00037818	0.00049591	0.00016951	1497.6	7.3119e-06	4.7643e-06	1476.1	400.13	5.364e-06	6.5071e-06	450.93	149.32	131.83	45.211	4.5225e-06	55.572	0.00069268	0.00089207	0.00024466	1524.9	9.213e-06	9.8121e-06	1502.4	409.21	9.3255e-06	9.4765e-06	460.5	154.34	135.98	46.775	9.5181e-06	57.283	-83.457	-60.122	-81.995	-130.069	7.673	20.353	-130.099	-125.446	4.439	-16.066	-125.863	-121.673	-120.963	-116.419	26.466	-117.262	-8191	255	
802.236	1	1	0	0	0.041672	0.24833	0.12978	0.29789	0.29004	0.02801	0.43938	0.077121	0.11505	0.12773	0.22551	0.11433	0.28779	0.1649	0.018402	0.33545	-2.3729	-2.6042	-3.1333	-3.0521	-2.7396	-2.9938	-2.8229	-2.9479	-3.0729	-2.6896	-3.2458	-3.1229	-2.8875	-3.0354	-2.9542	-3.0833	95.707	100.413	-101.861	132.610	-68.877	70.067	151.393	195.365	-65.895	-84.624	205.544	195.744	141.840	-30.142	28.368	120.927	0.00038856	0.00056103	0.000157	1500.4	4.7754e-06	6.9102e-06	1474.8	399.43	5.0664e-06	5.0872e-06	447.65	149.79	131.71	45.265	4.6778e-06	55.472	0.00068283	0.00086783	0.00023189	1525.7	9.2459e-06	9.6718e-06	1500.7	409.1	9.145e-06	9.757e-06	459.79	154.22	135.6	46.615	9.4326e-06	57.197	-80.799	-46.097	-47.347	-130.041	7.736	9.557	-130.043	-125.372	-7.126	10.518	-125.889	-121.466	-121.011	-116.589	7.371	-117.286	-8191	255	
802.356	1	1	0	0	0.1214	0.036724	0.2256	0.18065	0.19284	0.15179	0.30068	0.050091	0.22046	0.29628	0.1263	0.19052	0.024268	0.10895	0.1323	0.26119	-2.7562	-2.9271	-2.9875	-3.0792	-2.7104	-2.9875	-3.1479	-3.0354	-3.2042	-2.9417	-3.2417	-3.2625	-2.6104	-3.125	-2.775	-2.9542	175.991	186.440	175.413	3.149	149.593	-69.697	157.023	204.899	151.030	-108.067	-103.174	162.215	-82.010	148.278	-89.248	131.616	0.00039423	0.00048918	0.00016097	1503.4	2.8169e-06	4.5338e-06	1472.1	399.39	5.0229e-06	5.6124e-06	448.7	149.64	131.35	45.17	7.4904e-06	55.282	0.00069473	0.00089524	0.00024628	1525.8	9.4567e-06	9.8855e-06	1501.5	408.35	9.4182e-06	1.0085e-05	459.5	154.01	135.19	46.511	9.987e-06	57.056	-85.734	-56.507	-56.019	-129.992	14.170	-37.221	-130.182	-125.677	1.658	9.553	-125.862	-121.434	-120.990	-116.663	14.185	-117.138	-8191	255	
802.451	1	1	0	0	0.096263	0.24004	0.29319	0.28339	0.091313	0.14382	0.2212	0.31864	0.28932	0.16182	0.21627	0.036912	0.22037	0.13654	0.044887	0.10227	-2.8542	-2.8417	-3.2104	-3.3083	-2.4208	-2.9729	-3.1479	-3.15	-3.0042	-2.5229	-3.0687	-3.0229	-2.9229	-3.2208	-2.6771	-2.8	-40.480	82.570	-47.503	142.006	-103.565	105.136	128.507	162.852	-87.916	110.055	197.939	106.377	161.335	154.297	59.169	200.008	0.0004067	0.0006026	0.00014601	1495.9	6.3277e-06	4.0017e-06	1472.7	397.29	5.0028e-06	7.0325e-06	448.41	148.98	131.22	45.068	3.9451e-06	55.169	0.00070268	0.00089626	0.00024368	1523.4	9.4342e-06	9.9973e-06	1498.1	407.9	9.3966e-06	1.0168e-05	459.11	153.82	135.16	46.501	9.9209e-06	56.976	-83.535	-42.993	-67.248	-130.009	-1.088	7.290	-130.162	-125.410	1.974	22.229	-125.765	-121.619	-121.099	-116.529	29.212	-117.339	-8191	255	
802.524	1	1	0	0	0.18045	0.16517	0.16707	0.12979	0.13086	0.33937	0.32717	0.11167	0.14941	0.13781	0.20745	0.32234	0.29054	0.15256	0.13043	0.066984	-2.8229	-2.8125	-3.0167	-3.0167	-2.4604	-3.125	-3.25	-2.9104	-2.9542	-2.6208	-2.9125	-3.2188	-2.8479	-2.9708	-2.9229	-2.8312	145.996	175.041	-53.586	136.957	174.736	-17.458	90.786	193.250	-77.868	90.830	146.852	171.999	-92.057	125.381	-130.160	118.921	0.00039962	0.00045365	0.00014343	1496.1	3.2847e-06	5.5501e-06	1471.7	398.14	5.0365e-06	5.5188e-06	447.56	148.85	130.47	44.911	5.9426e-06	55.275	0.00069767	0.00088008	0.00024328	1522.1	9.5704e-06	1.0065e-05	1496.7	407.56	9.3682e-06	9.9299e-06	458.75	153.6	134.81	46.409	9.8271e-06	56.997	-82.242	-56.589	-51.949	-129.895	-13.456	3.875	-129.957	-125.415	-10.729	3.512	-125.804	-121.677	-120.871	-116.284	-1.954	-117.125	-8191	255	
802.643	1	1	0	0	0.052537	0.38406	0.090238	0.46699	0.18859	0.13308	0.26343	0.26739	0.21924	0.29518	0.21313	0.16159	0.1077	0.11478	0.068618	0.057493	-2.8167	-2.9313	-2.7271	-3.1354	-2.6458	-2.8479	-3.0792	-2.9833	-3.3271	-2.825	-2.7708	-3.1167	-2.8625	-3.1542	-2.8167	-2.675	194.054	-85.362	147.213	147.990	11.221	-59.323	29.734	134.434	-142.945	-133.194	166.916	-76.878	-138.546	-129.501	30.944	-65.495	0.00040311	0.00077149	0.00012552	1499.2	6.296e-06	4.6622e-06	1471.1	398.17	4.3378e-06	6.9185e-06	448.67	148.73	130.24	44.993	5.0295e-06	55.063	0.00069805	0.00092189	0.00024698	1522.2	9.6528e-06	9.6317e-06	1497.4	407.78	9.2013e-06	1.0019e-05	459.35	153.67	134.85	46.494	9.6241e-06	56.908	-85.914	-53.370	-61.827	-130.081	-6.122	-27.052	-130.102	-125.527	-6.088	6.587	-126.029	-121.399	-121.059	-116.740	7.503	-117.006	-8191	255	
802.739	1	1	0	0	0.16718	0.16205	0.093641	0.36472	0.18402	0.064001	0.18408	0.32729	0.31619	0.10992	0.2233	0.083192	0.081759	0.13774	0.069077	0.25215	-2.6562	-2.8	-2.7771	-3.4021	-2.7125	-3.0292	-2.9625	-2.8104	-2.7854	-2.8208	-3.0917	-3.3312	-2.9417	-2.9271	-3.0167	-2.9271	47.135	-57.999	200.296	166.369	110.935	83.534	98.021	174.905	183.948	48.258	155.477	215.136	141.924	213.758	-139.775	115.814	0.0004182	0.00047981	0.00015894	1494.6	4.093e-06	6.2383e-06	1467.3	396.75	5.0296e-06	6.632e-06	447.5	148.38	131.29	44.88	4.6717e-06	54.856	0.00070412	0.00091463	0.00025669	1523.1	9.7755e-06	1.041e-05	1498.4	407.69	9.3855e-06	1.0428e-05	459.28	153.42	135.19	46.499	9.7345e-06	56.996	-86.433	-53.892	-32.524	-129.963	4.223	5.590	-130.298	-125.623	2.081	-1.459	-125.947	-121.664	-121.073	-116.831	23.365	-117.231	-8191	255	
802.835	1	1	0	0	0.14762	0.11188	0.16464	0.16838	0.13897	0.035993	0.1611	0.27732	0.12045	0.18966	0.12345	0.19177	0.3966	0.062749	0.25971	0.050155	-2.6917	-2.9875	-2.7792	-3.2771	-2.7458	-2.8958	-3.1437	-2.7833	-3.1083	-2.925	-2.8187	-3.1104	-2.7854	-2.8688	-3.0938	-2.8167	58.772	153.888	-127.104	214.695	8.204	143.749	132.722	126.620	87.355	166.375	100.181	125.970	-128.847	-56.107	122.470	199.108	0.00039541	0.00052483	0.00014364	1488	3.926e-06	4.5842e-06	1466.5	396.16	3.1782e-06	5.048e-06	448.19	149.01	130.54	45.157	5.4468e-06	55.222	0.0007039	0.00089411	0.00024946	1520.4	9.6163e-06	9.9171e-06	1497.3	407.61	9.3619e-06	1.006e-05	458.97	153.63	134.98	46.474	9.7084e-06	57.044	-83.314	-47.792	-56.946	-130.196	3.013	9.596	-129.991	-125.469	-7.674	13.267	-125.970	-121.546	-121.062	-116.507	11.198	-117.107	-8191	255	
802.931	1	1	0	0	0.19406	0.11475	0.093123	0.40158	0.30826	0.12443	0.15841	0.25914	0.21228	0.13029	0.063444	0.30767	0.12738	0.26015	0.26877	0.062702	-2.6083	-3.0458	-2.6937	-3.3812	-2.7125	-2.8854	-3.2854	-2.7958	-3.2812	-3.1083	-2.8688	-3.2542	-2.7562	-2.7083	-3.1646	-2.7792	208.699	-8.787	6.475	184.427	40.278	80.686	157.720	159.516	147.036	-138.090	85.190	179.526	136.666	-125.918	21.272	165.243	0.00042376	0.00049039	0.00017806	1493.8	5.1373e-06	5.2926e-06	1471.9	398.08	5.3777e-06	5.4236e-06	445.83	149.55	130.71	45.038	5.8569e-06	55.212	0.00069669	0.00088739	0.00024326	1520.1	9.6168e-06	1.0045e-05	1498.5	407.47	9.2534e-06	9.9221e-06	458.35	153.77	135.01	46.467	9.7289e-06	57.01	-84.304	-37.789	-62.959	-130.013	15.020	23.820	-130.033	-125.403	3.083	13.007	-125.811	-121.688	-121.011	-116.607	10.662	-117.118	-8191	255	
803.052	1	1	0	0	0.079043	0.1302	0.10279	0.19054	0.17775	0.090946	0.19199	0.29969	0.14558	0.071954	0.15815	0.1838	0.18703	0.20548	0.15633	0.28661	-2.5812	-2.9708	-2.6958	-3.1562	-2.7875	-2.6979	-3.2542	-2.9625	-3.0875	-3.1875	-2.9062	-3.2125	-2.9688	-2.95	-3.2062	-2.9208	23.309	-24.413	47.891	188.505	77.909	-45.057	148.288	127.391	-45.652	165.126	198.021	-86.227	156.505	157.405	-6.228	144.885	0.00039057	0.00042733	0.00012063	1495.5	3.7944e-06	7.0702e-06	1465.5	399.63	2.8907e-06	7.5039e-06	446.38	148.59	130.4	44.8	5.7558e-06	54.904	0.00069946	0.00092377	0.00025288	1522.3	9.6095e-06	1.0437e-05	1497.8	407.96	9.4771e-06	1.01e-05	458.26	153.47	134.91	46.392	9.4859e-06	56.91	-85.715	-50.970	-48.714	-130.027	-14.318	5.198	-129.997	-125.570	3.012	-1.619	-126.036	-121.610	-121.086	-116.698	-0.409	-117.449	-8191	255	
803.124	1	1	0	0	0.13539	0.12878	0.14741	0.15633	0.21418	0.10135	0.24337	0.27355	0.083017	0.17492	0.36095	0.19756	0.20714	0.14598	0.25241	0.043786	-2.4	-3.0125	-2.4313	-3.2521	-2.8979	-2.7646	-3.2333	-2.9917	-2.8583	-2.9667	-2.9062	-3.175	-3.1083	-2.8417	-3.3146	-2.9375	162.525	-138.150	43.806	-119.896	139.220	76.316	186.195	190.564	166.632	7.125	95.445	159.772	131.201	-132.533	169.933	179.590	0.00039842	0.0004146	0.00013696	1488.5	5.6913e-06	7.16e-06	1463.1	397.14	2.8669e-06	5.8841e-06	446.81	148.37	130.16	44.87	5.1066e-06	55.019	0.00069516	0.00087659	0.00025168	1519.7	9.381e-06	1.0012e-05	1493.9	407.18	9.4445e-06	1.0021e-05	458.51	153.36	134.65	46.355	9.7739e-06	56.884	-84.090	-60.339	-59.471	-130.110	12.777	1.036	-130.119	-125.525	7.329	-31.988	-125.834	-121.607	-121.010	-116.521	29.771	-117.332	-8191	255	
803.220	1	1	0	0	0.17313	0.098853	0.22348	0.21765	0.10995	0.12263	0.21512	0.12375	0.22691	0.20004	0.18944	0.060183	0.093927	0.21394	0.17484	0.20739	-2.3375	-3.1292	-2.7417	-3.1208	-3.0208	-2.675	-3.3042	-3.0187	-2.8688	-2.9875	-2.9521	-3.1063	-3.1479	-2.6771	-2.975	-3.0792	156.712	-138.721	-111.483	195.959	-68.261	37.685	144.569	55.184	-18.601	-26.616	95.741	174.471	119.555	174.457	122.514	174.709	0.00040518	0.00044988	0.00011501	1493.1	4.9028e-06	5.7652e-06	1465.1	397.44	5.45e-06	3.8459e-06	447.13	149.2	130.54	44.884	5.8426e-06	55.451	0.00071496	0.00089803	0.00024258	1519.6	9.3528e-06	1.0022e-05	1495.6	407.49	9.4508e-06	9.9976e-06	458.65	153.59	134.85	46.376	9.5053e-06	57.014	-87.346	-60.066	-18.349	-130.085	-18.287	15.283	-130.183	-125.317	-4.405	6.150	-126.101	-121.503	-120.908	-116.588	-12.020	-117.318	-8191	255	
803.316	1	1	0	0	0.08084	0.19537	0.16531	0.27882	0.21808	0.21544	0.16682	0.38622	0.22369	0.12066	0.18495	0.22666	0.23912	0.14321	0.24694	0.27909	-2.3417	-3.1833	-2.7396	-3.1688	-3.0687	-2.8458	-3.3167	-3.0542	-2.5771	-3.1833	-2.9146	-3.2042	-3.1292	-2.7604	-2.9521	-2.9396	25.691	-99.692	8.727	-134.741	-123.287	16.317	180.093	152.714	-12.442	99.368	216.301	-141.654	195.414	115.209	-122.757	170.009	0.00042859	0.00034226	0.00011127	1488.4	3.5472e-06	6.4467e-06	1465.5	397.93	5.6727e-06	6.8521e-06	450.33	149.3	131.3	44.935	5.7781e-06	55.438	0.00069998	0.00086799	0.00024423	1517	9.4791e-06	9.7957e-06	1493.4	407.37	9.5639e-06	9.78e-06	459.08	153.8	135.02	46.466	9.3988e-06	57.075	-83.323	-47.858	-37.360	-129.865	3.084	3.002	-130.123	-125.418	38.867	21.792	-125.795	-121.486	-120.938	-116.422	12.302	-116.890	-8191	255	
803.437	1	1	0	0	0.088512	0.31685	0.11926	0.18833	0.27114	0.04089	0.15696	0.038207	0.20638	0.15271	0.11225	0.28886	0.22985	0.2214	0.054978	0.1396	-2.3958	-3.0167	-2.8479	-3.1083	-3.1146	-2.7	-3.3396	-3.2687	-2.7938	-3.0521	-2.7917	-3.0021	-3.2208	-2.9604	-2.9792	-3.0708	87.976	177.192	59.314	205.770	215.135	49.117	170.723	17.550	93.819	-20.685	116.490	179.450	-106.430	214.771	-66.912	41.926	0.00044782	0.00066858	0.00013785	1499.9	4.8148e-06	4.5155e-06	1469.9	397.75	5.4773e-06	5.3421e-06	449.82	149.25	131.4	45.08	5.5291e-06	55.462	0.00070088	0.00087723	0.00024742	1519.9	9.1619e-06	9.6165e-06	1493.2	407.58	9.5855e-06	1.0026e-05	459.42	153.63	135.21	46.524	9.5974e-06	56.977	-81.541	-61.299	-66.202	-129.873	-0.533	19.053	-129.937	-125.241	2.044	-8.693	-125.928	-121.342	-120.879	-116.598	-12.427	-117.401	-8191	255	
803.531	1	1	0	0	0.23836	0.23618	0.29632	0.33674	0.15104	0.15871	0.225	0.054435	0.1116	0.24343	0.3172	0.23162	0.075651	0.14506	0.077812	0.094885	-2.3208	-2.9	-2.7354	-2.9292	-3.2333	-2.7687	-3.2292	-3.1229	-2.7021	-3.2625	-2.8812	-2.6188	-3.1104	-2.9021	-2.9354	-3.1146	203.575	-46.427	-131.289	173.016	-20.844	36.049	120.915	47.626	118.037	-18.889	-108.642	-136.574	-16.452	167.994	-55.056	155.207	0.00039403	0.00065984	0.00015627	1501.4	3.1606e-06	4.0476e-06	1469.8	396.96	3.1394e-06	4.1533e-06	447.51	148.86	131.26	45.135	5.6952e-06	55.074	0.00070548	0.00087562	0.00024475	1519.8	9.3116e-06	9.9784e-06	1495.7	407.13	9.1787e-06	9.6554e-06	458.48	153.56	134.94	46.57	9.3006e-06	56.959	-84.451	-58.311	-66.655	-129.992	17.547	-4.083	-129.927	-125.541	-2.207	10.302	-126.074	-121.519	-121.217	-116.535	9.932	-117.427	-8191	255	
803.629	1	1	0	0	0.3138	0.24139	0.090777	0.12791	0.16881	0.19406	0.17948	0.047516	0.18614	0.19421	0.091342	0.3119	0.17783	0.32563	0.21584	0.040829	-2.3042	-2.9521	-2.9313	-3.0479	-3.2292	-2.9521	-3.1521	-3.0146	-2.6813	-3.1583	-3.0854	-2.775	-3.1333	-2.6958	-2.6958	-3.1042	85.047	147.898	153.123	187.399	141.875	93.156	120.735	-8.552	118.212	33.117	-123.747	200.033	169.832	137.855	35.771	187.620	0.00041123	0.00049429	0.00019631	1494.9	3.2127e-06	6.3565e-06	1471.2	400.14	3.9781e-06	7.7961e-06	448.8	149.29	130.87	45.138	5.2819e-06	55.394	0.00071934	0.00086192	0.00025263	1519.1	9.3497e-06	1.0179e-05	1494.8	408	9.5145e-06	9.9215e-06	458.58	153.52	134.81	46.523	9.4826e-06	57.076	-81.203	-49.173	-42.050	-130.025	15.435	5.506	-130.005	-125.323	2.626	-3.673	-125.873	-121.346	-121.049	-116.555	14.457	-117.174	-8191	255	
803.723	1	1	0	0	0.15839	0.10533	0.02447	0.1887	0.096998	0.21276	0.20469	0.046583	0.091506	0.249	0.17953	0.024776	0.098427	0.24332	0.073796	0.020761	-2.3729	-2.8604	-2.8458	-2.5958	-2.9854	-2.8937	-2.7375	-3.2938	-2.65	-2.9875	-3.2604	-2.8063	-3.1125	-2.9375	-2.8583	-3.2479	194.944	-99.516	-86.928	118.835	-138.108	157.446	175.644	-56.437	48.693	172.328	212.114	147.414	201.236	-137.675	-73.778	-106.298	0.000387	0.00063822	0.00019702	1498.2	4.7799e-06	5.911e-06	1475.9	401.07	3.8865e-06	3.3508e-06	449.04	149.49	130.93	45.311	6.2745e-06	55.467	0.00069404	0.00087514	0.00024783	1520.3	9.2208e-06	9.9189e-06	1496.7	408.4	9.6118e-06	9.8967e-06	458.77	153.81	135	46.506	9.6168e-06	57.053	-85.154	-64.101	-41.588	-129.985	8.586	3.099	-130.130	-125.400	29.403	52.409	-125.830	-121.578	-120.671	-116.611	-1.338	-117.026	-8191	255	
803.819	1	1	0	0	0.11109	0.11426	0.20629	0.60568	0.29638	0.045928	0.18127	0.1585	0.12667	0.21795	0.24558	0.2366	0.21138	0.16308	0.19898	0.31412	-2.3292	-2.8167	-3.0021	-2.9667	-3.0583	-2.8812	-2.9625	-3.1	-2.7229	-2.8312	-3.1271	-2.775	-3.0708	-2.8688	-2.6875	-3.2	-123.751	88.082	-123.862	143.830	83.803	-16.914	190.892	149.062	58.630	116.644	-55.405	199.360	180.460	-134.459	-66.739	177.861	0.000387	0.00051848	0.00016491	1497.3	6.4276e-06	3.6706e-06	1470.1	401.17	5.4053e-06	4.6944e-06	450.26	149.46	131.63	45.116	5.2694e-06	55.282	0.00070396	0.00088701	0.00024488	1519.6	9.117e-06	9.9305e-06	1495.5	408.14	9.315e-06	9.5805e-06	459.12	153.98	135.25	46.496	9.31e-06	57.038	-84.091	-59.514	-55.134	-129.814	11.062	21.573	-130.127	-125.197	-0.771	30.772	-126.054	-121.605	-121.089	-116.536	22.630	-117.035	-8191	255	
803.916	1	1	0	0	0.068447	0.07636	0.055102	0.058643	0.24056	0.2807	0.38056	0.14466	0.19672	0.3124	0.25013	0.25227	0.049391	0.26945	0.1122	0.1902	-2.3333	-2.8625	-3.1063	-2.9833	-2.8771	-2.9062	-2.8625	-3.3917	-2.6188	-2.6104	-3.0979	-2.7833	-3.1562	-3.1646	-2.5354	-3.1604	98.712	-103.274	-10.435	140.865	112.031	140.055	143.505	169.253	162.533	-99.770	195.508	-130.266	14.793	-30.689	52.495	165.707	0.00039613	0.00055351	0.00014789	1498	3.4546e-06	6.4264e-06	1471.3	398.76	4.9538e-06	3.954e-06	450.78	149.27	130.67	45.305	4.5747e-06	55.164	0.00067569	0.00088062	0.00024331	1518.1	9.01e-06	9.8491e-06	1494.4	408.04	9.1477e-06	9.8719e-06	459.19	153.51	134.82	46.505	9.4848e-06	56.934	-82.855	-35.964	-37.210	-129.918	-3.496	-8.917	-129.903	-125.567	18.869	-2.954	-125.943	-121.779	-121.098	-116.531	-8.991	-117.338	-8191	255	
804.036	1	1	0	0	0.15377	0.21678	0.01997	0.12742	0.20108	0.062449	0.27085	0.2803	0.21937	0.10056	0.1241	0.040448	0.15891	0.19476	0.22517	0.25922	-2.1292	-2.5167	-2.9	-2.6562	-2.8333	-3.0708	-2.8521	-2.9854	-2.6	-2.6625	-3.2375	-2.9792	-2.9604	-2.9354	-2.725	-3.3125	-6.677	189.033	141.999	131.939	-117.412	-28.642	205.258	195.098	151.128	199.141	-61.837	42.411	-139.070	166.709	-111.609	108.699	0.00041488	0.00059782	9.5245e-05	1498.2	4.7733e-06	6.8075e-06	1470.2	401.72	6.4141e-06	6.4356e-06	450.68	149.62	132.16	45.446	6.6902e-06	55.494	0.00069903	0.00088873	0.00023984	1518.1	8.9125e-06	9.7981e-06	1494	408.34	9.4266e-06	9.7679e-06	459.46	153.8	135.13	46.492	9.4704e-06	57.033	-83.246	-39.356	-51.926	-129.816	14.454	9.092	-129.908	-125.392	2.716	-19.775	-125.678	-121.473	-120.692	-116.459	9.013	-117.108	-8191	255	
804.131	1	1	0	0	0.036376	0.052389	0.11949	0.26716	0.16882	0.045092	0.21287	0.16194	0.2198	0.12942	0.26236	0.086571	0.075661	0.071669	0.24103	0.42991	-2.5938	-2.7188	-2.8937	-2.9437	-2.6854	-3.0271	-2.8375	-3.0167	-2.8979	-2.7021	-3.15	-2.8979	-2.9604	-3.2562	-2.7958	-3.2	1.889	172.750	-93.902	171.811	89.769	137.707	71.559	212.120	201.365	15.891	144.941	123.996	9.784	117.235	38.577	134.341	0.00039923	0.00044976	0.00017575	1501.2	7.4325e-06	8.2177e-06	1475.4	400.91	3.682e-06	4.298e-06	450.02	149.6	131.84	45.122	4.6785e-06	55.54	0.00070385	0.00088857	0.00024711	1520.2	9.4514e-06	9.8946e-06	1495.8	408.12	9.4871e-06	9.7153e-06	458.97	153.79	135.03	46.478	9.659e-06	57.022	-85.710	-36.402	-68.013	-129.894	11.236	-10.070	-129.913	-125.265	14.530	10.996	-125.841	-121.549	-120.957	-116.365	10.459	-117.114	-8191	255	
804.227	1	1	0	0	0.12896	0.20608	0.10068	0.30137	0.20186	0.23187	0.1237	0.16224	0.13143	0.1751	0.1654	0.050174	0.024658	0.25662	0.030102	0.17913	-2.5021	-2.6333	-3.0604	-2.9313	-2.9542	-2.8063	-2.7354	-2.9813	-2.8833	-2.7896	-3.3229	-2.8792	-2.8729	-3.2292	-2.725	-3.0292	64.130	115.692	-122.124	-133.725	-0.025	191.877	148.871	12.705	148.322	204.511	-89.099	160.343	167.116	170.117	191.791	148.925	0.00040569	0.00060092	0.00014639	1504.3	5.3278e-06	7.6969e-06	1477.3	402.49	3.7033e-06	5.9147e-06	450.35	150.3	132	45.33	4.8058e-06	55.537	0.00069775	0.00085837	0.00024235	1521.5	9.2422e-06	9.9517e-06	1496.7	408.54	9.4697e-06	9.8658e-06	458.87	153.92	135.35	46.513	9.7489e-06	56.988	-83.128	-50.147	-33.498	-129.908	2.899	4.624	-130.193	-125.418	-27.294	6.565	-125.852	-121.571	-120.943	-116.564	22.893	-117.185	-8191	255	
804.347	1	1	0	0	0.16253	0.22712	0.18167	0.28238	0.40376	0.14073	0.12484	0.26724	0.11651	0.15704	0.53902	0.10248	0.13873	0.14478	0.087132	0.20041	-2.6813	-2.6396	-2.9813	-3.0375	-2.7687	-3.2979	-2.8438	-3.0083	-3.1	-2.725	-3.0792	-2.9542	-2.7021	-3.1542	-2.7104	-2.8979	57.598	-115.192	98.080	173.244	190.820	182.104	205.109	153.574	30.912	20.306	203.629	52.419	-18.839	72.068	128.963	191.069	0.00040347	0.00061842	0.00012085	1504.9	5.8887e-06	5.3406e-06	1474.9	401.7	5.0617e-06	4.3974e-06	450.96	149.36	132.17	45.219	5.2586e-06	55.514	0.00069467	0.00088433	0.00023703	1520.5	9.429e-06	9.8163e-06	1497.6	408.89	9.445e-06	9.7304e-06	459.1	153.49	135.38	46.494	9.8693e-06	57.023	-85.769	-43.349	-50.210	-129.957	17.079	16.368	-130.013	-125.220	4.681	-12.425	-125.509	-121.462	-121.019	-116.403	23.537	-117.124	-8191	255	
804.419	1	1	0	0	0.022212	0.17946	0.042033	0.27098	0.2142	0.18606	0.22426	0.10124	0.14527	0.15616	0.30822	0.10494	0.29873	0.10689	0.079007	0.058429	-2.7771	-2.6771	-3.0146	-3.1562	-2.7333	-3.1437	-3.15	-3.0187	-3.1083	-2.7354	-2.9042	-2.9479	-2.6792	-3.3292	-2.7375	-2.8167	44.343	175.474	151.100	143.629	-115.296	-105.988	147.817	92.613	175.225	-32.602	145.273	-21.997	-126.360	-131.942	199.075	18.668	0.0004012	0.00044816	0.00022268	1503.3	4.6461e-06	5.6575e-06	1475.7	402.39	3.667e-06	7.3275e-06	450.73	150.28	131.29	45.213	5.8116e-06	55.506	0.00069622	0.00089572	0.00023012	1519.6	9.4801e-06	9.8145e-06	1496.9	408.96	9.4871e-06	9.9208e-06	458.99	153.95	135.09	46.516	9.6673e-06	57.021	-84.926	-59.375	-56.346	-129.850	-2.969	14.663	-130.070	-125.359	6.379	-4.614	-125.728	-121.424	-121.077	-116.452	-13.889	-117.028	-8191	255	
804.515	1	1	0	0	0.24034	0.10954	0.21006	0.13186	0.31348	0.2093	0.3145	0.22903	0.099906	0.18881	0.28118	0.091394	0.12228	0.09107	0.045098	0.16462	-2.4896	-2.5229	-2.9021	-3.2062	-2.5208	-3.2042	-2.9313	-2.7521	-3.0104	-2.8271	-3.2604	-3.0875	-2.7188	-3.15	-2.9583	-2.8063	32.165	-107.703	199.705	214.395	-11.670	-87.014	185.050	185.840	-90.911	-2.867	152.691	-60.170	173.551	160.539	95.157	-116.737	0.00042505	0.00059452	0.0001465	1504.6	5.1348e-06	7.7519e-06	1481.6	400.87	5.2317e-06	5.942e-06	451.31	149.68	131.06	45.382	4.687e-06	55.702	0.00069911	0.00090158	0.00024681	1519.8	9.3899e-06	9.5916e-06	1497.4	408.68	9.2913e-06	9.9311e-06	459.7	153.46	134.76	46.545	9.5247e-06	57.074	-83.901	-52.400	-56.861	-129.865	-5.821	14.243	-130.030	-125.273	0.839	9.361	-125.849	-121.560	-120.881	-116.238	11.810	-116.886	-8191	255	
804.611	1	1	0	0	0.21883	0.12519	0.1843	0.18703	0.19414	0.15721	0.11839	0.14838	0.13394	0.083381	0.19484	0.17404	0.18406	0.045578	0.18193	0.048985	-2.4625	-2.8	-2.9354	-3.1271	-2.6583	-3.1625	-2.9771	-2.6958	-3.2979	-2.7042	-2.8958	-3.1896	-2.9583	-3.1208	-2.8792	-2.8167	9.707	-33.191	73.357	170.385	207.983	105.669	85.157	167.358	170.837	82.557	93.465	135.863	54.585	109.660	18.730	107.780	0.00041292	0.00062546	0.00013313	1505.2	5.0838e-06	5.2001e-06	1469.7	399.76	4.5478e-06	5.7687e-06	450.8	149.68	131.62	45.182	5.3381e-06	55.493	0.0006837	0.00087508	0.00024708	1520.2	9.513e-06	9.727e-06	1494.2	408.28	9.3545e-06	9.6681e-06	459.76	153.63	135.18	46.462	9.467e-06	56.944	-87.167	-69.619	-46.321	-129.854	14.297	-16.978	-130.158	-125.345	-5.833	11.326	-125.804	-121.626	-120.980	-116.495	27.400	-117.135	-8191	255	
#DATA ENDS
