BOXY.EXE: ISS Imagent and Oximeter Data Acquisition Program Version 0.80
Ascii Record File

#ACQ INFORMATION
2  Detector Channels 
16  External MUX Channels 
1  Auxiliary Channels 
5000  Waveform (CCF) Frequency (Hz)
1  Waveforms Skipped 
30  Waveforms Averaged 
1  Cycles Averaged 
16  Acquisitions per Waveform 
10.0806  Updata Rate (Hz) 

#FILE INFORMATION
TRUE -- External MUX Channel results are PARSED.
FALSE -- AC DC and Phase are NOT grouped.
TRUE -- Companion Program Settings File CREATED.
FALSE -- AC data not excluded
FALSE -- DC data not excluded
FALSE -- Phase data not excluded
FALSE -- Auxillary Chn. data not excluded
Tab delimiters

#CALIBRATION STATE
TRUE -- Waveform Calibration Values APPLIED.


#AUX CALIBRATION VALUES
Val Type	aux-1	

Term	1.0000e+00	
Factor	0.0000e+00	


#WF CALIBRATION VALUES
A = Detector Channel
Val Type	A-AC1	A-AC2	A-AC3	A-AC4	A-AC5	A-AC6	A-AC7	A-AC8	A-AC9	A-AC10	A-AC11	A-AC12	A-AC13	A-AC14	A-AC15	A-AC16	A-DC1	A-DC2	A-DC3	A-DC4	A-DC5	A-DC6	A-DC7	A-DC8	A-DC9	A-DC10	A-DC11	A-DC12	A-DC13	A-DC14	A-DC15	A-DC16	A-Ph1	A-Ph2	A-Ph3	A-Ph4	A-Ph5	A-Ph6	A-Ph7	A-Ph8	A-Ph9	A-Ph10	A-Ph11	A-Ph12	A-Ph13	A-Ph14	A-Ph15	A-Ph16	

Term	0.00000e+00	0.00000e+00	0.00000e+00	0.00000e+00	0.00000e+00	0.00000e+00	0.00000e+00	0.00000e+00	0.00000e+00	0.00000e+00	0.00000e+00	0.00000e+00	0.00000e+00	0.00000e+00	0.00000e+00	0.00000e+00	0.00000e+00	0.00000e+00	0.00000e+00	0.00000e+00	0.00000e+00	0.00000e+00	0.00000e+00	0.00000e+00	0.00000e+00	0.00000e+00	0.00000e+00	0.00000e+00	0.00000e+00	0.00000e+00	0.00000e+00	0.00000e+00	0.00000e+00	0.00000e+00	0.00000e+00	0.00000e+00	0.00000e+00	0.00000e+00	0.00000e+00	0.00000e+00	0.00000e+00	0.00000e+00	0.00000e+00	0.00000e+00	0.00000e+00	0.00000e+00	0.00000e+00	0.00000e+00	
Factor	1.00000e+00	1.00000e+00	1.00000e+00	1.00000e+00	1.00000e+00	1.00000e+00	1.00000e+00	1.00000e+00	1.00000e+00	1.00000e+00	1.00000e+00	1.00000e+00	1.00000e+00	1.00000e+00	1.00000e+00	1.00000e+00	1.00000e+00	1.00000e+00	1.00000e+00	1.00000e+00	1.00000e+00	1.00000e+00	1.00000e+00	1.00000e+00	1.00000e+00	1.00000e+00	1.00000e+00	1.00000e+00	1.00000e+00	1.00000e+00	1.00000e+00	1.00000e+00	X	X	X	X	X	X	X	X	X	X	X	X	X	X	X	X	

B = Detector Channel
Val Type	B-AC1	B-AC2	B-AC3	B-AC4	B-AC5	B-AC6	B-AC7	B-AC8	B-AC9	B-AC10	B-AC11	B-AC12	B-AC13	B-AC14	B-AC15	B-AC16	B-DC1	B-DC2	B-DC3	B-DC4	B-DC5	B-DC6	B-DC7	B-DC8	B-DC9	B-DC10	B-DC11	B-DC12	B-DC13	B-DC14	B-DC15	B-DC16	B-Ph1	B-Ph2	B-Ph3	B-Ph4	B-Ph5	B-Ph6	B-Ph7	B-Ph8	B-Ph9	B-Ph10	B-Ph11	B-Ph12	B-Ph13	B-Ph14	B-Ph15	B-Ph16	

Term	0.00000e+00	0.00000e+00	0.00000e+00	0.00000e+00	0.00000e+00	0.00000e+00	0.00000e+00	0.00000e+00	0.00000e+00	0.00000e+00	0.00000e+00	0.00000e+00	0.00000e+00	0.00000e+00	0.00000e+00	0.00000e+00	0.00000e+00	0.00000e+00	0.00000e+00	0.00000e+00	0.00000e+00	0.00000e+00	0.00000e+00	0.00000e+00	0.00000e+00	0.00000e+00	0.00000e+00	0.00000e+00	0.00000e+00	0.00000e+00	0.00000e+00	0.00000e+00	-5.53345e+01	-1.27015e+02	-1.27340e+02	-1.81716e+02	-4.47746e+01	-6.81240e+01	-1.57128e+02	-1.62015e+02	-4.21788e+01	-6.97516e+01	-1.72142e+02	-1.70362e+02	-1.80059e+02	-1.77178e+02	-5.13089e+01	-1.50265e+02	
Factor	1.80857e-05	1.60277e-04	4.48908e-05	1.58796e-01	1.75125e-06	1.97752e-06	1.70809e-01	6.08193e-02	1.37557e-06	1.84322e-06	8.34618e-02	2.77414e-02	2.97006e-02	8.95166e-03	1.69608e-06	1.25925e-02	1.30705e-05	2.57931e-05	7.13724e-06	8.02894e-02	2.50439e-07	2.91465e-07	8.12663e-02	3.08636e-02	2.52611e-07	2.90207e-07	4.12275e-02	1.37531e-02	1.53383e-02	4.59568e-03	2.66348e-07	6.24348e-03	X	X	X	X	X	X	X	X	X	X	X	X	X	X	X	X	



#DISTANCE SETTINGS
A = Detector Channel
A-1	A-2	A-3	A-4	A-5	A-6	A-7	A-8	A-9	A-10	A-11	A-12	A-13	A-14	A-15	A-16	

2.5000e+00	3.0000e+00	2.5000e+00	3.0000e+00	2.0000e+00	3.0000e+00	1.5000e+00	3.0000e+00	3.0000e+00	3.0000e+00	3.0000e+00	3.0000e+00	3.0000e+00	3.0000e+00	1.5000e+00	3.0000e+00	

B = Detector Channel
B-1	B-2	B-3	B-4	B-5	B-6	B-7	B-8	B-9	B-10	B-11	B-12	B-13	B-14	B-15	B-16	

1.0000e+01	1.0000e+01	1.0000e+01	1.4400e+00	1.0000e+01	1.0000e+01	1.5100e+00	1.9400e+00	1.0000e+01	1.0000e+01	1.9900e+00	2.4900e+00	2.4100e+00	2.9000e+00	1.0000e+01	2.9800e+00	




#DATA BEGINS
time	group	step	mark	flag	A-AC1	A-AC2	A-AC3	A-AC4	A-AC5	A-AC6	A-AC7	A-AC8	A-AC9	A-AC10	A-AC11	A-AC12	A-AC13	A-AC14	A-AC15	A-AC16	A-DC1	A-DC2	A-DC3	A-DC4	A-DC5	A-DC6	A-DC7	A-DC8	A-DC9	A-DC10	A-DC11	A-DC12	A-DC13	A-DC14	A-DC15	A-DC16	A-Ph1	A-Ph2	A-Ph3	A-Ph4	A-Ph5	A-Ph6	A-Ph7	A-Ph8	A-Ph9	A-Ph10	A-Ph11	A-Ph12	A-Ph13	A-Ph14	A-Ph15	A-Ph16	B-AC1	B-AC2	B-AC3	B-AC4	B-AC5	B-AC6	B-AC7	B-AC8	B-AC9	B-AC10	B-AC11	B-AC12	B-AC13	B-AC14	B-AC15	B-AC16	B-DC1	B-DC2	B-DC3	B-DC4	B-DC5	B-DC6	B-DC7	B-DC8	B-DC9	B-DC10	B-DC11	B-DC12	B-DC13	B-DC14	B-DC15	B-DC16	B-Ph1	B-Ph2	B-Ph3	B-Ph4	B-Ph5	B-Ph6	B-Ph7	B-Ph8	B-Ph9	B-Ph10	B-Ph11	B-Ph12	B-Ph13	B-Ph14	B-Ph15	B-Ph16	aux-1	digaux	

2030.230	1	1	0	768	0.046056	0.096092	0.047798	0.14232	0.19139	0.11793	0.18708	0.27863	0.067165	0.27659	0.073385	0.22798	0.10025	0.2349	0.028008	0.31403	-2.4562	-2.5438	-2.6646	-2.8688	-2.4313	-2.7375	-2.8333	-2.5687	-2.7562	-2.5521	-2.9667	-2.8271	-2.5208	-2.8792	-2.7854	-2.625	441.199	188.084	273.462	469.486	360.673	314.124	478.170	427.408	203.226	318.284	476.035	342.833	150.238	440.553	139.985	455.666	0.00066395	0.0013507	0.00034615	1610.8	1.4342e-05	1.5711e-05	1637.6	500.12	6.6078e-06	7.141e-06	544.32	190.91	158.28	38.569	7.3124e-06	58.982	0.0054071	0.010151	0.002744	1542.7	9.6937e-05	0.00011382	1562.3	481.16	9.93e-05	0.00011167	527.62	184.48	154.17	38.273	0.00010285	58.276	261.561	216.057	183.416	138.571	239.194	245.083	137.704	142.574	292.887	214.434	141.025	145.352	146.213	149.982	300.844	148.964	-8191	255	
2030.326	1	1	0	0	0.40255	0.070269	0.3354	0.21432	0.42893	0.21546	0.21638	0.27097	0.084928	0.21526	0.080072	0.19566	0.29408	0.0931	0.07013	0.060217	-2.5333	-2.5604	-2.45	-3.0104	-2.5396	-2.7354	-3.1562	-2.5708	-2.8583	-2.7042	-2.8604	-2.8354	-2.55	-2.7167	-2.7271	-2.3854	231.972	178.051	259.423	445.867	439.083	194.855	465.547	407.307	258.096	483.241	346.752	148.386	407.961	139.347	413.328	423.391	0.00065918	0.00053418	0.00023689	1609.4	6.6494e-06	1.969e-06	1619.3	496.74	6.2382e-06	4.0513e-06	539.07	187.99	155.35	38.354	1.2191e-05	58.429	0.0054081	0.0099984	0.0027738	1536.2	9.8293e-05	0.00011306	1548.6	478.73	9.7816e-05	0.00011192	521.31	181.94	152.71	37.908	0.00010278	57.535	252.558	259.906	259.531	138.457	281.161	207.952	137.824	142.418	300.449	246.484	141.392	145.207	146.235	150.050	292.384	149.039	-8191	255	
2030.422	1	1	0	0	0.071846	0.092065	0.15977	0.19282	0.34501	0.066593	0.25682	0.3598	0.18347	0.13522	0.029853	0.1875	0.13312	0.055684	0.17191	0.17715	-2.2271	-2.5833	-2.375	-3.1521	-2.3646	-2.7687	-2.9979	-2.5667	-2.9271	-2.7188	-2.6271	-3.05	-2.5896	-2.8042	-2.7771	-2.5292	358.393	314.150	164.711	129.940	164.987	432.832	409.885	445.398	427.356	287.833	358.154	427.019	131.724	353.047	274.730	132.525	0.00063336	0.0010034	0.00038619	1593	8.1919e-06	1.4012e-05	1614.1	495.32	7.7063e-06	5.4927e-06	536.88	186.96	156.01	38.075	1.4042e-06	58.213	0.0054136	0.010056	0.0027725	1520.5	9.7485e-05	0.00011254	1537.5	474.96	9.6818e-05	0.00011136	518.96	181.22	152.06	37.719	0.00010282	57.591	259.063	352.356	130.390	138.619	253.976	238.009	137.951	142.803	284.885	197.634	141.398	145.313	146.597	149.877	128.732	148.415	-8191	255	
2030.518	1	1	0	0	0.30536	0.18825	0.079658	0.28872	0.04456	0.1832	0.19653	0.2052	0.15899	0.10182	0.12748	0.3446	0.15311	0.23901	0.081577	0.1033	-2.3104	-2.6417	-2.4083	-3.0458	-2.6	-2.6875	-3.3167	-2.5333	-2.725	-2.8083	-2.6458	-3.0083	-2.7125	-2.6396	-2.7562	-2.4333	441.066	321.618	125.277	437.070	462.644	349.449	436.958	351.438	192.516	275.734	425.549	463.883	209.957	478.346	429.953	421.630	0.0005737	0.00093168	0.0002346	1602.7	1.6336e-05	5.903e-06	1631.1	498.74	1.3351e-05	1.6296e-05	543.5	189	157.47	38.275	1.4139e-05	58.839	0.0053574	0.0099946	0.0027704	1528.5	9.6722e-05	0.00011251	1555	479.47	9.6885e-05	0.00011196	525.85	183.47	153.78	38.098	0.00010284	58.179	259.836	271.171	221.974	138.459	287.833	305.581	138.063	142.291	262.869	230.242	141.298	145.502	146.366	150.510	265.783	148.926	-8191	255	
2030.614	1	1	0	0	0.12147	0.21091	0.23287	0.27229	0.14432	0.082539	0.27614	0.20177	0.18448	0.10674	0.13299	0.18303	0.3782	0.097198	0.12188	0.36023	-2.3125	-2.6979	-2.3146	-2.9417	-2.5687	-2.4729	-2.9854	-2.7271	-2.7333	-2.9125	-2.6729	-2.9646	-2.6542	-2.6771	-2.9125	-2.4458	312.231	333.641	155.364	427.002	303.020	138.256	421.975	263.490	309.578	223.372	160.845	380.988	131.811	329.122	457.460	372.856	0.00070729	0.00065731	0.00035129	1626	1.66e-06	1.9346e-06	1644.5	503.21	4.4114e-06	1.2321e-05	545.58	191.32	158.37	38.456	6.9197e-06	59.022	0.0053367	0.010018	0.0027394	1550	9.6704e-05	0.0001134	1569	485.22	9.7623e-05	0.00011124	528.29	184.54	154.35	38.274	0.0001021	58.237	260.954	180.273	249.905	138.603	318.420	376.134	137.821	142.493	306.423	338.460	141.274	145.197	146.427	149.990	377.676	148.952	-8191	255	
2030.710	1	1	0	0	0.10939	0.22719	0.086772	0.39145	0.24087	0.13089	0.063268	0.11892	0.13528	0.03361	0.28453	0.41411	0.25186	0.11053	0.060875	0.28227	-2.2354	-2.6729	-2.3896	-2.9188	-2.5312	-2.6771	-3.0229	-2.6458	-2.5875	-2.8042	-2.5	-2.9208	-2.7479	-2.4938	-2.775	-2.5771	385.933	279.960	324.215	422.633	392.833	151.548	420.689	403.863	298.451	198.321	336.741	149.585	482.384	425.018	214.606	336.120	0.000708	0.0015071	0.00036288	1617	4.4414e-06	2.8263e-06	1643.1	502.35	1.1432e-05	1.5859e-05	537.05	188.71	157.59	38.718	7.5815e-06	58.313	0.0054062	0.010048	0.0027563	1546.4	9.7728e-05	0.00011295	1562.4	482.78	9.6931e-05	0.00011158	522.37	182.64	154.01	38.273	0.00010092	57.547	259.436	196.123	240.070	138.610	373.067	479.120	138.041	142.507	257.777	239.431	141.611	145.591	146.503	150.065	258.070	149.057	-8191	255	
2030.831	1	1	0	0	0.17995	0.16239	0.031825	0.22779	0.082501	0.16902	0.38429	0.17048	0.066615	0.052622	0.084021	0.0886	0.27067	0.18485	0.20643	0.20094	-2.1083	-2.6167	-2.4625	-3.0062	-2.6667	-2.5938	-3.1854	-2.8271	-2.6625	-2.8104	-2.5792	-2.8417	-2.6771	-2.3604	-2.8083	-2.7	263.707	407.280	424.974	154.329	336.057	156.477	404.685	457.461	297.604	161.895	216.161	452.612	182.676	474.380	349.700	456.694	0.00064203	0.00079503	9.4806e-05	1616.1	1.2485e-05	9.1601e-06	1634.8	504.96	4.2104e-06	5.0317e-06	543.42	189.92	160.62	39.264	1.25e-05	58.814	0.0052266	0.009713	0.0026944	1546.1	9.4128e-05	0.00010781	1562.6	484.68	9.5128e-05	0.00010831	526.82	183.45	156.19	38.773	9.9068e-05	57.917	265.563	178.324	164.135	138.492	336.580	261.198	137.878	142.475	327.498	357.915	141.442	145.377	146.248	149.891	250.013	148.913	-8191	255	
2030.925	1	1	0	0	0.17782	0.045993	0.1709	0.12316	0.19661	0.16924	0.32108	0.26452	0.027793	0.048423	0.26953	0.14684	0.17562	0.30048	0.057566	0.12293	-2.0979	-2.8667	-2.3417	-2.8146	-2.775	-2.375	-2.9208	-2.775	-2.5812	-2.8438	-2.5208	-2.75	-2.9146	-2.5167	-2.7875	-2.8125	278.747	178.335	166.224	166.348	457.913	216.928	419.669	470.602	136.950	305.353	130.229	482.584	378.357	150.614	327.274	131.564	0.00058154	0.00066963	0.00031645	1645.4	6.9872e-06	5.2544e-06	1669.5	515.09	1.2805e-05	5.3611e-06	552.04	193.22	163.21	39.64	9.8423e-07	59.256	0.005134	0.0096053	0.0026518	1570.8	9.2903e-05	0.00010817	1587.2	492.57	9.4561e-05	0.00010756	534.14	186.29	158.32	39.211	9.9374e-05	58.539	257.407	479.567	226.677	138.605	296.197	144.490	137.790	142.317	279.011	379.307	141.303	145.359	146.095	149.541	334.763	148.957	-8191	255	
2031.022	1	1	0	0	0.028196	0.1154	0.17876	0.14578	0.10549	0.17856	0.17703	0.24268	0.12633	0.13019	0.39422	0.14681	0.33557	0.22436	0.050549	0.094576	-2.0479	-2.8729	-2.4938	-2.8729	-2.6188	-2.4375	-2.9479	-2.6375	-2.5417	-2.9062	-2.7188	-2.7021	-2.9	-2.5792	-2.8	-2.8021	168.298	355.652	298.051	408.670	244.424	341.982	405.573	440.339	342.701	245.211	440.185	137.314	219.343	416.973	393.042	323.375	0.00069318	0.00061502	0.00034432	1666.4	8.828e-06	7.7683e-06	1691.3	493.09	6.0773e-06	1.1201e-05	488.07	170.86	143.99	35.291	6.3921e-06	52.549	0.0051786	0.0095872	0.0026536	1588.2	9.4384e-05	0.0001082	1619.7	479.21	8.4836e-05	9.6232e-05	480.33	167.81	142.49	35.464	8.7282e-05	52.447	256.705	257.363	292.106	138.515	271.262	274.668	141.858	155.120	309.149	238.699	142.634	147.057	148.086	151.376	330.585	150.233	-8191	255	
2031.120	1	1	0	0	0.29619	0.045955	0.26208	0.21305	0.057202	0.27732	0.30379	0.24535	0.10933	0.14699	0.30251	0.085721	0.12086	0.083833	0.23422	0.17368	-1.7854	-3.0104	-2.4896	-2.9146	-2.9458	-2.3271	-3.0125	-3.0687	-2.3646	-2.9625	-2.8479	-2.7292	-2.7229	-2.4542	-2.5625	-2.8771	462.044	133.191	470.360	462.955	191.885	296.723	460.636	129.089	407.676	146.901	462.514	196.682	142.374	481.380	263.840	422.518	0.00058173	0.0011769	0.00010735	1464.7	9.8453e-06	1.4149e-05	1470.5	457.4	8.9008e-06	4.5111e-06	485.88	170.27	145.25	35.568	3.3162e-06	51.924	0.0045501	0.0083901	0.0023541	1421.5	8.2787e-05	9.581e-05	1427.9	445.91	8.342e-05	9.3921e-05	478.77	166.7	143.68	35.646	8.7277e-05	51.889	271.206	181.243	136.347	140.246	353.429	274.987	139.201	144.093	282.533	401.164	142.725	146.842	147.930	151.358	236.050	150.428	-8191	255	
2031.214	1	1	0	0	0.14226	0.18569	0.077159	0.29576	0.25697	0.25454	0.27177	0.39108	0.13609	0.12395	0.45376	0.22254	0.093903	0.18115	0.14406	0.14399	-1.9979	-2.8396	-2.4417	-2.4958	-2.8667	-2.4062	-2.8271	-2.8854	-2.3417	-2.7917	-2.6688	-2.5875	-2.9292	-2.2896	-2.6146	-2.7271	221.603	450.623	292.512	447.101	311.352	264.295	136.959	424.783	389.373	482.602	403.070	400.022	158.928	391.515	321.949	435.622	0.00061509	0.00059945	8.5823e-05	1461.2	5.9349e-06	1.3683e-05	1459.1	455.2	1.2404e-05	3.089e-06	484.76	169.08	144.72	35.25	1.8976e-05	51.589	0.0044695	0.0083534	0.0023591	1418.6	8.155e-05	9.4988e-05	1418.3	443.42	8.18e-05	9.2912e-05	474.73	165.49	142.2	35.146	8.4227e-05	51.532	264.267	259.007	177.250	139.980	348.242	369.967	139.519	144.135	288.371	327.933	142.619	147.012	147.961	151.254	338.305	150.346	-8191	255	
2031.310	1	1	0	0	0.077917	0.1182	0.20631	0.12773	0.13605	0.22209	0.27509	0.15321	0.17813	0.26468	0.25134	0.068038	0.048592	0.17362	0.06355	0.22624	-2.2	-2.7104	-2.5812	-2.6813	-2.7771	-2.5458	-2.7229	-2.9917	-2.4292	-2.8896	-2.8333	-2.5708	-2.9979	-2.7667	-2.5833	-2.8354	430.041	189.071	311.329	430.121	166.948	330.336	326.021	441.435	319.031	233.471	461.623	406.967	380.366	464.340	431.401	435.296	0.00060455	0.0013205	0.00025626	1452.7	5.4839e-07	5.9499e-06	1470.8	452.82	6.2448e-06	9.1997e-06	484.37	167.58	143.13	34.811	3.8533e-06	51.136	0.0044111	0.0080161	0.0022161	1407.7	7.8071e-05	9.196e-05	1417	440.65	8.0291e-05	9.002e-05	475.41	164.55	141.31	34.857	8.2296e-05	51.028	262.222	210.108	302.681	140.132	132.774	227.907	139.229	143.745	312.325	276.593	142.938	146.780	147.876	151.472	318.954	150.082	-8191	255	
2031.431	1	1	0	0	0.098242	0.16812	0.16791	0.16664	0.16232	0.097168	0.16344	0.32375	0.29749	0.13382	0.28158	0.32261	0.19403	0.25413	0.070086	0.16153	-2.0875	-2.6146	-2.5417	-2.5938	-2.8375	-2.6312	-2.6312	-2.8729	-2.4354	-2.6354	-2.8792	-2.4042	-2.6729	-2.7521	-2.6292	-2.9917	370.770	453.714	260.871	167.462	352.207	186.082	421.601	407.861	164.206	300.101	381.958	403.268	145.106	470.957	370.460	475.255	0.00059512	0.0016382	0.00016749	1464	9.5772e-06	6.6157e-06	1471.5	455.79	8.8368e-06	4.6825e-06	489.99	169.39	145.17	34.842	5.3209e-06	51.047	0.0043241	0.0079336	0.00218	1417	7.7447e-05	9.0201e-05	1425.4	443.97	7.7236e-05	8.8418e-05	479.07	165.94	142.77	35.174	8.0458e-05	51.211	257.002	214.338	215.788	140.181	269.025	306.816	139.303	144.198	283.442	260.915	142.618	146.701	148.182	151.365	343.055	150.031	-8191	255	
2031.527	1	1	0	0	0.1623	0.10225	0.082643	0.19414	0.21328	0.14575	0.21749	0.41817	0.16186	0.03515	0.099442	0.1996	0.16651	0.19605	0.082572	0.02673	-2.0292	-2.6292	-2.7396	-2.5062	-2.9104	-2.5792	-2.6042	-3.1188	-2.3063	-2.7542	-2.8083	-2.4875	-2.8271	-2.8021	-2.4604	-3.0583	182.497	175.302	278.938	448.967	435.550	257.102	414.689	445.673	197.040	290.550	460.068	396.276	368.656	438.340	400.536	447.065	0.00056824	1.6621e-05	5.5766e-05	1466.9	1.454e-05	2.0112e-06	1467.4	455.08	3.866e-06	2.5029e-06	481.14	167.43	143.97	34.829	3.8313e-06	50.314	0.0042251	0.007831	0.0021649	1422.4	7.4641e-05	8.7347e-05	1415.8	442.91	7.5415e-05	8.5842e-05	471.42	163.14	141.13	34.833	7.9344e-05	50.108	254.552	337.535	232.350	140.137	283.003	285.129	139.390	143.926	286.897	360.323	142.447	146.614	147.792	151.336	278.954	150.495	-8191	255	
2031.623	1	1	0	0	0.21407	0.20461	0.20456	0.13584	0.27843	0.069307	0.19144	0.13255	0.2816	0.15085	0.29106	0.22365	0.10126	0.25575	0.049176	0.11856	-2.1333	-2.4979	-2.8792	-2.65	-2.6979	-2.6083	-2.6813	-3	-2.6375	-2.8	-2.9167	-2.5208	-2.7333	-2.8875	-2.4854	-2.8646	444.588	425.519	415.552	425.493	145.790	340.367	419.057	164.529	446.238	431.803	341.399	361.528	351.503	446.785	401.972	361.798	0.00053323	0.0007333	0.00033289	1455	1.5814e-06	3.3745e-06	1447.3	449.26	8.6246e-06	1.0983e-05	474.81	164.79	142.06	34.384	7.6447e-06	49.97	0.0041642	0.007539	0.0021296	1406.1	7.4346e-05	8.6157e-05	1396.9	436.77	7.4474e-05	8.3526e-05	465.94	161.27	139.63	34.392	7.778e-05	49.836	248.007	257.266	284.361	140.022	249.024	242.250	139.174	144.036	248.288	296.222	142.722	146.668	147.822	151.214	271.022	150.247	-8191	255	
2031.719	1	1	0	0	0.063418	0.15012	0.24768	0.35287	0.11583	0.18953	0.46926	0.25203	0.12895	0.23567	0.036841	0.11201	0.24036	0.09342	0.20165	0.087524	-2.1604	-2.3875	-2.7188	-2.675	-2.5146	-2.7125	-2.7208	-3.0104	-2.7917	-2.5563	-2.9521	-2.5792	-2.6833	-2.7812	-2.3083	-2.9458	398.267	465.526	413.696	466.258	312.723	349.803	477.566	455.655	314.559	127.477	183.905	332.221	443.094	462.018	290.074	163.041	0.00061679	0.00034001	0.00018468	1440.2	4.2157e-06	7.1383e-06	1445.9	447.28	3.7293e-06	2.6705e-06	472.28	164.15	140.39	34.019	9.0768e-06	49.733	0.0040402	0.0074761	0.0020489	1393.6	7.2105e-05	8.3847e-05	1390.2	434.43	7.2512e-05	8.3336e-05	463.4	160.45	138.46	34.044	7.5998e-05	49.542	262.491	465.045	183.429	140.115	239.607	274.133	139.436	144.185	335.863	317.480	142.655	146.727	147.990	151.264	293.794	150.666	-8191	255	
2031.815	1	1	0	0	0.19807	0.089256	0.10372	0.13338	0.14127	0.20313	0.2051	0.2257	0.28361	0.1511	0.25458	0.096625	0.18864	0.17332	0.047097	0.25972	-2.1917	-2.3854	-2.9333	-2.5938	-2.6292	-2.75	-2.6125	-2.9437	-2.6708	-2.5271	-3.1	-2.6958	-2.5146	-2.775	-2.2438	-2.7021	157.613	137.320	204.691	404.948	208.395	478.565	379.015	426.522	312.514	432.728	462.702	414.669	299.873	411.778	308.787	263.596	0.00045379	0.00017674	0.00021244	1427.3	9.4849e-06	1.2463e-05	1433.5	439.3	6.4122e-06	4.5328e-06	468.58	161.9	138.08	33.374	7.4502e-06	49.21	0.0040364	0.0074954	0.0020464	1380.1	7.2388e-05	8.4366e-05	1379.5	428.36	7.3418e-05	8.336e-05	459.41	158.72	136.01	33.344	7.7191e-05	49.079	259.102	206.978	265.713	140.039	300.177	258.204	139.624	143.978	303.611	284.517	143.029	147.096	147.951	151.613	323.992	150.139	-8191	255	
2031.911	1	1	0	0	0.11423	0.15664	0.26554	0.21993	0.19552	0.1915	0.28189	0.15274	0.25388	0.069424	0.35446	0.10503	0.12156	0.19772	0.33521	0.078078	-2.2	-2.3187	-2.9062	-2.7438	-2.4375	-2.7458	-2.45	-2.8812	-2.7479	-2.5458	-2.9771	-2.5875	-2.5625	-2.8021	-2.5146	-2.6958	342.679	373.632	216.811	387.939	235.870	346.936	410.674	480.773	388.395	373.457	434.306	463.980	378.206	434.300	305.099	275.544	0.00064	0.0012202	0.00015549	1414.7	8.9368e-06	1.4271e-05	1406.7	437.15	3.1775e-06	1.0639e-05	463.93	160.36	137.76	33.48	6.7971e-06	48.889	0.0040878	0.0074366	0.0020285	1365.7	7.3184e-05	8.3933e-05	1362.4	425.76	7.2266e-05	8.2959e-05	453.31	157.12	135.84	33.43	7.6496e-05	48.635	256.799	209.580	145.990	140.025	296.250	326.215	139.203	144.272	333.442	299.325	142.843	146.588	147.980	151.690	278.500	150.308	-8191	255	
2032.008	1	1	0	0	0.09418	0.19932	0.11814	0.18333	0.043832	0.056923	0.57561	0.13413	0.17449	0.039702	0.13782	0.23911	0.14464	0.27372	0.10572	0.19547	-2.2667	-2.3604	-2.8479	-2.7333	-2.5417	-2.8187	-2.7229	-2.8375	-2.7729	-2.5542	-2.7625	-2.5354	-2.3812	-2.7313	-2.3688	-2.7354	237.722	256.776	154.385	174.417	270.843	472.169	396.130	472.204	466.112	174.203	439.537	461.954	290.449	175.939	184.512	398.281	0.00058358	0.00094975	0.00047906	1416.6	1.1399e-05	7.7156e-06	1406.5	438.51	8.7082e-06	8.3782e-06	463.83	160.31	138.77	33.771	8.6444e-06	49.502	0.0040261	0.0073282	0.0020478	1368.7	7.1641e-05	8.3122e-05	1358.6	426.83	7.2003e-05	8.1546e-05	454.32	157.27	136.98	33.729	7.4163e-05	49.137	262.703	219.260	204.153	140.101	239.735	288.995	139.314	143.926	250.120	297.807	142.768	146.633	148.301	151.318	321.949	150.119	-8191	255	
2032.102	1	1	0	0	0.12993	0.23948	0.21549	0.20906	0.031279	0.1011	0.26633	0.27578	0.12969	0.24196	0.068171	0.049446	0.047737	0.028978	0.16998	0.14586	-2.5896	-2.4771	-2.6437	-2.8583	-2.4417	-2.7833	-2.7313	-2.6833	-2.7167	-2.4104	-2.9708	-2.8063	-2.5646	-2.8625	-2.6792	-2.5812	126.887	143.000	275.073	393.200	269.450	290.866	474.362	414.909	142.493	338.522	473.023	339.970	375.195	388.446	346.247	457.756	0.00058027	0.00050038	0.00016621	1422.4	7.1412e-06	1.3308e-05	1414.7	441.42	3.0712e-06	3.4987e-06	467.75	162.82	139.86	34.035	1.0962e-05	49.917	0.0039262	0.0072533	0.0019953	1374.9	6.9657e-05	8.1479e-05	1368.2	428.85	7.0752e-05	8.0687e-05	458	159.08	137.95	34.055	7.3973e-05	49.569	247.815	455.664	174.113	139.964	307.430	282.563	139.300	144.182	304.086	230.331	142.659	146.658	147.997	151.482	240.942	150.244	-8191	255	
2032.198	1	1	0	0	0.16087	0.079056	0.29068	0.17401	0.078781	0.083183	0.013381	0.29327	0.15584	0.20749	0.10783	0.13339	0.25379	0.13441	0.15351	0.33591	-2.3771	-2.4188	-2.5	-2.9521	-2.3625	-2.9229	-2.6729	-2.5438	-2.8604	-2.5396	-2.9396	-2.6833	-2.3708	-2.7583	-2.5375	-2.4896	294.057	268.441	436.446	387.257	402.995	223.990	267.117	463.306	289.878	363.809	386.782	401.504	478.170	435.688	289.944	425.986	0.00062803	0.0011395	0.00029808	1438.8	8.4194e-06	1.0666e-05	1435.9	447.35	2.2396e-06	8.1285e-06	475.03	164.92	141.68	34.841	1.0879e-05	50.477	0.003931	0.007147	0.0019875	1391.8	7.0999e-05	8.0547e-05	1386.4	435.61	7.1373e-05	8.1377e-05	465.55	161.46	140.01	34.604	7.573e-05	50.141	249.478	216.498	261.916	140.100	282.295	300.435	139.393	144.333	361.078	356.576	142.913	146.745	148.001	151.428	276.371	150.183	-8191	255	
2032.319	1	1	0	0	0.07485	0.13942	0.16044	0.36279	0.042763	0.14452	0.39164	0.2816	0.1336	0.22667	0.27128	0.14447	0.064034	0.049912	0.043038	0.078952	-2.4646	-2.525	-2.5854	-2.8354	-2.2313	-2.8729	-2.8333	-2.5958	-2.9562	-2.3375	-2.6188	-3.0083	-2.3875	-2.8792	-2.6437	-2.5292	274.828	194.927	310.830	467.260	322.873	297.559	420.687	351.865	319.257	165.291	438.122	419.320	155.825	479.148	375.662	163.996	0.00056758	0.00019475	0.00017412	1469.6	1.271e-05	6.7417e-06	1452.9	455.52	3.6951e-06	2.3025e-06	480.89	165.32	143.99	34.899	1.0365e-05	50.331	0.0039346	0.0071311	0.0019869	1416.9	6.994e-05	8.0583e-05	1407.7	442.59	7.0068e-05	7.954e-05	469.1	161.86	141.8	34.898	7.372e-05	50.182	265.179	434.310	483.624	139.967	282.844	271.383	139.353	143.635	251.109	251.026	142.805	146.726	147.703	151.439	309.958	150.261	-8191	255	
2032.390	1	1	0	0	0.20289	0.25019	0.10549	0.28338	0.15118	0.2106	0.32257	0.061067	0.043497	0.13496	0.23417	0.27425	0.1846	0.15169	0.14028	0.26639	-2.3167	-2.6104	-2.5187	-3.0583	-2.3729	-2.775	-2.8479	-2.325	-2.75	-2.6083	-2.5812	-2.9146	-2.4625	-2.5812	-2.6312	-2.3604	433.302	362.994	128.126	439.176	431.616	227.345	414.859	129.239	145.281	441.740	461.906	452.810	154.813	443.380	311.641	440.157	0.0006124	0.00084049	0.00030882	1467.6	1.9802e-05	7.949e-06	1456.7	453.28	7.5418e-06	7.4778e-06	476.97	165.96	144.05	34.958	4.6363e-06	50.292	0.0038326	0.0071888	0.0019929	1417.5	6.9276e-05	7.9464e-05	1402.7	440.57	7.1543e-05	8.0165e-05	467.7	161.97	141.42	34.933	7.4446e-05	50.084	254.985	186.810	242.342	139.936	301.207	249.808	139.284	143.803	342.626	319.554	142.456	147.071	148.000	151.086	270.630	150.274	-8191	255	
2032.511	1	1	0	0	0.16231	0.12955	0.20276	0.072266	0.26923	0.25392	0.19562	0.11788	0.11493	0.15288	0.22619	0.18157	0.20742	0.14303	0.2841	0.27115	-2.55	-2.6188	-2.3729	-3.0771	-2.3521	-2.6937	-2.9062	-2.5	-2.6125	-2.5146	-2.6708	-2.9792	-2.5458	-2.55	-2.7521	-2.4458	343.458	272.426	234.124	398.334	397.879	391.265	368.304	311.932	425.378	169.832	314.693	141.606	429.529	449.561	440.767	441.057	0.00057877	0.00055946	0.00014404	1465.3	1.2698e-05	1.3352e-05	1460.6	457.13	6.8985e-06	5.763e-06	481.28	166.56	144.18	35.349	1.4032e-05	51.049	0.0038956	0.0072183	0.0019957	1418.3	6.9009e-05	8.0071e-05	1410.1	443.08	7.079e-05	7.9393e-05	471.31	163.33	142.08	35.215	7.3747e-05	50.76	258.205	263.324	237.607	140.034	328.996	264.263	139.144	143.983	328.073	231.943	142.967	146.950	147.875	151.163	278.599	150.565	-8191	255	
2032.607	1	1	0	0	0.3307	0.20458	0.17145	0.34833	0.16493	0.24719	0.23438	0.095991	0.21035	0.10448	0.13231	0.13471	0.22113	0.27567	0.12171	0.059549	-2.2792	-2.4917	-2.2042	-2.9229	-2.4979	-2.5104	-3.1146	-2.4333	-2.9125	-2.6271	-2.5771	-2.8542	-2.4479	-2.6542	-2.6437	-2.3063	438.473	194.754	412.309	444.728	323.195	295.609	197.521	136.628	402.725	407.295	336.410	458.824	410.625	153.588	333.591	317.866	0.00053457	0.00083585	0.00010642	1486.3	6.1935e-06	9.0335e-06	1490.4	463.43	5.0269e-06	2.8015e-06	490.7	169.37	147.75	36.201	4.6933e-06	51.827	0.0038988	0.0071259	0.0019744	1437.3	7.0369e-05	8.171e-05	1431.5	450.15	7.1148e-05	8.1474e-05	479.95	166.12	145.37	35.981	7.5472e-05	51.449	263.328	194.140	226.572	140.051	377.297	304.744	139.316	143.996	307.882	345.119	142.730	146.689	147.956	151.409	336.272	150.338	-8191	255	
2032.703	1	1	0	0	0.041222	0.16575	0.043863	0.14144	0.13643	0.25026	0.16349	0.24459	0.20005	0.19454	0.23031	0.36558	0.16072	0.16469	0.088737	0.27159	-2.3396	-2.5875	-2.2104	-3.075	-2.6208	-2.425	-3.0625	-2.5542	-2.5229	-2.7604	-2.3937	-2.9021	-2.5042	-2.5833	-2.7396	-2.4562	209.832	367.474	254.469	129.459	147.669	146.598	376.149	398.503	421.241	204.249	461.982	450.054	430.149	408.902	276.691	377.938	0.00059211	0.00080324	9.1171e-05	1488.3	5.2502e-06	7.2415e-06	1475.2	459.77	5.3998e-06	7.7713e-06	481.27	167.78	145.94	35.423	3.9867e-06	51.403	0.0039758	0.0073419	0.0020465	1442.3	7.1014e-05	8.3244e-05	1428	447.39	7.2106e-05	8.1386e-05	475.17	164.45	142.94	35.356	7.5523e-05	51.088	258.698	245.405	214.788	139.996	292.559	312.759	139.329	143.792	307.984	284.540	142.842	146.859	147.996	151.501	284.018	150.250	-8191	255	
2032.800	1	1	0	0	0.15268	0.21653	0.15626	0.30114	0.10205	0.13547	0.27394	0.15285	0.12032	0.039741	0.12328	0.28116	0.054171	0.20038	0.20563	0.037474	-2.2917	-2.725	-2.2458	-3.1771	-2.6625	-2.4188	-3.0062	-2.5812	-2.5979	-2.8271	-2.3688	-2.8417	-2.825	-2.4875	-2.9396	-2.6646	402.197	164.142	455.934	426.611	232.412	460.293	433.869	361.387	146.117	478.218	453.342	438.345	189.899	281.605	175.014	199.525	0.00061516	0.0006111	0.0001189	1462.1	1.1705e-05	8.3729e-06	1446	450.74	1.1734e-05	2.9527e-06	478.43	165.71	143.36	34.865	4.7876e-06	50.829	0.0040606	0.0073726	0.0020518	1412.1	7.2154e-05	8.3546e-05	1397.7	438.24	7.3024e-05	8.3532e-05	467.75	162.26	140.38	34.796	7.7068e-05	50.637	258.592	389.654	217.602	139.920	284.693	141.017	139.158	143.938	292.706	255.772	142.764	146.811	148.117	151.376	227.852	150.435	-8191	255	
2032.920	1	1	0	0	0.12245	0.1613	0.28973	0.35545	0.074351	0.25252	0.098515	0.44591	0.13017	0.047138	0.14447	0.36306	0.044565	0.23502	0.089664	0.12265	-2.1646	-2.8812	-2.3042	-2.8042	-2.5917	-2.5208	-2.8792	-2.6542	-2.5667	-2.7458	-2.8	-2.5396	-2.7208	-2.3187	-2.95	-2.8125	304.603	392.554	415.481	484.743	138.262	341.443	403.477	422.534	297.914	430.113	438.687	465.334	367.395	216.295	155.178	478.027	0.00054065	0.00091086	0.00030772	1454.9	5.8751e-06	1.0584e-05	1445.7	453.22	7.1416e-06	8.2057e-06	481.85	167.32	145.05	35.142	7.7345e-06	51.419	0.0040293	0.0074354	0.0020528	1404.4	7.2276e-05	8.3461e-05	1399.2	439.49	7.2646e-05	8.2658e-05	471.48	163.69	142.11	35.147	7.6635e-05	51.042	256.627	213.265	283.693	140.097	276.473	272.651	139.425	143.839	246.589	287.617	142.443	146.840	147.914	151.534	269.473	150.296	-8191	255	
2033.015	1	1	0	0	0.20777	0.24163	0.14055	0.072903	0.19315	0.088304	0.32932	0.42049	0.23888	0.082403	0.2153	0.50112	0.18359	0.28577	0.21923	0.13877	-2.1667	-2.6917	-2.3875	-2.7667	-2.6208	-2.4979	-3.0104	-2.5438	-2.5667	-2.7417	-2.575	-2.9938	-2.8167	-2.3958	-2.7896	-2.5792	176.482	151.903	283.920	428.047	302.758	309.383	390.933	438.329	210.253	235.069	422.101	439.432	458.764	435.326	225.498	452.378	0.00068057	0.00077202	9.1137e-05	1464.8	1.0583e-05	7.2018e-06	1468.5	456.9	8.1205e-06	2.7236e-06	489.48	169.39	146.46	35.842	9.6921e-06	51.759	0.0040748	0.0075533	0.0020548	1421.7	7.2996e-05	8.4269e-05	1419	445.11	7.332e-05	8.3431e-05	478.42	165.69	143.68	35.679	7.6644e-05	51.67	257.842	237.819	360.549	140.059	328.130	243.379	139.469	144.141	247.229	303.394	142.585	146.915	147.986	151.493	323.453	150.260	-8191	255	
2033.112	1	1	0	0	0.30899	0.25901	0.28099	0.32785	0.077511	0.14402	0.20287	0.20205	0.011984	0.091504	0.16001	0.30208	0.13634	0.1391	0.039196	0.090885	-1.8833	-2.7438	-2.3333	-2.7146	-2.6646	-2.4437	-2.9125	-2.6292	-2.2792	-2.8583	-2.4938	-2.5438	-2.7708	-2.3812	-2.7396	-2.5854	136.945	259.892	403.819	465.020	167.014	221.084	443.543	477.800	437.667	407.351	399.021	464.271	401.282	346.475	214.797	386.653	0.00056625	0.00086711	0.00014158	1481.8	5.0639e-06	8.997e-06	1483.9	460.25	5.1879e-06	8.5973e-06	484.85	168.7	145.26	35.302	1.1059e-05	50.688	0.0040255	0.0074903	0.0020639	1436.2	7.2653e-05	8.405e-05	1430.1	447.99	7.3634e-05	8.322e-05	475.33	164.64	143.07	35.296	7.7135e-05	50.742	250.874	208.406	361.485	140.067	295.295	278.288	139.504	144.150	300.282	311.722	142.836	146.722	148.128	151.301	260.736	150.249	-8191	255	
2033.207	1	1	0	0	0.20445	0.10598	0.25394	0.17916	0.1121	0.10774	0.50614	0.16652	0.06215	0.24365	0.35944	0.079234	0.24394	0.13952	0.052998	0.11275	-2	-2.7521	-2.4083	-2.5667	-2.7646	-2.3083	-2.8708	-2.8333	-2.3187	-2.6125	-2.5104	-2.7042	-2.9583	-2.4792	-2.5333	-2.6625	314.205	156.902	386.381	428.798	364.893	149.763	433.972	161.687	407.207	281.405	475.105	188.908	206.273	457.570	141.154	460.138	0.00051682	0.0011873	0.00013433	1465.9	1.4241e-05	7.3971e-06	1448.7	451.84	6.275e-06	7.8402e-06	474	164.41	142.1	34.363	7.6013e-06	49.935	0.0041407	0.0075724	0.0020946	1417.4	7.4093e-05	8.4892e-05	1396.8	438.87	7.4259e-05	8.4479e-05	465.3	161.03	139.74	34.368	7.8364e-05	49.836	263.252	234.709	248.452	139.964	294.733	239.052	139.488	144.140	311.329	253.923	142.737	147.094	148.048	151.207	391.380	150.468	-8191	255	
2033.303	1	1	0	0	0.27214	0.23793	0.23989	0.13537	0.090225	0.27463	0.12375	0.013504	0.063549	0.10052	0.29025	0.47206	0.035246	0.10873	0.087432	0.24777	-1.8542	-2.65	-2.7042	-2.6312	-2.9562	-2.3979	-2.8458	-2.9167	-2.4229	-2.7375	-2.6875	-2.4917	-2.9854	-2.4542	-2.5667	-2.85	450.688	217.781	149.508	159.782	243.588	322.968	460.820	329.363	194.023	397.042	478.144	404.525	395.724	127.817	214.136	351.834	0.0004867	0.00016792	0.000239	1437	6.5707e-06	2.174e-06	1433.2	444.43	6.2948e-06	9.3702e-06	471.6	162.59	139.3	33.861	6.987e-06	49.757	0.0041229	0.0074976	0.0020559	1391.2	7.41e-05	8.4382e-05	1382	430.87	7.4839e-05	8.4074e-05	461.56	159.63	137.63	33.932	7.6627e-05	49.564	259.244	150.816	210.419	140.034	312.552	267.327	139.259	143.938	298.236	342.390	142.911	146.677	148.031	151.467	272.815	150.229	-8191	255	
2033.399	1	1	0	0	0.2067	0.32582	0.14856	0.36294	0.1357	0.068872	0.26626	0.34322	0.10649	0.073037	0.42792	0.25334	0.11969	0.14167	0.17268	0.11887	-1.9625	-2.4979	-2.5646	-2.7146	-2.875	-2.6646	-2.8375	-2.8521	-2.3333	-2.8021	-2.9292	-2.6208	-2.8771	-2.5812	-2.4833	-2.9125	166.688	426.476	435.767	139.085	467.596	385.809	453.146	414.423	163.440	480.502	454.089	205.592	444.379	415.737	232.403	444.386	0.00054847	0.00048886	0.00030533	1431.1	5.664e-06	9.5407e-06	1432.3	445.09	3.3897e-06	4.7977e-06	474.23	164.52	140.84	34.042	5.6745e-06	49.824	0.0040572	0.0074581	0.0020695	1384.2	7.3358e-05	8.43e-05	1385	432.16	7.3992e-05	8.3898e-05	464.02	160.73	138.93	34.014	7.8016e-05	49.665	259.979	187.693	233.553	140.163	247.415	271.469	139.458	144.134	252.196	434.037	142.657	146.626	148.140	151.221	252.738	149.978	-8191	255	
2033.495	1	1	0	0	0.10701	0.096561	0.20931	0.51589	0.11888	0.28541	0.3675	0.52258	0.12459	0.38376	0.18291	0.12222	0.17618	0.056868	0.20896	0.13513	-1.8792	-2.5312	-2.4437	-2.5417	-2.8542	-2.6083	-2.7104	-2.925	-2.5354	-2.55	-2.8729	-2.3208	-2.6583	-2.6667	-2.4625	-3.0333	277.274	437.425	163.251	138.096	376.532	345.310	407.404	437.860	382.329	141.301	145.895	292.549	378.955	448.558	326.646	372.386	0.00045673	0.00071234	6.0225e-05	1447	1.1757e-05	9.3495e-06	1444.5	446.95	8.0795e-06	4.9019e-06	468.45	162.56	140.45	34.038	5.1358e-06	48.957	0.00415	0.0076689	0.0020835	1400.7	7.4391e-05	8.5843e-05	1391.3	434.47	7.5023e-05	8.5029e-05	460.73	159.24	138.29	34.003	7.842e-05	48.907	269.344	186.225	273.690	140.131	231.511	219.863	139.246	143.882	272.806	282.367	142.976	146.626	147.845	151.375	289.133	150.361	-8191	255	
2033.616	1	1	0	0	0.26009	0.15346	0.18843	0.26333	0.17444	0.053972	0.3491	0.20597	0.19563	0.0823	0.20109	0.10674	0.083922	0.17156	0.2657	0.17701	-1.8958	-2.5687	-2.825	-2.2812	-2.7625	-2.3812	-2.7354	-2.9792	-2.4042	-2.5354	-2.7896	-2.5479	-2.8292	-2.7333	-2.4188	-2.9042	232.034	390.286	277.932	436.537	431.902	424.120	443.865	452.401	333.768	394.401	400.736	246.408	221.244	187.896	220.082	315.835	0.00061164	0.0011799	0.00015702	1427.7	1.045e-05	8.5854e-06	1413.3	437.47	2.8431e-06	8.4397e-06	461.88	158.98	138.1	33.381	3.3589e-06	48.627	0.0040666	0.0075788	0.002107	1385.1	7.3765e-05	8.6584e-05	1364.2	425.97	7.4774e-05	8.5734e-05	452.76	156.19	135.93	33.416	7.9911e-05	48.472	259.362	226.665	206.649	140.296	268.512	281.103	139.237	143.887	278.756	248.493	142.841	146.669	148.073	151.586	256.930	150.102	-8191	255	
2033.688	1	1	0	0	0.18605	0.16738	0.10246	0.49912	0.071085	0.16257	0.24212	0.42729	0.031218	0.11364	0.31769	0.17882	0.16427	0.052734	0.14545	0.079778	-1.8333	-2.5896	-2.7583	-2.6542	-2.5917	-2.4625	-2.5458	-2.7812	-2.4188	-2.6063	-2.7562	-2.4875	-2.7062	-2.7438	-2.2979	-2.9292	390.237	325.890	356.717	451.095	177.812	421.032	450.203	444.998	429.557	292.482	135.095	481.921	411.419	326.484	147.031	331.115	0.00058089	0.00024788	8.3272e-05	1412.6	1.5088e-05	1.0733e-05	1407.7	433.51	5.4665e-06	6.8552e-06	457.24	159.3	136.05	33.246	1.1272e-05	48.811	0.0041829	0.0075937	0.0021071	1363.6	7.5148e-05	8.6257e-05	1354.3	421.57	7.5082e-05	8.5843e-05	449.54	156.21	134.94	33.354	8.015e-05	48.767	257.340	405.992	195.579	140.053	253.126	251.015	139.239	144.098	277.302	277.454	142.663	146.964	147.981	151.379	303.233	150.010	-8191	255	
2033.784	1	1	0	0	0.2318	0.15684	0.20513	0.25088	0.22211	0.17488	0.064824	0.32355	0.23792	0.16705	0.22977	0.17259	0.39924	0.093273	0.2882	0.20187	-1.9833	-2.375	-2.625	-2.5354	-2.5875	-2.8187	-2.5333	-2.9792	-2.5854	-2.5604	-2.7792	-2.4625	-2.6792	-2.7104	-2.3771	-2.8458	243.177	361.090	153.599	456.036	474.207	439.402	354.176	451.611	175.360	297.861	479.161	135.997	391.725	343.820	317.455	450.741	0.00057502	0.00051958	0.00016835	1408.5	6.7841e-06	7.7074e-06	1414.5	437.38	9.3871e-06	1.1886e-05	465.34	162.22	139.45	33.814	8.4606e-06	49.387	0.0041958	0.0077847	0.0021481	1367.2	7.545e-05	8.7471e-05	1363.9	425.31	7.6178e-05	8.6289e-05	455.93	158.5	137.25	33.821	8.1169e-05	49.459	266.580	188.271	263.872	140.146	322.553	344.463	139.238	144.098	288.790	172.083	142.648	146.839	148.143	151.299	288.693	150.617	-8191	255	
2033.880	1	1	0	0	0.21267	0.2634	0.20843	0.26714	0.16848	0.32383	0.31134	0.23755	0.31419	0.16175	0.15598	0.12965	0.16398	0.19743	0.1504	0.20573	-1.9354	-2.425	-2.7417	-2.5458	-2.4938	-2.7125	-2.6625	-2.7854	-2.5312	-2.4938	-2.9521	-2.5646	-2.4146	-2.7042	-2.3917	-2.7875	458.292	418.216	223.581	440.516	361.012	449.482	442.893	416.341	291.010	222.372	436.642	453.339	431.460	387.269	130.658	469.027	0.00061617	0.00056825	0.00026558	1425	5.6602e-06	5.5019e-06	1419.3	440.65	1.3366e-05	1.1516e-05	465.05	161.08	139.67	33.865	6.0943e-06	49.118	0.004224	0.0080229	0.0021985	1382.5	7.7676e-05	9.0697e-05	1374.9	430.29	7.959e-05	9.0487e-05	456.37	158.25	137.65	33.924	8.3003e-05	49.104	254.023	263.515	219.929	139.995	339.219	198.477	139.423	144.122	282.004	267.159	142.766	146.616	147.883	151.212	271.941	150.218	-8191	255	
2033.999	1	1	0	0	0.26984	0.062657	0.12856	0.38643	0.065406	0.34135	0.23662	0.29682	0.092348	0.11825	0.23586	0.3911	0.14236	0.11569	0.14697	0.19706	-2.2313	-2.3083	-2.7646	-2.5083	-2.5771	-2.9542	-2.4562	-2.7646	-2.7	-2.2583	-2.9313	-2.7792	-2.7313	-2.7375	-2.4875	-2.7562	206.174	249.425	228.138	435.861	391.401	139.112	404.024	457.280	146.210	211.861	407.439	463.804	373.560	430.781	448.818	414.658	0.00050234	0.00098488	0.00018886	1419.1	1.086e-05	2.5902e-06	1414	438.74	9.5059e-06	8.2625e-06	460.78	161.49	138.67	33.716	1.1837e-05	49.144	0.0042774	0.0080667	0.0022309	1377.4	7.8035e-05	9.2395e-05	1363.4	427.73	8.0477e-05	9.1815e-05	453.06	158.2	137.29	33.892	8.4035e-05	49.313	257.209	227.773	218.285	139.960	296.790	267.002	139.286	144.058	292.527	211.885	142.780	146.924	147.944	151.411	316.660	150.224	-8191	255	
2034.095	1	1	0	0	0.1287	0.051131	0.35594	0.32982	0.19974	0.10001	0.30489	0.095479	0.16904	0.29467	0.41516	0.13398	0.29836	0.17411	0.17698	0.083828	-2.3063	-2.3667	-2.8021	-2.8063	-2.5583	-2.9	-2.7792	-2.6979	-2.8417	-2.4667	-2.8917	-2.6604	-2.3542	-2.8021	-2.5604	-2.8833	394.643	201.829	335.930	446.941	251.827	184.194	433.657	448.636	151.529	324.895	423.781	401.772	185.618	339.517	468.940	394.103	0.00056813	0.0015294	0.00020519	1416.5	7.3609e-06	8.0567e-06	1410.6	438.19	6.6872e-06	2.03e-06	460.36	160.19	137.67	33.54	9.3297e-06	49.181	0.0045147	0.0083201	0.0022964	1374.7	8.2631e-05	9.5423e-05	1361.3	426.17	8.5186e-05	9.6366e-05	453.64	157.61	136.56	33.888	9.1035e-05	49.392	244.720	206.354	204.863	139.972	246.024	288.275	139.336	143.941	289.740	228.663	142.909	146.769	147.951	151.591	320.833	150.213	-8191	255	
2034.193	1	1	0	0	0.15392	0.34199	0.13503	0.2291	0.34233	0.12486	0.2277	0.039972	0.27274	0.1655	0.26076	0.13292	0.21458	0.25624	0.056506	0.1814	-2.2979	-2.4604	-2.5708	-2.8417	-2.3187	-2.9271	-2.6729	-2.6146	-2.8833	-2.4417	-2.8104	-2.7521	-2.5875	-2.7729	-2.6021	-2.6979	427.869	239.454	225.145	460.348	186.386	189.781	399.590	220.728	273.934	330.433	393.926	126.736	215.480	427.391	223.704	434.552	0.00047307	0.0001949	0.00019809	1414.8	8.7817e-06	8.7199e-06	1408.2	437.36	6.2246e-06	8.942e-06	466.32	162.27	139.21	34.001	5.5961e-06	50.097	0.0047772	0.0089281	0.002458	1372.4	8.7312e-05	0.00010234	1365.7	427.76	8.9084e-05	0.00010119	458.95	160.07	138.36	34.282	9.5688e-05	50.237	261.273	354.557	213.002	140.164	285.177	274.516	139.340	143.961	305.094	284.575	142.889	146.881	147.944	151.518	308.038	150.285	-8191	255	
2034.287	1	1	0	0	0.2548	0.1741	0.21566	0.29431	0.1624	0.065901	0.1868	0.35262	0.071833	0.21899	0.42072	0.11222	0.41454	0.22423	0.076137	0.15826	-2.4125	-2.2854	-2.6688	-2.8	-2.275	-2.6688	-2.8042	-2.4771	-2.9104	-2.3271	-2.6667	-2.925	-2.3417	-2.7188	-2.3458	-2.5042	445.195	428.328	281.293	463.482	385.136	373.210	414.062	455.600	161.548	248.280	439.848	131.233	428.281	182.357	306.940	373.971	0.00053853	0.00021774	0.00023134	1436.5	6.8615e-06	8.1535e-06	1434.1	443.7	8.9163e-06	9.8441e-06	472.53	165.63	142.04	34.632	1.1289e-05	50.182	0.005036	0.0094445	0.0026187	1394.8	9.295e-05	0.00010671	1392.5	435.59	9.4596e-05	0.00010778	467.07	162.49	141.22	35.012	9.9819e-05	50.676	269.289	166.761	279.232	139.931	281.732	258.045	139.364	144.080	317.669	195.423	142.557	146.805	148.088	151.484	285.571	150.291	-8191	255	
2034.383	1	1	0	0	0.16862	0.21589	0.12928	0.31382	0.10202	0.027527	0.063663	0.30573	0.14319	0.23665	0.29562	0.13617	0.15194	0.099865	0.058912	0.096485	-2.4229	-2.4083	-2.575	-3.0708	-2.2687	-2.7167	-2.8937	-2.6604	-2.7604	-2.65	-2.8	-2.9417	-2.4042	-2.7792	-2.6417	-2.5563	137.914	128.700	322.471	457.437	171.076	152.439	418.913	360.761	271.156	404.119	429.263	475.627	191.892	289.735	138.796	350.656	0.00063051	0.00069202	0.00018703	1434.7	3.0181e-06	1.1845e-05	1430.9	443.29	6.0605e-06	9.0892e-06	468.82	164.08	140.42	34.386	4.4974e-06	50.007	0.0051958	0.0098142	0.0027059	1400.2	9.5531e-05	0.00011122	1386.9	434.87	9.7357e-05	0.00011073	463.86	161.64	139.74	34.74	0.00010287	50.47	266.075	213.040	161.431	140.178	339.833	256.773	139.276	144.057	279.853	143.674	142.882	146.836	148.011	151.283	250.117	150.415	-8191	255	
2034.480	1	1	0	0	0.14459	0.12945	0.2347	0.21217	0.12683	0.18261	0.10399	0.20273	0.017543	0.19103	0.080175	0.11984	0.047254	0.30508	0.13008	0.24396	-2.3833	-2.4146	-2.475	-3.0896	-2.5292	-2.8104	-2.7354	-2.5187	-2.6479	-2.4354	-2.7146	-3.0438	-2.4562	-2.5625	-2.6188	-2.4542	426.595	245.261	327.408	453.312	346.078	228.756	437.050	456.368	193.390	316.418	468.579	335.878	453.510	430.104	348.870	453.533	0.00055526	0.00077041	8.0093e-05	1422.4	3.201e-06	1.1387e-05	1416.4	437.84	1.537e-05	2.9943e-06	464.88	161.6	137.01	33.383	1.0584e-05	50.005	0.005266	0.01002	0.0027637	1384.7	9.8664e-05	0.00011438	1377.3	429.51	0.00010039	0.00011565	459.3	159.82	136.95	33.995	0.00010568	50.335	255.406	179.828	162.329	140.170	338.956	258.407	139.204	143.960	304.909	142.169	143.039	146.819	147.672	151.493	272.507	150.298	-8191	255	
2034.600	1	1	0	0	0.12726	0.22662	0.14809	0.083828	0.26247	0.036482	0.16191	0.1908	0.022461	0.18801	0.50041	0.20805	0.13969	0.17127	0.11313	0.25337	-2.2292	-2.4896	-2.4104	-2.9917	-2.5271	-2.8542	-2.6437	-2.4208	-2.7125	-2.7083	-2.55	-2.9167	-2.4125	-2.7771	-2.8937	-2.4833	129.622	471.285	219.198	211.689	354.846	390.402	435.221	398.108	216.167	252.547	395.565	181.163	198.518	395.772	126.830	423.620	0.00046788	0.00065284	2.5691e-05	1387.2	1.0534e-05	6.1514e-06	1400.1	428.24	7.0341e-06	7.8157e-06	461.24	160.7	135.29	33.134	4.5017e-06	50.419	0.0055073	0.010376	0.0028657	1357.2	0.0001017	0.00011854	1361.2	421.3	0.00010314	0.00011868	455.99	159.17	135.22	33.819	0.00010993	50.958	274.340	182.458	238.902	140.201	243.654	206.788	139.389	144.005	358.018	176.023	142.985	146.788	148.322	151.339	326.999	150.422	-8191	255	
2034.696	1	1	0	0	0.039109	0.17028	0.14658	0.41187	0.31425	0.16495	0.21203	0.11892	0.13785	0.12676	0.06256	0.15752	0.052808	0.088021	0.095617	0.13119	-2.4562	-2.5062	-2.3333	-3.1083	-2.4479	-2.5229	-2.9854	-2.4479	-2.6833	-2.6771	-2.6396	-2.825	-2.4396	-2.6688	-2.8083	-2.3583	401.368	250.803	133.816	451.039	398.266	225.891	427.966	398.635	334.018	350.028	241.901	443.318	147.313	478.007	217.957	447.890	0.00049852	0.0017423	6.7844e-05	1398.8	1.1255e-05	7.257e-06	1409.1	433.68	1.4989e-05	7.6777e-06	468.43	162.44	138.45	33.769	5.4803e-06	50.673	0.0057009	0.01067	0.0029455	1361.2	0.00010368	0.00012185	1374	426	0.00010549	0.00012119	463.57	161.53	138.52	34.546	0.00011188	51.39	249.949	233.621	277.313	140.056	254.914	229.772	139.444	144.040	332.900	181.922	142.845	146.956	148.074	151.329	283.699	150.095	-8191	255	
2034.792	1	1	0	0	0.20331	0.10846	0.15212	0.2799	0.15928	0.11409	0.26569	0.19425	0.12905	0.34747	0.15561	0.084053	0.20249	0.27284	0.29302	0.15291	-2.2042	-2.6562	-2.325	-2.9271	-2.5687	-2.5083	-3.0042	-2.3125	-2.8104	-2.6521	-2.5729	-2.8312	-2.6729	-2.7125	-2.9562	-2.4917	478.068	144.301	294.575	454.516	287.699	301.415	422.891	131.649	365.759	343.101	453.528	392.060	147.325	388.558	293.743	324.318	0.00065453	0.00067571	0.00027079	1428.5	9.7802e-06	4.9835e-06	1431.2	442.56	5.5573e-06	1.0379e-05	472.75	164.74	140.65	34.445	1.3955e-05	50.664	0.0057452	0.010816	0.0029917	1393.6	0.00010414	0.00012108	1392.3	434.99	0.00010523	0.00012182	467.62	163.02	140.46	34.964	0.00011027	51.441	268.406	269.768	199.155	140.169	291.963	295.197	139.484	143.895	267.795	247.676	142.533	146.639	147.856	151.722	314.916	150.324	-8191	255	
2034.913	1	1	0	0	0.21281	0.14707	0.037286	0.24424	0.19676	0.17823	0.19498	0.39205	0.17296	0.36684	0.13341	0.20477	0.12053	0.37229	0.2123	0.097355	-2.2042	-2.6708	-2.3563	-3.1167	-2.4542	-2.5646	-3.0646	-2.5021	-2.4292	-2.7604	-2.5417	-2.7333	-2.7792	-2.4771	-2.9125	-2.5521	273.365	394.263	308.067	466.979	155.611	147.052	433.418	418.562	304.769	414.951	366.365	425.389	472.584	415.418	403.987	394.445	0.0005146	0.00054412	0.00030231	1431.7	7.7581e-06	1.9828e-05	1434.7	443.51	3.9559e-06	6.7634e-06	471.7	164.91	141.24	34.443	4.6792e-06	50.795	0.0057399	0.010732	0.0029707	1397.2	0.00010467	0.00012129	1396.7	435.22	0.00010608	0.00012105	468.63	163.64	140.56	34.906	0.00011116	51.404	256.981	481.469	245.139	140.021	273.907	259.471	139.373	143.846	324.013	269.840	142.724	146.670	148.272	151.684	189.685	150.116	-8191	255	
2034.985	1	1	0	0	0.22631	0.14474	0.13758	0.073772	0.14434	0.11401	0.15791	0.15488	0.020703	0.10872	0.15056	0.2184	0.25123	0.1094	0.025471	0.28611	-2.2271	-2.6729	-2.3896	-2.9167	-2.6104	-2.4854	-2.9917	-2.7917	-2.8125	-2.8792	-2.6354	-2.7646	-2.725	-2.3688	-2.8208	-2.6708	272.238	419.761	270.875	223.873	228.251	222.696	457.349	174.085	311.215	126.808	370.458	146.304	138.378	447.807	232.355	433.519	0.00064307	0.00058956	0.00016199	1442.3	1.0027e-05	6.9805e-06	1447	445.31	1.0348e-05	9.2009e-06	475.15	165.56	140.14	34.249	1.0903e-05	50.885	0.0057924	0.01093	0.0030312	1405.8	0.00010576	0.00012397	1407.1	436.45	0.00010817	0.00012387	471.34	163.93	140.58	34.873	0.00011437	51.577	264.063	240.783	213.973	140.085	305.321	244.060	139.345	144.041	258.064	233.636	142.883	146.900	147.694	151.626	292.151	150.420	-8191	255	
2035.081	1	1	0	0	0.20902	0.34017	0.079093	0.22636	0.096717	0.16186	0.11175	0.14559	0.22998	0.15305	0.46425	0.21042	0.26649	0.29542	0.13031	0.15876	-2.0312	-2.675	-2.35	-2.6937	-2.6396	-2.3146	-2.8917	-2.6583	-2.3958	-2.7875	-2.7042	-2.8125	-2.8271	-2.4042	-2.6125	-2.5979	442.541	202.951	233.309	463.324	451.782	248.847	355.767	419.651	425.692	252.778	428.516	455.884	144.810	455.190	473.654	415.223	0.00056883	0.00047538	0.00052338	1429.6	2.3429e-06	1.5828e-05	1440.8	442.81	1.9567e-06	4.9531e-06	473.07	164.25	139.36	34.091	1.1601e-05	50.532	0.0059419	0.011173	0.0030855	1397.1	0.00010848	0.00012589	1399.9	434.9	0.00011008	0.00012513	469.23	163.31	139.87	34.771	0.00011541	51.316	259.204	247.800	217.200	140.057	349.203	226.299	139.098	144.003	325.393	448.034	142.840	146.795	147.901	151.462	255.067	150.195	-8191	255	
2035.175	1	1	0	0	0.090353	0.087937	0.12691	0.20464	0.258	0.085616	0.34775	0.36802	0.37426	0.19511	0.23721	0.059231	0.069877	0.27615	0.36387	0.44308	-2.1583	-2.8271	-2.5792	-2.7229	-2.6896	-2.2583	-2.8917	-2.6896	-2.3229	-2.9125	-2.5938	-2.8312	-2.7729	-2.4188	-2.6813	-2.7854	264.462	215.643	439.293	162.765	151.506	228.791	393.674	377.469	205.416	223.614	483.820	171.204	411.488	386.138	332.843	384.402	0.00057856	0.00023393	0.00012998	1436.3	1.1108e-05	4.4543e-06	1427.8	440.14	9.2099e-06	7.9799e-06	468.89	162.93	138.9	33.875	8.5243e-06	50.302	0.0060025	0.01126	0.0031489	1398.8	0.00011078	0.00012911	1392.2	433.39	0.00011218	0.00012796	465.67	161.79	139.25	34.586	0.00011702	50.885	263.965	361.439	155.731	139.954	317.690	232.393	139.401	144.160	324.405	320.645	142.665	146.957	147.890	151.518	251.919	150.277	-8191	255	
2035.296	1	1	0	0	0.12266	0.1321	0.20363	0.29542	0.043601	0.12559	0.18766	0.21021	0.26804	0.23608	0.24212	0.1545	0.12785	0.19982	0.29331	0.21054	-1.9417	-2.6729	-2.3771	-2.7229	-2.8042	-2.4854	-2.9021	-2.6937	-2.3708	-2.7646	-2.6292	-2.7875	-2.9896	-2.6458	-2.6937	-2.8396	266.730	388.596	425.654	472.237	322.110	158.987	442.492	412.261	358.501	144.500	432.755	411.745	183.428	471.932	459.089	406.234	0.00045049	0.00032045	0.00022761	1426.6	1.2431e-05	1.5635e-05	1429.7	443.12	9.8013e-06	4.4746e-06	474.89	164.23	140.83	34.452	1.4953e-05	51.059	0.0060554	0.011442	0.0031747	1397.3	0.00011202	0.00013007	1394.1	436.76	0.00011243	0.00012903	469.48	163.4	140.95	35.173	0.0001181	51.629	258.375	149.469	418.830	140.137	339.445	213.669	139.479	144.268	277.579	256.674	142.605	146.522	147.915	151.516	309.690	150.258	-8191	255	
2035.392	1	1	0	0	0.017608	0.08505	0.15625	0.074585	0.062277	0.10985	0.20174	0.39715	0.13782	0.22209	0.21698	0.31313	0.10926	0.044228	0.15645	0.32147	-1.9833	-2.8667	-2.4854	-2.5625	-2.7229	-2.3646	-2.9583	-2.7208	-2.3729	-2.7396	-2.6396	-2.4521	-2.7438	-2.5563	-2.475	-2.8917	399.185	401.115	147.441	254.169	369.018	424.288	406.313	413.725	384.668	165.656	447.609	406.312	154.536	163.920	275.891	452.348	0.00045	0.0004487	0.00025762	1441.3	1.3348e-05	1.934e-05	1444.7	447.07	1.1207e-05	1.5759e-05	476.28	165.8	142.11	34.638	9.7899e-06	51.004	0.0061549	0.011498	0.0032275	1408.5	0.00011377	0.00013144	1407.8	440.54	0.00011401	0.0001315	473.46	164.57	142.43	35.406	0.0001207	51.849	257.760	201.141	284.820	140.275	306.574	240.970	139.287	143.879	271.133	244.807	142.888	146.753	147.857	151.177	284.504	150.351	-8191	255	
2035.488	1	1	0	0	0.088383	0.1187	0.15805	0.39086	0.21191	0.17025	0.3347	0.10715	0.022683	0.006392	0.24632	0.24393	0.24757	0.44142	0.272	0.23651	-2.0563	-2.6042	-2.5375	-2.6167	-2.6813	-2.4729	-2.6708	-2.9458	-2.3229	-2.7083	-2.5833	-2.2833	-2.9062	-2.4833	-2.6083	-2.8625	259.354	458.191	257.648	449.103	412.584	233.676	460.022	437.353	268.958	134.531	466.399	130.148	143.561	442.378	343.525	380.191	0.00053709	0.00080828	0.00036031	1441.2	1.3272e-05	8.1285e-06	1454	447.47	1.7955e-06	5.9547e-06	478.59	166.5	142.17	34.861	9.7347e-06	51.389	0.0061527	0.011525	0.0032182	1408.7	0.00011275	0.00013021	1413.3	440.84	0.00011417	0.0001299	475.28	165.31	142.51	35.465	0.00012053	51.97	252.302	146.578	243.414	140.144	227.285	280.638	139.251	143.857	222.733	179.400	142.748	146.804	148.128	151.746	249.243	150.433	-8191	255	
2035.560	1	1	0	0	0.31223	0.049821	0.36259	0.12379	0.053243	0.20653	0.30865	0.16167	0.095358	0.3591	0.15222	0.30259	0.16186	0.34934	0.22308	0.10546	-1.9083	-2.5312	-2.5958	-2.575	-2.9229	-2.4125	-2.6562	-2.9708	-2.4604	-2.575	-2.8458	-2.3083	-2.9583	-2.4188	-2.5458	-3.0687	396.062	450.551	423.510	395.013	139.391	448.098	465.253	462.134	469.248	459.523	441.817	411.280	146.018	335.431	285.848	386.460	0.0005952	0.0003773	0.00010736	1446.5	5.5433e-06	9.5614e-06	1442.6	449.75	6.431e-06	3.7553e-06	475.08	164.99	142.13	34.696	1.5048e-05	50.778	0.006156	0.011612	0.0032328	1414.7	0.00011461	0.00013136	1407.7	442.88	0.00011512	0.00013135	471.72	163.98	142.68	35.502	0.00012094	51.691	257.228	180.820	143.226	140.112	396.929	218.276	139.125	144.124	296.909	270.526	142.706	146.724	147.943	151.373	295.031	150.304	-8191	255	
2035.681	1	1	0	0	0.3307	0.25458	0.092369	0.10221	0.24676	0.33838	0.38622	0.21383	0.1186	0.15274	0.07159	0.18468	0.24732	0.16115	0.11807	0.13767	-1.9708	-2.5417	-2.55	-2.4917	-2.7604	-2.5417	-2.6979	-2.9958	-2.3854	-2.6208	-2.8854	-2.4	-2.8042	-2.7625	-2.4292	-2.8375	259.637	327.099	422.480	476.662	240.162	376.373	430.596	395.166	137.270	402.627	409.309	417.835	452.331	328.732	146.958	321.142	0.00054548	0.00057489	0.00028421	1451.2	9.0025e-06	6.8881e-06	1439.8	449.51	9.4697e-06	3.2544e-06	478.89	165.82	142.59	34.896	1.0395e-05	50.927	0.0062125	0.011723	0.0032315	1416.7	0.00011319	0.00013181	1406.9	441.84	0.00011468	0.00013004	473.61	164.77	143.15	35.655	0.00012122	51.895	259.519	189.234	186.586	140.092	306.743	248.828	139.384	143.878	324.793	199.539	142.755	146.701	147.924	151.272	268.771	150.351	-8191	255	
2035.777	1	1	0	0	0.16469	0.098831	0.15713	0.23666	0.13176	0.14711	0.28963	0.40453	0.28454	0.075655	0.18885	0.19114	0.19559	0.09648	0.16608	0.22905	-2.0875	-2.4813	-2.6667	-2.4667	-2.4417	-2.5792	-2.6937	-2.9083	-2.4792	-2.425	-2.7771	-2.6333	-2.7458	-2.6583	-2.2687	-2.8	457.311	476.957	472.404	446.454	414.032	389.963	417.424	412.626	327.559	333.932	126.169	439.262	448.238	467.259	334.982	334.803	0.00064771	0.0004388	0.00054412	1460.6	4.8087e-06	1.9836e-06	1456.2	454.48	4.0199e-06	6.1916e-06	482.75	167.73	144.55	35.332	1.3077e-05	51.311	0.0062056	0.011823	0.0032674	1428.9	0.00011447	0.00013479	1426	448.3	0.00011706	0.0001347	479.19	166.53	144.9	36.041	0.00012365	52.188	256.051	298.487	223.722	140.145	231.763	471.153	139.230	144.077	325.394	313.135	142.679	146.630	147.807	151.064	267.341	150.435	-8191	255	
2035.873	1	1	0	0	0.11251	0.15259	0.18782	0.32085	0.11081	0.19403	0.056126	0.208	0.1794	0.077045	0.22731	0.10803	0.12373	0.091819	0.26056	0.26685	-2.0917	-2.5354	-2.7875	-2.5833	-2.5292	-2.7188	-2.4021	-2.8563	-2.6312	-2.2438	-2.9271	-2.3771	-2.7729	-2.875	-2.225	-2.7875	281.794	161.157	309.817	477.731	411.277	222.832	467.981	153.073	258.358	436.039	135.557	466.206	281.901	350.227	237.206	457.072	0.00061356	0.001016	0.00016855	1460.7	1.6313e-05	1.3853e-05	1461.1	451.57	6.4743e-06	2.1579e-05	478.07	167.32	143.07	34.929	8.3384e-06	51.141	0.0063306	0.011957	0.0033337	1430	0.00011668	0.00013536	1422.6	445.2	0.00011886	0.00013496	476.28	165.79	143.27	35.63	0.00012354	52.134	256.582	259.852	254.827	140.083	304.076	298.919	139.419	144.002	297.495	294.611	142.771	146.757	147.780	151.344	341.977	150.238	-8191	255	
2035.993	1	1	0	0	0.050981	0.14903	0.26647	0.25441	0.16099	0.28137	0.10249	0.23145	0.18033	0.12183	0.087405	0.12171	0.14188	0.14892	0.22089	0.065771	-2.2542	-2.4292	-2.6729	-2.6542	-2.6354	-2.7375	-2.4396	-2.8312	-2.6333	-2.4667	-2.9688	-2.7167	-2.3146	-2.7104	-2.2583	-2.7562	214.883	225.656	294.677	432.160	192.713	309.456	371.962	424.331	331.317	429.098	405.851	393.839	417.950	406.286	184.737	353.345	0.00052434	0.0011923	0.00021151	1449.4	1.2697e-05	4.1186e-06	1446.4	448.66	1.2869e-05	8.0175e-06	476.41	165.38	143.42	35.019	6.3525e-06	51.151	0.0064641	0.011941	0.0033259	1415.8	0.00011692	0.00013361	1406.2	442.3	0.00011691	0.00013501	471.74	164.43	143.06	35.607	0.00012458	51.703	257.405	176.544	248.149	139.960	247.083	330.757	139.421	143.971	282.835	211.018	142.740	146.673	148.022	151.045	418.323	150.350	-8191	255	
2036.088	1	1	0	0	0.29926	0.15633	0.23537	0.31935	0.21914	0.11221	0.33475	0.22319	0.06426	0.22726	0.43212	0.51744	0.19169	0.40171	0.31334	0.20898	-2.1917	-2.2833	-2.7583	-2.6	-2.4583	-2.8604	-2.5812	-2.9562	-2.4354	-2.4208	-2.7958	-2.7167	-2.4771	-2.6875	-2.3812	-2.725	417.868	168.519	177.456	435.909	450.391	217.387	362.205	370.450	337.002	361.252	391.756	465.330	485.598	464.385	253.172	393.825	0.00049807	0.0012807	0.0002722	1458.9	9.467e-06	7.6942e-06	1445	453.04	5.8406e-06	9.3438e-06	478.32	165.23	142.92	35.128	7.9716e-06	50.677	0.0063262	0.011943	0.00329	1421.2	0.00011629	0.00013407	1411.8	446.29	0.00011673	0.00013379	475.21	164.59	143.82	35.784	0.00012144	51.517	249.378	210.401	230.256	140.210	426.086	363.285	139.407	143.916	297.552	284.985	142.781	146.842	148.024	151.397	285.177	150.399	-8191	255	
2036.184	1	1	0	0	0.15162	0.26136	0.19805	0.16753	0.1446	0.16515	0.5477	0.31308	0.24126	0.098982	0.25838	0.13878	0.049606	0.23832	0.26435	0.34049	-2.2104	-2.3042	-2.6271	-2.6521	-2.3604	-2.725	-2.4396	-2.7396	-2.5687	-2.2062	-2.7729	-2.5917	-2.7875	-2.9583	-2.3542	-2.5438	274.615	390.202	234.976	429.632	337.008	329.761	425.108	331.184	139.191	205.888	162.685	182.334	173.648	328.157	426.209	475.820	0.00050165	0.0016698	0.00028021	1465.1	4.4849e-06	9.1e-06	1456.3	454.27	1.2757e-05	6.9348e-06	477.56	166.08	143.29	34.854	1.0383e-05	50.653	0.0062393	0.011727	0.0032707	1431.5	0.00011341	0.00013293	1422.9	447.21	0.00011648	0.00013271	475.58	165.1	143.53	35.647	0.00012244	51.485	258.547	209.079	175.208	140.003	319.835	232.635	139.294	143.949	298.582	268.643	142.806	146.696	148.125	151.301	320.898	150.158	-8191	255	
2036.280	1	1	0	0	0.23983	0.23992	0.22074	0.27262	0.138	0.07945	0.30177	0.3535	0.115	0.22315	0.17972	0.21817	0.085679	0.20965	0.077262	0.097767	-2.3063	-2.4062	-2.6167	-2.8396	-2.4271	-2.7313	-2.6083	-2.775	-2.7854	-2.3771	-2.8479	-2.8833	-2.5396	-2.8896	-2.5333	-2.6146	259.217	203.156	218.543	470.004	372.761	215.977	440.395	415.292	213.886	281.974	483.984	421.448	446.614	383.590	166.648	444.727	0.00054526	0.00057907	0.00018849	1454.7	1.3024e-05	8.358e-06	1454.6	450.99	1.4416e-05	1.7998e-05	476.42	165.16	141.51	34.414	9.7594e-06	49.876	0.0063075	0.011825	0.0032837	1424.5	0.00011648	0.00013367	1416.7	443.61	0.00011777	0.00013305	472.87	163.96	142.26	35.264	0.00012277	50.765	262.044	185.048	219.013	140.091	279.672	322.394	139.438	144.090	333.099	318.855	142.392	146.982	148.300	151.280	309.495	150.058	-8191	255	
2036.376	1	1	0	0	0.087094	0.17995	0.086785	0.21236	0.34711	0.26167	0.26685	0.40808	0.055027	0.12693	0.22827	0.15274	0.02406	0.17087	0.17342	0.037001	-2.3396	-2.4875	-2.6625	-2.825	-2.4167	-2.7333	-2.7208	-2.6208	-2.9	-2.4375	-2.7646	-2.8	-2.5375	-2.8229	-2.5167	-2.5062	292.879	455.626	305.151	475.474	459.345	342.136	419.646	411.535	295.850	467.509	401.215	475.130	301.262	437.207	167.190	169.744	0.00058482	0.0011206	0.00030577	1443	1.1089e-05	1.0144e-05	1428.8	446.42	4.9559e-06	3.6792e-06	467.59	162.24	140.98	34.301	5.5298e-06	49.154	0.0062399	0.011834	0.0032495	1410.7	0.00011483	0.00013404	1395.9	439.85	0.00011609	0.00013244	465.69	161.31	141.41	35.039	0.00012184	50.121	250.442	193.494	179.968	140.123	320.594	261.490	139.300	143.829	259.965	185.597	142.742	146.792	147.868	151.308	328.998	150.015	-8191	255	
2036.472	1	1	0	0	0.090241	0.1631	0.060723	0.35109	0.1517	0.096039	0.21043	0.053143	0.035423	0.18138	0.14225	0.15914	0.15892	0.14737	0.28357	0.20528	-2.3521	-2.4104	-2.5854	-2.9542	-2.3187	-2.8104	-2.9062	-2.4833	-2.725	-2.4146	-2.6813	-2.8417	-2.45	-2.5896	-2.5833	-2.4938	339.416	486.064	167.729	446.783	430.812	201.510	435.898	465.623	362.785	292.280	463.196	431.868	435.816	383.392	370.746	360.729	0.00054818	0.001161	0.00037693	1442.9	4.6093e-06	1.3548e-05	1431.3	448.35	9.5383e-06	1.3085e-05	469.38	161.96	140.99	34.221	2.7207e-06	48.876	0.0062254	0.011757	0.0032861	1411.6	0.0001152	0.00013277	1394.5	441.52	0.00011648	0.00013361	466.5	161.21	141.6	34.813	0.00012274	49.714	253.676	248.281	231.592	140.090	299.279	307.599	139.337	144.063	323.445	253.748	142.631	146.692	147.778	151.556	202.499	150.545	-8191	255	
2036.593	1	1	0	0	0.32532	0.022721	0.11801	0.32247	0.19303	0.21384	0.34744	0.26301	0.31479	0.099222	0.23661	0.32413	0.19107	0.30116	0.18069	0.13674	-2.6146	-2.4083	-2.4792	-3.0354	-2.4354	-2.6896	-2.775	-2.5646	-2.7833	-2.4458	-2.5208	-2.9042	-2.5208	-2.7771	-2.6813	-2.6	470.487	447.000	334.956	464.702	466.274	235.526	397.702	392.287	447.264	348.604	130.710	431.493	452.891	411.005	477.525	218.241	0.00052356	0.000793	0.00015472	1434.7	1.1106e-05	9.376e-06	1423.5	445.32	7.624e-06	3.946e-06	468	162.46	140.77	34.14	9.695e-06	48.922	0.0062434	0.011981	0.0032806	1405.5	0.00011444	0.00013411	1388.5	439.67	0.00011641	0.00013436	464.93	160.94	141.24	34.956	0.00012222	49.894	259.105	250.916	213.266	140.116	290.120	289.199	139.335	143.971	339.228	215.623	142.530	146.734	148.162	151.269	329.645	149.836	-8191	255	
2036.689	1	1	0	0	0.14772	0.30376	0.12859	0.27965	0.16832	0.051014	0.13957	0.27618	0.14461	0.059681	0.19662	0.34276	0.033941	0.098801	0.10721	0.18508	-2.4958	-2.5604	-2.5792	-2.9938	-2.6021	-2.7833	-2.8083	-2.4562	-2.725	-2.525	-2.5958	-2.8937	-2.5208	-2.6104	-2.675	-2.3542	405.496	360.904	299.537	443.093	427.812	143.639	374.716	452.746	408.350	343.523	429.891	485.339	296.701	285.290	355.402	383.230	0.00061512	0.00054579	0.00039711	1440.3	9.1819e-06	7.7099e-06	1431.4	445.13	9.8588e-06	1.3009e-05	469.23	162.35	140.05	33.778	6.2896e-06	48.363	0.0063286	0.011993	0.0033089	1408.2	0.00011637	0.00013499	1393.2	438.2	0.00011778	0.00013501	464.91	161.03	140.96	34.674	0.00012422	49.444	253.259	276.218	209.649	139.952	297.483	281.135	139.403	143.948	251.778	218.797	142.382	146.735	147.835	151.395	256.101	150.051	-8191	255	
2036.785	1	1	0	0	0.1955	0.16927	0.26444	0.25023	0.080725	0.091682	0.19289	0.21067	0.16846	0.3999	0.13747	0.13618	0.13879	0.21614	0.19549	0.088718	-2.4646	-2.6625	-2.4604	-3.0458	-2.45	-2.6417	-2.9604	-2.4542	-2.7521	-2.7375	-2.6188	-2.8479	-2.6146	-2.8063	-2.8458	-2.5042	176.411	340.940	132.926	447.366	291.040	244.436	426.724	313.708	203.726	197.634	365.282	478.591	263.315	435.355	246.852	229.522	0.0006565	0.00039448	0.00025317	1445.6	8.8997e-06	1.3901e-05	1418.2	445.21	6.0569e-06	1.1415e-05	462.55	160.46	141.77	34.227	9.9193e-06	48.338	0.0064014	0.012106	0.0033473	1412	0.0001182	0.00013649	1387.2	439.85	0.00011807	0.00013686	461.1	159.73	141.9	34.91	0.00012556	49.366	257.770	131.763	138.271	140.204	286.039	301.258	139.152	143.908	197.533	262.207	142.609	146.555	147.836	151.331	334.811	150.256	-8191	255	
2036.857	1	1	0	0	0.37038	0.082111	0.25425	0.24452	0.23277	0.20145	0.24471	0.15502	0.1793	0.17362	0.22172	0.18141	0.36873	0.19342	0.1389	0.097094	-2.3688	-2.6625	-2.2167	-2.9896	-2.7021	-2.6333	-3.075	-2.4354	-2.8479	-2.6271	-2.5021	-3.075	-2.6667	-2.55	-2.825	-2.65	299.760	161.599	142.518	457.259	333.221	412.437	367.887	462.060	451.243	242.743	369.480	433.797	129.449	248.698	267.084	451.865	0.000557	0.00020215	0.00015616	1459.3	1.5923e-05	1.0389e-05	1441.7	454.18	5.8037e-06	8.2288e-06	468.65	162.3	142.98	34.521	3.756e-06	48.789	0.0063292	0.012009	0.0033126	1428.1	0.00011714	0.0001371	1402	446.34	0.0001195	0.00013559	466.99	161.3	143.77	35.37	0.00012786	49.725	260.004	196.944	451.087	140.045	299.898	271.892	139.158	143.839	294.686	322.464	142.686	146.581	147.978	151.119	278.008	149.793	-8191	255	
2036.953	1	1	0	0	0.27285	0.16303	0.17054	0.4257	0.15505	0.20574	0.23803	0.0046321	0.1046	0.26513	0.12845	0.061126	0.072342	0.22804	0.15047	0.23281	-2.375	-2.7938	-2.2979	-3.1271	-2.6875	-2.5625	-3.0604	-2.6646	-2.6063	-2.8125	-2.5792	-2.9792	-2.85	-2.5	-2.7583	-2.5583	428.590	433.615	454.931	407.498	264.455	335.284	409.232	258.201	448.176	211.633	467.458	180.707	422.575	406.849	287.395	456.911	0.00054567	0.00093973	0.00030966	1463.3	8.499e-06	1.196e-05	1428.2	447.82	2.2439e-06	1.4303e-05	467.25	162.17	142.04	34.31	4.8605e-06	49.222	0.0065121	0.012269	0.0034144	1425.8	0.0001215	0.00014047	1396.8	443.08	0.00012219	0.00014032	464.88	161.65	142.88	35.153	0.00013047	50.133	258.957	149.597	216.661	140.235	332.895	270.962	139.368	143.976	231.639	317.790	142.493	146.601	147.955	151.515	318.463	150.113	-8191	255	
2037.072	1	1	0	0	0.18164	0.055089	0.14833	0.19035	0.22853	0.17192	0.4327	0.10376	0.073337	0.16993	0.27859	0.23203	0.16691	0.14962	0.073702	0.22052	-2.2792	-2.8583	-2.3375	-2.9333	-2.6688	-2.3812	-3.0854	-2.7771	-2.5604	-2.7833	-2.6417	-3	-2.7229	-2.6	-2.8292	-2.7562	157.725	258.645	261.863	464.365	286.570	468.309	408.966	303.583	204.924	269.376	455.160	454.539	376.628	452.101	136.442	459.435	0.00052144	0.0019371	0.0001548	1448.4	1.2626e-05	4.3635e-06	1429.6	449.33	7.8074e-06	4.6249e-06	468.52	163.16	142.11	34.222	1.3401e-05	49.204	0.0065935	0.012701	0.0035098	1416.5	0.00012401	0.00014327	1395.1	443.19	0.00012473	0.00014402	467.74	162.41	143.07	35.301	0.00013224	50.38	257.677	205.353	190.209	140.185	219.279	289.637	139.343	144.088	266.145	314.948	142.551	146.513	148.006	151.367	293.484	149.708	-8191	255	
2037.168	1	1	0	0	0.059591	0.10144	0.23313	0.12807	0.15061	0.15236	0.29712	0.17015	0.096524	0.21317	0.24657	0.18138	0.11175	0.18937	0.049263	0.19093	-2.1917	-2.8104	-2.2521	-3.0771	-2.7167	-2.3458	-3.0312	-2.7729	-2.4146	-2.8292	-2.675	-2.7	-2.9792	-2.4042	-2.8208	-2.6229	348.875	144.864	461.035	173.467	245.272	321.677	407.621	465.686	251.987	211.348	474.575	424.268	136.367	142.545	329.625	145.085	0.00049693	0.00041136	0.00021664	1455.8	4.4793e-06	1.08e-05	1434	452.24	3.7603e-06	8.9468e-06	467	161.87	143.09	34.605	9.5342e-06	48.946	0.0067927	0.012788	0.0035717	1426.1	0.00012678	0.00014654	1402.8	445.95	0.00012754	0.00014578	466.8	161.86	144.19	35.379	0.0001329	50.053	259.775	343.204	154.274	140.185	332.200	329.507	139.272	143.905	278.008	274.952	142.996	146.589	147.980	151.357	314.556	150.039	-8191	255	
2037.264	1	1	0	0	0.10716	0.058929	0.1933	0.20394	0.3307	0.12006	0.14006	0.40861	0.10977	0.03716	0.15337	0.23046	0.11871	0.090105	0.18115	0.081658	-2.0292	-2.7146	-2.5354	-2.9146	-2.7104	-2.4833	-2.9229	-2.8083	-2.3792	-2.8958	-2.5687	-2.7875	-2.9938	-2.5104	-2.6042	-2.6917	266.661	328.873	346.407	467.119	309.918	200.256	348.149	376.307	194.275	474.098	428.218	418.338	467.542	376.871	183.646	198.295	0.00054818	0.00098549	0.00011219	1457.8	1.1028e-05	9.687e-06	1434.9	451.44	9.281e-06	4.809e-06	468.52	161.95	142.09	34.444	3.9334e-06	49.026	0.0068407	0.012817	0.0035478	1424.2	0.00012435	0.0001464	1399.4	445.87	0.00012647	0.00014468	467.31	162.05	143.97	35.465	0.00013347	50.185	269.387	137.354	168.452	140.164	289.160	267.529	139.115	143.877	356.715	307.664	142.278	146.876	148.083	151.433	484.976	150.191	-8191	255	
2037.361	1	1	0	0	0.10677	0.24945	0.07311	0.33799	0.11064	0.21066	0.20061	0.31515	0.15318	0.086436	0.017732	0.11423	0.17362	0.13474	0.18505	0.14056	-1.8458	-2.8833	-2.4042	-2.8208	-2.7562	-2.4875	-2.8667	-2.6729	-2.5687	-2.7229	-2.7208	-2.5729	-2.8604	-2.5125	-2.7042	-2.7396	349.541	366.565	479.078	423.890	217.037	380.919	418.954	414.369	428.684	278.836	444.648	349.316	147.722	404.015	165.174	318.231	0.00055082	0.00057571	0.00012386	1464.8	1.9936e-05	9.6119e-06	1439.2	454.23	8.8594e-06	1.6448e-06	475.06	164.08	144.05	34.868	8.6756e-06	49.73	0.0068761	0.01304	0.003594	1434.4	0.0001267	0.0001478	1410.2	449.68	0.00012928	0.000146	473.26	163.8	145.39	35.828	0.00013694	50.782	268.403	336.634	194.381	140.135	285.487	267.802	139.109	143.945	301.572	386.511	142.557	146.885	148.001	151.417	209.440	150.247	-8191	255	
2037.457	1	1	0	0	0.053755	0.23021	0.26306	0.062874	0.079754	0.10092	0.12633	0.045619	0.055348	0.17457	0.29307	0.046285	0.1263	0.076139	0.19051	0.12097	-2.0438	-2.7667	-2.4729	-2.6417	-2.7062	-2.4854	-2.6958	-2.7375	-2.4208	-2.7729	-2.6854	-2.5042	-3.0229	-2.55	-2.4979	-2.7687	219.422	170.750	339.779	447.868	369.429	478.165	447.629	229.453	244.998	338.334	442.104	135.897	449.488	135.970	279.436	461.075	0.00052311	0.0011245	0.00029875	1479.2	1.3202e-05	1.1955e-05	1458.3	460.93	8.2125e-06	9.0343e-06	477.58	166.33	144.88	34.902	5.6436e-06	49.57	0.0070257	0.01356	0.0037064	1449.3	0.00013069	0.00015098	1427.1	455.06	0.00013215	0.00015243	477.98	165.47	146.33	36.061	0.0001413	51.015	253.988	239.034	265.787	140.039	328.615	278.878	139.355	143.983	284.498	295.117	142.714	146.827	148.181	151.503	288.450	150.141	-8191	255	
2037.553	1	1	0	0	0.23903	0.1594	0.27273	0.36321	0.11142	0.12252	0.13737	0.25611	0.091953	0.17302	0.32198	0.2503	0.14058	0.10252	0.20796	0.16056	-1.95	-2.6958	-2.5604	-2.6146	-2.9125	-2.4792	-2.7875	-3.0208	-2.3833	-2.8896	-2.7896	-2.5667	-2.8458	-2.55	-2.6354	-2.8729	323.153	129.710	136.240	460.112	296.676	400.858	459.844	412.444	276.754	478.377	393.386	177.153	466.498	142.143	353.671	147.254	0.00062143	0.0010138	0.00024343	1482.2	1.0499e-05	1.1277e-05	1457.4	459.4	1.3814e-06	1.1208e-05	478.29	165.59	144.53	35.158	1.0729e-05	49.602	0.0072032	0.013672	0.0038378	1447.5	0.00013338	0.00015605	1426.8	454.38	0.00013741	0.00015455	477.44	165.35	146.42	36.112	0.00014308	51.119	274.587	193.505	243.733	140.053	470.680	267.588	139.401	143.972	323.444	319.095	142.665	146.822	147.884	151.708	283.693	150.073	-8191	255	
2037.673	1	1	0	0	0.17026	0.081396	0.12325	0.29657	0.0331	0.12888	0.27963	0.22466	0.13429	0.15902	0.12569	0.28789	0.22538	0.041683	0.05589	0.10194	-1.9438	-2.6604	-2.4771	-2.5958	-2.8271	-2.575	-2.7375	-3.0646	-2.5125	-2.7104	-2.9792	-2.5438	-2.9083	-2.5146	-2.35	-2.9458	447.481	286.336	377.559	420.263	340.913	321.094	421.162	382.571	166.403	373.577	449.748	400.293	128.775	424.394	307.339	423.926	0.00046334	0.00079736	0.00029762	1466.7	1.2157e-05	7.2837e-06	1445.1	454.36	8.4067e-07	5.3006e-06	470.81	164.66	144.1	34.672	1.0158e-05	49.491	0.0072923	0.013957	0.0038335	1439.9	0.00013577	0.00015726	1415.2	449.88	0.00013587	0.00015698	473.12	164.63	145.43	35.864	0.00014501	51.131	256.419	275.569	264.657	140.261	260.855	396.120	139.419	143.981	277.495	377.599	142.522	146.905	148.001	151.291	294.236	150.182	-8191	255	
2037.770	1	1	0	0	0.13172	0.14004	0.13105	0.32654	0.20153	0.068303	0.091486	0.24752	0.15856	0.12514	0.15307	0.17541	0.1558	0.1867	0.090048	0.22105	-1.9771	-2.5	-2.6854	-2.6792	-2.8458	-2.5771	-2.6063	-3.1167	-2.3583	-2.7167	-2.8625	-2.2646	-2.8271	-2.4271	-2.4854	-3.0438	467.101	300.109	468.880	454.285	324.852	208.430	232.290	387.189	423.702	313.443	471.516	416.080	225.318	134.765	424.643	127.713	0.00052349	0.00016551	0.00012253	1471.6	1.4381e-05	9.9963e-06	1447.3	455.73	6.6617e-06	4.5298e-06	476.78	166.15	145.16	35.185	8.1207e-06	50.19	0.007378	0.014105	0.0039319	1441.9	0.00013808	0.00016056	1420.2	451.87	0.0001407	0.00016272	478.08	166.14	147.28	36.342	0.00015304	51.685	262.093	338.437	287.246	139.958	338.235	168.928	139.558	143.957	304.142	457.513	142.469	146.547	148.082	151.472	242.413	149.734	-8191	255	
2037.866	1	1	0	0	0.092756	0.16878	0.2565	0.092566	0.15673	0.18355	0.19047	0.29098	0.35396	0.22681	0.40652	0.13622	0.14318	0.096339	0.047627	0.1887	-1.9896	-2.4875	-2.6583	-2.7729	-2.8146	-2.7146	-2.7604	-3.0979	-2.5271	-2.5521	-2.8688	-2.5917	-2.8583	-2.8438	-2.2833	-2.9833	258.616	412.112	333.402	403.648	211.352	357.864	387.631	422.931	422.024	176.052	138.163	168.257	410.972	465.166	463.562	192.686	0.000612	0.0010567	0.00040219	1484.2	7.9667e-06	4.1338e-06	1472.2	463.64	1.1355e-05	1.265e-05	484.13	168.25	148.21	35.804	9.2269e-06	50.519	0.007796	0.014975	0.0041239	1461.8	0.00014468	0.00016845	1444.9	460.45	0.00014704	0.00016876	486.29	168.77	149.83	37.046	0.00015583	52.51	256.960	205.816	266.059	140.051	305.565	272.280	139.384	144.081	259.982	240.459	142.586	146.874	147.585	151.137	324.878	150.246	-8191	255	
2037.962	1	1	0	0	0.16971	0.094594	0.081465	0.29449	0.069019	0.19301	0.29938	0.048393	0.083595	0.079631	0.15461	0.28389	0.085979	0.41223	0.083722	0.38785	-2.1396	-2.6458	-2.6646	-2.7542	-2.6833	-2.8312	-2.6146	-3.1083	-2.5229	-2.6604	-2.9646	-2.6312	-2.6667	-2.9354	-2.4042	-2.8229	244.866	138.520	161.286	471.359	354.157	483.341	410.970	156.471	207.448	326.527	383.861	156.837	172.974	454.421	220.773	414.371	0.00064569	0.001679	0.00035083	1498.9	1.6679e-05	1.5182e-05	1477.4	467.82	4.182e-06	9.585e-06	483.41	168.32	146.89	35.507	4.5198e-06	50.672	0.0080315	0.015209	0.0042458	1475.5	0.00015006	0.0001762	1451.8	464.51	0.00015355	0.00017612	486.36	169.14	149.74	36.936	0.00016221	52.325	270.706	184.426	227.937	140.083	309.494	292.380	139.171	143.849	304.438	376.941	142.516	146.631	147.729	151.127	290.848	150.631	-8191	255	
2038.081	1	1	0	0	0.25963	0.24931	0.11222	0.15482	0.26078	0.21487	0.17674	0.17168	0.159	0.076907	0.13964	0.1497	0.3238	0.14567	0.36539	0.24893	-2.2458	-2.3229	-2.8167	-2.5521	-2.6646	-2.7562	-2.4417	-3.0604	-2.6188	-2.3833	-3.0167	-2.5604	-2.7667	-2.8604	-2.3375	-2.6792	210.561	167.566	431.271	400.660	471.653	128.389	340.111	394.572	329.523	309.805	454.724	420.303	162.218	127.097	260.823	420.479	0.00054402	0.0011165	0.00026372	1477.5	1.3183e-05	3.1251e-06	1457.7	458.87	1.1826e-05	9.8324e-06	475.69	165.54	143.92	35.029	2.6497e-06	49.552	0.0082618	0.015761	0.0043361	1454.8	0.00015295	0.00017763	1432.5	455.7	0.00015443	0.00017775	479.52	166.35	146.9	36.391	0.00016394	51.648	252.371	208.573	208.076	140.110	293.172	270.349	139.454	144.065	268.559	169.372	142.731	146.754	147.907	151.202	303.101	150.077	-8191	255	
2038.152	1	1	0	0	0.13068	0.3647	0.065805	0.15464	0.27268	0.16264	0.17503	0.24152	0.18507	0.17881	0.28234	0.2559	0.060415	0.21634	0.064901	0.078893	-2.1479	-2.4854	-2.7396	-2.7958	-2.4958	-2.8583	-2.6542	-2.7917	-2.8	-2.2729	-2.9625	-2.6167	-2.6646	-2.7958	-2.375	-2.6229	372.288	328.898	143.018	477.835	179.620	239.895	428.363	483.583	162.701	241.783	386.755	137.107	227.205	174.274	403.124	482.373	0.00051695	0.00058004	0.00012054	1467.6	7.3576e-06	1.0643e-05	1456.1	458.24	1.2183e-05	7.9182e-06	478.4	166.98	145.53	35.413	1.9138e-05	50.203	0.0082902	0.015926	0.0044041	1445.5	0.00015419	0.0001792	1433.6	456.24	0.00015657	0.00017971	483.81	167.55	148.67	36.854	0.00016723	52.264	252.065	261.759	221.764	140.061	308.211	251.087	139.223	144.100	283.344	440.020	142.748	146.674	147.857	151.146	296.180	150.122	-8191	255	
2038.273	1	1	0	0	0.089855	0.1781	0.18677	0.30281	0.2158	0.14863	0.27114	0.16477	0.15591	0.33247	0.39619	0.2516	0.078127	0.084409	0.063911	0.36653	-2.3312	-2.6417	-2.6333	-2.5729	-2.4958	-2.9042	-2.4875	-2.7958	-2.725	-2.4375	-2.9729	-2.7313	-2.6354	-2.9062	-2.3667	-2.7604	192.104	160.500	464.591	398.426	471.079	292.721	415.193	396.013	266.346	456.436	427.976	396.104	418.780	141.366	362.224	478.299	0.00054928	0.00082568	0.00016458	1485.9	1.8758e-05	7.6654e-06	1475.1	462.53	5.7138e-06	1.585e-05	485.1	168.52	147.12	35.502	1.4121e-05	51.02	0.0084206	0.016134	0.0044683	1464.8	0.00015686	0.00018192	1451.8	461.16	0.00015953	0.00018313	488.52	169.27	149.87	37.046	0.00016772	52.802	252.357	244.407	196.763	140.249	267.751	344.003	139.398	143.954	371.412	315.600	142.532	146.764	147.967	151.042	247.959	150.135	-8191	255	
2038.369	1	1	0	0	0.18673	0.17746	0.11707	0.057235	0.31206	0.30523	0.38313	0.17204	0.30022	0.36465	0.07141	0.17422	0.087269	0.20525	0.18195	0.3265	-2.3979	-2.4146	-2.7875	-2.7896	-2.375	-2.7708	-2.6979	-2.6042	-2.8167	-2.3229	-2.6979	-3.0646	-2.6875	-2.925	-2.5854	-2.5271	177.398	326.556	212.763	217.813	368.120	430.017	449.673	421.046	234.645	137.363	383.734	132.939	452.189	467.545	262.074	423.277	0.00061212	0.0005517	0.00021746	1485.9	7.0807e-06	8.2937e-06	1473.1	462.37	6.242e-06	8.5811e-06	480.49	167.67	146.97	35.776	1.532e-05	50.625	0.0086106	0.016484	0.004533	1467.2	0.0001605	0.00018744	1449.3	461.34	0.00016307	0.00018778	486.57	168.66	149.85	37.169	0.00016864	52.676	256.628	472.897	298.730	140.118	278.644	318.914	139.279	143.823	350.351	319.443	142.666	146.660	147.750	151.098	357.767	149.976	-8191	255	
2038.465	1	1	0	0	0.15645	0.19964	0.10869	0.18575	0.17582	0.092425	0.19596	0.1611	0.16829	0.13753	0.19741	0.31103	0.1793	0.11563	0.10444	0.18435	-2.4125	-2.2812	-2.5896	-2.9729	-2.3542	-2.7562	-2.7875	-2.5667	-2.9229	-2.3854	-2.8396	-2.7083	-2.4292	-2.8937	-2.6042	-2.7146	416.240	144.150	381.798	404.749	264.995	357.016	374.753	407.604	402.259	185.150	384.107	383.523	133.001	159.469	240.769	393.842	0.00061244	0.00048103	0.00013949	1495.2	7.356e-06	7.1409e-06	1473.4	466.47	1.4771e-05	1.5199e-05	484.41	167.95	147.73	35.699	1.2049e-05	50.453	0.0086701	0.016646	0.0045412	1474.2	0.0001614	0.00018826	1451.5	464.84	0.0001622	0.00018719	488.31	169.2	150.78	37.403	0.00017084	52.635	267.617	390.325	259.465	140.052	453.229	465.741	139.192	144.083	278.596	260.568	142.564	146.749	147.851	151.441	432.219	150.060	-8191	255	
2038.562	1	1	0	0	0.16097	0.11545	0.052125	0.19581	0.15625	0.25644	0.18498	0.26303	0.19391	0.15814	0.20316	0.20333	0.084581	0.15112	0.14139	0.28523	-2.3146	-2.4167	-2.5021	-2.8375	-2.4104	-2.6958	-2.7917	-2.5771	-2.8187	-2.4042	-2.9375	-2.6813	-2.3229	-2.8729	-2.7771	-2.5438	210.991	315.053	430.787	483.951	279.945	210.221	130.347	476.958	213.441	225.920	459.187	413.571	414.178	301.447	251.932	404.409	0.00047843	0.001032	0.00013038	1500.9	2.0295e-05	1.0758e-05	1482.2	468.42	7.3892e-06	1.2931e-05	486.01	169.64	148.85	36.394	1.1011e-05	51.209	0.0086398	0.016639	0.0045891	1478.6	0.00016163	0.00018713	1459.7	467.01	0.00016284	0.00018885	491.86	170.3	152.33	37.844	0.00017263	53.105	269.927	274.361	412.523	139.809	328.884	430.969	139.257	144.130	277.610	274.093	142.613	146.322	147.811	151.524	374.619	149.880	-8191	255	
2038.682	1	1	0	0	0.087992	0.21521	0.15812	0.23832	0.11108	0.16176	0.094499	0.42154	0.108	0.064471	0.062156	0.26686	0.23485	0.051427	0.16967	0.16934	-2.3208	-2.3333	-2.3937	-3.0042	-2.3812	-2.7812	-2.8729	-2.5438	-3.0604	-2.6354	-2.5854	-3.0042	-2.4583	-2.8312	-2.8917	-2.5187	296.707	335.195	175.208	476.194	421.718	471.764	468.382	471.794	170.406	139.326	215.673	460.442	228.072	415.058	197.533	464.263	0.00058917	0.0013439	0.00025049	1512.5	1.9939e-05	1.0198e-05	1493.4	471.02	1.0177e-06	1.1728e-05	489.78	170.29	150.31	36.302	1.0387e-05	51.155	0.0088138	0.016878	0.0046725	1490.4	0.00016326	0.00019191	1467.7	469.86	0.00016647	0.00019237	495.5	171.68	153.31	38.043	0.00017539	53.457	250.551	196.769	195.779	140.056	326.646	275.030	139.207	144.080	212.083	267.142	142.708	146.564	147.909	151.410	207.308	150.036	-8191	255	
2038.754	1	1	0	0	0.11642	0.17554	0.21759	0.14284	0.034403	0.1534	0.35051	0.13576	0.04771	0.010948	0.38775	0.36208	0.19303	0.139	0.22599	0.15308	-2.4729	-2.5125	-2.3521	-3.2167	-2.575	-2.8229	-2.9208	-2.7021	-2.8271	-2.6354	-2.6188	-2.8958	-2.5104	-2.7375	-2.7667	-2.5812	356.067	429.072	283.246	457.233	277.431	306.019	415.362	304.346	241.732	209.539	456.429	141.337	436.841	217.085	458.133	245.032	0.0005581	0.0011241	0.00014229	1523.3	3.0098e-06	1.4006e-05	1508	476.45	1.2187e-05	4.2224e-06	494.94	170.96	152.04	36.881	1.1394e-05	51.607	0.0089585	0.016871	0.0046769	1499.4	0.00016423	0.00018937	1482.7	475.12	0.00016454	0.00018747	499.09	172.34	154.61	38.4	0.00017252	53.505	259.976	193.595	225.428	139.975	308.581	262.174	139.287	143.767	347.442	368.420	142.602	146.634	147.725	151.199	227.679	150.167	-8191	255	
2038.850	1	1	0	0	0.11229	0.05437	0.20502	0.3091	0.26964	0.34114	0.27366	0.098646	0.21215	0.25122	0.10771	0.082128	0.31861	0.048546	0.21184	0.18133	-2.4042	-2.6813	-2.3646	-3.0396	-2.4708	-2.5271	-2.9688	-2.7271	-2.7729	-2.8229	-2.6354	-3.0687	-2.675	-2.4938	-2.8354	-2.6042	201.996	258.716	360.721	417.872	324.951	412.935	416.992	432.580	317.950	177.025	371.376	128.499	483.962	184.327	391.628	191.437	0.00068052	0.0008515	0.0003019	1529	1.3921e-05	7.9975e-06	1502	474.49	1.3672e-05	5.0275e-06	490.78	168.73	149.97	36.102	1.3863e-05	50.825	0.0086984	0.016584	0.0045799	1502.4	0.00016008	0.00018552	1471.1	472.52	0.00016092	0.00018489	493.02	170.32	152.21	37.753	0.00017035	52.922	252.789	284.780	222.770	139.960	297.780	417.935	139.201	144.025	271.267	313.421	142.574	146.429	147.650	151.149	276.097	149.950	-8191	255	
2038.946	1	1	0	0	0.090157	0.41823	0.041246	0.2021	0.29663	0.13547	0.14294	0.3431	0.26307	0.21241	0.37207	0.17167	0.076992	0.15848	0.28894	0.090669	-2.3021	-2.5333	-2.4708	-3.1063	-2.7792	-2.6354	-3.2146	-2.5271	-2.7479	-2.6729	-2.5938	-3.1	-2.6208	-2.5917	-2.7313	-2.5438	440.672	429.207	322.106	433.770	228.904	179.676	409.463	432.713	227.390	238.789	419.324	468.905	432.804	408.257	396.203	471.445	0.00065538	0.00022811	0.00023479	1492.7	1.1467e-05	1.136e-05	1469.6	467.04	1.1436e-05	1.8994e-06	483.01	167.1	146.9	35.717	9.9883e-06	50.615	0.008525	0.016399	0.0045368	1473	0.00016045	0.00018407	1446.9	463.11	0.00015908	0.00018285	486.93	168.5	149.62	37.126	0.00016859	52.568	270.130	385.871	207.063	140.045	275.577	382.650	139.330	143.801	277.274	415.277	142.590	146.768	147.747	151.262	303.517	150.108	-8191	255	
2039.042	1	1	0	0	0.086723	0.19007	0.27331	0.12817	0.14827	0.26517	0.23233	0.12957	0.28489	0.30167	0.31975	0.039792	0.29622	0.3856	0.10038	0.17613	-2.2812	-2.6729	-2.4021	-2.8312	-2.5563	-2.3625	-3.1917	-2.6792	-2.6229	-2.8896	-2.6958	-2.9958	-2.7708	-2.5167	-2.8479	-2.6813	211.696	206.821	252.587	419.138	328.054	321.673	406.429	480.300	315.833	309.446	461.798	314.011	470.395	447.242	344.321	392.742	0.00058079	0.0010746	0.00013491	1482.9	1.2929e-05	3.7543e-06	1471.4	464.63	8.8542e-06	5.3673e-06	484.32	168.15	147.89	35.636	9.8618e-06	51.16	0.0085582	0.016312	0.0045422	1461.7	0.00015884	0.0001832	1447.1	461.44	0.0001586	0.00018338	488.11	169.17	150.49	37.28	0.00016853	52.943	248.257	283.521	300.166	140.116	275.511	227.434	139.299	143.985	267.784	205.451	142.759	146.475	147.940	151.348	279.171	150.249	-8191	255	
2039.161	1	1	0	0	0.084436	0.2553	0.053031	0.15825	0.016414	0.22844	0.32833	0.2354	0.055345	0.15261	0.13688	0.2512	0.093147	0.079691	0.031535	0.088852	-2.2458	-2.7854	-2.4104	-3.0375	-2.7	-2.3646	-3.0708	-2.5792	-2.5896	-2.8438	-2.4792	-2.8875	-2.6896	-2.6188	-2.9208	-2.7604	250.112	163.588	297.866	484.291	277.243	452.458	401.561	428.443	376.741	229.411	395.626	167.164	157.707	215.987	387.434	311.540	0.00058685	0.00050232	4.1476e-05	1508.6	1.7809e-05	9.049e-06	1494.8	469.68	1.5264e-05	4.7342e-06	491.23	168.56	149.64	36.126	9.4484e-06	51.027	0.0085091	0.016163	0.0044536	1484.7	0.00015782	0.00018359	1465.9	468.07	0.00015898	0.00018193	493.03	170.14	151.84	37.627	0.00016634	52.788	256.708	365.046	223.442	140.166	365.482	222.170	139.311	143.899	274.772	380.398	142.441	146.487	148.148	151.435	333.913	150.144	-8191	255	
2039.257	1	1	0	0	0.14254	0.087541	0.19701	0.45498	0.12954	0.35585	0.25626	0.15482	0.11714	0.18725	0.16927	0.25884	0.28257	0.17458	0.26366	0.2042	-2.1896	-2.8104	-2.4292	-2.8375	-2.6167	-2.5354	-3.0729	-2.7333	-2.6417	-2.8708	-2.5271	-2.7729	-3.0333	-2.3854	-2.9062	-2.6208	416.024	222.343	382.425	482.466	413.305	289.720	397.153	438.532	251.670	187.476	444.050	127.857	483.235	452.022	169.928	469.182	0.00058966	0.00082711	0.00026747	1492.2	1.0605e-05	1.4549e-05	1470.6	466.21	6.0239e-06	1.4034e-05	483.3	167.03	147.22	35.603	4.3869e-06	50.4	0.008378	0.016154	0.0044493	1472.3	0.00015594	0.00018143	1448.1	463.23	0.00015789	0.00018149	486.98	167.92	149.83	37.182	0.00016599	52.202	263.508	189.229	205.738	140.131	202.636	299.193	139.374	143.907	323.426	253.418	142.621	146.606	147.864	151.361	279.380	150.088	-8191	255	
2039.353	1	1	0	0	0.16468	0.16	0.17118	0.3336	0.04802	0.17515	0.23436	0.18999	0.21157	0.17143	0.22278	0.12149	0.22108	0.06403	0.13665	0.12566	-2.0438	-2.7708	-2.4417	-2.7229	-2.7292	-2.1854	-2.9875	-2.6146	-2.5083	-2.7812	-2.6833	-2.6229	-2.7833	-2.2229	-2.85	-2.8771	252.255	299.020	209.685	453.519	329.549	317.944	421.922	414.616	166.818	305.261	447.357	414.533	462.572	180.338	401.628	483.857	0.00059355	0.00061992	9.8159e-05	1486.5	8.4093e-06	1.8434e-05	1460.3	464.89	9.1856e-06	4.4549e-06	480.81	166.41	147.03	35.656	6.1224e-06	50.785	0.0084197	0.016171	0.0044667	1464.9	0.00015674	0.00018336	1439.6	461.86	0.00015893	0.0001813	485.01	167.72	149.37	37.026	0.00016617	52.311	256.150	238.230	194.906	140.149	302.543	173.304	139.359	143.948	203.112	342.082	142.444	146.687	147.779	151.407	243.035	150.091	-8191	255	
2039.450	1	1	0	0	0.19297	0.0045938	0.21655	0.18453	0.13238	0.07039	0.38959	0.36746	0.3278	0.061986	0.2589	0.15262	0.34998	0.11748	0.14166	0.21947	-2.0271	-2.4854	-2.5187	-2.7188	-2.7146	-2.4229	-2.9042	-2.8208	-2.6354	-2.7042	-2.7188	-2.7146	-3.0062	-2.5646	-2.6437	-2.8396	159.576	256.069	166.799	157.501	330.652	438.113	434.523	461.894	223.178	274.382	466.601	405.844	360.724	153.635	254.032	411.238	0.00060832	0.00030521	0.00011047	1487.4	5.3778e-06	2.614e-05	1474.7	466.33	8.8612e-06	8.9649e-06	481.73	168.09	147.65	35.991	1.0363e-05	50.853	0.0084439	0.01604	0.0044455	1465.4	0.00015568	0.00018238	1446.4	463.06	0.00015763	0.00018008	488.33	169.31	150.78	37.434	0.00016585	52.811	256.483	476.751	167.374	139.966	344.156	314.580	139.397	143.776	334.193	214.399	142.592	146.850	147.789	151.420	304.210	150.182	-8191	255	
2039.546	1	1	0	0	0.17454	0.17115	0.26252	0.21185	0.088956	0.13244	0.33057	0.19635	0.19649	0.13932	0.4169	0.38127	0.090082	0.13008	0.10352	0.060884	-2.0396	-2.8229	-2.6667	-2.8521	-2.8812	-2.4708	-2.9458	-2.9771	-2.4375	-2.8438	-2.7	-2.475	-2.8479	-2.4333	-2.675	-2.9188	315.738	188.083	454.841	415.346	483.952	467.978	388.298	473.179	453.665	442.210	482.458	482.278	369.541	196.702	405.978	340.529	0.00053774	0.00061431	0.00025277	1500.7	2.3015e-06	9.5973e-06	1489.5	471.66	1.0387e-05	1.4724e-05	491.29	170.11	151.08	36.329	7.3582e-06	50.926	0.0084852	0.016261	0.0044953	1483.3	0.00015853	0.00018391	1464.6	468.8	0.00016018	0.00018156	494.38	171.01	152.67	37.804	0.00016802	53.023	254.551	130.913	127.796	139.949	158.054	253.630	139.334	143.836	255.323	257.078	142.829	146.741	147.974	151.464	357.992	149.956	-8191	255	
2039.642	1	1	0	0	0.23183	0.067404	0.12176	0.43577	0.060135	0.03289	0.3135	0.29582	0.098811	0.044878	0.14835	0.21962	0.26912	0.084983	0.076945	0.19043	-2.0854	-2.8542	-2.6542	-2.7	-2.8417	-2.6521	-2.8271	-3.1083	-2.3292	-2.7729	-2.8542	-2.5229	-2.9625	-2.5229	-2.6042	-2.8271	314.646	434.397	232.984	464.388	455.488	353.005	436.937	445.715	230.677	246.812	140.541	390.864	184.888	416.956	342.884	385.651	0.00057482	0.0010891	0.00036586	1516.7	1.0128e-05	1.637e-05	1490.8	471.98	1.9259e-05	1.3451e-05	488.44	168.3	150.54	36.459	1.8914e-05	50.761	0.0085538	0.016283	0.0045186	1493.9	0.00015878	0.00018308	1466	470.25	0.00016208	0.00018628	491.8	169.81	152.82	37.763	0.00017221	52.761	259.448	202.327	146.239	140.115	288.966	249.376	139.160	143.705	295.000	266.558	142.543	146.691	148.210	151.296	252.841	150.316	-8191	255	
2039.763	1	1	0	0	0.29158	0.14613	0.059201	0.27088	0.029469	0.1933	0.30271	0.10176	0.21912	0.19064	0.17181	0.25559	0.19525	0.066942	0.030057	0.26079	-1.9188	-2.8104	-2.7708	-2.725	-2.7583	-2.5792	-2.7979	-2.9292	-2.5396	-2.6792	-2.8583	-2.625	-2.9167	-2.6667	-2.5229	-3.0271	360.868	325.477	135.214	476.931	215.549	134.744	422.488	378.985	349.748	339.773	256.801	457.079	149.527	131.719	474.152	138.194	0.0005958	0.00084345	7.6844e-05	1500.5	6.8693e-06	1.0523e-05	1477.4	465.33	1.4147e-05	1.6538e-05	481.7	167.05	147.82	35.657	9.4391e-06	50.652	0.0087377	0.016646	0.0046334	1483.3	0.00016329	0.00019068	1453.5	465.51	0.00016618	0.00019002	487.25	168.54	150.63	37.387	0.00017514	52.569	259.158	269.064	426.995	140.154	295.426	303.836	139.223	143.941	355.914	277.483	142.531	146.667	148.057	151.213	183.674	149.871	-8191	255	
2039.859	1	1	0	0	0.15635	0.071689	0.11198	0.25256	0.052229	0.17225	0.15821	0.26216	0.17043	0.091808	0.26464	0.099518	0.32482	0.22546	0.14633	0.20342	-1.9	-2.6354	-2.7646	-2.6604	-2.9771	-2.4875	-2.5938	-3.1333	-2.3604	-2.7917	-2.8312	-2.5125	-2.7896	-2.6562	-2.5958	-2.95	271.064	252.065	472.786	453.610	226.218	418.083	131.771	135.123	427.870	252.213	405.042	144.338	457.129	290.281	327.794	438.680	0.00057374	0.00061006	0.00040729	1489.2	9.1551e-06	1.3667e-05	1455.5	462.38	8.16e-06	1.1634e-05	479.58	166.34	146.01	35.543	1.1114e-05	50.372	0.008876	0.016932	0.0046991	1467	0.00016619	0.00019129	1442.3	460.75	0.00016571	0.00019039	486.14	168.14	149.37	37.123	0.00017651	52.677	266.229	213.926	240.998	139.951	379.907	250.904	138.982	143.998	336.719	242.502	142.666	146.724	147.954	151.276	278.231	150.195	-8191	255	
2039.953	1	1	0	0	0.021064	0.10064	0.17003	0.35575	0.10428	0.050551	0.049239	0.22917	0.12446	0.24183	0.11594	0.2212	0.055312	0.26683	0.12348	0.29888	-2.0708	-2.5792	-2.6813	-2.6354	-2.7042	-2.7042	-2.6375	-2.9354	-2.5292	-2.7	-3	-2.7354	-2.7896	-2.725	-2.4562	-3.0417	284.020	347.821	479.636	449.001	360.800	194.069	374.090	457.625	474.899	167.096	132.423	170.163	258.437	472.286	440.175	411.410	0.00057483	0.001007	0.00036386	1483.4	2.6436e-06	8.4545e-06	1463.9	463.76	6.4739e-06	1.241e-05	484.53	168.5	146.8	35.576	4.2649e-06	50.854	0.0089233	0.017044	0.0047652	1467	0.0001663	0.00019546	1446.5	461.39	0.00016871	0.00019152	488.57	169.46	149.89	37.274	0.00017788	52.759	266.278	331.739	273.562	140.069	365.707	253.775	139.587	144.118	256.806	285.681	142.355	146.754	147.587	151.108	324.310	150.227	-8191	255	
2040.049	1	1	0	0	0.31131	0.044838	0.09174	0.27444	0.14164	0.19679	0.090731	0.13299	0.17963	0.13391	0.35354	0.21014	0.17048	0.14426	0.1915	0.49908	-2.2104	-2.5729	-2.6813	-2.7833	-2.8146	-2.8021	-2.4188	-2.8563	-2.5854	-2.4562	-2.9562	-2.4042	-2.6708	-2.6042	-2.3604	-2.9958	237.867	254.184	346.271	477.827	405.260	352.282	458.452	380.927	252.093	359.307	460.844	457.790	275.602	208.063	418.639	392.208	0.00058438	0.0016784	0.00014894	1482.1	1.1258e-05	4.3548e-06	1461.3	460.58	2.0035e-05	6.9783e-06	479.3	166.54	147.04	35.568	8.0609e-06	50.091	0.0090094	0.017359	0.0047608	1466.8	0.00016546	0.00019243	1441.5	461.45	0.00016703	0.00019246	484.6	167.92	150.02	37.239	0.0001788	52.462	266.514	246.630	206.274	140.112	178.948	269.392	139.244	143.965	267.959	288.383	142.595	146.826	147.652	151.479	274.807	150.057	-8191	255	
#DATA ENDS
