BOXY.EXE: ISS Imagent and Oximeter Data Acquisition Program Version 0.80
Ascii Record File

#ACQ INFORMATION
2  Detector Channels 
16  External MUX Channels 
1  Auxiliary Channels 
5000  Waveform (CCF) Frequency (Hz)
1  Waveforms Skipped 
30  Waveforms Averaged 
1  Cycles Averaged 
16  Acquisitions per Waveform 
10.0806  Updata Rate (Hz) 

#FILE INFORMATION
TRUE -- External MUX Channel results are PARSED.
FALSE -- AC DC and Phase are NOT grouped.
TRUE -- Companion Program Settings File CREATED.
FALSE -- AC data not excluded
FALSE -- DC data not excluded
FALSE -- Phase data not excluded
FALSE -- Auxillary Chn. data not excluded
Tab delimiters

#CALIBRATION STATE
TRUE -- Waveform Calibration Values APPLIED.


#AUX CALIBRATION VALUES
Val Type	aux-1	

Term	1.0000e+00	
Factor	0.0000e+00	


#WF CALIBRATION VALUES
A = Detector Channel
Val Type	A-AC1	A-AC2	A-AC3	A-AC4	A-AC5	A-AC6	A-AC7	A-AC8	A-AC9	A-AC10	A-AC11	A-AC12	A-AC13	A-AC14	A-AC15	A-AC16	A-DC1	A-DC2	A-DC3	A-DC4	A-DC5	A-DC6	A-DC7	A-DC8	A-DC9	A-DC10	A-DC11	A-DC12	A-DC13	A-DC14	A-DC15	A-DC16	A-Ph1	A-Ph2	A-Ph3	A-Ph4	A-Ph5	A-Ph6	A-Ph7	A-Ph8	A-Ph9	A-Ph10	A-Ph11	A-Ph12	A-Ph13	A-Ph14	A-Ph15	A-Ph16	

Term	0.00000e+00	0.00000e+00	0.00000e+00	0.00000e+00	0.00000e+00	0.00000e+00	0.00000e+00	0.00000e+00	0.00000e+00	0.00000e+00	0.00000e+00	0.00000e+00	0.00000e+00	0.00000e+00	0.00000e+00	0.00000e+00	0.00000e+00	0.00000e+00	0.00000e+00	0.00000e+00	0.00000e+00	0.00000e+00	0.00000e+00	0.00000e+00	0.00000e+00	0.00000e+00	0.00000e+00	0.00000e+00	0.00000e+00	0.00000e+00	0.00000e+00	0.00000e+00	0.00000e+00	0.00000e+00	0.00000e+00	0.00000e+00	0.00000e+00	0.00000e+00	0.00000e+00	0.00000e+00	0.00000e+00	0.00000e+00	0.00000e+00	0.00000e+00	0.00000e+00	0.00000e+00	0.00000e+00	0.00000e+00	
Factor	1.00000e+00	1.00000e+00	1.00000e+00	1.00000e+00	1.00000e+00	1.00000e+00	1.00000e+00	1.00000e+00	1.00000e+00	1.00000e+00	1.00000e+00	1.00000e+00	1.00000e+00	1.00000e+00	1.00000e+00	1.00000e+00	1.00000e+00	1.00000e+00	1.00000e+00	1.00000e+00	1.00000e+00	1.00000e+00	1.00000e+00	1.00000e+00	1.00000e+00	1.00000e+00	1.00000e+00	1.00000e+00	1.00000e+00	1.00000e+00	1.00000e+00	1.00000e+00	X	X	X	X	X	X	X	X	X	X	X	X	X	X	X	X	

B = Detector Channel
Val Type	B-AC1	B-AC2	B-AC3	B-AC4	B-AC5	B-AC6	B-AC7	B-AC8	B-AC9	B-AC10	B-AC11	B-AC12	B-AC13	B-AC14	B-AC15	B-AC16	B-DC1	B-DC2	B-DC3	B-DC4	B-DC5	B-DC6	B-DC7	B-DC8	B-DC9	B-DC10	B-DC11	B-DC12	B-DC13	B-DC14	B-DC15	B-DC16	B-Ph1	B-Ph2	B-Ph3	B-Ph4	B-Ph5	B-Ph6	B-Ph7	B-Ph8	B-Ph9	B-Ph10	B-Ph11	B-Ph12	B-Ph13	B-Ph14	B-Ph15	B-Ph16	

Term	0.00000e+00	0.00000e+00	0.00000e+00	0.00000e+00	0.00000e+00	0.00000e+00	0.00000e+00	0.00000e+00	0.00000e+00	0.00000e+00	0.00000e+00	0.00000e+00	0.00000e+00	0.00000e+00	0.00000e+00	0.00000e+00	0.00000e+00	0.00000e+00	0.00000e+00	0.00000e+00	0.00000e+00	0.00000e+00	0.00000e+00	0.00000e+00	0.00000e+00	0.00000e+00	0.00000e+00	0.00000e+00	0.00000e+00	0.00000e+00	0.00000e+00	0.00000e+00	-5.53345e+01	-1.27015e+02	-1.27340e+02	-1.81716e+02	-4.47746e+01	-6.81240e+01	-1.57128e+02	-1.62015e+02	-4.21788e+01	-6.97516e+01	-1.72142e+02	-1.70362e+02	-1.80059e+02	-1.77178e+02	-5.13089e+01	-1.50265e+02	
Factor	1.80857e-05	1.60277e-04	4.48908e-05	1.58796e-01	1.75125e-06	1.97752e-06	1.70809e-01	6.08193e-02	1.37557e-06	1.84322e-06	8.34618e-02	2.77414e-02	2.97006e-02	8.95166e-03	1.69608e-06	1.25925e-02	1.30705e-05	2.57931e-05	7.13724e-06	8.02894e-02	2.50439e-07	2.91465e-07	8.12663e-02	3.08636e-02	2.52611e-07	2.90207e-07	4.12275e-02	1.37531e-02	1.53383e-02	4.59568e-03	2.66348e-07	6.24348e-03	X	X	X	X	X	X	X	X	X	X	X	X	X	X	X	X	



#DISTANCE SETTINGS
A = Detector Channel
A-1	A-2	A-3	A-4	A-5	A-6	A-7	A-8	A-9	A-10	A-11	A-12	A-13	A-14	A-15	A-16	

2.5000e+00	3.0000e+00	2.5000e+00	3.0000e+00	2.0000e+00	3.0000e+00	1.5000e+00	3.0000e+00	3.0000e+00	3.0000e+00	3.0000e+00	3.0000e+00	3.0000e+00	3.0000e+00	1.5000e+00	3.0000e+00	

B = Detector Channel
B-1	B-2	B-3	B-4	B-5	B-6	B-7	B-8	B-9	B-10	B-11	B-12	B-13	B-14	B-15	B-16	

1.0000e+01	1.0000e+01	1.0000e+01	1.4400e+00	1.0000e+01	1.0000e+01	1.5100e+00	1.9400e+00	1.0000e+01	1.0000e+01	1.9900e+00	2.4900e+00	2.4100e+00	2.9000e+00	1.0000e+01	2.9800e+00	




#DATA BEGINS
time	group	step	mark	flag	A-AC1	A-AC2	A-AC3	A-AC4	A-AC5	A-AC6	A-AC7	A-AC8	A-AC9	A-AC10	A-AC11	A-AC12	A-AC13	A-AC14	A-AC15	A-AC16	A-DC1	A-DC2	A-DC3	A-DC4	A-DC5	A-DC6	A-DC7	A-DC8	A-DC9	A-DC10	A-DC11	A-DC12	A-DC13	A-DC14	A-DC15	A-DC16	A-Ph1	A-Ph2	A-Ph3	A-Ph4	A-Ph5	A-Ph6	A-Ph7	A-Ph8	A-Ph9	A-Ph10	A-Ph11	A-Ph12	A-Ph13	A-Ph14	A-Ph15	A-Ph16	B-AC1	B-AC2	B-AC3	B-AC4	B-AC5	B-AC6	B-AC7	B-AC8	B-AC9	B-AC10	B-AC11	B-AC12	B-AC13	B-AC14	B-AC15	B-AC16	B-DC1	B-DC2	B-DC3	B-DC4	B-DC5	B-DC6	B-DC7	B-DC8	B-DC9	B-DC10	B-DC11	B-DC12	B-DC13	B-DC14	B-DC15	B-DC16	B-Ph1	B-Ph2	B-Ph3	B-Ph4	B-Ph5	B-Ph6	B-Ph7	B-Ph8	B-Ph9	B-Ph10	B-Ph11	B-Ph12	B-Ph13	B-Ph14	B-Ph15	B-Ph16	aux-1	digaux	

851.548	1	1	0	256	0.18793	0.20057	0.15537	0.32924	0.11138	0.065906	0.25943	0.22616	0.2516	0.20241	0.19198	0.13694	0.11607	0.067594	0.21378	0.16616	-2.4208	-2.6437	-3.1021	-2.85	-2.8083	-3.1458	-2.9396	-3.1542	-2.8146	-2.7333	-3.0854	-2.8375	-2.9646	-3.0625	-2.7583	-3.1042	152.869	109.009	-69.356	-136.949	39.426	-11.236	170.265	-123.833	-44.064	-132.804	-125.876	173.359	196.042	-44.041	-119.116	95.475	0.00018468	0.00032302	0.00013698	1272.7	3.0733e-06	2.9647e-06	1316.9	262.46	2.3454e-06	4.5166e-06	321.82	90.659	72.124	20.849	2.5032e-06	29.234	0.00031056	0.00036954	9.9892e-05	1250.5	4.2538e-06	3.8583e-06	1302.9	260.47	3.966e-06	3.974e-06	319.58	91.089	72.19	21.041	3.9791e-06	29.523	-81.033	-53.115	-19.060	-127.802	-22.181	8.727	-127.940	-120.802	-14.978	0.862	-120.918	-114.358	-114.063	-106.937	30.653	-107.323	-8191	255	
851.669	1	1	0	0	0.28877	0.1311	0.40005	0.1473	0.18302	0.11333	0.30279	0.21114	0.06831	0.19803	0.26544	0.13533	0.28757	0.19214	0.18421	0.13482	-2.6083	-2.7542	-2.9	-2.6708	-2.4708	-3.1312	-3.025	-3	-3.0542	-2.7333	-2.975	-2.7625	-2.6271	-3.0604	-2.625	-2.9313	61.791	-64.733	108.351	148.810	-82.297	-3.484	180.163	197.900	-28.907	178.535	98.527	-104.591	-136.433	24.842	98.713	-119.915	0.00017381	0.00041693	8.2753e-05	1277	2.9431e-06	3.2294e-06	1326.7	262.84	1.9735e-06	3.4877e-06	322.17	90.34	72.176	20.889	2.4165e-06	29.204	0.00031505	0.00037776	0.00010107	1254.2	4.3268e-06	3.9864e-06	1306.7	260.75	4.1365e-06	4.0127e-06	319.98	90.885	72.24	21.065	4.0013e-06	29.476	-78.921	-30.992	-54.106	-127.700	17.807	2.134	-127.846	-120.747	27.117	11.662	-121.038	-114.375	-113.938	-107.011	-17.782	-107.636	-8191	255	
851.765	1	1	0	0	0.23781	0.082351	0.092736	0.3341	0.16	0.18636	0.21991	0.09874	0.17859	0.12321	0.25498	0.39197	0.12594	0.20968	0.10934	0.25983	-2.7208	-2.4688	-3.0958	-3.0083	-2.5938	-2.8646	-2.7958	-2.9062	-3.0604	-2.8896	-3.1979	-2.8688	-2.7229	-2.8396	-2.7792	-2.8896	4.404	-14.454	132.215	207.309	86.610	-38.098	120.718	210.432	-99.893	51.591	166.032	167.924	55.494	68.243	-52.340	40.027	0.00017834	0.000243	6.7988e-05	1278.8	3.053e-06	2.2269e-06	1333.5	262.67	3.6121e-06	2.6845e-06	322.59	90.309	72.314	21.117	1.6447e-06	29.105	0.00031274	0.00036798	9.5907e-05	1253.5	4.3331e-06	4.1109e-06	1307	260.4	4.1875e-06	4.0798e-06	319.71	90.751	72.201	21.095	3.8515e-06	29.405	-83.297	-58.291	-82.732	-127.778	12.206	-6.519	-127.595	-120.660	21.420	-1.496	-120.963	-114.427	-113.863	-107.167	18.599	-107.358	-8191	255	
851.861	1	1	0	0	0.034906	0.2395	0.055788	0.13071	0.13088	0.28598	0.18476	0.13908	0.060288	0.251	0.013867	0.14285	0.24996	0.2634	0.12259	0.11672	-2.7062	-2.5	-2.9271	-3.0896	-2.9104	-3.1854	-3.0292	-2.9333	-3.0771	-2.6813	-3.1688	-2.9146	-2.5938	-3.1875	-2.8937	-2.8438	77.943	175.646	-8.460	174.365	178.711	100.333	122.633	-50.967	26.387	180.883	83.309	-94.553	142.155	219.817	116.564	-113.498	0.00018751	0.0003097	7.4279e-05	1278	2.7102e-06	5.1658e-06	1330.3	264.37	2.5968e-06	3.7637e-06	321.62	90.41	72.007	20.899	3.6733e-06	29.129	0.00030778	0.00036116	0.00010053	1252.6	4.1776e-06	4.0623e-06	1305.1	260.11	4.2544e-06	4.1596e-06	319.02	90.652	71.961	21.024	3.887e-06	29.378	-83.390	-57.909	-79.448	-127.729	24.480	12.476	-127.566	-120.693	-13.680	-0.319	-121.180	-114.520	-113.446	-107.110	22.730	-107.268	-8191	255	
851.958	1	1	0	0	0.055554	0.076905	0.1794	0.10577	0.15489	0.27041	0.124	0.20205	0.099366	0.022181	0.095561	0.23168	0.17538	0.29579	0.17465	0.16037	-2.6792	-2.4979	-2.5312	-3.2062	-2.6562	-3.0146	-3.0125	-2.7625	-3.0271	-2.8125	-3.0729	-3.1688	-2.6521	-2.9792	-2.7313	-2.6521	-28.297	182.951	24.974	141.583	143.693	182.631	151.752	218.169	124.334	-14.026	155.753	-89.223	38.725	107.241	48.900	85.668	0.00018364	0.00033124	5.1257e-05	1273.6	3.0972e-06	3.8674e-06	1325.2	261.81	2.928e-06	3.8115e-06	320.99	90.599	71.644	20.908	3.7232e-06	29.066	0.00031176	0.0003632	9.836e-05	1250	4.306e-06	4.0805e-06	1303.1	259.64	3.907e-06	4.0266e-06	318.31	90.603	72.001	21.022	3.7977e-06	29.378	-87.246	-54.892	-40.246	-127.615	43.682	-2.312	-127.768	-120.776	-17.770	13.122	-120.822	-114.118	-113.904	-106.877	-3.582	-107.425	-8191	255	
852.054	1	1	0	0	0.14379	0.1717	0.15757	0.16102	0.15632	0.11348	0.3633	0.3402	0.064503	0.059455	0.068161	0.022952	0.40194	0.38338	0.085478	0.16815	-2.7583	-2.6625	-2.8417	-3.1375	-2.6396	-3.0208	-3.1854	-2.7958	-3.2833	-2.9104	-2.775	-3.0854	-2.6146	-3.1021	-2.9292	-2.3958	220.904	100.365	67.640	172.049	161.794	48.984	122.981	129.138	64.406	-24.014	-100.574	-7.711	89.840	-119.325	-22.491	17.856	0.00017973	0.0003262	9.6665e-05	1268.3	3.3116e-06	5.0086e-06	1321.7	262.79	2.1754e-06	3.3249e-06	323.56	90.058	71.804	20.942	2.3638e-06	29.202	0.00029313	0.00037341	0.00010304	1248.8	4.2308e-06	3.922e-06	1301.6	259.88	4.0055e-06	3.9202e-06	319.23	90.494	71.893	21.031	3.7827e-06	29.388	-78.726	-54.344	-35.399	-127.678	21.074	24.104	-127.703	-120.916	19.546	4.743	-120.770	-114.484	-113.916	-106.435	38.782	-107.429	-8191	255	
852.148	1	1	0	0	0.13361	0.22683	0.045974	0.24474	0.17488	0.099765	0.2995	0.19794	0.11571	0.091776	0.31155	0.1103	0.12194	0.12972	0.17611	0.19257	-2.5667	-2.425	-2.6562	-3.0979	-2.5521	-2.8125	-3.1604	-2.7	-3.3021	-2.8354	-2.7938	-3.2646	-2.7208	-3.0271	-2.8708	-2.7333	71.893	-74.345	50.817	131.278	25.321	207.106	120.726	161.274	-13.997	44.466	-76.643	50.905	-132.233	110.220	-14.088	121.014	0.00020277	0.00030705	8.8154e-05	1272.9	2.2338e-06	3.0771e-06	1322.4	262.12	2.3231e-06	4.7373e-06	321.83	89.955	71.619	20.813	3.6031e-06	29.004	0.00031549	0.00036873	9.6665e-05	1249	4.2955e-06	3.8552e-06	1301.2	259.23	3.8649e-06	4.0169e-06	318.82	90.21	71.67	21.02	4.0191e-06	29.315	-81.941	-46.686	-24.724	-127.580	24.576	17.306	-127.590	-120.879	-19.673	20.757	-120.618	-114.402	-114.021	-106.985	0.084	-107.354	-8191	255	
852.269	1	1	0	0	0.23076	0.24045	0.066197	0.073563	0.16231	0.17026	0.013335	0.24047	0.16221	0.16598	0.10918	0.16178	0.27732	0.13343	0.19548	0.15581	-2.625	-2.7938	-2.7625	-3.2812	-2.6208	-2.6583	-3.225	-2.6604	-2.8521	-2.9958	-2.8396	-3.0479	-2.8229	-2.7	-2.9813	-2.6312	-86.291	-76.120	36.897	-69.442	29.776	-80.963	1.601	-130.595	30.656	-72.686	-59.044	-127.236	51.209	191.409	90.059	77.865	0.00017835	0.0003476	7.3448e-05	1274.2	2.0618e-06	3.5264e-06	1323.5	260.93	3.2997e-06	3.1826e-06	320.15	89.398	72.209	20.993	2.3839e-06	29.27	0.00029934	0.00035449	9.4241e-05	1246.7	4.0717e-06	3.9208e-06	1299.4	258.95	4.0912e-06	4.2092e-06	317.78	90.164	71.848	21.025	4.0135e-06	29.355	-86.236	-41.272	-39.863	-127.741	2.030	12.489	-127.632	-120.576	4.276	17.311	-121.004	-114.128	-114.067	-107.095	30.515	-107.414	-8191	255	
852.365	1	1	0	0	0.19489	0.12377	0.17654	0.041379	0.26555	0.14131	0.15453	0.10805	0.1435	0.22175	0.17662	0.069867	0.11294	0.31221	0.087886	0.16763	-2.7646	-2.9958	-2.6146	-3.2562	-2.6562	-2.8271	-3.1958	-2.8042	-2.7458	-2.7771	-2.6667	-3.0125	-2.8146	-2.75	-3.1688	-2.8688	186.726	-123.535	-63.555	54.907	88.504	214.720	49.868	193.598	30.791	-3.877	105.274	131.454	183.390	-133.516	20.556	-11.578	0.0001794	0.00038116	0.00012515	1270.6	3.3646e-06	2.7549e-06	1323	261.35	2.9319e-06	4.9149e-06	320.24	89.301	71.689	20.769	3.3018e-06	29.026	0.0002976	0.00034686	0.00010098	1245.9	4.246e-06	4.1819e-06	1297.6	258.92	3.8718e-06	4.1391e-06	317.41	90.181	71.559	20.953	3.7333e-06	29.292	-83.098	-50.440	-48.732	-127.766	37.769	2.961	-127.731	-120.563	15.247	22.519	-120.977	-114.575	-113.888	-106.946	6.426	-107.352	-8191	255	
852.461	1	1	0	0	0.15152	0.16494	0.066264	0.14113	0.12431	0.23479	0.25441	0.24961	0.09924	0.21623	0.3278	0.12429	0.20556	0.014514	0.09856	0.16789	-2.6771	-3.0729	-2.6146	-3.2375	-2.9396	-2.7604	-3.2958	-2.7521	-3.1875	-2.9813	-2.8729	-3.1021	-2.8646	-2.8292	-3.1104	-2.675	195.990	215.185	-58.095	204.884	136.224	72.618	169.249	206.951	-121.502	18.986	185.875	-131.135	-128.618	165.213	-108.514	164.273	0.00019166	0.00041111	0.0001013	1263.3	3.7771e-06	2.4097e-06	1314.7	259.85	1.9577e-06	3.9843e-06	319.59	89.389	71.014	20.738	2.8972e-06	28.852	0.00030961	0.00035412	9.5416e-05	1239.3	4.1625e-06	4.0568e-06	1293.1	257.75	3.7818e-06	3.8845e-06	316.91	89.962	71.281	20.908	3.7317e-06	29.161	-81.491	-30.384	-52.876	-127.802	6.705	24.880	-127.666	-120.845	-10.003	27.075	-120.911	-114.358	-113.881	-107.139	-7.397	-107.511	-8191	255	
852.557	1	1	0	0	0.32475	0.023659	0.19891	0.20135	0.19358	0.080629	0.21235	0.34301	0.26388	0.12491	0.15107	0.11526	0.097318	0.13808	0.072286	0.39925	-2.5625	-3.2271	-2.6229	-3.2625	-2.9167	-2.6271	-3.2	-2.7292	-2.7438	-2.9938	-2.5521	-3.0438	-2.7604	-2.35	-3.1229	-2.8958	31.619	159.314	-2.490	184.115	220.862	-60.901	113.633	139.782	-80.854	9.047	182.841	215.522	170.579	82.216	52.727	162.431	0.00017412	0.00026185	7.4614e-05	1248.6	2.9229e-06	3.4947e-06	1284.2	257.31	3.378e-06	2.7448e-06	315.35	88.238	70.428	20.534	3.4057e-06	28.503	0.00030157	0.0003502	0.0001012	1234.2	3.8442e-06	3.8121e-06	1282.6	256.46	3.8281e-06	3.6772e-06	315.08	89.426	70.993	20.825	3.7772e-06	29.044	-79.759	-46.041	-23.110	-128.033	-16.984	22.455	-127.751	-120.808	-3.622	9.607	-121.295	-114.533	-113.954	-107.270	21.732	-107.172	-8191	255	
852.629	1	1	0	0	0.20482	0.12648	0.11404	0.3292	0.15595	0.14345	0.29744	0.19187	0.13328	0.05651	0.048526	0.077997	0.2524	0.17813	0.10543	0.27785	-2.1833	-3.0646	-2.6063	-3.1167	-2.9646	-2.725	-3.1646	-3.0271	-2.8417	-3.1083	-2.9583	-2.8396	-3.0625	-2.5042	-3.0708	-2.8812	-32.175	-7.657	-40.138	214.066	164.683	219.359	170.257	13.303	95.220	86.604	-106.026	127.346	91.296	-138.059	78.819	218.579	0.00017683	0.00037212	6.4038e-05	1240.8	2.2182e-06	2.2865e-06	1280.9	255.19	2.4512e-06	2.4835e-06	315.3	88.211	70.142	20.499	3.5653e-06	28.449	0.00030049	0.00033123	9.9104e-05	1230.3	3.923e-06	3.8935e-06	1279.3	255.8	3.897e-06	3.7104e-06	314.5	89.487	70.969	20.773	3.7034e-06	29.079	-81.707	-28.038	-25.647	-127.918	20.340	24.650	-128.004	-120.903	8.752	19.426	-121.009	-114.411	-114.028	-106.972	6.768	-107.816	-8191	255	
852.749	1	1	0	0	0.2204	0.10082	0.022246	0.24713	0.13649	0.35758	0.5554	0.009301	0.19429	0.15124	0.14614	0.3194	0.19692	0.11219	0.24631	0.14438	-2.4896	-3.2	-2.6104	-3.0729	-2.9437	-2.4458	-3.25	-2.8229	-2.7333	-3.1688	-2.9625	-2.7354	-2.8958	-2.6229	-2.9688	-3.1417	72.179	-72.606	-3.262	211.080	-21.266	9.561	119.331	-78.702	210.961	148.161	182.834	174.183	151.189	128.229	163.002	-86.788	0.00018879	0.00031403	5.6079e-05	1243.5	2.5475e-06	3.9926e-06	1297.4	257.23	2.4145e-06	3.092e-06	314.52	88.786	70.648	20.507	3.4014e-06	28.62	0.00029485	0.00034337	9.6041e-05	1231.2	4.0931e-06	3.6949e-06	1284.6	256.66	3.6702e-06	3.6548e-06	315.14	89.701	71.168	20.815	3.5696e-06	29.059	-85.270	-39.867	-60.017	-127.895	26.915	23.650	-127.997	-121.065	-12.546	6.346	-121.094	-114.666	-114.135	-107.016	26.864	-107.587	-8191	255	
852.846	1	1	0	0	0.12574	0.10553	0.20395	0.067157	0.17847	0.23213	0.18136	0.082774	0.041033	0.37567	0.04654	0.12857	0.1141	0.23134	0.16707	0.11604	-2.3583	-2.925	-2.5667	-3.075	-3.0687	-2.6646	-3.1625	-2.9375	-2.6083	-3.025	-2.975	-2.9354	-2.9458	-2.5604	-3.15	-3.1354	-137.713	-110.087	92.988	-75.272	90.078	110.526	170.791	133.193	-79.719	-107.415	129.535	-133.496	-85.025	166.318	198.166	140.834	0.00018584	0.00030592	7.5089e-05	1246.6	3.1403e-06	2.1423e-06	1294.3	258.22	2.5317e-06	4.5382e-06	315.71	88.517	70.699	20.554	3.8351e-06	28.829	0.00029376	0.00032553	9.2457e-05	1232.5	3.803e-06	3.9105e-06	1284.2	256.57	3.9207e-06	3.6354e-06	315.1	89.595	71.173	20.847	3.6701e-06	29.209	-79.338	-45.722	-41.301	-127.785	-34.671	13.264	-127.797	-120.740	0.593	17.580	-121.225	-114.321	-113.956	-107.170	36.884	-107.647	-8191	255	
852.942	1	1	0	0	0.080635	0.06154	0.054511	0.31049	0.10924	0.22021	0.076115	0.13703	0.059995	0.085017	0.14901	0.06927	0.051603	0.28945	0.21699	0.090122	-2.1792	-2.9604	-2.6813	-2.9313	-3.0292	-2.8792	-3.1312	-2.9292	-2.6458	-2.8833	-2.6104	-2.9479	-3.0958	-2.6937	-2.7083	-3.0104	-33.501	89.692	-110.588	161.181	184.043	-70.847	110.374	-59.024	140.854	-83.933	-81.398	157.742	-113.317	91.618	-84.912	-109.239	0.00019572	0.00032578	6.2869e-05	1250.6	3.7474e-06	3.6376e-06	1295	258.7	2.6133e-06	4.3684e-06	316.95	88.71	70.906	20.68	4.3242e-06	28.809	0.00029485	0.00032875	8.8487e-05	1230.8	3.8969e-06	3.749e-06	1282.5	256.77	3.7671e-06	3.442e-06	315.46	89.494	71.055	20.904	3.6223e-06	29.178	-81.576	-48.260	-74.208	-127.698	3.645	18.004	-127.806	-120.765	-3.430	10.880	-121.001	-114.843	-114.394	-106.891	3.555	-107.390	-8191	255	
853.038	1	1	0	0	0.12081	0.10377	0.20335	0.29602	0.22523	0.2246	0.18187	0.22206	0.068403	0.069269	0.20727	0.12348	0.19531	0.072106	0.099448	0.22719	-2.1729	-3.0042	-2.8167	-2.6562	-3.0792	-3.0333	-3.0812	-2.9938	-2.5833	-2.9458	-2.9417	-2.7229	-3.1979	-2.6188	-2.6937	-2.9146	-96.374	135.063	166.798	135.650	111.444	43.051	210.842	161.860	122.669	55.931	-113.980	-7.689	-90.784	199.108	121.376	196.156	0.00020216	0.00032442	7.0389e-05	1248.4	2.4323e-06	4.5334e-06	1302.3	258.28	2.5073e-06	4.2479e-06	316.09	89.295	70.814	20.563	3.5448e-06	28.762	0.00029362	0.00032515	9.3319e-05	1229.5	3.8166e-06	3.721e-06	1282.9	256.25	3.7555e-06	3.6179e-06	315.39	89.832	71.138	20.821	3.7461e-06	29.257	-83.889	-60.489	-61.342	-127.626	26.339	28.609	-127.772	-120.933	-1.139	15.376	-120.889	-114.355	-113.941	-106.873	1.293	-107.484	-8191	255	
853.157	1	1	0	0	0.11283	0.17583	0.10543	0.27983	0.24978	0.2951	0.24444	0.094064	0.14637	0.34771	0.27405	0.045234	0.087043	0.28246	0.12496	0.12573	-2.1708	-2.7625	-2.95	-2.9375	-3.1042	-2.7417	-2.9354	-3.1	-2.4542	-2.9875	-3.1271	-2.7042	-2.8958	-2.6271	-2.6167	-3.2333	96.150	86.807	67.675	105.869	-19.805	210.511	214.875	92.739	-115.358	14.160	167.935	97.200	-0.393	-88.809	121.383	-114.552	0.0001851	0.0002908	7.9565e-05	1248.4	3.7283e-06	4.3621e-06	1299	257.14	2.7046e-06	4.0968e-06	317.1	89.372	70.764	20.65	4.42e-06	28.686	0.00029558	0.00030592	9.0925e-05	1230.2	3.6653e-06	3.7812e-06	1282.1	256.13	3.7786e-06	3.7001e-06	315.29	89.778	70.978	20.866	3.7095e-06	29.163	-79.103	-48.318	-17.746	-127.685	15.784	3.552	-127.629	-121.026	-9.325	-13.044	-121.127	-114.285	-114.054	-106.826	14.013	-107.596	-8191	255	
853.253	1	1	0	0	0.18132	0.15273	0.07536	0.52266	0.13492	0.11981	0.35015	0.1059	0.057266	0.20111	0.085013	0.15997	0.087036	0.098606	0.032809	0.23302	-2.3937	-3.0625	-2.8146	-2.7562	-2.9604	-2.9354	-3.0646	-3.0208	-2.5917	-2.9375	-3.0812	-2.5896	-3.0625	-3.0625	-2.6521	-3.0917	143.468	132.225	103.850	183.488	189.869	200.738	171.660	-10.822	154.365	-101.386	178.336	159.633	32.791	149.961	-56.286	208.435	0.00019174	0.0003462	0.00013194	1251.5	2.8853e-06	4.1479e-06	1305.1	258.91	2.2859e-06	2.3698e-06	316.08	88.828	70.632	20.628	3.2632e-06	28.925	0.00030114	0.00033085	9.4702e-05	1232.2	3.8281e-06	3.7138e-06	1285.5	257.29	3.8297e-06	3.8416e-06	315.1	89.573	71.109	20.887	3.8188e-06	29.255	-85.899	-50.701	-44.268	-127.673	6.224	19.034	-127.570	-120.884	-17.329	-0.607	-121.087	-114.493	-113.944	-107.505	-6.544	-107.658	-8191	255	
853.349	1	1	0	0	0.063523	0.16017	0.17565	0.35487	0.023133	0.089183	0.25351	0.13534	0.089652	0.10705	0.044845	0.17797	0.19264	0.16475	0.11911	0.28067	-2.125	-2.9854	-3.0563	-2.6063	-3.0563	-2.7708	-2.8417	-3.0312	-2.8646	-2.9021	-3.1104	-2.5229	-2.9792	-2.7771	-2.7812	-2.9646	85.269	-90.535	-92.048	160.995	191.417	-73.302	171.277	163.578	-121.025	-98.164	20.544	184.093	26.146	-103.968	4.937	172.048	0.00017777	0.00024506	7.4156e-05	1248.8	3.2954e-06	3.4165e-06	1308.8	259.31	3.9009e-06	4.7009e-06	316.65	89.306	70.694	20.934	4.0029e-06	28.923	0.00029104	0.00031871	9.6873e-05	1230.4	3.8338e-06	3.7611e-06	1289.2	256.93	3.8444e-06	3.6179e-06	315.45	89.834	71.173	21.02	3.6018e-06	29.277	-80.491	-20.550	-26.117	-127.745	23.503	-4.158	-127.791	-120.854	-5.165	-10.667	-120.995	-114.597	-114.066	-107.362	23.289	-107.953	-8191	255	
853.445	1	1	0	0	0.087362	0.10242	0.1288	0.20276	0.16074	0.02287	0.3099	0.16283	0.2606	0.15929	0.054443	0.16671	0.16124	0.16314	0.12057	0.12536	-2.4396	-2.8146	-3.1312	-2.6937	-3.0271	-2.9813	-2.8563	-3.1771	-2.9271	-2.6562	-3.0083	-2.5667	-2.7354	-2.8312	-2.5458	-3.0542	147.203	219.178	9.058	54.477	200.647	-3.982	180.994	191.029	142.903	152.858	-82.127	-7.553	-122.629	181.644	136.537	-94.572	0.00017454	0.00038614	9.4161e-05	1250.9	3.8167e-06	2.6839e-06	1305.4	259.68	3.4284e-06	3.9921e-06	318.74	89.601	71.21	20.729	1.9814e-06	28.966	0.00029411	0.00035723	9.4539e-05	1234.5	3.9846e-06	3.6615e-06	1288.9	257.51	3.9623e-06	3.9257e-06	316.02	90.177	71.535	21.008	3.7838e-06	29.317	-82.584	-54.962	-39.677	-127.875	21.248	6.465	-127.767	-120.524	5.837	24.520	-121.003	-114.135	-113.753	-107.189	14.591	-107.578	-8191	255	
853.541	1	1	0	0	0.072738	0.22746	0.080262	0.22467	0.039848	0.088842	0.28847	0.19855	0.043099	0.14046	0.25117	0.24233	0.16349	0.23765	0.24021	0.16663	-2.5333	-2.6771	-3.1604	-2.8792	-2.7583	-2.8667	-2.6083	-2.9437	-2.5417	-2.475	-3.025	-2.7125	-2.7396	-3.15	-2.6833	-3.1	177.987	25.113	1.405	-138.460	107.762	-50.854	174.663	217.355	203.680	31.688	156.946	213.575	20.157	-83.730	90.601	164.352	0.00021533	0.00035299	0.0001101	1258.7	3.6011e-06	4.3072e-06	1311.5	258.19	2.2982e-06	3.747e-06	318.92	89.582	71.095	20.856	4.3508e-06	28.96	0.00029098	0.00034568	9.1416e-05	1238	4.1135e-06	4.0271e-06	1292.7	258.03	3.8271e-06	3.8211e-06	317.5	90.251	71.617	21.067	3.8815e-06	29.384	-85.431	-46.132	-65.008	-127.758	21.748	22.339	-127.788	-120.742	3.228	-0.416	-121.071	-114.556	-113.814	-107.473	29.047	-107.528	-8191	255	
853.638	1	1	0	0	0.070554	0.10989	0.21896	0.46417	0.12372	0.037183	0.1772	0.12553	0.31971	0.24545	0.30403	0.19629	0.076956	0.083914	0.2713	0.1642	-2.5146	-2.8604	-3.1792	-2.9792	-2.7979	-2.9208	-2.8438	-3.0521	-3.0042	-2.575	-3.0042	-2.5104	-2.825	-3.0458	-2.8021	-2.9896	85.816	186.366	92.646	-127.754	200.463	-27.751	134.320	146.997	108.339	73.937	-108.151	191.657	45.578	183.787	-111.425	131.119	0.00017912	0.00024519	4.774e-05	1264.6	1.4604e-06	3.967e-06	1308.8	258.79	3.2141e-06	4.2547e-06	317.8	89.23	71.119	20.905	3.7455e-06	28.966	0.00028684	0.0003611	9.274e-05	1243.6	4.0274e-06	4.0222e-06	1293.8	258.56	3.8492e-06	3.7993e-06	317.37	90.288	71.771	21.095	3.7627e-06	29.484	-81.992	-60.611	-16.278	-127.776	7.158	2.154	-127.599	-120.978	7.852	8.779	-120.814	-114.409	-113.907	-107.567	7.374	-107.506	-8191	255	
853.758	1	1	0	0	0.26008	0.13317	0.051499	0.19848	0.2943	0.13592	0.091665	0.15367	0.28641	0.033336	0.080727	0.17021	0.10632	0.040799	0.10688	0.076335	-2.3458	-2.5208	-3.05	-2.9271	-2.6312	-3.1708	-2.8167	-3.0917	-2.9875	-2.6354	-3.125	-2.9042	-2.8063	-3.1708	-2.7604	-2.7604	-37.036	13.364	210.710	-130.911	-19.073	-27.678	146.040	197.402	-63.607	114.850	-23.098	150.586	135.610	-124.360	-136.145	-88.775	0.00018554	0.00037849	6.9936e-05	1262.7	2.7884e-06	3.598e-06	1305.3	262.05	2.6253e-06	5.2812e-06	319.95	89.961	71.042	20.925	2.2884e-06	29.173	0.00029703	0.00034332	9.1327e-05	1241.5	3.9152e-06	3.7071e-06	1292.9	259.25	3.8081e-06	3.76e-06	317.86	90.717	71.924	21.091	3.6445e-06	29.484	-80.226	-48.693	-16.846	-127.830	-11.156	-12.326	-127.615	-120.875	-2.768	0.334	-120.856	-114.312	-114.029	-107.307	30.497	-107.792	-8191	255	
853.854	1	1	0	0	0.087946	0.10554	0.10263	0.23962	0.085397	0.28813	0.19124	0.18805	0.072438	0.16389	0.19571	0.12961	0.052692	0.10622	0.19771	0.23085	-2.5062	-2.5854	-2.8021	-2.8937	-2.6875	-3.1542	-2.7104	-2.6958	-3.0458	-2.6125	-3.1562	-2.8583	-2.1729	-3.0396	-2.7812	-2.9042	-18.156	-96.274	161.628	208.220	59.858	-98.877	157.250	-118.733	-64.891	142.833	169.499	-46.268	180.381	-103.419	114.640	-97.478	0.0001911	0.00021002	9.5149e-05	1258.5	2.3859e-06	3.7146e-06	1313.8	260.29	2.9768e-06	2.6203e-06	318.38	89.748	71.749	20.879	2.9434e-06	29.16	0.00029447	0.00032257	9.0063e-05	1240.1	4.1129e-06	3.4824e-06	1292.4	259.15	3.7455e-06	3.7987e-06	317.38	90.619	71.942	21.116	3.4908e-06	29.376	-78.846	-16.114	-61.128	-127.909	14.820	27.277	-127.649	-120.863	3.129	7.756	-121.175	-114.438	-113.927	-107.210	25.898	-107.348	-8191	255	
853.926	1	1	0	0	0.16252	0.12346	0.14643	0.2053	0.12426	0.078513	0.11565	0.18001	0.15117	0.091762	0.23333	0.19649	0.12105	0.3101	0.037685	0.24424	-2.5687	-2.3187	-2.8875	-3.0229	-2.6292	-3.0021	-3.0271	-2.8125	-3.0146	-2.6854	-3.1229	-3.1542	-2.8021	-3.0125	-3.0042	-2.8583	135.075	113.791	188.744	-82.366	67.917	138.666	118.166	177.148	-6.117	-111.494	99.239	181.042	185.632	195.399	215.399	88.730	0.00018767	0.00037489	8.1296e-05	1260.4	3.3016e-06	4.4048e-06	1304.5	259.91	2.5759e-06	2.9447e-06	319.15	89.739	71.535	20.884	4.005e-06	28.901	0.00028763	0.00034531	8.6703e-05	1238.9	3.9324e-06	3.5468e-06	1289.3	258.62	3.8765e-06	3.6179e-06	317.21	90.325	71.765	21.088	3.6273e-06	29.44	-83.941	-47.566	-55.167	-127.798	29.654	20.947	-127.848	-120.638	-11.314	6.470	-120.819	-114.895	-113.969	-107.143	22.581	-107.713	-8191	255	
854.047	1	1	0	0	0.17408	0.06636	0.20662	0.22475	0.045294	0.10962	0.073895	0.068164	0.2885	0.075314	0.13814	0.23226	0.02607	0.21902	0.19937	0.076892	-2.4833	-2.6937	-2.7333	-3.05	-2.7417	-2.9833	-3.1167	-2.7125	-2.8333	-2.5687	-2.925	-3.0979	-2.6813	-3.0146	-2.7917	-2.7438	77.230	-132.849	32.126	204.039	-3.712	-122.972	164.945	166.596	197.000	-126.152	136.323	80.363	0.153	220.643	-71.561	-61.254	0.0002034	0.00022426	7.2094e-05	1253.9	3.4136e-06	3.2378e-06	1302.4	260.6	3.4018e-06	3.1429e-06	318.79	89.814	70.974	20.844	3.2308e-06	29.027	0.00029036	0.00033295	9.3052e-05	1236.3	4.1161e-06	3.4897e-06	1289	259.22	3.6902e-06	3.6506e-06	318.28	90.331	71.815	21.069	3.6151e-06	29.437	-78.715	-30.077	-43.716	-127.928	7.908	9.363	-127.676	-120.860	11.410	32.290	-121.066	-114.565	-113.957	-106.932	16.991	-107.376	-8191	255	
854.141	1	1	0	0	0.052997	0.12665	0.10347	0.37947	0.20046	0.22565	0.25632	0.13989	0.060181	0.11544	0.06557	0.12513	0.13226	0.3768	0.11906	0.30633	-2.5042	-2.4229	-2.5792	-3.3563	-2.7083	-3.0104	-2.9896	-2.5833	-3.1042	-2.7958	-2.6854	-3.1188	-2.8292	-2.8333	-2.7792	-2.6021	140.677	46.500	-83.535	207.293	135.420	99.964	149.730	164.567	113.675	121.117	141.366	-120.536	-87.206	138.509	210.056	121.452	0.0001782	0.00030388	9.8243e-05	1257.2	2.4761e-06	4.2235e-06	1306.7	259.36	1.9534e-06	3.9008e-06	319.18	89.557	71.431	20.872	1.2904e-06	29.055	0.00027936	0.00033472	9.0643e-05	1237.3	4.1375e-06	3.6658e-06	1291.1	258.67	3.6192e-06	3.546e-06	317.77	90.558	71.997	21.13	3.5569e-06	29.495	-82.932	-70.821	-19.162	-127.661	36.539	22.852	-127.761	-120.855	30.932	17.155	-120.845	-114.559	-113.942	-107.282	34.411	-107.569	-8191	255	
854.237	1	1	0	0	0.38954	0.1098	0.12834	0.14383	0.061684	0.090317	0.30543	0.081777	0.044164	0.23232	0.096743	0.14408	0.08776	0.1664	0.084844	0.21256	-2.7417	-2.7479	-2.7188	-3.0187	-2.5083	-3.0104	-3.3104	-2.7792	-2.9771	-2.8458	-2.8708	-3.2979	-2.7812	-2.9104	-3.0229	-2.4604	6.999	217.408	211.531	202.528	74.296	126.545	178.062	-86.561	42.216	-6.126	83.027	169.298	102.455	155.100	-134.035	47.811	0.00017724	0.00035742	7.0217e-05	1239.7	3.6857e-06	5.4912e-06	1283.8	254.64	2.3967e-06	2.6193e-06	313.56	88.537	70.514	20.55	2.9044e-06	28.588	0.00028965	0.00032134	8.8561e-05	1235.3	4.0242e-06	3.4575e-06	1286.7	257.63	3.6239e-06	3.8779e-06	316.72	90.189	71.59	21.027	3.5885e-06	29.291	-82.470	-33.702	-45.576	-127.911	19.126	14.870	-128.063	-120.913	-6.449	11.592	-121.329	-114.758	-114.413	-107.842	34.875	-107.874	-8191	255	
854.333	1	1	0	0	0.068613	0.1031	0.31797	0.062139	0.11843	0.22898	0.27232	0.1728	0.035414	0.40382	0.24449	0.13652	0.015428	0.20988	0.20455	0.10528	-2.4833	-2.8479	-2.7625	-3.2771	-2.7896	-2.8583	-3.1708	-2.7354	-3.0667	-2.7042	-2.6188	-2.9917	-2.8	-2.8979	-3.1063	-2.6792	127.154	133.952	179.180	100.948	72.109	180.871	194.770	204.396	165.869	100.988	26.670	199.778	-112.034	190.142	41.643	26.305	0.00018317	0.00023508	5.8067e-05	1234.3	3.4351e-06	4.1604e-06	1285	255.78	3.1097e-06	1.5585e-06	314.14	88.82	70.014	20.55	3.9328e-06	28.579	0.00028671	0.00034896	9.2398e-05	1234.5	4.0216e-06	3.8886e-06	1287.1	257.78	3.6097e-06	3.7987e-06	316.43	90.336	71.62	21.017	3.5391e-06	29.394	-85.879	-23.821	-73.172	-128.274	-6.621	5.824	-128.074	-121.043	-5.407	16.283	-121.485	-114.831	-113.919	-107.689	10.950	-107.672	-8191	255	
854.454	1	1	0	0	0.11933	0.17975	0.13899	0.33286	0.2829	0.18056	0.22943	0.18255	0.1681	0.066971	0.19182	0.20533	0.17905	0.20057	0.23543	0.1827	-2.4813	-2.7687	-2.4604	-3.3187	-2.7917	-2.8063	-3.0708	-2.4792	-2.8479	-2.9813	-2.6979	-3.1604	-2.7438	-2.8292	-2.9958	-2.9208	-96.503	34.917	147.873	201.399	-104.254	86.434	138.646	216.895	75.378	74.828	161.913	-102.745	-106.762	89.728	141.915	58.394	0.00020444	0.00033224	8.2025e-05	1237.8	2.9302e-06	2.0804e-06	1292.1	257.06	2.663e-06	3.4041e-06	316.09	88.808	70.335	20.696	1.7006e-06	28.92	0.0002982	0.00033553	9.4494e-05	1235.5	3.79e-06	3.6609e-06	1290	258.33	3.7044e-06	3.5423e-06	317.45	90.504	71.629	21.098	3.4353e-06	29.486	-86.445	-50.355	-48.268	-128.107	14.993	11.212	-128.174	-120.808	-17.483	-4.752	-121.227	-114.813	-114.349	-107.552	32.811	-108.013	-8191	255	
854.526	1	1	0	0	0.19221	0.10578	0.13098	0.17135	0.11474	0.10503	0.070942	0.31584	0.186	0.13043	0.20327	0.12801	0.15987	0.11473	0.21034	0.39303	-2.3812	-2.8729	-2.4437	-3.1042	-2.8521	-2.8	-3.1813	-2.6583	-2.8917	-2.9583	-2.8312	-2.9833	-2.7833	-2.8021	-2.95	-2.8458	156.625	-76.230	-31.431	70.729	15.456	104.165	127.299	146.810	22.624	57.068	180.405	163.578	124.178	-73.800	-45.075	120.449	0.00019123	0.00042829	9.6296e-05	1247.4	3.0359e-06	4.7746e-06	1296.2	257.06	2.2841e-06	3.5379e-06	317.21	89.163	70.475	20.614	3.7036e-06	28.695	0.00028916	0.00034154	9.1907e-05	1237	3.9616e-06	3.6038e-06	1289.3	258.72	3.6839e-06	3.7914e-06	317.72	90.384	71.672	21.017	3.7322e-06	29.366	-84.126	-27.252	-48.080	-128.188	36.859	15.942	-128.026	-120.860	6.064	5.341	-121.021	-114.842	-113.941	-107.324	22.140	-108.138	-8191	255	
854.622	1	1	0	0	0.014235	0.25409	0.18219	0.15994	0.077137	0.1422	0.16566	0.16681	0.24851	0.20282	0.13083	0.087097	0.039547	0.12589	0.26494	0.12791	-2.4208	-2.8208	-2.45	-3.1833	-2.8042	-2.5146	-3.1521	-2.7417	-2.6875	-2.8167	-2.7875	-2.9313	-2.8542	-2.6208	-2.9083	-2.6771	175.679	-44.166	-48.779	176.033	2.509	180.016	177.578	113.171	51.319	81.418	124.634	-118.653	204.053	-96.280	26.593	48.192	0.00019421	0.00020541	6.3082e-05	1247.6	2.1064e-06	4.4831e-06	1299.4	256.74	2.4725e-06	3.2677e-06	315.28	88.846	70.629	20.818	3.1118e-06	28.753	0.00029215	0.00032838	9.271e-05	1237	3.874e-06	3.8419e-06	1292.8	257.91	3.6581e-06	3.6741e-06	317.89	90.616	71.726	21.157	3.3693e-06	29.429	-83.393	-7.233	-28.442	-128.112	-5.668	7.936	-128.037	-121.002	37.823	5.946	-121.290	-114.578	-114.221	-107.548	33.442	-108.573	-8191	255	
854.718	1	1	0	0	0.049871	0.15815	0.16589	0.20718	0.10384	0.28227	0.2632	0.27302	0.20554	0.11972	0.10031	0.094086	0.16812	0.17847	0.095572	0.12376	-2.2229	-2.9521	-2.6417	-2.9917	-2.9938	-2.5	-3.1542	-2.8354	-2.9813	-3.1063	-2.8854	-3.1104	-2.7833	-2.6104	-3.1083	-2.7188	35.015	39.689	181.153	195.139	22.937	122.430	152.128	132.924	-6.123	-3.025	161.696	195.255	-87.686	-41.974	130.658	95.915	0.00018839	0.00033529	4.2448e-05	1242.3	1.6152e-06	5.9171e-06	1300.6	259.02	3.6748e-06	3.5521e-06	316.6	89.022	70.931	20.718	3.8791e-06	28.944	0.00028823	0.00032892	9.1193e-05	1237.1	3.6611e-06	3.6269e-06	1291.8	259.07	3.5755e-06	3.6173e-06	317.87	90.494	71.924	21.115	3.5519e-06	29.407	-82.963	-57.053	-82.707	-128.038	10.237	0.000	-128.006	-121.144	37.205	13.067	-121.222	-114.287	-114.192	-107.160	22.709	-107.799	-8191	255	
854.839	1	1	0	0	0.17227	0.38596	0.14992	0.24921	0.094587	0.34523	0.41741	0.21582	0.039339	0.034095	0.08683	0.16729	0.20852	0.22164	0.26021	0.20663	-2.3229	-2.8833	-2.5458	-3.1208	-3.05	-2.4	-3.0708	-2.8396	-2.6917	-3.1	-2.6688	-2.8208	-3.1271	-2.8	-3.0646	-3.0667	47.323	-54.641	-46.628	88.751	160.802	-62.296	124.954	-41.086	51.007	-9.169	-114.404	17.199	136.391	-133.927	190.027	181.664	0.00018979	0.00024399	0.00013106	1244.6	4.5106e-06	6.6396e-06	1299.8	257.14	2.2519e-06	3.3868e-06	317.51	89.543	71.334	20.726	3.2557e-06	28.853	0.00028695	0.00032408	9.5654e-05	1237	3.9366e-06	3.933e-06	1290.7	258.1	3.7671e-06	3.7122e-06	318.22	90.592	72.02	21.128	3.4703e-06	29.476	-83.566	-29.542	-45.267	-127.962	3.041	10.175	-127.775	-121.208	-12.599	2.334	-121.188	-114.590	-113.924	-107.295	15.210	-107.944	-8191	255	
854.935	1	1	0	0	0.233	0.25154	0.18981	0.040254	0.10534	0.36408	0.26701	0.25297	0.19389	0.083006	0.17141	0.23214	0.22127	0.11	0.046028	0.11303	-2.4479	-2.9417	-2.5896	-2.7917	-2.9833	-2.8625	-3.1521	-2.8646	-2.4896	-2.9125	-3.0458	-2.9583	-3.225	-2.8312	-2.7479	-2.9167	42.463	10.243	171.925	-123.121	-10.455	148.088	162.162	181.317	168.934	-14.814	72.972	1.332	193.216	-42.084	53.808	162.044	0.00020767	0.00037569	0.00011202	1246.5	3.1502e-06	4.7629e-06	1302.6	258.69	2.4643e-06	1.938e-06	317.35	89.326	71.339	20.7	2.3495e-06	28.995	0.00029479	0.00032198	9.1654e-05	1238.5	3.8432e-06	3.7356e-06	1293.8	258.67	3.8597e-06	3.5617e-06	318.36	90.712	72.085	21.115	3.3599e-06	29.52	-85.329	-44.641	-52.197	-127.811	30.868	1.012	-128.010	-120.875	12.783	5.054	-121.073	-114.536	-114.000	-107.427	31.257	-107.807	-8191	255	
855.031	1	1	0	0	0.1046	0.056471	0.098791	0.11091	0.11738	0.095783	0.098839	0.24982	0.15943	0.2007	0.18717	0.051866	0.075615	0.091639	0.11184	0.2435	-2.2896	-3.1771	-2.7687	-2.9146	-3.0271	-2.6188	-2.9521	-2.975	-2.5792	-3.2021	-3.0667	-2.6521	-3.3146	-2.7667	-2.7417	-2.9896	187.096	59.469	142.087	144.093	62.913	-49.771	-66.980	147.445	-73.329	191.125	-67.544	-53.542	206.733	-79.834	47.650	111.302	0.00017748	0.00034872	7.3679e-05	1246.3	2.685e-06	3.032e-06	1298.3	258.77	3.3227e-06	5.0285e-06	317.46	89.358	71.482	20.752	3.174e-06	28.929	0.00029264	0.00031151	8.7595e-05	1238.8	3.8108e-06	3.6233e-06	1291.5	258.87	3.7302e-06	3.572e-06	318.41	90.758	72.037	21.144	3.5308e-06	29.5	-85.229	-62.529	-20.132	-127.612	7.560	0.262	-127.781	-120.979	9.606	18.570	-121.045	-114.533	-114.354	-107.519	3.589	-107.852	-8191	255	
855.150	1	1	0	0	0.10813	0.18589	0.18264	0.33308	0.10349	0.34175	0.18243	0.14917	0.24318	0.10118	0.1743	0.31207	0.17286	0.21741	0.12233	0.18913	-2.1979	-3.0729	-2.8271	-2.8937	-3.0958	-2.7521	-2.9208	-2.9917	-2.6667	-3.0729	-2.95	-2.8375	-3.2188	-2.7667	-2.6646	-3.0583	66.433	37.311	141.653	93.067	-66.871	-25.779	-116.276	206.154	-78.116	99.128	-135.796	156.496	-1.442	27.758	109.165	-65.008	0.00018151	0.00038212	7.078e-05	1249.9	2.6589e-06	2.0702e-06	1297.6	257.16	2.9285e-06	3.8303e-06	317.52	89.367	71.486	20.882	2.9536e-06	28.883	0.00028652	0.00031903	8.7193e-05	1238.8	3.6778e-06	3.5073e-06	1293.5	258.33	3.5413e-06	3.5435e-06	317.99	90.79	72.059	21.171	3.5336e-06	29.469	-84.347	-46.994	-54.086	-128.049	28.976	-9.070	-127.680	-121.192	-1.997	-8.525	-120.908	-114.605	-114.359	-107.398	8.320	-107.776	-8191	255	
855.221	1	1	0	0	0.066516	0.18674	0.14056	0.1787	0.154	0.18031	0.12218	0.18608	0.12416	0.080264	0.31501	0.40481	0.14293	0.26838	0.25628	0.11089	-2.2313	-3.0667	-3.0604	-2.8292	-3.1833	-2.8688	-2.8563	-3.2687	-2.475	-2.7812	-2.9021	-2.8021	-3.1833	-3.0771	-2.7625	-3.1521	-32.399	-34.347	169.611	211.343	-63.486	-87.283	-92.402	171.900	-14.406	-121.474	116.081	105.001	-77.817	44.694	48.183	143.931	0.00017038	0.00022586	8.3294e-05	1254.5	2.3824e-06	2.9675e-06	1307.3	258.77	3.5312e-06	4.1803e-06	317.63	89.423	71.013	20.85	2.5656e-06	28.919	0.00029125	0.00031629	8.3193e-05	1240.2	3.7774e-06	3.6627e-06	1295.3	259.13	3.7213e-06	3.6639e-06	318.51	90.857	72.139	21.164	3.6728e-06	29.543	-85.123	-52.448	-51.430	-127.844	-18.649	10.787	-127.780	-120.992	2.932	16.876	-120.852	-114.590	-114.222	-107.169	36.206	-107.885	-8191	255	
855.319	1	1	0	0	0.077159	0.025356	0.104	0.2396	0.22412	0.034743	0.12885	0.02987	0.17397	0.15696	0.1873	0.1586	0.081583	0.26288	0.19606	0.26392	-2.2062	-3.0375	-2.9354	-2.8104	-2.9542	-2.9667	-2.8167	-3.225	-2.7438	-2.95	-2.8604	-2.9667	-3.1979	-2.9958	-2.7083	-3.0479	68.408	139.083	32.690	203.891	216.323	-105.104	85.475	110.635	88.449	-112.124	164.079	188.566	-133.583	-38.063	196.469	50.877	0.00018135	0.00032002	0.00012294	1245.3	3.2868e-06	3.0385e-06	1298.7	258.94	3.0661e-06	3.4993e-06	317.78	89.185	71.128	20.859	2.0688e-06	28.865	0.00028894	0.00031763	9.378e-05	1239	3.8938e-06	3.6986e-06	1291.5	259.18	3.6281e-06	3.5006e-06	318.65	90.818	72.047	21.191	3.533e-06	29.428	-83.927	-43.452	-48.092	-128.071	13.980	13.185	-127.979	-120.813	-1.366	-8.620	-120.721	-114.582	-114.570	-107.340	16.224	-107.647	-8191	255	
855.438	1	1	0	0	0.14042	0.17218	0.062776	0.45052	0.081799	0.32355	0.096041	0.14872	0.04962	0.2723	0.0051835	0.018776	0.20935	0.08022	0.24502	0.14562	-2.3563	-2.8979	-2.9875	-2.8521	-3.0604	-3.0479	-2.8208	-3.0417	-2.7396	-2.8979	-3.1604	-2.875	-3.1771	-3.0521	-2.6562	-3.0417	-72.759	-2.196	64.162	154.306	-17.838	88.779	192.594	-102.050	188.800	12.053	205.136	19.266	170.802	-0.927	-26.348	-55.481	0.00018685	0.00035683	0.00011083	1246.3	3.025e-06	2.1427e-06	1299.8	258.67	1.7542e-06	1.6612e-06	317.42	89.724	71.239	20.831	3.6668e-06	29.071	0.00029259	0.00032064	8.9498e-05	1238.1	3.7143e-06	3.4575e-06	1292.7	259.06	3.6218e-06	3.6602e-06	318.47	90.798	72.052	21.133	3.5768e-06	29.486	-82.542	-35.620	-35.025	-127.926	7.538	-15.919	-127.854	-120.850	-24.623	20.333	-121.256	-114.973	-114.215	-107.288	16.017	-107.771	-8191	255	
855.534	1	1	0	0	0.10422	0.062336	0.21851	0.19623	0.050629	0.20187	0.070927	0.17704	0.071227	0.16585	0.26275	0.2656	0.16698	0.24511	0.15226	0.076869	-2.3583	-2.8604	-3.1833	-2.9646	-3.1646	-2.9562	-2.5417	-3.0979	-2.9146	-3.0062	-3.3646	-2.5458	-2.7646	-2.9208	-2.6625	-3.1937	-129.070	-96.583	135.469	124.656	211.190	9.596	122.151	99.240	184.210	-66.566	165.476	189.729	50.858	-115.770	179.370	214.004	0.00018948	0.00029316	0.00010029	1251	2.6047e-06	4.4034e-06	1301.6	258.86	2.9496e-06	3.5017e-06	316.13	89.693	71.452	20.769	3.2897e-06	28.906	0.00029673	0.00032043	8.3357e-05	1238.8	3.6027e-06	3.6828e-06	1292.1	259.55	3.6818e-06	3.6373e-06	317.66	91.02	71.99	21.166	3.5069e-06	29.503	-83.305	-41.384	-39.557	-127.869	-4.658	13.034	-127.862	-120.807	15.587	24.877	-121.117	-114.597	-114.154	-107.357	34.882	-108.024	-8191	255	
855.630	1	1	0	0	0.19091	0.19627	0.071463	0.11459	0.23077	0.27555	0.24632	0.043194	0.1169	0.27436	0.20918	0.16274	0.2617	0.17711	0.042187	0.24897	-2.4396	-2.7292	-3.0167	-2.6167	-2.8563	-3.0292	-2.9167	-3.2708	-2.9208	-2.6354	-3.1667	-2.85	-2.8521	-3.2583	-2.6479	-3.0604	98.667	-55.472	162.350	-114.449	-76.552	103.900	126.685	32.755	-122.867	-109.689	168.165	104.410	-83.887	173.713	-92.670	-131.735	0.00019295	0.00031869	9.4564e-05	1244.8	3.6734e-06	4.7031e-06	1293.9	257.81	3.2503e-06	3.8407e-06	315.67	89.191	70.959	20.769	4.1519e-06	28.974	0.00028714	0.00033499	8.1394e-05	1238.9	3.9919e-06	3.6196e-06	1292.1	259.05	3.6323e-06	3.4837e-06	318.22	90.936	72.065	21.17	3.654e-06	29.511	-83.177	-41.424	-59.275	-128.186	8.834	4.775	-128.058	-120.923	2.100	3.331	-121.331	-114.464	-114.550	-107.470	31.541	-107.716	-8191	255	
855.751	1	1	0	0	0.089781	0.16023	0.13968	0.25803	0.25809	0.062945	0.28006	0.11399	0.17546	0.11225	0.13907	0.13996	0.18264	0.12733	0.15412	0.17913	-2.5354	-2.6667	-3.2208	-2.9604	-2.725	-2.9792	-2.5625	-3.0312	-2.7458	-2.5563	-3.1	-2.9375	-3.0542	-3.3479	-2.7812	-3.0458	94.251	64.598	49.998	168.169	-113.563	-108.164	184.814	-14.965	135.407	29.623	-122.203	-108.810	111.712	-96.638	135.818	-138.179	0.00018089	0.00043525	7.3218e-05	1245	3.2261e-06	2.3858e-06	1295.4	258.84	2.5419e-06	2.2443e-06	319.4	89.823	71.506	20.813	1.6703e-06	28.957	0.00028458	0.00034772	8.8353e-05	1238.3	3.7383e-06	3.5516e-06	1291	259.23	3.5702e-06	3.3591e-06	319.12	90.92	72.011	21.2	3.3343e-06	29.594	-77.117	-53.205	-19.330	-128.015	-2.416	14.543	-127.991	-120.718	31.345	-0.213	-121.045	-114.559	-114.552	-107.247	29.519	-107.429	-8191	255	
855.823	1	1	0	0	0.11989	0.32484	0.15957	0.021171	0.066915	0.14467	0.32266	0.080807	0.257	0.067246	0.27031	0.078481	0.12815	0.21295	0.17371	0.25395	-2.6833	-2.5292	-2.9938	-3.1042	-2.8438	-2.9938	-2.9938	-2.9646	-3.2313	-2.6667	-3.1479	-3.0062	-2.7938	-3.225	-2.85	-2.8896	161.650	98.036	92.951	-90.331	-54.719	-102.704	188.484	100.535	-42.713	68.438	-123.789	179.661	194.078	-131.820	109.692	189.978	0.00020419	0.00045465	7.7033e-05	1251.6	2.3758e-06	3.6868e-06	1304.4	259.52	2.122e-06	2.0093e-06	318.78	89.346	71.867	20.877	5.5686e-06	29.037	0.0002869	0.00033655	8.5825e-05	1239.3	3.8641e-06	3.5868e-06	1294.4	259.77	3.7029e-06	3.5381e-06	319.08	90.839	72.286	21.216	3.5469e-06	29.589	-82.345	-53.513	-56.769	-127.913	-34.816	30.276	-127.967	-120.804	16.403	-1.526	-120.817	-114.809	-114.080	-107.283	33.892	-107.756	-8191	255	
855.919	1	1	0	0	0.16846	0.10203	0.1109	0.3783	0.16547	0.044625	0.31255	0.17668	0.36158	0.22408	0.20922	0.10007	0.16372	0.16338	0.11587	0.16476	-2.8708	-2.8958	-3.3042	-3.3396	-2.9437	-3.2083	-3.1417	-3.0125	-3.3458	-2.6625	-3.2458	-3.0083	-2.8688	-3.0875	-2.9188	-3.2313	3.904	121.102	4.146	187.044	95.332	66.262	117.014	20.264	117.584	60.913	86.526	-89.309	156.952	66.301	68.525	64.483	0.00020073	0.00029079	9.9852e-05	1248.3	2.3381e-06	3.4824e-06	1299.1	259.5	3.1436e-06	3.2084e-06	320.36	89.743	71.81	20.831	2.7176e-06	29.228	0.00028502	0.00032623	8.9989e-05	1236.9	3.7388e-06	3.5006e-06	1293.3	259.56	3.5671e-06	3.4516e-06	319.9	90.831	72.263	21.202	3.6157e-06	29.548	-85.101	-64.851	-57.158	-128.101	26.444	15.727	-127.978	-120.829	6.492	6.105	-121.153	-114.220	-114.478	-107.679	23.781	-107.717	-8191	255	
856.015	1	1	0	0	0.15102	0.30957	0.28017	0.20113	0.1249	0.19765	0.24173	0.12078	0.050153	0.18419	0.31924	0.161	0.1563	0.0053845	0.067549	0.16946	-2.9938	-2.9042	-3.0292	-3.2646	-2.6833	-3.1937	-2.9625	-2.9813	-3.2562	-2.7812	-3.0792	-3.1	-2.6625	-3.225	-2.8312	-2.9437	164.138	-126.369	-51.289	141.017	113.417	167.693	156.780	73.112	19.995	-46.951	123.443	214.123	184.291	181.217	-27.713	212.307	0.00018525	0.00039159	0.00012064	1252	2.9503e-06	5.7051e-06	1304.1	261.56	2.4826e-06	3.0981e-06	320.45	90.092	71.785	21.053	3.8422e-06	29.254	0.00028096	0.00032709	8.9409e-05	1238.7	3.7728e-06	3.4751e-06	1293.4	260.4	3.5213e-06	3.4698e-06	320.35	91.099	72.272	21.258	3.6456e-06	29.646	-75.714	-43.910	-56.202	-127.869	-1.758	20.772	-127.925	-120.865	2.633	32.230	-121.029	-114.697	-114.151	-107.406	7.050	-107.491	-8191	255	
856.134	1	1	0	0	0.1624	0.23244	0.035288	0.33764	0.29524	0.12357	0.26679	0.44712	0.16323	0.1041	0.03583	0.21906	0.31255	0.2457	0.33076	0.20253	-2.8896	-2.8688	-2.9104	-3.2729	-2.7188	-3.3063	-3.225	-3.0604	-3.1521	-2.7979	-2.9688	-3.175	-2.9479	-3.3375	-3.2042	-2.9396	38.380	217.957	11.845	214.835	138.055	-131.164	185.244	100.184	219.681	-119.450	154.550	-57.181	156.962	165.036	-97.482	-125.038	0.00018273	0.00023569	9.4558e-05	1255.3	3.2958e-06	2.781e-06	1306	260.25	2.1779e-06	2.1167e-06	320.35	89.862	72.076	21.034	3.1654e-06	29.181	0.00027916	0.00032945	8.471e-05	1240	3.7373e-06	3.5304e-06	1294.1	260.27	3.4487e-06	3.5641e-06	320.13	91.245	72.458	21.241	3.3316e-06	29.602	-83.025	-81.043	-68.041	-127.940	25.999	11.400	-127.954	-120.461	-8.527	11.571	-121.344	-114.740	-114.122	-107.442	26.084	-107.460	-8191	255	
856.230	1	1	0	0	0.18917	0.12779	0.33476	0.41224	0.17081	0.16336	0.13681	0.10004	0.18692	0.087649	0.21775	0.15712	0.16095	0.1534	0.17502	0.046633	-3.0542	-3.0667	-3.0104	-3.1312	-2.7438	-3.2229	-3.0771	-2.8208	-3.15	-2.9146	-3.0292	-3.3021	-2.9167	-3.1729	-3.2708	-2.8583	179.621	73.444	43.368	-136.845	28.304	-57.856	93.699	144.277	106.315	145.961	182.386	206.016	195.983	150.510	191.534	146.443	0.00017676	0.00037593	8.8327e-05	1255.6	2.3725e-06	4.3766e-06	1309	261.19	1.4082e-06	3.4881e-06	321.19	89.946	71.435	21.105	4.1891e-06	29.109	0.0002778	0.00031097	8.5082e-05	1240.4	3.8322e-06	3.4405e-06	1293.9	260.22	3.5166e-06	3.6034e-06	319.67	91.148	72.336	21.334	3.4903e-06	29.682	-82.283	-46.665	-56.405	-127.751	-6.035	20.699	-127.713	-120.878	-13.435	-5.712	-121.340	-114.541	-114.063	-107.030	26.498	-108.089	-8191	255	
856.326	1	1	0	0	0.11057	0.23291	0.1366	0.23347	0.052915	0.1778	0.28778	0.18884	0.070056	0.33006	0.23953	0.20562	0.046694	0.068212	0.075441	0.32126	-2.8	-3.0083	-2.8146	-3.5146	-2.8042	-3.1562	-3.3521	-2.7667	-2.9938	-2.8646	-2.9042	-3.5062	-2.9437	-3	-3.1042	-2.7458	5.098	-56.075	-76.429	144.966	-57.126	-34.413	158.140	150.172	-83.226	-133.796	167.647	190.157	71.775	-117.966	-67.546	186.456	0.00017539	0.00036251	8.4246e-05	1254.5	3.2255e-06	4.5956e-06	1308.6	260.56	2.3367e-06	4.0836e-06	322.22	89.881	71.631	20.946	2.8608e-06	29.075	0.00028121	0.00031129	8.6033e-05	1238.6	3.7602e-06	3.5024e-06	1294.6	260.13	3.4118e-06	3.5309e-06	320.78	91.119	72.304	21.239	3.4109e-06	29.584	-84.910	-42.495	-62.502	-127.777	0.124	47.969	-127.661	-121.008	-6.692	29.503	-121.029	-114.767	-113.835	-107.282	72.421	-107.577	-8191	255	
856.422	1	1	0	0	0.10254	0.1355	0.1291	0.26211	0.2323	0.29852	0.29913	0.31281	0.058597	0.19499	0.11832	0.2645	0.14859	0.18834	0.098446	0.33861	-2.8958	-2.9583	-2.8542	-3.3	-2.7979	-2.7979	-3.2854	-2.575	-2.9333	-2.7771	-2.8937	-2.9229	-2.8583	-2.8438	-3.0042	-2.5583	47.866	9.226	196.894	179.939	65.357	-78.805	99.567	216.486	89.216	109.811	158.162	-4.199	-55.016	110.503	63.560	205.283	0.00019652	0.00039854	0.00010463	1254.9	2.4595e-06	3.7245e-06	1304.6	261.76	2.6916e-06	3.9268e-06	323.8	90.215	71.562	20.824	2.8839e-06	29.261	0.00028393	0.00031769	9.497e-05	1242	3.6877e-06	3.5802e-06	1295.7	260.68	3.5581e-06	3.7485e-06	321.08	91.178	72.451	21.189	3.6395e-06	29.661	-82.427	-46.786	-57.569	-127.667	41.306	41.306	-127.627	-120.843	4.117	29.714	-120.926	-114.334	-114.066	-107.310	19.140	-107.912	-8191	255	
856.519	1	1	0	0	0.081032	0.078391	0.090842	0.07018	0.19846	0.075805	0.43964	0.077457	0.14246	0.072025	0.43925	0.0075446	0.089454	0.42576	0.11705	0.19926	-2.5312	-2.9062	-2.5958	-3.3792	-2.9271	-2.9167	-3.3187	-3.1063	-3.3042	-3.2604	-2.8021	-3.3063	-2.9979	-3.0333	-3.2646	-2.9375	192.466	144.222	-117.009	-130.322	-79.171	148.081	133.854	185.326	17.412	149.671	190.378	-125.792	207.131	211.261	24.126	65.311	0.00020552	0.00033354	0.0001	1252.9	2.0151e-06	5.2989e-06	1303.1	262.2	3.4694e-06	3.6798e-06	319.59	89.931	71.968	20.781	2.826e-06	29.188	0.00028494	0.00032924	9.4732e-05	1240.9	4.0409e-06	3.5134e-06	1294.3	260.78	3.5071e-06	3.607e-06	320.32	91.194	72.33	21.212	3.4259e-06	29.652	-82.716	-33.771	-46.772	-127.854	13.924	21.484	-127.763	-120.641	-11.524	-1.570	-121.281	-114.209	-114.244	-107.602	30.952	-107.800	-8191	255	
856.613	1	1	0	0	0.13242	0.28544	0.096165	0.1255	0.21565	0.10028	0.265	0.093182	0.13883	0.15797	0.073167	0.36754	0.24311	0.31496	0.22622	0.16521	-2.5833	-3.1729	-2.6875	-3.2333	-2.9375	-2.6583	-3.3563	-2.8167	-3.0187	-3.1208	-2.7625	-3.1854	-3.175	-2.9229	-3.1771	-2.7208	141.243	19.442	-5.373	54.935	-61.622	88.655	139.669	-4.287	190.710	-14.461	106.559	193.186	-107.747	9.213	-48.080	34.750	0.00016465	0.00026951	0.00011473	1255.6	2.7449e-06	2.276e-06	1313	260.36	2.7298e-06	2.4694e-06	322.17	90.262	71.456	21.015	2.6387e-06	29.17	0.00029041	0.00032553	9.3914e-05	1244	3.7941e-06	3.6372e-06	1297.7	260.89	3.4987e-06	3.7062e-06	321.36	91.212	72.363	21.271	3.5768e-06	29.739	-78.174	-55.258	-70.836	-127.674	29.603	-11.934	-127.650	-120.932	17.356	34.857	-120.593	-114.468	-114.179	-107.417	16.880	-107.964	-8191	255	
856.711	1	1	0	0	0.15262	0.033793	0.13755	0.37072	0.060259	0.1316	0.2501	0.44866	0.17662	0.29652	0.1616	0.21105	0.11625	0.090643	0.091108	0.2845	-2.4479	-3.1063	-2.7958	-3.2	-2.9271	-2.5938	-3.3937	-2.8896	-2.9646	-3.0354	-2.925	-3.0062	-3.0187	-2.9583	-3.2458	-3.1208	44.087	190.305	95.002	187.270	184.349	-6.800	168.074	-77.252	-109.232	34.328	7.685	214.479	-109.260	-50.054	112.721	130.045	0.00019816	0.00025477	0.00011991	1256.6	3.4801e-06	3.3454e-06	1308.1	262.06	2.5282e-06	3.7158e-06	321.54	90.543	72.18	21.07	2.0355e-06	29.116	0.00028739	0.000315	8.7937e-05	1242.3	3.7008e-06	3.4988e-06	1296.1	261.2	3.496e-06	3.4353e-06	320.99	91.418	72.521	21.302	3.3577e-06	29.644	-82.678	-52.189	-51.020	-127.828	27.411	20.168	-127.726	-121.036	4.227	31.272	-121.039	-114.434	-114.123	-107.391	-0.175	-107.613	-8191	255	
856.830	1	1	0	0	0.12359	0.17441	0.1775	0.43646	0.29373	0.13938	0.29196	0.040933	0.080444	0.3027	0.18726	0.19228	0.086954	0.11903	0.17157	0.12181	-2.4875	-3.0979	-2.6104	-2.9604	-3.2062	-2.7938	-3.4521	-2.9229	-2.6958	-3.3	-2.9479	-3.0708	-3.1292	-2.6021	-3.1208	-3.0375	38.797	-25.065	-18.513	206.529	209.518	42.836	200.045	197.608	111.227	-86.766	75.530	175.384	85.075	15.287	53.297	-52.124	0.0001713	0.00039534	6.3925e-05	1259.6	2.3852e-06	4.441e-06	1315.6	262.29	4.4207e-06	4.7411e-06	322	90.929	71.93	21.136	3.1465e-06	29.108	0.00029784	0.00031919	8.8011e-05	1242.3	3.6966e-06	3.4229e-06	1297.8	261.11	3.7102e-06	3.3688e-06	321.23	91.434	72.482	21.279	3.4426e-06	29.622	-85.201	-30.393	-81.714	-127.875	8.268	3.252	-127.742	-120.840	-11.651	8.050	-120.652	-114.720	-114.035	-107.244	16.980	-107.527	-8191	255	
856.926	1	1	0	0	0.21259	0.047409	0.34995	0.24943	0.096612	0.011259	0.095313	0.33052	0.12856	0.10073	0.12778	0.21362	0.23287	0.024866	0.1533	0.22239	-2.3937	-3.4188	-2.9313	-3.1333	-2.9	-2.7646	-3.2979	-3.1167	-2.7125	-3.1562	-2.9667	-3.1417	-3.1646	-2.8396	-2.9854	-2.8375	72.723	-43.782	104.891	53.582	24.269	10.378	176.943	121.256	-26.373	109.289	218.843	18.877	155.572	-25.494	74.426	-17.516	0.00017768	0.00033977	0.0001167	1257.1	3.0616e-06	3.6651e-06	1320.7	261.98	2.0553e-06	3.4513e-06	320.81	90.638	72.628	21.011	2.0902e-06	29.353	0.00029948	0.00030323	8.7743e-05	1243.8	3.7921e-06	3.5407e-06	1300.4	260.97	3.5887e-06	3.4535e-06	321.51	91.477	72.782	21.262	3.4303e-06	29.675	-83.100	-50.411	-51.782	-127.917	18.371	36.421	-127.760	-120.828	-1.319	-19.684	-121.072	-114.578	-113.830	-107.273	31.841	-107.540	-8191	255	
857.022	1	1	0	0	0.18322	0.12231	0.091755	0.075581	0.25247	0.15627	0.11033	0.34538	0.18652	0.12685	0.14341	0.11046	0.18997	0.098408	0.33865	0.075775	-2.5938	-3.1958	-2.8312	-3.0042	-2.9938	-2.6979	-3.1104	-3.1042	-2.8542	-3.3146	-3.0938	-2.8042	-2.9875	-2.7208	-2.9688	-3.1792	184.389	21.602	89.482	-81.810	115.506	77.072	208.172	169.197	-85.116	203.941	138.825	157.313	209.742	-74.215	79.375	-14.412	0.00019153	0.00038236	8.3787e-05	1252.4	2.4974e-06	4.5005e-06	1315.2	260.91	3.4156e-06	3.752e-06	321.22	90.24	72.17	21.062	2.5994e-06	29.245	0.00028905	0.00032145	9.0078e-05	1242.1	3.8395e-06	3.5255e-06	1298	260.97	3.6313e-06	3.3694e-06	320.61	91.487	72.691	21.303	3.3549e-06	29.609	-78.993	-43.126	-64.211	-127.754	18.628	20.724	-127.588	-120.682	1.605	5.524	-121.089	-114.223	-114.182	-107.289	41.829	-107.441	-8191	255	
857.118	1	1	0	0	0.12989	0.061156	0.29342	0.3033	0.1846	0.17522	0.36512	0.045355	0.065306	0.35599	0.10129	0.14449	0.14726	0.2884	0.21367	0.12624	-2.3167	-3.0292	-2.975	-2.8708	-3.2104	-2.9104	-3.275	-3.2625	-2.9333	-3.3042	-3.0042	-2.875	-3.1521	-2.7917	-2.7313	-3.2167	168.902	13.110	35.243	191.076	186.671	-82.423	178.237	165.942	95.549	23.450	19.016	120.034	43.161	-117.671	137.449	96.752	0.00019717	0.00027617	9.0547e-05	1257.5	1.9588e-06	2.8599e-06	1312.2	262.79	4.2751e-06	3.3953e-06	322.82	90.767	72.268	21.121	2.7069e-06	29.186	0.00029022	0.00031661	8.9944e-05	1243.5	3.8416e-06	3.6974e-06	1297.1	261.92	3.7476e-06	3.419e-06	321.79	91.64	72.575	21.335	3.5413e-06	29.679	-81.724	-33.368	-44.278	-127.834	25.750	29.010	-127.740	-121.015	-11.811	-8.343	-121.172	-114.419	-113.943	-107.269	32.188	-107.467	-8191	255	
857.214	1	1	0	0	0.16604	0.19553	0.18368	0.23813	0.10041	0.38122	0.17035	0.18455	0.22133	0.18481	0.18266	0.28085	0.14557	0.12127	0.018478	0.068508	-2.4896	-2.9875	-2.9208	-3.025	-3.2104	-2.7354	-3.0187	-3.2229	-2.8271	-2.9729	-3.2021	-2.7333	-3.2667	-2.9562	-3.1042	-3.4354	-107.434	15.178	-127.341	139.685	188.930	-102.158	-130.365	136.164	-60.811	28.961	211.673	179.119	60.770	182.004	140.688	174.562	0.00019599	0.0003907	8.6266e-05	1261.1	2.0924e-06	2.5203e-06	1313.2	260.78	3.5704e-06	2.872e-06	322.18	90.344	72.165	21.031	2.343e-06	29.233	0.00029161	0.0003193	8.874e-05	1244.6	3.6063e-06	3.4411e-06	1299.8	261.17	3.6055e-06	3.3749e-06	321.64	91.493	72.795	21.284	3.5696e-06	29.656	-81.303	-21.580	-59.861	-127.729	2.878	22.210	-127.777	-120.685	15.101	0.292	-120.966	-114.302	-114.056	-107.178	3.321	-107.429	-8191	255	
857.310	1	1	0	0	0.17695	0.2156	0.25025	0.38203	0.27107	0.24747	0.23754	0.032087	0.12866	0.031293	0.16505	0.12033	0.15336	0.04543	0.10281	0.21972	-2.5417	-3.0062	-2.9354	-2.8521	-3.0208	-2.8125	-2.8729	-3.2354	-2.7812	-2.95	-3.1458	-2.7917	-3.0687	-2.8688	-2.8438	-3.0979	-32.492	200.097	85.563	-129.791	-98.200	134.041	149.425	38.282	175.351	12.377	108.844	146.256	158.320	7.198	68.070	158.393	0.00019645	0.00031044	5.6369e-05	1262.4	1.9815e-06	2.8571e-06	1309.1	263.54	2.4187e-06	3.8729e-06	324.26	90.81	72.474	21.181	2.2185e-06	29.316	0.00029746	0.00031715	8.8874e-05	1245.4	3.5875e-06	3.5796e-06	1299.1	262.48	3.9028e-06	3.5006e-06	322.51	91.814	72.8	21.416	3.4764e-06	29.784	-82.749	-32.041	-22.356	-127.660	52.248	26.347	-127.541	-120.635	10.476	19.104	-121.172	-114.284	-113.946	-107.513	21.436	-107.535	-8191	255	
857.431	1	1	0	0	0.076255	0.16426	0.13079	0.30603	0.082216	0.1455	0.15389	0.10762	0.036088	0.12556	0.20943	0.20232	0.21857	0.055913	0.24553	0.3404	-2.2104	-2.8708	-3.1208	-2.9875	-3.0542	-3.0021	-3.05	-3.3563	-2.6104	-2.9062	-3.2854	-2.8375	-3.1896	-3.1063	-2.8833	-3.0708	-44.908	178.035	220.080	156.387	-24.263	175.463	-90.394	182.751	193.968	18.651	179.029	-119.303	-130.309	19.669	51.642	188.938	0.00018641	0.00031529	8.4936e-05	1263.6	2.8594e-06	5.3397e-06	1316.4	262.82	1.8793e-06	4.5045e-06	324.74	90.877	72.295	21.124	2.5507e-06	29.599	0.00029613	0.00032768	8.6658e-05	1249	3.6721e-06	3.8024e-06	1301.7	262.31	3.7639e-06	3.6354e-06	323.38	91.696	72.886	21.389	3.5097e-06	29.828	-77.724	-42.209	-64.634	-127.951	39.235	18.079	-127.694	-120.643	-10.343	-2.880	-120.993	-114.690	-114.228	-107.436	17.096	-108.096	-8191	255	
857.525	1	1	0	0	0.050414	0.25715	0.051207	0.16415	0.13972	0.051803	0.10527	0.11752	0.10875	0.23217	0.11639	0.33366	0.34753	0.024854	0.2663	0.15168	-2.3438	-2.9021	-3.0708	-3.0187	-3.2521	-2.975	-2.7167	-3.2104	-2.7917	-3.0417	-3.3042	-2.9833	-2.9458	-2.9417	-2.9417	-3.375	184.462	72.074	173.768	129.591	-45.307	-92.514	117.343	220.620	157.952	209.924	12.315	174.842	-125.130	25.028	-88.056	144.088	0.00017958	0.00042806	8.0791e-05	1270.6	2.8415e-06	4.3453e-06	1316	262.41	1.267e-06	2.0228e-06	322.54	90.439	72.622	21.132	3.9265e-06	29.415	0.0002885	0.00033633	8.5751e-05	1249.7	3.8218e-06	3.7077e-06	1302.6	262.5	3.7186e-06	3.52e-06	322.63	91.847	73.033	21.38	3.7993e-06	29.771	-84.177	-57.168	-60.953	-127.774	23.381	8.265	-127.627	-120.510	3.621	21.559	-121.233	-114.585	-113.912	-107.250	13.884	-107.596	-8191	255	
857.622	1	1	0	0	0.27792	0.17522	0.19886	0.20852	0.212	0.24872	0.082818	0.33928	0.19189	0.08521	0.1694	0.38981	0.12361	0.14629	0.11582	0.24677	-2.6625	-2.6604	-3.0604	-3.1208	-2.8792	-2.9479	-2.7146	-3.1021	-3.0167	-3.0812	-3.5646	-2.8917	-2.8354	-3.0271	-2.5083	-3.3771	-118.745	-117.450	129.136	-91.801	153.016	173.351	179.846	219.806	-16.928	-57.933	208.039	125.679	126.715	124.833	133.217	-23.273	0.00020014	0.00038429	0.00013027	1266.4	2.6465e-06	3.3541e-06	1317.3	264.75	2.6797e-06	1.7414e-06	324.16	91.378	72.372	21.257	2.4268e-06	29.427	0.0002976	0.0003107	9.4464e-05	1249.3	3.8583e-06	3.3895e-06	1303	263.14	3.7407e-06	3.575e-06	323.26	92.04	72.992	21.418	3.76e-06	29.808	-81.436	-39.972	-38.067	-127.754	39.408	8.253	-127.707	-120.647	-22.739	-12.057	-121.558	-114.605	-114.105	-107.366	43.483	-107.563	-8191	255	
857.695	1	1	0	0	0.20762	0.14719	0.18497	0.20587	0.071532	0.17895	0.29114	0.26647	0.14532	0.32086	0.19855	0.16359	0.1392	0.10194	0.11546	0.18983	-2.7167	-2.6229	-3.1354	-2.9542	-3	-3.1437	-2.9229	-3.1583	-2.9604	-2.6292	-3.1937	-2.9	-2.9188	-3.0646	-2.6292	-3.0375	156.226	4.424	145.436	167.018	157.449	107.571	120.515	183.647	-67.068	-12.765	177.323	-24.068	131.296	-80.223	108.600	199.289	0.00019573	0.0003631	8.9645e-05	1268.5	3.3547e-06	3.6183e-06	1316.7	264.33	2.6853e-06	3.8541e-06	324.11	91.223	72.569	21.108	2.4979e-06	29.233	0.00029975	0.00034826	8.6509e-05	1248.7	3.8724e-06	3.5067e-06	1303.5	262.92	3.8328e-06	3.7255e-06	323.57	91.733	72.97	21.375	3.6584e-06	29.698	-76.666	-55.563	-51.155	-127.786	20.646	-5.856	-127.836	-120.779	13.291	2.103	-121.000	-114.438	-114.031	-107.551	8.149	-107.740	-8191	255	
857.814	1	1	0	0	0.091324	0.16219	0.078076	0.36128	0.080038	0.089595	0.098729	0.040551	0.13275	0.21056	0.10335	0.054733	0.15285	0.23595	0.156	0.050697	-2.3021	-2.8229	-3.2292	-3.1542	-2.9646	-3.2521	-2.9583	-3.3104	-3.0396	-2.7687	-3.1125	-2.8375	-2.8292	-3.1771	-2.8042	-3.1833	166.132	18.083	7.970	170.626	-127.792	115.600	209.289	150.358	215.481	70.181	-18.651	141.374	182.550	-133.088	72.088	48.070	0.00018968	0.0004506	5.159e-05	1267.9	3.1305e-06	3.028e-06	1321.6	264.05	1.9166e-06	3.9603e-06	323.74	90.925	72.282	21.188	2.5669e-06	29.387	0.00029417	0.00034788	9.2665e-05	1249.5	3.9538e-06	3.6336e-06	1305.9	263.28	3.7502e-06	3.734e-06	323.27	91.879	72.996	21.387	3.6928e-06	29.786	-86.042	-42.484	-40.569	-127.564	-12.491	1.157	-127.850	-120.890	-29.542	13.035	-121.214	-114.185	-114.088	-107.507	43.807	-107.373	-8191	255	
857.910	1	1	0	0	0.12369	0.09806	0.1526	0.3291	0.2933	0.044157	0.24278	0.070776	0.16553	0.042371	0.25751	0.14181	0.1118	0.33223	0.15879	0.13353	-2.5292	-2.7062	-2.9604	-3.0208	-2.9333	-3.2854	-2.9771	-2.8083	-3.1896	-2.8396	-3.3583	-2.9896	-2.7125	-3.1458	-2.7542	-3.0479	-114.965	44.019	9.213	-128.276	-104.539	200.121	110.428	132.526	29.876	-83.745	189.001	212.318	106.552	138.453	-61.097	209.241	0.00019477	0.00048361	7.3743e-05	1262	1.4399e-06	3.989e-06	1322.8	262.67	2.8215e-06	2.7059e-06	323.54	90.876	72.755	21.116	2.4997e-06	29.359	0.00029316	0.00035068	9.1208e-05	1249.4	3.719e-06	3.5735e-06	1304.6	262.83	3.5418e-06	3.6264e-06	323.07	91.884	73.04	21.371	3.5136e-06	29.813	-82.097	-40.604	-18.616	-127.824	-12.080	12.052	-127.740	-120.970	-3.703	34.110	-121.043	-114.715	-114.136	-107.609	34.662	-107.379	-8191	255	
858.006	1	1	0	0	0.1805	0.2185	0.31134	0.19885	0.099249	0.24975	0.047631	0.050257	0.08968	0.22286	0.04374	0.18984	0.15515	0.10553	0.1928	0.16402	-2.8583	-2.8896	-3.0563	-3.1896	-2.6729	-3.0542	-2.8604	-2.9146	-3.2146	-2.9979	-3.2167	-3.0687	-2.7354	-3.3521	-2.8937	-3.0312	-115.046	38.788	69.321	-10.688	197.758	31.761	208.893	-54.724	-54.539	-32.290	-106.460	141.758	104.050	171.396	15.374	-70.345	0.00019621	0.00032722	7.8021e-05	1267	2.3095e-06	4.388e-06	1318.3	264.28	2.0883e-06	3.2094e-06	324.39	91.131	72.202	21.149	3.8327e-06	29.427	0.0002967	0.0003164	9.4494e-05	1250.1	3.8917e-06	3.5875e-06	1304.2	262.98	3.6913e-06	3.7799e-06	323.24	91.802	72.872	21.387	3.7117e-06	29.829	-88.597	-42.623	-41.840	-127.889	3.148	2.897	-127.828	-120.631	-8.186	16.013	-121.031	-114.503	-113.996	-107.304	31.805	-107.787	-8191	255	
858.102	1	1	0	0	0.15529	0.027085	0.19098	0.024412	0.078706	0.2299	0.07977	0.14585	0.1684	0.096305	0.21714	0.043749	0.061763	0.15846	0.33344	0.15447	-2.6708	-2.9896	-3.2417	-3.2979	-2.8	-3.3312	-3.1104	-3.0479	-3.1	-2.7042	-2.975	-3.1125	-2.6354	-3.1271	-3.0438	-3.1396	170.873	-28.929	-84.087	78.013	137.545	162.746	168.599	134.830	220.287	-134.269	14.332	-58.580	-59.027	-52.773	-100.925	-134.876	0.00019129	0.00038451	0.00011353	1269.8	2.1906e-06	3.2623e-06	1315.9	263.6	3.5259e-06	2.0401e-06	325.15	90.688	72.052	21.085	4.183e-06	29.603	0.00029765	0.00031623	8.7297e-05	1249.2	3.8802e-06	3.5018e-06	1302.4	262.8	3.6834e-06	3.913e-06	323.15	91.677	72.769	21.374	3.5829e-06	29.871	-77.765	-27.324	-53.383	-127.633	-1.400	-3.240	-127.697	-120.689	-2.537	44.127	-121.186	-114.425	-114.275	-107.440	23.521	-107.572	-8191	255	
858.199	1	1	0	0	0.24548	0.2906	0.1444	0.26201	0.25595	0.13202	0.18144	0.21189	0.28169	0.28496	0.22572	0.043232	0.11702	0.27766	0.13881	0.28549	-2.6312	-2.7562	-2.7729	-3.1625	-2.6354	-3.3042	-3.0958	-2.8521	-3.1188	-2.9625	-3.0604	-3.075	-2.7979	-3.1604	-3.0208	-2.7667	73.509	99.810	63.133	213.841	-58.358	-129.159	177.866	170.615	-51.879	-67.416	162.930	-24.669	179.074	-77.501	177.504	179.881	0.00021366	0.00045267	9.1418e-05	1267.1	3.0745e-06	3.4904e-06	1318.8	264.4	1.4552e-06	4.37e-06	324.93	90.958	72.134	21.147	2.4439e-06	29.328	0.00029087	0.00034455	8.9721e-05	1250	3.8646e-06	3.3695e-06	1304.7	263.16	3.6876e-06	3.4613e-06	323.37	91.863	72.678	21.428	3.4897e-06	29.786	-80.555	-19.783	-54.792	-127.698	-3.202	4.820	-128.003	-120.800	27.607	6.516	-120.862	-114.477	-114.039	-107.316	56.070	-107.599	-8191	255	
858.319	1	1	0	0	0.13682	0.21593	0.32549	0.17766	0.14951	0.069143	0.21711	0.10383	0.12862	0.047679	0.2032	0.15142	0.077313	0.36809	0.2543	0.12441	-2.6104	-2.7104	-2.7521	-3.2521	-2.7625	-3.0146	-3.4313	-2.6896	-3.0667	-2.8729	-2.7479	-2.9458	-2.6771	-2.8729	-3.0062	-2.6292	-57.106	13.519	-36.824	201.583	-4.859	77.665	126.088	169.225	87.270	197.899	213.670	105.546	123.640	184.138	-54.276	3.833	0.00019413	0.00041158	6.1437e-05	1266.4	2.5266e-06	4.0427e-06	1319.3	264.48	2.3024e-06	4.2243e-06	324.01	90.889	72.981	21.217	3.4814e-06	29.405	0.00029989	0.00032059	9.3647e-05	1250.7	3.9397e-06	3.766e-06	1305.7	263.03	3.5771e-06	3.6566e-06	323.55	91.841	73.16	21.449	3.7239e-06	29.887	-86.602	-50.386	-72.319	-127.838	-3.449	-1.702	-127.723	-120.622	25.023	18.054	-121.133	-114.569	-114.027	-107.275	22.557	-107.276	-8191	255	
858.391	1	1	0	0	0.19091	0.034483	0.22136	0.16285	0.09315	0.064728	0.076121	0.090477	0.0063104	0.092756	0.22414	0.33507	0.21113	0.14371	0.14114	0.064384	-2.5958	-3.0125	-2.9062	-3.4125	-2.9917	-2.8688	-3.2167	-2.8292	-3.2	-2.9437	-2.9167	-2.8854	-2.5625	-2.9313	-3.0729	-2.5833	-98.556	-61.280	160.651	118.414	159.199	8.007	163.278	-38.211	42.087	49.915	216.896	156.059	-47.441	-36.197	60.197	107.529	0.00018436	0.00022776	5.7042e-05	1272.9	2.6469e-06	2.9081e-06	1324.8	264.65	3.0371e-06	4.0974e-06	324.34	91.279	72.35	21.188	2.7042e-06	29.469	0.00028929	0.00034074	9.5401e-05	1254.5	4.0201e-06	3.5279e-06	1307.1	263.53	3.655e-06	3.6639e-06	324	91.945	73.003	21.446	3.4237e-06	29.819	-83.179	-68.650	-76.363	-127.847	-29.307	-4.674	-127.801	-120.796	2.527	0.860	-120.885	-114.292	-113.858	-107.402	7.477	-107.226	-8191	255	
858.511	1	1	0	0	0.12827	0.15917	0.19628	0.20433	0.1238	0.072527	0.18001	0.22122	0.19437	0.11085	0.090265	0.046763	0.25617	0.27747	0.084007	0.1859	-2.6958	-2.8937	-2.5792	-3.2896	-2.6604	-2.8729	-3.2375	-2.7042	-2.9417	-3.0312	-2.6458	-2.8667	-2.6417	-2.825	-3.05	-2.8521	-32.362	-8.232	147.497	164.803	-15.135	118.982	175.018	172.023	119.147	-110.925	149.901	134.177	190.777	70.065	58.225	-78.954	0.00018892	0.00019022	9.1247e-05	1270.3	5.1563e-06	4.9868e-06	1322.5	265.13	2.3535e-06	4.2215e-06	325.7	91.682	72.41	21.109	3.7643e-06	29.481	0.00029027	0.00031183	9.2784e-05	1253.8	3.9074e-06	3.803e-06	1309	263.95	3.5992e-06	3.7032e-06	324.62	92.107	73.058	21.379	3.7078e-06	29.774	-82.787	-40.913	-77.341	-127.747	21.596	24.811	-127.670	-121.112	-0.978	16.098	-120.894	-114.370	-114.021	-106.897	6.464	-107.657	-8191	255	
858.606	1	1	0	0	0.38091	0.22738	0.11719	0.48871	0.12497	0.17204	0.26353	0.17529	0.35352	0.27085	0.21251	0.14741	0.15143	0.15009	0.12216	0.19409	-2.5229	-3.0062	-2.5833	-3.3708	-2.9542	-2.9375	-3.3542	-2.8396	-2.9729	-2.9479	-2.8083	-3.125	-2.7229	-2.7521	-2.9271	-2.8604	-20.475	-11.275	187.891	188.171	212.840	179.569	-134.729	158.640	-51.521	149.467	146.659	-24.539	171.610	63.221	-28.812	111.644	0.00019815	0.00033812	7.9151e-05	1271.1	2.1827e-06	4.0905e-06	1321.7	265.1	3.5056e-06	3.718e-06	324.9	91.517	72.506	21.142	2.8659e-06	29.395	0.00028657	0.0003351	9.3542e-05	1255.1	3.8641e-06	3.817e-06	1308.3	263.7	3.8681e-06	3.5907e-06	323.88	92.167	73.126	21.464	3.6246e-06	29.819	-80.647	-59.767	-33.818	-128.073	9.304	-7.932	-127.490	-120.909	-19.997	16.439	-121.118	-114.639	-113.982	-107.141	30.274	-107.656	-8191	255	
858.702	1	1	0	0	0.15549	0.061416	0.055985	0.19539	0.12205	0.060872	0.32135	0.19818	0.091951	0.18195	0.042407	0.24667	0.19235	0.14039	0.17202	0.062336	-2.6292	-3.0458	-2.9125	-3.3708	-2.9583	-2.7729	-3.1833	-2.7667	-2.9938	-3.1208	-2.7646	-3.025	-2.8521	-2.7271	-2.9917	-2.8271	-82.006	185.084	173.871	201.450	-41.151	-63.675	130.509	178.500	-103.860	-7.636	119.421	-18.262	116.863	6.756	-75.403	175.441	0.00017114	0.00043632	0.00012551	1274.9	3.1483e-06	4.5712e-06	1323.1	263.54	3.7295e-06	2.4954e-06	323.82	90.968	72.805	21.214	2.5781e-06	29.549	0.00028251	0.00033047	9.6962e-05	1255.5	3.9632e-06	3.6913e-06	1310.4	263.41	3.6634e-06	3.5296e-06	324.12	92.193	73.015	21.465	3.5846e-06	29.832	-79.494	-43.966	-37.883	-127.945	20.493	18.677	-127.654	-120.986	11.163	-20.790	-120.933	-114.625	-113.605	-107.305	21.506	-107.650	-8191	255	
858.798	1	1	0	0	0.17536	0.26836	0.15198	0.24358	0.35062	0.040692	0.25122	0.10964	0.25549	0.10991	0.19187	0.12236	0.23199	0.19772	0.12612	0.10223	-2.3271	-3.1	-2.5271	-3.0667	-3.0417	-2.8104	-3.2292	-2.85	-2.875	-3.1771	-2.8396	-3.0896	-3.0708	-2.9562	-3.0812	-2.9021	97.384	102.117	-13.772	157.566	-131.209	91.753	161.982	-135.335	-35.103	180.790	167.595	145.484	213.657	79.960	-25.958	143.979	0.00020372	0.00030096	0.00016237	1276.3	3.8538e-06	2.7968e-06	1323.9	265.71	3.3596e-06	3.73e-06	326.03	92.011	72.875	21.251	3.7089e-06	29.649	0.00030345	0.00033064	9.5178e-05	1256.2	3.9277e-06	3.7083e-06	1309.6	264.06	3.957e-06	3.8235e-06	325.1	92.486	73.207	21.506	3.7883e-06	29.884	-79.988	-66.510	-23.190	-127.796	7.913	-2.125	-127.936	-120.692	-19.300	8.238	-121.110	-114.253	-113.994	-107.236	17.314	-107.872	-8191	255	
858.919	1	1	0	0	0.15757	0.064479	0.083091	0.20688	0.20587	0.1147	0.19726	0.0799	0.20614	0.17242	0.27726	0.26875	0.043795	0.30404	0.062526	0.2573	-2.2833	-2.875	-2.6292	-3.0521	-2.7958	-2.6229	-3.1333	-2.825	-2.8667	-3.1896	-3.0187	-2.8958	-2.95	-2.5792	-3.1708	-3.0146	129.496	192.552	-1.755	103.900	-113.935	161.595	198.332	-136.042	4.916	107.231	159.866	-112.235	-106.100	-122.150	67.367	168.593	0.00018686	0.00031304	9.3637e-05	1277.1	2.0901e-06	3.0711e-06	1330.9	265.78	3.1706e-06	2.5894e-06	326.65	91.304	72.906	21.327	2.8308e-06	29.424	0.00029752	0.00033026	0.00010047	1256.9	3.8296e-06	3.8923e-06	1311.8	264.47	3.8323e-06	3.8011e-06	325	92.277	73.245	21.53	3.5702e-06	29.829	-84.696	-29.456	-39.233	-127.546	-16.226	21.985	-127.916	-120.987	28.179	21.563	-121.143	-114.193	-114.186	-107.399	18.786	-107.533	-8191	255	
858.990	1	1	0	0	0.063364	0.06291	0.17007	0.089185	0.25586	0.17603	0.089059	0.33735	0.17546	0.21008	0.17071	0.31638	0.33021	0.075911	0.29134	0.17877	-2.4583	-3.1188	-3.0125	-3.0333	-3.0021	-2.7479	-3.3063	-2.9042	-2.6437	-2.9104	-2.8083	-2.725	-3.0583	-2.7271	-2.7729	-3.0792	2.045	-4.368	-125.683	170.308	-4.659	128.535	120.096	147.234	-89.662	44.582	-126.859	207.911	130.686	145.926	108.902	-134.216	0.00020697	0.00023677	8.7637e-05	1274.4	3.4878e-06	3.0456e-06	1332.6	266.03	3.2228e-06	2.4241e-06	325.57	91.16	72.917	21.375	3.0171e-06	29.465	0.00029902	0.00033467	9.0524e-05	1257.4	4.0461e-06	3.8686e-06	1311.3	264.17	3.9123e-06	3.7769e-06	324.45	92.305	73.293	21.556	3.639e-06	29.842	-83.160	-65.559	-56.579	-127.586	1.673	0.634	-127.877	-120.795	3.870	-12.947	-121.107	-114.609	-114.042	-107.272	27.072	-107.370	-8191	255	
859.111	1	1	0	0	0.11732	0.089736	0.051873	0.43156	0.049083	0.12164	0.088193	0.20209	0.16056	0.38168	0.26589	0.26689	0.1787	0.13546	0.14354	0.13863	-2.1063	-3.0187	-2.6458	-2.95	-3.1792	-2.6083	-3.0938	-3.0458	-2.8167	-3.2354	-2.8521	-2.8958	-3.2917	-3.0354	-2.9688	-3.1375	202.681	206.476	-104.313	206.069	-83.411	114.922	88.426	202.187	-108.934	127.981	179.838	37.751	59.021	-91.418	122.044	29.468	0.00020012	0.0002135	0.0001043	1280.8	2.925e-06	4.6591e-06	1329.6	265.58	2.2246e-06	4.9133e-06	325.49	91.422	73.003	21.239	3.3186e-06	29.509	0.0003016	0.00033278	9.8434e-05	1260.5	3.9548e-06	3.8376e-06	1313.3	264.09	3.8097e-06	3.7866e-06	325.19	92.145	73.335	21.459	3.6517e-06	29.87	-83.940	-49.506	-47.659	-127.790	35.510	5.725	-127.764	-120.796	16.987	4.687	-121.355	-114.728	-114.104	-107.496	28.883	-107.643	-8191	255	
859.207	1	1	0	0	0.11833	0.019321	0.23336	0.25057	0.29345	0.20686	0.17614	0.25907	0.1589	0.10772	0.18444	0.18463	0.13976	0.10664	0.19492	0.27769	-2.2958	-3.0375	-2.9375	-2.6958	-3.0375	-2.7979	-3.0125	-3.0958	-2.925	-3.1271	-2.8979	-2.8146	-3.2083	-3.0104	-2.8875	-3.2479	-81.534	-89.944	-59.172	-88.474	-137.085	2.925	101.530	82.395	-82.217	-27.900	99.977	-135.883	-67.969	177.730	80.233	-89.756	0.00017243	0.0003521	8.8097e-05	1282.7	2.4787e-06	4.0891e-06	1337	266.39	1.1567e-06	3.3299e-06	326.9	91.983	72.748	21.212	2.8107e-06	29.792	0.00030054	0.00034767	9.155e-05	1261.5	3.8265e-06	3.684e-06	1315	264.79	3.7802e-06	3.6596e-06	325.01	92.451	73.248	21.496	3.649e-06	29.954	-81.184	-64.780	-41.605	-127.846	26.479	-0.047	-127.840	-120.753	3.286	-7.424	-121.187	-114.658	-114.223	-106.971	1.465	-107.726	-8191	255	
859.303	1	1	0	0	0.31247	0.11034	0.24288	0.28706	0.082465	0.10094	0.1193	0.10153	0.14235	0.12204	0.24922	0.22494	0.18847	0.070023	0.12885	0.16256	-2.5333	-2.9333	-2.7271	-2.8083	-3.0875	-2.9771	-3.1458	-3.1562	-2.8417	-3.1729	-3.0021	-2.7104	-2.9938	-2.7667	-2.7875	-2.9542	152.926	167.906	65.220	175.603	38.239	23.095	135.004	128.876	149.553	10.744	-114.320	-70.065	120.018	31.487	203.747	191.227	0.00019635	0.00039985	0.00011375	1283.2	1.8263e-06	4.079e-06	1333.7	266.5	3.9033e-06	2.2813e-06	326.13	91.829	73.066	21.466	2.5827e-06	29.587	0.00029528	0.00033187	9.665e-05	1261.7	3.898e-06	3.8024e-06	1315.8	264.89	4.026e-06	3.598e-06	325.41	92.37	73.483	21.579	3.7794e-06	29.946	-83.949	-52.759	-29.581	-127.809	9.869	22.448	-127.749	-120.873	-0.645	17.182	-120.883	-114.585	-114.221	-107.087	10.850	-107.440	-8191	255	
859.400	1	1	0	0	0.15718	0.16665	0.24125	0.19791	0.16955	0.36448	0.21103	0.010765	0.11234	0.24594	0.029734	0.17742	0.23891	0.15406	0.19682	0.068065	-2.3396	-3.1583	-2.9771	-2.8229	-3.2375	-2.9313	-2.9188	-3.1813	-2.9083	-2.9437	-3.1208	-2.9229	-3.05	-3.0604	-2.8708	-3.1167	57.428	-98.290	11.532	164.105	-36.840	-92.460	187.728	78.348	65.885	161.074	-64.900	116.633	65.424	94.512	84.486	56.851	0.00018994	0.00034184	0.00010393	1282.6	2.4705e-06	3.5943e-06	1331.1	266.33	2.5543e-06	2.0888e-06	325.99	92.18	72.863	21.439	3.3239e-06	29.46	0.00029294	0.00034294	9.1446e-05	1262.2	4.0587e-06	3.8036e-06	1316.1	264.82	4.006e-06	3.5538e-06	324.99	92.458	73.267	21.566	3.6806e-06	29.897	-83.863	-38.023	-32.093	-127.859	33.550	13.848	-127.634	-120.805	5.124	0.653	-121.271	-114.405	-113.914	-107.656	35.012	-107.432	-8191	255	
859.520	1	1	0	0	0.032373	0.18932	0.045848	0.24619	0.18951	0.041494	0.19553	0.15475	0.19335	0.049161	0.19329	0.20499	0.15065	0.27555	0.15997	0.16852	-2.3104	-2.7271	-2.9271	-2.7542	-2.8729	-2.7708	-2.8208	-3.0563	-2.6542	-2.7792	-2.9813	-2.6375	-3.1	-3.0604	-2.825	-3.3521	-9.969	-2.408	118.199	-84.010	218.676	214.528	135.077	121.530	196.984	-7.512	-116.786	119.792	102.519	0.514	162.028	49.920	0.00020162	0.00038754	8.8845e-05	1281.3	1.6659e-06	3.595e-06	1330.1	266.04	2.1192e-06	4.1117e-06	326.79	91.578	72.731	21.304	3.7013e-06	29.528	0.00030683	0.0003424	9.6606e-05	1262.2	4.0441e-06	3.834e-06	1314.4	264.88	3.8507e-06	3.7648e-06	325.38	92.261	73.244	21.546	3.8177e-06	29.921	-78.892	-28.004	-50.520	-127.850	-8.885	28.659	-127.739	-121.054	17.819	4.571	-121.163	-114.387	-113.849	-106.945	14.363	-107.388	-8191	255	
859.615	1	1	0	0	0.35501	0.069073	0.21547	0.30242	0.25822	0.24008	0.095562	0.1485	0.21921	0.16373	0.095507	0.20128	0.17958	0.067478	0.19599	0.20928	-2.3958	-2.8187	-3.0812	-2.9104	-2.9062	-2.9083	-2.8167	-3.3396	-2.8563	-2.8396	-3.3167	-2.7438	-3.1958	-2.9938	-2.825	-3.2854	-38.921	97.344	194.801	162.498	211.672	-68.213	143.604	-118.338	174.301	-1.563	-60.060	-32.377	219.577	-33.569	52.839	81.585	0.00019928	0.00041488	6.6126e-05	1285.3	2.2386e-06	1.7795e-06	1333.8	266.5	2.3289e-06	3.3825e-06	328.36	92.024	73.262	21.359	3.2983e-06	29.844	0.00029823	0.00032956	9.4048e-05	1261.9	3.7514e-06	3.5316e-06	1313.6	264.64	3.9007e-06	3.7473e-06	325.28	92.318	73.3	21.507	3.6107e-06	29.987	-87.289	-43.169	-47.033	-127.516	13.299	-13.711	-127.698	-120.767	-4.550	7.345	-120.960	-114.308	-113.625	-106.888	24.504	-107.548	-8191	255	
859.686	1	1	0	0	0.09487	0.0055551	0.13532	0.26381	0.13998	0.11154	0.11399	0.28882	0.04219	0.28524	0.29047	0.20022	0.16584	0.17678	0.1944	0.16752	-2.5896	-2.6917	-3.1208	-2.9396	-2.9604	-2.8896	-2.5938	-3.0333	-2.6417	-2.7875	-3.0854	-2.8125	-2.7792	-3.0771	-2.8104	-3.2146	63.543	-27.422	202.201	188.578	199.939	142.139	186.110	112.009	49.461	28.469	174.859	203.433	166.282	44.583	-94.573	102.894	0.00019147	0.00028797	8.2173e-05	1280.7	1.9132e-06	3.7212e-06	1339.9	267.16	3.7127e-06	3.273e-06	328.48	91.569	72.866	21.437	3.2599e-06	29.726	0.00030204	0.00034504	8.929e-05	1260.2	3.8557e-06	3.5037e-06	1315.4	264.42	3.7886e-06	3.7128e-06	325.36	92.344	73.1	21.5	4.0352e-06	29.902	-81.530	-30.207	-42.760	-127.678	-7.766	19.817	-127.748	-120.416	17.859	17.127	-120.694	-114.398	-113.634	-106.907	43.142	-107.430	-8191	255	
859.782	1	1	0	0	0.015845	0.18782	0.16505	0.33393	0.060867	0.10184	0.10709	0.26893	0.20779	0.13786	0.19424	0.31425	0.18792	0.21237	0.16245	0.070606	-2.5979	-2.7375	-2.9208	-2.8312	-2.875	-3.1604	-2.7917	-2.7708	-3.0146	-2.8042	-3.4062	-3.0625	-2.9083	-3.1104	-2.925	-3.2	-95.684	46.010	-101.901	141.245	150.523	56.449	93.554	167.644	-68.809	182.249	99.474	118.592	173.290	197.450	117.324	151.062	0.00018187	0.00033992	0.00011107	1280.9	3.6205e-06	4.5696e-06	1334	265.51	3.1396e-06	3.1989e-06	327.46	91.694	72.765	21.363	1.3589e-06	29.552	0.00029341	0.00034686	9.0554e-05	1258.6	3.9121e-06	3.5358e-06	1313.6	263.73	3.897e-06	3.7406e-06	324.99	92.099	73.037	21.483	3.7244e-06	29.891	-79.120	-18.516	-67.501	-127.658	-17.081	7.748	-127.720	-120.577	-5.682	40.766	-120.763	-114.180	-113.674	-107.461	31.714	-107.995	-8191	255	
859.880	1	1	0	0	0.12131	0.012517	0.16803	0.34884	0.16787	0.20836	0.28068	0.10849	0.07631	0.2469	0.055908	0.20848	0.20897	0.10067	0.10967	0.1667	-2.4667	-2.7479	-2.9771	-2.8271	-2.8146	-3.1437	-2.8521	-3.0125	-2.8333	-2.7188	-3.0729	-2.8958	-2.8833	-3.2396	-2.7562	-2.9	109.695	131.330	-65.657	195.481	141.250	58.251	160.862	-98.591	192.704	2.899	69.085	-99.149	-110.342	-23.448	148.622	14.022	0.00018106	0.00027309	8.8044e-05	1275.1	2.4805e-06	3.6381e-06	1330.9	265.35	2.2938e-06	2.6293e-06	326.32	91.632	72.425	21.18	3.2071e-06	29.6	0.00028891	0.00033993	9.3914e-05	1256.5	3.9642e-06	3.7502e-06	1314.6	263.63	3.7176e-06	3.8477e-06	324.79	92.013	72.824	21.407	3.548e-06	29.8	-85.226	-66.309	-35.203	-127.946	12.043	2.878	-127.828	-120.870	-2.679	33.852	-120.895	-114.795	-113.823	-107.218	26.414	-107.703	-8191	255	
859.999	1	1	0	0	0.073091	0.17636	0.10707	0.24556	0.095829	0.20417	0.22379	0.26418	0.23555	0.1875	0.28857	0.32864	0.36858	0.18963	0.018768	0.29589	-2.5729	-2.8354	-2.9083	-2.9833	-2.9	-3.1479	-3.0104	-2.8937	-2.9562	-2.7188	-3.0938	-3.0542	-2.8083	-3.1188	-2.875	-2.8833	213.742	154.813	-67.158	195.170	71.270	3.507	186.879	151.532	-96.531	141.264	107.975	128.387	179.886	81.095	0.391	217.752	0.00019343	0.00029695	0.00011232	1273.2	3.0448e-06	3.3051e-06	1325.9	263.38	1.3714e-06	3.932e-06	324.75	91.26	72.342	21.097	3.4533e-06	29.602	0.00029793	0.00033192	8.7848e-05	1255.8	3.8531e-06	3.5601e-06	1310.9	262.8	3.6481e-06	3.7939e-06	324.02	91.898	72.964	21.391	3.6445e-06	29.841	-80.541	-43.045	-42.994	-127.851	19.891	8.485	-127.663	-120.724	-27.376	16.073	-120.825	-114.150	-113.743	-107.254	18.622	-107.091	-8191	255	
860.095	1	1	0	0	0.10789	0.10896	0.21098	0.3558	0.19296	0.1879	0.22196	0.22145	0.12638	0.18012	0.015982	0.094122	0.083174	0.013508	0.092569	0.070165	-2.5521	-2.4646	-2.7583	-3.0062	-2.8354	-3.1604	-3.2042	-2.9708	-2.8917	-2.6646	-3.0312	-3.2125	-2.7333	-3.125	-2.775	-2.9083	-121.887	152.904	-29.044	186.443	64.422	-117.522	189.398	141.760	127.837	92.139	44.660	187.202	-65.084	162.654	205.952	-85.398	0.00019409	0.00028501	8.7885e-05	1272.8	3.4269e-06	3.2226e-06	1319.3	264.29	2.2971e-06	4.3388e-06	323.83	91.125	72.71	21.226	4.5002e-06	29.329	0.00029066	0.00033789	9.1401e-05	1255.9	3.8374e-06	3.514e-06	1308.7	263.38	3.7239e-06	3.8858e-06	323.32	91.902	72.886	21.422	3.7305e-06	29.851	-81.053	-60.565	-25.946	-127.683	18.589	20.101	-128.049	-120.564	-10.364	-6.604	-120.888	-114.561	-113.985	-107.383	22.749	-107.590	-8191	255	
860.191	1	1	0	0	0.14499	0.13033	0.27416	0.2497	0.2274	0.13547	0.041344	0.25553	0.21804	0.18743	0.20073	0.21317	0.17884	0.065123	0.15631	0.22353	-2.875	-2.6208	-2.8333	-3.0875	-2.3646	-3.0333	-2.8563	-2.8917	-3.0896	-2.7208	-3.1417	-3.1792	-2.6708	-3.0104	-2.8708	-2.7604	-44.410	-66.531	88.254	143.994	201.475	-131.966	-112.050	84.585	-126.480	-126.386	-135.442	-70.167	-111.464	-63.381	-95.797	65.843	0.0001913	0.00033463	8.7165e-05	1280	9.7113e-07	3.9005e-06	1323.2	265.23	3.3621e-06	3.0309e-06	323.81	91.309	72.521	21.238	3.5186e-06	29.321	0.00028703	0.00034439	9.0911e-05	1258.2	3.8823e-06	3.7496e-06	1309.4	263.41	3.836e-06	3.63e-06	323.66	91.975	72.886	21.444	3.7322e-06	29.778	-84.218	-29.918	-42.602	-127.679	76.708	10.254	-127.675	-120.673	-17.297	4.107	-121.019	-114.674	-114.571	-107.470	-3.703	-107.628	-8191	255	
860.288	1	1	0	0	0.11866	0.11207	0.12997	0.10816	0.15859	0.070881	0.273	0.25365	0.25002	0.16102	0.070986	0.30037	0.097289	0.02282	0.091708	0.15461	-2.5958	-2.7583	-2.7896	-3.2375	-2.5146	-2.9458	-3.0521	-2.8083	-3	-3.0604	-2.9792	-3.1375	-2.7167	-3.0396	-2.8625	-2.775	180.914	-110.076	-130.247	146.544	71.589	-22.995	191.725	185.642	159.031	54.811	38.989	-110.618	54.224	-82.152	104.686	-124.819	0.00019627	0.00059088	0.00012452	1274.3	1.9963e-06	3.8361e-06	1324	264.58	2.8731e-06	2.5568e-06	326.98	91.707	72.565	21.215	2.8056e-06	29.315	0.00028894	0.00035315	9.8643e-05	1254.4	3.9168e-06	3.8558e-06	1308.9	262.89	3.6129e-06	3.7352e-06	324.51	92.016	73.038	21.478	3.5607e-06	29.835	-84.410	-43.852	-33.177	-127.919	16.302	3.888	-127.734	-120.605	-8.651	-13.907	-121.094	-114.477	-113.899	-107.309	18.014	-107.940	-8191	255	
860.384	1	1	0	0	0.046818	0.13971	0.041073	0.25069	0.10629	0.13203	0.10935	0.10666	0.23046	0.24977	0.15571	0.24676	0.10191	0.37331	0.17403	0.091677	-2.7792	-2.9583	-2.8229	-3.3104	-2.7396	-2.9354	-3.1104	-2.6417	-3.0104	-2.825	-2.8083	-3.2812	-3.1125	-3.0104	-3.1917	-2.7854	159.528	138.704	130.716	194.782	-87.557	-39.243	117.481	81.971	-121.753	-100.935	89.238	148.603	-56.845	104.207	-37.367	-101.216	0.00020065	0.00021835	0.00010302	1273	2.6589e-06	3.0477e-06	1325.2	264.46	2.4957e-06	2.3943e-06	326.04	91.466	72.35	21.2	2.0026e-06	29.24	0.00028703	0.00033504	9.0108e-05	1255.2	3.6856e-06	3.602e-06	1311.3	263.63	3.6902e-06	3.4226e-06	323.69	92.131	72.966	21.393	3.5963e-06	29.839	-80.700	-45.948	-29.820	-127.780	13.489	-24.810	-127.787	-120.984	-27.662	1.511	-121.299	-114.663	-114.389	-106.950	28.761	-107.663	-8191	255	
860.480	1	1	0	0	0.1259	0.048453	0.3765	0.15578	0.14396	0.19785	0.12298	0.29506	0.21389	0.37262	0.36988	0.15655	0.10893	0.16092	0.061625	0.2687	-2.5875	-2.6729	-2.5812	-3.2729	-2.8271	-2.9688	-3.1	-2.5687	-2.9	-2.8583	-2.7646	-3.2333	-2.7854	-2.7125	-3.2271	-2.6979	176.177	141.717	98.282	184.155	110.962	2.482	103.162	95.012	-46.992	-14.432	180.799	175.859	104.977	-38.881	-22.607	167.676	0.00019433	0.00022476	0.00013828	1275.9	2.5148e-06	3.1881e-06	1326.3	263.68	2.7181e-06	3.3034e-06	324.92	90.688	72.735	21.398	4.9277e-06	29.513	0.00029455	0.000333	9.8643e-05	1257.2	3.9209e-06	3.7484e-06	1312.4	263.21	3.635e-06	3.7177e-06	323.81	91.862	73.013	21.462	3.7799e-06	29.839	-78.435	-48.181	-59.003	-127.871	39.020	17.073	-127.595	-120.825	-2.352	2.696	-121.204	-114.424	-114.207	-107.604	30.495	-107.424	-8191	255	
860.601	1	1	0	0	0.28802	0.28128	0.12046	0.065921	0.1894	0.13666	0.17675	0.13346	0.081033	0.050442	0.16163	0.33421	0.38238	0.19896	0.10847	0.11988	-2.4271	-2.9	-2.8187	-3.5667	-2.8479	-2.8042	-3.0229	-2.7021	-3.0979	-3.0812	-2.6458	-3.1354	-2.9333	-2.8646	-3.0958	-2.5854	133.323	52.377	-104.256	90.458	55.215	146.879	149.233	64.842	-110.066	102.027	174.377	-135.969	-110.854	-138.180	-117.874	73.594	0.00018897	0.0004809	9.5657e-05	1277	3.7828e-06	3.0518e-06	1323.4	264.92	1.9294e-06	3.7222e-06	327.06	90.917	72.259	21.16	3.2391e-06	29.331	0.00028382	0.00032655	9.9624e-05	1256.4	3.7868e-06	3.7502e-06	1309.6	263.46	3.7092e-06	3.6893e-06	324.08	91.947	72.832	21.402	3.5047e-06	29.78	-83.037	-47.726	-37.727	-127.761	40.237	-25.249	-127.600	-120.932	18.520	-11.371	-120.950	-114.669	-114.110	-107.422	21.271	-107.489	-8191	255	
860.695	1	1	0	0	0.24741	0.12162	0.051358	0.28447	0.11905	0.17357	0.26752	0.17086	0.13167	0.18587	0.29468	0.18614	0.035973	0.25149	0.054548	0.22155	-2.6292	-3.1479	-2.6917	-3.0312	-2.7104	-2.8042	-3.4396	-2.9667	-3.1292	-2.9021	-2.5146	-3.0792	-2.9333	-2.8042	-3.2021	-2.7646	133.368	-64.342	-24.475	193.519	185.196	27.216	162.627	146.172	12.128	-38.396	215.004	88.856	142.738	203.742	166.595	-120.756	0.00017238	0.0004045	9.6655e-05	1278.3	3.4522e-06	4.8323e-06	1329	263.84	2.6652e-06	2.0547e-06	325.41	91.944	72.983	21.222	3.2668e-06	29.45	0.0002884	0.00032575	9.0881e-05	1255.8	3.9204e-06	3.7642e-06	1310.2	263.25	3.6939e-06	3.6953e-06	324.03	92.192	73.126	21.421	3.7455e-06	29.833	-85.686	-36.542	-41.031	-127.760	-10.431	23.500	-127.822	-120.692	23.160	44.324	-120.627	-114.270	-113.743	-107.127	15.561	-107.759	-8191	255	
860.791	1	1	0	0	0.12345	0.14662	0.15267	0.34321	0.21721	0.18269	0.15036	0.28214	0.096675	0.31453	0.17278	0.074199	0.13603	0.1671	0.1268	0.067053	-2.5771	-3.1417	-2.5625	-3.0125	-2.7146	-2.6021	-3.1813	-2.9042	-3.0875	-3.0854	-2.8771	-3.1604	-3	-2.7	-3.2042	-2.8625	-33.186	-78.100	-55.301	179.128	-66.236	97.401	153.055	181.824	73.569	3.232	151.437	180.342	210.000	-40.175	18.005	-102.286	0.00018645	0.00043134	0.00010885	1276.2	1.9441e-06	3.3041e-06	1325.6	264.1	2.8764e-06	2.2714e-06	325.26	91.269	72.391	21.229	2.9486e-06	29.389	0.00029942	0.00033327	9.2725e-05	1256.6	3.7628e-06	3.8619e-06	1309.6	263.24	3.8386e-06	3.7449e-06	324.02	92.018	72.961	21.418	3.6229e-06	29.802	-80.982	-40.769	-68.679	-127.621	25.712	-0.744	-127.927	-120.494	-3.999	13.201	-121.258	-114.507	-113.873	-107.508	22.657	-107.641	-8191	255	
860.887	1	1	0	0	0.11422	0.084441	0.13798	0.075047	0.15858	0.29181	0.093087	0.19154	0.077905	0.16806	0.39385	0.26745	0.46988	0.23134	0.24372	0.1941	-2.4188	-2.8812	-2.6333	-3.1083	-2.9896	-2.6937	-3.3354	-2.9062	-3.0521	-3.2438	-2.825	-3.0729	-2.9313	-2.7208	-3.1	-3.0187	-124.763	-32.226	-50.795	-100.594	-117.404	-60.525	210.248	18.709	-9.763	-26.010	161.172	123.546	161.195	-87.509	-89.583	133.149	0.00020014	0.00033468	6.9218e-05	1278	2.7144e-06	4.3911e-06	1327.8	265.52	1.9486e-06	3.0245e-06	325.88	91.466	72.707	21.345	2.8413e-06	29.463	0.00029447	0.0003086	0.00010084	1256.8	3.9668e-06	3.7138e-06	1308.7	263.65	3.8113e-06	3.63e-06	324.02	91.92	73.035	21.51	3.3654e-06	29.852	-77.954	-47.166	-41.349	-127.796	-7.647	9.576	-127.808	-120.986	-8.369	-0.820	-121.058	-114.409	-113.706	-107.439	1.757	-107.644	-8191	255	
860.983	1	1	0	0	0.1405	0.022903	0.080141	0.28288	0.19952	0.0092027	0.082827	0.21154	0.12568	0.03185	0.22476	0.096335	0.21744	0.10317	0.33211	0.067436	-2.2938	-3.0771	-2.8583	-3.1125	-3.1688	-2.7458	-3.3208	-2.8333	-2.625	-3.0875	-2.9	-2.9479	-3.1917	-2.7542	-3.2896	-3.1646	-67.203	176.307	-85.779	127.289	160.387	-119.067	144.081	136.871	143.266	-101.854	175.872	154.678	-104.401	108.904	-44.898	43.760	0.00017773	0.00025484	5.1662e-05	1273.2	4.0858e-06	3.9093e-06	1333	265.41	2.6736e-06	4.2465e-06	326.45	91.318	72.607	21.272	3.4514e-06	29.284	0.0002912	0.00031946	9.1833e-05	1255.8	3.8724e-06	3.8777e-06	1311	263.75	3.8371e-06	3.5762e-06	324.54	91.989	73.123	21.427	3.5269e-06	29.847	-83.333	-34.298	-95.145	-127.737	30.909	15.640	-127.631	-120.787	27.481	1.914	-121.031	-114.347	-114.121	-107.385	4.749	-107.621	-8191	255	
861.080	1	1	0	0	0.051295	0.07579	0.14615	0.27988	0.50256	0.11214	0.072413	0.29788	0.24379	0.22813	0.10603	0.15693	0.12274	0.38093	0.083461	0.21449	-2.3312	-3.1292	-2.5458	-2.8271	-3.1042	-2.6625	-3.2646	-3.1437	-2.7042	-3.1125	-3.0708	-2.9667	-3.0458	-2.7667	-3.0229	-2.9188	33.106	59.502	126.947	120.303	174.566	-98.617	-130.118	219.794	198.677	-52.467	14.578	-73.777	53.959	194.826	-92.872	-138.278	0.00018197	0.00037807	8.6693e-05	1274.2	3.4553e-06	4.772e-06	1328.7	263.36	2.4721e-06	4.6346e-06	324.99	91.008	72.554	21.293	2.7636e-06	29.369	0.00029267	0.00033407	9.4896e-05	1255.7	3.9695e-06	3.9396e-06	1310.7	262.65	3.7897e-06	3.6735e-06	323.76	91.845	73.041	21.467	3.8077e-06	29.834	-72.871	-52.318	-54.318	-127.595	27.333	19.437	-127.571	-120.882	-5.181	7.622	-120.744	-114.488	-114.023	-107.540	-5.099	-107.563	-8191	255	
861.176	1	1	0	0	0.26571	0.1638	0.27635	0.14972	0.21313	0.094604	0.026767	0.28578	0.2036	0.15399	0.14832	0.18832	0.059355	0.10866	0.091319	0.13291	-2.2708	-2.9021	-2.5583	-2.9104	-3.1875	-2.5792	-3.1417	-3.1667	-2.7521	-3.0583	-2.7792	-2.5729	-3.0875	-2.9208	-3.0021	-3.1625	-59.520	-16.820	-60.980	137.541	181.270	75.090	158.359	130.834	107.240	57.533	96.467	205.813	39.714	209.049	178.293	190.942	0.00019448	0.00043507	8.2721e-05	1280.7	2.9449e-06	3.8258e-06	1326.4	265.31	2.961e-06	3.376e-06	325.01	91.331	72.328	21.206	2.9464e-06	29.423	0.00030239	0.00033338	9.4583e-05	1256.5	3.9548e-06	3.871e-06	1311.4	263.33	3.8055e-06	3.6004e-06	324.03	92.011	72.94	21.437	3.5835e-06	29.825	-80.021	-70.425	-63.212	-127.891	-0.039	-3.234	-127.643	-120.601	16.412	1.228	-120.857	-114.373	-113.739	-106.921	-3.907	-107.782	-8191	255	
861.296	1	1	0	0	0.15162	0.13303	0.27046	0.14411	0.011957	0.18843	0.35082	0.3179	0.18917	0.25793	0.1695	0.28001	0.1459	0.17168	0.12891	0.18341	-2.2833	-3.1167	-2.9021	-2.7979	-3.1542	-2.5938	-2.9667	-2.9333	-2.575	-3.0479	-3.0917	-2.9771	-3.2271	-2.9875	-2.9292	-3.1146	-12.303	89.617	205.610	183.815	181.662	189.198	183.439	159.704	48.238	46.124	-42.777	204.226	80.641	85.824	60.320	109.883	0.00018124	0.00041697	0.00010992	1277.5	2.4579e-06	3.7586e-06	1327.2	264.91	2.2417e-06	2.8435e-06	325.82	91.649	73.188	21.187	2.9286e-06	29.706	0.00029311	0.00032967	9.0777e-05	1256	3.7456e-06	3.6949e-06	1310.2	263.32	3.7907e-06	3.4329e-06	324.28	91.855	72.987	21.38	3.513e-06	29.834	-82.838	-47.997	-30.304	-127.728	-12.957	27.309	-127.719	-121.082	15.399	18.617	-121.014	-114.641	-114.176	-107.253	22.879	-107.452	-8191	255	
861.392	1	1	0	0	0.21895	0.11813	0.26849	0.27267	0.063713	0.26158	0.2044	0.21679	0.1108	0.16044	0.092017	0.30213	0.17733	0.029765	0.19333	0.11918	-2.3312	-3.0333	-3	-2.8604	-3.0438	-2.8708	-3	-3.1167	-2.8146	-3.1562	-3.2104	-3.05	-3.1375	-2.9021	-2.9375	-3.1458	38.809	197.388	-26.949	148.737	-22.673	139.240	214.692	139.498	31.543	194.078	168.566	120.999	-129.620	164.673	-96.990	-13.325	0.00018248	0.00041096	8.9815e-05	1273.6	3.0455e-06	4.0374e-06	1325.7	264.76	1.4094e-06	4.9789e-06	326.4	91.275	72.771	21.005	2.6026e-06	29.409	0.00030378	0.00033875	9.2918e-05	1254.5	3.9564e-06	3.5528e-06	1307.7	263.01	3.8549e-06	3.5399e-06	323.74	91.783	72.903	21.359	3.644e-06	29.774	-84.077	-42.326	-57.606	-127.705	54.652	15.951	-127.555	-120.811	-23.326	11.689	-120.867	-114.295	-113.981	-107.420	31.464	-107.557	-8191	255	
#DATA ENDS
