BOXY.EXE: ISS Imagent and Oximeter Data Acquisition Program Version 0.80
Ascii Record File

#ACQ INFORMATION
2  Detector Channels 
16  External MUX Channels 
1  Auxiliary Channels 
5000  Waveform (CCF) Frequency (Hz)
1  Waveforms Skipped 
30  Waveforms Averaged 
1  Cycles Averaged 
16  Acquisitions per Waveform 
10.0806  Updata Rate (Hz) 

#FILE INFORMATION
TRUE -- External MUX Channel results are PARSED.
FALSE -- AC DC and Phase are NOT grouped.
TRUE -- Companion Program Settings File CREATED.
FALSE -- AC data not excluded
FALSE -- DC data not excluded
FALSE -- Phase data not excluded
FALSE -- Auxillary Chn. data not excluded
Tab delimiters

#CALIBRATION STATE
TRUE -- Waveform Calibration Values APPLIED.


#AUX CALIBRATION VALUES
Val Type	aux-1	

Term	1.0000e+00	
Factor	0.0000e+00	


#WF CALIBRATION VALUES
A = Detector Channel
Val Type	A-AC1	A-AC2	A-AC3	A-AC4	A-AC5	A-AC6	A-AC7	A-AC8	A-AC9	A-AC10	A-AC11	A-AC12	A-AC13	A-AC14	A-AC15	A-AC16	A-DC1	A-DC2	A-DC3	A-DC4	A-DC5	A-DC6	A-DC7	A-DC8	A-DC9	A-DC10	A-DC11	A-DC12	A-DC13	A-DC14	A-DC15	A-DC16	A-Ph1	A-Ph2	A-Ph3	A-Ph4	A-Ph5	A-Ph6	A-Ph7	A-Ph8	A-Ph9	A-Ph10	A-Ph11	A-Ph12	A-Ph13	A-Ph14	A-Ph15	A-Ph16	

Term	0.00000e+00	0.00000e+00	0.00000e+00	0.00000e+00	0.00000e+00	0.00000e+00	0.00000e+00	0.00000e+00	0.00000e+00	0.00000e+00	0.00000e+00	0.00000e+00	0.00000e+00	0.00000e+00	0.00000e+00	0.00000e+00	0.00000e+00	0.00000e+00	0.00000e+00	0.00000e+00	0.00000e+00	0.00000e+00	0.00000e+00	0.00000e+00	0.00000e+00	0.00000e+00	0.00000e+00	0.00000e+00	0.00000e+00	0.00000e+00	0.00000e+00	0.00000e+00	0.00000e+00	0.00000e+00	0.00000e+00	0.00000e+00	0.00000e+00	0.00000e+00	0.00000e+00	0.00000e+00	0.00000e+00	0.00000e+00	0.00000e+00	0.00000e+00	0.00000e+00	0.00000e+00	0.00000e+00	0.00000e+00	
Factor	1.00000e+00	1.00000e+00	1.00000e+00	1.00000e+00	1.00000e+00	1.00000e+00	1.00000e+00	1.00000e+00	1.00000e+00	1.00000e+00	1.00000e+00	1.00000e+00	1.00000e+00	1.00000e+00	1.00000e+00	1.00000e+00	1.00000e+00	1.00000e+00	1.00000e+00	1.00000e+00	1.00000e+00	1.00000e+00	1.00000e+00	1.00000e+00	1.00000e+00	1.00000e+00	1.00000e+00	1.00000e+00	1.00000e+00	1.00000e+00	1.00000e+00	1.00000e+00	X	X	X	X	X	X	X	X	X	X	X	X	X	X	X	X	

B = Detector Channel
Val Type	B-AC1	B-AC2	B-AC3	B-AC4	B-AC5	B-AC6	B-AC7	B-AC8	B-AC9	B-AC10	B-AC11	B-AC12	B-AC13	B-AC14	B-AC15	B-AC16	B-DC1	B-DC2	B-DC3	B-DC4	B-DC5	B-DC6	B-DC7	B-DC8	B-DC9	B-DC10	B-DC11	B-DC12	B-DC13	B-DC14	B-DC15	B-DC16	B-Ph1	B-Ph2	B-Ph3	B-Ph4	B-Ph5	B-Ph6	B-Ph7	B-Ph8	B-Ph9	B-Ph10	B-Ph11	B-Ph12	B-Ph13	B-Ph14	B-Ph15	B-Ph16	

Term	0.00000e+00	0.00000e+00	0.00000e+00	0.00000e+00	0.00000e+00	0.00000e+00	0.00000e+00	0.00000e+00	0.00000e+00	0.00000e+00	0.00000e+00	0.00000e+00	0.00000e+00	0.00000e+00	0.00000e+00	0.00000e+00	0.00000e+00	0.00000e+00	0.00000e+00	0.00000e+00	0.00000e+00	0.00000e+00	0.00000e+00	0.00000e+00	0.00000e+00	0.00000e+00	0.00000e+00	0.00000e+00	0.00000e+00	0.00000e+00	0.00000e+00	0.00000e+00	-1.18665e+02	-1.43103e+02	-1.31458e+02	-1.83497e+02	-5.54734e+01	-7.70765e+01	-1.55340e+02	-1.62015e+02	-5.71864e+01	-6.23776e+01	-1.71006e+02	-1.70504e+02	-1.79973e+02	-1.76425e+02	-7.82450e+01	-1.49762e+02	
Factor	1.93118e-05	1.61628e-04	4.26647e-05	2.20701e-01	1.28616e-06	1.56004e-06	1.72996e-01	5.74726e-02	1.10787e-06	1.53154e-06	9.82376e-02	3.28947e-02	5.70057e-02	1.04581e-02	1.48207e-06	1.47673e-02	1.71346e-06	1.81190e-06	5.03972e-07	1.10140e-01	1.97318e-08	1.98080e-08	8.23502e-02	2.89539e-02	1.96931e-08	1.98287e-08	4.75880e-02	1.60157e-02	2.79623e-02	5.24248e-03	1.96653e-08	7.15294e-03	X	X	X	X	X	X	X	X	X	X	X	X	X	X	X	X	



#DISTANCE SETTINGS
A = Detector Channel
A-1	A-2	A-3	A-4	A-5	A-6	A-7	A-8	A-9	A-10	A-11	A-12	A-13	A-14	A-15	A-16	

2.5000e+00	3.0000e+00	2.5000e+00	3.0000e+00	2.0000e+00	3.0000e+00	1.5000e+00	3.0000e+00	3.0000e+00	3.0000e+00	3.0000e+00	3.0000e+00	3.0000e+00	3.0000e+00	1.5000e+00	3.0000e+00	

B = Detector Channel
B-1	B-2	B-3	B-4	B-5	B-6	B-7	B-8	B-9	B-10	B-11	B-12	B-13	B-14	B-15	B-16	

1.0000e+01	1.0000e+01	1.0000e+01	1.4400e+00	1.0000e+01	1.0000e+01	1.5100e+00	1.9400e+00	1.0000e+01	1.0000e+01	1.9900e+00	2.4900e+00	2.4100e+00	2.9000e+00	1.0000e+01	2.9800e+00	




#DATA BEGINS
time	group	step	mark	flag	A-AC1	A-AC2	A-AC3	A-AC4	A-AC5	A-AC6	A-AC7	A-AC8	A-AC9	A-AC10	A-AC11	A-AC12	A-AC13	A-AC14	A-AC15	A-AC16	A-DC1	A-DC2	A-DC3	A-DC4	A-DC5	A-DC6	A-DC7	A-DC8	A-DC9	A-DC10	A-DC11	A-DC12	A-DC13	A-DC14	A-DC15	A-DC16	A-Ph1	A-Ph2	A-Ph3	A-Ph4	A-Ph5	A-Ph6	A-Ph7	A-Ph8	A-Ph9	A-Ph10	A-Ph11	A-Ph12	A-Ph13	A-Ph14	A-Ph15	A-Ph16	B-AC1	B-AC2	B-AC3	B-AC4	B-AC5	B-AC6	B-AC7	B-AC8	B-AC9	B-AC10	B-AC11	B-AC12	B-AC13	B-AC14	B-AC15	B-AC16	B-DC1	B-DC2	B-DC3	B-DC4	B-DC5	B-DC6	B-DC7	B-DC8	B-DC9	B-DC10	B-DC11	B-DC12	B-DC13	B-DC14	B-DC15	B-DC16	B-Ph1	B-Ph2	B-Ph3	B-Ph4	B-Ph5	B-Ph6	B-Ph7	B-Ph8	B-Ph9	B-Ph10	B-Ph11	B-Ph12	B-Ph13	B-Ph14	B-Ph15	B-Ph16	aux-1	digaux	

11887.087	1	1	0	768	0.20392	0.18444	0.089924	0.10562	0.026611	0.23694	0.20296	0.17165	0.020733	0.16208	0.023996	0.25673	0.27325	0.14043	0.12364	0.19074	-2.9292	-2.6688	-3.2521	-3.0708	-2.6667	-3.4917	-2.9604	-2.9083	-3.4104	-2.5792	-3.3292	-3.325	-2.7208	-3.3937	-2.9708	-2.7292	229.632	200.135	-19.306	10.193	322.166	161.850	181.574	259.707	281.427	38.378	155.884	112.081	-8.959	284.573	79.329	29.286	0.00041883	0.0030922	0.00035067	181.7	1.7373e-05	8.5651e-06	243.92	61.645	9.905e-06	2.482e-05	94.48	34.477	19.765	6.9431	2.7112e-05	14.82	0.01608	0.017134	0.0047815	1211.5	0.00018542	0.00018757	1024	332.05	0.00018471	0.00018731	541.91	183.32	280.39	56.24	0.00018538	80.915	105.392	9.917	45.692	-3.848	226.010	-4.976	-5.685	-1.335	183.854	172.560	-3.597	2.309	4.284	5.382	155.124	2.915	-8191	255	
11887.181	1	1	0	0	0.15432	0.14063	0.016104	0.1033	0.19405	0.058197	0.30759	0.14955	0.20077	0.12335	0.077529	0.082798	0.074812	0.18584	0.20173	0.13708	-2.95	-2.7625	-3.0687	-3.2604	-2.8125	-3.3542	-3.0542	-2.8917	-3.4875	-2.9062	-3.0771	-3.3042	-2.8	-3.2188	-3.0896	-2.9375	337.252	222.369	43.176	242.231	29.552	297.595	65.220	331.790	244.574	127.434	133.896	151.366	37.439	207.435	242.173	281.760	0.00035498	0.00042389	0.00057416	182.98	1.7211e-05	3.3051e-05	243.65	62.716	1.2609e-05	1.6095e-05	96.994	33.599	19.644	6.9455	2.9179e-05	14.682	0.01609	0.017118	0.0047585	1207.3	0.0001862	0.00018834	1024.8	334.6	0.00018761	0.00018971	545.12	185.12	285.21	56.872	0.00018696	81.972	97.437	222.328	66.680	-5.215	250.873	109.973	-4.856	0.990	163.046	123.568	-2.350	1.053	4.380	7.253	288.165	3.343	-8191	255	
11887.277	1	1	0	0	0.13917	0.22363	0.19495	0.07711	0.20845	0.055634	0.27613	0.36906	0.17215	0.22125	0.23121	0.11165	0.078931	0.22499	0.12615	0.13631	-2.9562	-2.8438	-2.9625	-3.3063	-2.8312	-3.2687	-3.05	-2.7833	-3.45	-2.8167	-2.8937	-3.3979	-2.65	-3.2	-3.4729	-2.7208	254.537	129.790	138.068	98.487	184.885	335.736	241.207	234.255	338.737	332.134	263.652	324.832	169.304	234.279	15.051	244.599	0.00014278	0.001173	0.00040324	181.99	1.2307e-05	8.5718e-06	245.5	62.591	6.6214e-06	4.2968e-05	94.465	34.675	18.927	6.805	8.5574e-06	14.19	0.016392	0.017428	0.004798	1218.4	0.00018867	0.00019011	1029.5	337.32	0.00019008	0.0001916	548.12	186.42	289.19	57.44	0.00018837	82.811	190.426	66.659	5.619	-4.982	261.447	-0.093	-5.735	0.352	22.439	17.863	-2.330	2.604	3.817	6.844	262.957	3.487	-8191	255	
11887.373	1	1	0	0	0.18521	0.24955	0.082564	0.042454	0.12714	0.19482	0.20406	0.16912	0.17084	0.16012	0.063377	0.28676	0.081055	0.10137	0.1296	0.13911	-3.0854	-2.9958	-2.725	-3.3063	-2.8292	-3.1937	-3.3458	-2.7687	-3.3792	-3.1854	-2.7938	-3.5125	-2.875	-3.1333	-3.3875	-2.7042	20.946	75.024	194.870	289.179	81.460	142.597	237.938	316.022	109.145	304.667	125.629	263.358	89.687	55.734	323.227	22.946	0.00065421	0.0032712	0.00052585	182.86	1.0229e-05	8.7127e-06	245.49	61.453	7.8528e-06	1.4037e-05	96.084	33.916	19.935	6.9444	8.2953e-06	14.733	0.01665	0.017587	0.0048413	1233.7	0.00019117	0.00019211	1034.6	340.22	0.00019192	0.00019245	548.36	188.03	289.06	57.157	0.00018766	82.563	147.563	57.568	277.368	-4.841	241.646	68.109	-5.489	0.498	154.262	101.026	-2.379	2.240	3.661	5.329	146.227	2.543	-8191	255	
11887.470	1	1	0	0	0.14192	0.04128	0.19647	0.18056	0.07114	0.17083	0.083551	0.1953	0.17733	0.082314	0.31974	0.16377	0.17571	0.18052	0.042432	0.17895	-3.1021	-3.0604	-2.6083	-3.4562	-2.8021	-3.1229	-3.4688	-2.6646	-3.35	-2.9896	-2.7167	-3.4104	-2.8812	-3.0167	-3.5104	-2.7438	250.921	179.107	147.519	123.872	281.852	307.867	162.186	70.731	71.906	285.378	277.651	130.648	283.549	329.764	49.586	243.313	0.00039046	0.003527	0.00060367	176.33	1.6406e-05	2.5821e-05	246.71	62.636	1.1483e-05	1.8405e-05	97.044	34.531	19.136	6.8598	3.2984e-05	14.448	0.016511	0.017337	0.0047852	1226.3	0.00018884	0.0001889	1025	336.59	0.00018845	0.00018829	542.05	185.93	285.05	56.27	0.00018487	81.784	293.339	287.631	76.000	-4.034	167.654	173.267	-5.268	-0.953	39.731	26.115	-0.629	2.037	0.623	5.130	191.228	4.188	-8191	255	
11887.566	1	1	0	0	0.10954	0.040557	0.24915	0.12563	0.16179	0.12353	0.22072	0.18846	0.17942	0.18465	0.18324	0.07461	0.19772	0.12174	0.15583	0.11515	-2.9458	-3.125	-2.8292	-3.4562	-2.875	-2.825	-3.3292	-2.5958	-3.2375	-3.1833	-2.6312	-3.3563	-2.9583	-2.9437	-3.4125	-2.5521	95.597	32.086	104.736	180.811	313.147	39.193	257.237	222.376	230.304	249.050	323.536	310.321	123.613	290.508	214.320	12.015	4.7514e-05	0.0021808	0.0012158	180.18	1.4557e-05	5.0633e-05	248.89	62.136	3.2431e-05	1.5195e-05	93.419	34.178	18.458	6.9894	5.0187e-05	14.655	0.016287	0.017036	0.0047236	1218.4	0.00018662	0.00018586	1014.5	334.16	0.00018648	0.00018561	537.12	184.71	281.65	55.651	0.00018382	81.417	318.446	187.656	187.080	-2.662	32.944	185.977	-4.717	0.604	34.295	16.080	-1.709	2.214	2.766	4.540	171.681	4.232	-8191	255	
11887.686	1	1	0	0	0.27177	0.081483	0.18835	0.085902	0.16012	0.15275	0.1576	0.036752	0.15434	0.36726	0.19153	0.10387	0.30712	0.23693	0.16963	0.15531	-2.7438	-3.2438	-2.5396	-3.3083	-2.8875	-2.8229	-3.4625	-2.8646	-3.0917	-3.3833	-2.6229	-3.3812	-2.9625	-2.7417	-3.5708	-2.8063	-6.508	48.152	-5.699	13.873	170.324	210.834	14.703	263.939	293.613	59.798	224.354	144.259	158.737	184.153	103.249	258.190	3.9465e-05	0.0031433	0.00080956	177.79	2.5944e-05	1.3659e-05	245.01	60.869	2.518e-05	2.7687e-05	97.322	34.989	19.78	6.7534	2.782e-05	14.623	0.016132	0.016881	0.0047149	1216	0.00018567	0.0001857	1018.7	336.4	0.00018686	0.00018715	543.62	186.18	284.06	56.344	0.00018742	82.758	-8.317	341.763	236.544	-3.670	8.991	271.427	-4.786	0.364	57.282	95.091	-1.123	2.819	3.949	5.488	12.690	5.804	-8191	255	
11887.783	1	1	0	0	0.22874	0.26186	0.18064	0.1327	0.17592	0.21996	0.12599	0.14502	0.1797	0.06024	0.14294	0.18378	0.12675	0.067122	0.12799	0.13688	-2.7125	-3.3604	-2.6	-3.3521	-3.0062	-2.6854	-3.5396	-2.9604	-2.9833	-3.4542	-2.6292	-3.15	-3.1646	-2.5208	-3.4979	-2.8625	201.987	93.763	169.750	136.358	341.728	334.877	177.858	166.095	16.224	312.746	187.203	327.003	302.108	196.147	162.795	242.412	0.00037154	0.0013003	0.0010836	181.58	2.6092e-05	5.1524e-05	247.19	63.268	1.975e-05	9.7428e-06	94.027	34.04	19.407	6.7214	6.3284e-05	14.695	0.016446	0.017305	0.0048497	1242	0.00018979	0.00019027	1039.8	343.34	0.00019004	0.00019135	555.27	189.94	288.46	57.3	0.00019127	83.96	95.945	79.912	88.508	-5.117	14.490	206.012	-5.270	-0.020	58.888	165.244	-2.242	2.046	2.138	5.502	122.272	4.116	-8191	255	
11887.879	1	1	0	0	0.1182	0.13246	0.2408	0.244	0.12891	0.28657	0.22048	0.32894	0.21133	0.14544	0.15798	0.29426	0.12073	0.34787	0.18628	0.075813	-2.4979	-3.4875	-2.6979	-3.1125	-3.1375	-2.6792	-3.5146	-2.8354	-2.9292	-3.5521	-2.7708	-3.1667	-3.2354	-2.6854	-3.4188	-2.8187	207.989	271.743	80.711	2.715	227.423	-2.496	209.949	216.898	176.463	121.527	56.240	-12.393	117.610	224.454	126.465	200.263	0.00015402	0.001714	0.00066583	175.29	2.2832e-05	7.797e-06	244.44	62.182	1.1381e-05	9.5063e-06	94.016	34.132	18.39	6.8739	3.4915e-06	14.222	0.016582	0.017577	0.0049181	1251.1	0.00019075	0.00019239	1050.3	344.57	0.00019104	0.00019331	558.68	190.23	287.81	57.333	0.00019137	83.289	140.937	80.808	149.378	-3.727	87.389	329.152	-4.824	-0.725	37.328	277.844	-2.024	2.159	5.333	7.608	334.144	4.934	-8191	255	
11887.975	1	1	0	0	0.2318	0.11718	0.47848	0.038896	0.16114	0.13967	0.25224	0.28434	0.089804	0.082052	0.27994	0.27418	0.16524	0.096893	0.16267	0.31232	-2.4042	-3.5396	-2.7979	-3.1208	-3.375	-2.6167	-3.3875	-3.0438	-2.7083	-3.4313	-2.8688	-2.9896	-3.4271	-2.8292	-3.2896	-3.2271	249.962	239.218	255.209	19.317	197.441	33.910	38.338	334.438	286.607	291.589	59.792	59.517	-12.248	175.518	95.189	91.587	3.823e-05	0.0028647	0.00023485	182.8	5.9712e-06	2.4466e-05	247.77	62.987	1.7381e-05	1.48e-05	93.303	34.667	18.469	6.8671	3.5295e-05	14.429	0.016441	0.017474	0.0048869	1238	0.00018852	0.00019034	1040.8	339.16	0.00018772	0.00019005	550.54	187.26	284.93	56.837	0.0001891	82.152	207.782	102.939	122.249	-4.328	241.161	204.367	-4.176	-1.819	165.986	169.583	-2.018	1.958	3.910	4.538	42.895	4.548	-8191	255	
11888.071	1	1	0	0	0.19567	0.047308	0.33781	0.26159	0.18317	0.22199	0.18208	0.18734	0.30291	0.20529	0.12539	0.23947	0.20475	0.13837	0.18524	0.030669	-2.1896	-3.3771	-2.9813	-2.9021	-3.5833	-2.7104	-3.3958	-3.3542	-2.8354	-3.5646	-3.0417	-2.9771	-3.2729	-2.6458	-3.1854	-3.2646	75.791	38.035	127.199	77.746	323.323	167.274	156.848	229.888	292.019	252.675	327.710	336.864	291.469	156.322	103.506	268.675	8.5793e-05	0.001629	0.0012562	177.56	4.6481e-06	2.8007e-05	249.62	62.798	1.7996e-05	2.4568e-05	95.631	33.913	17.401	6.7159	2.269e-05	14.456	0.016209	0.017283	0.0048049	1218.3	0.00018587	0.00018849	1029.2	333.75	0.0001857	0.00018859	544.75	184.73	282.05	56.449	0.00018722	81.496	108.980	94.076	80.353	-4.616	276.133	225.714	-4.395	0.937	265.252	170.252	-1.221	3.079	2.941	8.733	53.537	3.760	-8191	255	
11888.167	1	1	0	0	0.14098	0.14314	0.25701	0.33457	0.11651	0.32924	0.30219	0.24409	0.15856	0.25018	0.26825	0.072647	0.19601	0.18324	0.21362	0.15043	-2.3688	-3.4333	-2.8354	-2.8896	-3.4625	-2.8583	-3.1937	-3.4167	-2.7562	-3.3354	-2.9938	-2.8312	-3.5	-2.7104	-3.2417	-3.4333	201.874	116.925	285.338	66.670	105.459	84.989	212.024	180.828	233.803	322.610	304.760	-8.436	11.760	257.376	85.129	281.596	0.00038923	0.00034621	0.0010297	176.71	1.5984e-05	1.1089e-05	249.17	61.511	3.6093e-05	8.1502e-06	93.643	34.575	18.498	6.6597	1.6839e-05	14.305	0.016126	0.017202	0.0047755	1208.3	0.00018539	0.00018833	1026.2	333.53	0.00018665	0.00019042	546.51	185.38	284.1	56.89	0.00018768	81.583	304.730	254.850	149.232	-4.505	-11.013	198.730	-4.666	0.160	199.802	194.687	-2.840	3.774	3.292	8.031	63.452	5.946	-8191	255	
11888.286	1	1	0	0	0.08638	0.10977	0.071634	0.19345	0.14747	0.14382	0.24205	0.12833	0.29266	0.15902	0.33356	0.083918	0.091735	0.12736	0.17283	0.1524	-2.2667	-3.4104	-3.075	-2.8438	-3.4688	-2.9813	-3	-3.3208	-2.6229	-3.3792	-3.1521	-2.85	-3.3896	-2.8479	-2.9042	-3.4396	-3.620	-4.201	27.133	169.060	160.054	176.664	-17.459	222.524	200.886	125.552	270.936	271.961	288.815	97.380	218.115	57.798	0.00041412	0.0025355	0.00084209	180.47	9.0461e-06	1.3882e-05	245.23	63.038	3.1337e-06	1.468e-05	94.332	33.682	18.374	6.859	2.6749e-05	14.194	0.016356	0.017482	0.0048199	1220.8	0.00018797	0.00018994	1027	334.36	0.0001876	0.00019071	543.02	184.7	284.64	56.788	0.00018706	81.509	169.176	158.589	-9.668	-4.936	153.260	38.832	-5.067	-0.024	333.565	228.527	-3.139	1.606	2.324	6.787	325.024	4.465	-8191	255	
11888.382	1	1	0	0	0.18321	0.091294	0.19918	0.28779	0.11247	0.021413	0.33314	0.021906	0.16912	0.28948	0.20546	0.37059	0.16126	0.29253	0.14086	0.14002	-2.3104	-3.0354	-3.0938	-2.7208	-3.4604	-2.9792	-2.8667	-3.4625	-2.7083	-3.3375	-3.2438	-2.5229	-3.4313	-2.9729	-2.9521	-3.5396	87.708	282.609	18.176	8.855	216.949	259.163	250.985	336.182	32.577	183.133	44.181	235.232	6.802	76.129	62.561	151.903	0.000179	0.0042785	0.00028338	176.96	1.3083e-05	2.1528e-05	247.74	61.764	1.8946e-05	1.8842e-05	94.202	33.822	18.143	6.6453	5.4816e-06	14.663	0.016407	0.017394	0.0047881	1217.2	0.00018792	0.00018904	1020.9	333.57	0.00018714	0.00018897	539.78	183.92	282.55	55.859	0.00018338	80.78	280.626	278.632	-1.873	-3.217	83.114	122.844	-5.916	-0.768	59.526	-4.633	-1.392	0.835	5.549	5.446	253.664	3.935	-8191	255	
11888.478	1	1	0	0	0.18798	0.14005	0.22598	0.065547	0.26849	0.056816	0.056261	0.24266	0.16733	0.19717	0.15175	0.069905	0.16988	0.17319	0.018498	0.12953	-2.2833	-3.2458	-3.2812	-2.5833	-3.5292	-3.1125	-2.9188	-3.5646	-2.7375	-2.9938	-3.3792	-2.7417	-3.325	-3.0854	-2.7188	-3.5042	136.518	289.051	87.141	146.007	171.022	341.015	200.033	234.215	106.008	17.990	211.744	211.985	303.822	263.103	87.148	227.410	0.00021148	0.0017583	8.7929e-05	181.53	3.5916e-05	3.4568e-05	242.92	61.92	1.8756e-05	8.3055e-06	94.335	33.287	18.432	6.4747	2.6416e-06	14.307	0.016093	0.016956	0.0046679	1199.3	0.00018479	0.00018445	1002.1	328.92	0.00018373	0.00018392	528.57	181.21	277.11	54.89	0.00018026	79.952	79.027	63.889	73.895	-3.657	295.419	15.030	-4.605	1.617	114.861	204.328	-1.403	2.958	2.952	5.812	220.488	6.252	-8191	255	
11888.574	1	1	0	0	0.21292	0.1313	0.16727	0.25385	0.11164	0.17944	0.081655	0.19231	0.20601	0.16529	0.14713	0.073961	0.26868	0.076381	0.14333	0.14647	-2.5104	-3.1167	-3.4208	-2.8146	-3.3458	-3.125	-2.6188	-3.5104	-3.0333	-2.9313	-3.5458	-2.6437	-3.2438	-3.2875	-2.6646	-3.3458	295.174	270.633	253.894	151.893	17.861	324.056	267.023	97.012	309.064	111.151	134.246	97.160	56.097	289.875	26.726	49.748	0.00018911	0.0019096	0.0013297	181.96	2.0665e-05	1.583e-05	249.55	61.923	2.2934e-05	1.8495e-05	95.056	33.651	19.538	6.5133	1.3709e-05	14.169	0.015883	0.01668	0.004617	1191.1	0.00018277	0.00018239	996.26	327.71	0.00018218	0.00018175	525.95	180.72	276.33	54.434	0.00017966	79.704	77.728	41.096	275.677	-5.076	293.846	204.472	-4.040	0.435	224.429	51.719	-1.557	1.859	5.503	4.585	83.864	5.130	-8191	255	
11888.646	1	1	0	0	0.15513	0.13297	0.21473	0.08939	0.058817	0.16748	0.055151	0.10366	0.082631	0.15643	0.076758	0.33804	0.13561	0.21973	0.084579	0.12589	-2.4958	-2.8833	-3.4583	-2.5958	-3.2958	-3.3542	-2.65	-3.3854	-3.0583	-2.7062	-3.6104	-2.7292	-3.1813	-3.2812	-2.6188	-3.4146	340.012	308.790	226.079	175.760	310.088	161.019	218.987	201.402	223.083	273.113	315.878	228.608	66.928	244.670	70.069	301.907	0.00022929	0.0032284	0.00037576	181.14	2.9746e-05	2.9567e-05	247.36	62.101	1.13e-05	1.4001e-05	94.777	33.049	19.393	6.6141	2.8645e-05	14.226	0.015811	0.016544	0.0046141	1189	0.00018181	0.0001809	998.71	328.65	0.00018239	0.00018278	531.59	182.56	278.24	54.828	0.00018223	80.884	149.423	135.908	76.537	-4.568	268.791	339.968	-4.122	0.331	92.095	135.523	-1.640	2.719	3.931	8.121	302.920	4.210	-8191	255	
11888.767	1	1	0	0	0.242	0.065008	0.051408	0.05817	0.15614	0.13332	0.18902	0.14174	0.18953	0.20214	0.2713	0.22668	0.16748	0.14439	0.18366	0.067421	-2.7375	-2.7896	-3.4333	-2.9042	-3.1333	-3.4375	-2.7938	-3.3875	-3.1562	-2.7729	-3.6479	-2.8396	-3.2542	-3.4375	-2.8667	-3.3167	330.756	198.799	285.395	20.014	146.493	179.835	218.964	331.805	151.647	130.588	268.006	64.803	77.546	47.888	290.281	27.241	0.00021226	0.0013908	0.00025106	176.78	2.5512e-05	2.8719e-05	244.26	61.09	2.3101e-05	3.2071e-05	94.462	34.161	18.031	6.838	3.716e-05	14.434	0.015975	0.016809	0.004708	1209.3	0.00018442	0.00018375	1012.2	332.54	0.00018392	0.00018465	538.38	184.61	280.25	55.437	0.00018529	81.644	6.587	271.625	113.912	-2.346	-12.233	205.690	-4.969	0.345	335.900	47.785	-1.403	2.806	2.694	7.371	76.806	4.976	-8191	255	
11888.863	1	1	0	0	0.047484	0.16267	0.041309	0.11067	0.2555	0.2797	0.3393	0.286	0.14845	0.035514	0.24829	0.094378	0.1522	0.17341	0.06546	0.19769	-2.775	-2.6854	-3.5104	-3.0708	-3.075	-3.4646	-2.8021	-3.2104	-3.1521	-2.7313	-3.4333	-2.8729	-2.8979	-3.7208	-2.7812	-3.2792	209.460	154.485	113.872	230.122	329.040	283.070	287.486	259.500	296.402	238.316	295.121	275.626	288.988	241.894	281.509	174.846	0.00021835	0.001101	0.0006362	175.78	2.0834e-05	1.4418e-05	248.47	63.634	4.045e-05	9.1517e-06	93.525	33.105	19.181	6.7704	3.3182e-05	14.493	0.016126	0.017036	0.0047818	1219.1	0.00018536	0.00018617	1023.5	335.25	0.00018528	0.00018657	544.75	185.65	281.26	55.907	0.00018629	81.619	122.113	275.715	104.711	-3.740	87.909	285.427	-4.716	-0.265	123.267	281.089	-1.576	2.231	3.660	6.491	123.545	5.577	-8191	255	
11888.959	1	1	0	0	0.14075	0.35017	0.031245	0.27741	0.30686	0.072821	0.12891	0.01936	0.055516	0.044079	0.041463	0.18883	0.11712	0.14277	0.090369	0.30278	-2.9854	-2.7583	-3.3521	-3.0583	-2.825	-3.6521	-2.8583	-3.0208	-3.2687	-2.7083	-3.5208	-3.125	-2.6896	-3.4896	-2.8375	-3.1437	69.382	178.814	-11.688	84.837	128.637	257.403	295.091	-2.168	335.537	315.643	197.466	134.068	5.708	301.260	253.466	138.329	0.00022517	0.0044556	0.00046535	176.21	2.6153e-05	2.0007e-05	244.11	61.381	1.3916e-05	2.8444e-05	93.805	33.482	19.447	6.5208	6.2215e-06	14.088	0.01601	0.016964	0.0047475	1209	0.00018351	0.00018495	1014	330.59	0.00018211	0.00018411	534.56	181.7	275.23	55.067	0.00018281	80.172	141.645	156.060	227.709	-5.945	116.233	332.062	-4.593	-0.333	200.395	187.712	-1.157	2.129	2.074	8.351	104.412	4.126	-8191	255	
11889.055	1	1	0	0	0.29125	0.24651	0.211	0.27458	0.20028	0.15993	0.065589	0.12355	0.11777	0.30885	0.10326	0.18926	0.17751	0.15068	0.14826	0.35223	-2.8438	-2.6188	-3.3333	-3.0792	-2.8167	-3.4333	-2.8312	-3.0208	-3.3333	-2.7917	-3.3104	-3.2583	-2.8604	-3.5938	-3.0104	-2.9604	251.510	209.237	170.792	199.800	260.182	22.770	303.402	241.466	323.114	155.231	302.317	219.486	123.838	307.662	62.903	337.986	0.00036023	0.002834	0.0005824	178.09	1.4807e-05	2.7994e-05	244.37	61.524	1.0209e-05	1.4209e-05	91.822	33.55	19.802	6.7186	1.4092e-05	14.068	0.01576	0.016745	0.0046965	1192.4	0.00018114	0.00018331	1006.6	327.27	0.0001804	0.00018378	533.19	180.73	274.62	55.21	0.00018269	79.819	223.660	155.633	214.234	-4.332	197.212	155.440	-5.664	-1.038	45.451	224.882	-1.111	2.842	5.301	7.899	20.959	4.248	-8191	255	
11889.174	1	1	0	0	0.30409	0.042438	0.13207	0.20294	0.056785	0.20304	0.041573	0.24524	0.24485	0.15397	0.12679	0.10681	0.049829	0.10487	0.093803	0.069901	-2.9667	-2.7125	-3.4208	-3.2687	-2.9625	-3.5854	-3.25	-2.8229	-3.6771	-2.8063	-3.2	-3.375	-2.8292	-3.4646	-2.9292	-3.0229	110.488	16.192	8.027	321.104	265.775	210.304	211.463	-4.812	77.420	203.282	294.254	231.228	276.760	89.218	184.674	215.086	0.00040541	0.0015757	0.00043699	181.27	2.9288e-05	3.6497e-05	243.18	60.401	8.9097e-06	2.6521e-05	94.484	33.53	18.769	6.561	3.8283e-05	14.877	0.015747	0.016853	0.0046954	1188.2	0.00018131	0.00018383	1006.3	326.89	0.00018163	0.00018408	534.57	180.8	276.49	55.53	0.00018373	80.541	219.738	127.653	-4.075	-4.648	61.626	254.434	-4.558	0.998	-16.600	166.324	-2.299	3.734	3.084	5.471	77.939	5.556	-8191	255	
11889.247	1	1	0	0	0.1656	0.072729	0.023552	0.16503	0.18353	0.25532	0.39214	0.088234	0.14635	0.073426	0.17016	0.22252	0.10044	0.055629	0.20417	0.25772	-3.0417	-2.8292	-3.1708	-3.2604	-2.7021	-3.4854	-3.0604	-2.6958	-3.5271	-2.9979	-2.9667	-3.3792	-2.7771	-3.3604	-3.1063	-2.6792	126.111	52.612	77.888	15.544	5.249	35.711	291.728	301.857	-6.352	48.038	301.104	147.985	48.793	268.232	152.819	212.201	0.000347	0.0037642	0.00093673	177.06	2.6845e-05	5.5943e-06	246.54	62.623	2.3441e-05	3.0977e-05	93.442	34.367	19.708	6.605	1.7385e-05	14.773	0.015953	0.017078	0.0047532	1205.8	0.00018538	0.00018753	1021.6	332.34	0.00018613	0.00018871	543.54	184.43	283.08	56.504	0.00018594	81.374	125.648	130.717	75.188	-3.310	35.117	66.226	-4.923	-0.708	305.437	219.889	-1.501	2.385	5.236	5.845	-5.892	5.229	-8191	255	
11889.366	1	1	0	0	0.13822	0.12966	0.16181	0.12554	0.26124	0.15648	0.13858	0.4241	0.0926	0.081072	0.13252	0.093057	0.20096	0.075134	0.08953	0.13829	-3.0292	-2.9146	-2.8875	-3.4604	-2.6375	-3.2646	-3.4104	-2.6646	-3.6208	-2.7979	-3.2167	-3.5583	-2.6646	-3.3125	-3.4667	-2.7083	290.130	91.617	227.576	92.651	37.942	283.927	276.887	267.540	271.520	119.946	13.690	281.970	168.306	62.285	318.125	39.531	0.00028497	0.0022923	0.00016911	176.67	1.3847e-05	3.3342e-05	247.42	61.523	2.5201e-05	1.9277e-05	93.321	34.025	17.613	6.7373	1.6756e-05	14.716	0.016223	0.017289	0.0047759	1216.4	0.00018797	0.00018934	1024.2	334.87	0.00018756	0.00018966	543.61	185.51	285.03	56.641	0.00018567	81.676	171.377	298.617	302.944	-3.463	179.789	103.973	-5.630	0.111	188.075	228.017	-2.731	2.135	4.216	5.869	170.598	4.979	-8191	255	
11889.463	1	1	0	0	0.15825	0.050844	0.059945	0.19882	0.070438	0.14539	0.14954	0.13085	0.15195	0.2821	0.050023	0.084066	0.11255	0.15247	0.067956	0.16572	-3.1479	-2.9979	-2.7208	-3.6208	-2.7208	-3.2021	-3.225	-2.8146	-3.5542	-3.0563	-2.7396	-3.6937	-2.8417	-3.1625	-3.5312	-2.7125	121.681	258.601	121.525	269.745	93.818	30.408	264.051	192.145	244.996	123.293	57.280	8.400	246.175	281.659	5.203	300.646	0.00040032	0.00070516	0.00073193	183.43	7.9927e-06	1.0284e-05	245.81	60.602	1.5369e-05	2.7893e-05	93.037	33.939	18.914	6.7943	3.5076e-05	14.517	0.016342	0.017201	0.0047453	1214.7	0.00018708	0.00018699	1014.6	331.92	0.00018595	0.00018604	535.28	183.7	281.9	55.89	0.00018333	81.165	92.313	234.187	153.311	-2.718	200.139	16.027	-4.663	0.679	333.979	275.758	-1.355	2.410	1.641	6.713	198.956	2.437	-8191	255	
11889.559	1	1	0	0	0.32443	0.19851	0.076192	0.11892	0.21727	0.15897	0.33704	0.15587	0.21546	0.076264	0.18181	0.10009	0.17246	0.11378	0.21905	0.071142	-3.0563	-3.0563	-2.8708	-3.4	-2.9458	-3.0917	-3.4938	-2.8771	-3.2562	-3.2438	-2.9896	-3.3521	-3.125	-2.9854	-3.6188	-2.8354	322.723	219.232	59.074	96.765	35.470	259.060	317.528	230.310	227.332	149.011	34.282	48.021	255.910	211.842	254.396	8.009	0.00024719	0.0045044	0.00020237	174.34	5.0541e-06	1.7894e-05	247.91	61.47	2.0477e-05	8.3815e-06	92.269	34.192	17.975	6.5211	6.3639e-06	14.146	0.016196	0.017058	0.0047148	1210.1	0.00018632	0.00018607	1012.4	331.4	0.00018496	0.00018525	535.39	183.68	281.32	55.566	0.0001827	81.158	340.500	93.383	233.913	-3.714	188.037	41.624	-3.985	0.383	151.223	165.669	-1.007	2.665	2.273	7.169	13.182	6.590	-8191	255	
11889.655	1	1	0	0	0.14851	0.053604	0.22855	0.19246	0.14733	0.27909	0.15951	0.025901	0.084745	0.22374	0.16882	0.2344	0.16689	0.17196	0.13133	0.27898	-2.9208	-3.2354	-2.7667	-3.3146	-2.9271	-3.0563	-3.5458	-2.8167	-3.2	-3.1063	-2.7313	-3.4479	-3.0083	-2.9771	-3.4	-2.9437	315.921	20.595	311.857	341.261	321.607	150.184	153.715	-10.221	66.579	241.053	94.278	32.858	54.914	1.763	252.451	218.516	0.00016435	0.0043993	0.00073848	179.76	1.2041e-05	2.7072e-05	251.69	61.945	1.5021e-05	2.4312e-05	94.808	34.355	19.603	6.7058	2.1314e-05	14.673	0.016126	0.016906	0.0046956	1208.4	0.0001851	0.00018431	1009.9	331.89	0.00018443	0.0001839	533.64	183.61	279.77	55.235	0.00018304	81.564	322.887	6.482	169.162	-4.492	261.160	57.473	-4.587	0.217	160.646	215.929	-0.871	2.829	0.935	6.410	41.548	3.351	-8191	255	
11889.775	1	1	0	0	0.23026	0.16183	0.11337	0.21593	0.25051	0.16904	0.11112	0.0024744	0.21491	0.16711	0.13331	0.31171	0.20559	0.39324	0.13955	0.14789	-2.8375	-3.3312	-2.675	-3.5312	-3.0563	-2.8875	-3.6854	-2.925	-3.0896	-3.4437	-2.7938	-3.4667	-3.1583	-2.6521	-3.4417	-2.8958	244.396	300.092	301.572	30.882	107.971	71.565	269.286	180.000	136.246	73.269	188.255	29.080	88.535	77.247	226.331	72.535	0.0001924	0.002847	0.0016309	172.74	3.1608e-05	1.8949e-05	247.49	61.652	1.852e-05	5.4656e-06	93.195	34.737	18.49	6.5312	2.4639e-05	14.352	0.016123	0.016969	0.0047392	1225.2	0.0001869	0.00018614	1019.3	336.61	0.00018729	0.0001867	544.72	187.2	284.56	56.182	0.00018676	82.687	275.509	277.987	166.737	-2.988	-15.272	91.390	-4.893	-0.121	60.799	252.033	-2.555	3.208	1.845	4.476	206.489	5.085	-8191	255	
11889.872	1	1	0	0	0.11889	0.26652	0.25982	0.041987	0.2799	0.19484	0.24578	0.23546	0.33736	0.16844	0.13275	0.10989	0.16252	0.21909	0.16311	0.15223	-2.5812	-3.2458	-2.5771	-3.3021	-3.1271	-2.8875	-3.4979	-2.825	-3.0833	-3.4021	-2.8354	-3.1167	-3.2979	-2.6646	-3.4521	-2.8792	304.796	185.666	106.190	324.882	208.792	247.390	303.385	299.790	61.407	135.897	293.545	47.737	151.860	82.085	191.019	86.784	0.00014359	0.0025887	0.00060138	177.85	3.4867e-05	4.1988e-05	242.65	60.97	2.2304e-05	3.7754e-05	92.835	33.413	18.319	6.7677	7.9239e-06	14.374	0.016337	0.017152	0.0048283	1238.5	0.00018875	0.00018875	1032.3	339.42	0.00018807	0.00018857	549.68	188.38	286.14	56.725	0.00018865	82.795	51.669	8.816	105.465	-2.918	-4.010	189.642	-4.366	0.311	272.846	118.086	-1.252	2.616	3.715	7.731	-5.149	5.481	-8191	255	
11889.968	1	1	0	0	0.14167	0.17228	0.2014	0.016377	0.18612	0.19962	0.035265	0.10826	0.18236	0.10298	0.042537	0.29654	0.18406	0.356	0.21061	0.35001	-2.4542	-3.525	-2.9042	-3.3646	-3.2375	-2.7875	-3.5292	-3.0292	-2.8979	-3.4333	-2.8146	-3.1833	-3.4271	-2.7562	-3.4979	-3.0917	138.460	203.804	176.339	107.468	165.659	150.475	144.155	-13.179	163.585	4.055	113.635	12.385	-9.611	143.114	54.978	55.191	0.0002037	0.0023163	0.00037268	175.89	2.1024e-05	1.6014e-05	242.81	61.176	4.2518e-05	2.5163e-05	92.74	33.556	18.424	6.5564	1.0503e-05	14.44	0.016325	0.017226	0.0048257	1230.4	0.00018723	0.00018826	1031.6	337.33	0.00018614	0.00018812	546.03	186.17	281.57	56.085	0.00018723	81.873	8.422	39.810	138.671	-4.075	223.870	139.489	-4.243	-0.077	257.129	105.418	-1.088	3.265	2.094	6.172	286.523	5.006	-8191	255	
11890.064	1	1	0	0	0.07579	0.067346	0.15173	0.32084	0.17728	0.2519	0.29408	0.12294	0.0165	0.18415	0.094128	0.15407	0.16354	0.070829	0.089271	0.13385	-2.3729	-3.5021	-2.8917	-3.0167	-3.3312	-2.7687	-3.4042	-3.2125	-2.775	-3.5958	-2.8625	-3.0083	-3.5312	-2.6625	-3.35	-3.1958	89.873	121.713	224.568	57.603	-0.580	167.645	340.392	279.655	326.344	208.270	27.388	22.251	95.917	84.402	340.652	335.942	0.00030731	0.0050545	0.00019239	177.06	1.2569e-05	1.2863e-05	244.93	61.613	7.9263e-06	1.3848e-05	93.207	33.558	19.311	6.6281	2.6636e-05	14.279	0.016065	0.017093	0.0047705	1214.9	0.00018449	0.00018641	1021.9	333.2	0.00018386	0.00018626	542.17	184.56	279.7	56.001	0.00018649	81.29	220.468	214.566	281.705	-3.769	184.578	256.855	-4.151	0.428	0.654	154.769	-1.586	2.234	4.605	8.526	327.055	4.214	-8191	255	
11890.158	1	1	0	0	0.32973	0.19395	0.087575	0.023851	0.21778	0.15111	0.29062	0.39312	0.20886	0.15307	0.1196	0.20432	0.11539	0.19233	0.21157	0.22143	-2.3708	-3.4646	-2.8479	-2.8208	-3.2479	-2.7375	-3.2854	-3.3021	-2.6792	-3.5271	-2.9437	-2.9688	-3.4729	-2.7792	-3.1125	-3.2958	92.118	161.063	331.586	186.638	-2.530	29.822	287.223	18.794	168.112	128.399	-12.619	341.587	20.884	132.356	192.618	5.701	0.00042758	0.001354	0.00018921	179.76	8.0155e-06	5.6092e-05	241.4	61.753	1.736e-06	2.0013e-05	94.507	33.518	19.059	6.5794	1.9841e-05	14.071	0.016055	0.017142	0.004773	1209.9	0.00018465	0.00018724	1021.7	332.01	0.00018402	0.0001875	542.37	183.74	280.46	56.072	0.00018598	81.196	132.103	104.905	214.361	-4.341	32.483	248.947	-4.343	0.563	238.398	238.683	-1.264	3.421	8.847	7.608	264.296	5.445	-8191	255	
11890.254	1	1	0	0	0.07968	0.14761	0.0092278	0.25265	0.25319	0.20249	0.19504	0.11236	0.1151	0.24623	0.27816	0.11823	0.12629	0.16072	0.2517	0.14473	-2.3	-3.3771	-2.9229	-2.7812	-3.5062	-2.9833	-3.1937	-3.3854	-2.6479	-3.3583	-3.1396	-2.85	-3.5187	-2.7271	-3.1229	-3.3542	58.110	83.269	217.040	9.384	102.587	220.116	18.357	93.721	114.908	297.665	64.941	305.674	5.575	96.029	167.232	68.957	0.00034679	0.00090724	0.0011622	175.68	1.1369e-05	7.8032e-06	246.61	59.994	1.9983e-05	4.0222e-05	92.952	33.552	19.836	6.6937	2.5738e-05	14.528	0.016176	0.017218	0.0047953	1215.6	0.00018799	0.00019001	1033.4	335.36	0.00018827	0.00019084	549.39	187.07	287.89	57.534	0.00019036	82.826	204.755	118.440	159.719	-4.658	-3.589	17.679	-4.659	0.840	248.198	70.036	-1.142	2.494	3.868	6.435	43.408	5.438	-8191	255	
11890.351	1	1	0	0	0.3555	0.14899	0.31886	0.056213	0.25461	0.12667	0.18338	0.078689	0.061035	0.13374	0.27428	0.15074	0.15636	0.13239	0.063339	0.2427	-2.3292	-3.3729	-3.1792	-2.7562	-3.4188	-2.7958	-3.0833	-3.4437	-2.7979	-3.5292	-3.2729	-2.8917	-3.4917	-2.9813	-2.9917	-3.5396	20.129	96.977	212.239	278.011	269.817	185.814	328.961	189.403	141.427	72.361	278.436	179.503	13.398	252.832	75.616	50.935	0.00019104	0.0019395	0.00056389	180.28	1.8521e-05	1.4723e-05	250.31	61.688	2.1086e-05	2.771e-05	96.092	34.648	19.287	6.5319	1.8197e-05	14.69	0.016588	0.01762	0.0048684	1234.8	0.00019153	0.00019287	1040.6	338.38	0.00019105	0.00019291	551.71	188.36	290.61	57.801	0.00019043	82.994	62.241	231.507	220.957	-3.886	225.787	283.298	-4.229	0.000	191.550	224.470	-2.514	1.921	5.242	5.442	-5.195	4.254	-8191	255	
11890.471	1	1	0	0	0.065358	0.085632	0.23387	0.24687	0.035202	0.10507	0.17689	0.10982	0.20368	0.042708	0.11301	0.1491	0.084275	0.42125	0.10472	0.26199	-2.3583	-3.2646	-3.3812	-2.8604	-3.6542	-2.9875	-3.0125	-3.5375	-2.8125	-3.3479	-3.3396	-2.9292	-3.4542	-2.9583	-2.9292	-3.4833	339.787	179.222	-14.778	40.354	109.127	41.104	-0.679	76.236	204.976	49.868	111.495	106.961	210.957	14.744	25.316	300.539	0.00035058	0.0013946	0.00035507	179.3	2.045e-05	3.9238e-06	249.74	61.124	1.996e-05	1.0509e-05	95.884	34.127	19.087	6.4536	1.476e-05	14.586	0.016622	0.017586	0.0048344	1228.9	0.00019043	0.00019058	1028.6	336.07	0.00018858	0.00019001	542.92	185.13	284.51	56.512	0.00018541	81.753	59.227	155.129	180.326	-5.265	275.853	211.655	-4.661	-0.373	168.005	-14.078	-1.752	2.723	3.154	5.072	56.709	4.717	-8191	255	
11890.543	1	1	0	0	0.082286	0.10861	0.39198	0.027823	0.18402	0.16613	0.14125	0.081726	0.21546	0.39421	0.2472	0.27492	0.20826	0.17679	0.32404	0.14912	-2.4396	-3.1625	-3.2396	-2.7042	-3.3229	-3.1021	-2.8375	-3.5104	-2.8542	-3.15	-3.1875	-2.7292	-3.3542	-3.1937	-2.7833	-3.55	309.881	288.931	112.168	251.099	91.707	-3.674	13.531	50.419	52.178	115.780	330.273	9.788	150.854	313.758	255.034	324.120	0.00037936	0.0051952	0.0002429	180.25	2.3989e-05	2.7949e-05	243.88	62.455	1.2868e-05	2.5726e-05	95.189	34.168	17.489	6.6696	2.6718e-05	14.953	0.016321	0.017224	0.0047451	1215.9	0.00018771	0.00018781	1019.5	334.41	0.00018775	0.00018793	539.39	185.14	284.59	56.067	0.00018484	81.887	232.386	294.734	0.798	-6.538	298.174	140.943	-4.852	0.574	220.926	20.033	-1.427	2.727	2.565	6.448	257.151	5.276	-8191	255	
11890.639	1	1	0	0	0.057455	0.2647	0.15575	0.19293	0.10124	0.0326	0.16442	0.021709	0.085616	0.11384	0.29366	0.1381	0.045048	0.13523	0.10929	0.12653	-2.475	-3.1	-3.4	-2.8917	-3.6458	-3.3042	-2.9188	-3.4167	-2.8583	-2.9437	-3.3979	-2.8292	-3.2583	-3.3021	-2.7438	-3.6208	260.141	267.114	262.806	137.569	166.607	221.354	92.699	191.919	46.836	58.287	9.134	65.087	203.986	105.858	288.050	298.845	0.00015512	0.0044265	0.00046581	176.32	2.6067e-05	2.8013e-05	247.73	60.493	3.7386e-05	3.0061e-05	94.338	34.85	17.664	6.8152	2.221e-05	14.507	0.016287	0.017173	0.0047378	1218.6	0.00018799	0.00018701	1021.2	335.5	0.00018786	0.00018776	542.31	186.38	284.92	56.067	0.00018561	82.377	252.634	-1.143	297.322	-3.249	340.639	83.427	-4.080	0.496	137.515	64.487	-1.014	1.244	0.955	8.909	313.588	4.352	-8191	255	
11890.735	1	1	0	0	0.11914	0.080596	0.24787	0.28924	0.23786	0.24127	0.039923	0.057839	0.24032	0.14192	0.14094	0.30144	0.26013	0.13367	0.11098	0.20842	-2.675	-2.9646	-3.4917	-2.6875	-3.2938	-3.2625	-2.6854	-3.4646	-2.9833	-2.9062	-3.5521	-2.7667	-3.2333	-3.3563	-2.7562	-3.2646	208.642	289.900	79.425	310.297	198.747	65.983	-0.912	290.670	90.087	21.960	281.477	284.106	206.867	274.984	144.069	282.226	0.00040258	0.0031544	0.00094534	171.97	1.8669e-05	2.0291e-05	239.38	60.02	2.1377e-05	3.178e-05	94.155	33.726	18.875	6.5457	1.4136e-05	14.768	0.016366	0.017246	0.0047955	1234	0.00019034	0.00018955	1033.2	339.44	0.00018987	0.00018966	548.49	188.9	288.83	57.05	0.00018988	83.618	257.505	307.288	257.322	-3.515	254.216	177.733	-4.283	-0.008	95.964	191.223	-0.624	3.641	9.152	5.251	128.421	5.188	-8191	255	
11890.856	1	1	0	0	0.19596	0.14855	0.21241	0.10076	0.27056	0.10612	0.37387	0.19144	0.27131	0.18601	0.12442	0.072991	0.20648	0.040228	0.43303	0.033938	-2.8604	-2.9042	-3.5292	-2.9938	-2.9917	-3.5875	-2.8354	-3.4583	-3.4104	-2.8417	-3.4417	-2.7646	-3.0021	-3.5438	-2.8146	-3.3917	205.390	290.553	37.319	233.941	91.149	285.727	290.542	131.956	278.931	272.050	207.290	241.051	174.410	342.981	258.865	79.961	0.00033454	0.0007965	0.0011633	176.23	7.7025e-06	2.8706e-05	248.67	61.61	3.1402e-05	2.7197e-05	92.703	35.071	18.959	6.7249	4.4074e-06	14.815	0.016593	0.01745	0.0048741	1248.8	0.0001922	0.00019153	1046	343.17	0.0001911	0.00019179	555.7	190.75	291.1	57.52	0.00019189	84.191	116.759	168.726	166.314	-4.431	299.568	200.647	-4.165	1.422	93.455	7.749	-1.222	2.606	0.541	5.986	172.244	5.096	-8191	255	
11890.952	1	1	0	0	0.23544	0.11469	0.14889	0.20912	0.1294	0.12111	0.17343	0.24445	0.30576	0.072723	0.044491	0.15149	0.10804	0.21048	0.11354	0.069135	-2.8688	-2.7792	-3.5667	-2.7792	-2.9604	-3.5771	-2.7375	-3.3292	-3.2354	-2.9271	-3.3542	-2.8583	-2.8292	-3.4833	-2.9	-3.3146	336.965	298.442	60.920	129.174	40.663	259.283	319.733	257.623	187.039	289.605	-9.236	150.069	251.339	280.951	144.462	271.564	0.00021537	0.0010073	0.00064918	178.79	1.825e-05	1.5497e-05	249.37	63.076	1.1141e-05	2.2276e-05	93.931	34.122	20.225	7.0622	1.7148e-05	14.31	0.016613	0.017512	0.0049046	1247.2	0.00019037	0.00019046	1042.4	341.44	0.00018899	0.00019046	552.59	188.56	286.1	56.84	0.00018938	83.042	0.753	4.809	292.812	-4.063	312.245	135.901	-4.707	0.515	154.389	86.234	-0.652	0.628	6.603	7.945	122.565	6.269	-8191	255	
11891.048	1	1	0	0	0.20298	0.3367	0.088065	0.23594	0.018592	0.037109	0.16064	0.18485	0.12722	0.051192	0.03835	0.22024	0.1648	0.090243	0.22671	0.10566	-2.8396	-2.7979	-3.3833	-2.7708	-2.9771	-3.4646	-2.8396	-3.2583	-3.4833	-2.7562	-3.2542	-3.1542	-2.7542	-3.4708	-2.8438	-3.0875	261.539	319.171	271.923	250.338	203.186	207.499	312.693	266.913	48.423	176.208	300.685	205.800	297.355	90.802	69.284	252.848	9.9716e-05	0.0024008	0.00010128	169.89	1.4541e-05	4.1809e-06	247.56	60.41	1.4916e-05	9.2152e-06	95.614	33.652	18.976	6.5895	3.2108e-05	14.055	0.016317	0.017267	0.0048383	1227.9	0.00018706	0.00018815	1031.5	336.1	0.00018593	0.000188	545.86	185.33	280.64	56.079	0.00018622	81.339	220.394	239.366	102.414	-3.157	309.410	162.354	-4.921	0.540	207.606	83.787	0.318	2.123	3.439	6.009	215.934	6.234	-8191	255	
11891.144	1	1	0	0	0.059734	0.057418	0.20759	0.070594	0.19511	0.094128	0.043694	0.06646	0.10476	0.22209	0.15022	0.16044	0.39299	0.25561	0.1904	0.22001	-3.0687	-2.7396	-3.3583	-3.3521	-2.8458	-3.6146	-2.9833	-3.0542	-3.2708	-2.8063	-3.3292	-3.2667	-2.7146	-3.3563	-2.8229	-3.2167	213.707	-7.125	1.797	119.191	272.852	291.815	318.296	156.670	46.068	222.410	276.255	247.974	310.613	227.322	327.619	257.495	0.00016245	0.00091093	0.000205	175.61	1.3828e-05	1.2933e-05	242.3	59.607	7.8543e-06	1.4943e-05	93.813	34.275	17.548	6.4208	3.3843e-05	14.329	0.016008	0.01704	0.0047647	1208.2	0.00018395	0.00018603	1020	331.6	0.00018334	0.0001859	540.92	183.95	279.4	55.813	0.00018479	80.968	247.736	46.775	104.836	-3.890	162.640	269.615	-3.293	1.959	6.849	285.493	-1.772	2.028	4.459	6.709	312.435	5.785	-8191	255	
11891.239	1	1	0	0	0.25019	0.071677	0.13095	0.25871	0.054553	0.18513	0.096333	0.2413	0.30575	0.2534	0.21793	0.071135	0.27604	0.16449	0.20902	0.12503	-3.0604	-2.8417	-3.2667	-3.1688	-2.7854	-3.4875	-2.975	-2.8187	-3.5521	-2.8187	-3.2792	-3.2771	-2.7042	-3.2833	-3.0938	-2.9813	28.791	171.846	316.764	303.647	182.675	166.703	226.811	16.289	209.357	102.178	214.388	197.442	99.009	268.450	29.813	301.711	0.00021562	0.001178	0.00048064	172.03	6.1676e-06	3.3247e-05	241.28	59.076	2.0864e-05	3.4343e-05	93.015	33.028	18.332	6.4887	1.4244e-05	14.447	0.015988	0.017112	0.0047749	1209.3	0.00018571	0.00018901	1025.5	331.96	0.00018538	0.00018859	543.92	184.27	282.84	56.733	0.00018752	82.131	230.142	114.686	231.775	-4.152	304.240	268.343	-3.776	0.920	193.385	233.203	-0.603	1.303	2.713	8.003	307.925	5.562	-8191	255	
11891.337	1	1	0	0	0.33392	0.063506	0.065907	0.11525	0.1591	0.072465	0.091963	0.28305	0.298	0.13871	0.084589	0.024644	0.11679	0.1444	0.099918	0.045355	-3.075	-2.6104	-3.1063	-3.2979	-2.9167	-3.4396	-3.3333	-2.6958	-3.3979	-2.9854	-3.0708	-3.3	-2.6229	-3.2021	-3.1167	-2.575	298.020	167.990	169.176	108.841	53.628	34.413	325.743	241.481	269.393	143.649	4.892	279.939	323.387	251.095	88.168	49.184	0.0003535	0.00060138	0.00049865	171.18	1.0601e-05	1.6653e-05	242.65	59.989	1.9514e-05	2.5818e-05	93.979	33.264	18.246	6.6547	1.089e-05	14.336	0.016318	0.017461	0.0048325	1219.9	0.00018855	0.00019169	1032.2	336.01	0.00018788	0.00019096	546.41	185.26	285.1	56.98	0.00018729	81.722	204.947	52.285	293.862	-3.546	113.848	76.613	-4.260	0.605	46.054	193.998	-0.266	3.127	7.099	9.116	331.204	4.196	-8191	255	
11891.455	1	1	0	0	0.27042	0.31421	0.13649	0.29858	0.33581	0.05915	0.17265	0.10984	0.26187	0.21647	0.15544	0.020924	0.36144	0.16171	0.15682	0.29984	-3.0438	-2.7667	-2.9708	-3.5542	-2.7062	-3.3375	-3.3354	-2.8771	-3.4	-3.1188	-3.0271	-3.5792	-2.7417	-3.3688	-3.2167	-2.7292	153.129	323.762	264.933	304.825	10.071	119.775	186.887	301.017	212.698	74.929	-2.720	308.233	254.436	72.617	227.298	258.339	0.0003501	0.0016385	0.00098883	174.38	1.6155e-05	8.8626e-06	245.2	60.425	2.3799e-05	1.3313e-05	93.109	33.401	18.124	6.33	3.3619e-05	14.369	0.016265	0.017228	0.0047603	1207.5	0.00018649	0.00018792	1012.4	329.94	0.00018524	0.00018688	535.28	182.04	279.83	55.7	0.00018279	80.285	78.122	172.674	267.716	-3.886	334.006	340.425	-4.327	0.394	209.695	298.367	-1.501	2.197	5.751	7.108	141.778	5.252	-8191	255	
11891.552	1	1	0	0	0.057819	0.19572	0.25398	0.11184	0.30721	0.34366	0.18476	0.16502	0.059134	0.3233	0.17399	0.21469	0.26756	0.30124	0.086407	0.069555	-2.9938	-3.0458	-3.0375	-3.4458	-2.8083	-3.1229	-3.3042	-2.5083	-3.3417	-2.9229	-2.8812	-3.4313	-2.6979	-3.0438	-3.1688	-2.6854	169.995	193.886	265.061	7.000	276.237	-7.255	339.100	335.586	35.867	10.014	227.305	302.472	105.306	98.009	230.316	169.077	0.00018857	0.003553	0.00045628	172.65	2.0395e-05	1.5795e-05	243.63	59.377	1.5283e-05	2.8877e-05	89.846	32.915	17.992	6.4874	7.1916e-06	14.445	0.016027	0.016951	0.0046671	1195.3	0.00018442	0.00018502	1002.7	327.53	0.00018365	0.00018436	529.53	181.5	278.65	55.131	0.00018126	80.112	157.249	209.031	281.346	-3.962	198.041	48.042	-4.132	0.198	128.419	-17.180	-1.290	1.888	4.136	7.626	169.193	3.978	-8191	255	
11891.648	1	1	0	0	0.19659	0.067025	0.14319	0.20217	0.22845	0.24646	0.10907	0.082602	0.25399	0.036612	0.0045914	0.18367	0.12794	0.16352	0.15161	0.011526	-2.9229	-3.0146	-2.8208	-3.5125	-2.8854	-3.1562	-3.4604	-2.6729	-3.2979	-3.2333	-2.9708	-3.2208	-2.7458	-2.9521	-3.4958	-2.8375	36.304	58.285	-13.363	267.769	338.166	178.063	282.944	94.505	91.252	83.807	72.548	98.830	288.546	143.709	262.873	11.139	0.00066519	0.003417	0.0012286	173.95	4.7441e-06	1.5584e-05	244.72	60.023	8.3887e-06	1.9993e-05	94.366	33.66	18.88	6.79	4.6516e-06	14.434	0.016009	0.016769	0.0046427	1190.4	0.00018395	0.00018367	997.91	327.48	0.00018333	0.00018317	529.5	181.52	278.19	54.963	0.00018074	80.421	298.529	23.070	274.708	-4.481	236.568	337.889	-3.879	1.053	100.301	171.273	-0.973	3.158	2.757	5.657	261.334	5.542	-8191	255	
11891.768	1	1	0	0	0.24276	0.31345	0.15901	0.097806	0.013626	0.086759	0.24695	0.092177	0.058715	0.13406	0.11724	0.20128	0.22019	0.095531	0.27143	0.039246	-2.9542	-3.0542	-2.7083	-3.5208	-3.0417	-2.9292	-3.4583	-2.6437	-3.2438	-3.4417	-2.7	-3.55	-2.9625	-2.7938	-3.4417	-2.8104	118.182	107.105	231.811	70.416	34.328	15.102	149.524	56.596	249.934	250.509	216.704	15.257	135.419	247.754	121.435	-17.100	0.00022582	0.0025799	0.00069795	172.92	1.6504e-05	2.0181e-05	247.31	60.145	2.9876e-05	2.5869e-05	92.786	34.344	19.126	6.5331	6.372e-06	14.176	0.015953	0.016756	0.0046682	1201.2	0.00018522	0.00018511	1012.8	332.22	0.00018526	0.00018459	536.96	184.29	281.35	55.655	0.00018497	81.71	260.193	264.034	92.826	-3.130	190.203	340.345	-4.485	0.750	-4.220	45.200	-0.937	2.887	5.010	5.518	187.307	5.038	-8191	255	
11891.840	1	1	0	0	0.24205	0.034491	0.32213	0.013297	0.059957	0.2339	0.11763	0.20646	0.0256	0.070037	0.084513	0.16177	0.064887	0.15676	0.18964	0.12465	-2.7313	-3.2417	-2.7667	-3.1792	-3.1125	-2.8042	-3.45	-2.7854	-3.0438	-3.4021	-2.6854	-3.3646	-3.1063	-2.7417	-3.5083	-2.925	-6.666	235.709	-8.725	282.114	325.142	11.019	27.172	290.330	146.752	257.105	121.967	126.255	212.345	107.881	5.981	95.279	0.00013446	0.0023174	0.00026042	173.43	3.1326e-05	2.5967e-05	247.2	60.84	9.6843e-06	3.3021e-05	95.255	34.279	18.223	6.5371	1.2444e-05	14.213	0.016226	0.016982	0.0047465	1215.3	0.00018691	0.00018653	1023	334.98	0.00018608	0.00018612	541.26	185.75	282.4	55.936	0.00018706	82.375	-2.778	14.571	226.673	-4.055	334.626	339.475	-4.202	0.831	107.505	40.654	-0.325	2.941	-0.511	6.881	229.202	4.793	-8191	255	
11891.936	1	1	0	0	0.16374	0.2205	0.15215	0.026455	0.12531	0.073838	0.076764	0.10535	0.17615	0.27053	0.17551	0.188	0.16651	0.19725	0.2368	0.2446	-2.8042	-3.3792	-2.4833	-3.2188	-3.0625	-2.9125	-3.5292	-2.9958	-2.8542	-3.3583	-2.7958	-3.4167	-3.2104	-2.6063	-3.3979	-2.9917	85.374	97.717	95.927	45.975	127.003	144.407	168.270	5.725	320.676	76.131	165.455	81.203	80.706	284.528	2.647	233.524	0.00012099	0.0016022	0.00019763	174.17	1.1708e-05	2.1614e-05	241.13	59.728	1.6412e-05	7.1596e-06	94.778	33.599	18.782	6.6229	1.7207e-05	14.575	0.016254	0.017015	0.0047728	1218	0.00018598	0.00018573	1016.4	333.18	0.00018459	0.00018478	537.6	184.18	278.44	55.244	0.00018424	81.049	136.841	203.250	7.518	-3.390	84.285	123.399	-4.325	0.345	16.746	164.317	-1.338	2.936	3.236	6.295	227.351	5.296	-8191	255	
11892.032	1	1	0	0	0.075893	0.14932	0.015999	0.27999	0.19349	0.17284	0.11941	0.12646	0.1879	0.27071	0.13661	0.093739	0.14578	0.10907	0.10171	0.156	-2.4562	-3.3875	-2.65	-3.1771	-3.3812	-2.7729	-3.5	-3.0375	-2.9021	-3.4562	-2.6333	-3.15	-3.4958	-2.5812	-3.4729	-3.0062	250.678	190.999	53.658	6.019	182.554	146.928	-0.154	38.890	42.075	165.397	119.678	145.472	14.030	151.714	180.675	267.081	0.0002087	0.002646	0.0013159	177.96	1.6797e-05	1.8207e-05	236.5	59.667	7.8553e-06	1.8275e-05	92.403	33.842	17.512	6.6095	2.3643e-05	14.247	0.015884	0.016795	0.0047203	1203.7	0.00018301	0.00018378	1012.6	330.1	0.00018198	0.00018342	536.71	183.05	276.42	55.106	0.00018323	80.604	244.748	80.009	113.484	-3.414	196.688	202.071	-3.727	1.988	246.757	20.152	-0.942	4.008	6.058	10.234	95.430	5.388	-8191	255	
11892.151	1	1	0	0	0.21465	0.33362	0.033276	0.10217	0.20946	0.098621	0.28293	0.1954	0.13678	0.099228	0.14312	0.10472	0.18266	0.21876	0.28608	0.15476	-2.5187	-3.3667	-2.6688	-3.1729	-3.4437	-2.8417	-3.4354	-3.1375	-2.8875	-3.5	-2.7854	-3	-3.3021	-2.7896	-3.15	-3.3063	324.390	214.477	139.436	52.315	33.045	79.173	266.278	73.275	240.641	224.814	44.721	169.882	44.559	81.785	316.631	-4.673	7.6037e-05	0.0014565	0.00064377	175.85	1.9711e-05	1.9777e-05	246.17	60.781	1.1693e-05	2.7139e-05	92.845	33.581	19.374	6.816	3.6718e-05	14.558	0.015804	0.016785	0.0047075	1197.3	0.00018226	0.00018354	1013.2	328.48	0.00018193	0.0001841	537.26	182.01	276.16	55.226	0.00018391	80.473	89.412	72.167	254.791	-2.663	193.152	144.409	-4.796	-0.641	202.033	143.977	-0.836	2.475	4.749	8.179	72.219	4.184	-8191	255	
11892.247	1	1	0	0	0.050555	0.10906	0.22756	0.20433	0.14651	0.042115	0.20063	0.197	0.19262	0.078312	0.15438	0.099602	0.048379	0.23174	0.025277	0.26516	-2.2562	-3.3521	-2.8812	-3.0167	-3.4542	-2.6813	-3.1958	-3.0438	-2.6625	-3.4708	-2.9146	-2.8146	-3.4917	-2.875	-3.1125	-3.35	122.215	116.813	82.395	319.559	179.012	28.368	37.101	227.404	61.436	316.410	227.164	94.436	227.495	272.665	278.478	0.809	0.00013855	0.0010602	0.0010032	174.83	1.8841e-05	1.5406e-05	246.9	60.441	2.1107e-05	2.3661e-05	93.986	34.305	17.178	6.7096	7.0866e-06	14.398	0.015835	0.016866	0.0047334	1199.5	0.0001835	0.00018639	1023	331.61	0.00018417	0.000187	542.72	184.21	280.14	56.337	0.00018783	81.714	279.908	290.770	161.788	-5.107	122.793	124.506	-4.747	0.603	118.691	117.501	-2.075	2.051	3.751	6.429	107.434	5.378	-8191	255	
11892.344	1	1	0	0	0.031191	0.22995	0.10523	0.072022	0.30969	0.17722	0.19081	0.19148	0.11524	0.035363	0.21224	0.24419	0.16773	0.24937	0.30764	0.17725	-2.1417	-3.3708	-3.0312	-3.0354	-3.5375	-2.6896	-3.1104	-3.3292	-2.6104	-3.3917	-3.0875	-2.9917	-3.5146	-2.4938	-3.0083	-3.4021	333.151	290.189	40.837	56.356	221.663	292.256	150.030	137.423	198.709	207.849	289.626	316.140	164.340	58.488	17.375	277.734	0.00052927	0.0029363	0.00026149	174.84	5.0009e-06	6.0887e-06	244.79	61.031	1.3574e-05	2.1156e-05	94.106	34.527	19.026	6.692	2.4477e-05	14.46	0.016178	0.017228	0.0048013	1212.1	0.00018664	0.00018964	1032.3	334.84	0.00018761	0.00019031	546.59	185.9	285.02	57.042	0.00018891	82.396	194.362	222.153	98.898	-5.474	306.821	237.576	-4.426	-0.146	153.155	212.618	-1.750	1.715	5.532	5.844	106.813	4.953	-8191	255	
11892.417	1	1	0	0	0.12705	0.13204	0.030656	0.17552	0.28869	0.13389	0.17019	0.076668	0.15867	0.21392	0.15029	0.0612	0.2721	0.17701	0.013967	0.072835	-2.2396	-3.2625	-3.0792	-2.7542	-3.4521	-2.7771	-3.1333	-3.2396	-2.8979	-3.3229	-3.1188	-2.825	-3.3333	-2.9604	-3.0062	-3.4875	268.133	85.491	336.687	90.460	306.904	64.510	124.033	89.427	282.107	63.153	133.933	264.833	88.381	333.252	69.317	158.933	0.00025147	0.0023972	0.00052191	175.35	1.8551e-05	1.9614e-05	248.45	59.396	1.1355e-05	3.0647e-05	94.776	34.214	18.277	6.6256	2.1774e-05	14.624	0.016394	0.017449	0.004813	1215.6	0.00018809	0.00018958	1027.1	333.35	0.00018672	0.00018904	540.68	184.25	282.95	56.216	0.00018495	81.154	137.212	102.905	293.164	-4.590	309.589	141.592	-4.395	0.067	203.508	100.228	-1.151	2.914	3.732	5.902	7.355	5.415	-8191	255	
11892.536	1	1	0	0	0.048163	0.20052	0.39791	0.23567	0.27134	0.16659	0.21568	0.25241	0.24596	0.17921	0.20202	0.12671	0.13805	0.099036	0.056971	0.11605	-2.3875	-3.3875	-3.2562	-2.7687	-3.4813	-3.0062	-2.9792	-3.5521	-2.6333	-3.3271	-3.3979	-2.65	-3.4667	-3.0125	-2.9917	-3.5812	320.778	8.609	314.609	191.738	80.829	335.617	110.639	97.198	225.149	67.882	18.933	57.980	180.484	80.631	209.996	138.141	0.00052527	0.0015898	0.00036364	179.14	1.0434e-05	1.048e-05	245.92	60.091	6.6578e-06	1.4169e-05	91.416	33.844	18.302	6.8654	3.2614e-05	14.516	0.016172	0.017134	0.0047209	1204.7	0.00018631	0.00018696	1012.8	330.49	0.00018547	0.00018706	535.37	183.1	280.81	55.795	0.0001832	80.829	166.804	175.569	-13.763	-3.668	-15.818	169.307	-3.701	-0.312	61.334	263.505	-2.124	2.096	2.048	5.651	302.235	5.504	-8191	255	
11892.632	1	1	0	0	0.11618	0.041154	0.34393	0.036996	0.42237	0.18481	0.19032	0.1984	0.077719	0.22804	0.31388	0.18194	0.20023	0.14906	0.10662	0.087693	-2.3229	-3.0854	-3.2542	-2.5333	-3.4188	-2.9771	-2.9271	-3.4854	-2.8917	-3.1063	-3.3833	-2.6979	-3.2729	-3.1437	-2.7479	-3.5312	114.258	309.890	171.374	94.228	69.415	259.836	327.499	10.340	28.403	21.091	73.882	-0.185	267.909	64.259	153.200	211.342	0.00045148	0.0011292	0.00032286	174.02	2.0895e-05	6.907e-06	244.81	60.856	1.2247e-05	1.253e-05	95.528	33.892	18.608	6.5442	2.9247e-05	14.554	0.016112	0.016979	0.0046839	1200.2	0.00018532	0.00018558	1009.9	330.22	0.00018561	0.00018625	535.43	184.03	281.87	55.688	0.00018326	81.281	142.395	234.680	14.075	-4.364	312.985	25.399	-3.605	-0.451	266.521	69.131	-1.220	1.883	5.215	5.751	263.047	5.256	-8191	255	
11892.728	1	1	0	0	0.033014	0.10622	0.28877	0.053482	0.074503	0.25792	0.034478	0.20538	0.23285	0.072862	0.051117	0.13613	0.15571	0.11974	0.1701	0.19962	-2.6271	-3.1146	-3.3042	-2.6729	-3.2646	-3.1937	-2.9	-3.575	-3.0083	-2.9229	-3.5208	-2.6292	-3.2812	-3.2812	-2.8833	-3.5521	326.193	219.294	324.837	58.204	-7.561	266.922	44.156	54.767	263.471	60.750	190.004	110.613	304.268	21.743	170.180	273.582	0.00035539	0.0020421	0.00039316	176.23	1.5711e-05	2.1487e-05	248.51	61.496	5.113e-06	4.6103e-06	94.383	34.341	19.235	6.7867	3.2795e-05	14.342	0.016175	0.017015	0.0047095	1215.9	0.0001882	0.00018813	1025.9	338.85	0.00018965	0.00018948	546.63	188.27	288.32	56.81	0.00018869	83.688	175.647	82.060	280.535	-3.684	259.871	101.820	-5.569	-0.694	340.018	189.903	-2.297	1.692	4.786	6.284	30.953	4.929	-8191	255	
11892.849	1	1	0	0	0.073998	0.13142	0.20722	0.11526	0.12964	0.10858	0.16669	0.0096514	0.18577	0.27125	0.11754	0.23249	0.074178	0.12675	0.15093	0.18727	-2.5125	-2.8937	-3.475	-2.7438	-3.3708	-3.2292	-2.8729	-3.5479	-2.95	-2.8937	-3.4479	-2.8917	-3.1917	-3.4271	-2.8833	-3.3354	248.730	259.891	126.398	332.123	298.630	28.122	257.849	287.847	233.595	140.974	227.426	298.640	26.587	43.517	236.067	203.990	0.00030469	0.0011159	0.00063603	177.81	4.0658e-05	3.1944e-05	244.16	60.836	1.2431e-05	1.9419e-05	94.459	33.824	18.893	6.7399	8.8871e-06	14.59	0.016621	0.017397	0.0048282	1238.6	0.00019076	0.00018961	1036.8	341.57	0.0001905	0.00019	549.97	189.25	288.63	56.79	0.0001895	84.018	264.028	272.457	195.378	-3.139	215.118	-2.470	-5.525	0.903	182.079	57.436	-1.325	1.170	3.843	7.708	153.434	5.320	-8191	255	
11892.945	1	1	0	0	0.040303	0.16088	0.1376	0.10656	0.085182	0.15355	0.23038	0.18972	0.28569	0.10908	0.094654	0.012597	0.31838	0.062518	0.17941	0.23257	-2.5667	-2.8521	-3.4188	-2.7708	-3.0479	-3.4292	-2.6562	-3.2708	-3.0771	-2.8917	-3.4667	-2.7083	-3.2	-3.5312	-2.6354	-3.4271	298.580	158.764	121.615	-9.076	247.102	89.134	207.562	323.726	338.515	43.228	141.872	321.520	46.905	146.148	87.860	309.236	0.00015675	0.003033	0.00060781	177.01	2.0958e-05	4.8698e-06	246.95	62.167	1.9392e-05	2.1821e-05	95.895	34.2	19.173	6.497	3.9674e-05	14.865	0.016615	0.017395	0.0048554	1238.6	0.00019021	0.00018897	1033.3	338.5	0.00018798	0.00018822	547.21	187.31	284.01	56.175	0.00018761	82.705	27.468	259.647	260.832	-4.086	144.239	159.255	-4.317	0.072	128.257	182.131	-0.538	1.637	5.409	6.564	255.528	4.279	-8191	255	
11893.039	1	1	0	0	0.16354	0.30872	0.24759	0.18243	0.23723	0.14007	0.1029	0.1331	0.014884	0.059327	0.12409	0.28299	0.15917	0.12436	0.045318	0.11088	-2.7521	-2.8125	-3.5104	-3.0417	-3.075	-3.6167	-2.8229	-3.4333	-3.2854	-2.8646	-3.6104	-3.1542	-2.875	-3.4479	-2.8042	-3.2354	231.126	-12.222	306.928	318.342	233.238	4.496	173.472	82.276	129.790	47.818	329.048	208.565	41.767	64.121	173.915	88.588	0.00031662	0.0024075	0.00051377	179.47	3.3991e-05	3.8539e-05	243.26	61.045	2.3547e-05	1.0934e-05	98.008	34.598	19.528	6.6708	3.2112e-05	14.764	0.016277	0.017152	0.0048104	1226.9	0.00018763	0.00018725	1030.3	336.61	0.00018615	0.00018724	546.08	186.91	281.91	56.189	0.00018735	82.346	33.706	21.696	239.832	-4.256	-10.105	275.968	-3.145	0.016	139.665	93.295	-0.225	1.719	4.856	5.738	111.311	5.170	-8191	255	
11893.137	1	1	0	0	0.085238	0.10499	0.21743	0.12462	0.17341	0.13961	0.10854	0.050484	0.2232	0.30442	0.1331	0.14354	0.14512	0.19077	0.0084826	0.11749	-2.8625	-2.7375	-3.3479	-3.0875	-2.8208	-3.4313	-2.925	-3.2	-3.4188	-2.6833	-3.4375	-3.1688	-2.8583	-3.6937	-2.6	-3.1104	81.766	47.869	215.044	248.101	309.052	283.079	271.812	60.937	284.228	82.342	291.820	99.556	187.573	336.950	324.037	313.059	0.00033072	0.001857	0.00015989	176.62	3.1588e-05	2.8141e-05	245.76	60.622	1.6624e-05	1.4033e-05	92.818	34.186	17.157	6.6567	2.672e-05	14.554	0.016226	0.017179	0.0048137	1224.1	0.00018695	0.00018816	1033.6	336.91	0.00018648	0.00018891	548.13	186.32	282.49	56.299	0.00018797	82.185	273.004	317.733	335.216	-3.890	166.532	246.917	-5.420	0.583	322.473	177.400	-2.468	2.253	0.344	6.477	213.588	4.214	-8191	255	
11893.232	1	1	0	0	0.13773	0.044165	0.10668	0.12194	0.1796	0.17092	0.26969	0.040256	0.10911	0.21221	0.21663	0.36202	0.28946	0.21341	0.12192	0.16352	-3.1063	-2.6646	-3.4229	-3.3208	-2.9896	-3.525	-2.8292	-2.9792	-3.5771	-2.8667	-3.4021	-3.3375	-2.675	-3.3646	-3.05	-3.1583	250.362	270.987	281.544	137.986	279.958	0.557	135.921	21.899	312.803	176.052	21.075	134.258	54.254	8.030	66.856	307.033	0.00020992	0.0046424	0.0010098	175.71	1.9426e-05	3.9497e-06	245.13	61.237	1.2973e-05	9.6998e-06	93.151	33.619	18.568	6.977	2.0823e-05	14.238	0.016135	0.017163	0.0048108	1215.4	0.00018672	0.00018868	1035.3	337.15	0.00018793	0.00019018	549.88	186.44	284.93	56.984	0.00019012	82.861	33.494	309.213	49.220	-3.556	338.655	213.957	-4.897	-0.119	232.608	44.801	-0.815	1.737	3.424	6.155	2.071	5.196	-8191	255	
11893.328	1	1	0	0	0.093854	0.24496	0.24976	0.10507	0.099161	0.41949	0.14524	0.22643	0.1366	0.1437	0.066265	0.061091	0.16636	0.068809	0.11402	0.19275	-3.0083	-2.8229	-3.2146	-3.3667	-2.7083	-3.5646	-3.0208	-2.9958	-3.3875	-2.925	-3.2875	-3.2729	-2.7167	-3.5687	-3.0271	-2.9292	140.794	144.453	256.498	43.081	169.801	262.070	291.112	319.058	227.317	326.129	153.169	140.280	334.517	220.872	77.682	327.031	0.00054438	0.0030147	0.00069987	177.19	2.2341e-05	2.4324e-05	244.06	61.691	8.5114e-06	1.9067e-05	97.162	33.978	18.995	6.7126	1.1986e-05	14.318	0.016465	0.017559	0.004881	1232.8	0.00018962	0.0001924	1046	340.44	0.00019113	0.00019441	556.59	188.8	290.21	57.862	0.00019224	83.311	200.533	159.658	119.217	-3.961	103.957	286.223	-4.542	-0.048	109.201	202.101	-2.550	2.156	7.845	6.533	251.924	3.772	-8191	255	
11893.448	1	1	0	0	0.14536	0.24268	0.072881	0.24628	0.038165	0.098211	0.24206	0.07985	0.083362	0.1405	0.23096	0.058447	0.14324	0.28106	0.15753	0.24231	-3.1104	-2.7562	-3.0604	-3.2167	-2.6729	-3.4083	-3.3	-2.8333	-3.4042	-2.5312	-3.05	-3.3125	-2.7271	-3.2208	-3.0479	-2.7979	169.360	291.774	209.453	182.762	281.170	202.505	341.316	285.677	95.170	109.991	147.130	50.167	125.418	265.032	131.257	212.053	0.0001032	0.0013449	0.0003012	173.88	2.574e-05	1.3422e-05	244.83	59.92	2.1685e-05	5.7399e-05	93.746	35.042	17.451	6.746	1.3838e-05	14.642	0.016646	0.01771	0.0049029	1229.9	0.00019038	0.00019209	1037.1	336.49	0.00018911	0.00019152	548.37	186.06	285.72	57.025	0.00018775	82.029	125.580	11.597	333.451	-4.144	-9.160	-9.530	-5.384	-0.172	29.959	236.559	-2.415	2.221	4.508	5.267	80.726	5.648	-8191	255	
11893.545	1	1	0	0	0.20058	0.042726	0.089602	0.056912	0.13819	0.030343	0.19412	0.22688	0.24691	0.20365	0.099265	0.15328	0.32121	0.055688	0.14202	0.31355	-3.0333	-3.025	-2.7938	-3.4354	-2.8396	-3.2521	-3.4583	-2.8104	-3.4917	-3.0396	-2.9083	-3.5729	-2.8146	-3.3729	-3.3125	-2.6562	320.764	272.287	118.310	333.584	332.948	-2.511	122.564	207.792	27.141	162.318	191.659	210.392	332.460	49.056	44.498	-14.145	0.00025805	0.004092	0.00037907	175.77	3.8139e-05	1.418e-05	248.98	60.968	1.5567e-05	2.7283e-05	95	34.232	18.735	6.7237	1.4267e-05	14.386	0.016373	0.017356	0.004786	1210.1	0.00018766	0.00018942	1022	332.36	0.00018649	0.00018851	540.34	183.85	282.71	56.315	0.00018465	81.115	90.579	90.030	205.956	-3.375	219.104	8.169	-5.872	0.300	132.152	292.084	-2.370	2.598	8.320	6.342	189.159	5.263	-8191	255	
11893.641	1	1	0	0	0.16196	0.084771	0.054738	0.22315	0.10287	0.088997	0.082887	0.21984	0.091508	0.17899	0.19941	0.20563	0.2539	0.080235	0.097184	0.12896	-3.25	-3.0125	-2.8542	-3.5667	-2.7625	-3.3958	-3.5125	-2.8021	-3.6042	-3.0375	-2.9125	-3.4	-2.8146	-3.2167	-3.3937	-2.7896	218.534	212.318	333.600	-4.191	276.763	73.734	138.893	24.836	-10.466	181.212	41.091	294.886	168.585	117.179	212.991	59.675	0.00053029	0.00064018	0.0004911	174.16	1.8593e-05	2.5797e-05	246.28	60.693	1.1614e-05	3.3125e-05	93.466	34.77	18.7	7.0078	2.8997e-05	14.246	0.01623	0.017149	0.0047169	1204	0.00018608	0.00018675	1010.2	330.09	0.00018548	0.0001862	533.32	182.88	280.39	55.7	0.00018214	80.581	142.175	335.407	330.412	-6.071	227.625	294.836	-4.483	0.284	107.420	339.229	-1.133	2.564	7.645	6.667	106.769	4.368	-8191	255	
11893.712	1	1	0	0	0.1301	0.0084869	0.24844	0.19548	0.20352	0.17903	0.1364	0.028548	0.25339	0.14515	0.21709	0.13375	0.18199	0.17342	0.071479	0.12194	-3.1458	-3.1083	-2.825	-3.4979	-2.8979	-3.1312	-3.4729	-2.7146	-3.4083	-3.2104	-2.7667	-3.5312	-2.8583	-3.0563	-3.5312	-2.6958	158.639	212.587	240.529	310.350	20.924	136.376	146.356	253.340	300.166	36.358	-16.044	251.340	228.397	74.392	208.606	64.148	0.00035877	0.002508	0.00057317	172.93	1.2967e-05	1.1767e-05	239.52	59.801	3.3039e-05	1.2347e-05	92.35	34.252	18.326	6.7237	1.6605e-05	13.943	0.01607	0.016898	0.0046655	1198.8	0.00018565	0.00018547	1008.3	332.05	0.00018677	0.00018706	537.74	184.7	283.59	55.982	0.00018466	82.021	179.489	17.674	-6.532	-3.456	13.671	131.531	-3.909	0.217	61.237	203.901	-1.373	2.452	11.355	5.471	39.087	5.556	-8191	255	
11893.833	1	1	0	0	0.17262	0.19549	0.32311	0.19123	0.032223	0.21714	0.20889	0.1249	0.29151	0.085241	0.26514	0.023649	0.10161	0.048227	0.10784	0.20958	-2.9167	-3.3083	-2.7875	-3.3312	-3.0021	-3.0042	-3.4646	-2.6958	-3.2125	-3.3667	-2.775	-3.4271	-3.0979	-2.8521	-3.6708	-2.8563	145.478	228.771	274.668	185.444	109.459	309.324	113.897	233.084	335.929	35.752	262.288	125.331	270.159	119.591	261.731	103.768	0.00037733	0.0013303	0.00060361	172.61	7.8638e-06	2.7105e-05	243.77	59.774	2.8081e-06	3.8646e-05	94.526	33.705	20.195	6.7241	1.7003e-05	13.919	0.016369	0.017126	0.0047523	1218.7	0.0001882	0.00018689	1019.4	335.63	0.00018812	0.00018787	541.72	186.2	284.57	56.139	0.00018573	82.44	128.738	168.271	72.058	-3.338	266.123	28.236	-4.002	0.493	169.640	251.505	-0.646	2.403	1.424	5.382	280.650	4.084	-8191	255	
11893.929	1	1	0	0	0.020049	0.10178	0.25663	0.20737	0.22965	0.24636	0.26108	0.095659	0.036384	0.095493	0.2073	0.10926	0.11759	0.097773	0.13736	0.1218	-2.9562	-3.5021	-2.8479	-3.4146	-3.05	-2.9792	-3.5062	-2.7979	-3.2854	-3.5708	-2.6667	-3.2625	-3.2292	-2.875	-3.5375	-3.0708	287.804	277.125	138.989	51.582	85.116	178.263	273.552	211.000	-11.845	294.385	27.999	318.505	243.860	223.921	84.274	238.437	0.00032894	0.0020152	0.00049961	167.11	3.1784e-05	1.0188e-05	235.26	57.723	4.9758e-06	2.3915e-05	91.506	33.454	17.928	6.3877	4.0438e-05	13.655	0.016337	0.017107	0.004763	1217.1	0.00018665	0.00018558	1016.5	333.1	0.0001845	0.00018463	536.02	184.16	278.28	55.006	0.00018319	80.732	247.578	207.754	259.431	-3.543	70.950	212.498	-4.617	1.422	233.776	271.499	0.386	3.782	4.853	8.331	244.850	6.175	-8191	255	
11894.025	1	1	0	0	0.35889	0.14989	0.17881	0.17328	0.061285	0.1653	0.035356	0.2669	0.2043	0.04906	0.067223	0.086687	0.13262	0.16469	0.07333	0.17029	-2.7188	-3.4104	-2.7333	-3.2792	-3.2292	-2.7208	-3.4083	-3.0062	-3.0729	-3.5021	-2.8208	-3.3854	-3.1104	-2.8229	-3.4833	-3.0792	300.126	263.405	26.999	234.550	152.254	120.425	265.388	117.402	1.232	258.257	225.696	242.476	63.333	318.667	323.896	85.556	0.00026402	0.00095825	0.00068397	161.93	1.3381e-05	2.6102e-05	239.89	57.996	3.784e-06	3.147e-05	89.329	32.997	18.723	6.4477	4.9057e-06	13.941	0.01588	0.016658	0.0046579	1195.7	0.00018187	0.00018155	1001	326.46	0.00018032	0.00018056	527.7	180.46	272.6	54.322	0.00017993	79.437	102.927	202.939	244.407	-3.721	168.854	58.281	-3.124	-0.194	327.613	197.320	0.118	5.421	1.456	9.173	250.684	4.601	-8191	255	
11894.121	1	1	0	0	0.38068	0.055108	0.21997	0.21146	0.13362	0.12844	0.28292	0.097016	0.2075	0.1442	0.2971	0.10454	0.26463	0.20868	0.13309	0.24519	-2.6833	-3.4583	-2.6771	-3.2333	-3.2292	-2.8354	-3.3958	-2.9875	-2.8979	-3.5396	-2.7812	-3.0812	-3.2854	-2.8063	-3.5938	-3.2042	-1.371	149.891	119.008	169.225	309.422	276.210	51.535	313.656	281.823	46.963	37.293	1.292	20.636	333.856	282.585	288.266	4.3426e-05	0.0036114	0.00033584	173.04	1.7363e-05	1.4497e-05	238.64	58.586	1.7942e-05	1.7341e-05	90.023	32.943	17.646	6.4821	1.7201e-05	13.633	0.01555	0.016417	0.0046059	1179.5	0.00017839	0.0001797	994.59	323.05	0.00017833	0.00017935	523.36	178.51	269.57	53.878	0.00017858	78.677	71.092	28.304	114.136	-3.293	4.298	29.140	-3.059	1.669	52.848	137.686	-0.086	3.000	3.544	7.803	193.409	6.573	-8191	255	
11894.240	1	1	0	0	0.038017	0.15473	0.040586	0.076564	0.14001	0.16735	0.077147	0.303	0.37	0.070746	0.13097	0.091067	0.057515	0.13137	0.086553	0.048124	-2.4208	-3.3937	-2.7458	-3.2042	-3.45	-2.825	-3.4271	-3.0417	-2.7458	-3.5187	-2.9208	-3.1104	-3.5438	-2.675	-3.425	-3.2938	-15.073	239.479	177.786	92.043	203.588	275.402	113.937	299.731	204.633	278.929	24.860	134.116	73.987	29.475	228.153	58.567	0.00023083	0.0014298	0.00084195	169.37	2.6835e-06	1.673e-05	234.55	58.13	8.8437e-06	1.4871e-05	92.131	32.869	18.606	6.5502	2.9608e-05	14.132	0.015388	0.016309	0.0045684	1164.9	0.00017736	0.00017922	992.65	321.93	0.00017837	0.00018151	528.55	179.66	271.3	54.636	0.00018129	79.467	79.346	23.246	107.313	-3.605	289.706	-11.440	-3.709	0.910	11.890	107.008	-1.663	3.251	2.935	6.165	184.044	4.148	-8191	255	
11894.312	1	1	0	0	0.096419	0.10407	0.35535	0.20599	0.22325	0.14735	0.17085	0.15266	0.16157	0.1926	0.40946	0.10943	0.10349	0.21726	0.16199	0.20063	-2.4396	-3.4167	-3.2229	-2.9708	-3.3146	-2.8833	-3.2583	-3.1604	-2.7938	-3.4604	-2.9521	-2.9792	-3.4437	-2.5771	-3.2042	-3.4375	33.782	147.074	189.539	156.122	88.851	8.700	198.604	307.088	251.225	180.353	273.629	238.961	108.093	193.039	319.244	51.504	0.00019276	0.0023121	0.00071039	169.21	1.4741e-05	2.8715e-05	241.79	59.648	2.4851e-05	1.7936e-05	93.798	33.841	18.695	6.4977	2.4084e-05	14.195	0.015671	0.016782	0.0046668	1186.6	0.0001805	0.00018379	1006.7	325.99	0.00018112	0.00018471	532.97	180.25	273.93	55.086	0.0001818	79.473	332.400	-10.564	314.443	-3.784	306.194	248.942	-4.775	0.487	101.730	125.312	-2.124	2.448	5.327	6.215	68.896	4.653	-8191	255	
11894.410	1	1	0	0	0.24513	0.093782	0.38559	0.11212	0.071913	0.13944	0.10051	0.13351	0.1618	0.22596	0.12808	0.14236	0.087282	0.039621	0.08058	0.14028	-2.0438	-3.6292	-3.0687	-3.0583	-3.4792	-2.7354	-3.2583	-3.4917	-2.8146	-3.4792	-3.0854	-3.0146	-3.3896	-2.9	-3.3146	-3.5729	73.812	281.324	109.487	15.012	118.878	263.654	-5.719	311.765	249.484	259.132	33.129	127.356	290.241	190.789	255.737	248.560	0.00020749	0.0021086	0.00025936	172.93	7.9816e-06	1.3226e-05	243.51	59.65	2.1996e-05	1.41e-05	91.133	32.783	17.273	6.3481	8.9337e-06	14.371	0.015758	0.016806	0.004666	1182	0.000181	0.00018285	999.71	322.5	0.00017971	0.00018236	525.79	178.2	271.95	54.43	0.00017924	78.332	64.523	201.854	321.530	-5.323	19.940	29.587	-3.927	0.094	195.440	248.427	-0.469	2.099	4.313	9.230	316.208	4.657	-8191	255	
11894.529	1	1	0	0	0.39546	0.23002	0.062866	0.13746	0.06983	0.28933	0.24013	0.12477	0.12019	0.1675	0.10715	0.069283	0.13579	0.28677	0.11446	0.16686	-2.4604	-3.3521	-3.2229	-2.8521	-3.5979	-3.0271	-3.2812	-3.5187	-2.6688	-3.5542	-3.2062	-2.7167	-3.6104	-2.8521	-2.8667	-3.4833	195.574	215.665	4.235	217.875	195.233	3.036	336.932	149.502	249.154	253.717	324.668	314.178	194.535	86.642	118.861	262.222	0.00035223	0.0010614	0.00068997	169.31	7.2353e-06	1.4143e-05	241.1	59.303	1.0834e-05	2.442e-05	94.002	32.27	17.83	6.4302	3.9303e-06	13.93	0.015537	0.016526	0.0045675	1161.8	0.00017841	0.00018039	985.68	318.84	0.00017819	0.00018034	519.45	176.65	270.31	53.925	0.00017665	77.733	105.666	68.125	221.826	-3.469	212.216	191.838	-4.501	1.453	99.873	336.224	-2.203	2.508	8.679	6.174	275.426	5.762	-8191	255	
11894.625	1	1	0	0	0.19489	0.22748	0.087933	0.25236	0.046166	0.16383	0.17284	0.061038	0.095248	0.16156	0.061117	0.12673	0.16883	0.064193	0.17539	0.061909	-2.3125	-3.2292	-3.2854	-2.7583	-3.4229	-2.9667	-3.0083	-3.4458	-2.8438	-3.1937	-3.4396	-2.4833	-3.2188	-3.0104	-2.9188	-3.4208	71.417	27.139	189.081	23.052	24.899	239.167	140.761	-16.339	282.961	57.684	30.854	109.733	199.746	174.439	56.450	46.670	2.5062e-05	0.0030965	0.00073908	173.38	3.642e-05	1.5605e-05	242.43	59.579	1.5306e-05	3.0317e-05	91.874	32.505	18.294	6.57	2.1953e-05	14.085	0.015479	0.016445	0.004528	1156.2	0.00017823	0.00017857	978.97	317.76	0.00017737	0.00017878	514.05	175.3	268.57	53.588	0.00017581	77.679	80.786	188.163	53.224	-3.808	128.671	14.147	-3.086	0.976	195.586	32.373	-0.860	2.101	7.263	8.114	342.426	5.089	-8191	255	
11894.721	1	1	0	0	0.13038	0.25329	0.052576	0.25606	0.24711	0.11726	0.16911	0.23966	0.11655	0.093683	0.13006	0.16554	0.47043	0.040048	0.10042	0.2027	-2.3542	-2.9729	-3.2708	-2.725	-3.3583	-3.075	-3.0333	-3.4646	-2.725	-3.0604	-3.3792	-2.8021	-3.4229	-3.0208	-2.7667	-3.3917	126.440	232.790	295.517	26.479	123.925	332.217	229.432	79.071	229.548	330.876	245.102	234.304	87.593	-3.392	304.124	67.149	0.00038388	0.001329	0.00057113	175.77	2.2726e-05	1.1221e-05	245.53	59.29	1.0741e-05	1.4437e-05	92.196	33.356	17.705	6.4754	4.5786e-05	14.057	0.015535	0.016459	0.0045397	1164.6	0.00017967	0.00017989	983.45	322.1	0.00018052	0.00018148	522.44	179.07	274.94	54.322	0.00017912	79.24	183.130	50.270	65.145	-3.359	279.658	56.921	-4.681	0.030	314.745	42.513	-1.846	3.146	1.739	6.157	-1.991	5.907	-8191	255	
11894.817	1	1	0	0	0.18957	0.19336	0.15738	0.30339	0.23194	0.060918	0.19017	0.21924	0.13379	0.19543	0.1628	0.25342	0.20404	0.083528	0.15424	0.073214	-2.4813	-2.9896	-3.3021	-2.7646	-3.3521	-3.3229	-2.8292	-3.3792	-2.9458	-3.1458	-3.6583	-2.6146	-3.3042	-3.2792	-2.8146	-3.3875	163.945	279.443	219.439	213.557	262.920	325.351	283.407	-3.344	322.379	198.399	282.859	168.999	80.058	199.474	157.918	109.336	0.00029506	0.0017478	0.00057304	173.32	1.2279e-05	1.0758e-05	245.93	60.023	8.4066e-06	1.5902e-05	92.938	32.94	18.327	6.5505	1.6788e-05	14.275	0.01583	0.016634	0.004606	1185	0.00018228	0.00018067	995.07	325.57	0.000182	0.00018201	527.63	180.59	275.84	54.47	0.0001808	80.067	219.974	24.996	51.264	-4.248	305.399	183.902	-4.745	-0.588	226.402	167.179	-2.402	2.735	7.252	5.283	87.105	5.046	-8191	255	
11894.938	1	1	0	0	0.031948	0.077131	0.24453	0.17037	0.12022	0.40449	0.27194	0.07932	0.13957	0.146	0.081976	0.27845	0.16069	0.16196	0.11601	0.18067	-2.4167	-2.9042	-3.4521	-2.5833	-3.2417	-3.2542	-2.8	-3.3542	-2.8521	-2.7562	-3.4854	-2.6979	-3.2042	-3.1375	-2.8646	-3.3646	282.844	-9.226	-10.847	118.830	17.984	227.719	268.178	89.101	63.644	246.163	170.426	57.539	235.640	244.076	220.772	1.949	0.00014442	0.0018795	0.00055232	173.12	3.0068e-05	3.167e-05	245.86	58.832	7.8477e-06	1.3497e-05	92.213	33.296	19.121	6.4622	2.8638e-05	14.175	0.015897	0.016701	0.0046539	1194	0.00018306	0.00018152	996.45	326.18	0.00018076	0.00018038	523.83	179.77	272.65	53.793	0.000178	79.063	272.863	259.232	161.357	-5.494	145.817	112.721	-4.032	0.339	91.038	199.138	-2.189	2.723	4.131	6.274	185.540	4.903	-8191	255	
11895.010	1	1	0	0	0.14072	0.043345	0.19434	0.14322	0.1137	0.13428	0.11313	0.058976	0.11095	0.1242	0.084834	0.084432	0.18936	0.34397	0.053065	0.16637	-2.6562	-2.5583	-3.4062	-2.8708	-2.9167	-3.25	-2.7521	-3.3583	-3.1479	-2.8229	-3.55	-2.6896	-2.8479	-3.5875	-2.8229	-3.3354	339.420	111.941	22.161	298.024	180.081	290.760	325.413	91.257	13.070	-10.537	157.325	142.959	18.872	167.114	12.988	123.037	0.00044527	0.0021855	0.00049558	175.23	3.0465e-05	2.8624e-05	245.8	61.2	5.787e-06	1.0905e-05	92.798	33.361	19.049	6.5598	2.7414e-05	14.319	0.015532	0.016291	0.0045545	1173	0.0001786	0.00017793	985.17	322.29	0.00017782	0.00017783	520.66	178.15	270.15	53.386	0.00017734	78.848	262.707	-17.705	187.332	-4.912	27.861	132.578	-4.702	-0.489	26.848	81.721	-3.011	0.527	2.007	4.456	189.530	3.384	-8191	255	
11895.130	1	1	0	0	0.086048	0.192	0.28464	0.27427	0.15364	0.047552	0.13043	0.15423	0.13685	0.17501	0.086932	0.15643	0.23799	0.11636	0.05622	0.20695	-2.7625	-2.6063	-3.3771	-2.9521	-2.9062	-3.3354	-2.7604	-3.3229	-3.3208	-2.6875	-3.3854	-2.9583	-2.8063	-3.4229	-2.6479	-3.1021	72.989	22.022	264.534	112.995	245.024	288.299	339.555	152.165	229.399	-11.019	111.930	208.209	179.041	113.693	32.552	53.111	0.00049253	0.0026164	8.0471e-05	174.8	1.8029e-05	1.0959e-05	249.21	59.556	1.2991e-05	1.0563e-05	92.517	33.696	19.365	6.6578	2.4291e-05	13.821	0.015403	0.016261	0.004559	1171.5	0.00017771	0.00017801	989.52	322.14	0.00017732	0.00017855	522.77	178.49	269.24	53.801	0.00017924	79.093	238.421	109.827	201.473	-4.997	243.409	47.418	-5.160	-0.318	49.385	199.155	-2.526	1.401	-0.820	6.542	29.402	4.887	-8191	255	
11895.225	1	1	0	0	0.14795	0.22389	0.20238	0.15319	0.084596	0.29342	0.089972	0.074689	0.094814	0.052135	0.064192	0.21573	0.05108	0.11382	0.059316	0.16429	-2.9292	-2.5958	-3.3104	-2.9583	-2.7771	-3.4708	-2.7604	-3.0875	-3.1625	-2.6375	-3.4208	-3.0646	-2.6646	-3.2479	-2.75	-3.0563	223.075	25.456	286.719	191.883	148.138	132.671	14.389	177.019	144.275	253.540	268.604	-5.608	57.653	269.421	-16.754	276.948	0.00047623	0.0022843	0.00038921	175.37	1.0602e-05	1.7506e-05	244.43	62.033	1.7617e-05	1.6975e-05	93.753	34.14	19.588	6.7166	5.2828e-05	14.215	0.015512	0.016483	0.0046438	1181.5	0.00017955	0.00018036	1002.6	325.75	0.0001792	0.00018234	532.15	181.1	272.68	54.551	0.00018224	79.724	110.186	99.186	300.358	-5.630	329.372	222.639	-5.396	0.558	205.872	79.169	-2.710	1.554	3.163	5.775	198.499	4.399	-8191	255	
11895.321	1	1	0	0	0.2559	0.10594	0.18004	0.1529	0.21629	0.20044	0.22347	0.17853	0.30405	0.079799	0.1604	0.26058	0.35781	0.11634	0.11118	0.11138	-2.8458	-2.5667	-3.2938	-3.0062	-2.7229	-3.5917	-2.9188	-2.9938	-3.4875	-2.6188	-3.2229	-3.3667	-2.9333	-3.3729	-2.7958	-3.2083	139.560	-13.160	264.610	138.092	67.124	34.671	269.794	208.822	289.154	113.583	20.613	-13.181	265.023	64.629	339.399	248.515	0.00018453	0.0038651	0.00027428	175.57	2.2553e-05	3.7546e-05	245.49	60.66	1.9276e-05	3.2432e-05	96.731	34.195	18.261	6.8246	3.6288e-05	14.106	0.015683	0.016736	0.004696	1189.7	0.00018124	0.0001825	1007.5	326.25	0.00018056	0.00018366	535.73	181.34	274.78	55.035	0.00018296	79.824	70.918	183.548	109.692	-4.381	153.610	146.399	-6.001	-0.161	250.834	78.622	-3.506	0.142	-0.013	7.157	244.361	4.201	-8191	255	
11895.417	1	1	0	0	0.024951	0.14448	0.18918	0.24754	0.07199	0.22819	0.17532	0.12483	0.41524	0.10601	0.22505	0.152	0.1525	0.14192	0.15245	0.21742	-3.0667	-2.5354	-3.2396	-3.1979	-2.7354	-3.5979	-3.1271	-2.9083	-3.4667	-2.7375	-3.2313	-3.2646	-2.6521	-3.5438	-3.0125	-2.8167	322.514	8.310	332.321	239.850	306.933	317.018	269.284	25.948	177.253	238.314	297.452	101.158	120.734	277.413	258.347	110.424	0.00033566	0.0027696	0.0011164	174.27	3.5809e-05	3.4423e-05	247.39	61.294	2.7791e-05	8.4346e-06	92.571	33.542	19.22	6.4428	3.6243e-05	14.269	0.015792	0.016886	0.0047181	1192.1	0.00018263	0.00018481	1008.1	326.17	0.00018125	0.00018395	532.83	180.08	275.17	55.182	0.00018221	79.602	164.593	135.755	332.594	-4.939	263.663	40.793	-4.916	-1.532	51.884	65.672	-2.038	2.257	2.261	8.431	142.939	3.790	-8191	255	
11895.537	1	1	0	0	0.28822	0.34336	0.067757	0.12461	0.2477	0.21692	0.08641	0.088859	0.035708	0.2071	0.29701	0.15604	0.1798	0.19726	0.063862	0.18214	-3.0854	-2.675	-3.2792	-3.3292	-2.7438	-3.3354	-3.1208	-2.7	-3.3917	-2.9313	-3.0146	-3.3229	-2.6458	-3.2771	-3.1417	-2.5854	187.028	316.429	319.292	297.136	-13.950	40.073	-11.794	-16.533	309.252	325.878	241.319	199.577	43.977	79.668	96.732	55.818	0.00047489	0.00018935	0.00063733	178.81	9.5736e-06	3.6109e-05	246.88	61.939	3.9759e-06	4.8018e-06	94.088	34.469	18.754	6.8291	4.318e-06	14.459	0.015784	0.016824	0.0046576	1181.5	0.00018159	0.00018356	1003	324.71	0.0001813	0.00018352	530.19	179.89	275.53	55.002	0.00018071	79.318	218.466	83.759	328.664	-4.962	313.632	5.457	-5.905	-1.860	48.861	161.255	-3.439	1.203	2.273	6.142	11.660	3.007	-8191	255	
11895.609	1	1	0	0	0.13998	0.21782	0.43059	0.088621	0.054482	0.20132	0.10321	0.11901	0.11268	0.15822	0.19218	0.24317	0.16695	0.14987	0.22967	0.023003	-3.05	-2.8521	-2.8646	-3.3583	-2.6167	-3.3479	-3.2708	-2.7229	-3.5812	-2.9188	-2.75	-3.3604	-2.6625	-3.2938	-3.2146	-2.7458	-11.060	149.697	242.004	82.025	86.384	224.005	133.216	-12.626	104.098	144.998	214.947	211.076	257.771	32.716	248.524	148.097	0.00018624	0.00058522	0.00022503	174.55	1.2746e-05	2.5054e-05	245.67	60.322	3.5697e-05	1.7907e-05	93.114	33.698	19.234	6.5807	2.5587e-05	14.265	0.015745	0.016742	0.004623	1178.1	0.00018178	0.00018321	996.17	323.83	0.0001808	0.00018246	524.15	179.21	274.15	54.692	0.00017937	79.215	264.583	141.628	309.623	-6.929	301.682	265.309	-6.248	-1.612	56.713	91.834	-2.759	0.191	3.108	4.496	174.724	4.298	-8191	255	
11895.705	1	1	0	0	0.042193	0.14873	0.10242	0.13158	0.17577	0.14852	0.065792	0.11565	0.04686	0.16814	0.068618	0.17766	0.10699	0.022175	0.14145	0.10607	-3.0646	-2.9146	-2.7729	-3.4979	-2.7042	-3.2229	-3.5062	-2.6937	-3.5792	-3.075	-2.7812	-3.4042	-2.7062	-3.0125	-3.3042	-2.6333	166.628	200.987	77.278	126.458	170.512	45.156	265.171	161.675	-2.975	46.230	107.373	319.390	99.172	79.542	143.635	-3.637	0.00034244	0.00038004	0.00038642	175.98	1.3915e-05	1.5735e-05	248.24	60.371	2.5084e-05	1.411e-05	95.742	33.936	18.873	7.0081	2.3444e-05	14.096	0.015772	0.016743	0.0046389	1186.7	0.00018365	0.00018403	1000.1	326.89	0.00018332	0.00018419	530	181.9	278.41	55.236	0.00018104	80.23	249.777	-11.496	171.780	-6.889	192.299	329.825	-6.079	-1.640	81.479	37.203	-3.348	1.891	1.806	5.094	293.719	3.593	-8191	255	
11895.801	1	1	0	0	0.26904	0.020074	0.063742	0.076931	0.25064	0.080093	0.072863	0.18725	0.1628	0.13432	0.23671	0.10198	0.19342	0.053432	0.22329	0.032661	-2.8042	-2.9396	-2.7	-3.4458	-2.8417	-2.9958	-3.45	-2.7375	-3.3438	-3.2271	-2.6688	-3.4604	-2.8396	-2.8979	-3.5458	-2.7875	181.364	135.406	237.481	220.760	136.450	131.274	72.871	240.328	207.722	321.821	137.894	-9.962	138.964	31.598	293.262	276.325	0.00039102	0.0031793	0.00036851	175.05	2.1344e-05	4.2441e-05	247.64	60.302	1.4971e-05	3.7749e-05	95.782	34.134	19.353	6.6683	3.3925e-05	14.401	0.015988	0.016838	0.0046591	1197.1	0.00018474	0.0001843	1003.6	328.91	0.00018412	0.00018466	532.55	183.57	281.03	55.26	0.00018206	80.871	200.832	-6.197	135.878	-5.749	263.584	74.914	-5.237	-0.467	188.840	115.663	-4.374	1.122	2.662	3.861	26.818	5.259	-8191	255	
11895.898	1	1	0	0	0.22619	0.44507	0.11945	0.11042	0.065552	0.15829	0.25135	0.099393	0.13739	0.034907	0.20575	0.25115	0.30547	0.22262	0.13747	0.28037	-2.8729	-3.1396	-2.6437	-3.3604	-2.9167	-3.0396	-3.5625	-2.6417	-3.1813	-3.1354	-2.6917	-3.5292	-3.0271	-2.7562	-3.2417	-2.725	228.997	166.825	291.381	119.101	338.976	303.757	43.029	241.235	304.922	248.701	226.514	5.108	25.775	2.765	308.032	228.061	0.00014109	0.0020468	0.00085832	168.6	6.2828e-06	2.6828e-05	249.06	61.057	1.1642e-05	2.5228e-05	95.56	33.228	19.744	6.7983	2.3587e-05	14.463	0.016052	0.016854	0.0046902	1206.9	0.00018573	0.00018467	1009.5	330.88	0.00018404	0.00018389	532.31	182.84	278.21	54.937	0.00018164	80.437	129.082	116.848	188.171	-5.524	9.668	98.563	-5.787	-0.304	230.747	170.678	-2.688	1.571	3.445	4.816	235.298	5.078	-8191	255	
11896.018	1	1	0	0	0.10987	0.22985	0.26098	0.070183	0.19	0.10086	0.21325	0.21751	0.014197	0.074931	0.26515	0.083571	0.17721	0.12378	0.14855	0.12152	-2.7958	-3.1625	-2.7208	-3.2958	-3.0646	-2.8896	-3.4625	-2.8042	-3.1146	-3.4167	-2.7583	-3.425	-3.1271	-2.7771	-3.55	-2.9229	224.834	34.119	168.534	229.481	89.283	74.240	66.839	297.124	270.964	203.226	216.199	42.239	113.459	312.726	200.019	174.741	0.0003316	0.0013899	0.00038432	178.15	1.8621e-05	2.2322e-05	243.73	59.642	1.9039e-05	1.505e-05	95.251	34.171	19.454	6.6561	1.3638e-05	14.21	0.015885	0.016633	0.004639	1192.4	0.00018232	0.00018178	1002.1	327.74	0.00018168	0.00018184	530.79	182.25	276.18	54.511	0.00018115	80.181	93.471	99.949	204.577	-4.498	53.848	111.296	-5.702	0.084	157.916	192.971	-1.999	1.006	1.160	4.990	248.028	5.106	-8191	255	
11896.113	1	1	0	0	0.18609	0.13827	0.117	0.072471	0.17385	0.38067	0.12612	0.13854	0.14971	0.039776	0.12753	0.17103	0.070765	0.13182	0.18766	0.14162	-2.5771	-3.4188	-2.6562	-3.2146	-3.1292	-2.7625	-3.5187	-2.8063	-2.9708	-3.5354	-2.6688	-3.15	-3.1792	-2.6063	-3.5062	-3.0083	333.729	171.978	118.908	267.855	-17.151	-1.307	330.948	320.308	323.529	262.086	292.247	255.937	232.265	212.450	151.048	42.391	0.00049116	0.0019115	0.00035177	171.85	2.4528e-05	1.3309e-05	241.98	61.048	2.7419e-05	2.3268e-05	93.417	33.421	17.576	6.6622	2.0552e-05	14.471	0.015734	0.01653	0.0046239	1186.4	0.00018052	0.00018046	997.6	325.33	0.00017954	0.00018013	527.48	180.27	271.84	54.08	0.00017968	79.577	138.383	77.557	198.806	-5.686	68.613	201.998	-6.002	-1.240	190.120	25.607	-2.184	1.714	2.712	4.952	289.461	2.964	-8191	255	
11896.211	1	1	0	0	0.054879	0.20636	0.088139	0.078656	0.099941	0.10137	0.067903	0.14854	0.17271	0.26581	0.18516	0.1297	0.13023	0.068836	0.12343	0.37128	-2.7146	-3.4062	-2.7938	-3.2	-3.2021	-2.65	-3.6354	-2.9625	-2.65	-3.5042	-2.5833	-2.9062	-3.475	-2.6208	-3.4167	-3.1458	274.474	163.894	53.051	290.911	274.854	244.626	-12.859	47.840	317.005	300.271	212.238	84.503	22.736	266.912	17.408	252.928	0.00019153	0.00015494	0.00075746	173.96	2.028e-05	2.1751e-05	244.69	61.037	1.2243e-05	7.6098e-06	96.834	34.775	18.347	6.3376	7.6213e-06	14.44	0.015577	0.016499	0.0046475	1187.7	0.00018089	0.00018173	1003.5	327.49	0.00018093	0.00018241	535.11	182.62	275.84	54.985	0.00018305	80.539	111.017	80.939	133.509	-4.310	272.241	279.908	-5.729	-0.555	117.012	-2.407	-2.912	0.977	3.856	6.542	286.485	3.134	-8191	255	
11896.305	1	1	0	0	0.03534	0.0046019	0.089907	0.23911	0.029897	0.19544	0.25187	0.14547	0.05829	0.33127	0.10905	0.097644	0.1051	0.23024	0.21071	0.10674	-2.5458	-3.3375	-2.7542	-3.0021	-3.2687	-2.8083	-3.3438	-2.9833	-2.6312	-3.7333	-2.9062	-3.0438	-3.3833	-2.7375	-3.3729	-3.0667	206.054	49.427	168.423	179.174	248.647	220.560	104.536	335.696	26.129	30.368	37.344	286.888	158.793	80.812	316.088	111.159	0.00024247	0.003916	0.000233	169.11	1.5145e-05	2.7377e-06	247.13	60.236	9.4685e-06	4.3869e-05	93.962	34.047	19.14	6.7947	3.2273e-05	14.675	0.015854	0.016802	0.0047278	1199.3	0.00018303	0.00018429	1014.5	328.99	0.00018237	0.00018475	537.95	183.06	277.73	55.438	0.00018433	80.588	38.080	52.664	139.546	-4.859	201.082	239.557	-5.563	-1.234	238.209	17.596	-3.224	1.715	11.448	5.247	292.066	3.323	-8191	255	
11896.401	1	1	0	0	0.1965	0.094841	0.22992	0.06038	0.13547	0.237	0.17363	0.10997	0.3297	0.23735	0.042063	0.038755	0.20537	0.12771	0.048059	0.029473	-2.3396	-3.5229	-3.025	-3.0667	-3.4104	-2.6104	-3.0812	-3.2667	-2.5208	-3.4437	-2.9646	-2.8	-3.4313	-2.5958	-3.2208	-3.2729	263.352	39.768	304.931	4.382	97.863	74.497	92.432	27.048	106.363	137.721	294.386	-11.109	154.896	141.812	335.899	230.449	0.00020698	0.0028928	0.00063163	174.02	3.2689e-05	1.769e-05	249.27	61.018	3.3717e-05	2.6202e-05	93.418	34.038	20.295	6.6272	5.9713e-06	14.283	0.015893	0.016891	0.0047193	1196.4	0.00018355	0.00018485	1013.2	326.77	0.00018143	0.00018395	532.4	180.49	273.42	54.847	0.00018175	79.044	109.685	170.353	139.839	-5.609	142.521	215.995	-6.030	-0.227	270.819	222.163	-2.363	1.865	2.905	4.498	131.475	4.113	-8191	255	
11896.497	1	1	0	0	0.18393	0.052136	0.1101	0.093295	0.11449	0.18414	0.11456	0.092339	0.25416	0.056371	0.20306	0.035351	0.29778	0.12293	0.24263	0.23639	-2.375	-3.3229	-2.9417	-2.8896	-3.525	-2.6917	-3.2104	-3.3083	-2.6562	-3.3875	-3.1333	-2.8187	-3.5542	-2.8333	-3.1437	-3.4792	64.528	-0.036	257.387	326.820	231.979	95.910	317.120	293.325	251.182	166.811	206.053	156.337	172.802	126.402	76.466	324.989	0.00027193	0.0010293	0.0004256	171.98	1.6004e-05	1.1404e-05	246.73	59.784	2.1493e-05	3.7782e-05	92.81	33.967	18.472	6.4307	1.2508e-05	14.589	0.015647	0.016642	0.0046157	1172.3	0.00017961	0.00018168	995.29	322.05	0.00017906	0.00018195	525.98	178.83	272.1	54.464	0.00017909	78.64	107.500	12.176	263.676	-5.297	163.244	142.842	-6.171	-0.901	297.302	213.120	-3.027	0.951	5.307	5.074	325.141	3.740	-8191	255	
11896.618	1	1	0	0	0.25304	0.13655	0.093209	0.28389	0.15454	0.30802	0.063421	0.19618	0.17148	0.085096	0.16079	0.052331	0.098741	0.26921	0.2896	0.10857	-2.1854	-3.4188	-3.0208	-2.7917	-3.3312	-2.8688	-2.9917	-3.3625	-2.7313	-3.4479	-3.1979	-2.7438	-3.4896	-2.8542	-2.9854	-3.4125	83.516	-9.905	207.732	98.237	324.520	144.786	64.095	1.038	232.590	325.645	235.057	31.434	191.635	13.079	292.729	245.490	0.00021612	0.0017	0.00056187	174.27	1.6248e-05	3.2841e-05	249.44	60.269	6.922e-06	1.2078e-05	92.392	34.35	17.667	6.808	1.4297e-05	14.643	0.015579	0.016559	0.0045946	1166.4	0.00017956	0.00018163	992.58	322.02	0.00017985	0.00018194	524.83	178.86	273.13	54.538	0.00017842	78.761	231.756	232.154	141.318	-4.040	119.932	76.533	-6.648	-0.085	22.718	103.324	-2.247	2.593	7.849	5.731	201.483	3.528	-8191	255	
11896.714	1	1	0	0	0.35754	0.18329	0.27732	0.48548	0.041453	0.15064	0.30083	0.097767	0.025458	0.19349	0.14324	0.1965	0.11072	0.12865	0.13073	0.015503	-2.1708	-3.2896	-3.3729	-2.7438	-3.3271	-2.9458	-2.9167	-3.5042	-2.4625	-3.2167	-3.3125	-2.6146	-3.5542	-3.0125	-2.8125	-3.4333	177.007	182.134	335.023	317.829	203.799	321.266	99.637	111.051	161.928	331.960	285.918	32.047	242.677	329.888	215.751	315.948	0.00020514	0.0031702	0.00070115	172.11	1.8721e-05	3.7465e-05	246.53	61.086	5.0557e-06	8.3733e-06	94.404	33.067	19.407	6.7769	1.508e-05	14.368	0.015684	0.01662	0.0045832	1175.6	0.00018181	0.0001826	994.1	323.42	0.00018132	0.00018297	527.33	180.8	277.69	55.17	0.00018044	79.93	109.240	125.188	268.618	-5.341	277.300	191.737	-5.765	-1.706	295.837	61.425	-3.079	-0.218	5.395	4.739	213.027	4.256	-8191	255	
11896.810	1	1	0	0	0.065519	0.16543	0.14375	0.06792	0.12558	0.12013	0.22268	0.11815	0.08218	0.11582	0.27573	0.25482	0.20933	0.21436	0.028279	0.064779	-2.1979	-3.0396	-3.1375	-2.5354	-3.2958	-3.0083	-2.8021	-3.6	-2.8063	-2.9938	-3.4333	-2.7542	-3.35	-3.2542	-2.7188	-3.4646	190.757	192.601	217.496	284.341	301.293	22.275	238.348	227.114	46.096	67.095	-16.850	2.590	308.464	36.813	186.436	33.124	0.0003122	0.003489	0.00057672	172.67	4.0102e-06	3.7033e-05	246.45	61.134	1.858e-05	2.4727e-05	94.926	34.151	19.475	6.7344	2.8034e-05	14.379	0.01592	0.016789	0.0046348	1188.6	0.00018443	0.00018403	999.88	327.82	0.00018391	0.00018465	530.23	182.78	280.42	55.458	0.00018204	80.672	188.199	8.594	216.718	-4.510	89.517	6.064	-5.875	-1.350	145.588	40.448	-2.989	1.688	2.055	6.189	230.914	4.411	-8191	255	
11896.906	1	1	0	0	0.14392	0.057827	0.29417	0.24901	0.22196	0.20422	0.10414	0.020887	0.30875	0.066015	0.15626	0.0058052	0.078098	0.07549	0.1779	0.12426	-2.5292	-3.0438	-3.2542	-2.6146	-3.4958	-3.3021	-2.7583	-3.575	-2.7875	-3.0646	-3.5417	-2.7333	-3.2792	-3.1437	-2.7479	-3.3271	39.371	231.521	243.981	177.413	172.891	257.127	137.754	42.892	126.832	132.517	-6.028	201.408	108.896	6.070	339.806	267.813	0.00019816	0.0011974	0.00015253	175.33	1.8091e-05	5.7827e-06	249.5	60.811	7.7595e-06	4.4883e-05	94.293	33.695	19.443	6.8029	2.2314e-05	14.403	0.016132	0.016916	0.0046764	1202.9	0.00018639	0.00018505	1009.4	330.56	0.00018435	0.00018398	531.91	182.74	279.08	54.954	0.00018108	80.529	150.155	84.337	279.412	-5.804	10.229	289.019	-6.337	-1.011	-14.888	237.843	-0.667	2.446	2.652	4.429	117.678	3.620	-8191	255	
#DATA ENDS
