BOXY.EXE: ISS Imagent and Oximeter Data Acquisition Program Version 0.80
Ascii Record File

#ACQ INFORMATION
2  Detector Channels 
16  External MUX Channels 
1  Auxiliary Channels 
5000  Waveform (CCF) Frequency (Hz)
1  Waveforms Skipped 
30  Waveforms Averaged 
1  Cycles Averaged 
16  Acquisitions per Waveform 
10.0806  Updata Rate (Hz) 

#FILE INFORMATION
TRUE -- External MUX Channel results are PARSED.
FALSE -- AC DC and Phase are NOT grouped.
TRUE -- Companion Program Settings File CREATED.
FALSE -- AC data not excluded
FALSE -- DC data not excluded
FALSE -- Phase data not excluded
FALSE -- Auxillary Chn. data not excluded
Tab delimiters

#CALIBRATION STATE
TRUE -- Waveform Calibration Values APPLIED.


#AUX CALIBRATION VALUES
Val Type	aux-1	

Term	1.0000e+00	
Factor	0.0000e+00	


#WF CALIBRATION VALUES
A = Detector Channel
Val Type	A-AC1	A-AC2	A-AC3	A-AC4	A-AC5	A-AC6	A-AC7	A-AC8	A-AC9	A-AC10	A-AC11	A-AC12	A-AC13	A-AC14	A-AC15	A-AC16	A-DC1	A-DC2	A-DC3	A-DC4	A-DC5	A-DC6	A-DC7	A-DC8	A-DC9	A-DC10	A-DC11	A-DC12	A-DC13	A-DC14	A-DC15	A-DC16	A-Ph1	A-Ph2	A-Ph3	A-Ph4	A-Ph5	A-Ph6	A-Ph7	A-Ph8	A-Ph9	A-Ph10	A-Ph11	A-Ph12	A-Ph13	A-Ph14	A-Ph15	A-Ph16	

Term	0.00000e+00	0.00000e+00	0.00000e+00	0.00000e+00	0.00000e+00	0.00000e+00	0.00000e+00	0.00000e+00	0.00000e+00	0.00000e+00	0.00000e+00	0.00000e+00	0.00000e+00	0.00000e+00	0.00000e+00	0.00000e+00	0.00000e+00	0.00000e+00	0.00000e+00	0.00000e+00	0.00000e+00	0.00000e+00	0.00000e+00	0.00000e+00	0.00000e+00	0.00000e+00	0.00000e+00	0.00000e+00	0.00000e+00	0.00000e+00	0.00000e+00	0.00000e+00	0.00000e+00	0.00000e+00	0.00000e+00	0.00000e+00	0.00000e+00	0.00000e+00	0.00000e+00	0.00000e+00	0.00000e+00	0.00000e+00	0.00000e+00	0.00000e+00	0.00000e+00	0.00000e+00	0.00000e+00	0.00000e+00	
Factor	1.00000e+00	1.00000e+00	1.00000e+00	1.00000e+00	1.00000e+00	1.00000e+00	1.00000e+00	1.00000e+00	1.00000e+00	1.00000e+00	1.00000e+00	1.00000e+00	1.00000e+00	1.00000e+00	1.00000e+00	1.00000e+00	1.00000e+00	1.00000e+00	1.00000e+00	1.00000e+00	1.00000e+00	1.00000e+00	1.00000e+00	1.00000e+00	1.00000e+00	1.00000e+00	1.00000e+00	1.00000e+00	1.00000e+00	1.00000e+00	1.00000e+00	1.00000e+00	X	X	X	X	X	X	X	X	X	X	X	X	X	X	X	X	

B = Detector Channel
Val Type	B-AC1	B-AC2	B-AC3	B-AC4	B-AC5	B-AC6	B-AC7	B-AC8	B-AC9	B-AC10	B-AC11	B-AC12	B-AC13	B-AC14	B-AC15	B-AC16	B-DC1	B-DC2	B-DC3	B-DC4	B-DC5	B-DC6	B-DC7	B-DC8	B-DC9	B-DC10	B-DC11	B-DC12	B-DC13	B-DC14	B-DC15	B-DC16	B-Ph1	B-Ph2	B-Ph3	B-Ph4	B-Ph5	B-Ph6	B-Ph7	B-Ph8	B-Ph9	B-Ph10	B-Ph11	B-Ph12	B-Ph13	B-Ph14	B-Ph15	B-Ph16	

Term	0.00000e+00	0.00000e+00	0.00000e+00	0.00000e+00	0.00000e+00	0.00000e+00	0.00000e+00	0.00000e+00	0.00000e+00	0.00000e+00	0.00000e+00	0.00000e+00	0.00000e+00	0.00000e+00	0.00000e+00	0.00000e+00	0.00000e+00	0.00000e+00	0.00000e+00	0.00000e+00	0.00000e+00	0.00000e+00	0.00000e+00	0.00000e+00	0.00000e+00	0.00000e+00	0.00000e+00	0.00000e+00	0.00000e+00	0.00000e+00	0.00000e+00	0.00000e+00	-1.18665e+02	-1.43103e+02	-1.31458e+02	-1.83497e+02	-5.54734e+01	-7.70765e+01	-1.55340e+02	-1.62015e+02	-5.71864e+01	-6.23776e+01	-1.71006e+02	-1.70504e+02	-1.79973e+02	-1.76425e+02	-7.82450e+01	-1.49762e+02	
Factor	1.93118e-05	1.61628e-04	4.26647e-05	2.20701e-01	1.28616e-06	1.56004e-06	1.72996e-01	5.74726e-02	1.10787e-06	1.53154e-06	9.82376e-02	3.28947e-02	5.70057e-02	1.04581e-02	1.48207e-06	1.47673e-02	1.71346e-06	1.81190e-06	5.03972e-07	1.10140e-01	1.97318e-08	1.98080e-08	8.23502e-02	2.89539e-02	1.96931e-08	1.98287e-08	4.75880e-02	1.60157e-02	2.79623e-02	5.24248e-03	1.96653e-08	7.15294e-03	X	X	X	X	X	X	X	X	X	X	X	X	X	X	X	X	



#DISTANCE SETTINGS
A = Detector Channel
A-1	A-2	A-3	A-4	A-5	A-6	A-7	A-8	A-9	A-10	A-11	A-12	A-13	A-14	A-15	A-16	

2.5000e+00	3.0000e+00	2.5000e+00	3.0000e+00	2.0000e+00	3.0000e+00	1.5000e+00	3.0000e+00	3.0000e+00	3.0000e+00	3.0000e+00	3.0000e+00	3.0000e+00	3.0000e+00	1.5000e+00	3.0000e+00	

B = Detector Channel
B-1	B-2	B-3	B-4	B-5	B-6	B-7	B-8	B-9	B-10	B-11	B-12	B-13	B-14	B-15	B-16	

1.0000e+01	1.0000e+01	1.0000e+01	1.4400e+00	1.0000e+01	1.0000e+01	1.5100e+00	1.9400e+00	1.0000e+01	1.0000e+01	1.9900e+00	2.4900e+00	2.4100e+00	2.9000e+00	1.0000e+01	2.9800e+00	




#DATA BEGINS
time	group	step	mark	flag	A-AC1	A-AC2	A-AC3	A-AC4	A-AC5	A-AC6	A-AC7	A-AC8	A-AC9	A-AC10	A-AC11	A-AC12	A-AC13	A-AC14	A-AC15	A-AC16	A-DC1	A-DC2	A-DC3	A-DC4	A-DC5	A-DC6	A-DC7	A-DC8	A-DC9	A-DC10	A-DC11	A-DC12	A-DC13	A-DC14	A-DC15	A-DC16	A-Ph1	A-Ph2	A-Ph3	A-Ph4	A-Ph5	A-Ph6	A-Ph7	A-Ph8	A-Ph9	A-Ph10	A-Ph11	A-Ph12	A-Ph13	A-Ph14	A-Ph15	A-Ph16	B-AC1	B-AC2	B-AC3	B-AC4	B-AC5	B-AC6	B-AC7	B-AC8	B-AC9	B-AC10	B-AC11	B-AC12	B-AC13	B-AC14	B-AC15	B-AC16	B-DC1	B-DC2	B-DC3	B-DC4	B-DC5	B-DC6	B-DC7	B-DC8	B-DC9	B-DC10	B-DC11	B-DC12	B-DC13	B-DC14	B-DC15	B-DC16	B-Ph1	B-Ph2	B-Ph3	B-Ph4	B-Ph5	B-Ph6	B-Ph7	B-Ph8	B-Ph9	B-Ph10	B-Ph11	B-Ph12	B-Ph13	B-Ph14	B-Ph15	B-Ph16	aux-1	digaux	

11346.840	1	1	0	768	0.03538	0.17475	0.054446	0.20044	0.31207	0.15601	0.17698	0.29772	0.10153	0.084434	0.045646	0.17328	0.12397	0.099087	0.057902	0.29008	-2.7167	-2.7646	-2.6667	-3.475	-2.3438	-2.8646	-3.1292	-2.6333	-3.1229	-2.8521	-2.6375	-3.1396	-2.5875	-3.0229	-3.125	-2.4979	255.587	408.289	155.934	94.746	146.538	302.234	305.274	347.718	209.455	406.349	145.467	362.288	100.847	391.734	300.413	404.759	0.0004663	0.00077129	6.7725e-05	1354.7	6.8672e-06	6.4338e-06	1360.9	359.16	6.6791e-06	9.8812e-06	414.6	137.75	120.46	41.268	5.8343e-06	50.895	0.0010491	0.001089	0.000304	1404.2	1.185e-05	1.1841e-05	1402.7	374.55	1.1888e-05	1.1923e-05	435.11	145.94	130.95	43.931	1.1901e-05	54.669	185.540	174.827	121.832	100.288	289.747	269.952	100.101	105.053	281.805	207.707	104.720	108.786	109.552	113.973	250.949	113.214	-8191	255	
11346.936	1	1	0	0	0.079551	0.10957	0.21162	0.19108	0.070896	0.13776	0.14014	0.32023	0.077114	0.14273	0.12567	0.048517	0.18205	0.1957	0.13715	0.13055	-2.7042	-2.7188	-2.6542	-3.3021	-2.5354	-2.7938	-3.4229	-2.6792	-3.0812	-2.8458	-2.5187	-3.3896	-2.5833	-2.825	-3.2562	-2.4729	391.222	335.189	116.513	438.673	293.383	422.237	423.983	402.745	156.388	444.630	362.485	270.110	393.083	399.124	315.723	323.753	0.00057033	0.00040753	0.0001049	1356.9	4.2207e-06	9.473e-06	1355.5	359.42	4.1002e-06	5.6093e-06	414.45	137.95	119.8	41.249	9.8103e-06	51.316	0.0010675	0.0011047	0.00030777	1406.9	1.2123e-05	1.2193e-05	1402.4	374.53	1.224e-05	1.2291e-05	436.57	146.67	131.63	44.037	1.2181e-05	54.913	192.597	346.592	211.104	100.233	198.061	197.587	100.161	105.169	191.669	181.742	104.132	108.737	109.117	113.694	261.557	112.794	-8191	255	
11347.030	1	1	0	0	0.10582	0.24008	0.15002	0.31982	0.12208	0.085943	0.092254	0.080546	0.13674	0.17559	0.36371	0.24323	0.15858	0.16149	0.29443	0.12901	-2.7562	-2.7333	-2.3708	-3.3479	-2.5771	-2.6792	-3.3312	-2.4813	-2.8708	-2.9021	-2.5271	-3.2792	-2.8458	-2.6458	-3.2646	-2.6354	148.999	261.873	315.770	421.538	409.293	98.249	399.140	370.696	176.408	192.035	101.753	101.100	114.518	365.765	292.940	402.714	0.00041182	0.00072237	0.00013865	1356.4	7.7007e-06	1.1864e-06	1356.7	359.86	3.0171e-06	6.0671e-06	413.94	137.74	120.06	41.225	8.1856e-06	51.369	0.0010861	0.0011214	0.00031272	1406.4	1.2154e-05	1.2218e-05	1402.1	375.42	1.1969e-05	1.2027e-05	435.25	146.05	131.38	43.944	1.1916e-05	54.764	176.773	144.013	187.814	100.114	217.639	223.656	99.874	104.664	191.785	350.532	103.917	108.537	109.169	113.746	151.496	112.427	-8191	255	
11347.128	1	1	0	0	0.27893	0.20998	0.13141	0.078268	0.30784	0.2199	0.2474	0.2364	0.074386	0.32828	0.071817	0.13199	0.14163	0.12937	0.037209	0.058718	-2.5396	-3.0396	-2.4	-3.0979	-2.6042	-2.7604	-3.4021	-2.6625	-2.8396	-3.1604	-2.5604	-3.1458	-2.8396	-2.7708	-3.1229	-2.8083	426.347	285.622	341.061	390.414	380.271	138.024	387.444	388.616	197.946	216.183	341.420	334.031	271.085	195.177	444.385	356.323	0.00048962	0.00010086	0.00014102	1361.5	4.5537e-06	4.6957e-06	1366.4	359.46	3.9017e-06	4.6792e-06	414.33	137.85	120.13	41.132	4.9891e-06	51.192	0.0010554	0.0010867	0.00030168	1407	1.1771e-05	1.1741e-05	1404	374.28	1.1664e-05	1.1738e-05	434.59	145.94	130.93	43.897	1.1671e-05	54.699	172.521	183.118	87.346	100.073	283.065	409.607	99.850	104.861	262.614	127.064	103.884	108.702	108.885	113.800	230.700	112.847	-8191	255	
11347.222	1	1	0	0	0.22281	0.10846	0.17954	0.17311	0.24322	0.18856	0.24971	0.217	0.1911	0.24748	0.30578	0.1378	0.031162	0.16577	0.31905	0.29741	-2.2917	-3.1104	-2.3063	-3.3083	-2.8958	-2.5625	-3.4854	-2.7646	-2.65	-3.0271	-2.6104	-3.1042	-2.9479	-2.45	-3.4729	-2.6979	217.399	110.830	308.013	105.141	220.068	129.888	379.173	325.939	272.374	174.498	393.278	326.204	286.648	94.239	149.634	389.530	0.00047134	0.00025874	0.00010568	1355.8	7.8895e-06	9.2791e-06	1363.4	360.49	5.6185e-06	3.3456e-06	413.1	138.29	120.04	41.337	1.2749e-05	51.225	0.0010449	0.001072	0.00029768	1407.2	1.1746e-05	1.1792e-05	1405.5	374.53	1.194e-05	1.1972e-05	435.66	146.33	131.36	44.071	1.2052e-05	54.795	173.230	161.175	186.765	100.131	235.072	197.199	99.853	104.849	225.301	216.899	103.905	108.689	109.576	113.765	259.973	112.630	-8191	255	
11347.319	1	1	0	0	0.12934	0.065217	0.10538	0.19798	0.11882	0.11562	0.42747	0.35322	0.21454	0.10272	0.091751	0.099582	0.18366	0.096191	0.14666	0.070516	-2.0521	-3.3	-2.5208	-3.0417	-3.0062	-2.4292	-3.2188	-2.8271	-2.4437	-3.3417	-2.5833	-2.9104	-2.9813	-2.475	-3.1312	-2.8854	421.310	168.014	377.837	400.703	425.249	87.739	391.160	350.670	418.052	357.346	395.345	251.020	294.079	372.794	211.638	136.830	0.00041602	0.00097906	0.00027881	1359.1	1.8275e-06	6.3832e-06	1362.3	358.69	4.7028e-06	1.3026e-05	415.32	138.45	119.63	41.262	6.5179e-06	51.405	0.0010838	0.0011207	0.000311	1412.5	1.2202e-05	1.2308e-05	1406.4	375.28	1.2282e-05	1.228e-05	437.15	146.71	131.78	44.068	1.2324e-05	54.885	192.581	156.016	142.441	100.307	358.415	308.323	99.996	104.973	232.377	213.356	104.271	108.767	109.292	114.037	202.474	113.030	-8191	255	
11347.439	1	1	0	0	0.22506	0.43362	0.19595	0.12961	0.17527	0.028495	0.50106	0.21741	0.1391	0.076052	0.20239	0.14831	0.22963	0.32988	0.067773	0.080745	-2.1958	-3.2625	-2.4458	-2.9771	-3.05	-2.4208	-3.2812	-3.025	-2.4479	-3.3125	-2.575	-2.9771	-3.2229	-2.4833	-3.0917	-3.0021	351.366	443.934	438.095	247.173	90.195	89.923	422.653	107.460	309.820	401.396	293.607	108.972	109.272	97.236	313.186	103.166	0.00046515	0.00024761	7.6966e-05	1361.7	6.8993e-06	6.4611e-06	1370.3	360.73	5.8722e-06	7.4251e-06	413.89	138.31	120.46	41.452	8.6781e-06	51.521	0.0011007	0.0011308	0.00031236	1414.4	1.2353e-05	1.2403e-05	1411	376.5	1.2385e-05	1.2432e-05	437.53	147.04	132.12	44.233	1.2547e-05	55.124	192.582	407.557	364.741	100.246	244.256	216.005	100.141	105.122	217.177	250.554	104.338	109.047	109.154	114.003	206.146	112.950	-8191	255	
11347.535	1	1	0	0	0.085711	0.28725	0.069091	0.15371	0.14077	0.14675	0.32509	0.14757	0.19786	0.092217	0.20392	0.25683	0.27373	0.43833	0.07709	0.072636	-2.1271	-3.0208	-2.6875	-2.9458	-3.1729	-2.5062	-3.2167	-3.0125	-2.6146	-3.2917	-2.9208	-2.8146	-3.3792	-2.4417	-2.9333	-3.1417	89.842	107.002	285.828	393.969	248.789	313.425	393.420	341.430	398.502	321.100	384.747	104.289	213.067	105.915	338.335	439.414	0.00046237	0.0010306	0.00014987	1366.5	1.5558e-06	6.5638e-06	1367.6	360.74	5.4109e-06	9.4469e-06	413.81	138.71	119.62	41.433	2.6937e-06	51.503	0.0011343	0.0011639	0.00032382	1418	1.2789e-05	1.2751e-05	1414	377.04	1.282e-05	1.2839e-05	439.28	147.42	132.86	44.373	1.2837e-05	55.36	190.503	179.333	272.963	100.640	185.477	388.644	100.231	105.030	261.039	333.982	104.465	108.984	109.404	113.922	143.640	113.025	-8191	255	
11347.631	1	1	0	0	0.12081	0.22892	0.16362	0.29802	0.12562	0.2499	0.18208	0.22573	0.14827	0.080498	0.09164	0.22952	0.088938	0.24665	0.26903	0.18618	-2.1813	-3.3688	-2.675	-2.8063	-3.0917	-2.3458	-3.15	-3.2646	-2.5833	-3.0479	-3.1354	-2.5208	-3.275	-2.5375	-2.8563	-3.2042	296.022	324.378	144.037	414.379	311.163	155.086	375.312	355.423	173.400	299.270	133.401	96.006	353.578	364.522	274.453	308.601	0.00042055	0.00050398	0.00019623	1364	8.3221e-06	1.6895e-06	1366.6	360.24	3.4333e-06	1.05e-05	415.08	138.65	121.04	41.354	4.6337e-06	51.544	0.0011433	0.001172	0.00032644	1419.1	1.2719e-05	1.2734e-05	1414.7	377.5	1.2588e-05	1.2667e-05	438.76	147.24	132.69	44.258	1.2401e-05	55.159	196.361	273.981	152.817	100.323	251.574	105.473	100.194	104.945	363.656	249.745	104.375	108.877	109.325	113.865	440.663	113.052	-8191	255	
11347.728	1	1	0	0	0.071411	0.070908	0.13756	0.32831	0.047567	0.057675	0.29661	0.16153	0.074313	0.069406	0.2383	0.4438	0.099618	0.21523	0.081367	0.16561	-1.9438	-3.1917	-2.9042	-2.6729	-3.1854	-2.6292	-2.8167	-3.2854	-2.4521	-3.2083	-3.0146	-2.4042	-3.0646	-2.7438	-2.7771	-3.4792	439.683	353.168	136.461	430.465	158.475	105.150	375.564	108.031	219.968	396.061	405.802	414.383	139.979	137.966	349.854	93.296	0.00043011	0.00081439	0.00011535	1362.1	1.1233e-05	9.025e-06	1367.6	360.78	8.4991e-06	2.8222e-06	414.73	138.66	120.59	41.56	2.2523e-06	51.383	0.0011072	0.0011372	0.00031816	1416	1.2328e-05	1.2378e-05	1412.9	376.82	1.2283e-05	1.2318e-05	438.38	147.11	132.48	44.266	1.234e-05	55.064	181.976	128.294	185.094	99.882	246.398	217.484	99.961	104.733	266.000	93.500	104.046	108.539	109.081	113.356	312.549	112.485	-8191	255	
11347.824	1	1	0	0	0.34842	0.11548	0.092692	0.22318	0.19368	0.32356	0.23205	0.031863	0.11517	0.20533	0.2785	0.30166	0.19106	0.084029	0.14009	0.24909	-2	-2.8917	-2.95	-2.7146	-3.3167	-2.7583	-2.8979	-3.1833	-2.4771	-2.8854	-3.0708	-2.5646	-3.1542	-3.0375	-2.6708	-3.2667	386.429	148.210	341.079	102.163	313.607	437.457	383.805	295.701	391.056	204.663	333.729	374.720	97.916	370.659	365.298	402.557	0.00046066	0.00043878	6.9036e-05	1364.9	7.5768e-06	2.4793e-06	1365.7	361.64	2.3561e-06	4.1049e-06	415.41	138.43	119.29	41.543	5.6231e-06	51.443	0.0011013	0.0011303	0.00031312	1415.6	1.2249e-05	1.2261e-05	1412.7	376.98	1.2301e-05	1.2293e-05	438.19	147	132.16	44.343	1.2325e-05	55.124	176.226	236.100	131.939	99.913	258.942	301.968	99.884	104.681	232.051	342.460	104.019	108.640	109.501	113.869	235.655	112.658	-8191	255	
11347.920	1	1	0	0	0.10091	0.11319	0.17939	0.11064	0.25935	0.28737	0.35994	0.3511	0.11498	0.037275	0.31838	0.22573	0.12266	0.10446	0.13686	0.14581	-2.3021	-2.9062	-2.9771	-2.5021	-3.1271	-2.8146	-2.6208	-3.2062	-2.65	-2.75	-3.2521	-2.3521	-3.0146	-3.0417	-2.3583	-3.3833	404.496	402.533	224.313	425.393	347.095	208.094	344.703	347.192	250.509	112.484	368.057	319.817	272.083	374.446	269.638	342.759	0.00052085	0.0010333	0.00017796	1367	2.543e-06	7.2189e-06	1369.6	362.03	4.8879e-06	4.9122e-06	416.93	138.45	120.58	41.505	1.0987e-05	51.525	0.0011056	0.001151	0.00031795	1417.9	1.2417e-05	1.2457e-05	1413.5	377.1	1.2344e-05	1.2444e-05	439.26	146.84	132.33	44.24	1.2348e-05	55.129	190.844	155.785	111.237	100.039	136.086	327.047	99.961	104.860	303.810	192.873	103.869	108.513	109.143	113.673	217.543	112.778	-8191	255	
11348.039	1	1	0	0	0.048946	0.38286	0.11417	0.17053	0.43596	0.065696	0.10472	0.06269	0.14526	0.048125	0.069215	0.20279	0.16325	0.046184	0.19885	0.16946	-2.1667	-2.5438	-3.2208	-2.575	-3.175	-2.7958	-2.8563	-3.4875	-2.6292	-2.7104	-3.4479	-2.7938	-2.9417	-3.0396	-2.5146	-3.1896	117.170	341.028	425.282	400.767	105.955	115.495	309.813	227.065	229.189	262.274	338.678	412.127	289.039	92.121	265.211	400.677	0.00046036	0.00085035	0.00029515	1362.6	1.0322e-05	2.0526e-06	1364.9	361.3	1.9203e-06	5.1698e-06	417.26	138.62	120.66	41.406	4.8255e-06	51.571	0.0011041	0.001138	0.00031638	1415.9	1.2333e-05	1.2443e-05	1411.7	377.87	1.2346e-05	1.2388e-05	438.7	146.98	132.36	44.294	1.2379e-05	55.166	177.410	178.290	163.083	99.943	244.652	263.957	99.912	105.008	90.185	163.462	104.266	108.985	109.273	113.987	148.195	112.912	-8191	255	
11348.135	1	1	0	0	0.08663	0.26271	0.084173	0.3166	0.12122	0.16041	0.31226	0.25118	0.2076	0.14843	0.16251	0.11741	0.10553	0.064062	0.2538	0.13478	-2.2979	-2.5146	-3.0021	-2.5667	-2.9792	-2.9708	-2.5083	-3.3167	-2.7521	-2.5292	-3.2229	-2.7646	-2.8208	-3.1521	-2.4833	-3.1604	363.052	276.581	343.769	435.803	110.634	166.046	291.400	169.901	234.259	311.946	132.016	90.446	429.607	101.403	318.157	134.630	0.00042227	0.00096375	0.00011973	1365.9	4.3251e-06	1.0003e-06	1367.4	361.24	6.1654e-06	6.6119e-06	417.37	138.83	120.85	41.473	4.2079e-06	51.67	0.0011031	0.001145	0.00032012	1417.9	1.2462e-05	1.2424e-05	1414.2	377.26	1.2381e-05	1.2566e-05	439.54	147.05	132.4	44.339	1.2368e-05	55.301	180.399	192.425	183.535	100.204	271.496	170.314	99.878	105.080	251.029	240.350	104.278	108.966	109.381	113.612	218.551	112.924	-8191	255	
11348.231	1	1	0	0	0.039038	0.2262	0.14465	0.24659	0.17868	0.30013	0.31374	0.25666	0.12071	0.13284	0.16717	0.29504	0.30444	0.12504	0.17154	0.019748	-2.5521	-2.6042	-3.0854	-2.725	-2.9521	-3.2125	-2.5875	-3.1354	-2.9104	-2.4396	-3.3146	-2.825	-2.7604	-3.4083	-2.2833	-3.1875	285.871	206.384	145.946	396.606	389.267	345.413	384.062	398.931	425.202	302.271	421.660	399.960	182.930	132.266	199.986	190.801	0.00048356	0.00035454	0.00011649	1365.3	7.2873e-06	7.8898e-06	1370	362.68	9.3498e-06	1.0012e-05	417.3	138.27	120.41	41.556	2.7113e-06	51.581	0.0011089	0.0011404	0.00031625	1417.7	1.247e-05	1.2475e-05	1414	377.72	1.2373e-05	1.2506e-05	439.73	147.26	132.63	44.329	1.2411e-05	55.264	192.412	383.571	235.537	99.990	271.165	196.408	100.050	105.017	235.681	185.361	104.586	108.686	109.260	113.705	158.482	113.052	-8191	255	
11348.327	1	1	0	0	0.014625	0.13335	0.036872	0.24462	0.13129	0.1284	0.39466	0.041305	0.0917	0.31625	0.10959	0.11301	0.14456	0.18622	0.059729	0.24429	-2.6042	-2.3688	-3.2708	-2.9062	-2.7583	-3.3563	-2.7354	-3.275	-3.0438	-2.4271	-3.2625	-2.8333	-2.6125	-3.3854	-2.475	-3.0042	184.198	315.871	104.791	429.927	318.464	241.301	413.338	220.789	193.219	380.152	328.782	415.710	115.631	444.026	390.028	328.941	0.00052005	0.0012019	0.00025505	1368.8	5.5769e-06	7.7937e-06	1370.8	362.61	3.4311e-06	3.358e-06	418.78	138.52	121.25	41.554	6.8472e-06	51.649	0.0011136	0.0011456	0.00031949	1419.2	1.2563e-05	1.2541e-05	1413.8	378.23	1.246e-05	1.2499e-05	440.31	147.28	133.05	44.375	1.2366e-05	55.113	179.290	153.535	206.102	100.241	304.617	354.844	100.017	105.030	191.573	147.131	104.463	109.173	109.288	113.888	239.058	113.232	-8191	255	
11348.399	1	1	0	0	0.089879	0.17637	0.1468	0.27399	0.023553	0.11722	0.3383	0.077503	0.12734	0.19053	0.13153	0.13177	0.12625	0.11395	0.2592	0.20377	-2.7021	-2.5021	-3.1312	-2.8771	-2.7542	-3.25	-2.6125	-3.0896	-3.1458	-2.4375	-3.3104	-3.0458	-2.5521	-3.2729	-2.4437	-2.9833	151.128	442.652	402.110	117.919	109.087	437.456	418.555	412.060	305.004	107.744	328.143	97.939	383.011	381.854	140.911	306.936	0.00049239	0.0011998	7.7054e-05	1365	3.9056e-06	6.5488e-06	1366.9	361.58	7.7252e-06	6.8034e-06	417.7	139.22	120.7	41.523	7.561e-06	51.738	0.0011037	0.0011396	0.00031535	1416.6	1.2491e-05	1.2445e-05	1412.2	377.88	1.2493e-05	1.2591e-05	439.31	147.4	132.86	44.324	1.2616e-05	55.36	181.207	320.115	169.366	100.344	234.848	283.529	99.940	105.082	254.474	217.706	104.496	108.758	109.297	113.679	239.171	113.107	-8191	255	
11348.520	1	1	0	0	0.097127	0.20858	0.052202	0.34026	0.27508	0.12819	0.35589	0.16714	0.088709	0.064182	0.24713	0.12825	0.10702	0.15679	0.1895	0.28338	-2.8958	-2.4396	-3.0792	-2.9083	-2.4604	-3.0438	-2.9021	-2.8854	-3.15	-2.5021	-3.1312	-3.1021	-2.5187	-3.4042	-2.7042	-2.7188	242.940	183.019	379.923	101.821	200.257	331.710	341.485	424.826	200.114	100.962	389.489	347.608	96.942	207.514	376.332	357.071	0.00038739	0.00028864	0.00024715	1366.6	5.5038e-06	2.6669e-06	1366.1	363.06	6.9382e-06	6.4802e-06	416.72	138.69	120.03	41.593	7.9963e-06	51.527	0.0011314	0.0011629	0.00032283	1420.3	1.2704e-05	1.2652e-05	1414.7	378.75	1.2609e-05	1.2614e-05	439.89	147.3	132.6	44.357	1.2482e-05	55.247	159.388	432.078	202.824	100.119	247.379	115.155	100.268	104.870	236.209	294.607	104.687	108.897	109.360	114.142	245.610	113.001	-8191	255	
11348.616	1	1	0	0	0.10336	0.25551	0.09588	0.20744	0.1658	0.20131	0.10637	0.12923	0.12686	0.26619	0.1614	0.095882	0.13888	0.094492	0.11375	0.29743	-2.8792	-2.4292	-2.8417	-3.1583	-2.5938	-3.1375	-3.0104	-2.5646	-3.2167	-2.4688	-2.9313	-3.0604	-2.5	-3.2125	-2.9562	-2.6729	375.786	136.646	240.688	383.852	148.955	245.200	330.577	365.664	349.788	166.833	337.375	115.595	190.336	398.316	323.028	400.799	0.00045632	0.00031298	0.00047942	1367.4	8.635e-06	1.5754e-05	1365.7	361.7	6.8108e-06	1.1882e-05	415.88	139.14	121.4	41.592	1.2874e-05	51.45	0.0011165	0.0011474	0.00031998	1417.6	1.2562e-05	1.2571e-05	1413.2	377.79	1.2478e-05	1.2589e-05	439.47	147.28	132.74	44.412	1.2432e-05	55.149	182.300	87.927	167.105	100.200	217.761	207.187	100.017	105.356	233.852	293.735	104.604	108.768	109.588	114.267	252.663	113.207	-8191	255	
11348.712	1	1	0	0	0.076725	0.17932	0.27409	0.19994	0.11745	0.38353	0.34585	0.26213	0.23369	0.39166	0.25857	0.35028	0.17134	0.18174	0.13207	0.29487	-2.7979	-2.4542	-2.9104	-3.3646	-2.5104	-3.0479	-3.1354	-2.6562	-3.1667	-2.5708	-3	-3.2604	-2.6417	-3.1875	-2.8354	-2.6292	384.651	122.096	321.314	101.872	286.942	446.493	351.163	413.231	227.171	303.710	334.992	435.548	373.029	338.495	337.339	419.817	0.00052268	0.00055636	0.00034563	1362.2	6.1222e-06	9.5095e-06	1366.7	362.88	6.2054e-06	7.1404e-06	415.65	138.86	120.36	41.655	3.7361e-06	51.461	0.0011215	0.0011451	0.00031784	1416.4	1.2496e-05	1.2489e-05	1412.4	377.78	1.2474e-05	1.2522e-05	439.29	147.21	132.36	44.378	1.2382e-05	55.209	178.607	218.929	137.543	100.397	266.941	247.913	100.196	105.249	274.322	274.280	104.577	109.113	109.152	114.235	254.678	113.355	-8191	255	
11348.808	1	1	0	0	0.17182	0.20261	0.07229	0.23424	0.18253	0.30044	0.087895	0.13241	0.22386	0.17487	0.172	0.16389	0.092331	0.11002	0.11649	0.34832	-2.825	-2.6813	-2.675	-3.1312	-2.4208	-3	-3.2396	-2.6729	-3.1854	-2.8688	-2.75	-3.1937	-2.4896	-3.0146	-3.0938	-2.5792	296.773	211.203	108.921	102.104	160.340	432.556	363.574	401.741	271.432	284.813	355.969	285.906	379.002	124.503	116.156	411.456	0.00055834	0.00084196	4.1006e-05	1362.1	2.7767e-06	1.0798e-05	1366.9	361.76	5.9853e-06	5.2509e-06	416.25	139.11	120.94	41.623	9.7955e-06	51.379	0.0011137	0.0011437	0.00031953	1417.3	1.2424e-05	1.2593e-05	1412.9	377.86	1.2484e-05	1.2555e-05	439.79	147.36	132.52	44.383	1.2481e-05	55.087	185.610	184.535	123.392	100.422	209.054	162.625	100.392	105.284	266.395	266.464	104.512	109.027	109.530	114.135	205.234	112.982	-8191	255	
11348.927	1	1	0	0	0.11395	0.10837	0.047305	0.17453	0.19856	0.10504	0.34395	0.030993	0.17805	0.20067	0.14593	0.12077	0.36578	0.083078	0.28588	0.20832	-2.9792	-2.7146	-2.7271	-3.3083	-2.6312	-3.0292	-3.2583	-2.5875	-3.2146	-2.5875	-2.5646	-3.4313	-2.6708	-2.8312	-3.2729	-2.2854	432.660	429.731	225.850	387.826	407.634	427.216	380.314	282.425	295.995	94.168	110.536	443.537	416.668	332.817	377.988	90.808	0.000383	0.00078365	0.00015459	1366.4	3.0049e-06	1.2132e-05	1368.4	362.38	9.0435e-06	1.256e-06	416.86	139.09	119.83	41.568	7.2986e-06	51.641	0.0011188	0.0011565	0.00032082	1415.3	1.2582e-05	1.2612e-05	1412.4	377.99	1.2492e-05	1.2494e-05	438.91	147.19	132.37	44.382	1.2407e-05	55.3	172.391	156.587	140.301	100.490	207.221	177.996	100.099	104.964	281.396	146.042	104.526	108.904	109.723	114.211	181.549	113.161	-8191	255	
11349.000	1	1	0	0	0.2222	0.29006	0.077609	0.26431	0.094022	0.092781	0.35788	0.094438	0.07899	0.073892	0.19211	0.10724	0.2377	0.10103	0.07647	0.036759	-2.8937	-2.75	-2.6271	-3.3792	-2.6604	-2.7229	-3.2562	-2.6354	-3.0083	-3.05	-2.6729	-3.1479	-2.6375	-2.8208	-3.2875	-2.7062	408.783	320.197	371.510	418.328	197.592	332.662	360.160	323.345	230.901	413.441	331.347	302.940	328.820	347.909	153.249	105.778	0.00045928	0.0011786	0.00017149	1363.8	8.6937e-06	1.001e-05	1367.3	361.92	5.9944e-06	8.7173e-06	416.47	138.1	120.3	41.541	5.7224e-06	51.422	0.0011182	0.0011505	0.00032212	1418	1.2443e-05	1.2568e-05	1412.7	378.24	1.2541e-05	1.2644e-05	439.47	147.03	132.73	44.326	1.2563e-05	55.2	187.095	149.274	187.834	100.245	297.191	292.507	100.281	105.023	222.843	209.338	104.726	109.116	109.802	114.132	261.243	113.155	-8191	255	
11349.121	1	1	0	0	0.34764	0.12077	0.30689	0.14749	0.045224	0.24721	0.092681	0.44713	0.17799	0.038418	0.095805	0.27147	0.15386	0.10863	0.23397	0.35215	-2.7146	-3.0271	-2.4271	-3.3229	-2.7812	-2.7083	-3.4875	-2.5542	-3.075	-3.0458	-2.5167	-3.375	-2.9417	-2.7042	-3.2854	-2.7083	165.081	369.446	400.685	360.972	229.095	349.181	360.851	425.339	408.930	308.956	324.976	420.304	347.849	144.880	239.923	444.582	0.0005623	0.0007356	0.00014169	1361.6	6.3596e-06	6.4102e-06	1367.3	361.25	5.8466e-06	5.4333e-06	415.01	138.52	120.26	41.438	1.2009e-05	51.483	0.0011233	0.0011575	0.00032364	1417.1	1.2659e-05	1.2623e-05	1413.6	377.81	1.256e-05	1.2655e-05	439.32	147.19	132.68	44.373	1.2506e-05	55.187	174.249	189.828	169.564	100.381	287.788	229.790	100.285	105.270	236.810	280.053	104.505	109.204	110.027	113.978	222.648	113.144	-8191	255	
11349.215	1	1	0	0	0.31947	0.18538	0.2152	0.23515	0.13579	0.10152	0.2975	0.0761	0.22418	0.1041	0.12567	0.24677	0.3502	0.18049	0.083596	0.12963	-2.4729	-3.1792	-2.5604	-3.1625	-2.825	-2.55	-3.4167	-2.7104	-2.8	-3.1479	-2.7479	-3.0583	-2.7812	-2.4562	-3.3646	-2.6083	278.417	389.380	248.702	440.486	221.193	260.410	362.257	414.034	406.478	291.469	429.816	373.270	223.336	114.857	154.053	131.542	0.00047889	0.00077104	0.00018846	1368.4	6.5304e-06	1.1918e-05	1365.9	362.45	4.3465e-06	1.7225e-06	417.43	138.31	120.62	41.381	1.3992e-06	51.69	0.0011277	0.0011665	0.00032482	1419.7	1.2701e-05	1.2806e-05	1414.7	378.28	1.2653e-05	1.2763e-05	440.17	147.33	132.99	44.368	1.262e-05	55.188	188.078	166.485	187.467	101.014	212.096	196.224	100.384	105.219	308.184	418.525	104.566	109.133	109.197	114.328	342.644	113.403	-8191	255	
11349.311	1	1	0	0	0.20375	0.14998	0.068154	0.36193	0.09258	0.13533	0.2965	0.15215	0.059534	0.12474	0.12786	0.21688	0.11488	0.19288	0.16034	0.2053	-2.3167	-3.1042	-2.4167	-3.3396	-2.725	-2.3646	-3.3104	-2.6542	-2.7313	-3.05	-2.5396	-3.3167	-3.0396	-2.7188	-3.1292	-2.6813	305.473	291.832	122.385	387.525	236.348	91.804	374.701	377.161	313.176	281.229	319.136	235.285	119.213	389.161	251.612	115.557	0.00054535	0.0007153	0.00023241	1372.7	5.0091e-06	1.651e-06	1365.1	361.13	6.9101e-06	4.3604e-06	417.52	139	120.52	41.448	1.4184e-05	51.492	0.0011315	0.0011703	0.00032375	1422.1	1.2692e-05	1.2781e-05	1414	378.14	1.2593e-05	1.2613e-05	440.37	147.29	132.66	44.351	1.2589e-05	55.284	181.384	420.494	186.268	100.596	320.830	185.720	100.357	105.163	253.158	188.733	104.430	109.253	109.817	114.176	196.378	113.317	-8191	255	
11349.408	1	1	0	0	0.064769	0.18402	0.11834	0.19935	0.17589	0.23903	0.3872	0.35067	0.2648	0.086441	0.19835	0.1846	0.1578	0.26887	0.061993	0.30511	-2.275	-3.35	-2.5104	-3.0646	-3.1833	-2.2917	-3.3708	-2.7271	-2.4958	-3.2188	-2.6708	-2.9958	-3.0896	-2.3563	-3.3875	-2.8917	284.599	301.619	136.883	339.730	325.912	309.879	405.437	412.175	298.074	337.709	413.513	422.860	156.030	436.129	377.205	383.501	0.00043787	0.00063089	0.00012943	1369.5	2.4048e-06	2.9911e-06	1371	363.53	4.9027e-06	3.4817e-06	416.9	139.27	120.56	41.445	1.179e-05	51.557	0.0011281	0.0011586	0.00032176	1419	1.2629e-05	1.2679e-05	1417.4	378.51	1.2652e-05	1.2619e-05	439.81	147.7	132.91	44.313	1.2502e-05	55.228	175.642	313.340	360.337	100.620	415.777	226.999	100.346	105.413	119.690	211.010	104.289	109.342	109.958	114.257	156.935	113.056	-8191	255	
11349.528	1	1	0	0	0.24551	0.1869	0.24748	0.14467	0.028662	0.14768	0.19592	0.27912	0.026741	0.21894	0.13441	0.021101	0.1429	0.25596	0.074144	0.1031	-2.1958	-3.3625	-2.5687	-3.1292	-3.3104	-2.4021	-3.2542	-3.1229	-2.4167	-3.2729	-2.65	-2.7292	-3.1375	-2.525	-3.0979	-3.0583	404.214	441.302	255.506	425.752	120.914	129.127	304.734	392.102	229.827	265.623	119.768	306.039	160.889	367.885	249.745	138.850	0.00051875	0.00023288	0.00017654	1366.2	3.0941e-06	8.5891e-06	1374.8	362.41	5.2793e-06	1.6189e-05	418.69	138.8	121.14	41.515	6.4787e-06	51.484	0.0011217	0.0011492	0.00032192	1422	1.2632e-05	1.2622e-05	1418.9	378.61	1.2552e-05	1.2681e-05	440.57	147.61	132.87	44.436	1.2639e-05	55.358	179.633	198.636	198.333	100.527	211.278	190.967	100.610	105.389	228.786	210.060	104.664	109.448	109.668	114.350	213.729	113.202	-8191	255	
11349.624	1	1	0	0	0.27678	0.26014	0.13066	0.27615	0.089831	0.26866	0.20097	0.31854	0.24288	0.20344	0.33137	0.15607	0.21707	0.32686	0.19366	0.20982	-2.2083	-3.1208	-2.6875	-2.8396	-3.3208	-2.5687	-3.3187	-3.2	-2.4125	-3.3708	-3.0042	-2.475	-3.2583	-2.8417	-2.8812	-3.2729	141.905	143.806	187.809	424.717	204.633	421.165	398.724	357.644	97.459	367.877	368.636	234.577	405.197	395.135	167.641	373.276	0.00049652	0.00076493	0.00019573	1369.9	1.9045e-06	1.3779e-05	1369.9	361.55	7.957e-06	7.059e-06	415.67	139.61	120.01	41.453	4.9946e-06	51.615	0.0011318	0.0011666	0.00032463	1423.1	1.2736e-05	1.2796e-05	1419.2	378.88	1.2791e-05	1.2778e-05	440.48	148	132.96	44.458	1.2745e-05	55.302	173.375	157.680	179.945	100.633	246.226	183.794	100.505	105.255	150.419	247.210	104.429	109.326	109.578	113.852	254.369	112.891	-8191	255	
11349.696	1	1	0	0	0.22701	0.25223	0.15755	0.02674	0.25506	0.23192	0.087052	0.27741	0.06129	0.14081	0.26492	0.10328	0.12612	0.12435	0.17801	0.17306	-2.0854	-3.1396	-2.7	-2.6021	-3.2188	-2.6854	-3.1042	-3.2188	-2.4583	-3.1979	-2.8958	-2.6063	-3.3375	-2.7229	-2.9625	-3.2646	136.619	305.284	248.349	345.514	118.875	396.341	403.210	90.880	265.046	224.669	152.886	413.808	139.524	401.936	283.126	377.013	0.00045919	0.00019549	0.000218	1370.2	5.3245e-06	3.7064e-06	1375.3	361.97	4.3365e-06	1.9115e-06	416.81	139.29	120.38	41.489	5.2221e-06	51.546	0.0011302	0.0011606	0.00032209	1425.3	1.2619e-05	1.2713e-05	1421.7	378.61	1.2632e-05	1.2655e-05	440.48	147.94	133.23	44.431	1.2778e-05	55.364	174.977	437.461	188.873	100.515	203.192	119.637	100.304	105.095	328.870	320.908	104.244	109.054	109.792	113.755	300.600	113.253	-8191	255	
11349.817	1	1	0	0	0.056511	0.032577	0.19625	0.21835	0.023858	0.22205	0.24052	0.2099	0.26365	0.17759	0.20177	0.0656	0.26331	0.44586	0.25292	0.072045	-2.1	-3.1667	-3.0396	-2.6146	-3.2938	-2.6063	-2.9875	-3.3125	-2.5375	-3.0792	-3.0812	-2.5042	-3.2042	-2.6208	-2.8104	-3.3146	413.839	117.518	240.366	90.038	148.532	434.072	398.763	423.980	175.251	390.140	379.522	167.662	430.696	418.328	405.095	217.514	0.00046894	0.00044736	9.0028e-05	1373.1	8.5409e-06	1.3338e-05	1376.8	363.41	5.493e-06	3.485e-06	416.02	139.01	120.87	41.639	3.0617e-06	51.634	0.0011347	0.001172	0.00032682	1426.9	1.2804e-05	1.2841e-05	1421.9	379.77	1.288e-05	1.2962e-05	441.04	148	133.44	44.564	1.2886e-05	55.456	177.324	100.150	206.345	100.634	255.939	197.790	100.372	105.110	237.552	393.560	104.660	109.153	109.675	114.202	203.701	113.120	-8191	255	
11349.911	1	1	0	0	0.098973	0.072855	0.048365	0.11575	0.10884	0.20632	0.1939	0.086506	0.13371	0.11663	0.10329	0.24408	0.16992	0.15101	0.087201	0.11357	-2.0458	-3.0042	-2.7896	-2.5625	-3.1292	-2.6479	-2.8542	-3.5062	-2.3979	-2.9417	-3.1688	-2.4042	-3.275	-2.6625	-2.5208	-3.2729	338.907	312.627	391.292	131.922	281.394	403.094	389.211	134.991	165.637	278.434	330.971	440.248	393.816	204.946	424.042	402.688	0.00051159	0.00063132	0.00024003	1380.7	5.7705e-06	2.9426e-06	1374.4	364.03	2.8934e-06	3.2209e-06	417.04	139.12	121.65	41.475	7.6332e-06	51.833	0.0011541	0.001191	0.00033069	1429.7	1.298e-05	1.3011e-05	1424.2	379.84	1.2992e-05	1.3052e-05	441.75	148.12	133.89	44.588	1.312e-05	55.607	166.778	149.072	224.213	100.479	222.717	98.553	100.420	105.336	276.959	202.586	104.327	109.137	109.696	114.097	243.284	113.356	-8191	255	
11350.009	1	1	0	0	0.35982	0.15326	0.16787	0.21847	0.0445	0.046435	0.12423	0.1276	0.027065	0.28346	0.23192	0.18353	0.107	0.40018	0.066107	0.13739	-2.2396	-2.7687	-3.1688	-2.6042	-3.2208	-2.8375	-2.7854	-3.5021	-2.4021	-2.8042	-3.2542	-2.6771	-3.1042	-3.1125	-2.4896	-3.4604	275.248	226.490	151.356	418.172	161.983	251.678	402.131	402.944	144.171	158.289	181.483	440.143	428.652	407.557	204.175	155.527	0.00048145	0.00022247	0.00012903	1376.6	4.8738e-06	3.6414e-06	1379.7	363.66	2e-06	6.7752e-06	418.69	138.82	121.11	41.836	6.9135e-06	51.785	0.0011706	0.0012111	0.00033858	1436.1	1.3254e-05	1.342e-05	1428.5	381.23	1.333e-05	1.3437e-05	443.83	148.56	134.65	44.783	1.3384e-05	55.736	184.009	91.707	148.778	100.449	266.958	178.750	100.487	105.099	385.185	241.310	104.692	108.819	109.389	113.717	277.962	113.139	-8191	255	
11350.103	1	1	0	0	0.18088	0.17005	0.067246	0.1948	0.037642	0.25932	0.20309	0.19481	0.059864	0.09035	0.13656	0.13917	0.16977	0.1152	0.16875	0.17296	-2.0521	-2.5167	-3.3667	-2.625	-3.0208	-2.9771	-2.6021	-3.3375	-2.7042	-2.6083	-3.2708	-2.5292	-2.875	-2.9688	-2.3667	-3.1312	364.890	132.286	262.921	390.685	120.259	126.144	413.161	341.505	377.239	360.205	212.166	361.185	282.278	396.161	98.842	389.809	0.00044894	0.0010123	0.00016883	1379.5	3.5913e-06	1.038e-05	1380.9	365.31	3.7732e-06	1.3071e-05	416.95	139.74	121.44	41.794	6.1102e-06	51.945	0.0011928	0.0012333	0.00034268	1434.5	1.3442e-05	1.3498e-05	1432.5	382.53	1.3464e-05	1.3555e-05	444.26	148.88	134.79	44.923	1.3442e-05	55.861	174.531	145.533	202.776	100.526	174.056	154.454	100.268	105.244	218.483	273.117	104.366	109.146	109.522	114.114	167.830	112.999	-8191	255	
11350.224	1	1	0	0	0.2006	0.17488	0.08087	0.20065	0.35347	0.12325	0.11166	0.26968	0.28117	0.058452	0.21295	0.062958	0.14034	0.045764	0.072846	0.090448	-2.375	-2.6896	-3.1021	-2.6146	-2.7917	-3.0396	-2.5625	-3.2458	-2.8729	-2.4688	-3.3083	-2.6875	-2.8542	-3.2188	-2.4771	-3.1229	361.832	359.640	143.594	362.241	149.052	378.726	347.028	104.022	370.210	188.350	431.175	419.057	148.866	184.007	294.745	388.520	0.00046568	0.00027876	0.00018927	1383.5	8.0323e-06	9.3166e-06	1385.1	366.03	4.9524e-06	7.4654e-06	421.35	139.68	121.2	41.772	8.8432e-06	51.694	0.0011987	0.0012472	0.00034571	1439	1.3487e-05	1.3518e-05	1433.4	382.76	1.3558e-05	1.3604e-05	445.24	149	134.96	44.912	1.3522e-05	55.927	181.791	174.157	181.316	100.436	261.761	208.031	100.288	105.219	278.791	198.977	104.501	108.893	109.100	113.664	252.846	112.691	-8191	255	
11350.296	1	1	0	0	0.14785	0.13106	0.31988	0.17097	0.1631	0.15806	0.18933	0.15884	0.29749	0.28061	0.12521	0.11954	0.15833	0.09521	0.14037	0.076638	-2.4854	-2.2375	-3.2042	-2.5896	-2.8854	-3.0938	-2.5354	-3.4667	-2.7875	-2.5958	-3.3	-2.6271	-2.5708	-3.4313	-2.5312	-3.0021	126.293	202.768	147.158	288.606	195.084	226.836	358.662	423.675	115.385	442.060	199.939	105.004	179.314	128.601	404.401	258.839	0.00045895	0.00066567	0.00021424	1382.3	5.2718e-06	9.9546e-06	1383.4	365.09	4.8113e-06	3.4247e-06	420.11	140.36	121.92	41.764	3.898e-06	51.876	0.0012125	0.0012539	0.00034772	1439.8	1.3732e-05	1.3667e-05	1434.5	383.59	1.354e-05	1.3613e-05	445.67	149.21	135.26	44.894	1.3447e-05	55.917	167.446	295.721	187.474	99.956	254.076	212.045	100.048	105.005	226.630	137.412	104.173	108.418	109.097	113.699	191.632	112.911	-8191	255	
11350.392	1	1	0	0	0.16019	0.18979	0.37251	0.17833	0.1096	0.17206	0.31955	0.15068	0.17994	0.31314	0.07774	0.018787	0.16911	0.18608	0.18165	0.28617	-2.6125	-2.4729	-3.2292	-2.8771	-2.6813	-3.1917	-2.6771	-3.0875	-3.1917	-2.5042	-3.4625	-2.8312	-2.8083	-3.4188	-2.4667	-2.9958	285.098	388.929	246.674	437.922	88.602	337.148	366.944	372.278	414.239	218.012	330.435	193.856	157.203	430.548	242.137	415.636	0.00040154	0.00085845	8.3128e-05	1383.6	6.6652e-06	2.0147e-06	1388.4	365.03	7.2548e-06	2.6547e-06	420.07	139.76	121.86	41.757	8.4354e-06	51.762	0.0011949	0.0012317	0.00034236	1440.1	1.3468e-05	1.3451e-05	1434.9	383.03	1.3354e-05	1.3456e-05	445.66	149.09	134.88	44.923	1.3347e-05	55.833	193.875	242.940	118.256	99.962	225.664	237.935	99.838	104.978	232.504	392.053	104.159	108.673	109.651	113.839	353.959	113.168	-8191	255	
11350.488	1	1	0	0	0.15171	0.14208	0.31191	0.16833	0.1217	0.16089	0.12418	0.17811	0.094512	0.2248	0.030952	0.25655	0.088389	0.099731	0.1382	0.0973	-2.7792	-2.4708	-3.2625	-2.9625	-2.6271	-3.2313	-2.7438	-2.9083	-3.2396	-2.4625	-3.2792	-3.0167	-2.6562	-3.3563	-2.6708	-2.7979	230.589	233.791	349.221	417.898	332.732	145.770	395.375	351.327	105.246	258.109	420.026	96.516	292.923	188.329	352.206	250.879	0.00045518	0.00098323	0.00028428	1380.2	1.8067e-06	1.4809e-05	1381.7	364.91	6.4283e-06	7.4254e-06	418.64	140.06	120.65	41.673	6.7702e-06	51.981	0.0011927	0.0012295	0.00034044	1438.9	1.332e-05	1.3362e-05	1431.6	382.52	1.3243e-05	1.3369e-05	444.5	148.8	134.6	44.819	1.3251e-05	55.866	188.211	113.377	134.374	100.028	334.764	272.219	100.043	105.013	241.655	133.748	104.360	109.062	109.473	113.889	189.884	113.126	-8191	255	
11350.609	1	1	0	0	0.24513	0.33521	0.21633	0.24116	0.17958	0.28776	0.13171	0.20168	0.36116	0.10285	0.18158	0.15924	0.34596	0.17526	0.071175	0.28656	-2.8354	-2.5125	-3.2687	-3.2375	-2.5042	-3.2542	-2.9354	-3.0146	-3.1646	-2.4958	-3.2167	-3.175	-2.5083	-3.2875	-2.6125	-2.7313	253.090	92.332	278.049	373.124	193.753	145.946	230.455	415.768	167.435	218.692	348.734	185.955	288.284	186.797	308.888	371.397	0.0005719	0.00074319	0.00027086	1383.4	1.5332e-06	4.7518e-06	1381.3	365.84	6.1063e-06	4.2265e-06	420.44	139.89	121.02	41.81	8.2981e-06	51.847	0.0011763	0.0012142	0.00033696	1436.5	1.3277e-05	1.3112e-05	1432	382.33	1.3197e-05	1.3268e-05	444.76	148.98	134.59	44.852	1.319e-05	55.684	177.122	142.526	223.820	100.085	352.209	184.137	100.253	105.054	252.225	332.359	104.475	108.806	109.420	113.920	256.028	113.017	-8191	255	
11350.705	1	1	0	0	0.26053	0.033992	0.15371	0.15643	0.13005	0.1443	0.2622	0.15765	0.031129	0.24614	0.065139	0.13874	0.21621	0.096592	0.19286	0.25981	-2.9146	-2.5854	-2.8021	-3.1979	-2.675	-3.0521	-2.9333	-2.4917	-3.3708	-2.6417	-2.9729	-3.4167	-2.4917	-3.2375	-2.9021	-2.6271	389.782	184.725	369.910	160.722	166.842	121.785	406.846	429.378	302.480	125.918	313.382	391.138	212.748	125.724	377.343	435.203	0.0005622	0.00016357	0.00023796	1378.5	6.8733e-06	1.2732e-06	1382.2	365.19	6.0063e-06	3.034e-06	418.47	139.96	121.35	41.877	3.9409e-06	52.141	0.0011849	0.0012178	0.00033922	1434.8	1.3241e-05	1.3316e-05	1430.5	382.26	1.3167e-05	1.3384e-05	444.87	148.79	134.76	44.832	1.3285e-05	55.852	181.460	346.283	200.910	100.645	245.934	160.364	100.179	105.265	228.183	228.445	104.584	109.158	109.448	114.142	276.011	113.076	-8191	255	
11350.801	1	1	0	0	0.071825	0.093598	0.16639	0.16673	0.15302	0.17471	0.23913	0.14939	0.037114	0.051292	0.21419	0.25717	0.09245	0.098519	0.1243	0.3135	-2.8312	-2.4979	-2.8333	-3.2938	-2.3979	-3.1646	-3.1437	-2.4958	-3.2562	-2.7979	-2.8708	-3.3021	-2.4896	-3.125	-3.0167	-2.5625	356.110	250.015	168.517	203.977	433.888	263.935	370.710	394.959	353.302	99.662	221.686	393.701	324.167	389.075	265.697	357.006	0.00059236	0.00019743	0.00028027	1386.2	7.1851e-06	9.7446e-06	1375.2	366.58	1.0266e-05	6.378e-06	419.8	139.86	121.3	41.697	8.129e-06	51.933	0.0011774	0.0012244	0.00034056	1437.6	1.3318e-05	1.3322e-05	1429.4	382.48	1.315e-05	1.326e-05	444.19	148.8	134.09	44.817	1.3144e-05	55.773	188.230	217.550	166.625	100.554	184.186	275.364	100.169	105.207	265.630	174.846	104.712	109.192	109.691	114.270	204.721	113.311	-8191	255	
11350.897	1	1	0	0	0.10774	0.20648	0.041911	0.12506	0.34074	0.26915	0.39286	0.29977	0.14738	0.13554	0.19224	0.29114	0.3299	0.15591	0.06884	0.092657	-2.8937	-2.5375	-2.775	-3.4646	-2.6021	-3.0563	-3.1354	-2.6	-3.1833	-2.8271	-2.7104	-3.3354	-2.5333	-2.9167	-3.2396	-2.5854	143.797	90.954	99.815	323.441	260.091	157.893	394.677	444.927	221.035	303.895	119.820	371.085	156.456	377.545	185.507	420.249	0.00046871	0.00066356	0.00015935	1381.7	8.3145e-06	9.6081e-06	1387	364.65	5.0195e-06	5.9136e-07	420.37	140.23	121.04	41.677	9.1754e-06	51.555	0.0011686	0.0012081	0.00033655	1437	1.3121e-05	1.3216e-05	1431.8	382.33	1.2988e-05	1.3113e-05	444.6	148.96	134.39	44.788	1.3065e-05	55.647	186.416	162.453	175.976	100.664	208.710	268.157	100.375	105.266	257.810	399.532	104.746	108.949	109.842	114.145	177.988	113.269	-8191	255	
11350.993	1	1	0	0	0.22343	0.1606	0.14421	0.29355	0.16587	0.071637	0.18666	0.23377	0.1296	0.031794	0.051193	0.1865	0.30234	0.24365	0.055443	0.18138	-2.7958	-2.6729	-2.525	-3.3125	-2.4833	-2.8937	-3.3542	-2.6229	-3.1208	-2.9271	-2.6104	-3.4042	-2.725	-2.7438	-3.3229	-2.5438	372.181	222.090	101.487	93.661	240.558	249.010	89.316	377.227	332.821	366.903	289.861	400.154	117.080	421.260	217.379	126.300	0.00036642	0.0008956	0.00039148	1377.6	8.5705e-06	3.2698e-06	1383.8	364.78	5.2209e-06	4.5547e-06	419.62	139.66	121.9	41.849	2.4255e-06	52.015	0.0011672	0.0012088	0.00033803	1435.6	1.3208e-05	1.3231e-05	1432.4	382.23	1.3178e-05	1.3269e-05	444.65	149.06	134.42	44.822	1.3142e-05	55.82	176.972	142.727	135.380	100.667	262.105	116.041	100.291	105.397	270.499	310.198	104.597	109.085	109.517	113.971	212.213	113.108	-8191	255	
11351.089	1	1	0	0	0.18267	0.089229	0.050743	0.26085	0.32843	0.35341	0.1554	0.29664	0.1301	0.092358	0.083215	0.15263	0.087047	0.14941	0.03918	0.35993	-2.725	-3.0771	-2.4833	-3.2896	-2.625	-2.7208	-3.4792	-2.4521	-3.0396	-3.0979	-2.7646	-3.225	-2.6792	-2.9479	-3.2646	-2.5125	385.920	384.510	390.924	397.195	351.562	124.745	117.401	435.091	116.666	186.566	130.206	288.223	396.652	414.688	325.710	375.660	0.00056639	0.00058157	3.5198e-05	1380.8	9.6217e-06	1.1235e-05	1385.3	366.39	3.6562e-06	5.8576e-06	419.41	139.42	121.23	41.849	7.7266e-06	51.786	0.0011694	0.0012049	0.00033554	1434.5	1.3086e-05	1.3091e-05	1431.5	382.7	1.2925e-05	1.2979e-05	444.07	148.61	134.22	44.747	1.2922e-05	55.656	175.850	173.525	150.501	100.578	244.096	201.020	100.320	105.369	228.257	341.735	104.544	109.005	109.819	114.203	262.233	113.272	-8191	255	
11351.208	1	1	0	0	0.22273	0.13564	0.30504	0.14243	0.25474	0.10903	0.41357	0.29668	0.24735	0.20931	0.26723	0.19658	0.26704	0.078234	0.22407	0.10133	-2.7125	-2.9938	-2.5021	-3.3521	-2.8187	-2.5396	-3.6375	-2.7542	-3.0438	-3.1125	-2.5604	-3.4	-2.9375	-2.6917	-3.3646	-2.6417	350.947	270.541	187.507	279.210	410.890	307.514	365.363	424.041	286.797	101.226	374.803	394.149	125.949	159.372	306.573	439.948	0.00059262	0.00087353	0.00015174	1376.1	5.02e-06	3.8968e-06	1382.2	366.43	8.8362e-06	6.5673e-06	418.01	139.47	121.48	41.833	9.0235e-06	51.829	0.0011549	0.0011917	0.00032992	1434.9	1.2901e-05	1.3111e-05	1430.5	382.22	1.2915e-05	1.3007e-05	443.81	148.54	134.39	44.79	1.2903e-05	55.618	180.612	154.563	174.084	100.600	255.361	156.569	100.217	105.077	206.179	225.771	104.529	109.078	109.354	114.195	248.257	113.052	-8191	255	
11351.304	1	1	0	0	0.1481	0.25347	0.046519	0.28547	0.24396	0.15552	0.15383	0.024426	0.28281	0.185	0.069991	0.22233	0.14401	0.13187	0.21833	0.21554	-2.4208	-3.1562	-2.4646	-3.2417	-2.8729	-2.55	-3.425	-2.5458	-2.8458	-3.1354	-2.5687	-3.2125	-3.0396	-2.6729	-3.1104	-2.7854	435.202	190.879	280.318	392.239	349.711	208.570	389.096	110.473	306.764	255.163	339.805	433.094	403.443	356.589	338.640	378.834	0.00047863	0.00026688	0.00023962	1382.6	4.2298e-06	1.0152e-05	1387.2	365.45	4.7761e-06	5.2952e-06	419.82	139.98	121.12	41.87	4.8377e-06	51.759	0.001157	0.0011901	0.00032985	1436.7	1.2968e-05	1.2974e-05	1431.8	382.06	1.301e-05	1.2881e-05	443.42	148.76	133.99	44.762	1.2758e-05	55.592	181.982	156.624	180.795	100.635	243.261	204.642	100.285	105.146	175.140	202.390	104.643	108.996	109.380	114.235	255.010	113.168	-8191	255	
11351.401	1	1	0	0	0.11443	0.10582	0.094733	0.090712	0.22288	0.17366	0.14946	0.27839	0.11582	0.1353	0.29039	0.15379	0.13346	0.33475	0.19712	0.1428	-2.2438	-3.3396	-2.4375	-3.1854	-3.1	-2.5687	-3.5417	-2.7979	-2.6271	-3.2479	-2.7667	-3.1437	-3.1937	-2.45	-3.1708	-2.8917	443.754	410.923	421.016	280.753	291.326	410.879	343.569	423.354	243.628	256.187	405.431	434.420	354.094	406.939	248.658	365.828	0.00045813	0.0012792	0.00024495	1388.1	4.6784e-06	4.872e-06	1387.2	364.18	7.092e-06	6.7109e-06	421.29	139.75	121.58	41.754	3.2463e-06	51.887	0.0011469	0.0011778	0.00032971	1439.7	1.293e-05	1.3027e-05	1432.5	381.69	1.2924e-05	1.3042e-05	444.17	148.91	134.33	44.838	1.2876e-05	55.643	187.884	146.081	157.197	100.578	156.649	224.753	100.350	105.243	246.415	100.079	104.697	109.234	109.887	114.174	444.556	113.259	-8191	255	
11351.521	1	1	0	0	0.073803	0.04315	0.18195	0.1824	0.17013	0.23279	0.24966	0.38088	0.18235	0.19208	0.21609	0.36949	0.056033	0.30316	0.14557	0.25233	-2.1104	-3.2083	-2.5021	-2.875	-3.2104	-2.3771	-3.4417	-3.0687	-2.7354	-3.3229	-2.7	-3.0187	-3.1604	-2.6125	-3.0687	-2.8958	151.373	236.181	383.296	378.601	286.346	90.657	408.532	404.141	180.670	340.672	139.125	421.383	373.958	395.021	420.653	159.823	0.00045387	0.00048237	0.00015215	1383.4	8.3751e-06	8.3542e-06	1387.1	365.3	3.1067e-06	2.8887e-06	419.25	139.95	121.44	42.053	3.7922e-06	51.827	0.0011662	0.0011906	0.00033329	1439.8	1.3048e-05	1.3046e-05	1432.4	382.35	1.3118e-05	1.3078e-05	444.19	148.82	134.37	44.845	1.3006e-05	55.749	184.108	380.278	162.883	100.787	227.435	222.179	100.486	105.010	333.923	251.137	104.636	109.132	109.284	114.042	227.310	113.032	-8191	255	
11351.593	1	1	0	0	0.3006	0.15134	0.12756	0.14929	0.089493	0.043857	0.13679	0.05157	0.0075902	0.10456	0.26764	0.30783	0.16285	0.2293	0.17959	0.19106	-2.1292	-3.1875	-2.6167	-2.875	-3.1458	-2.4208	-3.3604	-3.1396	-2.4875	-3.3771	-2.8563	-2.9	-3.3521	-2.6875	-3.0875	-3.1375	368.648	93.741	88.343	417.966	138.163	317.303	346.699	414.135	382.111	379.601	354.053	115.988	343.949	438.210	219.206	440.277	0.00050961	0.0014321	0.00021986	1383.8	6.6183e-06	3.6437e-06	1389.1	366.38	2.0661e-06	1.3464e-05	420.51	140.82	122.41	41.764	1.0949e-05	52.018	0.0011651	0.0011961	0.00033278	1438.9	1.2996e-05	1.3091e-05	1434.7	382.59	1.3056e-05	1.3009e-05	445.1	149.17	134.82	44.878	1.3019e-05	55.856	184.227	178.538	147.251	100.761	265.602	255.179	100.702	105.278	130.967	180.149	104.688	109.107	109.806	114.133	238.661	113.243	-8191	255	
11351.689	1	1	0	0	0.24072	0.13264	0.15372	0.17988	0.12952	0.20912	0.17002	0.019782	0.11234	0.13997	0.29729	0.15858	0.26118	0.076182	0.30187	0.13016	-2.0625	-3.2562	-2.6063	-2.7562	-3.2	-2.5771	-3.2354	-3.2812	-2.5375	-3.1542	-2.8563	-2.6125	-3.3187	-2.5979	-2.7438	-3.3708	383.688	299.148	413.299	401.792	308.614	115.328	378.072	428.254	178.437	327.459	415.406	412.160	187.989	96.149	368.699	390.217	0.00048637	0.00090752	0.00017149	1384.8	5.5705e-06	3.1347e-06	1389.4	367.15	6.5009e-06	4.082e-06	419.93	140.33	122.17	41.862	7.3349e-06	51.887	0.0011721	0.0011983	0.00033327	1441.5	1.3042e-05	1.3145e-05	1436.3	383.43	1.3169e-05	1.3127e-05	445.01	149.09	134.75	44.928	1.3121e-05	55.809	183.949	132.989	177.834	100.660	233.179	210.857	100.716	105.408	246.874	218.238	104.625	109.133	109.760	114.167	237.076	113.203	-8191	255	
11351.785	1	1	0	0	0.13853	0.10586	0.17766	0.099159	0.091079	0.19068	0.22943	0.4113	0.13208	0.16036	0.24525	0.27028	0.049808	0.2522	0.1617	0.33432	-2.0021	-3.0646	-2.9375	-2.6208	-3.3729	-2.7708	-3.0958	-3.2708	-2.4583	-3.1729	-3.0021	-2.425	-3.3542	-2.7479	-2.7375	-3.0896	234.913	402.967	294.730	372.742	371.849	321.613	383.385	433.209	194.789	428.714	114.830	364.255	346.004	108.529	214.614	404.751	0.00048907	0.00061595	0.00017812	1387.1	7.6087e-06	4.8409e-06	1388.4	365.17	4.3713e-06	5.2857e-06	421.64	140.38	121.68	41.951	1.9626e-06	52.012	0.0011733	0.0012136	0.00033434	1439.2	1.3125e-05	1.3112e-05	1435.8	382.99	1.3123e-05	1.3256e-05	445.26	149.15	134.68	44.851	1.3235e-05	55.832	181.481	179.913	194.514	100.532	241.483	241.145	100.469	105.041	275.722	222.353	104.554	109.154	109.755	114.361	134.282	113.034	-8191	255	
11351.906	1	1	0	0	0.11044	0.14711	0.082498	0.14176	0.10002	0.041131	0.29926	0.22535	0.23018	0.068962	0.063468	0.25352	0.031859	0.096744	0.27484	0.21869	-2.2729	-3.1833	-2.9958	-2.5312	-2.9583	-2.7917	-2.8771	-3.3375	-2.6437	-3.0104	-3.0687	-2.4771	-3.225	-2.8688	-2.6937	-3.2354	294.042	105.155	276.086	426.070	331.497	201.778	351.524	340.483	422.837	352.431	216.619	271.596	396.153	93.146	411.649	276.069	0.00051219	0.00069759	0.00033151	1378.3	4.4384e-06	9.7044e-06	1387.2	366.53	5.1525e-06	5.3856e-06	421.53	139.99	121.47	41.962	3.2143e-06	52.156	0.0011778	0.0012163	0.0003386	1439.7	1.3275e-05	1.3291e-05	1436.1	383.55	1.3221e-05	1.3322e-05	445.3	149.2	134.91	44.928	1.3352e-05	55.989	179.419	213.751	174.750	100.665	256.793	165.177	100.486	105.426	272.646	335.455	104.745	109.350	109.343	113.988	327.860	113.375	-8191	255	
11352.000	1	1	0	0	0.331	0.055803	0.16736	0.33737	0.13951	0.16729	0.24444	0.23792	0.094565	0.060586	0.13217	0.10518	0.15741	0.18643	0.049099	0.12814	-2.0146	-2.7458	-3.0542	-2.8042	-3.3333	-2.7604	-2.9542	-3.2896	-2.5792	-3.0042	-3.2375	-2.4188	-3.1396	-2.9958	-2.5812	-3.4354	169.847	318.429	427.091	389.042	262.886	119.701	390.099	391.210	390.549	328.710	232.197	124.869	139.685	342.002	300.331	321.380	0.00045214	0.00033534	0.00020466	1383.6	1.0111e-05	1.2052e-05	1384.6	364.92	1.6731e-06	8.3895e-06	419.36	139.4	122.01	41.847	1.4507e-05	51.915	0.0011788	0.0012161	0.00033716	1441.2	1.3298e-05	1.3256e-05	1434.6	382.94	1.3298e-05	1.3283e-05	444.68	148.81	134.44	44.872	1.3149e-05	55.893	185.225	280.048	142.813	100.795	244.991	254.768	100.474	105.365	298.296	311.702	104.644	109.264	110.047	114.042	207.027	113.337	-8191	255	
11352.096	1	1	0	0	0.16528	0.31231	0.22092	0.11109	0.15365	0.091763	0.17579	0.1142	0.19379	0.11782	0.29363	0.27231	0.12534	0.074869	0.16593	0.21699	-2.2083	-2.6792	-3.1708	-2.5083	-3.0896	-2.9417	-2.7021	-3.2667	-2.6396	-2.7771	-3.3333	-2.4813	-3.0479	-3.1375	-2.3104	-3.2167	351.790	332.497	243.772	305.580	283.869	261.854	335.212	370.757	221.459	421.613	241.632	373.995	428.984	422.678	145.110	414.248	0.00050241	0.00054712	0.00029078	1381.5	7.7074e-06	3.3017e-06	1387.3	366.58	1.9622e-06	6.1878e-06	421.98	139.76	122.03	41.94	2.1264e-06	52.141	0.0011622	0.0012107	0.00033751	1439.3	1.3141e-05	1.3075e-05	1435.6	383.31	1.2993e-05	1.3094e-05	444.82	148.84	134.59	44.798	1.3011e-05	55.81	170.783	167.101	187.986	100.790	229.248	382.024	100.367	105.453	242.315	291.757	104.763	109.858	109.838	114.186	171.549	113.504	-8191	255	
11352.170	1	1	0	0	0.17038	0.25656	0.143	0.22817	0.049438	0.15147	0.25827	0.23366	0.17554	0.32581	0.18052	0.09944	0.16126	0.17742	0.052107	0.23012	-2.3042	-2.7708	-3.2396	-2.7542	-3.0312	-3.1917	-2.75	-3.3917	-2.775	-2.6979	-3.25	-2.5667	-2.8979	-3.1937	-2.6333	-3.1937	419.644	88.816	119.171	333.489	300.751	205.470	364.379	93.605	305.107	147.044	378.149	373.487	422.090	323.674	348.093	115.007	0.00059859	0.00064171	0.00014383	1383.5	6.1965e-06	4.8634e-06	1384.3	367.11	4.5198e-06	4.1776e-06	420.59	139.74	121.81	41.914	4.9229e-06	51.814	0.0011607	0.0012004	0.00033365	1438.3	1.3089e-05	1.3103e-05	1433.8	383.37	1.3029e-05	1.3233e-05	444.38	148.8	134.29	44.812	1.3005e-05	55.747	185.105	143.988	272.310	100.769	249.418	260.464	100.519	105.311	243.693	205.901	104.943	109.563	110.028	114.315	110.427	113.587	-8191	255	
11352.289	1	1	0	0	0.070438	0.22426	0.094771	0.11553	0.1916	0.081403	0.18948	0.23838	0.33304	0.12615	0.25802	0.13634	0.077675	0.23376	0.22302	0.019498	-2.5687	-2.6729	-3.1771	-2.8354	-2.7208	-3.1437	-2.7958	-3.3271	-2.9708	-2.5792	-3.3333	-2.7854	-2.8958	-3.3854	-2.3333	-3.1771	236.991	251.874	122.760	397.050	125.185	275.083	428.501	367.997	424.899	236.665	368.340	94.594	267.120	434.109	259.385	412.459	0.00045116	0.00078105	0.00037834	1380	7.4955e-06	6.0545e-06	1384.8	366.2	6.2352e-06	3.8588e-06	420.4	139.58	121.52	41.925	7.3124e-06	51.829	0.0011645	0.0011914	0.00033305	1439.2	1.2991e-05	1.3059e-05	1433.9	382.73	1.3028e-05	1.3051e-05	445.05	148.73	134.37	44.833	1.2971e-05	55.83	180.431	197.540	163.537	101.137	289.526	208.107	101.035	105.610	311.415	296.444	105.328	109.763	110.175	114.351	238.082	113.483	-8191	255	
11352.385	1	1	0	0	0.22089	0.17684	0.248	0.22352	0.19184	0.17317	0.21241	0.075762	0.21013	0.15181	0.42737	0.26618	0.016051	0.25779	0.16887	0.13089	-2.6167	-2.6125	-3.1417	-2.7687	-2.8312	-3.3563	-2.625	-3.1813	-2.9396	-2.6958	-3.2167	-2.7687	-2.6354	-3.3875	-2.5167	-3.0812	416.779	397.643	345.791	107.105	336.851	216.601	302.984	384.798	297.612	207.512	425.797	399.019	123.247	386.482	288.054	317.000	0.00041894	0.0016656	8.0289e-05	1390.3	4.442e-06	4.693e-06	1380.7	367.38	7.7618e-06	1.001e-05	419.72	139.79	122.76	41.953	1.1935e-05	52.048	0.0011607	0.0011974	0.00033158	1439.1	1.3012e-05	1.3001e-05	1431	383.02	1.2916e-05	1.2995e-05	443.71	148.87	134.67	44.832	1.2791e-05	55.696	185.391	150.978	142.093	100.697	208.070	251.134	100.662	105.800	246.451	231.345	104.913	109.343	109.830	114.405	240.818	113.597	-8191	255	
11352.481	1	1	0	0	0.046189	0.13516	0.086537	0.28008	0.11714	0.17165	0.20739	0.10149	0.15392	0.14741	0.14385	0.29057	0.30467	0.091848	0.1161	0.26415	-2.6646	-2.4917	-3.2208	-2.9417	-2.5854	-3.2583	-2.6729	-2.8667	-3.0938	-2.6063	-3.2958	-2.9083	-2.5771	-3.3521	-2.5979	-2.9604	315.647	208.118	261.324	422.145	286.663	235.718	312.283	446.109	328.481	319.503	116.552	411.214	89.786	438.877	421.863	409.183	0.00051587	0.0011653	8.2933e-05	1378.7	1.6524e-05	3.1284e-06	1384.2	366.53	3.662e-06	1.1235e-05	420.42	140.48	121.71	41.839	7.814e-06	52.197	0.0011485	0.0011886	0.0003306	1437.3	1.2922e-05	1.2976e-05	1433.5	383.18	1.2838e-05	1.2961e-05	444.69	149.08	134.15	44.885	1.2852e-05	55.845	180.578	124.865	427.686	100.733	307.302	123.725	100.529	105.674	268.216	254.782	104.804	109.173	109.728	114.281	272.516	113.556	-8191	255	
11352.602	1	1	0	0	0.090546	0.21021	0.33207	0.25151	0.1487	0.09138	0.28752	0.26694	0.11609	0.25484	0.30778	0.12909	0.23634	0.13081	0.13772	0.17446	-2.9188	-2.3896	-3.2	-2.9688	-2.5312	-3.3125	-2.8937	-2.9125	-3.1979	-2.55	-3.1896	-2.8937	-2.5083	-3.3187	-2.675	-2.7708	185.185	143.253	207.030	367.255	90.322	411.234	402.341	402.023	250.044	129.390	443.271	222.965	364.500	186.952	201.336	216.695	0.0005548	0.0012839	4.8326e-05	1386.3	9.1216e-06	1.2509e-05	1385	366.82	3.6629e-06	2.5548e-06	421.43	139.81	122.29	41.843	8.0817e-06	51.786	0.0011499	0.0011907	0.00032862	1438.8	1.2935e-05	1.2887e-05	1432.8	382.96	1.2852e-05	1.2953e-05	445.04	148.6	134.07	44.767	1.2753e-05	55.615	171.317	169.215	268.856	100.467	207.783	241.828	100.440	105.655	245.328	331.450	104.825	109.156	109.904	114.601	233.222	113.255	-8191	255	
11352.698	1	1	0	0	0.069868	0.15661	0.19368	0.17513	0.11804	0.03001	0.14376	0.073822	0.23903	0.080709	0.36647	0.35229	0.081065	0.23835	0.079852	0.13298	-2.5938	-2.5042	-2.825	-3.1458	-2.3604	-3.2625	-2.7208	-2.8063	-3.0896	-2.6708	-3.1125	-3.1979	-2.4562	-3.3583	-2.5979	-2.7042	181.912	91.290	339.228	407.622	94.383	278.459	303.870	390.859	425.394	208.855	436.835	134.662	215.153	378.863	114.845	320.355	0.0004926	0.00039519	8.1231e-05	1385.7	3.9856e-06	4.5444e-06	1383.8	366.31	1.1925e-06	1.3147e-05	422.1	140.04	122.02	41.906	6.7045e-06	52.043	0.0011441	0.0011706	0.00032831	1436.5	1.2804e-05	1.2943e-05	1432.5	382.37	1.2744e-05	1.2751e-05	443.43	148.61	134.15	44.787	1.2632e-05	55.734	189.509	431.566	381.877	100.792	271.035	131.632	100.659	105.591	88.003	263.043	104.619	109.215	109.913	114.091	301.585	113.351	-8191	255	
11352.794	1	1	0	0	0.085766	0.14946	0.093819	0.15535	0.28434	0.1856	0.20629	0.17227	0.23596	0.083035	0.20316	0.1418	0.20842	0.20337	0.30801	0.044518	-2.9229	-2.3979	-2.7875	-3.2417	-2.5792	-3.1208	-2.9229	-2.8	-3.1792	-2.6625	-3.0521	-3.1854	-2.5854	-3.2375	-3.0042	-2.7271	420.264	157.699	268.355	388.162	129.852	264.976	430.557	229.677	368.304	132.223	348.028	430.997	179.141	394.381	136.223	339.788	0.00050541	0.00084101	0.0003171	1382.1	2.5442e-06	1.0359e-05	1385.1	365.05	6.15e-06	3.6164e-06	421.71	139.63	121.98	41.748	9.9017e-06	52.116	0.0011318	0.0011593	0.00032598	1437	1.274e-05	1.2725e-05	1431	382.15	1.2637e-05	1.2647e-05	444.07	148.47	134.08	44.758	1.2619e-05	55.693	185.403	98.017	208.565	100.517	305.178	227.165	100.260	105.307	253.008	309.787	104.735	109.147	109.212	114.236	216.689	113.294	-8191	255	
11352.890	1	1	0	0	0.24301	0.094817	0.18724	0.15395	0.061955	0.10146	0.05729	0.2559	0.1116	0.059247	0.066934	0.048657	0.0734	0.13885	0.028259	0.29224	-2.8063	-2.5812	-2.7188	-3.4729	-2.4396	-3.0625	-3.25	-2.6083	-3.2771	-2.675	-2.9542	-3.4542	-2.6146	-3.0187	-3.1333	-2.6104	262.110	144.528	123.669	398.452	260.819	309.446	143.385	418.384	181.972	431.011	178.095	355.087	445.265	417.315	156.436	92.489	0.00053547	0.00040884	0.00021613	1385	5.0999e-06	6.69e-06	1385.2	366.82	4.1966e-06	5.6939e-06	421.04	140.26	121.67	41.929	4.0311e-06	51.819	0.0011233	0.0011535	0.00032226	1437.5	1.2618e-05	1.2612e-05	1431.6	381.59	1.246e-05	1.2595e-05	443.28	148.64	133.6	44.706	1.2469e-05	55.632	184.165	132.037	166.710	100.475	212.576	265.703	100.334	105.354	232.554	169.209	105.086	109.298	109.421	114.501	265.191	113.192	-8191	255	
11352.986	1	1	0	0	0.1314	0.23061	0.28023	0.073118	0.14308	0.16299	0.34237	0.086376	0.30599	0.071806	0.34629	0.27194	0.30858	0.10048	0.033181	0.24089	-2.875	-2.7375	-2.6875	-3.2313	-2.5125	-2.9896	-3.1708	-2.7792	-3.225	-2.7687	-2.5042	-3.3104	-2.6396	-3.1042	-3.0354	-2.3563	295.320	428.738	221.775	213.275	404.103	120.748	363.141	191.653	167.631	300.457	394.903	90.771	423.566	89.258	114.269	353.622	0.00054132	0.00094036	8.1597e-05	1378.5	6.5943e-06	5.0805e-06	1382.7	365.69	8.2403e-06	8.014e-06	420.53	140.39	121.28	41.856	5.8911e-06	52.033	0.001108	0.0011465	0.00031947	1436	1.2505e-05	1.2512e-05	1432.1	382.09	1.2492e-05	1.2565e-05	443.66	148.47	133.47	44.719	1.2577e-05	55.596	179.147	147.406	410.651	100.566	238.454	208.451	100.335	105.192	266.695	340.736	104.784	109.288	109.638	114.316	252.083	113.389	-8191	255	
11353.081	1	1	0	0	0.15752	0.12797	0.08632	0.14146	0.0678	0.19429	0.37173	0.27485	0.22488	0.17347	0.31857	0.23611	0.19214	0.10585	0.27694	0.14859	-2.7083	-2.6708	-2.4833	-3.375	-2.6167	-2.9854	-3.2313	-2.6375	-3.0125	-3.0042	-2.7917	-3.3771	-2.7938	-2.7646	-3.2167	-2.4958	411.275	249.028	219.159	423.449	300.165	358.987	370.429	437.733	268.266	202.667	400.320	377.314	426.921	416.975	354.446	424.988	0.00047169	0.00098885	0.00034334	1382.5	6.3298e-06	4.5381e-06	1384.8	364.66	3.0054e-06	4.3939e-06	418.17	140.33	121.92	41.65	1.9098e-06	51.935	0.0011221	0.0011581	0.00032323	1436.8	1.2607e-05	1.2569e-05	1433.6	381.72	1.2509e-05	1.2642e-05	442.21	148.67	133.74	44.655	1.2474e-05	55.509	179.690	113.534	184.853	100.696	210.315	186.514	100.393	105.076	221.778	135.089	104.904	109.230	109.607	114.179	429.845	113.257	-8191	255	
11353.201	1	1	0	0	0.1352	0.084097	0.10996	0.26986	0.16186	0.18179	0.23664	0.24287	0.087252	0.13849	0.074804	0.053268	0.26231	0.11036	0.29606	0.20117	-2.75	-2.9833	-2.5229	-3.3479	-2.6896	-2.8187	-3.2333	-2.5333	-2.9562	-3.0125	-2.6562	-3.2188	-2.6958	-2.8708	-3.3083	-2.6021	419.327	401.191	152.302	380.046	405.838	384.486	396.581	135.903	288.359	160.645	234.586	126.748	94.645	400.084	414.363	104.801	0.00055051	0.00037202	0.00014712	1383.5	7.292e-06	8.1355e-07	1385.7	366.49	3.9972e-06	4.9174e-06	419.86	140.46	121.6	42.04	7.5239e-06	51.845	0.0011175	0.001149	0.0003207	1437.2	1.2465e-05	1.2568e-05	1430.9	381.85	1.2496e-05	1.2574e-05	442.98	148.67	133.81	44.749	1.2387e-05	55.515	194.138	98.872	153.837	100.480	247.350	208.320	100.576	105.364	207.211	249.412	104.574	109.274	109.523	114.221	182.910	113.252	-8191	255	
11353.297	1	1	0	0	0.3044	0.2234	0.31679	0.18941	0.2213	0.1221	0.2108	0.053639	0.12866	0.46973	0.32684	0.23874	0.1751	0.39971	0.017437	0.25957	-2.7562	-3.1458	-2.6021	-3.2438	-2.8146	-2.5604	-3.3292	-2.4708	-2.5979	-3.1667	-2.7479	-3.2917	-2.9854	-2.6896	-3.3063	-2.7062	269.318	264.540	310.863	415.814	342.671	418.041	396.627	340.108	158.056	268.917	416.904	336.721	442.928	437.728	213.693	125.150	0.00056589	0.00097891	0.00023909	1387.2	6.622e-06	1.6532e-06	1389.3	365.18	5.2228e-06	2.1664e-06	419.93	140.3	122.19	41.605	1.267e-05	51.894	0.0011141	0.0011494	0.00032049	1438.5	1.2444e-05	1.2545e-05	1431.6	381.78	1.2471e-05	1.2568e-05	443.23	148.54	133.65	44.611	1.245e-05	55.543	192.268	205.854	268.937	100.648	164.341	92.593	100.239	105.129	176.121	228.408	104.582	109.338	109.645	114.261	213.620	113.519	-8191	255	
11353.393	1	1	0	0	0.22365	0.12153	0.17928	0.27829	0.097255	0.28554	0.2055	0.19672	0.10974	0.13581	0.2336	0.26552	0.15712	0.23312	0.12167	0.095874	-2.4	-3.1542	-2.3833	-3.2562	-2.775	-2.5687	-3.4333	-2.7313	-2.8063	-3.3021	-2.3646	-3.0917	-3.0812	-2.5146	-3.1188	-2.8521	298.063	367.956	140.917	358.002	343.990	272.159	417.546	368.523	145.067	128.198	358.176	396.256	351.526	208.872	218.616	433.753	0.00052144	0.00037217	0.00026515	1387	9.6738e-06	5.7241e-06	1387.1	366.62	5.4106e-06	3.0309e-06	419.44	139.45	122	41.846	9.5309e-06	51.892	0.0011175	0.001148	0.00032198	1437.9	1.259e-05	1.2632e-05	1432.4	382.02	1.2505e-05	1.2689e-05	442.93	148.39	133.78	44.684	1.2586e-05	55.676	180.680	92.141	208.267	100.669	280.417	243.645	100.601	105.492	328.766	112.667	104.855	109.227	109.796	114.146	211.701	113.226	-8191	255	
11353.465	1	1	0	0	0.21525	0.14995	0.082391	0.11566	0.11988	0.3838	0.17278	0.13918	0.020318	0.2553	0.053377	0.19529	0.11684	0.12844	0.24526	0.17318	-2.2604	-3.0958	-2.7167	-3.0812	-3.1792	-2.4271	-3.0854	-2.8729	-2.6458	-3.3688	-2.8396	-2.9979	-3.2125	-2.6	-3.2104	-2.8583	108.518	447.268	433.738	319.184	315.106	316.864	353.163	143.355	153.402	356.377	207.791	109.572	351.582	129.929	232.838	368.659	0.00047095	0.000571	3.4844e-05	1382	7.5047e-06	8.0886e-06	1381.6	367.17	9.8422e-06	5.339e-06	420.11	140.17	121	41.881	1.0184e-05	51.746	0.001137	0.0011657	0.00032442	1436.7	1.2733e-05	1.2736e-05	1431.4	382.86	1.2796e-05	1.2722e-05	443.39	148.83	134.02	44.764	1.2695e-05	55.496	173.700	100.860	131.153	100.739	238.121	209.197	100.453	105.340	288.698	239.072	104.665	109.230	109.206	113.922	205.672	113.074	-8191	255	
11353.586	1	1	0	0	0.15756	0.02797	0.13518	0.24631	0.084956	0.099115	0.23098	0.25647	0.12791	0.16305	0.279	0.20013	0.11884	0.37543	0.21347	0.13555	-2.1333	-3.2396	-2.3792	-2.9917	-3.0917	-2.3063	-3.2417	-3.0208	-2.4646	-3.2604	-2.8	-2.8458	-3.1396	-2.5146	-3.1063	-3.0479	111.055	318.233	227.972	88.282	272.566	124.974	405.668	361.506	99.933	355.572	321.830	433.070	368.240	438.607	206.678	101.058	0.00047636	0.00086883	0.00022592	1384.7	6.5955e-06	1.0363e-05	1388.4	366.98	4.5678e-06	7.617e-06	419.93	140.08	121.46	41.858	2.0758e-06	52.088	0.0011427	0.0011753	0.00032628	1438.8	1.2756e-05	1.2861e-05	1434.2	382.65	1.2725e-05	1.2721e-05	443.59	148.81	133.94	44.786	1.256e-05	55.611	182.382	167.604	159.201	100.636	258.047	288.199	100.585	105.249	127.081	259.410	104.577	109.273	109.583	114.051	272.622	113.165	-8191	255	
11353.682	1	1	0	0	0.13575	0.1386	0.080081	0.19211	0.061967	0.18413	0.31289	0.2322	0.14693	0.085318	0.047786	0.2398	0.22382	0.36519	0.16952	0.25273	-2.1937	-3.1063	-2.5125	-2.7812	-3.2854	-2.3583	-3.2917	-3.2208	-2.5417	-3.125	-2.7	-2.9167	-3.3563	-2.6667	-3.1875	-3.1521	306.476	392.992	124.742	326.736	297.404	388.995	412.160	339.070	154.069	167.041	418.981	263.815	115.125	320.017	431.520	355.917	0.00044077	0.00068897	0.00019525	1384.1	1.4761e-06	7.5477e-06	1385.9	366.98	1.6807e-06	6.8256e-06	420.9	140	121.74	41.62	5.7108e-06	51.554	0.0011338	0.0011593	0.00032482	1440.1	1.2645e-05	1.2708e-05	1433.9	382.57	1.2682e-05	1.2689e-05	443.13	148.97	134.01	44.685	1.271e-05	55.555	184.691	159.155	165.629	100.637	447.120	289.855	100.414	105.286	424.451	241.826	104.579	109.266	109.727	114.251	223.260	113.270	-8191	255	
11353.778	1	1	0	0	0.17901	0.1314	0.24859	0.30013	0.096892	0.14932	0.18603	0.15925	0.092614	0.094469	0.24932	0.10963	0.071702	0.20236	0.077592	0.28218	-2.2042	-3.1604	-2.7812	-2.7875	-3.3083	-2.5187	-3.0563	-3.3271	-2.475	-3.2	-2.95	-2.7292	-3.3563	-2.6667	-2.7729	-3.2938	343.669	174.419	125.074	388.445	374.140	127.837	395.228	339.222	252.242	202.035	374.140	401.880	418.396	336.220	129.361	410.492	0.00056165	0.00057025	0.00025349	1384	6.2614e-06	1.2305e-05	1390.6	365.9	2.3912e-06	1.2056e-05	417.61	139.55	122.19	41.85	3.101e-06	52.131	0.0011302	0.0011574	0.00032171	1437.8	1.2725e-05	1.2657e-05	1434.6	381.95	1.2494e-05	1.2544e-05	442.76	148.55	133.9	44.69	1.2485e-05	55.499	187.549	139.938	212.824	100.636	201.487	271.413	100.562	105.264	254.278	209.431	104.805	109.246	109.675	114.357	254.902	113.168	-8191	255	
11353.874	1	1	0	0	0.15607	0.11975	0.16381	0.21165	0.10902	0.0443	0.1298	0.15345	0.22885	0.040996	0.17146	0.27815	0.040949	0.23372	0.063326	0.16452	-2.1646	-3.1979	-2.9	-2.7042	-3.4521	-2.6063	-3.0396	-3.35	-2.4396	-3.0375	-3.0896	-2.5292	-3.3354	-2.8417	-2.7208	-3.3542	152.629	159.545	435.356	411.446	313.135	92.152	371.706	374.773	414.976	166.715	444.462	387.877	377.741	103.930	396.674	404.867	0.00046772	0.00062175	0.00016261	1383.3	6.6131e-06	8.47e-06	1390.3	364.86	2.3575e-06	4.5479e-06	419.69	139.64	121.67	41.768	3.8457e-06	51.681	0.0011061	0.0011365	0.00031807	1436.9	1.2419e-05	1.2403e-05	1432.1	381.7	1.2496e-05	1.2538e-05	442.49	148.35	133.85	44.691	1.2538e-05	55.504	187.979	240.313	236.946	100.765	280.844	243.433	100.628	105.278	251.666	162.936	104.902	108.848	109.805	114.212	243.939	113.506	-8191	255	
11353.970	1	1	0	0	0.22623	0.11593	0.17777	0.18141	0.049558	0.25343	0.32707	0.23404	0.20458	0.17279	0.3292	0.23733	0.096945	0.10545	0.10732	0.095168	-1.9896	-2.9646	-3.0375	-2.5354	-3.2583	-2.6833	-2.8521	-3.4208	-2.6646	-2.8375	-3.3125	-2.5438	-3.0396	-2.9938	-2.7208	-3.4458	297.765	162.069	210.242	300.936	151.181	370.871	319.608	425.975	197.627	221.258	416.033	107.146	155.215	142.136	265.340	89.041	0.00052279	0.00078866	0.00018501	1383.5	1.1861e-06	1.1272e-05	1386.6	366.86	2.1744e-06	6.6343e-06	419.84	139.83	121.63	41.991	5.9106e-06	51.949	0.0011185	0.0011565	0.00032312	1435.9	1.2573e-05	1.2647e-05	1430.8	382	1.2481e-05	1.2536e-05	442.36	148.65	133.78	44.729	1.2472e-05	55.551	177.581	169.074	251.426	100.764	219.381	230.893	100.695	105.420	418.137	235.038	104.813	109.280	109.906	114.177	187.754	113.435	-8191	255	
11354.067	1	1	0	0	0.057545	0.22723	0.13427	0.10177	0.067873	0.14037	0.17219	0.15725	0.13615	0.10144	0.19146	0.47727	0.08746	0.12106	0.11986	0.091742	-2.275	-3.0854	-3.1937	-2.5417	-3.1771	-3.0146	-2.55	-3.3854	-2.6292	-2.9708	-3.0833	-2.6104	-3.2667	-3.0729	-2.4667	-3.3958	93.212	184.513	376.306	372.927	241.636	254.816	413.876	293.434	308.485	312.563	271.083	420.725	328.347	116.004	179.661	342.600	0.00048986	0.00083241	7.8104e-06	1387.3	3.3667e-06	8.443e-06	1381.5	367.32	9.2321e-06	1.0708e-05	421.79	140.41	121.24	41.793	9.7294e-06	51.696	0.001109	0.0011334	0.00031536	1437.2	1.2287e-05	1.2336e-05	1429.4	382.37	1.2366e-05	1.2464e-05	443.21	148.35	133.46	44.572	1.2551e-05	55.452	173.644	160.653	213.755	101.062	94.489	185.111	100.620	105.539	224.009	230.112	105.188	109.444	109.940	114.179	212.081	113.388	-8191	255	
11354.163	1	1	0	0	0.13466	0.32385	0.255	0.26534	0.06673	0.077356	0.42413	0.24331	0.30377	0.15078	0.17184	0.086682	0.051693	0.40665	0.076325	0.18705	-2.3583	-2.8604	-3.1167	-2.6625	-2.8812	-3.0687	-2.8458	-3.5354	-2.8542	-2.7875	-3.3	-2.6521	-3.2208	-3.1542	-2.3896	-3.2875	115.328	141.092	379.375	300.857	416.252	364.207	400.410	345.072	256.389	331.047	178.976	401.524	274.820	97.864	437.420	348.287	0.00040988	0.00029651	0.00032723	1384.8	2.4236e-06	1.476e-05	1387.1	366.34	2.664e-06	8.3926e-06	419.67	140.14	122.44	41.741	1.4769e-05	51.63	0.001111	0.0011484	0.00031897	1435.6	1.2523e-05	1.2594e-05	1431.7	382.02	1.2418e-05	1.2561e-05	442.78	148.42	133.94	44.678	1.2458e-05	55.465	193.508	174.833	197.159	100.856	178.410	223.849	100.877	105.699	265.334	262.368	105.134	109.536	109.963	114.370	245.316	113.677	-8191	255	
11354.282	1	1	0	0	0.16596	0.23588	0.17191	0.4666	0.11586	0.095307	0.27964	0.12108	0.088147	0.264	0.16552	0.13461	0.22624	0.17069	0.18935	0.24837	-2.3208	-2.65	-3.2333	-2.8354	-2.8187	-3.0125	-2.7354	-3.3187	-2.8958	-2.7313	-3.3854	-2.5312	-3.0062	-3.0583	-2.6104	-3.2104	144.389	215.039	229.813	413.888	389.563	141.766	93.456	432.550	305.918	159.048	418.284	432.143	284.968	424.415	98.930	388.456	0.00053258	0.00073293	0.00018309	1379.2	2.2978e-06	2.9508e-06	1392.6	366.78	7.1787e-06	4.6488e-06	420.27	140.57	122.12	41.875	7.7576e-06	51.831	0.0011087	0.0011474	0.00031771	1434	1.2541e-05	1.2483e-05	1433.3	382.06	1.2432e-05	1.2564e-05	443.7	148.53	133.51	44.758	1.252e-05	55.508	183.701	91.881	258.491	100.954	243.121	196.581	101.002	105.726	275.845	261.551	105.171	109.428	110.750	114.446	195.359	113.746	-8191	255	
11354.378	1	1	0	0	0.18347	0.24919	0.22385	0.27032	0.11528	0.069419	0.18872	0.047628	0.16206	0.21205	0.21359	0.07133	0.26845	0.035054	0.1224	0.064036	-2.3333	-2.4958	-3.3729	-2.7708	-2.8771	-3.2604	-2.4896	-3.3667	-3.025	-2.525	-3.2833	-2.7042	-2.7583	-3.2313	-2.3688	-3.2292	120.802	307.101	339.368	437.988	438.488	358.463	384.949	437.555	370.704	387.972	335.604	386.684	334.029	117.862	375.536	434.193	0.00046927	0.00053254	0.00021676	1381.4	9.0415e-06	1.5792e-06	1387.2	365.84	4.701e-06	5.262e-07	420.2	140.23	120.66	41.978	1.1033e-05	52.161	0.0011166	0.0011552	0.00031847	1434.7	1.2512e-05	1.2565e-05	1432.7	382.07	1.2442e-05	1.2537e-05	442.8	148.44	133.52	44.699	1.2404e-05	55.593	171.229	163.261	156.571	101.234	267.516	212.467	100.909	105.756	260.889	408.327	105.006	109.368	109.989	114.668	251.582	113.875	-8191	255	
11354.474	1	1	0	0	0.28727	0.1132	0.11879	0.17317	0.11131	0.11593	0.17724	0.11892	0.13271	0.13975	0.16198	0.47227	0.10945	0.15963	0.16677	0.13295	-2.5333	-2.4	-3.2542	-2.7208	-2.6229	-3.3792	-2.7146	-3.2438	-3.0938	-2.4104	-3.4917	-2.8708	-2.5979	-3.2708	-2.5708	-2.8937	308.959	220.577	355.473	152.034	340.272	194.403	374.945	292.991	335.156	198.357	350.687	424.478	355.281	353.278	352.220	213.692	0.00042793	0.00060618	0.0002671	1383	5.1179e-06	4.1248e-06	1385.7	366.8	1.8819e-06	7.455e-06	421.81	140.05	121.48	41.854	6.1323e-06	52.032	0.0011168	0.0011435	0.00031818	1433.5	1.2478e-05	1.249e-05	1429.9	382.42	1.2503e-05	1.2624e-05	443.58	148.43	133.64	44.691	1.2464e-05	55.62	181.365	167.337	163.720	100.834	155.807	284.515	100.781	105.735	296.264	445.478	105.013	109.547	110.286	114.688	125.638	113.741	-8191	255	
11354.570	1	1	0	0	0.069504	0.21911	0.1966	0.33534	0.122	0.21366	0.18191	0.35595	0.10601	0.14108	0.36152	0.2666	0.25722	0.18575	0.11543	0.17011	-2.7875	-2.3667	-3.1833	-3.1229	-2.65	-3.375	-2.8146	-2.975	-3.2479	-2.7313	-3.3625	-2.9729	-2.5625	-3.4771	-2.6896	-3.0458	147.008	338.234	117.160	430.440	325.807	381.906	386.202	379.079	127.429	97.417	376.002	111.947	396.630	394.116	261.574	375.046	0.00051492	0.00048761	0.00011798	1379.8	1.5957e-06	1.1368e-05	1383.4	366.21	6.6205e-06	8.9344e-06	420.64	139.42	121.39	41.85	2.6476e-06	51.784	0.0011187	0.0011497	0.00031837	1435.7	1.2621e-05	1.2607e-05	1429.9	382.41	1.2457e-05	1.2595e-05	443.39	148.33	133.58	44.663	1.2483e-05	55.567	191.709	122.992	95.565	101.100	268.320	215.020	100.735	105.875	284.729	211.749	105.168	109.520	110.281	114.772	240.493	113.926	-8191	255	
11354.691	1	1	0	0	0.091187	0.12185	0.15988	0.27993	0.075388	0.15402	0.3211	0.16409	0.068141	0.05304	0.071361	0.22842	0.19209	0.2085	0.11711	0.086016	-2.7625	-2.4188	-3.0438	-2.925	-2.5083	-3.275	-2.9646	-2.8646	-3.4271	-2.5542	-3.1979	-3.0958	-2.5542	-3.3708	-2.7042	-2.8667	389.891	311.861	304.789	96.975	313.904	112.809	351.423	350.314	408.952	123.806	124.410	314.685	409.393	419.358	177.359	362.371	0.00053137	0.00059015	0.00013185	1379.9	8.9048e-06	4.7205e-06	1382.6	365.73	6.2365e-06	1.6593e-06	419.92	139.24	121.81	41.958	2.6182e-06	51.815	0.0011311	0.0011482	0.00032018	1436.6	1.2578e-05	1.2616e-05	1429.9	381.71	1.2441e-05	1.2567e-05	442.99	148.12	133.72	44.757	1.2509e-05	55.454	181.152	98.717	102.118	101.158	190.828	177.683	100.917	106.022	204.079	139.826	105.293	109.838	110.425	114.969	417.877	113.721	-8191	255	
11354.762	1	1	0	0	0.11886	0.25801	0.044927	0.15751	0.23631	0.0067189	0.41752	0.3262	0.12461	0.24709	0.22495	0.22978	0.25472	0.16823	0.067026	0.14273	-2.9396	-2.5479	-2.9521	-3.2042	-2.5354	-3.275	-2.7917	-2.9437	-3.3604	-2.6188	-3.0646	-3.0729	-2.6021	-3.3417	-2.8563	-2.7292	135.305	225.973	242.086	389.951	447.526	357.660	428.311	376.918	199.176	293.192	327.100	364.774	264.589	426.933	235.252	141.987	0.00043016	0.0010529	8.0685e-05	1385.9	3.9055e-06	7.7718e-06	1381.5	365.7	5.7516e-06	3.1007e-06	420.43	139.81	121.59	41.794	6.2943e-06	51.778	0.0011186	0.0011471	0.00031869	1434.7	1.2504e-05	1.252e-05	1430.3	381.61	1.2514e-05	1.2486e-05	442.92	148.25	133.49	44.654	1.2467e-05	55.431	193.905	168.404	133.716	100.786	283.991	235.056	100.617	105.678	320.852	373.910	104.845	109.417	110.280	114.321	238.048	113.764	-8191	255	
11354.883	1	1	0	0	0.20221	0.14071	0.12042	0.12066	0.1893	0.15415	0.18243	0.10241	0.21282	0.17172	0.15935	0.42058	0.27485	0.032786	0.27111	0.4008	-3.0146	-2.5812	-2.7771	-3.3937	-2.4958	-3.0917	-2.9271	-2.7333	-3.3333	-2.6583	-2.975	-3.1688	-2.5896	-3.1021	-3.0479	-2.6708	363.154	89.128	366.884	386.125	282.411	228.424	414.284	406.115	180.077	91.849	349.300	364.062	386.749	129.916	337.214	409.233	0.00038238	0.0015459	0.0001876	1380.2	4.1415e-06	3.0801e-06	1387.3	365.73	3.1489e-06	8.6708e-06	420.75	139.62	121.98	41.884	8.2101e-06	51.815	0.0011081	0.0011408	0.0003164	1434.8	1.2397e-05	1.2478e-05	1430.8	381.47	1.2358e-05	1.2457e-05	443.04	148.22	133.38	44.676	1.2431e-05	55.516	175.664	192.819	162.841	100.901	255.140	260.374	100.499	105.651	186.570	274.710	104.998	109.348	110.163	114.523	225.720	113.706	-8191	255	
11354.979	1	1	0	0	0.021435	0.1003	0.12394	0.15534	0.11039	0.056199	0.15621	0.36471	0.22781	0.11239	0.23998	0.23193	0.11318	0.39163	0.15429	0.15221	-2.8438	-2.4708	-2.6688	-3.2313	-2.5104	-3.0729	-3.2646	-2.6167	-3.1688	-2.75	-2.7917	-3.3958	-2.4083	-3.1333	-3.025	-2.4896	379.612	282.402	443.045	130.847	419.487	374.975	342.551	420.407	99.434	374.244	326.082	418.383	444.042	431.380	222.294	269.879	0.00054784	0.00092188	0.0001207	1385.2	6.6961e-06	2.5922e-06	1387.4	365.31	6.8533e-06	5.8786e-06	421.08	139.57	121.87	41.88	4.0552e-06	51.949	0.0010985	0.0011349	0.00031729	1435.2	1.2412e-05	1.2406e-05	1430.3	381.7	1.2469e-05	1.2443e-05	443.01	148.51	133.69	44.726	1.2437e-05	55.519	176.295	431.286	428.304	100.988	298.317	150.163	100.891	105.909	221.129	115.738	105.300	109.682	110.162	114.700	281.295	113.583	-8191	255	
11355.074	1	1	0	0	0.13516	0.18381	0.15809	0.24501	0.060516	0.12369	0.32104	0.35552	0.23232	0.26847	0.23635	0.11581	0.14057	0.14605	0.13351	0.37113	-2.8333	-2.8583	-2.6229	-3.4062	-2.6813	-2.9458	-3.3937	-2.5812	-3.1542	-2.8396	-2.5563	-3.4021	-2.7958	-2.7687	-3.1667	-2.4167	97.381	268.915	261.881	414.353	223.884	279.974	411.316	405.181	126.227	207.011	328.013	365.046	372.608	344.972	355.214	371.083	0.00041191	0.00048201	0.00023022	1377.9	5.0446e-06	4.7473e-06	1374.3	364.41	8.9714e-06	4.7048e-06	420.13	140.39	121.65	41.768	8.3055e-06	51.409	0.0011268	0.001152	0.0003214	1434	1.2529e-05	1.2533e-05	1428.9	381.97	1.2496e-05	1.2537e-05	442.91	148.62	133.49	44.667	1.2451e-05	55.453	173.988	210.340	211.545	101.158	171.499	232.137	100.976	105.883	257.084	251.737	105.000	109.601	109.982	114.686	234.799	113.822	-8191	255	
11355.170	1	1	0	0	0.080597	0.27079	0.21147	0.17981	0.14622	0.037162	0.4326	0.11449	0.13522	0.20912	0.2225	0.32064	0.076162	0.10893	0.28916	0.15422	-2.7875	-2.7583	-2.6146	-3.3104	-2.5583	-2.8771	-3.3479	-2.5167	-3.0146	-3.0646	-2.4771	-3.2021	-2.8063	-2.6292	-3.0833	-2.6479	298.540	131.909	397.910	389.900	117.537	242.565	386.156	415.365	180.592	356.812	371.632	352.256	266.428	105.672	324.574	444.014	0.00047583	0.00093571	0.00027296	1385.8	4.4694e-06	6.9009e-06	1383	366.09	3.644e-06	4.398e-06	421.47	140.41	121.21	41.765	8.8246e-06	51.978	0.0011051	0.0011503	0.00031973	1436.4	1.2474e-05	1.2558e-05	1430.4	381.63	1.2441e-05	1.2441e-05	442.98	148.43	133.35	44.594	1.2361e-05	55.467	184.963	190.974	175.177	100.905	157.350	242.281	100.520	105.516	226.044	137.241	104.795	109.691	110.259	114.602	190.634	113.485	-8191	255	
11355.266	1	1	0	0	0.14344	0.10479	0.1768	0.051575	0.08674	0.058009	0.17584	0.1082	0.16495	0.084244	0.10615	0.012545	0.11894	0.024936	0.20161	0.090951	-2.7604	-2.9813	-2.7188	-3.3937	-2.6521	-2.5	-3.4813	-2.7229	-2.9375	-3.0583	-2.8042	-3.2625	-2.9562	-2.5792	-3.3354	-2.6083	364.676	250.527	413.076	104.026	143.557	359.314	405.577	365.331	389.938	264.905	256.670	191.832	419.176	361.617	406.201	319.829	0.00046151	0.0008363	0.00025462	1384.3	2.4371e-06	7.7087e-06	1389.5	365.12	5.2902e-06	6.3518e-07	420.07	140.32	121.65	41.792	5.0895e-06	51.839	0.0010996	0.0011312	0.00031607	1437	1.2381e-05	1.2442e-05	1432.2	381.48	1.2312e-05	1.231e-05	442.84	148.46	133.47	44.652	1.2307e-05	55.527	181.538	188.886	155.090	100.868	155.996	198.836	100.915	105.671	235.986	208.187	105.099	109.632	109.875	114.914	274.461	113.918	-8191	255	
11355.362	1	1	0	0	0.19453	0.18329	0.10532	0.15391	0.15728	0.15563	0.042586	0.26588	0.040061	0.14415	0.2117	0.1557	0.41852	0.081212	0.15422	0.25052	-2.6562	-2.9896	-2.4354	-3.2354	-2.9604	-2.5125	-3.4125	-2.775	-2.8167	-3.2604	-2.5333	-3.1562	-3.1083	-2.5958	-3.3688	-2.8396	365.502	117.417	412.604	428.333	335.201	287.713	150.442	400.677	377.070	332.555	89.778	360.979	150.944	97.177	334.176	432.132	0.00048855	0.00012197	0.00010998	1385	2.448e-06	1.4152e-06	1389.4	366.92	9.5738e-06	1.0616e-05	420.38	140.51	121.78	41.815	6.8095e-06	51.767	0.0010974	0.001139	0.00031528	1435.2	1.2401e-05	1.2403e-05	1431.7	381.55	1.2377e-05	1.2489e-05	442.41	148.51	133.37	44.609	1.232e-05	55.463	186.032	439.388	438.249	101.024	254.437	145.813	100.809	105.679	213.799	237.834	105.354	109.655	109.975	114.283	180.194	113.637	-8191	255	
11355.458	1	1	0	0	0.27865	0.082087	0.086248	0.16356	0.21593	0.23477	0.12422	0.18804	0.3574	0.19909	0.093171	0.12506	0.10446	0.20697	0.30711	0.24907	-2.6021	-3.0708	-2.3333	-3.4167	-2.8917	-2.5958	-3.5938	-2.8167	-2.725	-3.25	-2.5979	-3.0333	-3.0375	-2.5083	-3.325	-2.8875	99.262	194.889	281.693	128.957	132.043	413.531	362.293	393.832	235.070	422.851	181.461	350.178	366.436	397.480	378.354	347.161	0.00050588	0.00059959	0.00015067	1383.2	5.0422e-06	6.4821e-07	1384.3	365.89	4.4062e-06	6.6037e-06	420.84	140.01	121.98	41.76	6.5265e-06	51.69	0.0011089	0.0011373	0.00031654	1434.5	1.2486e-05	1.2377e-05	1430.9	381.4	1.2313e-05	1.2384e-05	442.37	148.36	133.17	44.556	1.2204e-05	55.434	172.478	272.168	163.598	101.147	137.367	171.944	100.828	105.701	322.755	230.743	105.197	109.800	110.324	114.757	206.696	113.601	-8191	255	
11355.554	1	1	0	0	0.059098	0.10231	0.27036	0.31088	0.23763	0.27302	0.22892	0.25264	0.10035	0.082829	0.21555	0.22761	0.044288	0.027512	0.18956	0.22657	-2.3417	-3.2458	-2.3875	-2.9896	-3.0083	-2.5812	-3.4042	-2.925	-2.5458	-3.3521	-2.7188	-3.0479	-3.1688	-2.4708	-3.2542	-3.1167	434.527	382.188	140.621	429.254	202.964	120.725	352.835	89.022	330.438	278.940	275.813	372.071	323.549	338.069	300.035	434.924	0.00055853	0.00061094	0.00023202	1382.5	6.5354e-06	6.4381e-06	1385.9	366.3	3.4872e-06	4.7601e-06	421.15	139.8	121.7	41.79	2.2797e-06	51.812	0.0010969	0.0011264	0.00031217	1434.5	1.2277e-05	1.2261e-05	1429.6	381.75	1.2271e-05	1.22e-05	442.76	148.36	133.04	44.549	1.2182e-05	55.44	188.905	209.035	199.793	100.967	230.997	243.767	100.811	105.782	229.592	238.633	105.092	109.834	110.167	114.442	281.152	113.852	-8191	255	
11355.650	1	1	0	0	0.18278	0.31656	0.12286	0.17068	0.24916	0.14891	0.15107	0.2875	0.16132	0.25445	0.033808	0.27512	0.23288	0.16323	0.17649	0.097649	-2.2167	-3.2333	-2.7313	-2.9562	-3.2167	-2.6146	-3.3583	-2.9813	-2.5667	-3.0458	-2.6625	-2.7583	-3.1813	-2.5875	-3.0312	-3.0333	141.647	246.395	164.176	430.790	404.816	363.174	362.213	400.153	355.090	357.147	334.348	425.012	215.194	106.855	319.249	433.485	0.00044491	0.00081158	0.00014535	1387.5	9.4243e-06	4.0788e-06	1389	367.33	5.3649e-06	6.3154e-06	420.45	140.24	122.42	41.675	5.6635e-06	51.74	0.0010929	0.0011174	0.00030903	1437.7	1.2237e-05	1.2194e-05	1431.6	381.58	1.2211e-05	1.2211e-05	441.58	148.27	133.38	44.518	1.2108e-05	55.42	187.708	209.348	182.342	101.054	281.242	214.749	100.961	105.553	306.064	218.074	104.931	109.560	110.174	114.633	205.086	113.622	-8191	255	
11355.771	1	1	0	0	0.16456	0.18135	0.076156	0.36711	0.048702	0.22466	0.10496	0.15151	0.16676	0.20219	0.18397	0.16535	0.032629	0.10583	0.18749	0.27916	-2.0083	-3.175	-2.7271	-2.7354	-3.2333	-2.5667	-3.3812	-3.1271	-2.425	-3.2271	-3.0083	-2.7458	-3.2375	-2.7521	-2.8708	-3.2188	102.972	308.840	123.907	415.054	289.855	447.515	285.581	410.138	182.490	124.314	306.084	351.342	113.488	332.512	126.369	115.819	0.00049523	0.00022684	0.00017134	1379.4	2.554e-06	9.9429e-06	1386.5	367.73	6.7076e-06	9.6557e-06	420.96	139.73	122.05	41.89	5.9208e-06	51.877	0.0010867	0.0011251	0.00030994	1433.7	1.2186e-05	1.2136e-05	1429.8	381.95	1.2116e-05	1.2097e-05	442.4	148.06	132.84	44.521	1.2198e-05	55.359	187.018	180.587	279.385	101.324	187.356	204.258	101.008	105.548	281.147	297.762	104.982	109.800	110.133	114.625	226.793	113.722	-8191	255	
11355.867	1	1	0	0	0.25813	0.15875	0.10224	0.14039	0.17693	0.17379	0.17159	0.24388	0.14692	0.23597	0.072526	0.071811	0.080091	0.086663	0.072234	0.017908	-2.1354	-3.1792	-2.9062	-2.5896	-3.1708	-2.4688	-3.0354	-3.2833	-2.4771	-3.1667	-3.0875	-2.8146	-3.4458	-2.6688	-2.7896	-3.3583	385.055	409.611	96.576	323.568	284.129	102.971	409.723	377.242	198.442	225.374	407.385	363.906	93.870	214.553	281.054	208.103	0.00041331	0.00042846	0.00018942	1385.4	4.4415e-06	5.2857e-06	1389.7	365.4	3.1451e-06	3.585e-06	421.27	140.93	121.76	41.765	8.8818e-06	51.85	0.0010821	0.0011051	0.00031024	1434.3	1.2098e-05	1.2129e-05	1430.8	381.07	1.2058e-05	1.2117e-05	441.96	148.27	132.99	44.505	1.2072e-05	55.415	178.545	144.025	160.549	101.089	125.423	293.837	101.005	105.670	230.026	132.720	104.864	109.611	110.097	114.556	307.380	113.552	-8191	255	
11355.963	1	1	0	0	0.1092	0.086247	0.10143	0.026705	0.093872	0.38304	0.29139	0.16201	0.17807	0.14591	0.17299	0.08971	0.22005	0.057884	0.18014	0.026185	-2.0917	-3.0354	-2.8896	-2.7438	-3.3208	-2.5854	-2.9625	-3.3167	-2.3417	-3.1063	-3.1542	-2.6042	-3.3	-2.7333	-2.8042	-3.2958	244.777	290.863	434.042	304.449	193.332	355.911	357.695	415.246	129.879	182.294	105.285	356.309	416.562	340.095	228.974	133.973	0.00043529	0.00083934	0.00014426	1384.7	6.0939e-06	7.1141e-06	1385.6	365.26	1.7087e-06	2.8509e-06	419.29	139.04	121.95	41.738	7.318e-06	51.756	0.0010822	0.0011073	0.000309	1434.1	1.2049e-05	1.2078e-05	1430.8	380.83	1.1895e-05	1.1955e-05	440.94	147.82	133.03	44.481	1.196e-05	55.319	180.997	219.579	263.050	101.034	245.121	184.529	101.002	105.817	375.738	190.587	104.967	109.781	110.153	114.653	242.447	113.880	-8191	255	
11356.059	1	1	0	0	0.095974	0.080401	0.15689	0.13956	0.16879	0.15411	0.24296	0.26918	0.10644	0.1919	0.18968	0.079608	0.054353	0.19736	0.11183	0.034011	-2.175	-2.975	-2.9437	-2.5958	-3.2021	-2.7687	-2.8542	-3.3417	-2.7854	-3.0021	-3.1021	-2.5229	-3.2292	-2.975	-2.6667	-3.3146	372.346	440.328	360.719	329.660	284.415	134.766	400.414	398.714	284.711	403.084	205.182	287.703	204.775	274.699	163.952	391.391	0.00049019	0.00034225	0.00024742	1375.4	4.763e-06	6.2722e-06	1386.3	365.92	2.1571e-06	7.9398e-06	419.41	139.64	121.72	41.585	4.9739e-06	51.491	0.0010668	0.0011109	0.00030779	1432.1	1.1945e-05	1.207e-05	1430.5	381.3	1.2087e-05	1.2066e-05	441.32	148.02	133.04	44.429	1.2076e-05	55.363	186.152	435.457	181.548	101.087	269.102	150.236	101.038	105.897	172.061	237.595	105.357	109.699	110.261	114.360	223.745	113.884	-8191	255	
11356.154	1	1	0	0	0.08501	0.043664	0.24873	0.17641	0.073394	0.093767	0.23348	0.35288	0.14166	0.11418	0.13579	0.2839	0.047221	0.11214	0.047009	0.10294	-2.2979	-2.8979	-3.225	-2.5333	-3.1729	-3.0479	-2.7812	-3.3917	-2.8083	-2.925	-3.4	-2.6688	-3.2021	-3.2104	-2.5792	-3.4458	302.441	295.775	267.503	408.432	276.094	266.030	285.573	423.322	164.357	445.594	421.407	97.204	333.783	416.894	380.994	417.334	0.00049561	0.00058062	0.00027595	1372.2	4.895e-06	4.1565e-06	1383.6	365.24	3.4423e-06	1.1925e-05	420	138.93	120.78	41.66	2.2357e-06	51.713	0.0010825	0.001104	0.00030956	1431	1.2188e-05	1.2137e-05	1430.3	380.96	1.2092e-05	1.2257e-05	441.86	147.9	133.14	44.509	1.2041e-05	55.365	185.775	144.748	159.145	101.221	219.310	310.602	101.028	105.733	283.970	238.654	105.249	109.578	110.016	114.773	352.692	113.775	-8191	255	
11356.252	1	1	0	0	0.26475	0.14755	0.17272	0.42804	0.21072	0.036428	0.29066	0.20235	0.18806	0.065043	0.3309	0.11487	0.13768	0.4067	0.061409	0.033814	-2.2854	-2.5729	-3.2229	-2.6646	-3.0062	-2.9396	-2.7708	-3.3208	-2.6167	-2.8979	-3.3021	-2.5604	-3.1292	-3.1875	-2.5333	-3.3937	101.384	392.754	171.760	386.203	199.554	415.412	397.725	101.334	301.341	265.401	311.087	364.690	408.849	398.421	314.969	101.219	0.00046024	0.00028916	0.00028162	1375.9	3.3938e-06	4.6995e-06	1368.7	361.16	7.378e-06	4.1186e-06	417.47	138.94	120.62	41.33	2.6569e-06	51.657	0.0010723	0.001108	0.0003092	1431.4	1.211e-05	1.2038e-05	1425.4	380.08	1.2053e-05	1.2164e-05	441.69	147.76	133.15	44.407	1.2109e-05	55.38	181.282	233.127	213.430	101.239	131.888	224.333	101.352	106.115	272.419	255.004	105.499	109.796	110.327	114.974	276.261	113.695	-8191	255	
11356.371	1	1	0	0	0.12002	0.26505	0.086832	0.28149	0.032041	0.061019	0.269	0.22592	0.21601	0.079262	0.27372	0.27201	0.12404	0.21225	0.085198	0.17473	-2.2792	-2.4833	-3.1167	-2.5292	-2.875	-3.2854	-2.575	-3.325	-2.9542	-2.5333	-3.5521	-2.6688	-2.925	-3.375	-2.3792	-3.3083	91.126	178.779	127.319	411.589	423.820	233.647	381.988	349.969	159.637	191.985	391.931	420.878	376.079	241.841	236.206	429.805	0.00047539	0.0011666	0.00021865	1378.8	7.5548e-06	4.551e-06	1376.4	365.23	6.1965e-06	7.7529e-06	416.01	138.93	121.03	41.746	4.4287e-06	51.578	0.0010869	0.0011175	0.00030965	1432.5	1.2239e-05	1.2252e-05	1426.6	381.21	1.2292e-05	1.2258e-05	441.24	147.95	133.05	44.564	1.2279e-05	55.417	186.550	93.612	446.546	101.057	274.145	258.559	100.931	106.057	267.781	254.962	105.464	109.591	110.326	114.862	209.694	113.842	-8191	255	
11356.467	1	1	0	0	0.059126	0.41712	0.15536	0.12679	0.21	0.16956	0.12284	0.37091	0.025304	0.24277	0.050601	0.099684	0.14809	0.1493	0.18915	0.20834	-2.5792	-2.6271	-3.3292	-2.7104	-2.7521	-3.1	-2.6792	-3.1562	-3.0021	-2.5708	-3.2625	-2.9104	-2.9375	-3.3896	-2.3937	-3.0958	205.317	376.336	136.940	134.334	265.010	325.334	402.496	411.176	253.231	218.750	322.261	363.843	399.619	98.780	311.126	174.690	0.00039545	0.00059934	0.00034981	1364.2	1.0222e-05	8.6738e-06	1361.8	361.69	8.9756e-06	7.5669e-06	414.84	139.22	120.3	41.437	5.1815e-06	51.516	0.0011072	0.0011294	0.00031629	1430.4	1.2363e-05	1.2373e-05	1425	380.69	1.2359e-05	1.2474e-05	442.06	148.01	133.25	44.538	1.2358e-05	55.34	188.409	215.119	100.765	101.532	267.620	196.885	101.354	106.102	275.741	231.327	105.683	109.786	110.056	114.960	174.865	114.037	-8191	255	
11356.563	1	1	0	0	0.20693	0.34134	0.27715	0.065958	0.18406	0.090945	0.19304	0.30697	0.084548	0.098927	0.17744	0.27065	0.11547	0.12007	0.16985	0.1622	-2.8208	-2.5104	-3.2875	-2.7208	-2.7708	-3.4	-2.7708	-3.1854	-3.0229	-2.5354	-3.3771	-2.8063	-2.7021	-3.4125	-2.6271	-3	169.837	116.423	202.498	342.102	211.654	266.080	353.320	373.908	387.231	281.178	256.876	386.333	375.829	125.702	255.516	376.439	0.00049511	0.00075033	0.00015243	1363.3	7.964e-06	1.0326e-05	1366.1	362.53	4.543e-06	2.5161e-07	413.64	138.06	120.81	41.36	4.6655e-06	51.731	0.0011122	0.0011447	0.00031618	1429.4	1.2423e-05	1.2509e-05	1424.7	381.07	1.235e-05	1.2347e-05	441.95	147.82	133.52	44.458	1.2302e-05	55.387	186.199	250.460	212.699	101.220	286.003	231.980	101.238	106.056	241.521	356.123	105.680	110.059	110.585	114.870	249.928	113.756	-8191	255	
11356.659	1	1	0	0	0.15308	0.1721	0.10929	0.27146	0.060496	0.035457	0.11823	0.18257	0.20276	0.15966	0.049985	0.21774	0.33775	0.16692	0.25821	0.20245	-2.7896	-2.3625	-3.3042	-2.9125	-2.6104	-3.2667	-2.7521	-3.1396	-3.2375	-2.4146	-3.3042	-3.0396	-2.6375	-3.3563	-2.7375	-2.9021	395.143	221.670	410.022	433.265	265.108	283.638	344.609	98.222	155.192	187.389	407.604	374.411	387.045	437.707	90.582	328.710	0.00048285	0.00068682	0.00015309	1370.3	2.6213e-06	5.2234e-06	1374	363.23	1.1439e-05	4.3982e-06	417.98	138.49	120.48	41.502	2.7411e-06	51.997	0.001104	0.0011357	0.00031625	1429.2	1.2364e-05	1.2347e-05	1425.3	381.25	1.2258e-05	1.2298e-05	442.08	147.65	133.05	44.522	1.2211e-05	55.479	175.168	170.093	157.127	101.207	205.047	182.957	100.930	105.988	234.831	188.979	105.562	109.662	110.638	114.687	320.102	113.852	-8191	255	
#DATA ENDS
