BOXY.EXE: ISS Imagent and Oximeter Data Acquisition Program Version 0.80
Ascii Record File

#ACQ INFORMATION
2  Detector Channels 
16  External MUX Channels 
1  Auxiliary Channels 
5000  Waveform (CCF) Frequency (Hz)
1  Waveforms Skipped 
30  Waveforms Averaged 
1  Cycles Averaged 
16  Acquisitions per Waveform 
10.0806  Updata Rate (Hz) 

#FILE INFORMATION
TRUE -- External MUX Channel results are PARSED.
FALSE -- AC DC and Phase are NOT grouped.
TRUE -- Companion Program Settings File CREATED.
FALSE -- AC data not excluded
FALSE -- DC data not excluded
FALSE -- Phase data not excluded
FALSE -- Auxillary Chn. data not excluded
Tab delimiters

#CALIBRATION STATE
TRUE -- Waveform Calibration Values APPLIED.


#AUX CALIBRATION VALUES
Val Type	aux-1	

Term	1.0000e+00	
Factor	0.0000e+00	


#WF CALIBRATION VALUES
A = Detector Channel
Val Type	A-AC1	A-AC2	A-AC3	A-AC4	A-AC5	A-AC6	A-AC7	A-AC8	A-AC9	A-AC10	A-AC11	A-AC12	A-AC13	A-AC14	A-AC15	A-AC16	A-DC1	A-DC2	A-DC3	A-DC4	A-DC5	A-DC6	A-DC7	A-DC8	A-DC9	A-DC10	A-DC11	A-DC12	A-DC13	A-DC14	A-DC15	A-DC16	A-Ph1	A-Ph2	A-Ph3	A-Ph4	A-Ph5	A-Ph6	A-Ph7	A-Ph8	A-Ph9	A-Ph10	A-Ph11	A-Ph12	A-Ph13	A-Ph14	A-Ph15	A-Ph16	

Term	0.00000e+00	0.00000e+00	0.00000e+00	0.00000e+00	0.00000e+00	0.00000e+00	0.00000e+00	0.00000e+00	0.00000e+00	0.00000e+00	0.00000e+00	0.00000e+00	0.00000e+00	0.00000e+00	0.00000e+00	0.00000e+00	0.00000e+00	0.00000e+00	0.00000e+00	0.00000e+00	0.00000e+00	0.00000e+00	0.00000e+00	0.00000e+00	0.00000e+00	0.00000e+00	0.00000e+00	0.00000e+00	0.00000e+00	0.00000e+00	0.00000e+00	0.00000e+00	0.00000e+00	0.00000e+00	0.00000e+00	0.00000e+00	0.00000e+00	0.00000e+00	0.00000e+00	0.00000e+00	0.00000e+00	0.00000e+00	0.00000e+00	0.00000e+00	0.00000e+00	0.00000e+00	0.00000e+00	0.00000e+00	
Factor	1.00000e+00	1.00000e+00	1.00000e+00	1.00000e+00	1.00000e+00	1.00000e+00	1.00000e+00	1.00000e+00	1.00000e+00	1.00000e+00	1.00000e+00	1.00000e+00	1.00000e+00	1.00000e+00	1.00000e+00	1.00000e+00	1.00000e+00	1.00000e+00	1.00000e+00	1.00000e+00	1.00000e+00	1.00000e+00	1.00000e+00	1.00000e+00	1.00000e+00	1.00000e+00	1.00000e+00	1.00000e+00	1.00000e+00	1.00000e+00	1.00000e+00	1.00000e+00	X	X	X	X	X	X	X	X	X	X	X	X	X	X	X	X	

B = Detector Channel
Val Type	B-AC1	B-AC2	B-AC3	B-AC4	B-AC5	B-AC6	B-AC7	B-AC8	B-AC9	B-AC10	B-AC11	B-AC12	B-AC13	B-AC14	B-AC15	B-AC16	B-DC1	B-DC2	B-DC3	B-DC4	B-DC5	B-DC6	B-DC7	B-DC8	B-DC9	B-DC10	B-DC11	B-DC12	B-DC13	B-DC14	B-DC15	B-DC16	B-Ph1	B-Ph2	B-Ph3	B-Ph4	B-Ph5	B-Ph6	B-Ph7	B-Ph8	B-Ph9	B-Ph10	B-Ph11	B-Ph12	B-Ph13	B-Ph14	B-Ph15	B-Ph16	

Term	0.00000e+00	0.00000e+00	0.00000e+00	0.00000e+00	0.00000e+00	0.00000e+00	0.00000e+00	0.00000e+00	0.00000e+00	0.00000e+00	0.00000e+00	0.00000e+00	0.00000e+00	0.00000e+00	0.00000e+00	0.00000e+00	0.00000e+00	0.00000e+00	0.00000e+00	0.00000e+00	0.00000e+00	0.00000e+00	0.00000e+00	0.00000e+00	0.00000e+00	0.00000e+00	0.00000e+00	0.00000e+00	0.00000e+00	0.00000e+00	0.00000e+00	0.00000e+00	-7.70394e+01	-1.24773e+02	-1.22023e+02	-1.83689e+02	-5.26907e+01	-6.57493e+01	-1.55956e+02	-1.62015e+02	-4.12905e+01	-6.64813e+01	-1.69979e+02	-1.70582e+02	-1.79937e+02	-1.76627e+02	-6.08650e+01	-1.49193e+02	
Factor	1.65381e-05	1.27404e-04	4.20882e-05	1.74909e-01	1.21720e-06	1.50233e-06	1.52390e-01	4.88806e-02	1.05316e-06	1.33437e-06	8.28644e-02	2.88030e-02	2.48227e-02	8.64829e-03	1.26265e-06	1.23097e-02	3.77851e-06	4.39697e-06	1.22931e-06	9.36027e-02	4.74484e-08	4.83570e-08	7.69343e-02	2.63740e-02	4.70575e-08	4.84823e-08	4.32323e-02	1.50964e-02	1.35041e-02	4.69083e-03	4.79849e-08	6.44294e-03	X	X	X	X	X	X	X	X	X	X	X	X	X	X	X	X	



#DISTANCE SETTINGS
A = Detector Channel
A-1	A-2	A-3	A-4	A-5	A-6	A-7	A-8	A-9	A-10	A-11	A-12	A-13	A-14	A-15	A-16	

2.5000e+00	3.0000e+00	2.5000e+00	3.0000e+00	2.0000e+00	3.0000e+00	1.5000e+00	3.0000e+00	3.0000e+00	3.0000e+00	3.0000e+00	3.0000e+00	3.0000e+00	3.0000e+00	1.5000e+00	3.0000e+00	

B = Detector Channel
B-1	B-2	B-3	B-4	B-5	B-6	B-7	B-8	B-9	B-10	B-11	B-12	B-13	B-14	B-15	B-16	

1.0000e+01	1.0000e+01	1.0000e+01	1.4400e+00	1.0000e+01	1.0000e+01	1.5100e+00	1.9400e+00	1.0000e+01	1.0000e+01	1.9900e+00	2.4900e+00	2.4100e+00	2.9000e+00	1.0000e+01	2.9800e+00	




#DATA BEGINS
time	group	step	mark	flag	A-AC1	A-AC2	A-AC3	A-AC4	A-AC5	A-AC6	A-AC7	A-AC8	A-AC9	A-AC10	A-AC11	A-AC12	A-AC13	A-AC14	A-AC15	A-AC16	A-DC1	A-DC2	A-DC3	A-DC4	A-DC5	A-DC6	A-DC7	A-DC8	A-DC9	A-DC10	A-DC11	A-DC12	A-DC13	A-DC14	A-DC15	A-DC16	A-Ph1	A-Ph2	A-Ph3	A-Ph4	A-Ph5	A-Ph6	A-Ph7	A-Ph8	A-Ph9	A-Ph10	A-Ph11	A-Ph12	A-Ph13	A-Ph14	A-Ph15	A-Ph16	B-AC1	B-AC2	B-AC3	B-AC4	B-AC5	B-AC6	B-AC7	B-AC8	B-AC9	B-AC10	B-AC11	B-AC12	B-AC13	B-AC14	B-AC15	B-AC16	B-DC1	B-DC2	B-DC3	B-DC4	B-DC5	B-DC6	B-DC7	B-DC8	B-DC9	B-DC10	B-DC11	B-DC12	B-DC13	B-DC14	B-DC15	B-DC16	B-Ph1	B-Ph2	B-Ph3	B-Ph4	B-Ph5	B-Ph6	B-Ph7	B-Ph8	B-Ph9	B-Ph10	B-Ph11	B-Ph12	B-Ph13	B-Ph14	B-Ph15	B-Ph16	aux-1	digaux	

21666.516	1	1	0	768	0.069675	0.14449	0.12803	0.28869	0.089767	0.15943	0.22244	0.068745	0.21347	0.19856	0.23292	0.28012	0.11971	0.10605	0.11175	0.36248	-2.2604	-3.4708	-2.9292	-2.7625	-3.4896	-2.7792	-3.2625	-3.4417	-2.6792	-3.4417	-3.2396	-2.7042	-3.5021	-2.7021	-2.8896	-3.2896	-7.282	257.188	72.651	-78.349	-25.176	17.472	264.153	181.241	70.190	29.635	215.438	239.537	244.027	173.281	109.463	218.086	0.0005846	0.00043171	0.00079719	662.14	3.9423e-05	1.355e-05	975.64	216.36	2.8227e-05	1.7725e-05	362.19	124.31	75.023	33.724	4.3882e-05	47.327	0.028954	0.033959	0.0095238	1306.9	0.00037178	0.00038116	1473.5	400.19	0.00037602	0.00038902	662.16	230.67	174.99	67.241	0.00039023	93.65	-23.152	111.321	-7.752	-70.297	237.001	179.580	-71.159	-66.587	234.974	-23.555	-68.521	-64.934	-63.950	-59.990	104.771	-62.764	-8191	255	
21666.611	1	1	0	0	0.14114	0.12272	0.26388	0.19324	0.16657	0.19293	0.21142	0.25615	0.17146	0.078561	0.092425	0.19104	0.23016	0.31889	0.12472	0.062389	-2.4062	-3.3875	-3.1375	-2.8688	-3.4313	-2.9813	-2.9375	-3.5396	-2.6312	-3.0917	-3.2521	-2.7292	-3.5312	-3.0854	-2.8563	-3.3667	9.516	191.552	14.139	130.666	222.020	212.207	128.544	196.359	173.358	1.268	258.043	48.853	252.318	229.177	-51.907	249.767	0.00066382	0.0040588	0.0010296	668	2.1465e-05	3.9102e-05	982.53	219.19	1.3589e-05	8.7332e-06	360.66	124.4	75.399	33.111	2.2521e-05	46.587	0.030574	0.03592	0.010031	1338.6	0.00038892	0.00039878	1498.7	410.6	0.00039481	0.00041008	683.4	239.46	183.95	70.125	0.00042585	98.397	-35.654	16.260	-38.648	-70.149	-15.913	69.655	-70.967	-66.407	59.490	129.434	-68.798	-65.889	-64.194	-59.900	225.065	-62.726	-8191	255	
21666.707	1	1	0	0	0.13628	0.1897	0.25516	0.12319	0.1326	0.065037	0.20749	0.30857	0.33514	0.16117	0.2445	0.33675	0.06673	0.097755	0.12689	0.32158	-2.2667	-3.2104	-3.0542	-2.5229	-3.4896	-2.975	-2.9521	-3.4896	-2.7625	-3.0729	-3.2812	-2.8333	-3.3479	-3.2438	-2.7917	-3.475	198.723	207.468	-7.630	233.077	-81.296	167.729	159.888	134.635	250.757	157.520	-65.486	-10.764	-28.524	-1.658	141.324	192.202	0.00010542	0.0014675	0.0012773	645.6	2.7573e-05	5.186e-05	986.28	218.47	2.1718e-05	5.6751e-05	355.64	124.05	75.614	32.468	3.4748e-05	46.729	0.034	0.039737	0.011138	1421.1	0.00043041	0.00043774	1556.1	426.76	0.00042543	0.00044143	704.17	247.21	188.87	71.191	0.00043686	99.002	3.132	36.439	-22.197	-70.279	117.147	222.667	-70.981	-66.326	250.444	72.765	-68.938	-66.182	-64.253	-60.468	-49.641	-62.508	-8191	255	
21666.803	1	1	0	0	0.11276	0.25572	0.20591	0.25927	0.12679	0.24848	0.10293	0.20622	0.31063	0.13048	0.18381	0.043763	0.336	0.23047	0.31178	0.069838	-2.4833	-3.1146	-3.3458	-2.6729	-3.3208	-3.0646	-2.9542	-3.4396	-3.0271	-2.9646	-3.4479	-2.6729	-3.2896	-3.2458	-2.7875	-3.5	136.130	48.927	235.964	270.997	80.213	205.607	207.997	235.494	215.293	124.692	197.137	268.119	219.682	162.834	274.989	-48.862	0.00023402	0.0059118	0.00072881	654.78	1.1316e-05	0.00010402	974.12	216.81	4.3797e-05	3.4184e-05	357.33	123.9	75.35	32.38	2.0497e-05	46.59	0.034153	0.039924	0.011104	1412.4	0.00042768	0.00043654	1546.5	426	0.00042344	0.00043996	702.6	245.35	188.08	70.887	0.00043324	98.381	-9.052	251.367	-45.418	-70.003	156.422	-22.430	-70.691	-66.457	23.080	115.319	-68.613	-65.827	-63.985	-60.109	96.736	-61.648	-8191	255	
21666.898	1	1	0	0	0.077475	0.26243	0.20402	0.25383	0.22022	0.2788	0.3978	0.17996	0.073279	0.11018	0.24473	0.24093	0.11282	0.19053	0.10693	0.14612	-2.4167	-2.8583	-3.4146	-2.6521	-3.1542	-3.2146	-2.7021	-3.5604	-2.9146	-2.8563	-3.4458	-2.7938	-3.2375	-3.4833	-2.5667	-3.575	274.008	103.356	271.259	-69.018	209.432	-47.494	218.852	134.244	172.629	192.437	177.097	202.538	-75.274	-60.235	-23.814	200.347	0.00021357	0.0029477	0.00075267	659.44	2.6079e-05	3.394e-05	969.44	214.56	2.2766e-05	1.8786e-05	354.86	122.56	74.588	32.822	2.9687e-05	46.46	0.033777	0.039562	0.010992	1397.6	0.00042114	0.00042525	1514.5	415.91	0.00040264	0.00041406	674.46	235.15	179.42	67.855	0.00040265	94.469	76.839	-6.709	214.908	-71.103	252.403	29.838	-70.759	-66.594	251.555	227.845	-68.422	-66.114	-64.128	-60.380	140.379	-62.269	-8191	255	
21666.996	1	1	0	0	0.1243	0.18519	0.12677	0.14395	0.13099	0.25936	0.22265	0.12131	0.21515	0.023393	0.10928	0.25197	0.061166	0.11533	0.15127	0.12547	-2.6604	-2.8958	-3.2625	-2.6396	-3.1	-3.3438	-2.8625	-3.4104	-3.0792	-2.825	-3.4375	-2.8375	-3.15	-3.3583	-2.6229	-3.5646	115.080	218.110	83.989	-17.963	-0.011	215.715	237.720	119.795	269.194	74.416	103.743	241.714	197.937	-84.428	110.302	126.950	0.00014106	0.0026478	0.00075993	645.25	2.681e-05	4.4396e-05	964.42	212.89	3.8643e-05	4.5845e-05	354.81	121.93	73.995	32.237	2.1472e-05	46.513	0.031385	0.036358	0.010049	1318.8	0.00038069	0.00038691	1450.2	393	0.0003669	0.00037878	642.91	224.06	168.38	63.967	0.00036292	88.915	55.624	78.767	17.532	-70.733	116.259	-47.651	-70.560	-66.471	204.745	66.233	-68.019	-65.571	-63.816	-59.768	238.784	-62.184	-8191	255	
21667.115	1	1	0	0	0.20349	0.028062	0.092224	0.13508	0.10127	0.30513	0.37455	0.03874	0.14467	0.27571	0.22471	0.21409	0.15274	0.18374	0.17947	0.16257	-2.7646	-2.5812	-3.5083	-2.8563	-2.8917	-3.5354	-2.7979	-3.2229	-3.1771	-2.6833	-3.625	-2.8542	-2.8521	-3.275	-2.5875	-3.2708	221.645	187.667	168.739	83.361	203.211	28.049	166.267	19.301	-67.110	140.824	52.640	218.822	-39.217	-79.175	268.220	152.209	0.00063616	0.0048587	0.00073882	649.64	2.5332e-05	1.7526e-05	969.3	214.39	2.3475e-05	3.5268e-05	353.46	121.44	74.102	33.04	4.9535e-05	46.653	0.028087	0.032379	0.0089845	1242.5	0.00034294	0.00034809	1395	376.18	0.00033697	0.00034739	617.72	214.64	161.8	62.042	0.00033938	86.263	-78.772	193.009	-37.811	-70.599	256.695	124.970	-70.623	-66.938	32.902	75.689	-68.410	-65.431	-63.831	-60.023	-34.508	-62.168	-8191	255	
21667.211	1	1	0	0	0.1121	0.088728	0.18261	0.36873	0.045301	0.19471	0.32722	0.29027	0.14638	0.06135	0.072211	0.26949	0.2581	0.2079	0.18365	0.28732	-2.7625	-2.5375	-3.1917	-3.0208	-2.6833	-3.3187	-2.9042	-2.9667	-3.2229	-2.4917	-3.3937	-3.0375	-2.6833	-3.3271	-2.7917	-3.0083	-10.200	234.547	174.341	271.538	-52.150	162.623	140.880	233.717	142.962	75.995	-8.075	241.948	245.491	213.249	9.325	219.243	0.00052988	0.0030473	0.0011206	644.94	1.4018e-05	3.8775e-05	965.37	215.64	1.5625e-05	4.4119e-05	356.39	122.08	74.409	33.357	3.0301e-05	47.269	0.02663	0.030792	0.008661	1220.1	0.00033356	0.00033894	1378.8	371.27	0.00032649	0.00033606	606.68	210.21	157.92	61.336	0.00033217	85.813	-57.614	28.146	-69.228	-70.285	-43.925	19.534	-70.632	-66.417	51.488	95.944	-68.252	-65.534	-63.803	-60.278	42.269	-61.948	-8191	255	
21667.307	1	1	0	0	0.10975	0.08926	0.083491	0.21739	0.35381	0.21389	0.36244	0.02426	0.046596	0.29493	0.25754	0.19862	0.17335	0.20603	0.080934	0.29149	-2.9333	-2.5312	-3.1917	-2.9042	-2.6542	-3.5417	-2.7917	-2.9542	-3.3979	-2.7771	-3.2083	-3.1562	-2.7396	-3.4917	-2.7521	-2.8896	136.488	18.911	-49.165	104.121	92.941	46.924	191.159	107.076	215.463	-81.101	201.037	255.102	26.983	-11.958	14.537	-52.736	0.00023847	0.00062455	0.00098302	649.38	5.5094e-05	6.6657e-05	962.8	215.82	3.6607e-05	5.6571e-05	353.67	121.66	73.842	33.653	3.7811e-05	47.556	0.026192	0.0308	0.0085916	1216.5	0.00033181	0.0003392	1381.6	372.58	0.00033042	0.00034149	615.27	213.49	160.35	62.168	0.00033888	87.221	-13.217	-63.158	266.527	-71.008	106.830	26.777	-70.918	-66.236	7.296	65.596	-68.187	-65.528	-63.455	-60.188	141.127	-62.256	-8191	255	
21667.402	1	1	0	0	0.023462	0.10065	0.03742	0.16726	0.072563	0.039464	0.18742	0.20769	0.052122	0.12414	0.086858	0.3609	0.17819	0.19973	0.015237	0.15908	-3.0854	-2.4146	-3.2604	-3.0521	-2.7562	-3.3333	-3.0229	-2.8229	-3.4354	-2.7708	-3.0979	-3.2812	-2.7458	-3.4562	-2.875	-2.7375	102.226	235.386	193.200	190.163	68.279	28.970	173.376	238.572	63.986	195.442	205.891	254.361	191.912	245.395	159.402	-63.599	0.00023663	0.0034649	0.001464	653.36	3.844e-05	1.7141e-05	972.16	213.54	4.7741e-05	5.264e-05	354.9	121.67	74.554	33.459	4.2496e-05	47.925	0.026909	0.031517	0.0088273	1239.8	0.00034282	0.00035208	1404.6	378.84	0.00034106	0.00035282	624.8	216.51	163.86	63.368	0.00034769	88.109	-64.144	-75.942	-26.193	-70.106	140.202	-82.395	-71.349	-66.911	18.574	154.346	-68.632	-64.779	-64.596	-59.945	112.499	-61.389	-8191	255	
21667.498	1	1	0	0	0.062599	0.1583	0.19178	0.28374	0.060385	0.13909	0.069522	0.12683	0.029619	0.11271	0.29749	0.14097	0.17517	0.10077	0.11771	0.18063	-2.9396	-2.7833	-3.0542	-3.3667	-2.6937	-3.3688	-3.1688	-2.8354	-3.5708	-2.8375	-2.925	-3.4354	-2.7125	-3.2979	-2.9521	-2.8708	140.137	-22.798	-75.162	186.220	181.460	6.831	-53.420	-74.150	113.627	123.607	273.934	21.376	270.049	2.650	191.903	136.761	0.00050263	0.0014599	0.0016017	643.99	2.3463e-05	5.9249e-05	971.27	213.74	3.7495e-06	3.6305e-05	353.73	120.84	74.69	33.683	2.7068e-05	47.403	0.027351	0.031891	0.0088929	1241.1	0.00034229	0.00034731	1396.8	376.29	0.00033427	0.00034529	615.25	213.55	161.29	62.525	0.00033945	87.201	209.829	92.466	134.128	-70.216	-15.782	260.942	-70.818	-66.149	66.902	30.529	-67.792	-64.749	-63.213	-60.537	88.190	-62.254	-8191	255	
21667.596	1	1	0	0	0.45588	0.16904	0.17531	0.10573	0.13357	0.11478	0.09271	0.13058	0.1504	0.097047	0.094899	0.21171	0.029065	0.16867	0.051548	0.12793	-3.0292	-2.9	-2.7208	-3.3229	-2.5646	-3.1542	-3.2083	-2.8187	-3.3146	-2.7938	-2.8271	-3.3229	-2.5875	-3.275	-3.1521	-2.575	165.350	215.128	-4.944	-43.290	-35.231	113.367	-68.800	-79.628	119.072	118.234	215.492	-61.691	275.002	259.579	218.234	-21.358	0.00038341	0.0039313	0.00079472	649.22	1.9444e-05	2.8142e-05	963.65	218.04	3.8433e-05	3.1352e-05	357.05	120.56	75.699	33.2	2.7154e-05	47.361	0.026882	0.03148	0.0088386	1237.7	0.00034075	0.00034795	1393.7	376.52	0.00033637	0.00034324	617.61	213.21	160.92	62.288	0.00033869	86.66	-61.658	-13.621	-34.419	-71.159	4.694	221.675	-70.752	-65.716	198.281	150.601	-68.197	-65.072	-63.541	-59.907	-82.583	-62.173	-8191	255	
21667.717	1	1	0	0	0.25928	0.1479	0.0444	0.21092	0.12392	0.2469	0.090854	0.090709	0.094287	0.058945	0.032579	0.29415	0.20052	0.1596	0.15155	0.097091	-2.95	-2.8625	-2.7792	-3.3604	-2.5896	-3.1042	-3.3375	-2.6729	-3.3021	-2.9667	-2.7646	-3.4167	-2.7604	-3	-3.1458	-2.6417	-14.410	112.410	13.566	221.908	170.438	-5.143	51.635	131.366	-46.899	1.151	-35.136	243.580	146.188	240.043	-57.422	-55.872	0.00031774	0.0013604	0.00031807	649.21	2.7962e-05	2.0822e-05	970.93	215.69	2.0787e-05	1.2269e-05	360.99	123.97	75.1	33.464	2.9245e-05	48.155	0.026649	0.031078	0.008706	1228.7	0.0003366	0.000344	1393	376.66	0.0003348	0.00034586	619.7	214.75	160.52	62.672	0.00033858	87.244	2.001	-45.972	148.402	-70.292	-26.308	172.832	-71.129	-66.249	-9.044	-25.822	-68.082	-65.364	-63.078	-59.944	-13.152	-62.226	-8191	255	
21667.812	1	1	0	0	0.15879	0.056508	0.17711	0.33659	0.1222	0.088017	0.30793	0.34892	0.19787	0.22598	0.41617	0.26805	0.087805	0.089549	0.039019	0.21726	-2.9813	-3.0354	-2.6875	-3.4188	-2.7771	-2.9542	-3.3771	-2.7479	-3.3104	-3.1188	-2.7771	-3.5021	-2.9125	-3.0646	-3.3271	-2.6063	231.836	177.737	205.517	215.213	33.813	56.689	255.935	190.922	117.099	196.134	214.819	263.508	211.400	26.593	88.938	-57.004	0.00055002	0.0018408	0.0010137	648.29	1.3418e-05	1.4901e-05	973.44	216.01	6.4231e-05	2.0727e-05	360.98	121.63	75.559	33.914	2.8882e-05	47.954	0.026684	0.030889	0.0086908	1223.9	0.00033184	0.00034	1389.3	373.18	0.00032876	0.00033957	616.47	213.87	161.34	62.572	0.00033978	87.505	268.458	224.544	151.192	-70.052	22.481	29.358	-71.386	-66.507	102.254	160.419	-68.468	-64.829	-63.790	-60.271	72.837	-62.150	-8191	255	
21667.908	1	1	0	0	0.18851	0.19797	0.24476	0.11967	0.070479	0.12527	0.085533	0.16301	0.013394	0.3202	0.32117	0.25429	0.053739	0.17486	0.11442	0.24279	-2.5687	-3.1333	-2.5021	-3.3583	-2.7625	-2.8083	-3.6208	-2.5833	-3.2604	-3.0896	-2.7	-3.3729	-2.8542	-2.8063	-3.3729	-2.6833	158.246	50.231	200.452	57.187	4.858	131.910	224.132	200.543	223.531	234.462	269.258	-61.060	220.040	172.144	137.242	186.730	0.00011135	0.0013703	0.00042755	646.14	4.8537e-05	4.2624e-05	973.44	216.4	4.3453e-05	2.2224e-05	361.1	121.77	75.259	33.078	2.5238e-05	46.884	0.027195	0.031849	0.0089584	1255.2	0.00035046	0.00035815	1423.8	386.31	0.00035504	0.00036944	644.59	225.35	170.51	65.691	0.00037912	92.252	85.775	170.971	137.482	-70.053	74.569	231.598	-70.809	-66.262	135.111	140.552	-68.768	-64.818	-63.801	-60.430	176.743	-61.879	-8191	255	
21668.004	1	1	0	0	0.18021	0.26423	0.11397	0.23198	0.067595	0.10309	0.22241	0.28047	0.03694	0.15577	0.078474	0.37259	0.20453	0.13432	0.12291	0.20222	-2.775	-3.15	-2.4688	-3.1646	-2.9417	-2.6729	-3.4938	-2.7854	-2.9625	-3.0563	-2.5812	-3.3875	-3.0187	-2.65	-3.3708	-2.7188	244.857	220.578	60.651	262.335	252.248	93.232	225.079	175.097	257.695	-80.909	238.389	231.795	209.160	70.442	17.598	184.365	0.000391	0.0036735	0.00050494	648.72	3.0835e-05	2.7114e-05	966.64	214.7	2.6138e-05	7.2306e-05	361.96	123.35	74.295	33.063	2.3233e-05	47.07	0.030116	0.035065	0.0098147	1316.6	0.00038063	0.00038995	1461.8	400.77	0.00038069	0.00039205	662.65	231.57	175.37	67.179	0.00039566	94.098	77.102	81.959	205.396	-70.155	-38.748	-47.854	-70.822	-66.411	-33.633	202.771	-68.719	-65.731	-64.240	-59.415	236.087	-62.780	-8191	255	
21668.076	1	1	0	0	0.1548	0.25613	0.27085	0.17111	0.086667	0.053914	0.11245	0.29797	0.1386	0.23067	0.23988	0.080237	0.098555	0.20875	0.14624	0.11867	-2.5229	-3.3708	-2.6458	-3.575	-2.9417	-2.7521	-3.6333	-2.8354	-2.8833	-3.3417	-2.6667	-3.3646	-3.1479	-2.5458	-3.375	-3.0062	-33.532	-34.634	-79.179	75.140	188.831	51.663	201.374	246.176	256.717	187.932	-45.448	-34.464	152.775	66.438	0.496	104.884	0.00048396	0.0013638	0.00028445	648.84	2.8199e-05	5.4637e-05	969.36	215.81	1.8618e-05	2.82e-05	357.26	123.82	74.708	32.865	2.8559e-05	46.878	0.031378	0.036608	0.010273	1345.3	0.00039763	0.0004059	1487.7	407.4	0.00039167	0.00040296	672.31	233.72	177.04	67.579	0.00039612	94.384	125.260	-60.843	153.151	-70.919	204.464	186.508	-71.402	-67.619	52.961	-35.762	-68.594	-65.796	-63.686	-60.752	-69.339	-63.104	-8191	255	
21668.195	1	1	0	0	0.10002	0.26804	0.14618	0.10758	0.18951	0.23997	0.2075	0.29628	0.16444	0.25068	0.22842	0.11514	0.16876	0.20622	0.0063656	0.12587	-2.4417	-3.4104	-2.5583	-3.3208	-3.175	-2.6375	-3.3854	-2.9229	-2.7833	-3.3875	-2.7625	-3.2021	-3.3208	-2.7417	-3.3958	-3.0125	149.173	184.038	162.281	-39.527	240.406	261.666	230.687	230.101	248.733	66.379	-32.791	-28.747	165.865	178.507	227.183	21.456	0.00031144	0.001564	0.00080591	644.89	1.1053e-05	1.317e-05	962.19	215.07	3.3236e-05	4.729e-05	353.17	124.22	75.212	32.746	3.3124e-05	47.663	0.031302	0.036305	0.010149	1335.1	0.00039177	0.00039628	1475	403.96	0.00038595	0.00039723	663.24	231.96	175.4	66.976	0.00039019	93.855	-76.197	190.982	192.389	-71.129	-72.019	83.628	-71.144	-67.011	68.704	137.977	-68.870	-64.937	-64.930	-60.719	131.561	-62.109	-8191	255	
21668.291	1	1	0	0	0.23991	0.15583	0.08567	0.33185	0.042843	0.37197	0.2078	0.16812	0.045707	0.14817	0.10506	0.18407	0.14591	0.094113	0.13838	0.18939	-2.2854	-3.3875	-2.6125	-2.9375	-3.4125	-2.5062	-3.5333	-3.1958	-2.5854	-3.3167	-2.925	-3.0229	-3.2375	-2.6521	-3.2458	-3.1312	48.905	227.814	63.541	238.453	101.989	-52.856	207.854	217.529	36.917	253.352	267.764	-26.741	149.720	211.191	-13.082	-81.000	0.00032795	0.0036315	0.00061714	642.55	2.1592e-05	6.952e-05	970.87	218.14	2.8413e-05	4.3946e-05	353.14	123.36	75.252	32.5	2.2661e-05	47.212	0.030898	0.03588	0.010015	1325.3	0.00038333	0.00039277	1468.1	400.85	0.00037916	0.00039082	659.01	229.42	174.1	66.406	0.00038236	92.32	272.742	162.905	268.882	-71.421	267.645	246.590	-71.486	-66.761	139.512	24.839	-69.042	-65.025	-64.467	-60.569	174.137	-62.912	-8191	255	
21668.387	1	1	0	0	0.023568	0.088302	0.039976	0.24202	0.03361	0.1476	0.26371	0.11078	0.11194	0.13043	0.11312	0.20649	0.23309	0.30595	0.051675	0.14589	-2.3812	-3.4125	-2.8563	-2.8937	-3.3521	-2.5729	-3.2167	-3.1479	-2.7167	-3.5125	-2.9292	-2.9354	-3.4271	-2.7438	-3.2208	-3.3521	-12.555	223.732	17.779	-61.078	-34.626	112.720	246.533	-71.094	273.422	272.588	100.650	150.837	197.484	206.996	185.717	-13.844	0.00092419	0.00078597	0.00048198	648.85	4.545e-05	6.2527e-05	970.31	213.82	5.5905e-06	7.0863e-05	359.15	124.38	74.573	33.374	4.8727e-05	46.927	0.030167	0.035071	0.0098351	1312.8	0.00037973	0.00038831	1468.2	400.21	0.0003795	0.0003923	662.03	231.69	174.72	67.119	0.00038967	93.3	43.103	251.093	-34.403	-70.335	28.264	261.649	-71.377	-66.966	108.461	-32.912	-69.166	-65.580	-65.012	-59.839	93.356	-62.848	-8191	255	
21668.482	1	1	0	0	0.34696	0.14985	0.044178	0.21297	0.04113	0.2918	0.22873	0.20449	0.20279	0.048935	0.097261	0.13496	0.1204	0.16691	0.10668	0.31118	-2.2062	-3.3167	-2.9542	-2.7188	-3.4604	-2.7271	-3.1937	-3.2812	-2.6646	-3.3458	-3.2208	-2.9625	-3.4125	-2.8646	-3.0604	-3.4104	-34.854	43.333	165.766	241.970	178.479	184.521	127.363	154.536	166.362	107.616	237.482	9.382	234.197	183.836	-32.295	250.369	0.00036622	0.0018896	0.00086615	646.68	5.6852e-05	1.3099e-05	973.56	216.55	3.3131e-06	3.1965e-05	362.34	123.12	74.663	32.937	2.9604e-05	47.235	0.030529	0.035433	0.0098689	1314.5	0.00037748	0.00038446	1462.2	396.71	0.00037171	0.0003826	651.34	227.62	171.44	65.672	0.00037803	92.091	-74.255	192.030	-13.771	-70.865	42.939	-79.970	-71.270	-67.589	-75.450	-22.537	-68.147	-65.385	-64.020	-59.870	272.984	-62.145	-8191	255	
21668.604	1	1	0	0	0.12172	0.18302	0.14433	0.16455	0.082537	0.26119	0.24013	0.14578	0.37586	0.18462	0.13396	0.060872	0.074578	0.24568	0.12174	0.24153	-2.2875	-3.2583	-3.05	-2.4375	-3.4458	-2.7333	-3	-3.3688	-2.5625	-3.2125	-3.2979	-2.6312	-3.5667	-2.9354	-2.7792	-3.4354	8.267	37.524	250.295	226.365	37.136	23.610	255.463	214.314	-27.604	243.131	207.823	202.769	200.862	-82.045	272.660	235.114	0.00029135	0.0015326	0.0013086	661.94	4.1379e-05	0.00010254	973.58	216.29	1.6283e-05	3.4146e-05	360.5	124	74.729	33.003	4.0897e-05	46.829	0.029744	0.034756	0.0097197	1309.7	0.00037626	0.00038478	1465.6	399.53	0.00037633	0.00038821	658.77	229.67	173.89	66.484	0.00038741	93.01	260.127	99.801	205.914	-70.127	220.968	120.699	-70.878	-66.708	27.905	36.995	-68.114	-65.566	-63.944	-59.786	2.212	-62.271	-8191	255	
21668.676	1	1	0	0	0.32343	0.24879	0.069128	0.18266	0.13783	0.10096	0.23548	0.024511	0.13057	0.17628	0.093808	0.29886	0.17798	0.15338	0.096491	0.29806	-2.2771	-3.0333	-3.1333	-2.6083	-3.475	-3.1208	-2.9396	-3.3708	-2.6729	-3.1104	-3.3521	-2.6646	-3.3958	-2.9938	-2.6583	-3.4292	163.186	-31.120	-54.683	-15.719	154.678	266.814	200.671	269.214	3.161	156.762	-50.933	245.736	232.774	-48.675	256.407	125.826	0.00072743	0.0017807	0.0010322	645.57	3.1775e-05	2.1699e-05	973.28	216.01	2.4914e-05	1.3246e-05	358.34	123.56	74.594	32.879	1.9028e-05	47.085	0.030487	0.035528	0.0099142	1321.5	0.00038113	0.00038902	1470.2	400.64	0.00037657	0.00038894	655.98	229.32	173.03	66.165	0.0003835	92.572	-53.071	2.119	200.722	-71.461	265.864	83.826	-70.725	-67.157	58.618	77.721	-68.359	-65.409	-63.993	-60.042	21.672	-61.999	-8191	255	
21668.797	1	1	0	0	0.19469	0.074325	0.22278	0.056424	0.13269	0.12944	0.46186	0.30635	0.095951	0.049475	0.24852	0.24835	0.083723	0.11343	0.20222	0.20061	-2.3063	-3.0812	-3.3187	-2.7958	-3.3	-2.9083	-2.8083	-3.3458	-2.6917	-2.9	-3.3312	-2.525	-3.3208	-3.0375	-2.7375	-3.4833	6.770	79.589	36.479	22.523	219.475	234.175	219.725	222.285	-26.929	14.102	240.243	251.439	270.934	175.003	74.641	251.241	0.00015618	0.0022488	0.0016704	649.4	1.7797e-05	3.4283e-05	977.07	215.7	2.7238e-05	3.4405e-05	356.77	125.61	76.803	33.12	3.5412e-05	47.913	0.030239	0.035177	0.0098643	1318.7	0.00037832	0.00038669	1472.9	399.05	0.00037623	0.00038718	656.5	229.64	173.15	65.923	0.0003786	92.389	151.058	134.360	272.185	-69.746	66.770	176.631	-70.616	-66.407	260.599	-38.818	-68.384	-64.989	-63.779	-59.897	59.133	-62.713	-8191	255	
21668.893	1	1	0	0	0.052855	0.062252	0.26878	0.19955	0.15754	0.20622	0.36028	0.27826	0.074118	0.071529	0.12955	0.21991	0.37672	0.22416	0.029595	0.20096	-2.5	-2.7938	-3.3771	-2.6646	-3.3688	-3.2708	-2.7417	-3.55	-2.9667	-2.8583	-3.5625	-2.6937	-3.1562	-3.2417	-2.6271	-3.5125	-79.523	-10.677	-49.969	-17.373	-67.401	196.112	212.322	228.218	-79.558	173.758	-55.706	244.787	220.163	231.732	269.413	212.930	0.00016651	0.0040384	0.00037873	655.68	1.5618e-05	5.1655e-05	984.54	218.7	4.7227e-05	3.7908e-05	359.16	124.13	77.213	34.147	2.6776e-05	48.754	0.029709	0.034487	0.009632	1299.9	0.00036628	0.00037058	1442.9	387.66	0.00034912	0.00035718	628.49	216.96	161.95	62.324	0.00033	86.013	-39.094	216.028	23.751	-71.197	38.688	49.135	-70.805	-66.122	238.453	6.208	-68.612	-65.761	-63.509	-60.470	-9.767	-62.047	-8191	255	
21668.988	1	1	0	0	0.076652	0.07185	0.092116	0.13097	0.19606	0.22291	0.25676	0.1568	0.18353	0.23089	0.19992	0.24406	0.03703	0.13229	0.28507	0.1915	-2.4313	-2.9146	-3.4625	-2.7229	-3.1729	-3.2125	-2.7896	-3.5375	-2.9562	-2.7208	-3.4167	-2.8146	-3.0396	-3.4188	-2.625	-3.2854	188.269	242.368	-38.739	111.010	213.294	-74.096	166.649	170.116	229.947	226.617	256.461	220.778	227.450	212.316	70.499	201.391	1.965e-05	0.0051665	0.00080164	668.05	1.3607e-05	3.8618e-05	989.37	219.82	1.5628e-05	1.8918e-05	365.06	124.73	75.731	33.853	4.483e-05	49.185	0.025213	0.029053	0.0079831	1173.7	0.00030137	0.00030585	1347.2	355.72	0.00029321	0.00030398	584.98	203.51	150.7	58.903	0.00030081	83.227	41.538	47.860	61.493	-71.126	-59.970	100.402	-70.789	-66.248	-64.882	112.966	-68.567	-65.202	-63.915	-60.237	126.455	-61.379	-8191	255	
21669.086	1	1	0	0	0.21496	0.23583	0.29582	0.16484	0.1415	0.19203	0.26767	0.13011	0.096159	0.21205	0.1541	0.24155	0.15588	0.26135	0.28889	0.0579	-2.6375	-2.5583	-3.4104	-2.7896	-2.8667	-3.2708	-2.6813	-3.3563	-2.9896	-2.6667	-3.4875	-2.8042	-2.8292	-3.4271	-2.8271	-3.2271	-50.728	12.756	160.763	-23.281	28.704	236.318	165.842	190.930	-81.690	177.809	-50.843	171.070	8.127	52.255	164.068	-11.274	0.00025709	0.0028335	0.00093196	662.34	3.6367e-05	3.9592e-05	998.53	221.24	7.2623e-06	1.4514e-05	364.08	126.44	76.214	33.852	3.0381e-05	49.007	0.023883	0.0279	0.0077816	1165.6	0.0003033	0.00030794	1362.2	361.02	0.00030071	0.00031191	596.35	208.03	154.73	60.184	0.00031465	85.006	139.497	119.935	217.868	-70.773	274.706	108.902	-70.752	-66.249	24.041	213.955	-67.863	-64.943	-63.099	-59.523	-57.444	-62.617	-8191	255	
21669.203	1	1	0	0	0.19708	0.28506	0.40385	0.11282	0.20402	0.14752	0.16815	0.35249	0.37105	0.3705	0.080664	0.32499	0.21639	0.25825	0.2115	0.12225	-2.8104	-2.5167	-3.4125	-2.9021	-2.7292	-3.4021	-2.7833	-3.1625	-3.1792	-2.5104	-3.5167	-2.9167	-2.9104	-3.4062	-2.5958	-3.0875	219.412	45.597	175.521	190.023	41.973	209.461	211.232	249.241	255.510	-77.894	-78.763	-69.850	182.677	91.348	193.576	226.758	0.00018721	0.0030332	0.0011514	662.96	2.1528e-05	5.0591e-05	997.82	219.19	2.5093e-05	2.0759e-05	362.52	126.01	76.863	34.491	8.2585e-05	49.255	0.024882	0.029131	0.0081435	1196.5	0.00031645	0.00032362	1385.2	367.83	0.00031374	0.00032366	604.21	210.07	155.51	60.837	0.00031365	85.179	42.251	40.036	-13.167	-70.565	143.357	160.099	-71.295	-66.434	-73.397	153.792	-68.733	-65.528	-64.147	-60.348	43.630	-61.985	-8191	255	
21669.301	1	1	0	0	0.11781	0.11048	0.019313	0.12362	0.20843	0.035569	0.37816	0.070286	0.14879	0.25843	0.086142	0.2251	0.036613	0.17029	0.011713	0.091361	-2.6042	-2.6083	-3.4854	-2.9958	-2.7292	-3.4146	-3.0292	-3.1417	-3.2583	-2.7167	-3.5563	-3.3	-2.6396	-3.5792	-2.8021	-3.0458	123.765	112.741	127.995	-80.546	50.820	227.612	249.003	-81.850	251.734	-4.495	-41.991	76.907	-31.662	-74.403	-3.539	273.235	0.00030707	0.00093952	0.0015261	661.55	2.9081e-05	3.0843e-05	992.06	220.82	1.817e-05	1.2669e-05	363.73	124.61	77.235	34.582	5.2495e-05	49.364	0.024694	0.028903	0.0081158	1196.6	0.00031589	0.00032213	1383.7	368.37	0.00031791	0.00032968	612	212.81	159.19	62.299	0.00033073	87.227	-17.827	102.557	-40.094	-70.451	154.520	164.411	-70.963	-66.647	211.229	-82.572	-68.172	-64.685	-64.203	-60.152	-21.539	-62.463	-8191	255	
21669.371	1	1	0	0	0.20177	0.23314	0.1572	0.086112	0.21564	0.070059	0.34405	0.14498	0.28572	0.20059	0.18341	0.093531	0.3	0.1521	0.11786	0.18419	-3.275	-2.5521	-3.4104	-2.9896	-2.7917	-3.4062	-3.0125	-2.9813	-3.3937	-2.4896	-3.2896	-3.225	-2.9021	-3.3875	-3.0229	-2.9917	146.940	169.894	203.658	67.393	148.794	251.567	249.056	200.225	190.439	53.547	147.817	-53.955	201.052	241.287	-18.965	219.112	0.00016277	0.0025646	0.00022292	669.54	1.6723e-05	8.1111e-05	993.84	220.39	6.7653e-06	3.275e-06	362.02	124.53	76.604	33.721	2.2818e-05	48.574	0.026361	0.030834	0.0086317	1238.6	0.00033635	0.00034416	1414.6	380.59	0.00033777	0.00035104	629.9	218.51	164.92	63.507	0.00035036	89.101	171.415	-47.791	26.698	-70.501	78.687	38.104	-70.914	-66.879	-81.776	254.159	-68.289	-65.156	-63.762	-60.406	148.810	-61.634	-8191	255	
21669.492	1	1	0	0	0.11237	0.056845	0.17241	0.17856	0.10639	0.1173	0.22197	0.17923	0.12233	0.10831	0.17308	0.29319	0.37127	0.20989	0.071391	0.35893	-3.1958	-2.6667	-3.1771	-3.3688	-2.5521	-3.3646	-3.0667	-3	-3.2833	-2.825	-3.2208	-3.3042	-2.7604	-3.3104	-3.0917	-2.8458	-4.038	-2.852	-81.783	240.176	220.170	-14.814	243.986	238.808	-18.627	199.684	-65.785	241.704	207.595	267.729	-83.396	197.163	0.00049567	0.0026711	0.00029068	662.97	4.9051e-05	1.717e-05	999.19	218.99	3.1824e-05	2.0026e-05	360.74	124.81	75.42	34.059	3.3784e-05	48.219	0.027705	0.032256	0.0090509	1265.4	0.00035276	0.00036023	1440.3	389.19	0.00035575	0.00037075	646.47	225.8	170.73	66.001	0.00037252	92.225	130.850	117.862	-62.307	-69.443	-47.983	103.165	-71.160	-66.280	33.385	246.763	-68.884	-65.429	-63.565	-59.466	-60.683	-62.518	-8191	255	
21669.588	1	1	0	0	0.071222	0.14833	0.36163	0.085824	0.080884	0.078172	0.064432	0.15678	0.087495	0.15969	0.18716	0.1822	0.14923	0.24087	0.099534	0.25534	-3.0771	-2.7896	-2.9875	-3.3667	-2.7417	-3.4833	-3.3187	-2.8458	-3.5167	-2.7958	-3.1375	-3.3771	-2.6021	-3.5125	-3.1542	-2.8312	43.882	9.904	50.254	217.886	260.903	176.543	-38.982	-22.062	58.535	46.369	253.256	146.360	242.138	-71.526	62.548	212.182	0.00055652	0.002952	0.00076614	660.46	7.6262e-06	3.095e-05	992.1	218.36	3.7797e-05	5.8374e-05	359.22	123.76	76.025	34.196	5.4616e-05	48.547	0.029542	0.034229	0.0095684	1303.9	0.00037011	0.00037641	1466	394.41	0.00036577	0.00037898	652.08	227.32	172.86	67.118	0.00038219	93.721	-29.636	273.150	70.024	-70.749	131.941	211.493	-71.046	-66.674	94.970	186.439	-69.119	-65.667	-63.268	-59.788	271.562	-62.812	-8191	255	
21669.684	1	1	0	0	0.15803	0.046804	0.11478	0.19932	0.097081	0.37216	0.12993	0.13705	0.16358	0.1148	0.26981	0.059245	0.027606	0.25543	0.1785	0.098631	-3.2188	-2.9021	-2.9854	-3.3875	-2.7687	-3.3063	-3.3479	-2.7687	-3.4146	-2.8979	-3.0708	-3.3563	-2.7062	-3.15	-3.1688	-2.8125	-45.930	23.596	181.215	-80.587	4.037	258.844	173.525	-60.239	-31.095	-24.692	211.495	252.306	27.736	167.606	147.430	35.415	0.00049246	0.0031583	0.001179	662.17	3.4839e-05	2.1152e-05	985.15	216.87	2.7997e-05	3.005e-05	352.24	122.22	74.905	34.076	2.9744e-05	47.708	0.030488	0.035502	0.0099683	1331	0.00038388	0.00039152	1484.9	402.24	0.00037987	0.00038953	657.08	228.27	171.68	66.335	0.00037356	91.71	168.460	210.257	146.030	-70.605	5.509	6.139	-70.946	-66.636	244.740	168.888	-68.643	-65.368	-63.602	-60.068	205.764	-62.890	-8191	255	
21669.779	1	1	0	0	0.18226	0.22656	0.21215	0.11479	0.19607	0.17752	0.17256	0.15004	0.17924	0.15439	0.087714	0.2566	0.17957	0.15717	0.13729	0.15631	-2.8646	-3.0271	-2.7125	-3.3479	-2.7	-3.0292	-3.3375	-2.6979	-3.2229	-3.2687	-2.8292	-3.5583	-2.7792	-2.8542	-3.3875	-2.7396	-19.429	15.889	134.984	64.414	94.793	37.230	152.376	233.563	201.701	43.329	51.467	266.701	214.183	129.484	119.095	258.392	0.00021259	0.0058555	0.00058522	666.4	2.019e-05	4.2758e-05	973.21	214.7	4.7412e-05	4.5854e-05	355.1	121.62	75.177	33.712	3.2372e-05	48.016	0.029183	0.033584	0.0093457	1279.6	0.00035732	0.00036459	1434.4	386.06	0.00035155	0.00036396	634.08	219.9	166.49	64.611	0.0003612	89.969	5.557	241.504	0.203	-70.273	181.948	-57.338	-71.213	-66.711	14.881	95.807	-68.970	-65.176	-64.351	-59.542	-50.405	-62.027	-8191	255	
21669.900	1	1	0	0	0.092812	0.29654	0.0794	0.047849	0.15536	0.16668	0.28514	0.3472	0.10596	0.06233	0.10839	0.19882	0.07274	0.18726	0.15775	0.25439	-2.9688	-3.2062	-2.5125	-3.2812	-2.6792	-3.0958	-3.4104	-2.5604	-3.1979	-3.2292	-2.6417	-3.375	-2.9688	-2.95	-3.3063	-2.7687	205.097	177.764	41.927	111.996	83.217	164.520	133.731	202.736	-35.071	167.839	224.931	206.001	217.570	-64.524	11.580	160.643	0.00019443	0.003952	0.0006214	665.78	4.9129e-05	5.1024e-05	972.95	215.9	2.4516e-05	5.6785e-05	351.74	122.33	74.951	34.034	1.6163e-05	47.671	0.028599	0.033071	0.0092998	1279.1	0.00035637	0.00036329	1429.6	383.22	0.00034809	0.00035794	625.56	216.3	162.88	63.794	0.00034543	88.499	-67.226	211.148	130.208	-70.294	-44.095	175.621	-71.173	-66.256	105.718	61.363	-68.134	-65.363	-63.616	-60.005	-44.703	-62.824	-8191	255	
21669.973	1	1	0	0	0.23615	0.097511	0.12235	0.15031	0.27567	0.097693	0.045724	0.075905	0.16937	0.16276	0.32314	0.09645	0.34354	0.35222	0.15648	0.10038	-2.7021	-3.2229	-2.7458	-3.325	-2.9875	-2.8104	-3.6396	-2.7458	-3.0417	-3.1604	-2.8271	-3.3937	-3.0146	-2.9729	-3.3729	-3.0083	257.920	68.537	-9.263	209.912	210.639	-56.869	249.498	121.339	-22.518	102.072	217.771	125.837	-71.682	-60.827	50.634	261.742	0.00085636	0.002936	0.0012096	660.28	4.675e-05	3.0374e-05	962.09	211.33	3.7902e-05	3.3101e-05	351.05	119.21	74.799	34.423	4.4238e-05	48.134	0.027437	0.032046	0.0090402	1262	0.00035315	0.00036703	1446.2	392.86	0.00037634	0.00039284	664.81	232.2	180.34	70.656	0.00041261	96.949	-60.961	-27.644	232.103	-71.345	143.675	275.339	-70.864	-65.980	4.579	128.159	-68.131	-65.268	-64.503	-60.364	160.604	-62.871	-8191	255	
21670.068	1	1	0	0	0.30813	0.30366	0.085517	0.19453	0.075392	0.3319	0.18881	0.065577	0.063063	0.31678	0.10562	0.10387	0.041856	0.22781	0.14687	0.23058	-2.6937	-3.1792	-2.55	-3.3542	-2.9938	-2.8167	-3.3958	-2.7208	-2.6667	-3.175	-2.6354	-3.1604	-3.2042	-2.8625	-3.3146	-2.8187	196.227	-40.457	225.941	199.260	183.098	36.501	146.092	-27.771	162.745	164.070	50.044	69.560	109.679	261.136	202.349	202.563	0.00029537	0.0026736	0.00067789	643.76	2.7191e-05	1.7587e-05	966.71	210.27	3.6848e-05	1.8941e-05	348.13	119.96	74.252	34.777	8.0546e-05	48.972	0.031939	0.036582	0.010072	1318.8	0.00037106	0.00037033	1420.6	377.37	0.00033821	0.00034285	605.32	208.92	157.53	62.39	0.00032876	86.349	266.216	-6.382	55.657	-71.208	220.912	5.628	-71.218	-66.755	-40.251	261.718	-68.443	-65.210	-63.572	-60.141	58.696	-62.314	-8191	255	
21670.164	1	1	0	0	0.44217	0.09283	0.11905	0.26571	0.08862	0.071349	0.17471	0.15815	0.27006	0.069549	0.11384	0.22514	0.11555	0.11155	0.12887	0.39277	-2.3271	-3.2792	-2.4604	-3.3229	-3.2938	-2.7229	-3.4708	-2.9417	-2.7708	-3.4833	-2.7146	-3.1813	-3.1021	-2.4917	-3.1979	-2.9458	-74.889	70.555	171.795	1.871	160.804	68.674	223.359	-58.589	160.893	193.223	210.265	236.416	107.020	64.161	20.291	-8.151	0.00018909	0.0012552	0.00075786	653.34	2.9822e-05	4.6727e-05	958.82	214.79	2.9923e-05	1.8123e-05	351.77	120.14	74.613	34.917	2.0689e-05	48.824	0.025899	0.030201	0.0084367	1205.1	0.00032506	0.00033074	1363.8	363.24	0.00031255	0.00031951	586.8	202.37	151.64	60.314	0.00030414	83.592	-49.680	122.617	154.452	-70.250	53.846	-28.788	-70.636	-66.392	-42.445	213.968	-68.787	-64.930	-62.954	-60.731	48.166	-61.504	-8191	255	
21670.283	1	1	0	0	0.11378	0.076756	0.25907	0.14757	0.19183	0.26263	0.25998	0.18051	0.11788	0.10468	0.11353	0.38308	0.031033	0.22233	0.19358	0.28083	-2.4333	-3.4562	-2.4292	-3.0333	-3.2458	-2.5438	-3.5125	-3.0333	-2.825	-3.2375	-2.6854	-3.0625	-3.3937	-2.4688	-3.3125	-3.0917	3.849	-45.344	31.628	-58.319	239.180	168.303	207.411	126.791	150.856	189.215	203.024	200.728	141.628	-59.426	-0.751	206.093	0.00041	0.0048548	0.00042413	657.74	3.0771e-05	4.3732e-05	972.12	212.89	3.9679e-05	2.8301e-05	350.91	119.71	75.028	34.909	1.4086e-05	48.748	0.024171	0.02822	0.0079391	1181.8	0.00031599	0.00032855	1377.5	370.13	0.00033472	0.00034672	615.91	214.65	163.34	64.814	0.00035081	89.635	2.487	8.742	88.263	-70.972	-82.188	214.238	-70.895	-66.332	95.896	178.871	-68.209	-65.159	-63.770	-59.857	-78.617	-61.717	-8191	255	
21670.381	1	1	0	0	0.09523	0.11487	0.19775	0.038754	0.16034	0.14479	0.26189	0.35772	0.34233	0.16675	0.20965	0.38408	0.055176	0.23418	0.081296	0.088134	-2.1521	-3.3729	-2.6708	-2.8646	-3.3271	-2.6333	-3.35	-2.9583	-2.6833	-3.4979	-3.0417	-2.7667	-3.5729	-2.7604	-3.3604	-3.2604	109.268	141.685	185.286	201.965	213.600	254.462	205.768	207.286	216.333	-16.743	248.105	227.835	195.210	100.155	229.636	182.442	0.00036656	0.0040524	0.0011103	652.23	3.289e-05	3.3482e-05	963.78	211.49	1.2177e-05	6.4562e-05	347.3	117.54	73.249	34.47	2.2523e-05	48.693	0.027616	0.032184	0.0089713	1250.3	0.0003462	0.00035255	1408.6	378.72	0.00035112	0.00036536	630	220.07	167.41	65.875	0.00036866	91.811	128.288	84.377	248.918	-70.436	267.169	201.111	-70.938	-66.109	84.649	-67.404	-67.979	-64.653	-63.791	-59.744	133.215	-62.794	-8191	255	
21670.477	1	1	0	0	0.077423	0.12983	0.22205	0.16396	0.14832	0.19487	0.10281	0.19228	0.047583	0.070114	0.079803	0.38083	0.3357	0.23931	0.071821	0.16982	-2.2958	-3.45	-2.7396	-2.7812	-3.3208	-2.8	-3.2229	-3.2479	-2.6063	-3.3521	-2.9271	-2.5875	-3.2417	-2.7083	-3.0521	-3.1208	-2.035	54.140	233.213	121.766	269.636	117.517	240.906	137.541	79.472	49.497	-11.695	203.786	203.425	265.450	-1.627	242.396	0.00029126	0.0038137	0.001317	637.14	2.2565e-05	2.0948e-05	949.3	212.32	6.1442e-05	8.7976e-06	350.95	120.33	73.848	34.786	3.937e-05	48.854	0.028859	0.033387	0.0092483	1255.8	0.00034914	0.00035394	1389.8	374.46	0.0003366	0.00034879	612.43	212.32	160.35	63.476	0.0003416	88.627	187.056	122.633	171.482	-70.203	102.360	129.769	-70.716	-66.656	180.352	-55.914	-68.428	-64.746	-63.394	-59.863	157.484	-62.416	-8191	255	
21670.572	1	1	0	0	0.20501	0.10723	0.085339	0.02537	0.11593	0.044482	0.28446	0.17927	0.27972	0.10998	0.30117	0.3407	0.15149	0.24936	0.070887	0.039656	-2.1896	-3.2021	-2.7104	-2.675	-3.4	-2.8417	-3.1771	-3.3667	-2.6562	-3.3833	-3.2	-2.8063	-3.3812	-2.7	-2.7333	-3.3021	185.744	274.606	117.064	-37.924	77.323	238.522	227.510	166.805	170.361	81.618	194.396	-55.291	144.242	273.471	150.114	-56.700	0.00037309	0.002621	0.0010345	640.89	3.7748e-05	2.3446e-05	958.38	211.9	4.3181e-06	3.8673e-05	348.19	119.96	75.207	35.224	2.7367e-05	49.454	0.026975	0.031471	0.0087992	1229.1	0.00033732	0.00034237	1382.7	370.34	0.00032886	0.00033715	603.81	208.96	158.14	62.486	0.00032533	86.742	229.371	57.364	229.508	-71.007	103.807	31.148	-70.865	-66.340	79.744	227.580	-68.479	-64.575	-63.026	-60.642	-17.456	-61.954	-8191	255	
21670.670	1	1	0	0	0.19343	0.36299	0.146	0.1237	0.11517	0.18231	0.43924	0.17705	0.18695	0.33822	0.26859	0.30655	0.21274	0.056229	0.17061	0.1855	-2.1375	-3.2229	-3.1208	-2.6792	-3.3312	-2.7354	-2.9271	-3.3771	-2.6354	-3.25	-3.4104	-2.7375	-3.3438	-2.9833	-2.7104	-3.3563	-63.088	-23.879	-9.233	174.903	47.738	-72.249	275.698	-13.359	258.974	126.968	265.976	197.900	243.134	-74.017	26.384	-50.621	0.00010608	0.0016292	0.001516	655.71	4.8102e-05	1.5809e-05	970.8	215.19	1.7779e-05	2.2744e-05	356.28	121.06	75.462	35.112	1.9412e-05	49.028	0.025567	0.029756	0.0083288	1197.1	0.00032217	0.0003283	1373.7	368.4	0.00032265	0.00033283	603.84	209.23	157.94	62.479	0.00032686	86.964	-58.081	87.793	141.420	-71.291	16.337	57.812	-70.616	-66.139	169.828	73.929	-68.242	-64.507	-63.221	-60.556	84.866	-61.939	-8191	255	
21670.766	1	1	0	0	0.065454	0.16058	0.13263	0.11883	0.12453	0.088787	0.086854	0.08158	0.090974	0.048717	0.19444	0.36809	0.13412	0.32034	0.15468	0.19517	-2.2229	-3.1396	-3.2438	-2.725	-3.4313	-2.8667	-2.9042	-3.3354	-2.7958	-3.0479	-3.2167	-2.6208	-3.4542	-3.0938	-2.6917	-3.5875	-73.803	227.455	49.437	5.258	30.346	143.201	177.453	242.195	-72.598	-42.312	195.510	237.335	-16.358	171.179	-44.876	193.292	0.00086104	0.0050875	0.001119	652.15	3.6671e-05	1.6593e-06	972.83	216.72	2.2873e-06	3.0717e-05	355.82	121.44	75.018	35.099	1.4085e-05	49.151	0.025762	0.02999	0.0084494	1205.5	0.00032532	0.000331	1374.4	367.64	0.00031849	0.00032997	602.11	208.5	155.97	61.676	0.00032142	85.891	3.708	82.373	34.331	-70.000	-63.315	199.213	-70.511	-66.402	156.151	223.175	-67.892	-64.532	-62.628	-60.266	169.782	-63.039	-8191	255	
21670.885	1	1	0	0	0.15873	0.093378	0.18063	0.031762	0.28145	0.16253	0.32383	0.12273	0.065876	0.30374	0.24429	0.22011	0.38503	0.083277	0.12343	0.028612	-2.4021	-2.9333	-3.2625	-2.7021	-3.2958	-3.1813	-2.8042	-3.4354	-2.5792	-2.8542	-3.4083	-2.4896	-3.2417	-3.2042	-2.6167	-3.4396	68.363	93.884	74.558	19.958	-0.461	40.905	-70.091	122.329	233.271	-25.358	-76.887	109.173	214.289	231.206	-31.427	165.818	0.00018192	0.0053688	0.0012895	648.68	3.1423e-05	2.3124e-05	970.74	215.76	2.5947e-05	3.8727e-05	359.16	121.34	74.69	34.907	1.3966e-05	49.986	0.025184	0.029578	0.0082619	1194.8	0.0003191	0.00032695	1367.2	365.68	0.00031433	0.00032578	602.41	207.56	155.34	61.558	0.00032218	86.079	-57.221	-39.145	0.425	-70.970	-82.237	72.019	-71.113	-66.882	252.930	85.702	-68.458	-65.484	-62.999	-60.324	-42.668	-61.901	-8191	255	
21670.980	1	1	0	0	0.19655	0.18592	0.076647	0.13672	0.29715	0.0704	0.069686	0.27999	0.061777	0.12466	0.19699	0.092908	0.13636	0.24323	0.033916	0.21513	-2.4208	-2.7687	-3.2646	-2.675	-3.0292	-3.0167	-2.6583	-3.3271	-2.8438	-2.6479	-3.4104	-2.6562	-3.1083	-3.2604	-2.5104	-3.3583	-80.666	253.853	27.489	198.222	262.879	31.057	250.857	255.767	222.831	131.631	218.873	250.974	179.748	192.987	-15.553	237.136	0.00068982	0.0036513	0.00021417	639.57	3.2784e-05	1.234e-05	967.34	214.28	4.06e-05	9.873e-06	357.52	121.57	73.752	35.061	3.4741e-05	49.758	0.02526	0.029359	0.0081934	1181.7	0.00031492	0.00032108	1353.7	360.61	0.00030806	0.00031904	595.26	206.14	154.22	61.458	0.00031988	86.363	-77.333	36.823	-53.790	-70.965	18.353	-59.767	-70.721	-66.009	274.375	155.780	-68.381	-65.670	-62.695	-59.889	9.751	-62.390	-8191	255	
21671.076	1	1	0	0	0.33871	0.10086	0.1516	0.29172	0.17855	0.12459	0.21471	0.065061	0.25594	0.27727	0.19251	0.1546	0.3008	0.24761	0.28124	0.17992	-2.5375	-2.7208	-3.2771	-2.6063	-2.9729	-3.2667	-2.5187	-3.375	-3.1312	-2.6417	-3.4896	-2.7188	-2.9958	-3.2938	-2.6729	-3.2438	270.860	184.995	196.773	189.283	89.910	46.486	178.468	175.106	18.031	-44.940	258.543	213.469	222.853	186.967	-48.176	209.827	0.0005542	0.0028811	0.00059084	648.34	7.3387e-06	1.8471e-05	973.59	214.78	1.589e-05	1.3659e-05	362.85	124.44	76.448	34.112	5.1629e-05	50.495	0.025236	0.029487	0.0082253	1181.5	0.00031427	0.00031877	1349.5	359.99	0.00030468	0.00031279	590.56	203.59	150.1	59.086	0.00029474	82.849	156.261	9.670	-34.719	-70.919	-18.229	249.642	-71.393	-66.351	139.840	136.000	-68.325	-65.133	-63.081	-59.585	95.334	-61.956	-8191	255	
21671.197	1	1	0	0	0.11187	0.062425	0.10245	0.044082	0.19097	0.19025	0.21857	0.25804	0.27065	0.085585	0.056456	0.18105	0.11594	0.088348	0.085959	0.13991	-2.7542	-2.5542	-3.2438	-2.95	-2.9729	-3.4646	-2.9083	-3.3375	-3.2021	-2.6583	-3.5083	-2.9333	-2.7583	-3.4854	-2.3438	-3.1854	260.641	67.474	13.933	-74.445	47.689	148.809	138.306	157.078	59.675	163.860	-72.038	262.015	-64.524	180.320	158.746	162.128	0.00031089	0.0010096	0.00027738	643.32	2.8698e-05	1.4316e-05	976.75	221.98	2.9992e-05	8.654e-06	364.88	123.84	76.318	35.203	1.5351e-05	50.213	0.022801	0.026333	0.0073386	1114.7	0.00028559	0.00029058	1316.2	350.69	0.00028714	0.00029726	582.03	199.99	148.69	59.242	0.00029085	82.643	259.871	240.486	-27.587	-70.500	-2.763	-29.965	-70.449	-66.550	264.623	-51.168	-68.227	-65.075	-62.946	-60.177	-16.380	-62.629	-8191	255	
21671.268	1	1	0	0	0.056634	0.25381	0.12458	0.090219	0.0659	0.082717	0.05031	0.18944	0.11248	0.14018	0.095911	0.15396	0.038062	0.19172	0.043848	0.081422	-2.7938	-2.6937	-3.2646	-2.9771	-2.675	-3.3604	-2.7375	-2.8792	-3.1375	-2.7354	-3.3604	-2.8646	-2.8708	-3.5917	-2.5646	-3.1375	-20.325	186.000	134.654	33.598	58.269	218.359	121.722	207.145	60.621	70.240	91.856	-20.091	-32.110	273.935	132.776	140.748	0.0004687	0.0042938	0.001107	648.85	1.6008e-05	3.647e-05	979.41	218.41	2.3754e-05	2.1477e-05	366.65	123.59	77.581	35.38	2.8014e-05	50.685	0.02277	0.026366	0.0073259	1119.5	0.00028146	0.00028644	1307.9	346.52	0.00027947	0.0002882	576.92	198.52	147.96	58.97	0.00028633	82.466	71.201	-54.531	200.859	-70.846	73.742	-51.501	-70.519	-66.706	-27.145	132.163	-68.569	-65.113	-63.451	-59.941	55.365	-61.932	-8191	255	
21671.363	1	1	0	0	0.16575	0.1687	0.33463	0.18107	0.021709	0.28269	0.18992	0.074206	0.072656	0.094927	0.22883	0.31314	0.12779	0.19455	0.3617	0.12233	-3.0958	-2.5479	-3.1646	-3.2104	-2.7146	-3.2979	-2.9417	-2.975	-3.2938	-2.4708	-3.4437	-3.0396	-2.7104	-3.5917	-2.7562	-2.7875	-34.596	67.893	31.717	259.752	-38.959	-30.432	-45.651	-21.840	125.594	245.988	236.207	225.218	54.949	-84.526	-31.812	158.636	0.00025978	0.0018347	0.0014679	660.09	5.8061e-06	4.8144e-05	977.71	219.99	2.7848e-05	1.1895e-05	368.91	123.6	77.009	34.823	9.1383e-06	50.417	0.022715	0.026302	0.0072984	1123	0.00028053	0.00028378	1307.7	347.03	0.00027789	0.00028861	579.42	200.47	149.99	59.819	0.00030214	85.163	53.478	94.594	231.935	-71.655	88.865	28.620	-70.874	-67.347	11.444	251.996	-68.297	-65.538	-64.609	-60.385	201.403	-61.982	-8191	255	
21671.461	1	1	0	0	0.09511	0.2789	0.19848	0.21708	0.20258	0.15846	0.097723	0.20822	0.2192	0.17958	0.029336	0.087534	0.19344	0.23147	0.10874	0.062094	-2.9813	-2.5146	-3.0458	-3.3063	-2.5187	-3.2979	-2.8958	-2.7104	-3.4354	-2.6271	-3.1354	-3.3104	-2.5458	-3.3479	-2.9229	-2.4729	176.365	33.113	228.353	46.380	151.825	263.563	85.985	170.885	80.153	33.477	-29.596	-30.948	97.501	-34.090	51.758	252.813	0.00034852	0.003805	0.0011287	659.41	2.3199e-05	2.2684e-05	982.84	218.81	1.4746e-05	2.2301e-05	366.33	125.69	74.866	34.475	3.1871e-05	50.504	0.024379	0.028405	0.007956	1179.1	0.00030785	0.0003118	1344.2	357.88	0.00029476	0.00030057	583.58	201.18	146.89	57.833	0.00028201	81.468	274.459	28.504	89.889	-71.107	-73.670	166.608	-71.401	-67.230	128.817	21.441	-68.479	-64.831	-63.636	-60.336	66.136	-62.069	-8191	255	
21671.580	1	1	0	0	0.089481	0.16733	0.19644	0.20688	0.079441	0.06863	0.40308	0.18154	0.14989	0.13305	0.18056	0.35465	0.54539	0.30801	0.34837	0.27766	-2.9354	-2.6562	-2.9125	-3.1146	-2.7042	-3.2188	-3.0583	-2.7021	-3.2167	-2.7062	-2.9896	-3.3333	-2.5458	-3.3292	-3.1125	-2.6979	208.132	274.673	48.116	234.433	275.025	-55.087	205.575	133.091	250.126	6.683	245.029	-43.494	-83.816	-25.434	224.955	-73.186	0.00032127	0.0029014	0.0016169	651.52	5.5486e-06	2.9416e-05	981.19	219.4	1.2816e-05	5.2031e-05	367.89	126.62	76.553	34.777	3.1659e-05	50.792	0.022158	0.025762	0.0072197	1112.7	0.00027976	0.00028421	1307.5	347.87	0.00027543	0.00028075	572.57	197.33	144.05	57.168	0.00027295	80.622	92.921	40.999	156.037	-71.482	-34.819	75.224	-70.798	-66.878	53.668	55.745	-68.113	-65.564	-64.213	-60.626	12.755	-62.335	-8191	255	
21671.678	1	1	0	0	0.18883	0.1219	0.084064	0.060407	0.11022	0.068606	0.29863	0.061741	0.035552	0.084638	0.094725	0.13128	0.043924	0.19597	0.12059	0.1335	-2.8604	-2.725	-2.7958	-3.4604	-2.4979	-3.1	-3.1229	-2.6208	-3.4375	-2.7313	-2.8896	-3.2812	-2.525	-3.1479	-3.225	-2.7458	3.196	159.168	89.437	256.279	84.533	177.565	210.576	260.014	177.461	235.794	108.716	206.543	-70.878	197.968	98.827	247.452	0.00020744	0.0010872	0.00057014	657.69	3.8316e-05	3.3712e-06	989.26	221.32	1.1988e-05	1.5599e-05	370.21	126.37	76.827	35.608	4.0451e-05	50.678	0.02147	0.024913	0.00703	1107.5	0.00027355	0.00028194	1309.6	348.03	0.00027799	0.00028803	581.42	201.11	147.38	58.801	0.0002854	82.306	118.973	116.058	-60.298	-70.878	252.421	-28.426	-71.557	-66.514	148.974	208.909	-68.641	-65.333	-63.654	-60.142	-67.009	-62.962	-8191	255	
21671.773	1	1	0	0	0.11431	0.33588	0.073325	0.14854	0.13948	0.024321	0.10261	0.19161	0.28067	0.070805	0.16306	0.21819	0.10487	0.1625	0.12089	0.18878	-3.0208	-2.8187	-2.6375	-3.3667	-2.7271	-2.9583	-3.2375	-2.5563	-3.1708	-2.8833	-2.8354	-3.6	-2.7	-2.9313	-3.3104	-2.6937	272.502	64.576	254.497	201.390	-5.020	22.228	45.836	193.280	186.594	149.836	-64.649	107.464	258.264	237.214	33.433	218.804	0.00060485	0.0031652	0.0011644	659.47	2.5959e-05	3.1177e-05	985.07	222.09	4.3546e-05	4.6796e-06	370.29	127.2	75.932	34.906	2.1716e-05	50.853	0.022365	0.025876	0.0072837	1121.1	0.00027903	0.00028593	1317.8	349.07	0.00027939	0.00029047	580.42	201.14	147.62	58.406	0.00028579	82.362	263.001	-81.420	-10.959	-71.251	35.329	91.179	-71.353	-66.786	-2.194	-1.787	-68.751	-65.352	-63.405	-60.765	-34.079	-62.183	-8191	255	
21671.846	1	1	0	0	0.16207	0.081221	0.20408	0.2805	0.23913	0.16296	0.09349	0.13402	0.19301	0.14838	0.119	0.11133	0.1436	0.086938	0.070551	0.027184	-2.8229	-2.9875	-2.575	-3.5938	-2.5938	-2.7729	-3.3083	-2.6646	-3.1542	-3.0292	-2.6437	-3.4792	-2.6667	-2.9479	-3.4062	-2.7188	-84.599	20.720	229.750	-67.381	220.392	250.132	100.253	222.546	-38.803	-59.321	152.642	156.361	72.306	47.497	126.578	182.053	0.00037077	0.0037213	0.00052485	659.29	2.1242e-05	1.4599e-05	993.49	225.03	1.1869e-05	1.5823e-05	373.39	126.18	75.55	35.038	3.1924e-05	50.508	0.022521	0.026321	0.0073531	1130.2	0.00028199	0.00028875	1322.8	349.75	0.00027729	0.00028644	579.14	199.37	145.36	58.301	0.00028161	81.669	5.546	-66.170	265.857	-70.610	-1.780	188.324	-71.026	-66.635	155.961	146.947	-67.935	-65.100	-64.433	-60.261	135.130	-62.299	-8191	255	
21671.967	1	1	0	0	0.24441	0.14842	0.1392	0.20542	0.06916	0.16424	0.22609	0.10047	0.11784	0.2048	0.22092	0.054863	0.21221	0.11527	0.085419	0.27656	-2.7896	-3.0938	-2.4958	-3.3542	-3.0479	-2.7646	-3.4271	-2.4792	-3.1312	-3.1917	-2.5458	-3.3875	-2.925	-2.7958	-3.3208	-2.7792	187.796	139.410	-25.580	187.412	236.762	134.762	-42.823	119.627	221.350	-81.103	121.702	135.373	-27.095	189.298	150.107	95.715	0.00051071	0.0014725	0.00076836	664.79	1.7048e-05	8.1068e-05	984.94	222.34	4.5101e-06	4.9021e-05	369.49	125.3	76.599	35.068	2.4285e-05	50.98	0.022108	0.025546	0.0071854	1112	0.00027422	0.00028189	1309.6	345.5	0.00027273	0.00028238	573.31	198.27	144.86	57.94	0.00027872	81.314	200.661	56.801	-64.452	-70.427	180.171	-32.433	-71.135	-66.558	134.103	37.949	-67.987	-65.494	-64.059	-60.535	50.651	-62.082	-8191	255	
21672.062	1	1	0	0	0.27289	0.3158	0.046086	0.14943	0.21734	0.22177	0.17455	0.13488	0.1026	0.15324	0.18237	0.16325	0.16349	0.088936	0.06681	0.36008	-2.6375	-3.1521	-2.4979	-3.4354	-3.0583	-2.7562	-3.55	-2.7271	-2.8688	-3.15	-2.6354	-3.275	-3.0917	-2.7167	-3.4062	-2.9188	58.441	190.180	214.262	246.199	212.861	20.529	-83.223	-57.452	140.909	-68.903	140.545	251.216	47.048	237.218	110.957	226.122	0.00071522	0.0016396	0.0014913	657.92	3.514e-05	3.0994e-05	996.11	221.79	1.2696e-05	3.3382e-05	372.34	126.55	77.128	35.456	2.8631e-05	50.698	0.021856	0.025511	0.0071218	1109.5	0.00027261	0.00027905	1305.9	343.49	0.00026891	0.00027548	566.67	196.1	142.5	56.964	0.000265	79.707	185.805	251.687	108.099	-70.568	134.802	199.689	-71.321	-66.535	-36.046	88.589	-68.038	-65.229	-63.345	-60.350	185.310	-62.292	-8191	255	
21672.158	1	1	0	0	0.10929	0.1071	0.10132	0.16868	0.10324	0.077529	0.26107	0.26159	0.21441	0.10842	0.07702	0.12065	0.10085	0.21722	0.12296	0.053835	-2.3438	-3.1958	-2.5812	-3.2417	-3.0708	-2.7521	-3.3438	-2.7625	-2.7708	-3.275	-2.7479	-3.1688	-3.1792	-2.8646	-3.3167	-2.8917	208.884	192.681	241.498	219.898	210.323	109.874	185.232	162.202	-77.298	224.208	-40.710	200.640	50.906	256.103	155.568	-79.259	0.00039983	0.0031221	0.0017086	659.83	1.9308e-05	1.8346e-05	1002.6	222.18	1.2849e-05	3.5851e-05	373.84	127.04	77.622	35.598	2.2874e-05	51.159	0.020675	0.023973	0.0067011	1080.9	0.00025788	0.00026308	1287	337.49	0.00025728	0.0002642	558.43	193.26	141.09	56.571	0.00025965	79.61	88.836	40.005	83.711	-71.003	266.385	52.635	-71.022	-67.026	-84.062	135.821	-68.400	-65.304	-63.861	-59.583	136.991	-62.680	-8191	255	
21672.277	1	1	0	0	0.14262	0.055751	0.12644	0.052983	0.20458	0.15829	0.1656	0.2866	0.24516	0.38833	0.32623	0.088327	0.24383	0.26922	0.12376	0.24793	-2.2896	-3.3417	-2.4833	-3.1021	-3.1146	-2.5979	-3.525	-2.7917	-2.6479	-3.2958	-2.5958	-2.85	-3.1958	-2.65	-3.1896	-3.0563	224.105	-7.820	-65.982	194.604	262.731	-46.721	84.462	248.217	-40.653	53.827	-83.453	-80.508	179.062	245.292	-84.648	217.317	0.00015504	0.00424	0.00067231	657.91	3.375e-05	5.3207e-05	998.48	224.49	3.1012e-05	1.5037e-05	373.25	127.93	77.568	35.67	4.3688e-05	51.482	0.020584	0.02401	0.0066894	1083.7	0.00025871	0.00026326	1290.6	337.13	0.00025586	0.00026255	558.24	193.53	140.93	56.323	0.00025796	79.537	194.013	52.169	171.804	-70.519	118.975	-80.965	-70.693	-67.434	113.193	22.365	-68.082	-64.781	-64.199	-59.981	110.046	-62.579	-8191	255	
21672.373	1	1	0	0	0.15925	0.093547	0.16808	0.22549	0.29849	0.035705	0.29331	0.040716	0.25128	0.14	0.18078	0.1656	0.15397	0.31756	0.17273	0.26037	-2.2604	-3.2229	-2.7438	-2.8312	-3.1146	-2.5271	-3.4667	-3.2042	-2.6562	-3.425	-2.8167	-2.8542	-3.3688	-2.5875	-3.2417	-3.0375	-6.397	-8.825	198.820	245.150	81.890	57.663	267.659	171.953	22.067	58.026	217.025	264.157	-40.119	225.853	184.797	268.225	0.00033252	0.0015432	0.00048237	660.61	2.2334e-05	2.6862e-05	996.35	224.95	2.1332e-05	2.1328e-05	373.4	126.47	76.348	35.952	3.6103e-05	51.667	0.020492	0.023607	0.0065895	1079.4	0.0002554	0.00026191	1288.3	338.75	0.00026017	0.00027009	566.09	196.87	144.7	58.248	0.00027972	82.567	154.256	216.260	224.054	-70.544	157.728	68.624	-70.924	-66.763	-82.325	128.756	-68.711	-65.123	-63.493	-60.390	217.814	-61.937	-8191	255	
21672.469	1	1	0	0	0.06769	0.27549	0.16554	0.19563	0.077526	0.23961	0.35258	0.064242	0.094322	0.15962	0.24202	0.093829	0.17621	0.23424	0.37627	0.11287	-2.1208	-3.2875	-2.7125	-2.7271	-3.2958	-2.7042	-3.4083	-3.1562	-2.6	-3.3208	-2.7458	-2.8771	-3.3729	-2.6458	-3.075	-3.3604	175.343	69.950	14.892	-43.089	-25.189	130.895	-68.035	-9.884	-47.524	14.166	260.881	165.624	263.235	257.191	-4.930	-52.348	0.00030689	0.0020093	0.00073628	664.5	2.8141e-05	1.4774e-05	1004	222.33	3.7812e-05	3.2018e-05	373.15	126.43	77.936	35.964	1.4329e-05	50.844	0.02251	0.026188	0.0073607	1140.7	0.00028657	0.000292	1340.6	353.8	0.0002872	0.00029507	586.85	202.96	150.31	59.957	0.00029512	84.164	163.130	-12.292	199.149	-69.849	264.017	21.243	-70.529	-66.761	-72.154	0.701	-68.895	-65.479	-64.242	-60.608	256.924	-62.441	-8191	255	
21672.564	1	1	0	0	0.10058	0.087119	0.22212	0.1113	0.19306	0.087198	0.065592	0.081581	0.11456	0.2399	0.14371	0.23354	0.18053	0.070014	0.09344	0.2267	-2.2333	-3.225	-2.8854	-2.8917	-3.3187	-2.7604	-3.0458	-3.2896	-2.7146	-3.1813	-3.0312	-2.7313	-3.325	-2.7083	-2.7229	-3.2938	76.107	13.165	185.737	88.182	232.900	51.760	-56.826	127.089	148.753	202.253	184.055	231.581	224.890	186.361	140.952	188.928	0.00057382	0.0024394	0.00046619	658.08	1.0379e-05	6.3395e-05	992.09	222.96	1.5859e-05	3.6355e-05	369.71	126.4	76.875	35.369	2.5257e-06	51.125	0.023464	0.027493	0.007723	1168.4	0.00029985	0.00030383	1358.1	359.55	0.00029543	0.00030471	594.31	205.9	152.01	60.212	0.00030161	84.537	77.529	158.059	8.315	-70.989	-9.587	76.979	-70.764	-66.807	-32.326	-54.300	-69.089	-65.467	-63.687	-60.872	206.798	-62.472	-8191	255	
21672.660	1	1	0	0	0.19208	0.13841	0.1153	0.17196	0.27586	0.15778	0.038543	0.16338	0.13268	0.22697	0.1935	0.13945	0.28492	0.066487	0.10115	0.066827	-2.1729	-3.1312	-3.0667	-2.7542	-3.4437	-2.7375	-2.9938	-3.3875	-2.525	-3.2104	-3.1771	-2.6063	-3.1729	-2.9667	-2.825	-3.4708	184.624	35.881	240.039	260.205	196.854	79.285	175.861	-78.379	253.836	237.545	204.834	189.479	220.905	-54.689	10.996	202.092	0.00075299	0.0017766	0.0015838	656.59	5.8663e-06	2.9685e-05	997.96	223.61	7.177e-06	2.3469e-05	369.24	126.61	76.374	35.069	1.7257e-05	50.345	0.023711	0.027831	0.007802	1169.9	0.00029988	0.00030457	1355.9	358.8	0.00029423	0.00030299	592.56	205.19	151.55	59.952	0.00030093	84.098	258.271	38.081	-46.095	-70.934	71.786	116.772	-70.657	-66.513	42.543	1.402	-68.163	-65.919	-63.673	-60.206	268.334	-62.105	-8191	255	
21672.758	1	1	0	0	0.13686	0.21627	0.067435	0.24724	0.17001	0.25773	0.26815	0.08728	0.18603	0.15785	0.16676	0.037321	0.145	0.24405	0.048413	0.35183	-2.15	-3.0417	-3.1083	-2.6354	-3.4188	-2.8063	-2.9792	-3.4354	-2.8146	-3.1708	-3.3438	-2.5979	-3.3021	-2.8604	-2.5771	-3.4813	82.951	129.748	123.868	185.010	230.839	122.938	174.691	219.206	243.399	-66.588	10.560	-31.430	85.024	-71.371	-51.233	269.707	0.0003385	0.001253	0.00074433	658.35	1.7147e-05	3.1328e-05	993.66	219.3	3.417e-05	1.4703e-05	369.1	123.74	75.642	35.108	2.542e-05	49.859	0.023758	0.027725	0.0077283	1159.6	0.00029845	0.00030372	1353	358.51	0.00030027	0.00031484	600.3	208.59	155.67	61.378	0.00031637	85.706	263.492	185.084	45.821	-70.505	-81.710	144.447	-70.723	-67.109	-34.050	-17.501	-69.277	-65.222	-63.842	-60.524	-42.718	-62.158	-8191	255	
21672.879	1	1	0	0	0.18929	0.073376	0.2475	0.14311	0.10966	0.1978	0.47834	0.17686	0.34642	0.077356	0.11056	0.23807	0.12227	0.078744	0.16091	0.33564	-2.1292	-2.9979	-3.2708	-2.3854	-3.0667	-3.0854	-2.7417	-3.5438	-2.6208	-2.9875	-3.2271	-2.6937	-3.2438	-3.1042	-2.6	-3.3208	152.945	121.250	73.687	198.890	187.943	74.950	239.452	99.382	-9.140	265.801	226.862	-33.053	98.784	-39.343	219.678	251.265	0.00024567	0.0033067	0.00088571	652.78	4.593e-05	2.2718e-05	981.17	221.62	5.2456e-06	2.5132e-05	366.5	124.04	75.925	34.898	1.0317e-05	49.758	0.02477	0.028795	0.0080589	1183.6	0.0003118	0.00031662	1366.9	364.57	0.00031012	0.00032008	602.39	208.2	155.15	61.187	0.00031096	84.967	166.164	201.051	251.980	-70.901	75.708	49.547	-70.782	-66.873	193.040	54.664	-68.093	-65.178	-63.377	-60.973	252.728	-61.825	-8191	255	
21672.975	1	1	0	0	0.19012	0.072632	0.23486	0.26094	0.13625	0.31402	0.26159	0.17971	0.20017	0.23499	0.089707	0.24152	0.12142	0.090535	0.3031	0.13436	-2.3417	-2.9271	-3.325	-2.5396	-3.25	-3.0771	-2.6312	-3.4042	-2.7625	-2.8688	-3.5563	-2.6271	-3.1813	-3.2313	-2.5292	-3.2687	196.776	144.501	36.238	5.747	268.940	99.227	221.580	242.944	2.541	85.762	200.709	179.704	11.484	-56.573	-62.612	225.669	8.8059e-05	0.0033608	0.00094135	653.44	5.4185e-06	2.18e-05	980.14	219.68	8.6672e-06	3.3263e-06	365.93	123.74	75.525	34.615	3.1363e-05	50.2	0.024237	0.027981	0.0077689	1153.6	0.00029741	0.00030241	1337.3	355.19	0.00029297	0.00030249	586.1	201.95	148.94	58.921	0.000289	82.271	95.202	267.210	29.456	-69.841	163.852	-16.546	-70.860	-66.682	88.024	263.099	-68.557	-65.517	-63.569	-60.125	-36.916	-61.866	-8191	255	
21673.068	1	1	0	0	0.16691	0.23934	0.14707	0.2069	0.13704	0.081702	0.2853	0.24322	0.17608	0.25628	0.28473	0.26847	0.1256	0.21228	0.08729	0.30934	-2.2396	-2.5396	-3.3	-2.825	-3.1021	-3.0958	-2.6167	-3.1688	-3.0229	-2.7646	-3.2708	-2.8917	-3.1604	-3.2	-2.4292	-3.4042	138.791	93.370	225.433	255.011	137.482	209.220	-19.200	240.128	140.455	150.815	-15.465	254.650	168.640	107.688	115.481	104.612	0.00052669	0.0022862	0.0013053	658.06	4.8688e-05	9.3935e-06	979.5	217.91	1.9478e-06	1.3051e-05	361.73	123.08	75.578	35.097	3.8856e-05	49.327	0.022659	0.026326	0.0073057	1122.3	0.00028321	0.00028737	1317.2	347.42	0.00028237	0.00029081	572.94	197.55	146.66	58.272	0.00028463	81.487	130.422	-49.751	-2.812	-71.439	140.612	133.696	-70.747	-66.120	-6.411	152.743	-68.915	-65.545	-64.018	-60.427	136.029	-62.462	-8191	255	
21673.143	1	1	0	0	0.19183	0.25462	0.12141	0.026082	0.23539	0.15238	0.20603	0.080241	0.27187	0.20924	0.15142	0.26354	0.30614	0.14901	0.19938	0.28049	-2.5417	-2.6375	-3.4	-2.8833	-2.925	-3.2958	-2.8854	-3.2854	-3.2062	-2.8229	-3.5167	-2.8271	-2.7354	-3.3917	-2.5604	-3.3354	156.253	-43.984	262.483	266.127	-23.005	-80.624	211.152	263.079	238.465	-6.712	237.378	206.648	265.960	-75.239	-76.678	-55.053	0.00079388	0.0006664	0.00047247	644.97	1.63e-05	3.2738e-05	970.48	220.41	4.0443e-05	2.6048e-05	362.94	122.77	75.127	34.577	3.9208e-05	49.877	0.02253	0.026368	0.007362	1125.1	0.00028619	0.00029263	1317.9	349.99	0.00028545	0.00029608	579.4	200.25	149.2	59.21	0.00029686	83.329	217.868	208.527	-46.493	-70.377	222.769	-15.495	-70.813	-67.099	23.767	221.619	-68.679	-65.685	-63.451	-60.178	159.860	-62.424	-8191	255	
21673.262	1	1	0	0	0.10173	0.37508	0.16298	0.1949	0.093072	0.21891	0.38128	0.18441	0.11429	0.154	0.27416	0.18395	0.17775	0.19303	0.16513	0.18929	-2.7333	-2.5896	-3.3458	-2.9583	-2.6729	-3.3896	-2.825	-3.2438	-3.2229	-2.8021	-3.3208	-2.9208	-2.7479	-3.65	-2.45	-3.0812	141.354	172.584	247.814	-42.468	-70.418	145.311	199.678	135.040	104.652	231.309	-80.092	260.996	254.988	-17.271	-47.404	-48.472	0.00020245	0.0032033	0.00056039	652.25	5.6666e-05	8.2707e-06	974.39	215.86	1.7136e-05	2.717e-05	361.15	121.62	74.826	34.986	2.6483e-05	49.138	0.023664	0.027903	0.0078442	1164.1	0.00030711	0.00031374	1349	360.52	0.00030724	0.00031827	596.78	206.65	154.34	60.951	0.00031412	85.118	-10.487	15.504	82.487	-70.729	-28.755	38.454	-70.976	-67.043	35.235	62.628	-68.678	-65.012	-63.977	-60.518	61.694	-62.628	-8191	255	
21673.357	1	1	0	0	0.18372	0.30286	0.26277	0.31366	0.092679	0.16847	0.18006	0.13762	0.25603	0.092505	0.15968	0.25379	0.3001	0.20585	0.13718	0.21916	-2.9313	-2.6646	-3.2917	-2.9333	-2.6729	-3.3187	-2.9437	-3.1042	-3.3542	-2.6833	-3.2896	-3.1604	-2.7083	-3.3583	-2.8271	-3.0292	237.559	17.219	228.298	233.655	180.215	162.037	224.847	-60.683	55.683	145.782	122.738	243.103	216.362	-48.003	-76.737	256.619	0.00046573	0.0031202	0.0012101	659.09	5.8763e-05	2.6795e-05	974.74	217.6	2.5133e-05	2.3548e-05	359.93	124.05	74.863	35.099	3.7283e-05	50.412	0.0248	0.028797	0.0080535	1177.6	0.00030909	0.00031179	1347.9	358.98	0.00030236	0.00031239	593.02	205.23	152.47	60.905	0.00031064	85.325	-19.668	130.962	128.266	-70.887	23.482	109.320	-70.776	-66.988	-34.648	90.010	-68.316	-65.300	-63.529	-60.244	-64.332	-63.119	-8191	255	
21673.453	1	1	0	0	0.20036	0.2283	0.26452	0.29653	0.060482	0.20593	0.16239	0.29546	0.15838	0.26121	0.22972	0.25785	0.178	0.10583	0.20517	0.11881	-2.9083	-2.6479	-3.2271	-3.0729	-2.8625	-3.4125	-2.9333	-2.9875	-3.3208	-2.6937	-3.1937	-3.3229	-2.6104	-3.4062	-2.8521	-2.9896	143.082	87.367	65.242	-32.825	-46.887	45.758	242.859	206.984	207.005	79.636	266.178	44.056	170.593	32.305	178.540	-40.302	0.00052639	0.0034988	0.0011492	651.46	2.2661e-05	5.2087e-05	976	215.54	1.1489e-05	1.3768e-05	356.68	121.9	76.016	34.852	3.8676e-05	49.567	0.024601	0.028741	0.0080539	1178.2	0.00031041	0.00031589	1356.6	361.62	0.00030898	0.00031907	597.2	207.08	155.61	61.638	0.00032069	86.551	256.282	36.243	-14.766	-70.214	173.261	141.912	-70.599	-67.260	264.760	258.073	-68.466	-65.300	-63.393	-60.981	269.892	-62.297	-8191	255	
21673.551	1	1	0	0	0.16617	0.082882	0.3367	0.2177	0.11131	0.13737	0.39064	0.063334	0.15659	0.18807	0.25272	0.21395	0.11076	0.36512	0.32873	0.17727	-3.0667	-2.6604	-2.9479	-3.3146	-2.7208	-3.5271	-3.1542	-2.8146	-3.5292	-2.6104	-3.0812	-3.2958	-2.8208	-3.3167	-3.1021	-2.7313	11.251	130.878	13.436	103.058	170.300	-80.064	238.312	-32.130	-18.550	6.346	117.757	180.433	228.584	6.682	82.507	-71.479	0.0004281	0.00124	0.001302	648.51	2.4446e-05	4.8379e-05	966.51	216.37	1.5312e-05	2.542e-05	361.09	122.73	75.604	33.888	3.8112e-05	49.18	0.025496	0.029626	0.0083452	1199.2	0.00032288	0.00033106	1371.6	368.68	0.00032288	0.00033421	613.12	212.24	159.44	62.738	0.00033923	88.438	212.819	173.364	-72.732	-71.137	66.170	255.775	-70.892	-66.646	16.381	137.917	-68.544	-65.530	-64.160	-60.080	-54.717	-62.285	-8191	255	
21673.670	1	1	0	0	0.16162	0.034489	0.084337	0.095477	0.11999	0.072315	0.11358	0.16125	0.26225	0.18805	0.1678	0.1137	0.11621	0.12028	0.18092	0.20291	-2.9854	-2.7833	-2.9208	-3.3292	-2.5854	-3.2292	-3.3792	-2.7021	-3.6792	-2.9062	-2.9125	-3.4188	-2.5083	-3.3958	-3.0667	-2.7125	228.344	115.679	209.273	-38.271	157.203	245.799	191.633	225.588	89.428	28.245	220.452	-75.494	-7.867	-64.186	21.467	152.218	0.00035561	0.0053428	0.00089914	650.46	1.4143e-05	2.523e-05	966.25	213.85	5.3088e-05	4.9047e-05	358.86	122.21	75.105	34.517	1.9213e-05	49.366	0.026989	0.031547	0.0088594	1236.6	0.00034354	0.00035387	1408.6	379.51	0.00034303	0.00035512	628.09	217.63	163.67	64.391	0.00035022	90.048	204.076	179.755	-81.554	-70.262	116.467	14.399	-70.849	-66.671	75.266	254.505	-68.533	-65.222	-64.027	-60.024	201.407	-61.942	-8191	255	
21673.742	1	1	0	0	0.072313	0.054484	0.1137	0.32584	0.2493	0.12226	0.17054	0.26614	0.089424	0.16127	0.20295	0.089206	0.087541	0.23313	0.15677	0.1977	-2.9583	-2.8375	-2.7792	-3.4896	-2.6312	-3.0792	-3.2542	-2.7333	-3.3729	-2.8958	-2.8563	-3.2875	-2.6792	-3.0729	-3.4167	-2.7333	-76.338	165.579	48.599	-66.118	194.689	-59.327	-16.241	-26.621	171.072	7.241	-52.609	229.090	257.492	263.222	118.576	245.210	0.00021114	0.0024438	0.0013613	647.14	4.1964e-05	2.4447e-05	981.07	214.93	4.4798e-05	3.015e-05	352.97	121.87	74.431	35.048	2.4486e-05	49.543	0.027526	0.032271	0.0090776	1249.3	0.00034838	0.00035614	1416.1	379.77	0.00034318	0.000353	620.92	214.2	160.61	63.545	0.00033408	87.893	225.912	105.477	6.331	-70.218	-59.382	206.468	-71.049	-66.905	-42.674	146.555	-68.565	-64.620	-63.310	-59.839	-64.364	-62.508	-8191	255	
21673.838	1	1	0	0	0.26365	0.12352	0.0081858	0.20612	0.082442	0.18852	0.27095	0.15934	0.15313	0.15259	0.19351	0.19305	0.064094	0.18914	0.012322	0.039383	-2.9521	-3.1437	-2.7021	-3.4146	-2.7354	-3.225	-3.4708	-2.7188	-3.4021	-3.1146	-2.7917	-3.3542	-2.9354	-3.0125	-3.4708	-2.775	-0.179	38.507	182.258	195.659	-28.492	269.565	218.493	-30.158	247.480	-7.440	-57.603	-79.834	185.775	266.154	248.908	161.296	0.00032121	0.004437	0.00089422	656.82	1.7113e-05	7.4101e-05	971.85	214.16	3.3004e-05	4.1351e-05	356.6	121.96	75.68	34.929	2.442e-05	49.304	0.025946	0.030257	0.0084649	1204.8	0.00032374	0.00033078	1374.1	365.06	0.00031696	0.00032711	602.62	208.23	155.87	61.812	0.00032064	85.964	91.394	245.748	42.352	-71.057	216.297	-8.510	-71.131	-66.660	165.925	35.036	-68.652	-64.625	-63.504	-60.676	166.792	-61.520	-8191	255	
21673.959	1	1	0	0	0.13786	0.07628	0.30734	0.25749	0.28377	0.20764	0.055821	0.21949	0.036827	0.27411	0.27356	0.17107	0.12294	0.142	0.13163	0.17815	-2.9083	-3.1229	-2.6958	-3.4146	-2.8167	-3.0375	-3.475	-2.7229	-3.1813	-3.0667	-2.8208	-3.5333	-2.9188	-2.9833	-3.5479	-2.6958	-20.910	-51.918	257.874	233.838	37.110	132.828	164.998	132.390	8.176	87.097	216.508	-78.295	-63.052	254.405	125.247	152.340	0.00057796	0.0044109	0.00049944	654.01	2.0926e-05	2.5518e-05	981.8	215.24	1.7306e-05	1.6657e-05	354.01	122.8	75.124	35.359	1.2542e-05	49.566	0.025178	0.029438	0.008219	1191.2	0.00031741	0.000325	1372	365.81	0.00031746	0.00033058	605.06	209.63	156.79	62.323	0.0003231	86.859	92.995	131.780	190.140	-70.206	-29.901	136.937	-70.584	-66.398	250.969	119.290	-68.770	-64.752	-63.692	-59.630	221.728	-61.858	-8191	255	
21674.055	1	1	0	0	0.092737	0.070564	0.14299	0.28894	0.18504	0.10855	0.094327	0.15947	0.20399	0.1685	0.15098	0.14471	0.19995	0.12568	0.12443	0.23394	-2.7833	-3.2771	-2.6396	-3.4313	-2.9125	-2.7521	-3.475	-2.9021	-3.0979	-3.3604	-2.8583	-3.5146	-3.0917	-2.8063	-3.3833	-3.0229	-63.985	225.811	203.134	-75.870	44.377	33.172	-77.733	108.094	231.478	122.373	193.601	94.381	245.943	235.202	266.850	187.274	0.00017669	0.0036747	0.0017843	662.12	1.1774e-05	4.6492e-05	983.57	217.88	1.1362e-05	1.3493e-05	357.95	121.99	75.935	35.54	2.2077e-05	50.388	0.025414	0.029565	0.0082352	1193.4	0.00031815	0.00032377	1372.3	364.38	0.00031374	0.00032329	601.7	208.66	156.64	62.518	0.00031975	86.922	-84.372	214.939	-4.335	-71.456	163.350	102.349	-70.564	-66.700	-31.208	235.685	-68.767	-64.989	-63.898	-60.087	17.648	-62.256	-8191	255	
21674.148	1	1	0	0	0.060909	0.22086	0.10944	0.12575	0.11355	0.25108	0.15469	0.21768	0.18252	0.25059	0.13841	0.30404	0.13782	0.074606	0.22702	0.12014	-2.6042	-3.3458	-2.4229	-3.3521	-3.1083	-2.6604	-3.6583	-2.6708	-3.0229	-3.4375	-2.625	-3.4729	-3.1479	-2.6813	-3.3521	-2.8979	184.313	-82.297	26.549	225.355	183.729	202.373	148.969	-65.905	8.986	16.656	222.738	-80.918	187.695	176.105	122.249	36.774	0.00030405	0.0013751	0.00091905	666.56	1.4818e-05	5.4187e-05	978.47	217.12	3.673e-05	5.9195e-05	358.44	122.46	76.715	35.529	1.4367e-05	49.929	0.025284	0.029363	0.008185	1192.3	0.00031447	0.00032083	1365.6	362.11	0.00031137	0.00031961	597.73	206.69	155.31	61.957	0.00031543	86.326	123.427	186.811	-2.800	-70.133	47.702	29.108	-70.997	-66.683	187.785	-52.589	-68.362	-64.872	-63.328	-60.319	-4.735	-62.527	-8191	255	
21674.246	1	1	0	0	0.083223	0.048228	0.055148	0.12064	0.045936	0.1576	0.05284	0.077626	0.087729	0.061984	0.15477	0.31211	0.071377	0.2551	0.15382	0.13609	-2.5	-3.3271	-2.6854	-3.2896	-3.0729	-2.6479	-3.4875	-3.0667	-2.8042	-3.4333	-2.8187	-3.0042	-3.2771	-2.7396	-3.325	-3.0167	242.150	51.170	70.581	90.371	225.037	-1.601	235.731	-57.612	173.611	229.209	139.284	163.255	241.414	-61.312	198.775	232.599	0.00014347	0.0027745	0.0010097	658.08	2.5487e-05	1.9406e-05	988.9	214.25	1.0489e-05	2.0154e-05	360.54	123.45	75.722	35.849	2.4141e-05	50.082	0.025022	0.029058	0.0081381	1194.3	0.00031427	0.00032131	1373.4	363.02	0.00031243	0.00032164	600.2	207.39	155.24	62.088	0.0003158	86.242	29.534	262.774	142.967	-69.835	66.271	150.642	-70.947	-66.495	141.541	147.108	-68.289	-64.542	-64.224	-60.906	109.913	-61.649	-8191	255	
21674.365	1	1	0	0	0.22614	0.28551	0.26401	0.087326	0.218	0.11868	0.088804	0.20421	0.13806	0.078955	0.31153	0.3377	0.064251	0.23396	0.032542	0.18494	-2.3292	-3.4333	-2.5042	-3.0854	-3.1542	-2.6271	-3.4292	-3.025	-2.6708	-3.3729	-2.8146	-2.9562	-3.2	-2.775	-3.2729	-2.9583	-16.857	268.915	108.690	198.753	238.116	190.274	257.178	274.440	-75.624	204.173	219.651	274.098	117.192	258.948	-3.021	-64.718	0.00052193	0.0019251	0.0010164	655.67	2.907e-05	2.3003e-05	985.65	217.73	1.4435e-05	2.7503e-05	357.68	122.62	75.959	35.609	8.5025e-06	50.467	0.025052	0.029121	0.008146	1196.2	0.00031695	0.00032268	1374.1	364.74	0.00031529	0.00032381	600.99	208.82	156.74	62.323	0.00031806	86.797	258.270	221.946	34.936	-70.058	166.442	-73.081	-71.240	-66.782	161.689	154.998	-68.023	-65.352	-64.402	-59.976	28.930	-62.782	-8191	255	
21674.438	1	1	0	0	0.17438	0.094942	0.11485	0.25268	0.14383	0.13555	0.14485	0.12146	0.16835	0.173	0.31705	0.081129	0.4321	0.11366	0.1082	0.12261	-2.2521	-3.3	-2.6958	-2.8542	-3.2917	-2.5021	-3.2396	-3.2583	-2.6104	-3.3688	-2.8	-2.9083	-3.4	-2.6312	-3.2208	-3.3104	85.681	146.396	-53.192	-67.905	28.980	30.877	202.824	219.714	-3.686	51.028	186.713	113.486	183.391	272.687	46.653	-76.855	0.00015306	0.0047118	0.0007424	660.86	2.8736e-05	5.1505e-05	987.24	216.74	3.4961e-05	7.3882e-06	359.96	124.83	75.981	35.956	3.4936e-05	51.09	0.025082	0.029235	0.0081298	1193.9	0.00031142	0.00031773	1372.9	362.83	0.00030903	0.00031903	598.84	209.05	156.03	62.343	0.00031919	87	199.341	82.426	266.559	-70.773	164.618	30.106	-71.213	-67.274	259.684	224.597	-68.424	-65.366	-64.655	-60.881	257.794	-62.465	-8191	255	
21674.559	1	1	0	0	0.088635	0.21269	0.17731	0.16707	0.050278	0.089322	0.18408	0.068119	0.12495	0.048775	0.073079	0.070442	0.20463	0.22078	0.22255	0.12524	-2.2271	-3.2458	-2.6708	-2.7812	-3.375	-2.6542	-3.1771	-3.2167	-2.5854	-3.4458	-3.1229	-2.7708	-3.4875	-2.7667	-2.9271	-3.4229	260.055	-23.719	142.206	175.583	-44.619	3.084	252.020	-70.677	88.122	-37.188	-58.265	160.379	114.787	175.407	-35.722	244.003	0.00024721	0.0025756	0.001225	658.01	3.3136e-05	1.803e-05	988.8	218.76	1.4853e-05	3.6368e-05	361.79	125.31	75.797	35.951	1.5908e-05	50.847	0.025217	0.029434	0.0082262	1202.2	0.00031702	0.00032092	1374.7	363.53	0.00030782	0.00031665	592.84	205.07	152.6	60.927	0.00030317	84.525	-67.069	49.459	81.631	-70.746	155.602	155.635	-70.838	-66.901	-25.885	113.384	-68.768	-65.047	-63.758	-59.969	41.967	-62.638	-8191	255	
21674.654	1	1	0	0	0.21314	0.18922	0.24605	0.30163	0.24629	0.41631	0.11746	0.1796	0.27829	0.069575	0.13416	0.22595	0.22427	0.40676	0.10654	0.0085664	-2.2021	-3.2562	-3.1292	-2.7438	-3.3125	-2.8104	-3.1792	-3.5021	-2.5646	-3.2521	-3.1208	-2.7042	-3.3729	-2.7771	-3.0062	-3.4708	24.884	-14.936	-59.278	-10.581	91.584	58.141	187.525	-73.803	-69.282	119.795	-66.630	221.834	158.127	214.955	-34.498	250.775	0.00032029	0.0021754	0.0010965	661.32	3.7483e-05	5.5953e-05	987.66	219.5	3.7195e-05	1.3384e-05	359.84	122.36	76.543	36.177	3.0875e-05	51.095	0.023678	0.027433	0.0077053	1161.4	0.00029576	0.00030331	1349.9	355.04	0.00029423	0.00030398	584.02	203.24	151.26	60.825	0.00030147	84.581	156.721	237.131	-48.891	-70.751	35.371	17.209	-71.060	-66.454	91.321	87.513	-68.439	-65.207	-63.903	-60.797	187.156	-62.248	-8191	255	
21674.752	1	1	0	0	0.080468	0.065105	0.060778	0.17391	0.032322	0.30859	0.10168	0.16999	0.086848	0.11266	0.062465	0.15708	0.13393	0.2166	0.15078	0.15036	-2.1937	-3.2625	-2.9813	-2.8479	-3.5583	-2.7792	-2.9042	-3.5333	-2.8812	-3.2	-3.35	-2.7229	-3.4854	-2.9688	-2.7417	-3.5354	-5.635	84.003	64.829	257.219	222.330	63.037	186.631	208.628	38.674	40.284	24.921	-72.985	-37.139	-75.827	0.108	200.895	0.00017508	0.0021502	0.00091363	672.96	3.3699e-05	2.5588e-05	991.69	216.26	4.149e-05	1.7578e-05	361.46	123.28	76.587	35.754	3.7134e-05	50.356	0.023738	0.027805	0.0077897	1173.4	0.00030243	0.00031179	1366.5	360.11	0.00030562	0.00031942	600.48	208.44	156.61	62.663	0.00032178	87.265	-50.294	228.689	58.233	-70.331	69.675	120.782	-70.721	-66.592	176.515	-35.188	-68.276	-64.966	-63.341	-59.865	207.354	-62.324	-8191	255	
21674.848	1	1	0	0	0.011054	0.14845	0.11696	0.14538	0.0054707	0.1371	0.2667	0.12187	0.18716	0.09267	0.19536	0.23759	0.34163	0.058456	0.13977	0.081954	-2.3167	-3.1479	-3.2125	-2.7625	-3.3125	-3.0833	-2.8896	-3.3979	-2.8896	-3.1	-3.4896	-2.7313	-3.3396	-3.1437	-2.725	-3.4229	-8.624	217.581	173.378	109.939	130.993	94.189	186.116	183.407	-76.250	241.342	93.326	152.981	-41.210	-11.270	3.411	211.841	0.00042217	0.0076071	0.00075736	666.51	3.5305e-05	4.5378e-05	988.54	219.13	2.4419e-05	2.5507e-05	361.78	122.76	75.703	35.414	1.9255e-05	50.365	0.02552	0.029792	0.008314	1210	0.00032265	0.0003293	1393.4	370.53	0.00032784	0.00034234	621.08	216.45	164.54	64.935	0.00035245	90.978	-80.429	7.331	-18.812	-70.218	134.328	12.893	-70.517	-66.645	55.051	210.078	-67.970	-65.113	-63.809	-59.939	260.084	-62.455	-8191	255	
21674.967	1	1	0	0	0.12482	0.1446	0.083515	0.15073	0.11238	0.037424	0.41594	0.066506	0.10537	0.2887	0.21786	0.061874	0.17999	0.099615	0.31255	0.067725	-2.5458	-3.1417	-3.1417	-2.65	-3.275	-3.1479	-2.8167	-3.5292	-2.9521	-2.9208	-3.6063	-2.6688	-3.3208	-3.1542	-2.6979	-3.5125	-83.751	58.682	23.798	68.205	46.227	218.348	207.715	241.400	-18.239	252.528	-81.574	179.329	18.550	214.833	229.235	35.083	0.00015212	0.0034934	0.00080162	656.94	2.1505e-05	4.4037e-05	987.44	213.87	2.5557e-05	3.1165e-05	359.54	122.07	75.542	34.994	1.0688e-05	49.2	0.028046	0.032719	0.0091217	1263.9	0.00035135	0.00035772	1427.6	381.45	0.00034445	0.00035562	626.91	216.46	163.66	64.648	0.00034368	89.919	154.155	-8.865	43.340	-70.414	124.498	-54.732	-70.462	-66.633	4.381	-50.733	-68.633	-64.919	-62.880	-60.444	53.154	-61.917	-8191	255	
21675.039	1	1	0	0	0.0905	0.09999	0.06708	0.086758	0.1765	0.15579	0.25142	0.25844	0.071103	0.077666	0.040406	0.25741	0.07571	0.13603	0.33187	0.20689	-2.4938	-2.9729	-3.3375	-2.8875	-3.1167	-3.1583	-2.8729	-3.5458	-2.9813	-2.9354	-3.5646	-2.6688	-3.1354	-3.3896	-2.7083	-3.2833	264.539	269.397	273.386	-17.244	45.820	-5.327	226.043	231.570	229.249	202.275	176.937	186.470	48.919	94.391	178.024	264.063	0.00026223	0.0037192	0.00097412	652.32	2.1633e-05	7.1743e-05	981.29	214.78	5.248e-05	2.9889e-05	357.87	122.31	74.953	34.856	4.0055e-05	49.554	0.027231	0.031838	0.0088905	1253.6	0.00034717	0.00035518	1423	381.63	0.00034438	0.00035526	625.39	216.95	163.65	64.245	0.00034493	89.666	-17.236	-60.552	178.663	-70.811	134.377	0.668	-70.718	-67.039	144.529	143.488	-68.196	-64.626	-62.849	-60.909	270.013	-62.042	-8191	255	
21675.135	1	1	0	0	0.15172	0.2574	0.3126	0.21641	0.12921	0.19082	0.05701	0.15875	0.16944	0.066144	0.27233	0.11532	0.11899	0.32099	0.34968	0.30912	-2.6688	-2.9208	-3.4	-2.7042	-3.0438	-3.2479	-2.5042	-3.4146	-3.0771	-2.7271	-3.4292	-2.6229	-2.9708	-3.3542	-2.5354	-3.3396	109.270	245.461	87.193	22.126	159.654	60.422	151.434	165.101	92.461	260.808	218.920	46.743	262.527	230.623	142.964	-84.815	0.00036032	0.0035569	0.00072125	654.75	4.0122e-05	3.5155e-05	985.61	216.96	8.6378e-06	4.1044e-05	358.43	121.83	75.324	35.463	1.0849e-05	50.25	0.026887	0.031311	0.0087014	1233.1	0.00033649	0.00034181	1406.1	375.41	0.00033424	0.00034772	621.76	216.17	163.35	64.63	0.00034637	90.405	142.151	209.969	268.743	-70.923	10.775	12.421	-71.492	-67.046	65.839	-62.168	-68.449	-65.431	-63.465	-60.119	47.654	-62.479	-8191	255	
21675.230	1	1	0	0	0.16412	0.11732	0.15097	0.18582	0.31243	0.14938	0.11066	0.16184	0.22277	0.11116	0.096863	0.50763	0.24211	0.05651	0.22034	0.026811	-2.7729	-2.5604	-3.3604	-2.9417	-2.8479	-3.3979	-2.7896	-3.2375	-2.9833	-2.6021	-3.5062	-2.8875	-2.8396	-3.4375	-2.7583	-3.2583	-12.740	75.948	-54.293	-10.697	57.804	153.409	-77.393	273.197	18.421	140.054	44.663	226.832	91.259	42.360	100.775	185.153	0.00070234	0.0021611	0.0010535	653.75	2.4438e-05	4.7254e-05	988.75	215.22	1.4003e-05	1.3084e-05	358.47	123.3	76.289	34.802	7.9547e-05	49.641	0.02741	0.031852	0.0088948	1251.4	0.00034537	0.0003513	1417.4	379.06	0.00033822	0.00034933	621.14	216.04	162.72	64.035	0.00034478	90.087	-10.335	93.730	156.797	-70.733	142.045	-56.192	-71.455	-66.995	50.793	12.875	-68.259	-65.591	-62.844	-60.343	-22.500	-61.661	-8191	255	
21675.326	1	1	0	0	0.1659	0.17292	0.25379	0.21222	0.20781	0.24253	0.085095	0.15185	0.20114	0.10064	0.11107	0.081197	0.061761	0.17428	0.11669	0.14656	-2.9271	-2.5583	-3.2125	-3.0438	-2.7396	-3.575	-2.8458	-3.1667	-3.2833	-2.6333	-3.4188	-3.0021	-2.6583	-3.5854	-2.9813	-3.0563	245.681	76.798	50.094	145.890	-22.879	187.789	142.568	163.100	165.463	159.921	171.452	126.772	272.690	141.037	-50.118	214.791	0.00016287	0.0023593	0.0017815	653.5	1.1564e-05	3.5991e-05	985.27	214.43	2.9507e-05	1.4944e-05	358.61	121.53	75.768	35.049	2.7516e-05	49.902	0.027441	0.032209	0.0090112	1259.3	0.00035145	0.00035823	1431	383.74	0.00034775	0.00035988	632.23	218.29	165.06	64.873	0.00035186	90.462	62.779	210.908	-28.872	-71.202	169.865	80.531	-70.926	-66.906	-75.978	207.133	-68.936	-65.742	-63.383	-60.399	35.201	-61.621	-8191	255	
21675.445	1	1	0	0	0.19156	0.13421	0.20835	0.21657	0.078976	0.076348	0.33987	0.23813	0.2131	0.18681	0.049641	0.13707	0.09684	0.13132	0.10231	0.21691	-3.0104	-2.7208	-3.2521	-3.1896	-2.7833	-3.3812	-3.0187	-3.0979	-3.3563	-2.7083	-3.3667	-3.2646	-2.8396	-3.3063	-3.0479	-3.0187	110.933	119.896	236.970	216.396	176.797	65.484	207.847	213.482	94.842	84.380	228.087	241.034	-5.767	-52.762	154.326	224.108	0.0002762	0.00039745	0.0010451	659.86	1.3444e-05	2.0734e-05	981.15	216.01	2.0679e-05	1.8772e-05	358.87	120.92	75.6	34.959	4.8764e-06	49.814	0.02754	0.032257	0.0090141	1251.5	0.0003487	0.00035447	1424	382.61	0.00034727	0.00036048	634.22	219.99	167.98	66.05	0.00036338	92.49	140.914	2.527	232.566	-70.550	99.215	157.101	-71.089	-66.601	-44.345	23.044	-69.051	-64.900	-63.675	-60.474	-27.986	-62.097	-8191	255	
21675.543	1	1	0	0	0.15121	0.31076	0.16865	0.22767	0.27006	0.19431	0.21942	0.25927	0.1109	0.087207	0.2742	0.36617	0.13093	0.21225	0.20503	0.20612	-3.0542	-2.6167	-3.2708	-3.2083	-2.8583	-3.3229	-3.0083	-2.95	-3.4625	-2.6917	-3.2146	-3.3396	-2.7458	-3.5542	-3.0604	-2.8729	26.831	102.373	196.070	200.992	104.897	246.952	150.195	-59.889	-84.090	3.802	168.611	261.290	209.519	224.740	-59.917	251.385	0.0002726	0.0016799	0.00051065	654.25	3.9448e-05	5.2959e-05	980.69	216.05	5.3701e-05	3.3225e-05	357.21	122.5	75.85	35.665	2.1828e-05	49.739	0.028667	0.033319	0.0093238	1280.7	0.00035866	0.00036624	1438.7	387.32	0.00035748	0.00037056	642.87	223.35	171.26	67.577	0.00037985	94.79	125.430	-42.682	-35.100	-71.050	175.283	186.760	-71.084	-66.381	-20.912	33.131	-68.628	-64.966	-64.054	-59.830	-72.421	-62.395	-8191	255	
21675.639	1	1	0	0	0.13712	0.19263	0.068353	0.13354	0.085507	0.32908	0.12229	0.098964	0.22981	0.15791	0.2202	0.10228	0.25476	0.11312	0.12873	0.29723	-3.1312	-2.6333	-3.1604	-3.3542	-2.7729	-3.4875	-3.15	-2.9083	-3.3917	-2.9146	-3.05	-3.5354	-2.8208	-3.4729	-3.2042	-2.6979	178.859	74.818	45.593	221.612	200.819	45.603	19.648	203.151	-7.096	-65.278	-30.222	197.146	-54.218	170.666	-48.186	236.386	7.7702e-05	0.0033165	0.00026631	659.56	4.2031e-05	4.2673e-05	982.25	213	1.1265e-05	2.9462e-06	349.45	121.69	74.288	34.056	2.7224e-05	48.349	0.030188	0.035435	0.0099641	1327.2	0.00038633	0.0003971	1488	404.28	0.00038931	0.00040493	672.36	234.47	179.94	70.154	0.00041409	98.495	230.932	-27.629	-20.484	-70.441	73.183	-61.653	-71.371	-66.457	177.360	183.418	-68.239	-65.773	-64.165	-60.032	106.271	-62.215	-8191	255	
21675.734	1	1	0	0	0.045361	0.055526	0.19974	0.052484	0.24134	0.35741	0.15658	0.1463	0.16885	0.066323	0.18306	0.26577	0.18174	0.24617	0.12865	0.13822	-3.0854	-3.1542	-2.9604	-3.2333	-2.6708	-3.1729	-3.3375	-2.7625	-3.5958	-3	-3.05	-3.5	-2.8667	-3.3063	-3.2479	-2.9708	-81.329	218.375	-55.716	246.518	-41.513	217.965	247.799	-28.294	-24.942	250.411	129.871	73.686	236.609	200.576	227.801	249.743	0.0003152	0.0018275	0.00089046	653.93	2.8226e-05	3.6032e-05	963.31	213.02	3.7819e-05	4.6046e-05	356.16	120.45	74.627	33.949	6.249e-05	48.092	0.033195	0.039035	0.011052	1412.9	0.00043165	0.00044421	1562.8	430.66	0.00044326	0.00045852	717.64	249.51	193.6	74.599	0.00045829	103.73	194.941	-64.763	-34.466	-70.791	254.021	-63.302	-70.818	-66.882	125.816	98.434	-68.665	-64.606	-63.548	-60.952	126.575	-62.427	-8191	255	
21675.830	1	1	0	0	0.36255	0.20405	0.22081	0.11706	0.045725	0.09323	0.089108	0.28149	0.19359	0.13591	0.25542	0.32766	0.19256	0.16662	0.10693	0.062779	-2.9729	-2.9458	-2.9396	-3.6729	-2.8521	-3.2396	-3.4167	-2.8167	-3.3604	-3.1604	-2.8333	-3.5979	-2.6813	-3.2	-3.5479	-2.7542	251.884	261.429	33.355	99.940	84.178	274.258	229.376	198.769	156.713	109.546	200.190	273.092	-64.857	-81.239	-41.991	218.401	0.00054465	0.0013509	0.00075437	646.68	2.2783e-05	6.0955e-05	969.71	212.35	5.1003e-05	3.083e-05	348.53	118.71	72.623	33.826	9.5449e-06	47.84	0.036052	0.042118	0.011784	1457.7	0.00045214	0.00046054	1571.6	430.02	0.00043765	0.00045046	704.88	244.8	188.73	73.056	0.00044267	101.49	181.034	128.365	196.275	-70.322	1.827	256.065	-70.840	-66.118	194.216	252.109	-68.388	-65.613	-63.967	-60.720	-83.291	-61.953	-8191	255	
21675.928	1	1	0	0	0.33296	0.21467	0.2014	0.13881	0.21462	0.08847	0.17868	0.14888	0.18388	0.070683	0.043048	0.17892	0.19456	0.031704	0.28073	0.077883	-2.9146	-3.1229	-2.7938	-3.5375	-2.9458	-2.9708	-3.4562	-2.75	-3.225	-3.0521	-2.8854	-3.6646	-2.8667	-3.275	-3.2687	-2.7812	174.403	197.745	-24.723	272.381	9.385	-46.698	153.131	235.645	39.089	232.002	44.541	140.840	84.379	81.842	172.752	99.740	0.00033369	0.00010554	0.0016967	646.1	5.9033e-05	4.2292e-05	969.34	210.75	2.7559e-05	3.2293e-05	347.69	119.9	72.923	33.593	4.734e-05	47.735	0.035091	0.040539	0.011419	1422.1	0.00043466	0.00044077	1536.9	417.38	0.00041758	0.00042856	684.94	237.71	182.29	70.826	0.00041889	98.136	-25.480	201.942	6.478	-70.161	71.004	-64.727	-71.049	-66.386	42.833	-35.967	-67.950	-65.205	-64.268	-60.068	84.855	-61.198	-8191	255	
21676.049	1	1	0	0	0.30801	0.085336	0.1359	0.16642	0.3321	0.18543	0.10307	0.21205	0.097602	0.061389	0.10395	0.1562	0.14947	0.18279	0.10053	0.12676	-2.7938	-3.1979	-2.8542	-3.5646	-2.95	-2.9354	-3.5563	-2.6	-3.2062	-3.3563	-2.8917	-3.3438	-3.0354	-2.7604	-3.4188	-2.9021	83.786	116.602	-26.658	266.388	71.368	261.068	182.864	270.017	246.990	65.270	-52.729	266.491	156.791	-22.345	65.176	224.990	0.00071097	0.0053381	0.0025964	639.01	3.0237e-05	7.6217e-05	952.96	209.26	2.4804e-05	3.8424e-05	348.84	117	72.824	33.787	3.3405e-05	47.656	0.032677	0.037567	0.010449	1351.1	0.00039756	0.00040737	1483.5	403.32	0.00039608	0.00040822	669	231.57	178.2	69.261	0.00040641	96.222	63.595	32.893	154.773	-70.705	108.688	165.621	-70.851	-67.244	220.169	-74.304	-68.159	-65.057	-63.213	-60.026	111.051	-61.998	-8191	255	
21676.143	1	1	0	0	0.084567	0.27057	0.31411	0.071559	0.2919	0.16776	0.26485	0.20003	0.054976	0.17135	0.2662	0.23026	0.11746	0.10565	0.1188	0.090906	-2.6792	-3.2208	-2.7271	-3.2792	-3.1229	-2.6937	-3.5833	-2.725	-3.1167	-3.3729	-2.6937	-3.2417	-3.0792	-2.8563	-3.5938	-2.9562	240.332	142.858	-11.818	111.541	266.704	253.883	220.409	202.162	-77.718	141.822	176.084	245.715	170.000	-76.943	-65.563	-35.467	0.00051736	0.0031942	0.0012527	643.91	1.4416e-05	3.6011e-05	960.05	210.39	4.2894e-05	1.9593e-05	345.32	118.06	73.579	33.504	4.4663e-05	47.525	0.031929	0.037084	0.010393	1348.7	0.00040176	0.00041026	1491	405.62	0.00040103	0.00041448	671.78	233.71	180.13	70.015	0.00041662	97.66	260.590	99.865	271.569	-70.383	-63.210	112.040	-70.568	-66.812	134.077	30.915	-68.421	-64.069	-63.828	-60.373	-19.014	-62.931	-8191	255	
21676.238	1	1	0	0	0.13475	0.097807	0.22868	0.053277	0.21668	0.039175	0.031271	0.17379	0.12862	0.16435	0.26252	0.10872	0.18947	0.063472	0.18656	0.23521	-2.5938	-3.4708	-2.6792	-3.3729	-3.1208	-2.6312	-3.6104	-2.9875	-3.0104	-3.1979	-2.8271	-3.2687	-3.3083	-2.6771	-3.4146	-2.9521	141.734	261.321	74.458	116.826	109.286	120.587	54.363	265.376	120.345	-79.231	205.275	242.037	-59.754	101.546	-54.828	-33.085	0.00011118	0.0028353	0.0005036	644.37	2.6124e-05	7.6351e-05	957.85	208.69	3.0216e-05	3.9493e-05	345.47	119.23	72.771	33.777	4.1974e-05	47.918	0.033002	0.038534	0.010719	1367.3	0.00041097	0.00041957	1504.9	407.92	0.00040351	0.00041543	671.49	232.82	177.95	69.076	0.0004057	96.183	122.104	108.895	268.398	-70.136	238.253	-16.667	-71.043	-67.270	127.720	49.950	-68.440	-65.577	-63.246	-59.931	162.015	-62.867	-8191	255	
21676.334	1	1	0	0	0.14778	0.1125	0.2016	0.10656	0.18569	0.31083	0.29892	0.088338	0.13265	0.15624	0.26074	0.23694	0.14407	0.10449	0.091672	0.16084	-2.5896	-3.3563	-2.6437	-3.2083	-3.2646	-2.6125	-3.4437	-2.9938	-2.7396	-3.5583	-2.9	-3.2812	-3.1979	-2.6437	-3.4979	-3.0417	258.737	78.087	-80.582	-52.682	4.157	250.085	169.343	225.808	249.013	273.043	123.705	271.989	222.489	-63.976	-76.018	139.270	0.00037543	0.0057671	0.00077549	639.22	6.7685e-05	4.5054e-05	954.39	207.06	4.5425e-05	1.0471e-05	348.21	118.8	72.873	33.961	9.5112e-06	47.843	0.031846	0.037034	0.01039	1345.7	0.0003996	0.00040914	1489.4	403.74	0.00039823	0.00040946	665.83	231.01	176.91	69.029	0.00040283	95.623	-65.854	65.296	215.438	-69.944	186.727	-61.573	-70.735	-66.745	236.038	152.064	-68.615	-65.046	-64.553	-59.858	133.068	-62.198	-8191	255	
#DATA ENDS
