BOXY.EXE: ISS Imagent and Oximeter Data Acquisition Program Version 0.80
Ascii Record File

#ACQ INFORMATION
2  Detector Channels 
16  External MUX Channels 
1  Auxiliary Channels 
5000  Waveform (CCF) Frequency (Hz)
1  Waveforms Skipped 
30  Waveforms Averaged 
1  Cycles Averaged 
16  Acquisitions per Waveform 
10.0806  Updata Rate (Hz) 

#FILE INFORMATION
TRUE -- External MUX Channel results are PARSED.
FALSE -- AC DC and Phase are NOT grouped.
TRUE -- Companion Program Settings File CREATED.
FALSE -- AC data not excluded
FALSE -- DC data not excluded
FALSE -- Phase data not excluded
FALSE -- Auxillary Chn. data not excluded
Tab delimiters

#CALIBRATION STATE
TRUE -- Waveform Calibration Values APPLIED.


#AUX CALIBRATION VALUES
Val Type	aux-1	

Term	1.0000e+00	
Factor	0.0000e+00	


#WF CALIBRATION VALUES
A = Detector Channel
Val Type	A-AC1	A-AC2	A-AC3	A-AC4	A-AC5	A-AC6	A-AC7	A-AC8	A-AC9	A-AC10	A-AC11	A-AC12	A-AC13	A-AC14	A-AC15	A-AC16	A-DC1	A-DC2	A-DC3	A-DC4	A-DC5	A-DC6	A-DC7	A-DC8	A-DC9	A-DC10	A-DC11	A-DC12	A-DC13	A-DC14	A-DC15	A-DC16	A-Ph1	A-Ph2	A-Ph3	A-Ph4	A-Ph5	A-Ph6	A-Ph7	A-Ph8	A-Ph9	A-Ph10	A-Ph11	A-Ph12	A-Ph13	A-Ph14	A-Ph15	A-Ph16	

Term	0.00000e+00	0.00000e+00	0.00000e+00	0.00000e+00	0.00000e+00	0.00000e+00	0.00000e+00	0.00000e+00	0.00000e+00	0.00000e+00	0.00000e+00	0.00000e+00	0.00000e+00	0.00000e+00	0.00000e+00	0.00000e+00	0.00000e+00	0.00000e+00	0.00000e+00	0.00000e+00	0.00000e+00	0.00000e+00	0.00000e+00	0.00000e+00	0.00000e+00	0.00000e+00	0.00000e+00	0.00000e+00	0.00000e+00	0.00000e+00	0.00000e+00	0.00000e+00	0.00000e+00	0.00000e+00	0.00000e+00	0.00000e+00	0.00000e+00	0.00000e+00	0.00000e+00	0.00000e+00	0.00000e+00	0.00000e+00	0.00000e+00	0.00000e+00	0.00000e+00	0.00000e+00	0.00000e+00	0.00000e+00	
Factor	1.00000e+00	1.00000e+00	1.00000e+00	1.00000e+00	1.00000e+00	1.00000e+00	1.00000e+00	1.00000e+00	1.00000e+00	1.00000e+00	1.00000e+00	1.00000e+00	1.00000e+00	1.00000e+00	1.00000e+00	1.00000e+00	1.00000e+00	1.00000e+00	1.00000e+00	1.00000e+00	1.00000e+00	1.00000e+00	1.00000e+00	1.00000e+00	1.00000e+00	1.00000e+00	1.00000e+00	1.00000e+00	1.00000e+00	1.00000e+00	1.00000e+00	1.00000e+00	X	X	X	X	X	X	X	X	X	X	X	X	X	X	X	X	

B = Detector Channel
Val Type	B-AC1	B-AC2	B-AC3	B-AC4	B-AC5	B-AC6	B-AC7	B-AC8	B-AC9	B-AC10	B-AC11	B-AC12	B-AC13	B-AC14	B-AC15	B-AC16	B-DC1	B-DC2	B-DC3	B-DC4	B-DC5	B-DC6	B-DC7	B-DC8	B-DC9	B-DC10	B-DC11	B-DC12	B-DC13	B-DC14	B-DC15	B-DC16	B-Ph1	B-Ph2	B-Ph3	B-Ph4	B-Ph5	B-Ph6	B-Ph7	B-Ph8	B-Ph9	B-Ph10	B-Ph11	B-Ph12	B-Ph13	B-Ph14	B-Ph15	B-Ph16	

Term	0.00000e+00	0.00000e+00	0.00000e+00	0.00000e+00	0.00000e+00	0.00000e+00	0.00000e+00	0.00000e+00	0.00000e+00	0.00000e+00	0.00000e+00	0.00000e+00	0.00000e+00	0.00000e+00	0.00000e+00	0.00000e+00	0.00000e+00	0.00000e+00	0.00000e+00	0.00000e+00	0.00000e+00	0.00000e+00	0.00000e+00	0.00000e+00	0.00000e+00	0.00000e+00	0.00000e+00	0.00000e+00	0.00000e+00	0.00000e+00	0.00000e+00	0.00000e+00	-5.59862e+01	-1.37165e+02	-1.09869e+02	-1.83892e+02	-6.46307e+01	-7.36611e+01	-1.56891e+02	-1.62015e+02	-4.00765e+01	-6.46858e+01	-1.74830e+02	-1.70829e+02	-1.79669e+02	-1.77438e+02	-3.40695e+01	-1.50113e+02	
Factor	2.00826e-05	1.16048e-04	2.50199e-05	2.01756e-01	1.04398e-06	1.05918e-06	1.68114e-01	5.33662e-02	9.36267e-07	1.40336e-06	1.25515e-01	3.06584e-02	2.97817e-02	1.00133e-02	1.07325e-06	1.43431e-02	9.95168e-07	1.02890e-06	2.87747e-07	1.00126e-01	1.12210e-08	1.12741e-08	7.94418e-02	2.67727e-02	1.12170e-08	1.12980e-08	5.87010e-02	1.47241e-02	1.47267e-02	4.94447e-03	1.13127e-08	6.80183e-03	X	X	X	X	X	X	X	X	X	X	X	X	X	X	X	X	



#DISTANCE SETTINGS
A = Detector Channel
A-1	A-2	A-3	A-4	A-5	A-6	A-7	A-8	A-9	A-10	A-11	A-12	A-13	A-14	A-15	A-16	

2.5000e+00	3.0000e+00	2.5000e+00	3.0000e+00	2.0000e+00	3.0000e+00	1.5000e+00	3.0000e+00	3.0000e+00	3.0000e+00	3.0000e+00	3.0000e+00	3.0000e+00	3.0000e+00	1.5000e+00	3.0000e+00	

B = Detector Channel
B-1	B-2	B-3	B-4	B-5	B-6	B-7	B-8	B-9	B-10	B-11	B-12	B-13	B-14	B-15	B-16	

1.0000e+01	1.0000e+01	1.0000e+01	1.4400e+00	1.0000e+01	1.0000e+01	1.5100e+00	1.9400e+00	1.0000e+01	1.0000e+01	1.9900e+00	2.4900e+00	2.4100e+00	2.9000e+00	1.0000e+01	2.9800e+00	




#DATA BEGINS
time	group	step	mark	flag	A-AC1	A-AC2	A-AC3	A-AC4	A-AC5	A-AC6	A-AC7	A-AC8	A-AC9	A-AC10	A-AC11	A-AC12	A-AC13	A-AC14	A-AC15	A-AC16	A-DC1	A-DC2	A-DC3	A-DC4	A-DC5	A-DC6	A-DC7	A-DC8	A-DC9	A-DC10	A-DC11	A-DC12	A-DC13	A-DC14	A-DC15	A-DC16	A-Ph1	A-Ph2	A-Ph3	A-Ph4	A-Ph5	A-Ph6	A-Ph7	A-Ph8	A-Ph9	A-Ph10	A-Ph11	A-Ph12	A-Ph13	A-Ph14	A-Ph15	A-Ph16	B-AC1	B-AC2	B-AC3	B-AC4	B-AC5	B-AC6	B-AC7	B-AC8	B-AC9	B-AC10	B-AC11	B-AC12	B-AC13	B-AC14	B-AC15	B-AC16	B-DC1	B-DC2	B-DC3	B-DC4	B-DC5	B-DC6	B-DC7	B-DC8	B-DC9	B-DC10	B-DC11	B-DC12	B-DC13	B-DC14	B-DC15	B-DC16	B-Ph1	B-Ph2	B-Ph3	B-Ph4	B-Ph5	B-Ph6	B-Ph7	B-Ph8	B-Ph9	B-Ph10	B-Ph11	B-Ph12	B-Ph13	B-Ph14	B-Ph15	B-Ph16	aux-1	digaux	

7361.785	1	1	0	512	0.1518	0.2046	0.064205	0.18351	0.19676	0.25464	0.20173	0.2191	0.18751	0.10464	0.19689	0.20675	0.15508	0.14581	0.11506	0.13262	-2.9813	-2.6021	-3.4833	-2.9688	-2.7062	-3.35	-2.4854	-3.0146	-3.4958	-2.7	-3.4542	-3.2604	-2.5083	-3.4562	-2.7896	-3.0438	116.759	-7.941	-85.790	-68.701	177.876	-87.164	-31.504	-36.994	-103.896	77.309	-91.727	158.376	-114.162	13.615	6.820	167.526	0.0002259	0.00062769	2.5038e-05	184.75	4.8261e-06	3.6938e-06	334.09	61.011	3.137e-06	3.1097e-06	142.19	56.411	23.942	11.476	3.5457e-06	29.533	0.00025554	0.00024855	7.2889e-05	199.21	2.804e-06	2.7213e-06	336.47	64.2	2.8091e-06	2.7617e-06	144.93	56.151	26.049	11.978	2.9959e-06	28.929	-75.661	-98.227	119.120	-110.372	-8.262	106.290	-109.899	-104.122	-41.858	10.559	-105.057	-100.690	-99.219	-95.461	-11.485	-97.280	-8191	255	
7361.881	1	1	0	0	0.057692	0.025635	0.1019	0.21641	0.34758	0.11305	0.29419	0.14091	0.25908	0.11031	0.13003	0.32289	0.040501	0.15298	0.10653	0.12269	-3.1104	-2.5229	-3.4396	-3.2792	-2.8688	-3.8229	-3.1125	-3.1375	-3.6604	-2.6625	-3.4604	-3.0354	-2.65	-3.3792	-2.7687	-2.9021	125.817	-79.241	-84.605	-118.574	235.122	147.195	172.650	65.288	-75.201	-7.566	-41.491	142.411	220.665	148.451	-3.342	118.277	0.00017655	0.00023876	7.2201e-05	186.5	1.1389e-06	2.4145e-06	337.81	61.68	3.1598e-06	2.6867e-06	143.7	55.76	23.884	11.514	4.6347e-06	29.508	0.00025799	0.00025333	7.5953e-05	199.92	2.7953e-06	2.8374e-06	340.89	64.877	2.7837e-06	2.8028e-06	145.62	56.186	26.003	11.986	2.9549e-06	28.817	-103.950	236.236	22.641	-109.909	11.261	141.163	-110.065	-103.580	110.555	4.775	-105.242	-100.243	-98.456	-94.528	98.388	-96.771	-8191	255	
7362.001	1	1	0	0	0.17272	0.20619	0.14566	0.16497	0.07648	0.084234	0.16899	0.2751	0.24863	0.15484	0.13382	0.25692	0.10682	0.13101	0.093065	0.10491	-3.2146	-2.9792	-3.3833	-3.2896	-2.7062	-3.3021	-2.8604	-3.0021	-3.5521	-2.9646	-3.3229	-3.4062	-2.525	-3.2729	-3.0167	-2.7562	81.905	114.776	63.914	236.878	222.919	206.943	209.456	216.969	64.188	60.550	207.107	121.603	-118.280	105.037	-70.837	-21.655	0.00018698	9.5812e-05	8.585e-05	186.89	2.3018e-06	1.5302e-06	334.36	60.551	2.468e-06	2.7298e-06	142.51	55.157	24.242	11.422	5.6771e-06	28.823	0.00025223	0.00025797	7.5574e-05	200.17	2.7124e-06	2.8636e-06	337.34	64.043	2.7965e-06	2.909e-06	144.04	55.526	25.807	11.924	2.9683e-06	28.341	-121.420	-101.505	56.005	-110.296	137.774	14.363	-109.922	-103.511	-31.476	-38.056	-104.927	-100.607	-99.105	-94.806	33.398	-96.788	-8191	255	
7362.098	1	1	0	0	0.16945	0.21622	0.14867	0.10368	0.05925	0.23052	0.17374	0.16735	0.22712	0.10638	0.20611	0.12922	0.13079	0.11884	0.1928	0.14064	-3.1854	-2.9354	-3.0896	-3.3812	-2.7833	-3.2375	-3.2	-2.8125	-3.6375	-2.9792	-2.9167	-3.45	-2.5792	-3.2271	-3.4333	-2.8167	157.920	69.200	-114.046	204.337	207.635	58.762	143.303	-14.485	-32.990	198.084	197.199	59.628	213.957	-3.041	-28.417	129.484	0.00013312	0.00028181	4.6531e-05	187.3	4.1711e-06	4.4108e-06	335.19	61.332	1.6081e-06	6.741e-06	142.29	54.511	23.925	11.503	2.8946e-06	28.959	0.00024922	0.00026667	7.3885e-05	199.5	2.7317e-06	2.9324e-06	337.82	64.027	2.7405e-06	2.9193e-06	144.27	55.212	25.695	11.861	2.8684e-06	28.448	-63.399	222.820	-14.054	-110.621	14.639	-51.228	-109.827	-103.413	70.176	34.356	-104.593	-100.110	-99.447	-95.044	-55.786	-96.709	-8191	255	
7362.169	1	1	0	0	0.2912	0.20437	0.037283	0.20276	0.031142	0.30662	0.16029	0.17606	0.12877	0.1426	0.21216	0.16453	0.15464	0.042959	0.14288	0.098764	-3.1917	-2.825	-3.0146	-3.5417	-2.4583	-3.2938	-3.3438	-2.6979	-3.5604	-3.1208	-2.9437	-3.5854	-2.8083	-3.3688	-3.3125	-2.65	-18.124	216.196	55.763	-0.476	-79.794	-87.638	-90.545	19.767	-93.577	-69.237	43.543	-13.363	159.768	-4.485	143.080	237.075	0.00016995	8.6347e-05	6.9366e-05	185.95	8.3982e-07	1.3767e-06	338.87	61.377	1.7296e-06	2.7955e-06	144.69	55.721	23.72	11.49	2.7797e-06	29.264	0.00025037	0.00027267	7.3162e-05	199.65	2.7727e-06	2.9469e-06	340.86	64.405	2.8304e-06	2.9736e-06	145.55	55.897	25.899	11.958	2.8895e-06	28.643	-55.879	97.843	40.142	-110.506	185.940	-53.452	-109.781	-103.158	78.167	41.248	-104.261	-100.309	-98.826	-94.684	120.464	-96.721	-8191	255	
7362.265	1	1	0	0	0.132	0.072286	0.36345	0.16393	0.040889	0.13293	0.068787	0.18568	0.13744	0.31351	0.049317	0.1158	0.22945	0.12478	0.12003	0.08689	-2.9125	-2.8021	-2.625	-3.4958	-2.8396	-3.3438	-3.4229	-2.7146	-3.4604	-3.0333	-2.8417	-3.5208	-2.7604	-3.0708	-3.4396	-2.7667	2.114	-84.571	-16.893	155.703	-116.134	-81.343	186.238	-97.450	-31.527	63.385	-80.983	108.312	-44.835	217.262	223.835	218.824	0.00012538	0.00073832	2.1878e-05	189.04	3.7879e-06	2.5313e-06	339.8	60.758	2.891e-06	5.1212e-06	143.03	55.3	23.567	11.448	2.6702e-06	28.722	0.00026147	0.00026855	7.2849e-05	200.31	2.8445e-06	2.912e-06	342.43	64.156	2.8356e-06	2.9042e-06	144.79	55.55	25.879	11.881	2.7857e-06	28.361	-71.602	58.747	-47.135	-110.609	167.916	49.384	-110.166	-103.508	-23.818	106.081	-105.674	-100.456	-99.989	-95.251	107.361	-96.725	-8191	255	
7362.386	1	1	0	0	0.092634	0.029742	0.13242	0.17741	0.2146	0.11366	0.18361	0.18443	0.1957	0.26092	0.090102	0.073067	0.065274	0.21821	0.22988	0.035964	-3.2292	-3.2333	-3.0479	-3.4479	-2.8354	-3.1188	-3.5021	-2.6958	-3.2562	-3.3646	-2.8	-3.5729	-2.7625	-3.0146	-3.4104	-2.7188	74.179	-94.635	-43.255	-109.116	19.879	87.699	232.430	-56.504	209.484	-18.675	126.425	46.743	-52.774	156.706	-87.009	93.767	0.00012742	0.00054092	5.6573e-05	188.15	9.8798e-07	2.8981e-06	337.18	60.467	5.6579e-06	6.8609e-06	142.61	55.774	23.632	11.389	1.2697e-06	29.074	0.00026124	0.00026449	7.0789e-05	199.13	2.8697e-06	2.8472e-06	338.63	63.762	2.8787e-06	2.844e-06	144.23	55.595	25.845	11.799	2.7637e-06	28.503	-97.941	98.123	-120.410	-110.327	26.506	48.024	-109.415	-103.737	-16.493	32.193	-105.050	-100.432	-99.397	-94.722	71.066	-96.854	-8191	255	
7362.482	1	1	0	0	0.22584	0.26597	0.18864	0.20848	0.25851	0.16595	0.11802	0.1171	0.035058	0.24505	0.088238	0.33349	0.10033	0.065514	0.1379	0.1246	-2.9583	-3.2521	-2.7417	-3.5792	-2.9167	-2.8896	-3.4875	-2.8479	-3.2958	-3.2771	-2.6354	-3.45	-2.8688	-2.8083	-3.6521	-2.875	118.172	184.209	100.632	-94.191	93.819	10.525	104.036	225.431	92.102	-57.587	-22.357	85.069	150.330	22.145	12.705	59.236	0.00011934	0.00039821	5.7097e-05	185.18	3.9599e-06	2.7914e-06	343.22	61.229	2.6538e-06	9.4416e-07	142.39	55.909	23.787	11.559	1.992e-06	29.304	0.00026188	0.00025363	6.927e-05	198.91	2.8711e-06	2.7575e-06	342.45	64.169	2.8947e-06	2.7796e-06	144.32	56.11	25.925	11.92	2.7089e-06	28.774	-82.467	65.769	194.674	-110.197	231.655	48.411	-109.499	-103.865	45.350	-47.738	-106.746	-100.738	-99.492	-95.810	78.920	-97.891	-8191	255	
7362.578	1	1	0	0	0.12505	0.17306	0.17242	0.26162	0.2408	0.15611	0.082711	0.076861	0.13744	0.34371	0.060246	0.21154	0.15308	0.20734	0.11895	0.14858	-2.6604	-3.4042	-2.5479	-3.3396	-3.2188	-2.8208	-3.5521	-2.6417	-2.9396	-3.5125	-2.6833	-3.4125	-3.125	-2.8542	-3.5458	-2.6854	157.871	111.762	-59.018	91.085	17.846	229.364	80.503	183.135	-75.111	-21.629	-117.136	-95.793	27.181	-38.903	92.800	90.382	0.00020912	0.00024576	4.1968e-05	186.93	4.1265e-06	4.7188e-06	342.19	61.174	8.4336e-07	2.9812e-06	144.5	55.955	24.038	11.537	1.718e-06	29.667	0.00025674	0.00025432	6.8363e-05	200.67	2.8134e-06	2.7339e-06	344.5	64.813	2.8249e-06	2.7288e-06	145.53	56.499	25.96	11.998	2.6834e-06	29.075	-103.421	-66.183	186.736	-110.078	48.881	20.984	-111.108	-104.981	66.825	22.789	-106.562	-102.114	-100.775	-96.804	37.214	-98.447	-8191	255	
7362.675	1	1	0	0	0.19456	0.10149	0.17672	0.24544	0.077123	0.17238	0.2591	0.070503	0.14826	0.22045	0.050621	0.047939	0.14716	0.2371	0.021318	0.15355	-2.5792	-3.4667	-2.6792	-3.3708	-3.2229	-2.6312	-3.4771	-2.7396	-2.9167	-3.5146	-2.7729	-3.4521	-3.4062	-2.7687	-3.6312	-2.825	-13.079	-51.465	-61.926	-20.827	140.907	-61.095	-86.846	193.748	89.978	-85.295	-112.049	227.828	-20.146	-51.661	-88.713	178.483	0.00014854	0.00049082	1.3282e-05	189.55	2.4209e-06	2.9814e-06	341.02	60.764	5.7142e-06	4.5876e-06	143.8	55.647	23.563	11.471	2.4787e-06	29.173	0.00025214	0.00024104	6.7371e-05	201.54	2.7583e-06	2.6439e-06	342.31	64.143	2.742e-06	2.6488e-06	144.28	56.042	25.559	11.804	2.6723e-06	28.712	-84.915	-55.889	104.950	-111.006	25.232	35.909	-110.890	-104.960	-38.859	-121.673	-106.580	-101.698	-101.039	-96.589	208.270	-98.245	-8191	255	
7362.771	1	1	0	0	0.41188	0.15139	0.076465	0.29709	0.24589	0.11435	0.24118	0.043974	0.27571	0.10169	0.15428	0.24708	0.20396	0.18661	0.13495	0.19614	-2.475	-3.7313	-2.775	-3.2917	-3.2729	-2.5917	-3.4771	-2.9833	-3.0417	-3.5833	-2.7188	-3.125	-3.4146	-2.8646	-3.5375	-3.0458	-101.620	135.572	95.329	223.610	-57.493	-72.720	141.899	-115.296	174.553	-37.057	150.842	-21.215	-122.484	-66.266	10.244	184.752	0.00016328	0.0001635	3.299e-05	188.48	1.0993e-06	9.3399e-07	341.06	60.725	4.9478e-06	1.7002e-06	144.43	56.042	23.624	11.484	1.3977e-06	29.294	0.00024437	0.00023816	6.856e-05	200.24	2.6894e-06	2.587e-06	342.17	64.463	2.6471e-06	2.5824e-06	145.24	56.096	25.49	11.793	2.7349e-06	28.878	-84.327	-51.720	223.808	-110.762	-80.232	-60.393	-110.682	-105.088	26.841	-13.627	-106.589	-101.545	-100.449	-96.538	83.996	-98.413	-8191	255	
7362.865	1	1	0	0	0.32983	0.15877	0.013029	0.063262	0.20482	0.16252	0.29244	0.10532	0.23978	0.071813	0.29625	0.13729	0.088798	0.12574	0.35553	0.2661	-2.3167	-3.5958	-2.6875	-3.2313	-3.2354	-2.7313	-3.4562	-2.9125	-2.6896	-3.3438	-2.9229	-3.1562	-3.5687	-2.6813	-3.325	-3.1396	-116.652	210.465	47.145	-93.824	200.127	-80.305	236.428	180.402	186.664	82.600	146.940	231.088	185.467	220.306	-6.787	-122.822	0.00018702	0.00017053	8.4322e-05	188.3	5.1638e-06	2.5623e-06	344.82	60.811	3.9553e-06	3.8891e-06	145.43	56.811	23.579	11.393	1.3882e-06	30.053	0.00023945	0.00023218	6.9702e-05	199.88	2.6277e-06	2.5494e-06	345.17	64.191	2.6167e-06	2.5795e-06	146.71	56.737	25.554	11.864	2.7257e-06	29.292	-98.781	-85.125	1.832	-110.942	-12.080	210.017	-111.226	-105.213	82.508	-34.287	-106.809	-101.485	-100.352	-96.745	13.733	-98.716	-8191	255	
7362.963	1	1	0	0	0.19345	0.022758	0.27619	0.19555	0.10904	0.24173	0.21379	0.10378	0.2905	0.063201	0.19254	0.080735	0.082989	0.15243	0.051075	0.14152	-2.3937	-3.4896	-2.8187	-3.0938	-3.5146	-2.7271	-3.1542	-3.0646	-2.6104	-3.6292	-2.9479	-2.8937	-3.4938	-2.7229	-3.1604	-3.325	59.913	154.454	24.726	21.054	142.941	157.354	198.422	95.786	195.069	233.342	137.550	-29.107	40.923	189.354	200.020	163.818	0.00022012	0.00028862	0.0001572	189.9	2.1024e-06	3.2412e-06	343.88	61.515	3.6378e-06	1.1592e-06	145.09	56.634	23.804	11.542	2.8549e-06	29.933	0.00023455	0.00023056	6.8846e-05	200.93	2.5337e-06	2.5499e-06	345.06	64.104	2.4997e-06	2.5799e-06	146.09	56.46	25.321	11.866	2.7114e-06	29.156	-91.197	7.962	-11.446	-111.143	90.532	201.021	-111.067	-105.189	-39.794	-62.216	-106.647	-101.415	-100.762	-96.817	106.061	-98.756	-8191	255	
7363.082	1	1	0	0	0.14658	0.13452	0.1668	0.070443	0.10896	0.1323	0.13851	0.14528	0.11392	0.24086	0.22876	0.13068	0.061079	0.10672	0.12706	0.1167	-2.1396	-3.5646	-3.1	-2.7354	-3.3917	-2.7083	-3.1917	-3.3917	-2.4458	-3.4083	-3.1396	-2.9417	-3.4354	-2.8729	-3.0583	-3.3979	122.902	-97.962	217.466	-0.297	54.296	-119.022	-4.968	5.698	94.284	194.366	-33.438	-103.167	68.528	228.920	-21.361	66.612	0.00020055	0.00012876	0.00011525	186.94	2.5253e-06	2.6381e-06	338.88	60.6	2.6997e-06	6.3879e-07	145.39	56.579	23.724	11.576	3.6716e-06	29.671	0.0002291	0.00023359	6.8118e-05	197.56	2.4569e-06	2.5892e-06	341.65	63.626	2.4407e-06	2.6284e-06	145.45	56.169	25.394	11.847	2.635e-06	29.016	-87.824	227.328	177.130	-111.632	109.736	54.770	-111.373	-105.364	-16.579	220.355	-106.185	-101.646	-100.943	-96.444	210.288	-98.097	-8191	255	
7363.178	1	1	0	0	0.10895	0.31987	0.23244	0.086476	0.26065	0.22416	0.2395	0.068637	0.14721	0.14711	0.21082	0.23195	0.19198	0.18774	0.21008	0.16537	-2.1521	-3.4437	-3.0333	-2.6958	-3.575	-2.5604	-2.8979	-3.4562	-2.9833	-3.4437	-3.1896	-2.5229	-3.4917	-2.9792	-3.0938	-3.4437	2.325	65.411	123.170	198.179	32.307	84.504	62.692	-97.186	-100.806	188.285	49.584	184.413	59.377	-45.242	76.749	-119.297	0.0001386	0.00072644	8.6357e-05	186.92	3.0452e-06	1.9455e-06	345.24	61.021	1.8548e-06	6.7122e-06	145.89	56.692	23.382	11.532	2.929e-06	29.664	0.0002244	0.00023706	6.6747e-05	197.74	2.4343e-06	2.6236e-06	344.17	63.811	2.4276e-06	2.6521e-06	145.44	56.24	25.239	11.9	2.5746e-06	29.123	-102.021	-36.980	30.158	-111.148	216.940	116.856	-110.848	-104.770	-1.336	160.213	-106.323	-101.380	-100.629	-96.547	-7.697	-98.146	-8191	255	
7363.274	1	1	0	0	0.18907	0.19286	0.12564	0.15987	0.14612	0.15991	0.25995	0.18415	0.29081	0.084966	0.11641	0.11002	0.1349	0.10181	0.05409	0.19303	-2.1583	-3.4021	-3.2896	-2.575	-3.5	-2.9854	-3.0438	-3.5792	-2.8	-3.2896	-3.2729	-2.5167	-3.5812	-3.1333	-2.6937	-3.4562	211.159	6.849	134.243	220.023	-45.357	38.133	232.847	183.712	196.620	-102.979	119.699	91.344	65.890	-107.065	-102.325	177.898	0.00024356	0.00043623	1.5505e-05	190.11	4.2218e-06	3.0299e-06	347.42	61.758	3.1028e-06	5.7653e-06	144.72	56.406	23.604	11.411	5.9961e-07	29.749	0.00022923	0.00024107	6.5055e-05	198.91	2.5313e-06	2.6721e-06	346.1	64.082	2.536e-06	2.6462e-06	145.73	56.441	25.367	11.86	2.5439e-06	29.022	-76.408	90.036	210.130	-110.867	203.889	14.511	-110.712	-104.363	-35.187	79.049	-106.398	-101.180	-100.302	-96.525	148.370	-98.231	-8191	255	
7363.370	1	1	0	0	0.044317	0.18299	0.27802	0.21258	0.036448	0.12393	0.046261	0.16704	0.10399	0.079359	0.067608	0.10437	0.15405	0.26292	0.09236	0.094	-2.2	-3.0563	-3.4521	-2.8021	-3.4042	-2.9583	-2.575	-3.4604	-2.8167	-3.275	-3.4917	-2.5667	-3.4604	-3.0729	-2.7729	-3.7521	207.532	228.403	173.782	223.609	-65.446	164.327	-3.027	-86.868	184.952	172.403	124.292	69.060	-16.472	83.016	218.180	68.101	0.00014422	0.00020942	4.4438e-05	189.11	2.7533e-06	2.237e-06	340.32	60.534	2.063e-06	8.0324e-07	143.6	55.125	23.577	11.243	3.5405e-06	28.861	0.00023593	0.00023875	6.397e-05	197.99	2.5995e-06	2.6275e-06	339.54	63.031	2.5894e-06	2.601e-06	143.39	55.088	25.203	11.653	2.5177e-06	28.329	-90.210	-111.023	20.863	-111.296	-63.299	77.937	-110.313	-104.300	45.418	-107.208	-105.594	-100.990	-99.175	-95.787	-43.544	-97.815	-8191	255	
7363.466	1	1	0	0	0.12408	0.13091	0.25498	0.091112	0.39754	0.10454	0.11296	0.063886	0.15941	0.16549	0.22489	0.12388	0.12726	0.14102	0.060974	0.053787	-2.4562	-3.1292	-3.5604	-2.4708	-3.2917	-3.2333	-2.65	-3.5021	-2.8083	-3.0458	-3.4708	-2.6958	-3.3542	-3.1458	-2.5854	-3.6167	188.038	-121.129	83.674	115.375	166.145	112.001	161.952	222.980	154.048	169.121	212.411	222.841	127.466	151.111	99.696	114.310	0.00018116	0.00091396	8.295e-05	185.7	1.5896e-06	5.2951e-06	342	60.654	4.1935e-06	2.0943e-06	143.82	55.633	23.683	11.382	1.8389e-06	29.408	0.00024128	0.00023851	6.494e-05	197.01	2.6172e-06	2.5816e-06	340.38	63.134	2.6544e-06	2.586e-06	143.55	55.16	25.331	11.708	2.4697e-06	28.653	-106.125	-91.261	-93.658	-110.518	80.045	28.278	-110.911	-104.537	-54.817	32.019	-106.031	-101.225	-100.785	-95.680	6.712	-97.393	-8191	255	
7363.563	1	1	0	0	0.27553	0.22082	0.083426	0.13692	0.069137	0.11198	0.17181	0.14617	0.16245	0.040002	0.069884	0.24334	0.34516	0.086133	0.23971	0.1205	-2.5896	-2.7104	-3.5417	-2.6333	-3.0083	-3.3042	-2.8708	-3.3063	-2.9792	-3.0042	-3.5792	-2.6896	-3.1688	-3.5417	-2.5	-3.3583	74.527	-18.205	156.891	42.839	-101.397	-12.142	-65.648	-65.381	94.882	-80.242	-67.407	185.261	226.960	-115.174	215.194	-76.841	0.00014399	0.00058897	5.8368e-05	187.64	4.6565e-06	1.7215e-06	342.8	61.29	1.3904e-06	5.6861e-06	147.13	55.941	23.413	11.441	1.0069e-06	29.539	0.00024063	0.00023251	6.2411e-05	200.03	2.6426e-06	2.5702e-06	342.85	64.066	2.6714e-06	2.5832e-06	145.32	56.087	25.592	11.83	2.5128e-06	29.068	-115.270	-73.821	-76.009	-110.814	24.236	113.418	-110.474	-103.642	-50.233	-1.926	-105.303	-100.705	-99.882	-95.190	143.151	-97.250	-8191	255	
7363.683	1	1	0	0	0.069146	0.2616	0.09008	0.064056	0.20122	0.20855	0.30786	0.15769	0.13587	0.25	0.33345	0.036249	0.33699	0.16837	0.19953	0.21262	-2.4688	-2.9062	-3.5271	-2.7417	-3.1146	-3.4271	-2.7438	-3.7708	-3.2708	-2.8146	-3.5271	-2.8833	-3.1312	-3.6063	-2.5542	-3.3958	189.116	-74.195	180.019	177.086	226.442	153.128	216.750	88.987	-73.804	115.681	-11.401	-84.759	-93.843	94.222	20.648	83.380	0.00018749	0.00030523	8.7003e-05	189.63	1.8997e-06	6.1227e-07	347.13	61.047	3.3003e-06	4.2422e-06	145.15	56.466	23.794	11.536	3.0505e-06	29.666	0.00024499	0.00023558	6.3404e-05	201	2.6504e-06	2.6055e-06	345.48	64.35	2.651e-06	2.5404e-06	145.39	56.468	25.545	11.797	2.5302e-06	29.097	-57.638	-80.503	36.285	-110.437	214.573	-29.748	-110.393	-103.877	54.199	-42.916	-105.053	-100.770	-99.434	-95.590	52.374	-97.967	-8191	255	
7363.779	1	1	0	0	0.11037	0.29839	0.063015	0.13713	0.14532	0.044114	0.20275	0.10845	0.19999	0.039326	0.12414	0.24131	0.10386	0.24753	0.20542	0.18535	-2.9292	-2.6333	-3.4917	-2.8063	-2.9604	-3.5687	-2.8	-3.35	-3.2521	-2.7208	-3.5563	-2.9604	-2.9813	-3.5042	-2.5729	-3.4313	229.603	40.463	150.008	22.399	-116.231	198.794	95.719	181.415	218.062	-112.621	8.460	-20.148	79.971	116.479	-38.337	86.594	0.00015651	0.00025547	2.6441e-05	188.88	3.0759e-06	3.6313e-06	343.49	60.756	8.374e-07	5.0146e-06	143.6	55.873	23.415	11.495	4.5225e-06	29.598	0.00024272	0.00023748	6.4684e-05	200.96	2.6211e-06	2.5424e-06	342.98	64.009	2.6018e-06	2.5435e-06	145.08	56.151	25.49	11.796	2.6002e-06	29	-61.137	-63.224	13.111	-111.052	-10.436	89.649	-110.358	-103.882	-96.045	88.731	-105.227	-100.944	-99.586	-95.780	196.664	-97.166	-8191	255	
7363.874	1	1	0	0	0.19239	0.16269	0.18271	0.23433	0.20502	0.25102	0.2524	0.059834	0.17941	0.12276	0.073228	0.14651	0.19838	0.18438	0.10046	0.088595	-2.9104	-2.5896	-3.5062	-2.9417	-2.6979	-3.4771	-2.9958	-3.0687	-3.3021	-2.5958	-3.3563	-2.9875	-2.7229	-3.5021	-2.9875	-3.1396	193.067	5.148	232.646	161.207	0.731	145.152	197.737	90.675	162.340	-105.192	-90.900	58.223	-74.476	179.571	-3.306	148.457	0.00022338	8.7979e-05	0.00012257	190.19	1.2144e-06	1.6774e-06	343.73	61.767	6.2684e-06	6.6272e-06	145.58	56.381	23.821	11.522	1.3362e-06	30.15	0.00024177	0.00023175	6.7306e-05	201.97	2.6222e-06	2.5244e-06	344.4	64.728	2.5852e-06	2.5624e-06	146.44	56.679	25.64	11.866	2.7546e-06	29.354	-73.483	223.228	197.466	-111.078	115.725	23.844	-110.391	-104.153	70.697	28.364	-104.946	-100.623	-99.070	-96.236	-21.906	-98.080	-8191	255	
7363.970	1	1	0	0	0.2346	0.14493	0.17667	0.062771	0.3181	0.10593	0.2723	0.042426	0.10756	0.17722	0.15808	0.075315	0.23943	0.079642	0.043119	0.074785	-2.9875	-2.4292	-3.2729	-3.1729	-2.8271	-3.6229	-2.875	-3.1792	-3.4375	-2.7333	-3.5021	-3.1146	-2.7	-3.5896	-2.7771	-2.8354	155.010	-76.705	191.943	192.225	63.995	177.355	-109.797	2.079	233.927	-102.961	95.399	-111.034	133.558	189.466	-86.086	-92.809	0.00018755	0.00014551	7.4977e-05	190.08	2.4088e-06	4.9364e-06	347.23	61.593	2.3863e-06	9.6723e-06	145.44	57.049	24.101	11.661	1.45e-06	29.799	0.0002411	0.00023489	6.9816e-05	202.25	2.613e-06	2.5981e-06	347.88	64.586	2.6218e-06	2.5708e-06	147.67	57.173	25.784	11.976	2.7709e-06	29.437	-71.073	202.347	104.504	-110.418	-79.852	86.701	-110.242	-103.426	137.151	184.525	-105.739	-100.734	-99.087	-95.901	79.855	-97.890	-8191	255	
7364.066	1	1	0	0	0.20871	0.19212	0.048186	0.16139	0.18781	0.035947	0.22393	0.052858	0.13779	0.16751	0.14495	0.22214	0.1964	0.11526	0.11428	0.12155	-2.8375	-2.5146	-3.2271	-2.9	-2.5333	-3.5146	-2.9833	-2.8375	-3.5146	-2.9021	-3.2562	-3.3479	-2.7938	-3.5396	-3.0104	-2.8063	122.196	-62.180	152.523	98.951	-60.339	-34.932	-73.870	172.519	180.343	-45.072	-82.298	-16.882	-16.593	224.281	156.291	133.095	0.00021331	0.00018527	2.2432e-05	189.93	1.8235e-06	2.5973e-06	347.21	61.753	4.1307e-06	1.5689e-06	145.22	57.072	24.015	11.463	5.6863e-06	29.959	0.00023837	0.00023953	7.0603e-05	201.42	2.5808e-06	2.614e-06	349.67	64.694	2.5514e-06	2.6294e-06	147.45	57.159	25.776	11.959	2.78e-06	29.36	-90.193	-58.667	-7.795	-110.143	1.135	69.474	-110.304	-103.607	106.137	78.737	-105.396	-100.838	-99.621	-95.316	25.120	-97.587	-8191	255	
7364.162	1	1	0	0	0.21739	0.27029	0.24254	0.070708	0.14908	0.26454	0.17909	0.1507	0.28324	0.24782	0.31933	0.25308	0.087771	0.033462	0.038877	0.14791	-3.175	-2.6729	-3.2542	-3.2708	-2.5229	-3.5271	-3.125	-2.7417	-3.3688	-2.7062	-3.1854	-3.4354	-2.6042	-3.5458	-3.0958	-2.5875	-56.798	9.059	-9.182	13.474	-6.474	-5.282	32.171	85.257	-99.972	-110.802	221.180	46.769	-11.224	-14.136	-63.288	-115.855	0.00016346	0.00055671	5.7237e-05	188.73	1.9981e-06	1.3604e-06	347.84	61.582	2.9757e-06	6.2556e-06	145.92	57.302	23.776	11.717	2.0056e-06	29.934	0.00023224	0.00024421	6.9077e-05	201.07	2.5287e-06	2.6946e-06	348.19	64.439	2.5122e-06	2.6964e-06	147.96	57.073	25.647	12.027	2.7222e-06	29.417	-71.966	45.099	-87.728	-110.851	45.640	-26.706	-110.267	-104.111	72.067	-56.605	-105.340	-101.321	-100.002	-96.140	-49.907	-98.122	-8191	255	
7364.258	1	1	0	0	0.26777	0.038738	0.20158	0.13964	0.20974	0.23574	0.072185	0.24301	0.16984	0.11453	0.14016	0.17817	0.29259	0.03253	0.19379	0.11112	-3	-2.7271	-3.1833	-3.4333	-2.5146	-3.3167	-3.2729	-2.6354	-3.6083	-2.8271	-2.9562	-3.3937	-2.5042	-3.4083	-3.2479	-2.8146	213.139	92.086	-62.313	213.618	44.226	204.040	218.715	-120.330	84.162	2.503	-35.047	46.010	123.442	136.414	-44.812	71.528	0.0001841	0.0002735	3.6189e-05	188.76	4.4915e-06	2.3997e-06	347.02	61.783	4.2731e-06	3.4107e-06	146.04	57.967	24.084	11.689	1.52e-06	30.501	0.00023041	0.00024527	6.7857e-05	200.5	2.5317e-06	2.7272e-06	349.32	64.58	2.549e-06	2.7359e-06	148.12	57.473	25.773	12.096	2.6197e-06	29.771	-73.579	1.461	217.636	-110.843	54.686	-82.709	-110.435	-104.516	43.536	47.703	-106.051	-101.270	-99.659	-96.069	92.271	-97.670	-8191	255	
7364.355	1	1	0	0	0.10792	0.012373	0.092275	0.16947	0.1827	0.29983	0.1074	0.12612	0.21721	0.1448	0.16645	0.25703	0.1774	0.18224	0.11188	0.18416	-3.0208	-2.8292	-3.0646	-3.4625	-2.6292	-3.2833	-3.2854	-2.7333	-3.5125	-2.7521	-2.6667	-3.6312	-2.7687	-3.1771	-3.3812	-2.7146	-58.379	-13.484	-29.078	-67.818	81.717	-23.847	187.060	-120.885	-69.235	100.931	228.334	201.692	155.746	69.244	-18.616	174.618	0.0002173	0.00029574	5.1651e-05	191.48	3.066e-06	1.9665e-06	353.76	62.29	1.1267e-06	5.8928e-06	146.63	58.099	24.211	11.742	3.1396e-06	30.504	0.00023284	0.00024635	6.6711e-05	200.92	2.5784e-06	2.6902e-06	352.88	64.828	2.5734e-06	2.6425e-06	147.71	57.622	25.913	12.095	2.5272e-06	29.743	-97.952	-70.776	-70.352	-110.461	128.955	-43.441	-110.261	-104.140	221.846	-0.215	-105.238	-101.076	-100.269	-96.066	-74.479	-97.472	-8191	255	
7364.475	1	1	0	0	0.13217	0.062387	0.14316	0.18192	0.048146	0.12018	0.20778	0.26718	0.15919	0.2407	0.23958	0.16017	0.094968	0.012481	0.16813	0.085044	-3.1229	-2.9854	-2.8229	-3.625	-2.7125	-3.0396	-3.6375	-2.7313	-3.4604	-3.25	-2.9104	-3.7271	-2.7542	-2.9875	-3.5167	-2.8396	122.991	222.055	116.329	112.543	-64.945	-36.709	91.720	-109.472	-106.582	49.302	218.587	126.530	103.486	-23.772	-33.193	216.047	7.7816e-05	0.00053871	9.8455e-05	193.08	1.3024e-06	3.664e-06	351.94	61.929	5.6878e-07	2.5748e-06	147.39	58.472	24.318	11.762	2.6826e-06	30.42	0.00023375	0.00023675	6.3729e-05	200.42	2.5622e-06	2.5774e-06	350.08	64.462	2.5302e-06	2.5461e-06	148.56	57.563	25.828	12.066	2.4409e-06	29.72	-72.823	-73.408	-28.167	-110.760	-45.205	46.890	-110.549	-104.251	14.548	29.282	-105.692	-100.984	-100.387	-95.536	5.671	-97.329	-8191	255	
7364.571	1	1	0	0	0.33963	0.25193	0.1245	0.16538	0.23745	0.13519	0.14539	0.056051	0.19692	0.15584	0.19341	0.25549	0.30583	0.097899	0.31159	0.22968	-3.1896	-3.1729	-2.7104	-3.5271	-3.1292	-3.0917	-3.5958	-2.6583	-3.1854	-3.3812	-2.7542	-3.4979	-2.8896	-2.9021	-3.6104	-2.6396	100.910	-53.429	8.457	-77.559	-14.329	237.164	-17.965	-106.752	158.121	-25.593	4.426	182.067	4.317	-99.352	109.589	201.979	0.00017885	0.00013422	3.8162e-05	190.51	1.9354e-06	2.5686e-06	351.44	61.809	3.3392e-06	5.3015e-06	151.44	58.519	24.019	11.779	3.1233e-06	31.07	0.00023827	0.00023005	6.2036e-05	200.71	2.5791e-06	2.5267e-06	352.08	64.431	2.5812e-06	2.4934e-06	149.62	57.978	25.953	12.046	2.4025e-06	30.173	-100.893	-85.194	53.166	-110.529	118.811	65.377	-110.538	-104.227	107.042	-73.819	-104.915	-100.853	-99.715	-95.300	130.227	-97.576	-8191	255	
7364.643	1	1	0	0	0.039011	0.24819	0.21402	0.25425	0.12757	0.251	0.26224	0.095372	0.20831	0.068122	0.16077	0.20947	0.13463	0.18158	0.14103	0.14935	-2.6646	-3.325	-2.7729	-3.4125	-3.0354	-2.8042	-3.6146	-2.8208	-3.2542	-3.5062	-2.5771	-3.4292	-3.1229	-2.7062	-3.6792	-2.8646	10.658	-65.132	-30.325	2.129	224.662	158.735	217.233	28.950	27.559	-35.770	-26.329	91.717	86.228	208.524	-75.809	160.896	0.00010906	0.00024888	1.1415e-05	194.07	1.9723e-06	6.2654e-06	357.67	62.75	3.8882e-06	4.5292e-06	152.21	59.223	24.3	11.859	7.4039e-07	31.422	0.00023593	0.00022459	6.0989e-05	202.65	2.5608e-06	2.4479e-06	356.53	65.043	2.5556e-06	2.4968e-06	150.64	58.817	26.025	12.174	2.4062e-06	30.483	-78.470	-112.668	-118.966	-110.872	-74.550	25.592	-110.352	-104.592	75.512	-44.197	-105.131	-101.209	-99.840	-95.197	-6.093	-97.547	-8191	255	
7364.764	1	1	0	0	0.11895	0.12991	0.092632	0.28459	0.23043	0.10226	0.20736	0.2594	0.17469	0.075968	0.14132	0.10962	0.13884	0.15461	0.072807	0.072944	-2.8958	-3.3625	-2.5792	-3.375	-3.2438	-2.8208	-3.4062	-2.5812	-3.1417	-3.4813	-2.5125	-3.3229	-3.2188	-2.6583	-3.3833	-2.9521	142.954	62.757	116.729	-30.973	223.354	220.034	-77.742	-62.132	131.963	223.627	125.357	1.787	62.560	23.761	-88.107	27.018	0.00013758	0.00040866	9.054e-05	191.56	2.1971e-06	9.298e-07	357.26	62.109	3.7793e-06	4.6569e-06	150.04	58.853	24.029	11.914	1.7059e-06	30.872	0.00023102	0.00022186	6.053e-05	203.12	2.5255e-06	2.4324e-06	354.84	65.068	2.4698e-06	2.4047e-06	149.2	58.52	25.75	12.069	2.401e-06	30.192	-66.375	-20.538	-0.947	-110.664	-35.033	192.799	-110.433	-104.582	122.212	21.721	-105.961	-100.928	-99.643	-95.954	-74.158	-98.144	-8191	255	
7364.860	1	1	0	0	0.15734	0.054716	0.22513	0.23769	0.21203	0.21328	0.29972	0.177	0.2769	0.087787	0.16784	0.090298	0.086368	0.37828	0.24257	0.12655	-2.6083	-3.4521	-2.7438	-3.3604	-3.2979	-2.7146	-3.5854	-2.9813	-3.0396	-3.5187	-2.5729	-3.3646	-3.3271	-2.6708	-3.5354	-2.95	-93.643	-25.013	147.872	135.969	-72.948	53.533	204.855	-49.695	134.379	-56.759	207.325	166.416	101.717	-105.631	114.509	190.014	0.00013116	0.00036247	0.00012489	191.55	2.5249e-06	3.3244e-06	356.24	61.953	1.987e-06	2.1974e-06	149.64	58.957	23.762	11.811	9.0704e-07	30.878	0.00022393	0.00021956	6.1526e-05	202.82	2.4244e-06	2.3562e-06	354.37	64.845	2.4231e-06	2.3765e-06	149.14	58.225	25.631	11.99	2.453e-06	30.131	-110.479	229.351	235.193	-110.043	16.359	89.741	-110.479	-104.782	-109.293	215.054	-106.356	-100.797	-99.824	-95.414	62.572	-97.650	-8191	255	
7364.954	1	1	0	0	0.23696	0.17003	0.13327	0.32214	0.10133	0.029457	0.091957	0.15441	0.18241	0.12702	0.22501	0.12561	0.14128	0.22101	0.14829	0.22766	-2.5167	-3.5229	-2.7646	-3.2104	-3.2958	-2.7583	-3.5896	-2.8917	-2.6979	-3.5958	-2.7938	-3.0438	-3.2938	-2.6	-3.4062	-3.0958	99.203	-85.755	-43.118	157.723	135.097	93.736	138.490	-35.788	7.220	15.885	109.113	-70.335	208.391	215.822	200.317	38.921	0.00019592	0.0005446	3.722e-05	193.3	3.1662e-06	3.7777e-06	356.64	62.592	1.2041e-06	3.8442e-06	151.88	58.33	24.008	11.816	2.0884e-06	31.103	0.0002201	0.00021745	6.3196e-05	203.01	2.3984e-06	2.3511e-06	356.59	65.037	2.4097e-06	2.32e-06	150.81	58.164	25.629	12.013	2.5083e-06	30.286	-113.807	-92.360	9.226	-110.545	-34.516	82.126	-110.556	-104.300	156.880	18.654	-104.840	-100.883	-99.518	-95.522	83.717	-97.365	-8191	255	
7365.050	1	1	0	0	0.30852	0.15624	0.042857	0.13567	0.11146	0.095122	0.064494	0.19725	0.14597	0.05346	0.2694	0.23737	0.084046	0.15434	0.11581	0.26693	-2.2958	-3.2062	-2.9437	-3.1562	-3.5938	-2.6667	-3.2583	-3.1104	-2.825	-3.5646	-2.9458	-2.9042	-3.3667	-2.7	-3.3167	-3.4667	-96.712	90.526	21.732	2.111	-29.791	177.195	135.312	136.327	37.600	-86.325	-96.272	115.785	39.588	164.226	46.562	95.829	0.00020659	0.00013773	6.882e-05	194.32	1.814e-06	4.3191e-06	357.18	62.242	4.7558e-07	2.4587e-06	149.59	58.545	24.2	11.67	2.7636e-06	30.686	0.00021897	0.00021666	6.4512e-05	203.38	2.3569e-06	2.356e-06	357.83	64.875	2.3554e-06	2.4014e-06	149.8	58.227	25.554	11.958	2.5246e-06	30.032	-69.045	-10.850	82.987	-110.663	25.665	76.222	-110.386	-104.980	-55.121	50.631	-105.973	-101.193	-99.562	-96.243	91.071	-97.709	-8191	255	
7365.171	1	1	0	0	0.15963	0.1793	0.03949	0.16486	0.20002	0.20235	0.15071	0.13839	0.17339	0.12237	0.080238	0.15271	0.13465	0.03511	0.10787	0.36059	-2.1937	-3.5917	-2.8292	-2.9625	-3.5583	-2.7438	-3.3354	-3.3	-2.575	-3.3417	-3.05	-3.1	-3.3854	-2.5375	-3.2667	-3.5333	199.341	-37.013	79.708	-11.463	-50.942	-59.868	4.841	70.220	131.254	-16.747	135.575	-91.353	88.550	226.327	-87.160	204.361	0.00020169	0.00011462	3.7665e-05	190.64	1.3028e-06	2.1237e-06	356.37	61.852	1.7223e-06	5.4765e-06	148.27	57.663	23.812	11.579	9.5324e-07	30.505	0.0002147	0.00022005	6.4111e-05	201.41	2.323e-06	2.4054e-06	355.15	64.389	2.3371e-06	2.4429e-06	148.87	57.377	25.384	11.926	2.471e-06	29.651	-80.059	26.457	-41.725	-110.976	142.096	234.614	-110.205	-104.589	107.871	-34.699	-105.568	-100.912	-99.775	-96.161	75.456	-97.842	-8191	255	
7365.267	1	1	0	0	0.15975	0.15186	0.16452	0.07512	0.16052	0.17214	0.14355	0.26518	0.090627	0.099935	0.13474	0.39858	0.082207	0.15324	0.097423	0.13706	-2.3792	-3.4562	-2.9813	-2.8708	-3.5479	-2.7292	-3.1292	-3.5396	-2.7333	-3.475	-3.1771	-2.6021	-3.6396	-2.8792	-3.025	-3.5438	-38.157	-68.985	185.017	1.419	-51.272	139.985	199.547	-2.027	193.908	195.585	108.639	233.384	8.961	71.950	60.076	164.984	0.00014361	0.00033029	7.8347e-05	192.45	1.5487e-06	5.8298e-07	354.73	61.856	1.4691e-06	3.7987e-06	149.4	57.284	23.746	11.543	6.2305e-06	30.418	0.0002167	0.00022784	6.4355e-05	202.69	2.3507e-06	2.5115e-06	355.65	64.491	2.3795e-06	2.5493e-06	149.04	57.216	25.425	11.936	2.5204e-06	29.651	-88.075	-23.070	10.155	-110.669	20.215	-18.810	-110.730	-104.460	72.096	77.758	-105.624	-101.618	-99.932	-95.879	78.001	-97.901	-8191	255	
7365.363	1	1	0	0	0.364	0.20034	0.1615	0.057053	0.063547	0.11862	0.10965	0.18041	0.30738	0.19325	0.20528	0.19213	0.40555	0.10173	0.1186	0.14161	-2.1229	-3.2687	-3.2812	-2.875	-3.4917	-3.0021	-3.0563	-3.3771	-2.6562	-3.2917	-3.2833	-2.8583	-3.6063	-2.7521	-2.9333	-3.7125	65.231	-110.880	57.025	32.887	218.741	162.886	151.007	136.333	0.136	-10.730	187.107	176.422	204.465	-78.087	-49.814	83.739	0.00014926	5.6001e-05	6.8716e-05	193.89	2.3999e-06	2.4157e-06	358.86	62.414	1.8989e-06	3.8214e-06	150.81	58.434	24.394	11.748	5.0913e-06	30.489	0.0002207	0.00023854	6.4258e-05	203.07	2.4399e-06	2.6083e-06	358.14	64.76	2.4661e-06	2.6081e-06	149.65	57.878	25.76	12.041	2.5133e-06	29.784	-95.711	157.934	7.962	-110.703	61.416	74.148	-110.625	-104.920	60.567	7.871	-105.509	-100.885	-99.630	-95.927	162.639	-97.794	-8191	255	
7365.459	1	1	0	0	0.0855	0.25368	0.202	0.14317	0.077935	0.2896	0.35792	0.28379	0.2805	0.091372	0.17358	0.18178	0.10744	0.025741	0.26517	0.37241	-2.3396	-3.1417	-3.2771	-2.725	-3.5792	-3.3917	-3.0812	-3.4292	-2.8208	-3.2896	-3.3583	-2.6458	-3.3833	-3.1063	-3.0354	-3.5	146.309	-73.647	175.381	203.856	97.719	163.853	118.710	87.735	-55.788	-57.028	118.923	135.205	-40.158	114.742	173.609	-50.082	0.00025062	5.9306e-05	5.8263e-05	194.35	3.1878e-06	1.4864e-06	359.45	62.123	2.2997e-06	4.1826e-06	149.29	57.973	23.745	11.729	1.8506e-06	30.65	0.00023071	0.00023423	6.3948e-05	203.62	2.4909e-06	2.5845e-06	357.47	64.656	2.5349e-06	2.5841e-06	149.02	57.581	25.754	12.026	2.4975e-06	29.635	-105.562	-68.145	-116.908	-110.765	144.426	21.518	-110.661	-104.529	232.507	64.504	-105.389	-101.003	-100.552	-96.101	175.183	-97.988	-8191	255	
7365.556	1	1	0	0	0.14237	0.12342	0.12633	0.14847	0.18009	0.15897	0.087424	0.14183	0.25041	0.12782	0.062749	0.22684	0.069374	0.050836	0.18778	0.2698	-2.2375	-3.1354	-3.3979	-2.7146	-3.5187	-3.1167	-2.7042	-3.8	-3.0729	-3.0479	-3.5333	-2.7562	-3.4562	-3.2771	-2.6021	-3.5625	76.629	106.933	-97.128	50.781	-37.352	146.392	165.304	-39.070	-122.203	-119.175	113.769	179.963	178.264	-2.656	184.006	-77.492	0.00019225	6.4617e-05	4.1771e-05	190.91	2.1936e-06	1.194e-06	356.98	62.051	3.4118e-06	4.5687e-06	149.08	57.434	24.082	11.572	2.135e-06	30.295	0.0002344	0.00023537	6.4018e-05	201.97	2.5889e-06	2.6041e-06	356.03	64.573	2.6003e-06	2.5701e-06	148.83	57.198	25.754	11.923	2.4596e-06	29.436	-101.216	214.063	117.187	-111.543	187.264	48.925	-110.777	-104.906	-114.111	157.524	-105.954	-101.666	-99.753	-96.461	112.191	-97.991	-8191	255	
7365.652	1	1	0	0	0.28994	0.10779	0.068154	0.15666	0.12436	0.13884	0.14891	0.35354	0.093699	0.11525	0.075087	0.13779	0.14583	0.088821	0.13758	0.22453	-2.5521	-3.0187	-3.5104	-2.8292	-3.3354	-3.4188	-2.825	-3.7271	-2.9938	-2.9688	-3.5417	-2.8458	-3.2125	-3.3937	-2.6375	-3.4583	143.730	230.953	-90.450	79.988	113.450	12.952	58.729	188.183	163.379	236.412	24.119	39.696	213.358	166.729	-87.404	2.375	0.00015395	0.00028335	0.00013343	194.32	2.9452e-06	2.1584e-06	355.67	61.668	4.7502e-06	1.4687e-07	149.11	57.519	24.003	11.599	9.7837e-07	30.441	0.00023893	0.00023365	6.3132e-05	203.21	2.6586e-06	2.5635e-06	354.67	64.668	2.6192e-06	2.6016e-06	148.87	57.625	25.904	11.953	2.4896e-06	29.712	-58.724	-54.524	18.948	-111.359	33.849	212.744	-110.819	-104.698	60.059	-78.258	-106.614	-101.444	-100.827	-96.690	31.996	-98.071	-8191	255	
7365.771	1	1	0	0	0.15611	0.20877	0.23295	0.055429	0.39041	0.21454	0.144	0.23586	0.09848	0.28831	0.21019	0.14665	0.12336	0.089102	0.23909	0.084832	-2.5958	-2.8187	-3.5604	-2.7625	-3.1583	-3.4417	-2.6479	-3.5875	-2.9583	-2.7521	-3.7438	-2.8521	-3.2083	-3.5812	-2.6833	-3.4021	-105.613	-52.293	-39.313	68.370	-18.288	-99.724	226.787	-67.505	164.324	170.429	28.817	132.445	-57.346	1.351	49.824	-95.114	0.00017782	0.00020356	1.007e-05	192.51	3.1164e-06	1.9989e-06	357.73	62.15	4.1331e-06	2.3903e-06	149.85	58.003	23.924	11.596	3.113e-06	30.333	0.00024722	0.00023627	6.3063e-05	203.81	2.6524e-06	2.559e-06	355.42	65.103	2.6492e-06	2.5504e-06	148.86	57.637	25.778	11.928	2.474e-06	29.624	-60.595	-50.892	74.463	-110.680	61.383	27.895	-110.441	-104.659	54.431	124.738	-106.401	-101.279	-99.961	-95.692	188.686	-98.244	-8191	255	
7365.867	1	1	0	0	0.18676	0.19786	0.20065	0.25417	0.30194	0.1776	0.10506	0.029239	0.17722	0.17295	0.1049	0.093046	0.11672	0.28283	0.13096	0.13994	-2.9	-2.6	-3.6042	-2.7604	-2.8937	-3.3896	-2.7458	-3.3292	-2.9417	-2.5812	-3.5958	-2.9562	-2.8271	-3.5646	-2.8708	-3.2583	91.215	213.026	-123.067	93.159	37.429	128.343	126.501	131.637	110.039	204.057	18.629	227.925	100.502	153.501	-113.091	-85.933	0.00014108	0.00025573	9.8575e-05	191.32	3.3081e-06	1.0729e-06	353.56	61.492	1.3685e-06	3.4466e-06	148.32	57.966	24.001	11.469	2.184e-06	29.948	0.000238	0.00023085	6.2914e-05	203.75	2.5768e-06	2.5257e-06	354.25	64.831	2.5774e-06	2.5297e-06	148.32	57.493	25.634	11.789	2.5399e-06	29.409	-93.339	26.260	-39.973	-111.213	224.415	-52.628	-111.424	-105.479	-21.233	-101.830	-107.381	-102.014	-101.221	-97.207	204.323	-99.003	-8191	255	
7365.938	1	1	0	0	0.24068	0.14903	0.23104	0.29071	0.11284	0.13985	0.099519	0.21314	0.051996	0.1157	0.29183	0.34358	0.086529	0.20268	0.18917	0.1792	-2.8896	-2.7021	-3.3438	-2.8979	-2.8958	-3.575	-2.7854	-3.2271	-3.4979	-2.5708	-3.4479	-2.9771	-2.775	-3.4229	-2.7292	-3.1562	146.447	166.653	67.030	-34.772	-91.773	161.639	-11.535	141.396	-88.817	2.614	-104.046	189.884	-65.507	102.471	75.728	176.131	0.00017049	0.0001307	5.6727e-05	189.9	4.1369e-06	5.9915e-06	355.31	61.599	3.5207e-06	2.5759e-06	148.51	57.17	23.68	11.567	1.097e-06	30.251	0.00023333	0.00022784	6.5304e-05	203.42	2.5533e-06	2.4826e-06	353.49	64.795	2.5263e-06	2.4628e-06	148.68	57.354	25.615	11.796	2.5866e-06	29.68	-96.479	23.296	-112.463	-111.670	52.406	-12.760	-111.223	-105.131	-111.320	-62.437	-106.745	-102.573	-100.933	-97.012	6.094	-98.447	-8191	255	
7366.035	1	1	0	0	0.22073	0.080879	0.14856	0.1564	0.16184	0.36944	0.10294	0.10127	0.17253	0.3198	0.23808	0.21941	0.28149	0.19666	0.20946	0.01921	-3.0062	-2.6833	-3.3312	-3.1729	-2.9229	-3.3396	-2.8917	-3.0854	-3.5312	-2.7	-3.5646	-3.2354	-2.5938	-3.5604	-2.9229	-3.125	-85.743	73.902	105.300	-60.768	70.534	146.697	10.650	220.665	24.652	-109.076	122.374	1.303	18.102	7.672	55.528	-73.323	0.00014475	0.00030176	4.4485e-05	192.46	4.1482e-06	4.7083e-07	354.42	62.218	1.0051e-06	2.6164e-06	148.36	57.414	23.937	11.426	2.6114e-06	30.336	0.0002333	0.00022599	6.6167e-05	203.57	2.5032e-06	2.4788e-06	354.59	65.092	2.5126e-06	2.4438e-06	149.19	57.492	25.619	11.805	2.6437e-06	29.592	-97.564	-12.641	190.902	-111.865	8.481	2.602	-111.462	-105.679	204.528	106.066	-106.450	-102.672	-100.364	-97.373	31.967	-98.668	-8191	255	
7366.155	1	1	0	0	0.38041	0.12117	0.096511	0.11568	0.22673	0.074179	0.30571	0.067023	0.13248	0.1917	0.14103	0.24824	0.18656	0.038947	0.091498	0.13861	-3.1979	-2.6562	-3.2667	-3.2188	-2.6	-3.6104	-2.8396	-2.8438	-3.5604	-2.6646	-3.3896	-3.3688	-2.5729	-3.4542	-3.0146	-2.9604	49.797	-100.479	198.473	-13.584	58.780	-33.576	47.501	78.825	19.054	-37.456	114.410	-13.140	24.535	-114.243	-54.632	-107.028	0.00016301	0.00023846	4.751e-05	192.93	1.8882e-06	3.7234e-07	355.66	62.099	4.8921e-06	1.9315e-06	147.91	57.449	23.771	11.348	2.7713e-06	29.932	0.00023035	0.00022547	6.6943e-05	202.67	2.4682e-06	2.4665e-06	354.55	64.555	2.4558e-06	2.4966e-06	148.78	57.106	25.398	11.783	2.6101e-06	29.276	-97.348	-7.547	33.683	-111.265	-64.216	171.466	-111.129	-105.036	46.469	1.165	-106.279	-101.683	-100.445	-96.494	-28.118	-98.220	-8191	255	
7366.251	1	1	0	0	0.10338	0.29514	0.03962	0.19088	0.11078	0.29893	0.23575	0.21188	0.15181	0.11173	0.058861	0.15194	0.1179	0.15762	0.13965	0.25629	-3.1813	-2.8667	-3.1333	-3.4646	-2.6667	-3.5604	-3.0708	-2.8958	-3.5687	-2.6542	-3.2521	-3.4958	-2.5958	-3.4042	-3.1167	-2.8229	15.264	87.336	64.411	58.711	23.882	86.152	100.029	102.097	66.520	-115.521	36.956	175.442	65.024	-100.631	86.303	145.317	0.0001908	0.00038994	3.6179e-05	189.99	5.4676e-06	2.232e-06	349.94	61.352	1.5751e-06	3.3011e-06	147.63	56.84	23.408	11.445	3.0165e-06	29.985	0.00022203	0.00022686	6.7074e-05	201.64	2.4453e-06	2.5159e-06	350.65	64.262	2.4263e-06	2.5354e-06	148.18	56.86	25.161	11.758	2.5669e-06	29.13	-71.653	-115.683	30.150	-111.054	187.505	-68.174	-111.144	-105.235	-37.374	-1.906	-106.337	-101.597	-101.616	-95.536	129.884	-98.418	-8191	255	
7366.347	1	1	0	0	0.089862	0.032854	0.013312	0.14963	0.31233	0.15481	0.23195	0.26977	0.13069	0.17283	0.063121	0.27928	0.13479	0.10171	0.16466	0.15602	-3.0375	-2.775	-3.0938	-3.2333	-2.8187	-3.4792	-3.3021	-2.475	-3.5771	-2.8854	-3.1229	-3.5271	-2.6875	-3.4813	-3.2333	-2.6625	195.599	-29.553	-17.469	58.426	3.500	20.268	112.782	-9.400	231.644	198.587	157.070	-56.937	139.426	-31.857	117.408	117.489	0.00018602	0.00029041	8.5741e-05	191.73	2.2556e-06	3.0447e-06	352.59	61.522	3.6918e-07	4.3863e-06	146.25	56.969	23.875	11.561	4.8523e-06	29.959	0.00022102	0.00023271	6.4841e-05	201.18	2.4068e-06	2.5899e-06	350.8	64.092	2.3971e-06	2.5901e-06	147.77	56.902	25.402	11.879	2.585e-06	29.329	-85.409	56.944	-100.526	-111.797	-62.700	72.809	-111.333	-105.127	-1.764	23.224	-106.406	-101.666	-100.244	-96.582	-50.600	-98.352	-8191	255	
7366.444	1	1	0	0	0.13173	0.070258	0.048499	0.20702	0.19031	0.26537	0.073047	0.08689	0.14698	0.10306	0.12924	0.065929	0.19939	0.18681	0.27995	0.22349	-3.1958	-3.0896	-2.8542	-3.6771	-2.6792	-3.3229	-3.2729	-2.6937	-3.5167	-2.875	-2.9979	-3.6979	-2.5583	-3.2562	-3.3438	-2.9062	77.358	208.823	-94.596	-114.279	220.978	98.446	48.237	62.126	180.581	-109.201	190.889	185.674	99.587	89.148	31.424	-115.423	0.0002073	0.00018279	5.7507e-05	192.53	6.5899e-07	4.4321e-06	352.98	61.722	2.6197e-06	2.0297e-06	147.69	57.687	23.551	11.522	5.4284e-06	30.266	0.0002245	0.00023849	6.4079e-05	201.59	2.4675e-06	2.6164e-06	352.1	64.353	2.498e-06	2.6439e-06	147.87	57.173	25.427	11.851	2.4995e-06	29.355	-94.621	99.318	196.811	-111.661	149.890	-62.151	-111.094	-105.226	-112.719	156.056	-106.128	-101.678	-99.760	-96.470	38.255	-98.438	-8191	255	
7366.562	1	1	0	0	0.14969	0.052938	0.28083	0.18094	0.090769	0.25608	0.10991	0.058061	0.15148	0.26083	0.19104	0.13717	0.23021	0.21802	0.16209	0.084193	-3.1979	-2.9771	-2.8042	-3.5125	-2.7	-3.2125	-3.5958	-2.6333	-3.4583	-3.1	-2.7979	-3.4479	-2.9021	-3.125	-3.4979	-2.7958	-10.505	212.217	-24.219	38.242	139.537	-38.196	172.641	23.996	43.413	115.986	108.871	199.378	141.841	-74.802	133.900	188.133	0.00013366	0.00037586	3.227e-05	190.94	1.7135e-06	4.9605e-06	351.88	61.778	3.3121e-06	3.2012e-06	146.42	56.802	23.527	11.31	2.6098e-06	29.704	0.00022942	0.00023546	6.3095e-05	200.93	2.5423e-06	2.5876e-06	351.28	63.822	2.5612e-06	2.6222e-06	146.97	56.455	25.366	11.708	2.4965e-06	28.843	-107.038	-100.519	-60.645	-111.917	14.391	24.236	-111.314	-104.917	-45.424	-37.010	-106.015	-101.886	-101.005	-96.723	-104.573	-98.532	-8191	255	
7366.636	1	1	0	0	0.30877	0.17199	0.23784	0.27407	0.11099	0.22975	0.41702	0.042168	0.10895	0.13203	0.12217	0.10017	0.1039	0.17854	0.18753	0.16378	-3.2521	-2.9708	-2.6292	-3.5729	-2.7896	-3.0875	-3.3604	-2.575	-3.55	-3.1667	-2.6562	-3.5479	-2.9771	-3.0479	-3.2562	-2.8937	53.254	-22.383	-17.504	198.650	48.092	51.241	-94.592	175.760	-87.924	30.253	187.580	125.108	-26.124	133.722	32.665	199.532	0.00017739	0.00030292	7.827e-05	189.66	3.1007e-06	2.6565e-06	351.69	61.347	9.4269e-07	1.3763e-06	147.53	56.438	23.446	11.327	3.3561e-06	29.929	0.00023724	0.00023689	6.3756e-05	200.63	2.6082e-06	2.5985e-06	350.89	64.085	2.6182e-06	2.5914e-06	146.44	56.315	25.387	11.669	2.5059e-06	29.053	-70.450	-102.052	29.334	-111.549	63.902	-11.793	-111.098	-105.212	236.324	38.095	-106.893	-101.899	-100.702	-96.946	104.785	-98.413	-8191	255	
7366.732	1	1	0	0	0.081724	0.31521	0.24712	0.20849	0.10924	0.17991	0.16954	0.2029	0.17101	0.091673	0.178	0.075319	0.21762	0.063141	0.27432	0.078517	-3.1188	-3.2083	-2.6271	-3.5396	-2.8833	-3.0229	-3.6688	-2.6312	-3.2333	-3.4229	-2.7271	-3.65	-2.7375	-2.9271	-3.7062	-2.5104	93.798	132.668	219.715	110.415	-0.831	208.366	100.521	-71.651	-109.999	-102.069	-102.628	-114.685	-32.096	-35.128	-9.622	-85.452	0.00019142	8.7782e-05	5.2242e-05	191.7	2.7498e-06	2.9571e-07	351.86	61.422	4.0612e-06	7.6804e-06	147.15	57.018	23.667	11.33	5.0907e-06	29.695	0.00024583	0.00023458	6.3419e-05	202.2	2.701e-06	2.5548e-06	350.5	64.061	2.6199e-06	2.5743e-06	147.34	56.955	25.614	11.72	2.494e-06	29.138	-83.508	16.371	222.460	-110.976	-9.769	-21.765	-111.053	-105.633	174.387	12.469	-106.746	-101.109	-100.604	-96.275	47.013	-98.326	-8191	255	
7366.851	1	1	0	0	0.099961	0.1864	0.16475	0.086065	0.065422	0.019888	0.09017	0.17274	0.076181	0.091791	0.16591	0.15588	0.091813	0.18466	0.11218	0.15404	-2.8729	-3.4813	-2.6688	-3.3688	-2.9437	-2.725	-3.7062	-3.0271	-3.1875	-3.4521	-2.7417	-3.3563	-2.9792	-2.9667	-3.6813	-3.025	138.918	46.287	190.531	9.641	164.988	171.960	219.336	177.521	135.204	193.090	-77.431	73.844	-78.604	-78.532	-54.947	135.086	0.00017436	0.00023096	2.8643e-05	191.01	4.476e-06	3.6479e-06	348.66	61.342	2.2642e-06	7.072e-06	147.26	57.023	23.371	11.339	1.7e-06	29.712	0.00024314	0.00023404	6.3174e-05	203.36	2.6312e-06	2.5229e-06	350.87	64.286	2.6151e-06	2.5167e-06	146.85	56.963	25.388	11.708	2.5134e-06	29.097	-103.013	-42.820	217.543	-111.123	-121.714	180.498	-111.371	-104.700	48.868	43.929	-106.149	-101.644	-101.341	-96.113	149.505	-97.982	-8191	255	
7366.947	1	1	0	0	0.14333	0.25024	0.098461	0.12766	0.11605	0.12996	0.051775	0.098294	0.095229	0.063508	0.32896	0.1486	0.27317	0.083824	0.17572	0.087417	-2.7208	-3.2771	-2.7938	-3.5479	-3.0875	-2.8187	-3.6833	-2.8312	-3.0563	-3.575	-2.7812	-3.3625	-3.5396	-2.8104	-3.4708	-3	-87.470	209.176	151.085	192.240	139.313	-80.976	160.952	36.515	63.142	206.424	34.209	-65.711	-95.710	183.009	107.470	211.452	0.000191	0.00074367	7.8503e-05	193.3	3.0563e-06	4.8839e-06	349.8	60.641	5.0254e-06	4.7716e-06	146.98	56.221	23.578	11.247	3.6234e-06	29.747	0.00023922	0.00023026	6.3259e-05	202.57	2.558e-06	2.5199e-06	348.98	64.121	2.5848e-06	2.499e-06	146.69	56.559	25.44	11.613	2.5661e-06	29.04	-79.153	-45.460	-89.020	-110.862	8.692	76.190	-111.591	-104.994	22.287	34.422	-106.353	-101.608	-100.970	-96.483	119.291	-98.801	-8191	255	
7367.043	1	1	0	0	0.09855	0.20514	0.11408	0.10825	0.22711	0.19851	0.18766	0.25443	0.038935	0.098967	0.21729	0.076791	0.20507	0.23473	0.19491	0.17114	-2.5438	-3.5125	-2.6875	-3.3375	-3.5146	-2.7	-3.5125	-3.0292	-2.8688	-3.6604	-2.8792	-3.2625	-3.4917	-2.5833	-3.5646	-3.1562	198.148	27.445	-122.950	-68.000	34.935	102.970	-14.585	101.706	-38.642	159.909	228.191	123.880	-23.774	186.950	-113.550	104.805	0.00017201	9.4487e-05	6.225e-05	191.99	2.1813e-06	4.1093e-06	350.88	60.929	6.9586e-07	1.4109e-06	145.68	57.2	23.553	11.29	2.0969e-07	29.765	0.0002351	0.00022953	6.5651e-05	202.64	2.5875e-06	2.4762e-06	349.55	64.257	2.5828e-06	2.5085e-06	146.58	56.798	25.293	11.663	2.646e-06	29.053	-78.360	-54.263	-48.220	-111.953	-103.749	85.525	-111.027	-105.664	181.612	72.763	-106.330	-101.332	-100.202	-96.300	-48.049	-98.064	-8191	255	
7367.164	1	1	0	0	0.082653	0.087544	0.21142	0.27429	0.22022	0.079057	0.16714	0.16751	0.21462	0.18666	0.26237	0.24991	0.022615	0.095754	0.052162	0.19669	-2.4521	-3.4938	-2.8396	-3.1021	-3.375	-2.5375	-3.3104	-3.1521	-2.8792	-3.6042	-2.875	-2.8667	-3.5167	-2.8854	-3.3125	-3.1229	-57.812	-81.192	-48.153	-50.932	168.049	89.953	172.233	51.492	16.636	220.330	122.109	118.209	-40.379	124.928	189.414	115.941	0.00020195	0.00037632	2.4212e-05	191.55	3.1417e-06	1.6401e-06	351.48	60.782	2.1974e-06	4.0564e-06	146.38	56.967	23.75	11.341	2.1051e-06	29.613	0.00023547	0.00022856	6.802e-05	202.47	2.539e-06	2.5019e-06	351.71	64.023	2.5323e-06	2.5099e-06	147.44	56.913	25.273	11.656	2.6555e-06	29.077	-97.560	-58.108	-26.668	-110.937	-67.352	58.560	-110.300	-105.119	0.205	1.704	-106.438	-101.284	-100.495	-95.959	-66.048	-98.218	-8191	255	
7367.236	1	1	0	0	0.14915	0.13712	0.26662	0.067425	0.11442	0.096254	0.11667	0.27955	0.12045	0.15096	0.14507	0.13142	0.27349	0.26454	0.096097	0.060823	-2.3604	-3.6688	-2.7562	-3.2125	-3.6875	-2.7438	-3.2417	-3.1667	-2.6208	-3.6375	-3.1063	-3.0604	-3.6729	-2.8104	-3.4354	-3.3396	236.510	152.483	-72.717	177.818	-101.782	129.504	167.533	229.051	-82.592	-16.793	90.659	-105.920	201.231	232.905	160.750	216.458	9.839e-05	0.00013784	7.4499e-05	188.42	4.0605e-06	3.0325e-06	351.11	61.347	2.2559e-06	1.8509e-06	146.54	56.773	23.585	11.254	5.6388e-06	29.575	0.00022534	0.00022758	6.7224e-05	201.98	2.4401e-06	2.4771e-06	350.67	63.968	2.4603e-06	2.4689e-06	146.84	56.618	25.067	11.608	2.6085e-06	28.934	-87.981	-70.139	-65.329	-110.283	16.795	55.303	-110.323	-104.254	21.893	180.147	-106.166	-101.116	-100.365	-95.812	106.378	-98.436	-8191	255	
7367.332	1	1	0	0	0.22435	0.1388	0.1672	0.16622	0.16545	0.15941	0.10404	0.29511	0.16771	0.25084	0.094442	0.15868	0.40142	0.11321	0.20985	0.13157	-2.2792	-3.4167	-2.8479	-2.8708	-3.4583	-2.7521	-3.2875	-3.4854	-2.8542	-3.4271	-3.2438	-2.9083	-3.6146	-2.5271	-2.9167	-3.4979	114.852	182.735	130.446	86.700	-121.990	-44.330	138.118	76.957	103.471	225.521	-51.053	218.074	37.589	-118.708	233.790	-85.049	0.00018711	9.7654e-05	0.00010207	188.98	4.3982e-06	4.5087e-06	350.09	61.258	1.6726e-06	2.2954e-06	147.49	56.71	23.428	11.27	5.3479e-06	29.847	0.00021921	0.0002278	6.6161e-05	199.97	2.4082e-06	2.5415e-06	350.36	63.657	2.4082e-06	2.4986e-06	146.78	56.334	24.927	11.605	2.5437e-06	29.012	-84.485	86.591	-76.651	-110.481	7.633	-67.137	-110.780	-105.182	215.506	189.839	-106.068	-101.125	-100.446	-96.264	138.128	-97.848	-8191	255	
7367.452	1	1	0	0	0.18369	0.091047	0.10733	0.11583	0.09802	0.038524	0.11405	0.083543	0.19505	0.23052	0.26852	0.164	0.192	0.19762	0.1468	0.14651	-2.2646	-3.4854	-3.075	-2.9021	-3.3729	-2.7896	-3.0917	-3.6437	-2.7729	-3.4396	-3.5479	-2.8375	-3.5812	-2.8354	-3.0312	-3.5396	-91.863	221.212	-30.450	185.093	66.627	23.900	8.499	-85.239	-107.810	-108.966	174.444	179.387	-82.030	144.871	-103.541	209.612	0.00014693	0.00020589	1.7465e-05	192.32	2.4525e-06	3.3004e-06	352.57	61.125	3.1982e-06	2.7305e-06	147.94	56.673	23.284	11.264	7.4831e-07	30.06	0.00021728	0.00023223	6.4268e-05	200.12	2.3812e-06	2.5584e-06	352.3	63.547	2.393e-06	2.5391e-06	147.54	56.481	24.963	11.696	2.48e-06	29.201	-78.710	-74.503	119.194	-110.907	224.819	232.514	-110.478	-104.481	96.424	115.942	-105.745	-101.273	-100.576	-96.219	85.591	-98.037	-8191	255	
7367.548	1	1	0	0	0.14405	0.089245	0.12159	0.18981	0.17484	0.072901	0.31285	0.15655	0.21832	0.22912	0.13858	0.30415	0.34001	0.024845	0.078171	0.27618	-2.0729	-3.2833	-3.2979	-2.9104	-3.7354	-2.9875	-2.9979	-3.525	-2.6375	-3.4104	-3.5354	-2.7125	-3.475	-2.9583	-2.7875	-3.7042	-74.940	-18.298	26.002	222.757	13.001	-106.073	227.973	175.791	173.938	90.234	-103.849	-49.695	28.471	140.407	-117.875	235.867	0.00020294	0.00031572	1.7608e-05	191.51	3.5509e-06	2.958e-06	354.54	61.884	4.0542e-06	4.5168e-06	145.43	56.921	23.032	11.218	4.4155e-06	29.273	0.00022185	0.00022875	6.2609e-05	200.5	2.412e-06	2.5126e-06	353.32	63.633	2.4582e-06	2.5521e-06	146.14	56.404	24.893	11.567	2.4478e-06	28.693	-73.686	-58.834	-92.721	-111.875	149.026	17.184	-111.257	-105.616	46.982	127.291	-106.501	-101.679	-100.686	-97.273	69.872	-98.758	-8191	255	
7367.643	1	1	0	0	0.10996	0.13436	0.042328	0.17188	0.10228	0.1087	0.1789	0.069063	0.19679	0.058423	0.22097	0.037401	0.12706	0.17108	0.11769	0.12569	-2.5042	-3.1979	-3.3271	-2.6188	-3.3333	-3.2708	-2.9521	-3.7333	-2.8063	-2.9938	-3.4458	-2.7271	-3.4375	-3.1146	-2.8604	-3.6083	35.839	98.641	150.030	214.979	142.324	-15.656	39.816	-88.644	180.713	223.813	96.091	-0.625	-3.504	163.658	20.670	92.866	0.000189	0.00018097	4.8919e-05	192.44	2.1289e-06	1.331e-06	351.27	61.373	6.2388e-06	7.4429e-06	145.42	56.437	23.36	11.093	1.1774e-06	29.429	0.00022743	0.00022676	6.1721e-05	200.85	2.4369e-06	2.4849e-06	350.77	63.187	2.4943e-06	2.4809e-06	145.62	55.789	24.995	11.45	2.4192e-06	28.597	-91.170	173.600	-26.966	-111.590	20.724	-36.923	-111.365	-105.350	111.371	0.029	-106.877	-102.039	-100.936	-96.479	152.003	-98.503	-8191	255	
7367.739	1	1	0	0	0.088381	0.042737	0.14817	0.12118	0.23965	0.19348	0.080539	0.28376	0.10815	0.094372	0.087489	0.12004	0.20095	0.17923	0.12536	0.19738	-2.7229	-3.1042	-3.475	-2.5708	-3.4125	-3.2896	-2.7833	-3.5375	-2.9604	-2.7083	-3.4875	-2.5333	-3.325	-3.2146	-2.6646	-3.6729	79.043	174.247	-97.740	-83.332	-40.842	155.225	-86.856	-76.712	163.774	126.198	40.635	114.647	7.867	27.932	167.047	42.089	0.00021873	0.00017974	7.2928e-05	191.12	1.8709e-06	2.0144e-06	351.05	60.385	6.0183e-07	2.0202e-06	145.1	56.049	23.018	11.224	1.2764e-06	29.75	0.00023041	0.0002256	6.1733e-05	200.29	2.507e-06	2.4939e-06	350.29	63.282	2.5205e-06	2.4345e-06	145.29	56.01	24.865	11.471	2.3625e-06	28.851	-89.861	-38.368	173.353	-111.707	236.002	28.595	-111.776	-105.363	60.112	-4.140	-106.451	-101.992	-100.121	-96.270	210.396	-98.555	-8191	255	
7367.812	1	1	0	0	0.42999	0.11506	0.045109	0.38724	0.078928	0.20651	0.26679	0.042088	0.42795	0.13544	0.14458	0.13844	0.18247	0.13336	0.15485	0.12034	-2.725	-3.05	-3.4917	-2.7104	-3.3146	-3.2	-2.6479	-3.4521	-2.8958	-2.9313	-3.6937	-2.9792	-3.2708	-3.5458	-2.7021	-3.4729	-39.345	102.373	227.290	-95.166	163.888	-49.474	117.949	171.079	-14.435	-17.110	153.388	96.337	146.272	-10.119	29.496	205.203	0.0001764	0.00050638	4.6654e-05	191.64	3.3158e-06	2.9197e-06	352.36	61.513	2.7995e-06	4.0938e-06	146.47	56.947	23.196	11.235	3.7768e-06	29.713	0.00023485	0.0002232	6.0179e-05	200.78	2.5549e-06	2.4544e-06	351.49	63.865	2.5103e-06	2.4132e-06	145.56	56.478	25.057	11.495	2.3597e-06	28.997	-104.595	-67.418	36.550	-111.376	-95.574	4.635	-110.876	-105.191	-38.667	80.500	-106.963	-101.653	-100.793	-96.340	62.852	-98.265	-8191	255	
7367.931	1	1	0	0	0.30538	0.095561	0.16038	0.037993	0.10242	0.23582	0.24823	0.12651	0.22579	0.20173	0.10556	0.1822	0.1174	0.067454	0.072363	0.064549	-2.7229	-2.9688	-3.6104	-2.9688	-3.1854	-3.5458	-2.7854	-3.5687	-3.2	-2.7042	-3.5917	-2.9042	-3.1292	-3.6208	-2.6813	-3.575	17.890	73.751	225.176	-111.080	-43.659	209.617	231.586	164.876	15.906	175.645	102.380	198.571	-121.051	185.401	180.734	-108.869	0.00022142	0.00015653	5.8743e-05	193.16	1.837e-06	4.9481e-06	351.82	60.039	1.1118e-06	7.5875e-06	144.3	55.884	23.255	11.033	2.895e-06	29.299	0.00022897	0.00021873	6.0004e-05	202.71	2.4682e-06	2.3714e-06	351.15	63.284	2.444e-06	2.3665e-06	144.87	55.804	24.793	11.35	2.3725e-06	28.659	-81.404	-61.027	-106.201	-111.339	136.649	22.960	-111.264	-105.961	53.188	227.972	-106.551	-101.688	-100.711	-96.719	-18.223	-98.432	-8191	255	
7368.027	1	1	0	0	0.12729	0.195	0.21918	0.13477	0.2022	0.16782	0.29065	0.14229	0.1548	0.15939	0.11913	0.059981	0.082768	0.19056	0.18926	0.31231	-2.85	-2.7396	-3.4875	-2.9021	-3.1292	-3.5	-2.9	-3.3063	-3.2458	-2.7313	-3.5875	-2.9813	-2.8646	-3.4292	-2.8333	-3.25	-67.852	-45.915	123.916	-74.900	1.877	80.306	193.696	-28.320	145.622	-95.901	191.096	120.372	228.120	59.838	-5.952	158.225	6.5531e-05	0.00036413	7.1079e-05	196.02	3.543e-06	3.3017e-06	351.36	60.484	2.4082e-06	1.551e-06	146.33	55.516	22.804	10.907	1.3512e-06	29.169	0.00022004	0.00021445	6.0224e-05	202.57	2.4499e-06	2.3461e-06	350.25	63.356	2.4252e-06	2.3516e-06	144.9	55.649	24.716	11.264	2.4509e-06	28.583	-64.296	17.461	26.171	-111.635	25.725	14.828	-111.341	-104.661	45.119	144.348	-106.478	-101.468	-101.009	-96.408	39.329	-98.053	-8191	255	
7368.124	1	1	0	0	0.079385	0.29892	0.25476	0.018186	0.080969	0.080703	0.24945	0.12793	0.18312	0.053103	0.13059	0.11466	0.19252	0.10638	0.041013	0.19636	-2.9896	-2.5167	-3.4375	-3.0458	-2.8896	-3.6125	-2.7833	-2.9833	-3.6604	-2.6958	-3.3792	-3.0354	-2.7646	-3.4188	-2.9104	-3.0458	-54.516	-21.406	213.011	-67.193	-7.256	122.745	168.553	125.027	-49.800	-49.690	-117.408	44.631	-42.265	-49.222	-42.623	231.279	0.00017713	0.00017915	1.1008e-05	194.77	1.891e-06	4.1151e-06	353.92	60.678	5.1381e-06	1.6663e-06	146.98	55.98	23.022	10.986	5.9759e-06	29.177	0.0002213	0.00021403	6.2718e-05	202.19	2.436e-06	2.3731e-06	352.26	63.601	2.4151e-06	2.3642e-06	146.31	55.821	24.822	11.365	2.5466e-06	28.623	-101.482	-67.197	67.397	-111.783	223.285	12.810	-111.369	-104.495	53.255	72.100	-106.782	-101.389	-100.790	-96.439	79.062	-98.461	-8191	255	
7368.244	1	1	0	0	0.22106	0.10856	0.047158	0.046338	0.033053	0.074655	0.27104	0.11096	0.17697	0.32388	0.22534	0.21327	0.32553	0.23601	0.11659	0.1597	-3.0896	-2.6458	-3.4583	-3.0625	-2.6667	-3.6271	-2.8167	-3.1771	-3.3146	-2.9146	-3.4104	-3.1646	-2.7917	-3.6188	-2.9875	-3.0667	-56.755	-64.771	-55.981	-20.269	-121.458	174.259	191.641	205.678	-82.501	-19.637	220.040	-38.091	208.822	-19.877	-30.763	-75.930	8.1422e-05	0.00028672	6.0621e-05	191.92	3.9903e-07	1.618e-06	351.78	61.192	8.0679e-07	2.8288e-06	145.23	55.935	23.018	10.954	7.3137e-06	29.034	0.00022271	0.00022015	6.3837e-05	203.19	2.4317e-06	2.4203e-06	354.09	63.68	2.4234e-06	2.414e-06	146.56	55.625	24.695	11.353	2.6292e-06	28.503	-106.796	-119.616	-98.742	-111.736	212.037	-60.720	-110.995	-104.662	182.198	17.342	-106.366	-101.525	-100.607	-96.285	14.570	-98.022	-8191	255	
7368.340	1	1	0	0	0.11189	0.23941	0.17372	0.28398	0.094211	0.16678	0.31109	0.15592	0.28403	0.24643	0.20502	0.065546	0.047156	0.17887	0.23831	0.27886	-3.0646	-2.6625	-3.3688	-3.3917	-2.7583	-3.5896	-2.8708	-2.9167	-3.5333	-2.9958	-3.2938	-3.1667	-2.6896	-3.3833	-3.0625	-3.0979	115.672	77.119	-94.805	117.103	28.108	-105.563	-6.199	-3.494	144.701	89.836	-117.587	-98.084	-79.295	-8.772	57.340	-98.079	0.00015578	0.00038217	6.6836e-05	192.95	1.678e-06	6.6522e-07	348.36	60.007	4.6011e-07	2.3501e-06	145.01	55.824	22.828	10.915	3.1781e-06	28.625	0.00022516	0.00022497	6.5648e-05	202.24	2.4329e-06	2.4913e-06	349.81	63.158	2.4111e-06	2.5024e-06	145.23	55.266	24.526	11.293	2.6158e-06	28.163	-77.194	105.261	-69.102	-111.131	-54.186	-76.954	-111.135	-105.088	55.387	223.619	-106.091	-101.803	-100.660	-96.337	9.336	-97.978	-8191	255	
7368.437	1	1	0	0	0.16675	0.17602	0.20147	0.046801	0.11643	0.11754	0.18636	0.11867	0.14521	0.030953	0.086213	0.11349	0.29665	0.22736	0.083952	0.25107	-3.2771	-2.75	-3.0729	-3.4458	-2.8063	-3.5875	-3.0792	-2.7917	-3.4354	-2.9042	-3.2708	-3.525	-2.7313	-3.3812	-3.2458	-2.7396	28.735	201.394	144.724	-74.747	133.654	-67.566	98.900	-108.706	-57.822	-112.528	-44.071	-86.592	-117.116	114.287	225.160	67.964	0.00016605	0.00041145	0.00010859	188.68	3.9276e-06	3.8243e-06	347.94	60.066	5.4994e-06	2.019e-06	145.12	55.738	22.6	10.987	4.966e-06	28.968	0.00022063	0.00023659	6.6804e-05	201.19	2.4327e-06	2.6173e-06	350.55	63.29	2.4616e-06	2.6574e-06	145.39	55.406	24.593	11.375	2.6301e-06	28.295	-66.136	40.199	-3.936	-111.509	189.430	202.999	-111.370	-104.809	18.737	80.911	-106.448	-101.198	-101.016	-96.333	209.912	-97.918	-8191	255	
7368.533	1	1	0	0	0.084479	0.040714	0.22094	0.1928	0.16257	0.22427	0.1121	0.09495	0.1985	0.16296	0.15371	0.23455	0.2197	0.089676	0.13106	0.04885	-3.175	-2.7979	-2.9208	-3.425	-2.7917	-3.2313	-3.0625	-2.5625	-3.6229	-2.9479	-2.8958	-3.4375	-2.8604	-3.3792	-3.0792	-2.5875	-6.280	-58.086	197.717	-32.542	131.111	156.946	157.248	0.857	182.078	230.941	88.350	51.105	28.529	-61.757	-25.797	-1.388	0.00014023	0.00048893	6.1693e-05	192.84	2.1173e-06	4.9012e-06	347.29	60.682	3.1146e-06	1.5741e-06	144.58	55.971	23.424	10.965	2.6952e-06	28.878	0.00022672	0.00024555	6.7594e-05	201.67	2.5326e-06	2.6962e-06	349.33	63.471	2.5447e-06	2.701e-06	145.72	55.479	24.978	11.453	2.6198e-06	28.29	229.498	-61.194	49.152	-110.984	47.055	-122.758	-110.892	-104.913	132.955	-29.583	-105.412	-101.307	-100.628	-96.114	22.386	-97.866	-8191	255	
7368.629	1	1	0	0	0.028843	0.066962	0.07034	0.18678	0.082498	0.14009	0.24124	0.17234	0.091715	0.053562	0.14673	0.16129	0.060057	0.19796	0.2987	0.17383	-3.0667	-2.8708	-2.8771	-3.3937	-2.575	-3.2208	-3.4479	-2.6458	-3.4562	-3.0792	-2.6896	-3.4604	-2.7833	-3.1146	-3.5312	-2.8125	225.711	-59.321	85.025	62.453	193.487	172.372	167.273	144.501	-69.893	28.153	127.655	229.526	61.686	18.881	29.388	-61.656	0.00017807	0.00045833	4.5812e-05	189.94	2.8421e-06	1.4578e-06	347.82	60.003	4.1425e-06	2.643e-06	142.99	55.21	22.925	10.955	2.5662e-06	28.594	0.00023739	0.00024684	6.5897e-05	201.71	2.6277e-06	2.691e-06	349.58	62.971	2.6207e-06	2.7045e-06	144.68	55.128	24.885	11.362	2.629e-06	28.038	-91.584	-13.034	-99.882	-110.975	-54.595	190.169	-110.721	-105.177	61.809	27.472	-106.166	-101.431	-100.790	-96.265	92.332	-98.217	-8191	255	
7368.725	1	1	0	0	0.16097	0.11779	0.24486	0.11366	0.17021	0.060079	0.34116	0.15988	0.26651	0.22706	0.12786	0.079916	0.087914	0.075535	0.14406	0.24927	-2.8979	-2.9	-2.6625	-3.4833	-2.7896	-3.4271	-3.6	-2.4813	-3.5687	-3.1125	-2.7292	-3.4604	-2.7208	-3.0396	-3.5062	-2.7938	9.167	129.668	139.369	-114.745	153.920	-119.542	120.104	33.011	-54.204	-38.062	108.711	101.956	163.941	191.750	-79.309	103.752	0.00013314	0.00030675	7.9343e-05	189.52	5.9584e-06	3.8059e-06	346.99	60.038	3.3447e-06	3.3393e-06	143.87	54.539	22.902	10.764	1.3607e-06	28.505	0.00024344	0.00024397	6.6292e-05	200.68	2.6436e-06	2.6826e-06	347.86	62.829	2.7242e-06	2.682e-06	143.71	54.734	24.893	11.249	2.5967e-06	27.93	-80.160	51.969	29.152	-111.085	61.321	27.588	-111.013	-105.424	68.596	94.740	-105.993	-101.525	-100.261	-95.675	-42.930	-97.741	-8191	255	
7368.844	1	1	0	0	0.025362	0.22701	0.13381	0.14178	0.15902	0.087457	0.067553	0.20053	0.043053	0.16644	0.16432	0.047116	0.24307	0.16578	0.096027	0.40439	-3.0187	-3.0625	-2.6042	-3.5438	-2.8521	-2.9229	-3.5167	-2.7083	-3.4437	-3.4354	-2.8563	-3.425	-3.1021	-2.9229	-3.5312	-2.7729	138.374	-58.619	127.888	156.188	42.182	32.249	186.350	135.697	199.033	150.191	-50.745	208.242	224.082	163.104	-5.243	183.270	0.00018294	0.00044933	7.2806e-05	191.15	2.4895e-06	3.0372e-06	346.28	60.149	2.4337e-06	2.4479e-06	143.34	54.357	22.957	10.774	2.5545e-06	28.658	0.00024935	0.00024411	6.5344e-05	201.51	2.7299e-06	2.6679e-06	346.76	63.048	2.7729e-06	2.6825e-06	144.01	54.872	24.963	11.244	2.5716e-06	28.045	-93.926	-99.710	-61.794	-111.172	19.659	54.205	-111.000	-104.264	-43.903	125.577	-106.540	-101.206	-100.175	-96.508	94.863	-97.795	-8191	255	
7368.940	1	1	0	0	0.23721	0.11948	0.14893	0.19537	0.274	0.26569	0.10757	0.15044	0.014186	0.077342	0.12819	0.17976	0.18033	0.28563	0.018243	0.20653	-2.7833	-3.3625	-2.5917	-3.575	-2.9646	-3.0083	-3.5479	-2.4938	-3.0042	-3.3979	-2.7188	-3.3542	-2.8979	-2.7521	-3.7292	-2.7917	25.642	90.984	118.266	197.940	-78.617	6.736	29.099	-59.099	69.724	229.232	230.747	43.962	184.060	218.458	-84.734	107.374	0.00020402	0.00018145	7.7199e-05	191.87	7.0366e-07	1.7791e-06	348.28	60.165	4.217e-06	5.201e-06	141.68	54.046	22.768	10.757	7.4291e-07	28.061	0.00025472	0.00024481	6.56e-05	203.52	2.78e-06	2.6695e-06	348.05	63.14	2.7811e-06	2.7275e-06	143.12	54.628	24.788	11.206	2.6639e-06	27.721	-82.117	-11.343	-14.390	-111.098	15.669	29.939	-110.650	-104.936	81.298	-21.412	-106.322	-101.348	-100.856	-95.560	-23.513	-97.541	-8191	255	
7369.036	1	1	0	0	0.11303	0.15403	0.15996	0.08576	0.11141	0.089846	0.21002	0.23728	0.024455	0.27986	0.23507	0.13253	0.08407	0.20893	0.0050532	0.11051	-2.8458	-3.4292	-2.7021	-3.4542	-3.1625	-2.6958	-3.65	-2.5771	-2.9	-3.4167	-2.6813	-3.2938	-3.3438	-2.5563	-3.4958	-3.0333	72.212	209.270	224.533	219.908	-101.879	-114.250	47.180	-87.961	-26.001	-82.784	190.883	194.075	118.723	-7.055	188.062	205.139	0.00020096	0.00045855	5.1136e-05	189.62	4.5715e-06	4.9666e-06	344.83	59.795	2.7677e-06	2.2699e-06	140.77	53.528	22.803	10.564	2.0027e-06	27.879	0.0002516	0.00024432	6.7342e-05	202.86	2.7995e-06	2.6841e-06	345.13	62.948	2.7475e-06	2.6878e-06	142.01	54.014	24.587	11.041	2.7108e-06	27.336	-85.406	-119.584	160.362	-110.702	99.647	-12.904	-110.536	-105.046	74.721	70.557	-105.936	-101.495	-100.088	-95.813	2.466	-97.806	-8191	255	
7369.108	1	1	0	0	0.20253	0.10401	0.36708	0.16148	0.055455	0.15166	0.22517	0.14542	0.20088	0.12165	0.046226	0.13715	0.057045	0.19055	0.1268	0.21552	-2.625	-3.4292	-2.5	-3.0979	-3.2208	-2.6771	-3.5812	-2.8292	-2.8563	-3.5146	-2.6604	-3.275	-3.525	-2.8792	-3.4396	-3.0521	-20.956	-91.278	167.949	212.579	-25.157	-51.382	216.391	206.075	-36.952	-40.599	117.489	180.688	11.430	213.553	13.625	-45.277	0.00017895	0.00044866	6.5971e-05	190.89	2.5107e-06	1.4334e-06	339.5	58.738	5.594e-06	3.1197e-06	140.48	53.992	22.622	10.627	3.2238e-06	27.712	0.00025156	0.00024337	6.9458e-05	201.91	2.7561e-06	2.6587e-06	342.79	62.356	2.7186e-06	2.6249e-06	141.75	54.127	24.592	11.088	2.792e-06	27.46	-55.412	-58.933	221.880	-110.841	224.406	11.962	-110.831	-105.232	70.865	45.591	-106.097	-101.147	-99.958	-95.581	67.353	-97.489	-8191	255	
7369.228	1	1	0	0	0.06722	0.14913	0.042925	0.20451	0.17193	0.14006	0.14321	0.096614	0.22328	0.18311	0.21706	0.12507	0.042009	0.23893	0.37869	0.25514	-2.4646	-3.6896	-2.9292	-3.2104	-3.4167	-2.7771	-3.5896	-3.15	-2.7438	-3.4729	-2.8417	-3.0667	-3.525	-2.6	-3.2708	-3.0542	-112.440	-49.909	-67.040	147.699	111.757	-9.515	-49.787	96.307	-2.896	168.858	209.623	161.320	185.947	67.393	114.371	93.819	0.00010289	0.00020809	4.2261e-05	190.69	2.1576e-06	8.483e-07	338.53	59.354	4.6865e-06	5.6229e-06	141.12	53.643	22.907	10.634	1.6906e-06	27.817	0.00025024	0.00024333	7.2369e-05	202.91	2.7867e-06	2.6861e-06	344.33	63.085	2.8048e-06	2.7031e-06	142.95	54.223	24.741	11.123	2.9827e-06	27.394	-87.717	23.979	97.534	-111.350	128.086	156.570	-110.847	-104.692	-10.250	-27.399	-105.563	-101.432	-100.084	-96.104	118.530	-97.788	-8191	255	
7369.325	1	1	0	0	0.25988	0.24076	0.10358	0.057896	0.14713	0.25066	0.24922	0.28321	0.14598	0.12585	0.19463	0.056642	0.16748	0.11554	0.22152	0.053843	-2.4188	-3.65	-2.8708	-2.975	-3.3292	-2.5083	-3.1792	-3.1562	-2.5833	-3.775	-2.7896	-3.0229	-3.4562	-2.6896	-3.2604	-3.3979	93.986	195.848	189.143	172.142	189.819	31.197	-4.373	17.624	159.954	132.741	-109.350	169.007	-114.804	-47.530	176.254	187.071	0.00017633	0.00058527	7.4255e-05	190.55	1.7651e-06	1.3683e-06	340.4	58.63	2.9235e-07	5.6116e-06	138.64	53.541	22.139	10.452	3.4004e-06	27.071	0.00025698	0.00025729	7.6267e-05	203.96	2.8174e-06	2.8085e-06	345.47	62.63	2.8245e-06	2.838e-06	142.45	53.9	24.477	11.01	3.0185e-06	26.839	-84.370	-40.785	79.312	-111.330	77.020	70.619	-111.194	-104.753	118.280	58.110	-106.579	-101.979	-100.538	-96.571	-22.495	-98.343	-8191	255	
7369.421	1	1	0	0	0.28962	0.14272	0.21365	0.26275	0.098718	0.23501	0.20223	0.031922	0.17128	0.12055	0.31394	0.21259	0.36261	0.24614	0.11135	0.27733	-2.1042	-3.5396	-2.7792	-3.0458	-3.5271	-2.8333	-3.2479	-3.3063	-2.6875	-3.3063	-2.8021	-2.8083	-3.4542	-2.625	-3.1708	-3.4208	-74.879	-119.402	-114.278	-80.700	136.352	-44.737	163.313	157.413	-85.916	57.169	-49.351	154.839	172.258	98.671	156.425	209.375	0.00020999	0.00044342	6.2418e-05	187.37	8.7264e-07	3.8301e-06	339.67	58.247	2.8274e-06	3.5107e-06	138.28	51.729	21.968	10.363	2.8964e-06	27.05	0.00025584	0.00026326	7.5789e-05	201.8	2.7564e-06	2.8725e-06	341.93	61.93	2.7752e-06	2.8842e-06	140.71	53.06	24.178	10.926	2.9386e-06	26.73	-91.264	226.403	-37.509	-111.056	-39.289	7.707	-111.109	-105.091	229.734	49.741	-106.353	-101.401	-101.070	-96.644	-59.692	-98.142	-8191	255	
7369.517	1	1	0	0	0.23831	0.22895	0.21717	0.20226	0.11551	0.14457	0.065664	0.25154	0.13974	0.17304	0.1337	0.13436	0.024991	0.090464	0.31188	0.10307	-2.1521	-3.3792	-3.0146	-2.6937	-3.5938	-2.7687	-3.0687	-3.5729	-2.6521	-3.4021	-2.9833	-2.6688	-3.2708	-2.6333	-2.8771	-3.4458	-75.306	-60.298	60.718	168.705	-3.994	225.627	218.491	225.187	-2.355	11.264	-10.533	-122.483	76.644	196.011	82.454	-105.015	0.00019992	0.00025441	1.9157e-05	186.38	2.5453e-06	1.49e-06	338.46	57.744	2.9924e-06	3.1816e-06	137.48	53.083	22.015	10.349	1.6232e-06	27.289	0.00024914	0.00026822	7.5316e-05	200.92	2.7494e-06	2.9843e-06	342.22	62.042	2.7686e-06	2.9717e-06	140.8	53.218	24.255	11.007	2.8969e-06	26.992	-86.759	57.653	195.421	-111.659	-123.093	0.550	-111.037	-105.639	-70.929	-1.580	-106.814	-101.215	-100.947	-96.210	-27.025	-98.284	-8191	255	
7369.636	1	1	0	0	0.18306	0.13028	0.19896	0.068086	0.25827	0.31094	0.16597	0.099137	0.11324	0.045574	0.19556	0.063304	0.052613	0.092203	0.13915	0.14214	-2.1729	-3.2833	-3.4458	-2.7333	-3.5083	-3.1125	-3.0625	-3.3187	-2.7458	-3.1042	-3.1604	-2.5812	-3.3667	-2.8667	-2.9167	-3.5625	211.661	-79.652	36.355	-108.411	-27.541	61.627	120.759	116.192	-10.507	161.329	203.038	-25.354	183.989	135.116	43.105	-93.660	0.00019087	0.0002151	8.8738e-06	189.93	5.4647e-06	3.3633e-06	341.16	58.611	1.1459e-06	2.8476e-06	138.6	53.571	22.524	10.566	4.3497e-06	27.501	0.00025535	0.00027604	7.4808e-05	200.2	2.7785e-06	3.0089e-06	343.92	62.233	2.8665e-06	2.9651e-06	142.57	53.719	24.771	11.075	2.8763e-06	27.061	-93.632	-97.211	-67.709	-111.832	-60.474	182.351	-111.254	-105.088	176.397	39.001	-106.568	-101.648	-100.365	-96.294	222.852	-98.626	-8191	255	
7369.732	1	1	0	0	0.10617	0.19245	0.1838	0.15429	0.2255	0.13156	0.25454	0.17795	0.20723	0.061764	0.071073	0.21913	0.32748	0.096581	0.24642	0.27719	-2.3083	-3.1437	-3.2188	-2.7021	-3.4208	-2.9396	-2.8104	-3.4437	-2.7	-3.2021	-3.3729	-2.3438	-3.3896	-2.9938	-2.85	-3.5583	14.682	192.509	142.144	151.614	80.215	-59.268	110.863	-110.459	216.745	176.937	47.372	58.729	-97.842	209.418	134.771	-96.557	0.00017567	0.0003613	3.1113e-05	187.29	2.6551e-06	2.9531e-06	339.82	58.824	2.8554e-06	1.0398e-06	138.26	52.73	22.152	10.431	1.8804e-06	27.197	0.00026153	0.00026695	7.3287e-05	200.12	2.8765e-06	2.955e-06	342.47	62.102	2.9162e-06	2.9672e-06	141.33	53.231	24.667	10.987	2.8542e-06	26.875	-107.243	57.954	19.537	-110.614	-53.681	2.259	-111.301	-104.995	-87.686	33.718	-106.492	-101.111	-100.592	-96.182	-28.895	-98.035	-8191	255	
7369.805	1	1	0	0	0.11995	0.21585	0.20197	0.17111	0.12493	0.17841	0.038761	0.16911	0.11278	0.10426	0.17927	0.17696	0.20427	0.036759	0.22609	0.19669	-2.3417	-2.9	-3.2604	-2.7021	-3.3563	-3.1646	-2.6229	-3.4688	-2.6583	-2.8146	-3.3854	-2.5604	-3.3688	-3.1063	-2.7875	-3.3375	-103.583	137.710	-91.688	-115.150	-79.378	-80.991	-104.209	121.812	188.734	117.148	145.556	-12.372	181.559	138.459	192.370	116.334	0.0001668	0.00049184	5.119e-05	185.85	1.7116e-06	4.5569e-07	339.39	58.581	1.2604e-06	5.7237e-06	136.55	52.848	21.968	10.281	3.5181e-06	27.148	0.00026798	0.00026913	7.2738e-05	200.39	2.9625e-06	2.9411e-06	341.24	62.04	2.988e-06	2.9214e-06	139.84	53.081	24.512	10.9	2.811e-06	26.846	-96.868	-47.994	-19.282	-110.654	112.189	65.294	-110.883	-104.950	221.967	0.725	-106.399	-101.087	-99.964	-96.097	-1.784	-97.709	-8191	255	
7369.924	1	1	0	0	0.16495	0.021968	0.26534	0.11566	0.044993	0.29316	0.025965	0.19784	0.23144	0.24424	0.1743	0.16955	0.076005	0.077494	0.30256	0.11937	-2.4708	-2.9458	-3.575	-2.725	-3.1292	-3.3229	-2.6437	-3.2458	-3.1833	-2.7375	-3.6396	-2.8083	-3.1854	-3.2583	-2.6771	-3.5333	118.537	207.362	9.150	125.620	62.684	167.668	219.991	231.367	2.858	55.651	182.901	203.658	159.587	-121.137	53.971	-37.421	9.4903e-05	0.00058316	8.07e-05	187.03	2.0085e-06	4.8375e-06	337.03	58.97	4.5182e-06	2.8979e-06	137.93	53.023	22.092	10.41	2.1223e-06	27.206	0.00026906	0.00026428	7.0928e-05	201.77	3.0064e-06	2.8873e-06	340.51	62.446	2.9551e-06	2.8789e-06	140.74	53.575	24.544	10.951	2.7705e-06	26.965	-25.049	140.826	-26.099	-111.022	50.174	22.129	-110.999	-104.763	84.064	7.506	-106.317	-101.586	-100.431	-96.330	21.815	-97.826	-8191	255	
7370.020	1	1	0	0	0.076166	0.17397	0.071413	0.023408	0.16157	0.14282	0.19616	0.066405	0.17964	0.21885	0.080395	0.17249	0.2035	0.17531	0.021224	0.090293	-2.6375	-2.7979	-3.3521	-2.8479	-3.1208	-3.4354	-2.6958	-3.4771	-3.1542	-2.6708	-3.5146	-2.775	-3.1354	-3.4896	-2.6312	-3.3354	40.978	-23.901	76.281	-70.195	114.579	188.435	216.316	-65.080	52.190	191.558	-17.750	-106.461	79.041	-36.589	48.942	6.381	0.00012525	0.00050398	6.2573e-05	189.9	3.2628e-06	1.7604e-06	341.04	58.211	2.3367e-06	7.303e-06	137.84	53.256	22.176	10.509	1.7742e-06	27.407	0.00026939	0.00026013	6.9936e-05	202.62	2.8968e-06	2.7777e-06	342.48	62.176	2.871e-06	2.7556e-06	140.3	53.59	24.436	10.923	2.6756e-06	27.01	-69.465	93.396	19.335	-111.181	-113.693	231.349	-110.919	-104.634	51.866	86.476	-106.877	-101.292	-100.053	-96.433	198.215	-98.142	-8191	255	
7370.117	1	1	0	0	0.27329	0.20871	0.11482	0.11217	0.21423	0.26254	0.22524	0.20524	0.19324	0.077587	0.15018	0.17863	0.050458	0.29619	0.12262	0.071061	-2.9396	-2.8479	-3.2125	-2.9146	-2.9646	-3.4854	-2.7104	-3.1813	-2.975	-2.5792	-3.575	-3.0646	-2.7583	-3.4562	-2.7042	-3.3396	-5.879	4.651	190.559	71.963	49.869	139.940	225.800	118.162	26.579	52.109	120.524	-1.628	129.111	-121.878	45.318	15.043	0.00017325	0.00024237	0.00012097	187.68	1.7999e-06	8.0242e-06	339.74	58.662	2.1217e-06	5.075e-06	138.63	53.038	22.322	10.379	4.5312e-06	27.112	0.00025399	0.00024591	6.8036e-05	201.11	2.7728e-06	2.698e-06	341.12	62.127	2.7786e-06	2.6696e-06	139.89	53.403	24.237	10.865	2.6802e-06	26.791	-88.148	0.373	-67.399	-111.464	-45.244	75.223	-111.106	-105.024	114.819	-22.262	-105.855	-101.278	-100.702	-96.188	59.254	-98.354	-8191	255	
7370.213	1	1	0	0	0.24537	0.1855	0.1079	0.15406	0.096821	0.2209	0.12076	0.1031	0.23938	0.25103	0.11844	0.32636	0.10503	0.22259	0.089728	0.12988	-2.9583	-2.5167	-3.2146	-2.8896	-2.7917	-3.6042	-2.85	-3.1146	-3.2625	-2.5271	-3.6146	-3.1583	-2.8063	-3.5438	-2.6792	-3.1021	32.474	-2.074	98.300	196.212	2.095	-116.048	40.450	223.045	159.590	-100.385	226.155	228.754	126.549	-67.736	-0.556	195.390	0.00015443	0.00041858	3.2863e-05	186.41	3.7607e-06	3.1541e-06	338.73	58.813	3.1873e-06	4.1184e-06	138.77	53.167	22.055	10.325	4.116e-06	27.581	0.00024419	0.00023412	6.8267e-05	200.43	2.6542e-06	2.5813e-06	341.17	62.148	2.678e-06	2.5833e-06	141.01	53.33	24.03	10.809	2.7417e-06	27.111	-68.249	-40.365	82.104	-111.386	-17.902	104.930	-111.513	-104.890	45.061	67.961	-106.215	-101.515	-99.709	-96.190	168.728	-97.747	-8191	255	
7370.333	1	1	0	0	0.061804	0.06143	0.20145	0.233	0.24055	0.046397	0.21796	0.14833	0.16762	0.15735	0.16243	0.21978	0.085752	0.11408	0.23545	0.11695	-3.0958	-2.6854	-3.3354	-2.9917	-2.6771	-3.4979	-3.0146	-3.0229	-3.3958	-2.5187	-3.4333	-3.3	-2.6604	-3.4667	-3.0083	-3.2562	227.633	28.959	1.068	-66.171	58.685	6.805	-18.342	118.889	176.564	16.527	4.937	45.102	34.626	92.422	-98.570	125.745	8.5626e-05	0.00014718	8.8496e-05	190.27	3.3195e-06	2.6046e-06	340.78	59.373	1.5954e-06	5.5075e-06	139.63	52.883	22.198	10.504	2.7361e-06	27.34	0.00024004	0.00023349	6.9529e-05	200.78	2.6363e-06	2.5421e-06	343.11	61.977	2.6201e-06	2.5622e-06	141.63	53.32	24.036	10.853	2.8089e-06	26.964	-63.472	24.646	223.936	-111.796	37.222	143.403	-111.198	-104.915	57.993	-11.195	-106.685	-101.523	-100.222	-95.806	165.433	-97.246	-8191	255	
7370.405	1	1	0	0	0.21296	0.21051	0.092785	0.11977	0.10916	0.13988	0.026922	0.17022	0.12	0.16958	0.12431	0.045296	0.035274	0.1445	0.056512	0.22982	-3.2333	-2.725	-3.1583	-3.0062	-2.7646	-3.5021	-3.0083	-2.7854	-3.4542	-2.6292	-3.2958	-3.3833	-2.65	-3.3875	-3.0104	-2.9208	68.820	-6.901	-90.735	18.391	90.936	182.434	121.078	-48.696	-56.154	105.126	22.406	-119.803	115.283	183.342	219.319	216.875	0.00016564	0.00013919	9.1736e-05	190.17	3.7231e-06	1.1501e-06	342.46	58.321	4.1918e-06	5.7971e-06	137.14	52.535	21.842	10.332	1.5769e-06	27.105	0.0002364	0.00023517	7.0216e-05	200.47	2.5535e-06	2.6054e-06	342.96	61.63	2.5616e-06	2.6113e-06	140.36	52.954	23.788	10.773	2.6963e-06	26.704	-88.481	191.973	84.511	-111.377	172.206	18.573	-111.129	-104.792	39.827	130.477	-106.087	-101.564	-100.962	-96.174	-26.256	-97.840	-8191	255	
7370.526	1	1	0	0	0.17474	0.1152	0.024195	0.15763	0.24886	0.10818	0.2744	0.14275	0.12606	0.1198	0.12615	0.21996	0.0911	0.30644	0.23035	0.2245	-3.2333	-2.6521	-3.2062	-3.3146	-2.6979	-3.425	-3.2521	-2.8604	-3.525	-2.8333	-2.875	-3.4292	-2.6979	-3.3146	-3.1375	-2.8187	-37.654	168.961	87.072	148.961	75.684	-10.538	185.578	218.789	97.294	224.181	-26.381	41.062	102.983	218.000	-75.469	165.805	0.00015823	0.00039583	2.776e-05	188.89	5.1371e-06	8.3403e-07	341.6	58.163	3.6441e-06	3.2884e-06	139.4	52.823	22.041	10.248	5.4698e-06	27.011	0.00023355	0.00024277	6.8953e-05	200.34	2.518e-06	2.6815e-06	342.89	61.571	2.575e-06	2.7361e-06	140.38	52.984	23.954	10.826	2.7994e-06	26.675	-61.412	152.201	160.516	-111.341	-67.814	7.033	-111.019	-104.174	5.784	72.358	-105.632	-101.748	-100.045	-96.298	113.701	-97.903	-8191	255	
7370.622	1	1	0	0	0.26147	0.040644	0.1345	0.31953	0.070519	0.16252	0.23161	0.33109	0.07314	0.15465	0.20567	0.023727	0.15155	0.28202	0.28032	0.14148	-3.0625	-2.8729	-3.1979	-3.4854	-2.5542	-3.3396	-3.1479	-2.5229	-3.5375	-2.8937	-3.1375	-3.3812	-2.4896	-3.0208	-3.2917	-2.8688	-107.435	-21.390	114.845	96.051	62.192	117.643	201.330	-2.724	178.890	108.410	-80.193	-32.699	135.255	-30.571	79.459	96.350	0.00011382	0.00016206	2.8267e-05	188.19	2.0552e-06	3.0252e-06	340.85	57.801	1.8266e-06	4.535e-06	138.66	52.957	22.198	10.261	1.1499e-06	27.107	0.0002371	0.00025526	7.0514e-05	200.3	2.5864e-06	2.8178e-06	342.81	61.509	2.6385e-06	2.8405e-06	140.71	52.993	24.023	10.823	2.7267e-06	26.72	-61.651	-72.094	124.816	-111.129	-1.268	51.407	-110.776	-104.969	76.750	28.151	-105.151	-101.097	-99.925	-96.463	70.850	-97.602	-8191	255	
7370.716	1	1	0	0	0.35914	0.12109	0.06116	0.073526	0.29091	0.088944	0.059824	0.26986	0.16409	0.33601	0.29077	0.12282	0.078864	0.072957	0.083348	0.14797	-3.1458	-2.6146	-2.7938	-3.4792	-2.7875	-3.2333	-3.1	-2.6229	-3.5729	-3.0917	-2.7083	-3.4521	-2.6229	-3.3125	-3.2646	-2.6167	-60.282	101.191	149.768	7.423	133.431	-66.987	26.816	219.058	155.056	66.909	-5.340	168.975	45.390	90.913	161.410	220.333	0.00019256	0.00022698	5.994e-05	188.59	5.1675e-06	3.6753e-06	342.64	58.4	3.111e-06	2.8106e-06	137.59	52.536	21.673	10.3	5.9857e-06	27.144	0.00024248	0.00025367	6.8995e-05	199.09	2.665e-06	2.7275e-06	341.72	61.265	2.6176e-06	2.7645e-06	139.48	52.767	23.868	10.83	2.6492e-06	26.621	-83.830	-28.571	78.595	-111.667	-21.127	46.105	-110.740	-104.552	166.921	16.464	-106.195	-101.049	-100.402	-96.098	51.254	-98.034	-8191	255	
7370.812	1	1	0	0	0.30861	0.12136	0.16285	0.10168	0.14982	0.095565	0.087994	0.13288	0.1102	0.21145	0.1166	0.061877	0.19129	0.039637	0.11193	0.11735	-3.0083	-3.0104	-2.7188	-3.5667	-2.5625	-3.1021	-3.3396	-2.675	-3.5208	-3.1312	-2.8312	-3.5292	-2.7083	-3.1188	-3.3854	-2.6083	32.277	144.002	180.601	-56.501	-70.592	137.590	43.944	95.474	-21.514	-37.895	-96.245	65.320	98.597	205.233	98.573	-19.571	0.00012865	0.00023345	0.00011223	189.49	1.1313e-06	4.1285e-06	340.97	57.545	2.3047e-06	4.7989e-06	137.26	52.022	21.754	10.426	1.765e-06	26.809	0.00024523	0.00025021	6.6335e-05	198.84	2.6855e-06	2.6777e-06	341.13	60.939	2.7446e-06	2.6943e-06	138.99	52.423	23.879	10.799	2.6281e-06	26.526	-87.655	233.316	28.958	-110.811	166.036	-44.593	-110.901	-104.659	93.398	12.004	-105.738	-100.828	-99.459	-96.213	199.923	-98.402	-8191	255	
7370.933	1	1	0	0	0.10842	0.081165	0.082895	0.065777	0.10129	0.034475	0.35217	0.077503	0.082083	0.078562	0.15999	0.11586	0.056834	0.34864	0.22617	0.12695	-3.0938	-3.1479	-2.625	-3.7562	-2.7979	-2.8979	-3.3292	-2.45	-3.4708	-3.3063	-2.4813	-3.5333	-2.8833	-2.9604	-3.3438	-2.6188	-46.200	187.307	-120.497	-86.051	63.060	-77.858	85.026	216.262	-112.652	-113.599	-109.840	210.550	168.166	-115.849	206.769	86.712	0.00016477	0.00018862	4.366e-05	190.63	1.9513e-06	3.1968e-06	339.86	57.891	2.803e-06	3.2688e-06	138.53	52.324	21.748	10.256	3.3236e-06	27.22	0.00024774	0.00024785	6.5949e-05	199.66	2.7661e-06	2.7174e-06	340.12	61.051	2.7479e-06	2.7124e-06	139.52	52.622	24.107	10.738	2.6518e-06	26.755	-72.612	22.392	-6.691	-111.095	83.217	-26.301	-110.404	-104.360	182.805	22.006	-106.334	-101.745	-101.143	-96.172	46.270	-97.937	-8191	255	
7371.005	1	1	0	0	0.066849	0.15437	0.05106	0.10079	0.16639	0.22046	0.078951	0.066084	0.18942	0.098253	0.21427	0.13419	0.27042	0.12039	0.13103	0.064418	-2.8917	-3.2625	-2.4042	-3.2646	-2.8312	-2.85	-3.5708	-2.6458	-3.0396	-3.2417	-2.8667	-3.5792	-3.0146	-2.8146	-3.55	-2.6542	223.682	179.702	-49.270	-108.878	48.458	30.220	136.972	-55.890	217.121	75.370	-90.583	-100.878	-59.911	216.999	-88.149	112.714	0.0001599	0.00018291	5.6887e-05	188.73	4.9992e-06	2.3387e-06	339.28	58.154	3.7205e-06	3.6574e-06	138.98	52.668	21.924	10.26	2.523e-06	27.19	0.00025201	0.00024679	6.6031e-05	200.56	2.7831e-06	2.6778e-06	341.9	61.595	2.8295e-06	2.7127e-06	139.86	52.852	24.108	10.759	2.6075e-06	26.739	-89.469	221.981	39.238	-111.361	-111.894	69.223	-110.936	-105.381	109.891	-90.128	-106.060	-101.770	-101.033	-95.653	89.938	-98.092	-8191	255	
7371.101	1	1	0	0	0.19498	0.039547	0.12831	0.13332	0.15624	0.21841	0.048784	0.099657	0.083454	0.15042	0.25764	0.16373	0.050287	0.1246	0.16649	0.070818	-2.6917	-3.5146	-2.5667	-3.4917	-3.1021	-2.6667	-3.575	-2.8521	-2.9646	-3.4333	-2.8458	-3.5583	-3.2687	-2.6354	-3.6396	-2.8479	47.909	133.691	34.162	-117.642	37.130	183.980	33.158	-60.833	-79.410	-23.441	229.361	-90.538	229.477	189.555	224.682	12.321	0.00017984	0.00062417	6.2778e-05	189.51	3.8394e-06	5.8285e-06	340.28	58.392	4.247e-06	3.33e-06	138.84	52.246	21.77	10.06	4.617e-06	26.858	0.00025117	0.00024658	6.6004e-05	201.19	2.7793e-06	2.7221e-06	341.06	61.8	2.7718e-06	2.6963e-06	139.19	52.603	23.782	10.593	2.66e-06	26.474	-104.283	10.993	41.736	-111.119	37.502	-27.832	-110.742	-104.964	-112.501	11.604	-106.077	-101.480	-100.255	-95.644	60.471	-97.974	-8191	255	
7371.197	1	1	0	0	0.13178	0.21966	0.19178	0.19703	0.088751	0.11822	0.19529	0.13939	0.13638	0.093712	0.16845	0.18486	0.11878	0.3366	0.19329	0.22881	-2.7583	-3.5687	-2.5062	-3.3104	-3.3688	-2.7396	-3.525	-2.7146	-2.8104	-3.7021	-2.8125	-3.1437	-3.3688	-2.6521	-3.2917	-2.9958	-44.413	157.408	159.097	76.040	-57.761	160.078	226.212	203.584	1.627	-113.423	187.759	170.536	91.406	86.238	106.713	56.025	0.00022595	0.00060239	7.9336e-05	189.75	2.3222e-06	9.6654e-07	339.16	58.327	4.2539e-06	9.6515e-07	135.32	51.774	21.608	10.238	2.4896e-06	26.579	0.00024851	0.00024485	6.7229e-05	201.06	2.7281e-06	2.6156e-06	340.26	61.505	2.7133e-06	2.6589e-06	138.06	52.421	23.737	10.64	2.7834e-06	26.362	-62.360	14.063	-64.927	-110.894	51.812	4.798	-110.986	-105.213	-56.370	-92.166	-106.354	-101.125	-100.487	-96.038	107.433	-98.087	-8191	255	
7371.316	1	1	0	0	0.24261	0.2501	0.12965	0.15464	0.167	0.18143	0.080369	0.19274	0.1739	0.1218	0.23499	0.19635	0.26091	0.23921	0.11685	0.10436	-2.45	-3.5	-2.5771	-3.2625	-3.375	-2.6	-3.5375	-3.1813	-2.7708	-3.3875	-2.7229	-3.2979	-3.5292	-2.7562	-3.3833	-3.2021	-42.670	169.313	-60.047	55.742	-75.662	48.288	-71.687	-110.073	-20.611	133.999	-75.991	-113.021	3.542	127.466	71.734	-8.151	0.00020112	9.3525e-05	4.9434e-05	190.49	3.9549e-06	2.9855e-06	339.12	57.79	1.0524e-06	5.9055e-06	137.44	52.072	21.618	10.166	1.3715e-06	26.736	0.00025027	0.00024494	7.0363e-05	202.31	2.7603e-06	2.6682e-06	340.86	61.418	2.7451e-06	2.6929e-06	139.38	52.508	23.855	10.648	2.8722e-06	26.496	-89.699	-88.075	201.933	-110.619	63.300	170.581	-110.471	-104.863	140.057	-37.790	-106.195	-101.318	-99.567	-95.446	102.107	-97.628	-8191	255	
7371.412	1	1	0	0	0.18485	0.27553	0.23444	0.058061	0.24028	0.12668	0.1126	0.15786	0.18237	0.069566	0.27064	0.095799	0.12956	0.11818	0.13985	0.048963	-2.1833	-3.7	-2.675	-2.9833	-3.4729	-2.7021	-3.5187	-3.2542	-2.6396	-3.6146	-2.7854	-2.9	-3.6417	-2.5958	-3.3812	-3.2896	-27.723	47.419	-90.502	-66.103	-68.811	-117.233	14.583	228.081	196.000	150.197	15.198	97.321	72.301	120.646	201.925	177.812	9.2725e-05	0.00029408	6.353e-05	190.95	1.5404e-06	2.0814e-06	336.26	57.264	4.8418e-06	4.883e-06	138.97	52.236	21.88	10.363	2.4631e-06	26.792	0.00024834	0.00024114	7.2286e-05	201.4	2.7021e-06	2.6433e-06	342.48	61.449	2.6967e-06	2.7252e-06	140.47	52.592	23.936	10.751	2.8948e-06	26.451	-71.129	-44.910	-103.149	-110.833	121.889	181.762	-111.120	-105.016	16.811	30.095	-105.311	-101.387	-99.482	-95.998	116.552	-98.121	-8191	255	
7371.508	1	1	0	0	0.12025	0.19899	0.089418	0.16705	0.1288	0.081211	0.18912	0.14089	0.19936	0.07038	0.098648	0.20763	0.0937	0.16402	0.067359	0.24272	-2.3833	-3.4437	-2.9062	-2.7687	-3.4917	-2.6688	-3.2313	-3.3708	-2.6937	-3.6	-3.0979	-2.8083	-3.675	-2.7188	-3.1771	-3.3354	-51.709	-60.986	190.032	-118.198	-50.787	45.374	234.212	153.677	-84.807	-74.515	-58.981	-47.442	12.443	-72.933	1.789	185.732	0.00015576	0.00022845	7.3173e-05	185.79	2.6131e-06	7.4892e-07	337.08	57.542	1.1428e-06	4.4707e-06	135.5	51.881	21.874	10.303	3.5126e-06	26.918	0.00024438	0.00024672	7.26e-05	200.68	2.6516e-06	2.7203e-06	340.39	61.372	2.6047e-06	2.7449e-06	139.12	52.334	23.719	10.745	2.8523e-06	26.464	-83.859	124.921	-19.729	-111.036	87.585	229.184	-110.509	-104.527	92.476	-7.577	-106.278	-101.121	-99.677	-95.407	-21.664	-97.094	-8191	255	
7371.604	1	1	0	0	0.036086	0.18682	0.29775	0.20949	0.08719	0.072377	0.12845	0.065471	0.14845	0.11773	0.23476	0.15858	0.17858	0.10493	0.15064	0.32753	-2.3146	-3.4792	-2.8646	-3.0958	-3.5917	-2.6208	-3.1354	-3.3438	-2.7333	-3.5771	-3.3229	-2.6833	-3.6042	-2.9042	-3.0708	-3.5229	175.814	162.513	12.874	-37.460	57.373	212.448	-97.738	195.127	-93.981	128.155	195.162	-108.430	-100.569	-121.636	-75.957	55.784	0.00011423	0.00025106	1.2326e-05	184.18	4.8287e-06	3.3113e-06	338.04	58.151	5.52e-07	1.3642e-06	137.12	52.22	21.571	10.219	2.1006e-06	26.786	0.00023978	0.00025672	7.2509e-05	198.35	2.6243e-06	2.7953e-06	340.03	61.078	2.6014e-06	2.7827e-06	139.62	52.409	23.542	10.744	2.795e-06	26.34	-89.519	233.719	-72.605	-110.710	212.483	-54.226	-110.490	-104.500	176.815	-68.583	-105.589	-100.220	-100.071	-94.861	195.044	-97.626	-8191	255	
#DATA ENDS
