BOXY.EXE: ISS Imagent and Oximeter Data Acquisition Program Version 0.80
Ascii Record File

#ACQ INFORMATION
2  Detector Channels 
16  External MUX Channels 
1  Auxiliary Channels 
5000  Waveform (CCF) Frequency (Hz)
1  Waveforms Skipped 
30  Waveforms Averaged 
1  Cycles Averaged 
16  Acquisitions per Waveform 
10.0806  Updata Rate (Hz) 

#FILE INFORMATION
TRUE -- External MUX Channel results are PARSED.
FALSE -- AC DC and Phase are NOT grouped.
TRUE -- Companion Program Settings File CREATED.
FALSE -- AC data not excluded
FALSE -- DC data not excluded
FALSE -- Phase data not excluded
FALSE -- Auxillary Chn. data not excluded
Tab delimiters

#CALIBRATION STATE
TRUE -- Waveform Calibration Values APPLIED.


#AUX CALIBRATION VALUES
Val Type	aux-1	

Term	1.0000e+00	
Factor	0.0000e+00	


#WF CALIBRATION VALUES
A = Detector Channel
Val Type	A-AC1	A-AC2	A-AC3	A-AC4	A-AC5	A-AC6	A-AC7	A-AC8	A-AC9	A-AC10	A-AC11	A-AC12	A-AC13	A-AC14	A-AC15	A-AC16	A-DC1	A-DC2	A-DC3	A-DC4	A-DC5	A-DC6	A-DC7	A-DC8	A-DC9	A-DC10	A-DC11	A-DC12	A-DC13	A-DC14	A-DC15	A-DC16	A-Ph1	A-Ph2	A-Ph3	A-Ph4	A-Ph5	A-Ph6	A-Ph7	A-Ph8	A-Ph9	A-Ph10	A-Ph11	A-Ph12	A-Ph13	A-Ph14	A-Ph15	A-Ph16	

Term	0.00000e+00	0.00000e+00	0.00000e+00	0.00000e+00	0.00000e+00	0.00000e+00	0.00000e+00	0.00000e+00	0.00000e+00	0.00000e+00	0.00000e+00	0.00000e+00	0.00000e+00	0.00000e+00	0.00000e+00	0.00000e+00	0.00000e+00	0.00000e+00	0.00000e+00	0.00000e+00	0.00000e+00	0.00000e+00	0.00000e+00	0.00000e+00	0.00000e+00	0.00000e+00	0.00000e+00	0.00000e+00	0.00000e+00	0.00000e+00	0.00000e+00	0.00000e+00	0.00000e+00	0.00000e+00	0.00000e+00	0.00000e+00	0.00000e+00	0.00000e+00	0.00000e+00	0.00000e+00	0.00000e+00	0.00000e+00	0.00000e+00	0.00000e+00	0.00000e+00	0.00000e+00	0.00000e+00	0.00000e+00	
Factor	1.00000e+00	1.00000e+00	1.00000e+00	1.00000e+00	1.00000e+00	1.00000e+00	1.00000e+00	1.00000e+00	1.00000e+00	1.00000e+00	1.00000e+00	1.00000e+00	1.00000e+00	1.00000e+00	1.00000e+00	1.00000e+00	1.00000e+00	1.00000e+00	1.00000e+00	1.00000e+00	1.00000e+00	1.00000e+00	1.00000e+00	1.00000e+00	1.00000e+00	1.00000e+00	1.00000e+00	1.00000e+00	1.00000e+00	1.00000e+00	1.00000e+00	1.00000e+00	X	X	X	X	X	X	X	X	X	X	X	X	X	X	X	X	

B = Detector Channel
Val Type	B-AC1	B-AC2	B-AC3	B-AC4	B-AC5	B-AC6	B-AC7	B-AC8	B-AC9	B-AC10	B-AC11	B-AC12	B-AC13	B-AC14	B-AC15	B-AC16	B-DC1	B-DC2	B-DC3	B-DC4	B-DC5	B-DC6	B-DC7	B-DC8	B-DC9	B-DC10	B-DC11	B-DC12	B-DC13	B-DC14	B-DC15	B-DC16	B-Ph1	B-Ph2	B-Ph3	B-Ph4	B-Ph5	B-Ph6	B-Ph7	B-Ph8	B-Ph9	B-Ph10	B-Ph11	B-Ph12	B-Ph13	B-Ph14	B-Ph15	B-Ph16	

Term	0.00000e+00	0.00000e+00	0.00000e+00	0.00000e+00	0.00000e+00	0.00000e+00	0.00000e+00	0.00000e+00	0.00000e+00	0.00000e+00	0.00000e+00	0.00000e+00	0.00000e+00	0.00000e+00	0.00000e+00	0.00000e+00	0.00000e+00	0.00000e+00	0.00000e+00	0.00000e+00	0.00000e+00	0.00000e+00	0.00000e+00	0.00000e+00	0.00000e+00	0.00000e+00	0.00000e+00	0.00000e+00	0.00000e+00	0.00000e+00	0.00000e+00	0.00000e+00	-2.07275e+01	-1.32847e+02	-1.52787e+02	-1.83875e+02	-6.77554e+01	-5.54330e+01	-1.56919e+02	-1.62015e+02	-3.22664e+01	-7.99954e+01	-1.74562e+02	-1.70840e+02	-1.80437e+02	-1.77427e+02	-6.96928e+01	-1.50391e+02	
Factor	2.96057e-05	1.28999e-04	4.41538e-05	1.97066e-01	1.45415e-06	1.07368e-06	1.67062e-01	5.22067e-02	1.19540e-06	1.26644e-06	1.23098e-01	2.98311e-02	3.04790e-02	9.88491e-03	1.28029e-06	1.43348e-02	1.34528e-06	1.40145e-06	3.88201e-07	9.80757e-02	1.52263e-08	1.53501e-08	7.86761e-02	2.62170e-02	1.51695e-08	1.52930e-08	5.81304e-02	1.43474e-02	1.50814e-02	4.92209e-03	1.51770e-08	6.84804e-03	X	X	X	X	X	X	X	X	X	X	X	X	X	X	X	X	



#DISTANCE SETTINGS
A = Detector Channel
A-1	A-2	A-3	A-4	A-5	A-6	A-7	A-8	A-9	A-10	A-11	A-12	A-13	A-14	A-15	A-16	

2.5000e+00	3.0000e+00	2.5000e+00	3.0000e+00	2.0000e+00	3.0000e+00	1.5000e+00	3.0000e+00	3.0000e+00	3.0000e+00	3.0000e+00	3.0000e+00	3.0000e+00	3.0000e+00	1.5000e+00	3.0000e+00	

B = Detector Channel
B-1	B-2	B-3	B-4	B-5	B-6	B-7	B-8	B-9	B-10	B-11	B-12	B-13	B-14	B-15	B-16	

1.0000e+01	1.0000e+01	1.0000e+01	1.4400e+00	1.0000e+01	1.0000e+01	1.5100e+00	1.9400e+00	1.0000e+01	1.0000e+01	1.9900e+00	2.4900e+00	2.4100e+00	2.9000e+00	1.0000e+01	2.9800e+00	




#DATA BEGINS
time	group	step	mark	flag	A-AC1	A-AC2	A-AC3	A-AC4	A-AC5	A-AC6	A-AC7	A-AC8	A-AC9	A-AC10	A-AC11	A-AC12	A-AC13	A-AC14	A-AC15	A-AC16	A-DC1	A-DC2	A-DC3	A-DC4	A-DC5	A-DC6	A-DC7	A-DC8	A-DC9	A-DC10	A-DC11	A-DC12	A-DC13	A-DC14	A-DC15	A-DC16	A-Ph1	A-Ph2	A-Ph3	A-Ph4	A-Ph5	A-Ph6	A-Ph7	A-Ph8	A-Ph9	A-Ph10	A-Ph11	A-Ph12	A-Ph13	A-Ph14	A-Ph15	A-Ph16	B-AC1	B-AC2	B-AC3	B-AC4	B-AC5	B-AC6	B-AC7	B-AC8	B-AC9	B-AC10	B-AC11	B-AC12	B-AC13	B-AC14	B-AC15	B-AC16	B-DC1	B-DC2	B-DC3	B-DC4	B-DC5	B-DC6	B-DC7	B-DC8	B-DC9	B-DC10	B-DC11	B-DC12	B-DC13	B-DC14	B-DC15	B-DC16	B-Ph1	B-Ph2	B-Ph3	B-Ph4	B-Ph5	B-Ph6	B-Ph7	B-Ph8	B-Ph9	B-Ph10	B-Ph11	B-Ph12	B-Ph13	B-Ph14	B-Ph15	B-Ph16	aux-1	digaux	

3191.655	1	1	0	512	0.19525	0.25909	0.24312	0.12342	0.15387	0.19146	0.1429	0.46825	0.080143	0.27084	0.28923	0.21722	0.45833	0.17242	0.21434	0.053233	-3.0042	-2.6375	-3.2812	-3.3021	-2.5625	-3.4938	-3.3063	-2.6917	-3.3458	-2.7271	-3.35	-3.5667	-2.7458	-3.4604	-2.9708	-2.8563	-86.310	129.160	-15.175	104.746	138.403	130.733	215.867	172.497	100.767	-60.968	218.802	192.504	208.265	-117.078	88.236	-48.776	0.0012816	0.0023208	0.00113	1219.8	1.9329e-05	1.3702e-05	1331.1	510.24	9.8982e-06	1.45e-05	566.17	230.36	224.65	91.826	1.7368e-05	95.931	0.0029667	0.0033434	0.0009509	1240.2	3.2348e-05	3.7463e-05	1303.1	483.54	3.3196e-05	3.7551e-05	598.88	223.03	217.19	88.556	3.6395e-05	93.59	-59.489	3.914	-111.065	-120.209	222.757	188.793	-121.193	-115.105	-131.092	209.205	-117.536	-115.054	-112.315	-106.756	-22.623	-111.176	-8191	255	
3191.751	1	1	0	0	0.16323	0.1045	0.064627	0.30863	0.18133	0.13295	0.19952	0.34853	0.094799	0.22379	0.10618	0.26625	0.24553	0.31855	0.06923	0.096748	-2.9938	-2.6958	-2.9583	-3.4104	-2.5479	-3.2854	-3.2083	-2.8	-3.4167	-2.925	-3.1229	-3.5854	-2.7938	-3.4729	-3.1	-2.5271	128.406	76.317	90.792	187.922	-30.479	167.515	188.687	140.365	151.289	73.959	-66.951	169.719	213.735	151.443	175.252	156.267	0.00057792	0.0013681	0.00077141	1209.8	1.7746e-05	2.0756e-05	1323.4	508.66	1.6236e-05	1.3427e-05	568.93	230.82	222.5	91.983	2.9587e-05	95.682	0.0029989	0.0034979	0.00090984	1226.2	3.3328e-05	3.839e-05	1288.8	481.06	3.4264e-05	3.8675e-05	591.6	222.39	217.66	88.666	3.545e-05	93.289	-66.559	-81.854	-86.789	-119.480	35.974	80.313	-121.363	-114.865	-62.335	189.341	-117.971	-114.742	-112.294	-106.785	34.711	-110.768	-8191	255	
3191.847	1	1	0	0	0.27957	0.088279	0.19484	0.17059	0.14952	0.33275	0.46694	0.25223	0.1505	0.20748	0.17734	0.22117	0.40284	0.44607	0.23896	0.060501	-3.0438	-2.8937	-2.9938	-3.4917	-2.6229	-3.4125	-3.3125	-2.8875	-3.4792	-2.8563	-2.925	-3.4708	-2.6625	-3.3229	-3.3187	-2.8812	86.414	103.273	81.900	-128.040	-40.682	-38.634	166.920	171.169	102.552	-62.591	205.389	187.194	-101.545	198.966	-113.986	-79.591	0.0013539	0.003815	0.00058383	1213.5	5.9369e-06	1.926e-05	1322.9	514.44	5.8564e-06	2.4074e-05	573.93	233.99	225.16	91.9	2.4798e-05	96.339	0.0031535	0.0035018	0.00087639	1224.1	3.5769e-05	3.7899e-05	1289.7	483.71	3.6171e-05	3.7696e-05	594.45	224.05	221.68	88.538	3.4643e-05	93.938	-64.202	215.431	-8.717	-119.771	142.599	-4.468	-121.671	-115.241	25.681	-31.283	-118.086	-114.690	-112.482	-106.634	-27.310	-111.315	-8191	255	
3191.943	1	1	0	0	0.12596	0.14932	0.26448	0.19511	0.047133	0.177	0.25695	0.55	0.10616	0.091651	0.23475	0.10061	0.17376	0.3746	0.14963	0.17911	-2.975	-2.8542	-2.5958	-3.475	-2.7313	-3.0958	-3.4542	-2.6875	-3.4104	-2.8542	-2.7417	-3.5854	-2.875	-3.1625	-3.3083	-2.7125	-121.279	118.900	225.755	98.310	54.813	89.060	78.614	191.460	42.381	102.375	146.014	155.142	212.001	159.272	138.875	124.450	0.0010014	0.0023568	0.00066568	1225.8	1.9716e-05	4.2393e-06	1329.5	513.23	1.6081e-05	2.1784e-05	568.67	232.38	224.63	91.495	1.0372e-05	95.501	0.0033313	0.0034277	0.00085816	1232	3.7554e-05	3.6708e-05	1288.3	484.91	3.7711e-05	3.6856e-05	586.58	224.32	222.94	87.777	3.4109e-05	93.903	-67.250	-20.213	-40.742	-120.062	188.736	101.369	-121.822	-115.303	44.616	-0.972	-117.727	-114.911	-112.434	-106.632	-27.566	-111.010	-8191	255	
3192.064	1	1	0	0	0.27996	0.1085	0.097014	0.19591	0.27254	0.11486	0.11588	0.078947	0.19874	0.2292	0.08171	0.32997	0.31302	0.13866	0.12528	0.30325	-3.05	-3.0292	-2.5625	-3.6521	-2.8271	-2.9896	-3.5333	-2.9437	-3.3021	-3.1854	-2.7042	-3.5708	-2.8688	-2.9979	-3.5021	-2.8021	-55.667	17.962	-95.036	151.466	109.057	-65.228	184.182	110.231	-15.681	7.861	134.637	146.764	213.819	196.641	221.238	156.967	0.0011693	0.0010374	0.00060781	1214.1	2.7984e-05	1.8342e-05	1326.4	508.6	1.6499e-05	2.4369e-05	561.54	230.96	225.38	91.349	1.2899e-05	95.379	0.0034303	0.0033264	0.0008478	1238.4	3.8721e-05	3.5858e-05	1283.9	486.55	3.8517e-05	3.6258e-05	584.34	225.32	223.29	87.223	3.3998e-05	94.887	-40.531	-29.447	-62.059	-119.887	-59.452	-20.537	-121.820	-115.238	35.521	45.276	-118.238	-114.672	-112.014	-106.723	140.370	-111.374	-8191	255	
3192.135	1	1	0	0	0.091843	0.076422	0.22629	0.16878	0.086726	0.3346	0.18976	0.45417	0.19224	0.16212	0.21446	0.077764	0.18298	0.23357	0.14991	0.18225	-2.8937	-3.1771	-2.5938	-3.3917	-2.9396	-2.8354	-3.6354	-2.8958	-3.2208	-3.3375	-2.6625	-3.3875	-2.9417	-2.9583	-3.4437	-3.025	25.661	50.208	176.812	-127.704	-89.531	219.504	214.292	138.953	146.865	147.748	130.833	224.888	-6.002	174.236	-38.960	-19.524	0.000878	0.00097266	0.00090753	1223.3	1.6703e-05	1.8326e-05	1322.1	511.46	4.9083e-06	3.5888e-05	565.49	231.47	225.74	91.768	7.7042e-06	95.181	0.0034079	0.0032832	0.00085004	1256.9	3.8379e-05	3.4975e-05	1283.7	493.41	3.7338e-05	3.5651e-05	589.09	227.91	222.37	87.245	3.4639e-05	96.056	-59.014	70.298	-47.995	-119.604	67.413	-40.757	-121.746	-115.078	108.213	70.389	-117.951	-115.198	-112.164	-106.595	-33.044	-111.329	-8191	255	
3192.231	1	1	0	0	0.20199	0.16287	0.048168	0.256	0.11196	0.11973	0.33465	0.15608	0.16062	0.058516	0.1023	0.22857	0.16676	0.10769	0.29584	0.31659	-2.8125	-3.2062	-2.625	-3.3792	-3.05	-2.7208	-3.6917	-2.9292	-2.9854	-3.3917	-2.7021	-3.5354	-3.1729	-2.7792	-3.3667	-2.9854	178.251	-1.115	-120.217	-98.002	-31.627	224.579	164.414	114.272	-65.301	89.627	124.099	-99.488	-103.825	-27.092	-100.448	171.440	0.0010489	0.0019323	0.00042819	1218.8	3.5744e-05	4.4403e-06	1327.5	509.14	2.365e-05	1.1308e-05	561.18	230.44	224.77	91.812	1.156e-05	94.635	0.0033163	0.0032851	0.00086996	1263.4	3.7488e-05	3.4438e-05	1288	493.03	3.5781e-05	3.4937e-05	589.75	227.79	220.36	86.852	3.5799e-05	95.646	-47.473	38.601	17.038	-119.532	85.983	5.879	-121.676	-115.042	12.422	-31.854	-117.814	-114.828	-112.406	-106.515	144.365	-111.324	-8191	255	
3192.328	1	1	0	0	0.14357	0.10948	0.084888	0.21627	0.097183	0.12603	0.34318	0.30629	0.10048	0.10418	0.095454	0.062121	0.17603	0.098841	0.45362	0.16735	-2.7458	-3.3083	-2.5417	-3.2021	-3.1063	-2.4688	-3.5458	-3.0062	-2.8875	-3.3083	-2.7417	-3.2479	-3.2521	-2.8458	-3.4375	-3.1333	-73.055	64.909	-113.788	226.315	-62.474	-14.582	58.671	148.894	-73.917	-131.448	-7.450	-117.190	-120.995	225.113	-34.027	135.348	0.00091413	0.0030676	0.00050411	1213.2	2.96e-05	1.5494e-05	1308.7	506.56	1.6085e-05	2.0391e-05	555.31	228.32	222.81	91.227	3.5124e-05	95.379	0.0031882	0.0031763	0.00092108	1259.8	3.6106e-05	3.364e-05	1288	488.98	3.5297e-05	3.4766e-05	594.25	224.66	218.83	86.548	3.8057e-05	94.939	-17.235	-35.352	61.916	-119.414	-3.985	3.246	-121.141	-115.105	-11.840	194.808	-117.877	-114.770	-112.148	-106.607	-125.853	-110.932	-8191	255	
3192.447	1	1	0	0	0.12432	0.21915	0.24753	0.27956	0.15118	0.10117	0.16859	0.32073	0.24151	0.10699	0.16352	0.2256	0.072587	0.48519	0.07359	0.090551	-2.2583	-3.3896	-2.7458	-3.1688	-3.2521	-2.55	-3.5	-3.0604	-2.7208	-3.3479	-2.8438	-3.1375	-3.5479	-2.7458	-3.4313	-3.2104	94.805	-100.887	136.838	191.866	-11.967	-101.537	160.316	173.721	-91.068	-90.925	96.842	-130.775	201.533	172.804	188.964	186.561	0.00093545	0.0027104	0.00078888	1216	1.1064e-05	5.3101e-06	1308.3	506.98	2.2132e-05	2.1126e-05	562.29	228.74	222.35	91.351	1.7195e-05	95.062	0.0031006	0.0031848	0.00098264	1248.5	3.5696e-05	3.3974e-05	1295.7	488.79	3.4426e-05	3.5374e-05	605.33	224.26	218.16	86.899	3.952e-05	94.725	-42.111	23.934	139.508	-119.541	10.280	-0.357	-121.180	-115.087	-29.299	-51.273	-117.717	-114.598	-112.309	-106.525	40.887	-111.087	-8191	255	
3192.543	1	1	0	0	0.076594	0.18699	0.013886	0.14477	0.089722	0.21479	0.26951	0.27119	0.1278	0.11202	0.21895	0.0031198	0.27157	0.15231	0.15437	0.19833	-2.2125	-3.3187	-2.8229	-3.0563	-3.3187	-2.6854	-3.3438	-3.2229	-2.7313	-3.5354	-3.0646	-3.1146	-3.3021	-2.8375	-3.2167	-3.3104	-48.316	-27.715	-48.813	153.140	121.229	137.384	218.458	103.420	31.811	129.170	118.866	148.457	196.168	167.235	150.974	182.155	0.00058818	0.00019472	0.00063426	1213.3	5.754e-06	1.4338e-05	1313.5	509.12	1.0737e-05	1.4601e-05	558.31	227.51	221.49	90.801	2.5661e-05	93.88	0.0030556	0.0033022	0.0010203	1239.3	3.4954e-05	3.6011e-05	1299.2	487.11	3.35e-05	3.6672e-05	602.37	221.5	216.59	87.268	3.8777e-05	93.252	-36.538	101.252	50.688	-119.134	93.150	82.074	-121.169	-114.947	22.675	173.679	-117.612	-114.695	-112.181	-106.663	4.155	-110.986	-8191	255	
3192.639	1	1	0	0	0.15582	0.18884	0.078278	0.18827	0.087169	0.17587	0.25197	0.18204	0.2029	0.11206	0.28574	0.28136	0.24564	0.37489	0.076653	0.14547	-2.3729	-3.3354	-2.8896	-2.9125	-3.4083	-2.7313	-3.5333	-3.5354	-2.5167	-3.3479	-3.0125	-2.7833	-3.5187	-2.9125	-3.0312	-3.375	36.214	-109.018	156.634	176.287	103.405	224.222	214.899	-131.709	214.036	-91.137	115.382	207.684	210.018	203.934	-37.314	91.121	0.00086565	0.0030991	0.00072117	1198.8	6.2246e-06	1.2478e-05	1296	502.97	2.376e-05	1.1588e-05	556.45	226.91	222.97	90.815	7.9188e-06	94.635	0.0029791	0.0034834	0.00099715	1223.4	3.4533e-05	3.8106e-05	1279.4	482.43	3.3124e-05	3.8704e-05	593.04	219.34	216.35	87.979	3.7001e-05	93.238	-30.382	169.524	188.357	-119.183	40.504	-87.551	-120.954	-115.079	74.169	-127.877	-117.910	-114.544	-112.291	-106.608	78.210	-110.949	-8191	255	
3192.735	1	1	0	0	0.15191	0.053433	0.04305	0.31606	0.34939	0.32001	0.25185	0.31034	0.21523	0.2145	0.21593	0.22397	0.037692	0.21912	0.092333	0.24947	-2.0729	-3.3208	-2.8063	-2.6542	-3.3583	-2.8083	-3.0563	-3.3542	-2.4688	-3.3375	-3.3104	-2.8104	-3.5917	-3.0438	-3.0417	-3.3146	-92.288	172.179	139.567	178.857	-108.532	70.867	-93.472	185.544	41.187	20.983	-99.314	186.649	47.628	-127.333	-94.730	131.964	0.00091762	0.0010663	0.00092025	1223.9	2.3061e-05	3.0498e-06	1314.5	509.57	1.9193e-05	9.5746e-06	566.08	230.07	223.47	92.321	2.2126e-05	95.822	0.0029942	0.0035665	0.0009502	1223.3	3.4574e-05	3.888e-05	1280	484.57	3.4223e-05	3.8795e-05	594.81	221.22	218.64	89.039	3.5399e-05	94.023	-60.393	154.595	-78.884	-119.318	147.502	50.495	-121.006	-115.003	205.308	-109.851	-117.261	-114.600	-111.998	-106.627	61.212	-110.928	-8191	255	
3192.831	1	1	0	0	0.082324	0.16434	0.15611	0.10091	0.18127	0.10908	0.21907	0.1707	0.20406	0.078521	0.071649	0.2976	0.12984	0.2166	0.34135	0.2078	-2.1688	-3.2396	-3.0646	-2.7146	-3.2521	-2.6875	-3.0687	-3.6333	-2.5646	-3.1562	-3.3958	-2.7146	-3.3646	-3.0958	-2.9625	-3.5875	80.492	62.441	177.072	223.583	-56.974	-68.530	170.701	195.394	138.815	-35.280	-87.687	176.715	124.044	205.204	-87.466	-123.346	0.0009318	0.0022545	0.00099355	1210.7	3.4102e-05	1.2225e-05	1316.9	505.16	2.3298e-05	2.1321e-05	556.15	227.73	222.3	91.851	6.685e-06	94.671	0.0031373	0.0035812	0.00091823	1219.9	3.6504e-05	3.9427e-05	1274.3	480.02	3.6373e-05	3.8521e-05	588.67	219.61	219.98	88.412	3.4499e-05	92.805	-31.377	-77.044	-47.438	-119.354	-110.886	-2.674	-121.244	-114.736	-74.789	-70.686	-117.625	-114.525	-112.058	-106.300	193.921	-110.975	-8191	255	
3192.926	1	1	0	0	0.14949	0.28094	0.20582	0.22126	0.28489	0.091199	0.20249	0.14704	0.31757	0.010165	0.072736	0.098314	0.086162	0.25981	0.1406	0.15769	-2.3187	-3.0646	-3.2	-2.6729	-3.4896	-3.0479	-2.6396	-3.6312	-2.7792	-3.0271	-3.4292	-2.7417	-3.3833	-3.2188	-2.7021	-3.5042	-122.136	-110.975	-29.210	206.204	-23.210	149.752	185.710	186.745	28.910	45.930	122.892	204.282	-112.917	220.769	88.902	157.554	0.0017799	0.00058979	0.00036613	1201.9	2.0156e-05	1.3395e-05	1304.2	503.57	1.7495e-05	1.5631e-05	548.8	227.14	221.91	91.683	8.0497e-06	94.969	0.0033438	0.0034418	0.00089707	1214.3	3.8146e-05	3.7885e-05	1261.9	480.23	3.8067e-05	3.6791e-05	582.51	220.2	221.58	88.086	3.3964e-05	94.152	-89.533	-7.324	-124.542	-119.399	210.159	-3.636	-121.248	-114.940	-44.452	-46.692	-117.590	-114.620	-112.077	-106.761	-120.415	-110.490	-8191	255	
3193.023	1	1	0	0	0.088386	0.16177	0.25176	0.079039	0.15103	0.20365	0.33432	0.37693	0.13255	0.10206	0.19361	0.2498	0.08098	0.32777	0.14732	0.17877	-2.3187	-2.8958	-3.4146	-2.7313	-3.2417	-3.0583	-2.7833	-3.6792	-2.6854	-2.9729	-3.5208	-2.6583	-3.3167	-3.2792	-2.6021	-3.5146	-82.640	144.717	95.274	154.625	22.785	-34.416	204.242	157.948	73.394	132.479	-65.113	121.675	124.696	199.981	56.208	178.659	0.0013803	0.0018586	0.00069896	1203.1	2.1661e-05	9.2267e-06	1306.6	504.02	1.0379e-05	7.6466e-06	563.95	231.09	223.79	92.282	1.5428e-05	96.124	0.0035017	0.0033587	0.00089759	1228	3.9394e-05	3.7305e-05	1267.8	484.81	3.9414e-05	3.6356e-05	588.81	224.7	222.84	88.41	3.3649e-05	95.89	-54.861	19.487	29.406	-119.415	-65.511	220.322	-120.849	-114.618	-16.974	52.828	-117.564	-114.841	-111.871	-106.359	93.272	-110.603	-8191	255	
3193.142	1	1	0	0	0.088685	0.095945	0.11458	0.30002	0.13554	0.20091	0.27418	0.34266	0.29642	0.14058	0.32343	0.11573	0.16658	0.40154	0.16496	0.3116	-2.5729	-2.9333	-3.3417	-2.7083	-3.1583	-3.325	-2.8063	-3.7	-2.9688	-2.7	-3.5021	-2.7687	-3.1917	-3.35	-2.3812	-3.5396	19.979	-116.185	-92.312	167.889	-105.869	-75.497	180.013	225.183	34.526	19.984	212.771	-120.246	-118.144	143.719	-45.377	172.220	0.00074931	0.0029311	0.00019339	1210.3	5.1932e-05	1.5324e-05	1329.9	508.35	7.6277e-06	2.9044e-05	568.22	231.97	225.55	92.432	1.3236e-05	97.34	0.003523	0.0033375	0.0009037	1251.2	3.9042e-05	3.7336e-05	1278.6	492.67	3.9091e-05	3.5817e-05	594.67	228.87	223.31	88.876	3.4091e-05	97.62	-26.551	-24.440	-93.565	-119.413	-12.265	-74.499	-121.009	-114.825	-27.329	57.007	-118.201	-114.937	-112.004	-106.765	59.987	-110.881	-8191	255	
3193.238	1	1	0	0	0.21751	0.021511	0.17453	0.16764	0.07698	0.16937	0.19876	0.020922	0.12668	0.060225	0.12264	0.18382	0.19809	0.083489	0.081712	0.13468	-2.6979	-2.725	-3.3563	-2.6854	-3.1208	-3.3146	-2.8104	-3.5812	-2.9625	-2.7313	-3.325	-2.8875	-3.0687	-3.6104	-2.5812	-3.35	145.072	113.697	25.983	149.388	91.551	112.319	131.599	-120.224	226.739	179.897	180.372	113.019	199.916	222.487	180.283	146.611	0.00097754	0.00129	0.00080337	1224.2	3.3857e-05	1.4467e-05	1326.1	511.62	1.0002e-05	2.2574e-05	569.65	233.27	225.29	93.015	1.8869e-05	98.06	0.0034154	0.003192	0.0009023	1265.8	3.7197e-05	3.5973e-05	1286.7	496.8	3.7408e-05	3.4628e-05	601.25	230.86	222.43	88.852	3.5834e-05	98.233	-61.447	46.205	192.407	-119.418	65.874	0.572	-121.249	-114.750	107.867	5.626	-117.742	-114.529	-112.244	-106.418	-85.161	-110.904	-8191	255	
3193.335	1	1	0	0	0.152	0.12117	0.26761	0.1789	0.1964	0.20918	0.2073	0.055284	0.17036	0.11302	0.21797	0.15023	0.29014	0.23048	0.11247	0.31146	-2.6354	-2.5	-3.2771	-2.9479	-2.9917	-3.4062	-2.6188	-3.4688	-3.1479	-2.8354	-3.4938	-3.075	-2.8125	-3.6583	-2.6479	-3.1875	67.524	174.977	-59.213	182.590	192.403	-21.244	131.299	178.057	-34.897	-22.823	-56.647	156.728	-114.984	189.086	-48.342	160.038	0.00044581	0.0016788	0.0011888	1222	9.6437e-06	1.3334e-05	1337.1	513.78	2.5954e-05	3.308e-05	575.05	236.24	229.18	93.462	1.9475e-05	99.095	0.0033159	0.0031925	0.00095894	1277.1	3.6318e-05	3.582e-05	1308.3	497.23	3.689e-05	3.4443e-05	613.17	232.72	222.85	88.986	3.8252e-05	98.732	-38.436	-56.652	113.647	-119.519	-93.975	-89.874	-121.664	-114.759	48.671	50.737	-117.954	-114.681	-111.801	-106.253	-112.643	-110.556	-8191	255	
3193.431	1	1	0	0	0.22232	0.12681	0.04227	0.14225	0.32486	0.0513	0.33532	0.34021	0.04687	0.086674	0.15844	0.18998	0.28084	0.22485	0.14532	0.17655	-3.0021	-2.5833	-3.4667	-3.0542	-2.7438	-3.3667	-2.8083	-3.3812	-3.3396	-2.6042	-3.4979	-3.3208	-2.6771	-3.6167	-2.7104	-3.1896	19.591	85.329	217.196	-33.506	-68.443	195.710	137.867	141.060	175.522	-10.180	-53.433	218.503	-124.701	205.752	-40.086	144.141	0.00053325	0.0015165	0.00052773	1223.6	8.1344e-06	8.2514e-06	1359.5	518.35	1.0083e-05	1.9828e-05	582.83	238.36	229.1	93.816	1.7355e-05	99.372	0.0032711	0.0031811	0.001008	1273.4	3.5654e-05	3.584e-05	1332.5	500.27	3.6512e-05	3.5156e-05	626.44	233.24	222.91	89.787	4.0028e-05	98.249	-2.699	47.374	47.366	-119.751	-32.462	14.180	-121.621	-114.552	199.454	-111.325	-117.496	-114.518	-112.014	-106.420	150.858	-110.624	-8191	255	
3193.527	1	1	0	0	0.13044	0.24587	0.12378	0.22013	0.13131	0.15571	0.22562	0.21889	0.37443	0.20072	0.085374	0.40742	0.31402	0.18272	0.066077	0.27234	-2.9792	-2.5979	-3.3917	-3.2833	-2.5646	-3.5271	-2.9979	-3.1	-3.2271	-2.5042	-3.425	-3.2792	-2.8937	-3.5792	-2.875	-2.8563	17.404	11.999	217.553	-66.883	82.400	128.256	123.174	166.903	89.491	68.294	221.592	219.609	184.227	165.157	176.530	192.556	0.00061953	0.0012728	0.0016343	1236	2.1316e-05	1.4196e-05	1345.2	517.07	2.9178e-05	1.4446e-05	577.63	235.75	226.62	93.509	2.6926e-05	98.304	0.0032356	0.0032813	0.0010313	1268.9	3.484e-05	3.7484e-05	1334.5	496.01	3.5512e-05	3.7155e-05	621.89	230.38	220.74	90.084	4.0164e-05	97.124	-64.598	75.844	4.733	-119.316	9.323	-124.680	-121.447	-114.466	26.913	197.252	-117.343	-114.234	-111.692	-106.331	-8.368	-110.785	-8191	255	
3193.623	1	1	0	0	0.094051	0.028737	0.12581	0.27291	0.19999	0.084429	0.2981	0.18573	0.082897	0.057951	0.10257	0.052883	0.32466	0.29663	0.22902	0.23195	-2.9625	-2.6521	-3.2021	-3.3729	-2.6188	-3.4417	-3.2167	-2.9417	-3.5375	-2.65	-3.1875	-3.4583	-2.8583	-3.525	-2.9688	-2.8833	159.932	41.070	-79.015	144.209	-22.848	-2.739	-116.269	218.449	208.351	189.509	-83.714	119.087	178.818	187.211	-24.324	-48.175	0.00072423	0.0007848	0.00052657	1237.6	2.3946e-05	1.648e-05	1354.5	517.79	9.3474e-06	1.7203e-05	583.12	237.66	228.25	94.756	2.0829e-05	98.703	0.0031712	0.0035156	0.0010156	1268.3	3.471e-05	3.9297e-05	1331.4	494.1	3.579e-05	3.9239e-05	621	231.2	221.93	91.349	3.8947e-05	97.285	-33.081	156.408	-112.243	-119.414	-17.535	-96.944	-121.330	-114.613	-98.606	148.909	-117.278	-114.738	-112.183	-106.761	-111.832	-110.548	-8191	255	
3193.744	1	1	0	0	0.37583	0.10105	0.28782	0.27093	0.15991	0.074294	0.078959	0.14862	0.15577	0.10858	0.14616	0.28421	0.23841	0.11689	0.067404	0.32677	-3.1729	-2.7354	-3.0542	-3.4146	-2.5583	-3.3292	-3.1958	-2.7396	-3.3667	-2.8187	-3.1458	-3.4688	-2.8271	-3.4813	-3.1208	-2.9125	218.252	-73.963	109.431	150.836	117.634	-103.833	132.882	137.579	135.788	160.426	-101.095	-82.299	180.319	-123.636	-109.851	177.474	0.001003	0.0033367	0.0011837	1235.3	1.6785e-05	1.307e-05	1350.5	520.67	1.3193e-05	1.2678e-05	581.81	240.06	228.54	94.275	3.094e-05	99.677	0.0031966	0.003715	0.00098074	1261.5	3.5785e-05	4.1111e-05	1331.8	496.19	3.6846e-05	4.1301e-05	617.01	232.28	224.9	91.655	3.8169e-05	97.439	-75.551	155.633	-40.272	-119.323	186.391	-1.057	-121.360	-114.786	-43.670	147.849	-117.222	-114.646	-112.236	-106.451	9.638	-110.671	-8191	255	
3193.838	1	1	0	0	0.060954	0.14113	0.033497	0.21038	0.16012	0.15504	0.11338	0.3048	0.17201	0.10854	0.16071	0.096606	0.36396	0.16315	0.19145	0.06259	-3.1562	-2.6271	-2.8375	-3.4625	-2.5646	-3.0812	-3.4021	-2.85	-3.3521	-2.8917	-3.1542	-3.5646	-2.7396	-3.3458	-3.1708	-2.7292	146.016	147.049	197.100	-13.805	165.333	14.862	131.169	106.147	181.632	-21.893	90.302	109.888	201.333	187.592	-51.859	-56.829	0.0015487	0.0011008	0.00088012	1228.2	3.8673e-05	2.125e-05	1347.8	517.43	1.6555e-05	2.2981e-05	576.27	236.52	226.76	93.86	1.9494e-05	98.698	0.0033738	0.0037966	0.00095499	1257.9	3.7883e-05	4.108e-05	1322	493.56	3.8715e-05	4.1036e-05	607	229.55	225.57	90.746	3.7157e-05	96.591	-55.923	-55.095	-11.984	-119.313	-102.161	1.468	-121.273	-114.554	191.627	23.360	-117.454	-114.753	-112.205	-106.367	55.510	-110.564	-8191	255	
3193.934	1	1	0	0	0.081937	0.16894	0.21629	0.10075	0.15647	0.19276	0.24001	0.14963	0.04629	0.088264	0.29394	0.1737	0.099509	0.22974	0.22891	0.39074	-3.0292	-2.7729	-2.6875	-3.5646	-2.6688	-3.1854	-3.55	-2.7042	-3.2604	-3.1729	-2.7958	-3.5667	-2.9729	-2.9938	-3.3937	-2.5167	136.915	105.603	-35.607	143.280	-92.980	104.522	127.967	221.380	176.099	-46.061	177.954	-116.288	201.900	190.761	-62.746	184.378	0.0006508	0.0062598	0.00084885	1232.5	7.4056e-06	2.0167e-05	1351.1	519.18	3.9706e-06	2.1826e-05	584.73	236.65	229.34	94.225	2.5085e-05	98.705	0.0035329	0.0037045	0.00093377	1257.3	3.9841e-05	3.9804e-05	1316.7	494.35	4.049e-05	4.0069e-05	607.06	231.3	228.15	90.848	3.7358e-05	97.497	-54.933	-52.130	-119.678	-119.318	107.767	94.614	-121.126	-114.904	191.974	116.342	-117.354	-114.301	-112.163	-106.148	210.097	-110.484	-8191	255	
3194.030	1	1	0	0	0.17879	0.21659	0.17621	0.2294	0.24259	0.26717	0.18213	0.37453	0.27219	0.20406	0.1932	0.099347	0.14773	0.13781	0.065819	0.17574	-2.9688	-2.8854	-2.6312	-3.4958	-2.8667	-2.9417	-3.3229	-2.5979	-3.375	-3.1063	-2.6917	-3.525	-2.8896	-3.0125	-3.2146	-2.6917	209.158	-111.147	140.028	204.421	209.515	111.366	121.384	209.949	163.101	210.029	-128.616	197.372	209.919	139.929	28.391	169.645	0.00070893	0.0047196	0.0010416	1236.1	1.2643e-05	9.0572e-06	1362.3	517.53	9.2467e-06	3.078e-05	582.19	238.15	228.93	93.667	1.3303e-05	98.236	0.0036971	0.0036423	0.00092752	1270.2	4.1437e-05	3.8608e-05	1321.1	497.44	4.1382e-05	3.8937e-05	607.21	232.9	228.6	89.981	3.6332e-05	98.124	-66.705	-91.868	-86.180	-119.211	16.928	3.831	-121.005	-114.588	119.561	-8.082	-117.296	-114.534	-111.734	-106.187	143.801	-110.440	-8191	255	
3194.104	1	1	0	0	0.076211	0.26387	0.049429	0.1824	0.11933	0.13844	0.24209	0.22839	0.083499	0.34568	0.11378	0.07041	0.174	0.32974	0.1295	0.11206	-2.7854	-3.0583	-2.6708	-3.4167	-2.9104	-2.6958	-3.4938	-2.8229	-3.2167	-3.2479	-2.7083	-3.5479	-3.1063	-2.7833	-3.3979	-2.8667	-41.138	-19.930	38.057	213.665	51.157	60.800	165.856	179.156	-92.906	82.758	158.167	-38.766	-114.149	-123.651	217.653	44.871	0.00060752	0.0037467	0.00035322	1230.8	2.8275e-05	3.4096e-05	1345.7	514.94	1.8221e-05	2.7477e-05	568.53	234.01	227.47	93.434	2.0007e-05	97.528	0.003675	0.0035608	0.00091229	1279.5	4.1178e-05	3.7553e-05	1306.2	498.23	4.0194e-05	3.814e-05	597.67	231.47	226.18	89.259	3.62e-05	97.906	-33.003	-31.217	5.256	-119.028	131.515	-1.767	-121.231	-114.727	25.936	-14.911	-117.193	-114.570	-111.988	-106.362	-78.910	-110.378	-8191	255	
3194.223	1	1	0	0	0.032006	0.06707	0.16792	0.43848	0.19817	0.20198	0.19578	0.084925	0.067906	0.14585	0.019757	0.30675	0.3458	0.28284	0.062676	0.24018	-2.675	-3.2854	-2.5625	-3.3875	-3.2125	-2.7542	-3.5812	-3.1521	-2.9271	-3.4896	-2.7812	-3.3937	-3.1771	-2.85	-3.3917	-3.0604	-112.710	-69.078	211.178	169.212	47.448	124.690	116.821	-124.734	-64.109	206.377	-60.203	187.047	207.083	199.367	63.480	153.670	0.0022131	0.00056673	0.00075186	1231.8	8.1576e-06	3.6569e-05	1334.4	512.8	1.8801e-05	5.9668e-06	576.27	233.48	226.48	93.026	4.388e-05	96.448	0.00348	0.0034275	0.00091186	1285.6	3.9619e-05	3.6446e-05	1303.8	499.13	3.7999e-05	3.6913e-05	601.66	232.27	224.17	88.519	3.7408e-05	97.919	-32.351	58.337	-103.544	-119.142	130.223	41.948	-121.102	-114.638	87.760	18.886	-117.117	-114.458	-112.012	-106.179	-109.946	-110.559	-8191	255	
3194.319	1	1	0	0	0.079978	0.11489	0.047332	0.16988	0.22877	0.13488	0.10708	0.33053	0.1972	0.045125	0.17934	0.20615	0.26469	0.27931	0.097237	0.21873	-2.6083	-3.4188	-2.5	-3.2938	-3.0687	-2.5687	-3.6521	-3.0896	-2.8917	-3.3937	-2.7062	-3.4083	-3.3083	-2.7771	-3.3438	-3.1	9.238	-68.995	6.816	221.516	148.358	179.613	13.345	183.744	23.377	214.811	173.430	187.399	191.759	-126.911	-119.689	197.707	0.00050363	0.0024482	0.00035664	1234.8	1.6786e-05	4.2667e-05	1336.3	515.41	3.3679e-06	1.1323e-05	573.48	234.9	226.29	93.062	2.4644e-05	97.62	0.0033683	0.0033604	0.00095424	1282.2	3.8035e-05	3.5454e-05	1314.1	501.16	3.6773e-05	3.6095e-05	610.09	231.55	223.23	88.542	3.9366e-05	98.267	-47.132	-50.294	-104.372	-118.986	64.574	8.353	-120.800	-114.922	67.656	-20.282	-117.083	-114.241	-112.192	-106.206	216.243	-110.423	-8191	255	
3194.415	1	1	0	0	0.113	0.18218	0.21519	0.18611	0.071141	0.012368	0.32884	0.39894	0.028223	0.11765	0.10804	0.3457	0.098793	0.2795	0.11592	0.23228	-2.475	-3.3271	-2.6312	-3.2917	-3.3104	-2.475	-3.5896	-3.2083	-2.8396	-3.3917	-2.6646	-3.2208	-3.5146	-2.6729	-3.1188	-3.1729	-131.342	77.498	211.913	225.013	222.331	-57.361	179.401	117.847	69.110	220.910	165.413	199.536	158.680	115.299	224.934	138.916	0.0010826	0.0024201	0.00022863	1222	2.0789e-05	1.5657e-05	1331.9	510.38	7.2777e-06	1.0481e-05	560.79	230.67	224.22	91.679	1.6552e-05	95.142	0.0032665	0.0033287	0.0010123	1273.6	3.7402e-05	3.55e-05	1316.4	493.54	3.5777e-05	3.6679e-05	607.64	225.95	220.15	87.669	4.0479e-05	95.548	-53.760	211.663	-127.655	-119.377	60.231	146.541	-121.211	-114.881	-116.875	104.623	-117.367	-114.167	-112.262	-106.423	-113.403	-110.555	-8191	255	
3194.536	1	1	0	0	0.015873	0.20631	0.16776	0.30215	0.15299	0.1107	0.26181	0.17161	0.077633	0.11593	0.082755	0.14306	0.15244	0.18783	0.10038	0.18962	-2.5021	-3.525	-2.8438	-3.1188	-3.4417	-2.6646	-3.45	-3.2562	-2.6083	-3.5125	-3.0312	-3.0146	-3.5083	-2.9938	-3.25	-3.325	111.530	141.639	-22.402	147.155	187.347	18.132	208.598	156.820	21.118	40.495	186.318	211.305	117.626	110.928	160.725	132.785	0.001389	0.00072491	0.0010953	1216.4	2.9874e-05	8.0409e-06	1307.2	506.77	2.9312e-05	9.5493e-06	560.1	228.66	223.92	91.237	5.317e-06	95.312	0.0032037	0.0034083	0.0010504	1252.1	3.6649e-05	3.6869e-05	1306.6	489.26	3.5116e-05	3.7704e-05	609.17	223.67	218.39	87.838	4.0227e-05	94.87	-31.124	113.123	-43.402	-119.428	69.042	197.736	-120.951	-115.027	121.153	167.712	-117.860	-114.797	-112.133	-106.670	-10.383	-111.288	-8191	255	
3194.632	1	1	0	0	0.22411	0.15509	0.078742	0.12764	0.18404	0.14372	0.13952	0.30467	0.19815	0.32552	0.32606	0.29183	0.301	0.45405	0.18528	0.12448	-2.3458	-3.45	-2.8688	-3.0208	-3.4042	-2.7292	-3.4021	-3.4167	-2.7	-3.5625	-3.1292	-2.9188	-3.5125	-2.9188	-3.1208	-3.3	220.902	-122.799	95.412	142.483	-77.560	26.913	163.049	148.424	-0.019	180.772	214.491	183.355	118.585	196.548	208.999	156.783	0.00048584	0.0011298	0.00049134	1215.6	1.5485e-05	1.3611e-05	1311.2	507.53	6.3726e-06	4.2259e-06	558.13	230.01	222.7	91.52	1.3278e-05	95.671	0.0030882	0.0035573	0.0010316	1245	3.5583e-05	3.8863e-05	1300.8	488.37	3.4383e-05	3.973e-05	607.03	223.52	218.26	88.792	3.8743e-05	94.709	-14.209	184.418	-53.842	-119.487	164.055	146.823	-121.075	-115.500	-4.471	-97.874	-117.801	-114.844	-112.746	-106.900	33.240	-111.244	-8191	255	
3194.703	1	1	0	0	0.16922	0.22284	0.16743	0.080339	0.099826	0.15896	0.093992	0.31785	0.16005	0.21479	0.2273	0.10531	0.11072	0.39444	0.24156	0.032758	-2.3479	-3.4021	-2.8479	-2.8083	-3.4583	-2.6542	-3.0833	-3.4938	-2.7438	-3.3958	-3.1562	-3.0708	-3.575	-2.975	-3.0708	-3.4562	92.560	159.536	14.763	188.612	-35.917	-122.474	100.977	137.117	130.714	-21.053	192.615	206.939	191.565	181.522	37.865	44.153	0.00070319	0.00095351	0.00077047	1226.4	1.0169e-05	2.1014e-05	1314.5	508.48	1.6134e-05	4.18e-05	560.05	230.88	224.51	90.733	1.0283e-05	95.14	0.0030772	0.0036595	0.00098677	1238.7	3.5666e-05	3.9996e-05	1291.1	486.32	3.4733e-05	4.0102e-05	599.54	222.2	219.51	88.544	3.6583e-05	93.854	-30.406	78.598	-82.938	-119.978	76.535	36.822	-121.836	-115.512	30.569	-26.880	-118.412	-115.022	-112.534	-106.891	29.815	-111.444	-8191	255	
3194.824	1	1	0	0	0.15046	0.1556	0.088288	0.30226	0.087563	0.076005	0.087467	0.35637	0.10978	0.083319	0.064957	0.32724	0.36275	0.32897	0.159	0.13015	-2.1021	-3.2125	-3.0917	-2.6771	-3.4479	-2.8917	-3.075	-3.6667	-2.6396	-3.15	-3.3771	-2.9229	-3.5271	-3.1229	-2.8542	-3.5458	74.108	103.980	64.409	183.408	181.235	71.970	16.595	190.582	-106.290	34.428	203.188	138.610	170.502	224.877	-95.553	168.398	0.0011358	0.0022524	0.00054977	1208.9	1.993e-05	6.2845e-06	1310.6	507.78	2.4017e-05	2.0127e-05	559	229.19	221.92	91.317	9.0035e-06	95.651	0.0032206	0.0036855	0.00095289	1226.1	3.7169e-05	4.0527e-05	1283.2	485.25	3.7058e-05	3.9918e-05	597.92	221.19	220.64	88.756	3.6005e-05	94.039	-68.936	-32.533	-116.281	-119.808	-103.806	-111.370	-121.616	-115.494	-75.685	61.995	-118.097	-114.880	-112.970	-107.192	127.789	-111.570	-8191	255	
3194.918	1	1	0	0	0.089579	0.23636	0.20063	0.31687	0.031218	0.13592	0.17833	0.38771	0.17483	0.13271	0.15336	0.28054	0.21581	0.099039	0.26366	0.19639	-2.1458	-3.0271	-3.225	-2.8438	-3.3563	-2.8604	-2.9896	-3.6	-2.7229	-3.1021	-3.3542	-2.6875	-3.5	-3.2354	-2.7167	-3.6125	54.231	49.264	-64.416	-124.850	-51.682	-47.170	198.752	164.506	9.157	-20.720	-110.672	-91.998	128.683	150.051	169.339	157.117	0.00023666	0.0032831	0.00030575	1206	2.3609e-05	1.5384e-05	1321	507.99	7.9769e-06	3.1321e-05	565.94	231.92	224.12	92.768	1.984e-05	97.331	0.0034286	0.003588	0.00093121	1228.2	3.9004e-05	3.9504e-05	1283.2	484.56	3.9161e-05	3.8609e-05	597.14	223.42	223.62	89.111	3.5214e-05	95.999	201.935	-3.498	11.049	-120.041	213.026	37.769	-121.633	-114.995	-42.873	26.425	-117.978	-115.395	-112.647	-106.857	-5.911	-111.374	-8191	255	
3195.015	1	1	0	0	0.12326	0.079885	0.25326	0.22089	0.091473	0.073601	0.071102	0.24542	0.019323	0.16683	0.18549	0.24285	0.30935	0.22128	0.1172	0.15322	-2.2833	-3.0083	-3.2438	-2.7021	-3.4313	-3.0625	-2.9542	-3.5792	-2.7375	-2.9771	-3.4771	-2.8833	-3.4292	-3.4375	-2.5438	-3.5667	95.676	137.183	187.118	213.725	-17.259	175.241	111.956	141.259	86.752	154.447	145.496	154.721	215.585	196.699	145.109	190.151	0.0013452	0.0014515	0.00042569	1209.9	4.0577e-05	3.3122e-05	1328.1	503.75	2.8609e-05	1.9996e-05	558.65	229.26	222.87	92.25	2.5818e-05	96.713	0.0035703	0.0034582	0.00092088	1234.6	4.0183e-05	3.8206e-05	1280.2	485.55	3.9777e-05	3.7101e-05	589.85	224.52	223.22	88.373	3.4265e-05	96.039	-40.281	106.417	147.008	-119.754	166.965	45.270	-121.244	-115.534	105.710	79.319	-118.027	-115.284	-112.875	-106.922	-67.021	-111.420	-8191	255	
3195.135	1	1	0	0	0.29127	0.23334	0.17362	0.068417	0.37512	0.16859	0.14685	0.13972	0.32556	0.083865	0.15664	0.25432	0.23454	0.078042	0.21849	0.44375	-2.425	-2.8521	-3.475	-2.7958	-3.1021	-3.1875	-2.8229	-3.5542	-2.9125	-2.8979	-3.55	-2.8271	-3.3792	-3.5167	-2.7083	-3.5271	8.225	18.141	27.462	40.464	215.686	174.621	130.976	143.268	-74.524	-24.325	-42.109	139.316	132.405	196.059	96.973	138.099	0.0010586	0.0033584	0.00073511	1210	6.126e-06	9.5947e-06	1308.8	502.21	5.0837e-06	4.5621e-06	558.97	227.23	225.1	92.177	1.7839e-05	96.447	0.0035561	0.0033607	0.0009045	1250.2	3.9495e-05	3.7233e-05	1268	487.27	3.9147e-05	3.6057e-05	588.31	225.92	222.02	88.415	3.4403e-05	97.296	-52.227	-35.969	-114.506	-119.935	73.256	104.144	-121.691	-115.364	93.723	-29.473	-118.455	-115.187	-112.338	-106.976	59.127	-110.991	-8191	255	
3195.231	1	1	0	0	0.12511	0.023111	0.11845	0.14053	0.046362	0.14707	0.15402	0.30265	0.21345	0.157	0.19272	0.16329	0.28293	0.23441	0.16933	0.31147	-2.4917	-2.7396	-3.4562	-2.8771	-3.0792	-3.5	-2.7708	-3.6208	-2.9417	-2.6042	-3.6979	-3.0042	-3.1146	-3.5271	-2.5479	-3.3458	2.247	44.449	126.887	-28.602	6.717	86.655	81.464	154.917	206.324	32.440	172.994	152.183	-116.564	224.159	186.037	181.714	0.0010594	0.0022454	0.00059604	1204.1	3.7472e-05	1.7814e-05	1311.7	506.17	1.2777e-05	2.3212e-05	561.53	230.53	224.2	93.194	1.9473e-05	98.042	0.0034621	0.0032843	0.00090971	1261.9	3.8006e-05	3.6509e-05	1274.1	492.16	3.8094e-05	3.4861e-05	594.23	228.6	221.21	88.76	3.5273e-05	98.491	-40.381	20.238	-85.134	-120.371	6.841	67.219	-121.719	-115.378	197.534	-0.851	-117.871	-115.274	-112.552	-106.958	-20.034	-111.246	-8191	255	
3195.303	1	1	0	0	0.40252	0.23821	0.13161	0.15203	0.023986	0.047612	0.18988	0.39336	0.16989	0.085238	0.18357	0.34414	0.29435	0.14672	0.22553	0.14129	-2.7062	-2.95	-3.4208	-2.9792	-2.8896	-3.5062	-2.8083	-3.3875	-3.2604	-2.625	-3.2292	-2.9708	-2.8979	-3.7021	-2.5708	-3.3354	-45.814	37.082	142.993	177.279	80.803	-130.367	226.546	175.093	-19.225	-64.380	-18.316	202.458	155.986	207.312	-127.880	196.837	0.00043503	0.003571	0.0001302	1213.3	2.2364e-05	1.6102e-05	1330.6	506.05	6.2556e-06	2.4694e-05	564.02	232.34	223.47	92.638	3.0373e-05	97.922	0.003343	0.0031919	0.00094595	1268.3	3.6711e-05	3.586e-05	1298	492.32	3.6956e-05	3.3949e-05	602.94	228.92	219.27	88.412	3.7386e-05	97.673	-34.740	-126.229	7.126	-119.665	16.466	188.279	-121.983	-115.411	25.205	78.871	-118.138	-114.831	-112.586	-106.866	186.289	-110.927	-8191	255	
3195.424	1	1	0	0	0.17789	0.15834	0.11252	0.096577	0.047011	0.15533	0.17235	0.25777	0.20546	0.072243	0.29179	0.16406	0.052851	0.2835	0.049997	0.10128	-2.7771	-2.7708	-3.5062	-2.9333	-2.7875	-3.5604	-2.9458	-3.25	-3.4229	-2.5687	-3.4958	-3.1354	-2.8104	-3.6229	-2.8354	-3.3729	-7.508	-82.284	211.154	-66.763	130.296	95.195	158.795	184.563	-11.798	109.219	145.814	-127.468	-67.353	-118.443	-116.114	200.997	0.00062888	0.0018999	0.00045167	1215.8	1.2463e-05	1.6073e-05	1322.3	504.4	8.1991e-06	9.0802e-06	565.46	232.22	224.75	93.033	1.5918e-05	98.417	0.0032616	0.0031325	0.00097761	1260.1	3.5123e-05	3.5126e-05	1300.8	487.93	3.5849e-05	3.4101e-05	609.75	227.03	218.63	88.807	3.9203e-05	97.425	-56.105	-48.407	159.921	-119.615	70.079	145.864	-121.786	-115.251	82.288	212.963	-118.472	-114.872	-112.441	-106.778	148.569	-111.078	-8191	255	
3195.520	1	1	0	0	0.019369	0.27175	0.176	0.40445	0.12403	0.21555	0.32346	0.099156	0.10289	0.18207	0.15979	0.046437	0.33913	0.13051	0.066315	0.31039	-3.0312	-2.5563	-3.2083	-3.2438	-2.5917	-3.3521	-3.0125	-3.2687	-3.4104	-2.5792	-3.275	-3.3583	-2.8125	-3.5438	-2.7833	-3.1542	38.769	-27.159	96.442	-125.354	90.462	40.347	172.423	189.201	25.639	-132.318	202.090	135.403	-103.860	190.426	217.344	152.520	0.00038259	0.00079248	0.00042977	1215.5	2.5593e-05	9.8415e-06	1328.9	507.68	2.5223e-05	2.3115e-05	568.3	232.98	224.78	93.07	5.7858e-06	98.9	0.0031965	0.0032066	0.0010172	1251.2	3.4371e-05	3.6446e-05	1311.2	487.38	3.5285e-05	3.5968e-05	612.32	226.98	218.02	89.525	3.9807e-05	97.093	-33.509	42.953	158.236	-120.021	116.658	-78.369	-121.652	-115.083	-102.039	24.521	-117.845	-114.744	-112.471	-106.842	-101.659	-110.861	-8191	255	
3195.616	1	1	0	0	0.21014	0.055394	0.2333	0.067392	0.11503	0.12741	0.24258	0.40587	0.12999	0.16415	0.10573	0.1941	0.28319	0.048452	0.10981	0.15419	-3.1333	-2.5896	-3.2417	-3.3	-2.55	-3.4938	-3.0979	-2.9708	-3.5083	-2.5833	-3.275	-3.3167	-2.9021	-3.4854	-3.0667	-2.7896	94.749	-99.229	-66.730	-87.429	207.387	45.969	171.857	158.242	109.520	-78.125	66.927	-115.755	-89.059	147.091	10.947	117.616	0.0010544	0.0018702	0.00050131	1220.4	9.2071e-06	2.6581e-05	1328	513.2	5.5498e-06	1.2996e-05	571.66	235.47	224.91	93.872	1.28e-05	98.95	0.0031286	0.0034038	0.00099979	1252.3	3.3965e-05	3.8423e-05	1314.6	488.67	3.4496e-05	3.8332e-05	610.74	227.62	218.64	90.145	3.8525e-05	96.713	-28.862	65.789	-83.145	-119.726	46.779	213.112	-121.588	-115.101	-130.355	-109.001	-117.638	-114.951	-112.404	-106.820	50.583	-110.665	-8191	255	
3195.712	1	1	0	0	0.18932	0.13758	0.069025	0.33502	0.10486	0.13214	0.23628	0.17253	0.10695	0.14143	0.11444	0.33034	0.167	0.25994	0.16676	0.087663	-3.1021	-2.6625	-3.0792	-3.4083	-2.6104	-3.3896	-3.3896	-2.9292	-3.5583	-2.8125	-3.125	-3.6104	-2.7104	-3.4958	-3.0958	-2.7917	97.242	-9.774	201.794	198.540	95.574	-77.576	152.955	220.850	117.475	-123.734	46.080	197.872	136.304	220.778	-49.947	170.442	0.0004102	0.00024924	0.00061133	1225.8	1.5446e-05	1.8331e-05	1329	511.37	1.8637e-05	3.0852e-05	571.28	235.19	224.65	93.774	6.7184e-06	98.157	0.0031324	0.0035827	0.00096225	1249.1	3.4168e-05	3.9347e-05	1307.7	485.68	3.5099e-05	3.9692e-05	604.06	226.29	218.88	90.552	3.7014e-05	95.978	-53.542	222.213	-95.311	-120.016	-65.172	98.166	-121.196	-115.206	-28.191	152.310	-118.225	-114.897	-112.449	-106.607	88.229	-111.133	-8191	255	
3195.807	1	1	0	0	0.31007	0.14225	0.19911	0.39988	0.068167	0.11789	0.33195	0.096332	0.13165	0.18131	0.4472	0.23037	0.14909	0.53574	0.074124	0.21132	-2.9313	-2.8042	-2.8708	-3.425	-2.5396	-3.2604	-3.2938	-2.7958	-3.4167	-2.7917	-2.9708	-3.6833	-2.675	-3.5021	-3.3917	-2.8	-98.570	195.888	23.512	200.693	-89.572	134.391	117.119	175.210	-12.511	-0.724	84.491	-126.658	-132.251	222.980	208.314	155.493	0.00087098	0.00022868	0.00078685	1225.6	2.6972e-05	2.1431e-05	1331.6	511.81	7.1158e-06	2.0627e-05	574.62	235.49	224.86	93.736	2.4675e-05	99.669	0.0032141	0.00364	0.00093531	1242	3.6266e-05	3.9917e-05	1300.9	486.26	3.6948e-05	3.992e-05	602.98	227.01	222.1	90.44	3.638e-05	96.979	-73.684	-85.813	6.303	-120.251	-115.606	-85.353	-121.883	-115.119	89.442	26.113	-118.000	-115.169	-112.716	-106.768	42.604	-111.141	-8191	255	
3195.927	1	1	0	0	0.3142	0.23839	0.24917	0.15759	0.18624	0.11901	0.13038	0.22744	0.21549	0.23813	0.038906	0.015446	0.17983	0.38907	0.029893	0.054708	-3.1354	-3.1125	-2.7229	-3.5375	-2.5292	-3.1542	-3.4208	-2.7604	-3.5812	-2.9604	-2.75	-3.7583	-2.8563	-3.1312	-3.3792	-2.7188	200.299	131.176	130.013	169.363	-106.184	-96.022	175.411	156.171	-4.670	48.331	10.422	154.775	203.978	205.970	-106.479	216.928	0.0011262	0.0020773	0.00065049	1224.6	1.7226e-05	3.5105e-05	1337.8	515.24	5.9794e-06	1.3918e-05	577.05	236.21	226.57	93.876	1.1461e-05	99.564	0.0033829	0.0035754	0.00090565	1240.6	3.8017e-05	3.8778e-05	1304.1	487.49	3.848e-05	3.8467e-05	602.02	228.38	224.83	90.091	3.5228e-05	96.981	-53.402	35.042	16.250	-119.952	-63.890	56.559	-121.925	-115.350	210.978	13.809	-117.554	-115.216	-112.655	-106.554	130.655	-110.725	-8191	255	
3195.999	1	1	0	0	0.15565	0.24106	0.20778	0.16167	0.18634	0.10817	0.1532	0.37869	0.32033	0.10038	0.21053	0.20141	0.34268	0.40662	0.17074	0.37009	-2.9271	-2.9833	-2.5667	-3.6063	-2.7521	-3.0958	-3.625	-2.8958	-3.2583	-3.2125	-2.8167	-3.6354	-3.0083	-3.1708	-3.4021	-2.9021	-105.529	103.759	74.864	178.906	92.885	-31.572	180.138	209.101	90.867	202.364	128.264	-107.977	-66.262	191.076	57.832	160.879	0.0011882	0.0041901	0.00069132	1237.3	2.1411e-05	3.5323e-05	1341.8	515.46	7.8137e-07	3.2953e-05	574.84	235.36	225.64	93.676	3.2844e-05	99.23	0.0034325	0.0034248	0.00086198	1247	3.8811e-05	3.6238e-05	1298.1	490.13	3.8567e-05	3.6526e-05	593.98	228.26	224.25	89.27	3.4398e-05	97.367	-51.208	-10.862	-16.115	-119.618	-106.116	38.417	-121.555	-115.305	-126.661	-16.831	-118.040	-114.949	-112.576	-106.451	-45.868	-110.895	-8191	255	
3196.095	1	1	0	0	0.055746	0.13882	0.27272	0.091492	0.052819	0.047256	0.48062	0.21484	0.30109	0.18264	0.18643	0.29854	0.1438	0.20192	0.32867	0.1776	-2.7625	-3.3521	-2.5958	-3.5896	-2.8312	-2.8958	-3.3917	-2.7438	-3.2104	-3.3333	-2.9208	-3.5521	-2.9479	-2.9271	-3.4354	-2.8479	176.140	-122.120	67.283	-57.427	10.324	-53.364	185.771	86.888	28.736	150.150	-119.845	191.413	185.925	143.886	127.950	186.354	0.0009244	0.0018342	0.0011454	1233.8	1.8447e-05	1.7328e-05	1347.9	515.23	3.4018e-05	1.8563e-05	576.99	237.31	226.98	94.478	2.4786e-05	99.172	0.0034375	0.0032995	0.00084998	1261.5	3.8394e-05	3.5277e-05	1297.8	493.76	3.7791e-05	3.5698e-05	594.52	231.45	224.25	89.217	3.3987e-05	98.797	-63.385	-80.883	-8.051	-119.961	22.525	1.860	-121.396	-115.414	95.569	157.095	-117.685	-114.688	-112.122	-106.529	-12.294	-111.032	-8191	255	
3196.216	1	1	0	0	0.12242	0.12274	0.15014	0.17937	0.27728	0.20421	0.081603	0.23903	0.022481	0.096242	0.13693	0.40194	0.12475	0.24758	0.094904	0.19561	-2.7188	-3.2521	-2.6562	-3.3479	-3.0354	-2.7958	-3.4562	-3.0312	-3.0833	-3.3479	-2.7812	-3.3688	-3.3187	-3.0146	-3.4333	-2.7417	19.285	-34.515	183.121	-86.828	97.258	22.223	173.808	166.262	177.794	18.848	166.315	207.054	207.311	-106.002	185.982	116.008	0.00089905	0.0014394	0.00086547	1228.3	1.3257e-05	1.932e-05	1350.3	518.19	2.5913e-05	2.2974e-05	578.04	238.29	228.08	94.12	3.6015e-05	99.757	0.0033169	0.0032564	0.00085469	1271	3.7303e-05	3.4393e-05	1305.6	498.59	3.638e-05	3.5059e-05	600.41	233.59	223.25	88.863	3.5099e-05	99.28	-61.639	106.809	-30.493	-119.834	82.223	59.678	-121.721	-115.304	45.819	-15.174	-118.063	-114.632	-112.464	-106.450	-124.219	-111.025	-8191	255	
3196.312	1	1	0	0	0.10386	0.017792	0.057826	0.26727	0.10558	0.18667	0.29341	0.11562	0.18841	0.28079	0.21136	0.1305	0.21028	0.31514	0.19739	0.068827	-2.4708	-3.4146	-2.575	-3.3479	-3.1417	-2.7083	-3.6229	-2.975	-2.9125	-3.5375	-2.6917	-3.2979	-3.2146	-2.6604	-3.4542	-3.0812	120.525	-60.746	-20.170	204.152	141.701	75.642	164.649	170.596	206.244	128.366	98.534	199.171	172.099	194.308	103.942	98.811	0.000619	0.00086717	0.00079536	1242.9	1.7801e-05	1.1148e-05	1340.9	514.2	1.731e-05	1.6454e-05	579.89	236.19	226.44	92.942	1.0943e-05	98.863	0.0031997	0.0031702	0.00089118	1273.6	3.608e-05	3.3797e-05	1305.8	496.25	3.5147e-05	3.4425e-05	607.54	230.63	220.86	88.079	3.6869e-05	98.484	-17.266	50.199	-116.312	-119.940	114.235	-72.181	-121.525	-115.318	39.362	-42.564	-117.981	-114.720	-112.234	-106.620	16.758	-110.945	-8191	255	
3196.408	1	1	0	0	0.24564	0.29353	0.1004	0.11499	0.20896	0.12493	0.19217	0.19398	0.10395	0.11186	0.2224	0.26109	0.26089	0.24108	0.15966	0.03955	-2.525	-3.4917	-2.5229	-3.1896	-3.3125	-2.7562	-3.6625	-3.0708	-2.7479	-3.3812	-2.8125	-3.1729	-3.5375	-2.8729	-3.2979	-3.1604	129.964	182.866	165.260	12.952	183.683	147.100	137.229	179.672	-92.187	-71.263	-119.876	202.137	-98.353	-104.186	17.346	-22.846	0.00073945	0.0012474	0.0010137	1228.3	7.7482e-06	1.1412e-05	1350.2	516.56	1.1608e-05	1.161e-05	577.87	236.34	227.44	93.714	2.1953e-06	99.862	0.0031083	0.0031548	0.00095025	1266.1	3.5134e-05	3.347e-05	1317.2	496.34	3.417e-05	3.427e-05	613.87	229.76	220.34	88.444	3.8498e-05	98.253	-56.882	-112.335	45.889	-119.143	173.569	-30.098	-121.576	-115.082	108.354	-40.152	-117.691	-114.535	-112.334	-106.291	168.643	-111.227	-8191	255	
3196.504	1	1	0	0	0.23416	0.30336	0.20936	0.1796	0.22357	0.01642	0.25098	0.23586	0.21385	0.11915	0.069311	0.050683	0.30507	0.13163	0.080563	0.14649	-2.2021	-3.4688	-2.6312	-3.0271	-3.4958	-2.6042	-3.3958	-3.1229	-2.6167	-3.5354	-2.8083	-3.0354	-3.5146	-2.6729	-3.2125	-3.3625	-33.512	-78.593	142.639	-96.217	71.923	113.795	200.129	192.232	48.687	81.073	129.000	-80.666	-99.065	161.832	28.430	48.957	0.00068883	0.0016631	6.8429e-05	1233.8	3.7216e-05	1.1624e-05	1351.7	515.86	1.204e-05	1.4132e-05	581.3	237.88	227.51	93.579	3.1095e-05	99.265	0.0030296	0.0032028	0.00099196	1260	3.4806e-05	3.5038e-05	1326.9	494.16	3.367e-05	3.5972e-05	620.45	229.98	220.38	89.369	3.8919e-05	98.118	-18.394	-99.866	-108.241	-119.956	30.904	95.149	-121.025	-115.309	-45.125	-9.659	-117.505	-114.724	-112.115	-106.447	-26.825	-110.917	-8191	255	
3196.600	1	1	0	0	0.30104	0.11618	0.31197	0.045518	0.083256	0.012875	0.19194	0.21829	0.23665	0.18142	0.1155	0.13321	0.35252	0.042179	0.10561	0.17978	-2.2562	-3.4729	-2.7104	-3.0021	-3.5187	-2.6125	-3.3063	-3.4646	-2.6708	-3.4167	-2.9375	-2.9625	-3.5979	-2.9104	-3.1833	-3.4562	173.788	-50.826	98.338	164.401	96.514	123.354	125.171	153.083	158.556	-84.920	194.271	207.812	179.053	-87.691	52.412	149.297	0.00066312	0.00089449	0.00018265	1233.4	1.8096e-05	2.6271e-05	1339.1	512.83	2.3992e-05	2.1792e-05	573.54	234.72	226.73	92.776	5.5308e-06	98.368	0.0029837	0.0033876	0.00099801	1250.7	3.4387e-05	3.7234e-05	1321.6	491.14	3.3267e-05	3.7977e-05	614.65	226.95	219.58	89.469	3.7818e-05	96.577	-46.679	179.073	-71.216	-119.799	28.501	-1.123	-120.989	-114.643	4.082	-113.304	-117.645	-114.669	-112.206	-106.835	-131.598	-110.789	-8191	255	
3196.696	1	1	0	0	0.11997	0.18705	0.1801	0.3402	0.043274	0.23795	0.31853	0.27113	0.05478	0.077018	0.073575	0.030908	0.39678	0.27824	0.32804	0.2098	-2.3396	-3.2792	-3.0042	-2.7979	-3.3521	-2.7333	-3.3375	-3.4083	-2.6542	-3.4271	-3.1146	-2.9313	-3.6104	-3.0479	-3.0917	-3.5646	191.324	44.789	-19.967	-110.075	-128.361	-48.920	205.450	145.864	-2.013	48.691	204.377	-97.061	213.072	-132.855	137.914	207.936	0.0011205	0.0014171	0.0010855	1227.5	2.7675e-05	2.0346e-05	1338.2	509.98	8.818e-06	2.3863e-05	573.7	235.7	225.32	93.394	2.7688e-05	98.493	0.0029992	0.0035978	0.00097689	1243.2	3.4661e-05	3.9375e-05	1308	488.89	3.412e-05	3.9587e-05	610.56	226.42	220.34	90.137	3.6393e-05	96.825	-61.378	139.248	-65.486	-119.253	-69.650	70.638	-121.142	-115.210	-2.395	148.561	-117.607	-114.608	-112.219	-106.481	20.603	-110.888	-8191	255	
3196.817	1	1	0	0	0.19516	0.14613	0.14504	0.2692	0.28566	0.086194	0.35739	0.13579	0.31101	0.14304	0.33483	0.075574	0.17117	0.24125	0.14884	0.11423	-2.1479	-3.2958	-3.0833	-2.875	-3.4688	-2.8729	-3.1667	-3.6458	-2.6125	-3.2479	-3.4229	-2.8271	-3.5333	-3.0208	-2.7313	-3.6208	-17.548	-3.407	-31.826	90.412	-14.378	45.202	117.071	203.140	100.401	75.459	171.906	-9.148	-81.555	-80.259	90.130	167.633	0.0013079	0.0012483	0.00043183	1226.1	1.3029e-05	2.1769e-05	1342.1	514.82	1.0349e-05	1.1508e-05	578.35	235.68	226.77	93.022	2.4473e-05	99.264	0.003156	0.0036717	0.00095195	1241.2	3.6951e-05	4.051e-05	1310.8	490.3	3.6761e-05	4.0407e-05	610.43	227.09	224.04	90.223	3.5962e-05	97.491	-49.920	93.708	8.389	-119.501	202.173	31.981	-121.401	-115.123	209.124	29.317	-117.687	-114.735	-112.433	-106.561	110.586	-111.109	-8191	255	
3196.911	1	1	0	0	0.06629	0.22471	0.076145	0.14891	0.13303	0.23674	0.27009	0.10602	0.046325	0.0031323	0.15227	0.34924	0.05576	0.2339	0.09668	0.19262	-2.0375	-3.1583	-3.3021	-2.5563	-3.4021	-2.9792	-2.8896	-3.4938	-2.5771	-3.1479	-3.2729	-2.8396	-3.4833	-3.0896	-2.8542	-3.6375	66.217	144.879	6.862	125.466	12.409	-85.906	112.404	20.926	194.774	44.933	224.195	166.637	-71.944	184.278	-112.521	136.377	0.00066052	0.00082243	0.00082713	1237.5	8.9647e-06	1.3267e-05	1350.8	515.86	2.1966e-05	2.9396e-05	579.79	237.15	227.75	93.47	6.1382e-06	98.624	0.0033934	0.0036254	0.00093426	1243.1	3.8733e-05	3.9415e-05	1306.6	490.57	3.8623e-05	3.8118e-05	606.91	227.39	225.02	89.903	3.4745e-05	97	-53.047	43.799	34.673	-119.625	85.745	99.512	-121.132	-114.800	-127.152	43.540	-117.771	-114.544	-112.350	-106.723	102.062	-110.832	-8191	255	
3197.008	1	1	0	0	0.15461	0.27419	0.2038	0.17032	0.10331	0.091245	0.19282	0.24167	0.22556	0.3323	0.1648	0.28376	0.391	0.13881	0.081675	0.30258	-2.3688	-2.9271	-3.3833	-2.7812	-3.2667	-2.8354	-2.9521	-3.525	-2.8604	-2.9542	-3.4729	-2.7479	-3.4083	-3.1896	-2.7417	-3.5854	-90.104	-5.265	31.563	111.679	-114.836	-41.379	122.638	183.240	-102.075	168.133	-99.237	167.315	208.277	152.063	149.736	-6.533	0.0011989	0.003862	0.00029005	1232.5	2.6288e-06	1.9951e-05	1340.1	513.63	2.763e-05	3.4191e-05	576.06	236.63	226.79	93.405	1.8065e-05	100.06	0.003495	0.0034197	0.00090937	1245.8	3.9741e-05	3.7617e-05	1296.7	491.33	3.9701e-05	3.7024e-05	602.12	229.35	225.78	89.607	3.3786e-05	98.574	-34.435	-27.623	-70.736	-119.467	-43.159	108.790	-121.205	-115.063	-101.977	60.468	-117.875	-114.865	-112.207	-106.293	45.085	-110.952	-8191	255	
3197.104	1	1	0	0	0.22796	0.094436	0.16506	0.1779	0.13047	0.13082	0.39597	0.097868	0.11028	0.19582	0.078168	0.38048	0.14658	0.14137	0.32122	0.18257	-2.4667	-2.7167	-3.3354	-2.8146	-3.1312	-3.1708	-2.9313	-3.4604	-3.0146	-2.8729	-3.5958	-2.8917	-3.3563	-3.4333	-2.575	-3.5771	21.453	153.287	-110.933	221.863	120.591	25.971	168.928	201.411	54.667	202.863	-117.924	182.071	126.386	218.574	113.913	142.849	0.0012514	0.0031456	0.00085582	1227.3	3.5944e-05	2.2085e-05	1346.7	514.65	1.6294e-05	1.4591e-05	578.38	238.25	227.7	94.428	2.0901e-06	99.929	0.0035452	0.0033139	0.00089425	1259	3.9257e-05	3.6867e-05	1296.7	495.69	3.8947e-05	3.5603e-05	602.32	232.69	224.96	89.975	3.3454e-05	99.921	-57.442	-33.793	-26.348	-119.373	37.355	58.848	-121.361	-114.819	-3.735	-53.131	-118.061	-114.567	-111.936	-106.577	191.257	-110.729	-8191	255	
3197.224	1	1	0	0	0.18014	0.13164	0.29952	0.18673	0.33965	0.12636	0.13062	0.16182	0.16941	0.14653	0.19473	0.17092	0.13541	0.37964	0.22218	0.27918	-2.5604	-2.6458	-3.5292	-2.8167	-3.0646	-3.4979	-2.9104	-3.6146	-3.1813	-2.7271	-3.5458	-2.8563	-3.2021	-3.6063	-2.8292	-3.6417	102.994	49.601	169.568	216.870	134.927	42.213	205.513	-132.150	96.120	56.930	221.966	106.214	188.719	161.181	176.963	-95.792	0.00086774	0.00084481	0.00037695	1230.4	3.478e-05	1.5046e-05	1353.4	515.71	2.1493e-05	5.7408e-06	576.15	236.98	225.8	93.574	3.1083e-05	99.81	0.0034296	0.003234	0.00088821	1272.6	3.7653e-05	3.604e-05	1300.4	498.65	3.7601e-05	3.4669e-05	602.24	232.75	222.05	89.12	3.4798e-05	99.525	-14.218	-89.069	188.942	-119.782	-40.079	154.900	-121.169	-115.044	101.227	-12.606	-117.965	-114.887	-112.219	-106.741	-119.490	-110.911	-8191	255	
3197.296	1	1	0	0	0.097967	0.12954	0.086559	0.056791	0.12394	0.093516	0.36402	0.34048	0.14414	0.29555	0.13585	0.13331	0.1476	0.18387	0.26854	0.11095	-2.7667	-2.5875	-3.4146	-2.8729	-2.8896	-3.5187	-2.7208	-3.5083	-3.2167	-2.7542	-3.6188	-2.9542	-2.7292	-3.7542	-2.7771	-3.4688	88.528	51.200	127.890	-95.385	-71.399	63.797	188.810	167.932	72.308	159.497	184.219	111.676	216.796	148.437	-53.648	207.340	0.00080517	0.002147	0.0004828	1233.5	1.0377e-05	2.7603e-05	1337.9	512.23	3.1821e-06	1.6591e-05	577.44	234.64	226.22	93.889	4.1934e-05	100.88	0.0032941	0.0031361	0.00091767	1273.3	3.5587e-05	3.512e-05	1302.7	495.74	3.6103e-05	3.3521e-05	605.78	231.14	220.54	89.083	3.6606e-05	99.414	-24.761	-69.685	125.163	-119.641	-77.301	-2.269	-121.740	-114.882	211.743	-30.866	-117.658	-114.500	-112.082	-106.507	209.900	-110.772	-8191	255	
3197.392	1	1	0	0	0.054262	0.17158	0.25149	0.34944	0.050941	0.06667	0.19231	0.31354	0.19428	0.054899	0.062426	0.22156	0.3584	0.16687	0.2335	0.14109	-2.8458	-2.6083	-3.4813	-3.0812	-2.8083	-3.4313	-2.9	-3.3125	-3.3917	-2.725	-3.5729	-3.0812	-2.7292	-3.5687	-2.6167	-3.0979	212.999	58.161	122.206	189.976	113.642	24.819	-115.420	192.711	183.147	91.427	-91.815	208.946	189.751	189.769	-77.168	209.159	0.00063379	0.0019048	0.00075533	1221.3	3.6908e-05	1.007e-05	1341.6	513.57	1.6157e-05	2.2873e-06	574.32	235.43	226.07	94.375	3.45e-05	101.03	0.0032041	0.0030728	0.0009711	1266.9	3.5015e-05	3.4858e-05	1315.8	494.12	3.5659e-05	3.3727e-05	616.2	230.76	219.7	89.321	3.8858e-05	99.253	14.113	-20.594	7.621	-119.312	35.239	103.571	-121.488	-115.020	187.262	-71.261	-117.468	-114.890	-112.030	-106.515	169.369	-110.435	-8191	255	
3197.488	1	1	0	0	0.26435	0.17789	0.18376	0.073796	0.032531	0.10317	0.086652	0.28619	0.1481	0.15353	0.10021	0.26072	0.20504	0.34466	0.010712	0.13251	-2.8333	-2.7438	-3.3083	-3.0375	-2.6542	-3.4229	-3.1312	-3.3521	-3.3063	-2.7104	-3.3417	-3.2146	-2.8063	-3.6792	-3.0083	-3.1437	-0.062	5.164	92.533	204.520	26.681	-105.886	-100.657	173.839	50.286	1.864	98.885	205.169	-95.909	192.178	157.316	212.451	0.00048715	0.0015944	0.00044189	1233.1	1.6865e-05	6.3771e-06	1344.3	513.38	2.2593e-05	1.519e-05	572.18	234.31	224.11	93.115	3.4545e-05	98.828	0.0031403	0.0031555	0.0009976	1258.4	3.4041e-05	3.5344e-05	1319.6	489.41	3.4485e-05	3.4686e-05	614.67	227.9	218	89.339	3.8647e-05	97.036	7.799	12.542	58.196	-119.565	39.223	-19.327	-121.232	-114.763	76.209	-37.467	-117.651	-114.771	-112.138	-106.564	11.753	-110.810	-8191	255	
3197.609	1	1	0	0	0.082126	0.2806	0.26714	0.20274	0.11333	0.10011	0.17333	0.31045	0.18368	0.11787	0.10401	0.21039	0.13335	0.14313	0.21948	0.16692	-3.0271	-2.6937	-3.2604	-3.2417	-2.6479	-3.5625	-3.1625	-3.0208	-3.3042	-2.9708	-3.1833	-3.2062	-2.9708	-3.4813	-2.9917	-2.9479	-33.130	-36.074	-108.928	73.395	143.752	43.782	178.956	177.305	51.913	67.552	223.678	135.483	70.719	-116.573	12.102	-33.201	0.00059465	0.0026458	0.000145	1214.6	1.5911e-05	5.4632e-06	1322.2	508.19	1.7417e-05	1.7632e-05	567.25	232.62	224.53	93.128	1.9046e-05	98.903	0.0030625	0.0032907	0.00098604	1241.1	3.3139e-05	3.6909e-05	1301.1	482.57	3.3874e-05	3.6831e-05	602.32	225.2	216.55	89.407	3.7598e-05	96.377	-30.963	147.843	-50.082	-119.698	125.038	75.622	-121.197	-114.759	-37.216	-116.343	-117.702	-114.786	-112.358	-106.687	-25.725	-110.545	-8191	255	
3197.703	1	1	0	0	0.1039	0.28589	0.14371	0.26006	0.19688	0.36429	0.34411	0.10175	0.27724	0.098766	0.20725	0.19579	0.18241	0.40977	0.088695	0.22454	-3.0563	-2.65	-3.0563	-3.2729	-2.5917	-3.4958	-3.2208	-3.0771	-3.6188	-2.8583	-3.3187	-3.4271	-2.7062	-3.4917	-3.1021	-2.8729	3.612	64.532	113.531	110.254	21.000	-16.715	191.550	-123.369	22.623	20.002	168.228	178.525	201.767	-131.197	-21.088	-131.316	0.00086981	0.003746	0.00014489	1218.7	1.3348e-05	5.4658e-06	1331.6	506.46	3.269e-05	2.5393e-05	566.6	234.62	224.43	93.577	5.3304e-06	99.286	0.003004	0.0034752	0.00094755	1236.8	3.3189e-05	3.8567e-05	1300.3	482.26	3.4073e-05	3.8832e-05	599.8	226.1	217.98	90.026	3.6509e-05	96.149	-36.078	-69.539	105.570	-119.417	-120.597	175.310	-121.093	-114.858	-92.133	26.244	-117.152	-114.224	-111.769	-106.214	35.962	-110.486	-8191	255	
3197.799	1	1	0	0	0.11542	0.12165	0.16074	0.21665	0.2295	0.032746	0.22975	0.26767	0.17541	0.13044	0.15271	0.21402	0.078805	0.092357	0.19121	0.037696	-3.2354	-2.7083	-2.8104	-3.7625	-2.6146	-3.2062	-3.2875	-2.8792	-3.3812	-2.6208	-2.8104	-3.4646	-2.7729	-3.2875	-3.1896	-2.8542	-87.681	-43.338	168.541	155.516	-66.133	-87.192	151.941	185.020	21.829	112.523	109.444	117.166	37.365	-107.538	6.907	44.327	0.00077643	0.0015076	0.00048528	1211.3	1.9417e-05	1.0567e-05	1338.1	509.32	8.0487e-06	2.9089e-05	576.89	235.05	224.78	92.773	9.7947e-06	99.177	0.0031133	0.003567	0.00090752	1229.2	3.4804e-05	3.8517e-05	1294.9	482.28	3.5405e-05	3.8251e-05	596.62	224.96	219.77	89.583	3.5118e-05	95.734	-39.314	134.434	197.617	-119.262	216.527	93.222	-120.919	-114.690	184.967	90.447	-117.278	-114.347	-111.834	-106.091	-91.222	-110.283	-8191	255	
3197.897	1	1	0	0	0.17878	0.26429	0.052512	0.205	0.06596	0.19634	0.28739	0.20352	0.088865	0.076651	0.11607	0.27929	0.093147	0.20203	0.21203	0.30583	-3.0083	-2.8958	-2.8646	-3.6417	-2.5312	-3.15	-3.3	-2.7812	-3.3104	-3.0104	-3.0229	-3.5896	-2.9188	-3.3604	-3.4625	-2.775	136.518	38.736	10.887	202.088	165.814	136.489	175.182	212.914	-78.851	-128.575	208.168	195.401	-115.067	196.566	111.327	218.156	0.0011374	0.0038938	0.00069729	1223.5	1.2016e-05	1.4369e-05	1326.5	510.18	1.6403e-05	2.1834e-05	568.55	234.12	225.64	93.474	1.1899e-05	99.495	0.0032557	0.0034747	0.00087286	1230.7	3.6702e-05	3.7498e-05	1287.1	481.38	3.7162e-05	3.7683e-05	590.48	225.08	221.9	89.197	3.4438e-05	96.42	-44.306	-19.961	-63.945	-119.223	186.067	60.910	-121.065	-114.781	-108.544	50.777	-117.373	-114.666	-112.048	-106.358	2.592	-110.488	-8191	255	
3197.992	1	1	0	0	0.14178	0.32795	0.20457	0.078332	0.26064	0.10279	0.32337	0.4631	0.020728	0.17698	0.077069	0.22088	0.23736	0.20251	0.16399	0.19692	-2.8708	-3.0417	-2.8083	-3.45	-2.7396	-3.0354	-3.5875	-2.8417	-3.2104	-3.0938	-2.6833	-3.5896	-3.0625	-3.1	-3.3625	-2.6688	59.723	-14.420	198.741	-94.770	-18.820	143.350	64.845	171.807	60.507	105.255	-3.757	183.471	139.126	226.083	-6.700	222.022	0.0014518	0.0023106	0.00087377	1226.3	2.4597e-05	1.4992e-05	1333.7	509.65	1.3899e-05	7.9758e-06	576.7	237.75	226.88	93.671	1.8369e-05	100.15	0.0034282	0.0033937	0.00085598	1235	3.813e-05	3.6316e-05	1294.5	485.08	3.8735e-05	3.6692e-05	593.68	228.83	223.86	89.186	3.4268e-05	98.083	-55.522	-11.662	-46.953	-119.355	152.128	6.338	-121.340	-114.783	9.340	161.801	-117.557	-114.178	-112.112	-106.248	-9.241	-110.522	-8191	255	
3198.088	1	1	0	0	0.072544	0.19341	0.056478	0.26131	0.07598	0.12797	0.092012	0.43481	0.14954	0.13502	0.15062	0.093439	0.39927	0.4201	0.21941	0.26723	-2.6854	-3.1979	-2.4208	-3.5312	-2.8208	-2.9188	-3.6708	-2.8604	-3.25	-3.5792	-2.8458	-3.5833	-3.1479	-3.0292	-3.4167	-2.7292	70.683	102.234	-17.706	-127.719	102.260	73.390	206.668	173.438	-42.497	-101.535	214.672	-119.432	108.234	-120.041	30.534	225.064	0.00071019	0.0033359	0.0003863	1232.1	2.0114e-05	1.9724e-05	1344.8	517.25	1.7672e-05	1.6573e-05	584.02	237.48	228.57	93.72	5.5589e-06	101.02	0.003478	0.0033524	0.00085835	1258.7	3.9175e-05	3.6027e-05	1301.3	494.78	3.7971e-05	3.6241e-05	600.34	232.98	224.73	89.154	3.4187e-05	99.824	-37.490	-52.754	29.967	-119.323	201.773	56.763	-121.068	-114.832	-54.415	41.258	-117.694	-114.381	-112.031	-106.199	11.815	-110.700	-8191	255	
3198.184	1	1	0	0	0.083064	0.13308	0.17542	0.28364	0.029965	0.048075	0.19932	0.71878	0.051391	0.11735	0.26826	0.17734	0.13434	0.19486	0.068677	0.34336	-2.8063	-3.2458	-2.5563	-3.4542	-2.9188	-2.7521	-3.6396	-2.9896	-2.9458	-3.4292	-2.7958	-3.4188	-3.2458	-2.675	-3.4667	-2.8354	6.358	-6.656	175.050	203.709	-54.906	-61.368	162.147	183.728	-38.897	20.828	197.794	168.804	-112.488	-92.843	221.045	208.617	0.00127	0.0033931	0.00069468	1234.1	3.1994e-05	2.2928e-05	1347.4	513.46	1.7193e-05	3.216e-05	575.09	239.08	227.12	93.499	8.5675e-06	100.51	0.0033802	0.0032839	0.00086302	1272.7	3.8261e-05	3.4993e-05	1301.8	496.92	3.7007e-05	3.5791e-05	599.94	234.03	223.5	88.867	3.5492e-05	100.12	-17.720	-14.198	-28.001	-119.180	34.755	-35.374	-121.379	-115.062	59.925	53.287	-117.702	-114.299	-111.983	-106.294	131.422	-110.536	-8191	255	
3198.305	1	1	0	0	0.10383	0.20308	0.21577	0.14208	0.1132	0.14035	0.18533	0.12751	0.075651	0.18119	0.22285	0.27654	0.18037	0.205	0.2864	0.21574	-2.475	-3.275	-2.5396	-3.2792	-3.0292	-2.6104	-3.6396	-2.9	-2.8812	-3.4125	-2.8354	-3.3271	-3.3542	-2.8854	-3.5	-2.8208	127.361	-102.367	-79.157	170.945	-120.535	-69.579	186.122	185.851	0.583	-126.551	193.996	216.119	225.018	-131.637	206.970	-128.578	0.00097818	0.0019212	0.00051352	1238.9	3.2327e-05	3.0226e-05	1357.7	513.62	1.635e-05	2.5401e-05	580.56	238.8	228.66	93.764	1.6953e-05	100.74	0.0032916	0.0032679	0.00091001	1282.5	3.7288e-05	3.4758e-05	1320.6	499.39	3.6556e-05	3.5644e-05	612.34	235.07	223.56	88.949	3.7865e-05	100.55	-55.143	-24.506	-130.132	-119.663	32.934	79.727	-121.009	-114.580	111.730	-33.144	-118.160	-114.222	-112.311	-106.147	-131.658	-110.452	-8191	255	
3198.401	1	1	0	0	0.14998	0.17131	0.14263	0.23993	0.16941	0.32975	0.098867	0.33582	0.057717	0.19987	0.15515	0.46737	0.32247	0.17371	0.16036	0.27316	-2.525	-3.2375	-2.5521	-3.3688	-3.4104	-2.5021	-3.5229	-3.1813	-2.6312	-3.3563	-2.6937	-3.1688	-3.3833	-2.7167	-3.3375	-3.225	-126.664	119.712	-91.634	171.542	142.875	-72.839	95.816	182.394	-39.969	191.308	134.037	-99.539	202.001	-52.508	-83.204	166.913	0.00052924	0.00166	0.00039657	1226.4	2.4196e-05	7.9652e-06	1360.3	517.72	1.2909e-05	9.1519e-06	581.06	239.7	228.65	93.615	1.4596e-05	100.66	0.0032211	0.0032265	0.00097456	1276.6	3.6652e-05	3.4227e-05	1336.6	499.91	3.5393e-05	3.5151e-05	621.97	233.55	221.65	88.722	3.8719e-05	99.444	4.050	-10.957	-66.210	-119.139	-4.765	54.272	-121.170	-114.571	107.189	-32.642	-117.354	-114.395	-112.151	-106.476	40.141	-110.353	-8191	255	
3198.497	1	1	0	0	0.14632	0.2158	0.029842	0.10917	0.13499	0.15521	0.12456	0.089883	0.15436	0.19842	0.18305	0.092931	0.11624	0.043698	0.07576	0.11591	-2.1937	-3.5563	-2.7229	-3.2208	-3.5458	-2.7146	-3.5146	-3.1854	-2.75	-3.4604	-2.7792	-3.2667	-3.5021	-2.8333	-3.3354	-3.1688	138.478	-73.058	140.969	-132.871	61.966	73.481	104.313	-132.665	73.444	124.392	-113.461	-67.783	-116.145	103.137	-101.459	180.956	0.00048023	0.00099337	0.00088832	1239.3	3.3492e-05	1.0423e-05	1346.2	514.91	2.3899e-05	2.1907e-05	577.71	236.61	227.12	93.456	2.8266e-05	99.744	0.0030331	0.003184	0.00098589	1259.6	3.4602e-05	3.4164e-05	1326.6	493.41	3.2909e-05	3.4776e-05	616.99	229.12	219.35	88.484	3.8117e-05	97.675	-30.803	-35.331	-11.158	-119.092	-106.537	-32.963	-121.255	-114.960	75.576	95.495	-117.525	-114.388	-112.505	-106.420	-75.882	-110.714	-8191	255	
3198.593	1	1	0	0	0.20706	0.22257	0.11707	0.28502	0.034998	0.09306	0.22282	0.21322	0.22592	0.20765	0.1904	0.19568	0.2188	0.13642	0.1779	0.24335	-2.3312	-3.6146	-2.725	-3.1146	-3.5563	-2.7167	-3.3104	-3.4896	-2.5875	-3.4	-2.975	-2.9271	-3.6021	-2.8854	-3.1604	-3.4458	128.999	7.001	203.503	213.398	170.061	-48.023	137.156	202.513	-88.004	144.816	193.499	44.888	208.503	217.562	119.761	202.073	0.00077926	0.0017462	0.0008558	1234	2.1661e-05	9.0795e-06	1351.5	513.87	1.357e-05	6.8786e-06	573.13	236.16	225.91	93.452	1.0966e-05	99.673	0.0028765	0.0032661	0.00098387	1244.9	3.339e-05	3.565e-05	1322.6	490.35	3.2246e-05	3.6883e-05	611.51	227.82	218.6	89.42	3.7336e-05	97.398	-20.398	184.254	-44.321	-119.235	33.777	55.447	-120.804	-114.788	21.699	-103.650	-117.076	-114.474	-111.994	-106.233	56.996	-110.705	-8191	255	
3198.689	1	1	0	0	0.2452	0.11774	0.14566	0.24717	0.064275	0.07719	0.086135	0.12987	0.11519	0.13157	0.22672	0.20713	0.28047	0.043303	0.32996	0.20542	-2.3187	-3.4729	-2.8688	-2.9062	-3.475	-2.6583	-3.2687	-3.5625	-2.4042	-3.3792	-3.2521	-2.8083	-3.5729	-2.9375	-3.1396	-3.6417	101.576	79.314	64.438	192.423	-91.829	98.215	14.214	175.489	177.201	-52.760	160.378	-14.897	208.671	180.915	-54.111	-108.753	0.00068628	0.0005851	0.00067404	1231.7	1.2632e-05	3.047e-05	1350.5	514.29	1.3417e-05	4.4211e-06	579.47	236.91	225.87	93.144	3.7084e-05	99.255	0.0029179	0.0034854	0.0009679	1243.3	3.3833e-05	3.8929e-05	1316.5	489.87	3.3151e-05	3.9114e-05	613.12	227.81	220.05	90.066	3.5984e-05	97.198	-38.835	46.570	-39.646	-119.325	-39.555	-83.838	-121.153	-114.744	-68.412	141.424	-117.767	-114.268	-112.386	-106.345	26.766	-110.563	-8191	255	
3198.785	1	1	0	0	0.15713	0.13579	0.10989	0.028081	0.05231	0.19102	0.10377	0.12777	0.23815	0.12796	0.18115	0.10909	0.47802	0.36352	0.11384	0.24763	-2.3563	-3.1292	-2.9917	-2.8417	-3.3292	-2.9083	-3.0604	-3.5563	-2.7083	-3.2583	-3.4604	-2.8542	-3.6083	-3.15	-2.875	-3.5146	187.274	196.099	176.431	178.830	-68.991	-54.743	167.671	-112.956	-16.970	14.591	215.453	167.722	221.486	182.921	-7.304	135.991	0.0010827	0.0017064	0.0015119	1223.8	2.1595e-05	1.2731e-05	1333.4	510.2	2.4455e-05	1.9137e-05	579.24	233.16	224.12	92.988	2.8259e-05	98.965	0.0030701	0.0036358	0.00093963	1232.1	3.5394e-05	3.94e-05	1298.5	485.08	3.5164e-05	3.9469e-05	601.09	224.05	220.32	89.574	3.4928e-05	95.83	-50.645	-130.820	-32.035	-118.876	-64.552	-20.285	-121.167	-114.749	-80.420	-58.563	-117.463	-114.131	-111.861	-106.261	-1.445	-110.671	-8191	255	
3198.904	1	1	0	0	0.20631	0.23025	0.11989	0.30637	0.12219	0.1808	0.2839	0.19864	0.15311	0.054681	0.32634	0.30346	0.2062	0.30804	0.19051	0.24304	-2.1458	-3.1813	-3.3187	-2.7083	-3.2396	-2.8771	-3.2062	-3.6	-2.6083	-3.1708	-3.4729	-2.8708	-3.4688	-3.3479	-2.8521	-3.5458	103.215	-44.593	-20.936	149.252	-41.381	100.436	183.462	170.188	-66.578	-93.064	-122.724	-92.635	194.770	-131.136	-31.103	162.728	0.00092758	0.0035666	0.00032022	1221.1	1.2587e-05	2.1045e-05	1339.5	510.11	1.3962e-05	9.1245e-06	569.51	232.25	225.24	92.335	1.4415e-05	98.214	0.0032589	0.003539	0.00091381	1224.7	3.7872e-05	3.9312e-05	1291.4	484.08	3.7781e-05	3.8266e-05	597.35	223.8	222.8	88.82	3.4472e-05	96.093	-81.562	-39.539	-120.546	-119.026	202.392	43.035	-120.703	-114.428	58.704	168.509	-117.062	-113.828	-111.422	-106.284	104.379	-110.297	-8191	255	
3199.000	1	1	0	0	0.12522	0.23984	0.19812	0.25944	0.20339	0.053986	0.075646	0.28754	0.18646	0.072404	0.11696	0.12883	0.064565	0.21439	0.11502	0.15248	-2.3521	-2.9938	-3.4271	-2.8521	-3.4562	-3.0667	-2.7604	-3.4917	-2.7687	-3.0479	-3.5042	-2.8542	-3.4458	-3.2438	-2.6104	-3.6188	84.200	-16.393	-107.468	206.812	-80.732	110.413	120.267	124.105	-78.972	-22.148	-24.289	167.133	-121.740	175.008	-109.815	189.405	0.00056852	0.0014711	0.0005098	1224.1	1.7902e-05	2.8925e-05	1342.4	514.97	1.4985e-05	9.2325e-06	575.79	236.55	227.64	93.182	1.7485e-05	100.29	0.0034925	0.0034367	0.00090462	1232.6	3.9374e-05	3.7909e-05	1294.3	489.44	3.9387e-05	3.6452e-05	601.46	228.5	225.81	89.255	3.3384e-05	98.271	-73.914	-54.260	-112.189	-119.295	225.884	-9.641	-120.519	-114.742	-3.019	96.218	-117.736	-114.792	-111.979	-106.822	-107.200	-110.728	-8191	255	
3199.097	1	1	0	0	0.04423	0.068297	0.17898	0.47109	0.05171	0.046324	0.20415	0.051164	0.090702	0.2611	0.17217	0.19432	0.062042	0.25212	0.34945	0.24309	-2.5125	-2.7667	-3.3187	-2.6708	-3.2479	-3.1104	-2.8417	-3.5896	-2.7479	-2.7687	-3.5604	-2.7583	-3.3438	-3.3125	-2.4646	-3.4958	-73.982	163.628	-32.652	180.635	-22.585	-82.631	125.465	214.603	-89.167	-85.570	159.538	178.641	154.333	139.801	164.084	125.059	0.00067427	0.0033569	0.00076134	1224.7	2.7686e-05	2.9089e-05	1340.6	511.7	1.599e-05	1.8595e-05	575.59	234.51	226.28	92.074	2.0092e-05	98.246	0.0035415	0.003299	0.00087787	1250	3.8966e-05	3.6338e-05	1292.6	492.59	3.9002e-05	3.5684e-05	596.53	230.01	223.82	88.25	3.3188e-05	97.962	-35.420	223.692	-30.902	-119.557	-24.031	89.308	-121.405	-114.955	76.392	24.339	-117.672	-114.868	-112.343	-106.990	-102.910	-110.827	-8191	255	
3199.168	1	1	0	0	0.09324	0.18533	0.15752	0.13355	0.13624	0.18326	0.12839	0.17311	0.11905	0.32737	0.27959	0.32497	0.27154	0.023677	0.031986	0.40202	-2.4833	-2.7417	-3.5521	-2.7958	-3.075	-3.2792	-3.0854	-3.6146	-2.9188	-2.8667	-3.5583	-2.8937	-3.1667	-3.7146	-2.6146	-3.2938	119.062	218.182	-7.249	-119.416	-66.619	102.937	192.574	210.917	-41.071	-129.429	117.604	216.562	202.459	129.217	-31.512	184.470	0.00086494	0.0012332	0.00044826	1219.4	3.3866e-06	4.9377e-06	1326.1	508.61	1.6964e-05	1.0295e-05	570.35	234.11	224.32	92.583	9.858e-06	98.975	0.0034812	0.0032544	0.00088537	1265.2	3.8478e-05	3.6591e-05	1282.9	493.58	3.8196e-05	3.4736e-05	596.01	231.12	221.21	88.197	3.4158e-05	99.108	-17.760	-105.240	186.588	-120.051	49.445	5.398	-121.679	-114.919	62.186	78.830	-118.202	-115.129	-112.431	-106.715	33.673	-110.938	-8191	255	
3199.289	1	1	0	0	0.11142	0.11111	0.1084	0.083328	0.14754	0.22892	0.17886	0.32655	0.19555	0.044965	0.16924	0.15467	0.16957	0.32766	0.10269	0.37085	-2.7042	-2.625	-3.5104	-2.9479	-2.8729	-3.4417	-2.8312	-3.425	-3.0854	-2.5583	-3.4542	-2.9875	-3.1125	-3.5292	-2.7354	-3.2687	32.702	74.603	-59.671	175.013	-120.621	-99.695	113.775	181.693	-86.884	-60.135	201.122	-118.882	183.050	211.718	-63.284	116.448	0.00070968	0.0011272	0.00048675	1231.8	3.1446e-05	7.8137e-06	1336.1	510.59	1.215e-05	1.2864e-05	569.37	234.6	224.38	92.354	1.5231e-05	98.637	0.0033247	0.0031409	0.00091559	1274.4	3.6499e-05	3.5641e-05	1302.7	495.82	3.7135e-05	3.4296e-05	606.69	232.31	220.14	88.153	3.7013e-05	99.116	-11.080	-41.598	188.868	-119.583	103.712	7.926	-121.405	-114.846	144.421	-27.581	-117.711	-114.783	-112.350	-107.005	196.684	-110.636	-8191	255	
3199.385	1	1	0	0	0.17253	0.061298	0.16728	0.18923	0.035188	0.10015	0.14294	0.14739	0.3559	0.15163	0.14347	0.29693	0.076889	0.17914	0.037695	0.16329	-2.8625	-2.5021	-3.4437	-3.0438	-2.8792	-3.4542	-2.7812	-3.2771	-3.3438	-2.7771	-3.5812	-3.1542	-3.0625	-3.7687	-2.6083	-3.2417	58.094	-109.243	-76.664	-65.687	22.082	74.118	-24.043	-95.309	41.714	180.686	-109.612	146.526	-35.552	194.210	-4.301	111.488	0.00054564	0.0028152	0.0010484	1228.9	1.9247e-05	2.1087e-05	1338.3	507.47	2.458e-05	3.1124e-05	574.83	234.21	222.59	91.975	1.1644e-05	98.024	0.0032718	0.0030829	0.00097334	1269.4	3.5239e-05	3.4708e-05	1312.4	491.9	3.5728e-05	3.3787e-05	614.73	229.84	217.79	87.488	3.8754e-05	97.101	-44.386	-14.738	33.327	-119.605	137.454	52.532	-121.516	-115.147	27.135	-36.056	-117.894	-114.897	-112.518	-106.940	195.871	-110.819	-8191	255	
3199.481	1	1	0	0	0.085714	0.082526	0.18068	0.20682	0.18021	0.26616	0.068575	0.28034	0.18783	0.21818	0.17105	0.32384	0.27752	0.25424	0.1989	0.16874	-2.7833	-2.6083	-3.1354	-3.0771	-2.7313	-3.5146	-2.8625	-3.4062	-3.4896	-2.525	-3.4646	-3.0604	-2.9125	-3.6146	-2.8812	-3.25	175.001	-119.959	212.835	174.535	-20.337	-59.520	202.498	215.419	206.582	-10.545	25.857	-129.460	226.257	177.923	141.767	128.571	0.00074759	0.00070978	0.00064866	1211.9	1.4982e-05	2.0711e-05	1320.4	505.24	1.7162e-05	2.1913e-05	559.31	231.58	220.27	90.582	1.974e-05	97.039	0.0031877	0.0031365	0.0010112	1255	3.4575e-05	3.5816e-05	1311.6	486.5	3.5676e-05	3.5448e-05	611.89	226.14	215.49	87.35	4.0442e-05	95.839	-31.652	160.903	-13.610	-119.338	12.365	-108.021	-121.784	-115.154	153.638	153.715	-117.861	-115.137	-112.171	-106.715	69.423	-110.883	-8191	255	
3199.577	1	1	0	0	0.1574	0.028712	0.11841	0.25157	0.14694	0.20536	0.042784	0.14582	0.33953	0.1897	0.24161	0.13689	0.055802	0.42432	0.064338	0.20993	-3.0375	-2.7208	-3.1167	-3.3646	-2.6292	-3.4771	-3.1458	-3.15	-3.5062	-2.6333	-3.3208	-3.3208	-2.6771	-3.5479	-2.8563	-3.1458	-105.481	-38.978	-16.374	-20.654	-113.305	73.453	144.307	128.866	48.248	38.751	188.255	114.742	205.527	174.147	58.551	220.886	0.00067894	0.001731	0.001029	1213.2	8.2219e-06	1.5246e-05	1309.9	503.96	2.086e-05	1.6228e-05	563.36	228.1	219.25	89.591	1.1334e-05	94.832	0.0031699	0.0033971	0.0010406	1247.8	3.435e-05	3.8681e-05	1308.4	482.23	3.5859e-05	3.8782e-05	611.2	224.42	214.41	87.496	4.1073e-05	95.043	-16.319	165.436	-73.554	-120.058	-86.466	-98.492	-121.417	-114.957	36.431	-99.890	-117.925	-115.091	-112.468	-106.683	32.595	-110.851	-8191	255	
3199.696	1	1	0	0	0.24352	0.22856	0.046087	0.19217	0.18617	0.22514	0.11694	0.038914	0.34157	0.053911	0.22072	0.26445	0.1481	0.08417	0.11826	0.2539	-3	-2.7667	-3.1625	-3.3563	-2.4792	-3.3854	-3.1229	-2.8688	-3.4208	-2.6	-3.2354	-3.5125	-2.6937	-3.575	-3.0042	-2.8333	53.522	-85.813	69.331	-130.546	-98.464	170.831	214.410	115.029	-42.304	119.828	208.324	176.306	213.416	218.700	21.664	198.817	0.00097633	0.0044813	0.0011586	1190.6	6.8196e-06	1.2476e-05	1297.2	489.27	6.6052e-06	2.926e-06	540.69	219.98	214.24	88.04	1.8156e-05	92.874	0.0032311	0.0037162	0.001038	1241.3	3.5495e-05	4.2308e-05	1292	473.67	3.6929e-05	4.2231e-05	592.5	218.32	211.38	86.938	4.0185e-05	92.189	-38.286	187.205	-77.735	-119.639	166.976	223.547	-121.261	-115.084	-55.301	46.634	-117.464	-115.107	-112.285	-106.563	17.901	-110.730	-8191	255	
3199.770	1	1	0	0	0.19485	0.038677	0.038752	0.33687	0.11062	0.0939	0.48402	0.1219	0.27122	0.053065	0.096864	0.26336	0.1461	0.24702	0.084639	0.1081	-3.1458	-2.7292	-3.1458	-3.4292	-2.6854	-3.2146	-3.1854	-2.9292	-3.625	-2.85	-2.9667	-3.5458	-2.8146	-3.4	-3.2833	-2.9313	40.588	67.000	24.948	180.650	65.703	51.361	176.228	204.858	155.469	-44.626	155.492	169.066	114.488	184.102	-1.310	-126.411	0.0013832	0.0025576	0.0015845	1181.5	1.4826e-05	2.8745e-05	1279.5	484.75	1.4001e-05	1.7767e-05	538.2	219.78	212.6	87.911	1.4502e-05	92.191	0.0034018	0.0039316	0.0010033	1221.3	3.7445e-05	4.2978e-05	1268.2	468.09	3.8773e-05	4.2703e-05	582.9	216.2	213.41	86.627	3.9163e-05	91.779	-68.341	3.763	-59.310	-120.021	-110.262	37.550	-121.581	-114.846	-95.449	31.085	-117.458	-114.832	-112.695	-106.540	-34.116	-110.861	-8191	255	
3199.866	1	1	0	0	0.24906	0.14372	0.17453	0.047859	0.078958	0.26046	0.21608	0.23146	0.24779	0.17512	0.17131	0.070433	0.33326	0.41315	0.13822	0.23526	-3.0729	-2.8021	-2.9188	-3.55	-2.6875	-3.1479	-3.5021	-2.6958	-3.2542	-3.0792	-3.0354	-3.5979	-2.85	-3.325	-3.2958	-2.7875	187.100	-45.661	49.602	199.389	123.829	-6.244	190.044	176.044	-118.575	115.629	207.560	-60.425	196.621	224.807	-112.314	152.342	0.0009148	0.0010627	0.00095222	1174.9	1.7898e-05	2.2055e-05	1284.5	488.31	1.1201e-05	1.0425e-05	545.62	223.28	213.41	88.81	8.1455e-06	93.771	0.0035544	0.0038891	0.00096067	1215.9	4.0027e-05	4.1741e-05	1263.9	467.48	4.0647e-05	4.1549e-05	582.03	217.78	216.5	86.881	3.7619e-05	93.082	-59.902	14.916	-72.801	-119.582	181.706	-11.915	-121.379	-115.135	109.900	5.175	-117.614	-114.564	-112.712	-106.581	200.397	-110.958	-8191	255	
3199.985	1	1	0	0	0.33092	0.036333	0.34226	0.14297	0.097374	0.090375	0.093548	0.15098	0.069332	0.13192	0.26732	0.11918	0.4398	0.070666	0.14617	0.052665	-3.0542	-3.0938	-2.6708	-3.6458	-2.8042	-3.0854	-3.45	-2.9354	-3.3	-3.1063	-2.7625	-3.7938	-2.9562	-3.1188	-3.3083	-2.7229	-50.469	-57.394	-56.278	133.707	-7.666	10.549	175.782	-73.891	40.233	-129.670	196.658	192.593	178.233	163.690	173.015	122.286	0.0012266	0.0013475	0.00074658	1187.6	2.4736e-05	2.5788e-05	1268.8	488.95	1.563e-05	1.9737e-05	544.4	223.22	214.79	90.055	1.5073e-05	94.743	0.0036718	0.0037141	0.00092834	1217.5	4.1491e-05	3.9123e-05	1254.3	469.87	4.0734e-05	3.8584e-05	574.18	219.14	217.53	86.573	3.5402e-05	93.919	-46.497	-19.331	-120.869	-119.975	104.451	32.367	-121.606	-115.076	136.165	2.859	-117.741	-114.726	-112.366	-106.563	199.617	-110.722	-8191	255	
3200.081	1	1	0	0	0.1364	0.24919	0.083983	0.15522	0.23414	0.1372	0.10114	0.1719	0.29009	0.25012	0.25557	0.12769	0.22186	0.40352	0.12037	0.23427	-2.8542	-3.0208	-2.5875	-3.6312	-2.7938	-2.9604	-3.65	-2.9583	-3.4229	-3.3937	-2.6542	-3.5042	-3.35	-2.8917	-3.4854	-2.7812	8.980	-122.125	132.811	-74.649	40.266	178.693	107.177	160.455	119.991	85.738	-118.670	140.546	155.837	225.837	123.357	179.247	0.0011746	0.0029981	0.00053301	1188.1	1.233e-05	2.4073e-05	1286.9	486.27	1.3495e-05	4.0708e-06	547.15	224.09	217.75	91.444	1.0287e-05	97.074	0.0035735	0.0034253	0.00087103	1227.1	4.01e-05	3.6581e-05	1252.1	470.35	3.9307e-05	3.6843e-05	571.66	221.8	217.18	86.806	3.4081e-05	96.175	-73.338	-28.717	221.357	-119.596	-31.847	-29.798	-121.381	-115.128	59.579	-2.600	-117.673	-114.663	-112.210	-106.625	197.615	-111.356	-8191	255	
3200.177	1	1	0	0	0.11021	0.09746	0.21819	0.12606	0.24544	0.12381	0.22717	0.038777	0.15902	0.13888	0.18329	0.18406	0.28506	0.26566	0.097255	0.38199	-2.7979	-3.1917	-2.5	-3.4833	-3.075	-2.7104	-3.7812	-2.9292	-3.0542	-3.4729	-2.8104	-3.6021	-3.1188	-2.9021	-3.5167	-2.9562	8.204	70.217	8.824	188.488	2.257	77.303	157.677	149.441	65.274	17.211	60.339	204.736	221.205	150.019	102.924	135.277	0.00055802	0.0024583	0.00019523	1197.5	3.4021e-05	2.8616e-05	1302.4	493.73	4.7923e-05	2.4578e-05	562.24	231.31	219.56	92.06	7.1488e-06	98.871	0.0033754	0.0032739	0.00083542	1241.1	3.8356e-05	3.4663e-05	1264	479.1	3.7135e-05	3.5643e-05	580.53	227.12	217.2	87.16	3.4404e-05	98.478	-35.390	1.605	152.455	-119.473	70.665	21.642	-121.479	-115.132	72.218	-29.891	-117.656	-114.730	-112.409	-106.462	156.604	-110.788	-8191	255	
3200.298	1	1	0	0	0.11799	0.24248	0.23157	0.093605	0.18227	0.10053	0.17851	0.089443	0.36939	0.2185	0.24433	0.10435	0.21196	0.33768	0.12299	0.082207	-2.7604	-3.3917	-2.675	-3.4917	-3.1667	-2.5917	-3.6917	-3.1271	-2.825	-3.425	-2.8521	-3.4521	-3.4083	-2.9208	-3.5708	-2.9542	-72.627	26.974	195.848	-81.408	157.284	176.911	148.454	197.441	-133.149	125.210	127.307	181.616	132.292	216.422	-3.709	-9.215	0.00092603	0.0020037	0.00041321	1202.9	2.347e-05	4.7529e-06	1320.9	496.77	4.5224e-05	2.5502e-05	561.99	230.9	220	92.105	1.8578e-05	97.372	0.0032425	0.0032087	0.00087823	1251.1	3.6485e-05	3.3503e-05	1281.5	482.8	3.5154e-05	3.4211e-05	589.04	226.97	215.44	86.955	3.5991e-05	97.301	-40.833	-102.118	215.129	-119.522	39.536	12.263	-121.538	-115.210	53.498	62.673	-117.382	-114.529	-112.618	-106.752	-33.015	-111.209	-8191	255	
3200.394	1	1	0	0	0.20337	0.1476	0.028401	0.070023	0.018025	0.26786	0.19797	0.39805	0.24934	0.076719	0.26223	0.23373	0.21653	0.17986	0.073229	0.30759	-2.5438	-3.4708	-2.6458	-3.2208	-3.2354	-2.8396	-3.5	-3.0062	-2.7438	-3.3917	-2.8792	-3.3688	-3.5187	-2.6833	-3.4521	-3.125	-106.676	147.162	6.917	201.783	-80.366	-42.981	109.872	148.009	-13.876	-83.130	148.991	165.875	220.349	198.446	154.382	159.985	0.00089283	0.00092505	0.00043041	1194.5	2.8204e-05	2.0268e-05	1294.7	493.24	2.1109e-05	3.2457e-06	552.59	228.91	218.67	91.841	2.5539e-05	97.267	0.0031082	0.0031098	0.00093117	1244	3.5368e-05	3.3032e-05	1280.2	476.95	3.3962e-05	3.3757e-05	591.04	223.95	213.84	86.728	3.7461e-05	96.697	-19.047	200.165	54.257	-119.895	54.147	-81.071	-121.728	-115.015	44.882	-103.591	-118.349	-114.650	-112.530	-106.882	121.440	-110.971	-8191	255	
3200.465	1	1	0	0	0.24403	0.11917	0.27454	0.21198	0.13836	0.074084	0.098539	0.15002	0.01711	0.098842	0.20736	0.32351	0.42975	0.15704	0.15254	0.10338	-2.3042	-3.5625	-2.6792	-3.1646	-3.3708	-2.6125	-3.5667	-3.375	-2.7104	-3.3417	-2.7625	-3.2646	-3.3937	-2.8104	-3.2521	-3.1917	-16.187	58.488	-93.351	207.437	196.449	213.546	125.987	186.638	217.595	115.216	211.894	198.934	-120.716	113.281	74.085	152.922	0.0010231	0.00098053	0.00074928	1200.1	1.8673e-05	3.2588e-06	1311.4	494.38	1.1646e-05	7.5952e-06	556	228.24	218.69	91.405	1.0276e-05	97.643	0.0030116	0.0031104	0.00097783	1233.8	3.4432e-05	3.3806e-05	1293.2	475.66	3.326e-05	3.5087e-05	598.99	222	213.58	86.864	3.8829e-05	95.985	-39.345	226.590	77.317	-119.238	-9.545	-110.583	-121.868	-115.242	51.870	-103.628	-117.639	-114.807	-112.663	-106.845	203.442	-110.885	-8191	255	
3200.586	1	1	0	0	0.13229	0.20953	0.23793	0.043904	0.11514	0.11401	0.19857	0.28724	0.23154	0.12602	0.084768	0.17165	0.13896	0.4513	0.18634	0.06886	-2.2333	-3.4479	-2.9667	-3.1354	-3.4375	-2.5896	-3.4271	-3.4062	-2.7042	-3.5854	-2.9396	-3.0104	-3.5312	-2.8271	-3.2604	-3.4667	83.145	119.467	-34.288	209.091	122.842	-73.166	132.588	142.991	-82.408	205.596	-107.737	-103.232	178.228	221.916	179.415	125.761	0.0006405	0.00091348	0.0004193	1194.3	1.4532e-05	2.352e-05	1307.6	495.19	5.4914e-06	9.966e-06	556.42	228.29	218.02	90.501	1.3342e-05	96.324	0.002962	0.0032969	0.0010039	1224	3.407e-05	3.6109e-05	1292.8	474.54	3.2552e-05	3.702e-05	597.89	220.57	211.87	87.168	3.7615e-05	94.74	-55.625	-122.674	-125.502	-119.785	-0.385	-93.719	-121.228	-115.101	127.373	103.222	-117.536	-114.701	-112.197	-106.920	14.091	-111.186	-8191	255	
3200.680	1	1	0	0	0.22155	0.14028	0.1701	0.24402	0.10966	0.11908	0.074983	0.26745	0.031948	0.13048	0.044468	0.18236	0.2963	0.24176	0.26796	0.29208	-2.4479	-3.4896	-2.9	-2.9979	-3.5021	-2.9396	-3.2062	-3.5625	-2.5896	-3.4813	-3.1333	-2.85	-3.7562	-2.8812	-3.0708	-3.4792	-91.777	132.931	200.127	-89.058	96.022	213.264	-91.057	160.536	-42.918	0.407	167.196	125.291	134.934	212.567	-117.883	195.793	0.00098961	0.0020321	0.0014818	1195.6	4.1842e-05	8.7828e-06	1298.2	492.24	1.4478e-05	1.1713e-05	553.83	225.06	218.52	89.787	7.7236e-06	95.448	0.0029017	0.0034791	0.00096891	1212.6	3.3417e-05	3.7941e-05	1274.4	469.9	3.2614e-05	3.8782e-05	588.91	217.27	211.72	87.296	3.6361e-05	93.578	-46.773	-107.067	-81.822	-119.707	203.771	122.590	-121.428	-115.042	-7.854	30.842	-118.041	-114.470	-112.518	-106.813	20.039	-111.080	-8191	255	
3200.777	1	1	0	0	0.16911	0.11057	0.27203	0.097865	0.39331	0.36141	0.27386	0.23862	0.030166	0.14651	0.20973	0.33614	0.31905	0.17045	0.13846	0.15141	-2.2625	-3.3833	-3.0521	-2.7438	-3.5417	-2.7562	-3.0938	-3.5625	-2.6896	-3.3438	-3.1979	-2.775	-3.7833	-3.1458	-2.7875	-3.5458	-103.985	53.358	27.974	196.006	36.720	-71.639	189.283	221.777	-118.920	-53.573	141.410	219.799	-124.848	-91.631	-65.874	133.550	0.0014067	0.0010504	0.00038226	1193.7	2.8601e-06	2.2636e-05	1300.6	492.91	1.3787e-05	1.8987e-05	550.95	224.02	215	89.61	1.3858e-05	95.315	0.0030132	0.0035926	0.0009377	1203.8	3.5041e-05	3.9438e-05	1267.1	469.19	3.4617e-05	3.9169e-05	583.79	216.92	213.53	87.261	3.4925e-05	93.655	-60.014	115.919	183.548	-119.678	-27.582	163.670	-121.328	-115.300	-51.358	-110.286	-117.939	-114.541	-112.537	-106.788	-30.017	-111.028	-8191	255	
3200.873	1	1	0	0	0.20947	0.21218	0.24788	0.05029	0.1449	0.15735	0.2619	0.36858	0.16444	0.18067	0.43693	0.23169	0.16799	0.14326	0.1503	0.15976	-2.3229	-3.2083	-3.1375	-2.8229	-3.3958	-2.8667	-2.8229	-3.7125	-2.7333	-3.0854	-3.25	-2.6437	-3.5312	-2.9667	-2.6271	-3.4417	67.743	6.681	63.606	123.503	188.147	-25.994	148.365	172.282	129.998	16.086	-101.319	174.967	192.362	-127.442	197.981	224.133	0.00096466	0.0031954	0.00097015	1191.7	2.8742e-05	5.2631e-06	1294.2	491.01	1.3825e-05	2.4759e-05	552.82	226.56	216.87	90.201	2.1621e-05	95.095	0.0031896	0.0035453	0.00091183	1203	3.7261e-05	3.9159e-05	1266.2	468.92	3.7204e-05	3.8381e-05	585.04	218.27	216.63	87.132	3.3905e-05	93.564	-49.988	-71.200	1.570	-119.704	-78.306	68.116	-121.515	-115.158	101.821	-55.244	-118.180	-114.831	-112.813	-106.933	24.368	-110.792	-8191	255	
3200.993	1	1	0	0	0.050339	0.20152	0.058968	0.26338	0.082231	0.26007	0.20683	0.49034	0.27714	0.11495	0.031558	0.24254	0.22037	0.18559	0.043622	0.31871	-2.3229	-3.0521	-3.4708	-2.5958	-3.3396	-3.0312	-2.8583	-3.5792	-2.7313	-3.1	-3.3771	-2.7479	-3.4646	-3.2646	-2.6625	-3.7396	-4.230	-33.870	81.242	-117.403	158.277	11.696	112.516	151.177	125.224	-0.436	-116.827	174.866	-112.806	-94.572	-23.061	170.112	0.0013259	0.0025278	0.00084528	1187.2	2.1376e-05	2.3046e-05	1300.8	492.8	2.8692e-05	1.9687e-05	553.54	225.69	216.06	90.451	3.3651e-05	95.689	0.0033949	0.0034078	0.00089857	1204.3	3.8507e-05	3.7449e-05	1258.6	470.79	3.8469e-05	3.6113e-05	579.41	218.15	216.74	86.655	3.2976e-05	94.523	-52.502	-71.032	-58.705	-119.608	-112.731	64.463	-121.151	-115.204	-82.870	-21.834	-117.632	-114.477	-112.440	-106.915	35.157	-111.164	-8191	255	
3201.065	1	1	0	0	0.19562	0.38915	0.14129	0.25813	0.16694	0.21805	0.047871	0.023999	0.22712	0.074726	0.12934	0.047985	0.31172	0.12607	0.34328	0.11857	-2.3604	-2.8292	-3.3021	-2.8104	-3.4958	-3.3063	-2.9167	-3.5708	-2.8125	-2.9604	-3.4688	-2.6688	-3.3146	-3.5292	-2.575	-3.5854	59.649	-48.657	-114.587	75.435	-125.635	127.590	118.615	63.716	98.614	85.528	-124.438	70.238	217.023	174.524	-104.682	185.169	0.00094292	0.0026741	0.001156	1186.8	3.9591e-05	9.2082e-06	1303.1	491.64	2.5505e-06	1.3141e-05	553.25	227.38	217.71	90.121	9.2046e-06	96.457	0.0034966	0.0032533	0.00087528	1218.3	3.8878e-05	3.6362e-05	1257.3	474.19	3.8717e-05	3.5246e-05	579.75	222.07	216.8	86.614	3.2611e-05	96.018	-30.404	-20.079	-55.200	-120.039	-10.675	139.894	-121.579	-115.377	-22.616	173.918	-117.836	-115.165	-112.055	-106.680	-3.035	-111.084	-8191	255	
3201.161	1	1	0	0	0.30655	0.14269	0.18188	0.077098	0.091009	0.44725	0.24646	0.1744	0.16399	0.21999	0.044923	0.25415	0.12369	0.43872	0.18496	0.22131	-2.5687	-2.8229	-3.4271	-2.8104	-3.275	-3.3125	-2.8729	-3.55	-3.2042	-2.8167	-3.6917	-2.9813	-3.2313	-3.6208	-2.6937	-3.6854	-102.610	-89.493	12.955	132.818	-65.762	-50.955	178.155	173.159	198.860	-29.459	-103.949	217.296	200.031	210.115	-68.595	192.518	0.00049269	0.0021127	0.00048	1196.6	2.1253e-05	2.4226e-05	1316.7	492.9	3.1529e-05	2.3486e-05	556.62	228.15	218.24	90.585	9.5013e-06	97.231	0.0034566	0.0032338	0.00087141	1239.9	3.8108e-05	3.5942e-05	1264.9	479.16	3.8107e-05	3.4823e-05	584.89	225.66	216.11	86.769	3.3499e-05	97.297	-72.336	-18.702	-127.040	-120.027	70.751	41.480	-121.514	-115.155	45.559	-75.768	-117.930	-114.746	-112.087	-106.604	-83.838	-111.060	-8191	255	
3201.257	1	1	0	0	0.27165	0.12733	0.017498	0.30161	0.13974	0.23289	0.25722	0.084623	0.1144	0.16849	0.045056	0.27012	0.25204	0.18665	0.34389	0.13121	-2.6667	-2.7667	-3.5292	-2.9729	-3.1063	-3.3771	-2.8292	-3.5396	-3.0229	-2.7604	-3.5146	-2.8208	-2.9979	-3.5417	-2.5292	-3.3417	193.073	-1.840	48.848	174.623	-97.175	68.085	206.025	208.377	139.266	199.040	100.733	152.596	210.258	216.934	5.816	222.820	0.0014038	0.00060489	0.00084115	1205.5	2.0925e-05	2.439e-05	1307.1	491.7	9.678e-06	3.3144e-05	551.77	224.62	216.28	90.104	1.5685e-05	95.468	0.0033256	0.0031068	0.00089027	1252.6	3.6375e-05	3.5099e-05	1270.8	479.81	3.6734e-05	3.4009e-05	587.25	223.52	212.89	85.866	3.6062e-05	96.014	-54.843	-104.214	134.562	-119.965	34.693	86.106	-121.590	-115.341	211.578	-62.739	-117.736	-114.549	-112.317	-106.931	193.435	-111.399	-8191	255	
3201.378	1	1	0	0	0.19292	0.38355	0.10521	0.21624	0.18423	0.33119	0.21798	0.22849	0.24175	0.40313	0.1526	0.17396	0.20516	0.23984	0.36763	0.2223	-2.6229	-2.6979	-3.4979	-3.1125	-2.8312	-3.4354	-2.9104	-3.475	-3.2021	-2.8187	-3.5229	-3.1333	-3.0625	-3.5854	-2.5563	-3.1771	-118.597	172.430	-30.261	165.317	-127.091	84.540	128.208	-112.987	103.799	-53.564	193.877	207.277	211.177	225.441	-114.874	132.568	0.001311	0.0014231	0.00098554	1199.1	2.1573e-05	1.0309e-05	1294.7	492	1.3019e-05	1.7355e-05	548.29	227.35	215.98	90.068	1.2916e-05	94.654	0.0032724	0.0030791	0.0009499	1245	3.5464e-05	3.4722e-05	1278.1	477.74	3.6193e-05	3.3643e-05	593.8	223.5	211.85	85.795	3.8785e-05	95.293	-25.421	-111.560	141.961	-119.849	105.917	-33.155	-121.891	-115.050	36.409	180.324	-118.049	-114.702	-112.498	-106.874	-72.100	-111.186	-8191	255	
3201.474	1	1	0	0	0.16859	0.082243	0.039292	0.28935	0.097522	0.29276	0.20768	0.24425	0.11363	0.25918	0.28779	0.22755	0.1084	0.17223	0.26869	0.46047	-3.0542	-2.6271	-3.1688	-3.1708	-2.8375	-3.4833	-2.8854	-3.1813	-3.4313	-2.6083	-3.5812	-3.2667	-2.8167	-3.5021	-2.8458	-3.1083	199.652	100.213	5.309	185.611	-127.483	54.800	150.028	178.181	-43.158	207.988	150.565	138.939	-92.823	-131.822	55.084	123.204	0.00095184	0.00098649	0.0007397	1194.1	7.7351e-06	1.297e-05	1294.8	489.74	2.0175e-05	3.5475e-06	552.12	225.5	216.22	88.817	1.4028e-05	95.524	0.0032215	0.003131	0.0010146	1241.5	3.5076e-05	3.5879e-05	1287.3	475.22	3.6148e-05	3.5288e-05	603.34	221.67	210.74	85.893	4.0616e-05	94.636	-17.886	-86.035	200.811	-119.822	48.897	-91.545	-121.445	-115.127	118.123	146.887	-118.526	-114.609	-112.692	-106.558	-34.692	-111.187	-8191	255	
#DATA ENDS
