BOXY.EXE: ISS Imagent and Oximeter Data Acquisition Program Version 0.80
Ascii Record File

#ACQ INFORMATION
2  Detector Channels 
16  External MUX Channels 
1  Auxiliary Channels 
5000  Waveform (CCF) Frequency (Hz)
1  Waveforms Skipped 
30  Waveforms Averaged 
1  Cycles Averaged 
16  Acquisitions per Waveform 
10.0806  Updata Rate (Hz) 

#FILE INFORMATION
TRUE -- External MUX Channel results are PARSED.
FALSE -- AC DC and Phase are NOT grouped.
TRUE -- Companion Program Settings File CREATED.
FALSE -- AC data not excluded
FALSE -- DC data not excluded
FALSE -- Phase data not excluded
FALSE -- Auxillary Chn. data not excluded
Tab delimiters

#CALIBRATION STATE
TRUE -- Waveform Calibration Values APPLIED.


#AUX CALIBRATION VALUES
Val Type	aux-1	

Term	1.0000e+00	
Factor	0.0000e+00	


#WF CALIBRATION VALUES
A = Detector Channel
Val Type	A-AC1	A-AC2	A-AC3	A-AC4	A-AC5	A-AC6	A-AC7	A-AC8	A-AC9	A-AC10	A-AC11	A-AC12	A-AC13	A-AC14	A-AC15	A-AC16	A-DC1	A-DC2	A-DC3	A-DC4	A-DC5	A-DC6	A-DC7	A-DC8	A-DC9	A-DC10	A-DC11	A-DC12	A-DC13	A-DC14	A-DC15	A-DC16	A-Ph1	A-Ph2	A-Ph3	A-Ph4	A-Ph5	A-Ph6	A-Ph7	A-Ph8	A-Ph9	A-Ph10	A-Ph11	A-Ph12	A-Ph13	A-Ph14	A-Ph15	A-Ph16	

Term	0.00000e+00	0.00000e+00	0.00000e+00	0.00000e+00	0.00000e+00	0.00000e+00	0.00000e+00	0.00000e+00	0.00000e+00	0.00000e+00	0.00000e+00	0.00000e+00	0.00000e+00	0.00000e+00	0.00000e+00	0.00000e+00	0.00000e+00	0.00000e+00	0.00000e+00	0.00000e+00	0.00000e+00	0.00000e+00	0.00000e+00	0.00000e+00	0.00000e+00	0.00000e+00	0.00000e+00	0.00000e+00	0.00000e+00	0.00000e+00	0.00000e+00	0.00000e+00	0.00000e+00	0.00000e+00	0.00000e+00	0.00000e+00	0.00000e+00	0.00000e+00	0.00000e+00	0.00000e+00	0.00000e+00	0.00000e+00	0.00000e+00	0.00000e+00	0.00000e+00	0.00000e+00	0.00000e+00	0.00000e+00	
Factor	1.00000e+00	1.00000e+00	1.00000e+00	1.00000e+00	1.00000e+00	1.00000e+00	1.00000e+00	1.00000e+00	1.00000e+00	1.00000e+00	1.00000e+00	1.00000e+00	1.00000e+00	1.00000e+00	1.00000e+00	1.00000e+00	1.00000e+00	1.00000e+00	1.00000e+00	1.00000e+00	1.00000e+00	1.00000e+00	1.00000e+00	1.00000e+00	1.00000e+00	1.00000e+00	1.00000e+00	1.00000e+00	1.00000e+00	1.00000e+00	1.00000e+00	1.00000e+00	X	X	X	X	X	X	X	X	X	X	X	X	X	X	X	X	

B = Detector Channel
Val Type	B-AC1	B-AC2	B-AC3	B-AC4	B-AC5	B-AC6	B-AC7	B-AC8	B-AC9	B-AC10	B-AC11	B-AC12	B-AC13	B-AC14	B-AC15	B-AC16	B-DC1	B-DC2	B-DC3	B-DC4	B-DC5	B-DC6	B-DC7	B-DC8	B-DC9	B-DC10	B-DC11	B-DC12	B-DC13	B-DC14	B-DC15	B-DC16	B-Ph1	B-Ph2	B-Ph3	B-Ph4	B-Ph5	B-Ph6	B-Ph7	B-Ph8	B-Ph9	B-Ph10	B-Ph11	B-Ph12	B-Ph13	B-Ph14	B-Ph15	B-Ph16	

Term	0.00000e+00	0.00000e+00	0.00000e+00	0.00000e+00	0.00000e+00	0.00000e+00	0.00000e+00	0.00000e+00	0.00000e+00	0.00000e+00	0.00000e+00	0.00000e+00	0.00000e+00	0.00000e+00	0.00000e+00	0.00000e+00	0.00000e+00	0.00000e+00	0.00000e+00	0.00000e+00	0.00000e+00	0.00000e+00	0.00000e+00	0.00000e+00	0.00000e+00	0.00000e+00	0.00000e+00	0.00000e+00	0.00000e+00	0.00000e+00	0.00000e+00	0.00000e+00	-2.07275e+01	-1.32847e+02	-1.52787e+02	-1.83875e+02	-6.77554e+01	-5.54330e+01	-1.56919e+02	-1.62015e+02	-3.22664e+01	-7.99954e+01	-1.74562e+02	-1.70840e+02	-1.80437e+02	-1.77427e+02	-6.96928e+01	-1.50391e+02	
Factor	2.96057e-05	1.28999e-04	4.41538e-05	1.97066e-01	1.45415e-06	1.07368e-06	1.67062e-01	5.22067e-02	1.19540e-06	1.26644e-06	1.23098e-01	2.98311e-02	3.04790e-02	9.88491e-03	1.28029e-06	1.43348e-02	1.34528e-06	1.40145e-06	3.88201e-07	9.80757e-02	1.52263e-08	1.53501e-08	7.86761e-02	2.62170e-02	1.51695e-08	1.52930e-08	5.81304e-02	1.43474e-02	1.50814e-02	4.92209e-03	1.51770e-08	6.84804e-03	X	X	X	X	X	X	X	X	X	X	X	X	X	X	X	X	



#DISTANCE SETTINGS
A = Detector Channel
A-1	A-2	A-3	A-4	A-5	A-6	A-7	A-8	A-9	A-10	A-11	A-12	A-13	A-14	A-15	A-16	

2.5000e+00	3.0000e+00	2.5000e+00	3.0000e+00	2.0000e+00	3.0000e+00	1.5000e+00	3.0000e+00	3.0000e+00	3.0000e+00	3.0000e+00	3.0000e+00	3.0000e+00	3.0000e+00	1.5000e+00	3.0000e+00	

B = Detector Channel
B-1	B-2	B-3	B-4	B-5	B-6	B-7	B-8	B-9	B-10	B-11	B-12	B-13	B-14	B-15	B-16	

1.0000e+01	1.0000e+01	1.0000e+01	1.4400e+00	1.0000e+01	1.0000e+01	1.5100e+00	1.9400e+00	1.0000e+01	1.0000e+01	1.9900e+00	2.4900e+00	2.4100e+00	2.9000e+00	1.0000e+01	2.9800e+00	




#DATA BEGINS
time	group	step	mark	flag	A-AC1	A-AC2	A-AC3	A-AC4	A-AC5	A-AC6	A-AC7	A-AC8	A-AC9	A-AC10	A-AC11	A-AC12	A-AC13	A-AC14	A-AC15	A-AC16	A-DC1	A-DC2	A-DC3	A-DC4	A-DC5	A-DC6	A-DC7	A-DC8	A-DC9	A-DC10	A-DC11	A-DC12	A-DC13	A-DC14	A-DC15	A-DC16	A-Ph1	A-Ph2	A-Ph3	A-Ph4	A-Ph5	A-Ph6	A-Ph7	A-Ph8	A-Ph9	A-Ph10	A-Ph11	A-Ph12	A-Ph13	A-Ph14	A-Ph15	A-Ph16	B-AC1	B-AC2	B-AC3	B-AC4	B-AC5	B-AC6	B-AC7	B-AC8	B-AC9	B-AC10	B-AC11	B-AC12	B-AC13	B-AC14	B-AC15	B-AC16	B-DC1	B-DC2	B-DC3	B-DC4	B-DC5	B-DC6	B-DC7	B-DC8	B-DC9	B-DC10	B-DC11	B-DC12	B-DC13	B-DC14	B-DC15	B-DC16	B-Ph1	B-Ph2	B-Ph3	B-Ph4	B-Ph5	B-Ph6	B-Ph7	B-Ph8	B-Ph9	B-Ph10	B-Ph11	B-Ph12	B-Ph13	B-Ph14	B-Ph15	B-Ph16	aux-1	digaux	

3241.048	1	1	0	256	0.15559	0.14378	0.1997	0.11328	0.084482	0.0075148	0.20444	0.20812	0.25199	0.19047	0.27353	0.11235	0.088517	0.061	0.04804	0.20797	-2.9521	-3.0812	-2.5521	-3.2458	-2.7417	-2.6479	-3.3812	-2.6813	-3.0146	-3.1271	-2.5354	-3.4625	-2.9958	-2.8354	-3.2521	-2.7333	289.124	302.310	372.784	188.308	422.853	210.116	414.781	434.874	457.530	166.686	396.423	393.222	171.728	149.487	313.049	421.492	0.00114	0.0008048	0.00016044	623.39	6.7785e-06	8.1814e-07	819.49	258.49	3.4255e-06	3.6686e-06	354.33	151.76	123.29	62.392	7.3351e-06	78.815	0.00024273	0.00019225	4.9764e-05	529.92	2.3242e-06	2.0096e-06	692.3	221.11	2.2632e-06	2.1002e-06	294.72	127.65	102.68	52.543	1.9928e-06	65.62	288.845	256.173	223.843	116.131	175.186	365.289	114.885	121.975	301.882	246.306	119.327	122.470	124.566	129.520	221.973	125.349	-8191	255	
3241.144	1	1	0	0	0.22189	0.080811	0.21963	0.18625	0.097379	0.092751	0.10843	0.16357	0.17657	0.10133	0.10611	0.23865	0.12695	0.14911	0.13068	0.28844	-2.6688	-3.1271	-2.4083	-3.2979	-2.8688	-2.5208	-3.4688	-2.8083	-2.9688	-3.1208	-2.6729	-3.1708	-3.1229	-2.6792	-3.1917	-2.8688	177.834	180.888	190.015	120.317	108.770	368.400	303.052	415.930	335.241	459.374	138.587	462.080	409.297	140.525	143.246	426.144	0.0011713	0.00024114	0.00030462	614.7	6.2077e-06	4.4415e-06	801.16	256.9	1.453e-06	4.5073e-06	347.21	150.25	120.77	62.164	2.0801e-06	77.8	0.00022923	0.00018626	4.9154e-05	524.97	2.2577e-06	1.9911e-06	679.24	219.79	2.1657e-06	2.0571e-06	290.07	125.98	101.88	52.416	2.121e-06	65.174	289.669	458.895	153.538	117.649	219.575	255.630	114.918	121.736	360.341	257.053	118.865	122.626	124.925	130.117	235.831	125.247	-8191	255	
3241.263	1	1	0	0	0.21822	0.071304	0.12555	0.16169	0.03162	0.10386	0.28514	0.2063	0.082406	0.068995	0.1395	0.14167	0.24119	0.10273	0.068927	0.10435	-2.3854	-3.2521	-2.5646	-3.3208	-2.9604	-2.4396	-3.3875	-2.8271	-2.6917	-3.2625	-2.5625	-3.1021	-3.2333	-2.65	-3.2146	-3.0146	283.773	142.676	383.737	380.451	459.354	406.580	391.993	125.124	238.116	113.130	340.115	426.670	398.853	157.019	200.607	418.262	0.0010881	0.00052889	0.00028699	615.94	4.939e-06	2.8796e-06	806.12	258.02	4.5605e-06	4.9939e-06	348.65	152.5	124.13	62.992	4.3919e-06	79.254	0.00022358	0.00018294	5.305e-05	524.84	2.1609e-06	1.9662e-06	682.09	219.61	2.1426e-06	2.0736e-06	292.75	127.63	103.59	53.129	2.2617e-06	66.241	283.464	349.466	195.125	116.650	248.714	237.490	115.137	121.580	349.520	280.673	118.935	122.164	124.674	129.439	289.181	124.957	-8191	255	
3241.359	1	1	0	0	0.073296	0.041308	0.24382	0.27183	0.089	0.15451	0.38741	0.10589	0.24064	0.10681	0.25265	0.20852	0.2748	0.13211	0.34173	0.10709	-2.1688	-3.3063	-2.6479	-3.0604	-3.0708	-2.5146	-3.4146	-2.8479	-2.5354	-3.4229	-2.6958	-3.1521	-3.3688	-2.6729	-3.2167	-3.1146	114.586	124.823	406.939	439.556	400.343	418.802	374.891	334.014	297.534	304.392	461.220	341.154	451.448	125.744	349.812	443.078	0.00097069	0.00054953	0.00022604	623.8	7.8683e-06	3.1757e-06	818.38	258.27	8.5008e-06	7.818e-06	353.47	153.55	124.75	62.902	7.0061e-06	79.496	0.00022301	0.00019214	6.0279e-05	531.87	2.2446e-06	2.0689e-06	692.47	220.72	2.1552e-06	2.1514e-06	295.75	129.11	103.6	53.141	2.4135e-06	66.292	285.230	174.441	205.433	116.330	222.624	341.019	115.124	122.200	365.396	233.785	119.048	122.536	124.774	129.648	220.455	125.376	-8191	255	
3241.431	1	1	0	0	0.040096	0.14676	0.22476	0.11199	0.22662	0.16043	0.19393	0.20221	0.21527	0.14659	0.26395	0.28972	0.20314	0.10283	0.33819	0.096195	-2.2208	-3.3708	-2.5833	-2.8208	-3.2104	-2.4917	-3.2708	-3.2208	-2.6125	-3.3125	-2.7458	-2.8333	-3.1292	-2.5542	-3.1229	-3.1625	325.826	368.295	424.758	198.908	140.795	222.508	394.953	416.900	439.947	339.048	250.617	357.518	125.091	183.926	455.775	440.162	0.0011421	0.00063378	0.00025977	621.88	6.2826e-06	3.2739e-06	800.96	256.64	4.9029e-06	3.994e-06	344.16	151.47	122.24	62.551	6.1814e-06	78.089	0.00023062	0.00020324	6.39e-05	529.34	2.234e-06	2.206e-06	681.14	219.02	2.1961e-06	2.3368e-06	290.3	127.05	102.44	53.095	2.6425e-06	65.537	285.465	159.868	176.274	116.093	263.349	249.157	114.595	121.693	299.887	238.378	119.011	122.262	124.571	129.011	241.636	125.124	-8191	255	
3241.551	1	1	0	0	0.24005	0.015508	0.29259	0.23034	0.3309	0.15552	0.063902	0.29632	0.12816	0.17214	0.077756	0.28876	0.13135	0.27428	0.10246	0.089914	-1.9104	-3.1437	-2.6813	-2.725	-3.3542	-2.5958	-3.2188	-3.2938	-2.6437	-3.475	-2.9375	-2.75	-3.4958	-2.6437	-3.1354	-3.2438	144.568	174.386	329.501	194.190	363.844	107.662	363.745	163.152	387.497	337.746	377.025	420.934	111.600	426.647	124.139	133.037	0.0010383	0.00089627	0.00012349	617.41	9.0892e-06	1.421e-06	803.02	258.58	9.8138e-06	4.1067e-06	349.9	153.34	124.37	63.659	4.4217e-06	79.569	0.00023192	0.00022814	6.5182e-05	527.89	2.2365e-06	2.4548e-06	681.36	219.62	2.2323e-06	2.5793e-06	292.75	128.52	103.66	53.609	2.6406e-06	66.679	283.295	187.084	171.129	116.475	261.697	437.903	114.628	121.758	279.785	202.003	119.104	122.258	124.318	129.251	289.757	125.175	-8191	255	
3241.647	1	1	0	0	0.10657	0.073598	0.080581	0.20638	0.32008	0.011057	0.23851	0.047719	0.21567	0.16147	0.24229	0.23093	0.16112	0.18119	0.23355	0.19737	-2.1896	-3.3396	-2.7896	-2.6229	-3.3917	-2.6958	-3.0979	-3.4417	-2.6625	-3.2687	-3.1146	-2.7146	-3.3896	-2.7042	-2.8125	-3.3396	281.883	245.707	356.750	343.285	462.229	368.432	447.752	170.155	307.619	199.092	383.785	155.421	418.674	421.165	376.356	295.925	0.0011361	0.00039356	0.00018856	624.74	5.9139e-06	1.6625e-06	813.64	259.14	8.9667e-06	7.2674e-06	353.36	155.1	124.72	64.03	7.9375e-06	80.711	0.000234	0.00024628	6.5676e-05	532.83	2.2902e-06	2.5882e-06	692.85	221.35	2.3405e-06	2.7366e-06	298.01	130.89	104.69	54.146	2.4747e-06	67.647	288.099	226.496	191.695	116.439	209.126	424.800	114.872	122.083	296.108	292.976	118.719	122.666	124.655	129.236	239.836	124.757	-8191	255	
3241.744	1	1	0	0	0.17046	0.39274	0.11843	0.27434	0.11646	0.20355	0.26976	0.096896	0.11061	0.19308	0.024835	0.27564	0.17719	0.14336	0.10106	0.17059	-2.3104	-3.2021	-2.9146	-2.6583	-3.5312	-2.6229	-2.8542	-3.3708	-2.6875	-3.2917	-2.9813	-2.5667	-3.3854	-2.9708	-2.8563	-3.3292	336.022	121.289	408.904	114.541	320.943	320.886	430.147	451.025	442.067	376.957	117.429	107.328	423.353	379.336	114.060	391.559	0.001015	0.0013144	0.00015293	622.46	4.5061e-06	6.1168e-06	804.66	259.31	5.0785e-06	4.6942e-06	350.15	154.73	124.74	63.245	5.4198e-06	79.798	0.000243	0.00025205	6.4902e-05	534.31	2.4439e-06	2.7485e-06	686.69	220.98	2.4763e-06	2.7695e-06	294.34	129.78	104.6	53.662	2.4363e-06	66.692	276.588	192.628	136.423	116.591	263.452	298.010	114.997	122.388	260.339	128.056	118.746	122.242	124.766	129.089	211.151	125.265	-8191	255	
3241.840	1	1	0	0	0.045389	0.10646	0.20422	0.2588	0.136	0.13885	0.008695	0.018495	0.17908	0.17515	0.19125	0.031666	0.14778	0.1763	0.090144	0.11003	-2.2021	-3.1854	-3.1688	-2.5292	-3.3438	-2.9375	-2.8688	-3.4979	-2.5729	-2.9333	-3.3021	-2.5396	-3.2896	-3.0229	-2.6188	-3.3271	273.398	242.871	345.687	106.632	155.929	328.191	153.208	394.944	450.152	365.471	460.266	360.966	416.074	430.234	149.447	439.097	0.0012707	0.00015287	0.00013239	614.49	5.808e-06	6.5736e-06	809.65	259.65	6.8479e-06	8.0428e-06	350.25	155.32	125.47	63.441	5.3426e-06	80.975	0.00025666	0.0002408	6.2735e-05	529.16	2.583e-06	2.6859e-06	682.32	220.82	2.6355e-06	2.5034e-06	293.92	129.95	105.13	53.826	2.3679e-06	67.085	285.723	249.879	112.485	116.649	197.605	250.007	114.648	121.628	297.298	281.035	119.169	122.175	124.606	129.389	197.476	125.086	-8191	255	
3241.960	1	1	0	0	0.083468	0.34007	0.12874	0.18318	0.12725	0.12094	0.15232	0.047868	0.24793	0.2182	0.25748	0.042766	0.44802	0.072283	0.16283	0.093751	-2.2271	-2.9042	-3.2104	-2.5729	-3.2271	-2.9562	-2.7792	-3.5667	-2.6063	-2.8833	-3.3812	-2.5896	-3.275	-2.9813	-2.3	-3.3604	287.600	335.553	391.834	212.007	197.930	128.540	427.077	405.336	233.845	280.537	308.213	416.748	399.792	289.622	142.907	261.094	0.0011358	0.00039166	0.00016896	621.43	4.6916e-06	4.7558e-07	815.78	259.21	9.7315e-06	6.0614e-06	354.95	155.41	124.54	63.855	6.6594e-06	80.986	0.00026765	0.00024061	6.1986e-05	530.53	2.746e-06	2.6069e-06	689.93	221.14	2.6469e-06	2.4288e-06	295.55	130.66	105.12	53.995	2.2686e-06	67.204	274.818	221.913	209.745	116.698	279.090	136.522	114.913	121.914	280.303	263.977	119.153	122.680	125.123	129.483	236.328	125.062	-8191	255	
3242.032	1	1	0	0	0.31345	0.27666	0.12185	0.055698	0.069574	0.19345	0.082603	0.096952	0.194	0.17436	0.1058	0.16393	0.11355	0.37327	0.22142	0.1654	-2.1875	-2.8312	-3.3542	-2.7375	-3.0354	-3.1646	-2.6833	-3.4958	-2.5833	-2.7375	-3.4708	-2.5667	-2.9708	-3.2167	-2.65	-3.4458	351.014	264.593	353.971	155.554	401.396	197.684	310.629	376.632	395.654	194.139	445.919	432.870	121.919	389.410	192.446	437.108	0.0010831	0.00058786	6.5467e-05	615.9	8.2396e-06	3.9149e-06	799.75	259.09	6.4656e-06	5.9571e-06	346.94	154.35	123.9	63.258	6.5891e-06	78.949	0.00027237	0.00022891	5.7483e-05	531.21	2.7228e-06	2.4707e-06	681.84	219.99	2.692e-06	2.4092e-06	291.5	129.33	104.15	53.566	2.2465e-06	66.266	290.403	196.617	140.238	116.637	156.108	237.905	114.869	121.495	241.817	220.974	119.320	122.655	125.017	129.117	233.121	125.223	-8191	255	
3242.128	1	1	0	0	0.2977	0.26353	0.12942	0.2292	0.035031	0.12534	0.24195	0.14404	0.11717	0.44699	0.226	0.1945	0.11586	0.19971	0.24008	0.2634	-2.4625	-2.7062	-3.3729	-2.5208	-3.2354	-3.2667	-2.6979	-3.3021	-2.9875	-2.5729	-3.4188	-2.6854	-2.9729	-3.4521	-2.5375	-3.3479	245.213	435.545	391.722	135.898	306.530	378.990	334.446	111.328	239.502	331.596	252.250	427.419	120.679	133.735	283.278	377.327	0.0011014	0.00081288	0.00026815	614.64	3.0547e-06	5.468e-06	788.49	258.13	1.4058e-06	3.1292e-06	343	153.21	124.13	63.327	8.4426e-06	79.749	0.00026622	0.00021659	5.7657e-05	526.5	2.5326e-06	2.4465e-06	669.95	219.82	2.5679e-06	2.354e-06	289.09	129.25	104.33	53.546	2.2639e-06	66.572	279.425	172.551	136.161	116.851	329.354	314.771	115.070	122.254	287.269	248.753	119.604	122.284	125.049	129.477	248.867	125.351	-8191	255	
3242.224	1	1	0	0	0.19894	0.18694	0.29875	0.20122	0.22623	0.059518	0.14055	0.19243	0.04755	0.17271	0.13586	0.16599	0.13375	0.088094	0.042976	0.15198	-2.5104	-2.6479	-3.3521	-2.6583	-2.8833	-3.2479	-2.6708	-3.45	-3.0563	-2.4458	-3.3563	-2.7771	-2.9667	-3.2542	-2.5187	-3.2417	342.066	108.931	351.416	147.474	129.781	459.834	312.745	369.105	415.538	164.848	414.393	123.746	197.900	302.639	410.701	399.212	0.0011307	0.0006	0.00030424	620.38	9.225e-06	3.5561e-06	794.66	256.89	2.2759e-06	5.4546e-06	348.22	153.82	124.67	63.384	7.3323e-06	79.991	0.00026143	0.00020992	6.0295e-05	530.48	2.515e-06	2.3539e-06	673.36	219.24	2.5023e-06	2.2433e-06	290.97	129.88	104.49	53.595	2.4795e-06	66.995	289.496	226.683	454.033	116.891	272.053	202.197	115.137	122.122	244.789	195.788	118.624	122.989	125.468	129.797	168.751	125.749	-8191	255	
3242.343	1	1	0	0	0.10056	0.30659	0.11025	0.055243	0.20608	0.1368	0.22158	0.19926	0.16949	0.30531	0.065278	0.27312	0.032413	0.13963	0.046078	0.1974	-2.7354	-2.5375	-3.3937	-2.7292	-2.7917	-3.2854	-2.7167	-3.2292	-3.1729	-2.6229	-3.3833	-2.9104	-2.8333	-3.4521	-2.5375	-3.0875	112.740	278.200	163.510	168.076	414.224	287.861	404.653	371.948	405.391	400.029	453.965	439.777	391.534	407.872	132.823	456.604	0.0011632	0.0010759	0.0001936	616.14	6.4051e-06	1.7081e-06	792	255.75	5.1266e-06	9.3537e-06	343.98	153.04	123.08	63.509	5.9536e-06	78.291	0.00025786	0.00020713	6.4362e-05	530.4	2.5151e-06	2.2969e-06	673.36	219.14	2.4321e-06	2.2943e-06	289.33	128.88	103.41	53.525	2.6444e-06	65.719	281.331	167.859	191.340	116.880	246.353	268.735	114.959	122.116	320.705	259.914	119.819	122.524	125.397	129.608	291.180	125.530	-8191	255	
3242.439	1	1	0	0	0.014287	0.12358	0.072486	0.046366	0.17395	0.0684	0.031202	0.23878	0.26887	0.20585	0.27702	0.35882	0.063877	0.33654	0.1531	0.1976	-2.8125	-2.4271	-3.1604	-2.9792	-2.475	-3.3042	-2.675	-2.8833	-3.3896	-2.4229	-3.2958	-3.0271	-2.7729	-3.6	-2.7042	-3.0229	230.348	123.696	154.990	347.151	385.163	192.307	128.695	421.565	141.609	340.879	218.307	431.751	219.043	405.943	369.561	459.375	0.0011125	0.00066763	0.00044932	603.93	4.7531e-06	4.0163e-06	773.17	254.46	3.7614e-06	6.2876e-06	340.04	151.18	123.49	62.659	5.8827e-06	78.607	0.00025124	0.00020694	6.7669e-05	520.56	2.3417e-06	2.3409e-06	658.35	216.74	2.4084e-06	2.2296e-06	285.4	126.95	102.97	52.979	2.6382e-06	65.776	283.730	226.628	218.903	117.267	278.639	228.308	115.287	122.259	321.639	258.936	119.560	122.622	125.244	129.684	326.885	125.428	-8191	255	
3242.536	1	1	0	0	0.18179	0.22829	0.092442	0.18142	0.038232	0.096581	0.12923	0.13153	0.059827	0.08344	0.1858	0.10323	0.24947	0.17705	0.069938	0.2063	-2.8896	-2.5667	-3.275	-3.2458	-2.7833	-3.3312	-2.8312	-2.9146	-3.4708	-2.6833	-3.3375	-3.3333	-2.6396	-3.2771	-2.8042	-3.0812	294.755	162.427	384.229	414.369	114.447	292.078	354.177	397.370	215.595	336.693	121.773	295.951	421.141	207.454	282.628	420.366	0.001216	0.0007261	0.00028242	609.25	6.7032e-06	9.2958e-07	782.84	255.54	6.944e-06	4.441e-06	337.93	150.94	122.33	62.827	4.5859e-06	78.591	0.00024271	0.00021683	6.8256e-05	521.26	2.2221e-06	2.4039e-06	664.88	216.86	2.282e-06	2.4113e-06	286.55	127.43	102.53	53.22	2.6074e-06	65.782	280.725	207.749	153.062	116.781	304.043	198.144	115.368	122.414	318.424	315.935	119.529	123.032	125.347	130.293	175.317	125.751	-8191	255	
3242.632	1	1	0	0	0.078437	0.054412	0.14805	0.15295	0.17524	0.087075	0.12204	0.26928	0.12461	0.26229	0.32341	0.26847	0.033145	0.14249	0.20353	0.071604	-2.9854	-2.55	-2.9667	-3.1375	-2.5458	-3.3604	-3.0271	-2.8083	-3.4437	-2.7458	-3.2562	-3.3417	-2.5104	-3.3729	-2.8542	-2.8042	187.999	375.857	455.135	461.918	333.076	184.453	450.360	383.834	155.140	331.534	375.204	355.148	139.768	109.902	158.542	154.824	0.0011787	0.00089191	0.00028809	604.02	1.0904e-05	7.0682e-06	780.62	253.83	5.0963e-06	4.2716e-06	340.12	151.95	124.09	62.871	2.1425e-06	78.322	0.0002351	0.00022396	6.7435e-05	520.69	2.1976e-06	2.545e-06	665.47	216.5	2.2729e-06	2.4906e-06	286.02	127.66	103.01	52.968	2.4913e-06	65.547	274.604	163.797	431.875	117.121	296.946	276.390	114.631	122.299	256.596	260.613	119.446	122.580	125.142	129.941	409.889	125.236	-8191	255	
3242.728	1	1	0	0	0.30007	0.26739	0.21428	0.22014	0.27224	0.086329	0.057403	0.21682	0.13827	0.082013	0.16827	0.49999	0.26258	0.062529	0.22325	0.13028	-3.1083	-2.5521	-2.8521	-3.1458	-2.5646	-3.2958	-2.925	-2.5	-3.4375	-2.6396	-3.0958	-3.3438	-2.4708	-3.3458	-3.1354	-2.775	231.302	364.786	181.239	450.989	233.666	326.263	425.664	443.846	107.617	221.601	440.836	457.011	105.200	350.374	404.495	116.842	0.00099792	0.00036776	6.5014e-05	603.47	4.1814e-06	2.2344e-06	775	251.36	6.8297e-06	6.057e-06	338.02	149.95	122.48	62.446	3.7101e-06	78.066	0.00022919	0.00022993	6.1854e-05	517.37	2.2051e-06	2.5222e-06	656.95	214.62	2.2645e-06	2.5354e-06	284.26	126.29	102.35	52.833	2.335e-06	65.257	288.076	184.123	301.315	117.162	171.684	335.588	115.102	122.281	265.056	249.482	119.045	122.647	124.914	129.884	111.385	125.608	-8191	255	
3242.824	1	1	0	0	0.19185	0.1884	0.24113	0.17711	0.32444	0.16376	0.18753	0.045623	0.28394	0.22701	0.10991	0.28572	0.30359	0.083345	0.19812	0.22825	-2.9979	-2.725	-2.7604	-3.3521	-2.4271	-3.2354	-3.1104	-2.7417	-3.4458	-2.8917	-2.8896	-3.5146	-2.5042	-3.25	-3.1875	-2.5396	244.045	115.358	366.086	392.011	178.479	252.202	441.703	209.628	297.739	454.012	123.829	411.821	458.657	394.717	460.054	345.342	0.0011314	0.00043753	5.502e-05	608.82	8.0959e-06	7.4994e-06	786.9	255.67	5.9374e-06	4.6014e-06	338.98	152.6	123.5	63.018	3.1544e-06	79.719	0.000238	0.00023339	5.796e-05	519.8	2.3156e-06	2.4154e-06	665.08	216.32	2.4032e-06	2.4694e-06	286.09	127.95	103.08	53.307	2.2592e-06	66.234	285.574	209.648	386.274	117.268	255.647	192.447	114.405	122.513	268.600	253.321	119.818	122.837	125.261	129.875	244.319	125.560	-8191	255	
3242.945	1	1	0	0	0.079476	0.097568	0.16264	0.15536	0.12931	0.057629	0.051307	0.094162	0.11319	0.12183	0.21171	0.29725	0.10133	0.213	0.082811	0.2225	-2.95	-2.7104	-2.5917	-3.4042	-2.7958	-2.9375	-3.3479	-2.6167	-3.275	-3.0167	-2.7896	-3.5	-2.7146	-3.1312	-3.1792	-2.5563	292.548	264.623	266.110	449.465	412.399	252.576	237.498	176.813	169.510	220.132	283.466	411.949	402.326	425.961	229.255	441.669	0.0010326	0.00064215	0.00023214	613.26	9.4762e-06	5.7535e-06	798.92	255.97	7.6172e-06	6.8431e-06	346.42	155.58	123.92	63.175	4.0466e-06	80.453	0.00024358	0.00022161	5.4337e-05	523.99	2.271e-06	2.2714e-06	676.99	217.66	2.4196e-06	2.3367e-06	289.61	129.68	103.9	53.482	2.1619e-06	66.49	276.345	176.524	139.527	117.172	234.206	190.000	115.743	122.325	303.621	258.534	119.954	123.067	125.336	130.190	448.903	125.705	-8191	255	
3243.041	1	1	0	0	0.3143	0.010011	0.02985	0.20748	0.064449	0.30793	0.16436	0.12744	0.27666	0.11658	0.17578	0.30129	0.20158	0.25513	0.17327	0.27905	-3.025	-3.0646	-2.5187	-3.4688	-2.7562	-3.1083	-3.4188	-2.6958	-3.1396	-3.0208	-2.8125	-3.4854	-2.6271	-3.0479	-3.4042	-2.7479	245.684	107.496	277.909	462.267	104.993	235.679	445.466	455.162	249.501	429.160	381.463	394.325	392.624	413.002	344.572	449.823	0.0011432	0.00031105	0.00026089	605.64	6.0937e-06	3.8991e-06	787.05	254.14	4.0002e-06	1.8715e-06	338.91	152.85	123.18	62.968	5.7633e-06	79.381	0.00024973	0.00021377	5.3629e-05	519.49	2.4739e-06	2.226e-06	662.93	216.08	2.4134e-06	2.2472e-06	284.59	127.9	102.77	53.119	2.0804e-06	65.904	281.555	389.656	149.102	117.353	162.717	237.247	115.456	122.667	282.161	435.090	119.764	122.644	125.621	130.301	285.338	125.934	-8191	255	
3243.135	1	1	0	0	0.093103	0.22543	0.052007	0.038939	0.12668	0.18299	0.2139	0.11102	0.18082	0.10158	0.023884	0.20862	0.21016	0.11446	0.25084	0.35397	-2.6688	-2.9896	-2.4917	-3.25	-2.7292	-2.8833	-3.4313	-2.6708	-3.1312	-3.1458	-2.4562	-3.375	-2.85	-2.8167	-3.3063	-2.7521	292.946	388.596	425.643	252.246	198.279	274.881	439.879	309.926	198.697	435.573	217.084	180.678	446.808	107.973	227.086	440.365	0.0011579	0.00046298	0.00017053	602.36	4.5883e-06	6.8662e-06	786.02	252.24	4.1557e-06	1.9379e-06	343.39	153.53	124.09	62.926	6.4129e-06	80.124	0.00024313	0.00020546	5.099e-05	519.86	2.3587e-06	2.164e-06	665.71	215.56	2.3915e-06	2.1786e-06	285.42	128.6	103.4	53.121	2.0438e-06	66.481	287.098	200.981	139.036	117.494	225.170	350.746	115.249	122.340	261.499	353.881	119.277	122.903	124.809	130.100	251.883	125.632	-8191	255	
3243.231	1	1	0	0	0.27264	0.25493	0.069376	0.10642	0.12409	0.10648	0.22186	0.086839	0.061367	0.20444	0.096217	0.04226	0.21052	0.11703	0.047089	0.14543	-2.6146	-3.3167	-2.4625	-3.3792	-2.9917	-2.8292	-3.3833	-2.8146	-2.9562	-3.2562	-2.6729	-3.3104	-2.9646	-2.6521	-3.3458	-2.7125	121.529	372.937	336.751	393.079	220.421	226.361	321.292	241.167	401.254	107.730	447.324	415.359	429.187	114.569	298.075	437.708	0.0010636	0.00043868	0.00036935	608.94	4.9081e-06	6.7936e-06	794.56	257.34	1.0552e-06	5.9578e-06	346.05	154.61	123.99	63.402	9.854e-06	80.013	0.00023886	0.00020113	5.0826e-05	523.99	2.3025e-06	2.1254e-06	673.24	218.56	2.2312e-06	2.1196e-06	288.72	129.78	103.62	53.618	2.0948e-06	66.489	282.183	282.480	178.566	117.610	270.520	245.860	115.428	123.130	346.572	248.861	119.705	123.460	125.490	130.234	233.272	125.543	-8191	255	
3243.327	1	1	0	0	0.20336	0.078376	0.19253	0.14786	0.03003	0.15494	0.23949	0.28822	0.30286	0.20076	0.34625	0.12434	0.31401	0.13128	0.094142	0.2301	-2.4458	-3.2792	-2.4437	-3.1063	-3.1708	-2.4875	-3.4604	-2.5979	-2.925	-3.2979	-2.5521	-3.2667	-3.2708	-2.6833	-3.2333	-2.9104	344.635	214.566	304.169	405.004	206.614	238.321	118.928	437.308	309.256	154.045	420.501	421.147	416.479	348.910	324.844	387.996	0.0010775	0.00052319	0.00015172	611.69	4.6527e-06	3.6931e-06	788.02	254.85	3.0374e-06	2.0392e-06	341.25	152.83	123.7	63.542	4.9105e-06	78.84	0.00022801	0.00019056	5.2935e-05	522.73	2.207e-06	2.0385e-06	666.9	216.78	2.1361e-06	2.0578e-06	285.12	128.28	102.73	53.281	2.1803e-06	65.893	289.731	211.534	203.455	117.057	432.507	301.897	115.280	122.555	288.390	257.185	120.070	123.520	125.466	130.247	306.344	126.059	-8191	255	
3243.424	1	1	0	0	0.19145	0.25653	0.033153	0.087814	0.15881	0.22757	0.021692	0.16721	0.2499	0.13941	0.13158	0.10096	0.31493	0.052126	0.16791	0.059006	-2.4396	-3.4688	-2.575	-3.0417	-3.1708	-2.5521	-3.5	-3.0604	-2.8083	-3.4583	-2.5854	-3.1167	-3.3271	-2.5792	-3.4104	-3.0542	322.782	398.380	362.001	425.554	440.541	459.832	147.353	348.102	383.677	166.425	456.968	463.476	401.657	363.444	271.546	139.839	0.0010367	0.00052066	0.00020865	610.29	9.9694e-06	4.88e-06	788.11	255.18	6.1417e-06	2.6927e-06	345.2	153.24	123.69	63.542	5.1535e-06	79.785	0.00022069	0.00018971	5.669e-05	521.81	2.1689e-06	2.026e-06	666.5	216.13	2.1107e-06	2.0018e-06	287.9	128.79	103.14	53.399	2.3306e-06	66.469	279.959	179.204	127.248	117.803	311.025	291.972	115.553	122.377	309.933	246.314	119.557	122.899	125.239	129.869	246.350	125.668	-8191	255	
3243.520	1	1	0	0	0.039172	0.36215	0.13453	0.27239	0.076046	0.19021	0.084478	0.29484	0.058703	0.2385	0.13089	0.22287	0.20816	0.27038	0.040994	0.18775	-2.3375	-3.3854	-2.6021	-2.9896	-3.2083	-2.5938	-3.4083	-3.1708	-2.6063	-3.3292	-2.7479	-3.1542	-3.2458	-2.5958	-3.0687	-3.3667	410.399	124.837	312.525	349.880	316.908	259.013	335.336	418.182	143.233	110.702	346.331	420.084	447.910	166.425	348.838	404.936	0.0012437	0.00071384	0.0002055	616.44	6.7662e-06	4.8066e-06	798.48	255.3	7.7998e-06	5.8655e-06	343.21	154.41	123.09	63.615	8.5257e-06	80.042	0.00021771	0.00019017	5.8779e-05	523.94	2.1135e-06	2.0327e-06	674.66	217.91	2.0198e-06	2.0634e-06	288.79	129.54	103.22	53.646	2.3314e-06	66.833	286.296	193.909	240.224	117.207	230.540	315.185	115.435	122.684	251.131	260.894	119.356	122.380	125.053	129.336	283.784	125.257	-8191	255	
3243.616	1	1	0	0	0.060511	0.11287	0.1783	0.054307	0.14113	0.17721	0.26638	0.29471	0.11856	0.16146	0.2739	0.20322	0.21553	0.071099	0.058424	0.14596	-2.2417	-3.3042	-2.7583	-2.7562	-3.5021	-2.6604	-3.2146	-3.1312	-2.6396	-3.2354	-2.8979	-2.7771	-3.4375	-2.6833	-3.1271	-3.2583	370.947	390.867	245.906	342.826	436.167	105.550	369.935	453.009	407.887	438.817	434.442	397.394	459.486	179.030	282.882	354.591	0.001214	0.00065972	0.00012611	608.15	6.079e-06	4.5255e-06	784.63	253.96	6.0254e-06	1.2832e-06	338.13	153.19	124.05	63.135	1.1088e-05	79.018	0.00020958	0.00019125	5.9607e-05	519.39	2.0453e-06	2.0861e-06	666.4	216.38	1.9304e-06	2.1011e-06	284.8	128.16	102.94	53.224	2.2613e-06	66.036	281.679	138.448	177.909	116.031	196.165	296.936	114.796	122.405	282.118	371.461	119.367	122.548	125.026	129.037	275.515	125.154	-8191	255	
3243.737	1	1	0	0	0.20864	0.062267	0.16201	0.13218	0.084767	0.19055	0.31917	0.20102	0.24694	0.19109	0.20849	0.14671	0.39593	0.29699	0.25648	0.1224	-2.1542	-3.3271	-2.7229	-2.7667	-3.2958	-2.6625	-3.0708	-3.2	-2.4021	-3.2021	-2.9062	-2.7458	-3.4542	-2.6937	-2.8375	-3.4479	196.014	240.416	409.606	343.118	405.417	430.314	352.119	334.939	405.190	226.871	160.603	127.124	419.799	104.902	284.486	418.730	0.0010869	0.00038614	0.00019676	612.83	6.6947e-06	7.8594e-07	784.42	251.65	3.8738e-06	3.9407e-06	343.02	153.88	123.8	63.102	4.6048e-06	80.074	0.00020176	0.00020452	5.5409e-05	521.73	1.9107e-06	2.1969e-06	665.21	215.05	1.9254e-06	2.2937e-06	286.3	128.75	102.87	53.402	2.2028e-06	66.366	285.914	238.209	180.180	116.430	240.569	200.519	114.476	121.658	279.454	303.607	119.499	122.856	124.681	129.254	327.397	125.053	-8191	255	
3243.833	1	1	0	0	0.40951	0.22905	0.23884	0.21353	0.04574	0.14711	0.23754	0.32602	0.15455	0.060051	0.074837	0.40782	0.11259	0.19243	0.15874	0.18209	-2.2771	-3.1833	-2.9437	-2.625	-3.2812	-2.5667	-2.9708	-3.4062	-2.6333	-3.2271	-2.9	-2.6688	-3.3937	-2.8208	-2.8229	-3.4521	221.809	181.517	227.031	137.398	122.083	349.910	239.815	419.388	372.635	222.641	167.585	443.386	445.198	420.554	249.443	385.224	0.0010005	0.00036827	0.00023365	613.18	5.2137e-06	8.2783e-06	789.25	255.58	7.0793e-06	4.5288e-06	343.64	154.16	124.59	63.348	4.3487e-06	80.746	0.00020822	0.00021399	5.5802e-05	522.08	2.0461e-06	2.3101e-06	671.34	217.33	2.0739e-06	2.2985e-06	286.85	129.47	103.76	53.594	2.1756e-06	66.989	289.937	114.913	196.558	116.582	220.651	265.726	114.922	121.390	251.450	254.970	119.460	122.347	124.774	129.317	358.514	124.901	-8191	255	
3243.904	1	1	0	0	0.056341	0.29005	0.013121	0.28465	0.15653	0.054716	0.059656	0.077575	0.3695	0.10089	0.033684	0.16031	0.063155	0.11701	0.19716	0.14136	-2.2333	-3.0604	-3.0771	-2.4042	-3.2146	-2.8271	-2.9688	-3.3958	-2.5646	-3.2521	-3.1167	-2.6229	-3.3771	-3.0125	-2.5854	-3.4875	114.056	257.387	375.070	331.802	212.530	386.343	374.217	388.643	457.158	252.549	187.766	380.378	359.816	424.201	200.557	401.458	0.0013485	0.00021071	0.0002546	614.09	5.4555e-06	5.3329e-06	788	253.44	1.2857e-05	8.5562e-06	341.95	154.84	123.86	63.273	6.1186e-06	79.07	0.00022103	0.00021376	5.4398e-05	520.69	2.1279e-06	2.3135e-06	669.48	215.95	2.1855e-06	2.2904e-06	285.04	128.91	103.04	53.531	2.0506e-06	66.028	281.256	195.483	215.800	116.656	234.688	273.793	114.566	121.739	293.088	234.716	119.243	122.480	124.810	129.016	226.512	125.165	-8191	255	
3244.025	1	1	0	0	0.39884	0.28565	0.14678	0.47783	0.11228	0.09586	0.11615	0.15657	0.25846	0.21413	0.19404	0.28436	0.17861	0.3788	0.2094	0.13793	-2.2042	-3.0417	-3.2771	-2.5875	-3.2667	-2.9458	-2.7917	-3.3625	-2.7396	-2.9917	-3.3604	-2.5271	-3.2979	-3.1458	-2.5812	-3.3708	331.119	154.334	142.446	139.388	185.944	167.617	135.148	370.353	386.093	452.560	413.423	411.873	434.816	462.523	298.625	371.671	0.0012086	0.00043121	0.0001697	610.93	7.6058e-06	2.5689e-06	786.77	255.07	5.0486e-06	9.7366e-06	342.69	152.87	122.98	62.737	5.1951e-06	79.489	0.00022932	0.00019992	5.3441e-05	517.34	2.1886e-06	2.2147e-06	664.64	215.73	2.3022e-06	2.1616e-06	284.43	127.99	102.82	53.166	2.012e-06	65.874	282.211	201.156	156.560	116.284	256.379	324.917	114.814	121.881	163.104	208.734	119.433	122.132	125.055	129.195	295.756	125.179	-8191	255	
3244.121	1	1	0	0	0.29892	0.27361	0.33103	0.2957	0.13047	0.141	0.13456	0.19483	0.15754	0.18292	0.1078	0.16699	0.18507	0.17142	0.25627	0.1387	-2.2417	-2.9542	-3.2562	-2.5417	-3.2271	-2.9521	-2.8208	-3.35	-2.7479	-2.7562	-3.5167	-2.7604	-3.3271	-3.2062	-2.6042	-3.3979	160.821	178.052	206.245	309.572	297.450	362.727	253.823	381.679	384.245	440.199	175.906	448.247	419.917	161.374	360.904	348.557	0.0010017	0.00076784	0.00019968	607.19	5.2255e-06	5.6342e-06	793.4	254.78	1.142e-06	3.314e-06	342.4	153.14	123.17	63.241	4.1082e-06	80.276	0.00023553	0.00019556	5.1082e-05	518.4	2.3093e-06	2.1136e-06	667.98	216.14	2.2575e-06	2.0446e-06	284.66	128.77	103.16	53.431	1.9119e-06	66.762	282.592	161.646	181.315	115.889	262.948	187.053	114.681	121.830	138.875	183.353	118.938	122.542	124.670	129.056	293.667	125.148	-8191	255	
3244.216	1	1	0	0	0.14221	0.17894	0.14585	0.17583	0.1215	0.11565	0.11298	0.11919	0.25901	0.083335	0.082585	0.56355	0.18345	0.36239	0.23377	0.16497	-2.5333	-2.6833	-3.3146	-2.6437	-3.1375	-3.1437	-2.6375	-3.2354	-2.7854	-2.7271	-3.4188	-2.6604	-3.2604	-3.4354	-2.425	-3.4083	252.657	456.232	171.706	391.906	256.119	371.710	203.109	152.249	222.101	282.113	224.586	117.918	389.581	444.114	137.996	411.021	0.001083	0.00024173	0.00012023	609.14	9.8356e-06	5.647e-06	796.08	255.05	6.6138e-06	6.174e-06	334.55	152.09	122.53	62.531	5.6257e-06	78.72	0.00023285	0.00018199	5.0249e-05	520.27	2.1822e-06	2.0453e-06	666.89	216.13	2.2356e-06	2.0168e-06	282.89	127.98	102.37	52.915	1.9519e-06	65.584	289.255	202.400	110.619	116.696	227.337	308.096	114.398	121.749	312.706	229.003	119.086	122.804	125.104	129.346	241.690	125.068	-8191	255	
3244.313	1	1	0	0	0.11286	0.14421	0.20879	0.11837	0.14528	0.035585	0.28368	0.2589	0.19638	0.11369	0.052288	0.35635	0.048192	0.22947	0.18698	0.16836	-2.4979	-2.4917	-3.4271	-2.5896	-3.1521	-3.2917	-2.6312	-3.2687	-3.025	-2.5271	-3.2958	-2.5833	-2.9188	-3.3417	-2.4375	-3.1583	230.812	234.223	298.057	312.812	203.428	135.760	450.117	417.372	368.523	318.110	247.846	371.085	403.124	314.515	179.690	113.720	0.0011131	0.00019391	0.00012301	599.67	8.0956e-06	6.9164e-06	786.89	252.21	9.6658e-07	7.7426e-06	335.08	152.36	122.65	62.302	3.7513e-06	78.532	0.00022685	0.00018375	4.8938e-05	514.86	2.1348e-06	2.0668e-06	659.85	215.07	2.1399e-06	1.9452e-06	280.78	127.72	102.09	52.716	2.0279e-06	65.659	290.357	249.534	156.823	116.664	267.004	246.091	114.609	121.639	119.587	179.598	119.258	122.650	125.208	128.960	270.649	125.323	-8191	255	
3244.432	1	1	0	0	0.15637	0.12714	0.14165	0.05244	0.23562	0.044593	0.34026	0.28656	0.14855	0.29846	0.1452	0.21802	0.21167	0.14727	0.14609	0.18695	-2.6625	-2.525	-3.3688	-2.9104	-2.8458	-3.4188	-2.5792	-3.1083	-2.9146	-2.5896	-3.2562	-2.7438	-2.9417	-3.5208	-2.4458	-3.225	322.471	445.532	202.097	155.025	358.220	303.328	413.879	431.353	378.626	187.830	115.894	382.709	271.975	437.546	145.516	220.877	0.0011584	0.00037879	0.00022114	602.2	9.1969e-06	4.0492e-06	788.33	251.57	4.6435e-06	4.4982e-06	339.52	151.85	122.77	62.699	6.2391e-06	78.921	0.00021728	0.00017561	5.1813e-05	515.57	2.0473e-06	2.0094e-06	667.1	214.6	2.0773e-06	1.8518e-06	284.72	128.25	102.25	53.011	2.1995e-06	66.051	287.946	136.632	121.066	116.498	245.904	234.093	114.927	121.782	311.991	252.795	119.435	122.546	124.834	129.378	221.964	125.343	-8191	255	
3244.528	1	1	0	0	0.2861	0.13372	0.1712	0.1576	0.14473	0.13676	0.093859	0.35111	0.45674	0.034794	0.16322	0.34032	0.23443	0.19571	0.15703	0.20893	-2.6188	-2.6604	-3.3208	-3.0042	-2.5083	-3.2958	-2.6417	-3.0896	-3.2062	-2.4042	-3.1042	-3.1458	-2.6104	-3.3271	-2.8438	-3.0229	169.739	236.379	231.398	364.695	463.286	295.779	170.070	294.240	358.147	343.579	370.795	450.316	398.746	168.797	440.459	338.680	0.0010694	0.00053981	0.00035291	605.22	4.3413e-06	2.0524e-06	786.77	253.24	5.8095e-06	7.0847e-06	337.44	153.24	122.98	63.011	8.5984e-06	78.415	0.00021717	0.00017597	5.5929e-05	518.73	2.0291e-06	1.9131e-06	668	215.71	2.0487e-06	1.8965e-06	283.62	128.45	102.47	53	2.2392e-06	65.431	279.379	174.032	159.870	115.606	237.726	264.367	114.374	121.788	264.368	236.280	119.416	122.201	124.740	129.072	251.222	125.201	-8191	255	
3244.625	1	1	0	0	0.15029	0.014738	0.089391	0.10941	0.059518	0.16824	0.20044	0.21155	0.14062	0.10051	0.050469	0.21363	0.070654	0.16287	0.095779	0.33355	-2.9917	-2.6646	-3.2583	-3.0104	-2.6771	-3.3167	-2.7687	-2.8167	-3.2854	-2.5896	-3.2604	-3.2354	-2.6896	-3.4396	-2.7313	-2.9042	386.861	213.187	359.631	391.711	137.781	183.446	113.028	414.490	208.060	439.311	109.979	129.495	436.164	426.369	297.841	377.600	0.0010687	0.000207	0.00019533	606.02	5.7447e-06	4.6761e-06	777.08	252.78	5.1579e-06	2.2278e-06	336.86	151.88	122.69	62.86	9.3433e-06	78.612	0.0002091	0.00017328	5.6452e-05	514.93	1.9025e-06	1.949e-06	657.83	214	1.934e-06	1.9566e-06	282.12	127.27	102.14	52.86	2.2564e-06	65.296	279.290	203.719	204.782	116.383	296.463	208.717	114.553	122.042	253.265	190.500	118.888	122.152	125.173	129.433	250.618	125.194	-8191	255	
3244.721	1	1	0	0	0.051274	0.22773	0.16522	0.13423	0.062726	0.075247	0.23017	0.158	0.080509	0.25131	0.13624	0.12721	0.16274	0.13485	0.10479	0.096402	-2.8583	-2.3937	-3.0812	-3.1521	-2.55	-3.6104	-2.9062	-2.7729	-3.4688	-2.4583	-3.275	-3.2354	-2.4083	-3.3937	-2.8417	-2.6958	420.132	153.964	347.923	199.611	373.724	110.491	351.442	433.704	186.132	264.267	316.238	408.159	342.985	189.728	122.819	456.918	0.0012071	0.00022698	0.00029473	602.33	6.8662e-06	4.4037e-06	777.81	251.65	6.4373e-06	3.79e-06	340.2	152.68	121.99	62.375	4.0072e-06	78.833	0.00020742	0.00018617	5.6232e-05	515.22	1.8931e-06	2.063e-06	660.6	214.07	1.9224e-06	2.0942e-06	284.1	128.09	101.68	52.939	2.1989e-06	65.769	282.741	218.641	198.170	115.926	259.649	239.343	114.465	122.172	332.550	205.266	119.158	122.389	124.821	129.537	293.423	125.232	-8191	255	
3244.817	1	1	0	0	0.066425	0.14838	0.13479	0.34955	0.27747	0.075929	0.12097	0.052792	0.24229	0.24521	0.048371	0.20329	0.14891	0.28558	0.14148	0.16136	-2.9333	-2.6104	-2.7979	-3.3271	-2.5354	-3.2021	-2.9396	-2.8625	-3.275	-2.6583	-3.0021	-3.4437	-2.5771	-3.4083	-2.9146	-2.5521	156.481	126.844	331.205	412.688	458.003	271.158	384.467	340.484	168.655	245.871	395.923	378.646	136.695	438.109	131.243	446.562	0.0012056	0.00090821	3.4243e-05	605.54	6.2594e-06	4.5359e-06	787.26	249.96	5.889e-06	6.2528e-06	337	151.62	122.4	62.544	3.5589e-06	78.565	0.00020465	0.00020108	5.3553e-05	515.36	1.7889e-06	2.1705e-06	664.22	213.65	1.8836e-06	2.1393e-06	281.98	127.8	101.71	52.955	2.0647e-06	65.386	280.957	199.014	339.771	116.641	309.822	306.189	114.515	121.953	281.136	267.104	119.482	122.363	124.964	129.352	263.706	125.169	-8191	255	
3244.913	1	1	0	0	0.1506	0.066591	0.015584	0.1825	0.038284	0.093524	0.15115	0.12026	0.09113	0.096776	0.13763	0.11775	0.12429	0.20402	0.17695	0.18739	-2.8729	-2.6917	-2.8792	-3.2854	-2.4875	-3.1896	-3.3042	-2.5667	-3.2021	-2.6896	-3.025	-3.4896	-2.5583	-3.3812	-3.0812	-2.7271	142.379	334.530	166.800	260.389	273.361	185.819	367.658	210.001	293.653	255.457	398.218	400.973	295.091	446.205	292.965	378.895	0.0011386	0.00029834	0.00012212	597.72	5.4262e-06	7.6179e-06	771.76	251.04	7.4487e-06	4.2093e-06	332.02	151.02	122.38	62.482	2.5299e-06	78.001	0.00020179	0.00019997	5.2017e-05	511.14	1.9697e-06	2.2046e-06	653.28	212.46	1.9754e-06	2.2172e-06	277.48	126.42	101.43	52.668	2.0375e-06	64.756	279.532	162.076	208.355	116.609	269.290	298.426	114.647	121.765	307.457	186.638	119.481	122.503	125.002	129.608	232.120	125.508	-8191	255	
3245.034	1	1	0	0	0.10658	0.28838	0.088133	0.22543	0.24981	0.1837	0.18583	0.14329	0.11282	0.21854	0.34439	0.17928	0.3	0.1585	0.3439	0.33265	-3.0792	-2.6521	-2.7771	-3.4333	-2.4708	-3.1312	-3.3729	-2.5938	-3.1542	-3.0563	-3.0896	-3.3937	-2.6458	-3.275	-3.2042	-2.6312	313.011	454.653	244.085	369.495	205.087	156.505	353.101	353.359	167.465	173.820	384.211	436.333	115.168	326.486	293.576	386.381	0.0011178	0.0005388	0.00024602	597.79	1.1338e-05	4.4782e-06	774.05	250.73	5.5792e-06	4.2517e-06	337.8	154.01	122.52	62.622	3.67e-06	78.663	0.00021755	0.00020157	5.1439e-05	510.14	2.0624e-06	2.1704e-06	656.08	213.29	2.1283e-06	2.1556e-06	281.28	128.38	102.18	52.928	2.0062e-06	65.582	286.634	113.421	128.128	116.804	247.260	287.144	114.427	122.249	303.375	215.042	118.875	122.342	124.837	129.632	193.196	125.228	-8191	255	
3245.128	1	1	0	0	0.13702	0.17938	0.21993	0.0568	0.12507	0.17024	0.14419	0.033135	0.091292	0.073593	0.12291	0.31191	0.38718	0.20515	0.31632	0.19514	-2.9688	-3.0083	-2.625	-3.4521	-2.6771	-2.9917	-3.5375	-2.6042	-3.3625	-3	-2.6292	-3.4729	-2.8667	-3.0354	-3.3688	-2.5917	397.989	284.559	183.292	265.976	252.788	251.560	315.134	184.872	212.047	461.331	128.320	449.694	367.128	369.235	403.545	434.658	0.001148	0.00057971	0.00033213	609.6	1.2619e-05	2.2027e-06	781.26	252.78	6.9134e-06	6.3395e-06	341.1	153.41	122.61	63.165	1.5411e-06	78.819	0.00022376	0.00019648	5.0283e-05	516.61	2.1461e-06	2.0876e-06	661.78	214.23	2.2982e-06	2.126e-06	282.28	128.42	102.33	53.084	1.9393e-06	65.59	284.090	149.594	207.742	116.683	227.688	314.819	114.505	122.184	326.786	225.375	119.323	122.648	124.748	129.186	184.115	125.561	-8191	255	
3245.202	1	1	0	0	0.27928	0.17514	0.23624	0.20137	0.16885	0.062242	0.10795	0.19413	0.091775	0.33411	0.10614	0.077517	0.30262	0.1093	0.050278	0.11616	-2.8375	-3.2083	-2.5021	-3.4813	-2.8542	-2.9583	-3.525	-2.6708	-3.2625	-3.1833	-2.5167	-3.6271	-2.8604	-2.8187	-3.2104	-2.7354	463.545	340.404	389.504	401.812	189.228	442.171	401.891	115.657	264.704	225.596	253.410	434.566	448.470	451.951	429.467	390.591	0.0012215	0.00060245	0.00035314	600.52	6.1364e-06	1.834e-06	762.98	249.13	1.2147e-06	8.5263e-06	334.7	152.2	121.3	62.054	4.9281e-06	77.84	0.00023183	0.00019074	4.8626e-05	510.99	2.2003e-06	2.0256e-06	647.37	212.57	2.1981e-06	1.9988e-06	278.26	126.84	101.45	52.515	1.9125e-06	64.648	279.084	186.251	178.970	116.525	309.399	184.020	114.573	122.093	363.369	272.869	119.688	122.291	124.613	129.587	275.872	125.078	-8191	255	
3245.296	1	1	0	0	0.39331	0.28827	0.13214	0.32916	0.10003	0.23851	0.034177	0.057071	0.2781	0.18749	0.0060658	0.14293	0.11791	0.26415	0.1672	0.14647	-2.5917	-3.1646	-2.6667	-3.4542	-2.7542	-2.6813	-3.5146	-2.8167	-3.1354	-3.2438	-2.6542	-3.4188	-3.0729	-2.7479	-3.4458	-2.5896	235.994	323.738	427.835	265.777	304.387	176.896	107.642	333.318	171.743	453.182	350.278	450.165	418.603	404.226	142.949	421.601	0.0011109	0.00044148	0.0002671	600.01	1.017e-05	6.9705e-07	770.05	250.43	5.9918e-06	7.5444e-06	336.52	151.26	122.56	61.872	4.8272e-06	78.341	0.00022444	0.00018484	4.7703e-05	510.66	2.1715e-06	1.959e-06	649.96	212.84	2.1004e-06	2.0013e-06	278.69	127.09	101.71	52.359	1.8837e-06	65.1	284.577	212.308	160.994	116.327	286.829	401.086	114.565	121.653	284.207	208.078	119.367	121.982	124.764	129.330	247.024	125.391	-8191	255	
3245.417	1	1	0	0	0.23174	0.099887	0.13945	0.15213	0.14378	0.11661	0.30924	0.14896	0.089927	0.11176	0.14458	0.11338	0.18395	0.15331	0.12307	0.35167	-2.6417	-3.3042	-2.7292	-3.3104	-2.8958	-2.5563	-3.4104	-2.6854	-2.8417	-3.4375	-2.6104	-3.3542	-3.1604	-2.675	-3.4583	-2.8854	349.147	123.575	120.540	119.858	228.947	284.845	397.421	352.373	288.904	232.402	327.389	418.697	457.215	387.906	171.583	435.470	0.0010114	0.00080381	0.00019328	598.91	4.2219e-06	4.0086e-06	768.86	251.68	4.1565e-06	1.9292e-06	333.9	153.62	122	62.529	6.6421e-06	77.583	0.00021391	0.00017892	4.8152e-05	513.11	2.1396e-06	1.8878e-06	655.64	214.24	2.0308e-06	1.9732e-06	280.74	128.12	101.92	52.544	2.0378e-06	65.102	287.724	236.786	108.495	116.657	342.521	321.094	114.855	121.909	204.492	297.802	119.469	122.421	124.855	129.399	262.844	125.004	-8191	255	
3245.513	1	1	0	0	0.12626	0.051696	0.16769	0.076486	0.16011	0.26915	0.1512	0.2236	0.24382	0.071535	0.26136	0.21765	0.071576	0.19937	0.17708	0.18802	-2.4917	-3.3646	-2.6771	-3.1417	-3.1063	-2.6542	-3.525	-2.9188	-2.6917	-3.4688	-2.8	-3.225	-3.2062	-2.6021	-3.3146	-3.0708	460.809	233.672	304.002	379.490	293.344	324.312	414.498	388.406	460.971	345.071	118.791	437.693	447.910	432.074	411.901	336.048	0.00096661	0.00081427	0.0002628	589.79	2.513e-06	4.1838e-06	765.79	249.53	4.123e-06	4.5102e-06	334.3	149.52	121.04	62.194	7.2684e-06	76.648	0.00020994	0.00017223	5.0369e-05	508.67	2.0928e-06	1.8472e-06	646.43	211.53	2.0528e-06	1.8931e-06	276.97	125.8	100.99	52.036	2.1437e-06	64.033	284.296	181.845	193.590	116.683	317.802	254.420	115.013	122.080	276.797	446.640	119.622	122.650	124.380	129.373	275.869	125.272	-8191	255	
3245.609	1	1	0	0	0.2993	0.25178	0.36594	0.17009	0.20854	0.14826	0.055772	0.068169	0.23013	0.12322	0.34056	0.15783	0.023918	0.057448	0.016862	0.060744	-2.3583	-3.4646	-2.65	-3.1417	-3.3292	-2.5083	-3.4958	-3.0833	-2.6104	-3.4292	-2.8771	-3.2667	-3.4813	-2.7646	-3.3479	-3.1708	242.906	256.137	368.425	441.074	332.273	177.547	250.225	250.932	157.250	369.535	438.655	301.021	387.003	219.702	356.103	410.806	0.00079903	0.00085307	0.00010019	595.14	7.0605e-06	2.9462e-06	763.47	247.61	1.9088e-06	6.6292e-06	336.01	149.6	119.62	61.499	3.274e-06	76.981	0.00020582	0.00017478	5.5642e-05	508.36	2.0393e-06	1.8435e-06	646.7	211.67	1.9226e-06	1.9166e-06	278.64	126.27	100.52	51.999	2.2422e-06	64.24	275.068	232.437	132.558	116.708	238.393	199.838	115.013	122.101	337.292	251.482	119.126	122.657	124.727	129.431	270.118	125.315	-8191	255	
3245.705	1	1	0	0	0.103	0.13604	0.24647	0.27406	0.14463	0.10637	0.18832	0.15389	0.19936	0.22886	0.05838	0.14839	0.060702	0.19224	0.027331	0.31696	-2.1813	-3.325	-2.8021	-3.0396	-3.5021	-2.8104	-3.3958	-3.2375	-2.5896	-3.5021	-2.8042	-2.9083	-3.2812	-2.5375	-3.1104	-3.2354	278.156	376.063	140.645	266.240	161.570	184.891	329.017	321.231	162.946	279.180	175.870	110.523	314.980	106.897	301.700	426.063	0.00095277	0.00061081	3.5123e-05	603.34	3.2833e-06	8.3671e-06	766.56	246.33	1.9941e-06	9.4482e-06	331.62	151.57	120.34	61.242	4.5058e-06	77.44	0.00020252	0.00017852	5.617e-05	511.12	1.9248e-06	2.0011e-06	651.47	211.13	1.9014e-06	2.0147e-06	278.92	127.07	100.68	52.017	2.2352e-06	64.68	281.319	175.335	279.417	116.791	300.927	272.624	114.760	122.137	307.803	244.304	119.843	122.884	124.969	129.638	249.758	125.162	-8191	255	
3245.801	1	1	0	0	0.13223	0.30912	0.1384	0.02082	0.24867	0.13938	0.047457	0.12916	0.1396	0.15693	0.42865	0.13409	0.20818	0.087182	0.17166	0.14752	-2.1937	-3.3667	-2.8354	-2.8042	-3.5	-2.7562	-3.2125	-3.1375	-2.5667	-3.3667	-2.9125	-2.9313	-3.4938	-2.9042	-3.0042	-3.3604	463.640	390.786	300.460	153.950	190.265	263.805	345.290	342.709	147.372	246.567	405.249	418.679	428.968	207.180	409.025	391.597	0.0012035	0.00025573	0.00033156	598.16	2.2231e-06	2.0402e-06	767.03	247.64	3.3992e-06	5.6861e-06	333.66	150.48	120.43	61.392	5.8256e-06	76.722	0.00020049	0.00019307	5.5387e-05	508.05	1.8738e-06	2.1118e-06	649.5	210.98	1.8223e-06	2.156e-06	278.71	125.65	100.2	51.75	2.1626e-06	63.858	281.177	443.020	184.294	116.950	212.277	170.293	115.216	122.004	330.214	233.267	119.528	122.416	124.661	129.890	302.167	125.695	-8191	255	
3245.897	1	1	0	0	0.31617	0.18905	0.28644	0.13066	0.20769	0.30759	0.16346	0.11323	0.30146	0.037093	0.1848	0.19754	0.050196	0.41344	0.16753	0.17786	-2.2562	-3.4458	-2.7875	-2.9083	-3.5167	-2.7292	-3.1479	-3.3979	-2.6542	-3.25	-2.9542	-2.6729	-3.5479	-2.7042	-2.7458	-3.4917	362.310	204.408	171.839	317.422	417.061	125.450	391.601	195.694	147.100	401.998	198.397	308.651	366.874	447.544	148.321	114.245	0.0010569	0.0007317	0.00025502	591.04	5.7908e-06	5.0767e-06	771.38	249.48	8.8906e-06	4.5061e-06	330.55	150.44	120.48	61.766	1.4645e-06	77.403	0.00019698	0.00020249	5.4326e-05	506.48	1.8916e-06	2.2216e-06	648.96	211.59	1.9309e-06	2.2263e-06	277.09	125.83	100.23	52.058	2.0581e-06	64.135	285.041	137.252	193.012	116.669	253.718	330.239	115.008	122.322	250.874	288.698	119.694	122.543	125.187	129.647	244.407	125.032	-8191	255	
3245.993	1	1	0	0	0.24958	0.16909	0.15983	0.13883	0.25491	0.038832	0.20068	0.073468	0.1451	0.11481	0.10536	0.062352	0.050475	0.17641	0.20912	0.089459	-2.1813	-3.1896	-2.9646	-2.5833	-3.5271	-2.8604	-2.9583	-3.45	-2.5521	-3.0833	-3.2708	-2.7521	-3.4521	-2.9521	-2.8604	-3.4125	182.860	136.975	303.891	379.775	272.367	366.912	120.030	417.838	437.306	323.740	169.953	244.943	454.039	445.439	258.795	158.515	0.0011358	0.00024018	0.00015369	599.85	6.2633e-06	6.9208e-06	770.28	251.19	7.1348e-06	3.085e-06	336	152.05	120.79	61.932	4.2634e-06	78.439	0.00020549	0.00020584	5.1718e-05	509.2	2.0463e-06	2.2108e-06	654.51	212.67	2.0301e-06	2.2531e-06	280.32	127.2	101.48	52.411	1.9857e-06	65.038	278.409	218.788	115.515	116.527	295.295	255.723	115.041	122.397	219.881	353.097	119.296	122.654	125.471	129.508	278.851	125.441	-8191	255	
3246.114	1	1	0	0	0.36402	0.10774	0.32734	0.13246	0.10452	0.19057	0.14092	0.072939	0.31295	0.11076	0.05481	0.164	0.25231	0.28682	0.089715	0.23797	-2.3125	-3.1375	-3.1521	-2.675	-3.4271	-2.8958	-2.8979	-3.4813	-2.7667	-3.0187	-3.3146	-2.6542	-3.2562	-3.1271	-2.6604	-3.3896	429.176	184.643	136.763	104.128	158.758	341.168	383.841	438.752	214.016	337.698	409.527	330.922	420.525	424.523	373.945	348.445	0.0011593	0.00028543	0.00028112	597.83	6.5292e-06	6.9886e-06	775.35	248.5	2.4213e-06	8.4208e-06	334.45	150.15	121.09	61.91	4.3764e-06	77.515	0.00021758	0.00020097	5.022e-05	510.23	2.1375e-06	2.2047e-06	653.75	211.18	2.1381e-06	2.1042e-06	278.37	126.18	101.12	52.081	1.9342e-06	64.454	290.915	146.461	174.352	116.850	258.439	260.297	114.971	122.007	285.841	251.014	119.326	122.512	124.983	129.426	271.512	125.467	-8191	255	
3246.208	1	1	0	0	0.24437	0.030415	0.25052	0.14005	0.16179	0.18271	0.045946	0.089085	0.16108	0.1064	0.13304	0.16363	0.18016	0.23272	0.28196	0.24419	-2.4333	-2.9292	-3.1208	-2.6562	-3.2812	-3.0417	-2.6354	-3.5167	-2.8271	-2.9125	-3.2958	-2.6813	-3.2958	-3.1354	-2.6958	-3.4375	288.875	261.616	169.578	389.077	303.425	227.557	164.875	301.232	344.430	460.940	335.504	167.162	383.218	415.858	343.923	111.605	0.0010984	0.00043875	7.3223e-05	595.68	5.8102e-06	4.2234e-06	767.72	250.71	1.3465e-06	8.7711e-06	331.21	151.49	120.9	61.736	8.3339e-06	78.127	0.0002259	0.0001884	4.9352e-05	507.94	2.2059e-06	2.0448e-06	650.27	212.19	2.2261e-06	2.0444e-06	278.17	126.41	101.2	52.119	1.8395e-06	64.749	290.967	206.811	373.111	116.716	206.542	271.707	115.444	122.314	309.067	253.482	119.437	122.834	125.255	129.379	261.063	125.422	-8191	255	
3246.306	1	1	0	0	0.16534	0.12017	0.16398	0.27338	0.1007	0.1135	0.26497	0.17284	0.075167	0.14432	0.080471	0.2322	0.074413	0.16234	0.16192	0.14335	-2.4333	-2.825	-3.3208	-2.7021	-3.1708	-3.1604	-2.8125	-3.4521	-3.0208	-2.8688	-3.4542	-2.8312	-3.1208	-3.1417	-2.5333	-3.5312	108.053	432.463	176.164	109.086	398.714	350.479	456.609	388.613	145.889	391.759	312.520	437.312	149.003	387.579	389.175	358.481	0.0010318	0.00045581	0.00028346	594.81	7.2792e-06	3.2603e-06	776.79	250.28	8.9179e-06	9.2639e-06	336.44	152.48	122.35	62.238	6.1114e-06	78.375	0.00022796	0.00018034	4.7087e-05	508.92	2.1547e-06	1.9761e-06	654.69	212.9	2.2006e-06	1.9426e-06	279.88	127.93	102.05	52.572	1.8542e-06	65.544	288.621	219.575	167.248	117.064	216.633	257.850	114.975	122.757	280.099	231.385	119.810	122.688	124.989	129.505	203.418	125.310	-8191	255	
3246.425	1	1	0	0	0.1782	0.15718	0.20405	0.2325	0.093029	0.09834	0.13154	0.073524	0.17814	0.13333	0.081606	0.20141	0.17179	0.21275	0.11045	0.33142	-2.5354	-2.8208	-3.4375	-2.9604	-3.0812	-3.2354	-2.6333	-3.2875	-2.8063	-2.5792	-3.4292	-2.7375	-3.1292	-3.4354	-2.7854	-3.3646	201.788	296.098	402.542	401.377	401.070	220.030	447.938	443.551	278.543	248.196	444.869	437.240	245.923	443.281	272.919	363.821	0.0010338	0.00051186	0.0002636	604.41	4.8836e-06	6.8523e-06	771.55	252.04	4.9945e-06	1.8641e-06	335.83	153.33	122.71	61.909	9.8914e-06	78.48	0.00022081	0.00017529	4.7635e-05	513.45	2.0677e-06	1.922e-06	655.24	213.55	2.1158e-06	1.9118e-06	280.26	127.78	101.9	52.435	1.9165e-06	65.244	285.472	449.333	223.147	116.548	321.204	290.929	114.727	122.281	297.016	131.670	119.652	122.755	124.544	129.471	284.196	125.726	-8191	255	
3246.497	1	1	0	0	0.26408	0.041796	0.23671	0.17489	0.15587	0.26085	0.24591	0.21056	0.25815	0.22885	0.088902	0.2576	0.21729	0.23596	0.31077	0.36918	-2.6167	-2.5792	-3.3875	-2.7938	-3.0708	-3.4437	-2.5	-3.2354	-2.8688	-2.5354	-3.5062	-2.9396	-3.025	-3.4062	-2.5833	-3.3104	311.143	348.891	437.536	263.069	166.771	270.073	379.262	402.579	385.215	120.634	456.873	382.661	283.113	422.676	286.556	377.501	0.0010172	0.00045522	0.00024659	596.66	9.4346e-06	2.9891e-06	772.33	249.25	6.1786e-06	3.9805e-06	337.61	151.34	121.88	61.517	7.3379e-06	77.817	0.00022067	0.00017717	4.8449e-05	510.13	2.0027e-06	1.9395e-06	650.79	211.7	2.0423e-06	1.8224e-06	279.89	127.22	101.5	52.133	1.9556e-06	64.985	289.396	127.965	174.658	116.173	237.413	248.389	114.613	121.907	307.633	198.226	119.366	122.671	125.355	129.499	212.170	125.278	-8191	255	
3246.593	1	1	0	0	0.18866	0.044246	0.062253	0.32342	0.089977	0.26662	0.14191	0.15778	0.16584	0.20947	0.085147	0.31548	0.19444	0.10454	0.47284	0.06525	-2.7792	-2.5625	-3.4542	-2.9542	-2.8729	-3.2604	-2.4813	-3.275	-3.3458	-2.5667	-3.4354	-2.8167	-2.6646	-3.475	-2.6375	-3.1083	440.863	320.370	148.475	427.707	150.138	200.181	118.627	423.925	232.706	197.961	312.337	437.187	113.610	444.818	450.443	380.734	0.0011276	0.00034589	0.00024847	596.81	7.2654e-06	3.5975e-06	779.25	251.01	5.3565e-06	2.0316e-06	334.78	152.25	122.41	62.682	4.6412e-06	78.937	0.0002136	0.00015982	5.0558e-05	510.77	1.9408e-06	1.8658e-06	652.64	212.87	1.9678e-06	1.843e-06	280.74	127.75	101.65	52.784	2.1322e-06	65.572	284.010	173.008	309.015	116.681	303.563	290.852	114.850	122.331	260.431	293.769	119.854	123.000	125.721	129.703	205.629	125.808	-8191	255	
3246.714	1	1	0	0	0.30619	0.19407	0.15814	0.24898	0.18566	0.15324	0.24845	0.083671	0.28226	0.10615	0.094112	0.031353	0.20235	0.052423	0.035231	0.31939	-2.8417	-2.5333	-3.3187	-3.1104	-2.7354	-3.2792	-2.8167	-3.0438	-3.3229	-2.675	-3.4958	-3.0583	-2.7792	-3.5792	-2.7479	-3.1125	364.077	284.368	152.374	420.609	169.155	302.108	284.195	305.290	160.301	280.327	156.166	266.874	346.184	319.213	432.529	364.635	0.0011168	0.00047555	0.00020762	597.07	9.4027e-06	7.116e-06	777.82	250.76	9.0504e-06	7.4587e-06	337.65	153.33	122.3	62.292	6.5337e-07	78.901	0.00020792	0.00016016	5.5362e-05	511.24	1.9168e-06	1.9209e-06	658.01	213.27	1.9736e-06	1.876e-06	282.53	128.63	101.67	52.649	2.1791e-06	65.393	287.961	214.047	159.760	117.213	274.753	271.647	114.947	122.618	283.909	275.409	119.948	122.893	125.230	129.674	389.220	126.108	-8191	255	
3246.810	1	1	0	0	0.13303	0.19389	0.15713	0.24451	0.24152	0.016462	0.27386	0.21827	0.12275	0.28143	0.026686	0.28485	0.11478	0.091254	0.17004	0.21677	-3.0271	-2.4542	-3.2667	-2.9896	-2.7646	-3.5438	-2.8688	-2.9562	-3.2854	-2.6479	-3.2	-3.1937	-2.6937	-3.5792	-2.8937	-2.9854	113.370	287.807	231.663	426.096	431.833	164.054	446.492	364.578	112.929	388.310	236.479	405.645	240.223	425.102	110.569	420.316	0.0011557	0.0012622	0.00035442	597.88	1.9211e-06	7.4751e-06	768.1	249.2	7.5074e-06	1.4001e-06	332.49	151.31	121.69	62.126	7.167e-06	77.76	0.00020498	0.00017651	5.3246e-05	507.92	1.8566e-06	1.9301e-06	650.04	211.45	1.9098e-06	2.0033e-06	279.02	127.03	101.17	52.451	2.1666e-06	64.723	286.673	140.789	122.988	116.526	194.078	285.084	115.179	122.528	273.173	461.012	119.440	122.630	125.617	129.663	262.109	125.482	-8191	255	
3246.906	1	1	0	0	0.06731	0.13457	0.028126	0.12756	0.2606	0.13185	0.22298	0.25985	0.42363	0.26483	0.20107	0.13804	0.13574	0.31452	0.077618	0.22401	-3.1604	-2.5229	-2.9979	-3.1917	-2.7396	-3.45	-2.8083	-2.7	-3.2708	-2.5604	-3.1604	-3.0208	-2.5583	-3.3063	-3.0062	-2.7125	356.576	185.221	405.949	403.625	233.988	319.478	358.597	109.143	194.847	225.302	232.873	111.172	284.203	403.505	231.535	121.906	0.0010408	0.0009617	0.0002578	596.09	7.0279e-06	5.6911e-06	769.41	249.37	8.2595e-07	4.8501e-06	335.39	152.31	121.41	62.264	2.5894e-06	77.715	0.00020237	0.00019283	5.415e-05	507.87	1.8488e-06	2.1061e-06	653.83	212.28	1.8687e-06	2.1191e-06	279.61	127.86	101.17	52.511	2.0914e-06	65.011	291.802	161.951	154.804	116.602	244.187	192.302	115.051	122.376	137.179	142.043	119.475	122.518	125.515	129.674	189.325	125.084	-8191	255	
3247.002	1	1	0	0	0.16126	0.13962	0.093242	0.17027	0.072106	0.10792	0.29059	0.23854	0.25875	0.18221	0.2607	0.12768	0.20259	0.32523	0.176	0.36457	-3.0687	-2.6271	-2.9292	-3.3479	-2.5104	-3.2396	-3.1229	-2.6854	-3.5021	-2.7	-2.8625	-3.3917	-2.6625	-3.2562	-2.9521	-2.6333	337.444	453.815	306.185	463.556	241.285	143.491	346.229	423.662	427.309	376.189	292.094	430.204	359.128	120.961	260.211	447.688	0.001037	0.00091509	6.7151e-05	600.23	3.4997e-06	4.0693e-06	779.73	252.59	7.7502e-06	1.2468e-05	339.95	153.74	121.07	62.476	1.6029e-06	78.057	0.00020022	0.00020121	5.2955e-05	510.46	1.8881e-06	2.1804e-06	658.53	213.11	1.9244e-06	2.1628e-06	281.57	128.09	100.85	52.622	2.0399e-06	64.836	284.769	192.378	351.683	116.449	324.849	255.011	114.736	121.994	279.523	281.823	118.965	122.478	124.859	129.398	222.344	125.235	-8191	255	
3247.098	1	1	0	0	0.094442	0.070458	0.17537	0.11634	0.065332	0.17446	0.27933	0.19625	0.098669	0.11082	0.30623	0.22207	0.25244	0.28573	0.19075	0.22175	-2.8833	-2.7188	-2.9313	-3.2292	-2.6125	-3.1833	-3.2938	-2.6104	-3.5042	-2.7396	-2.9354	-3.7146	-2.5604	-3.2896	-2.9542	-2.6417	150.400	352.075	397.632	134.058	217.143	139.715	358.730	379.833	144.474	439.725	454.439	356.985	435.806	449.605	155.720	439.662	0.0011173	0.00019625	0.00011578	594.38	9.8756e-06	9.3405e-07	762.03	247.77	5.2582e-06	4.7076e-06	332.5	151.14	121.46	61.371	4.8577e-06	76.834	0.00020324	0.00020111	4.8895e-05	504.09	1.9917e-06	2.2429e-06	646.17	209.84	2.0016e-06	2.1485e-06	277.08	126.38	100.96	52.116	1.9648e-06	64.231	285.161	415.344	159.648	117.017	191.258	108.812	115.098	122.411	233.404	156.253	120.027	122.622	125.180	129.397	279.245	125.380	-8191	255	
3247.193	1	1	0	0	0.084896	0.016452	0.13437	0.036677	0.2386	0.038372	0.15917	0.060835	0.05788	0.22697	0.022448	0.086022	0.16993	0.12841	0.15107	0.16251	-2.9521	-3	-2.6917	-3.3604	-2.6854	-3.1208	-3.2958	-2.5292	-3.3604	-3.0396	-2.7458	-3.5708	-2.725	-3.0292	-3.1854	-2.7188	159.652	348.955	175.245	271.708	421.654	121.887	455.131	363.336	403.143	436.547	288.711	323.399	429.211	434.893	328.585	376.800	0.0010878	0.00072998	0.00010175	596.69	6.292e-06	9.3573e-07	768.57	248.62	5.282e-06	9.5223e-06	333.5	151.89	120.75	61.85	3.2019e-06	77.856	0.00021657	0.00019721	4.9488e-05	505.93	2.1346e-06	2.0882e-06	650.15	210.74	2.1033e-06	2.0918e-06	278.04	126.84	100.92	52.236	1.9872e-06	64.673	288.084	163.423	126.182	116.664	284.412	161.944	115.178	122.626	307.556	247.039	119.665	123.057	124.843	129.588	252.911	125.302	-8191	255	
3247.289	1	1	0	0	0.11728	0.076468	0.031022	0.14953	0.045027	0.24548	0.26852	0.24867	0.10435	0.26643	0.067553	0.36115	0.20764	0.22741	0.076915	0.11299	-2.7771	-3.0583	-2.5625	-3.5438	-2.7604	-3.0417	-3.4125	-2.5271	-3.3479	-2.8937	-2.5875	-3.4271	-2.9437	-3.0292	-3.3438	-2.675	262.932	133.412	399.036	382.904	212.160	274.962	400.487	362.865	134.775	386.707	197.392	414.397	409.042	355.470	345.969	247.652	0.0012725	0.00047389	0.0001732	599.68	7.9647e-06	6.3738e-06	773.62	251.15	5.5478e-06	4.6347e-06	338.28	152.27	121.49	61.692	5.2982e-06	78.032	0.00022493	0.00018785	4.7743e-05	511.39	2.2301e-06	2.0151e-06	653.98	211.93	2.2098e-06	2.01e-06	279.63	127.55	101.26	52.204	1.8933e-06	64.613	289.266	167.808	204.020	116.508	238.171	285.323	114.462	122.584	302.731	283.050	119.868	122.645	125.220	129.455	211.461	125.456	-8191	255	
3247.387	1	1	0	0	0.16401	0.12138	0.27288	0.33091	0.12033	0.24254	0.19112	0.39711	0.027804	0.11308	0.17576	0.25224	0.25889	0.065871	0.063005	0.1905	-2.6333	-2.9854	-2.475	-3.4292	-2.8646	-2.9083	-3.5083	-2.6729	-2.9938	-3.0812	-2.5229	-3.4625	-2.95	-3.0104	-3.3875	-2.7292	280.340	112.540	332.105	412.342	160.176	317.120	363.874	361.393	199.773	142.816	237.011	404.322	111.470	283.325	244.787	170.787	0.00099555	0.00091063	0.00016031	598.2	1.1832e-05	2.1131e-06	764.53	247.79	2.8989e-06	6.2784e-06	331.18	150.3	120.2	61.221	8.1913e-06	76.684	0.00022359	0.00018616	4.6696e-05	506.47	2.1959e-06	1.9494e-06	646.45	210.26	2.1377e-06	1.9786e-06	275.46	125.8	100.15	51.705	1.8551e-06	63.746	282.014	164.471	194.412	116.542	242.718	304.536	115.142	122.315	279.817	271.787	118.957	122.843	125.049	129.802	259.921	125.502	-8191	255	
3247.506	1	1	0	0	0.27226	0.1634	0.18788	0.28151	0.073685	0.18522	0.16914	0.11742	0.081945	0.075714	0.1252	0.091648	0.15492	0.0079765	0.14491	0.32904	-2.7333	-3.2417	-2.4333	-3.3083	-2.925	-2.8417	-3.3708	-2.6917	-2.9125	-3.2521	-2.5979	-3.2896	-3.1542	-2.9521	-3.2792	-2.9042	455.965	152.047	360.488	417.992	304.139	222.186	158.935	452.526	209.390	111.627	339.169	146.624	384.241	358.388	239.733	450.774	0.00099327	0.00059665	0.00012118	595.8	3.1953e-06	2.5284e-06	761.5	247.23	6.0902e-06	8.2627e-06	332.43	150.42	120.3	61.324	7.2793e-06	76.83	0.00021202	0.00018276	4.7524e-05	505.63	2.122e-06	1.9207e-06	646.11	210.2	2.0606e-06	1.9997e-06	276.1	126.37	100.66	51.735	1.8975e-06	64.123	287.558	168.045	183.828	117.220	224.403	229.096	115.025	122.422	281.499	230.727	119.394	122.610	125.233	130.112	244.704	125.330	-8191	255	
3247.602	1	1	0	0	0.045224	0.17767	0.36563	0.11813	0.1252	0.40902	0.24494	0.21492	0.19918	0.17023	0.082926	0.11108	0.10542	0.093398	0.22009	0.40201	-2.4833	-3.2896	-2.5104	-3.1354	-3.1375	-2.7958	-3.425	-2.8271	-2.8625	-3.3125	-2.5646	-3.2833	-3.2062	-2.7354	-3.3042	-2.9917	407.561	226.064	344.128	355.071	407.374	257.789	395.143	428.300	281.501	372.764	331.342	300.854	453.227	316.633	378.126	413.170	0.00094948	0.00063613	0.00023213	591.65	5.9697e-06	2.1237e-06	780.15	249.01	1.6059e-06	1.8293e-06	333.66	150.64	119.77	61.323	6.3097e-06	76.85	0.0002084	0.00017311	4.8977e-05	507.94	2.021e-06	1.8268e-06	653.76	211.45	2.0071e-06	1.8715e-06	278.52	127.33	100.23	51.779	2.0458e-06	64.484	280.021	150.570	178.701	116.967	222.349	197.007	115.342	122.341	266.191	241.468	119.315	123.036	124.932	129.702	264.189	125.715	-8191	255	
3247.698	1	1	0	0	0.032208	0.12286	0.17895	0.084828	0.064952	0.10542	0.15238	0.13836	0.16943	0.083284	0.14355	0.11538	0.20748	0.071175	0.1719	0.25454	-2.3458	-3.4062	-2.6333	-3.1542	-3.1833	-2.6729	-3.475	-3.0292	-2.8229	-3.4167	-2.6479	-3.0938	-3.3667	-2.7271	-3.2729	-3.1708	337.963	336.520	300.251	185.525	261.584	354.888	422.828	394.974	155.304	273.081	107.353	376.546	359.191	110.611	174.518	463.140	0.0010304	0.00036026	0.00019049	591.43	4.9327e-06	1.8343e-06	762.38	247.75	6.9091e-06	1.0566e-05	330.71	150.19	120.71	61.364	6.6549e-06	76.675	0.00021085	0.00017111	5.2613e-05	504.95	1.9528e-06	1.8568e-06	645.19	210.43	1.9207e-06	1.8394e-06	275.98	125.81	100.31	51.618	2.1022e-06	63.945	291.252	206.024	162.621	116.698	276.184	246.519	115.236	122.384	284.207	230.392	119.471	122.637	125.367	129.637	275.807	125.493	-8191	255	
3247.794	1	1	0	0	0.12056	0.11202	0.069217	0.14616	0.068038	0.30181	0.12714	0.19506	0.26891	0.11407	0.059391	0.25681	0.025651	0.40661	0.051107	0.29689	-2.4708	-3.375	-2.6917	-3.0958	-3.5042	-2.5208	-3.2521	-3.0083	-2.8021	-3.4583	-2.8812	-2.975	-3.5208	-2.6979	-3.3667	-3.1813	350.501	425.043	247.893	160.018	168.097	130.664	386.549	382.928	257.213	244.827	227.553	110.107	111.545	120.064	449.722	397.075	0.0010238	0.0012069	0.00018545	590.7	4.8237e-06	4.8342e-06	766.09	247.48	2.6014e-06	1.4737e-06	333.72	151.76	120.84	61.463	8.5195e-06	77.522	0.00020284	0.00017116	5.1771e-05	503.57	1.9001e-06	1.8081e-06	649.32	210.76	1.8361e-06	1.8707e-06	279.91	127.11	100.54	51.881	2.1365e-06	64.581	284.803	179.363	192.920	116.912	107.878	275.003	115.031	122.061	242.926	211.294	119.469	122.673	125.149	129.768	274.552	125.907	-8191	255	
3247.890	1	1	0	0	0.20272	0.31231	0.19342	0.20447	0.10814	0.2086	0.24503	0.264	0.2039	0.32889	0.22528	0.18553	0.088376	0.11675	0.25794	0.33497	-2.3063	-3.2938	-2.6771	-3.0083	-3.3375	-2.5333	-3.3042	-3.1854	-2.5187	-3.3104	-2.8792	-2.95	-3.3812	-2.7417	-3.1208	-3.2583	160.434	259.635	202.542	371.449	459.099	196.086	437.289	439.152	361.721	213.948	443.668	401.470	414.453	432.864	133.394	371.283	0.0011019	0.00059637	0.00017979	600.94	3.1565e-06	5.9553e-06	780.95	250.6	5.7589e-06	5.022e-06	336.73	152.6	122.03	62.553	5.2419e-06	78.363	0.00020084	0.0001813	5.6241e-05	511.05	1.8769e-06	1.9488e-06	660.48	212.91	1.8138e-06	2.0033e-06	282.62	128.67	101.14	52.43	2.1211e-06	65.134	280.834	128.752	136.539	117.232	269.338	278.323	115.382	122.382	275.399	249.260	119.578	123.094	125.600	130.033	237.064	125.500	-8191	255	
3247.986	1	1	0	0	0.185	0.13495	0.14877	0.2287	0.11246	0.24527	0.11009	0.046904	0.22118	0.12509	0.0854	0.24992	0.21968	0.24107	0.12401	0.21454	-2.0333	-3.2313	-2.8812	-2.7875	-3.3979	-2.5354	-3.1917	-3.1813	-2.45	-3.3083	-2.9875	-2.7583	-3.4917	-2.8333	-3.1396	-3.3958	424.949	426.963	451.423	146.410	199.638	253.779	408.216	361.543	382.671	411.138	210.820	399.276	387.735	459.218	458.459	399.625	0.0011282	0.0010255	0.00030581	598.64	5.6746e-06	8.54e-06	776.52	248.55	7.9482e-06	3.5553e-06	332.87	152.75	120.48	61.596	5.6299e-06	77.404	0.00019414	0.00018932	5.4488e-05	508.9	1.8731e-06	2.1086e-06	655.83	211.18	1.8002e-06	2.1007e-06	279.09	127.08	100.45	52.025	2.0273e-06	64.356	279.662	179.200	184.460	117.122	383.142	339.613	114.887	122.388	297.158	268.753	119.587	123.170	125.724	129.600	265.275	125.954	-8191	255	
3248.107	1	1	0	0	0.25879	0.083609	0.19218	0.16891	0.12121	0.20982	0.14948	0.13072	0.17468	0.15032	0.24196	0.15821	0.055194	0.082711	0.19193	0.27949	-2.0646	-3.2979	-3.0229	-2.7875	-3.3875	-2.6021	-3.0062	-3.3563	-2.4542	-3.2104	-3.1417	-2.5333	-3.4792	-2.9896	-2.7917	-3.3833	106.581	269.823	424.233	371.605	387.787	456.525	316.896	393.378	366.637	287.940	202.968	378.366	288.792	422.315	365.918	394.800	0.001118	0.001159	6.2547e-05	595	4.059e-06	4.7687e-06	774.36	248.51	4.4352e-06	3.8412e-06	334.04	151.19	119.66	61.295	8.9812e-06	77.506	0.00019455	0.0001997	5.0934e-05	507.82	1.8612e-06	2.1238e-06	652.58	209.95	1.8689e-06	2.1335e-06	278.27	126.71	100.19	51.915	1.988e-06	64.417	287.406	141.212	226.823	116.822	202.702	306.372	115.030	122.137	279.970	312.833	120.239	123.417	125.764	129.507	232.308	125.756	-8191	255	
3248.201	1	1	0	0	0.19222	0.26261	0.26404	0.031249	0.18152	0.056101	0.08675	0.39966	0.18635	0.18699	0.25854	0.19844	0.12905	0.17894	0.12549	0.24225	-2.3583	-3.2771	-3.0958	-2.55	-3.4146	-2.8458	-2.9354	-3.5062	-2.725	-3.1375	-3.3021	-2.6562	-3.5125	-2.9417	-2.8125	-3.4875	389.545	338.292	162.494	268.461	361.006	336.611	431.884	365.759	314.713	120.857	445.419	416.244	129.928	344.044	418.317	448.696	0.0011685	0.00045651	0.00024164	601.12	7.8279e-06	2.8214e-06	773.32	248.87	4.5771e-06	5.2871e-06	334.63	152.96	121.1	61.702	7.942e-06	77.922	0.00020195	0.00019349	4.8553e-05	508.1	2.0213e-06	2.1199e-06	656.62	211.57	1.9931e-06	2.0979e-06	279.77	127.71	100.89	52.237	1.8824e-06	64.935	283.290	167.017	113.965	117.065	232.454	232.693	115.434	122.818	262.818	312.024	119.479	123.087	125.521	129.430	279.940	126.170	-8191	255	
3248.298	1	1	0	0	0.27087	0.077014	0.26409	0.21056	0.13881	0.1345	0.21702	0.37791	0.13666	0.26957	0.071885	0.2287	0.19908	0.18148	0.070958	0.1664	-2.0917	-3.0729	-3.2208	-2.4604	-3.3104	-2.9437	-2.8063	-3.4854	-2.8187	-2.9146	-3.3854	-2.75	-3.3792	-3.1271	-2.6813	-3.5229	175.228	207.772	146.601	195.683	332.021	459.940	402.401	417.285	299.074	107.391	408.225	373.409	139.716	108.836	353.739	151.414	0.0010223	0.00021431	0.00033885	602.68	8.9194e-06	4.0064e-06	769.36	249.46	1.1098e-05	1.8332e-06	332.84	152.24	119.92	62.253	9.4756e-06	77.091	0.00021417	0.00018265	4.8357e-05	509.44	2.0567e-06	2.0417e-06	652.29	211.09	2.0688e-06	1.9412e-06	277.31	127.33	100.62	52.281	1.8405e-06	64.248	282.014	294.351	155.425	116.974	288.889	316.832	115.480	122.456	273.411	321.623	119.547	122.804	125.319	129.646	289.641	125.650	-8191	255	
3248.394	1	1	0	0	0.050429	0.1321	0.17944	0.27597	0.12574	0.44434	0.23627	0.21498	0.142	0.045438	0.071643	0.24	0.27295	0.27864	0.14994	0.13797	-2.3563	-3.0187	-3.275	-2.5979	-3.4146	-3.1896	-2.6208	-3.5292	-2.5125	-2.8771	-3.4021	-2.7083	-3.4167	-3.275	-2.5312	-3.5208	153.896	357.533	403.642	189.749	418.395	378.027	345.219	431.419	342.618	200.142	322.214	406.293	398.039	407.258	265.806	271.144	0.0011693	0.00048545	0.00029543	596.16	6.9657e-06	3.3365e-06	766.67	247.5	7.8044e-06	7.3038e-06	331.85	152.07	119.81	61.839	6.1058e-06	77.083	0.00021827	0.00018234	4.6361e-05	506.36	2.0889e-06	1.9121e-06	647.04	209.97	2.0602e-06	1.9283e-06	276.05	126.87	100.62	52.056	1.7629e-06	64.251	288.010	174.445	200.132	116.973	252.383	222.542	114.763	121.937	257.137	232.454	119.118	122.517	124.689	129.211	278.466	125.083	-8191	255	
3248.490	1	1	0	0	0.22668	0.29105	0.13276	0.09877	0.46758	0.14628	0.066037	0.066547	0.2767	0.029468	0.032711	0.022489	0.10084	0.28697	0.033817	0.088304	-2.3396	-2.7833	-3.1146	-2.55	-3.1063	-3.15	-2.6729	-3.3229	-2.6375	-2.7188	-3.6104	-2.6625	-3.2979	-3.3146	-2.6042	-3.6208	254.569	316.302	306.163	463.174	367.478	305.633	308.525	438.780	207.140	456.200	412.513	127.973	451.924	425.776	445.264	441.463	0.00098659	0.00052958	0.00017117	593.25	7.398e-06	3.6086e-06	772.75	249.13	3.5284e-06	3.1536e-06	330.12	152.39	121.26	62.071	3.6104e-06	77.703	0.00021514	0.00016891	4.3567e-05	506.83	2.0033e-06	1.8903e-06	651.36	211.24	2.1133e-06	1.8661e-06	276.85	127.75	100.92	52.22	1.7808e-06	64.818	283.108	268.245	216.455	116.483	286.871	211.748	114.904	122.095	222.068	444.480	119.370	122.766	124.472	129.152	276.071	125.448	-8191	255	
3248.586	1	1	0	0	0.26603	0.091991	0.1262	0.16002	0.22944	0.034635	0.19011	0.060497	0.10058	0.27503	0.13556	0.17079	0.11674	0.10726	0.16992	0.15771	-2.6312	-2.6021	-3.4167	-2.7333	-2.8271	-3.3271	-2.7062	-3.4271	-2.9854	-2.6667	-3.4875	-2.7125	-3.0062	-3.3521	-2.8021	-3.275	336.672	266.339	459.499	430.548	354.162	314.601	180.899	407.812	142.542	345.031	416.489	397.188	409.283	129.415	113.433	127.119	0.0010571	0.00023696	0.00028691	595.66	1.1787e-05	5.4655e-06	774.35	248.27	4.1587e-06	8.8021e-06	330.98	150.78	120.83	61.695	8.3877e-06	76.4	0.0002137	0.00016462	4.6021e-05	507.94	1.9696e-06	1.8453e-06	652.65	210.9	1.9859e-06	1.7967e-06	275.3	126.58	100.31	51.937	1.8442e-06	63.846	290.463	135.799	112.705	116.800	277.151	250.477	115.040	121.346	239.180	265.806	119.189	122.647	124.517	129.189	284.844	125.135	-8191	255	
3248.682	1	1	0	0	0.11733	0.26069	0.2544	0.08058	0.13166	0.1057	0.14583	0.16912	0.18642	0.10469	0.18706	0.12073	0.1726	0.19565	0.15753	0.17158	-2.4813	-2.6	-3.25	-2.8417	-2.775	-3.3187	-2.6146	-3.3937	-3.2521	-2.6729	-3.3688	-2.8854	-2.8312	-3.4375	-2.5771	-3.3271	232.120	228.035	125.089	139.482	414.702	413.331	332.359	105.088	264.090	217.763	263.523	398.901	232.282	385.218	397.435	418.363	0.00096292	0.00024242	8.5539e-05	591.82	8.0958e-06	2.7633e-06	764.02	245.47	7.8592e-06	2.2864e-06	325.27	150.47	119.88	61.56	5.8699e-06	76.612	0.0002078	0.00016151	4.7086e-05	503.59	1.8581e-06	1.7693e-06	643.87	209.54	1.9499e-06	1.7124e-06	273.38	126.04	99.932	51.687	1.9063e-06	63.745	283.378	302.327	456.066	116.553	249.911	263.969	114.423	121.930	301.592	222.897	118.637	122.435	124.527	128.881	235.240	125.169	-8191	255	
3248.803	1	1	0	0	0.22317	0.25146	0.15446	0.29385	0.14325	0.032844	0.30018	0.17499	0.044385	0.13669	0.11715	0.41336	0.046781	0.32219	0.15874	0.16265	-2.7229	-2.6813	-3.1458	-2.8854	-2.5833	-3.4104	-2.5146	-3.2042	-3.3729	-2.4437	-3.3583	-3.0208	-2.9854	-3.5062	-2.6396	-3.1104	216.024	121.265	437.132	360.299	190.990	241.150	397.310	338.256	144.152	370.333	317.746	427.110	379.896	418.680	436.711	349.687	0.0010393	0.00029764	0.00022866	590.4	2.7761e-06	4.3908e-06	765.71	247.21	6.3938e-06	6.6464e-06	332.41	151.61	121.96	61.645	6.5834e-06	77.289	0.00020099	0.00015978	5.0621e-05	505.47	1.8498e-06	1.7472e-06	649.3	210.3	1.8853e-06	1.7182e-06	276.86	126.84	100.59	51.931	2.0317e-06	64.291	285.015	220.831	463.368	116.688	281.540	258.567	114.947	121.725	257.542	254.669	119.294	122.277	124.788	129.093	204.449	125.383	-8191	255	
3248.899	1	1	0	0	0.12154	0.13144	0.18677	0.18685	0.082378	0.17793	0.32683	0.23753	0.14929	0.14435	0.23804	0.26203	0.22896	0.43431	0.13157	0.18343	-2.9417	-2.6208	-3.3854	-3.1042	-2.5771	-3.2687	-2.7729	-2.975	-3.3438	-2.4896	-3.2396	-3.1854	-2.6146	-3.5479	-2.7042	-3.0479	123.952	250.501	175.960	399.416	292.442	456.375	450.289	414.233	179.171	284.194	327.697	129.343	289.058	119.636	333.164	378.584	0.0011362	0.00074848	0.00010579	598.59	9.0331e-06	5.8919e-06	769.8	248.36	3.4751e-06	4.8643e-06	330.76	151.2	119.96	61.559	7.3629e-06	76.954	0.00020063	0.00015707	5.2517e-05	507.72	1.7959e-06	1.8163e-06	656.1	210.73	1.832e-06	1.8319e-06	276.92	126.88	99.969	51.883	2.1082e-06	63.961	286.101	218.347	157.635	116.489	232.376	245.800	114.576	121.702	269.112	223.036	119.216	122.116	125.026	129.227	236.727	125.274	-8191	255	
3248.971	1	1	0	0	0.09043	0.12386	0.24737	0.13145	0.050944	0.2684	0.47909	0.41525	0.085438	0.057357	0.37766	0.10859	0.1013	0.067896	0.29055	0.16575	-2.9375	-2.5271	-2.9833	-3.1417	-2.5042	-3.3354	-2.7771	-2.8792	-3.4437	-2.8	-2.9813	-3.2	-2.7146	-3.4375	-2.6271	-2.9771	136.001	322.264	259.583	121.790	228.914	326.668	448.829	444.454	266.428	155.614	420.189	458.525	255.671	396.744	390.878	332.256	0.0010921	0.00097127	0.00024987	590.1	5.4654e-06	3.4934e-06	767.66	245.92	4.924e-06	6.3367e-06	327.68	150.37	120.69	61.89	3.6449e-06	76.872	0.00019231	0.00016955	5.2173e-05	504.75	1.7462e-06	1.8934e-06	648.34	209.25	1.7321e-06	1.886e-06	275.11	125.95	99.705	51.962	2.0477e-06	63.784	287.294	195.437	119.104	116.278	340.053	293.051	114.738	122.108	215.432	195.564	119.768	122.277	124.793	129.448	197.532	125.421	-8191	255	
3249.067	1	1	0	0	0.18529	0.053507	0.24219	0.086622	0.1781	0.13421	0.17513	0.25917	0.10502	0.15551	0.043013	0.10511	0.23244	0.20675	0.20916	0.25686	-3.1979	-2.4958	-3.0167	-3.1583	-2.7917	-3.4354	-3.0125	-2.7854	-3.3771	-2.5792	-3.0896	-3.3667	-2.5729	-3.3396	-2.8583	-2.6021	275.813	162.004	230.986	109.264	137.844	164.518	361.439	414.994	281.123	135.668	243.647	312.073	436.650	407.629	251.362	361.893	0.0011579	0.00038496	9.721e-05	595.17	6.0667e-06	4.6213e-06	766.38	249.36	3.2519e-06	5.9495e-06	334.98	151.93	120.91	61.74	4.2568e-06	77.354	0.00018605	0.00017946	5.0343e-05	506.04	1.7227e-06	2.0259e-06	652.57	210.97	1.7319e-06	2.0308e-06	277.97	127.13	100.4	52.108	1.9661e-06	64.291	286.312	201.168	169.839	115.924	283.398	274.764	114.796	121.959	339.752	195.248	119.433	122.485	124.462	129.309	329.273	125.547	-8191	255	
3249.186	1	1	0	0	0.054924	0.037506	0.049767	0.2753	0.16273	0.14518	0.22919	0.37372	0.11343	0.22754	0.22278	0.16013	0.41865	0.38541	0.088336	0.08502	-2.9313	-2.7271	-3.075	-3.3021	-2.5667	-3.4917	-3.0375	-2.6979	-3.3646	-2.6458	-2.8854	-3.4354	-2.6146	-3.1229	-3.1708	-2.675	436.101	359.385	224.177	361.777	340.164	196.807	398.117	356.914	450.739	264.498	385.699	409.533	409.797	453.794	381.690	435.708	0.001074	0.00015455	0.00016935	596.77	7.6544e-06	7.4392e-06	778.67	249.07	3.9405e-06	8.5973e-06	337.15	152.95	120.63	61.709	2.3372e-06	77.194	0.00019195	0.00018403	5.0186e-05	509.62	1.7738e-06	2.0595e-06	659.45	210.81	1.8298e-06	2.089e-06	279.21	127.42	100.29	52.19	1.9118e-06	64.158	284.275	141.722	180.371	116.551	227.245	259.690	114.523	122.282	206.260	222.368	119.232	122.980	124.937	129.643	184.190	125.459	-8191	255	
3249.282	1	1	0	0	0.02537	0.14438	0.17569	0.11466	0.11882	0.21417	0.15466	0.24197	0.17371	0.0919	0.20326	0.14008	0.17579	0.096729	0.15446	0.14207	-3.0375	-2.8271	-2.7208	-3.4167	-2.6021	-3.0083	-3.0354	-2.6229	-3.2771	-2.825	-2.7646	-3.4771	-2.6542	-3.0646	-3.2458	-2.6792	375.971	202.218	142.561	127.857	145.309	357.396	422.980	324.441	428.051	317.391	307.251	112.682	396.489	378.110	142.572	283.934	0.0010979	0.00047931	0.00033311	603.94	8.3764e-06	7.1895e-06	762.04	247.98	4.5418e-06	4.3033e-06	330.16	151.8	120.87	61.382	2.7217e-06	75.901	0.00020657	0.00019162	4.826e-05	510.23	1.9496e-06	2.0579e-06	648.02	209.63	2.0352e-06	2.05e-06	275.7	126.54	100.14	51.859	1.8729e-06	63.441	279.966	457.746	194.906	116.495	251.946	271.533	114.879	122.286	255.447	235.223	119.416	122.527	125.147	129.540	209.935	125.403	-8191	255	
3249.378	1	1	0	0	0.1084	0.18562	0.22316	0.15144	0.45248	0.1142	0.22521	0.030561	0.069023	0.01352	0.050246	0.18485	0.057392	0.24841	0.2343	0.14448	-2.8708	-2.875	-2.5854	-3.3292	-2.8521	-3.1208	-3.3104	-2.675	-3.1813	-2.9521	-2.6271	-3.5292	-2.5604	-3.1417	-3.3021	-2.65	384.661	458.420	204.903	437.693	434.396	207.230	346.491	424.536	119.669	373.625	459.726	294.383	429.231	104.270	408.252	438.416	0.0011213	0.00027445	0.00010797	596.31	5.2728e-06	1.5624e-06	769.38	247.63	7.0134e-06	4.286e-06	330.85	151.64	120.23	62.145	7.2688e-06	77.128	0.0002137	0.00018861	4.7243e-05	506.61	2.0785e-06	2.0451e-06	652.46	210.04	2.0492e-06	1.9761e-06	276.6	127.09	100.31	52.184	1.8287e-06	64.155	281.874	205.498	142.568	116.585	245.278	460.254	114.595	122.198	253.603	256.340	119.455	122.626	124.822	129.484	274.067	125.396	-8191	255	
3249.474	1	1	0	0	0.15946	0.1195	0.038928	0.11755	0.11188	0.21353	0.25959	0.23903	0.16293	0.29439	0.29542	0.15957	0.081934	0.29149	0.086953	0.29855	-2.9958	-2.9667	-2.3688	-3.5708	-2.5687	-2.9146	-3.3688	-2.7062	-3.2417	-3.1375	-2.7167	-3.3292	-2.6854	-2.8854	-3.375	-2.6625	284.352	376.343	456.935	174.407	403.563	200.584	462.106	294.221	246.970	450.099	386.591	136.358	181.725	427.516	281.182	454.757	0.00098763	0.00034995	0.00024962	598.54	1.1557e-05	2.601e-06	783.38	247.93	8.1963e-06	8.2108e-06	331.88	151.94	120.86	61.574	3.6501e-06	77.117	0.00021208	0.00017457	4.4573e-05	512.01	2.1259e-06	1.9177e-06	660.72	210.59	2.1126e-06	1.9394e-06	277.88	127.55	100.8	52.131	1.8181e-06	64.253	286.838	211.623	235.530	116.722	236.526	264.545	114.634	122.067	299.100	210.410	119.663	122.458	124.792	129.626	244.619	125.496	-8191	255	
3249.595	1	1	0	0	0.10153	0.1814	0.19151	0.076388	0.13661	0.04727	0.2349	0.26317	0.076088	0.18191	0.18879	0.091523	0.34371	0.15567	0.17291	0.16479	-2.4604	-3.1188	-2.5354	-3.3896	-2.8604	-2.8917	-3.6146	-2.7313	-3.05	-3.0938	-2.6604	-3.4688	-3.05	-2.8271	-3.4042	-2.8187	312.720	150.544	325.511	295.716	402.021	452.075	423.781	366.147	394.830	250.577	384.160	381.598	131.281	459.114	436.859	453.178	0.0012232	0.00023951	0.00018009	597.23	7.8643e-06	5.2199e-06	771.54	247.37	3.4489e-06	3.7779e-06	329.5	150.44	118.84	61.499	6.2158e-06	76.848	0.00021784	0.0001747	4.3433e-05	508.42	2.0697e-06	1.8793e-06	651.39	209.97	2.0343e-06	1.8534e-06	274.23	125.9	99.802	51.786	1.7303e-06	63.664	290.249	361.580	112.176	116.799	217.510	260.732	114.669	121.989	251.610	256.453	119.898	122.795	124.783	129.440	246.198	125.434	-8191	255	
3249.666	1	1	0	0	0.1428	0.10461	0.12855	0.1553	0.19997	0.12371	0.21849	0.053862	0.16937	0.12801	0.27268	0.28763	0.32605	0.28677	0.15222	0.17333	-2.4042	-3.2229	-2.4938	-3.4146	-3.0438	-2.6833	-3.45	-2.85	-3.1312	-3.4688	-2.6604	-3.5062	-2.9583	-2.675	-3.4625	-2.9688	154.007	463.335	413.236	221.195	286.267	353.234	457.069	144.892	399.835	441.868	437.818	352.176	420.071	134.240	278.856	150.125	0.0010367	0.00049392	0.00025798	590.07	3.8266e-06	4.1303e-06	767.55	246.77	2.3024e-06	1.5381e-06	333.03	151.32	119.37	61.55	3.6419e-06	76.859	0.0002104	0.00017137	4.5318e-05	507.68	2.0714e-06	1.8048e-06	650.39	209.98	1.9466e-06	1.8237e-06	275.84	126.94	99.87	51.859	1.8928e-06	64.006	285.911	177.686	137.019	117.314	203.585	247.967	114.943	122.194	322.686	378.599	119.608	123.352	125.013	129.763	261.101	125.418	-8191	255	
3249.787	1	1	0	0	0.14082	0.13569	0.14072	0.16128	0.21244	0.12361	0.39326	0.13154	0.24292	0.086939	0.076741	0.13184	0.1936	0.20491	0.21259	0.26887	-2.45	-3.1813	-2.5646	-3.3042	-3.0667	-2.6479	-3.4938	-2.8771	-2.6437	-3.4062	-2.6146	-3.1542	-3.1542	-2.7292	-3.225	-2.9729	143.000	232.664	390.908	410.344	155.258	119.516	402.422	148.469	207.559	180.977	260.683	390.218	444.269	140.874	280.387	363.824	0.0010565	0.00035377	0.00013304	597.53	5.183e-06	5.6126e-06	781.97	249.07	1.019e-06	3.3653e-06	333.65	150.92	120.68	61.386	5.1327e-06	76.815	0.00020029	0.00016325	4.5805e-05	510.06	1.9071e-06	1.7651e-06	659.5	211.14	1.8554e-06	1.8003e-06	278.23	127.28	100.33	51.818	1.9809e-06	64.081	282.111	193.544	149.674	116.828	303.669	262.392	114.946	122.493	293.406	228.604	119.870	123.122	125.203	129.653	207.848	125.782	-8191	255	
3249.883	1	1	0	0	0.16208	0.19352	0.22779	0.24295	0.2638	0.17139	0.19564	0.13651	0.14976	0.10509	0.1979	0.17967	0.22289	0.28237	0.069937	0.1709	-2.4479	-3.3333	-2.6271	-3.0479	-3.2708	-2.4375	-3.5271	-2.8667	-2.6771	-3.4667	-2.6917	-3.1208	-3.4417	-2.6125	-3.3583	-3.1083	127.445	421.314	130.783	138.825	404.619	311.803	356.947	327.495	156.152	110.092	381.575	441.312	212.734	407.728	260.499	106.228	0.0008856	0.00092534	0.0003394	600.3	7.8098e-06	4.0092e-06	768.31	247	1.7189e-06	8.6622e-06	329.56	150.29	120.23	61.465	7.3306e-06	75.973	0.00019737	0.00016224	5.1297e-05	508.78	1.8346e-06	1.8401e-06	653.45	209.35	1.8289e-06	1.7403e-06	274.58	125.65	99.787	51.544	2.0538e-06	63.156	277.040	115.148	138.887	116.550	289.712	242.527	114.781	122.425	163.899	226.650	119.340	123.187	125.048	129.775	274.136	125.672	-8191	255	
3249.979	1	1	0	0	0.12555	0.19903	0.19199	0.062774	0.19348	0.13838	0.24071	0.13515	0.2218	0.3012	0.10159	0.12833	0.093473	0.1581	0.069851	0.095182	-2.1896	-3.3667	-2.7687	-3.1937	-3.3583	-2.6896	-3.4313	-3.0229	-2.4896	-3.4354	-2.6917	-2.9104	-3.3667	-2.7729	-3.3312	-3.2313	419.750	310.803	302.352	234.839	359.827	152.139	368.887	332.924	208.966	425.441	384.632	186.128	461.213	391.888	369.314	219.717	0.0011165	0.00029383	0.00016004	595.34	5.6683e-06	2.9198e-06	775.65	245.7	1.4912e-06	2.5962e-06	331.19	150.71	120.33	61.338	6.845e-06	76.385	0.00019764	0.00016508	5.1145e-05	506.12	1.809e-06	1.7704e-06	653.63	208.83	1.7899e-06	1.8458e-06	275.04	125.93	100.01	51.662	2.0712e-06	63.721	285.759	265.229	227.510	116.798	275.601	309.339	115.614	122.455	311.457	255.285	119.993	122.766	124.955	129.995	252.941	125.593	-8191	255	
3250.075	1	1	0	0	0.32337	0.22485	0.32378	0.10832	0.033684	0.16823	0.13237	0.31945	0.25004	0.32153	0.14211	0.16002	0.16915	0.2578	0.12683	0.16897	-2.3479	-3.3479	-2.7062	-2.8521	-3.45	-2.7333	-3.2021	-3.425	-2.5208	-3.4875	-3.0042	-2.925	-3.2896	-2.7125	-3.0271	-3.3292	178.740	160.891	185.059	452.884	394.636	378.741	294.641	390.380	196.722	424.282	456.850	451.205	359.939	112.521	116.112	421.723	0.0010208	0.00060008	0.0001861	599.2	8.0564e-06	7.458e-06	774.2	247.37	4.1989e-06	3.5144e-06	330.72	150.81	120.26	61.581	6.7087e-06	76.418	0.00018667	0.00017732	5.3359e-05	509.36	1.7845e-06	1.913e-06	658.27	210.41	1.7269e-06	1.9729e-06	277.1	126.96	100.14	51.919	2.0397e-06	63.884	286.699	174.839	145.023	117.036	218.968	224.099	115.417	122.405	323.804	143.778	120.222	123.187	125.786	130.086	232.653	125.925	-8191	255	
3250.194	1	1	0	0	0.23373	0.14787	0.20869	0.32431	0.063888	0.097909	0.25776	0.36854	0.078015	0.11716	0.10621	0.24694	0.16363	0.17717	0.16929	0.15092	-2.3417	-3.3271	-2.9562	-2.7917	-3.2458	-2.6792	-3.0958	-3.3937	-2.5062	-3.3396	-3.0771	-2.6333	-3.4979	-2.7625	-2.9813	-3.3521	356.760	170.098	145.409	430.409	268.712	372.741	415.685	423.869	161.729	220.074	339.440	438.031	107.602	399.845	129.099	385.515	0.0010526	0.0012326	0.00011551	601.91	8.2468e-06	5.7937e-06	776.56	246.47	3.058e-06	8.1006e-06	325.46	150.18	119.5	60.896	6.3681e-06	76.401	0.00018546	0.00018227	5.319e-05	509.82	1.7459e-06	2.0404e-06	654.81	208.82	1.7277e-06	1.9945e-06	273.54	125.69	99.384	51.523	1.9681e-06	63.246	286.279	127.905	150.907	117.316	226.131	246.867	115.369	122.130	318.650	214.431	120.216	122.931	125.747	129.772	197.231	125.863	-8191	255	
3250.266	1	1	0	0	0.028239	0.22971	0.18236	0.15056	0.149	0.018548	0.17738	0.18988	0.088543	0.3025	0.20561	0.19439	0.27375	0.12879	0.11176	0.078297	-2.2271	-3.2896	-3.0396	-2.6542	-3.3854	-2.8521	-3.0542	-3.3771	-2.525	-3.2667	-3.2687	-2.65	-3.4667	-3.0771	-2.6729	-3.5583	314.945	357.068	133.965	411.456	304.023	326.544	431.625	166.051	426.826	177.021	320.498	237.224	379.513	141.073	191.965	453.359	0.00093562	0.00085112	0.00027815	598.07	5.4996e-06	1.4268e-06	777.45	245.53	1.2462e-05	8.7116e-06	327.17	150.96	119.85	61.078	1.466e-06	76.237	0.00018837	0.00018686	4.9397e-05	505.74	1.801e-06	2.1115e-06	652.09	208.18	1.7937e-06	2.0589e-06	273.24	125.65	99.74	51.78	1.8318e-06	63.417	282.288	136.074	182.462	116.580	238.167	213.142	115.030	122.040	263.248	246.100	119.686	123.135	125.109	129.874	265.423	125.992	-8191	255	
3250.362	1	1	0	0	0.2183	0.13081	0.13918	0.18459	0.24313	0.16932	0.1747	0.18482	0.21143	0.033658	0.2242	0.24612	0.29177	0.48405	0.067505	0.10513	-2.3542	-3.0854	-3.0271	-2.8083	-3.3729	-2.9333	-2.8396	-3.5354	-2.6833	-3.1875	-3.2771	-2.5167	-3.3417	-3.0563	-2.7958	-3.3917	299.192	279.965	320.156	111.813	245.967	144.132	438.360	395.479	336.494	347.216	450.013	415.090	380.293	120.172	129.885	431.835	0.00097497	0.00032721	0.00011206	598.12	7.4154e-06	4.4115e-06	773.27	246.39	6.8594e-06	5.0366e-06	330.36	151.51	119.62	62.436	4.2929e-06	77.62	0.00019789	0.00018631	4.7314e-05	507.17	1.8864e-06	2.0411e-06	655.08	209.44	1.9759e-06	2.0446e-06	276.08	126.93	99.988	52.263	1.8488e-06	64.408	284.101	159.617	352.491	116.498	236.250	273.513	115.285	121.934	265.427	278.415	119.117	123.165	125.312	129.610	248.478	125.665	-8191	255	
3250.458	1	1	0	0	0.20093	0.10994	0.51132	0.20407	0.043938	0.16257	0.29801	0.13702	0.16906	0.1583	0.24447	0.18407	0.33908	0.16606	0.095583	0.098651	-2.2104	-2.9583	-3.2812	-2.5938	-3.4	-3.0854	-2.7687	-3.5146	-2.5771	-3.0833	-3.3	-2.6708	-3.3396	-3.275	-2.4792	-3.5354	197.340	433.468	378.211	458.535	128.263	148.284	423.987	237.519	233.763	173.545	432.142	377.692	333.020	346.895	255.006	388.402	0.00096694	0.00056891	0.00020271	606.3	5.0983e-06	4.7162e-06	771.9	247.16	3.9872e-06	3.7613e-06	333.78	151.05	120.13	61.743	1.1405e-05	76.682	0.00020915	0.00018145	4.5215e-05	510.34	2.0512e-06	1.9751e-06	653.12	209.29	2.0436e-06	1.8651e-06	275.51	126.18	100.22	51.975	1.7207e-06	63.584	282.093	178.195	154.050	116.805	229.563	244.602	114.893	121.866	290.721	265.033	119.329	122.996	125.242	129.697	240.998	125.485	-8191	255	
3250.579	1	1	0	0	0.25154	0.10256	0.24334	0.042544	0.16786	0.24929	0.28165	0.086079	0.076769	0.17795	0.21304	0.085206	0.19202	0.080256	0.16023	0.12351	-2.4896	-3.0042	-3.3708	-2.6437	-3.3417	-3.2	-2.85	-3.5646	-3.0417	-3.0521	-3.5438	-2.9625	-3.4938	-3.4938	-2.8167	-3.7771	346.910	443.906	157.416	384.035	126.099	378.782	416.006	347.309	333.270	287.475	357.903	429.851	418.062	463.852	228.055	237.348	0.00093217	0.00080111	0.00016317	601.02	1.8959e-06	3.1081e-06	769.04	247.04	5.9848e-06	6.9616e-06	329.74	151.34	119.81	61.494	6.8519e-06	76.378	0.00021338	0.00016878	4.3824e-05	507.86	2.0256e-06	1.8682e-06	648.4	208.97	2.0084e-06	1.8062e-06	272.86	125.94	100.15	51.881	1.7013e-06	63.707	279.201	204.888	199.235	116.886	243.274	226.086	115.191	122.569	322.641	258.576	119.501	123.155	125.343	129.910	213.735	126.006	-8191	255	
3250.675	1	1	0	0	0.28507	0.094001	0.19261	0.14097	0.18966	0.085031	0.17643	0.13691	0.11469	0.21055	0.033898	0.11584	0.12771	0.30922	0.12673	0.37962	-2.7417	-3.0125	-3.4104	-2.7958	-3.1646	-3.4437	-2.9458	-3.5104	-3.1396	-2.9708	-3.5479	-2.8771	-3.2438	-3.4625	-2.8583	-3.4271	436.512	410.805	293.468	343.823	399.351	316.479	439.665	307.343	396.157	392.102	121.353	410.070	267.209	443.411	127.667	394.728	0.0011081	0.000555	0.00021371	595.96	2.4869e-06	5.9378e-06	776.59	247.43	4.4445e-06	4.243e-06	333.92	152.34	120.65	61.985	4.2437e-06	77.398	0.00021178	0.00016781	4.2684e-05	508.71	1.9734e-06	1.8483e-06	654.33	210.17	1.9697e-06	1.7767e-06	276.87	127.66	100.32	52.203	1.7203e-06	64.468	281.367	176.375	151.558	117.045	280.936	289.483	115.032	122.605	366.490	281.399	119.704	122.967	125.323	129.723	212.665	125.804	-8191	255	
3250.771	1	1	0	0	0.16079	0.21535	0.13169	0.16612	0.21093	0.12396	0.35662	0.323	0.17178	0.060845	0.092566	0.29169	0.16415	0.18802	0.26308	0.27346	-2.6833	-2.8479	-3.5	-2.75	-3.1417	-3.3542	-2.8125	-3.4875	-3.2104	-2.8458	-3.6167	-2.9354	-3.1958	-3.5125	-2.8	-3.6042	326.395	396.816	416.985	202.602	315.360	153.963	440.687	382.499	191.588	260.727	313.136	427.244	129.641	443.349	373.298	381.995	0.001102	0.00049424	0.00033401	604.18	7.2313e-06	6.4002e-06	780.45	246.95	4.6416e-06	4.5169e-06	329.59	152.08	121.49	61.621	6.8843e-06	76.852	0.00021047	0.00016254	4.5644e-05	513.43	1.9389e-06	1.82e-06	656.7	210.97	1.935e-06	1.7619e-06	275.74	127.21	100.78	52.071	1.7894e-06	64.003	287.563	179.962	137.083	116.982	252.558	280.804	115.352	122.784	266.111	214.049	120.443	123.307	125.348	129.814	252.053	126.099	-8191	255	
3250.867	1	1	0	0	0.19606	0.12823	0.071327	0.11836	0.13878	0.095973	0.081979	0.082886	0.086341	0.089371	0.11548	0.14295	0.25347	0.36212	0.13528	0.23417	-2.9917	-2.7188	-3.4354	-3.0438	-3.1875	-3.5667	-2.6396	-3.3187	-3.3438	-2.8438	-3.5604	-3.1437	-3.0854	-3.5667	-2.7021	-3.2417	135.713	174.330	172.397	379.471	165.052	160.648	135.285	435.414	417.931	144.024	399.884	129.196	401.624	440.920	291.100	409.808	0.00097566	0.00055035	0.00023273	593.19	3.2254e-06	3.5268e-06	769.51	247.11	1.0188e-05	4.5392e-06	331.39	150.84	120.63	61.844	8.9279e-06	76.858	0.00019757	0.00015577	4.6767e-05	506.97	1.8294e-06	1.777e-06	649.55	210.13	1.9082e-06	1.6888e-06	274.09	126.82	100.45	52.121	1.9616e-06	64.042	285.762	154.430	195.876	116.845	272.892	315.934	115.099	122.313	297.865	256.936	119.712	123.238	125.266	129.826	244.187	125.748	-8191	255	
#DATA ENDS
