BOXY.EXE: ISS Imagent and Oximeter Data Acquisition Program Version 0.80
Ascii Record File

#ACQ INFORMATION
2  Detector Channels 
16  External MUX Channels 
1  Auxiliary Channels 
5000  Waveform (CCF) Frequency (Hz)
1  Waveforms Skipped 
30  Waveforms Averaged 
1  Cycles Averaged 
16  Acquisitions per Waveform 
10.0806  Updata Rate (Hz) 

#FILE INFORMATION
TRUE -- External MUX Channel results are PARSED.
FALSE -- AC DC and Phase are NOT grouped.
TRUE -- Companion Program Settings File CREATED.
FALSE -- AC data not excluded
FALSE -- DC data not excluded
FALSE -- Phase data not excluded
FALSE -- Auxillary Chn. data not excluded
Tab delimiters

#CALIBRATION STATE
TRUE -- Waveform Calibration Values APPLIED.


#AUX CALIBRATION VALUES
Val Type	aux-1	

Term	1.0000e+00	
Factor	0.0000e+00	


#WF CALIBRATION VALUES
A = Detector Channel
Val Type	A-AC1	A-AC2	A-AC3	A-AC4	A-AC5	A-AC6	A-AC7	A-AC8	A-AC9	A-AC10	A-AC11	A-AC12	A-AC13	A-AC14	A-AC15	A-AC16	A-DC1	A-DC2	A-DC3	A-DC4	A-DC5	A-DC6	A-DC7	A-DC8	A-DC9	A-DC10	A-DC11	A-DC12	A-DC13	A-DC14	A-DC15	A-DC16	A-Ph1	A-Ph2	A-Ph3	A-Ph4	A-Ph5	A-Ph6	A-Ph7	A-Ph8	A-Ph9	A-Ph10	A-Ph11	A-Ph12	A-Ph13	A-Ph14	A-Ph15	A-Ph16	

Term	0.00000e+00	0.00000e+00	0.00000e+00	0.00000e+00	0.00000e+00	0.00000e+00	0.00000e+00	0.00000e+00	0.00000e+00	0.00000e+00	0.00000e+00	0.00000e+00	0.00000e+00	0.00000e+00	0.00000e+00	0.00000e+00	0.00000e+00	0.00000e+00	0.00000e+00	0.00000e+00	0.00000e+00	0.00000e+00	0.00000e+00	0.00000e+00	0.00000e+00	0.00000e+00	0.00000e+00	0.00000e+00	0.00000e+00	0.00000e+00	0.00000e+00	0.00000e+00	0.00000e+00	0.00000e+00	0.00000e+00	0.00000e+00	0.00000e+00	0.00000e+00	0.00000e+00	0.00000e+00	0.00000e+00	0.00000e+00	0.00000e+00	0.00000e+00	0.00000e+00	0.00000e+00	0.00000e+00	0.00000e+00	
Factor	1.00000e+00	1.00000e+00	1.00000e+00	1.00000e+00	1.00000e+00	1.00000e+00	1.00000e+00	1.00000e+00	1.00000e+00	1.00000e+00	1.00000e+00	1.00000e+00	1.00000e+00	1.00000e+00	1.00000e+00	1.00000e+00	1.00000e+00	1.00000e+00	1.00000e+00	1.00000e+00	1.00000e+00	1.00000e+00	1.00000e+00	1.00000e+00	1.00000e+00	1.00000e+00	1.00000e+00	1.00000e+00	1.00000e+00	1.00000e+00	1.00000e+00	1.00000e+00	X	X	X	X	X	X	X	X	X	X	X	X	X	X	X	X	

B = Detector Channel
Val Type	B-AC1	B-AC2	B-AC3	B-AC4	B-AC5	B-AC6	B-AC7	B-AC8	B-AC9	B-AC10	B-AC11	B-AC12	B-AC13	B-AC14	B-AC15	B-AC16	B-DC1	B-DC2	B-DC3	B-DC4	B-DC5	B-DC6	B-DC7	B-DC8	B-DC9	B-DC10	B-DC11	B-DC12	B-DC13	B-DC14	B-DC15	B-DC16	B-Ph1	B-Ph2	B-Ph3	B-Ph4	B-Ph5	B-Ph6	B-Ph7	B-Ph8	B-Ph9	B-Ph10	B-Ph11	B-Ph12	B-Ph13	B-Ph14	B-Ph15	B-Ph16	

Term	0.00000e+00	0.00000e+00	0.00000e+00	0.00000e+00	0.00000e+00	0.00000e+00	0.00000e+00	0.00000e+00	0.00000e+00	0.00000e+00	0.00000e+00	0.00000e+00	0.00000e+00	0.00000e+00	0.00000e+00	0.00000e+00	0.00000e+00	0.00000e+00	0.00000e+00	0.00000e+00	0.00000e+00	0.00000e+00	0.00000e+00	0.00000e+00	0.00000e+00	0.00000e+00	0.00000e+00	0.00000e+00	0.00000e+00	0.00000e+00	0.00000e+00	0.00000e+00	-5.59862e+01	-1.37165e+02	-1.09869e+02	-1.83892e+02	-6.46307e+01	-7.36611e+01	-1.56891e+02	-1.62015e+02	-4.00765e+01	-6.46858e+01	-1.74830e+02	-1.70829e+02	-1.79669e+02	-1.77438e+02	-3.40695e+01	-1.50113e+02	
Factor	2.00826e-05	1.16048e-04	2.50199e-05	2.01756e-01	1.04398e-06	1.05918e-06	1.68114e-01	5.33662e-02	9.36267e-07	1.40336e-06	1.25515e-01	3.06584e-02	2.97817e-02	1.00133e-02	1.07325e-06	1.43431e-02	9.95168e-07	1.02890e-06	2.87747e-07	1.00126e-01	1.12210e-08	1.12741e-08	7.94418e-02	2.67727e-02	1.12170e-08	1.12980e-08	5.87010e-02	1.47241e-02	1.47267e-02	4.94447e-03	1.13127e-08	6.80183e-03	X	X	X	X	X	X	X	X	X	X	X	X	X	X	X	X	



#DISTANCE SETTINGS
A = Detector Channel
A-1	A-2	A-3	A-4	A-5	A-6	A-7	A-8	A-9	A-10	A-11	A-12	A-13	A-14	A-15	A-16	

2.5000e+00	3.0000e+00	2.5000e+00	3.0000e+00	2.0000e+00	3.0000e+00	1.5000e+00	3.0000e+00	3.0000e+00	3.0000e+00	3.0000e+00	3.0000e+00	3.0000e+00	3.0000e+00	1.5000e+00	3.0000e+00	

B = Detector Channel
B-1	B-2	B-3	B-4	B-5	B-6	B-7	B-8	B-9	B-10	B-11	B-12	B-13	B-14	B-15	B-16	

1.0000e+01	1.0000e+01	1.0000e+01	1.4400e+00	1.0000e+01	1.0000e+01	1.5100e+00	1.9400e+00	1.0000e+01	1.0000e+01	1.9900e+00	2.4900e+00	2.4100e+00	2.9000e+00	1.0000e+01	2.9800e+00	




#DATA BEGINS
time	group	step	mark	flag	A-AC1	A-AC2	A-AC3	A-AC4	A-AC5	A-AC6	A-AC7	A-AC8	A-AC9	A-AC10	A-AC11	A-AC12	A-AC13	A-AC14	A-AC15	A-AC16	A-DC1	A-DC2	A-DC3	A-DC4	A-DC5	A-DC6	A-DC7	A-DC8	A-DC9	A-DC10	A-DC11	A-DC12	A-DC13	A-DC14	A-DC15	A-DC16	A-Ph1	A-Ph2	A-Ph3	A-Ph4	A-Ph5	A-Ph6	A-Ph7	A-Ph8	A-Ph9	A-Ph10	A-Ph11	A-Ph12	A-Ph13	A-Ph14	A-Ph15	A-Ph16	B-AC1	B-AC2	B-AC3	B-AC4	B-AC5	B-AC6	B-AC7	B-AC8	B-AC9	B-AC10	B-AC11	B-AC12	B-AC13	B-AC14	B-AC15	B-AC16	B-DC1	B-DC2	B-DC3	B-DC4	B-DC5	B-DC6	B-DC7	B-DC8	B-DC9	B-DC10	B-DC11	B-DC12	B-DC13	B-DC14	B-DC15	B-DC16	B-Ph1	B-Ph2	B-Ph3	B-Ph4	B-Ph5	B-Ph6	B-Ph7	B-Ph8	B-Ph9	B-Ph10	B-Ph11	B-Ph12	B-Ph13	B-Ph14	B-Ph15	B-Ph16	aux-1	digaux	

7378.639	1	1	0	256	0.20977	0.17202	0.1292	0.12209	0.14479	0.14288	0.24531	0.2184	0.014655	0.20123	0.058801	0.16939	0.17886	0.15158	0.13285	0.16801	-2.9708	-2.6792	-3.475	-3.0417	-2.9917	-3.6917	-2.75	-3.1917	-3.3917	-2.7125	-3.4333	-3.1458	-2.9083	-3.5146	-2.7479	-3.1312	146.461	5.149	-75.448	-102.203	-42.945	-107.420	124.006	-82.128	64.842	44.899	92.568	234.731	-42.367	2.321	-60.904	163.082	0.00013409	0.0002787	0.00011085	160.24	3.072e-06	5.2685e-06	310.96	55.501	5.6447e-06	6.1895e-06	123.54	48.765	21.262	9.3628	4.9504e-06	22.923	0.00033919	0.00032736	9.4949e-05	183.66	3.7381e-06	3.6071e-06	322.73	61.792	3.7488e-06	3.5654e-06	132.2	50.716	24.571	10.328	3.8554e-06	23.542	-78.398	180.364	126.240	-110.377	176.891	24.333	-110.380	-104.261	0.055	50.487	-106.373	-101.162	-99.475	-95.575	-14.697	-97.152	-8191	255	
7378.735	1	1	0	0	0.14371	0.095216	0.1303	0.42627	0.14667	0.14293	0.060744	0.15481	0.20687	0.12055	0.048424	0.22595	0.10062	0.17038	0.16349	0.024882	-2.7729	-2.7042	-3.4333	-3.0625	-2.8021	-3.5417	-2.8333	-3.025	-3.4333	-2.7542	-3.5667	-3.175	-2.7687	-3.6208	-2.6979	-3.0104	78.085	187.483	237.499	102.249	203.799	142.623	189.780	214.544	107.541	226.984	-100.549	113.561	161.876	149.983	-6.322	-38.791	0.00015548	0.00035365	7.1535e-05	160.54	2.7613e-06	3.4207e-06	315.16	55.785	3.1943e-06	5.0304e-06	124.87	49.066	20.788	9.4184	5.4859e-06	22.861	0.00034453	0.00033252	9.9695e-05	185.23	3.7785e-06	3.6833e-06	326.36	61.901	3.8353e-06	3.7107e-06	133.69	51.129	24.581	10.406	4.0381e-06	23.527	-88.664	105.551	223.313	-110.484	115.491	33.266	-110.726	-103.750	2.682	37.445	-106.225	-101.675	-99.228	-94.750	136.246	-97.400	-8191	255	
7378.856	1	1	0	0	0.09459	0.31065	0.13041	0.12218	0.074076	0.054658	0.17885	0.085391	0.081479	0.48125	0.15369	0.13991	0.16361	0.065142	0.2287	0.16624	-3.2771	-2.625	-3.2917	-3.1146	-2.3937	-3.6396	-2.9562	-2.9021	-3.5396	-2.8479	-3.3083	-3.4313	-2.7938	-3.4792	-2.7417	-2.925	-101.908	-81.233	-9.025	212.789	-43.381	-30.092	220.190	142.792	202.994	221.472	172.305	-46.513	-2.379	-46.421	124.877	-117.272	0.00017477	0.00014048	9.2294e-05	160.5	1.5001e-06	1.6017e-06	313.21	54.799	1.7719e-06	6.2018e-06	123.74	48.749	20.969	9.3612	2.9394e-06	22.695	0.00034322	0.00034341	0.00010455	184.46	3.7777e-06	3.8104e-06	327.17	61.701	3.8009e-06	3.8482e-06	133.5	50.837	24.429	10.463	4.0615e-06	23.375	-66.374	149.631	-17.833	-110.441	-100.387	124.298	-109.875	-103.538	233.544	-102.362	-105.488	-101.172	-99.338	-94.298	-29.195	-96.888	-8191	255	
7378.952	1	1	0	0	0.14547	0.072288	0.052967	0.1545	0.41752	0.052766	0.18504	0.31542	0.21375	0.31359	0.17932	0.17207	0.12771	0.1713	0.11599	0.12943	-3.2583	-2.7479	-3.1896	-3.3937	-2.6208	-3.5458	-2.7812	-2.8292	-3.5479	-2.6875	-2.8917	-3.3396	-2.7792	-3.5958	-3.0021	-2.5292	-29.926	-55.298	55.410	23.895	165.740	211.481	-27.921	-57.006	-3.368	83.488	-113.092	-84.182	95.808	-72.160	46.990	-75.249	0.00012979	2.8594e-05	7.164e-05	158.52	7.3079e-06	3.7938e-06	314.86	56.007	2.5612e-06	4.6058e-06	124.49	49.252	20.672	9.3064	4.178e-06	22.969	0.0003368	0.0003584	0.00010389	183.61	3.7337e-06	3.9557e-06	325.85	61.73	3.7573e-06	3.9713e-06	133.46	50.859	24.463	10.521	4.0626e-06	23.504	-77.002	38.294	140.008	-109.964	182.916	139.696	-110.614	-103.380	-40.981	-91.218	-105.007	-101.185	-99.064	-94.882	-94.344	-97.409	-8191	255	
7379.048	1	1	0	0	0.092379	0.047346	0.15558	0.089925	0.12416	0.083136	0.19336	0.052617	0.25364	0.18925	0.16705	0.086011	0.11641	0.10764	0.27894	0.17815	-3.1646	-2.9792	-3.1063	-3.3667	-2.5583	-3.4083	-3.125	-2.475	-3.3479	-2.8021	-3.2417	-3.6021	-2.6021	-3.1437	-3.0833	-2.6625	115.147	-68.620	214.669	103.584	153.606	2.180	181.553	172.839	-18.600	-3.173	-59.873	127.867	218.141	-104.676	118.538	-103.643	0.00014904	0.00051843	6.3041e-05	159.94	1.062e-06	2.2261e-06	315.74	55.726	3.2781e-06	4.6521e-06	124.54	48.723	20.997	9.5831	4.2764e-06	22.988	0.00033776	0.00036878	0.00010157	183.73	3.6979e-06	4.074e-06	327.41	61.835	3.7566e-06	4.0678e-06	133.45	51.134	24.709	10.642	4.0233e-06	23.582	-89.678	-97.711	12.702	-109.848	150.448	200.027	-110.614	-103.794	66.645	80.857	-106.083	-100.960	-100.027	-94.606	130.260	-97.367	-8191	255	
7379.169	1	1	0	0	0.12128	0.040366	0.29065	0.2408	0.20121	0.11066	0.26811	0.10226	0.032806	0.16267	0.13587	0.14039	0.15864	0.25092	0.13029	0.23443	-3.1437	-2.8792	-2.8021	-3.625	-2.8937	-3.2604	-3.3125	-2.5792	-3.4958	-2.8979	-3.0938	-3.4958	-2.6604	-3.2417	-3.4188	-2.4979	7.282	-43.899	-116.841	231.359	-74.889	153.374	83.552	201.194	36.820	-85.792	-26.003	-18.767	27.785	84.550	-66.617	147.898	0.00012554	1.3311e-05	5.8212e-05	158.26	5.2737e-06	5.5434e-06	315.64	56.451	6.9251e-06	5.7049e-06	123.97	48.877	21.305	9.5071	2.5397e-06	22.918	0.00034556	0.00037758	0.00010143	183.08	3.8349e-06	4.1504e-06	327.05	61.738	3.8885e-06	4.0725e-06	133.48	51.037	25.067	10.657	4.0072e-06	23.442	-82.195	117.903	-38.219	-110.618	78.065	-42.318	-110.570	-104.205	1.499	37.671	-105.738	-101.413	-99.874	-94.233	-6.064	-97.133	-8191	255	
7379.263	1	1	0	0	0.14837	0.19153	0.21515	0.10322	0.1569	0.19754	0.089824	0.39603	0.0764	0.25117	0.042858	0.17644	0.037057	0.39779	0.22915	0.14119	-2.8375	-2.9458	-2.9271	-3.5583	-2.6813	-3.3479	-3.45	-2.675	-3.2792	-3.0208	-2.5854	-3.5833	-2.8604	-3.3146	-3.5792	-2.6833	97.262	-33.137	159.238	160.117	19.480	-10.755	-7.060	-86.537	5.247	98.925	-106.421	79.139	115.309	214.068	186.037	158.492	0.00010833	0.00033065	0.00016402	158.83	4.3492e-06	2.6643e-06	313.18	55.379	2.663e-06	3.6324e-06	123.83	48.63	21.348	9.4186	6.8162e-06	22.712	0.00036062	0.00037462	0.00010037	183.55	4.0851e-06	4.0932e-06	324.69	61.569	4.1257e-06	4.1664e-06	133.38	50.803	25.183	10.595	4.0389e-06	23.379	-101.506	17.186	0.459	-109.409	-84.109	89.031	-110.104	-104.054	115.988	66.380	-105.018	-101.425	-99.209	-95.262	39.350	-96.809	-8191	255	
7379.335	1	1	0	0	0.14534	0.2797	0.056595	0.23855	0.24208	0.22893	0.15944	0.26109	0.0532	0.23591	0.31444	0.2334	0.080609	0.071211	0.1038	0.20791	-2.8625	-3.0417	-2.4875	-3.4958	-2.6646	-3.1958	-3.5896	-2.7125	-3.4583	-3.2271	-2.7979	-3.5292	-2.7062	-2.7083	-3.5292	-2.8042	91.633	-42.889	-50.153	219.192	65.593	157.485	-113.437	226.540	228.007	139.837	216.139	228.853	-39.561	101.681	106.800	183.986	8.4256e-05	0.00022844	6.062e-05	158.04	2.7495e-06	4.5144e-06	312.71	55.426	2.8689e-06	7.2995e-06	124.24	49.01	21.172	9.3803	3.6274e-06	22.787	0.00038056	0.00038403	0.00010226	184.14	4.2796e-06	4.1909e-06	324.9	61.976	4.2955e-06	4.2236e-06	133.36	51.184	25.409	10.638	4.0634e-06	23.552	-68.424	-85.734	131.359	-109.637	230.866	-16.158	-110.382	-103.747	116.206	151.360	-105.891	-101.100	-99.736	-94.725	-96.790	-97.091	-8191	255	
7379.455	1	1	0	0	0.21203	0.23097	0.29179	0.072256	0.18221	0.29047	0.28487	0.1158	0.17865	0.17173	0.19826	0.042227	0.1751	0.25563	0.13009	0.015124	-2.9292	-3.3646	-2.7458	-3.3312	-2.9042	-2.7292	-3.4792	-2.6125	-3.2375	-3.3917	-2.7396	-3.5479	-3.0042	-2.6896	-3.5417	-2.8021	222.529	67.723	-31.110	145.498	237.423	-64.256	199.811	225.274	157.644	-65.732	168.411	-53.352	60.774	236.639	-25.204	115.850	0.00011548	0.00074881	6.0954e-06	158.27	5.6072e-06	2.1687e-07	313.05	55.496	2.419e-06	3.2221e-06	123.83	48.903	21.219	9.4715	3.1041e-06	23.06	0.00039045	0.00038768	0.0001026	187.46	4.3738e-06	4.213e-06	327.16	62.666	4.3825e-06	4.2475e-06	133.94	51.768	25.482	10.67	4.0472e-06	23.876	-68.430	-15.032	84.475	-109.730	-85.753	16.741	-109.910	-103.728	79.758	-104.086	-105.519	-100.652	-99.643	-94.780	51.953	-96.344	-8191	255	
7379.551	1	1	0	0	0.1802	0.22814	0.18766	0.098948	0.16591	0.26427	0.039192	0.24058	0.11033	0.1469	0.25438	0.067051	0.072864	0.037293	0.094303	0.33325	-2.8229	-3.3875	-2.7479	-3.6021	-3.2479	-2.7854	-3.5438	-2.6583	-3.0729	-3.4375	-2.5208	-3.4062	-3.1771	-2.6125	-3.6208	-3.0146	-47.155	62.998	186.805	-24.509	224.104	123.211	-3.562	-8.388	-66.054	-10.371	-34.761	57.266	-54.448	204.935	209.383	231.754	9.2313e-05	0.00073075	0.00011141	162.61	4.7151e-06	1.6357e-06	315.39	55.151	4.4441e-06	1.5575e-06	123.9	48.954	21.065	9.4632	1.1694e-06	22.683	0.00039201	0.00038706	0.00010222	189.83	4.3516e-06	4.1402e-06	327.05	62.845	4.2672e-06	4.0989e-06	133.39	51.551	25.239	10.58	4.0037e-06	23.575	-80.570	-68.917	-84.311	-109.904	58.158	-25.639	-110.262	-103.502	149.469	-61.700	-104.259	-100.861	-99.761	-94.483	148.472	-96.242	-8191	255	
7379.648	1	1	0	0	0.23408	0.041213	0.089623	0.048622	0.2555	0.41128	0.11042	0.26824	0.19543	0.16713	0.24541	0.23946	0.24699	0.27376	0.22298	0.17066	-2.5625	-3.5125	-2.5563	-3.2812	-3.35	-2.7958	-3.5854	-2.7625	-2.7188	-3.5542	-2.7792	-3.3667	-3.5292	-2.5792	-3.5333	-2.9896	100.866	44.184	157.990	-34.776	24.912	-106.574	185.733	86.920	-84.271	140.118	-92.179	-29.412	220.104	20.128	216.783	-81.011	0.00016158	0.00051118	5.7226e-05	159.07	4.1137e-06	3.6946e-06	313.29	55.205	3.6189e-06	6.1235e-06	122.49	48.772	21.371	9.3804	1.9309e-06	22.858	0.00037457	0.00036316	0.00010244	187.24	4.1539e-06	3.9768e-06	325.44	62.736	4.0891e-06	4.0199e-06	133.36	51.248	25.165	10.496	4.1215e-06	23.716	-102.338	-46.311	-120.749	-109.652	146.727	51.978	-110.002	-103.861	107.014	48.728	-105.650	-100.558	-98.927	-93.772	-40.385	-96.370	-8191	255	
7379.744	1	1	0	0	0.14289	0.10523	0.1609	0.16242	0.085082	0.10422	0.037186	0.19815	0.11292	0.218	0.11906	0.13113	0.098276	0.14968	0.11847	0.10221	-2.3708	-3.5542	-2.6458	-3.275	-3.3125	-2.7021	-3.4625	-3.025	-2.9688	-3.3417	-2.7771	-2.9813	-3.3146	-2.6646	-3.5104	-3.2313	218.996	226.719	83.230	61.401	21.402	119.593	54.898	163.136	73.075	-107.719	-14.201	124.245	195.125	195.455	231.918	198.576	0.000148	0.0004858	4.7512e-05	160.3	2.8014e-06	1.0119e-06	315.76	55.841	1.8392e-06	2.3553e-06	123.12	49.348	21.332	9.5098	1.0018e-06	23.084	0.00036529	0.00035431	0.0001045	186.89	4.0491e-06	3.8609e-06	328.08	62.615	4.0085e-06	3.8273e-06	134.83	51.558	25.04	10.546	4.1992e-06	23.857	-93.926	-53.152	-8.758	-109.072	199.129	34.690	-109.838	-103.605	-3.479	110.112	-104.822	-100.374	-100.047	-94.655	-48.656	-96.221	-8191	255	
7379.864	1	1	0	0	0.24486	0.16798	0.29623	0.27134	0.29607	0.23445	0.18823	0.083599	0.16646	0.093869	0.33212	0.16714	0.0094708	0.20995	0.13315	0.16787	-2.125	-3.4375	-2.7917	-3.0479	-3.3708	-2.75	-3.4208	-3.1479	-2.8104	-3.6708	-2.7208	-3.0979	-3.4333	-2.6479	-3.4583	-3.3875	144.137	-9.286	-78.971	16.957	235.928	172.401	-21.990	128.944	55.822	172.934	165.158	133.080	28.793	196.171	130.272	18.752	0.00010836	0.00025557	5.4702e-05	161.44	2.5132e-06	3.4358e-06	316.13	56.084	2.7118e-06	6.2623e-06	126.39	49.443	21.306	9.5535	6.0131e-07	23.072	0.00035822	0.00034782	0.00010551	187.04	3.8994e-06	3.8104e-06	329.37	62.504	3.8078e-06	3.8198e-06	135.75	51.588	24.878	10.572	4.1037e-06	23.778	-76.243	74.725	178.943	-109.631	42.705	85.863	-109.278	-103.574	214.378	-66.493	-106.160	-100.654	-99.117	-94.379	211.076	-96.228	-8191	255	
7379.936	1	1	0	0	0.12862	0.18546	0.12511	0.20538	0.22246	0.20091	0.083996	0.18983	0.10831	0.086636	0.30736	0.080695	0.099729	0.18465	0.030163	0.018165	-2.1854	-3.2708	-2.8646	-2.8063	-3.5854	-2.5854	-3.2667	-3.1813	-2.7625	-3.5187	-2.9813	-2.8396	-3.5354	-2.7396	-3.0375	-3.325	-118.099	-7.965	-66.675	191.520	123.229	183.582	33.610	207.690	-69.427	191.799	-83.873	-112.181	-45.627	148.013	20.332	13.848	0.00014922	0.00011656	2.2167e-05	161.71	2.1184e-06	6.1095e-06	313.52	55.742	2.0971e-06	6.5337e-06	125.13	48.829	21.148	9.342	3.6767e-06	22.618	0.00034294	0.00035143	0.00010584	186.7	3.8371e-06	3.9298e-06	328.74	62.07	3.7986e-06	3.9846e-06	134.44	50.93	24.579	10.526	4.0839e-06	23.383	-79.233	-117.666	103.934	-109.226	34.468	237.491	-109.734	-103.312	82.908	210.224	-105.357	-100.050	-98.878	-94.850	126.273	-95.938	-8191	255	
7380.032	1	1	0	0	0.016776	0.22236	0.066349	0.088843	0.26768	0.13084	0.076233	0.13351	0.086233	0.24775	0.20113	0.14167	0.13947	0.0353	0.11957	0.18664	-2.0229	-3.425	-2.9542	-2.6937	-3.5938	-2.7917	-3.0583	-3.2875	-2.6188	-3.4729	-3.1458	-2.9104	-3.5896	-2.6896	-3.0604	-3.3896	128.354	85.288	37.163	2.200	-18.405	103.762	139.158	101.086	-57.732	-75.406	64.186	206.986	110.699	195.779	-59.969	77.877	9.7759e-05	0.00023179	8.4418e-05	160.42	1.7353e-06	1.1452e-06	316.39	55.36	1.9551e-06	5.5478e-06	125.14	49.164	21.125	9.4833	2.8541e-06	23.004	0.00033224	0.00036052	0.0001025	184.35	3.6484e-06	3.972e-06	328.58	61.797	3.6545e-06	4.0019e-06	133.84	50.982	24.553	10.595	3.9182e-06	23.536	-61.378	-29.587	19.392	-109.028	-107.115	-48.476	-109.527	-103.530	-41.118	63.001	-105.140	-100.700	-99.933	-93.753	90.416	-96.378	-8191	255	
7380.128	1	1	0	0	0.12061	0.1598	0.25065	0.079552	0.21423	0.13576	0.19688	0.13899	0.2082	0.15796	0.070763	0.099699	0.12981	0.12384	0.07119	0.066233	-2.1437	-3.3125	-3.1708	-2.6854	-3.6292	-2.6937	-2.8937	-3.4042	-2.5333	-3.3271	-3.2208	-2.6646	-3.4917	-2.775	-2.9646	-3.5333	205.902	38.920	174.602	137.889	162.518	-55.157	-116.829	-88.609	-45.553	212.758	-37.596	183.427	16.720	0.484	99.308	209.870	0.00013474	0.00051598	0.00014038	159.55	2.9413e-06	1.5906e-06	317.57	56.034	3.4815e-06	1.5366e-06	123.81	49.082	21.206	9.5086	6.3017e-06	23.263	0.00033102	0.00036562	9.9906e-05	183.35	3.6853e-06	3.9648e-06	329.09	61.8	3.645e-06	3.9737e-06	133.86	51.05	24.576	10.654	3.8549e-06	23.681	-50.957	-38.971	-29.714	-109.560	101.456	40.043	-109.406	-104.234	-49.595	88.243	-105.366	-100.584	-99.529	-94.569	79.477	-96.691	-8191	255	
7380.249	1	1	0	0	0.08197	0.081324	0.20663	0.14589	0.13988	0.16827	0.12127	0.0481	0.17498	0.17377	0.20599	0.21049	0.13079	0.16306	0.32196	0.17834	-2.2771	-3.1312	-3.3375	-2.7229	-3.35	-3.0021	-3.0146	-3.4542	-2.6104	-3.1937	-3.2833	-2.4896	-3.4521	-3.0979	-2.7208	-3.6437	-11.995	61.591	92.893	183.260	82.672	202.563	-3.573	-92.687	-6.790	96.311	193.812	72.839	154.625	-51.450	-38.238	27.764	8.3011e-05	0.00013657	5.0331e-05	163.45	5.271e-06	2.6076e-06	319.2	56.304	1.2225e-06	8.2657e-06	124.64	49.343	20.993	9.5193	3.5762e-06	23.068	0.0003391	0.0003608	9.7083e-05	184.05	3.751e-06	3.9739e-06	330.6	61.567	3.7876e-06	3.9594e-06	133.63	50.893	24.689	10.547	3.7144e-06	23.443	-97.315	45.144	-44.060	-109.343	39.008	-30.650	-109.888	-103.735	230.418	147.632	-104.787	-100.660	-98.183	-94.607	144.273	-96.595	-8191	255	
7380.343	1	1	0	0	0.087577	0.20049	0.20271	0.17353	0.053282	0.15732	0.14626	0.1139	0.13262	0.13521	0.25421	0.15759	0.11443	0.16458	0.096017	0.045841	-2.4625	-3.0438	-3.2604	-2.8688	-3.4729	-2.9979	-2.6979	-3.6083	-2.7375	-2.9396	-3.5729	-2.6396	-3.3083	-3.3312	-2.5271	-3.5479	190.388	128.718	15.384	-9.028	137.076	-30.685	184.821	224.216	55.706	85.705	92.368	76.948	-115.053	127.027	49.023	52.501	0.00011614	0.0003112	1.8686e-05	162.1	2.0007e-06	2.2075e-06	318.73	54.837	3.6185e-06	2.9192e-06	124.07	49.212	21.213	9.5923	4.6372e-06	22.806	0.00034818	0.00035291	9.4799e-05	182.41	3.8888e-06	3.859e-06	327.56	61.154	3.9434e-06	3.8787e-06	132.4	50.848	24.9	10.59	3.7298e-06	23.425	-101.817	-90.429	60.864	-108.684	207.775	101.785	-109.803	-102.826	119.262	196.010	-105.033	-100.659	-98.947	-94.820	176.449	-96.183	-8191	255	
7380.440	1	1	0	0	0.080091	0.14493	0.19958	0.30797	0.09751	0.17548	0.040621	0.22789	0.097286	0.064156	0.04026	0.19103	0.2286	0.067985	0.26376	0.14115	-2.3021	-2.9771	-3.5729	-2.6312	-3.3646	-3.1958	-2.6063	-3.4958	-2.9854	-2.7042	-3.5604	-2.85	-3.2542	-3.2646	-2.7313	-3.4062	-23.095	-64.580	-71.331	10.899	94.437	223.050	198.760	-47.195	-88.119	5.786	-71.681	144.221	-115.003	138.648	81.867	-14.258	9.0267e-05	0.0003958	4.0351e-05	161.32	4.6839e-06	1.7566e-06	319.14	55.332	2.5607e-06	3.1854e-06	123.53	48.959	21.337	9.4466	4.6913e-06	22.627	0.00036492	0.00036168	9.6168e-05	184.38	4.0591e-06	3.9393e-06	328.46	61.744	4.097e-06	3.9642e-06	133.06	51.253	25.163	10.547	3.7452e-06	23.572	-57.030	-115.673	-64.800	-109.823	184.617	201.040	-110.249	-103.712	87.288	159.039	-105.953	-101.497	-99.376	-95.064	8.331	-96.874	-8191	255	
7380.536	1	1	0	0	0.069897	0.28658	0.19283	0.19537	0.089903	0.15146	0.04331	0.13287	0.26462	0.1032	0.083623	0.20993	0.23006	0.27888	0.20169	0.16639	-2.5792	-2.6917	-3.6604	-2.7479	-3.1063	-3.2479	-2.6042	-3.2146	-3.0771	-2.9604	-3.6833	-2.7417	-3.1396	-3.5271	-2.5646	-3.3312	-79.871	-72.224	-111.560	7.754	44.369	225.679	-22.298	174.227	226.084	65.770	-41.197	-93.228	73.291	-16.666	-75.355	113.094	0.00017314	0.00025487	8.7103e-05	159.58	2.4549e-06	4.4867e-06	318.99	56.108	1.136e-06	3.5001e-06	125.37	49.37	21.079	9.4829	2.4123e-06	23.046	0.00036799	0.00035676	9.6033e-05	185.92	4.0537e-06	3.9597e-06	329.31	62.407	4.0706e-06	3.896e-06	133.98	51.604	25.015	10.578	3.7534e-06	23.714	-50.212	235.881	-41.075	-109.897	8.856	73.659	-110.248	-103.460	237.460	177.934	-105.388	-100.434	-98.823	-94.692	218.945	-96.275	-8191	255	
7380.632	1	1	0	0	0.20695	0.35182	0.2105	0.17042	0.31793	0.22593	0.18596	0.25694	0.15903	0.1722	0.080204	0.10529	0.081973	0.14257	0.083435	0.063418	-2.4958	-2.6583	-3.3458	-2.7625	-2.9583	-3.4604	-2.8688	-3.3187	-2.8625	-2.7604	-3.65	-2.9271	-2.8958	-3.5083	-2.5083	-3.1833	75.913	198.203	-52.484	160.881	116.495	-23.100	-10.424	-120.764	126.308	32.370	234.851	206.869	147.739	-26.962	187.873	154.438	7.7641e-05	0.00030246	6.1304e-05	161.34	2.577e-06	2.0987e-06	315.9	55.884	4.3376e-06	1.6679e-06	125.55	49.002	21.289	9.3116	1.3246e-06	22.7	0.00036756	0.00035674	9.6016e-05	187.61	4.0147e-06	3.9052e-06	327.67	62.77	4.0337e-06	3.8915e-06	133.12	51.471	24.989	10.454	3.8791e-06	23.591	-68.984	-101.161	14.590	-108.917	-18.511	-93.106	-109.633	-103.773	38.661	85.108	-105.099	-101.042	-99.251	-93.972	56.643	-96.594	-8191	255	
7380.728	1	1	0	0	0.1738	0.32906	0.11862	0.131	0.088841	0.083576	0.14668	0.15467	0.06331	0.13906	0.24659	0.18707	0.14012	0.14126	0.11405	0.080993	-2.7292	-2.8583	-3.2417	-2.8604	-2.9062	-3.5521	-2.8521	-3.1667	-3.3208	-2.7625	-3.3833	-2.9375	-2.8187	-3.4521	-2.7292	-3.2062	196.932	4.353	-112.704	21.802	-43.117	165.139	138.905	137.049	159.819	-81.310	222.048	155.265	232.179	231.643	186.369	-110.436	7.9473e-05	2.3073e-05	6.4188e-05	159.09	1.8256e-06	4.2661e-06	315.44	55.691	1.5408e-06	4.1051e-06	124.61	48.444	20.941	9.3094	1.7936e-06	26.145	0.00036342	0.00034662	9.9983e-05	187.98	3.9646e-06	3.8091e-06	327.05	62.619	3.943e-06	3.7913e-06	133.68	51.155	24.823	9.9765	4.3516e-06	26.48	-76.340	118.615	172.152	-109.848	-75.884	30.958	-110.403	-103.670	142.089	204.329	-105.793	-100.567	-99.524	-107.072	84.534	-98.543	-8191	255	
7380.849	1	1	0	0	0.097016	0.068105	0.12646	0.14783	0.08184	0.081121	0.11741	0.26359	0.17553	0.1597	0.1573	0.13303	0.11626	0.1384	0.18759	0.088616	-2.95	-2.6104	-3.55	-2.7729	-2.7292	-3.6437	-2.875	-3.1958	-3.3688	-2.9958	-3.5229	-3.0583	-2.9667	-3.5229	-2.7	-3.1625	-110.660	-19.568	57.358	165.909	40.187	117.140	64.650	80.909	217.377	222.042	-44.909	98.148	141.577	-57.279	4.082	99.575	0.00018047	0.00039875	9.8375e-06	185	5.661e-06	3.6914e-06	364.03	63.607	1.912e-06	4.0004e-06	143.09	56.842	24.356	10.71	5.6747e-06	26.215	0.00040279	0.00038902	0.00011608	211.53	4.4538e-06	4.3015e-06	373.18	70.456	4.4434e-06	4.3844e-06	152.85	58.436	28.068	11.858	4.7643e-06	26.724	-101.996	-23.217	-82.735	-111.298	-4.036	133.555	-111.383	-105.013	45.465	66.308	-106.294	-101.718	-100.551	-96.738	-24.667	-97.688	-8191	255	
7380.945	1	1	0	0	0.098463	0.14952	0.15296	0.096053	0.029124	0.1063	0.2905	0.43308	0.17198	0.10655	0.27294	0.12829	0.18288	0.11585	0.13221	0.14002	-2.875	-2.725	-3.1417	-3.0354	-2.8604	-3.5187	-2.8521	-3.1042	-3.4771	-2.7875	-3.3646	-3.2313	-2.5729	-3.4604	-2.8354	-2.9521	92.896	44.054	52.713	98.032	22.827	-82.918	171.399	-34.948	-33.413	153.167	91.458	-67.175	138.027	-76.787	46.178	-5.829	0.0001814	0.00022802	0.00010106	186.11	3.9791e-06	4.032e-06	365.49	64.25	1.6541e-06	4.0149e-06	143.22	56.374	24.534	10.931	7.896e-06	26.262	0.00040152	0.00039843	0.00012051	212.08	4.3901e-06	4.3862e-06	374.53	70.734	4.348e-06	4.4121e-06	152.69	58.221	27.996	11.946	4.7211e-06	26.578	-91.641	-75.993	-0.398	-110.599	-17.831	221.997	-111.149	-104.824	82.475	-45.521	-107.072	-102.005	-100.369	-95.434	111.485	-97.661	-8191	255	
7381.041	1	1	0	0	0.10687	0.33438	0.18296	0.10309	0.23164	0.089283	0.12395	0.081262	0.10081	0.15906	0.09096	0.14448	0.14457	0.072887	0.094005	0.10358	-3.0687	-2.5625	-3.0479	-3.3208	-2.7833	-3.5792	-3.0187	-2.8667	-3.6979	-2.7708	-3.2167	-3.3083	-2.7542	-3.4667	-2.9792	-2.6479	-38.142	-27.825	206.638	-89.440	-51.006	146.887	16.356	72.819	91.773	188.955	24.762	136.850	205.602	-58.042	123.976	43.487	0.00013889	0.00037181	0.00018064	185.35	3.4001e-06	3.1674e-06	364.02	63.978	6.5669e-06	8.6415e-07	142.64	56.313	24.352	10.787	3.0925e-06	26.035	0.00038846	0.00040854	0.00011972	210.34	4.2643e-06	4.4835e-06	370.99	69.914	4.2786e-06	4.5562e-06	151.72	57.82	27.777	11.889	4.6778e-06	26.386	-51.604	190.206	-25.039	-111.290	-36.777	173.415	-111.244	-104.241	5.074	154.019	-107.234	-103.010	-101.250	-95.937	-0.366	-98.398	-8191	255	
7381.137	1	1	0	0	0.18824	0.058072	0.055144	0.18185	0.23536	0.24099	0.11173	0.24818	0.26155	0.24687	0.21837	0.11737	0.15515	0.074065	0.095201	0.12657	-3.0146	-2.8021	-3.0958	-3.3708	-2.7771	-3.4146	-3.0062	-2.7833	-3.5479	-2.8812	-3.2167	-3.3625	-2.5708	-3.3	-3.2375	-2.5229	212.833	65.727	59.753	157.676	-56.225	-44.523	176.858	99.308	178.948	-15.530	-17.594	-119.951	-29.515	-69.510	187.315	-102.830	0.00017602	0.00084312	0.00010156	183.84	2.3214e-06	2.3785e-06	360.68	63.368	3.6761e-06	2.4389e-06	143.55	56.115	24.199	10.885	2.6463e-06	26.418	0.0003833	0.00042473	0.00011771	209.88	4.296e-06	4.6742e-06	370.52	69.877	4.2949e-06	4.7135e-06	151.96	57.815	27.948	12.05	4.6665e-06	26.569	-72.687	-87.481	191.530	-111.869	-101.800	-61.835	-111.583	-105.534	17.537	-75.669	-107.387	-102.758	-101.224	-95.827	75.330	-98.216	-8191	255	
7381.232	1	1	0	0	0.083154	0.2091	0.25159	0.21444	0.088162	0.22896	0.28403	0.17826	0.17092	0.090144	0.063888	0.10148	0.21861	0.18294	0.24381	0.37197	-3.3396	-2.825	-2.9208	-3.5271	-2.7125	-3.3	-3.2	-2.5958	-3.6021	-3.0542	-2.775	-3.5667	-2.7729	-3.1708	-3.3312	-2.6937	96.829	133.844	-88.951	136.562	203.852	207.992	180.683	32.132	-0.179	137.328	-40.891	104.071	105.528	158.841	41.685	46.702	0.00023106	0.00039139	0.0001053	184.81	3.0834e-06	3.9183e-06	364.21	64.163	7.1837e-07	9.216e-06	143.48	56.456	24.388	10.864	7.3741e-07	26.493	0.00039147	0.00043253	0.00011726	209.1	4.4046e-06	4.7234e-06	370.7	69.813	4.3723e-06	4.7365e-06	151.61	57.946	28.265	12.104	4.4998e-06	26.651	-103.874	-7.754	135.660	-111.123	-115.420	-29.629	-111.663	-105.314	5.208	28.358	-107.214	-102.390	-101.078	-95.846	-63.196	-98.239	-8191	255	
7381.328	1	1	0	0	0.24038	0.18996	0.12717	0.13802	0.2314	0.11953	0.031789	0.080016	0.20536	0.24641	0.10811	0.34281	0.1369	0.070962	0.088552	0.059955	-2.9688	-2.9417	-2.6458	-3.5563	-2.7562	-3.1792	-3.3271	-2.8083	-3.4188	-2.9083	-2.8604	-3.6146	-2.7896	-3.1667	-3.3604	-2.7479	230.150	-56.738	-82.242	36.581	-80.590	119.409	0.263	11.343	-68.097	188.167	8.305	-111.391	180.402	182.823	88.382	217.061	9.8511e-05	0.00060239	9.2742e-05	186.92	5.2085e-06	2.8768e-06	366.82	63.711	3.2568e-06	3.1741e-06	140.61	56.191	24.439	10.953	2.2557e-06	26.293	0.00040125	0.00042825	0.00011402	208.94	4.5081e-06	4.6695e-06	372.25	69.936	4.6492e-06	4.6883e-06	150.27	57.61	28.391	11.994	4.5086e-06	26.371	-118.169	160.678	-81.812	-111.847	49.260	40.964	-111.269	-104.919	-111.572	-70.393	-106.744	-102.349	-100.785	-95.368	106.567	-98.299	-8191	255	
7381.424	1	1	0	0	0.27739	0.26703	0.19935	0.11412	0.093299	0.29737	0.16055	0.085253	0.14275	0.30428	0.077262	0.11479	0.15193	0.037668	0.15942	0.16468	-3	-3.075	-2.7896	-3.5292	-2.7021	-3.1021	-3.6979	-2.7438	-3.4125	-3.2646	-2.7333	-3.6688	-2.6792	-2.8646	-3.6813	-2.8833	49.369	26.364	-37.420	56.306	135.993	-84.825	159.074	38.314	-45.236	195.553	-99.088	-56.516	161.350	-120.953	-3.912	-98.463	0.00019389	0.00041742	0.00015922	184.88	3.2568e-06	2.3125e-06	365.11	63.482	6.8238e-06	9.6454e-06	141.55	56.146	24.618	10.762	1.6897e-06	26.166	0.00042059	0.00042868	0.00011421	209.27	4.748e-06	4.6618e-06	369.02	69.7	4.7868e-06	4.7107e-06	150.06	57.685	28.537	11.953	4.5259e-06	26.415	-85.383	148.626	-1.196	-110.381	56.039	-87.781	-111.269	-105.185	198.145	-18.076	-106.400	-102.239	-101.240	-95.457	69.229	-97.880	-8191	255	
7381.544	1	1	0	0	0.18212	0.10598	0.21541	0.24898	0.13018	0.062115	0.12355	0.15352	0.17595	0.17308	0.060255	0.27947	0.10286	0.14588	0.17161	0.20766	-2.7208	-3.1917	-2.7604	-3.5583	-2.9875	-2.7667	-3.6083	-2.7104	-3.375	-3.1583	-3.0542	-3.3604	-3.0083	-2.6167	-3.4958	-2.9167	-43.777	120.092	-76.188	156.263	50.248	-89.580	204.477	230.742	183.437	-109.612	82.587	99.979	96.901	-68.854	-82.133	164.907	0.00012028	0.00026304	2.3742e-05	187.04	1.8492e-06	2.4349e-06	361	63.669	5.211e-06	6.8818e-06	143.02	56.31	24.276	10.884	8.5795e-06	26.009	0.00043523	0.000429	0.00011421	210.98	4.8251e-06	4.6884e-06	369.56	70.277	4.8836e-06	4.7608e-06	150.75	58.164	28.704	12.039	4.5427e-06	26.634	-38.858	64.716	-44.108	-110.879	-18.804	39.213	-111.077	-104.897	160.474	-70.055	-106.581	-101.796	-100.514	-95.678	-26.689	-97.819	-8191	255	
7381.641	1	1	0	0	0.10654	0.16116	0.21913	0.2814	0.050481	0.062563	0.13069	0.19447	0.13915	0.10977	0.10124	0.15347	0.059114	0.24324	0.23442	0.24039	-2.9313	-3.1875	-2.5083	-3.3042	-3.0833	-3.075	-3.4771	-2.6	-3.05	-3.4771	-2.4292	-3.1688	-3.0438	-2.8083	-3.5938	-2.7271	221.473	234.636	-71.266	-85.819	204.041	157.998	197.248	107.366	100.306	121.545	169.895	114.794	-55.932	-66.241	-38.863	133.143	0.00012511	0.00037231	5.2307e-05	184.85	7.9506e-06	3.3553e-06	363.05	63.425	2.65e-06	1.7074e-06	142.58	56.218	24.064	10.857	3.7604e-06	25.97	0.00044136	0.00043628	0.0001146	213.85	4.9018e-06	4.7548e-06	369.63	71.106	4.9591e-06	4.7934e-06	151.59	58.636	28.822	12.019	4.7154e-06	26.682	-80.146	95.289	174.320	-110.475	65.565	117.862	-110.363	-104.075	157.617	-39.921	-106.067	-101.013	-100.136	-95.917	-5.001	-97.734	-8191	255	
7381.737	1	1	0	0	0.073609	0.082191	0.096032	0.18571	0.15028	0.12076	0.1069	0.045633	0.037305	0.12412	0.047621	0.015612	0.078366	0.18822	0.10032	0.21864	-2.5812	-3.5042	-2.5563	-3.2438	-3.2396	-2.7625	-3.4875	-2.6688	-2.8708	-3.5521	-2.7854	-3.3271	-3.0938	-2.7021	-3.7167	-2.9542	141.843	-62.743	100.373	-75.885	69.840	0.914	184.434	203.018	116.368	73.128	176.592	82.703	128.133	119.078	199.614	-86.991	0.00016186	0.00031949	0.00014944	181.79	2.7981e-06	3.4752e-06	359.31	63.22	6.1955e-06	1.037e-05	140.63	55.529	24.055	10.681	4.7322e-06	25.791	0.00044915	0.00043689	0.00012017	213.8	4.9713e-06	4.7015e-06	368.49	71.142	4.9404e-06	4.7503e-06	150.4	58.028	28.609	11.835	4.8684e-06	26.481	-78.217	-4.765	86.271	-110.597	11.269	-49.161	-110.555	-105.278	175.277	61.847	-106.613	-101.243	-99.667	-95.315	80.824	-97.082	-8191	255	
7381.808	1	1	0	0	0.15039	0.03298	0.18696	0.19553	0.13516	0.24948	0.215	0.28837	0.15449	0.09737	0.2207	0.10879	0.21252	0.29694	0.080699	0.28545	-2.4625	-3.3854	-2.6604	-3.225	-3.4479	-2.3792	-3.2479	-2.7687	-2.8104	-3.4958	-2.6104	-3.1354	-3.4396	-2.8167	-3.3354	-3.1667	-36.241	65.441	157.927	3.783	222.761	-57.107	-85.117	-37.135	-44.801	96.751	-90.937	-87.496	205.948	-72.783	45.625	74.336	0.00013501	0.00082722	4.7328e-05	183.56	1.6433e-06	6.0223e-06	358.59	63.112	2.6829e-06	3.5798e-06	141.27	56.235	23.993	10.611	2.4462e-06	25.912	0.00044628	0.00043423	0.00012636	215.06	5.0716e-06	4.806e-06	369.43	71.252	5.0598e-06	4.9159e-06	153.28	58.432	28.831	11.876	5.2835e-06	26.707	-63.280	-34.751	27.983	-110.229	-35.667	63.726	-110.508	-104.700	48.700	25.012	-106.082	-101.289	-99.675	-94.775	211.290	-97.509	-8191	255	
7381.929	1	1	0	0	0.17411	0.131	0.2736	0.053004	0.13311	0.30804	0.22508	0.057268	0.24017	0.21334	0.15907	0.033866	0.045946	0.094924	0.15535	0.15315	-2.5938	-3.4542	-2.6021	-3.1562	-3.5979	-2.625	-3.3958	-3.1688	-2.7458	-3.675	-2.8021	-3.0104	-3.5021	-2.6271	-3.3792	-3.2417	22.921	-47.479	-21.785	171.022	7.583	119.517	-103.592	219.296	-81.831	236.725	184.454	63.191	217.035	17.450	108.340	-118.020	0.00012294	0.00042047	3.293e-05	183.41	8.5064e-06	2.3096e-06	358.8	63.216	4.0607e-06	2.7964e-06	142.62	55.645	24.207	10.785	2.3793e-06	26.072	0.00046061	0.00044917	0.00013556	216.68	5.139e-06	4.9453e-06	372.32	71.622	5.1087e-06	5.031e-06	154.88	58.593	28.937	12.046	5.4966e-06	26.875	-113.362	126.248	69.197	-109.968	82.268	0.380	-110.460	-103.891	33.410	83.632	-105.187	-101.134	-99.818	-95.141	-56.858	-97.387	-8191	255	
7382.025	1	1	0	0	0.1328	0.12549	0.19883	0.20745	0.11705	0.27151	0.24169	0.30332	0.079067	0.22333	0.11743	0.11074	0.14619	0.19165	0.15191	0.26115	-2.3083	-3.6792	-2.7042	-2.9271	-3.5083	-2.6625	-3.4417	-3.1688	-2.575	-3.4375	-2.8438	-2.8417	-3.4542	-2.7083	-3.2229	-3.1229	-114.156	115.196	42.955	-116.910	141.309	36.963	231.627	151.260	38.605	93.436	119.027	153.800	168.352	-110.450	236.708	116.819	0.00010437	0.00027647	0.00018631	183.09	5.87e-06	4.7511e-06	355.74	63.23	3.3536e-06	3.2013e-06	141.9	55.839	24.338	10.641	2.962e-06	25.898	0.00045617	0.00046537	0.0001406	215.63	5.0614e-06	5.0769e-06	371.53	71.184	4.9966e-06	5.1186e-06	154.23	58.503	28.841	12.117	5.4194e-06	26.663	-10.635	89.711	-48.723	-109.613	-48.930	63.421	-110.243	-104.240	20.800	78.811	-105.806	-101.274	-99.594	-95.037	63.888	-96.876	-8191	255	
7382.121	1	1	0	0	0.16612	0.18064	0.29849	0.22853	0.082241	0.19315	0.21405	0.10123	0.051517	0.099439	0.16017	0.22777	0.16148	0.17398	0.40516	0.14282	-2.1562	-3.4875	-3.0646	-2.8958	-3.4271	-2.7375	-3.2417	-3.5104	-2.7417	-3.2812	-2.9771	-2.6333	-3.4625	-2.6729	-3.1521	-3.4458	227.133	33.493	92.323	-92.184	7.292	-21.459	230.133	-38.715	210.717	0.290	151.580	211.114	210.445	73.033	4.602	-33.631	0.00018932	0.00012036	4.5413e-05	183.94	2.1076e-06	2.6656e-06	357.6	63.308	5.3685e-06	5.6423e-06	140.04	55.921	24.406	10.595	5.6547e-06	26.03	0.00044634	0.00047755	0.0001391	214.17	4.9865e-06	5.3478e-06	371.27	71.371	4.9968e-06	5.449e-06	153.91	58.655	28.902	12.2	5.4893e-06	26.834	-71.314	56.833	-14.123	-109.486	-108.109	45.245	-110.321	-104.270	194.289	90.816	-106.047	-101.179	-99.967	-94.806	-87.225	-96.653	-8191	255	
7382.217	1	1	0	0	0.23584	0.0029998	0.097495	0.022749	0.16238	0.18256	0.096332	0.45429	0.14226	0.044174	0.26849	0.08986	0.050932	0.049304	0.089172	0.069349	-2.0771	-3.3979	-3.1542	-2.6562	-3.7104	-2.9833	-2.8792	-3.4667	-2.7188	-3.3583	-3.0771	-2.7458	-3.4604	-2.9208	-3.0104	-3.6417	19.621	225.714	-36.015	86.901	130.389	-107.762	232.818	-88.418	32.249	-51.216	-1.715	-109.844	23.483	-8.875	122.097	170.468	0.00017276	0.00042382	0.00023897	183.1	5.2936e-06	3.398e-06	361.6	63.338	3.174e-06	8.1927e-06	140.03	56.172	24.027	10.759	1.0293e-06	25.973	0.00045546	0.00050743	0.00013939	215.12	5.1856e-06	5.6956e-06	373.42	71.672	5.2047e-06	5.7046e-06	155.31	58.892	29.098	12.373	5.512e-06	26.849	-91.849	-108.555	-38.430	-109.841	154.054	223.642	-110.256	-104.937	189.241	50.823	-105.681	-100.862	-99.589	-94.589	33.305	-97.200	-8191	255	
7382.336	1	1	0	0	0.13302	0.096103	0.12324	0.25	0.31444	0.029661	0.1853	0.080937	0.27415	0.24731	0.096851	0.22092	0.10466	0.081356	0.14732	0.086104	-2.1312	-3.3375	-3.3125	-2.4354	-3.4646	-2.9437	-3.0021	-3.5396	-2.6604	-3.1437	-3.5271	-2.7229	-3.35	-3.0187	-2.9875	-3.5563	118.307	219.525	89.992	196.260	172.150	-32.643	9.514	176.289	15.347	19.378	226.965	-1.787	-102.234	188.880	-42.624	87.933	3.3414e-05	0.00025443	9.3452e-05	182.86	2.0226e-06	3.937e-06	360.12	63.702	1.1067e-06	3.4711e-06	142.27	56.203	24.327	10.869	3.2091e-06	26.257	0.00047095	0.0005105	0.0001378	214.01	5.3372e-06	5.6016e-06	373.4	71.236	5.3327e-06	5.6431e-06	155.17	58.929	29.425	12.378	5.3798e-06	26.844	-60.102	229.465	75.223	-110.000	197.686	-115.792	-110.299	-103.953	-84.725	-57.410	-106.774	-102.157	-100.666	-95.949	146.908	-97.515	-8191	255	
7382.433	1	1	0	0	0.088381	0.21667	0.22163	0.23355	0.14915	0.21671	0.36757	0.037185	0.14224	0.3152	0.1407	0.11509	0.17179	0.25465	0.055557	0.087992	-2.1729	-3.1167	-3.3729	-2.6125	-3.5542	-3.1625	-2.6688	-3.4521	-3.0125	-3.2083	-3.4938	-2.5146	-3.3167	-3.2313	-2.9313	-3.4333	-25.462	-119.510	78.660	205.898	166.101	-35.020	-24.546	-105.754	179.149	144.421	-100.813	99.892	-107.202	19.566	-71.375	-42.530	0.00012023	0.00039492	0.00012014	182.37	5.2078e-07	9.0666e-06	355.56	63.37	5.6388e-06	5.6179e-06	140.97	56.807	24.597	10.712	3.8747e-06	26.134	0.00048786	0.0005042	0.00013708	213.81	5.489e-06	5.5237e-06	371.63	70.985	5.4835e-06	5.4684e-06	154.07	58.799	29.664	12.299	5.2709e-06	26.856	-99.660	-77.002	56.422	-111.244	19.016	26.624	-110.965	-104.637	72.226	-14.991	-106.629	-101.704	-100.684	-95.245	44.454	-97.653	-8191	255	
7382.529	1	1	0	0	0.16917	0.11675	0.19363	0.13986	0.11	0.073596	0.24549	0.04514	0.17045	0.15162	0.01342	0.1297	0.35679	0.070403	0.14609	0.036363	-2.5167	-3.1562	-3.4938	-2.65	-3.3	-3.2521	-2.5542	-3.3312	-2.875	-3.0417	-3.2438	-2.8271	-3.4208	-3.1583	-2.5917	-3.5542	-108.768	-104.169	91.816	51.491	-1.034	-101.191	228.522	-38.775	191.388	-35.687	29.149	76.784	205.468	146.037	-2.966	116.122	0.00022757	4.9726e-05	9.5954e-05	181.78	2.9195e-06	5.4673e-06	358.7	62.979	6.3719e-06	2.7312e-06	140.98	56.75	24.559	10.83	6.2261e-06	26.29	0.00050006	0.00050279	0.00013294	213.7	5.5795e-06	5.4192e-06	370.7	71.156	5.5392e-06	5.3571e-06	153.64	58.967	29.594	12.287	5.0413e-06	27.072	-63.116	69.264	-18.996	-110.663	-60.333	203.872	-110.521	-104.955	231.563	40.458	-106.232	-101.816	-99.941	-95.041	37.366	-97.059	-8191	255	
7382.625	1	1	0	0	0.11646	0.18647	0.059966	0.13641	0.10363	0.051677	0.18134	0.09028	0.24363	0.060072	0.15301	0.059629	0.25994	0.21125	0.30756	0.20795	-2.7021	-2.6854	-3.4042	-2.825	-3.1125	-3.1771	-2.8146	-3.4104	-3.0354	-2.8937	-3.8146	-2.6104	-3.0062	-3.5083	-2.5458	-3.3771	4.122	193.534	168.791	61.671	-14.564	-49.538	182.894	-11.756	97.361	31.121	121.306	-4.510	219.298	-60.467	-110.096	170.856	0.00014507	0.00099302	2.1804e-05	182.36	5.9234e-06	4.0844e-06	362.47	64.481	3.4552e-06	5.1075e-06	142.28	58.001	24.64	10.8	4.0318e-06	26.284	0.00049169	0.00048209	0.00012896	216.04	5.4215e-06	5.3019e-06	372.87	72.285	5.4492e-06	5.2766e-06	153.73	60.032	29.599	12.302	4.9678e-06	27.291	-58.329	13.841	226.661	-110.722	207.793	-9.530	-110.705	-104.343	-55.154	-36.095	-106.594	-101.531	-100.126	-95.792	40.719	-97.257	-8191	255	
7382.721	1	1	0	0	0.24568	0.073641	0.18659	0.17008	0.19751	0.11242	0.054673	0.083618	0.11429	0.10883	0.2232	0.16379	0.17911	0.15465	0.1737	0.07425	-2.575	-2.8271	-3.6979	-2.8229	-2.8354	-3.4604	-2.7521	-3.3729	-3.3063	-2.8229	-3.7167	-2.8354	-3.1292	-3.4979	-2.7	-3.225	169.222	9.152	45.093	-109.714	2.771	198.116	-117.334	234.240	-74.054	157.119	-109.168	229.787	-87.555	83.425	61.094	-88.017	0.00017944	0.00088493	0.00011676	182.75	5.3816e-06	9.728e-06	367.1	64.651	7.7143e-06	1.1395e-05	143.81	57.156	24.756	10.798	9.9432e-06	26.47	0.00047964	0.0004647	0.00012552	216.87	5.2424e-06	5.1098e-06	374.61	72.345	5.2243e-06	5.0437e-06	153.89	59.703	29.423	12.216	4.9449e-06	27.312	-60.479	-43.723	38.516	-110.714	18.128	1.647	-110.529	-104.351	0.682	74.505	-105.680	-101.111	-99.758	-95.258	148.105	-96.957	-8191	255	
7382.817	1	1	0	0	0.19585	0.11821	0.16017	0.23676	0.19293	0.084393	0.12429	0.15645	0.26232	0.19665	0.11485	0.11522	0.06962	0.29488	0.040207	0.20347	-2.8167	-2.6208	-3.2021	-2.925	-3.1396	-3.4083	-2.875	-3.3354	-3.3438	-2.7083	-3.5833	-3.2896	-2.8875	-3.5833	-2.6667	-3.1937	88.020	117.410	-97.407	-23.213	185.430	37.362	199.409	133.546	-113.362	-82.063	161.382	-73.960	-80.569	91.131	5.245	221.005	0.00020354	0.00051443	6.8958e-05	182.5	4.9414e-06	6.8777e-06	361.46	64.127	7.0914e-06	4.7568e-06	146.02	57.462	24.535	11.042	3.9469e-06	26.988	0.0004599	0.00045131	0.00012551	216.16	5.0724e-06	4.889e-06	373.93	72.099	5.028e-06	4.7534e-06	154.77	59.719	29.056	12.178	4.889e-06	27.521	-93.125	-106.291	-54.005	-109.709	-11.083	44.428	-110.202	-103.975	64.890	209.366	-105.885	-100.979	-99.260	-94.786	-54.208	-96.903	-8191	255	
7382.938	1	1	0	0	0.224	0.25631	0.043249	0.13364	0.017961	0.15338	0.12358	0.19762	0.23326	0.16519	0.18936	0.090005	0.099669	0.088586	0.30618	0.093235	-2.8771	-2.8042	-3.4771	-2.8583	-2.775	-3.4375	-2.9542	-3.2458	-3.2771	-2.6667	-3.4833	-2.9271	-2.8438	-3.5542	-2.7562	-3.1396	-29.594	-71.629	23.829	-77.268	-21.476	163.083	89.911	61.051	146.812	215.008	61.120	215.518	-80.628	160.531	-17.118	-37.528	0.00021959	0.00031862	0.00011218	185.77	2.3689e-06	9.6212e-06	364.96	64.812	1.4348e-06	4.8707e-06	144.36	57.804	24.668	11.086	2.0787e-06	27.264	0.00044064	0.00042196	0.00012525	214.86	4.8133e-06	4.6381e-06	376.55	71.831	4.7692e-06	4.5932e-06	155.58	59.73	28.974	12.194	4.9244e-06	27.649	-78.776	5.802	-68.682	-109.937	59.004	-28.263	-110.552	-103.550	184.021	4.058	-105.436	-101.211	-99.148	-95.155	220.909	-96.541	-8191	255	
7383.034	1	1	0	0	0.16615	0.22783	0.26759	0.13113	0.16453	0.068123	0.22622	0.038808	0.052879	0.21513	0.12961	0.21555	0.23807	0.23827	0.27933	0.21036	-3.2833	-2.5833	-3.4792	-3.1979	-2.7313	-3.5417	-2.7708	-3.0812	-3.4854	-2.7854	-3.475	-3.0271	-2.8417	-3.55	-2.9021	-2.8979	220.379	21.166	-48.277	46.090	-116.762	23.533	-47.263	4.666	27.110	-16.202	184.210	209.510	219.491	118.653	119.610	168.132	0.00014747	0.00052284	8.1205e-05	185.33	3.3642e-06	5.7126e-06	368.81	64.819	3.5312e-06	9.5627e-06	146.7	57.727	24.94	11.176	4.3286e-06	27.182	0.00042323	0.00041361	0.00012599	213.25	4.6289e-06	4.5771e-06	379.08	71.774	4.5566e-06	4.6064e-06	156.8	59.859	28.779	12.256	4.9266e-06	27.585	-103.271	29.001	-4.483	-109.620	16.173	-11.784	-110.289	-104.119	31.026	5.651	-104.470	-101.161	-99.850	-94.602	34.721	-96.496	-8191	255	
7383.106	1	1	0	0	0.12139	0.20877	0.15606	0.18193	0.24184	0.077028	0.29379	0.15661	0.0454	0.19073	0.15697	0.20825	0.259	0.14841	0.086437	0.022568	-3.2313	-2.725	-3.1708	-3.3563	-2.6437	-3.5042	-3.2042	-2.9583	-3.3688	-2.7604	-3.2854	-3.4521	-2.65	-3.6292	-3.0854	-2.8333	41.965	12.626	-85.032	31.129	-119.045	-49.229	-63.725	-3.148	101.230	-89.464	227.773	43.118	211.260	63.439	7.411	222.938	0.00017501	0.0006918	0.00011798	183.84	3.1932e-06	9.5376e-06	370.02	65.58	2.6214e-06	3.4671e-06	144.99	57.857	24.783	11.061	1.7212e-06	27.07	0.00040403	0.0004168	0.00012462	212.53	4.3929e-06	4.6461e-06	378.98	71.369	4.3836e-06	4.6324e-06	155.61	59.555	28.463	12.206	4.7864e-06	27.269	-63.126	197.832	-15.846	-109.019	43.247	-12.353	-109.995	-103.467	65.235	97.167	-104.721	-100.914	-99.411	-94.509	28.153	-96.073	-8191	255	
7383.202	1	1	0	0	0.27136	0.071137	0.11197	0.21923	0.022499	0.12393	0.13689	0.21794	0.1635	0.062217	0.034742	0.21214	0.028443	0.16704	0.22381	0.093651	-3.3729	-2.6583	-3.0229	-3.4146	-2.9646	-3.4917	-3.1792	-3.0896	-3.675	-2.8396	-2.9583	-3.5375	-2.8021	-3.3896	-3.2	-2.7708	145.251	88.890	-57.477	-62.706	193.391	-2.708	175.867	-120.954	46.582	-86.549	202.198	86.511	-53.887	159.460	219.762	18.113	9.6418e-05	0.00064538	9.2703e-05	187.36	5.3924e-06	1.3931e-06	364.57	65.022	3.6008e-06	3.8752e-06	145.83	57.919	24.763	11.002	3.5333e-06	27.08	0.00039065	0.00042618	0.00011995	211.42	4.3208e-06	4.666e-06	376.2	71.26	4.3119e-06	4.7154e-06	154.8	59.436	28.522	12.339	4.6958e-06	27.38	-74.289	71.565	55.534	-109.767	16.561	-51.987	-109.547	-103.256	-35.092	24.222	-105.132	-100.525	-98.979	-94.369	30.742	-96.430	-8191	255	
7383.321	1	1	0	0	0.10432	0.25332	0.025273	0.091491	0.16921	0.14452	0.079277	0.050659	0.15799	0.034477	0.12927	0.13369	0.23434	0.19418	0.25058	0.21788	-3.3729	-2.9229	-3.0479	-3.4813	-2.8771	-3.3083	-3.2521	-2.7958	-3.5917	-2.8417	-2.9833	-3.7125	-2.7458	-3.1958	-3.4229	-2.85	122.393	87.246	-74.981	6.006	-99.441	133.388	105.444	143.591	-81.942	176.185	82.820	-23.446	-34.309	214.143	71.952	32.582	0.0001621	0.00011757	8.767e-05	185.65	2.1711e-06	2.8111e-06	370.25	65.186	3.1116e-06	8.3403e-06	146.2	57.966	24.489	11.145	4.355e-06	27.369	0.00039821	0.00043503	0.00011904	210.61	4.3986e-06	4.8634e-06	378.75	71.165	4.4754e-06	4.8099e-06	155.81	59.529	28.717	12.394	4.6391e-06	27.563	-69.796	10.057	140.897	-109.944	-50.703	42.576	-109.994	-103.191	-79.323	-26.563	-104.321	-100.473	-99.267	-94.551	52.707	-96.101	-8191	255	
7383.417	1	1	0	0	0.25831	0.38747	0.17504	0.052348	0.085044	0.065463	0.11785	0.055484	0.1917	0.1042	0.017829	0.094806	0.047792	0.070428	0.17622	0.11646	-2.8917	-3.0021	-2.8146	-3.6375	-2.7062	-3.2021	-3.4958	-2.6208	-3.4979	-3.15	-2.775	-3.55	-2.8458	-3.3021	-3.4229	-2.7708	-58.918	45.328	-54.875	-39.482	-27.465	24.605	193.904	14.478	16.284	-18.242	-104.171	209.387	189.613	-48.327	45.370	219.718	0.00018059	0.00021851	0.00011211	186.51	3.0468e-06	3.0024e-06	366.89	64.677	6.3785e-06	1.7985e-06	145.43	58.082	24.997	11.121	8.9452e-07	27.145	0.00041056	0.00043809	0.00011506	210.77	4.5247e-06	4.7165e-06	378.62	70.722	4.5148e-06	4.711e-06	153.89	59.41	29.124	12.298	4.4777e-06	27.361	-70.447	233.020	-102.279	-109.367	52.372	233.133	-110.531	-103.444	180.140	-41.303	-105.625	-100.966	-98.486	-94.571	28.612	-96.519	-8191	255	
7383.513	1	1	0	0	0.28999	0.1995	0.055871	0.16754	0.17898	0.090729	0.072415	0.19162	0.077071	0.056473	0.18546	0.17011	0.26814	0.1215	0.087737	0.1159	-3.1292	-3.1833	-2.7771	-3.7438	-2.8396	-3.2354	-3.4417	-2.7667	-3.3375	-3.4062	-2.725	-3.6146	-2.8708	-3.1146	-3.5	-2.8583	-4.561	174.680	235.397	-14.340	-87.864	-70.901	165.341	95.526	210.214	234.079	112.233	123.985	93.547	-29.905	197.341	85.538	0.00019156	0.00075024	0.00010118	185.72	6.4089e-06	1.7583e-06	371.6	64.868	3.0766e-06	8.8697e-06	145.09	57.852	25.044	11.207	2.8405e-06	27.071	0.00042068	0.0004297	0.00011322	210.11	4.6229e-06	4.6933e-06	377.32	70.639	4.7442e-06	4.6696e-06	153.95	59.223	29.057	12.235	4.4713e-06	27.32	-105.312	63.699	-30.472	-109.550	74.976	184.981	-109.849	-103.860	-69.769	18.744	-104.553	-100.486	-98.892	-94.254	-12.463	-96.304	-8191	255	
7383.609	1	1	0	0	0.22819	0.1194	0.20099	0.20681	0.18203	0.15428	0.11483	0.23461	0.088664	0.16265	0.3017	0.15122	0.19744	0.23253	0.2013	0.052634	-3.1292	-3.3125	-2.8917	-3.6042	-2.8812	-2.8604	-3.4771	-2.8917	-3.3479	-3.2062	-2.7625	-3.6042	-2.8208	-2.7917	-3.6854	-2.7854	-118.247	204.116	13.612	124.551	-71.500	168.610	-32.173	110.430	152.634	191.073	234.377	104.827	152.590	199.917	-119.295	200.665	0.00012383	0.00013038	3.872e-05	187.84	7.3469e-06	5.4207e-06	368.7	63.348	1.9697e-06	1.452e-06	144.95	58.276	24.753	11.018	2.6955e-06	27.074	0.00042667	0.0004223	0.00011295	211.74	4.7655e-06	4.6358e-06	377.17	70.861	4.8016e-06	4.6614e-06	153.75	59.744	29.021	12.229	4.4211e-06	27.529	-65.514	15.086	235.801	-109.442	137.691	5.367	-109.631	-103.813	88.591	105.234	-104.975	-100.596	-98.903	-94.189	25.087	-96.647	-8191	255	
7383.705	1	1	0	0	0.15634	0.22832	0.14742	0.18262	0.22186	0.16313	0.069338	0.19532	0.36529	0.22946	0.091711	0.097924	0.059541	0.22191	0.063239	0.265	-2.7333	-3.4417	-2.6813	-3.2729	-2.85	-2.9062	-3.6125	-2.6729	-3.1688	-3.7229	-2.7687	-3.5312	-3.2104	-3.0042	-3.5042	-2.8458	41.244	60.555	-10.578	148.989	113.806	30.952	104.646	143.149	-63.907	-22.646	-48.288	116.725	-65.216	57.310	-78.722	233.878	0.00014609	0.00046238	0.00018615	186.17	8.9397e-06	8.2487e-06	366.48	65.265	4.1972e-06	9.5616e-06	145.1	57.637	24.587	11.052	2.5436e-06	26.795	0.00043638	0.0004283	0.00011161	214.78	4.8332e-06	4.6362e-06	378.74	71.826	4.8519e-06	4.655e-06	154.37	60.149	29.183	12.249	4.5387e-06	27.685	-83.193	-16.757	-76.541	-109.508	65.913	-49.698	-109.561	-102.862	79.836	107.146	-104.405	-100.298	-99.013	-94.807	103.398	-96.457	-8191	255	
7383.801	1	1	0	0	0.030693	0.1221	0.21764	0.11023	0.11113	0.078427	0.1438	0.24772	0.2688	0.14687	0.16674	0.1489	0.27253	0.151	0.035336	0.095766	-2.8167	-3.4521	-2.7375	-3.3729	-3.05	-2.7646	-3.6292	-2.6292	-3.0333	-3.5542	-2.6521	-3.3708	-3.1021	-2.6354	-3.6604	-2.8979	145.222	172.688	-32.380	155.050	161.452	-48.842	222.258	179.621	-93.448	-88.154	78.413	-41.345	-109.275	95.634	118.855	-66.709	0.00017301	0.0005893	8.4488e-05	183.62	4.6239e-06	6.1561e-06	367.1	64.284	6.3136e-06	5.118e-06	142.97	57.67	24.482	10.888	2.9224e-06	26.617	0.00043742	0.00042809	0.00011598	216.99	4.8846e-06	4.7251e-06	378.57	72.318	4.8227e-06	4.7053e-06	154.45	60.197	28.95	12.125	4.7362e-06	27.499	-95.091	-61.172	30.006	-109.399	-32.411	158.889	-109.568	-103.628	44.532	31.887	-105.153	-100.096	-98.661	-94.369	54.333	-96.270	-8191	255	
7383.897	1	1	0	0	0.19925	0.14021	0.18649	0.14294	0.27071	0.18338	0.12145	0.16143	0.31523	0.22117	0.16197	0.30067	0.083266	0.25625	0.26419	0.069939	-2.5625	-3.5417	-2.6229	-3.2562	-3.3	-2.6375	-3.5979	-3.0167	-2.9813	-3.55	-2.7188	-3.2354	-3.4521	-2.8292	-3.7583	-3.3396	151.749	120.331	-113.741	93.724	-58.772	220.766	187.172	-34.853	-108.609	174.865	-99.833	-111.409	215.319	186.078	-7.467	106.074	9.5449e-05	0.000684	4.6192e-05	182.6	2.6794e-06	7.3522e-06	366.44	64.234	6.0368e-06	5.01e-06	143.73	56.79	24.573	10.988	3.3344e-06	26.308	0.00043488	0.00042769	0.00012218	216.71	4.8781e-06	4.5941e-06	377.9	72.117	4.8811e-06	4.6677e-06	155.51	59.909	29.142	12.19	5.0263e-06	27.479	-70.452	25.926	-75.481	-108.799	191.263	20.042	-109.617	-103.198	48.591	69.825	-105.148	-100.435	-98.606	-93.479	95.020	-95.912	-8191	255	
7384.018	1	1	0	0	0.11918	0.2301	0.11465	0.094385	0.18225	0.14885	0.015157	0.12081	0.13357	0.0488	0.24559	0.13168	0.17785	0.18207	0.17615	0.10831	-2.2979	-3.5438	-2.8333	-3.2854	-3.6208	-2.75	-3.5604	-3.2667	-2.6708	-3.7854	-2.8979	-3.2083	-3.4458	-2.5458	-3.5938	-3.2396	56.526	-92.255	190.256	85.334	3.688	167.303	134.083	-102.687	92.615	25.619	41.691	-105.271	205.151	-83.499	83.430	-48.778	6.9493e-05	0.00064608	0.0001388	185.22	1.432e-06	3.5105e-06	367.57	64.161	4.8987e-06	8.5308e-06	144.19	57.301	24.172	10.91	4.6187e-06	26.339	0.00044248	0.00043355	0.00012938	216.52	4.9219e-06	4.716e-06	381.57	72.387	4.9265e-06	4.759e-06	156.92	60.165	29.115	12.254	5.2642e-06	27.604	222.979	-7.934	-62.483	-108.577	-15.076	182.299	-109.493	-103.117	2.033	103.895	-104.634	-100.093	-98.762	-94.226	-16.731	-96.180	-8191	255	
7384.114	1	1	0	0	0.17584	0.17275	0.032067	0.042797	0.13082	0.12513	0.22247	0.10989	0.13652	0.13055	0.27784	0.081678	0.19748	0.046072	0.34739	0.17586	-2.4521	-3.5458	-2.6396	-2.8688	-3.5542	-2.6771	-3.3667	-3.275	-2.6833	-3.5646	-2.8979	-2.9604	-3.7354	-2.8	-3.1708	-3.4208	181.742	62.973	235.105	-27.752	-7.321	-52.428	217.161	174.720	79.257	98.111	41.036	-112.490	211.921	30.085	-31.806	229.614	0.00010097	0.00076498	5.1009e-05	183.63	6.5572e-06	2.4283e-06	363.14	63.623	2.3709e-06	3.1827e-06	141.48	57.044	24.658	10.709	3.9891e-06	26.238	0.0004462	0.00044784	0.0001367	217.47	4.9644e-06	4.9943e-06	381.65	72.217	4.9224e-06	5.0654e-06	157.36	59.98	29.083	12.265	5.3777e-06	27.368	-65.295	236.552	196.184	-108.936	-31.775	100.651	-108.979	-103.535	101.427	23.468	-104.723	-99.916	-98.879	-93.916	-52.454	-95.884	-8191	255	
7384.210	1	1	0	0	0.18817	0.15829	0.18391	0.0548	0.19604	0.085174	0.064907	0.14463	0.24399	0.12191	0.057536	0.19511	0.2038	0.26332	0.076649	0.16728	-2.2542	-3.5229	-3.15	-3.0187	-3.4729	-3.0021	-3.2583	-3.3958	-2.4833	-3.4521	-3.2604	-2.8146	-3.65	-2.5896	-3.2333	-3.3875	182.315	180.757	34.333	14.777	-93.879	110.642	237.390	221.243	72.525	-93.267	-38.120	217.705	-15.486	-21.679	231.975	208.522	0.00011168	0.00053078	0.00023462	180.94	3.8974e-06	3.2726e-06	362.97	63.185	1.9406e-06	5.3827e-06	140.35	56.293	24.124	10.721	8.1308e-06	26.017	0.00043886	0.00047014	0.0001366	216.17	4.9201e-06	5.267e-06	379.29	71.855	4.9244e-06	5.3557e-06	156.76	59.844	28.974	12.345	5.4234e-06	27.253	-96.831	4.681	-34.576	-108.365	61.053	-87.569	-109.179	-103.884	190.093	224.507	-105.172	-100.258	-98.289	-93.863	-57.481	-95.449	-8191	255	
7384.329	1	1	0	0	0.25181	0.13348	0.029427	0.18249	0.1435	0.27815	0.01058	0.08044	0.21765	0.11071	0.15984	0.37241	0.057844	0.14097	0.2333	0.39806	-2.5	-3.3563	-3.1125	-2.775	-3.7021	-2.9375	-3.0542	-3.5667	-2.6708	-3.4354	-3.0208	-2.75	-3.7021	-2.8312	-3.075	-3.4938	236.935	24.629	138.557	195.369	234.539	75.380	148.657	-93.039	-74.306	-49.743	134.032	114.161	65.111	-48.993	-3.661	-79.984	0.00010082	0.000283	3.7073e-05	181.47	7.1375e-06	5.0526e-06	358.22	63.016	3.9794e-06	3.5057e-06	140.43	56.297	23.772	10.682	2.1909e-06	26.14	0.00044285	0.00049267	0.00013667	215.83	4.9969e-06	5.3983e-06	377.79	71.517	4.9495e-06	5.4612e-06	155.99	59.465	28.89	12.389	5.3352e-06	27.229	-83.778	-85.348	134.290	-108.830	32.769	-1.134	-109.050	-103.171	-6.124	1.806	-104.096	-99.929	-98.941	-93.837	130.331	-95.895	-8191	255	
7384.401	1	1	0	0	0.19121	0.14746	0.17615	0.18709	0.12564	0.21253	0.17291	0.25033	0.14192	0.20079	0.20422	0.18138	0.10212	0.22207	0.058063	0.32322	-2.5354	-3.4396	-3.2979	-2.5667	-3.4917	-2.9146	-2.9146	-3.5604	-2.7438	-3.4146	-3.3646	-2.7875	-3.2583	-3.0187	-2.7812	-3.45	33.095	123.475	151.986	-22.568	-39.698	126.024	226.243	-46.521	-115.828	-61.894	76.286	163.257	172.594	56.256	-77.618	87.475	0.00015471	0.00037472	0.00013537	180.78	2.825e-06	4.1565e-06	358.76	62.458	1.5125e-06	3.1425e-06	141.7	56.691	23.889	10.65	9.2332e-06	25.969	0.00045625	0.00049765	0.00013568	214.6	5.1148e-06	5.4564e-06	377.23	71.178	5.0822e-06	5.4407e-06	156.24	59.522	29.291	12.421	5.2552e-06	27.2	-71.749	-30.937	-26.860	-109.073	128.463	224.153	-108.606	-102.734	-60.989	118.162	-104.579	-99.902	-98.200	-93.840	88.327	-95.749	-8191	255	
7384.497	1	1	0	0	0.11503	0.03034	0.19521	0.012043	0.30588	0.14462	0.048802	0.15658	0.1341	0.20128	0.082648	0.38359	0.18112	0.27648	0.041675	0.22509	-2.3479	-3.2396	-3.4979	-2.4292	-3.3583	-3.1104	-3.1333	-3.6063	-2.9292	-3.2354	-3.3292	-2.4875	-3.6521	-3.0792	-2.7729	-3.6729	-50.620	225.326	-87.539	67.499	-105.592	105.983	233.332	138.017	57.279	-90.354	-17.292	133.114	165.604	85.853	237.674	161.734	0.00022958	0.00011709	5.3681e-05	180.96	1.5619e-06	8.697e-07	357.11	62.685	4.1144e-06	4.5632e-06	140.05	55.607	24.17	10.701	2.9997e-06	26.228	0.000472	0.00049977	0.00013389	213.2	5.28e-06	5.4558e-06	376.25	71.367	5.3704e-06	5.4328e-06	154.77	59.007	29.44	12.318	5.2237e-06	27.065	-95.646	182.398	222.417	-108.219	77.012	15.133	-108.938	-102.719	17.109	-89.336	-104.693	-99.606	-98.827	-93.863	156.795	-96.024	-8191	255	
7384.618	1	1	0	0	0.069195	0.24007	0.26083	0.074888	0.19962	0.076864	0.14631	0.18287	0.21882	0.1521	0.26617	0.14227	0.1068	0.17428	0.1006	0.2795	-2.2375	-3.075	-3.5729	-2.7833	-3.3688	-3.2271	-2.8688	-3.7354	-2.9188	-2.9813	-3.7125	-2.8	-3.2354	-3.1854	-2.6979	-3.5417	83.266	152.754	181.132	201.848	-65.628	236.365	219.663	86.291	146.404	-114.949	116.591	78.185	-42.855	25.275	-37.251	166.286	0.00023673	0.00017254	4.5983e-05	180.76	3.8892e-06	9.761e-06	359.1	63.434	2.6413e-06	7.133e-06	143.41	57.805	24.506	10.886	1.9734e-06	26.581	0.0004858	0.00048527	0.00013048	213.35	5.343e-06	5.3021e-06	375.62	71.387	5.4645e-06	5.3453e-06	155.39	59.744	29.786	12.391	5.1232e-06	27.366	-62.805	-19.137	-87.212	-109.418	151.433	-41.853	-109.597	-103.655	67.520	-13.514	-106.455	-101.510	-100.644	-95.733	-14.862	-97.948	-8191	255	
7384.714	1	1	0	0	0.02905	0.20039	0.21545	0.2113	0.11092	0.26345	0.26987	0.048587	0.16431	0.21536	0.1779	0.098298	0.036735	0.10213	0.25195	0.22302	-2.5062	-2.9729	-3.3979	-2.575	-3.1292	-3.2583	-2.7521	-3.3063	-3.0792	-2.7958	-3.3271	-2.5917	-3.2896	-3.3063	-2.4833	-3.3958	-96.681	-39.746	157.644	46.012	109.191	-28.853	176.545	29.954	20.430	89.634	189.949	131.787	-6.633	-24.164	-30.324	175.772	0.00021522	0.0005556	0.0001201	184.15	6.1887e-06	8.1412e-06	366.79	64.3	3.3624e-06	3.4758e-06	145.65	57.444	24.539	11.065	5.4305e-06	26.796	0.00049663	0.00048697	0.00012997	217.46	5.5119e-06	5.3096e-06	377.94	72.205	5.5015e-06	5.2955e-06	156.36	60.375	29.821	12.43	5.0664e-06	27.703	-77.982	175.957	-43.906	-110.121	95.713	-32.013	-110.189	-104.712	-8.860	-50.018	-105.972	-101.535	-99.831	-95.737	189.316	-97.797	-8191	255	
7384.810	1	1	0	0	0.3328	0.039466	0.1638	0.11421	0.15396	0.071952	0.24043	0.12559	0.083959	0.060873	0.11973	0.093226	0.15563	0.080104	0.13645	0.23887	-2.7896	-2.7604	-3.5083	-2.5729	-3.0333	-3.2979	-2.725	-3.4792	-3.0938	-2.6063	-3.6521	-2.9229	-3	-3.3458	-2.5417	-3.3792	-35.724	-18.951	-113.188	4.383	-93.828	29.590	72.304	230.227	-19.486	41.723	74.817	-116.206	-87.390	215.064	-49.263	141.365	0.00017049	0.00025267	0.00015647	186.82	3.3293e-06	1.6584e-06	367.81	64.121	3.2332e-06	6.9068e-06	145.95	57.901	24.772	11.047	3.007e-06	26.935	0.00048728	0.00047848	0.00012684	218.77	5.3829e-06	5.2131e-06	379.53	72.987	5.3283e-06	5.1427e-06	156.81	60.778	29.658	12.441	4.9644e-06	27.935	-67.082	-22.541	38.578	-110.279	57.726	43.504	-110.766	-104.252	14.110	144.464	-106.546	-101.899	-99.973	-95.684	56.449	-97.592	-8191	255	
7384.906	1	1	0	0	0.14291	0.16486	0.1469	0.050078	0.15278	0.075325	0.069293	0.057914	0.21789	0.10711	0.10122	0.29174	0.05124	0.10155	0.10217	0.02379	-2.6667	-2.7062	-3.375	-2.8625	-3.1729	-3.4375	-2.8917	-3.1292	-3.05	-2.3854	-3.4958	-3.05	-3.0167	-3.3458	-2.5083	-3.3042	109.783	-27.271	86.485	20.558	78.152	-82.763	104.372	174.171	-70.627	89.635	-16.966	74.147	-56.453	-21.979	124.417	32.702	7.9129e-05	0.00059372	0.00012468	185.62	5.8088e-06	4.1422e-06	371.49	63.852	3.2142e-06	6.5466e-06	144.18	58.339	25.225	11.066	1.0823e-05	26.921	0.00047403	0.00045917	0.00012705	219.89	5.2462e-06	5.0297e-06	381.06	72.938	5.2455e-06	5.0592e-06	156.6	60.805	29.838	12.348	5.1856e-06	27.927	-37.640	2.566	68.107	-110.589	198.025	75.440	-111.272	-105.275	-76.497	-16.565	-106.670	-102.420	-100.575	-96.278	2.918	-97.863	-8191	255	
7385.002	1	1	0	0	0.15582	0.15546	0.24332	0.046851	0.22009	0.080498	0.25621	0.17565	0.15116	0.1224	0.1003	0.013937	0.072629	0.13742	0.063517	0.10798	-2.8688	-2.7354	-3.4542	-2.9562	-3.0146	-3.5708	-2.6562	-3	-3.2812	-2.75	-3.6083	-3.1354	-2.7708	-3.4813	-2.6729	-3.3333	-118.152	30.469	146.190	190.442	102.025	-117.558	60.851	-62.153	172.410	36.392	182.536	28.632	-62.437	202.159	214.860	215.236	7.3728e-05	0.0005755	5.4503e-05	186.13	6.5215e-06	5.9178e-06	370.97	64.491	5.8959e-06	4.1103e-06	144.75	58.505	24.838	11.132	3.3851e-06	27.276	0.0004688	0.00045447	0.00013329	218.98	5.2572e-06	4.9437e-06	382.28	72.886	5.2167e-06	4.9745e-06	158.09	60.897	29.624	12.402	5.4479e-06	28.051	-86.859	75.049	177.890	-110.703	28.065	96.711	-111.094	-104.598	39.412	142.789	-106.810	-102.303	-100.587	-96.190	-3.950	-98.113	-8191	255	
7385.098	1	1	0	0	0.11049	0.069553	0.37176	0.15935	0.07014	0.090576	0.20765	0.14734	0.052201	0.20209	0.19564	0.023754	0.17382	0.14227	0.16162	0.10321	-2.8833	-2.6771	-3.3688	-3.0208	-2.8208	-3.4375	-2.7375	-2.9958	-3.3583	-2.5208	-3.3104	-3.0667	-2.7562	-3.5979	-2.8875	-2.9833	129.529	-62.655	191.578	145.166	80.548	183.909	207.419	169.874	-113.704	135.820	-57.681	-15.612	37.941	174.230	0.030	216.744	0.00013428	0.00056944	4.3116e-05	184.61	2.6104e-06	3.1346e-06	370.82	64.518	3.3516e-06	5.4076e-06	146.39	58.603	24.942	11.084	3.6081e-06	27.215	0.00047048	0.00045959	0.00013924	219.18	5.205e-06	5.1067e-06	384.56	72.907	5.2118e-06	5.0932e-06	160.23	61.191	29.678	12.489	5.644e-06	28.08	-62.371	60.517	200.942	-110.830	192.386	-99.112	-111.766	-104.703	127.688	27.466	-106.316	-101.823	-100.317	-95.833	-101.878	-97.525	-8191	255	
7385.195	1	1	0	0	0.13992	0.0098058	0.20062	0.072675	0.22371	0.19709	0.26821	0.10806	0.11895	0.15341	0.16205	0.088503	0.14033	0.15733	0.090518	0.13286	-2.9979	-2.5354	-3.1104	-3.25	-2.5167	-3.4521	-3.1188	-2.9792	-3.6	-2.625	-3.0938	-3.3396	-2.6917	-3.4146	-2.8396	-2.7979	120.930	100.379	33.548	124.708	156.180	115.568	205.964	17.930	18.038	-10.306	80.755	54.011	-77.528	-84.338	-120.757	213.753	0.00012449	0.00035159	9.5841e-05	183.34	7.9393e-06	2.4048e-06	369.87	65.324	2.1834e-06	8.2204e-06	147.08	57.882	24.841	10.982	1.3976e-06	26.849	0.00047009	0.00048113	0.00014499	219.97	5.1593e-06	5.3108e-06	386.85	73.342	5.1697e-06	5.4195e-06	160.23	60.742	29.521	12.491	5.733e-06	27.782	-120.710	142.018	-40.874	-110.954	73.799	45.571	-111.849	-105.433	-119.607	-2.674	-106.409	-101.884	-101.718	-96.344	-35.197	-98.525	-8191	255	
7385.291	1	1	0	0	0.18892	0.1029	0.088567	0.11369	0.20134	0.26532	0.065884	0.13356	0.22256	0.084734	0.12061	0.20483	0.12951	0.14939	0.02698	0.12211	-3.1354	-2.7875	-3.225	-3.4104	-2.7354	-3.425	-2.9333	-2.5354	-3.5208	-2.6875	-2.8917	-3.4146	-2.5979	-3.3958	-3.2062	-2.7833	104.403	-80.787	162.909	104.400	126.834	-46.420	210.127	81.494	50.163	-87.236	127.836	147.452	-28.730	-19.957	44.320	-51.843	0.00017577	0.00032198	4.5038e-05	186.67	2.6796e-06	2.7349e-06	368.18	64.321	3.7305e-06	3.7228e-06	145.08	57.587	24.768	11	6.3711e-06	26.972	0.0004677	0.00050942	0.00014515	220.13	5.2196e-06	5.7054e-06	383.18	72.887	5.2547e-06	5.6733e-06	159.35	60.576	29.593	12.637	5.7637e-06	27.892	-58.125	123.212	6.108	-110.959	128.068	-84.263	-111.751	-105.260	-8.717	-66.166	-106.217	-102.960	-100.833	-96.066	-6.118	-97.874	-8191	255	
7385.410	1	1	0	0	0.30404	0.055007	0.10038	0.067193	0.18417	0.27477	0.068106	0.045664	0.31076	0.17703	0.044606	0.24235	0.16589	0.11297	0.16657	0.033899	-3.2	-2.7521	-2.9562	-3.5583	-2.7292	-3.5771	-3.3375	-2.6917	-3.4521	-2.7958	-2.9479	-3.3458	-2.7625	-3.4479	-3.2188	-2.9021	210.115	-2.990	-86.277	4.894	-7.045	228.994	81.661	209.833	-102.912	83.780	154.314	82.950	-19.547	-61.831	-61.537	157.045	0.00016298	0.00026838	0.00014176	186.1	4.3111e-06	3.0153e-06	367.97	64.315	2.6178e-06	7.3745e-06	143.97	58.222	24.333	11.099	4.7231e-06	27.07	0.00047799	0.00053966	0.00014895	220.16	5.386e-06	5.8872e-06	385.12	73.105	5.4965e-06	6.0044e-06	160.13	60.691	29.884	12.735	5.8729e-06	27.914	-87.637	142.417	-68.106	-111.078	215.571	4.951	-111.602	-104.465	33.823	-98.513	-106.347	-102.162	-100.746	-95.382	-40.310	-97.683	-8191	255	
7385.506	1	1	0	0	0.056793	0.30814	0.14504	0.09773	0.11179	0.16544	0.10661	0.11837	0.06216	0.29634	0.23052	0.23507	0.16423	0.23692	0.19661	0.18091	-3.1542	-2.875	-3.1042	-3.6	-2.8083	-3.4188	-3.2562	-2.6479	-3.4188	-3.1188	-3.0542	-3.65	-2.8833	-3.1354	-3.1979	-2.7	-104.550	-90.931	43.042	160.144	-73.035	-5.651	214.345	172.247	-116.698	-41.781	211.559	96.723	110.795	11.361	-73.435	0.472	0.00015865	0.00045808	8.0187e-05	183.37	1.2642e-06	1.8679e-06	368.42	65.086	5.563e-06	3.798e-06	144.9	58.077	24.503	10.989	2.6239e-06	26.901	0.0005089	0.00055395	0.00014845	219.43	5.6529e-06	6.013e-06	384.93	73.105	5.6791e-06	6.0252e-06	160.71	60.59	30.201	12.708	5.7769e-06	27.726	-120.617	30.279	55.279	-111.014	-92.637	73.373	-111.537	-105.220	127.455	143.916	-106.861	-101.985	-100.915	-95.812	170.732	-97.862	-8191	255	
7385.602	1	1	0	0	0.068594	0.21455	0.061678	0.094434	0.079953	0.18959	0.064089	0.1524	0.088258	0.17821	0.13283	0.1337	0.11651	0.068916	0.32441	0.31364	-2.9833	-2.9667	-2.95	-3.5646	-2.7479	-3.2146	-3.5542	-2.8021	-3.2583	-3.2271	-2.6604	-3.6083	-2.8333	-3.0125	-3.4313	-2.8438	12.098	211.552	212.338	112.781	74.023	40.017	-11.630	-46.927	76.244	-75.262	180.113	-102.530	-56.837	66.807	150.239	157.660	0.00028723	0.00028047	0.00012029	186.74	4.4556e-06	2.9153e-06	365.73	63.754	3.4183e-06	8.7298e-06	142.19	57.922	24.84	10.915	5.319e-06	26.726	0.00052964	0.00054168	0.00014825	220.29	5.9288e-06	5.968e-06	382.73	72.545	5.9676e-06	5.9738e-06	158.57	60.382	30.449	12.584	5.6529e-06	27.479	-66.235	-16.441	-112.814	-111.104	-77.188	-3.442	-111.457	-104.913	-59.623	4.147	-106.946	-102.390	-100.191	-96.283	84.315	-97.794	-8191	255	
7385.698	1	1	0	0	0.05685	0.1963	0.1327	0.07141	0.062279	0.27649	0.32481	0.21411	0.14002	0.27241	0.28127	0.13107	0.18935	0.12294	0.19945	0.11884	-3.0375	-3.2354	-2.5771	-3.3958	-2.9375	-3.0021	-3.6104	-2.7062	-3.0979	-3.0875	-2.7146	-3.6271	-2.95	-2.7979	-3.5479	-2.7438	143.614	19.609	-74.371	-62.224	6.096	-61.541	-51.913	-31.754	73.609	-6.747	71.733	139.236	126.977	-62.967	172.154	10.374	0.00014185	0.00034646	7.7048e-05	184.2	2.1356e-06	3.2385e-06	366.49	62.785	2.5927e-06	3.5035e-06	144.44	57.725	24.631	10.862	5.949e-06	26.673	0.00052887	0.00053173	0.00014066	218.35	5.9265e-06	5.756e-06	380.11	72.303	5.9377e-06	5.7722e-06	157.68	60.51	30.38	12.528	5.5622e-06	27.754	225.096	-25.093	189.962	-110.225	47.827	0.571	-110.924	-104.914	232.157	-35.836	-106.047	-101.960	-101.023	-95.896	22.445	-97.319	-8191	255	
7385.794	1	1	0	0	0.11318	0.23857	0.090004	0.24888	0.051096	0.26897	0.099449	0.15434	0.26722	0.1354	0.14234	0.19883	0.32236	0.22075	0.034293	0.33067	-2.7479	-3.2646	-2.3833	-3.4208	-2.9188	-2.9	-3.625	-2.675	-3.0125	-3.3021	-2.5667	-3.4104	-2.8646	-2.7833	-3.4188	-2.9521	195.897	-34.683	115.647	6.598	184.856	33.856	-81.285	82.477	34.249	110.329	32.081	-88.273	-23.225	71.397	148.357	86.925	0.00016607	0.00076463	6.3264e-05	184.72	1.0437e-05	2.2399e-06	368.72	64.014	4.0207e-06	1.319e-05	144.38	57.905	24.739	10.952	5.6358e-06	26.965	0.00054479	0.0005308	0.000141	222.15	5.9364e-06	5.7188e-06	381.79	73.255	5.8538e-06	5.6725e-06	157.05	60.999	30.291	12.481	5.3362e-06	28.001	-96.967	-17.513	-38.849	-112.144	74.539	-81.886	-111.104	-104.843	151.372	23.955	-106.296	-101.310	-100.356	-95.364	-56.012	-97.418	-8191	255	
7385.890	1	1	0	0	0.14274	0.20926	0.19831	0.026798	0.22133	0.19845	0.082874	0.21639	0.15797	0.094564	0.063399	0.041202	0.054775	0.02575	0.10581	0.048085	-2.7771	-3.3792	-2.4917	-3.3917	-3.2646	-2.8167	-3.6583	-2.7438	-3.125	-3.7542	-2.7104	-3.3812	-3.1813	-2.6021	-3.6146	-2.9229	100.064	94.528	95.836	-53.658	-45.351	135.843	-44.678	120.233	-72.146	-34.594	-92.445	200.523	121.146	222.249	12.368	-101.052	9.4884e-05	0.00083156	9.2969e-05	182.29	8.0343e-06	6.0806e-06	369.74	64.328	3.7461e-06	9.3095e-06	144.82	57.568	24.956	10.858	2.9412e-06	26.862	0.00051393	0.00050917	0.00013534	222.26	5.7387e-06	5.4691e-06	381.3	73.311	5.6012e-06	5.4097e-06	157.18	60.622	29.852	12.304	5.1757e-06	27.791	-83.421	-85.260	23.561	-111.033	-11.879	37.196	-110.779	-104.422	-62.041	115.127	-106.471	-101.365	-99.796	-95.115	150.333	-97.308	-8191	255	
7386.011	1	1	0	0	0.21329	0.075213	0.23955	0.31382	0.10638	0.23042	0.11996	0.21817	0.10448	0.14983	0.06813	0.13953	0.12724	0.13095	0.21093	0.096304	-2.5438	-3.4188	-2.5083	-3.2479	-3.3417	-2.7708	-3.525	-2.8563	-2.7333	-3.4437	-2.7229	-3.1917	-3.1667	-2.7417	-3.5187	-2.925	127.019	11.353	-80.196	-10.423	84.734	-43.736	-85.638	82.458	196.593	25.320	-13.070	98.583	66.478	235.359	233.410	-115.084	7.4614e-05	0.0001957	9.054e-05	184.71	5.13e-06	5.5774e-06	369.47	63.442	2.0876e-06	5.6307e-06	144.02	58.262	24.729	11.007	4.5343e-06	26.937	0.00048094	0.00046797	0.00013137	219.54	5.2349e-06	5.0154e-06	379.77	72.414	5.2408e-06	4.9759e-06	156.7	60.653	29.386	12.216	5.2093e-06	27.744	-55.160	-69.887	-34.482	-110.604	6.440	53.757	-110.893	-104.596	64.622	159.220	-106.674	-101.946	-101.226	-96.286	45.430	-98.090	-8191	255	
7386.107	1	1	0	0	0.14547	0.24438	0.078761	0.18299	0.18912	0.2091	0.16054	0.22552	0.15443	0.074605	0.39953	0.16753	0.31185	0.053461	0.10534	0.18675	-2.4375	-3.3042	-2.6188	-2.9375	-3.3292	-2.4729	-3.5583	-3.0979	-2.8271	-3.8104	-2.625	-3.0729	-3.5438	-2.7812	-3.2229	-2.9437	28.431	-9.384	-21.963	225.926	-27.761	71.291	184.833	118.771	-34.628	-6.080	-0.554	-119.616	111.918	60.920	-96.548	34.697	0.00017213	0.00052658	9.3385e-05	186.48	4.3238e-06	3.4741e-06	369.82	63.886	5.1015e-06	2.7604e-06	147.34	58.614	24.665	11.006	4.0723e-06	27.09	0.00045723	0.00044841	0.00013203	217.18	5.0141e-06	4.8155e-06	382.46	72.257	5.0103e-06	4.7828e-06	158.22	60.464	29.217	12.125	5.2001e-06	27.845	-77.731	0.927	113.024	-110.289	9.039	182.427	-111.463	-105.580	167.673	28.371	-106.353	-102.226	-101.051	-95.609	12.327	-97.676	-8191	255	
7386.202	1	1	0	0	0.18646	0.045817	0.14978	0.13634	0.12642	0.058592	0.057665	0.31453	0.21666	0.08195	0.077343	0.28913	0.1963	0.11196	0.1763	0.16595	-2.3292	-3.5354	-2.825	-3.0667	-3.6542	-2.7354	-3.3312	-3.3021	-2.7938	-3.6708	-2.8708	-2.9479	-3.6167	-2.7208	-3.4917	-3.5	-85.335	-101.414	189.103	25.521	218.616	-28.467	-57.247	98.200	172.236	61.823	-40.800	-106.014	-36.774	-29.496	202.805	-89.914	0.00020845	0.00025231	0.00013847	183.32	5.3766e-06	2.1769e-06	374.26	64.371	2.1532e-06	4.5676e-06	147.39	59.21	25.256	11.124	7.7539e-06	27.257	0.00044192	0.00043272	0.00013366	216.27	4.8851e-06	4.7707e-06	385.13	72.038	4.7894e-06	4.8165e-06	159.53	61.023	29.224	12.309	5.1785e-06	27.918	-61.216	156.680	-83.113	-110.443	-38.214	31.882	-110.895	-104.981	137.686	-104.866	-106.837	-101.974	-100.391	-96.078	70.313	-97.748	-8191	255	
7386.299	1	1	0	0	0.1447	0.042223	0.12491	0.17214	0.14546	0.19002	0.1668	0.23775	0.27917	0.085084	0.16112	0.14632	0.070485	0.29078	0.15324	0.2154	-2.2458	-3.4125	-2.9542	-3.0333	-3.7521	-2.6688	-3.3583	-3.3146	-2.6604	-3.5354	-3.1437	-2.9854	-3.6917	-2.7458	-3.1562	-3.5083	101.123	224.735	-2.867	61.290	135.761	87.146	-79.728	153.335	178.233	19.872	227.200	195.792	0.260	191.396	135.159	161.237	0.00018777	0.00038507	0.00015249	186.84	3.1979e-06	3.757e-06	371.93	64.734	2.9611e-06	3.959e-06	146.49	57.988	24.475	10.975	6.4603e-06	27.118	0.00042219	0.00043989	0.00013131	215.4	4.7017e-06	4.8945e-06	384.28	71.553	4.6592e-06	4.9734e-06	157.82	60.134	28.82	12.255	5.0981e-06	27.682	-105.671	50.666	-22.424	-110.814	-97.935	-18.485	-110.538	-104.887	4.389	175.120	-106.495	-101.547	-100.692	-95.518	-58.630	-97.840	-8191	255	
7386.394	1	1	0	0	0.15304	0.10862	0.14196	0.15693	0.1722	0.19799	0.085153	0.032396	0.1785	0.13389	0.13478	0.082165	0.16483	0.18635	0.16367	0.21643	-2.2229	-3.5229	-3.1229	-2.8125	-3.7125	-2.8438	-3.1833	-3.4479	-2.6417	-3.55	-3.1792	-2.6958	-3.6437	-2.8937	-3.1021	-3.5229	2.704	4.570	20.283	182.593	-76.758	147.131	85.720	160.663	-98.828	-52.800	48.623	70.728	69.754	96.270	58.300	40.097	0.00011691	0.00011812	0.00013996	186.27	3.0508e-06	1.8975e-06	374.35	64.475	3.6527e-06	1.0057e-05	146.6	58.515	24.646	11.072	4.3124e-06	27.178	0.00041496	0.00045431	0.00012671	213.78	4.562e-06	4.9478e-06	383.86	71.2	4.5316e-06	4.9885e-06	157.67	60.235	28.966	12.335	4.9846e-06	27.679	213.447	5.104	10.823	-110.776	187.627	217.652	-110.935	-105.406	-76.051	144.216	-106.046	-101.677	-101.088	-95.488	103.297	-97.897	-8191	255	
7386.490	1	1	0	0	0.096151	0.16021	0.047258	0.27455	0.20263	0.1618	0.26633	0.2151	0.10001	0.16472	0.086639	0.12029	0.016217	0.27617	0.071847	0.24929	-2.0979	-3.2729	-3.15	-2.9042	-3.4708	-2.8688	-2.8875	-3.4562	-2.6854	-3.2958	-3.2792	-2.5563	-3.5917	-3.1	-2.9646	-3.7062	37.066	139.910	133.428	22.734	4.196	129.957	98.465	-71.350	-21.257	-47.279	232.081	236.209	179.235	-102.229	-44.035	116.660	7.2332e-05	0.00031517	2.8915e-05	184.23	1.9987e-06	7.6706e-06	373.6	64.987	2.1173e-06	3.056e-06	146.87	58.789	24.599	10.922	2.3284e-06	27.228	0.00042619	0.00047029	0.00012803	214.27	4.8215e-06	5.264e-06	384.56	72.002	4.881e-06	5.3341e-06	158.01	60.442	29.382	12.426	5.2725e-06	27.725	-88.038	171.812	46.269	-110.961	91.779	92.355	-111.440	-104.834	198.223	210.284	-105.972	-101.989	-101.427	-96.393	41.305	-98.061	-8191	255	
7386.586	1	1	0	0	0.016041	0.091737	0.15448	0.24399	0.12218	0.17124	0.07284	0.063729	0.12307	0.17308	0.27086	0.071624	0.18101	0.21486	0.14712	0.14178	-2.2083	-3.175	-3.0917	-2.5479	-3.5708	-3.1562	-2.7854	-3.6854	-2.8292	-3.1458	-3.4792	-2.6063	-3.2979	-2.9437	-2.7062	-3.6458	73.165	174.446	34.991	-63.426	21.647	-115.918	237.453	203.854	-103.828	-6.846	131.363	63.736	190.620	81.106	-69.504	-98.780	0.00014709	0.00027232	7.4788e-05	186.83	3.1131e-06	5.0852e-06	373.01	63.29	1.7297e-06	3.6125e-06	148.08	57.899	24.79	10.892	4.3844e-06	27.066	0.00046913	0.00049924	0.00013642	217.39	5.3782e-06	5.6676e-06	386.99	72.06	5.4293e-06	5.6171e-06	159.76	60.559	30.003	12.48	5.4042e-06	27.736	-119.567	51.410	113.373	-111.070	-9.571	23.779	-110.838	-104.382	50.054	-104.767	-107.175	-101.673	-100.763	-95.467	104.395	-98.347	-8191	255	
7386.707	1	1	0	0	0.138	0.22077	0.022019	0.062438	0.23326	0.16375	0.082026	0.17032	0.17306	0.082995	0.28778	0.13908	0.24754	0.1242	0.15789	0.31297	-2.5062	-3.2229	-3.3854	-2.6375	-3.1771	-3.2354	-2.7812	-3.5667	-2.8792	-3.1292	-3.6229	-2.6542	-3.3875	-3.1208	-2.7646	-3.5854	31.747	-94.651	224.054	1.554	229.434	230.950	206.307	-61.130	-115.814	-75.940	94.818	219.201	-34.955	-100.654	-63.303	89.623	0.00025047	0.00013227	0.00018162	185.28	1.074e-06	3.5304e-06	370.68	63.655	8.3301e-06	2.2348e-06	146.86	57.727	24.617	10.817	4.5303e-06	26.693	0.00049926	0.00051373	0.00013822	217.18	5.7294e-06	5.6715e-06	383.65	72.213	5.8119e-06	5.7545e-06	158.48	60.455	30.339	12.515	5.5213e-06	27.666	-77.392	-34.665	52.918	-110.528	156.762	122.818	-110.982	-105.172	162.211	43.243	-107.213	-102.473	-100.274	-95.668	55.660	-97.780	-8191	255	
7386.803	1	1	0	0	0.040379	0.28945	0.21669	0.12957	0.19165	0.036667	0.042248	0.036667	0.29453	0.079972	0.074053	0.076272	0.30048	0.1239	0.16329	0.30666	-2.6479	-2.9729	-3.4125	-2.6833	-3.1208	-3.3375	-2.7479	-3.5625	-3.1229	-2.7979	-3.6813	-2.8646	-3.4562	-3.4958	-2.525	-3.5312	31.858	28.352	-107.683	188.970	75.868	-110.762	-96.230	158.272	44.155	47.189	165.089	-70.580	-86.104	48.657	-108.008	-101.110	0.000225	0.0002962	4.4752e-05	183.66	6.4236e-06	4.9425e-06	371.81	64.724	1.879e-06	2.1181e-06	145.11	57.432	24.926	10.952	3.459e-06	26.977	0.00053178	0.00052277	0.0001409	219.62	5.9181e-06	5.7512e-06	385.37	73.435	5.9715e-06	5.8257e-06	159.09	61.019	30.561	12.599	5.501e-06	28.143	-102.374	-73.965	-84.269	-110.202	90.592	73.666	-110.706	-104.630	92.769	46.165	-105.701	-101.442	-100.192	-95.491	-39.416	-97.555	-8191	255	
7386.875	1	1	0	0	0.11528	0.091589	0.1076	0.1678	0.26157	0.17051	0.12145	0.13768	0.20501	0.1194	0.19979	0.11715	0.081982	0.02577	0.13145	0.070383	-2.6562	-2.8417	-3.6125	-2.8125	-3.2208	-3.4354	-2.6667	-3.4167	-3.0333	-2.8854	-3.5167	-2.8396	-3.0083	-3.4188	-2.7229	-3.5979	22.931	-109.840	56.759	165.785	-2.050	187.771	219.615	-122.039	127.376	-44.986	-121.829	-43.292	229.163	138.302	-13.391	-108.923	0.00015289	0.0008841	8.7696e-05	185.21	5.9814e-06	4.0275e-06	365.01	64.317	3.6398e-06	1.1431e-05	147.15	58.661	25.037	10.965	3.697e-06	26.975	0.00054095	0.00053246	0.00014134	223.09	5.9648e-06	5.8415e-06	384.05	74.126	6.0864e-06	5.8547e-06	160.42	62.141	30.943	12.66	5.7663e-06	28.39	-78.419	208.906	8.607	-110.412	-30.286	192.233	-110.980	-104.596	203.653	-1.529	-106.165	-101.790	-100.554	-95.120	135.305	-97.365	-8191	255	
7386.971	1	1	0	0	0.41612	0.17553	0.31464	0.16877	0.11855	0.1252	0.09093	0.15675	0.040477	0.10214	0.15812	0.14432	0.022392	0.26189	0.12907	0.1262	-2.825	-2.6292	-3.5146	-2.7771	-3.2104	-3.6375	-2.8021	-3.2771	-3.2042	-2.6229	-3.6542	-3.15	-2.7979	-3.3542	-2.5687	-3.2646	152.418	41.387	1.371	-110.988	-64.099	163.023	-99.882	9.423	-1.442	222.103	164.366	207.429	224.754	-87.804	-31.141	212.758	0.00010337	0.00069969	0.00011648	184.19	1.7253e-06	1.9922e-06	369.01	64.658	3.1907e-06	7.9466e-06	144.79	57.84	24.836	10.909	7.3238e-06	26.814	0.00055223	0.00054359	0.00014815	227.96	6.172e-06	5.9741e-06	385.82	75.016	6.239e-06	5.9237e-06	160.51	61.872	30.85	12.6	6.0753e-06	28.28	-71.735	13.563	-120.259	-109.393	-37.183	-58.022	-110.691	-104.363	26.868	26.760	-105.588	-101.561	-99.836	-96.403	-60.607	-97.422	-8191	255	
7387.091	1	1	0	0	0.19889	0.086282	0.077565	0.15227	0.2974	0.095935	0.20892	0.14503	0.14276	0.21788	0.30106	0.2117	0.18135	0.26546	0.10858	0.11959	-2.8458	-2.6917	-3.4542	-2.8812	-2.9354	-3.5167	-2.7729	-3.2979	-3.6188	-2.6354	-3.4688	-3.0667	-2.6875	-3.4458	-2.8208	-3.1542	217.478	231.504	51.151	186.211	-53.285	37.839	91.702	129.995	-14.009	-18.034	90.207	190.524	114.097	206.048	201.542	-122.330	0.00021717	0.00072322	0.00018474	185.87	1.2175e-06	8.627e-06	364.16	63.696	2.2413e-06	7.672e-06	141.59	57.111	24.336	10.733	2.8701e-06	26.669	0.00056277	0.00055153	0.00015929	228.35	6.2847e-06	5.9832e-06	384.49	74.76	6.2454e-06	5.935e-06	161.35	61.178	30.452	12.451	6.3627e-06	28.111	-65.076	-66.288	203.213	-111.236	12.472	37.999	-111.248	-104.752	46.391	47.994	-106.899	-102.405	-101.519	-95.662	-119.606	-97.928	-8191	255	
7387.188	1	1	0	0	0.15193	0.093705	0.11248	0.069619	0.0501	0.31992	0.16865	0.10961	0.048959	0.15634	0.23145	0.12495	0.35277	0.29823	0.073235	0.19601	-3.2083	-2.7062	-3.4229	-3.0479	-2.675	-3.4875	-2.7833	-3.0167	-3.4021	-2.6521	-3.3021	-2.9542	-2.6708	-3.4833	-2.775	-3.0958	15.352	163.885	-109.559	230.891	42.618	93.815	182.901	22.332	-86.868	158.108	39.091	72.638	-49.504	-100.573	53.248	-109.852	7.5433e-05	0.0010133	0.00013903	182.79	2.0318e-06	4.3327e-06	366.75	62.407	3.391e-06	4.8175e-06	142.58	57.314	24.419	10.695	2.9425e-06	26.388	0.00055093	0.00053154	0.00016145	224.24	6.041e-06	5.8437e-06	386.75	73.858	6.0212e-06	5.7708e-06	161.32	61.06	30.211	12.473	6.4693e-06	27.936	-117.906	-111.974	-91.327	-110.847	59.784	187.046	-111.069	-105.038	101.425	-38.786	-106.085	-102.294	-101.113	-95.568	-116.300	-97.420	-8191	255	
7387.282	1	1	0	0	0.26207	0.033116	0.14894	0.14264	0.05755	0.029331	0.21709	0.06609	0.15177	0.1015	0.051847	0.17364	0.12132	0.2671	0.19446	0.06372	-3.2562	-2.6917	-3.3542	-3.1813	-2.5396	-3.4062	-3.0896	-3.1458	-3.3125	-2.5896	-3.1042	-3.2979	-2.6833	-3.6396	-2.9562	-3.025	236.204	128.785	235.676	32.806	-2.066	202.805	215.075	191.356	220.949	173.643	-60.516	137.213	-5.062	-68.077	-18.559	217.652	0.00010548	0.00020771	2.5612e-05	183.65	4.0344e-06	7.4034e-06	365.99	63.291	2.4312e-06	3.2715e-06	143.1	56.804	24.163	10.717	6.6773e-06	25.937	0.00053881	0.00054777	0.00016605	226.03	5.9978e-06	6.0585e-06	387.6	73.777	6.0228e-06	6.0969e-06	162.64	60.804	30.129	12.493	6.6163e-06	27.624	-45.426	188.201	-92.189	-110.050	44.709	143.253	-111.342	-105.404	207.536	-92.560	-106.523	-102.022	-100.703	-96.242	26.716	-98.275	-8191	255	
7387.380	1	1	0	0	0.093038	0.23746	0.069228	0.1071	0.1397	0.19371	0.15655	0.085257	0.14812	0.066106	0.079755	0.12293	0.15505	0.1031	0.08618	0.12985	-2.9583	-2.7271	-3.2125	-3.3875	-2.6771	-3.5917	-3.1875	-2.8979	-3.4604	-2.8083	-3.1375	-3.5042	-2.6875	-3.3583	-2.9417	-2.9854	-48.420	215.197	143.121	105.998	96.024	197.489	145.103	218.654	-26.591	143.708	5.368	-101.109	203.008	145.637	196.614	-67.818	6.9157e-05	0.00042046	0.00012931	183.39	4.8516e-06	6.7728e-06	364.31	63.528	3.8257e-06	6.1424e-06	141.23	56.348	24.407	10.651	3.9273e-06	26.003	0.00053702	0.00057179	0.00016728	224.34	5.9707e-06	6.3822e-06	385.38	73.605	5.9909e-06	6.4534e-06	160.74	60.419	29.877	12.538	6.4146e-06	27.413	-67.424	-84.109	-12.496	-111.381	132.415	-8.611	-111.450	-104.741	73.720	184.761	-105.963	-102.327	-101.069	-96.417	136.700	-97.707	-8191	255	
7387.499	1	1	0	0	0.12254	0.12418	0.18683	0.030197	0.19491	0.11646	0.28961	0.19745	0.11773	0.055955	0.39715	0.064231	0.15097	0.27226	0.0948	0.11952	-3.1125	-2.7812	-3.0917	-3.4458	-2.3979	-3.2042	-3.1125	-2.6833	-3.3812	-2.9146	-2.8937	-3.5104	-2.6521	-3.425	-3.1167	-2.6208	-79.927	-60.553	-118.083	74.319	-6.203	201.653	211.738	-84.283	0.148	-121.702	180.451	-100.500	231.471	134.502	234.460	-85.588	0.00016441	0.00081874	7.8279e-05	179.63	2.0071e-06	6.2342e-06	362.61	62.46	6.8712e-06	1.2296e-05	141.89	57.007	24.115	10.622	1.9063e-06	26.393	0.00051735	0.00057882	0.00015929	221.07	5.7985e-06	6.3594e-06	382.64	72.525	5.8562e-06	6.4183e-06	160.02	60.226	29.873	12.56	6.3096e-06	27.43	-121.489	227.332	-49.608	-111.021	-99.136	218.178	-110.652	-104.605	-63.135	-72.614	-105.864	-101.822	-100.367	-95.976	128.379	-97.442	-8191	255	
7387.572	1	1	0	0	0.19364	0.20433	0.19349	0.379	0.12464	0.074413	0.11619	0.24342	0.064319	0.15553	0.30322	0.16	0.24829	0.11141	0.18014	0.17548	-3.0458	-2.8625	-2.8271	-3.4833	-2.6375	-3.4271	-3.3771	-2.6937	-3.5833	-3.0229	-2.8417	-3.4229	-2.5375	-3.3583	-3.3104	-2.6354	-61.867	124.996	72.930	-92.954	60.548	36.111	11.156	216.959	19.539	11.375	88.954	160.423	41.031	50.102	155.986	50.188	0.00013046	0.0006097	0.00012873	184.59	2.5415e-06	1.1286e-06	369.09	63.113	7.0869e-06	6.3823e-06	145.33	57.556	24.426	10.847	6.311e-06	26.561	0.0005346	0.00058661	0.00015829	221.54	5.93e-06	6.3584e-06	385.48	72.515	6.0079e-06	6.2924e-06	160.74	60.721	30.321	12.662	6.0706e-06	27.746	-92.707	-63.387	11.911	-110.152	124.568	234.850	-110.439	-104.296	225.368	32.987	-105.818	-101.664	-100.923	-95.619	1.650	-97.320	-8191	255	
7387.691	1	1	0	0	0.045216	0.17568	0.10902	0.16598	0.095295	0.18934	0.2334	0.25251	0.2971	0.15839	0.09114	0.031365	0.2117	0.26415	0.038844	0.13758	-3.0854	-3.1958	-2.8312	-3.5979	-2.8563	-3.5521	-3.3354	-2.7479	-3.5708	-3.1104	-2.6521	-3.625	-2.9208	-3.0167	-3.5104	-2.8604	-92.445	120.073	-44.082	235.293	212.141	13.512	169.285	-32.098	166.401	217.460	189.618	-15.257	-46.626	40.768	-14.088	102.243	0.00022291	0.00051361	0.0001499	182.2	3.9005e-06	8.1325e-06	365.66	62.704	5.033e-06	3.1333e-06	144.01	57.677	24.487	10.726	2.4369e-06	26.558	0.00053992	0.00056434	0.00015131	219.97	6.1133e-06	6.224e-06	384	72.598	6.1574e-06	6.2453e-06	159.55	60.395	30.457	12.537	5.8628e-06	27.448	-93.721	-55.558	-77.800	-110.590	230.811	69.510	-110.266	-104.572	167.517	97.394	-105.740	-101.137	-101.396	-95.555	-3.693	-97.233	-8191	255	
7387.787	1	1	0	0	0.11292	0.32473	0.091187	0.13504	0.26295	0.038007	0.14608	0.1365	0.15906	0.11186	0.19648	0.20521	0.055809	0.28945	0.259	0.34357	-3.125	-3.1125	-2.6875	-3.6063	-2.8937	-3.0042	-3.4958	-2.8896	-3.3937	-3.4333	-2.6729	-3.5604	-2.8083	-2.8396	-3.3812	-2.8583	143.074	-4.196	-38.347	152.745	157.880	-112.948	17.244	217.776	-79.774	-89.629	127.642	-52.457	155.543	-104.374	228.399	-8.206	0.00014569	0.0002555	4.8389e-05	181.63	7.5749e-06	1.1479e-05	364.06	63.126	8.7987e-07	4.1714e-06	141.76	57.217	24.061	10.645	7.6678e-06	26.145	0.00054922	0.0005529	0.00014629	217.59	6.1147e-06	5.9717e-06	380.67	71.963	6.155e-06	5.949e-06	157.51	60.252	30.298	12.362	5.6889e-06	27.398	-88.964	-2.235	-72.933	-110.085	54.472	221.429	-111.042	-104.390	219.108	197.201	-106.108	-101.481	-99.319	-95.352	121.017	-97.130	-8191	255	
7387.883	1	1	0	0	0.042217	0.077283	0.13785	0.186	0.15808	0.09943	0.10864	0.27519	0.11742	0.11949	0.19193	0.075183	0.14249	0.15701	0.12832	0.22277	-2.8854	-3.2667	-2.725	-3.575	-3.2542	-2.9667	-3.5687	-2.6042	-3.3708	-3.425	-2.7854	-3.4542	-3.0833	-2.6542	-3.6562	-2.9688	80.756	-79.959	-79.115	-0.698	-61.480	4.274	8.926	168.720	-30.421	57.502	53.451	-86.977	67.060	193.191	79.287	23.091	0.00027134	0.00021077	0.00015221	184.37	8.3536e-06	5.333e-06	370.05	63.302	4.3648e-06	4.0242e-06	144.45	57.283	24.127	10.732	4.8999e-06	26.816	0.00054878	0.00054363	0.0001438	220.87	6.1524e-06	5.925e-06	382.46	73.093	6.1265e-06	5.9276e-06	158.04	60.945	30.385	12.441	5.6695e-06	27.953	-91.995	13.065	-25.821	-110.252	84.197	30.233	-111.012	-105.202	32.132	168.937	-106.144	-101.582	-100.741	-95.669	65.098	-97.465	-8191	255	
7387.979	1	1	0	0	0.083779	0.16403	0.023814	0.23738	0.22853	0.29973	0.14143	0.034806	0.3431	0.15129	0.17104	0.1798	0.19993	0.30311	0.35185	0.11873	-2.8271	-3.2938	-2.7271	-3.6458	-3.0167	-2.4562	-3.7062	-2.9104	-3.2188	-3.4938	-2.4625	-3.3729	-3.2083	-2.6896	-3.5187	-2.8646	35.085	-29.894	-120.622	174.185	118.501	231.134	105.036	-69.571	105.361	10.424	108.333	45.183	20.376	172.280	107.433	2.998	0.00032262	0.00041607	0.00014423	183.71	4.5596e-06	4.2697e-06	369.62	62.593	2.3514e-06	1.0948e-05	145.87	57.766	24.647	10.741	1.5422e-06	26.66	0.00054152	0.0005342	0.00014174	223.35	5.9872e-06	5.74e-06	383.92	73.232	5.9244e-06	5.7323e-06	158.45	61.371	30.072	12.319	5.527e-06	27.93	-74.612	224.168	-59.815	-110.216	145.419	-58.171	-110.200	-104.985	113.284	-39.750	-105.111	-101.033	-100.133	-95.074	31.240	-97.433	-8191	255	
7388.100	1	1	0	0	0.15803	0.11489	0.19218	0.20571	0.2145	0.24074	0.16225	0.20468	0.23522	0.042641	0.10211	0.084139	0.2183	0.3193	0.23061	0.20342	-2.5896	-3.6167	-2.7375	-3.2521	-3.2542	-2.7604	-3.5833	-3.0708	-2.9979	-3.5229	-2.7708	-3.4042	-3.3146	-2.8229	-3.5396	-3.0792	-11.503	183.706	18.232	192.939	236.197	-8.460	148.658	-111.615	-102.212	81.317	182.534	6.010	184.988	54.910	-83.240	168.305	0.00015712	0.00082119	0.00015189	184.27	3.4395e-06	7.9387e-06	367.25	64.104	5.0414e-06	2.6683e-06	143.65	57.646	24.101	10.692	4.0348e-06	26.653	0.00051029	0.00050875	0.00013936	222.85	5.738e-06	5.4144e-06	382.6	73.247	5.7356e-06	5.5365e-06	158.49	61.065	29.949	12.268	5.7189e-06	27.883	-95.947	213.517	0.202	-109.354	91.018	104.539	-110.634	-103.937	138.886	126.405	-105.725	-101.301	-100.621	-95.481	17.568	-97.202	-8191	255	
7388.172	1	1	0	0	0.10074	0.25752	0.17273	0.2244	0.10606	0.27419	0.1228	0.16478	0.18404	0.094953	0.12158	0.13226	0.091334	0.074681	0.20142	0.22937	-2.5833	-3.4792	-3.025	-3.1271	-3.1667	-2.6458	-3.7125	-3.0875	-2.7562	-3.4521	-2.8271	-3.2687	-3.3396	-2.6896	-3.5021	-3.3771	164.677	-83.294	194.222	24.995	125.040	170.935	151.672	138.103	70.837	152.223	119.218	153.988	33.057	98.516	173.179	88.264	0.00024007	0.00052354	0.00016722	182.58	6.8268e-06	2.6101e-06	368.8	63.675	2.014e-06	4.7684e-06	144.62	58.366	24.551	10.765	8.8228e-07	26.816	0.00051372	0.0004956	0.00014638	221.75	5.6192e-06	5.3545e-06	385.28	72.75	5.5371e-06	5.2848e-06	159.78	60.982	29.725	12.224	5.7676e-06	27.944	-91.109	-12.961	174.294	-110.861	199.152	63.211	-109.641	-104.140	133.245	138.904	-106.058	-101.554	-100.405	-94.749	-30.214	-97.207	-8191	255	
7388.268	1	1	0	0	0.27731	0.17262	0.13951	0.089048	0.16676	0.12849	0.016382	0.24145	0.25306	0.15618	0.33089	0.19297	0.34108	0.21587	0.19359	0.19611	-2.3979	-3.5625	-2.8021	-2.9542	-3.5792	-2.6771	-3.375	-3.2854	-2.7333	-3.5229	-2.9354	-3.1542	-3.5104	-2.7292	-3.3792	-3.3958	163.512	-16.286	69.257	-34.653	113.333	94.088	85.358	47.233	139.569	19.836	-50.743	187.954	42.637	-33.568	-37.297	149.717	0.00018075	0.00083005	7.0782e-05	184.54	4.2055e-06	1.58e-06	371.51	63.861	3.6654e-06	9.1482e-06	145.63	58.215	24.651	10.805	6.8078e-07	27.044	0.00049464	0.00048739	0.00015032	221.26	5.5115e-06	5.3637e-06	388.47	73.145	5.444e-06	5.4087e-06	160.96	61.098	29.713	12.318	5.9341e-06	28.065	-78.173	-73.105	-94.109	-109.844	134.240	172.521	-110.261	-104.056	-104.828	235.159	-105.616	-101.655	-100.078	-95.646	76.906	-97.059	-8191	255	
7388.364	1	1	0	0	0.26878	0.10689	0.09919	0.057788	0.088078	0.13249	0.2963	0.18785	0.051693	0.098313	0.25691	0.22927	0.10434	0.11284	0.33227	0.22508	-2.1604	-3.3979	-3.2687	-3.0083	-3.4708	-2.8375	-3.2896	-3.2729	-2.65	-3.3563	-2.8063	-2.9333	-3.6146	-2.6875	-3.2188	-3.5292	69.214	29.874	-38.967	55.101	-26.672	-26.667	-62.789	-85.882	-36.728	2.228	-113.792	-19.358	-3.958	-114.539	115.337	181.944	0.00015465	0.00047763	5.7496e-05	185.81	7.9493e-06	3.1472e-06	371.63	63.44	3.1419e-06	7.0246e-07	146.36	58.262	24.022	10.689	3.5835e-06	26.579	0.0004879	0.0005072	0.00015182	221.55	5.4224e-06	5.5827e-06	388.23	72.715	5.3654e-06	5.6687e-06	161.31	60.824	29.336	12.338	5.9448e-06	27.739	-103.325	102.556	13.781	-109.651	40.226	130.446	-110.440	-104.781	91.196	-22.745	-105.640	-101.401	-100.145	-95.556	77.527	-96.821	-8191	255	
7388.483	1	1	0	0	0.17309	0.13862	0.17463	0.09096	0.061636	0.11946	0.2458	0.10805	0.29885	0.078737	0.076268	0.13466	0.28075	0.19821	0.21539	0.084844	-2.0771	-3.3208	-3.1562	-2.7958	-3.6292	-2.6437	-3.1729	-3.4125	-2.5729	-3.5458	-3.3104	-2.7833	-3.6896	-2.8667	-3.0646	-3.5479	47.080	55.745	227.833	232.720	209.402	158.068	114.864	234.153	-10.521	-112.583	-33.951	-97.553	-3.987	202.267	92.356	-43.323	0.000244	0.00063214	9.1413e-05	183.39	5.9042e-07	3.8105e-06	372.03	63.542	3.484e-06	4.5769e-06	144.4	57.995	24.345	10.808	7.2797e-06	26.665	0.00048652	0.00052951	0.00015171	220.37	5.3843e-06	5.8063e-06	386.35	72.48	5.3309e-06	5.8773e-06	160.18	60.696	29.533	12.49	5.8565e-06	27.767	-119.433	85.889	-78.594	-109.729	59.720	-13.798	-110.552	-103.644	127.580	-25.761	-105.970	-101.179	-99.489	-95.634	8.572	-96.665	-8191	255	
#DATA ENDS
