BOXY.EXE: ISS Imagent and Oximeter Data Acquisition Program Version 0.80
Ascii Record File

#ACQ INFORMATION
2  Detector Channels 
16  External MUX Channels 
1  Auxiliary Channels 
5000  Waveform (CCF) Frequency (Hz)
1  Waveforms Skipped 
30  Waveforms Averaged 
1  Cycles Averaged 
16  Acquisitions per Waveform 
10.0806  Updata Rate (Hz) 

#FILE INFORMATION
TRUE -- External MUX Channel results are PARSED.
FALSE -- AC DC and Phase are NOT grouped.
TRUE -- Companion Program Settings File CREATED.
FALSE -- AC data not excluded
FALSE -- DC data not excluded
FALSE -- Phase data not excluded
FALSE -- Auxillary Chn. data not excluded
Tab delimiters

#CALIBRATION STATE
TRUE -- Waveform Calibration Values APPLIED.


#AUX CALIBRATION VALUES
Val Type	aux-1	

Term	1.0000e+00	
Factor	0.0000e+00	


#WF CALIBRATION VALUES
A = Detector Channel
Val Type	A-AC1	A-AC2	A-AC3	A-AC4	A-AC5	A-AC6	A-AC7	A-AC8	A-AC9	A-AC10	A-AC11	A-AC12	A-AC13	A-AC14	A-AC15	A-AC16	A-DC1	A-DC2	A-DC3	A-DC4	A-DC5	A-DC6	A-DC7	A-DC8	A-DC9	A-DC10	A-DC11	A-DC12	A-DC13	A-DC14	A-DC15	A-DC16	A-Ph1	A-Ph2	A-Ph3	A-Ph4	A-Ph5	A-Ph6	A-Ph7	A-Ph8	A-Ph9	A-Ph10	A-Ph11	A-Ph12	A-Ph13	A-Ph14	A-Ph15	A-Ph16	

Term	0.00000e+00	0.00000e+00	0.00000e+00	0.00000e+00	0.00000e+00	0.00000e+00	0.00000e+00	0.00000e+00	0.00000e+00	0.00000e+00	0.00000e+00	0.00000e+00	0.00000e+00	0.00000e+00	0.00000e+00	0.00000e+00	0.00000e+00	0.00000e+00	0.00000e+00	0.00000e+00	0.00000e+00	0.00000e+00	0.00000e+00	0.00000e+00	0.00000e+00	0.00000e+00	0.00000e+00	0.00000e+00	0.00000e+00	0.00000e+00	0.00000e+00	0.00000e+00	0.00000e+00	0.00000e+00	0.00000e+00	0.00000e+00	0.00000e+00	0.00000e+00	0.00000e+00	0.00000e+00	0.00000e+00	0.00000e+00	0.00000e+00	0.00000e+00	0.00000e+00	0.00000e+00	0.00000e+00	0.00000e+00	
Factor	1.00000e+00	1.00000e+00	1.00000e+00	1.00000e+00	1.00000e+00	1.00000e+00	1.00000e+00	1.00000e+00	1.00000e+00	1.00000e+00	1.00000e+00	1.00000e+00	1.00000e+00	1.00000e+00	1.00000e+00	1.00000e+00	1.00000e+00	1.00000e+00	1.00000e+00	1.00000e+00	1.00000e+00	1.00000e+00	1.00000e+00	1.00000e+00	1.00000e+00	1.00000e+00	1.00000e+00	1.00000e+00	1.00000e+00	1.00000e+00	1.00000e+00	1.00000e+00	X	X	X	X	X	X	X	X	X	X	X	X	X	X	X	X	

B = Detector Channel
Val Type	B-AC1	B-AC2	B-AC3	B-AC4	B-AC5	B-AC6	B-AC7	B-AC8	B-AC9	B-AC10	B-AC11	B-AC12	B-AC13	B-AC14	B-AC15	B-AC16	B-DC1	B-DC2	B-DC3	B-DC4	B-DC5	B-DC6	B-DC7	B-DC8	B-DC9	B-DC10	B-DC11	B-DC12	B-DC13	B-DC14	B-DC15	B-DC16	B-Ph1	B-Ph2	B-Ph3	B-Ph4	B-Ph5	B-Ph6	B-Ph7	B-Ph8	B-Ph9	B-Ph10	B-Ph11	B-Ph12	B-Ph13	B-Ph14	B-Ph15	B-Ph16	

Term	0.00000e+00	0.00000e+00	0.00000e+00	0.00000e+00	0.00000e+00	0.00000e+00	0.00000e+00	0.00000e+00	0.00000e+00	0.00000e+00	0.00000e+00	0.00000e+00	0.00000e+00	0.00000e+00	0.00000e+00	0.00000e+00	0.00000e+00	0.00000e+00	0.00000e+00	0.00000e+00	0.00000e+00	0.00000e+00	0.00000e+00	0.00000e+00	0.00000e+00	0.00000e+00	0.00000e+00	0.00000e+00	0.00000e+00	0.00000e+00	0.00000e+00	0.00000e+00	-2.07275e+01	-1.32847e+02	-1.52787e+02	-1.83875e+02	-6.77554e+01	-5.54330e+01	-1.56919e+02	-1.62015e+02	-3.22664e+01	-7.99954e+01	-1.74562e+02	-1.70840e+02	-1.80437e+02	-1.77427e+02	-6.96928e+01	-1.50391e+02	
Factor	2.96057e-05	1.28999e-04	4.41538e-05	1.97066e-01	1.45415e-06	1.07368e-06	1.67062e-01	5.22067e-02	1.19540e-06	1.26644e-06	1.23098e-01	2.98311e-02	3.04790e-02	9.88491e-03	1.28029e-06	1.43348e-02	1.34528e-06	1.40145e-06	3.88201e-07	9.80757e-02	1.52263e-08	1.53501e-08	7.86761e-02	2.62170e-02	1.51695e-08	1.52930e-08	5.81304e-02	1.43474e-02	1.50814e-02	4.92209e-03	1.51770e-08	6.84804e-03	X	X	X	X	X	X	X	X	X	X	X	X	X	X	X	X	



#DISTANCE SETTINGS
A = Detector Channel
A-1	A-2	A-3	A-4	A-5	A-6	A-7	A-8	A-9	A-10	A-11	A-12	A-13	A-14	A-15	A-16	

2.5000e+00	3.0000e+00	2.5000e+00	3.0000e+00	2.0000e+00	3.0000e+00	1.5000e+00	3.0000e+00	3.0000e+00	3.0000e+00	3.0000e+00	3.0000e+00	3.0000e+00	3.0000e+00	1.5000e+00	3.0000e+00	

B = Detector Channel
B-1	B-2	B-3	B-4	B-5	B-6	B-7	B-8	B-9	B-10	B-11	B-12	B-13	B-14	B-15	B-16	

1.0000e+01	1.0000e+01	1.0000e+01	1.4400e+00	1.0000e+01	1.0000e+01	1.5100e+00	1.9400e+00	1.0000e+01	1.0000e+01	1.9900e+00	2.4900e+00	2.4100e+00	2.9000e+00	1.0000e+01	2.9800e+00	




#DATA BEGINS
time	group	step	mark	flag	A-AC1	A-AC2	A-AC3	A-AC4	A-AC5	A-AC6	A-AC7	A-AC8	A-AC9	A-AC10	A-AC11	A-AC12	A-AC13	A-AC14	A-AC15	A-AC16	A-DC1	A-DC2	A-DC3	A-DC4	A-DC5	A-DC6	A-DC7	A-DC8	A-DC9	A-DC10	A-DC11	A-DC12	A-DC13	A-DC14	A-DC15	A-DC16	A-Ph1	A-Ph2	A-Ph3	A-Ph4	A-Ph5	A-Ph6	A-Ph7	A-Ph8	A-Ph9	A-Ph10	A-Ph11	A-Ph12	A-Ph13	A-Ph14	A-Ph15	A-Ph16	B-AC1	B-AC2	B-AC3	B-AC4	B-AC5	B-AC6	B-AC7	B-AC8	B-AC9	B-AC10	B-AC11	B-AC12	B-AC13	B-AC14	B-AC15	B-AC16	B-DC1	B-DC2	B-DC3	B-DC4	B-DC5	B-DC6	B-DC7	B-DC8	B-DC9	B-DC10	B-DC11	B-DC12	B-DC13	B-DC14	B-DC15	B-DC16	B-Ph1	B-Ph2	B-Ph3	B-Ph4	B-Ph5	B-Ph6	B-Ph7	B-Ph8	B-Ph9	B-Ph10	B-Ph11	B-Ph12	B-Ph13	B-Ph14	B-Ph15	B-Ph16	aux-1	digaux	

2180.717	1	1	0	256	0.042951	0.23034	0.082354	0.16529	0.42482	0.17481	0.32545	0.18334	0.1167	0.23447	0.17347	0.13646	0.012111	0.051104	0.28969	0.25092	-3.0312	-2.8854	-3.0563	-3.2	-2.5563	-3.3542	-3.1	-2.6979	-3.5771	-2.6917	-3.1479	-3.3375	-2.625	-3.4188	-3.0833	-2.7604	-49.955	-52.452	104.524	79.241	34.723	31.532	173.630	-101.663	15.657	100.236	-124.010	154.558	9.561	104.796	52.708	116.010	0.00035986	0.00096214	0.00028651	495.1	1.0241e-05	3.1246e-06	848.07	170.66	6.8296e-06	7.9246e-06	339.57	123.33	61.403	23.328	6.5813e-06	52.244	0.00044683	0.00052249	0.00014016	463.91	4.9363e-06	5.4824e-06	767.86	157.43	4.7737e-06	5.5589e-06	306.13	111.51	57.752	21.857	5.2923e-06	46.713	-60.349	230.577	-81.744	-112.046	47.935	66.818	-112.718	-106.284	-16.431	-1.517	-107.848	-103.512	-102.160	-97.349	216.675	-99.627	-8191	255	
2180.813	1	1	0	0	0.20405	0.21555	0.082203	0.16233	0.19816	0.098016	0.25153	0.11823	0.11539	0.13445	0.29611	0.32176	0.1146	0.13094	0.20932	0.22369	-3.0167	-2.8167	-2.9062	-3.4688	-2.6521	-3.2979	-3.3458	-2.7812	-3.3896	-2.8875	-2.9854	-3.5833	-2.5875	-3.2979	-3.2896	-2.7687	234.846	124.101	191.772	-119.481	132.950	2.812	-115.123	-115.475	128.285	136.085	202.512	169.020	119.379	84.705	64.952	78.287	0.00022219	0.00074806	0.000286	494.65	3.7641e-06	2.7325e-06	840.11	169.71	5.0713e-06	3.2961e-06	335.15	123.24	62.091	23.248	4.5154e-06	52.09	0.0004386	0.0005095	0.00013457	459.11	4.9639e-06	5.455e-06	761.31	156.26	4.8787e-06	5.484e-06	305	111.19	58.33	21.926	5.1214e-06	46.805	-56.955	198.839	-48.872	-112.165	105.584	233.766	-112.526	-105.792	84.149	20.308	-108.085	-103.598	-102.264	-96.866	203.498	-99.509	-8191	255	
2180.932	1	1	0	0	0.17625	0.29044	0.086869	0.22369	0.047062	0.15053	0.10008	0.1367	0.13728	0.13741	0.2623	0.203	0.19798	0.090655	0.11749	0.25143	-3.1354	-2.6813	-2.9521	-3.5458	-2.6479	-3.0792	-3.4396	-2.8146	-3.3438	-2.8583	-2.8375	-3.4313	-2.6667	-3.1562	-3.3583	-2.5417	-63.723	13.311	-44.292	75.767	209.128	123.007	-37.915	153.513	-2.618	32.854	124.067	179.570	138.375	232.702	164.433	73.651	0.00060547	0.00048166	2.8583e-05	497.04	6.4551e-06	4.5117e-06	860.56	171.66	2.284e-06	7.9773e-06	340.26	126.45	63.287	24.072	6.2301e-06	53.744	0.00047236	0.00049692	0.00013354	464.46	5.2052e-06	5.4789e-06	773.8	158.41	5.4169e-06	5.4012e-06	309.22	113.52	59.666	22.616	5.5545e-06	48.493	-55.696	138.949	156.215	-111.965	-109.846	204.535	-112.679	-106.268	-78.948	100.542	-108.080	-103.633	-102.816	-96.925	25.669	-100.288	-8191	255	
2181.028	1	1	0	0	0.12311	0.072061	0.18951	0.12541	0.15243	0.25621	0.19292	0.18303	0.27071	0.21693	0.18473	0.19933	0.17288	0.17378	0.13288	0.35363	-2.9458	-3.1104	-2.5854	-3.3667	-2.6375	-3.1125	-3.4917	-2.5187	-3.3	-3.2062	-2.8438	-3.4958	-2.9437	-3.0687	-3.4771	-2.8083	-29.595	124.715	-53.218	-97.764	58.611	71.146	161.972	-90.552	-7.525	118.688	127.289	202.738	54.704	156.382	150.899	13.495	0.0005304	0.00099673	0.00025869	509.58	7.0759e-06	7.6404e-06	867.73	176.69	4.3162e-06	6.9202e-06	350.22	127.41	64.139	24.517	8.6448e-06	54.531	0.00056341	0.0005727	0.00015122	479.84	6.5659e-06	6.6894e-06	790.2	163.96	7.0631e-06	6.913e-06	321.12	116.62	62.331	23.514	6.8882e-06	49.826	-54.866	-46.403	160.134	-111.847	218.171	90.285	-112.585	-105.713	54.430	121.743	-107.921	-103.638	-102.445	-97.148	-26.094	-99.342	-8191	255	
2181.124	1	1	0	0	0.053595	0.23843	0.080141	0.046608	0.12497	0.12914	0.33113	0.092794	0.02746	0.094829	0.22299	0.1743	0.23334	0.21033	0.034411	0.097724	-3.1437	-3.2708	-2.4771	-3.4958	-2.9875	-3.0542	-3.3937	-2.6312	-3.1833	-3.2458	-2.6354	-3.5667	-2.7667	-2.6896	-3.55	-2.8229	102.816	32.237	-106.006	36.282	182.228	186.317	173.198	36.816	93.395	-0.973	-96.515	160.221	153.573	224.821	40.296	135.744	0.00029988	0.0011355	0.00036003	504.32	6.2085e-06	2.6898e-06	841.65	173.15	1.7397e-05	3.0401e-06	335.99	124.66	62.401	24.057	9.2465e-06	53.097	0.0006972	0.00069864	0.00017724	486.24	8.0615e-06	7.8865e-06	778.9	163.96	8.3139e-06	8.0845e-06	315.09	115.42	62.068	23.381	7.3237e-06	49.34	-38.316	-58.863	-82.611	-110.879	195.934	77.530	-112.315	-105.640	-12.865	161.511	-107.795	-103.663	-102.253	-96.640	10.318	-99.552	-8191	255	
2181.221	1	1	0	0	0.3534	0.11433	0.073431	0.20568	0.25509	0.17599	0.26737	0.11544	0.05101	0.15626	0.17269	0.36507	0.23257	0.40778	0.073536	0.29382	-2.6813	-3.325	-2.5646	-3.5542	-2.8458	-2.7896	-3.3708	-2.8542	-2.9083	-3.2146	-2.7938	-3.3104	-2.9521	-2.7812	-3.3354	-3.0062	45.940	83.433	235.739	170.310	78.334	48.260	125.473	169.681	3.210	-79.016	-62.842	206.617	34.045	204.612	147.425	64.113	0.00039273	0.0007138	0.00039642	488.86	2.8542e-06	5.1866e-06	818.71	170.14	7.7302e-06	5.4748e-06	334.71	122.27	61.983	23.848	1.0159e-05	52.737	0.00075234	0.00075519	0.00019173	476.75	8.7287e-06	8.3691e-06	755.13	163.27	8.6013e-06	8.3276e-06	312.38	114.06	61.497	23.142	7.3068e-06	49.019	-72.508	-19.083	-20.133	-111.780	14.373	99.178	-112.502	-105.910	74.945	7.664	-107.384	-103.368	-102.106	-96.844	220.636	-99.272	-8191	255	
2181.317	1	1	0	0	0.047122	0.027699	0.032639	0.10776	0.092881	0.32727	0.19732	0.24009	0.060702	0.11758	0.072306	0.12062	0.25314	0.041941	0.1968	0.050808	-2.6229	-3.275	-2.6708	-3.3542	-2.9167	-2.8063	-3.55	-3.075	-3.0333	-3.3667	-2.8833	-3.2667	-3.3375	-2.8042	-3.4417	-2.9625	177.533	-58.198	209.272	77.735	-71.210	181.000	158.138	66.287	-57.744	16.803	188.538	183.121	186.091	194.222	7.126	4.906	0.00023665	0.00028564	0.0002114	487.04	4.1175e-06	6.159e-06	822.76	170.37	1.5189e-05	8.7318e-06	336.61	122.95	62.124	23.668	6.8104e-06	52.755	0.00071965	0.00069205	0.0001836	472.02	7.7845e-06	7.1666e-06	752.24	161.68	7.1715e-06	6.7207e-06	309.87	113.13	60.166	22.564	6.2448e-06	48.44	-37.722	26.472	-12.984	-111.725	6.247	-80.499	-112.452	-105.517	59.727	-29.853	-107.062	-103.312	-102.306	-96.462	167.271	-99.953	-8191	255	
2181.413	1	1	0	0	0.18716	0.010096	0.19912	0.1935	0.093097	0.18116	0.034715	0.3589	0.17865	0.070361	0.212	0.21406	0.17461	0.11833	0.23301	0.22947	-2.4896	-3.5312	-2.625	-3.1729	-3.1167	-2.7229	-3.4062	-3.0083	-2.8208	-3.5354	-2.7396	-3.1562	-3.3771	-2.6333	-3.3396	-3.0167	33.667	203.578	-83.012	226.924	20.546	-82.736	-10.015	190.199	214.219	-24.079	225.035	-104.592	87.378	146.482	198.562	197.754	0.00035022	0.00079928	0.00010767	494.63	7.9162e-06	3.5854e-06	849.32	173.89	3.4238e-06	4.8009e-06	340.08	124.7	63.751	24.292	4.7349e-06	53.724	0.00057194	0.00051572	0.00015212	470.4	5.9536e-06	5.3149e-06	770.63	161.28	5.6048e-06	5.1697e-06	311.69	113.94	59.618	22.33	5.3172e-06	48.422	-27.046	-24.042	107.343	-111.482	10.220	3.827	-111.861	-105.454	64.796	182.062	-107.575	-103.448	-101.627	-95.887	-49.888	-99.348	-8191	255	
2181.509	1	1	0	0	0.1271	0.16455	0.18994	0.32979	0.22208	0.033089	0.34283	0.18354	0.071567	0.13014	0.12195	0.16947	0.1143	0.074711	0.10974	0.10539	-2.3063	-3.4521	-2.5333	-3.0875	-3.3896	-2.5792	-3.3646	-3.2188	-2.7	-3.525	-2.8646	-3.05	-3.4021	-2.7875	-3.3812	-3.2729	42.310	15.943	-35.732	86.064	125.513	7.896	115.320	10.427	186.839	226.880	0.678	188.962	227.550	-54.388	57.466	137.840	0.00041564	0.00059643	0.0004057	504.58	6.0122e-06	4.6342e-06	852.42	175.23	1.0823e-05	1.4869e-06	342.18	125.73	63.438	23.909	8.835e-06	53.234	0.00045835	0.00042347	0.00012998	469.77	4.906e-06	4.4144e-06	773.22	160.75	4.6011e-06	4.628e-06	310.34	113.4	58.803	22.186	5.1206e-06	47.952	-55.695	32.333	-73.245	-110.942	36.676	-28.673	-112.176	-105.800	44.348	-7.742	-107.570	-103.205	-101.695	-96.645	-34.565	-99.505	-8191	255	
2181.630	1	1	0	0	0.19282	0.080385	0.18184	0.20863	0.15321	0.21135	0.1331	0.18669	0.10123	0.19848	0.21099	0.32041	0.085842	0.084914	0.14738	0.1869	-2.2125	-3.55	-2.7833	-2.9417	-3.4875	-2.6312	-3.3521	-3.2458	-2.5563	-3.5229	-2.9562	-2.8792	-3.5083	-2.6833	-3.0938	-3.1521	-106.053	-122.686	64.635	-103.594	23.079	-90.756	-120.179	208.873	230.469	219.965	166.606	136.712	35.007	10.690	-78.852	104.428	0.00052237	0.00086815	0.00027402	500.46	8.7133e-06	3.1409e-06	844.32	172.7	1.307e-06	3.9541e-06	342.12	125.25	62.631	23.9	2.263e-06	53.13	0.00041645	0.00042546	0.00012885	465.84	4.6424e-06	4.6687e-06	766.29	159.97	4.5578e-06	4.8104e-06	309.82	113.16	58.707	22.345	5.1701e-06	47.854	-51.314	197.100	-57.454	-111.606	140.849	225.492	-113.054	-106.855	-26.114	63.349	-108.650	-104.238	-103.473	-97.233	91.555	-100.366	-8191	255	
2181.726	1	1	0	0	0.1489	0.080638	0.1399	0.22432	0.34841	0.20812	0.14878	0.24183	0.12077	0.15181	0.10984	0.10609	0.096538	0.26999	0.036728	0.26933	-2.1	-3.3667	-3.0542	-3.0167	-3.5625	-2.5479	-3.2687	-3.2438	-2.8375	-3.4375	-3.1125	-2.9396	-3.5354	-2.65	-3.2125	-3.3771	193.260	139.863	16.852	173.567	206.381	1.871	-106.888	44.059	148.225	219.824	-22.925	122.105	-104.138	225.598	39.015	163.861	0.00039535	0.00024304	0.00020233	496	1.1369e-05	1.5537e-06	844.07	171.88	7.648e-06	3.9277e-06	340.62	125.13	63.539	23.936	7.0099e-06	53.542	0.00041976	0.00044685	0.00013323	461.44	4.4032e-06	5.0503e-06	759.11	159.11	4.5309e-06	5.0116e-06	309	113.23	58.834	22.506	5.052e-06	48.176	-54.198	-10.653	-30.963	-112.195	-2.503	-4.233	-112.560	-106.221	-38.900	155.777	-108.240	-104.009	-102.531	-97.272	-27.191	-99.808	-8191	255	
2181.822	1	1	0	0	0.21195	0.15913	0.20282	0.1045	0.13065	0.2415	0.21935	0.21896	0.11822	0.16589	0.22394	0.12053	0.22138	0.20343	0.14026	0.21749	-2.3146	-3.2979	-3.0187	-2.7354	-3.4167	-2.6562	-2.8104	-3.4667	-2.7188	-3.25	-3.1146	-2.925	-3.4729	-2.8354	-3.0042	-3.5208	-6.464	113.955	77.391	131.825	9.108	-43.022	147.755	130.461	-117.150	-17.675	131.772	-85.727	-106.001	223.447	-101.810	-119.588	0.0005183	0.00057294	9.1368e-05	500.82	6.4895e-06	5.7389e-06	853.35	173.93	4.5746e-06	1.0618e-05	344.54	126.41	64.073	24.205	8.6423e-06	53.739	0.00041508	0.00047541	0.00013138	464.74	4.7279e-06	5.2638e-06	768.01	160.36	4.6692e-06	5.4536e-06	310.88	113.74	59.726	22.679	4.9301e-06	48.221	-61.037	18.557	226.631	-112.026	33.970	36.239	-112.400	-106.275	53.418	-26.250	-108.392	-104.065	-103.077	-96.721	6.251	-100.178	-8191	255	
2181.916	1	1	0	0	0.13276	0.09045	0.20101	0.20451	0.097364	0.046062	0.26334	0.2649	0.14214	0.25927	0.14588	0.10269	0.058976	0.20262	0.2003	0.18476	-2.2438	-3.1271	-3.1063	-2.6646	-3.3458	-3.075	-2.8646	-3.4458	-2.6646	-3.2313	-3.3792	-2.5875	-3.3333	-2.9104	-2.625	-3.3708	114.752	-100.666	156.876	165.841	-11.066	30.741	-121.071	52.638	104.128	11.623	185.643	-111.040	-110.689	149.664	-12.810	141.813	0.0003052	0.00052412	0.00019909	499.67	6.7614e-06	2.6566e-06	843.76	175.04	2.1092e-06	1.4057e-06	345.04	125.06	63.128	23.662	8.9903e-06	53.688	0.00042595	0.00047668	0.00012724	463.76	4.8733e-06	5.0901e-06	766.81	159.83	4.6331e-06	4.9957e-06	309.84	112.42	59.037	22.184	4.5214e-06	47.607	-39.691	-6.838	-71.853	-111.720	200.303	-119.826	-112.689	-106.764	11.821	60.082	-108.662	-103.774	-102.921	-97.210	2.266	-99.971	-8191	255	
2182.012	1	1	0	0	0.033759	0.16992	0.010828	0.27692	0.25677	0.25561	0.15663	0.23853	0.079601	0.19472	0.085106	0.22546	0.32429	0.23062	0.13027	0.12959	-2.2292	-3.0146	-3.1979	-2.5333	-3.3833	-2.9958	-2.8458	-3.4	-2.8146	-3.0292	-3.3563	-2.6979	-3.4875	-3.0667	-2.7604	-3.6125	-33.735	-68.017	-51.006	203.577	-85.918	80.450	208.461	191.521	143.110	-115.661	22.017	115.712	25.252	176.356	-3.790	186.702	0.0004297	0.00047369	5.9868e-05	496.69	8.7844e-06	7.0219e-06	843.25	172.37	8.7247e-06	4.2847e-06	342.55	124.38	63.245	23.974	3.5645e-06	52.89	0.00042607	0.00043131	0.00011421	455.65	4.4975e-06	4.5574e-06	757.72	157.38	4.4116e-06	4.3227e-06	306.03	111.85	58.555	22.085	3.9583e-06	47.139	-34.035	54.037	-90.226	-111.807	-56.655	47.399	-112.629	-105.865	-81.674	50.256	-108.476	-103.765	-102.547	-97.185	126.992	-99.702	-8191	255	
2182.109	1	1	0	0	0.27094	0.21616	0.31412	0.12847	0.1369	0.19664	0.17113	0.11517	0.081219	0.031009	0.063065	0.040175	0.20899	0.14679	0.056933	0.088641	-2.4896	-2.9542	-3.3583	-2.5042	-3.225	-3	-2.6646	-3.4521	-2.8438	-2.7687	-3.4458	-2.7917	-3.125	-3.1896	-2.6458	-3.3979	-82.488	17.019	-1.989	25.783	-122.575	20.576	85.882	-118.255	113.480	216.199	-17.145	-75.156	-110.035	-63.985	12.442	102.613	0.00054683	0.00051531	3.832e-05	503.23	1.0936e-05	1.1207e-07	853.96	174.95	3.6885e-06	1.3244e-05	346.93	126.46	63.709	24.224	5.904e-06	53.515	0.00039119	0.00037621	9.62e-05	459.98	4.1493e-06	4.0041e-06	765.84	159.34	4.1504e-06	3.8451e-06	308.83	113.08	58.979	22.11	3.4981e-06	47.925	-45.126	-105.252	127.580	-111.880	46.671	51.189	-112.509	-106.534	68.959	-22.582	-108.003	-104.177	-102.369	-97.136	-56.751	-99.497	-8191	255	
2182.229	1	1	0	0	0.21953	0.040813	0.28375	0.12127	0.10719	0.22009	0.082444	0.27384	0.033076	0.24501	0.16466	0.14748	0.27572	0.17192	0.061899	0.13417	-2.3729	-2.7833	-3.4375	-3.0333	-3.175	-3.1604	-2.7687	-3.4333	-2.8604	-2.8021	-3.5396	-2.6875	-3.2729	-3.4792	-2.7062	-3.4375	-117.612	20.412	189.377	185.442	204.320	18.264	149.087	180.304	116.048	-20.494	-108.893	60.947	-119.033	29.501	35.060	-115.445	0.00046956	0.00033327	0.00027658	508.91	5.5842e-06	3.7201e-06	861.58	177.59	3.5497e-06	8.3637e-06	352.52	129.3	64.491	24.428	4.6892e-06	54.608	0.00037276	0.00034776	9.0175e-05	465.27	3.9782e-06	3.9172e-06	774	161.95	4.0128e-06	3.898e-06	312.34	115.46	59.594	22.515	3.7228e-06	48.813	-49.312	-81.177	-114.145	-111.838	79.637	59.640	-112.439	-105.549	70.728	21.235	-108.316	-103.534	-102.251	-97.176	-7.684	-99.289	-8191	255	
2182.325	1	1	0	0	0.0191	0.10189	0.12194	0.13777	0.26661	0.13207	0.13337	0.17297	0.11757	0.3439	0.10505	0.24116	0.13567	0.24974	0.112	0.10997	-2.6688	-2.6542	-3.4458	-2.7167	-3.1021	-3.3104	-2.7083	-3.5229	-2.9958	-2.5938	-3.3583	-2.7583	-2.9	-3.4146	-2.5938	-3.325	-85.056	-36.217	4.557	5.051	204.427	222.300	145.801	-98.906	151.265	5.201	-75.610	89.582	14.762	176.339	220.075	-94.876	0.00035692	0.00099694	0.00025566	512.06	2.2005e-06	2.8142e-06	864.26	176.43	3.0897e-06	7.6991e-06	350.07	128.02	64.452	24.416	1.1011e-05	53.995	0.00040549	0.00038012	0.00010255	472.61	4.5753e-06	4.3543e-06	777.43	162.97	4.5048e-06	4.2986e-06	313.44	115.09	59.98	22.517	4.2886e-06	48.499	-36.591	-80.374	-42.584	-111.642	-100.331	-43.997	-112.710	-106.433	-28.869	-32.997	-108.087	-103.834	-102.316	-97.062	88.494	-99.816	-8191	255	
2182.422	1	1	0	0	0.23076	0.11171	0.14883	0.32428	0.15242	0.21471	0.032975	0.12102	0.10623	0.1027	0.094962	0.14487	0.25088	0.12692	0.13098	0.309	-2.6833	-2.7313	-3.1979	-2.7979	-2.6917	-3.4042	-2.7	-3.2	-3.0563	-2.5667	-3.3479	-2.8375	-2.8417	-3.3333	-2.6312	-3.1958	151.547	-47.788	-117.967	212.239	203.047	104.828	-109.709	171.109	-70.076	-104.335	132.015	151.046	118.484	206.048	-99.556	-113.154	0.00043965	0.00084504	0.00015701	502.52	8.0178e-06	5.5698e-06	840.32	175.18	1.8929e-06	5.0239e-06	341.44	125.15	63.539	24.206	4.4181e-06	52.974	0.00043346	0.00040842	0.00011231	465.83	4.7918e-06	4.5418e-06	758.56	161.21	4.9246e-06	4.5299e-06	310.07	113.41	59.364	22.241	4.7324e-06	47.924	-42.603	-20.243	-94.468	-112.190	21.379	99.624	-113.091	-106.206	233.371	85.771	-108.076	-104.173	-102.458	-97.560	57.714	-99.724	-8191	255	
2182.518	1	1	0	0	0.17464	0.14008	0.23186	0.13833	0.11737	0.14681	0.1095	0.13457	0.073357	0.15897	0.25301	0.20435	0.042273	0.060629	0.20762	0.23351	-2.8604	-2.6479	-3.35	-2.9625	-2.625	-3.5292	-2.8521	-3.0708	-3.1937	-2.5771	-3.4125	-3.1437	-2.6104	-3.5375	-2.7021	-3.125	48.049	140.658	-99.371	53.877	18.304	184.766	-73.572	147.961	-68.716	73.024	173.970	131.128	-40.192	-121.262	-53.232	165.448	0.00043102	0.00052973	0.0002898	494.72	1.2364e-05	9.6568e-06	845.21	175.91	3.2668e-06	8.129e-06	345.44	126.34	64.124	23.878	7.4881e-06	53.97	0.00043155	0.00039734	0.00011631	463.24	4.5616e-06	4.0398e-06	760.59	160.45	4.3416e-06	3.9331e-06	310.21	113.58	59.273	22.073	4.3475e-06	48.087	-45.859	-87.516	157.701	-112.250	31.372	13.829	-112.816	-106.071	48.650	-18.554	-107.909	-103.254	-102.249	-96.851	63.076	-99.857	-8191	255	
2182.589	1	1	0	0	0.118	0.20656	0.19702	0.048077	0.14042	0.1717	0.26002	0.23049	0.23462	0.21785	0.28096	0.042591	0.035408	0.16388	0.20233	0.058132	-3.1854	-2.5979	-3.3521	-3.1167	-2.5167	-3.5146	-2.9792	-2.9542	-3.4458	-2.4604	-3.4479	-3.2188	-2.8688	-3.4	-2.8479	-2.9188	41.540	155.118	220.400	233.956	145.613	-0.810	198.328	139.567	-50.757	104.352	56.278	134.204	26.376	200.262	-83.879	153.698	0.00029478	0.00093478	5.5197e-05	504.48	9.5215e-06	4.1553e-06	861.57	177.1	5.4178e-06	4.1433e-06	352.8	128.62	64.238	24.321	6.4418e-06	54.597	0.00036644	0.0003441	0.00010612	464.88	3.7788e-06	3.5199e-06	775.45	161.1	3.5409e-06	3.4862e-06	314.11	114.72	58.9	22.229	3.941e-06	48.43	-35.824	-99.545	-79.169	-112.256	-45.122	191.802	-112.702	-106.050	147.331	5.714	-108.247	-103.874	-102.420	-96.959	180.671	-99.886	-8191	255	
2182.710	1	1	0	0	0.071977	0.037209	0.1864	0.14343	0.28825	0.10327	0.31355	0.087439	0.23019	0.092303	0.19765	0.058431	0.30186	0.054562	0.085406	0.064681	-3.0083	-2.5521	-3.0563	-3.1896	-2.4479	-3.4104	-3.0896	-2.8583	-3.5438	-2.4813	-3.35	-3.3479	-2.6729	-3.3833	-2.8542	-2.8958	-17.187	87.114	213.363	231.902	62.279	144.045	168.791	219.246	28.900	85.126	-55.908	116.231	75.310	86.870	-23.118	-48.155	0.00041594	0.00054408	0.00020159	511.49	7.9015e-06	4.9622e-06	874.37	179.03	3.7161e-06	4.6084e-06	353.3	127.4	64.786	24.153	2.4069e-06	54.209	0.00031757	0.00032268	9.6594e-05	466.88	3.3717e-06	3.5155e-06	780.07	162.46	3.2605e-06	3.5909e-06	313.75	114.33	58.783	22.098	3.7166e-06	48.089	-46.582	36.922	232.957	-111.893	94.421	38.777	-112.340	-105.965	161.270	111.913	-107.786	-103.563	-102.198	-96.524	22.214	-99.720	-8191	255	
2182.806	1	1	0	0	0.061727	0.34014	0.10527	0.16363	0.25348	0.25993	0.25855	0.21685	0.24031	0.15668	0.10229	0.050008	0.13374	0.013304	0.044465	0.12306	-3.0875	-2.7375	-3.1542	-3.2687	-2.6312	-3.1646	-3.0479	-2.8438	-3.5167	-2.6958	-3.1042	-3.4583	-2.6875	-3.2667	-3.1188	-2.7812	185.077	228.839	-67.214	-5.901	181.118	-92.521	121.592	-115.555	95.383	41.771	165.026	144.564	19.293	-109.935	-39.254	-62.484	0.00028763	0.0006317	0.00013295	515.41	4.7556e-06	4.11e-06	865.6	177.02	6.5438e-06	2.7325e-06	348.7	126.82	64.485	24.12	3.995e-06	53.823	0.00029702	0.00034277	9.3925e-05	467.27	3.3506e-06	3.7682e-06	778.54	161.35	3.3407e-06	3.8929e-06	311.78	113.48	58.713	22.187	3.9459e-06	47.732	-47.133	21.520	-2.576	-111.990	48.450	42.753	-112.581	-105.488	-10.620	-19.636	-108.039	-103.560	-102.101	-96.753	-119.893	-99.580	-8191	255	
2182.902	1	1	0	0	0.15494	0.41927	0.24214	0.17727	0.15932	0.18112	0.19021	0.10225	0.079828	0.11554	0.023555	0.09371	0.038668	0.18695	0.13891	0.088771	-3.0042	-2.8458	-3.025	-3.4437	-2.4667	-3.3458	-3.4271	-2.7313	-3.4958	-2.8729	-2.8875	-3.4896	-2.7021	-3.1979	-3.1646	-2.5687	121.912	1.884	-104.544	214.870	223.473	37.322	222.948	125.874	218.245	-29.102	-22.862	-103.046	82.791	-32.134	-28.180	159.648	0.00036681	0.0006838	0.00014638	509.74	1.3485e-06	4.8609e-06	859.42	177.34	2.6809e-06	4.4164e-06	348.87	128.46	63.988	24.268	4.5206e-06	53.743	0.000326	0.00038431	0.00010148	466.5	3.799e-06	4.1556e-06	773.84	161.24	3.8218e-06	4.2626e-06	311.65	114.16	59.021	22.327	4.1124e-06	47.853	-32.957	15.646	27.643	-111.627	-23.231	97.676	-112.517	-105.698	183.750	19.708	-107.727	-103.509	-101.912	-97.199	-61.854	-99.785	-8191	255	
2183.021	1	1	0	0	0.080374	0.13105	0.063433	0.16434	0.10724	0.14904	0.1307	0.15461	0.1396	0.038819	0.18128	0.057022	0.20072	0.22604	0.087383	0.21666	-2.9313	-2.9333	-2.6646	-3.475	-2.6312	-3.1479	-3.3896	-2.6583	-3.4292	-2.7938	-2.6688	-3.4771	-2.7	-3.1375	-3.3896	-2.6667	-78.619	17.528	-95.658	77.803	177.562	207.632	138.437	33.104	12.618	-36.991	213.822	175.862	-52.566	109.216	31.290	222.033	0.00033853	0.00050044	2.6014e-05	509.1	5.6445e-06	2.7084e-06	864.36	177.69	3.1055e-06	8.2111e-06	350.47	127.1	64.367	24.181	2.0065e-06	53.717	0.00035816	0.00038735	0.00010126	467.75	4.0539e-06	4.1727e-06	776.26	161.56	4.0623e-06	4.2947e-06	313.54	113.97	59.682	22.359	4.1097e-06	47.793	-78.487	33.977	195.952	-111.406	39.488	-8.435	-112.525	-105.793	-11.608	-65.201	-108.149	-103.862	-102.431	-96.366	-3.646	-99.658	-8191	255	
2183.117	1	1	0	0	0.10919	0.39373	0.21788	0.19735	0.055625	0.1784	0.12582	0.31629	0.22861	0.20928	0.073245	0.068904	0.087509	0.14966	0.15842	0.24651	-2.9062	-2.8125	-2.5667	-3.4667	-2.775	-3.2646	-3.5979	-2.4896	-3.2917	-3.125	-2.7833	-3.5083	-2.6354	-3.1333	-3.5208	-2.6688	-14.708	-109.677	52.705	203.702	-49.842	139.416	234.306	232.218	154.195	-67.743	81.490	102.356	172.963	57.096	-97.365	145.861	0.0003138	0.0012431	0.00026581	516.92	6.627e-06	3.4254e-06	869.68	176.7	6.4517e-06	9.4566e-06	351.88	125.9	63.401	23.988	6.7751e-06	52.98	0.00038625	0.00038397	0.00010122	468.28	4.2032e-06	4.1047e-06	778.24	160.39	3.9974e-06	4.0191e-06	311.55	112.84	58.91	21.937	3.6218e-06	47.069	-49.943	-76.042	224.566	-111.688	30.771	-29.742	-112.298	-106.048	-45.040	20.397	-107.733	-103.289	-101.727	-96.670	-32.256	-99.693	-8191	255	
2183.191	1	1	0	0	0.097347	0.23325	0.10554	0.30615	0.061557	0.12707	0.3174	0.21795	0.021984	0.10896	0.13102	0.07409	0.12385	0.08838	0.15426	0.12396	-2.8417	-3.3229	-2.7625	-3.4042	-2.7229	-2.8979	-3.4562	-2.6271	-3.1813	-3.2479	-2.5875	-3.4521	-2.9833	-2.75	-3.7667	-2.7479	126.267	48.456	-103.056	-49.359	39.116	225.488	171.292	210.721	22.967	-118.026	103.351	-94.366	224.985	-90.394	55.836	200.495	0.00049717	0.00058058	0.00018486	514.47	4.993e-06	1.1719e-06	865.29	176.23	5.2947e-06	4.131e-06	347.74	126.25	63.072	23.669	2.4546e-06	52.89	0.00037321	0.00036081	9.3184e-05	467.41	4.1438e-06	3.9356e-06	774.24	160.14	4.1493e-06	3.8876e-06	309.07	112.93	58.58	21.731	3.5396e-06	47.043	-30.884	-2.223	233.253	-111.692	50.269	6.781	-112.242	-105.953	-5.399	33.625	-108.305	-103.353	-102.144	-96.357	134.237	-99.384	-8191	255	
2183.310	1	1	0	0	0.090569	0.10542	0.017604	0.094565	0.2031	0.118	0.34935	0.043005	0.1735	0.16128	0.19196	0.01359	0.060358	0.17833	0.25927	0.13904	-2.8646	-3.2396	-2.4542	-3.425	-2.8958	-2.7333	-3.6292	-2.8083	-3.2583	-3.3563	-2.6792	-3.4292	-3.0521	-2.7917	-3.4896	-2.7521	8.588	21.442	199.199	164.684	149.158	-56.174	103.648	132.599	125.141	117.855	125.482	3.766	-109.536	231.377	-67.538	-9.047	0.00043566	0.00063697	0.0004661	512.92	7.0058e-06	4.0408e-06	869.16	177.01	2.2786e-06	8.0321e-06	351.94	128.05	63.968	23.715	5.5542e-06	53.303	0.00037924	0.00035715	8.859e-05	471.05	4.0374e-06	3.771e-06	777.61	161.08	3.9138e-06	3.7531e-06	311.01	114.03	59.066	21.898	3.3586e-06	47.543	-57.724	12.013	-75.349	-111.558	34.571	40.031	-112.386	-105.887	84.810	-115.818	-107.376	-103.213	-102.230	-96.732	-45.224	-99.301	-8191	255	
2183.406	1	1	0	0	0.3181	0.25393	0.4371	0.092555	0.24826	0.14203	0.098595	0.11729	0.082077	0.029415	0.038264	0.078598	0.20244	0.10194	0.13093	0.2311	-2.4958	-3.0896	-2.5354	-3.2625	-2.9667	-2.8125	-3.65	-2.7062	-3.0354	-3.4542	-2.5292	-3.4292	-3.1833	-2.6375	-3.4229	-2.975	-44.767	224.630	74.113	53.987	143.954	101.655	197.868	128.893	-93.433	135.397	148.684	70.164	212.778	160.201	226.228	215.720	0.00035793	0.00086962	4.0713e-05	514.03	8.308e-06	5.0799e-06	876.95	179.1	5.248e-06	3.201e-06	359.01	129.66	64.867	24.354	5.9978e-06	54.732	0.00034124	0.00032003	8.1634e-05	469.15	3.5304e-06	3.1412e-06	782.12	163	3.3099e-06	3.0935e-06	314.24	115.77	59.176	21.998	3.2411e-06	48.395	-65.193	-62.558	52.298	-111.132	76.041	-77.044	-112.437	-105.448	50.050	-19.276	-107.707	-103.450	-102.499	-96.624	-31.945	-99.354	-8191	255	
2183.502	1	1	0	0	0.087713	0.26127	0.097473	0.087395	0.21859	0.17955	0.14659	0.13068	0.25185	0.10613	0.11684	0.076983	0.14625	0.24488	0.084006	0.16252	-2.4958	-3.4896	-2.5271	-3.4646	-3.2729	-2.4938	-3.6125	-2.8083	-2.8167	-3.3792	-2.8458	-3.45	-3.2792	-2.6792	-3.4583	-2.9646	200.440	-0.525	89.686	98.900	18.325	2.545	98.260	-119.920	147.307	131.329	33.110	12.167	153.109	226.236	-123.175	92.243	0.00045334	0.00078355	0.0001011	522.8	1.6953e-06	3.824e-06	882.01	180.33	5.946e-06	7.5229e-06	353.03	128.54	64.195	23.9	1.7564e-06	53.043	0.00031704	0.00030059	8.4752e-05	477.96	3.6521e-06	3.2676e-06	791.98	163.36	3.5782e-06	3.4632e-06	315.45	114.82	58.938	21.803	3.691e-06	47.363	-49.510	-65.670	104.478	-111.055	234.288	80.917	-111.920	-105.770	-35.638	-89.171	-107.460	-102.822	-102.423	-96.272	90.991	-99.018	-8191	255	
2183.623	1	1	0	0	0.053704	0.13136	0.058712	0.25485	0.16658	0.28101	0.094117	0.04348	0.010104	0.023234	0.34005	0.12896	0.098041	0.20909	0.11245	0.24451	-2.4146	-3.4417	-2.7917	-3.1042	-3.5354	-2.6188	-3.4521	-3.0396	-2.7562	-3.425	-2.7729	-2.9896	-3.4396	-2.4667	-3.1958	-2.9604	120.289	-82.894	98.392	221.353	59.901	170.686	53.482	93.163	220.424	16.056	-97.647	236.008	217.292	-12.099	37.185	173.264	0.00031624	0.00051322	6.3247e-05	517.1	2.2376e-06	1.7595e-06	877.11	176.55	1.8674e-06	2.166e-06	352.3	127.05	63.489	23.671	6.6428e-06	52.486	0.00033795	0.00030597	9.7451e-05	473.34	3.6778e-06	3.361e-06	781.27	161.1	3.6107e-06	3.3571e-06	312.03	112.98	58.203	21.495	3.8103e-06	46.693	-46.354	-93.248	49.142	-111.150	-4.955	-84.525	-112.163	-105.829	207.312	30.680	-107.662	-103.156	-102.400	-96.591	96.012	-98.994	-8191	255	
2183.719	1	1	0	0	0.20073	0.22438	0.19015	0.17519	0.31905	0.25863	0.090006	0.13645	0.12018	0.20417	0.26238	0.42579	0.085584	0.18157	0.080511	0.14399	-2.1458	-3.4875	-2.8812	-2.8979	-3.2854	-2.6063	-3.5396	-3.2979	-2.5083	-3.6063	-2.8187	-2.9396	-3.4271	-2.625	-3.1271	-3.0333	132.023	-93.932	186.216	223.337	-93.410	111.462	-4.343	-52.188	195.509	76.981	-62.075	182.649	156.657	151.606	40.112	164.865	0.00035883	0.00043391	0.00018831	512.37	6.8909e-06	2.3959e-06	870.08	177.02	6.8651e-06	1.1446e-06	351.54	127.85	63.656	23.828	2.285e-06	52.883	0.00032646	0.00031453	9.8879e-05	470.94	3.4916e-06	3.4754e-06	780.08	161.28	3.4425e-06	3.5298e-06	311.65	113.49	58.373	21.788	3.8928e-06	47.184	-47.737	-68.123	-54.115	-110.807	5.741	-66.408	-112.511	-105.822	53.214	152.731	-107.506	-102.964	-102.247	-96.491	94.172	-99.086	-8191	255	
2183.790	1	1	0	0	0.061375	0.06245	0.32622	0.1701	0.16644	0.27943	0.19405	0.10319	0.22034	0.17742	0.1844	0.30724	0.12043	0.27596	0.080319	0.1962	-2.1729	-3.3875	-2.9042	-3.0563	-3.5646	-2.6688	-3.4042	-3.2458	-2.5396	-3.5521	-3.1542	-2.8563	-3.3063	-2.8104	-3.0979	-3.4458	-72.057	-74.789	102.574	202.013	-90.100	214.112	133.610	75.535	61.885	122.048	227.185	-46.776	143.523	165.326	33.495	109.424	0.00033911	0.0002103	0.00012478	515.46	4.8806e-06	2.4064e-06	874.17	177.58	5.4179e-06	1.5246e-06	349.67	127.6	64.23	23.831	5.8215e-06	53.903	0.00032094	0.00033791	0.0001019	471.63	3.513e-06	3.7821e-06	781.29	161.72	3.4782e-06	3.7484e-06	313.35	114.06	58.585	22.022	3.9132e-06	47.76	-32.717	-14.955	176.727	-111.210	32.313	51.157	-111.953	-105.990	107.396	1.664	-107.674	-103.281	-102.506	-96.880	-67.146	-99.253	-8191	255	
2183.887	1	1	0	0	0.099041	0.21122	0.23008	0.044044	0.14682	0.041445	0.035828	0.20296	0.071541	0.068713	0.045704	0.16125	0.095928	0.33144	0.36935	0.16266	-2.2042	-3.3896	-2.8708	-2.6917	-3.5646	-2.6958	-3.1042	-3.5792	-2.6208	-3.3979	-3.0958	-2.7479	-3.6104	-3.0396	-2.9	-3.5125	93.352	-0.040	149.572	88.420	-72.441	157.411	38.106	-91.246	-13.078	-119.848	19.551	212.292	178.532	-117.103	203.049	135.243	0.00037317	0.00036587	0.00020854	517.67	9.1613e-06	4.8457e-06	872.53	178.11	3.3573e-06	6.5808e-06	350.81	128.12	63.687	23.902	2.1909e-06	53.205	0.00032706	0.00036074	0.00010208	473.62	3.5218e-06	4.0546e-06	783.33	161.75	3.5764e-06	3.938e-06	312.76	113.8	58.483	21.918	3.8006e-06	47.167	-55.200	25.521	-46.789	-111.338	104.818	69.084	-112.045	-105.544	89.990	65.144	-107.904	-103.379	-101.461	-96.102	2.278	-99.240	-8191	255	
2184.005	1	1	0	0	0.098904	0.088925	0.20504	0.16238	0.26556	0.16691	0.29402	0.13921	0.23648	0.351	0.11175	0.14509	0.11057	0.05871	0.17872	0.10996	-2.1979	-3.35	-3.1375	-2.6646	-3.4292	-2.875	-3.0917	-3.3417	-2.7354	-3.1854	-3.1583	-2.7417	-3.4208	-2.8479	-2.9104	-3.6	66.105	17.274	79.295	-9.412	140.230	-107.216	184.215	129.242	152.336	-47.911	195.660	-100.265	60.542	87.693	-96.911	-90.932	0.0003846	0.00028238	0.00012389	519.01	3.7654e-06	4.1831e-06	871.98	178.48	5.1466e-06	3.5912e-06	351.64	126.28	63.952	23.873	2.9985e-06	52.652	0.00033322	0.00035811	9.3919e-05	470.34	3.4822e-06	3.894e-06	777.64	160.17	3.5234e-06	3.7948e-06	310.44	112.56	58.356	21.771	3.6213e-06	46.765	-47.077	229.848	212.813	-110.946	-52.487	83.527	-111.709	-105.568	61.762	12.317	-107.427	-103.229	-102.009	-96.291	126.027	-98.699	-8191	255	
2184.102	1	1	0	0	0.23589	0.084516	0.10907	0.086458	0.15542	0.20502	0.2213	0.026615	0.11603	0.12112	0.14158	0.094205	0.29623	0.064572	0.12621	0.11404	-2.1271	-3.1417	-3.2125	-2.6229	-3.2833	-2.8667	-2.6917	-3.5333	-2.6333	-3.0563	-3.6229	-2.75	-3.2229	-3.175	-2.7042	-3.5396	-48.066	82.170	207.233	93.843	-36.115	167.651	108.827	-51.113	-29.462	219.609	173.527	-17.963	-78.935	-108.812	86.917	96.291	0.00041355	0.0007211	0.00015671	516.14	3.9629e-06	1.9624e-06	878.6	179.17	1.2366e-06	3.7822e-06	353.64	127.84	64.927	23.899	1.2105e-05	53.328	0.00033663	0.00034	9.1776e-05	468.75	3.6196e-06	3.6455e-06	783.24	160.82	3.6224e-06	3.5728e-06	313.09	113.31	59.082	21.873	3.3706e-06	47.463	-42.196	225.795	35.951	-111.832	77.270	-121.673	-112.417	-106.048	0.891	-0.799	-107.958	-103.470	-101.974	-96.984	0.206	-99.077	-8191	255	
2184.198	1	1	0	0	0.077872	0.070629	0.077773	0.37195	0.18422	0.19358	0.077369	0.15971	0.10265	0.10125	0.25289	0.12336	0.13141	0.11224	0.20817	0.32708	-2.3583	-3.0125	-3.2333	-2.4729	-3.4792	-3.2188	-2.6417	-3.1896	-2.8667	-2.8104	-3.2021	-2.6917	-3.3021	-3.2979	-2.5812	-3.4292	33.750	165.051	133.702	232.538	108.196	139.581	-90.641	209.830	149.406	93.719	-114.285	192.682	21.974	150.181	204.359	179.956	0.00042737	0.00081839	0.00012718	523.03	6.199e-06	4.7178e-06	885.27	180.03	9.3883e-06	4.7551e-06	358.94	130.08	65.259	24.548	1.0601e-05	54.838	0.00033975	0.0003288	8.5746e-05	471.4	3.6116e-06	3.6344e-06	788.89	162.73	3.759e-06	3.5767e-06	315.79	115.5	59.679	22.393	3.2709e-06	48.47	-55.249	-35.855	30.314	-111.782	-18.534	43.920	-112.188	-105.729	-69.016	30.413	-108.024	-103.530	-102.133	-96.753	35.492	-99.295	-8191	255	
2184.294	1	1	0	0	0.22247	0.13153	0.053983	0.21787	0.15292	0.24236	0.21771	0.078506	0.12928	0.23105	0.093345	0.10354	0.28229	0.28822	0.26962	0.18198	-2.375	-2.8104	-3.3479	-2.7667	-3.1521	-3.1813	-2.7417	-3.3812	-2.8958	-2.8375	-3.5042	-2.7271	-3.2271	-3.3104	-2.5563	-3.4292	50.249	153.319	-83.960	171.462	202.433	136.112	148.482	18.601	-72.287	12.349	175.132	-51.307	164.960	153.119	81.785	203.210	0.00044646	0.00060409	0.00020437	521.55	9.8638e-06	3.3174e-06	881.21	181.89	6.5244e-06	5.7283e-06	355.17	128.82	64.854	24.481	1.9941e-06	53.995	0.00035082	0.0003273	8.449e-05	475.67	3.7498e-06	3.6294e-06	789.64	163.6	3.8661e-06	3.6301e-06	314.13	114.96	59.558	22.174	3.3372e-06	47.993	-37.065	-84.842	-16.219	-111.563	23.547	-108.501	-112.136	-105.970	21.738	-12.267	-107.550	-103.935	-102.186	-97.142	-86.623	-99.679	-8191	255	
2184.414	1	1	0	0	0.15014	0.11797	0.23111	0.061825	0.27826	0.23085	0.2123	0.12793	0.047841	0.2504	0.20527	0.1806	0.16372	0.10092	0.22882	0.16809	-2.4917	-2.7458	-3.5896	-2.6437	-3.1562	-3.2771	-2.5604	-3.3458	-2.8583	-2.7646	-3.5271	-2.9896	-3.0062	-3.4667	-2.775	-3.5354	183.133	-110.706	33.845	84.496	-16.522	-10.456	231.684	-54.062	-60.480	158.468	-112.709	36.519	10.354	192.685	130.771	167.056	0.00038669	0.00017307	4.2788e-05	518.97	3.1359e-06	6.2279e-06	869.91	177.14	3.42e-06	2.0787e-06	350.28	126.09	63.886	23.743	5.7626e-06	52.992	0.00034604	0.00032839	8.2393e-05	474.97	3.784e-06	3.6134e-06	775.1	161.97	3.8323e-06	3.6124e-06	309.67	113.35	58.786	21.832	3.4397e-06	47.237	-45.634	218.713	-103.691	-111.628	-83.490	-43.957	-112.506	-105.786	77.314	-7.842	-107.678	-104.117	-102.161	-96.985	133.865	-99.251	-8191	255	
2184.486	1	1	0	0	0.2007	0.25528	0.27284	0.071985	0.20111	0.17982	0.075868	0.18195	0.077941	0.068899	0.11611	0.051862	0.17554	0.27761	0.16014	0.10987	-2.7667	-2.5438	-3.425	-2.8312	-2.9021	-3.4771	-2.8875	-3.3083	-3.0167	-2.5792	-3.5625	-2.8937	-2.9729	-3.3667	-2.8417	-3.2667	-77.615	190.762	-14.753	67.212	62.856	129.523	-88.745	78.066	187.053	90.333	125.055	12.479	132.662	36.931	147.949	68.982	0.00056016	0.00048643	0.0002771	516.41	2.1586e-06	8.0659e-06	856.07	176.02	1.5225e-06	6.2432e-06	347.47	124.96	64.455	23.798	6.2779e-06	53.308	0.00034422	0.00032882	8.7612e-05	469.48	3.7575e-06	3.5595e-06	767.04	161.03	3.7956e-06	3.5568e-06	309	112.42	58.809	21.727	3.751e-06	47.39	-58.228	-6.746	-84.669	-111.364	-12.585	-43.994	-112.091	-105.838	-31.917	10.665	-107.736	-103.399	-102.015	-96.843	185.114	-99.647	-8191	255	
2184.582	1	1	0	0	0.15332	0.13088	0.16498	0.12025	0.15693	0.07176	0.11324	0.17478	0.24139	0.11709	0.099608	0.16086	0.11013	0.22442	0.21165	0.39054	-2.6813	-2.5958	-3.4625	-3.0229	-2.8646	-3.5417	-2.8292	-3.3229	-3.2979	-2.7167	-3.3375	-3.0521	-2.7625	-3.4688	-2.6271	-3.0708	20.301	187.983	223.188	83.775	120.114	82.278	141.828	134.296	39.620	102.054	-33.843	114.674	167.731	-89.397	-64.421	160.207	0.00030416	0.00063674	0.00019395	511.92	2.7212e-06	3.3192e-06	859.09	178.32	5.9864e-06	3.0114e-06	349.55	127.03	64.011	23.895	1.3379e-06	53.7	0.0003558	0.00031979	9.4927e-05	468.65	3.7619e-06	3.4507e-06	769.52	162	3.7359e-06	3.4402e-06	309.41	113.61	58.674	21.855	3.7932e-06	47.734	-66.230	-6.608	-20.793	-111.507	28.050	-22.635	-112.381	-105.567	-14.709	99.419	-107.553	-103.251	-102.078	-96.600	-104.134	-99.159	-8191	255	
2184.703	1	1	0	0	0.14105	0.28088	0.1133	0.079402	0.07345	0.08054	0.37554	0.19163	0.24546	0.22369	0.11512	0.2408	0.34035	0.27441	0.20289	0.16916	-2.9188	-2.5229	-3.1667	-3.2583	-2.8063	-3.5271	-3.0229	-3.1479	-3.2854	-2.5354	-3.3625	-3.0896	-2.7667	-3.2854	-2.5938	-2.8833	176.045	180.666	-65.094	218.556	-41.889	14.570	200.843	91.152	5.892	119.700	225.168	210.655	177.646	-82.765	175.322	-70.938	0.00029389	0.00025426	0.00022609	511.08	2.7968e-06	3.8944e-06	867.9	178.23	7.2147e-06	2.525e-06	348.96	126.83	64.042	23.869	3.7425e-06	53.608	0.00033562	0.0003125	9.7696e-05	470.06	3.6316e-06	3.4753e-06	778.17	161.93	3.6096e-06	3.3737e-06	311.42	113.3	58.39	21.902	3.8114e-06	47.598	-21.325	17.371	4.127	-112.160	170.785	34.554	-111.896	-105.834	115.018	144.325	-107.390	-103.673	-102.349	-96.303	61.673	-99.229	-8191	255	
2184.799	1	1	0	0	0.10408	0.079365	0.056134	0.2947	0.22603	0.16944	0.16665	0.25346	0.13303	0.078584	0.10123	0.073736	0.20624	0.3168	0.15802	0.21803	-2.9313	-2.5146	-3.15	-3.2396	-2.525	-3.4313	-2.7833	-2.8563	-3.4437	-2.6729	-3.1208	-3.2854	-2.4688	-3.3542	-2.8063	-2.8479	-36.039	229.022	-20.090	147.093	81.766	-0.849	154.979	-41.658	212.547	-39.702	222.378	-11.988	143.053	186.055	202.751	92.477	0.00050376	0.00030759	0.00014889	504.65	1.037e-05	4.7118e-06	846.71	176.43	3.7031e-06	5.4914e-06	342.58	124.94	63.607	23.669	9.5907e-06	52.59	0.00032805	0.00031751	0.00010047	465.15	3.4251e-06	3.6446e-06	762.34	159.64	3.538e-06	3.6487e-06	306.97	111.35	57.887	21.76	3.8827e-06	46.743	-41.065	235.408	-101.025	-111.612	-29.409	46.860	-112.473	-105.798	-12.083	148.127	-107.285	-103.539	-101.948	-96.567	82.946	-98.944	-8191	255	
2184.893	1	1	0	0	0.0084138	0.3504	0.17663	0.14489	0.26295	0.16143	0.18482	0.076032	0.14153	0.18636	0.10756	0.25906	0.38465	0.10354	0.22839	0.11641	-3.0438	-2.5187	-2.975	-3.4	-2.6458	-3.5229	-3.1229	-2.7542	-3.5521	-2.7375	-3.0833	-3.4333	-2.5729	-3.5104	-2.9229	-2.8333	98.975	-113.470	-2.569	172.243	93.399	157.313	-78.950	60.202	-7.361	194.632	179.324	141.340	-123.669	219.712	132.106	128.580	0.00043198	0.00038639	0.00033519	506.67	1.1088e-05	6.1225e-07	847.97	175.46	5.0873e-06	9.7375e-06	342.71	125.22	62.946	23.88	7.5585e-06	52.805	0.00032382	0.00034487	0.00010097	462.9	3.3807e-06	3.9021e-06	760.38	159.33	3.5109e-06	3.9011e-06	306.89	111.43	57.641	21.943	3.9089e-06	47.119	-36.715	-56.171	221.327	-111.649	-68.437	-80.329	-112.474	-105.740	107.589	43.450	-107.468	-103.160	-102.222	-96.856	-11.909	-99.203	-8191	255	
2184.991	1	1	0	0	0.12429	0.13886	0.11425	0.22682	0.16465	0.17197	0.16736	0.1409	0.14027	0.2264	0.22969	0.10633	0.17233	0.12839	0.16219	0.13474	-3.0875	-2.825	-3.0396	-3.4875	-2.6188	-3.3187	-3.2646	-2.7333	-3.4229	-2.7333	-2.9625	-3.35	-2.6771	-3.2375	-3.1771	-2.7708	78.412	143.205	-86.321	94.954	-81.117	-11.285	-64.616	46.003	-43.472	84.428	-102.942	154.948	219.065	-113.350	93.423	81.227	0.00036962	0.00070615	0.00013437	512.84	1.6769e-06	4.2035e-07	847.86	177.47	1.8794e-06	1.9368e-06	347.93	125.79	63.625	24.38	6.5724e-06	53.716	0.00033095	0.0003674	9.9673e-05	465.28	3.5598e-06	4.2e-06	762.16	160.57	3.7139e-06	4.0944e-06	309.14	112.36	58.532	22.335	3.928e-06	47.775	-55.552	-34.378	-67.441	-111.315	31.807	210.106	-112.014	-105.728	181.379	-29.317	-107.089	-103.537	-102.493	-96.727	-3.326	-99.443	-8191	255	
2185.086	1	1	0	0	0.010975	0.1296	0.075153	0.18705	0.02931	0.21248	0.28845	0.23249	0.085609	0.20462	0.15268	0.23764	0.046612	0.08062	0.20514	0.099851	-3.1542	-2.6917	-2.9104	-3.3896	-2.4729	-3.2562	-3.3292	-2.6125	-3.4854	-2.9354	-2.8521	-3.6625	-2.7167	-3.0625	-3.2812	-2.6417	153.327	-9.823	-35.695	62.817	-11.113	24.020	134.157	230.753	79.514	-68.976	105.450	209.496	186.400	-27.790	79.544	219.020	0.00050774	0.00069236	9.3612e-05	508.55	3.2022e-06	2.6828e-06	861.47	178.76	8.3581e-06	9.6688e-06	347.79	127.09	64.563	24.375	1.8117e-06	53.82	0.00034859	0.00037267	0.00010044	467.32	3.8238e-06	4.0983e-06	774.34	161.62	3.8797e-06	4.15e-06	310.48	113.09	59.15	22.377	3.9579e-06	47.858	-71.460	9.595	-58.603	-111.726	-115.143	-87.569	-111.792	-105.443	41.594	-13.191	-107.239	-103.327	-101.772	-96.358	124.582	-99.360	-8191	255	
2185.182	1	1	0	0	0.12201	0.38374	0.20366	0.1022	0.068931	0.19053	0.26249	0.10424	0.32548	0.3706	0.17699	0.2362	0.24399	0.11475	0.22837	0.14231	-2.9792	-3.0438	-2.5062	-3.5062	-2.6958	-2.9938	-3.5542	-2.8083	-3.2583	-3.1167	-2.75	-3.6708	-2.8146	-2.9333	-3.4708	-2.6292	73.162	100.570	43.182	133.959	39.622	70.750	-78.278	72.759	117.165	43.232	152.097	226.093	-103.815	135.053	50.525	80.236	0.00034441	0.00041256	0.00014722	506.83	3.4775e-06	7.14e-06	845.55	175.66	3.7798e-06	5.7657e-06	344.03	124.81	62.838	23.961	5.7005e-06	52.679	0.00036948	0.00037624	9.8458e-05	462.13	3.9475e-06	4.0699e-06	758.08	159.63	4.0141e-06	4.0939e-06	306.7	111.34	58.238	21.995	3.9398e-06	46.992	-43.401	-6.429	-60.426	-111.603	147.207	26.614	-112.002	-105.425	-68.814	-22.125	-107.410	-102.872	-101.851	-95.948	69.211	-98.845	-8191	255	
2185.303	1	1	0	0	0.021446	0.22222	0.26298	0.12894	0.18707	0.051089	0.13998	0.041437	0.17115	0.063856	0.21195	0.096547	0.13213	0.0142	0.10955	0.32785	-2.9583	-2.9792	-2.6437	-3.5583	-2.7604	-3.0375	-3.7792	-2.6208	-3.4417	-3.1208	-2.7083	-3.6833	-2.8979	-2.9708	-3.4417	-2.6708	-24.461	-5.939	22.018	107.793	227.058	13.442	160.872	231.645	194.726	-119.927	151.979	-81.139	205.308	231.878	-66.781	228.616	0.00038695	0.0003177	0.00031484	500.26	1.6588e-06	5.1911e-06	836.96	176.2	6.1594e-06	1.0102e-05	345.26	124.42	63.073	24.034	2.392e-06	53.454	0.00039507	0.0003872	9.681e-05	459.91	4.2531e-06	4.1689e-06	751.46	159.77	4.2445e-06	4.1481e-06	305.2	111.6	58.557	22.101	3.7323e-06	47.485	-38.630	32.843	-97.824	-111.089	1.753	39.010	-111.943	-105.457	24.365	110.037	-107.203	-103.146	-101.957	-95.642	41.942	-99.273	-8191	255	
2185.399	1	1	0	0	0.16311	0.15496	0.25306	0.087043	0.035068	0.24982	0.11092	0.21676	0.20686	0.1654	0.068332	0.17178	0.31268	0.32049	0.038547	0.11313	-2.8688	-3.2583	-2.5104	-3.525	-2.7812	-2.8688	-3.7125	-2.6167	-3.2562	-3.2833	-2.6854	-3.5083	-2.9854	-2.8833	-3.6833	-2.8875	-59.833	-69.753	139.169	141.613	25.285	12.794	106.652	-103.429	-3.775	150.693	153.911	139.187	193.683	161.778	-6.758	212.774	0.00040912	0.00057147	0.00020248	504.9	3.6824e-06	6.0272e-06	850.69	177.28	4.2973e-06	6.2766e-06	345.41	126.87	63.72	24.255	7.0353e-06	54.651	0.00038795	0.00037058	9.449e-05	465.32	4.1906e-06	4.0129e-06	762.26	161.37	4.1417e-06	4.0848e-06	308.55	113.43	59.208	22.308	3.6913e-06	48.385	-55.782	151.404	-72.178	-110.342	100.890	53.647	-111.875	-105.013	207.529	20.108	-106.737	-103.082	-102.190	-96.860	68.883	-100.034	-8191	255	
2185.495	1	1	0	0	0.29666	0.20135	0.17092	0.16799	0.083416	0.064736	0.13706	0.14857	0.17806	0.36002	0.22591	0.18232	0.18779	0.18645	0.22442	0.15956	-2.75	-3.3958	-2.5646	-3.3104	-2.9062	-2.7979	-3.4375	-2.9979	-3.0938	-3.3021	-2.6521	-3.2146	-3.1125	-2.7229	-3.4125	-2.7208	-3.037	128.601	221.905	57.746	19.044	209.519	103.646	166.850	144.568	20.114	-121.247	158.973	68.670	138.428	86.556	219.334	0.00043775	0.00061762	0.00011145	511.24	6.9131e-06	6.463e-06	870.77	179	2.3052e-06	7.4534e-06	352.25	127.81	65.596	24.626	6.4725e-06	54.328	0.00038037	0.00036489	9.3773e-05	473.11	4.1083e-06	3.9053e-06	778.77	163.78	3.9845e-06	3.8329e-06	314.37	114.74	60.051	22.436	3.572e-06	48.585	-52.618	62.480	113.791	-111.996	46.230	39.154	-112.256	-106.194	113.407	5.869	-107.957	-103.386	-102.807	-96.432	-2.220	-99.779	-8191	255	
2185.591	1	1	0	0	0.2842	0.093714	0.14943	0.1406	0.025093	0.27033	0.12878	0.1006	0.2195	0.14006	0.07645	0.27658	0.15301	0.19306	0.13813	0.10189	-2.575	-3.2792	-2.5375	-3.3063	-3.1167	-2.6083	-3.3688	-2.7292	-3.0438	-3.4396	-2.6021	-3.3375	-3.1458	-2.6583	-3.3708	-3.0146	178.619	72.177	-27.149	-111.491	194.714	86.818	126.690	-32.512	127.370	28.554	-2.471	-12.453	-73.629	-85.351	-72.052	179.484	0.00044348	0.00028877	0.00013772	516.11	1.0962e-05	4.7874e-06	861.95	179.43	6.8207e-06	6.7426e-06	350.83	126.31	64.309	24.467	4.1246e-06	53.673	0.00036455	0.00033392	9.3684e-05	471.17	3.9491e-06	3.6476e-06	777.85	163.64	3.9508e-06	3.6296e-06	313.3	113.92	59.272	22.268	3.88e-06	48.131	-60.001	-75.849	-12.199	-112.054	13.899	22.928	-113.047	-106.930	-24.638	2.298	-108.139	-104.203	-103.012	-97.376	-106.934	-99.893	-8191	255	
2185.712	1	1	0	0	0.17838	0.094154	0.41309	0.063573	0.21277	0.15165	0.083499	0.35023	0.15639	0.052862	0.30726	0.16413	0.073206	0.15013	0.26652	0.25826	-2.3812	-3.3146	-2.6667	-3.2146	-3.1937	-2.5604	-3.5479	-3.0646	-2.9458	-3.5125	-2.6937	-3.1917	-3.3375	-2.6208	-3.3812	-3.1229	97.433	215.953	106.007	30.353	19.562	124.061	148.876	151.985	16.122	113.924	-64.380	209.764	-98.587	-47.057	-23.745	171.498	0.00048794	0.00091264	5.5053e-05	515.06	4.223e-06	6.6628e-06	865.4	179.18	1.0529e-05	1.8986e-07	350.63	126.9	64.108	24.542	5.4327e-06	54.832	0.00036384	0.00033206	0.00010236	470.97	4.1391e-06	3.7816e-06	776.05	163.78	4.288e-06	3.9747e-06	316.15	114.39	59.832	22.617	4.5835e-06	48.887	-39.851	-26.365	-83.290	-112.855	172.683	-64.589	-113.245	-106.096	43.163	125.673	-108.351	-104.202	-102.961	-97.417	228.441	-99.556	-8191	255	
2185.783	1	1	0	0	0.10148	0.10609	0.34419	0.086095	0.052504	0.13939	0.10617	0.14499	0.12715	0.22725	0.11987	0.020442	0.18883	0.18361	0.14687	0.18212	-2.3063	-3.5583	-2.5708	-3.0646	-3.4625	-2.4729	-3.4271	-3.2229	-2.8125	-3.5146	-2.8021	-2.9604	-3.4229	-2.7292	-3.4562	-3.2958	124.038	79.066	-78.919	-21.335	-96.676	217.051	-116.597	177.004	-50.524	-24.582	-69.161	151.627	-97.556	162.423	-106.669	165.037	0.0004073	0.00035463	0.00016486	510.55	6.9188e-06	3.5617e-06	861.04	179.58	1.1731e-06	5.8517e-06	349.95	126.87	64.546	24.867	4.0957e-06	54.623	0.00040089	0.00038317	0.00011816	471.51	4.1367e-06	4.0174e-06	774.79	163.83	4.0794e-06	3.9418e-06	314.5	114.33	59.985	22.742	4.4435e-06	48.996	-44.887	133.957	-17.808	-112.169	-11.154	122.488	-112.869	-106.142	-7.851	-92.506	-108.609	-104.109	-102.879	-97.672	-92.024	-100.185	-8191	255	
2185.879	1	1	0	0	0.28309	0.02579	0.086869	0.056354	0.20643	0.040692	0.22077	0.0070954	0.055088	0.25773	0.064024	0.22424	0.063737	0.0702	0.11932	0.184	-2.2604	-3.3646	-2.7687	-3.0104	-3.3396	-2.5917	-3.5083	-3.1312	-2.7375	-3.5708	-3.0062	-2.6167	-3.4354	-2.6021	-3.1396	-3.3354	-22.047	144.439	-76.033	179.780	-90.076	7.659	162.540	214.202	180.209	-1.265	229.530	178.824	174.331	6.737	145.057	227.957	0.00028358	0.00098606	0.00019633	520.11	3.9355e-06	7.3968e-06	875.49	181.43	2.9645e-06	5.7035e-06	354.05	129.06	65.52	24.768	6.0291e-06	54.867	0.0003821	0.00038888	0.00012033	477.03	4.1631e-06	4.4978e-06	786.12	165.5	4.0227e-06	4.3293e-06	318.46	115.43	59.941	22.854	4.3814e-06	49.174	-34.535	3.431	23.122	-112.008	28.343	-31.992	-112.589	-106.439	13.951	82.359	-108.415	-104.016	-102.736	-97.426	77.085	-100.427	-8191	255	
2185.974	1	1	0	0	0.28841	0.13283	0.15506	0.29912	0.21281	0.16151	0.14544	0.1451	0.037598	0.063823	0.10608	0.1837	0.14778	0.13121	0.090039	0.077629	-2.2333	-3.3875	-2.9021	-2.5667	-3.3729	-2.7521	-3.3979	-3.3604	-2.5708	-3.2333	-3.0062	-2.7521	-3.3875	-2.7562	-3.025	-3.3646	-105.011	44.452	40.836	-89.882	109.592	-63.712	180.971	225.405	-65.695	6.686	-39.576	203.381	-75.998	183.831	99.877	133.828	0.00036906	0.0009198	0.00010771	516.06	4.0985e-06	5.9681e-06	867.33	179.24	3.318e-06	6.8947e-06	348.61	125.63	63.793	24.341	1.7684e-06	53.598	0.00036196	0.00039252	0.00011287	474.6	3.9688e-06	4.5006e-06	778.76	163.49	3.9186e-06	4.4539e-06	314.16	113.25	59.195	22.522	4.2653e-06	47.989	-60.502	25.350	139.841	-111.985	59.977	12.940	-112.272	-106.250	185.501	-72.440	-108.001	-103.985	-102.903	-97.432	189.677	-99.677	-8191	255	
2186.094	1	1	0	0	0.054946	0.22469	0.21559	0.35052	0.059997	0.20847	0.14298	0.10021	0.090596	0.13663	0.0091123	0.13957	0.15667	0.14116	0.13005	0.074063	-2.1063	-3.3375	-2.7104	-2.6375	-3.3896	-2.8979	-3.0833	-3.5479	-2.625	-3.3063	-3.0958	-2.8354	-3.4917	-2.9896	-2.9771	-3.4146	-67.963	-50.652	67.326	-121.573	38.530	229.173	-89.528	-49.987	85.148	214.492	14.833	172.046	-94.619	-74.477	-44.179	100.012	0.00049953	0.00051418	0.00016922	510.95	5.4414e-06	4.3015e-06	859.21	179.08	5.5899e-06	2.3429e-06	347.55	126.26	64.463	24.286	5.3817e-06	53.882	0.00036315	0.00039805	0.00010653	466.13	3.9047e-06	4.4666e-06	769.6	162.48	4.1145e-06	4.407e-06	311.61	113.16	59.52	22.571	4.3552e-06	48.142	-58.156	8.108	206.968	-111.708	-0.165	227.703	-112.729	-106.158	-44.183	-112.600	-108.144	-103.876	-102.488	-96.560	46.414	-99.599	-8191	255	
2186.191	1	1	0	0	0.069657	0.24574	0.17368	0.13627	0.15514	0.14715	0.1587	0.090284	0.21369	0.21008	0.2023	0.14455	0.25021	0.12647	0.14923	0.35874	-2.2375	-3.2562	-3.1854	-2.4833	-3.4667	-2.9021	-3.0396	-3.5917	-2.775	-3.2271	-3.25	-2.8708	-3.4813	-3.0417	-2.8854	-3.55	230.002	178.882	-53.799	229.598	-52.488	76.940	218.983	10.419	10.691	9.650	162.468	141.095	120.867	-53.776	3.208	113.290	0.00059856	0.0010094	0.0003189	511.44	2.8365e-06	3.5987e-06	863.71	177.57	4.9023e-06	1.1167e-06	351.41	126.59	64.978	24.712	7.3443e-06	54.945	0.00040279	0.00042143	0.00011151	468.55	4.2482e-06	4.5275e-06	775.79	163.06	4.4215e-06	4.5099e-06	315.55	114.35	60.401	22.861	4.3158e-06	48.892	-39.799	7.797	194.588	-112.211	30.504	78.382	-112.674	-106.509	-4.642	143.808	-108.509	-103.961	-102.343	-97.063	65.511	-100.190	-8191	255	
2186.287	1	1	0	0	0.42849	0.14367	0.019466	0.15339	0.024864	0.16947	0.29486	0.12882	0.044176	0.10152	0.16218	0.33074	0.21895	0.25784	0.12335	0.27388	-2.2062	-3.0833	-3.2313	-2.4979	-3.4333	-3.1312	-2.65	-3.6396	-2.8396	-3.0146	-3.5917	-2.8417	-3.3146	-3.0667	-2.6125	-3.575	90.255	-68.024	-72.784	183.215	224.573	229.901	-120.839	169.811	-8.679	-99.734	-118.520	166.652	228.650	209.989	100.393	186.012	0.00044162	0.00062961	0.0002907	515.09	8.5607e-06	4.738e-06	871.82	181.09	2.703e-06	7.3466e-06	354.68	129.01	65.976	24.738	7.5528e-06	55.575	0.00042178	0.00041778	0.00011078	474.43	4.4878e-06	4.4543e-06	783.82	164.75	4.5302e-06	4.4413e-06	317.46	115.66	61.04	22.94	4.0839e-06	49.438	-39.931	36.939	-72.259	-112.248	-38.189	-2.734	-112.713	-106.302	141.763	-8.409	-107.932	-103.686	-103.068	-97.080	80.832	-99.923	-8191	255	
2186.383	1	1	0	0	0.081083	0.14059	0.24749	0.17095	0.1397	0.21503	0.21075	0.033038	0.099211	0.093746	0.090374	0.21928	0.12675	0.04189	0.11669	0.38438	-2.4729	-2.7854	-3.3979	-2.5896	-3.1479	-3.2729	-2.6229	-3.5292	-2.7979	-2.9208	-3.5083	-2.7479	-3.1979	-3.2917	-2.7188	-3.5438	54.357	-100.702	-82.588	37.983	103.714	160.335	155.582	88.824	-123.500	186.747	-47.434	105.605	-37.161	154.583	183.431	170.707	0.00034969	7.1436e-05	0.00011287	525.4	8.4995e-06	3.933e-06	869.16	180.26	2.9734e-06	3.0224e-06	349.28	127.69	65.322	24.793	1.9435e-06	54.35	0.0004148	0.00039793	0.00010175	476.36	4.4357e-06	4.3519e-06	779.69	164.67	4.4322e-06	4.255e-06	313.42	114.46	60.54	22.701	3.8953e-06	48.575	-41.633	103.422	151.405	-112.108	79.939	55.449	-112.736	-105.976	142.232	108.220	-108.248	-103.932	-102.469	-97.357	-18.527	-99.652	-8191	255	
2186.479	1	1	0	0	0.084361	0.094433	0.16353	0.072844	0.14277	0.10224	0.27154	0.29867	0.18818	0.28558	0.11944	0.19517	0.1503	0.20009	0.22428	0.11653	-2.4292	-2.7458	-3.3708	-2.7812	-3.1188	-3.3042	-2.7646	-3.5229	-3.0792	-2.8167	-3.5563	-2.7562	-2.9875	-3.2167	-2.7646	-3.3563	153.794	41.989	-103.048	-6.782	184.792	-5.312	190.847	83.443	213.961	82.661	231.124	99.132	-10.174	152.395	133.175	-116.344	0.0003678	0.00058695	0.00015543	508.21	7.1602e-06	7.3104e-06	850.88	177.72	9.2769e-06	2.3934e-06	346.02	126.13	64.168	24.642	4.0732e-06	53.772	0.0004148	0.00040235	0.00010388	468.53	4.6071e-06	4.4537e-06	761.89	162.95	4.5851e-06	4.338e-06	309.39	113.13	59.678	22.6	4.0581e-06	48.355	-41.948	-24.165	-75.725	-112.164	91.261	15.847	-113.016	-106.492	57.396	71.743	-108.309	-103.686	-102.500	-97.255	6.909	-99.530	-8191	255	
2186.575	1	1	0	0	0.16459	0.24421	0.15688	0.060737	0.11468	0.084688	0.016413	0.090136	0.10564	0.17997	0.15219	0.13712	0.17417	0.041967	0.10965	0.25155	-2.7167	-2.7458	-3.3917	-2.8896	-3.1104	-3.3417	-2.65	-3.4417	-3.0167	-2.6458	-3.6813	-2.775	-2.9667	-3.4292	-2.6125	-3.3563	79.618	41.283	67.089	111.693	-5.049	79.714	223.364	-113.937	119.442	173.594	-74.668	168.444	-19.780	177.962	-119.298	119.220	0.00037435	0.00020556	0.0002327	503.47	8.3315e-06	5.3071e-06	844.9	175.92	2.6034e-06	3.8458e-06	342.01	123.91	63.459	24.575	8.5484e-06	53.979	0.00042164	0.00040502	0.00010963	468.67	4.6729e-06	4.5158e-06	760.81	162.42	4.7502e-06	4.347e-06	309.06	112.52	59.692	22.638	4.3921e-06	48.536	-60.908	16.802	-63.042	-112.023	128.330	45.684	-112.322	-106.171	68.621	55.186	-108.305	-103.887	-102.191	-96.814	-37.761	-99.622	-8191	255	
2186.671	1	1	0	0	0.13791	0.075184	0.17556	0.31224	0.0085269	0.27153	0.13842	0.061432	0.057566	0.26383	0.19785	0.25564	0.22509	0.25358	0.051375	0.066684	-2.7583	-2.6583	-3.5333	-3.0417	-2.9354	-3.5354	-2.6979	-3.2562	-3.1583	-2.6604	-3.4375	-3.0042	-2.8375	-3.45	-2.7021	-3.1958	232.585	227.016	89.759	228.399	-123.832	179.723	119.914	200.232	-72.955	-2.049	184.037	220.376	75.179	-88.893	87.377	209.975	0.00041797	0.0010081	8.2881e-05	502.98	4.1144e-06	6.8838e-06	846.29	176.4	2.7637e-06	7.8524e-06	346.28	125.25	64.039	24.438	5.3117e-06	53.97	0.00043151	0.00040318	0.00011882	470.9	4.7865e-06	4.4724e-06	762.9	163.02	4.9261e-06	4.3544e-06	312.1	113.37	59.876	22.664	4.7522e-06	48.733	-62.001	-41.339	186.988	-111.539	-80.963	24.439	-112.868	-106.254	122.102	68.987	-108.230	-104.089	-102.276	-97.391	219.569	-99.961	-8191	255	
2186.792	1	1	0	0	0.15634	0.10725	0.29414	0.12502	0.11023	0.073707	0.28399	0.14816	0.26039	0.22454	0.18287	0.26032	0.23841	0.12346	0.24823	0.34063	-2.9292	-2.5167	-3.3979	-2.8708	-2.7062	-3.4833	-2.9146	-3.1333	-3.3729	-2.7833	-3.425	-3.2104	-2.7667	-3.3375	-2.9667	-2.9667	223.933	233.922	178.979	197.099	55.664	81.480	85.160	-28.977	-93.429	-81.061	216.100	199.836	42.154	201.551	-77.046	114.705	0.0004345	0.00064783	9.2907e-05	502.75	2.6106e-06	1.0927e-05	837.6	176.58	1.1872e-06	1.0103e-05	343.14	124.58	63.027	24.373	1.9348e-06	53.053	0.00043891	0.00039772	0.00012572	468.59	4.7045e-06	4.3468e-06	755.38	162.09	4.587e-06	4.321e-06	309.33	111.92	58.744	22.386	4.7437e-06	47.742	-49.480	-65.051	-81.217	-111.796	-15.877	-24.972	-112.735	-106.334	107.746	23.092	-108.514	-103.987	-102.433	-96.970	156.843	-99.624	-8191	255	
2186.886	1	1	0	0	0.12578	0.22266	0.096553	0.090981	0.33674	0.18655	0.162	0.12733	0.020337	0.19115	0.1522	0.13696	0.065509	0.20592	0.42665	0.10085	-3.0917	-2.6437	-3.1583	-3.1542	-2.7375	-3.3521	-3	-2.9833	-3.4208	-2.5604	-3.4042	-3.2458	-2.6542	-3.5479	-2.725	-2.9104	155.688	63.806	-30.794	-100.018	28.459	212.916	196.298	-10.377	69.345	113.738	-110.628	191.587	-95.443	167.475	104.520	109.588	0.00038413	0.00050724	0.00013509	500.63	8.8938e-06	4.9559e-06	823.95	175.39	2.8048e-06	2.5272e-06	339.6	123.34	62.576	24.127	1.7524e-06	52.623	0.00041108	0.00039102	0.00012409	463.6	4.4511e-06	4.4505e-06	746.93	160.81	4.415e-06	4.4333e-06	307.38	111.02	58.428	22.4	4.9345e-06	47.753	-38.977	-38.900	-101.495	-111.951	-10.546	134.957	-112.521	-106.124	-118.290	158.904	-107.762	-103.896	-102.604	-97.081	-98.861	-99.699	-8191	255	
2186.984	1	1	0	0	0.22871	0.071307	0.037648	0.1308	0.19341	0.25039	0.26363	0.2299	0.13349	0.13117	0.19088	0.13582	0.16815	0.08113	0.081267	0.066867	-3.0479	-2.6979	-3.3542	-3.1958	-2.5646	-3.35	-2.9625	-2.9625	-3.4979	-2.6708	-3.0687	-3.4125	-2.9146	-3.4562	-2.9917	-2.7458	-35.946	111.680	-67.543	127.587	-84.821	229.474	89.545	164.928	-72.587	-7.146	-51.927	160.915	-99.980	-16.728	217.762	215.217	0.00050591	0.00075135	0.00027969	499.24	4.8266e-06	5.7517e-06	831.22	176.37	3.1881e-06	6.3586e-06	340.19	125.13	64.018	24.439	1.0319e-05	54.059	0.00041129	0.00042146	0.00012587	464.5	4.2398e-06	4.8492e-06	753.31	161.5	4.4476e-06	4.7389e-06	308.37	111.9	58.779	22.667	4.794e-06	48.278	-58.479	-56.487	-103.753	-112.327	132.586	-86.940	-112.814	-105.473	151.336	5.436	-107.876	-103.812	-102.768	-96.923	-43.572	-99.554	-8191	255	
2187.079	1	1	0	0	0.10789	0.19942	0.15784	0.20388	0.16514	0.20789	0.21863	0.05581	0.25227	0.083284	0.18852	0.14107	0.11701	0.16272	0.19219	0.23796	-3.1188	-2.7875	-3.075	-3.2583	-2.6708	-3.25	-3.1813	-2.7604	-3.2042	-2.7812	-3.1146	-3.5729	-2.6604	-3.2625	-3.1833	-2.8208	5.076	-103.936	116.140	-70.717	-119.447	45.798	214.008	-63.024	104.265	-4.005	54.055	-105.385	155.980	70.511	-19.108	-51.976	0.00032289	0.00025571	0.00027539	510.24	1.1879e-05	8.9805e-07	850.55	179	2.8163e-06	3.7567e-06	349.08	126.96	64.206	24.849	7.1064e-06	55.208	0.00039793	0.00043673	0.00012253	470.67	4.1885e-06	4.8733e-06	767.93	163.19	4.2664e-06	4.6579e-06	313.6	113.89	59.648	23.037	4.4791e-06	48.962	-59.135	188.863	44.046	-112.093	26.643	3.681	-112.914	-106.172	173.151	119.673	-107.881	-103.639	-102.674	-97.476	7.187	-99.866	-8191	255	
2187.175	1	1	0	0	0.19082	0.17526	0.19158	0.10877	0.1724	0.20025	0.11751	0.11583	0.23018	0.18607	0.12535	0.12307	0.21856	0.2542	0.14032	0.068024	-3.1437	-2.7854	-2.8729	-3.2979	-2.7104	-3.2479	-3.3563	-2.6896	-3.4688	-3.0375	-3.0667	-3.5125	-2.7188	-3.2875	-3.3542	-2.6458	0.903	-57.904	-83.847	125.431	26.708	184.860	158.278	140.246	95.544	151.064	201.564	-94.938	152.095	-78.608	6.943	149.997	0.00053189	0.00075304	0.00013072	516.17	9.445e-06	1.9051e-06	859.44	178.53	6.5239e-06	6.4125e-06	347.23	125.53	63.992	24.691	5.9816e-06	54.207	0.00039289	0.00042424	0.00011208	473.83	4.1525e-06	4.5814e-06	774.4	162.86	4.1386e-06	4.3235e-06	311.07	113.05	59.214	22.727	4.2633e-06	48.153	-53.736	-29.158	-61.949	-112.573	214.713	112.212	-112.977	-106.234	110.358	36.178	-108.286	-103.732	-102.087	-96.608	48.046	-99.593	-8191	255	
2187.271	1	1	0	0	0.3086	0.3309	0.2605	0.10721	0.049117	0.16656	0.25098	0.029276	0.080588	0.20167	0.14803	0.13802	0.31584	0.040721	0.15032	0.041249	-3.0312	-2.8979	-2.7667	-3.5417	-2.7021	-3.3104	-3.4292	-2.5646	-3.3396	-2.8958	-2.8875	-3.5604	-3.0146	-3.1104	-3.3958	-2.8375	229.021	-116.907	194.602	59.193	226.525	125.036	168.857	201.107	-70.192	6.188	215.718	-110.926	-85.319	2.961	54.936	-101.064	0.00053565	0.00047711	0.00018264	508.64	1.1063e-05	4.0574e-06	849.41	176.88	2.3679e-06	1.8763e-06	342.87	123.7	63.485	24.159	7.4075e-07	53.511	0.0003869	0.00041074	0.00011056	467.47	4.6431e-06	4.7851e-06	761.98	161.55	4.8231e-06	5.0757e-06	308.93	111.09	59.53	22.582	4.8712e-06	47.841	-54.336	20.484	-79.523	-112.170	-18.144	-41.938	-112.797	-106.166	226.951	88.199	-107.821	-103.580	-102.734	-97.582	-49.041	-99.850	-8191	255	
2187.392	1	1	0	0	0.079284	0.11142	0.032527	0.23885	0.18422	0.04016	0.10213	0.26835	0.18429	0.17125	0.060987	0.15039	0.36478	0.20851	0.098717	0.15019	-2.8875	-3.1021	-2.7729	-3.5	-2.7167	-3.125	-3.5	-2.75	-3.3667	-3.15	-2.7021	-3.5354	-2.9604	-2.9917	-3.475	-2.8375	204.398	66.249	91.183	144.209	62.642	2.431	156.926	191.770	-57.218	39.252	232.247	132.456	-51.236	188.867	229.935	-65.765	0.00043214	0.00018965	0.00010034	501.11	6.6715e-06	8.9708e-06	837.65	176.33	5.2943e-06	2.2522e-06	338.89	123.94	63.843	24.346	9.4153e-06	53.312	0.00046105	0.00047001	0.00012358	467.31	5.2496e-06	5.1698e-06	755.42	161.3	5.1968e-06	5.1939e-06	306.8	111.38	59.895	22.725	4.6987e-06	48.04	-50.806	30.287	19.229	-112.227	-57.348	114.235	-113.335	-106.615	15.046	112.942	-108.422	-103.908	-102.895	-97.045	0.800	-99.893	-8191	255	
2187.488	1	1	0	0	0.080229	0.13048	0.083578	0.19004	0.23986	0.054045	0.1186	0.26398	0.076876	0.081968	0.1751	0.069172	0.11925	0.34023	0.036428	0.32454	-2.8167	-3.1417	-2.5875	-3.5333	-2.8375	-3.1396	-3.4271	-2.9875	-3.1396	-3.2979	-2.7375	-3.5167	-2.9792	-2.8958	-3.4146	-2.7083	208.922	145.095	137.869	151.458	-88.958	15.071	125.211	228.941	47.040	46.151	173.547	1.270	-32.147	103.284	-75.957	105.300	0.0004581	0.00090067	0.00017508	500.69	7.2555e-06	7.712e-07	843.36	176.98	6.6833e-06	4.9479e-06	342.7	123.6	63.521	24.533	5.008e-06	53.642	0.00048086	0.00046423	0.00011751	467.2	5.1527e-06	5.053e-06	760.42	162.84	5.1336e-06	5.0217e-06	309.36	112.57	59.952	22.762	4.4643e-06	48.388	-48.699	-39.596	-90.126	-112.422	79.667	-19.460	-112.583	-106.039	3.749	72.458	-107.996	-104.166	-102.821	-97.074	61.909	-100.594	-8191	255	
2187.584	1	1	0	0	0.066584	0.13108	0.22055	0.03548	0.35605	0.081915	0.23426	0.075735	0.23352	0.1449	0.19272	0.12465	0.13467	0.095525	0.11509	0.046779	-2.6688	-3.1688	-2.4813	-3.4479	-3.1188	-2.975	-3.5812	-2.5583	-3.0417	-3.4521	-2.5125	-3.4396	-3.1146	-2.5812	-3.4979	-2.8208	74.858	230.918	13.082	231.725	22.523	125.830	192.379	86.777	48.071	55.039	-85.862	21.303	34.413	156.987	84.023	220.317	0.00037487	0.0012339	0.00028236	507.79	7.3277e-06	1.0601e-05	843.41	175.87	5.4452e-06	1.9293e-06	345.18	124.41	63.473	24.333	7.2208e-07	53.138	0.00046241	0.00044835	0.00011134	470.59	4.844e-06	4.5602e-06	760.49	162	4.5113e-06	4.279e-06	308.61	112.03	59.38	22.357	4.0027e-06	47.747	-36.510	-15.342	-57.000	-112.226	12.790	74.780	-113.569	-106.705	33.936	101.594	-109.067	-104.264	-102.882	-98.480	85.930	-100.087	-8191	255	
2187.656	1	1	0	0	0.097963	0.090704	0.22457	0.15453	0.11341	0.17082	0.24714	0.063957	0.38956	0.054018	0.15812	0.22042	0.19666	0.11613	0.20755	0.24715	-2.75	-3.4062	-2.4771	-3.475	-3.1292	-2.8417	-3.6188	-2.8812	-2.8833	-3.4917	-2.7292	-3.3896	-3.1333	-2.7438	-3.4104	-2.8229	71.303	-59.145	-77.568	165.538	151.953	130.437	131.010	67.628	-29.485	31.579	59.328	136.802	208.232	-95.630	121.522	133.540	0.00028599	0.0004655	0.00022299	504.99	8.7625e-06	4.0893e-06	839.51	177	5.2034e-06	7.072e-06	344.35	123.21	63.653	24.188	5.8226e-06	53.13	0.00040526	0.00038469	0.00010327	467.52	4.426e-06	4.1253e-06	756.17	161.89	4.3209e-06	3.9949e-06	307.44	111.26	59.013	22.183	4.0559e-06	47.854	-45.299	-61.185	-102.957	-112.337	-28.936	57.832	-113.501	-106.644	6.472	7.543	-109.124	-103.967	-103.580	-97.734	4.475	-100.515	-8191	255	
2187.776	1	1	0	0	0.24957	0.10632	0.13159	0.10362	0.17256	0.043842	0.21785	0.18867	0.043131	0.060394	0.04722	0.24872	0.28769	0.010088	0.17886	0.086303	-2.4333	-3.3375	-2.5646	-3.3542	-3.2229	-2.85	-3.4896	-3.0312	-2.8312	-3.2771	-2.7542	-3.2958	-3.3042	-2.6729	-3.4771	-3.0104	203.512	97.953	-19.578	108.482	189.452	52.902	166.074	176.033	-44.112	35.648	35.773	219.491	137.295	55.490	170.020	-49.094	0.00034963	0.00031181	0.0002917	509.46	6.5641e-06	3.9556e-06	855.18	178.91	5.9971e-06	2.3337e-06	349.56	127.06	64.979	24.504	8.0362e-06	54.254	0.00038308	0.00035116	0.00010314	470.29	4.0354e-06	3.707e-06	769.48	162.96	3.9452e-06	3.5586e-06	312.06	113.31	59.546	22.381	4.0024e-06	48.452	-73.027	-8.252	134.128	-111.967	2.931	194.318	-113.056	-106.853	67.348	-33.576	-108.481	-104.239	-103.351	-97.604	103.968	-100.443	-8191	255	
2187.871	1	1	0	0	0.13736	0.093406	0.2576	0.23189	0.071463	0.13548	0.026671	0.13383	0.052029	0.19516	0.07668	0.22144	0.20731	0.10598	0.12105	0.088911	-2.3979	-3.5042	-2.6604	-3.1104	-3.2958	-2.4375	-3.4958	-3.0542	-2.6	-3.4875	-2.775	-3.0938	-3.5125	-2.6771	-3.4604	-3.2958	77.156	110.238	148.636	232.734	169.413	-102.183	204.821	92.117	102.910	216.749	-52.047	213.378	-58.843	126.768	215.032	72.759	0.00035368	0.00058199	0.00016384	516.88	3.4866e-06	7.0097e-06	869.99	181.39	3.6785e-06	5.6328e-06	354.37	127.58	65.698	24.762	1.0574e-05	54.952	0.00036464	0.00033619	0.00010736	477.57	3.9036e-06	3.7288e-06	783.54	165.75	3.87e-06	3.8321e-06	317.73	114.71	60.163	22.8	4.3128e-06	49.23	-51.816	-104.627	-77.671	-112.050	-85.871	58.416	-113.122	-106.643	43.284	-53.857	-108.540	-103.857	-103.372	-97.358	-9.920	-100.110	-8191	255	
2187.967	1	1	0	0	0.24742	0.172	0.036683	0.21355	0.10596	0.20192	0.17909	0.070917	0.21347	0.24398	0.10894	0.052387	0.33385	0.21167	0.18361	0.022071	-2.3417	-3.5187	-2.7687	-2.95	-3.2646	-2.575	-3.4917	-3.4688	-2.6375	-3.4792	-3.0646	-2.9854	-3.6229	-2.6104	-3.4271	-3.3625	-25.700	148.105	-116.674	159.397	66.629	33.128	81.772	129.947	216.806	-34.975	185.366	108.929	-100.222	197.299	56.477	147.603	0.00030889	0.00070618	0.0002724	525.22	4.8944e-06	9.2971e-06	865.7	182.02	4.592e-06	3.0097e-06	351.15	127.49	64.514	24.366	2.9267e-06	53.638	0.0003622	0.00036302	0.00011144	481.42	3.818e-06	4.0721e-06	786.54	165.98	3.896e-06	4.1001e-06	316.6	114.08	59.478	22.669	4.5128e-06	48.233	-33.441	147.650	-47.745	-112.349	135.975	-12.435	-112.898	-106.779	15.850	-58.343	-108.298	-104.095	-102.829	-97.446	181.951	-99.959	-8191	255	
2188.063	1	1	0	0	0.13354	0.24624	0.093532	0.096222	0.19353	0.094158	0.041018	0.15756	0.14484	0.20658	0.10969	0.2041	0.096529	0.12869	0.17504	0.11122	-2.2417	-3.4333	-2.9604	-2.7833	-3.3667	-2.8063	-3.2375	-3.3	-2.6375	-3.4854	-3.175	-2.8812	-3.4208	-2.8125	-3.1042	-3.3646	-5.688	-29.221	-64.583	123.991	100.278	152.121	-43.389	218.120	-50.665	-27.695	-80.334	105.828	-29.659	216.207	-56.910	208.494	0.00042564	0.00093824	0.00013692	508.55	7.5181e-06	7.6012e-06	845.89	178.42	6.872e-07	6.5977e-06	344.68	124.46	63.689	24.3	5.7765e-06	53.352	0.00037194	0.0003993	0.00011626	469.39	3.9368e-06	4.4552e-06	762.92	162.92	3.9782e-06	4.4868e-06	310.74	111.58	58.96	22.48	4.5427e-06	47.836	-34.682	-82.069	-38.784	-111.999	-92.466	43.988	-112.737	-106.393	4.756	-16.003	-108.722	-104.402	-103.045	-97.169	-62.124	-99.880	-8191	255	
2188.184	1	1	0	0	0.13978	0.24745	0.12061	0.31982	0.061337	0.23281	0.082059	0.15955	0.36443	0.15873	0.31598	0.2378	0.093042	0.198	0.050837	0.075801	-2.1312	-3.3771	-2.9604	-2.675	-3.4854	-2.7375	-3.0625	-3.4604	-2.6021	-3.2729	-3.275	-2.5708	-3.525	-2.8875	-2.8542	-3.3833	186.561	5.559	94.664	232.149	-30.434	185.376	5.315	7.088	93.167	-98.177	200.347	219.585	184.966	114.047	213.912	-60.942	0.00038681	0.001066	0.00013258	507.79	3.4983e-06	4.2498e-06	840.59	176.71	3.7593e-06	4.3773e-06	346.13	124.02	63.275	24.097	3.9962e-06	53.57	0.00037516	0.00042908	0.0001158	467.85	4.2629e-06	4.6585e-06	757.72	161.84	4.1837e-06	4.6888e-06	310.52	111.62	59.023	22.526	4.5486e-06	47.749	-53.175	-63.900	-29.043	-112.139	76.364	226.673	-112.727	-106.605	224.478	-11.843	-108.323	-103.894	-102.703	-97.045	-1.988	-100.053	-8191	255	
2188.255	1	1	0	0	0.054862	0.24985	0.26444	0.10769	0.025387	0.030854	0.10522	0.26361	0.16015	0.09692	0.12808	0.096427	0.037199	0.11172	0.17193	0.17431	-2.2125	-3.2542	-3.1646	-2.6042	-3.4437	-2.825	-2.8292	-3.475	-2.6063	-3.2146	-3.2542	-2.6042	-3.3479	-2.95	-2.65	-3.55	21.840	-107.829	194.458	-110.344	113.640	88.956	20.568	230.601	205.912	84.490	212.538	-90.379	-25.716	130.114	-10.062	210.981	0.00037041	0.00076836	0.00011327	510.47	1.1133e-05	5.1966e-06	853.21	178.14	2.6829e-06	7.5087e-06	347.87	124.1	63.53	24.338	8.5435e-06	53.721	0.00039275	0.00043297	0.00011634	468.59	4.5675e-06	4.8821e-06	768.25	163.14	4.5443e-06	4.8885e-06	312.79	112.19	59.633	22.716	4.6311e-06	48.151	-70.253	-14.978	59.571	-112.101	139.462	23.021	-112.999	-106.266	185.928	-20.596	-107.927	-103.929	-102.531	-97.374	-11.178	-99.779	-8191	255	
2188.351	1	1	0	0	0.062656	0.095777	0.15371	0.24975	0.31642	0.2237	0.070486	0.20288	0.025456	0.12138	0.14831	0.071539	0.11967	0.21097	0.31895	0.090263	-2.3937	-3.0521	-3.3375	-2.6583	-3.2333	-2.9104	-3.0708	-3.5146	-2.6896	-3.1729	-3.4417	-2.6354	-3.3208	-3.0312	-2.6417	-3.4583	83.876	-35.876	9.915	-52.028	176.927	176.919	-96.014	41.735	-60.186	-89.041	136.442	34.181	173.624	187.687	-92.389	183.340	0.00044568	0.00055739	3.6432e-05	514.06	1.4219e-05	1.0476e-06	855.6	179.07	6.4808e-06	6.7601e-06	345	124.48	64.085	24.04	5.8453e-06	53.157	0.00042459	0.00044014	0.00012069	471.45	4.836e-06	4.8476e-06	771.21	163.2	4.7055e-06	4.6581e-06	311.54	111.96	59.701	22.488	4.3193e-06	47.558	-48.655	125.285	108.861	-112.195	211.328	132.437	-112.513	-106.190	-58.805	38.677	-108.325	-103.872	-102.603	-97.078	-12.312	-99.722	-8191	255	
2188.472	1	1	0	0	0.17313	0.10591	0.20188	0.094877	0.22848	0.16108	0.14174	0.18344	0.057158	0.15878	0.11283	0.20271	0.10765	0.12857	0.2501	0.16762	-2.3021	-3.1083	-3.1875	-2.4917	-3.2604	-3.0896	-2.7938	-3.3125	-2.7792	-3.0458	-3.5271	-2.7479	-3.175	-3.3292	-2.6542	-3.4479	108.433	-19.424	48.658	160.051	121.076	124.212	107.703	144.916	66.544	-36.772	-76.632	-91.112	-82.025	161.961	225.445	-43.312	0.00034953	0.00034435	0.00012846	505.31	9.0939e-06	4.2645e-06	840.78	176.64	3.3831e-06	1.8266e-06	344.71	123.22	63.326	24.289	2.6237e-06	52.89	0.00043461	0.00042591	0.00011131	466.19	4.792e-06	4.716e-06	756.22	161.39	4.8376e-06	4.6338e-06	307.67	110.86	59.242	22.407	4.1678e-06	47.47	-55.432	-25.177	-94.110	-111.625	71.255	4.372	-112.813	-106.464	-83.979	180.301	-108.027	-103.410	-102.495	-97.133	-29.916	-98.807	-8191	255	
2188.568	1	1	0	0	0.11807	0.099492	0.17245	0.21962	0.33676	0.19771	0.31542	0.14463	0.059833	0.14174	0.11472	0.095747	0.16736	0.14439	0.26064	0.22107	-2.6625	-2.7417	-3.2292	-2.7062	-3.1771	-3.3438	-2.7687	-3.7	-3.1604	-2.7271	-3.5958	-2.9813	-3.2188	-3.2729	-2.8312	-3.3792	16.487	-12.780	-19.263	165.207	-15.520	56.757	185.001	166.483	172.054	-98.739	125.382	-111.866	26.078	83.072	150.298	196.831	0.00036263	0.00095149	0.00015665	510.79	1.2746e-05	2.6341e-06	852.91	176.66	8.1176e-06	1.0702e-05	345.82	124.69	64.225	24.245	8.1029e-06	53.778	0.00043568	0.00041986	0.00010555	469.63	4.6117e-06	4.5287e-06	760.94	162.32	4.6009e-06	4.3923e-06	308.84	112.08	59.587	22.45	3.8625e-06	47.975	-8.410	9.422	-69.208	-112.601	-18.392	94.977	-113.083	-106.412	35.651	-11.968	-108.324	-103.912	-102.097	-97.000	-28.074	-99.803	-8191	255	
2188.664	1	1	0	0	0.20572	0.11094	0.15032	0.24148	0.10152	0.11899	0.18925	0.2346	0.020197	0.27126	0.40184	0.098278	0.091946	0.34326	0.11637	0.14814	-2.6125	-2.6583	-3.3875	-2.8479	-3.075	-3.5125	-2.8771	-3.4646	-3.0708	-2.9083	-3.6979	-3.0021	-2.9208	-3.3812	-2.8083	-3.4042	-35.453	-6.132	-116.961	100.179	96.457	98.741	172.133	173.839	133.177	-60.853	169.285	222.274	-90.840	191.511	-107.480	235.986	0.00030518	0.00068624	0.00019361	515.92	6.3459e-06	4.341e-06	866.62	180.02	7.4449e-06	7.8448e-06	350.25	126.85	64.668	24.846	5.2482e-06	54.524	0.00040575	0.00038289	0.00010228	475.71	4.3459e-06	4.2774e-06	777.5	164.41	4.3263e-06	4.0767e-06	313.8	113.94	59.688	22.696	3.8864e-06	48.878	-48.103	-27.227	-96.482	-111.669	4.479	59.840	-112.537	-105.844	96.375	28.858	-107.605	-103.341	-103.096	-97.110	80.530	-99.107	-8191	255	
2188.785	1	1	0	0	0.31532	0.30932	0.10622	0.19413	0.20921	0.12098	0.28223	0.19889	0.11815	0.089297	0.24634	0.22746	0.30888	0.039105	0.068683	0.10747	-2.6937	-2.8479	-3.3167	-3.0396	-2.8708	-3.3292	-2.9708	-3.2438	-3.3917	-2.6854	-3.3146	-3.0812	-2.8229	-3.4083	-2.8021	-3.1646	101.306	-26.489	-111.403	123.944	34.570	141.738	201.969	-39.420	136.471	8.258	-91.464	-70.606	216.336	104.517	52.817	160.409	0.0003545	0.00060153	0.00019946	517.88	1.1894e-05	1.0671e-05	880.78	181.29	5.0136e-06	5.6091e-06	351.82	127.2	64.678	24.567	3.5682e-06	54.089	0.00039582	0.00036819	0.00010316	479.33	4.2978e-06	4.0012e-06	787.09	166.03	4.3129e-06	4.0076e-06	316.79	114.41	59.942	22.579	4.3676e-06	48.557	-30.101	-33.069	-4.239	-111.765	61.730	90.536	-112.428	-105.881	54.143	53.012	-108.615	-104.051	-102.789	-97.034	70.496	-99.652	-8191	255	
2188.879	1	1	0	0	0.14067	0.095762	0.1245	0.18528	0.34771	0.12436	0.22631	0.022999	0.18324	0.22416	0.21452	0.27403	0.037744	0.24755	0.25932	0.2081	-2.9458	-2.6896	-3.5104	-2.8479	-2.9333	-3.6354	-2.7896	-3.2438	-3.4167	-2.7396	-3.575	-3.2708	-2.8625	-3.6625	-2.7979	-3.2729	217.930	46.268	138.677	-20.059	179.820	57.054	176.154	182.208	17.519	66.496	184.233	208.340	231.513	-95.382	28.802	-77.025	0.00032388	0.00065405	0.00011639	513.9	1.2642e-05	1.0586e-05	849.09	176.91	5.3603e-06	3.231e-06	343.47	123.28	63.792	24.312	1.0053e-05	53.056	0.0004161	0.00038308	0.00011715	476.98	4.7165e-06	4.3755e-06	767.34	163.1	4.6955e-06	4.3977e-06	311.77	111.72	59.204	22.391	5.038e-06	47.967	-53.885	-100.178	-96.294	-112.209	-89.889	54.563	-112.682	-105.999	142.779	-118.075	-108.114	-103.793	-101.939	-97.121	-18.472	-99.605	-8191	255	
2188.953	1	1	0	0	0.21158	0.20814	0.1355	0.14057	0.1477	0.050966	0.40726	0.075104	0.099986	0.22857	0.18002	0.23253	0.28667	0.092786	0.26994	0.20927	-3.0604	-2.5	-3.3229	-3.05	-2.5708	-3.4896	-2.7604	-2.9125	-3.2833	-2.6667	-3.3625	-3.2562	-2.5771	-3.4792	-3.0187	-3.0146	125.980	-21.681	99.364	157.528	109.969	-43.017	173.440	187.118	-87.673	202.719	117.072	138.090	-37.365	-28.792	154.840	181.048	0.00030661	0.00057745	0.00031138	504.68	1.1001e-05	1.1686e-06	839.36	175.69	1.5942e-05	3.1207e-06	340.13	122.25	63.597	24.013	5.8858e-06	53.184	0.00045487	0.00041851	0.00013309	469.62	4.8445e-06	4.7392e-06	759.89	162.32	4.9954e-06	4.8099e-06	310.32	111.33	59.059	22.434	5.2474e-06	47.869	-26.487	-38.997	-73.014	-111.152	36.400	63.005	-112.905	-105.976	31.236	-2.151	-108.321	-104.088	-102.693	-97.146	-38.425	-99.653	-8191	255	
2189.072	1	1	0	0	0.074704	0.1866	0.087382	0.15108	0.149	0.15209	0.13094	0.11662	0.27297	0.025611	0.15298	0.11896	0.13656	0.18761	0.079198	0.1653	-3.0396	-2.6521	-3.2625	-3.15	-2.8708	-3.4646	-3.1354	-2.9042	-3.3	-2.5583	-3.3729	-3.3958	-2.8312	-3.5604	-2.9958	-2.75	106.687	-81.241	-16.171	118.207	89.034	-24.694	230.407	169.535	115.185	-5.259	206.246	99.112	74.767	186.900	4.602	-45.063	0.00037174	0.00034887	0.00015726	501.65	7.3708e-06	3.4723e-06	833.7	175.07	6.374e-06	4.7847e-06	342.59	124.64	63.487	24.064	7.8876e-06	53.487	0.00044753	0.00045086	0.00013796	468.65	4.7167e-06	5.2747e-06	757.41	162.14	4.9504e-06	5.1173e-06	311.51	112.4	59.174	22.656	5.4678e-06	48.186	-35.832	144.783	-42.971	-111.946	38.087	33.631	-112.661	-106.187	-10.519	-123.258	-107.489	-103.337	-102.594	-97.076	37.953	-99.533	-8191	255	
2189.168	1	1	0	0	0.20987	0.18625	0.20114	0.23653	0.17874	0.096529	0.34957	0.022417	0.14708	0.13317	0.36759	0.16042	0.33871	0.2533	0.033999	0.086197	-3.0208	-2.4792	-3.0479	-3.275	-2.3854	-3.5917	-3.1312	-2.8417	-3.4833	-2.7812	-2.95	-3.3354	-2.5896	-3.5604	-3.1021	-2.8812	166.817	132.215	39.825	-96.801	195.420	4.235	146.645	235.392	40.702	-53.344	-44.679	39.046	-38.083	-56.936	-47.065	-103.758	0.00042138	0.0003351	0.00020434	504.8	4.118e-06	3.9668e-06	834.21	175.65	4.2885e-06	4.4759e-06	342.22	123.6	63.31	24.28	1.3994e-06	52.984	0.00044561	0.00048711	0.00013806	469.96	4.6245e-06	5.325e-06	758.83	161.92	4.6378e-06	5.2344e-06	310.36	111.7	59.074	22.562	5.147e-06	47.677	-35.457	107.308	216.329	-112.436	-13.589	3.653	-112.723	-106.149	25.132	-80.886	-107.694	-103.933	-102.516	-96.967	100.339	-99.910	-8191	255	
2189.264	1	1	0	0	0.2048	0.171	0.11608	0.23516	0.19643	0.22658	0.26415	0.31629	0.24181	0.15115	0.04503	0.27524	0.24151	0.29194	0.19767	0.20185	-3.2604	-2.9042	-3.1104	-3.5333	-2.6521	-3.3146	-3.2458	-2.5958	-3.3771	-2.6208	-2.8187	-3.5	-2.7313	-3.3312	-3.3854	-2.6521	18.509	90.199	-69.810	105.591	30.909	4.489	90.859	150.200	-110.197	47.421	213.907	-12.256	-114.622	203.974	193.637	-86.623	0.00037	0.00047638	0.0004056	500.64	5.5652e-06	4.2996e-06	831.18	173.36	2.6375e-06	2.1812e-06	340.7	122.9	62.987	23.87	4.6508e-06	52.554	0.00042938	0.00048531	0.00013077	463.24	4.714e-06	5.2147e-06	750.52	160.1	4.7032e-06	5.3203e-06	307.84	110.58	58.94	22.428	5.1781e-06	47.33	-55.937	23.183	-116.322	-111.666	-57.547	2.085	-112.709	-105.793	64.654	-71.527	-108.144	-103.748	-102.219	-96.761	-58.199	-99.768	-8191	255	
2189.360	1	1	0	0	0.10994	0.173	0.28529	0.17269	0.081157	0.25141	0.1313	0.085767	0.03849	0.3355	0.15002	0.06786	0.14725	0.2531	0.20977	0.16005	-3.0896	-2.7604	-2.9417	-3.3083	-2.7375	-3.2479	-3.3292	-2.6312	-3.525	-2.9417	-2.7458	-3.575	-2.7604	-3.0521	-3.3438	-2.6562	-19.413	-78.567	-84.553	168.183	-55.859	43.959	152.221	75.314	2.407	-68.760	228.663	-98.079	-123.501	-105.428	156.055	-73.635	0.00038687	0.00039345	2.871e-05	501.09	7.5785e-06	5.1333e-06	832.45	175.1	5.3432e-06	1.2762e-06	338.79	122.8	63.306	24.101	2.3699e-06	52.832	0.00046213	0.00051032	0.00013474	464.47	5.2303e-06	5.5108e-06	753.1	160.92	5.1785e-06	5.3805e-06	308.52	111	59.489	22.497	5.015e-06	47.758	-60.406	178.148	-109.476	-111.760	-63.498	21.910	-112.984	-106.316	46.668	-113.123	-108.499	-103.558	-102.522	-97.517	25.055	-99.669	-8191	255	
2189.481	1	1	0	0	0.28615	0.12278	0.24872	0.1608	0.081722	0.13515	0.28612	0.1703	0.29016	0.046838	0.13142	0.063483	0.169	0.12732	0.10235	0.07979	-3.0104	-2.9917	-2.55	-3.3083	-2.6146	-2.9604	-3.4354	-2.7438	-3.2479	-3.2042	-2.6667	-3.6625	-2.8708	-2.9	-3.3104	-2.7667	199.558	164.598	-34.258	155.868	139.328	206.342	173.593	-11.021	110.697	211.010	-43.580	93.902	69.767	-27.658	184.698	-84.183	0.00040422	0.00036256	0.00011935	506.31	1.157e-05	8.9563e-06	844.27	176.45	5.8342e-06	3.911e-06	346.04	125.04	63.349	24.365	2.3174e-06	53.694	0.00047057	0.00047743	0.00012648	467.79	5.269e-06	5.2846e-06	763.75	162.49	5.2464e-06	5.234e-06	312.19	112.76	59.991	22.738	4.8724e-06	48.499	-52.798	-14.898	-90.153	-112.152	46.794	22.429	-112.794	-106.607	35.615	71.541	-107.991	-103.774	-102.371	-96.965	9.424	-99.448	-8191	255	
2189.552	1	1	0	0	0.044981	0.15122	0.18301	0.21224	0.19023	0.28798	0.18607	0.047276	0.12199	0.1415	0.12092	0.084294	0.16201	0.11145	0.34382	0.093672	-3.0104	-3.0479	-2.5583	-3.3958	-2.8979	-3.0271	-3.4125	-2.7604	-3.4042	-3.2	-2.6271	-3.5417	-2.8333	-2.8229	-3.6729	-2.6271	69.525	57.938	-46.853	226.571	168.004	51.738	-120.000	13.589	51.957	-21.997	-85.681	59.338	147.141	-48.092	85.328	231.284	0.00051676	0.0011249	0.00022705	512.52	5.8517e-06	1.0052e-05	858.05	178.02	7.6541e-06	8.2218e-06	345.87	124.34	63.691	24.047	8.836e-06	53.824	0.00049127	0.00048261	0.00012269	476.02	5.4568e-06	5.168e-06	774.52	164.76	5.4767e-06	5.4602e-06	313.09	113.12	60.178	22.615	5.1925e-06	48.554	-82.197	-63.046	-53.112	-112.324	-21.365	9.532	-112.932	-106.549	11.668	15.813	-108.253	-104.033	-102.738	-97.717	54.592	-100.468	-8191	255	
2189.649	1	1	0	0	0.10926	0.1225	0.1413	0.21114	0.12118	0.22638	0.20117	0.12896	0.15521	0.13817	0.056397	0.076181	0.19962	0.12496	0.1248	0.30557	-2.6875	-3.2062	-2.5563	-3.55	-2.975	-2.7917	-3.5083	-2.7021	-3.1146	-3.2292	-2.3937	-3.5542	-3.0833	-2.8208	-3.5354	-2.8625	72.638	158.534	-71.698	-71.303	-44.740	121.209	193.336	-73.251	-34.732	125.091	-23.153	-117.350	-56.782	83.018	-70.067	76.227	0.0003152	0.00068018	0.00023853	505.14	4.4021e-06	8.9639e-06	825.76	173.88	4.5479e-06	2.1478e-06	338.06	121.72	62.016	23.857	5.0334e-06	52.643	0.0005368	0.00053124	0.00013268	473.25	5.9105e-06	5.7164e-06	752.39	162.16	5.9804e-06	5.7899e-06	306.5	111.54	59.611	22.376	5.3497e-06	47.742	-61.137	123.650	-77.593	-112.619	181.842	38.650	-113.149	-106.267	184.136	-1.210	-108.154	-103.984	-102.740	-96.699	186.651	-100.139	-8191	255	
2189.745	1	1	0	0	0.10971	0.18911	0.28459	0.096553	0.14334	0.17367	0.34352	0.19138	0.37651	0.2247	0.0704	0.078006	0.027026	0.16577	0.040093	0.077771	-2.8354	-3.4562	-2.5479	-3.3917	-3.0354	-2.5083	-3.6125	-2.9	-2.9313	-3.3896	-2.6417	-3.3917	-3.0646	-2.7062	-3.4979	-2.8917	232.461	-22.813	227.603	0.574	-96.877	77.026	213.540	217.933	195.793	198.722	135.166	154.366	-87.366	235.037	-20.385	119.846	0.00040955	0.00044939	8.7972e-05	496.76	7.797e-06	7.1261e-06	826.1	172.58	4.1229e-06	7.3276e-06	336.82	122.11	61.656	23.503	7.743e-06	52.232	0.0005415	0.00052356	0.00013183	468.19	5.8551e-06	5.3679e-06	747.06	161.36	5.8905e-06	5.5536e-06	307.35	110.95	59.283	22.245	5.6569e-06	47.722	-50.239	34.694	-24.578	-111.848	35.533	69.859	-112.707	-106.607	-101.741	79.339	-108.298	-104.276	-102.987	-97.846	-47.507	-100.530	-8191	255	
2189.865	1	1	0	0	0.046868	0.11118	0.12799	0.12737	0.14654	0.112	0.19036	0.12898	0.34556	0.23691	0.11862	0.21691	0.1258	0.083389	0.19988	0.064145	-2.4021	-3.3125	-2.8104	-3.1729	-3.3167	-2.7146	-3.3396	-3.0583	-2.9083	-3.3854	-2.6625	-3.3625	-3.4083	-2.4896	-3.4313	-3.0771	-49.605	-22.861	10.659	-75.673	64.955	-110.688	202.011	111.705	182.365	218.473	231.999	230.344	68.716	78.291	14.423	230.348	0.0004012	0.00042363	0.00024051	494.33	2.2335e-06	9.4878e-06	826.83	174.28	5.2575e-06	6.01e-06	334.73	121.89	62.315	23.567	8.0987e-07	52.691	0.00055005	0.00051005	0.000148	469.79	6.0424e-06	5.654e-06	751.5	162.72	6.1329e-06	5.7143e-06	309.52	111.71	59.65	22.395	6.3913e-06	48.213	-90.383	-86.118	-3.563	-112.144	19.634	24.739	-113.293	-107.179	89.110	-15.473	-108.159	-104.239	-103.355	-97.650	102.754	-100.675	-8191	255	
2189.960	1	1	0	0	0.13514	0.22326	0.11551	0.22059	0.20243	0.1209	0.16718	0.11804	0.089013	0.24887	0.14002	0.087227	0.060215	0.24856	0.16856	0.14132	-2.3833	-3.4333	-2.5604	-3.2562	-3.4562	-2.5938	-3.6208	-3.1333	-2.6646	-3.5917	-3.0125	-3.0062	-3.2604	-2.6875	-3.3937	-3.2292	50.333	-3.439	-88.386	228.208	5.912	80.564	-68.514	154.404	150.832	79.868	42.767	135.972	49.766	57.544	13.605	-92.522	0.00035758	0.00014627	0.00011786	493.34	1.1507e-05	4.6597e-06	820.21	172.42	8.5185e-06	2.6695e-06	334.82	121.85	61.88	23.596	6.0083e-06	51.925	0.00058687	0.00053295	0.00016916	471.83	6.3732e-06	5.9216e-06	752.68	161.77	6.2618e-06	5.7142e-06	309.95	111.23	59.433	22.294	6.2869e-06	47.54	-64.206	107.512	-76.881	-112.778	-22.565	93.971	-113.382	-107.073	-57.264	-70.643	-108.490	-103.904	-103.556	-97.410	-14.031	-100.493	-8191	255	
2190.056	1	1	0	0	0.29256	0.14058	0.10416	0.15068	0.29213	0.23149	0.23016	0.232	0.16859	0.17983	0.19509	0.20878	0.099157	0.14492	0.095406	0.0447	-2.3604	-3.5021	-2.6083	-3.0083	-3.4646	-2.4979	-3.4062	-3.1208	-2.75	-3.4542	-2.9354	-3.0396	-3.4417	-2.6688	-3.2792	-3.5062	223.130	-17.323	64.329	-87.344	82.400	114.909	-92.986	124.030	49.695	10.474	182.011	233.327	183.624	151.981	-91.439	35.646	0.00036716	0.00017726	0.00021052	491.07	3.9098e-06	1.0148e-05	817.27	170.31	1.5828e-06	8.2954e-06	331.87	120.16	60.797	22.91	5.4912e-06	52.05	0.00053127	0.00051997	0.00015735	464.85	5.6579e-06	5.6239e-06	746.06	159.51	5.6488e-06	5.7939e-06	306.55	109.7	58.386	22.047	6.3411e-06	47.196	-58.292	-40.636	-67.839	-112.297	-76.112	-40.457	-112.636	-106.452	105.962	-61.400	-108.416	-103.678	-103.269	-97.370	49.724	-100.092	-8191	255	
2190.154	1	1	0	0	0.33646	0.14485	0.21192	0.21972	0.042165	0.18447	0.27841	0.19794	0.23028	0.11577	0.11287	0.28873	0.24385	0.071364	0.42857	0.098649	-2.2271	-3.3125	-3	-2.9208	-3.3625	-2.8708	-3.2917	-3.2583	-2.5833	-3.6229	-3.0542	-2.7875	-3.5917	-2.7792	-3.1479	-3.4729	58.242	104.471	125.522	229.992	173.483	221.999	151.643	74.388	-57.132	47.004	208.408	184.576	146.850	1.421	181.782	-102.090	0.00043265	0.00046407	0.00029607	494.36	2.3469e-06	1.1651e-05	817.95	171.28	2.5287e-06	1.0383e-05	336.62	120.64	61.271	23.302	8.7579e-06	51.906	0.00051331	0.00056684	0.00016555	465.02	5.7392e-06	6.1e-06	749.42	159.76	5.5325e-06	6.2526e-06	308.15	109.99	58.329	22.246	6.0549e-06	47.28	-89.597	-50.600	113.214	-112.453	145.695	10.468	-112.566	-106.340	163.216	195.690	-108.252	-103.846	-102.682	-97.202	-27.728	-99.925	-8191	255	
2190.248	1	1	0	0	0.13236	0.04637	0.22894	0.17342	0.073288	0.087886	0.10642	0.15984	0.13659	0.16132	0.089754	0.089675	0.1252	0.043965	0.25237	0.14632	-2.1604	-3.3375	-2.825	-2.9646	-3.3458	-2.7375	-3.2708	-3.5042	-2.7	-3.3646	-3.15	-2.6333	-3.3854	-2.725	-3.1562	-3.4917	63.535	-47.913	63.487	9.062	-117.687	-50.953	-91.231	53.752	-111.447	209.700	222.488	178.419	147.647	207.001	-57.516	192.829	0.00048175	0.0009751	0.00024644	495.52	1.4954e-05	3.8062e-06	829.44	174.5	4.6053e-06	2.2429e-06	336.36	122.03	62.37	23.886	1.1081e-05	52.955	0.00049735	0.00055784	0.00015287	465.79	5.3872e-06	6.1847e-06	755.32	160.98	5.3338e-06	5.9889e-06	310.12	110.8	58.869	22.434	5.6515e-06	47.836	-67.462	57.569	-35.579	-111.834	26.904	187.401	-112.310	-106.075	103.354	104.652	-107.725	-103.603	-102.359	-96.320	-1.797	-99.427	-8191	255	
2190.344	1	1	0	0	0.18234	0.18676	0.1243	0.035233	0.094816	0.25586	0.063086	0.34067	0.33411	0.23467	0.18058	0.33514	0.20359	0.19485	0.33041	0.09531	-2.2646	-3.2667	-3.0938	-2.4875	-3.3625	-3.0083	-3.1396	-3.4917	-2.6542	-3.3312	-3.3	-2.7042	-3.5458	-2.975	-2.8604	-3.3979	149.300	-48.093	18.642	49.306	-112.033	114.451	71.349	119.496	110.626	150.832	212.604	-118.131	125.061	-57.995	-56.842	-98.440	0.00037774	0.00046403	6.5683e-05	511.78	7.404e-06	7.4992e-06	847.73	175.43	6.3654e-06	8.3699e-06	343.55	123.02	62.222	23.603	9.0282e-06	52.181	0.00049014	0.00054464	0.00014756	474.17	5.3092e-06	6.1047e-06	770.84	162.41	5.6611e-06	6.0318e-06	313.45	111.46	59.346	22.482	6.0768e-06	47.421	-25.065	-28.077	205.942	-112.020	-16.393	135.368	-112.794	-106.365	97.998	-61.182	-107.637	-103.661	-102.553	-96.819	100.896	-99.318	-8191	255	
2190.465	1	1	0	0	0.18183	0.21294	0.069875	0.18152	0.1358	0.11377	0.11589	0.13668	0.2213	0.26146	0.068626	0.12679	0.043875	0.10691	0.17673	0.12953	-2.275	-3.1125	-3.3208	-2.6437	-3.3708	-2.9917	-3.0396	-3.4417	-2.7188	-2.975	-3.4104	-2.7708	-3.4417	-3.1771	-2.6646	-3.6333	-36.232	-48.111	-111.777	172.648	52.899	168.295	68.012	-92.548	-45.104	-11.611	-2.561	205.720	-74.006	-112.719	-116.241	167.065	0.00046174	0.00010417	0.00012576	495.91	5.4075e-06	8.1377e-06	825.17	171.16	1.0972e-05	9.4656e-06	332.84	120.46	61.26	23.218	8.6222e-06	51.927	0.00055668	0.0005856	0.00016101	466.14	6.3401e-06	6.7239e-06	753.12	159.51	6.5304e-06	6.5783e-06	307.97	109.65	59.149	22.27	6.3237e-06	47.049	-61.913	118.435	55.111	-111.840	-112.528	12.393	-112.688	-105.521	-35.305	-10.233	-107.707	-103.171	-101.741	-96.703	215.680	-99.619	-8191	255	
2190.561	1	1	0	0	0.26786	0.15917	0.095918	0.24944	0.19263	0.16984	0.13662	0.12729	0.15708	0.044798	0.26649	0.079311	0.24977	0.18597	0.2384	0.13683	-2.3354	-2.9313	-3.3771	-2.6583	-3.3479	-3.1458	-2.9354	-3.5687	-2.8896	-2.9521	-3.4167	-2.7292	-3.2562	-3.1479	-2.7	-3.5042	-93.958	29.569	133.868	133.707	-78.079	-85.346	215.843	228.250	14.567	67.581	147.749	-119.216	99.292	207.744	7.736	36.243	0.00050024	0.00087744	0.00016793	489.21	6.5439e-06	8.4762e-06	816.41	169.53	9.8811e-06	4.7138e-06	335.08	120.56	61.134	23.157	5.5566e-06	52.32	0.00061614	0.00061328	0.00016129	463.4	6.6945e-06	6.7282e-06	745.65	159.21	6.8362e-06	6.5605e-06	307.3	109.69	59.145	22.205	6.0877e-06	47.325	-46.357	-32.593	158.182	-112.547	-70.640	100.409	-112.974	-106.267	0.885	59.239	-108.000	-103.163	-101.994	-97.169	-4.374	-99.439	-8191	255	
#DATA ENDS
