BOXY.EXE: ISS Imagent and Oximeter Data Acquisition Program Version 0.80
Ascii Record File

#ACQ INFORMATION
2  Detector Channels 
16  External MUX Channels 
1  Auxiliary Channels 
5000  Waveform (CCF) Frequency (Hz)
1  Waveforms Skipped 
30  Waveforms Averaged 
1  Cycles Averaged 
16  Acquisitions per Waveform 
10.0806  Updata Rate (Hz) 

#FILE INFORMATION
TRUE -- External MUX Channel results are PARSED.
FALSE -- AC DC and Phase are NOT grouped.
TRUE -- Companion Program Settings File CREATED.
FALSE -- AC data not excluded
FALSE -- DC data not excluded
FALSE -- Phase data not excluded
FALSE -- Auxillary Chn. data not excluded
Tab delimiters

#CALIBRATION STATE
TRUE -- Waveform Calibration Values APPLIED.


#AUX CALIBRATION VALUES
Val Type	aux-1	

Term	1.0000e+00	
Factor	0.0000e+00	


#WF CALIBRATION VALUES
A = Detector Channel
Val Type	A-AC1	A-AC2	A-AC3	A-AC4	A-AC5	A-AC6	A-AC7	A-AC8	A-AC9	A-AC10	A-AC11	A-AC12	A-AC13	A-AC14	A-AC15	A-AC16	A-DC1	A-DC2	A-DC3	A-DC4	A-DC5	A-DC6	A-DC7	A-DC8	A-DC9	A-DC10	A-DC11	A-DC12	A-DC13	A-DC14	A-DC15	A-DC16	A-Ph1	A-Ph2	A-Ph3	A-Ph4	A-Ph5	A-Ph6	A-Ph7	A-Ph8	A-Ph9	A-Ph10	A-Ph11	A-Ph12	A-Ph13	A-Ph14	A-Ph15	A-Ph16	

Term	0.00000e+00	0.00000e+00	0.00000e+00	0.00000e+00	0.00000e+00	0.00000e+00	0.00000e+00	0.00000e+00	0.00000e+00	0.00000e+00	0.00000e+00	0.00000e+00	0.00000e+00	0.00000e+00	0.00000e+00	0.00000e+00	0.00000e+00	0.00000e+00	0.00000e+00	0.00000e+00	0.00000e+00	0.00000e+00	0.00000e+00	0.00000e+00	0.00000e+00	0.00000e+00	0.00000e+00	0.00000e+00	0.00000e+00	0.00000e+00	0.00000e+00	0.00000e+00	0.00000e+00	0.00000e+00	0.00000e+00	0.00000e+00	0.00000e+00	0.00000e+00	0.00000e+00	0.00000e+00	0.00000e+00	0.00000e+00	0.00000e+00	0.00000e+00	0.00000e+00	0.00000e+00	0.00000e+00	0.00000e+00	
Factor	1.00000e+00	1.00000e+00	1.00000e+00	1.00000e+00	1.00000e+00	1.00000e+00	1.00000e+00	1.00000e+00	1.00000e+00	1.00000e+00	1.00000e+00	1.00000e+00	1.00000e+00	1.00000e+00	1.00000e+00	1.00000e+00	1.00000e+00	1.00000e+00	1.00000e+00	1.00000e+00	1.00000e+00	1.00000e+00	1.00000e+00	1.00000e+00	1.00000e+00	1.00000e+00	1.00000e+00	1.00000e+00	1.00000e+00	1.00000e+00	1.00000e+00	1.00000e+00	X	X	X	X	X	X	X	X	X	X	X	X	X	X	X	X	

B = Detector Channel
Val Type	B-AC1	B-AC2	B-AC3	B-AC4	B-AC5	B-AC6	B-AC7	B-AC8	B-AC9	B-AC10	B-AC11	B-AC12	B-AC13	B-AC14	B-AC15	B-AC16	B-DC1	B-DC2	B-DC3	B-DC4	B-DC5	B-DC6	B-DC7	B-DC8	B-DC9	B-DC10	B-DC11	B-DC12	B-DC13	B-DC14	B-DC15	B-DC16	B-Ph1	B-Ph2	B-Ph3	B-Ph4	B-Ph5	B-Ph6	B-Ph7	B-Ph8	B-Ph9	B-Ph10	B-Ph11	B-Ph12	B-Ph13	B-Ph14	B-Ph15	B-Ph16	

Term	0.00000e+00	0.00000e+00	0.00000e+00	0.00000e+00	0.00000e+00	0.00000e+00	0.00000e+00	0.00000e+00	0.00000e+00	0.00000e+00	0.00000e+00	0.00000e+00	0.00000e+00	0.00000e+00	0.00000e+00	0.00000e+00	0.00000e+00	0.00000e+00	0.00000e+00	0.00000e+00	0.00000e+00	0.00000e+00	0.00000e+00	0.00000e+00	0.00000e+00	0.00000e+00	0.00000e+00	0.00000e+00	0.00000e+00	0.00000e+00	0.00000e+00	0.00000e+00	-2.80792e+01	-1.26731e+02	-1.22018e+02	-1.83776e+02	-5.40367e+01	-5.85387e+01	-1.56154e+02	-1.62015e+02	-3.33067e+01	-7.23125e+01	-1.69848e+02	-1.70119e+02	-1.79176e+02	-1.76608e+02	-5.86712e+01	-1.49440e+02	
Factor	2.52474e-05	1.47901e-04	3.78751e-05	1.73751e-01	1.70863e-06	1.59019e-06	1.53219e-01	4.81282e-02	1.39630e-06	1.50569e-06	8.24633e-02	2.87923e-02	2.45327e-02	8.81194e-03	1.71434e-06	1.25282e-02	7.24671e-06	9.23466e-06	2.57945e-06	9.15544e-02	9.73687e-08	1.02327e-07	7.57850e-02	2.54859e-02	9.67483e-08	1.02096e-07	4.23445e-02	1.47771e-02	1.31307e-02	4.71386e-03	9.89239e-08	6.47113e-03	X	X	X	X	X	X	X	X	X	X	X	X	X	X	X	X	



#DISTANCE SETTINGS
A = Detector Channel
A-1	A-2	A-3	A-4	A-5	A-6	A-7	A-8	A-9	A-10	A-11	A-12	A-13	A-14	A-15	A-16	

2.5000e+00	3.0000e+00	2.5000e+00	3.0000e+00	2.0000e+00	3.0000e+00	1.5000e+00	3.0000e+00	3.0000e+00	3.0000e+00	3.0000e+00	3.0000e+00	3.0000e+00	3.0000e+00	1.5000e+00	3.0000e+00	

B = Detector Channel
B-1	B-2	B-3	B-4	B-5	B-6	B-7	B-8	B-9	B-10	B-11	B-12	B-13	B-14	B-15	B-16	

1.0000e+01	1.0000e+01	1.0000e+01	1.4400e+00	1.0000e+01	1.0000e+01	1.5100e+00	1.9400e+00	1.0000e+01	1.0000e+01	1.9900e+00	2.4900e+00	2.4100e+00	2.9000e+00	1.0000e+01	2.9800e+00	




#DATA BEGINS
time	group	step	mark	flag	A-AC1	A-AC2	A-AC3	A-AC4	A-AC5	A-AC6	A-AC7	A-AC8	A-AC9	A-AC10	A-AC11	A-AC12	A-AC13	A-AC14	A-AC15	A-AC16	A-DC1	A-DC2	A-DC3	A-DC4	A-DC5	A-DC6	A-DC7	A-DC8	A-DC9	A-DC10	A-DC11	A-DC12	A-DC13	A-DC14	A-DC15	A-DC16	A-Ph1	A-Ph2	A-Ph3	A-Ph4	A-Ph5	A-Ph6	A-Ph7	A-Ph8	A-Ph9	A-Ph10	A-Ph11	A-Ph12	A-Ph13	A-Ph14	A-Ph15	A-Ph16	B-AC1	B-AC2	B-AC3	B-AC4	B-AC5	B-AC6	B-AC7	B-AC8	B-AC9	B-AC10	B-AC11	B-AC12	B-AC13	B-AC14	B-AC15	B-AC16	B-DC1	B-DC2	B-DC3	B-DC4	B-DC5	B-DC6	B-DC7	B-DC8	B-DC9	B-DC10	B-DC11	B-DC12	B-DC13	B-DC14	B-DC15	B-DC16	B-Ph1	B-Ph2	B-Ph3	B-Ph4	B-Ph5	B-Ph6	B-Ph7	B-Ph8	B-Ph9	B-Ph10	B-Ph11	B-Ph12	B-Ph13	B-Ph14	B-Ph15	B-Ph16	aux-1	digaux	

25118.119	1	1	0	768	0.14332	0.095956	0.21389	0.25674	0.19473	0.19966	0.18236	0.37908	0.20035	0.14785	0.056864	0.12526	0.16172	0.16638	0.11275	0.24346	-3.0667	-2.9437	-2.9313	-3.5563	-2.9354	-3.35	-3.4729	-2.7313	-3.5	-3.0667	-3.0625	-3.6375	-2.7792	-3.2062	-3.375	-2.6562	159.716	429.248	461.081	474.220	435.242	203.787	436.977	458.478	172.019	381.750	447.533	146.180	242.307	321.212	360.287	430.364	0.00035971	0.00037018	6.9756e-05	1067.5	5.7854e-06	5.7985e-06	1164.5	221.35	5.1601e-06	3.0108e-06	283.03	80.317	62.317	18.232	4.3122e-06	25.467	0.00038562	0.00040071	0.00011288	1052.5	4.4009e-06	4.3557e-06	1149.2	220.9	4.4139e-06	4.3484e-06	281.91	79.98	62.641	18.624	4.3914e-06	25.941	292.666	224.467	272.371	143.255	292.959	280.938	142.938	150.734	338.861	278.078	150.076	157.395	157.461	164.527	309.765	163.303	-8191	255	
25118.217	1	1	0	0	0.1489	0.016392	0.19661	0.17836	0.085126	0.28998	0.35446	0.12892	0.1591	0.04046	0.32437	0.15307	0.30635	0.10252	0.17621	0.17617	-3.0125	-2.9854	-2.9188	-3.6604	-2.7792	-3.3771	-3.5667	-2.9104	-3.3604	-3.0812	-2.9688	-3.5125	-2.925	-3.2458	-3.5062	-2.7812	338.131	442.589	331.055	415.004	171.567	395.200	444.431	341.493	467.033	268.131	447.229	448.867	435.725	456.093	255.168	455.376	0.00034994	0.00037503	9.7696e-05	1068.8	4.1022e-06	1.4551e-06	1167.3	222.62	3.5576e-06	3.5937e-06	283.5	79.924	62.426	18.279	4.1771e-06	25.434	0.00038127	0.00038959	0.00011115	1056	4.4236e-06	4.4269e-06	1151.7	220.83	4.3164e-06	4.3665e-06	282.39	79.991	62.836	18.582	4.3003e-06	25.995	298.454	201.976	239.167	143.161	271.101	248.903	143.046	150.614	316.890	269.238	150.569	157.445	157.899	164.663	281.792	163.843	-8191	255	
25118.312	1	1	0	0	0.030736	0.22262	0.060738	0.30154	0.045345	0.14251	0.13444	0.28093	0.006309	0.21021	0.042752	0.075665	0.27926	0.081449	0.13344	0.19338	-3.0938	-3.0833	-2.6854	-3.7438	-2.925	-3.2333	-3.5146	-2.8792	-3.4083	-3.2438	-2.8896	-3.4417	-3.0729	-3.1958	-3.6063	-2.8438	314.849	211.777	365.277	455.572	291.216	430.936	407.994	481.940	253.432	390.041	458.631	451.178	441.134	333.673	380.180	485.613	0.00042066	0.00013187	5.1927e-05	1062	5.4478e-06	4.1419e-06	1166.9	222.69	4.729e-06	3.4557e-06	282.88	80.239	62.545	18.157	6.1655e-06	25.271	0.00039683	0.00039911	0.00011145	1052.2	4.4704e-06	4.2604e-06	1151.4	220.45	4.3017e-06	4.3371e-06	282.16	80.031	62.857	18.561	4.1494e-06	25.861	291.072	296.462	203.143	143.080	281.173	304.297	143.134	150.463	308.675	266.221	150.102	157.376	157.465	164.219	270.491	163.400	-8191	255	
25118.408	1	1	0	0	0.23573	0.090943	0.24735	0.21779	0.11595	0.17652	0.20238	0.20586	0.13395	0.087627	0.19052	0.27971	0.15921	0.082584	0.04086	0.35214	-3.0146	-3.3042	-2.8271	-3.7188	-2.9604	-2.9521	-3.7771	-3.0021	-3.4625	-3.4229	-2.9188	-3.5167	-3.0979	-2.9479	-3.5896	-2.9062	312.910	253.726	290.549	424.844	367.460	186.592	439.328	364.282	345.254	163.450	147.846	482.815	166.984	429.294	321.656	390.352	0.00034953	0.00023246	9.4945e-05	1064.2	3.5663e-06	1.385e-06	1168.8	222.59	3.4531e-06	5.1118e-06	282.04	80.158	62.022	18.25	9.988e-07	25.501	0.00038415	0.00039317	0.00011114	1053	4.426e-06	4.4636e-06	1151.4	220.46	4.4323e-06	4.2614e-06	281.89	80.196	62.694	18.614	4.217e-06	25.981	296.436	213.882	223.918	143.175	257.687	300.058	143.174	151.054	278.847	237.928	149.875	157.547	157.448	164.728	217.448	163.969	-8191	255	
25118.502	1	1	0	0	0.13184	0.095584	0.24029	0.12907	0.16685	0.26113	0.20595	0.043489	0.26034	0.020648	0.10704	0.2665	0.15947	0.11099	0.093259	0.090526	-2.9292	-3.3229	-2.775	-3.4833	-3.1208	-2.8021	-3.6417	-2.9354	-3.1979	-3.3583	-2.875	-3.4688	-3.1604	-2.8625	-3.55	-2.9333	471.786	488.598	339.288	397.052	158.135	480.146	442.735	320.585	299.367	230.422	393.795	176.401	452.077	170.404	150.248	447.647	0.00037232	0.00021748	0.00014304	1064.9	2.3491e-06	2.8862e-06	1159.2	219.81	4.0189e-06	3.0928e-06	280.5	79.886	62.342	18.04	1.6954e-06	25.495	0.00039144	0.00039176	0.00011234	1054.8	4.4461e-06	4.3702e-06	1150.3	220.13	4.3283e-06	4.2172e-06	281.71	79.948	62.615	18.534	4.2772e-06	25.929	286.050	257.970	202.666	143.142	266.006	273.000	143.155	150.676	314.444	272.979	149.968	157.295	157.914	164.455	301.321	163.807	-8191	255	
25118.600	1	1	0	0	0.096743	0.16016	0.11677	0.28113	0.12076	0.16176	0.25603	0.19509	0.13352	0.034903	0.11822	0.10825	0.10426	0.20544	0.10348	0.086369	-2.7604	-3.2208	-2.8583	-3.4375	-3.0229	-2.7188	-3.7646	-3.0854	-3.1542	-3.6729	-2.75	-3.4229	-3.3042	-2.7562	-3.6167	-3.0083	373.837	155.288	187.004	374.025	483.532	311.290	448.715	435.164	186.466	367.079	412.892	362.090	145.333	490.018	287.320	367.931	0.00045284	0.00015492	3.7336e-05	1070.7	4.3696e-06	2.2797e-06	1168.9	222.16	1.7012e-06	2.341e-06	283.14	80.456	62.259	18.148	2.0195e-06	25.445	0.00039522	0.00038797	0.00011174	1054.5	4.3936e-06	4.4508e-06	1152.8	220.58	4.3257e-06	4.1774e-06	282.1	80.076	62.497	18.584	4.2649e-06	25.862	284.969	270.373	232.205	142.769	265.810	365.192	143.021	150.497	321.228	225.697	150.370	157.487	157.359	164.576	316.168	163.710	-8191	255	
25118.719	1	1	0	0	0.14909	0.036606	0.055839	0.32376	0.094599	0.1959	0.20331	0.075607	0.23118	0.1651	0.23447	0.37335	0.18158	0.22387	0.14901	0.11666	-2.6896	-3.5292	-2.8521	-3.3479	-3.3646	-2.9021	-3.7917	-3.0604	-2.975	-3.6083	-2.8729	-3.25	-3.4021	-2.8604	-3.4708	-3.1479	340.683	275.117	166.424	135.843	483.886	286.580	416.513	420.680	469.506	392.345	491.294	393.425	347.990	394.679	244.982	440.223	0.00039957	5.356e-05	5.4077e-05	1062.4	6.0184e-06	1.7412e-06	1169.9	223.06	3.7668e-06	1.5652e-06	283.81	80.066	62.405	18.235	4.5632e-06	25.535	0.00038237	0.00039674	0.00011075	1053.9	4.3591e-06	4.2711e-06	1151.6	220.15	4.346e-06	4.3116e-06	282.05	79.951	62.686	18.598	4.323e-06	25.932	286.737	304.841	204.072	143.157	264.339	284.416	142.854	150.588	296.158	272.558	150.092	156.981	157.653	164.140	265.644	163.559	-8191	255	
25118.814	1	1	0	0	0.09589	0.11881	0.050759	0.27925	0.10806	0.16081	0.14857	0.31748	0.31845	0.074922	0.12357	0.21231	0.072201	0.29786	0.11866	0.15	-2.4771	-3.5354	-2.8729	-3.1854	-3.3792	-3.0042	-3.4396	-3.1417	-2.7917	-3.5854	-2.8417	-3.2062	-3.4229	-2.6458	-3.5104	-3.2771	223.254	239.965	140.426	389.626	316.704	141.527	426.960	429.000	371.035	191.882	441.653	232.073	246.244	134.621	456.628	479.550	0.00037552	0.00033128	0.00013648	1070.9	1.1075e-06	4.8514e-06	1178.2	225.02	3.6888e-06	4.6703e-06	283.72	80.204	62.368	18.213	6.0994e-06	25.468	0.00039203	0.00040613	0.00011459	1053.7	4.4708e-06	4.5536e-06	1152.6	221.09	4.5282e-06	4.4305e-06	281.68	80.129	62.599	18.574	4.3891e-06	25.958	293.875	194.133	263.004	142.843	255.862	293.564	142.903	150.145	306.460	264.246	150.309	157.657	157.487	164.493	241.151	163.546	-8191	255	
25118.910	1	1	0	0	0.18315	0.13003	0.047728	0.14826	0.051074	0.19613	0.21856	0.11374	0.062011	0.16665	0.19623	0.14591	0.18863	0.099151	0.0716	0.052303	-2.4104	-3.4604	-2.7833	-3.0854	-3.3688	-2.8	-3.4458	-3.275	-2.8375	-3.4854	-2.9958	-3.1583	-3.4271	-2.7896	-3.3	-3.3375	287.782	364.180	335.100	459.003	452.995	307.362	471.866	418.842	241.294	362.164	316.415	250.095	132.858	349.091	315.735	403.724	0.00043666	0.00016906	8.3971e-05	1062.5	1.4176e-06	2.8277e-06	1172.5	222.81	5.1667e-06	3.7943e-06	283.16	80.055	62.638	18.172	4.6726e-06	25.529	0.00039984	0.00040257	0.00011256	1049.9	4.3199e-06	4.4384e-06	1152.6	219.9	4.3523e-06	4.5188e-06	281.08	79.675	62.462	18.495	4.4493e-06	25.897	289.398	244.803	209.434	143.158	317.962	295.893	142.835	150.187	333.347	283.099	149.880	157.266	157.143	164.720	282.133	163.545	-8191	255	
25119.008	1	1	0	0	0.11394	0.072442	0.095115	0.1279	0.12285	0.25339	0.09314	0.24007	0.18287	0.12532	0.075699	0.27657	0.38432	0.035639	0.22508	0.12151	-2.4771	-3.5062	-3.0896	-3.0938	-3.5417	-2.9	-3.375	-3.425	-2.7062	-3.3417	-3.2958	-2.8646	-3.6125	-2.9437	-3.2917	-3.4188	487.914	467.459	148.176	133.393	447.155	436.293	451.083	435.944	213.273	423.821	174.363	474.190	149.544	248.175	464.470	391.305	0.00039653	4.8982e-05	8.9541e-05	1062.2	4.1895e-06	4.1722e-06	1170.2	222.33	4.6399e-06	1.9748e-06	282.01	80.263	62.28	18.413	3.3523e-06	25.427	0.00040473	0.00040248	0.00011539	1049.8	4.3104e-06	4.4853e-06	1149.1	219.74	4.3323e-06	4.4509e-06	280.39	79.869	62.468	18.574	4.3937e-06	25.891	295.066	396.222	200.690	143.205	266.065	292.405	143.237	150.577	326.939	305.416	150.195	157.606	157.672	164.347	259.751	163.920	-8191	255	
25119.104	1	1	0	0	0.11449	0.080345	0.12211	0.31152	0.10707	0.16412	0.17453	0.18801	0.072086	0.16339	0.25675	0.11205	0.17324	0.18429	0.1478	0.28202	-2.4125	-3.2604	-2.9333	-2.925	-3.4562	-2.9542	-3.4396	-3.5958	-2.9396	-3.1917	-3.4521	-2.9042	-3.6083	-2.8625	-3.1188	-3.6083	187.609	213.980	244.797	466.023	135.623	310.101	421.674	382.944	465.300	403.077	163.698	365.568	333.280	139.410	187.057	189.858	0.00036098	0.00047138	0.00011194	1063.5	5.6263e-06	5.1449e-06	1165.8	220.6	3.4012e-06	1.6346e-06	280.21	79.749	62.304	18.091	4.5928e-06	25.398	0.00040136	0.00039728	0.00011243	1049.3	4.3033e-06	4.3852e-06	1147.4	219.07	4.3444e-06	4.2559e-06	279.78	79.596	62.434	18.441	4.3349e-06	25.813	288.964	204.619	227.110	143.329	303.008	278.033	142.992	150.748	299.667	270.571	150.540	157.268	157.527	164.673	252.680	163.470	-8191	255	
25119.199	1	1	0	0	0.30657	0.033915	0.13738	0.035005	0.15804	0.22719	0.19498	0.025731	0.029709	0.35327	0.12417	0.095696	0.30013	0.18226	0.062317	0.084258	-2.2854	-3.4958	-3.2083	-2.8104	-3.5646	-2.9375	-3.0354	-3.7583	-2.7	-3.2708	-3.4375	-2.9271	-3.4188	-3.2354	-3.0271	-3.6646	459.865	263.655	407.416	220.061	366.343	482.113	430.458	451.827	259.943	466.375	460.665	421.602	159.992	440.926	306.366	383.842	0.00038477	0.00041326	6.2979e-06	1063.6	1.5844e-06	2.3963e-06	1161.6	221.42	5.6025e-06	2.3192e-06	280.89	79.39	62.352	18.074	4.5995e-06	25.132	0.00039433	0.00038957	0.00011257	1049.1	4.2041e-06	4.3739e-06	1146.4	219.18	4.3787e-06	4.4616e-06	279.7	79.62	62.39	18.415	4.1964e-06	25.708	285.661	212.223	442.644	143.356	317.110	312.631	143.475	150.778	266.468	282.963	150.333	157.323	157.417	164.632	274.625	164.298	-8191	255	
25119.297	1	1	0	0	0.2989	0.031427	0.12875	0.19692	0.19575	0.21752	0.03706	0.082802	0.19725	0.13539	0.14214	0.11944	0.02105	0.071886	0.094428	0.16547	-2.5125	-3.2625	-3.3667	-2.9458	-3.4896	-3.1104	-3.0375	-3.4979	-2.875	-3.3292	-3.6021	-2.9583	-3.4583	-3.1417	-2.8271	-3.4854	218.575	184.909	189.803	443.866	134.020	143.089	474.199	279.177	204.456	329.611	440.115	375.223	292.168	266.555	352.032	294.270	0.0003982	0.00011557	0.00013118	1048.5	5.7865e-06	1.0525e-06	1149.3	218.91	2.9771e-06	3.5699e-06	279.05	78.757	62.077	17.971	2.7038e-06	25.316	0.00039101	0.00039024	0.00010713	1045.1	4.1471e-06	4.2775e-06	1140.8	218.12	4.238e-06	4.325e-06	279.86	79.42	62.276	18.384	4.2177e-06	25.776	294.692	162.698	241.341	143.103	289.333	248.980	143.460	150.682	291.229	299.665	150.378	157.661	157.998	164.504	263.074	163.751	-8191	255	
25119.414	1	1	0	0	0.18016	0.18096	0.09237	0.10902	0.078403	0.10263	0.097613	0.29475	0.30375	0.1133	0.25286	0.084712	0.090979	0.11112	0.34175	0.11039	-2.5708	-3.0563	-3.4208	-2.9042	-3.3812	-3.3	-3.125	-3.6292	-2.9479	-2.9042	-3.5812	-2.8708	-3.4146	-3.2708	-2.7604	-3.5083	395.202	479.047	263.478	403.634	348.702	468.654	329.977	359.062	356.344	400.274	171.621	239.094	488.283	469.452	325.921	406.457	0.00038504	0.00045851	4.3871e-05	1057.9	4.2216e-06	4.3791e-06	1157.9	219.36	4.9832e-06	2.4783e-06	279.95	79.826	61.892	18.095	6.8004e-06	25.225	0.00037911	0.00037679	0.00010337	1045.2	4.1729e-06	4.1698e-06	1142.3	218.25	4.2789e-06	4.2206e-06	279.3	79.735	62.25	18.419	4.2146e-06	25.761	283.674	235.596	218.974	143.159	316.111	314.802	143.262	150.490	294.877	304.803	150.150	157.539	157.720	164.412	307.704	164.340	-8191	255	
25119.512	1	1	0	0	0.22625	0.29642	0.11351	0.28587	0.14785	0.15598	0.10066	0.071552	0.034977	0.29452	0.12061	0.23752	0.098445	0.21442	0.065901	0.18459	-2.6875	-2.9562	-3.5271	-3.0333	-3.25	-3.5021	-2.8729	-3.7271	-3.1312	-2.9188	-3.5604	-3.1125	-2.9625	-3.5896	-2.9667	-3.5187	193.023	255.795	420.373	137.857	285.926	217.094	458.449	388.495	469.978	421.714	482.074	345.529	475.199	150.611	479.769	152.851	0.00038717	0.00034082	0.000127	1055.6	4.1651e-06	3.022e-06	1156.9	220.75	3.4278e-06	2.2867e-06	277.73	78.87	61.854	18.056	1.745e-06	25.225	0.00037707	0.00038303	0.00010728	1045.4	4.3084e-06	4.0163e-06	1142.1	218.46	4.0656e-06	4.2338e-06	278.41	79.33	62.162	18.427	4.1703e-06	25.81	284.561	219.415	233.638	143.185	229.341	288.506	143.057	150.483	312.235	287.031	150.389	157.188	157.841	165.232	166.275	164.344	-8191	255	
25119.607	1	1	0	0	0.14518	0.15019	0.22477	0.17686	0.18888	0.16703	0.13665	0.39433	0.10512	0.14417	0.18298	0.095875	0.089918	0.14835	0.18933	0.15065	-2.6625	-2.8854	-3.4437	-3.0875	-3.3104	-3.4667	-2.925	-3.6646	-3.2396	-2.8979	-3.5854	-3.0333	-3.1312	-3.3896	-3.0292	-3.4771	430.373	351.369	303.841	450.664	358.619	459.061	479.686	467.279	153.524	201.571	211.611	486.508	319.195	225.662	338.044	230.157	0.00037752	0.00024125	9.0566e-05	1048.5	3.8931e-06	3.321e-06	1150.1	219.41	3.1763e-06	4.8847e-06	277.74	78.864	61.878	18.038	4.2273e-06	25.275	0.00036623	0.00038963	0.00010497	1042.1	4.1372e-06	4.2219e-06	1138.2	218.12	4.1211e-06	4.16e-06	278.98	79.222	62.15	18.408	4.0866e-06	25.773	289.381	233.748	224.485	142.975	266.891	294.610	142.981	150.933	269.638	278.676	150.432	157.389	157.963	164.300	256.628	163.557	-8191	255	
25119.703	1	1	0	0	0.1222	0.063853	0.15397	0.029899	0.10017	0.21628	0.046394	0.047682	0.21212	0.17937	0.20484	0.18126	0.075498	0.13869	0.17602	0.14983	-2.7687	-2.9	-3.5479	-3.2396	-3.0479	-3.5042	-3.0042	-3.3792	-3.2042	-2.8292	-3.625	-3.0083	-3.1458	-3.3979	-2.7646	-3.3812	202.254	362.368	223.454	383.085	332.595	268.408	179.394	431.879	261.986	218.781	456.844	205.646	259.108	185.059	425.535	461.004	0.00045171	0.0003451	2.7878e-05	1053.3	2.1036e-06	3.0906e-06	1155.9	220.43	5.624e-06	3.9914e-06	278.31	79.496	62.252	18.048	4.8164e-06	25.213	0.00036558	0.00037018	0.0001051	1042.2	4.1899e-06	4.0498e-06	1141.1	218.46	4.0775e-06	4.1778e-06	279.13	79.442	62.25	18.389	4.0551e-06	25.82	288.010	188.475	202.474	142.950	312.958	261.970	143.218	150.964	292.819	255.973	150.303	157.437	157.851	164.877	279.285	163.955	-8191	255	
25119.801	1	1	0	0	0.18766	0.10011	0.24393	0.10279	0.13448	0.098948	0.22194	0.2098	0.058146	0.14792	0.05114	0.093328	0.31126	0.1491	0.28758	0.12479	-3.0042	-2.8208	-3.6667	-3.1708	-2.9875	-3.4854	-2.8854	-3.4646	-3.4083	-2.8312	-3.5687	-3.1583	-2.8917	-3.5083	-2.7687	-3.3479	460.883	325.046	476.914	463.948	271.999	171.052	473.666	424.264	394.923	307.507	261.315	332.262	457.309	276.657	464.302	449.233	0.00042402	0.00014874	6.588e-05	1047.4	5.1667e-06	3.4337e-06	1152.4	218.75	2.854e-06	4.7272e-07	278.06	78.837	61.679	18.019	3.3621e-06	25.207	0.00036866	0.00038247	0.00010248	1042.1	4.1948e-06	3.9835e-06	1139.1	217.88	4.0394e-06	4.0832e-06	278.42	79.18	61.869	18.333	3.924e-06	25.693	287.572	289.942	259.287	143.287	307.926	303.534	142.900	150.677	300.283	380.018	150.443	157.807	157.230	164.704	289.997	163.725	-8191	255	
25119.896	1	1	0	0	0.071158	0.066772	0.069153	0.16799	0.039683	0.16476	0.24801	0.043258	0.1139	0.12054	0.085149	0.15603	0.27224	0.088723	0.19956	0.22749	-3.0146	-2.6896	-3.4292	-3.2229	-2.7708	-3.4062	-3.0667	-3.1458	-3.4479	-2.8063	-3.4896	-3.1646	-2.9354	-3.6063	-2.9396	-3.0438	254.225	368.007	368.649	429.612	284.432	419.736	398.933	489.642	236.715	213.282	434.734	473.701	445.880	391.338	463.718	332.774	0.00036342	0.00024528	2.156e-05	1052.2	4.3074e-06	3.8097e-06	1148.7	218.06	3.2459e-06	3.0591e-06	279.74	79.638	62.003	17.933	4.5225e-06	24.982	0.00035405	0.00037285	9.7009e-05	1037.7	3.9412e-06	4.0244e-06	1134.4	217.3	4.0257e-06	3.9775e-06	278.46	79.305	61.888	18.29	4.0264e-06	25.583	288.977	254.528	220.035	142.964	347.974	306.182	143.261	150.849	301.634	325.143	150.443	157.330	157.628	164.172	274.553	164.159	-8191	255	
25119.992	1	1	0	0	0.22306	0.15447	0.14141	0.23282	0.23723	0.16731	0.43709	0.1045	0.095004	0.16161	0.082024	0.01609	0.063951	0.09009	0.19189	0.24003	-3.3208	-2.7167	-3.3875	-3.4354	-2.8771	-3.4688	-3.075	-2.8354	-3.4604	-2.7062	-3.4208	-3.4229	-2.8	-3.4208	-3.0333	-2.7938	141.026	161.214	159.345	368.382	324.578	139.399	436.362	363.893	328.751	317.020	277.658	461.195	227.940	375.285	376.819	354.230	0.00040239	0.00040568	0.0001247	1051.7	4.4152e-06	2.7542e-06	1154.5	219.21	5.5129e-06	3.1096e-06	278.63	78.717	61.179	17.91	1.9238e-06	25.122	0.00036466	0.00037458	0.00010365	1036.9	4.225e-06	3.9545e-06	1134.5	217.34	3.9741e-06	4.067e-06	278.73	78.803	61.759	18.284	4.0851e-06	25.629	295.706	188.591	229.364	143.134	239.146	263.128	143.193	150.824	304.537	273.153	150.508	157.493	157.683	164.534	373.492	164.227	-8191	255	
25120.088	1	1	0	0	0.10376	0.31365	0.24876	0.16392	0.14301	0.3031	0.1888	0.25365	0.051092	0.1116	0.28535	0.21972	0.038923	0.16541	0.11888	0.24674	-3.1979	-2.6875	-3.2542	-3.6146	-2.7292	-3.5312	-3.2646	-3.1542	-3.55	-3.0104	-3.375	-3.4833	-2.9083	-3.4625	-3.0979	-2.7354	227.557	196.964	362.844	429.007	463.651	415.304	402.550	163.214	375.154	357.148	371.089	486.670	298.448	260.694	423.308	411.697	0.00038653	0.00045983	4.8789e-05	1046.9	4.6338e-06	7.9807e-07	1147.2	218.6	1.9424e-06	3.7137e-06	279.2	78.835	61.747	18.031	6.0821e-06	25.061	0.0003559	0.00037849	0.00010287	1037.9	4.1487e-06	3.8953e-06	1133.1	216.96	3.9903e-06	3.9632e-06	278.27	79.041	61.779	18.318	3.8791e-06	25.598	288.801	230.783	226.687	143.064	294.273	308.517	143.085	150.614	331.735	291.066	150.155	157.835	157.399	164.574	246.114	163.834	-8191	255	
25120.209	1	1	0	0	0.12127	0.16612	0.11821	0.39119	0.22691	0.098415	0.34175	0.025078	0.15977	0.17038	0.17293	0.15129	0.15545	0.13701	0.095322	0.14379	-3.05	-2.8896	-3.0563	-3.5354	-2.8	-3.3646	-3.4896	-2.7875	-3.6229	-2.9854	-3.1021	-3.5979	-2.8021	-3.4167	-3.2938	-2.8937	207.319	480.257	280.056	142.512	162.018	361.882	465.918	410.271	468.816	415.057	397.189	461.338	412.400	191.434	268.391	425.616	0.00037011	0.00019289	0.00014413	1054.2	3.6871e-06	2.7871e-06	1151.8	218.23	2.6833e-06	2.8862e-06	277.54	79.256	61.963	17.848	4.1267e-06	25.332	0.00036058	0.000362	0.00010115	1040	4.0221e-06	3.8377e-06	1133.3	216.3	3.8216e-06	3.8911e-06	277.51	78.97	61.779	18.274	3.7614e-06	25.645	285.022	263.555	204.379	143.157	259.916	285.144	143.144	150.614	328.670	259.780	150.410	157.654	157.650	164.717	278.919	163.820	-8191	255	
25120.279	1	1	0	0	0.22747	0.19622	0.12184	0.26241	0.08974	0.10357	0.38675	0.16763	0.039579	0.2858	0.33929	0.12409	0.061336	0.01282	0.1412	0.1761	-3.0896	-3.1312	-3.1208	-3.6792	-2.7833	-3.3875	-3.4458	-2.9042	-3.4417	-3.2375	-3.0187	-3.6188	-2.9813	-3.3792	-3.4896	-2.9479	194.750	420.432	337.582	478.714	348.251	340.065	373.743	464.756	421.651	249.727	221.908	370.243	377.537	350.404	286.906	373.794	0.0004346	0.00038649	0.00010201	1051.8	6.5846e-06	1.3254e-06	1151.2	218.51	6.5458e-06	3.3307e-06	279.95	79.859	61.413	18.065	6.29e-06	25.186	0.00035311	0.00036027	0.00010217	1038	4.057e-06	3.8916e-06	1133.7	217.02	3.9173e-06	3.8265e-06	278.02	78.959	61.749	18.283	3.756e-06	25.589	287.525	203.706	221.677	143.172	284.727	299.480	143.205	150.955	309.903	254.090	150.213	157.556	157.633	164.466	297.862	163.195	-8191	255	
25120.400	1	1	0	0	0.086548	0.090042	0.31424	0.09672	0.31063	0.061336	0.075897	0.16973	0.3692	0.1536	0.28888	0.035422	0.12042	0.062696	0.32395	0.18433	-3.0312	-3.0646	-2.775	-3.6396	-2.7854	-3.1708	-3.575	-2.825	-3.3812	-3.2979	-2.8896	-3.6021	-3.025	-3.2792	-3.5208	-2.95	470.187	133.233	272.395	290.662	407.463	233.266	298.028	269.100	274.009	297.742	216.092	390.042	489.273	430.938	259.410	134.025	0.00035146	0.00046511	5.9242e-05	1046.1	7.3906e-06	5.2906e-06	1141.7	218.11	4.3219e-06	8.5408e-07	277.04	78.586	61.284	17.895	3.068e-06	24.855	0.00034938	0.00034103	9.4918e-05	1034.9	3.8205e-06	3.7394e-06	1130.2	216.35	3.6766e-06	3.6837e-06	277.3	78.751	61.578	18.29	3.6773e-06	25.404	300.064	213.419	238.676	143.288	285.736	284.448	142.913	150.883	290.702	300.799	150.290	157.789	158.141	164.596	246.560	163.994	-8191	255	
25120.494	1	1	0	0	0.071127	0.15879	0.062569	0.039295	0.092866	0.15321	0.14456	0.07471	0.17512	0.1337	0.1881	0.11712	0.10177	0.034019	0.099165	0.27546	-3.1583	-3.2812	-2.8333	-3.6063	-3.1292	-3.0125	-3.6604	-2.825	-3.3812	-3.4667	-2.8104	-3.5167	-3.1208	-3.2021	-3.6458	-2.8708	458.927	288.351	480.408	168.698	403.884	248.244	405.220	439.210	261.172	322.670	412.907	281.099	389.509	426.681	435.559	350.276	0.00042739	0.00029779	9.7011e-05	1040.8	3.5991e-06	3.4607e-06	1139.2	216.19	4.0951e-06	3.005e-06	277.02	78.438	61.428	17.881	7.0218e-06	24.978	0.00032843	0.00033406	9.4182e-05	1031	3.8726e-06	3.6348e-06	1127.4	215.41	3.5813e-06	3.7478e-06	276.43	78.74	61.497	18.147	3.5804e-06	25.432	285.937	260.764	211.064	143.285	243.351	257.208	143.227	151.041	270.932	265.528	150.335	157.728	157.517	164.865	314.185	163.513	-8191	255	
25120.592	1	1	0	0	0.17148	0.11627	0.14205	0.12455	0.1198	0.27099	0.20798	0.093356	0.30251	0.040946	0.23603	0.31556	0.15246	0.18363	0.13488	0.19523	-2.8312	-3.0417	-2.7333	-3.6979	-3.0729	-3.0625	-3.6333	-2.7458	-3.2125	-3.4917	-2.9292	-3.7687	-3.1729	-2.8021	-3.6188	-2.8625	312.237	460.301	344.169	487.841	296.981	376.887	357.688	480.802	281.863	185.008	193.713	438.819	441.579	169.909	418.484	379.202	0.00041503	0.00018447	0.00010139	1041.2	3.0961e-06	2.2698e-06	1137.8	214.99	4.0523e-06	2.5517e-06	274.07	78.26	60.911	17.672	3.4902e-06	24.818	0.00032905	0.00032171	9.0018e-05	1030	3.4976e-06	3.4772e-06	1122.8	214.39	3.3624e-06	3.323e-06	274.67	78.206	61.35	18.088	3.2927e-06	25.329	291.727	201.852	257.852	143.256	327.091	260.057	143.434	150.857	335.451	288.252	150.258	157.798	157.525	165.129	274.625	164.181	-8191	255	
25120.689	1	1	0	0	0.2151	0.047061	0.091174	0.012974	0.19095	0.18951	0.35912	0.3365	0.30903	0.030715	0.23781	0.18104	0.091252	0.28159	0.12327	0.23955	-2.9083	-3.3563	-2.8396	-3.5208	-3.1729	-2.7958	-3.5792	-2.9333	-3.075	-3.6208	-2.7833	-3.3479	-3.3563	-2.7438	-3.6604	-3.0125	273.152	336.436	360.971	141.673	288.946	156.753	436.717	183.610	415.826	366.684	481.865	166.781	380.375	385.598	254.706	140.392	0.0003977	0.00039154	0.00010846	1031.8	4.7734e-06	2.3186e-06	1127.9	213.6	2.4994e-06	4.3909e-06	274.1	77.524	60.534	17.782	3.4829e-06	24.88	0.00032313	0.00030099	9.0329e-05	1024	3.4442e-06	3.5132e-06	1119.1	213.53	3.4567e-06	3.4925e-06	274.11	78.116	61.017	18.113	3.2628e-06	25.323	295.869	205.521	245.495	143.364	300.245	304.967	143.403	150.824	298.402	271.242	150.670	157.471	157.745	165.048	286.805	164.077	-8191	255	
25120.809	1	1	0	0	0.22464	0.07089	0.18802	0.12752	0.079567	0.16167	0.12934	0.070535	0.14094	0.16333	0.25194	0.10412	0.17768	0.1002	0.19144	0.39451	-2.6813	-3.5812	-2.6646	-3.3812	-3.2438	-2.8333	-3.6479	-2.9729	-3.1979	-3.55	-2.9396	-3.1458	-3.3396	-2.8	-3.5042	-3.15	169.516	397.854	304.524	381.292	444.689	374.519	438.783	402.384	365.703	467.912	488.021	453.375	170.290	447.920	378.667	395.366	0.00040832	0.00022569	0.00010248	1028.5	5.8631e-06	2.7721e-06	1128.4	215.49	2.5992e-06	4.1085e-06	274.67	77.803	60.922	17.655	2.967e-06	25.118	0.00033083	0.00030767	9.3215e-05	1021	3.4249e-06	3.5723e-06	1118.7	214.47	3.5706e-06	3.5153e-06	274.45	78.015	60.993	18.089	3.4184e-06	25.451	285.527	199.715	250.502	143.361	296.317	300.795	143.202	150.971	282.359	272.216	150.120	157.295	157.817	164.996	296.605	164.207	-8191	255	
25120.904	1	1	0	0	0.022422	0.20514	0.19617	0.035976	0.16086	0.20638	0.2729	0.30931	0.29601	0.029238	0.1857	0.29031	0.026511	0.13993	0.089429	0.022768	-2.7042	-3.3521	-2.9125	-3.2771	-3.2812	-2.8771	-3.6583	-3.1167	-2.8875	-3.4583	-2.9938	-3.0583	-3.4437	-2.8729	-3.3042	-3.0896	394.580	409.866	346.121	268.119	466.536	461.294	412.410	407.204	414.135	195.699	464.623	476.976	217.638	476.241	363.443	479.594	0.00039829	0.00020367	7.3169e-05	1044.9	4.5903e-06	2.7807e-06	1147.2	218.07	5.5988e-06	3.3809e-06	277.08	78.786	61.001	17.779	6.1608e-06	25.135	0.00032485	0.00030157	8.7911e-05	1025.6	3.299e-06	3.4836e-06	1124.9	215.27	3.4892e-06	3.3538e-06	275.21	78.455	61.065	18.105	3.2049e-06	25.482	286.153	490.706	222.888	142.803	282.665	257.924	143.097	150.923	291.940	256.215	150.239	157.522	157.685	164.905	281.835	164.298	-8191	255	
25120.977	1	1	0	0	0.037736	0.082954	0.070227	0.38943	0.12684	0.062239	0.093123	0.19885	0.14222	0.19024	0.069166	0.097265	0.046976	0.064449	0.32078	0.11736	-2.3833	-3.4771	-2.8417	-3.2687	-3.425	-2.7292	-3.6208	-3.1542	-2.7792	-3.5229	-3.1104	-3.125	-3.4479	-2.9562	-3.3125	-3.3375	213.872	223.273	242.238	471.220	268.700	455.294	403.431	403.481	432.215	481.343	153.546	428.224	405.380	179.825	202.652	370.585	0.00038128	0.00016894	6.2746e-05	1040.1	4.6315e-06	1.2723e-06	1142.2	216.2	3.2209e-06	2.6183e-06	276.83	78.76	61.384	17.688	4.8466e-06	24.901	0.0003244	0.00031979	8.6594e-05	1027.2	3.36e-06	3.4425e-06	1122	214.12	3.5936e-06	3.3177e-06	275.16	78.343	61.182	18.13	3.4743e-06	25.322	300.230	271.894	256.369	143.236	279.584	255.845	143.260	150.744	309.906	284.499	150.016	157.658	157.573	165.154	293.664	164.243	-8191	255	
25121.098	1	1	0	0	0.33453	0.27237	0.18169	0.15061	0.24077	0.17468	0.13473	0.20243	0.15541	0.29839	0.15013	0.20884	0.066201	0.26751	0.1392	0.19774	-2.3312	-3.4604	-2.9313	-3.0104	-3.4083	-2.9583	-3.3812	-3.3979	-2.7167	-3.4396	-3.1958	-2.9167	-3.6854	-2.9854	-3.3667	-3.5979	359.418	424.242	335.597	234.828	383.974	299.738	489.814	197.579	270.763	340.886	461.520	489.453	431.555	310.916	336.881	443.228	0.00039622	7.0961e-05	0.00011051	1037.9	4.4389e-06	5.0005e-06	1142.1	214.81	3.8386e-06	3.4609e-06	275.31	78.719	61.79	17.715	3.1936e-06	24.89	0.00032646	0.00029689	8.574e-05	1026.1	3.4448e-06	3.4216e-06	1122.5	214.08	3.3612e-06	3.313e-06	274.46	78.684	61.483	18.104	3.2396e-06	25.385	286.807	194.615	225.480	143.352	298.880	285.333	143.205	150.590	296.548	259.561	149.997	157.647	157.610	164.623	295.028	164.142	-8191	255	
25121.193	1	1	0	0	0.22355	0.28313	0.053452	0.19899	0.062664	0.41074	0.3051	0.13445	0.26354	0.17003	0.21837	0.10201	0.022323	0.16119	0.20472	0.22013	-2.3479	-3.4146	-3.1354	-2.925	-3.4562	-2.9625	-3.35	-3.4458	-2.6667	-3.3875	-3.2354	-2.8875	-3.5667	-3.0375	-2.9021	-3.4646	254.976	425.766	266.492	443.852	295.603	354.991	405.051	373.111	468.815	443.786	432.133	187.516	358.011	135.735	393.191	479.567	0.00038662	0.00043509	7.2222e-05	1030.1	5.1414e-06	4.1061e-06	1127.3	216.66	5.6496e-06	2.9032e-06	274.92	78.122	60.965	17.818	3.9413e-06	25.045	0.00031688	0.00029764	8.1898e-05	1024.2	3.299e-06	3.3791e-06	1117.2	214.71	3.3396e-06	3.2922e-06	274.64	78.01	61.121	18.132	3.3826e-06	25.398	289.695	223.337	217.574	143.247	320.921	331.359	143.323	150.730	310.729	263.814	150.474	157.813	157.750	164.372	312.063	163.401	-8191	255	
25121.289	1	1	0	0	0.11676	0.19437	0.19752	0.2481	0.20634	0.17276	0.12469	0.11386	0.1729	0.05004	0.032809	0.11615	0.11569	0.059922	0.18035	0.11492	-2.325	-3.3167	-3.2792	-2.8354	-3.5333	-2.8375	-3.1396	-3.5979	-2.7625	-3.2438	-3.3167	-2.9604	-3.4354	-3.1396	-3.0229	-3.5625	359.319	335.636	206.525	492.286	159.505	479.592	436.287	362.838	306.655	326.304	330.615	242.480	291.865	143.807	491.830	366.556	0.00039857	0.00013069	5.7238e-05	1036.6	2.9017e-06	3.23e-06	1131.9	216.8	1.6609e-06	2.1986e-06	277.24	78.724	61.414	18.024	6.366e-06	25.314	0.00032998	0.00031261	8.6476e-05	1024.9	3.5475e-06	3.3642e-06	1121.3	215.12	3.3816e-06	3.3889e-06	275.14	78.72	61.377	18.237	3.4287e-06	25.586	288.392	162.492	240.907	143.208	306.347	274.365	143.254	151.051	298.475	256.880	150.328	157.215	157.663	164.419	329.830	163.952	-8191	255	
25121.385	1	1	0	0	0.08854	0.15838	0.1754	0.1705	0.12148	0.054237	0.30656	0.19734	0.20119	0.31183	0.35471	0.26867	0.19895	0.23565	0.21008	0.036956	-2.3771	-3.4562	-3.325	-2.9042	-3.5667	-3.0979	-3.0146	-3.6104	-2.8292	-3.2562	-3.5458	-2.9333	-3.4208	-3.2167	-2.8167	-3.7062	198.651	438.531	352.831	161.968	387.017	479.174	422.445	218.921	217.728	254.276	443.732	395.330	197.763	462.357	398.691	374.976	0.00037428	0.00019839	9.8679e-05	1042.9	2.0723e-06	3.6281e-06	1140	217.48	3.6237e-06	4.9632e-06	276.36	78.87	61.663	17.709	2.9935e-06	25.12	0.00031294	0.00030644	8.8679e-05	1028.7	3.4034e-06	3.4493e-06	1125.7	215.08	3.4344e-06	3.3509e-06	275.59	78.702	61.45	18.127	3.3673e-06	25.494	294.718	262.321	249.449	143.106	286.994	290.417	143.060	150.956	307.419	299.875	150.087	157.179	157.804	164.284	238.703	163.853	-8191	255	
25121.504	1	1	0	0	0.074784	0.16395	0.14299	0.34266	0.10848	0.18531	0.23885	0.079433	0.16831	0.33247	0.12886	0.059806	0.042964	0.25675	0.2221	0.32645	-2.3667	-3.1458	-3.4188	-3.0563	-3.3229	-3.2729	-2.9021	-3.5375	-2.9458	-3.0062	-3.5208	-2.8792	-3.4854	-3.0729	-2.7708	-3.6	296.283	428.528	363.799	490.831	323.795	313.710	360.014	178.676	406.794	273.988	458.401	168.273	425.252	143.382	167.524	230.589	0.00038565	0.00033908	0.00014945	1036.5	4.6739e-06	2.9049e-06	1143.9	217.83	3.2872e-06	5.3508e-06	277.55	78.509	61.217	17.888	2.6947e-06	25.118	0.0003119	0.00030143	8.6653e-05	1025.6	3.3639e-06	3.296e-06	1124.6	215.05	3.6105e-06	3.3987e-06	275.82	78.517	61.416	18.165	3.5734e-06	25.467	288.707	243.890	228.987	143.217	284.797	323.714	142.997	150.677	318.840	265.421	150.175	157.578	157.778	164.599	255.459	163.696	-8191	255	
25121.576	1	1	0	0	0.11667	0.1327	0.26209	0.20339	0.37661	0.14815	0.1111	0.23176	0.17506	0.10386	0.27932	0.27681	0.11183	0.03343	0.042	0.12694	-2.525	-2.8438	-3.3146	-2.6875	-3.3521	-3.2938	-2.9667	-3.6042	-3.0979	-3.0792	-3.7146	-2.8937	-3.2792	-3.5312	-2.725	-3.4979	415.491	489.377	321.509	448.392	471.654	187.507	341.857	425.619	166.377	293.819	452.404	372.147	430.873	438.924	231.179	139.634	0.00041201	0.00040241	3.5635e-05	1038.1	5.4619e-06	2.1659e-06	1140.2	217.34	3.2387e-06	4.2954e-06	275.01	79.01	61.179	18.005	3.0597e-06	25.058	0.00032582	0.00031921	8.5643e-05	1026.4	3.3738e-06	3.2075e-06	1125.8	215.25	3.2632e-06	3.4068e-06	275.93	78.809	61.569	18.259	3.2227e-06	25.515	293.449	257.543	214.676	142.912	271.304	290.505	143.082	150.672	309.502	304.059	150.380	157.686	158.030	164.977	322.950	164.095	-8191	255	
25121.672	1	1	0	0	0.10678	0.36176	0.081351	0.28219	0.19413	0.19587	0.2528	0.23738	0.11353	0.058776	0.20112	0.05862	0.025589	0.27692	0.22232	0.1322	-2.6354	-2.8625	-3.6021	-2.9729	-3.25	-3.5208	-2.8937	-3.5083	-3.1125	-2.7667	-3.7021	-2.925	-3.0771	-3.4313	-2.6958	-3.5333	257.661	191.204	441.036	454.446	288.600	214.316	451.428	389.178	151.018	185.638	422.727	430.402	382.269	389.756	194.647	362.973	0.00040722	0.00034957	0.00012219	1032.9	3.7483e-06	3.5873e-06	1138.9	216.22	4.3735e-06	1.226e-06	277.79	79.076	61.235	17.925	2.5928e-06	25.21	0.00031384	0.00030459	8.3246e-05	1028.6	3.3988e-06	3.3762e-06	1125.2	215.68	3.3169e-06	3.5049e-06	276.87	78.941	61.601	18.214	3.5054e-06	25.601	287.486	235.052	227.440	143.130	290.096	291.928	143.229	150.751	312.529	225.725	150.187	157.387	157.951	164.564	337.247	163.838	-8191	255	
25121.770	1	1	0	0	0.19018	0.11494	0.062902	0.33384	0.054697	0.13717	0.22253	0.31767	0.17323	0.24607	0.10229	0.25584	0.092825	0.093788	0.11736	0.14174	-2.8979	-2.9021	-3.5292	-3.1292	-3.0833	-3.3667	-2.9542	-3.5396	-3.2271	-2.7542	-3.5479	-3.0729	-3.0521	-3.6458	-2.7375	-3.4292	221.748	212.886	217.919	482.064	421.885	267.400	317.911	282.660	198.894	367.575	485.660	201.225	488.639	323.297	281.211	145.799	0.00036988	0.00012077	8.6101e-05	1044.1	3.9228e-06	5.0821e-06	1148.2	218.55	2.3193e-06	4.8238e-06	278.42	79.22	61.639	18.125	1.3401e-06	25.063	0.00032761	0.00032783	9.0738e-05	1030.6	3.6006e-06	3.5414e-06	1130	216.33	3.5603e-06	3.6372e-06	277.13	78.905	61.752	18.312	3.3607e-06	25.577	291.231	165.857	223.983	143.101	285.001	298.146	143.058	150.713	294.476	247.944	150.086	157.242	157.678	164.751	258.793	163.938	-8191	255	
25121.889	1	1	0	0	0.15494	0.35114	0.070617	0.069508	0.11322	0.17745	0.25528	0.14587	0.19292	0.21699	0.085276	0.12236	0.19861	0.089926	0.21843	0.11264	-2.9396	-2.8729	-3.3708	-3.2062	-2.8979	-3.6146	-2.8958	-3.3354	-3.4417	-2.8521	-3.3729	-3.2333	-2.9562	-3.5083	-2.8333	-3.0646	402.896	439.907	283.814	197.572	283.711	223.918	439.850	484.496	207.688	225.187	492.435	379.075	433.602	400.944	375.891	365.512	0.00038257	0.00046149	3.2343e-06	1048.8	5.2163e-06	2.5963e-06	1146.1	218.21	2.7341e-06	1.8535e-06	279.71	78.565	61.506	17.878	4.5385e-06	25.196	0.00034073	0.00032652	9.1248e-05	1034.6	3.6335e-06	3.4284e-06	1129.2	216.87	3.6728e-06	3.6344e-06	277.68	78.749	61.536	18.236	3.5938e-06	25.617	294.169	230.042	265.489	143.003	307.226	294.761	143.213	151.137	309.673	351.122	150.327	157.386	157.548	164.575	331.665	163.973	-8191	255	
25121.984	1	1	0	0	0.15146	0.093609	0.083287	0.14393	0.13759	0.24812	0.48105	0.18722	0.073805	0.28026	0.25827	0.17695	0.1736	0.23127	0.16224	0.092987	-2.9708	-2.8937	-3.35	-3.3229	-2.9125	-3.6417	-3.0083	-3.2479	-3.5042	-2.775	-3.3438	-3.2625	-2.7542	-3.4542	-2.7521	-3.0042	304.497	334.517	365.891	426.486	411.859	142.358	419.242	165.183	441.852	453.858	400.158	407.481	355.433	143.603	299.523	293.699	0.00039939	0.00044656	5.1101e-05	1046.2	5.7937e-06	1.7218e-06	1146.5	220.27	4.3766e-06	5.7309e-06	277.35	78.778	61.749	18.025	2.5166e-06	25.252	0.00033827	0.00032975	8.9459e-05	1030.2	3.6185e-06	3.6358e-06	1128	216.79	3.62e-06	3.7263e-06	276.94	78.948	61.691	18.271	3.5644e-06	25.657	286.237	236.770	218.879	143.037	267.224	243.749	143.015	150.731	333.011	281.355	150.093	157.412	157.776	164.499	307.608	163.604	-8191	255	
25122.080	1	1	0	0	0.09866	0.081865	0.15516	0.15582	0.30216	0.13234	0.15324	0.21738	0.27914	0.10517	0.063832	0.31596	0.0055638	0.29726	0.17376	0.24155	-3.0292	-2.7792	-3.3333	-3.3688	-2.625	-3.6542	-3.0687	-3.1562	-3.6083	-2.825	-3.4167	-3.3417	-2.8979	-3.6729	-3.0396	-2.9396	286.003	137.452	480.222	463.742	201.061	199.697	443.080	358.574	338.841	309.164	181.982	475.895	177.899	262.386	457.947	398.444	0.00044559	0.00031385	8.1112e-05	1041.4	6.7705e-06	4.8071e-06	1151.3	217.52	4.6158e-06	4.9718e-06	278.67	79.275	61.669	17.979	4.5096e-06	25.041	0.0003399	0.00034736	8.9862e-05	1032	3.5899e-06	3.5352e-06	1131.6	216.16	3.5235e-06	3.4991e-06	277.33	78.856	61.843	18.296	3.6958e-06	25.631	286.184	224.073	252.550	143.187	280.061	295.074	142.932	150.689	323.024	278.969	149.919	157.553	157.677	164.720	320.494	163.676	-8191	255	
25122.178	1	1	0	0	0.060542	0.22123	0.14447	0.099025	0.14552	0.09056	0.18758	0.11479	0.11068	0.11339	0.071959	0.14934	0.10297	0.24836	0.0063661	0.20022	-3.1562	-2.7771	-3.2229	-3.3792	-2.6625	-3.3438	-3.0563	-2.8979	-3.5812	-2.9354	-3.2313	-3.4875	-2.7229	-3.1854	-3.1104	-2.7687	492.680	217.135	186.887	434.594	198.192	223.019	177.339	344.651	155.029	403.051	480.678	389.350	277.383	199.748	272.856	446.892	0.00041863	0.00045201	0.00010211	1050.7	3.0163e-06	4.2079e-06	1144	217.28	1.5856e-06	5.5643e-06	278.81	78.959	61.758	18.143	5.2595e-06	25.173	0.00033166	0.00032621	8.7809e-05	1034.8	3.6166e-06	3.4934e-06	1132.3	216.68	3.4638e-06	3.5302e-06	277.97	79.076	61.842	18.356	3.5112e-06	25.645	292.189	199.343	251.701	143.075	263.574	285.376	143.083	150.882	278.215	283.532	150.350	157.404	158.022	164.462	247.083	164.004	-8191	255	
25122.273	1	1	0	0	0.14827	0.2421	0.072086	0.17005	0.23678	0.17535	0.29936	0.20191	0.050707	0.053214	0.029957	0.060343	0.28495	0.21017	0.11518	0.084306	-3.1854	-2.6813	-3.1458	-3.5021	-2.7292	-3.4396	-3.55	-2.9417	-3.6312	-3.1188	-2.9604	-3.5583	-2.8167	-3.2417	-3.2917	-2.8042	428.921	367.473	267.647	347.209	159.280	167.548	409.430	414.926	306.502	302.111	427.779	360.154	437.174	336.568	340.777	394.226	0.00037954	0.00036952	7.7101e-05	1058.9	6.401e-06	4.4729e-06	1158.3	220.02	5.8138e-06	2.753e-06	282.26	79.968	62.784	18.249	3.0008e-06	25.374	0.00030945	0.00032948	9.0104e-05	1038.4	3.6077e-06	3.4188e-06	1137.3	217.67	3.5184e-06	3.5066e-06	279.04	79.53	62.201	18.403	3.4599e-06	25.749	290.750	295.585	214.103	142.622	290.458	300.572	142.909	150.524	308.551	279.600	150.388	157.129	157.112	164.819	321.393	163.821	-8191	255	
25122.369	1	1	0	0	0.16718	0.11066	0.13616	0.23365	0.034873	0.065528	0.24874	0.36414	0.18699	0.24586	0.25177	0.16837	0.15084	0.19683	0.087084	0.24114	-3.1042	-3.0229	-2.9458	-3.5771	-2.6125	-3.3646	-3.5625	-3.0542	-3.3667	-3.1271	-3.3646	-3.6146	-2.9562	-3.3375	-3.5167	-3.1021	233.360	329.670	464.100	491.358	172.785	376.102	449.540	144.985	199.271	135.014	361.618	370.868	424.655	294.152	237.221	488.510	0.00040303	0.00044195	4.6503e-05	1053.4	9.8557e-07	2.0402e-06	1159.3	219.97	4.9274e-06	5.7588e-06	282.84	80.24	62.075	18.108	3.4096e-06	25.448	0.00033525	0.00032506	9.293e-05	1039.1	3.4511e-06	3.3293e-06	1138.1	218.06	3.2588e-06	3.5408e-06	279.41	79.66	62.053	18.422	3.2567e-06	25.778	293.501	220.377	222.764	143.148	330.546	302.795	142.526	150.604	304.454	324.389	150.367	157.085	157.336	164.474	242.215	163.428	-8191	255	
25122.490	1	1	0	0	0.1075	0.27763	0.054692	0.088661	0.12574	0.24374	0.063121	0.18553	0.094242	0.092521	0.15825	0.1657	0.045308	0.23472	0.15408	0.21887	-3.0958	-3.0333	-2.9375	-3.5646	-3.1354	-3.2958	-3.6667	-2.9521	-3.6562	-3.3187	-3.0583	-3.5667	-3.0792	-3.225	-3.5646	-2.9521	325.197	179.964	478.585	163.073	369.753	333.169	189.078	276.588	201.415	425.516	408.778	251.249	181.579	400.304	149.118	284.811	0.00037745	0.00033298	6.7966e-05	1052.9	3.6475e-06	2.0892e-06	1157.3	219.02	4.2977e-06	4.6897e-06	280.59	79.712	61.423	17.927	3.8624e-06	25.306	0.00032813	0.00031013	8.7658e-05	1038.8	3.4471e-06	3.3397e-06	1137.8	217.09	3.3578e-06	3.3292e-06	278.35	79.539	61.813	18.348	3.3451e-06	25.644	289.309	245.729	280.423	142.963	277.275	313.642	142.992	150.643	312.955	287.686	150.314	157.219	157.800	164.294	309.757	163.857	-8191	255	
25122.584	1	1	0	0	0.13139	0.11258	0.21405	0.29786	0.11898	0.10624	0.025734	0.21329	0.17592	0.20489	0.10893	0.26472	0.10771	0.076354	0.10374	0.22209	-3.1125	-3.2417	-2.9271	-3.7062	-2.9292	-3.0979	-3.6958	-3.1771	-3.4375	-3.4125	-3.0667	-3.6604	-3.0854	-3.15	-3.6437	-3.0479	387.091	440.069	413.047	154.809	309.647	400.158	285.759	487.763	231.582	360.348	134.423	164.897	157.364	446.664	181.068	396.876	0.0003633	0.00046192	5.8219e-05	1055.7	5.6928e-06	4.6246e-06	1157.3	219.41	4.9525e-06	4.8447e-06	279.46	79.516	61.793	17.922	2.849e-06	25.157	0.00032844	0.00032089	9.02e-05	1038.2	3.5696e-06	3.5768e-06	1133	216.83	3.44e-06	3.5721e-06	277.73	79.01	61.681	18.269	3.5338e-06	25.526	296.322	255.796	190.882	143.230	289.270	289.013	143.106	150.374	308.718	288.134	149.836	157.445	157.766	164.344	297.556	164.020	-8191	255	
25122.682	1	1	0	0	0.16667	0.051485	0.23762	0.19486	0.092103	0.30668	0.22168	0.37323	0.23681	0.22486	0.10412	0.22511	0.18739	0.12032	0.10949	0.19828	-2.8667	-3.4375	-2.8896	-3.7583	-3.0604	-3.1729	-3.9437	-3.0792	-3.2604	-3.4854	-2.9792	-3.6208	-3.2729	-3.0792	-3.6104	-3.0375	239.247	445.181	330.784	140.965	255.238	415.720	458.428	408.550	416.832	134.432	482.528	478.964	465.483	138.257	341.120	413.739	0.00037247	0.0004769	3.0632e-05	1037.6	4.2106e-06	3.4682e-07	1146.3	217.68	8.4429e-07	1.8191e-06	278.61	78.811	61.105	17.894	4.8032e-06	25.026	0.00032953	0.0003287	9.1775e-05	1028.8	3.6749e-06	3.6156e-06	1125.1	215.58	3.7264e-06	3.6084e-06	276.85	78.412	61.143	18.176	3.6563e-06	25.383	289.496	247.530	149.959	143.179	295.529	256.689	143.444	150.846	295.431	277.189	150.445	158.004	157.767	165.030	297.221	164.457	-8191	255	
25122.801	1	1	0	0	0.052703	0.15903	0.1144	0.23993	0.13014	0.23604	0.21391	0.19001	0.1227	0.11669	0.26292	0.09026	0.1038	0.13089	0.033061	0.4529	-2.9354	-3.6208	-2.9604	-3.6646	-3.3667	-2.9792	-3.7979	-2.8937	-3.2458	-3.6125	-2.9458	-3.3958	-3.3333	-3.0333	-3.7062	-3.0417	217.400	490.418	383.874	453.661	287.330	402.687	389.948	455.921	193.333	273.813	456.207	400.926	363.634	367.226	395.134	389.839	0.00036435	0.00041516	0.0001224	1039.1	4.4538e-06	1.7616e-06	1144.3	217.59	2.9547e-06	5.3607e-06	277.33	78.144	61.505	17.787	6.2907e-06	24.923	0.00034087	0.00033506	9.6423e-05	1029.1	3.682e-06	3.7484e-06	1125.5	215.09	3.8389e-06	3.6674e-06	276.32	78.409	61.542	18.169	3.6423e-06	25.381	291.839	227.016	258.859	142.865	307.406	286.555	142.956	150.689	328.816	306.382	150.388	157.861	157.407	165.225	319.936	164.275	-8191	255	
25122.873	1	1	0	0	0.072061	0.25165	0.076907	0.1786	0.095496	0.19688	0.13563	0.22515	0.28094	0.12444	0.056929	0.14093	0.17845	0.11244	0.050839	0.16503	-2.7167	-3.6292	-2.7708	-3.5896	-3.4771	-3.0625	-3.7583	-3.2583	-3.1	-3.6708	-3.1	-3.5979	-3.4062	-3.0333	-3.5625	-3.3479	171.332	422.114	237.282	447.064	436.495	328.845	421.785	437.260	439.326	265.194	418.316	270.244	371.061	456.410	154.163	268.533	0.00036707	0.00011224	7.5518e-05	1040.1	4.6274e-06	3.6296e-07	1145.4	217.55	2.4927e-06	3.5537e-06	278.47	78.787	61.311	17.925	4.0393e-06	25.022	0.00034331	0.00033304	9.0146e-05	1029.6	3.5613e-06	3.3747e-06	1128.3	215.38	3.544e-06	3.5468e-06	276.39	78.589	61.347	18.167	3.3659e-06	25.42	295.311	267.350	183.781	143.421	281.171	326.340	143.133	150.759	329.326	254.365	149.983	157.663	157.566	164.584	239.929	163.915	-8191	255	
25122.969	1	1	0	0	0.14392	0.12606	0.18596	0.072954	0.086019	0.10549	0.30618	0.076439	0.10784	0.13269	0.093905	0.14149	0.26343	0.18575	0.23512	0.22924	-2.7771	-3.6979	-3.0333	-3.4958	-3.4896	-2.9437	-3.8625	-3.2896	-2.9667	-3.6146	-3.0812	-3.3167	-3.65	-3.0896	-3.6271	-3.4396	204.863	231.108	313.466	345.070	368.049	264.382	396.805	213.786	295.769	327.435	147.755	241.856	343.692	334.123	185.553	219.272	0.00040643	0.0002213	4.7801e-05	1042	5.177e-06	3.3307e-06	1144.7	215.99	4.6653e-06	2.6943e-06	273.94	78.715	61.46	17.773	5.0829e-06	24.797	0.00032316	0.0003144	8.5375e-05	1031.5	3.4805e-06	3.539e-06	1128.5	215.27	3.4338e-06	3.3592e-06	275.75	78.675	61.558	18.154	3.3189e-06	25.481	296.147	206.248	215.827	143.138	289.662	244.787	143.422	150.944	319.965	325.883	150.390	157.920	157.547	164.884	268.003	164.335	-8191	255	
25123.064	1	1	0	0	0.29312	0.27618	0.11566	0.17457	0.053487	0.25859	0.27128	0.21802	0.068296	0.088837	0.23529	0.14463	0.18555	0.020103	0.031804	0.2901	-2.5333	-3.6604	-3.1979	-3.3229	-3.5812	-3.0146	-3.6583	-3.4854	-3	-3.6625	-3.3354	-3.275	-3.6729	-2.9458	-3.4938	-3.5083	446.735	426.304	398.709	382.828	141.501	459.708	412.560	401.117	286.594	336.922	428.119	473.400	433.382	277.021	223.371	235.191	0.00037845	0.00026129	6.4412e-05	1045.1	4.0358e-06	4.1284e-06	1150.8	216.27	4.3179e-06	1.4139e-06	275.86	78.697	61.38	17.917	4.103e-06	25.215	0.00034078	0.00029924	8.9448e-05	1032.7	3.4945e-06	3.5599e-06	1132.8	215.15	3.5609e-06	3.4215e-06	276.27	78.63	61.686	18.268	3.3331e-06	25.603	289.551	252.818	263.509	143.159	293.604	330.283	143.157	150.668	293.466	261.634	150.201	157.344	157.548	164.512	260.788	163.823	-8191	255	
25123.186	1	1	0	0	0.22709	0.15324	0.1932	0.28841	0.27916	0.23758	0.10664	0.14547	0.20767	0.15759	0.1037	0.03205	0.16774	0.053137	0.11628	0.09623	-2.5479	-3.5792	-3.3875	-3.05	-3.5521	-3.0896	-3.6375	-3.6875	-2.8854	-3.7458	-3.2188	-3.0542	-3.5729	-2.9521	-3.4354	-3.5021	213.279	299.135	487.677	468.664	169.291	202.442	340.159	142.043	390.213	386.888	382.376	420.163	478.777	265.478	403.434	143.399	0.00040006	0.00044896	5.4316e-05	1044	4.7413e-06	3.3166e-06	1152.1	218.85	3.0548e-06	4.0767e-06	276.95	78.892	61.854	18.02	3.2636e-06	25.145	0.00032797	0.00031209	8.5552e-05	1035.4	3.574e-06	3.5473e-06	1132.7	216	3.4614e-06	3.4842e-06	276.7	78.946	61.809	18.276	3.5019e-06	25.589	289.797	232.237	287.262	143.271	288.878	283.372	143.063	150.517	301.735	304.664	150.027	157.791	157.533	164.977	305.675	163.793	-8191	255	
25123.281	1	1	0	0	0.080819	0.18718	0.18297	0.16044	0.24872	0.022095	0.28481	0.21424	0.15192	0.23281	0.1382	0.098553	0.37088	0.074892	0.29203	0.098277	-2.5375	-3.425	-3.1417	-3.1521	-3.7417	-3.1125	-3.325	-3.6167	-2.9604	-3.7271	-3.4167	-3.0833	-3.6354	-3.0708	-3.1583	-3.5938	372.826	148.096	443.126	297.446	190.442	269.621	377.147	295.029	468.873	391.311	422.174	301.035	447.143	423.783	389.891	478.616	0.00035248	0.00034093	3.0506e-05	1045.4	1.5811e-06	2.7649e-06	1152.8	219.39	4.539e-06	2.9406e-06	277.55	79.399	62.098	18.046	2.8635e-06	25.564	0.00034078	0.00032666	8.6578e-05	1034.4	3.4996e-06	3.5469e-06	1133.5	216.51	3.7226e-06	3.5733e-06	277.41	79.113	61.852	18.348	3.4895e-06	25.768	296.146	244.600	262.465	143.339	272.170	284.591	143.000	150.627	305.297	227.499	150.404	157.293	157.402	164.860	267.429	163.866	-8191	255	
25123.379	1	1	0	0	0.14029	0.095728	0.16837	0.1188	0.22991	0.28334	0.21058	0.11175	0.024366	0.13479	0.13737	0.11324	0.14835	0.088594	0.22247	0.26421	-2.5604	-3.4604	-3.1813	-3.0792	-3.7062	-3.0958	-3.3875	-3.7479	-2.9979	-3.4562	-3.5021	-2.9562	-3.5583	-3.1167	-3.0958	-3.6771	199.411	256.128	372.857	143.606	427.605	372.600	426.237	414.754	166.024	174.806	302.573	344.531	356.897	341.634	373.760	438.245	0.00036585	0.00044947	6.342e-05	1052.5	5.7696e-06	5.0116e-06	1147.1	218.8	3.5662e-06	4.0283e-06	279.12	79.403	61.986	18.001	2.9448e-07	25.211	0.00033284	0.00031186	9.1307e-05	1037.9	3.4779e-06	3.5218e-06	1136.1	216.44	3.5104e-06	3.3945e-06	277.88	79.197	61.87	18.332	3.2385e-06	25.643	287.383	219.863	234.997	142.916	230.545	305.998	143.375	150.825	286.494	259.858	150.102	157.425	157.653	164.744	351.632	163.858	-8191	255	
25123.449	1	1	0	0	0.11732	0.034456	0.078226	0.058845	0.16625	0.20926	0.30719	0.29989	0.22735	0.054836	0.091386	0.042434	0.17503	0.20761	0.37076	0.096853	-2.5354	-3.4437	-3.4896	-2.9396	-3.7021	-3.1958	-3.2229	-3.8167	-2.9271	-3.3833	-3.5833	-2.8333	-3.7042	-3.3021	-2.9604	-3.7729	143.744	479.099	276.225	463.322	389.543	375.552	488.716	430.646	384.023	422.014	145.231	264.230	145.881	443.563	444.970	434.436	0.0003821	9.1978e-05	6.7017e-05	1051.1	3.5365e-06	2.3034e-06	1147	218.86	2.0837e-06	2.8943e-06	278.89	79.6	61.637	17.869	1.82e-06	24.854	0.00031457	0.00031286	8.653e-05	1039.9	3.4469e-06	3.5132e-06	1133.8	216.76	3.3773e-06	3.4185e-06	277.33	79.086	61.811	18.287	3.4648e-06	25.599	289.916	261.144	226.984	143.248	327.104	269.191	143.094	150.674	315.238	299.643	150.676	157.221	157.808	164.922	266.531	164.386	-8191	255	
25123.568	1	1	0	0	0.041377	0.15468	0.083963	0.11911	0.073073	0.064566	0.14837	0.29485	0.076246	0.2485	0.13564	0.059936	0.029787	0.034921	0.18587	0.27326	-2.6646	-3.2292	-3.4604	-3.0812	-3.5208	-3.3063	-3.1937	-3.8042	-3.1437	-3.2521	-3.7417	-3.0125	-3.5812	-3.2875	-3.0438	-3.7479	155.113	332.030	248.487	451.197	362.526	333.426	424.785	416.663	425.313	324.291	395.098	304.298	135.384	327.974	344.960	427.630	0.00037777	0.00027128	9.001e-05	1048.5	2.4725e-06	1.4736e-06	1138.7	216.59	4.3187e-06	3.1309e-06	274.43	77.966	60.801	17.693	3.451e-06	24.903	0.00033231	0.00031842	8.5079e-05	1036.3	3.5018e-06	3.3977e-06	1130.6	215.71	3.3717e-06	3.4321e-06	276.33	78.774	61.535	18.218	3.463e-06	25.601	288.713	276.459	246.862	143.207	326.858	227.473	143.427	151.153	316.001	293.443	150.378	157.711	158.070	164.915	282.912	163.945	-8191	255	
25123.664	1	1	0	0	0.21216	0.30125	0.21403	0.17709	0.19214	0.18032	0.18473	0.17362	0.211	0.026976	0.13571	0.24951	0.16297	0.20377	0.12453	0.07922	-2.7542	-3.1437	-3.6813	-3.2875	-3.5312	-3.3417	-3.1708	-3.675	-3.1312	-2.9833	-3.7771	-2.9188	-3.4375	-3.6479	-2.9229	-3.6854	142.904	297.694	166.909	375.900	292.615	269.956	363.896	424.794	298.776	357.935	424.099	386.258	238.223	384.430	271.133	329.345	0.00044627	0.00026641	8.5039e-05	1030.5	3.5138e-06	1.3178e-06	1136.9	214.65	4.2897e-06	3.5469e-06	276.11	78.378	60.786	17.694	3.9263e-06	24.708	0.00032187	0.00031735	8.6374e-05	1032.1	3.4444e-06	3.4222e-06	1128.7	214.93	3.435e-06	3.5723e-06	276.58	78.767	61.543	18.25	3.4846e-06	25.482	285.962	208.765	215.646	143.334	244.406	264.616	143.389	150.930	335.149	282.116	150.617	157.750	158.165	164.953	290.429	164.049	-8191	255	
25123.762	1	1	0	0	0.15777	0.10647	0.12911	0.034505	0.043167	0.20235	0.22909	0.071244	0.3085	0.19541	0.087944	0.25239	0.29392	0.089866	0.28467	0.22385	-2.875	-2.9062	-3.65	-3.15	-3.4125	-3.5958	-3.05	-3.6208	-3.2167	-3.0854	-3.7604	-3.0312	-3.2188	-3.6458	-2.95	-3.8146	321.323	473.553	145.884	140.719	394.379	403.478	356.712	174.773	433.554	305.681	246.358	325.470	155.031	282.354	469.166	163.454	0.00038895	0.00027775	5.0471e-05	1040.4	4.7692e-06	5.5301e-06	1138.4	215.65	3.6889e-06	2.6438e-06	275.25	78.823	61.195	17.865	2.8017e-06	25.061	0.00032263	0.00031432	8.7175e-05	1035.3	3.5274e-06	3.5265e-06	1130	215.68	3.4999e-06	3.451e-06	276.06	78.807	61.916	18.251	3.4178e-06	25.593	289.171	242.445	242.862	143.327	318.492	263.657	143.219	151.191	297.766	288.235	150.694	158.026	158.084	165.402	245.552	163.738	-8191	255	
25123.883	1	1	0	0	0.2331	0.26025	0.1298	0.17481	0.05957	0.091701	0.046738	0.17943	0.24611	0.12557	0.19065	0.27744	0.2276	0.19111	0.097453	0.089352	-2.9167	-2.7771	-3.6083	-3.0104	-3.2062	-3.5958	-3.175	-3.6375	-3.4146	-3.0625	-3.8458	-3.1917	-3.1354	-3.6875	-2.925	-3.5125	448.280	275.528	420.125	459.209	482.527	250.405	354.883	430.719	218.821	162.390	139.679	145.563	424.435	205.746	334.686	309.410	0.00034154	0.00036222	5.0229e-05	1035.3	3.2227e-06	1.742e-06	1139.8	217.86	2.6109e-06	4.1647e-06	275.98	79.119	61.661	17.976	5.6975e-07	25.023	0.00032585	0.00033029	8.7094e-05	1035.1	3.487e-06	3.4542e-06	1132.4	216.76	3.4275e-06	3.6044e-06	277.52	79.219	62.041	18.334	3.3496e-06	25.584	286.899	191.809	197.192	143.317	269.342	333.824	143.211	150.793	342.199	264.133	150.572	157.290	158.228	164.983	362.821	163.964	-8191	255	
25123.979	1	1	0	0	0.29813	0.10007	0.079206	0.19913	0.023841	0.021589	0.18215	0.20767	0.23196	0.17009	0.14345	0.20629	0.29761	0.023336	0.11016	0.15046	-3.0208	-2.9646	-3.5771	-3.1729	-3.0521	-3.5938	-3.1104	-3.3583	-3.4271	-2.8854	-3.7021	-3.3479	-3.0729	-3.7604	-3.0354	-3.1625	379.112	146.548	163.653	446.961	161.591	217.708	170.959	487.311	283.426	412.904	407.461	412.185	182.555	454.294	439.754	465.217	0.00043126	0.00027713	7.2446e-05	1044.6	4.8885e-06	2.7083e-06	1147.6	216.65	2.9792e-06	3.1978e-06	273.41	78.488	61.087	17.711	4.4834e-06	24.915	0.00033167	0.00032258	8.9125e-05	1037.6	3.6992e-06	3.5314e-06	1137.6	216.53	3.5281e-06	3.5525e-06	276	79.028	61.759	18.29	3.5394e-06	25.651	287.028	197.692	267.980	143.344	248.006	307.732	143.265	150.986	333.336	302.711	150.849	157.884	158.033	165.033	294.503	163.742	-8191	255	
25124.074	1	1	0	0	0.13426	0.18519	0.30665	0.113	0.10002	0.16428	0.26679	0.28751	0.054761	0.1727	0.11219	0.26693	0.26697	0.10262	0.15322	0.084189	-3.3417	-2.8937	-3.6104	-3.4375	-3.0604	-3.7354	-3.2146	-3.3917	-3.6229	-2.8667	-3.6125	-3.3312	-3.0292	-3.5875	-3.0062	-3.2917	331.302	245.794	325.759	154.566	309.557	355.882	435.947	359.638	252.102	401.073	467.578	470.296	264.216	180.831	396.768	481.523	0.00037005	0.00017896	0.00010502	1042	4.6806e-06	1.7645e-06	1136.3	216.26	2.2875e-06	2.4436e-06	275.21	78.552	61.036	17.844	4.9141e-06	25.031	0.00032751	0.00032096	8.8266e-05	1039	3.5181e-06	3.3135e-06	1133.4	216.53	3.496e-06	3.718e-06	276.99	79.287	61.87	18.298	3.5027e-06	25.638	290.188	230.771	245.376	143.357	279.759	299.337	143.508	151.003	301.809	229.823	150.528	157.527	158.194	164.789	315.429	164.216	-8191	255	
25124.170	1	1	0	0	0.20128	0.041288	0.041188	0.15523	0.080532	0.10218	0.23037	0.081362	0.25448	0.2143	0.10664	0.062407	0.12116	0.21731	0.084473	0.1525	-3.1667	-2.8917	-3.4396	-3.4396	-2.8458	-3.75	-3.3521	-3.2125	-3.6396	-3.0021	-3.5646	-3.5125	-2.9833	-3.6042	-3.1813	-3.1146	429.317	192.288	155.729	300.218	375.378	195.791	415.555	164.998	303.555	265.773	397.352	273.742	175.179	197.615	419.145	465.135	0.00045336	0.00034539	4.6603e-05	1040.7	5.6614e-06	9.8874e-07	1139.8	215.78	3.9622e-06	4.256e-06	276.47	78.062	61.47	17.954	2.1881e-06	24.98	0.00033184	0.00032062	9.0297e-05	1036.8	3.7207e-06	3.5e-06	1132.5	216.19	3.6002e-06	3.5944e-06	277.82	79.057	61.973	18.366	3.5483e-06	25.541	297.508	219.236	282.324	143.388	271.287	296.730	142.954	151.076	335.490	307.448	150.564	157.849	157.933	164.769	293.516	164.007	-8191	255	
25124.266	1	1	0	0	0.18076	0.078696	0.23254	0.34722	0.25099	0.070119	0.21785	0.1611	0.21429	0.11431	0.26584	0.10145	0.036396	0.18741	0.056965	0.24663	-3.2479	-2.9	-3.3312	-3.6521	-3.0187	-3.675	-3.375	-3.2229	-3.575	-2.9125	-3.3937	-3.3917	-2.8875	-3.65	-3.1937	-2.9271	225.026	248.410	469.013	144.534	389.156	360.486	438.009	316.310	277.156	240.209	197.036	250.771	283.861	148.814	205.078	350.790	0.00040216	0.00042136	8.3245e-05	1044	4.8117e-06	2.0624e-06	1144.9	217.13	3.4828e-06	6.555e-07	277.64	78.266	61.37	17.897	4.9667e-06	25.059	0.00033039	0.00032927	9.271e-05	1039.6	3.6538e-06	3.6002e-06	1135.5	216.67	3.4964e-06	3.5982e-06	278.42	79.032	62.072	18.367	3.4827e-06	25.629	283.560	186.762	220.623	143.266	282.009	310.291	143.226	150.703	290.433	175.046	150.563	157.835	157.768	164.682	287.501	163.971	-8191	255	
25124.361	1	1	0	0	0.25602	0.1877	0.17098	0.29417	0.21161	0.074687	0.22708	0.16968	0.18848	0.026423	0.14184	0.051278	0.15023	0.17094	0.087566	0.012056	-3.4208	-2.8229	-3.3083	-3.7687	-2.9729	-3.4667	-3.4208	-2.9417	-3.5125	-3.0646	-3.1854	-3.6125	-2.9521	-3.5187	-3.4062	-3.0833	437.232	415.542	258.761	469.523	327.497	168.131	409.218	463.263	189.070	390.171	444.908	481.303	489.017	239.803	313.487	199.846	0.00035336	5.5632e-05	5.076e-05	1047	4.3692e-06	1.9279e-06	1144.8	217.26	4.1219e-06	2.4265e-06	277.23	78.551	61.849	17.888	2.4719e-06	25.106	0.00033027	0.00032373	9.3075e-05	1040.1	3.6398e-06	3.4335e-06	1136.2	216.61	3.4942e-06	3.5459e-06	278.65	79.175	62.141	18.352	3.4541e-06	25.729	293.059	305.708	199.203	142.909	242.940	462.358	143.299	151.152	300.376	239.399	150.669	157.438	157.588	164.708	266.506	164.353	-8191	255	
25124.482	1	1	0	0	0.045861	0.23467	0.1968	0.0086526	0.18522	0.31256	0.23313	0.1962	0.1437	0.041406	0.0025094	0.016775	0.20592	0.18666	0.098472	0.077976	-3.1292	-3.1521	-3.0479	-3.7667	-3.0312	-3.4354	-3.6708	-2.8187	-3.5583	-3.1958	-3.1667	-3.6958	-3.0604	-3.4104	-3.525	-3.0604	155.767	173.913	365.040	432.168	382.352	333.148	424.837	426.274	363.936	405.637	180.000	334.733	405.111	178.944	386.550	220.664	0.00040475	0.00020879	7.3559e-05	1050.1	5.1367e-06	1.6996e-06	1149.5	218.1	4.2477e-06	1.6943e-06	279.88	79.093	61.75	17.981	1.8509e-06	25.068	0.00032489	0.0003058	8.9717e-05	1042.4	3.5596e-06	3.4096e-06	1139.2	217.19	3.5744e-06	3.6131e-06	278.48	79.121	61.905	18.361	3.6023e-06	25.698	291.282	277.769	235.799	143.328	257.061	251.842	143.041	150.707	304.239	324.812	150.353	158.073	157.947	165.268	301.334	163.711	-8191	255	
25124.576	1	1	0	0	0.20183	0.22765	0.21851	0.13294	0.086685	0.073837	0.16547	0.25667	0.25204	0.12756	0.19661	0.28582	0.37787	0.16752	0.11001	0.19539	-3.275	-3.2313	-2.925	-3.7438	-3.1354	-3.4062	-3.6521	-3.0646	-3.4792	-3.3396	-3.2167	-3.7562	-3.0438	-3.2521	-3.6479	-2.8333	329.157	341.101	478.948	403.793	223.450	476.241	416.697	428.372	228.693	403.690	470.929	194.678	168.395	361.273	284.298	154.360	0.00041807	0.00038628	0.00010902	1052.2	3.8953e-06	2.3382e-06	1142.2	216.87	2.5905e-06	3.3351e-06	277.71	79.095	61.604	17.89	3.813e-06	24.888	0.00033406	0.00032135	9.2678e-05	1043.7	3.5862e-06	3.5488e-06	1138	216.84	3.3721e-06	3.471e-06	277.76	79.303	61.979	18.335	3.3341e-06	25.645	292.134	240.489	234.884	143.391	304.482	244.204	143.301	151.057	291.729	237.200	150.456	157.778	157.515	164.863	293.668	164.167	-8191	255	
25124.674	1	1	0	0	0.074161	0.10733	0.085051	0.044711	0.039887	0.26987	0.31034	0.21476	0.14205	0.048661	0.12514	0.26196	0.041989	0.090904	0.025051	0.25591	-3.2104	-3.4	-3.0354	-3.7354	-3.1354	-3.1875	-3.8125	-3.0042	-3.55	-3.3458	-3.1625	-3.6	-2.9479	-3.2042	-3.7125	-3.0958	473.529	179.344	190.955	466.011	374.266	230.865	462.999	369.506	480.452	468.207	206.397	419.020	160.479	314.476	268.015	419.570	0.00041333	0.00036839	4.5888e-05	1047.3	4.6351e-06	3.0114e-06	1151.4	217.83	3.53e-06	3.2561e-06	279.68	79.269	61.663	17.992	2.4274e-06	25.037	0.00032695	0.00032344	9.2801e-05	1041.2	3.7179e-06	3.5857e-06	1139.5	216.83	3.4775e-06	3.4017e-06	278.53	79.289	61.934	18.403	3.4568e-06	25.689	288.343	253.596	392.108	143.277	295.158	367.528	143.333	150.689	289.315	277.541	149.990	157.867	157.657	164.957	253.184	164.479	-8191	255	
25124.744	1	1	0	0	0.19077	0.10234	0.14733	0.11003	0.12129	0.19881	0.088376	0.21667	0.25021	0.13774	0.16825	0.13597	0.26168	0.053638	0.16953	0.18545	-3.0125	-3.3312	-2.8771	-3.5896	-3.1625	-3.0771	-3.8146	-2.9896	-3.4125	-3.4271	-3.0812	-3.5667	-3.2438	-2.9771	-3.6562	-3	153.133	324.391	177.245	422.948	308.930	465.890	422.938	412.183	429.900	411.483	486.754	416.001	165.883	428.037	209.965	153.369	0.0003842	0.00010689	9.1723e-05	1041.9	3.1022e-06	4.2231e-06	1152.6	217.82	3.428e-06	3.0093e-06	276.71	79.166	61.479	18.086	5.9693e-06	25.012	0.00032829	0.00031867	9.2318e-05	1039.5	3.428e-06	3.5891e-06	1138.9	216.98	3.4964e-06	3.4104e-06	277.94	79.447	61.911	18.434	3.3834e-06	25.645	294.164	288.313	230.894	143.515	289.069	278.268	143.210	150.663	320.379	284.778	150.249	157.858	157.097	164.875	316.412	163.903	-8191	255	
25124.865	1	1	0	0	0.17971	0.12075	0.21239	0.077078	0.21346	0.10308	0.018046	0.25831	0.20309	0.054131	0.19519	0.28663	0.41606	0.090692	0.08501	0.2031	-3.0458	-3.4521	-2.8521	-3.675	-3.2687	-2.9562	-3.8917	-2.9437	-3.2521	-3.4042	-3.0958	-3.5917	-3.475	-2.9083	-3.5521	-3.0542	419.396	160.190	271.733	194.111	421.923	182.733	255.125	461.974	338.582	241.031	434.067	155.081	145.611	474.112	371.049	376.503	0.00041015	0.0003426	5.3284e-05	1055.1	4.9125e-06	8.7985e-07	1160.3	219.58	4.6955e-06	3.5796e-06	277.12	79.151	61.119	17.899	5.1915e-06	24.972	0.00033027	0.0003123	9.12e-05	1045.1	3.5069e-06	3.4708e-06	1142.5	217.14	3.5422e-06	3.4327e-06	278.15	79.27	61.875	18.369	3.4417e-06	25.592	295.922	204.095	206.918	143.290	266.110	186.518	142.921	150.632	333.160	217.371	150.226	157.709	157.665	164.507	331.997	163.735	-8191	255	
25124.963	1	1	0	0	0.15271	0.19481	0.2451	0.17009	0.01872	0.1555	0.14611	0.32214	0.13811	0.34658	0.037624	0.12036	0.047511	0.14091	0.15984	0.11804	-2.7313	-3.6792	-2.7979	-3.6437	-3.2521	-2.975	-3.7042	-3.3	-3.225	-3.6167	-3.0125	-3.4083	-3.475	-2.8854	-3.5479	-3.0583	413.452	327.360	197.419	462.903	270.408	213.631	412.448	450.826	488.456	485.512	186.776	371.018	229.945	411.690	241.323	174.345	0.00042959	0.00039286	0.00015754	1052.1	5.0775e-06	2.4093e-06	1155.6	217.09	5.1897e-06	3.6698e-06	277.81	78.709	61.288	18.026	4.3591e-06	25.071	0.00033469	0.00031767	8.9942e-05	1042.6	3.6148e-06	3.5855e-06	1141.1	216.54	3.4632e-06	3.2449e-06	277.7	79.478	61.823	18.406	3.4531e-06	25.653	290.830	229.454	249.019	143.114	291.103	226.460	143.152	150.898	339.496	269.821	150.906	157.706	157.275	164.392	293.795	163.562	-8191	255	
25125.059	1	1	0	0	0.044243	0.21332	0.18491	0.14796	0.23538	0.057405	0.25507	0.20438	0.119	0.019293	0.17138	0.10929	0.13364	0.15252	0.20496	0.30462	-2.6333	-3.6104	-2.95	-3.4521	-3.4938	-2.8438	-3.7125	-3.3833	-2.8812	-3.3854	-3.0854	-3.2625	-3.4958	-2.7417	-3.3958	-3.1458	389.695	171.955	146.536	140.958	219.310	468.761	384.641	420.161	274.540	371.241	138.568	311.144	482.313	404.728	252.796	410.329	0.00040087	0.00037257	0.00010175	1044.7	2.8986e-06	1.6117e-06	1136.9	214.69	2.5171e-06	3.8764e-06	277.27	77.935	61.334	18.04	3.1874e-06	25.163	0.00032246	0.00031844	8.862e-05	1040.3	3.5225e-06	3.5584e-06	1132.8	215.76	3.5313e-06	3.3255e-06	276.82	78.758	61.668	18.279	3.3447e-06	25.576	293.082	287.755	250.454	143.200	310.808	272.433	143.113	151.083	311.169	264.886	150.553	157.811	157.353	164.719	352.188	163.974	-8191	255	
25125.154	1	1	0	0	0.26856	0.031529	0.032191	0.1599	0.15567	0.054352	0.32914	0.083231	0.13476	0.11925	0.24161	0.17745	0.20776	0.024158	0.22733	0.30145	-2.5333	-3.5333	-3.0187	-3.2188	-3.5333	-2.8833	-3.6958	-3.3479	-2.9167	-3.4562	-3.1437	-3.2188	-3.5896	-3.0146	-3.2938	-3.3396	438.103	312.145	464.065	363.361	399.622	464.381	452.366	327.837	491.267	419.212	154.126	249.550	358.856	351.567	329.196	436.624	0.00040815	0.00032193	3.0611e-05	1047.2	1.6357e-06	4.2192e-06	1146.3	217.4	4.4188e-06	3.4504e-06	280.58	79.526	61.89	18.067	7.0127e-06	25.217	0.00032417	0.00030736	8.8395e-05	1036.7	3.4629e-06	3.4171e-06	1130.1	215.63	3.3826e-06	3.4564e-06	277.53	78.941	61.68	18.281	3.2569e-06	25.483	284.471	223.831	252.299	143.028	297.593	247.213	143.266	150.717	308.002	298.569	150.190	157.275	157.873	164.327	284.839	164.082	-8191	255	
25125.250	1	1	0	0	0.14992	0.10142	0.21336	0.14918	0.21779	0.082568	0.12633	0.077316	0.068896	0.1018	0.24403	0.23468	0.076675	0.167	0.14849	0.13375	-2.6354	-3.6375	-3	-3.075	-3.6167	-2.9542	-3.5792	-3.4333	-2.7667	-3.75	-3.175	-3.0771	-3.7646	-2.9479	-3.4458	-3.3875	296.274	231.325	391.889	382.331	392.623	478.151	404.986	368.383	352.901	311.890	354.966	305.846	217.154	174.671	182.773	156.967	0.00041554	0.00036564	0.00013684	1048.9	2.6226e-06	1.5861e-06	1146.3	219.59	4.2604e-06	2.4561e-06	279.41	79.442	62.409	17.94	1.267e-06	25.054	0.00032923	0.00030659	8.394e-05	1035.4	3.4103e-06	3.3299e-06	1132	216.26	3.4124e-06	3.4538e-06	277.34	78.954	61.977	18.222	3.3543e-06	25.511	288.998	229.855	235.552	142.991	320.588	289.645	143.244	150.536	295.199	269.564	150.131	157.784	157.426	164.347	280.628	164.127	-8191	255	
25125.346	1	1	0	0	0.36841	0.081144	0.19815	0.13716	0.45017	0.13209	0.19852	0.025196	0.19149	0.29437	0.25688	0.13846	0.12385	0.058079	0.046735	0.15194	-2.4708	-3.5167	-3.1937	-3.1188	-3.6125	-2.8875	-3.3563	-3.6437	-2.8063	-3.4979	-3.1104	-2.9583	-3.7	-3.2229	-3.3375	-3.4083	359.832	258.528	228.439	416.039	464.079	326.229	158.918	168.761	444.914	317.801	162.392	468.439	316.788	135.336	448.627	370.157	0.00039655	0.00050623	0.00011417	1064.3	3.825e-06	1.1156e-06	1155.9	219.69	3.1112e-06	2.5472e-06	279.87	79.416	62.356	18.082	5.5145e-06	25.389	0.00032405	0.00030351	8.6256e-05	1039.3	3.3661e-06	3.5695e-06	1135.3	216.51	3.3812e-06	3.3609e-06	276.75	79.039	61.78	18.322	3.4102e-06	25.614	297.872	230.466	216.567	142.941	317.723	264.860	142.918	150.274	319.956	296.839	150.062	157.575	157.065	165.073	307.993	163.897	-8191	255	
25125.443	1	1	0	0	0.16455	0.21897	0.13446	0.13658	0.12047	0.36647	0.29294	0.072466	0.031043	0.15853	0.18188	0.17964	0.13047	0.28619	0.24479	0.15688	-2.4146	-3.5021	-3.2875	-2.9583	-3.7208	-3.25	-3.4875	-3.775	-2.9208	-3.6583	-3.3833	-3.0187	-3.6937	-3.0354	-3.05	-3.6688	187.505	245.442	362.685	481.573	465.755	480.489	435.995	443.822	214.668	452.765	358.819	409.389	360.435	454.220	337.489	218.393	0.00039003	0.00026486	9.1076e-05	1053.8	5.0438e-06	5.8996e-06	1154.3	218.84	8.7029e-06	2.3124e-06	279.1	78.889	62.442	18.111	1.4746e-06	25.44	0.00032139	0.00031011	8.5616e-05	1037.2	3.3988e-06	3.3171e-06	1132.9	215.99	3.5309e-06	3.3845e-06	276.56	78.668	61.806	18.269	3.3626e-06	25.595	290.075	181.370	227.821	143.035	263.693	285.809	142.919	150.775	320.240	282.520	150.070	157.495	157.687	164.355	301.253	163.428	-8191	255	
25125.562	1	1	0	0	0.30375	0.10491	0.15694	0.2515	0.10203	0.087047	0.27203	0.14247	0.06869	0.13491	0.11992	0.1798	0.21122	0.063026	0.14149	0.23423	-2.3833	-3.2854	-3.3646	-2.8729	-3.675	-3.1042	-3.3021	-3.7167	-2.9292	-3.2458	-3.4458	-2.9229	-3.7354	-3.3917	-2.9729	-3.6562	305.378	272.507	480.245	440.040	328.207	215.152	395.471	149.023	261.723	406.716	459.874	181.880	198.504	460.782	373.287	312.863	0.00038057	0.00032383	5.8523e-05	1049.4	4.5487e-06	3.5298e-06	1154.1	219.81	4.7013e-06	2.5319e-06	279.79	79.609	61.703	18.027	4.9099e-06	25.241	0.00031491	0.00031473	8.5154e-05	1033.9	3.3771e-06	3.3924e-06	1131.6	216.01	3.4156e-06	3.4059e-06	277.03	78.945	61.628	18.222	3.2618e-06	25.526	290.893	244.633	215.037	142.869	288.809	252.155	143.060	150.597	320.454	247.701	150.027	157.472	157.382	164.270	295.204	163.698	-8191	255	
25125.658	1	1	0	0	0.18594	0.19989	0.077507	0.29424	0.28858	0.061486	0.2039	0.29413	0.17032	0.25253	0.3864	0.28233	0.26452	0.040626	0.10018	0.093396	-2.65	-3.3729	-3.4167	-2.9042	-3.6458	-3.3583	-2.9604	-3.6708	-3.1167	-3.2062	-3.5187	-2.9583	-3.5708	-3.55	-3.0167	-3.5729	419.057	287.461	303.043	137.374	394.084	460.779	477.618	358.068	490.964	399.634	437.067	437.708	462.777	339.720	327.485	280.613	0.00049414	0.00035526	5.2145e-05	1048.9	5.4494e-06	2.7311e-06	1148.1	218.74	3.7926e-06	2.2784e-06	276.74	79.156	62.123	17.937	3.9318e-06	24.961	0.00032106	0.00029701	8.344e-05	1034.1	3.3217e-06	3.3084e-06	1130.8	215.99	3.3195e-06	3.2962e-06	276.64	78.777	61.828	18.27	3.4559e-06	25.478	289.788	195.898	231.851	142.889	310.209	258.797	143.258	150.749	293.488	310.119	150.014	157.709	157.661	164.503	278.571	164.063	-8191	255	
25125.754	1	1	0	0	0.11118	0.12457	0.049496	0.28601	0.13176	0.036894	0.067454	0.32199	0.046865	0.19143	0.010628	0.18719	0.1356	0.077971	0.25641	0.24611	-2.6833	-3.2833	-3.5312	-3.0917	-3.5146	-3.3729	-3.0583	-3.6063	-3.0625	-3.1917	-3.8	-3.0458	-3.4479	-3.4021	-2.9938	-3.7021	364.349	173.429	432.111	135.536	265.620	432.126	404.777	159.953	424.152	187.420	203.638	492.089	229.250	202.526	394.656	298.898	0.00039028	0.00032255	9.6894e-05	1048.2	5.4112e-06	3.6188e-06	1147.9	217.89	5.1467e-06	4.128e-06	277.7	78.402	61.625	17.898	3.8813e-06	24.944	0.00032133	0.00031871	8.2628e-05	1033	3.4714e-06	3.3715e-06	1130	215.82	3.4932e-06	3.4953e-06	276.43	78.697	61.764	18.195	3.4549e-06	25.482	293.172	219.986	294.294	142.888	291.635	276.300	142.993	150.473	294.204	283.542	150.034	157.862	158.025	164.353	280.763	163.807	-8191	255	
25125.850	1	1	0	0	0.049509	0.22965	0.1396	0.23791	0.13169	0.030683	0.21585	0.10089	0.09348	0.16464	0.14137	0.11004	0.15739	0.20687	0.060098	0.10163	-2.8187	-2.9271	-3.5771	-2.9625	-3.3542	-3.3667	-3.0979	-3.7417	-3.2021	-3.0479	-3.7917	-2.9833	-3.3375	-3.6604	-2.9	-3.6542	425.872	397.983	290.103	422.835	266.572	415.506	154.215	171.477	133.471	472.648	406.543	203.084	316.584	476.302	203.609	311.857	0.00036979	0.0002524	4.6342e-05	1042.7	4.8611e-06	5.1897e-06	1142.6	216.24	6.4946e-06	4.1199e-06	275.34	78.731	60.663	17.851	1.8439e-06	25.093	0.00032508	0.00032464	8.6127e-05	1031.4	3.4692e-06	3.364e-06	1127	215.15	3.4805e-06	3.5348e-06	275.92	78.566	61.409	18.244	3.3941e-06	25.519	289.525	182.225	174.350	143.080	275.114	291.043	143.350	151.019	298.165	257.649	150.195	157.472	157.592	164.289	322.479	164.289	-8191	255	
25125.971	1	1	0	0	0.24809	0.18478	0.1968	0.13682	0.16004	0.19404	0.35407	0.077237	0.12976	0.19656	0.17334	0.051699	0.12434	0.089201	0.25768	0.13938	-2.8	-3.0917	-3.6	-3.2104	-3.2896	-3.5958	-3.0625	-3.5646	-3.2271	-3.0312	-3.7271	-3.2333	-3.3271	-3.6521	-3	-3.5854	455.586	400.330	165.567	479.144	348.818	248.678	487.491	385.673	418.313	162.595	432.049	396.944	202.865	218.056	309.454	430.229	0.00036135	0.00038413	4.217e-05	1037	4.094e-06	3.9041e-06	1138.3	216.96	4.8926e-06	3.1522e-06	275.37	78.203	60.976	17.769	4.5313e-06	24.822	0.00033063	0.00032997	9.027e-05	1031.5	3.5663e-06	3.3953e-06	1128.3	215.65	3.4309e-06	3.501e-06	276.73	78.626	61.524	18.267	3.5359e-06	25.516	294.956	247.300	487.224	143.165	293.337	275.836	143.095	150.945	310.002	300.163	150.276	157.546	158.073	164.756	252.749	164.149	-8191	255	
25126.043	1	1	0	0	0.142	0.020498	0.13371	0.28804	0.073706	0.0069425	0.19756	0.29333	0.25187	0.45132	0.36541	0.039584	0.24123	0.030713	0.23904	0.13524	-3.1104	-2.9292	-3.4771	-3.1	-2.9562	-3.6312	-3.3125	-3.5792	-3.4083	-3.0021	-3.8438	-3.1958	-3.1333	-3.6583	-2.9167	-3.5812	364.737	281.129	253.591	478.154	153.567	445.140	472.983	258.845	457.589	410.360	480.487	361.562	441.475	343.470	330.673	472.476	0.00039134	0.00038825	9.3817e-05	1037	4.2478e-06	1.7365e-06	1133.7	216.2	3.064e-06	1.863e-06	277.14	78.257	60.858	17.681	2.7393e-06	24.827	0.00032678	0.00032781	8.6482e-05	1030.8	3.4817e-06	3.3661e-06	1127.3	215.46	3.4717e-06	3.5004e-06	276.76	78.598	61.474	18.166	3.4638e-06	25.477	291.055	225.957	216.477	143.217	292.119	363.732	143.176	150.843	314.080	291.403	150.719	157.903	157.794	164.886	273.129	164.342	-8191	255	
25126.162	1	1	0	0	0.14743	0.17375	0.32484	0.22722	0.059336	0.059265	0.26289	0.15902	0.12473	0.24748	0.40353	0.22844	0.068043	0.054034	0.032915	0.32133	-3.1583	-2.8771	-3.5729	-3.3271	-2.8458	-3.6688	-2.975	-3.3771	-3.4521	-2.7979	-3.6104	-3.3187	-3.0563	-3.7583	-2.9271	-3.3583	276.989	273.092	345.044	438.465	349.544	400.107	484.129	182.362	257.582	417.430	422.331	417.678	366.771	474.065	452.330	417.324	0.000382	0.00047359	8.2309e-05	1037.6	2.8743e-06	2.87e-06	1143.7	217.6	4.2589e-06	1.8604e-06	274.77	78.213	61.36	17.843	2.7555e-06	24.972	0.00032169	0.0003214	8.8534e-05	1031.7	3.6211e-06	3.4425e-06	1129.6	215.75	3.4368e-06	3.481e-06	276.19	78.66	61.638	18.259	3.3677e-06	25.604	291.552	269.300	263.806	143.214	283.620	262.388	143.001	150.893	315.165	260.570	150.353	157.546	157.823	165.023	295.462	164.061	-8191	255	
25126.260	1	1	0	0	0.044415	0.096235	0.28884	0.18064	0.1908	0.16047	0.19832	0.086538	0.28925	0.27857	0.17736	0.021803	0.027442	0.090524	0.12448	0.25047	-3.1708	-2.7438	-3.5521	-3.5521	-2.85	-3.5375	-3.2375	-3.1604	-3.4604	-2.9667	-3.6188	-3.5021	-2.9583	-3.6833	-2.9917	-3.1	399.905	448.385	313.731	453.354	451.801	356.694	376.655	192.673	226.011	133.382	432.543	491.022	397.657	349.440	368.117	464.488	0.0004165	0.00065221	0.00012587	1044.9	2.3872e-06	2.443e-06	1138.5	215.38	4.3138e-06	3.7067e-06	279.07	79.189	61.04	17.82	4.4712e-06	24.908	0.00031215	0.00031888	8.5246e-05	1035.8	3.454e-06	3.2001e-06	1130.7	215.7	3.4178e-06	3.584e-06	277.41	78.902	61.638	18.289	3.4341e-06	25.597	289.042	193.565	211.868	143.212	278.447	269.302	143.161	150.933	309.516	253.011	150.037	157.726	157.616	165.033	321.976	163.831	-8191	255	
25126.355	1	1	0	0	0.25627	0.090574	0.12647	0.13945	0.1132	0.21705	0.29745	0.39439	0.030223	0.18471	0.078974	0.22372	0.067933	0.11775	0.10491	0.071504	-3.0687	-2.8417	-3.4375	-3.6063	-2.9208	-3.6354	-3.5062	-3.1	-3.3854	-2.8833	-3.4	-3.6333	-2.975	-3.5521	-3.2521	-2.9542	188.579	434.225	241.823	471.910	226.152	492.499	404.387	372.313	269.903	167.838	206.254	342.721	363.275	257.985	245.972	392.300	0.00039502	0.00013133	7.2652e-05	1039.6	5.0768e-06	3.7873e-06	1144.3	214.88	1.7179e-06	2.0356e-06	276.7	78.614	61.166	17.778	3.8401e-06	25.195	0.0003184	0.00030873	8.4816e-05	1034.5	3.4024e-06	3.4327e-06	1132.4	215.4	3.2866e-06	3.4238e-06	277.27	78.753	61.943	18.288	3.3352e-06	25.671	290.398	214.500	231.157	143.406	309.516	255.289	143.124	150.572	280.837	259.681	150.386	157.385	157.507	164.492	292.135	163.684	-8191	255	
25126.451	1	1	0	0	0.096086	0.14625	0.11513	0.1346	0.18589	0.20206	0.19838	0.51575	0.1758	0.06959	0.15821	0.16013	0.28297	0.094852	0.035035	0.15856	-3.2646	-3.0354	-3.3187	-3.6875	-2.9208	-3.5938	-3.4562	-3.2208	-3.7958	-3.1125	-3.3771	-3.5375	-2.8729	-3.7812	-3.4229	-2.975	203.711	411.736	155.076	171.713	370.987	155.071	468.705	404.057	170.978	150.802	443.351	452.452	271.667	158.054	342.267	194.445	0.00039577	0.00024931	5.3912e-05	1045.4	5.5897e-06	2.3578e-06	1143.1	217.41	5.9101e-06	2.574e-06	275.58	78.976	61.209	17.91	3.1322e-06	25.028	0.0003223	0.00030392	8.7298e-05	1037.2	3.4531e-06	3.3267e-06	1132.6	216.13	3.3477e-06	3.4755e-06	276.86	79.092	61.873	18.344	3.3964e-06	25.629	288.028	241.336	206.383	143.213	313.847	240.611	143.218	151.005	305.364	286.989	150.228	157.594	157.627	165.105	337.420	164.083	-8191	255	
25126.547	1	1	0	0	0.10496	0.033442	0.01574	0.20764	0.037963	0.1419	0.24396	0.08171	0.12748	0.1704	0.22108	0.055121	0.32358	0.12251	0.211	0.12725	-3.1937	-2.9792	-3.3021	-3.625	-2.9062	-3.4813	-3.3042	-3.1625	-3.7271	-3.2958	-3.0854	-3.8333	-3.1146	-3.5708	-3.4729	-2.8771	478.302	470.967	273.122	420.306	365.683	188.076	443.895	371.151	202.089	492.180	387.137	187.902	429.804	319.473	188.703	290.389	0.00038337	0.00037321	6.1208e-05	1045.9	3.3962e-06	3.3394e-06	1149.9	217.78	1.8775e-06	2.0155e-06	275.94	78.554	61.893	18.054	4.8169e-06	25.133	0.00031105	0.00031523	8.7368e-05	1038.2	3.4763e-06	3.4968e-06	1134.7	216.55	3.2433e-06	3.2262e-06	277.05	78.995	61.958	18.371	3.2558e-06	25.625	288.849	228.465	222.238	143.252	269.338	312.280	142.925	150.894	300.026	241.778	150.532	157.950	157.613	164.265	254.654	163.508	-8191	255	
25126.643	1	1	0	0	0.093161	0.044288	0.13696	0.31292	0.14248	0.05153	0.18788	0.13775	0.16434	0.033591	0.016093	0.13379	0.23167	0.073078	0.093906	0.1556	-3.275	-3.2271	-2.9917	-3.7687	-3.0333	-3.3937	-3.6125	-3.0854	-3.5229	-3.0333	-2.9417	-3.5271	-3.0229	-3.2229	-3.6708	-2.8875	469.589	166.449	141.905	456.674	490.389	427.869	436.469	423.304	283.961	195.621	183.867	271.302	421.240	418.115	348.359	156.640	0.00038485	0.00020019	7.4514e-05	1050.4	2.1353e-06	3.1332e-06	1153.2	218.13	3.4788e-06	3.1041e-06	279.83	78.766	62.133	18.216	1.8533e-06	25.327	0.00031978	0.00029945	8.596e-05	1039	3.4114e-06	3.3802e-06	1138.9	216.52	3.39e-06	3.2439e-06	278.39	79.179	62.034	18.448	3.3187e-06	25.758	287.407	204.663	253.337	143.312	300.861	306.855	143.122	150.826	278.618	260.766	150.509	157.476	158.057	164.545	359.900	163.319	-8191	255	
25126.738	1	1	0	0	0.11689	0.21226	0.20582	0.20779	0.18358	0.22364	0.082713	0.23217	0.15947	0.0361	0.11878	0.08647	0.14452	0.25332	0.17095	0.17772	-3.1458	-3.4146	-2.8854	-3.6729	-3.0354	-3.2458	-3.8167	-3.0833	-3.6167	-3.4229	-3.0812	-3.6625	-3.125	-3.3187	-3.5938	-2.9271	458.370	224.669	418.893	395.956	208.112	310.445	161.073	148.135	320.447	204.793	418.937	297.579	365.305	387.757	327.077	425.780	0.00040833	0.00037413	0.00010295	1047.5	4.5468e-06	2.4639e-06	1148.5	217.83	6.0104e-06	4.335e-06	279.31	79.055	62.001	17.938	6.0529e-06	25.163	0.00031034	0.00029101	8.4461e-05	1039.6	3.3276e-06	3.3966e-06	1136	216.7	3.3592e-06	3.2207e-06	277.9	79.191	62.072	18.376	3.329e-06	25.672	289.987	183.646	224.801	143.037	268.819	300.506	143.010	150.537	312.290	318.325	150.333	157.849	157.387	164.795	291.810	163.319	-8191	255	
25126.834	1	1	0	0	0.10122	0.093039	0.32298	0.077149	0.051206	0.21864	0.15274	0.2765	0.29955	0.17395	0.10883	0.015726	0.050846	0.21043	0.24673	0.075303	-3.0542	-3.4375	-2.7917	-3.65	-3.2562	-3.3208	-3.9354	-3.1521	-3.4229	-3.4875	-2.9958	-3.6958	-3.4688	-3.0396	-3.7271	-3.0708	220.866	263.782	196.088	173.139	157.435	241.473	400.894	406.337	286.313	199.876	468.245	292.803	356.496	430.153	307.984	316.871	0.00039061	0.00046403	7.0195e-05	1045.8	1.2938e-06	3.6234e-06	1141.1	217.67	3.4497e-06	1.9006e-06	274.6	78.042	61.3	17.747	4.7411e-06	24.744	0.00031692	0.00030623	8.7035e-05	1040.2	3.3686e-06	3.4928e-06	1134.6	216.78	3.386e-06	3.2939e-06	277.15	79.048	61.944	18.309	3.3249e-06	25.542	291.122	239.546	332.879	143.479	218.772	278.929	143.309	150.969	332.764	287.948	150.343	157.850	157.842	164.910	286.109	164.064	-8191	255	
25126.930	1	1	0	0	0.20938	0.17043	0.18451	0.19285	0.21905	0.046882	0.25018	0.23427	0.31331	0.1761	0.28062	0.20373	0.26151	0.055607	0.045813	0.202	-2.8083	-3.2438	-2.8604	-3.6729	-3.1688	-2.9042	-3.8521	-3.0312	-3.2083	-3.625	-3.0312	-3.5271	-3.3854	-3.05	-3.5833	-3.0771	238.671	402.988	355.953	434.200	439.429	320.464	192.960	169.124	376.396	444.649	216.581	379.072	134.181	304.723	346.260	443.542	0.00041638	0.00034721	9.4887e-05	1036.1	6.2763e-06	3.2915e-06	1137.2	215.26	3.4424e-06	4.3456e-06	273.34	78.269	61.048	17.968	4.2103e-06	24.732	0.00031626	0.00029584	8.7873e-05	1038.7	3.4773e-06	3.4474e-06	1134	216.29	3.4219e-06	3.2505e-06	277.1	78.927	61.782	18.353	3.3836e-06	25.575	289.806	172.626	189.132	143.549	294.656	319.213	143.270	151.028	302.893	247.030	150.574	157.540	157.865	165.155	300.149	164.802	-8191	255	
25127.051	1	1	0	0	0.1373	0.22236	0.084055	0.19952	0.065159	0.21274	0.15899	0.13196	0.26494	0.30329	0.1118	0.14403	0.14727	0.18894	0.29617	0.070065	-2.725	-3.4771	-2.9938	-3.7354	-3.3146	-2.9125	-3.7104	-3.0771	-3.1646	-3.5875	-2.8958	-3.6167	-3.6021	-2.825	-3.6354	-3.2292	207.686	295.828	223.498	421.424	381.537	467.214	388.634	371.282	375.271	352.053	282.671	423.317	203.953	410.221	292.943	142.723	0.00035493	0.00027247	6.2859e-05	1034.3	9.8659e-07	4.043e-06	1137.1	216.22	2.4668e-06	7.1912e-07	273.67	78.255	60.993	17.851	2.715e-06	24.93	0.00031926	0.00030138	8.66e-05	1035.7	3.4793e-06	3.4162e-06	1135.1	216.5	3.3872e-06	3.2422e-06	277.36	79.232	61.841	18.33	3.2742e-06	25.617	290.366	211.859	227.121	143.603	259.613	285.241	143.516	151.061	302.118	282.831	150.607	157.656	157.945	165.017	286.265	163.942	-8191	255	
25127.146	1	1	0	0	0.11551	0.37339	0.2066	0.14315	0.29633	0.12584	0.33405	0.21108	0.27663	0.20228	0.20118	0.31816	0.07241	0.13952	0.23536	0.165	-2.8937	-3.6542	-3.0146	-3.475	-3.4229	-3.0375	-3.6437	-3.2979	-3.1604	-3.6021	-2.8292	-3.2958	-3.3479	-2.8896	-3.6188	-3.3812	410.145	477.333	423.488	200.786	217.863	310.983	448.330	489.788	290.488	391.049	138.340	320.601	216.484	247.041	322.366	143.573	0.000393	0.00029885	0.00010255	1042.1	3.2007e-06	1.3927e-06	1147.3	218.92	4.4433e-06	1.2861e-06	277.86	79.317	61.566	18.015	3.8034e-06	25.005	0.00031804	0.00029974	8.718e-05	1041.5	3.3278e-06	3.4482e-06	1138	217.55	3.4497e-06	3.3355e-06	278	79.516	62.037	18.379	3.2088e-06	25.616	294.264	216.082	246.479	143.515	271.533	372.925	143.531	150.896	302.888	150.744	150.410	157.619	157.590	164.603	232.456	163.870	-8191	255	
25127.242	1	1	0	0	0.06576	0.052555	0.21857	0.28265	0.13964	0.11787	0.23179	0.26519	0.20718	0.24374	0.10449	0.13392	0.19853	0.10043	0.25062	0.31548	-2.5208	-3.6375	-3	-3.4792	-3.4604	-2.8812	-3.675	-3.4437	-3.1083	-3.6937	-3.0917	-3.1979	-3.7083	-2.95	-3.4521	-3.3104	308.661	174.759	379.989	421.028	239.351	239.118	456.925	155.845	422.888	146.296	342.873	337.566	156.435	269.223	304.710	210.641	0.00039425	0.00036424	6.0335e-05	1048	4.316e-06	1.9644e-06	1146.3	216.49	3.9765e-06	3.1963e-06	277.4	78.391	61.154	18.018	1.5938e-06	25.143	0.00031754	0.00029426	8.6842e-05	1042.2	3.303e-06	3.3887e-06	1138.8	217	3.314e-06	3.2556e-06	278.61	79.004	62.001	18.416	3.2962e-06	25.662	287.540	202.718	219.840	143.406	280.690	298.902	143.046	150.749	303.913	282.611	150.379	157.873	157.903	164.928	273.818	163.730	-8191	255	
25127.340	1	1	0	0	0.16517	0.12804	0.23972	0.057898	0.11438	0.26102	0.13111	0.13839	0.17693	0.18316	0.20126	0.11613	0.099342	0.17825	0.08335	0.16232	-2.5208	-3.5187	-2.9396	-3.4167	-3.7271	-2.9208	-3.5917	-3.4833	-2.8812	-3.6833	-3.3063	-3.2062	-3.6312	-2.975	-3.3292	-3.6771	478.972	423.486	221.809	436.220	222.042	475.521	447.890	410.703	394.923	449.107	466.668	438.768	402.211	489.141	186.384	467.106	0.00036881	0.00033716	3.8378e-05	1045.7	6.1507e-06	2.5761e-06	1144.6	217.95	3.0254e-06	1.72e-06	276.53	79.043	61.97	17.951	1.4954e-06	25.178	0.00031949	0.00029564	8.4773e-05	1040.2	3.2712e-06	3.2099e-06	1137.3	217.05	3.3187e-06	3.236e-06	277.56	79.169	61.92	18.399	3.3158e-06	25.651	288.275	218.857	264.664	143.287	284.427	265.135	143.404	150.571	317.855	240.200	150.460	157.910	157.393	164.680	293.855	163.814	-8191	255	
25127.436	1	1	0	0	0.12364	0.17051	0.34969	0.13838	0.20567	0.20139	0.019678	0.23886	0.10743	0.12659	0.056894	0.067134	0.10658	0.09134	0.086012	0.072517	-2.5458	-3.8167	-3.0958	-3.2188	-3.6146	-3.0083	-3.45	-3.6396	-2.9188	-3.6896	-3.2875	-2.9021	-3.7354	-2.9313	-3.2562	-3.6125	288.200	342.789	297.271	406.072	138.346	187.019	137.466	428.574	263.231	297.835	443.247	195.068	444.687	435.515	265.969	247.846	0.00043315	0.00033818	0.00010946	1053.9	3.3733e-06	1.8612e-06	1150.5	218.6	4.4399e-06	3.1205e-06	276.73	78.459	61.913	17.868	3.8022e-06	24.932	0.00031795	0.00030257	8.4891e-05	1041.7	3.3085e-06	3.2517e-06	1136.8	217.16	3.2636e-06	3.2075e-06	277.44	79.239	62.128	18.334	3.2459e-06	25.625	292.942	186.402	256.770	143.241	283.129	328.637	143.352	150.804	272.708	284.218	150.541	158.003	157.389	165.008	308.057	164.194	-8191	255	
25127.531	1	1	0	0	0.25377	0.030007	0.34209	0.009363	0.27476	0.21049	0.3711	0.09359	0.165	0.15009	0.27893	0.20992	0.069079	0.24163	0.1995	0.040572	-2.4833	-3.6312	-3.3063	-3.0438	-3.7687	-3.0292	-3.1729	-3.6	-2.6479	-3.4146	-3.3917	-3.0396	-3.8438	-2.9979	-3.0458	-3.8771	234.060	224.184	286.318	227.883	429.803	429.264	451.536	240.207	302.056	342.258	419.414	414.482	310.811	476.770	142.363	416.377	0.00039153	0.00040794	5.9251e-05	1039.4	4.2689e-06	4.5037e-06	1146.2	217.16	4.3093e-06	4.5371e-06	277.51	78.562	61.646	17.878	3.1428e-06	24.898	0.00030722	0.00029739	7.9087e-05	1039.7	3.17e-06	3.2845e-06	1135.7	217.06	3.2818e-06	3.2505e-06	278.02	79.146	61.976	18.285	3.2443e-06	25.561	289.005	227.929	269.755	143.259	277.135	273.641	143.312	150.796	298.410	263.414	150.613	157.436	157.566	165.006	279.569	163.420	-8191	255	
25127.650	1	1	0	0	0.18429	0.03884	0.095907	0.216	0.18848	0.085698	0.30317	0.21536	0.14988	0.2304	0.075974	0.077713	0.14023	0.059232	0.027229	0.12379	-2.5667	-3.3812	-3.4167	-3.15	-3.6542	-3.1417	-3.4	-3.6479	-3.0396	-3.2562	-3.4437	-3.1333	-3.5354	-3.2479	-2.8958	-3.6875	200.840	426.228	395.719	136.284	222.339	143.888	405.710	436.819	153.779	369.953	218.793	422.841	420.249	455.800	305.149	449.650	0.00039774	0.0002678	8.1002e-05	1046.9	4.4357e-06	4.4496e-06	1146.6	217.19	5.1677e-06	3.6468e-06	276.09	78.986	61.914	17.978	2.5119e-06	24.988	0.00030854	0.00029026	7.9689e-05	1040.2	3.2965e-06	3.1956e-06	1134.8	216.39	3.3142e-06	3.0977e-06	277.93	79.177	62.033	18.356	3.1382e-06	25.604	288.050	194.589	256.663	143.411	268.468	308.965	143.512	150.730	331.478	299.923	150.053	157.652	157.565	164.570	272.288	164.162	-8191	255	
25127.746	1	1	0	0	0.075219	0.23187	0.17702	0.30408	0.18918	0.19218	0.13034	0.17957	0.12062	0.28768	0.19121	0.15823	0.10171	0.29464	0.037405	0.21517	-2.7917	-3.275	-3.3521	-3	-3.5042	-3.3417	-3.2	-3.7146	-2.925	-3.1813	-3.6542	-2.8896	-3.65	-3.4042	-2.9542	-3.6625	444.978	409.175	298.963	408.433	166.057	320.962	460.320	412.501	155.353	318.338	340.440	458.434	217.281	148.326	343.409	189.658	0.00039636	0.00035725	9.1009e-05	1039.7	5.3934e-06	1.1753e-06	1143.2	217.84	3.4988e-06	3.0033e-06	277.47	78.952	61.464	17.851	2.5187e-06	24.892	0.00030637	0.00029301	8.2779e-05	1037.5	3.3284e-06	3.202e-06	1135.2	216.7	3.1862e-06	3.2235e-06	277.4	79.125	61.839	18.295	3.2233e-06	25.574	287.598	192.648	218.278	143.188	290.877	267.106	143.454	150.869	319.391	298.819	150.066	157.669	157.638	164.435	257.800	163.816	-8191	255	
25127.844	1	1	0	0	0.11272	0.081131	0.14252	0.22437	0.16872	0.15968	0.22722	0.18228	0.13994	0.099402	0.16455	0.243	0.14916	0.1982	0.15295	0.10665	-2.7729	-3.2125	-3.5438	-3.0167	-3.5583	-3.3812	-3.0292	-3.6146	-3.0167	-2.9771	-3.6188	-2.9792	-3.5021	-3.325	-2.7875	-3.5333	347.885	254.089	138.246	445.542	264.928	293.351	439.992	462.597	290.759	226.582	466.115	164.437	464.345	189.876	221.214	259.500	0.00030597	0.00034562	7.0226e-05	1049.2	4.2059e-06	1.1524e-06	1142.8	218.19	3.5129e-06	1.5216e-06	278.46	79.202	62.289	17.974	2.6964e-06	25.199	0.0002957	0.00028901	8.1591e-05	1039.3	3.3034e-06	3.1483e-06	1133.2	217.04	3.1373e-06	3.3445e-06	277.76	79.184	62.124	18.294	3.3434e-06	25.577	291.381	183.395	199.721	143.144	305.101	405.225	143.389	150.664	356.206	306.696	150.198	157.553	157.638	164.807	303.353	163.695	-8191	255	
25127.939	1	1	0	0	0.1591	0.17139	0.12671	0.20258	0.20179	0.17404	0.072335	0.30433	0.1892	0.050854	0.080741	0.14232	0.12814	0.077392	0.23959	0.13539	-2.8875	-2.7875	-3.6854	-3.0208	-3.1479	-3.4104	-3.2104	-3.5729	-3.1937	-2.95	-3.675	-2.8771	-3.4146	-3.5604	-2.6542	-3.5042	188.877	365.012	369.979	411.424	292.588	484.244	259.245	438.311	461.864	139.813	339.729	190.517	402.850	207.805	333.601	467.682	0.00037662	0.00012116	8.5519e-05	1046.5	5.3875e-06	3.9863e-06	1144.5	216.84	1.4981e-06	3.7923e-06	278.26	78.444	61.735	17.945	5.3893e-06	25.353	0.00029956	0.00029855	8.1043e-05	1038.7	3.415e-06	3.315e-06	1134.7	216.81	3.3094e-06	3.4795e-06	278.72	78.961	61.891	18.305	3.2086e-06	25.639	284.179	258.552	210.336	143.079	271.137	307.842	143.117	150.651	304.699	311.403	150.724	157.610	158.109	164.253	276.388	163.946	-8191	255	
#DATA ENDS
