BOXY.EXE: ISS Imagent and Oximeter Data Acquisition Program Version 0.80
Ascii Record File

#ACQ INFORMATION
2  Detector Channels 
16  External MUX Channels 
1  Auxiliary Channels 
5000  Waveform (CCF) Frequency (Hz)
1  Waveforms Skipped 
30  Waveforms Averaged 
1  Cycles Averaged 
16  Acquisitions per Waveform 
10.0806  Updata Rate (Hz) 

#FILE INFORMATION
TRUE -- External MUX Channel results are PARSED.
FALSE -- AC DC and Phase are NOT grouped.
TRUE -- Companion Program Settings File CREATED.
FALSE -- AC data not excluded
FALSE -- DC data not excluded
FALSE -- Phase data not excluded
FALSE -- Auxillary Chn. data not excluded
Tab delimiters

#CALIBRATION STATE
TRUE -- Waveform Calibration Values APPLIED.


#AUX CALIBRATION VALUES
Val Type	aux-1	

Term	1.0000e+00	
Factor	0.0000e+00	


#WF CALIBRATION VALUES
A = Detector Channel
Val Type	A-AC1	A-AC2	A-AC3	A-AC4	A-AC5	A-AC6	A-AC7	A-AC8	A-AC9	A-AC10	A-AC11	A-AC12	A-AC13	A-AC14	A-AC15	A-AC16	A-DC1	A-DC2	A-DC3	A-DC4	A-DC5	A-DC6	A-DC7	A-DC8	A-DC9	A-DC10	A-DC11	A-DC12	A-DC13	A-DC14	A-DC15	A-DC16	A-Ph1	A-Ph2	A-Ph3	A-Ph4	A-Ph5	A-Ph6	A-Ph7	A-Ph8	A-Ph9	A-Ph10	A-Ph11	A-Ph12	A-Ph13	A-Ph14	A-Ph15	A-Ph16	

Term	0.00000e+00	0.00000e+00	0.00000e+00	0.00000e+00	0.00000e+00	0.00000e+00	0.00000e+00	0.00000e+00	0.00000e+00	0.00000e+00	0.00000e+00	0.00000e+00	0.00000e+00	0.00000e+00	0.00000e+00	0.00000e+00	0.00000e+00	0.00000e+00	0.00000e+00	0.00000e+00	0.00000e+00	0.00000e+00	0.00000e+00	0.00000e+00	0.00000e+00	0.00000e+00	0.00000e+00	0.00000e+00	0.00000e+00	0.00000e+00	0.00000e+00	0.00000e+00	0.00000e+00	0.00000e+00	0.00000e+00	0.00000e+00	0.00000e+00	0.00000e+00	0.00000e+00	0.00000e+00	0.00000e+00	0.00000e+00	0.00000e+00	0.00000e+00	0.00000e+00	0.00000e+00	0.00000e+00	0.00000e+00	
Factor	1.00000e+00	1.00000e+00	1.00000e+00	1.00000e+00	1.00000e+00	1.00000e+00	1.00000e+00	1.00000e+00	1.00000e+00	1.00000e+00	1.00000e+00	1.00000e+00	1.00000e+00	1.00000e+00	1.00000e+00	1.00000e+00	1.00000e+00	1.00000e+00	1.00000e+00	1.00000e+00	1.00000e+00	1.00000e+00	1.00000e+00	1.00000e+00	1.00000e+00	1.00000e+00	1.00000e+00	1.00000e+00	1.00000e+00	1.00000e+00	1.00000e+00	1.00000e+00	X	X	X	X	X	X	X	X	X	X	X	X	X	X	X	X	

B = Detector Channel
Val Type	B-AC1	B-AC2	B-AC3	B-AC4	B-AC5	B-AC6	B-AC7	B-AC8	B-AC9	B-AC10	B-AC11	B-AC12	B-AC13	B-AC14	B-AC15	B-AC16	B-DC1	B-DC2	B-DC3	B-DC4	B-DC5	B-DC6	B-DC7	B-DC8	B-DC9	B-DC10	B-DC11	B-DC12	B-DC13	B-DC14	B-DC15	B-DC16	B-Ph1	B-Ph2	B-Ph3	B-Ph4	B-Ph5	B-Ph6	B-Ph7	B-Ph8	B-Ph9	B-Ph10	B-Ph11	B-Ph12	B-Ph13	B-Ph14	B-Ph15	B-Ph16	

Term	0.00000e+00	0.00000e+00	0.00000e+00	0.00000e+00	0.00000e+00	0.00000e+00	0.00000e+00	0.00000e+00	0.00000e+00	0.00000e+00	0.00000e+00	0.00000e+00	0.00000e+00	0.00000e+00	0.00000e+00	0.00000e+00	0.00000e+00	0.00000e+00	0.00000e+00	0.00000e+00	0.00000e+00	0.00000e+00	0.00000e+00	0.00000e+00	0.00000e+00	0.00000e+00	0.00000e+00	0.00000e+00	0.00000e+00	0.00000e+00	0.00000e+00	0.00000e+00	-2.07275e+01	-1.32847e+02	-1.52787e+02	-1.83875e+02	-6.77554e+01	-5.54330e+01	-1.56919e+02	-1.62015e+02	-3.22664e+01	-7.99954e+01	-1.74562e+02	-1.70840e+02	-1.80437e+02	-1.77427e+02	-6.96928e+01	-1.50391e+02	
Factor	2.96057e-05	1.28999e-04	4.41538e-05	1.97066e-01	1.45415e-06	1.07368e-06	1.67062e-01	5.22067e-02	1.19540e-06	1.26644e-06	1.23098e-01	2.98311e-02	3.04790e-02	9.88491e-03	1.28029e-06	1.43348e-02	1.34528e-06	1.40145e-06	3.88201e-07	9.80757e-02	1.52263e-08	1.53501e-08	7.86761e-02	2.62170e-02	1.51695e-08	1.52930e-08	5.81304e-02	1.43474e-02	1.50814e-02	4.92209e-03	1.51770e-08	6.84804e-03	X	X	X	X	X	X	X	X	X	X	X	X	X	X	X	X	



#DISTANCE SETTINGS
A = Detector Channel
A-1	A-2	A-3	A-4	A-5	A-6	A-7	A-8	A-9	A-10	A-11	A-12	A-13	A-14	A-15	A-16	

2.5000e+00	3.0000e+00	2.5000e+00	3.0000e+00	2.0000e+00	3.0000e+00	1.5000e+00	3.0000e+00	3.0000e+00	3.0000e+00	3.0000e+00	3.0000e+00	3.0000e+00	3.0000e+00	1.5000e+00	3.0000e+00	

B = Detector Channel
B-1	B-2	B-3	B-4	B-5	B-6	B-7	B-8	B-9	B-10	B-11	B-12	B-13	B-14	B-15	B-16	

1.0000e+01	1.0000e+01	1.0000e+01	1.4400e+00	1.0000e+01	1.0000e+01	1.5100e+00	1.9400e+00	1.0000e+01	1.0000e+01	1.9900e+00	2.4900e+00	2.4100e+00	2.9000e+00	1.0000e+01	2.9800e+00	




#DATA BEGINS
time	group	step	mark	flag	A-AC1	A-AC2	A-AC3	A-AC4	A-AC5	A-AC6	A-AC7	A-AC8	A-AC9	A-AC10	A-AC11	A-AC12	A-AC13	A-AC14	A-AC15	A-AC16	A-DC1	A-DC2	A-DC3	A-DC4	A-DC5	A-DC6	A-DC7	A-DC8	A-DC9	A-DC10	A-DC11	A-DC12	A-DC13	A-DC14	A-DC15	A-DC16	A-Ph1	A-Ph2	A-Ph3	A-Ph4	A-Ph5	A-Ph6	A-Ph7	A-Ph8	A-Ph9	A-Ph10	A-Ph11	A-Ph12	A-Ph13	A-Ph14	A-Ph15	A-Ph16	B-AC1	B-AC2	B-AC3	B-AC4	B-AC5	B-AC6	B-AC7	B-AC8	B-AC9	B-AC10	B-AC11	B-AC12	B-AC13	B-AC14	B-AC15	B-AC16	B-DC1	B-DC2	B-DC3	B-DC4	B-DC5	B-DC6	B-DC7	B-DC8	B-DC9	B-DC10	B-DC11	B-DC12	B-DC13	B-DC14	B-DC15	B-DC16	B-Ph1	B-Ph2	B-Ph3	B-Ph4	B-Ph5	B-Ph6	B-Ph7	B-Ph8	B-Ph9	B-Ph10	B-Ph11	B-Ph12	B-Ph13	B-Ph14	B-Ph15	B-Ph16	aux-1	digaux	

2038.815	1	1	0	512	0.098799	0.18726	0.25364	0.20041	0.039707	0.21053	0.17854	0.21897	0.019707	0.17566	0.17629	0.044221	0.18512	0.23871	0.18441	0.13628	-2.0167	-3.2292	-2.9375	-2.5875	-3.4562	-2.6792	-2.8021	-3.1	-2.5333	-3.0604	-3.0833	-2.5792	-3.1729	-2.8146	-2.6063	-3.4417	271.871	259.230	380.043	235.008	309.028	208.990	362.197	328.518	351.051	160.452	362.371	176.939	317.687	370.276	382.813	313.235	0.00073419	0.00036489	6.5823e-05	277.58	1.1041e-06	2.2647e-06	420.62	107.73	1.4339e-06	7.4273e-07	192.16	85.286	45.115	24.676	3.3405e-06	47.604	0.00016684	0.00016156	4.4824e-05	273.73	1.6523e-06	1.7969e-06	410.77	105.37	1.6874e-06	1.8037e-06	184.94	81.654	43.716	23.919	1.7513e-06	45.405	276.948	136.908	112.404	108.032	133.585	217.498	107.625	113.285	199.614	409.277	111.054	115.380	116.838	119.941	261.849	117.425	-8191	255	
2038.909	1	1	0	0	0.23527	0.12552	0.1664	0.18141	0.25761	0.11565	0.42264	0.15021	0.04945	0.086602	0.21621	0.068159	0.11383	0.1018	0.14569	0.23671	-1.9062	-2.8917	-3.2604	-2.4313	-3.3792	-2.8771	-2.4521	-3.5521	-2.8187	-2.9375	-3.1729	-2.7604	-3.3833	-2.9813	-2.7104	-3.3771	175.484	341.511	351.049	307.390	331.974	442.489	436.685	440.644	129.116	137.867	323.731	248.967	397.329	447.194	185.151	133.705	0.00071694	0.00030687	0.00010526	280.37	2.595e-06	2.3616e-06	421.98	108.6	6.2775e-06	4.4886e-06	191.76	85.796	45.367	24.78	4.466e-06	47.792	0.00017491	0.00016199	4.3999e-05	274.06	1.7239e-06	1.7732e-06	411.64	105.93	1.7776e-06	1.7838e-06	185.67	82.276	43.926	24.048	1.7136e-06	45.647	279.059	187.646	159.742	108.227	250.235	360.543	107.526	113.347	262.224	276.304	110.994	114.632	116.649	119.592	238.979	116.904	-8191	255	
2039.006	1	1	0	0	0.18931	0.16793	0.23199	0.12537	0.12552	0.19119	0.16439	0.32478	0.23956	0.060063	0.086189	0.19934	0.14138	0.17672	0.078668	0.097725	-2.0604	-2.7583	-3.3854	-2.5125	-3.0479	-3.0167	-2.6396	-3.4021	-2.8896	-2.8604	-3.2583	-2.4958	-3.3563	-3.075	-2.6	-3.3646	416.420	241.473	344.142	141.651	434.625	270.414	234.583	427.595	405.203	342.525	226.761	313.764	236.933	371.029	313.034	110.479	0.00075286	0.00060356	0.00017037	276.74	3.5743e-06	3.7394e-06	426.42	108.56	4.5459e-06	3.5266e-06	192.54	85.496	45.4	24.81	3.0392e-06	48.04	0.00018389	0.00016423	4.2663e-05	274.26	1.7466e-06	1.7951e-06	413.9	106.16	1.7658e-06	1.7841e-06	186.29	82.357	44.013	24.11	1.6136e-06	45.645	283.358	189.560	145.093	108.431	214.621	299.697	107.874	113.138	312.062	230.921	111.403	115.257	117.196	119.614	346.194	117.046	-8191	255	
2039.102	1	1	0	0	0.31866	0.21	0.10294	0.14665	0.31098	0.088456	0.25624	0.20102	0.1596	0.2612	0.04234	0.062249	0.2061	0.10878	0.027755	0.12663	-2.4271	-2.9229	-3.3646	-2.6167	-3.1688	-3.1958	-2.5187	-3.3125	-2.6063	-2.7021	-3.5292	-2.5479	-2.8917	-3.2438	-2.575	-3.4813	375.328	350.275	102.194	126.855	188.538	379.203	434.385	318.414	141.429	197.383	200.303	123.453	111.066	179.058	146.271	198.892	0.00061559	0.00041911	5.3685e-05	276.5	3.5884e-06	2.7857e-06	425.17	107.77	1.8217e-06	1.586e-06	193.01	85.223	44.822	24.568	2.8548e-06	47.362	0.00017873	0.00016258	4.0582e-05	274.9	1.7666e-06	1.7564e-06	411.62	105.66	1.7278e-06	1.7248e-06	185.45	81.734	43.694	23.818	1.5451e-06	45.3	283.511	170.055	135.720	108.251	212.286	307.259	107.754	113.848	256.896	323.208	111.011	114.737	116.633	119.484	256.812	117.450	-8191	255	
2039.198	1	1	0	0	0.073005	0.17064	0.14958	0.17284	0.10695	0.20416	0.10635	0.11422	0.15554	0.2909	0.086824	0.05802	0.041445	0.10243	0.010249	0.31539	-2.4646	-2.5583	-3.4604	-2.7313	-2.7583	-3.1521	-2.5	-3.3104	-3.0229	-2.4083	-3.4896	-2.6458	-3.0604	-3.425	-2.5187	-3.2021	376.614	204.777	133.185	157.188	448.277	209.518	248.922	424.951	289.375	157.133	357.939	406.710	116.783	366.301	119.606	452.643	0.00063046	0.0002948	9.253e-05	279.69	2.4929e-06	3.3995e-06	425.61	107.96	3.989e-06	2.699e-06	190.76	85.043	45.094	24.334	3.9914e-06	47.469	0.00017914	0.00015691	3.972e-05	276.38	1.765e-06	1.7113e-06	412.83	105.79	1.7773e-06	1.6931e-06	184.64	81.645	43.585	23.731	1.5801e-06	45.231	280.353	132.189	174.218	108.466	279.076	109.529	108.015	113.545	298.663	299.855	111.264	115.048	116.812	119.821	187.206	116.743	-8191	255	
2039.294	1	1	0	0	0.28306	0.11995	0.16714	0.032971	0.17536	0.13155	0.084474	0.20126	0.25592	0.17532	0.079601	0.2471	0.13783	0.055477	0.28068	0.039406	-2.5604	-2.4188	-3.3271	-2.7438	-2.9271	-3.3125	-2.5917	-3.2125	-3.2167	-2.7146	-3.5042	-2.8958	-2.7833	-3.4542	-2.575	-3.2917	182.941	104.628	261.108	423.395	119.433	335.375	283.369	337.932	121.034	313.323	449.838	407.700	188.756	287.789	326.521	439.305	0.00072921	0.00020327	5.2272e-05	281.45	4.559e-06	1.5004e-06	424.89	108.05	3.0699e-06	1.4482e-06	193.66	85.478	45.244	24.648	4.1811e-06	47.357	0.00017708	0.00015172	4.1008e-05	277.16	1.7656e-06	1.6778e-06	413.21	106.11	1.7741e-06	1.6131e-06	185.82	82.241	43.929	23.857	1.7025e-06	45.429	282.703	154.437	334.180	108.493	293.586	236.300	107.636	113.082	278.640	230.430	110.715	115.016	116.739	120.261	259.871	117.121	-8191	255	
2039.415	1	1	0	0	0.13506	0.22362	0.32298	0.21159	0.063318	0.29637	0.19481	0.24707	0.11524	0.31213	0.071976	0.20601	0.25677	0.14979	0.1418	0.143	-2.7104	-2.5292	-3.3875	-3.0375	-2.5167	-3.5396	-2.4042	-3.0542	-3.4417	-2.5542	-3.1958	-2.9271	-2.7146	-3.3479	-2.5687	-3.0417	283.944	141.033	301.871	124.189	344.855	145.806	376.853	314.035	451.397	355.629	115.534	238.393	356.999	321.857	438.968	299.495	0.0006275	0.00049554	6.2126e-05	277.74	3.6463e-06	3.9075e-07	425.51	107.38	3.7637e-06	3.5236e-06	195.01	84.563	45.015	24.455	5.801e-06	47.106	0.00018037	0.00014636	4.2376e-05	276.88	1.7308e-06	1.5943e-06	412.05	105.88	1.7483e-06	1.5601e-06	186.02	81.668	43.681	23.599	1.743e-06	44.942	281.104	187.208	145.448	108.562	269.818	411.283	107.790	113.313	331.374	322.084	112.033	114.949	116.675	119.842	211.434	117.380	-8191	255	
2039.511	1	1	0	0	0.30292	0.1309	0.15479	0.17456	0.17367	0.10704	0.19459	0.040329	0.093386	0.14638	0.23538	0.057652	0.068527	0.10561	0.31415	0.17355	-2.9938	-2.5896	-3.4188	-3.0104	-2.6562	-3.3937	-2.7042	-3.0083	-3.3438	-2.325	-3.2292	-3.0354	-2.5292	-3.2354	-2.7917	-2.9854	96.646	120.328	157.544	165.167	332.193	187.606	403.670	276.125	320.056	137.409	369.941	162.092	446.827	436.286	348.967	430.216	0.00070265	0.00027629	0.00013277	278.5	6.6633e-07	2.0587e-06	424.53	106.99	3.154e-06	5.049e-06	190.85	84.07	44.792	24.318	1.7457e-06	47.048	0.00017591	0.00014555	4.4185e-05	275.73	1.7347e-06	1.5771e-06	411.56	105.29	1.6727e-06	1.6089e-06	184.17	81.201	43.344	23.501	1.7973e-06	44.77	280.146	137.381	194.933	108.334	106.389	262.202	107.765	113.033	356.079	186.322	111.357	114.594	117.182	120.222	195.143	117.024	-8191	255	
2039.607	1	1	0	0	0.072887	0.26992	0.085798	0.077542	0.12662	0.22137	0.18512	0.21738	0.14282	0.12179	0.24942	0.15497	0.096623	0.26384	0.12495	0.19603	-2.9625	-2.5208	-3.075	-3.0208	-2.5375	-3.4708	-2.5771	-2.7875	-3.4042	-2.5167	-3.1875	-3.2146	-2.3812	-3.5062	-2.8042	-2.7458	341.345	192.610	113.480	417.528	412.357	408.210	113.942	358.996	383.188	428.891	127.467	403.486	423.692	356.186	378.620	344.100	0.00062602	0.00037708	0.00013792	279.23	1.6482e-06	2.8301e-06	421.94	107.71	1.9438e-06	3.6734e-06	191.61	84.354	45.148	24.557	8.2822e-07	47.08	0.00017003	0.00015361	4.4466e-05	277.3	1.6405e-06	1.6599e-06	412.25	105.87	1.6333e-06	1.6959e-06	184.6	81.332	43.439	23.677	1.7763e-06	44.985	282.847	97.765	182.359	108.362	339.786	296.513	107.814	113.606	273.701	178.919	111.588	114.914	116.429	120.208	113.172	117.405	-8191	255	
2039.703	1	1	0	0	0.18393	0.025642	0.15044	0.074306	0.2672	0.11343	0.27693	0.20799	0.36903	0.11633	0.21734	0.18416	0.094212	0.10937	0.16442	0.18501	-3.0271	-2.6042	-2.8542	-3.125	-2.5729	-3.4083	-2.9583	-2.5812	-3.2625	-2.8021	-3.0896	-3.2687	-2.5354	-3.2292	-2.9313	-2.6333	363.238	186.732	302.439	219.665	124.943	391.597	375.297	315.210	139.504	380.420	377.474	105.019	139.432	279.386	418.885	97.848	0.00072867	0.00044766	9.6304e-05	281.15	3.0168e-06	3.9138e-06	423.15	108.56	1.425e-06	2.95e-06	193.8	85.105	45.124	24.331	4.7938e-06	47.518	0.00016435	0.00015584	4.5699e-05	278.75	1.6273e-06	1.7478e-06	413.31	106.42	1.6074e-06	1.7629e-06	186.57	82.113	43.568	23.691	1.7455e-06	45.188	278.793	188.231	158.106	108.412	193.500	291.187	107.277	113.865	284.881	156.808	111.665	114.700	116.711	119.835	237.262	117.006	-8191	255	
2039.798	1	1	0	0	0.17291	0.088898	0.07414	0.27042	0.16831	0.28583	0.18949	0.18634	0.079201	0.015981	0.32739	0.11174	0.38763	0.17817	0.20168	0.075825	-3.0083	-2.4417	-2.8688	-3.3125	-2.5583	-3.1792	-3.2938	-2.4729	-3.2979	-2.8708	-2.8979	-3.3854	-2.6667	-3.2083	-3.0083	-2.4625	188.701	353.947	224.297	420.397	347.934	336.273	174.023	169.802	392.335	114.587	346.313	362.722	253.113	428.630	102.964	208.674	0.00061113	0.00031175	3.6001e-05	281.06	3.5586e-06	3.8775e-06	425.35	109.28	1.6255e-06	3.1264e-06	192.77	84.902	45.127	24.172	3.7068e-06	46.634	0.00016594	0.000157	4.5004e-05	277.79	1.5897e-06	1.7765e-06	413.5	106.25	1.6237e-06	1.7569e-06	185.36	81.426	43.43	23.458	1.7869e-06	44.54	273.577	119.739	109.878	108.122	238.136	236.515	107.494	113.330	278.576	174.987	111.380	114.929	117.293	120.134	204.914	117.163	-8191	255	
2039.894	1	1	0	0	0.18539	0.27692	0.062779	0.075365	0.14982	0.014281	0.090825	0.20585	0.090908	0.085674	0.14466	0.051386	0.075448	0.14942	0.17025	0.15169	-3.0583	-2.6479	-2.7542	-3.4333	-2.5146	-3.0417	-3.2875	-2.6583	-3.2479	-2.7646	-2.8021	-3.4188	-2.6813	-3.1042	-3.3125	-2.6146	337.957	167.145	431.835	137.438	284.675	274.220	119.691	425.401	440.687	311.595	453.623	392.551	212.801	443.149	390.687	256.133	0.00077845	0.00063555	5.4664e-05	280.72	3.3217e-06	3.2778e-06	423.98	108.18	4.7981e-06	2.2491e-06	190.86	84.208	44.85	24.049	3.1469e-06	46.307	0.0001684	0.00016216	4.4883e-05	276.07	1.6715e-06	1.7939e-06	413.45	105.92	1.6996e-06	1.7782e-06	185.02	81.097	43.232	23.367	1.756e-06	44.23	275.926	165.389	95.703	108.371	190.505	303.205	108.002	113.536	241.523	202.521	111.666	115.161	117.312	119.892	239.697	117.062	-8191	255	
2039.990	1	1	0	0	0.085158	0.22334	0.088077	0.12287	0.25882	0.25211	0.17766	0.12138	0.096603	0.17593	0.35168	0.14279	0.14916	0.26589	0.14554	0.17407	-3.0312	-2.8333	-2.5542	-3.5021	-2.3917	-2.9458	-3.4708	-2.5875	-3.2896	-2.9917	-2.7875	-3.3187	-2.825	-3.0542	-3.2354	-2.6562	391.796	230.750	286.059	382.009	299.392	121.398	430.991	372.810	452.641	372.797	417.553	171.035	164.549	320.509	145.916	446.832	0.00067024	0.00036161	4.2117e-05	281.03	2.1478e-06	3.4404e-06	424.28	107.86	2.7673e-06	4.4298e-06	193.28	84.9	45.414	24.334	4.4412e-06	46.959	0.00017513	0.0001639	4.3441e-05	278.31	1.7611e-06	1.806e-06	413.96	106.04	1.7649e-06	1.7764e-06	185.74	81.859	43.837	23.688	1.7246e-06	44.991	283.301	381.107	138.799	108.306	272.603	277.195	107.831	113.863	297.315	224.040	111.392	115.184	116.886	120.405	207.641	116.971	-8191	255	
2040.086	1	1	0	0	0.068848	0.060484	0.22144	0.13127	0.24591	0.088763	0.13166	0.24734	0.32983	0.10753	0.051523	0.063029	0.17514	0.21988	0.28613	0.15402	-2.75	-3.0021	-2.5604	-3.3958	-2.6937	-2.9	-3.3104	-2.6063	-3.3292	-3.1333	-2.6771	-3.4437	-2.8063	-2.775	-3.1292	-2.5479	345.533	280.976	440.222	416.736	264.205	451.956	230.246	104.633	255.407	287.068	409.601	429.358	386.470	389.307	271.102	345.047	0.00072158	0.00023974	5.6672e-05	282.22	6.5473e-07	1.1304e-06	428.31	108.85	2.1614e-06	2.4327e-06	193.11	85.755	45.083	24.125	3.1501e-07	47.305	0.00018301	0.00016524	4.2603e-05	278.83	1.7816e-06	1.7938e-06	416.51	106.61	1.7726e-06	1.7814e-06	185.74	82.027	43.642	23.496	1.6131e-06	44.916	284.285	210.063	145.967	108.644	147.031	353.057	107.753	113.647	268.961	260.605	111.698	115.279	117.150	120.106	337.269	117.046	-8191	255	
2040.182	1	1	0	0	0.010895	0.28798	0.1549	0.076165	0.21618	0.1144	0.085426	0.29842	0.17785	0.12811	0.35959	0.11624	0.093914	0.22622	0.25977	0.23296	-2.7979	-3.0396	-2.4667	-3.3	-2.7896	-2.6417	-3.4188	-2.6208	-3.0687	-3.3979	-2.4979	-3.3042	-2.9396	-2.5021	-3.4479	-2.7812	158.308	104.407	316.788	226.767	414.809	205.421	183.515	97.490	452.979	430.897	126.606	137.762	339.908	306.178	373.834	376.292	0.0006703	0.00032486	8.2543e-05	281.28	6.7922e-06	1.7702e-06	425.14	107.84	5.291e-06	6.0337e-07	190.47	84.606	44.788	24.027	4.7472e-06	46.322	0.00017835	0.00016593	4.0906e-05	278.79	1.8208e-06	1.7426e-06	412.9	106	1.766e-06	1.7593e-06	183.85	81.372	43.501	23.322	1.5734e-06	44.252	279.430	228.318	400.323	108.694	209.173	244.516	107.911	113.671	260.791	250.871	111.304	115.355	117.239	120.278	200.995	117.374	-8191	255	
2040.303	1	1	0	0	0.24683	0.10914	0.059145	0.05339	0.15055	0.22386	0.24249	0.17316	0.28096	0.26372	0.15824	0.12358	0.13634	0.19487	0.05482	0.19462	-2.5604	-3.3896	-2.4917	-3.3187	-2.9625	-2.6667	-3.4521	-2.6021	-2.9104	-3.1104	-2.4146	-3.2271	-3.1354	-2.7583	-3.2792	-2.8563	440.137	346.286	228.846	449.032	167.146	257.771	305.099	220.185	365.279	174.310	400.393	158.756	281.107	372.926	303.557	395.887	0.00068302	0.00030894	9.5275e-05	281.77	4.8539e-06	2.5081e-06	425.68	108.25	1.1801e-06	3.4014e-06	190.37	83.695	44.5	23.628	1.9844e-06	45.896	0.00017879	0.00015909	4.1138e-05	280.22	1.7637e-06	1.7394e-06	414.07	106.24	1.7811e-06	1.7009e-06	182.77	80.435	43.177	22.968	1.6346e-06	43.732	283.835	271.462	158.850	108.961	217.182	243.548	107.586	113.403	289.591	188.877	111.415	115.604	116.919	120.240	202.026	117.527	-8191	255	
2040.399	1	1	0	0	0.19725	0.024139	0.07851	0.13112	0.21763	0.27661	0.1692	0.05948	0.19841	0.23922	0.087617	0.047034	0.38049	0.10712	0.072726	0.28169	-2.4542	-3.1771	-2.7646	-2.8875	-3.0687	-2.6333	-3.2979	-2.8271	-2.5812	-3.2729	-2.6542	-3.1646	-3.2208	-2.4354	-3.3667	-2.8812	129.785	383.360	225.018	106.424	249.675	235.968	324.750	171.472	143.419	348.841	236.087	345.977	127.800	193.195	398.454	421.679	0.0006038	0.00047877	0.0001588	284.59	3.035e-06	3.9951e-06	426.87	108.97	1.6748e-06	4.0016e-07	194.78	84.965	45.017	24.15	1.2364e-06	46.801	0.00018675	0.00015679	4.3414e-05	280.5	1.85e-06	1.6939e-06	415.24	106.63	1.8908e-06	1.6222e-06	186.58	81.979	43.79	23.386	1.7384e-06	44.701	276.399	213.904	453.539	108.829	187.939	301.340	108.114	114.057	282.383	152.864	111.179	115.469	117.287	120.049	201.895	117.516	-8191	255	
2040.495	1	1	0	0	0.04575	0.21031	0.2455	0.15952	0.11875	0.20505	0.1439	0.25867	0.13535	0.24009	0.21219	0.086896	0.12628	0.22424	0.050482	0.079749	-2.2646	-3.3354	-2.6292	-3.0667	-3.3167	-2.5438	-3.5604	-2.8292	-2.5583	-3.4729	-2.7583	-3.0312	-3.2396	-2.7458	-3.3021	-2.9917	326.673	236.841	382.360	187.191	304.122	122.633	187.032	149.402	101.180	160.271	354.007	361.060	290.913	319.400	412.391	424.113	0.00064913	0.00025731	8.2201e-05	284.71	5.853e-06	2.3466e-06	427.6	108.61	1.6173e-06	3.4601e-06	191.52	84.552	44.704	24.04	2.4035e-06	45.993	0.00018454	0.00015054	4.5391e-05	281.67	1.7922e-06	1.6439e-06	415.53	106.77	1.8159e-06	1.6171e-06	184.97	81.517	43.497	23.24	1.7573e-06	44.122	276.517	220.738	447.514	108.999	226.641	335.856	107.409	113.678	348.976	322.822	111.578	115.453	116.951	120.048	162.892	117.274	-8191	255	
2040.591	1	1	0	0	0.21349	0.10114	0.060279	0.15926	0.067012	0.24763	0.096705	0.18836	0.17492	0.1177	0.28051	0.10666	0.27361	0.25065	0.02477	0.22934	-2.025	-3.3458	-2.8708	-2.6833	-3.1167	-2.5771	-3.175	-3.0771	-2.6667	-3.3208	-2.7125	-2.9292	-3.3417	-2.5062	-3.2104	-3.0917	347.195	249.931	442.449	393.818	215.607	220.303	307.026	360.678	356.969	354.234	119.145	273.002	299.307	326.550	300.627	393.684	0.00062057	0.0001981	0.00020521	280.88	3.9757e-06	4.6878e-06	421.19	107.79	8.8598e-07	2.5378e-06	189.3	83.203	44.48	23.469	4.6481e-06	45.49	0.00017747	0.0001497	4.6176e-05	279.73	1.742e-06	1.7007e-06	411.67	105.97	1.7201e-06	1.6486e-06	183.4	80.374	43.017	22.755	1.8456e-06	43.109	284.244	210.170	131.244	108.897	219.092	262.862	107.852	113.195	327.594	137.345	111.548	115.450	117.205	120.260	221.263	117.438	-8191	255	
2040.687	1	1	0	0	0.24977	0.15227	0.23282	0.19683	0.19493	0.11599	0.12347	0.1042	0.23665	0.24749	0.15341	0.22848	0.13608	0.054036	0.12815	0.061779	-2.0604	-3.2479	-2.8625	-2.8604	-3.4667	-2.4437	-3.1021	-3.3604	-2.6792	-3.4896	-3.0417	-2.6208	-3.3104	-2.7604	-2.9729	-3.4729	376.325	149.455	146.138	340.066	167.750	330.261	231.639	126.560	111.695	423.908	433.957	378.244	275.437	290.363	406.032	412.948	0.00064293	0.00031419	8.7101e-05	282.72	3.185e-06	2.4787e-06	422.83	107.45	1.1909e-06	3.6928e-06	189.29	83.342	44.376	23.381	3.4191e-06	45.548	0.0001729	0.00015488	4.6873e-05	280.48	1.6283e-06	1.7893e-06	412.96	105.69	1.649e-06	1.7237e-06	182.8	80.176	42.997	22.836	1.8732e-06	43.543	280.962	143.637	201.771	108.603	234.225	260.798	107.751	113.472	226.812	292.735	111.626	115.511	116.980	120.100	325.363	117.454	-8191	255	
2040.783	1	1	0	0	0.23408	0.030713	0.26521	0.20954	0.15846	0.27699	0.30768	0.082709	0.069637	0.21651	0.15182	0.11566	0.24137	0.22713	0.31682	0.17388	-2.1104	-3.1583	-2.8417	-2.7979	-3.2208	-2.5563	-3.0104	-3.4521	-2.5917	-3.325	-2.9792	-2.6312	-3.2646	-2.7396	-2.8208	-3.1979	238.262	233.480	143.632	309.529	294.363	223.105	395.613	109.011	230.891	148.418	159.708	99.243	453.588	349.459	215.299	399.973	0.00062833	0.00055142	2.3998e-05	284.68	2.4087e-06	3.841e-06	424.43	108.09	4.6172e-06	2.9884e-06	191.23	84.319	45.088	23.785	7.1324e-06	46.036	0.00016855	0.0001668	4.7669e-05	280.71	1.6566e-06	1.8892e-06	415.08	106.42	1.6994e-06	1.8544e-06	185.48	81.308	43.661	23.039	1.878e-06	43.746	276.753	158.958	232.964	108.655	223.276	250.599	108.052	113.376	221.325	328.823	111.411	115.680	117.926	120.435	239.620	117.700	-8191	255	
2040.902	1	1	0	0	0.080804	0.03243	0.29561	0.12682	0.19646	0.13595	0.21172	0.1103	0.30415	0.030535	0.22989	0.30743	0.10939	0.082459	0.040084	0.18354	-2.2	-3.1521	-3.1312	-2.6708	-3.4125	-2.8042	-2.7979	-3.3417	-2.4292	-3.1729	-3.0521	-2.6688	-3.5187	-2.6625	-2.6604	-3.5875	141.492	161.509	374.723	428.398	129.385	119.079	354.260	245.763	127.494	306.379	432.368	407.793	365.024	218.222	124.709	401.937	0.00069005	0.00017998	0.00018237	281.81	5.3179e-06	1.3604e-06	427.55	107.52	3.181e-06	3.8383e-06	190.08	83.637	44.44	23.451	1.8525e-06	45.012	0.00017589	0.00017188	4.769e-05	279.24	1.7699e-06	1.9206e-06	415.79	105.92	1.7646e-06	1.8791e-06	184.26	80.272	43.288	22.8	1.9348e-06	42.956	287.115	138.867	159.208	109.206	217.734	279.589	108.221	113.842	287.371	225.016	111.287	115.650	117.200	120.487	161.550	117.209	-8191	255	
2040.999	1	1	0	0	0.14797	0.088492	0.12883	0.12353	0.44836	0.22859	0.04396	0.23344	0.067709	0.053899	0.093514	0.14317	0.034344	0.1173	0.082367	0.28368	-2.2792	-3.0208	-3.1063	-2.6396	-3.0646	-2.9646	-2.8438	-3.425	-2.5146	-3.1063	-3.3125	-2.7104	-3.3625	-3.1229	-2.6	-3.4125	138.370	398.077	393.396	119.286	394.338	368.800	163.550	353.421	417.093	103.879	398.222	438.488	343.788	124.166	344.017	409.200	0.00067928	0.00013277	8.3833e-05	282.16	2.4801e-06	3.1734e-06	421.22	107.03	1.5765e-06	1.8812e-06	189.25	82.104	44.006	22.835	2.8156e-06	43.906	0.00018007	0.00017383	4.8015e-05	279.77	1.8126e-06	1.8937e-06	411.86	104.9	1.853e-06	1.8873e-06	181.77	78.648	42.724	22.231	1.8838e-06	42.004	282.387	228.315	125.274	108.476	216.760	300.188	108.212	113.859	227.856	207.043	111.659	115.019	117.104	120.194	256.992	117.790	-8191	255	
2041.095	1	1	0	0	0.12643	0.15161	0.10599	0.11594	0.1993	0.13554	0.41744	0.098626	0.067057	0.20937	0.24293	0.13802	0.20426	0.37124	0.21092	0.064512	-2.3229	-2.8563	-3.2396	-2.5771	-3.3521	-2.8333	-2.6792	-3.1958	-2.6646	-2.9813	-3.3146	-2.7229	-3.1625	-3.0125	-2.575	-3.3812	255.654	361.333	337.660	114.521	440.234	335.767	167.262	392.768	440.257	399.073	344.852	429.133	262.237	391.536	387.991	355.625	0.00060732	0.00031083	8.9596e-05	281.48	5.6069e-06	1.9824e-06	427.05	108.37	2.1714e-06	3.8664e-06	189.41	82.216	44.171	23.094	8.7316e-07	44.557	0.0001886	0.0001783	4.843e-05	279.1	1.9207e-06	2.0016e-06	412.61	105.53	1.9314e-06	1.9459e-06	182.14	79.251	43.025	22.586	1.7969e-06	42.668	279.448	184.143	162.568	108.634	241.760	257.908	108.376	113.911	344.192	273.642	111.694	115.675	117.564	120.574	277.436	117.618	-8191	255	
2041.191	1	1	0	0	0.10107	0.17617	0.17592	0.066686	0.24638	0.23027	0.11953	0.151	0.13344	0.34982	0.11146	0.16237	0.18221	0.12512	0.078221	0.071583	-2.3563	-2.975	-3.2083	-2.6542	-3.0958	-2.9313	-2.5812	-3.4479	-2.8063	-2.8	-3.5083	-2.3667	-3.0729	-3.0833	-2.7333	-3.2979	288.269	403.090	183.865	331.166	407.498	198.234	135.792	311.333	285.837	451.122	358.450	182.184	221.833	298.254	300.650	375.378	0.00070158	8.6872e-05	5.1957e-05	284.56	4.6187e-06	2.1456e-06	421.19	107.92	3.1783e-06	2.3887e-06	189.06	82.289	44.119	23.107	3.515e-06	44.712	0.00019372	0.00017549	4.4523e-05	281.34	1.8667e-06	1.9486e-06	413.78	105.84	1.9224e-06	1.9473e-06	181.95	79.412	42.983	22.527	1.7186e-06	42.61	276.533	180.331	101.385	108.874	268.918	312.128	108.207	113.412	253.742	412.646	111.676	115.694	117.446	120.199	264.233	117.473	-8191	255	
2041.287	1	1	0	0	0.25161	0.21923	0.022379	0.1356	0.19585	0.085813	0.048306	0.096091	0.19028	0.18968	0.10992	0.30671	0.17099	0.089382	0.12607	0.21881	-2.3812	-2.3833	-3.4188	-2.6896	-2.9417	-3.1854	-2.5833	-3.2042	-2.9	-2.5333	-3.3937	-2.6	-2.95	-3.2354	-2.4667	-3.4125	437.503	166.440	167.078	350.857	200.862	394.495	415.637	401.551	350.228	240.930	146.641	314.706	441.632	355.325	381.751	403.512	0.00063278	0.00027623	9.7036e-05	283.13	4.671e-06	3.1753e-06	423.01	107.58	2.4661e-06	1.658e-06	186.59	81.364	43.744	22.683	6.7727e-06	43.449	0.00018948	0.00017556	4.3628e-05	280.79	1.9006e-06	1.9033e-06	411.17	105.16	1.9119e-06	1.8873e-06	180.03	78.4	42.587	22.118	1.6923e-06	41.589	275.271	154.242	168.429	108.914	248.194	288.351	108.013	114.050	257.316	234.446	112.115	115.641	117.518	120.700	213.317	117.890	-8191	255	
2041.383	1	1	0	0	0.1144	0.22449	0.17092	0.16123	0.054597	0.13778	0.3681	0.33441	0.25442	0.16091	0.15422	0.14834	0.23883	0.18889	0.062181	0.14494	-2.6333	-2.5208	-3.5312	-2.5271	-2.8708	-3.3958	-2.6396	-3.3396	-2.9208	-2.45	-3.5125	-2.7417	-2.7896	-3.3104	-2.6188	-3.2896	110.890	187.870	281.298	351.579	318.262	174.185	376.981	268.311	402.196	408.691	107.244	370.080	448.545	412.975	433.646	401.204	0.0006139	0.00025488	0.0002084	284.72	1.8494e-06	1.8576e-06	420.86	106.34	1.9608e-06	1.6411e-06	185.14	79.9	43.168	22.286	4.9185e-06	43.072	0.00018898	0.00016977	4.397e-05	282.07	1.9269e-06	1.8274e-06	407.82	104.24	1.9032e-06	1.79e-06	178.18	77.133	42.036	21.688	1.8092e-06	41.006	283.561	216.673	139.286	108.482	281.436	301.862	108.154	114.483	230.791	326.317	111.997	115.768	117.438	120.747	245.171	117.894	-8191	255	
2041.504	1	1	0	0	0.16516	0.04119	0.17741	0.11402	0.24794	0.13484	0.13591	0.062028	0.23201	0.10752	0.31992	0.22491	0.11651	0.078122	0.056357	0.08155	-2.7917	-2.2562	-3.2062	-2.9104	-2.6708	-3.2812	-2.6792	-3.0417	-3.0646	-2.6083	-3.3083	-2.9479	-2.6688	-3.2313	-2.4938	-3.25	398.959	263.479	258.377	410.614	270.751	113.192	264.692	111.371	262.657	201.530	104.289	442.692	355.685	395.349	313.508	126.097	0.0006214	0.00042	0.00021466	281.06	3.5293e-06	2.5107e-06	421.44	107.11	2.689e-06	4.9607e-06	187.93	81.401	44.119	22.921	3.4972e-06	43.686	0.00019291	0.00016446	4.6701e-05	280.61	1.9407e-06	1.7722e-06	410.45	105.22	1.9609e-06	1.7628e-06	181.03	78.436	42.893	22.15	1.8945e-06	42.029	274.237	189.386	132.261	108.640	259.856	249.023	107.922	114.045	261.359	211.381	111.382	115.523	117.559	120.505	218.453	117.515	-8191	255	
2041.600	1	1	0	0	0.13193	0.079952	0.051606	0.017901	0.30313	0.21562	0.16691	0.063672	0.27798	0.16858	0.087462	0.142	0.1075	0.076819	0.18117	0.13811	-2.875	-2.5646	-3.0938	-2.8521	-2.5	-3.3958	-2.6688	-2.8167	-3.2792	-2.4813	-3.3583	-3.1021	-2.7188	-3.4167	-2.8021	-2.9396	308.358	377.405	137.900	153.170	292.669	356.611	260.460	236.408	321.411	277.403	284.536	96.949	210.158	430.978	393.242	109.775	0.00064995	0.00027315	6.5685e-05	285.97	2.3305e-06	1.6157e-06	423.59	107.42	3.0759e-06	1.9899e-06	187.14	81.134	43.312	22.568	2.9511e-06	43.466	0.00019173	0.00016337	4.8096e-05	282.44	1.912e-06	1.7787e-06	413.52	105.83	1.8923e-06	1.7446e-06	181.13	78.162	42.366	21.957	1.931e-06	41.631	282.359	165.392	186.690	108.631	316.327	316.807	107.935	113.828	310.366	191.260	111.972	115.609	117.399	120.249	245.074	117.876	-8191	255	
2041.694	1	1	0	0	0.10858	0.092244	0.29695	0.23844	0.22723	0.074424	0.038017	0.10456	0.0070591	0.1541	0.33746	0.17656	0.16462	0.20323	0.11595	0.1478	-2.8	-2.3208	-3.3896	-2.8104	-2.7	-3.3688	-2.7271	-3.025	-3.4375	-2.3812	-3.0833	-3.0042	-2.3854	-3.375	-2.7646	-3.0271	138.818	179.641	279.463	367.717	219.038	341.052	397.572	251.822	397.683	342.684	385.055	445.075	363.240	128.935	312.674	302.308	0.00071466	0.00061643	0.00018254	283.82	1.8928e-06	2.7392e-06	418.69	105.21	1.9562e-06	4.3365e-06	183.12	78.471	42.717	21.708	5.605e-06	41.386	0.00018344	0.00016311	4.9711e-05	281.7	1.7956e-06	1.8036e-06	408.29	104.25	1.78e-06	1.8016e-06	176.62	75.707	41.3	21.162	1.9427e-06	39.791	287.656	145.230	190.731	108.689	268.365	179.104	108.040	113.780	294.056	251.286	112.078	115.855	117.576	121.029	265.109	118.362	-8191	255	
2041.768	1	1	0	0	0.18652	0.27178	0.38216	0.28861	0.22421	0.10613	0.22374	0.18364	0.11885	0.11934	0.43756	0.14697	0.10222	0.16148	0.066067	0.16134	-3.125	-2.7604	-3.0812	-3.2104	-2.4188	-3.3375	-2.9	-2.4479	-3.3604	-2.7375	-3.0667	-3.275	-2.3312	-3.4479	-3.05	-2.675	168.440	378.565	338.698	315.801	264.444	170.537	120.230	409.882	210.552	313.606	437.165	411.637	120.267	148.858	397.354	107.391	0.0005682	0.00031991	1.8391e-05	282.82	1.8497e-06	2.2251e-06	417.51	105.15	2.3261e-06	6.7133e-06	182.95	78.23	42.623	21.635	3.4277e-06	41.889	0.00017315	0.00017346	4.8502e-05	280.14	1.7572e-06	1.8809e-06	406.65	103.49	1.7696e-06	1.8895e-06	176.35	75.504	41.331	21.165	1.9475e-06	40.127	278.268	131.641	196.974	109.477	189.470	300.410	108.325	114.065	249.337	213.325	112.275	115.679	118.125	120.724	235.436	117.960	-8191	255	
2041.864	1	1	0	0	0.18075	0.05639	0.34054	0.11708	0.083807	0.073815	0.4495	0.08297	0.17397	0.057886	0.23016	0.35115	0.20221	0.28046	0.23181	0.013278	-3.0083	-2.6104	-2.9667	-3.3417	-2.6	-3.1937	-3.1583	-2.5729	-3.3	-2.7729	-3.0958	-3.4708	-2.55	-3.3458	-3.0042	-2.4625	354.362	97.999	268.428	436.955	348.893	260.086	435.876	167.670	251.570	146.496	415.993	415.697	281.043	111.214	124.030	340.136	0.00063014	0.0002305	0.00011062	283.32	1.1255e-06	5.589e-06	417.83	106.47	1.9273e-06	4.2564e-06	185.58	79.782	43.601	22.17	2.2708e-06	42.874	0.00017558	0.0001769	5.0665e-05	281.49	1.7877e-06	1.9435e-06	409.66	104.97	1.813e-06	1.979e-06	179	77.15	42.032	21.646	1.9741e-06	40.804	279.089	187.002	140.804	109.112	247.516	374.669	108.393	114.348	289.890	224.901	111.823	115.633	117.531	121.187	315.232	118.066	-8191	255	
2041.983	1	1	0	0	0.28787	0.18053	0.11105	0.099154	0.1797	0.16877	0.17541	0.30757	0.032136	0.29293	0.18848	0.13455	0.23061	0.093124	0.063309	0.10996	-2.9729	-2.8312	-2.7417	-3.3396	-2.5958	-3.2562	-3.0875	-2.6375	-3.4229	-2.8333	-2.7625	-3.5396	-2.6063	-3.0771	-3.1646	-2.5646	358.677	117.738	239.120	374.231	121.274	149.745	409.005	237.762	205.936	404.797	331.592	446.546	297.149	114.999	278.775	317.195	0.00062899	0.00024967	0.00022097	284.55	4.0399e-06	1.475e-06	416.45	106.97	6.279e-06	6.6171e-07	182.04	79.491	42.582	21.896	3.9938e-06	41.724	0.00018064	0.0001833	5.1454e-05	281.34	1.8526e-06	1.9877e-06	408.11	104.16	1.9025e-06	2.0107e-06	177.64	76.148	41.774	21.298	1.9994e-06	39.733	281.222	181.238	159.071	108.994	272.334	161.689	108.235	114.116	316.690	241.657	112.192	115.705	117.928	121.291	299.873	117.976	-8191	255	
2042.079	1	1	0	0	0.18755	0.056918	0.11273	0.18956	0.11894	0.024216	0.14909	0.26219	0.20313	0.10154	0.33629	0.21198	0.27611	0.10596	0.040861	0.10134	-3.0458	-2.7812	-2.6063	-3.4813	-2.6021	-3.1354	-3.3521	-2.4521	-3.3187	-3.0125	-2.7188	-3.3854	-2.6729	-2.9792	-3.3333	-2.6396	136.410	384.284	345.480	374.199	441.566	255.177	151.621	218.739	117.629	112.440	437.888	452.584	328.537	367.433	97.313	234.697	0.00064866	0.00026436	8.8268e-05	278.9	1.3987e-06	2.2317e-06	408.8	103.74	3.6901e-06	3.3229e-06	177.24	76.281	41.592	21.065	1.4359e-06	39.999	0.0001919	0.0001808	5.1061e-05	275.4	1.962e-06	2.0268e-06	398.71	101.79	1.9603e-06	2.0295e-06	172.2	73.442	40.689	20.578	1.9849e-06	38.434	278.688	269.228	102.021	108.715	204.476	172.166	108.381	114.651	367.240	151.430	112.216	116.328	117.876	121.518	324.292	118.264	-8191	255	
2042.175	1	1	0	0	0.081554	0.15681	0.16214	0.15158	0.066387	0.099949	0.35329	0.29163	0.21428	0.36534	0.059223	0.068945	0.17395	0.21306	0.0057237	0.03836	-2.925	-2.7833	-2.7062	-3.6292	-2.8	-3.1083	-3.5125	-2.6396	-3.3021	-3.0938	-2.5771	-3.5958	-2.8125	-2.6188	-3.6146	-2.7875	244.626	352.862	445.629	335.015	339.844	234.921	97.054	385.169	234.907	107.579	393.435	225.689	329.058	264.232	218.783	311.271	0.00058073	0.00016205	0.00016045	277.56	9.5638e-07	5.5059e-06	404.73	102.76	1.1834e-06	2.577e-06	177.55	76.516	41.796	21.159	4.0122e-06	40.653	0.00019693	0.00018835	5.0514e-05	275.05	2.0776e-06	2.0842e-06	396.14	101.51	2.0525e-06	2.0536e-06	172.8	73.918	40.788	20.72	1.8767e-06	38.92	281.402	150.808	103.537	109.486	280.734	236.507	108.828	114.906	408.930	218.828	112.346	116.116	117.916	121.563	202.986	118.358	-8191	255	
2042.296	1	1	0	0	0.091773	0.088049	0.21809	0.1533	0.21176	0.15217	0.16545	0.022481	0.33766	0.17364	0.13409	0.21132	0.29249	0.023861	0.044903	0.22931	-2.6854	-3.0792	-2.525	-3.3729	-2.7479	-2.7438	-3.2125	-2.5104	-3.275	-3.2833	-2.4813	-3.45	-2.875	-2.4917	-3.3375	-2.7854	306.274	298.530	401.848	278.686	379.830	424.703	112.720	379.704	319.257	319.202	185.548	103.464	449.896	123.759	269.726	258.784	0.00060967	0.00058146	0.00014757	278.77	3.167e-06	2.125e-06	411.72	105.07	3.3186e-06	4.6127e-06	182.01	78.388	42.532	21.624	3.4275e-06	41.012	0.00019983	0.00019022	4.786e-05	276.5	2.0963e-06	2.1154e-06	402.91	103.43	2.036e-06	2.0637e-06	175.69	75.61	41.452	21.071	1.7918e-06	39.358	277.757	180.167	126.430	109.104	201.481	316.473	108.634	114.703	371.791	284.312	112.566	116.200	117.868	121.293	291.389	118.489	-8191	255	
2042.367	1	1	0	0	0.051947	0.21491	0.23638	0.13108	0.28402	0.087483	0.30089	0.36079	0.12257	0.28153	0.18173	0.15767	0.11139	0.3037	0.14816	0.19372	-2.6354	-3.1833	-2.275	-3.3333	-2.9562	-2.5458	-3.5438	-2.3979	-3.0167	-3.6146	-2.6604	-3.2125	-2.9771	-2.6083	-3.2917	-2.8354	226.260	98.375	343.615	279.236	323.867	321.338	355.550	117.883	284.412	449.890	377.597	299.087	142.675	99.144	159.673	397.185	0.00064006	0.00024921	6.9591e-05	278.63	3.665e-06	1.7805e-06	407.09	103.26	2.059e-06	3.674e-06	177.07	76.485	41.384	20.962	1.4878e-06	39.814	0.00020127	0.00018598	4.6464e-05	277.3	2.0704e-06	2.048e-06	397.59	102.6	2.0632e-06	1.9907e-06	171.95	73.896	40.6	20.537	1.8623e-06	38.327	284.510	341.324	130.467	108.884	234.421	228.465	107.885	113.867	340.818	224.038	112.093	115.483	117.573	120.740	266.560	117.469	-8191	255	
2042.463	1	1	0	0	0.11889	0.055186	0.028261	0.13885	0.1381	0.16343	0.13394	0.099092	0.28314	0.16801	0.2854	0.12887	0.077835	0.12411	0.25765	0.13324	-2.5438	-3.4146	-2.4208	-3.1875	-3.1562	-2.5083	-3.5292	-2.6479	-2.7271	-3.5604	-2.6813	-3.0646	-3.1167	-2.6458	-3.4104	-2.7917	441.266	354.048	349.439	274.859	407.949	194.478	369.777	201.551	395.445	358.799	361.869	129.101	271.657	254.434	186.431	369.413	0.00060874	0.00036471	6.9788e-05	273.75	1.343e-06	1.5462e-06	400.78	102.12	9.0827e-07	1.9772e-06	176.22	75.32	41.185	20.706	3.1872e-06	39.395	0.00020009	0.0001764	4.8188e-05	273.73	2.0742e-06	1.9254e-06	392.87	100.93	2.048e-06	1.8776e-06	170.19	72.814	40.31	20.303	1.9534e-06	37.986	277.617	232.588	193.058	108.407	135.939	101.942	107.839	114.198	272.177	384.551	111.519	115.435	117.251	120.954	304.982	117.724	-8191	255	
2042.584	1	1	0	0	0.061179	0.16214	0.30287	0.19192	0.074082	0.07606	0.23794	0.32494	0.096175	0.20491	0.26653	0.37061	0.059786	0.28031	0.017101	0.094754	-2.5333	-3.4271	-2.3458	-3.1688	-3.0833	-2.4208	-3.3354	-2.9229	-2.4062	-3.5604	-2.7333	-2.9979	-3.2021	-2.4562	-3.4813	-2.6937	448.703	307.825	160.523	222.407	288.798	261.746	290.109	98.724	190.103	217.853	113.500	133.612	198.978	447.227	170.039	148.705	0.0005666	0.00016893	0.0002347	276.57	1.439e-06	1.7012e-06	407.66	103.7	3.6343e-06	8.3613e-07	177.67	76.349	41.634	21.391	1.9267e-06	40.694	0.00020158	0.00017003	4.9474e-05	275.25	2.0926e-06	1.8948e-06	397.33	102.11	2.0544e-06	1.844e-06	172.85	74.156	40.899	20.751	1.9982e-06	39.084	275.111	223.006	185.384	108.971	99.700	254.137	108.238	113.653	235.956	344.869	111.585	115.846	117.648	120.735	282.638	117.339	-8191	255	
2042.680	1	1	0	0	0.096822	0.18503	0.17925	0.15053	0.14957	0.30421	0.31312	0.10934	0.18481	0.030319	0.20955	0.25973	0.24536	0.076845	0.29955	0.13012	-2.2875	-3.2625	-2.5292	-3.1042	-3.425	-2.6312	-3.1896	-3.1042	-2.7062	-3.4979	-2.6437	-2.8771	-3.4229	-2.5083	-3.2938	-3.1833	383.700	216.985	219.803	430.032	445.690	232.332	321.758	438.237	316.910	205.224	157.589	247.597	129.149	244.599	332.261	436.159	0.00062332	0.00018195	9.8612e-05	279.78	4.9311e-06	4.532e-06	413.99	105.44	1.7418e-06	5.3331e-06	180.18	77.589	41.91	21.251	3.8388e-06	40.643	0.00019887	0.00016936	5.2317e-05	278.88	2.0258e-06	1.9223e-06	403.85	103.76	1.9829e-06	1.8724e-06	175	74.652	41.017	20.712	2.0865e-06	38.943	279.481	119.978	186.424	108.505	369.494	276.171	108.033	113.736	364.041	220.024	111.684	116.032	117.526	121.033	321.529	117.900	-8191	255	
2042.776	1	1	0	0	0.16666	0.13656	0.21939	0.05261	0.050259	0.22821	0.10352	0.040869	0.34706	0.1674	0.11301	0.12517	0.27784	0.13714	0.31577	0.10149	-1.9958	-3.2938	-2.8312	-2.7583	-3.4188	-2.4333	-3.3958	-2.9062	-2.6479	-3.4083	-2.7188	-2.7354	-3.3958	-2.5521	-3.0771	-3.4042	147.111	115.841	115.716	291.604	202.786	351.442	308.335	122.767	375.598	254.048	243.554	450.339	105.745	100.015	264.904	360.976	0.00057151	0.00040685	3.7714e-05	277.51	3.0812e-06	3.015e-06	404.62	103.93	2.042e-06	9.2569e-07	175.87	75.411	41.079	20.736	6.9449e-07	39.224	0.00019403	0.0001766	5.3641e-05	276.89	1.9335e-06	2.0106e-06	397.62	102.61	1.9065e-06	2.041e-06	172.41	73.021	40.28	20.255	2.1315e-06	37.766	282.568	126.527	128.255	109.120	350.258	198.818	108.345	113.868	309.178	172.097	111.511	115.755	118.264	120.821	451.402	117.737	-8191	255	
2042.895	1	1	0	0	0.099219	0.11734	0.25099	0.17354	0.29556	0.050715	0.20026	0.091319	0.062652	0.2103	0.016735	0.21635	0.16327	0.17412	0.40358	0.1645	-2.2146	-3.2583	-2.9271	-2.6042	-3.3979	-2.5646	-3.0062	-3.3479	-2.6917	-3.1979	-2.925	-2.7042	-3.4208	-2.7229	-3.1375	-3.4	273.013	149.944	349.730	411.495	402.922	132.348	185.963	368.908	103.301	348.769	135.529	447.700	188.973	192.231	443.385	296.870	0.00054408	0.00028913	2.27e-05	276.23	3.3099e-06	1.5625e-06	403.85	103.03	3.1605e-06	6.4164e-06	176.21	74.814	41.348	20.644	4.4102e-06	39.51	0.00018799	0.00018964	5.4401e-05	275.12	1.9254e-06	2.1405e-06	395.29	101.73	1.944e-06	2.1133e-06	171.33	72.443	40.254	20.186	2.1937e-06	37.807	287.501	199.543	158.132	108.870	299.906	179.119	108.039	113.685	292.067	213.810	111.899	115.946	117.504	120.844	292.711	118.085	-8191	255	
2042.967	1	1	0	0	0.12733	0.17421	0.22976	0.22082	0.056432	0.067021	0.10669	0.20965	0.16068	0.13291	0.15801	0.18071	0.087794	0.089239	0.034298	0.17124	-1.9958	-3.1896	-3.0542	-2.4604	-3.4729	-2.7479	-2.775	-3.4333	-2.4229	-3.0938	-3.2042	-2.3229	-3.3167	-2.9646	-2.7667	-3.4542	101.515	271.687	442.465	114.782	333.294	455.382	252.597	425.530	177.684	318.151	346.566	239.992	394.771	142.554	289.911	256.060	0.00054383	0.00019306	0.00010195	275.74	2.6025e-06	2.7518e-06	407.26	103.87	5.3046e-06	4.7877e-06	177.55	76.497	41.928	21.01	4.3863e-06	40.328	0.00019448	0.00019724	5.4877e-05	275.55	2.0037e-06	2.1739e-06	398.88	102.62	2.0367e-06	2.2009e-06	173.86	74.336	41.108	20.719	2.2237e-06	38.837	284.486	213.115	184.287	109.300	279.365	257.979	108.199	114.095	253.121	237.006	111.238	115.794	117.427	120.398	175.922	117.550	-8191	255	
2043.063	1	1	0	0	0.21723	0.064805	0.10016	0.075043	0.37217	0.026651	0.11419	0.043737	0.14581	0.15588	0.22433	0.23941	0.13787	0.14395	0.089434	0.17901	-2.1729	-3.125	-2.9938	-2.5458	-3.3354	-2.8604	-2.5417	-3.3563	-2.7958	-3.1396	-3.1729	-2.6063	-3.3438	-2.9271	-2.4042	-3.3708	232.862	121.912	240.742	192.817	245.125	333.346	389.929	396.791	175.593	95.777	408.637	364.520	409.485	210.818	323.788	424.344	0.00060117	0.00038202	6.7849e-05	280.57	1.7461e-06	2.3096e-06	409.54	104.27	3.0864e-07	3.6453e-06	177.25	76.232	41.976	21.044	3.4522e-07	39.961	0.00019746	0.00020123	5.6758e-05	278.75	2.1299e-06	2.1794e-06	402.35	103.05	2.0933e-06	2.166e-06	174.43	73.961	41.203	20.629	2.144e-06	38.417	278.029	157.915	198.387	108.919	237.896	205.063	107.727	113.367	111.912	270.917	111.367	115.039	117.599	120.146	249.406	117.337	-8191	255	
2043.159	1	1	0	0	0.246	0.25295	0.02695	0.089763	0.2092	0.098369	0.20271	0.11206	0.084706	0.12314	0.1554	0.10813	0.20543	0.25923	0.14365	0.21226	-2.1083	-3.0187	-3.0625	-2.6646	-3.3771	-2.975	-2.6813	-3.3979	-2.7125	-3.0062	-3.3208	-2.4521	-3.4062	-2.8917	-2.5729	-3.3604	353.383	215.268	223.942	364.322	252.502	423.800	97.012	145.327	211.868	251.486	110.223	280.730	300.551	113.228	226.072	420.777	0.00062689	0.00061845	0.00013449	276.51	3.3695e-06	3.7005e-06	404.77	103.32	1.7474e-06	1.4874e-06	175.36	75.035	41.474	20.773	1.1565e-06	39.392	0.00021005	0.00020184	5.4432e-05	275.05	2.1062e-06	2.2108e-06	395.92	101.89	2.1468e-06	2.1829e-06	171.14	72.752	40.804	20.36	2.0945e-06	37.803	274.723	152.858	253.501	108.609	261.458	221.242	107.671	113.550	253.670	438.110	111.242	115.280	117.106	120.272	428.430	117.507	-8191	255	
2043.278	1	1	0	0	0.1484	0.1563	0.071547	0.061786	0.26477	0.2249	0.24872	0.17142	0.1977	0.22177	0.092052	0.10081	0.19077	0.2311	0.123	0.13166	-2.1042	-2.7146	-3.2313	-2.5479	-3.2438	-3.0854	-2.5563	-3.3167	-2.8042	-2.6417	-3.2521	-2.5687	-3.0812	-3.0792	-2.6104	-3.1625	120.938	102.918	377.521	341.147	387.114	338.792	436.430	433.969	362.011	163.566	112.037	104.117	412.625	309.890	257.626	134.837	0.00058099	7.319e-05	3.5686e-05	275.05	1.2402e-06	2.0991e-06	404.54	102.9	1.9959e-06	3.9695e-06	175.5	74.985	41.145	20.481	3.3135e-06	39.037	0.00021612	0.00020292	5.2443e-05	275.05	2.1598e-06	2.1919e-06	394.78	101.81	2.1639e-06	2.2004e-06	170.83	72.496	40.475	20.196	2.0036e-06	37.543	279.795	139.574	186.096	108.484	247.473	340.117	107.798	113.390	337.655	253.021	111.286	115.275	116.825	120.415	155.239	117.481	-8191	255	
2043.374	1	1	0	0	0.22394	0.059056	0.20518	0.078384	0.19823	0.11704	0.18847	0.040537	0.27654	0.21647	0.15657	0.2492	0.055446	0.19012	0.23163	0.085852	-2.4	-2.6896	-3.1229	-2.4208	-3.125	-3.2104	-2.6896	-3.2562	-2.7938	-2.6188	-3.35	-2.5563	-3.0271	-3.1813	-2.5333	-3.4479	435.859	96.571	139.265	138.005	240.016	99.789	199.169	266.122	332.159	239.073	375.181	397.468	312.172	203.096	381.440	101.098	0.00056157	7.6116e-05	0.00020152	276.36	8.0035e-07	1.2188e-06	406.93	103.65	3.3207e-06	2.5128e-06	178.39	75.994	42.062	20.972	2.5477e-06	40.124	0.00021523	0.00020469	5.0668e-05	275.94	2.1771e-06	2.1907e-06	396.47	102.31	2.2056e-06	2.1955e-06	173.11	73.833	41.115	20.631	1.9806e-06	38.499	276.561	250.417	164.199	108.029	276.533	264.522	107.552	113.289	438.770	247.462	111.136	115.121	117.194	120.236	238.824	117.543	-8191	255	
2043.470	1	1	0	0	0.062299	0.15118	0.22844	0.29164	0.11257	0.085564	0.24125	0.11277	0.16957	0.61773	0.10958	0.20041	0.23896	0.11841	0.043696	0.061844	-2.3625	-2.7	-3.4021	-2.5979	-2.9771	-3.3688	-2.4188	-3.0292	-2.9896	-2.5229	-3.4854	-2.7396	-2.825	-3.3583	-2.5271	-3.1417	311.672	390.502	412.508	424.545	295.488	177.926	346.338	410.072	228.982	367.100	390.062	232.683	128.367	407.744	394.594	224.033	0.00064089	0.00024006	0.0001323	278.7	2.6004e-06	1.5325e-06	406.45	104.02	2.8089e-06	1.8145e-06	178.27	75.593	41.747	20.902	3.7185e-06	39.758	0.00021161	0.00019725	5.041e-05	279.02	2.1959e-06	2.1391e-06	398.14	102.9	2.1995e-06	2.096e-06	172.52	73.533	41.119	20.446	2.0341e-06	38.081	277.563	108.453	177.718	108.708	245.483	121.896	107.093	113.505	292.676	178.476	111.411	115.274	117.285	120.280	246.510	117.660	-8191	255	
2043.567	1	1	0	0	0.17111	0.16615	0.15398	0.1939	0.096889	0.12449	0.15147	0.070901	0.091493	0.10708	0.23541	0.11836	0.030079	0.05978	0.049472	0.37876	-2.7146	-2.6292	-3.1021	-2.6729	-2.6854	-3.5521	-2.5	-3.0042	-3.3479	-2.4833	-3.3708	-2.9896	-2.775	-3.2396	-2.6979	-2.9646	436.781	232.717	354.697	435.375	327.650	390.031	411.866	346.776	373.640	341.789	448.246	170.743	216.128	347.832	373.498	395.375	0.00046777	0.00035432	0.00016442	275.31	3.6215e-06	3.1504e-06	402.42	103.19	1.4285e-06	1.8965e-06	176.57	75.933	41.955	20.965	2.7895e-06	39.443	0.00021422	0.00018576	5.2365e-05	275.62	2.2178e-06	2.0325e-06	393.57	102.32	2.2082e-06	1.992e-06	171.84	73.437	40.969	20.393	2.1011e-06	37.969	275.089	179.820	142.632	108.556	199.207	168.610	107.821	113.765	265.316	107.111	111.442	115.182	116.983	120.643	219.502	117.444	-8191	255	
2043.663	1	1	0	0	0.25254	0.11582	0.12538	0.12142	0.092753	0.12041	0.18372	0.057427	0.1136	0.054702	0.0543	0.072612	0.21665	0.17763	0.15723	0.27842	-2.8396	-2.5625	-3.1125	-3.0417	-2.8104	-3.4333	-2.7708	-2.9896	-3.4375	-2.6896	-3.2833	-3.1188	-2.6125	-3.2667	-2.7021	-2.9	131.527	321.425	414.545	230.842	319.533	231.789	282.495	382.560	154.852	384.576	243.719	335.360	182.086	363.929	102.391	369.630	0.00058627	0.00036575	0.00011182	278.36	8.4455e-07	1.0323e-06	405.65	102.8	3.1879e-06	8.8165e-07	175.53	74.906	41.387	20.71	3.8291e-06	39.39	0.00021454	0.00018248	5.4381e-05	278.02	2.166e-06	2.0042e-06	397.36	102.38	2.1912e-06	1.9939e-06	172.08	72.773	40.738	20.263	2.1951e-06	37.898	281.711	192.472	429.021	108.639	105.403	283.203	107.374	113.657	239.494	342.780	111.436	115.581	116.845	119.961	257.715	117.271	-8191	255	
2043.759	1	1	0	0	0.091163	0.2612	0.04261	0.32666	0.21445	0.24118	0.15731	0.17352	0.18173	0.18122	0.3629	0.12782	0.23033	0.10824	0.10196	0.30523	-2.8292	-2.5667	-3.2188	-3.1708	-2.4833	-3.4708	-2.6208	-3.0812	-3.3271	-2.6958	-3.3583	-2.9708	-2.6167	-3.4958	-2.7021	-2.9938	137.715	399.357	380.156	229.445	313.647	403.471	332.885	309.508	187.036	444.701	136.806	218.160	144.077	419.240	313.995	125.899	0.00051649	0.00069637	7.6091e-05	279.78	1.5376e-06	3.2226e-06	409.19	104.26	5.8254e-06	2.0283e-06	179.22	76.778	42.021	20.951	7.1604e-07	39.909	0.00021105	0.00018742	5.617e-05	279.36	2.1211e-06	2.115e-06	400.8	103.61	2.1516e-06	2.0672e-06	174.61	74.032	41.231	20.533	2.217e-06	38.454	280.078	203.315	222.374	108.655	229.929	324.694	107.384	113.785	315.942	185.892	111.588	115.265	117.114	120.224	341.666	116.983	-8191	255	
2043.855	1	1	0	0	0.23972	0.15214	0.14785	0.22473	0.20511	0.10778	0.13608	0.14348	0.19503	0.010502	0.30792	0.038395	0.10501	0.063252	0.056891	0.14227	-3.0583	-2.675	-3	-3.3063	-2.5417	-3.3542	-2.9333	-2.9229	-3.2646	-2.5521	-3.0125	-3.25	-2.4833	-3.4688	-2.8271	-2.6667	267.341	390.364	205.635	443.675	348.354	443.049	417.800	382.753	166.763	235.606	116.700	261.010	345.604	343.793	144.174	368.207	0.00056862	0.00028108	3.8938e-05	278.62	3.265e-06	4.6263e-06	407.86	105.09	3.6813e-06	4.1927e-06	177.03	75.652	41.678	20.736	1.8038e-06	39.27	0.00019896	0.00019304	5.7042e-05	279.44	2.017e-06	2.1642e-06	400.77	103.56	2.0201e-06	2.1518e-06	173.4	73.432	40.82	20.389	2.2458e-06	37.785	278.270	153.225	243.063	108.956	259.475	226.976	108.039	113.996	308.094	194.030	112.000	115.457	117.176	120.571	241.070	117.607	-8191	255	
2043.976	1	1	0	0	0.28947	0.17847	0.082989	0.10691	0.14325	0.15355	0.29542	0.12276	0.050914	0.25084	0.34261	0.33971	0.22165	0.20022	0.15355	0.21161	-3.0938	-2.8187	-2.9667	-3.2458	-2.5708	-3.3229	-2.9771	-2.6833	-3.5792	-2.5917	-2.9813	-3.3271	-2.5521	-3.2708	-3.0271	-2.6562	434.950	260.650	415.988	204.427	284.166	209.248	243.996	353.377	216.909	263.670	440.043	153.228	172.802	388.639	372.938	157.901	0.00059049	0.00035547	0.00018099	276.34	2.6064e-07	2.6591e-06	406.39	104.52	1.4803e-06	2.5464e-06	179.25	75.908	41.976	20.754	2.6941e-06	39.204	0.00020384	0.00020055	5.7692e-05	277	2.0313e-06	2.2258e-06	398.63	103.37	2.0561e-06	2.1892e-06	174.1	73.637	41.146	20.443	2.2733e-06	37.875	278.353	214.650	137.894	108.272	185.458	269.350	107.594	113.579	188.514	262.933	111.698	115.330	117.119	120.570	203.562	117.961	-8191	255	
2044.072	1	1	0	0	0.094506	0.039257	0.11841	0.24634	0.10192	0.034409	0.23421	0.41729	0.29432	0.20429	0.03134	0.067961	0.24192	0.11791	0.036547	0.13314	-3.0396	-2.7146	-2.8208	-3.3438	-2.5438	-3.1875	-3.2375	-2.7062	-3.2875	-2.7812	-2.7562	-3.4688	-2.3146	-3.2583	-3.1729	-2.4042	374.790	260.470	213.317	298.690	173.958	277.459	427.815	382.535	235.308	359.746	362.221	439.208	416.633	133.894	245.208	342.295	0.0006124	0.00029624	0.00011145	280.01	6.4911e-07	8.586e-07	407.91	104.22	4.2631e-06	2.7489e-06	178.3	75.941	42.018	20.888	5.1516e-06	39.756	0.00020417	0.00020623	5.7779e-05	279.42	2.1136e-06	2.269e-06	400.95	103.42	2.1319e-06	2.2875e-06	174.63	73.55	41.135	20.551	2.3233e-06	38.159	276.388	241.655	187.269	108.408	227.563	157.011	107.836	114.171	280.948	235.465	111.642	115.605	117.427	120.510	222.505	117.609	-8191	255	
2044.168	1	1	0	0	0.21221	0.34503	0.16659	0.2737	0.097988	0.080671	0.25264	0.16359	0.19826	0.035796	0.24281	0.25565	0.29239	0.12135	0.21765	0.23297	-3.05	-2.75	-2.725	-3.4792	-2.2542	-3.1312	-3.5438	-2.5292	-3.2771	-3.0312	-2.3979	-3.5104	-2.7125	-2.9958	-3.2667	-2.7375	392.229	268.740	394.644	273.864	449.967	210.806	440.496	413.015	427.787	400.564	388.748	352.356	419.961	179.346	369.954	401.802	0.00059674	0.00050098	9.9093e-05	282.67	3.8202e-06	2.003e-06	415.4	105.24	3.4887e-06	6.041e-06	180.21	77.068	42.725	21.125	2.5495e-06	39.969	0.00021296	0.00020882	5.8632e-05	281.77	2.2041e-06	2.2391e-06	407.56	104.37	2.2287e-06	2.2568e-06	176.34	74.65	41.697	20.79	2.2468e-06	38.516	281.514	172.097	135.822	108.495	220.593	271.503	107.873	114.082	253.107	210.454	111.721	116.039	117.412	120.748	308.914	117.718	-8191	255	
2044.264	1	1	0	0	0.10729	0.13338	0.13247	0.016678	0.13145	0.11932	0.022383	0.092411	0.065755	0.1152	0.1836	0.22828	0.10328	0.19323	0.1101	0.17566	-3.0042	-3.0896	-2.4417	-3.4417	-2.7896	-2.8438	-3.4167	-2.6521	-3.0167	-3.1896	-2.6896	-3.5958	-2.6833	-2.875	-3.5458	-2.5479	256.466	380.714	162.435	242.946	305.904	242.418	354.863	284.115	323.327	127.087	309.178	158.068	389.019	410.140	157.186	108.471	0.00054875	0.00059885	5.5784e-05	280.22	5.4367e-06	2.0174e-06	408.05	105.46	3.6791e-06	1.7204e-06	177.87	75.549	42.065	20.926	1.4338e-06	39.474	0.00021808	0.00020924	5.5558e-05	279.18	2.2131e-06	2.2674e-06	402	103.64	2.2289e-06	2.278e-06	173.54	73.381	41.169	20.519	2.1371e-06	37.948	281.344	169.054	181.861	108.568	181.582	299.628	108.019	113.947	221.024	221.426	111.349	115.544	117.199	120.793	296.255	117.758	-8191	255	
2044.359	1	1	0	0	0.1842	0.091903	0.033772	0.1421	0.14026	0.2538	0.052706	0.19049	0.19122	0.23216	0.20998	0.14843	0.065592	0.0070909	0.14524	0.1399	-2.9479	-3.1167	-2.4729	-3.3625	-2.8604	-2.7958	-3.4188	-2.7896	-3.0542	-3.3917	-2.5396	-3.3458	-2.8521	-2.7625	-3.2125	-2.5875	404.037	135.693	255.628	234.624	290.771	348.767	231.754	421.849	129.138	419.253	389.314	244.157	249.310	164.229	377.814	388.498	0.00055056	0.00018212	0.0001186	280.24	2.526e-06	4.6062e-07	412.81	106.2	9.3716e-07	2.2896e-06	180.09	76.38	42.229	20.987	2.7552e-06	39.365	0.00021564	0.00021052	5.2496e-05	279.39	2.2525e-06	2.2831e-06	403.01	104.25	2.2285e-06	2.2774e-06	174.36	73.939	41.454	20.565	2.0594e-06	37.952	285.484	266.524	178.898	109.161	253.768	310.997	108.050	113.890	232.150	235.130	111.565	115.444	117.634	120.958	206.206	117.886	-8191	255	
2044.455	1	1	0	0	0.16997	0.085122	0.20829	0.053694	0.22399	0.15263	0.11615	0.077738	0.14409	0.090591	0.20276	0.07721	0.10288	0.14522	0.16235	0.19967	-2.6083	-3.0687	-2.5458	-3.3937	-2.9333	-2.6896	-3.3063	-2.75	-2.9625	-3.4792	-2.6896	-3.1792	-2.9313	-2.5458	-3.4688	-2.7292	151.569	368.446	120.014	445.171	211.178	149.746	121.826	321.060	348.652	397.415	380.809	452.554	132.042	191.166	141.539	291.758	0.0005086	0.00059887	3.7981e-05	281.23	2.6017e-06	1.8572e-06	409.57	105.57	3.0506e-06	4.4415e-06	181.27	76.821	42.025	21.034	2.7237e-06	39.759	0.00021805	0.00020664	5.1298e-05	282.31	2.2633e-06	2.2413e-06	402.89	104.52	2.2661e-06	2.2333e-06	175.51	74.579	41.615	20.675	2.0889e-06	38.348	281.725	112.204	206.384	108.877	132.037	293.615	107.822	113.956	251.678	108.780	111.834	115.582	117.255	120.824	107.282	117.822	-8191	255	
2044.575	1	1	0	0	0.23609	0.31008	0.084527	0.30188	0.32958	0.021553	0.24026	0.15176	0.30198	0.20173	0.3171	0.19895	0.034777	0.10201	0.034778	0.20285	-2.3937	-3.3688	-2.7083	-3.2229	-3.1813	-2.4729	-3.4708	-2.575	-2.9875	-3.3042	-2.6333	-3.3125	-3.1167	-2.8375	-3.3771	-2.7812	215.119	174.493	385.822	419.819	104.818	317.939	361.068	325.321	141.073	158.389	435.603	396.820	432.105	408.264	299.754	395.127	0.00058252	0.00015287	0.00012532	284.62	4.1274e-06	2.3196e-06	417.2	105.03	4.3293e-06	1.034e-07	180.92	77.571	43.18	21.231	2.1739e-06	39.893	0.000223	0.00020537	5.3603e-05	283.53	2.3248e-06	2.1725e-06	406.81	104.94	2.303e-06	2.1692e-06	176.78	75.31	42.156	20.817	2.201e-06	38.492	283.754	198.599	191.201	108.599	291.461	271.039	108.130	114.073	235.071	108.159	112.350	115.528	117.677	121.149	249.748	117.954	-8191	255	
2044.671	1	1	0	0	0.051805	0.12947	0.10241	0.13297	0.12309	0.16892	0.14934	0.12359	0.067136	0.10306	0.0099543	0.18501	0.21075	0.12298	0.10568	0.09406	-2.1396	-3.3833	-2.4354	-3.2021	-3.2958	-2.4979	-3.4604	-2.8812	-2.8021	-3.3208	-2.8	-3.0646	-3.1833	-2.6729	-3.2687	-2.8688	232.498	447.019	276.458	209.193	197.252	175.216	176.028	400.652	196.554	132.284	440.134	333.264	102.061	146.453	173.866	228.467	0.00056293	0.0006354	0.00014585	276.44	2.3512e-06	2.2096e-06	412.11	104.87	4.1734e-06	5.7117e-07	179.38	76.676	42.429	21.012	3.0786e-06	39.437	0.0002237	0.00019072	5.5205e-05	280.36	2.3384e-06	2.086e-06	402.21	104.08	2.2627e-06	2.0395e-06	174.65	74.442	41.692	20.644	2.1742e-06	38.186	284.312	192.071	252.211	108.830	270.929	192.775	108.271	113.995	251.249	358.429	111.320	115.693	117.283	120.705	175.836	117.671	-8191	255	
2044.768	1	1	0	0	0.24356	0.094122	0.043787	0.2358	0.14685	0.3051	0.17435	0.15057	0.27778	0.10969	0.049258	0.23187	0.027927	0.073169	0.039475	0.064471	-2.3271	-3.3479	-2.5167	-3.0146	-3.3521	-2.5292	-3.3708	-3.1125	-2.4062	-3.6063	-2.6708	-2.8438	-3.4437	-2.5896	-3.2375	-3.2625	250.557	285.367	348.724	104.068	113.675	341.503	199.661	320.905	265.283	144.284	421.765	384.895	212.057	270.788	332.682	391.211	0.00048065	0.00050602	3.1285e-05	280.08	2.1776e-06	1.251e-06	412.17	105.77	2.2117e-06	2.7318e-06	179.93	76.737	42.136	20.973	7.1266e-06	39.838	0.00021809	0.00018693	5.6437e-05	281.2	2.2067e-06	2.0513e-06	403.92	104.68	2.2337e-06	2.0678e-06	175.74	74.321	41.557	20.586	2.2225e-06	38.365	282.805	443.813	430.467	109.167	245.741	389.153	108.454	114.007	293.622	134.244	111.298	115.690	117.729	121.032	227.985	117.772	-8191	255	
2044.864	1	1	0	0	0.094041	0.11706	0.20442	0.062977	0.16014	0.06526	0.052035	0.30243	0.046734	0.15281	0.21034	0.22945	0.25187	0.29176	0.11588	0.10354	-2.2604	-3.3979	-2.7229	-2.9604	-3.3521	-2.4875	-3.1708	-3.1167	-2.3958	-3.3792	-3.1229	-2.9021	-3.2479	-2.7479	-3.225	-3.1312	442.967	336.574	281.136	296.135	146.348	416.422	154.604	359.689	366.000	276.924	118.941	434.168	129.901	413.809	407.490	322.922	0.00058917	6.4837e-05	5.2822e-05	280.06	2.498e-06	1.7694e-06	414.63	106.15	2.2498e-06	3.6525e-06	181.37	77.657	42.989	21.278	4.7358e-06	40.112	0.00021179	0.00019375	5.8151e-05	281.97	2.171e-06	2.1878e-06	406.29	105.35	2.1538e-06	2.1641e-06	177.63	75.249	42.022	20.93	2.2452e-06	38.946	277.024	278.718	252.693	108.905	234.252	434.023	107.996	114.278	416.548	261.988	111.709	115.927	117.617	120.282	238.645	117.974	-8191	255	
2044.960	1	1	0	0	0.086684	0.16075	0.30198	0.15272	0.18806	0.27329	0.14613	0.14359	0.15177	0.030563	0.31751	0.15443	0.092173	0.097417	0.090138	0.12673	-2.2021	-3.4625	-2.8708	-2.6229	-3.5729	-2.4938	-3.1167	-3.2667	-2.4271	-3.1813	-3.0062	-2.65	-3.2812	-2.4042	-3.0687	-3.4771	429.832	143.720	297.321	253.167	185.102	442.351	163.831	438.735	188.439	102.439	133.501	451.973	307.109	387.041	224.233	454.677	0.00061702	0.0005464	0.00010263	282.16	3.0392e-06	2.9296e-06	417.26	107.01	7.0958e-07	5.093e-06	181.81	77.373	42.915	21.233	3.658e-06	40.137	0.00020458	0.00020292	5.8627e-05	282.87	2.0582e-06	2.3024e-06	407.97	105.56	2.1195e-06	2.2448e-06	177.87	75.184	41.882	20.862	2.3086e-06	38.615	289.943	166.266	113.993	109.420	303.754	366.379	108.316	114.354	252.894	190.064	111.617	116.013	117.876	120.820	181.842	117.833	-8191	255	
2045.056	1	1	0	0	0.22828	0.18246	0.2982	0.20579	0.27936	0.16675	0.11184	0.10349	0.010508	0.19073	0.20909	0.14028	0.19394	0.32236	0.39891	0.16342	-1.9604	-3.3	-2.9437	-2.5938	-3.3917	-2.5604	-2.9875	-3.5812	-2.6688	-3.2229	-3.2604	-2.6979	-3.4708	-2.8042	-2.8875	-3.4646	410.559	360.681	112.646	251.421	303.680	398.645	198.149	235.952	384.762	362.718	245.894	156.135	338.886	433.710	315.183	445.720	0.00056203	0.00035885	2.5191e-05	279.88	1.0284e-06	3.1296e-06	408.7	105.15	5.5794e-06	1.42e-06	180.69	76.655	42.41	21.188	3.1974e-06	39.903	0.00020265	0.0002064	5.8673e-05	280.72	2.0742e-06	2.2786e-06	402.08	104.48	2.1144e-06	2.2596e-06	176.59	74.54	41.598	20.81	2.3408e-06	38.397	283.212	202.627	132.036	109.343	300.137	184.187	107.953	114.002	261.699	227.913	111.777	115.948	117.851	120.850	174.207	117.619	-8191	255	
2045.152	1	1	0	0	0.12632	0.085436	0.11909	0.20052	0.22134	0.14942	0.20359	0.18146	0.047471	0.23725	0.081786	0.13757	0.29597	0.12516	0.078764	0.18985	-2.1312	-3.2	-3.1583	-2.5042	-3.3354	-2.8	-2.7583	-3.3542	-2.5333	-2.9771	-3.1312	-2.75	-3.4229	-2.7687	-2.7604	-3.5312	101.678	102.257	439.130	114.551	306.762	319.768	392.026	340.461	183.847	365.389	392.908	427.753	262.794	371.589	278.636	169.030	0.00062219	0.00021294	0.00014482	282.1	1.1408e-06	1.1869e-06	412.26	106.29	3.9179e-06	8.0776e-07	180.37	76.631	42.4	20.92	3.4301e-06	39.689	0.00021023	0.00021018	5.9573e-05	280.5	2.186e-06	2.2967e-06	405.32	104.53	2.236e-06	2.2715e-06	176.65	74.272	41.699	20.666	2.3587e-06	38.055	280.452	447.117	154.881	108.313	168.887	362.187	108.344	113.838	320.796	256.249	111.678	115.264	117.314	120.702	237.905	117.931	-8191	255	
2045.248	1	1	0	0	0.074338	0.097613	0.097483	0.30386	0.04113	0.36034	0.29322	0.19338	0.15022	0.20465	0.12868	0.14896	0.1266	0.083833	0.16562	0.43387	-2.2438	-2.8708	-3.2938	-2.4771	-3.4625	-2.9896	-2.8104	-3.4062	-2.6958	-3.05	-3.2687	-2.6521	-3.2979	-3.0375	-2.5667	-3.3229	440.809	178.493	212.596	156.544	114.594	366.626	372.347	319.707	121.821	289.973	444.521	318.700	97.889	406.672	315.343	398.746	0.00056889	0.00031031	0.00013428	281.29	1.6305e-06	4.2689e-06	413.95	106.66	2.3972e-06	5.155e-06	179.81	77.33	42.513	21.182	5.8356e-06	40.241	0.0002186	0.00021318	6.0182e-05	280.11	2.2757e-06	2.3665e-06	405.64	105.1	2.2846e-06	2.3787e-06	177.1	74.891	42.077	20.914	2.2674e-06	38.741	282.344	161.164	186.861	108.925	136.367	242.431	107.927	113.678	328.642	281.353	111.225	115.494	117.494	121.073	251.978	117.755	-8191	255	
2045.367	1	1	0	0	0.17619	0.080464	0.21695	0.14966	0.1708	0.15626	0.21766	0.1277	0.3639	0.064443	0.073804	0.18422	0.18536	0.35267	0.09783	0.11672	-2.2583	-2.8396	-3.4917	-2.6188	-3.1354	-3.0542	-2.5187	-3.3396	-2.9042	-3.0646	-3.3708	-2.5271	-3.1958	-3.275	-2.5375	-3.3542	315.669	230.885	207.160	261.522	203.614	376.186	274.699	176.771	174.664	362.273	232.150	399.938	189.596	451.282	122.834	137.684	0.00070417	0.0001128	0.00016283	283.92	4.4438e-06	2.0087e-06	415.67	106.85	1.4216e-06	2.7688e-06	180.15	77.267	42.767	21.271	1.8931e-06	39.919	0.00022344	0.00021679	5.7851e-05	282.1	2.3363e-06	2.3448e-06	406.47	105.24	2.3306e-06	2.3647e-06	176.04	74.835	42.099	20.908	2.1527e-06	38.421	280.487	121.667	151.606	108.440	213.111	110.007	108.202	114.111	262.278	421.890	111.864	115.719	118.056	120.437	216.981	117.660	-8191	255	
2045.463	1	1	0	0	0.040836	0.17198	0.18269	0.041061	0.19235	0.32115	0.14867	0.11338	0.048724	0.072946	0.12403	0.20321	0.054628	0.16344	0.32993	0.3492	-2.4792	-2.6688	-3.3729	-2.5146	-3.1437	-3.1958	-2.7979	-3.4188	-2.9417	-2.6	-3.4562	-2.6667	-3.2042	-3.5062	-2.4708	-3.5187	105.205	110.606	368.895	366.033	213.702	389.145	384.398	128.448	200.393	372.253	360.284	395.616	327.257	374.389	315.422	328.274	0.00060959	0.00043363	0.0001877	279.51	2.4783e-06	2.0336e-06	409.75	105.93	3.507e-06	3.3179e-06	178.9	76.861	42.663	21.141	1.9068e-06	40.099	0.00022265	0.00021321	5.4129e-05	279.31	2.2765e-06	2.3758e-06	401.43	104.49	2.3064e-06	2.357e-06	174.52	74.642	42.041	20.769	2.1037e-06	38.504	281.806	175.129	173.644	108.792	195.949	231.514	108.005	114.021	244.546	274.321	112.052	115.281	117.406	120.715	357.188	117.677	-8191	255	
2045.537	1	1	0	0	0.11174	0.11968	0.04434	0.19096	0.20936	0.10091	0.070951	0.17511	0.19237	0.13954	0.22383	0.097755	0.16358	0.28508	0.1034	0.12921	-2.5	-2.6562	-3.5771	-2.5208	-3.0896	-3.4188	-2.6875	-3.2562	-2.8771	-2.6292	-3.6	-2.8542	-2.9333	-3.5146	-2.5167	-3.4417	154.708	253.790	342.408	320.986	175.144	205.131	148.374	315.513	172.885	172.691	343.588	193.912	403.811	408.155	279.111	389.289	0.00055143	0.00037314	9.3282e-05	279.18	5.4306e-06	3.2044e-06	415.11	105.85	5.2546e-07	1.0234e-06	179.53	76.903	42.621	21.056	4.52e-06	39.66	0.00022443	0.00021344	5.3484e-05	280.79	2.3131e-06	2.3228e-06	403.69	104.85	2.3449e-06	2.2755e-06	174.77	74.398	41.928	20.722	2.1392e-06	38.322	287.711	196.536	143.109	109.263	282.989	212.178	108.151	114.069	345.017	150.194	112.119	115.605	118.097	120.970	241.266	117.799	-8191	255	
2045.656	1	1	0	0	0.34825	0.06425	0.16935	0.067582	0.14953	0.27887	0.14744	0.24605	0.22949	0.11018	0.13728	0.11062	0.11778	0.077359	0.27074	0.069789	-3.0292	-2.6937	-3.5292	-2.7958	-2.7812	-3.4521	-2.9958	-3.3021	-2.9771	-2.8021	-3.5896	-2.775	-3.1542	-3.5312	-2.6708	-3.2792	316.734	224.011	198.775	175.681	178.175	128.479	140.751	96.870	323.857	448.075	296.524	166.502	346.875	238.167	283.195	279.563	0.00056237	0.00023931	8.3236e-05	281.73	4.0346e-06	3.2459e-06	412.55	105.91	3.4959e-06	1.8294e-06	181.25	77.349	42.522	21.263	6.4684e-06	40.056	0.0002315	0.00020281	5.5869e-05	282.29	2.3749e-06	2.2098e-06	404.46	105.13	2.3707e-06	2.1785e-06	176.06	74.969	42.059	20.807	2.2245e-06	38.741	276.862	184.956	156.444	108.327	205.597	221.459	108.233	113.846	220.855	262.354	111.567	115.551	117.340	121.079	272.615	117.872	-8191	255	
2045.752	1	1	0	0	0.10314	0.12499	0.047704	0.28421	0.079742	0.092838	0.072343	0.13455	0.15259	0.13652	0.11966	0.090909	0.069352	0.21061	0.078945	0.092244	-2.7354	-2.2687	-3.4917	-2.7396	-2.7062	-3.5563	-2.7667	-3.1333	-3.1437	-2.75	-3.6063	-2.9521	-2.7042	-3.5	-2.5521	-3.0125	186.935	261.862	204.243	233.143	276.754	438.676	145.948	405.442	221.418	98.928	409.186	449.577	146.636	122.896	148.471	399.183	0.00064649	0.00034231	7.7585e-05	283.46	1.234e-06	1.6305e-06	411.96	106.24	2.1159e-06	4.1209e-06	179.9	76.629	42.853	21.084	2.5981e-06	39.742	0.0002315	0.00019351	5.7527e-05	282.38	2.362e-06	2.0963e-06	403.19	105.24	2.3037e-06	2.0968e-06	175.93	74.377	41.767	20.676	2.285e-06	38.338	282.533	228.909	428.634	109.015	104.436	333.666	108.187	114.238	268.925	268.464	111.379	115.664	117.755	121.093	145.752	118.149	-8191	255	
2045.848	1	1	0	0	0.21795	0.3683	0.25053	0.13238	0.23822	0.0024766	0.03818	0.22777	0.16342	0.27121	0.34633	0.11725	0.060627	0.14667	0.040843	0.23844	-2.9833	-2.5563	-3.2646	-3.2417	-2.8208	-3.3896	-2.6792	-2.7604	-3.4813	-2.7458	-3.1083	-3.1958	-2.6271	-3.2938	-2.8521	-2.8896	414.134	385.635	157.464	230.854	417.771	241.955	392.546	382.866	452.582	226.911	358.188	151.084	251.622	449.669	248.507	439.276	0.00062315	0.00045047	0.00012834	277.93	1.8645e-06	2.2462e-06	405.83	106.08	2.5856e-06	3.5848e-06	180.48	77.063	42.611	21.318	5.76e-06	40.23	0.00022159	0.00019252	5.7547e-05	280.54	2.2147e-06	2.1577e-06	401.99	104.78	2.22e-06	2.113e-06	175.93	74.627	41.8	20.839	2.2821e-06	38.677	281.743	177.523	202.643	108.591	447.707	218.099	108.175	114.070	309.302	196.385	111.795	115.871	117.807	121.151	241.786	118.242	-8191	255	
2045.969	1	1	0	0	0.267	0.30158	0.21935	0.14499	0.18788	0.54444	0.030831	0.18448	0.14352	0.18199	0.15781	0.095286	0.20117	0.14933	0.035745	0.10267	-2.9729	-2.4125	-3.1896	-3.2583	-2.5187	-3.4375	-2.9229	-2.7042	-3.475	-2.6625	-3.1333	-3.2292	-2.5729	-3.3271	-2.8333	-2.9521	305.361	183.896	411.289	418.645	359.817	267.267	453.515	125.473	438.307	266.007	315.770	358.707	345.739	205.013	146.428	344.973	0.00060706	0.00055548	7.4517e-05	283.81	5.1935e-06	2.6583e-07	414.06	106.08	1.3672e-06	2.9968e-06	182.38	77.565	42.905	21.435	5.0734e-06	39.669	0.00021301	0.00020147	5.8867e-05	283.14	2.1426e-06	2.2581e-06	406.13	105.55	2.1354e-06	2.2391e-06	177.58	75.16	42.028	20.981	2.3367e-06	38.449	277.087	142.624	396.199	108.804	257.535	419.258	108.145	114.383	229.615	265.990	111.884	115.520	117.650	120.841	280.752	117.993	-8191	255	
2046.065	1	1	0	0	0.2463	0.17843	0.089903	0.10941	0.21271	0.050578	0.11124	0.27892	0.13321	0.22065	0.011302	0.11724	0.31205	0.075807	0.027901	0.32476	-3.0292	-2.4979	-3.1167	-3.3833	-2.5312	-3.3021	-2.9188	-2.5667	-3.6208	-2.5417	-2.9375	-3.5208	-2.5271	-3.2625	-3.0583	-2.6792	114.901	220.067	230.180	196.239	369.685	130.135	424.931	453.343	286.296	220.454	111.449	257.112	231.024	339.149	222.730	373.281	0.00058959	0.00044706	0.0001614	284.45	1.8496e-06	4.0519e-06	414.5	106.44	2.2922e-06	4.779e-06	181.29	77.01	42.773	21.102	2.6146e-06	39.861	0.0002077	0.00020882	6.0629e-05	284.81	2.1354e-06	2.3241e-06	408.05	105.58	2.1886e-06	2.3356e-06	177.31	74.643	41.825	20.847	2.4334e-06	38.43	280.000	119.971	107.703	108.984	313.261	216.684	108.204	113.698	277.911	192.228	111.920	115.575	117.576	121.313	285.669	117.643	-8191	255	
2046.136	1	1	0	0	0.05993	0.18604	0.16294	0.096153	0.19146	0.11696	0.091215	0.067606	0.14091	0.1198	0.22647	0.24943	0.11543	0.18157	0.20776	0.065017	-2.8542	-2.7042	-3.0125	-3.3229	-2.6479	-3.2562	-3.0583	-2.7417	-3.4083	-2.8583	-3.0375	-3.3833	-2.6604	-3.2	-3.1625	-2.6188	405.178	407.764	189.788	416.641	416.985	102.740	369.802	397.659	324.352	104.540	382.730	403.001	336.819	106.805	360.680	245.204	0.00061491	0.00039502	0.00015595	281.25	6.297e-06	3.3565e-06	409.08	105.71	4.203e-06	1.0603e-06	178.65	75.729	42.506	20.983	4.2405e-06	39.652	0.00021408	0.00021814	6.1353e-05	282.62	2.1717e-06	2.3252e-06	403.59	104.76	2.1804e-06	2.2677e-06	175.47	73.781	41.684	20.7	2.3597e-06	38.035	292.275	211.027	147.635	108.859	236.340	293.449	108.603	114.235	306.206	261.325	111.679	116.038	117.638	121.084	332.842	117.913	-8191	255	
2046.257	1	1	0	0	0.19285	0.0077598	0.15648	0.26766	0.10493	0.15793	0.16223	0.17612	0.14242	0.12231	0.37677	0.27045	0.40187	0.20991	0.14448	0.06699	-3.0438	-2.6604	-2.9146	-3.2979	-2.5021	-3.0958	-3.2542	-2.5917	-3.4	-3.1979	-2.7562	-3.5083	-2.6646	-2.8646	-3.3021	-2.6146	387.799	114.130	204.794	409.404	192.663	406.915	368.435	329.934	120.542	428.204	387.057	385.895	99.698	445.063	271.400	179.115	0.0006455	0.00019164	0.00012751	277.37	3.0532e-06	2.261e-06	407.89	106.13	4.0962e-07	3.2976e-06	179.26	76.215	42.411	21.224	2.7096e-06	40.079	0.00021563	0.00020949	5.9656e-05	278.94	2.2169e-06	2.3213e-06	402.77	104.52	2.2386e-06	2.3218e-06	175.73	74.139	41.717	20.84	2.3014e-06	38.317	282.484	163.715	169.558	109.159	312.071	335.626	108.027	114.219	304.455	259.055	112.392	115.945	117.596	121.267	258.728	117.808	-8191	255	
2046.351	1	1	0	0	0.17595	0.22289	0.043077	0.11005	0.15291	0.23495	0.045498	0.047669	0.18319	0.076075	0.11855	0.061008	0.30026	0.21242	0.056369	0.21876	-3.0021	-3.0958	-2.4813	-3.3563	-2.5458	-3.1604	-3.3875	-2.5521	-3.4271	-2.9729	-2.6708	-3.4229	-2.7438	-2.8208	-3.3479	-2.6813	247.309	221.337	280.645	309.188	449.169	285.920	230.971	164.435	227.691	449.327	304.482	434.230	334.376	433.420	143.888	174.021	0.00048243	0.0004973	5.2182e-05	282.71	5.3622e-06	1.886e-06	417.52	106.36	3.0384e-06	4.2303e-06	180.4	76.385	42.583	21.149	3.2243e-06	39.613	0.00021873	0.00021416	5.8558e-05	281.42	2.2747e-06	2.3258e-06	407.28	105.09	2.2921e-06	2.3496e-06	176.45	74.285	41.972	20.832	2.235e-06	38.133	288.224	183.350	264.225	108.704	310.081	239.458	108.432	114.136	258.512	281.416	111.504	115.707	117.660	121.619	211.844	118.169	-8191	255	
2046.448	1	1	0	0	0.20924	0.28759	0.33545	0.12245	0.16162	0.024991	0.099899	0.05614	0.15161	0.086543	0.2477	0.24386	0.1063	0.14929	0.2231	0.081244	-2.8271	-3.2292	-2.7542	-3.5104	-2.7687	-2.9333	-3.3021	-2.6271	-3.1729	-3.2	-2.6792	-3.4271	-2.8625	-2.9813	-3.5021	-2.6396	299.522	266.987	434.242	318.426	304.102	397.116	348.837	444.415	345.706	432.122	376.863	380.794	412.977	328.630	188.453	308.693	0.00062496	0.00022958	0.00014108	282.39	1.8286e-06	2.5228e-06	417.67	106.51	1.5644e-06	5.596e-06	180.26	76.42	42.903	21.104	1.8264e-06	39.597	0.00022442	0.00021864	5.6197e-05	283.56	2.3339e-06	2.3923e-06	407.41	105.4	2.3171e-06	2.3998e-06	175.95	74.394	42.028	20.81	2.1398e-06	38.217	275.825	257.880	237.704	109.327	146.679	212.473	108.420	114.645	308.908	287.333	112.321	116.116	117.661	121.868	303.953	118.147	-8191	255	
2046.544	1	1	0	0	0.096397	0.048944	0.07022	0.35078	0.27301	0.20629	0.1356	0.068503	0.12353	0.063878	0.1596	0.066822	0.17485	0.13186	0.057149	0.23778	-2.6875	-3.0667	-2.5354	-3.4271	-2.9875	-2.7833	-3.2479	-2.6792	-2.9021	-3.35	-2.3854	-3.2958	-3.1521	-2.6917	-3.5687	-2.6333	122.231	107.476	448.834	386.079	144.118	239.388	210.465	193.878	449.059	152.660	370.437	438.291	289.483	229.794	103.839	453.277	0.00061316	0.00023476	0.00010435	280.38	3.181e-06	2.6942e-06	411.2	106.14	5.5225e-06	1.74e-06	178.34	75.983	42.49	21.216	6.7959e-07	39.492	0.00022716	0.00021734	5.4943e-05	281.29	2.3861e-06	2.3596e-06	402.43	104.57	2.3061e-06	2.3206e-06	174.28	73.979	41.866	20.816	2.0989e-06	38.098	278.156	229.293	186.854	109.109	152.147	201.696	108.822	114.466	274.509	307.290	112.259	116.007	118.286	121.357	280.502	118.118	-8191	255	
2046.640	1	1	0	0	0.074204	0.25742	0.032753	0.14794	0.23211	0.23454	0.14333	0.15657	0.18849	0.19527	0.34283	0.11271	0.073896	0.10027	0.18696	0.085423	-2.3729	-3.4146	-2.7313	-3.1562	-2.8854	-2.6188	-3.4833	-2.6792	-2.7167	-3.3583	-2.6979	-3.1	-3.1021	-2.4938	-3.4354	-2.7375	109.498	392.920	303.981	98.727	148.087	147.619	165.036	321.753	262.191	352.058	99.474	391.579	230.651	319.997	326.297	163.811	0.0006487	0.00020447	3.9786e-05	280.5	1.4528e-06	2.3093e-06	411.07	106.24	3.4248e-06	7.4985e-07	179.37	76.452	42.737	21.178	4.8409e-06	39.789	0.00022547	0.00021197	5.4778e-05	281.83	2.3524e-06	2.2631e-06	402.89	105.28	2.3719e-06	2.2408e-06	175.22	74.358	42.167	20.808	2.1598e-06	38.341	282.310	225.065	114.707	109.015	246.382	196.088	108.572	114.581	271.371	256.024	112.382	116.415	117.968	121.417	230.814	118.289	-8191	255	
2046.761	1	1	0	0	0.16458	0.054821	0.1881	0.11188	0.18925	0.19508	0.24783	0.040891	0.12275	0.23934	0.11203	0.1914	0.23032	0.14198	0.036738	0.20394	-2.3896	-3.25	-2.6271	-2.9437	-3.1562	-2.5604	-3.3312	-2.8667	-2.7604	-3.2625	-2.5938	-3.375	-3.275	-2.5104	-3.3854	-2.8063	121.104	112.608	303.112	202.508	176.340	240.893	340.554	198.839	290.973	387.076	130.955	111.540	170.585	404.093	246.029	379.036	0.00058315	0.00037228	0.00021841	282.55	4.7287e-06	1.4261e-06	415.96	106.25	2.1698e-06	1.8422e-06	180.52	76.667	42.313	21.266	3.2531e-06	39.384	0.00023047	0.0002019	5.6506e-05	283.91	2.3707e-06	2.1662e-06	406.88	105.48	2.3791e-06	2.1253e-06	176.05	74.466	41.996	20.723	2.2959e-06	38.128	283.283	259.219	209.057	109.468	261.814	175.681	108.621	114.573	215.764	243.345	112.464	116.354	117.937	121.338	238.234	118.642	-8191	255	
2046.832	1	1	0	0	0.13472	0.24431	0.14604	0.071842	0.16026	0.14196	0.24991	0.15254	0.25801	0.12528	0.15408	0.11999	0.15896	0.31947	0.1179	0.14353	-2.1667	-3.4979	-2.6833	-2.9833	-3.1854	-2.65	-3.2313	-3.1604	-2.5563	-3.2521	-2.8688	-2.9917	-3.2604	-2.5896	-3.1333	-2.95	281.263	169.009	272.119	428.265	423.402	382.321	370.957	155.461	301.242	343.235	231.677	417.189	140.094	101.822	315.735	227.069	0.00053505	0.00022852	6.1876e-05	285.08	5.6389e-06	2.3299e-06	416.09	106.6	6.0323e-06	3.1545e-06	178.06	75.29	42.053	20.739	4.3624e-06	38.358	0.00023117	0.00019943	5.8038e-05	285.76	2.3987e-06	2.2121e-06	409.09	105.66	2.3713e-06	2.1883e-06	174.56	73.128	41.286	20.241	2.3549e-06	37.097	281.972	232.847	119.966	109.415	317.668	402.065	108.567	114.442	287.367	200.093	112.392	116.384	117.772	121.875	279.363	118.534	-8191	255	
2046.928	1	1	0	0	0.041461	0.13361	0.12143	0.14482	0.13604	0.060047	0.22443	0.13828	0.141	0.097707	0.22414	0.079255	0.24671	0.33128	0.23007	0.201	-2.2375	-3.2833	-2.7479	-2.7812	-3.3458	-2.5438	-3.2313	-3.1875	-2.4938	-3.4896	-2.8333	-2.825	-3.5146	-2.5792	-3.1646	-3.3521	128.233	368.131	138.386	194.769	304.606	220.132	109.332	117.587	308.537	445.805	369.318	237.353	364.546	262.368	325.231	432.835	0.00059453	0.00035034	7.361e-05	282.45	4.1797e-06	4.4691e-06	401.42	103.26	2.6647e-06	3.9957e-06	172.25	72.419	40.501	20.022	3.3809e-06	37.102	0.00022758	0.00020826	6.1132e-05	282.31	2.3111e-06	2.2855e-06	396.24	102.83	2.2972e-06	2.3136e-06	168.76	70.534	40.122	19.633	2.4162e-06	35.796	281.738	162.087	152.270	109.759	178.404	227.878	109.151	114.326	342.850	259.328	112.091	116.439	117.877	121.528	258.225	117.746	-8191	255	
2047.049	1	1	0	0	0.08962	0.06949	0.12096	0.18194	0.062013	0.04505	0.087164	0.20334	0.20952	0.0091362	0.07715	0.073984	0.050915	0.089219	0.013021	0.10211	-2.1271	-3.4917	-2.8146	-2.6354	-3.3688	-2.8167	-2.9771	-3.3187	-2.5479	-3.3021	-3.0417	-2.65	-3.2792	-2.5708	-2.9583	-3.2167	163.939	381.949	186.500	279.852	339.996	418.826	155.522	418.722	308.814	274.947	314.460	393.102	105.560	128.145	392.365	362.379	0.00059793	0.00021584	0.00011855	274.55	2.1886e-06	3.5492e-06	403.72	103.42	4.6373e-06	1.7028e-06	173.64	73.227	41.245	20.12	4.3255e-06	37.549	0.00021197	0.0002109	6.1115e-05	277.82	2.1857e-06	2.3207e-06	394.93	102.81	2.1779e-06	2.3365e-06	169.92	71.141	40.5	19.897	2.41e-06	36.313	271.290	386.279	170.171	109.768	206.659	262.673	108.412	114.257	258.757	287.284	111.959	115.859	117.904	121.641	267.001	118.399	-8191	255	
2047.145	1	1	0	0	0.14887	0.12143	0.19375	0.072825	0.10411	0.19304	0.047026	0.16009	0.12641	0.17746	0.18785	0.035989	0.061593	0.29043	0.21303	0.14996	-2.0208	-3.2062	-2.7938	-2.4833	-3.55	-2.6521	-3.0833	-3.5187	-2.4979	-3.3042	-3.1958	-2.6625	-3.5083	-2.6771	-2.7708	-3.4292	343.995	158.733	412.687	258.631	248.242	162.777	182.559	134.090	332.681	329.962	142.475	117.546	166.094	403.532	450.667	379.061	0.00060331	0.00034836	3.7374e-05	278.09	5.1546e-06	3.6019e-06	405.61	104.46	5.0011e-06	4.3587e-06	175.27	73.566	41.67	20.261	3.031e-06	38.116	0.0002123	0.00021725	6.1388e-05	280.29	2.2131e-06	2.3767e-06	399.7	103.29	2.1855e-06	2.3774e-06	171.7	71.496	40.86	19.992	2.4607e-06	36.657	279.297	193.300	246.197	109.273	199.257	282.475	108.336	114.069	277.092	243.280	111.608	116.248	117.774	121.443	161.327	118.032	-8191	255	
2047.241	1	1	0	0	0.3292	0.1014	0.17806	0.10657	0.057549	0.024461	0.072399	0.076386	0.19045	0.081481	0.018105	0.2819	0.20234	0.11227	0.17489	0.21768	-2.4313	-3.2521	-3.0021	-2.5042	-3.3875	-2.8792	-2.8937	-3.4292	-2.5208	-3.3104	-3.2354	-2.5667	-3.525	-2.8271	-2.6188	-3.4292	292.434	447.891	211.018	296.807	378.086	298.451	278.010	455.685	395.742	135.111	221.871	99.689	366.563	316.614	422.694	364.872	0.00058819	0.00048364	0.00025145	284.77	4.3521e-06	2.219e-07	408.43	104.84	5.0717e-06	3.3223e-06	174.39	73.389	41.13	19.967	5.1179e-06	37.226	0.00021803	0.00021861	6.3036e-05	284.36	2.2993e-06	2.4216e-06	404.66	103.84	2.2998e-06	2.4004e-06	171.37	71.367	40.565	19.697	2.5313e-06	35.779	280.007	161.615	122.028	108.664	223.665	193.234	108.542	114.864	264.210	254.056	112.436	116.135	118.112	121.508	242.485	118.200	-8191	255	
2047.337	1	1	0	0	0.072329	0.22704	0.18341	0.30654	0.030052	0.13647	0.078438	0.37282	0.17519	0.17719	0.18334	0.13145	0.022718	0.18678	0.18867	0.16463	-2.1292	-3.1396	-3.4271	-2.5583	-3.4458	-2.9729	-2.6042	-3.2875	-2.725	-2.9396	-3.3396	-2.7917	-3.1	-3.0083	-2.5521	-3.3833	262.868	198.198	419.141	402.712	153.742	390.657	405.837	101.988	129.042	280.397	443.707	429.052	426.197	277.230	238.749	270.410	0.00054784	0.0001162	0.00012669	281.49	2.4903e-06	1.7924e-06	398.51	102.08	2.7038e-06	3.0275e-06	165.82	69.146	39.299	19.042	1.4156e-06	34.843	0.00022328	0.00022238	6.2871e-05	279.37	2.3667e-06	2.4701e-06	391.15	100.55	2.4039e-06	2.495e-06	163.16	67.258	38.955	18.845	2.4567e-06	33.884	276.061	119.987	162.048	109.210	252.962	271.252	108.498	114.395	180.708	336.369	112.660	116.431	118.425	121.430	226.586	118.266	-8191	255	
2047.432	1	1	0	0	0.047027	0.20266	0.26863	0.34171	0.072172	0.12715	0.066572	0.059182	0.16256	0.16296	0.065673	0.39248	0.21415	0.21991	0.19326	0.095708	-2.1271	-2.9667	-3.3458	-2.6104	-3.4333	-3.0917	-2.5917	-3.3646	-2.6125	-2.9688	-3.2771	-2.3937	-3.1125	-3.3479	-2.5646	-3.3979	194.501	244.496	270.114	143.755	185.915	118.564	282.524	182.792	272.126	119.264	126.031	369.635	162.844	365.184	124.539	171.896	0.00055197	0.00029944	0.00015004	273.53	2.326e-06	2.376e-06	390.94	99.171	4.3814e-06	4.0365e-06	164.06	67.84	39.098	18.759	2.1744e-06	34.401	0.00023507	0.00023661	6.3347e-05	275.47	2.4978e-06	2.5481e-06	386.11	99.204	2.5294e-06	2.639e-06	160.49	66.358	38.695	18.594	2.4676e-06	33.35	281.629	241.556	295.934	109.162	188.944	324.321	108.790	114.339	308.938	212.322	112.330	116.388	118.171	121.595	332.784	118.644	-8191	255	
2047.528	1	1	0	0	0.18569	0.18708	0.21084	0.081994	0.10808	0.065305	0.4052	0.43055	0.2162	0.10999	0.22833	0.34477	0.46392	0.11677	0.17077	0.10505	-2.5563	-2.9688	-3.4917	-2.525	-3.0917	-3.2333	-2.6979	-3.5229	-2.85	-2.6	-3.35	-2.675	-2.8271	-3.3187	-2.5917	-3.3958	188.448	136.895	226.000	255.528	129.008	110.647	348.337	383.129	114.963	300.514	451.225	391.164	118.607	441.659	184.515	390.540	0.00047197	0.00042531	0.00015215	275.38	2.1214e-06	1.943e-06	388.92	98.773	5.2059e-06	1.7718e-06	160.55	67.785	38.79	18.617	2.5524e-06	34.557	0.00024227	0.00024709	6.154e-05	277.02	2.607e-06	2.6603e-06	384.7	98.663	2.6379e-06	2.7128e-06	159.22	66.159	38.697	18.568	2.3898e-06	33.432	290.183	165.165	188.950	109.862	325.562	246.982	108.777	114.827	330.149	358.337	112.096	116.250	118.113	121.712	141.431	118.674	-8191	255	
2047.649	1	1	0	0	0.11894	0.13357	0.11224	0.233	0.18329	0.15872	0.11977	0.059059	0.042276	0.079086	0.29308	0.199	0.30418	0.16217	0.28979	0.13285	-2.3771	-2.6771	-3.2979	-2.6229	-3.125	-3.4104	-2.5958	-3.025	-2.9729	-2.6937	-3.2646	-2.5396	-2.9771	-3.3104	-2.6354	-3.2083	144.029	241.650	367.494	292.966	179.191	326.778	126.207	308.532	304.849	397.564	442.825	456.013	342.632	104.428	385.414	333.336	0.00047673	0.00013956	0.0002023	273.56	4.8617e-06	2.5475e-06	390.94	99.132	4.7457e-06	2.8603e-06	159.31	67.326	38.445	18.448	2.1017e-06	33.99	0.00025325	0.00024588	6.1807e-05	276.99	2.6524e-06	2.6821e-06	384.76	98.569	2.6782e-06	2.6399e-06	157.31	65.715	38.279	18.337	2.4755e-06	32.944	269.624	178.727	165.642	109.683	321.950	132.271	108.650	114.740	258.606	301.662	112.475	116.583	118.707	121.718	274.590	118.708	-8191	255	
2047.745	1	1	0	0	0.12231	0.13811	0.14638	0.12658	0.12723	0.024703	0.040224	0.086146	0.10889	0.071839	0.06761	0.27477	0.1719	0.10484	0.32337	0.19261	-2.7771	-2.4479	-3.4562	-2.7146	-2.5521	-3.3896	-2.6708	-3	-3.0417	-2.6771	-3.5312	-2.625	-2.8021	-3.2771	-2.7583	-3.2812	326.937	454.501	214.815	185.208	412.634	264.466	404.438	265.312	372.921	388.897	364.123	269.358	446.757	260.700	110.627	408.917	0.00052902	0.00011888	0.00013459	275.84	3.7136e-06	1.7703e-06	383.23	97.408	5.0291e-06	2.9045e-06	157.66	65.912	37.839	18.231	1.0552e-06	33.579	0.00025957	0.00023411	6.3504e-05	276.38	2.7143e-06	2.5608e-06	378.67	97.259	2.7088e-06	2.5166e-06	155.21	64.49	37.834	18.085	2.5163e-06	32.5	275.881	369.599	187.342	109.852	327.667	277.811	108.663	114.866	326.411	418.744	112.471	116.605	118.628	121.851	203.670	118.929	-8191	255	
2047.841	1	1	0	0	0.082247	0.099442	0.067836	0.082268	0.33884	0.16919	0.1493	0.20814	0.09339	0.12741	0.17528	0.17068	0.091547	0.15955	0.18262	0.11151	-2.8354	-2.6667	-3.2604	-2.9333	-2.6958	-3.4729	-2.6708	-2.9333	-3.1813	-2.6646	-3.2271	-3.0229	-2.7146	-3.2667	-2.45	-3.0229	122.750	278.914	273.368	400.542	354.678	327.368	264.426	264.814	146.092	454.481	314.867	126.119	304.860	320.886	417.788	188.748	0.0004507	0.00021695	0.00018195	269.38	2.9108e-06	3.4208e-06	386.33	96.559	7.2811e-06	4.876e-06	157.05	65.343	37.744	18.379	1.5502e-06	33.536	0.00025809	0.00022358	6.5948e-05	273.38	2.7126e-06	2.4791e-06	378.46	96.654	2.6789e-06	2.401e-06	155.22	64.109	37.697	18.118	2.5879e-06	32.614	287.013	453.059	105.367	109.615	316.574	315.398	109.079	114.777	335.104	209.779	111.573	115.933	117.589	121.038	365.421	118.242	-8191	255	
2047.937	1	1	0	0	0.18284	0.070737	0.11625	0.080005	0.11028	0.16918	0.25763	0.091518	0.178	0.18335	0.11713	0.18036	0.056068	0.22565	0.20543	0.1399	-3.0083	-2.6333	-3.2083	-2.9562	-2.6188	-3.3146	-2.7333	-3.1729	-3.3312	-2.4188	-3.1396	-3.0479	-2.4875	-3.3021	-2.7479	-2.9688	136.152	176.491	208.560	133.072	314.008	197.059	395.156	369.086	271.064	201.098	362.228	304.408	274.602	194.046	154.677	375.371	0.0004977	0.00065011	0.00025152	269.52	2.1055e-06	1.6451e-06	386.97	96.791	2.9788e-06	5.5885e-06	156.65	66.01	37.93	18.43	1.5986e-06	34.132	0.00025537	0.00022338	6.7453e-05	275.43	2.637e-06	2.4809e-06	380.78	96.897	2.626e-06	2.4367e-06	155.17	64.777	37.656	18.193	2.6592e-06	32.961	282.523	218.132	142.429	108.632	328.814	261.305	108.277	114.180	382.596	179.243	111.491	115.558	117.284	120.757	445.123	118.258	-8191	255	
2048.058	1	1	0	0	0.17193	0.11918	0.066793	0.18819	0.10233	0.099349	0.1682	0.087852	0.10695	0.14376	0.27941	0.16612	0.10471	0.14832	0.033154	0.091774	-2.9021	-2.3937	-3.3979	-2.9958	-2.6667	-3.3542	-2.9125	-2.8521	-3.4271	-2.6937	-3.0979	-3.1896	-2.5792	-3.1271	-2.8937	-2.7354	423.799	230.517	163.282	392.962	159.094	108.306	164.802	99.130	156.177	426.074	326.010	413.860	119.261	429.742	136.011	449.671	0.00052119	0.00026442	0.00012693	270.98	1.5488e-06	1.8991e-06	387.07	96.282	1.7282e-06	2.6809e-06	155.63	65.205	37.696	18.245	1.2194e-06	33.221	0.00024585	0.00022796	6.8598e-05	276.27	2.4922e-06	2.5875e-06	381.07	96.684	2.5135e-06	2.5451e-06	154.74	64.275	37.386	18.094	2.681e-06	32.335	285.526	102.650	416.181	108.526	335.510	289.447	108.075	114.149	250.390	253.085	111.710	115.912	117.350	121.197	182.633	117.729	-8191	255	
2048.129	1	1	0	0	0.11864	0.12834	0.21388	0.13006	0.08891	0.23811	0.10306	0.1759	0.10753	0.14883	0.2058	0.067664	0.087754	0.3473	0.27459	0.19913	-3.0396	-2.6625	-2.8208	-3.2146	-2.7875	-3.2375	-2.9875	-2.6063	-3.4021	-2.6208	-2.9917	-3.2479	-2.5375	-3.2979	-2.9521	-2.4583	451.175	394.346	265.848	324.560	352.294	199.388	359.877	430.647	398.554	191.361	113.525	160.269	106.884	440.140	149.504	111.436	0.00045069	0.00037958	0.00010023	268.68	4.5307e-06	3.764e-06	375.85	94.647	1.9609e-06	2.78e-07	152.32	63.845	37.264	18.007	3.7161e-06	32.764	0.00023146	0.00024027	6.8306e-05	272.44	2.4217e-06	2.6337e-06	375.03	94.992	2.4095e-06	2.6316e-06	152.07	63.164	36.996	17.894	2.7441e-06	32.017	280.115	175.300	148.790	108.479	278.007	297.212	108.055	113.486	271.245	421.433	112.189	115.455	118.065	121.183	192.394	117.901	-8191	255	
2048.226	1	1	0	0	0.095212	0.26177	0.1222	0.27331	0.29017	0.061881	0.14939	0.24642	0.13043	0.12811	0.23199	0.11427	0.46076	0.041711	0.25863	0.17205	-3.0583	-2.6562	-2.7208	-3.4667	-2.4396	-3.3729	-3.1417	-2.5271	-3.4854	-2.7208	-2.9062	-3.3479	-2.6437	-3.1667	-3.0458	-2.4604	183.432	104.031	197.164	364.898	133.737	329.912	364.884	338.890	190.447	204.661	447.014	145.856	438.924	187.712	112.692	173.312	0.00050724	0.00039421	0.00012679	268.46	5.2444e-06	2.5829e-06	378.7	94.636	4.5445e-06	5.5694e-06	153.41	64.088	37.02	18.11	3.942e-06	32.522	0.00023669	0.00024735	7.0372e-05	272.02	2.5264e-06	2.6962e-06	375.04	94.619	2.5339e-06	2.729e-06	152.45	62.839	36.885	17.909	2.8016e-06	31.863	274.997	449.792	433.856	108.722	222.598	400.127	107.641	114.006	201.258	306.061	112.014	115.371	117.784	121.129	382.458	118.015	-8191	255	
2048.344	1	1	0	0	0.13485	0.078819	0.15411	0.077354	0.29241	0.23983	0.14866	0.087738	0.084475	0.17126	0.11665	0.14459	0.16863	0.04385	0.11485	0.16862	-2.8312	-2.8083	-2.7771	-3.275	-2.6167	-3.2896	-3.2229	-2.5979	-3.3833	-2.8438	-2.6333	-3.3917	-2.5271	-2.9	-3.1417	-2.7062	119.420	420.768	263.495	115.826	391.658	298.799	115.412	438.154	195.884	305.809	376.961	391.584	122.284	316.333	416.961	282.082	0.00053853	0.00017889	0.00015732	268.84	2.0944e-06	2.804e-06	381.34	94.232	6.3446e-06	2.727e-06	151.32	64.502	36.848	18.049	2.0989e-06	33.014	0.00024551	0.00025464	7.228e-05	270.85	2.6516e-06	2.7606e-06	375.46	94.098	2.6197e-06	2.7443e-06	152.45	62.895	37.02	18.029	2.7777e-06	32.119	283.378	198.761	195.940	109.369	344.887	260.865	107.831	113.871	253.437	220.943	111.403	115.376	117.920	121.457	400.613	117.744	-8191	255	
2048.441	1	1	0	0	0.3441	0.28197	0.25974	0.10491	0.12286	0.19375	0.11104	0.081693	0.1341	0.23179	0.1484	0.11429	0.27849	0.070003	0.23976	0.062679	-2.8271	-2.8812	-2.625	-3.3896	-2.5646	-2.9875	-3.4188	-2.3125	-3.2875	-3.2583	-2.6896	-3.3917	-2.5667	-2.9604	-3.5771	-2.6042	149.757	115.159	371.826	435.718	370.130	307.491	367.664	370.421	416.011	263.467	393.237	380.040	430.479	222.134	455.598	100.780	0.00050539	0.00020383	0.00015015	269.82	4.0615e-06	1.8944e-06	379.06	93.725	2.3076e-06	2.7971e-06	150.21	63.969	36.425	18.019	2.4559e-06	32.678	0.00025136	0.00025534	7.0065e-05	271.03	2.735e-06	2.7529e-06	374.05	93.958	2.699e-06	2.7804e-06	150.64	62.632	36.879	17.89	2.6551e-06	31.745	279.182	242.654	250.139	108.608	168.226	246.065	107.768	114.141	196.544	195.115	111.469	115.565	117.311	121.006	356.458	117.872	-8191	255	
2048.537	1	1	0	0	0.16755	0.08486	0.26878	0.0085636	0.20234	0.13159	0.27124	0.21873	0.14144	0.10107	0.15563	0.037863	0.33293	0.027731	0.16889	0.085636	-2.8229	-3.1292	-2.5854	-3.5958	-2.725	-2.8792	-3.4875	-2.4813	-3.2104	-3.2062	-2.775	-3.4542	-2.7375	-2.7313	-3.3708	-2.7167	348.747	412.550	206.283	149.892	368.738	290.165	334.107	426.499	222.461	296.340	419.194	384.513	448.965	206.795	138.848	115.748	0.00045173	0.00013316	9.3098e-05	268.44	4.5282e-06	1.3886e-07	375.84	94.232	2.2748e-06	5.9547e-08	152.63	63.881	36.534	17.995	3.3194e-06	32.954	0.00025345	0.00025902	6.6843e-05	268.6	2.7199e-06	2.8022e-06	370.26	93.732	2.6948e-06	2.794e-06	149.6	62.366	36.711	17.907	2.5501e-06	32.083	274.571	239.009	429.909	108.873	235.603	260.980	107.590	114.181	233.117	328.176	111.565	115.487	117.360	121.288	165.885	118.100	-8191	255	
2048.633	1	1	0	0	0.043942	0.092838	0.056183	0.2951	0.073519	0.041382	0.29282	0.08938	0.30054	0.081075	0.09894	0.12204	0.033053	0.13515	0.12029	0.12875	-2.7979	-3.2	-2.6521	-3.2396	-2.8958	-2.8125	-3.3771	-2.6271	-3.1396	-3.3646	-2.6104	-3.3812	-2.95	-2.6042	-3.45	-2.5687	413.756	135.396	242.638	213.773	200.962	232.031	422.882	171.071	311.002	349.429	139.692	224.052	440.283	267.765	431.284	439.808	0.00049576	0.00035695	9.4526e-05	268.52	2.71e-06	8.1902e-07	379.49	94	6.9917e-07	2.5807e-06	153.29	65.161	37.113	18.336	6.5892e-06	33.734	0.0002627	0.00025841	6.4082e-05	270.58	2.7204e-06	2.7837e-06	373.08	94.363	2.7244e-06	2.7871e-06	152.27	63.91	37.375	18.209	2.4967e-06	32.871	285.601	157.883	442.545	108.891	137.974	172.553	107.835	114.011	241.274	124.620	111.514	115.913	116.771	121.270	197.489	117.919	-8191	255	
#DATA ENDS
