BOXY.EXE: ISS Imagent and Oximeter Data Acquisition Program Version 0.80
Ascii Record File

#ACQ INFORMATION
2  Detector Channels 
16  External MUX Channels 
1  Auxiliary Channels 
5000  Waveform (CCF) Frequency (Hz)
1  Waveforms Skipped 
30  Waveforms Averaged 
1  Cycles Averaged 
16  Acquisitions per Waveform 
10.0806  Updata Rate (Hz) 

#FILE INFORMATION
TRUE -- External MUX Channel results are PARSED.
FALSE -- AC DC and Phase are NOT grouped.
TRUE -- Companion Program Settings File CREATED.
FALSE -- AC data not excluded
FALSE -- DC data not excluded
FALSE -- Phase data not excluded
FALSE -- Auxillary Chn. data not excluded
Tab delimiters

#CALIBRATION STATE
TRUE -- Waveform Calibration Values APPLIED.


#AUX CALIBRATION VALUES
Val Type	aux-1	

Term	1.0000e+00	
Factor	0.0000e+00	


#WF CALIBRATION VALUES
A = Detector Channel
Val Type	A-AC1	A-AC2	A-AC3	A-AC4	A-AC5	A-AC6	A-AC7	A-AC8	A-AC9	A-AC10	A-AC11	A-AC12	A-AC13	A-AC14	A-AC15	A-AC16	A-DC1	A-DC2	A-DC3	A-DC4	A-DC5	A-DC6	A-DC7	A-DC8	A-DC9	A-DC10	A-DC11	A-DC12	A-DC13	A-DC14	A-DC15	A-DC16	A-Ph1	A-Ph2	A-Ph3	A-Ph4	A-Ph5	A-Ph6	A-Ph7	A-Ph8	A-Ph9	A-Ph10	A-Ph11	A-Ph12	A-Ph13	A-Ph14	A-Ph15	A-Ph16	

Term	0.00000e+00	0.00000e+00	0.00000e+00	0.00000e+00	0.00000e+00	0.00000e+00	0.00000e+00	0.00000e+00	0.00000e+00	0.00000e+00	0.00000e+00	0.00000e+00	0.00000e+00	0.00000e+00	0.00000e+00	0.00000e+00	0.00000e+00	0.00000e+00	0.00000e+00	0.00000e+00	0.00000e+00	0.00000e+00	0.00000e+00	0.00000e+00	0.00000e+00	0.00000e+00	0.00000e+00	0.00000e+00	0.00000e+00	0.00000e+00	0.00000e+00	0.00000e+00	0.00000e+00	0.00000e+00	0.00000e+00	0.00000e+00	0.00000e+00	0.00000e+00	0.00000e+00	0.00000e+00	0.00000e+00	0.00000e+00	0.00000e+00	0.00000e+00	0.00000e+00	0.00000e+00	0.00000e+00	0.00000e+00	
Factor	1.00000e+00	1.00000e+00	1.00000e+00	1.00000e+00	1.00000e+00	1.00000e+00	1.00000e+00	1.00000e+00	1.00000e+00	1.00000e+00	1.00000e+00	1.00000e+00	1.00000e+00	1.00000e+00	1.00000e+00	1.00000e+00	1.00000e+00	1.00000e+00	1.00000e+00	1.00000e+00	1.00000e+00	1.00000e+00	1.00000e+00	1.00000e+00	1.00000e+00	1.00000e+00	1.00000e+00	1.00000e+00	1.00000e+00	1.00000e+00	1.00000e+00	1.00000e+00	X	X	X	X	X	X	X	X	X	X	X	X	X	X	X	X	

B = Detector Channel
Val Type	B-AC1	B-AC2	B-AC3	B-AC4	B-AC5	B-AC6	B-AC7	B-AC8	B-AC9	B-AC10	B-AC11	B-AC12	B-AC13	B-AC14	B-AC15	B-AC16	B-DC1	B-DC2	B-DC3	B-DC4	B-DC5	B-DC6	B-DC7	B-DC8	B-DC9	B-DC10	B-DC11	B-DC12	B-DC13	B-DC14	B-DC15	B-DC16	B-Ph1	B-Ph2	B-Ph3	B-Ph4	B-Ph5	B-Ph6	B-Ph7	B-Ph8	B-Ph9	B-Ph10	B-Ph11	B-Ph12	B-Ph13	B-Ph14	B-Ph15	B-Ph16	

Term	0.00000e+00	0.00000e+00	0.00000e+00	0.00000e+00	0.00000e+00	0.00000e+00	0.00000e+00	0.00000e+00	0.00000e+00	0.00000e+00	0.00000e+00	0.00000e+00	0.00000e+00	0.00000e+00	0.00000e+00	0.00000e+00	0.00000e+00	0.00000e+00	0.00000e+00	0.00000e+00	0.00000e+00	0.00000e+00	0.00000e+00	0.00000e+00	0.00000e+00	0.00000e+00	0.00000e+00	0.00000e+00	0.00000e+00	0.00000e+00	0.00000e+00	0.00000e+00	-7.70394e+01	-1.24773e+02	-1.22023e+02	-1.83689e+02	-5.26907e+01	-6.57493e+01	-1.55956e+02	-1.62015e+02	-4.12905e+01	-6.64813e+01	-1.69979e+02	-1.70582e+02	-1.79937e+02	-1.76627e+02	-6.08650e+01	-1.49193e+02	
Factor	1.65381e-05	1.27404e-04	4.20882e-05	1.74909e-01	1.21720e-06	1.50233e-06	1.52390e-01	4.88806e-02	1.05316e-06	1.33437e-06	8.28644e-02	2.88030e-02	2.48227e-02	8.64829e-03	1.26265e-06	1.23097e-02	3.77851e-06	4.39697e-06	1.22931e-06	9.36027e-02	4.74484e-08	4.83570e-08	7.69343e-02	2.63740e-02	4.70575e-08	4.84823e-08	4.32323e-02	1.50964e-02	1.35041e-02	4.69083e-03	4.79849e-08	6.44294e-03	X	X	X	X	X	X	X	X	X	X	X	X	X	X	X	X	



#DISTANCE SETTINGS
A = Detector Channel
A-1	A-2	A-3	A-4	A-5	A-6	A-7	A-8	A-9	A-10	A-11	A-12	A-13	A-14	A-15	A-16	

2.5000e+00	3.0000e+00	2.5000e+00	3.0000e+00	2.0000e+00	3.0000e+00	1.5000e+00	3.0000e+00	3.0000e+00	3.0000e+00	3.0000e+00	3.0000e+00	3.0000e+00	3.0000e+00	1.5000e+00	3.0000e+00	

B = Detector Channel
B-1	B-2	B-3	B-4	B-5	B-6	B-7	B-8	B-9	B-10	B-11	B-12	B-13	B-14	B-15	B-16	

1.0000e+01	1.0000e+01	1.0000e+01	1.4400e+00	1.0000e+01	1.0000e+01	1.5100e+00	1.9400e+00	1.0000e+01	1.0000e+01	1.9900e+00	2.4900e+00	2.4100e+00	2.9000e+00	1.0000e+01	2.9800e+00	




#DATA BEGINS
time	group	step	mark	flag	A-AC1	A-AC2	A-AC3	A-AC4	A-AC5	A-AC6	A-AC7	A-AC8	A-AC9	A-AC10	A-AC11	A-AC12	A-AC13	A-AC14	A-AC15	A-AC16	A-DC1	A-DC2	A-DC3	A-DC4	A-DC5	A-DC6	A-DC7	A-DC8	A-DC9	A-DC10	A-DC11	A-DC12	A-DC13	A-DC14	A-DC15	A-DC16	A-Ph1	A-Ph2	A-Ph3	A-Ph4	A-Ph5	A-Ph6	A-Ph7	A-Ph8	A-Ph9	A-Ph10	A-Ph11	A-Ph12	A-Ph13	A-Ph14	A-Ph15	A-Ph16	B-AC1	B-AC2	B-AC3	B-AC4	B-AC5	B-AC6	B-AC7	B-AC8	B-AC9	B-AC10	B-AC11	B-AC12	B-AC13	B-AC14	B-AC15	B-AC16	B-DC1	B-DC2	B-DC3	B-DC4	B-DC5	B-DC6	B-DC7	B-DC8	B-DC9	B-DC10	B-DC11	B-DC12	B-DC13	B-DC14	B-DC15	B-DC16	B-Ph1	B-Ph2	B-Ph3	B-Ph4	B-Ph5	B-Ph6	B-Ph7	B-Ph8	B-Ph9	B-Ph10	B-Ph11	B-Ph12	B-Ph13	B-Ph14	B-Ph15	B-Ph16	aux-1	digaux	

21681.090	1	1	0	256	0.18113	0.072494	0.19161	0.1217	0.2179	0.067189	0.1046	0.071035	0.10626	0.17671	0.051427	0.21929	0.067933	0.21688	0.10315	0.21337	-2.4896	-2.8208	-3.5271	-2.7104	-3.3396	-3.2208	-2.6896	-3.4917	-2.8229	-2.6521	-3.35	-2.5062	-3.2229	-3.2729	-2.6083	-3.525	73.814	-36.564	-8.650	272.190	224.897	202.768	153.330	106.806	86.746	167.856	178.595	-65.493	180.994	272.518	-34.710	208.102	0.00016334	0.00075699	0.00080989	667.21	3.2329e-05	6.591e-05	1001.2	215.48	2.881e-05	4.1235e-05	365.15	124.86	76.472	35.567	1.1279e-05	50.52	0.025201	0.02927	0.0082111	1192.3	0.00031774	0.00032289	1387.2	365.13	0.00031561	0.00032526	607.02	209.82	156.94	62.28	0.00032141	87.061	183.938	184.426	247.367	-70.710	69.375	116.318	-70.969	-66.472	211.691	131.718	-68.099	-65.064	-63.176	-59.894	111.364	-61.880	-8191	255	
21681.211	1	1	0	0	0.12707	0.20052	0.16175	0.051901	0.27433	0.22669	0.15644	0.48623	0.28911	0.12236	0.13618	0.1178	0.082055	0.28375	0.38591	0.071427	-2.4708	-2.6021	-3.3688	-2.8042	-2.95	-3.2938	-2.8688	-3.3583	-3.0042	-2.8208	-3.4208	-2.6854	-3.1042	-3.5292	-2.6354	-3.2979	36.477	53.857	125.770	231.210	-48.555	96.853	259.822	226.902	-13.054	170.924	168.959	245.884	108.347	208.134	-47.251	129.969	0.00060231	0.0022118	0.0013594	662.59	2.3051e-05	6.8817e-05	1010.9	217.83	7.3143e-06	2.1461e-05	365	124.23	76.701	35.29	1.8383e-05	50.517	0.025282	0.029609	0.0082566	1205.7	0.00032026	0.00032777	1401.3	368.66	0.00031956	0.00033268	612.74	213.28	159.41	63.121	0.000333	88.761	-20.324	141.888	36.181	-70.073	218.599	8.922	-70.464	-66.879	218.477	246.948	-68.308	-64.851	-63.408	-59.936	137.786	-61.679	-8191	255	
21681.305	1	1	0	0	0.015355	0.18067	0.15564	0.079344	0.10635	0.17804	0.48558	0.29681	0.092087	0.10258	0.17991	0.15137	0.065435	0.22328	0.1706	0.10687	-2.8292	-2.5667	-3.4688	-2.8854	-3.0458	-3.3417	-2.8021	-3.3312	-3.2313	-2.6396	-3.4562	-2.7479	-3.0042	-3.425	-2.6562	-3.4062	157.593	-23.851	198.387	253.535	216.501	168.962	253.551	196.508	118.904	27.970	242.674	213.888	247.113	-64.128	256.911	260.192	0.00016662	0.0040433	0.0013043	659.55	5.8999e-06	4.5632e-05	995.88	218.26	3.5181e-05	3.6719e-05	362.14	124.31	75.437	34.85	6.3177e-05	50.142	0.026335	0.030926	0.0086607	1236	0.00033858	0.00034535	1418.9	378.97	0.00033835	0.00034854	626.3	217.44	163.75	64.216	0.00034435	90.269	89.255	188.752	219.988	-70.277	93.005	-73.847	-70.576	-65.865	-50.884	20.741	-68.055	-65.158	-63.591	-59.749	132.085	-62.080	-8191	255	
21681.379	1	1	0	0	0.076603	0.22383	0.22874	0.15822	0.13526	0.27209	0.27464	0.27783	0.10594	0.19864	0.10275	0.095019	0.11788	0.43077	0.070658	0.098083	-2.7854	-2.6917	-3.5479	-3.125	-2.8896	-3.4417	-2.9167	-3.1854	-3.1937	-2.6479	-3.4708	-3.1792	-2.75	-3.6104	-2.9146	-3.1229	244.967	264.981	84.371	130.615	-44.202	-13.441	248.974	205.244	191.871	259.809	170.775	108.092	217.992	213.155	27.425	241.833	0.00022715	0.0039857	0.0014143	659.84	3.5667e-05	1.9306e-05	997.05	219.63	2.2495e-05	1.8413e-05	366.31	124.25	76.275	34.833	4.0459e-05	49.777	0.027552	0.03222	0.009006	1262.2	0.00035352	0.0003614	1444.8	386.77	0.00035432	0.00036602	641.2	222.95	168.22	65.768	0.0003618	92.363	251.420	37.914	171.864	-70.627	97.336	193.860	-71.037	-66.498	180.336	-13.396	-68.158	-64.723	-63.358	-59.759	183.865	-61.457	-8191	255	
21681.496	1	1	0	0	0.099131	0.024001	0.077092	0.1408	0.13272	0.23348	0.13928	0.30182	0.024315	0.12994	0.34248	0.12058	0.099957	0.25514	0.13602	0.078208	-2.9667	-2.5396	-3.3958	-3.2104	-2.7333	-3.3792	-2.9604	-2.8812	-3.3042	-2.7896	-3.4938	-3.2313	-2.6479	-3.4229	-2.8667	-3.0646	-28.980	114.170	268.527	249.123	65.642	232.278	184.218	-54.014	-68.108	-9.645	264.170	142.111	37.673	191.134	-22.563	175.885	0.00057571	0.0014747	0.00055146	654.22	1.8161e-05	2.7759e-05	1002.4	215.86	2.2682e-05	3.601e-05	365.88	125.03	76.508	34.499	2.5921e-05	49.884	0.028823	0.033481	0.0094345	1292.1	0.00036764	0.0003763	1471.3	395.2	0.00036678	0.00037646	654.1	226.33	171.58	66.723	0.00037405	94.058	208.710	71.565	-33.724	-70.316	-18.827	-8.754	-70.276	-66.298	98.332	73.287	-67.491	-65.019	-63.513	-59.686	-27.361	-62.520	-8191	255	
21681.594	1	1	0	0	0.13298	0.17083	0.30627	0.28732	0.34702	0.13086	0.25307	0.06247	0.20633	0.10454	0.11813	0.31191	0.13079	0.27479	0.054925	0.24915	-3.1229	-2.7313	-3.2333	-3.2146	-2.6937	-3.5187	-3.0479	-2.9771	-3.3354	-2.6625	-3.2104	-3.4292	-2.7313	-3.5563	-3.0062	-2.8896	84.059	-21.479	196.666	211.151	246.616	53.697	219.738	234.873	187.460	272.261	158.225	161.729	39.175	251.974	-83.514	145.144	0.00013244	0.00077252	0.00028211	660.02	3.1257e-05	1.8798e-05	1001.7	216.98	8.3473e-06	1.4149e-05	363.61	123.16	74.944	34.812	2.8858e-05	49.943	0.029596	0.0345	0.00965	1309	0.00037387	0.00038111	1480.6	396.26	0.00036941	0.00038026	653.52	227.29	171.72	67.042	0.00037362	93.523	-56.467	134.585	238.940	-70.286	191.796	239.823	-70.756	-66.023	105.769	139.776	-68.084	-65.366	-63.961	-59.480	-34.068	-61.989	-8191	255	
21681.689	1	1	0	0	0.16007	0.18374	0.10907	0.10228	0.061759	0.12295	0.17518	0.21564	0.10283	0.27965	0.26506	0.094173	0.18705	0.18488	0.17398	0.13747	-3.0792	-2.7958	-3.125	-3.3812	-2.7833	-3.5104	-3.2646	-2.925	-3.5208	-3.0687	-3.2875	-3.5	-2.7646	-3.5083	-3.1417	-2.7375	76.459	160.808	-24.259	219.544	245.876	-1.476	237.180	137.194	-43.709	103.218	88.745	259.740	232.993	7.209	13.383	172.518	0.00091291	0.0018079	0.00043229	659.84	2.5314e-05	6.3064e-05	987.09	216.59	2.8504e-05	2.4844e-05	358.18	122.23	75.46	34.735	4.891e-05	49.896	0.029423	0.034169	0.0095651	1297.6	0.00036543	0.0003722	1458.7	389.46	0.00035694	0.00036646	639.88	221.26	167.53	65.72	0.00035929	91.57	86.217	208.730	-68.978	-70.096	87.660	116.033	-71.238	-66.270	-75.868	-24.711	-68.323	-64.406	-63.914	-60.290	12.601	-61.813	-8191	255	
21681.811	1	1	0	0	0.075173	0.22485	0.074727	0.2283	0.052331	0.065299	0.05439	0.046306	0.1335	0.065725	0.025882	0.14734	0.16429	0.29916	0.2791	0.097926	-3.1125	-2.7625	-2.8854	-3.4896	-2.8417	-3.4354	-3.1437	-2.8167	-3.6583	-3.075	-3.0187	-3.5062	-2.7792	-3.3521	-3.3083	-2.9333	63.032	261.102	187.618	-26.522	-81.140	-49.801	270.610	134.470	227.654	234.526	89.833	254.744	-59.822	-81.325	0.694	182.381	0.00086558	0.001584	0.00035781	653.8	2.6364e-05	2.7037e-05	986.11	217.73	3.7221e-05	2.0051e-05	359.83	123.2	76.001	35.041	2.2944e-05	49.825	0.028417	0.032903	0.0092074	1271.9	0.00035545	0.00036214	1439.5	385.85	0.00035075	0.00036307	636.85	221.26	167.11	65.62	0.0003606	91.714	-78.528	230.086	5.544	-70.882	182.234	-34.217	-70.879	-66.467	52.554	96.172	-68.030	-64.521	-64.466	-60.186	-10.447	-61.928	-8191	255	
21681.906	1	1	0	0	0.1249	0.083696	0.19355	0.24873	0.1182	0.03288	0.30086	0.24772	0.10472	0.21165	0.29397	0.11555	0.060813	0.15253	0.25592	0.11034	-3.1458	-2.9458	-3.0271	-3.4813	-2.7771	-3.3312	-3.5125	-2.6688	-3.575	-3.1021	-2.9854	-3.5604	-2.8854	-3.2333	-3.2333	-2.7292	75.986	48.059	139.763	265.477	18.865	-76.140	207.353	151.314	-37.574	237.152	249.728	215.197	178.489	237.553	105.991	116.071	0.00020906	0.002144	0.00097825	653.5	4.0294e-05	2.8551e-05	979.74	215.06	2.9982e-05	1.1091e-05	360.82	123.44	75.969	34.257	3.4359e-05	48.911	0.02842	0.033242	0.0093544	1281.4	0.00035882	0.00036681	1447.6	387.86	0.00035983	0.00037087	644.49	222.94	169.24	66.088	0.0003647	91.478	-56.110	2.054	213.857	-70.575	-15.181	52.146	-70.769	-66.303	29.341	-1.529	-68.190	-65.387	-64.311	-59.783	117.817	-61.832	-8191	255	
21682.002	1	1	0	0	0.21049	0.051033	0.10727	0.055372	0.141	0.083797	0.19727	0.11888	0.034738	0.12348	0.026797	0.20633	0.38574	0.20243	0.15783	0.20284	-2.8	-3.0896	-2.875	-3.5417	-2.8354	-2.8542	-3.4562	-2.6479	-3.2104	-3.0187	-2.8292	-3.5729	-2.7562	-3.0583	-3.3563	-2.8063	116.394	66.295	219.399	91.499	-20.044	-56.900	148.534	166.538	-6.573	199.216	179.745	249.475	224.216	209.409	196.461	175.453	0.00038816	0.0060853	0.0022863	649.89	4.923e-06	2.6876e-05	988.12	213.59	1.5158e-05	3.2856e-06	354.32	121.99	74.516	34.449	2.0366e-05	48.323	0.028574	0.033005	0.009209	1263.9	0.00035016	0.00035883	1422.8	379.54	0.00034678	0.00035663	627.58	217.45	163.82	64.203	0.0003503	89.337	111.809	117.107	-21.291	-69.994	-51.621	180.199	-70.619	-66.415	99.763	210.117	-68.118	-65.133	-63.639	-59.252	203.190	-61.204	-8191	255	
21682.074	1	1	0	0	0.20554	0.26911	0.21656	0.29796	0.013554	0.22786	0.17661	0.24603	0.14696	0.06866	0.30279	0.25626	0.14039	0.34352	0.11518	0.10851	-2.9417	-3.2667	-2.6083	-3.4667	-3.0167	-2.8604	-3.5729	-2.6167	-3.4188	-3.3771	-2.8396	-3.5125	-3.0729	-2.9021	-3.4229	-2.5917	78.897	248.201	269.685	265.506	-10.670	134.015	246.833	261.095	74.957	248.465	-40.209	245.526	-61.461	169.841	85.937	19.716	6.8712e-05	0.0051942	0.0013628	647.47	6.5806e-06	8.0828e-05	972.31	212.87	2.6058e-05	2.7497e-05	352.95	122.45	74.792	33.74	5.1154e-05	48.629	0.02742	0.031839	0.0089327	1243.1	0.0003407	0.00035209	1409.3	375.58	0.00033896	0.00034785	619.26	214.69	161.21	63.053	0.0003424	88.252	132.326	14.780	74.728	-69.895	-32.772	82.517	-70.343	-66.604	5.153	260.596	-67.843	-65.437	-63.964	-60.250	113.190	-61.881	-8191	255	
21682.170	1	1	0	0	0.17532	0.15754	0.090021	0.16011	0.086932	0.15377	0.14246	0.19965	0.34413	0.1467	0.162	0.19769	0.05069	0.064718	0.085255	0.16384	-2.7208	-3.225	-2.5146	-3.3646	-3.0771	-3.0833	-3.5979	-2.8625	-3.1333	-3.4042	-2.6458	-3.4521	-3.0417	-2.975	-3.4667	-2.9104	183.853	-33.219	22.272	-40.472	265.823	170.979	225.658	-1.443	228.290	74.394	50.326	143.007	39.690	-6.040	118.476	226.821	0.000266	0.0048256	0.00069104	641.96	3.4967e-05	1.4499e-05	987.37	213	2.2323e-06	4.4402e-05	355.21	122.42	73.75	34.038	4.5291e-05	48.558	0.027265	0.031943	0.0089893	1244.8	0.00034843	0.00035747	1424.1	380.4	0.00034665	0.00035635	627.65	218.14	164.02	64.246	0.00035207	89.928	-12.855	64.768	255.755	-70.512	-56.468	233.654	-70.398	-66.546	-6.798	114.276	-67.954	-64.680	-64.331	-59.463	139.113	-61.497	-8191	255	
21682.289	1	1	0	0	0.15599	0.22811	0.10327	0.10407	0.07605	0.20445	0.11385	0.30868	0.099307	0.19005	0.21314	0.19118	0.12125	0.21005	0.20299	0.083799	-2.6021	-3.4896	-2.6188	-3.45	-3.0271	-2.6208	-3.6833	-2.9021	-2.9604	-3.3625	-2.6854	-3.3604	-3.35	-2.7646	-3.3854	-3.0646	81.852	-82.519	-15.477	97.201	-77.220	-46.055	-68.258	199.380	116.675	25.628	175.879	-70.609	189.246	233.049	196.624	-5.787	0.00012326	0.0053993	0.00098946	641.14	1.8676e-05	2.2535e-05	979.68	214.39	5.4758e-05	3.5616e-05	352.45	122.45	75.061	34.374	1.6869e-05	49.15	0.028103	0.032812	0.0091862	1266.9	0.00035787	0.00036552	1433.1	383.54	0.00035319	0.00036298	633.23	220.06	165.56	64.695	0.00035298	90.05	215.401	-82.811	103.339	-70.880	49.678	125.842	-70.709	-66.736	167.454	61.360	-68.433	-65.036	-63.478	-59.985	-79.069	-61.310	-8191	255	
21682.385	1	1	0	0	0.02829	0.12556	0.14922	0.24419	0.097728	0.12049	0.052072	0.073681	0.086969	0.089522	0.11309	0.014505	0.16096	0.27973	0.20513	0.11918	-2.4813	-3.4583	-2.4813	-3.4083	-3.3333	-2.7521	-3.5292	-3.1646	-2.7542	-3.3812	-2.8292	-3.4208	-3.2438	-2.5208	-3.5208	-3.2458	31.942	183.423	219.315	213.225	46.329	-74.585	-19.681	183.383	247.859	-59.631	255.890	3.588	241.817	263.958	17.344	140.552	0.00043013	0.001514	0.00064823	652.15	9.7049e-06	2.0549e-05	978.13	212.61	4.7426e-06	4.4431e-05	350.16	120.73	75.293	34.256	2.7316e-05	48.537	0.027919	0.032338	0.0090315	1253.3	0.00034564	0.00035231	1412.5	377.35	0.00033831	0.00034976	619.05	214.88	161.62	63.323	0.00034024	87.711	235.069	228.630	56.635	-70.384	58.670	-4.552	-70.450	-66.362	105.808	-13.861	-67.775	-65.264	-63.536	-60.207	5.750	-61.869	-8191	255	
21682.480	1	1	0	0	0.41495	0.062422	0.11838	0.30696	0.22564	0.28684	0.051084	0.20169	0.21973	0.086947	0.076226	0.057517	0.17872	0.18022	0.20993	0.26496	-2.2729	-3.4458	-2.7708	-3.1063	-3.3896	-2.6833	-3.3042	-3.1604	-2.7125	-3.5354	-2.7521	-3.025	-3.3875	-2.7687	-3.4083	-3.3187	267.821	-10.996	189.015	263.965	251.032	123.773	177.347	206.633	-24.132	150.918	237.902	122.429	-5.271	268.732	0.405	153.833	0.00017111	0.0018743	0.00035219	653.38	1.8585e-05	4.2458e-05	987.17	214.28	1.0675e-05	5.7685e-05	356.83	122.11	75.003	34.418	2.5465e-05	48.647	0.026771	0.030817	0.0086232	1217.6	0.00033131	0.00033649	1386.9	367.48	0.00032129	0.00032873	604.02	209.57	156.67	61.871	0.00032524	86.523	97.234	77.894	244.598	-70.019	168.180	10.798	-70.445	-66.066	168.951	-2.410	-68.581	-64.919	-64.442	-60.510	106.773	-61.883	-8191	255	
21682.602	1	1	0	0	0.12393	0.24723	0.1064	0.16298	0.16186	0.29096	0.22831	0.16846	0.15242	0.19529	0.30234	0.20104	0.21528	0.27779	0.16598	0.20347	-2.1813	-3.5312	-2.8271	-3.0167	-3.3521	-2.925	-3.1937	-3.3625	-2.6896	-3.6083	-2.9979	-2.8708	-3.475	-2.7604	-3.1354	-3.4333	180.433	97.823	203.014	50.503	65.949	230.089	233.710	238.148	38.515	135.926	-68.259	254.687	272.777	127.590	274.728	193.422	0.00024649	0.0015609	0.00020389	642.83	3.1808e-05	3.5718e-05	990.28	217.75	3.1476e-05	1.6306e-05	360.95	123	75.296	35.008	2.4326e-05	50.192	0.025691	0.029772	0.0083632	1201.8	0.00032166	0.0003292	1381.8	366.36	0.00031739	0.00032746	602.75	209.04	155.65	61.647	0.00031685	86.01	197.596	165.831	199.299	-69.878	23.514	131.755	-70.428	-66.473	29.159	272.844	-68.458	-64.779	-62.994	-59.452	91.022	-61.796	-8191	255	
21682.674	1	1	0	0	0.19588	0.1778	0.32859	0.10529	0.22079	0.1336	0.30781	0.25408	0.0069765	0.10882	0.10671	0.054861	0.15184	0.17368	0.30989	0.22527	-2.3646	-3.4396	-3.0187	-2.925	-3.4	-2.7604	-3.1917	-3.3458	-2.6708	-3.3979	-3.2708	-2.8104	-3.3688	-2.9646	-3.1021	-3.5958	245.953	91.858	-69.056	59.582	-38.633	252.539	-79.359	211.777	2.092	238.774	221.325	-81.484	-68.114	39.125	116.448	161.469	0.00062228	0.0032821	0.00085788	658.57	2.9712e-05	2.4523e-05	987.51	218.02	2.2985e-05	2.3477e-05	361.11	123.77	75.382	35.204	2.2757e-05	50.392	0.024866	0.028816	0.008079	1184	0.00030925	0.00031691	1368.7	361.5	0.00030427	0.00031377	592	205.22	151.66	60.455	0.00030456	84.477	75.698	-75.062	99.944	-70.433	34.586	113.621	-70.578	-66.394	161.975	155.651	-68.340	-64.576	-63.434	-59.814	221.926	-62.305	-8191	255	
21682.770	1	1	0	0	0.24707	0.11017	0.18327	0.14576	0.30375	0.097938	0.18648	0.093975	0.18474	0.13144	0.27331	0.014819	0.10511	0.24713	0.20352	0.09721	-2.2458	-3.2583	-3.1479	-2.7938	-3.6042	-2.8063	-3.0042	-3.3958	-2.6708	-3.2917	-3.1875	-2.8937	-3.5187	-2.8333	-2.9833	-3.4854	260.651	-73.412	177.662	173.939	81.739	-19.705	256.906	150.097	-36.787	77.591	274.282	216.889	130.144	47.583	70.687	146.090	0.00014975	0.0031109	0.00065901	660.27	2.2425e-05	1.4527e-05	991.37	217.74	1.2957e-05	2.408e-05	364.53	123.34	76.001	35.686	3.886e-05	50.725	0.023902	0.027822	0.0077761	1163.2	0.00029974	0.00030732	1357	355.96	0.00029703	0.00030817	587.44	203.21	150.67	60.156	0.00029864	83.997	12.765	15.703	46.588	-69.745	224.744	148.934	-70.224	-66.137	232.918	21.389	-67.739	-64.051	-63.853	-60.111	264.998	-62.388	-8191	255	
21682.891	1	1	0	0	0.14902	0.038376	0.06818	0.12538	0.087602	0.30045	0.45566	0.075174	0.15635	0.074794	0.058338	0.30941	0.15838	0.27444	0.078168	0.10921	-2.1979	-3.2854	-3.1792	-2.6979	-3.5292	-2.8333	-2.9313	-3.4188	-2.7604	-3.2479	-3.3167	-2.7812	-3.4646	-3.1292	-2.7979	-3.4542	91.273	22.558	141.227	273.420	221.333	5.381	225.028	131.000	137.020	132.990	272.034	134.475	248.267	71.439	39.492	128.657	0.00011653	0.0018161	0.0019292	661.42	4.9024e-06	2.5443e-05	994.54	217.47	8.1508e-06	3.5917e-05	364.6	123.29	76.009	35.87	4.4608e-05	50.84	0.023355	0.027169	0.0076119	1152.5	0.00029311	0.00029876	1342.7	351.04	0.00028624	0.00029742	580.57	201.61	149.34	59.74	0.00029334	83.63	67.630	235.322	-9.330	-69.924	248.295	200.425	-70.411	-66.084	77.084	269.904	-67.758	-64.423	-63.466	-59.671	111.820	-62.066	-8191	255	
21682.986	1	1	0	0	0.19868	0.027603	0.26813	0.21273	0.12595	0.083233	0.34354	0.15286	0.1709	0.12507	0.088897	0.2423	0.11107	0.18937	0.2949	0.082153	-2.3104	-3.0708	-3.175	-2.7042	-3.4646	-3.0292	-2.9125	-3.4896	-2.7687	-2.9521	-3.5042	-2.7958	-3.5625	-3.2	-2.5833	-3.5604	-51.161	134.073	92.846	248.465	-81.380	272.599	-74.318	197.906	-72.251	54.134	169.061	-45.531	226.190	240.587	-38.930	236.380	0.0005267	0.002459	0.00017606	662.77	2.9853e-05	5.0975e-05	1001.9	218.46	3.8013e-05	1.7976e-05	366.55	125.98	76.699	35.592	4.049e-05	51.771	0.023143	0.027048	0.007569	1149.2	0.00029222	0.00029833	1348.7	354.07	0.00029015	0.00029799	583.41	202.47	149.84	59.783	0.00029352	83.724	-82.471	159.249	236.923	-70.069	153.388	238.338	-70.343	-66.508	76.459	220.567	-68.311	-65.035	-62.914	-60.497	-32.080	-62.513	-8191	255	
21683.082	1	1	0	0	0.090123	0.12064	0.10687	0.10666	0.11006	0.19883	0.33463	0.075135	0.13906	0.24522	0.16785	0.40169	0.1646	0.23195	0.13465	0.17183	-2.5208	-2.9313	-3.3604	-2.7396	-3.0854	-3.2146	-2.8312	-3.5312	-2.7896	-2.8083	-3.5167	-2.6813	-3.2854	-3.3292	-2.7333	-3.7083	36.605	-80.543	261.882	260.185	-6.686	-12.141	197.279	205.988	83.065	22.848	162.209	175.918	-12.425	-75.770	44.048	-84.031	0.00037133	0.002838	0.00074865	658.75	2.7187e-05	5.1948e-05	1008	220.24	5.4994e-06	9.7831e-06	368.67	125.51	77.176	36.321	2.1861e-05	51.68	0.022961	0.027004	0.007501	1145.3	0.00029035	0.00029619	1347.3	352.86	0.00028618	0.00029467	582.89	201.77	149.72	59.75	0.00029143	83.741	-48.865	-35.018	152.693	-70.229	10.971	168.599	-70.765	-66.311	26.298	204.655	-67.797	-64.696	-63.327	-59.711	-3.246	-62.117	-8191	255	
21683.201	1	1	0	0	0.078877	0.10029	0.10456	0.34789	0.15671	0.11956	0.12118	0.27534	0.1687	0.21147	0.39027	0.1075	0.12166	0.11271	0.29437	0.33041	-2.575	-2.8688	-3.3792	-2.8979	-3.1542	-3.2292	-2.7958	-3.4479	-3.025	-2.8083	-3.4958	-2.8708	-3.1021	-3.2333	-2.6583	-3.5229	36.136	227.717	61.389	196.413	225.186	19.864	-13.780	243.310	138.998	41.480	210.047	253.108	131.986	-56.131	109.507	237.799	0.00073201	0.0016473	0.0020386	667.13	5.2171e-05	3.4534e-05	996.9	221.13	1.6037e-05	2.8292e-05	368.15	124.02	78.123	36.418	2.323e-05	51.485	0.022877	0.026618	0.0074442	1141.4	0.00028597	0.00029149	1340.6	351.24	0.00028363	0.00029291	580.97	200.9	149.47	59.774	0.00029323	84.207	-59.767	248.771	263.634	-69.169	171.019	-42.899	-70.807	-66.135	164.638	212.239	-67.598	-65.063	-63.320	-59.849	-33.841	-62.303	-8191	255	
21683.275	1	1	0	0	0.27951	0.28264	0.094175	0.23277	0.050554	0.17099	0.18708	0.16751	0.081929	0.15661	0.10429	0.099137	0.055969	0.079776	0.12921	0.1961	-2.6708	-2.725	-3.4896	-2.9083	-3.2521	-3.4562	-2.7646	-3.3792	-3.2479	-2.9292	-3.5687	-2.8812	-3.0583	-3.5083	-2.7146	-3.2979	-71.630	-32.657	104.341	-76.405	91.409	193.479	166.928	19.948	80.962	59.678	185.520	27.609	144.383	-77.512	159.618	200.070	0.00045499	0.0011023	0.00096012	672.21	1.7558e-05	3.7485e-05	1007.5	220.37	1.0505e-05	2.8564e-05	372.9	125.59	76.923	35.849	1.6442e-05	51.943	0.023241	0.027149	0.007568	1150.5	0.00029198	0.00029674	1350.8	354.19	0.00028746	0.00029727	585.64	202.49	150.12	60.102	0.0002947	84.705	162.858	263.243	-60.634	-69.591	-67.763	-62.345	-70.613	-65.988	-40.929	45.360	-67.886	-65.225	-63.147	-59.714	246.676	-61.918	-8191	255	
21683.369	1	1	0	0	0.026817	0.17257	0.11211	0.37282	0.18513	0.28978	0.21422	0.10669	0.057982	0.065937	0.13946	0.19925	0.056958	0.048841	0.13618	0.14242	-2.7354	-2.8479	-3.4813	-2.7708	-2.8187	-3.2625	-2.7625	-3.2958	-3.3542	-2.8688	-3.5687	-3.1271	-2.8417	-3.4375	-2.7208	-3.1167	-39.996	40.322	218.254	143.797	162.999	1.608	232.827	-40.333	141.103	129.572	202.903	-31.957	231.017	149.846	-29.084	79.605	0.00063462	0.0046281	0.00046767	666.14	3.9338e-05	1.495e-05	1009.3	221.73	1.7826e-05	2.9047e-06	372.73	126.76	78.364	36.064	3.3243e-05	51.858	0.023441	0.027372	0.0077152	1163.4	0.00029706	0.00030475	1364.9	359.32	0.00029826	0.00030822	597.5	207.09	154.2	61.23	0.00030819	86.228	214.766	49.593	92.899	-69.997	41.396	269.217	-70.130	-65.801	179.109	154.974	-67.787	-65.119	-62.870	-60.237	152.809	-61.631	-8191	255	
21683.465	1	1	0	0	0.047233	0.43172	0.12857	0.17375	0.25214	0.10885	0.18917	0.29043	0.087695	0.20552	0.22268	0.12471	0.073307	0.22018	0.07255	0.29664	-2.9146	-2.6375	-3.3688	-2.9458	-3.0375	-3.4125	-2.9104	-3.1875	-3.2833	-2.6375	-3.3208	-3.0979	-2.6479	-3.5583	-2.8458	-2.9813	84.401	-47.130	262.312	-38.478	208.241	151.532	183.070	-60.942	12.868	125.779	238.512	66.904	144.790	166.890	-45.919	208.259	5.9213e-05	0.0030092	0.0010721	666.66	4.5455e-05	5.578e-05	1002	220.98	3.2638e-05	3.5926e-05	370.53	125.59	77.306	35.803	4.1132e-05	51.609	0.024202	0.028186	0.0079056	1177.9	0.00030636	0.00031121	1372	360.53	0.0003009	0.0003093	593.95	205.59	152.85	60.688	0.00030159	85.616	29.585	-11.453	92.317	-70.290	-39.136	219.991	-70.538	-66.634	-43.628	-41.017	-68.552	-65.608	-62.842	-60.129	56.955	-61.781	-8191	255	
21683.584	1	1	0	0	0.069086	0.18738	0.16379	0.087022	0.18888	0.030221	0.16567	0.14587	0.087526	0.047264	0.2721	0.25884	0.20277	0.25146	0.14329	0.22337	-2.8875	-2.8167	-3.3604	-3.275	-2.7729	-3.4458	-2.9417	-2.9104	-3.2667	-2.8625	-3.3458	-3.1646	-2.6396	-3.55	-2.9375	-3.0229	160.053	232.439	-6.341	167.506	227.792	54.013	191.528	141.829	-27.466	66.156	271.814	-83.212	86.510	-70.731	84.745	238.869	0.00033168	0.0029508	0.00083856	663.97	4.48e-05	2.7254e-05	1002.4	219.46	3.9077e-05	4.6413e-05	368.2	126.5	75.328	35.695	5.2641e-05	51.497	0.023921	0.027757	0.0078218	1170.4	0.00030358	0.00031011	1367.2	360.36	0.00030242	0.00031098	599.2	208.25	153.8	61.491	0.00030875	86.152	8.398	240.425	181.247	-70.386	244.243	94.321	-70.503	-66.103	25.021	81.769	-67.274	-64.141	-63.045	-59.846	-0.881	-61.559	-8191	255	
21683.680	1	1	0	0	0.21988	0.10363	0.075958	0.19641	0.15925	0.2251	0.27559	0.21513	0.23446	0.24085	0.08556	0.17255	0.39085	0.13099	0.21194	0.21014	-3.1146	-2.7396	-3.1042	-3.4792	-2.6917	-3.4917	-3.1167	-2.8979	-3.4333	-2.7062	-3.35	-3.3833	-2.6896	-3.3438	-3.0854	-3.0729	209.176	249.736	99.997	-52.817	241.323	7.461	105.035	220.507	-23.733	127.946	-63.632	212.272	193.121	-77.353	263.184	275.415	0.00026154	0.0030681	0.0014072	667.11	1.2875e-05	5.539e-05	1012.2	221.25	2.2887e-05	4.891e-05	368.39	125.38	77.184	36.263	1.6744e-05	51.285	0.02423	0.028175	0.007888	1175.8	0.00030495	0.00031173	1375	362.06	0.00030279	0.00031485	601.29	208.15	155.32	62.172	0.00031501	87.101	-51.132	44.694	-6.290	-70.524	122.646	230.409	-70.891	-66.426	101.154	72.883	-67.745	-64.508	-63.574	-59.982	-24.967	-61.969	-8191	255	
21683.775	1	1	0	0	0.091386	0.13954	0.21933	0.1125	0.13478	0.22985	0.13985	0.23787	0.072627	0.090916	0.14621	0.18034	0.13591	0.27301	0.34272	0.15845	-2.9437	-2.625	-3.225	-3.2417	-2.8	-3.4188	-3.0854	-2.7083	-3.4792	-2.9833	-3.0854	-3.3937	-2.6188	-3.2771	-3.1042	-2.7708	28.998	132.437	251.914	-47.601	-28.772	4.077	216.678	184.386	145.080	117.091	245.921	274.443	-51.046	230.986	8.054	240.914	0.00038646	0.003106	0.00034931	665.53	1.5187e-05	2.6453e-05	1009.9	220.8	4.3773e-05	1.7865e-05	371.43	124.97	76.832	35.253	2.2505e-05	51.257	0.024962	0.029326	0.008248	1203.8	0.00032097	0.00033076	1407.2	374.06	0.00032547	0.0003388	623.8	216.11	162.28	64.176	0.00034017	90.307	118.307	223.267	161.397	-69.975	127.576	187.818	-70.245	-66.449	173.886	104.200	-67.302	-64.774	-62.902	-59.843	48.411	-61.784	-8191	255	
21683.873	1	1	0	0	0.2751	0.10418	0.15668	0.057451	0.099928	0.13657	0.24238	0.12032	0.20067	0.056575	0.1442	0.335	0.25111	0.19752	0.21657	0.18239	-2.9958	-2.8042	-2.9667	-3.5354	-2.8688	-3.2417	-3.6458	-2.7083	-3.4313	-2.9792	-3.0229	-3.5479	-2.6562	-3.3083	-3.0958	-2.6771	64.503	-76.332	69.243	116.339	100.552	-55.838	190.465	214.167	133.345	218.334	-28.619	-81.470	105.026	-46.975	-3.080	14.251	0.00050764	0.00088954	0.0012983	656.41	5.7293e-05	5.2466e-05	1004.9	219.27	3.9926e-05	4.3346e-05	364.13	126.46	75.87	35.406	2.629e-05	50.592	0.026991	0.031442	0.0088491	1248	0.0003412	0.00034892	1434	382.45	0.00034249	0.0003561	636.63	221.09	165.56	65.152	0.00035228	91.381	184.694	145.216	255.177	-70.493	182.372	3.963	-70.682	-66.155	-36.312	205.068	-67.786	-64.905	-63.458	-59.766	175.368	-61.772	-8191	255	
21683.969	1	1	0	0	0.13484	0.18687	0.086921	0.21791	0.12522	0.11528	0.19359	0.26122	0.045691	0.090617	0.16006	0.30262	0.12576	0.082811	0.11768	0.015549	-2.9208	-2.775	-2.7521	-3.475	-2.7646	-3.0958	-3.3604	-2.7104	-3.2687	-2.9917	-2.8104	-3.5146	-2.8333	-2.9646	-3.4	-2.7542	-70.606	237.610	233.996	215.173	206.462	128.539	232.200	274.975	223.589	38.316	236.991	239.803	111.880	-11.613	-56.943	165.702	0.00036388	0.0012251	0.00034962	663.33	2.5825e-05	6.8256e-05	994.25	218.45	7.5701e-06	7.2957e-06	366.23	125.84	76.461	35.244	2.5352e-05	50.657	0.027774	0.032403	0.0090536	1262.8	0.00034891	0.00035657	1441.4	385.63	0.00034966	0.00036321	645.04	224.08	168.36	66.049	0.00036646	93.3	178.992	122.267	-39.525	-70.319	116.115	-43.642	-70.569	-66.278	122.103	268.913	-68.209	-64.235	-63.591	-59.255	-46.224	-61.708	-8191	255	
21684.064	1	1	0	0	0.068785	0.15108	0.19333	0.18356	0.13971	0.009177	0.18474	0.26938	0.18366	0.23798	0.11065	0.21045	0.081543	0.27182	0.078046	0.20418	-2.8792	-2.9646	-2.8021	-3.4375	-2.9104	-2.8729	-3.5083	-2.675	-3.2271	-3.1979	-2.825	-3.4958	-2.9375	-2.9708	-3.3312	-2.7292	-14.850	-21.556	72.264	260.548	74.407	80.936	60.974	250.394	257.479	-68.565	210.745	-58.437	42.031	257.063	-32.197	-18.062	0.00029189	0.0033197	0.0012307	660.65	3.4606e-05	1.7824e-05	999.76	217.43	2.2259e-05	3.9316e-05	366.24	126.17	76.004	34.587	1.3812e-05	50.425	0.029001	0.033764	0.0094477	1290.1	0.00036276	0.00037341	1463.8	392.53	0.00036334	0.00037226	650.57	226.21	170.11	66.409	0.00036649	93	187.792	48.863	59.398	-70.162	-78.546	226.541	-70.606	-66.271	208.450	258.823	-68.386	-64.773	-63.260	-60.553	28.989	-61.809	-8191	255	
21684.160	1	1	0	0	0.088184	0.17971	0.07762	0.16774	0.17423	0.19215	0.38441	0.087356	0.18562	0.026197	0.23578	0.073562	0.23367	0.15536	0.11697	0.13463	-3.1188	-3.325	-2.7354	-3.5729	-2.8146	-2.8604	-3.4875	-2.8417	-3.1292	-3.225	-2.7792	-3.6375	-2.8604	-2.8146	-3.4875	-2.9417	103.300	58.625	215.787	274.044	-57.003	221.558	188.969	128.043	-37.715	-8.704	272.462	-57.890	-22.893	241.571	206.897	-36.678	0.00024577	0.0031278	0.0011509	654.94	3.117e-05	5.495e-05	988.63	216.64	3.0982e-05	4.2895e-05	365.51	125.72	76.547	35.078	2.3032e-05	50.087	0.028987	0.033613	0.0093591	1282.6	0.00035815	0.0003626	1445.8	386.52	0.00035024	0.0003574	636.25	220.53	164.98	64.756	0.00034868	90.3	275.032	11.730	27.466	-70.751	267.672	258.325	-70.476	-66.229	110.207	136.996	-68.305	-64.688	-63.580	-60.004	39.091	-62.922	-8191	255	
21684.281	1	1	0	0	0.053285	0.1074	0.15896	0.16928	0.088393	0.19256	0.15995	0.024151	0.22102	0.031885	0.1386	0.1934	0.20912	0.28332	0.20803	0.23611	-2.6312	-3.1792	-2.5563	-3.4229	-3.1583	-2.7875	-3.5375	-2.8104	-3.0292	-3.2167	-2.8625	-3.2958	-3.2271	-2.6562	-3.3771	-2.9729	-2.745	179.649	126.276	217.526	9.408	228.408	267.334	217.209	259.039	204.933	200.717	-76.515	194.674	209.559	39.207	235.298	0.00027477	0.0025989	0.0011863	661.9	3.53e-05	2.6878e-05	1002.9	217.02	1.8778e-05	3.1828e-05	368.03	124.98	75.982	35.077	3.6824e-05	50.17	0.027284	0.031687	0.0088166	1242.9	0.00033844	0.00034568	1425.2	377.56	0.00033373	0.00034405	622.75	216.56	161.94	63.666	0.00033809	89.077	-81.102	-31.181	164.256	-69.899	88.282	105.082	-70.649	-66.737	-33.086	106.601	-67.993	-64.433	-62.528	-58.922	79.563	-62.145	-8191	255	
21684.379	1	1	0	0	0.013822	0.2463	0.052476	0.048558	0.084709	0.031857	0.19283	0.33791	0.10425	0.088753	0.26339	0.12068	0.18191	0.25084	0.077045	0.18465	-2.4562	-3.2146	-2.5292	-3.2292	-3.275	-2.6375	-3.6271	-2.9458	-3.0208	-3.5083	-2.7917	-3.2438	-3.1854	-2.6708	-3.3792	-3.1167	6.842	220.679	-56.686	255.514	26.584	269.192	128.279	247.724	128.195	106.145	209.410	261.247	-76.910	-9.657	-82.895	232.478	0.00013182	0.0044083	0.0016466	661.55	1.8166e-05	1.2957e-05	1002.8	218.64	2.2554e-05	2.2593e-05	362.13	127.28	76.114	35.579	4.7732e-05	49.842	0.026607	0.030916	0.0086431	1230.4	0.00033109	0.00033707	1410.4	372.79	0.00032639	0.00033731	618.89	215.44	160.36	63.409	0.00033509	88.62	198.482	206.721	-4.889	-70.601	137.730	255.896	-70.029	-66.015	93.671	120.248	-67.887	-64.475	-63.353	-59.320	171.086	-61.949	-8191	255	
21684.475	1	1	0	0	0.20572	0.21449	0.22109	0.19915	0.17085	0.089535	0.32083	0.20491	0.12303	0.11621	0.35997	0.080821	0.068405	0.17306	0.18933	0.1383	-2.4667	-3.5208	-2.7854	-3.2875	-3.2771	-2.775	-3.475	-3.0854	-2.8771	-3.3833	-2.8792	-3.0792	-3.4813	-2.7167	-3.4146	-3.3167	-38.711	3.183	201.947	251.388	-76.867	163.817	159.397	64.466	184.987	70.160	198.129	272.499	220.673	-67.216	207.205	-19.034	0.00028582	0.0046202	0.0011068	666.64	3.3254e-05	1.4639e-05	997.55	220.33	2.5258e-05	3.9176e-05	368.94	126.1	77.127	35.391	9.8791e-06	50.473	0.026428	0.030654	0.0086201	1227.9	0.0003311	0.00033845	1414.2	375.02	0.00032973	0.00034212	623.98	216.89	161.95	63.833	0.00034072	89.742	56.475	-11.218	268.808	-69.987	189.972	60.183	-70.095	-66.566	44.626	216.558	-67.778	-64.790	-63.630	-59.651	76.167	-62.524	-8191	255	
21684.570	1	1	0	0	0.14691	0.093364	0.024194	0.13257	0.23275	0.12427	0.27672	0.17623	0.25066	0.21308	0.20776	0.22611	0.17023	0.25587	0.11605	0.049037	-2.2521	-3.3937	-2.8021	-3.1792	-3.4354	-2.8396	-3.3771	-3.2229	-2.6583	-3.4083	-2.8042	-3.0854	-3.5167	-2.7729	-3.2167	-3.3312	52.796	-1.998	-22.305	200.900	35.503	259.476	61.842	258.459	-23.967	-46.645	254.882	274.522	168.109	-69.538	50.366	216.307	0.00041814	0.0032036	0.0011226	662.67	2.7159e-05	5.2606e-05	1001.7	220.37	3.0062e-05	1.852e-05	369.35	125.82	75.343	35.034	4.0459e-06	50.331	0.026776	0.031157	0.0087376	1242.4	0.00033768	0.00034605	1431.7	378.62	0.00033808	0.00035016	631.33	219.49	164.37	64.815	0.00035086	90.893	136.559	52.777	48.467	-69.889	270.588	147.738	-70.232	-66.866	152.280	228.881	-68.340	-64.614	-63.457	-60.317	90.834	-62.154	-8191	255	
21684.664	1	1	0	0	0.21318	0.10146	0.095613	0.17289	0.20883	0.32117	0.16849	0.060624	0.41116	0.13274	0.065763	0.21814	0.17903	0.21306	0.1303	0.087918	-2.2292	-3.4	-2.875	-3.0083	-3.4396	-2.6771	-3.3417	-3.3063	-2.5542	-3.5687	-2.9125	-2.9708	-3.4417	-2.8333	-3.0021	-3.3812	253.586	37.940	99.107	238.639	8.554	-24.204	219.392	161.993	66.833	158.086	221.127	235.780	-6.069	248.478	232.087	118.165	0.00065626	0.004006	0.0012999	657.09	2.2173e-05	3.9992e-05	1005	218.6	3.5215e-05	2.4165e-05	368.56	124.45	75.716	34.598	3.0852e-05	50.568	0.027779	0.032415	0.0090438	1263.1	0.00034964	0.00035803	1446.1	384.42	0.00034726	0.0003592	637.78	221.91	166.28	65.325	0.0003584	91.814	252.656	196.273	253.227	-70.134	228.585	-4.044	-70.502	-65.803	66.732	-23.743	-68.417	-64.715	-63.541	-59.476	228.027	-61.674	-8191	255	
21684.762	1	1	0	0	0.1345	0.10299	0.033969	0.16436	0.13954	0.072859	0.14803	0.1714	0.057819	0.23379	0.11811	0.22692	0.22283	0.18346	0.044294	0.035193	-2.1896	-3.4188	-2.9625	-3.0167	-3.3583	-2.7062	-3.1	-3.2562	-2.6125	-3.325	-2.9417	-2.6958	-3.4396	-2.7271	-2.9833	-3.4146	86.647	221.286	163.748	23.381	-82.298	191.374	215.999	-65.258	-77.406	183.717	124.093	273.241	223.305	53.129	196.554	-47.138	0.00053483	0.00033706	0.001039	660.96	2.3479e-05	2.2667e-05	999	218.58	3.4595e-05	3.4368e-05	361.34	125.59	75.895	34.918	1.8e-05	49.256	0.028236	0.032909	0.0092295	1273.6	0.00035716	0.00036504	1455.2	388.51	0.00035561	0.00036742	643.72	224.11	169.38	65.863	0.0003671	92.641	245.541	32.170	131.393	-70.932	54.034	96.303	-70.375	-66.458	111.999	132.179	-68.098	-64.132	-63.931	-59.709	-38.149	-61.777	-8191	255	
21684.881	1	1	0	0	0.33618	0.18009	0.1004	0.12529	0.17422	0.031596	0.11527	0.16649	0.072694	0.12754	0.20537	0.048993	0.050459	0.30493	0.033443	0.11728	-2.3396	-3.2875	-3.0646	-2.6167	-3.25	-2.9146	-2.9813	-3.6354	-2.7125	-3.2396	-3.3375	-2.7375	-3.3792	-3.1937	-2.8771	-3.4479	-4.461	131.904	-35.932	162.444	225.255	149.861	200.886	-61.673	256.676	235.413	-65.980	129.233	213.003	245.452	263.719	248.025	0.00054952	0.0020613	0.0011587	648.55	2.4472e-05	6.5845e-06	989.59	218.72	4.4193e-05	2.8663e-05	361.26	124.99	76.022	34.764	7.4456e-06	49.242	0.029037	0.033951	0.0094727	1293.2	0.00036727	0.00037421	1467.6	394.34	0.00036759	0.000381	656.31	228.75	173.04	67.534	0.00038375	94.714	-32.260	137.884	-5.573	-70.332	226.783	-35.599	-70.264	-66.287	267.144	-55.507	-68.225	-65.168	-63.553	-60.586	46.056	-62.630	-8191	255	
21684.977	1	1	0	0	0.12893	0.19933	0.042145	0.11438	0.15395	0.21187	0.17806	0.24926	0.13679	0.06558	0.030855	0.076047	0.14302	0.098779	0.28008	0.13514	-2.4188	-3.0729	-3.2146	-2.6063	-3.3438	-2.9	-3.0062	-3.4458	-2.7708	-3.2188	-3.3396	-2.7146	-3.5333	-3.1708	-2.7604	-3.4083	115.182	-45.641	183.959	186.152	261.255	169.042	226.494	60.349	85.283	-62.785	-5.224	244.526	204.399	230.666	7.269	90.212	0.00053536	0.0027891	0.0002377	651.34	2.1957e-05	5.7788e-05	993.57	215.69	7.6774e-06	7.1505e-05	355.61	123.28	73.9	33.893	6.4265e-05	48.459	0.030324	0.035345	0.0098747	1320.8	0.00038047	0.00038717	1484.1	397.83	0.00037807	0.00039226	660.76	230.53	174.56	67.713	0.00039198	95.039	-17.879	102.962	-39.687	-69.920	58.675	35.809	-70.411	-66.188	215.920	33.807	-68.909	-65.175	-64.036	-59.103	152.729	-61.495	-8191	255	
21685.074	1	1	0	0	0.23317	0.14507	0.079852	0.064371	0.012745	0.092829	0.36006	0.22384	0.19585	0.096912	0.08421	0.090244	0.13433	0.2355	0.13902	0.10505	-2.5396	-3.0458	-3.3625	-2.7833	-3.4729	-3.0354	-2.7833	-3.4062	-2.9333	-2.9896	-3.4479	-2.5479	-3.2021	-3.1625	-2.7583	-3.4604	199.135	221.367	134.636	230.877	177.456	72.429	240.299	200.331	161.628	88.123	246.801	158.120	261.666	53.703	269.357	205.311	0.00035382	0.003443	0.0009125	648.68	2.8379e-05	3.6561e-05	982.75	213.81	1.8785e-05	2.8543e-05	360.98	123.96	73.131	32.876	2.181e-05	47.571	0.031037	0.036105	0.01005	1327.8	0.00039003	0.00039877	1493.4	404.85	0.00039213	0.00040634	674.06	235.59	178.7	68.485	0.00040311	95.803	268.223	-61.255	16.360	-70.243	250.296	-73.714	-70.015	-66.302	-60.054	-56.901	-67.669	-65.573	-63.514	-59.731	90.394	-62.194	-8191	255	
21685.170	1	1	0	0	0.24077	0.22936	0.21566	0.074624	0.33108	0.080296	0.081994	0.35139	0.16457	0.31574	0.097799	0.11905	0.10346	0.26932	0.087494	0.24026	-2.525	-2.8646	-3.2708	-2.6875	-3.2875	-3.075	-2.7792	-3.3063	-3.0062	-2.8146	-3.6979	-2.7521	-3.1979	-3.4604	-2.6458	-3.5646	116.791	123.733	34.263	-57.367	-64.744	-59.244	194.853	-21.649	110.682	177.924	210.520	188.401	-38.947	-20.409	146.624	169.144	0.00068454	0.0037931	0.00089252	640.85	2.9433e-05	2.672e-05	979.82	213.99	3.3217e-05	1.6402e-05	358.76	123	74.819	33.257	3.5228e-05	48.699	0.031587	0.036705	0.010243	1337.5	0.00039444	0.00040166	1496.5	405.66	0.00039103	0.00040503	672.22	233.74	176.99	67.893	0.00039732	95.229	118.016	-29.917	-51.200	-70.159	83.393	80.319	-70.288	-65.818	269.160	167.114	-68.369	-65.181	-62.926	-59.500	-50.237	-62.108	-8191	255	
21685.266	1	1	0	0	0.092156	0.14142	0.11269	0.10072	0.17351	0.015482	0.094055	0.16904	0.031264	0.25302	0.11273	0.13543	0.22812	0.31966	0.18079	0.11559	-2.6354	-2.8875	-3.4729	-2.7313	-3.2333	-3.2812	-2.9083	-3.2542	-3.1937	-2.7521	-3.4396	-2.7854	-3.125	-3.4979	-2.7875	-3.4771	114.342	125.359	231.353	250.422	162.060	88.594	249.182	200.916	46.552	74.125	158.351	265.540	-22.523	29.151	-9.739	193.286	0.00017319	0.0032273	0.0012795	646.38	1.8041e-05	2.7778e-05	976.61	214.41	1.8869e-05	2.7465e-05	354.37	123.66	72.767	33.662	7.471e-05	48.476	0.03117	0.03624	0.010076	1320.2	0.00038739	0.00039399	1477.3	396.7	0.00037657	0.0003887	654.79	227.4	170.27	65.917	0.00037235	92.153	226.844	6.156	6.916	-69.576	104.625	-2.982	-70.717	-67.046	96.272	255.952	-67.891	-64.774	-63.707	-59.779	196.201	-61.316	-8191	255	
21685.361	1	1	0	0	0.10895	0.19756	0.19751	0.054376	0.16151	0.056866	0.44626	0.070601	0.22418	0.10816	0.26587	0.12559	0.1387	0.094205	0.19676	0.12028	-2.6875	-2.6021	-3.4021	-2.9542	-2.9042	-3.4813	-2.8208	-3.4479	-3.2062	-2.9104	-3.5521	-2.9813	-2.8125	-3.4125	-2.5854	-3.2438	-0.965	-15.196	-39.399	213.737	-31.206	275.519	232.907	119.313	97.694	230.348	188.821	-53.954	237.337	-60.206	255.142	24.335	0.0001501	0.0046095	0.0010044	636.53	4.0332e-05	4.3689e-05	975.82	215.04	4.4559e-05	2.0742e-05	356.77	123.55	73.057	33.575	3.7318e-05	49.152	0.029014	0.033539	0.0093632	1260	0.00035627	0.00036128	1423.2	380.95	0.00034552	0.00035891	627.89	217.89	162.76	63.355	0.00034572	88.871	56.662	-32.423	6.358	-70.123	36.558	220.218	-70.561	-65.900	136.731	-75.355	-67.868	-64.985	-62.877	-59.973	-5.879	-61.584	-8191	255	
21685.457	1	1	0	0	0.089486	0.14245	0.25738	0.33683	0.12041	0.077514	0.43247	0.25704	0.064634	0.26291	0.32681	0.28379	0.083154	0.23261	0.10158	0.3475	-2.7354	-2.6104	-3.4062	-3.1979	-2.8458	-3.4	-2.8354	-3.1729	-3.2562	-2.6229	-3.5187	-3.1104	-2.7562	-3.3563	-2.7708	-3.1042	210.050	-30.639	-57.840	-82.126	60.297	208.872	206.786	219.286	-17.896	175.899	143.016	241.149	220.815	146.321	182.095	235.617	0.00027319	0.0032481	0.00055012	639.72	1.9656e-05	5.3059e-05	976.26	215.56	3.2172e-05	4.8929e-06	362.39	124.01	74.283	34.075	8.9702e-06	49.414	0.027072	0.031421	0.0087796	1223.8	0.00033734	0.00034426	1398.3	374.24	0.00033383	0.00034535	619.42	214.44	160.32	62.722	0.00033602	87.87	95.776	35.665	67.863	-69.879	-53.014	220.919	-70.615	-66.095	-38.756	-16.036	-68.104	-64.464	-63.233	-59.551	61.379	-61.981	-8191	255	
21685.555	1	1	0	0	0.22413	0.11934	0.18787	0.058283	0.010739	0.16974	0.23976	0.11118	0.22607	0.17688	0.0374	0.31733	0.035392	0.14879	0.16375	0.13235	-3.1063	-2.6875	-3.4583	-3.3042	-2.7229	-3.4833	-2.9104	-3.0771	-3.4167	-2.6542	-3.3521	-3.0917	-2.7146	-3.3479	-2.9083	-2.9604	65.568	148.497	52.921	72.788	-52.120	-54.233	171.040	14.990	126.134	103.569	36.696	242.384	236.287	61.368	29.731	127.600	0.00046259	0.0032687	0.001011	644.17	6.498e-06	5.4369e-05	980.9	214.14	1.3864e-05	1.2737e-05	359.14	122.38	74.505	34.187	1.4413e-05	49.571	0.026431	0.030589	0.0085364	1204.6	0.00032656	0.00033298	1386.2	365.89	0.00031983	0.00033095	609.57	211.01	157.11	61.72	0.0003253	87.142	14.601	103.407	39.485	-70.488	45.782	47.352	-70.503	-65.672	203.386	7.160	-67.315	-64.856	-63.529	-59.772	182.799	-61.544	-8191	255	
21685.674	1	1	0	0	0.16553	0.24215	0.071313	0.2866	0.036362	0.16779	0.17719	0.22424	0.23367	0.3546	0.20183	0.098764	0.087339	0.092159	0.14312	0.19621	-2.8333	-2.6896	-3.2625	-3.1688	-2.6167	-3.4979	-3.1167	-3.0917	-3.4437	-2.7438	-3.2875	-3.2271	-2.5708	-3.2917	-2.9813	-2.9104	190.742	234.969	-5.247	252.257	214.793	-28.353	191.584	231.843	2.814	141.580	216.166	199.773	174.789	-78.766	188.748	-80.553	0.00027908	0.0032652	0.0021564	646.19	5.8146e-06	1.804e-05	989.54	216.05	1.2426e-05	2.0973e-05	364.36	125.23	75.043	34.615	2.7212e-05	50.316	0.025735	0.029943	0.0083422	1196.8	0.00032267	0.00032714	1382.6	366.54	0.00031794	0.00032944	608.56	211.91	156.92	61.899	0.00032186	87.02	231.999	-6.965	251.303	-70.311	201.312	-80.400	-70.756	-66.051	105.028	226.827	-67.726	-64.650	-62.840	-59.489	114.877	-61.823	-8191	255	
21685.770	1	1	0	0	0.090639	0.11465	0.1381	0.0085378	0.10992	0.18791	0.19121	0.06453	0.046115	0.22962	0.34277	0.19799	0.10653	0.046361	0.13054	0.052377	-3.1458	-2.6625	-2.9229	-3.3646	-2.6875	-3.2792	-3.0792	-2.875	-3.5792	-2.7521	-3.1104	-3.45	-2.7354	-3.4167	-2.9875	-2.8312	64.043	142.145	-47.257	-59.743	-38.394	209.442	176.900	202.921	2.944	57.873	186.444	39.984	239.610	191.482	149.298	-49.690	0.00021647	0.0018111	0.00067882	644.33	2.0138e-06	4.8344e-05	980.6	217.87	1.0352e-05	3.4081e-05	362.03	123.79	76.72	35.001	3.3506e-05	49.616	0.025306	0.029388	0.0082157	1189.7	0.00031728	0.00032468	1377.6	366.73	0.00031739	0.00032794	609.61	211.4	157.66	62.196	0.00032647	87.702	-67.247	-36.006	-36.048	-70.127	252.037	173.988	-70.782	-66.301	9.208	12.341	-67.643	-64.628	-63.114	-59.477	42.066	-61.884	-8191	255	
21685.844	1	1	0	0	0.26213	0.19383	0.032172	0.24419	0.14073	0.035552	0.13249	0.10244	0.27576	0.1776	0.17638	0.18998	0.15672	0.20788	0.15231	0.16343	-3.0312	-2.6958	-2.9083	-3.4458	-2.6167	-3.3896	-3.2438	-2.7646	-3.3354	-2.9625	-2.8438	-3.4125	-2.7313	-3.4	-3.1208	-2.8083	94.431	20.698	126.556	147.611	272.025	-47.087	48.492	237.298	-36.061	78.111	-80.804	13.023	201.851	-35.557	175.351	252.867	0.00049554	0.00078564	0.0018152	649.95	6.3055e-05	1.2448e-05	976.27	217.48	4.1241e-05	4.5025e-05	363.87	125.02	75.992	34.154	2.8814e-05	50.12	0.025642	0.029939	0.0083996	1199.9	0.00032322	0.00033051	1387.6	369.3	0.00032285	0.00033195	616.32	213.61	159.95	62.917	0.00033437	89.124	264.299	22.396	238.656	-70.459	145.871	-59.241	-71.024	-65.907	7.924	187.832	-68.317	-64.967	-63.885	-60.232	221.620	-62.377	-8191	255	
21685.963	1	1	0	0	0.1345	0.20117	0.17962	0.25269	0.32508	0.32934	0.15645	0.18323	0.17137	0.032284	0.080429	0.21851	0.24814	0.043773	0.15725	0.065518	-3.0729	-2.95	-3.125	-3.3271	-2.8833	-3.1312	-3.3625	-2.8375	-3.4292	-2.9833	-2.9917	-3.4938	-2.7729	-3.0417	-3.3312	-2.8375	43.721	95.451	93.182	-11.194	69.554	182.367	175.032	141.975	-36.943	157.947	5.376	179.624	-55.830	24.044	56.394	117.566	0.00027342	0.0058558	0.00072545	654.86	3.4623e-05	3.6784e-05	996.4	218.15	4.3124e-05	3.7372e-05	365.19	124.59	76.254	35.145	2.1746e-05	50.797	0.026553	0.030916	0.008674	1223.4	0.00033537	0.00034316	1409.6	375.82	0.00033312	0.00034283	623.49	216.59	161.64	63.615	0.00034086	90.046	266.559	80.216	33.495	-70.683	-31.335	159.225	-70.642	-66.895	119.447	70.971	-68.651	-64.920	-63.915	-59.573	-3.641	-62.089	-8191	255	
21686.059	1	1	0	0	0.18266	0.052907	0.24767	0.22727	0.19687	0.04683	0.12293	0.1736	0.049683	0.069489	0.10215	0.23661	0.20595	0.13345	0.083226	0.17907	-3.0292	-3.1188	-2.7333	-3.5667	-2.9688	-3.0812	-3.4667	-2.7292	-3.2042	-3.0833	-2.6646	-3.4875	-2.8479	-2.9208	-3.4021	-2.8187	-23.717	-3.138	-60.887	6.986	150.341	181.404	238.860	141.679	274.638	244.850	193.734	258.707	29.495	232.729	-31.616	-69.286	0.0006074	0.003884	0.00058451	644.57	2.3045e-05	7.3946e-06	995.43	219.19	2.9123e-05	1.1223e-05	366.12	125.05	75.054	34.326	2.4331e-05	49.71	0.027235	0.03182	0.0089416	1245.8	0.00034562	0.0003548	1427.7	382.36	0.0003455	0.00035545	635.07	220.16	164.89	64.52	0.00035157	90.654	-74.734	-50.244	78.760	-70.156	-54.094	-41.543	-70.444	-66.303	157.789	205.681	-68.467	-64.619	-63.668	-59.991	132.308	-61.783	-8191	255	
21686.154	1	1	0	0	0.10214	0.032195	0.17683	0.25652	0.23657	0.052069	0.13609	0.29259	0.18755	0.21429	0.36333	0.097047	0.10186	0.20158	0.092278	0.13568	-3.0479	-3.0833	-2.9708	-3.6375	-2.9542	-3.0125	-3.6604	-2.5708	-3.325	-3.1417	-2.8917	-3.5708	-2.9688	-2.9	-3.3354	-2.925	183.817	69.695	261.869	-41.694	116.277	81.375	-63.933	196.224	264.992	242.109	151.268	261.107	-79.659	244.492	-20.065	235.144	0.00044836	0.0018398	0.0012053	644.95	4.3943e-05	4.0889e-05	991.7	216.04	4.7263e-06	1.8966e-05	364.84	123.65	75.617	34.692	6.3716e-05	50.017	0.027717	0.032155	0.0090495	1250.1	0.00034888	0.00035723	1430.6	383.65	0.00034795	0.00036132	638.68	222.17	166.57	65.155	0.00035723	91.496	200.299	32.102	-29.249	-70.540	218.624	234.724	-70.732	-65.954	-71.572	99.014	-67.985	-65.680	-63.881	-59.523	215.827	-62.129	-8191	255	
21686.275	1	1	0	0	0.041585	0.1843	0.14055	0.15846	0.20868	0.12764	0.095999	0.22457	0.10885	0.25685	0.18924	0.10412	0.094511	0.26815	0.14764	0.21326	-2.9229	-3.3271	-2.6583	-3.6229	-2.9688	-2.8729	-3.6521	-2.9917	-3.0854	-3.2521	-2.7562	-3.3917	-3.2208	-2.9062	-3.575	-2.9938	-66.203	138.307	261.596	-8.749	164.187	10.287	47.718	195.804	-32.445	-8.571	155.458	187.466	214.736	201.992	-80.924	206.272	0.00027261	0.001986	0.0012558	652.45	1.7887e-05	5.5512e-05	992.07	217.63	1.2052e-05	2.371e-05	365.11	124.9	74.957	34.733	1.6536e-05	50.108	0.027966	0.032482	0.0090801	1248.7	0.00034538	0.00035089	1423.6	377.46	0.00033821	0.00034776	626.96	217.02	161.63	63.497	0.00034149	89.418	129.264	55.534	-4.226	-70.235	76.896	49.768	-70.665	-66.151	70.408	248.138	-68.163	-64.885	-63.758	-60.424	163.201	-61.684	-8191	255	
21686.371	1	1	0	0	0.16545	0.12357	0.12098	0.15016	0.093545	0.34752	0.21382	0.039114	0.14549	0.057372	0.26573	0.17731	0.17833	0.1351	0.11766	0.28093	-2.6667	-3.3375	-2.7375	-3.2792	-3.1083	-2.7438	-3.5833	-3.0667	-3.1646	-3.3583	-2.9271	-3.3396	-3.05	-2.7188	-3.4958	-3.0062	275.258	-0.315	95.405	-42.391	150.690	-73.325	239.624	75.014	119.799	204.726	-73.231	224.635	248.185	207.861	63.553	-76.906	0.00020021	0.0027925	0.0003319	648.83	1.212e-05	2.2205e-05	995.87	217.29	2.7132e-05	4.2438e-06	361.92	125.22	74.515	34.614	5.2321e-06	50.396	0.02685	0.031317	0.0087866	1232.5	0.00033732	0.00034334	1419.3	375.68	0.00033401	0.00034363	624.18	216.8	161.65	63.874	0.00034384	89.885	52.589	44.350	48.108	-70.649	161.182	166.821	-70.548	-66.159	231.721	116.232	-68.161	-64.734	-63.916	-60.109	192.848	-62.002	-8191	255	
21686.441	1	1	0	0	0.32512	0.20109	0.26302	0.14289	0.15622	0.32489	0.090647	0.047114	0.23812	0.23551	0.21681	0.21306	0.18986	0.12238	0.26721	0.072083	-2.375	-3.4021	-2.6583	-3.3458	-3.0958	-2.8771	-3.4625	-3.05	-2.8229	-3.4938	-2.7042	-3.2604	-3.3937	-2.8542	-3.4021	-3.2583	254.796	-45.741	246.993	-65.140	106.324	65.463	-19.625	-36.967	43.505	261.546	275.259	238.188	249.112	-31.240	113.233	256.630	0.00030512	0.0030698	0.00061477	653.62	4.9149e-06	5.589e-05	994.7	216.43	4.8134e-05	5.458e-05	365.86	124.94	75.165	34.96	2.8036e-05	50.078	0.027052	0.031482	0.0087896	1239.1	0.00034074	0.00034802	1421.3	378.02	0.00034056	0.00035234	631.78	219.66	164.57	64.698	0.00035128	90.713	-65.202	183.992	224.985	-70.594	87.301	247.616	-70.636	-66.145	188.122	272.281	-68.033	-65.101	-63.359	-59.706	27.664	-61.680	-8191	255	
21686.562	1	1	0	0	0.037889	0.020826	0.11881	0.090291	0.10348	0.1213	0.15148	0.13279	0.25275	0.16289	0.17671	0.17029	0.20676	0.17218	0.13066	0.13746	-2.4292	-3.525	-2.8	-3.1583	-3.3563	-2.65	-3.4917	-3.1167	-2.9083	-3.5375	-2.8646	-3.1542	-3.4021	-2.7396	-3.4562	-3.3604	112.789	233.749	141.653	229.607	-46.545	232.828	93.164	119.490	-60.719	3.522	218.519	-5.097	202.905	257.019	15.316	202.328	0.00025987	0.0025509	0.0014411	653.13	2.0633e-05	1.2652e-05	997.36	214.02	6.8816e-06	4.3487e-05	360.59	124.17	74.646	34.622	1.9397e-05	49.953	0.027871	0.032404	0.0090748	1261.4	0.00034962	0.00035691	1442	382.24	0.00035004	0.00036118	637.84	222.92	166.81	65.377	0.00036106	92.076	-12.514	-44.034	50.194	-70.374	21.986	60.884	-70.548	-66.582	29.933	110.685	-68.113	-65.378	-63.955	-60.070	237.491	-62.777	-8191	255	
21686.656	1	1	0	0	0.11162	0.1872	0.26866	0.12504	0.11164	0.24388	0.16481	0.16727	0.13873	0.21362	0.12538	0.12129	0.14906	0.24353	0.26916	0.26811	-2.1604	-3.3667	-2.8583	-3.0521	-3.4458	-2.9604	-3.4646	-3.25	-2.6958	-3.5292	-3.1437	-3.1	-3.5042	-2.7479	-3.3042	-3.2479	145.804	229.840	159.826	201.292	247.355	187.967	242.737	-69.756	130.462	86.602	200.213	-68.010	-49.253	206.014	-27.581	125.941	0.00032807	0.00099538	0.0013734	648.5	4.123e-05	2.4015e-05	986.11	215.53	3.1472e-05	6.1804e-06	364.62	124.64	74.458	34.27	2.2219e-05	49.824	0.028586	0.033369	0.0093398	1280.9	0.00036278	0.00037064	1455.9	391.34	0.00036185	0.00037265	651.83	227	170.69	66.571	0.00037572	93.571	162.350	22.552	199.019	-70.444	208.622	91.057	-70.878	-66.107	12.155	271.613	-68.017	-64.639	-64.074	-59.852	131.899	-61.904	-8191	255	
21686.754	1	1	0	0	0.3446	0.13849	0.21365	0.15912	0.19274	0.22747	0.17043	0.13404	0.15515	0.098379	0.17706	0.10271	0.008392	0.17987	0.20224	0.29585	-2.3792	-3.4062	-2.9938	-2.9188	-3.5438	-2.7833	-3.35	-3.4021	-2.8396	-3.4354	-3.1771	-2.8604	-3.6771	-3.0729	-3.0208	-3.45	204.205	253.280	76.627	52.087	161.476	153.461	196.290	-83.851	-2.625	-75.720	222.797	-47.845	42.850	258.533	254.776	160.456	0.00083284	0.0059395	0.00097581	657.35	2.7604e-05	2.9585e-05	999.78	215.11	2.4459e-05	5.04e-05	364.33	124.98	75.487	34.561	3.8521e-05	50.395	0.029539	0.034354	0.0095784	1296.8	0.00037042	0.00037831	1474.2	393.05	0.00036727	0.00037882	654.19	227.31	170.91	66.85	0.00037614	94.236	-76.271	-75.608	-36.399	-70.016	164.938	106.330	-70.102	-66.293	204.167	36.937	-68.367	-64.949	-63.448	-59.749	141.439	-61.363	-8191	255	
21686.850	1	1	0	0	0.083555	0.090046	0.070712	0.30492	0.16278	0.10693	0.32104	0.12528	0.10964	0.037603	0.30766	0.095195	0.23076	0.12915	0.24046	0.13276	-2.3312	-3.5792	-3.3042	-2.8958	-3.6	-2.8958	-3.1833	-3.55	-2.6396	-3.4333	-3.3	-2.7875	-3.5896	-2.9938	-3.0167	-3.5917	144.917	185.358	209.292	75.978	-15.370	52.783	233.695	221.628	-41.115	183.036	-24.592	57.676	257.466	55.360	-9.234	241.915	0.00046602	0.0011111	0.0008748	648.21	1.8816e-05	3.2056e-05	995.96	216.5	5.312e-06	5.4353e-06	358.6	124.36	75.665	34.078	2.0151e-05	49.332	0.029694	0.034557	0.0096962	1307	0.00037453	0.00038106	1472.7	395.07	0.00037115	0.00038213	657.99	229.47	172.8	67.143	0.00038323	94.822	263.834	202.070	-9.688	-69.506	68.923	166.334	-70.286	-65.658	-4.869	261.796	-68.269	-64.770	-62.918	-60.717	97.858	-61.473	-8191	255	
21686.945	1	1	0	0	0.12368	0.090269	0.12832	0.19252	0.070527	0.072481	0.074656	0.21455	0.11282	0.0093193	0.055311	0.14199	0.15868	0.19899	0.30395	0.22223	-2.3563	-3.4813	-3.3708	-2.6792	-3.3604	-3.1021	-3.1937	-3.5521	-2.6958	-3.3729	-3.2875	-2.8458	-3.6896	-3.1792	-2.8667	-3.6021	-19.033	37.520	-72.623	208.535	254.951	272.423	235.931	186.179	51.253	130.709	211.514	39.831	146.951	125.603	48.163	236.236	0.00055748	0.0014924	0.0022335	655.18	4.566e-05	8.2669e-05	990.83	216.34	1.6288e-05	4.3376e-05	365.3	126.82	74.719	34.086	2.3466e-05	49.831	0.030207	0.035325	0.0099097	1322.6	0.0003843	0.00039106	1492.4	400.81	0.00038081	0.00039513	668.48	232.89	175.21	67.743	0.00039196	95.323	242.590	162.651	-22.467	-69.916	80.826	98.048	-69.880	-66.111	55.824	-22.041	-68.264	-64.702	-63.356	-59.589	242.551	-61.621	-8191	255	
21687.066	1	1	0	0	0.13407	0.16524	0.20835	0.14891	0.12087	0.099459	0.27117	0.20133	0.14367	0.29552	0.25292	0.22518	0.083064	0.051537	0.07977	0.12799	-2.4604	-3.0104	-3.3229	-2.7292	-3.3396	-3.0125	-3.0646	-3.5125	-2.8375	-3.1083	-3.5	-2.9021	-3.3583	-3.0396	-2.5563	-3.4771	-8.405	-19.407	-10.012	212.991	178.523	168.376	206.345	199.447	219.786	-49.602	238.509	33.745	47.797	233.392	49.385	116.255	0.00043336	0.0033531	0.0012339	649.42	3.8756e-05	4.0746e-05	988.36	214.25	2.1342e-05	3.0627e-05	364.57	124.55	75.301	34.102	6.0507e-05	50.087	0.030694	0.035806	0.009983	1325.4	0.00038581	0.00039511	1494.8	403.65	0.00038374	0.00039669	668.89	232.65	175.77	67.714	0.0003879	95.403	-36.781	69.105	236.135	-69.697	141.875	219.918	-70.443	-66.680	25.115	271.243	-67.959	-65.024	-63.055	-59.608	84.647	-61.648	-8191	255	
21687.139	1	1	0	0	0.088165	0.0406	0.19002	0.085772	0.065817	0.040321	0.17938	0.14931	0.08316	0.21876	0.20358	0.14182	0.23056	0.096384	0.14768	0.18408	-2.5229	-2.8417	-3.3771	-2.7938	-3.2792	-3.0979	-2.6833	-3.5438	-2.9229	-2.9271	-3.4437	-2.7062	-3.0833	-3.2396	-2.5479	-3.5125	86.112	163.611	30.971	149.269	116.211	-44.820	236.442	219.960	174.598	263.091	249.266	164.728	69.209	-17.001	265.927	267.840	0.00048969	0.0031194	0.00012624	648.87	5.2677e-05	8.0967e-05	991.99	214.92	3.125e-05	4.7586e-05	361.8	123.75	75.227	34.281	4.1052e-05	49.408	0.030378	0.035489	0.0099295	1317.9	0.00038118	0.00038671	1486.3	398.48	0.00037488	0.00038687	661.48	229.54	173.07	67.238	0.00038167	94.164	275.986	78.657	139.373	-70.906	223.193	274.822	-70.114	-65.961	215.986	70.168	-67.475	-65.291	-63.261	-59.718	153.664	-61.793	-8191	255	
21687.234	1	1	0	0	0.047179	0.05906	0.055022	0.21422	0.071482	0.25547	0.32687	0.092557	0.074567	0.12802	0.19688	0.15331	0.28733	0.060748	0.046422	0.28635	-2.2854	-2.9479	-3.4229	-2.7687	-3.125	-3.2417	-2.9	-3.4667	-2.8688	-2.8312	-3.65	-2.8729	-3.3792	-3.3979	-2.625	-3.4938	-66.010	197.988	60.356	247.656	158.630	39.151	214.639	143.468	220.180	77.996	11.024	-64.809	153.767	38.404	188.794	161.996	7.6141e-05	0.0010314	0.00034059	651.26	2.9755e-05	8.7814e-05	992.19	215.66	1.825e-05	2.76e-05	361.17	124.77	75.207	33.848	1.5141e-05	50.4	0.0299	0.034746	0.0097079	1302.3	0.00037213	0.00037913	1474.9	392.38	0.0003673	0.00038031	654.08	227.09	170.75	66.083	0.00037168	93.016	69.131	262.155	-81.897	-69.971	47.125	140.736	-70.232	-65.848	264.031	123.172	-67.840	-65.385	-62.653	-59.710	274.106	-61.666	-8191	255	
21687.355	1	1	0	0	0.089127	0.29674	0.1649	0.21311	0.30489	0.15485	0.11315	0.15361	0.18221	0.14961	0.21079	0.18883	0.016346	0.24165	0.20665	0.40152	-2.6312	-2.8875	-3.4979	-2.8	-3.0271	-3.4188	-2.8708	-3.4437	-3.2917	-2.8063	-3.475	-3.0354	-3.0958	-3.6375	-2.8333	-3.4313	89.399	255.276	78.185	210.170	231.106	270.707	200.155	190.534	-11.508	273.714	-83.823	232.588	141.732	256.662	-68.012	-59.970	0.00025764	0.0027773	0.0013365	641.03	1.3922e-05	5.0975e-05	986.15	217.05	1.6909e-05	2.6338e-05	360.54	124.1	75.6	34.068	2.3014e-05	50.008	0.029127	0.033859	0.0094378	1278.1	0.0003652	0.00037101	1454.5	390.55	0.00035826	0.00037045	645.62	223.97	168.69	65.607	0.00036453	92.599	260.504	83.710	-16.413	-70.574	132.297	-74.587	-70.394	-66.260	72.893	205.966	-67.968	-65.006	-63.109	-59.880	121.643	-61.592	-8191	255	
21687.451	1	1	0	0	0.1473	0.20157	0.22384	0.2413	0.031937	0.065857	0.17978	0.11105	0.083741	0.086216	0.40777	0.11797	0.17391	0.058392	0.25466	0.086303	-2.8729	-2.7292	-3.4708	-3.1292	-3	-3.3458	-2.8958	-3.3375	-3.3229	-2.5875	-3.6625	-3.2438	-3.025	-3.425	-2.8187	-3.5021	230.103	82.801	-35.148	206.817	129.619	271.421	249.504	259.715	34.108	262.939	205.384	76.631	-63.816	193.159	273.780	-58.784	0.00029489	0.0031396	0.0012114	650.5	2.5538e-05	6.9004e-05	990.99	215.86	2.3767e-05	2.78e-05	367.41	124.95	74.78	33.94	4.2105e-05	50.115	0.028782	0.033541	0.0093591	1276.7	0.0003611	0.00036797	1449.2	387.5	0.00035598	0.00036683	645.82	224.56	168.16	65.472	0.00036264	92.681	156.404	-17.091	-36.370	-70.420	-10.756	58.619	-70.704	-66.221	253.298	5.446	-68.536	-64.584	-62.845	-59.438	-3.398	-61.242	-8191	255	
21687.547	1	1	0	0	0.14004	0.26643	0.039231	0.16898	0.10616	0.054844	0.22016	0.2703	0.051958	0.14987	0.051209	0.22751	0.1115	0.11786	0.35497	0.14532	-3.0479	-2.7333	-3.3875	-3.1937	-2.8333	-3.5083	-2.9042	-3.2125	-3.3521	-2.7021	-3.3937	-3.2042	-2.7854	-3.4792	-2.9583	-3.0812	172.687	3.187	261.502	151.632	241.517	267.363	220.415	217.307	242.910	29.733	-14.038	-60.130	-78.443	-82.346	-37.631	-51.958	0.00064974	0.0059207	0.00088004	646.37	1.829e-05	1.5634e-05	998.98	218.45	1.9754e-05	4.1424e-05	364.62	125.59	74.354	34.158	2.5632e-05	50.198	0.028566	0.033137	0.0092559	1269.8	0.00035729	0.00036151	1450.4	386.11	0.00035216	0.00036167	639.7	222.54	166.06	65.022	0.00035695	91.908	183.880	268.125	-51.953	-69.939	161.119	253.346	-70.367	-66.438	14.899	226.549	-68.186	-64.269	-64.067	-59.756	95.000	-61.510	-8191	255	
21687.643	1	1	0	0	0.022358	0.25959	0.090768	0.23902	0.20099	0.078196	0.22138	0.15009	0.21194	0.15991	0.11117	0.13456	0.1197	0.071901	0.15056	0.20971	-2.8937	-2.7146	-3.2458	-3.3438	-2.7313	-3.4583	-3.1146	-3.1542	-3.5687	-2.6583	-3.6167	-3.3167	-2.8333	-3.4604	-2.9375	-2.9729	28.011	138.942	270.964	-65.356	-24.354	32.049	200.556	-73.471	61.816	184.469	38.588	272.749	-7.762	228.314	-46.473	172.633	0.00046263	0.0038337	0.00067244	649.4	1.2467e-05	4.6052e-05	993.87	216.7	7.5992e-06	2.8116e-05	364.89	124.18	75.314	34.453	6.1585e-05	50.146	0.028305	0.033055	0.0092324	1265	0.00035594	0.00036384	1446.9	386.83	0.0003524	0.00036292	641.68	222.52	166.49	64.946	0.0003543	91.564	25.584	198.249	208.929	-69.885	-21.621	139.141	-71.109	-66.337	242.581	-34.224	-67.775	-65.084	-63.399	-59.670	62.604	-61.753	-8191	255	
21687.740	1	1	0	0	0.34511	0.085092	0.05951	0.092152	0.064832	0.101	0.25436	0.21382	0.13138	0.17647	0.081101	0.17936	0.22825	0.28709	0.25982	0.25446	-3.0479	-2.825	-3.3396	-3.3792	-2.6146	-3.5667	-3.1646	-3.0104	-3.4854	-2.7792	-3.2417	-3.4083	-2.7833	-3.4354	-3.1063	-2.9229	-15.918	-6.929	-47.838	150.651	14.564	267.334	112.876	135.905	53.003	104.141	15.965	249.898	120.316	214.273	35.031	192.319	0.00032197	0.004154	0.0015542	650.02	4.1506e-05	1.6982e-05	990.15	217.65	2.0281e-05	3.8516e-05	367.87	125.35	75.607	34.296	1.3456e-05	50.044	0.028167	0.032566	0.0091662	1267.6	0.00035671	0.0003645	1446.4	388.56	0.0003562	0.00036565	644.97	223.96	168.09	65.393	0.00036273	92.606	63.455	131.362	-8.147	-70.308	47.853	106.347	-70.637	-65.868	99.926	-22.994	-68.754	-65.028	-63.029	-59.120	162.790	-61.354	-8191	255	
21687.836	1	1	0	0	0.13711	0.14062	0.31398	0.11876	0.070795	0.17239	0.41502	0.2099	0.29683	0.022461	0.2993	0.23463	0.26354	0.12563	0.11185	0.14838	-3.2458	-2.7125	-3.1021	-3.3396	-2.6771	-3.4833	-3.1521	-2.7583	-3.2979	-2.8229	-3.1625	-3.4875	-2.7979	-3.3896	-3.2146	-2.7875	193.426	62.894	-21.204	-72.952	9.618	188.302	246.254	119.539	238.215	71.474	197.931	78.966	267.241	236.468	-61.263	-2.851	0.00017077	0.0022699	9.8438e-05	646.39	1.461e-05	6.1167e-05	992.9	216.93	2.434e-05	5.8253e-05	366.73	124.06	74.293	34.339	2.1981e-05	49.731	0.028588	0.033348	0.0094256	1283.6	0.00036307	0.00037063	1461.3	390.6	0.00036082	0.00037486	651.62	226.6	170.21	66.36	0.00037248	93.382	62.426	-81.402	32.158	-70.311	196.483	39.553	-70.483	-65.529	-55.155	-24.028	-67.965	-65.163	-63.457	-60.212	212.914	-61.440	-8191	255	
21687.955	1	1	0	0	0.15535	0.048521	0.30196	0.3187	0.11621	0.18219	0.40719	0.16452	0.040261	0.29687	0.13133	0.044571	0.018911	0.12354	0.089361	0.30327	-3.125	-2.875	-2.7979	-3.5875	-2.8063	-3.3417	-3.2354	-2.8104	-3.6146	-3.0958	-2.9146	-3.5104	-2.9146	-3.2646	-3.3104	-2.8479	154.073	64.270	-53.637	-67.307	27.669	162.217	173.487	35.411	135.059	158.034	266.963	114.592	130.710	35.838	-38.470	260.893	0.00053227	0.0049043	0.00087037	651.76	4.33e-05	2.9784e-05	996.64	213.99	3.5096e-05	4.768e-05	358.24	124.2	74.33	33.584	1.8961e-05	48.901	0.029374	0.034121	0.0095696	1292.5	0.00036678	0.00037419	1462.3	390.51	0.00036163	0.00037264	646.26	224.01	168.14	65.157	0.00036622	91.608	231.993	239.338	-77.351	-69.966	232.173	-44.241	-70.793	-66.195	116.739	195.893	-67.589	-65.177	-63.344	-59.632	235.017	-62.356	-8191	255	
21688.051	1	1	0	0	0.18916	0.22843	0.11828	0.26324	0.28897	0.11776	0.11408	0.094189	0.25222	0.11795	0.060125	0.15555	0.031749	0.16348	0.14146	0.19261	-3.1292	-2.975	-2.8458	-3.5833	-2.7583	-3.2292	-3.3917	-2.7625	-3.4083	-3.1188	-2.9292	-3.6354	-2.6979	-3.1542	-3.4688	-2.9625	104.888	61.075	266.735	263.774	76.121	-4.370	207.632	235.626	-18.303	105.770	70.681	-10.202	145.202	183.142	-5.313	189.725	0.0003436	0.0013795	0.001067	647.78	1.6975e-05	5.36e-05	989.06	212.74	2.0597e-05	1.9047e-05	357.84	123.11	74.433	34.233	4.7011e-05	48.865	0.028803	0.033763	0.0094363	1279.6	0.00036215	0.00037165	1449.7	385.94	0.00035624	0.00036735	640.26	222.58	166.03	64.947	0.00035819	91.104	172.783	-54.461	-29.633	-70.398	-78.479	-47.658	-70.209	-65.797	55.864	217.931	-67.988	-65.037	-63.686	-60.377	237.903	-61.712	-8191	255	
21688.146	1	1	0	0	0.12799	0.097965	0.32879	0.15423	0.10651	0.34758	0.084572	0.21417	0.1645	0.10618	0.15255	0.36202	0.1301	0.13179	0.049775	0.25673	-2.9271	-3.1229	-2.9417	-3.575	-2.7708	-2.9625	-3.4708	-2.9813	-3.1375	-3.2792	-3.0042	-3.4854	-2.7979	-2.8958	-3.5333	-2.8271	-13.303	268.619	126.085	-81.402	154.267	41.404	216.982	56.760	143.904	49.026	243.307	259.378	23.874	246.812	182.307	189.493	0.00033613	0.0028803	0.0020513	647.41	1.1506e-05	9.3407e-06	986.47	210.8	2.945e-05	1.6287e-05	356.69	123.28	74.167	34.01	4.4039e-05	49.526	0.02842	0.033061	0.0092907	1264.1	0.00035798	0.00036549	1439.6	382.77	0.00035345	0.0003648	637.56	221.41	166.51	65.111	0.00036236	91.55	210.328	269.484	-14.807	-70.079	220.048	-48.182	-70.325	-66.323	128.919	217.824	-67.704	-65.163	-62.640	-59.117	43.929	-61.608	-8191	255	
21688.242	1	1	0	0	0.26874	0.16384	0.038156	0.051994	0.3382	0.048466	0.082194	0.14438	0.12695	0.034729	0.25612	0.21783	0.053705	0.31203	0.10316	0.41628	-2.7833	-3.0896	-2.5812	-3.5375	-3.0208	-3.0458	-3.5187	-2.8333	-3.2792	-3.4583	-2.7938	-3.4833	-3.0625	-3.0229	-3.5521	-2.9062	-7.360	69.499	75.123	203.612	93.421	258.372	202.164	214.474	172.301	63.620	197.398	-58.536	170.583	188.006	229.322	193.428	0.00022204	0.0034012	6.0769e-05	648.47	2.4006e-05	3.23e-05	983.11	212.77	2.4737e-05	1.8397e-05	360.53	122.8	74.27	33.653	8.4269e-06	49.344	0.028554	0.033337	0.0093242	1269.5	0.00035812	0.00036788	1444.4	385.27	0.0003583	0.00036908	642.79	222.46	167.7	65.459	0.00036521	92.062	262.679	108.838	67.494	-70.772	38.864	-84.172	-70.613	-66.484	46.901	161.038	-67.975	-65.200	-63.133	-60.104	210.751	-61.233	-8191	255	
21688.363	1	1	0	0	0.10194	0.054697	0.16316	0.18496	0.14787	0.11985	0.21439	0.14978	0.067317	0.21508	0.1533	0.15197	0.29213	0.030365	0.17478	0.15793	-2.8187	-3.3667	-2.6188	-3.4979	-3.1271	-2.7792	-3.525	-3.0312	-2.9583	-3.4083	-2.7812	-3.3708	-3.0792	-2.7938	-3.6729	-2.9354	257.063	232.897	-16.535	180.862	12.081	30.253	176.438	239.356	75.734	224.593	-53.655	214.376	165.162	-72.653	5.279	203.803	0.00058485	0.0049723	0.00066541	640.25	3.0275e-05	3.8324e-05	984.85	211.5	4.791e-05	1.5586e-05	360.49	122.63	74.251	33.865	3.0354e-05	49.472	0.028872	0.033506	0.0093976	1271.9	0.00036246	0.00036903	1442.8	385.57	0.00035747	0.00036669	639.82	221.53	166.33	65.012	0.00035808	90.937	-64.072	-57.512	31.858	-69.989	145.655	-27.077	-70.231	-66.535	113.396	73.149	-67.667	-64.250	-63.055	-59.265	79.238	-61.552	-8191	255	
21688.436	1	1	0	0	0.097558	0.085922	0.10436	0.058486	0.13083	0.072585	0.14535	0.15049	0.19935	0.24278	0.23389	0.11342	0.25992	0.049983	0.20626	0.27925	-2.5021	-3.35	-2.7854	-3.3833	-3.2438	-2.7042	-3.6604	-2.9521	-2.9729	-3.6229	-2.8333	-3.1937	-3.3167	-2.8896	-3.525	-3.0146	233.785	-5.383	-48.928	269.625	152.177	121.973	186.368	199.898	157.148	84.513	261.350	70.792	81.105	-40.802	130.172	215.857	0.00056443	0.0036151	0.0020418	643.52	4.3108e-05	4.2976e-05	973.76	211.6	3.1376e-05	5.009e-05	361.02	123.19	73.743	34.054	2.3091e-05	49.642	0.028249	0.032724	0.0091534	1252.2	0.00035033	0.00035922	1426.2	378.88	0.00034385	0.00035703	629.07	218.1	163.43	64.122	0.00034976	89.921	246.191	220.780	57.909	-70.241	208.179	266.887	-70.377	-66.351	214.921	179.586	-68.555	-64.665	-63.770	-59.126	217.845	-61.607	-8191	255	
21688.531	1	1	0	0	0.028352	0.18577	0.28291	0.19417	0.039669	0.10444	0.38628	0.12453	0.14673	0.14522	0.23382	0.0087086	0.081202	0.16504	0.12293	0.29368	-2.4333	-3.4292	-2.725	-3.1271	-3.4521	-2.7396	-3.5438	-3.2625	-2.8708	-3.6083	-3	-3.1167	-3.3583	-2.7458	-3.3208	-3.3229	256.732	111.021	100.242	130.363	160.432	139.429	147.748	168.910	-55.750	-44.270	256.675	103.418	-52.292	230.549	71.474	186.543	0.00052417	0.0011287	0.00049035	644.19	1.5029e-05	5.7499e-05	987.9	213.04	2.5944e-05	2.9771e-05	359.12	123.61	75.103	34.301	1.6839e-05	50.436	0.027771	0.032133	0.0089113	1235.5	0.0003412	0.00034523	1411.6	372.5	0.00033313	0.00034235	619.22	214.75	160.53	62.99	0.00033738	88.963	-29.254	145.656	-82.098	-70.251	100.084	82.007	-70.141	-66.682	-30.419	97.130	-67.595	-64.700	-63.212	-60.271	-48.014	-62.109	-8191	255	
21688.652	1	1	0	0	0.22802	0.25388	0.086188	0.28804	0.083587	0.202	0.2175	0.1618	0.22426	0.13417	0.25721	0.089328	0.061316	0.15631	0.24103	0.174	-2.4313	-3.375	-2.725	-3.1375	-3.5271	-2.8917	-3.4896	-3.1667	-2.6958	-3.4813	-3.0146	-3.0021	-3.3875	-2.7104	-3.1729	-3.2667	64.473	233.016	247.222	249.357	141.377	90.234	174.085	201.835	-49.288	-65.020	234.668	253.729	-76.123	240.569	48.855	225.448	0.00048606	0.0047421	0.0012417	650.3	2.7564e-05	5.6944e-06	988.85	214.63	2.669e-05	2.2373e-05	363.03	123.78	75.096	34.851	4.8522e-05	50.685	0.026464	0.030559	0.008522	1210.1	0.00032616	0.00033119	1391.4	365.92	0.00032026	0.00032885	607.86	211.38	156.91	61.928	0.00032171	87.267	-54.283	44.551	31.604	-70.553	35.427	11.961	-70.212	-66.037	1.751	80.040	-68.421	-64.331	-63.759	-59.718	62.484	-60.756	-8191	255	
21688.746	1	1	0	0	0.28512	0.21231	0.039967	0.34616	0.085253	0.18177	0.22585	0.1253	0.01102	0.10602	0.1368	0.20618	0.26834	0.11634	0.010306	0.18979	-2.4083	-3.3688	-2.9313	-2.9938	-3.45	-2.9917	-3.2042	-3.3667	-2.8083	-3.4271	-3.0229	-2.9792	-3.575	-2.9208	-3.1042	-3.3792	165.169	14.101	263.000	234.520	-68.055	58.619	263.047	253.630	142.710	168.756	216.963	182.832	51.364	-3.901	69.812	65.390	0.00039913	0.0026905	0.001517	651.5	4.3678e-05	5.6758e-05	993.89	216.59	1.73e-05	3.4686e-05	367.87	124.52	75.576	35.065	3.2335e-05	50.712	0.025307	0.02934	0.0081631	1185.2	0.00031367	0.00031743	1374.2	360.19	0.00030801	0.00031699	599.09	207.68	153.63	61.004	0.00031226	86.366	151.992	51.198	75.414	-69.924	158.422	-30.184	-69.946	-65.890	-73.893	203.467	-68.034	-64.385	-63.720	-59.748	108.680	-61.009	-8191	255	
21688.844	1	1	0	0	0.061142	0.11431	0.39981	0.10889	0.2332	0.086918	0.20138	0.038971	0.18502	0.19378	0.097215	0.056175	0.12236	0.38798	0.021648	0.17349	-2.375	-3.2583	-2.9583	-2.7021	-3.45	-2.775	-3.1417	-3.4021	-2.7292	-3.4271	-3.3146	-2.8208	-3.3521	-2.7896	-3.1104	-3.4625	-19.263	188.789	122.511	215.042	13.698	-81.176	248.834	213.392	54.972	11.429	166.870	106.810	-51.893	159.569	175.947	105.817	0.00024709	0.00070963	0.00096763	655.57	4.4791e-05	1.2976e-05	997.84	214.37	1.7609e-05	1.8581e-05	365.44	124.71	76.006	34.876	2.5481e-05	51.719	0.024757	0.028786	0.008047	1182.7	0.00030924	0.00031793	1380.4	361.23	0.00030932	0.00031905	602.87	210.01	155.48	61.58	0.00032046	87.311	229.972	-51.880	71.660	-70.283	119.733	195.679	-69.861	-65.918	37.007	168.486	-67.361	-64.503	-63.558	-59.639	259.990	-62.089	-8191	255	
21688.939	1	1	0	0	0.29203	0.26503	0.23308	0.055402	0.21347	0.11656	0.2465	0.33422	0.27829	0.13084	0.11352	0.18611	0.28417	0.15575	0.34704	0.14295	-2.1917	-3.3542	-3.3167	-2.8833	-3.4771	-2.9167	-3.0521	-3.4104	-2.8063	-3.2	-3.2979	-2.5958	-3.3083	-2.9479	-2.9583	-3.5187	234.399	92.562	182.869	189.004	9.186	73.016	208.369	209.857	-34.650	27.348	165.051	124.409	235.297	141.750	48.034	156.970	0.00030317	0.0025379	0.0018442	658.82	2.6096e-05	2.7177e-05	1004.4	217.25	5.2104e-06	3.0446e-05	370.63	125.71	74.462	34.735	2.76e-05	50.581	0.025216	0.029448	0.0082309	1198.9	0.00031814	0.00032541	1396.6	366.79	0.00031992	0.00033173	614.84	214.73	158.83	63.065	0.00033552	89.339	166.498	46.758	183.325	-70.148	121.593	199.420	-70.526	-66.104	-9.703	22.203	-67.362	-64.654	-63.384	-59.673	170.499	-61.805	-8191	255	
21689.035	1	1	0	0	0.088078	0.23196	0.079382	0.16254	0.168	0.008556	0.1363	0.13651	0.22743	0.082536	0.17578	0.24056	0.14922	0.032179	0.03231	0.18722	-2.3104	-3.1042	-3.1875	-2.85	-3.4646	-3.0771	-3.0167	-3.6208	-2.6375	-3.0458	-3.3063	-2.7604	-3.4354	-3.05	-2.7729	-3.5542	-45.336	-45.804	73.195	-79.309	-28.822	11.269	190.545	186.014	-15.091	-53.384	188.680	173.310	2.115	265.025	55.977	135.252	0.00053244	0.0019341	0.0015557	654.72	4.9906e-05	6.1524e-05	1002.3	217.08	1.634e-05	2.2183e-05	368.69	125.77	75.836	35.125	1.0428e-05	50.661	0.026471	0.030935	0.0086515	1225.3	0.00033231	0.00033886	1416.1	374.19	0.00033156	0.00034163	624.73	216.8	161.64	63.999	0.00034255	90.256	85.864	236.892	103.562	-69.245	188.366	199.185	-70.111	-66.577	-5.040	196.167	-67.632	-64.668	-62.500	-59.047	-2.754	-61.729	-8191	255	
21689.131	1	1	0	0	0.1533	0.22283	0.081853	0.10884	0.10662	0.1201	0.14942	0.11094	0.18363	0.22261	0.25157	0.24202	0.1681	0.10339	0.26681	0.18543	-2.5146	-2.9437	-3.4	-2.9188	-3.225	-3.2625	-2.9021	-3.5458	-2.9208	-3.1896	-3.4854	-2.8708	-3.3854	-3.4083	-2.7	-3.5104	263.377	15.703	-1.748	195.559	180.798	17.833	186.421	251.982	130.548	-14.662	210.986	239.228	125.668	80.388	243.531	-1.157	0.00028494	0.0021158	0.00073542	656.37	1.8692e-05	4.3217e-05	999.16	214.63	1.9386e-05	3.6093e-05	366.74	123.65	74.429	34.486	2.014e-05	50.045	0.027119	0.031788	0.0088731	1243.1	0.00034182	0.000351	1428.6	377.95	0.00033928	0.0003503	629.95	218.35	163.29	64.205	0.00034649	90.366	256.310	191.689	9.567	-69.846	39.793	109.325	-69.983	-66.238	260.423	126.844	-68.040	-64.965	-63.341	-60.650	40.402	-61.898	-8191	255	
21689.227	1	1	0	0	0.34006	0.1942	0.16359	0.085266	0.13469	0.024008	0.27845	0.13477	0.48186	0.097905	0.082772	0.31804	0.20041	0.19414	0.1964	0.10996	-2.45	-2.8875	-3.3792	-2.7625	-3.1604	-3.3521	-2.9625	-3.5125	-2.8333	-2.8875	-3.5042	-2.8042	-3.25	-3.3688	-2.6688	-3.4875	203.940	175.896	-19.133	192.875	250.073	257.251	217.544	-29.623	65.884	40.548	156.879	-79.204	242.891	-24.217	20.938	39.552	0.0002473	0.0023194	0.0019064	651.91	4.9823e-06	3.0625e-05	1002.7	215.72	9.8569e-06	6.0636e-05	365.93	124.72	74.778	34.457	4.2068e-05	50.445	0.027265	0.031978	0.0089003	1239.8	0.00034288	0.00034969	1429.5	378.78	0.00033888	0.00035221	630.23	218.88	162.56	63.792	0.00034272	89.738	-30.503	256.088	-25.639	-70.906	-65.890	13.606	-70.636	-66.543	67.233	-53.064	-68.422	-65.189	-62.642	-60.488	136.947	-61.361	-8191	255	
21689.322	1	1	0	0	0.082739	0.24774	0.23943	0.27	0.35334	0.13393	0.14672	0.21858	0.3394	0.26979	0.065168	0.099884	0.27492	0.087501	0.18518	0.13329	-2.6354	-2.9729	-3.5687	-2.7896	-3.0875	-3.3312	-2.7771	-3.4167	-3.0292	-2.8625	-3.5229	-2.8917	-3.1125	-3.4375	-2.7021	-3.3312	270.001	94.305	183.626	52.114	32.005	79.810	-38.032	260.717	81.275	181.994	-75.912	46.745	217.344	-47.743	224.097	144.578	0.00029787	0.0027938	0.0016058	653.36	3.696e-05	1.9632e-05	1004	216.88	1.0032e-05	3.2833e-05	367.63	125.4	74.534	35.08	4.3011e-05	50.144	0.026797	0.031205	0.0086695	1226.6	0.00033479	0.00034307	1422.1	375.71	0.00033395	0.00034498	625.69	217.11	161.9	63.779	0.00033962	89.684	262.029	139.886	0.065	-70.284	-13.901	41.856	-70.315	-66.112	63.613	45.336	-67.755	-65.168	-63.126	-59.635	-77.265	-61.287	-8191	255	
21689.443	1	1	0	0	0.12601	0.039016	0.12531	0.17455	0.17219	0.11341	0.15693	0.089484	0.22689	0.131	0.21569	0.14109	0.32366	0.02061	0.10019	0.21325	-2.9938	-2.7042	-3.4521	-3.0125	-2.9042	-3.1792	-2.9188	-3.2146	-3.15	-2.6292	-3.55	-2.9708	-2.9562	-3.3979	-2.7083	-3.3563	228.501	-79.569	7.854	247.048	-68.343	249.769	269.025	78.755	231.313	40.209	192.174	112.385	222.851	58.470	22.517	270.888	0.00046809	0.0031821	0.0016878	660.07	4.2704e-05	3.8831e-05	1006	216.64	1.9149e-05	4.2047e-05	365.66	126.05	74.608	34.672	4.5561e-05	50.783	0.026664	0.031111	0.008684	1226.9	0.00033531	0.0003426	1418.8	374	0.00033157	0.00034301	622.48	216.48	160.86	63.195	0.00033817	89.991	252.768	65.098	204.462	-69.876	244.420	193.811	-70.603	-66.145	102.772	194.062	-67.921	-65.358	-62.930	-59.125	252.747	-62.102	-8191	255	
21689.539	1	1	0	0	0.26913	0.069577	0.13805	0.12144	0.041271	0.068573	0.25925	0.38999	0.14601	0.24272	0.21638	0.26073	0.1936	0.18888	0.13405	0.14069	-2.8354	-2.7458	-3.2812	-3.0667	-3.0021	-3.3417	-3.0854	-3.1042	-3.3917	-2.7104	-3.3312	-3.1229	-2.8104	-3.4688	-2.775	-3.2396	229.482	59.190	2.337	176.875	267.070	164.328	244.593	239.454	-72.368	44.074	102.913	227.306	189.843	170.096	82.731	250.943	0.00029793	0.0035631	0.0021513	662.32	2.1692e-05	5.1526e-05	1008.3	214.6	2.5953e-06	3.096e-05	362.97	125.76	74.533	34.136	2.9222e-05	50.204	0.026986	0.031563	0.008897	1247.8	0.00034629	0.00035472	1439.7	382.03	0.00034969	0.00036069	641.12	223.75	167.32	65.479	0.00036296	92.906	246.453	132.338	-64.628	-70.345	125.513	41.045	-70.586	-66.178	14.990	148.694	-68.208	-64.749	-63.349	-59.757	54.976	-61.237	-8191	255	
21689.637	1	1	0	0	0.13186	0.099224	0.1446	0.10482	0.20832	0.14926	0.09889	0.20561	0.21231	0.088467	0.23444	0.22045	0.16165	0.2399	0.10094	0.10361	-2.8229	-2.5792	-3.1375	-3.2479	-2.7729	-3.4875	-2.8708	-3.1167	-3.4917	-2.8208	-3.4667	-3.2625	-2.6083	-3.5938	-2.8875	-2.9313	163.130	176.406	-59.931	-50.241	53.396	67.068	258.431	237.364	-63.912	245.466	213.240	247.280	100.134	202.993	-29.284	54.027	0.00020663	0.0020702	0.0020755	655.87	2.4849e-06	2.373e-05	1006.1	215.39	2.4997e-05	1.0437e-05	371.35	123.53	74.404	34.284	1.5911e-05	49.937	0.028864	0.03343	0.0093602	1283	0.00036523	0.0003724	1473.9	392.54	0.00036745	0.00037856	659.24	228.49	172.22	67.243	0.00038325	95.843	249.768	248.920	131.786	-69.758	-32.638	26.890	-70.460	-65.968	81.441	62.596	-68.222	-65.092	-63.133	-60.127	27.114	-61.272	-8191	255	
21689.732	1	1	0	0	0.17874	0.14852	0.23359	0.1317	0.18789	0.16872	0.29846	0.23318	0.19691	0.11843	0.24586	0.12767	0.31117	0.14894	0.055038	0.26922	-2.9688	-2.7583	-3.2667	-3.1833	-2.7479	-3.5875	-2.8729	-3.0229	-3.5917	-2.7729	-3.3208	-3.3312	-2.6437	-3.4062	-2.9667	-3.0104	174.396	113.909	23.743	211.631	38.177	108.739	200.297	236.178	31.712	144.519	199.271	218.848	-4.768	257.897	-44.539	194.773	0.0002441	0.0040892	0.0011817	649.54	1.7472e-05	6.5983e-05	994.77	215.23	2.9682e-05	1.685e-05	364.59	124.84	75.443	33.98	1.1755e-05	49.783	0.030622	0.035851	0.0101	1337.1	0.00039265	0.00040273	1512.5	408.38	0.00039457	0.00040859	684.84	238	180.17	69.665	0.00041082	98.913	94.965	-12.771	41.723	-70.447	268.247	-57.060	-70.429	-66.282	116.464	23.189	-67.915	-64.716	-63.411	-59.374	-17.767	-61.388	-8191	255	
21689.826	1	1	0	0	0.17747	0.25863	0.18126	0.25771	0.28105	0.1174	0.03768	0.20016	0.09819	0.062018	0.055548	0.29797	0.18169	0.28619	0.13223	0.10291	-3.0375	-2.7021	-3.0417	-3.2354	-2.7875	-3.4104	-3.2396	-2.7917	-3.6229	-2.8438	-3.0979	-3.3083	-2.7792	-3.3854	-3.2042	-2.9271	-75.988	184.609	36.142	77.658	263.482	-25.187	157.974	247.572	97.197	108.609	2.769	182.882	-32.022	-76.500	67.615	191.671	0.00046898	0.004434	0.00029399	647.61	1.5626e-05	3.2758e-05	989.56	210.6	1.975e-05	6.5759e-05	364.14	125.02	74.29	33.336	2.2047e-05	49.979	0.032608	0.038001	0.010713	1381.5	0.00041427	0.00042307	1541.1	417.96	0.00041254	0.00042622	697.57	242.44	183.25	70.34	0.00041945	99.445	-14.907	73.414	184.076	-70.452	129.978	6.633	-70.855	-66.287	65.737	120.146	-68.345	-65.350	-64.347	-58.848	234.934	-61.432	-8191	255	
21689.924	1	1	0	0	0.16899	0.017406	0.32132	0.24479	0.2769	0.11294	0.10763	0.17079	0.060834	0.06632	0.0073371	0.31873	0.093224	0.19088	0.032253	0.3086	-3.15	-2.8083	-2.9562	-3.5354	-2.7854	-3.4	-3.3146	-2.7583	-3.4354	-2.8729	-3.0167	-3.4417	-2.7562	-3.3146	-3.2083	-2.7125	-41.377	-8.747	100.387	251.531	91.851	69.957	-55.146	265.949	183.184	174.969	-32.389	-62.281	63.240	263.740	-9.894	-52.464	0.00095079	0.0031549	0.00032033	653.29	4.3696e-05	4.784e-05	993.83	211.91	3.2715e-05	1.572e-05	359.66	125.18	74.191	33.573	2.533e-05	48.868	0.032916	0.038092	0.010708	1376.9	0.00040901	0.00041965	1531.4	412.92	0.00040471	0.00041255	683.21	237.11	177.43	68.487	0.00039786	96.327	197.341	86.637	-29.521	-70.549	-9.071	-77.442	-70.762	-66.314	210.606	28.259	-66.887	-64.602	-63.544	-59.855	-79.083	-62.442	-8191	255	
21690.045	1	1	0	0	0.12088	0.064463	0.083882	0.11216	0.18377	0.18994	0.27881	0.10435	0.11692	0.17571	0.10737	0.063243	0.18486	0.14364	0.12218	0.26506	-3.0812	-2.9521	-2.9146	-3.6667	-2.8292	-3.3708	-3.3583	-2.7687	-3.4813	-2.9042	-2.8063	-3.5354	-2.8771	-3.1792	-3.3833	-2.7292	52.371	115.709	-54.979	252.332	-79.964	202.815	249.682	244.348	87.400	150.319	5.321	153.303	205.079	-61.218	-53.278	-21.904	0.00059389	0.0042686	0.00066294	644.17	3.6023e-05	2.0294e-05	987.49	213.64	1.3649e-05	3.9734e-05	361.67	125.95	74.987	33.566	3.6751e-05	49.726	0.030973	0.036034	0.01011	1330.5	0.0003865	0.00039442	1490.7	400.89	0.0003813	0.00039402	665.93	230.97	173.47	67.346	0.00038766	95.377	222.966	75.961	-38.015	-70.988	63.769	204.276	-70.761	-66.498	-18.545	-8.037	-67.735	-64.650	-63.947	-59.601	-23.239	-62.166	-8191	255	
21690.141	1	1	0	0	0.13278	0.2478	0.15964	0.10668	0.077636	0.23519	0.022092	0.28136	0.10942	0.15457	0.35152	0.2928	0.3133	0.26878	0.23643	0.11587	-2.8937	-3.2375	-2.9042	-3.5979	-2.8438	-3.1021	-3.5896	-2.7458	-3.5604	-3.0979	-2.8729	-3.7083	-3.0708	-3.0854	-3.5146	-2.8125	183.377	-31.654	-73.128	197.232	-65.566	233.582	214.577	256.988	-81.544	130.222	217.055	-79.226	-4.355	177.498	147.554	34.208	0.00041783	0.003244	0.00013789	650.86	1.5828e-05	2.4044e-05	1001	213.71	2.2372e-05	4.9305e-05	365.25	125.68	74.986	33.771	2.4189e-05	49.9	0.030348	0.035551	0.0099143	1321.3	0.0003812	0.00039223	1493.3	397.46	0.00037792	0.00038816	664.21	230.5	173.02	67.269	0.00038687	95.253	17.877	-71.862	98.316	-69.752	244.209	119.760	-70.490	-66.794	180.460	151.107	-67.890	-64.991	-63.809	-59.293	0.124	-61.712	-8191	255	
21690.236	1	1	0	0	0.18538	0.092352	0.15719	0.12322	0.28543	0.14546	0.23148	0.032059	0.080346	0.1262	0.2069	0.093828	0.2374	0.076384	0.10546	0.32563	-2.9625	-3.1333	-2.7313	-3.3937	-2.75	-2.8875	-3.4083	-2.7417	-3.2521	-3.3292	-2.8229	-3.3812	-3.0417	-2.8542	-3.4208	-2.8271	260.855	109.610	64.339	-23.025	244.856	6.377	173.904	256.990	101.230	-59.721	-64.633	216.150	140.419	113.000	-17.622	211.109	0.00058564	0.0029173	0.00055179	650.03	2.8503e-05	1.7681e-05	997.43	211.58	2.8776e-05	2.399e-05	362.42	124.19	74.731	33.659	2.0539e-05	49.606	0.030657	0.035454	0.0099445	1317	0.0003834	0.00039295	1490.8	399.16	0.00038094	0.00039022	662.2	230.21	172.68	66.67	0.00037835	93.947	191.420	68.386	136.428	-69.538	155.759	-16.593	-70.206	-66.842	237.168	-41.489	-68.454	-64.534	-64.286	-58.996	178.856	-61.607	-8191	255	
21690.309	1	1	0	0	0.26089	0.11681	0.15334	0.14991	0.20476	0.054112	0.059372	0.18147	0.2415	0.20557	0.16387	0.20348	0.28514	0.33383	0.18945	0.19093	-2.9229	-3.3563	-2.6708	-3.4458	-2.9479	-2.875	-3.3771	-2.8417	-3.0792	-3.5125	-2.9146	-3.4625	-3.0563	-2.7979	-3.5979	-2.8937	-39.672	77.949	211.357	-30.241	103.821	2.760	266.128	223.102	96.649	-2.817	210.114	38.348	186.455	-29.651	7.745	105.701	0.00050171	0.0033658	0.00069058	648.91	4.3757e-05	5.9872e-05	1000.5	212.69	4.3675e-05	5.1054e-05	364.91	124.95	73.923	34.019	7.1333e-05	49.749	0.029735	0.034549	0.009632	1292.7	0.00037069	0.00037668	1468.3	390.31	0.00036468	0.00037471	650.65	226.34	169.29	65.945	0.00036879	92.805	143.180	117.377	256.442	-70.118	-15.928	198.252	-70.916	-66.095	95.233	81.167	-68.132	-64.527	-64.110	-60.000	273.452	-62.045	-8191	255	
21690.428	1	1	0	0	0.13939	0.10561	0.18169	0.21155	0.063796	0.11508	0.1852	0.28131	0.10884	0.045531	0.12729	0.11862	0.18963	0.092899	0.026971	0.12898	-2.6792	-3.4375	-2.6333	-3.4417	-3.2687	-2.9375	-3.6583	-2.9146	-2.9542	-3.7021	-2.8063	-3.4188	-3.3333	-2.7979	-3.4479	-2.9562	115.245	-48.930	-68.488	271.055	-14.875	2.137	266.811	227.625	197.614	225.532	-67.792	159.462	246.503	260.810	222.515	7.171	0.00026818	0.004154	0.0013083	647.42	2.1038e-05	9.4174e-06	1011.2	214.33	2.4367e-05	5.6701e-05	368.78	125.93	74.881	34.174	3.6296e-05	50.519	0.029094	0.033711	0.0094349	1279.5	0.00036579	0.00037326	1468.9	390.66	0.00036589	0.00037671	655.62	228.18	171.17	66.723	0.00037743	94.811	67.473	260.684	80.997	-69.824	267.526	183.109	-70.506	-66.475	98.381	-64.844	-67.802	-64.896	-63.840	-60.015	190.534	-61.116	-8191	255	
21690.523	1	1	0	0	0.027913	0.13675	0.018755	0.07902	0.076407	0.40656	0.14381	0.072744	0.050496	0.3161	0.3452	0.06597	0.12795	0.037903	0.026271	0.28867	-2.6312	-3.4375	-2.6396	-3.3625	-3.3	-2.7812	-3.7646	-3.0854	-3.0083	-3.6042	-3.025	-3.3917	-3.3979	-2.7771	-3.6083	-3	138.289	52.277	261.939	228.634	250.117	156.931	-63.911	-53.962	44.979	196.203	188.847	-39.903	273.661	178.037	93.320	5.800	0.00082854	0.0034214	0.00019172	641.5	3.6029e-05	6.2237e-05	1000.1	214.18	6.5194e-06	1.5322e-05	362.26	122.79	75.131	34.054	5.2358e-05	50.423	0.029943	0.034912	0.0097717	1310.4	0.00037762	0.00038546	1486.2	395.9	0.0003735	0.00038526	660.29	229.16	172.01	66.983	0.00037929	94.433	262.981	237.314	-12.886	-70.417	152.437	204.130	-70.819	-66.170	46.901	91.450	-67.777	-64.904	-63.368	-60.114	232.965	-62.449	-8191	255	
21690.621	1	1	0	0	0.19536	0.24304	0.16623	0.21197	0.096182	0.3049	0.15783	0.17777	0.099969	0.11194	0.035747	0.26301	0.066974	0.12922	0.1345	0.34601	-2.4354	-3.5104	-2.8646	-3.0729	-3.4688	-2.7	-3.6604	-3.1292	-2.8292	-3.4917	-2.8292	-3.2125	-3.4208	-2.7542	-3.4958	-3.3333	242.657	128.412	93.533	214.523	19.600	142.808	-46.244	221.475	41.687	245.315	231.395	-50.831	-6.574	202.491	219.610	186.940	0.00013865	0.00058252	0.002107	645.95	5.0857e-05	4.7421e-05	994.86	214.57	1.9524e-05	3.1779e-05	359.41	125.12	75.882	33.815	1.5142e-05	49.449	0.02998	0.034885	0.009795	1312.7	0.00038081	0.00039036	1492.2	400.13	0.0003827	0.00039472	668.81	233.69	176.85	68.25	0.00039849	96.794	227.748	166.158	15.958	-70.925	103.058	59.221	-70.554	-66.287	79.997	-72.865	-68.279	-65.412	-63.781	-59.761	136.305	-61.745	-8191	255	
21690.717	1	1	0	0	0.13016	0.13926	0.033306	0.13559	0.011613	0.012725	0.15266	0.10367	0.050613	0.33233	0.050091	0.2486	0.093192	0.078927	0.11948	0.15206	-2.3771	-3.4104	-2.8667	-3.0667	-3.6688	-2.7917	-3.4396	-3.475	-2.8604	-3.5333	-3.0312	-3.0375	-3.4813	-2.8729	-3.3521	-3.4938	-10.303	-18.160	271.797	192.270	147.064	137.786	125.680	175.902	189.914	82.193	-29.960	221.236	31.870	129.842	177.527	207.066	0.00058523	0.0025767	0.0006064	654.09	2.851e-05	6.9483e-05	992.75	212.89	1.4832e-05	3.3958e-07	363.58	123.69	74.117	34.024	3.5883e-05	49.589	0.031375	0.036559	0.010225	1350.6	0.00039513	0.00040538	1515.3	407.68	0.00039524	0.00041041	679.12	236.67	178.31	68.804	0.00040462	97.22	-42.370	-60.336	231.119	-69.985	240.481	159.941	-70.672	-65.971	-80.123	128.509	-68.822	-65.419	-63.872	-60.472	146.706	-61.596	-8191	255	
21690.836	1	1	0	0	0.022527	0.37159	0.020346	0.082104	0.14144	0.19042	0.26322	0.1568	0.19904	0.042337	0.058087	0.13739	0.1648	0.022505	0.27418	0.2546	-2.2792	-3.3604	-2.9854	-3.1	-3.4271	-2.8229	-3.3438	-3.4667	-2.7771	-3.4271	-3.1271	-2.8771	-3.6271	-2.9	-3.0062	-3.5021	128.174	258.368	78.853	-32.270	-24.075	-10.074	-64.320	205.226	-50.833	161.289	-15.877	246.507	236.697	156.048	128.964	126.251	0.00063759	0.0025581	0.0013807	646.29	2.9457e-05	2.5029e-05	981.13	213.43	2.1679e-05	3.5416e-05	359.69	123.59	73.63	33.986	1.795e-05	49.768	0.031965	0.037193	0.010373	1351.6	0.00040078	0.00040791	1512.3	406.75	0.00039187	0.00040418	672.9	233.84	175.25	67.595	0.00039017	95.249	-59.688	242.245	-3.550	-70.031	83.697	163.122	-70.547	-65.763	238.570	240.067	-67.750	-64.859	-63.172	-59.426	25.605	-61.961	-8191	255	
21690.906	1	1	0	0	0.20436	0.19194	0.1217	0.032811	0.30583	0.23015	0.21344	0.22227	0.075591	0.23317	0.13403	0.16796	0.12693	0.060894	0.12437	0.035913	-2.2812	-3.3979	-3.0687	-3.025	-3.5125	-2.925	-3.2042	-3.4688	-2.5979	-3.1583	-3.075	-2.6333	-3.4708	-2.8812	-3.0646	-3.6625	-38.129	-83.509	30.818	49.218	135.163	178.999	-41.462	247.327	127.905	68.022	-41.658	-77.946	188.659	-32.842	41.419	-58.548	0.00017587	0.0024663	0.0014223	653.67	1.8828e-05	5.4443e-05	991.21	212.35	2.2622e-05	1.6668e-05	360.04	123.65	73.294	33.895	1.746e-05	49.173	0.030376	0.035206	0.0098513	1302.9	0.0003719	0.00037756	1466.6	387.05	0.0003602	0.0003692	640.5	222.93	166.58	64.9	0.00036141	91.617	200.428	-13.391	124.233	-70.027	205.342	228.500	-70.418	-66.075	265.640	120.440	-68.187	-64.692	-63.140	-59.466	-30.604	-61.743	-8191	255	
#DATA ENDS
