BOXY.EXE: ISS Imagent and Oximeter Data Acquisition Program Version 0.80
Ascii Record File

#ACQ INFORMATION
2  Detector Channels 
16  External MUX Channels 
1  Auxiliary Channels 
5000  Waveform (CCF) Frequency (Hz)
1  Waveforms Skipped 
30  Waveforms Averaged 
1  Cycles Averaged 
16  Acquisitions per Waveform 
10.0806  Updata Rate (Hz) 

#FILE INFORMATION
TRUE -- External MUX Channel results are PARSED.
FALSE -- AC DC and Phase are NOT grouped.
TRUE -- Companion Program Settings File CREATED.
FALSE -- AC data not excluded
FALSE -- DC data not excluded
FALSE -- Phase data not excluded
FALSE -- Auxillary Chn. data not excluded
Tab delimiters

#CALIBRATION STATE
TRUE -- Waveform Calibration Values APPLIED.


#AUX CALIBRATION VALUES
Val Type	aux-1	

Term	1.0000e+00	
Factor	0.0000e+00	


#WF CALIBRATION VALUES
A = Detector Channel
Val Type	A-AC1	A-AC2	A-AC3	A-AC4	A-AC5	A-AC6	A-AC7	A-AC8	A-AC9	A-AC10	A-AC11	A-AC12	A-AC13	A-AC14	A-AC15	A-AC16	A-DC1	A-DC2	A-DC3	A-DC4	A-DC5	A-DC6	A-DC7	A-DC8	A-DC9	A-DC10	A-DC11	A-DC12	A-DC13	A-DC14	A-DC15	A-DC16	A-Ph1	A-Ph2	A-Ph3	A-Ph4	A-Ph5	A-Ph6	A-Ph7	A-Ph8	A-Ph9	A-Ph10	A-Ph11	A-Ph12	A-Ph13	A-Ph14	A-Ph15	A-Ph16	

Term	0.00000e+00	0.00000e+00	0.00000e+00	0.00000e+00	0.00000e+00	0.00000e+00	0.00000e+00	0.00000e+00	0.00000e+00	0.00000e+00	0.00000e+00	0.00000e+00	0.00000e+00	0.00000e+00	0.00000e+00	0.00000e+00	0.00000e+00	0.00000e+00	0.00000e+00	0.00000e+00	0.00000e+00	0.00000e+00	0.00000e+00	0.00000e+00	0.00000e+00	0.00000e+00	0.00000e+00	0.00000e+00	0.00000e+00	0.00000e+00	0.00000e+00	0.00000e+00	0.00000e+00	0.00000e+00	0.00000e+00	0.00000e+00	0.00000e+00	0.00000e+00	0.00000e+00	0.00000e+00	0.00000e+00	0.00000e+00	0.00000e+00	0.00000e+00	0.00000e+00	0.00000e+00	0.00000e+00	0.00000e+00	
Factor	1.00000e+00	1.00000e+00	1.00000e+00	1.00000e+00	1.00000e+00	1.00000e+00	1.00000e+00	1.00000e+00	1.00000e+00	1.00000e+00	1.00000e+00	1.00000e+00	1.00000e+00	1.00000e+00	1.00000e+00	1.00000e+00	1.00000e+00	1.00000e+00	1.00000e+00	1.00000e+00	1.00000e+00	1.00000e+00	1.00000e+00	1.00000e+00	1.00000e+00	1.00000e+00	1.00000e+00	1.00000e+00	1.00000e+00	1.00000e+00	1.00000e+00	1.00000e+00	X	X	X	X	X	X	X	X	X	X	X	X	X	X	X	X	

B = Detector Channel
Val Type	B-AC1	B-AC2	B-AC3	B-AC4	B-AC5	B-AC6	B-AC7	B-AC8	B-AC9	B-AC10	B-AC11	B-AC12	B-AC13	B-AC14	B-AC15	B-AC16	B-DC1	B-DC2	B-DC3	B-DC4	B-DC5	B-DC6	B-DC7	B-DC8	B-DC9	B-DC10	B-DC11	B-DC12	B-DC13	B-DC14	B-DC15	B-DC16	B-Ph1	B-Ph2	B-Ph3	B-Ph4	B-Ph5	B-Ph6	B-Ph7	B-Ph8	B-Ph9	B-Ph10	B-Ph11	B-Ph12	B-Ph13	B-Ph14	B-Ph15	B-Ph16	

Term	0.00000e+00	0.00000e+00	0.00000e+00	0.00000e+00	0.00000e+00	0.00000e+00	0.00000e+00	0.00000e+00	0.00000e+00	0.00000e+00	0.00000e+00	0.00000e+00	0.00000e+00	0.00000e+00	0.00000e+00	0.00000e+00	0.00000e+00	0.00000e+00	0.00000e+00	0.00000e+00	0.00000e+00	0.00000e+00	0.00000e+00	0.00000e+00	0.00000e+00	0.00000e+00	0.00000e+00	0.00000e+00	0.00000e+00	0.00000e+00	0.00000e+00	0.00000e+00	-5.59862e+01	-1.37165e+02	-1.09869e+02	-1.83892e+02	-6.46307e+01	-7.36611e+01	-1.56891e+02	-1.62015e+02	-4.00765e+01	-6.46858e+01	-1.74830e+02	-1.70829e+02	-1.79669e+02	-1.77438e+02	-3.40695e+01	-1.50113e+02	
Factor	2.00826e-05	1.16048e-04	2.50199e-05	2.01756e-01	1.04398e-06	1.05918e-06	1.68114e-01	5.33662e-02	9.36267e-07	1.40336e-06	1.25515e-01	3.06584e-02	2.97817e-02	1.00133e-02	1.07325e-06	1.43431e-02	9.95168e-07	1.02890e-06	2.87747e-07	1.00126e-01	1.12210e-08	1.12741e-08	7.94418e-02	2.67727e-02	1.12170e-08	1.12980e-08	5.87010e-02	1.47241e-02	1.47267e-02	4.94447e-03	1.13127e-08	6.80183e-03	X	X	X	X	X	X	X	X	X	X	X	X	X	X	X	X	



#DISTANCE SETTINGS
A = Detector Channel
A-1	A-2	A-3	A-4	A-5	A-6	A-7	A-8	A-9	A-10	A-11	A-12	A-13	A-14	A-15	A-16	

2.5000e+00	3.0000e+00	2.5000e+00	3.0000e+00	2.0000e+00	3.0000e+00	1.5000e+00	3.0000e+00	3.0000e+00	3.0000e+00	3.0000e+00	3.0000e+00	3.0000e+00	3.0000e+00	1.5000e+00	3.0000e+00	

B = Detector Channel
B-1	B-2	B-3	B-4	B-5	B-6	B-7	B-8	B-9	B-10	B-11	B-12	B-13	B-14	B-15	B-16	

1.0000e+01	1.0000e+01	1.0000e+01	1.4400e+00	1.0000e+01	1.0000e+01	1.5100e+00	1.9400e+00	1.0000e+01	1.0000e+01	1.9900e+00	2.4900e+00	2.4100e+00	2.9000e+00	1.0000e+01	2.9800e+00	




#DATA BEGINS
time	group	step	mark	flag	A-AC1	A-AC2	A-AC3	A-AC4	A-AC5	A-AC6	A-AC7	A-AC8	A-AC9	A-AC10	A-AC11	A-AC12	A-AC13	A-AC14	A-AC15	A-AC16	A-DC1	A-DC2	A-DC3	A-DC4	A-DC5	A-DC6	A-DC7	A-DC8	A-DC9	A-DC10	A-DC11	A-DC12	A-DC13	A-DC14	A-DC15	A-DC16	A-Ph1	A-Ph2	A-Ph3	A-Ph4	A-Ph5	A-Ph6	A-Ph7	A-Ph8	A-Ph9	A-Ph10	A-Ph11	A-Ph12	A-Ph13	A-Ph14	A-Ph15	A-Ph16	B-AC1	B-AC2	B-AC3	B-AC4	B-AC5	B-AC6	B-AC7	B-AC8	B-AC9	B-AC10	B-AC11	B-AC12	B-AC13	B-AC14	B-AC15	B-AC16	B-DC1	B-DC2	B-DC3	B-DC4	B-DC5	B-DC6	B-DC7	B-DC8	B-DC9	B-DC10	B-DC11	B-DC12	B-DC13	B-DC14	B-DC15	B-DC16	B-Ph1	B-Ph2	B-Ph3	B-Ph4	B-Ph5	B-Ph6	B-Ph7	B-Ph8	B-Ph9	B-Ph10	B-Ph11	B-Ph12	B-Ph13	B-Ph14	B-Ph15	B-Ph16	aux-1	digaux	

7419.826	1	1	0	512	0.24388	0.32846	0.12627	0.050198	0.13544	0.17845	0.13609	0.095151	0.14442	0.054743	0.11795	0.044695	0.23569	0.075302	0.05074	0.13523	-2.8229	-2.7167	-3.5708	-2.9646	-2.8917	-3.4833	-2.5	-3.3125	-3.2479	-2.7938	-3.4062	-3.1312	-2.9833	-3.7021	-2.6604	-3.2542	245.768	250.221	98.384	-50.661	25.600	188.874	153.554	-45.760	237.918	45.565	252.729	133.712	75.270	111.231	165.203	244.334	0.00015887	0.00050804	4.8009e-05	170	3.7629e-06	8.3174e-06	346.93	55.892	6.2153e-06	1.4306e-05	135.27	53.764	21.872	10.126	4.6837e-06	28.262	0.00058099	0.00057123	0.00015978	214.34	6.5073e-06	6.2754e-06	369.07	67.762	6.5153e-06	6.3074e-06	154.53	58.716	28.692	12.204	6.5212e-06	29.91	233.568	251.218	245.527	-46.927	289.389	29.206	-47.157	-41.210	-26.543	-30.671	-43.293	-37.730	-35.612	-31.681	100.674	-33.827	-8191	255	
7419.922	1	1	0	0	0.20446	0.28619	0.04117	0.23667	0.14832	0.22918	0.13186	0.29941	0.07602	0.17773	0.052811	0.21022	0.044715	0.054149	0.11409	0.18863	-3.0479	-2.7521	-3.5479	-2.975	-2.9417	-3.725	-2.6625	-3.1458	-3.3417	-2.6562	-3.2792	-2.8625	-2.7521	-3.675	-3.0104	-3.2667	47.053	16.712	-57.018	-52.173	153.291	116.294	185.217	-18.287	34.455	137.291	166.734	171.122	270.846	195.342	128.110	51.181	0.00010114	5.431e-05	8.7763e-05	169.94	4.7173e-06	5.7589e-06	345.47	55.676	1.0419e-05	3.9551e-06	133.78	53.351	21.353	10.283	7.7309e-06	28.329	0.00060122	0.00057289	0.00016969	215.76	6.6054e-06	6.3223e-06	368.21	67.769	6.6117e-06	6.3153e-06	155.05	58.384	28.455	12.172	6.7872e-06	29.881	210.874	79.175	141.100	-47.738	93.370	-36.967	-46.881	-40.688	157.529	253.220	-43.214	-37.885	-35.491	-32.124	272.546	-33.698	-8191	255	
7420.019	1	1	0	0	0.05832	0.093245	0.23662	0.15902	0.19347	0.15531	0.14433	0.065354	0.23661	0.13938	0.19985	0.27994	0.20927	0.19581	0.12654	0.054661	-3.2146	-2.675	-3.5	-3.2375	-2.7146	-3.6479	-3.125	-2.9604	-3.5583	-2.9729	-3.4125	-3.2125	-2.7542	-3.6708	-2.9833	-2.9396	233.423	175.386	89.998	36.976	88.026	78.754	250.152	224.608	281.512	-18.398	-8.122	243.642	34.952	299.566	-16.372	-49.431	5.0591e-05	0.00085705	0.00013939	168	4.0608e-06	9.5261e-07	343.39	55.561	7.9075e-06	2.8723e-06	134.53	53.225	21.712	10.169	1.2714e-06	28.313	0.00059416	0.00058087	0.00017603	216.33	6.6123e-06	6.4787e-06	369.87	68.116	6.7266e-06	6.6305e-06	156.81	58.534	28.674	12.29	7.1958e-06	30.048	269.706	158.546	52.410	-47.728	40.984	242.659	-46.980	-40.682	7.464	291.028	-42.397	-37.795	-35.580	-32.029	-49.868	-33.408	-8191	255	
7420.137	1	1	0	0	0.13809	0.20402	0.14414	0.12887	0.21142	0.036449	0.19168	0.21535	0.10586	0.093112	0.19365	0.16042	0.20763	0.21805	0.30866	0.2732	-3.1833	-2.725	-3.3354	-3.3688	-2.6	-3.3812	-3.1333	-2.7708	-3.3438	-2.775	-3.2375	-3.475	-2.7604	-3.4792	-3.1604	-2.8771	132.751	109.773	231.023	161.377	42.670	258.614	275.102	282.512	13.366	-31.265	-39.904	104.893	-16.777	69.926	108.415	207.261	4.4119e-05	0.00037032	0.00015536	168.24	4.5383e-06	2.5101e-06	343.28	55.146	4.5606e-06	7.164e-06	133.54	53.368	21.57	10.132	5.0141e-06	27.999	0.00060688	0.00062334	0.00018258	218.71	6.7474e-06	7.0629e-06	372.27	68.331	6.8122e-06	7.097e-06	158.21	58.854	28.714	12.46	7.4227e-06	29.874	292.336	-14.637	39.653	-47.549	20.737	240.260	-46.572	-40.477	70.977	266.810	-41.482	-38.111	-35.405	-31.461	298.881	-33.589	-8191	255	
7420.234	1	1	0	0	0.21861	0.21341	0.11746	0.16166	0.17883	0.10179	0.15197	0.25192	0.14057	0.18247	0.20743	0.17819	0.10684	0.25137	0.10692	0.3207	-3.1688	-2.7229	-3.2792	-3.4833	-2.8625	-3.4271	-3.1521	-2.8917	-3.7104	-2.8958	-2.975	-3.8417	-2.825	-3.4729	-3.1583	-2.8625	238.876	126.588	14.902	230.466	158.507	15.748	178.587	-3.592	255.464	55.881	144.026	250.428	92.414	255.934	270.099	261.499	1.5858e-05	0.00088488	0.00012171	166.66	6.345e-06	4.2054e-06	341.53	54.553	5.0819e-06	3.7946e-06	132.52	53.178	21.473	10.008	6.4203e-06	27.731	0.00061788	0.00067254	0.00019069	219.91	6.9044e-06	7.3829e-06	370.86	68.343	6.9697e-06	7.4992e-06	157.33	58.402	28.919	12.418	7.5221e-06	29.616	239.091	177.742	63.582	-47.324	177.780	-57.705	-46.535	-40.569	148.231	143.155	-42.320	-37.688	-35.276	-30.819	83.096	-33.577	-8191	255	
7420.330	1	1	0	0	0.22934	0.1597	0.23097	0.16231	0.16593	0.098875	0.16767	0.13445	0.18445	0.2972	0.074672	0.13839	0.089154	0.18618	0.27223	0.025658	-3.3729	-2.9437	-2.9479	-3.4562	-2.7021	-3.3208	-3.1646	-2.7646	-3.75	-3.1646	-2.8833	-3.4313	-2.5375	-3.3125	-3.4417	-2.95	-6.508	4.299	173.615	195.913	184.882	63.083	99.366	216.373	28.225	-18.785	261.886	60.383	-38.723	220.108	253.696	-30.117	0.00014083	0.00049592	5.151e-05	167.05	2.0732e-06	2.1751e-06	338.77	54.379	2.9031e-06	7.0279e-06	131.58	52.933	21.325	9.8577	9.6969e-07	27.749	0.00063277	0.00069085	0.00019125	217.99	7.1061e-06	7.6793e-06	368.34	68.127	7.2503e-06	7.7297e-06	157.18	58.221	29.169	12.494	7.6846e-06	29.489	255.684	48.771	226.428	-46.566	204.972	68.662	-46.290	-40.702	83.314	-32.675	-41.466	-37.282	-35.584	-31.253	57.422	-33.352	-8191	255	
7420.426	1	1	0	0	0.2141	0.27482	0.33444	0.10328	0.14098	0.080218	0.12027	0.1008	0.12814	0.047876	0.13261	0.13518	0.22178	0.22444	0.038782	0.073387	-3.0146	-3.0042	-2.9292	-3.5708	-2.8271	-3.2021	-3.45	-2.8021	-3.775	-3.2167	-2.9625	-3.7021	-2.7729	-3.3187	-3.4542	-2.7896	-49.504	-17.522	244.976	113.735	276.024	56.213	281.063	210.613	131.222	281.794	257.947	271.375	133.667	-23.188	23.609	22.341	1.3105e-05	0.0004767	0.00014101	168.62	5.0492e-06	7.0993e-06	339.1	54.941	5.4303e-06	5.2916e-06	131.97	53.242	21.46	9.8469	5.8982e-06	27.945	0.00066458	0.00070552	0.00019626	218.01	7.5885e-06	7.8384e-06	370.24	68.349	7.6322e-06	7.9581e-06	158.41	58.677	30.002	12.597	7.9396e-06	29.736	253.343	163.738	56.662	-47.575	123.776	300.307	-46.678	-40.035	193.310	101.630	-41.731	-37.207	-35.524	-31.540	56.344	-33.443	-8191	255	
7420.522	1	1	0	0	0.074784	0.14556	0.18095	0.054542	0.13155	0.22457	0.032633	0.31466	0.17529	0.11137	0.12503	0.040951	0.1379	0.19091	0.020453	0.11449	-3.2229	-3.1667	-2.8563	-3.5583	-2.8208	-3.2208	-3.525	-2.8354	-3.3521	-3.4167	-2.7333	-3.55	-2.8354	-3.2333	-3.6229	-2.7438	180.288	144.942	-3.400	35.768	248.501	299.216	64.173	258.982	25.912	62.951	13.379	31.759	237.852	302.277	96.717	236.734	0.00021684	0.00061078	0.00020185	167.57	7.3672e-06	1.2844e-06	337.13	53.975	6.1547e-06	1.2708e-06	128.86	52.897	21.439	9.7952	1.1199e-05	27.344	0.00071235	0.00073748	0.00019945	219.96	7.9961e-06	8.001e-06	369.12	68.427	8.034e-06	8.0211e-06	157.5	58.606	30.21	12.58	7.8744e-06	29.517	200.559	66.086	-52.375	-45.710	222.533	13.244	-46.021	-39.655	76.289	-44.182	-41.795	-37.106	-35.137	-30.620	26.114	-33.092	-8191	255	
7420.618	1	1	0	0	0.30742	0.080113	0.16228	0.10821	0.27951	0.2273	0.039059	0.23112	0.11986	0.19352	0.15475	0.21144	0.11688	0.058296	0.11879	0.16115	-2.9562	-3.1833	-2.6354	-3.5958	-2.8542	-2.8125	-3.6333	-2.5625	-3.3375	-3.5625	-2.8354	-3.4917	-3.15	-3.0104	-3.7083	-2.8833	-34.248	-13.338	152.308	63.525	48.731	251.263	272.088	199.841	30.070	215.911	152.206	216.084	34.518	-45.192	264.117	299.769	8.51e-05	0.00074219	5.3095e-05	166.25	2.6328e-06	5.3486e-06	336.27	54.228	4.6777e-06	3.4267e-06	131.22	52.377	21.086	9.6859	6.3021e-06	27.081	0.00073168	0.00073399	0.00019706	221.91	8.1683e-06	8.0562e-06	368.17	69.007	8.1283e-06	8.1205e-06	156.92	58.583	30.043	12.472	7.6773e-06	29.543	202.054	34.320	21.532	-46.794	165.629	-15.346	-45.980	-39.802	36.610	169.304	-41.811	-37.084	-35.431	-31.729	258.442	-33.526	-8191	255	
7420.714	1	1	0	0	0.29662	0.11657	0.25516	0.19319	0.076268	0.083197	0.034084	0.042489	0.29324	0.034872	0.1524	0.19924	0.18847	0.15207	0.111	0.1778	-2.8958	-3.3458	-2.6771	-3.4125	-3.1688	-2.9542	-3.6188	-2.6917	-3.3021	-3.5896	-3.0125	-3.525	-3.3187	-2.6979	-3.5979	-2.9229	251.791	-9.431	47.804	9.528	67.640	98.896	167.124	12.024	13.799	-41.855	-31.089	150.369	93.306	-15.511	175.378	274.650	0.00014606	0.00085786	6.6671e-05	164.79	4.699e-06	1.4634e-06	335.94	53.998	4.5943e-06	4.3927e-06	129.34	52.525	21.389	9.95	4.5583e-06	27.609	0.000716	0.00073193	0.00019083	222.6	8.099e-06	8.0298e-06	366.68	69.468	8.0158e-06	7.9991e-06	155.96	59.109	30.224	12.568	7.6969e-06	29.978	236.727	-45.836	69.039	-46.331	20.430	192.638	-46.537	-39.778	300.749	189.753	-41.318	-36.618	-35.242	-31.223	220.091	-33.122	-8191	255	
7420.833	1	1	0	0	0.39482	0.11319	0.12944	0.19109	0.19438	0.10388	0.015758	0.10132	0.29498	0.10922	0.051616	0.19106	0.14154	0.084678	0.31111	0.32493	-2.7146	-3.4333	-2.5396	-3.4354	-3.1396	-2.8688	-3.6917	-2.9125	-2.9646	-3.4542	-2.6312	-3.3	-3.2396	-2.7083	-3.3542	-2.8792	148.035	-0.320	2.909	-49.974	-54.070	-55.640	212.881	214.084	67.045	69.205	273.283	202.839	-19.352	137.811	-17.383	186.434	9.1645e-05	0.0004763	5.925e-05	167.22	9.5987e-06	3.2099e-06	336.56	53.824	3.6642e-06	8.2339e-06	129.76	53.277	21.136	9.7654	3.9125e-06	27.302	0.00071982	0.00071882	0.00019366	224.53	8.0084e-06	7.6803e-06	367.42	69.772	7.8685e-06	7.6853e-06	156.63	59.563	29.962	12.365	7.5128e-06	29.866	214.853	24.872	230.334	-45.720	175.679	103.836	-46.153	-39.631	249.825	20.188	-41.701	-36.630	-34.682	-30.416	158.412	-33.172	-8191	255	
7420.929	1	1	0	0	0.046836	0.24283	0.049578	0.16217	0.093451	0.22029	0.12178	0.054305	0.11801	0.051875	0.24291	0.1946	0.17763	0.13215	0.068411	0.15119	-2.5167	-3.5312	-2.7188	-3.1875	-3.1021	-2.65	-3.7354	-3.1583	-2.9104	-3.6063	-2.7646	-3.2271	-3.5104	-2.775	-3.5729	-3.2292	-23.969	2.808	176.720	-55.999	245.141	184.250	150.942	101.386	55.943	55.510	-17.269	236.615	245.550	18.382	103.476	270.196	9.5468e-05	0.00057542	0.00012738	165.13	2.1805e-07	4.4285e-06	335.98	54.223	3.626e-06	6.4591e-06	130.05	52.839	21.197	9.9019	5.3556e-06	27.609	0.00069187	0.00068347	0.00019247	223.02	7.8056e-06	7.312e-06	369.07	69.42	7.6401e-06	7.2884e-06	156.33	58.917	29.644	12.15	7.5882e-06	29.608	222.319	296.768	126.687	-45.703	189.846	258.853	-45.792	-39.102	97.151	169.907	-42.026	-36.281	-34.463	-30.409	161.225	-32.491	-8191	255	
7421.025	1	1	0	0	0.20151	0.13825	0.15093	0.22047	0.12837	0.063406	0.060476	0.12397	0.14859	0.096132	0.033504	0.15701	0.12279	0.073047	0.090436	0.16174	-2.2687	-3.3458	-2.8292	-3.2458	-3.6146	-2.7479	-3.5438	-3.3854	-2.8333	-3.4458	-2.6583	-3.2188	-3.5729	-2.7146	-3.5646	-3.375	196.184	91.874	-54.204	98.669	285.227	285.226	184.284	148.193	65.414	123.940	286.585	264.201	210.704	272.079	13.719	237.970	9.2421e-05	0.00057679	0.00024487	163.83	5.1485e-06	5.7266e-06	334.29	53.064	7.7e-06	6.1113e-06	129.92	52.833	21.167	9.7574	5.7155e-06	27.426	0.00066477	0.0006487	0.00019136	219.64	7.4244e-06	7.042e-06	365.2	68.341	7.2707e-06	7.1254e-06	156.49	58.191	29.195	12.118	7.6177e-06	29.53	266.009	-36.375	104.002	-45.810	107.213	278.376	-46.099	-39.722	88.259	95.175	-41.319	-36.830	-35.064	-30.552	-49.734	-32.944	-8191	255	
7421.122	1	1	0	0	0.17894	0.21105	0.10263	0.28911	0.25252	0.083481	0.15055	0.020425	0.21149	0.18581	0.24035	0.081491	0.17377	0.18073	0.030651	0.10178	-2.1813	-3.4646	-2.8979	-3.075	-3.5375	-2.6104	-3.2729	-3.4167	-2.9562	-3.4542	-3.0333	-2.7604	-3.5646	-2.8958	-3.1833	-3.3833	278.851	24.085	215.831	278.770	21.471	168.839	-22.483	-23.478	155.625	8.154	98.054	215.519	249.209	256.458	42.491	73.667	0.00011308	0.00044431	9.8838e-06	165.6	3.7005e-06	7.6023e-06	335.73	54.033	3.4668e-06	1.1802e-05	128.87	52.116	21.303	9.7757	6.6999e-06	27.294	0.00064635	0.00065886	0.00019386	219.07	7.2447e-06	7.2018e-06	366.82	68.736	7.1711e-06	7.4222e-06	157.38	58.559	29.108	12.357	7.7655e-06	29.573	250.141	189.824	10.881	-45.771	91.495	200.054	-46.335	-39.937	69.457	184.825	-40.876	-36.661	-34.751	-30.541	107.134	-32.867	-8191	255	
7421.218	1	1	0	0	0.094974	0.071876	0.19861	0.11076	0.12859	0.14617	0.18852	0.10303	0.11685	0.17318	0.17101	0.10138	0.13554	0.087383	0.029991	0.03466	-2.4458	-3.4979	-3.1917	-2.9271	-3.6417	-2.5542	-3.2271	-3.3063	-2.8875	-3.425	-3.2333	-2.8125	-3.3688	-2.9708	-2.9771	-3.5812	165.491	97.673	216.618	242.523	-29.680	277.844	279.567	-13.272	147.675	105.683	-32.201	300.841	273.397	271.357	172.626	258.206	0.00016742	0.00028561	0.0001769	166.93	2.7643e-06	9.0245e-06	336.33	54.643	4.0093e-06	8.1937e-06	129.65	52.32	21.257	9.7458	8.7942e-06	27.23	0.00063889	0.00068078	0.00019632	219.57	7.1657e-06	7.4572e-06	368.87	68.577	7.02e-06	7.5525e-06	157.06	58.357	28.851	12.347	7.5996e-06	29.344	194.530	22.234	58.907	-45.559	256.620	32.263	-45.745	-39.348	-48.569	173.426	-41.696	-36.558	-34.378	-29.892	106.056	-33.127	-8191	255	
7421.314	1	1	0	0	0.29379	0.058131	0.06566	0.18597	0.11969	0.17718	0.20801	0.15156	0.062747	0.18884	0.18325	0.19363	0.23669	0.18249	0.073854	0.19003	-2.4792	-3.3604	-3.3271	-2.9271	-3.4667	-2.8875	-2.9917	-3.5583	-2.9333	-3.4021	-3.1021	-2.6833	-3.7021	-2.9708	-3.0729	-3.5646	271.203	236.582	69.946	137.647	-19.514	4.262	85.893	36.057	245.131	254.285	-29.928	166.095	39.887	188.314	146.561	276.573	4.7224e-05	0.00064504	0.00013887	164.98	5.2691e-06	4.125e-06	335.91	54.175	4.7308e-06	2.9558e-06	131.02	52.26	20.911	9.7028	4.9235e-06	27.102	0.00063438	0.0006967	0.00019436	218.29	7.11e-06	7.6162e-06	367.63	68.099	7.1113e-06	7.6613e-06	156.48	57.97	28.971	12.344	7.4674e-06	29.179	215.217	203.999	46.517	-45.514	45.869	234.842	-45.333	-39.565	237.392	33.334	-41.209	-36.544	-34.783	-30.731	133.321	-33.076	-8191	255	
7421.435	1	1	0	0	0.086397	0.19195	0.04543	0.14634	0.12969	0.19413	0.23415	0.098023	0.14486	0.2109	0.19792	0.11672	0.20833	0.14412	0.10939	0.067229	-2.2417	-3.3229	-3.2417	-2.9042	-3.6562	-2.8854	-3.0875	-3.6458	-2.7104	-3.2188	-3.5521	-2.8667	-3.5958	-3.1625	-2.8625	-3.3688	172.414	-15.985	-26.374	186.432	-1.089	179.765	296.803	76.336	126.457	82.451	150.496	26.726	281.185	219.540	-33.381	183.792	0.00012169	0.00040224	0.00010298	163.12	5.8759e-06	4.2953e-06	333.14	53.985	8.1154e-06	1.1606e-05	129.92	51.927	21.013	9.7254	6.3703e-06	26.863	0.00064168	0.00068677	0.00019142	214.45	7.1618e-06	7.5281e-06	365.72	67.442	7.2121e-06	7.5107e-06	156.24	57.689	29.417	12.357	7.4631e-06	29.132	96.303	215.794	-9.336	-46.132	128.159	147.293	-45.438	-39.496	180.768	5.980	-41.157	-37.066	-34.774	-30.743	109.045	-33.014	-8191	255	
7421.531	1	1	0	0	0.051167	0.077611	0.13841	0.080718	0.40234	0.11122	0.2129	0.23781	0.19606	0.12941	0.2118	0.13107	0.043458	0.20139	0.026597	0.23117	-2.4208	-3.2083	-3.4479	-2.7938	-3.4646	-3.0604	-2.9562	-3.4396	-2.8063	-3.2229	-3.4792	-2.4562	-3.3583	-3.1604	-2.8833	-3.325	-17.426	174.588	6.900	181.830	-16.836	145.901	238.646	287.725	81.052	180.672	-5.139	280.259	275.653	192.744	144.452	213.082	0.00017426	0.00039436	6.1844e-05	162.39	2.3737e-06	4.547e-06	340.19	54.578	8.6738e-06	1.1604e-06	132.63	52.644	21.127	9.7854	6.1183e-06	27.309	0.00066593	0.00069056	0.00019201	214.41	7.5329e-06	7.6231e-06	367.96	67.749	7.529e-06	7.5101e-06	156.93	57.816	29.353	12.337	7.3433e-06	29.228	239.280	263.711	-37.694	-45.870	20.290	27.800	-48.587	-42.813	189.301	295.793	-44.467	-39.566	-36.674	-33.990	141.277	-35.531	-8191	255	
7421.627	1	1	0	0	0.051741	0.33339	0.28582	0.14636	0.14402	0.17306	0.39244	0.070325	0.22281	0.23299	0.13777	0.043702	0.10391	0.060602	0.13727	0.11692	-2.1604	-3.1708	-3.5042	-2.5979	-3.4458	-3.2375	-2.8417	-3.4208	-2.8208	-2.7562	-3.3521	-2.6083	-3.3917	-3.5021	-2.6312	-3.6042	56.341	-20.158	78.370	99.345	-52.561	-35.061	-29.887	282.761	74.807	217.096	273.024	173.894	223.276	101.846	-11.677	184.356	8.3379e-05	0.00025779	0.00014979	165	2.2981e-06	1.0028e-05	341.03	54.597	4.1679e-06	3.4699e-06	132.52	52.595	21.129	9.9829	6.7316e-06	27.296	0.00066988	0.00067664	0.00018434	215.93	7.4766e-06	7.4838e-06	367.18	68.154	7.5236e-06	7.4184e-06	154.83	58.143	29.431	12.331	7.0559e-06	29.272	268.463	63.966	40.425	-49.081	121.762	14.716	-48.460	-42.794	93.819	152.016	-43.810	-39.256	-37.603	-34.000	72.781	-35.754	-8191	255	
7421.723	1	1	0	0	0.075781	0.21318	0.094167	0.20993	0.30668	0.15271	0.33695	0.41349	0.10029	0.14911	0.1309	0.11504	0.16629	0.19545	0.13429	0.19163	-2.5292	-2.7625	-3.5667	-2.8563	-3.275	-3.2771	-2.6708	-3.3021	-3.0021	-2.8438	-3.7125	-2.6979	-3.0438	-3.3375	-2.7687	-3.425	21.501	265.206	-24.696	290.280	-20.174	177.950	257.176	115.958	55.842	-59.782	146.006	91.971	103.567	8.453	37.815	211.708	0.00011805	0.00079722	0.00012323	165.75	2.6536e-06	6.18e-06	338.49	54.897	5.1697e-06	3.028e-06	134.02	52.26	21.138	9.8569	9.3306e-07	27.675	0.00066849	0.00067292	0.00017847	216.99	7.4237e-06	7.3307e-06	364.9	68.404	7.4201e-06	7.3255e-06	154.47	57.784	29.067	12.163	6.8828e-06	29.399	278.769	-6.913	33.673	-48.784	78.940	-28.978	-48.373	-42.422	190.057	-36.417	-44.637	-39.405	-36.161	-33.951	20.027	-35.534	-8191	255	
7421.795	1	1	0	0	0.25827	0.033628	0.13845	0.13085	0.060611	0.1368	0.12394	0.22988	0.10294	0.10921	0.092849	0.19085	0.17973	0.11011	0.39	0.14007	-2.8292	-2.6437	-3.4562	-2.7271	-2.8271	-3.5083	-2.6937	-3.4542	-3.2104	-2.8042	-3.6146	-2.8563	-2.8479	-3.4188	-2.8146	-3.2229	134.359	74.154	270.017	179.930	243.617	167.084	187.784	35.300	101.389	182.278	74.936	97.107	193.112	64.888	-29.186	-55.992	0.00014273	0.00020861	0.00013571	163.68	5.7757e-06	6.4254e-06	337.54	55.185	7.8577e-06	5.8802e-06	131.94	52.915	20.839	9.8953	4.8238e-06	27.677	0.0006525	0.00064637	0.00017444	216.25	7.1599e-06	7.0674e-06	363.81	68.467	7.1885e-06	6.9731e-06	154.05	58.417	28.905	12.116	6.9273e-06	29.507	261.501	298.662	172.839	-48.568	277.124	76.376	-48.514	-42.391	139.922	152.470	-43.635	-39.299	-37.557	-33.450	5.631	-35.434	-8191	255	
7421.914	1	1	0	0	0.033735	0.061767	0.28624	0.053014	0.10121	0.19122	0.13259	0.42207	0.19646	0.087491	0.31214	0.14928	0.20478	0.1852	0.18943	0.14182	-3.0167	-2.6021	-3.5083	-2.9229	-2.8521	-3.4125	-2.9313	-3.4396	-3.5604	-2.8146	-3.5146	-2.9167	-2.6458	-3.5771	-2.9229	-3.2375	119.022	119.182	-47.082	274.455	268.129	253.628	164.848	266.588	74.051	51.537	134.259	44.264	269.003	-16.892	-35.781	-33.202	8.3205e-05	0.0004456	7.6987e-05	166.68	6.4249e-06	3.6091e-06	341.34	54.302	6.2959e-07	1.0719e-05	130.3	52.732	20.907	9.6934	6.2024e-06	27.398	0.00064326	0.00063212	0.00017687	218.21	7.1702e-06	6.8838e-06	367.98	68.206	7.1587e-06	6.8216e-06	154.39	58.331	28.813	12.034	7.21e-06	29.372	-46.317	246.032	161.526	-48.247	145.695	98.217	-48.225	-42.000	253.728	89.266	-43.585	-39.289	-38.012	-32.912	229.959	-34.923	-8191	255	
7422.010	1	1	0	0	0.16563	0.024203	0.16442	0.11903	0.1792	0.21696	0.1223	0.096839	0.30403	0.054024	0.23255	0.24089	0.26713	0.17693	0.26172	0.14888	-2.9062	-2.5083	-3.5729	-3.0146	-2.7875	-3.6125	-3.0021	-3.1875	-3.3792	-2.6042	-3.3854	-3.3104	-2.9125	-3.6125	-2.7042	-3.1083	125.783	210.277	6.176	228.395	254.815	299.435	-36.444	72.731	73.709	147.187	48.254	17.136	-23.795	282.121	40.965	224.644	0.00013083	0.00026724	0.00016828	165.54	3.1412e-07	8.5518e-07	339.93	53.992	3.7821e-06	3.1403e-06	129.34	51.936	21.082	9.6661	3.2985e-06	27.097	0.00064941	0.00063014	0.00018652	220.16	7.2871e-06	6.9185e-06	369.33	68.124	7.216e-06	6.9167e-06	155.86	57.971	28.755	11.963	7.4142e-06	29.113	209.849	-19.801	165.917	-48.415	254.826	299.368	-48.344	-41.830	143.131	207.916	-43.778	-38.888	-37.030	-33.016	167.742	-35.247	-8191	255	
7422.106	1	1	0	0	0.17185	0.32429	0.20899	0.30599	0.14097	0.15736	0.24443	0.11035	0.22043	0.088642	0.11317	0.23044	0.11971	0.099191	0.2248	0.39343	-3.0583	-2.7292	-3.3583	-3.1583	-2.8063	-3.7021	-2.9813	-2.9958	-3.6833	-2.7375	-3.3792	-3.3438	-2.6063	-3.4417	-2.8354	-2.8896	181.179	46.227	218.183	122.764	-55.479	245.590	93.756	41.221	42.374	168.242	134.236	288.194	143.129	4.670	34.671	1.405	0.0001538	0.00048238	0.00026411	166.17	3.635e-06	5.3145e-06	340.12	53.782	4.794e-06	6.5574e-06	131.15	52.18	21.171	9.5866	1.9371e-06	27.121	0.00063844	0.00063242	0.00018903	218.57	7.0191e-06	6.9699e-06	368.01	68.016	7.0412e-06	7.0367e-06	156.12	57.905	28.564	12.027	7.4297e-06	29.176	196.002	-33.831	7.686	-48.119	242.418	202.977	-48.298	-42.231	123.002	13.798	-44.037	-39.234	-37.082	-33.232	111.452	-34.980	-8191	255	
7422.226	1	1	0	0	0.16641	0.25335	0.051429	0.024218	0.18886	0.39166	0.18369	0.14775	0.18542	0.26482	0.20467	0.17086	0.18102	0.28823	0.26401	0.14298	-3.325	-2.8083	-3.4	-3.3187	-2.6583	-3.3167	-3.0083	-2.95	-3.5333	-2.8208	-3.3146	-3.6417	-2.8375	-3.4417	-3.1292	-2.9562	198.204	-12.709	250.119	142.610	-59.503	7.988	161.077	244.313	153.978	104.133	212.255	58.580	255.273	234.388	102.756	-29.237	2.78e-05	0.0010682	5.2225e-05	166.67	1.5408e-06	4.9668e-06	338.96	54.567	8.2403e-07	6.5079e-06	132.88	52.682	21.427	9.7776	2.2811e-06	27.232	0.00061804	0.00064613	0.00018979	218.92	6.8757e-06	7.2312e-06	369.83	68.292	6.9028e-06	7.3264e-06	157.88	58.495	28.659	12.259	7.5308e-06	29.427	255.086	120.752	96.671	-48.899	3.481	190.603	-48.554	-41.884	84.004	112.305	-43.513	-38.878	-37.534	-32.940	243.234	-35.150	-8191	255	
7422.323	1	1	0	0	0.27477	0.15075	0.050919	0.16485	0.089015	0.14975	0.12001	0.094425	0.11522	0.088713	0.17504	0.40858	0.064907	0.058186	0.15224	0.20405	-3.0542	-2.7375	-3.0833	-3.6646	-2.8729	-3.4083	-3.0563	-2.6792	-3.3646	-2.6917	-2.975	-3.5625	-2.6	-3.6458	-3.3792	-2.7771	78.768	-48.690	59.977	199.389	243.616	5.293	42.252	-47.107	157.690	196.472	70.824	51.409	-22.019	-48.730	122.103	-46.509	0.00013462	0.00050377	7.7905e-05	169.33	2.7789e-06	2.659e-06	339.66	54.409	3.1666e-06	1.212e-05	131.86	53.206	20.818	9.7207	1.6377e-06	27.047	0.00061928	0.00067802	0.00018945	219.66	6.9886e-06	7.5249e-06	371.23	68.49	7.0277e-06	7.5836e-06	157.26	58.281	28.797	12.307	7.5991e-06	29.089	279.413	91.063	217.014	-48.622	157.244	263.580	-48.229	-42.788	-55.351	12.302	-44.205	-39.095	-36.804	-32.496	-37.568	-34.669	-8191	255	
7422.394	1	1	0	0	0.12395	0.09413	0.096441	0.23216	0.10952	0.22158	0.13918	0.33881	0.1902	0.1674	0.22173	0.28072	0.073837	0.12635	0.12828	0.21539	-2.9958	-2.9646	-3.1917	-3.6792	-2.8333	-3.2083	-3.2	-2.6708	-3.6188	-3.1271	-2.8896	-3.6167	-2.7854	-3.1354	-3.2396	-2.8958	-53.527	284.172	150.199	299.521	229.554	140.136	85.849	237.277	264.131	161.857	-23.005	24.142	147.822	259.693	-21.539	114.515	6.5174e-05	0.00059053	6.3606e-05	167.52	7.4178e-06	5.0539e-06	338.92	55.124	3.3991e-06	3.053e-06	131.19	51.582	21.249	9.6822	4.8405e-06	26.954	0.00064621	0.00070213	0.00019015	218.33	7.1759e-06	7.6284e-06	368.3	68.04	7.2269e-06	7.6908e-06	156.23	57.502	28.968	12.271	7.5643e-06	28.882	243.524	57.998	26.428	-49.108	243.727	261.864	-48.026	-41.734	296.558	121.935	-43.342	-39.135	-36.387	-32.209	229.746	-35.194	-8191	255	
7422.515	1	1	0	0	0.20247	0.15511	0.05564	0.14791	0.10056	0.17023	0.1367	0.13092	0.11017	0.071912	0.030347	0.20079	0.14762	0.26821	0.16894	0.29974	-3.2396	-3.0896	-2.8167	-3.5521	-2.6208	-2.975	-3.5604	-2.7313	-3.3896	-3.1875	-2.7104	-3.4833	-2.8542	-3.1292	-3.5438	-2.5958	120.008	24.599	-35.357	4.543	79.661	31.845	285.080	279.119	125.952	153.446	152.333	57.633	-0.738	-45.239	30.083	286.316	0.00020391	0.00034936	0.0001691	165.62	5.1011e-06	8.3637e-06	338.85	54.253	3.9093e-06	5.2057e-06	130.23	52.078	20.882	9.8422	8.5979e-06	27.135	0.00065526	0.00069501	0.00018872	215.99	7.3253e-06	7.5966e-06	367.41	67.142	7.3863e-06	7.565e-06	155.55	57.118	29.099	12.232	7.4702e-06	28.952	238.430	-1.126	54.774	-47.906	234.978	180.180	-48.028	-42.018	132.462	146.839	-43.618	-39.099	-37.316	-32.440	63.819	-34.648	-8191	255	
7422.611	1	1	0	0	0.30993	0.26398	0.33963	0.10345	0.14382	0.11577	0.10019	0.13761	0.14448	0.34233	0.12748	0.11705	0.20431	0.11281	0.21107	0.16771	-2.9729	-2.9667	-2.5167	-3.5375	-2.9062	-2.9396	-3.4021	-2.475	-3.4417	-3.2875	-2.7667	-3.6063	-2.9771	-2.9667	-3.3792	-2.7167	245.094	46.875	115.220	155.789	70.484	31.523	-38.046	296.460	168.179	245.768	224.916	288.653	133.780	77.685	116.331	45.425	0.00012367	0.00056609	0.00018977	166.17	2.105e-06	6.6439e-06	339.33	54.519	5.3469e-06	6.5919e-06	129.88	52.492	20.925	9.8101	3.2121e-06	27.378	0.00067807	0.00069777	0.0001877	217.61	7.6456e-06	7.5745e-06	369.65	67.902	7.6958e-06	7.6227e-06	155.23	58.163	29.518	12.344	7.2497e-06	29.186	252.608	70.909	46.688	-47.546	-40.926	-5.018	-48.224	-41.766	42.908	127.791	-43.793	-38.898	-36.465	-32.701	113.897	-34.828	-8191	255	
7422.707	1	1	0	0	0.16325	0.05295	0.15025	0.09456	0.059	0.34096	0.16459	0.26333	0.055561	0.070228	0.14315	0.17808	0.27831	0.15953	0.16532	0.08633	-2.8333	-3.375	-2.7646	-3.6458	-2.8875	-2.9688	-3.6625	-2.7292	-3.2083	-3.4875	-2.6958	-3.4875	-3.1625	-3.0542	-3.5167	-2.9813	6.207	-32.456	172.611	187.028	109.051	12.581	234.427	240.791	293.292	-43.458	201.350	271.152	9.250	-44.361	256.133	210.767	8.1593e-05	0.00045855	0.00013021	166.46	9.7258e-06	2.291e-06	338.66	54.208	8.0183e-07	6.308e-06	130.18	51.774	21.197	9.7826	1.8847e-06	27.035	0.00068263	0.00068903	0.00018179	218.2	7.574e-06	7.4631e-06	365.7	68.472	7.6072e-06	7.6192e-06	154.51	57.989	29.62	12.273	7.2916e-06	29.347	90.871	-46.868	24.878	-47.616	27.038	67.866	-46.995	-41.583	72.854	125.539	-43.493	-38.679	-36.498	-33.040	69.373	-34.658	-8191	255	
7422.826	1	1	0	0	0.12902	0.23624	0.23594	0.28618	0.16131	0.088275	0.23586	0.16787	0.17024	0.25117	0.34651	0.16185	0.16526	0.11111	0.11733	0.11118	-2.7812	-3.4833	-2.6771	-3.4375	-3.35	-2.8542	-3.7104	-2.8937	-3.0542	-3.7021	-2.7479	-3.4854	-3.2104	-2.5438	-3.4479	-2.8875	48.875	224.242	67.306	257.112	2.089	177.165	256.495	230.821	15.297	44.160	-28.896	169.301	283.566	232.704	185.452	21.768	0.00015337	0.0012928	0.00015044	166.53	5.4312e-06	1.4158e-06	335.83	54.144	2.1651e-06	1.2635e-05	130.42	51.584	20.878	9.6959	8.1046e-06	26.859	0.00069316	0.00070009	0.00018345	222.45	7.7144e-06	7.5279e-06	365.25	68.741	7.594e-06	7.5738e-06	154.47	58.1	29.308	12.14	7.2689e-06	29.306	231.853	9.038	45.209	-46.946	60.531	-7.198	-48.157	-41.718	32.536	79.129	-43.257	-39.299	-37.432	-33.414	142.594	-35.128	-8191	255	
7422.922	1	1	0	0	0.22261	0.018569	0.20084	0.28624	0.056838	0.047441	0.23197	0.27456	0.14898	0.25682	0.27557	0.088869	0.27674	0.15808	0.13491	0.16465	-2.6625	-3.4708	-2.7208	-3.5563	-3.2833	-2.7271	-3.6188	-3.1729	-3.0917	-3.4521	-2.7313	-3.3979	-3.4458	-2.6958	-3.525	-3.2729	-58.991	180.419	117.566	235.713	-52.778	205.216	190.578	83.655	96.352	62.523	50.732	45.468	-49.390	247.077	200.525	-35.389	0.00011982	0.00028164	0.00021906	164.4	2.5376e-06	7.2755e-06	339.14	54.364	3.6634e-06	7.2137e-06	130.25	52.137	21.031	9.6209	4.408e-06	27.334	0.00067526	0.00067296	0.00018346	221.27	7.5955e-06	7.2716e-06	367.26	68.923	7.4643e-06	7.2915e-06	155.41	58.298	29.264	12.022	7.3501e-06	29.412	185.413	54.602	160.670	-48.325	141.844	88.344	-48.237	-41.758	111.849	6.992	-43.290	-39.291	-36.266	-32.350	-56.408	-34.595	-8191	255	
7422.994	1	1	0	0	0.086219	0.12223	0.2872	0.099678	0.1019	0.20443	0.15985	0.31466	0.13932	0.10627	0.12876	0.30529	0.21586	0.17015	0.13501	0.042391	-2.4458	-3.4479	-2.5771	-3.3396	-3.4646	-2.6917	-3.4896	-3.175	-2.9146	-3.6333	-2.7938	-3.0208	-3.2833	-2.7521	-3.4562	-3.2458	61.989	-21.581	76.158	218.376	235.181	36.535	123.303	87.465	-58.024	-31.330	52.597	-58.123	-48.252	149.059	272.188	-22.455	9.1267e-05	0.00070784	0.00016669	167.65	8.8852e-06	6.3332e-06	340.58	55.563	2.2874e-06	8.8811e-06	131.1	52.63	21.244	9.8016	2.3125e-06	27.139	0.00065876	0.00064569	0.00018545	220.52	7.3262e-06	6.9309e-06	368.04	68.756	7.3111e-06	6.9832e-06	155.94	58.147	29.101	12.061	7.3119e-06	29.297	174.800	80.918	142.125	-48.379	97.298	36.830	-47.723	-42.036	281.885	240.376	-43.772	-38.747	-36.879	-32.725	45.105	-34.819	-8191	255	
7423.090	1	1	0	0	0.19942	0.20669	0.1318	0.1665	0.16862	0.062628	0.23824	0.029035	0.14762	0.029964	0.22078	0.085289	0.19438	0.24192	0.0385	0.35498	-2.5208	-3.625	-3.0354	-3.2062	-3.3958	-2.65	-3.4854	-3.3167	-2.8875	-3.4375	-2.8667	-3.2292	-3.5687	-2.6604	-3.3229	-3.4479	55.850	-8.291	148.715	103.818	203.509	-26.922	230.812	236.526	0.963	226.456	-2.582	41.838	-29.023	-35.205	135.698	269.872	0.0001043	0.00026518	0.00017679	167.78	4.5746e-06	4.1372e-06	340.82	54.039	3.6531e-06	1.9756e-06	131.7	52.38	21.266	9.8397	4.6697e-06	27.308	0.00063736	0.00062687	0.0001883	219.11	7.1402e-06	6.8273e-06	367.72	67.983	6.9563e-06	6.8725e-06	155.91	57.56	28.33	11.981	7.1437e-06	29.074	264.371	187.526	5.686	-48.399	58.262	285.542	-47.932	-42.136	173.531	58.600	-43.893	-38.863	-37.277	-32.600	1.283	-34.813	-8191	255	
7423.211	1	1	0	0	0.33391	0.15606	0.024261	0.098842	0.14683	0.078067	0.17045	0.1691	0.22792	0.075492	0.057401	0.11697	0.27368	0.32037	0.13403	0.21669	-2.3604	-3.5	-2.7479	-2.8708	-3.4833	-2.8792	-3.3833	-3.2458	-2.5646	-3.6729	-3.2125	-3.0646	-3.7104	-3	-3.2792	-3.5708	165.393	188.709	171.508	208.591	141.343	73.624	48.603	173.392	44.367	163.916	231.363	28.547	16.828	280.326	119.807	118.664	6.8065e-05	0.00048967	0.00018282	165.39	6.0519e-06	3.2586e-06	337.91	54.607	3.3625e-06	1.0029e-05	131.92	51.989	21.129	9.6378	4.5327e-06	27.163	0.00059897	0.00062088	0.00018255	215.11	6.6621e-06	6.7632e-06	366.06	67.476	6.5276e-06	6.8245e-06	155.28	57.125	27.922	11.935	6.9336e-06	28.916	-46.987	71.247	83.048	-48.237	75.735	62.274	-47.819	-41.827	23.963	99.176	-43.937	-39.241	-37.454	-32.631	210.361	-34.841	-8191	255	
7423.307	1	1	0	0	0.3103	0.24333	0.021327	0.23544	0.034221	0.28847	0.28643	0.15793	0.059107	0.15604	0.2588	0.19451	0.22131	0.14008	0.12618	0.09849	-2.3479	-3.6292	-3.1729	-2.9583	-3.4896	-2.7771	-3.3708	-3.6792	-2.8187	-3.4875	-3.1771	-2.7708	-3.6875	-2.9667	-3.1375	-3.3729	200.514	22.981	115.143	211.908	72.486	239.371	278.431	235.314	35.973	115.610	228.864	97.597	98.592	29.092	244.403	-56.968	1.3046e-05	0.00075339	0.00015544	167.37	4.5061e-06	3.2573e-06	341.12	55.146	3.8806e-06	4.0281e-06	132.55	52.538	21.41	9.8153	3.1337e-06	27.395	0.0005681	0.00061439	0.0001753	213.37	6.3805e-06	6.7896e-06	365.69	67.049	6.2104e-06	6.7558e-06	154.59	56.835	27.868	12.017	6.6899e-06	28.827	185.279	183.232	37.925	-47.949	22.852	250.427	-47.856	-41.651	80.441	226.064	-42.867	-38.290	-36.679	-33.304	37.209	-34.441	-8191	255	
7423.403	1	1	0	0	0.17966	0.099827	0.048713	0.069989	0.061379	0.20115	0.17452	0.15974	0.17353	0.105	0.11433	0.1588	0.049413	0.18697	0.012628	0.40357	-2.2896	-3.3875	-3.3208	-2.8604	-3.6229	-2.8187	-3.1708	-3.7354	-2.7042	-3.3667	-3.3375	-2.7896	-3.4479	-2.9083	-3.1146	-3.7583	-26.329	297.419	57.595	231.775	155.767	-15.493	-34.627	127.766	122.522	232.198	-19.028	178.234	-50.741	242.951	97.145	-23.214	0.00018948	0.00046483	1.1042e-05	170.3	3.9929e-06	6.1989e-06	340.61	54.698	2.8058e-06	7.5547e-06	131.09	52.175	20.73	9.6658	1.0405e-05	27.187	0.00056207	0.00061799	0.00017033	211.22	6.3139e-06	6.8366e-06	364.87	66.568	6.4628e-06	6.8054e-06	152.69	56.254	27.881	11.905	6.6862e-06	28.357	232.831	-7.470	26.329	-47.962	136.771	2.765	-47.703	-41.584	279.544	175.714	-44.205	-38.409	-37.309	-32.256	130.976	-34.493	-8191	255	
7423.499	1	1	0	0	0.1594	0.165	0.20856	0.16007	0.096982	0.060998	0.19643	0.10251	0.26348	0.20464	0.21885	0.11737	0.20428	0.38191	0.29574	0.061967	-2.3667	-3.3042	-3.4271	-2.8667	-3.6708	-3.2208	-2.7646	-3.7396	-2.9625	-3.3771	-3.4021	-2.8042	-3.6688	-3.1937	-2.8312	-3.7	236.666	64.063	83.257	53.095	248.856	77.526	248.617	130.070	116.757	234.124	50.494	264.512	-40.380	86.166	210.537	225.797	0.0001055	0.00086381	0.00012635	166.95	3.0276e-06	6.1486e-06	340.34	54.325	6.27e-06	6.7242e-06	130.84	51.322	20.928	9.5509	6.6772e-06	26.866	0.00057556	0.000623	0.00017047	210.51	6.5235e-06	6.7483e-06	362.32	65.441	6.5485e-06	6.6931e-06	151.24	55.555	27.811	11.789	6.4577e-06	28.225	237.387	51.581	21.460	-48.046	140.880	290.054	-47.895	-41.309	269.760	38.562	-43.223	-38.569	-35.957	-32.671	137.872	-34.366	-8191	255	
7423.618	1	1	0	0	0.12599	0.089058	0.035451	0.24926	0.12574	0.14537	0.12381	0.31787	0.039257	0.13581	0.12703	0.093968	0.097789	0.17928	0.069181	0.059507	-2.4813	-2.9667	-3.5062	-2.7542	-3.4354	-3.1875	-2.7479	-3.5146	-2.8875	-3.1208	-3.4396	-2.9271	-3.425	-3.35	-2.7917	-3.7333	-29.087	11.581	-47.121	103.618	52.510	158.384	297.925	157.528	-30.586	224.324	71.995	-36.102	36.759	9.369	245.810	233.350	4.7577e-05	0.00080472	0.00017412	168.67	9.5973e-06	5.9182e-06	338.13	55.491	4.283e-07	1.0404e-06	132.47	51.699	20.955	9.8203	5.4756e-06	27.444	0.00058204	0.00059704	0.00016391	208.58	6.5465e-06	6.5914e-06	362.07	66.084	6.5982e-06	6.5715e-06	151.51	56.253	28.042	11.897	6.4165e-06	28.625	195.994	-59.567	55.022	-49.054	88.850	42.359	-47.619	-42.093	-55.789	163.084	-42.873	-38.283	-36.803	-32.494	104.214	-34.623	-8191	255	
7423.691	1	1	0	0	0.064709	0.26315	0.094657	0.20439	0.09914	0.023413	0.0074112	0.13139	0.075595	0.025331	0.19975	0.15433	0.082171	0.14908	0.1076	0.13776	-2.6667	-3.0646	-3.5708	-2.6479	-3.4646	-3.2646	-2.9562	-3.4354	-3.0667	-3	-3.7458	-2.6771	-3.3979	-3.4396	-2.8979	-3.5125	62.768	-7.952	172.542	25.789	3.533	217.478	174.266	179.720	198.664	208.506	121.601	-30.967	249.498	162.351	175.611	-15.381	0.0001117	0.00046966	8.8974e-05	167.46	6.2312e-06	1.3511e-06	345.34	55.762	6.4255e-06	4.4139e-06	134.03	52.335	21.05	9.8307	4.1055e-06	27.358	0.00058969	0.00059042	0.0001608	210.23	6.5725e-06	6.4716e-06	363.68	66.304	6.5508e-06	6.4091e-06	151.16	56.509	27.921	11.829	6.031e-06	28.74	241.211	134.979	10.328	-47.849	174.224	-11.958	-47.794	-41.435	21.445	-48.256	-42.350	-38.452	-36.167	-32.543	-38.011	-33.948	-8191	255	
7423.788	1	1	0	0	0.094626	0.21665	0.070031	0.14393	0.2546	0.29146	0.23896	0.076724	0.25888	0.008543	0.15841	0.25536	0.089203	0.14444	0.095778	0.13637	-2.7271	-2.9	-3.6396	-2.7083	-3.0062	-3.4188	-2.8104	-3.4938	-3.0021	-2.8875	-3.6646	-2.8146	-3.1208	-3.6	-2.7854	-3.4854	220.759	179.989	62.618	251.063	243.434	155.044	1.639	187.849	127.055	22.571	209.489	-32.938	297.019	215.547	99.835	192.483	5.2347e-05	0.00040268	9.1903e-05	169.14	1.4031e-06	3.9282e-06	345.86	54.714	4.9752e-06	1.0869e-06	131.74	52.318	20.77	9.7777	5.3214e-06	27.142	0.00057753	0.00057495	0.00015267	210.64	6.426e-06	6.2427e-06	362.88	66.486	6.4558e-06	6.2328e-06	150.18	56.348	27.677	11.778	5.9506e-06	28.729	189.488	15.479	87.117	-47.600	205.966	52.796	-47.998	-41.451	274.828	145.310	-43.272	-38.269	-36.195	-32.725	235.413	-34.357	-8191	255	
7423.906	1	1	0	0	0.026369	0.097704	0.25817	0.17284	0.17804	0.11963	0.1966	0.11926	0.0528	0.073884	0.23977	0.20551	0.12558	0.10556	0.32077	0.2598	-2.7375	-2.7938	-3.5438	-3.1125	-3.0375	-3.4604	-2.5625	-3.3187	-3.1646	-2.8042	-3.5958	-2.9646	-3.0771	-3.5542	-2.9229	-3.625	137.642	22.689	268.689	268.588	279.836	260.726	139.019	164.814	36.782	283.252	259.939	118.185	214.809	231.963	92.777	141.720	1.9307e-05	0.00054768	0.0001023	169.06	2.0615e-06	1.1243e-05	346.06	54.673	2.766e-06	8.051e-06	133.28	52.808	21.284	9.878	5.8464e-06	27.434	0.00056797	0.00056184	0.00015219	212.29	6.2924e-06	6.1935e-06	363.88	66.45	6.3536e-06	6.1045e-06	151.24	56.879	27.623	11.678	6.0947e-06	28.905	250.612	58.531	115.877	-48.156	198.734	15.213	-46.877	-41.755	-52.282	179.527	-42.967	-38.657	-36.286	-32.094	300.130	-34.170	-8191	255	
7424.003	1	1	0	0	0.096514	0.030145	0.1214	0.14172	0.30467	0.14195	0.18311	0.057795	0.27807	0.14763	0.19247	0.32909	0.13301	0.098417	0.16575	0.075924	-3.0167	-2.7687	-3.475	-2.9625	-3.0646	-3.7667	-2.7583	-3.3812	-3.3333	-2.5938	-3.4583	-3.0667	-2.8833	-3.7854	-2.9562	-3.2479	-8.562	60.209	-36.889	230.301	270.424	179.249	37.304	10.553	178.546	44.389	285.684	46.689	270.081	172.386	128.928	181.790	0.00012168	0.00052807	9.692e-05	169	5.605e-06	5.7098e-06	348.72	55.447	2.9246e-06	4.6706e-06	134.74	52.924	21.398	9.9521	5.0058e-06	27.86	0.00055582	0.00053819	0.00015458	211.24	6.1069e-06	5.9398e-06	366.25	66.505	6.2712e-06	5.948e-06	152.97	57.285	27.815	11.804	6.3307e-06	29.179	209.100	146.397	67.045	-48.207	33.480	-30.888	-47.521	-41.038	140.573	46.896	-42.746	-38.242	-36.527	-32.878	-10.727	-34.143	-8191	255	
7424.099	1	1	0	0	0.079479	0.25212	0.18799	0.15221	0.17612	0.11018	0.33635	0.036401	0.19791	0.35094	0.065262	0.1668	0.14997	0.15563	0.02973	0.13744	-3.1167	-2.6083	-3.4917	-3.0563	-2.9729	-3.6604	-2.7896	-3.0208	-3.5979	-2.75	-3.5542	-3.2271	-2.8063	-3.7896	-3.1271	-3.0021	14.707	132.408	254.289	114.803	289.967	203.484	282.271	39.423	234.516	-13.617	40.678	9.654	269.128	-39.533	6.720	34.224	0.00010329	0.00060355	1.4431e-05	171.09	8.3779e-06	3.8827e-06	346.64	55.805	9.0609e-07	1.4053e-06	134.48	53.353	21.6	9.8965	9.0798e-07	27.755	0.00055985	0.00054477	0.000163	213.19	6.1616e-06	6.0183e-06	367.66	66.871	6.2349e-06	6.0039e-06	153.65	57.263	27.853	11.84	6.4553e-06	29.019	296.442	-2.492	109.934	-47.214	-31.193	55.645	-47.443	-40.934	135.437	115.286	-43.176	-38.254	-36.272	-31.608	186.311	-34.011	-8191	255	
7424.195	1	1	0	0	0.14669	0.054245	0.089952	0.13944	0.11485	0.21548	0.15863	0.20763	0.060118	0.18928	0.18219	0.11845	0.10849	0.026973	0.21175	0.19552	-3.2729	-2.6875	-3.2146	-3.2188	-2.9375	-3.7521	-2.9583	-2.9813	-3.5938	-2.9333	-3.4271	-3.4188	-2.6854	-3.4354	-3.1188	-3.0771	-42.831	44.116	180.620	62.264	142.509	291.498	53.705	253.451	18.466	285.765	24.202	229.838	141.659	189.339	-2.274	204.187	0.00012037	0.00018527	0.0001879	170.48	6.943e-06	1.9258e-06	344.71	54.049	7.2508e-06	6.1075e-06	133.3	52.527	21.025	9.8696	5.8256e-06	27.499	0.00055453	0.00056108	0.00016547	213.3	6.1775e-06	6.2378e-06	368.8	66.679	6.2906e-06	6.3579e-06	154.39	56.94	27.712	11.89	6.7225e-06	28.942	191.198	73.433	-9.704	-47.669	-2.096	130.018	-47.243	-41.089	-17.140	223.718	-42.496	-38.015	-36.179	-32.168	148.824	-33.606	-8191	255	
7424.291	1	1	0	0	0.17914	0.33691	0.054607	0.065629	0.29046	0.31051	0.18198	0.16039	0.14519	0.147	0.10559	0.20808	0.15678	0.21285	0.31893	0.047111	-3.1833	-2.9062	-3.3292	-3.6125	-2.7854	-3.5542	-3.1063	-2.8479	-3.5354	-3.0625	-3.3917	-3.45	-2.7979	-3.4708	-3.2979	-3.2083	73.092	19.939	289.727	286.951	213.490	263.352	-22.956	166.836	0.213	140.839	221.504	270.345	151.766	206.504	106.719	248.765	6.9557e-05	0.00040843	3.8055e-05	168.06	5.2939e-06	6.003e-06	346.98	55.435	6.5592e-06	2.8696e-06	134.34	52.288	21.196	9.9896	1.2005e-06	27.752	0.00056073	0.00059261	0.0001709	214.31	6.2407e-06	6.6138e-06	369.63	67.53	6.3653e-06	6.7231e-06	154.99	57.318	28.025	12.114	6.9685e-06	29.158	271.017	89.605	226.243	-47.900	73.397	254.458	-47.218	-40.811	158.569	188.044	-43.364	-38.296	-35.537	-31.598	152.709	-33.672	-8191	255	
7424.387	1	1	0	0	0.27872	0.13455	0.3683	0.2337	0.17465	0.14306	0.1662	0.10307	0.1921	0.1135	0.34099	0.10126	0.18099	0.11618	0.17539	0.21119	-3.4062	-2.8917	-3.0729	-3.5938	-2.9083	-3.5021	-3.2417	-2.8125	-3.5292	-2.9417	-3.0708	-3.5958	-2.8438	-3.3583	-3.125	-2.7438	-46.858	62.437	157.902	242.415	187.790	5.545	194.518	249.166	219.800	-2.659	-48.453	300.122	85.250	235.836	212.572	25.701	0.00012979	0.00076293	8.0194e-05	168.99	1.3796e-07	9.8119e-06	346.71	55.578	1.3535e-06	7.8183e-06	134.25	52.843	21.445	9.8775	6.2316e-06	27.584	0.00058239	0.00064105	0.00017701	216.96	6.5192e-06	7.0438e-06	370.43	68.128	6.6166e-06	7.1047e-06	156.1	57.877	28.549	12.276	7.0365e-06	29.291	252.379	23.043	288.539	-47.780	280.264	268.789	-47.182	-40.734	-25.060	237.748	-42.471	-37.853	-35.521	-31.861	265.537	-34.083	-8191	255	
7424.508	1	1	0	0	0.03597	0.26175	0.089995	0.27559	0.13107	0.091717	0.12637	0.20441	0.40898	0.19852	0.1728	0.20979	0.21712	0.14668	0.22158	0.1536	-3.0542	-3.0021	-3.1437	-3.4271	-2.6583	-3.2271	-3.3542	-2.9333	-3.6979	-3.0208	-2.7208	-3.3729	-2.8083	-3.3	-3.5187	-2.8104	157.490	289.569	-46.610	239.874	59.499	220.961	-37.630	-5.383	263.580	256.789	289.127	107.560	-35.723	69.651	221.871	220.666	0.00011843	0.00033308	0.00012921	168.33	3.1884e-06	4.9943e-06	345.24	55.451	1.9069e-06	3.3482e-06	136.09	53.023	21.268	9.9828	4.0755e-06	27.42	0.00060834	0.00065713	0.00017898	216.26	6.8022e-06	7.1738e-06	371.23	67.643	6.8779e-06	7.1099e-06	156.57	57.553	28.9	12.241	7.1094e-06	28.977	243.126	147.533	268.953	-47.244	154.210	110.578	-47.124	-41.064	-4.709	-18.565	-42.043	-37.624	-35.987	-31.716	282.511	-33.931	-8191	255	
7424.604	1	1	0	0	0.18165	0.1733	0.15231	0.1906	0.05761	0.17355	0.10897	0.24094	0.13697	0.030278	0.17829	0.15814	0.078686	0.13803	0.24263	0.067255	-3.1167	-3.0521	-2.7833	-3.4688	-2.8771	-3.2812	-3.3688	-2.8604	-3.4542	-3.3187	-2.8812	-3.5979	-2.7042	-3.0875	-3.2958	-2.7604	258.878	286.152	103.603	220.482	11.054	251.654	8.976	210.697	94.252	293.039	-42.036	-50.952	217.126	1.393	-3.368	-39.165	1.9296e-05	0.00080331	0.00012176	167.32	5.4699e-06	2.9819e-06	343.16	55.406	6.1035e-06	8.3177e-06	131.54	52.654	21.49	9.7893	8.8317e-07	27.093	0.00062562	0.00065547	0.00017824	214.68	6.978e-06	7.13e-06	368.33	67.266	7.0526e-06	7.1599e-06	154.37	57.286	28.962	12.151	7.0123e-06	28.895	242.507	14.516	155.848	-47.540	131.745	58.085	-46.965	-41.115	-45.043	33.663	-42.346	-37.851	-36.197	-32.074	94.893	-33.278	-8191	255	
7424.700	1	1	0	0	0.13205	0.13603	0.17961	0.28524	0.1778	0.04114	0.05865	0.032398	0.14299	0.18784	0.094961	0.13917	0.25716	0.18697	0.30157	0.18641	-3.0354	-3.2146	-2.8021	-3.5521	-3.0062	-3.0979	-3.5854	-2.8812	-3.2625	-3.4729	-3.0479	-3.8396	-3.1437	-2.7792	-3.4917	-2.8375	130.447	-34.804	191.119	115.297	35.642	45.318	18.423	234.094	53.386	106.763	294.605	0.038	170.090	234.818	60.321	99.885	6.8607e-05	0.00076778	0.0001158	167.55	5.5495e-06	6.3146e-06	341.94	54.936	3.5127e-06	7.5782e-06	132.18	52.18	21.717	9.9761	3.4439e-06	27.692	0.00064432	0.00065556	0.00017608	215.39	7.2184e-06	7.1237e-06	367.66	67.798	7.2348e-06	7.1561e-06	153.81	57.678	29.325	12.297	6.924e-06	29.392	102.140	-15.072	-5.975	-47.385	4.018	110.436	-46.905	-41.306	266.969	175.477	-42.496	-38.150	-36.109	-32.069	110.287	-34.046	-8191	255	
7424.795	1	1	0	0	0.1199	0.068045	0.22353	0.048076	0.095243	0.21457	0.084091	0.33602	0.18425	0.22719	0.13077	0.19724	0.1624	0.12148	0.22823	0.18301	-3.1521	-3.5167	-2.8021	-3.5563	-3.1458	-3.0125	-3.5875	-2.7438	-3.0917	-3.4062	-2.775	-3.7	-3.1958	-2.9042	-3.6542	-3.0167	31.107	177.040	67.796	100.080	-31.181	183.924	37.418	174.311	11.227	165.526	12.966	294.841	182.120	173.338	-54.875	142.274	0.00012033	0.00031772	8.1122e-05	168.88	3.6102e-06	3.9175e-06	345.83	55.652	5.0308e-06	1.0166e-05	134.69	53.407	21.731	10.027	4.5428e-06	27.333	0.00064951	0.00065968	0.00017346	218.34	7.2939e-06	7.1097e-06	368.9	68.299	7.1275e-06	7.1049e-06	154.31	58.193	29.202	12.173	6.7154e-06	29.323	273.343	-38.136	277.517	-47.365	84.881	-53.585	-46.729	-40.640	123.196	265.647	-42.455	-37.687	-36.174	-31.538	171.874	-34.184	-8191	255	
7424.915	1	1	0	0	0.024148	0.16976	0.25352	0.14408	0.16473	0.32991	0.21881	0.14639	0.24346	0.052308	0.011409	0.21621	0.10526	0.085024	0.17746	0.10367	-2.8771	-3.7146	-2.6875	-3.2958	-3.2104	-2.6854	-3.6792	-2.875	-3.0938	-3.4833	-2.9562	-3.4854	-3.2917	-2.7854	-3.7354	-3.1646	191.558	166.616	-54.528	150.184	-21.341	-47.626	267.186	148.869	-41.927	176.512	168.376	283.012	84.939	140.928	-34.359	-5.262	0.00016145	0.00090005	2.9398e-05	168.48	3.8111e-06	1.6317e-06	342.66	55.267	6.5658e-06	7.5351e-06	132.62	52.481	21.518	9.923	3.9116e-06	27.216	0.00063676	0.0006473	0.00017227	219.46	7.1789e-06	7.0033e-06	366.5	68.996	7.1286e-06	7.111e-06	154.14	58.045	29.15	12.109	6.8306e-06	29.164	197.013	43.155	84.197	-46.971	250.307	163.047	-46.980	-40.504	118.263	143.163	-42.371	-37.825	-35.764	-31.540	242.037	-33.991	-8191	255	
7424.987	1	1	0	0	0.055547	0.16173	0.15999	0.16449	0.25398	0.24764	0.18522	0.077912	0.12217	0.23026	0.10871	0.039381	0.25377	0.27372	0.094145	0.13804	-2.4958	-3.5667	-2.6583	-3.3812	-3.4479	-2.9792	-3.5708	-3.0479	-2.8729	-3.5646	-2.9562	-3.3604	-3.4625	-2.5479	-3.4375	-2.9875	-21.174	203.530	17.270	172.132	264.781	193.362	89.934	239.720	112.234	189.803	165.126	28.879	71.529	298.482	117.078	227.926	0.00010622	0.00045879	0.00011204	167.95	1.6674e-06	5.4839e-06	338.59	55.365	8.3724e-06	1.8872e-06	133.63	52.101	21.585	9.8711	5.3657e-06	27.526	0.00063035	0.00063331	0.00017491	218.34	7.1117e-06	6.7744e-06	366.61	68.764	6.998e-06	6.747e-06	155.68	58.008	29.069	12.002	6.9971e-06	29.376	259.292	121.272	141.714	-47.304	249.345	74.628	-47.214	-41.062	102.726	194.433	-42.098	-37.359	-36.215	-31.597	270.318	-33.944	-8191	255	
7425.083	1	1	0	0	0.14731	0.024301	0.10541	0.15971	0.11723	0.14277	0.13579	0.091151	0.10916	0.023639	0.11046	0.22353	0.081736	0.30166	0.1243	0.29938	-2.5771	-3.6542	-2.7375	-3.1917	-3.4313	-2.8563	-3.4979	-3.1167	-2.9188	-3.8417	-2.9083	-3.175	-3.4021	-2.975	-3.6063	-3.3167	211.906	141.850	105.684	273.510	96.830	241.833	235.435	273.684	139.179	-53.877	126.821	26.741	33.000	-22.278	260.483	73.371	0.00013182	0.00077919	0.00013042	169.66	5.1388e-06	2.0689e-06	344.25	55.915	5.8801e-06	6.9186e-06	135.26	53.29	21.795	9.9605	1.9685e-06	27.734	0.00062378	0.00060865	0.00017953	219.24	6.9895e-06	6.6321e-06	369.82	68.628	6.9112e-06	6.6428e-06	157.5	58.501	29.023	12.106	7.1921e-06	29.556	268.361	12.288	127.212	-46.581	216.742	48.142	-46.396	-40.496	73.734	81.516	-42.298	-37.375	-36.052	-31.502	233.447	-34.093	-8191	255	
7425.179	1	1	0	0	0.079856	0.08806	0.076018	0.047531	0.19252	0.12876	0.18343	0.079573	0.18918	0.23412	0.22952	0.21506	0.23316	0.14463	0.11803	0.11296	-2.525	-3.5333	-2.9083	-3.2062	-3.7292	-2.8333	-3.5875	-3.2583	-2.7292	-3.5958	-2.8771	-3.0187	-3.5625	-2.9708	-3.5062	-3.5208	88.354	280.782	204.555	140.547	9.847	-52.402	151.223	269.582	-12.896	237.350	-37.211	220.720	209.653	287.403	-38.301	289.128	0.00012484	0.00038225	4.6505e-05	168.83	4.8875e-06	2.4245e-06	342.47	55.987	5.6863e-06	3.8813e-06	134.64	53.531	21.567	10.003	5.7708e-06	27.676	0.0006162	0.00061856	0.00018428	219.07	6.9244e-06	6.8608e-06	372.01	69.087	6.9291e-06	6.8637e-06	157.74	58.505	28.902	12.167	7.3519e-06	29.479	261.422	-42.592	105.853	-47.199	19.462	281.576	-46.608	-41.540	71.039	184.246	-42.361	-37.778	-35.686	-31.314	156.007	-33.759	-8191	255	
7425.300	1	1	0	0	0.026751	0.045173	0.090423	0.32898	0.16461	0.051904	0.16435	0.092727	0.17901	0.037455	0.07491	0.26144	0.056951	0.17031	0.22048	0.20139	-2.1604	-3.3937	-2.7396	-3.0271	-3.6979	-2.8458	-3.4417	-3.4271	-2.6521	-3.3875	-3.0167	-2.8417	-3.625	-2.6542	-3.1792	-3.4083	129.184	104.637	133.087	-58.536	152.870	39.645	63.493	54.501	-32.720	228.276	42.917	110.860	96.640	216.604	4.373	255.482	4.0802e-05	0.00057703	5.0087e-05	166.62	2.5695e-06	3.0552e-06	345.23	55.61	5.0629e-06	5.9531e-06	133.07	52.761	21.513	9.9561	5.5042e-06	27.523	0.00061018	0.00063993	0.00018713	219.26	6.8521e-06	7.1292e-06	371.29	68.919	6.8128e-06	7.131e-06	156.92	57.967	28.638	12.253	7.1306e-06	29.268	218.747	117.922	3.406	-46.230	208.378	-59.570	-47.115	-41.688	30.974	-42.312	-42.039	-38.617	-36.519	-32.132	18.150	-34.426	-8191	255	
7425.396	1	1	0	0	0.17114	0.15087	0.26007	0.06594	0.10066	0.079262	0.093609	0.17738	0.19835	0.084209	0.14898	0.44613	0.099818	0.12766	0.25064	0.043356	-2.2625	-3.6229	-3.0958	-2.7042	-3.6125	-2.8417	-3.2083	-3.5563	-2.7146	-3.4313	-3.1562	-2.7604	-3.5417	-2.8146	-3.2125	-3.675	160.003	256.754	264.645	25.526	28.912	129.450	123.728	-36.078	147.061	80.932	265.926	277.854	233.768	-53.293	201.219	-1.737	6.7622e-05	0.00019501	7.6972e-05	167.09	1.7332e-06	4.5225e-06	347.09	56.287	6.6142e-06	3.378e-06	133.18	53.233	21.418	9.9185	5.4037e-06	27.531	0.00059456	0.00064977	0.0001839	217.46	6.666e-06	7.146e-06	370.46	68.792	6.6551e-06	7.2308e-06	157.04	58.027	28.736	12.333	7.2866e-06	29.366	287.288	75.044	57.831	-47.335	57.327	187.279	-47.458	-40.729	97.645	3.077	-42.611	-37.766	-35.727	-32.303	-19.063	-34.361	-8191	255	
7425.492	1	1	0	0	0.31147	0.25537	0.23889	0.12863	0.055428	0.31613	0.10226	0.11115	0.25925	0.15224	0.068558	0.19163	0.22685	0.10397	0.25049	0.19779	-2.3354	-3.3271	-3.2479	-2.8104	-3.7313	-3.0062	-3.075	-3.4583	-2.625	-3.3937	-3.3083	-2.6792	-3.3875	-3.1021	-2.9771	-3.7667	296.697	123.024	9.834	171.924	-51.564	72.377	55.478	-50.601	54.632	75.448	99.649	52.582	267.794	120.217	181.873	291.548	0.00010756	0.00046475	0.00025655	170.53	4.3552e-06	5.0552e-06	344.56	55.064	5.4785e-06	1.0358e-05	133.46	53.09	21.281	9.9759	4.874e-06	27.696	0.00061379	0.00067263	0.00018463	218.48	6.9783e-06	7.4222e-06	372.33	68.481	7.0594e-06	7.4176e-06	157.48	58.087	29.106	12.42	7.2605e-06	29.4	213.202	-15.480	51.371	-46.829	207.603	262.566	-46.995	-41.327	126.110	88.305	-42.563	-38.014	-36.201	-31.393	113.179	-34.027	-8191	255	
7425.588	1	1	0	0	0.058201	0.10739	0.23778	0.25094	0.17081	0.21943	0.13763	0.13931	0.18626	0.094265	0.22702	0.2148	0.12291	0.06476	0.20661	0.048122	-2.3563	-3.225	-3.5563	-2.8229	-3.575	-3.1729	-2.9104	-3.5042	-2.8354	-3.3646	-3.5104	-2.9125	-3.4375	-3.05	-2.7667	-3.6979	6.539	-15.210	128.092	135.174	245.866	-46.188	-4.355	254.809	73.968	123.491	-54.669	-9.559	-6.482	-45.899	38.238	80.360	0.00014992	0.00014887	1.6113e-05	168.17	2.9121e-06	1.1759e-05	343.83	55.662	4.6847e-06	2.3608e-06	132.97	53.092	21.422	9.9451	4.8307e-06	27.577	0.00063446	0.00066945	0.00018288	216.19	7.1843e-06	7.356e-06	370.56	68.15	7.1471e-06	7.3235e-06	156.74	57.657	29.346	12.356	7.1391e-06	29.279	280.699	265.356	140.757	-46.923	242.558	48.099	-46.315	-40.506	114.757	81.664	-42.131	-37.805	-35.709	-31.660	102.943	-33.954	-8191	255	
7425.684	1	1	0	0	0.10138	0.23588	0.18247	0.29276	0.13087	0.070043	0.14153	0.21633	0.093173	0.11455	0.14029	0.22999	0.065244	0.3858	0.11086	0.098809	-2.575	-3.1292	-3.4146	-2.6375	-3.375	-3.1375	-2.9854	-3.6146	-3.1	-3.0354	-3.6708	-2.7333	-3.4313	-3.2771	-2.8521	-3.8	279.460	83.632	167.719	90.160	276.066	209.236	-43.398	225.422	-56.189	172.106	193.344	102.463	242.320	161.440	11.256	254.866	0.0001566	0.00027711	8.7473e-05	166.13	7.0631e-06	6.8326e-06	341.38	55.083	5.815e-06	8.7363e-06	134.72	53.236	21.832	10.015	6.7025e-06	27.853	0.00065533	0.00066837	0.00018195	215.9	7.3694e-06	7.3217e-06	368.83	68.3	7.3264e-06	7.2511e-06	156.41	58.088	29.463	12.391	6.9041e-06	29.482	177.892	-52.657	245.638	-48.066	58.665	253.206	-47.249	-41.016	212.886	207.032	-42.806	-38.037	-36.010	-32.154	133.729	-34.138	-8191	255	
7425.781	1	1	0	0	0.31027	0.18393	0.12356	0.22878	0.16914	0.24244	0.12135	0.11991	0.29711	0.17755	0.23503	0.11183	0.30564	0.16182	0.2845	0.15758	-2.6312	-2.8	-3.5354	-2.8417	-3.4396	-3.6208	-2.8708	-3.5354	-3.2833	-2.8063	-3.6521	-2.9146	-3.3542	-3.5146	-2.7313	-3.4792	50.983	111.188	153.590	164.755	267.418	123.831	117.008	-41.804	148.086	86.018	256.328	239.770	242.867	-19.607	220.960	216.412	7.0473e-05	0.00057374	0.00010271	168.35	4.2714e-06	2.6412e-06	345.38	55.411	4.1039e-06	1.2314e-05	134.1	53.75	21.371	10.051	4.2541e-06	28.09	0.00065461	0.0006507	0.00017578	217.5	7.1976e-06	7.2063e-06	369.47	68.77	7.2968e-06	7.2183e-06	155.76	58.658	29.505	12.462	6.7922e-06	29.754	147.343	147.374	-10.660	-46.868	93.932	230.606	-47.614	-40.999	151.446	137.825	-42.389	-38.370	-35.688	-32.091	245.380	-34.439	-8191	255	
7425.877	1	1	0	0	0.10924	0.20795	0.22324	0.22964	0.24524	0.05689	0.31308	0.14219	0.11056	0.12554	0.32705	0.025404	0.13439	0.1157	0.087603	0.20255	-2.7771	-2.7458	-3.4062	-2.8208	-3.3771	-3.575	-2.9375	-3.4938	-3.2667	-2.7292	-3.6354	-2.7042	-2.9542	-3.4792	-2.6854	-3.4375	-8.636	199.223	111.426	142.520	155.491	273.965	244.752	156.670	92.193	-55.372	285.753	234.690	-8.970	72.322	254.959	224.490	8.252e-05	0.00059765	0.00020285	171.5	2.8694e-06	5.5484e-06	343.67	56.104	7.3079e-06	4.87e-06	133.86	53.381	21.539	10.042	1.226e-06	28.006	0.00065226	0.00064519	0.00017253	219.91	7.1613e-06	7.1553e-06	369.1	69.369	7.1885e-06	7.0619e-06	155.77	58.874	29.289	12.34	6.8242e-06	29.781	199.570	117.522	297.492	-46.838	232.435	-19.234	-47.008	-41.123	29.432	57.471	-42.532	-37.717	-36.262	-32.425	112.299	-33.897	-8191	255	
7425.996	1	1	0	0	0.096073	0.07104	0.038931	0.17749	0.17001	0.052654	0.091791	0.15494	0.14963	0.067811	0.1819	0.12502	0.21673	0.26236	0.19727	0.2	-2.7958	-2.8563	-3.6146	-2.8167	-3.0271	-3.6125	-2.7687	-3.4188	-3.3354	-3.0062	-3.6833	-3.1562	-2.9667	-3.6333	-2.7167	-3.5292	71.715	283.272	-42.381	-18.684	-0.982	187.084	112.270	279.642	280.718	293.170	188.875	250.108	273.086	278.047	196.768	170.553	2.2342e-05	4.5325e-05	0.0001165	168.47	1.0276e-05	4.0753e-06	345.59	56.361	3.8216e-06	1.9322e-06	133.39	52.962	21.546	10.028	5.4508e-06	27.831	0.00063988	0.00063065	0.00017329	221.08	7.1182e-06	6.9026e-06	370.5	69.432	7.1564e-06	6.8154e-06	155.9	58.213	29.058	12.169	6.8204e-06	29.583	0.376	289.486	220.361	-47.173	-2.947	40.391	-46.856	-40.647	-51.983	256.924	-42.552	-37.779	-35.392	-31.899	249.554	-33.836	-8191	255	
7426.092	1	1	0	0	0.10919	0.20114	0.088792	0.18038	0.044786	0.21596	0.12089	0.15654	0.20723	0.086877	0.26985	0.262	0.039857	0.066649	0.14367	0.14152	-3.0896	-2.7083	-3.4958	-2.9917	-2.8771	-3.6729	-2.8896	-3.1	-3.3479	-2.6875	-3.5896	-3.2562	-2.9854	-3.5167	-2.8708	-3.1104	20.173	287.296	132.714	115.374	34.719	42.537	195.887	226.664	100.124	217.787	285.979	151.334	66.628	300.871	-31.633	-28.698	3.122e-05	0.00036411	8.0562e-05	168.3	5.0645e-06	3.0735e-06	345.77	56.176	3.0304e-06	2.3653e-06	130.83	53.471	21.677	10.108	3.2575e-06	28.335	0.000614	0.00059808	0.0001725	216.92	6.7358e-06	6.4722e-06	369.19	68.401	6.6464e-06	6.2941e-06	154.39	58.033	28.377	12.11	6.7195e-06	29.689	293.322	14.153	2.823	-46.298	90.586	-11.912	-47.010	-40.841	-51.560	12.642	-42.556	-37.709	-36.883	-31.552	106.454	-33.372	-8191	255	
7426.188	1	1	0	0	0.17787	0.1914	0.11685	0.11168	0.20297	0.21802	0.1197	0.1439	0.059644	0.25762	0.089851	0.11029	0.29631	0.14395	0.104	0.15467	-3.2125	-2.6146	-3.4896	-3.375	-2.9167	-3.7792	-2.9313	-3.0604	-3.5208	-2.7458	-3.3979	-3.3146	-2.7458	-3.4896	-3.0229	-3.1479	178.102	111.101	301.261	181.628	70.202	216.655	290.536	271.473	279.718	-13.145	34.172	101.340	103.646	256.691	260.345	-31.354	0.00011298	0.0003482	0.00010357	166.56	2.3072e-06	3.0104e-06	348.55	56.528	4.519e-06	4.465e-06	134.48	53.288	21.752	10.241	7.3045e-06	28.348	0.00058437	0.00057158	0.00017075	214	6.3877e-06	6.2082e-06	372.3	68.237	6.4576e-06	6.285e-06	156.64	57.982	28.396	12.226	6.7817e-06	29.644	211.582	35.263	11.444	-47.207	105.303	92.779	-46.959	-40.711	115.852	207.821	-41.831	-37.658	-36.415	-31.240	171.170	-33.615	-8191	255	
7426.284	1	1	0	0	0.041967	0.13575	0.10109	0.095655	0.26618	0.17114	0.11192	0.12661	0.17421	0.2651	0.010665	0.25257	0.46951	0.086014	0.056201	0.22903	-3.2729	-2.7938	-3.2104	-3.3375	-2.7229	-3.6771	-3.0812	-2.925	-3.5875	-2.8479	-3.2938	-3.3688	-2.5646	-3.7083	-2.9833	-2.9458	240.333	52.474	184.234	273.601	259.306	-20.097	140.693	293.911	221.190	80.736	265.053	159.569	186.098	251.415	118.835	8.133	5.1144e-05	0.00049985	0.00013084	169.19	1.0633e-05	3.7612e-06	351.41	56.727	6.2281e-06	3.6047e-06	136.64	53.041	21.354	10.113	7.3764e-06	27.881	0.00056557	0.00057632	0.00017114	214.76	6.2592e-06	6.3793e-06	373.12	68.147	6.1916e-06	6.3992e-06	155.84	57.498	27.785	12.142	6.6329e-06	29.305	-4.554	245.318	275.308	-47.189	84.226	231.943	-46.815	-40.123	108.460	162.464	-42.141	-37.933	-34.816	-30.626	128.623	-33.880	-8191	255	
7426.380	1	1	0	0	0.31159	0.10619	0.087556	0.14418	0.27138	0.070154	0.047916	0.19186	0.083307	0.22132	0.098632	0.16654	0.2724	0.18159	0.063762	0.11517	-3.1917	-2.5833	-3.2667	-3.4042	-2.6646	-3.5667	-3.3875	-2.8729	-3.8396	-3.0354	-3.1125	-3.6063	-2.6979	-3.475	-3.2458	-2.8458	-8.529	30.921	227.139	153.654	-55.998	145.289	286.673	-34.311	42.898	-47.412	189.883	140.422	183.314	161.637	251.055	129.814	0.00014473	0.00047157	5.7259e-05	167.59	5.9413e-06	2.3535e-06	348.96	56.317	4.92e-06	8.3161e-06	135.03	52.474	21.481	10.266	1.4951e-06	27.958	0.00054777	0.00059097	0.00016867	213.27	6.0616e-06	6.4473e-06	369.52	67.319	6.0839e-06	6.4904e-06	154.77	57.017	27.603	12.167	6.5015e-06	29.186	231.294	211.839	104.295	-47.645	92.338	125.760	-46.468	-40.455	134.306	227.828	-42.036	-37.483	-35.121	-31.321	58.301	-33.375	-8191	255	
7426.476	1	1	0	0	0.30967	0.19913	0.087106	0.099556	0.12351	0.18197	0.22548	0.042761	0.074982	0.21377	0.20958	0.3236	0.19269	0.081308	0.2124	0.05864	-3.3792	-2.8958	-2.9896	-3.6292	-2.7479	-3.2646	-3.1833	-2.6146	-3.6354	-2.9938	-2.8625	-3.6125	-2.75	-3.4375	-3.2625	-2.6437	71.946	261.084	-4.823	219.899	188.549	268.160	267.044	287.029	221.157	269.973	265.721	209.898	299.518	33.020	203.209	239.152	9.8905e-05	0.00067682	0.00015647	169.29	9.2961e-07	5.3717e-06	348.1	56.194	3.8162e-06	3.7628e-06	134.28	53.285	21.549	10.2	9.6526e-07	27.988	0.00054115	0.00059387	0.00016378	211.62	6.0822e-06	6.5053e-06	370.4	66.894	6.1071e-06	6.5584e-06	154.59	57.194	28.023	12.269	6.5032e-06	29.25	245.142	-12.437	94.969	-46.640	121.780	161.647	-46.702	-40.710	242.210	293.137	-41.883	-37.395	-35.685	-30.945	96.556	-33.209	-8191	255	
7426.597	1	1	0	0	0.20485	0.11191	0.34484	0.15845	0.10117	0.042413	0.18799	0.19325	0.063484	0.10002	0.13065	0.092724	0.042118	0.090811	0.029711	0.25603	-3.0625	-2.9458	-2.9542	-3.7708	-2.8729	-3.2958	-3.2646	-2.6021	-3.5312	-3.2812	-2.8542	-3.6458	-2.8438	-3.3333	-3.4437	-2.6104	-27.680	-51.193	-41.074	261.270	203.506	155.669	237.598	-34.528	174.613	122.434	8.136	279.427	-12.361	7.581	148.178	273.447	0.0001652	4.9851e-05	5.7023e-05	170.05	7.8902e-06	4.2594e-06	352.31	56.498	3.7616e-06	9.2936e-06	136.55	54.093	21.615	10.17	7.355e-06	27.869	0.00056529	0.00059966	0.00016333	211.86	6.3585e-06	6.5747e-06	372.63	66.932	6.4274e-06	6.5925e-06	155.48	57.523	28.387	12.237	6.4766e-06	29.121	247.350	63.027	160.075	-46.306	54.264	-1.032	-46.689	-40.731	201.121	186.668	-42.111	-37.959	-35.526	-30.838	-3.548	-33.680	-8191	255	
7426.691	1	1	0	0	0.32752	0.063789	0.27363	0.20044	0.11557	0.11457	0.36262	0.36359	0.081533	0.1769	0.04124	0.19386	0.15171	0.21616	0.1684	0.43102	-3.1125	-3.3375	-2.8083	-3.6125	-2.9146	-3.0417	-3.4062	-2.9437	-3.6417	-3.4292	-2.8146	-3.7167	-3.0125	-2.9917	-3.4104	-2.7479	-38.178	64.224	181.961	150.171	-22.052	8.999	221.308	214.287	149.709	13.648	291.184	258.281	73.484	5.600	-23.267	233.445	0.00014473	0.00031788	0.00010139	169.48	5.9993e-06	9.5703e-06	349.52	56.534	7.3573e-07	1.1992e-06	135.11	53.662	21.954	10.182	5.2046e-06	27.913	0.00057313	0.00059143	0.00016115	211.01	6.4992e-06	6.4782e-06	369.47	66.839	6.4602e-06	6.5258e-06	154.11	57.343	28.698	12.214	6.3499e-06	29.118	244.095	106.211	-20.532	-46.516	-31.491	187.141	-46.829	-40.465	220.323	250.934	-42.783	-37.336	-34.764	-31.838	115.320	-33.559	-8191	255	
7426.787	1	1	0	0	0.21971	0.080461	0.16947	0.14975	0.32306	0.051933	0.12866	0.16561	0.11608	0.18533	0.16008	0.1704	0.16063	0.15987	0.1356	0.094612	-3.0146	-3.3708	-2.7771	-3.6063	-2.8958	-2.9625	-3.6	-2.7479	-3.3396	-3.2833	-2.7687	-3.5583	-3.2062	-2.9396	-3.7062	-2.9917	243.418	114.360	243.208	160.948	296.633	176.550	183.102	260.776	184.261	218.092	-30.394	49.199	242.888	264.623	114.470	10.644	0.00012521	0.00072064	8.4941e-05	170.75	5.2875e-06	5.7679e-06	348.53	56.045	6.7249e-06	1.6055e-06	135.76	53.66	21.759	10.26	5.0968e-07	28.08	0.00058909	0.0005957	0.00015921	213.04	6.5574e-06	6.5094e-06	368.71	67.673	6.6101e-06	6.5391e-06	153.84	57.702	28.722	12.224	6.3408e-06	29.402	187.052	-43.631	75.740	-46.013	121.686	13.205	-46.427	-40.074	77.633	11.400	-42.406	-37.701	-35.597	-31.450	79.994	-34.023	-8191	255	
7426.861	1	1	0	0	0.09487	0.085434	0.1378	0.12241	0.26604	0.030127	0.092074	0.2118	0.20119	0.065048	0.18193	0.083415	0.054309	0.2079	0.085408	0.21189	-2.8208	-3.3208	-2.7104	-3.8646	-3.2458	-2.9667	-3.7687	-2.8083	-3.1667	-3.5792	-2.8208	-3.6625	-3.3167	-2.8125	-3.475	-2.9437	125.075	90.025	74.826	66.922	297.964	162.102	-54.436	224.226	-48.230	95.254	233.703	-41.262	-13.447	-38.671	265.373	150.739	0.00021935	0.00024713	3.0244e-05	171.12	1.2267e-06	4.4108e-06	350.49	56.193	3.8796e-06	1.0215e-05	133.54	53.398	22.131	10.015	5.5257e-06	27.895	0.00060343	0.00060989	0.00016095	217.08	6.7557e-06	6.5943e-06	369.52	68.495	6.7501e-06	6.7608e-06	154.89	58.388	29.18	12.221	6.4465e-06	29.549	252.546	-7.849	291.986	-46.325	208.616	-54.246	-46.824	-40.290	68.621	109.410	-41.948	-37.330	-35.860	-31.205	286.651	-32.911	-8191	255	
7426.980	1	1	0	0	0.29866	0.022801	0.12004	0.1093	0.20311	0.18283	0.13272	0.068986	0.17904	0.26293	0.034424	0.14745	0.1341	0.013201	0.062834	0.13996	-2.7667	-3.5563	-2.8688	-3.4167	-3.3208	-2.6292	-3.5208	-2.9729	-3.1021	-3.6562	-2.7708	-3.3708	-3.1875	-2.8729	-3.6063	-2.8729	150.860	253.897	214.742	49.271	-36.148	179.513	181.655	148.281	31.982	193.312	88.725	260.210	-22.746	198.215	229.015	70.575	9.7612e-05	0.00079848	0.00019419	171.79	1.1079e-06	1.2911e-06	348.23	56.542	2.3949e-06	2.9088e-06	135.16	53.769	21.71	10.171	6.8596e-06	27.889	0.00060788	0.00061349	0.00016607	219.81	6.9009e-06	6.6431e-06	371.73	69.471	6.8284e-06	6.6489e-06	155.36	58.812	29.146	12.174	6.6741e-06	29.495	146.726	182.442	78.429	-46.434	43.818	-10.966	-46.620	-39.830	46.465	-9.722	-42.077	-37.493	-35.201	-31.511	213.892	-33.995	-8191	255	
7427.076	1	1	0	0	0.054702	0.27241	0.12574	0.36036	0.14434	0.067482	0.04731	0.075825	0.11084	0.057002	0.16003	0.28108	0.18091	0.072711	0.22747	0.13953	-2.4792	-3.2521	-2.8208	-3.4104	-3.2562	-2.8417	-3.6229	-2.95	-2.875	-3.7271	-3.0042	-3.3125	-3.2583	-2.6021	-3.4375	-3.3354	194.388	188.272	145.760	270.155	113.678	37.043	27.927	-24.808	-38.338	244.690	199.624	165.574	276.891	122.736	94.835	-3.603	9.709e-05	0.00078363	0.00026149	169.92	4.2805e-06	1.6006e-06	347.52	55.782	1.8152e-06	1.1248e-05	133.25	53.246	21.365	10.026	3.3405e-06	27.563	0.00061341	0.00061062	0.00017125	219.34	6.9323e-06	6.5533e-06	369.91	68.884	6.8975e-06	6.6244e-06	155.71	58.177	29.222	12.098	7.027e-06	29.417	177.534	248.444	205.177	-48.735	138.317	145.692	-48.196	-42.772	251.753	62.911	-44.002	-38.987	-36.980	-32.825	224.361	-35.373	-8191	255	
7427.172	1	1	0	0	0.24544	0.11231	0.14962	0.15642	0.16957	0.24147	0.088783	0.11044	0.1586	0.10681	0.016132	0.13129	0.071523	0.16442	0.24386	0.087683	-2.6063	-3.5792	-2.825	-3.2271	-3.5229	-2.6667	-3.5646	-3.2104	-2.9	-3.7771	-2.8667	-3.0708	-3.3958	-2.5312	-3.4062	-3.2062	-12.587	244.394	23.797	-23.438	68.533	178.735	222.993	209.562	288.443	192.567	296.213	-36.396	238.579	271.960	187.706	178.935	0.00012877	0.00077587	9.3652e-05	170.79	8.4915e-06	8.2964e-06	342.48	56.105	4.4194e-06	5.3752e-06	133.31	53.527	21.682	9.9458	1.2404e-05	27.82	0.00061744	0.00060899	0.00018037	219.26	6.9755e-06	6.6507e-06	371.67	69.301	7.0062e-06	6.7564e-06	157.37	58.688	29.346	12.189	7.337e-06	29.663	213.462	198.494	-17.839	-47.774	-51.563	59.115	-48.108	-42.441	121.104	227.598	-43.784	-39.228	-37.630	-32.220	166.395	-35.644	-8191	255	
7427.268	1	1	0	0	0.043677	0.21259	0.32173	0.065424	0.045605	0.075515	0.053701	0.2991	0.014542	0.15382	0.27403	0.052368	0.18659	0.079253	0.052533	0.15743	-2.4667	-3.5	-3.175	-3.0833	-3.7292	-2.6417	-3.3812	-3.2979	-2.5604	-3.4667	-2.8583	-2.8625	-3.6104	-2.8604	-3.55	-3.45	26.678	135.885	267.245	195.132	114.192	33.004	-60.224	196.012	64.885	24.412	203.529	110.021	232.933	158.109	15.745	30.342	3.3972e-05	0.00029244	0.00016992	170.05	8.3277e-06	7.0609e-06	342.63	57.103	4.3897e-06	7.2871e-06	134.12	53.512	22.299	10.03	2.5111e-06	27.772	0.00062692	0.00063002	0.00018952	221.82	6.9851e-06	6.9774e-06	373.29	69.768	6.8717e-06	7.0397e-06	158.65	58.85	29.474	12.389	7.481e-06	29.726	53.884	68.860	123.859	-48.170	62.361	185.042	-48.146	-42.479	-25.499	194.649	-43.593	-38.918	-37.118	-32.667	137.705	-35.162	-8191	255	
7427.389	1	1	0	0	0.17691	0.086125	0.15926	0.23105	0.13136	0.29987	0.12597	0.26614	0.065025	0.089546	0.15278	0.15415	0.23644	0.16565	0.099043	0.1022	-2.1833	-3.5	-3.0583	-2.8333	-3.7104	-3.0208	-3.3167	-3.4729	-2.6688	-3.5229	-3.0792	-2.6625	-3.6458	-2.8458	-3.2583	-3.55	266.974	-32.426	284.997	117.705	263.608	132.640	208.228	50.752	156.354	184.674	152.410	5.373	258.133	275.441	-38.496	101.782	0.00014252	0.00070698	2.6489e-05	171.02	2.0988e-07	4.5314e-06	347.79	55.748	2.7732e-06	3.9099e-06	133.43	53.241	21.487	9.8785	3.7338e-06	27.198	0.00061421	0.00065557	0.00019094	222.59	6.9457e-06	7.3323e-06	374.74	69.833	6.9911e-06	7.4175e-06	159.08	58.787	29.229	12.485	7.6211e-06	29.408	166.752	27.772	-31.933	-48.508	126.874	166.378	-48.309	-41.916	171.143	-6.942	-43.355	-38.957	-36.928	-33.150	266.456	-35.204	-8191	255	
7427.461	1	1	0	0	0.10695	0.12344	0.12709	0.10203	0.10256	0.24357	0.053186	0.083873	0.2063	0.27596	0.084798	0.11519	0.21544	0.056234	0.2171	0.075982	-2.4146	-3.4375	-3.1	-2.6854	-3.6375	-2.8875	-3.0854	-3.4521	-2.775	-3.4792	-3.4437	-2.7375	-3.5271	-2.8063	-3.1083	-3.4875	76.860	299.192	5.718	269.220	169.288	9.881	172.952	135.002	78.493	26.768	185.965	269.795	-9.231	10.373	132.474	101.336	0.00014501	0.00082445	7.6658e-05	168.5	5.3173e-06	8.5544e-06	339.37	55.643	3.5365e-06	3.4629e-06	132.84	52.833	21.727	9.7896	8.5372e-06	27.3	0.00063581	0.00070724	0.0001972	222.72	7.2486e-06	7.7615e-06	370.6	69.898	7.2697e-06	7.8332e-06	158.91	58.397	29.472	12.471	7.6817e-06	29.419	179.411	245.870	56.416	-48.501	190.358	-2.412	-47.835	-41.984	253.729	139.642	-43.865	-39.372	-36.844	-32.342	148.294	-34.911	-8191	255	
7427.557	1	1	0	0	0.17305	0.080918	0.04241	0.033623	0.032912	0.20498	0.1813	0.095731	0.084884	0.097895	0.21865	0.19648	0.14913	0.18131	0.041686	0.20814	-2.2979	-3.3125	-3.3	-2.7979	-3.6375	-3.1458	-3.0667	-3.4729	-2.8146	-3.1792	-3.425	-2.8438	-3.6625	-3.0458	-2.8708	-3.7333	170.497	-40.754	297.179	238.004	202.973	12.349	140.439	-49.301	11.559	-37.775	-36.649	6.275	99.540	290.914	201.636	98.571	0.0002032	0.0006644	5.6346e-05	168.1	6.3693e-06	5.5487e-06	342.27	56.463	3.6236e-06	1.181e-05	131.4	53.263	22.377	10.132	1.1944e-05	27.753	0.00065542	0.00070421	0.00019368	220.38	7.3424e-06	7.7114e-06	372.25	69.14	7.3774e-06	7.6913e-06	158.82	58.586	30.062	12.579	7.5509e-06	29.526	236.207	258.368	235.686	-48.074	174.540	-53.403	-48.047	-41.966	20.260	59.712	-43.432	-39.075	-37.280	-32.908	110.327	-35.148	-8191	255	
7427.677	1	1	0	0	0.075824	0.15525	0.060018	0.22589	0.15319	0.17209	0.21392	0.23546	0.21165	0.064241	0.15632	0.17817	0.20628	0.1468	0.12419	0.075285	-2.4417	-3.4104	-3.6042	-2.5375	-3.4979	-3.0646	-2.6583	-3.6312	-2.7667	-3.2062	-3.3771	-2.8583	-3.4437	-3.1458	-2.7417	-3.4562	201.151	254.330	180.201	1.201	94.301	104.567	190.306	87.648	47.508	104.475	-8.504	113.307	290.982	-15.649	-24.431	188.504	0.00023087	0.00054094	0.00013072	168.36	2.6252e-06	1.9913e-06	342.93	56.77	2.4322e-06	3.1707e-06	132.7	53.187	21.965	9.9871	5.6817e-06	27.583	0.00066739	0.00069371	0.00019254	218.38	7.4905e-06	7.591e-06	369.97	69.292	7.4879e-06	7.5561e-06	157.81	58.357	30.076	12.518	7.4586e-06	29.474	286.680	97.454	-37.961	-48.038	188.248	109.051	-47.702	-41.729	257.877	9.259	-43.245	-38.503	-36.831	-32.731	21.436	-35.364	-8191	255	
7427.772	1	1	0	0	0.2651	0.039575	0.12355	0.1449	0.0763	0.1103	0.28886	0.22834	0.13927	0.28827	0.13562	0.11385	0.050029	0.18804	0.21665	0.21411	-2.2854	-3.0229	-3.6937	-2.9208	-3.4125	-3.1646	-2.6125	-3.5917	-2.8187	-2.9458	-3.8063	-2.7896	-3.175	-3.3792	-2.6521	-3.4792	-2.913	137.778	224.314	208.243	-0.540	140.698	207.952	219.437	69.544	281.485	278.452	-27.349	-48.006	256.518	10.544	235.731	0.00014269	0.00061633	0.00014222	168.72	4.6036e-06	4.65e-06	336.78	55.781	3.6883e-06	9.6157e-06	130.8	52.139	21.512	9.7414	3.3886e-06	27.184	0.0006801	0.00069242	0.00018863	219.72	7.6885e-06	7.6257e-06	367.72	69.3	7.8849e-06	7.8083e-06	157.16	58.487	30.311	12.512	7.579e-06	29.389	209.688	82.080	-32.167	-47.324	114.282	-46.759	-47.470	-40.901	28.393	290.291	-43.186	-38.359	-35.414	-32.140	22.899	-34.709	-8191	255	
7427.870	1	1	0	0	0.15899	0.037275	0.1785	0.29305	0.092912	0.18282	0.1183	0.14257	0.13641	0.038175	0.20658	0.099657	0.2488	0.12269	0.29281	0.26095	-2.5167	-2.7708	-3.6708	-2.6396	-3.4146	-3.4625	-2.6688	-3.8	-3.2771	-2.9521	-3.725	-2.975	-3.3229	-3.55	-2.7667	-3.5375	75.569	-33.033	-58.662	270.533	172.142	-19.839	84.260	178.521	153.463	152.548	-58.323	215.924	161.472	-5.208	10.002	140.045	5.7687e-05	0.0005079	6.817e-05	166.09	4.0849e-06	3.242e-06	337.93	55.436	2.295e-06	7.8377e-07	131.05	52.303	21.405	9.7905	5.8e-06	26.953	0.00072253	0.00072924	0.00019521	224.46	8.091e-06	8.0843e-06	366.97	70.78	8.1642e-06	8.0829e-06	157.15	59.008	30.545	12.578	7.7391e-06	29.734	84.558	257.332	55.683	-48.162	0.033	49.525	-47.788	-41.024	132.196	78.022	-43.158	-38.957	-36.677	-32.148	270.479	-34.368	-8191	255	
7427.988	1	1	0	0	0.18446	0.16435	0.10301	0.36692	0.14451	0.17853	0.14022	0.33669	0.099604	0.12453	0.20441	0.23241	0.19188	0.21702	0.17696	0.1621	-2.7021	-2.7646	-3.3875	-2.7687	-2.9333	-3.5896	-2.8271	-3.475	-3.2313	-2.6875	-3.5229	-2.9479	-2.8438	-3.3229	-2.6771	-3.3396	237.872	-21.518	216.429	52.092	247.686	97.311	96.317	-58.565	224.429	166.643	-54.853	73.801	6.048	100.837	158.152	219.890	0.0001879	0.00057863	6.394e-05	169.6	4.9244e-06	3.3719e-06	335.03	54.721	6.7184e-06	4.2174e-06	129.52	53.613	21.756	9.6612	3.3658e-06	27.109	0.00074061	0.00075015	0.00020262	229.56	8.4921e-06	8.3633e-06	369.92	71.804	8.6924e-06	8.507e-06	160.38	60.415	31.484	12.768	8.5424e-06	30.193	243.388	149.402	257.089	-47.934	13.653	41.919	-47.909	-40.683	167.983	-9.516	-42.816	-38.521	-36.605	-32.631	82.486	-33.913	-8191	255	
7428.085	1	1	0	0	0.10627	0.40029	0.1141	0.1451	0.31083	0.16207	0.33064	0.20651	0.10513	0.074671	0.39314	0.18731	0.14861	0.33224	0.18402	0.12714	-2.8042	-2.6896	-3.4229	-2.8854	-3.0854	-3.65	-2.7792	-3.3292	-3.1896	-2.6167	-3.5083	-2.8833	-2.9958	-3.6125	-2.7417	-3.2979	104.665	27.082	88.813	183.007	-35.325	152.388	291.530	203.146	18.424	202.477	291.609	183.768	262.490	207.741	107.542	-51.884	8.0592e-05	0.00081737	0.00011949	165.57	1.1005e-05	9.5506e-06	332.73	54.617	9.0247e-06	2.8636e-06	130.94	52.759	21.511	9.5791	2.6885e-06	26.866	0.00081054	0.00080811	0.00022608	237.28	9.2018e-06	9.1039e-06	376.39	73.603	9.6037e-06	9.1499e-06	166.22	61.401	32.444	12.88	9.598e-06	30.439	231.448	78.398	190.525	-47.718	209.232	89.265	-48.231	-41.248	27.769	121.797	-43.130	-38.579	-36.580	-31.905	141.799	-34.282	-8191	255	
7428.156	1	1	0	0	0.18419	0.32561	0.12167	0.094891	0.096414	0.16067	0.17575	0.10874	0.094765	0.22847	0.09054	0.17475	0.11742	0.087041	0.059166	0.2404	-2.8667	-2.5167	-3.3563	-3.025	-2.9562	-3.6521	-2.975	-3.3021	-3.4562	-2.6896	-3.4333	-3.0833	-2.6583	-3.6521	-2.8917	-3.2667	-28.577	202.756	106.867	146.745	16.807	168.213	280.935	187.538	253.621	247.555	159.448	-54.235	94.131	216.977	127.867	282.829	5.1192e-05	0.00058023	0.00023666	167.59	7.601e-06	1.1754e-05	334.63	55.004	6.1797e-06	3.4008e-06	131.07	53.125	21.647	9.8329	8.0616e-06	27.444	0.00087439	0.00083777	0.00024766	242.53	9.6768e-06	9.281e-06	381.07	74.736	9.7571e-06	9.2038e-06	168.05	61.584	32.483	12.909	9.6331e-06	30.611	223.270	-8.068	-16.983	-47.484	160.199	130.095	-47.516	-42.435	-53.282	283.275	-44.070	-38.674	-36.439	-32.227	108.163	-34.439	-8191	255	
7428.252	1	1	0	0	0.29008	0.11715	0.23062	0.28168	0.19809	0.24427	0.21996	0.26526	0.10045	0.082879	0.086545	0.21744	0.33191	0.02427	0.088313	0.18558	-3.0833	-2.7479	-3.0458	-3.1771	-2.6813	-3.6958	-3.0146	-2.9104	-3.4292	-2.7021	-3.4271	-3.3542	-2.8479	-3.6729	-3.0438	-2.7125	2.581	288.841	148.489	65.384	236.860	-0.445	267.165	110.905	282.600	203.041	114.221	60.124	107.123	183.559	205.177	254.375	4.928e-05	0.00083795	0.00014794	166.57	4.1176e-06	5.987e-06	334.37	55.562	6.5821e-06	2.1117e-06	131.95	52.966	21.894	9.7265	5.5288e-06	27.627	0.00082914	0.00080273	0.00024143	236.75	8.8831e-06	8.6352e-06	377.64	73.182	8.7527e-06	8.5984e-06	166.14	60.95	31.248	12.827	9.0242e-06	30.49	281.088	209.844	11.402	-47.032	93.304	194.066	-47.466	-41.095	59.652	-35.911	-42.806	-38.433	-37.101	-31.505	0.274	-34.703	-8191	255	
7428.373	1	1	0	0	0.096025	0.045147	0.017396	0.28284	0.206	0.098215	0.16706	0.24955	0.18462	0.13375	0.15271	0.003937	0.18031	0.093736	0.28082	0.10305	-3.175	-2.8479	-3.2021	-3.3917	-2.8396	-3.5938	-3.0708	-2.975	-3.4625	-2.9729	-3.5	-3.5687	-2.7979	-3.5	-3.1729	-2.7417	261.210	122.616	22.699	149.945	87.651	2.410	254.355	-16.485	173.584	63.464	228.611	60.625	249.263	107.549	118.448	278.275	0.00014296	0.00061428	0.00011381	170.3	9.4922e-06	5.4547e-06	340.94	55.56	2.271e-06	7.7803e-06	133.76	53.663	21.72	9.8233	1.0999e-05	27.435	0.00075526	0.0007775	0.00022559	233.39	8.1433e-06	8.4926e-06	378.49	72.262	8.0707e-06	8.4309e-06	164.34	60.772	30.597	12.786	8.7481e-06	30.26	-35.919	153.045	18.081	-47.500	37.384	296.728	-47.037	-40.843	260.098	107.667	-43.296	-38.322	-37.060	-32.726	51.266	-34.746	-8191	255	
7428.469	1	1	0	0	0.080276	0.070364	0.095021	0.25279	0.26469	0.085607	0.10123	0.23414	0.17726	0.32043	0.14365	0.2143	0.36364	0.028499	0.0045903	0.038277	-3.1167	-2.8583	-3.275	-3.6104	-2.8063	-3.4396	-3.2438	-2.6604	-3.4667	-2.7792	-3.0333	-3.3937	-2.6375	-3.4583	-3.3438	-2.7458	140.584	164.715	207.925	-53.724	64.392	118.653	189.241	183.725	-5.514	168.139	106.203	286.252	255.170	234.393	166.064	92.047	0.00011746	0.00057964	0.00023779	164.86	3.8544e-07	9.371e-06	338.31	55.378	3.5613e-06	3.4166e-06	132.05	52.63	21.819	9.7726	1.093e-06	27.351	0.00072626	0.00079189	0.00022333	231.43	8.071e-06	8.669e-06	377.22	72.091	8.1672e-06	8.7935e-06	163.23	60.069	30.883	12.899	8.8993e-06	29.958	282.363	38.127	6.500	-47.365	125.608	299.964	-47.814	-41.488	-43.255	118.661	-42.929	-38.353	-36.077	-32.738	236.623	-34.650	-8191	255	
7428.565	1	1	0	0	0.21893	0.21552	0.3145	0.0818	0.087894	0.071892	0.029078	0.21685	0.15029	0.16047	0.12115	0.08914	0.034348	0.068908	0.23647	0.12537	-3.3833	-3.0771	-2.9917	-3.55	-2.7396	-3.3312	-3.3083	-2.8	-3.4938	-3.0792	-2.9542	-3.6	-2.5958	-3.3125	-3.2333	-2.6771	14.012	190.472	-45.159	69.148	64.677	-14.659	82.761	282.580	39.469	197.818	255.753	-30.317	239.260	-31.109	175.676	292.519	0.00026164	0.0002158	3.7958e-05	169.27	5.1807e-06	5.0133e-06	335.32	55.15	6.108e-06	9.8577e-06	130.29	53.031	21.752	9.7352	4.3041e-06	27.376	0.00074302	0.00081425	0.00022433	230.86	8.4063e-06	8.9538e-06	377.47	71.649	8.5813e-06	9.1699e-06	164.54	60.122	31.432	12.966	9.0366e-06	30.075	197.085	244.676	64.586	-48.602	116.963	30.529	-48.020	-41.467	143.131	23.067	-42.975	-38.763	-36.971	-33.269	90.973	-34.849	-8191	255	
7428.684	1	1	0	0	0.20659	0.12397	0.10757	0.12646	0.16893	0.099879	0.1325	0.2639	0.13824	0.26695	0.3186	0.050617	0.27381	0.045042	0.12445	0.12214	-3.1896	-3.2146	-2.7708	-3.7292	-2.8792	-3.2708	-3.4604	-2.5479	-3.3958	-3.0646	-2.7375	-3.6813	-2.9875	-3.1979	-3.5125	-2.6042	252.510	90.442	139.264	52.754	-33.441	259.554	178.711	217.953	59.599	176.228	-48.814	211.038	286.756	109.160	259.473	218.315	0.00016085	0.00053202	0.0001221	168.29	2.7301e-06	5.5738e-06	338.81	55.322	4.7813e-06	5.207e-06	132.27	53.409	21.992	9.8518	4.9574e-06	27.821	0.00078297	0.00083957	0.00022963	231.37	8.8947e-06	9.2691e-06	380.22	72.06	9.0571e-06	9.3266e-06	166.36	60.78	32.371	13.165	9.2092e-06	30.39	168.508	18.915	2.274	-47.700	67.890	127.687	-47.612	-40.911	31.908	246.082	-42.800	-38.473	-35.777	-32.081	111.184	-34.878	-8191	255	
7428.758	1	1	0	0	0.14009	0.10997	0.22322	0.10619	0.19323	0.17944	0.086096	0.34332	0.10705	0.08904	0.13876	0.16899	0.2166	0.30062	0.019506	0.26058	-2.9188	-3.2083	-2.7042	-3.6188	-2.9021	-3.1188	-3.6521	-2.4688	-3.3229	-3.1729	-2.6063	-3.4125	-2.8021	-2.9958	-3.7167	-2.6604	247.886	168.191	34.838	175.975	278.429	268.955	203.920	264.337	-47.945	233.432	107.432	65.140	107.916	15.888	70.282	207.033	0.00013264	0.00082756	0.00025283	167.22	1.3885e-06	5.9665e-06	342.12	55.743	7.1557e-06	6.1327e-06	132.6	53.308	21.473	9.8538	1.0436e-06	27.192	0.00082374	0.00084906	0.00023083	232.65	9.2554e-06	9.2154e-06	379.14	72.293	9.2522e-06	9.3163e-06	164.64	60.596	32.348	13.074	9.0416e-06	30.332	202.312	32.179	4.830	-47.543	144.164	107.096	-47.268	-41.583	189.378	218.437	-43.315	-38.830	-36.249	-32.870	63.088	-35.281	-8191	255	
7428.852	1	1	0	0	0.10291	0.26567	0.038548	0.26345	0.15174	0.056374	0.17589	0.21595	0.16601	0.13372	0.057506	0.025436	0.031552	0.17815	0.070926	0.12215	-2.9125	-3.1708	-2.7062	-3.4771	-2.9583	-2.9354	-3.5667	-2.7104	-3.3229	-3.3146	-2.5625	-3.4604	-3.0583	-2.8771	-3.5917	-2.9313	156.656	156.916	25.156	225.820	145.667	-19.808	169.923	254.920	71.733	105.405	66.757	267.565	7.677	291.488	20.422	298.907	0.00010142	0.00071717	9.2779e-05	167.44	2.6168e-06	2.6197e-06	339.12	55.024	4.5525e-06	7.4116e-06	133.34	53.33	21.873	9.7963	4.2427e-06	27.364	0.00084473	0.00086354	0.00023093	236.55	9.5694e-06	9.4852e-06	378.47	73.464	9.5149e-06	9.4178e-06	164.18	61.205	32.425	13.148	8.7319e-06	30.412	119.506	24.490	160.338	-48.342	144.388	278.868	-48.207	-40.953	47.686	63.585	-44.038	-38.570	-36.910	-32.187	282.897	-34.758	-8191	255	
7428.950	1	1	0	0	0.12441	0.11774	0.11143	0.087474	0.19073	0.16067	0.21285	0.15121	0.15675	0.14015	0.20485	0.20704	0.060215	0.12148	0.13639	0.076238	-2.9188	-3.4125	-2.7229	-3.2792	-3.0458	-2.6479	-3.5125	-2.8063	-3.1604	-3.5542	-2.7062	-3.625	-3.1729	-2.7354	-3.6021	-3.0646	10.825	146.741	69.456	-56.140	233.658	296.210	262.033	-19.203	52.496	175.526	185.547	140.981	25.136	50.050	15.717	-27.777	0.00010015	0.00074717	0.00034701	167.51	2.9763e-06	1.2573e-06	335.22	54.984	2.7128e-06	6.4089e-06	131.39	53.78	21.9	9.8514	3.9681e-06	27.701	0.00083141	0.00084483	0.0002192	234.66	9.1609e-06	8.9491e-06	373.56	73.178	9.1219e-06	9.0658e-06	162.85	61.39	32.513	13.051	8.8023e-06	30.874	80.693	45.328	68.458	-48.157	-8.218	39.749	-47.668	-41.050	162.611	206.176	-43.247	-38.345	-36.594	-32.938	13.951	-34.942	-8191	255	
7429.069	1	1	0	0	0.12847	0.2237	0.031311	0.16501	0.27881	0.13126	0.19753	0.28675	0.081501	0.12219	0.047694	0.058617	0.087183	0.26588	0.28642	0.18689	-2.6375	-3.475	-2.6813	-3.4583	-3.4625	-2.7875	-3.7542	-3.2125	-2.9771	-3.7521	-2.7188	-3.5229	-3.1896	-2.9188	-3.4479	-3.0563	4.951	112.559	52.841	-12.602	209.755	-13.496	56.752	182.785	117.854	-39.924	81.096	278.315	-17.076	-45.433	179.235	157.858	9.9231e-05	0.00069191	7.1751e-05	167.55	7.5564e-06	4.5096e-06	337.69	55.892	7.2132e-06	3.1015e-06	132.15	53.716	22.222	9.916	3.5767e-06	27.658	0.00082938	0.00084039	0.00022619	239.21	9.3645e-06	9.0436e-06	379.12	74.267	9.3649e-06	8.9229e-06	165.42	61.894	32.445	12.98	9.0719e-06	30.858	232.206	-20.741	160.616	-48.139	-46.018	-41.881	-47.591	-41.875	-31.996	91.210	-43.110	-38.427	-36.144	-32.635	-27.161	-34.653	-8191	255	
7429.165	1	1	0	0	0.08308	0.14968	0.19542	0.29693	0.11678	0.060163	0.11794	0.17741	0.18624	0.24772	0.21307	0.28681	0.19754	0.30555	0.14512	0.10381	-2.4688	-3.6083	-2.9271	-3.2271	-3.5958	-2.6479	-3.4792	-2.9458	-2.7729	-3.4313	-2.7313	-3.2167	-3.4	-2.6771	-3.5375	-3.1188	156.072	14.482	288.770	248.175	220.122	33.682	200.699	123.464	-12.664	30.887	189.216	283.818	227.021	242.093	281.982	-48.478	0.00012068	0.00041758	0.00017874	167.84	3.2828e-06	5.8878e-06	335.83	55.735	1.5956e-06	2.2499e-06	132.4	52.933	22.246	9.8574	8.3325e-06	27.38	0.0008247	0.00081768	0.00023636	239.17	9.4409e-06	8.8733e-06	380.77	74.575	9.4413e-06	9.0446e-06	166.86	61.554	32.66	12.988	9.5968e-06	30.765	260.585	253.264	130.912	-47.965	298.751	46.785	-47.569	-41.770	-50.451	1.474	-43.358	-38.756	-37.071	-32.501	208.007	-34.832	-8191	255	
7429.261	1	1	0	0	0.31216	0.10869	0.081655	0.112	0.33321	0.1054	0.080281	0.31875	0.094041	0.029272	0.07933	0.2637	0.12234	0.072456	0.12671	0.068611	-2.3521	-3.5292	-2.5979	-2.9813	-3.3708	-2.7667	-3.4021	-3.1396	-2.6375	-3.7479	-2.8708	-3.2083	-3.4604	-2.5104	-3.4542	-3.3792	136.029	-0.385	95.548	109.013	92.691	-48.164	136.820	205.840	82.578	183.741	2.868	149.622	197.212	202.177	-58.643	205.326	6.8887e-06	0.0013153	8.1648e-05	167.27	6.4471e-07	8.327e-06	335.4	55.051	2.5636e-06	5.1025e-06	129.57	52.955	21.674	9.8453	3.0829e-06	27.235	0.00084582	0.0008288	0.00024663	240.17	9.4901e-06	9.0609e-06	380.67	74.573	9.4666e-06	9.2451e-06	168.56	61.724	32.57	13.121	9.9655e-06	30.847	296.077	-42.871	298.982	-47.419	242.870	68.522	-47.411	-41.673	-2.460	132.603	-42.898	-38.748	-36.238	-31.887	-57.962	-34.350	-8191	255	
7429.357	1	1	0	0	0.1547	0.19323	0.03697	0.030442	0.16319	0.12979	0.15057	0.19188	0.16108	0.091719	0.13607	0.25507	0.22037	0.12897	0.1458	0.15514	-2.3479	-3.5479	-2.9292	-2.8271	-3.5438	-2.8208	-3.475	-3.3167	-2.8333	-3.625	-2.8521	-2.8646	-3.7208	-2.8292	-3.1	-3.5167	-1.521	86.112	91.574	87.125	268.193	219.716	290.028	255.582	75.732	-49.172	297.332	-27.792	-46.762	-24.932	80.228	106.012	0.00014274	0.00092642	0.00017548	168.95	2.5905e-06	5.6132e-06	338.09	55.089	5.4073e-06	6.3298e-06	131.97	53.174	21.654	9.8104	9.1935e-06	27.717	0.00084073	0.00086726	0.00025802	241.8	9.5583e-06	9.6885e-06	383.94	75.19	9.4765e-06	9.7194e-06	171.08	62.321	32.531	13.402	1.025e-05	31.175	295.470	79.475	49.375	-47.128	166.727	93.549	-47.548	-40.792	21.139	190.748	-43.103	-38.091	-36.426	-31.976	113.126	-34.533	-8191	255	
7429.453	1	1	0	0	0.14832	0.21873	0.13622	0.088247	0.1424	0.056262	0.11593	0.052757	0.088567	0.11414	0.14393	0.14625	0.21741	0.1893	0.11505	0.23371	-2.4042	-3.5125	-2.9771	-2.7542	-3.5375	-2.9458	-3.2313	-3.425	-2.7875	-3.4792	-2.9021	-2.6646	-3.5146	-3.0104	-3.0083	-3.6354	192.156	208.539	241.604	-20.489	276.178	118.046	225.970	30.937	299.283	270.160	291.618	291.441	-24.311	47.255	213.016	-57.212	0.00019188	0.00052411	0.00017134	166.91	7.0548e-06	4.4239e-06	335.04	55.575	4.5108e-06	7.8843e-06	131.82	53.605	21.733	9.9229	4.1143e-06	27.494	0.0008442	0.00091609	0.0002619	243.85	9.5628e-06	1.0072e-05	385.54	75.914	9.5372e-06	1.0204e-05	171.27	62.334	32.7	13.517	1.0141e-05	31.063	270.148	50.243	140.993	-47.327	20.966	180.699	-47.624	-41.386	197.977	127.866	-42.355	-38.857	-36.738	-32.337	139.187	-34.295	-8191	255	
7429.550	1	1	0	0	0.35122	0.015017	0.031001	0.017532	0.11221	0.11429	0.094095	0.074002	0.27623	0.059925	0.12876	0.11386	0.11683	0.13954	0.20086	0.04569	-2.1875	-3.3063	-3.0771	-2.6958	-3.3896	-2.85	-3.1229	-3.5312	-2.6729	-3.225	-3.2542	-2.8542	-3.7229	-2.9896	-3.0083	-3.6937	195.449	-41.726	173.577	-46.540	9.388	-56.499	285.814	135.387	83.942	245.764	300.192	282.006	173.626	-35.568	183.376	292.750	0.00018611	0.00064996	0.00011482	165.7	5.4772e-06	3.2904e-06	337.77	55.092	1.8951e-06	1.11e-05	131.76	53.694	22.041	9.8278	9.4467e-06	27.158	0.00083691	0.00093061	0.00025807	240.44	9.4119e-06	1.0173e-05	383.89	74.709	9.4257e-06	1.0135e-05	170.39	61.778	32.75	13.467	9.8963e-06	30.576	234.687	103.863	86.118	-48.550	80.420	295.788	-47.446	-41.504	251.431	288.186	-42.943	-38.390	-35.871	-32.645	-15.448	-34.551	-8191	255	
7429.670	1	1	0	0	0.078301	0.27268	0.088841	0.33067	0.17716	0.30068	0.076189	0.10873	0.090612	0.16274	0.18222	0.2062	0.076796	0.028294	0.24228	0.14754	-2.3771	-3.3021	-3.3042	-2.6167	-3.3354	-3.0187	-2.7438	-3.4208	-2.7125	-3.3104	-3.325	-2.8521	-3.5208	-2.8375	-2.6813	-3.6	200.207	75.424	254.299	130.929	112.045	241.181	66.860	300.633	40.312	-9.534	272.867	258.622	275.642	215.266	123.915	19.901	0.00011983	0.00073434	0.00011978	165.81	3.5598e-06	1.4935e-06	334.87	55.137	4.1964e-06	6.9691e-06	131.24	53.241	21.668	9.9126	5.6009e-06	27.692	0.00083635	0.00089812	0.00024855	234.75	9.4627e-06	9.7883e-06	381.05	73.226	9.4251e-06	9.7501e-06	168.62	61.251	32.79	13.435	9.6332e-06	30.806	190.760	-18.073	175.865	-48.089	2.685	26.890	-47.372	-40.990	254.140	129.382	-42.841	-38.135	-36.147	-32.003	145.575	-34.162	-8191	255	
#DATA ENDS
