BOXY.EXE: ISS Imagent and Oximeter Data Acquisition Program Version 0.80
Ascii Record File

#ACQ INFORMATION
2  Detector Channels 
16  External MUX Channels 
1  Auxiliary Channels 
5000  Waveform (CCF) Frequency (Hz)
1  Waveforms Skipped 
30  Waveforms Averaged 
1  Cycles Averaged 
16  Acquisitions per Waveform 
10.0806  Updata Rate (Hz) 

#FILE INFORMATION
TRUE -- External MUX Channel results are PARSED.
FALSE -- AC DC and Phase are NOT grouped.
TRUE -- Companion Program Settings File CREATED.
FALSE -- AC data not excluded
FALSE -- DC data not excluded
FALSE -- Phase data not excluded
FALSE -- Auxillary Chn. data not excluded
Tab delimiters

#CALIBRATION STATE
TRUE -- Waveform Calibration Values APPLIED.


#AUX CALIBRATION VALUES
Val Type	aux-1	

Term	1.0000e+00	
Factor	0.0000e+00	


#WF CALIBRATION VALUES
A = Detector Channel
Val Type	A-AC1	A-AC2	A-AC3	A-AC4	A-AC5	A-AC6	A-AC7	A-AC8	A-AC9	A-AC10	A-AC11	A-AC12	A-AC13	A-AC14	A-AC15	A-AC16	A-DC1	A-DC2	A-DC3	A-DC4	A-DC5	A-DC6	A-DC7	A-DC8	A-DC9	A-DC10	A-DC11	A-DC12	A-DC13	A-DC14	A-DC15	A-DC16	A-Ph1	A-Ph2	A-Ph3	A-Ph4	A-Ph5	A-Ph6	A-Ph7	A-Ph8	A-Ph9	A-Ph10	A-Ph11	A-Ph12	A-Ph13	A-Ph14	A-Ph15	A-Ph16	

Term	0.00000e+00	0.00000e+00	0.00000e+00	0.00000e+00	0.00000e+00	0.00000e+00	0.00000e+00	0.00000e+00	0.00000e+00	0.00000e+00	0.00000e+00	0.00000e+00	0.00000e+00	0.00000e+00	0.00000e+00	0.00000e+00	0.00000e+00	0.00000e+00	0.00000e+00	0.00000e+00	0.00000e+00	0.00000e+00	0.00000e+00	0.00000e+00	0.00000e+00	0.00000e+00	0.00000e+00	0.00000e+00	0.00000e+00	0.00000e+00	0.00000e+00	0.00000e+00	0.00000e+00	0.00000e+00	0.00000e+00	0.00000e+00	0.00000e+00	0.00000e+00	0.00000e+00	0.00000e+00	0.00000e+00	0.00000e+00	0.00000e+00	0.00000e+00	0.00000e+00	0.00000e+00	0.00000e+00	0.00000e+00	
Factor	1.00000e+00	1.00000e+00	1.00000e+00	1.00000e+00	1.00000e+00	1.00000e+00	1.00000e+00	1.00000e+00	1.00000e+00	1.00000e+00	1.00000e+00	1.00000e+00	1.00000e+00	1.00000e+00	1.00000e+00	1.00000e+00	1.00000e+00	1.00000e+00	1.00000e+00	1.00000e+00	1.00000e+00	1.00000e+00	1.00000e+00	1.00000e+00	1.00000e+00	1.00000e+00	1.00000e+00	1.00000e+00	1.00000e+00	1.00000e+00	1.00000e+00	1.00000e+00	X	X	X	X	X	X	X	X	X	X	X	X	X	X	X	X	

B = Detector Channel
Val Type	B-AC1	B-AC2	B-AC3	B-AC4	B-AC5	B-AC6	B-AC7	B-AC8	B-AC9	B-AC10	B-AC11	B-AC12	B-AC13	B-AC14	B-AC15	B-AC16	B-DC1	B-DC2	B-DC3	B-DC4	B-DC5	B-DC6	B-DC7	B-DC8	B-DC9	B-DC10	B-DC11	B-DC12	B-DC13	B-DC14	B-DC15	B-DC16	B-Ph1	B-Ph2	B-Ph3	B-Ph4	B-Ph5	B-Ph6	B-Ph7	B-Ph8	B-Ph9	B-Ph10	B-Ph11	B-Ph12	B-Ph13	B-Ph14	B-Ph15	B-Ph16	

Term	0.00000e+00	0.00000e+00	0.00000e+00	0.00000e+00	0.00000e+00	0.00000e+00	0.00000e+00	0.00000e+00	0.00000e+00	0.00000e+00	0.00000e+00	0.00000e+00	0.00000e+00	0.00000e+00	0.00000e+00	0.00000e+00	0.00000e+00	0.00000e+00	0.00000e+00	0.00000e+00	0.00000e+00	0.00000e+00	0.00000e+00	0.00000e+00	0.00000e+00	0.00000e+00	0.00000e+00	0.00000e+00	0.00000e+00	0.00000e+00	0.00000e+00	0.00000e+00	-7.70394e+01	-1.24773e+02	-1.22023e+02	-1.83689e+02	-5.26907e+01	-6.57493e+01	-1.55956e+02	-1.62015e+02	-4.12905e+01	-6.64813e+01	-1.69979e+02	-1.70582e+02	-1.79937e+02	-1.76627e+02	-6.08650e+01	-1.49193e+02	
Factor	1.65381e-05	1.27404e-04	4.20882e-05	1.74909e-01	1.21720e-06	1.50233e-06	1.52390e-01	4.88806e-02	1.05316e-06	1.33437e-06	8.28644e-02	2.88030e-02	2.48227e-02	8.64829e-03	1.26265e-06	1.23097e-02	3.77851e-06	4.39697e-06	1.22931e-06	9.36027e-02	4.74484e-08	4.83570e-08	7.69343e-02	2.63740e-02	4.70575e-08	4.84823e-08	4.32323e-02	1.50964e-02	1.35041e-02	4.69083e-03	4.79849e-08	6.44294e-03	X	X	X	X	X	X	X	X	X	X	X	X	X	X	X	X	



#DISTANCE SETTINGS
A = Detector Channel
A-1	A-2	A-3	A-4	A-5	A-6	A-7	A-8	A-9	A-10	A-11	A-12	A-13	A-14	A-15	A-16	

2.5000e+00	3.0000e+00	2.5000e+00	3.0000e+00	2.0000e+00	3.0000e+00	1.5000e+00	3.0000e+00	3.0000e+00	3.0000e+00	3.0000e+00	3.0000e+00	3.0000e+00	3.0000e+00	1.5000e+00	3.0000e+00	

B = Detector Channel
B-1	B-2	B-3	B-4	B-5	B-6	B-7	B-8	B-9	B-10	B-11	B-12	B-13	B-14	B-15	B-16	

1.0000e+01	1.0000e+01	1.0000e+01	1.4400e+00	1.0000e+01	1.0000e+01	1.5100e+00	1.9400e+00	1.0000e+01	1.0000e+01	1.9900e+00	2.4900e+00	2.4100e+00	2.9000e+00	1.0000e+01	2.9800e+00	




#DATA BEGINS
time	group	step	mark	flag	A-AC1	A-AC2	A-AC3	A-AC4	A-AC5	A-AC6	A-AC7	A-AC8	A-AC9	A-AC10	A-AC11	A-AC12	A-AC13	A-AC14	A-AC15	A-AC16	A-DC1	A-DC2	A-DC3	A-DC4	A-DC5	A-DC6	A-DC7	A-DC8	A-DC9	A-DC10	A-DC11	A-DC12	A-DC13	A-DC14	A-DC15	A-DC16	A-Ph1	A-Ph2	A-Ph3	A-Ph4	A-Ph5	A-Ph6	A-Ph7	A-Ph8	A-Ph9	A-Ph10	A-Ph11	A-Ph12	A-Ph13	A-Ph14	A-Ph15	A-Ph16	B-AC1	B-AC2	B-AC3	B-AC4	B-AC5	B-AC6	B-AC7	B-AC8	B-AC9	B-AC10	B-AC11	B-AC12	B-AC13	B-AC14	B-AC15	B-AC16	B-DC1	B-DC2	B-DC3	B-DC4	B-DC5	B-DC6	B-DC7	B-DC8	B-DC9	B-DC10	B-DC11	B-DC12	B-DC13	B-DC14	B-DC15	B-DC16	B-Ph1	B-Ph2	B-Ph3	B-Ph4	B-Ph5	B-Ph6	B-Ph7	B-Ph8	B-Ph9	B-Ph10	B-Ph11	B-Ph12	B-Ph13	B-Ph14	B-Ph15	B-Ph16	aux-1	digaux	

21470.854	1	1	0	768	0.15942	0.10866	0.071806	0.232	0.12545	0.31346	0.065201	0.23377	0.12677	0.13692	0.091981	0.34972	0.30106	0.29974	0.13212	0.14126	-2.7771	-3.1208	-2.6708	-3.3396	-2.5708	-2.9521	-3.2917	-2.7438	-3.2812	-3.1	-2.6646	-3.4688	-2.8417	-2.9271	-3.3875	-2.6854	-9.089	98.358	-141.280	128.974	-136.882	-120.049	117.504	122.037	75.798	-118.629	102.947	70.580	137.363	121.101	112.319	84.884	0.00038395	0.0018089	0.00065754	470.06	2.0026e-05	2.1129e-05	498.39	154.48	1.4935e-05	4.1841e-05	198.24	73.996	54.995	20.823	3.5978e-05	30.784	0.012412	0.014548	0.0041231	738.01	0.00015937	0.00016374	716.31	228.45	0.00015567	0.00015907	319.49	116.04	93.443	34.075	0.00015077	47.854	-139.313	-128.985	-20.527	-158.894	147.916	-57.035	-159.374	-154.232	134.878	-125.986	-156.322	-153.211	-151.392	-147.352	55.922	-149.649	-8191	255	
21470.951	1	1	0	0	0.11103	0.092039	0.19129	0.12298	0.05054	0.26666	0.20111	0.11162	0.031978	0.1486	0.21335	0.03862	0.25548	0.19076	0.24042	0.19746	-2.825	-3.1875	-2.5312	-3.45	-2.9667	-2.95	-3.4583	-2.6083	-3.125	-3.1854	-2.675	-3.5042	-2.9104	-2.7333	-3.5187	-2.7292	68.035	-77.836	7.152	86.060	-44.502	72.386	80.515	57.227	147.293	129.772	111.148	140.808	127.858	22.784	-32.551	125.018	0.000159	0.0015106	0.00045675	462.01	7.617e-06	2.9161e-05	498.32	152	2.5888e-05	1.3394e-05	192.45	74.538	55.473	20.929	1.6885e-05	30.03	0.011725	0.013611	0.0038013	712.23	0.00014567	0.00014896	689.65	218.85	0.00013942	0.00014437	304.27	111.66	89.4	32.627	0.00013689	45.925	-124.462	-64.664	-171.540	-158.903	82.098	62.111	-159.316	-154.652	-146.568	74.969	-156.812	-153.349	-151.488	-147.042	135.927	-150.028	-8191	255	
21471.047	1	1	0	0	0.17714	0.054305	0.12922	0.11747	0.077615	0.17829	0.069929	0.22132	0.12321	0.2537	0.18367	0.11726	0.12457	0.066913	0.10821	0.14007	-2.7271	-3.1917	-2.6729	-3.3417	-3.0062	-2.7896	-3.5292	-2.7979	-3.0312	-3.125	-2.675	-3.2167	-2.8604	-2.8604	-3.4688	-2.7938	-10.244	-51.301	-125.046	100.238	145.659	100.367	38.026	172.045	-9.309	185.805	-45.167	145.012	-21.052	-124.808	58.336	129.918	0.00050638	0.0016808	0.00024649	462.5	7.0565e-06	3.3416e-05	494.04	153.84	4.9533e-06	4.4957e-06	195.99	73.898	55.361	21.205	3.1284e-05	30.6	0.010855	0.012528	0.0034987	685.99	0.00013362	0.00013864	675.05	216.11	0.00013671	0.00014119	304.97	111.81	89.668	32.758	0.00013668	46.001	-102.389	6.598	-60.104	-159.285	-47.149	-61.631	-159.580	-154.745	48.086	83.072	-156.148	-153.067	-151.110	-147.126	-118.544	-149.833	-8191	255	
21471.143	1	1	0	0	0.16384	0.2718	0.15747	0.12553	0.13588	0.096542	0.078028	0.13587	0.13257	0.19532	0.17126	0.085564	0.14181	0.026717	0.24003	0.14886	-2.4042	-3.1625	-2.5062	-3.3271	-3.3187	-2.4979	-3.3833	-2.8187	-2.7104	-3.375	-2.4708	-3.2333	-3.2125	-2.65	-3.2583	-2.95	-40.041	-4.895	91.827	-126.476	-123.746	34.384	-142.331	159.304	57.415	33.568	20.301	20.691	120.222	-122.859	6.587	-114.666	0.0002875	0.0018164	0.0002763	456.89	9.421e-06	2.5343e-05	491.24	150.91	2.4667e-05	1.5875e-05	197.02	75.211	55.306	21.077	8.0745e-06	30.307	0.010726	0.012337	0.003466	681.16	0.00013456	0.00013823	674.17	215.83	0.000135	0.00013972	303.31	111.74	89.186	32.578	0.00013534	46.106	-68.827	-71.823	171.500	-159.053	-17.796	116.310	-159.941	-154.272	71.511	171.530	-156.699	-153.363	-151.587	-147.501	-141.747	-150.445	-8191	255	
21471.238	1	1	0	0	0.21798	0.21366	0.2157	0.07574	0.13852	0.15581	0.098405	0.36096	0.092646	0.029994	0.11145	0.18924	0.19043	0.13176	0.10668	0.056714	-2.4146	-3.3729	-2.65	-3.1312	-3.1875	-2.6229	-3.325	-2.9625	-2.8	-3.4396	-2.5875	-3.0812	-3.1688	-2.5125	-3.4917	-2.9417	-31.882	55.301	66.319	-92.998	-82.331	-23.158	99.448	148.779	-33.938	-130.318	131.405	185.019	132.725	43.424	-91.813	39.867	0.00027255	0.0023377	0.00034672	459.49	9.1595e-06	5.4367e-06	495.91	153.02	1.5851e-05	1.4945e-05	195.8	74.642	55.353	21.013	2.6168e-05	30.074	0.010645	0.012272	0.0034282	678.76	0.00013197	0.00013327	663.46	212.25	0.00012959	0.00013291	296.32	108.69	86.687	31.691	0.00012635	44.563	-102.140	-171.602	86.992	-159.260	-168.508	-3.137	-159.949	-154.675	-72.620	-11.276	-156.520	-152.764	-151.808	-147.426	116.104	-148.744	-8191	255	
21471.336	1	1	0	0	0.055469	0.19701	0.054035	0.10285	0.157	0.18854	0.07349	0.15932	0.20056	0.18442	0.31063	0.21738	0.24405	0.33255	0.042872	0.10126	-2.2833	-3.3229	-2.5417	-2.9792	-3.2542	-2.5667	-3.2208	-3.0104	-2.6792	-3.4083	-2.7979	-2.9271	-3.3042	-2.6333	-3.2146	-3.2062	152.283	159.465	-90.671	-28.198	89.407	-80.798	171.778	122.779	92.778	-97.777	164.815	118.278	-151.361	-111.430	179.973	79.083	0.00044598	0.0035071	0.00041668	458.92	1.4473e-05	1.4417e-05	492.31	154.22	1.7056e-05	1.8733e-05	194.56	73.266	54.862	20.935	1.8305e-05	30.341	0.0098422	0.011285	0.0031274	653.57	0.00011953	0.00012132	645	205.91	0.00011849	0.00012036	285.15	105.09	83.534	30.709	0.0001168	43.418	-64.379	-1.599	28.730	-158.957	-152.590	-2.864	-160.214	-155.077	66.533	122.542	-156.475	-153.458	-152.284	-146.796	157.419	-149.336	-8191	255	
21471.453	1	1	0	0	0.12367	0.18797	0.058739	0.13741	0.035072	0.29743	0.15554	0.10282	0.25415	0.23986	0.12796	0.30024	0.2596	0.23764	0.066539	0.021989	-2.0083	-3.2229	-2.7792	-2.8458	-3.3167	-2.6312	-3.2167	-3.3312	-2.5542	-3.3187	-3.0021	-2.6229	-3.2979	-2.7375	-3.2167	-3.1354	164.459	118.348	181.052	179.225	59.247	-91.580	163.361	26.819	-140.048	-134.449	14.069	185.364	162.577	-109.397	142.779	-8.501	0.00036736	0.00020884	0.00042689	458.66	1.0002e-05	1.7111e-05	498.25	154.33	8.043e-06	5.1332e-06	196.29	75.839	55.827	20.946	2.376e-05	30.881	0.0091285	0.010505	0.0029128	639.7	0.00011172	0.00011311	635.91	202.07	0.00010833	0.00011164	277.33	102.87	81.322	29.903	0.00010867	42.701	-70.630	51.466	-99.194	-158.840	-138.143	42.577	-159.506	-154.406	170.538	31.623	-156.475	-152.907	-151.715	-146.879	82.067	-149.788	-8191	255	
21471.551	1	1	0	0	0.096111	0.13077	0.1265	0.34682	0.14551	0.17823	0.055039	0.10815	0.13407	0.12627	0.36742	0.077016	0.070816	0.20237	0.28892	0.27083	-2.2062	-3.3417	-2.975	-2.4938	-3.4542	-2.5771	-2.9125	-3.1854	-2.4771	-3.2396	-3.1854	-2.8583	-3.3563	-2.7729	-3.1375	-3.2771	-163.060	-121.570	74.410	-127.558	-158.688	9.396	-110.148	-82.913	-146.937	-131.725	47.402	-85.260	-11.400	109.403	-120.496	126.364	7.7e-05	0.002152	0.00022835	467.25	2.9362e-05	1.9242e-05	502.44	156.59	2.2243e-06	6.5582e-06	200.19	76.45	56.004	21.092	2.8596e-05	30.983	0.008659	0.010032	0.0028146	637.39	0.00010752	0.00010924	631.27	201.44	0.00010401	0.00010683	276.02	103.02	81.1	29.824	0.00010778	42.857	-29.800	-148.644	153.075	-158.465	-87.640	76.994	-159.417	-154.001	66.700	-120.136	-156.603	-152.433	-151.621	-147.338	92.561	-149.405	-8191	255	
21471.646	1	1	0	0	0.22747	0.17424	0.017927	0.37954	0.091739	0.16856	0.16793	0.13322	0.20885	0.062822	0.18332	0.10468	0.13637	0.29577	0.19388	0.1294	-2.4	-3.1521	-3.0229	-2.4333	-3.3937	-2.6979	-3.0438	-3.3187	-2.5292	-3.2	-3.1688	-2.6417	-3.4833	-2.775	-2.8021	-3.45	-81.351	180.257	-106.935	159.442	-80.502	185.562	146.307	-121.745	-42.447	-85.235	-34.662	0.705	31.484	162.211	-93.553	-55.793	0.0006105	0.00098385	0.00049453	463.17	1.0932e-05	4.5272e-06	506.98	155.85	3.021e-05	1.5962e-05	200.25	76.63	55.69	21.403	1.4809e-05	30.948	0.008562	0.0099193	0.0027816	636.13	0.0001082	0.00010994	640.93	202.77	0.00010666	0.00010991	280.69	104.59	82.24	30.323	0.00011131	43.391	-74.697	-112.570	-19.837	-158.856	25.143	-120.429	-159.478	-154.421	75.062	-143.941	-156.459	-152.376	-152.262	-147.646	98.607	-149.284	-8191	255	
21471.742	1	1	0	0	0.14789	0.15485	0.017585	0.12149	0.32394	0.19003	0.1115	0.016646	0.086192	0.080793	0.13306	0.11013	0.23672	0.09947	0.10733	0.21165	-2.3375	-2.9896	-3.1688	-2.6771	-3.3458	-2.8354	-2.9292	-3.4208	-2.6896	-3.0729	-3.2875	-2.6896	-3.3271	-3.0333	-2.7917	-3.4854	91.557	-53.782	-11.683	-143.173	6.791	-146.282	-133.244	60.425	-50.195	-81.477	103.855	146.300	-125.779	117.788	-35.793	69.591	0.00035942	0.00038125	0.00052246	470.04	9.9187e-06	3.1202e-05	502.1	155.85	1.3442e-05	2.0893e-05	197.58	75.64	55.841	21.176	4.2729e-06	30.6	0.0088792	0.010333	0.0029232	647.02	0.00011232	0.00011424	641.97	203.74	0.00010837	0.00011114	280.39	103.08	80.984	29.718	0.00010594	42.256	-161.632	93.659	-88.894	-158.587	23.096	-156.285	-159.742	-154.261	-134.140	-110.847	-155.977	-152.987	-151.464	-147.854	119.364	-149.532	-8191	255	
21471.840	1	1	0	0	0.23145	0.27376	0.088136	0.096724	0.080946	0.28383	0.19322	0.038042	0.065253	0.22796	0.17756	0.27876	0.21182	0.10094	0.14506	0.1024	-2.1437	-2.9354	-3.2812	-2.5292	-3.1813	-2.9604	-2.725	-3.2917	-2.7667	-2.9542	-3.4958	-2.7125	-3.2208	-3.0687	-2.7208	-3.4146	51.021	175.964	182.630	148.510	130.651	-83.621	107.888	-145.849	161.946	181.649	67.781	46.588	7.126	-63.551	55.284	-102.326	0.00024631	0.0025395	0.0003357	467.36	2.65e-05	2.7037e-05	509	156.4	1.2976e-05	5.9728e-06	199.86	75.517	56.145	21.393	2.0995e-05	30.683	0.0083655	0.0097803	0.0027448	634.89	0.00010648	0.00010844	638	202.25	0.00010505	0.00010876	278.62	102.85	81.2	29.876	0.0001061	42.413	-93.738	130.920	-3.179	-159.356	105.303	71.271	-159.981	-154.333	145.406	173.495	-156.192	-152.669	-151.434	-147.463	-30.244	-149.171	-8191	255	
21471.936	1	1	0	0	0.17244	0.15556	0.01885	0.10587	0.096399	0.093002	0.12631	0.23802	0.3023	0.21155	0.11059	0.15475	0.25842	0.20319	0.050957	0.096228	-2.2646	-2.8312	-3.4062	-2.7083	-3.2	-3.2687	-2.6771	-3.5563	-2.8521	-2.8917	-3.3563	-2.5312	-3.1083	-3.125	-2.5125	-3.5542	111.649	5.592	21.918	-17.690	106.291	174.488	-152.405	-141.825	50.834	18.102	63.598	-154.958	143.695	-123.798	-67.971	-95.600	3.2723e-05	0.0019482	0.00055074	470.07	1.2687e-05	6.5501e-07	510.65	156.79	1.0902e-05	4.6313e-06	201.38	75.855	56.46	21.367	1.5503e-05	30.867	0.0083838	0.0097605	0.0027201	634.84	0.0001049	0.00010698	638.52	202.12	0.00010384	0.00010773	279.06	103.17	81.512	29.999	0.00010808	43.032	-36.424	91.996	129.372	-159.282	82.803	-47.906	-159.617	-154.547	-7.910	-143.656	-156.533	-152.112	-151.843	-147.410	-142.976	-149.025	-8191	255	
21472.055	1	1	0	0	0.13409	0.10558	0.12569	0.23544	0.10623	0.19628	0.04335	0.059114	0.35023	0.084473	0.12231	0.25412	0.15955	0.070068	0.11747	0.034298	-2.4167	-2.7354	-3.2146	-2.8	-2.9458	-3.2417	-2.7125	-3.3917	-3.0021	-2.8583	-3.3667	-2.8	-2.8521	-3.2708	-2.6771	-3.2562	159.507	-154.176	56.001	65.887	-3.892	-128.470	-26.522	-85.935	38.898	156.259	-148.541	34.998	145.094	-70.845	161.185	133.745	0.00027529	0.0014526	0.00024803	471.01	1.7029e-05	2.2706e-05	513.52	156.29	1.3903e-05	9.6567e-06	200.19	76.683	57.013	21.276	1.2911e-05	31.105	0.0085447	0.010065	0.0027947	643.36	0.00010833	0.00011106	645.12	204.34	0.0001065	0.00010927	282.31	104.05	82.348	30.099	0.00010772	43.085	-147.352	-26.795	-27.693	-159.398	41.703	-20.779	-159.875	-154.442	-135.054	2.325	-156.567	-153.043	-151.640	-147.225	36.314	-149.848	-8191	255	
21472.152	1	1	0	0	0.01403	0.42493	0.15455	0.26453	0.10361	0.089286	0.38032	0.30249	0.19447	0.11188	0.21226	0.037148	0.13468	0.1232	0.095641	0.22252	-2.5521	-2.6521	-3.4354	-2.675	-2.8896	-3.3417	-2.6542	-3.3417	-2.9792	-2.6333	-3.3125	-2.875	-2.9146	-3.225	-2.7521	-3.1688	90.638	87.361	62.321	-171.663	20.350	99.834	181.117	-141.521	-168.696	25.345	57.866	-89.305	115.965	66.001	-57.635	102.898	0.00040055	0.0018012	0.0004704	473.69	3.4408e-06	1.9514e-05	510.37	158.19	1.1284e-05	1.5351e-05	203.16	76.498	56.594	21.332	1.586e-05	31.353	0.0085646	0.0098953	0.0027442	639.81	0.0001072	0.00010875	640.06	203.44	0.00010542	0.00010954	282	104.22	82.112	30.223	0.00010908	43.264	-66.537	-157.719	-29.912	-158.737	109.759	1.372	-160.143	-154.462	111.759	-89.270	-155.819	-153.204	-151.007	-147.329	-1.505	-149.507	-8191	255	
21472.246	1	1	0	0	0.25841	0.32506	0.040196	0.25059	0.23927	0.14703	0.2908	0.10997	0.090131	0.12233	0.093771	0.14005	0.25639	0.18643	0.03959	0.20356	-2.6937	-2.5875	-3.1958	-2.7167	-2.8271	-3.4188	-2.725	-3.1854	-3.1312	-2.5646	-3.3979	-2.7938	-2.8958	-3.3458	-2.7313	-3.1604	105.110	109.318	-57.403	131.785	-93.182	-149.682	110.916	57.384	-162.609	162.571	87.144	147.724	88.621	-81.061	-70.497	34.174	0.00061878	0.00042472	0.00047908	470.54	1.5445e-05	1.2106e-05	513.87	158.68	1.5306e-05	2.4718e-05	203.87	75.769	56.247	21.475	6.4548e-06	31.217	0.0088658	0.010199	0.0028711	648.23	0.00011373	0.00011585	652.11	206.89	0.00011205	0.00011505	288.29	105.4	83.53	30.598	0.00011195	43.718	-142.576	-94.909	-107.735	-159.085	167.042	128.425	-159.733	-153.844	143.144	-151.564	-156.391	-153.035	-150.882	-146.824	-9.235	-148.829	-8191	255	
21472.342	1	1	0	0	0.2631	0.053941	0.072587	0.31779	0.30152	0.19063	0.093349	0.28748	0.0204	0.26958	0.10773	0.11251	0.15463	0.16472	0.097969	0.11337	-2.6625	-2.6396	-3.1042	-2.9396	-2.7042	-3.4021	-2.8854	-3.0521	-3.2167	-2.5938	-3.3125	-3.0938	-2.5625	-3.3	-2.7	-3.0021	109.996	-125.717	-128.214	-132.879	179.562	-104.632	-81.634	107.025	-10.196	155.709	66.505	23.178	150.193	-144.081	69.903	152.368	0.00015315	0.00064155	0.00035291	474.32	9.7514e-06	1.019e-05	514.99	158.68	1.0605e-05	1.4028e-05	203.83	76.14	56.512	21.587	1.1273e-05	31.47	0.0089043	0.010318	0.0029019	648.39	0.00011252	0.00011467	655.16	208.21	0.00011335	0.0001166	290.2	106.56	84.335	30.911	0.00011452	44.39	-75.572	79.871	-25.407	-158.973	-139.647	0.647	-159.820	-153.966	24.396	165.148	-156.312	-153.223	-151.469	-147.453	97.525	-149.413	-8191	255	
21472.439	1	1	0	0	0.029073	0.26443	0.14742	0.086202	0.26635	0.043961	0.064492	0.063089	0.1118	0.19591	0.074081	0.11301	0.17868	0.049185	0.014726	0.28298	-3.1396	-2.6167	-3.1917	-3.2188	-2.5917	-3.2042	-2.675	-2.9083	-3.3187	-2.5708	-3.2979	-3.1146	-2.6229	-3.4813	-2.8854	-2.7438	113.078	-50.575	3.379	109.020	-122.550	121.456	81.829	171.152	12.772	56.361	-63.248	186.131	-136.052	140.151	-141.369	48.486	0.00034746	0.0020046	0.00037324	473.84	1.2307e-05	2.251e-05	515.8	158.92	1.023e-05	2.4932e-05	203.64	76.258	56.674	21.26	8.0278e-06	31.553	0.0090929	0.010526	0.0029296	655.67	0.00011376	0.00011642	657.64	208.7	0.0001132	0.00011567	289.07	106.21	83.98	30.789	0.00011383	43.876	-127.921	138.121	117.286	-158.787	77.912	-15.751	-159.306	-154.158	-64.523	69.740	-156.457	-152.670	-150.957	-146.545	82.139	-149.340	-8191	255	
21472.533	1	1	0	0	0.34795	0.14673	0.30232	0.046939	0.16707	0.10712	0.044576	0.14454	0.15943	0.17362	0.052097	0.15452	0.12025	0.22031	0.32709	0.18914	-2.8292	-2.6312	-2.95	-3.3083	-2.2417	-3.2708	-3.1208	-2.7062	-3.3771	-2.6271	-3.1229	-3.3104	-2.6437	-3.3	-2.8458	-2.7854	81.412	-153.152	27.293	-121.302	139.177	-130.386	-136.432	159.160	26.587	-156.245	-147.842	182.111	-155.267	98.376	83.402	57.549	0.00032772	0.0008798	0.00065956	470.83	1.4698e-05	2.1028e-06	514.23	156.99	2.3037e-06	1.0291e-05	202.45	75.743	56.753	21.13	1.977e-05	31.183	0.0089316	0.0103	0.0028799	649.43	0.00011095	0.00011348	649.87	205.08	0.00011002	0.00011138	283.91	103.89	81.89	29.973	0.00010568	42.858	-127.413	136.903	183.577	-158.805	-168.390	145.521	-159.893	-154.521	-84.886	179.623	-156.381	-153.250	-151.326	-147.535	-84.259	-149.720	-8191	255	
21472.631	1	1	0	0	0.21824	0.26849	0.045361	0.19027	0.076727	0.065495	0.079173	0.25806	0.17931	0.084957	0.061716	0.095653	0.32687	0.17227	0.29176	0.22086	-2.9771	-2.6354	-2.8104	-3.275	-2.5438	-3.3229	-3.1646	-2.5146	-3.375	-2.5812	-2.8646	-3.4667	-2.6896	-3.0312	-3.0792	-2.6896	0.327	-55.467	48.641	176.714	34.863	-39.412	55.510	-79.564	-143.276	132.264	3.834	157.466	131.817	36.605	92.151	-121.648	9.0487e-05	0.0013044	0.00050145	472.97	1.2544e-05	1.8877e-05	520.07	158.79	3.7216e-06	1.1028e-05	204.25	77.527	57.348	21.672	1.9868e-05	31.785	0.0083275	0.0096224	0.0027156	636.19	0.00010476	0.00010684	642.81	203.52	0.00010407	0.00010786	283.58	104.61	82.318	30.306	0.00010633	43.574	129.606	159.224	-38.090	-159.670	6.084	-11.861	-159.367	-154.559	71.423	-29.874	-156.417	-152.057	-150.988	-146.981	174.818	-149.622	-8191	255	
21472.727	1	1	0	0	0.32069	0.10063	0.17013	0.12	0.21288	0.067906	0.033795	0.10441	0.14701	0.039523	0.071172	0.038522	0.085115	0.1704	0.14465	0.15431	-3.0187	-2.6813	-2.7521	-3.3542	-2.5417	-3.175	-3.1271	-2.6333	-3.375	-3.0479	-2.8083	-3.3458	-2.6271	-3.0812	-3.2396	-2.6	-50.393	97.499	-167.237	-94.167	-166.111	-120.276	-31.314	-22.053	172.657	34.542	-62.974	-16.130	56.269	-66.672	-110.594	116.639	7.7645e-05	0.0021074	0.00029169	478.75	2.1791e-05	3.6771e-05	523.83	159.98	1.6097e-05	1.7694e-06	207.92	78.218	57.506	21.721	8.904e-06	31.955	0.0084375	0.0098645	0.0027929	647.44	0.00010871	0.00011225	656.98	207.82	0.00011084	0.00011364	291.22	107.37	84.346	31.144	0.00011356	44.715	43.123	-23.450	179.276	-158.900	-78.350	-60.984	-159.402	-154.269	-41.800	-168.519	-156.880	-152.876	-151.245	-147.626	42.676	-149.037	-8191	255	
21472.822	1	1	0	0	0.27093	0.22487	0.25999	0.15196	0.072249	0.26694	0.15637	0.24019	0.043127	0.044495	0.13142	0.01963	0.11602	0.17483	0.16947	0.15858	-2.8812	-2.9229	-2.6667	-3.3396	-2.6792	-2.9104	-3.3729	-2.65	-3.2771	-2.9542	-2.8563	-3.4583	-2.6188	-3.0062	-3.2938	-2.5333	177.136	-99.403	-170.711	158.862	34.174	-41.703	-18.598	119.419	-99.139	63.143	-99.763	24.478	36.211	109.869	38.408	-40.184	0.00028421	0.0033443	0.00049658	473.94	1.2035e-05	2.8565e-05	518.38	159.7	1.3967e-05	8.0948e-06	203.03	77.802	56.846	21.561	8.8206e-06	31.729	0.0090559	0.010562	0.0029471	656.11	0.00011239	0.00011486	655.53	208.11	0.00011099	0.00011508	289.04	106.76	84.145	31.096	0.00011505	44.613	-127.406	-116.933	-46.408	-158.406	-161.087	30.290	-159.593	-154.887	85.513	36.201	-156.357	-151.730	-151.237	-146.828	-11.233	-149.663	-8191	255	
21472.943	1	1	0	0	0.13012	0.21254	0.13169	0.088337	0.17076	0.016475	0.17721	0.30184	0.031447	0.0885	0.15553	0.24938	0.2084	0.14095	0.22553	0.20277	-2.85	-3.1312	-2.6917	-3.3396	-2.7208	-2.8646	-3.5146	-2.65	-3.0375	-3.1625	-2.5667	-3.3792	-2.8771	-2.875	-3.4583	-2.6625	65.212	-42.533	-30.418	109.809	56.403	-139.877	106.000	-16.498	21.195	-84.545	131.273	134.032	136.906	89.116	-171.359	29.887	0.00020185	0.00084205	0.00029872	473.16	1.9057e-06	2.0209e-05	516.3	159.02	1.652e-05	2.4381e-05	204.05	77.869	57.61	21.564	1.2731e-05	31.49	0.0091885	0.010688	0.0029837	657.57	0.00011405	0.0001166	659.39	208.22	0.00011217	0.00011522	288.89	106.01	84.201	30.952	0.00011506	44.486	-83.207	74.926	113.803	-159.011	-2.667	147.324	-159.799	-154.475	129.178	97.326	-156.147	-153.579	-151.397	-147.531	39.091	-149.161	-8191	255	
21473.016	1	1	0	0	0.16952	0.099887	0.079726	0.093322	0.13684	0.041267	0.16917	0.097899	0.094532	0.21646	0.26949	0.096558	0.19236	0.17545	0.033308	0.17392	-2.7438	-3.2042	-2.4604	-3.3208	-2.9021	-2.7896	-3.4146	-2.5833	-3.0458	-3.2042	-2.6188	-3.2438	-3.0458	-2.6646	-3.3854	-2.8229	-170.313	181.164	-132.849	43.162	30.847	100.176	69.733	57.154	44.349	73.121	153.742	-134.434	179.358	152.982	70.642	120.739	0.00010054	0.0010597	0.00023832	469.59	2.6245e-05	1.3772e-05	516.12	157.71	1.8356e-05	1.7309e-05	205.09	76.234	57.376	21.473	1.7708e-05	31.739	0.0092714	0.010769	0.0030048	659.32	0.00011563	0.00011739	659.43	208.78	0.00011342	0.00011786	292.48	107	84.936	31.224	0.00011787	44.83	-62.579	36.202	-123.098	-159.148	35.278	-35.934	-159.557	-154.498	12.909	87.682	-156.086	-153.250	-151.441	-147.015	-61.915	-149.990	-8191	255	
21473.137	1	1	0	0	0.28098	0.10909	0.34659	0.26036	0.23767	0.18292	0.17888	0.34186	0.29757	0.13133	0.076754	0.085532	0.23185	0.23317	0.20122	0.24933	-2.6167	-3.275	-2.3479	-3.1958	-3.1688	-2.6167	-3.4708	-2.7375	-2.8521	-3.3187	-2.5958	-3.1312	-3.2	-2.7146	-3.5729	-3.0187	108.500	-65.155	-160.504	169.356	-83.482	143.113	-166.992	111.366	-11.805	90.736	138.568	148.990	-119.992	161.553	102.837	87.106	0.00047637	0.0011906	0.0011247	474.16	1.8488e-05	2.6316e-05	520.87	159.55	1.7107e-05	1.7418e-05	205.65	77.755	57.391	21.884	4.6414e-06	31.789	0.009434	0.010917	0.0030483	664.84	0.00011643	0.00011928	662.27	209.7	0.0001121	0.00011588	290.08	106.96	84.729	31.399	0.00011839	44.867	-95.526	-127.751	-11.843	-158.662	-7.510	100.448	-159.522	-155.053	-36.070	7.748	-156.505	-153.047	-151.665	-146.753	90.503	-149.256	-8191	255	
21473.232	1	1	0	0	0.14752	0.13118	0.12077	0.26237	0.33908	0.055455	0.36791	0.13617	0.13563	0.13646	0.0095812	0.1124	0.064242	0.2613	0.15365	0.47684	-2.4521	-3.3333	-2.55	-3.0854	-3.2438	-2.5792	-3.3104	-2.8812	-2.6896	-3.4	-2.5646	-3.0854	-3.1813	-2.5687	-3.3667	-2.8458	139.865	96.485	131.356	140.793	76.791	27.178	84.370	69.856	32.750	-10.402	94.314	93.064	168.461	136.190	-43.537	155.222	0.00042636	0.0018664	0.00057471	481.59	1.2456e-05	4.845e-06	517.34	159.09	1.0217e-05	1.9815e-05	205.97	77.271	57.213	21.337	1.3464e-05	31.489	0.0095302	0.011124	0.0031321	677.75	0.00012211	0.00012448	669.85	212.69	0.00012064	0.00012217	296.36	108.87	86.667	31.741	0.00012323	45.271	-88.503	-96.444	-69.089	-158.272	24.221	-165.757	-159.805	-154.391	-74.209	138.511	-155.755	-152.778	-151.414	-147.024	152.873	-149.578	-8191	255	
21473.326	1	1	0	0	0.32984	0.10515	0.29563	0.087913	0.1638	0.19246	0.21085	0.026753	0.12507	0.22048	0.2967	0.20924	0.14131	0.236	0.28502	0.12758	-2.1604	-3.3792	-2.8771	-2.8771	-3.1833	-2.4646	-3.3167	-2.9437	-2.7687	-3.3104	-2.6833	-3.0708	-3.2521	-2.5583	-3.0021	-2.9042	-86.438	-60.915	-155.435	-153.304	-167.512	68.224	73.284	39.723	-106.660	74.084	148.733	120.623	-32.942	-49.919	-156.496	114.027	0.00034589	0.001346	0.00017048	480.21	2.4684e-05	1.1086e-05	512.01	159.06	1.7386e-05	7.7463e-06	204.97	76.209	56.537	21.565	1.8505e-05	31.268	0.0097938	0.011281	0.0031485	671.7	0.00011996	0.00012174	663.87	210.56	0.0001178	0.00012074	293.18	108.05	84.982	31.234	0.00011817	44.56	-116.583	141.810	-34.584	-159.221	71.697	36.409	-159.158	-154.841	-109.199	-72.403	-156.456	-152.640	-152.181	-147.593	172.062	-149.060	-8191	255	
21473.424	1	1	0	0	0.23457	0.28497	0.089023	0.16276	0.12651	0.10833	0.092901	0.31284	0.10514	0.10056	0.16933	0.045347	0.062057	0.11687	0.10961	0.048432	-2.125	-3.2375	-2.7	-2.8208	-3.2458	-2.5375	-3.2812	-3.3146	-2.7521	-3.3458	-2.8812	-2.875	-3.2292	-2.7	-3.1521	-3.2083	-132.407	176.957	-111.904	51.388	-22.733	-50.867	155.241	54.781	38.083	12.235	182.516	40.133	-22.058	89.707	-95.443	171.174	0.00062533	0.00068949	0.00013055	477.95	1.6524e-05	1.3241e-05	518.98	159.11	1.8689e-05	1.7012e-05	206.32	77.452	56.162	21.363	1.8406e-05	32.209	0.009349	0.010713	0.0029823	658.47	0.00011388	0.00011504	657.26	207.69	0.00011121	0.00011361	288	106.13	83.241	30.612	0.00011158	43.922	-127.138	-131.098	45.522	-158.974	-129.739	61.232	-159.511	-154.403	-52.844	137.293	-156.412	-152.731	-151.013	-146.921	13.010	-148.943	-8191	255	
21473.543	1	1	0	0	0.13141	0.064032	0.030501	0.10028	0.1321	0.1904	0.088871	0.023671	0.17813	0.14246	0.021454	0.26861	0.10623	0.32168	0.071125	0.21786	-2.2938	-3.2271	-2.6729	-2.7625	-3.2958	-2.6917	-2.9646	-3.3396	-2.5354	-3.3396	-2.7812	-2.775	-3.4458	-2.625	-2.8229	-3.3083	23.426	-155.227	164.065	21.174	146.130	29.348	105.711	109.154	-113.437	-167.397	85.119	-38.250	-10.395	-153.461	-98.606	140.286	0.00052487	0.0014115	0.00039808	481.64	8.3993e-06	1.0725e-05	522.59	159.64	3.0228e-06	1.1633e-05	203.75	77.406	57.444	21.898	1.7401e-05	31.832	0.0088039	0.010096	0.0028153	652.85	0.00010751	0.00010976	650.97	205.21	0.00010502	0.00010703	282.81	104.33	81.8	30.149	0.00010502	43.234	-108.557	177.438	13.750	-158.353	139.700	-107.627	-159.006	-154.865	103.333	73.867	-156.617	-152.267	-151.199	-146.915	30.971	-149.398	-8191	255	
21473.639	1	1	0	0	0.096606	0.24212	0.1666	0.35341	0.087733	0.18271	0.16589	0.079938	0.18261	0.11463	0.061571	0.14816	0.14471	0.26305	0.1841	0.13549	-2.0792	-3.2	-2.7625	-2.7188	-3.4792	-2.775	-2.9604	-3.275	-2.6042	-3.125	-3.2021	-2.6208	-3.2729	-2.8354	-2.9375	-3.4146	161.107	115.196	-141.271	100.279	45.936	-31.449	41.978	145.232	166.510	2.923	2.190	183.773	43.244	-153.869	-10.847	-131.645	0.00063696	0.00085536	0.00020459	480.41	1.4706e-05	1.5024e-05	520.58	160.62	7.3216e-06	1.0568e-05	207.11	76.732	57.385	21.787	9.7339e-06	31.584	0.0082974	0.0096167	0.0026876	639.54	0.00010317	0.00010389	641.69	203.55	0.00010069	0.00010273	279.15	102.5	80.23	29.518	9.9342e-05	42.361	-108.809	-144.019	157.308	-158.235	47.829	60.605	-159.736	-154.208	-4.470	111.674	-155.901	-152.974	-151.466	-147.116	-46.214	-149.365	-8191	255	
21473.711	1	1	0	0	0.10144	0.13793	0.13099	0.30971	0.13937	0.20887	0.092261	0.18749	0.17416	0.11366	0.073029	0.25236	0.23303	0.27588	0.055278	0.060108	-2.2271	-3.0542	-3.1104	-2.5396	-3.2708	-2.7667	-2.8	-3.4083	-2.6958	-3.1813	-3.3583	-2.5229	-3.2854	-3.0083	-2.9437	-3.3271	-28.610	-66.650	-91.052	167.988	30.552	54.870	-150.394	146.065	-35.177	-105.505	185.883	-127.103	181.618	-81.244	-130.850	183.161	0.00018748	0.0033993	0.00087649	473.64	1.1844e-05	1.2392e-05	519.45	160.94	1.5056e-05	2.3731e-05	208.36	77.117	57.389	21.626	1.0886e-05	31.289	0.0079963	0.0092692	0.0026213	632.55	0.00010155	0.00010406	642.28	202.74	9.9496e-05	0.00010288	279.99	102.68	80.819	29.713	0.00010196	42.539	-122.322	-151.514	-81.507	-158.949	-23.893	-27.311	-159.591	-154.257	23.949	-78.181	-157.018	-152.812	-150.989	-146.987	10.328	-149.095	-8191	255	
21473.832	1	1	0	0	0.29182	0.22413	0.25766	0.26269	0.10666	0.24037	0.071199	0.14388	0.14658	0.14261	0.23935	0.30264	0.23072	0.12656	0.1031	0.22495	-2.4062	-2.9417	-3.0083	-2.3729	-3.1458	-2.975	-2.6771	-3.3854	-2.6667	-3.1021	-3.3125	-2.5667	-3.2083	-3.0687	-2.7104	-3.3542	-89.155	112.255	134.842	-169.949	60.535	186.792	137.623	6.347	4.066	17.477	154.015	138.895	41.906	12.557	56.706	-122.075	0.00022933	0.0014611	0.00034073	482.2	1.7031e-05	1.8435e-05	524.11	160.78	9.2793e-06	7.1571e-06	209.24	77.421	56.662	21.743	1.4452e-05	31.803	0.0081796	0.0095171	0.00268	639.69	0.00010224	0.00010532	645.15	204.29	0.0001031	0.00010665	284.35	104.56	82.274	30.219	0.00010748	43.179	-87.693	-21.809	162.110	-159.046	150.038	-158.337	-159.544	-154.257	-159.460	-153.477	-156.406	-152.580	-150.673	-147.345	-151.901	-149.606	-8191	255	
21473.928	1	1	0	0	0.075698	0.073252	0.1704	0.12479	0.28999	0.10683	0.11173	0.27055	0.29052	0.1212	0.30196	0.03571	0.048956	0.30443	0.083247	0.2792	-2.5333	-2.9792	-3.3396	-2.6	-3.1937	-3.0938	-2.6521	-3.3417	-2.7188	-2.8021	-3.35	-2.6771	-3.1083	-3.1417	-2.4437	-3.3771	40.951	-150.953	128.733	157.350	143.255	46.219	77.634	87.539	-40.988	146.407	78.424	-62.321	-62.185	176.212	129.341	-147.098	0.00020399	9.918e-05	0.00029339	478.62	9.8879e-06	2.0269e-05	523.06	159.86	1.2177e-05	4.7238e-06	206.3	76.906	57.6	21.606	1.2262e-05	31.466	0.0083522	0.0096727	0.0026747	636.28	0.0001009	0.00010294	640.97	201.35	9.8449e-05	0.00010215	279.12	102.71	80.899	29.753	0.00010246	42.63	-56.872	185.912	-126.223	-159.103	39.477	157.969	-159.727	-154.493	116.007	27.070	-156.196	-153.270	-151.170	-147.146	12.721	-149.860	-8191	255	
21474.023	1	1	0	0	0.092461	0.16494	0.17186	0.11548	0.37652	0.12037	0.065049	0.084152	0.22907	0.078493	0.16581	0.22568	0.19076	0.16483	0.28719	0.36421	-2.5792	-2.6625	-3.2458	-2.7104	-2.9917	-3.1083	-2.6229	-3.3646	-2.8812	-2.8125	-3.4688	-2.5667	-2.8792	-3.0646	-2.5563	-3.2938	-67.281	181.392	105.933	158.710	17.953	-171.311	38.776	-49.312	-33.452	-6.580	132.404	148.656	184.960	-161.600	-157.345	150.923	0.00015013	0.0011937	0.00044151	473.85	1.6322e-05	2.7476e-05	516.19	159.15	2.3551e-05	1.5053e-05	206.27	77.505	57.476	21.537	8.7398e-06	30.975	0.0081113	0.0095388	0.0026632	634.66	0.00010401	0.00010559	640.99	202.61	0.00010325	0.00010793	283.25	104.22	82.629	30.312	0.00010858	43.294	170.377	-24.557	-58.260	-158.680	64.724	-99.693	-159.389	-154.883	-43.905	-40.659	-156.566	-152.197	-150.718	-146.706	170.321	-149.515	-8191	255	
21474.145	1	1	0	0	0.030909	0.29337	0.10332	0.28383	0.12177	0.1106	0.39793	0.10452	0.27489	0.037329	0.27903	0.14875	0.19492	0.30237	0.064198	0.14661	-2.4542	-2.5708	-3.3646	-2.7021	-2.8854	-3.2979	-2.5271	-3.1854	-3.0167	-2.5438	-3.3729	-2.7917	-2.9646	-3.3187	-2.5917	-3.2021	-55.183	140.516	145.307	0.112	-30.586	-115.221	138.756	-167.810	27.326	149.340	163.749	-26.066	-84.933	175.808	-155.777	-18.738	0.00034805	0.00069168	0.00038861	473.22	2.9847e-05	3.0647e-05	514.83	159.14	4.6823e-06	8.9167e-06	204.18	76.897	57.33	21.53	2.0155e-05	31.327	0.0087395	0.010293	0.0028835	655.39	0.0001158	0.00011995	662.6	211.62	0.00012032	0.00012485	296.86	108.86	86.271	31.572	0.00012029	44.683	-123.618	-159.240	149.370	-158.168	-17.504	-149.600	-159.201	-154.538	-167.205	-152.579	-156.352	-152.989	-150.743	-147.279	150.518	-149.360	-8191	255	
21474.238	1	1	0	0	0.12066	0.11046	0.28121	0.12464	0.18946	0.13484	0.1246	0.26941	0.41498	0.11216	0.089535	0.3406	0.16478	0.18654	0.24043	0.38401	-2.7021	-2.5292	-3.4292	-2.9896	-2.8	-3.3771	-2.8479	-3.2167	-3.0042	-2.725	-3.6083	-2.8688	-2.7104	-3.3896	-2.725	-3.1125	-93.508	-170.215	53.790	-127.267	-52.455	186.325	-7.537	68.267	-98.513	53.003	151.210	174.242	-168.503	-113.778	-76.128	130.534	0.0004938	0.0027212	0.00051722	469.66	1.0331e-05	1.9585e-05	513.71	159.1	1.4779e-05	1.6999e-05	204.7	76.919	56.899	21.533	1.4308e-05	31.081	0.0093554	0.010824	0.0029896	653.77	0.00011526	0.00011567	651.8	207.7	0.00011289	0.00011653	289.52	106.47	84.915	31.238	0.00011974	44.954	-131.045	-92.191	171.464	-159.223	81.029	-20.796	-159.192	-154.141	-47.947	-68.057	-156.610	-152.800	-151.233	-146.992	120.428	-149.384	-8191	255	
21474.312	1	1	0	0	0.16716	0.11215	0.014867	0.10134	0.1293	0.16053	0.16468	0.082467	0.20333	0.21571	0.28293	0.15413	0.18999	0.12444	0.16097	0.072118	-2.6646	-2.7125	-3.3479	-3.0062	-2.7	-3.4813	-2.8042	-2.9813	-3.3667	-2.6229	-3.3292	-3.2562	-2.8396	-3.4917	-2.7083	-2.9229	157.847	14.511	-36.642	-130.723	89.623	-142.708	127.133	40.218	-50.917	60.153	128.555	84.475	-78.406	152.782	104.863	42.440	0.00063481	0.0020705	0.00098577	467.09	1.0638e-05	9.7862e-06	501.42	157.48	2.0978e-05	1.5927e-05	199.13	76.042	56.289	21.071	2.1442e-05	30.931	0.0096346	0.011291	0.0032383	672.78	0.00012536	0.00012696	663.5	212.38	0.0001227	0.00012616	294.91	108.37	86.101	31.4	0.0001207	44.779	-41.937	169.712	-43.859	-158.473	94.133	-22.900	-159.661	-154.124	11.787	-104.990	-156.229	-152.688	-151.742	-147.383	175.935	-149.634	-8191	255	
21474.408	1	1	0	0	0.13888	0.08374	0.21994	0.17879	0.20763	0.18295	0.42209	0.21032	0.077408	0.10637	0.29991	0.27778	0.10329	0.071066	0.23169	0.13841	-2.7729	-2.4792	-3.0417	-3.0938	-2.6854	-3.3021	-2.8812	-3.0417	-3.2854	-2.6104	-3.2458	-3.0333	-2.7146	-3.3771	-2.9354	-2.7833	-149.466	163.294	100.623	-10.586	106.867	43.947	175.221	172.122	-37.352	161.753	91.664	92.617	-149.701	-75.214	88.136	64.176	0.00055976	0.00098471	0.00048026	459.65	1.5498e-05	1.1853e-05	500.88	156.09	7.0534e-06	9.5586e-06	198.67	74.938	56.44	21.232	2.121e-05	30.996	0.0095812	0.011146	0.0031229	658.95	0.00011934	0.00012107	652.36	208.93	0.00011665	0.00012012	289.22	106.46	84.552	30.924	0.00011736	44.057	-95.502	81.027	6.662	-158.820	-162.977	10.545	-159.315	-154.317	38.684	97.748	-156.407	-152.600	-151.590	-147.495	18.115	-149.461	-8191	255	
21474.506	1	1	0	0	0.19186	0.15624	0.08653	0.39213	0.20702	0.10895	0.19781	0.30618	0.16055	0.11747	0.027665	0.20626	0.25454	0.24221	0.24711	0.081117	-2.8708	-2.6	-3.0604	-3.2396	-2.5208	-3.4354	-2.9688	-2.675	-3.2438	-2.6625	-3.0729	-3.2646	-2.5604	-3.3812	-2.8979	-2.5938	-33.634	104.798	-135.122	66.792	-96.295	122.341	37.704	174.970	-19.772	84.797	153.550	165.309	52.277	185.180	144.952	113.910	0.00034465	0.00039196	0.00040247	465.21	4.0246e-06	1.4814e-05	503.68	155.19	1.5943e-05	1.228e-05	200.78	75.129	56.271	21.361	9.8171e-06	31.202	0.0092783	0.010688	0.0030293	653.18	0.00011707	0.00011835	647.9	207.83	0.00011461	0.00011871	288.19	105.83	84.079	30.834	0.00011425	43.86	-104.929	-87.516	114.956	-158.906	-3.065	110.553	-159.484	-154.795	44.639	57.438	-155.991	-152.695	-151.691	-146.950	82.722	-149.931	-8191	255	
21474.623	1	1	0	0	0.49343	0.11498	0.094743	0.18728	0.18212	0.35757	0.2132	0.2131	0.26019	0.16721	0.16584	0.082978	0.086837	0.15482	0.19756	0.039427	-2.8708	-2.8229	-2.9375	-3.2313	-2.4625	-3.3354	-2.8729	-2.7292	-3.3271	-2.6917	-3.0187	-3.2625	-2.4771	-3.1854	-2.9313	-2.5625	-141.634	-122.477	-18.738	-91.716	-162.729	169.905	64.445	42.415	168.842	-26.109	-14.079	138.856	27.874	119.050	-1.988	40.308	0.00038026	0.0012138	0.00016307	462.66	8.8705e-06	1.6017e-05	502.78	157.02	5.8544e-06	7.0496e-06	202.13	76.268	56.353	21.418	3.6165e-06	30.968	0.0089725	0.010363	0.0029074	644.38	0.00011232	0.00011521	646.53	207.89	0.00011597	0.00012004	292.31	107.59	85.15	31.344	0.0001183	44.52	-151.084	-38.524	115.151	-159.165	-29.726	0.516	-159.303	-154.672	-20.826	-155.449	-156.224	-152.714	-151.642	-147.133	111.911	-149.251	-8191	255	
21474.721	1	1	0	0	0.098229	0.12386	0.01549	0.20329	0.13962	0.012697	0.14924	0.093754	0.20559	0.25839	0.017237	0.10644	0.19813	0.36585	0.2919	0.25601	-3.0563	-2.7229	-2.6417	-3.3333	-2.5396	-2.9667	-3.1937	-2.6271	-3.2375	-2.7562	-2.75	-3.3187	-2.6604	-3.2458	-3.1604	-2.5521	-17.808	147.809	41.704	-138.196	131.168	30.093	-83.219	-92.042	84.152	-160.032	103.106	-134.834	157.831	75.510	-90.390	-128.951	0.00027674	0.00080414	0.00024506	464.59	2.1064e-05	3.062e-05	503.4	157.11	1.4501e-05	3.9672e-06	199.28	75.835	56.384	21.412	2.0382e-05	31.031	0.0093377	0.010966	0.0030325	655.68	0.00011832	0.00012258	656.43	212.24	0.0001229	0.00012742	297.44	109.93	87.043	32.141	0.00012662	45.291	-150.179	122.822	93.861	-158.518	133.094	39.402	-159.399	-154.969	-153.399	115.030	-156.891	-152.868	-151.462	-147.359	24.474	-149.600	-8191	255	
21474.816	1	1	0	0	0.13078	0.165	0.25843	0.069747	0.047557	0.17151	0.24375	0.087547	0.16559	0.076187	0.24786	0.10626	0.17245	0.11385	0.13758	0.10143	-2.9062	-2.9146	-2.8063	-3.3146	-2.5854	-3.1917	-3.2	-2.6437	-3.3083	-3.0229	-2.7208	-3.375	-2.7708	-2.8458	-3.2687	-2.6771	-89.807	137.685	-52.982	-90.981	85.539	-19.847	-168.825	-137.483	88.434	109.598	174.076	161.067	121.299	-152.430	-61.449	-88.365	0.00034843	0.0026635	0.00079262	463.11	1.1605e-05	6.1618e-06	506.91	156.45	1.2513e-05	1.2621e-05	200.78	76.099	55.926	21.381	1.7284e-05	30.664	0.0098599	0.011359	0.0031599	662.61	0.00012119	0.00012477	662.33	212.46	0.00012539	0.00013128	301.46	111.42	89.162	33.04	0.00013946	46.788	-34.307	-74.510	-155.348	-159.301	-17.498	-145.505	-158.682	-154.373	87.497	180.298	-156.818	-152.127	-151.094	-148.015	47.717	-149.030	-8191	255	
21474.912	1	1	0	0	0.15724	0.27935	0.14119	0.09943	0.073867	0.23607	0.25688	0.2247	0.01898	0.060877	0.20201	0.25193	0.096648	0.15911	0.16184	0.20015	-2.85	-3.0479	-2.5375	-3.4437	-2.8583	-2.7188	-3.3396	-2.7417	-3.2083	-3.0687	-2.6896	-3.4542	-2.6979	-2.7771	-3.3896	-2.4688	69.189	-134.283	78.538	36.505	33.773	-79.929	175.064	138.068	-71.333	81.607	-154.288	176.472	-136.314	-43.978	44.265	130.341	0.00013079	0.0025521	0.00067974	465.82	8.434e-06	4.2157e-06	504.73	156.03	2.3712e-05	8.7681e-06	201.47	75.471	56.454	21.486	1.9604e-05	31.079	0.01102	0.012741	0.0035444	691.86	0.00013514	0.0001379	677.58	217.44	0.00013273	0.00013658	303.65	111.46	89.016	32.69	0.00013322	46.032	158.997	-84.750	84.604	-158.742	126.387	-48.738	-159.195	-154.537	-89.215	-155.088	-156.139	-152.578	-151.044	-147.717	153.856	-149.495	-8191	255	
21475.008	1	1	0	0	0.1215	0.088385	0.16564	0.1646	0.20266	0.061839	0.12552	0.13292	0.1279	0.061461	0.1859	0.21353	0.24961	0.28002	0.21433	0.079793	-2.7646	-3.225	-2.4562	-3.4125	-2.9833	-2.6646	-3.5312	-2.7354	-3.1083	-3.3604	-2.6208	-3.3729	-2.9729	-2.6771	-3.3917	-2.7104	73.043	103.728	-92.011	6.292	-116.150	-159.337	122.748	118.483	118.115	-27.917	156.836	127.784	124.804	181.713	56.815	-138.367	0.00044763	0.0026476	0.00078275	465.36	2.8347e-05	1.7203e-05	505.08	158.47	1.3175e-05	7.4923e-06	202.36	76.701	57.023	21.463	9.0821e-06	31.378	0.01041	0.01208	0.0033518	677.87	0.00012926	0.00013115	670.69	214.33	0.00012595	0.00012837	297.66	109.38	86.645	31.731	0.00012177	44.908	-112.199	-101.590	-66.951	-159.687	96.083	175.648	-159.263	-154.608	136.424	91.348	-156.403	-152.529	-151.412	-147.477	148.688	-149.324	-8191	255	
21475.104	1	1	0	0	0.46367	0.29931	0.20564	0.23481	0.053479	0.16405	0.3041	0.10458	0.10749	0.1185	0.084687	0.099396	0.17566	0.20778	0.10788	0.36635	-2.5062	-3.4458	-2.6292	-3.0875	-2.9521	-2.7792	-3.425	-2.6854	-2.8167	-3.25	-2.8646	-3.2812	-3.0125	-2.6604	-3.3854	-2.6813	156.274	55.809	-142.826	-87.514	21.081	-29.248	111.579	-79.572	-109.151	-106.512	1.325	82.318	38.200	-171.499	105.880	141.076	0.00031137	0.0023637	0.00024748	469.74	6.6413e-06	8.216e-06	509.3	156.96	1.7319e-05	2.0478e-05	202.17	77.262	57.749	21.808	1.6804e-05	31.609	0.0094167	0.010792	0.0029805	650.62	0.00011137	0.00011121	635.21	199.34	9.1328e-05	9.089e-05	265.05	97.934	76.405	27.997	7.9235e-05	39.585	-152.084	26.343	-93.477	-159.027	110.216	187.307	-159.287	-154.146	-11.738	-55.857	-156.219	-152.463	-151.851	-147.498	-79.711	-149.427	-8191	255	
21475.225	1	1	0	0	0.098852	0.089856	0.1645	0.071895	0.14521	0.13477	0.14065	0.059163	0.20617	0.17206	0.33788	0.094144	0.17489	0.14608	0.098212	0.18469	-2.3688	-3.3167	-2.5167	-3.325	-3.1125	-2.6167	-3.1708	-2.8667	-2.625	-3.3438	-2.6208	-2.9917	-3.1813	-2.7667	-3.3896	-2.9042	-145.739	37.508	-100.880	58.529	-30.522	151.739	15.599	-71.456	-167.037	176.936	115.425	-92.508	-64.605	129.967	-142.809	-90.029	0.00024705	0.0016479	0.00014984	475.25	2.2975e-05	9.5299e-06	516.46	159.72	7.7222e-06	1.6102e-05	205.74	78.103	57.303	21.803	1.6428e-05	31.304	0.006365	0.0073036	0.0020335	587.26	8.0414e-05	8.2487e-05	602.72	190.92	8.2853e-05	8.6322e-05	263.67	98.22	76.909	28.395	8.7365e-05	40.573	-129.056	48.526	143.846	-159.020	-156.067	-52.716	-159.743	-154.383	-26.591	-27.266	-155.912	-152.220	-151.532	-147.552	113.456	-150.024	-8191	255	
21475.318	1	1	0	0	0.13653	0.14141	0.095052	0.24378	0.057472	0.2826	0.063953	0.32627	0.15797	0.063257	0.27497	0.11111	0.18396	0.035951	0.13897	0.21913	-2.4208	-3.2771	-2.7167	-3.0104	-3.1021	-2.4333	-3.5458	-3.0542	-2.6958	-3.4708	-2.7146	-2.9813	-3.3333	-2.5229	-3.1604	-2.8646	-44.006	59.497	0.236	-118.585	-13.102	144.197	78.575	149.680	-154.185	-115.952	43.658	175.683	151.351	-51.009	-63.676	164.410	0.00013843	0.00028277	0.00040805	479.01	2.0647e-05	1.4738e-05	513.67	158.9	1.1746e-05	8.886e-06	202.62	77.077	57.306	21.489	1.8689e-05	31.875	0.0070292	0.0081865	0.0022947	609.86	9e-05	9.2174e-05	617.54	195.99	9.0231e-05	9.2828e-05	267.93	99.555	78.083	28.798	9.2531e-05	41.548	-43.956	-95.167	-124.869	-158.624	-37.439	15.391	-159.248	-153.711	-69.435	42.204	-156.206	-152.621	-150.961	-146.691	62.460	-149.599	-8191	255	
21475.414	1	1	0	0	0.24458	0.14285	0.027667	0.36343	0.10595	0.071486	0.036176	0.26487	0.1712	0.17626	0.29332	0.11517	0.10778	0.26104	0.14089	0.014406	-2.0792	-3.275	-2.6896	-2.9875	-3.1667	-2.7562	-3.3667	-2.9354	-2.6896	-3.2708	-2.7167	-2.7313	-3.2125	-2.5021	-3.1792	-3.3583	109.174	-109.286	114.475	-61.846	109.382	-103.943	56.111	175.073	-38.410	-26.975	152.417	-133.809	85.486	33.363	-45.793	-138.252	0.00036771	0.0014059	0.0003043	480.42	1.9743e-05	8.9791e-06	520.43	156.87	6.1974e-06	1.8686e-05	205.11	77.189	56.993	21.591	1.5119e-05	31.501	0.0074338	0.008558	0.0024103	617.34	9.2526e-05	9.45e-05	624.12	196.27	9.0511e-05	9.2375e-05	268.8	99.443	77.491	28.706	9.016e-05	40.853	-95.419	186.129	173.811	-159.119	-95.731	-45.466	-159.488	-154.553	187.431	22.554	-156.632	-152.877	-151.253	-146.922	-92.206	-149.916	-8191	255	
21475.535	1	1	0	0	0.17807	0.12607	0.17399	0.067152	0.13023	0.19415	0.35252	0.27885	0.38724	0.17619	0.26274	0.10065	0.13846	0.1632	0.11545	0.13266	-2.1292	-3.2292	-2.8125	-2.55	-3.2979	-2.6583	-3.0479	-3.025	-2.5542	-3.2938	-2.8333	-2.7146	-3.3542	-2.5854	-3.1896	-3.1354	54.206	138.050	159.127	138.215	-126.930	99.856	144.586	102.983	-80.623	-70.558	92.113	-117.089	65.369	78.292	60.216	29.087	0.000412	0.00085258	0.00043964	477.84	9.6426e-06	4.0299e-06	514.68	159.79	1.7014e-05	1.1948e-05	203.13	76.765	56.814	21.504	5.6416e-06	31.536	0.0070942	0.0081267	0.0022568	607.71	8.843e-05	9.0186e-05	617.11	194.82	8.9185e-05	9.2e-05	267.46	99.769	78.462	28.945	9.5122e-05	41.734	-102.969	-69.914	-63.829	-159.364	90.671	22.820	-159.266	-153.973	143.714	-144.413	-156.208	-152.439	-150.574	-146.650	147.869	-149.641	-8191	255	
21475.607	1	1	0	0	0.054668	0.05669	0.019015	0.23448	0.077126	0.10757	0.14125	0.2466	0.11598	0.13327	0.20317	0.40227	0.31514	0.18979	0.16188	0.16231	-2.0583	-3.1521	-2.9292	-2.5854	-3.2812	-2.6854	-2.7167	-3.4104	-2.6688	-3.2729	-3.0042	-2.5979	-3.3604	-2.9208	-2.9646	-3.1396	98.434	-120.275	121.611	-160.932	-115.323	19.449	45.475	160.772	-129.523	66.755	97.742	-141.818	-168.033	-137.202	31.850	154.251	0.00030282	0.00057841	0.00079509	480.1	8.3002e-06	7.3096e-06	517.14	159.79	1.4665e-05	1.9461e-05	203.09	76.645	57.145	21.538	9.5864e-06	31.252	0.007658	0.0089503	0.0024985	625.03	9.7838e-05	9.8886e-05	630.07	199	9.4447e-05	9.7496e-05	271.63	100.31	78.544	29.057	9.4127e-05	41.227	-91.663	-92.693	32.972	-159.017	53.600	16.768	-159.542	-154.113	-14.989	-14.758	-156.559	-152.358	-151.087	-147.161	-67.752	-149.580	-8191	255	
21475.703	1	1	0	0	0.079904	0.2377	0.1517	0.25912	0.22429	0.12758	0.31942	0.255	0.022022	0.23353	0.11651	0.10066	0.16584	0.16729	0.18084	0.091044	-2.0812	-3.2208	-3.0229	-2.5292	-3.2562	-2.8146	-2.8604	-3.4917	-2.6437	-3.1354	-3.2521	-2.4625	-3.2646	-2.8896	-2.6562	-3.4479	-123.612	-137.234	-95.787	161.444	-60.707	81.717	156.196	136.871	31.710	-103.573	183.605	73.188	157.828	153.349	161.006	72.550	0.00046586	0.0016047	0.00068643	481.26	1.9466e-05	1.1639e-05	518.96	158.12	1.1725e-05	1.7955e-05	204.56	76.979	57.226	21.341	5.9672e-06	31.509	0.0073917	0.0085776	0.0023957	617.35	9.075e-05	9.3295e-05	623.35	195.79	9.17e-05	9.6016e-05	271.81	100.62	79.074	29.06	9.6975e-05	41.61	-143.726	-91.513	19.591	-158.180	14.576	181.878	-159.360	-154.152	-107.969	70.078	-156.203	-152.072	-151.344	-147.117	-90.117	-149.738	-8191	255	
21475.801	1	1	0	0	0.099397	0.12276	0.10542	0.13274	0.15337	0.14222	0.082356	0.31858	0.14155	0.26659	0.10649	0.12866	0.18371	0.070387	0.2558	0.059562	-2.1417	-3.1042	-3.2479	-2.5375	-3.325	-3.0062	-2.5646	-3.3208	-2.7125	-3.1	-3.3979	-2.6042	-3.3167	-3.0042	-2.7396	-3.2625	-134.778	-41.010	-145.598	135.397	145.534	-23.424	-94.666	101.202	-34.187	-58.428	7.830	172.293	87.155	107.834	48.614	22.013	0.00026782	0.0015426	0.00060107	480.26	1.5415e-05	2.4668e-05	521.25	158.95	8.6183e-06	1.0704e-05	204.45	77.093	57.694	21.705	2.477e-05	31.467	0.0075685	0.0087744	0.0024434	619.76	9.4219e-05	9.5752e-05	630.46	198.26	9.4566e-05	9.7687e-05	274.1	101.31	80.06	29.366	9.8507e-05	41.631	165.739	-120.552	156.984	-158.674	169.620	106.133	-159.364	-154.469	105.837	-8.749	-156.245	-152.694	-151.178	-147.185	-37.536	-149.029	-8191	255	
21475.922	1	1	0	0	0.21377	0.1041	0.16179	0.03418	0.11114	0.10215	0.12443	0.13334	0.03589	0.12221	0.21855	0.24684	0.33168	0.11809	0.2001	0.22864	-2.3208	-2.8812	-3.2125	-2.6896	-3.2208	-2.975	-2.6604	-3.3333	-2.8312	-2.8833	-3.2354	-2.5187	-3.3521	-3.1896	-2.6583	-3.4188	75.297	-140.977	-2.616	0.541	-68.808	78.870	105.981	184.315	-11.011	87.186	-17.880	-85.589	75.526	106.231	183.623	-59.507	0.00039226	0.00084486	0.00048099	479.05	1.0003e-05	2.7634e-05	519.49	159.05	1.6248e-05	1.8279e-05	203.74	76.1	56.518	21.504	7.6648e-06	31.259	0.0075669	0.0087164	0.0024268	616.82	9.3259e-05	9.519e-05	627.81	198.28	9.4945e-05	9.899e-05	274.28	101.03	79.812	29.32	9.7691e-05	41.65	-94.134	130.849	-43.511	-158.879	139.179	-15.487	-159.459	-153.987	89.418	175.213	-156.312	-152.536	-150.894	-147.030	166.189	-149.743	-8191	255	
21476.018	1	1	0	0	0.20162	0.22394	0.01149	0.41182	0.18795	0.078345	0.43103	0.36792	0.069234	0.077427	0.20409	0.27102	0.071865	0.19832	0.078092	0.11487	-2.5417	-2.7854	-3.375	-2.6646	-2.9208	-3.3688	-2.7188	-3.4146	-2.7625	-2.8458	-3.375	-2.7667	-3.0292	-3.3979	-2.575	-3.2104	-47.072	-83.179	-136.457	102.501	-170.275	145.911	112.752	123.384	-120.946	75.644	147.895	60.680	-121.466	132.227	151.660	-51.606	0.00014802	0.0017305	0.00032625	474.93	8.1272e-06	1.0974e-05	520.06	158.62	1.5975e-05	1.7458e-05	203.69	77.169	57.263	21.387	2.1994e-05	31.409	0.0075983	0.0087003	0.0023957	612.01	9.0624e-05	9.2084e-05	621.03	194.66	8.924e-05	9.1653e-05	267.58	99.176	77.902	28.592	9.083e-05	40.811	-94.367	-68.377	134.547	-158.612	-5.972	-95.027	-159.687	-153.926	23.608	52.039	-156.574	-152.555	-150.858	-147.157	-108.114	-148.749	-8191	255	
21476.113	1	1	0	0	0.12834	0.13694	0.077418	0.15044	0.26994	0.1231	0.14607	0.047931	0.010705	0.20057	0.081097	0.32476	0.1768	0.27624	0.134	0.13568	-2.5396	-2.5833	-3.4125	-2.6958	-2.8417	-3.2896	-2.6562	-3.2375	-3.0583	-2.5854	-3.3375	-2.9083	-2.8771	-3.3104	-2.5625	-3.2396	-24.854	-142.166	-81.777	-102.661	109.951	-156.588	-124.582	-144.624	154.598	-59.472	62.492	-126.271	-77.174	114.604	71.811	-110.419	0.00027146	0.0012282	0.00035769	481.47	9.6201e-06	1.1368e-05	520.54	160.91	5.4562e-06	1.0532e-05	206.4	77.453	57.119	21.885	1.0905e-05	31.581	0.0070279	0.0081345	0.0022451	605.2	8.6209e-05	8.8368e-05	616.54	195.05	8.8049e-05	9.2291e-05	269.89	99.578	77.96	28.661	8.8565e-05	40.781	-57.097	-71.323	14.236	-159.158	82.702	3.841	-159.352	-153.990	-106.688	-19.351	-156.269	-152.572	-150.805	-146.805	31.856	-149.161	-8191	255	
21476.186	1	1	0	0	0.27617	0.16237	0.25408	0.42932	0.3087	0.14811	0.043592	0.13272	0.10422	0.16331	0.099995	0.10122	0.23796	0.055706	0.13914	0.22181	-2.5729	-2.4729	-3.4042	-2.7521	-2.9271	-3.2583	-2.5896	-3.0312	-3.1312	-2.4604	-3.2354	-2.8125	-3.0396	-3.2771	-2.7146	-3.0771	75.417	128.504	110.699	-116.223	-61.679	-147.344	-57.172	-136.740	-65.090	-43.167	62.289	82.104	-118.849	111.631	82.192	-79.100	0.00039626	0.000384	0.0005396	477.43	2.6561e-05	1.9673e-05	523.1	161.62	9.4749e-06	2.0235e-05	204.24	76.697	57.586	21.598	5.5843e-06	31.052	0.0068622	0.0078626	0.0021936	603.71	8.4621e-05	8.7126e-05	619.4	195.52	8.8048e-05	9.1239e-05	267.76	98.673	77.921	28.505	8.9332e-05	40.669	-110.807	-149.950	-145.431	-158.721	-5.143	-81.611	-159.147	-154.189	186.389	94.771	-156.361	-152.067	-150.726	-146.432	-47.028	-149.058	-8191	255	
21476.303	1	1	0	0	0.20639	0.099696	0.078483	0.24048	0.065316	0.1834	0.10053	0.18158	0.19129	0.12785	0.10968	0.13589	0.049132	0.16303	0.22827	0.1767	-2.8312	-2.6667	-3.1396	-2.8917	-2.5458	-3.3292	-2.6958	-3.0542	-3.3146	-2.6	-3.35	-3.1167	-2.775	-3.3583	-2.8063	-3.0229	126.395	-161.141	-137.979	107.646	-170.343	-167.842	-110.195	120.372	-71.037	181.494	-133.389	137.144	-164.812	-162.420	47.492	168.776	3.5858e-05	0.00088263	0.0004049	477.28	3.2492e-05	1.2947e-05	528.01	158.6	1.4093e-05	6.3047e-06	204.42	76.561	57.524	21.68	3.2767e-06	31.112	0.0070467	0.0081414	0.002266	605.7	8.6222e-05	8.7147e-05	615.81	192.64	8.3048e-05	8.5303e-05	262.84	97.377	76.449	28.153	8.5082e-05	40.262	-43.298	119.147	109.803	-158.439	35.089	-47.334	-159.219	-153.905	-32.085	-141.215	-155.679	-152.632	-151.354	-146.940	68.322	-148.650	-8191	255	
21476.400	1	1	0	0	0.13736	0.25013	0.20901	0.084205	0.14019	0.21792	0.16969	0.15309	0.22205	0.23504	0.14106	0.022801	0.19434	0.14983	0.14306	0.24884	-2.8375	-2.4771	-3.1354	-2.8583	-2.7458	-3.3563	-2.8875	-2.9062	-3.2708	-2.7208	-3.1604	-3.1417	-2.6813	-3.3229	-2.8708	-2.75	-35.452	182.769	-75.485	-172.156	-38.102	-58.313	-166.397	166.869	56.764	111.182	-27.488	-125.191	-162.096	73.159	-0.840	42.409	0.00029017	0.00065315	0.00057164	487.51	1.4139e-05	1.2541e-05	525	161.15	1.3912e-05	2.1547e-05	206.14	78.262	57.735	21.769	1.9558e-05	31.66	0.0068277	0.0079366	0.0022094	606.79	8.4058e-05	8.4924e-05	615.56	192.81	8.1704e-05	8.4493e-05	263.36	97.657	75.743	27.989	8.0947e-05	39.787	-113.876	-37.606	-52.519	-158.916	184.936	-45.026	-159.458	-154.524	72.380	42.752	-156.092	-152.301	-151.410	-147.193	-111.981	-149.177	-8191	255	
21476.498	1	1	0	0	0.041643	0.18093	0.080773	0.1172	0.28969	0.11952	0.053126	0.20555	0.072813	0.24245	0.08931	0.20339	0.047394	0.4286	0.069319	0.07706	-2.9771	-2.4938	-2.9188	-3.1	-2.5979	-3.2562	-2.9125	-2.7792	-3.2875	-2.6958	-3.0042	-3.1521	-2.6417	-3.4562	-2.975	-2.5458	-22.304	50.991	26.903	-151.336	-97.600	134.509	134.125	158.047	168.124	158.684	-64.254	103.411	-48.173	-79.533	-104.311	79.628	0.00049272	0.00176	0.00014134	487.73	4.173e-06	1.0304e-05	535.87	162.38	2.2709e-05	1.4832e-05	208.33	78.574	57.824	22.321	1.5225e-05	32.019	0.0062689	0.0071391	0.0019598	590.58	7.3728e-05	7.352e-05	603.62	187.71	7.1765e-05	7.5382e-05	259.09	96.161	74.304	27.802	7.7786e-05	39.873	-92.273	-45.838	178.566	-158.832	28.661	-148.111	-159.467	-154.444	-59.037	-32.504	-155.652	-152.018	-151.714	-147.137	-23.036	-148.738	-8191	255	
21476.615	1	1	0	0	0.11951	0.23727	0.20138	0.0094162	0.25374	0.22471	0.13642	0.1277	0.096192	0.11142	0.36504	0.13043	0.11244	0.15257	0.090919	0.2215	-2.9813	-2.6	-2.9458	-3.2812	-2.5417	-3.4	-3.0083	-2.7417	-3.3917	-2.6312	-2.8479	-3.2646	-2.5167	-3.1271	-3.0687	-2.6896	116.226	156.988	24.379	144.374	160.452	-77.808	89.141	155.546	18.367	56.266	128.407	-162.292	-155.940	146.932	-155.930	10.679	0.00015657	0.0017821	0.00080745	492.18	1.0186e-05	6.2376e-06	535.52	162.77	2.1582e-05	1.504e-05	209.35	78.56	58.47	22.158	1.0355e-05	32.506	0.0063485	0.0073224	0.0020459	596.39	7.7322e-05	7.8322e-05	609.27	190.41	7.4739e-05	7.721e-05	260.45	96.36	75.012	27.974	8.044e-05	40.457	-146.825	-8.944	140.015	-158.482	-83.312	137.951	-159.451	-153.866	2.914	163.582	-156.001	-151.915	-151.223	-147.121	-53.645	-148.644	-8191	255	
21476.713	1	1	0	0	0.26417	0.13519	0.072517	0.037699	0.11188	0.11366	0.19828	0.2479	0.042774	0.23065	0.10388	0.056622	0.21752	0.22529	0.15341	0.23408	-3.0375	-2.5854	-2.8312	-3.2104	-2.4813	-3.1083	-3.1792	-2.4583	-3.5021	-2.825	-2.8646	-3.325	-2.7188	-3.1	-3.2021	-2.6271	-96.889	76.404	-104.754	153.233	164.885	175.552	83.264	113.931	-104.503	-59.507	170.580	-44.917	115.022	-25.012	-135.191	-132.156	0.0003438	0.0019902	0.00035332	484.56	1.4158e-05	1.6389e-05	535.42	162.19	1.0704e-05	9.0098e-06	207.2	78.944	58.182	21.788	1.8652e-05	32.28	0.0065053	0.0075033	0.0021161	602.7	8.2135e-05	8.4333e-05	622.11	195.65	8.4384e-05	8.7643e-05	269.53	99.855	78.29	29.078	9.0564e-05	41.578	-147.944	-161.948	-80.348	-158.568	116.428	185.520	-159.185	-154.426	92.435	-104.494	-156.939	-152.260	-150.979	-147.078	-88.265	-149.239	-8191	255	
21476.809	1	1	0	0	0.1667	0.29167	0.058557	0.061842	0.10479	0.13402	0.094531	0.17267	0.20782	0.25504	0.13336	0.084037	0.20449	0.36741	0.040496	0.20065	-2.8104	-2.9458	-2.7625	-3.5062	-2.5354	-3.0458	-3.4104	-2.4167	-3.2438	-2.9229	-2.7271	-3.2458	-2.6375	-2.9375	-3.2438	-2.6	-42.163	41.854	-70.131	127.719	-167.240	2.147	72.619	86.574	-84.388	34.159	13.405	-44.514	174.076	154.781	3.247	124.737	0.00033126	0.0012056	0.00030637	484.21	1.0294e-05	2.9826e-05	528.98	160.02	1.0037e-05	7.5258e-06	207.74	78.802	57.754	21.762	7.4298e-06	31.806	0.0072074	0.0083816	0.0023466	622.06	9.1377e-05	9.387e-05	632.51	198.09	9.0335e-05	9.3787e-05	273.65	100.78	78.826	29.048	9.2444e-05	41.61	-87.125	-59.158	117.597	-159.042	-152.411	-49.382	-159.141	-154.517	22.240	81.013	-156.103	-152.773	-151.959	-146.809	-134.832	-149.359	-8191	255	
21476.904	1	1	0	0	0.15675	0.1701	0.084349	0.20901	0.14034	0.1363	0.19869	0.28546	0.06658	0.15695	0.13649	0.34408	0.062276	0.24552	0.0049628	0.29681	-2.8833	-2.925	-2.6312	-3.3042	-2.6354	-2.8729	-3.4479	-2.4021	-3.1458	-3.0729	-2.575	-3.4667	-2.6083	-2.7646	-3.3292	-2.5458	-164.352	134.307	60.526	-172.296	165.954	125.887	90.371	-39.986	67.091	-68.511	129.056	119.939	-68.047	-159.436	103.245	-111.205	0.00044227	0.00065364	0.00054757	490.03	5.9694e-06	2.4356e-05	526.62	162.48	6.0252e-06	9.0468e-06	205.73	77.899	57.911	22.004	1.7211e-05	31.845	0.0073946	0.0086053	0.0024094	626.5	9.3311e-05	9.6095e-05	634.65	199.94	9.3221e-05	9.5059e-05	274.95	101	79.528	29.314	9.3799e-05	41.8	-118.562	28.909	95.113	-158.876	-101.766	-19.972	-158.978	-154.376	43.559	48.550	-156.186	-152.450	-151.601	-146.213	-163.324	-149.847	-8191	255	
21477.002	1	1	0	0	0.10896	0.2108	0.18224	0.087001	0.16573	0.10749	0.16763	0.15122	0.18028	0.070382	0.15824	0.096897	0.17996	0.11372	0.13197	0.14359	-2.8417	-3.0854	-2.5833	-3.4375	-2.8833	-2.7062	-3.4104	-2.625	-3.1813	-3.0708	-2.5729	-3.3	-2.7375	-2.6292	-3.4083	-2.7062	-99.369	65.859	-155.144	64.292	-48.207	74.138	109.134	146.143	172.745	-63.107	153.606	178.514	-90.087	3.415	-160.493	103.467	0.00019768	0.00091626	0.00035531	486.74	1.0696e-05	1.1067e-05	528.78	161	2.0382e-05	1.5413e-05	204.38	77.32	57.239	21.705	7.876e-06	31.382	0.0075034	0.0086704	0.0024469	626.2	9.3776e-05	9.6081e-05	631.84	198.69	9.3613e-05	9.5857e-05	272.86	101.11	79.347	29.319	9.657e-05	41.655	-76.257	-3.977	-121.776	-158.485	23.151	-68.518	-159.011	-154.224	64.619	126.551	-156.433	-152.877	-151.236	-147.470	-23.160	-149.594	-8191	255	
21477.098	1	1	0	0	0.27642	0.13392	0.068763	0.10906	0.36532	0.24613	0.22506	0.06586	0.2704	0.16174	0.20824	0.10497	0.12892	0.083797	0.10576	0.24533	-2.5687	-3.2875	-2.5021	-3.2188	-3.0062	-2.8208	-3.3896	-2.6583	-2.9104	-3.3312	-2.5917	-3.2125	-2.9896	-2.6333	-3.3542	-2.7687	-119.316	-35.891	181.087	-47.483	77.808	-77.958	144.046	45.172	129.466	-98.476	-72.137	-156.063	160.140	0.495	179.737	82.399	0.00058909	0.0004606	0.00046522	482.43	1.0781e-05	1.8524e-05	518.11	159.63	4.2394e-06	1.4878e-05	205.34	76.727	57.223	21.83	5.7891e-06	31.438	0.007665	0.0088763	0.0024906	628.03	9.7709e-05	9.9032e-05	634.82	200.22	9.8092e-05	0.0001017	276.91	102.14	80.6	29.854	0.00010092	42.51	-106.994	-167.332	-148.214	-158.797	19.778	51.130	-159.568	-154.361	-92.114	-134.090	-156.441	-153.046	-151.787	-146.741	167.446	-149.486	-8191	255	
21477.219	1	1	0	0	0.20183	0.26279	0.17531	0.11198	0.23124	0.29643	0.21849	0.096854	0.12346	0.12168	0.23045	0.067137	0.29462	0.20949	0.21105	0.038953	-2.25	-3.2292	-2.5604	-3.2146	-2.9604	-2.6771	-3.225	-2.8063	-2.7313	-3.3125	-2.6854	-3.0875	-3.1042	-2.5229	-3.2417	-2.8792	7.829	-112.832	172.940	-166.747	144.143	-96.790	-153.195	-143.641	100.967	-143.755	-103.079	-7.699	153.883	-164.801	108.975	-4.730	0.0003892	0.00097849	0.00029473	481.14	1.5402e-05	9.4073e-06	517.97	159.39	1.661e-05	1.075e-05	205.18	77.247	56.852	21.534	1.5407e-05	31.422	0.0080476	0.0092553	0.0025737	631.83	9.8813e-05	0.00010018	632.35	199.77	9.6425e-05	9.8727e-05	273.65	101.31	79.706	29.339	9.7348e-05	41.763	-58.032	87.144	-66.055	-159.067	58.498	157.376	-159.375	-154.385	57.076	74.340	-155.569	-151.984	-150.906	-146.840	15.761	-150.038	-8191	255	
21477.312	1	1	0	0	0.081488	0.084374	0.1144	0.18663	0.095914	0.10937	0.035477	0.090914	0.19591	0.21978	0.207	0.26738	0.19117	0.1136	0.059008	0.19224	-2.3229	-3.1875	-2.6479	-3.0208	-3.1708	-2.6604	-3.4896	-2.9979	-2.7333	-3.4188	-2.8583	-3.0312	-3.2062	-2.7167	-3.275	-3.1146	119.495	108.159	108.208	-110.013	-74.096	-140.660	82.394	79.216	115.552	-116.217	52.092	145.666	158.446	-116.905	-93.612	181.758	0.00033965	0.00098269	0.00051712	477.37	1.7941e-05	1.4535e-05	515.53	157.04	1.8702e-05	2.2836e-05	203.6	77.25	56.991	21.654	1.5311e-05	31.438	0.0077298	0.0089955	0.002507	624.59	9.5429e-05	9.6871e-05	623.85	196.03	9.137e-05	9.2856e-05	267.28	99.057	77.535	28.66	8.9546e-05	40.702	-109.755	154.528	101.755	-158.625	-61.366	-63.755	-159.560	-154.481	-72.752	-149.836	-156.538	-152.122	-151.293	-147.264	81.010	-150.115	-8191	255	
21477.408	1	1	0	0	0.16168	0.1876	0.15723	0.11882	0.31051	0.1157	0.092099	0.14636	0.1581	0.11026	0.058432	0.092252	0.15421	0.21056	0.35154	0.06686	-2.1708	-3.2438	-2.6854	-2.9354	-3.2833	-2.5	-3.4021	-3.1104	-2.4979	-3.3854	-2.7188	-2.8875	-3.3563	-2.5438	-3.4188	-3.1229	178.787	60.494	25.691	45.909	-168.180	-46.829	-130.788	78.723	-5.646	72.767	-28.413	-85.869	-82.666	-146.272	102.781	159.756	0.00011722	0.00083492	0.00026226	470.59	2.0757e-05	2.8044e-05	511.62	158.62	1.7994e-05	2.3857e-05	204.26	77.319	56.593	21.601	7.6749e-06	31.432	0.0071424	0.0083084	0.0023564	613.51	9.3831e-05	9.6943e-05	623.52	198.98	9.6771e-05	9.9541e-05	273.21	101.51	79.156	29.115	9.536e-05	41.412	-148.137	-35.702	-97.910	-159.008	89.437	-9.180	-159.107	-154.045	-160.823	-12.546	-156.139	-152.244	-151.379	-147.730	-17.325	-148.969	-8191	255	
21477.482	1	1	0	0	0.11629	0.10167	0.31827	0.24604	0.26776	0.12805	0.24438	0.16	0.16121	0.20979	0.068746	0.09597	0.15238	0.26335	0.10993	0.15997	-2.2708	-3.2396	-2.8083	-2.7	-3.2646	-2.8146	-3.3	-3.1396	-2.6042	-3.5375	-2.8625	-2.8542	-3.4833	-2.7167	-3.2271	-3.3833	-77.495	87.381	-31.924	-89.069	-25.923	-91.040	78.142	164.110	49.457	22.051	-114.845	-54.694	-3.705	185.812	36.251	1.463	0.00016298	0.0016849	0.00043835	473.72	1.3617e-05	3.1297e-05	514.3	158.08	1.1158e-05	1.0737e-05	205.14	77.367	56.862	21.608	4.6662e-06	31.388	0.0075196	0.0087453	0.0024501	616.63	9.5465e-05	9.8411e-05	626.95	198.37	9.6912e-05	0.00010015	274.11	101.71	80.05	29.336	9.8563e-05	41.767	172.541	-130.261	7.027	-158.287	129.763	-40.066	-159.217	-153.913	-20.520	-138.406	-156.627	-152.836	-151.236	-146.344	-144.116	-149.673	-8191	255	
21477.602	1	1	0	0	0.042016	0.08107	0.16873	0.10818	0.19729	0.11395	0.067496	0.041985	0.042286	0.035251	0.10374	0.12404	0.10413	0.18317	0.1986	0.19633	-2.2354	-3.1396	-2.8104	-2.65	-3.3792	-2.7354	-2.9854	-3.2708	-2.7104	-3.1479	-3.0917	-2.6146	-3.4021	-2.8417	-2.8458	-3.4792	52.443	-118.904	127.680	-112.154	-144.860	-64.592	76.139	-106.750	-83.250	127.252	-73.199	-108.014	170.488	143.575	65.176	-171.167	0.00041154	0.002091	0.00012441	471.19	1.6174e-05	2.617e-05	515.48	158.25	5.455e-06	7.5011e-06	202.38	76.618	56.743	21.241	1.6348e-05	31.093	0.0077628	0.0089935	0.0025292	627.45	9.9642e-05	0.00010224	635.71	200.54	0.00010198	0.00010583	278.43	103.14	81.687	30.044	0.00010868	42.909	-80.203	-69.867	113.200	-158.327	-29.042	-55.602	-159.127	-154.087	7.553	-40.870	-156.093	-152.652	-151.389	-147.565	73.437	-148.987	-8191	255	
21477.697	1	1	0	0	0.23646	0.084357	0.23507	0.21126	0.30649	0.12979	0.36591	0.050351	0.20555	0.27793	0.018057	0.1443	0.1626	0.16393	0.22632	0.042801	-2.1688	-3.1604	-3.0792	-2.6854	-3.3729	-2.8354	-2.9938	-3.475	-2.6854	-3.1146	-3.15	-2.625	-3.4667	-2.8312	-2.8167	-3.3229	-79.413	-32.796	-132.889	93.122	43.034	144.679	121.665	-105.151	157.070	82.246	-82.066	-127.815	121.342	87.229	120.004	172.918	0.00053255	0.0020121	0.00065984	468.8	1.9511e-05	2.9626e-06	513.75	156.51	1.1802e-05	1.9659e-05	200.14	75.458	56.25	21.091	1.467e-05	30.484	0.008634	0.010164	0.0028453	648.11	0.00011172	0.00011515	652.31	207.01	0.00011561	0.00012144	291.75	107.63	85.84	31.454	0.00012428	44.801	-108.949	29.742	-159.501	-158.839	-93.060	-142.502	-159.171	-154.568	8.754	137.481	-156.263	-152.408	-151.613	-147.891	71.008	-149.711	-8191	255	
21477.793	1	1	0	0	0.27757	0.10583	0.14824	0.14302	0.22892	0.12451	0.14672	0.021304	0.084956	0.074995	0.39501	0.13056	0.1921	0.2098	0.073251	0.14642	-2.2104	-3.2	-3.1542	-2.7146	-3.4521	-2.9104	-2.9062	-3.4479	-2.675	-2.9896	-3.275	-2.8667	-3.3563	-3.1792	-2.8625	-3.5917	-136.040	-26.149	-1.764	-43.040	-136.123	-39.456	186.810	-128.860	86.376	-22.580	66.666	74.688	-13.444	148.615	-102.044	19.573	0.00014106	0.0029514	0.00030664	468.87	1.5556e-05	2.6847e-05	506.95	156.34	1.1229e-05	6.9159e-06	198.88	74.915	56.581	21.245	4.9891e-06	30.975	0.0098729	0.011442	0.0031849	669.76	0.00012173	0.00012426	661.04	210.27	0.00012088	0.00012611	294.38	108.81	87.16	31.961	0.00012837	45.637	178.348	127.661	118.343	-158.581	-2.740	-153.156	-159.465	-153.869	-55.654	16.535	-156.292	-152.353	-151.097	-147.222	-98.606	-149.421	-8191	255	
21477.889	1	1	0	0	0.16765	0.14174	0.13343	0.089285	0.15069	0.067809	0.10428	0.27398	0.22922	0.15914	0.12627	0.054333	0.11573	0.10017	0.14687	0.13018	-2.3167	-2.9792	-3.3083	-2.7875	-3.2958	-3.0917	-2.8292	-3.4354	-2.7646	-2.925	-3.35	-2.4917	-3.2438	-3.1479	-2.4729	-3.3208	-76.329	-167.231	136.087	-159.286	50.611	-55.181	146.383	-151.786	11.001	168.500	179.627	18.539	113.256	-124.916	-62.280	161.657	0.00026387	0.00049018	0.0010767	464.92	7.2357e-06	3.831e-05	511.51	157.05	1.8899e-05	7.568e-06	201.05	74.525	56.79	21.149	1.5462e-05	30.789	0.010144	0.011897	0.0033119	677.06	0.00012609	0.00012689	668.8	211.81	0.00012147	0.00012638	295.08	108.14	87.006	31.688	0.00012605	44.885	-106.395	-168.051	-77.583	-158.327	-87.142	76.295	-159.593	-154.044	-127.633	22.587	-156.386	-152.483	-150.604	-146.508	-42.277	-149.251	-8191	255	
21477.984	1	1	0	0	0.22015	0.11059	0.17075	0.14667	0.12974	0.13108	0.13068	0.12766	0.20394	0.21872	0.10482	0.21295	0.025684	0.13145	0.17643	0.057213	-2.4813	-2.8937	-3.2771	-2.7896	-3.1229	-3.1604	-2.6458	-3.2271	-2.9292	-2.8187	-3.6125	-2.6688	-2.9688	-3.2375	-2.5333	-3.2708	57.753	-162.005	-81.666	-159.641	142.526	-38.147	-46.553	31.466	46.766	51.633	166.713	176.784	90.171	148.630	-61.926	147.756	0.00039536	0.001186	0.0006554	470.03	2.1917e-05	2.2482e-05	503.75	156.2	1.5754e-05	2.8381e-06	197.73	75.022	56.566	21.22	1.3664e-05	30.708	0.0099138	0.01151	0.0031786	671.15	0.00012354	0.00012518	661.2	210.26	0.0001192	0.00012325	290.85	106.97	85.04	31.056	0.00011793	43.806	-52.715	146.209	-64.511	-158.778	4.683	-75.665	-159.507	-154.119	162.225	-142.632	-155.339	-152.600	-150.838	-147.059	-133.725	-149.960	-8191	255	
21478.080	1	1	0	0	0.22912	0.18607	0.30384	0.17226	0.048613	0.1166	0.2156	0.058296	0.20138	0.20828	0.15376	0.16525	0.050576	0.20944	0.031893	0.22032	-2.525	-2.6167	-3.3771	-2.6458	-2.8438	-3.2938	-2.7188	-3.2938	-3.0021	-2.8292	-3.4542	-2.8104	-3.0021	-3.3021	-2.4813	-3.2208	-90.184	102.952	2.592	56.746	-127.053	-81.007	176.319	91.662	74.838	-100.823	-21.876	109.084	-45.800	-152.018	-6.314	4.071	0.00040858	0.00084049	0.00069945	471.23	1.5542e-05	2.512e-05	510.78	157.9	1.5369e-05	8.6642e-06	201.39	75.668	55.68	21.268	1.1392e-05	30.686	0.0091562	0.010658	0.0029598	653.67	0.00011428	0.00011664	652.76	207.32	0.00011392	0.00011789	287.29	105.72	83.713	30.594	0.0001128	43.311	-90.956	43.475	23.091	-158.905	67.399	-18.418	-159.368	-154.418	73.419	148.629	-156.233	-152.762	-151.171	-146.585	-1.043	-149.714	-8191	255	
21478.178	1	1	0	0	0.21795	0.15778	0.40727	0.1279	0.13451	0.22658	0.058138	0.21418	0.29288	0.12226	0.22913	0.25039	0.25372	0.13849	0.15277	0.22313	-2.6312	-2.6542	-3.3354	-2.9354	-3.0521	-3.3354	-2.5875	-3.25	-3.1333	-2.8	-3.3542	-2.6958	-2.7979	-3.3354	-2.525	-3.0167	105.672	116.728	160.481	104.333	-53.559	45.565	-1.212	-36.969	-61.501	98.146	169.166	132.083	52.605	-117.322	-79.276	123.641	0.00054821	0.00035254	0.00048325	471.17	1.5959e-05	1.4047e-05	510.86	157.32	5.407e-06	1.121e-05	199.96	75.146	55.573	20.984	1.1843e-05	30.609	0.0087991	0.010044	0.0027956	640.98	0.00010682	0.00010867	641.53	204.11	0.00010845	0.0001129	284.63	104.94	83.909	30.768	0.00011689	43.645	-46.539	-64.415	-125.339	-159.377	-109.257	11.805	-158.858	-153.873	84.346	-67.951	-155.714	-152.326	-150.757	-147.515	41.686	-149.021	-8191	255	
21478.299	1	1	0	0	0.067303	0.12494	0.14667	0.1281	0.20942	0.086061	0.17925	0.20762	0.27809	0.099491	0.3407	0.37813	0.17403	0.055846	0.26042	0.044698	-2.8708	-2.6312	-3.1937	-2.7833	-2.6896	-3.3187	-2.625	-3.0062	-3.2708	-2.5208	-3.2208	-2.9396	-2.6562	-3.3292	-2.8146	-2.9333	-72.776	70.250	-52.868	-17.937	-11.308	22.954	170.113	-155.644	50.716	183.673	80.143	-170.726	18.652	-109.064	84.905	181.643	0.00030152	0.0010319	0.00031519	476.63	8.4091e-06	1.7855e-05	512.48	155.8	1.607e-05	2.7824e-05	202.41	74.469	55.291	21.034	5.2897e-06	30.53	0.0092267	0.010658	0.0029785	660.01	0.000116	0.00011949	663.26	208.84	0.00011939	0.00012401	295.3	107.75	85.787	31.276	0.00012308	44.594	-112.547	20.299	-87.029	-158.951	115.599	90.063	-159.463	-154.700	-47.164	128.655	-156.600	-152.081	-150.516	-146.909	113.824	-149.421	-8191	255	
21478.393	1	1	0	0	0.20198	0.21031	0.10475	0.17901	0.098027	0.10767	0.13453	0.16202	0.12675	0.080858	0.013913	0.014391	0.056495	0.089242	0.13889	0.15623	-2.5979	-2.3625	-3.2792	-3.0146	-2.5792	-3.4437	-2.7188	-2.9188	-3.2354	-2.625	-3.1646	-3.1104	-2.6625	-3.3312	-2.7667	-2.8292	99.573	148.461	-158.111	184.117	78.080	112.120	-134.412	-63.569	78.992	161.963	3.936	-20.698	34.270	-122.962	-164.042	-161.544	0.00047038	0.00094673	0.0003526	474.36	1.1087e-05	2.2377e-05	513.64	157.01	2.6142e-06	2.544e-05	201.7	75.276	55.69	21.139	2.2114e-05	30.226	0.0099595	0.011637	0.0032378	679.69	0.00012566	0.00012777	671.25	212.23	0.00012161	0.00012579	293.42	107.64	85.292	31.125	0.00011885	44.226	-99.512	-117.380	-8.456	-158.895	-24.913	-140.822	-159.743	-154.231	-125.562	132.907	-156.015	-152.776	-151.168	-146.402	11.807	-148.251	-8191	255	
21478.488	1	1	0	0	0.12269	0.12309	0.18454	0.25225	0.096739	0.14074	0.32764	0.26213	0.21634	0.051034	0.095094	0.29515	0.11668	0.28724	0.17539	0.17434	-2.8438	-2.4854	-3.1312	-3.2021	-2.4854	-3.2229	-2.9271	-2.6875	-3.425	-2.7146	-3.1708	-3.1083	-2.4167	-3.3104	-2.8521	-2.7562	74.033	159.189	18.880	186.861	-44.120	-83.579	51.495	-155.646	-123.507	-149.913	-124.545	84.270	161.389	185.393	39.990	135.861	0.00039886	0.001531	0.000542	473.86	9.5885e-06	1.9343e-05	514.01	157.63	1.2925e-05	1.9501e-05	197.5	75.029	55.287	20.874	1.6788e-05	30.513	0.0094478	0.011011	0.003096	667.33	0.00012283	0.00012591	667.91	213.3	0.00012467	0.00012726	296.27	108.68	86.405	31.459	0.00012419	44.659	-85.964	-11.032	17.257	-158.695	35.253	44.898	-159.931	-153.911	127.603	-61.648	-156.050	-152.487	-151.556	-147.583	163.514	-148.568	-8191	255	
21478.586	1	1	0	0	0.23138	0.032839	0.1337	0.12475	0.15184	0.28357	0.25917	0.22218	0.17589	0.040136	0.11848	0.16269	0.11843	0.18348	0.25459	0.26562	-3.0583	-2.5646	-2.875	-3.2146	-2.7979	-3.3292	-3	-2.8375	-3.4	-2.5625	-2.8	-3.3979	-2.6375	-3.175	-3.1396	-2.6708	35.881	-151.231	45.852	89.855	66.735	-99.574	107.637	-53.923	41.686	115.216	77.569	55.752	176.401	53.832	-11.198	-71.829	0.00029168	0.001484	9.6252e-05	469.04	2.9928e-05	2.1269e-05	504.5	156.18	2.5429e-05	3.7072e-05	198.57	74.12	55.579	20.88	1.6264e-05	30.724	0.0097445	0.01128	0.0031877	670.85	0.00012342	0.00012687	668.26	212.75	0.00012557	0.0001296	298.55	109.21	86.91	31.82	0.0001271	45.083	-56.216	2.020	-47.316	-159.063	6.007	-68.520	-159.143	-153.949	67.730	-66.040	-156.226	-152.824	-151.438	-146.754	-113.318	-149.519	-8191	255	
21478.705	1	1	0	0	0.067786	0.17181	0.10409	0.11944	0.080138	0.19044	0.26978	0.21715	0.05544	0.10779	0.049362	0.16383	0.24792	0.030894	0.082957	0.19976	-3.0438	-2.7167	-2.8292	-3.3063	-2.7417	-3.3458	-3.2021	-2.7625	-3.3063	-2.6896	-2.7833	-3.4542	-2.6896	-3.2396	-3.2458	-2.625	23.030	160.582	-91.203	-148.459	178.505	-130.696	157.571	153.685	17.782	-78.427	-72.159	-8.727	-167.721	-38.152	168.682	164.206	0.00019639	0.001456	0.00034698	464.89	3.6256e-06	1.4506e-05	509.39	156.37	1.6726e-05	8.4394e-06	201.42	75.432	55.726	21.107	2.3447e-05	30.666	0.0099306	0.011393	0.0031548	664.79	0.00011962	0.00012058	657.28	206.35	0.00011246	0.00011536	285.41	104.15	82.11	30.005	0.00010867	42.603	-122.913	60.821	-75.738	-159.076	-78.788	-134.265	-159.391	-154.324	0.055	-78.965	-156.230	-152.392	-150.994	-146.370	-91.121	-149.030	-8191	255	
21478.777	1	1	0	0	0.23489	0.13069	0.10391	0.29158	0.11494	0.23994	0.25414	0.15424	0.40881	0.25741	0.22172	0.051368	0.1503	0.12269	0.18988	0.07567	-2.8979	-2.9062	-2.7792	-3.3354	-2.6646	-3.1854	-3.1479	-2.5271	-3.3563	-2.8187	-2.6583	-3.4125	-2.6229	-3.0333	-3.325	-2.6979	-62.837	175.758	-31.915	132.096	65.562	-73.750	31.078	90.607	-18.789	16.537	165.847	126.571	-80.725	123.315	155.002	73.891	0.0003536	0.0033185	0.00075483	475.82	8.5206e-06	8.4904e-06	512.78	158.79	2.044e-06	1.4518e-05	203.18	75.983	56.241	21.457	1.6918e-05	30.599	0.0083966	0.0095845	0.0026485	629.19	9.8558e-05	9.7625e-05	620.28	194.03	8.9105e-05	9.0151e-05	264.43	97.41	75.827	28.008	8.5955e-05	39.635	-60.507	-39.169	-83.587	-158.445	-6.477	141.020	-159.219	-153.713	-69.731	184.310	-156.491	-152.978	-150.789	-147.142	59.497	-148.908	-8191	255	
21478.898	1	1	0	0	0.13875	0.10757	0.090694	0.20813	0.096272	0.058272	0.17263	0.26794	0.25806	0.16768	0.11151	0.21393	0.070384	0.071201	0.18203	0.37468	-2.9042	-2.8937	-2.6104	-3.3812	-2.5938	-2.7771	-3.25	-2.575	-3.1729	-3.0083	-2.6542	-3.3917	-2.7833	-2.9396	-3.3958	-2.6583	-91.893	-116.093	73.928	131.691	143.433	84.934	-168.751	117.570	-150.517	113.095	-39.909	-168.050	140.637	136.948	48.539	-169.841	0.00030564	0.00054699	0.00028328	478	9.1433e-06	1.3157e-05	517.98	158.57	6.3634e-06	2.4183e-05	204.14	76.494	56.498	21.237	1.0716e-05	30.788	0.0066976	0.0077419	0.0021547	599.36	8.266e-05	8.4129e-05	607.32	190.78	8.196e-05	8.3411e-05	261.08	96.646	75.26	27.572	8.2266e-05	39.1	-104.131	152.420	-145.379	-159.056	31.387	45.298	-158.930	-153.799	-101.821	-62.177	-155.703	-152.171	-151.541	-147.537	-115.336	-149.738	-8191	255	
21478.994	1	1	0	0	0.31013	0.053165	0.15124	0.085289	0.10602	0.055276	0.2191	0.22298	0.024329	0.087784	0.16612	0.29873	0.24458	0.16701	0.062993	0.043887	-2.8083	-3.0354	-2.4	-3.4167	-2.8187	-2.6896	-3.2687	-2.3479	-3.025	-3.0604	-2.6312	-3.3563	-2.9917	-2.8833	-3.2479	-2.5771	-170.404	109.284	-97.053	-93.271	-92.412	168.098	-65.626	116.722	142.010	-163.060	76.807	61.330	-71.967	109.246	45.300	158.873	0.00043904	0.0010452	0.00017593	484.95	3.9967e-06	1.3173e-05	524.19	158.18	5.7989e-06	1.6481e-05	204.5	77.282	56.565	21.4	1.2517e-05	31.368	0.0063404	0.007317	0.0020249	590.99	7.6875e-05	7.8894e-05	603.38	187.94	7.7223e-05	8.0203e-05	257.7	95.187	74.167	27.21	7.761e-05	38.983	-83.399	51.922	-74.296	-158.271	-39.142	61.722	-159.372	-154.043	77.769	-159.437	-156.295	-152.510	-151.280	-146.813	-44.061	-149.395	-8191	255	
21479.090	1	1	0	0	0.094578	0.19379	0.093661	0.35465	0.14792	0.15627	0.090039	0.11073	0.17035	0.1058	0.34685	0.051537	0.2465	0.15725	0.06804	0.16747	-2.6104	-3.3208	-2.5271	-3.3104	-3.0625	-2.5563	-3.4104	-2.5646	-2.9188	-3.3021	-2.6521	-3.2458	-2.8521	-2.6146	-3.1792	-2.6833	81.965	18.834	-108.420	102.839	118.269	-122.193	125.766	124.393	10.466	79.935	42.274	101.300	85.230	27.786	-156.737	82.344	0.00032195	0.0012922	0.00064465	484.32	7.3895e-06	1.2776e-05	531.83	160.88	8.069e-06	2.0813e-05	208.26	78.119	57.858	21.899	1.4643e-05	31.783	0.0060137	0.0069239	0.0019112	584.79	7.3026e-05	7.4698e-05	603.01	188	7.4358e-05	7.7153e-05	258.37	95.719	74.475	27.394	7.6295e-05	39.198	-123.630	139.957	75.036	-158.605	-3.266	-23.942	-159.725	-153.762	64.430	-62.863	-156.342	-152.826	-151.001	-146.491	-41.184	-149.388	-8191	255	
21479.186	1	1	0	0	0.3042	0.095969	0.18523	0.12424	0.06681	0.13283	0.28492	0.18121	0.22608	0.070755	0.23076	0.33943	0.19869	0.10148	0.03633	0.21622	-2.4562	-3.2604	-2.6188	-3.1479	-3.0771	-2.5812	-3.4604	-2.6917	-2.8563	-3.4146	-2.5396	-3.2938	-3.2208	-2.625	-3.3229	-2.8354	-28.946	-155.614	86.856	157.334	66.111	81.700	79.474	146.619	76.675	145.074	100.462	114.776	131.659	-51.299	117.538	109.281	0.00016495	0.00047429	0.00049592	485.34	7.4406e-06	9.9136e-06	529.79	160.23	1.2747e-05	1.7015e-05	207.37	77.514	57.72	21.989	9.5207e-06	31.356	0.0060486	0.0070289	0.0019631	590.84	7.6005e-05	7.871e-05	609.43	189.98	7.772e-05	7.9973e-05	260.73	96.497	75.316	27.772	8.0749e-05	39.79	-126.012	-60.449	31.176	-158.562	-99.414	-22.064	-158.941	-154.530	-162.601	8.877	-156.023	-152.015	-151.413	-146.982	20.889	-149.434	-8191	255	
21479.281	1	1	0	0	0.26625	0.24201	0.14461	0.25481	0.062487	0.22966	0.089975	0.23047	0.11886	0.037598	0.21358	0.16836	0.16709	0.34703	0.084413	0.13824	-2.425	-3.3937	-2.4708	-3.0521	-3.1937	-2.6937	-3.15	-2.7958	-2.6292	-3.2438	-2.5333	-2.9625	-3.1937	-2.6312	-3.3208	-3.0021	-44.768	-116.443	-58.765	54.285	-9.999	-14.873	113.667	113.649	-101.910	65.589	146.892	-94.546	-157.129	-114.521	-34.160	139.590	0.00026415	0.00048817	9.8825e-05	483.22	2.3791e-05	1.4297e-05	527.46	160.22	1.0711e-05	1.0188e-05	207.88	78.422	57.388	21.441	1.3168e-05	31.326	0.0064727	0.0075267	0.0021122	600.52	8.2756e-05	8.5321e-05	615.65	193.36	8.4144e-05	8.7179e-05	266.17	98.392	76.497	28.149	8.5404e-05	40.386	-142.456	-54.748	83.482	-159.316	65.854	-105.307	-159.887	-154.352	119.182	10.685	-156.094	-152.259	-151.401	-146.874	75.391	-149.109	-8191	255	
21479.377	1	1	0	0	0.074872	0.21998	0.11697	0.27999	0.11706	0.16657	0.18579	0.37061	0.29774	0.18973	0.13866	0.19103	0.28112	0.2274	0.024273	0.32559	-2.1979	-3.3458	-2.7146	-3.0292	-3.1021	-2.6146	-3.2208	-3.1542	-2.4979	-3.3042	-2.5875	-2.8438	-3.1771	-2.5875	-3.1354	-2.95	101.758	-17.161	16.915	156.235	-27.695	3.975	-135.026	113.084	45.162	126.503	174.266	146.183	149.857	-108.700	187.268	150.115	0.0002429	0.001378	0.00016032	480.15	1.0991e-05	9.4124e-06	525.15	160.94	7.27e-06	4.8223e-06	206.3	78.15	57.198	21.518	6.4885e-06	31.834	0.006686	0.0077036	0.0021312	602.04	8.2603e-05	8.3398e-05	612.03	191.68	8.1262e-05	8.4182e-05	263.74	97.915	76.034	28.021	8.4358e-05	40.332	-92.637	94.020	133.814	-158.832	122.579	153.167	-159.379	-153.981	52.326	93.005	-156.299	-152.108	-150.815	-146.605	-13.788	-149.128	-8191	255	
21479.473	1	1	0	0	0.038924	0.15491	0.14022	0.16949	0.15417	0.18119	0.05715	0.18949	0.12455	0.11607	0.19907	0.066565	0.17832	0.027062	0.17122	0.20005	-2.175	-3.1896	-2.6896	-2.8625	-3.1437	-2.5312	-3.2729	-3.1	-2.5521	-3.4188	-2.9083	-2.7792	-3.4771	-2.7188	-3.1042	-3.05	-168.583	68.546	43.786	-147.116	-11.104	-131.258	41.601	18.794	-57.824	-15.441	110.132	-44.206	145.881	-95.406	147.348	-161.100	0.00030994	0.0014076	0.00073161	480.02	2.0035e-05	1.48e-05	530.79	159.88	7.9829e-06	9.4671e-06	207.78	78.986	57.895	21.709	1.0149e-05	31.62	0.006711	0.0077316	0.0021628	602.01	8.2868e-05	8.3992e-05	618.06	192.31	8.1565e-05	8.3463e-05	263.83	98.444	76.336	28.044	8.3805e-05	40.295	-104.393	-134.745	-47.739	-158.968	-153.614	-126.826	-159.327	-154.167	-154.906	-43.980	-155.721	-152.687	-151.373	-147.191	-145.271	-148.896	-8191	255	
21479.568	1	1	0	0	0.1574	0.13146	0.19056	0.17153	0.15482	0.14387	0.19292	0.22599	0.062311	0.1173	0.32243	0.15412	0.043466	0.17648	0.053984	0.032198	-2.0812	-3.2521	-2.9313	-2.7062	-3.3563	-2.7	-3.0375	-3.2771	-2.5833	-3.4437	-2.9396	-2.7562	-3.3479	-2.8667	-2.9396	-3.2125	63.928	152.851	-135.105	-121.894	-72.885	155.154	99.787	144.420	-60.005	-153.016	104.516	110.345	-77.053	-120.918	-70.308	-108.285	0.00044237	0.0029239	0.00047955	483.95	2.3842e-05	1.1114e-05	525.36	160.23	2.0379e-05	5.1633e-06	206.71	78.574	57.483	21.618	1.5392e-05	31.726	0.006726	0.0078321	0.0021874	607	8.5173e-05	8.7089e-05	619.87	195.12	8.5499e-05	8.7976e-05	266.82	98.581	76.86	28.262	8.6641e-05	40.42	-114.931	-37.628	-141.632	-158.061	-3.004	-134.613	-159.414	-154.164	-73.636	-36.159	-156.610	-152.766	-151.265	-146.921	-170.116	-149.231	-8191	255	
21479.668	1	1	0	0	0.37551	0.1607	0.031337	0.23161	0.08845	0.24693	0.24086	0.17682	0.24602	0.090636	0.11335	0.17727	0.27476	0.12073	0.3088	0.17451	-2.0521	-3.2646	-2.9604	-2.6646	-3.225	-2.7729	-3.1167	-3.3458	-2.6937	-3.3688	-3.1917	-2.6583	-3.3312	-2.8208	-3.0146	-3.2354	-156.943	172.353	-115.198	-119.267	-131.193	-122.731	-138.736	-164.209	175.347	156.498	-137.692	148.664	169.482	-22.886	11.769	56.638	0.00039109	0.0015546	0.00055225	477.59	9.7862e-06	2.3232e-05	522.54	161.12	1.3687e-05	1.0859e-05	205.65	77.141	56.812	21.761	6.0865e-06	31.672	0.0068957	0.0079951	0.0022691	609.18	8.7861e-05	9.0468e-05	625.5	196.83	9e-05	9.4095e-05	270.72	99.912	78.083	28.79	9.1767e-05	41.44	-101.089	-32.599	-16.658	-158.764	-39.860	-135.068	-159.208	-153.827	173.344	-50.334	-156.221	-152.482	-151.128	-146.988	172.721	-149.524	-8191	255	
21479.785	1	1	0	0	0.091817	0.091288	0.12418	0.13199	0.13838	0.12011	0.20504	0.11608	0.23472	0.17234	0.32431	0.082384	0.2721	0.15301	0.16016	0.10869	-2.2021	-3	-2.9854	-2.6333	-3.1875	-2.7812	-2.7375	-3.2938	-2.5917	-3.2229	-3.2812	-2.5438	-3.2625	-3.0375	-2.6708	-3.2396	-7.937	-28.512	-153.892	-110.272	-110.879	-169.581	-158.280	134.928	-53.336	-53.497	-25.535	82.457	174.227	151.280	8.924	176.341	0.00043164	0.0012546	4.9053e-05	478.33	1.4188e-05	2.08e-05	528.17	160.23	8.7156e-06	1.9606e-05	206.39	77.793	56.287	21.595	1.3818e-05	31.528	0.0074008	0.0085647	0.0024219	619.69	9.4747e-05	9.7311e-05	634.98	200.48	9.654e-05	9.9766e-05	277.66	102.57	80.28	29.595	0.00010134	42.538	-61.829	-129.885	47.974	-158.394	95.290	-58.998	-159.462	-154.074	-68.437	-47.419	-155.742	-152.367	-151.161	-146.966	-90.474	-149.247	-8191	255	
21479.883	1	1	0	0	0.038086	0.28155	0.083684	0.16073	0.16187	0.044684	0.075599	0.24328	0.13262	0.24086	0.15503	0.17735	0.16021	0.14346	0.26616	0.027883	-2.2271	-2.8979	-3.0229	-2.45	-3.3146	-3.0229	-2.6854	-3.4375	-2.7042	-2.8792	-3.25	-2.6042	-3.3354	-3.0208	-2.6063	-3.3625	-127.905	46.940	158.357	-109.117	-38.662	-73.422	101.666	174.354	-12.406	80.991	42.348	-124.667	-36.966	141.785	5.570	34.740	0.00014717	0.0018913	0.00013889	478.76	6.6288e-06	2.5647e-05	523.48	158.39	4.5173e-06	2.9485e-05	204.34	77.563	57.558	21.518	5.5826e-06	31.577	0.0079704	0.0093045	0.0026271	634.58	0.00010086	0.00010347	642	202.14	9.8808e-05	0.00010318	278.39	102.87	81.149	29.689	0.00010181	42.502	-36.375	104.749	-119.841	-158.830	-168.788	180.018	-159.457	-154.113	-130.436	26.025	-155.673	-152.003	-150.924	-146.743	164.697	-148.519	-8191	255	
21479.979	1	1	0	0	0.081931	0.05835	0.09983	0.11084	0.17156	0.12757	0.022216	0.15182	0.28433	0.032143	0.30475	0.38432	0.037697	0.17409	0.1797	0.05196	-2.4062	-2.8167	-3.275	-2.6063	-2.9854	-3.1854	-2.6646	-3.3521	-2.7812	-2.6979	-3.3208	-2.4292	-3.0021	-3.2458	-2.5229	-3.4021	120.800	-135.948	-44.779	-131.318	-23.969	160.443	-142.054	74.402	-20.054	-100.818	156.582	65.854	79.212	8.876	-107.819	36.547	0.00019242	0.00043992	0.00030319	476.62	1.1665e-05	2.4161e-05	516.49	158.6	1.3889e-05	1.6441e-05	206.18	77.289	56.945	21.354	6.5317e-06	31.271	0.008153	0.0095142	0.0026972	639.01	0.000106	0.00011003	650.11	205.54	0.00010978	0.00011582	289.92	107.15	85	31.17	0.00011796	44.631	-96.411	141.605	121.089	-158.388	-86.420	-10.541	-159.041	-153.973	-125.181	88.194	-156.136	-152.775	-150.482	-146.954	75.803	-149.089	-8191	255	
21480.074	1	1	0	0	0.11944	0.138	0.25461	0.048217	0.10282	0.17095	0.18844	0.12974	0.1321	0.10749	0.12975	0.31944	0.1158	0.14941	0.072113	0.16906	-2.5375	-2.7521	-3.2792	-2.7333	-2.9479	-3.2896	-2.5042	-3.2625	-2.7417	-2.6875	-3.4042	-2.6396	-2.9958	-3.2875	-2.4562	-3.3271	16.948	176.529	87.976	106.660	134.773	-155.216	63.841	-6.990	37.804	96.445	84.133	45.333	109.782	-170.582	-117.651	-108.429	0.00017783	0.00054475	0.00073514	471.98	7.2021e-06	2.1398e-05	511.91	158.14	2.3898e-05	1.2428e-05	202.46	76.038	56.662	21.394	2.3167e-05	31.431	0.0092888	0.010921	0.0030364	659.33	0.00011789	0.00012031	659.25	210.51	0.00011815	0.00012206	292.14	107.94	85.53	31.381	0.00012093	44.8	-24.061	27.482	-130.740	-159.048	-71.455	-134.007	-159.266	-153.964	154.043	-168.545	-155.866	-152.155	-150.511	-146.821	-48.542	-149.415	-8191	255	
21480.170	1	1	0	0	0.041056	0.017577	0.33834	0.40735	0.14587	0.098147	0.15105	0.11879	0.16876	0.15601	0.11746	0.18345	0.10811	0.083668	0.095027	0.096532	-2.5438	-2.7146	-3.1958	-2.5833	-2.7583	-3.1125	-2.6146	-3.2687	-3.0229	-2.6	-3.3875	-2.8542	-2.7146	-3.4958	-2.4625	-3.1667	81.322	124.991	-25.210	144.661	186.540	-120.090	-164.190	-160.017	151.743	85.934	-146.382	-43.423	64.379	-95.713	-52.737	-116.394	0.00067833	0.0018597	0.00088894	463.43	2.5764e-05	1.3632e-05	509.68	157.34	1.2612e-05	1.0154e-05	202.75	75.905	56.646	21.202	3.08e-06	31.219	0.0096675	0.011313	0.0031402	662.92	0.0001187	0.00012015	652.68	207.5	0.00011357	0.00011697	288.53	105.76	84.434	30.838	0.00011565	44.261	-118.479	-154.660	-42.931	-158.337	-92.499	-25.117	-159.277	-154.139	-97.883	-109.638	-155.198	-152.646	-151.062	-146.687	50.736	-148.778	-8191	255	
21480.268	1	1	0	0	0.21088	0.36289	0.16759	0.23349	0.1682	0.064675	0.10827	0.051556	0.099586	0.095723	0.081889	0.064357	0.061321	0.19731	0.12199	0.14599	-2.7687	-2.7125	-3.3625	-2.7938	-2.7229	-3.3833	-2.575	-3.1104	-3.2917	-2.5667	-3.3063	-2.9042	-2.8063	-3.5042	-2.6083	-2.9479	-147.987	34.253	-88.320	98.298	35.293	-46.230	-154.989	-137.327	169.480	-12.165	-42.401	-130.337	147.842	122.777	-164.329	109.252	0.00053295	0.0005465	0.00039253	468.72	3.0795e-05	8.8417e-06	508.63	158.1	8.7636e-06	8.374e-07	201.64	76.241	57.039	21.349	2.1346e-05	31.198	0.0091841	0.010665	0.0029725	645.17	0.00011207	0.00011316	643.25	205.12	0.00010896	0.0001122	282.78	104.71	83.044	30.499	0.00011268	43.832	-119.386	-86.604	143.014	-158.021	28.108	185.163	-159.161	-154.315	162.846	24.351	-155.746	-152.383	-151.075	-147.008	-44.390	-149.520	-8191	255	
21480.387	1	1	0	0	0.11916	0.14467	0.29384	0.10315	0.10377	0.1212	0.045003	0.21581	0.26335	0.11231	0.086161	0.23609	0.10667	0.074296	0.31859	0.06771	-2.85	-2.6021	-3.2625	-3.0625	-2.6813	-3.375	-3.0062	-2.8187	-3.3458	-2.4854	-3.3417	-3.0938	-2.7125	-3.3438	-2.75	-2.95	68.695	-59.956	-75.071	-1.099	-150.706	92.397	109.142	-154.617	125.832	31.386	-110.910	-33.621	138.761	-99.795	165.984	28.795	0.00034445	0.0017332	0.00031983	460.94	1.827e-05	1.9187e-05	500.86	154.98	1.6953e-05	1.5203e-05	201	75.367	55.646	21.195	2.0592e-05	30.534	0.009092	0.010586	0.0029563	645.05	0.00011414	0.0001157	640.62	203.62	0.00010831	0.0001098	279.45	102.92	80.839	29.632	0.00010381	42.07	-147.761	-24.194	73.415	-158.611	-62.509	53.942	-159.576	-153.625	106.696	-12.266	-155.255	-151.817	-150.955	-146.781	105.900	-149.007	-8191	255	
21480.482	1	1	0	0	0.22687	0.081765	0.20846	0.32857	0.10801	0.045044	0.045905	0.12533	0.1472	0.24503	0.19746	0.045401	0.10509	0.20029	0.17213	0.12079	-2.9562	-2.5812	-3.0583	-3.2104	-2.6083	-3.4688	-2.7188	-2.7229	-3.5125	-2.4542	-2.95	-3.1063	-2.6208	-3.4646	-2.7083	-2.7479	87.209	173.076	-26.958	90.037	175.791	2.261	174.270	79.496	49.171	140.159	53.942	-54.776	-156.813	2.850	-99.668	62.790	0.0002338	0.0033918	0.00071505	461.91	1.156e-05	2.4145e-05	502.93	155.37	3.5238e-06	2.0789e-05	199.21	75.291	55.563	21.253	2.627e-05	30.539	0.0082203	0.0095764	0.0026666	624.78	0.00010348	0.00010519	624.98	199.34	0.00010126	0.0001051	274.11	101.18	79.812	29.283	0.00010153	41.67	-115.754	50.399	-102.854	-158.839	-135.188	42.317	-158.821	-153.640	-52.087	-94.554	-156.260	-152.161	-150.600	-146.836	-42.581	-149.256	-8191	255	
21480.578	1	1	0	0	0.31966	0.038658	0.06698	0.028657	0.012707	0.3591	0.17504	0.29933	0.24343	0.16641	0.099007	0.15654	0.079821	0.16665	0.027275	0.15421	-2.9437	-2.6312	-2.9167	-3.2458	-2.3333	-3.4021	-2.9667	-2.6625	-3.4479	-2.6813	-2.9208	-3.4396	-2.7062	-3.1729	-2.9771	-2.7417	-78.867	-97.664	-37.870	102.887	125.876	62.342	127.286	54.589	-90.953	-20.229	-94.189	107.642	-53.038	26.471	106.720	-33.120	0.0003755	0.0016058	0.00058632	459.09	2.9361e-06	2.4875e-05	507.57	156.11	1.9854e-05	1.5217e-05	202.41	75.529	56.241	21.357	2.2547e-05	31.005	0.0079915	0.0092108	0.0025991	617.26	9.9945e-05	0.00010167	622.91	198.97	0.0001013	0.00010445	278.28	102.71	81.254	30.092	0.00010915	43.207	-106.347	-12.720	101.902	-158.502	78.056	14.526	-159.139	-154.066	42.372	-108.124	-156.400	-152.148	-150.994	-146.798	-97.454	-149.206	-8191	255	
21480.674	1	1	0	0	0.090908	0.10155	0.13357	0.18759	0.16719	0.016337	0.068613	0.26882	0.13774	0.13266	0.087976	0.19748	0.10328	0.075705	0.219	0.098568	-3.0458	-2.6208	-2.825	-3.3792	-2.55	-3.0938	-3.2542	-2.5917	-3.3667	-2.8667	-2.8	-3.3146	-2.5083	-3.3396	-3.0604	-2.7458	166.817	114.853	85.401	-104.233	125.700	168.484	88.042	43.488	64.453	114.009	81.486	180.054	169.356	-54.743	-14.393	74.841	0.000346	0.002066	0.00024864	460.84	1.1331e-05	4.6618e-06	501.77	155.44	1.1338e-05	1.5395e-05	198.61	75.545	56.144	21.042	4.2233e-06	30.844	0.0087835	0.010188	0.0028913	638.43	0.00010986	0.00011223	638.38	202.65	0.00010899	0.00011197	282.35	104.11	82.172	30.118	0.00011063	43.042	-127.380	-22.684	172.402	-157.835	-118.883	135.404	-158.953	-154.171	-107.341	80.794	-156.011	-152.154	-150.400	-147.109	-27.699	-149.291	-8191	255	
#DATA ENDS
