BOXY.EXE: ISS Imagent and Oximeter Data Acquisition Program Version 0.80
Ascii Record File

#ACQ INFORMATION
2  Detector Channels 
16  External MUX Channels 
1  Auxiliary Channels 
5000  Waveform (CCF) Frequency (Hz)
1  Waveforms Skipped 
30  Waveforms Averaged 
1  Cycles Averaged 
16  Acquisitions per Waveform 
10.0806  Updata Rate (Hz) 

#FILE INFORMATION
TRUE -- External MUX Channel results are PARSED.
FALSE -- AC DC and Phase are NOT grouped.
TRUE -- Companion Program Settings File CREATED.
FALSE -- AC data not excluded
FALSE -- DC data not excluded
FALSE -- Phase data not excluded
FALSE -- Auxillary Chn. data not excluded
Tab delimiters

#CALIBRATION STATE
TRUE -- Waveform Calibration Values APPLIED.


#AUX CALIBRATION VALUES
Val Type	aux-1	

Term	1.0000e+00	
Factor	0.0000e+00	


#WF CALIBRATION VALUES
A = Detector Channel
Val Type	A-AC1	A-AC2	A-AC3	A-AC4	A-AC5	A-AC6	A-AC7	A-AC8	A-AC9	A-AC10	A-AC11	A-AC12	A-AC13	A-AC14	A-AC15	A-AC16	A-DC1	A-DC2	A-DC3	A-DC4	A-DC5	A-DC6	A-DC7	A-DC8	A-DC9	A-DC10	A-DC11	A-DC12	A-DC13	A-DC14	A-DC15	A-DC16	A-Ph1	A-Ph2	A-Ph3	A-Ph4	A-Ph5	A-Ph6	A-Ph7	A-Ph8	A-Ph9	A-Ph10	A-Ph11	A-Ph12	A-Ph13	A-Ph14	A-Ph15	A-Ph16	

Term	0.00000e+00	0.00000e+00	0.00000e+00	0.00000e+00	0.00000e+00	0.00000e+00	0.00000e+00	0.00000e+00	0.00000e+00	0.00000e+00	0.00000e+00	0.00000e+00	0.00000e+00	0.00000e+00	0.00000e+00	0.00000e+00	0.00000e+00	0.00000e+00	0.00000e+00	0.00000e+00	0.00000e+00	0.00000e+00	0.00000e+00	0.00000e+00	0.00000e+00	0.00000e+00	0.00000e+00	0.00000e+00	0.00000e+00	0.00000e+00	0.00000e+00	0.00000e+00	0.00000e+00	0.00000e+00	0.00000e+00	0.00000e+00	0.00000e+00	0.00000e+00	0.00000e+00	0.00000e+00	0.00000e+00	0.00000e+00	0.00000e+00	0.00000e+00	0.00000e+00	0.00000e+00	0.00000e+00	0.00000e+00	
Factor	1.00000e+00	1.00000e+00	1.00000e+00	1.00000e+00	1.00000e+00	1.00000e+00	1.00000e+00	1.00000e+00	1.00000e+00	1.00000e+00	1.00000e+00	1.00000e+00	1.00000e+00	1.00000e+00	1.00000e+00	1.00000e+00	1.00000e+00	1.00000e+00	1.00000e+00	1.00000e+00	1.00000e+00	1.00000e+00	1.00000e+00	1.00000e+00	1.00000e+00	1.00000e+00	1.00000e+00	1.00000e+00	1.00000e+00	1.00000e+00	1.00000e+00	1.00000e+00	X	X	X	X	X	X	X	X	X	X	X	X	X	X	X	X	

B = Detector Channel
Val Type	B-AC1	B-AC2	B-AC3	B-AC4	B-AC5	B-AC6	B-AC7	B-AC8	B-AC9	B-AC10	B-AC11	B-AC12	B-AC13	B-AC14	B-AC15	B-AC16	B-DC1	B-DC2	B-DC3	B-DC4	B-DC5	B-DC6	B-DC7	B-DC8	B-DC9	B-DC10	B-DC11	B-DC12	B-DC13	B-DC14	B-DC15	B-DC16	B-Ph1	B-Ph2	B-Ph3	B-Ph4	B-Ph5	B-Ph6	B-Ph7	B-Ph8	B-Ph9	B-Ph10	B-Ph11	B-Ph12	B-Ph13	B-Ph14	B-Ph15	B-Ph16	

Term	0.00000e+00	0.00000e+00	0.00000e+00	0.00000e+00	0.00000e+00	0.00000e+00	0.00000e+00	0.00000e+00	0.00000e+00	0.00000e+00	0.00000e+00	0.00000e+00	0.00000e+00	0.00000e+00	0.00000e+00	0.00000e+00	0.00000e+00	0.00000e+00	0.00000e+00	0.00000e+00	0.00000e+00	0.00000e+00	0.00000e+00	0.00000e+00	0.00000e+00	0.00000e+00	0.00000e+00	0.00000e+00	0.00000e+00	0.00000e+00	0.00000e+00	0.00000e+00	-1.18665e+02	-1.43103e+02	-1.31458e+02	-1.83497e+02	-5.54734e+01	-7.70765e+01	-1.55340e+02	-1.62015e+02	-5.71864e+01	-6.23776e+01	-1.71006e+02	-1.70504e+02	-1.79973e+02	-1.76425e+02	-7.82450e+01	-1.49762e+02	
Factor	1.93118e-05	1.61628e-04	4.26647e-05	2.20701e-01	1.28616e-06	1.56004e-06	1.72996e-01	5.74726e-02	1.10787e-06	1.53154e-06	9.82376e-02	3.28947e-02	5.70057e-02	1.04581e-02	1.48207e-06	1.47673e-02	1.71346e-06	1.81190e-06	5.03972e-07	1.10140e-01	1.97318e-08	1.98080e-08	8.23502e-02	2.89539e-02	1.96931e-08	1.98287e-08	4.75880e-02	1.60157e-02	2.79623e-02	5.24248e-03	1.96653e-08	7.15294e-03	X	X	X	X	X	X	X	X	X	X	X	X	X	X	X	X	



#DISTANCE SETTINGS
A = Detector Channel
A-1	A-2	A-3	A-4	A-5	A-6	A-7	A-8	A-9	A-10	A-11	A-12	A-13	A-14	A-15	A-16	

2.5000e+00	3.0000e+00	2.5000e+00	3.0000e+00	2.0000e+00	3.0000e+00	1.5000e+00	3.0000e+00	3.0000e+00	3.0000e+00	3.0000e+00	3.0000e+00	3.0000e+00	3.0000e+00	1.5000e+00	3.0000e+00	

B = Detector Channel
B-1	B-2	B-3	B-4	B-5	B-6	B-7	B-8	B-9	B-10	B-11	B-12	B-13	B-14	B-15	B-16	

1.0000e+01	1.0000e+01	1.0000e+01	1.4400e+00	1.0000e+01	1.0000e+01	1.5100e+00	1.9400e+00	1.0000e+01	1.0000e+01	1.9900e+00	2.4900e+00	2.4100e+00	2.9000e+00	1.0000e+01	2.9800e+00	




#DATA BEGINS
time	group	step	mark	flag	A-AC1	A-AC2	A-AC3	A-AC4	A-AC5	A-AC6	A-AC7	A-AC8	A-AC9	A-AC10	A-AC11	A-AC12	A-AC13	A-AC14	A-AC15	A-AC16	A-DC1	A-DC2	A-DC3	A-DC4	A-DC5	A-DC6	A-DC7	A-DC8	A-DC9	A-DC10	A-DC11	A-DC12	A-DC13	A-DC14	A-DC15	A-DC16	A-Ph1	A-Ph2	A-Ph3	A-Ph4	A-Ph5	A-Ph6	A-Ph7	A-Ph8	A-Ph9	A-Ph10	A-Ph11	A-Ph12	A-Ph13	A-Ph14	A-Ph15	A-Ph16	B-AC1	B-AC2	B-AC3	B-AC4	B-AC5	B-AC6	B-AC7	B-AC8	B-AC9	B-AC10	B-AC11	B-AC12	B-AC13	B-AC14	B-AC15	B-AC16	B-DC1	B-DC2	B-DC3	B-DC4	B-DC5	B-DC6	B-DC7	B-DC8	B-DC9	B-DC10	B-DC11	B-DC12	B-DC13	B-DC14	B-DC15	B-DC16	B-Ph1	B-Ph2	B-Ph3	B-Ph4	B-Ph5	B-Ph6	B-Ph7	B-Ph8	B-Ph9	B-Ph10	B-Ph11	B-Ph12	B-Ph13	B-Ph14	B-Ph15	B-Ph16	aux-1	digaux	

11281.216	1	1	0	768	0.096252	0.17719	0.18691	0.14877	0.14903	0.10847	0.21317	0.14754	0.16103	0.15789	0.28265	0.26958	0.24621	0.16883	0.16457	0.18185	-1.9792	-3.0167	-2.9854	-2.5104	-3.2	-2.5958	-2.7604	-3.3979	-2.5833	-2.9208	-3.1917	-2.475	-3.1917	-3.0042	-2.575	-3.3917	-132.799	-25.395	165.285	187.596	62.951	-132.261	17.741	183.677	178.849	-101.337	99.120	116.252	-79.816	141.540	31.753	200.066	0.00034301	0.00069703	0.00023497	1377.2	5.8137e-06	5.1866e-06	1369.6	370.81	3.6141e-06	1.0545e-05	423.38	139.93	121.12	42.196	5.0258e-06	52.257	0.00059723	0.00060123	0.00016759	1388.2	6.5328e-06	6.6196e-06	1387.4	376.37	6.6141e-06	6.6627e-06	429.34	143.78	125.6	43.295	6.5629e-06	53.604	-130.827	11.252	-71.575	-133.763	211.704	36.891	-133.843	-129.216	60.845	1.748	-129.934	-125.793	-125.315	-120.495	-25.582	-120.902	-8191	255	
11281.312	1	1	0	0	0.14813	0.12328	0.17234	0.11082	0.074169	0.14594	0.29051	0.12776	0.13391	0.24217	0.19341	0.19045	0.074412	0.173	0.062273	0.3801	-2.2938	-2.8167	-3.1417	-2.6125	-3.1104	-2.8271	-2.7333	-3.3396	-2.575	-2.8917	-3.3458	-2.4458	-3.0812	-3.0083	-2.4875	-3.3563	-46.703	-38.194	53.773	134.541	31.490	70.772	153.510	111.388	49.002	115.769	175.605	-142.250	187.826	70.667	203.745	183.617	0.00041577	0.00069989	7.3308e-05	1378.5	8.6326e-07	3.08e-06	1369.8	371.22	3.9795e-06	6.0285e-06	422.37	140.75	121.99	42.246	3.4451e-06	52.284	0.00059201	0.00060562	0.00016735	1390.3	6.5806e-06	6.5164e-06	1388.2	376.93	6.542e-06	6.5529e-06	429.22	144.31	125.81	43.327	6.457e-06	53.609	-141.157	-143.648	-53.322	-133.717	-111.976	-31.109	-133.678	-129.073	-89.991	24.171	-129.842	-125.706	-125.308	-120.530	58.314	-120.993	-8191	255	
11281.408	1	1	0	0	0.1968	0.34538	0.088653	0.15746	0.093953	0.019436	0.067732	0.20643	0.10959	0.11489	0.21225	0.067432	0.14023	0.072839	0.19793	0.12336	-2.1792	-2.6188	-3.1	-2.6875	-3.05	-2.9479	-2.65	-3.3833	-2.8208	-2.6688	-3.3208	-2.6667	-2.9938	-3.0042	-2.5958	-3.1979	-31.132	-49.987	139.268	152.516	-13.249	-11.989	186.437	24.500	19.520	9.405	160.436	-36.651	-135.021	-74.707	-66.784	-142.990	0.00037476	0.001057	0.00023435	1378.7	1.8648e-06	6.8458e-06	1368.3	370.8	6.8796e-06	4.6357e-06	424.5	140.57	122.19	42.253	6.854e-06	52.088	0.00058517	0.00059731	0.00016442	1390.2	6.4648e-06	6.5183e-06	1388.6	376.59	6.4679e-06	6.4989e-06	430.37	144.3	125.73	43.323	6.4412e-06	53.628	-142.556	-126.605	-14.264	-133.784	37.019	4.865	-133.868	-129.421	2.377	39.875	-129.565	-125.658	-125.512	-120.285	-39.968	-120.942	-8191	255	
11281.505	1	1	0	0	0.12415	0.15021	0.087397	0.22548	0.11732	0.21694	0.17279	0.067211	0.24034	0.20122	0.22989	0.1839	0.10868	0.12114	0.18997	0.27813	-2.2521	-2.5479	-3.2958	-2.5854	-2.8063	-3.0458	-2.4562	-3.1688	-2.7729	-2.5375	-3.3812	-2.6937	-2.9917	-3.3333	-2.5125	-3	-112.056	166.832	-23.895	145.367	197.953	-50.099	107.775	-93.619	136.785	-19.248	-131.798	107.045	103.271	-145.221	11.607	164.576	0.00034103	0.00071133	3.9292e-06	1385.6	3.7656e-06	2.1662e-06	1367.4	370.57	4.9995e-06	1.0326e-05	423.39	141.03	122.01	42.47	1.7997e-06	52.428	0.00058815	0.00059866	0.00016428	1393.3	6.4733e-06	6.4656e-06	1388.9	377.09	6.3868e-06	6.4419e-06	430.6	144.59	125.75	43.433	6.4356e-06	53.726	-146.329	190.925	54.510	-133.705	78.673	-101.220	-133.979	-129.050	13.740	-5.923	-129.740	-125.553	-125.345	-120.269	-83.623	-120.863	-8191	255	
11281.601	1	1	0	0	0.22047	0.12444	0.23325	0.06502	0.16837	0.095786	0.22525	0.23655	0.4267	0.29173	0.15563	0.12837	0.24657	0.044215	0.075761	0.22825	-2.4562	-2.5854	-3.2583	-2.6333	-2.7583	-3.2292	-2.8292	-3.2771	-2.8667	-2.3937	-3.325	-2.7	-2.7229	-3.2854	-2.425	-3.0875	105.108	-91.490	-44.621	-24.053	14.694	202.745	-101.456	98.355	59.980	15.006	-1.455	212.647	203.639	-52.304	113.249	-113.284	0.00040035	0.00051867	0.00019894	1380.7	3.4689e-06	3.189e-06	1370.4	371.63	2.0942e-06	8.4418e-06	424.41	141.05	121.05	42.465	7.2848e-06	52.459	0.00058778	0.00059504	0.0001649	1390.7	6.5641e-06	6.5346e-06	1389.2	377.68	6.5887e-06	6.6121e-06	430.8	144.6	125.96	43.498	6.6229e-06	53.752	210.880	-60.950	-30.741	-133.894	92.904	43.229	-133.972	-129.345	55.019	-0.498	-129.616	-125.640	-125.491	-120.220	-3.370	-121.013	-8191	255	
11281.697	1	1	0	0	0.099635	0.079337	0.30887	0.23655	0.11541	0.050288	0.31917	0.12407	0.153	0.034784	0.06949	0.15364	0.17539	0.077663	0.2588	0.0979	-2.4708	-2.3917	-3.2562	-2.7833	-2.6375	-3.2354	-2.7583	-3.1583	-2.9792	-2.5042	-3.3229	-2.6979	-2.6229	-3.35	-2.6937	-2.925	34.617	-99.457	-16.728	181.061	194.925	175.828	195.420	-139.125	120.146	96.561	20.411	91.940	-62.176	-142.218	11.338	129.280	0.00037366	0.00036398	0.00014503	1379.1	2.3093e-06	5.9295e-06	1372.6	370.82	4.1299e-06	1.1029e-06	422.61	141.22	121.11	42.414	3.1993e-06	52.371	0.00060048	0.00061365	0.00016983	1393.2	6.6639e-06	6.6112e-06	1390.4	377.6	6.6367e-06	6.6652e-06	430.62	144.54	125.7	43.409	6.6631e-06	53.747	-143.655	-75.286	-97.260	-133.792	-135.839	-7.019	-133.951	-129.116	-4.178	65.121	-129.663	-125.639	-125.761	-120.267	37.056	-120.897	-8191	255	
11281.816	1	1	0	0	0.13113	0.22868	0.043965	0.041523	0.10949	0.17616	0.32363	0.36865	0.10152	0.093941	0.1886	0.16298	0.13001	0.1991	0.23401	0.12783	-2.6354	-2.5042	-3.175	-3.1333	-2.7083	-3.2042	-2.8063	-3.0771	-3.1354	-2.6312	-3.125	-3.1396	-2.5604	-3.3688	-2.65	-2.8021	115.863	15.303	135.882	-123.179	123.808	158.164	127.372	-126.167	80.342	-106.106	122.717	189.081	123.824	-100.838	191.594	180.745	0.0004067	0.0004029	5.6417e-05	1380.7	1.923e-06	4.6632e-06	1371.8	371.7	3.6582e-06	2.6477e-06	423.61	140.74	121.43	42.428	2.5361e-06	52.456	0.00060125	0.0006039	0.0001675	1393.7	6.5525e-06	6.5006e-06	1388.9	377.03	6.4733e-06	6.4767e-06	430.57	144.4	125.51	43.417	6.3442e-06	53.754	-144.789	-31.657	-108.695	-133.995	-9.040	-4.337	-133.860	-129.098	-31.581	3.246	-129.408	-125.581	-125.451	-120.494	-67.010	-120.915	-8191	255	
11281.912	1	1	0	0	0.37738	0.19754	0.057599	0.042181	0.09726	0.12061	0.28012	0.38974	0.12638	0.114	0.10847	0.12863	0.083887	0.11019	0.23	0.078114	-2.6792	-2.5292	-2.9708	-3.1896	-2.2104	-3.1646	-2.8292	-2.7562	-3.15	-2.5771	-2.9562	-2.9417	-2.5687	-3.45	-2.6125	-2.7333	-106.220	157.196	-81.237	-1.092	203.950	-77.900	204.170	169.615	6.040	8.001	-122.875	123.903	47.070	181.711	183.451	12.913	0.00027369	0.00020765	9.9016e-05	1376.1	4.3057e-06	3.5531e-06	1372.7	370.91	2.424e-06	3.7994e-06	425.4	141.03	122.09	42.422	4.4842e-06	52.531	0.00057455	0.00057976	0.0001625	1387.8	6.3915e-06	6.3688e-06	1390.3	376.97	6.4205e-06	6.3847e-06	430.46	144.4	125.62	43.405	6.292e-06	53.698	-146.457	-53.019	-15.627	-133.761	24.935	-122.423	-133.933	-129.140	-24.968	-56.941	-129.489	-125.701	-125.777	-120.060	-78.649	-120.772	-8191	255	
11282.008	1	1	0	0	0.1634	0.27027	0.22415	0.1673	0.19065	0.19636	0.3492	0.26785	0.32319	0.23576	0.20568	0.25954	0.096312	0.37096	0.30673	0.20621	-2.8229	-2.3708	-3	-3.225	-2.4479	-3.175	-2.9562	-2.7208	-2.9625	-2.5167	-2.8958	-3.2604	-2.5708	-3.25	-2.9167	-2.7333	-144.738	139.470	185.014	96.982	36.657	33.019	158.476	185.610	58.817	54.705	181.641	-130.352	150.755	-69.243	22.921	101.784	0.00032153	0.00086625	0.00015183	1382.9	5.2351e-06	7.2079e-06	1371.8	371.1	3.3432e-06	5.0352e-06	425.1	140.92	122.11	42.555	2.6888e-06	52.339	0.00057	0.000577	0.00016065	1391.6	6.3163e-06	6.3061e-06	1389	376.88	6.2861e-06	6.3097e-06	431.12	144.39	125.47	43.399	6.252e-06	53.66	-140.264	-87.301	-52.543	-133.739	20.578	-47.631	-133.956	-129.262	-22.194	-12.331	-129.445	-125.635	-125.427	-120.336	199.184	-120.625	-8191	255	
11282.104	1	1	0	0	0.013322	0.041004	0.20974	0.36772	0.27008	0.10172	0.38032	0.23705	0.16822	0.19924	0.024526	0.079965	0.15256	0.25245	0.20149	0.15882	-2.7979	-2.6354	-2.6396	-3.2938	-2.4271	-3.0458	-3.1562	-2.6375	-3.15	-2.8125	-2.9417	-3.3083	-2.6417	-3.0604	-2.9771	-2.6896	113.025	119.677	192.614	127.309	-10.414	-45.242	207.620	157.930	159.475	-30.392	191.040	-16.270	-95.567	173.750	112.177	128.550	0.00029408	0.00067822	0.00019348	1375.8	1.9604e-06	5.1396e-06	1370.4	371.43	5.2377e-06	2.5017e-06	424.88	140.36	121.34	42.317	8.9741e-06	52.041	0.00057558	0.00058115	0.0001632	1389.5	6.4511e-06	6.4399e-06	1388.9	376.65	6.572e-06	6.5564e-06	430.03	144.22	125.52	43.368	6.476e-06	53.609	-145.241	-71.854	-97.887	-133.663	207.394	42.826	-133.960	-129.080	-29.763	-46.260	-129.538	-125.832	-125.659	-120.220	-31.535	-120.708	-8191	255	
11282.200	1	1	0	0	0.072871	0.11977	0.13671	0.32713	0.20714	0.062961	0.11333	0.38049	0.22018	0.23245	0.19295	0.29996	0.17274	0.11973	0.077348	0.29704	-2.8312	-2.7021	-2.5271	-3.2229	-2.3979	-2.9896	-3.1917	-2.5021	-3.1125	-2.7292	-2.6708	-3.3292	-2.5896	-2.9583	-3.1937	-2.6188	72.136	-93.283	-29.450	192.410	12.282	-132.943	209.359	171.490	-36.738	-135.841	134.422	150.381	109.628	39.518	100.760	147.892	0.00039801	0.00065851	8.9388e-05	1379.6	5.609e-06	1.0005e-05	1369.9	371.29	1.2457e-06	7.0291e-06	422.33	140.88	121.59	42.544	3.5384e-06	52.299	0.00058529	0.00058825	0.00016413	1390.4	6.4383e-06	6.3524e-06	1388.6	376.48	6.3665e-06	6.3412e-06	429.51	144.26	125.52	43.445	6.3416e-06	53.608	-142.037	-61.498	-21.767	-133.741	-10.319	53.035	-133.970	-129.243	-36.435	-26.514	-129.566	-125.775	-125.428	-120.198	-98.954	-120.926	-8191	255	
11282.297	1	1	0	0	0.20014	0.3453	0.10716	0.27521	0.057061	0.013756	0.26294	0.22606	0.10078	0.28361	0.081411	0.15527	0.2651	0.27903	0.12845	0.21159	-2.9604	-2.8458	-2.6042	-3.3625	-2.6542	-2.6167	-3.3563	-2.3958	-3.0729	-2.9271	-2.7042	-3.3438	-2.525	-2.9792	-3.2167	-2.7542	87.973	141.515	114.758	174.318	39.245	4.243	91.483	-137.879	-70.823	40.504	132.031	204.464	118.925	122.801	11.448	42.204	0.0004129	0.00079133	0.00026774	1382.3	2.0775e-06	4.2184e-06	1372.7	370.95	4.5229e-06	1.5508e-06	423.76	140.85	121.65	42.531	8.299e-06	52.362	0.00057549	0.00058783	0.00016411	1392	6.4063e-06	6.4295e-06	1391.3	377.27	6.4671e-06	6.4601e-06	431.18	144.65	125.95	43.442	6.3837e-06	53.782	211.753	-48.771	-91.205	-133.875	57.690	-16.570	-133.738	-129.002	-9.295	-89.721	-129.467	-125.484	-125.094	-120.216	15.810	-120.980	-8191	255	
11282.417	1	1	0	0	0.059068	0.15993	0.064764	0.20216	0.10673	0.12571	0.30904	0.11015	0.13535	0.048205	0.049528	0.051088	0.033378	0.18915	0.26098	0.26115	-2.6229	-3.0708	-2.6646	-3.4583	-2.6813	-2.7687	-3.4813	-2.4958	-3.0854	-3.2167	-2.5375	-3.2812	-2.8292	-2.8271	-3.2438	-2.6542	203.609	-109.026	-123.551	157.023	155.342	-51.668	134.431	-15.883	208.844	-105.140	69.117	-62.999	45.639	-87.451	62.881	62.971	0.00038452	0.00055772	6.8188e-05	1385.5	5.9072e-07	6.4505e-06	1370.8	371.46	4.4646e-06	6.4838e-06	425.13	141.09	120.62	42.418	2.0909e-06	52.203	0.00057914	0.00059355	0.00016565	1394.3	6.4898e-06	6.4616e-06	1390	377.57	6.4335e-06	6.5459e-06	430.85	144.57	125.56	43.451	6.5232e-06	53.658	-136.728	-25.784	-95.735	-133.646	-106.601	-43.255	-133.891	-129.034	25.635	-38.499	-129.661	-125.485	-125.428	-119.957	-115.669	-120.929	-8191	255	
11282.512	1	1	0	0	0.093329	0.18587	0.10801	0.28094	0.12433	0.23669	0.22152	0.18153	0.13574	0.25859	0.11487	0.083325	0.1414	0.14614	0.26319	0.14582	-2.5833	-3.0229	-2.5104	-3.3229	-2.9354	-2.7833	-3.3458	-2.775	-2.9125	-3.0958	-2.5833	-3.25	-2.925	-2.4146	-3.1229	-2.6667	-73.878	120.291	-39.399	-131.609	52.035	117.086	126.105	141.739	-144.273	140.038	-119.886	158.975	-57.560	-143.009	-19.519	-130.768	0.0004253	0.00036099	4.4509e-05	1384.3	3.8568e-06	5.9607e-06	1375.3	370.04	1.3677e-06	3.7395e-06	426.24	141.02	122.07	42.343	3.9433e-06	52.433	0.00059574	0.00060419	0.00016827	1394.7	6.6758e-06	6.5949e-06	1391.4	376.99	6.5366e-06	6.5637e-06	431.45	144.63	125.77	43.378	6.5007e-06	53.697	210.651	-80.205	-59.104	-133.778	11.152	-2.575	-133.920	-129.282	-71.179	21.099	-129.839	-125.671	-125.793	-119.929	-12.618	-120.793	-8191	255	
11282.608	1	1	0	0	0.12795	0.15	0.1478	0.068824	0.22459	0.16351	0.39463	0.19432	0.1013	0.16969	0.11557	0.24035	0.11924	0.15981	0.13424	0.17749	-2.4771	-3.1437	-2.4417	-3.2188	-2.8021	-2.525	-3.2979	-2.8271	-2.8563	-3.2021	-2.6063	-3.3833	-3.075	-2.6521	-3.1729	-2.6813	143.754	50.817	192.093	147.683	-46.155	-15.644	153.900	192.224	-96.618	-143.898	95.019	121.980	-68.263	178.675	90.182	121.270	0.00038439	0.00033228	9.9405e-05	1378.8	6.7905e-06	1.7419e-06	1374.4	370.72	2.0003e-06	1.1282e-06	422.51	141.08	121.62	42.483	4.4309e-06	52.498	0.00059711	0.00060079	0.00016682	1393	6.5892e-06	6.5812e-06	1390.9	376.96	6.5893e-06	6.5603e-06	430.34	144.46	125.76	43.427	6.548e-06	53.704	-144.829	-78.863	-115.531	-133.569	4.744	-98.630	-133.978	-128.926	89.261	-25.828	-129.596	-125.589	-125.237	-120.189	-48.308	-120.796	-8191	255	
11282.704	1	1	0	0	0.20572	0.055503	0.15012	0.065888	0.18745	0.081274	0.30737	0.11165	0.34895	0.084139	0.2219	0.15405	0.31084	0.2231	0.086449	0.26426	-2.3187	-3.1292	-2.5729	-3.1521	-3.0875	-2.5646	-3.3479	-2.7667	-2.8021	-3.4104	-2.7083	-3.0042	-3.1979	-2.5438	-3.2687	-2.6917	137.585	-110.761	85.479	84.666	-133.563	-51.583	129.057	167.070	-95.932	-108.328	-133.591	-122.290	167.256	201.282	-91.071	112.785	0.00034056	0.00048029	0.00019084	1389.4	2.33e-06	2.4176e-06	1371	371.66	5.8686e-06	7.007e-06	422.66	141.43	121.43	42.307	1.2842e-06	52.395	0.00060005	0.00060715	0.00016905	1396.4	6.6392e-06	6.5936e-06	1392.1	377.41	6.6881e-06	6.6635e-06	431.16	144.87	126	43.374	6.6579e-06	53.656	-146.514	-80.564	-67.694	-133.803	19.016	-59.635	-133.770	-129.313	-52.599	20.331	-129.500	-125.650	-125.351	-119.985	-60.510	-120.737	-8191	255	
11282.777	1	1	0	0	0.26315	0.056648	0.063168	0.14739	0.16999	0.13669	0.2482	0.32716	0.12171	0.14956	0.21882	0.080219	0.070242	0.090952	0.17693	0.14194	-2.1125	-3.1542	-2.5938	-3.1479	-3.0979	-2.5229	-3.3312	-2.9583	-2.4958	-3.3271	-2.7188	-2.7625	-3.2021	-2.675	-3.0604	-2.9979	164.408	-114.025	157.614	90.156	91.173	-133.139	189.692	114.802	167.019	100.684	90.973	182.366	-15.328	138.679	110.437	-68.202	0.00037822	0.00070424	0.00014855	1380.8	4.7998e-06	3.5055e-06	1371.8	370.83	4.1541e-06	3.9664e-06	425.27	140.35	120.6	42.433	2.7673e-06	52.42	0.00060414	0.0006156	0.00017204	1394.2	6.8133e-06	6.7471e-06	1393.2	377.36	6.8243e-06	6.856e-06	431.51	144.79	126.03	43.419	6.8274e-06	53.793	207.542	-90.068	74.741	-133.456	-15.046	-3.603	-133.561	-129.161	-15.158	-54.794	-129.645	-125.496	-125.274	-120.059	1.776	-120.788	-8191	255	
11282.896	1	1	0	0	0.15976	0.19484	0.027026	0.11999	0.13704	0.16465	0.34433	0.24924	0.24027	0.048194	0.06834	0.077428	0.085429	0.010081	0.20945	0.089639	-2.175	-3.0708	-2.5375	-2.6896	-3.1	-2.4229	-3.2875	-3.125	-2.6104	-3.1125	-2.7542	-2.7104	-3.2979	-2.4792	-2.9625	-3.2313	151.647	-134.915	75.324	140.310	-1.397	-112.640	115.732	121.391	189.926	31.138	-97.635	30.275	41.281	206.852	153.401	120.893	0.00036535	0.00048591	8.2665e-05	1379.2	4.2359e-06	6.4227e-06	1374.7	371	7.026e-06	3.5793e-06	422.79	140.66	121.76	42.43	2.6574e-06	52.222	0.00061233	0.00061877	0.00017205	1394.9	6.771e-06	6.7721e-06	1394.8	377.41	6.7824e-06	6.7259e-06	430.86	144.84	126.01	43.426	6.7054e-06	53.716	-137.379	-95.477	-42.006	-133.622	-30.785	-16.029	-133.735	-129.159	15.332	29.926	-129.624	-125.523	-125.595	-119.948	-34.444	-121.069	-8191	255	
11282.992	1	1	0	0	0.11484	0.23751	0.12003	0.090552	0.061135	0.282	0.28928	0.34675	0.11186	0.14229	0.33021	0.27525	0.19467	0.26526	0.16479	0.1692	-2.1792	-3.1042	-2.7875	-2.7771	-3.1896	-2.4521	-3.0396	-3.1958	-2.525	-3.2042	-2.9771	-2.7062	-3.3125	-2.75	-2.8583	-3.2062	87.212	-96.202	180.704	189.537	-92.789	8.763	140.537	165.775	156.273	158.898	158.605	159.828	-116.104	189.504	8.110	139.530	0.00037555	0.00062741	0.0002542	1386.1	5.4665e-06	3.7583e-06	1373.9	370.76	2.4134e-06	7.8544e-06	423.26	141.24	122.68	42.295	2.1979e-06	52.396	0.00060973	0.00061402	0.00017129	1396.2	6.719e-06	6.8017e-06	1392.6	377.39	6.8153e-06	6.8256e-06	431.12	144.82	126.38	43.415	6.8188e-06	53.828	210.609	-63.161	-67.416	-133.495	3.597	-16.576	-133.734	-129.062	-83.915	34.847	-129.659	-125.620	-125.160	-120.299	-104.210	-120.780	-8191	255	
11283.088	1	1	0	0	0.2124	0.16551	0.21433	0.35692	0.077962	0.29473	0.403	0.23761	0.11893	0.043467	0.10406	0.039772	0.40119	0.036557	0.17208	0.32933	-2.1958	-3.2979	-2.8021	-2.625	-3.1562	-2.5792	-2.9771	-3.3125	-2.5021	-3.0854	-3.0333	-2.2687	-3.1354	-2.8146	-2.6333	-3.3312	160.953	-119.792	199.824	201.661	-8.132	-44.351	106.188	204.889	204.651	-31.854	-42.493	-93.011	45.956	-48.438	58.593	87.185	0.00031937	0.00010266	9.133e-05	1390.3	7.9563e-06	3.5181e-06	1372	370.46	3.2007e-06	6.6522e-06	424.28	140.91	122.27	42.505	3.2503e-06	52.307	0.00061237	0.00062492	0.00017422	1398.8	6.7994e-06	6.7804e-06	1393.2	377.46	6.8131e-06	6.7899e-06	430.92	144.65	126	43.415	6.7896e-06	53.708	-146.390	34.091	-62.160	-133.524	33.556	202.507	-133.732	-129.175	-107.532	-24.305	-129.409	-125.182	-125.357	-120.147	186.840	-120.728	-8191	255	
11283.185	1	1	0	0	0.092219	0.21301	0.13652	0.082684	0.21329	0.16301	0.19281	0.18518	0.2433	0.22583	0.07653	0.17352	0.048397	0.088536	0.15179	0.12019	-2.1875	-2.9396	-3.0667	-2.8583	-3.3292	-2.7375	-2.7979	-3.1562	-2.5812	-3.0625	-3.1417	-2.4583	-3.3417	-2.9188	-2.4875	-3.3063	-33.640	-81.269	30.472	-145.247	169.717	127.213	187.782	128.019	-138.503	-24.935	184.434	165.721	60.942	-122.020	96.748	-52.855	0.00032882	0.00018456	6.1526e-05	1383.5	6.7265e-06	5.2158e-06	1371.1	370.82	7.0935e-06	7.559e-06	423.25	140.78	121.49	42.426	3.8577e-06	52.065	0.00061837	0.00062327	0.000174	1394.5	6.768e-06	6.7745e-06	1392.3	377.07	6.746e-06	6.7015e-06	430.4	144.54	125.61	43.374	6.6993e-06	53.593	-146.469	53.509	-121.895	-133.498	-6.307	-55.356	-133.552	-129.088	-33.762	33.970	-129.498	-125.504	-124.974	-120.006	-117.025	-120.705	-8191	255	
11283.305	1	1	0	0	0.20189	0.32913	0.10454	0.047072	0.088203	0.14975	0.14313	0.15724	0.16829	0.099962	0.3068	0.13239	0.081612	0.074074	0.1972	0.14883	-2.1146	-3.0771	-3.1063	-2.4208	-3.0729	-2.8396	-2.9167	-3.5625	-2.6437	-2.8708	-3.3354	-2.5896	-3.2125	-2.9292	-2.5938	-3.3354	199.296	-92.654	4.586	200.722	29.255	10.602	147.552	98.965	54.862	134.052	-97.975	129.167	-134.291	-82.657	41.376	-57.062	0.00032871	0.00088414	0.00017207	1378.2	3.1068e-06	9.9972e-06	1373.2	371.94	5.3018e-06	3.7755e-06	423.83	140.52	120.82	42.525	5.7684e-06	52.35	0.00060163	0.00061191	0.00017055	1392.8	6.6124e-06	6.59e-06	1392.9	377.45	6.5302e-06	6.5193e-06	430.78	144.5	125.55	43.378	6.4367e-06	53.649	-146.049	-63.470	-43.643	-133.357	23.252	-24.183	-133.673	-129.250	15.603	52.017	-129.261	-125.759	-125.260	-120.005	34.467	-120.587	-8191	255	
11283.377	1	1	0	0	0.3007	0.2121	0.13166	0.21486	0.28532	0.12415	0.3434	0.31749	0.30275	0.16113	0.070699	0.19687	0.13884	0.12135	0.138	0.1365	-2.1667	-2.8063	-3.2083	-2.7687	-3.2667	-2.9688	-2.6833	-3.325	-2.5938	-2.9313	-3.3	-2.5625	-3.0646	-3.0833	-2.6688	-3.3312	186.294	57.167	-108.552	209.380	-38.926	60.368	151.558	95.461	122.667	-144.956	177.812	98.325	-44.576	140.612	85.998	37.958	0.00039771	0.00046146	0.00018921	1382.6	7.2616e-06	2.6533e-06	1374.5	372.06	8.3684e-06	7.3027e-06	423.53	141.45	122.4	42.363	4.7133e-06	52.703	0.00057729	0.00058193	0.00016191	1391.6	6.3612e-06	6.3064e-06	1391.2	377.61	6.3197e-06	6.3463e-06	430.52	144.49	125.57	43.348	6.2343e-06	53.678	212.763	-142.164	6.249	-133.486	-44.626	75.825	-133.689	-129.171	8.620	-32.654	-129.394	-125.476	-125.300	-120.039	-49.816	-120.922	-8191	255	
11283.498	1	1	0	0	0.043792	0.15756	0.12776	0.36458	0.046278	0.32649	0.15212	0.096395	0.21863	0.23978	0.097902	0.16077	0.14837	0.28073	0.048207	0.33027	-2.325	-2.6708	-3.275	-2.7646	-2.7646	-3.1854	-2.7417	-3.2	-2.9125	-2.6708	-3.4167	-2.6417	-3.1521	-3.2667	-2.5125	-3.0854	138.314	24.894	-87.574	172.801	39.040	179.343	47.503	141.166	137.956	12.996	147.226	72.210	145.393	97.950	101.928	90.164	0.00035419	0.000559	0.00027631	1384.5	3.7626e-06	9.0279e-06	1376	371.52	2.2177e-06	4.6295e-06	424.69	141.39	121.43	42.476	5.925e-06	52.46	0.00055895	0.00056676	0.00015803	1391.1	6.1656e-06	6.1607e-06	1390.6	376.84	6.2439e-06	6.1714e-06	430.15	144.19	125.39	43.28	6.1088e-06	53.564	211.233	47.963	-49.676	-133.559	73.044	-26.009	-133.755	-128.968	-1.469	15.870	-129.645	-125.803	-125.317	-120.120	21.605	-120.548	-8191	255	
11283.594	1	1	0	0	0.18111	0.17612	0.13981	0.27233	0.023185	0.080195	0.16128	0.12244	0.0051599	0.13545	0.31083	0.28716	0.13789	0.30029	0.2111	0.089542	-2.4708	-2.5604	-3.2375	-2.8167	-2.9896	-3.1208	-2.6271	-3.2771	-2.9208	-2.575	-3.3208	-2.8646	-2.9042	-3.2188	-2.4667	-3.2625	61.868	47.895	84.452	-114.238	-6.549	144.710	174.975	128.794	-144.064	207.514	-126.244	-119.697	111.131	153.425	-61.613	114.850	0.00033267	0.00075914	7.4242e-05	1381.7	6.3623e-06	3.2905e-06	1368.3	372.38	2.4365e-06	3.3124e-06	423.5	141.01	121.43	42.421	8.9748e-06	52.051	0.00055158	0.00055891	0.00015304	1389.7	5.9479e-06	5.9213e-06	1386.4	376.57	5.8567e-06	5.8179e-06	429.22	143.95	124.72	43.174	5.69e-06	53.314	-142.650	-66.828	-125.947	-133.680	20.621	0.846	-133.640	-129.244	-3.808	5.609	-129.580	-125.533	-125.371	-120.028	-17.146	-120.747	-8191	255	
11283.688	1	1	0	0	0.23935	0.19049	0.21503	0.17331	0.21624	0.13186	0.25983	0.091085	0.22027	0.21965	0.25968	0.23205	0.27322	0.064216	0.20738	0.28772	-2.6521	-2.5375	-3.2229	-2.775	-2.5917	-3.1292	-2.6792	-3.1854	-3.1042	-2.5312	-3.2646	-2.8229	-2.7104	-3.3125	-2.6833	-3.225	-56.955	179.756	121.650	209.051	112.619	-1.483	156.084	140.537	144.439	82.980	202.847	100.175	139.215	108.509	70.605	191.571	0.00034464	0.0004034	6.3512e-05	1379.3	5.4789e-06	4.6202e-06	1369.5	370.21	4.4545e-06	6.0162e-06	425.32	141.13	122.39	42.535	3.5725e-06	52.466	0.00051091	0.0005081	0.00014089	1383.9	5.4645e-06	5.4535e-06	1382.9	375.26	5.4091e-06	5.3919e-06	428.4	143.89	124.44	43.207	5.4561e-06	53.397	209.563	-11.684	-140.521	-133.465	-11.635	18.397	-133.909	-128.969	-51.803	8.451	-129.574	-125.772	-124.897	-120.241	56.506	-120.637	-8191	255	
11283.786	1	1	0	0	0.12933	0.20486	0.32235	0.30589	0.21869	0.035995	0.22247	0.23676	0.14107	0.15203	0.14099	0.10894	0.24582	0.23323	0.35991	0.30127	-2.8604	-2.6854	-3.1146	-2.7896	-2.5083	-3.3104	-2.7375	-3.0438	-3.175	-2.4792	-3.4146	-2.9979	-2.5958	-3.3583	-2.5062	-2.9646	-109.871	150.599	187.593	107.393	-43.809	28.170	114.488	207.144	101.155	203.521	136.447	-103.302	-122.295	-80.913	165.148	124.983	0.00036039	0.00026921	0.00018111	1378.2	1.1611e-06	1.7579e-06	1369.8	371.73	3.4272e-06	4.8649e-06	426.24	140.53	123.03	42.364	5.7172e-06	52.412	0.00050028	0.00049678	0.00013893	1386.1	5.4858e-06	5.4799e-06	1385.1	375.91	5.4509e-06	5.4805e-06	429.34	143.83	124.81	43.109	5.4501e-06	53.404	208.901	-108.872	-48.288	-133.696	-73.125	-32.111	-133.683	-128.935	-35.934	61.028	-129.528	-125.533	-125.450	-119.897	-76.005	-120.333	-8191	255	
11283.905	1	1	0	0	0.16721	0.036211	0.19213	0.29044	0.14953	0.10014	0.26771	0.26219	0.23129	0.083303	0.090601	0.29347	0.17432	0.15425	0.24383	0.16815	-2.8417	-2.5375	-3.1396	-3.1458	-2.4938	-3.3312	-2.8854	-2.8604	-2.9646	-2.3729	-3.1833	-3.1083	-2.4917	-3.1437	-2.8	-2.7854	-47.308	-140.013	-99.138	-127.481	-88.592	-73.639	208.485	184.591	124.457	-27.815	-35.565	117.925	-137.792	191.819	161.513	190.694	0.00034311	0.00061994	0.00024543	1379.8	2.9071e-06	7.1897e-06	1366.8	371.22	5.0804e-06	3.8361e-06	424.86	141.3	121.99	42.557	4.2791e-06	52.339	0.00049241	0.00049508	0.00013629	1384.4	5.3804e-06	5.292e-06	1382.3	375.62	5.2762e-06	5.3141e-06	428.29	143.89	124.3	43.206	5.3492e-06	53.397	-137.386	-58.514	-93.359	-133.442	-138.297	19.307	-133.722	-128.914	12.460	-14.165	-129.363	-125.556	-125.042	-120.221	7.435	-120.566	-8191	255	
11284.001	1	1	0	0	0.10803	0.27586	0.11975	0.28055	0.14554	0.2558	0.50451	0.21729	0.15561	0.12134	0.11978	0.16172	0.19537	0.17502	0.27885	0.35039	-2.7542	-2.4667	-2.9646	-3.1729	-2.4896	-3.0229	-2.8979	-2.6917	-3.1229	-2.6208	-3.0375	-3.2438	-2.5062	-3.1937	-2.7938	-2.6354	-18.747	1.563	-133.689	-136.623	56.613	-77.058	91.988	86.476	-20.532	125.569	123.961	-137.613	-74.828	-144.681	209.128	191.743	0.0003107	0.00051555	0.0001436	1383.5	4.1959e-06	3.6517e-06	1369.4	370.78	4.4137e-06	7.7139e-06	424.14	141.49	122.15	42.644	7.1273e-06	52.442	0.0004886	0.00049617	0.00013889	1385.9	5.4595e-06	5.3931e-06	1385.7	375.73	5.4405e-06	5.4351e-06	428.69	143.89	124.41	43.232	5.2434e-06	53.467	-141.401	-90.152	7.187	-133.350	-0.884	84.938	-133.692	-128.968	-43.946	17.824	-129.688	-125.374	-125.226	-120.093	4.854	-121.053	-8191	255	
11284.073	1	1	0	0	0.18621	0.052425	0.15649	0.20943	0.19258	0.068293	0.27979	0.34431	0.31237	0.083105	0.23764	0.10767	0.24072	0.11306	0.23885	0.13348	-2.7521	-2.5125	-2.9583	-3.4667	-2.5125	-3.2562	-3.1562	-2.6167	-3.0917	-2.4625	-2.9208	-3.0146	-2.3979	-3.2188	-2.8958	-2.5312	5.474	201.343	16.044	209.683	-34.122	194.135	112.908	62.950	198.700	-79.036	-96.800	-86.334	-49.600	209.731	83.287	-40.567	0.00032479	0.00073625	4.0532e-05	1374.7	2.5553e-06	4.7872e-06	1371.7	372.32	4.2625e-06	1.6697e-06	424.32	141.84	122.02	42.771	3.7117e-06	52.571	0.00047668	0.00048068	0.00013226	1383.4	5.202e-06	5.122e-06	1383.8	375.41	5.0724e-06	5.0799e-06	427.35	144.02	123.91	43.25	4.992e-06	53.42	212.858	-87.027	-72.346	-133.484	10.249	-48.735	-133.721	-128.753	-23.807	-20.381	-129.409	-125.532	-125.013	-120.153	24.298	-120.715	-8191	255	
11284.193	1	1	0	0	0.11746	0.25029	0.069611	0.17477	0.1507	0.1203	0.29187	0.16465	0.28507	0.1168	0.21009	0.10652	0.036271	0.27154	0.08234	0.11144	-2.7938	-2.7083	-2.6188	-3.2542	-2.3833	-3	-3.0417	-2.6375	-3.2792	-2.5292	-2.7562	-3.3917	-2.65	-3.0771	-3.2042	-2.3604	-96.176	-24.422	119.234	153.311	93.761	116.078	150.316	112.495	-74.990	-141.937	-132.164	160.978	-144.606	119.547	28.720	203.794	0.00036747	0.00047964	7.5343e-05	1379.8	8.2418e-07	1.8432e-06	1375.6	372.74	4.3312e-06	5.3981e-06	424.26	141.39	122.32	42.556	3.3002e-06	52.828	0.00046666	0.00046544	0.00013017	1383.8	5.143e-06	5.1651e-06	1385.9	375.95	5.1843e-06	5.1637e-06	428.36	143.66	124.39	43.154	5.2287e-06	53.546	211.869	15.724	-23.068	-133.487	-123.552	-39.952	-133.755	-129.135	-16.403	-30.923	-129.366	-125.551	-124.922	-120.066	-46.960	-120.688	-8191	255	
11284.289	1	1	0	0	0.26673	0.044489	0.10643	0.29614	0.19354	0.11904	0.15849	0.11544	0.052403	0.17143	0.23721	0.1772	0.090903	0.071736	0.15195	0.19449	-3.0604	-2.7562	-2.4896	-3.2542	-2.4437	-2.8917	-3.3208	-2.5771	-3.1	-2.9188	-2.8312	-3.2667	-2.6188	-2.9625	-3.2333	-2.2792	-99.646	-69.482	200.676	191.935	-70.191	-84.423	87.156	188.445	75.900	-85.848	-141.913	-108.282	113.186	-71.876	-48.673	134.377	0.00038474	0.00060284	0.0002054	1379	1.1204e-06	4.4707e-06	1369.5	371.06	4.6765e-06	7.7301e-06	425.05	141.78	121.57	42.608	5.2428e-06	52.473	0.00047185	0.00048234	0.00013226	1383.8	5.2941e-06	5.2303e-06	1383.6	375.49	5.269e-06	5.2863e-06	428.06	144.2	124.11	43.189	5.2949e-06	53.312	210.230	-86.576	-60.387	-133.461	-10.818	59.081	-133.611	-128.971	-0.720	2.695	-129.247	-125.477	-125.173	-120.094	-39.186	-120.868	-8191	255	
11284.386	1	1	0	0	0.24684	0.098524	0.15072	0.19794	0.054074	0.22437	0.2802	0.17129	0.19668	0.23784	0.056022	0.090307	0.13051	0.065657	0.074434	0.23139	-2.7833	-2.8312	-2.5417	-3.375	-2.6	-2.7729	-3.3958	-2.7062	-3.0792	-3.0792	-2.7562	-3.3104	-2.6979	-2.9083	-3.3	-2.4958	-110.597	40.769	147.788	131.506	58.734	151.374	153.837	155.880	-137.705	-71.766	115.813	147.533	-65.719	-121.470	-142.503	145.122	0.00033985	0.00054957	0.0001127	1379.5	3.8858e-06	8.2343e-07	1371	370.77	5.8753e-06	3.0029e-06	424.04	141.25	121.82	42.682	2.7236e-06	52.408	0.00049514	0.00049232	0.0001379	1382.9	5.4216e-06	5.4771e-06	1385	375.51	5.4653e-06	5.4533e-06	428.33	144	124.03	43.219	5.4569e-06	53.38	-142.815	205.598	26.435	-133.653	63.919	-32.719	-133.582	-129.101	-27.497	-22.494	-129.274	-125.724	-125.085	-120.030	-37.941	-120.648	-8191	255	
11284.482	1	1	0	0	0.31173	0.096559	0.12461	0.09373	0.18142	0.14629	0.4312	0.14743	0.19874	0.14863	0.12907	0.14015	0.15888	0.10577	0.20211	0.26207	-2.4667	-2.8958	-2.5604	-3.2521	-2.6708	-2.5875	-3.4292	-2.6979	-2.9562	-3.4854	-2.5104	-3.2667	-2.7583	-2.6896	-3.1937	-2.7396	189.073	-94.924	-17.305	-59.148	-18.267	-54.850	104.897	-122.054	4.860	-137.880	188.840	-92.738	194.553	-52.753	-40.962	208.314	0.00030807	0.0002782	9.7431e-05	1375.5	3.5949e-06	6.8185e-06	1369.5	371.86	1.7571e-06	2.7433e-06	423.66	141.04	121.47	42.668	7.6806e-06	52.58	0.00049502	0.00050017	0.00013966	1382.1	5.383e-06	5.4349e-06	1381.6	375.26	5.4031e-06	5.4134e-06	427.69	143.8	124.25	43.231	5.3075e-06	53.362	-139.829	-97.280	-39.224	-133.144	-2.806	17.216	-133.643	-129.248	-52.904	-3.947	-129.320	-125.306	-125.360	-119.865	-13.659	-120.484	-8191	255	
11284.601	1	1	0	0	0.087425	0.15437	0.028856	0.27409	0.15818	0.38841	0.2701	0.16538	0.068596	0.22833	0.17848	0.15785	0.37067	0.2695	0.14143	0.18113	-2.3833	-2.9979	-2.4083	-3.25	-2.8375	-2.6063	-3.3979	-2.6854	-2.8792	-3.2521	-2.5583	-3.2875	-2.975	-2.4333	-3.1729	-2.7708	-30.321	182.962	-47.733	209.410	75.010	-103.911	146.086	144.874	-58.009	95.714	164.334	-105.719	199.699	-142.772	108.004	63.416	0.00033784	0.00036243	0.00013036	1380.1	6.1288e-06	5.2686e-06	1370.1	372.62	1.808e-06	1.8908e-06	424.68	141.67	121.89	42.594	1.0669e-06	52.475	0.00049232	0.00049188	0.0001361	1383.2	5.3587e-06	5.411e-06	1383.1	376.1	5.3608e-06	5.3433e-06	428.8	144.29	124.49	43.328	5.2839e-06	53.364	211.379	-80.278	-93.313	-133.512	12.865	10.318	-133.569	-128.905	-19.870	6.502	-129.792	-125.547	-125.780	-120.183	100.065	-121.118	-8191	255	
11284.674	1	1	0	0	0.12217	0.16037	0.055232	0.12189	0.18296	0.13795	0.10682	0.17211	0.13095	0.034581	0.32177	0.16528	0.13891	0.14356	0.081782	0.12786	-2.3458	-3.0479	-2.4625	-3.3104	-2.9958	-2.4375	-3.3729	-2.8229	-2.6688	-3.3438	-2.5542	-2.9833	-3.0708	-2.4479	-3.2083	-2.5854	-132.292	163.208	-23.430	-79.334	195.564	-111.568	51.936	15.615	194.037	145.170	138.053	170.947	-76.360	44.342	196.070	162.916	0.00036755	0.0008305	0.00028762	1381.1	2.8955e-06	2.7686e-06	1369.6	371.9	4.1301e-06	7.4006e-06	423.77	141.7	121.86	42.563	4.5681e-06	52.702	0.00048381	0.00048225	0.00013354	1385.4	5.2826e-06	5.2257e-06	1385.1	376.48	5.2666e-06	5.314e-06	428.07	144.34	124.32	43.205	5.4111e-06	53.505	212.258	-63.278	-68.149	-133.775	-7.626	10.034	-133.825	-129.443	-14.813	4.209	-129.931	-125.764	-125.483	-120.341	-145.259	-121.293	-8191	255	
11284.768	1	1	0	0	0.18743	0.3819	0.1877	0.32868	0.096805	0.27921	0.26745	0.2859	0.1014	0.1071	0.19402	0.30365	0.25639	0.1173	0.30646	0.26276	-2.0812	-3.0646	-2.4875	-3.0062	-2.9938	-2.5875	-3.25	-2.7667	-2.7271	-3.3146	-2.6458	-2.9896	-3.0771	-2.4083	-3.1854	-2.9521	-9.653	30.117	-124.118	184.510	27.596	112.791	124.180	174.624	-99.337	195.498	128.660	125.863	-134.744	-143.845	-139.338	187.685	0.00034595	0.00038933	0.00017019	1377.6	2.4724e-06	3.3561e-06	1369.3	371.03	2.3015e-06	3.3836e-06	423.66	140.13	121.2	42.2	3.2311e-06	52.009	0.00049538	0.00049563	0.00013908	1386	5.532e-06	5.5658e-06	1385.2	375.36	5.6708e-06	5.5835e-06	428.33	143.66	124.41	43.12	5.7159e-06	53.246	-142.847	-55.698	-64.513	-133.962	32.811	-63.494	-134.043	-129.576	7.262	57.755	-129.870	-126.214	-125.693	-120.366	-41.536	-121.129	-8191	255	
11284.866	1	1	0	0	0.049341	0.16187	0.076192	0.13975	0.19062	0.23462	0.1577	0.061376	0.13083	0.023238	0.21052	0.1098	0.073729	0.29445	0.32555	0.17728	-2.1583	-3.1063	-2.5417	-2.8208	-3.1167	-2.3729	-3.2167	-2.8771	-2.4333	-3.1063	-2.6042	-2.7875	-3.0812	-2.5292	-3.0208	-3.1042	-14.764	164.904	72.938	158.218	-97.625	-78.448	204.667	138.913	45.759	-13.332	162.796	202.818	177.752	126.696	-8.427	54.238	0.00038673	0.00053805	0.00023948	1378.8	1.2202e-06	4.6102e-06	1371.9	370.64	9.9405e-07	7.0498e-06	421.39	140.39	121.37	42.383	6.2763e-06	52.187	0.00052995	0.00053316	0.00014864	1386	5.8148e-06	5.8644e-06	1384.9	375.4	5.8968e-06	5.8673e-06	427.4	143.79	124.61	43.129	5.9027e-06	53.4	209.858	-37.193	-58.274	-133.945	199.358	44.941	-134.055	-129.626	-43.726	44.716	-129.994	-125.996	-126.042	-120.577	25.144	-121.057	-8191	255	
11284.985	1	1	0	0	0.19542	0.027144	0.11896	0.12858	0.28062	0.054976	0.30901	0.30024	0.14088	0.048876	0.23433	0.28712	0.12681	0.097507	0.10122	0.049429	-2.0771	-3.0687	-2.8333	-2.8458	-3.2188	-2.4125	-3.025	-3.0396	-2.525	-3.3312	-2.7646	-2.8187	-3.2125	-2.6292	-2.9375	-3.1063	192.279	-103.611	25.313	190.725	-129.345	-3.591	187.290	111.945	3.985	-55.724	118.005	162.906	151.909	-109.332	31.477	212.034	0.00034786	0.00015462	0.00023793	1374.9	2.2199e-06	5.5713e-06	1366.8	369.04	3.0808e-06	5.6443e-06	422.02	140.47	121.07	42.137	3.1962e-06	52.026	0.00054175	0.00054605	0.00015295	1384.7	6.05e-06	6.0124e-06	1383.8	375.02	6.1631e-06	6.1484e-06	428.57	143.74	124.65	43.089	6.0834e-06	53.39	212.401	21.273	-32.527	-133.985	-39.283	-32.751	-133.999	-129.575	36.867	-45.600	-129.867	-125.897	-125.176	-120.525	-31.101	-121.213	-8191	255	
11285.081	1	1	0	0	0.16005	0.1861	0.053256	0.11476	0.10704	0.039062	0.042328	0.12923	0.16824	0.16873	0.073208	0.051859	0.21989	0.067561	0.085918	0.22204	-2.2104	-2.9625	-2.75	-2.8625	-3.2125	-2.6729	-3.1042	-3.4042	-2.4333	-3.1875	-2.9917	-2.7396	-3.1771	-2.5479	-2.7458	-3.3229	-13.575	-104.192	98.667	163.580	29.890	147.493	-9.837	-95.368	-58.880	29.974	-47.166	36.840	-44.303	150.724	88.703	73.669	0.00032656	0.0001314	0.00015559	1378.2	2.0623e-06	1.478e-06	1368.6	368.84	2.6134e-06	4.7779e-06	423.3	140.88	121.62	42.239	2.3196e-06	52.014	0.00055784	0.0005518	0.00015538	1386.4	5.9886e-06	5.9643e-06	1383.8	375.63	5.9564e-06	5.9354e-06	428.44	143.85	124.56	43.197	5.9287e-06	53.416	207.333	126.803	-27.337	-133.830	42.027	-16.447	-134.077	-129.378	-77.496	7.590	-129.835	-125.697	-125.598	-120.357	-12.095	-121.151	-8191	255	
11285.178	1	1	0	0	0.068086	0.10211	0.12277	0.063035	0.029196	0.2235	0.22757	0.22529	0.24011	0.055478	0.038777	0.15046	0.16805	0.1069	0.14036	0.071381	-1.9729	-2.9958	-2.7667	-2.5979	-3.2687	-2.7229	-3.0812	-3.3917	-2.55	-3.2292	-2.9208	-2.5083	-3.0625	-2.8771	-2.6292	-3.2687	2.634	-81.128	-48.890	47.446	56.621	34.784	164.470	169.746	104.611	-73.482	-132.971	7.465	89.371	-135.393	-54.865	-116.176	0.00037181	0.00021007	4.9731e-05	1372.3	2.2478e-06	4.4208e-06	1368.8	370.89	3.0538e-06	4.4922e-06	422.71	140.66	121.19	42.251	4.1828e-06	52.001	0.00052904	0.00054022	0.00014978	1383.3	5.8619e-06	5.8954e-06	1384.3	375.67	5.9736e-06	5.9973e-06	428.15	143.89	124.88	43.033	6.0884e-06	53.407	-140.139	2.789	-86.343	-133.756	-119.875	11.687	-134.136	-129.520	-55.873	-28.522	-129.566	-125.718	-125.620	-120.569	-33.973	-120.873	-8191	255	
11285.274	1	1	0	0	0.1311	0.18624	0.050118	0.29411	0.155	0.10906	0.078308	0.28241	0.034741	0.14655	0.13669	0.35127	0.14734	0.15307	0.15737	0.19134	-1.8062	-2.7875	-3.0583	-2.6708	-3.0354	-2.7896	-2.8667	-3.3312	-2.4542	-2.8729	-3.1896	-2.4458	-3.2938	-2.8167	-2.6583	-3.125	-128.532	123.025	106.436	193.933	34.132	49.676	147.364	140.526	-108.305	-107.369	102.628	175.942	55.722	112.976	-144.478	139.006	0.0004159	0.00060499	0.00015817	1373.2	7.5702e-06	6.5427e-06	1366.7	368.39	4.1797e-06	1.0536e-05	421.14	139.83	120.54	42.186	4.6361e-06	51.898	0.00055763	0.00056598	0.00015732	1384.6	6.2019e-06	6.2199e-06	1383.7	374.86	6.2705e-06	6.2316e-06	428.41	143.55	124.84	43.161	6.1419e-06	53.398	-145.855	-54.653	-10.270	-133.709	-3.562	39.972	-133.995	-129.351	-35.898	-2.709	-129.839	-125.768	-125.408	-120.481	-45.182	-121.185	-8191	255	
11285.370	1	1	0	0	0.10103	0.14681	0.27214	0.16803	0.17328	0.19627	0.33455	0.21225	0.25236	0.34564	0.20394	0.15508	0.1872	0.30226	0.031856	0.13603	-2.1688	-2.8042	-3.0042	-2.6458	-2.9479	-2.8875	-2.7438	-3.4896	-2.7875	-3.0417	-3.4104	-2.6375	-3.0167	-2.8729	-2.4562	-3.2458	153.711	44.741	143.362	193.746	38.510	-53.730	133.480	163.639	-111.193	-36.544	-104.254	-56.063	195.169	169.601	-114.264	164.053	0.0003495	0.00032387	9.7805e-05	1376.5	9.7446e-07	8.218e-06	1363.6	369.94	2.6781e-06	5.2824e-07	423.77	140.16	120.86	42.472	8.1283e-06	52.287	0.00055788	0.00056457	0.00015701	1385	6.1145e-06	6.1277e-06	1383	375.51	6.1051e-06	6.15e-06	428.94	143.84	124.7	43.23	6.2978e-06	53.503	-146.490	-52.534	-103.356	-133.936	178.764	50.242	-133.965	-129.379	-22.608	43.913	-129.739	-125.996	-125.467	-120.360	-8.609	-120.887	-8191	255	
11285.466	1	1	0	0	0.29363	0.1409	0.12352	0.29823	0.10779	0.1297	0.023616	0.21514	0.27019	0.094069	0.23479	0.19046	0.14484	0.029914	0.15886	0.096818	-2.2979	-2.7917	-3.0812	-2.575	-3.0333	-2.9479	-2.725	-3.1896	-2.6437	-2.8312	-3.3333	-2.5729	-2.8917	-2.9896	-2.4125	-3.2646	40.653	44.768	-36.742	171.479	-128.330	-77.865	-111.729	-138.162	23.239	20.791	184.514	171.568	165.017	20.472	79.424	-64.497	0.00040066	0.00056858	9.2615e-05	1375	3.9513e-06	5.6329e-07	1372.8	369.78	6.0733e-06	5.9029e-06	425.67	140.34	121.68	42.238	7.9695e-06	52.394	0.00056443	0.00057709	0.00015911	1388.6	6.2955e-06	6.2486e-06	1387.5	375.67	6.3026e-06	6.3524e-06	430.07	143.96	125.15	43.115	6.32e-06	53.648	-141.396	-64.393	-41.101	-133.866	-16.534	-31.035	-133.951	-129.403	-30.429	13.546	-129.803	-125.782	-125.438	-120.383	-34.820	-120.995	-8191	255	
11285.587	1	1	0	0	0.22403	0.053921	0.15791	0.19623	0.14884	0.034571	0.3073	0.26799	0.18263	0.10066	0.25943	0.14665	0.067386	0.37079	0.080087	0.21543	-2.475	-2.3812	-3.1167	-2.7042	-3.1146	-3.2229	-2.5187	-3.0917	-2.6604	-2.4896	-3.2854	-2.8333	-2.9042	-2.9958	-2.5333	-3.2667	190.219	36.382	171.653	164.169	-141.397	20.492	156.268	107.685	9.991	-51.701	-138.993	173.840	182.144	174.490	143.835	147.398	0.00039996	0.00062563	0.00017775	1375.8	2.9414e-06	3.8158e-06	1369.1	370.82	3.3101e-06	5.6746e-06	425.43	140.97	121.59	42.25	1.8696e-06	52.2	0.00057906	0.00058332	0.0001617	1389.4	6.4516e-06	6.3679e-06	1387.7	376.2	6.5464e-06	6.582e-06	430.77	144.08	125.83	43.32	6.5748e-06	53.574	207.398	-39.942	-56.119	-133.875	-24.655	2.424	-134.126	-129.398	-10.144	164.227	-129.694	-125.847	-125.601	-120.313	-48.305	-120.895	-8191	255	
11285.681	1	1	0	0	0.16315	0.075997	0.058183	0.30436	0.22887	0.23593	0.37025	0.22518	0.15371	0.15215	0.067044	0.16504	0.14972	0.40879	0.15012	0.078404	-2.4042	-2.4688	-3.1417	-2.8604	-2.6562	-3.3312	-2.6521	-3.0563	-2.9521	-2.4625	-3.3688	-2.75	-2.7354	-3.2208	-2.5208	-2.9625	-77.002	81.465	-66.772	-132.746	-37.206	147.232	109.820	174.383	-99.118	-124.046	121.010	187.629	183.401	101.330	155.013	198.769	0.00032043	0.00033033	2.9721e-05	1379.3	6.5282e-06	5.823e-06	1371.5	370.47	3.4359e-06	4.3469e-06	423.58	140.52	121.36	42.122	4.4343e-06	52.333	0.00059272	0.0006016	0.00016827	1391.5	6.5853e-06	6.5725e-06	1390.2	377.02	6.5409e-06	6.6043e-06	429.94	144.3	125.66	43.186	6.5906e-06	53.597	-143.754	-103.749	106.596	-133.715	-24.621	-43.973	-134.047	-129.440	-25.412	-29.984	-129.688	-125.888	-125.528	-120.144	-40.264	-121.004	-8191	255	
11285.777	1	1	0	0	0.12394	0.34291	0.13525	0.50711	0.034577	0.12872	0.090838	0.27589	0.24808	0.10145	0.032985	0.10111	0.04356	0.27239	0.14267	0.17211	-2.8104	-2.45	-3.0875	-2.8646	-2.625	-3.3	-2.6354	-2.9875	-3.2333	-2.5062	-3.3354	-2.8354	-2.6354	-3.4021	-2.4958	-3.0479	-75.067	-111.866	93.865	172.002	104.259	-105.807	195.290	111.117	48.874	-130.124	-125.542	121.725	180.855	-66.382	208.584	113.948	0.00039536	0.0010488	0.00016156	1375.8	7.9975e-06	8.2736e-06	1369.9	369	1.6837e-06	7.8296e-06	423.62	140.11	121.57	42.246	7.5105e-06	52.216	0.00060152	0.00061535	0.00017066	1391.6	6.7419e-06	6.6546e-06	1390.9	376.58	6.7465e-06	6.8095e-06	431.03	144.16	125.9	43.287	6.912e-06	53.615	210.104	-67.478	-67.562	-134.169	-44.707	-7.353	-133.842	-129.267	-39.898	19.301	-129.864	-125.820	-125.561	-120.389	-13.277	-121.046	-8191	255	
11285.898	1	1	0	0	0.13851	0.24926	0.060223	0.16817	0.18259	0.23487	0.42046	0.1931	0.2313	0.16404	0.13006	0.1284	0.20374	0.10212	0.21712	0.21799	-2.6646	-2.3979	-2.9708	-3.0292	-2.4583	-3.3125	-2.8708	-2.8833	-3.1021	-2.4688	-3.1854	-3.0521	-2.4292	-3.3563	-2.6729	-2.8333	131.371	5.170	40.299	155.226	184.150	129.440	101.545	133.984	20.288	187.378	191.423	15.766	196.956	-0.929	179.894	163.472	0.00036247	0.00076806	0.00013598	1383	2.1846e-06	9.0964e-06	1369.2	370.6	1.6145e-06	5.5163e-06	424.26	139.58	120.62	42.186	6.2956e-06	51.931	0.00063015	0.00063499	0.0001775	1395.9	7.0081e-06	7.0031e-06	1391.4	377.07	7.0989e-06	7.0803e-06	432.28	144.09	126.11	43.334	7.0707e-06	53.607	211.101	-74.337	-66.505	-134.002	-45.216	-25.548	-134.092	-129.532	80.114	15.130	-129.772	-125.994	-125.513	-120.310	5.532	-121.028	-8191	255	
11285.969	1	1	0	0	0.18838	0.25551	0.32665	0.14875	0.14774	0.1673	0.023949	0.11286	0.18136	0.23479	0.043254	0.159	0.20199	0.06991	0.18174	0.18403	-2.7958	-2.4646	-2.9396	-2.9958	-2.475	-3.2438	-2.6958	-2.7125	-3.1125	-2.5917	-3.1813	-3.1188	-2.4813	-3.4104	-2.6646	-2.6792	124.225	63.645	-24.102	179.895	157.385	178.665	-3.120	151.988	-109.166	-140.997	-36.875	-99.398	-69.739	209.455	121.675	-116.156	0.00035371	0.00014048	0.00020668	1386.2	1.7015e-06	7.7124e-06	1374.3	371.34	3.3841e-06	4.284e-06	424.27	139.72	120.76	42.237	2.36e-06	52.139	0.00064627	0.00065855	0.00018278	1398.2	7.1013e-06	7.0908e-06	1393.4	378.29	7.1626e-06	7.1938e-06	432.71	144.66	126.31	43.41	7.2538e-06	53.767	-144.588	87.026	-40.464	-133.821	138.090	15.804	-134.139	-129.192	-52.196	29.210	-129.640	-125.943	-125.323	-120.340	41.220	-121.151	-8191	255	
11286.066	1	1	0	0	0.11498	0.12255	0.17093	0.15918	0.1007	0.14647	0.25215	0.15915	0.072484	0.27041	0.23792	0.19201	0.18034	0.14048	0.043743	0.080593	-2.7875	-2.3146	-3.1354	-3.1958	-2.5125	-3.2146	-3.0792	-2.675	-3.2875	-2.5438	-2.9792	-3.0917	-2.4146	-3.1292	-2.7958	-2.5583	182.915	41.814	-116.704	-110.294	133.109	-52.723	149.027	-139.983	72.262	44.935	200.789	171.029	98.280	131.034	102.947	-139.766	0.00036647	0.00044528	0.00029576	1381.6	8.4362e-06	8.1371e-06	1364	370.27	4.0369e-06	5.046e-06	423.66	140.06	121.26	42.044	5.0006e-06	52.007	0.00066566	0.00067381	0.0001895	1398.3	7.4703e-06	7.4046e-06	1392	377.63	7.4934e-06	7.5627e-06	432.43	144.25	126.71	43.378	7.5497e-06	53.788	211.217	212.545	-67.382	-133.804	24.876	70.408	-134.049	-129.429	123.622	28.184	-129.683	-125.875	-125.434	-120.166	-3.484	-121.005	-8191	255	
11286.162	1	1	0	0	0.25662	0.16429	0.41069	0.23976	0.11671	0.17469	0.064353	0.068467	0.034399	0.3395	0.18554	0.20665	0.15072	0.32638	0.17157	0.045023	-2.7125	-2.4479	-2.7479	-3.1604	-2.3438	-3.0667	-3.2271	-2.6167	-3.1958	-2.7	-2.9458	-3.1729	-2.6479	-3.0438	-2.9333	-2.3937	-84.288	-66.671	-36.127	168.471	128.637	-36.072	105.530	33.031	17.702	162.990	-129.768	162.412	204.454	-94.134	107.411	188.785	0.00034439	0.00068429	0.00017353	1378.2	8.9245e-06	5.8891e-06	1368.2	370.83	2.3751e-06	5.1822e-06	422.51	139.89	120.14	42.046	4.6916e-06	51.963	0.00067929	0.00069178	0.00019242	1396.7	7.6494e-06	7.5332e-06	1392.1	377.51	7.4719e-06	7.4566e-06	431.63	144.29	125.95	43.338	7.274e-06	53.75	-136.709	-19.337	-52.160	-133.849	13.127	1.207	-134.009	-129.249	-6.085	-72.535	-129.795	-126.016	-125.778	-120.223	67.129	-121.041	-8191	255	
11286.282	1	1	0	0	0.17899	0.18831	0.28348	0.1246	0.29267	0.15163	0.20432	0.12334	0.067041	0.065941	0.037935	0.2395	0.056237	0.15916	0.07204	0.26183	-2.9396	-2.6271	-2.6333	-3.2583	-2.4167	-3.0229	-3.1771	-2.7417	-3.1771	-2.9104	-2.7646	-3.3063	-2.5	-3.1063	-3.0146	-2.5042	-143.134	-85.568	144.082	108.497	-33.476	38.545	145.067	156.093	-27.944	70.968	-73.538	188.900	-11.994	203.159	-56.026	182.567	0.00034962	0.00026833	0.00018523	1381.5	7.4763e-06	4.3701e-06	1372.7	369.72	7.3687e-06	6.5266e-06	423.85	140.43	121.32	42.195	1.4574e-06	52.104	0.00065489	0.00065457	0.00018312	1397.3	7.0601e-06	7.0557e-06	1394.2	376.89	7.0634e-06	7.0751e-06	432.09	144.3	126.1	43.402	6.9034e-06	53.627	-134.496	-0.995	-29.404	-133.762	-32.571	-23.798	-134.118	-129.261	-49.211	-12.137	-129.688	-125.842	-125.361	-120.289	-68.480	-121.151	-8191	255	
11286.379	1	1	0	0	0.031057	0.15755	0.11817	0.019214	0.21472	0.14117	0.23235	0.059206	0.09003	0.18124	0.086083	0.033894	0.2144	0.12813	0.050915	0.18742	-2.6813	-2.9104	-2.3708	-3.3979	-2.6479	-2.875	-3.2833	-2.9021	-3.0646	-2.6458	-2.6104	-3.3125	-2.5542	-2.9	-3.1937	-2.6479	115.588	7.850	133.270	94.950	197.655	16.922	158.639	199.981	-3.261	-72.716	-132.963	32.396	181.061	97.919	-101.704	108.595	0.00039144	0.00073861	0.0001327	1384.4	4.6287e-06	3.2945e-06	1370.4	370.16	3.7454e-06	5.8181e-06	423.53	140.19	121.09	42.153	5.3667e-06	51.977	0.00062522	0.000634	0.00017587	1397.1	6.8725e-06	6.8423e-06	1391.9	376.72	6.8678e-06	6.9435e-06	430.82	144.31	126.12	43.353	6.9422e-06	53.649	209.769	-53.607	-59.859	-133.805	-56.858	190.327	-133.968	-129.177	-6.782	-25.948	-129.678	-125.720	-125.619	-120.379	69.682	-121.223	-8191	255	
11286.475	1	1	0	0	0.13861	0.065781	0.43991	0.13783	0.29689	0.31729	0.27633	0.25373	0.2646	0.23879	0.34265	0.077143	0.13282	0.163	0.057503	0.14177	-2.7833	-2.9771	-2.6063	-3.2854	-2.5687	-2.7354	-3.3875	-2.5479	-2.9625	-2.8646	-2.6437	-3.3208	-2.6979	-2.6625	-3.375	-2.4833	17.868	50.008	-116.438	210.685	66.198	104.002	93.749	172.106	-132.244	25.750	-143.570	-77.544	-114.753	179.188	39.637	-66.400	0.00035128	0.00087022	0.00023426	1380.8	8.4102e-06	7.8515e-06	1370.4	370.77	3.1651e-06	5.0826e-06	424.04	140.14	121.18	42.322	1.0813e-05	52.395	0.0006233	0.00063841	0.00017754	1396.6	6.8796e-06	6.8718e-06	1391.9	376.87	6.8206e-06	6.8897e-06	430.86	144.21	125.86	43.378	6.7801e-06	53.689	-141.305	-89.323	-94.582	-133.894	2.885	-50.222	-134.040	-129.533	-10.998	48.114	-129.499	-125.643	-125.579	-120.184	12.837	-120.970	-8191	255	
11286.546	1	1	0	0	0.17359	0.29736	0.30108	0.27891	0.083691	0.2086	0.15808	0.31126	0.11878	0.31803	0.21145	0.16251	0.1851	0.17825	0.29395	0.26242	-2.8083	-2.9708	-2.4146	-3.3104	-2.7375	-2.6688	-3.4167	-2.6458	-2.9104	-3.3021	-2.6063	-3.2562	-2.5708	-2.6562	-3.2167	-2.4688	171.348	113.824	25.658	143.745	-33.349	33.564	165.212	106.935	5.457	130.328	133.601	195.317	-79.202	183.735	-75.072	181.155	0.0003472	0.0001987	0.00020632	1388.7	3.3285e-06	2.783e-06	1375.1	370.52	3.0017e-06	6.8618e-06	424.2	140.36	121.1	42.445	7.2775e-07	52.331	0.00061466	0.0006211	0.0001725	1399.4	6.7971e-06	6.8286e-06	1394.4	377.09	6.7159e-06	6.7381e-06	431.17	144.35	125.87	43.432	6.78e-06	53.69	208.995	146.155	-81.826	-133.849	44.239	-2.861	-133.887	-129.418	-54.780	-9.590	-129.794	-125.701	-125.739	-120.066	-75.701	-120.843	-8191	255	
11286.667	1	1	0	0	0.17797	0.10884	0.31615	0.23933	0.10232	0.26309	0.13872	0.31129	0.13556	0.038448	0.37713	0.18927	0.1005	0.070611	0.06771	0.078	-2.5292	-3.1854	-2.4729	-3.4396	-2.875	-2.5229	-3.2687	-2.7625	-2.75	-3.1188	-2.6937	-3.1042	-2.9771	-2.6708	-3.1125	-2.6292	19.208	-126.088	52.216	203.275	60.574	-43.591	-82.735	161.405	-111.695	88.208	127.552	164.612	171.902	152.698	150.511	194.444	0.00031896	0.00074585	0.00025969	1381.1	4.0445e-06	1.2288e-05	1372.5	372.09	6.5787e-06	1.7266e-06	423.39	139.91	122.02	42.318	3.7891e-06	52.358	0.00061629	0.00062236	0.0001755	1396.5	6.871e-06	6.9096e-06	1393.2	377.58	6.9484e-06	6.9333e-06	431.43	144.32	126.2	43.418	6.8902e-06	53.744	-139.918	-51.404	-95.543	-133.839	-47.008	13.466	-133.997	-129.498	-46.728	-25.689	-129.952	-125.714	-125.872	-120.439	-60.979	-121.354	-8191	255	
11286.761	1	1	0	0	0.13788	0.22733	0.16682	0.048991	0.037673	0.11196	0.15289	0.11768	0.094434	0.023622	0.15944	0.23694	0.15401	0.263	0.14144	0.093118	-2.2687	-3.0396	-2.4333	-3.1813	-2.9792	-2.525	-3.5417	-2.8896	-2.6562	-3.3	-2.5333	-3.1125	-3.1271	-2.6229	-3.3354	-3.0083	123.915	202.467	-119.859	209.899	110.518	206.653	65.533	182.612	1.685	5.279	67.389	176.197	162.765	-133.891	113.877	-52.965	0.00036296	0.00087571	9.6831e-05	1379.3	6.3716e-06	4.3782e-06	1373.4	371.52	6.1209e-06	7.8964e-06	423.54	140.41	121.45	42.257	9.8281e-06	52.366	0.00062908	0.00063442	0.00017665	1395.7	6.9577e-06	6.8748e-06	1392.8	377.36	6.8764e-06	6.8635e-06	431.43	144.33	125.62	43.283	6.641e-06	53.762	209.642	-60.458	-96.043	-133.786	-45.614	-80.022	-133.779	-129.174	-47.302	-13.396	-129.545	-125.412	-125.563	-120.231	-18.435	-120.590	-8191	255	
11286.858	1	1	0	0	0.19904	0.1304	0.19324	0.3361	0.08077	0.0552	0.32802	0.27991	0.037024	0.16977	0.10889	0.22944	0.23505	0.10775	0.12157	0.10098	-2.2375	-3.2438	-2.8042	-3.1458	-3.1958	-2.6229	-3.4729	-3.0563	-2.6896	-3.4167	-2.8604	-3.1208	-3.2792	-2.4979	-3.2146	-3.0333	-107.412	-21.594	-29.059	-132.629	-60.913	-137.021	142.597	143.730	-58.476	150.263	97.451	177.272	78.739	-20.240	-66.555	-50.268	0.00032898	0.00029078	0.00022299	1379.5	4.9604e-06	4.912e-06	1371.7	371.43	2.1196e-06	2.7087e-06	423.54	140.38	120.5	42.175	6.1099e-06	52.045	0.00060561	0.00061707	0.0001698	1395.1	6.7488e-06	6.7217e-06	1390.8	377.51	6.7426e-06	6.6548e-06	430.21	144.27	125.34	43.215	6.6784e-06	53.557	209.887	-60.491	-61.374	-133.550	45.144	14.380	-133.824	-129.261	42.757	37.933	-129.825	-125.670	-125.677	-120.199	45.767	-121.102	-8191	255	
11286.978	1	1	0	0	0.157	0.18114	0.46191	0.17044	0.26815	0.16168	0.029016	0.10284	0.27651	0.12149	0.16468	0.12538	0.13765	0.23045	0.14083	0.082579	-2.3333	-3.0896	-2.7354	-2.8708	-3.2646	-2.6021	-3.45	-3.3646	-2.3812	-3.2167	-2.9021	-2.9021	-3.3667	-2.6583	-3.0938	-3.0938	162.079	66.981	-90.887	-119.373	-131.155	63.950	47.532	195.639	-39.788	202.801	112.356	115.932	177.598	131.272	52.882	-105.282	0.00030343	0.00077781	9.9304e-05	1379.7	7.9045e-06	1.0838e-05	1369.1	369.8	6.5842e-06	9.3319e-06	423.61	140.58	120.79	42.457	7.0233e-06	52.055	0.00060428	0.00060908	0.00017206	1393.6	6.6608e-06	6.6975e-06	1392.1	376.25	6.7741e-06	6.7615e-06	431.21	144.23	125.51	43.293	6.8164e-06	53.622	211.103	-1.045	-30.615	-133.676	7.642	18.272	-133.810	-129.232	-58.995	-12.011	-129.694	-125.495	-125.780	-120.408	-55.583	-121.117	-8191	255	
11287.074	1	1	0	0	0.14105	0.15476	0.14209	0.38915	0.15809	0.073465	0.27558	0.24876	0.067724	0.034336	0.13696	0.090211	0.055702	0.002567	0.14293	0.24865	-2.0958	-3.2125	-2.7667	-2.9229	-3.3667	-2.6	-3.3104	-3.3667	-2.7521	-3.4354	-3.0979	-2.8	-3.4208	-2.7604	-2.9646	-3.4313	65.388	-137.976	-130.133	167.098	186.064	185.992	174.163	137.644	-117.438	3.619	76.111	-23.019	-106.211	180.000	-102.484	199.754	0.00039381	0.00073757	8.4749e-05	1382	4.7929e-06	4.8377e-06	1369	370.54	9.0197e-07	8.7644e-07	422.04	140.89	121.39	42.333	1.8327e-06	52.211	0.00061806	0.00062558	0.00017406	1394.6	6.8743e-06	6.8889e-06	1391.4	376.77	6.802e-06	6.7501e-06	430.3	144.33	125.88	43.35	6.7101e-06	53.548	-140.635	-117.031	-14.636	-133.644	-20.154	-48.064	-133.869	-129.213	-75.568	-119.494	-129.698	-125.635	-125.598	-120.201	193.133	-120.811	-8191	255	
11287.170	1	1	0	0	0.14934	0.10271	0.18925	0.2973	0.27105	0.18605	0.40162	0.19236	0.22944	0.22754	0.11013	0.29007	0.13201	0.14861	0.06478	0.17459	-2.2271	-3.1542	-2.9562	-2.825	-3.2708	-2.7271	-3.0312	-3.3521	-2.5646	-3.1229	-3.1229	-2.4833	-3.3417	-2.925	-2.9479	-3.3583	65.340	94.441	-27.100	-123.571	178.223	105.195	75.002	158.641	7.597	142.420	3.890	-64.194	56.016	181.237	58.650	-104.417	0.00027554	0.00024337	0.00014652	1381.3	8.4986e-06	2.2719e-06	1371.2	369.44	3.8571e-06	5.3726e-06	424.76	140.32	121.9	42.319	4.0111e-06	52.066	0.0006059	0.00061701	0.00017133	1394.5	6.761e-06	6.7645e-06	1389.3	376.41	6.8169e-06	6.82e-06	431.17	144.18	126.19	43.308	6.8578e-06	53.629	212.701	-71.314	-89.646	-133.782	2.844	-23.037	-133.859	-129.230	15.168	11.564	-129.744	-125.549	-125.531	-120.033	-42.362	-120.830	-8191	255	
11287.267	1	1	0	0	0.25346	0.27983	0.13514	0.026771	0.15966	0.24918	0.31531	0.048191	0.068647	0.12947	0.25398	0.087943	0.11404	0.23641	0.21283	0.16748	-2.3208	-2.975	-3.0958	-2.625	-3.5	-2.8479	-2.9854	-3.4854	-2.6417	-3.1896	-3.1958	-2.5292	-3.3146	-2.8937	-2.7354	-3.25	-15.370	-60.024	50.277	130.034	-52.870	-45.349	144.350	-76.904	165.888	142.138	104.267	-73.782	62.553	201.655	-80.186	-121.852	0.00027297	0.00054124	0.00019262	1380.3	1.7748e-06	5.4483e-06	1368.5	370.73	3.7034e-06	7.2138e-06	423.57	141.03	121.48	42.262	6.2398e-06	52.496	0.00062194	0.00063295	0.00017536	1395.1	6.952e-06	6.9075e-06	1390.5	377.13	6.8672e-06	6.8515e-06	430.41	144.47	125.87	43.377	6.79e-06	53.684	-145.752	-119.003	-47.912	-133.898	13.685	15.848	-133.917	-129.130	-38.337	-29.273	-129.696	-125.274	-125.099	-120.066	122.900	-120.890	-8191	255	
11287.363	1	1	0	0	0.11678	0.044413	0.16527	0.16452	0.27287	0.078977	0.13023	0.20738	0.067928	0.073799	0.14588	0.10568	0.17632	0.13723	0.15919	0.13951	-2.2833	-3.0167	-3.0354	-2.7146	-3.1521	-2.7875	-2.75	-3.5167	-2.6333	-2.9771	-3.425	-2.6958	-3.2625	-3.1688	-2.7208	-3.3458	119.131	136.515	19.626	127.834	184.975	164.073	140.399	209.774	194.180	166.499	-132.702	-109.447	138.594	135.129	-36.752	15.288	0.00035765	0.00087379	0.00018321	1382.6	6.8856e-06	2.4123e-06	1375	371.5	5.2216e-06	9.28e-06	422.47	140.76	121.41	42.172	7.0052e-06	52.385	0.00061271	0.00062253	0.00017341	1395.8	6.7495e-06	6.8218e-06	1391.9	377.54	6.8575e-06	6.8324e-06	430.65	144.49	125.95	43.304	6.853e-06	53.676	209.584	-57.854	-91.242	-133.580	27.962	-61.201	-133.653	-129.271	-38.042	19.809	-129.615	-125.426	-125.009	-120.427	-51.261	-120.721	-8191	255	
11287.459	1	1	0	0	0.21562	0.11861	0.17123	0.26167	0.12419	0.14059	0.22054	0.10275	0.12557	0.065161	0.079485	0.21746	0.12133	0.1756	0.10801	0.13208	-2.4396	-2.6833	-3.1146	-2.6	-3.0563	-3.0833	-2.7292	-3.4021	-2.7833	-2.8833	-3.4688	-2.6958	-3.3333	-3.1229	-2.4833	-3.5292	-9.746	-81.315	59.147	146.067	205.373	136.711	165.643	126.039	10.927	-118.645	86.798	164.918	96.360	-41.946	-139.503	25.216	0.00043682	0.00066216	0.00033492	1381.3	3.1969e-06	7.183e-06	1369.3	371.64	2.0946e-06	1.0707e-05	423.3	140.51	121.23	42.219	5.5155e-06	52.177	0.00062492	0.00062891	0.00017562	1395.8	6.7959e-06	6.8149e-06	1391.9	377.53	6.7481e-06	6.747e-06	431.03	144.22	125.81	43.303	6.6532e-06	53.575	-133.717	-105.336	-124.180	-133.598	105.768	-11.238	-133.833	-129.214	-143.300	-49.628	-129.518	-125.767	-125.195	-119.981	-4.685	-120.866	-8191	255	
11287.580	1	1	0	0	0.16382	0.15477	0.018967	0.26549	0.12753	0.075273	0.32853	0.25627	0.13443	0.042435	0.23558	0.075265	0.028128	0.12179	0.3006	0.20289	-2.2833	-2.7833	-3.4583	-2.9167	-3.15	-3.1417	-2.8521	-3.5187	-2.9417	-2.75	-3.4333	-2.7479	-3.0417	-3.2604	-2.6104	-3.3729	92.348	-8.702	46.077	167.554	95.654	174.288	171.057	110.599	-78.178	141.715	178.185	183.100	30.317	95.318	65.424	168.725	0.00038225	0.00051519	5.3548e-05	1379.4	4.7098e-06	7.3599e-06	1372.2	369.99	5.0695e-06	8.3554e-06	421.82	140.48	121.26	42.45	3.3643e-06	52.2	0.00059291	0.00060499	0.00016788	1393.5	6.4785e-06	6.5552e-06	1390.9	377.07	6.5393e-06	6.4783e-06	429.94	144.28	125.44	43.314	6.3908e-06	53.564	205.608	-90.844	-64.035	-133.687	-56.458	5.922	-133.761	-129.223	-8.080	31.664	-129.322	-125.400	-124.979	-120.334	63.681	-120.941	-8191	255	
11287.674	1	1	0	0	0.1322	0.043553	0.044194	0.11024	0.18428	0.079783	0.18939	0.22932	0.34077	0.097486	0.20113	0.051294	0.059726	0.066402	0.14309	0.24763	-2.4688	-2.4583	-3.3417	-2.7604	-2.8354	-3.4854	-2.5812	-3.4667	-2.9542	-2.5354	-3.3583	-2.875	-2.95	-3.2708	-2.4604	-3.4083	185.609	-107.504	151.424	191.029	-123.099	195.444	121.345	123.400	92.478	43.079	170.243	92.821	184.703	128.085	15.444	112.100	0.00036126	0.00036983	0.0001475	1383.1	8.0971e-06	2.8524e-06	1370.6	370.87	1.253e-06	5.4679e-06	423.7	140.4	121.74	42.316	1.5216e-06	52.405	0.00057973	0.00058739	0.00016304	1394	6.384e-06	6.3579e-06	1388.6	376.52	6.3392e-06	6.3182e-06	429.95	144	125.31	43.203	6.3443e-06	53.594	-145.862	-83.109	-84.122	-133.843	-10.001	31.302	-133.710	-128.975	-75.330	39.676	-129.574	-125.627	-125.476	-120.222	132.239	-120.649	-8191	255	
11287.770	1	1	0	0	0.14518	0.25116	0.16944	0.18247	0.1422	0.38124	0.32995	0.37552	0.099054	0.09757	0.18651	0.19754	0.32157	0.13155	0.24547	0.077984	-2.5292	-2.5062	-3.2646	-2.8438	-2.8417	-3.2125	-2.6583	-3.25	-3.0896	-2.4104	-3.2583	-2.9042	-2.8896	-3.3521	-2.5062	-3.0729	-75.431	193.032	2.991	78.326	-113.310	182.962	174.420	176.022	43.339	76.887	-77.575	92.574	-12.844	130.371	45.501	62.324	0.00024899	0.00068281	0.00019703	1382.3	1.9566e-06	1.9975e-06	1373.1	370.6	4.8129e-06	8.8662e-06	423.72	139.85	120.77	42.31	6.4227e-06	52.249	0.00057966	0.00058591	0.00016328	1392	6.4226e-06	6.4243e-06	1390.7	376.95	6.3956e-06	6.4816e-06	430.11	143.8	125.55	43.339	6.4216e-06	53.584	211.772	-70.238	-29.128	-133.738	-33.909	19.581	-133.923	-128.952	-52.467	-13.666	-129.580	-125.886	-125.235	-120.284	-121.274	-121.002	-8191	255	
11287.842	1	1	0	0	0.2007	0.19555	0.066421	0.24653	0.085871	0.21054	0.18275	0.11623	0.056026	0.16519	0.046611	0.22237	0.30395	0.28611	0.17744	0.10291	-2.7062	-2.6979	-3.1979	-3.1604	-2.6042	-3.2625	-2.8812	-3.2062	-3.2479	-2.5583	-3.3792	-3.1771	-2.5187	-3.4083	-2.7938	-3.0333	57.115	175.730	-13.097	128.858	-9.839	110.050	112.838	139.700	-104.691	121.043	-22.075	-33.988	-101.541	174.498	154.755	119.633	0.00033631	0.00082723	0.00026606	1383.8	1.7987e-06	5.9734e-06	1367.3	372.07	6.5309e-06	6.2622e-06	424.51	140.38	121.54	42.433	6.4076e-06	52.298	0.0005866	0.00059571	0.00016592	1392.4	6.4972e-06	6.5271e-06	1388.2	377.22	6.5669e-06	6.5833e-06	431.22	144.04	125.8	43.402	6.5909e-06	53.627	-145.043	-89.240	-28.789	-133.783	-110.615	-3.791	-133.923	-129.139	-6.226	3.240	-129.361	-125.599	-125.221	-120.197	-8.266	-120.568	-8191	255	
11287.962	1	1	0	0	0.24115	0.13798	0.10782	0.29308	0.067921	0.1278	0.34363	0.23048	0.028075	0.14736	0.20077	0.20018	0.18041	0.11959	0.13694	0.33252	-2.7604	-2.6604	-3.1896	-3.1729	-2.5667	-3.2521	-2.9958	-2.8812	-3.1688	-2.6521	-3.0938	-3.15	-2.5625	-3.5146	-2.6854	-2.7958	184.628	-76.670	143.966	114.964	161.475	64.449	163.190	163.782	-71.267	-21.274	141.973	194.028	-122.600	178.479	-23.302	185.555	0.0003549	0.00083787	5.9995e-05	1378.2	4.744e-06	7.4029e-06	1369.8	371.72	2.6805e-06	5.144e-06	424.16	140.96	121.77	42.608	3.6213e-06	52.207	0.00060413	0.00061127	0.00016936	1394.5	6.6759e-06	6.6788e-06	1389.9	377.41	6.7228e-06	6.6918e-06	430.35	144.44	125.61	43.437	6.6627e-06	53.573	210.412	-125.687	-53.843	-133.728	12.720	49.264	-133.937	-129.079	-24.786	60.632	-129.478	-125.290	-125.431	-120.229	25.790	-120.754	-8191	255	
11288.059	1	1	0	0	0.1694	0.11076	0.093793	0.23189	0.19324	0.079922	0.24241	0.18205	0.13921	0.12463	0.034199	0.18546	0.10422	0.1482	0.25707	0.34506	-2.9875	-2.4688	-3.1	-3.2771	-2.5521	-3.2104	-3.0563	-2.8646	-3.4479	-2.7292	-3.0812	-3.2646	-2.5729	-3.4125	-2.8708	-2.85	-67.293	25.126	-16.172	102.744	-82.111	177.753	-140.187	207.083	110.116	51.967	-7.206	152.139	127.970	-119.938	-53.113	153.081	0.00037628	0.00017203	0.00017483	1374.3	3.4676e-06	1.1033e-05	1373.6	370.03	7.5494e-06	1.0321e-05	424.05	140.82	121.73	42.462	4.0925e-06	52.183	0.00060173	0.00061584	0.00016977	1393.1	6.7309e-06	6.6886e-06	1392.3	376.96	6.6392e-06	6.6762e-06	431.03	144.36	125.76	43.382	6.6345e-06	53.65	210.065	59.126	-80.931	-133.913	-28.393	11.109	-133.927	-128.902	-44.444	-30.221	-129.645	-125.525	-125.444	-120.052	-41.380	-120.484	-8191	255	
11288.155	1	1	0	0	0.12356	0.16045	0.20535	0.17565	0.20451	0.28737	0.1058	0.315	0.12908	0.21021	0.21341	0.22652	0.12741	0.1916	0.15498	0.40223	-2.8979	-2.5167	-2.8667	-3.35	-2.4479	-3.2062	-3.0896	-2.6146	-3.2188	-2.6937	-3.0583	-3.4083	-2.55	-3.3854	-2.9125	-2.8958	203.918	74.518	-95.959	158.089	-74.912	-17.712	158.183	182.714	75.136	-124.872	160.205	-88.348	188.200	194.372	-39.659	117.667	0.000369	0.00073887	0.00015732	1385.6	1.361e-06	2.7658e-06	1368.1	371.73	2.4669e-06	2.5363e-06	424.03	140.55	122.13	42.26	1.3555e-05	52.269	0.00059946	0.00060602	0.00016853	1394.3	6.7028e-06	6.5875e-06	1389.9	377.27	6.5857e-06	6.6072e-06	430.69	144.29	125.91	43.347	6.5816e-06	53.641	-145.057	-14.827	-27.975	-133.527	80.171	207.603	-133.736	-129.003	3.544	62.208	-129.548	-125.439	-125.384	-119.992	-10.333	-120.685	-8191	255	
11288.251	1	1	0	0	0.14561	0.23672	0.15937	0.2799	0.36104	0.066654	0.14884	0.30031	0.14627	0.11617	0.12578	0.33155	0.061896	0.26388	0.12132	0.16126	-2.8688	-2.8958	-2.7479	-3.3396	-2.55	-2.9917	-3.1063	-2.6604	-3.2188	-2.6521	-2.9313	-3.4958	-2.5479	-3.1125	-3.1583	-2.6167	192.582	-26.670	174.265	167.546	18.094	-24.102	118.804	141.228	-132.453	115.668	128.783	128.623	4.397	1.366	38.542	-54.371	0.00038567	0.00085225	0.00012033	1377.6	9.1476e-06	6.2081e-06	1372.9	370.81	4.5282e-06	3.188e-06	424.32	140	121.78	42.22	2.332e-06	52.026	0.00060423	0.00061337	0.00017322	1393.5	6.7336e-06	6.781e-06	1390.2	377.36	6.7792e-06	6.8132e-06	431.75	144.21	126.13	43.456	6.8524e-06	53.609	-137.973	-77.961	-70.075	-133.464	-4.484	20.697	-133.784	-128.996	-7.213	32.942	-129.406	-125.426	-125.404	-120.035	36.160	-120.733	-8191	255	
11288.347	1	1	0	0	0.15261	0.078617	0.15139	0.10983	0.37177	0.10899	0.4021	0.15437	0.27074	0.11838	0.13767	0.1041	0.08309	0.17765	0.1	0.14549	-3.0312	-2.8229	-2.6188	-3.4333	-2.6188	-2.9375	-3.3521	-2.5854	-3.2646	-2.8104	-2.7083	-3.4	-2.7042	-3.0083	-3.1188	-2.775	132.526	-96.747	204.299	188.401	-47.354	159.106	140.760	51.388	121.891	145.085	-63.021	79.555	170.713	208.080	96.456	-28.289	0.0003712	0.00046598	0.00010902	1381.4	7.9289e-06	5.7771e-06	1372.1	370.85	3.8113e-06	6.6472e-06	422.97	140.63	121.54	42.283	4.3965e-06	52.193	0.00061674	0.00062494	0.00017413	1394.9	6.8336e-06	6.8311e-06	1390.1	377.59	6.8046e-06	6.7768e-06	430.38	144.46	125.74	43.356	6.5939e-06	53.599	212.496	-53.660	-79.113	-133.548	22.009	-32.820	-133.990	-129.097	-97.619	-30.634	-129.432	-125.483	-125.487	-119.996	-87.586	-120.846	-8191	255	
11288.443	1	1	0	0	0.13475	0.11383	0.36848	0.099308	0.075752	0.066126	0.22383	0.23059	0.10359	0.12574	0.37711	0.28475	0.378	0.14247	0.19039	0.29613	-2.7729	-3.0604	-2.6229	-3.5271	-2.9021	-2.9271	-3.3583	-2.45	-3.1604	-3.1104	-2.6583	-3.4917	-2.7812	-2.825	-3.3646	-2.7583	3.595	41.905	24.992	97.828	79.204	-115.653	118.823	177.861	148.691	-21.607	183.041	-76.441	-113.298	169.632	-125.847	126.482	0.00039292	0.00079197	0.00019471	1382.6	2.144e-06	5.8421e-06	1371.6	370.89	4.9393e-06	6.7595e-06	424.36	141.22	121.44	42.297	4.5095e-06	52.35	0.00060288	0.00060503	0.00016884	1395.6	6.5886e-06	6.598e-06	1390.9	377.37	6.5683e-06	6.4953e-06	431.22	144.46	125.59	43.362	6.4697e-06	53.617	209.788	-109.695	-130.755	-133.744	67.385	-0.029	-133.852	-128.952	0.045	-40.814	-129.768	-125.569	-125.290	-120.082	-32.256	-120.922	-8191	255	
11288.539	1	1	0	0	0.028897	0.14936	0.25247	0.16377	0.09366	0.18172	0.19724	0.078607	0.18701	0.16829	0.12265	0.089389	0.39618	0.029712	0.14125	0.1514	-2.8292	-3.0812	-2.5729	-3.5375	-2.9021	-2.9208	-3.4271	-2.7812	-3.0146	-3.1854	-2.725	-3.4271	-2.9	-2.9146	-3.3729	-2.6958	140.700	-108.792	102.089	199.896	32.745	62.696	101.624	194.242	-49.895	127.156	134.877	-129.885	-92.987	-125.595	157.754	96.594	0.00031045	0.00027849	0.00020331	1384.3	1.9701e-06	8.2969e-06	1377.5	371.16	3.8604e-06	4.1572e-06	423.05	140.45	121.35	42.331	3.2723e-06	52.301	0.00058535	0.00059199	0.0001672	1396.1	6.5322e-06	6.6082e-06	1392.8	377.54	6.7071e-06	6.6384e-06	430.31	144.63	125.85	43.43	6.6337e-06	53.719	211.946	29.712	-107.487	-133.696	1.944	22.753	-133.775	-129.094	-26.980	9.482	-129.467	-125.546	-125.168	-120.031	74.525	-120.958	-8191	255	
11288.660	1	1	0	0	0.031444	0.057459	0.32896	0.31212	0.17859	0.19936	0.2633	0.31105	0.29984	0.094311	0.21049	0.18258	0.18308	0.17638	0.1923	0.14104	-2.4917	-3.2396	-2.3396	-3.325	-3.0125	-2.725	-3.5312	-2.7083	-2.975	-3.3187	-2.6229	-3.1875	-2.9313	-2.6146	-3.3479	-2.8104	163.502	56.096	173.533	208.982	166.889	-146.064	173.725	184.890	-54.492	158.891	-130.978	-141.901	181.605	202.270	126.336	88.396	0.00038602	0.0010229	0.00020418	1385.2	3.4472e-06	4.9081e-06	1372.2	372.56	4.2882e-06	5.5027e-06	424.45	140.4	120.87	42.328	7.8847e-06	52.428	0.00060022	0.00060985	0.00016991	1396.2	6.6869e-06	6.6805e-06	1393.5	377.82	6.7334e-06	6.6764e-06	431.2	144.44	125.84	43.415	6.6576e-06	53.726	-144.738	-80.860	-61.835	-133.637	-63.767	-69.828	-133.879	-129.041	-18.849	-17.160	-129.689	-125.376	-124.999	-120.090	-64.397	-120.824	-8191	255	
11288.754	1	1	0	0	0.28948	0.10171	0.15466	0.15292	0.062898	0.07319	0.25352	0.11948	0.12127	0.083981	0.09441	0.12626	0.10921	0.19193	0.25545	0.075505	-2.4479	-3.1792	-2.5333	-3.2229	-2.9771	-2.5438	-3.4958	-2.8771	-2.7854	-3.2771	-2.6312	-3.1333	-3.0833	-2.7354	-3.3521	-3.0812	-124.082	-59.180	-109.059	208.139	-55.431	149.133	172.027	172.062	126.379	62.526	194.755	186.600	85.759	-119.803	-92.858	-139.929	0.00035749	0.00073763	5.3244e-05	1384.1	2.0196e-06	1.6183e-06	1374.7	371.09	3.0961e-06	1.0094e-06	422.74	140.87	122.65	42.52	7.9049e-06	52.295	0.00060773	0.00061637	0.00017214	1396.5	6.7958e-06	6.7711e-06	1393.3	377.82	6.805e-06	6.7695e-06	431.12	144.77	126.31	43.454	6.7448e-06	53.708	-145.150	-52.914	-59.015	-133.657	-34.451	205.034	-133.846	-129.103	-2.297	15.324	-129.384	-125.412	-125.744	-120.128	-1.697	-121.152	-8191	255	
11288.850	1	1	0	0	0.37809	0.12499	0.23425	0.32678	0.16216	0.1105	0.058127	0.31279	0.24181	0.23097	0.069209	0.22332	0.24707	0.32311	0.09552	0.15695	-2.4146	-3.2667	-2.3937	-3.2667	-3.0396	-2.5042	-3.5583	-2.9021	-2.8708	-3.4021	-2.8396	-3.1375	-3.1604	-2.6813	-3.3521	-2.9792	-31.562	-146.494	-52.894	178.746	-120.112	114.679	140.111	193.978	-103.102	-139.147	107.403	-139.596	-80.104	159.759	129.529	164.408	0.00033013	0.00076203	0.00014466	1379	3.1134e-06	4.3349e-06	1371.3	370.05	3.1388e-06	5.6448e-06	424.44	140.85	120.76	42.332	3.1993e-06	52.186	0.00061715	0.00062656	0.00017226	1395.5	6.7833e-06	6.7898e-06	1392.6	377.25	6.7651e-06	6.7044e-06	430.63	144.73	125.81	43.442	6.7162e-06	53.685	211.919	-49.253	-43.785	-133.482	-20.866	-0.953	-133.760	-129.200	-50.778	-23.127	-129.790	-125.391	-125.611	-119.989	52.094	-120.743	-8191	255	
11288.947	1	1	0	0	0.14641	0.041111	0.24422	0.1518	0.016752	0.076724	0.084491	0.1238	0.070542	0.28078	0.1164	0.24892	0.16521	0.20422	0.12006	0.0239	-2.2271	-3.2792	-2.6896	-3.1063	-3.3125	-2.4979	-3.375	-3.0583	-2.8354	-3.3563	-2.775	-3.0438	-3.1688	-2.7333	-3.0083	-3.0583	-73.900	-58.889	66.185	194.400	148.512	-146.261	60.138	-61.557	135.755	-131.873	35.345	164.784	168.706	112.101	-52.935	-87.123	0.00037597	0.00071158	9.2817e-05	1388.3	2.9173e-06	3.6022e-06	1376.7	370.18	4.3825e-06	6.0388e-06	424.03	140.43	121.61	42.289	2.5994e-06	52.214	0.00061872	0.00062115	0.00017376	1398.4	6.915e-06	6.9023e-06	1396.2	377.86	6.8952e-06	6.9371e-06	431.74	144.52	126.08	43.425	6.8817e-06	53.803	207.749	-60.456	202.380	-133.375	1.768	5.655	-133.678	-129.174	-7.506	17.011	-129.329	-125.434	-125.346	-120.230	-103.993	-121.089	-8191	255	
11289.067	1	1	0	0	0.14553	0.15409	0.052687	0.39007	0.053066	0.40613	0.11915	0.26382	0.099681	0.14452	0.11014	0.070779	0.11253	0.076496	0.11273	0.081434	-2.1146	-3.3771	-2.6229	-2.9021	-3.3479	-2.7104	-3.3104	-3.1896	-2.5667	-3.2625	-2.9354	-2.9104	-3.3375	-2.6	-3.1542	-3.1542	-109.613	50.170	157.328	165.216	-101.588	60.508	59.879	174.763	-110.170	54.602	212.637	125.515	69.596	123.569	-80.161	-138.774	0.00037617	0.00046205	8.5e-05	1385	2.8299e-06	5.6768e-06	1373.9	370.07	2.029e-06	5.1409e-06	423.12	140.43	121.99	42.278	4.0165e-06	52.205	0.00062157	0.00063238	0.00017526	1398.4	6.8412e-06	6.8527e-06	1392.1	377.39	6.9167e-06	6.8183e-06	430.96	144.47	126.07	43.412	6.8682e-06	53.677	-144.902	-29.641	-13.867	-133.454	-68.848	52.464	-133.640	-129.143	13.403	-33.965	-129.401	-125.417	-125.464	-120.087	202.335	-120.937	-8191	255	
11289.139	1	1	0	0	0.10048	0.155	0.14524	0.23943	0.12151	0.23793	0.12897	0.1195	0.073211	0.094087	0.34629	0.17488	0.13274	0.10144	0.17273	0.28805	-1.9604	-3.2604	-2.8167	-2.8521	-3.2729	-2.6333	-3.2292	-3.3312	-2.6688	-3.25	-3.0042	-2.7521	-3.3312	-2.7667	-2.8229	-3.2938	114.495	-68.316	-53.530	173.309	-64.710	-24.629	-145.525	4.451	117.082	136.695	-140.171	165.986	54.472	118.943	9.488	166.209	0.00034386	0.0008314	0.00017402	1382.8	6.8864e-06	5.7253e-06	1372.5	371.66	2.1467e-06	5.6426e-06	423.89	141.5	122	42.4	1.1086e-06	52.221	0.00062555	0.00063193	0.00017545	1396.9	6.884e-06	6.8508e-06	1392.8	378.18	6.8059e-06	6.7505e-06	432.09	144.73	126.11	43.345	6.7383e-06	53.562	-135.376	-38.604	-22.939	-133.497	-0.965	-34.479	-133.742	-129.126	23.346	-57.971	-129.343	-125.488	-125.327	-120.139	-34.976	-120.736	-8191	255	
11289.260	1	1	0	0	0.1229	0.15592	0.044349	0.24037	0.17765	0.099848	0.084278	0.16071	0.10892	0.12466	0.36341	0.049625	0.079988	0.26651	0.1087	0.1225	-2.15	-3.2083	-2.975	-2.8521	-3.4333	-2.6979	-2.9979	-3.3292	-2.6104	-3.2375	-3.1792	-2.5979	-3.3354	-2.7	-2.85	-3.3708	60.935	13.690	2.404	144.495	78.584	86.301	194.897	-65.498	-120.309	181.361	56.249	174.904	70.252	180.313	144.356	203.496	0.00033197	0.00097307	0.00017583	1385.5	4.366e-06	6.3517e-06	1371.4	371.43	4.506e-06	9.7825e-06	424.37	139.89	122.42	42.216	3.8398e-06	52.42	0.00060807	0.00061686	0.00017257	1397.8	6.7499e-06	6.8265e-06	1393.3	377.53	6.7946e-06	6.8786e-06	431.67	144.47	126.48	43.401	6.8668e-06	53.812	207.828	-90.840	-69.354	-133.434	-29.263	-5.041	-133.736	-129.234	-83.070	36.369	-129.639	-125.907	-125.257	-120.076	-129.139	-121.008	-8191	255	
11289.356	1	1	0	0	0.22953	0.14911	0.32954	0.12075	0.071955	0.27173	0.31136	0.30621	0.012087	0.24752	0.15991	0.068054	0.23738	0.079371	0.085436	0.067222	-2.1458	-2.8333	-2.7708	-2.7313	-3.2396	-2.7167	-2.8625	-3.6521	-2.5542	-2.9771	-3.1937	-2.5417	-3.1229	-2.9729	-2.6979	-3.3646	5.013	-19.414	117.600	-122.530	-103.932	-0.547	131.250	146.720	4.294	146.065	180.216	-105.906	-44.759	15.290	16.481	-117.970	0.00029706	0.00043337	0.00012217	1383.2	5.9167e-06	9.2425e-06	1372.4	371.7	4.5822e-06	6.7241e-06	422.81	140.4	121.92	42.447	6.7577e-06	52.115	0.00062316	0.00062801	0.00017674	1397.1	6.826e-06	6.8822e-06	1395	378.07	6.9002e-06	6.8807e-06	431.13	144.69	126.25	43.445	6.9188e-06	53.694	211.911	7.878	-77.500	-133.813	-33.956	20.524	-133.866	-129.387	-28.199	41.610	-129.318	-125.528	-125.148	-120.379	-62.878	-121.189	-8191	255	
11289.452	1	1	0	0	0.11975	0.14886	0.10737	0.23371	0.057387	0.070301	0.11675	0.059048	0.16238	0.19997	0.30335	0.17782	0.13724	0.13736	0.088228	0.11329	-2.1854	-2.825	-3.2354	-2.6396	-3.2396	-3.1604	-2.9813	-3.4021	-2.8771	-2.9542	-3.4	-2.6688	-3.3	-3.0396	-2.55	-3.4562	170.373	183.735	-109.543	100.382	52.002	-94.977	125.323	141.457	205.276	106.559	155.318	-102.876	115.967	167.661	-45.811	-17.736	0.00033803	0.00038936	0.00011538	1388.3	6.6393e-06	6.7878e-06	1372.7	372.15	3.6963e-06	4.8066e-06	424.55	141.27	121.25	42.283	6.6534e-06	52.316	0.00062264	0.00063104	0.00017345	1396.6	6.8401e-06	6.8234e-06	1393.8	378.07	6.8483e-06	6.854e-06	432.15	144.77	126.08	43.41	6.8202e-06	53.735	208.994	-99.054	-33.968	-133.552	7.835	-59.808	-133.707	-129.088	-30.124	-43.476	-129.622	-125.669	-125.393	-120.290	-63.430	-120.992	-8191	255	
11289.548	1	1	0	0	0.066371	0.14949	0.095604	0.22803	0.1472	0.17036	0.21913	0.16227	0.25719	0.29885	0.18926	0.14652	0.34159	0.13894	0.13887	0.069935	-2.3479	-2.7354	-3.1208	-2.6396	-3.1896	-3.0312	-2.7146	-3.5333	-2.7687	-2.6125	-3.5271	-2.6688	-3.05	-3.1667	-2.4875	-3.4271	-143.689	63.243	171.349	146.673	-76.305	205.453	111.427	-122.533	-60.021	146.331	170.110	-89.569	164.075	101.950	-136.933	-21.701	0.00039709	0.00044871	0.00018328	1379.7	1.605e-06	6.7478e-06	1370.7	371.41	7.6384e-06	1.4036e-05	426.17	140.82	121.42	42.295	9.9127e-06	52.441	0.00061559	0.00062624	0.00017428	1396.9	6.9215e-06	6.8681e-06	1391.2	377.93	6.8819e-06	6.8151e-06	431.91	144.72	126.23	43.414	6.8287e-06	53.713	205.920	-85.965	-27.093	-133.725	74.207	4.917	-133.727	-129.060	-29.948	-27.236	-129.524	-125.625	-125.336	-120.194	-73.559	-120.802	-8191	255	
11289.667	1	1	0	0	0.016626	0.237	0.17313	0.14641	0.26126	0.182	0.16936	0.079324	0.23771	0.081789	0.073623	0.17999	0.20276	0.27174	0.15001	0.26902	-2.3875	-2.6896	-3.3292	-2.6937	-3.0687	-3.1917	-2.6792	-3.6042	-3.0792	-2.7854	-3.5979	-2.8125	-2.975	-3.4167	-2.9396	-3.175	-70.753	-90.334	156.508	-76.526	9.681	-29.289	132.378	208.872	-71.783	-100.598	210.977	161.581	-34.598	-89.084	124.269	95.329	0.00036618	0.00044844	0.00013229	1384.9	9.4072e-06	1.0462e-05	1370.4	371.87	3.0243e-06	7.4516e-06	426.09	140.76	121.58	42.186	6.7759e-06	52.471	0.00060975	0.00062651	0.00017161	1397.7	6.8181e-06	6.8048e-06	1392	377.74	6.8023e-06	6.8721e-06	432.38	144.58	126.04	43.432	6.8612e-06	53.797	-138.081	-105.525	34.064	-133.733	39.057	-0.631	-133.839	-129.308	-1.986	18.640	-129.769	-125.436	-125.614	-120.163	4.371	-120.933	-8191	255	
11289.739	1	1	0	0	0.0061942	0.086732	0.065619	0.11731	0.11982	0.031283	0.21014	0.077462	0.074883	0.066237	0.17074	0.1048	0.35288	0.2302	0.36158	0.086259	-2.7208	-2.675	-3.4333	-2.8229	-2.9208	-3.1583	-2.8792	-3.3688	-2.9979	-2.7667	-3.4583	-2.8917	-2.7438	-3.3438	-2.5687	-3.2438	59.944	-59.804	120.208	-16.940	84.917	165.827	163.910	-84.554	-112.529	-42.861	171.080	202.242	-110.263	179.456	23.396	11.987	0.00036651	0.00095228	9.1164e-05	1377.7	1.6895e-06	3.7901e-06	1372.4	370.89	3.5052e-06	2.5293e-06	424.02	140.28	121.68	42.423	4.634e-06	52.414	0.00062209	0.00062665	0.00017453	1394.2	6.875e-06	6.7911e-06	1391.1	377.48	6.7555e-06	6.8157e-06	431.81	144.44	125.97	43.478	6.761e-06	53.786	204.717	-75.190	-13.434	-133.459	6.197	29.121	-133.621	-129.045	3.170	-2.653	-129.546	-125.716	-125.440	-120.187	37.367	-121.036	-8191	255	
11289.835	1	1	0	0	0.095665	0.23145	0.15968	0.0098617	0.13503	0.094013	0.050351	0.25327	0.074217	0.27901	0.083027	0.036681	0.12782	0.041989	0.30639	0.096828	-2.7271	-2.3937	-3.3375	-2.9604	-2.9688	-3.5146	-2.825	-3.3833	-3.1375	-2.4729	-3.4646	-2.9229	-2.8458	-3.5167	-2.7042	-3.3042	-55.951	17.907	-1.922	-112.960	49.079	-136.322	199.750	170.696	117.248	-118.041	197.961	182.335	61.313	159.068	85.950	167.619	0.00042277	0.00081268	0.00013299	1381.5	5.5629e-06	5.0223e-06	1370.5	372.04	5.4823e-06	2.9028e-06	424.47	140.41	121.34	42.36	5.851e-06	52.401	0.00061166	0.00062393	0.00017197	1395	6.7849e-06	6.7971e-06	1393.4	378.53	6.8424e-06	6.8352e-06	431.79	144.66	125.97	43.472	6.7564e-06	53.773	-144.950	-82.408	-30.765	-133.531	-19.555	-76.899	-133.741	-129.017	-32.010	68.842	-129.527	-125.524	-125.345	-120.039	14.817	-120.421	-8191	255	
11289.931	1	1	0	0	0.12158	0.28902	0.1161	0.26512	0.087891	0.31076	0.15913	0.2912	0.25489	0.061633	0.15791	0.18417	0.174	0.2746	0.048655	0.1205	-2.8958	-2.625	-3.2	-3.1208	-2.6125	-3.45	-2.9854	-3.0354	-3.1708	-2.4542	-3.4479	-3.15	-2.6042	-3.4562	-2.6729	-3.1271	162.090	-55.432	45.858	149.224	-16.155	67.513	109.759	182.000	150.155	86.590	104.198	156.268	-91.971	144.781	-32.667	148.550	0.0003711	0.00047665	0.00027394	1386.7	1.3262e-06	3.8861e-06	1372.3	371.94	4.8042e-06	7.3557e-06	424.81	140.8	121.56	42.559	4.3677e-06	52.148	0.00060767	0.00061943	0.00017148	1399.1	6.7584e-06	6.744e-06	1395.4	378.7	6.7648e-06	6.7796e-06	431.45	144.65	126.1	43.536	6.7591e-06	53.816	-140.475	-63.744	-75.766	-133.424	124.448	-6.808	-133.760	-129.061	-65.545	-5.341	-129.457	-125.443	-125.368	-119.921	-17.242	-120.677	-8191	255	
11290.027	1	1	0	0	0.2079	0.18851	0.11307	0.14602	0.09481	0.1144	0.13574	0.09969	0.12303	0.20519	0.24759	0.24394	0.083229	0.076724	0.13961	0.2466	-2.8208	-2.5938	-3.2729	-3.1771	-2.6875	-3.3521	-2.8583	-2.9958	-3.2438	-2.8021	-3.2938	-3.1896	-2.6729	-3.3563	-2.7417	-2.9625	181.034	-144.262	69.017	211.740	-54.492	-134.566	192.201	149.416	32.444	64.101	106.192	-122.429	133.227	-113.976	-64.043	139.668	0.00036183	0.00039242	0.00020734	1382.4	3.1448e-06	1.9596e-06	1373.3	371.6	3.1766e-06	2.9545e-06	424.51	140.55	121.75	42.486	4.6512e-06	52.237	0.00061793	0.00062592	0.00017287	1397.8	6.8535e-06	6.8474e-06	1393	378.01	6.8531e-06	6.8154e-06	431.93	144.77	126.4	43.539	6.8213e-06	53.842	211.751	-44.728	-28.473	-133.514	31.587	-99.234	-133.900	-129.120	-30.755	193.490	-129.349	-125.601	-125.310	-119.871	-129.127	-120.712	-8191	255	
11290.148	1	1	0	0	0.1019	0.34506	0.24078	0.091837	0.2549	0.17356	0.15595	0.1973	0.06743	0.035985	0.16055	0.22597	0.13665	0.08428	0.23659	0.15783	-3.0583	-2.6646	-3.1458	-3.3042	-2.4354	-3.3521	-3.1375	-2.7438	-3.325	-2.6917	-3.1104	-3.3708	-2.5938	-3.2083	-3.0812	-3.0479	200.016	0.616	184.610	-145.651	-111.631	-20.320	188.514	113.911	182.839	-101.542	198.993	182.829	-72.530	-89.511	165.133	190.252	0.00033828	0.00075045	5.559e-05	1384	3.3687e-06	5.5847e-06	1376.1	371.86	3.6716e-06	2.236e-06	423.47	140.94	121.74	42.457	5.3559e-06	52.823	0.00061215	0.00062633	0.00017461	1398.6	6.863e-06	6.8129e-06	1394	378.81	6.8074e-06	6.8636e-06	431.76	144.8	126.31	43.491	6.783e-06	53.908	-136.847	-43.777	-76.510	-133.583	-20.276	-66.872	-133.785	-128.739	-11.663	97.545	-129.387	-125.586	-124.785	-119.764	-23.991	-120.344	-8191	255	
11290.244	1	1	0	0	0.034884	0.1999	0.067549	0.24889	0.1142	0.12998	0.29942	0.21676	0.12152	0.13628	0.037027	0.12859	0.058145	0.14234	0.18215	0.17336	-3.0208	-2.7125	-3.0312	-3.3937	-2.6667	-3.2042	-3.2417	-2.8312	-3.375	-2.7708	-2.8917	-3.4562	-2.6458	-3.2875	-3.0021	-2.6542	109.918	-137.040	48.954	88.212	-116.361	200.769	74.181	170.817	100.847	-38.851	-126.761	116.689	205.783	-108.304	3.562	-101.688	0.00036615	0.00059175	0.00019938	1387.1	6.6747e-06	6.1988e-06	1373.9	371.73	2.2796e-06	3.0541e-06	424.42	140.61	122.63	42.566	6.2725e-06	52.59	0.00060991	0.00061904	0.00017083	1399.1	6.7091e-06	6.6183e-06	1394.7	378.21	6.675e-06	6.6584e-06	431.56	144.7	126.35	43.526	6.5543e-06	53.769	-143.230	-49.577	-69.320	-133.518	20.491	-8.088	-133.911	-129.099	-15.421	-33.783	-129.340	-125.262	-125.510	-119.943	-58.010	-121.010	-8191	255	
11290.340	1	1	0	0	0.097571	0.15011	0.11679	0.32024	0.25053	0.063512	0.12619	0.47024	0.052888	0.18569	0.41554	0.045322	0.12702	0.35812	0.096366	0.21546	-2.9313	-2.6688	-2.6271	-3.4104	-2.5958	-3.1042	-3.4	-2.6562	-3.2354	-2.8312	-2.6917	-3.3438	-2.6417	-3.15	-3.0708	-2.5812	-93.451	5.982	156.163	167.697	-28.006	82.840	144.540	187.335	-139.670	-27.827	121.050	-25.170	-95.585	-135.933	-146.465	87.534	0.00036888	0.00060432	0.00027203	1387.4	2.9354e-06	1.3444e-06	1374.3	372.77	6.1013e-06	6.4058e-06	427.15	140.96	121.57	42.542	6.9575e-06	52.286	0.00059387	0.00060432	0.00016849	1399.1	6.6631e-06	6.6387e-06	1395.2	378.89	6.5986e-06	6.6616e-06	432.46	144.84	125.93	43.584	6.5685e-06	53.749	-143.479	-57.460	-69.454	-133.622	75.825	198.959	-133.915	-128.873	-57.447	29.392	-129.377	-125.783	-125.367	-120.180	-35.182	-120.484	-8191	255	
11290.436	1	1	0	0	0.12697	0.13733	0.16493	0.15196	0.16033	0.087294	0.40501	0.20095	0.22223	0.10896	0.27561	0.15938	0.23079	0.16619	0.23405	0.11396	-2.8042	-2.7812	-2.5938	-3.4604	-2.6104	-2.9271	-3.3083	-2.7521	-3.2938	-2.9667	-2.7479	-3.4896	-2.6167	-2.9708	-3.2708	-2.7979	146.052	-50.431	162.458	-120.685	151.956	95.353	120.255	128.237	12.009	58.692	-26.334	212.280	173.443	175.230	-44.237	65.754	0.00035104	0.0008591	0.00024001	1384.2	3.3398e-06	9.3184e-06	1377.8	371.21	3.6957e-06	8.7929e-06	423.98	140.68	122	42.643	4.5659e-06	52.424	0.0005966	0.0006054	0.00016888	1396.4	6.6633e-06	6.6444e-06	1397	377.96	6.6982e-06	6.6568e-06	431.66	144.74	126.15	43.535	6.6092e-06	53.749	-139.788	-101.164	-54.973	-133.550	-20.810	37.753	-133.669	-129.159	16.318	-17.139	-129.352	-125.419	-125.493	-119.875	-39.225	-120.840	-8191	255	
11290.532	1	1	0	0	0.16009	0.20853	0.12344	0.23359	0.092827	0.13854	0.11323	0.24364	0.06181	0.090557	0.096444	0.12328	0.26914	0.20628	0.1577	0.13372	-2.8312	-2.9562	-2.6833	-3.4562	-2.7375	-2.9062	-3.5104	-2.5917	-3.1271	-3.2083	-2.8208	-3.3521	-2.6375	-2.9167	-3.3146	-2.6167	53.682	-132.738	120.893	191.258	-145.279	212.574	-126.642	148.559	125.789	-71.488	147.304	-69.657	129.238	-65.825	-69.938	-73.351	0.00040296	0.00067797	0.00020943	1387.4	5.1985e-06	1.4288e-06	1375	372.29	1.8264e-06	1.9031e-06	424.04	141.13	122.04	42.673	2.5625e-06	52.355	0.00060032	0.00060567	0.00016971	1397.1	6.6285e-06	6.5567e-06	1393.2	378.28	6.5401e-06	6.5795e-06	430.81	144.6	126.03	43.558	6.4679e-06	53.721	-144.888	-123.403	-83.620	-133.553	47.898	94.203	-133.623	-129.072	9.201	-47.107	-129.512	-125.278	-124.924	-120.152	63.725	-120.758	-8191	255	
11290.628	1	1	0	0	0.32357	0.083789	0.25684	0.10909	0.2196	0.02508	0.25129	0.29438	0.16164	0.071092	0.18633	0.20003	0.054515	0.1142	0.09016	0.04832	-2.7146	-3.1708	-2.5875	-3.3042	-2.8563	-2.7875	-3.4333	-2.7938	-3.1917	-3.3625	-2.7729	-3.3896	-3.025	-2.7562	-3.2854	-2.8125	195.421	-138.945	203.233	166.444	149.880	37.468	143.776	152.675	102.306	-113.469	193.396	-86.224	82.844	-21.737	212.309	-109.781	0.00036819	0.00071237	0.00023668	1388.9	3.6389e-06	5.3252e-06	1375.4	371.75	3.3086e-06	1.0598e-06	424.28	140.82	121.88	42.591	4.5242e-06	52.352	0.00058711	0.00059091	0.000165	1398	6.4884e-06	6.5176e-06	1394.2	377.73	6.4812e-06	6.5039e-06	431.2	144.61	125.87	43.565	6.4418e-06	53.735	210.514	-114.015	-63.084	-133.685	16.392	-92.693	-133.826	-129.084	-42.622	195.806	-129.658	-125.557	-125.418	-120.219	-17.656	-120.930	-8191	255	
11290.747	1	1	0	0	0.16015	0.32231	0.18372	0.30692	0.062694	0.098473	0.24195	0.23618	0.019253	0.1121	0.20095	0.28076	0.1468	0.10271	0.23013	0.21971	-2.7896	-3.1312	-2.6208	-3.3229	-2.9417	-2.7896	-3.5083	-2.9396	-2.9271	-3.3604	-2.4958	-3.3646	-2.9729	-2.8042	-3.2479	-2.8042	-130.191	-100.012	-104.289	201.424	-2.850	116.149	115.074	189.240	-13.597	-24.155	123.387	201.366	-57.550	90.623	43.493	-59.309	0.00036058	0.00047855	0.00016017	1387	3.8995e-06	2.4334e-06	1380	372.67	5.7631e-06	6.6575e-06	424.54	140.68	121.73	42.628	2.4428e-06	52.106	0.00058741	0.00059546	0.00016472	1397.4	6.4876e-06	6.5629e-06	1394.4	377.95	6.5101e-06	6.4737e-06	431.34	144.75	125.84	43.504	6.4009e-06	53.617	-146.694	-70.088	-90.497	-133.564	11.485	14.545	-133.902	-129.365	-41.323	-43.110	-129.600	-125.590	-125.849	-120.172	-52.330	-120.741	-8191	255	
11290.843	1	1	0	0	0.072343	0.10523	0.1655	0.26622	0.19341	0.26894	0.32394	0.14311	0.14408	0.31811	0.12615	0.28124	0.25305	0.27774	0.2146	0.21668	-2.4437	-3.1229	-2.6188	-3.2771	-3.1542	-2.4562	-3.4229	-3.0708	-2.7271	-3.1292	-2.4458	-3.0687	-3.125	-2.7188	-3.1958	-2.9208	188.317	-63.479	55.526	180.534	137.931	177.630	145.255	181.053	-57.689	66.603	124.559	173.618	143.598	153.530	78.623	151.090	0.0003323	0.00048644	4.5355e-05	1386.8	6.1707e-06	2.648e-06	1372.3	372.48	2.1021e-06	9.5679e-06	424.41	140.93	121.73	42.446	3.4291e-06	52.219	0.00059154	0.00059753	0.00016726	1396.4	6.57e-06	6.5485e-06	1393.5	377.88	6.6433e-06	6.6063e-06	430.89	144.75	125.76	43.452	6.5259e-06	53.719	-146.695	-135.594	35.313	-133.491	-0.412	12.112	-133.672	-129.293	20.446	13.017	-129.628	-125.429	-125.565	-120.201	-25.653	-121.030	-8191	255	
11290.940	1	1	0	0	0.078312	0.20639	0.17776	0.27418	0.077079	0.13298	0.2675	0.17019	0.1052	0.19418	0.19468	0.019262	0.083664	0.13718	0.27358	0.22704	-2.2604	-3.2042	-2.5208	-3.1063	-3.1667	-2.5271	-3.4021	-3.0458	-2.6083	-3.3646	-2.7917	-3.0646	-3.1937	-2.6063	-3.3729	-3.0187	115.357	-25.726	163.798	145.939	169.553	183.511	100.542	151.847	-49.070	60.032	199.061	96.416	70.705	-73.798	-77.634	88.741	0.00034712	0.00029721	0.00018959	1385.3	3.3597e-06	1.2493e-06	1374.3	371.27	6.742e-06	5.5001e-06	423.49	140.7	122.2	42.579	6.0664e-06	52.557	0.00059411	0.00059404	0.00016624	1397.6	6.5178e-06	6.5237e-06	1394.1	377.76	6.5207e-06	6.512e-06	430.57	144.57	126.06	43.469	6.4688e-06	53.769	-137.920	-39.959	-125.346	-133.531	-31.749	-128.669	-133.734	-129.232	-19.378	-20.531	-129.600	-125.692	-125.182	-120.245	-84.497	-120.844	-8191	255	
11291.036	1	1	0	0	0.19901	0.097065	0.23721	0.28091	0.15379	0.062522	0.16683	0.1044	0.1653	0.24258	0.068746	0.16825	0.33295	0.22225	0.2306	0.33633	-2.2333	-3.1333	-2.6167	-3.0292	-3.2583	-2.6875	-3.1875	-3.0896	-2.5812	-3.2687	-2.8833	-2.8917	-3.4521	-2.8333	-3.0708	-3.1813	-100.890	-34.963	172.697	95.746	200.892	32.157	160.647	-142.656	153.936	-119.618	108.764	109.466	137.973	129.890	20.617	-139.736	0.00035189	0.00057543	0.00023838	1385.6	1.1948e-06	2.0659e-06	1374	371.84	5.3269e-06	3.2531e-06	424.32	141.49	122.39	42.424	8.9218e-06	52.265	0.00058974	0.00059578	0.00016546	1395.6	6.5068e-06	6.5366e-06	1392.7	377.95	6.5248e-06	6.5087e-06	430.66	144.74	126.22	43.452	6.4693e-06	53.739	210.712	-12.371	-53.396	-133.604	-127.862	-108.981	-133.775	-129.002	-32.749	-23.391	-129.707	-125.597	-125.330	-120.008	-10.645	-121.024	-8191	255	
#DATA ENDS
