BOXY.EXE: ISS Imagent and Oximeter Data Acquisition Program Version 0.80
Ascii Record File

#ACQ INFORMATION
2  Detector Channels 
16  External MUX Channels 
1  Auxiliary Channels 
5000  Waveform (CCF) Frequency (Hz)
1  Waveforms Skipped 
30  Waveforms Averaged 
1  Cycles Averaged 
16  Acquisitions per Waveform 
10.0806  Updata Rate (Hz) 

#FILE INFORMATION
TRUE -- External MUX Channel results are PARSED.
FALSE -- AC DC and Phase are NOT grouped.
TRUE -- Companion Program Settings File CREATED.
FALSE -- AC data not excluded
FALSE -- DC data not excluded
FALSE -- Phase data not excluded
FALSE -- Auxillary Chn. data not excluded
Tab delimiters

#CALIBRATION STATE
TRUE -- Waveform Calibration Values APPLIED.


#AUX CALIBRATION VALUES
Val Type	aux-1	

Term	1.0000e+00	
Factor	0.0000e+00	


#WF CALIBRATION VALUES
A = Detector Channel
Val Type	A-AC1	A-AC2	A-AC3	A-AC4	A-AC5	A-AC6	A-AC7	A-AC8	A-AC9	A-AC10	A-AC11	A-AC12	A-AC13	A-AC14	A-AC15	A-AC16	A-DC1	A-DC2	A-DC3	A-DC4	A-DC5	A-DC6	A-DC7	A-DC8	A-DC9	A-DC10	A-DC11	A-DC12	A-DC13	A-DC14	A-DC15	A-DC16	A-Ph1	A-Ph2	A-Ph3	A-Ph4	A-Ph5	A-Ph6	A-Ph7	A-Ph8	A-Ph9	A-Ph10	A-Ph11	A-Ph12	A-Ph13	A-Ph14	A-Ph15	A-Ph16	

Term	0.00000e+00	0.00000e+00	0.00000e+00	0.00000e+00	0.00000e+00	0.00000e+00	0.00000e+00	0.00000e+00	0.00000e+00	0.00000e+00	0.00000e+00	0.00000e+00	0.00000e+00	0.00000e+00	0.00000e+00	0.00000e+00	0.00000e+00	0.00000e+00	0.00000e+00	0.00000e+00	0.00000e+00	0.00000e+00	0.00000e+00	0.00000e+00	0.00000e+00	0.00000e+00	0.00000e+00	0.00000e+00	0.00000e+00	0.00000e+00	0.00000e+00	0.00000e+00	0.00000e+00	0.00000e+00	0.00000e+00	0.00000e+00	0.00000e+00	0.00000e+00	0.00000e+00	0.00000e+00	0.00000e+00	0.00000e+00	0.00000e+00	0.00000e+00	0.00000e+00	0.00000e+00	0.00000e+00	0.00000e+00	
Factor	1.00000e+00	1.00000e+00	1.00000e+00	1.00000e+00	1.00000e+00	1.00000e+00	1.00000e+00	1.00000e+00	1.00000e+00	1.00000e+00	1.00000e+00	1.00000e+00	1.00000e+00	1.00000e+00	1.00000e+00	1.00000e+00	1.00000e+00	1.00000e+00	1.00000e+00	1.00000e+00	1.00000e+00	1.00000e+00	1.00000e+00	1.00000e+00	1.00000e+00	1.00000e+00	1.00000e+00	1.00000e+00	1.00000e+00	1.00000e+00	1.00000e+00	1.00000e+00	X	X	X	X	X	X	X	X	X	X	X	X	X	X	X	X	

B = Detector Channel
Val Type	B-AC1	B-AC2	B-AC3	B-AC4	B-AC5	B-AC6	B-AC7	B-AC8	B-AC9	B-AC10	B-AC11	B-AC12	B-AC13	B-AC14	B-AC15	B-AC16	B-DC1	B-DC2	B-DC3	B-DC4	B-DC5	B-DC6	B-DC7	B-DC8	B-DC9	B-DC10	B-DC11	B-DC12	B-DC13	B-DC14	B-DC15	B-DC16	B-Ph1	B-Ph2	B-Ph3	B-Ph4	B-Ph5	B-Ph6	B-Ph7	B-Ph8	B-Ph9	B-Ph10	B-Ph11	B-Ph12	B-Ph13	B-Ph14	B-Ph15	B-Ph16	

Term	0.00000e+00	0.00000e+00	0.00000e+00	0.00000e+00	0.00000e+00	0.00000e+00	0.00000e+00	0.00000e+00	0.00000e+00	0.00000e+00	0.00000e+00	0.00000e+00	0.00000e+00	0.00000e+00	0.00000e+00	0.00000e+00	0.00000e+00	0.00000e+00	0.00000e+00	0.00000e+00	0.00000e+00	0.00000e+00	0.00000e+00	0.00000e+00	0.00000e+00	0.00000e+00	0.00000e+00	0.00000e+00	0.00000e+00	0.00000e+00	0.00000e+00	0.00000e+00	-2.07275e+01	-1.32847e+02	-1.52787e+02	-1.83875e+02	-6.77554e+01	-5.54330e+01	-1.56919e+02	-1.62015e+02	-3.22664e+01	-7.99954e+01	-1.74562e+02	-1.70840e+02	-1.80437e+02	-1.77427e+02	-6.96928e+01	-1.50391e+02	
Factor	2.96057e-05	1.28999e-04	4.41538e-05	1.97066e-01	1.45415e-06	1.07368e-06	1.67062e-01	5.22067e-02	1.19540e-06	1.26644e-06	1.23098e-01	2.98311e-02	3.04790e-02	9.88491e-03	1.28029e-06	1.43348e-02	1.34528e-06	1.40145e-06	3.88201e-07	9.80757e-02	1.52263e-08	1.53501e-08	7.86761e-02	2.62170e-02	1.51695e-08	1.52930e-08	5.81304e-02	1.43474e-02	1.50814e-02	4.92209e-03	1.51770e-08	6.84804e-03	X	X	X	X	X	X	X	X	X	X	X	X	X	X	X	X	



#DISTANCE SETTINGS
A = Detector Channel
A-1	A-2	A-3	A-4	A-5	A-6	A-7	A-8	A-9	A-10	A-11	A-12	A-13	A-14	A-15	A-16	

2.5000e+00	3.0000e+00	2.5000e+00	3.0000e+00	2.0000e+00	3.0000e+00	1.5000e+00	3.0000e+00	3.0000e+00	3.0000e+00	3.0000e+00	3.0000e+00	3.0000e+00	3.0000e+00	1.5000e+00	3.0000e+00	

B = Detector Channel
B-1	B-2	B-3	B-4	B-5	B-6	B-7	B-8	B-9	B-10	B-11	B-12	B-13	B-14	B-15	B-16	

1.0000e+01	1.0000e+01	1.0000e+01	1.4400e+00	1.0000e+01	1.0000e+01	1.5100e+00	1.9400e+00	1.0000e+01	1.0000e+01	1.9900e+00	2.4900e+00	2.4100e+00	2.9000e+00	1.0000e+01	2.9800e+00	




#DATA BEGINS
time	group	step	mark	flag	A-AC1	A-AC2	A-AC3	A-AC4	A-AC5	A-AC6	A-AC7	A-AC8	A-AC9	A-AC10	A-AC11	A-AC12	A-AC13	A-AC14	A-AC15	A-AC16	A-DC1	A-DC2	A-DC3	A-DC4	A-DC5	A-DC6	A-DC7	A-DC8	A-DC9	A-DC10	A-DC11	A-DC12	A-DC13	A-DC14	A-DC15	A-DC16	A-Ph1	A-Ph2	A-Ph3	A-Ph4	A-Ph5	A-Ph6	A-Ph7	A-Ph8	A-Ph9	A-Ph10	A-Ph11	A-Ph12	A-Ph13	A-Ph14	A-Ph15	A-Ph16	B-AC1	B-AC2	B-AC3	B-AC4	B-AC5	B-AC6	B-AC7	B-AC8	B-AC9	B-AC10	B-AC11	B-AC12	B-AC13	B-AC14	B-AC15	B-AC16	B-DC1	B-DC2	B-DC3	B-DC4	B-DC5	B-DC6	B-DC7	B-DC8	B-DC9	B-DC10	B-DC11	B-DC12	B-DC13	B-DC14	B-DC15	B-DC16	B-Ph1	B-Ph2	B-Ph3	B-Ph4	B-Ph5	B-Ph6	B-Ph7	B-Ph8	B-Ph9	B-Ph10	B-Ph11	B-Ph12	B-Ph13	B-Ph14	B-Ph15	B-Ph16	aux-1	digaux	

2163.863	1	1	0	768	0.15136	0.17012	0.19595	0.13408	0.18901	0.20729	0.091645	0.12645	0.22139	0.073643	0.057168	0.35047	0.35037	0.101	0.16272	0.09991	-3.0917	-2.6312	-3.2854	-3.3208	-2.5875	-3.6958	-3.1604	-2.7687	-3.4813	-2.8167	-3.1542	-3.5104	-2.6729	-3.4437	-2.9708	-3.0292	85.758	16.970	152.017	-5.279	65.586	-15.680	122.985	93.091	202.399	146.074	131.500	179.970	-69.318	-105.299	65.712	175.263	0.00049086	0.0004264	0.00010384	558.57	9.8181e-06	5.9282e-06	875.78	168.56	5.6809e-06	7.5684e-06	317.54	112.59	54.267	19.749	5.989e-06	44.885	0.00033572	0.00037193	0.00010562	508.27	3.5603e-06	4.0511e-06	785.79	153.87	3.5379e-06	4.102e-06	285.25	101.19	50.1	18.33	4.0268e-06	40.306	-52.442	-18.966	206.355	-113.187	61.894	-2.825	-113.502	-107.671	109.541	-72.276	-108.846	-103.925	-103.905	-97.836	-25.349	-100.631	-8191	255	
2163.959	1	1	0	0	0.18812	0.049806	0.10447	0.059457	0.23273	0.090631	0.21321	0.064901	0.105	0.21052	0.14094	0.14905	0.09258	0.17776	0.18182	0.20007	-3.2313	-2.8271	-3.0292	-3.3104	-2.7271	-3.3042	-3.3979	-2.6896	-3.3667	-2.9792	-3.0958	-3.6667	-2.7958	-3.3854	-3.1979	-2.7104	7.026	-31.549	4.938	177.850	199.940	62.966	97.334	6.391	-125.260	131.497	170.953	13.525	212.387	172.945	147.338	-107.803	0.00029465	0.00047471	0.00016818	552.58	8.9752e-06	3.4899e-06	859.99	165.95	6.9134e-07	5.4989e-06	313.15	110.49	53.182	19.299	3.4971e-06	44.717	0.00033718	0.00038678	0.00010077	502.34	3.6171e-06	4.2753e-06	772.07	150.36	3.7366e-06	4.2508e-06	279.76	99.314	49.346	18.084	4.0291e-06	39.871	-62.759	-45.269	-21.279	-112.877	-48.561	66.640	-113.539	-107.616	-3.685	-35.412	-108.402	-104.595	-102.784	-97.221	52.310	-100.385	-8191	255	
2164.055	1	1	0	0	0.02957	0.0661	0.13551	0.090695	0.16136	0.10685	0.1069	0.2095	0.1626	0.040267	0.10243	0.25081	0.047716	0.098655	0.20621	0.12769	-3.0604	-3.025	-2.8229	-3.4146	-2.7167	-3.3708	-3.3167	-2.7562	-3.3854	-2.9125	-2.7646	-3.6021	-2.6771	-3.0312	-3.5167	-2.8979	17.955	-38.904	215.459	232.225	22.769	-20.310	129.788	-107.382	184.286	7.760	28.464	86.778	149.280	-1.615	231.349	-68.866	0.00039104	0.00048342	0.00018902	546.87	2.3238e-06	5.7559e-06	863.34	165.59	5.6681e-06	5.325e-06	311.32	110.35	52.907	19.37	1.1361e-06	44.319	0.00035656	0.00038239	9.7931e-05	497.33	3.7541e-06	4.0749e-06	770.08	150.34	3.7883e-06	4.0152e-06	278.02	98.388	49.208	17.774	3.727e-06	39.492	-46.785	19.156	-112.403	-112.703	30.672	143.513	-113.263	-107.247	-42.177	40.295	-109.498	-104.494	-103.158	-97.397	-82.233	-100.559	-8191	255	
2164.151	1	1	0	0	0.20163	0.18584	0.07509	0.18942	0.10957	0.23078	0.25717	0.22144	0.12301	0.12878	0.23898	0.072346	0.37818	0.11082	0.18424	0.07459	-3.1125	-2.9646	-2.725	-3.5438	-2.7438	-3.1396	-3.4313	-2.7625	-3.2729	-3.1667	-2.8187	-3.7292	-2.9083	-2.9917	-3.5521	-2.5854	-100.981	116.987	81.474	-12.597	126.120	18.346	-123.634	184.557	0.558	86.493	213.585	181.611	216.909	157.824	-38.241	232.066	0.00028548	0.00038081	0.00024756	549.83	5.1803e-06	2.56e-06	850.17	165.25	4.9505e-06	2.8436e-06	308.95	109.44	52.302	19.21	5.9837e-06	44.16	0.00036191	0.00036765	9.1045e-05	497.54	3.9544e-06	3.8798e-06	766.73	149.3	3.8593e-06	3.8975e-06	274.85	97.997	48.941	17.745	3.4493e-06	39.499	-35.247	-49.604	-69.632	-113.200	-58.923	47.051	-113.331	-107.035	-32.470	28.779	-109.017	-103.983	-102.785	-97.317	79.574	-99.981	-8191	255	
2164.247	1	1	0	0	0.086026	0.15581	0.16421	0.19212	0.21087	0.12843	0.026156	0.2189	0.2023	0.14233	0.094977	0.26139	0.27989	0.35147	0.13142	0.066029	-2.9958	-3.2	-2.7021	-3.5292	-2.7417	-2.9333	-3.6375	-2.65	-3.3458	-3.3021	-2.7229	-3.5583	-2.8333	-2.8583	-3.6292	-2.8833	167.234	95.552	197.793	216.490	-112.925	19.693	-29.945	-105.867	202.212	176.852	146.858	198.304	141.454	196.301	-42.895	136.489	0.00038837	0.00065335	0.00021824	552.18	6.4164e-06	6.52e-06	855.65	165.86	1.4772e-06	6.777e-06	308.85	110	52.967	19.457	4.3851e-06	44.856	0.00035572	0.00033879	8.542e-05	498.74	3.951e-06	3.6272e-06	765	150.52	3.883e-06	3.7037e-06	275.02	98.338	49.292	17.902	3.3076e-06	39.876	-46.225	-42.757	-123.613	-112.920	-33.671	84.507	-113.714	-107.572	181.996	-11.549	-109.028	-104.892	-102.465	-97.447	34.512	-100.523	-8191	255	
2164.344	1	1	0	0	0.27872	0.17974	0.068177	0.055611	0.34036	0.089544	0.16836	0.099571	0.08652	0.13547	0.095445	0.20779	0.25568	0.21823	0.15426	0.050295	-2.8187	-3.4292	-2.6646	-3.6125	-3.0854	-2.9792	-3.5625	-2.8042	-3.2042	-3.2917	-2.6813	-3.55	-3.0917	-2.9208	-3.425	-2.8875	21.739	-29.815	111.042	52.589	-72.636	65.081	-93.141	193.245	230.389	186.419	-100.042	106.512	-37.079	-123.121	-10.229	31.522	0.00030299	0.00055053	0.00011531	547.46	2.9394e-06	1.16e-05	856.79	165.66	5.2064e-06	4.0531e-06	309.29	109.36	52.869	19.287	1.5959e-06	44.479	0.00035859	0.00033719	8.2097e-05	499.24	3.8994e-06	3.5861e-06	763.64	151.28	3.7997e-06	3.6247e-06	275.3	98.386	49.115	17.824	3.2641e-06	39.931	-68.106	-42.959	-91.932	-112.879	136.759	16.121	-113.228	-107.197	155.159	-22.862	-108.796	-103.874	-102.531	-97.217	26.851	-99.856	-8191	255	
2164.462	1	1	0	0	0.11908	0.1826	0.097559	0.25059	0.12642	0.19922	0.24117	0.056861	0.22914	0.24901	0.081021	0.077815	0.16613	0.25619	0.20459	0.021764	-2.6917	-3.4938	-2.5917	-3.3604	-3.1813	-2.6562	-3.6458	-2.9917	-3.0667	-3.4521	-2.7646	-3.4896	-3.1063	-2.7646	-3.5583	-2.9354	-39.675	41.338	-106.402	207.257	36.879	140.481	183.122	128.224	12.415	-77.534	153.740	-94.138	-76.635	185.766	-67.173	172.027	0.00027721	0.00064102	0.00017212	550.63	2.6015e-06	8.0654e-06	860.25	165.55	6.1224e-06	4.8904e-06	310.7	110.25	52.97	19.289	1.7009e-06	44.957	0.00034322	0.00031572	8.3031e-05	502.5	3.7383e-06	3.4314e-06	764.81	151	3.5551e-06	3.3232e-06	274.3	98.362	48.836	17.649	3.3332e-06	40.141	-55.601	-6.943	232.373	-112.852	225.402	-1.313	-113.270	-107.923	-4.615	50.778	-108.884	-104.299	-103.353	-98.030	-90.465	-100.063	-8191	255	
2164.559	1	1	0	0	0.22031	0.37873	0.038465	0.21819	0.21759	0.052138	0.19961	0.076187	0.052681	0.11386	0.081524	0.11456	0.15258	0.14631	0.16507	0.26157	-2.4938	-3.4125	-2.6271	-3.1292	-3.2521	-2.7687	-3.6646	-2.9875	-2.8937	-3.5292	-2.7438	-3.2646	-3.3187	-2.5625	-3.6312	-3.1333	-63.035	71.579	204.642	193.923	145.096	117.734	99.536	218.216	167.968	148.097	167.525	-38.634	197.453	107.013	4.305	222.221	0.00030751	0.00032504	0.00020431	555.78	4.1291e-06	3.5939e-06	863.85	167.7	4.8505e-06	5.4499e-06	311.15	109.36	52.944	19.362	1.646e-06	44.214	0.00031896	0.00029746	8.4708e-05	504.43	3.4788e-06	3.1253e-06	770.55	152.37	3.4734e-06	3.1907e-06	276.87	98.111	48.737	17.545	3.422e-06	39.427	-17.911	100.760	-79.395	-112.885	26.533	40.318	-113.192	-107.441	53.184	31.270	-109.008	-104.157	-103.262	-97.636	211.445	-100.327	-8191	255	
2164.655	1	1	0	0	0.11908	0.18288	0.036448	0.17942	0.17929	0.29787	0.082999	0.053972	0.10108	0.12428	0.080271	0.20989	0.075266	0.28717	0.072488	0.15315	-2.4667	-3.5583	-2.7604	-3.0875	-3.3125	-2.5521	-3.6646	-3.2042	-2.6042	-3.4667	-2.8563	-3.2271	-3.2625	-2.7104	-3.4271	-3.0083	201.420	36.134	116.042	229.099	-105.689	-50.934	180.537	-103.910	-74.001	-115.758	169.493	195.764	125.510	117.149	92.486	-65.891	0.00018261	0.00068047	0.00015655	552.46	8.4849e-06	7.9108e-07	852.24	166.37	1.598e-06	2.8761e-06	307.49	107.55	51.948	18.872	1.0769e-05	43.666	0.00030896	0.00028227	8.8549e-05	500.9	3.3265e-06	2.9853e-06	762.96	151.07	3.2679e-06	3.1368e-06	273.77	96.403	47.979	17.301	3.6292e-06	39.048	-53.847	-55.366	-90.981	-112.732	37.358	-32.670	-113.240	-107.468	204.610	-1.471	-108.988	-104.299	-102.845	-97.912	-70.554	-100.195	-8191	255	
2164.751	1	1	0	0	0.20808	0.20768	0.10026	0.13762	0.14603	0.16108	0.16008	0.090926	0.21187	0.087984	0.16149	0.028633	0.10154	0.16635	0.044619	0.22182	-2.3104	-3.6375	-2.8812	-3.1625	-3.7479	-2.8042	-3.4708	-3.1104	-2.7	-3.6312	-2.925	-3.1271	-3.5708	-2.8896	-3.3438	-3.2917	65.024	24.781	8.787	69.264	189.805	46.885	191.152	131.721	-72.027	90.479	119.272	217.301	26.764	132.546	175.617	-37.306	0.00040524	0.00043478	0.00011136	544.67	3.7073e-06	3.6464e-06	845.58	165.11	5.5695e-06	3.1592e-06	305.62	105.53	51.651	18.631	1.2274e-06	43.276	0.00030142	0.000296	9.4485e-05	495.79	3.1918e-06	3.1615e-06	756.91	149.71	3.0482e-06	3.1885e-06	271.23	94.815	47.419	17.212	3.6134e-06	38.742	-37.989	205.848	147.656	-112.976	68.132	-30.009	-113.166	-107.118	38.173	131.412	-109.313	-103.851	-102.862	-96.895	-72.957	-100.836	-8191	255	
2164.847	1	1	0	0	0.099463	0.17396	0.18715	0.094309	0.087169	0.068861	0.049981	0.078261	0.20214	0.14233	0.32401	0.12683	0.2191	0.19347	0.11845	0.102	-2.2229	-3.4646	-3.0021	-2.8604	-3.55	-2.85	-3.2812	-3.4917	-2.7292	-3.5417	-3.0646	-2.8625	-3.6333	-3.0208	-3.2083	-3.3667	96.460	102.080	1.734	-116.371	-88.570	118.531	-118.863	9.070	167.917	-19.580	186.881	-69.399	-7.660	-119.535	-114.355	92.150	0.00023524	0.00042615	2.6191e-05	544.75	3.0065e-06	4.776e-06	844.42	164.6	5.0679e-07	8.8072e-06	303.09	105.89	51.405	18.307	4.9665e-06	42.928	0.00028786	0.0003138	9.4672e-05	494.62	3.187e-06	3.4908e-06	755.16	149.12	3.1205e-06	3.554e-06	269.48	94.924	47.093	17.125	3.5343e-06	38.415	-64.629	-120.216	-81.641	-112.038	-76.300	82.880	-113.240	-107.160	-80.474	23.473	-108.697	-103.668	-102.917	-97.552	-33.290	-99.741	-8191	255	
2164.943	1	1	0	0	0.2105	0.1264	0.1637	0.25921	0.085516	0.12586	0.22136	0.15294	0.1241	0.13728	0.022246	0.050876	0.095192	0.039603	0.099577	0.18385	-2.2729	-3.3958	-2.8604	-2.7146	-3.4292	-2.8875	-3.0729	-3.5333	-2.6	-3.3563	-3.0729	-2.7313	-3.4396	-2.8021	-3.0938	-3.4125	60.517	49.771	48.978	-107.123	94.693	142.107	-114.147	87.855	149.331	161.192	-10.330	113.606	-81.122	148.313	-87.003	189.689	0.00023204	0.00035801	4.3413e-05	540.76	2.4702e-06	2.7873e-06	845.31	164.7	2.1916e-06	5.2853e-06	301.54	106.83	51.736	18.639	5.3968e-06	43.155	0.0002818	0.00033713	9.053e-05	490.36	3.2165e-06	3.7444e-06	755.22	148.95	3.0713e-06	3.8038e-06	270.44	95.405	47.67	17.373	3.4917e-06	38.599	-60.412	-81.505	-11.387	-113.301	134.677	1.030	-113.601	-107.658	-36.363	36.986	-109.581	-104.398	-103.871	-97.703	30.930	-100.666	-8191	255	
2165.064	1	1	0	0	0.073798	0.064306	0.092473	0.22009	0.34006	0.060951	0.036147	0.067453	0.10567	0.14361	0.31857	0.15769	0.20363	0.20806	0.080254	0.17305	-2.2854	-3.3979	-3.125	-2.8083	-3.5646	-3.0021	-3.1125	-3.4208	-2.8042	-3.4521	-3.2896	-2.725	-3.4521	-2.9125	-3.1354	-3.6354	108.356	157.457	95.496	214.353	-30.860	139.061	99.433	-15.845	143.946	-101.445	-95.955	-52.429	72.617	135.824	4.847	148.382	0.00044156	0.00051635	0.00014649	541.76	4.2744e-06	9.0744e-06	839.49	165.5	7.128e-06	5.3245e-06	300.3	107.17	52.135	19.109	4.2433e-06	43.496	0.00029359	0.00034051	8.9172e-05	487.76	3.3895e-06	3.7498e-06	752.08	148.79	3.2992e-06	3.7587e-06	269.59	95.382	48.046	17.595	3.418e-06	38.644	-57.647	227.270	-57.563	-112.984	11.475	13.141	-113.242	-107.440	-102.173	34.383	-108.910	-104.344	-103.006	-97.649	29.933	-100.455	-8191	255	
2165.160	1	1	0	0	0.076744	0.18887	0.11832	0.14239	0.14713	0.12721	0.32758	0.23881	0.35757	0.21877	0.10438	0.079059	0.084788	0.12447	0.28893	0.1394	-2.2271	-3.1958	-3.4333	-2.7354	-3.6625	-3.1458	-3.0271	-3.4667	-2.7833	-3.0958	-3.3625	-2.7271	-3.4229	-3.1083	-2.8854	-3.4854	43.098	120.689	48.852	170.684	83.899	222.759	147.995	-41.168	21.747	-54.994	-51.342	110.856	135.339	-27.080	-122.679	124.071	0.00032147	0.00056996	0.00012897	540.18	3.426e-06	1.8311e-06	839.81	164.87	5.2841e-06	2.8816e-06	301.12	106.85	51.791	19.153	2.2416e-06	43.557	0.00031969	0.00033927	8.8173e-05	486.95	3.5954e-06	3.7045e-06	750.07	148.84	3.5463e-06	3.6099e-06	269.8	95.118	48.138	17.607	3.3272e-06	38.853	-64.739	-27.564	-96.835	-112.347	-98.203	64.226	-113.484	-107.854	117.311	-26.624	-108.826	-103.609	-102.331	-97.488	-66.131	-100.305	-8191	255	
2165.256	1	1	0	0	0.024379	0.14953	0.074517	0.16646	0.11235	0.13799	0.16061	0.13534	0.21069	0.066287	0.18157	0.053842	0.095698	0.21595	0.33033	0.074364	-2.4146	-3.0708	-3.1229	-2.7583	-3.4229	-3.0521	-2.9583	-3.5417	-2.8167	-3.2062	-3.5042	-2.7896	-3.4354	-3.2625	-2.65	-3.5958	176.449	116.868	-121.019	-14.684	-95.447	27.136	139.320	126.213	26.762	175.794	88.178	-89.534	116.535	183.731	11.349	44.098	0.00035543	0.00016117	0.00019177	535.53	2.2878e-06	5.3326e-06	836.1	163.22	6.4074e-06	4.3554e-06	302.2	106.67	50.783	18.883	4.7289e-06	43.951	0.00034341	0.0003349	8.685e-05	486.11	3.7992e-06	3.6694e-06	749.12	148.26	3.7727e-06	3.52e-06	269.51	95.276	47.949	17.473	3.1122e-06	39.022	-38.814	178.927	-38.552	-112.959	123.025	41.683	-113.155	-107.600	53.998	24.406	-108.809	-103.891	-103.007	-97.385	134.834	-100.046	-8191	255	
2165.350	1	1	0	0	0.28968	0.3289	0.0764	0.13309	0.10614	0.22418	0.23374	0.22364	0.19646	0.15291	0.36431	0.036964	0.19361	0.20382	0.11755	0.11873	-2.4875	-2.9229	-3.6771	-2.6875	-3.3646	-3.3708	-2.7625	-3.4833	-2.9417	-2.7375	-3.4792	-2.8063	-3.0917	-3.3625	-2.7208	-3.4729	-45.443	-114.445	84.996	-96.290	-14.822	220.140	197.861	167.761	88.723	114.735	5.005	165.562	-6.326	-89.287	-49.120	164.209	0.00041398	0.00035561	0.00022085	542.63	4.4449e-06	4.8752e-06	842.67	163.9	1.2342e-05	1.4447e-05	301.27	106.53	51.516	18.965	1.1725e-06	43.601	0.00034238	0.00032389	8.1634e-05	491.56	3.8166e-06	3.623e-06	751.78	149.26	3.7693e-06	3.4159e-06	267.94	95.486	47.966	17.554	3.0294e-06	38.935	-61.352	6.686	-109.158	-112.601	52.632	20.684	-113.637	-108.112	1.381	19.022	-108.926	-104.422	-102.536	-97.995	122.695	-100.639	-8191	255	
2165.424	1	1	0	0	0.21222	0.3019	0.22222	0.28011	0.017442	0.20213	0.32643	0.25982	0.16359	0.2509	0.13442	0.22765	0.25627	0.16553	0.30058	0.41964	-2.6562	-2.6542	-3.4604	-2.8396	-3.05	-3.3583	-2.7771	-3.4875	-3.0521	-2.7479	-3.6271	-2.7188	-3.025	-3.4	-2.5646	-3.5062	159.710	-22.042	217.859	202.506	-39.948	-107.486	-100.580	-89.667	215.688	36.347	163.232	224.139	220.161	-45.777	21.109	212.070	0.00028269	0.00023652	0.0001247	540.02	3.6582e-06	6.7321e-06	840.91	164.89	7.4648e-06	5.6536e-06	299.91	106.44	51.113	19.081	3.5633e-06	43.479	0.00033744	0.00031671	8.1544e-05	492.05	3.692e-06	3.4695e-06	750.97	149.62	3.8046e-06	3.4264e-06	267.94	95.289	47.714	17.439	3.2349e-06	38.844	-35.439	55.930	146.604	-113.249	-5.205	82.705	-113.756	-107.537	-45.015	44.469	-109.189	-103.742	-102.656	-97.241	124.703	-100.375	-8191	255	
2165.543	1	1	0	0	0.17348	0.12227	0.031729	0.18819	0.048133	0.22301	0.059914	0.11636	0.1697	0.043693	0.30732	0.18904	0.22808	0.24159	0.069944	0.19937	-2.7458	-2.7188	-3.4792	-3.0125	-3.0833	-3.5125	-2.7687	-3.4729	-3.0979	-2.6917	-3.5458	-2.9688	-2.8396	-3.4354	-2.6542	-3.3563	-45.146	109.302	160.461	191.799	25.410	93.593	151.679	177.157	152.235	80.176	149.425	62.588	-34.137	95.134	68.157	-77.034	0.00032851	0.00058735	4.7542e-05	538.41	9.5674e-06	4.1614e-06	844.2	164.63	2.5012e-06	3.8751e-06	304.62	108.3	52.307	19.085	3.8374e-06	44.651	0.00032908	0.00029357	7.994e-05	489.34	3.3128e-06	3.0705e-06	751.96	149.84	3.1499e-06	2.896e-06	269.31	96.311	47.863	17.53	3.0167e-06	39.655	-46.077	104.848	-108.364	-113.174	5.616	-23.850	-113.669	-107.349	154.939	-64.047	-109.450	-103.855	-102.651	-97.516	135.706	-100.464	-8191	255	
2165.639	1	1	0	0	0.11635	0.17825	0.1353	0.068064	0.24033	0.076786	0.1491	0.15968	0.097512	0.11712	0.18914	0.074293	0.2317	0.10054	0.054541	0.046728	-2.8479	-2.4875	-3.5146	-3.0146	-2.9083	-3.5521	-2.7625	-3.2833	-3.3667	-2.5333	-3.4062	-3.0833	-2.7562	-3.5229	-2.7667	-3.1396	35.159	226.063	-56.526	-98.838	23.815	106.596	208.743	188.724	-29.477	56.345	200.417	-95.936	201.908	-71.397	49.060	36.452	0.0002562	0.0002194	0.00024427	539.92	7.5981e-06	7.3747e-07	855.67	168.42	2.2522e-06	3.7658e-06	310.35	111.15	53.603	20.01	5.1515e-06	45.605	0.00028711	0.0002577	8.1225e-05	491.86	3.0139e-06	2.8528e-06	760.39	153.1	3.1865e-06	2.707e-06	277.43	98.772	49.163	18.146	3.1494e-06	40.529	-57.348	-53.605	-104.261	-113.000	41.207	-1.692	-113.375	-107.188	66.906	52.469	-108.586	-104.308	-102.428	-97.314	-33.212	-100.703	-8191	255	
2165.735	1	1	0	0	0.13918	0.038704	0.18912	0.1658	0.17105	0.10462	0.36109	0.14007	0.15406	0.32247	0.0085351	0.042392	0.2125	0.16243	0.20172	0.13648	-3.0292	-2.725	-3.3708	-3.0812	-2.7125	-3.4062	-2.7354	-3.0604	-3.3937	-2.7083	-3.4729	-3.1583	-2.8375	-3.6188	-2.7104	-2.8937	222.703	-41.767	103.135	165.737	26.723	48.762	157.899	178.817	180.231	-90.718	-34.278	181.372	10.680	5.513	-35.541	-3.865	0.00040252	0.00025938	0.00024309	552.05	1.1829e-05	2.658e-06	850.86	169.8	7.8045e-06	4.5378e-06	312.58	111.93	54.106	20.334	5.9102e-06	45.564	0.00027669	0.00025052	8.213e-05	496.13	2.7916e-06	2.8308e-06	760.53	153.8	2.891e-06	2.7341e-06	279.02	99.566	49.337	18.354	3.1725e-06	40.445	-56.711	39.655	-35.849	-112.956	61.284	-21.127	-113.411	-107.203	-18.301	121.982	-108.705	-104.231	-102.876	-97.204	-8.164	-99.926	-8191	255	
2165.856	1	1	0	0	0.10775	0.068372	0.13755	0.14057	0.15873	0.1138	0.13219	0.14537	0.10506	0.31947	0.084461	0.10572	0.2669	0.1027	0.20899	0.1426	-3.0687	-2.6542	-3.2958	-3.2375	-2.7125	-3.5104	-3.0021	-2.9125	-3.4771	-2.6375	-3.175	-3.3875	-2.5687	-3.4667	-3.0333	-2.8458	-67.959	154.807	216.356	208.909	-6.520	115.620	194.891	151.656	160.441	101.453	155.731	228.425	-115.757	95.273	0.596	149.027	0.00039537	0.00047572	9.5571e-05	546.81	1.2153e-05	2.4377e-06	856.99	169.97	5.3504e-06	5.8051e-06	316.15	111.85	54.531	20.13	4.0985e-06	46.267	0.0002584	0.00025619	7.8895e-05	494.09	2.6229e-06	2.8224e-06	761.87	153.22	2.6515e-06	2.9099e-06	278.72	98.993	49.27	18.42	3.1303e-06	40.837	-36.013	-80.827	-28.163	-112.211	22.096	86.283	-113.650	-107.120	84.068	30.416	-108.477	-104.275	-102.223	-97.372	81.071	-100.081	-8191	255	
2165.952	1	1	0	0	0.066386	0.18646	0.099205	0.10004	0.35744	0.16486	0.30854	0.19961	0.087607	0.12853	0.30623	0.14879	0.32724	0.18315	0.14282	0.27248	-2.9417	-2.4479	-3.2167	-3.2333	-2.5542	-3.2438	-3.0604	-2.8083	-3.5187	-2.7271	-3.0354	-3.4979	-2.6562	-3.5521	-2.9042	-2.75	153.641	-97.962	-95.019	-101.431	-26.196	-101.346	-116.110	217.127	-56.408	-106.598	192.609	-113.349	134.225	218.129	-107.179	148.267	0.00028487	0.00083811	0.00011317	550.19	4.9688e-06	6.0996e-06	857.72	171.94	5.449e-06	4.2562e-06	316.71	113.24	55.14	20.703	1.0362e-05	46.71	0.000244	0.00027284	7.7778e-05	495.84	2.6841e-06	3.166e-06	766.77	154.69	2.7047e-06	3.1472e-06	281.42	100.4	50.115	18.851	3.1089e-06	41.38	-37.532	-92.455	213.512	-113.381	-60.354	3.771	-113.632	-107.594	-9.310	7.715	-109.264	-104.469	-103.555	-97.460	-27.909	-100.586	-8191	255	
2166.024	1	1	0	0	0.040643	0.084096	0.13659	0.22451	0.13629	0.15619	0.20284	0.11598	0.10491	0.15795	0.11621	0.13502	0.10432	0.1887	0.28646	0.16392	-3.1208	-2.7583	-2.9604	-3.4042	-2.3792	-3.3708	-3.2375	-2.6125	-3.4771	-2.8312	-2.9583	-3.5146	-2.5563	-3.2375	-3.175	-2.6833	46.814	136.505	-27.689	184.259	11.767	-71.956	3.050	121.486	-100.828	44.074	-117.930	190.557	214.608	208.248	-33.746	142.640	0.00031319	0.00045747	0.00029981	557.52	4.1552e-06	6.6486e-07	863.2	173.42	5.1029e-06	9.5824e-06	320.93	114.91	55.714	21.153	4.5835e-06	46.797	0.00024828	0.0002978	7.7554e-05	497.9	2.7754e-06	3.2113e-06	771.26	155.92	2.7686e-06	3.3138e-06	283.35	101.86	50.732	19.129	3.0711e-06	41.612	-49.651	-4.774	-0.997	-112.931	-29.735	166.434	-113.631	-107.576	3.603	76.794	-108.579	-104.419	-103.190	-97.423	-110.514	-100.199	-8191	255	
2166.144	1	1	0	0	0.1771	0.13867	0.067676	0.043934	0.19751	0.13624	0.41313	0.19892	0.25965	0.23986	0.29539	0.031391	0.075073	0.2452	0.15809	0.2092	-3.0729	-3.0396	-2.8021	-3.5833	-2.5542	-3.0604	-3.5479	-2.6896	-3.475	-2.9604	-2.8729	-3.5021	-2.7229	-3.1708	-3.3083	-2.6729	137.637	151.972	23.885	-109.789	27.675	-66.463	203.904	30.449	-37.695	128.375	97.432	-5.368	132.219	203.183	3.347	-124.085	0.00023683	0.00016615	0.00026194	551.83	5.3612e-06	3.1145e-06	868.84	172.14	2.7498e-06	6.0603e-06	318.33	113.55	54.991	20.584	3.3029e-06	46.685	0.00027712	0.000306	7.6349e-05	496.25	3.0147e-06	3.2372e-06	770.07	155.52	3.013e-06	3.2273e-06	280.89	100.75	50.667	18.858	2.9541e-06	41.142	-47.497	76.990	-59.953	-112.791	55.014	36.943	-113.565	-107.551	-27.323	-72.757	-108.867	-104.272	-103.256	-97.245	18.126	-100.428	-8191	255	
2166.240	1	1	0	0	0.18126	0.28131	0.25344	0.044447	0.20939	0.34507	0.18357	0.26868	0.082386	0.12828	0.093516	0.11693	0.27678	0.17967	0.19101	0.10613	-2.9583	-2.8104	-2.6958	-3.7271	-2.6521	-3.1063	-3.5021	-2.6708	-3.3146	-2.9042	-2.8375	-3.6417	-2.775	-3.1771	-3.3688	-3.0021	-24.866	100.146	-114.656	20.079	43.845	119.064	-12.136	177.620	154.028	-67.214	28.163	210.932	152.016	-87.694	-67.712	-67.108	0.00043829	0.00047356	0.00018992	551.93	4.8518e-06	7.0877e-06	859.35	172.18	3.2341e-06	3.8463e-06	316.97	112.6	55.295	20.837	4.9691e-06	46.719	0.00027999	0.00029084	7.3077e-05	493.17	3.1545e-06	3.1081e-06	764.68	154.67	3.148e-06	3.0954e-06	278.99	100.2	50.66	18.85	2.7688e-06	41.213	-50.127	-77.582	-40.348	-112.932	25.878	43.769	-113.886	-107.628	169.463	99.995	-108.951	-104.104	-103.375	-97.840	-18.458	-100.345	-8191	255	
2166.335	1	1	0	0	0.35152	0.27848	0.30612	0.1373	0.15871	0.20652	0.04062	0.25112	0.18672	0.1114	0.23576	0.20304	0.03863	0.075157	0.058965	0.21824	-2.9208	-2.9792	-2.6229	-3.5292	-2.9167	-3.0938	-3.5	-2.7771	-3.2542	-3.4479	-2.7062	-3.5917	-2.9062	-3.0833	-3.5333	-2.925	35.541	206.038	36.014	-53.018	-37.348	188.560	6.274	160.471	-47.619	222.772	191.097	-110.302	0.102	182.063	-36.343	187.660	0.00038661	0.00020296	0.00010007	555.22	7.3251e-06	1.0378e-06	862.13	172.81	2.754e-07	6.5969e-06	320.15	114.86	55.902	20.799	7.5018e-06	47.278	0.00028747	0.00027473	6.7618e-05	495.15	3.1284e-06	2.8798e-06	766.26	155.4	3.0937e-06	2.9039e-06	281.44	101.54	51.034	18.988	2.6209e-06	41.735	-39.794	160.747	181.170	-112.692	54.654	137.158	-113.435	-107.385	51.431	-38.613	-108.775	-104.183	-102.817	-97.423	1.045	-100.431	-8191	255	
2166.455	1	1	0	0	0.12008	0.15689	0.10861	0.059093	0.24313	0.068527	0.24905	0.084059	0.10972	0.20131	0.16628	0.37784	0.12923	0.32293	0.11912	0.090565	-2.775	-3.3917	-2.6271	-3.5979	-3.0187	-2.8708	-3.6646	-2.7646	-3.3688	-3.1833	-2.7687	-3.5	-3.0229	-2.8771	-3.425	-2.9104	125.558	80.098	-65.096	169.198	148.185	25.315	132.747	90.809	214.863	-85.656	162.124	183.637	-53.190	-23.693	-122.596	-69.465	0.00029002	0.00035675	0.00019947	553.97	1.994e-06	2.9932e-06	863.31	172.62	4.488e-06	5.5626e-06	319.6	114.63	56.232	21.034	3.6461e-06	47.633	0.00028424	0.00026521	6.6259e-05	495.51	3.1065e-06	2.8098e-06	767.23	156.39	2.9615e-06	2.8224e-06	281.63	101.88	51.162	18.995	2.5487e-06	42.045	-67.136	-113.432	-42.172	-112.288	170.976	13.031	-113.342	-107.133	95.504	54.336	-108.712	-103.992	-103.434	-97.691	101.114	-100.550	-8191	255	
2166.551	1	1	0	0	0.30691	0.11806	0.14946	0.11	0.23784	0.031612	0.1095	0.29196	0.10423	0.11521	0.16365	0.044034	0.16517	0.16041	0.16506	0.22195	-2.6042	-3.325	-2.4854	-3.3104	-3.0458	-2.7354	-3.6896	-2.9125	-2.9208	-3.3771	-2.6437	-3.4458	-3.1458	-2.8	-3.4688	-3.0229	-79.470	71.330	-55.667	206.241	137.378	205.422	80.399	55.392	82.174	204.418	-102.354	151.453	-11.743	155.336	-91.698	132.880	0.0003034	0.00034652	0.00011763	552.95	6.1417e-06	6.8276e-06	871.37	173.73	2.2234e-06	9.5224e-06	319.7	114.68	56.017	21.126	1.1802e-06	47.706	0.00027811	0.00025719	6.7073e-05	498.93	2.9993e-06	2.6934e-06	771.36	157.11	2.9221e-06	2.7047e-06	282.04	102.44	50.892	19.013	2.6922e-06	42.023	-29.978	-95.196	-119.926	-111.864	21.791	125.595	-113.119	-107.354	124.393	-41.923	-108.780	-103.909	-102.635	-97.767	21.582	-100.420	-8191	255	
2166.648	1	1	0	0	0.34807	0.1049	0.11689	0.19926	0.084183	0.12506	0.16837	0.23799	0.14641	0.11289	0.28378	0.10859	0.28042	0.23821	0.097366	0.28474	-2.5458	-3.45	-2.7229	-3.5667	-3.0646	-2.6917	-3.6771	-2.9708	-2.9188	-3.5417	-2.9104	-3.3771	-3.425	-2.6	-3.3396	-3.0042	-16.292	54.582	210.613	-124.387	-113.288	99.945	106.716	225.812	197.232	215.163	187.614	194.317	-98.575	-69.276	68.786	48.041	0.0004044	0.00049151	0.0001163	551.62	1.1141e-05	2.1847e-06	866.12	175.42	2.3352e-06	3.064e-06	321.88	114.63	56.278	20.833	5.0954e-06	47.44	0.00026547	0.00024497	7.1868e-05	496.63	2.8801e-06	2.6133e-06	770.7	157.65	2.8377e-06	2.6133e-06	283.72	102.35	51.15	18.906	2.9296e-06	42.085	-52.610	-91.364	17.736	-112.431	-25.796	17.187	-113.429	-107.352	61.940	-27.081	-109.512	-104.303	-103.086	-97.163	-6.381	-100.883	-8191	255	
2166.719	1	1	0	0	0.13205	0.14853	0.23901	0.084572	0.24658	0.14831	0.13183	0.12976	0.15593	0.071087	0.19317	0.36221	0.21504	0.1097	0.11798	0.20759	-2.4562	-3.5187	-2.5854	-3.1833	-3.3583	-2.7625	-3.3708	-3.1708	-2.7625	-3.5729	-2.7	-3.0646	-3.4125	-2.7062	-3.3229	-3.2646	192.332	156.782	218.018	139.790	92.303	-9.638	-124.418	-88.970	155.811	-57.606	136.815	-123.067	-66.564	225.588	-115.694	102.061	0.00037597	0.00055695	0.00022551	552.6	6.9634e-06	2.7803e-06	864.52	175.39	5.0546e-06	2.202e-06	324.11	115.65	56.429	21.007	4.4096e-06	47.769	0.00026338	0.0002365	7.7083e-05	496.25	2.8603e-06	2.6454e-06	771.14	157.43	2.8213e-06	2.5914e-06	285.16	102.88	51.009	19.026	3.1059e-06	42.184	-41.565	-116.598	31.444	-112.731	-13.057	-72.148	-113.631	-107.463	94.743	25.962	-109.123	-103.710	-102.790	-97.397	31.846	-100.450	-8191	255	
2166.840	1	1	0	0	0.17732	0.3317	0.086968	0.097763	0.29713	0.20783	0.33822	0.25276	0.1746	0.035065	0.079852	0.11554	0.16022	0.14219	0.050593	0.32516	-2.1125	-3.3917	-2.9021	-3.1396	-3.4688	-2.6562	-3.4708	-3.25	-2.6125	-3.3875	-2.8396	-3.1167	-3.5312	-2.9271	-3.2417	-3.4333	112.230	200.763	210.064	183.785	28.352	186.954	216.902	129.379	92.474	141.592	-124.565	103.958	-117.947	-0.783	-37.521	166.354	0.00028844	0.0003905	6.7345e-05	552.97	2.7775e-06	4.6095e-06	871.03	174.99	4.7426e-06	2.4999e-06	322.48	116.81	56.953	21.421	1.0502e-05	48.399	0.00025537	0.00024309	7.9638e-05	496.33	2.735e-06	2.6448e-06	774.66	157.38	2.5931e-06	2.7112e-06	287.93	103.62	51.354	19.35	3.0434e-06	42.707	-44.503	-13.370	-97.364	-112.491	67.073	103.851	-113.185	-107.107	12.242	94.441	-108.892	-104.181	-102.659	-97.144	36.242	-100.581	-8191	255	
2166.936	1	1	0	0	0.21734	0.34965	0.19959	0.37844	0.065312	0.15556	0.25656	0.13031	0.347	0.056113	0.098111	0.038255	0.057243	0.29421	0.24066	0.087041	-2.1354	-3.4708	-2.9437	-3.0083	-3.4375	-2.8958	-3.2125	-3.2646	-2.4292	-3.3833	-3.0542	-2.7375	-3.3542	-2.5646	-3.2771	-3.3438	109.517	14.903	-0.687	-113.432	154.575	121.317	117.862	3.935	-86.673	91.367	174.175	212.750	229.575	97.977	2.432	181.667	0.00044891	0.00049056	0.00020036	554.2	5.1262e-06	3.9282e-06	870.85	176.25	4.6554e-06	8.6877e-06	321.59	115.27	55.897	21.117	8.6864e-06	47.235	0.00024197	0.00025732	8.0008e-05	496.8	2.5887e-06	2.8907e-06	775.96	157.83	2.5808e-06	2.9581e-06	284.54	102.53	50.722	19.073	3.0274e-06	41.737	-44.474	78.794	-25.444	-112.760	13.230	0.804	-113.229	-107.976	100.782	-11.300	-109.102	-104.169	-103.077	-97.354	29.990	-100.516	-8191	255	
2167.032	1	1	0	0	0.080452	0.12958	0.232	0.13145	0.048173	0.15025	0.09137	0.25553	0.18142	0.14036	0.19327	0.3357	0.021849	0.10461	0.030781	0.0085659	-2.25	-3.3604	-3.1083	-2.6958	-3.3396	-2.7542	-3.0312	-3.4042	-2.4958	-3.4021	-3.2271	-2.8187	-3.4083	-3.0417	-3.0979	-3.5396	208.446	-41.254	-94.178	25.231	17.610	-69.719	-95.701	141.484	-40.457	72.346	-47.861	196.521	150.776	191.203	213.494	-114.959	0.00030847	0.0002534	0.00032118	553.66	4.3985e-06	3.7794e-06	870.85	174.08	3.3497e-06	4.4881e-06	320.93	115.32	56.044	21.002	8.4716e-06	47.431	0.00024195	0.00028205	7.713e-05	494.47	2.6514e-06	3.0506e-06	772	156.7	2.5599e-06	3.1071e-06	284.66	102.48	50.931	19.123	2.8823e-06	41.958	-69.097	154.221	-34.400	-112.809	-49.556	-16.285	-113.386	-107.245	-57.440	3.276	-109.411	-104.252	-103.031	-97.998	-1.972	-100.372	-8191	255	
2167.128	1	1	0	0	0.28642	0.23127	0.14837	0.23373	0.19548	0.20045	0.22259	0.17905	0.1758	0.15064	0.11369	0.1348	0.15419	0.10777	0.13687	0.35262	-2.3625	-3.2875	-3.1583	-2.6562	-3.4667	-2.9646	-3.0812	-3.3104	-2.6604	-3.2604	-3.3042	-2.6562	-3.4167	-2.8125	-2.8458	-3.7125	-23.048	198.954	119.016	182.583	-37.450	-121.051	213.804	167.775	176.052	103.007	176.290	229.388	219.244	200.595	-27.026	172.726	0.00033437	0.00064233	0.0001561	551.73	3.2415e-06	7.8348e-06	873.71	175.85	1.7025e-06	1.0349e-05	324.28	116.09	56.581	21.19	3.8951e-06	47.869	0.00025253	0.00028793	7.4709e-05	493.25	2.8166e-06	3.2033e-06	775.91	157.07	2.7863e-06	3.1133e-06	285.38	102.7	51.484	19.263	2.9053e-06	42.327	-56.732	-2.239	-43.545	-112.301	207.235	31.167	-113.072	-107.020	-30.354	-10.109	-108.981	-104.551	-102.908	-97.798	-97.645	-100.810	-8191	255	
2167.247	1	1	0	0	0.14554	0.18649	0.063524	0.28152	0.10325	0.20291	0.30102	0.26352	0.080528	0.04427	0.060015	0.24717	0.14179	0.1694	0.31647	0.31122	-2.1188	-3.2667	-3.1813	-2.4583	-3.4479	-2.9583	-2.95	-3.5083	-2.7542	-3.0979	-3.5708	-2.8187	-3.3646	-3.1667	-2.7	-3.5	167.300	128.463	201.543	231.219	87.677	40.865	197.436	142.117	124.828	-1.067	38.389	190.695	224.063	225.113	-35.553	124.558	0.0005825	0.0001966	0.00016424	551.53	4.3763e-06	5.443e-06	875.85	176.19	3.4439e-06	2.431e-06	323.11	117.39	56.489	21.169	7.5441e-06	47.812	0.00027317	0.00028554	7.4424e-05	494.49	3.0323e-06	3.2053e-06	777.97	157.27	3.0613e-06	3.1054e-06	286.87	103.52	51.573	19.318	2.8854e-06	42.252	-49.720	30.661	-54.524	-113.273	-61.254	22.667	-113.496	-107.255	25.418	90.952	-109.650	-104.708	-103.044	-97.417	15.976	-100.607	-8191	255	
2167.321	1	1	0	0	0.17555	0.11779	0.06688	0.19585	0.065722	0.079539	0.090309	0.27022	0.1405	0.15343	0.3455	0.17336	0.044042	0.1737	0.12485	0.21442	-2.6542	-3.0729	-3.3271	-2.7188	-3.4271	-3.1125	-2.7958	-3.6146	-2.7812	-3.0854	-3.7042	-2.6937	-3.45	-3.2604	-2.6021	-3.4625	97.978	167.732	32.359	217.311	102.779	28.475	206.991	148.466	-36.137	153.160	-56.372	-12.830	-50.923	23.013	92.171	198.329	0.00037656	0.00028868	7.1789e-05	547.38	7.5853e-06	4.3935e-06	867.06	175.07	5.23e-06	2.9703e-06	323.32	114.66	56.76	20.739	7.7755e-07	47.397	0.00029114	0.00028339	7.1941e-05	492.91	3.1929e-06	3.1178e-06	771.75	156.7	3.1503e-06	3.005e-06	284.17	101.88	51.4	18.888	2.7131e-06	41.808	-33.997	-96.761	-26.569	-112.804	10.383	9.888	-113.366	-107.625	100.800	63.033	-109.322	-104.209	-103.181	-97.949	-36.453	-100.651	-8191	255	
2167.417	1	1	0	0	0.21762	0.087663	0.14884	0.23931	0.23128	0.13695	0.18552	0.055366	0.23902	0.025606	0.16961	0.17757	0.042719	0.15772	0.11856	0.12171	-2.5812	-2.9625	-3.4333	-2.7271	-3.3312	-3.2375	-2.8146	-3.6063	-2.8667	-2.8458	-3.5021	-2.8812	-3.1625	-3.1583	-2.6688	-3.55	192.427	-2.703	-92.618	172.746	-42.381	-17.436	176.592	72.149	-25.268	75.049	180.932	204.849	-123.970	199.638	203.175	-117.254	0.00028491	0.00086469	0.00018237	551.7	1.1174e-05	4.4537e-06	868.86	174.28	1.0227e-06	2.4134e-06	319.11	115.14	56.081	20.644	7.4763e-06	47.684	0.00029439	0.00027039	6.9423e-05	494.77	3.1471e-06	2.9985e-06	772.89	156.59	3.1139e-06	2.8202e-06	281.77	102.41	51.106	18.841	2.4605e-06	42.046	-50.358	-44.911	-58.399	-113.081	-43.103	56.506	-113.369	-107.690	-40.693	-113.155	-109.417	-104.480	-102.791	-97.917	-34.515	-99.798	-8191	255	
2167.536	1	1	0	0	0.26325	0.15591	0.21695	0.18692	0.18489	0.053182	0.24606	0.089669	0.056208	0.090941	0.36916	0.11344	0.042488	0.17715	0.13067	0.14857	-2.5438	-2.8833	-3.3271	-2.5146	-3.4146	-3.4188	-3.0042	-3.4521	-2.9125	-2.7521	-3.4667	-2.9292	-3.125	-3.3521	-2.7854	-3.3604	95.889	141.048	66.555	149.079	106.298	40.336	-93.897	106.458	-33.048	37.922	100.816	-124.449	-50.912	167.881	-75.650	-78.265	0.00034814	9.9119e-05	0.00024099	552.54	1.0333e-05	5.0192e-06	880.84	175.98	4.2515e-06	3.5079e-06	324.89	115.52	56.228	20.917	1.6448e-06	47.862	0.00028041	0.0002515	6.7003e-05	497.14	3.0064e-06	2.8889e-06	777.67	158.03	3.073e-06	2.7827e-06	284.79	103.31	51.252	18.929	2.6182e-06	42.255	-52.227	149.479	-26.524	-112.936	4.313	-85.235	-113.540	-107.142	42.432	87.487	-109.086	-104.287	-103.124	-97.326	32.131	-100.168	-8191	255	
2167.632	1	1	0	0	0.15546	0.13492	0.19044	0.096846	0.060692	0.13343	0.29454	0.17796	0.15311	0.23386	0.12722	0.14599	0.06242	0.15393	0.22892	0.1631	-2.7188	-2.7646	-3.3333	-2.8396	-3.0854	-3.5542	-2.8292	-3.3646	-3.2792	-2.7042	-3.5917	-3.2	-2.8875	-3.3667	-2.6958	-3.4833	45.157	163.372	109.401	-52.281	79.019	171.763	-16.201	-5.094	59.364	45.099	162.106	168.154	75.362	155.583	-112.687	124.850	0.00027476	0.0010541	0.00021734	553.07	5.3905e-06	4.2214e-06	878.87	175.6	5.2856e-06	5.553e-06	324.9	116.93	56.088	21.11	9.0551e-07	47.828	0.00027586	0.00024286	6.6437e-05	498.94	2.8781e-06	2.597e-06	781.04	157.77	2.8759e-06	2.5568e-06	285.86	103.7	51.397	19.122	2.7302e-06	42.474	-50.993	4.099	-35.871	-112.720	37.509	34.659	-113.214	-107.059	76.181	21.026	-108.749	-104.216	-103.166	-97.006	86.013	-100.108	-8191	255	
2167.728	1	1	0	0	0.23835	0.030183	0.21429	0.056659	0.029799	0.1032	0.16104	0.22512	0.095741	0.10731	0.067172	0.078132	0.13054	0.20056	0.10712	0.13089	-2.7542	-2.7979	-3.4021	-2.8021	-2.95	-3.6396	-3.1146	-3.2875	-3.3479	-2.5021	-3.6542	-3.3104	-2.7083	-3.4479	-2.8312	-3.2771	55.947	-92.252	-77.430	96.337	-33.824	5.606	198.432	206.202	115.601	-29.775	234.742	-123.045	216.216	1.384	-72.369	166.823	0.00038257	0.00025742	5.48e-05	552.88	6.176e-06	6.8204e-07	874.82	174.91	6.2685e-06	1.2752e-06	318.24	114.58	55.905	20.619	2.7697e-06	46.905	0.00026495	0.0002299	7.3755e-05	497.31	2.7946e-06	2.578e-06	777.79	157.47	2.7853e-06	2.4544e-06	284.58	102.15	50.763	18.732	2.8611e-06	41.644	-47.853	-48.735	-75.496	-112.823	-5.740	153.198	-113.205	-106.861	-25.393	2.417	-108.215	-103.773	-102.152	-96.898	27.421	-99.907	-8191	255	
2167.824	1	1	0	0	0.087325	0.27627	0.093805	0.28126	0.15984	0.20794	0.21575	0.17048	0.084999	0.24999	0.091569	0.14843	0.13526	0.12819	0.14577	0.24056	-3.05	-2.5917	-3.3688	-3.2146	-2.5312	-3.4188	-2.9396	-3.075	-3.4521	-2.6396	-3.3396	-3.0812	-2.7229	-3.725	-2.8458	-3.1188	110.435	-57.458	183.890	205.956	-83.692	-70.590	197.130	234.250	45.507	228.717	127.622	221.893	-92.979	211.502	41.935	207.963	0.00030342	0.00015094	0.00013279	550.03	9.4987e-07	1.7168e-06	871.16	174.03	1.9619e-06	6.4038e-06	321.85	114.39	56.364	20.846	3.2547e-06	47.074	0.00025714	0.00023361	7.7297e-05	495.66	2.7287e-06	2.6125e-06	776.04	157.29	2.7239e-06	2.5425e-06	285.58	102.41	50.568	18.845	3.036e-06	41.762	-53.098	38.786	178.928	-112.464	229.570	-120.426	-113.483	-107.406	44.181	-35.659	-108.785	-103.925	-102.881	-97.516	80.584	-100.346	-8191	255	
2167.920	1	1	0	0	0.13589	0.22382	0.29465	0.12741	0.044892	0.14115	0.15675	0.25609	0.21818	0.074191	0.17565	0.22603	0.27268	0.018687	0.12702	0.2417	-2.9958	-2.6771	-3.3417	-3.3688	-2.7083	-3.4375	-2.9667	-2.9625	-3.4375	-2.6833	-3.5104	-3.2687	-2.6312	-3.5354	-2.9292	-2.7062	46.450	174.935	200.923	129.496	204.278	-78.007	212.272	195.471	-26.517	169.383	18.174	136.122	-122.082	-92.484	-115.457	167.255	0.00037086	0.00033462	0.00023825	551.83	2.2924e-06	5.3078e-06	874.32	176.3	3.4533e-06	3.8675e-06	323.68	116.3	55.839	20.998	7.2664e-06	47.246	0.00025505	0.00024779	7.928e-05	495.94	2.6551e-06	2.8611e-06	777.98	157.68	2.7239e-06	2.8439e-06	286.35	102.87	50.725	19.032	3.143e-06	41.954	-27.253	-73.061	-103.657	-112.688	-31.295	24.546	-112.792	-106.783	45.252	-89.707	-109.409	-104.811	-103.602	-97.383	8.953	-100.982	-8191	255	
2168.016	1	1	0	0	0.40697	0.15936	0.31857	0.25871	0.06126	0.028482	0.18147	0.10969	0.0077326	0.11054	0.034567	0.20682	0.063434	0.3087	0.08636	0.27019	-3.0187	-2.5667	-3.1833	-3.3917	-2.8042	-3.5083	-3.1354	-2.8042	-3.4688	-2.6354	-3.2542	-3.4917	-2.6979	-3.4521	-3.0625	-2.7646	193.359	172.491	135.825	141.222	-33.007	-17.219	180.923	-124.249	66.304	231.345	-20.533	-123.994	205.762	-73.117	9.798	198.946	0.00022003	0.00064853	0.00010074	553.63	6.5224e-06	2.3463e-06	872.93	174.78	8.816e-06	2.0764e-06	323.3	115.87	56.496	20.996	2.4349e-06	47.938	0.00024376	0.00027412	7.9294e-05	496.23	2.5741e-06	2.9964e-06	777.76	157.32	2.5884e-06	3.1014e-06	286.69	102.84	51.087	19.017	3.0003e-06	42.021	-54.018	48.503	-38.620	-113.409	-10.572	66.838	-114.069	-107.569	54.591	152.058	-109.247	-104.887	-103.277	-97.862	51.158	-100.866	-8191	255	
2168.137	1	1	0	0	0.077775	0.24367	0.083515	0.19182	0.20544	0.1925	0.18091	0.35781	0.065566	0.18179	0.14268	0.032592	0.10359	0.1697	0.31497	0.20454	-3.3042	-2.8375	-3.0479	-3.4271	-2.6104	-3.4146	-3.1396	-2.7062	-3.3771	-2.7812	-3.0875	-3.3646	-2.7521	-3.4562	-3.2208	-2.6562	-96.732	-118.442	-29.164	217.937	-15.352	116.468	177.622	105.528	185.467	48.835	44.140	-60.777	207.087	-90.417	-4.079	38.246	0.00050495	2.938e-05	0.00030477	544.28	4.2569e-06	4.4221e-06	869.29	175.08	6.117e-06	5.0194e-06	323.85	113.92	55.161	20.498	5.4812e-06	46.478	0.00024415	0.00028319	7.5178e-05	492.17	2.6289e-06	3.16e-06	774.55	156.67	2.6796e-06	3.1575e-06	284.84	101.1	50.201	18.723	2.8934e-06	41.231	-57.091	73.817	-97.579	-113.323	111.048	109.667	-113.736	-108.047	74.600	101.568	-109.051	-104.552	-103.486	-98.323	4.969	-100.940	-8191	255	
2168.233	1	1	0	0	0.063194	0.058759	0.10542	0.19683	0.062026	0.06791	0.30267	0.088663	0.019364	0.10298	0.057278	0.17688	0.15446	0.1399	0.051416	0.23743	-3.2438	-2.875	-2.9437	-3.6667	-2.6771	-3.2208	-3.35	-2.7042	-3.6458	-2.9458	-3.0146	-3.6833	-2.7271	-3.1646	-3.4479	-2.7667	190.033	45.864	-96.946	79.871	119.079	64.126	180.208	104.708	121.127	-121.687	207.888	231.082	-22.954	-67.209	-116.894	207.687	0.00042704	0.0003507	0.00012424	546.66	3.5273e-06	4.5309e-06	869.98	173.86	1.4429e-06	5.8338e-06	320.21	114.71	55.615	20.742	5.949e-06	46.871	0.00025827	0.00028634	7.1814e-05	492.08	2.778e-06	2.9879e-06	773.1	155.69	2.7962e-06	3.029e-06	282.36	101.38	50.701	18.831	2.7177e-06	41.465	-56.027	6.493	-97.772	-112.774	-19.369	98.389	-113.689	-107.805	-27.512	48.082	-109.117	-104.643	-103.423	-97.585	43.951	-100.645	-8191	255	
2168.328	1	1	0	0	0.15537	0.037647	0.092015	0.089562	0.23356	0.068134	0.14128	0.14379	0.33549	0.11648	0.048555	0.10076	0.088178	0.31599	0.22261	0.3733	-2.9354	-3.1875	-2.7667	-3.4854	-2.6958	-3.2354	-3.3979	-2.8354	-3.3771	-3.0187	-2.8	-3.3792	-2.9188	-3.1042	-3.3875	-2.6521	28.806	-53.272	139.259	129.653	-55.653	83.200	150.680	-75.092	211.952	-27.323	-75.494	-42.035	-51.619	127.599	-110.649	189.294	0.00044285	0.0010004	0.00033875	553.69	1.6596e-06	8.3957e-06	868.3	174.53	3.4836e-06	2.9129e-06	323.75	115.49	55.678	20.826	5.812e-06	47.356	0.00027042	0.00027226	6.8678e-05	493.94	2.9817e-06	2.9832e-06	776.59	155.86	2.9436e-06	2.8977e-06	284.43	101.94	51.049	18.899	2.6901e-06	41.92	-52.108	-67.919	-73.743	-113.350	-63.256	17.173	-113.879	-108.063	-79.906	-40.328	-109.214	-104.374	-103.796	-97.792	25.823	-100.680	-8191	255	
2168.424	1	1	0	0	0.1813	0.043334	0.021885	0.30355	0.14769	0.19375	0.094772	0.1366	0.097133	0.20104	0.22815	0.28701	0.13937	0.17292	0.036507	0.12378	-2.95	-2.9896	-2.7771	-3.5625	-2.8958	-3.0146	-3.5271	-2.6625	-3.4021	-3.1146	-2.6354	-3.5729	-2.7167	-2.9083	-3.4708	-2.7667	84.546	86.839	149.607	83.924	90.900	-113.832	54.856	-80.145	-90.471	-32.642	-118.362	68.476	204.490	-92.869	55.439	158.800	0.00029258	0.00060767	0.00017327	547.81	7.7143e-06	4.8321e-06	880.6	176.02	2.064e-06	4.1734e-06	321.9	115.23	56.155	20.69	5.1982e-06	46.664	0.00028552	0.00026393	6.4673e-05	493.21	3.0306e-06	2.8571e-06	779.7	157.26	3.1058e-06	2.8768e-06	283.17	102.15	51.133	18.785	2.6248e-06	41.424	-72.786	-43.744	-62.198	-112.751	-44.038	40.152	-113.518	-107.606	54.210	-23.117	-109.177	-104.703	-103.479	-97.537	36.343	-100.518	-8191	255	
2168.544	1	1	0	0	0.34576	0.2737	0.096757	0.24215	0.1452	0.29233	0.18404	0.10313	0.19556	0.14382	0.15238	0.13384	0.18573	0.2001	0.048229	0.20269	-2.6875	-3.4	-2.7354	-3.4083	-3.0687	-2.8292	-3.4375	-2.7375	-3.0833	-3.2417	-2.7354	-3.3708	-2.9979	-2.8	-3.5333	-2.6937	-58.545	25.990	-124.292	143.990	-85.604	98.600	217.548	108.774	123.951	28.858	-72.145	145.916	109.157	79.512	-113.645	212.065	0.00040321	6.7234e-05	0.00011317	548.98	9.946e-06	4.7612e-06	871.51	174.17	1.6239e-06	2.2491e-06	317.69	114.81	55.171	20.254	5.346e-06	46.057	0.00028216	0.00025756	6.3961e-05	493.27	3.0343e-06	2.8336e-06	773.05	156.77	3.0208e-06	2.8767e-06	280.44	101.13	50.373	18.473	2.5932e-06	41.1	-25.493	-117.487	84.669	-112.578	-65.871	-2.003	-113.452	-107.946	-56.760	0.154	-109.123	-104.617	-103.120	-97.722	22.207	-100.527	-8191	255	
2168.616	1	1	0	0	0.058533	0.068146	0.10341	0.035704	0.10845	0.19682	0.15551	0.094418	0.021722	0.091652	0.12847	0.16955	0.11551	0.096595	0.025821	0.15835	-2.7208	-3.3271	-2.6854	-3.4417	-3.0979	-2.5521	-3.5125	-2.7979	-3.075	-3.3542	-2.6875	-3.4479	-3.0563	-2.6875	-3.5104	-2.8104	-0.312	3.875	169.901	179.382	-21.615	-77.275	97.285	-70.780	176.101	-76.215	161.975	160.656	226.918	54.452	234.165	135.581	0.00039224	0.00022639	4.9076e-05	547.8	8.9303e-06	1.6462e-06	869.54	173.21	4.5944e-06	4.8331e-06	320.64	113.94	55.724	20.552	3.8849e-06	47.325	0.00027264	0.00025635	6.6334e-05	494.71	3.0198e-06	2.7399e-06	772.45	156.28	2.9631e-06	2.7473e-06	281.83	101.47	50.501	18.602	2.7222e-06	41.772	-43.580	35.632	224.415	-112.718	15.050	-118.289	-113.669	-107.161	53.069	44.927	-109.053	-104.214	-102.942	-97.645	87.262	-100.529	-8191	255	
2168.712	1	1	0	0	0.11143	0.1183	0.12494	0.24506	0.19985	0.042198	0.19772	0.18374	0.0948	0.093915	0.22355	0.01495	0.07027	0.076204	0.1963	0.31763	-2.5625	-3.4521	-2.5667	-3.1542	-3.1229	-2.5417	-3.4458	-2.8854	-2.6771	-3.5708	-2.6583	-3.1917	-3.2021	-2.7208	-3.45	-2.9396	88.428	197.446	-66.507	-54.789	-113.420	-123.243	124.275	89.148	112.464	157.079	217.575	100.827	-97.552	135.923	-29.350	-90.495	0.00020625	0.0003459	0.0001099	550.83	5.0095e-06	5.6493e-06	875.91	173.57	6.4408e-06	3.174e-06	322.97	114.09	55.773	20.673	3.3988e-06	47.202	0.00026865	0.00024485	7.0463e-05	497.2	2.9848e-06	2.6763e-06	777.13	156.98	2.9188e-06	2.6708e-06	284.45	102.18	50.659	18.691	2.9373e-06	41.796	-52.183	-16.936	33.598	-112.849	-12.300	36.085	-113.326	-107.522	34.520	181.637	-109.143	-104.080	-103.016	-97.598	29.215	-100.498	-8191	255	
2168.808	1	1	0	0	0.38291	0.076219	0.20792	0.3062	0.045162	0.26767	0.26326	0.15763	0.19408	0.112	0.1542	0.18434	0.083837	0.14512	0.14527	0.14625	-2.5187	-3.3271	-2.6729	-3.15	-3.0979	-2.6917	-3.5625	-2.8729	-2.6562	-3.4479	-2.725	-3.1667	-3.4375	-2.5729	-3.3979	-3.2021	-2.311	-55.169	167.894	-42.621	21.778	14.146	167.137	120.441	227.998	-6.290	-58.877	192.446	131.611	78.935	-20.802	97.971	0.0003116	0.00041419	0.00013662	551.76	5.8886e-06	6.4845e-06	877.72	174.97	2.4969e-06	3.4818e-06	321.89	114.51	55.498	20.525	1.7239e-06	46.153	0.0002639	0.00024128	7.6068e-05	497.09	2.9171e-06	2.5761e-06	780.22	157.24	2.8645e-06	2.6612e-06	285.08	101.83	50.637	18.574	3.0986e-06	41.234	-41.509	-66.459	50.512	-112.481	67.577	-28.873	-113.925	-108.254	100.497	33.820	-109.381	-104.208	-103.293	-98.282	-122.406	-100.756	-8191	255	
2168.929	1	1	0	0	0.067092	0.23937	0.11088	0.25633	0.11964	0.23294	0.13916	0.14047	0.10135	0.016045	0.03805	0.28028	0.20507	0.10869	0.24389	0.071749	-2.2146	-3.4896	-2.6396	-2.8833	-3.4042	-2.7125	-3.4354	-3.1292	-2.6646	-3.4	-2.8146	-2.7687	-3.5938	-2.7042	-3.1188	-3.2854	62.690	-93.531	29.014	-52.743	39.968	117.417	170.004	118.689	-82.719	208.927	198.813	228.329	125.884	-69.647	14.589	229.921	0.00038181	0.00044882	0.0001312	549.72	6.6198e-06	2.1573e-06	867.81	173.15	6.5083e-06	6.9658e-06	317.46	112.55	54.738	20.118	1.841e-06	46.01	0.00026056	0.00024934	7.9327e-05	493.39	2.822e-06	2.7054e-06	774.96	156.31	2.7848e-06	2.8465e-06	282	100.6	49.996	18.466	3.2212e-06	40.939	-58.897	-38.716	148.013	-113.305	-55.110	124.643	-113.469	-107.781	-7.791	-24.852	-109.230	-104.300	-103.350	-98.011	39.588	-100.739	-8191	255	
2169.025	1	1	0	0	0.17899	0.1122	0.12564	0.063287	0.10425	0.26281	0.15899	0.21916	0.18039	0.11833	0.073137	0.24571	0.16503	0.45257	0.15945	0.17	-2.3375	-3.3292	-2.7229	-2.8833	-3.525	-2.6354	-3.2896	-3.3458	-2.4646	-3.5083	-2.8458	-3.0062	-3.4688	-2.7542	-3.1188	-3.3271	169.205	-87.206	-118.291	40.433	-77.096	88.016	153.864	174.565	43.191	32.446	-22.687	212.029	189.705	-98.439	140.068	113.004	0.00031693	0.00074606	0.00011513	539.15	5.6985e-06	5.3791e-06	867.52	171.56	6.1001e-06	6.5577e-07	321.12	113.51	55.481	20.619	1.0828e-05	46.523	0.00025012	0.00026859	8.1176e-05	489.34	2.7465e-06	2.9934e-06	773.52	155.28	2.6464e-06	3.0569e-06	283.87	101.28	50.393	18.748	3.0622e-06	41.343	-54.680	23.107	45.123	-112.888	-14.003	35.028	-113.610	-107.903	134.847	220.083	-109.132	-104.925	-103.354	-97.561	12.362	-100.956	-8191	255	
2169.121	1	1	0	0	0.16595	0.18709	0.091377	0.23891	0.044515	0.072123	0.21416	0.15348	0.083315	0.19906	0.087822	0.22088	0.34211	0.25509	0.097918	0.23395	-2.3729	-3.4	-3.0771	-2.7583	-3.4917	-2.8104	-3.1771	-3.5125	-2.6896	-3.4833	-3.0792	-2.9583	-3.4562	-2.8479	-2.9521	-3.6271	-6.761	1.149	-22.296	67.811	135.997	95.595	-108.286	159.198	-66.806	-67.455	-102.560	213.025	192.772	-97.530	10.962	202.680	0.00041251	0.00073737	0.00019395	545.38	2.4387e-06	4.1275e-06	871.15	174.43	1.5928e-06	6.6179e-06	320.11	114.34	55.641	20.576	8.2858e-06	47.307	0.00023671	0.00028581	7.9035e-05	490.64	2.7115e-06	3.1324e-06	774.64	155.86	2.5997e-06	3.0903e-06	285.05	101.52	50.518	18.826	3.024e-06	41.694	-61.649	-70.640	-38.119	-112.824	-59.516	-42.239	-113.899	-108.218	25.827	1.712	-109.803	-104.734	-103.301	-97.786	19.876	-101.088	-8191	255	
2169.217	1	1	0	0	0.12628	0.083611	0.29414	0.15882	0.34078	0.19359	0.18092	0.099576	0.1846	0.21046	0.054684	0.19991	0.31177	0.29164	0.1135	0.07732	-2.2146	-3.2625	-3.1417	-2.5938	-3.4708	-2.6792	-2.9208	-3.4688	-2.6312	-3.3187	-3.2333	-2.6792	-3.4271	-2.9188	-2.7021	-3.4479	53.666	177.836	12.459	180.935	-22.939	-119.642	118.250	216.854	-1.473	74.471	-103.891	118.558	159.444	197.553	226.838	221.915	0.00030069	0.00042048	0.00025818	546.45	1.4295e-06	1.1064e-06	867.96	173.84	3.8434e-07	1.1256e-05	319.68	114.3	55.58	20.375	2.5733e-06	46.679	0.00025326	0.00029583	7.6975e-05	492.48	2.7924e-06	3.2158e-06	777.96	156.18	2.7642e-06	3.105e-06	282.45	101.13	50.572	18.74	2.869e-06	41.2	-48.570	-28.043	-62.631	-113.056	86.809	121.387	-113.740	-107.871	-61.294	19.520	-109.879	-104.646	-103.592	-98.167	-37.933	-101.037	-8191	255	
2169.314	1	1	0	0	0.23861	0.10018	0.1215	0.23197	0.27079	0.11175	0.20388	0.11143	0.16362	0.15333	0.1882	0.29075	0.11437	0.036939	0.1847	0.070618	-2.2021	-3.25	-2.95	-2.6146	-3.2458	-3.0458	-3.1667	-3.2438	-2.6854	-3.2021	-3.4229	-2.8271	-3.3896	-2.975	-2.725	-3.5312	-111.337	-0.309	-107.776	138.266	-67.671	-65.808	142.248	87.578	84.665	127.994	223.156	167.071	8.731	-42.725	57.808	182.588	0.0003908	0.00074249	5.2608e-05	544.53	7.8958e-06	2.5065e-06	872.12	171.97	6.1582e-06	3.2684e-06	317.46	112.72	54.854	20.385	4.594e-06	45.895	0.00026861	0.00029156	7.5681e-05	489.32	3.0813e-06	3.1625e-06	774.23	154.07	3.0756e-06	3.0719e-06	279.37	99.548	50.121	18.558	2.7734e-06	40.621	-54.316	-47.227	-33.108	-112.930	148.691	75.434	-113.814	-108.109	-9.075	57.492	-109.516	-104.921	-102.929	-98.010	-0.968	-100.801	-8191	255	
2169.408	1	1	0	0	0.088457	0.078844	0.17852	0.21392	0.31057	0.17462	0.22056	0.36541	0.082808	0.31707	0.090115	0.15048	0.16281	0.094392	0.1502	0.16978	-2.5167	-3.2458	-3.2792	-2.6583	-3.2146	-3.075	-2.8729	-3.5021	-2.8729	-2.9396	-3.6063	-2.5604	-3.3333	-3.1917	-2.5062	-3.4604	170.780	131.679	-19.922	198.690	-7.236	37.833	-115.386	215.531	213.406	-18.937	-67.081	-99.341	159.370	42.309	161.422	160.297	0.00039434	0.00012019	0.0002772	541.49	7.4694e-06	4.4596e-06	864.01	173.15	4.4961e-06	5.852e-06	317.02	112.51	54.64	20.469	2.4885e-06	45.963	0.00029127	0.00027645	7.1094e-05	487.18	3.147e-06	3.0377e-06	769.6	155.08	3.2013e-06	2.9748e-06	280.2	99.975	50.278	18.559	2.7094e-06	40.826	-44.974	71.311	-83.209	-113.295	-53.949	100.654	-113.591	-107.549	-9.088	-62.917	-108.936	-104.209	-103.108	-97.789	217.601	-100.525	-8191	255	
2169.506	1	1	0	0	0.089482	0.14534	0.20676	0.065345	0.14851	0.0083676	0.11047	0.074636	0.12312	0.084618	0.16576	0.14158	0.025639	0.25298	0.062975	0.19342	-2.3625	-2.9562	-3.3771	-2.5292	-3.1958	-3.2542	-2.65	-3.4562	-2.8708	-2.8354	-3.575	-2.6479	-3.1917	-3.2396	-2.6229	-3.4813	72.051	-81.776	135.232	169.857	-101.697	153.370	95.131	-48.961	158.931	144.814	-4.012	-91.658	17.511	116.972	171.704	122.120	0.0004665	0.0009635	0.00020304	544.05	5.134e-06	2.6412e-06	865.96	172.34	3.8936e-06	6.317e-06	318.49	113.44	55.848	20.528	4.0657e-06	47.018	0.00029415	0.00027317	6.942e-05	490.48	3.1793e-06	2.9749e-06	770.81	155.2	3.1186e-06	2.8799e-06	281.25	101.15	50.956	18.826	2.6239e-06	41.801	-43.076	-75.203	-88.707	-113.251	48.590	74.324	-113.579	-107.700	86.253	27.517	-109.006	-104.625	-103.064	-97.634	-5.958	-100.608	-8191	255	
2169.625	1	1	0	0	0.28006	0.28783	0.11847	0.015839	0.36663	0.081502	0.051227	0.1379	0.32667	0.11013	0.13451	0.20774	0.21563	0.20012	0.1246	0.16284	-2.4229	-2.6542	-3.5479	-2.6667	-3.0729	-3.35	-2.6896	-3.5833	-3.1646	-2.8	-3.2354	-2.7583	-3.0563	-3.3417	-2.5667	-3.2875	-31.186	88.877	130.821	186.870	15.720	-39.288	-78.373	163.516	72.946	172.831	201.220	98.590	-122.624	154.658	193.692	-54.573	0.00024849	0.00053893	0.00016287	545.74	1.9666e-06	4.1822e-06	871.38	172.08	6.3108e-06	4.4062e-06	320.99	113.79	55.29	20.808	5.2679e-06	46.346	0.00029271	0.00026671	6.8179e-05	493.53	3.104e-06	2.959e-06	774.49	156.15	3.1374e-06	2.8522e-06	281.18	101.18	50.572	18.651	2.6988e-06	41.309	-33.952	-31.015	-82.197	-112.799	57.169	-37.011	-113.431	-107.725	63.765	57.795	-109.127	-104.115	-103.099	-97.205	134.077	-100.373	-8191	255	
2169.721	1	1	0	0	0.23918	0.10543	0.12275	0.13944	0.085845	0.095413	0.23075	0.083197	0.065605	0.024967	0.20334	0.30518	0.006937	0.073028	0.19631	0.40916	-2.4979	-2.7417	-3.5062	-2.7542	-3.1562	-3.4125	-2.6562	-3.3458	-3.1833	-2.5833	-3.4	-2.8521	-3.0167	-3.4437	-2.6979	-3.2854	-8.433	43.566	123.690	71.378	37.271	-21.366	99.575	124.090	113.089	-104.862	221.660	-85.234	-43.438	128.784	-69.678	-105.019	0.0003263	0.00067069	5.447e-05	544.16	6.6437e-06	3.6975e-07	870.53	172.64	2.3289e-06	5.8894e-06	320.28	113.17	55.055	20.602	2.2457e-06	46.663	0.00029152	0.00026045	7.0501e-05	493.74	3.0634e-06	2.8699e-06	773.26	156.39	3.0352e-06	2.7309e-06	281.62	100.75	50.339	18.662	2.8273e-06	41.343	-43.309	-18.221	216.769	-113.145	19.417	38.753	-113.295	-107.229	-64.011	-77.493	-109.248	-104.662	-103.265	-97.451	-83.956	-100.361	-8191	255	
2169.817	1	1	0	0	0.038093	0.19473	0.14284	0.11501	0.18679	0.25043	0.34401	0.1955	0.18568	0.20181	0.055499	0.22555	0.19234	0.15382	0.17919	0.14347	-2.7208	-2.6333	-3.4	-3.0396	-2.8708	-3.3958	-2.7604	-3.2167	-3.2146	-2.5396	-3.3208	-3.0542	-2.7104	-3.4625	-2.7917	-3.0812	30.366	-86.956	100.604	178.656	129.384	72.477	-121.804	146.918	-70.452	53.899	159.189	-8.262	193.426	209.648	190.277	214.886	0.00031608	0.00071655	0.00017615	543.07	4.3134e-06	4.4149e-06	866.69	172.84	6.5404e-06	1.8529e-06	320.78	113.6	55.124	20.626	4.4708e-06	47.58	0.00028001	0.00024108	7.4245e-05	492.2	2.9833e-06	2.7405e-06	775.32	155.81	2.9598e-06	2.6582e-06	283.25	101.55	50.36	18.8	3.1214e-06	42.018	-75.455	-83.231	-124.577	-112.878	38.433	12.446	-113.554	-107.483	60.120	39.696	-108.744	-104.269	-103.154	-97.574	-122.944	-100.521	-8191	255	
2169.913	1	1	0	0	0.16265	0.22079	0.20572	0.24727	0.02442	0.17941	0.14915	0.21959	0.074205	0.19914	0.060257	0.2495	0.27158	0.2113	0.16688	0.069616	-2.9729	-2.6833	-3.4479	-3.0792	-2.75	-3.5208	-2.7938	-3.1729	-3.4813	-2.4854	-3.1958	-3.0563	-2.7729	-3.4083	-2.7458	-3.1125	200.723	161.369	-13.753	184.721	-12.182	59.872	-96.495	-125.021	130.202	52.601	109.076	117.970	138.310	-121.802	-40.496	42.662	0.00055609	0.00065305	0.00019133	543.85	6.8307e-06	1.6316e-06	878.15	172.13	1.4407e-06	1.5675e-06	320.82	113.9	54.766	20.769	4.2957e-06	47.341	0.00026993	0.00024804	7.9476e-05	492.55	2.8707e-06	2.6664e-06	781.22	156.18	2.9053e-06	2.6616e-06	285.48	101.72	50.411	18.898	3.2757e-06	41.871	-46.873	-68.947	-86.528	-112.721	22.902	68.817	-113.413	-107.177	60.173	-34.582	-108.805	-104.223	-102.598	-97.347	19.560	-100.219	-8191	255	
2170.009	1	1	0	0	0.0729	0.27904	0.18193	0.40831	0.32385	0.026369	0.26373	0.15447	0.19654	0.11832	0.17045	0.15496	0.28142	0.12902	0.25449	0.10716	-2.9813	-2.5896	-3.1917	-3.0083	-2.6708	-3.375	-2.8187	-2.9542	-3.5062	-2.5563	-3.1896	-3.2687	-2.7	-3.5417	-2.6458	-2.7583	151.458	68.763	38.491	231.828	142.173	-27.368	179.018	162.837	136.245	175.282	-112.262	195.832	220.830	-10.459	-66.405	224.112	0.00033761	0.0004488	0.00011421	545.66	1.3926e-05	1.8076e-06	870.56	171.48	5.4733e-06	5.3703e-06	317.46	113.02	54.906	20.406	4.3983e-06	46.496	0.00026979	0.00026331	8.4773e-05	492.52	2.7647e-06	2.975e-06	778.07	155.57	2.8074e-06	2.8938e-06	283.21	100.68	49.925	18.684	3.2335e-06	41.188	-52.140	-75.853	-31.775	-112.731	34.510	46.882	-113.812	-107.366	16.964	207.568	-108.874	-104.126	-102.846	-97.554	29.415	-100.434	-8191	255	
2170.106	1	1	0	0	0.14903	0.14466	0.13097	0.26719	0.14624	0.36492	0.16828	0.126	0.12341	0.25811	0.17746	0.093754	0.098568	0.09112	0.041378	0.11122	-3.0563	-2.6896	-3.2208	-3.2771	-2.4625	-3.4521	-2.9333	-2.7854	-3.4813	-2.6958	-3.0771	-3.4458	-2.8063	-3.3187	-3.0187	-2.7812	-107.383	-66.609	184.736	183.584	106.141	-118.273	119.822	207.542	-30.845	100.298	186.454	-94.636	-69.058	-72.651	-120.095	-18.201	0.00035807	0.00042734	0.0001125	540.74	4.735e-07	5.6914e-06	861.95	171.26	5.3554e-06	7.6561e-06	316.84	111.75	54.666	20.297	2.6483e-06	46.385	0.00025895	0.00027774	8.335e-05	488.11	2.7337e-06	3.1179e-06	770.4	154.28	2.6921e-06	3.1472e-06	281.08	99.487	49.547	18.561	3.1699e-06	40.822	-46.831	92.591	-70.390	-112.631	75.000	60.325	-113.642	-107.777	-7.594	189.868	-108.543	-104.297	-102.758	-97.312	42.674	-100.452	-8191	255	
2170.226	1	1	0	0	0.24127	0.31627	0.26214	0.012968	0.28604	0.18252	0.30182	0.13398	0.17991	0.24318	0.021523	0.14288	0.31161	0.10119	0.25026	0.082404	-3.1146	-2.7042	-2.9583	-3.3708	-2.625	-3.3604	-3.1375	-2.7458	-3.425	-2.9854	-2.975	-3.375	-2.6875	-3.4521	-3.15	-2.7958	50.673	-28.219	-70.900	-56.026	8.445	122.370	217.752	55.653	114.266	-103.360	-39.668	121.256	-84.053	225.509	120.693	202.153	0.00041904	0.00045789	0.00013844	545.37	4.364e-06	3.6754e-06	862.41	172.53	3.6164e-06	3.3747e-06	320.6	113.15	54.743	20.59	4.9865e-06	46.5	0.00025371	0.00029407	7.7552e-05	488.77	2.7028e-06	3.2321e-06	770.6	154.96	2.7946e-06	3.2512e-06	282.33	100.78	50.042	18.836	3.0684e-06	41.033	-67.113	201.380	31.379	-112.684	-31.435	118.573	-113.227	-106.952	-32.331	-29.675	-108.999	-104.179	-102.516	-98.092	3.079	-100.215	-8191	255	
2170.321	1	1	0	0	0.12432	0.32279	0.065351	0.11454	0.16167	0.1592	0.22356	0.21277	0.15248	0.1027	0.17074	0.19707	0.25985	0.15335	0.18386	0.20189	-3.0521	-2.8187	-2.9396	-3.3521	-2.5729	-3.2812	-3.3292	-2.5708	-3.4292	-2.9458	-2.7812	-3.5604	-2.6792	-3.2104	-3.1167	-2.7583	176.527	153.377	-78.453	203.814	52.986	-125.343	135.368	206.315	-78.117	187.914	183.620	216.005	93.931	103.251	104.286	204.005	0.00032448	0.00087529	0.00027136	543.5	8.2945e-06	4.0264e-06	866.22	171.75	6.6369e-06	1.1342e-05	319.4	112.93	54.907	20.769	1.541e-06	46.933	0.00026934	0.00030046	7.6373e-05	487.18	2.9135e-06	3.2047e-06	772.51	154.39	2.9596e-06	3.2013e-06	283.23	100.51	50.365	18.89	2.9509e-06	41.361	-49.776	-0.688	-105.150	-112.458	124.209	-57.339	-113.463	-107.416	49.187	-8.558	-108.565	-104.444	-102.675	-97.443	88.376	-100.428	-8191	255	
2170.417	1	1	0	0	0.08381	0.11702	0.16563	0.14035	0.17377	0.060218	0.13115	0.28618	0.20387	0.30073	0.18908	0.038995	0.19107	0.073099	0.16958	0.028012	-3.0438	-3.0729	-2.6854	-3.3771	-2.7188	-2.975	-3.5938	-2.5854	-3.2625	-2.9437	-2.7167	-3.6854	-2.7229	-2.9625	-3.4375	-2.6917	41.990	200.995	-121.737	46.546	36.556	225.234	203.769	170.943	-57.712	85.662	59.468	227.754	-117.623	54.659	-107.276	-42.686	0.00045111	0.00018819	0.00028798	544.9	1.9463e-06	7.2751e-06	869.3	172.45	4.0959e-06	1.3016e-06	319.46	112.84	54.058	20.618	6.2442e-06	46.422	0.00028293	0.00029049	7.4071e-05	488.32	3.1454e-06	3.1421e-06	772.57	154.29	3.141e-06	3.1029e-06	280.69	99.877	49.955	18.726	2.8725e-06	41.004	-41.013	130.406	-37.788	-112.579	62.171	30.386	-113.542	-107.234	9.270	55.154	-109.204	-103.937	-102.764	-97.214	-10.873	-100.345	-8191	255	
2170.490	1	1	0	0	0.16151	0.053935	0.25261	0.24382	0.1451	0.078748	0.29489	0.033491	0.051414	0.20283	0.087841	0.096144	0.063414	0.14208	0.23584	0.42838	-3.0021	-3.0083	-2.6604	-3.4792	-2.7583	-2.9229	-3.3125	-2.5854	-3.3521	-3.0208	-2.6562	-3.6333	-2.7542	-3.0625	-3.6083	-2.6646	121.257	-19.833	-117.723	225.971	226.763	90.187	202.981	232.727	160.906	-53.855	140.406	124.859	126.285	88.390	-1.408	156.293	0.00036474	0.00049962	0.00014541	540.51	6.6433e-06	1.0049e-06	865.51	170.92	6.3879e-06	3.7968e-06	314.23	112.91	54.543	20.573	4.6027e-06	46.058	0.00029783	0.00027916	6.9879e-05	487.89	3.2081e-06	3.0652e-06	769.53	153.93	3.2142e-06	3.0388e-06	279.02	99.796	50.04	18.604	2.7259e-06	40.787	-64.256	-56.020	-73.121	-112.417	226.436	-22.408	-113.313	-106.885	11.829	-16.043	-109.500	-104.941	-103.369	-97.404	33.551	-101.323	-8191	255	
2170.609	1	1	0	0	0.17887	0.13046	0.18197	0.16077	0.24318	0.1889	0.089355	0.030615	0.13562	0.30851	0.25267	0.096074	0.18772	0.060966	0.12356	0.27711	-3.1188	-3.0542	-2.5354	-3.3958	-2.9458	-2.7979	-3.4292	-2.775	-3.2375	-3.3396	-2.625	-3.3937	-3.0458	-2.6063	-3.4417	-2.8417	116.497	-71.220	70.464	214.317	81.123	6.679	40.302	-17.639	48.242	76.988	101.495	182.211	177.321	-27.074	116.686	160.998	0.00032701	0.00088792	5.0583e-05	539.04	7.6855e-06	3.9034e-06	867.5	171.61	3.1733e-06	4.5035e-06	315.6	112.3	54.435	20.361	3.9401e-06	45.79	0.0002967	0.00027748	6.7841e-05	488.79	3.2641e-06	2.9467e-06	769.56	154.61	3.2389e-06	3.0511e-06	278.18	100.16	50.088	18.556	2.7157e-06	40.969	-77.509	-38.650	130.900	-112.803	-107.746	123.926	-113.963	-107.558	-121.996	19.856	-108.754	-103.802	-103.325	-97.617	-39.018	-100.584	-8191	255	
2170.705	1	1	0	0	0.12908	0.22389	0.21935	0.14291	0.22913	0.040313	0.12445	0.20673	0.23473	0.11981	0.17502	0.13882	0.049631	0.31883	0.14214	0.21745	-2.6188	-3.2667	-2.5167	-3.3583	-3.1417	-2.8187	-3.5854	-2.7208	-3.075	-3.5667	-2.7042	-3.2167	-3.0292	-2.7583	-3.4417	-2.7313	35.178	-36.291	-63.104	-41.043	-112.892	15.912	230.291	132.098	101.049	-24.530	38.177	28.145	-111.112	-103.339	88.484	0.224	0.0002759	0.00090087	0.00012159	545.29	7.4358e-06	3.6053e-06	862.19	172.41	7.7053e-06	3.2465e-06	314.27	112.85	54.718	20.362	1.0175e-06	46.206	0.00029509	0.00026507	6.7494e-05	488.9	3.1751e-06	2.8745e-06	769.04	155.39	3.0812e-06	2.8864e-06	279.68	100.7	50.207	18.536	2.8267e-06	41.219	-35.161	-15.079	-82.577	-113.051	15.056	70.457	-113.558	-107.946	30.322	-50.512	-108.868	-104.467	-102.996	-97.988	66.228	-100.805	-8191	255	
2170.801	1	1	0	0	0.21895	0.10619	0.090086	0.17239	0.19696	0.19229	0.23184	0.29277	0.12717	0.1525	0.059535	0.23291	0.28437	0.29619	0.1773	0.13759	-2.4708	-3.4583	-2.6208	-3.2833	-3.0958	-2.5917	-3.45	-2.8854	-2.9	-3.3833	-2.7812	-3.0958	-3.2271	-2.5396	-3.5	-3.0292	148.950	98.573	25.015	168.077	-66.656	-20.803	169.028	-78.250	-36.065	21.618	56.159	164.925	155.407	-92.393	140.830	216.024	0.0002737	0.0005084	0.00015353	538.73	7.6814e-06	5.8184e-06	867.94	171.74	6.4795e-06	3.0577e-06	314.93	111.18	54.202	20.247	1.1012e-06	46.102	0.00028689	0.00025883	7.4117e-05	488.9	3.1135e-06	2.7659e-06	772.87	154.83	2.9846e-06	2.6949e-06	279.41	99.545	49.903	18.345	2.9572e-06	40.851	-66.059	219.271	27.064	-112.919	48.292	16.797	-113.739	-107.517	50.381	-71.882	-109.479	-103.885	-103.306	-97.554	-53.923	-100.775	-8191	255	
2170.897	1	1	0	0	0.26755	0.16397	0.18258	0.39115	0.15509	0.11578	0.2888	0.086826	0.24388	0.19222	0.030345	0.1112	0.15457	0.12266	0.076753	0.24418	-2.3729	-3.3937	-2.6562	-3.1854	-3.2354	-2.5021	-3.5375	-2.9646	-2.9354	-3.5542	-2.6771	-3.1979	-3.3167	-2.6271	-3.2458	-2.9604	16.218	212.342	115.210	215.996	61.963	-50.203	171.215	73.491	57.753	99.606	103.244	167.283	30.561	223.016	-35.535	92.263	0.00032204	0.0003458	5.5792e-05	545.18	5.714e-06	8.6181e-06	863.86	168.94	6.4468e-06	6.0035e-06	313.47	111.2	53.98	19.896	1.5805e-06	45.487	0.00027098	0.00024165	7.6797e-05	488.74	2.9279e-06	2.7036e-06	771.34	154.1	2.9155e-06	2.6362e-06	279.03	98.995	49.392	18.209	3.1377e-06	40.47	-44.551	-79.552	-2.694	-112.772	34.855	64.805	-113.374	-107.095	0.389	-22.552	-109.363	-104.048	-102.902	-98.143	-61.818	-100.521	-8191	255	
2171.018	1	1	0	0	0.18976	0.063131	0.094425	0.071175	0.12977	0.1327	0.080413	0.03057	0.11838	0.067623	0.35306	0.23159	0.19568	0.34085	0.11325	0.02099	-2.2417	-3.5646	-2.8458	-2.9729	-3.3958	-2.7042	-3.3	-3.1208	-2.6396	-3.3729	-2.8479	-3.0125	-3.5854	-2.5604	-3.0646	-3.1271	91.323	-57.837	-16.121	221.469	-110.153	174.242	12.875	123.252	192.407	214.242	0.126	-59.942	203.686	179.087	-65.810	165.344	0.00038933	0.00058761	0.00033387	538.33	8.9207e-06	1.7743e-06	869.99	171.68	4.1501e-07	4.5965e-06	316.47	111.18	54.667	20.343	1.8063e-06	46.217	0.00026098	0.00024705	8.0853e-05	485.43	2.8209e-06	2.7492e-06	771.41	153.99	2.7957e-06	2.7623e-06	280.45	99.224	49.489	18.426	3.2489e-06	40.887	-46.845	231.601	-51.406	-112.613	17.465	185.947	-113.601	-107.460	14.771	91.093	-108.988	-103.984	-103.083	-97.382	225.319	-100.456	-8191	255	
2171.090	1	1	0	0	0.18814	0.068897	0.17227	0.08058	0.094859	0.21028	0.077496	0.048359	0.26348	0.23251	0.11493	0.22117	0.13676	0.17484	0.10455	0.15344	-2.1896	-3.3271	-2.7833	-2.9938	-3.4896	-2.7729	-3.3271	-3.175	-2.5979	-3.5229	-2.8292	-2.9396	-3.3708	-2.8812	-3.0625	-3.2854	-119.757	-109.518	132.115	130.871	6.178	0.243	174.459	154.574	-43.522	-117.529	87.757	230.712	30.849	41.846	233.571	39.728	0.00043055	0.00016001	0.00015418	534.99	1.7935e-06	3.8609e-06	863.27	171.65	1.8585e-06	2.9227e-06	313.16	111.61	54.119	20.343	8.5598e-06	45.959	0.000254	0.00025805	8.28e-05	485.27	2.7421e-06	2.9617e-06	771.19	154.59	2.5984e-06	2.8972e-06	279.61	99.22	49.226	18.511	3.152e-06	40.953	-57.625	30.155	2.260	-112.411	-29.422	-67.088	-113.251	-107.497	156.727	22.777	-108.365	-104.173	-102.772	-97.123	34.224	-100.627	-8191	255	
2171.186	1	1	0	0	0.26425	0.18052	0.28981	0.20978	0.11665	0.26189	0.16184	0.075203	0.19941	0.042449	0.12319	0.11421	0.082939	0.32407	0.077528	0.091042	-2.0687	-3.5021	-2.8312	-2.7542	-3.5625	-2.8917	-3.2375	-3.4292	-2.6833	-3.3958	-3.1604	-2.8563	-3.3333	-2.8167	-3.0458	-3.5708	112.428	-45.965	171.604	-124.981	-35.632	94.926	-103.594	87.326	-58.025	168.976	157.323	75.534	-29.077	-102.063	77.350	162.066	0.00031933	0.00026551	0.00021731	547.49	1.7267e-06	2.6951e-06	863.92	171.31	3.9138e-06	6.1855e-06	316.03	110.8	54.202	20.135	3.5906e-06	45.687	0.00024726	0.00028239	7.9837e-05	489.97	2.6723e-06	3.1458e-06	773.03	153.98	2.7027e-06	3.0525e-06	279.68	99.081	49.25	18.398	2.9406e-06	40.33	-46.026	47.047	-96.687	-112.420	-51.212	145.665	-113.237	-107.241	76.399	198.326	-108.840	-104.430	-103.484	-97.559	-24.856	-100.384	-8191	255	
2171.307	1	1	0	0	0.063736	0.21661	0.094491	0.16236	0.12012	0.20145	0.19966	0.099053	0.17116	0.15034	0.10907	0.1477	0.14426	0.10807	0.39111	0.17499	-2.2562	-3.3833	-3.0479	-2.5667	-3.4042	-2.9167	-2.9729	-3.4979	-2.7292	-3.3979	-3.2375	-2.7521	-3.5812	-2.9479	-2.875	-3.5812	166.381	89.107	160.924	-63.523	-5.764	-13.023	-97.648	125.094	-65.982	209.912	196.188	-2.254	179.507	39.296	-35.610	150.111	0.00032431	0.00014899	0.00016688	536.28	2.9772e-06	2.0799e-06	858.14	171.86	5.7477e-06	5.3226e-06	314.04	109.75	54.203	19.906	1.984e-06	45.268	0.00025519	0.00029355	7.654e-05	484.29	2.7422e-06	3.2594e-06	767.92	153.75	2.8608e-06	3.1909e-06	278.23	97.713	49.183	18.285	2.9458e-06	39.954	-70.022	-0.794	-62.838	-111.938	79.058	-62.739	-113.329	-107.261	-70.007	11.490	-109.095	-103.700	-103.016	-97.818	89.631	-100.857	-8191	255	
2171.401	1	1	0	0	0.067759	0.12886	0.28516	0.11092	0.098619	0.11337	0.2355	0.036553	0.1443	0.062149	0.25056	0.22258	0.30452	0.049239	0.038376	0.18416	-2.3292	-3.0458	-3.3063	-2.7188	-3.3792	-3.0354	-2.9146	-3.6229	-2.5333	-3.1479	-3.45	-2.5833	-3.3354	-3.0458	-2.6896	-3.5125	85.255	175.018	-99.460	-88.447	56.467	81.672	208.172	185.367	148.399	-25.221	220.081	109.556	-121.757	139.746	-116.680	118.409	0.00042773	0.00076355	8.924e-05	534.96	1.9442e-06	2.8897e-06	860.34	169.28	6.468e-06	3.1178e-06	312.13	110.01	53.981	19.992	5.6899e-06	45.706	0.00027064	0.00028685	7.4332e-05	482.17	2.9266e-06	3.2025e-06	767.18	152.29	3.0227e-06	3.131e-06	277.3	97.628	49.385	18.324	2.8667e-06	40.369	-34.295	8.032	-41.018	-111.974	35.778	7.006	-112.934	-107.204	38.416	39.914	-109.334	-103.796	-102.903	-97.499	71.509	-100.367	-8191	255	
2171.499	1	1	0	0	0.15989	0.31266	0.10951	0.23278	0.31411	0.084352	0.1703	0.11214	0.07075	0.1623	0.046902	0.11374	0.22683	0.21651	0.2124	0.025358	-2.2229	-2.85	-3.4958	-2.5958	-3.3604	-2.9917	-2.8083	-3.3792	-2.8583	-3.0458	-3.3542	-2.5812	-3.4938	-3.2542	-2.6042	-3.4396	-25.523	-82.371	19.109	173.085	189.102	6.650	224.375	232.694	227.512	214.710	-61.951	207.274	216.884	226.050	62.391	-78.209	0.00030598	0.00063544	6.5013e-05	539.4	4.89e-06	5.5508e-07	864.22	170.92	3.9365e-06	6.0225e-06	316.6	110.76	54.558	20.057	2.8299e-06	46.039	0.00028705	0.00027839	7.3333e-05	482.49	3.1545e-06	3.1658e-06	769.47	153.45	3.2114e-06	3.0291e-06	279.07	98.476	49.992	18.467	2.7786e-06	40.815	-68.985	-96.807	64.817	-112.231	219.995	-63.515	-113.628	-107.175	80.049	-5.491	-108.817	-104.090	-102.823	-97.140	-73.480	-100.319	-8191	255	
2171.618	1	1	0	0	0.19221	0.2968	0.19811	0.26714	0.12353	0.17878	0.073718	0.36564	0.16047	0.074204	0.23034	0.25076	0.17114	0.15752	0.30021	0.28259	-2.3417	-2.9292	-3.3896	-2.5438	-3.2292	-3.0958	-2.8833	-3.4562	-2.9396	-2.9188	-3.5917	-2.7479	-3.1792	-3.3625	-2.4729	-3.6188	160.735	-108.766	28.999	-33.448	72.929	187.218	190.202	170.225	10.969	219.406	171.550	140.412	164.566	96.887	96.184	147.766	0.00041142	0.00043413	7.1725e-05	541.23	7.3062e-06	4.1978e-06	869.65	171.76	1.398e-06	3.9694e-06	314.95	110.81	53.503	19.963	5.2869e-06	45.079	0.00031019	0.00028672	7.5302e-05	487.68	3.3933e-06	3.2864e-06	771.73	154.02	3.3646e-06	3.0897e-06	278.89	98.643	49.338	18.332	2.651e-06	40.328	-34.653	233.829	-116.812	-112.931	8.150	49.759	-113.221	-107.532	121.135	-50.229	-109.156	-104.762	-103.494	-97.353	91.720	-100.787	-8191	255	
2171.714	1	1	0	0	0.1117	0.14135	0.1332	0.26922	0.15507	0.22196	0.19834	0.083579	0.12025	0.0047674	0.36574	0.12661	0.11373	0.32777	0.1419	0.17085	-2.6437	-2.7333	-3.5146	-2.6688	-3.2271	-3.45	-2.8292	-3.5479	-2.9083	-2.8333	-3.625	-2.775	-3.1125	-3.2979	-2.7271	-3.3625	-33.738	90.337	60.549	45.719	122.026	181.074	181.015	69.052	-101.578	204.191	-123.607	-101.056	149.954	76.565	205.389	147.083	0.00029273	0.00079246	0.00021136	541.52	8.3629e-06	3.759e-06	864.81	170.21	7.4838e-06	3.0877e-06	314.82	110.07	53.576	20.014	2.8303e-06	45.238	0.00030039	0.00027517	6.944e-05	488.05	3.2405e-06	3.0429e-06	768.3	154.06	3.2632e-06	3.0663e-06	277.27	98.608	49.48	18.264	2.8691e-06	40.288	-53.999	-74.801	200.667	-113.293	4.404	82.461	-113.670	-107.587	76.258	0.967	-109.607	-104.947	-103.228	-98.052	-66.805	-100.748	-8191	255	
2171.786	1	1	0	0	0.18436	0.13659	0.087817	0.1954	0.090347	0.1529	0.1838	0.20187	0.14054	0.082292	0.15909	0.17514	0.055791	0.12423	0.20546	0.20084	-2.8021	-2.6896	-3.3583	-2.8563	-3.1208	-3.3646	-2.7042	-3.3542	-3.0854	-2.7812	-3.5292	-2.6979	-3.0646	-3.4208	-2.4083	-3.375	188.447	0.294	202.199	154.041	200.298	101.851	-74.123	-100.134	92.366	-11.281	132.610	179.476	58.324	150.049	15.658	182.954	0.00027252	0.00076515	0.00025048	538.72	6.129e-06	2.3718e-06	856.76	170.27	5.3621e-06	5.629e-06	314.37	110.14	53.973	19.895	7.4719e-06	45.921	0.00031167	0.00027869	7.4992e-05	488.96	3.3268e-06	3.0796e-06	766.06	153.97	3.4487e-06	3.1201e-06	278.05	98.758	49.531	18.256	3.2595e-06	40.755	-30.576	-51.398	-35.675	-112.901	-101.279	-44.316	-113.809	-107.510	39.018	20.460	-109.403	-104.924	-103.646	-97.756	-26.342	-100.432	-8191	255	
2171.906	1	1	0	0	0.21967	0.20279	0.049516	0.078587	0.20006	0.082597	0.17877	0.21157	0.11744	0.11419	0.10215	0.20073	0.28445	0.11192	0.12656	0.22651	-2.7979	-2.6375	-3.3208	-2.9542	-2.875	-3.3708	-2.7625	-3.2729	-3.0875	-2.8021	-3.3417	-2.9667	-2.825	-3.3688	-2.6646	-3.2167	-59.145	210.985	6.036	234.593	-100.815	220.756	-23.422	-75.310	-58.583	-1.856	-33.000	157.067	229.994	17.749	145.016	-92.308	0.00027817	0.00062676	3.357e-05	533.47	8.391e-06	9.7804e-07	863.75	169.19	4.2971e-06	2.2376e-06	311.38	109.65	53.318	20.04	2.1393e-06	45.86	0.00031983	0.00029248	8.4944e-05	484.55	3.4214e-06	3.176e-06	767.4	153.4	3.4283e-06	3.0148e-06	278.07	98.167	49.061	18.327	3.3801e-06	40.728	-51.893	-17.056	-64.955	-112.937	90.384	122.660	-113.654	-107.297	41.568	10.305	-109.149	-104.770	-103.078	-97.779	30.359	-100.448	-8191	255	
2172.002	1	1	0	0	0.089735	0.15808	0.18387	0.11633	0.15026	0.32621	0.022408	0.19567	0.15023	0.16918	0.14752	0.26002	0.15848	0.049782	0.25944	0.097151	-2.7104	-2.6125	-3.2375	-3.0083	-2.6792	-3.4042	-2.8708	-3.0354	-3.2833	-2.7729	-3.4813	-2.9938	-2.6354	-3.4646	-2.6833	-2.9958	207.693	131.487	-116.179	215.497	-25.923	60.449	140.031	2.766	-23.177	123.349	-25.344	137.003	56.080	142.036	107.409	142.285	0.00042069	0.00041558	1.8817e-05	528.48	5.6515e-06	7.199e-06	854.4	169.99	2.9231e-06	4.686e-06	310.11	109.03	53.306	19.67	4.9516e-06	44.889	0.00031307	0.0002789	9.0317e-05	482.81	3.3186e-06	3.1526e-06	767.03	153.31	3.3947e-06	3.1572e-06	278.49	98.174	48.915	18.1	3.7799e-06	40.128	-46.135	35.713	-38.063	-112.579	-25.958	-40.344	-113.380	-107.595	63.455	55.211	-109.161	-104.663	-102.553	-97.814	25.601	-100.313	-8191	255	
2172.098	1	1	0	0	0.26276	0.13157	0.057035	0.13349	0.23779	0.11659	0.30119	0.067207	0.24251	0.15577	0.13532	0.1387	0.1406	0.21694	0.13826	0.19423	-2.8438	-2.4792	-3.1521	-3.2292	-2.5958	-3.4479	-2.8042	-2.8792	-3.3917	-2.6167	-3.3042	-3.2771	-2.4375	-3.3375	-2.9146	-2.9667	1.012	5.719	-110.540	70.509	-56.456	197.687	198.799	-107.487	-3.981	98.848	172.366	178.239	-74.545	-12.557	208.083	153.139	0.00029262	0.0003543	0.00011054	524.79	7.845e-06	9.8521e-07	857.67	166.06	5.9599e-07	3.9409e-06	311.68	108.12	52.408	19.624	4.4478e-06	44.592	0.0003088	0.00029635	9.6367e-05	478.76	3.2195e-06	3.4062e-06	763.96	151.16	3.3551e-06	3.3683e-06	276.2	96.607	48.222	18.069	3.7047e-06	39.816	-43.870	6.045	-51.231	-112.732	2.935	149.157	-113.650	-107.530	-29.505	-46.186	-108.362	-104.476	-103.427	-97.307	49.574	-100.457	-8191	255	
2172.195	1	1	0	0	0.15254	0.048985	0.12435	0.080479	0.20479	0.15192	0.063718	0.18841	0.12892	0.20682	0.11202	0.12268	0.21223	0.15154	0.073945	0.18644	-3.0333	-2.675	-3.2604	-3.1875	-2.6875	-3.4562	-3.175	-2.9292	-3.2271	-2.6375	-3.2583	-3.2917	-2.7021	-3.3208	-2.9604	-2.8292	-6.236	3.651	-80.532	112.417	198.730	54.240	-75.784	202.299	159.884	101.252	-121.498	148.575	211.378	232.610	4.049	192.502	0.00030376	0.00025886	0.00012208	526.26	5.7104e-06	3.9788e-06	846.39	165.7	2.8011e-06	2.8953e-06	308.05	108.01	51.96	19.721	6.5529e-06	44.988	0.00029238	0.00031056	9.4288e-05	478.39	2.9959e-06	3.4571e-06	759.46	150.32	3.1648e-06	3.5091e-06	275.45	96.237	47.943	18.141	3.6988e-06	39.985	-39.731	215.115	159.692	-113.126	72.866	-71.148	-113.546	-107.431	74.741	53.558	-108.926	-104.461	-102.754	-97.889	72.055	-100.112	-8191	255	
2172.291	1	1	0	0	0.01903	0.10523	0.19336	0.30756	0.13082	0.042509	0.3637	0.060057	0.113	0.20466	0.13949	0.17041	0.065632	0.16796	0.2324	0.12612	-3.2854	-2.6833	-2.8854	-3.3875	-2.7021	-3.3667	-3.2479	-2.7458	-3.6125	-2.8187	-3.1167	-3.4583	-2.4479	-3.35	-3.1771	-2.7042	135.706	-1.311	-71.888	195.788	182.912	230.637	164.268	-120.111	-56.124	-60.707	168.699	-97.759	179.333	-108.963	35.561	226.870	0.00033099	0.00041876	0.00017375	526.22	2.1242e-06	6.3931e-06	848.07	165.39	4.5918e-06	3.6759e-06	308.84	107.95	52.17	19.657	6.7754e-06	45.204	0.00029632	0.00033904	9.2446e-05	476.92	3.0875e-06	3.7589e-06	761.46	150.65	3.148e-06	3.6237e-06	275.63	96.631	47.98	18.236	3.4857e-06	40.011	-41.893	-11.219	12.242	-112.908	20.112	46.917	-113.386	-107.521	41.597	71.909	-109.348	-104.428	-103.210	-97.351	78.317	-100.152	-8191	255	
2172.385	1	1	0	0	0.16585	0.12249	0.12596	0.18642	0.10596	0.1639	0.19735	0.086506	0.20565	0.17747	0.18929	0.10839	0.24857	0.019122	0.096899	0.38207	-3.0354	-2.9417	-3.0042	-3.1937	-2.5292	-3.3583	-3.1437	-2.6354	-3.2729	-2.9229	-3.0021	-3.4813	-2.7167	-3.2354	-3.2042	-2.5104	-103.535	230.764	76.422	-110.794	-44.353	-5.141	218.731	227.771	-19.190	-97.934	165.374	-14.685	-45.905	178.106	-23.378	161.430	0.00029883	0.00059354	0.00012508	523.71	5.0343e-06	4.6661e-06	851.93	166.32	8.9917e-07	1.0926e-06	309.37	108.31	51.919	19.583	1.1268e-05	44.717	0.00030606	0.00034108	8.8541e-05	476.15	3.3448e-06	3.8498e-06	762.82	150.27	3.5165e-06	3.888e-06	274.88	96.335	48.3	18.136	3.6044e-06	39.794	-50.182	-31.081	166.145	-112.207	113.998	39.849	-113.161	-107.238	85.581	87.262	-109.231	-104.563	-103.278	-97.613	38.674	-100.147	-8191	255	
2172.481	1	1	0	0	0.10956	0.13385	0.14454	0.16744	0.097568	0.26558	0.29132	0.12688	0.1907	0.27371	0.15029	0.19542	0.14736	0.13436	0.074173	0.13551	-2.8979	-2.8479	-2.8812	-3.4229	-2.8458	-3.0958	-3.3417	-2.5667	-3.3646	-3.1708	-2.6604	-3.5563	-2.8458	-3.0187	-3.3792	-2.7042	71.004	198.103	-63.300	17.368	-17.490	81.431	169.239	-97.217	-61.851	217.584	122.857	112.772	200.170	-17.972	-124.977	124.712	0.00042689	0.0006617	0.00025219	523.59	9.5494e-06	1.9832e-06	846.79	165.5	1.5486e-06	3.2474e-06	304.97	106.91	51.385	19.526	4.4919e-06	44.338	0.00033937	0.00034841	8.8969e-05	474.42	3.6476e-06	3.8165e-06	757.63	149.99	3.7086e-06	3.7787e-06	272.37	95.485	48.055	17.988	3.3929e-06	39.605	-37.537	-78.156	-34.777	-112.462	-28.436	76.591	-113.083	-107.514	179.539	170.857	-108.538	-104.291	-102.853	-97.902	51.017	-100.295	-8191	255	
2172.579	1	1	0	0	0.1721	0.19373	0.31372	0.089083	0.057299	0.019411	0.30532	0.21601	0.16484	0.16391	0.13552	0.21077	0.059989	0.16863	0.12096	0.10576	-3.0271	-2.8958	-2.6479	-3.5563	-2.6042	-2.9437	-3.5417	-2.4979	-3.1354	-3.2292	-2.7438	-3.45	-2.9208	-3.0604	-3.4562	-2.7	190.466	230.166	65.035	182.660	95.171	67.065	183.803	-112.379	-40.284	81.282	-49.143	194.737	49.672	-121.942	166.391	-70.595	0.00030653	0.00033294	9.4968e-05	520.62	6.5659e-06	2.8172e-06	840.51	164.68	3.4439e-06	3.8712e-06	307.59	107.93	51.806	19.422	2.8574e-06	44.74	0.00034348	0.00033187	8.5325e-05	472.63	3.7509e-06	3.6091e-06	754.51	149.72	3.8012e-06	3.6048e-06	273.02	96.121	48.203	17.952	3.1855e-06	39.838	-31.445	-12.792	13.647	-112.866	-39.554	-57.428	-113.908	-107.246	25.872	-23.903	-109.492	-104.248	-103.609	-97.492	-27.443	-100.334	-8191	255	
2172.698	1	1	0	0	0.20976	0.21819	0.063606	0.067173	0.15515	0.1397	0.14494	0.16591	0.18309	0.16827	0.068357	0.054443	0.11605	0.29985	0.20241	0.11677	-2.7812	-3.25	-2.7562	-3.3458	-3.05	-2.8125	-3.5292	-2.7062	-3.1479	-3.3417	-2.6646	-3.5563	-3.0521	-2.7042	-3.4125	-2.6688	169.522	46.170	-10.233	141.320	225.818	-56.281	117.660	31.164	62.225	155.258	212.357	184.645	100.522	178.009	-118.719	-105.273	0.00031015	0.00097413	9.594e-05	521.16	6.0392e-06	4.4903e-06	848.54	164.28	5.7508e-06	2.828e-06	309.68	107.54	52.326	19.851	6.777e-06	44.944	0.00034473	0.0003199	7.8581e-05	475.19	3.7753e-06	3.4026e-06	755.8	149.88	3.6082e-06	3.3714e-06	272.88	96.501	48.6	18.194	3.014e-06	40.345	-50.684	-83.779	-37.501	-112.354	181.508	-58.340	-113.830	-107.908	77.851	81.526	-109.018	-104.085	-103.150	-97.743	-35.394	-100.243	-8191	255	
2172.794	1	1	0	0	0.17997	0.2118	0.20718	0.2842	0.042262	0.2274	0.096181	0.16165	0.089481	0.15186	0.13656	0.12051	0.028335	0.29641	0.041687	0.35946	-2.6458	-3.5312	-2.4208	-3.6188	-2.9229	-2.7562	-3.5854	-2.7646	-3.025	-3.4625	-2.6104	-3.2708	-3.0229	-2.6458	-3.375	-3.0167	163.485	-109.154	-15.520	187.248	41.831	219.308	200.714	-54.376	-68.843	191.934	88.873	205.046	170.741	-111.930	99.535	-88.714	0.00029533	0.00031849	0.00028243	522.2	9.2835e-06	1.6806e-06	850.77	165.01	2.098e-06	4.6609e-06	307.78	108.27	51.8	19.729	3.2941e-06	45.353	0.00032818	0.00030788	7.6458e-05	474.89	3.5495e-06	3.3285e-06	759.03	150.36	3.4588e-06	3.3355e-06	273.52	96.738	48.186	18.041	3.1236e-06	40.312	-42.370	-48.714	-80.083	-112.626	-119.128	146.224	-113.198	-107.769	-58.899	60.982	-108.976	-104.400	-103.150	-97.759	-61.730	-100.384	-8191	255	
2172.890	1	1	0	0	0.16714	0.064571	0.065891	0.20343	0.1756	0.17768	0.092351	0.27674	0.23872	0.076701	0.033113	0.25167	0.13836	0.092888	0.097792	0.052116	-2.4875	-3.2396	-2.6063	-3.4021	-2.9271	-2.7313	-3.4708	-2.8583	-2.9333	-3.3271	-2.5896	-3.2667	-3.0708	-2.6375	-3.3688	-2.9354	210.931	148.373	-86.023	175.589	221.503	30.941	211.860	174.068	221.508	171.432	-14.830	162.967	-56.976	-30.798	147.686	177.362	0.00018251	0.00031967	0.00014951	521.03	5.3518e-06	3.0116e-06	847.71	165.16	6.6995e-07	4.2504e-06	305.26	106.13	51.853	19.376	2.38e-06	44.648	0.00031824	0.00029833	8.1267e-05	474.58	3.4543e-06	3.2412e-06	757.47	150.06	3.432e-06	3.1864e-06	272	95.545	47.639	17.734	3.2037e-06	39.683	-63.349	72.822	11.249	-112.612	0.908	49.359	-113.602	-107.303	78.085	5.050	-108.594	-104.618	-103.575	-97.952	24.437	-100.524	-8191	255	
2172.987	1	1	0	0	0.16415	0.067089	0.04741	0.31017	0.18225	0.33873	0.18759	0.16906	0.10943	0.15239	0.099032	0.26631	0.18057	0.090779	0.22759	0.21086	-2.4417	-3.0375	-2.6562	-3.2896	-3.3167	-2.6917	-3.55	-3.0375	-2.6208	-3.4208	-2.7604	-3.0979	-3.3021	-2.4875	-3.4708	-3.1292	81.204	177.007	-49.528	-80.181	128.141	43.135	116.587	53.377	192.227	-31.613	-87.964	36.087	-91.417	-3.024	-102.992	122.453	0.00039086	4.2573e-05	0.00015181	514.39	4.2097e-06	3.8252e-06	844.27	165.18	7.909e-06	8.3765e-06	306.19	107.25	51.378	19.626	5.4305e-06	44.545	0.0003024	0.00027207	8.3566e-05	469.89	3.2936e-06	2.9518e-06	756.17	149.58	3.2448e-06	2.9663e-06	273.68	96.328	47.893	17.885	3.4434e-06	40.013	-40.065	193.005	190.396	-112.770	106.664	5.151	-113.346	-107.724	-7.409	41.498	-108.969	-104.255	-102.977	-97.619	31.960	-100.338	-8191	255	
2173.083	1	1	0	0	0.10352	0.2604	0.14073	0.12233	0.19932	0.17683	0.13731	0.17685	0.21052	0.26032	0.052146	0.29066	0.15395	0.059908	0.032313	0.23126	-2.3458	-3.3	-2.7354	-3.0708	-3.2438	-2.5021	-3.4042	-3.1875	-2.6458	-3.5187	-2.8917	-3.0354	-3.2896	-2.7583	-3.1813	-3.1604	132.133	62.839	151.341	-34.797	185.877	124.644	211.008	198.633	6.404	202.151	-83.590	159.255	-13.049	213.257	177.594	117.565	0.00028887	0.0004244	0.00019877	520.26	5.7992e-06	3.0691e-06	848.21	165.66	3.1714e-06	5.7557e-06	310.42	108.84	52.023	19.759	5.2366e-06	45.188	0.00029862	0.00027462	8.8758e-05	473.49	3.1924e-06	2.9958e-06	758.72	150.04	3.0769e-06	3.009e-06	275.74	97.025	47.94	18.033	3.5282e-06	40.518	-19.849	140.928	-80.837	-113.015	-35.527	-72.671	-113.488	-106.953	113.805	-16.841	-109.057	-104.028	-103.318	-97.712	7.556	-100.431	-8191	255	
2173.179	1	1	0	0	0.30718	0.18823	0.047375	0.061119	0.1239	0.088282	0.14696	0.17256	0.19486	0.24503	0.097933	0.15031	0.29089	0.099712	0.2244	0.29385	-2.1104	-3.4333	-2.9396	-2.8187	-3.4583	-2.5958	-3.3063	-3.3708	-2.6146	-3.4208	-3.0563	-3.0375	-3.5979	-2.8333	-3.0333	-3.2188	114.768	-12.254	29.615	205.418	178.352	9.816	184.994	97.681	-41.839	-116.199	98.695	126.304	179.672	159.668	87.891	-118.246	0.00037033	0.00048754	0.00021449	525.64	3.8762e-06	2.8811e-06	848.54	165.36	1.9618e-06	5.0699e-06	309.92	107.32	52.092	19.526	3.0532e-06	44.825	0.00028356	0.00029048	9.1358e-05	474.67	3.0435e-06	3.219e-06	761.46	149.93	2.9723e-06	3.2853e-06	275.94	96.411	47.958	18.001	3.5338e-06	39.953	-38.937	-51.458	31.652	-112.354	80.416	88.266	-113.084	-107.406	94.695	225.084	-109.146	-104.451	-103.642	-97.896	18.805	-100.860	-8191	255	
2173.299	1	1	0	0	0.065039	0.24454	0.24752	0.085091	0.17	0.16181	0.20628	0.11984	0.084881	0.12545	0.19661	0.20561	0.16442	0.1047	0.18128	0.15499	-2.1771	-3.3125	-3.0979	-2.775	-3.4813	-2.7438	-3.0812	-3.3146	-2.4833	-3.375	-2.9646	-2.7146	-3.4354	-2.7354	-3.0708	-3.5208	115.647	-54.087	38.844	152.091	-44.214	55.941	166.566	84.183	152.164	-31.111	-49.139	159.967	141.805	51.637	220.163	-67.550	0.00031994	0.00033691	1.9145e-05	517.95	7.5593e-06	1.4036e-06	854.68	164.89	4.9077e-06	2.0653e-06	307.09	107.77	52.044	19.56	5.7245e-06	44.829	0.00027644	0.00030645	9.1552e-05	471.41	2.944e-06	3.5193e-06	765.28	149.66	2.9724e-06	3.4361e-06	275.62	96.486	47.677	18.031	3.3455e-06	39.845	-27.892	-13.791	-0.831	-112.322	200.424	-68.695	-113.533	-107.621	106.428	119.869	-109.166	-104.397	-103.386	-97.398	20.363	-100.366	-8191	255	
2173.394	1	1	0	0	0.18899	0.077658	0.2335	0.062743	0.21821	0.17144	0.14033	0.081324	0.1433	0.13767	0.28576	0.11534	0.10059	0.12629	0.062997	0.11912	-2.2208	-3.3646	-3.2458	-2.9042	-3.5042	-2.9375	-3.15	-3.3312	-2.5333	-3.1542	-3.1437	-2.7292	-3.5	-2.8271	-2.8583	-3.6604	68.852	77.524	-64.459	173.299	112.333	-30.837	161.449	72.191	-22.944	-34.734	183.923	-119.821	-114.057	-53.311	133.620	124.095	0.00035911	0.00013495	0.0001177	526.53	5.6317e-06	4.3848e-06	857.47	165.47	3.1756e-07	4.7958e-06	309.45	108.9	52.661	19.732	3.221e-06	45.389	0.0002765	0.00031822	8.6452e-05	473.78	3.0115e-06	3.6137e-06	764.5	150.22	3.112e-06	3.5652e-06	275.62	97.233	48.298	18.248	3.3294e-06	40.307	-53.760	7.064	-63.282	-112.743	27.120	152.758	-113.502	-107.633	-81.213	55.813	-109.509	-104.653	-103.065	-97.991	30.964	-100.676	-8191	255	
2173.490	1	1	0	0	0.25072	0.18661	0.20052	0.12883	0.11336	0.055536	0.16157	0.21971	0.11078	0.058014	0.32115	0.15049	0.17067	0.15773	0.14202	0.38663	-2.3875	-3.1583	-3.2146	-2.6937	-3.4021	-2.8854	-2.9021	-3.4021	-2.575	-3.2646	-3.1042	-2.8312	-3.3854	-2.9771	-2.8583	-3.3833	115.364	0.398	220.232	0.266	-10.837	155.737	205.151	-110.668	25.172	68.358	165.649	129.810	217.003	145.222	205.156	147.598	0.00030295	0.00044365	0.00020902	523.93	3.3256e-06	4.7316e-06	859.33	167.07	2.1382e-06	9.666e-06	312.15	108.63	52.199	19.938	4.3197e-06	45.62	0.00030804	0.00033929	8.7327e-05	473.98	3.4003e-06	3.7501e-06	767.32	150.71	3.4748e-06	3.7863e-06	277.5	97.208	48.639	18.369	3.4832e-06	40.504	-20.860	-103.063	-25.080	-112.882	-89.166	36.290	-113.093	-107.409	-5.292	74.321	-109.260	-104.623	-102.918	-97.415	39.405	-99.521	-8191	255	
2173.586	1	1	0	0	0.11687	0.066447	0.11191	0.25981	0.23137	0.062407	0.11337	0.16654	0.062173	0.18508	0.15027	0.3262	0.31328	0.11542	0.092571	0.25877	-2.4542	-3.2542	-3.3688	-2.525	-3.2167	-3.0729	-2.7292	-3.4437	-2.6208	-2.9792	-3.2354	-2.7917	-3.4	-2.9813	-2.5875	-3.525	118.650	-48.255	80.569	-111.773	-80.254	41.896	-49.440	47.272	-38.446	148.128	190.206	200.779	221.107	-118.660	46.334	77.194	0.00036678	0.00010336	0.00017332	525.28	9.2524e-06	1.6204e-06	858.57	166.6	3.501e-06	5.3883e-06	313.89	109.18	52.252	19.454	4.3242e-06	45.018	0.00034	0.00033763	8.8701e-05	474.36	3.6973e-06	3.6946e-06	765.71	150.3	3.6949e-06	3.5258e-06	276.26	97.178	48.693	18.083	3.2124e-06	40.113	-56.612	27.745	-12.496	-112.607	16.593	229.779	-113.225	-107.177	116.143	-18.194	-109.015	-104.520	-102.793	-97.266	67.086	-100.588	-8191	255	
2173.682	1	1	0	0	0.17167	0.22918	0.16748	0.117	0.20501	0.22981	0.11062	0.1649	0.063201	0.05092	0.12092	0.34447	0.14467	0.26583	0.09154	0.33599	-2.4229	-2.8771	-3.375	-2.4542	-3.2917	-2.9062	-2.6458	-3.6417	-2.7896	-2.7938	-3.4313	-2.525	-3.2146	-3.0521	-2.4667	-3.5104	64.558	-65.557	47.031	70.140	-31.046	-64.556	-100.294	201.907	93.148	-121.719	-25.297	154.807	-15.836	194.268	159.911	171.487	0.00028197	0.0011014	0.0003373	528.96	1.1093e-05	1.6202e-06	852.81	165.06	4.3582e-06	7.6504e-06	309.73	108.24	51.736	19.274	4.3514e-06	44.826	0.00034388	0.00032039	8.3164e-05	476.83	3.744e-06	3.5621e-06	764.26	149.92	3.7407e-06	3.5593e-06	275.04	96.782	48.419	17.923	3.0906e-06	40.129	-59.392	-93.441	-87.098	-112.566	-119.173	54.779	-113.321	-107.568	81.903	-5.127	-108.989	-104.519	-102.847	-97.837	34.644	-99.908	-8191	255	
#DATA ENDS
