BOXY.EXE: ISS Imagent and Oximeter Data Acquisition Program Version 0.80
Ascii Record File

#ACQ INFORMATION
2  Detector Channels 
16  External MUX Channels 
1  Auxiliary Channels 
5000  Waveform (CCF) Frequency (Hz)
1  Waveforms Skipped 
30  Waveforms Averaged 
1  Cycles Averaged 
16  Acquisitions per Waveform 
10.0806  Updata Rate (Hz) 

#FILE INFORMATION
TRUE -- External MUX Channel results are PARSED.
FALSE -- AC DC and Phase are NOT grouped.
TRUE -- Companion Program Settings File CREATED.
FALSE -- AC data not excluded
FALSE -- DC data not excluded
FALSE -- Phase data not excluded
FALSE -- Auxillary Chn. data not excluded
Tab delimiters

#CALIBRATION STATE
TRUE -- Waveform Calibration Values APPLIED.


#AUX CALIBRATION VALUES
Val Type	aux-1	

Term	1.0000e+00	
Factor	0.0000e+00	


#WF CALIBRATION VALUES
A = Detector Channel
Val Type	A-AC1	A-AC2	A-AC3	A-AC4	A-AC5	A-AC6	A-AC7	A-AC8	A-AC9	A-AC10	A-AC11	A-AC12	A-AC13	A-AC14	A-AC15	A-AC16	A-DC1	A-DC2	A-DC3	A-DC4	A-DC5	A-DC6	A-DC7	A-DC8	A-DC9	A-DC10	A-DC11	A-DC12	A-DC13	A-DC14	A-DC15	A-DC16	A-Ph1	A-Ph2	A-Ph3	A-Ph4	A-Ph5	A-Ph6	A-Ph7	A-Ph8	A-Ph9	A-Ph10	A-Ph11	A-Ph12	A-Ph13	A-Ph14	A-Ph15	A-Ph16	

Term	0.00000e+00	0.00000e+00	0.00000e+00	0.00000e+00	0.00000e+00	0.00000e+00	0.00000e+00	0.00000e+00	0.00000e+00	0.00000e+00	0.00000e+00	0.00000e+00	0.00000e+00	0.00000e+00	0.00000e+00	0.00000e+00	0.00000e+00	0.00000e+00	0.00000e+00	0.00000e+00	0.00000e+00	0.00000e+00	0.00000e+00	0.00000e+00	0.00000e+00	0.00000e+00	0.00000e+00	0.00000e+00	0.00000e+00	0.00000e+00	0.00000e+00	0.00000e+00	0.00000e+00	0.00000e+00	0.00000e+00	0.00000e+00	0.00000e+00	0.00000e+00	0.00000e+00	0.00000e+00	0.00000e+00	0.00000e+00	0.00000e+00	0.00000e+00	0.00000e+00	0.00000e+00	0.00000e+00	0.00000e+00	
Factor	1.00000e+00	1.00000e+00	1.00000e+00	1.00000e+00	1.00000e+00	1.00000e+00	1.00000e+00	1.00000e+00	1.00000e+00	1.00000e+00	1.00000e+00	1.00000e+00	1.00000e+00	1.00000e+00	1.00000e+00	1.00000e+00	1.00000e+00	1.00000e+00	1.00000e+00	1.00000e+00	1.00000e+00	1.00000e+00	1.00000e+00	1.00000e+00	1.00000e+00	1.00000e+00	1.00000e+00	1.00000e+00	1.00000e+00	1.00000e+00	1.00000e+00	1.00000e+00	X	X	X	X	X	X	X	X	X	X	X	X	X	X	X	X	

B = Detector Channel
Val Type	B-AC1	B-AC2	B-AC3	B-AC4	B-AC5	B-AC6	B-AC7	B-AC8	B-AC9	B-AC10	B-AC11	B-AC12	B-AC13	B-AC14	B-AC15	B-AC16	B-DC1	B-DC2	B-DC3	B-DC4	B-DC5	B-DC6	B-DC7	B-DC8	B-DC9	B-DC10	B-DC11	B-DC12	B-DC13	B-DC14	B-DC15	B-DC16	B-Ph1	B-Ph2	B-Ph3	B-Ph4	B-Ph5	B-Ph6	B-Ph7	B-Ph8	B-Ph9	B-Ph10	B-Ph11	B-Ph12	B-Ph13	B-Ph14	B-Ph15	B-Ph16	

Term	0.00000e+00	0.00000e+00	0.00000e+00	0.00000e+00	0.00000e+00	0.00000e+00	0.00000e+00	0.00000e+00	0.00000e+00	0.00000e+00	0.00000e+00	0.00000e+00	0.00000e+00	0.00000e+00	0.00000e+00	0.00000e+00	0.00000e+00	0.00000e+00	0.00000e+00	0.00000e+00	0.00000e+00	0.00000e+00	0.00000e+00	0.00000e+00	0.00000e+00	0.00000e+00	0.00000e+00	0.00000e+00	0.00000e+00	0.00000e+00	0.00000e+00	0.00000e+00	-2.07275e+01	-1.32847e+02	-1.52787e+02	-1.83875e+02	-6.77554e+01	-5.54330e+01	-1.56919e+02	-1.62015e+02	-3.22664e+01	-7.99954e+01	-1.74562e+02	-1.70840e+02	-1.80437e+02	-1.77427e+02	-6.96928e+01	-1.50391e+02	
Factor	2.96057e-05	1.28999e-04	4.41538e-05	1.97066e-01	1.45415e-06	1.07368e-06	1.67062e-01	5.22067e-02	1.19540e-06	1.26644e-06	1.23098e-01	2.98311e-02	3.04790e-02	9.88491e-03	1.28029e-06	1.43348e-02	1.34528e-06	1.40145e-06	3.88201e-07	9.80757e-02	1.52263e-08	1.53501e-08	7.86761e-02	2.62170e-02	1.51695e-08	1.52930e-08	5.81304e-02	1.43474e-02	1.50814e-02	4.92209e-03	1.51770e-08	6.84804e-03	X	X	X	X	X	X	X	X	X	X	X	X	X	X	X	X	



#DISTANCE SETTINGS
A = Detector Channel
A-1	A-2	A-3	A-4	A-5	A-6	A-7	A-8	A-9	A-10	A-11	A-12	A-13	A-14	A-15	A-16	

2.5000e+00	3.0000e+00	2.5000e+00	3.0000e+00	2.0000e+00	3.0000e+00	1.5000e+00	3.0000e+00	3.0000e+00	3.0000e+00	3.0000e+00	3.0000e+00	3.0000e+00	3.0000e+00	1.5000e+00	3.0000e+00	

B = Detector Channel
B-1	B-2	B-3	B-4	B-5	B-6	B-7	B-8	B-9	B-10	B-11	B-12	B-13	B-14	B-15	B-16	

1.0000e+01	1.0000e+01	1.0000e+01	1.4400e+00	1.0000e+01	1.0000e+01	1.5100e+00	1.9400e+00	1.0000e+01	1.0000e+01	1.9900e+00	2.4900e+00	2.4100e+00	2.9000e+00	1.0000e+01	2.9800e+00	




#DATA BEGINS
time	group	step	mark	flag	A-AC1	A-AC2	A-AC3	A-AC4	A-AC5	A-AC6	A-AC7	A-AC8	A-AC9	A-AC10	A-AC11	A-AC12	A-AC13	A-AC14	A-AC15	A-AC16	A-DC1	A-DC2	A-DC3	A-DC4	A-DC5	A-DC6	A-DC7	A-DC8	A-DC9	A-DC10	A-DC11	A-DC12	A-DC13	A-DC14	A-DC15	A-DC16	A-Ph1	A-Ph2	A-Ph3	A-Ph4	A-Ph5	A-Ph6	A-Ph7	A-Ph8	A-Ph9	A-Ph10	A-Ph11	A-Ph12	A-Ph13	A-Ph14	A-Ph15	A-Ph16	B-AC1	B-AC2	B-AC3	B-AC4	B-AC5	B-AC6	B-AC7	B-AC8	B-AC9	B-AC10	B-AC11	B-AC12	B-AC13	B-AC14	B-AC15	B-AC16	B-DC1	B-DC2	B-DC3	B-DC4	B-DC5	B-DC6	B-DC7	B-DC8	B-DC9	B-DC10	B-DC11	B-DC12	B-DC13	B-DC14	B-DC15	B-DC16	B-Ph1	B-Ph2	B-Ph3	B-Ph4	B-Ph5	B-Ph6	B-Ph7	B-Ph8	B-Ph9	B-Ph10	B-Ph11	B-Ph12	B-Ph13	B-Ph14	B-Ph15	B-Ph16	aux-1	digaux	

3123.302	1	1	0	512	0.10058	0.05719	0.22603	0.12442	0.30467	0.17821	0.15871	0.19147	0.1598	0.060826	0.28636	0.17326	0.071798	0.062415	0.10031	0.15471	-2.9583	-2.9771	-2.7188	-3.5333	-2.7479	-3.0687	-3.4354	-2.6479	-3.3792	-3.1083	-2.7646	-3.6292	-2.8937	-3.1042	-3.3187	-2.6063	24.653	-103.779	-82.954	217.177	48.414	35.180	121.716	-94.771	224.528	-68.786	-113.847	-96.169	-98.433	-42.910	30.268	163.802	0.00022487	0.0023275	0.0010112	936.7	2.1998e-05	1.3184e-05	989.58	400.43	6.3585e-06	1.8873e-05	396.33	165.36	172.57	80.233	2.5155e-05	72.797	0.0042442	0.0042621	0.0010616	1064.7	4.8307e-05	4.5182e-05	1060.8	413.3	4.7881e-05	4.5452e-05	483.18	180.34	192.98	81.909	4.1782e-05	80.492	-37.086	4.473	-123.540	-114.321	194.960	29.862	-116.222	-108.791	191.580	65.437	-111.923	-108.437	-105.512	-100.212	74.727	-105.177	-8191	255	
3123.398	1	1	0	0	0.24543	0.26889	0.27958	0.1715	0.068736	0.33396	0.15632	0.1802	0.069251	0.10468	0.022924	0.39362	0.13212	0.076767	0.10785	0.168	-2.5938	-3.1583	-2.7021	-3.5208	-2.8458	-2.9813	-3.4208	-2.7667	-3.0292	-3.1104	-2.6875	-3.7062	-2.9938	-3.0375	-3.4646	-2.8625	167.738	104.492	-110.200	199.898	-99.872	-17.869	175.970	166.649	152.817	124.100	163.783	205.899	181.191	121.780	82.495	-78.612	0.00061149	0.0023604	0.00032932	933.59	3.649e-05	1.2536e-05	998.65	400.59	2.6631e-05	4.8883e-06	402	166.8	175.34	80.936	1.0734e-05	73.758	0.0042114	0.0040618	0.0010241	1076.6	4.7667e-05	4.336e-05	1058.7	417.81	4.6603e-05	4.3905e-05	481.94	184.09	193.58	82.028	4.1204e-05	82.606	24.889	105.136	123.194	-114.171	110.776	230.714	-116.407	-108.984	8.362	-99.965	-112.503	-108.374	-105.089	-99.959	119.438	-105.388	-8191	255	
3123.495	1	1	0	0	0.13309	0.30746	0.18239	0.095396	0.071607	0.23832	0.22002	0.26425	0.11941	0.041221	0.22015	0.12319	0.05717	0.12903	0.24415	0.034617	-2.7729	-3.3604	-2.4	-3.5083	-2.9917	-2.6688	-3.5146	-2.7833	-2.9688	-3.2917	-2.6813	-3.3583	-3.2708	-2.8292	-3.3479	-2.7146	-29.911	114.358	-107.665	176.744	209.087	-72.131	186.638	159.534	141.561	-115.345	51.201	171.646	228.390	213.905	-7.583	205.980	0.00043221	0.0021071	0.00037027	935.52	9.7395e-06	8.8579e-06	993.9	398.98	4.0544e-05	4.0801e-05	399.47	166.14	177.18	81.243	3.3377e-06	73.828	0.00405	0.0039855	0.001024	1092.5	4.6221e-05	4.1928e-05	1063.6	422.63	4.4543e-05	4.298e-05	485.8	184.62	191.74	81.496	4.2486e-05	82.95	19.775	-12.342	-2.847	-114.072	72.028	83.858	-116.535	-108.847	38.927	-27.035	-111.786	-108.199	-105.227	-100.207	-104.110	-105.027	-8191	255	
3123.591	1	1	0	0	0.19261	0.041095	0.041687	0.35312	0.055152	0.02104	0.14377	0.26271	0.10518	0.17067	0.28978	0.12159	0.3688	0.1475	0.28489	0.067735	-2.5833	-3.3375	-2.6021	-3.3604	-3.0667	-2.5625	-3.5563	-3.0167	-2.8792	-3.3021	-2.7604	-3.1854	-3.2188	-2.7479	-3.3208	-2.7458	152.981	-103.894	-4.323	135.060	-79.870	-0.744	90.244	231.157	48.877	151.979	128.926	189.999	185.398	150.873	-13.887	-24.823	0.00015591	0.00085475	0.00084647	935.29	2.6443e-05	1.5477e-06	991.52	398.42	2.9779e-05	1.9044e-05	397.12	167.84	174.74	80.711	1.6163e-05	73.072	0.0038938	0.0038697	0.0010703	1095.9	4.4283e-05	4.0472e-05	1066.3	421.27	4.2652e-05	4.1509e-05	494.79	184.51	189.43	80.922	4.4404e-05	82.555	-92.739	-52.108	176.337	-113.615	97.166	-62.521	-115.783	-108.828	163.572	37.772	-112.556	-108.445	-105.335	-100.293	137.276	-105.338	-8191	255	
3123.687	1	1	0	0	0.10263	0.18494	0.078669	0.1188	0.015353	0.12928	0.34574	0.435	0.19903	0.18089	0.13511	0.2047	0.12619	0.27477	0.10557	0.1418	-2.525	-3.2833	-2.6958	-3.2604	-3.0896	-2.6292	-3.6479	-2.9562	-2.7208	-3.4333	-2.8146	-3.2146	-3.2188	-2.7562	-3.3104	-3.0062	109.936	114.420	228.850	-56.309	206.096	5.861	132.192	170.541	151.888	-67.576	222.181	161.860	-117.589	-92.724	213.083	-118.398	0.00029661	0.0022816	0.0015072	941.66	2.4431e-05	1.0363e-05	990.86	401.46	5.0285e-06	1.8465e-05	399.05	167.82	175.43	81.042	1.4075e-05	74.629	0.0037594	0.0037974	0.0011412	1087.4	4.3438e-05	4.0033e-05	1080.1	420.77	4.1774e-05	4.1415e-05	506.57	183.64	189.53	81.389	4.6819e-05	82.769	-58.925	115.501	229.701	-114.259	49.296	137.481	-116.443	-108.811	-72.477	-37.683	-113.346	-108.651	-105.570	-100.448	176.221	-105.362	-8191	255	
3123.807	1	1	0	0	0.27469	0.18935	0.14415	0.13828	0.24526	0.16331	0.24068	0.2549	0.15427	0.029144	0.16462	0.13571	0.053127	0.27979	0.19265	0.12097	-2.3	-3.2729	-3.0438	-3.0104	-3.2708	-2.5187	-3.5062	-3.2083	-2.6479	-3.3458	-2.7667	-3.0396	-3.4333	-2.7313	-3.2542	-3.0833	-20.542	150.270	23.446	121.723	66.894	-56.621	-121.063	220.086	121.614	58.129	-74.651	111.370	203.642	-101.213	113.843	55.490	0.00054682	0.0015451	0.000852	933.05	2.2378e-05	1.4843e-05	995.46	399.8	1.4422e-05	1.2965e-05	400.96	167.4	174.91	80.538	2.4459e-05	73.775	0.0036802	0.0038648	0.0012133	1077.5	4.2729e-05	4.1787e-05	1091.2	417.73	4.0443e-05	4.2811e-05	511.21	181.39	187.92	81.804	4.6652e-05	81.27	-23.176	67.004	-13.079	-114.226	-69.155	84.072	-116.324	-109.163	53.394	103.766	-112.365	-108.287	-105.381	-100.565	-64.182	-105.386	-8191	255	
3123.904	1	1	0	0	0.20354	0.18406	0.063751	0.21699	0.2617	0.079882	0.029086	0.16073	0.086568	0.199	0.30269	0.1224	0.11536	0.18025	0.028784	0.093497	-2.1021	-3.3604	-2.8063	-2.8292	-3.3563	-2.6125	-3.3208	-3.2583	-2.6354	-3.6292	-2.8688	-2.9854	-3.6208	-2.6375	-3.125	-3.3021	223.393	71.744	-73.593	227.863	-13.689	170.962	212.144	146.322	-100.059	194.708	122.008	-118.661	31.408	130.799	97.552	-75.480	0.00039575	0.0021248	0.00082049	936.71	2.1451e-05	5.1979e-06	990.27	399.03	1.2101e-05	2.769e-05	399.83	167	175.93	80.668	4.3085e-05	73.713	0.0035516	0.0039689	0.0012029	1059.1	4.0972e-05	4.379e-05	1077.8	413.49	3.8993e-05	4.4504e-05	506.65	179.6	186.73	82.838	4.5245e-05	80.535	19.790	164.501	-57.584	-114.049	80.784	-38.184	-115.991	-108.653	27.366	215.441	-111.714	-108.391	-105.056	-100.213	23.832	-105.427	-8191	255	
3123.975	1	1	0	0	0.079319	0.17494	0.075321	0.24497	0.094932	0.14632	0.18798	0.12037	0.0056577	0.092067	0.1791	0.2913	0.18796	0.18641	0.1394	0.12262	-2.2854	-3.2271	-2.9792	-2.7167	-3.3521	-2.6188	-3.1792	-3.4792	-2.675	-3.3167	-3.1833	-2.8688	-3.475	-2.8021	-2.9333	-3.4083	-8.041	144.103	14.109	138.624	-92.060	-15.858	190.742	88.884	199.844	-60.416	128.107	192.851	-49.848	-121.229	158.536	-105.012	0.00037986	0.0023746	0.0010261	937.82	5.538e-06	1.1369e-05	994.83	401.02	2.5986e-05	1.6253e-05	403.31	170.06	175.28	80.492	3.2935e-05	74.45	0.0035215	0.0042222	0.001179	1055.9	4.1197e-05	4.6647e-05	1074.4	413.85	4.0153e-05	4.706e-05	504.41	180.11	188.74	83.632	4.4052e-05	80.857	32.907	-39.004	-6.323	-113.799	-13.222	-115.272	-116.130	-109.133	129.268	179.553	-112.461	-108.350	-105.941	-100.366	11.345	-105.267	-8191	255	
3124.071	1	1	0	0	0.021106	0.22334	0.35722	0.069279	0.052155	0.14575	0.18738	0.15667	0.099802	0.2264	0.13539	0.32593	0.28449	0.40674	0.11845	0.16399	-2.4188	-3.2458	-2.9917	-2.7208	-3.3937	-2.7167	-2.9667	-3.4604	-2.6854	-3.3271	-3.1854	-2.7625	-3.5021	-2.9354	-2.8458	-3.6917	131.073	66.440	-13.316	184.811	-73.846	-94.149	139.408	156.514	141.153	209.619	-126.373	214.693	-114.224	174.859	-96.217	-86.430	0.0010223	0.0022338	0.00027062	936.86	7.8519e-06	1.761e-05	994.72	401.78	2.9362e-05	2.2561e-05	402.54	167.3	174.87	80.187	4.0519e-05	73.096	0.003679	0.0043996	0.0011437	1054.8	4.315e-05	4.8116e-05	1070.7	413.26	4.2534e-05	4.7707e-05	499.57	178.33	190.58	83.408	4.2455e-05	79.891	-51.844	-13.262	-125.902	-113.619	189.135	116.003	-115.701	-109.194	-122.897	21.471	-112.297	-108.861	-105.458	-100.424	-16.805	-105.729	-8191	255	
3124.190	1	1	0	0	0.11173	0.10997	0.17979	0.086392	0.19584	0.1709	0.10472	0.22138	0.21827	0.18153	0.19752	0.24468	0.15787	0.14398	0.17741	0.358	-2.3792	-3.2208	-3.1021	-2.6854	-3.3021	-3.0021	-2.9354	-3.4625	-2.5292	-2.9792	-3.2375	-2.7271	-3.3042	-2.95	-2.6354	-3.4208	216.507	51.381	97.615	87.364	18.498	86.745	-70.682	177.754	114.886	28.349	138.575	202.849	88.798	187.569	-39.667	219.413	0.0010969	0.0016451	0.00043414	933.29	1.5572e-05	1.2105e-05	992.42	398.07	1.1726e-05	1.982e-05	397.27	165.97	175.57	79.926	3.2469e-05	73.37	0.0039441	0.0043495	0.001126	1047.7	4.5633e-05	4.7435e-05	1060.3	410.71	4.5244e-05	4.612e-05	491.38	176.93	192.56	82.608	4.1422e-05	80.02	-80.109	-28.602	-90.945	-113.786	215.499	-27.773	-115.780	-109.052	6.337	-114.547	-112.193	-108.801	-105.183	-100.317	15.788	-105.077	-8191	255	
3124.286	1	1	0	0	0.14605	0.15644	0.18712	0.19416	0.13978	0.12743	0.25956	0.2764	0.23362	0.127	0.11186	0.31075	0.17359	0.16994	0.1352	0.29864	-2.3896	-3.0938	-3.3917	-2.4938	-3.3083	-3.1333	-2.7083	-3.525	-2.8833	-3.1646	-3.2708	-2.6646	-3.3937	-3.2667	-2.6875	-3.3292	144.211	25.797	26.241	-110.654	166.702	0.200	183.016	186.462	8.340	-22.810	185.928	179.582	210.145	207.691	214.298	163.241	0.0015403	0.0059497	0.0010176	929.62	1.721e-05	2.0154e-05	994.3	400.58	3.0214e-05	1.2389e-05	400.83	166.81	174.75	80.553	2.5649e-05	73.754	0.0041922	0.0041781	0.0011029	1053.1	4.7705e-05	4.6399e-05	1056.3	413.99	4.7842e-05	4.4669e-05	491.14	180.02	193.68	82.526	4.0408e-05	81.286	-75.652	-42.608	-78.528	-113.986	194.262	30.688	-116.145	-109.088	-64.537	25.875	-112.218	-108.763	-105.612	-100.434	12.686	-105.584	-8191	255	
3124.383	1	1	0	0	0.075698	0.22117	0.11397	0.21672	0.1686	0.060145	0.37224	0.28256	0.14849	0.063064	0.083585	0.29294	0.14317	0.1124	0.12176	0.2791	-2.3812	-2.8563	-3.1792	-2.7062	-3.2958	-3.2729	-2.875	-3.5708	-2.7771	-2.8771	-3.5125	-2.7917	-3.1583	-3.3604	-2.7021	-3.5333	-103.606	176.329	125.295	159.920	213.960	-80.951	-76.052	145.957	83.838	173.447	-61.820	186.855	-112.602	162.573	3.597	137.849	0.00039246	0.00050757	0.00020037	936.32	1.4224e-05	1.0543e-05	998.17	400.62	2.5011e-05	1.2729e-05	401.9	167.34	174.66	80.283	2.6473e-05	73.898	0.0042904	0.0040205	0.0010776	1072.3	4.7928e-05	4.5331e-05	1055.2	418.66	4.76e-05	4.3262e-05	486.77	183.26	192.6	82.082	3.9682e-05	81.985	-77.733	-44.395	-92.905	-113.698	-25.725	129.084	-116.140	-109.034	61.215	153.808	-112.163	-109.107	-105.491	-100.739	114.915	-105.634	-8191	255	
3124.503	1	1	0	0	0.056656	0.31454	0.035064	0.020606	0.13192	0.26855	0.31153	0.21044	0.15103	0.124	0.28423	0.049345	0.13107	0.31684	0.20836	0.1194	-2.6125	-2.8729	-3.6333	-2.7167	-3.2667	-3.1479	-2.7479	-3.4083	-2.9062	-2.7229	-3.5167	-2.7438	-3.0292	-3.5187	-2.5375	-3.3417	-38.093	70.723	47.753	69.291	130.808	43.544	213.047	137.049	-59.125	-32.342	-45.146	-105.993	-107.809	218.204	155.948	210.007	0.0001121	0.0011548	0.00077356	934.11	1.2472e-05	9.7446e-06	986.63	395.61	1.6785e-05	1.36e-05	399.63	166.83	174.65	80.091	1.5624e-05	73.798	0.0041769	0.0038852	0.0010565	1086.3	4.5546e-05	4.3591e-05	1047.4	418.82	4.5639e-05	4.1348e-05	486.76	183.83	190.14	81.486	4.0581e-05	82.474	0.408	45.147	22.185	-114.101	72.001	-2.805	-116.461	-108.967	160.959	52.863	-112.147	-108.723	-105.155	-100.770	190.656	-105.596	-8191	255	
3124.575	1	1	0	0	0.13043	0.066139	0.06272	0.15755	0.16327	0.135	0.33759	0.071525	0.091061	0.16878	0.25612	0.23068	0.37757	0.22129	0.21094	0.21487	-2.6021	-2.6	-3.3937	-2.7125	-3.0854	-3.3792	-2.7854	-3.3479	-2.9562	-2.7271	-3.5104	-2.9167	-2.9979	-3.6021	-2.6354	-3.3167	-50.769	-57.400	-116.196	-114.822	220.177	-77.158	173.376	168.696	-13.882	100.450	198.428	212.686	184.428	207.677	86.812	154.194	0.00058022	0.00076723	0.00091187	935.11	3.6253e-05	7.9799e-06	992.48	401.39	1.4533e-05	1.4331e-05	393.85	167.58	175.52	80.583	2.6842e-05	74.263	0.0039952	0.003759	0.0010816	1096.3	4.3164e-05	4.2019e-05	1060.2	421.39	4.3969e-05	4.0049e-05	494.03	185.22	188.77	81.19	4.2809e-05	82.828	75.035	-25.543	97.371	-114.218	41.042	174.032	-116.356	-108.696	77.358	37.728	-112.686	-108.762	-105.283	-100.644	226.606	-105.189	-8191	255	
3124.671	1	1	0	0	0.15422	0.40778	0.27205	0.14147	0.13367	0.17659	0.1482	0.12176	0.25986	0.11646	0.064601	0.12515	0.29363	0.18658	0.11159	0.19083	-2.7562	-2.6604	-3.2167	-3.0604	-2.9437	-3.4708	-2.8896	-3.2104	-3.2708	-2.6292	-3.3125	-2.9938	-2.8646	-3.5458	-2.6792	-3.1708	-51.908	-109.927	67.632	-85.820	198.314	214.206	197.412	178.007	-50.513	171.371	146.471	-31.883	231.910	69.882	148.328	144.548	0.00086777	0.0018843	0.00041438	936.91	1.1005e-05	9.0325e-06	990.25	399.66	2.1741e-05	1.8952e-05	398.11	167.12	175.38	80.112	3.5252e-05	74.142	0.003875	0.0036799	0.0011506	1094.4	4.2382e-05	4.1667e-05	1077.2	420.79	4.3308e-05	3.9864e-05	506.96	183.89	187.98	81.157	4.5914e-05	81.73	-6.526	-41.056	-31.960	-114.228	181.096	-3.777	-116.086	-108.804	101.041	138.447	-112.328	-108.564	-105.133	-100.249	202.495	-105.169	-8191	255	
3124.792	1	1	0	0	0.18223	0.22957	0.30951	0.079528	0.21494	0.16652	0.16134	0.28605	0.21543	0.076311	0.23019	0.14277	0.32493	0.37972	0.11501	0.11072	-2.9313	-2.4396	-3.325	-2.9958	-2.8229	-3.5042	-2.8708	-3.15	-3.3708	-2.7333	-3.4271	-3.0938	-2.7167	-3.5396	-2.7708	-3.0833	109.195	96.504	-87.592	69.071	-27.274	-80.377	206.150	200.025	35.421	-11.115	206.718	75.459	170.032	-121.668	-114.903	45.923	0.00033751	0.0020718	0.00085071	936.09	3.3688e-05	4.1151e-06	991.32	398.72	1.2321e-05	1.8181e-05	395.39	167.17	173.2	80.147	4.3837e-05	73.61	0.0038047	0.0036766	0.0011915	1082.5	4.0792e-05	4.2122e-05	1084.3	415.06	4.1759e-05	4.1202e-05	507.6	181.67	185.38	81.563	4.7245e-05	80.412	-70.852	177.910	-88.163	-114.408	24.709	139.347	-116.250	-108.300	170.714	116.987	-111.852	-108.651	-105.702	-100.515	-30.187	-105.198	-8191	255	
3124.888	1	1	0	0	0.072851	0.21816	0.16456	0.25394	0.24654	0.047215	0.17476	0.25396	0.30083	0.15288	0.29925	0.18384	0.21706	0.22306	0.045206	0.21783	-2.8417	-2.4271	-3.2104	-3.2771	-2.6833	-3.4958	-3.05	-2.95	-3.3812	-2.6458	-3.325	-3.3396	-2.625	-3.5125	-3.0104	-2.8937	220.322	-47.343	-33.826	185.596	-49.254	-10.023	62.300	173.844	46.428	94.719	216.666	200.293	-83.812	229.007	116.651	173.786	0.00056891	0.00087588	0.0016325	934.71	8.1653e-06	2.685e-05	999.46	401.72	2.905e-05	2.8863e-05	402.38	167.32	173.71	80.886	3.1813e-05	74.164	0.0036834	0.0038934	0.001199	1070.7	3.9699e-05	4.3893e-05	1089.7	413.11	4.1143e-05	4.3608e-05	509.21	181	185.35	82.759	4.6373e-05	80.581	-22.001	157.667	47.268	-113.688	74.332	215.664	-116.050	-108.899	117.545	190.410	-112.077	-108.735	-105.594	-100.382	7.957	-105.177	-8191	255	
3124.984	1	1	0	0	0.21688	0.28249	0.089767	0.24964	0.19572	0.27976	0.17507	0.29523	0.076257	0.33893	0.16104	0.14073	0.14411	0.21889	0.12039	0.15676	-3.0958	-2.7104	-3.1292	-3.1771	-2.7479	-3.3604	-3.1917	-2.9146	-3.3208	-2.7812	-3.2271	-3.5938	-2.5	-3.3708	-3.2917	-2.7292	179.126	-49.243	-86.162	204.375	125.767	100.050	218.335	-116.558	-16.771	4.106	-30.100	130.012	227.621	184.531	148.823	132.839	0.00076348	0.0021805	0.00062879	934.08	8.7926e-06	1.0781e-05	995.69	400.15	1.5958e-05	1.5663e-05	399.28	168.1	174.73	81.191	3.7714e-05	74.014	0.0036377	0.0041415	0.0011661	1066.2	3.9475e-05	4.6374e-05	1083.7	412.43	4.0826e-05	4.6463e-05	500.39	180.63	186.03	83.41	4.4647e-05	79.645	-41.395	43.752	-69.442	-114.116	-89.431	212.995	-116.501	-108.952	204.185	211.868	-111.975	-108.803	-105.554	-100.603	9.726	-105.133	-8191	255	
3125.103	1	1	0	0	0.095185	0.13065	0.21166	0.14496	0.30621	0.12276	0.15172	0.37527	0.17419	0.14803	0.1702	0.26758	0.11931	0.38098	0.086233	0.18845	-2.9521	-2.6458	-2.9729	-3.4292	-2.6125	-3.3854	-3.1146	-2.7958	-3.4271	-2.75	-3.0479	-3.5458	-2.8125	-3.4375	-3.1021	-2.7938	209.332	35.895	44.432	206.347	147.156	55.411	213.765	169.019	105.220	59.888	-118.629	197.080	125.832	177.359	-5.737	132.567	0.0010705	0.0018422	0.00059111	933.94	4.9325e-05	9.9459e-06	994.51	398.83	2.9254e-05	8.6049e-06	392.74	165.57	173.32	80.501	1.8479e-05	73.082	0.0037184	0.0043052	0.0011164	1057.3	4.1023e-05	4.7572e-05	1067.5	407.61	4.2399e-05	4.7628e-05	491.57	177.77	187.19	82.924	4.3028e-05	78.638	-60.093	-101.190	-51.593	-113.977	-123.346	50.919	-116.406	-108.748	-106.200	17.590	-111.708	-108.957	-105.264	-100.313	150.288	-105.835	-8191	255	
3125.199	1	1	0	0	0.15013	0.046609	0.25462	0.13144	0.35663	0.15947	0.18474	0.096129	0.13619	0.19189	0.072297	0.20798	0.15401	0.15419	0.1268	0.19886	-2.9062	-2.775	-3.0417	-3.5729	-2.6729	-3.1417	-3.3312	-2.6083	-3.4313	-2.65	-2.9188	-3.6083	-2.7146	-3.2292	-3.1979	-2.6833	117.851	58.501	161.097	198.056	-66.178	184.765	95.540	222.497	-122.446	200.716	-76.191	31.054	205.177	-121.394	-107.953	189.811	0.0014159	0.0015847	0.00042157	935.53	2.4326e-05	3.1282e-06	994	399.54	4.3072e-06	1.0757e-05	399.47	166.97	174.31	80.718	2.4054e-05	73.763	0.0039015	0.0042976	0.0010747	1052.2	4.3761e-05	4.6341e-05	1064.7	407.02	4.4541e-05	4.6506e-05	486.82	178.63	190.32	82.616	4.2433e-05	79.138	-65.656	-119.949	-102.942	-114.016	-91.105	-94.455	-116.149	-108.730	-82.899	42.243	-112.041	-108.631	-105.608	-100.412	86.722	-105.629	-8191	255	
3125.271	1	1	0	0	0.31064	0.196	0.33003	0.022693	0.4001	0.18616	0.21109	0.26596	0.19744	0.21335	0.23641	0.29781	0.23975	0.19088	0.11706	0.21379	-2.8563	-2.8292	-2.6479	-3.5187	-2.5646	-3.1021	-3.3708	-2.8208	-3.3792	-3.0021	-2.6437	-3.3729	-2.8521	-3.0563	-3.3333	-2.6792	-39.788	118.212	-92.127	189.274	-87.713	-49.269	48.041	221.438	191.389	55.900	-108.379	215.006	222.500	-99.359	71.290	218.946	0.00071642	0.0023768	0.00058689	934.53	1.2353e-05	2.9587e-05	992.51	397.46	1.0317e-05	2.9289e-05	402.78	167.03	174.45	80.226	2.417e-05	73.711	0.004089	0.0041743	0.0010401	1052.7	4.5961e-05	4.4651e-05	1060.1	408.72	4.612e-05	4.4717e-05	482.98	179.86	191.8	81.721	4.0637e-05	79.707	-69.443	-126.011	25.793	-114.146	191.551	22.901	-115.709	-109.019	-108.473	33.582	-112.244	-108.619	-105.525	-100.554	43.116	-105.823	-8191	255	
3125.391	1	1	0	0	0.10853	0.092913	0.19141	0.23969	0.20259	0.10852	0.20197	0.065927	0.23695	0.23702	0.11369	0.053188	0.14675	0.085272	0.089188	0.19794	-2.7146	-2.9854	-2.5708	-3.3646	-2.7896	-2.7708	-3.5875	-2.5792	-3.2812	-3.0292	-2.8688	-3.6437	-3.15	-2.9458	-3.2583	-2.8792	228.013	-41.360	160.534	186.399	111.497	109.503	156.149	-65.312	-113.876	172.588	143.840	78.468	193.180	151.324	-13.428	176.143	0.00082442	0.0023858	0.0010102	927.38	8.4446e-06	4.2848e-06	989.94	395.24	9.1643e-06	2.3816e-05	399.34	166.24	175.49	80.609	1.7674e-05	73.777	0.0041179	0.0039852	0.0010079	1062.7	4.6345e-05	4.2051e-05	1049.2	409.56	4.5546e-05	4.2556e-05	473.51	180.39	190.82	81.027	3.9337e-05	80.687	-37.912	-24.025	-29.073	-113.730	167.923	57.810	-116.507	-109.054	5.793	75.945	-112.387	-109.200	-105.701	-100.160	-15.319	-105.894	-8191	255	
3125.488	1	1	0	0	0.17101	0.30081	0.22608	0.18877	0.21785	0.19485	0.23324	0.27923	0.10621	0.13341	0.14034	0.1246	0.21376	0.33707	0.099717	0.26979	-2.8167	-3.1771	-2.6167	-3.3958	-3.1	-2.7375	-3.5729	-2.8688	-3.1375	-3.3063	-2.675	-3.3583	-2.8937	-2.8708	-3.5042	-2.9521	-35.909	50.992	15.002	179.928	182.224	-12.573	-102.297	152.068	126.089	154.804	180.219	-113.222	133.311	211.486	94.088	206.695	0.00067352	0.0016738	0.00040473	932.33	2.2376e-05	4.6134e-06	993.38	398.23	1.5186e-05	1.1132e-05	396.96	167.97	175.51	80.055	1.5873e-05	74.11	0.003965	0.0038273	0.00098189	1074.6	4.491e-05	4.0658e-05	1048.3	415.23	4.3359e-05	4.137e-05	476.07	183.19	189.66	80.786	3.9796e-05	81.952	18.654	-51.814	12.371	-113.811	-34.376	73.255	-116.369	-108.663	52.065	-12.269	-112.088	-108.683	-105.528	-100.408	114.137	-105.430	-8191	255	
3125.584	1	1	0	0	0.25964	0.26404	0.14711	0.14053	0.28292	0.03264	0.19065	0.091106	0.024179	0.17501	0.093992	0.087918	0.25739	0.24578	0.1891	0.26896	-2.7333	-3.3812	-2.3646	-3.5333	-3.2188	-2.725	-3.5854	-2.8667	-3.0479	-3.4292	-2.7812	-3.3333	-3.2292	-2.8	-3.5021	-2.8312	-49.441	92.658	157.872	-44.215	195.559	-89.370	102.285	-83.979	12.812	-105.154	-28.751	34.458	-92.415	-122.602	109.308	193.224	0.00034114	0.0020122	0.00051807	937.51	1.1397e-05	1.1233e-05	993.45	399.42	2.233e-05	2.9839e-05	400.85	167.6	174.97	80.375	2.2933e-05	74.076	0.0037871	0.0037521	0.0009988	1082.8	4.3185e-05	3.9242e-05	1052.5	418.84	4.1172e-05	4.0148e-05	482.58	183.26	187.68	80.269	4.1142e-05	81.761	36.280	5.110	54.162	-114.503	18.570	-28.028	-116.186	-108.919	98.929	-62.139	-112.740	-108.499	-105.641	-100.519	-33.709	-105.504	-8191	255	
3125.680	1	1	0	0	0.086449	0.10265	0.17702	0.19869	0.11281	0.17985	0.16025	0.091015	0.44369	0.14665	0.36915	0.27508	0.14627	0.13939	0.11803	0.13898	-2.5167	-3.3354	-2.5563	-3.0458	-3.1104	-2.6104	-3.6188	-3.05	-2.7646	-3.4021	-2.7438	-3.1875	-3.4042	-2.7417	-3.3396	-3.0396	-51.112	-6.203	163.105	141.033	76.890	-34.612	111.854	7.174	-79.470	23.951	212.739	-65.032	208.534	83.141	121.436	51.124	0.00078995	0.0014725	0.00045392	935.11	4.1718e-06	1.5807e-05	992.31	399.89	1.4452e-05	2.586e-05	395.98	166.82	175.46	80.412	2.0179e-05	73.512	0.0036005	0.0036365	0.0010555	1075.5	4.1169e-05	3.7901e-05	1058.5	414.77	3.9707e-05	3.8852e-05	490.91	181.38	186.47	80.063	4.3328e-05	81.02	-59.479	130.847	167.856	-114.026	-2.847	-22.888	-115.957	-108.876	128.941	57.837	-112.722	-108.558	-106.003	-100.535	-119.622	-105.451	-8191	255	
3125.800	1	1	0	0	0.31717	0.12269	0.17245	0.069473	0.13017	0.3839	0.16718	0.22355	0.24945	0.25622	0.14598	0.21987	0.10186	0.15448	0.04864	0.17671	-2.3375	-3.4729	-2.7313	-3.0229	-3.1167	-2.6479	-3.5333	-3	-2.5271	-3.4583	-2.6875	-3.1542	-3.4021	-2.6437	-3.3792	-3.0542	108.450	-21.833	130.119	155.218	-92.161	-16.684	167.635	166.692	-37.637	155.927	-83.551	131.698	216.289	146.156	156.183	189.639	8.2995e-05	0.00087077	0.0019053	933.67	3.1448e-05	3.0535e-05	991.48	399.4	1.2959e-05	2.4779e-05	399.08	166.79	174.99	80.386	2.9099e-05	74.324	0.0035022	0.0036021	0.0011226	1063.1	4.0547e-05	3.8481e-05	1068.2	412.89	3.8736e-05	3.9806e-05	499.5	180.15	185.65	80.755	4.4424e-05	80.88	31.244	-106.388	131.898	-113.974	-13.769	199.945	-116.539	-108.932	61.752	-116.709	-112.931	-108.702	-105.674	-100.169	20.859	-105.510	-8191	255	
3125.872	1	1	0	0	0.12973	0.13609	0.12633	0.12142	0.202	0.073457	0.18838	0.141	0.24472	0.094091	0.080357	0.18351	0.15209	0.071934	0.12579	0.10819	-2.1375	-3.5667	-2.7146	-3.0667	-3.1333	-2.5542	-3.4479	-3.1708	-2.5896	-3.4167	-3.0667	-3.0104	-3.2521	-2.7292	-3.1813	-3.3979	228.112	163.186	-40.840	53.494	192.019	119.506	194.145	61.445	-42.617	93.865	-23.972	219.252	-94.055	136.802	87.074	58.956	0.0010595	0.0022111	0.00043802	934.06	1.8202e-05	1.9864e-05	989.83	398.8	1.3463e-05	1.6857e-05	403.44	169.36	174.12	80.572	1.3846e-05	73.968	0.0034044	0.0037275	0.0011514	1055.6	3.9818e-05	4.0547e-05	1074.4	411.73	3.7862e-05	4.2192e-05	502.66	179.05	184.75	81.576	4.3941e-05	80.141	-73.658	171.878	-58.556	-113.908	187.152	-121.690	-116.489	-108.737	92.785	-106.565	-112.283	-108.288	-105.492	-100.368	-18.346	-105.753	-8191	255	
3125.968	1	1	0	0	0.23669	0.077295	0.14768	0.17727	0.18506	0.2063	0.093238	0.057998	0.11255	0.20072	0.24874	0.053554	0.20129	0.22538	0.10765	0.31406	-2.1083	-3.1667	-2.9271	-2.875	-3.5687	-2.6958	-3.3625	-3.3688	-2.5417	-3.4771	-3	-2.8896	-3.5104	-2.7667	-3.1896	-3.5146	29.424	218.672	76.631	90.546	229.972	-123.024	-12.764	194.816	177.761	120.626	28.906	-101.536	180.548	140.588	222.297	191.295	0.00042248	0.00067049	0.00080298	927.21	1.1196e-05	1.557e-05	983.11	397.51	1.3428e-06	2.1167e-05	397.77	166.08	174.63	80.435	1.0835e-05	74.136	0.0033186	0.0039298	0.0011317	1040.8	3.8985e-05	4.2965e-05	1057.8	407.47	3.6981e-05	4.3795e-05	492.36	176.71	184.41	82.179	4.1732e-05	79.503	220.832	87.787	-69.414	-113.422	216.916	178.046	-116.260	-108.802	79.650	205.406	-112.091	-108.396	-105.417	-100.306	102.024	-105.403	-8191	255	
3126.064	1	1	0	0	0.1945	0.1337	0.14601	0.14922	0.047902	0.10844	0.26661	0.17452	0.1404	0.093828	0.13292	0.18556	0.31536	0.2332	0.078714	0.053304	-2.2687	-3.3646	-3.0396	-2.7771	-3.5021	-2.6625	-3.1437	-3.3896	-2.6542	-3.4542	-3.2729	-2.85	-3.5333	-2.7958	-2.9646	-3.5187	117.279	24.167	6.364	209.692	177.550	70.406	129.140	171.247	25.186	225.334	116.144	-24.473	231.698	153.878	-71.803	-88.797	0.0005927	0.0031139	0.0003972	937.63	1.2362e-05	1.3858e-05	991.51	398.33	8.9447e-06	4.5121e-06	398.76	168.07	176.51	80.704	2.7762e-05	75.298	0.003353	0.004044	0.0010748	1035.7	3.8995e-05	4.4532e-05	1054.4	406.29	3.8435e-05	4.4303e-05	488.64	176.93	186.34	82.72	4.0098e-05	80.064	-48.539	144.433	63.635	-113.660	-93.553	-111.318	-116.086	-108.959	133.087	-115.960	-112.003	-108.385	-105.527	-100.358	14.428	-105.473	-8191	255	
3126.183	1	1	0	0	0.37402	0.23043	0.043954	0.099111	0.18545	0.20791	0.17956	0.10615	0.088817	0.071417	0.10396	0.13166	0.1589	0.10113	0.18446	0.11614	-2.0604	-3.1292	-3.1688	-2.6979	-3.5375	-2.8063	-2.9625	-3.6125	-2.7521	-3.4229	-3.1729	-2.6458	-3.5042	-3.2938	-2.675	-3.4896	65.519	-22.081	50.357	147.635	-7.386	-14.968	216.612	190.846	219.134	225.788	177.503	-116.514	126.609	-124.561	101.028	188.368	0.00083084	0.00058014	0.0008193	936.17	1.8979e-05	1.2643e-05	994.32	400.39	1.1213e-05	2.1947e-05	401.16	169.46	175.92	81.375	1.7704e-05	75.685	0.0035541	0.0040511	0.0010433	1031.2	4.1602e-05	4.4948e-05	1050.4	406.88	4.1193e-05	4.3936e-05	486.57	176.91	189.06	82.555	3.874e-05	79.688	-53.587	-34.760	-101.031	-113.939	124.932	-70.128	-115.901	-109.146	-101.426	20.076	-112.357	-108.294	-105.258	-100.571	-79.940	-105.523	-8191	255	
3126.279	1	1	0	0	0.11119	0.33508	0.10262	0.14452	0.17172	0.14998	0.13726	0.042973	0.13457	0.071123	0.2341	0.15804	0.016215	0.37501	0.005428	0.26607	-2.2333	-2.9562	-3.1813	-2.5542	-3.3917	-2.9583	-2.7562	-3.525	-2.55	-3.0104	-3.4083	-2.8	-3.3896	-3.3146	-2.5292	-3.475	15.896	-78.033	-3.768	148.562	99.584	8.135	150.769	148.728	-48.414	-92.007	-126.384	177.483	157.051	203.808	109.529	157.587	0.0012056	0.00069295	0.00053092	926	1.3936e-05	1.1042e-05	987.97	398.73	1.3512e-05	3.7023e-05	397.56	167.07	174.97	81.056	7.2096e-06	74.126	0.0037767	0.0039055	0.0010216	1022.1	4.3138e-05	4.3003e-05	1035.3	405.56	4.2942e-05	4.1554e-05	477.28	176.51	190	81.637	3.7524e-05	79.609	-104.196	153.790	-119.312	-113.864	206.991	34.775	-116.285	-108.876	196.818	-29.485	-112.392	-108.566	-105.134	-100.736	75.529	-105.767	-8191	255	
3126.376	1	1	0	0	0.1567	0.28477	0.21106	0.10947	0.19591	0.29768	0.21677	0.39264	0.081943	0.13873	0.055945	0.28995	0.24317	0.1154	0.33325	0.16626	-2.2521	-2.8563	-3.2479	-2.475	-3.1417	-3.0271	-2.7667	-3.4542	-2.7958	-2.9396	-3.3708	-2.6458	-3.4313	-3.2062	-2.4437	-3.4	-109.717	206.211	-35.489	42.878	36.160	36.508	159.626	191.865	44.953	95.207	-88.923	152.694	-123.294	-33.467	-124.075	156.555	0.00043873	0.0029694	0.00063079	921.97	2.5398e-05	3.1083e-05	990.21	403.02	1.1502e-05	1.2192e-05	401.64	167.95	175.26	80.895	3.505e-05	74.956	0.0038914	0.0037125	0.00099578	1033	4.3529e-05	4.1559e-05	1030.8	409.57	4.3747e-05	3.9962e-05	476.73	179.71	190.19	81.481	3.6915e-05	81.295	-58.181	-14.443	-15.175	-114.526	-61.069	-1.719	-116.188	-108.859	70.563	154.580	-112.504	-108.994	-105.510	-100.810	7.467	-105.595	-8191	255	
3126.472	1	1	0	0	0.16658	0.071205	0.11189	0.42165	0.13836	0.18236	0.28068	0.1732	0.1453	0.16373	0.099003	0.082663	0.14737	0.13406	0.18269	0.20235	-2.4229	-2.6792	-3.375	-2.75	-3.1958	-3.3	-2.5875	-3.3479	-2.8708	-2.7125	-3.5687	-2.7438	-3.0479	-3.2729	-2.6083	-3.4708	113.090	0.615	-123.895	-94.495	-49.857	93.471	131.466	196.047	81.115	217.854	-70.988	-22.774	152.198	-66.260	-53.009	95.186	0.00077564	0.0011317	0.00067011	935.33	1.9291e-05	1.4418e-05	996.69	400.57	2.3511e-05	2.5654e-05	403.63	168.4	174.66	80.706	1.2898e-05	75.182	0.0038921	0.0036053	0.00097325	1055.3	4.2774e-05	4.0671e-05	1035.3	413.23	4.2881e-05	3.9037e-05	478.69	182.03	188.28	81.17	3.6862e-05	82.055	15.186	-41.774	18.728	-114.326	2.870	118.945	-116.212	-108.795	112.428	43.311	-112.224	-108.611	-105.499	-100.328	-78.311	-105.701	-8191	255	
3126.568	1	1	0	0	0.15921	0.1692	0.14753	0.11293	0.10595	0.089902	0.19997	0.17581	0.080353	0.40162	0.18121	0.1597	0.076958	0.24984	0.17625	0.22463	-2.4396	-2.5854	-3.5208	-2.875	-3.0625	-3.3812	-2.7562	-3.3063	-2.9458	-2.7375	-3.4042	-2.8063	-3.0646	-3.4313	-2.6604	-3.4646	-68.339	58.062	70.488	171.506	200.833	-8.772	226.766	105.972	-23.673	8.308	-108.068	-117.259	218.979	216.309	-111.752	104.457	0.00075732	0.0010237	0.0010868	929.29	3.5261e-05	1.7744e-05	990.16	399.74	1.2708e-05	1.7696e-05	398.97	168.18	175.38	80.684	4.2483e-05	74.674	0.0037611	0.0035025	0.00098785	1067.4	4.1337e-05	3.9577e-05	1033.9	415.57	4.1352e-05	3.7678e-05	478.95	182.15	186.38	80.671	3.8912e-05	81.861	-28.146	70.471	171.359	-114.226	96.065	-34.251	-116.237	-109.073	57.758	-47.842	-112.297	-108.628	-104.902	-100.712	202.701	-105.475	-8191	255	
3126.664	1	1	0	0	0.073195	0.41751	0.30149	0.12866	0.39159	0.21432	0.02824	0.13363	0.12039	0.14447	0.06712	0.17414	0.38105	0.064613	0.066982	0.16426	-2.6229	-2.6021	-3.4167	-2.7625	-2.9417	-3.4333	-2.7333	-3.3917	-3.0979	-2.6146	-3.475	-3.0583	-2.7479	-3.5604	-2.5208	-3.1437	-45.436	44.504	202.151	104.072	170.692	-75.482	-56.849	222.451	76.078	89.958	224.304	173.032	-102.335	191.655	179.992	150.821	0.00066155	0.0025878	2.5031e-05	926.09	1.0237e-05	5.8403e-06	979.79	399.64	1.196e-05	2.3513e-05	398.17	167.9	174.88	80.669	3.4527e-06	75.258	0.0036304	0.0034148	0.0010379	1068.5	3.9837e-05	3.8991e-05	1048.1	415.03	4.0812e-05	3.7465e-05	491.45	182.93	185.79	80.789	4.2093e-05	82.105	-41.261	11.652	55.420	-114.604	-9.972	161.948	-116.173	-109.078	-73.811	1.912	-112.170	-108.464	-105.144	-100.421	12.490	-105.149	-8191	255	
3126.785	1	1	0	0	0.3122	0.38511	0.072393	0.12284	0.36842	0.1914	0.23454	0.1475	0.14393	0.093496	0.084356	0.063337	0.11045	0.24386	0.27174	0.098713	-2.7646	-2.5312	-3.2875	-3.0354	-2.6917	-3.1417	-2.7104	-3.1146	-3.1833	-2.725	-3.4104	-3.1312	-2.7625	-3.5083	-2.7438	-2.9896	183.834	-71.329	173.680	-96.447	216.860	125.758	203.783	225.823	224.028	98.794	-73.172	160.348	-95.971	-118.769	23.706	213.161	0.00033698	0.0013797	0.0011462	928.9	1.9059e-05	2.1405e-05	991.22	402.77	4.0267e-06	2.3394e-06	405.11	169.57	175.68	81.118	2.5121e-05	75.236	0.0036269	0.0034585	0.0011071	1066.6	3.9161e-05	3.8903e-05	1068.7	413.87	3.9627e-05	3.788e-05	500.84	181.9	184.74	81.134	4.3765e-05	81.011	-36.898	186.480	131.028	-114.064	5.358	76.648	-116.734	-109.134	70.894	126.136	-111.854	-108.660	-105.596	-100.387	62.935	-105.559	-8191	255	
3126.881	1	1	0	0	0.38349	0.25667	0.055719	0.27512	0.08686	0.24342	0.33526	0.38394	0.16934	0.07453	0.25812	0.21636	0.14805	0.32781	0.098539	0.20967	-2.9625	-2.4792	-3.2604	-3.0146	-2.5708	-3.3312	-2.7687	-3.0792	-3.3521	-2.6479	-3.2333	-3.1937	-2.725	-3.5646	-2.8167	-2.9396	157.445	-110.773	-109.467	-94.743	193.650	115.095	-44.874	187.774	231.494	231.658	217.085	113.524	-105.869	190.003	122.140	214.524	0.00071416	0.0010461	0.001248	925.2	1.2086e-05	1.9469e-05	988.19	397.29	2.9069e-05	2.6777e-05	401.34	166.95	175.28	80.307	5.0464e-06	74.835	0.0035129	0.0035694	0.0011286	1055.5	3.8168e-05	4.0698e-05	1070.1	408.84	3.9296e-05	4.0688e-05	499.89	179.83	183.45	81.57	4.4659e-05	80.333	41.532	225.222	223.982	-114.180	42.452	214.320	-116.570	-109.051	-20.283	173.701	-112.372	-108.449	-105.677	-100.664	70.976	-105.309	-8191	255	
3126.975	1	1	0	0	0.27345	0.088381	0.24112	0.13608	0.24258	0.21457	0.23003	0.21325	0.17189	0.05523	0.099472	0.13881	0.37843	0.084485	0.55145	0.10125	-3.1771	-2.5333	-3.1833	-3.3042	-2.6312	-3.3542	-2.9958	-2.8708	-3.4833	-2.5938	-3.2667	-3.4542	-2.5521	-3.3396	-2.7854	-2.6854	-99.793	40.096	-71.718	219.393	155.882	-74.682	165.991	-85.215	231.864	-84.386	169.758	180.765	-119.885	-116.837	-86.650	185.982	0.00069358	0.0012002	0.00037082	938.9	3.489e-05	3.5088e-05	994.14	398.41	5.4706e-06	2.1927e-05	404.73	166.99	175.43	81.215	1.8351e-05	74.915	0.0034783	0.0038396	0.0011349	1052.3	3.7668e-05	4.3473e-05	1068.3	407.78	3.8854e-05	4.3548e-05	495.83	179.45	184	82.735	4.3662e-05	80.22	12.251	168.493	-80.899	-113.734	-7.758	183.540	-116.581	-108.717	-38.423	-110.387	-112.185	-108.781	-105.492	-100.660	19.348	-105.584	-8191	255	
3127.071	1	1	0	0	0.10259	0.19384	0.19924	0.077789	0.044702	0.13234	0.11022	0.19869	0.033975	0.1346	0.21371	0.052302	0.36193	0.11787	0.096477	0.33975	-3.0812	-2.6771	-2.9583	-3.2979	-2.625	-3.1125	-3.0583	-2.8063	-3.4437	-2.725	-2.8646	-3.5292	-2.6833	-3.2625	-3.0438	-2.7042	191.405	-84.423	-24.134	87.887	-19.734	195.081	138.227	174.984	163.424	0.455	-80.782	134.712	182.823	-50.579	105.717	227.648	0.00068213	0.0015847	0.00077578	932.45	3.589e-05	1.6945e-05	990.25	398.38	1.5934e-05	1.5834e-05	404.85	167.5	174.57	80.571	2.8947e-05	74.97	0.0035102	0.004112	0.0010968	1050	3.8681e-05	4.5485e-05	1066.3	406.1	3.9897e-05	4.5538e-05	491.92	178.78	186.05	83.168	4.2224e-05	79.618	-53.139	191.647	-54.342	-114.139	174.536	167.375	-116.726	-108.896	221.255	32.592	-112.155	-108.560	-105.841	-100.423	85.155	-105.402	-8191	255	
3127.168	1	1	0	0	0.2583	0.063239	0.19171	0.31384	0.22008	0.15479	0.25928	0.15564	0.19861	0.066337	0.27105	0.17452	0.16696	0.14771	0.03021	0.13205	-2.8958	-2.7146	-2.9458	-3.2021	-2.5875	-3.2104	-3.1479	-2.8208	-3.3146	-2.9625	-2.8708	-3.5583	-2.7	-3.4333	-3.1229	-2.7313	181.292	181.302	125.895	212.980	112.670	229.634	-124.168	145.146	51.350	121.709	232.215	-54.163	196.411	-109.502	-14.890	-64.145	0.00080926	0.002121	0.00064618	934.04	2.4069e-05	2.992e-05	983.62	397.68	1.0909e-05	1.5881e-05	402.78	166.85	172.95	80.805	9.3427e-06	73.809	0.0036524	0.0042074	0.0010508	1041.3	4.1277e-05	4.5582e-05	1051.5	403.58	4.1931e-05	4.5296e-05	482.85	176.84	187.34	82.345	4.1166e-05	78.749	-69.165	69.650	-122.199	-114.012	225.158	62.418	-116.861	-109.088	106.103	68.911	-112.178	-108.520	-105.591	-100.561	172.375	-105.981	-8191	255	
3127.264	1	1	0	0	0.21746	0.087038	0.014092	0.19986	0.062503	0.19184	0.29004	0.26237	0.13392	0.11975	0.25305	0.12338	0.16945	0.29302	0.20753	0.05493	-2.9792	-2.8229	-2.6625	-3.5187	-2.7083	-2.9458	-3.0938	-2.7	-3.3083	-2.8583	-2.65	-3.4604	-2.7333	-3.1625	-3.275	-2.6167	171.407	163.004	189.509	162.238	-103.394	209.672	132.681	232.768	72.841	-93.322	142.777	182.207	172.041	219.911	177.721	227.039	0.00064253	0.0016226	0.00082601	923.12	3.0037e-05	2.3881e-05	987.33	393.83	8.4222e-06	2.6359e-05	399.12	166.74	174.66	79.938	4.01e-05	73.957	0.0038614	0.0041201	0.0010264	1035.9	4.3706e-05	4.3876e-05	1046.9	401.76	4.4464e-05	4.402e-05	479.97	177.5	190.01	81.597	4.0503e-05	79.382	-39.573	58.001	216.835	-114.601	217.722	61.395	-116.324	-109.061	-87.582	-48.742	-112.528	-108.699	-105.430	-100.587	23.319	-105.318	-8191	255	
3127.360	1	1	0	0	0.032841	0.25522	0.22732	0.34725	0.19522	0.2269	0.36902	0.079904	0.12263	0.062147	0.33724	0.16445	0.21068	0.28685	0.13796	0.36787	-2.9042	-2.8979	-2.5125	-3.4292	-2.5708	-2.8979	-3.3312	-2.7292	-3.2271	-2.9667	-2.6771	-3.45	-2.85	-2.8729	-3.3937	-2.6646	34.052	75.821	-57.859	200.106	30.542	-99.757	172.765	117.471	183.331	1.263	177.531	-90.585	105.481	-121.524	-90.429	171.770	0.00023724	0.001221	0.00080269	932.72	3.2091e-05	1.7178e-05	988.44	395.11	2.1084e-05	2.8698e-05	400.04	167.35	174.3	80.627	7.0312e-06	73.902	0.0040315	0.0040227	0.0010008	1051.6	4.5744e-05	4.2422e-05	1047.4	408.18	4.5595e-05	4.297e-05	476.58	180.04	191.07	81.26	3.9656e-05	80.286	7.566	-25.883	-32.868	-114.283	-98.957	17.571	-116.386	-109.028	7.297	8.807	-112.418	-108.847	-105.904	-100.463	37.675	-105.956	-8191	255	
3127.456	1	1	0	0	0.13126	0.091269	0.073284	0.20055	0.16743	0.16352	0.2226	0.065902	0.14144	0.1075	0.30423	0.081656	0.25395	0.1346	0.19518	0.060613	-2.8187	-3.1375	-2.5187	-3.3146	-2.7354	-2.7042	-3.3271	-2.6521	-3.1271	-3.0479	-2.6208	-3.5625	-3.125	-2.8292	-3.5083	-2.5458	-31.890	10.625	-14.310	189.548	114.967	181.529	215.484	62.608	68.264	127.136	193.008	205.006	164.571	179.924	133.890	168.838	0.0011236	0.000354	0.001591	924.69	1.9387e-05	2.295e-05	982.34	394.73	2.4588e-05	1.1893e-05	393.91	165.56	173.34	79.786	2.4019e-05	73.328	0.0040108	0.0038734	0.00097843	1061.4	4.5082e-05	4.1037e-05	1034.9	410.16	4.4081e-05	4.1761e-05	469.76	180.75	188.92	80.411	3.8976e-05	81.149	-44.271	-93.101	-5.862	-114.180	61.325	95.487	-116.278	-109.184	62.270	42.165	-112.321	-108.585	-105.477	-100.633	201.577	-105.673	-8191	255	
3127.577	1	1	0	0	0.18192	0.1348	0.16012	0.20683	0.24036	0.20249	0.214	0.19368	0.2595	0.22828	0.32545	0.26885	0.12826	0.20271	0.17595	0.19238	-2.6083	-3.0563	-2.4146	-3.4813	-3.0458	-2.6271	-3.3458	-2.7792	-3.1083	-3.15	-2.6625	-3.3625	-3.1354	-2.6625	-3.2583	-2.8125	123.544	-65.439	-74.197	-103.692	-0.134	209.295	179.094	188.732	-19.827	-27.796	182.797	226.832	-120.363	227.545	192.537	-41.750	0.00086463	0.0016881	0.00021778	929.65	1.5162e-06	1.574e-05	989	394.77	7.2402e-06	4.0417e-05	397.35	166.76	172.1	80.563	3.7176e-05	73.322	0.003834	0.0037272	0.00098314	1073.3	4.3522e-05	3.9522e-05	1039.2	413.16	4.2153e-05	4.0452e-05	477.59	182.56	187.42	80.397	4.0675e-05	82.172	-14.473	-1.515	69.119	-114.165	135.370	57.857	-116.431	-109.160	38.049	-8.650	-112.729	-108.800	-105.691	-100.610	-113.842	-105.790	-8191	255	
3127.673	1	1	0	0	0.099253	0.26648	0.20093	0.23349	0.05482	0.1942	0.20885	0.26873	0.090204	0.070419	0.030767	0.17033	0.10994	0.17869	0.089282	0.30737	-2.5354	-3.1937	-2.4292	-3.3312	-3.0333	-2.5625	-3.5375	-2.875	-2.7979	-3.4083	-2.7292	-3.1979	-3.1146	-2.6792	-3.2812	-2.9833	-64.886	198.124	44.155	191.670	56.402	34.586	154.162	190.617	46.074	164.337	74.245	218.765	77.036	167.358	107.501	178.716	0.00060466	0.00093679	0.0010606	931.08	2.3487e-05	1.9926e-05	993.64	392.12	1.3957e-05	5.8451e-06	398.8	167.07	172.05	79.228	3.7386e-05	73.644	0.0037434	0.0037216	0.0010464	1082.5	4.2475e-05	3.9331e-05	1059.3	415.47	4.1073e-05	4.0274e-05	490.91	182.65	186.16	79.657	4.3171e-05	81.783	6.597	-32.344	133.210	-114.502	157.156	46.193	-116.677	-108.590	80.200	171.327	-112.318	-108.670	-106.234	-100.622	207.738	-105.651	-8191	255	
3127.744	1	1	0	0	0.1552	0.33123	0.17162	0.15349	0.10552	0.34157	0.20358	0.40084	0.091363	0.059356	0.17906	0.19882	0.22264	0.25714	0.3685	0.087698	-2.3917	-3.3937	-2.5833	-3.2875	-3.2583	-2.6271	-3.5958	-3.1625	-2.7958	-3.5625	-2.8833	-3.3542	-3.5333	-2.6896	-3.4437	-3.0792	84.844	-9.323	-56.219	218.640	30.513	84.671	175.345	226.223	50.718	-108.262	-66.750	-115.687	150.600	131.585	-76.841	180.555	0.00052202	0.0011185	0.00023807	934.21	2.0026e-05	3.4732e-05	984.36	393.37	2.7075e-05	1.8803e-05	394.48	163.87	172.93	79.297	4.2435e-05	72.322	0.0036146	0.0036542	0.0011026	1071.4	4.1617e-05	3.8667e-05	1068.1	411.67	3.9933e-05	4.0175e-05	497.09	179.21	184.98	79.821	4.548e-05	80.607	-28.175	-114.031	24.579	-114.172	-59.761	106.740	-116.400	-108.998	90.559	-49.460	-112.640	-108.611	-105.627	-100.713	-80.255	-105.494	-8191	255	
3127.865	1	1	0	0	0.04764	0.2784	0.17102	0.18835	0.14652	0.13152	0.14714	0.10379	0.079555	0.13613	0.087447	0.18587	0.11428	0.24396	0.026449	0.23943	-2.2875	-3.4521	-2.8375	-3.2958	-3.3771	-2.7271	-3.5146	-3.3063	-2.8271	-3.5625	-3.0833	-3.0896	-3.4542	-2.7875	-3.2958	-3.3	-45.089	-36.302	81.262	-114.577	-74.479	116.691	149.742	186.064	5.491	-33.456	14.617	153.739	200.018	203.011	128.769	87.187	0.00090128	0.00039108	0.00084471	934.66	1.2276e-05	1.1191e-05	987.46	397	2.4451e-05	2.3574e-05	393.06	166.54	173.26	79.875	1.8116e-05	73.082	0.0035511	0.003756	0.0011698	1063.1	4.0815e-05	4.0348e-05	1073.3	410.07	3.8333e-05	4.1261e-05	498.97	177.64	183.85	80.479	4.4061e-05	79.826	-26.717	154.536	-36.060	-114.212	88.213	-124.026	-116.694	-109.178	35.912	191.045	-112.168	-108.315	-105.603	-100.498	-0.568	-105.645	-8191	255	
3127.961	1	1	0	0	0.15038	0.088531	0.18397	0.19558	0.069477	0.15726	0.069243	0.22988	0.11078	0.13465	0.24191	0.10062	0.25778	0.13939	0.050204	0.092761	-2.3688	-3.4875	-2.8167	-2.9667	-3.3937	-2.7062	-3.4917	-3.3958	-2.8021	-3.3917	-3.1479	-2.95	-3.6521	-2.8146	-3.3229	-3.2792	11.844	162.456	-69.353	220.833	114.993	92.179	135.561	164.304	-107.307	-87.731	-48.414	-119.617	185.884	231.108	140.395	160.149	0.00038413	0.0013549	0.00042542	941.99	2.4651e-05	9.3835e-06	995.33	397.95	2.5925e-05	1.1111e-05	400.23	166.18	172.45	79.731	1.7589e-05	74.057	0.0033289	0.0037995	0.001139	1046.5	3.8836e-05	4.1772e-05	1067.1	406.58	3.7166e-05	4.2488e-05	495.52	176.77	182.75	81.332	4.2451e-05	79.492	-83.139	90.118	-45.553	-114.264	73.105	115.146	-116.316	-109.099	136.025	-43.440	-112.132	-108.707	-106.046	-100.606	18.200	-105.680	-8191	255	
3128.056	1	1	0	0	0.13447	0.094657	0.17133	0.3108	0.20853	0.19354	0.19731	0.3244	0.1676	0.1849	0.35163	0.1235	0.063094	0.27339	0.31801	0.19419	-2.3333	-3.3396	-2.9062	-2.6792	-3.325	-2.6604	-3.3375	-3.2854	-2.6417	-3.2958	-3.0896	-2.7208	-3.6083	-2.7938	-2.9708	-3.3833	-85.424	-92.568	166.779	100.670	63.398	146.872	170.988	220.513	76.747	232.562	227.767	125.976	-91.254	77.665	-123.086	196.825	0.00042262	0.0018509	0.00016738	929.54	1.6658e-05	2.7503e-05	989.16	391.81	2.1674e-05	1.7945e-05	396.59	165.81	171.43	79.312	1.1463e-05	73.346	0.0033424	0.0039978	0.0011069	1036.5	3.9609e-05	4.487e-05	1059.3	405.14	3.8701e-05	4.5034e-05	488.81	174.85	183.18	81.379	4.0896e-05	78.666	-99.762	182.250	211.401	-114.221	187.553	205.381	-116.629	-109.277	-93.610	43.932	-112.479	-108.520	-105.807	-100.336	17.282	-105.415	-8191	255	
3128.153	1	1	0	0	0.28812	0.087171	0.153	0.33458	0.12665	0.15401	0.097934	0.20468	0.33217	0.037808	0.12349	0.32883	0.20574	0.041779	0.012234	0.22431	-2.125	-3.1479	-3.0771	-2.8104	-3.3292	-2.6813	-3.1208	-3.4938	-2.7062	-3.2917	-3.3667	-2.7188	-3.6083	-3.0625	-2.9417	-3.5708	-70.218	-18.853	184.305	143.875	209.547	-109.790	101.372	-121.595	83.281	107.266	122.261	194.287	158.962	168.429	139.762	123.331	0.00082228	0.0026266	0.00055133	933.27	2.3036e-05	1.6396e-05	981.74	393.53	9.4092e-06	5.5842e-06	394.83	165.54	173.38	80.033	2.3064e-05	73.049	0.0034801	0.0041119	0.0010704	1031.3	4.1797e-05	4.6721e-05	1053.9	406.41	4.265e-05	4.6677e-05	492.33	177.19	189.23	82.878	4.291e-05	80.133	-30.679	-18.470	-76.912	-114.218	166.818	-83.836	-115.996	-109.253	222.783	11.401	-112.016	-108.820	-105.673	-100.697	86.755	-105.577	-8191	255	
3128.272	1	1	0	0	0.21486	0.25173	0.12449	0.11616	0.074374	0.16277	0.20433	0.30209	0.35187	0.032499	0.33688	0.20228	0.093447	0.17257	0.1832	0.34777	-2.3729	-3.2562	-3.1958	-2.5333	-3.3729	-3.0271	-2.9771	-3.5792	-2.6708	-3.0396	-3.3063	-2.8354	-3.2625	-2.9396	-2.6917	-3.4521	40.362	4.181	75.987	172.227	-54.759	-107.220	96.022	153.037	50.836	179.024	161.445	96.765	-105.310	186.322	-50.097	125.387	0.00094346	0.0019064	0.0011406	931.98	4.5927e-05	2.4719e-05	990.3	393.2	1.3334e-05	2.3181e-05	398.72	166.49	173.42	79.777	1.0991e-05	73.645	0.0040257	0.0043506	0.0011347	1048.3	4.6711e-05	4.7803e-05	1060	407.8	4.6015e-05	4.5819e-05	492.33	177.52	190.44	81.957	3.9943e-05	79.284	-71.498	78.607	231.052	-114.149	211.029	199.165	-116.381	-109.017	41.909	-11.378	-112.805	-108.951	-105.571	-100.530	83.470	-105.459	-8191	255	
3128.369	1	1	0	0	0.21228	0.12345	0.25393	0.18629	0.25374	0.26282	0.19694	0.13904	0.20671	0.16053	0.13262	0.064626	0.050455	0.089689	0.22427	0.16708	-2.3292	-3.1875	-3.3812	-2.7042	-3.4062	-2.975	-2.8229	-3.6917	-2.6979	-2.9688	-3.4229	-2.7458	-3.5312	-3.3396	-2.7958	-3.7271	44.109	-120.934	-97.417	160.731	115.772	65.573	136.171	131.760	96.515	135.873	29.763	126.401	123.932	212.704	-86.768	178.410	0.00061631	0.0028204	0.0013155	928.27	2.5325e-06	1.2646e-05	989.19	394.31	1.7077e-05	1.3422e-05	394	164.49	172.93	79.5	2.4625e-05	73.439	0.0039843	0.0038866	0.0010226	1032.7	4.4708e-05	4.2872e-05	1030.9	403.95	4.4262e-05	4.0878e-05	474.88	175.17	188.3	80.211	3.7147e-05	79.117	-61.731	-38.381	-90.373	-114.373	162.512	-5.343	-116.458	-108.934	176.976	5.985	-112.490	-109.069	-105.191	-100.895	92.455	-105.654	-8191	255	
3128.465	1	1	0	0	0.067364	0.12889	0.060299	0.35613	0.033058	0.11955	0.19011	0.04744	0.15376	0.13928	0.23156	0.083359	0.23185	0.22228	0.080273	0.17508	-2.5042	-3.0271	-3.3708	-2.7229	-3.3146	-3.1312	-2.7833	-3.4917	-2.95	-2.9417	-3.6271	-2.7917	-3.3083	-3.3979	-2.6104	-3.6833	116.839	125.482	-26.603	-36.028	100.529	208.228	109.307	-97.369	195.339	34.962	-107.076	146.013	-109.934	189.303	4.662	89.728	0.00055604	0.00064323	0.00068311	921.99	6.2565e-06	1.6809e-05	984.23	394.58	1.3768e-05	1.6809e-05	398.01	163.76	173.84	79.665	2.1408e-05	73.272	0.003938	0.003669	0.00098931	1043.8	4.3566e-05	4.1192e-05	1025.2	406.91	4.3747e-05	3.9615e-05	472.58	178.08	186.9	80.103	3.6891e-05	80.404	-40.099	23.581	-61.135	-114.617	135.280	-36.529	-116.160	-109.074	68.386	58.741	-112.373	-109.058	-105.928	-100.881	50.927	-105.430	-8191	255	
3128.561	1	1	0	0	0.060567	0.036369	0.095151	0.048058	0.16537	0.099126	0.17096	0.27965	0.21649	0.024304	0.039208	0.35013	0.25323	0.4098	0.13786	0.098076	-2.6167	-2.8063	-3.3438	-2.5375	-3.1208	-3.2729	-2.9167	-3.7542	-3.0833	-2.8875	-3.6167	-3.0833	-3.1708	-3.5	-2.8292	-3.3229	-76.295	-83.028	217.362	-85.055	39.022	213.793	212.759	222.534	100.071	-6.059	99.457	149.174	-39.493	231.633	98.199	184.990	0.00037854	0.0025164	0.00098002	925.84	3.0625e-05	1.0522e-05	987.96	395.74	1.7966e-06	3.4531e-05	394.55	164.93	173.22	79.237	7.8892e-06	73.702	0.0038211	0.0035535	0.00097765	1060.8	4.1842e-05	3.9975e-05	1030.9	411.74	4.1855e-05	3.8389e-05	476.31	180.11	185.5	79.697	3.7507e-05	80.806	-0.250	13.420	181.640	-114.586	220.286	-4.439	-116.384	-109.093	-14.906	6.289	-112.237	-108.944	-105.560	-100.503	136.926	-104.917	-8191	255	
3128.657	1	1	0	0	0.26683	0.24356	0.070473	0.15919	0.17138	0.061178	0.14644	0.13786	0.17156	0.145	0.13111	0.2346	0.066858	0.13324	0.10122	0.31864	-2.3937	-2.4688	-3.4188	-2.8688	-3.1167	-3.3208	-2.8167	-3.3479	-3.0458	-2.6771	-3.5771	-2.9958	-2.8917	-3.6292	-2.8667	-3.2833	-39.944	59.671	3.858	155.086	-49.250	-86.727	186.048	151.506	196.475	80.335	56.195	138.635	192.583	-125.110	-22.266	227.422	0.00055638	0.00049818	0.00029173	926.15	3.4898e-05	2.133e-05	986.89	393.88	3.0174e-05	4.5821e-05	392.52	164.08	172.94	79.564	2.4056e-05	73.163	0.0036542	0.0034202	0.00099933	1062.6	3.9378e-05	3.8428e-05	1034.1	410.5	3.9849e-05	3.6566e-05	478.4	179.13	182.7	79.295	3.9982e-05	79.954	11.738	-21.962	194.718	-113.825	33.416	128.016	-116.614	-108.649	-21.144	48.754	-112.416	-108.829	-105.674	-100.647	184.049	-105.375	-8191	255	
3128.753	1	1	0	0	0.19647	0.10951	0.23843	0.29177	0.19398	0.1526	0.30325	0.24471	0.14063	0.27242	0.37955	0.22202	0.51532	0.39996	0.1815	0.26066	-2.8354	-2.7667	-3.6146	-3.0583	-2.8187	-3.5667	-2.9792	-3.3521	-3.3083	-2.7833	-3.4833	-3.0687	-2.8187	-3.6729	-2.675	-3.05	-78.377	152.595	215.876	108.394	113.112	-103.288	207.407	-100.660	157.413	59.602	152.079	-3.269	164.652	204.908	-34.657	-107.724	0.00071248	0.0016424	0.0012422	922.24	2.6646e-05	9.7972e-06	977.56	395.24	1.0643e-05	1.2014e-05	387.72	165.56	172.26	79.696	2.9188e-05	74.358	0.00354	0.0033484	0.0010529	1056.7	3.845e-05	3.7969e-05	1046.5	408.23	3.9101e-05	3.6805e-05	486.41	178.38	181.93	79.551	4.2318e-05	79.887	0.323	61.888	226.070	-114.083	-29.451	191.810	-116.463	-108.931	14.654	36.152	-111.957	-108.608	-105.832	-100.691	152.373	-105.232	-8191	255	
3128.874	1	1	0	0	0.15493	0.24592	0.052995	0.14455	0.14119	0.1192	0.2027	0.35173	0.18977	0.2413	0.13522	0.14723	0.052422	0.25268	0.14544	0.21724	-2.9542	-2.5771	-3.2188	-3.1188	-2.8187	-3.5479	-2.8937	-3	-3.3792	-2.6167	-3.4458	-3.2979	-2.5917	-3.6375	-2.9417	-3.075	162.723	-100.597	-46.664	123.698	102.467	216.959	191.163	217.859	19.306	-72.904	221.604	198.002	125.958	188.090	172.026	194.112	0.00024994	0.001427	0.00091169	928.09	2.0849e-05	2.5621e-05	978.84	395.21	2.3837e-05	1.2781e-05	401.31	167.34	172.2	79.382	9.8383e-06	73.758	0.0035098	0.003449	0.0011092	1053.2	3.8065e-05	3.8983e-05	1059.7	406.42	3.8848e-05	3.8686e-05	496.98	178.6	181.84	80.341	4.3751e-05	79.418	110.584	51.927	-95.039	-114.459	120.837	-25.092	-116.537	-109.028	65.544	72.893	-111.697	-108.852	-105.416	-100.571	-127.006	-105.132	-8191	255	
3128.968	1	1	0	0	0.11207	0.073667	0.17456	0.34645	0.21163	0.071459	0.31778	0.22023	0.09809	0.18841	0.11453	0.16053	0.23038	0.20891	0.049502	0.31212	-3.0104	-2.4833	-3.1833	-3.2333	-2.4938	-3.4917	-2.8083	-3.0875	-3.3812	-2.6979	-3.3521	-3.3187	-2.8708	-3.4229	-2.9958	-2.7375	-87.596	-83.641	203.401	196.281	174.895	-70.732	180.506	222.020	-124.802	204.939	132.799	213.496	224.736	213.637	220.788	104.499	0.0010483	0.00048024	0.00080059	925.17	5.9773e-06	6.1902e-06	982.63	396.17	1.286e-05	1.3782e-05	398.52	165.91	171.79	79.828	1.7583e-05	73.224	0.003426	0.0036457	0.0011182	1043.4	3.7077e-05	4.1123e-05	1058.2	403.18	3.7824e-05	4.0778e-05	490.81	176.22	180.26	80.858	4.2817e-05	78.596	-49.981	-17.316	-66.086	-114.420	-58.787	56.863	-116.472	-108.987	-39.998	-88.355	-112.030	-108.996	-105.452	-100.671	-45.239	-105.014	-8191	255	
3129.042	1	1	0	0	0.053634	0.26793	0.11679	0.3261	0.10026	0.07803	0.20094	0.1106	0.13497	0.21607	0.12128	0.2252	0.24199	0.12567	0.20027	0.1872	-3.1521	-2.6813	-3.1625	-3.2896	-2.7292	-3.4333	-3.0708	-2.9292	-3.4271	-2.7917	-3.1	-3.3417	-2.7521	-3.3958	-2.9521	-2.8021	-32.081	94.053	174.300	130.875	225.761	229.650	117.263	-34.761	189.540	127.558	-26.048	197.656	209.772	209.624	95.102	-118.343	0.00022293	0.00092416	0.00053484	928.43	1.1265e-05	2.732e-05	983.65	394.73	2.1086e-05	4.4905e-05	400.63	165.82	173.5	80.143	1.6269e-05	74.052	0.0033606	0.0038711	0.0010707	1036.9	3.7053e-05	4.3654e-05	1050.9	401.05	3.8048e-05	4.3248e-05	486.34	176.56	181.86	81.776	4.1262e-05	78.649	-86.552	64.709	-3.735	-114.387	163.311	202.032	-116.553	-108.873	-40.341	127.666	-111.764	-108.495	-105.476	-100.296	-1.727	-105.393	-8191	255	
3129.138	1	1	0	0	0.11805	0.14644	0.09682	0.30303	0.20789	0.15473	0.1603	0.32297	0.176	0.068407	0.20271	0.22386	0.20334	0.22703	0.24352	0.24892	-3.1333	-2.9417	-2.9875	-3.6396	-2.7875	-3.3667	-3.3271	-2.6792	-3.5875	-2.7812	-2.9771	-3.5125	-2.6271	-3.2792	-3.2562	-2.7083	-100.222	-64.032	53.249	140.078	107.106	-34.860	177.845	149.569	220.312	-125.020	173.366	-123.339	187.038	172.440	147.542	-47.007	0.0010111	0.0002833	0.00023451	931.48	3.483e-05	2.4762e-05	987.9	394.86	2.4004e-05	2.4284e-05	401.83	167.11	173.74	80.381	1.4307e-05	74.399	0.0034565	0.0040454	0.001033	1033.5	3.8637e-05	4.4213e-05	1046.6	400.02	3.9696e-05	4.4111e-05	481.6	176.23	184.66	81.804	4.0177e-05	78.416	-96.965	-22.526	13.931	-113.917	153.134	34.012	-116.441	-109.015	-69.454	77.194	-112.116	-108.627	-106.136	-100.269	40.343	-105.388	-8191	255	
3129.234	1	1	0	0	0.1113	0.13008	0.09507	0.03923	0.16031	0.15478	0.16	0.10996	0.041257	0.26965	0.11997	0.14152	0.3168	0.32541	0.15812	0.089318	-3.2292	-2.9021	-2.825	-3.4854	-2.6063	-3.1479	-3.2854	-2.6979	-3.4646	-3.0083	-2.95	-3.6604	-2.7062	-3.1146	-3.1479	-2.6167	28.236	36.459	167.641	44.836	192.998	31.038	107.941	171.534	-51.376	164.080	-88.299	155.452	226.958	-84.909	-82.360	-7.182	0.00080512	0.0014363	0.00068476	924.86	6.231e-05	1.8273e-05	988.93	393.91	3.3482e-05	3.5502e-05	395.5	165.59	172.79	79.728	1.4991e-05	74.148	0.0036224	0.0039831	0.00099245	1025.2	4.1078e-05	4.266e-05	1041.3	398.07	4.1542e-05	4.2771e-05	472.13	174.76	186.07	80.799	3.8779e-05	77.944	-50.166	-54.927	229.246	-114.028	221.669	40.289	-116.662	-109.183	-60.048	-29.449	-111.698	-108.402	-105.468	-100.175	182.607	-105.283	-8191	255	
3129.353	1	1	0	0	0.10456	0.17524	0.031723	0.21907	0.023737	0.097546	0.33468	0.062636	0.09848	0.19559	0.23194	0.08894	0.23526	0.23211	0.15647	0.21865	-2.7396	-2.7708	-2.6292	-3.4917	-2.4333	-2.8917	-3.3438	-2.6125	-3.225	-3.1646	-2.6958	-3.4562	-2.9417	-3.0542	-3.3542	-2.7854	-51.924	227.838	91.027	214.759	68.666	-23.184	149.444	-81.641	164.728	89.452	113.763	-90.562	-13.549	128.444	-9.617	109.720	0.0013789	0.0020372	0.00032843	925.78	1.0156e-05	3.8503e-05	985.03	394.49	1.0503e-05	1.8476e-05	396.88	166.93	173.45	80.302	5.3882e-06	74.08	0.0037996	0.0038375	0.00096654	1027.1	4.2744e-05	4.1106e-05	1033.9	400.54	4.3101e-05	4.1233e-05	469.8	177.02	188.15	80.647	3.847e-05	79.262	-33.869	-16.638	-7.603	-114.269	160.066	81.766	-116.177	-108.924	-99.621	-27.276	-111.883	-108.592	-105.722	-100.490	136.852	-105.406	-8191	255	
3129.449	1	1	0	0	0.1257	0.10219	0.13577	0.14413	0.28369	0.18264	0.19541	0.21215	0.20467	0.16989	0.16402	0.1661	0.2056	0.19232	0.11424	0.20525	-2.8312	-3.0687	-2.3604	-3.2562	-2.9375	-2.9292	-3.3583	-2.7229	-3.2604	-3.0875	-2.725	-3.4729	-2.8458	-2.9583	-3.4313	-2.7125	61.838	106.035	-39.487	-125.777	125.383	27.107	134.237	167.499	60.385	205.547	96.343	206.917	190.459	-118.355	208.598	185.321	0.00070974	0.0022076	0.0005747	924.91	8.5367e-06	2.3611e-05	987.45	397.04	2.6542e-05	1.8403e-05	403.74	168.19	173.42	79.914	1.5717e-05	73.943	0.003886	0.0037775	0.00095638	1048.9	4.4208e-05	4.0656e-05	1036.9	408.19	4.3692e-05	4.1157e-05	473.21	180.67	188.8	80.453	3.8728e-05	81.01	-50.730	-72.925	14.600	-114.347	-37.357	124.828	-116.164	-108.670	33.123	96.985	-112.284	-109.239	-105.645	-100.489	25.850	-105.805	-8191	255	
3129.545	1	1	0	0	0.061361	0.22624	0.029285	0.084257	0.047097	0.066898	0.33897	0.12161	0.20495	0.25698	0.23951	0.22756	0.12961	0.31725	0.067939	0.13244	-2.5708	-3.2583	-2.4938	-3.5792	-2.625	-2.5896	-3.4833	-2.7271	-3.0208	-3.5167	-2.4354	-3.5438	-2.9208	-2.5875	-3.4437	-2.7833	30.124	172.310	-68.916	164.043	-103.511	-3.748	189.315	146.341	129.791	99.862	207.936	176.033	193.625	197.615	151.032	159.987	0.00026474	0.00017546	0.00078941	925	2.6353e-05	1.9507e-05	977.5	393.26	1.673e-05	1.9576e-05	398.32	166.33	172.72	79.543	7.7108e-06	73.72	0.0038439	0.003726	0.00095757	1060.5	4.2799e-05	3.9499e-05	1030.8	409.18	4.1754e-05	3.9896e-05	468.78	180.4	185.95	79.788	3.8563e-05	81.166	-39.776	80.285	9.976	-114.464	53.193	61.724	-116.326	-109.476	-11.285	-12.366	-112.623	-108.923	-105.598	-100.400	160.475	-105.545	-8191	255	
3129.666	1	1	0	0	0.21095	0.1162	0.11266	0.055718	0.16549	0.19801	0.27305	0.047781	0.22614	0.18566	0.23913	0.13668	0.22804	0.18632	0.20147	0.090167	-2.5271	-3.2167	-2.5583	-3.3667	-3.1208	-2.5854	-3.6417	-2.9542	-3.0062	-3.3146	-2.6354	-3.3625	-3.3667	-2.6562	-3.4583	-3.0958	134.912	162.080	-107.726	47.087	48.088	-109.951	-119.858	-65.382	136.742	-23.901	108.178	183.805	228.815	-108.682	-74.041	220.769	0.00082032	0.00024055	0.00052476	925.41	2.6838e-05	2.0055e-05	985.65	394.56	1.0054e-05	1.9256e-05	397.38	168.05	174.05	79.923	6.8482e-06	74.667	0.0036743	0.0036093	0.00098651	1066.1	4.123e-05	3.8024e-05	1038.8	411.03	3.9639e-05	3.8457e-05	476.97	181.09	184.65	79.328	4.0081e-05	81.4	32.487	88.622	177.765	-114.683	34.434	114.272	-116.292	-108.940	-53.461	56.325	-112.218	-108.755	-105.370	-100.445	165.634	-106.225	-8191	255	
3129.737	1	1	0	0	0.21113	0.13556	0.030287	0.12282	0.19149	0.20232	0.040126	0.20544	0.20797	0.24025	0.12731	0.085868	0.49889	0.20327	0.24576	0.18933	-2.4104	-3.3	-2.5687	-3.2083	-3.2354	-2.5292	-3.475	-3.125	-2.6396	-3.4021	-2.6667	-3.1625	-3.2771	-2.6542	-3.3583	-3.1542	-119.171	198.143	6.619	226.523	132.459	-4.249	-10.144	151.374	5.446	-117.843	75.698	170.850	207.151	137.188	155.396	140.391	0.00042506	0.00068208	0.0015698	929.92	3.0346e-05	2.9202e-05	992.68	398.98	3.1704e-05	9.2424e-06	403.47	167.71	173.48	79.979	3.1093e-05	73.95	0.003462	0.0034798	0.0010353	1061	3.9854e-05	3.6997e-05	1053.6	410.63	3.8344e-05	3.7915e-05	488.96	180.11	183.86	79.309	4.2149e-05	80.663	-49.123	-102.343	205.311	-113.805	45.500	77.788	-116.313	-109.195	80.240	42.866	-112.336	-108.616	-105.697	-100.436	229.950	-104.884	-8191	255	
3129.833	1	1	0	0	0.11961	0.16463	0.1997	0.37113	0.20309	0.038794	0.17487	0.14394	0.086154	0.19621	0.22226	0.099759	0.044101	0.09162	0.32447	0.20516	-2.3708	-3.3438	-2.6188	-3.1271	-3.0438	-2.6833	-3.4354	-3.0354	-2.5104	-3.3667	-2.8729	-3.0646	-3.4542	-2.65	-3.4542	-3.1729	13.801	190.421	-45.372	-103.746	-18.454	28.565	106.837	211.699	58.961	9.673	150.092	-44.693	185.575	180.138	-115.718	75.805	0.00028883	0.0013145	0.00063255	927.19	1.2209e-05	1.3523e-05	994.35	396.06	1.6076e-05	2.6652e-05	400.77	166.69	173.12	79.716	9.3672e-06	73.593	0.0033723	0.0034834	0.0010861	1049.3	3.8931e-05	3.7464e-05	1060.1	406.55	3.7336e-05	3.8576e-05	492.45	177.92	182.77	79.542	4.3153e-05	79.615	20.175	189.293	76.708	-114.457	10.456	-109.233	-116.190	-109.184	-48.112	-111.826	-112.528	-109.086	-105.725	-100.624	226.995	-105.374	-8191	255	
3129.954	1	1	0	0	0.28754	0.21205	0.17309	0.16857	0.24163	0.16535	0.16208	0.25786	0.13868	0.18161	0.25016	0.13384	0.20274	0.024713	0.1543	0.056546	-2.2167	-3.3187	-2.6479	-2.7271	-3.2708	-2.8104	-3.2646	-3.125	-2.6167	-3.2354	-2.8167	-2.9083	-3.4688	-2.775	-3.1896	-3.35	-83.614	69.861	115.489	-101.447	219.657	39.831	150.184	-125.542	190.291	97.304	15.138	230.522	216.197	12.751	129.315	213.130	0.00066561	0.0018944	0.00053832	931.73	1.3783e-05	1.5459e-05	981.28	395.15	1.4195e-05	1.6376e-05	398.45	166.49	172.45	80.163	1.749e-05	74.394	0.0033117	0.0036368	0.0011181	1039.8	3.8339e-05	4.0136e-05	1059.2	404.33	3.6485e-05	4.0769e-05	493.42	176.44	182.07	80.771	4.2798e-05	79.559	-44.664	192.533	-119.154	-114.068	-79.411	-43.139	-116.312	-108.872	154.006	211.514	-111.629	-108.358	-105.050	-100.337	-120.336	-105.177	-8191	255	
3130.049	1	1	0	0	0.17628	0.14335	0.08984	0.11179	0.052092	0.2878	0.24725	0.2285	0.18022	0.25142	0.14914	0.03682	0.12032	0.094044	0.11046	0.14473	-2.2562	-3.1021	-3.0875	-2.8563	-3.2917	-2.7458	-2.9979	-3.375	-2.5625	-3.225	-3.2083	-2.9229	-3.3312	-2.9375	-3.1396	-3.6208	-14.091	198.285	8.045	150.066	-38.526	-74.999	-63.593	198.681	159.600	-81.417	-49.933	123.716	195.559	-20.779	-32.158	112.638	0.00092696	0.0020782	0.0012024	926.63	2.0828e-05	1.754e-05	990.28	393.07	9.9055e-06	1.3271e-05	399.96	168.55	173.38	79.844	1.6994e-05	74.115	0.0033072	0.0038865	0.0011004	1034.9	3.8134e-05	4.3192e-05	1058.3	403.92	3.6881e-05	4.3593e-05	492.25	176.35	183.24	81.647	4.1087e-05	79.423	-59.246	150.660	-84.554	-113.661	119.115	231.556	-115.656	-108.432	190.557	-81.888	-112.083	-108.210	-105.352	-100.233	-24.618	-104.702	-8191	255	
3130.146	1	1	0	0	0.17703	0.071367	0.20414	0.15576	0.091996	0.20439	0.15205	0.17991	0.064894	0.042541	0.14234	0.0084716	0.14759	0.16221	0.27502	0.28048	-2.1521	-3.4083	-3.0687	-2.6771	-3.4188	-2.7438	-2.9896	-3.5042	-2.6521	-3.1896	-3.2521	-2.7188	-3.4729	-2.9583	-2.7417	-3.4771	-115.982	-62.713	113.056	-66.554	-48.718	163.941	-91.020	-95.781	-60.251	96.187	163.523	-117.099	-72.934	203.562	37.752	-124.642	0.0013111	0.0020654	0.00062347	923.71	2.1014e-05	8.4339e-06	985.76	393.15	9.0032e-06	1.2706e-05	396.19	166.73	172.13	79.304	2.0603e-05	73.908	0.003373	0.0040489	0.0010636	1026.5	3.927e-05	4.4469e-05	1041.9	401.31	3.8942e-05	4.4361e-05	482.73	173.9	183.73	81.064	3.9392e-05	78.296	-32.964	209.108	-81.380	-113.633	200.410	104.185	-115.508	-108.565	151.554	-25.254	-112.240	-108.522	-104.935	-100.657	-66.873	-105.241	-8191	255	
3130.265	1	1	0	0	0.11766	0.11152	0.13259	0.42178	0.18462	0.24526	0.26631	0.057287	0.25247	0.04868	0.19422	0.12593	0.21803	0.24787	0.297	0.20639	-2.1979	-3.175	-3.1	-2.6354	-3.275	-2.7146	-2.9146	-3.4771	-2.5104	-3.0021	-3.2062	-2.7125	-3.4	-3.0646	-2.65	-3.4938	47.865	85.601	-72.179	131.407	177.992	-113.059	149.993	148.754	126.734	132.381	168.360	-120.496	115.975	150.279	144.076	212.122	0.0012268	0.0013188	0.001826	923.04	3.1139e-05	2.012e-05	982.79	394.33	3.7949e-05	3.4473e-05	398.13	166.59	171.4	79.559	2.0251e-05	73.438	0.0035389	0.0040014	0.0010248	1016.5	4.1259e-05	4.3936e-05	1033.2	399.14	4.1524e-05	4.2998e-05	479.67	174.45	186.36	81.022	3.8753e-05	78.527	-55.919	223.143	-51.645	-113.566	-122.819	115.518	-115.595	-108.728	-89.633	12.117	-111.995	-108.354	-105.425	-100.245	49.835	-105.235	-8191	255	
3130.337	1	1	0	0	0.12227	0.12464	0.048286	0.2421	0.18269	0.037336	0.053175	0.29854	0.031801	0.06519	0.077491	0.23741	0.082388	0.21008	0.35231	0.065726	-2.1354	-3.0521	-3.2125	-2.6458	-3.3187	-2.9792	-2.6667	-3.4333	-2.7417	-3.0458	-3.4083	-2.6604	-3.4271	-3.1729	-2.6437	-3.5625	122.713	-89.697	79.024	87.703	-36.413	40.451	-62.741	163.301	218.759	194.266	36.833	231.203	160.368	100.579	58.162	157.455	0.00089811	0.0022966	0.00051843	923.77	9.32e-06	1.4869e-05	990.47	396.69	2.8159e-05	1.9527e-05	398.18	165.88	172.83	79.592	2.3064e-05	74.114	0.0038106	0.003912	0.0010186	1024.7	4.4206e-05	4.3394e-05	1037.1	403.83	4.4055e-05	4.2058e-05	479.93	176.06	188.85	80.741	3.8446e-05	79.511	-56.245	59.799	227.121	-114.136	152.854	28.715	-115.871	-108.472	216.120	13.272	-112.278	-108.174	-104.897	-100.581	-38.310	-105.486	-8191	255	
3130.433	1	1	0	0	0.12053	0.15779	0.12682	0.23757	0.30044	0.17172	0.15513	0.30522	0.1415	0.14727	0.056772	0.13937	0.2094	0.21088	0.22492	0.21657	-2.1979	-2.8125	-3.2667	-2.5687	-3.2562	-3.1521	-2.7583	-3.3354	-2.8208	-2.8896	-3.3667	-2.5792	-3.3438	-3.2625	-2.5583	-3.475	136.378	124.122	-7.705	-65.530	-110.704	225.723	201.000	189.053	91.809	-118.197	17.494	210.981	-93.306	-105.784	46.442	168.452	0.00086853	0.0016361	0.00041123	918.63	8.3583e-06	1.3264e-05	982.09	389.74	1.7332e-05	1.8191e-05	393.42	163.71	172.41	78.687	1.2482e-05	73.182	0.0039778	0.0037832	0.00099594	1037.6	4.4372e-05	4.138e-05	1025	404.38	4.4098e-05	4.0061e-05	474.03	177.21	187.02	79.957	3.7376e-05	79.974	-51.578	-34.967	202.860	-113.772	8.321	22.914	-115.591	-108.344	123.317	-90.925	-112.009	-108.400	-105.040	-100.004	-9.924	-105.565	-8191	255	
3130.554	1	1	0	0	0.28365	0.21126	0.068612	0.096729	0.14806	0.15627	0.17373	0.09513	0.23357	0.27455	0.13266	0.20633	0.20163	0.09647	0.2132	0.083393	-2.3458	-2.7438	-3.2812	-2.8729	-3.0271	-3.1854	-2.6854	-3.4396	-2.7313	-2.6708	-3.3063	-2.8521	-3.1292	-3.2313	-2.5062	-3.3521	180.076	169.812	30.838	187.822	155.365	-5.141	195.074	-119.029	8.227	32.497	228.397	-23.720	182.968	201.833	-15.159	208.242	0.00019068	0.00074969	0.00075947	927.88	4.045e-05	1.6623e-05	979.95	394.31	1.0005e-06	7.5142e-06	399.4	164.98	173.16	78.952	7.3277e-06	73.31	0.0039416	0.0036673	0.00098631	1058.1	4.3475e-05	4.0981e-05	1025.1	410.32	4.3894e-05	3.9616e-05	475.8	180.25	186.44	79.774	3.846e-05	81.148	-50.906	-18.797	-36.393	-113.556	23.367	-27.652	-116.042	-108.612	163.865	-65.900	-111.962	-108.228	-104.899	-100.156	228.292	-105.154	-8191	255	
3130.650	1	1	0	0	0.18353	0.047614	0.13866	0.0024935	0.14214	0.32061	0.29067	0.13735	0.11204	0.063791	0.22688	0.23246	0.0059252	0.39167	0.055715	0.29612	-2.5917	-2.6042	-3.4	-2.6917	-2.9125	-3.2021	-2.7146	-3.2396	-2.9958	-2.7646	-3.6208	-2.7708	-2.9188	-3.3542	-2.4646	-3.2479	16.982	119.073	-107.896	91.153	183.730	79.949	224.058	124.580	149.092	116.408	209.406	131.563	-65.752	147.996	-6.779	-102.774	0.00055611	0.0023878	0.001211	920.9	3.1994e-05	1.9348e-05	979.78	394.21	1.6442e-05	2.4906e-05	396.45	165.81	173.33	79.204	4.087e-05	73.516	0.003841	0.0036224	0.0010223	1074.7	4.2264e-05	4.0755e-05	1036.6	413.1	4.2242e-05	3.9149e-05	486.09	182.63	185.57	79.873	4.1348e-05	81.96	-102.204	-20.760	96.116	-113.492	57.143	79.433	-115.817	-108.535	58.843	-16.779	-111.913	-108.233	-105.134	-99.987	191.130	-104.956	-8191	255	
3130.746	1	1	0	0	0.11566	0.045003	0.038121	0.25866	0.1764	0.10449	0.22418	0.1556	0.35136	0.14074	0.037169	0.19109	0.038459	0.32279	0.1364	0.19456	-2.7708	-2.4979	-3.2479	-2.8083	-2.7875	-3.3208	-2.7979	-3.2188	-3.1354	-2.5062	-3.4042	-2.9562	-2.7542	-3.5563	-2.6146	-3.1208	2.086	47.477	-8.077	142.760	-107.611	51.661	169.841	213.114	101.792	137.490	-112.261	199.061	157.490	-113.096	24.634	203.357	0.00064301	0.00080221	3.0664e-05	921.58	4.2663e-05	8.3953e-06	989.37	393.05	2.3887e-05	1.0277e-05	394.8	165.8	172.24	78.513	1.2313e-05	73.418	0.003736	0.003556	0.0010801	1069.3	4.0801e-05	3.9438e-05	1052.7	409.86	4.1099e-05	3.8022e-05	490.44	180.28	182.57	79.047	4.2956e-05	80.509	-38.574	-21.191	-62.274	-114.031	-31.712	73.767	-116.078	-108.236	-23.773	38.019	-112.279	-108.275	-104.706	-99.700	116.399	-104.926	-8191	255	
3130.842	1	1	0	0	0.22455	0.22079	0.184	0.16845	0.16181	0.067504	0.28366	0.27735	0.11006	0.25828	0.24601	0.34506	0.3112	0.39492	0.047277	0.19514	-2.7646	-2.55	-3.2812	-3.0875	-2.5229	-3.4583	-2.6979	-3.2292	-3.1521	-2.4917	-3.3208	-3.0542	-2.8208	-3.4208	-2.7521	-2.8583	101.152	111.202	163.776	184.943	2.199	-3.672	208.635	160.514	186.832	180.359	192.697	216.531	151.182	182.428	29.141	229.938	0.0011149	0.0021604	0.00031899	934.52	4.0898e-05	1.082e-05	982.12	394.59	1.7539e-05	3.0915e-05	394.54	166.12	171.7	78.812	1.1239e-05	73.47	0.0035969	0.0034993	0.0011203	1059.9	3.9184e-05	3.9282e-05	1059	405.34	3.9679e-05	3.8647e-05	495.5	178.75	181.38	79.665	4.4382e-05	79.533	-37.896	74.974	178.241	-113.426	4.175	159.773	-115.703	-108.428	-18.728	219.487	-111.518	-108.196	-104.897	-99.981	-3.471	-104.560	-8191	255	
3130.938	1	1	0	0	0.040971	0.15415	0.17957	0.41184	0.33902	0.15504	0.21561	0.16528	0.10075	0.14443	0.12158	0.11415	0.17888	0.18825	0.26119	0.23683	-3.0438	-2.5479	-3.2104	-3.2125	-2.5854	-3.2854	-2.8854	-2.9	-3.1854	-2.6417	-3.3333	-3.2687	-2.5208	-3.525	-2.5396	-2.8021	184.024	84.076	-1.277	-119.340	224.523	162.876	218.749	-112.769	188.646	-40.573	-116.513	208.093	-67.981	-87.635	-112.282	-122.134	0.00069938	0.00071923	0.00023222	926.77	1.3627e-05	1.3047e-05	982.89	392.3	1.2649e-05	1.5741e-05	401.59	165.99	172.37	79.072	2.5643e-05	73.382	0.0035224	0.0036486	0.0011453	1049.9	3.8461e-05	4.1436e-05	1068.3	403.86	3.9072e-05	4.1406e-05	498.7	178.05	181.06	80.481	4.4542e-05	79.125	-16.261	66.572	13.993	-113.435	-63.144	-104.022	-116.178	-108.169	97.354	21.081	-111.149	-108.164	-104.662	-100.019	-35.165	-104.079	-8191	255	
3131.034	1	1	0	0	0.066915	0.27944	0.097113	0.18087	0.23058	0.21033	0.049504	0.078592	0.1204	0.3058	0.31355	0.16224	0.081946	0.082783	0.10414	0.18242	-2.8896	-2.6063	-3.2062	-3.2	-2.5375	-3.375	-2.8167	-2.8771	-3.3792	-2.7104	-3.1979	-3.3271	-2.6708	-3.4167	-2.9354	-2.9062	-24.794	111.686	169.886	-98.554	67.240	-29.327	58.877	-101.385	129.196	133.526	-92.352	191.039	40.572	-92.432	104.803	165.242	0.00044218	0.0031658	0.00064997	922.58	5.2897e-06	9.605e-06	976.13	391.19	2.4135e-05	1.5888e-05	391.45	163.71	170.6	78.23	1.93e-05	72.547	0.0034259	0.0039121	0.0011207	1042.6	3.7786e-05	4.38e-05	1057.5	400.99	3.9117e-05	4.4154e-05	489.32	175.82	180.28	80.588	4.2941e-05	77.871	-55.464	161.230	-37.874	-113.562	-106.937	-103.913	-115.593	-108.094	36.155	189.860	-111.448	-108.459	-105.101	-99.547	-45.856	-104.394	-8191	255	
3131.129	1	1	0	0	0.33127	0.061177	0.3393	0.033183	0.34303	0.18926	0.18244	0.15341	0.052484	0.11333	0.25227	0.15148	0.20548	0.17946	0.051371	0.076491	-3.0542	-2.6063	-3.0333	-3.4104	-2.4229	-3.3958	-3.0917	-2.8396	-3.2875	-2.7146	-3.1229	-3.3771	-2.8563	-3.4437	-2.975	-2.6521	-99.879	126.559	37.928	-75.625	-78.340	-70.798	153.611	191.013	83.061	218.514	96.337	140.612	167.448	-52.735	-24.736	110.751	0.0008943	0.0028996	0.00041439	929.97	1.9894e-05	1.1415e-05	975.67	390.46	1.1544e-05	4.7131e-06	398.83	163.64	171.17	79.051	1.3785e-05	72.986	0.0034998	0.0040768	0.0010623	1034.8	3.8342e-05	4.5064e-05	1046.8	398.05	3.9639e-05	4.4959e-05	482.03	174.39	182.16	81.014	4.1184e-05	77.867	-37.192	105.505	-17.581	-113.131	-82.614	9.927	-115.745	-108.063	-88.578	86.046	-112.152	-108.215	-105.479	-100.035	42.508	-104.684	-8191	255	
3131.227	1	1	0	0	0.11241	0.21947	0.067808	0.17883	0.2059	0.070851	0.27619	0.090411	0.065255	0.1423	0.22889	0.11689	0.19476	0.56933	0.1287	0.2747	-3.05	-2.8146	-3	-3.4604	-2.5646	-3.2125	-3.2875	-2.7521	-3.2167	-2.8688	-2.8396	-3.3708	-2.7083	-3.2458	-3.2708	-2.7667	41.218	50.804	17.220	131.057	-59.682	170.293	156.319	205.874	69.873	148.417	68.357	76.767	181.469	197.226	-85.824	133.543	0.0011562	0.0018259	0.00075341	929.86	2.0721e-05	1.2825e-05	977.39	392.83	6.27e-06	3.083e-05	393.68	165.64	172.88	79.516	6.7348e-06	73.974	0.0036294	0.0041361	0.0010331	1027	4.1058e-05	4.4391e-05	1045.3	398.48	4.2211e-05	4.4559e-05	478.6	175.92	186.18	81.401	4.0762e-05	78.549	-63.751	-41.602	-124.701	-113.982	-120.448	31.671	-115.903	-108.283	-64.548	21.860	-111.861	-108.501	-105.152	-99.877	233.695	-104.673	-8191	255	
3131.346	1	1	0	0	0.069399	0.14216	0.22084	0.21022	0.21227	0.30308	0.14309	0.23236	0.18678	0.094276	0.096263	0.31883	0.14385	0.14255	0.37254	0.12584	-2.9208	-2.7979	-2.8021	-3.3479	-2.4354	-3.0625	-3.475	-2.5875	-3.2708	-2.9062	-2.7792	-3.5875	-2.6813	-3.1229	-3.2729	-2.5229	-47.168	-102.458	123.081	146.804	166.071	-56.355	148.607	176.034	51.230	213.345	158.399	201.990	213.151	-99.853	-120.398	180.403	0.00065835	0.0021498	0.0013414	915.63	2.2507e-05	1.0308e-05	979.62	391.58	3.6225e-05	1.8312e-05	392.6	163.7	169.7	79.011	1.0188e-05	72.814	0.0038937	0.0040519	0.0010157	1027	4.4129e-05	4.3239e-05	1037.7	397.79	4.4266e-05	4.3276e-05	471.73	175.1	186.86	80.075	3.9575e-05	78.06	-66.142	59.262	-40.311	-113.716	221.177	18.825	-116.067	-108.635	-78.561	-5.693	-111.972	-108.014	-104.450	-99.668	-50.589	-105.007	-8191	255	
3131.442	1	1	0	0	0.11444	0.18825	0.23022	0.1625	0.26176	0.090898	0.22698	0.33252	0.28939	0.11992	0.11683	0.23334	0.19856	0.36333	0.090935	0.22512	-2.9479	-2.9104	-2.6792	-3.4229	-2.7583	-2.8979	-3.4688	-2.6937	-3.2083	-2.9667	-2.6875	-3.5083	-2.9417	-3.0062	-3.4562	-2.7438	103.426	156.263	50.308	-74.355	-61.443	155.479	217.269	169.541	-90.646	133.182	215.396	223.333	215.480	-112.759	-56.466	187.931	0.00098217	0.0026365	0.00069329	918.72	3.18e-06	2.1673e-05	974.48	391.12	2.261e-05	1.7302e-05	396.77	164.29	171.06	78.636	1.1323e-05	72.537	0.0039657	0.0038495	0.00096829	1035.3	4.4233e-05	4.1036e-05	1027.3	400.26	4.3865e-05	4.1119e-05	469.07	177.58	187.16	79.518	3.8565e-05	79.307	-70.183	-16.355	-82.905	-113.550	-61.544	14.325	-115.794	-108.576	72.541	-22.572	-111.408	-108.394	-104.778	-99.712	-56.641	-104.971	-8191	255	
3131.538	1	1	0	0	0.20322	0.13543	0.15976	0.038134	0.21227	0.21402	0.20053	0.18598	0.045366	0.21358	0.292	0.20147	0.065969	0.24131	0.31523	0.17031	-2.8021	-3.1458	-2.5687	-3.3458	-2.8375	-2.9854	-3.4917	-2.7917	-3.0604	-3.2104	-2.5208	-3.4958	-2.9896	-2.7833	-3.45	-2.7604	-100.567	-85.881	48.143	-100.183	-124.218	192.319	168.122	-7.592	-29.768	220.467	-46.604	209.067	206.517	-32.942	-93.282	227.451	0.0010261	0.00095561	0.0010518	923.71	5.5064e-05	2.7895e-05	982.07	390.25	8.1826e-06	2.4516e-05	396.36	165.12	171.89	78.365	2.3781e-05	73.533	0.0039263	0.0037644	0.00096296	1057.6	4.4331e-05	4.044e-05	1036.3	408.24	4.3798e-05	4.1232e-05	473.81	180.49	187.02	79.062	3.9491e-05	80.715	-6.265	10.959	-27.379	-113.738	32.269	22.190	-115.680	-108.909	-3.998	-52.778	-112.056	-108.364	-105.005	-99.937	169.773	-104.829	-8191	255	
3131.634	1	1	0	0	0.19045	0.29112	0.2274	0.10206	0.049162	0.16895	0.17041	0.097073	0.24752	0.050468	0.16163	0.32209	0.46753	0.11083	0.17201	0.079534	-2.6375	-3.2917	-2.4042	-3.3083	-2.9354	-2.55	-3.4313	-2.9813	-3.0396	-3.1917	-2.7333	-3.275	-3.0125	-2.6583	-3.2938	-2.9708	197.360	-35.614	77.345	59.477	158.172	-26.098	143.186	16.452	20.577	59.857	184.379	157.084	185.682	-63.772	208.884	218.289	0.00039531	0.0036408	0.00065042	927.7	1.1603e-05	2.4643e-05	984.99	390.94	2.3402e-05	2.177e-05	397.18	164.52	171.32	77.907	3.1841e-05	72.453	0.0038579	0.0037651	0.0010074	1077	4.3422e-05	3.974e-05	1045.1	410.87	4.1699e-05	4.0083e-05	476.96	180.45	184.1	78.21	4.0483e-05	80.645	22.083	-43.023	101.333	-113.719	-16.204	44.773	-116.242	-108.366	49.604	53.027	-111.782	-107.961	-105.081	-99.943	229.204	-104.928	-8191	255	
3131.730	1	1	0	0	0.30157	0.030559	0.048303	0.21028	0.021972	0.22305	0.2202	0.28097	0.27946	0.039214	0.098187	0.25179	0.17283	0.16255	0.13948	0.17285	-2.4313	-3.3333	-2.5542	-3.4417	-3.1458	-2.5438	-3.4688	-2.9708	-2.7667	-3.3646	-2.5771	-3.0958	-3.2167	-2.8125	-3.3	-2.8937	-81.392	48.345	128.447	-74.142	138.616	30.906	220.566	180.207	54.253	-111.311	86.855	204.880	218.583	212.446	-78.947	153.564	0.00066385	0.0012814	0.00091485	926.63	2.1577e-05	1.0274e-05	987.62	389.83	5.089e-06	8.1327e-06	392.59	165.72	170.67	78.202	2.1772e-05	72.874	0.0036303	0.0036169	0.0010414	1068.4	4.1135e-05	3.8025e-05	1052.7	409.66	4.0006e-05	3.9048e-05	485.86	180.11	183.13	78.259	4.3411e-05	80.617	-19.871	39.873	93.265	-113.448	158.642	-2.190	-115.964	-108.585	186.502	19.775	-112.541	-108.174	-104.852	-100.275	183.311	-105.289	-8191	255	
3131.826	1	1	0	0	0.22288	0.2416	0.22709	0.25621	0.17596	0.11632	0.20502	0.18569	0.052223	0.15994	0.19618	0.25977	0.12514	0.22448	0.16171	0.2221	-2.2854	-3.2667	-2.5583	-3.3375	-3.1771	-2.6521	-3.4417	-3.0854	-2.4396	-3.4	-2.7562	-3.0625	-3.4729	-2.75	-3.275	-3.0542	57.491	54.640	-44.638	214.691	7.202	143.571	-104.231	172.876	31.752	-106.665	141.451	166.957	-109.269	59.076	25.562	166.198	0.00034582	0.002996	9.1477e-05	914.69	4.5128e-05	6.3524e-06	989.68	392.55	2.3153e-05	1.1835e-05	399.59	166.99	172.66	78.685	2.0829e-05	74.02	0.0035567	0.0035819	0.0011246	1059.1	4.0731e-05	3.8507e-05	1069.5	408.55	3.9393e-05	3.9704e-05	499.9	179.33	183.18	79.126	4.5071e-05	80.683	209.503	-63.602	-39.703	-113.416	-9.488	-2.466	-115.453	-108.527	107.242	109.440	-112.091	-107.990	-104.833	-99.912	-117.338	-105.183	-8191	255	
3131.947	1	1	0	0	0.072861	0.16386	0.055388	0.11288	0.13021	0.1748	0.084059	0.22526	0.27773	0.078649	0.16421	0.062303	0.13248	0.11127	0.27397	0.26566	-2.2042	-3.3729	-2.7354	-2.9021	-3.2771	-2.5646	-3.3771	-3.1521	-2.5646	-3.4208	-2.7	-2.8167	-3.4479	-2.7021	-3.1729	-3.3229	115.098	218.161	116.986	166.933	60.855	115.920	-122.314	171.923	218.728	155.972	179.079	71.343	186.214	-117.865	19.602	61.900	0.0011164	0.0013547	0.00069045	930.61	1.1669e-05	2.4074e-05	993.23	391.44	2.4714e-06	2.7393e-05	399.29	165.07	170.95	78.569	1.6638e-05	73.133	0.0034791	0.0037472	0.0011688	1053.8	3.9941e-05	4.0704e-05	1077.1	405.52	3.8301e-05	4.1571e-05	500.99	177.24	181.67	79.835	4.457e-05	79.585	-36.294	65.842	13.704	-113.523	46.126	222.807	-115.505	-108.298	140.767	163.917	-112.028	-107.789	-104.939	-100.077	104.241	-105.127	-8191	255	
3132.043	1	1	0	0	0.33709	0.15327	0.092419	0.057104	0.21046	0.2699	0.20909	0.28034	0.20229	0.088579	0.34763	0.29618	0.10483	0.15844	0.22242	0.16438	-2.1708	-3.3708	-2.7521	-2.7896	-3.2938	-2.5229	-3.2292	-3.375	-2.3708	-3.4188	-2.9813	-2.8458	-3.3458	-2.8125	-3.0938	-3.3229	141.682	190.367	144.512	181.227	-93.380	126.872	190.135	187.860	-71.501	-54.971	96.261	182.939	136.828	216.069	21.021	184.135	0.00021422	0.0027487	0.00036963	924.82	3.946e-05	1.7442e-05	987.13	392	1.1334e-05	6.5533e-06	398.47	164.44	170.57	78.36	2.4983e-05	72.947	0.0033762	0.0039225	0.0011399	1040.8	3.8688e-05	4.3344e-05	1068.9	403.86	3.7896e-05	4.4531e-05	496.33	176.34	182.01	80.797	4.3196e-05	79.397	-13.726	170.556	9.781	-113.384	-94.852	193.532	-115.508	-108.611	31.440	194.779	-111.122	-108.527	-105.270	-100.265	28.340	-105.207	-8191	255	
3132.138	1	1	0	0	0.084676	0.099314	0.1177	0.18671	0.27398	0.11487	0.10098	0.1109	0.12006	0.21435	0.16513	0.27922	0.16003	0.16562	0.14397	0.2175	-2.0542	-3.1583	-2.9083	-2.75	-3.2396	-2.5667	-3.1375	-3.325	-2.6	-3.1771	-2.9875	-2.8396	-3.475	-2.8021	-2.8729	-3.4521	102.963	232.291	-117.954	186.199	54.526	89.702	222.652	228.418	34.607	-22.694	-120.531	-125.467	213.395	196.934	-57.225	154.159	0.00042016	0.0019315	0.00044672	934.37	1.7213e-05	1.7048e-05	992.8	394.01	1.7473e-05	2.8002e-05	399.48	166.02	172.02	78.392	1.2539e-05	73.191	0.0034309	0.004151	0.0011176	1039.8	3.9804e-05	4.6012e-05	1067.2	404.12	3.9496e-05	4.6105e-05	494.55	176.49	184.74	81.52	4.2135e-05	79.451	-109.301	133.913	223.581	-113.893	-28.876	-125.072	-115.772	-108.867	-123.378	11.237	-112.504	-108.623	-105.067	-100.142	63.189	-105.297	-8191	255	
3132.234	1	1	0	0	0.12332	0.12185	0.073661	0.22639	0.079002	0.19146	0.16668	0.1438	0.066438	0.053506	0.067251	0.020853	0.23536	0.17842	0.29941	0.08792	-2.0625	-3.1771	-2.9354	-2.7021	-3.4729	-2.7938	-3.0333	-3.4708	-2.5625	-3.0771	-3.4	-2.7042	-3.6292	-3.0833	-2.8208	-3.3604	211.311	106.692	156.935	185.539	-100.780	79.450	185.003	-108.275	-24.864	9.506	217.623	-59.114	169.360	178.353	228.880	187.515	0.00050325	0.0032198	0.00072788	930.75	1.51e-05	2.5457e-05	1002	393.55	1.869e-05	1.1892e-05	394.67	165.08	170.68	78.689	1.728e-05	73.787	0.0036619	0.0042328	0.0010863	1033.2	4.2209e-05	4.6294e-05	1059.9	402.6	4.2242e-05	4.5451e-05	486.03	175.27	185.67	81.109	4.0594e-05	78.858	-44.815	-15.211	219.068	-113.924	-118.690	-22.420	-115.989	-108.790	205.574	14.831	-112.087	-108.716	-105.670	-100.164	148.464	-105.258	-8191	255	
3132.330	1	1	0	0	0.26388	0.23809	0.11628	0.27139	0.094619	0.2691	0.1057	0.096642	0.13969	0.095851	0.16584	0.16674	0.21336	0.20237	0.17366	0.33993	-2.1125	-3.0417	-3.1292	-2.7771	-3.2146	-2.7208	-2.7313	-3.4188	-2.6958	-2.8667	-3.4354	-2.5771	-3.4333	-3.0521	-2.4542	-3.475	-3.841	-81.847	159.911	110.302	72.170	-28.038	-79.274	155.079	171.435	35.160	148.485	134.739	190.269	173.596	-100.914	183.402	0.00073104	0.0036382	0.00067175	930.5	6.2776e-05	2.4865e-06	997.03	395.77	2.398e-05	2.0403e-05	399.84	165.02	170.78	79.021	1.9795e-05	73.231	0.0039014	0.0041023	0.0010579	1030.2	4.479e-05	4.4533e-05	1050	401.84	4.4341e-05	4.3317e-05	482.31	175.07	187.69	80.476	3.9202e-05	79.26	-13.500	-44.865	-74.412	-113.802	-73.264	15.404	-115.916	-108.531	-118.959	27.563	-112.159	-108.766	-105.256	-99.871	38.804	-105.342	-8191	255	
3132.426	1	1	0	0	0.085206	0.030666	0.21302	0.19846	0.23471	0.20439	0.13451	0.13763	0.3441	0.068425	0.1435	0.38547	0.14151	0.22674	0.13077	0.15807	-2.2438	-2.9813	-3.3187	-2.5854	-3.2083	-2.8396	-2.7188	-3.4854	-2.8104	-2.7354	-3.3208	-2.6771	-3.1437	-3.1562	-2.4104	-3.3104	37.970	-61.132	151.813	155.811	98.818	10.286	165.328	160.942	223.179	66.080	188.273	232.728	209.761	-114.403	222.053	203.883	0.0002488	0.002706	0.00077135	926.59	2.6897e-05	2.0061e-05	994.95	393.3	9.869e-06	1.4166e-05	398.78	166.92	170.93	79.169	1.963e-05	74.283	0.0040681	0.0039195	0.0010317	1042.7	4.5812e-05	4.3282e-05	1046.5	406.15	4.5789e-05	4.1988e-05	480.77	179.73	188.55	80.627	3.8405e-05	81.052	-80.532	-52.002	167.349	-113.886	-65.394	26.121	-116.162	-108.753	231.266	-15.383	-112.097	-108.481	-104.913	-100.372	91.866	-105.358	-8191	255	
3132.522	1	1	0	0	0.1839	0.17004	0.064232	0.36526	0.031678	0.059643	0.045221	0.25618	0.13024	0.081485	0.03652	0.15569	0.22575	0.11944	0.071424	0.17426	-2.2792	-2.7958	-3.2125	-2.8104	-3.0438	-2.9208	-2.6937	-3.45	-2.8042	-2.7479	-3.4396	-2.8417	-3.0563	-3.2646	-2.4708	-3.3167	201.355	214.356	-36.375	-86.668	-38.157	131.961	-13.073	143.825	163.854	9.256	110.526	-63.944	211.790	-98.995	-30.498	81.246	0.00066499	0.0024637	0.0012609	927.59	4.6799e-05	1.9678e-05	992.86	395.44	4.3663e-05	9.6517e-06	399.54	165.88	172.41	79.054	1.2086e-05	73.864	0.0040278	0.003762	0.0010043	1057.5	4.4587e-05	4.1682e-05	1043.4	410.21	4.4523e-05	4.0802e-05	480.01	181.49	187.17	80.228	3.8775e-05	81.895	-85.026	-49.919	-38.352	-114.145	41.579	56.875	-116.045	-108.719	34.086	-1.011	-111.409	-108.584	-104.900	-100.053	-110.303	-105.427	-8191	255	
3132.618	1	1	0	0	0.12302	0.15568	0.20881	0.079285	0.048121	0.23404	0.14481	0.11941	0.29478	0.20927	0.095261	0.092414	0.075966	0.19162	0.16865	0.22994	-2.5958	-2.7521	-3.2313	-2.8063	-3.0521	-3.225	-2.7938	-3.4625	-2.9021	-2.5896	-3.3979	-2.8833	-3.0271	-3.4521	-2.3854	-3.325	48.388	-92.816	-17.368	30.251	27.259	-47.979	-95.589	142.436	148.543	120.181	146.417	-78.538	229.331	208.202	161.748	173.298	0.0010155	0.0025233	0.00011362	920.36	2.265e-05	1.4087e-05	990.66	390.55	2.406e-05	1.0387e-05	397.82	164.97	171.78	78.006	1.2289e-05	73.897	0.0039782	0.0037242	0.0010258	1076.9	4.3761e-05	4.1538e-05	1048.1	412.09	4.3565e-05	3.9908e-05	485.2	182.21	185.21	79.416	4.0399e-05	82.118	-31.491	-50.519	27.990	-113.987	18.837	4.747	-115.568	-108.551	143.817	128.702	-112.100	-108.403	-105.485	-100.237	7.062	-105.243	-8191	255	
3132.739	1	1	0	0	0.079598	0.16756	0.29436	0.02472	0.10516	0.25161	0.23873	0.099558	0.13305	0.094178	0.096436	0.16853	0.23355	0.054316	0.13988	0.072132	-2.7292	-2.375	-3.3771	-2.975	-2.8042	-3.175	-2.5938	-3.1771	-2.9833	-2.5187	-3.3688	-2.8083	-2.9979	-3.3792	-2.6021	-3.2917	-10.446	-56.821	1.132	-81.403	102.556	21.221	186.614	230.117	120.950	-64.148	166.121	-66.822	-83.351	95.049	171.329	165.696	0.0010476	0.0032045	0.00084422	927.38	6.3492e-06	2.1856e-05	1004.6	388.83	3.7011e-05	9.743e-06	398.36	166.31	171.36	78.714	1.9901e-05	75.317	0.0038257	0.0036029	0.0010845	1080.6	4.1783e-05	4.0581e-05	1070.3	412.56	4.2295e-05	3.9107e-05	498.12	183.37	184.33	79.502	4.3366e-05	82.568	4.007	-54.474	130.723	-114.165	-4.924	76.562	-116.268	-108.510	57.836	59.462	-112.660	-108.173	-105.359	-100.360	-34.849	-104.995	-8191	255	
3132.835	1	1	0	0	0.12044	0.1341	0.11808	0.19614	0.22803	0.064805	0.39099	0.24587	0.16831	0.044681	0.21241	0.10495	0.13726	0.11775	0.050353	0.234	-2.8229	-2.5167	-3.5229	-2.9604	-2.8187	-3.3167	-2.8021	-3.25	-3.1937	-2.4792	-3.6688	-3.0833	-2.825	-3.5833	-2.5854	-3.0417	53.856	143.703	-85.095	147.851	63.383	29.173	159.693	163.937	-72.866	112.068	-102.104	187.386	106.461	-86.137	149.610	135.949	0.00038077	0.00050321	0.00032454	927	8.0604e-06	1.4639e-06	1002.4	395.77	1.0574e-05	4.3312e-06	398.5	166.82	172.03	78.849	2.3244e-05	73.935	0.0036964	0.0035398	0.0011381	1073.3	4.0416e-05	3.988e-05	1078.8	409.13	4.0614e-05	3.8882e-05	501.76	180.38	182.28	79.505	4.5039e-05	80.596	32.847	192.705	199.571	-113.932	187.192	91.412	-116.009	-108.515	-12.917	-109.219	-112.082	-108.558	-105.227	-99.939	100.116	-104.851	-8191	255	
3132.907	1	1	0	0	0.27701	0.21944	0.044279	0.15682	0.38786	0.064512	0.015527	0.40428	0.19809	0.052039	0.14496	0.15259	0.16388	0.19652	0.12799	0.12909	-2.8396	-2.6229	-3.1771	-3.0604	-2.5646	-3.3479	-2.9104	-3.0542	-3.2938	-2.5208	-3.2583	-3.0792	-2.7854	-3.5583	-2.7958	-2.8542	-25.539	-120.535	72.810	170.826	-46.128	-18.540	151.942	192.420	151.503	-68.692	-83.316	121.926	15.134	207.822	122.436	-100.993	0.00088156	0.0020773	0.00032582	925.16	1.3373e-05	8.4907e-06	996.82	391.83	1.4167e-05	1.9691e-05	398.32	165.53	172.74	79.09	2.194e-05	73.722	0.0035882	0.0036475	0.0011635	1055.7	3.8969e-05	4.1023e-05	1080.2	404.82	3.9515e-05	4.0872e-05	502.13	178.48	180.58	80.492	4.5118e-05	79.89	-53.914	-82.281	-74.036	-113.392	53.638	179.187	-116.328	-108.452	75.540	231.158	-111.768	-108.429	-105.028	-100.166	-36.406	-104.700	-8191	255	
3133.027	1	1	0	0	0.28886	0.17337	0.094306	0.12445	0.20846	0.0514	0.26	0.1945	0.10857	0.13383	0.18583	0.12391	0.11972	0.26286	0.094471	0.28808	-2.8854	-2.5312	-3.0729	-3.3417	-2.6917	-3.4354	-2.9437	-2.8042	-3.3083	-2.6958	-3.1708	-3.3979	-2.6792	-3.475	-2.9979	-2.8937	223.775	174.765	-83.556	103.312	160.938	233.604	185.966	169.761	177.636	55.889	192.379	148.441	42.465	220.935	102.794	215.203	0.00054071	0.0033139	0.001361	922.77	1.3257e-05	8.7258e-06	998.44	391.1	1.8152e-05	2.9574e-05	402.07	167.72	170.21	78.959	3.8603e-05	74.319	0.0035077	0.0039164	0.0011538	1048.8	3.8683e-05	4.4062e-05	1083.1	403.59	3.925e-05	4.4802e-05	501.07	179.52	181.26	81.439	4.4844e-05	80.427	-70.271	152.840	-102.035	-113.751	-71.743	-75.201	-115.613	-108.345	-55.235	112.524	-111.890	-108.441	-105.084	-100.027	48.296	-104.987	-8191	255	
3133.122	1	1	0	0	0.1623	0.13965	0.23117	0.085732	0.22193	0.1139	0.11947	0.35435	0.11399	0.13887	0.24236	0.13792	0.2733	0.23168	0.32274	0.044883	-2.7646	-2.6229	-3.0896	-3.2271	-2.4375	-3.3	-3.1646	-2.8521	-3.4625	-2.8	-3.075	-3.3958	-2.5312	-3.3312	-3.0875	-2.6854	40.613	-69.152	193.119	6.856	21.661	215.379	213.480	168.467	-124.403	160.775	113.219	169.806	-98.981	188.465	115.579	53.676	0.0011303	0.0027805	0.00047346	925.46	1.9901e-05	1.0648e-05	1003.2	392.89	4.9484e-06	1.2061e-05	396.57	166.41	170.21	79.156	1.7511e-05	74.147	0.0035714	0.0041807	0.001121	1047.1	3.9439e-05	4.6144e-05	1073.4	402.43	4.0045e-05	4.5399e-05	489.91	177.34	182.14	81.647	4.2182e-05	79.208	-57.114	113.788	-110.819	-113.534	-89.880	122.497	-115.783	-108.642	215.527	-70.322	-112.015	-108.534	-105.364	-100.231	-28.594	-105.079	-8191	255	
#DATA ENDS
