BOXY.EXE: ISS Imagent and Oximeter Data Acquisition Program Version 0.80
Ascii Record File

#ACQ INFORMATION
2  Detector Channels 
16  External MUX Channels 
1  Auxiliary Channels 
5000  Waveform (CCF) Frequency (Hz)
1  Waveforms Skipped 
30  Waveforms Averaged 
1  Cycles Averaged 
16  Acquisitions per Waveform 
10.0806  Updata Rate (Hz) 

#FILE INFORMATION
TRUE -- External MUX Channel results are PARSED.
FALSE -- AC DC and Phase are NOT grouped.
TRUE -- Companion Program Settings File CREATED.
FALSE -- AC data not excluded
FALSE -- DC data not excluded
FALSE -- Phase data not excluded
FALSE -- Auxillary Chn. data not excluded
Tab delimiters

#CALIBRATION STATE
TRUE -- Waveform Calibration Values APPLIED.


#AUX CALIBRATION VALUES
Val Type	aux-1	

Term	1.0000e+00	
Factor	0.0000e+00	


#WF CALIBRATION VALUES
A = Detector Channel
Val Type	A-AC1	A-AC2	A-AC3	A-AC4	A-AC5	A-AC6	A-AC7	A-AC8	A-AC9	A-AC10	A-AC11	A-AC12	A-AC13	A-AC14	A-AC15	A-AC16	A-DC1	A-DC2	A-DC3	A-DC4	A-DC5	A-DC6	A-DC7	A-DC8	A-DC9	A-DC10	A-DC11	A-DC12	A-DC13	A-DC14	A-DC15	A-DC16	A-Ph1	A-Ph2	A-Ph3	A-Ph4	A-Ph5	A-Ph6	A-Ph7	A-Ph8	A-Ph9	A-Ph10	A-Ph11	A-Ph12	A-Ph13	A-Ph14	A-Ph15	A-Ph16	

Term	0.00000e+00	0.00000e+00	0.00000e+00	0.00000e+00	0.00000e+00	0.00000e+00	0.00000e+00	0.00000e+00	0.00000e+00	0.00000e+00	0.00000e+00	0.00000e+00	0.00000e+00	0.00000e+00	0.00000e+00	0.00000e+00	0.00000e+00	0.00000e+00	0.00000e+00	0.00000e+00	0.00000e+00	0.00000e+00	0.00000e+00	0.00000e+00	0.00000e+00	0.00000e+00	0.00000e+00	0.00000e+00	0.00000e+00	0.00000e+00	0.00000e+00	0.00000e+00	0.00000e+00	0.00000e+00	0.00000e+00	0.00000e+00	0.00000e+00	0.00000e+00	0.00000e+00	0.00000e+00	0.00000e+00	0.00000e+00	0.00000e+00	0.00000e+00	0.00000e+00	0.00000e+00	0.00000e+00	0.00000e+00	
Factor	1.00000e+00	1.00000e+00	1.00000e+00	1.00000e+00	1.00000e+00	1.00000e+00	1.00000e+00	1.00000e+00	1.00000e+00	1.00000e+00	1.00000e+00	1.00000e+00	1.00000e+00	1.00000e+00	1.00000e+00	1.00000e+00	1.00000e+00	1.00000e+00	1.00000e+00	1.00000e+00	1.00000e+00	1.00000e+00	1.00000e+00	1.00000e+00	1.00000e+00	1.00000e+00	1.00000e+00	1.00000e+00	1.00000e+00	1.00000e+00	1.00000e+00	1.00000e+00	X	X	X	X	X	X	X	X	X	X	X	X	X	X	X	X	

B = Detector Channel
Val Type	B-AC1	B-AC2	B-AC3	B-AC4	B-AC5	B-AC6	B-AC7	B-AC8	B-AC9	B-AC10	B-AC11	B-AC12	B-AC13	B-AC14	B-AC15	B-AC16	B-DC1	B-DC2	B-DC3	B-DC4	B-DC5	B-DC6	B-DC7	B-DC8	B-DC9	B-DC10	B-DC11	B-DC12	B-DC13	B-DC14	B-DC15	B-DC16	B-Ph1	B-Ph2	B-Ph3	B-Ph4	B-Ph5	B-Ph6	B-Ph7	B-Ph8	B-Ph9	B-Ph10	B-Ph11	B-Ph12	B-Ph13	B-Ph14	B-Ph15	B-Ph16	

Term	0.00000e+00	0.00000e+00	0.00000e+00	0.00000e+00	0.00000e+00	0.00000e+00	0.00000e+00	0.00000e+00	0.00000e+00	0.00000e+00	0.00000e+00	0.00000e+00	0.00000e+00	0.00000e+00	0.00000e+00	0.00000e+00	0.00000e+00	0.00000e+00	0.00000e+00	0.00000e+00	0.00000e+00	0.00000e+00	0.00000e+00	0.00000e+00	0.00000e+00	0.00000e+00	0.00000e+00	0.00000e+00	0.00000e+00	0.00000e+00	0.00000e+00	0.00000e+00	-2.80792e+01	-1.26731e+02	-1.22018e+02	-1.83776e+02	-5.40367e+01	-5.85387e+01	-1.56154e+02	-1.62015e+02	-3.33067e+01	-7.23125e+01	-1.69848e+02	-1.70119e+02	-1.79176e+02	-1.76608e+02	-5.86712e+01	-1.49440e+02	
Factor	2.52474e-05	1.47901e-04	3.78751e-05	1.73751e-01	1.70863e-06	1.59019e-06	1.53219e-01	4.81282e-02	1.39630e-06	1.50569e-06	8.24633e-02	2.87923e-02	2.45327e-02	8.81194e-03	1.71434e-06	1.25282e-02	7.24671e-06	9.23466e-06	2.57945e-06	9.15544e-02	9.73687e-08	1.02327e-07	7.57850e-02	2.54859e-02	9.67483e-08	1.02096e-07	4.23445e-02	1.47771e-02	1.31307e-02	4.71386e-03	9.89239e-08	6.47113e-03	X	X	X	X	X	X	X	X	X	X	X	X	X	X	X	X	



#DISTANCE SETTINGS
A = Detector Channel
A-1	A-2	A-3	A-4	A-5	A-6	A-7	A-8	A-9	A-10	A-11	A-12	A-13	A-14	A-15	A-16	

2.5000e+00	3.0000e+00	2.5000e+00	3.0000e+00	2.0000e+00	3.0000e+00	1.5000e+00	3.0000e+00	3.0000e+00	3.0000e+00	3.0000e+00	3.0000e+00	3.0000e+00	3.0000e+00	1.5000e+00	3.0000e+00	

B = Detector Channel
B-1	B-2	B-3	B-4	B-5	B-6	B-7	B-8	B-9	B-10	B-11	B-12	B-13	B-14	B-15	B-16	

1.0000e+01	1.0000e+01	1.0000e+01	1.4400e+00	1.0000e+01	1.0000e+01	1.5100e+00	1.9400e+00	1.0000e+01	1.0000e+01	1.9900e+00	2.4900e+00	2.4100e+00	2.9000e+00	1.0000e+01	2.9800e+00	




#DATA BEGINS
time	group	step	mark	flag	A-AC1	A-AC2	A-AC3	A-AC4	A-AC5	A-AC6	A-AC7	A-AC8	A-AC9	A-AC10	A-AC11	A-AC12	A-AC13	A-AC14	A-AC15	A-AC16	A-DC1	A-DC2	A-DC3	A-DC4	A-DC5	A-DC6	A-DC7	A-DC8	A-DC9	A-DC10	A-DC11	A-DC12	A-DC13	A-DC14	A-DC15	A-DC16	A-Ph1	A-Ph2	A-Ph3	A-Ph4	A-Ph5	A-Ph6	A-Ph7	A-Ph8	A-Ph9	A-Ph10	A-Ph11	A-Ph12	A-Ph13	A-Ph14	A-Ph15	A-Ph16	B-AC1	B-AC2	B-AC3	B-AC4	B-AC5	B-AC6	B-AC7	B-AC8	B-AC9	B-AC10	B-AC11	B-AC12	B-AC13	B-AC14	B-AC15	B-AC16	B-DC1	B-DC2	B-DC3	B-DC4	B-DC5	B-DC6	B-DC7	B-DC8	B-DC9	B-DC10	B-DC11	B-DC12	B-DC13	B-DC14	B-DC15	B-DC16	B-Ph1	B-Ph2	B-Ph3	B-Ph4	B-Ph5	B-Ph6	B-Ph7	B-Ph8	B-Ph9	B-Ph10	B-Ph11	B-Ph12	B-Ph13	B-Ph14	B-Ph15	B-Ph16	aux-1	digaux	

25160.637	1	1	0	768	0.14258	0.14505	0.2096	0.31115	0.16789	0.16316	0.20597	0.15836	0.19067	0.043539	0.15453	0.31844	0.15394	0.27931	0.086727	0.11693	-2.8708	-2.7313	-3.6375	-3.1708	-2.8979	-3.4604	-3.0333	-3.4896	-3.5563	-2.9083	-3.6271	-3.1688	-3.0333	-3.6688	-2.7812	-3.3604	64.444	3.738	44.581	-139.169	116.187	-77.639	-28.552	-81.142	-112.779	-109.519	134.476	129.699	187.231	172.450	157.346	22.273	0.00025661	0.00019424	9.4852e-05	1114.1	1.9675e-06	2.9331e-06	1221	230.36	2.9613e-06	2.6606e-06	298.29	83.068	66.046	19.056	4.6622e-06	26.985	0.00023232	0.00020657	5.6436e-05	1099.8	2.4851e-06	2.3109e-06	1200.2	229.87	2.2534e-06	2.3678e-06	294.93	83.301	65.666	19.389	2.3983e-06	27.105	-54.392	-78.556	-37.836	-135.021	5.536	18.573	-134.935	-127.401	23.578	-2.922	-127.883	-121.026	-120.387	-113.561	16.015	-114.430	-8191	255	
25160.732	1	1	0	0	0.18417	0.075593	0.029322	0.16848	0.34564	0.16152	0.24853	0.19731	0.013304	0.28462	0.10618	0.21539	0.28749	0.18694	0.1938	0.19306	-2.9646	-2.8937	-3.4396	-3.3271	-2.9375	-3.6312	-3.2021	-3.3542	-3.5521	-3.1021	-3.3604	-3.2667	-2.8042	-3.4021	-2.9479	-3.0042	69.054	158.060	99.668	-125.153	49.874	37.122	125.457	-126.087	45.717	94.811	-0.614	105.787	-62.563	150.463	140.309	-97.362	0.00023869	0.00057147	9.4706e-05	1131.8	2.0624e-06	5.8411e-06	1228.1	235.96	3.9097e-06	2.1592e-06	298.17	83.554	66.442	19.621	3.4645e-06	27.338	0.00022225	0.00022506	5.8269e-05	1104.3	2.4939e-06	2.3527e-06	1204.7	231.68	2.2847e-06	2.2312e-06	295.28	83.198	65.848	19.592	2.3661e-06	27.271	-53.548	-50.145	-28.440	-135.093	66.550	-4.593	-135.206	-127.734	31.362	-2.725	-127.705	-121.088	-121.206	-113.789	9.469	-114.720	-8191	255	
25160.828	1	1	0	0	0.18109	0.041129	0.19825	0.16524	0.096228	0.24778	0.19963	0.14191	0.156	0.078438	0.15124	0.14215	0.19701	0.19444	0.22964	0.2626	-3.1917	-2.7104	-3.275	-3.5146	-2.7542	-3.475	-3.1813	-3.0208	-3.3792	-2.9646	-3.3042	-3.3438	-2.7396	-3.5146	-3.0896	-3.0896	135.237	146.919	79.855	133.373	202.374	-70.256	131.504	-100.313	-2.495	-113.687	-100.264	-106.191	176.744	-132.082	176.833	-136.371	0.0002529	0.00039898	5.1841e-05	1134.6	2.2704e-06	1.4016e-06	1243.8	236.8	4.1364e-06	3.8786e-06	300.32	84.631	66.338	19.554	4.0538e-06	27.078	0.00021256	0.00020659	5.7092e-05	1104.3	2.2758e-06	2.2561e-06	1207.4	231.96	2.2603e-06	2.2655e-06	294.94	83.514	65.625	19.525	2.3494e-06	27.179	-49.324	-46.951	-33.888	-135.440	-0.507	-55.543	-135.027	-127.992	6.804	-0.101	-128.043	-121.109	-120.795	-113.923	29.172	-114.308	-8191	255	
25160.926	1	1	0	0	0.22192	0.23182	0.08148	0.1502	0.28154	0.30241	0.15042	0.1295	0.20414	0.25	0.16799	0.08556	0.14594	0.27162	0.23282	0.27693	-3.1312	-2.9771	-3.1542	-3.5438	-2.7062	-3.5417	-3.3937	-2.8542	-3.4396	-2.9313	-3.3042	-3.4688	-2.9292	-3.4437	-3.3771	-3.0062	-6.808	17.078	-69.009	174.829	71.328	61.848	-138.319	-139.440	-59.637	66.033	88.959	168.522	82.178	203.001	-24.927	130.419	0.00020938	0.00030222	0.00011864	1136.8	2.3207e-06	2.538e-06	1236.5	235.88	3.0242e-06	3.1342e-06	299.52	84.027	66.062	19.544	2.9466e-06	27.481	0.00021138	0.00020688	5.8285e-05	1106.9	2.3164e-06	2.061e-06	1205.9	231.52	2.2814e-06	2.2531e-06	294.58	83.408	65.474	19.538	2.2619e-06	27.226	-55.237	-62.125	-26.528	-135.120	40.541	47.248	-135.306	-127.799	11.675	8.083	-128.080	-120.487	-120.817	-114.291	-10.677	-114.482	-8191	255	
25161.021	1	1	0	0	0.10396	0.19778	0.17496	0.13706	0.10278	0.21988	0.31699	0.055088	0.0069754	0.097057	0.2438	0.16264	0.34288	0.082554	0.057023	0.09586	-3.2125	-3.0292	-3.0271	-3.6708	-2.9583	-3.4833	-3.4188	-2.9062	-3.6375	-3.0729	-3.1854	-3.5438	-2.9625	-3.375	-3.2458	-2.8667	-99.689	-7.583	-19.352	-113.629	34.454	-16.308	30.986	-139.271	126.602	-110.683	-106.878	177.336	197.816	-2.179	-32.807	38.715	0.00027287	0.0003508	8.6431e-05	1130	4.2179e-06	3.3358e-06	1230.2	236.03	3.6082e-06	4.0267e-06	297.71	83.517	66.146	19.297	2.8199e-06	27.122	0.00021163	0.00020718	5.6442e-05	1104	2.3028e-06	2.0952e-06	1203.4	231.27	2.246e-06	2.2421e-06	293.91	83.238	65.678	19.432	2.1584e-06	27.146	-53.680	-20.832	-72.354	-135.201	-7.900	25.202	-135.209	-127.820	2.671	16.184	-128.245	-120.841	-121.071	-114.384	-12.458	-114.568	-8191	255	
25161.117	1	1	0	0	0.19033	0.19039	0.070474	0.21567	0.17457	0.11542	0.15799	0.24463	0.060469	0.11242	0.17975	0.18122	0.19621	0.055581	0.12231	0.2917	-3.2292	-2.8688	-3.0875	-3.6146	-2.8729	-3.3083	-3.6354	-2.7542	-3.6583	-3.4	-3.15	-3.6792	-2.9729	-3.3604	-3.4292	-2.9458	-47.644	-113.945	110.145	189.994	134.928	175.604	32.147	191.081	-24.938	161.371	163.652	170.224	111.553	-91.098	-109.798	-120.871	0.0002745	0.00018369	0.00012483	1124.9	4.156e-06	4.8114e-06	1227.2	236.62	1.3738e-06	3.7878e-06	299.81	84.045	65.862	19.339	2.4221e-06	27.118	0.00021366	0.00020099	5.5507e-05	1102.7	2.3054e-06	2.2154e-06	1204.1	231.34	2.3314e-06	2.1059e-06	294.66	83.666	65.66	19.445	2.2105e-06	27.139	-50.303	-26.756	-50.589	-135.219	24.653	0.920	-135.320	-127.751	-6.395	-0.021	-127.763	-121.311	-121.241	-114.099	-18.035	-114.236	-8191	255	
25161.238	1	1	0	0	0.29008	0.068728	0.12204	0.077608	0.14894	0.066653	0.074774	0.054516	0.10582	0.29258	0.15873	0.25638	0.15107	0.027864	0.11419	0.13862	-3.2333	-3.1542	-3.1229	-3.725	-2.9646	-3.1562	-3.7708	-2.8583	-3.475	-3.2083	-2.95	-3.7396	-3.0167	-3.2583	-3.6354	-2.7792	-124.858	65.117	10.851	214.193	210.257	-131.406	211.197	-132.127	108.833	31.127	33.693	206.771	195.547	130.015	54.877	44.276	0.0002549	0.00023944	9.2936e-05	1126.4	3.1944e-06	7.5828e-07	1237.6	236.01	3.3985e-06	2.0655e-06	300.37	83.804	66.543	19.485	3.9182e-06	27.237	0.00021088	0.0002003	5.6485e-05	1104.9	2.3338e-06	2.1246e-06	1207.2	231.85	2.2593e-06	2.2355e-06	295.14	83.45	65.918	19.515	2.1221e-06	27.175	-47.050	-48.476	-36.218	-135.299	23.141	-3.545	-135.245	-127.644	37.488	17.268	-128.205	-120.713	-121.140	-113.616	-14.487	-114.177	-8191	255	
25161.336	1	1	0	0	0.16172	0.14554	0.23087	0.33365	0.094535	0.11671	0.09778	0.047574	0.041694	0.15703	0.46019	0.20949	0.12974	0.28246	0.36123	0.28076	-3.1083	-3.3125	-2.9667	-3.5479	-3.1729	-3.0896	-3.7729	-2.9854	-3.4646	-3.3208	-2.9583	-3.6229	-3.0771	-2.925	-3.4604	-2.9271	-72.099	188.565	-100.558	166.877	63.432	35.763	185.649	115.447	-122.854	86.832	177.948	-119.143	36.269	203.210	197.760	144.643	0.00024139	0.00041895	0.00011367	1137.5	2.1645e-06	2.1771e-06	1232	236.67	3.795e-06	2.3122e-06	297.14	84.178	65.764	19.439	2.9265e-06	26.777	0.00021861	0.00019366	5.7742e-05	1106.6	2.2379e-06	2.2071e-06	1204.3	231.84	2.1793e-06	1.9407e-06	293.82	83.443	65.326	19.415	2.0337e-06	26.985	-61.148	-72.134	-50.578	-135.275	-28.214	0.193	-135.217	-127.988	5.513	11.441	-127.872	-121.123	-121.126	-113.546	9.130	-114.509	-8191	255	
25161.432	1	1	0	0	0.17068	0.22044	0.07336	0.20426	0.076246	0.17709	0.053901	0.12696	0.37024	0.24036	0.18107	0.090697	0.2232	0.19665	0.14355	0.16238	-2.8896	-3.4625	-2.8833	-3.7292	-3.2479	-3.0875	-3.7562	-2.9521	-3.2438	-3.4917	-3.0042	-3.6083	-3.2604	-2.9688	-3.5875	-2.9354	-60.829	108.341	94.805	145.187	-28.734	171.764	156.880	212.697	-93.584	45.997	-66.967	-57.778	-140.713	-129.280	-33.823	86.933	0.00022741	0.00020335	4.4279e-05	1134.8	2.8048e-06	3.4988e-06	1242.2	237.56	4.2005e-06	3.7851e-06	299.24	83.972	66.222	19.458	2.9564e-06	27.039	0.00020787	0.0001851	5.5184e-05	1104.8	2.2322e-06	2.07e-06	1203.6	231.43	2.1524e-06	2.0219e-06	293.84	82.832	65.294	19.397	2.1073e-06	26.974	-47.886	-32.356	-88.886	-135.126	-19.186	32.701	-135.271	-128.178	-12.723	-1.682	-128.270	-120.954	-121.074	-114.620	22.854	-114.064	-8191	255	
25161.527	1	1	0	0	0.23027	0.042558	0.18504	0.23912	0.098321	0.22414	0.16446	0.11697	0.18844	0.071426	0.23502	0.16441	0.23566	0.19734	0.040131	0.15073	-2.8312	-3.4083	-2.8625	-3.5292	-3.1125	-2.8563	-3.7521	-3	-3.0854	-3.4333	-2.7917	-3.5812	-3.5625	-2.825	-3.6979	-3.1813	-60.652	-65.712	-117.403	171.522	-25.790	28.077	121.197	-139.289	201.455	-140.214	64.247	-100.273	196.511	-144.094	194.259	-67.943	0.00023888	0.00039312	6.6349e-05	1125.8	3.1688e-06	3.2643e-06	1231.6	235.39	1.984e-06	7.8765e-07	296.73	83.243	65.973	19.263	4.9437e-06	26.865	0.00020369	0.00018425	5.3868e-05	1098.6	2.1837e-06	2.1504e-06	1199.7	230.62	2.2115e-06	2.0455e-06	293.32	82.897	65.328	19.281	2.1038e-06	26.944	-50.018	-48.861	-49.591	-135.066	-28.983	28.657	-135.065	-127.930	8.349	22.423	-127.774	-121.032	-120.882	-114.062	-32.322	-114.638	-8191	255	
25161.621	1	1	0	0	0.36101	0.13563	0.14161	0.38515	0.036591	0.2966	0.38131	0.23456	0.081772	0.036069	0.2116	0.11331	0.087564	0.17077	0.13308	0.22357	-2.6083	-3.4625	-2.9062	-3.5292	-3.3979	-2.85	-3.6792	-3.175	-2.9958	-3.7146	-2.9896	-3.3083	-3.375	-2.8563	-3.5375	-3.2438	194.968	-84.956	-81.599	182.888	-135.561	36.605	155.243	175.465	179.296	8.591	82.938	110.182	207.317	-109.396	125.684	-99.433	0.0002741	0.00040363	0.00010068	1125.5	8.9896e-07	3.0859e-06	1226.4	235.18	2.5569e-06	2.7637e-06	299.06	83.442	65.695	19.226	3.7618e-06	26.597	0.00020961	0.00018592	5.2411e-05	1099.3	2.0667e-06	2.0653e-06	1198.5	229.7	2.2028e-06	1.8862e-06	292.73	82.78	65.118	19.222	2.1135e-06	26.811	-56.911	-64.051	-23.152	-135.057	-12.916	-13.805	-135.081	-128.124	43.883	-36.203	-128.072	-120.958	-121.142	-113.951	19.356	-114.574	-8191	255	
25161.719	1	1	0	0	0.11127	0.17532	0.12197	0.073891	0.14937	0.048808	0.34595	0.28653	0.081366	0.045275	0.0084686	0.16115	0.14031	0.1827	0.031585	0.089946	-2.5958	-3.5354	-2.9979	-3.2438	-3.4979	-2.8521	-3.6104	-3.2708	-2.9146	-3.5646	-2.9562	-3.1542	-3.5417	-2.9292	-3.4688	-3.4042	-27.776	174.611	179.534	66.200	182.072	173.565	199.844	157.152	32.328	187.468	180.875	-117.772	177.439	60.054	142.788	-68.527	0.00025175	0.00030483	6.2499e-05	1124.2	3.6095e-06	2.6233e-06	1224.4	234.14	2.0963e-06	1.5622e-06	296.45	83.81	65.559	19.126	2.8868e-06	26.755	0.00019918	0.00018183	5.0563e-05	1095.9	2.0809e-06	2.0048e-06	1191.9	228.9	2.1234e-06	1.8518e-06	292.06	82.611	64.714	19.124	1.9212e-06	26.714	-62.643	-32.082	-28.102	-135.077	-6.687	40.654	-135.168	-128.052	1.012	-54.062	-128.074	-120.946	-121.103	-114.379	50.857	-114.144	-8191	255	
25161.838	1	1	0	0	0.15005	0.084524	0.29333	0.065341	0.092585	0.12849	0.10793	0.20333	0.048134	0.041209	0.3039	0.060167	0.055043	0.062452	0.11878	0.11673	-2.4479	-3.4813	-2.8521	-3.1208	-3.3146	-2.7021	-3.5292	-3.3125	-2.9083	-3.4521	-3.0604	-3.1042	-3.675	-2.8312	-3.3542	-3.2583	59.686	18.843	161.528	-108.837	-7.576	-54.905	155.141	-128.138	86.279	-107.772	146.948	16.934	-27.266	154.040	35.505	58.236	0.0002221	0.00044218	3.7316e-05	1116.1	4.3379e-06	2.4648e-06	1226	233.57	1.9201e-06	2.4774e-06	298.31	83.611	65.177	19.078	5.215e-06	26.708	0.0001935	0.00017917	4.8972e-05	1087.7	1.9216e-06	1.9532e-06	1190.3	228.12	1.9394e-06	1.8664e-06	292.25	82.476	64.545	19.061	1.9344e-06	26.726	-56.249	-50.377	-45.144	-135.289	12.484	-0.652	-135.110	-127.849	28.849	-6.096	-127.925	-121.217	-121.060	-113.930	22.571	-114.915	-8191	255	
25161.934	1	1	0	0	0.14563	0.14923	0.2374	0.17843	0.1156	0.098706	0.084877	0.10837	0.031562	0.019976	0.10416	0.18781	0.16004	0.094844	0.20038	0.20253	-2.3333	-3.5312	-3.0125	-3.1229	-3.6396	-2.8375	-3.5021	-3.4042	-2.8688	-3.5104	-3.2854	-2.8729	-3.5542	-2.7875	-3.2438	-3.45	141.973	-29.113	61.313	187.193	173.632	76.459	151.981	-138.467	87.406	138.366	-85.661	168.927	133.162	195.146	145.328	124.898	0.00023108	0.00010058	0.00010441	1119.1	1.8914e-06	3.6801e-06	1220.1	233.12	3.0961e-06	3.4961e-06	294.88	83.288	64.9	19.108	4.5202e-06	26.585	0.00020271	0.00016263	4.866e-05	1090.5	1.9407e-06	1.8523e-06	1188.9	228.45	2.0722e-06	1.758e-06	290.8	82.53	64.716	19.082	1.8962e-06	26.576	-53.982	-63.553	-20.588	-135.015	13.999	35.342	-135.129	-127.708	16.904	-1.461	-128.324	-120.853	-121.008	-113.609	12.866	-114.249	-8191	255	
25162.029	1	1	0	0	0.045525	0.12691	0.22089	0.36219	0.144	0.18323	0.10679	0.15819	0.075629	0.17962	0.16887	0.038384	0.17854	0.082788	0.11542	0.10826	-2.2958	-3.4854	-3.2521	-2.7354	-3.5833	-2.9708	-3.2687	-3.4521	-2.6854	-3.525	-3.3563	-2.9	-3.6417	-3.1729	-3.0271	-3.7042	-111.231	-103.894	162.970	178.960	103.804	127.048	41.199	140.594	164.966	-57.352	113.007	143.564	206.247	-143.484	132.246	157.335	0.00022173	0.00026337	8.5957e-05	1118.8	2.9917e-06	2.921e-06	1215.2	233.35	2.9054e-06	3.5104e-06	296.67	82.86	64.609	18.974	4.0382e-06	26.653	0.00018943	0.00017569	4.7956e-05	1089.7	1.9036e-06	1.8862e-06	1187.5	228.45	1.9432e-06	1.8224e-06	291.65	82.233	64.42	19.076	1.9803e-06	26.689	-55.898	-74.187	-61.597	-134.940	-10.782	30.915	-134.983	-127.615	32.482	-20.134	-127.998	-121.035	-121.049	-113.959	12.408	-114.851	-8191	255	
25162.127	1	1	0	0	0.16378	0.15017	0.27009	0.18062	0.12615	0.12871	0.41603	0.10745	0.14249	0.054541	0.15653	0.2126	0.088055	0.045517	0.20358	0.13308	-2.6146	-3.3292	-3.2687	-3	-3.6208	-3.0646	-3.1854	-3.6813	-2.7708	-3.2979	-3.4708	-2.9625	-3.5417	-3.3146	-2.7792	-3.5896	142.132	161.776	16.850	212.883	-81.775	-84.527	144.059	185.264	160.987	-71.688	7.560	-13.275	71.557	137.264	-112.470	210.393	0.00023668	0.00041055	6.1979e-05	1119.7	2.4255e-06	3.5074e-06	1215.7	233.06	3.8796e-06	3.6136e-06	295.84	83.173	65.121	18.943	5.7991e-06	26.723	0.00019088	0.00017505	4.3867e-05	1089	1.9076e-06	1.7607e-06	1187.8	228.25	1.9471e-06	1.7473e-06	290.12	82.438	64.606	19.036	1.8993e-06	26.693	-51.496	-33.822	-55.176	-135.011	14.711	-20.342	-134.917	-127.847	-11.987	11.312	-127.602	-120.914	-120.765	-113.614	-26.304	-113.845	-8191	255	
25162.197	1	1	0	0	0.10118	0.11545	0.19044	0.3686	0.20088	0.24057	0.36117	0.04773	0.11982	0.20443	0.14176	0.16414	0.22987	0.12858	0.051175	0.11238	-2.4938	-3.1229	-3.5125	-3.0021	-3.4437	-3.1063	-3.0417	-3.5771	-2.8563	-3.1771	-3.6896	-2.9625	-3.4958	-3.4208	-2.8667	-3.6312	88.970	153.150	-82.124	152.018	66.970	131.681	-63.498	186.956	110.381	-13.699	199.166	167.599	20.593	92.612	-109.187	58.353	0.00024264	0.00035151	4.5542e-05	1119.1	1.6435e-06	3.6984e-06	1220	231.12	2.3455e-06	3.1353e-06	296.37	82.864	65.22	19.046	4.5815e-06	26.569	0.00019054	0.00016996	4.5866e-05	1087.9	1.9242e-06	1.7598e-06	1190.2	227.53	1.9608e-06	1.9281e-06	290.51	82.19	64.594	19.091	1.9088e-06	26.652	-56.394	-52.333	-20.787	-135.000	-26.530	17.715	-135.193	-127.810	17.439	-12.018	-127.865	-121.129	-120.822	-114.419	21.675	-114.157	-8191	255	
25162.318	1	1	0	0	0.11125	0.10272	0.037397	0.3001	0.08909	0.060706	0.21588	0.12918	0.20156	0.22161	0.053723	0.10956	0.13892	0.26711	0.44085	0.31368	-2.6125	-3.0625	-3.475	-2.9188	-3.3458	-3.3167	-3.1375	-3.5396	-2.9958	-2.9813	-3.5521	-2.9188	-3.2604	-3.4021	-2.7979	-3.6188	-35.623	-43.381	-34.868	167.514	125.183	-24.920	157.990	178.472	170.291	-45.731	-19.832	194.142	-140.728	-108.122	-20.263	154.418	0.00024278	0.00027832	6.2149e-05	1111.2	5.509e-06	2.0503e-06	1216.3	233.19	2.2171e-06	2.2565e-06	295.62	82.543	65.185	18.961	4.0865e-06	26.666	0.00019026	0.00016166	4.2298e-05	1086.8	1.9782e-06	1.6942e-06	1187.4	228.14	1.9209e-06	1.8464e-06	290.88	81.977	64.622	19.054	1.8884e-06	26.628	-46.120	-57.661	-52.881	-135.109	-8.930	21.317	-134.993	-127.568	-15.105	22.039	-128.100	-120.927	-120.839	-113.669	3.843	-113.986	-8191	255	
25162.414	1	1	0	0	0.24576	0.20594	0.25445	0.11611	0.17984	0.1163	0.27878	0.20878	0.02128	0.020397	0.20689	0.13285	0.13041	0.41266	0.10971	0.26592	-2.6688	-3.0146	-3.6458	-2.7854	-3.2875	-3.2729	-3.0771	-3.5917	-3.1604	-3.0646	-3.5125	-3.0354	-3.3042	-3.5292	-2.8646	-3.5563	167.165	212.227	186.369	68.743	-31.979	-94.354	132.891	-128.692	-44.789	-2.221	-87.237	-126.629	-84.222	172.089	3.999	166.259	0.00025106	0.00038366	8.4484e-05	1111.4	2.8721e-06	2.4157e-06	1213.6	232.64	2.5687e-06	2.0963e-06	296.58	82.901	65.118	19.032	3.2652e-06	26.722	0.00019861	0.00016984	4.6038e-05	1085.5	1.9413e-06	1.689e-06	1186.8	228.38	1.9821e-06	1.779e-06	290.74	82.23	64.672	19.057	1.9057e-06	26.662	-49.934	-93.801	-42.257	-135.049	32.362	12.455	-134.924	-127.716	16.243	17.642	-127.967	-121.234	-120.851	-114.035	-11.533	-114.243	-8191	255	
25162.512	1	1	0	0	0.18793	0.14164	0.12319	0.12763	0.13936	0.20545	0.3558	0.12639	0.21075	0.10689	0.30701	0.15188	0.20283	0.14101	0.14207	0.19625	-2.8021	-2.8104	-3.4917	-3.1583	-3.1229	-3.4354	-2.9604	-3.5208	-3.2562	-2.8771	-3.6104	-3.25	-2.9125	-3.5104	-2.7375	-3.4625	212.097	43.209	79.018	124.997	-64.634	162.133	172.220	-63.700	191.576	-64.663	175.860	-13.250	211.008	-70.813	78.943	-109.743	0.00025217	0.0001927	8.9549e-05	1112.5	3.6754e-06	1.6468e-06	1211.3	232.3	4.0042e-06	1.8308e-06	297.67	82.437	66.22	19.283	2.4821e-06	26.612	0.00019572	0.00017113	4.5071e-05	1086.5	2.0364e-06	1.7146e-06	1185.2	228.2	1.9132e-06	1.8543e-06	291	82.173	64.893	19.117	1.7977e-06	26.597	-50.149	-44.323	-64.942	-135.209	-16.764	-1.484	-134.964	-127.703	18.592	-2.867	-127.911	-120.970	-121.046	-114.074	25.782	-113.878	-8191	255	
25162.607	1	1	0	0	0.20915	0.28118	0.17265	0.16607	0.21099	0.066089	0.18492	0.22717	0.03496	0.021792	0.19755	0.061023	0.11392	0.22072	0.067438	0.087379	-2.9208	-2.7958	-3.5083	-3.2833	-2.9604	-3.6417	-2.9542	-3.5563	-3.4208	-2.925	-3.6521	-3.2479	-3.0771	-3.5542	-3.0125	-3.3667	-121.990	-100.145	-144.381	157.188	-118.662	160.242	187.640	190.576	209.274	117.822	200.082	-29.583	-45.311	-99.082	12.935	180.136	0.00022727	0.00033775	8.0299e-05	1110.6	3.2318e-06	2.7413e-06	1217.7	232.54	3.4196e-06	3.5943e-06	297.05	83.473	64.747	19.107	4.6905e-06	26.649	0.00018805	0.00017148	4.6285e-05	1084.9	2.0387e-06	1.8225e-06	1187.5	227.95	1.8154e-06	1.8547e-06	291.29	82.407	64.593	19.091	1.7979e-06	26.653	-52.367	-19.939	-64.879	-135.182	-2.906	39.760	-135.234	-127.566	-6.168	-15.950	-128.080	-120.758	-121.043	-113.766	35.962	-114.446	-8191	255	
25162.727	1	1	0	0	0.20032	0.13223	0.22973	0.34821	0.08842	0.15461	0.12363	0.13194	0.038847	0.27738	0.13985	0.090604	0.16978	0.24041	0.10247	0.059075	-3.1521	-2.8	-3.5438	-3.3729	-2.9792	-3.65	-3.0604	-3.3854	-3.5208	-3.1042	-3.7104	-3.3625	-2.8958	-3.6146	-2.9125	-2.9833	66.541	122.744	189.586	154.625	67.092	138.769	-122.518	212.173	167.390	166.748	-86.723	57.920	-1.765	-55.683	-28.817	206.441	0.0002494	9.7085e-05	3.278e-05	1114.2	4.1665e-06	1.9476e-06	1222.6	232.95	3.5879e-06	2.7731e-06	295.94	83.352	65.25	18.973	1.6639e-06	26.489	0.00019257	0.00016176	4.4582e-05	1087.7	1.938e-06	1.7225e-06	1187.6	228.42	1.8467e-06	1.8271e-06	291.09	82.395	64.573	18.986	1.7427e-06	26.615	-57.529	-47.906	-49.611	-134.892	0.435	31.053	-135.228	-127.959	25.289	-25.421	-128.004	-120.955	-120.768	-113.796	-14.940	-114.322	-8191	255	
25162.801	1	1	0	0	0.24802	0.016168	0.14855	0.38898	0.121	0.23562	0.17098	0.075528	0.086093	0.10396	0.13315	0.17083	0.20385	0.021946	0.11771	0.22798	-3.0979	-2.8187	-3.2104	-3.425	-2.9083	-3.5521	-3.1	-3.2438	-3.4313	-2.8042	-3.5146	-3.5583	-2.7896	-3.6667	-3.0667	-2.9542	-65.290	-114.963	44.821	197.388	45.044	-141.562	165.137	7.763	-114.841	-26.841	-70.189	-79.618	-137.946	-139.454	-136.603	79.128	0.00024955	0.00030278	7.7059e-05	1113.8	2.1631e-06	2.8706e-06	1208.7	231.24	3.9867e-06	2.8353e-06	293.55	82.69	64.829	19.065	2.0398e-06	26.593	0.00017335	0.00016509	4.3329e-05	1086.3	1.9445e-06	1.8018e-06	1186.3	227.76	1.857e-06	1.7677e-06	289.74	82.248	64.491	19.07	1.7003e-06	26.596	-57.606	-51.104	-57.081	-135.290	7.397	34.148	-135.278	-127.828	-9.689	31.903	-127.744	-121.279	-121.077	-113.699	-44.726	-114.072	-8191	255	
25162.920	1	1	0	0	0.17706	0.12159	0.23667	0.19619	0.062526	0.058178	0.28264	0.024595	0.30705	0.15149	0.20864	0.18689	0.15848	0.13915	0.3213	0.11302	-3.3187	-2.8375	-3.3125	-3.5375	-2.8563	-3.4333	-3.3792	-3.0646	-3.5833	-2.9125	-3.25	-3.5729	-2.7313	-3.5062	-3.1458	-2.8292	189.035	-72.763	131.624	161.111	-22.977	154.784	103.576	-132.284	142.646	86.887	76.156	120.173	45.522	-61.442	118.255	-59.612	0.00024688	0.00034158	9.7788e-05	1113.1	1.4477e-06	2.9062e-06	1207.8	231.78	2.56e-06	2.5887e-06	293.95	81.925	65.162	18.926	3.383e-06	26.414	0.00018176	0.00016103	4.5624e-05	1086.7	1.8167e-06	1.6068e-06	1182.9	227.51	1.8447e-06	1.668e-06	289.59	81.852	64.582	19.005	1.678e-06	26.445	-48.430	-25.796	-51.884	-135.080	46.112	7.204	-135.212	-127.389	10.442	15.725	-127.721	-121.090	-120.757	-113.823	6.219	-114.223	-8191	255	
25163.016	1	1	0	0	0.26042	0.13165	0.090233	0.31465	0.047001	0.13125	0.33215	0.12391	0.16613	0.23112	0.21074	0.10837	0.17337	0.1466	0.19692	0.13787	-3.2313	-3.0333	-3.0083	-3.4	-2.7229	-3.4062	-3.4583	-2.9437	-3.5187	-2.9208	-3.2062	-3.4062	-2.8917	-3.2646	-3.3542	-2.8542	47.926	166.415	-44.343	134.449	-17.673	-83.240	155.049	-114.950	-42.035	-49.535	194.029	-103.655	-135.362	206.172	177.786	210.772	0.00021928	0.0003593	7.6879e-05	1107.3	3.183e-06	4.4651e-06	1205	232.21	1.7128e-06	3.0917e-06	294.05	82.129	64.064	18.836	1.9687e-06	26.382	0.00017338	0.00015374	4.4635e-05	1083.5	1.9184e-06	1.7121e-06	1181	227.72	1.809e-06	1.6916e-06	289.81	81.851	64.12	18.94	1.618e-06	26.488	-53.043	-40.804	-75.912	-135.259	-5.888	16.788	-134.997	-127.661	-8.320	-3.585	-127.753	-120.960	-120.815	-114.193	22.791	-114.000	-8191	255	
25163.111	1	1	0	0	0.1303	0.10786	0.10827	0.16563	0.11941	0.30532	0.23218	0.29647	0.16871	0.23997	0.063304	0.16743	0.22705	0.10288	0.15134	0.1026	-3.2542	-2.8917	-3.1188	-3.6542	-2.7958	-3.3167	-3.4521	-2.7958	-3.3396	-3.1917	-3.0896	-3.7333	-3.0271	-3.2042	-3.4917	-2.7979	117.037	56.949	43.272	107.711	-86.865	100.993	207.859	200.018	-7.912	10.073	151.400	129.147	70.070	89.980	160.358	-40.872	0.00022907	0.00031721	4.1377e-05	1112.3	4.2157e-06	2.1566e-06	1200.6	230.92	1.1083e-06	3.1215e-06	292.04	82.602	64.641	19.048	3.084e-06	26.617	0.00018035	0.00015378	4.1803e-05	1085.4	1.8997e-06	1.6556e-06	1179.9	227.32	1.809e-06	1.6807e-06	288.6	82.005	64.119	18.947	1.7068e-06	26.564	-56.047	-14.517	-32.222	-134.808	8.472	7.785	-135.047	-127.726	15.843	-12.168	-127.838	-120.665	-120.910	-113.705	16.567	-114.183	-8191	255	
25163.207	1	1	0	0	0.19051	0.11867	0.26199	0.10463	0.14258	0.21583	0.32379	0.22365	0.18621	0.20089	0.16296	0.12095	0.21724	0.19613	0.26215	0.14774	-2.9333	-3.2083	-2.8771	-3.4917	-2.9854	-3.1562	-3.575	-2.7979	-3.4021	-3.1979	-2.9708	-3.6375	-2.8688	-3.1958	-3.4229	-2.8604	133.771	-129.362	173.226	198.160	108.692	135.507	118.373	184.518	-22.126	-104.453	173.321	135.469	203.693	191.662	4.926	-122.199	0.00027401	0.0002176	6.6139e-05	1107.3	2.5588e-06	1.8037e-06	1205.1	230.7	3.6467e-06	2.6525e-06	292.48	82.452	64.151	18.794	3.1637e-06	26.439	0.00018553	0.00015826	4.4399e-05	1083	1.7851e-06	1.6615e-06	1180.8	226.94	1.733e-06	1.6123e-06	289.19	81.967	64.154	18.944	1.591e-06	26.518	-45.054	-26.279	-60.067	-135.256	-16.676	47.153	-135.311	-127.729	0.967	14.811	-127.671	-120.828	-120.337	-113.602	1.709	-114.024	-8191	255	
25163.328	1	1	0	0	0.13007	0.40721	0.22393	0.13183	0.28074	0.15898	0.4017	0.056753	0.099367	0.10514	0.196	0.047628	0.13682	0.10262	0.19185	0.20776	-3.1104	-3.2812	-2.7917	-3.7021	-3.0208	-3.0312	-3.5938	-2.9354	-3.3729	-3.4667	-2.9771	-3.6458	-3.1167	-2.8438	-3.5938	-2.9896	7.669	-93.423	50.682	-129.455	134.932	0.499	164.943	104.316	105.189	119.994	-127.842	151.198	-17.835	177.105	-124.075	141.101	0.00022586	0.00040315	7.3065e-05	1103.8	1.3098e-06	1.2342e-06	1201.5	230.41	2.5215e-06	8.9149e-07	294.06	82.443	64.481	18.783	2.8012e-06	26.231	0.00018307	0.00014908	4.456e-05	1079.7	1.8709e-06	1.7888e-06	1182.7	226.85	1.8509e-06	1.6308e-06	289.26	81.868	64.182	18.949	1.5863e-06	26.399	-54.717	-57.525	-76.966	-135.032	16.532	42.603	-135.170	-127.765	0.114	4.086	-127.868	-121.123	-120.888	-113.587	17.982	-114.034	-8191	255	
25163.422	1	1	0	0	0.035884	0.19405	0.12277	0.14834	0.21566	0.16668	0.08096	0.17662	0.15524	0.19991	0.083409	0.30676	0.1045	0.15217	0.042846	0.20983	-2.9833	-3.4562	-2.7292	-3.4396	-3.1646	-2.9854	-3.6437	-3.1604	-3.1771	-3.5354	-2.9229	-3.4521	-3.0187	-2.8417	-3.6146	-2.9479	-83.703	200.294	-107.763	150.965	-39.296	54.524	174.800	-70.698	109.761	93.634	193.658	189.664	-104.141	-45.357	86.421	114.646	0.00026433	0.0004766	6.5698e-05	1098.6	3.4477e-06	3.5506e-06	1203.7	229.44	3.2584e-06	3.4043e-06	292.9	82.406	64.043	18.752	1.6357e-06	26.007	0.00018438	0.00015601	4.3878e-05	1078.8	1.7873e-06	1.7097e-06	1180.1	226.28	1.8187e-06	1.6112e-06	288.43	81.785	64.034	18.888	1.6871e-06	26.379	-49.588	-20.621	-33.459	-134.895	38.367	12.992	-135.034	-127.793	-15.222	-14.887	-127.624	-121.018	-120.759	-113.009	9.058	-114.120	-8191	255	
25163.494	1	1	0	0	0.25755	0.09841	0.11164	0.25749	0.13813	0.19702	0.10867	0.052388	0.12127	0.088247	0.03148	0.055437	0.03313	0.19487	0.17843	0.22538	-2.8208	-3.2375	-2.7438	-3.5875	-3.3146	-2.9583	-3.5687	-3.0583	-3.0354	-3.5833	-2.7271	-3.4188	-3.3125	-2.9437	-3.6229	-3.0521	211.561	-57.045	-129.631	132.064	-145.346	138.968	15.907	157.012	-93.839	-142.225	9.867	32.091	-22.862	-120.626	26.818	205.942	0.00024604	0.00040641	5.0578e-05	1099.4	4.281e-06	2.7013e-06	1200.9	228	1.1734e-06	3.0855e-06	287.66	81.968	64.197	18.643	3.947e-06	26.099	0.00018247	0.0001401	4.4313e-05	1080.6	1.7007e-06	1.6549e-06	1179	225.8	1.8719e-06	1.6184e-06	286.98	81.864	63.953	18.857	1.7044e-06	26.368	-52.977	-40.620	-91.704	-134.991	2.011	39.963	-134.706	-127.867	76.386	28.622	-127.953	-120.718	-120.651	-113.351	-0.660	-114.174	-8191	255	
25163.613	1	1	0	0	0.25395	0.070948	0.27807	0.09942	0.095266	0.14903	0.31408	0.27473	0.18658	0.17906	0.15615	0.043169	0.22851	0.033303	0.0041492	0.086843	-2.5833	-3.5521	-2.7208	-3.5833	-3.3083	-2.7021	-3.7562	-3.0917	-2.9896	-3.6208	-2.7146	-3.4354	-3.3521	-2.6729	-3.4813	-3.125	-136.073	25.528	-111.087	-144.211	4.671	144.231	159.532	29.454	0.867	128.374	130.708	194.999	81.330	-102.012	112.175	69.543	0.00021797	0.00042955	5.852e-05	1097.5	3.4211e-06	2.9747e-06	1196.7	227.97	2.4101e-06	3.7626e-06	291.54	81.699	63.987	18.789	4.1471e-06	25.98	0.00018351	0.00014516	4.4238e-05	1076.8	1.7585e-06	1.6929e-06	1176	225.57	1.8003e-06	1.5442e-06	288.72	81.61	63.972	18.858	1.6463e-06	26.292	-50.647	-79.019	-59.415	-135.071	-4.668	-12.885	-134.972	-127.558	11.434	-22.739	-127.743	-120.838	-120.753	-113.292	-7.739	-114.135	-8191	255	
25163.711	1	1	0	0	0.22875	0.10926	0.097967	0.1066	0.27491	0.21148	0.13519	0.28008	0.22454	0.1011	0.1693	0.14537	0.10846	0.064367	0.088233	0.048389	-2.35	-3.4354	-2.8979	-3.3542	-3.3958	-2.7104	-3.7958	-3.3021	-2.8396	-3.6063	-3.05	-3.0938	-3.5417	-2.7417	-3.375	-3.2604	153.615	-60.736	-20.759	211.458	-129.905	-92.409	164.729	189.344	-136.693	-81.916	180.317	-122.795	57.731	25.095	-120.508	-21.992	0.00024323	0.00037595	6.3173e-05	1095.8	1.7613e-06	2.3426e-06	1200.3	228.49	2.0285e-06	3.091e-06	291.22	81.652	63.62	18.718	4.5766e-06	26.134	0.0001862	0.000139	4.3114e-05	1077.2	1.7709e-06	1.6534e-06	1176.6	225.18	1.8517e-06	1.5672e-06	287.96	81.439	63.715	18.838	1.6613e-06	26.311	-45.970	-52.218	-38.716	-134.960	-43.740	48.799	-135.052	-127.948	17.436	4.572	-127.868	-120.741	-120.656	-113.752	6.409	-114.248	-8191	255	
25163.807	1	1	0	0	0.022294	0.24487	0.1147	0.19002	0.092188	0.23013	0.23731	0.095669	0.3302	0.14878	0.17462	0.18917	0.31182	0.27545	0.14172	0.13982	-2.4458	-3.525	-2.9458	-3.1958	-3.4333	-2.7583	-3.7396	-3.3333	-2.8396	-3.5125	-3.1417	-2.9958	-3.4688	-2.7833	-3.3083	-3.475	207.588	126.296	79.268	32.626	40.535	-98.162	85.787	-120.238	34.481	-114.021	5.860	137.075	128.310	-28.269	-19.500	-110.858	0.00020699	0.00032708	8.6032e-05	1097.5	2.4597e-06	2.7933e-06	1189	225.18	2.1842e-06	2.4581e-06	290.18	80.694	63.797	18.548	5.0694e-06	26.169	0.00017939	0.00015012	4.175e-05	1074.9	1.7447e-06	1.7095e-06	1173	224.44	1.8074e-06	1.5593e-06	287.04	81.07	63.66	18.797	1.671e-06	26.34	-51.872	-45.491	-48.933	-134.870	-0.515	29.688	-134.592	-127.312	23.952	14.282	-127.578	-120.663	-120.369	-113.212	-32.776	-114.160	-8191	255	
25163.902	1	1	0	0	0.18379	0.070564	0.21078	0.33568	0.036093	0.080391	0.24562	0.34843	0.19937	0.11842	0.05324	0.19572	0.19074	0.22206	0.26988	0.17002	-2.4979	-3.4062	-3.0417	-3.0583	-3.5917	-2.7854	-3.4729	-3.7125	-2.6917	-3.5146	-3.2292	-2.9792	-3.7062	-3.0667	-3.0146	-3.4167	192.095	-78.310	105.841	120.118	52.167	-13.134	120.696	-120.824	144.339	-45.019	46.234	99.500	166.819	177.819	7.145	-110.114	0.00023651	0.0001202	4.4887e-05	1089.8	3.4604e-06	3.4037e-06	1185.6	225.93	1.9154e-06	3.6756e-06	288.25	81.362	63.583	18.497	2.6174e-06	25.856	0.00017848	0.00014937	4.2577e-05	1073.2	1.7115e-06	1.6844e-06	1172.1	224.58	1.8844e-06	1.6072e-06	286.78	81.377	63.714	18.716	1.6916e-06	26.207	-47.301	-35.917	-112.090	-134.562	-11.587	30.573	-134.645	-127.447	-18.978	-17.753	-127.326	-120.288	-120.882	-113.552	19.694	-113.927	-8191	255	
25164.023	1	1	0	0	0.21876	0.15574	0.12436	0.15937	0.16192	0.14022	0.29691	0.41553	0.147	0.13481	0.13881	0.13446	0.41965	0.273	0.15529	0.17081	-2.2938	-3.4521	-3.1	-2.9542	-3.4979	-2.925	-3.1646	-3.6979	-2.6854	-3.6271	-3.5125	-2.8458	-3.5833	-2.9729	-2.9708	-3.4833	41.876	41.721	142.723	94.352	189.616	21.766	114.032	192.220	-132.993	112.434	75.159	-72.648	129.204	179.680	-104.787	-0.692	0.00026147	0.00031051	8.6611e-05	1081.3	3.093e-06	3.0485e-06	1185.4	224.64	3.8251e-06	2.8426e-06	289.72	80.385	63.22	18.469	2.8812e-06	25.801	0.00018349	0.00014997	4.0325e-05	1070.5	1.6636e-06	1.6596e-06	1171.2	224.14	1.8269e-06	1.6827e-06	287.12	80.921	63.662	18.743	1.6104e-06	26.26	-50.133	-56.627	-49.214	-134.609	37.247	8.576	-134.744	-127.454	23.907	-9.333	-127.857	-120.646	-120.568	-113.641	26.765	-113.717	-8191	255	
25164.096	1	1	0	0	0.14551	0.070427	0.17548	0.39135	0.14605	0.16689	0.35931	0.065009	0.057327	0.15882	0.079225	0.15854	0.24889	0.32631	0.073822	0.20929	-2.3125	-3.2625	-3.4062	-3.0938	-3.5312	-3.05	-3.1708	-3.5229	-2.825	-3.2229	-3.4125	-2.9208	-3.5229	-3.125	-3.0042	-3.6396	23.281	166.213	66.619	-127.213	74.806	-33.835	129.828	5.865	-92.055	30.401	149.992	48.521	-78.743	148.889	-50.238	197.308	0.00026562	0.00011149	8.6654e-05	1080.4	3.5586e-06	2.8853e-06	1187.5	225.62	3.525e-06	3.4852e-06	287.22	80.642	63.084	18.421	2.8517e-06	25.914	0.00018518	0.00014722	3.9874e-05	1070.9	1.7283e-06	1.6477e-06	1171.2	224.86	1.8711e-06	1.6374e-06	286.94	81.165	63.545	18.721	1.7299e-06	26.272	-51.192	-61.161	-63.916	-134.736	-35.619	-3.213	-134.402	-127.642	34.947	4.109	-127.540	-120.280	-120.320	-113.552	-42.172	-113.445	-8191	255	
25164.191	1	1	0	0	0.13566	0.14929	0.080142	0.081182	0.16214	0.08095	0.11966	0.067144	0.10716	0.037524	0.13394	0.21922	0.075025	0.085495	0.052528	0.17157	-2.5729	-3.0312	-3.3937	-2.8146	-3.4813	-3.1813	-3.2583	-3.7438	-2.9313	-3.0771	-3.4021	-2.8375	-3.5292	-3.2	-2.8896	-3.5854	-131.766	102.648	-100.066	14.824	-140.192	66.281	51.773	-79.784	-117.765	56.469	-30.557	29.663	96.931	-79.431	97.803	97.090	0.00024696	0.00025038	8.2918e-05	1085.3	2.4633e-06	2.7751e-06	1184.6	225.81	3.1649e-06	3.7166e-06	286.71	81.375	63.718	18.518	5.0325e-06	26.159	0.00018007	0.00014666	4.1341e-05	1072.6	1.767e-06	1.6008e-06	1171.2	224.61	1.8207e-06	1.6661e-06	286.59	81.112	63.778	18.789	1.6879e-06	26.246	-56.100	-45.687	-45.485	-134.777	20.678	8.723	-134.665	-127.682	3.367	12.019	-127.726	-120.628	-120.490	-113.798	-28.552	-114.030	-8191	255	
25164.287	1	1	0	0	0.21725	0.12643	0.20036	0.2006	0.10975	0.22409	0.19685	0.20813	0.13737	0.14456	0.23833	0.16413	0.3086	0.077785	0.21973	0.18562	-2.5542	-2.9354	-3.5521	-2.9354	-3.4813	-3.3042	-3.1271	-3.575	-2.9729	-3.0979	-3.6042	-2.9083	-3.2333	-3.3208	-2.7438	-3.4458	195.744	35.415	200.935	184.482	-73.782	-144.028	140.895	208.680	-33.488	125.010	190.163	205.428	181.267	207.947	150.148	88.532	0.00026507	0.00018748	6.181e-05	1089.5	1.5081e-06	2.7622e-06	1177.3	226.49	3.2894e-06	2.39e-06	289.99	81.31	63.135	18.612	2.4995e-06	25.95	0.00018456	0.00015414	4.0605e-05	1072.3	1.7731e-06	1.5223e-06	1169	224.99	1.66e-06	1.6912e-06	286.92	81.084	63.487	18.803	1.7621e-06	26.235	-52.156	-32.027	-76.136	-134.728	31.686	25.206	-134.789	-127.243	-10.389	15.942	-127.990	-120.989	-120.792	-113.520	17.025	-113.719	-8191	255	
25164.408	1	1	0	0	0.058501	0.22315	0.20438	0.17499	0.1639	0.1628	0.11836	0.10014	0.1688	0.13932	0.1822	0.11294	0.0414	0.077764	0.25653	0.14782	-2.6583	-2.9167	-3.4813	-2.9604	-3.2708	-3.3333	-3	-3.5729	-3.2146	-2.8208	-3.6833	-2.9229	-3.2188	-3.4479	-2.7208	-3.4583	-118.619	96.533	19.397	185.449	194.225	6.247	-125.788	162.426	193.632	-12.351	-144.114	-123.637	8.766	201.506	53.637	132.140	0.00023133	0.00026553	8.6888e-05	1097	3.3172e-06	4.005e-06	1188.4	226.98	3.8409e-06	3.1471e-06	288.08	81.138	63.715	18.482	3.1879e-06	25.803	0.00017448	0.00015678	3.9471e-05	1074	1.7451e-06	1.6227e-06	1169.5	224.9	1.7247e-06	1.749e-06	286.42	80.994	63.683	18.725	1.7606e-06	26.226	-56.293	-70.006	-42.163	-134.905	-3.358	19.868	-134.839	-127.390	-0.180	-0.931	-127.854	-121.137	-120.363	-113.521	-17.758	-113.565	-8191	255	
25164.502	1	1	0	0	0.10658	0.18256	0.049939	0.31993	0.085907	0.36224	0.13872	0.31483	0.11459	0.32753	0.19478	0.25706	0.038033	0.34615	0.24506	0.1258	-2.8292	-2.8333	-3.4125	-3.0729	-3.0812	-3.65	-2.9146	-3.5292	-3.2979	-2.6312	-3.6375	-2.875	-3.0417	-3.6979	-2.6667	-3.4979	49.900	-28.991	199.699	172.932	115.034	-30.419	95.023	176.645	-95.995	17.735	200.943	102.462	-142.603	-138.343	118.943	64.274	0.00026063	0.00033076	7.522e-05	1082.3	4.3064e-06	4.2416e-06	1185.2	225.82	2.4753e-06	3.9148e-06	288.48	80.465	63.709	18.524	3.5781e-06	26.1	0.00017847	0.00015081	4.1771e-05	1072.1	1.8052e-06	1.579e-06	1172	224.62	1.7215e-06	1.7063e-06	286.77	81.035	63.651	18.721	1.7083e-06	26.394	-52.273	-67.525	-81.188	-134.599	-5.972	14.881	-134.552	-127.427	1.407	31.378	-127.630	-120.766	-120.775	-113.307	4.315	-113.862	-8191	255	
25164.600	1	1	0	0	0.042411	0.13069	0.06783	0.20958	0.066268	0.076527	0.19871	0.19063	0.23791	0.078987	0.049723	0.28316	0.13613	0.022533	0.12441	0.36983	-2.7792	-2.6271	-3.6125	-3.1833	-3.1104	-3.4708	-3.0521	-3.125	-3.3646	-2.6792	-3.3646	-3.1917	-2.9167	-3.5312	-3.0292	-3.225	166.451	-89.353	207.697	180.340	78.647	158.350	154.519	156.643	-83.866	-100.094	213.075	124.543	151.605	-139.606	-66.492	191.295	0.00022815	0.00051505	6.6446e-05	1095.5	3.2784e-06	3.7409e-06	1193.2	226.34	2.8619e-06	2.6857e-06	289.85	81.159	63.819	18.592	2.5479e-06	26.104	0.00017884	0.00016365	4.2507e-05	1075.1	1.8326e-06	1.6863e-06	1173.2	224.85	1.6792e-06	1.7343e-06	287.46	81.101	63.832	18.798	1.699e-06	26.363	-52.896	-50.562	-80.018	-134.985	-7.457	15.806	-135.007	-127.292	-20.766	-20.847	-127.905	-120.721	-120.814	-113.434	-3.265	-114.272	-8191	255	
25164.695	1	1	0	0	0.053722	0.23594	0.088262	0.19963	0.28978	0.30625	0.31668	0.11365	0.15282	0.21296	0.14983	0.054724	0.11673	0.17991	0.18692	0.098573	-3.0812	-2.7667	-3.4229	-3.4083	-2.8667	-3.5333	-3.2875	-3.2771	-3.4417	-3.0271	-3.475	-3.3417	-2.625	-3.4542	-3.0771	-3.1083	-92.364	179.197	-4.685	188.251	58.840	-108.869	150.999	176.028	-2.487	-110.137	162.609	128.603	-80.773	-51.852	46.930	-56.279	0.00027246	0.00013822	0.00010391	1087.8	3.0046e-06	4.0458e-06	1197.2	229.33	4.4392e-06	3.1785e-06	292.59	81.725	63.747	18.768	3.6388e-06	26.031	0.00017898	0.00015468	4.0718e-05	1073.8	1.807e-06	1.6117e-06	1174.6	225.66	1.6838e-06	1.7146e-06	288.24	81.287	63.814	18.86	1.7369e-06	26.319	-46.001	-69.709	-66.989	-134.808	28.771	2.626	-134.957	-127.823	8.477	1.450	-127.802	-121.022	-120.048	-113.735	18.019	-113.671	-8191	255	
25164.791	1	1	0	0	0.051099	0.24111	0.14399	0.05922	0.14911	0.16569	0.26358	0.083771	0.11389	0.22222	0.23736	0.23892	0.12043	0.15871	0.088819	0.1359	-3.025	-2.8729	-3.2521	-3.2458	-2.6437	-3.5458	-3.1833	-2.9688	-3.6	-2.8208	-3.5292	-3.3854	-2.7667	-3.5896	-3.0458	-3.0792	-115.015	-89.898	110.588	72.773	84.044	75.120	137.121	1.341	-36.728	-18.961	170.853	123.097	-115.489	-138.819	39.771	-86.120	0.00022832	0.00030295	6.1035e-05	1096.9	3.743e-06	4.4389e-06	1198	228.08	1.9194e-06	3.0594e-06	291.61	81.412	63.986	18.521	2.7129e-06	26.132	0.00017529	0.00015616	3.9707e-05	1075.9	1.7459e-06	1.6735e-06	1173.8	225.45	1.6977e-06	1.6699e-06	288.33	81.491	63.784	18.805	1.7664e-06	26.33	-51.957	-53.848	-69.805	-134.848	-10.939	21.644	-134.941	-127.419	19.404	16.819	-127.733	-120.981	-120.324	-113.624	12.542	-114.083	-8191	255	
25164.887	1	1	0	0	0.080474	0.099046	0.29769	0.26376	0.02851	0.080317	0.20056	0.15459	0.13974	0.084692	0.12002	0.039627	0.5448	0.033364	0.19757	0.2014	-3.1292	-2.7687	-3.25	-3.3563	-2.9917	-3.4458	-3.1937	-2.9958	-3.4562	-2.7729	-3.2396	-3.5687	-2.8187	-3.5771	-3.0854	-2.8625	130.089	-99.907	25.241	186.840	202.695	19.109	201.757	169.460	42.215	-103.844	48.984	-81.403	107.888	207.326	177.891	75.800	0.00022418	0.00022953	7.7007e-05	1097.1	2.678e-06	3.8925e-06	1198.4	228.79	3.7125e-06	2.482e-06	289.33	81.725	63.898	18.769	1.918e-06	25.967	0.00016984	0.00014654	3.802e-05	1076.5	1.7857e-06	1.5848e-06	1175.4	225.57	1.761e-06	1.7075e-06	287.13	81.409	63.726	18.879	1.5871e-06	26.312	-47.103	-81.422	-38.630	-134.801	39.372	19.632	-135.108	-127.729	15.910	-40.996	-127.635	-121.097	-121.095	-113.418	83.634	-114.046	-8191	255	
25165.008	1	1	0	0	0.21799	0.096257	0.2926	0.27864	0.25865	0.19957	0.067264	0.13606	0.15512	0.23978	0.051667	0.11284	0.23696	0.31652	0.13541	0.21722	-3.0687	-2.8	-3.1188	-3.6208	-2.6625	-3.3292	-3.4646	-2.8729	-3.5333	-2.8833	-3.075	-3.5	-2.6188	-3.2396	-3.4458	-2.8625	133.007	154.670	-73.310	214.222	184.229	114.089	-111.415	149.898	-43.413	131.750	-116.240	54.780	173.384	73.852	-125.851	22.206	0.00023332	0.00023335	8.6914e-05	1098.6	2.5649e-06	2.2868e-06	1198.5	228.16	1.0271e-06	2.1265e-06	290.97	81.188	63.782	18.591	2.3512e-06	26.195	0.00017436	0.00015195	4.1035e-05	1077.2	1.8281e-06	1.6057e-06	1176.3	225.58	1.709e-06	1.6601e-06	287.68	81.361	63.781	18.81	1.551e-06	26.369	-45.969	-58.608	-44.102	-135.178	14.301	30.369	-135.078	-127.561	-34.543	7.759	-127.756	-120.798	-120.913	-113.263	8.593	-113.559	-8191	255	
25165.104	1	1	0	0	0.25121	0.15198	0.22821	0.063724	0.32364	0.071589	0.1032	0.15467	0.21133	0.24426	0.15352	0.23375	0.14195	0.11132	0.1893	0.054783	-3.1854	-3.1104	-3.0333	-3.5938	-2.7604	-3.2958	-3.5042	-2.8312	-3.4854	-3.0917	-2.8	-3.4813	-2.7812	-3.1708	-3.4479	-2.8979	108.597	197.098	61.436	-16.086	138.975	-13.719	168.843	103.214	-107.561	105.955	148.908	156.763	125.989	-52.607	187.590	125.663	0.00023466	0.0003582	9.3974e-05	1094.1	2.1602e-06	2.9925e-06	1201.5	227.91	1.9865e-06	2.344e-06	290.7	81.891	63.946	18.77	3.6684e-06	26.303	0.0001696	0.00014733	4.2147e-05	1075.2	1.8628e-06	1.5313e-06	1176.4	225.46	1.6139e-06	1.6135e-06	287.82	81.413	63.878	18.824	1.6228e-06	26.384	-50.658	-47.735	-43.052	-134.878	-4.908	7.696	-134.919	-127.445	14.192	6.385	-127.818	-121.329	-120.946	-113.269	-18.370	-114.681	-8191	255	
25165.199	1	1	0	0	0.01421	0.028326	0.16788	0.22561	0.091602	0.24507	0.26728	0.18287	0.2686	0.027889	0.13511	0.10429	0.22354	0.2523	0.12803	0.21723	-3.1104	-2.9625	-2.85	-3.5375	-3.0646	-3.0583	-3.7604	-2.9125	-3.3937	-3.3167	-2.9688	-3.6708	-2.9562	-3.0625	-3.6375	-2.9125	-22.601	91.392	82.167	210.720	145.856	24.476	166.346	-62.025	-83.632	-134.760	156.848	193.931	105.951	200.102	182.205	13.858	0.00027167	0.00023915	0.00012513	1102.2	2.5027e-06	3.9912e-06	1197.4	226.17	3.2205e-06	3.8825e-06	289.9	80.825	63.935	18.746	2.8129e-06	25.935	0.00017148	0.00015066	4.2668e-05	1076.8	1.7297e-06	1.5795e-06	1174.4	224.39	1.7413e-06	1.6671e-06	287.11	81.113	63.825	18.867	1.5974e-06	26.28	-53.670	-12.208	-59.691	-134.797	35.921	42.558	-135.102	-127.876	21.000	-10.108	-127.975	-120.856	-120.722	-113.744	57.999	-114.402	-8191	255	
25165.320	1	1	0	0	0.15416	0.11059	0.1278	0.11525	0.26008	0.068673	0.4207	0.25714	0.15095	0.19249	0.17621	0.10773	0.14269	0.10794	0.079626	0.12963	-2.9167	-3.1854	-2.7083	-3.7313	-3.0312	-2.9292	-3.6813	-2.85	-3.2208	-3.3854	-2.9313	-3.5833	-3.0812	-3.1021	-3.5417	-2.7625	-41.141	198.498	94.801	56.592	48.034	89.284	137.882	162.630	-1.169	-96.778	104.383	-119.633	28.764	19.585	-110.430	187.462	0.00022146	0.0001984	8.5091e-05	1094.9	3.5991e-06	1.9663e-06	1196.9	228.13	3.585e-06	1.31e-06	290.86	81.999	64.349	18.842	3.3312e-06	26.495	0.000176	0.00014579	4.039e-05	1076.2	1.7798e-06	1.7223e-06	1175.8	225.83	1.7848e-06	1.541e-06	287.11	81.541	63.982	18.933	1.6123e-06	26.382	-56.932	-39.857	-68.767	-135.020	-26.891	-14.364	-135.094	-127.677	2.686	-29.114	-127.759	-120.853	-120.895	-113.663	10.009	-114.514	-8191	255	
25165.393	1	1	0	0	0.12679	0.20636	0.26696	0.24332	0.1418	0.38843	0.035614	0.10437	0.11192	0.23001	0.14495	0.14475	0.036367	0.18841	0.15674	0.19622	-2.7875	-3.2562	-2.7292	-3.5333	-3.2667	-2.9875	-3.6146	-2.8896	-3.2938	-3.6813	-2.9562	-3.5208	-3.2604	-2.9771	-3.4583	-3.0417	102.439	134.105	-76.256	165.206	34.177	14.152	-33.824	89.063	-135.709	98.293	46.179	20.230	181.814	-103.964	72.785	-110.699	0.0002324	0.00044339	4.5358e-05	1102.7	2.9472e-06	8.3495e-07	1200.8	230.11	3.248e-06	1.8929e-06	293.09	82.246	64.109	18.656	1.7216e-06	26.288	0.00016794	0.00013186	4.3716e-05	1076.9	1.7993e-06	1.6611e-06	1177.1	225.3	1.6552e-06	1.5874e-06	288.45	81.58	63.795	18.827	1.5405e-06	26.374	-52.836	-45.155	-56.355	-134.901	-4.456	4.847	-135.084	-127.770	14.868	16.025	-128.000	-120.909	-120.772	-113.481	-2.071	-114.424	-8191	255	
25165.488	1	1	0	0	0.20035	0.23122	0.0675	0.24986	0.14707	0.062388	0.036591	0.27201	0.25549	0.15626	0.13367	0.14843	0.23263	0.20335	0.2004	0.14666	-2.7833	-3.3917	-2.9083	-3.5854	-3.1708	-2.7812	-3.6417	-2.9917	-3.05	-3.5125	-2.9854	-3.5542	-3.3333	-2.8438	-3.5938	-3.1104	146.682	32.796	182.196	211.627	112.183	87.649	104.521	-141.449	70.531	-39.965	208.835	-31.761	181.279	123.683	-65.417	-81.060	0.00022267	0.0003565	9.5369e-05	1100.4	3.86e-06	4.0505e-06	1193.8	227.08	2.0445e-06	1.7868e-06	291.41	81.191	64.617	18.826	4.6367e-06	26.063	0.00017431	0.00014325	4.2851e-05	1079.7	1.6855e-06	1.7187e-06	1175.5	224.84	1.7773e-06	1.6167e-06	287.2	81.479	64.033	18.9	1.6458e-06	26.303	-51.988	-111.996	-32.740	-134.788	-22.646	18.456	-134.841	-127.456	10.387	17.600	-127.836	-120.810	-120.773	-113.637	23.934	-114.549	-8191	255	
25165.584	1	1	0	0	0.033988	0.16872	0.22691	0.15439	0.071579	0.16944	0.10373	0.13728	0.11222	0.11395	0.27676	0.10076	0.066733	0.070356	0.085882	0.080334	-2.7583	-3.4771	-2.7771	-3.5146	-3.3479	-2.9042	-3.6104	-3.1333	-2.9479	-3.6063	-2.8292	-3.2167	-3.3396	-2.7646	-3.5229	-3.1354	133.096	-58.577	157.918	141.633	119.875	180.267	169.596	-120.366	155.076	-23.155	62.093	71.202	-99.633	117.988	90.472	129.438	0.00025654	0.00028402	9.1988e-05	1109.4	3.0883e-06	3.063e-06	1209.6	229.89	3.7559e-06	3.3862e-06	293.88	82.652	64.707	18.937	3.152e-06	26.477	0.00017279	0.00014233	4.2873e-05	1079.4	1.7283e-06	1.6669e-06	1178.1	225.6	1.7491e-06	1.6191e-06	287.94	81.776	63.917	18.896	1.5407e-06	26.429	-50.484	-53.233	-50.059	-134.998	-26.984	-16.665	-135.089	-127.939	-22.417	10.515	-128.149	-120.840	-121.294	-113.524	1.650	-113.991	-8191	255	
25165.703	1	1	0	0	0.14231	0.19659	0.051358	0.079473	0.11013	0.097375	0.24979	0.16014	0.24923	0.024399	0.17987	0.16531	0.24063	0.1081	0.10546	0.059069	-2.3917	-3.5563	-2.8229	-3.3063	-3.4083	-2.7687	-3.6063	-3.3375	-2.8521	-3.5062	-3.0167	-3.2667	-3.6646	-2.9188	-3.4042	-3.4167	-25.537	-61.352	-52.652	-82.305	92.051	-49.352	124.412	67.977	-95.918	165.053	209.170	-92.439	-99.556	-111.061	146.829	25.555	0.00022542	0.00043261	5.9185e-05	1106.5	1.1107e-06	3.5714e-06	1207.7	228.6	2.9635e-06	3.5876e-06	290.93	82.077	64.748	18.89	2.2719e-06	26.187	0.00017628	0.00014779	4.1889e-05	1078.5	1.75e-06	1.7317e-06	1177.9	225.08	1.8308e-06	1.578e-06	287.15	81.413	63.999	18.89	1.6535e-06	26.33	-49.942	-38.010	-47.703	-135.197	-7.776	30.249	-135.111	-127.401	2.935	-3.374	-127.810	-120.837	-120.954	-113.821	-6.105	-114.013	-8191	255	
25165.801	1	1	0	0	0.051281	0.15809	0.14669	0.1442	0.083577	0.17091	0.23325	0.17627	0.14306	0.22707	0.30592	0.095076	0.19189	0.089253	0.17917	0.17293	-2.625	-3.4521	-3.0208	-3.0896	-3.4792	-2.8583	-3.6333	-3.4771	-2.9479	-3.5208	-3.1063	-3.0042	-3.7083	-2.6354	-3.2792	-3.3604	-116.105	171.745	-51.657	91.863	-25.016	-132.255	124.944	134.575	69.524	60.594	164.745	115.471	-142.956	-124.576	155.452	177.097	0.00023034	0.00035278	5.8188e-05	1108.2	3.3419e-06	2.3208e-06	1205.5	228.5	3.2435e-06	1.6556e-06	290.86	81.507	64.575	18.949	3.686e-06	26.422	0.00017508	0.0001425	4.2432e-05	1079.4	1.7476e-06	1.6272e-06	1178.1	225.36	1.7949e-06	1.6544e-06	287.08	81.453	63.969	18.913	1.6221e-06	26.459	-53.942	-72.333	-52.516	-134.845	-12.395	-30.587	-134.956	-127.716	13.691	-35.785	-127.725	-120.987	-120.882	-113.836	27.121	-114.018	-8191	255	
25165.896	1	1	0	0	0.23123	0.20566	0.20856	0.28979	0.04953	0.095659	0.38341	0.11487	0.12178	0.11842	0.20454	0.15572	0.060841	0.21397	0.06144	0.10062	-2.2875	-3.5042	-2.9896	-3.1667	-3.5542	-2.8688	-3.1708	-3.575	-2.7458	-3.3563	-3.4062	-2.8875	-3.4917	-2.9375	-2.9938	-3.5708	-131.414	209.575	-67.171	173.907	-55.226	3.959	144.647	90.330	-17.248	171.293	102.647	-117.556	-127.866	159.089	12.132	72.382	0.00021804	0.00043983	6.3543e-05	1108.7	1.9582e-06	4.0176e-06	1207.8	230.43	2.2545e-06	4.626e-06	290.08	81.463	63.995	18.797	2.2527e-06	25.906	0.00017925	0.00014937	4.2093e-05	1078.4	1.7601e-06	1.6181e-06	1179.5	225.86	1.811e-06	1.662e-06	286.92	81.306	63.954	18.854	1.6448e-06	26.255	-63.339	-75.766	-61.684	-135.008	34.147	65.416	-134.892	-128.116	39.525	3.109	-127.983	-120.483	-120.531	-113.979	-1.313	-114.156	-8191	255	
25165.967	1	1	0	0	0.048185	0.14319	0.2043	0.085872	0.13633	0.17156	0.053751	0.1033	0.21223	0.21258	0.11577	0.1526	0.12165	0.067179	0.17601	0.061982	-2.4708	-3.3417	-3.2	-3.0229	-3.5208	-3.0417	-3.1771	-3.4896	-2.6417	-3.4333	-3.4417	-2.8708	-3.6521	-3.0021	-3.0687	-3.6917	80.985	79.448	-29.303	97.830	-10.139	121.309	-133.805	-35.249	139.112	58.876	-143.783	-142.788	34.648	-18.702	-14.461	198.703	0.00024502	0.00034142	8.2075e-05	1092.4	2.2209e-06	2.633e-06	1180.8	225.54	3.3963e-06	1.8027e-06	287.33	80.837	63.191	18.633	4.5175e-06	25.859	0.0001786	0.00014125	4.3346e-05	1076.2	1.7299e-06	1.5784e-06	1172.8	224.6	1.8328e-06	1.5604e-06	285.92	81.268	63.702	18.806	1.6461e-06	26.256	-56.538	-24.918	-37.482	-134.708	-13.389	29.325	-134.621	-127.660	7.535	7.893	-127.416	-120.465	-120.025	-113.142	-3.915	-114.150	-8191	255	
25166.088	1	1	0	0	0.1869	0.039678	0.20518	0.15022	0.23862	0.18456	0.040192	0.30703	0.051741	0.1204	0.15838	0.13789	0.034113	0.2933	0.17349	0.12674	-2.4646	-3.4354	-3.3104	-3.0708	-3.4854	-3.1562	-3.2479	-3.5563	-2.8187	-3.2354	-3.3958	-2.7542	-3.5187	-3.3458	-2.9	-3.6146	-20.211	196.375	37.433	126.521	55.048	189.118	-26.142	206.433	127.094	-108.076	178.811	0.519	83.763	88.492	-98.226	-85.012	0.00018647	0.00036803	6.8974e-05	1078.4	4.2632e-06	3.4975e-06	1176.5	223.48	1.9808e-06	1.6823e-06	283.66	80.431	63.451	18.383	4.585e-06	25.396	0.00017709	0.00014779	3.8509e-05	1071.3	1.7064e-06	1.5471e-06	1171.5	223.8	1.6665e-06	1.5778e-06	285.98	81.03	63.568	18.747	1.7297e-06	26.243	-49.958	-40.408	-23.929	-134.595	-28.270	28.645	-134.772	-127.391	-21.862	34.683	-127.315	-120.679	-120.209	-113.342	-13.777	-113.403	-8191	255	
25166.184	1	1	0	0	0.13339	0.084288	0.15449	0.21849	0.13563	0.075299	0.37033	0.38434	0.14807	0.2713	0.021407	0.21618	0.14649	0.13368	0.17409	0.083017	-2.5812	-3.1063	-3.3729	-2.7833	-3.2271	-3.0271	-3.1396	-3.6354	-2.8479	-2.9479	-3.4333	-2.8729	-3.4229	-3.1583	-2.7875	-3.5396	158.533	122.454	65.675	-70.545	171.387	25.413	153.474	185.865	205.469	74.133	-69.383	-113.552	167.337	-88.568	6.934	118.879	0.00021091	0.00028802	7.0973e-05	1091	2.2315e-06	2.7113e-06	1190.6	228.04	2.5566e-06	1.2973e-06	287.73	81.019	63.701	18.579	1.1672e-06	25.887	0.00017616	0.00014337	4.2196e-05	1073.7	1.7384e-06	1.6477e-06	1173.4	224.83	1.7467e-06	1.5855e-06	286.8	81.376	63.785	18.828	1.7856e-06	26.349	-54.005	-52.393	-46.615	-134.916	-24.126	3.248	-134.821	-127.664	23.654	-8.046	-127.884	-120.227	-120.547	-113.418	-60.265	-114.165	-8191	255	
25166.279	1	1	0	0	0.13949	0.19468	0.15481	0.31433	0.078649	0.24399	0.39174	0.15518	0.22134	0.052563	0.098111	0.10805	0.070191	0.19232	0.081749	0.043118	-2.6854	-2.8167	-3.4917	-2.95	-3.3438	-3.3208	-3.1417	-3.7771	-2.8292	-3.075	-3.6146	-2.9062	-3.3208	-3.4167	-2.875	-3.5104	65.879	4.269	57.830	158.379	148.516	112.917	174.483	76.116	154.246	170.166	172.915	213.821	-20.217	127.182	-37.841	100.955	0.00023819	0.0003133	0.00010772	1096	2.3221e-06	2.9491e-06	1188.6	227.55	2.9193e-06	3.2914e-06	288.49	81.03	63.299	18.669	2.8966e-06	26.107	0.00017668	0.00015308	4.1164e-05	1077	1.681e-06	1.634e-06	1173.4	225.3	1.7082e-06	1.6308e-06	287.11	81.362	63.7	18.798	1.6601e-06	26.389	-52.414	-44.349	-37.007	-134.995	-22.765	19.203	-134.587	-127.709	22.643	-8.698	-127.723	-120.916	-120.360	-114.290	21.488	-113.764	-8191	255	
25166.400	1	1	0	0	0.17444	0.18276	0.20432	0.36882	0.023846	0.24259	0.18594	0.016258	0.20574	0.068684	0.16415	0.12	0.19668	0.03021	0.058904	0.14286	-2.5604	-2.7792	-3.5062	-3.0375	-3.1688	-3.3479	-2.8604	-3.6437	-3.1	-2.9833	-3.6063	-2.8604	-3.3042	-3.4542	-2.8312	-3.4708	101.136	52.553	114.279	148.252	99.579	104.735	193.458	95.132	-104.136	-38.283	141.675	-3.827	-75.878	-133.495	196.461	168.687	0.00024892	0.00031457	7.4729e-05	1107.9	2.579e-06	3.7214e-06	1202.7	230.8	3.6766e-06	3.9823e-06	293.26	81.566	64.288	18.865	2.7549e-06	26.375	0.00018043	0.0001482	4.0696e-05	1077.5	1.8169e-06	1.6377e-06	1176	226.45	1.8566e-06	1.6712e-06	287.58	81.636	63.975	18.868	1.8037e-06	26.406	-50.455	-62.244	-68.845	-135.370	4.759	-7.792	-135.046	-127.781	9.670	27.347	-127.942	-120.877	-120.633	-113.997	-30.363	-114.698	-8191	255	
25166.496	1	1	0	0	0.21895	0.17752	0.41482	0.076472	0.2358	0.13047	0.14422	0.0055769	0.19806	0.21544	0.14939	0.1692	0.18864	0.13558	0.054537	0.13341	-2.8646	-2.6708	-3.4854	-3.0042	-3.0021	-3.4104	-2.9771	-3.4771	-3.2792	-2.9625	-3.6063	-3.1104	-3.0083	-3.575	-2.7229	-3.4146	135.552	89.028	-86.819	206.536	-50.505	-135.857	-128.027	115.991	-36.310	-25.882	-52.815	-86.393	106.875	-120.829	129.582	210.755	0.00024159	0.00026094	7.1916e-05	1104.1	1.455e-06	2.6615e-06	1200.6	230.41	3.1005e-06	1.6509e-06	294.81	81.909	64.844	19.005	2.0654e-06	26.321	0.00017039	0.00016009	3.9638e-05	1078.3	1.8504e-06	1.6076e-06	1175.9	225.63	1.7274e-06	1.7086e-06	288.39	81.479	63.94	18.967	1.7258e-06	26.366	-54.050	-21.389	-36.181	-135.234	20.387	-10.695	-135.115	-127.605	0.986	-36.124	-127.864	-121.161	-120.892	-113.687	8.656	-114.758	-8191	255	
25166.592	1	1	0	0	0.12492	0.29036	0.19427	0.17725	0.067561	0.15735	0.031544	0.082467	0.12858	0.14375	0.15019	0.14665	0.2387	0.156	0.12618	0.078409	-3.0354	-2.8333	-3.4292	-3.15	-2.875	-3.5187	-2.9208	-3.1542	-3.2958	-2.7958	-3.6083	-3.0563	-2.7083	-3.5667	-2.9479	-3.1354	-84.936	162.777	64.859	-121.537	79.860	172.116	-33.144	77.167	-129.645	15.790	199.443	210.824	47.415	13.909	-139.535	150.183	0.00021961	0.00021989	6.6424e-05	1108.2	5.1772e-06	2.3063e-06	1200.5	229.36	3.0237e-06	4.137e-06	291.55	81.669	64.497	18.87	2.8612e-06	26.266	0.00017134	0.00015432	4.0723e-05	1077.9	1.8672e-06	1.6345e-06	1175	225.44	1.7558e-06	1.7216e-06	287.27	81.225	64.047	18.921	1.6836e-06	26.426	-49.575	-33.182	-54.751	-135.269	7.244	-13.211	-135.188	-127.581	-20.885	-0.204	-127.841	-121.066	-121.129	-113.884	4.495	-114.719	-8191	255	
25166.688	1	1	0	0	0.2743	0.17704	0.096395	0.18207	0.17827	0.11261	0.27717	0.23765	0.042804	0.21369	0.20071	0.1338	0.12252	0.19307	0.12813	0.062564	-3.0458	-2.9104	-3.3792	-3.2354	-2.7313	-3.4813	-3.0833	-3.0979	-3.4813	-2.8625	-3.3833	-3.4375	-2.8167	-3.4479	-2.9688	-3.0625	30.296	-119.119	170.288	165.315	9.190	-19.109	139.349	162.439	-0.413	25.891	-60.818	33.009	-44.122	109.036	197.921	148.947	0.00025912	0.00029718	0.00013492	1101.1	3.7296e-06	2.1395e-06	1203.5	230.02	4.0818e-06	2.1373e-06	292.43	82.537	64.526	18.763	4.8526e-06	26.455	0.0001736	0.00016207	3.9793e-05	1077.2	1.9169e-06	1.63e-06	1176.6	225.77	1.7854e-06	1.6548e-06	287.7	81.534	64.044	18.873	1.6751e-06	26.411	-47.544	-36.804	-62.942	-135.287	3.923	-25.306	-135.086	-127.773	34.152	-5.381	-127.985	-120.808	-120.617	-113.841	9.366	-114.567	-8191	255	
25166.783	1	1	0	0	0.10714	0.18112	0.1195	0.16499	0.13056	0.12192	0.092484	0.068172	0.070368	0.13978	0.17299	0.12722	0.11934	0.044397	0.15223	0.1594	-2.9771	-2.6792	-3.5042	-3.2167	-2.7208	-3.5167	-3.2188	-3.0271	-3.3937	-2.7875	-3.275	-3.3063	-2.7771	-3.6333	-3.0292	-3.025	174.365	-76.226	-65.337	173.862	188.071	152.966	98.621	142.324	-115.893	83.142	-20.764	-29.565	-44.915	121.832	-102.617	121.322	0.00024325	0.00032051	9.4062e-05	1101.2	3.1084e-06	3.0787e-06	1206.6	228.62	2.2318e-06	1.8316e-06	289.43	81.799	64.344	18.75	1.7762e-06	26.171	0.00017445	0.00014927	4.1003e-05	1077.1	1.8021e-06	1.594e-06	1177	225.91	1.6788e-06	1.6767e-06	287.11	81.489	64.157	18.875	1.6259e-06	26.388	-56.504	-29.087	-44.934	-134.977	-4.262	7.053	-134.988	-127.643	-15.014	-7.222	-127.817	-120.868	-120.534	-113.732	-34.895	-114.571	-8191	255	
25166.881	1	1	0	0	0.022655	0.065745	0.19815	0.043431	0.24178	0.097523	0.17762	0.15876	0.27804	0.18162	0.20622	0.22286	0.16236	0.17667	0.25372	0.111	-3.1792	-2.7792	-3.1271	-3.4167	-2.7896	-3.575	-3.3104	-3.0938	-3.4792	-2.8438	-3.2354	-3.4396	-2.8542	-3.4062	-3.2792	-2.9437	-2.001	144.002	202.416	183.176	104.946	1.538	175.464	113.971	147.601	42.506	126.395	120.318	214.395	108.208	120.427	30.721	0.00024129	0.00027496	9.7716e-05	1100	2.1685e-06	1.9806e-06	1201.1	228.25	2.9558e-06	3.8255e-06	290.34	82.074	64.061	18.87	3.6448e-06	26.181	0.00017286	0.00015922	4.1986e-05	1076.6	1.8236e-06	1.5884e-06	1174.6	225.1	1.758e-06	1.7845e-06	287.69	81.36	63.83	18.912	1.686e-06	26.447	-43.223	-50.850	-38.332	-135.160	5.307	-11.919	-135.066	-127.574	4.984	16.495	-127.521	-120.653	-120.906	-113.694	12.664	-113.923	-8191	255	
25167.002	1	1	0	0	0.12561	0.24667	0.074728	0.17047	0.21283	0.21113	0.31592	0.19682	0.30015	0.24836	0.20262	0.11393	0.2016	0.31868	0.11565	0.10391	-3.1417	-2.8083	-3.0292	-3.5646	-2.7438	-3.6833	-3.35	-2.85	-3.4104	-2.9542	-3.0021	-3.4979	-2.7396	-3.3292	-3.2667	-2.8625	132.310	103.437	28.620	96.043	113.441	-57.840	149.425	-126.853	168.067	145.825	-93.899	-84.209	-77.391	120.699	11.741	-121.745	0.00025836	0.00031996	8.2205e-05	1098.7	3.5846e-06	4.0178e-06	1200.1	227.38	3.1319e-06	2.7599e-06	290.75	81.71	64.245	18.617	2.5627e-06	26.857	0.00017451	0.00014741	4.1578e-05	1078.3	1.8257e-06	1.5509e-06	1175.6	224.99	1.6907e-06	1.5816e-06	287.32	81.504	63.844	18.873	1.6965e-06	26.526	-47.945	-44.839	-42.200	-134.875	-11.726	21.037	-135.092	-127.661	10.305	-30.538	-127.614	-120.902	-121.195	-113.585	-0.428	-114.846	-8191	255	
25167.098	1	1	0	0	0.061755	0.10886	0.15076	0.10015	0.070324	0.14159	0.20337	0.075235	0.17643	0.19366	0.30516	0.028777	0.087875	0.075385	0.086138	0.12538	-3.1667	-2.9708	-2.7875	-3.7125	-2.8438	-3.3063	-3.5896	-2.9354	-3.5479	-3.0479	-2.9542	-3.4354	-3.0271	-3.2625	-3.3354	-2.8771	-117.933	64.856	64.541	181.475	190.437	34.033	204.551	129.318	102.219	-63.580	182.440	155.898	18.220	194.432	-53.999	117.589	0.00025446	0.00037931	6.7783e-05	1118.1	3.1513e-06	3.1789e-06	1213.6	231.18	2.6754e-06	2.4255e-06	296.63	83.114	64.78	19.095	3.2577e-06	26.346	0.00018161	0.00015497	4.3931e-05	1081.6	1.7035e-06	1.5831e-06	1178.7	226.16	1.7459e-06	1.6884e-06	288.41	81.734	64.07	19.006	1.6722e-06	26.365	-53.187	-47.954	-44.132	-135.128	-11.484	9.032	-135.274	-127.654	25.255	-10.793	-128.631	-121.129	-120.903	-113.919	9.380	-114.151	-8191	255	
25167.193	1	1	0	0	0.20897	0.24692	0.082819	0.12843	0.015639	0.10281	0.26088	0.23024	0.12637	0.35193	0.034275	0.079505	0.067497	0.21227	0.12966	0.056981	-3.075	-2.9188	-2.8792	-3.5521	-2.9271	-3.2354	-3.4833	-2.775	-3.4125	-3.2292	-2.8729	-3.5687	-2.8646	-3.0583	-3.4167	-2.7875	-113.120	-11.202	-13.102	-61.721	116.891	-26.209	191.789	154.657	-119.788	26.774	29.031	21.338	37.789	-99.026	-65.521	-123.762	0.0002353	0.00037799	5.8926e-05	1113.7	3.2587e-06	1.6434e-06	1214.8	232.64	2.6932e-06	2.6718e-06	292.78	83.068	64.867	19.063	2.516e-06	26.557	0.0001744	0.00015341	4.3217e-05	1081.6	1.7859e-06	1.6487e-06	1181.1	226.22	1.6935e-06	1.5823e-06	288.05	81.737	63.997	18.926	1.5966e-06	26.478	-55.545	-74.277	-7.850	-135.368	-11.157	20.690	-135.451	-128.070	15.941	18.476	-128.030	-121.077	-120.809	-113.609	16.635	-114.427	-8191	255	
25167.266	1	1	0	0	0.36085	0.026502	0.018679	0.14219	0.18087	0.16459	0.081449	0.27719	0.13348	0.053774	0.087943	0.19158	0.086303	0.19301	0.077821	0.14782	-2.9917	-3.1479	-2.7146	-3.5187	-3.0271	-2.9813	-3.7229	-2.7188	-3.4042	-3.2458	-2.825	-3.6667	-3.0896	-2.975	-3.5312	-2.8479	185.177	-88.756	50.031	-113.421	168.675	152.699	-32.960	136.910	-98.359	37.921	-132.753	74.988	-102.008	156.398	0.368	-124.605	0.00024139	0.00043951	0.00010552	1113.8	1.9378e-06	3.9091e-06	1210.5	231.1	3.0455e-06	3.9205e-06	293.72	82.926	65.439	19.106	4.0119e-06	26.476	0.00017905	0.00015622	4.6204e-05	1081	1.7605e-06	1.7487e-06	1178.4	225.74	1.7584e-06	1.6576e-06	287.59	81.844	64.176	18.967	1.5813e-06	26.42	-49.864	-38.827	-48.250	-135.239	8.579	-18.199	-135.138	-127.831	15.803	44.174	-127.943	-120.877	-121.231	-113.972	18.021	-114.561	-8191	255	
25167.385	1	1	0	0	0.15325	0.14485	0.12145	0.092284	0.15952	0.316	0.11051	0.29152	0.15623	0.086896	0.19886	0.12218	0.15962	0.10808	0.25342	0.279	-2.8958	-3.3812	-2.7667	-3.4437	-3.3312	-2.9375	-3.7083	-2.8729	-3.2229	-3.1396	-2.95	-3.5875	-3.1958	-2.7562	-3.3833	-2.8542	-122.230	-22.492	63.020	158.202	143.237	-144.977	171.844	77.662	187.068	55.098	174.121	-45.908	178.444	-143.345	20.227	212.746	0.00021442	0.00046802	7.646e-05	1112.8	3.9887e-06	3.3695e-06	1217.5	231.07	3.0446e-06	2.7964e-06	295.81	82.504	65.042	19.1	2.5178e-06	26.293	0.0001805	0.00014879	4.2883e-05	1082.7	1.7766e-06	1.7304e-06	1180.5	226	1.8094e-06	1.6191e-06	288.77	81.677	64.078	18.918	1.6207e-06	26.418	-47.086	-53.166	-28.551	-135.346	0.582	20.307	-135.485	-127.829	-2.194	3.074	-128.073	-120.710	-121.052	-113.552	-10.810	-114.320	-8191	255	
25167.480	1	1	0	0	0.1751	0.16432	0.079821	0.15878	0.14765	0.41806	0.22149	0.32657	0.20593	0.097462	0.22285	0.23524	0.2107	0.056074	0.32824	0.25792	-2.6208	-3.4437	-2.6521	-3.4146	-3.3042	-2.8979	-3.6958	-3.0104	-3.0271	-3.5021	-2.6479	-3.5458	-3.2833	-2.7896	-3.3604	-2.8521	107.384	-85.177	8.336	178.595	120.688	-120.248	109.529	142.152	120.018	-28.440	51.230	199.902	145.125	111.938	-40.755	161.336	0.00023848	0.00040401	8.067e-05	1105.5	2.5108e-06	2.0944e-06	1208.8	231.88	1.9711e-06	3.9904e-06	297.42	83.035	65.067	19.157	3.9128e-06	26.799	0.00017386	0.00014883	4.2943e-05	1080	1.7792e-06	1.7626e-06	1179.8	226.34	1.7804e-06	1.5548e-06	288.55	82.028	64.236	18.979	1.6304e-06	26.484	-43.984	-83.466	-75.823	-135.235	-4.589	13.144	-135.149	-128.045	3.679	24.644	-127.964	-120.934	-120.905	-113.805	-11.034	-115.119	-8191	255	
25167.576	1	1	0	0	0.10983	0.08082	0.13421	0.21066	0.096538	0.14847	0.25924	0.13359	0.069715	0.096902	0.10827	0.13966	0.15049	0.091149	0.24191	0.055103	-2.4083	-3.3979	-2.5771	-3.4021	-3.3771	-2.7708	-3.7188	-3.1896	-2.8604	-3.5417	-2.7521	-3.3875	-3.3875	-2.7458	-3.4354	-3.1708	-88.461	73.477	-118.120	166.958	65.295	-95.311	191.994	77.560	104.220	81.186	185.589	151.880	161.967	-121.931	99.614	70.178	0.00024343	0.00032889	8.4371e-05	1111.5	2.1584e-06	3.0392e-06	1211.5	229.92	4.4142e-06	2.8862e-06	294.4	82.113	64.766	19.113	3.2305e-06	26.207	0.00017921	0.00014847	4.068e-05	1080.2	1.6987e-06	1.6144e-06	1178.7	225.61	1.916e-06	1.648e-06	288.08	81.683	64.032	18.962	1.5826e-06	26.47	-51.968	-50.529	-43.500	-135.186	13.483	45.753	-135.189	-127.796	-5.041	-16.871	-128.031	-120.779	-121.306	-113.775	-2.229	-114.129	-8191	255	
25167.672	1	1	0	0	0.071624	0.082082	0.37526	0.19524	0.16973	0.42198	0.20822	0.0092824	0.13935	0.18029	0.0027962	0.14558	0.21344	0.16493	0.06913	0.17302	-2.3083	-3.3896	-2.7396	-3.2521	-3.5417	-2.8438	-3.7083	-3.1958	-2.8208	-3.35	-2.9854	-3.2146	-3.4354	-2.7354	-3.3854	-3.3542	206.566	43.303	10.060	-129.840	8.601	-53.738	158.256	113.263	179.244	-112.441	27.131	6.156	198.866	192.556	-14.714	121.453	0.00025987	0.00038365	8.438e-05	1117	2.7179e-06	2.862e-06	1212.6	229.65	2.0788e-06	3.5463e-06	295.3	83.34	65.052	19.051	4.6707e-06	26.208	0.00018372	0.00014381	4.4732e-05	1083.5	1.7366e-06	1.5959e-06	1179.5	225.21	1.7898e-06	1.5008e-06	288.12	81.872	64.184	18.965	1.5962e-06	26.351	-51.491	-66.633	-53.915	-135.269	1.017	8.698	-135.067	-128.054	23.959	10.159	-128.179	-120.914	-121.238	-114.173	4.284	-114.296	-8191	255	
25167.770	1	1	0	0	0.15055	0.18325	0.14811	0.15385	0.039381	0.055531	0.23208	0.11733	0.42399	0.12016	0.13873	0.097402	0.2602	0.072484	0.10096	0.19748	-2.2771	-3.5604	-2.9854	-3.1354	-3.5563	-2.8646	-3.45	-3.2104	-2.7042	-3.5187	-3.1396	-2.9417	-3.6375	-2.7687	-3.2042	-3.5187	-77.851	-126.642	121.167	-135.677	36.283	113.849	81.280	127.744	-7.639	-145.172	35.869	176.978	-126.620	202.642	45.334	-118.445	0.00024999	0.00048458	5.3773e-05	1104.8	2.956e-06	2.0875e-06	1210.4	229.83	2.4742e-06	2.8913e-06	294.45	81.875	64.965	18.667	2.499e-06	26.146	0.00018299	0.00014685	3.9836e-05	1079	1.7303e-06	1.6102e-06	1181.2	225.78	1.8743e-06	1.4974e-06	288.26	81.491	64.039	18.859	1.6417e-06	26.372	-47.456	-68.774	-61.180	-134.857	5.749	4.306	-134.845	-127.678	2.416	44.823	-127.843	-120.795	-121.680	-113.565	18.738	-114.370	-8191	255	
25167.863	1	1	0	0	0.025128	0.067724	0.16689	0.18679	0.12933	0.2203	0.11911	0.18431	0.090185	0.2343	0.063023	0.068784	0.055478	0.045937	0.23542	0.19536	-2.4021	-3.1646	-3.0771	-2.9479	-3.5	-2.8354	-3.175	-3.5083	-2.8021	-3.3542	-3.2167	-2.7354	-3.5646	-2.8167	-3.0417	-3.5333	156.312	193.682	-81.807	-57.763	11.463	89.862	164.146	164.563	-118.126	-63.329	87.288	153.741	202.032	68.460	75.404	111.581	0.00023896	0.0003496	0.0001118	1110.6	2.3298e-06	2.2085e-06	1204.1	230.51	2.4338e-06	4.248e-06	293.42	82.843	64.991	18.997	3.9155e-06	26.271	0.00018097	0.0001344	4.0202e-05	1083	1.8186e-06	1.5829e-06	1179.2	225.49	1.7751e-06	1.6561e-06	287.15	81.832	64.242	18.873	1.5247e-06	26.352	-48.320	-42.477	-28.118	-135.273	20.177	31.045	-134.781	-128.027	8.831	-11.965	-128.226	-120.909	-121.069	-113.957	-4.187	-113.733	-8191	255	
25167.961	1	1	0	0	0.06029	0.11247	0.10714	0.36389	0.18895	0.23971	0.26132	0.1824	0.066133	0.079609	0.33046	0.11204	0.090841	0.15839	0.059428	0.11965	-2.4104	-3.2833	-3.2146	-2.9271	-3.4646	-2.9188	-3.2	-3.6646	-2.6188	-3.4521	-3.125	-2.7438	-3.3083	-3.0333	-2.8	-3.5979	180.733	204.097	-80.593	196.682	11.964	103.938	166.329	107.351	118.162	154.447	92.560	-71.958	170.554	116.792	-7.897	49.305	0.00028343	0.00038501	4.6996e-05	1106	8.7983e-07	2.3109e-06	1208.9	228.98	1.8908e-06	2.0959e-06	290.97	82.484	64.492	18.906	4.1988e-06	26.25	0.00018293	0.00014976	3.996e-05	1078.6	1.7764e-06	1.6332e-06	1179.5	225.51	1.7773e-06	1.5461e-06	287.87	81.752	63.967	18.936	1.7128e-06	26.388	-48.123	-43.187	-22.528	-135.005	-55.289	30.378	-135.189	-127.624	-4.761	27.802	-127.748	-120.988	-120.977	-113.718	-0.760	-114.018	-8191	255	
25168.080	1	1	0	0	0.024405	0.19587	0.23289	0.10554	0.13055	0.18602	0.064032	0.11399	0.27876	0.10736	0.1696	0.2042	0.024673	0.06256	0.24789	0.21052	-2.5479	-3.2375	-3.2083	-2.9146	-3.4583	-2.9917	-3.0875	-3.6667	-2.7729	-3.3417	-3.3229	-2.7542	-3.4813	-3.1792	-2.8458	-3.5542	201.970	-127.011	131.286	142.013	205.731	-23.972	127.240	191.827	141.651	149.866	120.919	196.223	72.971	53.083	38.386	158.130	0.00027674	0.0003901	8.4305e-05	1105.9	2.0865e-06	2.3029e-06	1213.8	230.8	3.0648e-06	1.2354e-06	296.08	83.156	64.822	18.895	4.7109e-06	26.515	0.00017957	0.00015609	3.9675e-05	1080.6	1.6354e-06	1.6647e-06	1181.7	226.15	1.7685e-06	1.5612e-06	288.56	81.833	64.195	18.899	1.7495e-06	26.473	-55.233	-46.832	-43.003	-135.316	-38.933	19.224	-135.170	-127.742	23.165	10.464	-128.278	-121.258	-121.000	-114.015	10.242	-114.705	-8191	255	
25168.178	1	1	0	0	0.2482	0.081183	0.089785	0.17117	0.073099	0.028924	0.35089	0.081727	0.16202	0.029883	0.25344	0.37693	0.11667	0.091484	0.18055	0.12351	-2.4979	-3.1354	-3.4167	-2.9854	-3.6042	-3.2125	-3.1833	-3.6667	-2.9271	-3.0104	-3.6646	-2.8208	-3.4188	-3.125	-2.8521	-3.6479	30.641	-78.231	206.193	-141.503	203.708	188.093	153.909	53.115	34.508	114.794	-129.233	127.580	-129.768	146.176	58.918	-35.094	0.00024833	0.00036799	0.00014169	1110.1	2.9985e-06	2.4548e-06	1215.8	231.83	2.0156e-06	4.1896e-06	297.8	83.93	65.218	18.972	3.6973e-06	26.486	0.00017705	0.00015004	4.0406e-05	1081.1	1.6585e-06	1.6061e-06	1181.1	226.65	1.7757e-06	1.6835e-06	288.86	82.042	64.178	18.908	1.659e-06	26.469	-54.488	-54.219	-46.099	-135.440	0.788	35.756	-135.154	-127.541	14.739	-15.138	-128.119	-120.897	-121.109	-113.903	30.236	-114.072	-8191	255	
25168.273	1	1	0	0	0.13191	0.22795	0.013347	0.075101	0.21329	0.1383	0.14088	0.19417	0.2001	0.13646	0.18711	0.2239	0.25977	0.068651	0.17812	0.066697	-2.5583	-3.1083	-3.3646	-3.0875	-3.3583	-3.3646	-3.0021	-3.3271	-2.9875	-2.875	-3.7125	-3.0042	-3.2833	-3.4229	-2.6521	-3.4604	210.721	-87.738	97.395	171.065	-32.100	35.868	122.127	47.326	34.011	95.749	-78.176	127.191	-96.248	10.675	87.005	-73.560	0.00027	0.0003365	9.3418e-05	1112.6	3.1424e-06	4.1037e-06	1209.1	232.34	1.8507e-06	2.0436e-06	293.4	83.049	64.771	19.027	1.8209e-06	26.501	0.000173	0.00015433	4.0825e-05	1081.1	1.8036e-06	1.6227e-06	1178.4	226.49	1.7209e-06	1.6459e-06	287.74	81.749	64.047	18.953	1.6778e-06	26.477	-51.297	-72.395	-61.138	-135.148	-16.339	19.671	-135.395	-127.853	1.681	34.005	-127.785	-120.704	-120.917	-114.234	-22.501	-114.454	-8191	255	
25168.369	1	1	0	0	0.26867	0.10458	0.077499	0.24058	0.23685	0.21561	0.18126	0.21205	0.32138	0.2484	0.18929	0.17245	0.24867	0.18193	0.084225	0.083346	-2.6375	-2.9146	-3.5312	-3.0083	-3.2729	-3.5104	-2.9062	-3.6042	-3.0771	-2.8375	-3.6437	-2.8187	-3.2062	-3.3563	-2.8354	-3.4521	-32.673	176.243	-17.272	146.949	135.869	120.864	160.979	134.225	190.206	164.520	-144.542	182.167	151.265	133.760	93.143	-78.725	0.00026035	0.00028006	0.000107	1113.8	5.1815e-06	3.0601e-06	1212.8	230.91	2.0044e-06	1.7406e-06	294.31	82.368	64.837	18.994	3.5146e-06	26.477	0.00017403	0.00015489	4.0352e-05	1082.4	1.7837e-06	1.5464e-06	1181.2	225.64	1.7245e-06	1.689e-06	288.44	81.822	64.072	18.945	1.705e-06	26.386	-51.804	-55.067	-67.505	-135.376	34.982	8.596	-135.017	-127.952	-9.962	-3.497	-128.190	-120.876	-120.811	-113.772	-20.140	-114.019	-8191	255	
25168.490	1	1	0	0	0.25958	0.1685	0.17701	0.40683	0.34617	0.12207	0.06434	0.089109	0.25376	0.051497	0.20428	0.28138	0.19541	0.14059	0.04507	0.094011	-2.8708	-2.7125	-3.5479	-3.0667	-3.1708	-3.3688	-3.0563	-3.4979	-3.2583	-3.1271	-3.5583	-3.1188	-3.0375	-3.5729	-2.7604	-3.2208	116.227	-43.283	-8.531	-140.562	-67.623	166.255	163.958	43.818	91.808	201.663	-39.569	46.375	116.551	5.002	22.836	203.499	0.00025709	0.00025374	5.1326e-05	1114.5	3.5491e-06	4.4965e-06	1206.6	231.01	2.4397e-06	2.848e-06	294.1	82.121	64.933	19.11	2.9313e-06	26.203	0.00017664	0.00015514	3.939e-05	1081	1.7309e-06	1.6517e-06	1178.4	226.07	1.6935e-06	1.6863e-06	287.86	81.523	64.181	18.978	1.7285e-06	26.372	-53.556	-43.790	-48.287	-135.199	-4.092	-2.691	-135.133	-127.773	36.886	18.262	-127.699	-120.813	-120.559	-113.651	-23.279	-114.406	-8191	255	
25168.562	1	1	0	0	0.2151	0.097355	0.18183	0.15773	0.21178	0.067048	0.14437	0.40416	0.27421	0.10011	0.03675	0.30295	0.13563	0.39122	0.13608	0.27547	-2.9583	-2.6875	-3.3812	-3.2438	-2.7708	-3.5979	-3.0375	-3.2875	-3.4833	-2.5896	-3.5312	-3.1729	-2.9979	-3.6083	-2.7646	-3.125	-120.677	-109.141	-54.187	122.877	-99.524	-104.179	84.817	164.196	59.812	49.649	-91.977	-130.823	80.769	-140.629	46.193	-88.062	0.00027455	0.00030503	9.1244e-05	1109.2	3.3659e-06	3.1998e-06	1203.8	229.44	3.4947e-06	2.0691e-06	292.6	82.102	64.769	19.037	3.3382e-06	26.569	0.00017863	0.00015255	4.1803e-05	1077.8	1.8612e-06	1.6392e-06	1175.6	225.33	1.7106e-06	1.6744e-06	287.93	81.479	64.039	18.936	1.7027e-06	26.412	-53.060	-39.920	-30.833	-135.290	7.070	11.893	-135.273	-127.695	-1.662	30.047	-128.100	-121.036	-121.004	-113.464	-13.583	-114.068	-8191	255	
25168.682	1	1	0	0	0.11971	0.30497	0.17062	0.25233	0.0642	0.01725	0.30845	0.087087	0.21686	0.26546	0.26674	0.21163	0.23054	0.16513	0.50355	0.23001	-2.7562	-2.7479	-3.2708	-3.2979	-2.7542	-3.5625	-3.1875	-3.1542	-3.3125	-2.8958	-3.3458	-3.2042	-2.7917	-3.6667	-3.0042	-3.1792	125.296	-29.645	-130.318	151.106	69.611	-88.105	86.273	159.087	84.410	159.034	152.955	190.931	175.954	164.649	-132.561	166.499	0.00022513	0.00037512	5.74e-05	1110.6	2.9617e-06	1.8739e-06	1214.8	232.25	4.0146e-06	2.7195e-06	291.78	82.259	65.107	18.914	3.4055e-06	26.657	0.00017552	0.00014849	4.0927e-05	1078.6	1.838e-06	1.5814e-06	1178.4	226.11	1.8021e-06	1.6403e-06	287.05	81.367	64.117	18.908	1.6405e-06	26.463	-53.272	-38.595	-77.638	-135.297	-15.234	12.715	-135.231	-127.992	7.707	-18.930	-128.169	-121.016	-120.761	-113.256	-9.326	-115.043	-8191	255	
25168.777	1	1	0	0	0.06849	0.080797	0.1185	0.40277	0.15818	0.084164	0.20575	0.079081	0.054434	0.10172	0.10274	0.11165	0.17649	0.24504	0.28624	0.13322	-2.9688	-2.7646	-3.2292	-3.2667	-2.7562	-3.3438	-3.0708	-3.0167	-3.5979	-2.7646	-3.3729	-3.2125	-2.8063	-3.5021	-3.0354	-3	206.475	-40.130	-126.856	189.759	30.250	74.881	99.610	205.695	-16.970	156.382	129.585	171.332	185.305	155.749	173.555	-27.579	0.00025775	0.00034429	0.00012602	1112.7	2.575e-06	2.3449e-06	1213.1	230.16	2.8963e-06	3.7508e-06	293.88	82.177	65.015	18.926	1.9584e-06	26.618	0.00017382	0.00015143	4.2652e-05	1080.3	1.8441e-06	1.6554e-06	1180.4	225.56	1.7036e-06	1.6912e-06	288.11	81.489	64.212	18.889	1.7289e-06	26.478	-54.028	-68.146	-43.333	-135.318	22.277	6.932	-135.086	-127.807	-3.640	21.186	-128.207	-120.669	-121.211	-114.059	-23.700	-114.368	-8191	255	
25168.873	1	1	0	0	0.19279	0.066462	0.10587	0.26841	0.049996	0.21134	0.33961	0.17882	0.059873	0.058936	0.27856	0.39577	0.14737	0.056743	0.14379	0.14495	-2.9958	-2.6937	-3.2333	-3.4479	-2.7896	-3.4417	-3.2042	-2.9917	-3.4458	-2.7917	-3.1937	-3.5875	-2.7729	-3.2792	-3.2167	-2.8896	64.513	135.264	166.791	126.025	-112.628	-119.285	128.228	78.845	-22.252	90.613	130.123	189.279	-122.408	35.827	-18.548	65.731	0.00024738	0.00036845	6.3193e-05	1128.5	2.7722e-06	2.3898e-06	1223.7	232.54	2.9025e-06	1.6997e-06	297.38	82.872	64.948	19.145	2.4743e-06	26.68	0.00017952	0.00014825	4.169e-05	1084.1	1.9389e-06	1.5046e-06	1182	226.18	1.6592e-06	1.6276e-06	289.37	81.692	64.106	18.974	1.6417e-06	26.563	-51.497	-42.924	-36.982	-135.385	31.609	40.491	-135.419	-127.782	15.878	36.090	-128.261	-121.153	-121.362	-113.878	9.877	-114.607	-8191	255	
25168.969	1	1	0	0	0.12032	0.19955	0.038879	0.059619	0.20486	0.14097	0.29885	0.27017	0.13915	0.3263	0.090519	0.14826	0.12027	0.13432	0.13164	0.20752	-3.1875	-2.9188	-2.9521	-3.5438	-2.8	-3.2083	-3.4792	-2.8521	-3.4583	-2.9917	-3.0729	-3.5521	-2.7833	-3.2854	-3.1833	-2.8604	-107.837	186.541	177.449	-119.422	-89.624	-68.198	146.421	124.849	141.121	180.016	-123.752	213.695	143.581	-137.187	-140.723	197.222	0.00022926	0.00020933	5.4382e-05	1117.7	2.7338e-06	4.6592e-06	1221.4	232.14	3.0144e-06	3.575e-06	295.44	83.296	65.171	19.214	3.5388e-06	26.659	0.00017407	0.00015801	4.2104e-05	1081.6	1.8224e-06	1.6406e-06	1182.3	226.06	1.7493e-06	1.6425e-06	288.56	81.839	64.161	18.991	1.6862e-06	26.437	-50.162	-52.006	-66.791	-135.472	24.960	-8.463	-135.155	-127.722	1.291	21.648	-127.936	-121.220	-121.324	-114.221	16.843	-114.352	-8191	255	
25169.090	1	1	0	0	0.075715	0.18857	0.28093	0.22553	0.052722	0.29292	0.46189	0.22101	0.16707	0.19343	0.19668	0.17714	0.17594	0.039904	0.063338	0.077647	-3.1792	-3.0062	-2.7812	-3.7042	-2.8042	-3.225	-3.4583	-2.75	-3.5	-2.9521	-2.9917	-3.6458	-2.9042	-3.2062	-3.375	-2.6667	-80.626	72.171	-53.440	211.678	209.371	174.629	151.367	-128.931	-18.834	-52.078	-64.358	26.820	147.987	29.725	-47.433	-35.707	0.00021976	0.00032798	4.868e-05	1122.2	3.0694e-06	2.5326e-06	1216.6	231.18	3.1295e-06	3.0704e-06	295.63	83.132	64.951	19.008	5.5723e-06	26.687	0.00017089	0.00014321	4.1884e-05	1083.8	1.7587e-06	1.5761e-06	1179.6	226.16	1.6893e-06	1.6986e-06	288.7	81.834	64.268	18.985	1.7118e-06	26.454	-55.113	-46.369	-89.566	-135.442	10.215	-16.677	-135.284	-127.734	2.271	-14.031	-128.146	-121.177	-121.254	-114.217	9.994	-114.392	-8191	255	
25169.160	1	1	0	0	0.12924	0.032177	0.21859	0.12081	0.10115	0.23123	0.013525	0.2204	0.031943	0.2769	0.072558	0.17864	0.2263	0.25006	0.13868	0.30744	-3.0833	-3.0396	-2.7	-3.5792	-2.8458	-3.1708	-3.5583	-2.7833	-3.3729	-3.2729	-2.8729	-3.5146	-3.0104	-3.0208	-3.4	-2.7354	115.003	109.766	38.241	-127.240	164.874	200.718	65.050	90.825	-136.154	178.488	12.215	-15.978	205.847	106.937	86.722	-134.222	0.00024767	0.00029661	6.3155e-05	1112.9	3.46e-06	3.9213e-06	1210.3	230.54	2.0244e-06	2.1552e-06	295.56	83.107	65.617	19.12	3.5678e-06	26.475	0.0001807	0.00014516	4.3351e-05	1079.9	1.8512e-06	1.6108e-06	1176.7	225.93	1.7729e-06	1.6131e-06	288.5	81.934	64.286	18.971	1.6842e-06	26.418	-56.811	-52.694	-63.312	-135.021	16.509	11.649	-135.091	-127.905	19.900	-24.574	-127.808	-120.889	-120.942	-114.180	9.427	-114.596	-8191	255	
25169.258	1	1	0	0	0.17847	0.16121	0.15794	0.056118	0.19861	0.25592	0.26964	0.26502	0.17744	0.13083	0.064674	0.29556	0.14464	0.25275	0.21337	0.057639	-3.0042	-3.1896	-2.65	-3.6188	-2.9979	-3.1354	-3.8604	-2.7188	-3.3063	-3.4771	-3.05	-3.5375	-3.1979	-2.9083	-3.5292	-3.0833	-89.143	105.933	41.024	-133.097	16.213	-137.143	164.912	134.666	105.891	-88.868	-143.290	200.027	71.753	155.990	206.857	84.877	0.00025549	0.00030735	8.5425e-05	1107.3	6.7472e-07	2.1999e-06	1212.2	231.28	3.2675e-06	2.9743e-06	294.66	82.693	65.396	19.078	3.0505e-06	26.586	0.00017869	0.000148	4.2599e-05	1078.9	1.695e-06	1.7076e-06	1177.3	226.09	1.6665e-06	1.6603e-06	288.23	81.708	63.915	18.893	1.6537e-06	26.483	-55.353	-42.605	-51.395	-135.113	-9.831	26.624	-135.387	-127.893	6.018	-11.043	-127.866	-120.876	-121.004	-113.875	14.050	-114.496	-8191	255	
25169.354	1	1	0	0	0.12159	0.070938	0.035617	0.25136	0.31903	0.12362	0.25972	0.26618	0.28949	0.095171	0.090571	0.12868	0.167	0.3235	0.13068	0.033155	-2.8521	-3.3458	-2.7146	-3.5625	-3.2229	-3.0521	-3.6333	-2.9521	-2.9958	-3.4375	-2.8271	-3.5604	-3.2208	-2.8167	-3.3542	-2.9208	-128.766	113.999	-95.070	193.757	75.867	179.182	136.660	150.760	-26.884	-107.856	54.512	210.834	-121.124	91.974	65.467	173.813	0.0002907	0.00036384	7.4669e-05	1116.5	2.4997e-06	4.6729e-06	1215.9	231.11	2.3281e-06	2.5241e-06	294.33	82.706	64.807	18.983	5.1733e-06	26.579	0.00018112	0.00015537	4.2738e-05	1079.7	1.8299e-06	1.6767e-06	1177.7	225.91	1.7927e-06	1.5757e-06	287.96	81.616	64.005	18.933	1.712e-06	26.449	-55.705	-73.377	-89.585	-135.167	-26.764	-1.263	-135.442	-127.947	7.207	-4.387	-127.919	-121.043	-121.196	-114.056	21.324	-114.900	-8191	255	
25169.449	1	1	0	0	0.18179	0.11197	0.15405	0.32899	0.046626	0.056825	0.3152	0.16858	0.21528	0.11194	0.28863	0.1482	0.12258	0.28034	0.26356	0.089001	-2.7521	-3.4542	-2.8646	-3.4729	-3.375	-3.0125	-3.8146	-2.9562	-2.9292	-3.6063	-2.7792	-3.2792	-3.2667	-2.8229	-3.4646	-3.0312	-98.002	-73.279	-130.585	206.659	-41.459	64.159	131.226	121.659	-1.030	-40.453	182.158	-85.184	189.546	151.432	81.928	1.302	0.00024599	0.00029989	0.00011861	1120.4	3.6515e-06	2.584e-06	1215.6	232.05	2.9971e-06	3.0542e-06	297.01	83.128	64.689	19.027	3.7847e-06	26.673	0.00018293	0.00015076	4.3179e-05	1083.4	1.795e-06	1.8195e-06	1178.6	226.35	1.9231e-06	1.6269e-06	289.23	81.765	64.023	18.924	1.6331e-06	26.502	-51.640	-35.671	-41.034	-135.241	-7.446	20.352	-135.083	-127.869	12.418	-37.198	-128.380	-121.260	-121.128	-114.266	-7.287	-114.518	-8191	255	
25169.568	1	1	0	0	0.21044	0.070227	0.071925	0.17842	0.27442	0.079122	0.202	0.043203	0.25245	0.16286	0.12736	0.15976	0.055499	0.016127	0.099187	0.30658	-2.6042	-3.5208	-2.7792	-3.3333	-3.2333	-2.7208	-3.6063	-3.1396	-3	-3.3812	-2.7479	-3.0917	-3.3896	-2.9104	-3.4917	-3.1208	170.493	189.216	-108.593	157.310	-70.902	30.064	174.820	112.945	-85.349	58.170	143.660	-137.474	125.129	82.763	-4.350	173.473	0.00026403	0.00015121	6.7103e-05	1122	9.6932e-07	2.9041e-06	1218.2	232.42	2.421e-06	2.8657e-06	295.72	83.462	65.276	19.063	2.6616e-06	26.647	0.00019152	0.00015916	4.283e-05	1083.9	1.8733e-06	1.8613e-06	1179.6	225.99	1.9448e-06	1.7395e-06	288.67	81.864	64.014	18.947	1.7691e-06	26.487	-52.121	-48.623	-50.151	-135.036	18.842	-16.541	-135.421	-128.151	6.802	25.115	-128.075	-121.190	-121.161	-114.350	44.261	-113.946	-8191	255	
25169.664	1	1	0	0	0.16885	0.069291	0.069549	0.20871	0.15298	0.21628	0.49286	0.13039	0.1714	0.20913	0.11087	0.41009	0.27481	0.039257	0.21593	0.038499	-2.3229	-3.4375	-2.85	-3.325	-3.3104	-2.8375	-3.4354	-3.3521	-2.7	-3.5396	-2.9542	-2.9667	-3.3083	-2.75	-3.4708	-3.2562	2.588	-101.291	-21.397	154.205	-120.793	153.364	156.021	184.190	7.442	-12.970	157.415	150.462	194.974	139.263	128.278	120.523	0.00025213	0.00035767	9.9023e-05	1112.7	2.895e-06	3.9747e-06	1217.3	231.62	1.5354e-06	2.1634e-06	295.19	83.207	65.416	19.039	5.9946e-06	26.596	0.00019571	0.00015189	4.7774e-05	1081.9	1.8052e-06	1.7698e-06	1180.5	226.39	1.9467e-06	1.6693e-06	289.06	81.825	64.246	18.955	1.7248e-06	26.498	-53.117	-79.514	-40.853	-135.423	2.876	22.126	-135.098	-128.126	10.238	-20.918	-128.196	-120.990	-121.348	-113.924	28.153	-114.297	-8191	255	
25169.762	1	1	0	0	0.13854	0.12884	0.09913	0.41221	0.10235	0.14781	0.11561	0.18438	0.12156	0.19609	0.12724	0.21238	0.072665	0.10913	0.071208	0.21927	-2.3604	-3.5542	-2.8417	-3.1396	-3.6208	-2.6625	-3.4437	-3.2458	-2.6854	-3.65	-3.025	-2.8417	-3.5479	-2.7667	-3.1833	-3.1646	127.893	84.702	-113.123	166.342	-103.082	-110.844	-124.322	210.975	45.850	-0.543	-111.450	-44.289	-18.192	60.085	-97.011	161.351	0.00022491	0.00016877	9.3404e-05	1115.7	5.5377e-06	3.1769e-06	1215.8	231.19	3.4365e-06	3.8437e-06	296.24	82.936	64.235	19.107	2.6724e-06	26.73	0.00018968	0.00013606	4.1921e-05	1082.4	1.8297e-06	1.7651e-06	1181.5	225.8	1.8955e-06	1.7103e-06	288.42	81.691	63.907	18.981	1.7899e-06	26.492	-45.050	-42.924	-60.314	-135.171	40.446	6.768	-135.285	-127.943	46.060	16.092	-128.113	-121.029	-121.200	-113.720	-34.985	-114.690	-8191	255	
25169.857	1	1	0	0	0.31052	0.14309	0.1634	0.18441	0.1582	0.066424	0.088861	0.26221	0.10706	0.15671	0.1364	0.27236	0.13129	0.018795	0.26343	0.28541	-2.4083	-3.3833	-3.0125	-2.9625	-3.4562	-2.9125	-3.3833	-3.4458	-2.6479	-3.2104	-3.2667	-2.9813	-3.5354	-3.075	-3.15	-3.3812	3.420	123.513	184.357	192.730	-37.424	159.997	90.993	167.127	2.171	-0.369	-102.742	170.176	30.737	115.941	136.083	125.476	0.00024313	0.00032238	9.6393e-05	1117.2	1.4721e-06	4.225e-06	1213.4	232.58	2.1504e-06	1.0298e-06	294.2	82.625	65.203	18.916	4.0221e-06	26.415	0.00018613	0.0001486	4.6178e-05	1081.5	1.7778e-06	1.7534e-06	1180	226.48	1.839e-06	1.7271e-06	288.21	81.58	64.251	18.926	1.8418e-06	26.384	-49.801	-84.576	-38.015	-135.170	-7.801	26.428	-135.312	-128.030	16.999	30.992	-128.138	-121.058	-120.483	-114.003	-23.775	-114.571	-8191	255	
25169.953	1	1	0	0	0.14242	0.11593	0.014648	0.12568	0.24124	0.054132	0.077781	0.070254	0.29025	0.092026	0.13099	0.15869	0.23066	0.092455	0.17591	0.22135	-2.5563	-3.2667	-3.3521	-2.9458	-3.5167	-2.9271	-3.1833	-3.4583	-2.6562	-3.4917	-3.3479	-2.9667	-3.4521	-2.8917	-2.9396	-3.6	-53.716	161.167	156.078	188.914	-66.783	-39.233	83.002	59.369	-1.165	106.651	17.561	-30.484	189.037	-143.650	16.801	192.594	0.00021249	0.00045462	7.1034e-05	1107.5	2.7058e-06	4.6883e-06	1210.4	230.81	3.0844e-06	3.0776e-06	296.55	83.243	65.66	19.041	3.7578e-06	26.822	0.00018937	0.00015997	4.3689e-05	1079.5	1.7567e-06	1.931e-06	1176.7	225.96	1.9201e-06	1.7977e-06	288.77	81.697	64.266	18.899	1.8814e-06	26.532	-52.116	-61.818	-37.365	-135.216	-27.441	10.594	-134.987	-127.465	18.389	15.123	-127.854	-120.897	-121.299	-114.248	25.618	-114.783	-8191	255	
25170.049	1	1	0	0	0.16104	0.18247	0.049221	0.38642	0.18679	0.27747	0.22337	0.12929	0.08098	0.14491	0.15651	0.22268	0.12959	0.22871	0.25377	0.2287	-2.2	-3.3896	-3.25	-2.9708	-3.4792	-3.0062	-3.0875	-3.6063	-2.8354	-3.2521	-3.4771	-2.8708	-3.4354	-3.1125	-2.8417	-3.6146	-74.706	-127.498	-138.342	141.230	92.597	-57.257	106.896	-117.065	-80.428	142.871	193.734	206.148	135.247	49.870	-101.408	187.641	0.00021665	0.00032457	0.00011484	1122	3.3541e-06	2.3881e-06	1221.5	232.64	3.0566e-06	3.0089e-06	295.78	83.375	64.627	18.986	4.5769e-06	26.628	0.00018458	0.00016074	4.3915e-05	1082.2	1.7879e-06	1.7097e-06	1181.3	226.84	1.9555e-06	1.7548e-06	288.6	81.839	64.011	18.924	1.8371e-06	26.524	-57.714	-48.229	-51.723	-135.285	-33.912	2.255	-135.379	-127.831	0.982	-0.536	-128.170	-120.972	-120.962	-114.092	1.161	-114.476	-8191	255	
25170.170	1	1	0	0	0.11168	0.2176	0.19185	0.13217	0.043071	0.067915	0.28666	0.086534	0.1476	0.25298	0.12769	0.064676	0.059655	0.077316	0.079838	0.12434	-2.5708	-3.0708	-3.4271	-2.8542	-3.3563	-3.0771	-2.9604	-3.5625	-2.8396	-3.2333	-3.6396	-2.7687	-3.3937	-3.1854	-2.8125	-3.6271	-77.380	53.317	80.247	171.586	152.879	-74.735	160.100	20.161	131.143	-3.104	154.373	172.599	-4.845	70.833	-94.180	-116.433	0.00024987	0.000283	9.4258e-05	1108.8	3.719e-06	3.4333e-06	1210.9	231.62	1.8379e-06	3.1299e-06	294.51	82.227	64.848	18.906	1.4317e-06	26.31	0.00018115	0.00016751	4.2797e-05	1078.6	1.8743e-06	1.7255e-06	1177.5	225.94	1.788e-06	1.786e-06	288.07	81.607	64.26	18.881	1.8497e-06	26.503	-57.306	-79.648	-80.612	-135.224	8.897	15.692	-135.158	-127.959	-19.270	-32.586	-127.971	-121.303	-120.992	-113.832	-14.323	-114.190	-8191	255	
25170.266	1	1	0	0	0.066922	0.15763	0.10976	0.10342	0.036826	0.15785	0.08248	0.15801	0.040284	0.31002	0.20884	0.17544	0.26496	0.20968	0.022344	0.20534	-2.7479	-2.8937	-3.5292	-2.8417	-3.3667	-3.25	-3.0083	-3.7125	-3.0771	-2.9021	-3.6042	-2.8125	-3.3542	-3.3708	-2.925	-3.5917	124.197	97.346	84.235	122.289	-41.854	29.004	201.402	-16.227	139.391	-92.995	171.212	128.094	149.593	57.530	-52.124	136.766	0.00023584	0.00036184	7.1594e-05	1111.4	2.1037e-06	3.3141e-06	1200.8	231.65	2.7797e-06	2.4106e-06	295.82	82.428	64.547	18.816	3.9336e-06	26.527	0.00018401	0.00017292	4.3749e-05	1079.3	1.9441e-06	1.7408e-06	1175.6	226.59	1.8715e-06	1.8913e-06	288.87	81.691	64.142	18.928	1.785e-06	26.47	-56.663	-29.980	-64.865	-135.229	-6.245	1.696	-135.042	-127.821	-3.339	12.903	-128.117	-120.842	-120.836	-113.956	12.222	-114.033	-8191	255	
25170.361	1	1	0	0	0.23223	0.18618	0.05175	0.095582	0.092421	0.14927	0.20688	0.088185	0.18217	0.10444	0.17089	0.093752	0.18799	0.33831	0.15931	0.12014	-2.775	-2.9083	-3.6437	-3.1292	-3.2042	-3.3521	-2.8167	-3.4542	-3.0979	-2.9771	-3.6458	-2.9313	-3.2646	-3.4354	-2.8521	-3.525	-145.267	122.842	82.935	144.266	161.803	44.195	123.283	-134.220	134.169	-103.030	192.974	198.690	134.908	160.384	44.467	179.913	0.00022788	0.00025643	5.2663e-05	1110.7	3.599e-06	8.5285e-07	1213.3	231.18	2.4312e-06	2.0124e-06	294.59	82.5	65.057	19.033	4.3159e-06	26.721	0.00017917	0.00016624	4.2593e-05	1078.6	1.9232e-06	1.6434e-06	1178.4	226.36	1.9106e-06	1.7412e-06	288.5	81.696	64.199	18.94	1.8227e-06	26.527	-59.114	-32.569	-73.147	-135.234	28.571	8.621	-135.196	-127.824	11.229	-23.458	-127.806	-121.216	-120.974	-113.986	-6.590	-114.296	-8191	255	
25170.457	1	1	0	0	0.23284	0.16734	0.19907	0.25838	0.17588	0.053625	0.18706	0.14689	0.10571	0.35584	0.16835	0.31236	0.19488	0.14567	0.25144	0.15904	-2.8292	-2.7583	-3.7146	-2.9646	-3.0542	-3.5542	-2.9333	-3.3292	-3.2438	-2.8688	-3.6521	-3.1625	-3.075	-3.5583	-2.6104	-3.3042	-71.508	159.828	-18.914	-113.215	35.682	211.204	164.476	117.108	83.078	154.531	135.546	80.432	-130.338	161.132	-69.009	191.522	0.00022271	0.00019957	0.0001194	1116.6	3.3011e-06	4.0537e-06	1218.3	233.14	3.2414e-06	1.7327e-06	294.81	83.766	65.159	19.036	4.4605e-06	26.631	0.00018613	0.00016549	4.2996e-05	1083.3	1.9819e-06	1.7694e-06	1179.6	226.82	1.9626e-06	1.7958e-06	288.64	81.899	64.174	18.944	1.738e-06	26.474	-54.416	-51.533	-44.263	-135.221	1.016	4.635	-135.173	-127.801	9.004	8.511	-127.772	-121.661	-120.941	-114.225	50.515	-114.332	-8191	255	
#DATA ENDS
