BOXY.EXE: ISS Imagent and Oximeter Data Acquisition Program Version 0.80
Ascii Record File

#ACQ INFORMATION
2  Detector Channels 
16  External MUX Channels 
1  Auxiliary Channels 
5000  Waveform (CCF) Frequency (Hz)
1  Waveforms Skipped 
30  Waveforms Averaged 
1  Cycles Averaged 
16  Acquisitions per Waveform 
10.0806  Updata Rate (Hz) 

#FILE INFORMATION
TRUE -- External MUX Channel results are PARSED.
FALSE -- AC DC and Phase are NOT grouped.
TRUE -- Companion Program Settings File CREATED.
FALSE -- AC data not excluded
FALSE -- DC data not excluded
FALSE -- Phase data not excluded
FALSE -- Auxillary Chn. data not excluded
Tab delimiters

#CALIBRATION STATE
TRUE -- Waveform Calibration Values APPLIED.


#AUX CALIBRATION VALUES
Val Type	aux-1	

Term	1.0000e+00	
Factor	0.0000e+00	


#WF CALIBRATION VALUES
A = Detector Channel
Val Type	A-AC1	A-AC2	A-AC3	A-AC4	A-AC5	A-AC6	A-AC7	A-AC8	A-AC9	A-AC10	A-AC11	A-AC12	A-AC13	A-AC14	A-AC15	A-AC16	A-DC1	A-DC2	A-DC3	A-DC4	A-DC5	A-DC6	A-DC7	A-DC8	A-DC9	A-DC10	A-DC11	A-DC12	A-DC13	A-DC14	A-DC15	A-DC16	A-Ph1	A-Ph2	A-Ph3	A-Ph4	A-Ph5	A-Ph6	A-Ph7	A-Ph8	A-Ph9	A-Ph10	A-Ph11	A-Ph12	A-Ph13	A-Ph14	A-Ph15	A-Ph16	

Term	0.00000e+00	0.00000e+00	0.00000e+00	0.00000e+00	0.00000e+00	0.00000e+00	0.00000e+00	0.00000e+00	0.00000e+00	0.00000e+00	0.00000e+00	0.00000e+00	0.00000e+00	0.00000e+00	0.00000e+00	0.00000e+00	0.00000e+00	0.00000e+00	0.00000e+00	0.00000e+00	0.00000e+00	0.00000e+00	0.00000e+00	0.00000e+00	0.00000e+00	0.00000e+00	0.00000e+00	0.00000e+00	0.00000e+00	0.00000e+00	0.00000e+00	0.00000e+00	0.00000e+00	0.00000e+00	0.00000e+00	0.00000e+00	0.00000e+00	0.00000e+00	0.00000e+00	0.00000e+00	0.00000e+00	0.00000e+00	0.00000e+00	0.00000e+00	0.00000e+00	0.00000e+00	0.00000e+00	0.00000e+00	
Factor	1.00000e+00	1.00000e+00	1.00000e+00	1.00000e+00	1.00000e+00	1.00000e+00	1.00000e+00	1.00000e+00	1.00000e+00	1.00000e+00	1.00000e+00	1.00000e+00	1.00000e+00	1.00000e+00	1.00000e+00	1.00000e+00	1.00000e+00	1.00000e+00	1.00000e+00	1.00000e+00	1.00000e+00	1.00000e+00	1.00000e+00	1.00000e+00	1.00000e+00	1.00000e+00	1.00000e+00	1.00000e+00	1.00000e+00	1.00000e+00	1.00000e+00	1.00000e+00	X	X	X	X	X	X	X	X	X	X	X	X	X	X	X	X	

B = Detector Channel
Val Type	B-AC1	B-AC2	B-AC3	B-AC4	B-AC5	B-AC6	B-AC7	B-AC8	B-AC9	B-AC10	B-AC11	B-AC12	B-AC13	B-AC14	B-AC15	B-AC16	B-DC1	B-DC2	B-DC3	B-DC4	B-DC5	B-DC6	B-DC7	B-DC8	B-DC9	B-DC10	B-DC11	B-DC12	B-DC13	B-DC14	B-DC15	B-DC16	B-Ph1	B-Ph2	B-Ph3	B-Ph4	B-Ph5	B-Ph6	B-Ph7	B-Ph8	B-Ph9	B-Ph10	B-Ph11	B-Ph12	B-Ph13	B-Ph14	B-Ph15	B-Ph16	

Term	0.00000e+00	0.00000e+00	0.00000e+00	0.00000e+00	0.00000e+00	0.00000e+00	0.00000e+00	0.00000e+00	0.00000e+00	0.00000e+00	0.00000e+00	0.00000e+00	0.00000e+00	0.00000e+00	0.00000e+00	0.00000e+00	0.00000e+00	0.00000e+00	0.00000e+00	0.00000e+00	0.00000e+00	0.00000e+00	0.00000e+00	0.00000e+00	0.00000e+00	0.00000e+00	0.00000e+00	0.00000e+00	0.00000e+00	0.00000e+00	0.00000e+00	0.00000e+00	-5.59862e+01	-1.37165e+02	-1.09869e+02	-1.83892e+02	-6.46307e+01	-7.36611e+01	-1.56891e+02	-1.62015e+02	-4.00765e+01	-6.46858e+01	-1.74830e+02	-1.70829e+02	-1.79669e+02	-1.77438e+02	-3.40695e+01	-1.50113e+02	
Factor	2.00826e-05	1.16048e-04	2.50199e-05	2.01756e-01	1.04398e-06	1.05918e-06	1.68114e-01	5.33662e-02	9.36267e-07	1.40336e-06	1.25515e-01	3.06584e-02	2.97817e-02	1.00133e-02	1.07325e-06	1.43431e-02	9.95168e-07	1.02890e-06	2.87747e-07	1.00126e-01	1.12210e-08	1.12741e-08	7.94418e-02	2.67727e-02	1.12170e-08	1.12980e-08	5.87010e-02	1.47241e-02	1.47267e-02	4.94447e-03	1.13127e-08	6.80183e-03	X	X	X	X	X	X	X	X	X	X	X	X	X	X	X	X	



#DISTANCE SETTINGS
A = Detector Channel
A-1	A-2	A-3	A-4	A-5	A-6	A-7	A-8	A-9	A-10	A-11	A-12	A-13	A-14	A-15	A-16	

2.5000e+00	3.0000e+00	2.5000e+00	3.0000e+00	2.0000e+00	3.0000e+00	1.5000e+00	3.0000e+00	3.0000e+00	3.0000e+00	3.0000e+00	3.0000e+00	3.0000e+00	3.0000e+00	1.5000e+00	3.0000e+00	

B = Detector Channel
B-1	B-2	B-3	B-4	B-5	B-6	B-7	B-8	B-9	B-10	B-11	B-12	B-13	B-14	B-15	B-16	

1.0000e+01	1.0000e+01	1.0000e+01	1.4400e+00	1.0000e+01	1.0000e+01	1.5100e+00	1.9400e+00	1.0000e+01	1.0000e+01	1.9900e+00	2.4900e+00	2.4100e+00	2.9000e+00	1.0000e+01	2.9800e+00	




#DATA BEGINS
time	group	step	mark	flag	A-AC1	A-AC2	A-AC3	A-AC4	A-AC5	A-AC6	A-AC7	A-AC8	A-AC9	A-AC10	A-AC11	A-AC12	A-AC13	A-AC14	A-AC15	A-AC16	A-DC1	A-DC2	A-DC3	A-DC4	A-DC5	A-DC6	A-DC7	A-DC8	A-DC9	A-DC10	A-DC11	A-DC12	A-DC13	A-DC14	A-DC15	A-DC16	A-Ph1	A-Ph2	A-Ph3	A-Ph4	A-Ph5	A-Ph6	A-Ph7	A-Ph8	A-Ph9	A-Ph10	A-Ph11	A-Ph12	A-Ph13	A-Ph14	A-Ph15	A-Ph16	B-AC1	B-AC2	B-AC3	B-AC4	B-AC5	B-AC6	B-AC7	B-AC8	B-AC9	B-AC10	B-AC11	B-AC12	B-AC13	B-AC14	B-AC15	B-AC16	B-DC1	B-DC2	B-DC3	B-DC4	B-DC5	B-DC6	B-DC7	B-DC8	B-DC9	B-DC10	B-DC11	B-DC12	B-DC13	B-DC14	B-DC15	B-DC16	B-Ph1	B-Ph2	B-Ph3	B-Ph4	B-Ph5	B-Ph6	B-Ph7	B-Ph8	B-Ph9	B-Ph10	B-Ph11	B-Ph12	B-Ph13	B-Ph14	B-Ph15	B-Ph16	aux-1	digaux	

7333.585	1	1	0	256	0.3198	0.17191	0.048757	0.16693	0.17077	0.063342	0.13718	0.17517	0.17764	0.16605	0.076206	0.42712	0.13731	0.24455	0.21343	0.14392	-2.0958	-3.3396	-2.9167	-3.0083	-3.7104	-2.75	-3.1021	-3.4542	-2.5312	-3.4813	-3.0917	-2.7562	-3.5	-2.7021	-2.8708	-3.4688	-148.485	-126.550	-104.818	-147.902	45.825	78.928	152.896	200.869	146.163	83.902	-25.498	-136.772	-152.549	-133.881	124.576	-26.506	0.00039133	0.00010076	3.3493e-05	243.44	2.4703e-06	2.3206e-06	431.49	89.082	1.9181e-06	3.5671e-06	176.43	84.258	39.35	20.147	2.0743e-06	45.357	0.00017375	0.00017777	5.016e-05	245.21	1.7975e-06	1.9285e-06	423.08	88.888	1.7974e-06	1.9602e-06	172.13	81.551	39.024	19.755	1.9614e-06	43.14	-87.665	-8.305	-104.155	-146.445	-78.697	-59.130	-146.484	-140.733	-37.895	-90.699	-142.657	-138.657	-137.637	-134.177	-78.121	-135.786	-8191	255	
7333.704	1	1	0	0	0.23072	0.33265	0.1619	0.15596	0.14678	0.093055	0.28478	0.12882	0.16008	0.093078	0.22755	0.21283	0.14736	0.24329	0.22316	0.13077	-2.1833	-3.4938	-3.2	-2.7438	-3.5271	-2.7896	-3.2271	-3.6167	-2.6479	-3.2604	-3.2062	-2.7313	-3.6312	-2.8396	-3.0229	-3.6	-158.593	136.014	117.329	-27.667	-45.155	42.583	167.994	74.246	166.244	97.195	197.892	-144.445	-100.890	169.232	172.596	136.790	0.00039033	0.00013014	0.00014069	240.49	3.6257e-06	3.69e-06	421.02	87.306	3.5063e-06	5.2091e-06	173.68	83.303	39.357	20.074	2.3687e-06	45.035	0.00017488	0.00017887	4.9105e-05	242.34	1.7911e-06	1.9684e-06	414.53	86.938	1.8389e-06	2.0086e-06	167.62	80.518	38.902	19.702	1.9163e-06	42.844	-81.756	-112.837	-36.205	-146.341	-115.856	-17.848	-146.992	-141.130	-107.140	-25.380	-142.337	-138.653	-137.653	-134.603	-54.808	-135.666	-8191	255	
7333.800	1	1	0	0	0.079003	0.046524	0.22504	0.18537	0.075966	0.18975	0.13631	0.021385	0.16993	0.027599	0.14593	0.2696	0.20336	0.045665	0.11394	0.17152	-2.0625	-3.2021	-3.2375	-2.6875	-3.3708	-2.9042	-3.0146	-3.6083	-2.4896	-3.0812	-3.2687	-2.7938	-3.5708	-3.075	-2.8979	-3.5812	74.935	118.411	90.893	103.301	31.228	-121.641	158.219	-120.120	-122.394	-48.112	60.851	194.683	108.704	-103.812	94.878	90.666	0.00040272	0.00058308	6.2228e-05	238.91	9.0949e-07	7.5369e-06	423.87	88.033	2.6682e-06	7.236e-06	172.62	83.647	39.07	20.28	6.6397e-06	45.673	0.00017891	0.00018161	4.9347e-05	242	1.8864e-06	1.9769e-06	416.13	87.388	1.9151e-06	1.9694e-06	168.69	80.815	38.823	19.82	1.9062e-06	43.232	-85.909	-66.963	-62.380	-145.138	-69.937	-41.159	-146.121	-140.678	9.579	17.028	-142.080	-138.330	-137.814	-133.925	68.296	-135.863	-8191	255	
7333.871	1	1	0	0	0.1941	0.15375	0.10935	0.048881	0.24861	0.14374	0.13173	0.097747	0.1585	0.108	0.28411	0.37365	0.038117	0.060652	0.25878	0.35356	-2.5333	-3.1229	-3.2833	-2.6875	-3.4813	-2.9667	-3.0771	-3.5542	-2.8333	-3.05	-3.6146	-2.8312	-3.2917	-2.9417	-2.5083	-3.6146	-7.790	93.186	76.567	95.843	144.620	-51.576	134.160	-95.603	149.740	74.981	-123.287	177.768	-150.509	134.941	141.021	134.382	0.00048564	0.00038344	7.1399e-05	246.26	3.0727e-06	3.2241e-06	428.93	88.707	2.0948e-06	2.5707e-06	176.75	84.728	39.487	20.213	2.0261e-06	45.865	0.00018602	0.00017764	4.7121e-05	244.56	1.9346e-06	1.9648e-06	421.53	88.449	1.9421e-06	1.9576e-06	171.93	81.571	39.239	19.855	1.8393e-06	43.606	-82.466	69.088	-40.506	-146.030	75.236	-10.957	-146.332	-140.426	26.030	38.670	-142.737	-138.636	-137.220	-133.659	-34.657	-135.872	-8191	255	
7333.992	1	1	0	0	0.030859	0.26914	0.099273	0.13329	0.27301	0.26892	0.29294	0.05454	0.10746	0.049974	0.12948	0.21052	0.070262	0.14485	0.0077366	0.13342	-2.5958	-2.9854	-3.3625	-2.6125	-3.3021	-3.3312	-2.775	-3.5625	-2.9604	-2.8333	-3.8375	-2.7479	-3.3583	-3.3271	-2.5042	-3.7083	52.805	-39.795	184.464	-27.909	-7.853	41.427	160.310	-134.537	83.093	106.163	130.784	174.660	191.266	-20.908	140.271	-4.975	0.00041213	0.00021255	8.4838e-05	243.87	3.8674e-06	4.0778e-06	425.03	87.258	1.3279e-06	2.888e-06	171.91	83.055	38.445	20.229	2.4389e-06	45.137	0.00019218	0.00017281	4.6144e-05	243.66	1.9968e-06	1.8876e-06	416.55	86.952	1.9445e-06	1.869e-06	166.28	79.73	38.322	19.599	1.7777e-06	42.988	-79.370	43.145	-98.064	-146.010	-30.992	48.191	-146.232	-140.939	70.229	106.541	-142.833	-138.152	-137.654	-133.852	68.388	-135.946	-8191	255	
7334.088	1	1	0	0	0.16042	0.1786	0.048115	0.13094	0.14942	0.20557	0.19494	0.22858	0.15623	0.093026	0.098876	0.27574	0.17257	0.042875	0.29519	0.26505	-2.6625	-2.8625	-3.2062	-2.4667	-3.3771	-3.3292	-2.7417	-3.2167	-3.0312	-2.7354	-3.7583	-2.7917	-3.1646	-3.35	-2.7729	-3.4375	-10.914	-150.436	-145.436	90.701	200.628	134.244	180.502	49.635	-125.108	52.432	153.003	198.096	186.933	-153.457	71.805	95.531	0.00033692	0.00027049	5.5163e-05	240.06	2.6743e-06	2.4121e-06	417.8	85.655	1.8286e-06	2.9688e-06	171.69	81.785	38.168	19.976	1.9896e-06	45.291	0.00018425	0.00016331	4.3807e-05	240.89	1.8759e-06	1.8129e-06	408.79	85.611	1.8539e-06	1.7951e-06	163.82	79.051	37.922	19.526	1.7247e-06	43.044	-87.306	-14.040	10.775	-146.185	-12.616	-62.081	-146.564	-140.312	-42.950	-12.168	-142.888	-138.878	-137.620	-133.873	-61.566	-135.420	-8191	255	
7334.184	1	1	0	0	0.02594	0.15837	0.040714	0.18142	0.16259	0.16401	0.1377	0.17937	0.20024	0.18205	0.12236	0.12818	0.11434	0.099605	0.21328	0.14561	-2.9354	-2.7979	-3.4521	-2.8146	-3.1312	-3.5625	-2.7604	-3.275	-2.9229	-2.6083	-3.6833	-3.075	-3.1	-3.4875	-2.5312	-3.2896	-87.274	88.551	170.522	131.647	-115.061	173.362	-109.649	-59.117	152.401	-147.057	150.775	134.799	-25.781	146.803	68.190	165.567	0.00034548	1.5251e-05	4.5648e-05	240.08	1.2106e-06	2.5612e-06	419.04	86.113	2.6379e-06	1.4944e-06	171.61	82.521	38.477	20.188	2.3017e-06	45.414	0.00017989	0.00016238	4.4237e-05	241.72	1.8572e-06	1.7943e-06	410.04	86.307	1.9041e-06	1.787e-06	165.47	79.758	38.275	19.618	1.79e-06	43.356	-98.037	-44.469	-38.573	-146.352	-31.221	-23.417	-146.742	-140.850	47.337	44.786	-142.526	-138.749	-137.194	-134.104	57.644	-135.724	-8191	255	
7334.280	1	1	0	0	0.25394	0.034363	0.11455	0.47972	0.091694	0.14623	0.12186	0.23734	0.083174	0.16964	0.11918	0.18502	0.03035	0.086482	0.2108	0.31985	-2.6771	-2.5604	-3.4167	-2.9354	-3.0438	-3.5563	-2.5958	-3.2604	-3.0604	-2.7896	-3.4104	-3.0542	-3.0458	-3.5021	-2.5854	-3.2771	89.788	21.646	102.666	89.560	-125.981	-29.568	105.065	146.665	187.556	-133.105	-124.928	-27.653	-43.577	143.142	114.082	146.027	0.00041124	0.00033805	1.1634e-05	239.88	3.6667e-06	1.9044e-06	417.96	86.318	3.3545e-06	3.4012e-06	168.63	82.621	38.602	20.473	2.2434e-06	46.092	0.00017963	0.00016582	4.6883e-05	242.99	1.9258e-06	1.8545e-06	411.84	86.828	2.0019e-06	1.9043e-06	165.24	80.203	38.556	19.951	1.9812e-06	43.802	-91.794	-84.269	99.477	-146.364	61.977	24.395	-146.771	-140.493	-19.914	-28.717	-142.779	-138.536	-138.085	-133.431	93.761	-135.653	-8191	255	
7334.377	1	1	0	0	0.040756	0.061224	0.30853	0.1494	0.26217	0.06933	0.29115	0.017697	0.1057	0.094719	0.09164	0.26253	0.18445	0.21823	0.10496	0.21292	-2.9417	-2.5542	-3.3021	-3.0208	-2.8854	-3.6458	-2.8438	-3.2375	-3.4021	-2.6813	-3.4771	-3.0271	-2.8917	-3.5979	-2.7229	-3.1979	-122.451	-65.732	80.350	16.900	-92.189	182.554	39.235	68.331	120.848	67.950	127.791	96.961	162.896	-115.740	-32.839	-156.031	0.0003356	0.0004038	6.2703e-05	234.34	1.681e-06	6.2252e-07	404.78	83.22	4.8696e-06	2.5344e-06	163.42	79.834	37.574	20.283	2.0683e-06	45.083	0.00018757	0.00016713	4.9532e-05	238.88	1.8825e-06	1.8217e-06	400.1	83.681	1.8805e-06	1.8143e-06	158.78	77.337	37.458	19.612	1.9729e-06	42.934	-90.317	-5.317	-30.864	-145.699	179.924	89.691	-146.873	-140.890	-51.282	38.665	-142.534	-138.072	-137.024	-133.920	-4.324	-135.548	-8191	255	
7334.473	1	1	0	0	0.11859	0.18859	0.10536	0.043018	0.21608	0.46334	0.17529	0.059386	0.20879	0.15868	0.15399	0.18466	0.043035	0.20773	0.071081	0.1807	-3.1958	-2.8208	-3.425	-3.1	-2.8458	-3.6958	-2.9417	-3.025	-3.6437	-2.6875	-3.475	-3.0938	-2.4	-3.5229	-3.0896	-3.0312	-60.816	-68.288	-52.144	-96.709	-79.643	-116.654	138.212	-120.656	-33.524	-12.035	-38.627	24.137	91.768	49.792	65.690	-139.110	0.00036937	0.00014927	2.2686e-05	231.46	3.6112e-06	1.954e-06	407.26	83.479	2.7483e-06	2.8102e-06	162.79	80.217	37.738	20.117	4.1123e-06	45.077	0.00017869	0.00016612	5.0422e-05	236.12	1.8218e-06	1.8298e-06	400.62	83.78	1.8246e-06	1.8485e-06	159.71	77.341	37.386	19.536	1.9848e-06	42.756	-83.966	92.854	-79.757	-146.952	-7.929	-143.167	-146.731	-140.746	4.901	19.029	-143.151	-138.539	-137.122	-133.910	77.432	-135.580	-8191	255	
7334.569	1	1	0	0	0.031124	0.072949	0.12312	0.1937	0.20038	0.070355	0.05687	0.10625	0.033592	0.18356	0.04903	0.13966	0.045938	0.20979	0.058677	0.23638	-3.1167	-2.5979	-3.3292	-3.2396	-2.75	-3.4604	-3.0354	-2.7375	-3.4854	-2.7479	-3.2292	-3.2771	-2.4875	-3.5417	-3.0667	-2.7125	8.583	110.474	170.301	-120.274	70.444	-106.078	-154.463	146.677	-34.414	-118.450	11.959	143.898	-8.384	155.816	-122.761	187.278	0.00038516	0.00020799	6.0814e-05	234.82	1.4644e-06	1.8298e-06	413.32	84.215	8.337e-07	2.2073e-06	167.19	81.329	38.194	19.982	4.7732e-06	45.012	0.00017496	0.00017097	4.9605e-05	237.1	1.8296e-06	1.8653e-06	406.25	84.621	1.8431e-06	1.9395e-06	163.36	78.324	37.803	19.509	2.0398e-06	42.74	-82.841	-101.167	45.789	-146.354	-34.780	-109.613	-146.415	-140.417	28.826	-3.425	-142.656	-138.471	-137.632	-133.627	14.578	-135.683	-8191	255	
7334.665	1	1	0	0	0.1388	0.22124	0.053329	0.13127	0.068678	0.20607	0.076262	0.22398	0.2336	0.12957	0.27925	0.079161	0.12287	0.11336	0.23045	0.23621	-3.0396	-2.775	-3.2812	-3.3583	-2.5479	-3.4625	-3.1937	-2.8563	-3.4417	-2.725	-3.0708	-3.5812	-2.6729	-3.4354	-3.1937	-2.7708	37.661	-144.968	69.083	10.501	173.675	-40.157	67.330	15.685	-152.591	-135.559	75.626	61.245	180.127	-135.955	-59.247	50.992	0.00032479	0.00040016	0.00012506	235.15	2.1501e-06	1.9343e-06	413.07	84.125	4.1045e-06	4.5823e-06	164.51	79.859	37.03	19.829	1.8141e-06	44.166	0.00017967	0.00018255	5.1014e-05	238.38	1.8504e-06	1.9827e-06	405.23	84.352	1.8868e-06	2.0123e-06	160.6	77.329	37.089	19.407	1.9942e-06	42.019	-69.253	-76.699	-3.032	-145.967	-79.438	9.765	-146.798	-140.429	-8.502	-53.837	-141.964	-138.501	-137.709	-133.885	195.653	-135.705	-8191	255	
7334.784	1	1	0	0	0.13945	0.077862	0.053273	0.15535	0.20786	0.13307	0.19769	0.11998	0.1825	0.19447	0.25291	0.07742	0.23102	0.15685	0.042354	0.20229	-2.975	-2.8771	-3.1188	-3.5438	-2.4979	-3.2562	-3.2875	-2.7458	-3.6354	-2.8042	-2.775	-3.5042	-2.5708	-3.2625	-3.2188	-2.8729	122.453	63.089	116.089	-149.609	44.752	-110.827	105.019	18.683	114.812	94.416	-10.618	61.035	-150.218	-115.922	-52.464	128.876	0.00038739	0.00045261	6.7742e-06	234.13	4.4134e-06	1.1606e-06	411.58	84.157	2.9402e-06	2.1672e-06	168.35	80.272	37.629	19.762	3.2263e-06	44.355	0.0001788	0.0001873	5.0852e-05	237.28	1.8883e-06	2.0624e-06	403.48	84.296	1.9074e-06	2.0696e-06	162.18	77.585	37.618	19.39	1.9858e-06	42.321	-86.357	36.150	1.315	-145.716	-55.547	21.770	-146.873	-140.727	-22.592	200.846	-142.428	-138.524	-136.926	-133.725	103.813	-135.580	-8191	255	
7334.880	1	1	0	0	0.036114	0.15132	0.058592	0.11954	0.11753	0.13529	0.2097	0.20655	0.051331	0.2338	0.12888	0.077493	0.1118	0.073396	0.22022	0.16387	-2.9375	-2.9479	-2.7896	-3.4792	-2.6979	-3.1021	-3.4167	-2.5396	-3.5479	-3.1958	-2.6771	-3.5167	-2.6063	-2.9729	-3.35	-2.6417	-82.379	-110.802	89.024	182.604	132.775	157.899	103.695	136.663	-75.166	-116.085	188.119	108.304	132.557	-143.704	115.295	54.553	0.00034122	0.00049848	2.4756e-05	238.21	2.0473e-06	1.6502e-06	419.8	86.351	4.2757e-06	1.9132e-06	170.76	81.396	38.191	19.951	1.5833e-06	44.783	0.00018494	0.00018984	4.9329e-05	239.78	1.9866e-06	2.0733e-06	410.67	86.012	2.0359e-06	2.0905e-06	166.87	79.226	38.214	19.538	2.0133e-06	42.626	-91.889	-35.578	31.643	-145.716	-62.564	44.886	-146.689	-140.721	-36.857	82.333	-142.422	-138.147	-137.500	-133.213	43.496	-135.117	-8191	255	
7334.976	1	1	0	0	0.043955	0.04002	0.31405	0.04657	0.10698	0.23949	0.12283	0.17209	0.28807	0.25083	0.11469	0.18862	0.024492	0.12141	0.040644	0.11388	-2.9188	-3.0396	-2.6688	-3.5146	-2.7708	-2.9583	-3.4292	-2.5187	-3.1521	-3.1958	-2.8937	-3.4313	-2.7938	-3.0708	-3.5125	-2.7667	-111.879	-138.928	-38.024	91.492	-100.247	-139.950	50.989	67.942	141.558	115.145	47.441	29.942	56.052	-58.617	-2.770	158.773	0.00039426	0.00025103	5.7742e-05	240.72	1.0357e-06	2.2478e-06	424.9	87.209	3.8864e-06	2.2034e-06	170.93	81.267	38.521	19.908	1.3522e-06	44.681	0.00020241	0.00019164	5.094e-05	243.3	2.1284e-06	2.0796e-06	416.3	87.02	2.1149e-06	2.0567e-06	167.08	79.09	38.349	19.375	1.9361e-06	42.351	-96.452	-90.467	-69.801	-145.757	-63.842	34.344	-146.617	-140.819	5.960	132.364	-142.620	-138.584	-137.442	-133.464	74.740	-135.638	-8191	255	
7335.072	1	1	0	0	0.27212	0.10104	0.11581	0.065969	0.13139	0.15994	0.085765	0.025067	0.17852	0.094013	0.11168	0.21156	0.11072	0.29054	0.30369	0.022958	-2.9917	-3.2083	-2.2958	-3.5125	-2.9708	-2.9083	-3.5062	-2.5833	-3.0458	-3.2687	-2.7667	-3.7229	-3.0563	-2.9708	-3.5458	-2.6813	-135.122	-41.216	-110.676	-77.548	-97.575	-41.911	-60.379	116.759	-31.924	-39.570	182.260	105.032	70.835	-11.230	-130.716	-147.055	0.0003999	0.00013247	8.5953e-06	237.01	8.8866e-07	2.8563e-06	414.21	84.212	1.1292e-06	3.7662e-06	165.77	79.511	37.445	19.6	1.2669e-06	43.524	0.00020173	0.00018442	4.8657e-05	240	2.0698e-06	1.9718e-06	406.68	84.625	2.0507e-06	1.9468e-06	160.89	76.938	37.435	19.076	1.8401e-06	41.509	-89.864	-158.004	-112.519	-145.769	-1.171	-13.984	-146.508	-140.758	-8.532	-35.861	-142.103	-138.445	-137.427	-133.603	138.001	-135.402	-8191	255	
7335.169	1	1	0	0	0.16307	0.043146	0.25441	0.15815	0.078288	0.2039	0.15625	0.11262	0.090091	0.11609	0.26163	0.090584	0.26083	0.12366	0.10887	0.073317	-2.8688	-3.4437	-2.6271	-3.425	-2.9271	-2.6771	-3.5667	-2.8271	-3.2292	-3.6542	-2.6208	-3.3563	-3.1937	-2.8979	-3.5979	-2.7542	80.239	88.584	-0.568	114.151	136.197	47.295	149.845	-117.937	-29.156	78.303	-91.589	50.995	109.530	164.582	96.923	-108.314	0.00040083	0.00024446	0.00011435	236.53	2.259e-06	3.4058e-06	415.27	83.937	7.0994e-07	2.0777e-06	166.32	78.79	36.844	19.365	3.8546e-06	43.539	0.00019383	0.00017375	4.7367e-05	238.75	2.0013e-06	1.9216e-06	405.52	84.385	1.9896e-06	1.9032e-06	161.02	76.653	36.89	18.859	1.8391e-06	41.408	-87.675	-15.419	-89.721	-146.203	-91.169	12.431	-146.557	-140.992	-47.163	2.709	-142.198	-138.326	-137.340	-133.769	-21.249	-135.370	-8191	255	
7335.265	1	1	0	0	0.14077	0.10955	0.10282	0.19242	0.18107	0.065707	0.14529	0.36134	0.24576	0.26768	0.1177	0.29121	0.12919	0.016588	0.048456	0.048419	-2.7042	-3.4313	-2.5729	-3.4708	-3.0646	-2.7604	-3.5771	-2.7667	-2.8396	-3.2708	-2.8063	-3.4854	-3.225	-2.8021	-3.675	-2.9375	76.003	172.599	-30.238	-1.517	-151.424	-93.704	51.296	183.040	-149.403	-154.203	63.815	-55.785	59.743	13.897	46.673	-58.290	0.00037527	0.0001782	7.2182e-05	233.92	2.7199e-06	3.5622e-06	414.79	84.206	1.9641e-06	1.4727e-06	167.57	79.425	36.73	19.331	2.9974e-06	43.231	0.00018648	0.00017087	4.6973e-05	239.57	1.977e-06	1.8751e-06	406.6	84.395	1.9625e-06	1.8978e-06	162.29	76.97	36.84	18.87	1.9656e-06	41.324	-87.529	0.813	-18.569	-146.800	-67.939	-59.792	-146.286	-140.787	50.383	10.239	-142.189	-138.323	-137.377	-133.280	-0.678	-135.606	-8191	255	
7335.385	1	1	0	0	0.072463	0.18755	0.065219	0.032712	0.093835	0.11233	0.12182	0.12658	0.19174	0.029739	0.15986	0.071568	0.095463	0.23107	0.18791	0.18292	-2.5521	-3.2708	-2.7708	-3.2396	-3.1417	-2.8083	-3.4333	-2.9833	-3.0417	-3.4333	-2.5792	-3.2625	-3.3875	-2.5625	-3.4292	-3.2375	-10.204	143.464	-3.612	-22.510	-63.393	-6.418	110.170	195.558	-66.016	-5.971	-59.883	-105.759	-146.973	179.354	-22.850	133.132	0.00034418	0.00019994	5.0643e-05	234.44	2.3217e-07	7.2006e-07	412	83.032	2.0949e-06	3.757e-06	163.4	78.122	36.787	19.173	2.9702e-06	43.095	0.00018876	0.00017328	4.9804e-05	239.43	1.9631e-06	1.8947e-06	404.55	83.707	1.9358e-06	1.8511e-06	159.82	76.041	36.565	18.705	1.9992e-06	40.952	-84.204	180.034	-15.082	-145.910	-59.409	-24.666	-146.505	-140.657	104.165	-10.065	-142.550	-138.167	-137.633	-133.695	-34.172	-135.321	-8191	255	
7335.480	1	1	0	0	0.17136	0.064922	0.19313	0.1686	0.12546	0.16936	0.075394	0.14617	0.15068	0.27932	0.078269	0.17505	0.28729	0.24248	0.17215	0.2161	-2.4437	-3.475	-2.6562	-3.3542	-3.3604	-2.6437	-3.5687	-3.3458	-2.6667	-3.4062	-2.8771	-3.1833	-3.5083	-2.625	-3.2792	-3.3792	84.912	16.171	-65.424	184.481	1.406	19.448	-140.961	147.791	91.883	62.159	26.023	116.267	121.830	-24.418	98.923	155.088	0.00036903	0.00010046	9.45e-05	232.26	3.1584e-06	2.687e-06	409.81	83.48	2.4037e-06	5.1148e-06	165.37	78.192	36.678	19.222	2.9664e-06	43.015	0.00018177	0.00016748	5.0838e-05	237.49	1.876e-06	1.8156e-06	403.73	83.456	1.8611e-06	1.8209e-06	160.35	76.057	36.688	18.789	1.9999e-06	41.185	-85.322	-76.300	-18.074	-145.440	-23.310	-43.238	-146.438	-141.053	85.026	161.709	-141.679	-137.980	-137.699	-133.391	-60.561	-135.492	-8191	255	
7335.576	1	1	0	0	0.14091	0.15599	0.03673	0.22033	0.35385	0.13717	0.26776	0.24008	0.062454	0.1672	0.085579	0.29853	0.072449	0.10438	0.074323	0.44214	-2.2854	-3.5146	-2.6979	-3.1229	-3.5417	-2.7646	-3.3896	-3.0563	-2.5396	-3.4562	-3.1167	-2.8979	-3.475	-2.5375	-3.1833	-3.4313	57.208	-42.082	57.225	154.761	192.301	15.232	-117.169	163.946	99.431	-30.724	94.070	-91.199	-99.836	198.197	95.562	150.684	0.00037654	0.00026444	9.0511e-05	237.89	2.0197e-06	1.184e-06	417.91	84.113	1.322e-06	3.6448e-07	168.04	79.742	37.38	19.322	2.9545e-06	44.021	0.00017798	0.00016659	5.0569e-05	239.37	1.8201e-06	1.8457e-06	409.9	83.943	1.8083e-06	1.8611e-06	163.23	77.301	36.916	18.93	2.0042e-06	41.841	-88.307	-71.136	-16.055	-146.346	-46.111	187.597	-146.272	-140.455	-79.736	130.107	-142.713	-138.057	-136.886	-133.657	-7.091	-135.402	-8191	255	
7335.696	1	1	0	0	0.31772	0.064991	0.24203	0.21936	0.28201	0.028061	0.11987	0.34482	0.06514	0.10904	0.21362	0.12773	0.16935	0.34974	0.14183	0.23288	-2.3438	-3.5604	-2.9646	-2.7396	-3.4354	-2.7271	-3.2479	-3.7	-2.6729	-3.3312	-3.2167	-2.7062	-3.6896	-2.8438	-3.2062	-3.4208	-146.031	-63.015	170.915	117.567	-148.217	14.564	-107.195	83.755	95.584	65.186	131.507	140.718	-154.361	182.160	-27.484	148.897	0.00037219	0.00028789	3.5414e-05	239	2.1381e-06	1.8653e-06	421.25	85.847	2.719e-06	2.3951e-06	168.55	80.452	37.183	19.568	1.5742e-06	44.387	0.00017269	0.00017294	5.0197e-05	240.86	1.7632e-06	1.8902e-06	412.48	85.082	1.7694e-06	1.8696e-06	163.98	77.593	36.951	19.051	1.8971e-06	42.061	-85.977	-120.587	-50.771	-146.407	43.996	13.775	-146.640	-140.951	-27.044	-12.701	-142.575	-138.003	-137.060	-133.516	6.345	-135.590	-8191	255	
7335.768	1	1	0	0	0.17892	0.14633	0.15955	0.068075	0.16457	0.090888	0.20941	0.10833	0.13854	0.2665	0.20629	0.2937	0.059668	0.17773	0.23211	0.31114	-2.3042	-3.2854	-3.0104	-2.7646	-3.675	-3.0021	-3.0479	-3.3417	-2.6188	-3.3792	-3.2375	-2.7687	-3.6646	-2.7208	-2.8479	-3.4417	50.901	-158.449	70.402	-115.554	83.156	37.432	-0.919	-133.577	-75.469	-43.995	111.748	-77.188	-7.910	3.422	71.282	-151.351	0.00031467	0.0002413	6.6748e-05	238.21	1.305e-06	3.0389e-06	413.66	83.567	3.8675e-06	1.9183e-06	164.64	79.645	36.621	19.249	4.3533e-06	43.642	0.00016978	0.00017118	4.7611e-05	238.84	1.7646e-06	1.872e-06	407.39	83.438	1.7267e-06	1.9043e-06	160.15	76.525	36.363	18.856	1.8227e-06	41.432	-89.070	-117.389	55.225	-146.069	-40.163	-17.968	-146.083	-140.940	7.532	100.704	-142.607	-138.447	-137.449	-134.032	14.127	-135.624	-8191	255	
7335.864	1	1	0	0	0.152	0.052042	0.19878	0.25711	0.11158	0.088569	0.19973	0.29154	0.065292	0.20528	0.11803	0.075723	0.18512	0.24179	0.0799	0.15723	-2.1583	-3.4792	-3.1646	-2.5875	-3.4583	-3.0312	-3.0583	-3.6542	-2.6208	-3.2333	-3.125	-2.6458	-3.4688	-3.1667	-2.8812	-3.6646	-144.826	-10.283	93.146	-11.000	64.823	108.561	133.406	-143.608	-136.760	-76.584	-59.430	47.228	-102.312	190.429	-83.857	93.761	0.00041104	0.00013971	8.273e-05	240.16	1.0497e-06	3.4301e-06	418.44	84.652	2.0819e-06	2.1128e-06	169.5	80.256	37.578	19.51	2.3181e-06	44.319	0.00016891	0.000174	4.565e-05	238.72	1.7517e-06	1.9156e-06	410.36	84.396	1.8092e-06	1.8868e-06	163.6	77.455	37.118	18.95	1.8399e-06	41.825	-98.535	-70.142	-67.915	-146.372	-35.861	28.469	-146.419	-140.857	7.577	41.831	-142.616	-138.356	-137.158	-132.913	-40.529	-135.421	-8191	255	
7335.960	1	1	0	0	0.13376	0.11716	0.17071	0.1234	0.083321	0.09034	0.28612	0.094689	0.20691	0.088425	0.10321	0.20962	0.12876	0.053148	0.051931	0.17645	-2.1729	-3.2062	-3.2854	-2.6479	-3.7354	-2.9833	-2.6458	-3.5042	-2.7833	-3.1104	-3.3729	-2.7812	-3.4271	-3.1625	-2.9062	-3.4917	-7.442	-50.517	109.655	27.334	148.321	-120.228	-95.821	52.640	77.717	181.071	73.222	102.723	-105.781	18.357	50.690	72.620	0.00041443	0.00012178	9.7508e-05	241.65	4.1999e-06	9.4259e-07	422.22	86.476	2.0815e-06	2.4394e-06	174.35	80.834	37.802	19.463	6.5351e-07	44.115	0.0001779	0.00017611	4.6794e-05	241.34	1.8922e-06	1.9271e-06	415.17	85.81	1.9199e-06	1.9174e-06	166.77	78.042	37.237	18.993	1.7994e-06	41.968	-93.754	-74.190	-30.718	-146.291	-26.244	83.643	-146.016	-140.805	43.666	-84.772	-142.193	-138.155	-136.768	-133.572	86.776	-135.332	-8191	255	
7336.057	1	1	0	0	0.40878	0.16949	0.082839	0.16346	0.084238	0.12108	0.18426	0.27648	0.23204	0.028554	0.061749	0.26807	0.30303	0.17989	0.1983	0.22513	-2.3854	-2.8021	-3.3812	-2.6583	-3.3937	-3.1625	-2.8958	-3.7667	-2.9354	-2.9979	-3.4625	-2.7708	-3.3563	-3.3042	-2.8312	-3.5687	113.512	-19.692	137.177	161.969	150.492	160.209	-46.266	145.518	57.826	52.540	116.126	71.808	-77.776	132.640	-7.383	-120.581	0.00043532	0.00039592	6.874e-05	236.89	2.129e-06	3.1962e-06	416.02	84.027	4.0505e-06	3.5098e-06	165.47	78.271	35.968	18.995	3.3936e-07	43.142	0.00018343	0.00016893	4.4875e-05	238.95	1.8928e-06	1.8228e-06	407.06	83.622	1.8757e-06	1.7943e-06	159.12	75.149	35.962	18.589	1.7379e-06	41.065	-88.192	-148.606	-86.445	-145.893	84.217	-68.674	-146.225	-140.456	-16.582	-70.437	-142.196	-138.447	-137.287	-133.806	-74.952	-135.435	-8191	255	
7336.177	1	1	0	0	0.123	0.18824	0.12261	0.12085	0.059045	0.21921	0.40842	0.1885	0.29597	0.11532	0.14649	0.08796	0.15612	0.051609	0.15835	0.14156	-2.7062	-2.8896	-3.4875	-2.6021	-3.1208	-3.25	-2.725	-3.5563	-2.8937	-2.9458	-3.5167	-2.6688	-3.1167	-3.4417	-2.6562	-3.5604	-111.221	171.818	-74.804	163.727	110.752	48.572	117.162	-89.603	145.222	146.631	152.722	-67.974	-150.672	-113.711	-23.333	96.580	0.0003879	0.0003163	9.8483e-05	234.2	3.2407e-06	1.897e-06	410.52	82.669	3.6591e-06	2.7679e-06	163.05	77.474	35.984	18.996	3.8669e-06	43.193	0.00017905	0.00016481	4.4299e-05	235.97	1.9085e-06	1.7928e-06	400.04	82.487	1.8943e-06	1.7911e-06	156.94	75.009	35.841	18.49	1.6716e-06	40.992	-89.124	-127.998	-84.420	-146.511	22.115	-34.601	-146.314	-140.841	25.361	176.160	-142.802	-138.039	-137.114	-133.578	-31.553	-135.438	-8191	255	
7336.273	1	1	0	0	0.0088079	0.057927	0.024541	0.27781	0.050078	0.24373	0.16582	0.12237	0.22658	0.043866	0.34063	0.23603	0.038769	0.14914	0.10489	0.23555	-2.7792	-2.8417	-3.5104	-2.5812	-3.1021	-3.2604	-2.5542	-3.525	-3.1917	-2.7958	-3.6104	-2.8271	-2.9167	-3.3771	-2.7167	-3.3167	-142.701	-63.951	144.625	106.608	-143.236	188.165	134.923	-29.701	54.700	-62.772	142.278	92.176	-60.071	-126.890	-68.986	50.312	0.00032388	0.00013212	7.0699e-05	234.93	3.706e-06	1.3337e-06	409.24	82.823	4.7441e-06	3.0973e-06	163.71	78.461	36.027	19.274	2.0963e-06	43.716	0.00017644	0.00015827	4.2572e-05	237.04	1.8067e-06	1.733e-06	400.62	82.982	1.8118e-06	1.7447e-06	158.74	76.132	36.142	18.704	1.7184e-06	41.668	-85.974	11.331	-69.850	-146.521	-64.679	0.056	-146.922	-140.437	26.850	55.884	-142.596	-138.284	-137.286	-133.427	4.269	-135.192	-8191	255	
7336.345	1	1	0	0	0.11422	0.15738	0.098096	0.10021	0.24253	0.092644	0.17047	0.12506	0.11059	0.25372	0.1924	0.02988	0.22095	0.13315	0.20829	0.1687	-2.8229	-2.4313	-3.5479	-2.6875	-2.7854	-3.5833	-2.6771	-3.3396	-3.1771	-2.6958	-3.475	-2.7208	-2.8208	-3.6729	-2.5979	-2.9604	31.509	-145.051	197.512	-148.353	37.187	-117.598	157.178	-156.134	84.851	107.176	82.687	-143.825	178.766	-54.061	85.890	10.378	0.00036121	0.00021131	5.6761e-05	240.7	1.4851e-06	3.826e-06	415.96	84.184	5.8525e-07	2.6075e-06	165.43	78.62	36.395	19.15	1.6607e-06	43.328	0.00017326	0.00015689	4.3458e-05	239.86	1.7567e-06	1.6793e-06	405.36	83.522	1.7693e-06	1.6709e-06	159.6	75.897	35.79	18.628	1.7908e-06	41.363	-86.809	-146.523	-84.345	-146.602	55.189	-44.865	-146.454	-140.850	54.103	-51.699	-142.428	-137.929	-136.934	-133.413	-74.604	-135.298	-8191	255	
7336.466	1	1	0	0	0.048847	0.14582	0.02224	0.13332	0.096354	0.31688	0.15968	0.019642	0.1521	0.10229	0.043962	0.18565	0.052255	0.17223	0.29089	0.096968	-2.6125	-2.4833	-3.4	-3.0812	-2.9729	-3.6396	-2.8854	-3.1979	-3.3979	-2.7958	-3.5625	-3.2	-2.6333	-3.45	-2.6229	-3.0917	120.230	98.312	33.715	55.948	166.884	-141.234	90.931	76.200	154.565	66.258	76.644	178.277	123.958	-75.379	159.664	120.422	0.0004088	9.9088e-05	2.8889e-05	234.04	2.641e-06	5.7114e-06	411.03	82.661	2.5459e-06	1.2145e-06	162.98	77.479	36.295	19.135	2.0624e-06	43.436	0.00017045	0.00015537	4.5353e-05	236.63	1.7295e-06	1.6752e-06	402.54	82.602	1.7361e-06	1.6488e-06	157.86	75.31	35.892	18.613	1.8366e-06	41.308	-92.416	-95.102	136.690	-146.276	13.681	-15.034	-146.595	-140.983	-7.776	141.492	-141.822	-137.964	-137.292	-133.854	-3.907	-135.471	-8191	255	
7336.560	1	1	0	0	0.10424	0.093239	0.045354	0.24789	0.11154	0.17687	0.16132	0.1387	0.023786	0.28999	0.085802	0.2909	0.14834	0.15807	0.21777	0.12381	-3.0167	-2.6167	-3.2417	-2.9375	-2.8187	-3.5583	-2.8667	-3.0438	-3.3896	-2.5292	-3.4208	-3.2104	-2.5917	-3.5979	-2.9729	-3.0187	82.467	-101.461	6.887	-151.718	-135.950	109.881	-37.013	145.940	20.470	60.717	127.264	99.445	-43.529	-109.851	-100.381	176.270	0.00040905	7.0326e-05	9.6265e-05	235.89	1.4146e-06	1.2378e-06	413.27	83.118	1.0376e-06	2.1963e-06	167.58	79.249	36.847	19.203	2.121e-06	43.742	0.00016541	0.00015304	4.6924e-05	236.9	1.6947e-06	1.6887e-06	405.19	83.545	1.7031e-06	1.6811e-06	161.56	76.47	36.255	18.74	1.8512e-06	41.556	-77.509	-22.970	-24.436	-147.081	-67.803	100.920	-146.736	-140.510	-19.927	-68.906	-142.008	-138.050	-137.307	-133.657	5.368	-135.329	-8191	255	
7336.658	1	1	0	0	0.023688	0.2296	0.16823	0.0324	0.14772	0.22365	0.46702	0.24053	0.041801	0.13452	0.184	0.13352	0.15656	0.048111	0.11975	0.14607	-3.0208	-2.7792	-3.3063	-3.45	-2.6667	-3.5146	-2.9833	-2.8	-3.35	-2.8083	-3.5083	-3.4083	-2.6875	-3.4229	-2.7938	-2.7604	90.471	-46.185	-153.137	83.944	181.790	166.231	136.038	-88.657	-30.404	-98.199	141.051	111.785	-78.899	107.687	-12.436	133.348	0.00041522	0.00052904	9.1248e-05	238.43	2.3901e-06	3.8238e-07	417.76	85.319	3.8613e-06	4.4609e-06	170.48	80.677	36.584	19.199	3.4343e-06	44.083	0.00016233	0.00015533	4.6676e-05	238.7	1.6634e-06	1.6866e-06	411.16	84.535	1.6644e-06	1.7515e-06	164.62	77.465	36.347	18.753	1.8566e-06	41.906	-93.637	161.449	23.729	-146.504	-80.355	97.122	-146.792	-140.590	-32.662	-16.021	-142.185	-138.036	-137.543	-133.592	38.701	-135.248	-8191	255	
7336.777	1	1	0	0	0.27829	0.0349	0.21253	0.20929	0.44527	0.15182	0.13269	0.064334	0.11784	0.020431	0.077254	0.024635	0.14568	0.15764	0.1621	0.21442	-3.0125	-2.6229	-3.1667	-3.3333	-2.7104	-3.4313	-3.2687	-2.7417	-3.3854	-2.7521	-2.9979	-3.3625	-2.7146	-3.5354	-3.1312	-2.6917	154.878	132.612	-6.624	177.251	-151.697	-82.650	-0.511	16.640	-1.159	-113.782	199.873	-97.562	-151.942	98.445	168.775	142.928	0.00034818	0.00031639	2.294e-05	239.78	1.1462e-06	3.7844e-06	416.82	84.218	1.4192e-06	2.1441e-06	166.15	78.814	36.156	18.999	2.8391e-06	43.517	0.00016049	0.00016016	4.5818e-05	239.15	1.6447e-06	1.7971e-06	408.34	83.853	1.6479e-06	1.7911e-06	160.69	75.99	35.743	18.575	1.8148e-06	41.306	-99.854	-40.683	-4.772	-146.264	-18.915	-38.216	-146.378	-140.500	42.155	27.621	-142.185	-138.201	-137.249	-133.433	28.069	-135.330	-8191	255	
7336.873	1	1	0	0	0.13499	0.078507	0.043424	0.14406	0.12815	0.23398	0.22623	0.06725	0.27827	0.12227	0.040393	0.077074	0.1221	0.01505	0.25689	0.13234	-3.1604	-2.6125	-2.825	-3.1646	-2.6875	-3.2958	-3.3792	-2.55	-3.3604	-2.8917	-2.8187	-3.3833	-2.5646	-3.2271	-3.3646	-2.7792	130.455	126.164	-25.629	-34.031	-32.360	56.376	3.007	161.634	-79.299	9.843	56.907	196.989	-111.727	-60.650	-131.315	-156.590	0.00031533	0.00019098	7.5659e-05	234.08	1.2889e-06	2.0797e-06	408.74	82.485	1.9975e-06	2.5037e-06	163.05	78.283	36.023	19.172	1.65e-06	43.298	0.0001654	0.00017096	4.5631e-05	235.9	1.701e-06	1.8577e-06	401.97	82.039	1.7076e-06	1.855e-06	158.5	75.482	35.612	18.579	1.7853e-06	41.18	-89.864	-49.280	-48.418	-146.270	-43.203	-0.081	-146.365	-140.509	-45.525	55.878	-142.163	-137.851	-136.579	-133.441	-12.424	-135.309	-8191	255	
7336.969	1	1	0	0	0.066164	0.16714	0.33024	0.1439	0.076779	0.24709	0.2923	0.089019	0.10553	0.13774	0.15916	0.13962	0.22145	0.27367	0.11158	0.10765	-3.35	-3.0167	-2.7729	-3.5167	-2.6292	-3.2042	-3.3542	-2.7396	-3.4458	-2.8917	-2.7062	-3.3583	-2.7229	-3	-3.3042	-2.7042	47.899	-30.001	179.018	-101.798	-43.856	-42.660	-152.797	171.780	11.716	72.848	168.902	145.814	38.202	-108.208	-45.077	-4.210	0.00040992	0.00030602	3.6892e-05	237.31	1.9593e-06	2.3707e-06	415.42	83.066	2.2057e-06	5.4236e-06	165.81	79.095	36.083	19.074	1.1537e-06	43.516	0.00016973	0.00017049	4.5633e-05	236.61	1.7794e-06	1.8742e-06	405.62	82.828	1.7809e-06	1.8516e-06	161.06	76.085	35.991	18.556	1.7493e-06	41.415	-88.865	-38.006	-119.887	-146.498	143.652	45.013	-146.254	-141.051	-100.269	161.945	-142.017	-138.020	-136.979	-133.088	39.607	-135.279	-8191	255	
7337.065	1	1	0	0	0.34124	0.053435	0.037087	0.16907	0.20553	0.16923	0.065352	0.16513	0.19941	0.17685	0.30431	0.11934	0.14237	0.22593	0.16549	0.22167	-3.0917	-3.0458	-2.55	-3.4083	-2.7875	-3.2729	-3.4229	-2.575	-3.3896	-3.1875	-2.7313	-3.7687	-2.9021	-2.9646	-3.4	-2.7833	160.145	-120.682	106.259	126.631	8.760	180.824	103.985	179.240	-133.630	179.621	27.861	121.039	26.171	196.600	-154.936	151.912	0.00033907	0.0005902	5.9052e-05	238.53	9.6251e-07	4.1357e-06	421.84	84.835	2.539e-06	3.5927e-06	169.89	80.122	36.28	19.101	3.1277e-06	43.731	0.00017429	0.00016749	4.3998e-05	238.81	1.8179e-06	1.778e-06	412.11	84.168	1.8261e-06	1.7976e-06	163.79	76.928	36.052	18.524	1.6998e-06	41.361	-97.195	-105.547	-45.597	-146.254	159.515	13.211	-146.397	-140.667	5.416	-157.729	-142.068	-138.004	-136.804	-133.204	-29.156	-135.070	-8191	255	
7337.161	1	1	0	0	0.095985	0.077767	0.11913	0.097314	0.16299	0.16829	0.25213	0.36326	0.056724	0.096058	0.16416	0.24465	0.36787	0.20556	0.065923	0.17066	-2.8937	-3.2458	-2.4271	-3.3146	-2.6562	-3.0812	-3.7	-2.6979	-3.1813	-3.4208	-2.8042	-3.4354	-2.7479	-2.9208	-3.4688	-2.7292	-38.413	-112.647	-125.754	-107.892	1.462	-156.597	-156.383	-59.693	124.119	-64.709	-55.713	-154.993	-139.843	-61.884	129.329	-123.261	0.00037075	0.00042556	6.2211e-05	236.51	2.2363e-06	1.3205e-06	414.22	82.726	1.0523e-06	2.9893e-06	163.27	77.133	35.315	18.577	3.0497e-06	42.493	0.0001743	0.00015619	4.1709e-05	236.5	1.7909e-06	1.7023e-06	403.81	82.087	1.7417e-06	1.6987e-06	157.09	74.423	35.261	18.157	1.6127e-06	40.533	-85.107	-41.232	-10.262	-145.978	42.133	-8.924	-146.404	-140.616	12.734	-33.826	-142.494	-137.826	-137.157	-133.301	13.327	-134.862	-8191	255	
7337.258	1	1	0	0	0.062072	0.086054	0.28989	0.18846	0.12973	0.17664	0.14556	0.108	0.079881	0.14892	0.055542	0.18221	0.12868	0.25387	0.090414	0.13655	-3.0333	-3.4042	-2.8167	-3.3083	-2.8917	-2.6604	-3.2375	-2.6354	-3.2625	-3.4562	-2.7896	-3.4396	-2.9896	-2.8063	-3.6021	-2.8563	198.189	192.647	142.309	-91.358	-9.112	200.075	9.207	114.753	153.844	93.521	-11.282	169.999	-104.047	168.037	94.604	-70.978	0.00031591	0.00051018	5.0832e-05	237.03	3.8223e-06	2.1512e-06	411.35	82.458	5.4607e-06	4.1665e-06	162.56	77.261	35.921	18.65	1.5739e-06	43.109	0.00016951	0.00015367	4.1488e-05	235.7	1.7716e-06	1.6667e-06	401.63	81.855	1.7768e-06	1.7118e-06	157.19	74.875	35.367	18.265	1.7007e-06	41.011	-87.775	-104.503	-83.136	-146.345	-41.299	67.245	-146.347	-140.725	-16.542	6.626	-142.503	-138.316	-137.645	-133.224	116.532	-135.381	-8191	255	
7337.354	1	1	0	0	0.15817	0.27547	0.37802	0.28032	0.21629	0.43145	0.14528	0.29107	0.095656	0.082029	0.10757	0.20408	0.094264	0.27403	0.25289	0.044855	-2.6104	-3.3937	-2.5583	-3.5458	-3.1896	-2.8833	-3.5312	-2.8896	-2.8187	-3.3792	-2.6813	-3.3	-3.1729	-2.5958	-3.5208	-3.0521	-74.247	-148.563	-60.338	22.509	101.526	33.778	169.911	-150.411	-56.898	-14.310	-64.102	-7.435	180.599	-89.556	178.833	23.009	0.00036582	0.00029693	2.4829e-05	238.43	1.6607e-06	1.1582e-06	416.96	83.601	1.0037e-06	4.6981e-06	166.54	79.523	36.085	18.892	3.3743e-07	43.687	0.00017397	0.00016184	4.3112e-05	239.59	1.8235e-06	1.7416e-06	408.73	83.619	1.822e-06	1.7781e-06	161.65	76.837	35.976	18.481	1.788e-06	41.496	-84.706	-2.208	0.142	-146.887	22.539	-87.695	-146.542	-140.266	-31.786	57.627	-142.106	-137.714	-137.377	-133.495	-96.273	-134.916	-8191	255	
7337.474	1	1	0	0	0.13532	0.29725	0.058867	0.13291	0.099812	0.058472	0.090461	0.094009	0.21972	0.18984	0.11643	0.13865	0.21614	0.17143	0.15747	0.19848	-2.625	-3.5667	-2.6813	-3.3979	-3.375	-2.5958	-3.5104	-3.1458	-2.8146	-3.6354	-2.9042	-3.4813	-3.4896	-2.7771	-3.7417	-3.1354	-14.482	-133.889	13.454	-29.967	-14.657	-147.629	43.058	136.078	19.175	175.038	-151.332	135.129	188.815	189.017	178.738	58.120	0.00032667	0.00019324	2.4259e-05	235.97	1.1946e-06	2.263e-06	412.51	81.939	1.869e-06	5.1086e-06	163.1	77.686	35.261	18.565	3.5277e-06	42.774	0.00017821	0.0001623	4.5822e-05	239.29	1.8095e-06	1.7417e-06	405.36	82.843	1.7749e-06	1.7235e-06	158.29	74.944	35.169	18.155	1.8342e-06	40.607	-84.135	164.501	173.885	-146.764	-28.064	-18.948	-146.643	-140.643	2.219	-22.966	-142.506	-137.674	-137.357	-133.207	51.634	-134.806	-8191	255	
7337.569	1	1	0	0	0.25002	0.086	0.19349	0.091039	0.16123	0.34539	0.21996	0.15931	0.19812	0.052733	0.063937	0.16903	0.15287	0.051814	0.063368	0.36158	-2.4313	-3.3875	-2.8333	-3.1188	-3.4833	-2.7812	-3.4896	-3.2875	-2.675	-3.4083	-2.8542	-3.2938	-3.4458	-2.6604	-3.35	-3.1229	22.318	97.726	83.157	23.871	51.831	-90.645	190.173	74.654	-55.342	122.331	-124.026	127.308	-10.018	49.845	152.629	-130.735	0.00040216	0.00051435	2.7542e-05	231.96	1.9901e-06	2.8532e-06	408.43	81.797	2.0653e-06	3.2431e-06	161.07	77.115	35.434	18.785	1.1156e-06	42.52	0.0001703	0.00015765	4.6798e-05	234.61	1.7737e-06	1.7006e-06	402.17	81.668	1.7814e-06	1.7326e-06	157.77	74.966	35.238	18.258	1.8994e-06	40.574	-80.533	-54.482	-35.767	-146.441	10.475	-9.233	-146.208	-140.952	55.834	-97.758	-142.085	-137.637	-137.023	-133.226	52.769	-135.155	-8191	255	
7337.642	1	1	0	0	0.36388	0.14229	0.27373	0.25036	0.089702	0.12125	0.11864	0.20379	0.084289	0.24959	0.15939	0.2196	0.13465	0.12592	0.23856	0.25643	-2.0458	-3.35	-2.7854	-3.0687	-3.4792	-2.8146	-3.4208	-3.3979	-2.6333	-3.4938	-2.8187	-3.1083	-3.4875	-2.8521	-3.4125	-3.4417	-121.929	65.145	7.168	-33.993	144.308	-157.822	17.519	182.575	-15.163	124.305	194.544	-131.079	40.946	-67.562	129.768	131.777	0.00033417	0.00012326	4.8804e-05	233.99	3.0146e-06	1.7363e-06	409.6	82.942	9.3982e-07	7.3952e-07	164.78	78.307	35.712	18.737	2.602e-06	42.885	0.00016725	0.00016021	4.9127e-05	236.38	1.7386e-06	1.793e-06	404.89	82.338	1.7916e-06	1.8262e-06	160.53	75.458	35.599	18.282	2.0363e-06	40.718	-93.097	-2.483	-100.283	-145.919	44.924	113.714	-146.113	-140.163	-108.046	-125.694	-142.001	-138.017	-136.923	-133.295	57.700	-134.934	-8191	255	
7337.738	1	1	0	0	0.34907	0.010081	0.14205	0.1382	0.26529	0.13686	0.049467	0.17864	0.08177	0.11315	0.24818	0.32743	0.11473	0.10496	0.095382	0.23865	-2.2208	-3.575	-2.8333	-2.7833	-3.3479	-2.6021	-3.2771	-3.1875	-2.7292	-3.6042	-3.1146	-2.9792	-3.4667	-2.7917	-3.2792	-3.3167	28.318	-60.891	179.023	80.731	-155.534	83.796	183.626	88.229	180.724	72.124	150.930	171.645	-156.541	125.508	57.468	86.337	0.00035135	0.00047962	0.00012271	236.21	1.4278e-06	1.2475e-06	412.15	83.615	4.4347e-06	2.2292e-06	164.51	77.78	35.486	18.523	2.74e-06	42.269	0.00017514	0.00017793	5.2419e-05	238.5	1.8881e-06	2.0264e-06	407.33	83.143	1.9317e-06	2.0302e-06	160.87	75.195	35.511	18.164	2.0607e-06	40.31	-80.851	-85.880	-10.765	-145.474	-31.819	162.694	-146.551	-140.572	11.603	16.433	-141.366	-137.502	-136.860	-132.777	83.969	-135.046	-8191	255	
7337.857	1	1	0	0	0.17721	0.10056	0.16024	0.054713	0.0038933	0.067038	0.13179	0.18422	0.10304	0.18887	0.022809	0.2546	0.14679	0.34585	0.10396	0.25787	-2.3146	-3.3542	-2.9104	-2.7792	-3.5687	-2.8312	-3.1583	-3.5333	-2.6417	-3.5167	-3.2333	-2.6875	-3.5083	-3	-2.8792	-3.5687	-45.655	162.852	107.433	61.065	-58.911	64.990	-118.432	155.518	16.366	50.263	-47.167	-97.461	-123.056	94.106	192.768	172.157	0.00033929	0.00010154	6.7299e-05	232.21	3.0353e-06	2.2192e-06	403.58	80.894	2.0169e-06	5.8736e-07	157.09	75.269	34.352	18.236	4.4529e-06	41.247	0.00017853	0.00019008	5.2309e-05	235.52	1.8909e-06	2.0907e-06	396.87	80.912	1.9245e-06	2.1223e-06	154.55	73.107	34.735	17.954	2.0521e-06	39.361	-84.992	101.294	-51.225	-146.242	1.494	-6.657	-146.172	-140.278	32.664	7.891	-142.295	-137.780	-136.915	-133.089	4.420	-135.012	-8191	255	
7337.953	1	1	0	0	0.2294	0.082025	0.098126	0.12937	0.11662	0.056513	0.056015	0.10632	0.15515	0.28936	0.11909	0.066498	0.23015	0.10605	0.13575	0.26326	-2.2396	-3.1625	-3.2229	-2.6333	-3.375	-2.9167	-3.0479	-3.6	-2.7062	-3.2979	-3.3646	-2.6833	-3.5854	-2.9938	-2.9083	-3.5875	-156.477	-14.143	183.813	-118.527	-12.435	75.653	197.000	-21.059	99.072	-94.110	-31.347	108.360	-123.097	-68.946	-49.555	174.970	0.00033569	0.0005984	0.0001132	228.12	1.2209e-06	5.9047e-07	398.61	79.457	2.8795e-06	6.4614e-06	156.56	73.368	34.54	18.163	3.5139e-06	41.01	0.00018274	0.00019189	5.1087e-05	232.18	1.9327e-06	2.0807e-06	392.16	79.666	1.9276e-06	2.0434e-06	153.09	71.768	34.437	17.893	1.9454e-06	39.307	-92.407	3.727	-49.340	-145.784	25.635	-10.695	-146.431	-140.436	25.759	27.441	-142.139	-137.649	-137.122	-133.446	79.112	-134.936	-8191	255	
7338.050	1	1	0	0	0.23763	0.045725	0.043297	0.029169	0.33175	0.054852	0.14257	0.10019	0.16985	0.19606	0.21541	0.025324	0.074587	0.24068	0.19765	0.11186	-2.2521	-3.0146	-3.4062	-2.6917	-3.5479	-3.175	-3.0229	-3.5458	-2.7708	-3.2917	-3.6104	-2.6833	-3.5021	-3.175	-2.625	-3.5438	185.923	175.368	-138.065	36.537	-111.482	-16.296	51.757	191.419	8.476	-55.146	126.808	124.145	-125.632	103.155	173.411	109.476	0.0003671	0.00030865	7.7745e-05	227.02	7.2108e-07	1.1524e-06	399.33	79.673	3.0781e-06	4.3261e-06	156.39	74.642	34.168	18.092	2.2478e-06	41.645	0.00018746	0.00018694	4.9472e-05	230.88	1.9626e-06	2.0466e-06	392.95	79.998	2.0004e-06	2.0171e-06	153.28	72.339	34.324	17.816	1.9007e-06	39.623	-94.731	5.654	-17.029	-146.247	76.903	-70.737	-146.227	-140.263	-44.961	3.200	-142.173	-137.892	-137.115	-132.951	34.174	-135.317	-8191	255	
7338.146	1	1	0	0	0.075078	0.33394	0.13615	0.16157	0.087627	0.079289	0.13598	0.10328	0.19004	0.22567	0.2676	0.12817	0.34826	0.19868	0.27272	0.04893	-2.3417	-2.9333	-3.3583	-2.5854	-3.325	-3.1083	-2.7042	-3.5479	-2.8708	-2.8229	-3.375	-2.6979	-3.4271	-3.3542	-2.7104	-3.575	-111.072	-17.215	-28.551	49.545	145.163	84.649	-137.889	100.151	69.540	-88.246	100.791	32.414	72.786	124.118	73.425	168.675	0.00029586	0.00032768	0.00010004	226.41	5.3792e-06	3.3617e-07	395.18	78.994	3.9487e-06	3.6596e-06	154.22	73.869	34.011	18.178	1.0956e-06	41.356	0.00018918	0.00017776	4.6997e-05	229.94	1.9601e-06	1.9088e-06	389.35	78.847	1.9957e-06	1.9172e-06	150.59	71.278	34.047	17.682	1.8398e-06	39.25	-104.923	-0.089	-0.756	-146.246	8.282	-143.142	-146.473	-140.464	-47.540	-41.788	-141.904	-137.890	-136.612	-133.170	7.704	-135.111	-8191	255	
7338.242	1	1	0	0	0.11451	0.18035	0.13699	0.1373	0.02148	0.37046	0.13867	0.093228	0.1973	0.27313	0.14998	0.11349	0.028942	0.079402	0.033349	0.21641	-2.575	-3.0062	-3.6417	-2.6729	-3.375	-3.3896	-2.7313	-3.4625	-2.9042	-3.0958	-3.5667	-2.6417	-2.8875	-3.2271	-2.5146	-3.4979	-94.729	73.018	69.719	150.341	124.284	11.568	66.638	-128.770	197.004	-24.352	4.269	-106.661	40.172	159.078	-136.941	-82.576	0.00030689	0.00012232	5.0832e-05	224.34	2.3024e-06	1.7977e-06	389.8	78.221	1.0953e-06	1.799e-06	152.54	72.53	33.105	17.865	1.6055e-06	40.814	0.00018753	0.00016933	4.651e-05	228.79	1.9112e-06	1.837e-06	382.68	78.153	1.9057e-06	1.7892e-06	147.67	70.153	33.269	17.419	1.7377e-06	38.939	-88.718	-21.306	-59.766	-146.103	7.948	113.727	-146.250	-140.682	117.215	-2.152	-141.751	-137.808	-136.906	-133.355	-49.646	-134.850	-8191	255	
7338.338	1	1	0	0	0.10958	0.092258	0.21217	0.14819	0.13534	0.0069588	0.3925	0.10953	0.024755	0.16258	0.022936	0.30355	0.15346	0.18956	0.16078	0.25041	-2.85	-2.6771	-3.4875	-2.9604	-3.2042	-3.4375	-2.9146	-3.4125	-3.2	-2.925	-3.6521	-2.7375	-3.1437	-3.7125	-2.8063	-3.5875	-135.488	136.776	-39.120	-144.339	-26.281	-120.759	-76.715	89.723	-128.988	115.134	37.595	136.577	-124.582	-70.266	32.304	153.052	0.00035193	0.00015211	8.2271e-05	224.97	1.424e-06	3.085e-06	393.86	78.758	3.1742e-06	2.311e-06	154.8	73.446	33.895	18.013	3.8734e-06	41.567	0.00018238	0.0001668	4.4482e-05	230.01	1.9332e-06	1.8346e-06	386.72	79.183	1.9363e-06	1.876e-06	151.1	71.573	34.034	17.692	1.8589e-06	39.713	-92.335	61.714	-110.745	-146.832	11.551	-39.738	-146.511	-140.570	13.313	161.385	-141.532	-137.296	-136.647	-132.755	111.938	-134.797	-8191	255	
7338.459	1	1	0	0	0.088448	0.2019	0.10018	0.2419	0.034176	0.20558	0.089553	0.029535	0.1112	0.19709	0.15245	0.27816	0.11896	0.10298	0.12369	0.20525	-2.8729	-2.7083	-3.5104	-2.7625	-2.9292	-3.3542	-2.5833	-3.2396	-3.1625	-2.7583	-3.2875	-2.7896	-2.6937	-3.4542	-2.5479	-3.2667	-44.498	-104.143	58.100	95.563	-146.883	78.372	159.675	104.960	-121.792	-94.195	2.802	5.443	-120.879	-26.058	185.080	-125.133	0.00032727	0.00038381	5.6372e-05	229.77	3.5585e-06	3.0909e-06	399.8	79.691	2.235e-06	4.0267e-06	155.97	73.804	33.679	18.085	4.4235e-06	41.78	0.00018299	0.00016742	4.6919e-05	233.43	1.9387e-06	1.8404e-06	390.6	80.018	1.8956e-06	1.8399e-06	152.53	72.028	33.776	17.687	1.8606e-06	39.894	-98.457	2.216	-30.352	-145.573	82.361	78.634	-146.384	-140.228	132.435	105.776	-141.547	-137.621	-136.915	-132.678	-34.699	-134.430	-8191	255	
7338.555	1	1	0	0	0.02505	0.1611	0.078271	0.1856	0.31454	0.16181	0.24333	0.18134	0.057665	0.046814	0.081985	0.31748	0.041954	0.1437	0.31781	0.26676	-2.7771	-2.6708	-3.5458	-2.9062	-2.875	-3.5771	-2.8125	-3.1688	-3.3083	-2.6104	-3.5146	-2.8458	-2.6521	-3.6125	-2.7021	-2.8521	-36.091	-5.482	64.442	8.483	128.376	-128.732	51.046	-110.409	105.516	70.406	-97.178	135.504	-129.476	-139.070	115.187	171.981	0.00037708	0.0003717	6.3263e-05	227.25	3.7865e-06	3.9376e-06	387.48	77.063	2.2706e-06	1.0241e-06	150.33	70.987	33.09	17.54	2.57e-06	40.007	0.00017741	0.00016504	4.7917e-05	230.62	1.8549e-06	1.8031e-06	383.26	78.13	1.854e-06	1.7944e-06	147.46	69.389	32.934	17.129	1.9638e-06	38.269	-94.681	-122.907	97.603	-146.488	-32.020	-42.154	-146.106	-140.806	-50.265	139.506	-142.023	-137.805	-136.907	-133.310	12.517	-135.211	-8191	255	
7338.649	1	1	0	0	0.12005	0.046163	0.15027	0.24402	0.28478	0.1357	0.056149	0.058946	0.19899	0.083996	0.065063	0.24534	0.1946	0.091971	0.30568	0.066613	-2.7521	-2.5229	-3.2792	-3.0563	-2.7229	-3.4896	-2.9417	-3.1375	-3.4437	-2.7292	-3.4458	-3.1646	-2.875	-3.625	-2.8833	-3.2083	-57.432	-158.236	153.295	18.949	-64.302	-149.522	71.075	148.405	160.574	135.230	-88.941	183.753	168.569	-122.655	-30.592	181.542	0.00036431	0.00022572	8.2667e-05	224.4	2.6578e-06	3.9155e-06	387.13	77.049	2.2084e-06	1.8757e-06	150.4	71.497	32.584	17.55	5.4782e-06	40.252	0.00017688	0.0001623	5.0843e-05	227.9	1.8679e-06	1.8081e-06	380.04	77.647	1.8297e-06	1.8174e-06	147.74	69.166	32.708	17.07	2.0043e-06	38.518	-87.170	-82.256	-98.101	-146.216	73.089	-151.105	-146.742	-140.521	-37.794	137.493	-141.870	-138.129	-136.692	-133.176	15.969	-134.959	-8191	255	
7338.745	1	1	0	0	0.073224	0.167	0.16947	0.25229	0.33625	0.24834	0.17658	0.1531	0.13177	0.18789	0.053897	0.10611	0.087939	0.05577	0.11402	0.0768	-2.9146	-2.5729	-3.2562	-2.8646	-2.6	-3.4854	-2.7812	-2.8854	-3.5792	-2.8063	-3.3375	-3.4125	-2.5625	-3.6354	-3.2021	-2.8417	42.988	159.133	200.715	26.073	-116.313	-85.000	112.041	102.387	145.620	-106.609	-22.264	84.261	-117.537	188.955	83.932	-133.834	0.00032507	5.8279e-05	7.8922e-05	226.26	2.4232e-06	2.7032e-06	391	77.629	1.1413e-06	4.463e-07	151.91	72.312	32.684	17.62	4.1218e-06	40.917	0.00017437	0.00016752	5.0961e-05	230.22	1.8337e-06	1.8753e-06	386.98	78.119	1.8088e-06	1.905e-06	149.85	70.049	32.771	17.245	2.0238e-06	39.086	-87.001	-65.407	-29.409	-146.019	15.845	-112.931	-146.609	-140.848	-41.496	46.083	-142.200	-137.727	-136.873	-133.120	74.163	-134.925	-8191	255	
7338.866	1	1	0	0	0.17793	0.22776	0.15457	0.19231	0.21231	0.18514	0.18358	0.12876	0.2045	0.12274	0.14466	0.076338	0.12337	0.083843	0.18752	0.13855	-3.25	-2.6729	-2.9792	-3.3146	-2.4813	-3.0375	-3.1333	-2.6479	-3.5271	-2.7729	-3.1125	-3.4729	-2.7313	-3.4062	-3.0458	-2.9062	69.572	-69.496	49.077	-17.980	128.697	153.519	96.338	-119.250	55.777	180.123	-70.024	115.617	21.563	149.193	201.367	-92.624	0.00033422	7.9748e-05	5.8411e-05	226.61	1.9128e-06	3.5225e-06	394.3	78.102	1.8445e-06	3.1435e-06	152.91	72.266	32.664	17.572	4.3532e-06	40.528	0.00017576	0.00017791	5.0813e-05	230.61	1.8172e-06	1.9644e-06	387.51	78.154	1.8097e-06	1.9429e-06	149.32	69.82	32.651	17.224	1.9256e-06	38.771	-93.495	172.849	89.678	-146.291	20.780	-25.285	-146.163	-140.631	-31.688	-157.502	-142.000	-137.862	-136.558	-132.954	35.028	-134.629	-8191	255	
7338.938	1	1	0	0	0.098181	0.073157	0.019561	0.065216	0.086326	0.085802	0.13521	0.12416	0.044675	0.11623	0.073752	0.089761	0.25026	0.32671	0.10488	0.10611	-3.3063	-2.7271	-2.9792	-3.45	-2.5729	-3.4146	-3.1521	-2.5583	-3.4604	-3.0729	-3.2	-3.5854	-2.7583	-3.3812	-3.2604	-2.9292	91.699	-145.702	118.570	-92.699	106.381	103.497	178.820	186.936	-133.218	-7.376	-58.814	89.582	-150.225	186.679	-107.018	-104.201	0.0003419	0.00041292	6.1927e-05	226.57	2.5056e-06	6.9609e-07	388.17	76.987	4.7633e-07	6.7559e-07	150.99	71.462	32.653	17.404	4.0962e-06	40.256	0.00017047	0.00017842	4.7979e-05	228.49	1.8028e-06	1.9844e-06	383.1	77.381	1.8258e-06	1.9807e-06	147.82	69.127	32.734	17.142	1.9206e-06	38.606	-77.358	-104.938	-54.585	-146.499	112.354	119.515	-146.506	-140.587	-132.166	52.743	-142.017	-137.875	-137.179	-133.183	13.041	-135.109	-8191	255	
7339.034	1	1	0	0	0.19229	0.0965	0.20519	0.17374	0.13078	0.28028	0.18911	0.1342	0.2739	0.19805	0.19043	0.20446	0.098848	0.08998	0.22814	0.24783	-3.0833	-2.775	-2.8083	-3.3229	-2.6188	-3.1896	-3.4458	-2.6813	-3.5292	-3.175	-2.8396	-3.7146	-2.8896	-3.1792	-3.3979	-2.7667	-48.945	20.260	142.620	86.890	-82.951	-80.038	87.821	172.133	77.796	-46.383	185.011	-123.044	71.075	-65.086	17.268	98.819	0.0003055	0.00016508	8.7728e-05	228.35	1.0755e-06	1.8386e-06	392.37	77.674	3.0699e-06	3.856e-06	152.97	71.778	32.964	17.559	4.674e-06	40.928	0.00017765	0.00018024	4.7235e-05	228.78	1.8839e-06	2.0012e-06	385.47	77.886	1.9252e-06	1.9985e-06	149.68	70.074	33.038	17.295	1.9069e-06	38.924	-82.644	191.256	-104.294	-145.671	132.926	164.469	-146.408	-139.925	21.239	-40.063	-142.093	-137.506	-136.904	-132.901	15.461	-134.659	-8191	255	
7339.154	1	1	0	0	0.20708	0.14572	0.06535	0.14393	0.055403	0.14576	0.25854	0.11362	0.26266	0.10283	0.10377	0.03653	0.12863	0.18861	0.060913	0.1718	-2.9646	-2.9125	-2.7792	-3.5667	-2.6688	-3.0187	-3.4625	-2.7562	-3.3688	-3.1375	-2.9083	-3.5604	-2.6771	-3.0458	-3.4729	-2.7146	-155.362	-21.698	59.846	93.487	141.828	-156.830	73.241	38.601	-138.205	7.057	-91.822	104.883	-14.823	-89.783	27.378	173.356	0.00035869	0.000324	8.5378e-05	229.07	2.3758e-06	4.5956e-07	399.13	79.253	2.9739e-06	4.4372e-06	155.38	72.767	32.869	17.784	1.5564e-06	40.96	0.00018779	0.00018388	4.8061e-05	230.91	2.0109e-06	1.9707e-06	391.58	79.026	1.9779e-06	1.9814e-06	151.36	70.729	33.303	17.366	1.8941e-06	39.064	-98.046	-47.008	-23.172	-146.249	16.570	170.277	-146.499	-140.322	-10.357	-15.676	-141.274	-137.859	-136.736	-132.685	26.035	-134.924	-8191	255	
7339.251	1	1	0	0	0.29441	0.15958	0.19858	0.37653	0.1122	0.08646	0.17147	0.14042	0.22025	0.29036	0.12373	0.12405	0.39118	0.040972	0.2844	0.032284	-2.8146	-3.0333	-2.6417	-3.5021	-2.825	-2.8792	-3.5146	-2.7229	-3.4979	-3.3625	-2.8354	-3.525	-2.7542	-2.8583	-3.4625	-2.8396	135.773	94.490	122.170	105.707	-10.216	-57.047	103.094	170.904	-125.227	108.627	-68.990	110.253	172.212	-83.945	109.838	-29.056	0.00033924	6.5589e-05	7.6729e-05	227.33	1.434e-06	1.1366e-06	393.17	77.834	2.3129e-06	1.4742e-06	152.32	72.42	33.376	17.532	1.3946e-06	40.473	0.00018915	0.00017311	4.6863e-05	229.41	1.9834e-06	1.8855e-06	385.84	78.028	1.9877e-06	1.8841e-06	148.74	70.253	33.51	17.228	1.8418e-06	38.799	-76.462	-17.751	11.415	-146.664	146.297	-118.944	-146.781	-140.565	-2.226	-2.372	-141.633	-137.827	-136.839	-132.933	125.553	-134.762	-8191	255	
7339.347	1	1	0	0	0.15483	0.16619	0.040724	0.18075	0.14788	0.090593	0.1343	0.069145	0.0654	0.12007	0.096212	0.16476	0.14758	0.15237	0.26741	0.088036	-2.9771	-3.1958	-2.5375	-3.4229	-3.0792	-2.6854	-3.65	-2.7708	-3.3521	-3.5396	-2.8438	-3.3479	-3.0167	-2.8438	-3.5042	-2.7958	-19.765	89.210	147.339	180.909	151.933	74.247	143.671	170.173	107.515	-10.673	-45.751	67.825	83.409	-28.055	-93.252	70.805	0.00033402	0.00026542	8.7297e-05	225.65	5.6937e-06	7.7494e-07	394.45	78.068	5.7383e-07	4.2913e-06	153.89	72.71	33.33	17.672	4.3711e-07	40.991	0.0001896	0.0001722	4.6038e-05	228.57	1.9708e-06	1.8751e-06	386.37	78.365	1.9653e-06	1.8914e-06	150.19	70.856	33.393	17.319	1.8247e-06	39.132	-86.659	28.842	-135.303	-145.886	-32.338	-38.959	-146.540	-140.676	58.574	-45.958	-142.095	-137.815	-137.213	-133.033	4.847	-135.257	-8191	255	
7339.443	1	1	0	0	0.11291	0.12246	0.10716	0.16986	0.062968	0.12107	0.036628	0.21926	0.059168	0.080151	0.179	0.1745	0.18013	0.21456	0.27976	0.19044	-2.5417	-3.1708	-2.4521	-3.3312	-3.0792	-2.7313	-3.2792	-2.6	-2.9625	-3.3937	-2.5521	-3.1854	-3.1625	-2.5167	-3.4979	-2.9354	-117.853	115.278	-41.796	-93.561	-151.221	19.782	-119.241	-89.344	24.234	76.194	80.576	-134.906	-108.430	33.642	-16.359	29.829	0.00032148	0.00024581	4.3008e-05	228.89	1.3924e-06	1.8742e-06	395.33	78.644	4.7807e-06	5.2682e-06	156.78	73.86	33.413	17.758	3.4422e-06	41.497	0.00018613	0.00016912	4.7212e-05	232.66	1.9901e-06	1.8948e-06	390.21	79.488	2.0086e-06	1.9023e-06	153.04	71.993	33.703	17.428	1.8886e-06	39.726	-80.794	-9.213	-26.826	-146.671	6.372	26.553	-146.159	-140.738	18.556	-2.562	-141.812	-137.943	-136.651	-132.930	3.433	-135.059	-8191	255	
7339.537	1	1	0	0	0.17381	0.075049	0.196	0.16272	0.19241	0.13836	0.11392	0.057972	0.067619	0.3015	0.19168	0.11935	0.03456	0.19096	0.080813	0.030944	-2.6021	-3.4437	-2.6271	-3.3396	-3.2938	-2.8604	-3.4938	-3	-2.8771	-3.4354	-2.7188	-3.1375	-3.1521	-2.6104	-3.3375	-3.2083	35.023	102.814	191.254	140.905	150.316	68.064	-58.186	193.521	-63.400	-151.981	-30.402	144.978	6.120	154.633	112.064	69.407	0.00034905	0.00042753	3.3824e-05	227.85	1.2623e-06	3.4709e-06	395.92	78.824	1.0802e-06	1.4517e-06	156.15	72.969	33.055	17.622	1.931e-06	40.954	0.00018637	0.00017197	4.8339e-05	232.59	1.9505e-06	1.8614e-06	391.02	79.662	1.9431e-06	1.8799e-06	152.39	71.491	33.348	17.303	1.968e-06	39.108	-86.762	-109.803	175.096	-145.965	61.836	56.022	-145.620	-140.691	38.976	62.020	-141.858	-137.471	-137.254	-133.346	-77.372	-134.999	-8191	255	
7339.633	1	1	0	0	0.12178	0.13108	0.26918	0.036684	0.10587	0.086899	0.18772	0.13599	0.034681	0.16998	0.15235	0.020648	0.027311	0.11397	0.2176	0.096085	-2.5021	-3.3896	-2.775	-3.1625	-3.3833	-2.7479	-3.5021	-3.1833	-2.875	-3.5042	-2.7458	-3.0812	-3.2146	-2.7042	-3.5812	-3.3042	-68.650	61.258	-111.806	128.014	166.224	-41.622	183.632	-47.475	35.130	81.184	170.801	-58.047	165.019	41.368	-88.795	-152.086	0.00032969	0.00022428	6.0209e-05	226.13	3.3719e-07	2.3776e-06	391.71	78.327	5.8203e-07	1.6404e-06	154.86	73.391	33.243	17.84	5.1358e-06	41.263	0.00018098	0.00016559	5.0072e-05	229.66	1.8998e-06	1.8112e-06	386.87	78.875	1.8894e-06	1.8148e-06	152.25	71.374	33.459	17.434	2.0605e-06	39.398	-89.561	-157.882	-83.722	-145.704	28.380	35.622	-146.188	-140.422	-6.008	125.116	-142.553	-137.827	-137.683	-132.820	-25.428	-135.165	-8191	255	
7339.730	1	1	0	0	0.40971	0.17209	0.089582	0.14897	0.075675	0.11157	0.12646	0.24648	0.09649	0.14943	0.13805	0.1336	0.24303	0.16967	0.36633	0.1894	-2.4125	-3.5104	-2.8292	-3.1583	-3.5792	-2.8042	-3.45	-3.2708	-2.5896	-3.3042	-2.9375	-2.8729	-3.6208	-2.7313	-3.1958	-3.3042	-71.904	-40.516	105.478	-101.551	-18.299	-46.867	131.990	91.575	14.681	-124.068	154.284	175.426	90.589	-115.367	-85.783	179.877	0.00037765	0.00018955	1.9937e-05	226.72	1.8046e-06	2.0297e-06	398.45	78.786	5.2078e-06	5.3479e-06	157.29	74.175	33.959	17.984	1.4819e-06	41.776	0.00017992	0.00016802	5.1639e-05	230.63	1.8488e-06	1.8731e-06	392.45	79.264	1.8595e-06	1.866e-06	153.86	71.927	33.773	17.548	2.0377e-06	39.92	-86.999	-100.665	20.414	-146.356	-44.609	-108.774	-145.730	-140.364	8.953	-54.763	-141.799	-137.677	-136.622	-133.446	18.315	-134.957	-8191	255	
7339.827	1	1	0	0	0.22326	0.06608	0.079708	0.088875	0.12626	0.23128	0.089868	0.22836	0.072049	0.18697	0.18791	0.090399	0.18565	0.15851	0.12343	0.14485	-2.1771	-3.3979	-2.7687	-2.9208	-3.6437	-2.8063	-3.2833	-3.4896	-2.6875	-3.4208	-2.7854	-2.8688	-3.5438	-2.9437	-3.4271	-3.3292	12.696	111.904	80.572	-47.748	-20.549	84.820	6.774	-72.395	2.372	133.339	90.553	-32.542	-112.144	91.122	144.595	168.944	0.00040337	2.7728e-05	0.00012702	228.56	2.4413e-06	3.2814e-06	403.14	79.961	2.5035e-06	1.1398e-06	158.21	74.195	33.713	17.935	4.4113e-06	41.859	0.00017857	0.00017605	5.2555e-05	232.56	1.8579e-06	1.8929e-06	396.16	80.2	1.8008e-06	1.9427e-06	155.18	72.322	33.602	17.562	2.0009e-06	39.686	-83.646	46.594	-67.523	-146.050	50.430	-66.014	-145.945	-140.364	-48.801	176.525	-141.905	-137.620	-137.229	-132.571	37.168	-134.864	-8191	255	
7339.946	1	1	0	0	0.18787	0.12127	0.14267	0.11162	0.03239	0.077673	0.14902	0.21776	0.13622	0.025429	0.19957	0.25928	0.08386	0.13022	0.11373	0.14581	-2.3375	-3.5771	-2.9708	-2.6958	-3.6083	-2.7229	-3.0292	-3.4458	-2.6729	-3.4083	-3.3167	-3.0021	-3.6229	-2.8875	-3.0271	-3.5604	36.101	-32.540	157.931	-42.650	77.220	68.104	84.983	67.537	59.925	11.212	114.655	121.411	163.689	-56.623	-95.806	181.697	0.00031492	0.00074446	6.1436e-05	227.06	2.0304e-06	2.4863e-06	397.29	78.027	1.9164e-06	2.5923e-06	154.26	73.229	33.087	17.512	1.0558e-06	41.513	0.00017576	0.00018067	5.1744e-05	230.85	1.8443e-06	1.9915e-06	390.56	78.558	1.8298e-06	2.0354e-06	151.3	71.189	33.257	17.334	1.9865e-06	39.316	-81.452	-88.048	-12.042	-145.995	89.331	-55.687	-146.380	-140.809	128.875	-39.996	-141.740	-137.641	-136.695	-133.177	119.536	-135.059	-8191	255	
7340.042	1	1	0	0	0.30895	0.087742	0.080067	0.21974	0.037083	0.14432	0.10642	0.094457	0.15507	0.14541	0.17363	0.37579	0.087762	0.16887	0.18494	0.086977	-2.1146	-3.25	-3.1896	-2.8583	-3.7583	-3.1562	-3.0375	-3.5646	-2.7667	-3.3667	-3.3917	-2.7062	-3.5729	-2.9062	-2.8229	-3.55	-112.137	-46.592	-94.165	122.015	-2.342	122.033	187.261	41.170	-49.985	136.503	74.487	114.035	-145.362	-152.510	-74.242	142.275	0.00032997	0.00019517	3.0538e-05	225.55	2.4097e-06	2.9513e-06	395.47	77.268	1.7982e-06	5.5119e-06	155.17	73.488	33.114	17.819	4.5019e-06	41.705	0.00017626	0.0001871	4.9923e-05	227.34	1.8666e-06	2.0356e-06	387.09	78.067	1.9107e-06	2.0354e-06	151.69	71.206	33.278	17.409	1.8988e-06	39.676	-78.069	-111.887	54.275	-146.434	-70.341	145.225	-146.252	-140.461	-15.546	88.006	-141.840	-138.069	-136.651	-133.185	-35.344	-135.059	-8191	255	
7340.139	1	1	0	0	0.044337	0.18427	0.13471	0.070632	0.19538	0.15457	0.042549	0.21465	0.19331	0.25778	0.079181	0.024493	0.1057	0.31099	0.17718	0.021455	-2.175	-3.0812	-3.3604	-2.5938	-3.3688	-2.9667	-2.6188	-3.5354	-2.9	-3.125	-3.3958	-2.6479	-3.3	-3.0625	-2.6792	-3.4688	-104.984	-146.409	104.524	120.682	102.094	18.086	-142.214	-137.800	13.338	-59.439	22.251	152.972	116.868	50.535	150.513	1.284	0.0003651	0.00034656	5.7673e-05	224.53	3.6735e-06	3.096e-06	398.38	78.631	2.8712e-06	4.1121e-06	157.31	73.819	33.23	17.808	4.783e-06	42.294	0.00018076	0.00018279	4.7953e-05	228.36	1.881e-06	1.9748e-06	391.35	78.88	1.891e-06	1.9366e-06	152.89	71.661	33.417	17.501	1.8362e-06	40.236	-89.080	-43.131	-104.353	-145.948	-24.289	-10.930	-145.803	-140.143	-33.684	-134.734	-142.417	-137.478	-136.686	-133.001	56.593	-135.009	-8191	255	
7340.235	1	1	0	0	0.069855	0.15283	0.080499	0.068453	0.27995	0.13929	0.16364	0.17438	0.15727	0.057696	0.27905	0.026286	0.24513	0.28932	0.15811	0.20227	-2.1583	-2.8979	-3.1521	-2.6312	-3.4604	-3.2687	-2.8521	-3.5375	-2.7771	-2.9729	-3.4229	-2.6667	-3.3063	-3.3271	-2.6813	-3.6813	-63.502	93.250	87.603	29.655	33.057	77.652	145.541	180.491	-5.249	142.745	-112.699	73.664	-59.148	169.501	45.465	135.812	0.0003253	0.00033319	3.5383e-05	229.93	4.1245e-06	1.3438e-06	402.38	79.523	1.0914e-06	3.635e-06	159.15	74.09	33.513	17.863	3.9297e-06	41.83	0.00018474	0.0001757	4.6453e-05	231.26	1.9606e-06	1.9063e-06	394.19	79.127	1.9402e-06	1.9063e-06	153.69	72.03	33.596	17.509	1.8309e-06	40.05	-91.185	-75.022	-82.842	-146.562	97.845	-8.423	-146.169	-140.659	37.525	60.669	-142.040	-137.492	-136.930	-133.312	-38.803	-135.024	-8191	255	
7340.331	1	1	0	0	0.15952	0.26968	0.10125	0.14979	0.043299	0.16751	0.15103	0.091609	0.32132	0.16498	0.15577	0.15743	0.20129	0.3322	0.092774	0.07586	-2.5792	-2.8125	-3.2708	-2.6896	-3.2812	-3.2958	-2.8187	-3.4604	-2.9146	-2.825	-3.625	-2.7896	-3.1417	-3.3854	-2.4688	-3.4479	192.843	0.924	52.589	113.900	138.287	-7.010	145.804	-26.654	-14.357	108.790	-144.492	201.233	65.787	-30.019	-2.315	-125.001	0.0003936	0.00051299	1.0154e-05	227.79	1.1744e-06	1.0494e-06	397.21	78.347	1.0518e-06	2.9019e-06	155.52	73.698	33.333	17.791	2.2178e-06	41.859	0.00018958	0.00017075	4.6181e-05	229.54	1.9859e-06	1.8965e-06	387.7	78.397	1.9995e-06	1.9e-06	151.16	71.504	33.542	17.415	1.8336e-06	40.06	-87.135	-105.245	157.370	-146.287	52.552	84.078	-146.306	-139.920	-23.049	127.541	-141.767	-137.781	-136.436	-132.992	63.437	-134.887	-8191	255	
7340.427	1	1	0	0	0.099485	0.17462	0.20982	0.011779	0.20046	0.092606	0.088234	0.23529	0.11384	0.11317	0.078356	0.24224	0.19746	0.091606	0.036775	0.21606	-2.6312	-2.9	-3.5792	-2.8125	-2.9917	-3.4792	-2.8688	-3.4521	-3.1771	-2.5958	-3.5271	-2.7875	-2.9396	-3.5021	-2.6583	-3.5208	64.813	-112.302	-137.125	-14.308	-50.781	94.700	166.962	141.529	-37.554	11.027	46.743	188.521	-87.510	-64.581	107.593	-51.780	0.00026295	0.00022544	6.8252e-05	227.35	2.6521e-06	2.2862e-06	397.13	78.455	5.0442e-07	1.9506e-06	158.31	73.771	33.057	17.884	2.2315e-06	41.911	0.00018927	0.00017094	4.6686e-05	231.48	1.9767e-06	1.9031e-06	390.7	79.166	1.9906e-06	1.8945e-06	153.65	72.098	33.521	17.522	1.8379e-06	40.371	-90.662	29.606	-49.108	-146.265	-96.907	139.310	-146.291	-140.862	19.440	58.767	-142.200	-137.767	-136.731	-132.904	-22.669	-135.011	-8191	255	
7340.548	1	1	0	0	0.098263	0.36861	0.43928	0.20214	0.25052	0.21146	0.13606	0.12225	0.11158	0.18887	0.13224	0.18544	0.17602	0.15839	0.22949	0.15634	-2.9396	-2.7854	-3.5708	-2.6958	-2.8521	-3.4521	-2.5771	-3.4771	-3.3708	-2.7458	-3.5458	-3	-2.9	-3.5146	-2.5354	-3.4771	-47.268	95.135	-92.251	-15.382	-35.738	50.396	-67.257	119.050	27.745	-103.891	-107.611	-156.536	-142.787	55.381	-73.903	-146.056	0.00035248	0.00019225	4.2634e-05	229.8	2.5193e-06	2.6369e-06	399.78	78.988	1.2113e-06	2.7539e-06	157.87	74.76	33.054	17.9	3.4735e-06	42.149	0.00018683	0.00017385	4.7548e-05	233.7	1.9523e-06	1.8693e-06	394.63	79.667	1.9484e-06	1.8509e-06	153.88	72.56	33.336	17.481	1.8938e-06	40.373	-85.141	-24.627	-158.051	-145.822	51.897	-76.722	-146.444	-140.742	-110.269	20.986	-141.499	-137.547	-136.686	-133.079	33.096	-134.552	-8191	255	
7340.642	1	1	0	0	0.10109	0.070176	0.17407	0.18527	0.16681	0.18251	0.15793	0.2312	0.038769	0.054489	0.11863	0.26029	0.27857	0.11336	0.031666	0.27315	-2.9062	-2.6083	-3.4229	-2.9938	-2.9396	-3.7083	-2.8	-3.2042	-3.4146	-2.7917	-3.7125	-3.0979	-2.8354	-3.5875	-2.5875	-2.9604	115.195	-76.217	-120.874	175.668	-116.270	97.499	128.815	196.305	90.011	-147.010	-17.480	137.545	-126.751	121.732	-4.232	149.645	0.00032139	0.00033965	2.7356e-05	226.39	3.3582e-06	4.0903e-06	394.99	78.211	1.0718e-06	2.7998e-06	155.63	74.218	32.774	17.851	2.8672e-06	42.095	0.00018218	0.00016633	4.8409e-05	231.29	1.9029e-06	1.8131e-06	389.03	78.765	1.8865e-06	1.796e-06	151.78	71.783	33.188	17.395	1.9354e-06	40.179	-87.062	-22.901	-103.038	-146.536	-39.166	9.078	-146.102	-140.316	132.243	57.846	-141.944	-137.803	-136.527	-133.613	23.273	-135.027	-8191	255	
7340.738	1	1	0	0	0.23372	0.13104	0.084696	0.067495	0.13615	0.1677	0.19728	0.060808	0.12899	0.2028	0.058028	0.16837	0.31539	0.079671	0.054022	0.17461	-2.9938	-2.5521	-3.3917	-3.1167	-2.6729	-3.4833	-2.8792	-3.0271	-3.475	-2.8917	-3.525	-3.1	-2.8042	-3.6688	-2.8583	-3.1729	158.066	-63.601	179.623	-71.108	-1.000	180.960	187.901	80.605	-62.592	173.394	-121.987	119.771	-141.926	171.011	-135.024	95.151	0.00040241	0.00037705	0.0001005	227.48	2.9314e-06	2.2275e-06	399.8	78.61	7.9591e-07	3.6378e-06	157.48	74.343	33.265	17.925	3.1801e-06	42.36	0.00017782	0.00016557	4.9945e-05	230.83	1.8671e-06	1.8116e-06	392.18	78.939	1.8677e-06	1.8225e-06	154.22	72.386	33.378	17.501	2.0317e-06	40.425	-90.396	-8.312	-88.730	-146.209	-14.227	-28.555	-145.755	-139.952	171.144	-8.897	-141.973	-137.351	-136.173	-132.627	97.861	-134.423	-8191	255	
7340.834	1	1	0	0	0.17101	0.069768	0.012408	0.049277	0.18236	0.17209	0.069211	0.1978	0.10903	0.11639	0.20945	0.036177	0.082174	0.068715	0.26806	0.10363	-3.3	-2.7208	-3.2687	-3.075	-2.7083	-3.4542	-3.1354	-2.8417	-3.5312	-2.7292	-3.3708	-3.3854	-2.8458	-3.6271	-3.2375	-3.0312	-102.214	161.003	58.474	-142.348	71.047	28.274	-116.794	-142.020	11.263	-88.677	-104.125	127.186	-41.166	-42.883	54.878	118.495	0.00027036	0.00012387	2.5999e-05	228.78	1.4365e-06	2.0801e-06	404.35	78.578	1.8603e-06	4.4234e-06	158.56	75.422	33.695	17.975	1.3173e-06	42.948	0.00017864	0.00016791	5.0922e-05	232.45	1.8658e-06	1.8561e-06	397.27	79.667	1.8389e-06	1.922e-06	156.14	73.24	33.54	17.615	2.052e-06	40.862	-87.307	66.550	86.459	-146.172	177.140	-69.843	-146.079	-139.796	-84.263	-37.682	-141.740	-137.708	-135.902	-132.951	58.805	-134.472	-8191	255	
7340.931	1	1	0	0	0.066119	0.064798	0.17935	0.13482	0.13355	0.092497	0.083007	0.13835	0.16294	0.12264	0.03624	0.085921	0.22713	0.015576	0.088087	0.28584	-3.2625	-2.7938	-3.3896	-3.2938	-2.75	-3.5708	-3.0917	-2.7271	-3.4479	-2.6875	-3.1729	-3.4562	-2.7375	-3.3354	-3.1521	-2.7167	22.904	190.901	-70.007	186.749	101.639	161.182	-24.835	-32.679	10.444	104.149	54.124	-6.721	183.690	-45.975	91.079	191.814	0.00035821	0.0001683	6.4179e-05	232.47	2.6351e-06	1.5992e-06	401.81	79.041	3.5002e-06	1.3992e-06	158.06	74.922	33.354	17.931	3.5598e-06	42.208	0.00017756	0.00017969	5.2327e-05	234.01	1.8668e-06	2.0032e-06	396.41	79.634	1.8944e-06	1.9873e-06	154.83	72.575	33.354	17.583	2.0399e-06	40.4	-84.312	82.341	-25.617	-145.802	5.541	57.517	-146.236	-140.072	-4.090	34.083	-141.657	-137.228	-137.137	-132.820	34.427	-134.504	-8191	255	
7341.027	1	1	0	0	0.085717	0.14403	0.23121	0.04607	0.11779	0.13748	0.095955	0.10977	0.24438	0.19967	0.10292	0.19028	0.094286	0.23793	0.20543	0.15845	-3.2729	-2.9833	-3.0854	-3.5312	-2.7875	-3.4208	-3.1792	-2.7979	-3.5292	-2.7667	-2.8125	-3.4667	-2.7521	-3.3229	-3.2917	-2.9083	134.578	-14.298	126.892	-4.234	-74.392	-12.907	135.202	-100.166	-92.252	192.030	-106.760	-59.638	113.943	-44.449	178.191	-142.268	0.00039599	0.00020506	6.0904e-05	224.15	7.8883e-07	2.5703e-06	396.27	77.471	4.3243e-06	2.8328e-06	156.43	74.287	32.795	17.936	3.8904e-06	42.421	0.00017828	0.000182	5.0874e-05	228.86	1.8373e-06	2.0253e-06	389.32	78.116	1.8634e-06	2.071e-06	152.39	71.997	33.123	17.565	1.9819e-06	40.396	-85.566	-155.796	57.115	-146.126	-136.282	74.531	-146.169	-140.201	-9.513	10.082	-141.439	-137.279	-136.905	-132.385	59.177	-134.682	-8191	255	
7341.123	1	1	0	0	0.22307	0.12739	0.11908	0.23463	0.1511	0.04018	0.23602	0.11651	0.21714	0.043423	0.28491	0.11677	0.099593	0.26297	0.068742	0.14259	-3.1146	-3.1208	-3.0167	-3.4813	-2.7	-3.2812	-3.5667	-2.7687	-3.6354	-2.8208	-2.8688	-3.4833	-2.7917	-3.3271	-3.2854	-2.5438	-77.192	-128.037	190.506	-108.571	-65.629	74.087	189.559	77.901	-131.510	193.247	184.785	62.365	-92.752	27.205	148.751	-143.968	0.00033101	0.00054988	6.8687e-05	227.52	1.1645e-06	6.68e-07	399.56	79.626	3.0389e-06	8.05e-06	158.45	74.99	33.316	17.924	1.3614e-06	43.128	0.00018128	0.00018643	4.928e-05	229.89	1.8747e-06	2.0224e-06	392.46	78.977	1.9014e-06	2.015e-06	154.49	72.707	33.585	17.645	1.92e-06	40.937	-95.113	-151.982	19.539	-145.754	58.797	-24.404	-146.017	-140.007	-76.858	-30.398	-142.123	-137.299	-136.736	-132.974	100.912	-134.391	-8191	255	
7341.219	1	1	0	0	0.14055	0.040564	0.2038	0.11206	0.21251	0.035816	0.17881	0.040633	0.32092	0.38624	0.058594	0.17709	0.14557	0.29795	0.17844	0.093355	-3.1083	-3.15	-2.9354	-3.7604	-2.9333	-3.2667	-3.5896	-2.6167	-3.5625	-3.1167	-2.7167	-3.775	-2.8417	-3.1271	-3.4813	-2.6979	87.569	33.249	65.454	138.504	2.693	159.626	49.103	193.545	48.197	78.167	-144.191	190.225	151.249	136.639	137.653	-52.793	0.00037746	9.0806e-05	4.6187e-05	229.44	1.4171e-06	3.0808e-06	406.42	80.177	3.8703e-06	5.4123e-06	161.97	75.887	33.615	17.961	3.0573e-06	43.31	0.00018738	0.00018437	4.7691e-05	231.81	1.9657e-06	1.9896e-06	399.27	80.068	1.969e-06	1.9935e-06	156.48	73.443	33.77	17.667	1.8681e-06	41.018	-88.449	-139.824	95.859	-145.311	-121.476	-45.488	-145.841	-140.591	-82.141	-130.410	-141.667	-137.578	-137.138	-132.717	10.111	-134.518	-8191	255	
7341.340	1	1	0	0	0.18451	0.10179	0.068216	0.33433	0.13284	0.27923	0.26899	0.10094	0.14382	0.1242	0.39002	0.11567	0.096708	0.1311	0.088275	0.19177	-3.1583	-3.3146	-2.7125	-3.6292	-2.8937	-3.2271	-3.6958	-2.7646	-3.4042	-3.3063	-2.8042	-3.5812	-3.0729	-3.0563	-3.5458	-2.8917	-63.007	141.421	-87.953	-114.613	29.593	144.563	165.811	-74.636	44.784	-9.328	-128.896	7.288	144.161	190.059	123.547	-130.691	0.000365	0.00036499	5.7536e-05	228.09	2.0188e-06	9.8131e-07	395.73	77.79	2.5799e-06	2.3311e-06	156.86	74.3	32.877	17.791	4.0442e-06	42.464	0.00019169	0.0001797	4.7466e-05	229.86	2.0253e-06	1.9549e-06	390.65	78.258	2.0281e-06	1.9464e-06	151.62	71.881	33.186	17.366	1.8459e-06	40.266	-88.659	-129.379	47.056	-145.805	15.625	175.755	-145.995	-140.104	-35.814	-25.294	-141.899	-137.587	-136.481	-132.976	32.236	-134.828	-8191	255	
7341.411	1	1	0	0	0.18854	0.14963	0.15041	0.28697	0.088551	0.06951	0.20813	0.072563	0.061207	0.28744	0.10383	0.19222	0.1509	0.18398	0.2015	0.15959	-3.1333	-3.3667	-2.7292	-3.7583	-3.2042	-3.0958	-3.7938	-2.7271	-3.1104	-3.3042	-2.4625	-3.525	-3.025	-2.7917	-3.5104	-2.9542	145.230	-137.870	94.368	101.073	-36.637	175.631	114.860	-138.104	-44.093	21.086	-102.381	-55.653	143.622	5.397	116.425	-97.409	0.0003636	0.00027375	2.8274e-05	226.06	1.4212e-06	3.2888e-06	393.07	77.116	2.5275e-06	5.1311e-06	155.37	73.765	33.091	17.744	1.2214e-06	42.683	0.0001896	0.00017259	4.6372e-05	227.88	1.9936e-06	1.8942e-06	387.45	77.896	2.0108e-06	1.868e-06	151.7	71.844	33.178	17.353	1.8295e-06	40.602	-87.936	-99.726	32.436	-145.911	-0.432	-71.798	-145.804	-140.631	63.514	164.888	-141.725	-137.247	-136.672	-132.655	8.291	-134.125	-8191	255	
7341.507	1	1	0	0	0.020861	0.096309	0.13988	0.15143	0.28624	0.17647	0.018952	0.1229	0.2006	0.14734	0.082003	0.23209	0.15234	0.10036	0.16113	0.05351	-2.7917	-3.4208	-2.5833	-3.4271	-3.1	-2.7812	-3.4792	-2.8667	-3.0729	-3.4104	-2.9979	-3.3063	-3.15	-2.7979	-3.4	-2.8208	-67.989	-39.912	49.224	13.248	30.536	-96.130	-10.449	59.786	-124.832	76.977	111.407	-148.185	149.846	-109.757	31.379	67.120	0.00030795	0.00030809	4.998e-05	227.79	1.2392e-06	3.9801e-06	399.87	77.795	2.6013e-06	6.386e-06	157.4	75.131	33.111	17.803	4.3393e-07	43.19	0.00018954	0.00017031	4.64e-05	230.57	1.9586e-06	1.8501e-06	392.59	78.617	1.9309e-06	1.8573e-06	153.66	72.799	33.254	17.509	1.8676e-06	41.092	-81.145	123.647	-60.630	-145.368	-122.063	4.094	-145.866	-139.896	-32.226	6.246	-141.675	-137.448	-136.194	-132.675	126.258	-134.741	-8191	255	
7341.628	1	1	0	0	0.17587	0.22231	0.19107	0.12114	0.1753	0.11582	0.11582	0.083526	0.16276	0.13249	0.13732	0.07222	0.20724	0.095505	0.083496	0.15391	-2.7833	-3.4833	-2.7667	-3.3583	-3.2083	-2.8646	-3.7042	-3.0583	-2.6667	-3.6083	-2.7729	-3.2979	-3.2625	-2.7208	-3.5	-3.1917	138.640	91.446	109.374	164.271	-86.437	34.108	170.719	-118.939	138.562	160.971	43.540	-84.839	123.575	20.775	-46.299	96.617	0.00033455	0.00040334	8.2821e-05	228.91	6.8461e-07	8.4333e-07	403.29	77.987	1.268e-06	5.4518e-06	157.63	74.454	33.329	17.748	4.8719e-06	43.04	0.00018372	0.00016908	4.7598e-05	232.23	1.9317e-06	1.8657e-06	394.8	79.021	1.9002e-06	1.8555e-06	153.94	72.464	33.134	17.415	1.8879e-06	40.85	-96.182	-156.130	-32.228	-145.533	-87.228	183.752	-145.805	-140.181	-12.096	-71.879	-141.845	-137.098	-136.635	-132.825	23.241	-134.587	-8191	255	
7341.722	1	1	0	0	0.48269	0.14245	0.28986	0.061803	0.12627	0.06359	0.061702	0.096984	0.11614	0.26748	0.07196	0.091185	0.28294	0.090085	0.29343	0.19176	-2.6771	-3.6625	-2.7604	-3.0333	-3.4417	-2.6792	-3.8	-3.1083	-2.8667	-3.5583	-2.8063	-3.0521	-3.3812	-2.7104	-3.5521	-3.2104	4.761	134.440	178.227	28.791	146.924	100.278	-31.787	148.163	92.537	183.705	44.100	-65.477	42.896	-95.097	123.779	68.526	0.00033772	0.00044298	6.0114e-05	226.94	3.0243e-06	2.6445e-06	397.17	76.957	2.5198e-06	5.1744e-06	156.48	74.576	32.7	17.737	1.8762e-06	42.73	0.00018037	0.00016491	4.8077e-05	230.76	1.8385e-06	1.7396e-06	390.2	77.89	1.8513e-06	1.7607e-06	152.05	72.038	32.849	17.363	1.9702e-06	40.741	-83.060	192.000	-133.139	-145.872	28.832	-27.274	-145.850	-140.197	-48.825	-73.497	-141.858	-137.135	-136.673	-132.562	18.260	-134.469	-8191	255	
7341.819	1	1	0	0	0.19064	0.10724	0.29662	0.17179	0.093718	0.15685	0.15564	0.23568	0.24886	0.19909	0.10227	0.035368	0.22626	0.063719	0.1877	0.10674	-2.2354	-3.5708	-2.7542	-3.2375	-3.3958	-2.725	-3.3125	-3.1625	-2.7333	-3.6021	-2.8542	-3.0979	-3.7146	-2.7604	-3.4542	-3.4042	184.845	174.090	9.476	119.704	178.262	95.440	174.945	95.257	-98.180	55.267	134.571	74.880	-9.746	-56.852	99.023	90.493	0.00041689	0.00027466	0.00011535	227.63	9.4754e-07	3.5331e-06	399.88	77.889	2.4559e-06	3.7194e-06	158.13	75.053	32.755	17.748	2.0935e-06	43.105	0.00017767	0.00016295	4.9819e-05	229.57	1.8235e-06	1.8207e-06	394.16	78.268	1.801e-06	1.8442e-06	154.13	72.711	32.881	17.371	1.9904e-06	41.074	-86.506	-64.930	-61.402	-145.052	176.450	-52.012	-145.796	-140.251	-28.344	31.425	-141.608	-137.052	-136.748	-132.753	40.365	-134.573	-8191	255	
7341.939	1	1	0	0	0.14179	0.19075	0.22117	0.22565	0.15635	0.23204	0.18147	0.20794	0.23866	0.2045	0.12769	0.11872	0.29897	0.022658	0.15039	0.21759	-2.2979	-3.6229	-2.8229	-2.725	-3.4562	-2.7021	-3.5021	-3.4688	-2.8896	-3.4292	-2.9583	-3.0542	-3.575	-2.7729	-3.1729	-3.4313	37.443	-81.104	9.895	198.296	-57.059	-54.356	165.435	126.002	115.892	-123.099	131.322	-125.088	31.425	72.808	-44.635	86.984	0.00029117	0.00014412	5.6001e-05	229.19	3.3255e-06	1.0802e-06	407.7	78.879	3.708e-06	2.1633e-06	160.28	75.303	33.239	17.83	2.0452e-06	43.512	0.00017411	0.00016939	5.1127e-05	232.32	1.8126e-06	1.8731e-06	399.82	79.321	1.8137e-06	1.8997e-06	156.99	73.199	33.104	17.445	1.9654e-06	41.244	-88.698	84.164	-60.931	-146.183	54.176	-113.487	-146.017	-140.796	-46.243	-90.085	-141.845	-136.986	-136.213	-132.593	-73.739	-134.844	-8191	255	
7342.035	1	1	0	0	0.19331	0.058087	0.28481	0.15971	0.10997	0.15084	0.16461	0.10337	0.074693	0.041922	0.027326	0.21893	0.26035	0.11419	0.34368	0.25062	-2.1979	-3.35	-2.8667	-2.8521	-3.6708	-2.9021	-3.1625	-3.5563	-2.7438	-3.425	-3.1583	-2.7708	-3.4875	-2.8187	-3.0312	-3.3625	87.981	-55.580	173.111	-88.508	10.155	87.614	200.313	72.715	176.080	193.041	56.743	157.835	-122.739	-122.905	-123.433	180.035	0.00038314	0.00027232	9.7328e-05	227.45	3.7148e-06	1.0476e-06	401.16	77.636	2.0819e-06	5.0194e-06	156.36	74.463	32.549	17.714	6.1266e-06	42.883	0.00017271	0.00017207	4.9873e-05	229.72	1.7798e-06	1.9101e-06	393.23	78.055	1.7376e-06	1.9116e-06	152.27	72.057	32.524	17.387	1.898e-06	40.718	-78.304	-144.927	-70.303	-145.912	-46.061	-69.830	-146.188	-140.322	-100.860	-152.602	-141.572	-137.599	-136.978	-133.009	98.255	-135.133	-8191	255	
7342.107	1	1	0	0	0.071092	0.15195	0.14751	0.096118	0.10925	0.20013	0.077764	0.23748	0.065165	0.097523	0.33326	0.13271	0.065738	0.16718	0.01969	0.044453	-2.1333	-3.3208	-3.025	-2.5083	-3.4479	-2.9062	-3.1562	-3.6333	-2.7958	-3.4917	-3.2375	-2.8167	-3.6854	-2.9458	-2.9604	-3.5292	101.201	-70.458	98.720	-132.833	40.963	-32.661	-152.174	117.311	-81.768	181.735	43.221	92.854	27.693	143.708	-41.212	168.671	0.00035214	0.00024869	9.8569e-05	227.52	2.8467e-06	1.3402e-06	402.79	77.17	3.0501e-06	4.2266e-06	158.37	74.796	32.724	17.692	4.6741e-06	43.208	0.00017023	0.00017562	4.7545e-05	228.69	1.7619e-06	1.9166e-06	393.62	77.304	1.7782e-06	1.918e-06	153.43	72.523	32.931	17.455	1.8405e-06	41.048	-84.726	-101.339	-79.250	-145.544	-40.338	-124.815	-146.187	-140.425	6.418	-22.613	-141.583	-137.592	-137.059	-133.189	17.713	-134.506	-8191	255	
7342.228	1	1	0	0	0.068318	0.082928	0.12559	0.176	0.1261	0.17566	0.091181	0.13025	0.054104	0.13067	0.090341	0.13833	0.089107	0.10622	0.10812	0.16832	-2.375	-3.3021	-3.2396	-2.7792	-3.5563	-3.0458	-2.8375	-3.4	-2.8833	-3.1542	-3.4062	-2.7896	-3.3417	-3.0938	-2.7812	-3.6521	44.905	-50.818	-53.888	201.142	67.788	-94.856	0.734	-157.158	-45.807	83.400	93.860	163.010	-141.597	53.855	-34.302	59.234	0.00039907	0.00027732	0.00011129	228.04	7.7523e-07	1.0525e-06	406.59	78.763	4.4415e-06	5.1991e-06	160.15	75.822	33.193	17.758	1.1157e-06	43.641	0.00017521	0.00017766	4.6399e-05	229.94	1.8093e-06	1.9369e-06	397.95	78.648	1.8542e-06	1.958e-06	155.24	73.1	33.206	17.446	1.8353e-06	41.433	-81.826	-111.163	-68.577	-145.441	-64.662	-126.354	-145.887	-140.466	46.339	2.978	-141.739	-137.463	-137.096	-133.161	-100.973	-134.912	-8191	255	
7342.324	1	1	0	0	0.33234	0.069933	0.094768	0.16297	0.29537	0.24725	0.33846	0.1913	0.29074	0.15074	0.22149	0.26591	0.18705	0.14048	0.13495	0.061395	-2.4458	-3.1042	-3.4333	-2.7917	-3.3104	-3.0833	-2.7313	-3.4062	-2.6021	-3.0604	-3.4979	-2.5833	-3.2104	-3.35	-2.6688	-3.6667	92.110	83.315	-148.674	-12.803	69.798	26.109	-148.718	-115.103	95.982	-135.471	184.833	111.241	101.358	68.655	150.384	118.161	0.00034437	0.00039691	6.608e-05	229.44	1.704e-06	4.2763e-06	402.43	78.119	1.7803e-06	5.223e-06	158.42	74.7	32.588	17.621	1.2761e-06	42.921	0.00018275	0.0001751	4.6065e-05	230.93	1.9349e-06	1.9074e-06	395.9	78.032	1.9497e-06	1.889e-06	153.57	72.404	32.792	17.28	1.8121e-06	40.832	-90.956	-125.044	-92.955	-145.543	69.664	-70.654	-145.991	-139.916	147.837	-44.642	-141.574	-137.376	-136.705	-132.669	0.359	-134.182	-8191	255	
7342.420	1	1	0	0	0.098095	0.059098	0.10203	0.2151	0.13888	0.11353	0.14268	0.11302	0.18627	0.29242	0.16119	0.18934	0.1709	0.19224	0.13682	0.055919	-2.6146	-3.1146	-3.625	-2.7729	-3.3896	-3.3583	-2.8104	-3.6083	-3.0458	-3.0396	-3.5167	-2.7979	-3.3292	-3.3958	-2.6604	-3.4375	-1.749	-141.428	-57.363	-79.208	142.292	146.161	1.569	105.605	7.086	-41.979	152.667	182.595	151.357	89.669	200.867	42.246	0.00037371	0.00019726	4.9869e-05	226.56	1.4642e-06	2.0684e-06	398.03	76.88	4.5182e-06	4.796e-06	155.95	74.157	32.461	17.577	5.3723e-06	42.91	0.00018768	0.00017166	4.6188e-05	227.74	1.976e-06	1.8757e-06	388.72	76.959	1.9433e-06	1.8745e-06	151.39	71.896	32.776	17.209	1.7953e-06	40.724	-82.952	-34.627	-58.694	-145.783	105.573	9.300	-145.981	-140.370	0.205	-87.205	-141.290	-137.624	-136.134	-132.690	-28.706	-134.353	-8191	255	
7342.516	1	1	0	0	0.07811	0.11717	0.13972	0.085374	0.051753	0.14976	0.15177	0.17212	0.31322	0.29333	0.248	0.23364	0.087485	0.15874	0.033366	0.17874	-2.7646	-2.8667	-3.5271	-2.5333	-3.0021	-3.2333	-2.5146	-3.325	-3.0083	-2.9125	-3.6083	-2.8604	-3.3187	-3.5771	-2.8021	-3.5792	-33.760	-7.798	171.898	-119.175	-98.562	63.393	-152.507	13.048	-57.621	128.365	-129.237	-151.205	153.094	159.627	-69.800	119.728	0.00031459	0.00057562	3.6766e-05	228.37	3.6547e-06	7.4609e-07	401.17	77.618	3.8032e-06	3.7599e-06	158.1	74.691	32.909	17.639	1.7666e-06	43.192	0.00018644	0.00016756	4.5697e-05	229.22	1.9125e-06	1.8269e-06	392.19	77.811	1.9235e-06	1.8054e-06	153.65	72.932	32.975	17.322	1.7793e-06	41.243	-91.688	-69.278	-22.470	-145.808	9.862	-94.455	-146.304	-139.837	25.273	-36.280	-142.256	-137.346	-136.403	-132.977	-84.967	-134.699	-8191	255	
7342.635	1	1	0	0	0.090524	0.23124	0.095072	0.15518	0.097958	0.26867	0.1322	0.025339	0.21098	0.056858	0.27809	0.055066	0.24355	0.073055	0.21985	0.13292	-2.7396	-2.6354	-3.5833	-2.7687	-3.1604	-3.2667	-2.5646	-3.2958	-3.0187	-2.9479	-3.6458	-3.0146	-2.8354	-3.3958	-2.4604	-3.2375	41.558	-111.031	-104.143	189.797	-20.560	-128.783	89.178	117.398	60.057	-40.908	77.742	1.585	57.060	5.588	62.187	45.262	0.00035635	0.00025293	2.8761e-05	229.43	1.534e-06	4.1821e-06	409.57	78.594	2.8685e-06	8.2531e-07	161.91	76.401	32.938	17.717	3.6529e-06	43.498	0.00018322	0.00016794	4.5561e-05	231.81	1.8757e-06	1.8393e-06	399.57	79.144	1.8688e-06	1.8341e-06	156.57	74.031	33.168	17.342	1.7875e-06	41.409	-91.966	-64.999	-69.574	-146.448	-124.320	62.200	-146.225	-140.830	-29.004	-101.413	-142.335	-137.907	-137.615	-133.720	-73.663	-135.084	-8191	255	
7342.707	1	1	0	0	0.21843	0.23	0.12331	0.18318	0.44621	0.041535	0.21534	0.14612	0.14425	0.1228	0.15851	0.1832	0.1166	0.11839	0.13488	0.13903	-2.6542	-2.6417	-3.4604	-3.0625	-2.9562	-3.5021	-2.7438	-3.4062	-3.3708	-2.8708	-3.3292	-2.8104	-2.7167	-3.4188	-2.5583	-3.1333	-14.014	-28.886	-145.296	190.401	-64.294	55.035	-90.851	-130.642	-136.708	-97.494	159.822	95.335	-104.370	-34.710	113.848	59.146	0.00033087	0.00066571	0.00010277	227.4	2.5413e-06	3.8526e-07	401.94	77.421	1.2061e-06	3.2267e-06	156.8	74.32	32.233	17.53	1.9658e-06	42.537	0.00017624	0.00016341	4.6543e-05	230.97	1.8357e-06	1.749e-06	394.85	78.074	1.8342e-06	1.7672e-06	152.7	72.384	32.523	17.101	1.9018e-06	40.667	-91.226	-75.413	-33.307	-146.823	29.310	11.634	-146.939	-141.011	-136.414	1.387	-142.202	-138.273	-136.552	-133.130	127.316	-134.973	-8191	255	
7342.803	1	1	0	0	0.1069	0.20556	0.13792	0.17888	0.14458	0.16976	0.079057	0.045715	0.095182	0.11426	0.1802	0.1943	0.080176	0.15387	0.056143	0.096815	-2.8896	-2.4938	-3.4208	-2.9021	-2.6833	-3.3604	-2.6708	-3.0104	-3.5021	-2.9062	-3.4958	-3.0667	-2.6583	-3.4688	-2.6937	-2.9333	-84.798	-41.015	-110.869	113.616	142.680	-139.451	139.503	-106.488	47.991	126.128	137.266	-99.127	-104.026	-71.247	82.134	56.144	0.00032374	0.00052151	6.0483e-05	225.37	2.9703e-06	1.4079e-06	399.97	77.74	3.3375e-06	7.1209e-06	156.27	74.167	32.408	17.308	2.6072e-06	42.682	0.00017505	0.00016054	4.8378e-05	228.81	1.8226e-06	1.76e-06	392.06	77.713	1.8144e-06	1.8001e-06	153.55	72.099	32.371	17.021	1.9653e-06	40.733	-84.197	-38.812	-153.143	-146.999	-151.835	-0.606	-146.728	-140.687	14.567	-158.636	-142.302	-137.947	-137.344	-133.770	-18.721	-135.224	-8191	255	
7342.899	1	1	0	0	0.18955	0.28148	0.16632	0.11811	0.18108	0.37148	0.11142	0.21496	0.040477	0.20297	0.26303	0.14646	0.13166	0.16477	0.050268	0.073692	-2.9958	-2.5854	-3.2687	-3.0396	-2.4917	-3.35	-2.7021	-2.9229	-3.4646	-2.8	-3.2458	-3.3417	-2.5417	-3.4958	-2.8208	-2.7958	157.431	12.284	-114.001	-7.053	-24.668	-137.242	74.036	160.263	93.064	150.455	16.446	69.651	149.452	-124.958	80.914	89.678	0.00030748	0.0002899	6.7013e-05	226.55	1.0116e-06	1.4182e-06	404.24	77.79	1.4785e-06	3.7635e-06	158.95	74.792	32.453	17.376	8.9163e-07	42.962	0.00017298	0.00016543	5.0456e-05	229.26	1.7843e-06	1.8589e-06	396.65	77.934	1.8211e-06	1.8347e-06	155.4	72.73	32.701	17.155	1.9786e-06	41.095	-87.663	-122.315	-60.883	-146.656	116.551	-48.732	-146.708	-140.864	64.072	-43.675	-143.156	-138.077	-137.145	-133.887	-24.877	-134.949	-8191	255	
7343.020	1	1	0	0	0.33179	0.28762	0.12161	0.32538	0.072083	0.17484	0.088283	0.095323	0.009395	0.09711	0.11938	0.12313	0.30421	0.055133	0.2204	0.072676	-3.0104	-2.6021	-3.0583	-3.25	-2.6396	-3.6125	-2.9021	-2.6354	-3.6	-2.6562	-3.1417	-3.3563	-2.4667	-3.275	-2.8542	-2.7396	180.172	184.478	101.137	196.640	-69.620	145.811	106.299	90.182	-89.504	118.075	41.943	52.673	-143.589	-122.840	-110.875	49.338	0.00033081	0.00020471	7.9953e-05	227.63	1.3947e-06	3.0835e-06	404.09	77.993	7.5572e-07	7.0091e-07	159.32	75.191	32.914	17.595	3.5322e-06	42.91	0.00017213	0.00016889	4.9876e-05	229.63	1.789e-06	1.8611e-06	397.72	77.957	1.7597e-06	1.9156e-06	155.78	72.811	32.489	17.229	1.9731e-06	40.929	-92.335	-24.546	-44.086	-146.326	-75.672	-13.362	-146.691	-141.137	-36.499	-66.953	-142.670	-137.989	-137.531	-133.411	68.972	-134.893	-8191	255	
7343.116	1	1	0	0	0.49826	0.23808	0.29426	0.1402	0.082234	0.20593	0.097513	0.077102	0.17672	0.21578	0.11057	0.11516	0.24716	0.26296	0.37981	0.16753	-3.1771	-2.8958	-2.9917	-3.5187	-2.6792	-3.475	-3.2479	-2.8458	-3.4562	-2.7417	-3.1521	-3.2875	-2.5854	-3.2833	-3.2188	-2.6375	22.973	-3.883	-113.956	-84.797	71.124	-124.704	96.487	-99.016	-106.406	127.201	-15.851	-49.225	187.292	-107.541	11.672	86.954	0.00026328	0.00020365	0.00010795	227.61	2.1678e-06	5.4937e-07	397.23	76.921	1.0389e-06	3.5851e-06	157.04	75.188	32.646	17.479	2.4681e-06	42.476	0.00017244	0.00017747	4.9588e-05	228.46	1.8063e-06	1.96e-06	391.44	77.256	1.8024e-06	1.9737e-06	153.58	72.475	32.729	17.221	2.0032e-06	40.763	-79.738	-33.597	-137.590	-146.737	-63.306	-20.379	-147.013	-140.759	153.704	-46.181	-142.309	-137.925	-137.776	-133.702	1.501	-135.250	-8191	255	
7343.212	1	1	0	0	0.21901	0.29879	0.17351	0.13461	0.15994	0.17275	0.14473	0.17807	0.32146	0.16402	0.14431	0.068586	0.31253	0.22123	0.2115	0.16728	-3.1729	-2.7812	-3.0542	-3.4271	-2.7562	-3.3688	-3.2104	-2.6083	-3.2854	-2.9896	-2.7646	-3.5417	-2.6792	-3.1937	-3.3479	-2.8083	-89.545	-115.482	143.892	-35.162	87.450	199.321	-157.611	-131.674	-153.107	95.651	-47.557	-20.450	-94.633	-116.561	140.961	179.548	0.00033947	0.00033567	2.7106e-05	227.35	5.7294e-07	2.3043e-06	402.07	78.329	3.206e-06	4.4159e-06	160.22	75.3	32.752	17.456	3.1233e-06	43.134	0.00018338	0.00018892	5.0902e-05	229.06	1.9291e-06	2.0946e-06	394.36	78.002	1.9592e-06	2.1252e-06	155.49	73.138	32.947	17.285	1.9732e-06	41.069	-101.822	-52.518	-157.074	-146.820	-115.823	74.647	-146.824	-141.634	-43.434	-32.487	-142.946	-137.910	-137.274	-133.888	-65.932	-135.097	-8191	255	
7343.308	1	1	0	0	0.22774	0.038072	0.14177	0.12364	0.0066353	0.1727	0.061625	0.18702	0.28438	0.12635	0.072463	0.027599	0.19236	0.12177	0.10311	0.1338	-3.0687	-2.9292	-2.8271	-3.4562	-2.7792	-3.2417	-3.1896	-2.6167	-3.5583	-3.0875	-2.825	-3.6396	-2.8167	-3.0104	-3.2313	-2.6208	-45.692	-95.432	-111.246	7.143	0.618	-121.222	-137.411	149.913	31.050	187.740	-11.319	170.953	1.710	190.136	-55.112	118.158	0.00040162	0.00017378	9.0153e-07	227.26	1.2516e-06	4.4856e-06	401.78	77.95	2.9287e-06	3.4764e-06	160.05	74.635	32.349	17.363	5.5955e-06	42.807	0.00018878	0.00018901	5.0395e-05	229.64	2.0463e-06	2.0778e-06	394.79	78.059	2.0406e-06	2.07e-06	155.12	72.704	32.805	17.118	2.0194e-06	40.858	-92.213	-104.242	142.978	-146.710	12.002	16.157	-147.158	-140.912	-95.841	-56.878	-142.557	-138.083	-137.413	-133.484	-22.877	-135.145	-8191	255	
7343.403	1	1	0	0	0.11427	0.30269	0.13875	0.19398	0.02987	0.059178	0.22569	0.24251	0.23226	0.30091	0.193	0.18514	0.17672	0.14582	0.021186	0.20312	-2.8438	-3.025	-2.4542	-3.3708	-2.725	-2.9833	-3.325	-2.6667	-3.1875	-3.175	-2.6479	-3.2354	-2.8146	-2.9125	-3.4625	-2.7521	141.562	125.450	82.806	-15.948	15.865	-43.341	85.005	75.989	-116.170	169.918	135.155	63.243	-99.575	-139.503	-93.106	92.646	0.00034479	0.00033683	4.6677e-05	224.46	3.5723e-06	1.8032e-06	394.18	76.204	6.3484e-07	2.4964e-06	152.98	72.632	31.744	17.125	2.531e-06	42.19	0.00020135	0.00019494	4.9853e-05	227.47	2.1393e-06	2.1074e-06	388.62	76.574	2.1781e-06	2.1312e-06	150.71	70.858	32.46	16.95	2.0381e-06	40.157	-92.195	-33.486	-31.880	-146.886	-131.508	123.455	-146.768	-140.937	135.185	41.393	-142.771	-138.035	-137.532	-133.107	-79.506	-135.144	-8191	255	
#DATA ENDS
