BOXY.EXE: ISS Imagent and Oximeter Data Acquisition Program Version 0.80
Ascii Record File

#ACQ INFORMATION
2  Detector Channels 
16  External MUX Channels 
1  Auxiliary Channels 
5000  Waveform (CCF) Frequency (Hz)
1  Waveforms Skipped 
30  Waveforms Averaged 
1  Cycles Averaged 
16  Acquisitions per Waveform 
10.0806  Updata Rate (Hz) 

#FILE INFORMATION
TRUE -- External MUX Channel results are PARSED.
FALSE -- AC DC and Phase are NOT grouped.
TRUE -- Companion Program Settings File CREATED.
FALSE -- AC data not excluded
FALSE -- DC data not excluded
FALSE -- Phase data not excluded
FALSE -- Auxillary Chn. data not excluded
Tab delimiters

#CALIBRATION STATE
TRUE -- Waveform Calibration Values APPLIED.


#AUX CALIBRATION VALUES
Val Type	aux-1	

Term	1.0000e+00	
Factor	0.0000e+00	


#WF CALIBRATION VALUES
A = Detector Channel
Val Type	A-AC1	A-AC2	A-AC3	A-AC4	A-AC5	A-AC6	A-AC7	A-AC8	A-AC9	A-AC10	A-AC11	A-AC12	A-AC13	A-AC14	A-AC15	A-AC16	A-DC1	A-DC2	A-DC3	A-DC4	A-DC5	A-DC6	A-DC7	A-DC8	A-DC9	A-DC10	A-DC11	A-DC12	A-DC13	A-DC14	A-DC15	A-DC16	A-Ph1	A-Ph2	A-Ph3	A-Ph4	A-Ph5	A-Ph6	A-Ph7	A-Ph8	A-Ph9	A-Ph10	A-Ph11	A-Ph12	A-Ph13	A-Ph14	A-Ph15	A-Ph16	

Term	0.00000e+00	0.00000e+00	0.00000e+00	0.00000e+00	0.00000e+00	0.00000e+00	0.00000e+00	0.00000e+00	0.00000e+00	0.00000e+00	0.00000e+00	0.00000e+00	0.00000e+00	0.00000e+00	0.00000e+00	0.00000e+00	0.00000e+00	0.00000e+00	0.00000e+00	0.00000e+00	0.00000e+00	0.00000e+00	0.00000e+00	0.00000e+00	0.00000e+00	0.00000e+00	0.00000e+00	0.00000e+00	0.00000e+00	0.00000e+00	0.00000e+00	0.00000e+00	0.00000e+00	0.00000e+00	0.00000e+00	0.00000e+00	0.00000e+00	0.00000e+00	0.00000e+00	0.00000e+00	0.00000e+00	0.00000e+00	0.00000e+00	0.00000e+00	0.00000e+00	0.00000e+00	0.00000e+00	0.00000e+00	
Factor	1.00000e+00	1.00000e+00	1.00000e+00	1.00000e+00	1.00000e+00	1.00000e+00	1.00000e+00	1.00000e+00	1.00000e+00	1.00000e+00	1.00000e+00	1.00000e+00	1.00000e+00	1.00000e+00	1.00000e+00	1.00000e+00	1.00000e+00	1.00000e+00	1.00000e+00	1.00000e+00	1.00000e+00	1.00000e+00	1.00000e+00	1.00000e+00	1.00000e+00	1.00000e+00	1.00000e+00	1.00000e+00	1.00000e+00	1.00000e+00	1.00000e+00	1.00000e+00	X	X	X	X	X	X	X	X	X	X	X	X	X	X	X	X	

B = Detector Channel
Val Type	B-AC1	B-AC2	B-AC3	B-AC4	B-AC5	B-AC6	B-AC7	B-AC8	B-AC9	B-AC10	B-AC11	B-AC12	B-AC13	B-AC14	B-AC15	B-AC16	B-DC1	B-DC2	B-DC3	B-DC4	B-DC5	B-DC6	B-DC7	B-DC8	B-DC9	B-DC10	B-DC11	B-DC12	B-DC13	B-DC14	B-DC15	B-DC16	B-Ph1	B-Ph2	B-Ph3	B-Ph4	B-Ph5	B-Ph6	B-Ph7	B-Ph8	B-Ph9	B-Ph10	B-Ph11	B-Ph12	B-Ph13	B-Ph14	B-Ph15	B-Ph16	

Term	0.00000e+00	0.00000e+00	0.00000e+00	0.00000e+00	0.00000e+00	0.00000e+00	0.00000e+00	0.00000e+00	0.00000e+00	0.00000e+00	0.00000e+00	0.00000e+00	0.00000e+00	0.00000e+00	0.00000e+00	0.00000e+00	0.00000e+00	0.00000e+00	0.00000e+00	0.00000e+00	0.00000e+00	0.00000e+00	0.00000e+00	0.00000e+00	0.00000e+00	0.00000e+00	0.00000e+00	0.00000e+00	0.00000e+00	0.00000e+00	0.00000e+00	0.00000e+00	-5.59862e+01	-1.37165e+02	-1.09869e+02	-1.83892e+02	-6.46307e+01	-7.36611e+01	-1.56891e+02	-1.62015e+02	-4.00765e+01	-6.46858e+01	-1.74830e+02	-1.70829e+02	-1.79669e+02	-1.77438e+02	-3.40695e+01	-1.50113e+02	
Factor	2.00826e-05	1.16048e-04	2.50199e-05	2.01756e-01	1.04398e-06	1.05918e-06	1.68114e-01	5.33662e-02	9.36267e-07	1.40336e-06	1.25515e-01	3.06584e-02	2.97817e-02	1.00133e-02	1.07325e-06	1.43431e-02	9.95168e-07	1.02890e-06	2.87747e-07	1.00126e-01	1.12210e-08	1.12741e-08	7.94418e-02	2.67727e-02	1.12170e-08	1.12980e-08	5.87010e-02	1.47241e-02	1.47267e-02	4.94447e-03	1.13127e-08	6.80183e-03	X	X	X	X	X	X	X	X	X	X	X	X	X	X	X	X	



#DISTANCE SETTINGS
A = Detector Channel
A-1	A-2	A-3	A-4	A-5	A-6	A-7	A-8	A-9	A-10	A-11	A-12	A-13	A-14	A-15	A-16	

2.5000e+00	3.0000e+00	2.5000e+00	3.0000e+00	2.0000e+00	3.0000e+00	1.5000e+00	3.0000e+00	3.0000e+00	3.0000e+00	3.0000e+00	3.0000e+00	3.0000e+00	3.0000e+00	1.5000e+00	3.0000e+00	

B = Detector Channel
B-1	B-2	B-3	B-4	B-5	B-6	B-7	B-8	B-9	B-10	B-11	B-12	B-13	B-14	B-15	B-16	

1.0000e+01	1.0000e+01	1.0000e+01	1.4400e+00	1.0000e+01	1.0000e+01	1.5100e+00	1.9400e+00	1.0000e+01	1.0000e+01	1.9900e+00	2.4900e+00	2.4100e+00	2.9000e+00	1.0000e+01	2.9800e+00	




#DATA BEGINS
time	group	step	mark	flag	A-AC1	A-AC2	A-AC3	A-AC4	A-AC5	A-AC6	A-AC7	A-AC8	A-AC9	A-AC10	A-AC11	A-AC12	A-AC13	A-AC14	A-AC15	A-AC16	A-DC1	A-DC2	A-DC3	A-DC4	A-DC5	A-DC6	A-DC7	A-DC8	A-DC9	A-DC10	A-DC11	A-DC12	A-DC13	A-DC14	A-DC15	A-DC16	A-Ph1	A-Ph2	A-Ph3	A-Ph4	A-Ph5	A-Ph6	A-Ph7	A-Ph8	A-Ph9	A-Ph10	A-Ph11	A-Ph12	A-Ph13	A-Ph14	A-Ph15	A-Ph16	B-AC1	B-AC2	B-AC3	B-AC4	B-AC5	B-AC6	B-AC7	B-AC8	B-AC9	B-AC10	B-AC11	B-AC12	B-AC13	B-AC14	B-AC15	B-AC16	B-DC1	B-DC2	B-DC3	B-DC4	B-DC5	B-DC6	B-DC7	B-DC8	B-DC9	B-DC10	B-DC11	B-DC12	B-DC13	B-DC14	B-DC15	B-DC16	B-Ph1	B-Ph2	B-Ph3	B-Ph4	B-Ph5	B-Ph6	B-Ph7	B-Ph8	B-Ph9	B-Ph10	B-Ph11	B-Ph12	B-Ph13	B-Ph14	B-Ph15	B-Ph16	aux-1	digaux	

7308.783	1	1	0	768	0.14408	0.20661	0.17368	0.10336	0.032619	0.22691	0.12193	0.12751	0.17084	0.27619	0.020888	0.1442	0.11532	0.31402	0.047002	0.17638	-2.6583	-3.1083	-3.7625	-3.1521	-3.6	-3.5729	-2.9292	-3.5729	-3.1771	-3.1292	-3.8688	-3.3417	-3.3729	-3.5146	-3.0396	-4.0229	87.567	149.089	77.020	196.946	172.226	-87.668	60.840	163.680	113.820	59.863	-0.172	67.884	60.793	109.960	-113.292	121.328	0.001005	0.0026205	0.00078425	245.13	2.714e-05	3.1515e-05	434.9	103.66	2.3995e-05	3.2172e-05	203.09	81.988	40.894	19.364	1.2412e-05	42.057	0.018215	0.017671	0.0047987	1987.8	0.000203	0.00019467	1732.4	577.04	0.00020251	0.00019172	1167.8	341.33	301.59	103.37	0.00018507	162.08	-62.227	-108.118	-6.507	-149.396	-97.658	83.349	-147.209	-141.954	18.317	9.049	-143.556	-138.735	-135.785	-131.947	4.950	-134.949	-8191	255	
7308.879	1	1	0	0	0.1854	0.25243	0.15889	0.13122	0.25835	0.031808	0.083096	0.16185	0.33649	0.13609	0.091588	0.2203	0.10493	0.058796	0.1395	0.086159	-3.1146	-2.9958	-3.8833	-3.0208	-3.3792	-3.6417	-2.8354	-3.8312	-3.5167	-2.9146	-3.7583	-3.1271	-3.1521	-3.7667	-3.1458	-3.7771	176.978	-156.795	-115.452	87.459	-25.609	104.868	141.155	129.431	87.672	57.032	112.206	135.320	-13.504	72.312	169.519	192.214	0.00021171	0.0015771	0.00098186	241.88	8.9881e-06	2.0304e-05	444.31	105.19	2.67e-05	4.2357e-05	204.69	83.816	42.141	19.492	5.5896e-05	42.241	0.017712	0.017256	0.0047826	2037.9	0.00019737	0.00019063	1738.4	585.29	0.00019691	0.00018665	1171.4	343.87	290.95	100.56	0.00018655	162.12	111.098	-41.114	-139.574	-147.326	47.006	40.466	-146.452	-141.549	155.825	10.812	-145.390	-137.789	-135.711	-132.617	-97.189	-133.940	-8191	255	
7308.975	1	1	0	0	0.090701	0.080424	0.10524	0.12348	0.21027	0.11238	0.29087	0.23567	0.20019	0.17901	0.16304	0.11171	0.15767	0.34444	0.24983	0.17773	-3.225	-2.9646	-3.7479	-3.1562	-3.1271	-3.8625	-3.1583	-3.7667	-3.5229	-2.8333	-3.9	-3.3917	-3.35	-3.7854	-2.9188	-3.6521	-103.859	195.105	-59.626	-86.550	17.592	-91.155	198.218	-73.995	-156.612	-145.160	-104.876	21.436	189.395	-155.811	-128.988	168.658	0.00091088	0.0010776	0.00045276	245.79	4.6286e-05	3.0583e-05	436.9	106.35	2.7032e-05	5.2194e-05	206.54	82.639	41.042	19.177	4.1812e-05	42.565	0.017062	0.016777	0.0048288	2038.2	0.00019032	0.0001863	1767.3	582.41	0.00019125	0.00018335	1200.4	344.8	286.88	99.826	0.00019413	161.44	0.981	-52.703	-153.528	-147.272	43.261	130.247	-147.918	-138.988	37.968	27.892	-143.331	-138.085	-135.229	-132.858	-96.007	-132.773	-8191	255	
7309.070	1	1	0	0	0.15771	0.11766	0.035724	0.10586	0.13219	0.12974	0.19456	0.010885	0.15576	0.20529	0.27198	0.10223	0.18543	0.07808	0.015615	0.076892	-3.3208	-2.9896	-3.7083	-3.1604	-3.2375	-3.8292	-3.0771	-3.4583	-3.6667	-2.925	-3.7812	-3.6646	-3.1396	-3.8104	-3.1208	-3.3688	143.815	86.629	-149.023	-49.634	-135.857	-133.538	-126.356	130.276	-39.430	-108.194	-148.148	-114.544	1.897	113.202	-122.893	31.596	0.00071919	0.0028402	0.00047498	250.21	2.9775e-05	2.6495e-05	441.64	107.4	3.4633e-05	1.816e-05	200.87	83.421	40.161	18.973	4.1726e-05	41.533	0.016933	0.01665	0.0050102	2022.7	0.00018765	0.00018459	1828.9	576.67	0.00019064	0.00018441	1248.2	342.54	287.29	101.17	0.00020468	160.43	-6.044	-129.247	142.180	-144.352	33.157	64.309	-148.513	-140.204	59.067	-150.111	-143.304	-138.013	-137.075	-132.757	-88.264	-132.861	-8191	255	
7309.166	1	1	0	0	0.055912	0.090424	0.027831	0.2322	0.12428	0.27442	0.11719	0.074093	0.20074	0.07633	0.1112	0.078852	0.15902	0.14539	0.040264	0.11356	-3.4125	-2.9729	-3.7125	-3.7146	-3.0625	-3.7667	-3.1958	-3.1271	-3.775	-3.0417	-3.7938	-3.5083	-3.0604	-3.8563	-3.2229	-3.0542	106.193	162.405	-135.412	-141.900	-7.199	3.401	-118.574	25.369	-12.177	201.715	-27.570	135.002	-15.196	185.430	40.252	200.667	0.00063625	0.0056407	0.0013462	246.56	3.1184e-05	3.1049e-05	442.91	106.65	3.5448e-05	9.0206e-05	209.16	83.576	40.907	19.237	1.0099e-05	42.43	0.016901	0.01703	0.0052183	2007	0.00018742	0.00018899	1875.1	568.18	0.00018769	0.00018771	1256.4	334.76	279.31	101.82	0.00020358	155.79	7.250	179.211	184.632	-146.243	90.245	-149.211	-145.876	-139.013	46.737	200.162	-143.525	-137.900	-136.536	-133.147	-67.822	-133.601	-8191	255	
7309.264	1	1	0	0	0.22487	0.23099	0.088536	0.15962	0.064027	0.11402	0.0452	0.15205	0.065195	0.14742	0.23246	0.057292	0.27075	0.084765	0.081752	0.12341	-3.3625	-2.9021	-3.5	-3.5292	-2.8667	-3.7792	-3.4042	-3.0833	-3.6021	-3.0375	-3.6229	-3.7854	-2.8521	-3.7854	-3.4354	-3.0187	-70.226	-131.559	90.606	200.828	-37.831	-91.112	112.609	9.938	52.693	146.664	70.777	26.821	-40.738	152.757	-91.473	-44.688	0.00069778	0.0072677	6.8397e-05	256.12	2.5448e-05	4.1763e-05	441.89	106.57	2.5152e-05	9.566e-05	210.76	82.711	41.194	18.871	5.3387e-05	42.234	0.016365	0.017267	0.0051354	1933.5	0.00018105	0.00019213	1858.5	552.02	0.00018339	0.00019343	1239.7	328.89	276.62	104.88	0.00020144	154.29	44.053	157.579	-92.386	-145.719	-52.885	-137.282	-146.371	-140.357	110.993	-145.548	-142.263	-137.931	-136.683	-133.618	77.415	-133.884	-8191	255	
7309.383	1	1	0	0	0.18995	0.075104	0.058719	0.14111	0.12236	0.083175	0.19688	0.2913	0.083928	0.22653	0.13015	0.24552	0.1186	0.12228	0.10255	0.13445	-3.3917	-3.1792	-3.4375	-3.4208	-2.8979	-3.7125	-3.4333	-2.7271	-3.6375	-3.0021	-3.2667	-3.9021	-2.725	-3.35	-3.2458	-3.1	195.453	98.546	-133.917	30.795	-129.091	62.503	44.944	-82.736	-2.023	-147.415	-88.277	101.926	44.341	-104.074	134.642	177.815	0.00074098	0.0018862	0.0011912	244.55	1.914e-05	7.9265e-05	434.92	105.74	4.7245e-05	7.642e-05	208.62	81.728	39.095	19.285	4.0633e-05	41.658	0.016301	0.018109	0.0051001	1934.3	0.00018218	0.00020045	1833.2	549.13	0.00018449	0.00020142	1214.2	325.25	277.28	106.6	0.0001957	150.58	-94.784	-15.948	-13.665	-144.189	27.443	-153.861	-146.071	-140.503	185.621	-138.867	-141.914	-138.332	-137.533	-133.124	75.867	-133.117	-8191	255	
7309.479	1	1	0	0	0.15215	0.11782	0.20934	0.35048	0.219	0.16775	0.087814	0.26778	0.10983	0.32922	0.083144	0.075724	0.07427	0.14652	0.1256	0.038423	-3.3812	-2.9604	-3.1063	-3.8583	-3.0687	-3.6813	-3.4708	-2.7812	-3.8063	-3.1458	-3.3125	-3.825	-2.8688	-3.4062	-3.3937	-2.9167	-121.234	38.979	-90.323	-90.542	146.863	-151.448	78.357	117.659	89.372	141.057	125.982	-45.729	56.197	71.977	71.505	-156.030	0.00097408	0.001182	0.0016396	244.78	3.2827e-05	5.4374e-05	433.55	104.96	5.2719e-05	3.6801e-05	202.57	83.184	40.139	19.593	1.5494e-05	41.843	0.016274	0.018176	0.0048826	1874.1	0.00018266	0.0001988	1770.1	528.34	0.00018423	0.00019836	1165.9	314.95	278.46	103.9	0.00018536	146.14	-109.101	-23.967	-4.671	-146.650	-106.709	-111.244	-145.634	-140.054	-134.597	124.037	-141.732	-137.628	-138.690	-131.316	117.377	-134.121	-8191	255	
7309.575	1	1	0	0	0.19398	0.29936	0.15064	0.043566	0.13517	0.21311	0.10362	0.1898	0.029592	0.20267	0.29529	0.060059	0.14666	0.10451	0.2564	0.21032	-3.4458	-3.1396	-2.9104	-3.6417	-3.0312	-3.5167	-3.5354	-2.7	-3.7438	-3.3479	-3.0563	-3.6896	-2.7667	-3.4958	-3.6813	-2.9583	154.304	123.589	-125.309	66.967	-69.317	-44.287	-35.797	149.396	-108.442	101.634	176.557	161.688	135.345	-24.640	134.849	-128.616	0.00060137	0.0021038	0.00063933	246.54	7.7164e-05	5.959e-05	440.44	103.94	5.1386e-05	3.7794e-05	206.76	82.606	40.346	19.574	4.5465e-05	42.515	0.01632	0.017719	0.0046367	1805.2	0.00018448	0.00019244	1724.6	517.22	0.00018689	0.00019211	1133.1	310.58	286.01	102.21	0.00018256	145.81	-110.795	136.393	-11.373	-146.501	191.836	38.704	-146.735	-140.624	-88.967	24.271	-141.354	-137.733	-139.728	-130.451	33.433	-134.545	-8191	255	
7309.671	1	1	0	0	0.30687	0.076088	0.20946	0.13816	0.21229	0.11621	0.20382	0.31943	0.17122	0.13961	0.089073	0.11988	0.055522	0.093563	0.22106	0.27215	-3.3271	-3.2417	-2.8812	-3.9375	-3.0542	-3.375	-3.7687	-2.8354	-3.375	-3.2833	-2.9479	-3.8375	-3.0542	-3.2667	-3.6437	-3.0396	-69.927	-137.864	149.755	158.730	17.048	16.139	86.373	153.887	119.904	190.551	80.586	-115.269	35.435	-48.649	179.627	102.484	0.0011333	0.0039359	0.0010778	237.55	6.0376e-05	5.7967e-05	439.99	104.05	7.392e-06	7.2471e-05	210.66	83.326	39.909	19.695	5.1789e-05	42.369	0.016801	0.017245	0.00457	1797.1	0.0001892	0.00018546	1685.3	512.42	0.00018804	0.00018415	1099.5	307.98	284.74	98.009	0.00017539	145.42	-141.894	-85.675	-50.054	-146.840	-135.988	27.458	-145.581	-141.121	195.526	41.656	-141.825	-138.149	-137.607	-130.792	39.268	-135.271	-8191	255	
7309.767	1	1	0	0	0.14982	0.079618	0.097066	0.076515	0.19529	0.11616	0.17468	0.20145	0.16781	0.1343	0.19758	0.078294	0.2292	0.30767	0.28529	0.13671	-3.2208	-3.5292	-2.9604	-3.9458	-3.2333	-3.0312	-3.8958	-3.1458	-3.4	-3.3063	-2.9875	-3.875	-3.025	-2.9729	-3.8729	-3.0312	-1.298	171.485	-47.844	188.299	153.141	29.024	-77.566	-0.919	125.552	121.018	198.303	139.936	-130.588	167.814	90.202	-115.934	0.00043579	0.0047962	0.00027179	233.88	4.6359e-05	5.7565e-05	433.65	105.59	1.7226e-05	8.3649e-05	207.8	82.58	40.669	19.862	1.8165e-05	42.721	0.016622	0.016435	0.0043726	1797.1	0.00018647	0.00017791	1639.1	520.37	0.00018533	0.00017836	1075.5	313.67	282.87	96	0.00017131	148.65	-101.975	-73.956	170.204	-147.702	14.750	35.425	-146.232	-141.468	35.767	49.448	-142.526	-139.028	-137.493	-132.378	179.642	-134.679	-8191	255	
7309.864	1	1	0	0	0.21604	0.085753	0.1921	0.14475	0.036402	0.32935	0.267	0.28913	0.19427	0.26408	0.14892	0.18343	0.040664	0.23261	0.26262	0.025082	-3.0104	-3.3979	-2.8063	-3.7333	-3.0667	-2.9479	-3.7417	-3.0958	-3.2562	-3.6396	-3.1229	-3.5687	-3.2271	-2.9313	-3.8187	-3.2438	-32.547	196.715	45.799	-132.219	99.149	99.475	115.469	142.316	142.468	9.634	64.689	34.311	-118.268	129.508	193.499	-110.265	0.00027272	0.004832	0.00099908	234.68	3.0055e-05	9.9722e-06	438.66	105.11	2.3827e-05	3.8002e-05	206.78	84.844	42.33	20.337	1.1997e-05	42.946	0.016343	0.016129	0.0042981	1840.8	0.00018335	0.00017348	1622.2	531.9	0.0001807	0.00017412	1064.9	319.25	275.69	94.15	0.00017002	151.65	7.215	-30.366	-59.457	-149.231	24.194	166.504	-146.899	-141.232	63.343	71.662	-142.614	-138.663	-136.638	-132.008	195.759	-135.086	-8191	255	
7309.960	1	1	0	0	0.17725	0.23977	0.053079	0.22945	0.18938	0.12387	0.25496	0.2148	0.05334	0.026084	0.070109	0.065605	0.076819	0.089804	0.16168	0.28581	-2.8688	-3.6146	-2.9333	-3.6104	-3.4188	-2.9792	-3.7646	-3.1333	-3.2812	-3.8063	-2.9688	-3.6208	-3.5646	-2.8917	-3.7062	-3.1792	-103.437	191.906	78.584	173.761	190.472	-1.400	66.284	-94.206	-15.162	-7.031	-1.644	200.743	1.129	126.411	-153.317	198.078	8.4174e-06	0.003614	0.00054176	241.73	6.5294e-05	4.7205e-05	443.4	106.24	3.518e-05	1.7764e-05	206.13	84.556	42.105	19.862	4.7915e-05	42.896	0.015754	0.015699	0.0042771	1861.4	0.00017661	0.00016897	1617.8	535.25	0.00017381	0.00017002	1076.6	319.91	267.52	91.879	0.00017147	151.2	-26.228	-56.559	186.298	-146.969	46.475	53.305	-147.282	-140.520	61.928	-44.851	-144.739	-138.157	-136.346	-131.462	-95.427	-134.278	-8191	255	
7310.079	1	1	0	0	0.094352	0.24312	0.1856	0.05796	0.36075	0.099569	0.15982	0.038319	0.1457	0.08482	0.16077	0.095469	0.13189	0.12462	0.095829	0.1332	-2.6146	-3.5667	-2.9021	-3.4583	-3.5854	-3.0187	-3.6625	-3.1458	-3.0625	-3.8125	-3.1167	-3.6312	-3.7292	-2.8479	-3.6708	-3.4	129.353	-142.589	16.003	64.226	155.050	-87.580	179.262	-155.167	77.158	-86.262	180.936	-142.655	89.622	117.375	-3.889	-120.085	0.00085935	0.0032177	0.0012473	242.87	3.8783e-05	2.0945e-05	438.74	105.02	1.023e-05	5.4413e-05	198.68	84.339	41.103	19.632	4.6387e-05	42.527	0.015211	0.015264	0.0043709	1839.4	0.00017194	0.00016471	1655.2	532.54	0.00017015	0.00016675	1101.8	315.93	263.88	91.151	0.00017715	149.43	23.797	-72.884	163.616	-144.586	33.252	10.465	-147.077	-139.878	-144.691	-35.597	-143.067	-138.399	-136.625	-132.493	-104.756	-133.465	-8191	255	
7310.175	1	1	0	0	0.13228	0.11372	0.31865	0.067246	0.071785	0.096402	0.21077	0.11559	0.094923	0.093981	0.01379	0.24456	0.12608	0.071648	0.12738	0.13786	-2.7125	-3.7896	-2.9437	-3.2292	-3.7021	-2.8875	-3.8479	-3.4	-3.075	-3.7292	-2.9792	-3.3229	-3.65	-2.9188	-3.6458	-3.5354	44.061	86.322	133.861	-102.407	120.965	-36.588	-134.239	-123.412	164.631	85.821	-57.355	126.962	131.094	145.862	-91.188	-32.265	0.00036931	0.0025122	0.00094418	244.3	5.7816e-05	2.8844e-05	440.72	105.79	1.8044e-05	2.4779e-05	205.53	84.567	41.487	19.458	3.2086e-05	43.057	0.014968	0.015216	0.0045571	1833.1	0.00017203	0.00016713	1709.2	531.12	0.00017007	0.00016941	1143	312.74	263.23	92.28	0.00018327	148.49	-26.453	-100.777	158.162	-143.275	38.638	194.525	-146.614	-139.748	74.902	-75.805	-143.612	-137.879	-136.260	-133.867	-157.013	-133.646	-8191	255	
7310.271	1	1	0	0	0.13438	0.16149	0.18613	0.11624	0.12873	0.051379	0.18485	0.027088	0.16315	0.17411	0.087847	0.10533	0.16379	0.35363	0.29766	0.12479	-2.7333	-3.9833	-3.2167	-3.1708	-3.5479	-2.6854	-3.6583	-3.6104	-2.8979	-3.7521	-3.075	-3.0854	-3.6021	-2.9979	-3.6146	-3.7771	59.322	-53.633	79.725	-100.426	-12.654	-14.544	158.333	-8.675	19.096	125.267	26.431	68.969	-14.473	109.100	-88.116	192.607	0.00017813	0.0044794	0.00073671	240.91	2.0906e-05	3.7421e-05	441.52	106.74	1.4086e-05	8.1457e-05	213.64	85.698	42.64	20.025	9.4125e-06	43.352	0.014969	0.015567	0.0047077	1801.9	0.00017116	0.00017183	1749.6	527.67	0.00016987	0.00017638	1177.7	314.87	266.32	97.27	0.00018984	150.37	-72.228	37.943	141.137	-144.152	6.835	-147.103	-145.829	-139.646	137.757	-140.883	-142.873	-137.594	-136.030	-134.776	98.666	-133.807	-8191	255	
7310.344	1	1	0	0	0.017592	0.10107	0.25156	0.14987	0.13214	0.23675	0.1563	0.17467	0.030285	0.043257	0.04118	0.11498	0.13386	0.061885	0.25555	0.31842	-2.425	-3.8021	-3.0792	-3.0646	-3.6917	-2.8958	-3.6396	-3.7542	-3.0396	-3.7792	-3.2604	-2.95	-3.6667	-3.0125	-3.6042	-3.7833	51.647	-103.459	-58.591	58.057	-54.371	167.201	-112.840	-148.082	163.978	159.653	-23.814	-84.928	41.496	146.588	198.558	157.068	0.00046762	0.0067192	0.00041689	243.15	4.3064e-05	4.013e-05	433.88	106.85	3.528e-05	8.1869e-05	203.1	83.814	41.174	19.542	3.6101e-05	43.329	0.015243	0.016663	0.0048514	1825.4	0.00017294	0.00018287	1758.8	531.44	0.00017122	0.0001863	1180.4	313.75	267.18	101.11	0.00018859	149.68	-101.324	155.359	28.598	-145.218	-15.484	-98.931	-145.952	-139.729	-132.090	188.422	-140.206	-137.575	-137.597	-132.923	55.289	-133.891	-8191	255	
7310.463	1	1	0	0	0.13887	0.23744	0.31944	0.20546	0.053861	0.060435	0.16599	0.32219	0.14374	0.14802	0.11503	0.079175	0.034154	0.10898	0.18194	0.20247	-2.5354	-3.4917	-3.3854	-2.9708	-3.7958	-3.1229	-3.5167	-3.7396	-2.9562	-3.5979	-3.4688	-3.1854	-3.8667	-3.1312	-3.2729	-3.7188	-8.994	179.521	79.850	-36.074	35.982	39.505	127.812	-122.906	-61.719	-142.270	150.991	-120.327	-99.809	-118.225	-96.118	-141.507	0.00077115	0.0041417	0.0014573	244.37	3.688e-05	2.278e-05	440.21	104.74	4.8364e-05	4.3179e-05	211.31	84.558	39.916	19.403	4.3451e-05	42.493	0.015348	0.017307	0.0048118	1823.7	0.00017636	0.00019175	1751.4	530.09	0.0001753	0.00019348	1172.6	313.01	273.36	104.03	0.00018543	149.04	-109.176	129.241	-21.646	-144.959	-122.055	186.126	-145.470	-140.910	-135.266	-112.651	-143.096	-137.400	-137.967	-131.728	26.967	-133.364	-8191	255	
7310.559	1	1	0	0	0.16556	0.11429	0.16299	0.17432	0.015	0.089473	0.26344	0.17434	0.13419	0.10144	0.14508	0.20779	0.086049	0.025501	0.15381	0.26297	-2.4708	-3.5146	-3.4042	-2.8583	-3.5375	-3.2458	-3.1646	-3.8146	-3.25	-3.6625	-3.7667	-2.825	-3.9229	-3.3042	-3.1646	-3.9583	-93.411	-9.870	26.518	-150.864	-107.905	118.525	112.808	190.378	13.860	155.281	-114.244	122.020	165.504	187.632	62.077	103.122	0.00093922	0.00027767	0.0008728	245.81	2.453e-05	4.1006e-05	442.75	104.76	4.6212e-05	2.3775e-05	209.54	83.483	41.487	19.976	5.9691e-05	43.686	0.015771	0.017657	0.0047177	1800.2	0.00018005	0.00019313	1720.3	524.62	0.00018092	0.00019304	1153.1	309.34	280.98	103.54	0.00018171	147.26	-122.860	-79.159	33.409	-144.433	-127.729	110.096	-144.956	-139.986	-132.034	-5.763	-141.760	-137.380	-137.805	-131.330	32.544	-133.845	-8191	255	
7310.655	1	1	0	0	0.37267	0.053097	0.26416	0.15241	0.10323	0.17783	0.24355	0.12136	0.044831	0.20763	0.10646	0.030998	0.099981	0.066962	0.12216	0.22807	-2.4479	-3.5833	-3.6688	-2.9958	-3.6292	-3.4354	-3.45	-3.7979	-3.0458	-3.3	-3.8083	-2.9396	-3.6583	-3.2479	-2.7854	-3.9792	-116.383	187.839	-90.112	62.812	-94.744	2.050	-2.806	104.668	69.917	-48.896	170.276	182.100	-48.951	191.910	192.203	137.589	0.001318	0.0052031	0.00071466	240.44	7.2629e-05	4.3623e-05	443.37	106.65	3.8721e-05	8.1791e-05	210.16	84.327	41.78	20.191	1.0139e-05	43.659	0.016262	0.017264	0.0046223	1772.3	0.00018553	0.00018942	1689.4	517.79	0.00018713	0.0001889	1136.9	308.66	287.04	101.68	0.00017861	147.43	-155.805	-41.290	-10.692	-145.290	-103.083	12.451	-145.281	-140.398	-152.653	46.067	-141.533	-138.215	-138.632	-130.734	-5.415	-134.388	-8191	255	
7310.776	1	1	0	0	0.13347	0.065065	0.15217	0.13088	0.055755	0.20244	0.097668	0.25116	0.069478	0.11198	0.19438	0.13671	0.21995	0.20815	0.16146	0.086821	-2.7854	-3.2625	-3.6813	-2.8521	-3.7542	-3.4771	-3.1875	-3.6104	-3.2146	-3.3625	-3.9083	-3.0563	-3.5479	-3.4688	-2.7896	-3.7417	81.323	-42.064	193.757	180.237	48.340	82.130	-158.925	127.930	-137.377	33.960	-6.672	176.691	30.550	-133.711	-32.664	96.321	0.0008706	0.0044443	0.0010492	237.32	1.5101e-05	3.3735e-05	440.65	106.33	3.2842e-05	3.6671e-05	210.06	83.59	42.562	20.137	3.8712e-05	42.993	0.016762	0.016918	0.0045593	1787.5	0.00019008	0.00018643	1673.9	526.42	0.00019141	0.00018475	1123.4	314.57	292.8	100.22	0.0001772	150.95	-120.770	-51.088	-40.181	-146.569	-109.256	6.636	-145.235	-141.653	-114.115	62.828	-142.459	-138.531	-136.783	-132.783	49.740	-134.428	-8191	255	
7310.872	1	1	0	0	0.24182	0.22689	0.06482	0.058088	0.044864	0.11111	0.16782	0.29383	0.19407	0.064562	0.22713	0.16024	0.28285	0.13205	0.061444	0.10383	-2.8792	-3.3333	-3.8083	-2.8563	-3.7375	-3.65	-2.9667	-3.7167	-3.3771	-3.225	-3.9354	-3.1688	-3.4375	-3.3854	-2.8333	-3.5583	-21.951	174.309	-145.138	99.637	172.761	-142.986	-152.731	-149.219	71.084	-42.451	-53.644	-53.390	176.214	39.614	102.203	93.736	0.00048837	0.0028001	0.00076038	230.23	1.378e-05	5.44e-05	435.42	104.09	4.8337e-05	4.2672e-05	204.64	82.169	40.629	20.02	1.8408e-05	42.779	0.017218	0.016824	0.0045846	1868	0.0001941	0.00018554	1676.9	546.46	0.00019445	0.00018447	1125.8	326.81	293.6	100.78	0.00017848	158.02	-79.987	-17.942	-9.912	-147.594	62.381	43.505	-145.606	-142.284	101.207	40.859	-140.836	-138.970	-135.790	-130.449	46.939	-134.700	-8191	255	
7310.944	1	1	0	0	0.052964	0.062239	0.21512	0.089585	0.056313	0.088317	0.18498	0.17292	0.069745	0.29205	0.025649	0.13605	0.17645	0.22231	0.19691	0.019532	-2.9188	-3.0667	-3.7271	-3.2979	-3.475	-3.8063	-2.9208	-3.7146	-3.2771	-2.9562	-3.7583	-3.1917	-3.4042	-3.7542	-2.8854	-3.7083	-29.537	-120.205	185.314	77.550	-61.569	137.527	-55.119	-128.158	132.360	3.869	91.394	131.152	61.706	198.675	-101.082	-65.646	0.0011037	0.0035031	0.00090968	242.1	2.5971e-05	1.6961e-05	443.17	104.26	3.1948e-05	7.2218e-05	207.9	83.783	41.085	19.942	4.5484e-05	42.9	0.017355	0.017006	0.0046455	1977.3	0.00019549	0.00018846	1705.1	574.51	0.00019557	0.00018698	1155.3	342.51	293.98	101.21	0.00018438	162.93	6.420	91.588	88.687	-147.414	37.140	16.031	-147.005	-142.388	47.450	79.626	-143.081	-138.350	-136.167	-131.817	-36.248	-134.410	-8191	255	
7311.065	1	1	0	0	0.23072	0.0027688	0.2009	0.25663	0.029461	0.13166	0.20139	0.31848	0.23722	0.21793	0.11092	0.13866	0.14637	0.19947	0.33172	0.078256	-3.0271	-2.9208	-3.9062	-3.1604	-3.3333	-3.7083	-3.0521	-3.6479	-3.3729	-3.1	-3.8396	-3.2	-3.2271	-3.625	-2.8937	-3.7208	88.207	64.768	-100.381	18.530	-155.146	146.766	104.217	199.433	-43.000	47.686	-106.570	17.180	130.342	-61.711	-49.392	-117.175	0.0011318	0.0035368	0.001306	243.29	2.9329e-05	3.3022e-05	436.12	106.95	4.5905e-05	5.1735e-05	202.84	83.017	42.013	19.581	6.6497e-05	43.291	0.017316	0.016951	0.0047903	2036.2	0.00019268	0.00018705	1744.3	583.36	0.00019148	0.00018329	1174.9	343.47	286.22	99.455	0.000189	161.73	-23.734	-5.718	118.165	-144.862	13.528	15.852	-146.858	-140.570	113.759	89.846	-143.076	-136.732	-135.511	-131.573	-94.079	-133.475	-8191	255	
7311.159	1	1	0	0	0.19752	0.071583	0.080042	0.1328	0.1745	0.051515	0.24757	0.12353	0.1942	0.26477	0.12418	0.074733	0.079872	0.10722	0.074446	0.093225	-3.3354	-2.8958	-3.7604	-3.1542	-3.1917	-3.9375	-2.9979	-3.6417	-3.5771	-2.9208	-3.5854	-3.4792	-3.1688	-3.8312	-3.0979	-3.3583	161.807	198.864	135.598	113.903	115.460	62.655	82.739	-43.360	46.217	-46.395	115.383	121.779	-48.268	128.145	-58.986	151.301	0.00027094	0.0016992	0.0021376	240.72	1.6705e-05	1.8166e-05	430.14	107.08	1.7093e-05	1.9629e-05	205.39	83.209	40.968	19.611	2.9042e-05	43.213	0.016728	0.016541	0.0048963	2016.3	0.00018756	0.00018339	1789.2	575.5	0.00018958	0.00018225	1224.2	342.99	285.94	99.841	0.00020037	161.26	-104.728	-10.802	174.734	-145.293	184.720	-100.823	-146.591	-138.856	42.125	54.650	-143.838	-136.431	-134.398	-133.098	-132.246	-132.294	-8191	255	
7311.255	1	1	0	0	0.13982	0.14428	0.21431	0.13205	0.24853	0.16448	0.22237	0.046646	0.17777	0.18956	0.20007	0.20998	0.34798	0.17514	0.22922	0.095058	-3.1125	-2.7854	-3.6688	-3.3229	-2.9729	-3.7313	-3.0521	-3.2	-3.7375	-2.9979	-3.8271	-3.6021	-3.0583	-3.9354	-3.0938	-3.1583	-140.168	54.519	-91.234	81.495	-50.467	163.939	95.601	48.503	167.606	191.630	-60.533	187.482	-128.555	180.508	78.812	91.115	0.00011025	0.004076	0.00059997	236.01	5.1682e-05	1.59e-05	434.69	105.75	2.8958e-05	3.2808e-05	205.55	83.5	41.503	19.873	2.4354e-05	43.187	0.016907	0.016776	0.0051338	1998.5	0.00018681	0.00018529	1844.4	566.18	0.00018643	0.0001842	1244.7	336.73	280.81	100.77	0.00020222	157.54	92.735	73.215	-130.381	-143.284	54.176	-48.544	-146.245	-138.642	66.410	199.829	-141.971	-136.694	-135.319	-132.388	185.427	-131.884	-8191	255	
7311.376	1	1	0	0	0.066547	0.2106	0.029843	0.29567	0.31123	0.10902	0.040707	0.15799	0.11167	0.13968	0.12076	0.19597	0.081787	0.22459	0.1065	0.17672	-3.1104	-2.8917	-3.4583	-3.5583	-2.7125	-3.7771	-3.4771	-3.2333	-3.9083	-3.1875	-3.5812	-3.6771	-2.8042	-3.8125	-3.3021	-3.2646	54.824	103.515	194.273	-72.444	-133.152	-108.269	32.209	-58.923	116.301	-37.732	32.319	62.900	-13.334	136.019	-15.702	190.266	0.00092639	0.0078543	0.00018087	248.89	3.7672e-05	6.2278e-05	442.58	104.37	1.113e-05	8.8826e-05	206.86	84.141	40.77	19.34	2.3993e-05	42.762	0.016446	0.017002	0.0051397	1945.4	0.00018194	0.00018901	1850.9	554.08	0.0001834	0.00019021	1239.6	329.14	275.71	103.03	0.00020085	154.65	-3.040	141.739	33.715	-144.100	76.575	-116.523	-146.872	-140.078	138.631	-158.040	-140.845	-137.879	-136.160	-133.807	37.037	-133.442	-8191	255	
7311.472	1	1	0	0	0.23231	0.073821	0.055151	0.25643	0.05348	0.097458	0.093522	0.073437	0.13024	0.25632	0.21304	0.21077	0.29258	0.2728	0.18636	0.22774	-3.4437	-3.0604	-3.3875	-3.6604	-3.0583	-3.7458	-3.4271	-3.0875	-3.725	-3.1729	-3.3646	-3.5292	-2.8667	-3.6979	-3.2646	-3.1208	52.984	22.289	189.108	-133.758	56.003	26.623	-28.938	68.027	133.290	54.297	-63.511	-117.965	111.954	201.590	-96.457	-123.922	4.0601e-05	0.0074019	0.00066292	247.5	3.4133e-05	6.0089e-05	435.28	103.68	1.9075e-05	4.8626e-05	210.44	84.489	40.519	19.444	4.268e-05	42.78	0.016131	0.017594	0.0050776	1923.3	0.00018083	0.00019692	1833.5	547.44	0.00018218	0.00019771	1217.1	327.51	275.7	106.1	0.00019626	152.85	19.730	131.977	-16.664	-143.891	-130.120	172.912	-145.825	-140.373	195.465	-105.907	-141.283	-138.123	-139.417	-132.736	27.608	-133.996	-8191	255	
7311.568	1	1	0	0	0.083693	0.068668	0.042645	0.024596	0.049277	0.3023	0.16434	0.12818	0.1904	0.17595	0.056705	0.10257	0.18823	0.15463	0.15836	0.21395	-3.5062	-3.2979	-3.4167	-3.6813	-2.9229	-3.5521	-3.4771	-3.0563	-3.8896	-3.1792	-3.2167	-3.7354	-2.8708	-3.5542	-3.3271	-2.9292	-82.878	48.676	70.506	149.045	-118.314	-7.397	146.042	47.235	191.117	111.514	-1.423	-124.678	67.497	-120.308	20.341	150.518	0.00047834	0.0046886	0.00041518	242.42	4.0365e-05	5.3045e-05	434.14	104.35	3.6614e-05	4.397e-05	206.43	82.597	39.559	19.552	5.3759e-05	42.645	0.016209	0.01825	0.0049662	1901.3	0.00018332	0.00020159	1804.7	542.42	0.00018616	0.00020223	1195.5	323.58	283.09	107.57	0.00019394	151.59	-117.687	144.399	-11.886	-145.060	-61.195	186.943	-145.501	-139.655	197.818	53.446	-142.104	-137.413	-139.475	-131.986	94.928	-133.525	-8191	255	
7311.640	1	1	0	0	0.013675	0.17793	0.26199	0.060874	0.14745	0.19489	0.0074071	0.22389	0.1058	0.051548	0.059743	0.048903	0.32051	0.090227	0.065766	0.13753	-3.3896	-3.3958	-3.0667	-3.7208	-3.0208	-3.6979	-3.5604	-3.0062	-3.875	-3.3312	-3.0667	-3.8292	-3.2188	-3.4208	-3.5292	-2.8187	-82.942	146.421	81.149	-45.165	-20.227	-114.321	-13.467	-156.227	-115.840	-106.931	-121.517	9.951	-35.312	33.283	183.616	-116.575	0.0012766	0.0018143	0.00063828	241.71	5.156e-05	1.4977e-05	438.39	105.86	6.6685e-05	0.00012105	206.95	84.139	40.575	19.917	2.0804e-06	42.979	0.016756	0.018451	0.0048638	1875	0.00018972	0.00020082	1772	533.76	0.00019195	0.00020081	1176.9	320.64	291.97	106.17	0.00018984	150.53	-125.825	-108.110	-81.788	-144.470	-151.286	-27.233	-145.771	-139.352	-119.038	43.978	-142.122	-138.532	-137.151	-131.573	83.341	-133.765	-8191	255	
7311.760	1	1	0	0	0.21676	0.31883	0.35025	0.059152	0.11997	0.078199	0.076404	0.13822	0.27335	0.049319	0.18954	0.28411	0.088661	0.158	0.15233	0.22645	-3.325	-3.4417	-3.1417	-3.8625	-2.8667	-3.3563	-3.7583	-2.7854	-3.7583	-3.3333	-3.1146	-3.7833	-3.0812	-3.0271	-3.7521	-2.8583	132.664	15.257	163.295	166.695	123.605	-31.578	107.731	113.467	0.581	75.039	173.536	173.652	-138.200	-35.729	98.864	19.855	0.0013394	0.0051503	0.0010885	238.27	3.5364e-05	5.2815e-05	438.25	104.88	1.1816e-05	3.7812e-05	211.37	85.023	41.293	20.103	7.6625e-06	43.008	0.017282	0.018114	0.0047551	1852.7	0.00019459	0.0001951	1748.1	531.9	0.0001965	0.00019507	1157.3	320.21	298.5	103.5	0.00018631	150.79	-132.879	-27.835	-30.019	-147.039	167.672	39.425	-146.162	-140.193	-69.990	100.576	-141.309	-138.472	-139.414	-131.228	172.928	-134.509	-8191	255	
7311.856	1	1	0	0	0.010006	0.095915	0.13551	0.19644	0.27168	0.37201	0.13514	0.066793	0.03004	0.069333	0.28179	0.10872	0.19107	0.050256	0.24995	0.15419	-3.2396	-3.5292	-3.0521	-3.85	-3.2646	-3.1604	-3.6875	-2.975	-3.6646	-3.2958	-2.9562	-3.8875	-3.1667	-3.3187	-3.6104	-2.9125	194.626	53.831	129.896	112.363	-25.352	-84.366	78.014	-157.501	-44.419	-85.962	49.059	50.541	132.289	180.597	-69.361	133.040	0.00081278	0.0028715	0.0013003	238.54	3.0142e-05	3.17e-05	433.13	104.65	1.8177e-05	3.6622e-05	208.07	84.153	41.554	20.418	1.3631e-05	42.864	0.017571	0.017611	0.0046768	1876.1	0.00019855	0.00019049	1722.5	540.15	0.0001973	0.00019022	1129	325.2	297.75	100.98	0.00018237	154.41	-83.922	5.610	25.258	-148.476	-126.862	29.646	-145.961	-143.003	27.483	59.459	-141.058	-138.914	-138.387	-131.445	73.489	-135.021	-8191	255	
7311.953	1	1	0	0	0.17834	0.16932	0.19351	0.20991	0.20023	0.013616	0.061894	0.07808	0.061926	0.13293	0.23632	0.17575	0.18089	0.17285	0.042047	0.2146	-3.2062	-3.6	-3.0104	-3.6375	-3.2083	-3.0208	-3.8833	-3.0104	-3.2125	-3.6562	-2.9292	-3.7917	-3.3375	-3.2417	-3.7979	-3.1312	-59.607	-48.655	-40.929	-133.593	44.238	-155.498	162.668	117.742	146.580	156.739	46.055	105.162	93.484	23.154	-16.077	81.835	0.00046006	0.001588	0.0010222	242.52	3.497e-05	1.3115e-05	439.52	106.29	5.5397e-05	3.5293e-05	207.38	84.748	42.248	20.147	1.2141e-05	43.45	0.017403	0.017126	0.0045577	1921.7	0.00019608	0.00018572	1698.4	553.27	0.00019351	0.00018618	1118.7	332.13	292.58	99.084	0.00017914	157.23	-18.835	-99.218	-25.175	-147.561	-15.382	130.810	-146.031	-141.972	59.623	62.095	-142.193	-139.594	-136.191	-131.200	99.149	-134.679	-8191	255	
7312.047	1	1	0	0	0.10524	0.17871	0.037094	0.1986	0.15978	0.13892	0.10216	0.16395	0.20909	0.16002	0.11733	0.29664	0.063951	0.069995	0.074726	0.11758	-3.075	-3.5792	-2.9562	-3.5542	-3.4271	-3.1333	-3.9437	-3.1813	-3.1958	-3.6833	-2.8688	-3.55	-3.6083	-3.15	-3.8458	-3.0792	129.647	-156.725	190.303	47.889	61.676	7.940	200.353	163.084	66.221	65.501	181.364	151.384	-36.902	115.467	-19.688	158.698	0.00080112	0.0015418	0.00062432	237.44	1.8907e-05	3.5005e-05	439.75	105.86	3.5007e-05	3.4456e-05	209.02	84.676	42.426	20.191	3.621e-05	43.392	0.016844	0.016735	0.0045048	1949.4	0.0001898	0.00018099	1694.7	566.42	0.00018802	0.00018345	1128.3	337.84	286.65	97.976	0.00018199	159.61	69.875	-31.413	168.986	-146.666	30.707	43.043	-146.500	-141.010	52.383	59.168	-143.577	-137.869	-136.716	-131.982	-156.135	-133.615	-8191	255	
7312.145	1	1	0	0	0.10502	0.046214	0.13697	0.25301	0.11367	0.012295	0.13329	0.25675	0.14179	0.091893	0.14388	0.024801	0.24123	0.19426	0.11975	0.13371	-2.7313	-3.8937	-3.0792	-3.6396	-3.7208	-3.0042	-3.7229	-3.1271	-3.0333	-3.8729	-3.1167	-3.6896	-3.625	-2.7854	-3.6562	-3.4042	137.530	-128.739	-106.535	89.492	114.738	-54.652	134.955	-146.467	-14.845	136.223	-28.428	7.788	-144.817	-144.454	35.996	-127.622	0.001042	0.0052929	0.0012531	239.36	3.7672e-05	1.7031e-05	442.92	104.5	1.5743e-05	2.5884e-05	207.89	84.195	40.592	19.831	6.555e-05	43.073	0.016355	0.01649	0.0046158	1966.9	0.00018569	0.00017708	1721	565.48	0.00018307	0.00017934	1156.9	335.49	281.96	96.284	0.00018905	159.16	-14.827	-19.450	175.845	-145.342	46.082	72.529	-147.393	-140.023	-7.142	73.795	-144.525	-137.056	-135.961	-131.962	-93.910	-133.344	-8191	255	
7312.239	1	1	0	0	0.030979	0.10317	0.17454	0.19813	0.041673	0.23654	0.25239	0.30711	0.2033	0.023639	0.17382	0.09524	0.122	0.19712	0.054877	0.10725	-2.8063	-3.8917	-2.8875	-3.4813	-3.5208	-3.1312	-4.0521	-3.3	-3.0625	-3.7687	-3.1771	-3.4125	-3.8396	-2.9938	-3.5708	-3.3958	131.794	-86.409	-28.959	31.029	-25.803	-28.572	-124.044	174.928	-27.705	65.387	-16.076	184.708	-146.801	132.899	86.002	-86.721	0.00092998	0.0025628	0.00061468	257.36	1.0346e-05	1.595e-05	437.11	104.49	9.6002e-06	3.3172e-05	202.66	85.407	41.84	19.652	3.0129e-05	43.068	0.016242	0.016297	0.0048297	1950.1	0.00018397	0.00017651	1775.8	560.21	0.00018007	0.0001784	1190.4	330.34	278.21	96.2	0.00019343	156.2	-41.101	56.852	84.604	-144.381	-95.439	68.611	-147.080	-140.209	127.851	-156.347	-143.043	-136.922	-136.108	-132.259	-114.526	-133.296	-8191	255	
7312.335	1	1	0	0	0.24239	0.20078	0.12668	0.21656	0.1836	0.11507	0.064311	0.16502	0.14359	0.20461	0.04083	0.087613	0.14772	0.23075	0.36066	0.15236	-2.6063	-3.7854	-3.275	-3.2771	-3.8979	-2.9375	-3.6875	-3.6333	-2.9979	-3.9	-3.4313	-3.3229	-3.7417	-2.9875	-3.5979	-3.6375	-72.759	194.545	110.016	84.381	133.195	-0.433	-155.182	-99.120	98.587	-67.596	83.600	-86.123	173.257	180.302	-117.162	198.982	0.00018008	0.0030763	0.00077603	245.92	4.3123e-05	2.264e-05	437.62	105.16	2.2022e-05	4.4277e-05	201.97	85.787	41.568	20.061	1.1626e-05	43.457	0.015836	0.01636	0.0049668	1906.4	0.00018159	0.00017901	1813.6	554.55	0.00017982	0.00018362	1225.9	327.42	277.98	99.788	0.00019916	155.68	68.706	195.937	155.809	-145.188	23.398	-140.143	-145.983	-138.410	93.811	-150.179	-143.205	-137.136	-135.368	-132.802	127.092	-133.509	-8191	255	
7312.456	1	1	0	0	0.057634	0.12301	0.12179	0.28392	0.12913	0.10232	0.19332	0.16496	0.16857	0.092968	0.12324	0.055908	0.29857	0.08805	0.1418	0.044936	-2.6	-3.9354	-3.3729	-3.3688	-3.9979	-3.1521	-3.7083	-3.6646	-2.7625	-3.75	-3.5187	-3.1604	-3.9646	-3.2458	-3.5333	-3.6979	-144.642	-84.578	-33.131	182.113	-95.209	110.606	103.598	174.612	60.058	98.339	85.958	178.806	116.013	37.406	67.212	109.145	0.00048555	0.0056641	0.00046012	240.69	3.524e-05	8.5094e-05	436.97	104.88	1.4582e-05	4.2694e-05	207.42	83.835	41.451	19.588	2.7395e-05	43.222	0.015903	0.01713	0.0050927	1901.3	0.00018207	0.00018885	1824.7	549.16	0.00017779	0.00019156	1223	323.89	274.75	102.93	0.00019573	154.13	-124.558	140.916	24.759	-143.841	-25.001	185.902	-145.203	-139.403	-144.232	189.856	-140.207	-137.320	-136.098	-133.737	120.311	-133.790	-8191	255	
7312.552	1	1	0	0	0.042996	0.088565	0.13011	0.29529	0.25247	0.027395	0.19254	0.063451	0.0954	0.053855	0.28462	0.047651	0.18297	0.1485	0.059909	0.24334	-2.4667	-3.6937	-3.3063	-3.1354	-4.1229	-3.2208	-3.5021	-3.8063	-2.975	-3.6562	-3.5479	-3.3125	-3.9	-3.2062	-3.2562	-3.7958	-28.563	-64.620	-74.908	197.650	73.864	22.256	88.350	93.796	-47.995	-71.950	125.321	85.431	66.636	69.494	83.361	195.983	0.00014516	0.0039186	0.0010039	241.57	1.4637e-05	4.2268e-05	426.06	105.92	3.2934e-05	6.9338e-05	209.17	82.654	41.246	19.483	4.2803e-05	42.926	0.015749	0.017721	0.0050012	1872.2	0.00018011	0.00019551	1793.9	544.18	0.00017894	0.00019717	1203.3	320.58	278.26	105.91	0.00019239	152.83	-151.568	162.289	-31.172	-146.402	5.209	190.097	-144.481	-138.984	-141.403	199.421	-140.569	-137.242	-135.794	-133.034	83.871	-132.718	-8191	255	
7312.648	1	1	0	0	0.21188	0.24333	0.040408	0.2957	0.042896	0.14359	0.12921	0.20643	0.14974	0.15592	0.0045332	0.27037	0.26095	0.16985	0.14786	0.099392	-2.4979	-3.7771	-3.6229	-2.9021	-3.7687	-3.0396	-3.2896	-3.7646	-3.0458	-3.6771	-3.5146	-3.0833	-3.9479	-3.1875	-3.2792	-4.0646	62.048	171.269	169.924	108.375	18.700	-152.137	-31.344	24.768	-52.420	72.402	36.585	88.252	16.192	-121.541	184.324	173.865	0.0019117	0.0031788	0.0012985	242.65	4.7889e-05	1.8684e-05	430.44	104.47	4.0326e-05	2.3371e-05	206.01	85.266	40.892	19.903	1.3339e-05	42.792	0.016067	0.018153	0.0049082	1849	0.00018398	0.00019973	1757.3	538.83	0.00018411	0.00019994	1184.6	317.22	284.11	106.16	0.00018736	150.77	-110.457	139.301	-27.183	-146.019	-146.779	38.794	-145.421	-138.853	-131.054	156.998	-140.284	-137.545	-139.420	-131.778	72.834	-133.143	-8191	255	
7312.745	1	1	0	0	0.26172	0.078079	0.10778	0.1121	0.17097	0.14592	0.14477	0.10646	0.17096	0.026646	0.15521	0.29473	0.10775	0.30081	0.17874	0.13263	-2.6875	-3.6375	-3.5458	-2.8688	-4.0021	-3.3312	-3.2021	-3.8729	-2.7833	-3.45	-3.5146	-3.0687	-3.7188	-3.4396	-2.95	-3.9188	146.072	-4.334	-100.159	-54.639	101.759	13.839	138.643	-111.968	6.634	-80.700	14.361	-155.032	-114.777	170.319	163.580	-65.495	0.00090898	0.0038119	0.00068765	241.81	4.8833e-05	3.485e-05	432.43	104.2	3.2725e-05	3.4827e-05	203.76	86.042	41.249	20.239	4.1605e-05	42.592	0.016555	0.017916	0.0047747	1807.8	0.00018921	0.00019684	1735.7	531.13	0.00019137	0.0001971	1174.4	316.89	296.68	105.98	0.00018717	151.99	-138.517	-114.525	29.272	-145.838	-136.816	41.141	-145.545	-139.761	-107.574	47.279	-141.140	-137.411	-137.954	-130.596	12.699	-134.060	-8191	255	
7312.841	1	1	0	0	0.18337	0.26576	0.28257	0.20732	0.22289	0.12561	0.16643	0.076068	0.10576	0.052093	0.10926	0.061942	0.13604	0.14708	0.1254	0.18131	-2.8521	-3.5	-3.85	-3.0125	-3.8896	-3.4958	-3.1292	-3.8187	-2.9938	-3.2208	-3.8937	-2.9771	-3.6792	-3.4604	-2.9354	-3.8208	125.562	-113.472	-44.931	-113.191	78.299	-58.498	140.941	152.231	184.009	-64.804	-85.664	30.017	-49.351	124.077	137.956	144.285	0.00064779	0.0075938	0.00075757	239.37	4.4706e-05	1.6546e-05	435.6	106.69	1.8303e-05	6.19e-05	209.9	82.926	40.822	19.944	3.5367e-05	42.83	0.017491	0.017951	0.0048311	1852.7	0.00019933	0.0001979	1739.7	545.97	0.00020231	0.00019751	1185.7	325.67	307.83	106.52	0.00018949	157.66	-151.999	-64.635	-45.408	-146.526	-138.157	50.797	-145.016	-140.562	-144.724	30.028	-141.986	-138.400	-135.728	-130.987	70.615	-134.120	-8191	255	
7312.937	1	1	0	0	0.13444	0.15661	0.062908	0.11482	0.13852	0.12159	0.0090829	0.31436	0.23847	0.13232	0.028421	0.12559	0.14696	0.12134	0.27352	0.23997	-2.6396	-2.9771	-3.6875	-2.8625	-3.6688	-3.6167	-2.8708	-3.7229	-3.3396	-3.2417	-3.8146	-2.9896	-3.625	-3.6708	-3.0854	-3.9479	-150.043	80.416	39.796	-85.738	-68.369	-122.634	-159.479	116.393	136.384	-101.748	21.845	102.964	-135.619	-119.719	-76.986	156.479	0.00082583	0.0037784	0.00071639	237.89	5.1288e-05	7.5448e-06	431.62	106.36	1.409e-05	5.8165e-05	205.37	82.949	42.377	20.224	5.1261e-05	43.365	0.018397	0.01806	0.0048992	1951.8	0.00020765	0.00019876	1749	567.73	0.00020581	0.00019502	1180.8	337	308.83	105.02	0.00018676	162.04	171.606	-109.398	-31.803	-148.937	71.899	174.088	-145.756	-142.402	89.650	84.511	-141.843	-139.050	-136.409	-131.098	95.306	-134.202	-8191	255	
7313.056	1	1	0	0	0.1173	0.14792	0.32348	0.073714	0.30728	0.15566	0.09346	0.12462	0.025331	0.13633	0.1325	0.11514	0.16201	0.13118	0.23314	0.078651	-2.9646	-3.1833	-3.7875	-3.0396	-3.4125	-3.8479	-3.1146	-3.8875	-3.4	-3.275	-3.7792	-3.3479	-3.55	-3.7125	-2.9042	-3.7604	63.981	-112.239	21.765	-55.061	196.891	-91.475	-134.189	-13.529	179.924	155.819	84.566	127.701	151.689	-92.130	-114.306	-129.525	0.00072877	0.0029623	0.00084759	240.8	5.6615e-05	3.5586e-05	427.34	105.22	4.671e-05	3.5783e-05	208.06	85.295	41.577	20.402	1.7388e-05	43.59	0.018259	0.017729	0.0048222	2021.2	0.00020357	0.00019631	1739.9	587.85	0.00020405	0.00019393	1181.6	350.59	305.11	104.98	0.00018919	167.01	-82.213	-53.029	-52.891	-148.196	42.024	3.435	-145.682	-141.203	67.407	124.783	-141.754	-138.842	-134.954	-130.409	-90.093	-133.382	-8191	255	
7313.152	1	1	0	0	0.10928	0.098821	0.0023583	0.10053	0.21819	0.056894	0.046354	0.19851	0.10656	0.15104	0.043903	0.042419	0.20666	0.26608	0.13451	0.42423	-3.1146	-2.8583	-3.8042	-2.9562	-3.425	-3.8708	-3.0417	-3.7271	-3.5146	-2.9583	-3.9313	-3.3833	-3.3771	-3.7646	-3.2833	-3.6417	94.527	-9.949	191.677	-40.013	-86.586	-111.229	-51.506	139.501	184.593	175.631	135.922	168.750	182.164	155.546	82.311	175.031	0.00084146	0.00080873	0.00069169	248.88	5.7987e-05	3.7291e-05	438.13	105.77	1.1615e-05	1.6148e-05	208.45	84.853	41.601	20.133	5.2434e-05	43.052	0.017958	0.017582	0.0048961	2082.8	0.00020032	0.00019347	1769.6	596.15	0.00019935	0.00018945	1201	352.96	296.56	102.67	0.00019362	166.83	29.999	28.771	-146.144	-147.324	22.561	6.573	-147.976	-139.877	-10.358	141.770	-142.816	-137.251	-134.332	-129.585	-81.089	-132.699	-8191	255	
7313.248	1	1	0	0	0.14002	0.13974	0.094488	0.21791	0.11145	0.11406	0.12589	0.20881	0.086117	0.16346	0.25324	0.15063	0.22853	0.14597	0.17614	0.053449	-3.3167	-3.1583	-3.9583	-3.1729	-3.1979	-4.0042	-3.0729	-3.5854	-3.7125	-3.0083	-3.8708	-3.4271	-3.2958	-3.9708	-3.0583	-3.5563	81.939	-140.165	-141.397	69.079	124.371	-7.944	153.929	85.447	17.266	13.104	132.754	72.206	128.641	198.036	129.796	137.069	0.00058184	0.0013221	0.0014008	245.5	3.5296e-05	2.3151e-05	430.61	105.9	3.0152e-05	3.2727e-05	206.78	85.347	40.861	19.483	2.7048e-05	43.805	0.017455	0.017164	0.0050028	2082.4	0.00019494	0.0001898	1813.3	592.16	0.00019475	0.0001873	1235.4	351.32	293.15	102.08	0.00020233	165.58	-8.453	34.225	179.321	-144.560	102.821	36.148	-146.398	-139.193	87.728	-49.803	-143.636	-136.389	-135.223	-130.483	-141.063	-132.735	-8191	255	
7313.344	1	1	0	0	0.19629	0.12264	0.14043	0.26136	0.086407	0.30341	0.048106	0.24465	0.18116	0.20744	0.10265	0.064903	0.33313	0.14204	0.12659	0.16208	-3.3958	-2.925	-3.8042	-3.4354	-2.9458	-3.7917	-3.1937	-3.25	-3.8708	-2.9083	-3.5646	-3.5771	-3.1125	-3.9437	-3.1708	-3.5208	-75.065	173.176	21.585	174.251	-11.631	-67.151	49.062	-85.780	-68.526	150.002	-7.610	125.492	75.332	74.840	-134.967	-28.447	0.00038621	0.0025963	0.0016545	244.21	5.2295e-05	1.9823e-05	435.68	107.41	3.369e-05	2.1989e-05	211.01	85.607	42.836	19.644	1.9393e-05	43.88	0.017288	0.017108	0.0051979	2043.5	0.00019112	0.00018779	1862.8	581.31	0.0001922	0.00018727	1267.3	345.24	289.04	102.66	0.00020684	161.7	51.291	-91.028	162.278	-142.751	59.546	90.677	-146.832	-139.191	113.269	-17.516	-143.755	-136.147	-134.900	-132.744	172.327	-132.494	-8191	255	
7313.440	1	1	0	0	0.21016	0.32548	0.14996	0.045743	0.16157	0.089343	0.11483	0.12815	0.26234	0.26616	0.16397	0.19119	0.20581	0.38424	0.10354	0.22378	-3.3208	-2.9062	-3.5896	-3.6417	-3.0375	-3.9729	-3.0438	-3.0958	-3.6479	-2.9604	-3.6104	-3.6937	-3.0208	-3.9646	-3.4958	-3.3271	-113.342	-128.242	-31.103	167.286	-17.063	52.414	123.941	97.869	112.621	-25.501	-89.153	-93.904	65.087	106.094	-124.309	97.896	0.00066414	0.0023122	0.00066072	243.16	3.3491e-05	4.8733e-05	440.01	107.95	2.9354e-05	4.2951e-05	210.36	85.629	43.419	19.701	2.0302e-05	44.259	0.016882	0.017259	0.005273	1999.6	0.00018754	0.00019242	1888.2	569.89	0.00018897	0.00019283	1270.4	338.04	282.14	104.3	0.00020578	158.3	-61.563	-125.743	-92.339	-144.335	-76.639	-154.283	-145.558	-140.269	71.047	-157.279	-141.533	-136.481	-134.935	-132.463	43.755	-132.143	-8191	255	
7313.536	1	1	0	0	0.0594	0.042293	0.11507	0.07128	0.1319	0.15014	0.24389	0.07852	0.056839	0.16705	0.20011	0.21881	0.04253	0.073617	0.10891	0.28258	-3.4313	-3.0021	-3.5271	-3.4583	-2.8521	-3.5333	-3.4	-3.0542	-4.0042	-3.1875	-3.4208	-3.8125	-3.1083	-3.8167	-3.4938	-3.2	198.623	83.702	-78.121	137.194	20.026	1.866	-35.109	202.446	-145.365	-119.288	70.904	64.379	-47.507	25.156	-140.930	-71.570	0.00050064	0.0067316	0.00070411	245.83	2.4785e-05	3.1527e-05	437.98	105.91	2.0391e-05	3.4565e-05	206.89	85.58	41.281	20.09	2.6441e-05	43.08	0.016492	0.017749	0.0051908	1947.2	0.00018342	0.00019694	1862.4	555.47	0.00018452	0.00019797	1243.3	332.6	279.75	107.06	0.00020067	155.44	-70.362	152.170	3.121	-145.299	83.417	-133.385	-145.157	-138.992	-97.772	198.865	-139.728	-137.097	-135.229	-131.892	198.647	-132.726	-8191	255	
7313.633	1	1	0	0	0.29895	0.2219	0.12472	0.22432	0.11829	0.19034	0.29926	0.16465	0.27009	0.28146	0.23576	0.090849	0.26887	0.18619	0.11843	0.1148	-3.6063	-3.2208	-3.5542	-3.8187	-3.0542	-3.7417	-3.4104	-2.9854	-3.7979	-3.0583	-3.2375	-3.5875	-3.0229	-3.5958	-3.4375	-3.1729	-52.297	-52.765	-40.853	41.082	-79.818	-45.309	89.272	28.207	49.838	179.430	19.156	188.326	115.077	149.401	-89.168	-4.849	0.00051474	0.002933	0.00099009	243.51	4.6992e-05	2.8097e-05	442.78	105.49	2.2902e-05	9.2644e-05	206.64	86.746	41.015	19.902	2.9001e-05	43.858	0.016322	0.018249	0.0050364	1916	0.00018228	0.00020099	1815.2	547.05	0.0001851	0.00020282	1210.9	328.09	281.79	108.37	0.00019622	153.58	-22.940	178.060	26.797	-143.767	183.744	-136.355	-144.292	-138.553	-86.721	-111.614	-140.570	-136.729	-137.027	-131.896	47.790	-133.236	-8191	255	
7313.729	1	1	0	0	0.22136	0.23438	0.16732	0.061326	0.14444	0.092175	0.12867	0.27034	0.14332	0.19781	0.30569	0.14709	0.16805	0.12548	0.17615	0.20835	-3.5625	-3.2792	-3.3187	-3.8229	-2.9833	-3.6417	-3.7646	-3.1667	-3.6792	-3.4292	-3.2313	-3.6063	-3	-3.4062	-3.6854	-2.8771	-50.308	125.689	-89.300	-113.084	152.724	-155.239	188.051	164.559	-91.344	-45.546	154.451	-30.466	127.555	-12.347	-111.132	190.037	0.0012713	0.0038886	0.0012626	244.35	6.0558e-05	2.7587e-05	442.1	106.39	4.8292e-05	1.1411e-06	213.5	85.07	41.824	20.11	4.2144e-05	44.116	0.016708	0.018587	0.004938	1898.6	0.00018999	0.00020458	1804.6	543.33	0.00019274	0.00020473	1200.9	325.64	293.82	108.59	0.00019426	153.64	-110.832	-89.679	3.081	-145.197	-117.683	50.216	-144.591	-140.078	-103.858	-135.192	-141.110	-136.905	-138.879	-131.451	50.245	-132.459	-8191	255	
7313.825	1	1	0	0	0.12183	0.067224	0.19391	0.19123	0.14354	0.23498	0.11245	0.1613	0.26079	0.13672	0.079426	0.27363	0.089763	0.18723	0.24767	0.13623	-3.3896	-3.4417	-3.1146	-3.6625	-3.1583	-3.6063	-3.9271	-3.0333	-3.7979	-3.6104	-3.2	-3.9125	-3.1208	-3.2938	-3.6813	-3.0167	188.079	-133.838	58.985	-3.347	112.950	-137.353	202.215	-55.532	151.496	-119.236	83.087	156.780	-18.396	177.217	-149.229	-139.030	0.0012987	0.00061847	0.00095583	250.28	5.1892e-05	1.4687e-05	444.39	106.7	3.5923e-05	2.1099e-05	209.64	85.102	41.718	20.528	1.9351e-05	44.29	0.017548	0.01874	0.0049282	1905.9	0.00019886	0.00020311	1802.1	545.22	0.00020115	0.00020313	1191	327.58	304.6	107.21	0.00019297	154.19	-118.333	-1.942	-18.954	-144.421	-138.270	98.531	-145.197	-139.616	-140.183	21.890	-141.325	-138.272	-135.874	-130.635	103.803	-134.309	-8191	255	
7313.944	1	1	0	0	0.19508	0.083346	0.17655	0.22749	0.1227	0.14013	0.11839	0.11889	0.089033	0.064932	0.094207	0.11405	0.056501	0.20289	0.13598	0.021644	-3.325	-3.4938	-3.1729	-3.8396	-3.2062	-3.3937	-3.8417	-2.9958	-3.8771	-3.4188	-2.8667	-3.8646	-3.1583	-3.5354	-3.9333	-3.0458	164.127	57.656	-32.549	168.358	16.312	-5.391	-55.307	-28.223	-121.231	164.424	40.274	177.114	-107.979	163.152	-109.648	4.540	0.00067539	0.0089674	0.00037905	237.13	3.6095e-05	4.9181e-05	429.99	106.18	1.2255e-05	0.00010866	212.9	85.37	42.63	20.136	2.2852e-05	43.713	0.018042	0.018203	0.0048333	1911.8	0.00020411	0.00019722	1772.4	550.66	0.00020557	0.00020002	1185.6	334.6	312.62	106.09	0.00019211	159.18	201.006	-32.413	-56.217	-147.839	163.156	32.420	-145.068	-140.641	150.595	38.771	-141.129	-138.829	-136.621	-130.471	-3.432	-134.357	-8191	255	
7314.040	1	1	0	0	0.14912	0.12999	0.17208	0.2019	0.18192	0.2558	0.13654	0.23506	0.09301	0.14612	0.31396	0.13587	0.19825	0.21063	0.1005	0.25401	-3.0792	-3.4771	-2.9729	-3.9	-3.275	-3.1437	-3.8458	-3.2229	-3.4792	-3.6729	-2.8812	-3.7708	-3.1813	-3.1	-3.9292	-3.0167	56.095	62.481	16.707	-88.657	128.422	24.091	138.485	173.654	-136.732	-16.223	138.294	-130.290	-3.732	-41.798	110.162	141.973	0.0012491	0.0021999	0.00098497	231.81	2.6022e-05	2.3551e-05	440.64	105	6.6122e-05	3.972e-05	210.8	84.252	41.452	20.333	3.2042e-05	43.821	0.018438	0.018109	0.0047974	1979.6	0.00020609	0.00019533	1761.2	572.3	0.00020446	0.00019651	1168.1	344.21	308.8	104.35	0.0001897	163.57	-59.711	-11.617	-3.501	-145.963	58.043	-13.671	-145.787	-141.823	19.289	87.255	-141.231	-138.706	-135.831	-131.290	9.310	-134.114	-8191	255	
7314.138	1	1	0	0	0.051378	0.12865	0.14005	0.14571	0.28867	0.1891	0.10994	0.20774	0.22042	0.12029	0.13348	0.072556	0.083739	0.28331	0.27948	0.14765	-3.1021	-3.6562	-2.8708	-3.7042	-3.4333	-3.0438	-3.8021	-3.0312	-3.3708	-3.8063	-3.1063	-3.8229	-3.5062	-3.2	-3.9292	-3.3958	-127.227	-139.604	173.582	-156.235	8.188	-79.496	193.883	45.449	10.923	-135.662	164.873	199.535	-85.077	101.909	40.857	173.604	0.00061508	0.0030535	0.00074905	241.97	2.9499e-05	4.4803e-05	434.46	104.83	6.0741e-05	4.154e-05	208.52	86.249	42.93	20.563	3.5539e-05	43.874	0.017966	0.017789	0.004775	2045.9	0.00020298	0.00019263	1761	589.67	0.00020087	0.00019377	1173.9	350.83	301.23	102.4	0.00019	166.12	23.857	-151.712	29.635	-146.386	76.340	54.380	-145.580	-140.239	40.774	-18.711	-142.092	-138.162	-135.981	-130.798	-76.643	-133.133	-8191	255	
7314.232	1	1	0	0	0.37323	0.18833	0.065495	0.20608	0.051106	0.14291	0.1877	0.066997	0.053593	0.16235	0.063563	0.12249	0.14927	0.12526	0.092627	0.07044	-3.0896	-3.775	-3.0187	-3.6437	-3.4979	-2.9646	-3.9729	-3.1458	-3.0896	-3.7979	-2.825	-3.575	-3.5438	-2.8625	-3.825	-3.4813	183.805	-146.405	-109.803	-90.482	199.178	98.564	118.051	99.642	38.106	128.947	10.611	-61.474	-140.647	140.889	-3.648	177.682	0.0011796	0.0013062	0.001807	237.7	3.4149e-05	4.4994e-05	437.77	106.75	3.5532e-05	1.7276e-05	205.6	86.152	41.948	19.801	7.4264e-05	44.318	0.01739	0.017344	0.0047949	2059	0.00019539	0.0001871	1765.9	586.87	0.00019122	0.00018684	1180.9	347.04	290.19	99.253	0.0001915	162.99	31.378	-5.436	176.808	-145.474	31.719	-33.314	-145.959	-139.668	66.536	3.663	-144.316	-135.991	-134.373	-131.170	-59.020	-132.384	-8191	255	
7314.328	1	1	0	0	0.16998	0.11818	0.31606	0.089663	0.22941	0.19692	0.03603	0.13029	0.18212	0.27774	0.21141	0.032791	0.26725	0.22758	0.042224	0.16936	-2.8375	-3.9292	-3.0458	-3.5229	-3.4833	-2.9562	-3.7562	-3.3583	-3.0917	-3.8625	-2.9542	-3.3896	-3.6958	-3.0187	-3.7604	-3.5312	-43.334	-14.356	138.607	166.827	172.483	166.755	13.449	-23.659	72.289	57.408	198.083	11.936	185.079	146.524	71.454	122.715	0.00066429	0.0056777	0.00079261	243.66	3.6076e-05	2.6376e-05	438.5	107.15	3.768e-05	3.8464e-05	207.35	86.054	42.347	20.074	4.5949e-06	44.292	0.016668	0.016698	0.0048914	2003.2	0.00018904	0.00018088	1801.6	576.68	0.00018696	0.00018323	1211.3	338.93	285.08	98.309	0.00019699	160.14	24.771	-101.705	183.546	-144.077	-9.808	10.739	-145.581	-138.307	-4.197	71.079	-142.578	-136.926	-135.044	-131.891	-60.664	-132.525	-8191	255	
7314.425	1	1	0	0	0.15642	0.23735	0.17877	0.054847	0.19118	0.040127	0.16139	0.14376	0.28502	0.16572	0.20291	0.23572	0.10734	0.17554	0.066873	0.13129	-2.6792	-3.8042	-3.1167	-3.3917	-3.5708	-2.9729	-3.9229	-3.3688	-2.7812	-3.7375	-3.1375	-3.3708	-3.6396	-2.9062	-3.5	-3.4146	-11.665	123.286	185.233	-37.176	-50.137	-19.127	35.891	172.430	-20.318	-24.531	-14.956	196.217	-111.721	18.831	-66.540	140.775	0.00047322	0.0032106	0.001519	250.59	3.9655e-05	2.8095e-05	434.47	108.54	3.6174e-05	7.6472e-05	208.88	84.905	42.311	20.219	2.3891e-05	44.597	0.01629	0.016597	0.0050164	1952.5	0.00018526	0.00018148	1830.7	565	0.00018316	0.0001847	1236.2	332.95	280.26	99.663	0.00019976	157.36	-142.911	-12.632	175.114	-143.167	-60.085	-151.979	-146.733	-139.713	-48.378	-151.013	-142.435	-136.534	-135.266	-132.005	-150.248	-132.460	-8191	255	
7314.545	1	1	0	0	0.13461	0.14391	0.25602	0.13164	0.22928	0.16235	0.228	0.18813	0.013962	0.14721	0.030098	0.042932	0.11478	0.2867	0.12651	0.088001	-2.6271	-3.6354	-3.1063	-3.1729	-3.7771	-2.9771	-3.5833	-3.6875	-2.9521	-3.7875	-3.1479	-3.3458	-3.8396	-3.1896	-3.6958	-3.7417	-130.545	188.605	199.226	-114.989	-62.431	71.805	109.659	111.348	79.820	164.394	-137.690	138.731	-34.995	4.274	-50.153	-17.809	0.00039663	0.003885	0.00030413	253.28	7.0824e-05	5.489e-06	438.78	106.87	2.7465e-05	8.0903e-05	212.31	86.75	41.995	20.296	3.3268e-05	43.874	0.016015	0.016931	0.005057	1894.9	0.00018093	0.00018432	1817.7	547.16	0.00017691	0.00018679	1221	324.07	275.01	101.94	0.00019626	154.71	26.117	164.326	162.122	-144.411	57.020	-105.822	-145.795	-138.648	21.850	-151.399	-141.514	-137.540	-136.073	-132.822	-19.685	-133.703	-8191	255	
7314.641	1	1	0	0	0.16121	0.16596	0.082906	0.28544	0.13735	0.097485	0.17758	0.057028	0.19064	0.21508	0.095803	0.070186	0.094151	0.092278	0.10632	0.1023	-2.6125	-3.7875	-3.45	-3.1688	-3.9729	-3.1583	-3.3458	-3.5812	-3.0271	-3.8458	-3.5667	-3.1667	-3.8625	-3.2708	-3.4958	-3.775	-82.728	-18.811	-11.973	-53.752	76.073	7.906	134.999	177.453	95.624	-16.670	124.555	-122.581	53.788	-153.776	-119.134	131.278	0.00049792	0.0092322	0.0012297	239.09	2.638e-05	4.0727e-05	441.98	105.29	2.585e-05	6.6168e-05	204.68	84.999	41.384	19.929	5.6428e-05	43.491	0.015705	0.017466	0.0050021	1877.8	0.0001789	0.00019213	1793.4	543.87	0.00017696	0.00019555	1207.9	322.53	276.82	105.58	0.00019489	154.63	-27.360	126.531	-40.388	-146.402	158.417	-153.388	-144.352	-140.686	38.935	-108.865	-141.781	-136.652	-137.493	-132.402	44.773	-133.029	-8191	255	
7314.737	1	1	0	0	0.12855	0.28568	0.27273	0.077651	0.04275	0.16511	0.10975	0.16039	0.13573	0.11065	0.089479	0.031438	0.078182	0.27942	0.049996	0.12354	-2.3542	-3.6	-3.2792	-2.8979	-3.8667	-3.275	-3.2708	-3.8417	-2.8125	-3.4875	-3.3042	-3.0146	-4.0188	-3.3396	-3.3792	-3.9688	-111.604	48.832	192.517	52.604	-112.384	-122.666	162.011	-154.466	-118.265	157.909	159.984	156.775	-116.830	149.437	70.343	-32.089	0.0012169	0.0061168	0.0010646	249.76	6.1055e-05	5.0912e-05	435.14	107.32	3.8191e-05	4.7522e-06	208.09	86.39	41.864	20.151	4.1011e-05	43.656	0.016055	0.018192	0.0049813	1874.2	0.00018523	0.00020109	1789.9	546.95	0.00018522	0.00020333	1211.2	324.89	288.64	108.86	0.0001938	155.23	-135.445	167.385	-39.460	-144.930	-125.278	155.180	-145.847	-139.174	188.813	42.276	-140.881	-137.653	-138.708	-131.466	76.987	-133.613	-8191	255	
7314.834	1	1	0	0	0.074764	0.10932	0.27206	0.19938	0.15127	0.15999	0.28514	0.08762	0.025135	0.059717	0.36387	0.19255	0.11655	0.22234	0.08876	0.15733	-2.7021	-3.5792	-3.6271	-2.9479	-3.8958	-3.4021	-3.3604	-3.8688	-3.1813	-3.5	-3.5458	-2.9	-3.775	-3.2396	-3.1583	-3.9354	9.625	-95.292	98.107	58.678	-64.592	8.539	41.894	-153.390	-37.480	115.825	27.316	-111.902	138.793	-36.309	-26.869	88.425	0.0016226	0.0046271	0.0003895	233.1	3.6148e-05	3.7e-06	436.09	108.99	6.9501e-05	3.9398e-05	214.22	85.473	41.398	20.121	2.6457e-05	44.503	0.016909	0.018654	0.0049593	1877.1	0.00019324	0.00020456	1783.7	548.57	0.00019534	0.00020431	1208.3	324.06	300.89	108.79	0.00019229	154.51	-156.667	-46.764	110.956	-146.532	195.272	42.671	-144.950	-139.965	-90.730	70.678	-143.318	-137.246	-137.887	-130.862	56.770	-133.324	-8191	255	
7314.930	1	1	0	0	0.095239	0.11959	0.18957	0.21363	0.053009	0.19224	0.26691	0.11369	0.16161	0.29988	0.23818	0.21784	0.060691	0.0059032	0.27446	0.098404	-2.8396	-3.6354	-3.975	-3.0083	-3.8229	-3.4125	-3.2271	-3.775	-3.1083	-3.525	-3.8563	-2.9688	-3.8042	-3.4333	-2.9	-3.7479	89.639	142.062	-87.991	109.559	52.642	-42.961	-141.997	46.893	73.526	73.829	2.327	-157.785	-21.801	-86.438	114.440	-34.951	0.0016297	0.0047711	0.00033582	232.66	3.1696e-05	4.9387e-05	433.51	105.72	3.5258e-05	2.8513e-05	208.89	84.632	42.304	20.459	6.4955e-05	43.513	0.017613	0.018302	0.0049032	1866.4	0.00020051	0.00020002	1749.2	541.92	0.00019931	0.0001963	1175.2	320.78	301.18	104.39	0.00018398	152.84	-131.896	-38.534	57.438	-145.977	-133.523	-8.911	-144.821	-140.820	185.557	-4.079	-140.696	-138.453	-138.390	-131.137	89.338	-134.074	-8191	255	
7315.024	1	1	0	0	0.13982	0.10124	0.22802	0.15748	0.10683	0.1824	0.2807	0.23262	0.092239	0.21972	0.044879	0.19501	0.052137	0.27147	0.15948	0.025052	-2.7167	-3.3667	-3.7167	-3.0521	-3.5958	-3.7208	-3.1083	-3.7	-3.3208	-3.2271	-3.8063	-2.9875	-3.4771	-3.5042	-2.8375	-3.8604	197.836	-138.640	125.947	-149.140	-98.208	-106.891	-122.806	179.958	-75.953	-66.179	-109.824	137.467	153.130	-152.490	132.079	191.954	0.00094505	0.0026202	0.00090746	239.53	1.8223e-05	2.6899e-05	429.83	106.18	3.4107e-05	5.7012e-05	209.19	83.395	41.991	20.606	2.4144e-05	43.931	0.017489	0.017317	0.0046546	1845.4	0.00019539	0.00018858	1686.7	539	0.00019575	0.00018644	1132.6	322.52	295.47	101.02	0.0001775	154.36	-142.223	-17.885	-38.168	-149.490	124.751	7.684	-145.782	-141.286	-42.888	69.660	-140.742	-138.893	-136.641	-130.999	37.221	-133.625	-8191	255	
7315.120	1	1	0	0	0.19913	0.10246	0.087577	0.30285	0.10108	0.083603	0.25098	0.36162	0.21469	0.043285	0.078752	0.16439	0.15539	0.053757	0.10222	0.06526	-2.7417	-2.8833	-3.7375	-3.0229	-3.4646	-3.5042	-2.8583	-3.6188	-3.1437	-3.0458	-3.8312	-3.0583	-3.2896	-3.5812	-2.8479	-3.7792	20.493	-67.860	-81.638	10.167	-90.232	65.971	134.910	101.383	-149.199	-50.921	-121.655	194.824	87.507	-64.362	168.205	46.068	0.00030506	0.0010976	0.00075576	235.29	9.6964e-06	5.1941e-05	433.34	106.34	5.9478e-05	3.524e-05	208.92	86.626	42.033	20.424	3.554e-05	44.709	0.017199	0.016663	0.0045569	1891.8	0.00019274	0.00018439	1663.8	554.36	0.00019316	0.00018346	1123.2	332.85	290.04	99.984	0.00017708	159.09	74.112	-11.202	-5.716	-147.619	7.142	52.083	-145.877	-141.082	61.247	35.555	-141.398	-138.451	-134.343	-130.581	-53.382	-133.762	-8191	255	
7315.241	1	1	0	0	0.28263	0.16729	0.29128	0.1524	0.09979	0.25351	0.18794	0.14343	0.098755	0.43601	0.10653	0.23988	0.29999	0.18399	0.14963	0.29637	-2.9875	-2.9771	-3.6771	-2.9583	-3.4729	-3.8042	-2.9396	-3.7708	-3.6188	-3.0667	-3.9688	-3.1729	-3.4125	-3.7604	-3.0062	-3.6292	126.460	-121.303	34.367	75.437	148.531	-47.906	96.396	89.071	154.089	-117.435	64.178	153.609	-2.833	29.148	4.321	164.124	0.00059527	0.003283	0.00066346	236.95	4.6361e-05	2.9832e-05	434.11	106.81	2.2816e-05	5.8899e-05	204.68	85.293	42.264	20.194	4.6683e-05	44.197	0.016854	0.016489	0.0045513	1945.2	0.00018779	0.00018173	1673.2	564.13	0.00018733	0.00017985	1138.5	339.59	286.17	99.483	0.00018288	161.85	15.711	-102.813	144.705	-145.681	-33.283	40.730	-145.828	-140.549	119.503	10.714	-142.861	-137.325	-136.833	-129.914	-102.023	-133.104	-8191	255	
7315.337	1	1	0	0	0.17779	0.066484	0.25163	0.21635	0.23128	0.047202	0.16523	0.14489	0.15769	0.018675	0.11357	0.12018	0.20716	0.19731	0.048965	0.14877	-3.3104	-2.8312	-3.6646	-3.0375	-3.1125	-3.7208	-3.05	-3.6	-3.625	-3.1417	-3.8	-3.4083	-3.0792	-3.9625	-2.8792	-3.4458	61.344	170.477	-67.118	200.423	-39.505	-37.678	-98.294	27.535	-110.685	132.298	-135.579	122.133	-4.268	-33.060	10.594	75.069	0.00087	0.0082086	0.0014728	239.99	1.4357e-05	1.3152e-05	435.72	106.91	3.5146e-05	5.7926e-05	209.88	86.215	43.574	20.12	6.4454e-05	43.882	0.016783	0.016436	0.0047479	1995.7	0.00018636	0.00018205	1738.2	575.24	0.00018832	0.00018076	1188.4	344.28	286.77	100.13	0.00019463	163.36	23.706	-61.607	182.714	-143.768	-98.535	44.808	-146.629	-139.062	54.567	27.622	-143.891	-137.391	-136.125	-132.144	-106.218	-132.849	-8191	255	
7315.409	1	1	0	0	0.10043	0.15502	0.11991	0.038041	0.11869	0.179	0.27009	0.091852	0.13053	0.15486	0.084545	0.11504	0.18662	0.15043	0.35066	0.19883	-3.1708	-2.6104	-3.7771	-3.4437	-3.0708	-3.6958	-3.2271	-3.2625	-3.4354	-2.8667	-3.6604	-3.4938	-3.1729	-3.8104	-3.0896	-3.3104	60.046	-106.019	-65.802	16.554	-8.593	23.609	188.249	79.124	-9.343	-102.274	172.649	11.975	-110.576	-113.077	-52.352	64.136	9.9232e-05	0.0024171	0.0018568	242.6	4.3306e-05	4.2087e-05	427.19	106.54	1.2135e-05	3.7165e-05	212.38	86.847	41.269	20.441	3.6019e-05	44.457	0.016878	0.016686	0.0050525	2027.8	0.00018876	0.00018582	1825.3	576.89	0.00018975	0.00018395	1241.5	342.72	284.94	100.63	0.00020206	160.86	154.717	0.089	200.505	-145.103	68.397	-79.169	-147.398	-140.008	41.566	173.470	-142.498	-137.454	-134.290	-132.039	-155.342	-132.274	-8191	255	
7315.505	1	1	0	0	0.12731	0.099186	0.19711	0.063764	0.29506	0.13268	0.21382	0.23737	0.14716	0.26835	0.14465	0.066413	0.15256	0.099279	0.022122	0.10816	-3.5542	-2.9437	-3.6771	-3.6688	-2.95	-3.85	-3.0417	-3.1937	-3.7188	-3.0083	-3.8042	-3.4583	-3.0271	-3.9167	-3.2354	-3.4979	190.594	71.995	-78.710	86.223	85.965	-62.307	149.755	-141.582	-35.726	108.619	-51.856	-79.738	-90.243	-113.001	160.646	-134.866	0.00028753	0.006825	0.00037632	243.89	5.5789e-05	3.7345e-05	440.09	106.97	5.2327e-05	9.2029e-05	205.14	88.338	41.481	19.996	1.5853e-05	44.112	0.016756	0.016852	0.0051816	1976.9	0.00018529	0.00018685	1859.5	562.61	0.00018537	0.00018719	1250.2	335.74	279.68	102.43	0.00020151	156.69	64.194	166.500	-137.394	-145.004	75.263	178.616	-146.606	-137.962	51.657	-129.747	-142.391	-136.704	-136.104	-132.239	0.575	-132.724	-8191	255	
7315.626	1	1	0	0	0.2236	0.063426	0.039404	0.34656	0.046098	0.072657	0.084237	0.09552	0.12253	0.10727	0.060453	0.14589	0.064565	0.30724	0.087554	0.16753	-3.5062	-3.0062	-3.6146	-3.4146	-2.9729	-3.7625	-3.2854	-3.2313	-3.9604	-3.0104	-3.5896	-3.6333	-2.9708	-3.675	-3.0458	-3.1708	-119.562	-93.281	145.796	170.245	177.768	-127.570	104.321	168.553	153.682	-146.913	-103.365	189.099	-41.688	198.002	-18.424	-110.810	0.00063305	0.007085	0.00087792	244.27	1.3016e-05	6.851e-05	440.3	106.91	3.1746e-05	0.00012713	211.2	86.515	41.458	20.076	3.1333e-05	44.153	0.016186	0.017184	0.0050764	1918.8	0.00017917	0.00019105	1828.1	547.62	0.00018127	0.00019246	1231.7	329.39	275.56	104.86	0.00019872	155.16	-30.300	134.592	-47.983	-145.833	-41.619	185.098	-145.693	-139.589	60.677	-114.920	-140.801	-137.252	-137.097	-132.711	33.374	-133.264	-8191	255	
7315.722	1	1	0	0	0.14239	0.10822	0.11569	0.35345	0.14298	0.25116	0.17668	0.23192	0.11956	0.21634	0.30618	0.17462	0.037211	0.14073	0.17721	0.096688	-3.6792	-2.9938	-3.5125	-3.6958	-2.9688	-3.4625	-3.3396	-2.9313	-3.6521	-3.1208	-3.2687	-3.7042	-2.9646	-3.7375	-3.3833	-3.1167	-140.517	77.771	-136.858	198.220	-106.557	149.241	138.393	84.934	36.052	174.692	127.368	197.935	5.508	-156.778	64.032	72.440	0.00062249	0.0051294	0.0003719	247.36	4.8272e-05	3.2593e-05	443.44	106.09	2.2819e-05	0.00010368	215.19	87.897	41.552	20.347	7.445e-05	44.72	0.016124	0.017893	0.0050215	1908.8	0.00018161	0.00020036	1830.5	550.26	0.00018519	0.00020289	1225.8	331.64	283.29	109	0.0001979	155.78	-89.514	115.872	86.449	-143.331	-109.754	177.331	-145.388	-139.459	-143.885	-127.691	-141.172	-136.079	-138.494	-132.556	52.342	-133.702	-8191	255	
7315.818	1	1	0	0	0.17031	0.21402	0.086018	0.11408	0.19279	0.036012	0.38671	0.2912	0.089963	0.16486	0.16907	0.19547	0.11449	0.29381	0.084667	0.096327	-3.5604	-3.3	-3.1625	-3.6813	-3.0208	-3.4479	-3.5854	-2.6896	-3.6354	-3.0042	-3.1292	-3.7792	-3.1021	-3.7146	-3.6	-3.2	-92.479	9.628	-139.769	-150.613	139.481	-111.178	180.615	-41.919	25.663	47.669	-26.408	199.645	65.018	-71.423	87.604	164.388	0.0011272	0.0012825	0.0011253	239.43	5.0603e-05	1.3687e-05	432.25	109.02	7.9877e-05	7.6117e-05	218.98	87.315	42.048	20.37	2.1761e-05	44.914	0.016763	0.018805	0.0050153	1924.6	0.00018948	0.00020679	1822.2	550.74	0.00019353	0.00020776	1217.1	331.83	296.41	110.78	0.00019901	156.42	-136.669	-102.960	14.818	-144.574	-149.405	182.309	-144.658	-138.581	-130.399	37.613	-142.000	-137.286	-137.122	-131.104	41.914	-132.793	-8191	255	
7315.938	1	1	0	0	0.18473	0.1662	0.24938	0.085439	0.034702	0.13841	0.12191	0.17882	0.19818	0.081317	0.14955	0.12181	0.24771	0.198	0.057666	0.061942	-3.5417	-3.1813	-3.1625	-3.9979	-2.9979	-3.5854	-3.8333	-3.0521	-3.8354	-3.3354	-3.2458	-3.8229	-2.8458	-3.4354	-3.6437	-3.0625	31.451	-40.350	-80.364	-16.013	-2.118	-115.216	198.337	189.721	-152.595	-8.092	-136.136	24.106	73.339	-3.276	-105.060	161.408	0.0011231	0.0065044	0.0010011	232.33	7.3254e-05	4.5925e-05	443.35	107.08	5.7441e-05	1.1812e-05	212.06	86.9	41.47	20.239	3.3843e-05	44.591	0.017734	0.019051	0.0050063	1928.1	0.00020064	0.00020744	1820.2	549.34	0.00020279	0.00020784	1216.9	333.93	310.38	110.28	0.00019854	157.86	-115.535	-59.979	-61.169	-142.905	-151.101	-3.497	-145.973	-139.135	-122.449	-60.462	-140.703	-138.554	-138.665	-131.100	71.405	-133.739	-8191	255	
7316.010	1	1	0	0	0.21379	0.12655	0.20286	0.1525	0.17085	0.17556	0.2617	0.11061	0.12789	0.26444	0.24285	0.27677	0.037048	0.18126	0.104	0.13683	-3.3458	-3.4292	-3.1792	-3.9229	-3.0687	-3.25	-3.8021	-3.0875	-3.5646	-3.3542	-2.9208	-3.7792	-3.2438	-3.3292	-3.7771	-2.9521	19.071	-17.065	163.794	-97.084	54.904	109.159	136.061	-34.844	1.697	156.395	151.567	-18.989	-128.337	-133.870	44.914	151.344	0.0013934	0.0041458	0.00079155	239.01	5.619e-05	8.2648e-05	439.38	105.1	1.5551e-05	4.6784e-05	210.83	86.689	41.42	20.656	1.3874e-05	44.008	0.018514	0.01894	0.0049832	1957	0.00020905	0.00020388	1809.4	558.87	0.00020909	0.00020336	1196.7	337.28	314.98	107.03	0.0001941	158.97	-134.267	15.703	4.246	-147.993	-157.986	37.068	-145.608	-141.083	-41.611	4.670	-141.684	-139.339	-137.235	-131.514	91.427	-134.932	-8191	255	
7316.106	1	1	0	0	0.011379	0.10094	0.19049	0.18642	0.22442	0.075896	0.11832	0.24683	0.088734	0.27	0.10696	0.16149	0.31372	0.14367	0.14876	0.14291	-3.1375	-3.5354	-2.9688	-3.9479	-3.3917	-3.3063	-3.7875	-2.8688	-3.6542	-3.5625	-2.8063	-3.8833	-3.2854	-3.0187	-3.8042	-3.2333	-50.678	100.389	58.586	140.345	81.693	-47.612	-58.205	144.401	-112.441	-101.365	-117.449	116.611	58.999	106.808	2.140	100.575	0.0007173	0.0052176	0.00054214	238.13	1.3771e-05	5.5142e-05	443.34	106.02	3.4429e-05	1.1819e-05	209.99	87.281	42.754	20.123	1.9273e-05	44.772	0.018479	0.018203	0.0048515	1979.5	0.00020853	0.00019699	1772.8	570.42	0.00020701	0.00019802	1173.3	345.13	312.13	105.26	0.0001903	164.33	-65.320	-18.377	74.996	-148.580	-35.736	69.894	-146.260	-142.200	82.340	-7.966	-141.620	-138.374	-137.032	-131.903	-76.554	-135.256	-8191	255	
7316.225	1	1	0	0	0.078676	0.12256	0.14379	0.094677	0.12697	0.10272	0.35811	0.031722	0.14973	0.091942	0.1093	0.12536	0.037175	0.19674	0.073897	0.1336	-3.0104	-3.55	-2.9854	-3.7	-3.3063	-2.9542	-3.7646	-3.1792	-3.4229	-3.8333	-2.9917	-3.5917	-3.4458	-2.9667	-3.6458	-3.4688	-32.678	65.288	173.363	-8.681	-69.561	51.732	130.111	110.282	-56.376	166.776	-32.624	46.422	-124.561	-103.026	97.032	95.719	0.0013195	0.0042551	0.00060721	233.67	3.2514e-05	2.6687e-05	441.56	107.99	2.6798e-05	6.715e-05	205.53	87.644	43.187	20.53	7.2521e-06	45.318	0.018129	0.017902	0.0047685	2034.5	0.00020383	0.00019297	1754.4	586.03	0.00020045	0.00019382	1174	351.95	304.96	103.33	0.00019038	166.98	31.943	-62.394	-133.052	-148.134	2.789	-70.025	-146.288	-141.769	42.942	40.122	-142.928	-137.880	-137.154	-130.829	-102.198	-134.713	-8191	255	
7316.321	1	1	0	0	0.20692	0.25582	0.22618	0.18314	0.21591	0.28996	0.0694	0.054238	0.089564	0.19662	0.23654	0.14898	0.1862	0.11088	0.06466	0.28283	-3.0917	-3.7979	-2.9104	-3.7604	-3.3083	-2.9583	-3.8292	-3.2271	-3.0729	-3.7042	-2.7562	-3.5396	-3.5687	-2.9292	-3.6833	-3.1917	1.812	144.760	174.394	11.569	-14.031	-114.087	27.653	-30.003	4.603	195.757	-152.199	-125.801	145.037	-66.785	-61.894	110.490	0.00035127	0.0030664	0.00081483	244.51	2.531e-05	3.7392e-05	438.27	107.5	2.6796e-05	7.3011e-05	213.75	86.731	42.936	20.624	4.3159e-05	44.986	0.01764	0.017531	0.0048302	2072.2	0.00019857	0.0001892	1782.5	597.43	0.0001965	0.00019207	1198	355.82	299.46	102.43	0.00019679	168.99	122.425	-114.783	159.556	-147.545	8.371	16.112	-147.684	-139.979	53.337	28.283	-144.037	-138.157	-135.197	-131.330	-123.395	-133.474	-8191	255	
7316.418	1	1	0	0	0.17792	0.053838	0.12793	0.18457	0.20025	0.13573	0.26958	0.15678	0.21883	0.31604	0.039037	0.18935	0.14893	0.22487	0.29887	0.056117	-2.7833	-3.6146	-2.9375	-3.5521	-3.7292	-2.9813	-3.9333	-3.3937	-3.1083	-3.7396	-3.0292	-3.3729	-3.45	-2.8875	-3.8167	-3.1917	-26.808	167.793	16.222	-19.669	-64.915	-19.420	136.956	47.905	4.047	4.894	-4.356	64.902	-155.004	181.222	196.663	-70.486	0.0010631	0.0048895	0.00066843	242.53	5.7767e-05	1.3629e-05	438.05	106.96	1.7654e-05	2.1046e-06	209.22	86.447	41.943	20.788	8.7325e-05	44.426	0.017345	0.01749	0.0050581	2102.2	0.00019857	0.0001905	1857.5	604.55	0.00019638	0.00019257	1260	356.51	300.38	102.86	0.00020749	169.01	44.299	-27.475	163.273	-145.692	17.457	33.694	-147.834	-139.308	113.540	25.546	-142.655	-137.761	-136.512	-132.195	-135.671	-132.882	-8191	255	
7316.538	1	1	0	0	0.15285	0.13745	0.22095	0.09185	0.026746	0.13596	0.14593	0.20009	0.12354	0.10568	0.12485	0.26102	0.032031	0.21213	0.15201	0.1544	-2.5542	-3.8583	-2.7708	-3.4042	-3.6271	-3.0021	-3.7604	-3.3542	-3.0583	-3.7562	-2.9646	-3.2687	-3.6312	-2.7938	-3.6125	-3.4833	-46.373	-104.555	135.283	-33.583	92.179	-134.538	200.905	-154.308	-61.889	-3.056	-136.921	-26.704	-29.603	-139.413	-77.419	156.195	0.00063954	0.0038511	0.0004951	248.06	3.4012e-05	1.6507e-05	437.88	108.29	2.0633e-05	4.7148e-05	207.95	88.309	41.894	20.34	2.1479e-05	45.02	0.017491	0.017679	0.0053548	2084.2	0.00019947	0.00019313	1931.9	602.14	0.0001955	0.00019653	1308.6	353.85	300.23	105.26	0.00021419	167.62	-61.322	96.077	194.728	-145.900	32.966	133.757	-146.969	-138.862	58.546	200.746	-143.299	-137.554	-135.566	-133.481	-46.540	-134.381	-8191	255	
7316.634	1	1	0	0	0.083863	0.14146	0.14716	0.067705	0.21564	0.092705	0.1523	0.20742	0.20512	0.14726	0.062329	0.14425	0.12939	0.24179	0.17255	0.073431	-2.5083	-3.8417	-3.1125	-3.2896	-3.7938	-3.125	-3.7021	-3.6562	-2.8312	-3.6875	-3.0479	-3.0021	-3.6958	-2.8521	-3.4021	-3.4125	86.707	-16.822	-4.909	188.709	25.755	12.602	4.285	108.261	-25.219	-59.478	30.210	68.524	27.658	-18.410	21.293	-75.874	0.0010831	0.0032694	0.00054339	247.46	3.0805e-05	5.8627e-05	441.31	108.03	1.6363e-05	9.4627e-05	213.16	87.643	42.791	19.794	5.9696e-05	44.275	0.017238	0.018092	0.0054617	2042	0.00019523	0.00019705	1933.8	585.96	0.00019177	0.00020119	1311.1	345.39	294.46	107.71	0.00021271	164.29	-14.114	144.743	21.851	-143.627	4.983	177.002	-145.946	-141.319	48.526	-112.339	-141.621	-137.331	-137.909	-132.614	105.733	-133.334	-8191	255	
7316.706	1	1	0	0	0.080836	0.052912	0.10879	0.056538	0.020376	0.082787	0.19323	0.21785	0.11839	0.092637	0.10449	0.057971	0.17548	0.088987	0.19061	0.063976	-2.3438	-3.8063	-3.425	-2.8688	-3.6604	-3.2333	-3.6042	-3.7125	-2.9979	-3.6417	-3.4229	-3.0708	-3.8917	-3.0229	-3.4396	-3.7375	-46.685	54.969	77.843	-24.012	196.745	103.154	76.292	118.038	137.772	-17.376	33.208	-139.151	150.206	129.715	55.238	-75.318	0.0010374	0.0041793	0.00075679	246.79	4.1851e-05	6.4927e-05	434.72	108.92	1.0871e-05	2.5765e-05	208.87	86.844	42.139	19.807	6.8198e-05	44.545	0.016861	0.018557	0.005371	1986.2	0.00019152	0.00020329	1894.7	574.77	0.00018766	0.00020586	1276.7	339.27	289.79	110.08	0.00020531	160.8	-47.503	112.136	31.796	-144.396	-81.507	200.829	-144.855	-139.443	-22.281	-137.530	-140.499	-136.374	-136.864	-132.683	50.722	-133.563	-8191	255	
7316.802	1	1	0	0	0.34769	0.10427	0.05498	0.080762	0.17442	0.1675	0.050761	0.40463	0.27499	0.078511	0.056823	0.10109	0.29854	0.14744	0.095394	0.17627	-2.4417	-3.5687	-3.3979	-3.0979	-3.8875	-2.9521	-3.3708	-3.8563	-3.1354	-3.6542	-3.4396	-2.8792	-3.7292	-3.275	-3.3583	-4.0563	94.024	-22.617	172.163	192.621	99.540	165.295	191.547	152.821	-5.711	188.993	-127.323	-101.545	176.727	42.564	-62.686	185.861	0.00054714	0.0042622	0.00040067	237.71	1.7991e-05	2.8598e-05	441.47	106.34	3.8203e-05	1.7747e-05	220.5	86.934	41.616	20.214	6.1081e-05	45.424	0.016712	0.019014	0.0052349	1952.9	0.00019199	0.00020852	1860.5	568.35	0.00019135	0.0002104	1257.1	335.37	296.36	112.45	0.00020224	160.74	-128.411	131.080	-2.967	-144.629	-31.782	147.492	-145.445	-140.851	-121.431	22.211	-141.275	-137.788	-138.129	-132.739	80.563	-132.869	-8191	255	
7316.921	1	1	0	0	0.27617	0.18586	0.1734	0.23176	0.16445	0.2503	0.14347	0.042631	0.10302	0.069776	0.2212	0.40888	0.13588	0.13331	0.16707	0.16924	-2.5563	-3.5292	-3.4313	-3.0833	-3.8688	-3.3125	-3.0271	-3.7562	-3.0062	-3.6458	-3.7083	-3.0667	-3.5771	-3.3521	-2.9583	-3.9938	-20.039	-144.535	-131.168	-19.515	68.018	80.894	134.629	83.927	-150.764	56.091	-153.322	-66.062	199.836	-115.837	38.963	-136.082	0.001593	0.0027595	0.0010125	242.11	4.6252e-05	7.3579e-06	438.75	107.84	7.2138e-05	4.6057e-05	212.09	86.721	40.889	20.823	1.387e-05	45.37	0.017394	0.019392	0.0051801	1945.1	0.00020048	0.00021444	1855.9	569.84	0.00020194	0.00021483	1260.5	337.68	311.2	113.98	0.00020168	161.47	-125.187	120.332	-30.035	-144.169	-123.813	-32.288	-146.074	-138.961	-90.257	35.317	-140.132	-138.536	-138.060	-132.391	-52.331	-133.178	-8191	255	
7317.017	1	1	0	0	0.14724	0.16627	0.074659	0.16857	0.22762	0.041113	0.18963	0.19527	0.18545	0.23187	0.32993	0.10714	0.29508	0.065896	0.026648	0.17941	-2.6937	-3.4958	-3.6125	-3.0792	-3.7687	-3.5187	-3.0438	-3.8042	-2.8771	-3.3167	-3.625	-2.8854	-3.7167	-3.5146	-3.05	-3.7146	177.595	141.599	147.602	-56.120	-108.327	112.832	-117.600	-132.319	-91.568	-71.059	-109.109	78.701	125.632	-88.732	-152.749	140.510	0.0015638	0.0060481	0.0014275	241.3	6.0226e-05	6.1382e-05	436.53	106.63	5.3307e-05	8.9899e-05	214.01	88.016	42.201	20.517	3.7631e-05	44.697	0.018441	0.019529	0.0052168	1964	0.00021134	0.00021437	1854.1	573.57	0.00021274	0.00021158	1252.7	337.39	320.11	111.86	0.00019883	161.01	-112.758	-26.411	-2.190	-144.690	173.798	44.344	-145.778	-140.651	-107.569	65.350	-142.300	-138.425	-139.674	-132.037	43.078	-134.889	-8191	255	
7317.113	1	1	0	0	0.10836	0.26424	0.12431	0.15703	0.23434	0.15136	0.21342	0.21548	0.12319	0.17512	0.11357	0.38126	0.24366	0.14323	0.2521	0.27878	-2.4646	-3.0563	-3.5729	-2.9271	-3.6396	-3.4562	-3.0292	-3.625	-2.9104	-3.0438	-3.875	-2.8833	-3.6688	-3.4979	-3.0146	-3.6667	-158.455	-70.222	142.872	93.379	165.654	-135.306	1.321	-78.941	128.552	114.452	-105.411	142.899	82.804	70.195	-91.878	118.721	0.00077986	0.0064002	0.00090018	236.28	2.1808e-05	5.8895e-05	437.65	105.2	2.681e-05	7.0152e-05	212.25	86.136	42.752	20.532	3.2137e-05	45.09	0.018861	0.018847	0.0050799	1977.9	0.0002132	0.00020614	1803	575.55	0.00021186	0.00020294	1214.6	340.55	316.44	107.96	0.00019164	163.66	-93.401	-53.894	-18.234	-149.247	-155.333	49.535	-145.467	-142.009	-136.365	67.006	-141.382	-138.204	-136.129	-132.443	72.507	-135.196	-8191	255	
7317.209	1	1	0	0	0.1706	0.14521	0.076871	0.042601	0.23092	0.069123	0.011819	0.041289	0.25288	0.25752	0.15928	0.26322	0.15525	0.095645	0.17379	0.15147	-2.7188	-3.0417	-3.7354	-2.9396	-3.2313	-3.6979	-3	-3.8438	-3.2167	-3.1292	-3.6937	-2.9958	-3.4771	-3.5958	-2.8312	-3.6646	98.003	-99.783	134.512	127.376	-12.316	-87.570	7.571	-128.109	66.010	-83.059	-144.393	79.044	-143.213	-79.736	49.470	118.199	0.00026611	0.0059593	0.0005128	241.75	1.3116e-05	5.1725e-05	438.66	107.26	2.2522e-05	7.5834e-05	214.56	87.85	43.885	20.371	2.5719e-05	45.696	0.018652	0.018159	0.0049312	2006.6	0.00020825	0.00019933	1764.5	584.08	0.00020675	0.00019476	1187.1	348.52	308.57	105.4	0.00018742	166.01	92.951	-4.383	189.021	-149.375	-16.841	71.204	-146.110	-142.106	108.176	-7.398	-142.860	-139.373	-137.216	-131.091	6.585	-134.979	-8191	255	
7317.306	1	1	0	0	0.22309	0.19574	0.25643	0.13675	0.16558	0.019701	0.18132	0.11197	0.037221	0.15241	0.11341	0.13861	0.24423	0.067806	0.22731	0.21115	-2.8708	-3.0438	-3.8438	-3.1146	-3.3187	-3.6208	-2.9271	-3.6479	-3.2604	-2.9083	-3.6771	-3.1208	-3.3208	-3.8458	-2.8667	-3.6521	138.540	-50.883	-100.715	132.994	-145.907	129.484	50.656	-82.169	148.135	31.960	-64.572	192.514	-102.927	75.796	-133.025	169.272	0.00020883	0.0044987	0.00035677	238.89	5.7812e-05	3.5417e-05	441.18	108.09	1.2613e-05	8.0657e-05	210.6	88.142	43.939	20.739	4.772e-05	44.781	0.018064	0.017579	0.0048358	2053.4	0.00020074	0.00019422	1753.7	595.46	0.00020156	0.00019245	1198.9	356.93	302.33	104.76	0.00019189	169.49	186.845	-50.671	183.966	-149.004	-4.351	-0.639	-146.750	-141.517	59.328	17.345	-143.770	-138.369	-135.670	-132.308	-120.801	-134.484	-8191	255	
7317.402	1	1	0	0	0.16307	0.10717	0.13374	0.22327	0.12534	0.11666	0.18246	0.14551	0.12239	0.15348	0.034632	0.056343	0.10507	0.15883	0.26104	0.066117	-2.9813	-3.2021	-3.7833	-3.0625	-3.1562	-3.8417	-2.8833	-3.6042	-3.4188	-2.9333	-3.7333	-3.1667	-2.9667	-3.8417	-2.9729	-3.7292	-143.019	-118.966	-66.361	15.259	-64.956	122.339	114.987	90.402	66.399	118.245	86.823	-121.006	135.954	114.201	102.769	98.255	0.00034454	0.0031877	0.0007226	233.79	4.1681e-05	4.8174e-05	440.14	107.6	2.226e-05	2.2406e-05	205.48	87.49	42.822	20.335	8.0939e-05	44.753	0.017719	0.017382	0.0049456	2085.3	0.00019674	0.00019132	1791.9	596.65	0.00019628	0.0001878	1222.8	355.96	295.38	102.7	0.00019813	167.92	-153.644	-11.030	163.749	-146.643	68.885	-14.703	-147.552	-139.651	-33.232	59.184	-144.333	-138.174	-135.224	-131.935	-95.859	-133.170	-8191	255	
7317.498	1	1	0	0	0.15372	0.081591	0.19805	0.098807	0.10458	0.14407	0.071034	0.14844	0.15265	0.13209	0.15323	0.22601	0.13732	0.21306	0.058224	0.23306	-3.2729	-2.8312	-3.6667	-3.1875	-2.9583	-3.6833	-3.1333	-3.4771	-3.825	-3.05	-3.6646	-3.2438	-2.8583	-3.7521	-3.1771	-3.4979	54.715	-71.667	59.184	106.718	71.208	168.430	41.818	152.973	82.593	63.116	41.118	131.408	-117.617	89.278	-13.590	145.223	0.00094047	0.0013405	0.00068707	244.34	2.5596e-05	2.3501e-05	441.56	108.51	2.3493e-05	4.9993e-06	214.81	88.587	42.957	20.536	6.769e-05	45.208	0.017412	0.017129	0.0051279	2072.1	0.0001933	0.00018958	1851	592.09	0.00019454	0.00018797	1266.6	355.08	294.84	103.85	0.00020831	167.35	-67.548	-144.886	189.264	-144.776	24.267	-67.180	-148.091	-139.427	2.524	-9.474	-143.825	-136.982	-136.543	-133.143	-115.332	-133.552	-8191	255	
7317.619	1	1	0	0	0.093846	0.13283	0.083923	0.22429	0.022828	0.25371	0.1286	0.13323	0.19939	0.40787	0.18025	0.2697	0.080813	0.13132	0.24612	0.16038	-3.4062	-2.8792	-3.7542	-3.3625	-2.9417	-3.7083	-3.1	-3.3854	-3.5708	-2.9437	-3.7125	-3.5062	-2.9833	-3.8187	-3.0479	-3.4083	-131.884	199.658	171.271	108.080	-106.358	-127.455	-123.362	88.886	15.310	-144.487	145.290	196.260	171.552	65.583	-18.036	-153.617	0.00092642	0.0059487	0.001413	242.65	3.6374e-05	3.2929e-05	438.45	107.01	4.0748e-05	5.4616e-05	210.74	88.105	42.525	20.308	1.2947e-05	44.948	0.017448	0.017473	0.005373	2072.7	0.00019418	0.00019554	1932.4	591.77	0.00019729	0.00019598	1316.6	353.22	294.05	106.46	0.00021446	165.18	30.114	161.746	159.898	-145.542	4.489	-126.563	-146.871	-139.283	79.035	-143.743	-143.182	-137.899	-136.815	-132.277	155.152	-133.336	-8191	255	
7317.715	1	1	0	0	0.14992	0.35386	0.10373	0.20031	0.08391	0.10372	0.030757	0.055849	0.0064058	0.34238	0.26643	0.29454	0.083552	0.27177	0.18572	0.25186	-3.4229	-2.7958	-3.3792	-3.5625	-2.8958	-3.6979	-3.2979	-3.0771	-3.8125	-3.0958	-3.6562	-3.5146	-2.9042	-3.8625	-3.4479	-3.1854	33.111	142.742	82.326	175.343	-97.352	-58.185	91.097	148.014	-23.527	112.342	-135.936	56.566	15.351	133.269	-74.098	187.736	0.00060537	0.0055881	0.00038721	250.19	3.1237e-05	4.6838e-05	443.83	109	1.8049e-05	6.4589e-05	215.59	87.155	42.554	19.965	6.2417e-05	45.405	0.017318	0.018123	0.0054369	2034.4	0.00019152	0.00020167	1932.2	578.6	0.00019241	0.00020226	1294.4	345.73	287.35	108.55	0.00020853	160.43	62.727	161.142	14.805	-144.440	151.057	-102.099	-145.823	-140.314	22.289	-78.730	-142.507	-138.002	-138.171	-133.302	68.654	-133.343	-8191	255	
7317.811	1	1	0	0	0.14231	0.10279	0.12281	0.19769	0.37864	0.10271	0.22677	0.14147	0.13044	0.26956	0.34914	0.17721	0.033921	0.18756	0.18935	0.11871	-3.3417	-2.8063	-3.2125	-3.5729	-2.9	-3.8458	-3.3583	-3.0583	-3.6104	-2.9437	-3.3583	-3.7167	-2.9188	-3.5667	-3.4104	-2.9396	-111.399	6.236	180.582	80.440	182.217	-5.388	189.895	168.217	53.150	187.776	140.343	31.375	-16.429	-10.838	-8.938	174.022	0.00048441	0.0030467	0.0013306	247.61	1.088e-05	5.8115e-05	436.09	107.75	2.0832e-05	8.5571e-05	213.63	87.802	43.178	20.276	2.6824e-05	44.368	0.016791	0.018467	0.0052402	1972.6	0.00018617	0.00020389	1874.6	561.15	0.00018871	0.00020434	1244.5	335.4	283.58	108.89	0.00019963	155.97	181.788	94.340	-31.851	-145.914	-35.145	-155.718	-145.629	-139.360	-91.779	-148.832	-141.874	-137.617	-137.419	-133.176	133.511	-132.969	-8191	255	
7317.907	1	1	0	0	0.11597	0.15916	0.11322	0.13108	0.18491	0.17424	0.16228	0.34202	0.29259	0.023651	0.15257	0.083406	0.32037	0.058548	0.066765	0.046532	-3.4479	-3	-3.3	-3.7042	-3.0583	-3.5917	-3.5458	-3.0229	-3.7062	-3.0167	-3.2708	-3.8	-2.9771	-3.5938	-3.5083	-2.7333	194.168	-91.314	-148.938	-8.185	113.240	-70.075	162.927	193.782	7.352	-149.872	-113.819	-116.099	191.574	-73.166	112.749	169.971	0.0011216	0.0029954	0.00080726	237.85	4.9102e-05	2.8745e-05	443.59	108.24	6.8402e-05	3.5854e-05	214.52	86.969	42.742	21.073	2.8219e-05	45.409	0.016561	0.018465	0.0049663	1908.1	0.00018505	0.00020344	1808.5	545.02	0.00018838	0.0002046	1208	330.7	289.38	109.42	0.00019501	155.04	-109.531	64.505	-115.122	-144.034	-129.137	3.847	-145.512	-139.760	-131.339	167.031	-140.440	-137.687	-137.871	-131.450	-4.865	-133.742	-8191	255	
7318.003	1	1	0	0	0.24712	0.14393	0.18941	0.25586	0.018127	0.20651	0.24265	0.052055	0.25894	0.1872	0.23826	0.080372	0.087508	0.20682	0.13756	0.32266	-3.3042	-3.1708	-3.0354	-3.6021	-2.9229	-3.4979	-3.6896	-2.9292	-3.8521	-3.2542	-2.825	-3.7729	-2.9333	-3.4521	-3.6542	-3.1146	30.434	-133.060	-19.437	175.818	98.721	66.122	-155.794	-137.670	115.101	40.870	142.946	-66.441	63.626	-129.909	-8.007	83.624	0.0015871	0.0030236	0.00099125	245.44	5.2509e-05	4.5387e-05	442.81	109.63	2.2776e-05	4.8646e-05	215.86	88.009	41.332	20.963	4.4273e-05	44.971	0.017146	0.01872	0.0049089	1895.5	0.00019392	0.00020314	1799.2	542.66	0.00019699	0.00020415	1197.3	328.46	301.82	108.42	0.00019444	154.98	-102.135	30.363	-4.789	-146.417	175.264	48.334	-146.335	-139.016	-138.299	60.136	-141.395	-138.605	-139.003	-131.089	19.672	-133.933	-8191	255	
7318.098	1	1	0	0	0.11818	0.10199	0.19213	0.067537	0.30578	0.16116	0.29135	0.13259	0.27194	0.20744	0.26329	0.23504	0.12866	0.29659	0.26464	0.24556	-3.2625	-3.2229	-2.9833	-3.7792	-3.1083	-3.3625	-3.6917	-2.9917	-3.4313	-3.3417	-3.075	-3.8187	-3.2938	-3.3604	-3.7167	-2.8896	9.469	-87.898	-51.429	-13.768	-45.137	179.252	48.681	152.424	48.205	120.861	-3.586	-113.379	-87.868	-155.421	199.058	10.599	0.0012141	0.0041903	0.001298	245.95	3.6465e-05	4.269e-05	440.77	107.18	2.3847e-05	0.0001051	210.42	86.179	41.598	20.555	3.0356e-05	44.656	0.0179	0.018568	0.0049057	1921.6	0.00020438	0.00020243	1800.9	552.07	0.0002051	0.0002024	1189.6	333.03	310.5	107.05	0.00019277	158.04	-86.215	-39.017	1.310	-147.162	188.035	18.277	-146.532	-140.895	-86.642	65.282	-142.151	-138.679	-138.664	-130.395	13.909	-135.229	-8191	255	
7318.218	1	1	0	0	0.124	0.27247	0.18188	0.42088	0.18468	0.15563	0.15102	0.113	0.41993	0.1757	0.3503	0.28929	0.23021	0.046735	0.1405	0.23656	-3.0667	-3.3479	-3.0604	-3.7479	-3.2417	-3.0958	-3.6813	-2.8458	-3.6479	-3.7667	-2.9313	-3.7833	-3.275	-3.2667	-3.7292	-3.0042	-84.942	158.974	103.185	76.990	72.189	154.332	-159.413	-79.077	-124.670	45.336	186.198	158.740	5.173	111.133	74.745	111.725	0.00072735	0.0044595	0.00065016	238.39	1.5442e-05	1.9213e-05	438.81	107.06	8.2214e-06	8.6917e-05	214.36	86.759	43.872	20.634	3.195e-05	45.365	0.018389	0.018262	0.0048526	1962.8	0.00020836	0.00019833	1787.9	568.64	0.00020841	0.00019978	1188	345.19	315.76	106.39	0.00019317	164.16	-55.543	-56.278	17.586	-148.904	-159.076	29.710	-145.992	-142.707	98.845	23.097	-142.071	-138.938	-135.582	-130.806	112.175	-134.602	-8191	255	
7318.314	1	1	0	0	0.05758	0.15711	0.076903	0.14955	0.22558	0.15261	0.059843	0.12947	0.15551	0.08631	0.46217	0.092509	0.065573	0.23219	0.1831	0.21051	-3.075	-3.5438	-3.0375	-3.725	-3.2083	-2.8875	-3.8396	-3.1604	-3.5104	-3.7792	-3.0396	-3.7687	-3.3646	-3.0312	-3.6875	-3.125	167.136	135.888	-116.302	-8.152	-28.424	-30.235	-57.287	92.538	182.597	-40.022	144.817	195.336	188.222	-28.172	49.220	112.678	0.00036118	0.0047719	0.00014308	237.22	1.5548e-05	2.7476e-05	434.73	106.64	4.8498e-05	9.0411e-05	216.54	87.638	43.783	20.57	1.7519e-05	44.65	0.018432	0.018141	0.0048267	2043.2	0.00020759	0.00019577	1781.1	594.53	0.00020631	0.00019941	1189.4	356.37	311.67	105.12	0.0001931	168.51	17.401	-30.206	-62.233	-146.370	94.058	-6.400	-145.729	-142.840	74.194	19.286	-143.470	-138.931	-136.105	-131.301	-121.507	-134.886	-8191	255	
7318.410	1	1	0	0	0.18654	0.062671	0.16017	0.2371	0.066407	0.283	0.11657	0.13792	0.13235	0.14922	0.13746	0.17078	0.15443	0.1803	0.12247	0.024034	-2.8875	-3.65	-3.0167	-3.9542	-3.4208	-2.8167	-3.8125	-3.0625	-3.225	-3.7208	-2.8708	-3.6521	-3.5062	-2.9958	-3.8479	-3.3458	155.997	-15.650	-142.225	90.957	-147.589	-114.166	147.178	-153.186	-65.242	138.233	177.380	-124.486	181.484	141.701	-83.936	157.478	0.0011915	0.0089577	0.00045312	233.74	6.1203e-05	1.5928e-05	436.67	107.23	2.9421e-05	0.0001106	206.24	87.186	42.447	20.621	9.1941e-05	44.692	0.017999	0.017886	0.0048722	2098.8	0.0002042	0.00019372	1802.2	604.8	0.00020085	0.00019492	1204.2	358.48	303.46	102.75	0.00019565	169.12	-5.251	-26.423	-98.936	-147.481	78.249	65.072	-146.893	-140.604	43.398	75.879	-144.667	-137.439	-136.243	-130.953	-106.884	-133.681	-8191	255	
7318.507	1	1	0	0	0.091959	0.13236	0.034079	0.29301	0.090277	0.26028	0.21269	0.26233	0.067593	0.18911	0.17484	0.15819	0.1043	0.25879	0.13904	0.019183	-2.8625	-3.6	-2.8375	-3.5479	-3.6083	-2.9458	-3.8146	-3.1729	-3.1625	-3.7479	-3.2104	-3.6333	-3.6896	-2.9083	-3.7812	-3.4104	-64.281	-119.720	67.326	-111.118	126.753	-93.673	196.032	177.967	114.433	-75.279	-119.735	190.734	157.832	172.726	154.850	-138.993	0.00051141	0.003503	0.00080798	235.57	5.3608e-05	3.8905e-05	441.51	107.15	2.5534e-05	6.1269e-05	210.56	89.58	42.271	20.536	3.5116e-05	44.187	0.017484	0.017587	0.0050129	2099.8	0.00019816	0.00018945	1840.8	604.17	0.00019512	0.00019149	1240.7	355.78	298.98	102.18	0.00020384	168.81	-0.334	-38.791	170.924	-146.802	65.009	-2.378	-147.101	-140.376	34.517	41.415	-144.447	-136.918	-135.528	-131.195	-46.112	-133.393	-8191	255	
7318.603	1	1	0	0	0.050262	0.30183	0.042053	0.14503	0.10768	0.069271	0.2055	0.20246	0.23838	0.077709	0.23905	0.040557	0.031853	0.069919	0.070136	0.17842	-2.7604	-3.7458	-2.9	-3.3417	-3.6542	-2.9604	-3.8021	-3.4042	-3.0229	-3.7042	-2.9083	-3.3458	-3.7438	-3.1312	-3.9188	-3.375	-57.561	-16.125	118.250	-145.608	196.784	78.693	198.387	83.578	-108.475	-83.973	-61.915	-136.407	4.087	-136.909	151.074	44.302	0.00020971	0.0023017	0.0013919	244.04	2.3409e-05	2.2517e-05	446.82	106.88	5.0356e-05	6.0962e-05	211.9	88.926	42.855	20.368	3.2555e-05	45.259	0.017299	0.017415	0.0052203	2064.5	0.00019619	0.00018839	1888.9	592.58	0.00019226	0.00019158	1280.2	350.11	296.76	103.2	0.00021055	167.42	-97.981	108.544	166.001	-145.269	69.751	22.354	-147.288	-139.684	31.505	-115.317	-143.605	-136.694	-135.796	-131.338	-99.129	-133.110	-8191	255	
#DATA ENDS
