BOXY.EXE: ISS Imagent and Oximeter Data Acquisition Program Version 0.80
Ascii Record File

#ACQ INFORMATION
2  Detector Channels 
16  External MUX Channels 
1  Auxiliary Channels 
5000  Waveform (CCF) Frequency (Hz)
1  Waveforms Skipped 
30  Waveforms Averaged 
1  Cycles Averaged 
16  Acquisitions per Waveform 
10.0806  Updata Rate (Hz) 

#FILE INFORMATION
TRUE -- External MUX Channel results are PARSED.
FALSE -- AC DC and Phase are NOT grouped.
TRUE -- Companion Program Settings File CREATED.
FALSE -- AC data not excluded
FALSE -- DC data not excluded
FALSE -- Phase data not excluded
FALSE -- Auxillary Chn. data not excluded
Tab delimiters

#CALIBRATION STATE
TRUE -- Waveform Calibration Values APPLIED.


#AUX CALIBRATION VALUES
Val Type	aux-1	

Term	1.0000e+00	
Factor	0.0000e+00	


#WF CALIBRATION VALUES
A = Detector Channel
Val Type	A-AC1	A-AC2	A-AC3	A-AC4	A-AC5	A-AC6	A-AC7	A-AC8	A-AC9	A-AC10	A-AC11	A-AC12	A-AC13	A-AC14	A-AC15	A-AC16	A-DC1	A-DC2	A-DC3	A-DC4	A-DC5	A-DC6	A-DC7	A-DC8	A-DC9	A-DC10	A-DC11	A-DC12	A-DC13	A-DC14	A-DC15	A-DC16	A-Ph1	A-Ph2	A-Ph3	A-Ph4	A-Ph5	A-Ph6	A-Ph7	A-Ph8	A-Ph9	A-Ph10	A-Ph11	A-Ph12	A-Ph13	A-Ph14	A-Ph15	A-Ph16	

Term	0.00000e+00	0.00000e+00	0.00000e+00	0.00000e+00	0.00000e+00	0.00000e+00	0.00000e+00	0.00000e+00	0.00000e+00	0.00000e+00	0.00000e+00	0.00000e+00	0.00000e+00	0.00000e+00	0.00000e+00	0.00000e+00	0.00000e+00	0.00000e+00	0.00000e+00	0.00000e+00	0.00000e+00	0.00000e+00	0.00000e+00	0.00000e+00	0.00000e+00	0.00000e+00	0.00000e+00	0.00000e+00	0.00000e+00	0.00000e+00	0.00000e+00	0.00000e+00	0.00000e+00	0.00000e+00	0.00000e+00	0.00000e+00	0.00000e+00	0.00000e+00	0.00000e+00	0.00000e+00	0.00000e+00	0.00000e+00	0.00000e+00	0.00000e+00	0.00000e+00	0.00000e+00	0.00000e+00	0.00000e+00	
Factor	1.00000e+00	1.00000e+00	1.00000e+00	1.00000e+00	1.00000e+00	1.00000e+00	1.00000e+00	1.00000e+00	1.00000e+00	1.00000e+00	1.00000e+00	1.00000e+00	1.00000e+00	1.00000e+00	1.00000e+00	1.00000e+00	1.00000e+00	1.00000e+00	1.00000e+00	1.00000e+00	1.00000e+00	1.00000e+00	1.00000e+00	1.00000e+00	1.00000e+00	1.00000e+00	1.00000e+00	1.00000e+00	1.00000e+00	1.00000e+00	1.00000e+00	1.00000e+00	X	X	X	X	X	X	X	X	X	X	X	X	X	X	X	X	

B = Detector Channel
Val Type	B-AC1	B-AC2	B-AC3	B-AC4	B-AC5	B-AC6	B-AC7	B-AC8	B-AC9	B-AC10	B-AC11	B-AC12	B-AC13	B-AC14	B-AC15	B-AC16	B-DC1	B-DC2	B-DC3	B-DC4	B-DC5	B-DC6	B-DC7	B-DC8	B-DC9	B-DC10	B-DC11	B-DC12	B-DC13	B-DC14	B-DC15	B-DC16	B-Ph1	B-Ph2	B-Ph3	B-Ph4	B-Ph5	B-Ph6	B-Ph7	B-Ph8	B-Ph9	B-Ph10	B-Ph11	B-Ph12	B-Ph13	B-Ph14	B-Ph15	B-Ph16	

Term	0.00000e+00	0.00000e+00	0.00000e+00	0.00000e+00	0.00000e+00	0.00000e+00	0.00000e+00	0.00000e+00	0.00000e+00	0.00000e+00	0.00000e+00	0.00000e+00	0.00000e+00	0.00000e+00	0.00000e+00	0.00000e+00	0.00000e+00	0.00000e+00	0.00000e+00	0.00000e+00	0.00000e+00	0.00000e+00	0.00000e+00	0.00000e+00	0.00000e+00	0.00000e+00	0.00000e+00	0.00000e+00	0.00000e+00	0.00000e+00	0.00000e+00	0.00000e+00	-2.07275e+01	-1.32847e+02	-1.52787e+02	-1.83875e+02	-6.77554e+01	-5.54330e+01	-1.56919e+02	-1.62015e+02	-3.22664e+01	-7.99954e+01	-1.74562e+02	-1.70840e+02	-1.80437e+02	-1.77427e+02	-6.96928e+01	-1.50391e+02	
Factor	2.96057e-05	1.28999e-04	4.41538e-05	1.97066e-01	1.45415e-06	1.07368e-06	1.67062e-01	5.22067e-02	1.19540e-06	1.26644e-06	1.23098e-01	2.98311e-02	3.04790e-02	9.88491e-03	1.28029e-06	1.43348e-02	1.34528e-06	1.40145e-06	3.88201e-07	9.80757e-02	1.52263e-08	1.53501e-08	7.86761e-02	2.62170e-02	1.51695e-08	1.52930e-08	5.81304e-02	1.43474e-02	1.50814e-02	4.92209e-03	1.51770e-08	6.84804e-03	X	X	X	X	X	X	X	X	X	X	X	X	X	X	X	X	



#DISTANCE SETTINGS
A = Detector Channel
A-1	A-2	A-3	A-4	A-5	A-6	A-7	A-8	A-9	A-10	A-11	A-12	A-13	A-14	A-15	A-16	

2.5000e+00	3.0000e+00	2.5000e+00	3.0000e+00	2.0000e+00	3.0000e+00	1.5000e+00	3.0000e+00	3.0000e+00	3.0000e+00	3.0000e+00	3.0000e+00	3.0000e+00	3.0000e+00	1.5000e+00	3.0000e+00	

B = Detector Channel
B-1	B-2	B-3	B-4	B-5	B-6	B-7	B-8	B-9	B-10	B-11	B-12	B-13	B-14	B-15	B-16	

1.0000e+01	1.0000e+01	1.0000e+01	1.4400e+00	1.0000e+01	1.0000e+01	1.5100e+00	1.9400e+00	1.0000e+01	1.0000e+01	1.9900e+00	2.4900e+00	2.4100e+00	2.9000e+00	1.0000e+01	2.9800e+00	




#DATA BEGINS
time	group	step	mark	flag	A-AC1	A-AC2	A-AC3	A-AC4	A-AC5	A-AC6	A-AC7	A-AC8	A-AC9	A-AC10	A-AC11	A-AC12	A-AC13	A-AC14	A-AC15	A-AC16	A-DC1	A-DC2	A-DC3	A-DC4	A-DC5	A-DC6	A-DC7	A-DC8	A-DC9	A-DC10	A-DC11	A-DC12	A-DC13	A-DC14	A-DC15	A-DC16	A-Ph1	A-Ph2	A-Ph3	A-Ph4	A-Ph5	A-Ph6	A-Ph7	A-Ph8	A-Ph9	A-Ph10	A-Ph11	A-Ph12	A-Ph13	A-Ph14	A-Ph15	A-Ph16	B-AC1	B-AC2	B-AC3	B-AC4	B-AC5	B-AC6	B-AC7	B-AC8	B-AC9	B-AC10	B-AC11	B-AC12	B-AC13	B-AC14	B-AC15	B-AC16	B-DC1	B-DC2	B-DC3	B-DC4	B-DC5	B-DC6	B-DC7	B-DC8	B-DC9	B-DC10	B-DC11	B-DC12	B-DC13	B-DC14	B-DC15	B-DC16	B-Ph1	B-Ph2	B-Ph3	B-Ph4	B-Ph5	B-Ph6	B-Ph7	B-Ph8	B-Ph9	B-Ph10	B-Ph11	B-Ph12	B-Ph13	B-Ph14	B-Ph15	B-Ph16	aux-1	digaux	

2080.920	1	1	0	256	0.30188	0.13151	0.16498	0.23489	0.046528	0.24896	0.25457	0.13376	0.21918	0.064105	0.071335	0.14591	0.18046	0.073531	0.043349	0.24128	-2.1	-3.4208	-2.8375	-3.1625	-3.4542	-2.8104	-3.4042	-3.0667	-2.5708	-3.5521	-2.8375	-2.9625	-3.3833	-2.6021	-3.3292	-3.2229	360.288	179.191	123.431	110.925	97.767	218.047	274.768	121.252	64.646	47.012	210.677	271.609	264.562	324.541	93.381	306.136	0.00062876	0.0010449	0.00018688	520.73	3.3617e-06	4.4253e-06	801.96	212.21	5.7619e-06	9.5172e-06	348.34	146.67	83.381	45.029	8.7966e-06	83.987	0.00043217	0.00042155	0.00013169	485.27	4.5593e-06	4.5911e-06	726.07	193.86	4.4507e-06	4.6826e-06	316.35	132.26	75.954	40.519	5.1631e-06	74.416	260.903	68.158	53.148	22.421	125.752	113.963	22.117	27.633	193.501	139.043	25.585	29.391	30.821	34.445	74.765	31.625	-8191	255	
2081.041	1	1	0	0	0.23811	0.20448	0.12543	0.23331	0.12885	0.15894	0.10937	0.25386	0.17539	0.10164	0.14378	0.15804	0.040555	0.18868	0.22229	0.1887	-2.3146	-3.5125	-2.775	-2.8479	-3.4688	-2.5604	-3.3146	-3.2438	-2.5333	-3.3063	-3.2375	-2.9646	-3.6979	-2.6937	-3.1521	-3.5146	359.843	112.990	290.598	338.458	68.172	197.568	47.322	300.400	238.817	68.084	35.932	300.696	299.089	347.913	326.288	342.429	0.00057383	0.00044407	0.000186	518.72	1.0034e-05	4.3349e-06	796.66	213.44	3.3988e-06	4.8122e-06	350.31	148.06	83.435	45.282	1.2847e-05	85.273	0.00042706	0.00044719	0.00013305	483.04	4.5277e-06	4.9808e-06	723.67	193.58	4.4194e-06	4.9023e-06	315.76	132.93	76.27	40.899	4.9495e-06	75.206	226.081	96.659	41.567	23.196	112.242	156.783	22.663	27.289	97.884	207.934	25.589	29.553	30.864	34.124	123.807	30.968	-8191	255	
2081.137	1	1	0	0	0.18226	0.18481	0.11331	0.43348	0.064433	0.12916	0.26688	0.14141	0.037231	0.11884	0.17028	0.071496	0.36225	0.078125	0.18148	0.18507	-2.1188	-3.3271	-3.0312	-2.725	-3.4875	-2.8125	-3.2875	-3.4833	-2.5167	-3.6042	-3.1833	-2.7542	-3.5083	-2.9542	-3.0396	-3.4708	251.647	155.731	164.811	349.560	149.060	33.535	297.256	362.776	94.686	158.953	338.524	259.952	24.251	334.717	322.306	192.570	0.00064721	0.00048933	0.00034664	520.76	1.2858e-06	4.028e-06	802.61	212.9	8.0037e-06	5.9232e-06	352.43	149.43	83.866	45.539	5.2735e-06	85.149	0.00041514	0.00045781	0.00012985	485.11	4.5021e-06	5.194e-06	729.53	194.42	4.4988e-06	5.1249e-06	318.14	134.25	76.847	41.216	5.0232e-06	75.307	255.280	353.497	63.624	22.786	360.489	121.605	22.315	27.256	191.337	188.771	24.781	29.174	31.307	34.470	151.846	31.191	-8191	255	
2081.233	1	1	0	0	0.06707	0.11679	0.073493	0.19306	0.090597	0.056231	0.20966	0.17391	0.14149	0.14898	0.1585	0.11112	0.043173	0.21635	0.11673	0.24127	-2.1625	-3.4229	-3.0104	-2.7042	-3.4917	-2.7687	-3.025	-3.5333	-2.5979	-3.3708	-3.2292	-2.8521	-3.4562	-2.9479	-2.9146	-3.4437	92.495	68.264	116.868	195.688	124.863	115.966	340.001	222.069	172.061	357.499	314.028	353.068	22.088	245.393	351.078	72.050	0.00047645	0.00044477	0.00012412	519.2	7.3548e-06	5.0473e-06	813.86	213.06	8.0684e-06	4.1441e-06	354.61	152.59	85.037	45.83	9.1708e-06	86.554	0.00044597	0.00047037	0.00012783	482.09	4.7866e-06	5.2723e-06	733.55	194.68	4.8736e-06	5.2681e-06	320.82	136.24	78.527	41.665	5.1735e-06	76.456	263.809	153.627	24.261	22.473	159.044	233.489	22.008	26.925	240.932	152.113	25.609	29.248	31.521	34.442	196.364	30.925	-8191	255	
2081.329	1	1	0	0	0.22149	0.12594	0.14936	0.10987	0.20334	0.09748	0.072147	0.12749	0.21214	0.22522	0.18233	0.33344	0.17916	0.32794	0.055134	0.1094	-2.3208	-2.9188	-3.225	-2.7646	-3.4104	-2.9417	-2.8479	-3.5042	-2.8521	-3.0604	-3.3312	-2.7771	-3.3833	-3.1146	-2.5	-3.7042	350.464	274.126	109.551	79.154	80.536	142.107	321.920	340.752	255.753	337.724	133.623	61.579	133.873	86.515	147.718	301.627	0.00075747	0.00077116	0.00017681	525.82	8.9886e-06	4.905e-06	812.12	215.92	6.0447e-07	4.6436e-06	356.01	151.67	85.345	46.25	4.9733e-06	86.409	0.00048076	0.00049755	0.00013254	484.96	5.2862e-06	5.4558e-06	737.1	196.3	5.3034e-06	5.3533e-06	322.28	136.39	78.445	41.813	5.0534e-06	76.567	256.821	360.633	160.828	22.126	231.931	358.328	21.801	27.257	176.414	135.276	25.044	28.866	30.898	34.140	206.442	30.726	-8191	255	
2081.425	1	1	0	0	0.030424	0.10373	0.088448	0.18512	0.065321	0.18168	0.17115	0.28091	0.23761	0.12394	0.16618	0.099491	0.17643	0.32113	0.11652	0.15114	-2.4646	-2.9167	-3.35	-2.5646	-3.2854	-3.1312	-2.7042	-3.5333	-2.825	-2.9	-3.4167	-2.6333	-3.4583	-3.3688	-2.5021	-3.6854	366.548	340.585	254.788	37.460	53.111	338.349	281.569	344.132	60.115	338.993	337.700	263.291	247.206	61.889	19.330	63.169	0.00077817	0.00033678	0.00010231	517.78	9.5117e-06	1.1423e-05	801.75	213.24	4.2934e-06	2.0056e-06	352.22	149.48	85.206	45.935	3.5591e-06	86.867	0.00050205	0.00049327	0.00013089	483.36	5.577e-06	5.5309e-06	727.42	194.36	5.4706e-06	5.2488e-06	318.85	134.76	78.479	41.641	4.7378e-06	76.702	240.969	45.298	85.340	23.106	193.437	184.884	21.825	27.369	92.814	281.459	24.834	29.106	31.224	33.997	253.693	31.045	-8191	255	
2081.521	1	1	0	0	0.16112	0.17169	0.089185	0.27592	0.078777	0.22525	0.37575	0.12552	0.24301	0.080135	0.16881	0.29514	0.10894	0.13847	0.30379	0.39104	-2.5333	-2.8937	-3.3604	-2.8271	-3.1104	-3.2583	-2.65	-3.5167	-2.8438	-2.6813	-3.5687	-2.825	-3.1854	-3.225	-2.5271	-3.5354	247.084	174.195	260.330	268.138	91.245	344.768	285.109	19.633	95.642	11.484	316.801	30.841	214.027	338.484	123.316	262.349	0.00062764	0.00024795	6.5004e-05	523.49	8.7494e-06	6.4312e-06	810.66	213.88	6.1328e-06	9.819e-06	352.16	152.18	85.288	46.446	1.4188e-05	87.059	0.0005135	0.00049142	0.00012583	486.84	5.5237e-06	5.4369e-06	731.92	195.78	5.5075e-06	5.3545e-06	318.44	136.44	78.614	41.89	4.6752e-06	77.238	242.048	331.387	199.058	22.891	165.096	66.993	22.079	27.749	171.157	170.537	25.818	29.537	31.481	34.162	179.922	31.615	-8191	255	
2081.640	1	1	0	0	0.079052	0.14931	0.036911	0.13022	0.32443	0.14534	0.12794	0.23749	0.20603	0.084525	0.047715	0.05613	0.051147	0.17532	0.062002	0.30514	-2.6458	-2.575	-3.2833	-2.5812	-3.0875	-3.3438	-2.8521	-3.3896	-3.1125	-2.7542	-3.4813	-2.9125	-2.9062	-3.3333	-2.4292	-3.5729	278.776	337.914	326.726	315.007	298.963	256.827	79.676	345.619	71.378	66.176	97.058	242.512	234.580	52.796	149.962	244.480	0.00054033	0.00068275	0.00039496	522.66	4.3478e-06	4.3855e-06	808.6	214.6	5.4842e-06	1.1609e-06	355.31	151.99	85.418	46.589	7.1164e-06	87.998	0.0005181	0.00048917	0.000125	488.27	5.5703e-06	5.4361e-06	735.11	197.2	5.6593e-06	5.412e-06	321.48	137.55	79.011	42.068	5.081e-06	78.106	266.605	95.438	60.185	22.215	98.215	143.375	21.993	27.715	206.720	278.661	25.569	29.285	31.168	34.134	149.537	31.459	-8191	255	
2081.736	1	1	0	0	0.12183	0.099	0.13114	0.18112	0.18828	0.18441	0.15773	0.13636	0.19395	0.096058	0.22365	0.00052169	0.17725	0.074874	0.36489	0.21595	-2.5187	-2.6042	-3.4833	-2.775	-2.8312	-3.3479	-2.8125	-3.2417	-3.1896	-2.4875	-3.4167	-2.9771	-2.8187	-3.2979	-2.6875	-3.1083	337.973	210.025	71.587	311.107	99.337	183.098	268.398	321.504	239.746	94.798	10.198	180.000	42.045	281.847	346.826	171.301	0.00066475	0.00043223	0.00047978	523.55	3.2267e-06	8.5217e-06	810.8	214.32	1.7031e-06	2.8006e-06	359.09	151.35	84.985	46.342	9.3811e-06	87.451	0.00052518	0.0004797	0.00013236	492.32	5.7108e-06	5.3467e-06	738.9	198.06	5.7244e-06	5.3345e-06	324.84	137.5	78.746	41.991	5.4016e-06	77.494	256.934	54.436	82.847	22.468	107.758	136.924	22.155	27.522	85.060	268.361	25.280	28.931	30.639	33.835	204.858	30.915	-8191	255	
2081.833	1	1	0	0	0.1617	0.062194	0.03467	0.15145	0.15615	0.12117	0.12186	0.074479	0.088434	0.062024	0.13383	0.3075	0.11253	0.18418	0.095021	0.038185	-2.9125	-2.6604	-3.3021	-2.9083	-2.7313	-3.4208	-2.7583	-3.1146	-3.3854	-2.5062	-3.5229	-2.9021	-2.8312	-3.5396	-2.6771	-3.3458	273.066	252.630	176.265	65.856	290.995	172.613	302.537	96.613	315.091	303.117	163.219	343.125	211.762	51.213	357.930	325.576	0.000806	0.0013267	0.00026661	521.43	9.1633e-06	8.9911e-06	800.95	212.73	3.5372e-06	6.0754e-06	352.87	151.48	84.724	46.287	1.3487e-05	87.013	0.00051211	0.0004616	0.00013781	489.85	5.3856e-06	4.9902e-06	732.22	195.76	5.4433e-06	4.9844e-06	321.68	136.79	78.385	41.728	5.6673e-06	77.409	252.263	62.866	76.288	22.383	195.175	143.044	21.400	27.052	336.878	196.556	25.363	29.185	31.859	33.866	179.022	31.523	-8191	255	
2081.904	1	1	0	0	0.088465	0.20806	0.1324	0.11206	0.044268	0.076998	0.1383	0.16524	0.081374	0.15718	0.084252	0.24949	0.25137	0.26239	0.058976	0.085633	-2.8271	-2.5438	-3.3208	-3.1896	-2.6146	-3.3604	-2.7125	-2.9979	-3.2896	-2.6104	-3.3104	-3.2438	-2.6354	-3.5	-2.6125	-3.1396	50.869	81.115	26.891	42.177	329.044	144.328	166.197	291.005	211.123	185.601	285.845	214.942	55.557	282.423	78.731	367.274	0.00059191	0.0005078	0.00029689	521.88	6.4073e-06	3.4374e-06	806.12	212.75	3.5453e-06	1.2442e-05	352.02	151.86	84.969	46.446	3.7634e-06	87.931	0.0005077	0.00045732	0.00014113	489.68	5.3112e-06	4.9978e-06	734.66	195.68	5.1012e-06	4.9445e-06	321.76	137.05	77.983	42.049	5.6749e-06	77.942	240.030	43.790	90.774	22.739	157.352	337.177	21.783	27.426	164.576	153.465	25.085	28.875	30.880	33.690	352.435	31.136	-8191	255	
2082.025	1	1	0	0	0.18639	0.053568	0.16842	0.32572	0.1224	0.016683	0.16095	0.21757	0.060969	0.089169	0.24586	0.10635	0.067639	0.17504	0.20558	0.26673	-2.8771	-2.4979	-3.3542	-3.2479	-2.6854	-3.55	-2.8125	-2.9104	-3.3125	-2.6896	-3.1521	-3.3979	-2.6667	-3.2958	-2.8396	-2.9042	124.321	157.200	73.275	330.332	173.000	314.899	213.678	265.342	124.134	355.081	52.014	42.849	27.079	357.058	124.092	309.669	0.00063047	0.00051307	0.00020289	521.43	7.0716e-06	4.7337e-06	807.73	213.07	4.0088e-06	7.7946e-06	358.3	152.58	86.18	47.244	1.2265e-05	89.2	0.00048553	0.00048436	0.0001475	488.45	5.0943e-06	5.2724e-06	736.68	196.25	4.987e-06	5.2258e-06	324.36	137.34	78.764	42.705	5.5012e-06	79.089	249.519	75.456	45.047	22.288	158.747	31.693	21.430	27.321	152.915	138.698	25.594	28.690	31.270	34.034	193.009	31.110	-8191	255	
2082.121	1	1	0	0	0.10468	0.13121	0.23971	0.15507	0.061911	0.12463	0.10172	0.19597	0.10853	0.15448	0.24174	0.17532	0.088257	0.091003	0.16146	0.371	-2.9979	-2.5687	-3.2833	-3.3792	-2.7042	-3.3708	-3.0167	-2.6521	-3.5875	-2.6104	-3.1813	-3.3396	-2.7229	-3.4313	-2.9458	-2.8354	121.789	167.687	114.661	17.121	277.630	246.521	309.921	219.986	26.307	186.887	271.828	264.574	27.524	337.426	188.133	297.122	0.00088968	0.00093181	0.00028642	520.18	3.8207e-06	9.594e-06	812.64	213.54	9.115e-06	6.5561e-06	357	152.98	85.261	46.98	7.929e-06	89.028	0.00046635	0.00050331	0.00014466	489.68	5.0342e-06	5.6528e-06	741.43	196.21	5.1544e-06	5.6982e-06	324.26	137.65	78.28	42.658	5.6964e-06	78.309	231.618	75.489	252.133	22.849	57.759	227.304	21.665	27.517	214.873	196.399	25.236	29.043	30.721	34.177	185.016	31.330	-8191	255	
2082.217	1	1	0	0	0.068694	0.37091	0.024604	0.23907	0.16024	0.14668	0.20608	0.22966	0.077225	0.14727	0.10756	0.088384	0.11555	0.25767	0.12895	0.25561	-3.0229	-2.7542	-2.9583	-3.3937	-2.725	-3.1979	-3.175	-2.5583	-3.5104	-2.8521	-2.7792	-3.3604	-2.6188	-3.1208	-3.0667	-2.7729	267.393	340.312	184.838	231.459	53.171	323.191	314.154	12.632	353.672	133.809	134.116	92.358	164.853	72.233	25.006	103.466	0.00077894	0.00012275	0.00042996	515.67	1.1944e-05	6.14e-06	808	213.12	2.973e-06	5.8574e-06	353.55	151.72	85.75	46.933	4.3481e-06	87.943	0.00048211	0.00053652	0.00014387	484.16	5.0447e-06	5.6967e-06	736.79	195.05	5.029e-06	5.705e-06	322.04	136.89	78.561	42.554	5.5518e-06	78.029	244.011	297.901	78.932	22.426	168.715	185.062	21.655	27.931	132.101	116.612	25.417	28.869	31.416	34.263	150.192	31.390	-8191	255	
2082.313	1	1	0	0	0.14416	0.1032	0.22501	0.25327	0.072467	0.069718	0.1338	0.21047	0.14494	0.31689	0.25944	0.26728	0.12925	0.097047	0.18141	0.086533	-3.2146	-2.8208	-2.7125	-3.5333	-2.5208	-3.2062	-3.4271	-2.8479	-3.2188	-3.0104	-2.8583	-3.6125	-2.6458	-3.0354	-3.2146	-2.6396	347.374	82.296	90.367	319.101	116.810	28.760	266.181	323.613	74.330	33.391	300.750	9.803	35.505	64.563	134.219	195.081	0.0006768	0.00034315	3.1203e-05	522.31	1.6441e-06	3.9896e-06	806.94	214.41	6.6269e-06	5.6681e-06	355.33	154.02	86.058	47.307	5.0356e-06	88.84	0.00048795	0.00051654	0.00013799	484.52	5.1556e-06	5.6108e-06	734.05	194.96	5.199e-06	5.4308e-06	323.44	138.47	79.383	42.776	5.3851e-06	78.743	243.149	65.151	28.651	22.322	188.426	221.192	21.806	27.293	153.872	169.231	25.104	28.737	30.146	33.880	153.947	30.984	-8191	255	
2082.432	1	1	0	0	0.1031	0.26293	0.051086	0.20894	0.18092	0.20763	0.083513	0.28832	0.33731	0.054951	0.12318	0.023322	0.013712	0.18675	0.048734	0.17644	-2.9313	-2.9708	-2.5417	-3.3458	-2.6458	-3.1354	-3.3958	-2.6854	-3.3604	-2.9729	-2.8812	-3.55	-2.7812	-2.9854	-3.4104	-2.6562	331.423	89.638	148.129	341.520	223.841	118.860	73.305	20.365	115.189	112.079	241.732	72.908	105.240	107.289	86.957	33.255	0.00061248	0.0010401	0.00016196	517.7	8.9167e-06	4.6337e-06	810.22	214.86	4.5632e-06	3.5779e-06	354.89	155.8	87.677	48.027	5.647e-06	90.787	0.00051325	0.00051901	0.00013745	483.27	5.6293e-06	5.6024e-06	737.72	196.3	5.5994e-06	5.4953e-06	324.59	139.77	80.395	43.349	5.0748e-06	80.255	258.557	144.503	40.727	22.085	157.309	169.532	21.402	27.202	269.686	149.288	25.209	28.850	30.774	33.832	235.891	30.790	-8191	255	
2082.506	1	1	0	0	0.18111	0.15598	0.081325	0.1661	0.17752	0.05679	0.12725	0.38452	0.18211	0.041342	0.027883	0.063496	0.13169	0.12217	0.12198	0.028424	-2.9167	-2.9417	-2.5771	-3.3958	-2.6375	-2.7792	-3.4354	-2.8083	-3.0896	-3.3021	-2.6521	-3.5104	-2.8729	-2.8875	-3.3167	-2.8625	247.211	65.812	279.918	349.110	100.030	160.012	277.180	41.487	221.738	366.255	95.518	51.569	301.158	322.848	213.614	194.041	0.00079218	0.00078443	0.00024625	523.53	5.118e-06	7.5822e-06	823.47	215.72	5.3261e-06	5.6895e-06	359.8	155.76	87.271	48.207	7.7938e-06	90.424	0.00050937	0.00049725	0.0001261	488.77	5.567e-06	5.3508e-06	745.2	197.72	5.4637e-06	5.3603e-06	324.76	140.38	80.639	43.374	4.8356e-06	80.124	259.914	67.909	177.592	22.736	158.665	101.519	21.613	27.404	165.081	100.857	25.600	29.247	30.710	33.856	162.157	30.919	-8191	255	
2082.602	1	1	0	0	0.10488	0.11903	0.36307	0.11607	0.08507	0.15545	0.099494	0.027686	0.17803	0.12476	0.37788	0.15672	0.14706	0.11784	0.116	0.064673	-2.6521	-3.1146	-2.5229	-3.5292	-2.7438	-2.8458	-3.4729	-2.475	-3.1708	-3.2438	-2.75	-3.5167	-3.0812	-2.8688	-3.4083	-2.7021	265.925	91.169	66.871	280.747	230.211	287.938	122.985	175.799	146.556	43.438	283.316	362.755	246.146	291.730	265.151	116.410	0.00072199	0.00040988	0.0003057	524.08	1.8863e-06	8.3096e-06	821.43	217.22	2.9478e-06	5.9745e-06	360.93	155.94	87.92	47.917	2.3983e-06	90.626	0.00049003	0.00046425	0.00011509	490.68	5.2317e-06	5.1248e-06	741.49	198.01	5.2992e-06	5.1368e-06	324.65	140.46	80.813	43.338	4.6751e-06	80.29	260.100	178.908	38.593	22.661	162.478	173.419	22.165	26.891	165.656	193.606	25.342	28.110	30.077	33.556	234.158	30.342	-8191	255	
2082.721	1	1	0	0	0.21122	0.51138	0.11318	0.22405	0.11903	0.14898	0.1693	0.26953	0.15998	0.15415	0.10158	0.27156	0.16245	0.26625	0.18788	0.22585	-2.6583	-3.3229	-2.6937	-3.4958	-3.1437	-2.825	-3.4917	-2.8104	-2.8708	-3.4979	-2.7896	-3.3292	-3.0021	-2.7146	-3.3917	-2.8458	341.494	69.230	228.750	93.955	157.193	141.782	255.726	196.768	312.843	75.124	123.191	284.233	347.419	324.405	289.174	330.388	0.00079654	0.00080121	0.00033379	529.17	5.703e-06	5.7337e-06	824.24	217.04	8.0458e-06	4.0075e-06	363.95	158.03	88.16	48.284	1.2362e-05	91.803	0.00047882	0.00045716	0.00011458	493.15	5.0109e-06	4.6916e-06	746.05	199.4	5.0167e-06	4.8151e-06	327.28	141.83	80.836	43.68	4.7197e-06	81.397	255.948	126.604	59.795	21.787	159.611	238.536	21.207	26.789	217.846	151.815	24.904	28.628	30.310	33.653	203.060	30.425	-8191	255	
2082.817	1	1	0	0	0.2853	0.055938	0.11533	0.15904	0.20244	0.065059	0.26374	0.24261	0.12342	0.20644	0.1818	0.033665	0.22858	0.1647	0.13429	0.34125	-2.5646	-3.2333	-2.6583	-3.2521	-3.1958	-2.6333	-3.5458	-3.1833	-2.9125	-3.3958	-2.6688	-3.2167	-3.3396	-2.7021	-3.3042	-3.0604	242.842	253.235	257.953	183.851	188.298	197.059	305.180	278.852	110.246	269.079	247.388	291.874	19.600	14.538	279.417	281.280	0.00068598	0.00060123	0.00023784	529.22	1.2425e-05	8.1163e-06	828.6	218.09	5.4095e-06	5.8511e-06	363.89	156.76	88.194	49.014	1.145e-05	92.662	0.00047925	0.00044341	0.00012209	493.77	5.1593e-06	4.7187e-06	749.07	199.7	5.0651e-06	4.6807e-06	328.82	141.64	80.917	43.959	5.0347e-06	81.804	252.921	72.849	66.755	21.828	163.558	198.793	21.362	26.463	231.386	90.286	24.762	28.843	30.345	33.276	159.033	29.989	-8191	255	
2082.913	1	1	0	0	0.27389	0.18321	0.19656	0.086338	0.10347	0.085476	0.26079	0.13387	0.11844	0.11739	0.17295	0.2273	0.1352	0.10876	0.32304	0.10846	-2.4604	-3.4729	-2.6708	-3.175	-2.9792	-2.5292	-3.5458	-3.0125	-2.6479	-3.6125	-2.6667	-3.1229	-3.3833	-2.6458	-3.2042	-3.2229	339.696	41.754	367.003	24.526	192.652	357.697	225.154	300.822	279.120	244.542	316.770	361.582	20.985	47.389	191.137	73.913	0.00057554	0.00049663	0.00025445	530.6	3.3848e-06	1.0023e-05	826.37	216.47	4.3326e-06	3.0017e-06	365.97	158.82	87.849	48.724	2.741e-06	92.15	0.00048	0.00043197	0.0001309	495.33	5.1017e-06	4.6359e-06	750.4	199.29	4.9319e-06	4.5396e-06	330.32	142.53	80.758	43.803	5.0203e-06	81.557	262.218	53.976	47.409	22.403	122.770	120.203	21.460	26.697	107.102	111.402	24.743	28.565	30.444	33.338	134.632	30.236	-8191	255	
2083.034	1	1	0	0	0.35698	0.20104	0.15356	0.20089	0.018721	0.031341	0.38536	0.056913	0.32288	0.041379	0.22378	0.31325	0.075256	0.064395	0.19585	0.22408	-2.1083	-3.4208	-2.6979	-3.0292	-3.2583	-2.6167	-3.4792	-3.025	-2.5938	-3.4771	-2.8042	-3.1458	-3.4354	-2.7625	-3.4917	-3.1771	177.517	117.287	172.567	304.325	91.576	116.669	353.395	54.020	243.575	177.645	123.653	249.145	237.371	65.385	154.296	67.215	0.00067068	0.00017511	0.00023516	529.06	6.1076e-06	8.8693e-06	825.57	216.75	4.9344e-06	9.4784e-06	361.09	157.15	88.046	48.91	3.4469e-06	92.528	0.0004455	0.00041758	0.00013191	492.52	4.7884e-06	4.5587e-06	748.22	198.11	4.5843e-06	4.606e-06	327.5	141.62	80.181	43.883	5.0102e-06	81.748	257.224	150.648	47.394	21.993	40.852	186.304	20.957	26.384	213.692	112.034	24.745	28.565	30.081	33.381	72.662	30.158	-8191	255	
2083.130	1	1	0	0	0.14197	0.051584	0.16341	0.12571	0.13696	0.2196	0.16491	0.082994	0.21724	0.061198	0.093108	0.34613	0.092864	0.22783	0.1849	0.26704	-2.1708	-3.3104	-2.7812	-2.9208	-3.4875	-2.9188	-3.2917	-3.3708	-2.7042	-3.3958	-2.9792	-3.0208	-3.45	-2.7625	-3.2188	-3.45	264.052	103.129	253.735	163.538	13.174	220.927	282.726	170.159	74.951	128.283	193.232	332.719	265.749	353.321	103.694	334.851	0.00059492	0.00073542	0.00021624	530.98	1.3998e-05	3.4092e-06	829.54	217.18	2.0819e-06	3.0889e-06	363.34	159.26	88.708	49.027	8.0322e-06	93.301	0.00041025	0.00042348	0.00012729	490.85	4.4779e-06	4.5823e-06	750.37	199.36	4.2975e-06	4.6969e-06	329.42	143.08	80.786	44.316	4.8437e-06	82.281	240.224	156.904	132.807	21.611	184.647	200.605	21.053	26.690	86.672	103.914	24.840	28.563	30.163	32.988	160.692	30.236	-8191	255	
2083.201	1	1	0	0	0.303	0.22644	0.051132	0.20232	0.12263	0.15483	0.096632	0.2239	0.10284	0.054471	0.04835	0.18926	0.22988	0.14602	0.28406	0.066806	-2.2375	-3.4583	-3.0292	-2.5667	-3.5187	-2.6417	-3.0958	-3.3396	-2.7021	-3.2438	-3.0771	-2.9354	-3.4958	-2.9188	-2.825	-3.6083	349.033	25.057	368.503	206.783	291.281	310.903	292.289	357.811	184.685	184.937	211.909	275.112	62.066	36.187	33.290	144.600	0.00061348	0.00089152	0.00019116	529.32	1.281e-05	6.9914e-06	837.04	218.26	4.449e-06	5.1852e-06	366.96	159.73	89.413	49.731	5.6956e-06	94.538	0.00040332	0.00043455	0.00012218	491.08	4.1959e-06	4.9105e-06	755.49	199.65	4.2483e-06	4.8227e-06	330.2	143.72	81.2	44.757	4.7759e-06	83.003	243.600	90.027	52.875	22.192	174.591	122.843	21.323	26.683	229.684	78.758	24.813	28.355	30.150	33.453	216.157	29.929	-8191	255	
2083.322	1	1	0	0	0.075712	0.11001	0.10293	0.11632	0.071081	0.14967	0.35598	0.065431	0.2302	0.22931	0.094827	0.16428	0.33084	0.14805	0.15729	0.2337	-2.0271	-3.1479	-3.1188	-2.8583	-3.3229	-2.7854	-3.1792	-3.4208	-2.6542	-3.2812	-3.2042	-2.8458	-3.2875	-2.9083	-2.8063	-3.7896	110.397	340.882	183.138	99.481	327.044	150.470	319.032	53.042	108.166	245.928	177.201	10.531	297.652	336.364	351.727	303.318	0.00071421	0.0008588	0.00024764	530.25	9.7704e-06	2.4703e-06	835.24	219.8	7.4031e-06	5.1367e-06	368.21	159.47	89.288	49.429	6.232e-06	93.716	0.00041127	0.00045197	0.00012246	490.14	4.489e-06	4.8834e-06	752.94	199.94	4.4067e-06	4.852e-06	331.76	143.17	81.16	44.466	4.7751e-06	82.361	240.970	77.516	106.154	21.931	200.356	110.399	21.460	26.464	226.265	165.729	25.055	28.428	30.565	33.177	142.136	30.323	-8191	255	
2083.418	1	1	0	0	0.075361	0.043948	0.12728	0.12458	0.040707	0.11201	0.20435	0.11703	0.20898	0.15951	0.071309	0.10206	0.23453	0.26402	0.21802	0.35389	-2.025	-2.9854	-3.1479	-2.7208	-3.3937	-3.0354	-2.9354	-3.6521	-2.8458	-3.3083	-3.1146	-2.8812	-3.3167	-3.0812	-2.8646	-3.6188	84.572	92.253	239.795	79.870	41.697	117.748	288.315	273.019	29.836	350.396	17.642	62.912	90.035	34.772	238.256	353.679	0.00066559	0.00033917	0.00023968	529.51	1.3792e-05	4.36e-06	828.01	218	2.3142e-06	5.9416e-06	365.97	159.52	89.68	49.41	6.4969e-06	93.315	0.00043708	0.00046205	0.00012361	489.29	4.8887e-06	5.0519e-06	749.34	198.36	4.8489e-06	5.0283e-06	329.32	142.54	81.861	44.397	4.6826e-06	82.058	256.726	315.969	162.484	22.025	173.367	122.370	21.378	26.607	293.455	102.541	24.623	28.012	30.329	33.055	42.492	30.128	-8191	255	
2083.513	1	1	0	0	0.1995	0.099806	0.19218	0.054654	0.15175	0.27374	0.21528	0.1701	0.1896	0.18021	0.1221	0.19199	0.1228	0.014211	0.28915	0.20485	-2.2792	-3.0438	-3.45	-2.5812	-3.375	-2.9646	-2.9292	-3.7125	-2.9604	-2.9208	-3.575	-2.7042	-3.4396	-3.1854	-2.7229	-3.4479	133.036	340.588	300.998	72.696	283.373	155.280	314.086	333.965	218.461	123.543	294.926	256.013	368.023	242.208	171.912	362.658	0.00061599	0.00051883	0.00014142	528.89	5.1138e-06	5.9482e-06	830.71	217.98	6.1308e-06	6.4877e-06	366.13	160.27	89.263	49.427	5.4304e-06	93.511	0.00045168	0.00044336	0.00011998	488.19	4.9914e-06	4.9131e-06	749.26	199.17	5.0729e-06	4.9042e-06	329.26	143.1	81.919	44.525	4.6801e-06	82.407	251.245	347.253	71.876	21.956	109.530	164.253	21.360	26.989	149.856	269.755	24.827	28.408	30.429	33.250	98.956	30.457	-8191	255	
2083.609	1	1	0	0	0.20372	0.19723	0.15418	0.25181	0.1504	0.073918	0.22144	0.13241	0.12316	0.14485	0.28706	0.063313	0.17208	0.28357	0.1999	0.24385	-2.2542	-2.8229	-3.2125	-2.7	-3.2417	-3.2521	-2.7083	-3.5938	-2.9604	-2.9938	-3.3042	-2.7458	-3.3646	-3.3417	-2.5021	-3.6854	191.040	147.862	50.241	75.349	139.978	273.666	319.881	297.189	288.415	324.766	354.861	92.412	235.066	240.232	196.425	314.480	0.00064718	9.1037e-05	4.3858e-05	533.61	7.9612e-06	2.4483e-06	834.52	220.08	6.1185e-06	1.0825e-05	368.47	161.61	90.412	49.526	9.572e-06	94.589	0.00048768	0.00045484	0.00011814	492.69	5.1039e-06	4.9174e-06	753.66	201.05	4.9859e-06	4.8516e-06	331.38	144.82	82.802	44.648	4.2801e-06	83.174	237.302	210.425	260.212	21.556	184.298	126.351	21.181	27.035	111.647	166.013	24.553	28.795	30.651	33.331	156.042	30.458	-8191	255	
2083.729	1	1	0	0	0.14138	0.18618	0.074267	0.19685	0.13481	0.10711	0.28749	0.11353	0.07365	0.2325	0.29898	0.12862	0.26885	0.20391	0.18443	0.16288	-2.3667	-2.8125	-3.2646	-2.7792	-3.0354	-3.3104	-2.7167	-3.5042	-2.9271	-2.7292	-3.5687	-2.7812	-3.1479	-3.2917	-2.6667	-3.3333	112.191	171.879	267.712	63.915	247.242	279.867	303.481	353.177	43.145	17.681	90.707	259.342	10.908	52.933	198.578	168.090	0.00064267	0.00024901	3.8929e-06	534.32	7.212e-06	7.4687e-06	839.57	223.01	7.242e-06	1.877e-06	368.96	162.3	89.613	49.41	7.294e-06	93.443	0.00046815	0.00043371	0.00010969	498.32	4.9109e-06	4.7758e-06	755.43	202.61	4.8017e-06	4.7021e-06	329.75	144.35	82.32	44.374	4.2499e-06	82.434	253.880	63.973	76.504	22.361	171.802	151.607	21.575	26.684	275.302	244.050	24.274	28.422	30.651	33.041	178.895	30.366	-8191	255	
2083.801	1	1	0	0	0.21225	0.13476	0.15598	0.21596	0.22106	0.066485	0.13553	0.24696	0.10205	0.080242	0.12645	0.18564	0.084676	0.23427	0.15121	0.094136	-2.7146	-2.5187	-3.4125	-2.6125	-3.05	-3.3312	-2.7188	-3.2354	-3.0708	-2.5479	-3.7125	-2.8979	-2.8479	-3.4979	-2.7562	-3.4042	138.337	244.452	351.998	42.244	63.018	47.659	356.335	57.818	130.298	89.509	363.211	51.331	117.636	297.535	20.987	322.073	0.00065307	0.00045368	0.00024324	533.62	7.492e-06	6.4901e-06	833.27	221.19	4.9931e-06	9.9272e-06	364.36	161.45	90.252	49.038	7.8112e-06	93.031	0.00046213	0.00041802	0.00011388	497.45	4.8739e-06	4.6065e-06	750.61	201.4	4.8946e-06	4.5368e-06	329.02	143.94	82.098	44.158	4.5592e-06	82.263	242.782	99.972	98.137	21.755	135.342	116.271	21.087	27.032	349.769	100.143	24.879	28.189	30.750	33.374	162.486	30.610	-8191	255	
2083.897	1	1	0	0	0.09054	0.3108	0.20921	0.25288	0.39928	0.15146	0.18922	0.12047	0.062183	0.18992	0.14325	0.23893	0.35552	0.25576	0.096167	0.13147	-2.8479	-2.6688	-3.525	-2.9604	-2.9896	-3.4583	-2.6688	-3.4896	-3.225	-2.5812	-3.4396	-3.0396	-2.8396	-3.6458	-2.5312	-3.3042	102.404	267.945	12.809	364.487	62.782	199.098	289.328	76.013	65.531	175.405	35.086	358.534	283.516	346.649	297.471	321.837	0.00078558	0.00019366	0.00032733	531.57	8.878e-06	4.8928e-06	832.32	221.29	3.6167e-06	6.9649e-06	364.88	158.86	89.094	49.053	7.9862e-06	92.654	0.00046622	0.00040936	0.00012222	498.88	5.0312e-06	4.7867e-06	753.19	201.57	5.2103e-06	4.6068e-06	330.69	143.18	81.77	44.104	5.1938e-06	82.02	247.300	27.199	114.002	21.366	180.762	186.507	21.091	26.969	196.907	201.682	24.999	28.172	30.254	33.404	165.805	30.545	-8191	255	
2083.993	1	1	0	0	0.11903	0.24272	0.19942	0.16587	0.12935	0.1764	0.29904	0.15187	0.1444	0.13829	0.078233	0.042257	0.21118	0.26274	0.11053	0.24401	-2.8708	-2.6	-3.4375	-3.0375	-2.8708	-3.5896	-2.7896	-3.1333	-3.2812	-2.6146	-3.3812	-3.2479	-2.7625	-3.4167	-2.7646	-3.0521	10.173	290.566	365.251	242.071	107.360	233.625	23.328	250.213	134.036	188.061	319.350	362.998	88.472	42.794	194.161	154.053	0.00077554	0.00093557	0.00019799	531.92	8.4432e-06	7.6547e-06	830.73	219.67	5.1609e-06	2.4262e-06	367.05	159.22	89.514	49.006	6.8482e-06	92.848	0.00048178	0.00043136	0.00013344	497.83	5.0769e-06	4.6548e-06	753.61	201.85	5.0432e-06	4.8227e-06	333.64	143.48	82.001	44.109	5.7213e-06	82.061	236.534	82.350	16.898	21.795	110.525	195.893	21.258	26.984	139.765	69.556	24.583	28.128	29.764	33.661	123.752	30.517	-8191	255	
2084.114	1	1	0	0	0.060561	0.19715	0.056736	0.15014	0.053223	0.035181	0.19643	0.18487	0.21788	0.22723	0.23972	0.18619	0.13281	0.068563	0.085208	0.10174	-3.0438	-2.4583	-3.3917	-3.0104	-2.6854	-3.4813	-2.9896	-2.8375	-3.3833	-2.7271	-3.2396	-3.3896	-2.525	-3.5187	-2.7938	-3.1167	216.708	128.779	76.509	333.034	317.647	338.796	315.267	57.560	334.738	162.080	323.447	36.265	235.355	286.594	49.787	305.910	0.00067062	0.00071371	0.00035693	531.42	3.3314e-06	2.2379e-06	830.91	220.38	2.4702e-06	8.4001e-06	363.68	158.38	88.416	48.504	7.7059e-06	91.736	0.00049868	0.00047662	0.00014675	498.56	5.1815e-06	5.2084e-06	753.88	201.16	5.0242e-06	5.1044e-06	331.87	142.29	80.735	43.777	5.6839e-06	81.215	230.524	127.225	84.700	22.120	123.003	32.838	21.451	26.897	191.301	169.934	25.069	28.599	30.677	33.527	229.818	30.459	-8191	255	
2084.210	1	1	0	0	0.27138	0.16374	0.080845	0.31814	0.28977	0.24267	0.20703	0.12512	0.043326	0.18902	0.07809	0.23335	0.15763	0.10615	0.23293	0.19608	-3.0667	-2.7542	-2.8958	-3.3208	-2.4542	-3.4375	-2.9729	-2.7562	-3.3542	-2.7333	-3.1146	-3.4646	-2.6854	-3.5812	-2.9125	-2.7042	115.469	201.207	49.744	30.311	317.417	235.916	14.622	273.648	148.591	344.731	223.649	337.862	270.589	188.864	189.034	127.140	0.00064891	0.0007305	0.00015211	531.38	7.6609e-06	1.1051e-05	823.04	216.59	3.2599e-06	7.4762e-06	358.2	155.99	88.973	48.479	2.7485e-06	91.735	0.00047455	0.00049975	0.00014556	496.51	5.1065e-06	5.7352e-06	750.06	199.35	5.1352e-06	5.8748e-06	328.16	141.31	81.005	43.854	5.7563e-06	81	246.462	120.685	105.532	22.168	184.956	201.775	21.601	26.874	90.898	211.896	24.858	28.506	30.598	33.811	146.855	30.750	-8191	255	
2084.306	1	1	0	0	0.13406	0.097832	0.13103	0.070952	0.29414	0.12369	0.12002	0.16075	0.045516	0.12242	0.074378	0.31183	0.10825	0.13232	0.08541	0.091938	-2.8646	-2.6958	-2.8854	-3.5417	-2.3167	-3.5	-3.15	-2.7375	-3.3792	-2.5521	-3.1333	-3.3937	-2.7333	-3.2896	-3.1979	-2.6958	37.450	75.447	308.568	112.287	75.807	102.384	240.079	292.818	65.703	52.124	124.662	346.621	353.077	259.577	233.732	350.089	0.0007675	0.00031233	0.00023358	530.42	2.217e-06	5.2529e-06	824.32	219.19	1.3413e-06	6.3868e-06	365.59	157	88.034	48.08	5.5663e-06	91.144	0.00047352	0.00052689	0.00014502	499.11	5.1769e-06	5.8245e-06	752.26	200.4	5.2176e-06	6.0835e-06	331.29	141.2	81.138	43.816	6.1357e-06	80.577	250.140	339.983	140.164	21.967	111.191	200.330	21.355	26.913	259.054	125.468	25.255	28.486	30.607	33.664	68.649	30.637	-8191	255	
2084.402	1	1	0	0	0.10389	0.21194	0.17644	0.1297	0.16842	0.050071	0.060761	0.13276	0.036602	0.10654	0.37704	0.10869	0.10757	0.089193	0.11	0.017935	-3.0667	-2.7104	-2.8542	-3.3625	-2.5979	-3.2396	-3.0208	-2.7562	-3.3125	-2.9292	-2.9479	-3.5083	-2.625	-3.2458	-3.4333	-2.6958	311.112	322.458	51.832	368.345	151.388	65.309	349.418	129.626	81.495	158.625	70.520	351.604	128.205	281.216	41.215	106.254	0.00076768	0.00090073	0.00034156	526.32	1.9116e-05	6.5546e-06	824.85	218.47	5.6479e-06	1.2057e-06	362.26	155.92	87.322	47.4	6.7463e-06	89.847	0.00052577	0.00058668	0.0001559	496.59	5.7968e-06	6.3125e-06	753.22	201.46	5.9922e-06	6.6795e-06	333.49	140.83	81.366	43.54	6.5411e-06	79.934	247.051	71.189	109.739	21.933	191.822	215.208	21.518	26.763	183.869	139.146	25.197	28.780	30.566	33.594	255.556	30.408	-8191	255	
2084.499	1	1	0	0	0.40191	0.10376	0.2317	0.20063	0.064261	0.16614	0.23507	0.40052	0.05715	0.17549	0.12828	0.1589	0.14836	0.18944	0.18805	0.18209	-3.0458	-2.8604	-2.7438	-3.4479	-2.7771	-3.0104	-3.4333	-2.675	-3.5125	-3.1042	-2.7146	-3.4917	-2.6667	-3.2167	-3.4417	-2.8479	265.673	336.114	335.242	270.490	155.215	125.680	359.365	331.809	168.141	117.501	85.416	308.684	277.950	298.807	339.137	249.017	0.00065597	0.00064983	0.00010985	526.22	6.3749e-06	8.6938e-06	817.41	214.23	7.493e-06	4.5961e-06	357.34	151.42	85.508	46.728	5.8351e-06	87.885	0.00061792	0.00064757	0.00017193	498.06	6.8331e-06	7.0127e-06	749.2	198.42	7.0463e-06	7.1155e-06	329.1	137.95	80.834	42.98	6.9828e-06	78.354	242.494	158.623	100.622	22.382	167.195	113.853	21.408	27.382	215.293	62.611	25.139	28.724	31.163	33.724	355.060	30.995	-8191	255	
2084.595	1	1	0	0	0.1295	0.16928	0.15525	0.15051	0.21678	0.13065	0.2804	0.039982	0.10911	0.20047	0.35245	0.099378	0.12188	0.088671	0.21358	0.1995	-3.0687	-2.9958	-2.6896	-3.4562	-2.6813	-3.0521	-3.2604	-2.7125	-3.3042	-3.2313	-2.6625	-3.6521	-2.7583	-2.9167	-3.2687	-2.8875	217.758	74.567	228.612	258.684	364.952	173.726	261.669	277.516	201.738	109.067	311.012	271.415	192.500	358.704	211.200	61.558	0.00064428	0.00083493	0.00013697	520.3	4.8639e-06	1.0172e-05	801.95	209.73	1.0185e-05	7.9365e-06	350.9	150.04	85.384	46.431	3.8528e-06	87.268	0.00068597	0.00069352	0.00017783	496.91	7.5945e-06	7.5319e-06	739.58	196.61	7.607e-06	7.453e-06	324.46	136.79	80.449	42.669	6.8772e-06	78.039	244.204	136.141	213.959	22.678	278.215	150.651	21.322	27.107	305.587	175.129	25.054	28.943	31.174	33.918	58.576	30.597	-8191	255	
2084.714	1	1	0	0	0.079125	0.15343	0.13613	0.22075	0.070964	0.10288	0.15876	0.14891	0.1635	0.096055	0.16462	0.32796	0.17097	0.14636	0.2844	0.16936	-2.9271	-3.3729	-2.4813	-3.4	-2.8479	-3.0271	-3.5333	-2.7208	-3.175	-3.1417	-2.6729	-3.3563	-3.0583	-2.8646	-3.3125	-2.6333	136.660	202.357	34.544	156.763	69.170	88.442	339.636	176.101	14.700	304.670	223.574	341.982	272.513	225.432	91.665	205.610	0.00050328	0.00099762	0.00044231	522.8	5.7095e-07	5.299e-06	810.73	211.81	7.8027e-06	3.5878e-06	348.79	150.9	85.441	45.984	1.1173e-05	86.35	0.00070851	0.00069237	0.00017607	500.75	7.9595e-06	7.8391e-06	742.79	198.06	8.1056e-06	8.0444e-06	325.47	137.98	81.164	42.454	7.3323e-06	77.954	259.815	63.521	66.817	22.555	341.255	208.901	21.452	27.275	164.469	145.814	25.069	28.927	30.338	33.928	140.975	30.877	-8191	255	
2084.810	1	1	0	0	0.19235	0.35274	0.051082	0.15069	0.15078	0.10155	0.19124	0.26723	0.1438	0.12002	0.11836	0.20029	0.27725	0.5275	0.082388	0.10157	-2.6271	-3.2146	-2.8146	-3.2333	-2.9188	-2.7	-3.6021	-2.5875	-3.0917	-3.3958	-2.5438	-3.3187	-3.1937	-2.7521	-3.475	-2.9729	251.249	149.810	337.510	368.063	182.338	75.717	332.662	258.905	132.105	221.487	47.591	44.909	221.397	10.702	101.243	40.474	0.00039634	0.00097893	0.00015072	522.49	1.2929e-05	1.2249e-05	814.05	212.34	7.8936e-06	7.8915e-06	351.89	149.81	83.924	46.001	1.0114e-05	86.063	0.00075369	0.00073164	0.00018408	505.49	8.294e-06	7.9974e-06	748.58	199.93	8.3662e-06	8.0038e-06	327.38	138.28	80.656	42.344	7.5056e-06	77.492	228.029	65.575	346.091	22.877	26.018	173.935	21.801	27.389	194.808	204.910	25.450	28.949	30.858	33.967	167.276	30.914	-8191	255	
2084.906	1	1	0	0	0.024427	0.19696	0.048338	0.27061	0.28567	0.15746	0.035502	0.12558	0.091665	0.26337	0.23296	0.19362	0.034773	0.24436	0.28832	0.34267	-2.5938	-3.3854	-2.6917	-3.1896	-2.9854	-2.6396	-3.6708	-2.9771	-2.8208	-3.5417	-2.6292	-3.2938	-3.0625	-2.6	-3.3771	-3.0542	355.031	144.531	115.089	64.847	98.684	79.255	207.966	345.508	20.600	264.770	192.169	313.064	275.930	336.713	330.243	228.673	0.00043628	0.0001901	0.00061994	519.99	7.4157e-06	7.5258e-07	800.95	210.64	6.5247e-06	4.1686e-06	347.01	148.84	84.179	45.815	2.5454e-06	85.225	0.00073457	0.00070788	0.00018572	505.01	7.8226e-06	7.2577e-06	737.45	197.98	7.4288e-06	7.0285e-06	322.44	136.23	79.394	41.888	7.2763e-06	76.872	246.101	189.594	97.599	22.475	271.702	299.133	21.366	27.282	112.598	368.504	25.170	29.109	30.351	33.739	92.776	30.917	-8191	255	
2085.002	1	1	0	0	0.06413	0.18514	0.10553	0.28463	0.14365	0.32131	0.15865	0.03129	0.095799	0.24465	0.15064	0.22451	0.30723	0.22542	0.16701	0.20467	-2.4979	-3.5792	-2.6229	-3.1146	-3.2125	-2.3937	-3.6	-2.9	-2.7958	-3.4521	-2.6604	-3.3375	-3.3375	-2.7604	-3.5125	-3.0833	99.342	208.845	130.184	325.931	299.833	337.089	107.066	367.822	213.468	166.923	23.103	332.438	358.423	336.097	38.662	133.516	0.0005709	0.00038909	0.00013998	516.68	2.3339e-06	8.6009e-06	803.54	209.01	6.2706e-06	1.8911e-06	347.93	149.82	83.583	46.102	9.1863e-06	86.653	0.00070045	0.00064043	0.0001907	497.29	7.4747e-06	6.6984e-06	736.62	196.34	7.115e-06	6.5723e-06	323.99	136.16	79.055	42.092	7.0456e-06	77.764	252.878	109.744	64.588	22.559	199.727	150.687	21.641	27.076	90.040	156.394	25.160	28.720	30.268	33.990	152.201	31.017	-8191	255	
2085.098	1	1	0	0	0.023413	0.22761	0.26207	0.084091	0.16362	0.068001	0.34114	0.15955	0.19136	0.073632	0.18172	0.13418	0.29295	0.22409	0.10603	0.10848	-2.3812	-3.2958	-2.675	-2.9521	-3.4542	-2.4708	-3.3625	-2.9917	-2.6458	-3.6562	-2.7979	-3.1458	-3.4958	-2.95	-3.2917	-3.2583	291.402	84.387	202.568	13.883	316.903	306.726	335.365	330.790	262.433	358.228	292.515	354.697	302.893	344.559	128.965	21.694	0.00070456	0.00085015	6.9036e-05	516.55	9.6169e-06	3.8414e-06	801.27	209.86	5.9627e-06	9.9348e-06	349.65	149.35	83.98	46.028	1.553e-06	86.294	0.0006381	0.00059131	0.00018927	498.32	7.1294e-06	6.7241e-06	742.01	197.92	7.0791e-06	6.876e-06	327.48	136.73	79.335	42.292	8.0888e-06	77.835	248.835	62.902	41.880	22.219	149.346	108.041	21.823	26.748	258.906	171.479	25.377	29.113	30.718	33.959	33.470	31.045	-8191	255	
2085.194	1	1	0	0	0.20932	0.14467	0.21105	0.41216	0.1882	0.38688	0.24211	0.062072	0.29029	0.15974	0.26737	0.21985	0.2526	0.47177	0.09201	0.26455	-2.1896	-3.4938	-2.6708	-2.9896	-3.3563	-2.7	-3.2	-3.2687	-2.6437	-3.5583	-2.8792	-2.7375	-3.5104	-2.6542	-3.1562	-3.5146	180.013	128.522	310.368	339.565	186.181	199.021	263.240	245.476	197.717	124.881	360.254	348.500	283.630	47.943	76.331	306.849	0.00081579	0.00047483	0.0001198	520.43	8.5003e-06	1.1889e-05	805.67	211.58	4.2905e-06	7.07e-06	348.72	150.32	84.241	46.157	1.0826e-05	86.745	0.00068825	0.00068406	0.00021053	503.88	7.3286e-06	7.6193e-06	744.52	198.42	7.0305e-06	7.5125e-06	328.31	137.34	79.382	42.591	7.8337e-06	78.176	247.727	358.233	117.778	22.740	223.496	242.344	21.602	27.378	331.553	205.598	25.967	29.144	30.801	34.139	180.809	30.752	-8191	255	
2085.291	1	1	0	0	0.15928	0.05822	0.31562	0.21452	0.19943	0.031515	0.19793	0.17681	0.29302	0.020587	0.21208	0.13363	0.032873	0.1159	0.053903	0.10578	-2.2521	-3.3604	-2.7729	-2.7667	-3.4396	-2.7687	-3.0229	-3.4542	-2.6312	-3.4062	-2.9646	-2.7104	-3.425	-2.7687	-3.0021	-3.4958	14.622	62.601	316.571	40.133	44.055	59.277	219.354	287.232	358.414	253.810	167.479	263.630	350.292	133.514	323.080	237.951	0.00033293	0.00083115	0.00011717	521.85	6.2245e-06	6.4597e-06	806.58	211.72	7.5789e-06	9.5801e-06	352.29	152.15	85.807	46.656	9.3835e-06	87.791	0.00063127	0.00068806	0.00019676	499.83	6.5922e-06	7.4131e-06	743.59	197.76	6.299e-06	7.1588e-06	326.9	137.62	79.425	42.76	6.7907e-06	78.305	242.047	79.440	332.125	22.587	157.950	173.715	21.578	27.178	34.847	249.797	24.985	29.081	31.270	33.883	137.551	30.714	-8191	255	
2085.387	1	1	0	0	0.034232	0.12401	0.18834	0.03229	0.17537	0.09383	0.13033	0.27928	0.098842	0.21664	0.24678	0.16805	0.21205	0.10607	0.032797	0.13592	-2.2812	-3.2208	-2.9146	-2.5875	-3.5	-2.6979	-3.05	-3.4604	-2.6292	-3.4396	-3.0667	-2.7375	-3.3125	-3.0292	-2.8583	-3.3708	46.739	139.789	176.506	113.867	233.828	251.052	363.543	304.393	347.308	141.770	35.983	324.671	359.102	210.009	148.702	263.838	0.00075754	0.0009793	0.00021226	523.01	6.3532e-06	6.7724e-06	812.96	214.9	5.1554e-06	8.0194e-06	354.6	154.14	86.861	46.917	2.7969e-06	89.158	0.00057805	0.00062807	0.00017112	494.28	6.0515e-06	6.8706e-06	744.29	198.31	5.974e-06	6.7307e-06	327.84	138.68	80.417	43.005	6.3965e-06	79.136	244.475	113.723	320.713	22.629	90.217	145.700	21.851	26.834	191.992	183.521	25.212	29.372	30.730	33.622	40.063	30.894	-8191	255	
2085.506	1	1	0	0	0.2383	0.19824	0.2807	0.21893	0.16094	0.20137	0.2272	0.083145	0.17336	0.14445	0.36034	0.092119	0.25328	0.19953	0.14895	0.075285	-2.15	-3.2771	-2.9229	-2.7438	-3.4271	-2.9917	-2.7729	-3.3604	-2.6604	-3.125	-3.2896	-2.5687	-3.5271	-2.9521	-2.7396	-3.5458	150.251	306.565	11.406	41.600	54.414	13.772	281.755	266.077	309.821	141.075	38.577	150.968	25.077	239.789	10.495	279.031	0.00057114	0.0005117	0.00012711	530.14	9.9999e-06	3.2169e-06	813.28	214.99	5.6663e-06	1.9725e-06	359.34	154.76	87.337	47.383	5.5193e-06	89.13	0.00055872	0.0006035	0.00016233	497.29	6.28e-06	6.7945e-06	746.89	198.92	6.3629e-06	6.7887e-06	329.71	139.61	80.922	43.278	6.3008e-06	79.37	270.982	147.141	101.134	22.503	155.462	184.567	22.042	27.004	61.087	120.904	25.435	28.917	30.938	33.858	78.612	30.992	-8191	255	
2085.602	1	1	0	0	0.20758	0.13597	0.080507	0.16146	0.022017	0.15259	0.060366	0.12723	0.13107	0.12744	0.070742	0.014737	0.17798	0.252	0.21686	0.091757	-2.4813	-3.0583	-3.4417	-2.5729	-3.3875	-2.9958	-2.7729	-3.5729	-2.7812	-3.0167	-3.6125	-2.6854	-3.2792	-3.2021	-2.6208	-3.4729	347.203	127.199	312.234	340.822	94.018	258.828	46.678	224.430	75.726	340.135	254.184	274.415	183.621	341.333	27.358	226.384	0.00063963	0.00013657	0.00022603	528.19	7.5111e-06	3.3973e-06	824.54	217.1	9.2869e-06	5.9273e-06	360.94	153.86	87.358	47.458	1.0834e-06	89.612	0.00059154	0.00060605	0.0001606	498.22	6.5397e-06	6.6969e-06	752.39	199.72	6.4999e-06	6.5395e-06	330.13	139.66	81.404	43.288	6.1047e-06	79.582	252.738	261.982	117.520	22.784	126.301	145.358	21.726	27.055	192.862	155.797	24.711	29.085	30.883	33.886	158.811	31.038	-8191	255	
2085.675	1	1	0	0	0.058902	0.42837	0.10951	0.17609	0.041158	0.24996	0.22325	0.20059	0.095552	0.17757	0.22116	0.25621	0.10549	0.17893	0.125	0.24423	-2.4917	-3.0583	-3.4979	-2.5271	-3.1792	-3.0354	-2.9146	-3.3229	-2.7354	-2.9229	-3.5042	-2.7562	-3.2583	-3.45	-2.7479	-3.5687	135.855	202.754	135.431	94.751	60.907	287.171	78.631	304.925	55.400	129.549	352.557	283.233	332.184	11.090	270.279	11.516	0.00068174	0.00094232	0.00018252	529.09	8.3308e-06	4.8708e-06	815.79	215.27	1.375e-05	5.4169e-06	359.6	153.83	86.916	47.213	3.6128e-06	89.089	0.0006065	0.00059453	0.00015607	497.73	6.6038e-06	6.4882e-06	745.4	199.56	6.546e-06	6.3047e-06	327.37	139.08	81.151	43.083	5.6373e-06	79.337	245.823	69.931	336.384	22.659	68.646	136.083	21.714	26.993	180.405	37.841	25.568	28.834	31.071	34.218	231.069	30.778	-8191	255	
2085.794	1	1	0	0	0.083225	0.20226	0.1499	0.087497	0.10776	0.12092	0.05368	0.14015	0.28689	0.20575	0.27353	0.20558	0.2178	0.17371	0.12562	0.1529	-2.35	-2.7333	-3.1937	-2.8604	-3.1312	-3.2333	-2.675	-3.4437	-2.8854	-2.8271	-3.3479	-2.8063	-2.9708	-3.4271	-2.6667	-3.6875	226.694	326.120	220.967	225.664	260.638	306.834	310.497	95.260	251.879	221.667	346.182	322.749	35.714	368.878	28.269	316.656	0.0005008	0.00025574	0.00024397	532.11	1.1204e-05	5.7182e-06	822.28	217.81	3.4368e-06	5.0617e-06	358.54	154.51	87.346	47.583	4.6975e-06	89.821	0.00060512	0.00057505	0.00014601	502.91	6.4593e-06	6.2978e-06	745.83	201	6.3178e-06	6.0936e-06	327.56	140.01	81.142	43.279	5.4465e-06	79.735	261.763	283.567	110.354	22.196	110.637	218.126	22.122	27.180	261.306	35.330	25.258	28.942	30.795	33.806	215.159	30.781	-8191	255	
2085.890	1	1	0	0	0.21652	0.21337	0.020428	0.42031	0.10492	0.13653	0.30878	0.27878	0.24845	0.18395	0.22675	0.24519	0.28416	0.079806	0.18806	0.17041	-2.6021	-2.8438	-3.5021	-2.8875	-3.0542	-3.425	-2.5917	-3.4354	-3.0875	-2.7271	-3.5958	-2.9771	-3.0042	-3.6646	-2.5812	-3.4792	101.207	362.211	161.968	287.890	33.843	122.571	343.108	326.307	81.726	112.829	173.461	29.802	9.362	282.428	126.811	241.935	0.00066261	0.00086172	0.00017663	533.42	1.4101e-05	3.8477e-06	821.48	217.43	7.3004e-06	2.0336e-06	360.34	156.17	87.975	47.835	9.2347e-06	90.248	0.00058193	0.00054273	0.00014113	504.92	6.2233e-06	6.0851e-06	749.29	201.97	6.3207e-06	5.9575e-06	330.32	141.1	81.681	43.43	5.8552e-06	80.451	254.393	46.029	43.198	22.202	114.581	131.403	21.379	27.057	235.709	82.401	25.023	28.596	30.224	33.398	178.885	31.032	-8191	255	
2085.986	1	1	0	0	0.32996	0.1669	0.32304	0.32433	0.062917	0.088809	0.21733	0.27811	0.11776	0.064949	0.065487	0.24022	0.44177	0.010073	0.17821	0.38344	-2.575	-2.5958	-3.3625	-3.0042	-2.85	-3.4417	-2.6167	-3.3458	-3.1583	-2.5687	-3.4729	-2.7604	-2.9188	-3.2875	-2.7333	-3.1083	293.575	34.542	60.336	236.173	328.744	16.761	364.831	42.431	337.769	75.599	13.257	18.018	295.086	52.902	262.225	328.281	0.00066618	0.00059611	0.00014687	539.54	9.4027e-06	2.692e-06	829.44	218.37	6.3907e-06	3.1191e-06	358.31	153.75	87.192	47.409	1.0503e-06	89.663	0.0005829	0.00053163	0.00015075	509.24	6.2293e-06	5.8592e-06	754.74	203.04	6.2613e-06	5.7431e-06	330.37	140.05	81.043	43.078	6.1468e-06	79.698	256.294	69.394	11.719	21.976	198.486	21.839	21.381	26.826	183.382	48.199	24.746	28.684	30.638	33.677	306.287	30.892	-8191	255	
2086.082	1	1	0	0	0.0075769	0.24658	0.11281	0.16017	0.14372	0.22915	0.087994	0.19492	0.11755	0.14429	0.25485	0.14687	0.071026	0.061054	0.094161	0.14277	-2.8604	-2.5187	-3.425	-2.9125	-2.9021	-3.4313	-2.7458	-3.3021	-3.4292	-2.7125	-3.5271	-3.1208	-2.6229	-3.5187	-2.8896	-3.1333	37.521	331.884	300.970	295.946	252.899	79.539	21.118	237.237	366.434	108.171	329.150	368.270	70.167	368.128	282.073	258.328	0.0003546	0.00046642	6.5058e-05	534.2	2.2828e-06	9.3681e-06	824.31	217.39	2.5618e-06	1.0379e-05	356.62	152.32	85.962	47.565	8.562e-06	88.875	0.00057831	0.00051944	0.00015448	505.6	5.9856e-06	5.6487e-06	751.42	201.48	6.1123e-06	5.7229e-06	328.04	138.38	80.119	42.948	6.5237e-06	79.351	242.153	261.880	318.434	22.347	285.035	255.889	21.439	27.371	65.539	151.016	25.278	28.623	30.673	33.679	138.430	30.864	-8191	255	
2086.203	1	1	0	0	0.12142	0.21802	0.13356	0.23228	0.2835	0.15481	0.30394	0.098251	0.17997	0.34084	0.18095	0.41363	0.17765	0.030815	0.33634	0.23786	-2.9229	-2.5667	-3.2979	-3.0458	-2.6396	-3.5271	-2.7167	-3.0604	-3.3354	-2.525	-3.3187	-3.1208	-2.8792	-3.525	-2.8083	-3.0833	178.886	324.048	34.666	99.465	205.691	156.899	327.250	97.767	339.784	366.095	63.126	339.674	286.672	88.936	177.198	342.388	0.00068592	0.00054377	0.00015403	530.81	5.9915e-06	2.8452e-06	821.85	217.26	9.2481e-07	4.4858e-06	357.14	151.53	85.871	47.194	9.7644e-06	89.101	0.0005702	0.00053186	0.00016607	504.68	6.0341e-06	5.8723e-06	751.62	201.15	6.0543e-06	6.1005e-06	328.39	137.94	79.89	43.067	6.714e-06	79.379	240.845	136.664	104.434	22.084	69.904	225.814	21.492	27.150	209.229	131.644	25.333	28.709	30.867	33.900	193.269	30.954	-8191	255	
2086.299	1	1	0	0	0.17595	0.14134	0.27774	0.10811	0.046726	0.054306	0.19346	0.10364	0.16576	0.24147	0.11452	0.16865	0.062355	0.13852	0.12271	0.044685	-3.0896	-2.6312	-3.3229	-3.1896	-2.6083	-3.5312	-3.0458	-2.9229	-3.375	-2.4104	-2.9583	-3.4458	-2.5938	-3.3542	-3.0208	-2.8854	88.471	337.419	196.349	200.298	305.669	50.304	275.861	243.840	95.425	151.110	172.926	106.674	302.703	308.201	99.477	164.542	0.00065671	0.00063773	0.0003042	531.37	3.9086e-06	9.8369e-06	820.41	216.63	7.2056e-06	6.7974e-06	360.28	154.43	86.455	47.495	7.4236e-06	89.437	0.00056616	0.00058557	0.00017642	504.83	5.9735e-06	6.6269e-06	752.81	201.54	6.0162e-06	6.5734e-06	332.14	139.5	80.117	43.267	6.6071e-06	79.619	251.939	63.680	308.146	22.227	19.723	190.041	21.689	26.694	209.628	179.359	24.647	28.968	31.073	33.968	212.589	31.445	-8191	255	
2086.395	1	1	0	0	0.11921	0.19518	0.12362	0.14574	0.20159	0.1789	0.045391	0.34157	0.069987	0.18239	0.17418	0.34542	0.15068	0.31071	0.021332	0.3496	-2.9792	-2.6542	-3.1542	-3.3229	-2.4813	-3.3833	-3.0979	-2.75	-3.3917	-2.8083	-3.1813	-3.4354	-2.8021	-3.2604	-3.0083	-2.8271	288.205	165.190	234.277	57.547	194.236	112.233	29.041	307.909	149.776	197.727	279.865	288.625	281.870	323.350	122.091	275.328	0.00067943	0.0007065	0.00023726	532.07	1.6315e-05	6.6899e-06	823.46	218.59	1.155e-05	5.0643e-06	360.8	153.74	87.235	47.712	1.701e-05	89.287	0.00053615	0.00059511	0.00016321	503.87	5.6441e-06	6.4403e-06	754.27	201.61	5.7277e-06	6.4668e-06	331.24	139.06	80.27	43.418	6.2449e-06	79.515	251.354	154.110	64.209	21.907	189.952	210.720	22.016	27.328	176.437	35.464	25.285	28.647	31.250	34.250	115.543	31.062	-8191	255	
2086.492	1	1	0	0	0.21191	0.056673	0.27761	0.23925	0.17248	0.23481	0.18241	0.26653	0.21873	0.091256	0.057442	0.10965	0.098112	0.23476	0.065063	0.072518	-3.1937	-2.8292	-2.8771	-3.6125	-2.7958	-3.2438	-3.4833	-2.6604	-3.4292	-2.8563	-2.8479	-3.4604	-2.625	-3.2229	-3.3167	-2.9104	42.958	214.084	26.128	45.831	128.339	110.692	284.398	235.628	211.068	52.543	205.152	362.112	34.477	290.668	202.675	309.091	0.00082071	0.00058194	0.00015353	539.71	1.1732e-05	3.3639e-06	823.29	219.38	6.3773e-06	7.8704e-06	357.15	154.66	87.505	47.651	1.208e-05	89.603	0.00052263	0.00057275	0.0001534	502.26	5.5832e-06	6.1977e-06	751.12	200.97	5.4832e-06	6.1436e-06	328.36	139.09	80.87	43.539	5.9102e-06	79.662	234.215	48.506	43.257	22.550	171.020	155.751	21.308	26.991	233.217	198.338	24.960	28.375	30.496	33.653	168.507	30.532	-8191	255	
2086.586	1	1	0	0	0.15424	0.053592	0.156	0.04653	0.06463	0.13728	0.041791	0.12573	0.13455	0.025518	0.22271	0.36648	0.21549	0.056129	0.069573	0.26878	-2.85	-2.9688	-2.4833	-3.5583	-2.6125	-3.2208	-3.3187	-2.8	-3.4125	-2.9104	-2.9167	-3.5187	-2.7521	-3.0708	-3.2646	-2.5792	274.050	318.993	146.704	309.896	78.403	153.181	12.525	340.906	207.699	101.822	354.640	345.359	81.725	363.782	17.317	347.910	0.00062371	0.0014464	9.5156e-05	534.05	9.144e-06	8.9543e-06	823.51	220.23	8.5491e-06	4.5327e-06	361.43	156.04	87.155	48.455	1.7072e-06	90.733	0.00052696	0.00055557	0.0001481	499.83	5.7504e-06	5.9706e-06	752.35	200.78	5.7252e-06	6.0109e-06	329.86	140.25	81.387	44	5.7063e-06	80.348	269.518	127.897	291.056	21.921	173.600	156.849	21.204	26.876	207.200	106.942	25.258	28.578	30.512	33.567	38.995	30.681	-8191	255	
2086.682	1	1	0	0	0.065856	0.14384	0.39024	0.24358	0.24586	0.2113	0.11057	0.043953	0.16593	0.37286	0.38136	0.046621	0.20969	0.11394	0.10686	0.11516	-2.9917	-2.9104	-2.7292	-3.4521	-2.6604	-3.0312	-3.6708	-2.5271	-3.3646	-3.1312	-2.6771	-3.5333	-2.6979	-3.0187	-3.2458	-2.8979	342.789	110.659	258.010	301.286	329.408	230.164	147.605	265.864	83.061	129.484	325.816	11.771	264.377	324.979	163.337	329.364	0.0006129	0.00084934	0.00011304	533.75	5.1091e-06	8.7637e-06	827.74	218.77	5.2342e-06	3.2586e-06	363.92	156.25	88.02	48.422	1.3895e-05	91.495	0.00055594	0.00054923	0.00014594	500.41	6.1073e-06	6.1728e-06	752.03	200.84	6.2089e-06	6.1268e-06	330.88	140.82	81.691	43.97	5.5654e-06	81.21	260.029	14.215	133.958	21.867	120.314	128.920	21.252	26.829	171.219	124.800	24.648	28.943	30.172	33.612	100.090	30.658	-8191	255	
2086.803	1	1	0	0	0.17798	0.020374	0.16762	0.14273	0.02819	0.15956	0.30368	0.23109	0.22347	0.099142	0.23563	0.40919	0.2059	0.2645	0.15582	0.066411	-2.8271	-3.1896	-2.5438	-3.2083	-2.8292	-2.7958	-3.4875	-2.6729	-3.1604	-3.2375	-2.525	-3.4542	-2.7979	-2.975	-3.4437	-2.7792	130.774	338.971	159.237	48.398	56.189	280.777	294.522	244.692	235.014	82.539	337.493	29.390	20.580	359.402	254.802	333.398	0.00072071	0.00022263	0.00013033	541.07	6.1675e-06	4.5654e-06	837.87	220	1.3518e-05	1.4314e-06	364.5	156.96	88.082	48.387	5.1269e-06	91.2	0.0005683	0.00053764	0.00013451	504.27	6.1009e-06	5.9009e-06	756.27	202.24	6.0124e-06	5.9297e-06	329.99	141.35	81.708	43.972	5.2494e-06	80.852	241.991	118.890	359.967	21.834	196.597	239.378	21.348	26.706	195.948	76.067	25.118	28.941	30.558	33.927	37.174	30.477	-8191	255	
2086.899	1	1	0	0	0.15233	0.20155	0.17886	0.081003	0.071811	0.10777	0.21839	0.1966	0.22548	0.23405	0.24807	0.28686	0.08939	0.15426	0.060192	0.15276	-2.7917	-3.1854	-2.4417	-3.4417	-3.0271	-2.7667	-3.3729	-2.7646	-3.0104	-3.2708	-2.6229	-3.5312	-2.9417	-2.7146	-3.4958	-3.0812	138.769	338.002	42.114	282.834	353.128	223.867	332.892	267.361	160.104	206.403	213.601	325.539	345.166	239.056	326.374	46.850	0.00071319	0.00091429	0.00014547	539.39	3.6946e-06	3.9439e-06	836.05	220.49	8.269e-06	5.9396e-06	366.24	157.36	87.688	48.012	2.1488e-06	90.987	0.00054919	0.00052129	0.00013089	505.52	5.8374e-06	5.626e-06	756.22	203.42	5.7651e-06	5.6037e-06	330.61	141.46	81.539	43.658	5.1378e-06	80.803	244.478	148.200	52.715	22.251	81.960	147.514	21.475	26.979	181.043	75.319	24.978	28.782	29.959	33.486	254.165	30.399	-8191	255	
2086.971	1	1	0	0	0.21197	0.30349	0.13188	0.24906	0.33856	0.17336	0.16815	0.22961	0.050974	0.20537	0.13266	0.082055	0.15988	0.32535	0.11794	0.12806	-2.7521	-3.2958	-2.5167	-3.2854	-3.1583	-2.6896	-3.6375	-2.9354	-2.7646	-3.5604	-2.7438	-3.4167	-3.3229	-2.7854	-3.4917	-2.8271	27.096	232.159	276.988	301.908	349.830	179.830	266.461	355.252	28.453	66.168	130.134	11.023	75.522	348.067	107.013	36.956	0.00074318	0.0013972	0.00029276	538.46	1.2955e-05	2.104e-06	828.87	220.25	1.3641e-06	4.3228e-06	366.84	158.05	87.885	48.347	7.2842e-06	91.828	0.00054165	0.00049765	0.00013413	505.77	5.8667e-06	5.5068e-06	755.02	203.55	5.7958e-06	5.4407e-06	332.61	142.26	81.661	43.809	5.528e-06	81.351	262.205	83.686	100.122	22.561	177.956	315.753	21.791	27.003	142.206	116.556	25.301	28.929	30.171	34.114	137.877	30.543	-8191	255	
2087.067	1	1	0	0	0.15971	0.112	0.17966	0.29429	0.20168	0.127	0.26399	0.16475	0.11167	0.12876	0.25158	0.0019276	0.047917	0.4775	0.054607	0.14345	-2.5333	-3.3417	-2.6896	-3.1833	-3.2667	-2.6625	-3.5604	-2.8854	-2.8875	-3.4333	-2.8354	-3.1813	-3.4375	-2.6458	-3.5312	-3.1479	79.530	203.467	170.507	35.341	154.428	253.386	311.681	72.512	260.320	214.921	117.798	180.000	9.616	322.967	217.514	310.291	0.00059855	0.00020661	0.00041271	535.98	1.2441e-05	2.2233e-06	834.45	219.45	7.4867e-06	1.4286e-06	364.3	158.15	88.853	48.683	1.2023e-05	90.787	0.00054641	0.00050096	0.000148	507.93	6.1183e-06	5.6603e-06	759.15	203.69	6.186e-06	5.6479e-06	333.58	142.33	82.033	43.988	6.3454e-06	81.299	262.605	76.311	102.852	22.235	118.879	200.678	21.480	26.786	136.119	287.671	24.677	28.674	30.093	33.750	175.810	30.953	-8191	255	
2087.187	1	1	0	0	0.15803	0.27563	0.24578	0.31447	0.18551	0.065174	0.28585	0.12082	0.12114	0.2623	0.10509	0.13085	0.32211	0.226	0.19161	0.060218	-2.4125	-3.5187	-2.5438	-3.0812	-3.3187	-2.6875	-3.3396	-3.0625	-2.5583	-3.4708	-2.775	-3.1396	-3.2833	-2.7396	-3.3583	-3.2625	45.439	251.033	104.801	36.879	102.309	67.781	321.693	166.885	133.051	259.718	85.698	305.638	356.317	10.478	339.582	337.827	0.0006124	0.00082099	0.00017754	530.88	1.0498e-05	4.3832e-06	817.85	216.87	5.0561e-06	5.8589e-06	357.96	152.04	86.583	47.053	6.9705e-06	88.437	0.00057918	0.0005516	0.00016882	506.9	6.5584e-06	6.1531e-06	752.95	201.34	6.7471e-06	6.3833e-06	331.22	138.96	80.512	43.052	7.2895e-06	79.262	235.547	142.486	85.138	22.290	68.019	129.140	21.897	26.793	195.905	148.254	25.186	29.057	30.606	33.865	106.812	30.683	-8191	255	
2087.283	1	1	0	0	0.091358	0.27484	0.13476	0.10633	0.063355	0.23155	0.17784	0.21281	0.13919	0.10501	0.055146	0.17532	0.10766	0.11274	0.045589	0.21235	-2.225	-3.6562	-2.7292	-3.0646	-3.2854	-2.7875	-3.25	-3.1333	-2.5563	-3.6104	-3.0333	-3.1229	-3.5771	-2.7021	-3.1208	-3.2562	23.042	185.699	335.983	331.431	350.724	100.689	252.240	255.520	256.820	75.788	32.838	343.212	25.300	26.200	77.510	324.557	0.00042043	0.00067471	0.00043866	521.33	4.6242e-06	9.8387e-06	811.09	213.34	5.5262e-06	4.4518e-06	356.89	150.18	84.533	46.73	1.0094e-05	87.794	0.00061793	0.00062083	0.0001913	504.75	6.8337e-06	6.8868e-06	750.86	199.19	6.6992e-06	7.0646e-06	330.03	137.05	79.868	42.802	7.6777e-06	78.496	261.341	42.919	347.502	22.980	79.725	187.431	21.513	27.052	153.189	328.422	25.430	28.989	30.987	34.218	208.738	30.887	-8191	255	
2087.380	1	1	0	0	0.26784	0.20675	0.15158	0.13898	0.15102	0.25172	0.11595	0.27992	0.17154	0.16183	0.074164	0.23457	0.25411	0.081387	0.22089	0.23117	-2.475	-3.3354	-2.8354	-2.9021	-3.4708	-2.5083	-3.2104	-3.2021	-2.5229	-3.5125	-3.0417	-2.9292	-3.4896	-2.8021	-3.0687	-3.5271	229.105	210.862	216.239	282.066	36.686	279.187	32.675	262.841	273.015	61.473	149.589	321.812	269.743	13.879	314.162	359.926	0.00067795	0.0016315	6.3716e-05	529.68	5.9695e-06	1.3671e-05	811.21	213.55	2.5711e-06	7.7164e-06	349.68	150.09	84.086	46.185	8.7402e-06	87.157	0.00062419	0.00068022	0.00019804	506.43	7.0288e-06	7.5124e-06	750.85	200.27	6.7621e-06	7.9463e-06	330.08	137.06	79.651	42.828	7.9459e-06	78.221	241.702	158.027	143.018	22.081	258.664	149.191	22.051	27.130	146.924	204.248	25.611	29.246	31.068	33.663	120.950	31.128	-8191	255	
2087.476	1	1	0	0	0.068838	0.10725	0.10724	0.36116	0.20202	0.16014	0.085024	0.12866	0.12798	0.31601	0.17355	0.20938	0.18662	0.37802	0.094274	0.13179	-2.175	-3.1625	-3.0375	-2.7479	-3.5521	-2.6667	-3.1458	-3.4292	-2.5875	-3.3979	-3.1312	-2.8854	-3.5167	-3.0812	-2.8854	-3.5958	312.142	85.159	190.099	281.913	299.172	32.823	116.075	343.569	348.034	135.951	358.750	171.967	218.679	22.788	60.714	171.607	0.00064254	0.00023324	0.00039664	520.43	7.7932e-06	8.4944e-06	817.33	213.7	4.6289e-06	5.0381e-06	349.53	151.4	85.425	46.554	2.605e-06	87.067	0.00064278	0.00075266	0.00020537	504.76	7.3177e-06	8.0689e-06	752.52	200.33	7.0837e-06	8.2291e-06	329.96	137.43	80.354	43.033	7.8754e-06	78.106	237.375	188.704	294.413	22.853	191.190	255.883	22.022	27.223	200.277	136.419	25.211	28.650	30.344	33.972	309.146	30.952	-8191	255	
2087.572	1	1	0	0	0.098386	0.041295	0.13488	0.24693	0.088598	0.32033	0.17037	0.25809	0.19909	0.13397	0.033484	0.087348	0.21134	0.13516	0.18831	0.19462	-2.2	-3.3458	-3.0958	-2.7604	-3.35	-2.7083	-2.9854	-3.4417	-2.9083	-3.125	-3.3771	-2.6771	-3.5333	-2.9062	-2.9604	-3.4708	149.716	131.283	55.465	246.712	303.366	99.223	338.098	321.582	341.201	148.176	44.817	15.357	275.250	363.471	161.289	27.161	0.00058793	0.00022803	0.0001288	526.95	7.032e-06	8.2621e-06	806.18	212.05	1.5666e-05	4.7775e-06	348.16	148.92	85.307	46.227	4.5118e-06	86.333	0.00067541	0.00075659	0.0002026	503	7.4847e-06	8.2212e-06	745.47	198.24	7.4684e-06	8.0411e-06	326.7	135.88	80.173	42.802	7.6854e-06	77.36	247.818	128.159	56.222	22.757	240.714	76.275	22.118	27.315	225.675	74.054	25.231	29.146	31.065	34.131	171.098	31.085	-8191	255	
2087.666	1	1	0	0	0.34445	0.071301	0.088162	0.14546	0.28361	0.2426	0.17676	0.27818	0.17163	0.1785	0.11963	0.12628	0.083308	0.22339	0.15294	0.2505	-2.3729	-2.925	-3.2271	-2.6625	-3.5	-2.975	-2.9708	-3.5354	-2.6917	-3.0958	-3.3083	-2.675	-3.3208	-3.1437	-2.575	-3.5708	119.965	176.126	348.544	295.011	90.830	18.051	32.428	308.801	18.114	153.104	230.128	292.489	343.295	107.857	257.892	352.419	0.00075632	0.00082395	4.5405e-05	525.48	1.7041e-05	5.5186e-06	808.08	213.37	5.9335e-06	5.6168e-06	350.74	148.43	84.456	46.096	4.2998e-06	86.463	0.00071072	0.00072694	0.0001985	502.25	7.9238e-06	8.2775e-06	747.01	199.14	7.954e-06	8.1186e-06	327.32	135.6	80.283	42.663	7.4671e-06	77.595	238.466	240.874	26.430	22.323	142.464	108.470	21.776	26.802	157.211	174.735	25.325	29.291	30.823	34.372	110.133	31.257	-8191	255	
2087.764	1	1	0	0	0.048327	0.091303	0.30918	0.15616	0.2769	0.10379	0.1504	0.2188	0.075403	0.13566	0.23961	0.19139	0.092383	0.30381	0.18578	0.20587	-2.2896	-3.1146	-3.4042	-2.725	-3.3563	-3.2958	-2.8208	-3.65	-2.5208	-2.9958	-3.4375	-2.6625	-3.5229	-3.1437	-2.5938	-3.4271	324.725	105.630	257.124	265.229	232.083	124.333	310.027	356.099	104.158	122.857	345.797	21.004	244.696	22.117	272.955	285.781	0.00068729	0.00070208	0.00023216	518.29	1.0026e-05	4.4429e-06	800.73	211.78	3.9227e-06	3.1317e-06	343.78	147.78	83.255	45.814	1.6571e-06	85.799	0.00074091	0.00073157	0.0001933	500.06	8.395e-06	8.2801e-06	740.77	198.29	8.6547e-06	8.407e-06	325.05	135.28	80.277	42.537	7.633e-06	77.378	240.732	82.372	111.964	22.502	105.491	54.963	21.370	27.247	178.787	178.315	25.737	29.163	31.204	34.197	93.629	31.339	-8191	255	
2087.883	1	1	0	0	0.17289	0.2438	0.085251	0.15297	0.20263	0.06538	0.11681	0.27184	0.075417	0.10449	0.26559	0.020878	0.29689	0.11461	0.21998	0.036416	-2.5187	-2.7833	-3.5938	-2.6021	-3.1688	-3.0938	-2.8083	-3.5896	-2.7917	-2.7938	-3.4354	-2.8667	-3.1437	-3.3958	-2.7396	-3.5042	29.700	22.726	265.309	229.424	56.466	264.912	271.706	221.421	58.995	321.000	49.264	261.030	344.139	266.295	57.748	294.064	0.00070398	0.0008594	0.00050667	513.82	8.5546e-06	7.3414e-06	807.73	212.4	9.7172e-06	2.0027e-06	352.59	148.16	83.968	46.224	5.8605e-06	86.894	0.00078444	0.00074858	0.00019003	501.44	8.2564e-06	7.9662e-06	742.27	198.97	8.1776e-06	7.7682e-06	324.88	136.05	80.207	42.533	6.9746e-06	78.087	249.347	177.850	362.786	22.775	219.881	121.443	22.025	27.977	219.273	72.074	25.614	29.513	31.336	34.241	100.041	31.293	-8191	255	
2087.979	1	1	0	0	0.07372	0.077265	0.2065	0.34086	0.038637	0.061288	0.21239	0.24417	0.20791	0.20751	0.11408	0.20384	0.19008	0.15138	0.25898	0.17176	-2.6667	-2.6229	-3.3375	-2.7396	-2.9938	-3.3458	-2.7458	-3.5708	-3.0438	-2.5667	-3.4896	-2.9021	-2.8625	-3.6854	-2.5187	-3.5458	63.918	61.803	34.935	316.090	269.283	302.949	204.516	288.808	139.373	304.215	297.667	337.871	258.244	262.258	132.109	155.822	0.0006249	0.0010729	0.00045534	518.09	9.446e-06	4.8913e-06	797.55	212.74	2.0495e-06	8.088e-06	349.83	149.98	84.951	46.492	2.753e-06	87.733	0.00072778	0.00068879	0.00017897	500.99	7.7233e-06	7.5396e-06	738.08	198.88	7.5516e-06	7.1461e-06	323.83	136.46	80.016	42.649	6.445e-06	78.613	236.898	62.268	362.445	22.596	171.574	305.402	22.025	27.325	104.474	66.577	25.408	28.886	30.917	34.023	38.789	31.067	-8191	255	
2088.075	1	1	0	0	0.15312	0.14259	0.21545	0.19691	0.11787	0.18581	0.25915	0.2878	0.13712	0.21152	0.081915	0.24241	0.059351	0.26414	0.16294	0.27652	-2.6125	-2.5229	-3.4271	-2.6917	-2.9813	-3.3812	-2.7854	-3.175	-3.0563	-2.8312	-3.2812	-2.9375	-2.7938	-3.5833	-2.6479	-3.3083	109.176	132.019	294.413	335.710	291.898	41.181	308.099	359.872	256.673	78.767	84.144	337.683	345.884	356.067	193.250	290.948	0.00051653	0.0006765	0.00021324	529.99	6.8051e-06	3.2661e-06	819.72	217.33	5.0354e-06	1.0489e-05	359.55	152.06	86.525	47.239	6.9086e-06	89.329	0.00065538	0.00061489	0.00016501	506.43	6.9524e-06	6.5345e-06	748.32	202.02	6.8304e-06	6.2521e-06	329.26	138.81	80.742	42.902	6.4485e-06	79.573	231.211	42.659	104.716	22.411	327.903	178.962	21.886	27.103	133.685	142.044	25.053	28.518	30.838	33.620	120.509	30.722	-8191	255	
2088.196	1	1	0	0	0.055823	0.10766	0.22253	0.063053	0.24437	0.044476	0.17418	0.12811	0.0087671	0.13251	0.15592	0.16788	0.20212	0.36732	0.087931	0.24683	-2.8146	-2.5833	-3.4729	-2.8875	-2.7	-3.4667	-2.7667	-3.0771	-3.2042	-2.4229	-3.4458	-2.9542	-2.8167	-3.4333	-2.7667	-3.1562	181.144	183.713	348.355	268.938	177.000	157.963	44.322	245.498	330.692	98.067	284.866	364.686	283.814	288.787	302.561	283.713	0.00071612	0.00019168	0.00018178	538.67	5.8201e-06	5.6679e-06	828.9	219.05	5.0464e-06	3.4393e-06	360.98	154.3	87.498	47.96	6.3411e-06	90.776	0.00060837	0.00053585	0.00016068	508.29	6.4314e-06	5.8642e-06	755.51	203.14	6.4415e-06	5.7061e-06	332.85	139.98	81.058	43.474	6.3896e-06	80.645	261.055	162.136	85.040	22.258	157.942	146.735	21.531	27.232	234.364	82.904	25.481	28.996	30.679	33.797	172.966	30.770	-8191	255	
2088.268	1	1	0	0	0.1496	0.15543	0.095548	0.29543	0.10446	0.034368	0.26941	0.27064	0.089329	0.18413	0.32073	0.28856	0.15779	0.18257	0.062441	0.11669	-2.9104	-2.7521	-3.2708	-3.0375	-2.7208	-3.5458	-2.9125	-3.0833	-3.4938	-2.7708	-3.3229	-3.2021	-2.5958	-3.6063	-2.6646	-3.2875	180.783	240.856	30.971	85.897	36.830	96.593	252.154	77.696	365.267	305.980	306.916	359.221	290.195	367.721	161.947	276.025	0.0006306	0.0003642	0.00044403	542.49	1.9832e-06	4.1291e-06	831.02	221.6	6.7214e-06	2.2216e-06	367.8	155.78	87.521	48.153	3.9079e-06	90.203	0.00056708	0.00052149	0.00016057	509.81	6.1104e-06	5.6441e-06	760.65	204.66	6.0041e-06	5.7742e-06	336.28	140.69	81.281	43.579	6.5842e-06	80.334	255.451	160.715	71.103	22.367	76.460	163.004	21.650	27.483	117.566	297.199	25.570	29.205	31.191	33.995	194.691	30.854	-8191	255	
2088.364	1	1	0	0	0.19569	0.057919	0.030143	0.14369	0.044382	0.19323	0.25056	0.23958	0.043394	0.17041	0.24925	0.24853	0.30745	0.18333	0.076336	0.34106	-2.8021	-2.4729	-3.2104	-3.2521	-2.5312	-3.35	-3.1312	-2.8479	-3.3812	-2.425	-3.3354	-3.1208	-2.7167	-3.4229	-2.8063	-2.9896	51.840	92.281	184.802	366.679	284.144	126.188	100.539	363.622	12.940	63.178	312.265	354.209	344.814	358.619	343.845	24.045	0.0003552	0.001225	0.00028839	540.06	5.6254e-06	6.7275e-06	823.91	219.02	9.8321e-06	7.0461e-06	358.55	152.49	85.859	47.303	8.0453e-06	89.083	0.00055643	0.00056449	0.00017149	509.54	6.0973e-06	6.4477e-06	755.11	202.53	6.1422e-06	6.5447e-06	332.06	138.58	80.071	43.289	6.8575e-06	79.431	237.638	92.686	72.196	22.178	150.807	168.093	21.427	27.379	133.183	206.692	25.722	28.861	30.913	33.900	144.063	31.119	-8191	255	
2088.484	1	1	0	0	0.15791	0.25737	0.063091	0.070686	0.068309	0.20236	0.30045	0.040638	0.20211	0.14631	0.085897	0.14164	0.20971	0.19894	0.24309	0.36345	-3.1583	-2.7667	-3.0375	-3.2729	-2.5417	-3.3271	-3.1063	-2.6479	-3.4375	-2.7021	-3.1813	-3.3042	-2.675	-3.4	-3	-2.9042	258.960	106.715	263.331	84.050	359.948	348.631	345.080	193.049	124.698	40.423	76.325	199.119	310.535	20.523	167.875	294.210	0.0006449	0.0007392	0.00014303	533	4.6163e-06	1.336e-05	822.06	218.11	1.5938e-05	2.39e-06	359.77	151.9	85.877	46.995	1.0484e-05	88.389	0.0005672	0.00062409	0.00017626	509.29	6.1628e-06	6.8952e-06	756.43	202.45	6.2192e-06	7.1309e-06	332.49	138.16	80.233	43.162	7.1405e-06	78.909	255.127	141.686	297.431	22.517	119.903	226.014	21.894	27.450	143.009	249.107	25.147	29.545	31.157	33.914	137.200	31.172	-8191	255	
2088.579	1	1	0	0	0.18006	0.34611	0.16038	0.22238	0.17004	0.17465	0.26384	0.24226	0.041747	0.18052	0.17707	0.042371	0.17819	0.24202	0.12897	0.05179	-3	-2.7271	-2.7208	-3.475	-2.4917	-3.3458	-3.1896	-2.7562	-3.4771	-2.9188	-2.9792	-3.4813	-2.5479	-3.3292	-3.175	-2.7812	57.211	109.898	354.804	66.046	358.103	80.858	10.358	351.328	327.258	287.800	312.483	326.216	310.225	331.987	173.626	320.675	0.00071094	0.00074402	2.9014e-05	537.67	4.6866e-06	9.706e-06	821.64	218.99	7.4901e-06	6.5103e-06	361.61	153.45	86.433	47.607	4.804e-06	89.475	0.00059435	0.00065874	0.00017893	507.43	6.3816e-06	7.2221e-06	755.39	202.3	6.5701e-06	7.3027e-06	333.8	139.65	81.068	43.727	6.9759e-06	79.66	243.977	99.309	28.740	22.674	348.516	164.328	21.987	27.185	138.966	177.314	25.111	28.784	31.157	34.208	104.917	31.580	-8191	255	
2088.675	1	1	0	0	0.096637	0.16273	0.15018	0.098336	0.15808	0.077474	0.03016	0.26938	0.22808	0.15894	0.19565	0.26462	0.077119	0.16632	0.16824	0.046942	-2.8646	-2.9229	-2.8792	-3.55	-2.6312	-3.1667	-3.4021	-2.5583	-3.3521	-2.9375	-2.9521	-3.6646	-2.6292	-3.1125	-3.225	-2.7	320.400	98.999	297.101	62.402	156.601	53.830	326.697	16.268	268.703	75.668	276.629	349.508	170.687	319.233	264.171	171.255	0.00086353	0.00069541	0.00037225	536.62	1.4917e-05	1.4216e-06	834.82	221.76	5.5723e-06	1.6157e-05	360	155.01	87.391	47.5	3.9226e-06	89.288	0.00061601	0.00063601	0.00017084	508.74	6.4207e-06	6.9606e-06	760.95	203.16	6.7313e-06	7.008e-06	334.15	139.92	81.545	43.51	6.8705e-06	79.273	236.257	24.262	65.119	22.309	138.648	149.808	21.893	27.528	221.494	64.982	25.434	28.781	31.095	33.890	202.210	31.071	-8191	255	
2088.771	1	1	0	0	0.083144	0.079288	0.18142	0.14138	0.16661	0.28847	0.24249	0.23956	0.010053	0.29001	0.26931	0.087514	0.25685	0.097398	0.04851	0.203	-3.0208	-3.0375	-2.7562	-3.4917	-2.7854	-3.1208	-3.5604	-2.5708	-3.4833	-3.0271	-2.6688	-3.6042	-2.7646	-2.8792	-3.5687	-2.7146	289.864	201.526	282.774	48.069	206.368	302.250	247.483	331.829	124.343	227.961	309.951	359.501	254.675	230.560	78.660	17.994	0.00058736	0.00038903	0.0001659	539.15	1.9524e-06	8.7888e-06	830.76	221.19	4.4723e-06	1.7365e-05	363.37	155.09	86.901	47.612	3.1179e-06	88.655	0.00064493	0.00066008	0.00017099	507.83	6.9181e-06	6.9922e-06	758.52	203.44	6.9902e-06	6.8324e-06	332.24	140.05	81.838	43.568	6.4345e-06	79.161	243.687	104.919	69.493	22.657	138.687	88.057	21.572	27.162	353.521	135.460	25.236	28.578	31.019	34.071	115.730	30.556	-8191	255	
2088.867	1	1	0	0	0.20973	0.12223	0.10896	0.30186	0.17982	0.082949	0.42048	0.11337	0.11523	0.12454	0.028263	0.10655	0.12214	0.098462	0.10503	0.061585	-2.6917	-3.0938	-2.6167	-3.5938	-2.7708	-2.9667	-3.4458	-2.6437	-3.2979	-3.1937	-2.7542	-3.5854	-2.8625	-2.925	-3.5396	-2.8354	26.862	127.501	121.511	9.900	163.592	39.514	247.113	51.445	322.153	97.093	28.594	322.232	86.436	45.655	128.042	278.840	0.00085416	0.0012194	0.00018642	537.73	1.6762e-05	7.5839e-06	829.29	219.8	4.6164e-06	5.6991e-06	362.2	153.95	87.068	47.746	6.8257e-06	88.872	0.00065393	0.00064666	0.00016796	511.3	7.2998e-06	7.0966e-06	758.08	203.44	7.2525e-06	7.2488e-06	332.69	139.94	82.178	43.7	6.5842e-06	79.46	252.973	70.743	41.667	22.418	158.379	235.222	21.407	27.257	259.711	76.485	25.454	29.127	30.821	34.107	170.510	31.210	-8191	255	
2088.963	1	1	0	0	0.27385	0.11237	0.35372	0.30996	0.069446	0.086623	0.19869	0.27765	0.20134	0.16871	0.14061	0.35419	0.23061	0.2879	0.28044	0.30221	-2.9542	-3.1917	-2.6479	-3.3542	-2.8396	-2.9021	-3.4417	-2.6292	-2.9667	-3.2479	-2.7062	-3.5187	-3.1146	-2.9167	-3.3063	-2.6729	305.778	366.281	33.951	21.197	72.414	194.593	340.869	257.784	226.639	87.884	76.606	60.272	27.632	11.568	140.134	324.790	0.00090389	0.00013404	0.00041072	539.05	1.16e-06	4.2937e-06	824.71	219.73	1.8209e-06	3.275e-06	361.5	155.82	87.007	47.498	5.6595e-06	88.698	0.00068685	0.00066966	0.00016754	514.69	7.5487e-06	7.2478e-06	756.06	204.71	7.4681e-06	7.5617e-06	332.7	140.99	82.593	43.59	6.8736e-06	79.797	249.496	58.905	50.179	22.898	234.849	184.079	21.941	27.429	285.848	55.882	25.592	29.261	30.467	34.490	196.739	31.099	-8191	255	
2089.060	1	1	0	0	0.32212	0.040935	0.12608	0.036826	0.13125	0.1025	0.26549	0.1305	0.11275	0.38718	0.28354	0.10669	0.20397	0.14043	0.21382	0.35515	-2.7646	-3.5729	-2.7	-3.2708	-2.9813	-2.7979	-3.5042	-2.8083	-3.0854	-3.4208	-2.4646	-3.2729	-2.9729	-2.7458	-3.4167	-2.8083	21.380	115.115	365.173	338.207	206.831	367.201	313.036	369.003	261.635	15.585	48.048	121.157	65.244	356.228	139.312	356.353	0.0007656	0.00071645	0.000545	539.45	1.269e-05	6.0781e-07	829.74	219.93	9.7136e-06	9.6118e-06	360.3	153.8	86.629	47.152	9.6746e-06	88.659	0.00070103	0.000665	0.00017202	515.52	7.5313e-06	7.0524e-06	757.44	204.59	7.2772e-06	6.971e-06	331.65	140.39	81.779	43.326	6.7516e-06	79.573	245.463	185.574	130.669	22.942	121.455	88.277	21.982	27.525	253.385	69.502	25.774	29.352	30.939	34.128	198.050	31.335	-8191	255	
2089.156	1	1	0	0	0.30304	0.15207	0.23068	0.1734	0.1136	0.23932	0.14149	0.24723	0.25273	0.009488	0.091023	0.14251	0.20521	0.17935	0.15565	0.13074	-2.4896	-3.4146	-2.6604	-3.1271	-3.1333	-2.8729	-3.5542	-2.9792	-2.7625	-3.4083	-2.8917	-3.2833	-3.2479	-2.625	-3.475	-3.0187	170.598	352.001	136.800	362.069	78.887	228.819	17.119	106.854	124.113	87.819	296.011	331.388	175.514	136.775	263.661	119.864	0.00064257	0.00081331	0.00037781	535.15	1.0792e-06	1.1017e-05	828.51	218.97	8.9163e-06	1.1512e-05	363.09	154.54	87.213	47.557	1.2863e-05	88.306	0.00066869	0.00062669	0.00017398	513.64	7.4518e-06	6.6678e-06	758.57	204.49	7.3019e-06	6.8606e-06	334.45	140.66	82.143	43.289	7.1764e-06	79.361	246.949	307.174	88.078	22.990	329.581	184.163	22.037	27.500	236.382	177.645	25.417	29.357	30.678	34.406	138.838	30.799	-8191	255	
2089.276	1	1	0	0	0.061297	0.0962	0.13176	0.15338	0.15206	0.12927	0.18723	0.32146	0.24535	0.18087	0.14017	0.39357	0.099069	0.18717	0.069601	0.13526	-2.2875	-3.3833	-2.6437	-3.1937	-3.2292	-2.6833	-3.4521	-3.0167	-2.8229	-3.4833	-2.8208	-2.9583	-3.4667	-2.7167	-3.2542	-3.1813	226.123	36.910	21.314	368.860	169.464	257.794	341.455	232.336	251.146	286.325	312.825	312.502	172.946	345.261	253.525	325.576	0.00049138	0.00049299	9.6121e-05	536.3	6.5699e-06	5.654e-06	827.09	219.75	6.0391e-06	9.8879e-06	359.33	154.87	87.425	47.592	1.0986e-05	88.386	0.00066367	0.00060451	0.00018192	513.93	7.0755e-06	6.5328e-06	762.72	204.52	7.0998e-06	6.7577e-06	335.15	140.69	82.387	43.349	7.6273e-06	79.611	240.087	263.580	165.419	22.714	101.584	96.212	21.960	27.738	228.412	181.935	25.493	29.224	30.864	34.043	165.359	30.666	-8191	255	
2089.373	1	1	0	0	0.15699	0.080955	0.1538	0.17719	0.21324	0.23083	0.081114	0.13854	0.069775	0.23469	0.2584	0.056118	0.097898	0.244	0.12693	0.28551	-2.1792	-3.525	-2.6188	-3.1833	-3.4479	-2.6333	-3.5354	-3.1562	-2.6688	-3.2979	-2.8417	-3.1104	-3.3167	-2.5833	-3.0771	-3.2708	181.760	193.081	174.502	325.567	150.489	127.547	264.112	30.245	350.486	217.659	263.675	267.727	235.484	341.214	61.878	287.728	0.0006767	0.0009791	0.00016499	538.21	2.2202e-06	1.4612e-05	832.15	219.9	5.8334e-06	2.6376e-06	361.57	153.64	87.953	47.4	1.6056e-06	88.595	0.00067194	0.00064205	0.00020054	516.24	7.2679e-06	6.9919e-06	765.1	204.94	7.0095e-06	7.1887e-06	337.69	141.4	82.094	43.566	7.8277e-06	79.568	230.337	26.207	205.253	22.329	360.777	199.451	21.384	26.780	209.486	205.525	25.241	28.976	30.596	33.848	280.879	30.801	-8191	255	
2089.469	1	1	0	0	0.13773	0.10451	0.23065	0.17955	0.046761	0.095841	0.060342	0.062787	0.24774	0.1152	0.08517	0.31522	0.12216	0.30607	0.16785	0.22514	-2.3292	-3.3729	-3.0958	-2.7604	-3.4229	-2.7083	-3.2458	-3.2438	-2.5854	-3.45	-2.9729	-2.8563	-3.5062	-2.8333	-3.0333	-3.3104	236.684	365.922	175.497	334.721	235.300	75.014	269.930	180.651	307.962	114.133	362.013	296.141	351.483	336.118	61.235	322.339	0.00075317	0.0010215	0.00041659	534.67	3.3069e-06	5.2053e-06	828.76	218.23	8.3957e-06	1.0213e-05	358.8	154.06	86.866	47.211	6.8307e-06	88.612	0.00064213	0.00067378	0.0002001	515.94	6.9695e-06	7.5041e-06	763.28	204.43	6.8109e-06	7.5523e-06	335.93	140.38	81.568	43.399	7.4348e-06	79.162	244.838	113.082	31.838	22.480	260.396	257.005	21.799	27.142	149.009	173.942	25.184	29.120	31.102	33.814	114.579	30.875	-8191	255	
2089.565	1	1	0	0	0.16812	0.07946	0.073245	0.11468	0.099834	0.24844	0.053875	0.27265	0.11238	0.19233	0.21587	0.31546	0.078124	0.078738	0.14298	0.19411	-2.2021	-3.3333	-2.9292	-2.6521	-3.3542	-2.7271	-3.0979	-3.4771	-2.6562	-3.5542	-3.0687	-2.7708	-3.5021	-2.8833	-3.0292	-3.5375	330.431	183.461	210.402	12.219	57.860	191.100	278.727	31.076	159.320	50.972	34.045	356.090	47.983	362.894	164.925	362.727	0.0006893	0.00021376	0.00019619	540.76	1.1794e-05	9.7327e-06	827.09	219	8.5081e-06	1.9824e-05	358.25	152.25	87.025	47.416	1.3379e-05	88.76	0.00060478	0.00067981	0.00019304	514.76	6.8434e-06	7.6331e-06	760.07	203.87	6.7654e-06	7.8125e-06	334.29	139.2	81.381	43.632	7.4494e-06	79.203	241.142	71.825	262.074	22.296	203.270	229.853	21.771	27.195	201.281	153.787	25.368	29.140	30.547	34.063	107.526	30.953	-8191	255	
2089.659	1	1	0	0	0.11034	0.24647	0.23835	0.047555	0.10004	0.24792	0.21639	0.12047	0.11099	0.12979	0.10933	0.26581	0.076062	0.13721	0.13111	0.090599	-2.2542	-3.1188	-3.05	-2.775	-3.3417	-2.8292	-2.8708	-3.4229	-2.8354	-3.2917	-3.3021	-2.5854	-3.5146	-2.7896	-2.9021	-3.6042	219.778	296.883	116.534	283.852	114.772	167.158	239.090	260.257	244.581	139.490	137.069	249.364	280.544	29.313	258.209	329.259	0.00066149	0.0015526	0.0003833	543.02	8.0614e-06	1.3844e-06	828.7	219.54	3.9757e-06	1.0778e-05	359.89	155.29	88.19	47.323	4.8406e-06	89.479	0.00061886	0.00069698	0.00018816	511.24	6.8043e-06	7.5845e-06	763.51	203.82	6.9428e-06	7.7666e-06	335.65	140.56	82.687	43.762	7.5312e-06	79.805	239.294	28.116	31.036	22.700	190.578	261.394	21.696	27.564	176.614	42.720	25.966	29.185	31.006	33.992	96.545	31.166	-8191	255	
2089.757	1	1	0	0	0.30877	0.27191	0.11885	0.25653	0.079851	0.060818	0.30402	0.21624	0.10828	0.33747	0.3383	0.19337	0.069824	0.13545	0.21127	0.28338	-2.0625	-3.0187	-3.225	-2.7458	-3.2646	-3.0104	-2.95	-3.7479	-2.8542	-3.1042	-3.3958	-2.7438	-3.4542	-3.1937	-2.4646	-3.7146	93.041	303.848	121.424	23.991	80.338	316.736	316.671	189.504	316.027	52.996	283.191	15.083	330.647	291.399	105.747	321.488	0.00066718	0.00081286	8.9078e-05	546.35	1.2204e-05	6.6232e-06	836.61	222.92	8.0124e-06	1.0719e-05	367.73	155.21	87.938	47.662	1.2502e-05	90.14	0.00068452	0.00071576	0.00019278	515.25	7.4836e-06	7.6706e-06	768.92	206.65	7.2844e-06	7.6425e-06	339.28	141.19	83.517	43.951	7.2956e-06	80.102	242.418	115.143	320.016	22.482	187.394	135.129	21.864	27.361	274.645	162.220	25.533	28.992	30.447	34.180	225.022	31.281	-8191	255	
2089.876	1	1	0	0	0.1657	0.21592	0.18651	0.11212	0.049068	0.27809	0.33989	0.22379	0.067119	0.22922	0.11862	0.26178	0.033818	0.12867	0.22931	0.13674	-2.2146	-3.0354	-3.2479	-2.5292	-3.3812	-3.0354	-2.6813	-3.5396	-2.4771	-2.9521	-3.4646	-2.8083	-3.3979	-3.1083	-2.5812	-3.6417	82.335	159.052	285.891	354.467	222.560	93.913	21.874	188.315	84.125	268.959	321.910	306.238	338.809	145.140	352.683	281.789	0.00081115	0.0020478	0.00028644	542.84	1.3512e-05	3.0697e-06	833.9	221.72	5.799e-06	7.9365e-06	364.26	154.25	88.408	47.764	2.7365e-06	88.583	0.0007098	0.00070712	0.00018811	515.72	7.8034e-06	7.6716e-06	765.74	206.18	7.5682e-06	7.5115e-06	336.98	140.43	83.379	43.796	6.9007e-06	79.476	271.040	58.923	18.307	22.436	178.141	44.326	21.516	27.615	221.114	147.572	24.873	28.891	31.432	34.000	199.443	31.191	-8191	255	
2089.972	1	1	0	0	0.30116	0.25965	0.062512	0.3106	0.089786	0.02978	0.081261	0.094749	0.23214	0.087009	0.18387	0.37914	0.40739	0.03881	0.19439	0.22317	-2.5187	-2.8583	-3.3312	-2.6688	-3.3042	-3.2062	-2.7604	-3.45	-2.9667	-3.0271	-3.3688	-3.0875	-3.125	-3.3875	-2.5542	-3.5938	366.599	123.801	268.278	293.555	100.084	115.324	284.538	197.064	195.613	242.070	307.079	299.781	334.398	111.551	131.645	327.933	0.00060793	0.0014295	0.00040482	538.37	1.3702e-05	2.0336e-06	830.34	219.86	7.3156e-06	1.1877e-05	361.28	154.43	87.495	47.793	3.1329e-06	88.348	0.00070386	0.00068468	0.0001778	514.42	7.6673e-06	7.5834e-06	761.23	204.76	7.7421e-06	7.5815e-06	333.56	140.55	82.893	43.75	6.7837e-06	79.475	242.168	125.723	89.902	22.407	19.743	300.483	21.639	27.555	176.890	159.690	25.226	29.496	31.366	33.824	197.883	31.330	-8191	255	
2090.068	1	1	0	0	0.12352	0.094652	0.20557	0.20793	0.2493	0.034995	0.22786	0.201	0.37195	0.11041	0.12658	0.31255	0.093883	0.14463	0.12858	0.10736	-2.5333	-2.7375	-3.5958	-2.775	-3.1146	-3.5208	-2.7604	-3.2396	-3.2083	-2.6937	-3.5	-2.7667	-3.0646	-3.3667	-2.6521	-3.5062	327.990	84.670	302.396	235.531	297.653	326.182	266.270	359.720	251.316	102.056	321.694	208.822	13.918	267.700	137.389	346.640	0.00062968	0.00055671	0.00026603	542.03	9.5089e-07	1.1677e-06	834.93	220.42	5.0716e-06	5.6747e-06	360.42	155.05	87.355	48.146	1.6684e-05	89.668	0.00071578	0.00069396	0.00017543	519.21	7.7296e-06	7.6065e-06	762.31	205.63	7.7848e-06	7.2866e-06	333.51	141.27	82.704	43.86	6.7404e-06	80.133	242.409	23.835	247.290	22.712	133.916	27.049	22.076	26.916	251.676	287.604	25.050	28.922	30.864	33.687	152.314	31.062	-8191	255	
2090.164	1	1	0	0	0.23983	0.090534	0.098063	0.29501	0.17517	0.22874	0.17807	0.15875	0.17926	0.22299	0.093868	0.074528	0.22942	0.13494	0.15184	0.28341	-2.625	-2.5625	-3.5708	-2.6521	-2.9271	-3.2583	-2.7708	-3.2667	-3.1646	-2.6562	-3.4792	-2.9604	-2.8833	-3.6521	-2.5625	-3.3	36.169	251.017	38.762	351.796	305.665	131.824	292.391	332.815	298.941	69.757	91.127	343.244	51.795	213.359	235.380	308.121	0.0004095	0.0013062	0.00043861	537.06	1.1672e-05	4.5436e-06	839.5	222.21	5.2851e-06	7.5848e-06	363.73	155.86	87.278	48.144	9.7902e-06	89.567	0.00069263	0.00063423	0.00017341	518.18	7.2745e-06	7.0171e-06	768.4	207.34	7.1832e-06	6.5316e-06	335.12	142.03	82.326	43.817	6.6502e-06	80.464	252.238	149.406	121.099	22.291	196.172	121.330	22.038	27.299	162.313	194.962	24.916	28.774	30.639	33.389	213.900	30.718	-8191	255	
2090.261	1	1	0	0	0.16615	0.13119	0.17511	0.24365	0.33062	0.22263	0.096199	0.15878	0.068851	0.12906	0.16927	0.21258	0.24023	0.12157	0.041067	0.20865	-2.675	-2.3771	-3.5083	-3.0708	-2.9062	-3.4646	-2.8563	-3.2229	-3.1792	-2.5083	-3.2479	-3.0625	-2.8167	-3.5333	-2.6521	-3.1792	305.181	315.734	127.856	267.357	308.136	193.903	244.452	160.937	91.243	326.154	23.416	48.677	66.235	365.894	316.792	317.211	0.00070221	0.00071283	0.00012446	541	8.8462e-06	4.4261e-06	836.19	220.59	9.161e-06	5.6429e-06	363.18	155.48	87.204	47.927	6.3563e-06	89.43	0.00062809	0.00057145	0.00016957	515.33	6.7244e-06	6.2182e-06	764.63	205.72	6.6643e-06	5.9424e-06	334.53	141.39	81.798	43.547	6.8136e-06	79.756	254.506	273.293	148.477	22.458	294.863	124.384	21.547	27.011	364.743	220.160	25.145	28.740	30.466	33.603	138.282	30.773	-8191	255	
2090.357	1	1	0	0	0.0045578	0.1439	0.11371	0.02544	0.073899	0.21969	0.31929	0.14566	0.14415	0.11428	0.15884	0.3005	0.21788	0.14198	0.094024	0.12022	-2.7896	-2.5854	-3.1146	-2.8688	-2.5292	-3.3438	-2.7958	-2.9313	-3.4313	-2.5583	-3.4146	-3.0958	-2.6458	-3.4792	-2.7229	-2.9708	141.654	159.479	147.538	154.455	191.550	153.466	291.632	48.282	126.626	103.166	189.103	352.057	20.397	334.063	92.246	286.220	0.00064022	0.00059113	0.00021952	543.23	6.3499e-06	7.8005e-06	832.73	220.27	3.422e-06	7.8179e-06	365.31	155.08	88.229	47.786	8.8553e-06	89.234	0.00062153	0.00057082	0.00017583	517.05	6.603e-06	6.3431e-06	764.15	205.43	6.607e-06	6.1089e-06	336.16	140.82	82.087	43.553	6.9016e-06	79.767	248.823	101.128	349.126	21.950	98.790	194.920	21.759	27.060	269.014	55.584	25.269	28.502	30.717	34.001	215.495	30.899	-8191	255	
2090.453	1	1	0	0	0.22197	0.075776	0.025236	0.10898	0.10633	0.2631	0.12304	0.23045	0.1017	0.21318	0.19326	0.17937	0.27085	0.055724	0.074587	0.12836	-3.0167	-2.2812	-3.1688	-3.2083	-2.6604	-3.4313	-2.9688	-3.0062	-3.2562	-2.8688	-3.1583	-3.3458	-2.5875	-3.5583	-2.6625	-2.8875	348.138	129.789	226.939	318.099	344.879	47.960	350.220	83.722	302.330	155.138	264.777	322.516	177.792	121.373	20.896	364.689	0.00063211	0.0010118	0.00024579	539.66	1.0172e-05	2.1233e-06	836.25	221.86	9.0207e-06	4.6245e-06	367.43	155.66	88.556	48.2	1.2563e-05	90.094	0.00060364	0.00056979	0.00017457	514.45	6.2822e-06	6.4578e-06	767.29	205.34	6.3297e-06	6.434e-06	338.28	141.52	82.023	43.935	6.9112e-06	80.284	254.862	133.782	177.281	21.909	166.383	284.045	21.062	27.180	179.516	356.113	25.093	28.847	30.685	33.465	135.866	31.158	-8191	255	
2090.572	1	1	0	0	0.16967	0.13524	0.15185	0.17382	0.24531	0.08101	0.21437	0.061433	0.22223	0.2142	0.032395	0.21465	0.13223	0.23662	0.19582	0.24844	-3.0458	-2.6562	-3.1562	-3.3333	-2.6083	-3.3125	-3.0229	-2.8479	-3.3396	-2.8208	-3.1271	-3.5938	-2.6	-3.425	-3.0292	-2.7687	29.626	173.312	222.512	292.042	23.769	28.500	106.633	116.748	97.172	12.816	364.763	320.339	336.819	184.762	258.143	294.094	0.00069333	0.00035878	0.00027781	547.2	1.8006e-05	5.987e-06	841.88	221.37	8.5585e-06	5.4205e-06	366.41	155.93	89.323	48.181	2.7523e-06	89.88	0.00056811	0.00058559	0.0001693	514.45	5.918e-06	6.6113e-06	768.17	205.24	5.8111e-06	6.3636e-06	336.76	141.57	81.769	43.931	6.2885e-06	79.924	245.009	18.711	99.628	22.328	162.940	150.552	21.301	26.878	216.332	155.639	25.398	28.397	30.778	33.815	196.687	30.923	-8191	255	
2090.668	1	1	0	0	0.20435	0.059258	0.038868	0.26863	0.10784	0.14566	0.088532	0.12143	0.20933	0.11471	0.16436	0.281	0.24352	0.13755	0.082086	0.23236	-3.1417	-2.7917	-3.0438	-3.2833	-2.6188	-3.3646	-3.1604	-2.6167	-3.4583	-2.7479	-2.9417	-3.4583	-2.6271	-3.2646	-3.0708	-2.9021	169.168	294.607	18.254	27.423	45.002	77.024	81.187	281.575	190.948	245.015	313.323	332.120	324.633	306.339	62.941	286.200	0.00078883	0.0015213	0.00023336	542.12	1.2431e-05	4.1319e-06	839.08	221.89	7.2592e-06	1.6352e-06	365.23	154.77	88.881	48.074	8.1691e-06	89.256	0.00053465	0.0005877	0.00015974	511.55	5.7285e-06	6.5356e-06	766.11	204.36	5.8622e-06	6.4224e-06	334.42	140.38	81.723	43.803	6.3585e-06	79.284	250.958	44.814	109.200	22.366	198.824	239.774	21.702	26.863	202.324	56.030	25.378	28.570	31.298	33.918	100.330	30.973	-8191	255	
2090.740	1	1	0	0	0.25247	0.13881	0.052079	0.21999	0.13405	0.067904	0.15503	0.20551	0.15212	0.20018	0.029063	0.32613	0.07657	0.17631	0.1918	0.22855	-2.9313	-2.85	-2.9	-3.475	-2.5708	-3.3229	-3.2854	-2.7854	-3.3833	-2.9208	-2.9813	-3.5375	-2.7125	-3.1042	-3.2104	-2.7354	17.292	54.784	80.982	323.259	159.917	354.505	368.409	287.467	302.004	246.569	73.788	264.197	341.690	216.123	273.170	287.918	0.00080177	0.00045144	0.00025483	541.07	8.221e-06	5.2516e-06	829.26	220.32	6.8251e-06	1.0657e-05	362.37	154.35	87.094	47.797	9.1399e-06	88.383	0.00055989	0.0005992	0.00016189	509.63	6.1818e-06	6.6689e-06	759.81	203.02	6.3899e-06	6.6974e-06	332.4	139.2	81.311	43.663	6.4657e-06	78.682	253.609	84.488	92.925	22.517	157.781	203.121	21.714	27.024	221.391	103.212	24.995	29.147	30.564	33.773	196.656	30.726	-8191	255	
#DATA ENDS
