BOXY.EXE: ISS Imagent and Oximeter Data Acquisition Program Version 0.80
Ascii Record File

#ACQ INFORMATION
2  Detector Channels 
16  External MUX Channels 
1  Auxiliary Channels 
5000  Waveform (CCF) Frequency (Hz)
1  Waveforms Skipped 
30  Waveforms Averaged 
1  Cycles Averaged 
16  Acquisitions per Waveform 
10.0806  Updata Rate (Hz) 

#FILE INFORMATION
TRUE -- External MUX Channel results are PARSED.
FALSE -- AC DC and Phase are NOT grouped.
TRUE -- Companion Program Settings File CREATED.
FALSE -- AC data not excluded
FALSE -- DC data not excluded
FALSE -- Phase data not excluded
FALSE -- Auxillary Chn. data not excluded
Tab delimiters

#CALIBRATION STATE
TRUE -- Waveform Calibration Values APPLIED.


#AUX CALIBRATION VALUES
Val Type	aux-1	

Term	1.0000e+00	
Factor	0.0000e+00	


#WF CALIBRATION VALUES
A = Detector Channel
Val Type	A-AC1	A-AC2	A-AC3	A-AC4	A-AC5	A-AC6	A-AC7	A-AC8	A-AC9	A-AC10	A-AC11	A-AC12	A-AC13	A-AC14	A-AC15	A-AC16	A-DC1	A-DC2	A-DC3	A-DC4	A-DC5	A-DC6	A-DC7	A-DC8	A-DC9	A-DC10	A-DC11	A-DC12	A-DC13	A-DC14	A-DC15	A-DC16	A-Ph1	A-Ph2	A-Ph3	A-Ph4	A-Ph5	A-Ph6	A-Ph7	A-Ph8	A-Ph9	A-Ph10	A-Ph11	A-Ph12	A-Ph13	A-Ph14	A-Ph15	A-Ph16	

Term	0.00000e+00	0.00000e+00	0.00000e+00	0.00000e+00	0.00000e+00	0.00000e+00	0.00000e+00	0.00000e+00	0.00000e+00	0.00000e+00	0.00000e+00	0.00000e+00	0.00000e+00	0.00000e+00	0.00000e+00	0.00000e+00	0.00000e+00	0.00000e+00	0.00000e+00	0.00000e+00	0.00000e+00	0.00000e+00	0.00000e+00	0.00000e+00	0.00000e+00	0.00000e+00	0.00000e+00	0.00000e+00	0.00000e+00	0.00000e+00	0.00000e+00	0.00000e+00	0.00000e+00	0.00000e+00	0.00000e+00	0.00000e+00	0.00000e+00	0.00000e+00	0.00000e+00	0.00000e+00	0.00000e+00	0.00000e+00	0.00000e+00	0.00000e+00	0.00000e+00	0.00000e+00	0.00000e+00	0.00000e+00	
Factor	1.00000e+00	1.00000e+00	1.00000e+00	1.00000e+00	1.00000e+00	1.00000e+00	1.00000e+00	1.00000e+00	1.00000e+00	1.00000e+00	1.00000e+00	1.00000e+00	1.00000e+00	1.00000e+00	1.00000e+00	1.00000e+00	1.00000e+00	1.00000e+00	1.00000e+00	1.00000e+00	1.00000e+00	1.00000e+00	1.00000e+00	1.00000e+00	1.00000e+00	1.00000e+00	1.00000e+00	1.00000e+00	1.00000e+00	1.00000e+00	1.00000e+00	1.00000e+00	X	X	X	X	X	X	X	X	X	X	X	X	X	X	X	X	

B = Detector Channel
Val Type	B-AC1	B-AC2	B-AC3	B-AC4	B-AC5	B-AC6	B-AC7	B-AC8	B-AC9	B-AC10	B-AC11	B-AC12	B-AC13	B-AC14	B-AC15	B-AC16	B-DC1	B-DC2	B-DC3	B-DC4	B-DC5	B-DC6	B-DC7	B-DC8	B-DC9	B-DC10	B-DC11	B-DC12	B-DC13	B-DC14	B-DC15	B-DC16	B-Ph1	B-Ph2	B-Ph3	B-Ph4	B-Ph5	B-Ph6	B-Ph7	B-Ph8	B-Ph9	B-Ph10	B-Ph11	B-Ph12	B-Ph13	B-Ph14	B-Ph15	B-Ph16	

Term	0.00000e+00	0.00000e+00	0.00000e+00	0.00000e+00	0.00000e+00	0.00000e+00	0.00000e+00	0.00000e+00	0.00000e+00	0.00000e+00	0.00000e+00	0.00000e+00	0.00000e+00	0.00000e+00	0.00000e+00	0.00000e+00	0.00000e+00	0.00000e+00	0.00000e+00	0.00000e+00	0.00000e+00	0.00000e+00	0.00000e+00	0.00000e+00	0.00000e+00	0.00000e+00	0.00000e+00	0.00000e+00	0.00000e+00	0.00000e+00	0.00000e+00	0.00000e+00	-2.07275e+01	-1.32847e+02	-1.52787e+02	-1.83875e+02	-6.77554e+01	-5.54330e+01	-1.56919e+02	-1.62015e+02	-3.22664e+01	-7.99954e+01	-1.74562e+02	-1.70840e+02	-1.80437e+02	-1.77427e+02	-6.96928e+01	-1.50391e+02	
Factor	2.96057e-05	1.28999e-04	4.41538e-05	1.97066e-01	1.45415e-06	1.07368e-06	1.67062e-01	5.22067e-02	1.19540e-06	1.26644e-06	1.23098e-01	2.98311e-02	3.04790e-02	9.88491e-03	1.28029e-06	1.43348e-02	1.34528e-06	1.40145e-06	3.88201e-07	9.80757e-02	1.52263e-08	1.53501e-08	7.86761e-02	2.62170e-02	1.51695e-08	1.52930e-08	5.81304e-02	1.43474e-02	1.50814e-02	4.92209e-03	1.51770e-08	6.84804e-03	X	X	X	X	X	X	X	X	X	X	X	X	X	X	X	X	



#DISTANCE SETTINGS
A = Detector Channel
A-1	A-2	A-3	A-4	A-5	A-6	A-7	A-8	A-9	A-10	A-11	A-12	A-13	A-14	A-15	A-16	

2.5000e+00	3.0000e+00	2.5000e+00	3.0000e+00	2.0000e+00	3.0000e+00	1.5000e+00	3.0000e+00	3.0000e+00	3.0000e+00	3.0000e+00	3.0000e+00	3.0000e+00	3.0000e+00	1.5000e+00	3.0000e+00	

B = Detector Channel
B-1	B-2	B-3	B-4	B-5	B-6	B-7	B-8	B-9	B-10	B-11	B-12	B-13	B-14	B-15	B-16	

1.0000e+01	1.0000e+01	1.0000e+01	1.4400e+00	1.0000e+01	1.0000e+01	1.5100e+00	1.9400e+00	1.0000e+01	1.0000e+01	1.9900e+00	2.4900e+00	2.4100e+00	2.9000e+00	1.0000e+01	2.9800e+00	




#DATA BEGINS
time	group	step	mark	flag	A-AC1	A-AC2	A-AC3	A-AC4	A-AC5	A-AC6	A-AC7	A-AC8	A-AC9	A-AC10	A-AC11	A-AC12	A-AC13	A-AC14	A-AC15	A-AC16	A-DC1	A-DC2	A-DC3	A-DC4	A-DC5	A-DC6	A-DC7	A-DC8	A-DC9	A-DC10	A-DC11	A-DC12	A-DC13	A-DC14	A-DC15	A-DC16	A-Ph1	A-Ph2	A-Ph3	A-Ph4	A-Ph5	A-Ph6	A-Ph7	A-Ph8	A-Ph9	A-Ph10	A-Ph11	A-Ph12	A-Ph13	A-Ph14	A-Ph15	A-Ph16	B-AC1	B-AC2	B-AC3	B-AC4	B-AC5	B-AC6	B-AC7	B-AC8	B-AC9	B-AC10	B-AC11	B-AC12	B-AC13	B-AC14	B-AC15	B-AC16	B-DC1	B-DC2	B-DC3	B-DC4	B-DC5	B-DC6	B-DC7	B-DC8	B-DC9	B-DC10	B-DC11	B-DC12	B-DC13	B-DC14	B-DC15	B-DC16	B-Ph1	B-Ph2	B-Ph3	B-Ph4	B-Ph5	B-Ph6	B-Ph7	B-Ph8	B-Ph9	B-Ph10	B-Ph11	B-Ph12	B-Ph13	B-Ph14	B-Ph15	B-Ph16	aux-1	digaux	

2197.188	1	1	0	256	0.11293	0.25743	0.092552	0.1012	0.18366	0.059293	0.185	0.18774	0.045914	0.20397	0.11197	0.23152	0.17419	0.2263	0.068842	0.16001	-2.7229	-2.6208	-3.5729	-2.9375	-2.9479	-3.4375	-2.8542	-3.275	-3.1167	-2.7479	-3.7958	-2.8833	-3	-3.45	-2.5979	-3.3438	-4.474	100.341	53.879	40.546	154.330	-74.370	121.048	-116.018	145.619	183.085	32.677	120.165	16.493	99.411	174.768	177.566	0.00033933	0.0012041	6.7735e-05	429.37	3.7471e-06	7.958e-06	819.49	146.29	7.4089e-06	7.2496e-06	316.18	105.25	47.484	18.534	3.6856e-06	46.877	0.00082315	0.00078411	0.00022128	439.93	9.713e-06	9.1957e-06	766.48	146.81	1.0535e-05	9.8427e-06	308.98	102.57	51.737	19.341	1.0831e-05	45.6	-71.878	-2.243	86.700	-112.468	34.765	-4.639	-113.298	-106.811	71.256	-58.698	-108.668	-104.562	-102.816	-97.058	63.263	-100.116	-8191	255	
2197.307	1	1	0	0	0.14758	0.15824	0.066806	0.1416	0.22521	0.030948	0.21294	0.13391	0.16784	0.19821	0.16382	0.1402	0.26886	0.091767	0.15162	0.15843	-2.8646	-2.6542	-3.5167	-2.9625	-2.8646	-3.4333	-2.6042	-3.1833	-3.3125	-2.7146	-3.4479	-3.0208	-2.7792	-3.4729	-2.7229	-3.2458	125.057	-56.936	23.226	29.684	223.396	94.264	196.398	-105.374	207.099	49.594	-40.430	178.717	24.189	-13.831	11.689	-80.779	0.0002314	0.0011069	0.00022733	429.77	1.0049e-05	9.1531e-06	820.25	146.28	3.198e-06	1.7661e-05	313.33	104.56	47.699	18.521	1.2194e-05	45.871	0.0010422	0.00099048	0.00031272	460.62	1.234e-05	1.1597e-05	781.35	150	1.2291e-05	1.1208e-05	317.5	103.55	52.875	19.642	1.3476e-05	45.698	-5.722	-58.913	-117.203	-112.874	64.368	-91.526	-113.142	-107.006	15.325	27.344	-108.503	-104.292	-102.979	-98.012	23.457	-99.979	-8191	255	
2197.403	1	1	0	0	0.12272	0.05236	0.098509	0.245	0.12009	0.044576	0.098349	0.26941	0.016983	0.089637	0.11176	0.19207	0.16734	0.2919	0.24761	0.065254	-2.9313	-2.7062	-3.3271	-2.8583	-2.7667	-3.4583	-2.8271	-3.1375	-3.4167	-2.6312	-3.4146	-3.2687	-2.6312	-3.4479	-2.7229	-3.0604	-35.718	-31.251	41.839	-122.747	113.409	-66.204	36.250	-44.732	-7.233	68.024	-40.833	229.627	180.950	-102.950	172.631	217.453	0.00021905	0.0012845	3.941e-05	429.63	4.8606e-06	1.1207e-05	813.13	145.37	5.1068e-06	1.2234e-05	314.38	103.66	47.82	18.258	1.5925e-05	45.862	0.0011251	0.0010821	0.00035298	459.65	1.2095e-05	1.1645e-05	782.53	148.64	1.2009e-05	1.1511e-05	320.28	102.61	52.52	19.871	1.489e-05	45.684	-70.399	30.431	225.531	-112.834	67.837	107.566	-113.476	-107.009	-120.472	-15.915	-108.291	-103.949	-102.480	-97.315	-122.625	-99.854	-8191	255	
2197.500	1	1	0	0	0.18542	0.17816	0.070609	0.098058	0.048789	0.13278	0.31788	0.10836	0.21543	0.01899	0.2162	0.1686	0.21252	0.099159	0.30611	0.37008	-3.2833	-2.5604	-3.3917	-3.15	-2.3479	-3.5229	-2.9979	-2.9437	-3.3792	-2.7667	-3.2354	-3.4167	-2.6708	-3.4562	-2.95	-2.85	38.093	215.304	-20.992	226.849	-36.955	224.227	221.440	143.079	-57.431	121.269	10.932	-25.223	-56.365	7.740	76.383	156.516	0.00048878	0.00072291	0.0001839	425.71	1.7011e-05	4.4405e-06	811.48	143.54	9.1499e-06	4.1379e-07	311.69	102.18	46.432	17.874	1.1906e-05	45.109	0.0011809	0.0011993	0.00039048	459.19	1.2557e-05	1.3617e-05	786.87	148.64	1.2664e-05	1.3631e-05	322.76	102.25	52.578	20.17	1.5885e-05	45.034	-41.594	-102.728	188.026	-112.305	72.397	-41.949	-113.008	-106.801	74.864	34.088	-108.154	-103.777	-102.645	-97.358	-80.520	-100.028	-8191	255	
2197.596	1	1	0	0	0.12283	0.093381	0.030151	0.071903	0.10111	0.17335	0.17863	0.029605	0.19793	0.1129	0.20987	0.11313	0.038841	0.058895	0.28574	0.24155	-3.1917	-2.6958	-3.1125	-3.3438	-2.7333	-3.3729	-3.125	-2.7729	-3.6396	-2.5917	-3.0896	-3.4229	-2.6375	-3.5458	-2.9833	-2.9292	78.772	98.813	26.826	57.057	103.164	150.259	164.833	38.321	-57.216	68.316	-64.814	49.550	-64.304	126.103	-114.378	111.667	0.00039388	0.0010257	0.00040285	425.71	3.7616e-06	8.2409e-06	803.81	142.2	1.1133e-05	5.0421e-06	309.7	101.54	45.723	17.895	1.7086e-05	44.658	0.0012279	0.0013954	0.00040664	463.53	1.3351e-05	1.5863e-05	786.97	149.19	1.3889e-05	1.6114e-05	323.32	102.15	53.342	20.755	1.6567e-05	45.204	-49.218	226.950	28.033	-112.089	-117.939	-64.317	-113.468	-106.954	151.437	-113.877	-108.679	-103.651	-102.429	-97.435	96.512	-100.227	-8191	255	
2197.716	1	1	0	0	0.19619	0.14571	0.059127	0.10069	0.25269	0.048087	0.092856	0.10787	0.031678	0.10865	0.081745	0.12465	0.19702	0.22527	0.1113	0.15747	-3.1708	-2.7938	-2.8667	-3.3354	-2.5333	-3.5604	-3.2021	-2.825	-3.4146	-2.7542	-3.0271	-3.4979	-2.6625	-3.4	-3.1542	-2.8	168.110	-12.140	69.031	149.260	77.853	93.442	95.981	100.779	27.186	189.984	181.574	122.822	-78.928	-119.531	5.119	211.274	0.00067268	0.0022475	0.0001397	424.44	9.3179e-06	1.3973e-05	810.44	143.23	1.0506e-05	8.263e-06	313.13	102.4	46.598	18.1	1.2588e-05	45.393	0.001294	0.0015315	0.00039739	461.75	1.3676e-05	1.6069e-05	783.64	148.47	1.3764e-05	1.6243e-05	319.95	101.89	53.559	20.726	1.4272e-05	44.903	-29.405	-6.026	-56.597	-112.559	68.621	167.431	-113.110	-106.777	-31.446	-4.764	-108.138	-103.818	-102.471	-97.092	-0.703	-99.923	-8191	255	
2197.788	1	1	0	0	0.14548	0.25833	0.078303	0.3251	0.19628	0.079976	0.10528	0.17559	0.072645	0.15108	0.059973	0.045345	0.12597	0.062446	0.089846	0.24881	-3.1354	-2.6792	-2.9917	-3.5396	-2.7125	-3.225	-3.2854	-2.7375	-3.5208	-2.8688	-3.025	-3.5563	-2.7687	-3.2812	-3.2708	-2.7417	170.952	83.924	44.938	143.080	147.993	113.288	183.011	202.585	32.603	100.989	-64.814	-78.571	-106.560	125.475	101.123	71.908	0.00050977	0.00050027	0.00046538	420.72	1.0088e-05	1.4046e-05	802.58	143.25	8.4502e-06	9.1122e-06	313.88	102.87	46.253	18.02	1.1506e-05	46.031	0.001225	0.0014302	0.00035301	451.5	1.4056e-05	1.5522e-05	777.24	147.42	1.4284e-05	1.5645e-05	318.18	101.37	54.491	20.541	1.3547e-05	45.085	-40.244	-114.470	-4.200	-112.844	-88.248	-97.057	-112.987	-107.033	108.443	151.339	-108.180	-104.082	-102.290	-97.531	-121.753	-100.448	-8191	255	
2197.884	1	1	0	0	0.14168	0.11095	0.11596	0.15147	0.066624	0.083663	0.17673	0.13062	0.19516	0.052905	0.064793	0.033257	0.065104	0.18506	0.24507	0.13378	-3.0729	-2.9542	-2.7625	-3.3521	-2.6979	-3.2646	-3.4833	-2.7125	-3.4479	-3.0938	-2.7021	-3.3458	-2.7875	-2.9313	-3.2438	-2.6354	-47.202	-48.387	202.127	100.069	78.426	115.746	213.162	-24.952	-107.883	21.122	-75.018	-29.188	76.709	-80.032	183.528	197.130	0.00036777	0.0006579	0.00033282	427.66	1.7816e-06	1.0604e-05	802.24	145	1.1091e-05	5.1955e-06	312.13	104.13	46.766	18.523	9.3107e-06	46.468	0.0012458	0.0013168	0.00032316	444.78	1.3662e-05	1.3499e-05	766.12	145.71	1.3269e-05	1.2957e-05	309.1	100.67	53.184	20.012	1.1707e-05	45.039	-67.078	-27.808	-37.810	-113.015	35.111	62.136	-113.243	-107.021	-103.561	122.445	-108.459	-104.138	-102.956	-96.707	-108.165	-100.104	-8191	255	
2197.980	1	1	0	0	0.076979	0.26007	0.082461	0.26933	0.041795	0.16464	0.11463	0.16052	0.066829	0.15702	0.1013	0.26655	0.28513	0.18018	0.17051	0.13093	-3.0146	-3.0458	-2.7292	-3.3896	-2.7417	-3.0146	-3.6729	-2.5375	-3.3	-2.9396	-2.6333	-3.4771	-2.9188	-2.9167	-3.5146	-2.9854	-63.652	-73.590	149.993	0.535	121.375	-78.630	174.694	139.263	-54.370	82.157	-108.274	52.354	171.808	-81.975	58.509	224.309	0.00063314	0.0019786	0.0003308	423.02	4.6745e-06	6.9484e-06	803.4	143.12	6.7773e-06	6.068e-06	311.22	103.12	47.186	18.463	9.5554e-06	46.576	0.001204	0.0012067	0.00029737	445.11	1.3813e-05	1.2872e-05	761.44	145.64	1.3703e-05	1.2534e-05	306.25	100.86	53.402	19.824	1.1172e-05	45.056	-46.648	-51.016	-124.263	-112.586	-5.719	46.554	-112.967	-106.878	123.840	136.581	-108.726	-104.108	-102.407	-97.256	50.750	-100.080	-8191	255	
2198.099	1	1	0	0	0.13635	0.28567	0.12874	0.14225	0.21594	0.070545	0.073595	0.12444	0.15277	0.087115	0.11727	0.27915	0.15743	0.14462	0.28899	0.36037	-2.8646	-3.1104	-2.5542	-3.3896	-2.9479	-2.8187	-3.5312	-2.6979	-3.2479	-3.1792	-2.7188	-3.3083	-3.0042	-2.8875	-3.4958	-2.7354	45.525	185.252	-107.526	190.271	92.981	86.773	135.417	191.403	164.929	-85.039	-35.407	224.600	101.200	192.106	-73.624	202.583	0.00041348	0.00068612	0.00050457	418.31	1.5537e-05	5.775e-06	801.89	144.78	5.0011e-06	1.2958e-05	310.04	104.34	47.576	18.686	6.56e-06	47.492	0.0011589	0.0010831	0.00026757	443.89	1.2717e-05	1.1598e-05	757.36	146.71	1.2435e-05	1.1507e-05	304.46	102.72	53.284	19.913	1.067e-05	46.268	-52.655	7.360	-108.367	-112.801	62.698	173.411	-112.973	-107.042	85.659	52.437	-108.438	-103.510	-102.170	-96.352	111.970	-99.843	-8191	255	
2198.195	1	1	0	0	0.096333	0.25097	0.17717	0.3964	0.086691	0.14091	0.2233	0.11475	0.098534	0.083203	0.17136	0.0054038	0.29004	0.094134	0.13732	0.35194	-2.7896	-3.6229	-2.4938	-3.4479	-3.0646	-2.8271	-3.5687	-2.7562	-2.9146	-3.5062	-2.5292	-3.6333	-3.2	-2.7667	-3.5521	-2.85	36.239	36.847	118.020	147.264	49.153	52.387	-61.807	-84.668	96.399	119.613	180.752	-0.074	-63.324	-102.005	85.534	144.105	0.00042735	0.00053594	0.0003502	421.01	4.5883e-06	3.2563e-06	806.71	146.1	1.3013e-05	3.3505e-06	315.74	106.54	48.857	19.155	1.0757e-05	48.09	0.00109	0.0010319	0.00026415	448.74	1.206e-05	1.0982e-05	763.52	148.96	1.1759e-05	1.1248e-05	309.65	104.47	53.46	20.03	1.0888e-05	46.891	-50.412	-19.454	178.913	-112.407	225.884	-113.598	-112.848	-106.997	63.580	57.837	-108.863	-103.501	-102.602	-97.428	182.268	-100.116	-8191	255	
2198.292	1	1	0	0	0.11529	0.14964	0.18315	0.051882	0.19793	0.26906	0.17282	0.2969	0.10717	0.2176	0.16586	0.15189	0.2943	0.13547	0.16872	0.029748	-2.5625	-3.2562	-2.5271	-3.4229	-3.2771	-2.7292	-3.6271	-2.9938	-2.8958	-3.3042	-2.5104	-3.4292	-3.1375	-2.7083	-3.45	-3.1833	-118.894	71.682	-42.122	-46.596	223.482	168.593	-108.794	122.748	133.782	5.828	230.959	186.621	-102.788	-5.857	44.717	-102.335	0.00064042	0.00032981	0.00020931	429.43	6.9916e-06	1.6393e-05	813.23	146.98	1.0014e-05	6.1266e-06	316.56	107.08	48.307	19.056	1.0106e-05	48.035	0.0010105	0.0009776	0.00027265	452.7	1.1475e-05	1.0449e-05	770.67	150.54	1.1493e-05	1.1137e-05	315.83	104.9	53.447	20.197	1.2358e-05	47.257	-51.280	-59.245	-85.013	-112.181	131.619	62.502	-113.065	-106.541	44.226	-38.045	-108.083	-103.280	-102.389	-97.058	-85.865	-99.714	-8191	255	
2198.388	1	1	0	0	0.18694	0.25946	0.096235	0.12982	0.014701	0.10208	0.18107	0.18238	0.14068	0.2946	0.11661	0.34121	0.18247	0.15824	0.10479	0.13879	-2.2625	-3.4021	-2.5917	-3.3396	-3.2292	-2.7875	-3.4729	-2.9729	-2.7479	-3.4813	-2.7604	-3.2104	-3.4354	-2.6667	-3.2542	-3.2479	132.451	232.627	179.665	162.377	106.535	94.776	-39.641	64.312	129.738	25.374	88.299	-71.339	174.507	199.659	-47.754	228.672	0.00021711	0.0008327	0.00036245	426.84	1.4194e-05	7.9008e-06	811.98	147.38	1.3875e-05	9.0293e-06	311.61	106.68	47.794	19.154	3.3041e-06	47.768	0.0010507	0.0010022	0.00031007	452.08	1.1474e-05	1.0506e-05	771.69	149.65	1.1262e-05	1.0869e-05	315.97	103.93	53.103	20.169	1.2843e-05	46.803	-81.061	-31.323	-66.870	-111.747	-10.431	-34.635	-113.053	-106.783	67.784	-37.801	-108.403	-103.396	-102.442	-96.883	229.582	-99.819	-8191	255	
2198.482	1	1	0	0	0.24822	0.067855	0.01738	0.061932	0.13258	0.25125	0.39833	0.20829	0.37899	0.074465	0.21351	0.23341	0.053813	0.081895	0.092644	0.22447	-2.3917	-3.4792	-2.8104	-3.1792	-3.4	-2.6771	-3.4667	-3.1458	-2.5458	-3.6271	-3.0333	-2.9562	-3.5167	-2.7229	-3.2562	-3.1979	33.289	146.493	-118.176	176.328	95.146	90.943	133.802	-33.949	139.040	84.724	121.790	-121.169	-71.549	35.129	68.774	144.129	0.00029847	0.00077957	0.00016231	428.99	5.9537e-06	8.1773e-06	806.34	145.34	3.6696e-06	5.171e-06	314.78	107.4	48.034	19.279	1.3074e-05	48.006	0.0010315	0.001043	0.00033755	450.4	1.1723e-05	1.1341e-05	773.41	148.63	1.1144e-05	1.1654e-05	320.21	103.75	52.865	20.497	1.3417e-05	46.766	-37.435	-7.609	-12.560	-111.918	46.358	200.473	-112.955	-106.962	-6.624	222.218	-108.843	-103.513	-102.602	-97.867	123.686	-99.883	-8191	255	
2198.580	1	1	0	0	0.10477	0.17768	0.057232	0.081631	0.25829	0.066541	0.30738	0.21014	0.23126	0.13942	0.3038	0.22275	0.23258	0.20868	0.060552	0.16751	-2.2125	-3.4979	-2.8792	-2.6833	-3.6625	-2.6625	-3.3958	-3.2521	-2.5563	-3.3833	-3.0208	-2.7375	-3.6917	-2.8042	-3.0417	-3.425	16.455	27.270	31.016	188.102	-16.656	134.309	146.378	76.741	95.179	232.243	-120.967	202.986	172.595	-0.766	110.626	219.045	9.277e-05	0.00070354	0.0005014	425.74	4.9379e-06	3.0221e-06	810.35	148.43	1.0692e-05	1.2439e-05	322.9	107.93	48.491	19.699	1.0026e-05	48.935	0.00099594	0.0010778	0.00032908	443.71	1.042e-05	1.068e-05	766.46	146.05	8.5694e-06	9.4874e-06	310.63	102.06	50.131	19.951	9.1488e-06	45.828	-92.880	204.973	172.978	-112.912	57.102	-62.465	-112.570	-106.672	104.000	155.356	-108.352	-104.080	-102.889	-97.210	-116.550	-99.996	-8191	255	
2198.699	1	1	0	0	0.1532	0.092451	0.080667	0.16777	0.21217	0.30497	0.13268	0.013308	0.082471	0.15185	0.19552	0.28535	0.15906	0.31898	0.23894	0.10794	-2.1354	-3.5146	-2.9771	-2.5667	-3.525	-2.7958	-3.3771	-3.2687	-2.7	-3.4271	-3.1375	-2.7438	-3.5271	-2.7542	-3.2167	-3.4125	227.050	46.657	64.169	77.423	79.728	120.576	-109.804	190.816	89.546	-89.862	183.083	-93.741	199.135	108.889	-39.843	68.605	0.00029936	0.00039013	0.00028343	427.35	7.9096e-06	8.9432e-06	821.87	148.57	1.2227e-05	1.3655e-06	320.77	109.11	49.088	19.575	9.3666e-06	48.342	0.0006852	0.00081091	0.00022637	424.21	7.5205e-06	8.812e-06	762	143.59	7.3621e-06	8.9704e-06	306.89	101.44	50.202	19.929	8.9648e-06	45.309	-30.816	80.840	-29.557	-112.448	-49.267	203.737	-112.491	-106.269	26.438	-84.891	-108.194	-103.341	-102.295	-97.310	23.018	-99.633	-8191	255	
2198.795	1	1	0	0	0.05651	0.081522	0.22823	0.26686	0.066254	0.1233	0.22021	0.18216	0.11031	0.18458	0.1891	0.21548	0.072417	0.09926	0.248	0.16315	-2.1896	-3.3521	-3.2271	-2.5958	-3.4979	-2.9042	-3.0146	-3.6583	-2.6604	-3.2667	-3.2208	-2.7542	-3.6021	-2.8146	-2.7708	-3.7021	40.157	136.386	51.493	183.128	74.314	180.252	209.138	206.466	122.830	162.609	147.792	33.521	211.753	23.068	-109.892	113.863	0.00060364	0.00032607	0.00034951	428.06	7.6308e-06	5.7008e-06	819.17	148.19	1.9319e-05	5.3449e-06	322.32	107.33	49.259	19.439	1.2169e-05	48.176	0.00073486	0.00087807	0.00022788	423.85	8.3233e-06	9.6472e-06	759.49	143.02	8.2425e-06	9.3679e-06	305.08	100.32	50.352	19.75	8.2454e-06	45.081	-66.216	139.095	170.588	-112.713	112.421	220.508	-112.280	-106.160	-94.808	168.228	-107.788	-103.171	-102.004	-97.103	234.815	-99.694	-8191	255	
2198.891	1	1	0	0	0.15051	0.15381	0.21726	0.22607	0.11813	0.049243	0.070617	0.14074	0.050069	0.079185	0.26993	0.14445	0.094196	0.084152	0.208	0.14814	-2.2104	-3.1458	-3.1937	-2.6208	-3.2875	-2.9271	-2.9583	-3.4458	-2.5646	-3.2104	-3.1396	-2.7479	-3.4292	-2.8958	-2.8354	-3.4938	62.111	138.048	120.613	51.046	209.760	16.253	-25.681	214.354	189.400	49.129	-118.697	102.395	182.751	15.871	-123.444	57.029	0.00062003	0.00066528	0.00012222	435.79	1.298e-05	1.2405e-05	813.67	149.35	3.122e-06	5.4053e-06	320.38	107.61	48.87	19.181	3.9097e-06	48.429	0.00076556	0.0008502	0.00021924	425.78	8.9272e-06	9.6688e-06	760.32	143.73	9.1903e-06	9.5593e-06	307.01	101.13	51.601	19.83	8.7209e-06	45.167	-74.052	-47.873	-8.164	-112.178	215.657	-32.424	-112.660	-106.527	-102.724	-40.280	-108.469	-103.935	-102.637	-97.897	226.999	-100.444	-8191	255	
2198.987	1	1	0	0	0.20341	0.17031	0.21033	0.081262	0.20352	0.12063	0.092708	0.28892	0.28166	0.035179	0.089984	0.19888	0.12654	0.053413	0.1613	0.12219	-2.3792	-3.2062	-3.2438	-2.7438	-3.2583	-3.1083	-2.875	-3.4583	-2.8375	-2.8312	-3.3958	-2.6771	-3.2833	-3.1562	-2.7396	-3.5479	126.869	61.216	101.372	211.806	197.262	-8.043	68.048	228.343	126.897	145.466	221.197	223.428	194.111	104.487	-92.243	182.026	0.00041772	0.0010021	0.00044525	436.28	1.2683e-05	1.0542e-05	817.1	147.19	2.5728e-06	7.3681e-06	322.61	107.43	48.306	19.158	1.0705e-05	48.782	0.00088392	0.00088678	0.00022873	429.37	1.0005e-05	9.9075e-06	763.58	144.47	1.0281e-05	9.791e-06	307.56	101.76	52.332	19.872	8.6641e-06	45.93	-43.939	21.082	-59.740	-112.572	50.416	74.994	-112.899	-106.691	-98.070	-52.393	-108.508	-103.700	-102.737	-97.419	16.690	-100.277	-8191	255	
2199.083	1	1	0	0	0.24272	0.11671	0.14814	0.16953	0.13415	0.34724	0.15004	0.032178	0.20858	0.27719	0.071168	0.25099	0.20453	0.30533	0.087069	0.18111	-2.4542	-2.8979	-3.2354	-2.725	-3.2958	-3.2771	-2.7396	-3.4271	-2.8042	-2.775	-3.4625	-2.5125	-3.2	-3.3521	-2.5896	-3.5062	-37.305	96.179	123.340	198.718	-108.848	41.647	139.024	97.489	142.695	-95.326	85.959	101.359	185.191	164.953	149.488	230.376	0.00029259	0.00092983	0.00029343	435.63	9.9176e-06	1.1406e-06	824.41	149.9	8.2895e-06	1.4533e-05	322.15	108.55	49.862	19.72	9.3188e-06	48.8	0.00091443	0.00085312	0.00021986	434.35	1.005e-05	9.2425e-06	764.94	147.15	1.0128e-05	9.2142e-06	309.07	103.3	53.067	20.15	8.448e-06	46.429	-52.675	-117.015	-85.561	-112.949	30.632	177.661	-113.123	-107.138	48.653	1.574	-108.750	-104.267	-101.649	-97.396	27.172	-100.351	-8191	255	
2199.180	1	1	0	0	0.31431	0.17036	0.16441	0.23601	0.091029	0.18897	0.27316	0.17844	0.41009	0.12206	0.12383	0.053323	0.19602	0.10956	0.22378	0.06889	-2.5396	-2.9104	-3.3812	-2.4625	-3.1104	-3.5062	-2.4313	-3.5229	-3.0896	-2.6792	-3.4167	-2.7062	-3.075	-3.3417	-2.5458	-3.3958	-58.390	-109.178	174.474	-103.269	56.524	-51.849	184.564	221.717	147.369	82.906	85.981	-71.126	99.896	211.603	175.404	-85.477	0.0005531	0.00066826	0.00012105	429.12	2.1947e-05	7.4069e-06	817.25	148.74	6.5664e-06	6.2962e-06	321.67	108.95	49.281	19.473	7.0642e-06	48.428	0.00091096	0.00084325	0.00021689	437.61	9.9809e-06	9.2987e-06	756.65	146.78	9.8907e-06	9.0532e-06	306.14	103.19	52.022	19.873	8.3169e-06	46.186	-23.704	33.839	81.951	-112.393	-19.898	15.990	-113.185	-106.360	20.074	48.120	-108.383	-103.679	-102.254	-97.138	25.777	-100.021	-8191	255	
2199.276	1	1	0	0	0.27032	0.071277	0.099463	0.15388	0.022885	0.10382	0.22814	0.1004	0.22449	0.20618	0.14291	0.29672	0.26684	0.14963	0.11704	0.10379	-2.6583	-2.6083	-3.4938	-2.8021	-2.8792	-3.3708	-2.7729	-3.3208	-3.0687	-2.7146	-3.5312	-2.8875	-2.9125	-3.4792	-2.7687	-3.1729	76.775	44.935	51.280	210.901	-83.428	94.918	230.436	177.843	97.133	183.166	67.579	187.010	31.322	115.965	-71.828	174.657	0.0004119	0.00081207	0.00025762	429.73	1.631e-05	8.0334e-06	820.03	148.97	6.6902e-06	1.0071e-05	321.65	108.74	49.24	19.546	2.2652e-06	49.115	0.00085069	0.00076663	0.0002106	434.24	9.016e-06	8.4498e-06	756.88	146.81	9.1686e-06	8.3894e-06	307.05	103.38	51.589	19.808	8.794e-06	46.487	-46.485	-21.205	127.262	-113.372	91.067	60.195	-113.024	-105.992	0.085	-92.763	-108.130	-104.164	-102.612	-97.417	-65.830	-100.163	-8191	255	
2199.396	1	1	0	0	0.025678	0.13225	0.22891	0.22426	0.17213	0.14074	0.18606	0.11841	0.24879	0.20588	0.29949	0.18648	0.099917	0.20069	0.22474	0.22775	-2.8229	-2.6458	-3.3688	-2.6521	-2.8542	-3.425	-2.6813	-3.2604	-3.2167	-2.8	-3.4479	-3.025	-2.7229	-3.4958	-2.8104	-3.1792	149.926	25.890	86.738	143.751	-118.109	174.793	194.110	-8.975	13.812	-9.902	211.755	1.247	170.982	-30.076	57.513	192.010	0.00051095	0.0018228	0.00016663	433.71	1.1485e-05	1.2988e-05	821.74	149.24	8.432e-06	8.8031e-06	322.95	108.73	49.824	19.562	2.7455e-06	48.886	0.00084047	0.00077559	0.00023054	437.67	8.8486e-06	8.2579e-06	760.04	146.46	8.9496e-06	8.1101e-06	310.19	103.29	51.496	19.902	9.9339e-06	46.729	-39.134	-70.874	0.799	-112.586	53.646	55.851	-112.861	-106.222	-38.930	83.515	-108.258	-104.082	-102.890	-97.383	-1.516	-99.922	-8191	255	
2199.491	1	1	0	0	0.25776	0.25746	0.13648	0.16408	0.17952	0.14015	0.10594	0.14833	0.080549	0.2689	0.27046	0.017346	0.12886	0.18822	0.2511	0.068212	-2.8208	-2.4771	-3.4458	-3.1042	-2.6771	-3.4354	-2.8312	-3.1104	-3.2812	-2.5	-3.3729	-2.9354	-2.5167	-3.4667	-2.4021	-2.9292	65.668	-28.874	234.020	43.705	-9.335	-10.050	121.541	-55.859	-102.760	-98.105	157.221	40.053	125.029	197.147	199.327	27.298	0.00030936	0.00076374	8.1191e-05	432.13	2.0161e-06	8.7988e-07	814.85	150.27	3.2794e-06	6.2429e-06	323.75	109.9	49.512	19.905	3.9604e-06	48.983	0.00086546	0.00079744	0.00025872	438.74	8.8835e-06	8.5501e-06	764.98	146.76	8.7349e-06	8.2672e-06	313.54	104.37	51.207	20.037	1.0368e-05	46.552	34.549	46.236	-40.563	-112.379	164.092	-69.111	-112.972	-106.260	-0.499	-49.121	-108.319	-103.806	-102.797	-97.140	101.561	-99.593	-8191	255	
2199.587	1	1	0	0	0.13576	0.20898	0.18971	0.18099	0.17559	0.28115	0.18758	0.1306	0.21987	0.060676	0.12471	0.28761	0.11596	0.14059	0.11904	0.25921	-2.8396	-2.4875	-3.3312	-3.1188	-2.675	-3.375	-2.7958	-2.9458	-3.25	-2.5104	-3.325	-3.2604	-2.7833	-3.4021	-2.8917	-2.9333	71.384	142.206	-3.947	-85.354	12.852	76.770	233.110	13.617	114.892	108.841	-20.303	-113.600	-117.985	127.870	-21.462	111.881	0.00030745	0.00042569	0.00033419	429.84	9.674e-06	9.0655e-06	821.58	149.89	1.0745e-06	9.6648e-06	324.27	109.1	49.035	19.984	3.7781e-06	49.201	0.00082428	0.00081316	0.00026454	436.84	8.561e-06	9.0267e-06	770.41	147.19	8.6835e-06	8.8894e-06	314.2	103.8	51.019	20.341	1.021e-05	46.6	-39.442	116.859	-115.367	-112.073	122.916	-53.956	-112.912	-106.404	86.962	33.672	-108.575	-103.996	-102.623	-97.751	215.217	-100.169	-8191	255	
2199.660	1	1	0	0	0.28418	0.10319	0.14279	0.030505	0.10281	0.095537	0.099179	0.1393	0.071678	0.075539	0.19863	0.053225	0.26593	0.042949	0.16469	0.31484	-3.0125	-2.5563	-3.3375	-3.3354	-2.6021	-3.2417	-3.1	-2.8937	-3.3521	-2.8083	-2.975	-3.3187	-2.7708	-3.3625	-2.9208	-2.8104	21.756	117.889	36.338	-43.515	202.009	100.297	114.198	168.260	150.799	42.419	93.633	111.883	89.503	95.614	74.380	164.931	0.00050577	0.00082	9.6657e-05	439.55	1.1543e-05	6.8372e-06	824.99	150.95	2.6598e-06	5.5775e-06	329.68	110.56	50.46	20.409	8.7963e-06	50.231	0.00078338	0.00084501	0.00025571	436.26	8.21e-06	9.5806e-06	773.6	147.89	8.6274e-06	9.7673e-06	317.57	104.71	51.888	21.013	1.0247e-05	47.487	-8.547	124.370	-13.957	-113.668	-9.872	229.408	-113.221	-106.649	-10.010	-81.613	-108.000	-104.591	-103.057	-97.868	100.634	-99.878	-8191	255	
2199.779	1	1	0	0	0.12186	0.26624	0.28479	0.022706	0.28438	0.13348	0.089031	0.16614	0.11487	0.36285	0.17925	0.29061	0.37083	0.028207	0.072399	0.23729	-3.1	-2.6417	-3.125	-3.2542	-2.6771	-3.3625	-3.0896	-2.6604	-3.3438	-2.6562	-3.1437	-3.3875	-2.6937	-3.2833	-3.2562	-2.9396	70.769	134.922	-57.153	-110.846	-102.062	130.785	-4.315	141.339	234.690	0.785	108.834	146.890	171.715	69.981	-53.860	145.508	0.00031707	0.00033087	8.2456e-05	437.41	2.9918e-06	1.0889e-05	827.19	151.44	1.0034e-05	1.5904e-06	326.31	110.53	50.618	20.685	3.5741e-06	50.319	0.00080552	0.00094981	0.00026262	439.77	8.8281e-06	1.0565e-05	773.95	148.11	9.0862e-06	1.0828e-05	317	105.11	53.045	21.508	1.0902e-05	47.6	-44.233	20.704	-112.827	-112.588	11.486	-13.972	-113.470	-107.007	-113.842	26.549	-108.257	-104.575	-102.693	-97.503	-66.633	-99.893	-8191	255	
2199.875	1	1	0	0	0.10801	0.16563	0.15746	0.14034	0.15366	0.13276	0.019945	0.10256	0.10148	0.050185	0.18208	0.090225	0.22326	0.10549	0.27726	0.0082224	-3.0396	-2.7583	-2.8771	-3.4333	-2.5604	-3.3083	-3.3167	-2.6688	-3.4146	-2.975	-3.0146	-3.3937	-2.7062	-3.1312	-3.1146	-2.7854	199.277	-122.291	-42.812	143.844	-96.141	128.480	-6.875	-17.959	-84.540	55.162	-116.752	179.088	170.165	15.901	-31.901	-88.478	0.00044237	0.0012287	0.00043427	437.48	1.3884e-05	6.7817e-06	823.61	150.65	6.6519e-06	4.3418e-06	326.56	111.68	50.536	20.474	1.6577e-05	50.259	0.00092044	0.0010956	0.00027274	441.24	1.0247e-05	1.1583e-05	773.72	147.94	1.0192e-05	1.1198e-05	316.06	105.45	53.842	21.369	1.0478e-05	47.631	-44.649	-35.746	-81.027	-112.548	121.669	-103.514	-113.072	-106.917	133.471	-62.078	-108.748	-103.812	-102.752	-97.178	24.849	-100.619	-8191	255	
2199.972	1	1	0	0	0.18275	0.25263	0.08664	0.22701	0.01876	0.27476	0.34701	0.1299	0.15693	0.044442	0.17153	0.25986	0.13403	0.2067	0.25968	0.0076893	-3.0271	-2.8417	-2.7521	-3.6042	-2.5938	-3.0208	-3.4542	-2.55	-3.6896	-2.8563	-2.6583	-3.3937	-2.8021	-2.9833	-3.3708	-2.6833	-35.105	-78.502	134.808	190.459	-80.951	-84.621	150.653	98.195	231.595	162.550	-57.860	-111.444	-2.968	214.417	145.244	153.522	0.00056308	0.00059753	0.00017136	434.04	8.3907e-06	1.3154e-05	817.5	150.55	1.0859e-05	1.1138e-05	320.52	107.97	49.66	19.97	8.0992e-06	48.914	0.00099534	0.001084	0.0002721	442.18	1.166e-05	1.2162e-05	770.89	148.47	1.2372e-05	1.2537e-05	315.06	104.03	55.042	21.157	1.1195e-05	46.838	-74.154	61.702	-92.702	-112.695	224.462	56.297	-113.098	-106.508	0.758	57.682	-108.578	-103.938	-102.434	-97.464	228.346	-100.237	-8191	255	
2200.068	1	1	0	0	0.11454	0.091917	0.10365	0.15059	0.17589	0.28279	0.14605	0.040753	0.2724	0.036029	0.10304	0.082206	0.054625	0.013624	0.13184	0.14072	-3.0292	-3.1167	-2.5958	-3.5062	-2.6854	-3.0271	-3.4313	-2.7146	-3.2542	-3.1437	-2.6562	-3.3646	-2.8646	-2.9333	-3.3937	-2.7396	193.324	82.654	-48.158	-120.679	26.819	-59.750	137.493	142.642	191.914	210.851	155.366	13.509	95.274	207.555	54.823	180.219	0.00035601	0.00111	0.00013411	433.64	9.472e-06	4.959e-06	812.43	148.91	8.8746e-06	8.4081e-06	322.13	108.98	48.723	20.11	1.8881e-05	49.676	0.0010914	0.0010716	0.00026608	440.85	1.2103e-05	1.126e-05	765.74	147.41	1.1903e-05	1.1411e-05	311.39	104.7	54.769	21.016	1.0426e-05	47.397	-18.039	-45.680	-112.106	-112.278	-6.149	63.797	-112.780	-106.636	31.523	-93.604	-108.230	-103.851	-103.272	-97.534	-12.254	-100.270	-8191	255	
2200.188	1	1	0	0	0.18049	0.13155	0.27056	0.28914	0.31044	0.13066	0.18201	0.26577	0.3023	0.21052	0.091018	0.29506	0.14574	0.06295	0.14844	0.12842	-2.925	-3.0333	-2.6958	-3.4104	-2.9604	-2.7292	-3.4542	-2.6562	-2.9958	-3.2083	-2.5958	-3.3688	-2.9354	-2.8583	-3.3979	-2.8187	150.582	57.320	20.952	129.251	178.052	-45.758	162.234	197.996	-5.617	24.983	179.053	200.530	207.654	219.233	-66.330	234.563	0.00032833	0.00033473	0.00018451	429.23	7.4336e-06	9.7165e-07	817.61	149.98	5.3825e-06	1.3721e-05	323.27	109.82	50.76	20.344	1.1688e-05	50.112	0.0010855	0.0010285	0.00025382	444.25	1.1757e-05	1.0528e-05	763.85	149.04	1.1198e-05	1.04e-05	310.94	105.62	54.339	20.876	9.626e-06	48.162	-61.402	118.331	17.195	-111.958	33.322	-65.170	-112.437	-106.833	111.229	3.506	-107.896	-103.958	-102.477	-96.962	27.855	-100.230	-8191	255	
2200.283	1	1	0	0	0.24666	0.055625	0.24874	0.2012	0.0043638	0.047978	0.13065	0.32651	0.10375	0.1436	0.34246	0.17079	0.14721	0.37263	0.068215	0.084551	-2.6458	-3.3021	-2.5062	-3.5125	-2.8854	-2.6792	-3.5708	-2.8021	-2.9854	-3.2604	-2.675	-3.4396	-2.9938	-2.7458	-3.3708	-2.9229	-71.854	233.608	119.221	-94.460	200.084	218.896	184.166	121.255	-26.113	77.817	86.695	208.677	142.378	-62.660	-83.723	165.004	0.00034774	0.0008021	0.00038398	436.34	1.3822e-05	1.5957e-05	822.16	150.08	7.4112e-06	7.7638e-06	325.68	111.25	50.29	20.625	2.1837e-06	50.698	0.0010021	0.00096086	0.00023875	451.45	1.1396e-05	1.0292e-05	770.44	151.13	1.1212e-05	1.067e-05	313.77	107.06	54.343	20.932	9.9833e-06	48.523	-45.613	116.514	-72.402	-112.306	-49.538	21.542	-112.637	-106.842	1.405	230.047	-107.863	-103.363	-102.010	-96.994	231.258	-99.629	-8191	255	
2200.381	1	1	0	0	0.27425	0.14715	0.30179	0.16164	0.11631	0.11526	0.090245	0.2346	0.13082	0.069849	0.20394	0.28934	0.28866	0.14767	0.092347	0.06444	-2.6188	-3.3729	-2.6354	-3.5396	-3.1188	-2.7313	-3.6937	-2.9062	-2.9083	-3.5479	-2.6271	-3.2	-3.1625	-2.5271	-3.5417	-3.0125	-75.230	1.863	177.205	183.897	-117.791	-40.620	159.026	108.216	178.392	15.819	227.900	189.867	186.120	196.274	161.867	49.296	0.00049525	0.00093307	0.00030233	435.91	1.8256e-05	1.9199e-06	821.29	150.02	5.3236e-06	4.7784e-06	323.75	109.28	49.667	20.216	7.9426e-06	50.039	0.00095926	0.00091455	0.0002471	448.41	1.0735e-05	9.6485e-06	767.75	151.27	1.049e-05	9.9323e-06	313.06	105.86	53.285	20.593	1.0174e-05	47.852	-14.369	-2.958	167.276	-112.271	95.491	-31.252	-113.039	-107.042	-86.102	-28.942	-108.362	-103.429	-102.881	-97.530	-122.056	-99.956	-8191	255	
2200.477	1	1	0	0	0.087506	0.12851	0.40341	0.14293	0.19052	0.14896	0.077529	0.032934	0.076188	0.12601	0.11175	0.13081	0.17523	0.12318	0.29161	0.01613	-2.4396	-3.5042	-2.5917	-3.2042	-3.3542	-2.5354	-3.5333	-2.9708	-2.6667	-3.4771	-2.7229	-3.1667	-3.2083	-2.6792	-3.4125	-3.0417	88.061	14.632	133.374	-58.337	-52.878	-69.257	119.619	49.924	108.484	224.368	50.744	-7.812	-46.458	141.668	88.993	40.725	0.00028506	0.0010161	0.00030666	434.94	1.3806e-05	5.75e-06	818.83	150.75	7.4564e-06	7.5496e-06	324.28	110.75	50.685	20.555	9.0298e-06	50.346	0.00089159	0.00086163	0.00025727	447.82	1.0073e-05	9.0329e-06	772.38	150.78	9.9177e-06	9.5974e-06	315.27	105.76	53.197	20.577	1.0637e-05	47.828	-24.727	55.064	86.278	-112.383	-87.553	3.966	-113.071	-106.697	-49.401	196.736	-108.455	-103.675	-102.502	-97.566	132.266	-100.204	-8191	255	
2200.571	1	1	0	0	0.17329	0.0875	0.11206	0.20302	0.23343	0.098163	0.28802	0.20121	0.1448	0.32227	0.27049	0.10534	0.12183	0.092175	0.10322	0.22813	-2.1208	-3.4667	-2.8229	-3.1583	-3.2792	-2.6312	-3.4458	-2.9813	-2.6437	-3.5208	-2.6771	-3.0312	-3.2104	-2.7104	-3.3479	-3.2292	25.682	-73.290	209.658	-95.607	50.732	111.440	160.736	69.834	186.602	-63.807	168.712	135.021	-10.931	170.144	41.009	172.840	0.00029071	0.0010825	0.00059398	437.72	8.1968e-06	4.1846e-06	821.49	150.25	6.8982e-06	8.907e-06	326.12	111.43	50.488	20.494	4.4676e-06	50.547	0.00085332	0.00085101	0.0002754	445.28	9.929e-06	9.4785e-06	775.49	150.24	9.6857e-06	9.7726e-06	320.32	106.02	53.109	20.874	1.1217e-05	47.979	-110.102	104.415	72.175	-112.047	11.158	187.822	-113.165	-106.874	205.549	136.775	-108.122	-103.400	-102.386	-97.175	-44.662	-99.823	-8191	255	
2200.667	1	1	0	0	0.15297	0.14486	0.11376	0.15857	0.067674	0.097923	0.045325	0.12605	0.077021	0.258	0.12264	0.045255	0.041144	0.05251	0.19131	0.054288	-2.1604	-3.5187	-2.7687	-2.9437	-3.4271	-2.8104	-3.2583	-3.2083	-2.6437	-3.55	-2.825	-2.9458	-3.3083	-2.6937	-3.2188	-3.3042	112.710	110.160	58.324	-123.916	-74.948	145.906	-95.170	152.187	194.289	-95.437	-112.402	-36.185	30.418	45.446	61.026	-89.921	0.00028808	0.00074806	0.00019888	435.08	4.1565e-06	7.6574e-06	823.51	151.22	3.8173e-06	1.144e-05	325.14	111.49	50.124	20.466	1.0909e-05	50.192	0.00085658	0.0009155	0.00028822	443.75	9.5602e-06	9.936e-06	778.16	150.25	9.2203e-06	1.0342e-05	319.91	105.71	52.731	21.109	1.0825e-05	47.948	-41.949	10.695	195.188	-111.411	111.301	29.414	-112.809	-106.804	-7.484	-91.761	-107.974	-103.420	-102.671	-97.725	96.881	-100.166	-8191	255	
2200.788	1	1	0	0	0.093753	0.20771	0.12727	0.19249	0.065404	0.15469	0.022051	0.2062	0.16886	0.22695	0.39745	0.10619	0.27137	0.023248	0.055908	0.10861	-2.25	-3.3167	-2.8646	-2.8208	-3.4792	-2.6042	-3.325	-3.2646	-2.7042	-3.4396	-3.1021	-2.8521	-3.2771	-2.7542	-3.1125	-3.3771	197.950	-54.368	6.977	-99.541	20.718	103.259	198.903	76.510	227.382	145.385	164.562	193.080	4.047	203.083	-39.838	119.826	0.00030421	0.00097007	0.00028379	435.02	9.9108e-06	5.6879e-06	822.35	151.28	7.9274e-06	1.0283e-05	326.04	110.93	50.628	20.288	6.1026e-06	49.942	0.00082976	0.00098481	0.00028574	443.02	9.4108e-06	1.099e-05	773.51	149.73	9.2838e-06	1.0968e-05	318.93	104.95	52.665	21.285	1.0641e-05	47.598	-70.761	94.827	12.811	-112.658	78.487	3.726	-112.466	-106.550	209.990	-20.403	-107.868	-103.126	-101.977	-97.206	60.612	-99.635	-8191	255	
2200.884	1	1	0	0	0.10295	0.27729	0.14206	0.36486	0.28857	0.17748	0.17214	0.14553	0.12723	0.1596	0.26665	0.13322	0.093249	0.071639	0.074908	0.24253	-2.15	-3.4521	-3.0604	-2.7729	-3.4958	-2.7875	-3.0917	-3.4958	-2.5875	-3.3521	-3.2042	-2.5875	-3.4792	-2.7687	-2.8146	-3.525	187.969	14.193	60.077	-77.478	187.083	-119.210	85.067	77.565	208.171	86.650	132.954	134.050	190.755	198.302	39.704	90.020	0.00032026	0.00048152	0.00020886	440.45	1.0704e-05	5.4917e-06	819.01	153.09	6.8617e-06	1.6979e-05	328.15	111.81	50.767	20.801	8.392e-06	51.089	0.00085259	0.0010334	0.00027665	440.95	9.7267e-06	1.1399e-05	770.79	149.32	9.4094e-06	1.1056e-05	316.68	105.42	53.483	21.538	9.9596e-06	47.968	-8.612	-117.472	77.104	-112.023	212.886	-2.656	-112.813	-106.962	-109.085	-89.052	-108.543	-104.004	-102.952	-97.877	25.661	-100.200	-8191	255	
2200.956	1	1	0	0	0.19596	0.090395	0.18232	0.0099522	0.19816	0.18485	0.39124	0.19963	0.21961	0.094772	0.16544	0.23492	0.16448	0.16844	0.14656	0.36226	-1.9396	-3.3688	-3.2042	-2.6396	-3.4062	-2.9396	-2.9562	-3.4146	-2.5396	-3.1792	-3.0958	-2.7083	-3.2896	-2.8646	-2.8583	-3.6146	132.005	-78.666	131.531	31.423	131.554	62.122	153.886	-98.008	210.656	115.147	196.931	169.762	162.831	-47.212	-101.416	75.485	0.00060538	0.00077899	0.00024958	435.39	3.4478e-06	5.2773e-06	828.13	152.92	1.3218e-05	9.7484e-06	327.62	112.18	50.995	20.997	1.2298e-05	51.499	0.00089247	0.0010093	0.00025936	437.85	1.015e-05	1.1264e-05	774.03	149.61	1.0358e-05	1.0955e-05	317.89	105.71	54.419	21.57	9.7346e-06	48.307	-67.379	-84.565	230.813	-113.131	93.486	0.241	-112.688	-106.543	-48.801	-53.843	-108.501	-103.819	-102.508	-97.547	21.053	-100.490	-8191	255	
2201.076	1	1	0	0	0.28215	0.060551	0.0523	0.14918	0.28438	0.26296	0.076233	0.17126	0.080999	0.17467	0.060705	0.20286	0.19885	0.20493	0.21737	0.28515	-2.25	-3.0667	-3.1813	-2.7687	-3.4292	-3	-2.6833	-3.4042	-2.725	-3.0771	-3.3354	-2.4562	-3.3292	-3.2104	-2.4583	-3.4771	163.096	107.762	234.877	-26.915	111.779	67.821	-110.966	-112.114	122.372	109.167	-94.459	173.740	26.894	108.190	-111.000	146.098	0.00068702	0.00018776	0.00059602	437.95	6.5945e-06	1.168e-05	828.45	153.13	5.8082e-06	2.2617e-05	332.7	112.99	51.895	21.035	4.0199e-06	51.443	0.00094693	0.00098115	0.00025414	440.55	1.0937e-05	1.0984e-05	772.85	150.32	1.1008e-05	1.0661e-05	319.01	106.85	55.557	21.678	9.829e-06	48.62	-52.206	45.879	-64.472	-112.555	105.116	17.894	-112.847	-106.801	-40.000	86.645	-108.538	-103.327	-102.652	-96.985	37.959	-99.864	-8191	255	
2201.173	1	1	0	0	0.070216	0.10991	0.056614	0.049481	0.091152	0.13582	0.079336	0.040028	0.029896	0.02851	0.34846	0.049239	0.2543	0.17124	0.057276	0.081699	-2.4146	-2.9688	-3.3667	-2.6229	-3.4021	-3.2083	-2.725	-3.6604	-2.8979	-2.7771	-3.4813	-2.7625	-3.2958	-3.3812	-2.5479	-3.2979	105.866	-17.760	4.058	33.046	49.238	34.374	159.115	28.115	163.962	200.209	11.041	-13.321	-38.517	134.396	-49.852	65.975	0.00050339	0.0017839	0.00011227	434.37	4.8758e-06	8.6606e-06	825.05	153.31	5.5387e-06	4.1351e-06	322.43	111.93	51.121	20.68	5.5323e-06	50.882	0.0010287	0.00097192	0.00025151	442.37	1.1282e-05	1.0526e-05	768.44	150.44	1.128e-05	1.0226e-05	312.4	105.92	54.976	21.271	9.1439e-06	48.419	-38.475	-38.587	22.834	-112.707	96.863	42.934	-112.841	-106.592	52.648	-64.727	-107.630	-104.048	-102.223	-97.114	-30.485	-100.052	-8191	255	
2201.269	1	1	0	0	0.24577	0.25772	0.11523	0.29183	0.089883	0.2121	0.24906	0.086787	0.32475	0.12864	0.10058	0.1029	0.081287	0.24547	0.089199	0.060871	-2.4	-2.8917	-3.5021	-2.6917	-3.0208	-3.2562	-2.6333	-3.2792	-2.9854	-2.725	-3.5292	-2.5521	-3.0458	-3.4375	-2.4854	-3.5833	84.523	-53.081	-121.886	-21.155	211.776	176.897	178.304	87.135	38.255	95.935	187.872	-49.667	214.773	114.780	-50.075	141.811	0.00029765	0.00079527	0.0001467	430.61	7.9028e-06	4.4818e-06	822.72	152.6	9.7944e-06	7.7961e-06	328.54	113.05	51.831	21.27	6.9238e-06	51.724	0.00098433	0.00090214	0.00023372	441.4	1.0386e-05	9.6825e-06	763.54	151.18	1.0233e-05	9.1691e-06	313.04	106.79	54.176	21.235	8.3306e-06	48.951	-88.497	69.992	-93.355	-112.685	-21.022	0.197	-112.880	-107.150	101.008	39.719	-108.964	-103.936	-102.352	-97.668	-64.072	-100.406	-8191	255	
2201.365	1	1	0	0	0.051431	0.081905	0.10349	0.1761	0.20377	0.045279	0.063659	0.11651	0.0099872	0.20168	0.39489	0.17096	0.09819	0.14937	0.33704	0.12581	-2.7604	-2.7125	-3.3333	-2.6188	-3.0104	-3.4417	-2.7542	-3.4583	-3.1458	-2.6854	-3.5708	-3.0583	-3.1333	-3.5521	-2.5812	-3.3229	23.932	8.084	-33.258	224.160	-65.310	-120.164	130.150	16.134	62.467	193.011	225.090	174.380	-21.342	160.294	24.662	-19.871	0.00019029	0.0011321	0.00041563	438.79	4.3357e-06	1.1709e-05	828.77	154.06	8.9834e-06	5.8065e-06	330.19	113.51	51.911	21.242	8.3197e-06	52.193	0.00089123	0.00082383	0.0002235	447.35	9.8011e-06	9.3485e-06	768.94	153.01	9.9707e-06	9.0847e-06	317.01	108.4	54.199	21.352	9.153e-06	49.701	-28.696	-62.625	66.910	-112.736	94.097	24.457	-112.932	-107.085	11.702	7.275	-108.310	-103.770	-102.600	-97.770	204.388	-100.132	-8191	255	
2201.484	1	1	0	0	0.17294	0.009273	0.17127	0.21021	0.071561	0.27188	0.094889	0.21852	0.066378	0.17834	0.19006	0.095272	0.35507	0.21795	0.22043	0.14664	-2.9208	-2.7313	-3.5125	-2.6104	-3.0125	-3.6146	-2.7687	-3.425	-3.1667	-2.5958	-3.6167	-2.9062	-2.9062	-3.4562	-2.65	-3.3104	60.807	152.471	158.080	20.134	22.151	-110.048	100.979	183.137	31.178	-37.028	-97.028	224.120	221.642	-61.921	214.000	230.972	0.00040475	0.0011894	0.00028978	442.38	1.2538e-05	5.8366e-06	831.91	154.37	1.0914e-05	1.4251e-05	331.91	113.64	52.004	21.303	5.2191e-06	51.77	0.00089788	0.00082079	0.00024399	451.95	9.7666e-06	9.2057e-06	776.61	153.49	9.8246e-06	8.9317e-06	320.18	108.54	54.231	21.441	1.0013e-05	49.569	-78.359	-50.513	29.069	-113.049	-43.203	45.013	-113.151	-106.674	73.344	19.998	-108.344	-104.099	-102.432	-97.445	-87.271	-100.062	-8191	255	
2201.580	1	1	0	0	0.064978	0.19293	0.22556	0.11768	0.068288	0.26247	0.19361	0.066842	0.13903	0.15607	0.15475	0.18121	0.095494	0.22176	0.25346	0.22521	-2.6625	-2.6396	-3.3292	-3.0917	-2.9146	-3.5729	-2.75	-3.1208	-3.3375	-2.7687	-3.3688	-3.1604	-2.7958	-3.35	-2.7917	-3.0458	-14.565	25.959	132.922	92.480	129.228	-75.930	107.182	89.074	66.204	-76.083	-64.684	169.600	204.098	230.166	70.640	-116.723	0.000296	0.0014631	7.0115e-05	444.44	9.7591e-06	5.5202e-06	826.71	154.42	7.0586e-06	4.2063e-06	327.65	112.66	51.628	21.174	7.9653e-06	51.876	0.00086726	0.00079484	0.00025895	450.27	9.2947e-06	8.8957e-06	777.57	152.59	9.5677e-06	8.8527e-06	319.42	107.51	53.819	21.217	1.0557e-05	48.844	-48.029	-105.034	68.269	-112.634	43.645	191.269	-113.115	-106.770	79.657	49.775	-107.862	-103.918	-102.075	-97.311	-82.162	-99.681	-8191	255	
2201.652	1	1	0	0	0.21021	0.16269	0.03969	0.10108	0.25615	0.127	0.11009	0.1525	0.1193	0.12783	0.18037	0.24671	0.1786	0.33521	0.10227	0.27094	-3.0458	-2.6375	-3.2771	-3.0687	-2.5229	-3.4542	-2.9354	-3.0938	-3.2667	-2.5687	-3.1917	-3.1458	-2.6312	-3.4667	-2.7917	-2.7583	-46.301	233.767	209.968	106.355	-15.145	114.597	114.854	-3.561	125.165	134.588	15.556	182.538	-121.773	195.892	69.407	165.426	0.00020976	0.0011319	0.00016876	433.04	4.785e-06	3.5217e-06	825.24	154	4.015e-06	8.57e-06	330.35	112.17	51.557	21.042	1.0365e-05	51.14	0.00085293	0.00082436	0.00027451	443.67	9.214e-06	9.3991e-06	775.38	151.14	9.2631e-06	9.1959e-06	320.34	106.71	53.099	21.368	1.0843e-05	48.384	-28.076	-42.003	2.532	-112.248	-98.728	62.978	-112.875	-106.658	33.674	148.807	-107.950	-103.747	-103.193	-96.995	-40.318	-100.327	-8191	255	
2201.748	1	1	0	0	0.28421	0.13758	0.21533	0.066595	0.29153	0.048324	0.10117	0.13959	0.034871	0.19571	0.16604	0.23017	0.1951	0.12769	0.19576	0.10323	-3.0563	-2.75	-3.2938	-3.3042	-2.7	-3.5396	-2.8958	-2.8583	-3.4458	-2.6896	-3.1896	-3.35	-2.4958	-3.3479	-2.9562	-2.8479	168.261	-40.923	-99.156	221.529	68.458	-90.115	122.509	119.944	202.004	158.201	181.084	-73.758	205.969	226.683	-24.065	164.358	0.00049502	0.00072039	0.00034049	437.57	1.7566e-05	4.789e-06	820.86	152.62	8.936e-06	9.7013e-06	326.78	111.85	51.628	20.845	2.2078e-06	51.258	0.00084876	0.00091832	0.00028497	446.04	9.2135e-06	1.0476e-05	775.6	150.34	9.2159e-06	1.0198e-05	319.02	106.02	52.916	21.514	1.0466e-05	48.548	-57.025	-60.489	-12.644	-112.770	121.837	184.106	-112.598	-106.492	142.654	207.752	-107.878	-103.975	-102.898	-97.180	-72.927	-100.129	-8191	255	
2201.868	1	1	0	0	0.25179	0.42967	0.3287	0.21055	0.31332	0.10864	0.27999	0.086214	0.13122	0.25181	0.05244	0.11569	0.33691	0.21716	0.15377	0.16758	-2.9979	-2.5917	-3.0208	-3.4708	-2.5708	-3.3875	-3.1542	-2.675	-3.5458	-2.5646	-3.0563	-3.5125	-2.7625	-3.3396	-3.0979	-2.775	191.786	157.841	77.778	144.774	-59.843	94.936	80.769	-92.870	102.550	168.885	-96.522	201.635	230.950	-98.679	98.626	179.153	0.00029256	0.00032185	0.00024957	442.07	1.154e-05	7.6441e-06	827.52	153.7	8.4747e-06	7.1138e-06	330.14	114.03	51.651	21.169	1.1808e-05	52.235	0.00081461	0.00096301	0.00026691	445.25	9.2534e-06	1.1023e-05	777.61	150.92	9.4154e-06	1.121e-05	321	107.6	53.834	21.813	1.0218e-05	49.002	-0.340	149.134	-107.848	-112.840	228.584	-117.479	-112.676	-106.343	219.128	223.501	-107.857	-103.832	-102.926	-97.432	-18.936	-99.441	-8191	255	
2201.964	1	1	0	0	0.27525	0.11284	0.19337	0.17508	0.27057	0.22251	0.10607	0.1417	0.19934	0.15526	0.2648	0.11668	0.16434	0.018783	0.040402	0.052121	-3.0875	-2.6042	-2.9042	-3.4417	-2.4271	-3.3229	-3.2042	-2.575	-3.4021	-2.7667	-2.8542	-3.6167	-2.7062	-3.3479	-3.2792	-2.4604	167.469	182.587	-5.173	198.759	39.862	191.939	187.752	-62.906	68.654	213.767	199.548	-101.542	-110.137	-121.186	-61.240	159.879	0.00047848	0.0014257	0.00066696	441.35	6.6542e-06	1.0056e-05	824.31	155.09	2.9888e-06	1.2777e-05	327.05	112.31	50.943	20.976	2.5636e-06	51.55	0.00083953	0.00099888	0.00025395	442.94	9.5522e-06	1.113e-05	776.9	150.53	9.8813e-06	1.1291e-05	317.92	106.27	54.143	21.687	9.7672e-06	48.22	-61.352	-40.071	-63.615	-112.286	123.066	87.608	-112.892	-106.718	-96.137	32.528	-107.951	-103.555	-102.765	-97.580	-119.941	-99.854	-8191	255	
2202.061	1	1	0	0	0.099634	0.26586	0.14393	0.25814	0.078897	0.081887	0.216	0.21555	0.1026	0.14078	0.15426	0.086673	0.27296	0.14349	0.13647	0.097618	-3.1083	-2.9688	-2.6042	-3.3271	-2.7146	-3.2521	-3.3438	-2.6542	-3.525	-3.0687	-2.7646	-3.5708	-2.9208	-3.2042	-3.2562	-2.7229	-80.880	-117.566	-17.939	-109.386	-115.724	39.746	171.316	198.009	30.584	123.191	195.685	128.238	74.936	168.009	86.169	216.562	0.00056814	0.00024338	0.00014077	434.86	8.3155e-06	7.3881e-06	831.1	154.33	2.8647e-06	6.3809e-06	334.04	114.62	52.032	21.238	8.0653e-06	52.117	0.00089242	0.00096248	0.00023598	433.82	9.2279e-06	9.3496e-06	767.46	147.51	8.7367e-06	8.8923e-06	313.41	106.03	53.419	21.291	8.0347e-06	48.148	-59.450	-38.155	-25.130	-112.265	169.059	66.193	-112.590	-106.668	77.753	-17.106	-107.649	-103.575	-102.483	-97.360	-10.181	-99.993	-8191	255	
2202.181	1	1	0	0	0.23998	0.15586	0.14131	0.099637	0.17255	0.23536	0.22326	0.24226	0.11974	0.095236	0.054095	0.16153	0.11276	0.053698	0.16948	0.19592	-2.9958	-3.0875	-2.5812	-3.6771	-2.7271	-2.7375	-3.6792	-2.6771	-3.325	-3.1271	-2.7958	-3.4542	-2.7833	-2.9562	-3.6542	-2.8792	-63.053	147.961	61.400	129.937	204.352	-75.975	229.217	99.803	218.217	-82.097	9.462	-94.525	-66.381	88.050	-105.501	171.157	0.0006637	0.00018362	0.00044937	439.72	4.4819e-06	3.732e-06	824.82	154.68	8.9961e-06	1.8532e-06	332.27	113.38	51.458	21.112	5.8622e-06	51.781	0.00080388	0.00081592	0.00020714	433.53	9.3737e-06	9.0735e-06	765.33	148.89	9.6497e-06	9.2006e-06	312.73	106.04	54.159	21.255	8.34e-06	48.411	-68.951	-55.102	-66.031	-112.004	144.737	145.535	-112.766	-106.240	146.195	-28.001	-108.061	-103.569	-102.752	-96.760	102.453	-99.876	-8191	255	
2202.253	1	1	0	0	0.1762	0.1703	0.24557	0.16945	0.16157	0.16205	0.4377	0.049987	0.022915	0.094275	0.089781	0.41231	0.12532	0.11216	0.017942	0.058977	-2.9458	-3.1583	-2.6333	-3.5875	-2.7271	-2.8583	-3.6875	-2.7313	-3.2979	-3.1375	-2.6437	-3.6417	-2.9625	-2.8688	-3.5417	-2.8875	-111.081	60.519	-34.288	124.373	121.330	-120.927	190.945	57.991	-14.434	221.376	-31.937	173.595	181.285	-31.874	125.510	109.141	0.00056249	0.001049	0.00037299	440.53	1.3684e-05	9.3079e-06	828.04	154.32	5.753e-06	3.7151e-06	329.65	114.09	52.055	21.047	5.9394e-06	51.647	0.00087426	0.00082662	0.00020856	440.27	1.004e-05	9.1501e-06	766.56	150.47	9.9524e-06	9.3671e-06	313.8	107.52	54.836	21.248	8.6259e-06	48.996	-51.463	-60.257	-80.846	-111.892	85.351	-83.313	-112.361	-106.466	86.133	-18.957	-108.047	-103.194	-102.178	-96.881	-19.287	-100.265	-8191	255	
2202.349	1	1	0	0	0.14658	0.17622	0.13737	0.045754	0.17729	0.13794	0.179	0.11476	0.15736	0.10303	0.05924	0.19352	0.19028	0.14833	0.23728	0.030725	-2.6625	-3.2917	-2.5896	-3.4896	-2.9271	-2.6167	-3.6188	-2.7542	-3.2062	-3.3646	-2.8417	-3.55	-3.1312	-2.6521	-3.2854	-2.8771	-2.403	-93.093	-99.726	-96.420	-98.618	216.831	227.994	113.751	-3.313	118.797	-29.247	194.854	232.620	169.656	-81.771	2.847	0.00044318	0.00098638	0.0004149	440.01	8.0074e-06	8.0906e-06	826.52	155.61	9.1512e-06	3.8224e-06	332.58	112.65	51.823	20.826	1.0859e-05	51.266	0.00090579	0.00087171	0.00021909	445.59	1.0294e-05	9.3199e-06	765.6	152.33	1.0122e-05	9.5124e-06	313.78	107.57	54.731	21.14	9.0562e-06	48.911	-27.217	-63.401	-77.703	-112.312	88.260	11.227	-112.499	-106.572	27.197	18.194	-107.933	-103.959	-102.594	-97.694	41.896	-100.053	-8191	255	
2202.470	1	1	0	0	0.061297	0.028522	0.18957	0.10548	0.15035	0.29421	0.14995	0.23272	0.15714	0.059871	0.10219	0.025081	0.13045	0.064128	0.10374	0.33869	-2.6917	-3.3646	-2.7	-3.4021	-3.0604	-2.5833	-3.6	-2.7521	-2.9146	-3.4729	-2.7104	-3.3625	-3.2313	-2.6312	-3.3729	-2.8979	-23.555	187.417	92.081	133.574	128.455	2.920	159.687	175.205	-14.180	-5.051	-27.593	-55.368	156.914	180.167	158.471	125.719	0.00037147	0.00045069	0.00027432	442.66	3.4657e-06	3.9167e-06	821.8	152.21	7.3388e-06	6.745e-06	328.39	112.68	51.102	20.849	3.8602e-06	51.386	0.00089437	0.00085895	0.00022983	449.16	9.9145e-06	9.0042e-06	765.94	151.74	9.4963e-06	9.0839e-06	314.17	107.69	53.992	21.044	9.4539e-06	48.972	-33.354	137.631	191.961	-112.126	165.092	43.827	-112.975	-106.959	51.547	-26.004	-108.641	-103.899	-103.196	-97.361	-71.947	-100.611	-8191	255	
2202.564	1	1	0	0	0.22014	0.22468	0.23665	0.016527	0.085657	0.28174	0.054662	0.096551	0.24453	0.21225	0.063525	0.11854	0.21796	0.18855	0.21604	0.07959	-2.4271	-3.5333	-2.8292	-3.1625	-3.1375	-2.4875	-3.6437	-2.9479	-2.8771	-3.6458	-2.5938	-3.2083	-3.4458	-2.7	-3.3521	-3.0208	15.148	207.815	61.745	28.200	-33.010	-29.193	161.674	-123.980	64.743	137.105	223.547	-39.561	58.944	116.059	-57.681	-84.181	0.00031353	0.0010215	0.00034542	433.56	1.6029e-05	8.754e-06	818.1	152.25	8.6296e-06	7.1522e-06	327.18	112.52	51.614	21.152	1.1232e-05	51.907	0.00086478	0.00082371	0.00025052	447.86	9.9219e-06	8.9046e-06	768.75	151.2	9.2976e-06	8.9025e-06	317.3	106.79	53.408	21.013	9.7225e-06	48.919	-43.930	-43.450	-24.947	-112.410	60.270	20.645	-113.501	-106.765	68.087	-3.197	-109.051	-104.289	-103.057	-97.725	206.181	-100.339	-8191	255	
2202.660	1	1	0	0	0.12146	0.05837	0.10547	0.074111	0.21368	0.14393	0.13832	0.22773	0.15293	0.024552	0.086656	0.047988	0.15467	0.13582	0.10747	0.17774	-2.3583	-3.3583	-2.6813	-3.0854	-3.3125	-2.5625	-3.5354	-3.1479	-2.5792	-3.575	-2.8312	-2.9354	-3.3937	-2.6583	-3.3438	-3.2188	210.911	220.098	-77.879	135.465	78.527	-32.270	104.198	199.660	199.002	-27.814	41.767	97.797	37.644	172.201	183.658	-77.790	0.00028594	0.00070008	8.7702e-05	440.14	2.6674e-06	8.0742e-06	828.71	154.94	6.4837e-06	1.1689e-05	335.62	114.58	52.618	21.334	6.138e-06	52.487	0.00079341	0.00076592	0.00024449	440.28	8.692e-06	7.9201e-06	772.17	150.81	8.169e-06	8.1005e-06	318.86	107.11	53.443	21.121	9.4218e-06	49.184	-27.863	94.222	69.752	-112.945	214.808	59.886	-112.976	-106.908	78.415	-105.105	-108.462	-104.151	-102.593	-97.855	-53.039	-100.900	-8191	255	
2202.781	1	1	0	0	0.12005	0.18788	0.41113	0.088954	0.086602	0.22429	0.15101	0.21225	0.091473	0.22814	0.16904	0.2141	0.026395	0.032085	0.07507	0.22925	-2.3104	-3.3438	-3.0021	-2.9229	-3.45	-2.6667	-3.3438	-3.3208	-2.7729	-3.4083	-2.8229	-2.825	-3.3812	-2.6521	-3.1688	-3.3708	-88.091	89.056	-22.414	166.145	-76.191	146.224	147.115	135.979	194.582	-43.271	192.897	185.651	37.983	219.630	26.637	189.024	0.00038993	0.00091779	0.00028296	439.48	6.5394e-06	6.2424e-06	828.98	154.96	8.2909e-06	7.1596e-06	333.75	113.8	52.091	20.963	1.5748e-05	51.856	0.00072493	0.00077156	0.00024554	437.64	8.2797e-06	8.5071e-06	775.1	150.26	7.9423e-06	8.7308e-06	318.14	106.52	52.424	21.071	9.3151e-06	48.334	-23.769	76.983	-13.400	-112.504	223.507	227.278	-112.935	-107.506	-3.925	39.151	-108.802	-103.996	-103.284	-97.776	0.654	-100.458	-8191	255	
2202.853	1	1	0	0	0.061904	0.33927	0.24889	0.15702	0.1204	0.16207	0.22629	0.046667	0.3625	0.20691	0.2052	0.045843	0.18753	0.19894	0.17722	0.26675	-2.0604	-3.2875	-2.8104	-2.8708	-3.5229	-2.7125	-3.3542	-3.4042	-2.7125	-3.5854	-2.95	-2.7917	-3.6688	-2.7167	-3.1396	-3.5125	-57.411	36.689	-15.123	-69.678	92.010	32.584	198.997	223.803	181.512	-59.717	185.062	35.656	-70.475	-92.959	46.924	213.650	0.00029012	0.00027128	0.00043281	437.64	1.1553e-05	8.16e-06	821.22	154.05	4.8681e-06	1.0285e-05	329.93	113.31	51.913	21.131	5.0404e-06	51.759	0.00069687	0.00080729	0.00023677	432.14	7.9203e-06	9.0062e-06	768.56	148.67	7.6479e-06	9.0791e-06	313.98	105.78	52.454	21.292	8.9074e-06	48.221	-20.205	136.356	-50.607	-112.658	53.960	225.127	-113.020	-106.701	171.912	79.230	-108.789	-104.172	-103.012	-97.712	41.364	-100.264	-8191	255	
2202.949	1	1	0	0	0.18681	0.24218	0.1805	0.24882	0.092414	0.12498	0.10257	0.23891	0.161	0.17075	0.11497	0.23172	0.082958	0.25193	0.21069	0.28568	-2.0667	-3.2979	-3.0938	-2.6208	-3.3979	-2.5875	-3.1542	-3.3521	-2.5062	-3.4146	-3.2083	-2.6646	-3.5625	-2.7708	-2.9375	-3.3104	36.767	111.001	47.578	202.138	-20.641	209.428	210.608	114.662	-92.717	16.651	180.597	160.798	175.848	82.922	-56.455	169.647	0.0003223	0.00093254	0.00044094	439.86	5.3432e-06	3.2494e-06	832.58	154.51	7.7841e-06	4.5034e-07	329.99	112.94	52.2	21.077	9.8938e-06	51.768	0.0007082	0.00085954	0.00023254	434.11	8.0564e-06	9.487e-06	770.57	149.11	7.9901e-06	9.5144e-06	315.5	105.83	53.139	21.553	8.9395e-06	48.359	-86.441	181.481	-68.578	-112.432	-15.504	56.269	-112.947	-107.145	-106.423	-29.164	-108.560	-104.081	-102.651	-97.718	-23.858	-100.694	-8191	255	
2203.045	1	1	0	0	0.34693	0.0029054	0.039772	0.24286	0.11328	0.20928	0.20107	0.12254	0.21456	0.08121	0.14855	0.037713	0.12444	0.15283	0.31769	0.30814	-2.1854	-3.075	-3.0438	-2.5312	-3.4042	-2.7625	-2.7271	-3.3583	-2.7333	-3.1729	-3.1542	-2.5583	-3.3937	-3.0354	-2.7687	-3.4021	73.888	51.139	-82.002	-56.519	203.696	146.504	157.625	-117.773	210.382	-115.253	96.778	-4.601	-23.315	40.880	9.971	157.818	0.00045262	0.00096261	0.00036008	440.82	6.433e-06	1.3385e-06	834.54	154.39	1.0308e-05	7.4146e-06	331.89	113.69	52.51	21.564	2.6599e-06	52.16	0.00078845	0.0009067	0.00023339	434.86	8.9541e-06	1.0033e-05	770.01	148.97	8.9471e-06	9.7244e-06	315.37	106.01	54.304	21.674	8.6509e-06	48.581	-55.056	-66.726	-93.145	-112.155	154.063	-90.570	-112.693	-106.785	-87.389	43.365	-108.419	-103.551	-102.502	-97.136	102.088	-100.052	-8191	255	
2203.165	1	1	0	0	0.14388	0.21035	0.23166	0.34981	0.13359	0.13466	0.2068	0.12453	0.27326	0.080267	0.31774	0.2037	0.14224	0.04265	0.10852	0.040032	-2.1646	-3.0521	-3.1958	-2.4917	-3.2583	-2.9771	-2.7479	-3.4646	-2.6542	-3.0687	-3.2646	-2.6021	-3.2646	-3.0354	-2.6875	-3.4479	214.305	-91.511	136.529	206.876	-108.241	131.716	182.265	-25.725	145.015	-61.093	169.467	-72.133	-85.630	-22.774	129.453	188.414	0.00053738	0.00024092	0.00029848	441.46	1.0924e-05	1.2419e-05	825.25	153.95	3.2641e-06	4.615e-06	328.13	112.15	50.953	21.019	8.6364e-06	51.396	0.00082861	0.00087677	0.00022398	433.49	9.6117e-06	9.7722e-06	766.77	148.85	9.9314e-06	9.6845e-06	314.35	105.23	54.327	21.197	8.5859e-06	48.005	-55.637	171.483	184.005	-112.535	190.356	37.674	-113.103	-106.749	167.659	231.070	-108.580	-103.784	-102.204	-97.067	21.912	-100.318	-8191	255	
2203.262	1	1	0	0	0.15579	0.10644	0.099446	0.15444	0.14225	0.083667	0.3422	0.43115	0.26485	0.20072	0.1516	0.38616	0.22959	0.26151	0.19273	0.033141	-2.475	-2.9604	-3.4792	-2.4292	-3.2271	-3.15	-2.7146	-3.5583	-2.5729	-2.9104	-3.4271	-2.7313	-3.1458	-3.0312	-2.6729	-3.3521	39.682	82.763	221.299	-91.565	107.143	-82.012	-117.526	194.089	110.780	-61.284	142.416	161.173	-49.481	-17.883	-1.796	-88.281	0.00050197	0.0012606	0.00028883	435.22	4.4181e-06	3.5853e-06	819.43	153.7	1.5622e-06	3.1521e-06	329.6	112.54	51.42	21.151	5.0083e-06	51.417	0.00089554	0.0008592	0.00022103	433.47	9.8737e-06	9.4961e-06	760.21	149.2	1.0073e-05	9.1651e-06	310.95	105.46	54.098	21.196	7.8992e-06	48.22	-25.144	-41.126	-61.280	-112.691	-85.482	-27.835	-113.075	-106.470	25.737	113.630	-108.583	-104.069	-102.193	-97.823	6.307	-100.345	-8191	255	
2203.356	1	1	0	0	0.077328	0.065752	0.2514	0.14114	0.15859	0.24926	0.15044	0.098214	0.24439	0.24054	0.0287	0.18756	0.10649	0.082637	0.11675	0.34431	-2.3187	-2.7479	-3.3896	-2.6542	-3.1583	-3.325	-2.8146	-3.4062	-2.8958	-2.7188	-3.4542	-2.7396	-2.975	-3.2021	-2.6146	-3.4562	-58.369	156.895	99.960	233.068	-99.654	-24.251	-112.933	-83.235	185.265	175.826	101.808	-106.027	-74.364	183.239	-65.731	133.059	0.00018264	0.00045623	0.00023304	436.31	5.2072e-06	6.5338e-06	819.14	152.14	9.8451e-06	4.1946e-06	327.65	111.88	51.842	21.234	5.4692e-06	51.856	0.00084934	0.00079435	0.00020489	435.33	9.4996e-06	8.9074e-06	757.33	149.04	9.333e-06	8.4988e-06	309.33	105.73	53.606	20.98	7.3491e-06	48.405	-8.109	-92.993	-58.775	-111.995	8.581	-100.765	-113.087	-106.554	14.507	12.626	-108.253	-104.192	-101.796	-97.647	-48.459	-100.064	-8191	255	
2203.452	1	1	0	0	0.17087	0.22909	0.049081	0.30655	0.073324	0.066065	0.12013	0.13307	0.12903	0.27229	0.10675	0.21567	0.12722	0.18	0.11712	0.1397	-2.6708	-2.6417	-3.5729	-2.5667	-3.0187	-3.3771	-2.8042	-3.2	-3.0167	-2.6646	-3.4854	-2.8937	-3.0396	-3.4062	-2.4896	-3.1792	-91.767	-64.335	172.412	-117.289	222.633	44.529	13.907	68.221	-70.772	-90.890	156.617	140.812	206.699	25.316	88.074	225.412	0.00053804	0.00075839	0.00021797	434.96	1.025e-05	6.219e-06	824.25	154.93	2.1736e-06	1.0879e-05	331.01	114.25	52.134	21.426	6.7674e-06	52.92	0.00078098	0.00071893	0.00018971	432.91	8.2774e-06	7.7078e-06	758.62	150.14	8.2402e-06	7.3815e-06	310.21	107	53.209	21.004	7.3016e-06	49.209	-34.317	-27.788	166.914	-112.329	-3.206	39.444	-113.030	-107.600	160.887	1.102	-108.757	-104.427	-103.014	-97.893	34.200	-100.600	-8191	255	
2203.548	1	1	0	0	0.082055	0.10839	0.33674	0.18885	0.37065	0.133	0.058619	0.21243	0.088108	0.11187	0.13551	0.04874	0.12166	0.10861	0.15394	0.22015	-2.8542	-2.6979	-3.4708	-2.9437	-2.9958	-3.5187	-2.8146	-3.1688	-3.1458	-2.8187	-3.5708	-2.9938	-2.8667	-3.4458	-2.5729	-3.1958	189.076	-100.791	-85.742	58.187	0.760	-38.174	-63.735	136.256	23.280	109.105	-73.115	178.920	70.954	-54.530	-112.473	202.045	0.00021937	0.00080828	8.5935e-05	440.55	4.8073e-06	1.1663e-05	821.96	154.4	1.4153e-05	2.0913e-05	330.43	112.75	50.642	21.217	2.2222e-07	51.243	0.00073855	0.00067496	0.00019841	439.57	8.1728e-06	7.9544e-06	765.14	151.07	8.5874e-06	7.6478e-06	314.27	106.72	52.66	20.831	8.5672e-06	48.485	-67.670	-11.570	229.351	-112.996	13.626	59.154	-113.154	-106.612	54.279	-2.292	-108.430	-104.105	-102.999	-97.702	-102.408	-100.530	-8191	255	
2203.645	1	1	0	0	0.19828	0.19376	0.17324	0.11879	0.1571	0.070537	0.333	0.11192	0.10559	0.29183	0.12985	0.10193	0.13165	0.14196	0.21248	0.043288	-2.8375	-2.7021	-3.225	-3.0646	-2.8104	-3.4771	-2.6312	-3.125	-3.2667	-2.4875	-3.4104	-2.8958	-2.5687	-3.5375	-2.9021	-3.2438	54.788	2.809	99.258	63.873	17.331	192.118	-99.701	139.407	10.767	116.380	76.066	213.482	-108.976	188.564	43.071	52.826	0.00037826	0.00062269	0.00011705	439.26	8.2559e-06	3.8161e-06	818.11	152.92	4.9608e-06	1.6313e-05	328.4	112.17	51.163	21.096	3.3432e-06	51.266	0.0007851	0.0007101	0.00022974	440.04	8.4882e-06	8.1095e-06	764.28	150.39	8.7275e-06	8.0741e-06	314.91	106.02	52.896	20.878	9.3812e-06	48.327	-43.252	-38.553	-11.727	-112.725	28.575	10.148	-113.758	-106.494	173.668	16.418	-109.069	-103.943	-103.516	-97.805	15.113	-100.294	-8191	255	
2203.741	1	1	0	0	0.20385	0.12485	0.15908	0.21321	0.22112	0.025068	0.14209	0.21261	0.097611	0.17266	0.049245	0.14614	0.22413	0.032744	0.066075	0.18097	-2.9729	-2.4562	-3.3521	-2.9792	-2.6333	-3.5375	-2.7479	-2.7708	-3.2583	-2.7396	-3.0062	-3.0563	-2.7417	-3.3958	-2.8187	-2.9375	-103.411	-75.087	138.337	192.473	-76.881	-31.571	141.348	-117.918	157.986	101.281	143.412	-102.707	183.553	33.051	53.226	85.654	0.00033865	0.00052264	0.00033036	431.05	4.3837e-06	3.7469e-06	821.75	154.95	1.1685e-05	1.191e-05	327.64	112.56	51.71	20.977	6.2516e-06	51.299	0.00076169	0.00073421	0.00023811	435.57	8.3159e-06	8.2648e-06	767.59	149.81	8.391e-06	8.3351e-06	315.61	105.82	52.581	21.029	9.6292e-06	48.233	-50.629	-124.770	-67.562	-112.762	28.951	-30.316	-113.506	-106.895	49.227	233.931	-108.659	-104.232	-102.814	-97.728	-63.124	-100.270	-8191	255	
2203.861	1	1	0	0	0.29235	0.017503	0.19085	0.066596	0.25997	0.083347	0.14497	0.073091	0.24096	0.21926	0.24894	0.1892	0.14472	0.16252	0.26958	0.13819	-2.8667	-2.7313	-3.2229	-3.1437	-2.4833	-3.4375	-2.9729	-2.9792	-3.3979	-2.8271	-3.1104	-3.2708	-2.7146	-3.4208	-2.8667	-2.9271	226.630	222.811	-71.458	225.706	-3.989	-103.150	135.019	185.386	15.146	200.527	-113.223	-99.448	-60.343	-69.716	84.061	163.610	0.00053395	0.00063901	0.00041027	437.83	7.5131e-06	1.2078e-05	823.86	155.47	1.743e-05	3.3276e-06	332.59	113.1	52.024	21.362	7.211e-06	52.097	0.00073631	0.00077688	0.0002409	435.05	7.8787e-06	8.6013e-06	767.18	149.93	7.756e-06	8.599e-06	316.85	106.56	52.517	21.33	9.1268e-06	48.609	-41.444	133.169	-66.787	-112.991	-52.549	58.773	-113.291	-107.160	-20.920	-41.658	-108.705	-104.337	-102.701	-97.810	-10.857	-99.947	-8191	255	
2203.957	1	1	0	0	0.26263	0.093366	0.10764	0.25678	0.18243	0.10984	0.20017	0.22674	0.1306	0.11371	0.1263	0.2447	0.1374	0.11754	0.18394	0.19618	-2.8896	-2.5729	-3.0917	-3.2729	-2.4792	-3.4604	-3.0208	-2.8104	-3.4083	-2.8167	-3.0521	-3.3729	-2.7104	-3.2667	-2.9125	-2.8833	82.532	-23.339	79.878	-24.465	133.693	-42.952	160.379	-106.176	166.971	227.571	219.694	-27.899	204.957	188.744	-62.457	-48.279	0.00023294	0.00095037	0.00019899	437.67	5.728e-06	1.1333e-05	825.2	152.93	1.3729e-05	7.5686e-06	326.93	112.57	51.084	21.026	9.1594e-06	51.496	0.00070998	0.00084834	0.0002335	434.68	7.9121e-06	9.2132e-06	765.06	148.4	7.8435e-06	9.1273e-06	312.94	105.35	52.226	21.297	8.9266e-06	47.944	-13.979	148.489	-122.227	-112.828	-13.273	200.482	-113.808	-107.020	-50.939	-33.758	-107.728	-103.960	-102.546	-97.675	-70.250	-100.146	-8191	255	
2204.054	1	1	0	0	0.10923	0.097603	0.10995	0.23662	0.003568	0.097822	0.15551	0.25809	0.20567	0.026899	0.21063	0.16789	0.22583	0.33627	0.22484	0.25822	-3.0812	-2.9042	-3.0229	-3.4938	-2.525	-3.2667	-3.1312	-2.7292	-3.3333	-2.8333	-3.0229	-3.4854	-2.6042	-3.4333	-2.9417	-2.4604	19.110	197.735	18.201	229.014	177.687	220.422	185.927	-35.072	-65.507	17.426	205.936	42.290	172.396	-105.647	49.025	234.945	0.00030292	0.00061964	0.00021227	437.83	4.4719e-06	4.1316e-06	823.83	156.2	4.8087e-06	5.7952e-06	330.37	112.98	52.158	21.484	5.2463e-06	51.74	0.00073115	0.00086036	0.00022248	432.31	7.8412e-06	9.306e-06	762.25	148.14	8.0205e-06	8.9849e-06	312.36	105.35	52.859	21.377	8.3596e-06	47.907	-56.431	95.597	-75.145	-112.553	-95.936	46.760	-113.329	-106.402	64.397	148.702	-108.620	-103.923	-102.796	-97.703	8.307	-100.277	-8191	255	
2204.150	1	1	0	0	0.179	0.38147	0.16457	0.1226	0.037684	0.18586	0.10917	0.22516	0.04243	0.14188	0.3182	0.089382	0.21227	0.1915	0.051232	0.14026	-3.1063	-2.7188	-2.7188	-3.4583	-2.6312	-3.2625	-3.2271	-2.6479	-3.5271	-2.9625	-2.7646	-3.525	-2.8063	-2.9938	-3.4042	-2.8604	153.271	-119.373	-62.128	217.789	-110.002	-23.559	82.495	54.345	16.309	211.529	201.715	215.718	64.760	-123.474	198.069	109.192	0.0005752	0.00088323	4.3154e-05	440.36	1.6542e-05	2.642e-06	824.3	155.41	7.6861e-06	5.8642e-06	330.28	112.92	52.342	21.407	1.8509e-06	52.691	0.00075048	0.00083783	0.00020577	429.47	8.2797e-06	8.8947e-06	762.26	147.63	8.4344e-06	8.7965e-06	311.43	105.1	53.348	21.363	7.9597e-06	48.356	-43.419	-118.235	34.991	-112.285	189.473	58.976	-113.359	-107.220	-35.854	38.598	-108.715	-103.987	-103.378	-97.659	104.933	-100.537	-8191	255	
2204.246	1	1	0	0	0.13865	0.21934	0.083032	0.16523	0.019979	0.20894	0.17969	0.24908	0.121	0.089738	0.13604	0.24772	0.17085	0.11018	0.39568	0.231	-3.0625	-2.9896	-2.8146	-3.5187	-2.7438	-3.0667	-3.4708	-2.7208	-3.3583	-3.0625	-2.7125	-3.6458	-2.7354	-2.7375	-3.3021	-2.6792	-36.251	176.587	14.142	-93.815	230.675	166.831	218.526	157.585	79.769	134.453	-72.585	187.734	104.745	-64.658	26.007	0.849	0.00024071	0.00042685	0.00061624	441.24	8.4696e-06	2.2304e-06	825.57	155.82	4.8629e-06	1.3009e-05	334.57	114.32	52.255	21.598	1.1848e-05	52.188	0.00079048	0.00080295	0.00020259	430.92	8.824e-06	8.7373e-06	764.45	149.28	9.1941e-06	8.9686e-06	313.66	106.57	54.583	21.462	8.2536e-06	48.64	-49.598	-59.690	-13.241	-112.556	-20.036	26.681	-113.462	-106.624	-87.555	69.355	-108.498	-104.048	-103.037	-97.863	-33.451	-100.716	-8191	255	
2204.342	1	1	0	0	0.2109	0.21524	0.15068	0.15623	0.050631	0.10419	0.19442	0.061823	0.18677	0.15162	0.10901	0.28927	0.19558	0.28605	0.049547	0.2222	-2.9104	-3.0812	-2.4917	-3.4854	-2.9021	-2.8688	-3.4313	-2.6188	-3.2167	-3.1125	-2.5979	-3.3917	-2.925	-2.85	-3.3396	-2.7146	203.958	-53.865	-107.371	140.542	42.211	50.666	209.227	65.528	128.743	158.129	212.969	204.506	93.555	67.450	19.322	212.907	0.0004694	0.00026715	0.00026113	436.17	1.8474e-05	5.0922e-06	829.71	155.2	9.8028e-06	5.1747e-06	330.87	113.09	51.796	21.286	1.3581e-05	51.182	0.00085389	0.00081716	0.00020292	434.84	9.499e-06	8.6803e-06	765.62	149.91	9.467e-06	8.8043e-06	311.27	106.54	53.919	21.206	7.9109e-06	48.277	-53.078	36.687	43.339	-112.914	95.703	73.164	-113.692	-107.020	88.958	-35.166	-108.715	-104.240	-102.784	-98.017	126.660	-100.558	-8191	255	
2204.438	1	1	0	0	0.060671	0.15706	0.12345	0.13746	0.16862	0.037056	0.12228	0.20376	0.07998	0.10385	0.061416	0.16077	0.19884	0.020275	0.14201	0.1983	-2.825	-3.3958	-2.5396	-3.1667	-2.9396	-2.825	-3.5292	-2.6229	-3.0312	-3.3625	-2.55	-3.4646	-2.9042	-2.7979	-3.5438	-2.7062	-96.566	124.611	-120.670	-114.934	102.275	96.527	111.665	165.972	48.297	1.874	-86.164	180.698	-10.944	156.369	38.724	227.269	0.00050003	0.00089472	0.0001938	434.84	1.7097e-05	4.0766e-06	815.31	152.65	6.0893e-06	5.5894e-06	326.13	113.34	51.824	21.111	2.5958e-06	51.727	0.00084303	0.00080302	0.00019837	436.87	9.4281e-06	8.6342e-06	755.3	149.76	9.2277e-06	8.4344e-06	307.16	106.06	53.16	20.786	7.4969e-06	48.21	-49.008	-52.820	192.114	-113.450	24.107	84.046	-113.404	-106.981	57.927	3.045	-108.724	-104.164	-103.359	-97.896	10.610	-100.770	-8191	255	
2204.557	1	1	0	0	0.16745	0.21395	0.067521	0.26443	0.24721	0.085106	0.063989	0.25371	0.28223	0.11622	0.14687	0.36867	0.11896	0.0068193	0.13526	0.27929	-2.55	-3.2979	-2.6625	-3.3125	-3.0917	-2.6312	-3.4562	-2.7771	-2.7542	-3.4562	-2.8563	-3.2812	-3.2021	-2.475	-3.225	-2.9979	-110.092	228.795	-75.376	90.830	72.068	-105.457	162.808	165.822	-96.760	104.495	175.124	-121.249	132.234	97.290	91.895	182.288	0.00048674	0.00079598	0.00018071	435.5	1.5545e-05	7.2865e-07	830.13	155.58	1.7355e-06	1.5024e-05	333.01	115.39	52.991	21.543	5.5128e-06	52.223	0.00071638	0.00066755	0.00017338	431.5	7.5976e-06	6.8647e-06	760.41	150.06	7.202e-06	6.8495e-06	310.16	107.27	52.917	20.826	7.0496e-06	48.742	-61.181	3.987	-105.453	-113.017	74.851	-94.742	-113.325	-106.928	-114.131	7.094	-108.552	-104.254	-102.799	-98.459	189.766	-101.086	-8191	255	
2204.653	1	1	0	0	0.12675	0.13856	0.15332	0.098588	0.018356	0.16746	0.035645	0.10656	0.19004	0.14167	0.13573	0.15965	0.074633	0.13905	0.15247	0.12262	-2.6146	-3.4167	-2.7021	-3.3667	-3.1667	-2.5062	-3.5812	-2.8333	-2.7812	-3.3833	-2.575	-3.2125	-3.3937	-2.6021	-3.3625	-3.0583	-117.384	-33.538	92.717	186.934	162.801	42.974	-45.769	-76.837	202.810	-114.925	-9.527	138.698	-102.740	-57.213	167.552	-81.624	0.00017692	0.00057017	0.00013867	445.09	6.3429e-06	4.1932e-06	839.96	157.24	4.8378e-06	8.1067e-06	339.34	116.43	52.79	21.98	2.3941e-06	53.638	0.00066993	0.00063107	0.00018584	437.98	7.4755e-06	6.7762e-06	772.59	151.5	7.2224e-06	6.7162e-06	315.76	108.49	52.999	20.988	7.3871e-06	49.569	-54.301	58.013	188.332	-112.749	-110.379	85.529	-113.208	-107.014	27.951	74.928	-109.021	-104.035	-102.942	-98.094	197.547	-100.176	-8191	255	
2204.749	1	1	0	0	0.095575	0.10813	0.031643	0.1863	0.03868	0.085046	0.11504	0.31556	0.064105	0.31887	0.15636	0.27446	0.17163	0.21387	0.068388	0.17865	-2.3896	-3.5042	-2.5479	-3.0417	-3.2604	-2.5979	-3.5396	-3.0167	-2.8063	-3.5438	-2.8354	-2.9604	-3.3875	-2.6188	-3.4062	-3.0375	-18.662	-58.377	-11.376	-82.388	142.043	-91.086	180.647	48.883	-47.796	-63.015	154.486	206.135	-50.805	138.169	-95.431	195.253	0.00044723	0.00025111	0.00040164	448.47	4.6963e-06	3.4688e-06	839.56	158.95	1.1522e-06	1.1835e-05	337.95	116.47	53.847	21.787	5.573e-06	52.918	0.00061199	0.0005934	0.00018828	436.81	6.8532e-06	6.3604e-06	775.42	151.22	6.5987e-06	6.4589e-06	316.97	107.77	52.781	20.966	7.6987e-06	48.792	-64.525	-9.317	119.510	-112.648	-36.947	-53.190	-113.153	-106.952	-89.240	-8.947	-108.786	-103.932	-103.097	-97.596	-41.947	-100.412	-8191	255	
2204.821	1	1	0	0	0.32553	0.16635	0.092635	0.012363	0.2624	0.17794	0.17294	0.26012	0.12072	0.031244	0.25299	0.25875	0.087274	0.18768	0.11586	0.24295	-2.3271	-3.2958	-2.7438	-2.9688	-3.3396	-2.575	-3.4854	-3.1042	-2.6396	-3.4	-2.9583	-2.7458	-3.4562	-2.6875	-3.2458	-3.225	128.740	-105.699	-20.255	161.487	-39.613	211.357	212.821	134.599	-66.016	185.780	-108.965	119.448	98.614	-48.824	172.848	122.672	0.00038196	0.00087633	0.00021904	446.13	1.2412e-06	5.6325e-06	837.87	158.27	7.218e-06	3.8116e-06	337.63	116.17	52.716	21.794	7.6441e-06	52.811	0.00059353	0.00062555	0.00020055	434.12	6.9146e-06	6.9818e-06	773.8	150.46	6.6056e-06	7.1953e-06	316.56	106.94	52.321	21.132	7.883e-06	48.541	-27.576	-90.836	13.472	-111.876	-117.806	-69.533	-113.333	-107.337	77.187	-60.879	-108.724	-103.416	-102.956	-97.663	-18.243	-100.242	-8191	255	
2204.942	1	1	0	0	0.20996	0.029281	0.057459	0.10387	0.099824	0.1772	0.34645	0.157	0.11853	0.061547	0.086747	0.19671	0.14645	0.25331	0.30282	0.16118	-2.1896	-3.4396	-2.8354	-2.8167	-3.3792	-2.7062	-3.2438	-3.2521	-2.625	-3.4708	-3.1188	-2.7708	-3.4229	-2.6604	-3.1625	-3.375	214.751	57.258	-18.327	-11.115	-22.293	120.282	-106.770	203.774	166.642	-16.333	220.796	65.583	-44.923	-114.230	64.822	219.969	0.00026589	0.0001253	0.00035293	446.06	7.1077e-06	7.203e-06	836.67	155.02	8.3475e-06	8.4896e-06	335.33	115.35	53.045	21.564	8.6067e-06	52.269	0.00059541	0.00068764	0.00020614	432.8	6.7754e-06	7.5584e-06	771.66	149.42	6.5566e-06	7.8025e-06	315.36	106.39	52.21	21.148	7.7501e-06	48.282	-47.034	-65.345	-111.561	-112.504	61.209	-83.885	-113.121	-106.801	8.949	-2.749	-108.277	-103.420	-102.803	-97.869	124.340	-100.212	-8191	255	
2205.038	1	1	0	0	0.20001	0.1442	0.16357	0.21595	0.12536	0.30171	0.082294	0.13122	0.2951	0.13552	0.11488	0.17665	0.10929	0.23661	0.077152	0.20194	-2.0938	-3.2229	-2.9708	-2.7083	-3.3667	-2.6167	-3.0167	-3.3792	-2.625	-3.3875	-3.1917	-2.7333	-3.7146	-2.6083	-2.9646	-3.4021	110.237	-73.872	-89.095	179.853	-85.396	207.313	65.572	124.702	-63.357	35.197	-32.642	172.820	155.952	171.635	127.094	170.805	0.00067792	0.00079566	0.00011666	443.13	6.1753e-06	1.9091e-06	834.54	158.22	2.3697e-06	6.8197e-06	339.97	116.25	52.964	21.605	7.2098e-06	53.358	0.00059889	0.00072663	0.00019953	430.57	6.952e-06	8.1502e-06	771.53	150.1	7.0309e-06	8.2826e-06	316.28	106.99	52.806	21.454	7.8387e-06	48.821	-75.693	-92.463	217.378	-111.997	0.416	97.134	-113.104	-106.620	171.143	-10.535	-108.526	-103.342	-102.288	-97.254	61.936	-100.114	-8191	255	
2205.134	1	1	0	0	0.1919	0.14442	0.2103	0.18872	0.12913	0.01174	0.18971	0.14557	0.1012	0.03474	0.069219	0.30062	0.088618	0.054766	0.15736	0.25735	-2.1646	-3.2562	-3.2562	-2.6125	-3.5333	-2.8542	-2.9625	-3.6396	-2.7271	-3.225	-3.2167	-2.6354	-3.2729	-2.8375	-2.8792	-3.6729	-10.718	-24.983	235.271	-35.643	-73.543	57.424	-78.146	98.172	232.819	15.263	14.777	5.424	173.650	-122.815	190.680	-111.615	0.00028356	0.0011923	0.00010195	448.84	4.3977e-06	1.0125e-05	836.06	157.27	1.1579e-05	1.1778e-05	334.9	115.31	52.716	21.463	8.1547e-06	52.421	0.00067264	0.00077182	0.00019933	433.56	7.6315e-06	8.6048e-06	773.64	149.94	7.7034e-06	8.4168e-06	314.48	106.56	53.443	21.345	7.6419e-06	48.331	-53.876	-26.481	17.597	-111.974	-120.839	48.717	-112.583	-106.558	-67.239	7.321	-108.352	-103.687	-102.255	-97.238	52.056	-100.058	-8191	255	
2205.230	1	1	0	0	0.02683	0.10968	0.13364	0.25031	0.43401	0.30012	0.077261	0.17539	0.048078	0.059735	0.1526	0.21892	0.11983	0.022816	0.24864	0.16901	-2.2188	-3.2396	-3.375	-2.6833	-3.3042	-2.9521	-2.7875	-3.3917	-2.9292	-3.1021	-3.5208	-2.7208	-3.0708	-3.0021	-2.6771	-3.4479	16.307	47.105	65.233	-66.105	-105.611	71.244	156.979	172.226	-73.992	-73.502	233.458	211.082	91.859	137.900	-78.590	132.863	0.00049694	0.00087044	0.00042688	444.73	3.5317e-06	6.0181e-06	829.59	157.3	3.7722e-06	2.5583e-06	332.08	114.36	52.867	21.5	6.5742e-06	52.844	0.00072671	0.0007794	0.0001993	431.63	8.1822e-06	8.435e-06	766.04	149.52	8.2314e-06	8.2615e-06	312.05	105.84	53.822	21.198	7.202e-06	48.425	-41.746	2.828	-82.782	-111.993	189.972	69.659	-113.150	-107.134	36.396	-43.780	-108.406	-103.661	-103.026	-98.033	98.249	-100.357	-8191	255	
2205.349	1	1	0	0	0.20676	0.10664	0.13253	0.23625	0.26639	0.080513	0.31035	0.18274	0.19033	0.22481	0.07198	0.24092	0.25502	0.059176	0.093489	0.0055344	-2.1875	-2.9562	-3.4708	-2.5229	-3.3708	-3.0979	-2.7854	-3.5563	-2.6292	-3.0417	-3.5396	-2.6542	-3.2646	-3.1437	-2.7479	-3.5042	25.392	113.523	-94.368	230.234	-13.199	170.147	52.603	-122.507	-12.303	87.221	-83.888	-81.203	164.978	-8.726	29.146	-62.889	0.00036698	0.00078177	0.00042268	452.73	1.8773e-05	1.8207e-06	837.09	156.81	1.0172e-05	9.4809e-06	334.25	115.49	52.982	21.713	5.8876e-06	52.424	0.00073437	0.00071631	0.0001848	433.55	8.1793e-06	7.803e-06	768.77	150.07	8.3366e-06	7.6833e-06	312.32	106.79	53.927	21.275	6.9341e-06	48.445	-49.871	34.733	-70.357	-112.685	22.687	87.653	-112.789	-106.609	2.542	-12.799	-107.798	-103.968	-102.627	-97.347	-70.510	-99.968	-8191	255	
2205.422	1	1	0	0	0.1719	0.15852	0.31143	0.085266	0.35744	0.15979	0.39521	0.07809	0.19217	0.022089	0.34546	0.059129	0.16352	0.14692	0.12071	0.29084	-2.5104	-2.8125	-3.4479	-2.5229	-3.2292	-3.175	-2.7875	-3.3937	-2.875	-2.775	-3.5687	-2.6292	-3.0333	-3.1646	-2.6208	-3.4833	23.456	28.436	22.049	151.530	-100.709	127.540	-84.529	8.081	96.937	-97.014	178.531	-17.552	100.254	-81.879	-28.851	-120.385	0.00031926	0.0010564	8.414e-05	442.39	1.4404e-05	2.6227e-06	841.06	157.67	1.7146e-06	1.0065e-05	339.65	116.18	53.816	21.808	5.2569e-06	53.589	0.00075135	0.0006829	0.00017531	434.1	8.1325e-06	7.468e-06	767.77	151.48	8.0379e-06	7.1146e-06	313.32	107.73	54.029	21.296	6.6918e-06	49.379	-49.938	47.295	125.112	-112.654	18.928	-105.199	-112.833	-106.982	129.069	-57.560	-108.285	-103.483	-102.771	-97.221	122.680	-100.171	-8191	255	
2205.541	1	1	0	0	0.13253	0.21698	0.10353	0.43654	0.038462	0.078276	0.044723	0.19035	0.034196	0.23116	0.23925	0.20437	0.024486	0.16445	0.35995	0.080345	-2.5563	-2.7417	-3.6188	-2.6063	-2.8646	-3.4271	-2.7208	-3.4688	-3.0729	-2.6417	-3.4667	-2.8312	-2.775	-3.2292	-2.5833	-3.3958	70.817	-58.214	-86.311	-95.207	202.786	-96.200	223.922	210.253	-96.512	-28.250	28.643	167.947	79.845	-22.966	-42.145	123.393	0.00042059	0.0004378	0.00021459	451.09	7.6341e-06	7.4606e-06	844.21	156.99	2.3669e-06	6.3347e-06	336.32	115.13	53.431	21.721	8.1998e-06	52.273	0.00071708	0.00066117	0.00017296	440.07	7.7661e-06	7.3934e-06	769.07	151.53	7.7071e-06	7.0069e-06	311.43	107.27	53.388	21.079	7.0588e-06	48.605	-57.020	94.194	57.974	-112.962	33.537	85.304	-112.870	-106.401	-94.793	74.616	-108.130	-103.880	-102.420	-97.418	211.308	-99.942	-8191	255	
2205.637	1	1	0	0	0.21907	0.099284	0.19697	0.27217	0.11658	0.06437	0.10864	0.46208	0.11121	0.19586	0.12124	0.22792	0.15365	0.17594	0.1145	0.1683	-2.6896	-2.5917	-3.4833	-2.7188	-2.9437	-3.4229	-2.7021	-3.2146	-2.9229	-2.6271	-3.6604	-2.9042	-2.8771	-3.425	-2.5958	-3.2333	162.889	190.417	-42.537	28.600	-43.210	-52.215	5.916	-12.896	129.958	184.457	159.364	193.983	-18.309	220.499	129.431	-122.507	0.00034039	0.0004917	0.00012087	442.63	1.0365e-05	5.6324e-06	824.41	155.99	4.0117e-06	9.0185e-06	333.79	113.32	51.815	21.211	1.3785e-06	51.606	0.00072465	0.00066151	0.00018881	438.61	7.9916e-06	7.4302e-06	763.89	150.99	7.9643e-06	7.3025e-06	313.11	106.48	52.819	20.735	7.8833e-06	48.246	-24.589	-34.111	210.359	-112.640	-20.046	86.651	-112.707	-106.195	5.102	54.231	-108.420	-103.912	-102.252	-97.634	84.309	-99.721	-8191	255	
2205.734	1	1	0	0	0.23605	0.10888	0.19414	0.10464	0.11529	0.10565	0.16687	0.091408	0.2468	0.14799	0.23014	0.29415	0.18604	0.1752	0.069789	0.084219	-2.95	-2.5917	-3.475	-2.8917	-2.7354	-3.6167	-2.8063	-3.0979	-3.2167	-2.6646	-3.4625	-3.0771	-2.8208	-3.4083	-2.7938	-3.0229	-41.741	-28.289	4.851	142.886	219.838	88.122	175.276	-108.305	-59.984	223.713	223.927	179.905	-75.145	148.834	-78.742	-23.570	0.0002495	0.00011201	0.00025333	443.09	8.6144e-06	1.1575e-05	831.54	156.75	1.6962e-05	1.5599e-05	333.62	113.76	51.921	21.268	6.0506e-06	52.18	0.0007267	0.00066463	0.00021038	440.3	7.8873e-06	7.5151e-06	768.95	151.03	7.9805e-06	7.3137e-06	316.42	106.41	53.071	20.858	8.6469e-06	48.455	-39.544	-3.600	93.675	-112.455	63.972	39.408	-113.118	-106.903	-9.433	-17.079	-108.620	-103.769	-102.730	-97.724	198.090	-100.313	-8191	255	
2205.830	1	1	0	0	0.2449	0.14539	0.23441	0.22292	0.21013	0.20297	0.2589	0.17636	0.10767	0.23361	0.0332	0.19003	0.16051	0.064403	0.1889	0.29961	-3.0083	-2.45	-3.2875	-3.1292	-2.6646	-3.3	-2.8917	-3.1125	-3.3208	-2.6333	-3.3833	-3.2062	-2.9083	-3.4417	-2.8792	-2.9562	-27.739	102.390	-30.261	-75.202	-12.584	99.322	219.688	101.957	229.976	-65.543	58.987	-116.744	-6.752	233.726	-88.328	166.023	0.00056219	0.00053451	6.9081e-05	446.84	1.0991e-05	7.0411e-06	834.01	156.55	1.2153e-05	9.5087e-06	336.39	114.96	53.004	21.47	2.9198e-06	52.312	0.00072427	0.00069055	0.00022637	441.03	7.8541e-06	7.7738e-06	776.23	151.51	7.8776e-06	7.7545e-06	320.01	107.49	53.238	21.198	9.0384e-06	48.838	-57.147	-77.755	79.586	-113.011	21.985	20.779	-113.218	-107.098	51.454	-38.903	-108.595	-104.488	-102.792	-97.935	-112.948	-99.886	-8191	255	
2205.950	1	1	0	0	0.20332	0.15884	0.16335	0.058844	0.31639	0.1015	0.1754	0.11862	0.27854	0.26302	0.1016	0.30296	0.16961	0.20654	0.17848	0.17931	-3.075	-2.6146	-3.1604	-3	-2.6604	-3.5625	-2.9042	-2.9146	-3.1958	-2.5667	-3.2562	-3.4146	-2.4979	-3.4646	-2.9271	-2.7854	61.724	110.109	149.412	-72.572	-87.951	234.493	185.765	127.382	-28.118	-58.330	-101.455	202.076	20.690	110.447	-80.221	119.122	0.00047079	0.00011616	0.00014165	446.99	4.5034e-06	9.1863e-06	832.5	158.74	6.9942e-06	8.8464e-06	338.1	115.41	53.326	21.603	1.0156e-05	52.617	0.00070846	0.00072762	0.00022936	442.13	7.4786e-06	8.2515e-06	777.61	151.93	7.581e-06	8.0593e-06	320.54	107.86	53.032	21.513	8.8038e-06	48.652	-57.580	128.322	215.568	-112.627	-30.235	139.800	-113.109	-106.837	86.391	-107.118	-108.534	-104.081	-102.243	-98.194	18.834	-101.007	-8191	255	
2206.022	1	1	0	0	0.090761	0.22067	0.049241	0.15412	0.034414	0.17657	0.21621	0.14408	0.087334	0.022308	0.29528	0.29828	0.18075	0.34114	0.035664	0.25774	-3.0812	-2.5938	-3.075	-3.35	-2.7625	-3.3688	-3.2917	-2.9354	-3.3708	-2.7771	-3.2042	-3.3208	-2.5521	-3.3021	-3.0583	-2.6063	103.138	189.990	-92.297	-109.826	-97.280	-111.498	111.908	-109.282	-0.476	167.198	182.979	31.273	156.740	137.600	231.263	128.411	0.00041931	0.0012103	9.4751e-05	445.46	6.2903e-06	6.9258e-06	831.89	157.4	6.0498e-06	6.7754e-06	332.51	114.35	52.676	21.632	7.6765e-06	51.875	0.00069287	0.00078309	0.00022518	438.94	7.4426e-06	8.7603e-06	772.35	151.18	7.4943e-06	8.7281e-06	316.61	106.61	52.962	21.572	8.5922e-06	48.229	-66.583	112.052	-63.126	-112.477	-28.176	169.986	-113.341	-107.104	199.863	225.658	-108.208	-104.053	-103.168	-97.818	60.916	-100.557	-8191	255	
2206.143	1	1	0	0	0.16178	0.17379	0.26067	0.084425	0.096987	0.15034	0.11207	0.28828	0.18235	0.31865	0.29198	0.29239	0.14705	0.11875	0.19541	0.17294	-2.9208	-2.4833	-3	-3.5312	-2.7833	-3.3479	-3.1188	-2.6813	-3.6562	-2.7979	-3.0604	-3.4667	-2.6646	-3.2708	-3.3312	-2.5667	133.559	123.584	49.782	169.180	112.530	69.918	147.664	22.040	133.650	12.977	-18.205	191.727	221.226	-113.881	51.833	-124.810	0.00051909	0.00031398	0.00020133	443.42	6.7207e-06	1.0488e-05	834.01	156.36	7.5843e-06	1.3747e-06	331.9	114.37	52.818	21.446	7.746e-06	52.178	0.00069724	0.00084003	0.00021926	435.28	7.7209e-06	9.1629e-06	769.35	149.94	8.0168e-06	9.1652e-06	314.57	106.16	53.359	21.522	8.4118e-06	48.085	-34.823	78.204	-52.377	-113.379	-107.876	44.953	-113.277	-106.948	102.702	55.855	-108.497	-104.013	-102.518	-97.672	43.654	-100.465	-8191	255	
2206.239	1	1	0	0	0.15442	0.20696	0.056456	0.056962	0.081795	0.087646	0.14598	0.17746	0.029788	0.052735	0.091483	0.19682	0.26048	0.11964	0.13468	0.054715	-3.0021	-2.9771	-2.7687	-3.5021	-2.7188	-3.1229	-3.2292	-2.6542	-3.3104	-2.7667	-2.625	-3.5896	-2.5917	-3.0729	-3.3521	-2.7521	-72.508	92.837	218.901	182.942	142.575	178.159	186.910	190.597	-5.573	-109.585	169.151	137.550	166.343	193.782	-18.489	170.606	0.00032911	0.00058634	0.00038275	440.06	1.0131e-05	1.8863e-06	827.66	156.3	1.3492e-05	3.8654e-07	332.34	113.61	52.828	21.256	2.8569e-06	52.684	0.00075111	0.00085062	0.00021201	433.34	8.3029e-06	9.0516e-06	767.07	149.64	8.5118e-06	9.0915e-06	314.9	106.11	54.214	21.406	8.2051e-06	48.418	-54.615	58.552	-7.076	-112.594	189.144	166.349	-112.903	-106.730	-81.897	-12.143	-108.546	-103.813	-103.558	-97.382	13.448	-100.462	-8191	255	
2206.335	1	1	0	0	0.057687	0.098238	0.19779	0.021712	0.11314	0.1934	0.1004	0.2372	0.28487	0.20847	0.17981	0.20389	0.13415	0.10499	0.10941	0.23977	-2.9813	-2.8458	-2.6958	-3.4979	-2.6458	-2.9292	-3.4625	-2.5667	-3.4	-3.0125	-2.5333	-3.3271	-2.8479	-3.0021	-3.4604	-2.5229	183.370	-23.969	-110.559	-2.572	108.760	133.948	124.323	207.517	68.905	38.790	-115.097	-97.681	40.877	-68.661	23.287	192.587	0.00038969	0.0013067	0.00024246	442.28	4.1689e-06	7.2806e-06	828.56	154.74	5.0745e-06	1.023e-05	336.38	114.29	52.074	21.178	8.2933e-06	51.901	0.00079968	0.00081315	0.00020301	432.39	8.7196e-06	8.4012e-06	766.76	148.97	8.7974e-06	8.6302e-06	314.15	106.31	54.129	21.208	7.8881e-06	48.119	-75.602	-47.672	-35.993	-112.771	175.583	92.471	-113.063	-107.083	158.429	-8.332	-108.455	-104.143	-103.409	-97.663	-26.943	-100.120	-8191	255	
2206.429	1	1	0	0	0.28612	0.14394	0.16623	0.43523	0.10108	0.24638	0.29253	0.08329	0.19138	0.10272	0.13633	0.2533	0.25047	0.17538	0.12973	0.25608	-2.9958	-3.0229	-2.5333	-3.3958	-2.6875	-2.8	-3.5521	-2.6896	-3.2188	-3.3479	-2.5708	-3.4167	-2.7375	-2.925	-3.3312	-2.75	159.463	-27.433	30.702	178.787	66.190	212.924	192.691	133.759	13.488	60.706	104.832	102.891	208.307	-122.146	-21.480	140.608	0.00039401	0.0016747	0.00025766	440.79	6.3965e-06	7.0518e-06	822.79	155.55	8.5028e-06	5.3048e-06	334.47	113.77	52.946	21.479	6.1448e-06	52.095	0.000816	0.00078861	0.00019644	432.96	9.0728e-06	8.3155e-06	761.73	149.39	8.8734e-06	8.258e-06	311.15	105.87	53.982	21.037	7.231e-06	48.254	-65.060	-71.118	-82.572	-112.547	10.522	62.367	-113.135	-107.363	-90.741	44.938	-108.778	-103.986	-103.211	-97.835	115.741	-100.529	-8191	255	
2206.526	1	1	0	0	0.21072	0.15345	0.11568	0.10681	0.098965	0.16464	0.17095	0.017534	0.17816	0.25957	0.11104	0.12616	0.24351	0.12324	0.16208	0.22199	-2.6542	-3.1646	-2.5771	-3.4729	-2.9313	-2.8083	-3.4917	-2.6479	-3.1458	-3.1104	-2.7521	-3.4479	-2.9792	-2.7167	-3.3167	-2.7687	-116.758	227.114	29.711	144.943	172.786	195.027	137.259	-89.521	-42.186	158.648	103.782	-105.919	169.438	-106.924	17.711	66.802	0.00023839	0.00044542	0.00026803	445.15	1.2363e-05	3.0351e-06	830.21	158.57	5.1421e-06	5.6109e-06	332.71	114.42	52.716	21.868	6.0354e-06	52.562	0.00075971	0.0007098	0.00017732	435.63	8.3234e-06	7.5836e-06	762.49	151.62	8.1431e-06	7.6874e-06	310.32	107.11	53.755	21.213	7.123e-06	48.811	-59.661	149.738	-35.502	-112.830	65.789	-52.469	-113.092	-106.715	-6.270	-81.923	-108.527	-104.112	-102.956	-97.524	-26.941	-100.351	-8191	255	
2206.646	1	1	0	0	0.072872	0.13299	0.022676	0.074641	0.089767	0.065243	0.17442	0.23847	0.26338	0.20629	0.25307	0.11817	0.12597	0.056013	0.20088	0.23827	-2.6625	-3.2583	-2.5875	-3.2958	-2.9042	-2.6292	-3.5042	-2.7438	-2.8625	-3.3833	-2.6104	-3.3417	-3.1625	-2.7667	-3.4542	-2.8021	-122.666	112.562	-56.966	204.303	-92.264	45.128	147.153	194.464	215.162	109.120	153.374	80.926	112.693	129.216	10.964	147.908	0.00048828	0.00067958	0.00025032	444.52	4.8512e-06	2.7742e-06	839.39	157.32	1.102e-05	2.89e-06	339.36	116.13	53.347	22.095	6.8378e-06	53.049	0.00072058	0.00068832	0.00017841	439.48	7.9939e-06	7.2698e-06	767.07	152.07	7.6008e-06	7.133e-06	313.58	108.19	53.651	21.315	7.0879e-06	49.408	-1.126	-81.397	171.030	-112.163	-57.169	3.548	-113.260	-107.043	132.513	-68.737	-108.330	-104.218	-103.005	-97.637	-84.498	-100.457	-8191	255	
2206.718	1	1	0	0	0.089368	0.16739	0.18616	0.033709	0.061888	0.013334	0.24591	0.19135	0.10288	0.13573	0.033764	0.11569	0.080908	0.2894	0.13464	0.30217	-2.4875	-3.3292	-2.3854	-3.2979	-3.1667	-2.4625	-3.3271	-3.0542	-3.0521	-3.3979	-2.6604	-3.1354	-3.2521	-2.6271	-3.5521	-2.8708	133.124	172.284	51.964	29.262	187.528	18.882	230.531	-101.839	-49.008	-86.002	-38.141	174.175	-53.517	195.580	142.429	197.348	0.00045868	0.00041319	8.9675e-05	448.49	1.2491e-05	6.1689e-06	839.07	159.73	7.105e-06	2.3732e-06	337.27	117.49	53.815	21.862	1.1529e-05	53.516	0.00067009	0.00063235	0.00017901	440.49	7.3382e-06	6.6606e-06	768.84	152.02	6.8891e-06	6.3469e-06	314.74	108.27	52.826	20.906	6.9589e-06	49.01	-62.969	68.964	-32.517	-111.728	7.790	52.655	-112.931	-107.080	-48.666	-14.923	-108.415	-103.766	-102.054	-97.718	161.775	-100.212	-8191	255	
2206.814	1	1	0	0	0.21508	0.066733	0.086596	0.23404	0.37892	0.086052	0.11102	0.1422	0.066884	0.16468	0.17632	0.23505	0.22566	0.13537	0.14469	0.14683	-2.2417	-3.275	-2.625	-3.1146	-3.2375	-2.5896	-3.3438	-3.1	-2.65	-3.2792	-2.6667	-3.0333	-3.2771	-2.5229	-3.3229	-3.1	168.560	130.449	-27.381	-111.651	-83.040	9.124	154.711	8.297	225.150	-124.307	233.183	4.175	180.424	170.570	204.847	126.420	0.00057216	0.0011417	0.00024268	444.77	7.8167e-06	7.7198e-06	832.84	158.15	3.0138e-06	1.048e-06	337.08	115.93	53.894	21.722	3.5678e-06	52.901	0.00060952	0.00056805	0.00018248	430.83	6.7371e-06	6.1485e-06	766.89	150.55	6.4685e-06	6.2104e-06	313.67	107.19	52.708	20.853	7.2401e-06	48.659	-38.435	66.861	63.008	-111.925	112.118	113.456	-113.107	-106.747	96.092	1.341	-108.624	-103.693	-102.904	-98.092	30.285	-99.967	-8191	255	
2206.910	1	1	0	0	0.15364	0.24763	0.2813	0.04481	0.10767	0.26673	0.20086	0.15732	0.053034	0.079999	0.15445	0.27996	0.066257	0.28574	0.22588	0.22561	-2.2271	-3.3917	-2.6667	-2.9188	-3.3229	-2.6104	-3.2458	-3.025	-2.7729	-3.4354	-2.7833	-2.9708	-3.3042	-2.5479	-3.1896	-3.3604	150.203	-34.868	-86.506	-83.217	-124.743	173.879	-83.529	-66.355	-18.002	109.760	95.262	179.869	171.509	230.433	11.535	198.158	0.00037935	0.00049001	5.3724e-05	443.26	6.3596e-06	2.2163e-06	832.71	157.33	5.6907e-06	6.3317e-06	336.35	115.54	53.522	21.867	9.3683e-06	53.352	0.00057822	0.00059163	0.00018567	430.4	6.5062e-06	6.4147e-06	769.75	150.22	6.2876e-06	6.6435e-06	314.34	106.91	52.614	21.021	7.3905e-06	48.852	-47.044	-47.066	186.103	-112.562	156.243	134.495	-112.937	-106.794	-6.441	37.554	-108.883	-103.593	-102.393	-97.385	72.611	-100.020	-8191	255	
2207.031	1	1	0	0	0.24421	0.057149	0.18442	0.12541	0.12156	0.20348	0.13891	0.12788	0.080423	0.096297	0.18758	0.22231	0.08794	0.17785	0.10967	0.1525	-2.0833	-3.3438	-2.9146	-2.8667	-3.475	-2.5708	-3.2396	-3.1458	-2.5521	-3.4	-2.9729	-2.6333	-3.4021	-2.825	-3.1104	-3.3312	-50.067	-9.062	-50.472	16.160	32.404	178.389	67.644	157.875	-55.711	6.894	220.095	-51.362	39.133	205.370	-0.306	197.614	0.0002978	0.00024369	0.00035686	449.94	7.4657e-06	3.793e-06	840.95	158.87	4.8049e-06	5.4647e-06	339.23	116.81	53.928	22.007	1.12e-05	54.032	0.00055651	0.00062333	0.00019002	430.87	6.2131e-06	6.8038e-06	772.43	150.08	5.8011e-06	6.8031e-06	315.7	107.22	52.289	21.177	6.77e-06	49.256	-22.963	57.957	-26.219	-111.873	44.152	1.908	-113.018	-106.792	-17.081	159.284	-108.772	-103.712	-103.094	-97.897	-29.547	-100.203	-8191	255	
#DATA ENDS
