BOXY.EXE: ISS Imagent and Oximeter Data Acquisition Program Version 0.80
Ascii Record File

#ACQ INFORMATION
2  Detector Channels 
16  External MUX Channels 
1  Auxiliary Channels 
5000  Waveform (CCF) Frequency (Hz)
1  Waveforms Skipped 
30  Waveforms Averaged 
1  Cycles Averaged 
16  Acquisitions per Waveform 
10.0806  Updata Rate (Hz) 

#FILE INFORMATION
TRUE -- External MUX Channel results are PARSED.
FALSE -- AC DC and Phase are NOT grouped.
TRUE -- Companion Program Settings File CREATED.
FALSE -- AC data not excluded
FALSE -- DC data not excluded
FALSE -- Phase data not excluded
FALSE -- Auxillary Chn. data not excluded
Tab delimiters

#CALIBRATION STATE
TRUE -- Waveform Calibration Values APPLIED.


#AUX CALIBRATION VALUES
Val Type	aux-1	

Term	1.0000e+00	
Factor	0.0000e+00	


#WF CALIBRATION VALUES
A = Detector Channel
Val Type	A-AC1	A-AC2	A-AC3	A-AC4	A-AC5	A-AC6	A-AC7	A-AC8	A-AC9	A-AC10	A-AC11	A-AC12	A-AC13	A-AC14	A-AC15	A-AC16	A-DC1	A-DC2	A-DC3	A-DC4	A-DC5	A-DC6	A-DC7	A-DC8	A-DC9	A-DC10	A-DC11	A-DC12	A-DC13	A-DC14	A-DC15	A-DC16	A-Ph1	A-Ph2	A-Ph3	A-Ph4	A-Ph5	A-Ph6	A-Ph7	A-Ph8	A-Ph9	A-Ph10	A-Ph11	A-Ph12	A-Ph13	A-Ph14	A-Ph15	A-Ph16	

Term	0.00000e+00	0.00000e+00	0.00000e+00	0.00000e+00	0.00000e+00	0.00000e+00	0.00000e+00	0.00000e+00	0.00000e+00	0.00000e+00	0.00000e+00	0.00000e+00	0.00000e+00	0.00000e+00	0.00000e+00	0.00000e+00	0.00000e+00	0.00000e+00	0.00000e+00	0.00000e+00	0.00000e+00	0.00000e+00	0.00000e+00	0.00000e+00	0.00000e+00	0.00000e+00	0.00000e+00	0.00000e+00	0.00000e+00	0.00000e+00	0.00000e+00	0.00000e+00	0.00000e+00	0.00000e+00	0.00000e+00	0.00000e+00	0.00000e+00	0.00000e+00	0.00000e+00	0.00000e+00	0.00000e+00	0.00000e+00	0.00000e+00	0.00000e+00	0.00000e+00	0.00000e+00	0.00000e+00	0.00000e+00	
Factor	1.00000e+00	1.00000e+00	1.00000e+00	1.00000e+00	1.00000e+00	1.00000e+00	1.00000e+00	1.00000e+00	1.00000e+00	1.00000e+00	1.00000e+00	1.00000e+00	1.00000e+00	1.00000e+00	1.00000e+00	1.00000e+00	1.00000e+00	1.00000e+00	1.00000e+00	1.00000e+00	1.00000e+00	1.00000e+00	1.00000e+00	1.00000e+00	1.00000e+00	1.00000e+00	1.00000e+00	1.00000e+00	1.00000e+00	1.00000e+00	1.00000e+00	1.00000e+00	X	X	X	X	X	X	X	X	X	X	X	X	X	X	X	X	

B = Detector Channel
Val Type	B-AC1	B-AC2	B-AC3	B-AC4	B-AC5	B-AC6	B-AC7	B-AC8	B-AC9	B-AC10	B-AC11	B-AC12	B-AC13	B-AC14	B-AC15	B-AC16	B-DC1	B-DC2	B-DC3	B-DC4	B-DC5	B-DC6	B-DC7	B-DC8	B-DC9	B-DC10	B-DC11	B-DC12	B-DC13	B-DC14	B-DC15	B-DC16	B-Ph1	B-Ph2	B-Ph3	B-Ph4	B-Ph5	B-Ph6	B-Ph7	B-Ph8	B-Ph9	B-Ph10	B-Ph11	B-Ph12	B-Ph13	B-Ph14	B-Ph15	B-Ph16	

Term	0.00000e+00	0.00000e+00	0.00000e+00	0.00000e+00	0.00000e+00	0.00000e+00	0.00000e+00	0.00000e+00	0.00000e+00	0.00000e+00	0.00000e+00	0.00000e+00	0.00000e+00	0.00000e+00	0.00000e+00	0.00000e+00	0.00000e+00	0.00000e+00	0.00000e+00	0.00000e+00	0.00000e+00	0.00000e+00	0.00000e+00	0.00000e+00	0.00000e+00	0.00000e+00	0.00000e+00	0.00000e+00	0.00000e+00	0.00000e+00	0.00000e+00	0.00000e+00	-7.70394e+01	-1.24773e+02	-1.22023e+02	-1.83689e+02	-5.26907e+01	-6.57493e+01	-1.55956e+02	-1.62015e+02	-4.12905e+01	-6.64813e+01	-1.69979e+02	-1.70582e+02	-1.79937e+02	-1.76627e+02	-6.08650e+01	-1.49193e+02	
Factor	1.65381e-05	1.27404e-04	4.20882e-05	1.74909e-01	1.21720e-06	1.50233e-06	1.52390e-01	4.88806e-02	1.05316e-06	1.33437e-06	8.28644e-02	2.88030e-02	2.48227e-02	8.64829e-03	1.26265e-06	1.23097e-02	3.77851e-06	4.39697e-06	1.22931e-06	9.36027e-02	4.74484e-08	4.83570e-08	7.69343e-02	2.63740e-02	4.70575e-08	4.84823e-08	4.32323e-02	1.50964e-02	1.35041e-02	4.69083e-03	4.79849e-08	6.44294e-03	X	X	X	X	X	X	X	X	X	X	X	X	X	X	X	X	



#DISTANCE SETTINGS
A = Detector Channel
A-1	A-2	A-3	A-4	A-5	A-6	A-7	A-8	A-9	A-10	A-11	A-12	A-13	A-14	A-15	A-16	

2.5000e+00	3.0000e+00	2.5000e+00	3.0000e+00	2.0000e+00	3.0000e+00	1.5000e+00	3.0000e+00	3.0000e+00	3.0000e+00	3.0000e+00	3.0000e+00	3.0000e+00	3.0000e+00	1.5000e+00	3.0000e+00	

B = Detector Channel
B-1	B-2	B-3	B-4	B-5	B-6	B-7	B-8	B-9	B-10	B-11	B-12	B-13	B-14	B-15	B-16	

1.0000e+01	1.0000e+01	1.0000e+01	1.4400e+00	1.0000e+01	1.0000e+01	1.5100e+00	1.9400e+00	1.0000e+01	1.0000e+01	1.9900e+00	2.4900e+00	2.4100e+00	2.9000e+00	1.0000e+01	2.9800e+00	




#DATA BEGINS
time	group	step	mark	flag	A-AC1	A-AC2	A-AC3	A-AC4	A-AC5	A-AC6	A-AC7	A-AC8	A-AC9	A-AC10	A-AC11	A-AC12	A-AC13	A-AC14	A-AC15	A-AC16	A-DC1	A-DC2	A-DC3	A-DC4	A-DC5	A-DC6	A-DC7	A-DC8	A-DC9	A-DC10	A-DC11	A-DC12	A-DC13	A-DC14	A-DC15	A-DC16	A-Ph1	A-Ph2	A-Ph3	A-Ph4	A-Ph5	A-Ph6	A-Ph7	A-Ph8	A-Ph9	A-Ph10	A-Ph11	A-Ph12	A-Ph13	A-Ph14	A-Ph15	A-Ph16	B-AC1	B-AC2	B-AC3	B-AC4	B-AC5	B-AC6	B-AC7	B-AC8	B-AC9	B-AC10	B-AC11	B-AC12	B-AC13	B-AC14	B-AC15	B-AC16	B-DC1	B-DC2	B-DC3	B-DC4	B-DC5	B-DC6	B-DC7	B-DC8	B-DC9	B-DC10	B-DC11	B-DC12	B-DC13	B-DC14	B-DC15	B-DC16	B-Ph1	B-Ph2	B-Ph3	B-Ph4	B-Ph5	B-Ph6	B-Ph7	B-Ph8	B-Ph9	B-Ph10	B-Ph11	B-Ph12	B-Ph13	B-Ph14	B-Ph15	B-Ph16	aux-1	digaux	

21693.502	1	1	0	256	0.27756	0.18087	0.061941	0.2106	0.075128	0.34558	0.12054	0.15973	0.2244	0.0247	0.33054	0.073646	0.2595	0.26075	0.12409	0.15598	-2.7646	-2.5875	-3.3979	-2.8979	-2.95	-3.3458	-2.8583	-3.4875	-3.2062	-2.7729	-3.4625	-2.9875	-2.8917	-3.7729	-2.6937	-3.4625	39.904	73.500	60.877	265.210	18.636	82.956	-56.727	226.544	7.887	197.572	264.490	173.781	267.068	33.135	132.204	-49.088	0.00073494	0.005444	0.00081538	638.19	2.7394e-05	4.278e-05	987.76	207.12	2.1749e-05	1.6863e-05	358.6	122.69	72.695	33.389	3.7298e-05	49.011	0.027947	0.032639	0.0091931	1254.1	0.00035588	0.0003613	1440.8	378.05	0.00034855	0.00036312	633.84	220.05	164.31	64.154	0.0003565	90.977	191.039	257.185	191.707	-70.161	138.396	219.016	-70.814	-66.107	17.626	14.748	-68.363	-64.924	-63.864	-60.755	31.181	-61.813	-8191	255	
21693.598	1	1	0	0	0.10339	0.084041	0.10996	0.13097	0.077712	0.0827	0.2673	0.14197	0.21626	0.10288	0.15765	0.19969	0.037978	0.22731	0.071324	0.23552	-2.8187	-2.7729	-3.4375	-3.0979	-2.8729	-3.5917	-2.9062	-3.2083	-3.3667	-2.725	-3.4562	-3.1896	-2.7625	-3.4604	-2.8604	-3.3125	227.805	215.916	27.172	238.685	-36.359	240.076	174.865	217.443	4.319	-72.188	231.387	216.334	88.940	-82.247	69.334	-23.525	0.00014609	0.0019907	0.0012159	643.44	2.6864e-05	3.2107e-05	982.37	209.41	1.4492e-05	1.3509e-05	356.06	121.94	73.311	33.253	3.8319e-05	49.091	0.028178	0.03288	0.0091774	1254.6	0.00035386	0.00036089	1434.9	377.1	0.00034698	0.00035635	627.86	217.16	161.95	63.014	0.0003458	89.474	115.907	64.828	113.453	-70.428	54.612	55.596	-70.637	-66.409	-61.631	-31.865	-67.739	-64.744	-63.259	-59.730	146.595	-61.289	-8191	255	
21693.693	1	1	0	0	0.060294	0.18903	0.24545	0.29796	0.10959	0.17741	0.096754	0.2526	0.16238	0.17014	0.25622	0.092993	0.1185	0.067295	0.24309	0.26802	-3.175	-2.7583	-3.2854	-3.1771	-2.9042	-3.5417	-2.9771	-3.1271	-3.3375	-2.8521	-3.3729	-3.0563	-2.7354	-3.5208	-2.9146	-3.1562	66.007	90.348	121.555	230.503	244.016	166.642	240.813	209.452	118.241	24.487	11.291	202.846	232.013	-31.820	-31.513	184.259	0.00061071	0.0022191	0.00046075	637.17	4.5286e-05	3.6685e-05	983.61	209.35	8.0381e-06	3.242e-05	359.04	123.15	73.324	33.612	4.2277e-05	49.007	0.027177	0.031613	0.0088458	1227.7	0.00034135	0.00034695	1410.2	369.1	0.00033347	0.00034485	616.92	213.48	158.7	62.138	0.00033499	87.845	104.142	208.127	-10.981	-71.296	232.002	272.146	-70.994	-65.495	253.013	39.474	-67.728	-65.256	-63.007	-59.442	50.464	-61.711	-8191	255	
21693.812	1	1	0	0	0.21445	0.14235	0.15382	0.033801	0.21835	0.21997	0.28477	0.27801	0.11628	0.1832	0.10575	0.17109	0.039847	0.10346	0.15013	0.1826	-2.9896	-2.8	-3.2375	-3.1604	-2.6	-3.4896	-3.0687	-2.9104	-3.4729	-2.7979	-3.225	-3.2417	-2.7042	-3.5958	-2.9104	-2.9104	32.588	140.328	-22.046	79.008	94.371	196.435	217.639	210.772	59.901	35.195	36.484	-81.621	255.269	257.173	250.467	263.255	0.00039487	0.00044962	0.0010823	639.81	3.0555e-05	4.2395e-05	976.45	207.84	1.2438e-05	4.0017e-05	358.01	122.47	71.684	33.502	2.4423e-05	49.408	0.026292	0.030674	0.0085537	1199.7	0.00032806	0.00033342	1386.3	358.92	0.00031515	0.00032262	596.53	207.17	152.47	59.861	0.00031582	85.375	240.727	-29.177	21.957	-70.608	215.961	54.535	-70.676	-66.102	221.767	-8.076	-68.032	-64.485	-63.370	-59.369	-1.488	-61.696	-8191	255	
21693.908	1	1	0	0	0.10781	0.12329	0.15058	0.2541	0.066991	0.23935	0.067398	0.099309	0.17985	0.097556	0.11311	0.16889	0.27456	0.3371	0.063756	0.31364	-2.9542	-2.7458	-3.0417	-3.4646	-2.6792	-3.3521	-3.2687	-2.7729	-3.4458	-2.6937	-3.2271	-3.5187	-2.7167	-3.3854	-3.2229	-2.8042	191.764	-67.344	207.727	257.039	-8.300	22.397	-69.000	88.412	-1.323	-29.660	228.978	223.576	266.044	205.000	145.983	226.718	0.00072383	0.0042383	0.0010453	635.32	3.8676e-05	6.4615e-05	974.98	208.57	1.2343e-05	8.9226e-06	356.93	119.9	73.011	32.995	3.2452e-05	48.767	0.025014	0.028906	0.0081016	1170.6	0.00031195	0.00031715	1360.3	351.93	0.00030577	0.00031573	589.97	203.65	150.98	59.073	0.00031184	84.635	121.833	59.043	43.891	-70.462	45.303	156.938	-70.978	-66.414	33.271	11.716	-67.761	-64.237	-63.700	-60.211	-6.393	-61.285	-8191	255	
21694.006	1	1	0	0	0.077612	0.073171	0.36026	0.11144	0.23279	0.1748	0.15157	0.27398	0.054082	0.18136	0.19153	0.10649	0.12381	0.064529	0.078056	0.1233	-3.0854	-2.6292	-2.8292	-3.4521	-2.7354	-3.1521	-3.3438	-2.7271	-3.3688	-2.8646	-3.1937	-3.5979	-2.7604	-3.2958	-3.2271	-2.6417	66.538	-46.163	-48.242	162.207	187.748	37.617	58.856	243.030	158.870	113.859	157.880	-74.385	134.263	41.888	0.731	178.065	0.00060221	0.0015841	0.00052968	630.6	2.7033e-05	2.8325e-05	976.69	204.99	4.1666e-05	2.0306e-05	353.94	120.63	70.874	32.783	3.1396e-05	48.66	0.02471	0.028861	0.0080675	1160.2	0.00030946	0.00031661	1352.7	352.7	0.00030669	0.00031699	590.51	204.79	151.4	59.587	0.00031814	85.205	229.734	15.102	-37.308	-70.077	26.919	-55.540	-70.296	-65.968	27.388	-10.416	-68.025	-64.797	-63.536	-59.904	25.578	-61.716	-8191	255	
21694.078	1	1	0	0	0.15557	0.22664	0.1554	0.047744	0.11695	0.20819	0.23825	0.059263	0.11986	0.09379	0.17869	0.20847	0.0414	0.13149	0.078654	0.082787	-3.0021	-2.7396	-2.7875	-3.5187	-2.7521	-3.1229	-3.4813	-2.6354	-3.3083	-3.1917	-2.7042	-3.5521	-2.6813	-3.1667	-3.1667	-2.8563	202.406	173.258	156.659	146.518	202.201	2.823	67.629	161.090	-12.926	35.020	-47.814	-23.516	275.193	260.263	-55.558	126.360	0.0010925	0.0035087	0.00072691	630.36	1.3096e-05	5.8647e-05	976.62	206.04	3.2346e-05	3.4469e-05	356.42	120.49	71.399	32.624	4.3965e-05	48.958	0.025051	0.028902	0.0080767	1160.4	0.00030927	0.00031702	1354.8	352.21	0.00030732	0.00031897	595.47	205.61	152.67	59.793	0.00031867	85.442	-82.679	-28.005	167.159	-70.549	17.775	93.057	-70.466	-66.331	96.292	53.334	-67.936	-64.458	-63.101	-59.162	-40.315	-61.861	-8191	255	
21694.197	1	1	0	0	0.13697	0.31475	0.13674	0.13893	0.22124	0.068565	0.1575	0.16332	0.14399	0.17405	0.23345	0.12944	0.039864	0.070004	0.062943	0.037872	-3.0438	-3.0729	-2.6	-3.4854	-2.725	-3.0521	-3.3167	-2.6479	-3.3125	-3.0042	-2.7604	-3.5479	-2.9458	-2.8771	-3.4542	-2.5375	221.946	162.388	179.831	261.652	-50.288	195.590	225.279	204.931	-26.244	85.133	218.875	-42.842	128.858	158.234	144.927	-77.001	0.00028067	0.0036414	0.00070046	624.29	1.8037e-05	3.5544e-05	978.61	206.42	4.1809e-05	4.0288e-06	355.27	122.22	71.186	32.991	1.8579e-05	49.103	0.025235	0.029231	0.0082301	1173.7	0.00031654	0.00032613	1370.6	358.55	0.00032021	0.00033159	607.37	209.71	155.08	60.895	0.00032845	86.676	110.031	183.840	-61.567	-70.452	237.322	-28.386	-70.772	-66.611	-24.642	-63.452	-67.842	-64.526	-64.168	-59.311	108.918	-61.585	-8191	255	
21694.295	1	1	0	0	0.072131	0.17253	0.081041	0.38885	0.19745	0.10994	0.33087	0.22877	0.09517	0.14494	0.17265	0.15848	0.26769	0.098208	0.21291	0.083105	-2.8937	-3.1333	-2.6	-3.3979	-2.8792	-2.9625	-3.6604	-2.6792	-3.1	-3.1312	-2.5104	-3.4396	-2.7521	-2.7792	-3.2583	-2.75	-31.239	256.860	37.227	154.856	-26.821	167.532	247.170	259.691	-30.839	-21.581	166.790	240.486	240.183	189.614	28.076	104.044	0.00010802	0.0028676	0.00097793	633.15	6.6516e-06	5.0792e-06	975.99	207.76	4.489e-05	3.1225e-05	352.49	120.97	71.229	32.745	3.6727e-05	48.475	0.025879	0.030066	0.0084045	1187.3	0.00032286	0.0003296	1374.1	359.24	0.00032084	0.00032949	601.07	208.22	153.86	60.307	0.00032601	85.817	268.697	91.081	87.357	-69.280	267.830	261.341	-70.159	-66.373	-38.216	-55.169	-68.136	-63.982	-62.968	-59.299	202.200	-61.965	-8191	255	
21694.391	1	1	0	0	0.092513	0.082654	0.12939	0.052922	0.21846	0.18896	0.19334	0.22975	0.061043	0.14672	0.089054	0.2926	0.14947	0.22467	0.12394	0.12377	-2.6688	-3.1625	-2.6542	-3.2604	-3.0021	-2.8146	-3.3	-2.8667	-3.0604	-3.4417	-2.9062	-3.3458	-3.0604	-2.8146	-3.3937	-2.9458	-62.567	15.602	-18.791	-25.593	-37.641	208.265	264.302	222.326	254.808	144.650	201.267	260.926	137.053	203.414	-82.536	242.388	0.00022663	0.0030405	0.00019936	625.5	4.5032e-05	3.7354e-05	970.66	203.23	2.1396e-05	2.62e-05	356.17	120.79	69.845	32.169	2.2914e-05	47.773	0.025555	0.029844	0.0083493	1180.1	0.00032147	0.00032887	1368.1	357.48	0.00032047	0.00033187	602.67	208.88	152.82	59.818	0.00032141	84.699	130.169	213.027	-79.132	-70.174	37.472	122.605	-70.290	-65.621	-48.288	272.426	-67.849	-64.746	-62.772	-59.744	11.503	-61.256	-8191	255	
21694.486	1	1	0	0	0.11131	0.05966	0.12377	0.15413	0.11835	0.16015	0.38207	0.22697	0.32205	0.21447	0.040185	0.25321	0.052219	0.14748	0.18879	0.1175	-2.4458	-3.5354	-2.7083	-3.3354	-3.1771	-2.8229	-3.4125	-2.8125	-2.8063	-3.3438	-2.6396	-3.3542	-3.2292	-2.7438	-3.4917	-2.8917	211.198	20.298	141.077	-14.519	202.827	197.735	199.016	-73.934	138.999	-61.053	275.188	200.404	148.249	-39.365	-75.666	6.796	0.00061088	0.0030515	0.001043	633.12	4.0659e-05	2.6398e-05	977.97	206.85	2.9934e-06	4.8764e-05	351.56	120.16	71.05	32.841	2.0022e-05	48.968	0.025055	0.029121	0.0080991	1158.7	0.00030885	0.00031637	1352.9	352.22	0.00030758	0.00031743	591.26	204.73	150.66	59.185	0.00031061	83.843	226.200	150.213	107.916	-69.590	89.853	117.861	-70.311	-65.507	160.674	65.600	-68.255	-64.634	-63.604	-59.370	269.654	-61.903	-8191	255	
21694.605	1	1	0	0	0.16855	0.18335	0.057856	0.26436	0.31146	0.1479	0.37857	0.41201	0.11041	0.13384	0.064546	0.1587	0.060547	0.15509	0.093677	0.14355	-2.4437	-3.35	-2.6646	-3.1854	-2.8958	-2.5271	-3.4792	-2.9208	-2.7208	-3.4708	-2.8292	-3.1146	-3.2938	-2.75	-3.5083	-3.0708	28.850	12.434	33.439	231.039	129.146	136.442	267.206	235.201	-4.835	242.851	169.264	258.107	-23.578	225.428	61.538	120.342	0.00067586	0.0025366	0.0017727	637.86	2.1509e-05	4.2859e-05	979.47	206.86	2.3346e-05	1.6032e-05	355.64	120.99	71.73	33.033	2.5939e-05	49.523	0.024412	0.028207	0.0078739	1144.6	0.00030128	0.00030614	1336.7	346.98	0.00029912	0.00030674	584.48	202.19	148.19	58.641	0.00030715	84.112	197.478	44.062	-64.643	-70.382	48.294	11.807	-70.043	-66.074	-23.653	263.763	-67.579	-64.650	-63.328	-59.726	246.050	-61.691	-8191	255	
21694.701	1	1	0	0	0.075619	0.30132	0.1915	0.025228	0.097469	0.20937	0.25928	0.14834	0.02426	0.28853	0.33453	0.28627	0.16255	0.11881	0.076714	0.078225	-2.1958	-3.3688	-2.8	-3.1854	-3.4167	-2.8208	-3.4875	-3.125	-2.8542	-3.3563	-2.8104	-3.0438	-3.3875	-2.7229	-3.3875	-3.3083	139.409	-26.065	-24.124	233.012	271.219	99.327	174.744	94.665	7.916	-35.778	208.713	231.868	-21.567	250.724	-75.792	252.087	0.00031393	0.0035288	0.0017761	636.43	3.3872e-05	3.3513e-05	977.7	207.69	2.3155e-05	5.6911e-05	356.45	121.49	71.785	32.837	8.0224e-06	49.256	0.024353	0.028397	0.0079368	1155.7	0.00031048	0.00031833	1358	354.03	0.0003103	0.0003203	595.15	207.27	152.81	59.849	0.00032312	86.003	-42.978	64.629	-9.606	-70.397	84.054	35.302	-70.406	-65.535	29.362	184.403	-67.393	-64.132	-63.222	-58.969	158.672	-61.297	-8191	255	
21694.799	1	1	0	0	0.25666	0.029737	0.075819	0.20544	0.11337	0.15381	0.1691	0.20185	0.10232	0.073639	0.084729	0.099016	0.064732	0.05986	0.016202	0.10168	-2.3771	-3.2812	-2.8375	-2.8542	-3.4979	-2.6854	-3.3646	-3.1188	-2.6979	-3.4271	-3.1042	-3.0333	-3.3354	-2.7313	-3.375	-3.3833	35.688	235.775	108.833	196.527	157.029	25.398	169.242	271.168	67.075	173.492	212.537	214.475	143.272	-72.336	229.665	163.492	0.00043979	0.0040611	0.0011802	632.66	3.2572e-05	1.7226e-05	962.48	207.47	2.8553e-05	3.9512e-05	357.99	123.17	70.512	32.383	3.5841e-05	49.035	0.025966	0.03024	0.0084976	1201.3	0.00033456	0.00034428	1398.3	369.27	0.000339	0.00034846	620.93	216.19	159.85	62.111	0.00034716	89.155	-19.094	191.782	68.482	-69.559	55.722	245.991	-70.146	-66.456	195.310	-46.639	-67.427	-65.403	-63.562	-59.530	207.863	-61.466	-8191	255	
21694.893	1	1	0	0	0.29381	0.19423	0.2023	0.17814	0.36218	0.19648	0.053864	0.012339	0.22506	0.13763	0.17418	0.096457	0.32212	0.091494	0.18416	0.21321	-2.4271	-3.3521	-2.9375	-2.9396	-3.4542	-2.8958	-3.1	-3.4688	-2.6354	-3.4542	-3.0854	-2.8375	-3.2896	-2.7167	-2.9979	-3.4729	85.159	-31.399	-53.681	185.574	172.494	98.574	175.167	46.664	243.411	54.633	230.611	173.458	225.775	52.251	144.025	180.604	0.0002589	0.00083432	0.00064046	633.71	2.5851e-05	2.9137e-05	977.69	209.15	1.5971e-05	6.7104e-05	355.02	120.99	70.982	32.307	6.4841e-06	48.071	0.027514	0.03199	0.008987	1232.2	0.00034853	0.00035458	1420.3	374.8	0.0003467	0.00035861	627.69	218.76	162.02	62.878	0.00035402	89.939	6.564	12.471	-14.037	-70.311	40.285	60.159	-70.385	-66.158	-4.318	223.341	-68.079	-64.828	-63.699	-59.608	159.025	-60.874	-8191	255	
21694.988	1	1	0	0	0.29115	0.12053	0.21509	0.16521	0.22866	0.17371	0.29613	0.30401	0.077401	0.27062	0.049712	0.070305	0.26938	0.20182	0.10049	0.42685	-2.3063	-3.1854	-3.0167	-2.9375	-3.5271	-2.7667	-2.925	-3.3521	-2.6979	-3.2625	-3.1875	-2.8063	-3.6229	-2.9125	-2.85	-3.4458	128.109	179.479	89.371	252.309	46.065	89.243	210.275	249.351	200.314	-14.451	215.425	174.134	71.055	-74.138	98.744	246.061	0.0002573	0.0040016	0.00037898	630.41	3.2061e-05	2.4389e-05	971.27	206.75	4.1016e-05	4.7473e-05	354.51	122.72	71.32	32.275	2.7383e-05	47.948	0.028077	0.032586	0.0090993	1242.2	0.00035096	0.00035663	1418.4	373.23	0.00034475	0.0003543	623.01	217.04	160.65	62.147	0.00034656	88.628	-68.999	275.445	198.055	-70.415	114.211	-27.660	-70.543	-66.548	34.368	53.999	-67.314	-65.397	-63.405	-59.528	49.750	-61.076	-8191	255	
21695.086	1	1	0	0	0.15069	0.17279	0.21945	0.098851	0.10503	0.29055	0.14459	0.24	0.13985	0.021334	0.18058	0.52307	0.03046	0.17871	0.053218	0.20816	-2.4458	-3.2896	-3.125	-2.7083	-3.4062	-2.9979	-2.95	-3.3583	-2.9437	-3.2313	-3.4208	-2.8167	-3.425	-3.1146	-2.8937	-3.6312	231.753	-3.726	170.009	117.722	254.944	115.614	138.199	167.705	230.148	54.252	135.793	240.333	42.406	16.791	50.058	205.876	0.00057106	0.0028332	8.6227e-05	630.29	3.9291e-05	3.414e-05	975.3	206.23	9.4598e-06	1.3755e-05	351.85	122.09	70.926	32.111	3.9418e-06	47.832	0.027271	0.031665	0.0088173	1215.8	0.00033802	0.00034536	1402.4	367.67	0.00033378	0.00034558	615.71	214.25	159.25	61.928	0.00034534	88.578	196.175	258.281	-3.673	-70.333	263.353	95.879	-70.189	-66.138	65.508	193.339	-67.805	-64.915	-62.602	-60.052	99.030	-61.473	-8191	255	
21695.205	1	1	0	0	0.22647	0.36381	0.14633	0.259	0.11076	0.070118	0.18322	0.15027	0.33883	0.095836	0.16135	0.26992	0.039358	0.16705	0.068316	0.42032	-2.1646	-3.0146	-3.4958	-2.7167	-3.2771	-2.9646	-2.8542	-3.5854	-2.8688	-2.9125	-3.3375	-2.6688	-3.3646	-3.0542	-2.4208	-3.5042	-50.098	-10.677	256.429	275.746	92.281	-26.889	216.164	230.730	173.669	185.827	-54.946	263.206	-64.092	195.555	186.348	247.027	0.00036396	0.0017137	0.00078865	633.93	3.8173e-05	2.0357e-05	970.12	206.64	1.0596e-05	5.5183e-06	354.9	122.58	72.164	32.155	5.6767e-05	48.451	0.027407	0.031971	0.0090017	1234.8	0.00034948	0.00035755	1425.1	375.4	0.00034738	0.00036068	629.68	218.78	162.88	62.777	0.00035693	89.846	-80.560	179.587	-27.263	-69.802	29.257	200.666	-70.083	-65.963	109.224	50.244	-67.603	-64.362	-63.390	-59.625	236.030	-61.911	-8191	255	
21695.303	1	1	0	0	0.28578	0.079919	0.048985	0.14492	0.15578	0.17146	0.26648	0.048448	0.17965	0.062766	0.37891	0.29326	0.03444	0.14113	0.10046	0.27644	-2.3208	-2.8312	-3.4083	-2.6	-3.2812	-3.3312	-2.6333	-3.4854	-2.9604	-2.8563	-3.5187	-2.8208	-3.1208	-3.3271	-2.7604	-3.6437	43.333	-18.565	1.404	42.613	-45.624	171.968	207.229	-4.689	-68.589	-38.738	213.440	176.340	-81.287	274.660	-39.784	236.206	0.00032184	0.0015055	0.00068121	623.31	5.8107e-05	5.3926e-05	977.26	206.59	1.4978e-05	4.1751e-05	354.58	120.87	71.362	32.77	3.4674e-05	48.681	0.02791	0.032748	0.0091397	1240.8	0.00035127	0.00035932	1423.6	376.09	0.00034738	0.00036088	630.59	217.21	161.98	62.803	0.00035105	89.101	-55.675	112.269	72.020	-70.103	43.677	106.892	-70.332	-65.724	205.138	128.054	-68.237	-64.742	-63.245	-59.602	79.794	-61.381	-8191	255	
21695.373	1	1	0	0	0.030466	0.096645	0.12833	0.37622	0.23568	0.1421	0.17499	0.23033	0.041521	0.19815	0.13063	0.25198	0.16258	0.16818	0.13647	0.27816	-2.5042	-2.7854	-3.3021	-2.7458	-3.0667	-3.2792	-2.7854	-3.5125	-3.0312	-2.7833	-3.525	-2.9875	-3.0292	-3.3833	-2.6542	-3.4458	-21.391	235.042	197.276	192.691	159.881	67.880	268.591	225.709	95.256	76.193	227.244	238.684	-0.684	26.619	58.188	223.119	0.0001935	0.0020617	0.00021718	636.27	2.8066e-05	3.7689e-05	977.09	206.45	5.648e-06	3.1787e-05	357.52	122.21	72.076	32.459	1.8887e-05	48.489	0.027351	0.0317	0.0088229	1217.9	0.00033742	0.00034288	1400.4	366.9	0.00033331	0.00034709	620.01	216.25	161.54	62.895	0.00035476	89.909	-83.227	104.324	-40.492	-70.920	13.844	121.436	-70.803	-66.095	-35.736	-22.841	-67.878	-64.642	-62.765	-59.640	92.185	-61.737	-8191	255	
21695.471	1	1	0	0	0.048195	0.047689	0.079752	0.064432	0.11082	0.17244	0.23276	0.17395	0.17283	0.076907	0.11067	0.12651	0.093903	0.25957	0.16563	0.23646	-2.7188	-2.7854	-3.4625	-2.9417	-3.0271	-3.2979	-2.8	-3.3729	-3.2687	-2.6562	-3.4479	-2.975	-2.8937	-3.5958	-2.6229	-3.3479	242.939	202.225	-68.091	120.054	127.529	128.622	-59.526	124.485	32.938	221.682	20.359	186.415	136.231	222.529	-45.574	-51.661	0.00017218	0.0026274	0.00030885	633.87	2.2325e-05	1.5234e-05	976.5	208.04	3.4275e-05	3.4448e-05	357.28	121.49	71.283	32.233	2.6498e-05	48.75	0.028107	0.032954	0.0091736	1250.3	0.00035387	0.00036003	1423.9	374.83	0.00034777	0.00035964	630.79	218.96	164.03	63.657	0.00036407	91.61	-2.195	-42.555	55.542	-70.419	-43.965	259.031	-70.393	-66.396	74.957	82.944	-68.137	-65.289	-63.417	-59.212	46.163	-61.849	-8191	255	
21695.592	1	1	0	0	0.2439	0.11755	0.14669	0.058667	0.18113	0.06611	0.24826	0.39944	0.19717	0.019343	0.1157	0.11258	0.12679	0.30469	0.31722	0.19265	-2.9188	-2.6792	-3.2979	-2.9521	-2.825	-3.3625	-2.7333	-3.3458	-3.2917	-2.8167	-3.2313	-2.8208	-2.8479	-3.4583	-2.5771	-3.1167	184.598	-26.988	76.486	257.365	-67.841	269.539	262.052	186.448	-6.268	-82.038	187.309	145.629	202.985	-56.034	197.961	214.383	0.00036891	0.0017923	0.00080921	634.03	7.8051e-06	2.7461e-05	972.2	206.46	1.7e-05	1.6828e-05	353.69	122.25	72.049	32.506	6.3086e-05	48.133	0.029083	0.033941	0.0094548	1269.5	0.00036714	0.00037271	1442.6	382.42	0.00036025	0.00037177	639.25	222.26	166.5	64.249	0.00036937	91.678	90.774	-30.846	56.134	-70.465	180.226	140.267	-70.595	-65.959	258.747	87.090	-68.233	-64.903	-63.491	-60.023	-3.283	-62.312	-8191	255	
21695.686	1	1	0	0	0.083707	0.13539	0.12124	0.017979	0.30045	0.15435	0.06955	0.17832	0.096659	0.14818	0.17208	0.1062	0.36288	0.15576	0.14362	0.24037	-2.9188	-2.5833	-3.3688	-2.9437	-2.75	-3.4896	-2.8563	-3.1896	-3.4083	-2.6771	-3.0917	-3.05	-2.5438	-3.3708	-2.9833	-3.1188	104.415	-71.791	23.240	5.099	95.390	146.408	108.693	109.346	238.678	34.886	240.104	112.047	215.662	13.682	180.462	269.560	0.00012888	0.0025291	0.00038566	632.75	1.8466e-05	4.6877e-05	985.54	208.16	1.6952e-05	3.6501e-05	354.85	123.34	71.328	32.207	1.4923e-05	48.181	0.029383	0.034399	0.0096014	1283.7	0.00037279	0.00037925	1462	387.58	0.00037018	0.00038162	649.49	226.14	169.04	64.915	0.00037774	92.946	177.986	-22.696	187.230	-69.643	72.849	80.073	-70.372	-66.312	113.371	32.883	-68.100	-64.889	-62.356	-59.906	169.161	-61.967	-8191	255	
21695.781	1	1	0	0	0.081299	0.076818	0.3212	0.11383	0.30058	0.31247	0.21365	0.31563	0.16335	0.21753	0.24213	0.31409	0.034832	0.13202	0.030671	0.31089	-2.9292	-2.6833	-3.2333	-3.2021	-2.7812	-3.2729	-2.9208	-2.9229	-3.2958	-2.7687	-3.2875	-3.3146	-2.4729	-3.4833	-2.8167	-2.9396	6.840	249.764	96.662	182.075	100.534	-24.856	238.650	81.201	219.457	225.901	222.846	214.838	241.264	225.525	170.167	177.673	0.00089179	0.0038676	0.0001362	630.88	5.3215e-05	4.6177e-05	964.78	206.27	1.6353e-05	6.9822e-05	354.13	120.8	72.367	32.158	2.8402e-05	47.976	0.03001	0.034905	0.0097623	1296.4	0.0003799	0.0003897	1470.2	393.18	0.00038037	0.00039087	658.16	228.98	171.66	65.687	0.00038409	93.478	-67.843	146.512	-41.522	-70.243	69.096	31.215	-70.775	-66.361	101.491	-44.476	-67.951	-65.074	-63.492	-59.129	-56.463	-61.731	-8191	255	
21695.879	1	1	0	0	0.13202	0.27583	0.15309	0.17012	0.041747	0.33717	0.20408	0.1126	0.20564	0.28329	0.078251	0.16103	0.087233	0.32879	0.14871	0.22706	-3.0229	-2.675	-3.2313	-3.2792	-2.525	-3.4938	-3.0646	-2.9229	-3.4521	-2.7021	-3.3208	-3.25	-2.6271	-3.2292	-3.1937	-2.7583	15.374	-48.838	52.310	-51.508	-49.614	170.247	225.613	-73.049	167.246	262.627	102.040	217.123	119.988	266.032	192.544	257.223	0.00052612	0.0037828	0.00054051	635.63	2.5235e-05	8.187e-05	972.72	205.97	2.8816e-05	2.5641e-05	354.29	123.26	70.375	31.412	5.041e-05	47.615	0.030186	0.034952	0.0098404	1300.7	0.00038152	0.00039114	1478.6	395.73	0.00038661	0.00040158	667.91	232.96	175.56	66.855	0.00040154	95.554	274.590	83.381	222.739	-69.981	181.578	128.309	-70.610	-66.689	101.622	203.506	-68.002	-65.567	-63.263	-59.914	108.979	-61.575	-8191	255	
21695.975	1	1	0	0	0.19083	0.18891	0.18435	0.016924	0.21325	0.18501	0.21843	0.13726	0.040915	0.10599	0.10115	0.051632	0.022449	0.29293	0.087222	0.097352	-2.925	-2.7438	-2.9708	-3.4458	-2.5958	-3.3604	-3.25	-2.7792	-3.3229	-2.7542	-2.95	-3.5771	-2.7271	-3.2896	-3.1917	-2.7	35.732	52.035	-61.411	101.025	98.599	195.862	270.742	249.862	152.642	164.332	-74.189	213.980	194.600	235.720	202.176	187.712	0.00045834	0.0012334	0.0024104	624.95	5.1112e-05	4.0103e-05	973.52	203.34	4.313e-06	1.4933e-05	352.19	121.37	71.748	31.617	1.6852e-05	47.124	0.031821	0.037081	0.010447	1340.6	0.00040286	0.00041169	1511	405.51	0.0004048	0.00041917	685.1	239.44	180.41	68.824	0.00042184	98.506	-43.254	120.223	-74.617	-70.102	135.112	28.597	-70.506	-66.004	3.949	55.428	-67.539	-65.158	-64.188	-59.877	-40.307	-61.888	-8191	255	
21696.070	1	1	0	0	0.17096	0.11987	0.23381	0.2956	0.046753	0.031568	0.20888	0.080469	0.042742	0.055093	0.35107	0.31778	0.20601	0.24617	0.23457	0.22863	-3.0375	-2.9875	-3.0563	-3.3563	-2.7521	-3.2917	-3.1667	-2.5687	-3.2333	-3.0979	-2.9229	-3.4938	-2.6854	-3.3896	-3.3083	-2.8771	-26.667	85.251	144.606	-73.892	175.767	-34.017	194.510	189.402	146.317	154.544	-10.483	155.362	231.384	201.940	-6.826	-26.494	0.00036218	0.0050608	0.0014807	632.86	3.1419e-05	4.9138e-05	974.16	204.91	2.931e-05	5.2558e-05	352.71	121.08	70.887	31.964	2.6702e-05	47.395	0.033311	0.038836	0.010946	1373.6	0.00041831	0.00042778	1537.3	412.03	0.00041469	0.00042919	693.59	240.67	182.4	69.412	0.00042926	99.139	133.078	255.354	13.710	-70.760	126.498	21.131	-70.393	-66.050	62.814	233.427	-67.885	-64.357	-63.790	-59.954	10.312	-62.119	-8191	255	
21696.166	1	1	0	0	0.12771	0.040113	0.18661	0.12543	0.17034	0.15191	0.19429	0.32947	0.084731	0.091005	0.14336	0.21415	0.27203	0.34512	0.12958	0.14691	-3.0125	-3.0333	-2.6292	-3.15	-2.8021	-3.1063	-3.4646	-2.7021	-3.4354	-3.2104	-2.9646	-3.5333	-2.7542	-3.025	-3.3	-2.6333	88.675	111.734	171.374	231.633	248.969	98.024	251.255	264.064	251.654	44.418	184.765	240.535	214.266	-58.232	-19.326	-76.435	7.5441e-05	0.0033591	0.0015191	630.45	2.4421e-05	4.0264e-05	969.63	200.46	1.9553e-05	4.9992e-05	350.6	120.82	70.985	31.52	3.3255e-05	47.779	0.033744	0.039358	0.011055	1381.4	0.00042132	0.00043121	1533	411.75	0.00041896	0.00043281	693.55	241.45	181.51	69.289	0.00042607	98.467	222.981	192.765	6.822	-70.111	-19.497	137.702	-70.345	-66.386	89.198	167.775	-67.884	-65.208	-63.819	-59.713	3.477	-61.900	-8191	255	
21696.285	1	1	0	0	0.11443	0.057128	0.098826	0.20235	0.12131	0.12451	0.19134	0.047882	0.10157	0.2085	0.045276	0.11687	0.17091	0.19622	0.26539	0.13711	-2.9167	-3.0354	-2.775	-3.5	-2.9062	-2.8896	-3.6292	-2.7562	-3.45	-3.3208	-2.7458	-3.6583	-3.0271	-3.1542	-3.4208	-2.7583	138.499	193.204	178.743	266.355	167.435	15.021	196.425	154.747	189.515	154.554	73.469	-23.306	176.664	224.482	219.284	98.749	0.00015846	0.00045946	0.0019422	627.21	4.9714e-07	2.8464e-05	969.01	203.9	1.0447e-05	1.0387e-05	349.02	121.09	70.168	31.653	3.4877e-05	47.333	0.03351	0.039083	0.010934	1373	0.00042073	0.00043156	1534.7	411.07	0.0004188	0.00043308	691.32	241.1	181.74	69.213	0.00042462	98.018	-33.011	266.438	-37.068	-69.739	275.138	-13.669	-70.221	-66.157	120.201	121.231	-67.637	-65.246	-63.439	-59.772	-53.308	-61.110	-8191	255	
21696.383	1	1	0	0	0.21811	0.10607	0.22356	0.18994	0.16162	0.17226	0.12043	0.14986	0.10345	0.17508	0.22876	0.10356	0.23619	0.028454	0.3224	0.036017	-2.8708	-3.1917	-2.6188	-3.4938	-2.9917	-2.8208	-3.5708	-2.8333	-3.1625	-3.3583	-2.7979	-3.3104	-2.9521	-2.6813	-3.3583	-2.8375	210.243	-43.500	18.637	187.240	-63.333	-36.028	-80.249	-73.239	215.277	33.949	120.974	153.391	242.147	-45.418	175.438	143.855	0.0010283	0.0034518	0.0011308	619.56	8.2447e-05	4.8481e-05	967.9	203.39	1.8251e-05	5.7349e-05	351.47	121.7	71.213	32.081	5.1996e-05	47.653	0.033239	0.038741	0.010786	1358.7	0.00041271	0.00042076	1515.7	404.18	0.00040548	0.00041605	676.26	235.34	176.89	67.301	0.00040131	95.283	253.321	-9.320	0.641	-69.935	-2.855	-10.783	-70.424	-66.282	1.746	-3.514	-67.428	-64.928	-64.350	-59.879	265.689	-61.585	-8191	255	
21696.479	1	1	0	0	0.064182	0.16762	0.27932	0.11872	0.14718	0.1343	0.32473	0.11789	0.19744	0.030372	0.26379	0.061	0.29091	0.22397	0.14881	0.16494	-2.6271	-3.4062	-2.6979	-3.525	-2.9896	-2.7542	-3.6479	-2.7958	-2.8792	-3.4521	-2.8438	-3.3979	-3.2687	-2.7062	-3.2729	-2.85	168.033	102.648	121.322	148.461	187.719	242.339	219.481	-34.893	272.691	259.710	166.951	-43.782	200.415	-62.553	193.162	212.558	0.00014661	0.0033476	0.00072056	625.54	1.9965e-05	3.0573e-05	975.63	204.36	1.8442e-05	1.0428e-05	351.89	122.45	70.991	31.989	2.6017e-05	48.386	0.031578	0.036512	0.010196	1323.5	0.0003932	0.00040194	1492.7	395.3	0.00038887	0.00040129	662.4	231.16	173.09	66.324	0.00039304	94.161	216.718	-62.844	89.131	-69.446	33.229	24.028	-70.685	-66.495	263.055	123.472	-67.644	-65.056	-63.426	-59.549	-3.269	-61.375	-8191	255	
21696.600	1	1	0	0	0.30683	0.075349	0.013657	0.14259	0.11706	0.22118	0.16739	0.16811	0.16701	0.13257	0.36685	0.21915	0.19037	0.023944	0.085053	0.34253	-2.5458	-3.3583	-2.6375	-3.3417	-3.225	-2.5583	-3.4667	-2.8979	-2.9771	-3.4813	-2.9042	-3.2354	-3.1625	-2.5833	-3.2979	-3.0062	-26.837	-70.869	-3.359	250.088	128.443	-64.414	275.629	44.789	195.443	124.761	275.142	255.498	217.461	253.185	92.482	226.419	0.00018475	0.0042736	0.00042974	626.28	3.6125e-06	4.6655e-05	981.27	204.77	1.0641e-05	1.5608e-05	351.2	121.18	69.846	32.096	3.0531e-05	47.992	0.031017	0.035838	0.009976	1310.2	0.00038419	0.00039384	1475.2	390.83	0.00037998	0.00039319	655.73	228.2	171.49	65.943	0.00038727	93.451	-4.608	-57.670	256.831	-70.158	244.432	-79.983	-70.454	-66.279	187.725	66.658	-68.001	-64.894	-62.698	-59.670	16.823	-61.819	-8191	255	
21696.672	1	1	0	0	0.16293	0.24723	0.2236	0.18899	0.21751	0.044611	0.3857	0.14463	0.081876	0.12021	0.10704	0.093041	0.14079	0.15916	0.26922	0.25462	-2.1604	-3.3229	-2.7229	-3.0854	-3.3229	-2.6646	-3.6	-3.1146	-2.7979	-3.5812	-2.8958	-3.1042	-3.3542	-2.8688	-3.2979	-3.3458	9.399	157.927	-62.050	-5.822	140.023	-42.134	207.226	185.047	127.750	116.199	125.079	-81.191	-20.537	55.163	121.733	155.778	0.00040004	0.0025029	0.0014613	634.28	5.3985e-05	4.2075e-05	977.64	205.45	1.8628e-05	3.8991e-05	353.72	120.3	70.973	32.506	2.3196e-05	48.086	0.030439	0.035399	0.0098361	1295.9	0.00038019	0.000384	1459.9	384.3	0.00036813	0.00037848	642.07	223.27	167.41	64.653	0.00037154	92.096	230.140	165.719	-70.388	-69.910	-17.139	177.844	-70.554	-65.788	174.265	-40.642	-68.541	-64.120	-62.991	-59.472	217.505	-61.722	-8191	255	
21696.768	1	1	0	0	0.085746	0.32673	0.17987	0.20143	0.24911	0.10842	0.19303	0.29512	0.21266	0.25372	0.14375	0.21787	0.11351	0.068188	0.048849	0.27068	-2.2146	-3.4188	-2.7458	-3.1063	-3.3667	-2.6292	-3.2667	-3.2104	-2.6042	-3.4188	-3.1625	-3.0333	-3.4125	-2.7896	-3.1583	-3.3354	239.178	255.975	-4.221	255.018	216.482	45.780	7.161	242.895	-50.466	80.817	235.318	213.296	203.649	194.427	141.533	204.951	0.00066653	0.003847	0.0004665	628.99	2.5695e-05	8.2403e-06	971.17	205.92	3.1608e-05	7.1575e-05	349.63	121.67	72.355	32.553	1.9736e-05	48.207	0.029457	0.034282	0.009553	1281.8	0.00037197	0.00037903	1456.8	384.31	0.00036772	0.00037709	641.74	223.4	166.97	64.331	0.00036888	91.852	258.124	64.257	38.150	-70.001	21.891	147.059	-71.052	-66.081	205.688	48.481	-67.368	-64.281	-62.763	-59.783	231.248	-61.972	-8191	255	
21696.887	1	1	0	0	0.15753	0.10014	0.10532	0.16325	0.19482	0.14149	0.23435	0.21252	0.20588	0.25338	0.17753	0.21082	0.10207	0.028238	0.14809	0.28501	-2.2208	-3.3125	-2.8021	-2.6958	-3.4292	-2.7083	-3.4333	-3.2021	-2.6188	-3.375	-3.1292	-2.775	-3.5	-2.8729	-3.1292	-3.5104	171.369	101.858	217.873	258.106	86.149	-61.922	232.155	209.684	132.772	10.974	183.139	268.188	138.773	62.047	60.017	197.319	0.00068323	0.0008581	0.00052131	635.22	3.603e-05	4.0264e-05	970.25	201.68	3.4402e-05	4.0851e-05	352.03	120.73	71.168	31.963	2.4719e-05	48.036	0.029222	0.034046	0.0095626	1281.7	0.0003714	0.0003791	1459.3	386.22	0.00037609	0.00039021	656.61	230.93	174.91	67.904	0.00041145	97.6	238.053	-27.313	-37.361	-70.336	15.905	84.340	-70.229	-65.777	136.730	128.143	-68.589	-65.101	-63.252	-59.813	201.780	-62.082	-8191	255	
21696.982	1	1	0	0	0.048691	0.056255	0.10829	0.49123	0.13022	0.28764	0.16945	0.23019	0.033782	0.12816	0.15565	0.098418	0.054566	0.10824	0.027201	0.16735	-2.1729	-3.4604	-3.0875	-2.7917	-3.6417	-2.8833	-3.0979	-3.4792	-2.6625	-3.3	-3.0896	-2.5958	-3.5812	-3.025	-2.9625	-3.4562	235.351	-53.282	83.862	204.318	39.036	207.292	-69.825	262.472	211.195	-46.341	250.511	156.649	-62.757	-15.606	32.108	-28.007	0.00012204	0.0014875	0.0006511	627.61	2.472e-05	1.2507e-05	971.37	199.89	3.3606e-05	1.8177e-05	344.18	119.01	70.744	31.709	4.4059e-05	47.373	0.033167	0.039578	0.011316	1416.4	0.00044585	0.00045852	1585.6	430.54	0.00045849	0.00047407	724.84	253.02	194.36	74.101	0.00047746	105.16	-16.629	57.697	134.685	-70.690	9.716	131.258	-69.951	-66.792	145.944	75.610	-68.707	-64.768	-63.277	-60.573	151.737	-61.948	-8191	255	
21697.078	1	1	0	0	0.063729	0.27561	0.1162	0.16429	0.082214	0.090846	0.18366	0.35855	0.13179	0.21707	0.10746	0.13123	0.34337	0.33351	0.35866	0.033952	-2.2854	-3.2104	-3.1167	-2.7062	-3.2458	-2.9042	-3.0438	-3.4125	-2.675	-3.1917	-3.2854	-2.8937	-3.3187	-3.05	-2.8958	-3.5771	101.669	-24.315	230.336	-78.063	74.345	48.919	39.286	247.135	-37.653	38.773	27.040	262.836	268.792	173.583	36.960	142.495	0.0004666	0.0054807	0.00012481	615.82	2.7902e-05	5.8111e-05	969.66	198.55	5.2474e-05	3.021e-05	343.92	118	70.477	32.015	4.5544e-05	46.932	0.037617	0.044081	0.012346	1479	0.00047365	0.00048114	1605.3	431.15	0.00045254	0.00046351	712.12	246.6	188.01	71.775	0.00045	101.33	256.887	217.539	100.927	-70.268	72.867	-36.935	-70.343	-66.012	68.312	146.701	-68.370	-64.089	-62.995	-59.780	55.771	-61.741	-8191	255	
21697.176	1	1	0	0	0.07307	0.17801	0.10018	0.12399	0.082577	0.31983	0.14766	0.19029	0.23161	0.13918	0.064058	0.311	0.16399	0.29037	0.14932	0.22687	-2.4604	-2.9896	-3.2	-2.6083	-3.2	-2.9729	-2.8563	-3.3	-2.8979	-3.025	-3.2687	-2.5438	-3.4479	-2.9813	-2.8438	-3.4042	275.622	163.062	248.457	204.247	216.701	-39.887	245.050	269.963	50.512	104.351	230.190	270.873	110.161	232.300	209.056	165.110	0.00025389	0.0043775	0.00071486	622.25	2.7981e-05	3.3528e-05	960.88	201.02	3.505e-05	1.2748e-05	341.7	118.81	71.294	32.106	3.4049e-05	46.918	0.035316	0.041171	0.011466	1410.9	0.00043721	0.00044473	1545.3	414.85	0.00042833	0.00044242	692.55	241.61	183.95	70.256	0.00043553	99.306	121.376	31.056	269.326	-70.261	133.063	164.727	-70.246	-66.295	91.185	147.685	-68.364	-64.577	-64.007	-60.401	-52.816	-62.186	-8191	255	
21697.271	1	1	0	0	0.36534	0.23829	0.20565	0.058658	0.23596	0.24881	0.44047	0.12421	0.31554	0.063327	0.164	0.30048	0.066702	0.051464	0.19175	0.14516	-2.475	-2.9583	-3.225	-2.6583	-3.0104	-3.0604	-2.6729	-3.4208	-2.8604	-2.9104	-3.6229	-2.6562	-3.3583	-3.2354	-2.6354	-3.5167	226.560	256.712	240.520	150.413	2.515	54.692	226.851	215.588	-50.973	52.328	234.285	113.992	-74.284	113.991	215.928	274.100	0.00029216	0.0036924	0.0023918	618.17	6.6256e-05	5.0784e-05	953.7	199.53	5.0023e-05	3.9959e-05	346.28	117.98	70.475	32.063	3.9239e-05	47.461	0.033898	0.039417	0.010929	1357	0.00041509	0.00042029	1498.6	398.81	0.00040142	0.00041506	669.46	232.57	176.41	67.737	0.00040435	95.29	155.108	144.955	72.629	-70.336	191.045	16.194	-70.391	-66.280	257.672	22.544	-67.817	-64.795	-63.533	-59.252	55.791	-60.798	-8191	255	
21697.367	1	1	0	0	0.26302	0.17214	0.25227	0.071441	0.095174	0.13293	0.42594	0.25072	0.10134	0.078916	0.078994	0.10557	0.066475	0.33725	0.52418	0.13628	-2.4875	-2.7313	-3.1625	-2.8333	-3.1646	-3.2958	-2.7438	-3.3604	-3.0042	-2.7354	-3.4792	-2.8521	-3.2167	-3.3042	-2.6333	-3.5604	268.321	198.063	206.133	124.991	190.797	152.750	212.884	179.687	243.615	190.809	-35.409	185.615	-73.403	275.490	273.814	-60.815	0.00028779	0.0048018	0.0014534	618.6	2.4373e-05	5.6946e-05	966.04	200.84	7.0324e-05	2.2559e-05	345.05	116.39	70.165	32.272	6.4679e-05	47.543	0.031619	0.036697	0.010195	1307.9	0.00039134	0.00039951	1471.3	391.09	0.00038745	0.00039863	654.57	226.41	171.85	66.35	0.00039031	93.763	107.915	175.989	96.707	-71.042	65.451	17.692	-70.385	-65.646	141.020	25.025	-68.060	-64.894	-63.010	-59.836	47.293	-61.454	-8191	255	
21697.463	1	1	0	0	0.082039	0.22039	0.13283	0.16582	0.25392	0.049948	0.28392	0.173	0.13075	0.2239	0.29406	0.15789	0.14897	0.26492	0.2454	0.12389	-2.6562	-2.7521	-3.4417	-2.7604	-3.0396	-3.3792	-2.8021	-3.3917	-3.2708	-2.6063	-3.4896	-2.7083	-3.0271	-3.2292	-2.7271	-3.2812	272.655	-67.339	-71.307	214.009	178.751	38.995	217.064	-66.653	-20.197	170.069	237.851	275.219	123.831	120.470	169.823	178.835	0.00035543	0.0028735	0.0018618	611.01	1.0808e-05	5.6287e-05	952.57	202.71	4.8051e-05	3.738e-05	348.44	119.63	70.631	31.804	2.9457e-05	47.872	0.030708	0.035726	0.0099686	1292.9	0.00038796	0.00039786	1470.1	391.84	0.00038718	0.0004011	659.97	228.72	173.41	66.754	0.0003948	94.878	152.545	140.109	-76.282	-70.694	186.305	20.461	-70.034	-65.508	-67.922	63.938	-67.873	-63.620	-62.837	-59.499	37.043	-60.959	-8191	255	
21697.559	1	1	0	0	0.21506	0.073271	0.16464	0.082485	0.084872	0.25645	0.14372	0.1177	0.23222	0.13232	0.089323	0.11306	0.1625	0.24872	0.1931	0.30456	-2.8063	-2.5458	-3.2917	-2.7375	-2.7375	-3.2646	-2.6937	-3.1292	-3.2917	-2.7271	-3.4625	-2.9229	-2.7729	-3.4854	-2.6979	-3.2479	209.069	31.124	130.413	158.277	262.673	66.129	182.370	-55.746	204.677	51.000	231.012	-10.137	182.921	23.627	234.986	119.403	0.00054846	0.0027605	0.00068094	625.14	3.4326e-05	1.5191e-05	957.39	202.49	3.0121e-05	4.2996e-05	347.09	120.7	70.924	31.909	1.4432e-05	47.934	0.031209	0.036276	0.010085	1310	0.00039112	0.00039908	1473.6	395.31	0.00038879	0.00040113	658.84	228.85	172.2	66.005	0.00038783	93.697	226.089	27.974	54.023	-69.662	104.001	211.864	-70.445	-65.322	189.389	199.245	-67.409	-64.763	-63.376	-60.095	33.086	-61.316	-8191	255	
21697.678	1	1	0	0	0.27279	0.26413	0.18233	0.028382	0.32136	0.18158	0.21391	0.094547	0.073093	0.069483	0.098468	0.12465	0.16605	0.089454	0.24889	0.19136	-2.9354	-2.7042	-3.4188	-3.075	-2.9	-3.45	-2.8812	-3.2792	-3.2458	-2.6688	-3.4688	-3.2521	-2.7875	-3.5438	-2.7583	-3.05	70.492	24.479	-47.051	7.565	110.779	10.539	113.088	227.200	-45.802	181.833	-81.705	268.717	-38.224	236.596	66.776	189.154	0.00041538	0.0058866	0.00065459	624.2	2.2774e-05	4.2914e-05	970.42	203.21	2.1879e-05	3.4587e-05	347.08	120.2	70.426	31.63	4.7653e-05	47.345	0.030369	0.035121	0.0097578	1283.4	0.00037969	0.00038672	1462.5	390.98	0.00038564	0.00040027	662.67	230.54	174.02	66.76	0.00039862	95.223	135.335	253.724	-17.607	-70.065	-51.436	-7.970	-71.015	-66.215	159.621	204.349	-67.357	-64.955	-63.674	-59.211	-23.424	-61.128	-8191	255	
21697.773	1	1	0	0	0.06709	0.052832	0.29654	0.30223	0.031468	0.10261	0.19477	0.1105	0.13791	0.17085	0.21198	0.18478	0.24752	0.28196	0.10354	0.13535	-2.6958	-2.6667	-3.2583	-3.4062	-2.6813	-3.3917	-2.8458	-2.95	-3.4021	-2.6937	-3.3458	-3.2208	-2.6312	-3.4292	-2.8271	-2.7896	179.719	-73.495	113.168	171.818	-69.366	184.881	195.199	180.271	207.719	246.777	131.144	215.307	183.452	-32.597	44.921	-76.414	0.00023125	0.0016655	0.0021018	622.52	2.5428e-05	2.3507e-05	955.23	203.68	2.2875e-05	4.9869e-05	348.09	121.46	70.343	31.433	8.6234e-06	47.678	0.031658	0.03671	0.010345	1324.6	0.00040127	0.00040681	1489.9	400.73	0.00039922	0.00041251	672.17	234.29	176.96	67.412	0.00040804	96.479	204.639	40.050	54.639	-69.438	194.075	69.710	-70.332	-66.636	176.831	-53.551	-67.890	-64.457	-63.595	-58.388	235.012	-61.865	-8191	255	
21697.869	1	1	0	0	0.25271	0.12084	0.094351	0.23096	0.14568	0.22891	0.23613	0.06151	0.23712	0.17201	0.27436	0.26913	0.23666	0.061102	0.43409	0.28192	-3.2313	-2.5917	-3.2292	-3.2458	-2.7542	-3.3458	-2.9625	-2.8833	-3.3792	-2.6917	-3.1312	-3.3375	-2.6	-3.4021	-2.8396	-2.8396	157.587	248.707	158.957	174.714	258.816	199.359	208.663	-46.141	271.771	-19.462	198.341	178.823	192.096	249.521	109.042	206.293	0.00029736	0.0055262	0.0011688	624.16	2.4253e-05	3.9756e-05	959.88	207.08	2.1098e-05	3.0568e-05	353.69	122.01	70.897	31.841	5.8031e-05	47.782	0.032266	0.037386	0.010481	1338.1	0.00040049	0.00040608	1485.1	398.85	0.00039125	0.00040123	663.76	230.96	173.33	66.463	0.00039262	94.516	236.225	87.986	141.741	-69.887	112.660	-25.909	-70.589	-66.405	211.636	253.696	-67.342	-64.235	-63.649	-60.141	191.505	-61.794	-8191	255	
21697.967	1	1	0	0	0.11159	0.14219	0.19667	0.05523	0.25021	0.11952	0.11259	0.31106	0.12879	0.12435	0.12029	0.076397	0.15223	0.12051	0.28528	0.25729	-2.9708	-2.7417	-3.0896	-3.1562	-2.6688	-3.4229	-3.1688	-2.7729	-3.3458	-2.9583	-2.8208	-3.3729	-2.7521	-3.1396	-3	-2.6854	91.217	138.115	83.179	-18.986	70.174	185.949	178.932	-48.550	252.996	-15.174	224.234	98.250	267.371	-82.615	66.580	218.329	0.00034243	0.0030706	0.0017809	628.15	2.133e-05	3.3541e-05	968.45	204.24	2.122e-05	2.2392e-05	351.91	121.77	70.508	32.169	4.9985e-05	48.042	0.030825	0.035772	0.010002	1300.1	0.00038227	0.00038888	1463.9	389.66	0.00037684	0.00038747	652.69	227.41	170.75	66.113	0.00038745	94.051	225.969	61.748	246.303	-70.074	52.499	66.231	-70.507	-66.602	74.251	24.081	-67.874	-64.107	-63.055	-59.338	-81.281	-61.232	-8191	255	
21698.062	1	1	0	0	0.082114	0.11767	0.23237	0.087343	0.087295	0.15939	0.1262	0.17791	0.14655	0.042032	0.16445	0.37192	0.28379	0.1029	0.19729	0.077531	-3.0979	-2.8646	-3.0146	-3.4042	-2.5708	-3.2062	-3.2562	-2.55	-3.3812	-2.7979	-2.7625	-3.5187	-2.7167	-3.2646	-3.1417	-2.8042	-49.233	169.731	-1.701	238.297	52.334	188.152	138.124	158.249	229.309	-80.357	-54.515	-69.286	256.968	163.223	176.639	-42.064	0.00039231	0.0042793	0.00078915	626.27	4.6045e-05	4.3772e-05	964.16	204.14	3.2917e-05	2.9475e-05	345.54	121.64	71.738	31.772	4.5895e-05	47.859	0.030605	0.035675	0.010006	1303.6	0.00038567	0.0003964	1476.5	394.79	0.0003867	0.00040036	664.08	231.31	174.54	67.136	0.00040409	96.106	230.783	-5.910	179.871	-69.945	-61.866	262.362	-70.633	-66.237	58.558	80.890	-68.487	-65.001	-63.811	-59.890	97.841	-61.674	-8191	255	
21698.158	1	1	0	0	0.2252	0.29818	0.20443	0.20517	0.20555	0.11504	0.12389	0.30324	0.13272	0.074889	0.25469	0.23428	0.041569	0.23013	0.048725	0.33647	-2.9562	-2.975	-2.8479	-3.4833	-2.7229	-3.2771	-3.4313	-2.7167	-3.3375	-3.0208	-2.9979	-3.2854	-2.7125	-3.1	-3.4313	-2.7313	-43.170	120.903	-34.182	272.920	259.973	-1.984	-27.441	175.731	257.380	157.216	242.539	76.362	-10.534	233.253	146.133	243.894	0.00015775	0.0060422	0.0010369	618.87	2.0162e-05	6.6296e-05	961.65	202.08	1.2958e-05	8.1058e-06	351.74	121.82	71.238	31.816	4.7582e-05	47.198	0.032056	0.037325	0.010533	1336.1	0.00040285	0.00041129	1496.5	400.77	0.0003972	0.00041232	673.55	233.61	175.87	67.345	0.00040531	95.638	118.117	-21.305	150.039	-69.309	59.619	122.613	-70.318	-65.997	253.073	-12.114	-68.087	-64.796	-63.697	-59.631	36.732	-61.562	-8191	255	
21698.279	1	1	0	0	0.14719	0.17524	0.11864	0.18433	0.11227	0.093002	0.092085	0.16816	0.20054	0.18144	0.14703	0.18779	0.34292	0.15793	0.034048	0.025679	-2.7812	-3.1167	-2.8083	-3.4542	-2.825	-2.9292	-3.3729	-2.55	-3.3937	-3.1375	-2.8417	-3.4292	-2.8333	-3.1229	-3.6333	-2.8146	259.280	-69.368	254.751	256.022	172.146	26.285	189.081	235.187	244.484	-9.576	245.817	210.895	240.681	250.637	111.735	146.471	0.0001928	0.0013677	0.00038079	620.89	1.839e-05	4.4481e-05	964.01	207.47	4.0381e-05	4.3511e-05	352.56	120.66	70.908	31.207	3.0828e-05	47.746	0.03178	0.036986	0.010382	1332.6	0.00039801	0.00040925	1492.4	399.4	0.00039527	0.00040686	669.92	232.78	174.88	66.87	0.00039662	94.814	56.452	237.086	206.228	-69.646	106.213	98.204	-70.271	-66.034	61.036	162.721	-68.212	-64.666	-63.780	-59.505	-72.211	-61.803	-8191	255	
21698.377	1	1	0	0	0.068784	0.066251	0.18027	0.16798	0.2407	0.30051	0.18292	0.19934	0.20294	0.041763	0.081645	0.14717	0.14688	0.13826	0.13893	0.21137	-2.8042	-3.1229	-2.6396	-3.4562	-3.0354	-2.9604	-3.6688	-2.6833	-3.1479	-3.4625	-2.8563	-3.3958	-3.0062	-2.6833	-3.4479	-2.7062	45.776	-12.596	75.696	245.479	201.917	-36.223	-74.732	183.475	204.490	140.173	232.997	250.836	-49.866	-32.108	155.151	42.034	0.00052982	0.0049654	0.0006069	636.21	2.245e-05	4.0192e-05	975.87	205.71	1.0096e-05	4.0721e-05	353.85	120.96	70.804	31.95	4.1302e-05	47.7	0.031174	0.03614	0.01003	1307.2	0.00038415	0.00039116	1468.6	390.13	0.00037661	0.00038821	652.73	226.7	170.14	65.465	0.00038578	93.438	4.984	163.979	-9.938	-70.179	221.453	18.038	-70.072	-65.634	270.531	252.461	-67.737	-64.517	-63.171	-59.808	183.665	-61.518	-8191	255	
21698.473	1	1	0	0	0.21492	0.29305	0.26829	0.048605	0.24291	0.29631	0.28366	0.10929	0.21537	0.039046	0.19739	0.28202	0.14794	0.084311	0.18508	0.14969	-2.6688	-3.3187	-2.6125	-3.4208	-3.1292	-2.9042	-3.725	-2.975	-3.1229	-3.3167	-2.7687	-3.4771	-3.2083	-2.8688	-3.6188	-2.8563	89.881	71.376	-69.217	-51.962	181.974	27.166	163.676	149.850	203.586	162.498	-41.100	-65.166	-52.750	145.923	13.705	226.809	0.00091005	0.00058574	0.0011649	625.04	1.8517e-05	2.1441e-05	978.02	206.78	6.053e-05	4.9937e-05	354.69	122.22	71.52	31.474	9.5688e-06	47.544	0.03055	0.035555	0.0099761	1306.3	0.00038856	0.00039806	1480.1	395.44	0.0003867	0.00039802	658.1	229.15	170.3	64.759	0.00037448	91.016	232.694	69.143	265.570	-70.332	92.655	-27.643	-70.450	-65.893	38.660	177.106	-67.299	-65.429	-63.620	-59.785	213.456	-61.659	-8191	255	
21698.568	1	1	0	0	0.21083	0.2126	0.11143	0.33666	0.18398	0.13495	0.084384	0.14229	0.21363	0.086127	0.050842	0.17795	0.19721	0.092415	0.17383	0.27824	-2.6771	-3.3583	-2.7208	-3.2271	-3.4104	-2.575	-3.4604	-2.9313	-2.8021	-3.3146	-2.7438	-3.3021	-3.1208	-2.7958	-3.3667	-2.9896	229.050	58.751	0.668	258.276	118.996	-21.189	106.136	224.841	251.358	-68.863	158.800	235.137	96.835	200.529	142.735	275.516	0.00068818	0.0032699	0.00051619	640.5	4.4289e-05	4.097e-05	978.61	205.26	2.0072e-05	2.2429e-05	353.54	121.53	72.395	32.787	3.4149e-05	49.069	0.028949	0.033131	0.009171	1245.5	0.00034979	0.00035568	1414.9	370.62	0.00034227	0.00035156	617.86	215.2	159.13	62.035	0.00033573	87.538	239.262	191.265	103.205	-69.259	21.321	63.476	-69.847	-65.309	88.139	34.656	-67.611	-64.645	-63.165	-59.050	140.590	-61.542	-8191	255	
21698.664	1	1	0	0	0.11857	0.079724	0.14265	0.35309	0.14862	0.1948	0.18452	0.18584	0.12523	0.25019	0.18351	0.22409	0.25739	0.11052	0.14595	0.27931	-2.2854	-3.4771	-2.6562	-3.3104	-3.2646	-2.5417	-3.4604	-3.0875	-2.75	-3.5083	-2.9396	-3.0583	-3.2792	-2.7708	-3.3229	-3.0458	-24.468	-47.064	147.569	164.173	194.295	11.235	191.998	256.935	-44.423	181.766	-45.203	-80.126	226.512	-57.593	200.083	171.811	0.00075577	0.0029651	0.0016184	637.4	2.9317e-05	4.0407e-05	984.69	208.3	2.054e-05	3.7593e-05	351.18	121.83	73.119	33.8	5.0688e-06	49.857	0.026022	0.030067	0.0083753	1185.5	0.00031981	0.00032369	1370.6	355.31	0.00031009	0.0003179	592.51	206.33	152.37	60.297	0.0003147	85.998	216.583	17.817	-42.765	-69.263	105.429	-73.617	-70.276	-66.069	111.515	120.405	-66.936	-64.876	-62.248	-59.074	146.373	-61.348	-8191	255	
21698.758	1	1	0	0	0.12282	0.13148	0.042426	0.037403	0.14629	0.14341	0.14953	0.073604	0.22523	0.15082	0.40871	0.18756	0.12024	0.065182	0.17314	0.17711	-2.3708	-3.5208	-2.9208	-3.0208	-3.4417	-2.7188	-3.4167	-3.1708	-2.6292	-3.3979	-2.9896	-2.9167	-3.35	-2.8375	-3.225	-3.3	-21.084	189.043	-18.984	2.376	63.569	213.715	174.345	263.003	65.242	-20.689	233.109	-35.834	134.003	11.645	222.270	83.805	0.00018719	0.0013075	0.0010332	640.99	1.604e-05	5.126e-05	984.67	207.81	3.8615e-05	2.9732e-05	356.4	120.12	72.34	34.037	7.7911e-05	50.107	0.02491	0.028901	0.0081113	1170.4	0.00031387	0.00031959	1371.1	355.7	0.00031398	0.00032455	599.76	209.06	155.14	61.526	0.00032767	87.759	136.443	40.957	258.632	-69.328	119.910	-5.153	-70.479	-66.070	47.019	-3.170	-68.543	-63.678	-62.870	-59.875	169.440	-62.153	-8191	255	
21698.855	1	1	0	0	0.18289	0.10932	0.13339	0.14745	0.33511	0.15869	0.22916	0.20137	0.26209	0.1895	0.28115	0.20973	0.25007	0.10395	0.12944	0.10241	-1.9958	-3.5	-2.8917	-2.9188	-3.2625	-2.7938	-3.2875	-3.325	-2.7292	-3.4521	-3.0208	-2.9521	-3.3667	-2.7958	-3.0667	-3.3458	46.701	-33.748	21.629	40.142	206.585	193.232	247.566	220.849	13.755	128.639	67.769	-30.955	192.452	-54.214	275.071	139.334	0.00032894	0.0025998	0.00131	631.67	5.9369e-06	2.0953e-05	989.56	207.34	1.1902e-05	1.5406e-05	356.07	121.02	72.671	34.253	2.2224e-05	50.331	0.026036	0.030085	0.0084521	1194.6	0.00032528	0.00033042	1386.1	361.15	0.00032241	0.00033299	606	210.34	156.01	61.783	0.00033255	88.45	96.211	121.646	-15.196	-69.673	-49.121	265.421	-69.933	-66.115	61.074	73.733	-67.231	-64.271	-62.164	-59.570	201.577	-61.524	-8191	255	
21698.975	1	1	0	0	0.05786	0.24542	0.10913	0.29673	0.28718	0.20946	0.025032	0.20679	0.23699	0.10756	0.2117	0.20264	0.20281	0.093445	0.23616	0.196	-2.2	-3.275	-2.9667	-2.7396	-3.2792	-2.6167	-2.9604	-3.3333	-2.7458	-3.3792	-3.1333	-2.825	-3.4396	-2.8146	-3.0042	-3.4083	206.612	209.554	-23.769	122.595	-72.258	100.260	143.043	240.566	213.224	96.098	58.944	-74.364	217.419	219.749	24.593	12.984	0.00058335	0.002166	0.00078843	639.11	2.7003e-05	2.4385e-05	985.21	205.82	1.3224e-05	4.2738e-05	354.6	120.79	73.334	34.175	3.4889e-05	50.007	0.02644	0.030889	0.0087064	1221.9	0.00034242	0.00035108	1426.9	375.42	0.00035263	0.0003679	638.58	222.64	168.44	66.001	0.0003751	93.967	170.538	-70.318	-18.244	-69.950	78.770	-69.424	-70.201	-65.775	246.366	-30.635	-67.831	-63.846	-63.313	-59.845	230.132	-62.379	-8191	255	
21699.070	1	1	0	0	0.053416	0.11445	0.15713	0.061525	0.20357	0.11399	0.093552	0.081773	0.163	0.16491	0.050286	0.31754	0.053352	0.073944	0.29384	0.1264	-2.325	-3.3063	-3.175	-2.775	-3.3917	-2.9562	-3.1083	-3.5438	-2.8417	-3.2042	-3.2604	-2.6604	-3.4688	-2.9833	-2.725	-3.6625	269.272	215.081	149.219	-57.276	15.978	75.823	155.316	-58.048	153.253	70.009	98.672	202.341	275.044	73.293	246.289	20.893	0.00069999	0.0014899	0.00066293	638.8	4.7308e-05	4.5256e-05	980.24	206.15	2.468e-05	3.6555e-05	353.5	121.37	72.377	33.504	3.8206e-05	49.501	0.029723	0.034587	0.0096925	1288.2	0.00037314	0.00038236	1468.9	389.22	0.00037994	0.00039501	664.64	233.2	178	69.887	0.00042297	100.73	-36.921	241.896	-18.019	-69.191	-33.246	98.213	-70.360	-65.993	259.268	-29.116	-67.876	-64.139	-63.195	-59.961	171.277	-61.872	-8191	255	
21699.143	1	1	0	0	0.19414	0.3289	0.067263	0.11163	0.30682	0.18514	0.14047	0.062057	0.097908	0.24683	0.15609	0.19314	0.194	0.0254	0.14168	0.088922	-2.3396	-3.1604	-3.2042	-2.6688	-3.4479	-3.0021	-2.9354	-3.4854	-2.8375	-3.1	-3.3667	-2.8812	-3.4562	-3.2396	-2.8167	-3.4938	199.851	190.401	99.154	232.525	275.443	275.631	248.524	-32.029	219.675	48.209	261.633	71.730	206.775	38.871	-71.385	122.304	0.00042142	0.0050954	0.0016591	634.43	1.4217e-05	2.5664e-05	976.56	201.81	2.9193e-05	4.5363e-05	346.65	118.88	72.822	33.026	3.7384e-05	49.466	0.034183	0.040161	0.01131	1414.8	0.00044121	0.00045061	1569	420.92	0.00043499	0.0004483	703.76	244.75	187.64	72.594	0.00045148	103.59	151.786	155.247	50.953	-69.991	124.754	33.562	-70.709	-65.548	126.557	187.643	-68.208	-64.484	-62.701	-59.567	257.070	-61.516	-8191	255	
21699.238	1	1	0	0	0.049785	0.34714	0.08912	0.077897	0.18868	0.33134	0.27643	0.1368	0.28011	0.27821	0.14508	0.19053	0.058789	0.26921	0.10263	0.025374	-2.5604	-3.0104	-3.4313	-2.6937	-3.3958	-3.2271	-2.8896	-3.4833	-2.9104	-3.0521	-3.5417	-2.625	-3.3146	-3.3083	-2.6854	-3.5396	24.545	271.952	-20.202	-64.238	-68.227	45.242	200.710	263.994	162.439	-29.118	-17.636	212.866	47.965	245.177	15.072	-54.956	0.00047145	0.004108	0.001494	632.69	2.9444e-05	1.941e-05	976.22	200.76	2.3332e-05	1.1036e-05	350.41	118.82	71.845	33.311	2.3224e-05	49.647	0.035829	0.042009	0.011748	1442.6	0.00045454	0.00046017	1578.2	423.22	0.0004353	0.00044361	691.25	238.19	180.53	69.276	0.00040546	96.928	210.797	38.517	234.998	-69.998	45.356	-57.826	-70.877	-65.939	-19.010	87.068	-67.379	-64.329	-62.644	-59.180	248.741	-61.761	-8191	255	
21699.359	1	1	0	0	0.12149	0.26743	0.17422	0.32341	0.061612	0.19844	0.27512	0.1208	0.20685	0.078888	0.26148	0.21868	0.069561	0.14795	0.30949	0.36442	-2.7021	-2.9146	-3.4062	-2.7708	-3.4125	-3.3542	-2.8604	-3.3771	-2.9792	-2.8146	-3.6	-2.8312	-3.4396	-3.3937	-2.7292	-3.4813	118.299	150.638	111.557	-45.504	84.335	168.337	191.966	-71.620	69.865	103.651	-58.759	2.839	211.015	246.456	119.680	272.499	0.00025679	0.003382	0.0018416	629.49	4.2988e-05	1.6403e-05	979.16	199.15	1.5746e-05	2.4451e-05	350.52	120.54	71.711	33.925	1.2467e-05	49.91	0.031442	0.03656	0.010144	1317.1	0.00039196	0.00039848	1483.6	390.94	0.00038104	0.00039226	649.71	225.54	169.37	66.148	0.00036876	92.751	81.969	9.223	0.577	-69.910	93.103	61.005	-69.818	-66.012	229.576	-5.336	-67.428	-64.607	-62.392	-59.330	30.711	-61.480	-8191	255	
21699.455	1	1	0	0	0.23832	0.29389	0.2354	0.09575	0.2679	0.044081	0.092459	0.16623	0.22279	0.16926	0.22457	0.177	0.071312	0.18137	0.1526	0.10811	-2.7521	-2.8771	-3.4813	-2.9437	-3.0542	-3.2583	-2.8521	-3.475	-3.2646	-2.8063	-3.6229	-2.875	-2.9708	-3.4688	-2.6813	-3.4	40.516	257.155	-45.347	41.648	53.210	-0.874	-18.682	245.058	61.916	43.673	140.254	-5.082	-51.265	-46.871	97.572	167.672	0.00041552	0.0069919	0.00063303	640.95	4.0587e-05	4.0147e-05	982.78	206.23	2.9767e-05	5.195e-05	353.4	120.66	73.798	34.712	6.0306e-05	50.54	0.028608	0.033225	0.0092082	1248.6	0.00035174	0.00035692	1419.9	370.46	0.00033904	0.00034844	613.71	212.35	158.55	62.931	0.00032913	88.242	245.388	121.200	267.205	-70.202	164.014	103.634	-70.392	-65.516	195.182	95.538	-67.523	-64.936	-63.738	-60.228	-4.570	-62.014	-8191	255	
21699.553	1	1	0	0	0.011381	0.021083	0.070267	0.10047	0.10315	0.17549	0.25424	0.067754	0.17745	0.15059	0.078407	0.21027	0.10814	0.24205	0.12964	0.1153	-2.5792	-2.6958	-3.3521	-2.9313	-3.05	-3.5062	-2.8833	-3.3625	-3.2771	-2.7708	-3.65	-2.9396	-3.0187	-3.55	-2.7	-3.2833	46.959	50.520	226.230	-41.185	58.113	81.548	192.226	221.513	28.549	173.521	-68.641	262.555	-33.053	-34.987	101.917	209.162	0.00035815	0.0021121	0.0010114	639.76	2.5934e-05	3.3161e-05	980.62	206.86	2.8065e-05	2.0748e-05	357.11	121.05	72.458	34.911	1.6119e-05	51.337	0.025478	0.029565	0.0082131	1175.6	0.00031571	0.00032186	1366.6	354.44	0.00031126	0.00031967	593.72	206.22	152.47	61.01	0.00031223	86.68	-56.033	54.154	12.037	-70.275	259.578	96.734	-70.221	-65.361	7.906	71.003	-67.292	-64.442	-62.543	-59.704	16.138	-61.427	-8191	255	
21699.648	1	1	0	0	0.14576	0.076036	0.13761	0.19479	0.15354	0.1022	0.17265	0.10565	0.20764	0.38186	0.23423	0.22718	0.13214	0.15635	0.16388	0.10372	-2.8896	-2.6771	-3.2521	-2.9604	-2.8542	-3.375	-2.8312	-3.0938	-3.3542	-2.825	-3.3396	-3.15	-2.7354	-3.5208	-2.8125	-3.0229	99.520	-37.383	182.142	230.191	53.462	96.704	187.268	206.754	-31.837	197.168	222.610	134.296	93.597	268.957	154.552	104.851	0.00042479	0.0057435	0.00030308	644.97	1.7806e-05	7.9962e-06	992.24	208.57	5.3162e-06	5.6778e-05	353.81	123.04	73.932	35.425	1.0005e-06	51.743	0.02458	0.028438	0.0079368	1154	0.00030624	0.00031102	1355.4	350.94	0.00029899	0.00030918	584.56	202.63	150.24	60.162	0.00030322	85.775	186.032	240.740	275.619	-70.611	44.169	-6.736	-70.711	-65.317	41.946	166.310	-67.362	-63.562	-62.081	-60.595	-23.063	-61.568	-8191	255	
21699.768	1	1	0	0	0.22191	0.27662	0.17402	0.11937	0.24575	0.11787	0.19843	0.22787	0.044878	0.26838	0.15449	0.12727	0.17443	0.12591	0.083866	0.19622	-2.8937	-2.775	-3.4437	-3.2146	-2.8333	-3.4667	-2.9583	-3.1375	-3.4792	-2.5208	-3.3208	-3.2313	-2.7875	-3.4667	-2.9271	-2.9437	-50.111	237.213	125.881	226.210	254.980	82.483	214.092	174.576	94.749	203.318	174.022	208.381	-76.131	61.700	208.739	261.675	0.00020001	0.0022361	0.00043245	637.41	1.6852e-05	2.8562e-05	1002.8	210.04	6.0125e-06	3.5079e-05	358.63	121.95	75.294	35.621	3.7754e-05	51.882	0.023934	0.027746	0.0077389	1143	0.00029546	0.00030101	1342.8	344.22	0.00028522	0.00029448	575.39	199.17	147.32	59.474	0.00029393	84.706	202.765	248.960	20.488	-70.717	-18.634	35.960	-70.429	-66.305	-12.757	-19.034	-67.523	-65.177	-62.881	-59.270	168.232	-61.249	-8191	255	
21699.842	1	1	0	0	0.17126	0.26637	0.11327	0.16347	0.1328	0.038478	0.046971	0.24517	0.088928	0.077793	0.18214	0.15558	0.23952	0.30899	0.18152	0.14666	-3.1354	-2.7354	-3.2583	-3.1792	-2.6375	-3.5458	-2.9271	-2.9896	-3.3167	-2.4437	-3.3104	-3.2562	-2.65	-3.2854	-2.9062	-2.9208	261.946	159.401	260.008	205.706	181.167	210.046	-23.658	182.819	-1.293	266.858	239.349	263.907	247.627	-53.853	-33.217	199.976	0.0005885	0.0038124	0.00068685	643.04	4.1898e-06	2.481e-05	1000.6	209.24	7.2048e-06	1.027e-05	356.62	122.19	74.496	35.413	2.6143e-05	51.502	0.023484	0.027502	0.0077787	1150.2	0.00030053	0.00030876	1365.1	351.87	0.00030397	0.00031464	592.55	205.3	153.03	61.27	0.00031192	86.421	-48.339	208.990	242.169	-69.762	-7.743	84.294	-69.939	-65.521	-10.319	125.555	-67.817	-64.284	-63.019	-59.218	46.032	-61.202	-8191	255	
21699.959	1	1	0	0	0.14222	0.17021	0.07591	0.14573	0.32459	0.30171	0.39434	0.038235	0.073279	0.17479	0.020902	0.11596	0.16455	0.23474	0.10213	0.11024	-2.9896	-2.5729	-3.2083	-3.1562	-2.5979	-3.5062	-3.1417	-2.7938	-3.2708	-2.7938	-3.1104	-3.4125	-2.6917	-3.4875	-3.1792	-2.7375	148.709	191.979	233.625	158.573	-83.732	205.338	188.723	225.911	264.531	175.085	210.105	268.252	-23.488	261.361	162.923	83.556	0.00014104	0.0025077	0.00041998	643.37	2.2008e-05	3.1973e-05	992.32	209.48	2.6258e-05	2.689e-05	357.57	121.13	74.622	35.266	1.795e-05	51.176	0.024297	0.028181	0.0078564	1151	0.00030015	0.0003073	1355.6	350.06	0.00029832	0.00030788	587.59	201.69	150.43	60.192	0.0003049	85.569	65.236	-63.596	270.004	-69.581	270.534	0.012	-70.293	-65.826	-42.646	-23.368	-68.448	-64.692	-62.721	-59.307	-13.404	-61.434	-8191	255	
21700.057	1	1	0	0	0.043713	0.10117	0.10157	0.041831	0.18478	0.14796	0.095413	0.078495	0.19707	0.12887	0.086043	0.12746	0.2009	0.14987	0.16076	0.10964	-3.1063	-2.8438	-2.9271	-3.4083	-2.5187	-3.4083	-3.4062	-2.5521	-3.4333	-2.9979	-3.1396	-3.4604	-2.7083	-3.2958	-3.2542	-2.975	28.683	-54.880	-10.084	182.524	-31.041	11.929	112.312	243.588	21.416	196.519	-18.214	250.902	-39.648	-23.526	88.169	107.364	0.00037118	0.0040155	0.0012372	637.95	2.6685e-05	2.5826e-05	980.64	207.97	3.4566e-05	9.1063e-06	360.05	121.55	73.672	35.145	4.5325e-05	50.761	0.023986	0.028034	0.0077937	1148.8	0.00030352	0.00031049	1352.9	350.59	0.00030213	0.00031103	589.14	203.25	150.2	60.319	0.00030736	85.357	151.196	82.238	157.318	-70.804	-13.072	188.411	-70.970	-65.593	216.927	206.083	-68.418	-64.562	-63.188	-60.076	158.896	-62.314	-8191	255	
21700.152	1	1	0	0	0.085439	0.1124	0.11454	0.090595	0.26134	0.12469	0.2755	0.3309	0.07793	0.19286	0.13372	0.14048	0.12807	0.079968	0.035872	0.16632	-3.0312	-2.925	-2.8646	-3.4333	-2.575	-3.2042	-3.3146	-2.7396	-3.4042	-3.1333	-3.0167	-3.3417	-2.6958	-3.2479	-3.3417	-2.8167	169.199	-20.644	12.280	-32.734	68.820	201.915	184.462	252.087	-27.971	189.517	190.048	252.703	228.081	249.098	-58.892	233.436	0.00063919	0.0032765	0.00041187	635.06	3.3488e-05	3.5088e-05	988.63	208.55	3.0398e-05	8.7224e-06	358.35	121.35	72.881	34.006	4.0764e-05	50.66	0.024132	0.028188	0.0079101	1156.3	0.00030392	0.0003125	1356.3	350.58	0.00030251	0.00031123	588.23	203.73	150.62	60.053	0.0003055	84.902	266.922	-83.750	169.187	-70.713	79.744	-47.206	-70.879	-65.920	50.047	20.604	-68.507	-64.643	-64.028	-59.426	148.751	-62.094	-8191	255	
21700.248	1	1	0	0	0.25825	0.13231	0.19399	0.18415	0.10784	0.077365	0.068892	0.20157	0.16985	0.37694	0.15957	0.26895	0.11156	0.17661	0.068617	0.316	-3.0042	-2.9583	-2.7958	-3.4396	-2.7417	-3.2104	-3.6625	-2.7979	-3.2521	-3.1021	-2.8354	-3.6292	-2.7896	-3.0563	-3.4271	-2.7313	243.152	97.115	-51.002	225.121	116.601	22.469	79.698	-79.207	73.209	160.798	12.916	-73.359	216.588	-18.371	124.146	160.154	0.00021584	0.0025326	0.00068461	644.5	1.7435e-05	5.2819e-05	983.42	208.03	1.9572e-05	3.0673e-05	352.42	121.7	72.788	34.856	4.118e-05	50.335	0.02401	0.027958	0.0078462	1150.1	0.00030123	0.00030894	1350.5	348.89	0.00030172	0.00031192	585.01	202.76	150.23	60.178	0.00030546	85.16	195.881	60.627	253.613	-70.644	226.760	249.542	-69.912	-65.886	-68.408	-72.004	-68.431	-64.418	-63.740	-60.127	157.362	-61.866	-8191	255	
21700.367	1	1	0	0	0.024351	0.14423	0.12124	0.025624	0.21816	0.087709	0.21699	0.10562	0.17919	0.21172	0.19158	0.053201	0.21438	0.15288	0.27601	0.19632	-3.0396	-3.1729	-2.5271	-3.3792	-2.85	-2.9375	-3.4583	-2.7	-3.275	-3.2958	-2.7729	-3.5729	-3.1312	-2.8708	-3.4958	-2.8042	211.226	172.953	-63.111	114.067	138.721	202.854	-42.503	-74.443	214.388	97.839	240.561	-4.561	-74.368	235.491	133.688	188.630	0.00013421	0.0022777	0.0004214	639.71	2.4956e-05	6.5027e-06	980.1	204.88	2.1181e-05	2.6385e-05	357.3	120.62	73.489	34.25	3.5171e-05	50.342	0.024212	0.02826	0.0079492	1157	0.00030728	0.00031704	1363.3	354.43	0.00031502	0.00032599	599.08	208.08	154.91	61.718	0.00032609	87.317	-82.416	68.920	94.321	-70.468	63.843	174.201	-70.195	-66.049	-74.632	185.407	-67.993	-64.295	-64.245	-60.488	-32.832	-61.822	-8191	255	
21700.439	1	1	0	0	0.21912	0.12271	0.044116	0.033518	0.049733	0.19974	0.042376	0.34198	0.072283	0.28915	0.11959	0.2176	0.11878	0.023644	0.19722	0.10337	-2.6937	-3.2542	-2.5854	-3.3854	-3.1667	-2.7896	-3.4708	-2.7771	-3.0542	-3.2687	-2.6667	-3.3729	-3.175	-2.8063	-3.5062	-3.0458	50.496	223.760	48.340	-3.826	213.713	-27.714	237.493	205.730	249.190	-4.381	200.826	-41.203	134.376	86.963	157.398	221.859	0.0002326	0.0033449	0.00057393	635.75	3.5429e-05	5.9768e-05	980.08	206.47	3.8931e-05	4.9341e-05	349.9	120.93	72.586	34.742	1.7542e-05	50.438	0.02564	0.029911	0.0083413	1186.3	0.00032268	0.00032822	1379.5	358.42	0.00032086	0.0003274	600.82	207.69	153.91	61.123	0.0003144	85.813	163.898	121.179	107.506	-69.949	115.254	153.708	-70.197	-65.658	231.737	100.747	-68.705	-64.856	-63.512	-59.710	50.822	-61.713	-8191	255	
21700.535	1	1	0	0	0.087035	0.15756	0.20645	0.086186	0.12931	0.39506	0.16928	0.16675	0.1538	0.078162	0.42715	0.087277	0.11839	0.08565	0.013292	0.12957	-2.6479	-3.45	-2.7938	-3.3438	-3.1979	-2.8208	-3.4625	-2.8875	-2.8479	-3.5083	-2.8312	-3.2271	-3.3479	-2.7146	-3.5917	-2.8104	117.010	-18.337	237.377	222.877	187.728	70.696	129.348	-44.963	27.187	102.152	-50.695	157.945	256.151	169.958	165.997	249.340	0.0002112	0.0032078	0.00042116	644.17	3.4153e-05	3.5407e-05	984.82	209.21	1.3741e-05	2.8667e-05	355.6	120.83	75.595	35.528	1.7342e-05	51.043	0.024318	0.028026	0.00777	1147.8	0.00029755	0.00030464	1346	346.69	0.0002955	0.00030538	580.83	200.86	149.01	59.928	0.00029515	83.936	-59.339	78.217	-66.640	-70.394	48.430	54.166	-70.733	-66.553	93.163	-81.130	-68.181	-64.084	-63.158	-60.254	192.114	-61.797	-8191	255	
21700.656	1	1	0	0	0.20364	0.19933	0.16061	0.081274	0.18766	0.25774	0.15617	0.18388	0.10544	0.13103	0.18464	0.30076	0.18992	0.15429	0.11217	0.1672	-2.5333	-3.3604	-2.5833	-3.1875	-3.1354	-2.6896	-3.5146	-3.0396	-2.7438	-3.5271	-2.8937	-3.1875	-3.2729	-2.6667	-3.3937	-3.3354	-25.471	-16.269	13.307	-13.044	185.672	-39.625	90.846	268.092	138.397	104.488	155.368	-41.640	199.232	224.887	75.440	92.599	0.00059763	0.0035684	0.00050593	642.55	2.2236e-05	6.2348e-05	993.72	208.31	4.2861e-05	1.5035e-05	353.7	120.93	72.613	34.776	2.2787e-05	50.719	0.02301	0.026793	0.0074587	1127.4	0.00028954	0.00029359	1337.7	342.49	0.00029052	0.00029987	576.54	201.01	148.9	59.834	0.00030209	84.886	-82.530	-15.613	82.388	-70.178	211.829	134.894	-70.674	-66.524	107.604	122.046	-68.521	-64.535	-63.826	-59.677	36.276	-62.218	-8191	255	
21700.752	1	1	0	0	0.081117	0.1558	0.048557	0.137	0.25187	0.057174	0.066078	0.04798	0.064563	0.0082973	0.33424	0.17657	0.28952	0.16752	0.15121	0.17804	-2.2854	-3.3333	-2.8583	-3.1875	-3.3563	-2.6813	-3.6104	-3.1958	-2.5667	-3.4333	-2.9583	-2.95	-3.3312	-2.7292	-3.1375	-3.1979	-53.455	40.082	156.380	255.700	233.943	-19.299	263.767	224.238	123.487	135.697	275.586	-9.382	274.574	-47.272	107.669	265.790	0.000204	0.0019022	0.0010077	650.19	5.4187e-05	3.6306e-05	988.98	212.43	1.4254e-05	2.3334e-05	358.43	121.7	74.51	35.083	1.6156e-05	50.533	0.023992	0.02784	0.007832	1154.2	0.00030166	0.00030742	1354.8	350.52	0.00029791	0.00030627	584.74	203.59	150.95	60.712	0.00030987	86.218	125.003	-40.552	125.627	-69.901	25.931	-51.932	-70.258	-65.757	101.620	80.169	-68.461	-64.279	-62.971	-60.058	75.983	-62.026	-8191	255	
21700.848	1	1	0	0	0.12242	0.18403	0.17622	0.4191	0.22927	0.23885	0.097808	0.21579	0.04226	0.018816	0.086049	0.25091	0.059123	0.25022	0.19073	0.27746	-2.1562	-3.5958	-2.975	-2.8333	-3.3667	-2.6396	-3.3167	-3.4313	-2.5	-3.3979	-3.0458	-2.9708	-3.3604	-2.6312	-3.1896	-3.2729	163.545	249.639	150.980	273.748	273.684	115.470	180.915	-35.540	274.998	66.639	-31.502	-16.935	144.007	273.118	-37.229	191.760	0.00032617	0.0055921	0.00075067	643.2	1.7877e-05	1.2707e-05	990.52	209.35	1.867e-05	1.1055e-05	360.88	122.56	74.659	34.891	2.1865e-05	51.354	0.02474	0.028888	0.0081159	1177.1	0.00031323	0.00031958	1376.7	355.19	0.00030818	0.00031691	591.17	204.5	150.76	60.112	0.00030441	85.174	202.437	175.175	209.470	-70.183	99.084	-69.226	-70.837	-66.849	82.848	217.717	-68.436	-64.835	-63.094	-59.988	-17.807	-61.453	-8191	255	
21700.943	1	1	0	0	0.24394	0.087276	0.2331	0.23186	0.17063	0.18988	0.26888	0.16682	0.14936	0.12271	0.0628	0.099363	0.14998	0.22789	0.2127	0.18908	-2.1833	-3.3104	-2.9833	-2.925	-3.3875	-2.6063	-3.1333	-3.3312	-2.6562	-3.3438	-3.0833	-2.7917	-3.4854	-2.9875	-2.9854	-3.4896	246.047	257.892	247.993	-31.755	235.510	10.264	207.871	212.059	34.473	20.266	207.564	144.078	193.071	249.596	38.910	216.974	0.00050087	0.0037315	0.00043121	650.77	2.0295e-05	3.5355e-06	1006.1	208.93	2.4227e-05	3.7461e-05	356.36	122.62	74.567	35.563	2.1439e-05	50.775	0.023802	0.027723	0.0077436	1151.4	0.0002993	0.00030785	1361.1	349.47	0.00029953	0.00030956	583.29	203.42	151.11	60.595	0.00030616	85.78	241.576	-73.211	71.275	-70.043	203.719	227.517	-70.527	-65.627	265.395	150.462	-67.689	-64.015	-64.010	-60.245	-68.494	-61.873	-8191	255	
21701.062	1	1	0	0	0.22476	0.076323	0.17424	0.18512	0.17958	0.14515	0.18997	0.17103	0.15874	0.039454	0.063021	0.1053	0.12776	0.12011	0.11982	0.14705	-2.3375	-3.0896	-2.8937	-2.7896	-3.4229	-2.7625	-3.0833	-3.3667	-2.6771	-3.3625	-3.3333	-2.8021	-3.5104	-2.8458	-2.8063	-3.5104	23.462	15.923	-23.925	145.646	125.802	164.028	236.978	105.954	223.314	254.003	7.938	143.243	187.731	115.100	33.761	140.311	0.00032799	0.0086333	0.0013262	642.45	2.3226e-05	1.9418e-05	994.72	205.33	1.5151e-05	3.8963e-05	356	122.24	74.053	35.443	4.7535e-05	51.345	0.024084	0.028019	0.0078107	1154	0.00030169	0.00030704	1359.1	348.63	0.00029847	0.00031051	584.64	202.83	151.24	60.717	0.00030824	86.025	-6.248	145.612	-70.081	-69.902	144.967	187.508	-70.219	-66.053	-62.582	-9.908	-68.058	-65.130	-62.567	-59.517	219.514	-62.082	-8191	255	
21701.137	1	1	0	0	0.17771	0.11368	0.12181	0.29028	0.15499	0.12034	0.21645	0.073312	0.23106	0.12245	0.094135	0.26694	0.15264	0.086576	0.10395	0.16224	-2.2062	-3.2646	-3.3042	-2.8542	-3.4792	-2.9625	-2.8333	-3.5292	-2.4562	-3.0854	-3.4833	-2.6646	-3.3208	-3.1104	-2.9604	-3.5625	157.861	-48.782	103.407	227.912	216.702	194.200	210.992	79.813	196.396	144.146	261.395	-12.496	-73.632	78.019	20.380	21.483	0.00018044	0.001782	0.00040403	648.37	1.177e-05	4.421e-05	995.62	210.24	1.0306e-05	2.4193e-05	355.2	123.69	74.123	35.031	8.6347e-06	51.171	0.024376	0.028311	0.0078984	1157.5	0.00030284	0.00030682	1351.3	345.57	0.00028616	0.00029192	566.61	195.95	142.81	57.376	0.00027355	80.932	100.398	189.081	-55.832	-69.617	-66.017	231.125	-71.004	-66.566	-22.029	213.607	-68.158	-64.593	-63.347	-60.182	-10.353	-62.471	-8191	255	
21701.230	1	1	0	0	0.213	0.19349	0.12797	0.14524	0.078032	0.23963	0.098181	0.29044	0.1143	0.040281	0.20157	0.063315	0.053858	0.32063	0.15189	0.1091	-2.1708	-3.025	-3.425	-2.6312	-3.1958	-3.2125	-3.0021	-3.4458	-2.8271	-2.9688	-3.4688	-2.7313	-3.3896	-3.1771	-2.4646	-3.4958	12.720	-43.518	145.655	260.439	140.556	203.385	-62.517	252.914	17.165	44.332	263.717	180.033	236.540	-81.189	257.846	188.485	0.00019801	0.0007737	0.00051309	648.01	4.9915e-05	2.4807e-05	1004.5	212.53	2.2636e-05	4.3698e-05	358.07	123.22	74.261	35.307	2.9379e-05	51.469	0.021443	0.024856	0.0069415	1088.3	0.00026756	0.00027236	1307.5	331.78	0.00026235	0.00026978	550.34	190.17	138.03	55.769	0.00025182	78.31	192.785	-49.327	93.982	-70.512	200.652	142.081	-70.909	-66.401	59.137	138.916	-67.996	-64.796	-62.728	-60.525	149.609	-61.942	-8191	255	
21701.328	1	1	0	0	0.24264	0.060711	0.14491	0.27675	0.0065558	0.065247	0.092116	0.27865	0.059848	0.20983	0.28773	0.11601	0.19412	0.15384	0.13321	0.081354	-2.4375	-2.8708	-3.4167	-2.3979	-3.2646	-3.1896	-2.7667	-3.5375	-2.95	-2.9313	-3.4062	-2.8625	-3.1104	-3.3187	-2.75	-3.3042	112.591	252.407	62.671	271.600	40.950	-54.643	-9.540	50.423	44.845	-10.249	226.172	-69.532	-38.524	137.974	-6.811	3.717	0.00054764	0.0015255	0.00079295	659.55	3.9535e-05	3.4314e-05	1007.4	213.37	7.4783e-06	3.3962e-05	359.87	123.72	76.638	35.862	1.8934e-05	51.618	0.019501	0.022529	0.0062468	1043.2	0.00024273	0.00024759	1273.4	321.39	0.00024244	0.00025069	535.1	185.7	135.32	55.475	0.00024496	77.783	189.308	134.163	77.287	-70.794	246.032	28.754	-70.439	-66.134	144.255	22.285	-67.614	-64.754	-63.449	-60.010	109.292	-62.025	-8191	255	
21701.447	1	1	0	0	0.099549	0.067735	0.074619	0.21365	0.11042	0.12215	0.13525	0.093654	0.21269	0.23728	0.17112	0.090713	0.13817	0.11831	0.11116	0.2521	-2.6042	-2.7687	-3.375	-2.8667	-3.0625	-3.1813	-2.5646	-3.3833	-3.1729	-2.7458	-3.4146	-2.8542	-3.0187	-3.3667	-2.6146	-3.3104	237.835	185.494	195.285	237.555	121.678	88.983	182.232	46.701	160.608	82.482	254.486	154.691	208.313	47.107	20.653	-77.727	0.00049633	0.0020742	0.00096622	666.15	3.9006e-05	3.4083e-05	1015.5	215.01	2.0937e-05	3.2553e-05	362.07	124.59	77.16	36.371	2.935e-05	52.018	0.019075	0.02199	0.0061169	1031.4	0.00023297	0.00023802	1259.6	316.78	0.00023233	0.00024082	532.56	184.6	135.47	55.576	0.00024798	79.032	-12.514	80.402	254.731	-69.833	4.100	154.336	-70.879	-66.544	-39.177	125.928	-68.285	-64.551	-63.271	-60.154	210.528	-61.768	-8191	255	
21701.543	1	1	0	0	0.085795	0.081594	0.05066	0.27224	0.072732	0.16972	0.078553	0.18575	0.20333	0.06163	0.067568	0.23024	0.12477	0.060958	0.31322	0.25265	-2.6021	-2.6667	-3.3729	-2.9792	-3.1667	-3.3458	-2.6208	-3.3104	-3.0604	-2.6229	-3.4604	-3.0771	-3.0625	-3.4896	-2.6146	-3.3875	128.272	84.060	100.207	164.158	131.101	179.025	138.410	-83.501	98.180	218.956	225.720	160.299	103.132	183.057	241.810	165.441	0.00048126	0.00099446	0.0006531	659.58	2.4751e-05	2.72e-05	1012.7	218	3.1476e-06	1.4931e-05	365.06	126	77.563	36.808	3.0322e-05	53.848	0.019873	0.02328	0.0064766	1067.2	0.00025035	0.00025405	1290.7	325.72	0.00024334	0.00024942	540.73	187.31	136.8	56.116	0.00024724	79.778	197.268	43.777	207.033	-70.054	0.880	48.163	-70.091	-66.660	225.508	84.713	-67.979	-64.679	-62.786	-59.839	259.768	-61.842	-8191	255	
21701.639	1	1	0	0	0.16685	0.16426	0.13396	0.26707	0.22122	0.13878	0.20006	0.22452	0.051109	0.08822	0.23875	0.20805	0.11502	0.066799	0.1246	0.11291	-2.8375	-2.6604	-3.4229	-2.9729	-2.7396	-3.5354	-2.7729	-3.2313	-3.1875	-2.575	-3.4771	-2.9208	-3.0396	-3.4688	-2.8229	-3.2604	12.005	233.698	103.314	238.411	53.115	-45.566	155.865	226.215	120.707	-62.531	222.376	271.670	68.357	185.833	260.754	66.314	0.00065968	0.0021352	0.00054578	657.4	2.3141e-05	2.8965e-05	1021.7	214.51	1.566e-05	6.2987e-05	367.74	124.36	78.103	37.791	2.8628e-05	54.424	0.019832	0.023287	0.0065364	1079.8	0.00025643	0.00026426	1312.5	332.14	0.00025917	0.00026683	555.64	191.71	141.59	58.134	0.0002598	81.459	-80.358	229.264	-39.116	-70.610	-41.158	171.974	-70.395	-66.102	254.696	102.919	-67.806	-64.798	-63.881	-60.165	177.335	-62.037	-8191	255	
21701.736	1	1	0	0	0.20795	0.155	0.21094	0.20903	0.31331	0.046423	0.054915	0.19143	0.21096	0.26166	0.14563	0.18889	0.08186	0.083628	0.26118	0.28417	-2.9146	-2.5729	-3.2021	-3.0312	-2.7	-3.3688	-2.9917	-3.1729	-3.4313	-2.7292	-3.4437	-3.3396	-2.7021	-3.5958	-2.7979	-3.0104	95.280	228.372	125.087	-64.219	190.404	-12.542	235.128	-60.818	272.525	241.478	-84.606	192.009	53.095	267.709	114.574	184.571	0.00035156	0.0030096	0.0005247	663.7	2.4913e-05	2.7808e-05	1022.7	214.46	1.407e-05	2.5419e-05	366.11	126.06	77.335	37.351	3.1842e-05	53.721	0.020019	0.023356	0.0064955	1069.4	0.00025086	0.00025573	1296.2	327.13	0.00025048	0.00025947	549.53	191.17	141.07	58.283	0.00026301	81.938	199.080	-15.740	126.093	-70.321	164.191	6.608	-70.998	-66.727	-26.749	38.465	-68.344	-64.906	-63.039	-59.857	136.126	-61.889	-8191	255	
21701.832	1	1	0	0	0.10928	0.13639	0.08006	0.052591	0.15228	0.29896	0.29329	0.2101	0.11177	0.19994	0.17953	0.06342	0.20986	0.072806	0.083836	0.22503	-3.1646	-2.7396	-3.3312	-3.2396	-2.8458	-3.5396	-2.9708	-3.0271	-3.3042	-2.7458	-3.3187	-3.3146	-2.75	-3.6021	-2.9313	-3.05	115.700	109.344	259.893	-30.913	91.926	190.171	257.400	234.865	35.661	163.637	-37.848	198.938	166.662	214.183	-43.000	215.588	0.00026553	0.0066727	0.0015061	660.68	1.1283e-05	4.7789e-05	1017.6	215.2	1.0616e-05	3.068e-05	366.12	125.17	78.303	37.555	3.7858e-05	53.271	0.020615	0.0238	0.0066687	1077.2	0.00025667	0.00026239	1303.9	330.22	0.00025456	0.00026474	554.25	191.83	141.86	58.278	0.00025962	81.365	272.603	-10.902	17.818	-70.290	54.252	2.350	-70.772	-66.471	-70.187	97.160	-67.900	-64.534	-63.001	-59.737	20.548	-61.668	-8191	255	
21701.928	1	1	0	0	0.2513	0.24847	0.12294	0.21819	0.12565	0.13791	0.084833	0.1705	0.21641	0.10143	0.37093	0.15085	0.029338	0.3103	0.14989	0.13858	-2.9667	-2.6437	-3.0042	-3.1646	-2.7417	-3.3104	-3.2292	-2.85	-3.5208	-2.6917	-3.0646	-3.4896	-2.6854	-3.2979	-3.2125	-2.9083	225.898	26.983	46.022	174.480	247.814	71.070	11.498	-69.083	146.383	267.668	223.598	143.312	-80.295	148.223	146.537	238.462	0.00035626	0.0033019	0.0013649	664.98	1.121e-05	1.9602e-05	1029.2	218.41	4.0962e-05	3.8174e-05	366.42	125.64	78.808	37.979	3.7538e-05	54.24	0.020405	0.023582	0.0065771	1076.9	0.00025303	0.00025828	1301.5	329.51	0.00025178	0.0002601	552.49	192.65	142.71	59.182	0.00026732	83.26	180.243	84.424	105.863	-70.119	130.185	112.954	-70.708	-65.755	163.795	11.957	-67.981	-64.720	-63.125	-59.522	46.356	-62.062	-8191	255	
21702.049	1	1	0	0	0.12512	0.090968	0.33647	0.10856	0.18849	0.15581	0.070561	0.3417	0.16618	0.12254	0.23503	0.35376	0.03217	0.26674	0.19723	0.37477	-3.1604	-2.7229	-2.9917	-3.3708	-2.5854	-3.2729	-3.3396	-2.5979	-3.4479	-2.8771	-3.1146	-3.4396	-2.7583	-3.2333	-3.1292	-2.8771	29.268	143.642	189.707	84.829	21.832	273.618	-82.506	178.653	150.258	188.913	-47.905	155.255	224.402	266.830	180.675	223.865	0.00020637	0.0033389	0.00083144	666.36	2.2369e-05	3.4032e-05	1012.9	214.12	2.2285e-05	2.343e-05	370.38	124.9	78.412	37.826	2.1192e-05	54.004	0.021328	0.024789	0.0069583	1106.3	0.00026691	0.00027305	1326.1	337.25	0.00026377	0.00027035	560.47	194.19	142.91	58.588	0.00026559	82.28	224.018	185.035	-71.227	-70.593	88.175	49.139	-70.459	-65.654	43.360	210.137	-67.242	-65.202	-63.301	-59.983	65.393	-62.179	-8191	255	
21702.143	1	1	0	0	0.34222	0.14813	0.24505	0.12014	0.25063	0.20825	0.17792	0.20877	0.1348	0.027793	0.02052	0.11548	0.19919	0.2232	0.027248	0.12819	-2.9625	-2.9646	-3.0375	-3.6229	-2.7812	-3.1167	-3.4583	-2.6271	-3.2917	-2.9708	-2.8833	-3.5167	-2.8729	-3.2042	-3.1333	-2.8396	-27.792	-20.202	237.358	62.727	-22.083	113.001	247.445	177.944	-13.436	89.996	270.354	26.108	-56.614	251.198	274.116	202.439	5.5421e-05	0.00080602	0.00028323	663.02	3.9588e-05	3.91e-05	1026.3	218.1	2.8447e-05	1.2352e-05	368.24	127.07	78.258	37.831	2.5119e-05	53.871	0.020913	0.024158	0.006791	1093.5	0.00025987	0.00026599	1317.8	332.82	0.00025656	0.00026604	555.59	193.15	141.96	58.308	0.00025972	81.914	256.732	92.044	189.584	-69.773	-22.902	156.330	-70.324	-66.153	220.647	107.226	-68.363	-64.576	-63.719	-60.348	104.066	-61.903	-8191	255	
21702.238	1	1	0	0	0.19959	0.26481	0.12745	0.19053	0.21241	0.11121	0.065976	0.21276	0.24142	0.12461	0.17251	0.16527	0.082911	0.32357	0.2207	0.27753	-2.8833	-2.925	-2.8479	-3.5333	-2.7854	-3.1	-3.3771	-2.8104	-3.3583	-2.9667	-2.8896	-3.4313	-2.7521	-3.075	-3.3208	-2.7917	255.819	15.677	56.008	-19.799	127.971	64.169	-63.650	120.324	130.935	-82.204	243.475	-19.289	110.162	196.735	-18.105	208.891	0.00026123	0.003626	0.0014315	662.53	3.8027e-05	2.5941e-05	1033.5	216.45	1.9667e-05	3.0586e-05	366.79	126.16	77.855	37.986	4.0618e-05	54.238	0.020455	0.023661	0.0066001	1079.2	0.00025205	0.00025745	1301.3	327.23	0.00024898	0.00025593	547.45	190.65	139.95	58.064	0.00025827	82.045	-75.377	207.408	-7.267	-69.883	47.680	192.820	-70.736	-66.035	244.636	202.319	-67.278	-63.917	-62.958	-59.525	253.948	-62.101	-8191	255	
21702.312	1	1	0	0	0.21844	0.11453	0.20335	0.14817	0.10254	0.10245	0.2885	0.17753	0.14708	0.039463	0.25345	0.26975	0.19617	0.28826	0.047471	0.20102	-2.7396	-2.8646	-2.6042	-3.6167	-3.0062	-3.0542	-3.7542	-2.9333	-3.1542	-3.1375	-2.7396	-3.3563	-2.8958	-2.7917	-3.5208	-2.9688	-67.919	62.335	44.361	244.317	33.190	121.828	194.201	271.189	-21.519	-37.781	197.417	217.445	73.470	261.539	260.164	245.845	0.00033773	0.0033742	0.00069475	666.58	1.6426e-05	3.8579e-05	1032.5	213.76	4.873e-06	1.3322e-05	365.57	126.32	76.702	37.144	3.0837e-05	52.986	0.020705	0.024192	0.006868	1102.7	0.00026941	0.00027908	1337.2	340.57	0.00027529	0.00028461	571.26	198.86	146.27	59.856	0.00028322	84.362	274.931	116.634	257.602	-69.761	180.894	75.487	-70.649	-66.506	-70.309	-61.590	-68.090	-64.262	-63.068	-60.220	243.092	-61.931	-8191	255	
21702.432	1	1	0	0	0.17578	0.1931	0.066187	0.019386	0.078949	0.13502	0.20217	0.12564	0.15876	0.16438	0.19046	0.15699	0.35532	0.087732	0.16969	0.30527	-2.8125	-3.3167	-2.6625	-3.3604	-2.9958	-2.8187	-3.6188	-2.9208	-3.1479	-3.5833	-2.9458	-3.4583	-3.0292	-2.8083	-3.5021	-2.7562	-3.112	208.243	128.758	52.954	225.155	98.708	202.383	-64.133	244.475	169.013	141.447	229.547	134.474	240.951	204.579	223.730	0.0004004	0.0010619	0.00078902	663.1	8.5519e-06	4.7927e-05	1035.7	214.74	2.1495e-05	1.7057e-05	361.44	125.63	76.447	36.811	3.8267e-05	53.04	0.022557	0.026393	0.0074722	1148.3	0.00029146	0.00029915	1372	351.39	0.00029524	0.0003068	591.53	205.67	152.94	61.997	0.0003079	87.415	261.212	35.413	48.155	-69.902	172.631	260.832	-70.505	-66.244	197.925	35.924	-68.129	-64.096	-62.911	-60.106	-6.433	-61.979	-8191	255	
21702.527	1	1	0	0	0.16177	0.014586	0.26526	0.15348	0.18233	0.26421	0.19774	0.06352	0.19599	0.051205	0.061111	0.25893	0.16711	0.30431	0.047143	0.16491	-2.6229	-3.3146	-2.7812	-3.5438	-3.1792	-2.8	-3.5271	-2.8646	-2.9396	-3.4562	-2.7833	-3.4292	-3.225	-2.8521	-3.5125	-2.9167	109.873	187.589	211.083	-72.287	-13.565	106.289	216.343	225.568	10.048	96.700	-14.113	211.797	172.331	260.173	222.196	-41.614	0.00055697	0.0039457	0.00078133	660.47	2.482e-05	3.267e-05	1016.8	212.16	6.0575e-06	3.6254e-06	359.41	124.22	76.245	36.196	1.2032e-05	52.169	0.024718	0.028828	0.0081244	1201.4	0.00031812	0.00033013	1420.9	368.85	0.00032899	0.00034262	621.83	218.19	165.23	66.247	0.00035411	93.371	13.660	-79.068	220.365	-69.926	92.760	13.481	-70.446	-66.051	259.983	-39.194	-68.717	-64.345	-63.240	-59.866	-2.725	-61.574	-8191	255	
21702.623	1	1	0	0	0.078336	0.2271	0.12361	0.13545	0.28959	0.036205	0.27339	0.12716	0.23045	0.17759	0.11143	0.18989	0.10777	0.074567	0.11165	0.16327	-2.4437	-3.3833	-2.6937	-3.2875	-3.3458	-2.9208	-3.625	-2.9208	-2.9271	-3.4583	-2.9271	-3.3396	-3.3604	-2.7313	-3.6229	-2.9625	-24.855	130.506	34.505	192.642	232.929	136.237	217.658	-65.669	243.048	-15.250	-81.839	259.939	-6.874	264.741	-62.346	204.934	0.0003322	0.0034404	0.0026693	668.71	2.4011e-05	1.7936e-05	1018.8	211.86	1.2623e-05	2.9405e-05	360.13	122.91	75.43	36.188	4.1844e-05	52.196	0.028535	0.033525	0.0094189	1296.9	0.00036801	0.00037684	1491.9	388.05	0.00036606	0.00037798	649.77	225.37	170.8	68.01	0.0003737	95.536	-76.811	242.346	230.210	-69.863	98.596	-0.432	-70.299	-66.574	20.913	238.515	-68.146	-64.384	-64.053	-60.698	4.495	-62.403	-8191	255	
21702.721	1	1	0	0	0.15593	0.085751	0.1664	0.22177	0.21431	0.10976	0.36862	0.0070366	0.24883	0.22605	0.16349	0.11543	0.17483	0.28028	0.26641	0.21635	-2.4188	-3.5375	-2.8167	-3.2812	-3.375	-2.5687	-3.325	-3.0979	-2.7583	-3.3625	-2.8854	-3.0417	-3.5917	-2.9188	-3.3208	-3.175	209.809	159.043	11.985	252.640	158.130	-23.098	196.653	179.666	81.249	235.305	245.735	88.302	-57.636	251.876	14.619	261.548	0.0003897	0.0048781	0.0016681	662.33	4.2412e-05	8.0021e-05	1020.1	210.37	8.1355e-06	3.8053e-05	357.81	122.23	74.997	35.626	2.6656e-05	52.08	0.029457	0.034335	0.0095973	1307	0.00037061	0.00037639	1489.2	387.38	0.00036378	0.00037202	642.48	223.33	168.82	67.126	0.00036185	93.834	191.432	41.582	52.209	-70.469	148.979	145.125	-70.216	-66.504	35.201	-60.669	-68.364	-64.970	-63.384	-60.383	72.226	-62.084	-8191	255	
21702.840	1	1	0	0	0.11432	0.27394	0.31437	0.19059	0.14137	0.16816	0.29598	0.03123	0.005091	0.14241	0.26642	0.11472	0.22664	0.25092	0.20146	0.19859	-2.3125	-3.5354	-2.7333	-3.1	-3.5604	-2.8208	-3.4271	-3.4896	-2.6312	-3.5312	-2.9875	-2.9938	-3.4479	-2.6958	-3.1875	-3.3458	-5.306	-48.527	-32.977	225.293	173.347	78.305	203.829	268.715	63.437	-53.273	199.983	-82.577	249.137	271.562	162.221	233.164	0.00083674	0.0034901	0.00053568	655.6	2.5253e-05	4.8863e-05	1014.6	210.67	1.9994e-05	1.7598e-05	352.81	122.57	74.142	35.778	2.2148e-05	51.242	0.028763	0.033386	0.0093155	1283.6	0.00035972	0.00036878	1473.7	384.19	0.00035949	0.0003725	640.84	224.18	170.43	67.507	0.00037212	94.566	149.744	10.678	-49.712	-69.893	57.165	11.986	-70.805	-66.345	61.276	225.383	-68.006	-64.512	-63.602	-59.987	85.988	-62.248	-8191	255	
21702.938	1	1	0	0	0.20598	0.12615	0.24897	0.11491	0.15495	0.11097	0.14189	0.16269	0.16208	0.18433	0.17003	0.16069	0.36382	0.12052	0.15968	0.37144	-2.2958	-3.2687	-3.1229	-2.8063	-3.4083	-2.8563	-3.0917	-3.3542	-2.7417	-3.4042	-3.2167	-2.8771	-3.5062	-2.8792	-2.95	-3.4	193.386	110.829	198.538	134.145	159.748	-66.524	192.828	262.596	101.818	22.586	99.525	259.690	140.665	266.842	75.762	229.831	0.00064557	0.0014636	0.00050187	657.59	4.821e-05	4.0124e-05	1012	208.02	2.7036e-05	5.2042e-05	353.44	121.94	74.324	35.527	3.2287e-05	50.84	0.029544	0.034336	0.0095825	1301.6	0.00037139	0.00037666	1482.4	387.02	0.00036644	0.00037883	646.36	224.9	172.51	67.943	0.00037993	95.646	-76.971	98.337	238.600	-70.375	204.915	265.816	-70.893	-67.612	267.431	228.549	-68.251	-64.489	-63.494	-59.347	167.051	-62.739	-8191	255	
21703.008	1	1	0	0	0.29152	0.014175	0.062466	0.28084	0.062943	0.18418	0.23743	0.12464	0.10522	0.17818	0.09367	0.13619	0.070144	0.18344	0.15399	0.15507	-2.3063	-3.2833	-3.0146	-2.9021	-3.3604	-2.9542	-3.075	-3.4104	-2.7188	-3.475	-3.3354	-2.825	-3.4417	-3.0438	-2.9062	-3.5333	-16.457	1.757	210.335	181.871	52.181	77.072	190.664	-69.599	26.974	204.977	-12.395	-54.353	-80.009	-42.466	229.449	130.807	0.00019034	0.0007159	0.0013607	655.93	1.2872e-05	2.0039e-05	1005.3	206.27	7.1872e-06	3.0391e-05	359.13	120.33	74.414	34.903	1.9293e-05	50.086	0.030194	0.035259	0.009875	1322	0.00038116	0.00038666	1492.9	391.43	0.00037545	0.00038882	656.99	228.43	174.32	68.69	0.00039215	96.679	260.955	132.932	211.869	-70.287	219.069	10.299	-70.480	-66.098	110.076	128.184	-67.998	-64.471	-63.088	-59.976	-61.485	-62.483	-8191	255	
21703.129	1	1	0	0	0.074717	0.1686	0.069003	0.14931	0.052422	0.23447	0.46983	0.14511	0.13207	0.15935	0.09665	0.097453	0.15201	0.19257	0.13247	0.11257	-2.1854	-3.1708	-3.1646	-2.6979	-3.3812	-2.9417	-3.0146	-3.6479	-2.8417	-3.1792	-3.3146	-2.8479	-3.4375	-3.1479	-2.9104	-3.5479	65.844	198.589	-5.112	264.125	156.490	38.113	231.704	265.621	37.320	207.211	80.306	155.851	-60.662	-71.716	-76.913	159.204	0.00028783	0.0050801	0.0013057	642.8	3.1538e-05	5.0104e-05	997.58	206.13	1.0061e-05	5.704e-05	349.71	121.6	73.352	34.497	2.6305e-05	50.174	0.03098	0.0361	0.010136	1339.7	0.0003929	0.00039906	1516.3	399.64	0.00039413	0.00040802	671.74	234.06	179.59	70.24	0.00041257	99.304	-25.263	26.643	-18.452	-70.300	-64.963	68.707	-69.925	-66.052	274.257	66.604	-68.862	-65.180	-63.843	-60.158	80.406	-62.138	-8191	255	
21703.223	1	1	0	0	0.13996	0.012718	0.19597	0.2345	0.16495	0.30521	0.17777	0.12788	0.24743	0.12366	0.29022	0.14313	0.19352	0.31233	0.093285	0.22948	-2.4375	-3.2042	-3.3625	-2.7875	-3.4062	-3.1688	-3	-3.4083	-2.7917	-3.1229	-3.5	-2.7125	-3.375	-3.0208	-2.8396	-3.5125	197.274	-54.960	112.605	267.100	234.965	248.793	232.374	-8.162	273.465	-48.851	165.207	60.137	191.636	-44.017	130.939	196.229	0.00078915	0.0074268	0.0014227	642.27	2.6845e-05	7.3844e-06	988.87	205.38	4.2559e-05	2.405e-05	347.24	117.66	71.855	34.115	1.9712e-05	49.021	0.032648	0.038276	0.010738	1382.8	0.00041934	0.00043087	1558.7	416.29	0.0004237	0.0004374	693.96	240.46	184.26	71.301	0.00042431	99.402	-76.889	173.429	205.981	-70.339	108.115	106.149	-70.469	-65.744	-11.455	216.588	-67.561	-64.934	-62.134	-59.725	62.373	-61.698	-8191	255	
21703.320	1	1	0	0	0.10362	0.12174	0.064038	0.062025	0.13601	0.091328	0.11627	0.31359	0.12096	0.12442	0.33199	0.24897	0.19125	0.19981	0.091083	0.027689	-2.5396	-3.1167	-3.5792	-2.7438	-3.3	-3.1937	-2.7646	-3.5563	-3.1188	-2.9833	-3.4479	-2.8542	-3.3271	-3.4083	-2.6604	-3.65	95.532	208.159	236.418	27.650	-79.053	133.322	162.964	209.983	-26.765	-56.030	228.485	221.291	204.423	-58.527	58.324	182.797	0.00074988	0.0032241	0.0011093	648.48	1.7641e-05	2.4572e-05	992.37	204.66	3.0876e-05	4.4138e-05	346.96	119.06	73.881	34.149	3.8892e-05	49.44	0.032823	0.038079	0.010604	1363.4	0.00040322	0.00041075	1511	399.41	0.00038948	0.00040069	656.57	227.39	173.37	67.573	0.00038116	94.198	137.964	104.906	73.901	-69.869	257.273	174.589	-70.875	-66.387	246.898	37.305	-68.569	-65.180	-62.650	-59.787	151.535	-62.154	-8191	255	
#DATA ENDS
