BOXY.EXE: ISS Imagent and Oximeter Data Acquisition Program Version 0.80
Ascii Record File

#ACQ INFORMATION
2  Detector Channels 
16  External MUX Channels 
1  Auxiliary Channels 
5000  Waveform (CCF) Frequency (Hz)
1  Waveforms Skipped 
30  Waveforms Averaged 
1  Cycles Averaged 
16  Acquisitions per Waveform 
10.0806  Updata Rate (Hz) 

#FILE INFORMATION
TRUE -- External MUX Channel results are PARSED.
FALSE -- AC DC and Phase are NOT grouped.
TRUE -- Companion Program Settings File CREATED.
FALSE -- AC data not excluded
FALSE -- DC data not excluded
FALSE -- Phase data not excluded
FALSE -- Auxillary Chn. data not excluded
Tab delimiters

#CALIBRATION STATE
TRUE -- Waveform Calibration Values APPLIED.


#AUX CALIBRATION VALUES
Val Type	aux-1	

Term	1.0000e+00	
Factor	0.0000e+00	


#WF CALIBRATION VALUES
A = Detector Channel
Val Type	A-AC1	A-AC2	A-AC3	A-AC4	A-AC5	A-AC6	A-AC7	A-AC8	A-AC9	A-AC10	A-AC11	A-AC12	A-AC13	A-AC14	A-AC15	A-AC16	A-DC1	A-DC2	A-DC3	A-DC4	A-DC5	A-DC6	A-DC7	A-DC8	A-DC9	A-DC10	A-DC11	A-DC12	A-DC13	A-DC14	A-DC15	A-DC16	A-Ph1	A-Ph2	A-Ph3	A-Ph4	A-Ph5	A-Ph6	A-Ph7	A-Ph8	A-Ph9	A-Ph10	A-Ph11	A-Ph12	A-Ph13	A-Ph14	A-Ph15	A-Ph16	

Term	0.00000e+00	0.00000e+00	0.00000e+00	0.00000e+00	0.00000e+00	0.00000e+00	0.00000e+00	0.00000e+00	0.00000e+00	0.00000e+00	0.00000e+00	0.00000e+00	0.00000e+00	0.00000e+00	0.00000e+00	0.00000e+00	0.00000e+00	0.00000e+00	0.00000e+00	0.00000e+00	0.00000e+00	0.00000e+00	0.00000e+00	0.00000e+00	0.00000e+00	0.00000e+00	0.00000e+00	0.00000e+00	0.00000e+00	0.00000e+00	0.00000e+00	0.00000e+00	0.00000e+00	0.00000e+00	0.00000e+00	0.00000e+00	0.00000e+00	0.00000e+00	0.00000e+00	0.00000e+00	0.00000e+00	0.00000e+00	0.00000e+00	0.00000e+00	0.00000e+00	0.00000e+00	0.00000e+00	0.00000e+00	
Factor	1.00000e+00	1.00000e+00	1.00000e+00	1.00000e+00	1.00000e+00	1.00000e+00	1.00000e+00	1.00000e+00	1.00000e+00	1.00000e+00	1.00000e+00	1.00000e+00	1.00000e+00	1.00000e+00	1.00000e+00	1.00000e+00	1.00000e+00	1.00000e+00	1.00000e+00	1.00000e+00	1.00000e+00	1.00000e+00	1.00000e+00	1.00000e+00	1.00000e+00	1.00000e+00	1.00000e+00	1.00000e+00	1.00000e+00	1.00000e+00	1.00000e+00	1.00000e+00	X	X	X	X	X	X	X	X	X	X	X	X	X	X	X	X	

B = Detector Channel
Val Type	B-AC1	B-AC2	B-AC3	B-AC4	B-AC5	B-AC6	B-AC7	B-AC8	B-AC9	B-AC10	B-AC11	B-AC12	B-AC13	B-AC14	B-AC15	B-AC16	B-DC1	B-DC2	B-DC3	B-DC4	B-DC5	B-DC6	B-DC7	B-DC8	B-DC9	B-DC10	B-DC11	B-DC12	B-DC13	B-DC14	B-DC15	B-DC16	B-Ph1	B-Ph2	B-Ph3	B-Ph4	B-Ph5	B-Ph6	B-Ph7	B-Ph8	B-Ph9	B-Ph10	B-Ph11	B-Ph12	B-Ph13	B-Ph14	B-Ph15	B-Ph16	

Term	0.00000e+00	0.00000e+00	0.00000e+00	0.00000e+00	0.00000e+00	0.00000e+00	0.00000e+00	0.00000e+00	0.00000e+00	0.00000e+00	0.00000e+00	0.00000e+00	0.00000e+00	0.00000e+00	0.00000e+00	0.00000e+00	0.00000e+00	0.00000e+00	0.00000e+00	0.00000e+00	0.00000e+00	0.00000e+00	0.00000e+00	0.00000e+00	0.00000e+00	0.00000e+00	0.00000e+00	0.00000e+00	0.00000e+00	0.00000e+00	0.00000e+00	0.00000e+00	-2.80792e+01	-1.26731e+02	-1.22018e+02	-1.83776e+02	-5.40367e+01	-5.85387e+01	-1.56154e+02	-1.62015e+02	-3.33067e+01	-7.23125e+01	-1.69848e+02	-1.70119e+02	-1.79176e+02	-1.76608e+02	-5.86712e+01	-1.49440e+02	
Factor	2.52474e-05	1.47901e-04	3.78751e-05	1.73751e-01	1.70863e-06	1.59019e-06	1.53219e-01	4.81282e-02	1.39630e-06	1.50569e-06	8.24633e-02	2.87923e-02	2.45327e-02	8.81194e-03	1.71434e-06	1.25282e-02	7.24671e-06	9.23466e-06	2.57945e-06	9.15544e-02	9.73687e-08	1.02327e-07	7.57850e-02	2.54859e-02	9.67483e-08	1.02096e-07	4.23445e-02	1.47771e-02	1.31307e-02	4.71386e-03	9.89239e-08	6.47113e-03	X	X	X	X	X	X	X	X	X	X	X	X	X	X	X	X	



#DISTANCE SETTINGS
A = Detector Channel
A-1	A-2	A-3	A-4	A-5	A-6	A-7	A-8	A-9	A-10	A-11	A-12	A-13	A-14	A-15	A-16	

2.5000e+00	3.0000e+00	2.5000e+00	3.0000e+00	2.0000e+00	3.0000e+00	1.5000e+00	3.0000e+00	3.0000e+00	3.0000e+00	3.0000e+00	3.0000e+00	3.0000e+00	3.0000e+00	1.5000e+00	3.0000e+00	

B = Detector Channel
B-1	B-2	B-3	B-4	B-5	B-6	B-7	B-8	B-9	B-10	B-11	B-12	B-13	B-14	B-15	B-16	

1.0000e+01	1.0000e+01	1.0000e+01	1.4400e+00	1.0000e+01	1.0000e+01	1.5100e+00	1.9400e+00	1.0000e+01	1.0000e+01	1.9900e+00	2.4900e+00	2.4100e+00	2.9000e+00	1.0000e+01	2.9800e+00	




#DATA BEGINS
time	group	step	mark	flag	A-AC1	A-AC2	A-AC3	A-AC4	A-AC5	A-AC6	A-AC7	A-AC8	A-AC9	A-AC10	A-AC11	A-AC12	A-AC13	A-AC14	A-AC15	A-AC16	A-DC1	A-DC2	A-DC3	A-DC4	A-DC5	A-DC6	A-DC7	A-DC8	A-DC9	A-DC10	A-DC11	A-DC12	A-DC13	A-DC14	A-DC15	A-DC16	A-Ph1	A-Ph2	A-Ph3	A-Ph4	A-Ph5	A-Ph6	A-Ph7	A-Ph8	A-Ph9	A-Ph10	A-Ph11	A-Ph12	A-Ph13	A-Ph14	A-Ph15	A-Ph16	B-AC1	B-AC2	B-AC3	B-AC4	B-AC5	B-AC6	B-AC7	B-AC8	B-AC9	B-AC10	B-AC11	B-AC12	B-AC13	B-AC14	B-AC15	B-AC16	B-DC1	B-DC2	B-DC3	B-DC4	B-DC5	B-DC6	B-DC7	B-DC8	B-DC9	B-DC10	B-DC11	B-DC12	B-DC13	B-DC14	B-DC15	B-DC16	B-Ph1	B-Ph2	B-Ph3	B-Ph4	B-Ph5	B-Ph6	B-Ph7	B-Ph8	B-Ph9	B-Ph10	B-Ph11	B-Ph12	B-Ph13	B-Ph14	B-Ph15	B-Ph16	aux-1	digaux	

25548.119	1	1	0	768	0.084675	0.08859	0.12535	0.15251	0.13654	0.15569	0.37318	0.18136	0.06521	0.078999	0.26556	0.061873	0.32153	0.077623	0.11525	0.21526	-2.4979	-3.2792	-3.2729	-2.9604	-3.5021	-3.0417	-3.3688	-3.4417	-2.8937	-3.4	-3.275	-3.025	-3.5583	-2.9062	-3.025	-3.6396	36.871	155.778	240.032	262.775	216.111	28.794	206.278	141.698	191.549	-90.786	250.505	257.625	249.152	261.472	65.276	207.722	0.00031123	0.00078858	0.00016098	875.93	6.1721e-06	1.1487e-05	1457.4	234.58	7.9037e-06	5.4611e-06	550	221.81	90.467	34.926	9.5475e-06	97.726	0.00031191	0.0002229	6.7055e-05	675.47	2.4472e-06	2.6268e-06	1128.1	180.87	2.6156e-06	2.5588e-06	426.55	172.83	70.259	27.375	2.8127e-06	76.331	-69.835	-30.484	-13.696	-83.938	48.564	75.267	-84.095	-79.002	76.929	30.621	-79.621	-75.020	-75.130	-71.840	40.332	-71.924	-8191	255	
25548.215	1	1	0	0	0.11679	0.06909	0.087078	0.27247	0.23893	0.1727	0.10779	0.16956	0.19147	0.19435	0.26906	0.36591	0.1931	0.22662	0.10763	0.21042	-2.3771	-3.3812	-3.1937	-2.9833	-3.425	-3.0625	-3.2438	-3.7271	-2.8167	-3.5146	-3.5417	-2.875	-3.3854	-2.9958	-2.8646	-3.6479	63.026	-19.305	99.455	135.656	32.140	16.416	-70.990	185.324	221.354	159.853	-55.929	217.602	236.466	87.127	171.419	186.660	0.0003149	0.00067298	0.00011919	875.97	7.271e-06	9.4956e-06	1462.8	235.23	2.2518e-06	5.2936e-06	554.51	222.62	90.101	35.162	5.4569e-06	97.681	0.00031981	0.00024149	6.0666e-05	676.28	2.4829e-06	2.426e-06	1131.3	182.03	2.7075e-06	2.5041e-06	430.03	173.6	70.084	27.348	2.6732e-06	76.396	-72.337	-13.863	-5.676	-84.914	65.640	57.216	-83.832	-78.623	84.009	51.679	-79.504	-74.530	-75.001	-70.782	58.753	-72.170	-8191	255	
25548.311	1	1	0	0	0.14073	0.12959	0.16088	0.27377	0.2081	0.16314	0.28144	0.24404	0.27179	0.13194	0.1553	0.29196	0.28256	0.07908	0.15182	0.086943	-2.3583	-3.0708	-3.3854	-2.8146	-3.5833	-3.0187	-2.9896	-3.7188	-2.8542	-3.0646	-3.4521	-2.8958	-3.5604	-3.1813	-2.7604	-3.6979	52.561	-33.735	29.946	239.219	27.379	141.069	189.435	205.218	-13.210	243.028	228.686	248.970	165.082	139.422	83.070	162.363	0.00031503	0.00071786	0.00018771	878.85	4.627e-06	2.3308e-06	1476.7	234.75	3.3305e-06	5.489e-06	548.9	222.29	89.093	34.939	5.9029e-06	98.599	0.00032283	0.00026161	6.6217e-05	676.29	2.5679e-06	2.6339e-06	1137.6	181.3	2.8184e-06	2.5413e-06	427.57	172.95	69.683	27.34	2.8096e-06	76.827	-70.048	-10.871	-0.283	-83.332	57.343	-4.261	-83.798	-78.474	123.720	26.700	-79.685	-75.192	-74.569	-71.326	63.812	-71.765	-8191	255	
25548.408	1	1	0	0	0.071095	0.17328	0.056489	0.23883	0.091822	0.047778	0.33955	0.14101	0.09889	0.2729	0.20905	0.11291	0.16111	0.19108	0.30198	0.19079	-2.5042	-3.1521	-3.5187	-2.8083	-3.3125	-3.2667	-2.9979	-3.5854	-3.0979	-3.0896	-3.5771	-2.8042	-3.4896	-3.4	-2.9396	-3.5854	201.833	65.057	218.680	229.778	-16.417	251.953	214.052	172.552	212.911	-6.948	176.845	112.236	-76.419	114.513	137.170	147.698	0.00032835	0.00078812	0.00017081	879.23	6.632e-06	8.4297e-06	1475.2	234.72	7.1873e-06	2.3548e-06	546.79	222.86	89.923	34.84	8.9634e-06	97.367	0.00031039	0.00023716	6.2691e-05	676.31	2.6194e-06	2.5217e-06	1135.9	181.41	2.6642e-06	2.6202e-06	425.66	173.52	69.975	27.365	2.6817e-06	76.282	-64.019	-22.167	7.245	-84.070	77.616	42.539	-84.180	-78.733	77.163	80.655	-80.035	-74.691	-75.223	-71.246	119.586	-71.699	-8191	255	
25548.504	1	1	0	0	0.084951	0.20788	0.11245	0.20684	0.15749	0.22945	0.21945	0.25325	0.10643	0.17424	0.17166	0.22228	0.0097446	0.15643	0.22112	0.13141	-2.7271	-2.9479	-3.5271	-3	-3.3125	-3.3875	-2.9396	-3.5854	-3.2188	-2.9625	-3.6354	-3.0021	-3.2042	-3.5875	-2.6729	-3.6437	186.671	-41.776	-78.981	-20.081	241.467	110.680	260.391	43.791	46.836	255.004	166.573	205.266	-53.817	141.686	28.782	149.434	0.00031024	0.0010202	0.00015062	875.05	7.8276e-06	9.6246e-06	1461.1	234.91	7.2057e-06	5.8395e-06	558.35	222.92	90.187	35.397	9.5544e-06	99.203	0.00031466	0.0002548	6.5599e-05	674.28	2.5389e-06	2.5731e-06	1131.8	182.21	2.6751e-06	2.6366e-06	432.17	173.01	69.952	27.41	2.983e-06	77.044	-50.584	-16.922	-21.447	-83.763	73.862	64.212	-83.832	-79.013	100.332	42.442	-79.901	-75.147	-74.893	-71.285	47.734	-72.159	-8191	255	
25548.600	1	1	0	0	0.22722	0.024126	0.061655	0.34352	0.1848	0.11346	0.3449	0.18457	0.31371	0.1856	0.068875	0.19858	0.14191	0.15235	0.19796	0.14505	-2.6208	-2.8125	-3.4917	-2.8667	-3.2167	-3.3063	-3.1208	-3.5542	-3.2521	-2.8937	-3.7229	-3.0312	-3.0333	-3.4979	-2.7479	-3.7167	200.814	-11.820	-10.179	248.887	80.477	65.382	204.706	6.437	33.267	252.279	82.455	261.090	63.591	-68.837	136.528	256.535	0.00028754	0.00083177	0.00023123	883.11	1.0533e-05	9.7968e-06	1478.5	239.09	4.2611e-06	5.2659e-06	561.14	222.27	90.246	35.389	1.0499e-05	98.321	0.00031319	0.00024289	6.5394e-05	679.28	2.8466e-06	2.665e-06	1137.9	183.94	2.555e-06	2.6932e-06	431.65	173.55	70.433	27.538	2.7103e-06	76.83	-70.660	1.114	11.931	-84.024	72.893	45.521	-83.833	-78.724	35.218	-16.632	-79.739	-75.254	-75.707	-71.188	60.452	-72.016	-8191	255	
25548.721	1	1	0	0	0.18434	0.22487	0.21498	0.15458	0.25001	0.06772	0.26333	0.28464	0.12013	0.1292	0.047331	0.21425	0.22894	0.16862	0.20304	0.45779	-2.8646	-2.6521	-3.5083	-3.0833	-3.1312	-3.3583	-2.9146	-3.35	-3.2146	-2.8354	-3.6604	-3.1292	-3.0208	-3.6146	-2.9333	-3.2375	247.628	-50.349	103.040	216.211	121.710	168.254	217.490	218.338	198.748	134.108	226.257	245.505	218.026	241.963	44.542	-71.034	0.00025102	0.00073385	0.00013484	877.64	5.6303e-06	2.0024e-06	1474.7	235.51	2.5214e-06	7.5339e-06	558.25	223.5	90.059	34.957	7.586e-06	98.664	0.00030361	0.00026263	6.7909e-05	674.9	2.477e-06	2.5264e-06	1139.1	182.63	2.5423e-06	2.5988e-06	432.36	173.25	70.213	27.386	2.8861e-06	76.896	-57.851	-5.791	-0.674	-84.606	96.568	49.269	-83.704	-78.992	6.648	68.502	-79.244	-75.171	-74.858	-71.341	62.184	-72.261	-8191	255	
25548.816	1	1	0	0	0.11639	0.17256	0.24465	0.19466	0.12738	0.11286	0.23499	0.29066	0.10006	0.055483	0.074867	0.39919	0.11237	0.051999	0.24387	0.30742	-2.9708	-2.9	-3.5917	-3.2104	-2.875	-3.5792	-3.0271	-3.3625	-3.5083	-2.6333	-3.8333	-3.2771	-3.0854	-3.6146	-2.9667	-3.4458	111.604	-41.649	-39.269	220.616	-9.285	183.382	248.586	226.833	89.457	174.001	193.795	224.250	120.946	196.432	99.505	221.101	0.00031522	0.00072457	0.00021407	879.99	1.0374e-05	4.094e-06	1459.5	235.82	5.8565e-06	3.3662e-06	562.38	222.29	89.77	35.254	6.7644e-06	99.055	0.000317	0.00024314	6.7952e-05	676.14	2.7215e-06	2.4544e-06	1132.2	182.22	2.592e-06	2.6662e-06	432.27	173.17	70.051	27.47	2.5125e-06	76.841	-49.914	-12.533	6.087	-84.272	74.967	62.736	-84.143	-78.901	79.494	45.897	-79.531	-75.140	-75.254	-70.758	72.881	-71.917	-8191	255	
25548.910	1	1	0	0	0.24061	0.23954	0.10722	0.25474	0.14763	0.11384	0.27021	0.032265	0.027313	0.13391	0.2695	0.059278	0.20392	0.22753	0.26494	0.216	-3.1375	-2.8458	-3.4708	-3.2542	-2.8292	-3.5521	-2.9167	-3.0479	-3.4688	-2.7458	-3.5958	-3.5396	-2.6646	-3.5458	-2.9625	-3.3604	6.708	146.310	201.391	259.919	69.027	197.979	226.967	-32.343	181.369	55.020	201.938	210.666	220.248	235.489	-61.953	220.357	0.00030113	0.00055779	0.00022804	879.65	4.9758e-06	4.2839e-06	1475.8	237.32	3.9932e-06	1.1835e-05	561.05	223.86	90.555	35.642	7.9496e-06	99.585	0.00031161	0.00025449	6.8103e-05	675.39	2.5967e-06	2.5467e-06	1138.2	183.43	2.4913e-06	3.0324e-06	432.7	173.63	70.632	27.803	2.6101e-06	77.373	-56.886	-20.279	13.095	-84.397	47.655	103.958	-84.314	-79.097	88.441	55.934	-79.213	-75.353	-74.240	-71.405	44.013	-72.021	-8191	255	
25549.010	1	1	0	0	0.19903	0.083433	0.078141	0.050238	0.31831	0.18169	0.29099	0.14178	0.17947	0.23348	0.0080284	0.14423	0.20356	0.12469	0.44615	0.29423	-3.0438	-2.875	-3.2167	-3.4708	-2.8167	-3.5146	-3.2271	-2.8125	-3.5521	-2.8583	-3.3625	-3.425	-2.7521	-3.4458	-3.0333	-3.0625	221.020	58.841	145.317	-37.009	161.125	-75.732	203.316	196.668	168.271	169.469	108.713	-89.424	-83.093	217.873	33.554	245.122	0.0003276	0.0009578	0.00015962	882.79	6.1192e-06	7.3717e-06	1485	237.23	3.2772e-06	5.875e-06	562.42	225.62	90.888	35.411	9.5654e-06	98.039	0.00030904	0.000237	6.8458e-05	676.54	2.8422e-06	2.4465e-06	1140.5	182.93	2.4608e-06	2.71e-06	431.62	174.04	70.63	27.59	2.7721e-06	76.617	-42.795	-11.584	-27.782	-84.378	59.599	23.549	-83.858	-78.772	74.913	5.497	-79.711	-75.048	-74.663	-71.124	68.745	-71.910	-8191	255	
25549.104	1	1	0	0	0.15583	0.1588	0.25233	0.26961	0.3089	0.1109	0.20174	0.10644	0.10253	0.070073	0.11738	0.15552	0.16374	0.22253	0.21213	0.15634	-3.2083	-2.9125	-3.0312	-3.5333	-2.6521	-3.3271	-3.1958	-2.8563	-3.5458	-2.8125	-3.1208	-3.6146	-3.0187	-3.5	-3.1958	-3.0521	84.507	260.046	200.928	212.691	224.817	104.935	262.055	191.943	4.662	-69.295	255.550	248.096	-62.263	223.652	160.594	189.287	0.00031236	0.001076	0.00020819	887.1	7.6006e-06	6.2148e-06	1470.7	234.25	8.0839e-06	6.5337e-06	563.64	222.53	90.137	35.614	1.2526e-05	98.516	0.00031191	0.00025086	7.0553e-05	676.68	2.8375e-06	2.5983e-06	1133	182.22	2.766e-06	2.7145e-06	432.6	173.19	70.415	27.694	2.4824e-06	76.86	-56.454	-11.790	-14.283	-84.416	40.538	60.747	-84.028	-78.990	56.403	3.592	-79.159	-75.124	-74.667	-70.820	64.369	-72.073	-8191	255	
25549.199	1	1	0	0	0.13695	0.14478	0.15573	0.11845	0.16416	0.16561	0.079995	0.32821	0.16961	0.1635	0.039154	0.31197	0.20804	0.30359	0.034652	0.017243	-3.1771	-3	-3.0833	-3.5792	-2.8208	-3.4583	-3.3625	-2.8604	-3.4125	-2.9979	-3.2313	-3.5125	-2.8312	-3.2021	-3.3729	-2.9271	124.475	90.101	29.927	60.440	15.706	235.008	80.948	236.418	12.961	185.410	-83.736	196.309	-46.145	239.820	-90.133	199.809	0.00032125	0.00069323	0.00019415	881.01	8.4558e-06	7.3777e-06	1457.9	237.76	2.9651e-06	7.383e-06	556.71	222.82	89.918	35.28	6.7523e-06	98.113	0.00030169	0.00025917	6.3922e-05	675.62	2.6845e-06	2.6051e-06	1127.5	182.57	2.7364e-06	2.7481e-06	428.65	173.09	69.983	27.49	2.5465e-06	76.461	-67.501	-34.569	10.627	-83.501	41.374	52.647	-83.675	-79.064	66.142	34.075	-79.656	-75.549	-75.125	-70.893	41.072	-71.936	-8191	255	
25549.320	1	1	0	0	0.21192	0.22378	0.22034	0.074314	0.12489	0.22688	0.17351	0.098696	0.12714	0.061024	0.16967	0.19254	0.11053	0.14272	0.070237	0.44013	-3.15	-2.9625	-2.8271	-3.625	-2.8667	-3.2062	-3.4292	-2.8146	-3.6042	-3.2562	-2.9313	-3.5875	-2.9167	-3.2896	-3.4229	-2.8146	198.130	-92.180	1.897	-7.925	-36.990	-94.547	192.351	149.167	222.306	255.452	212.439	-75.566	216.515	216.502	142.264	255.788	0.00029936	0.00053519	0.00020861	871.06	7.2398e-06	6.981e-06	1465.2	235.24	4.464e-06	7.0996e-06	557.04	222.58	90.769	35.15	8.2429e-06	98.314	0.00029641	0.00021513	6.6948e-05	670.43	2.6208e-06	2.4625e-06	1130.6	181.24	2.5005e-06	2.3909e-06	429.33	172.61	70.517	27.42	2.5434e-06	76.672	-62.981	-20.261	-5.247	-83.706	98.614	47.197	-83.935	-78.835	80.242	26.383	-79.612	-75.279	-75.453	-71.500	51.863	-72.073	-8191	255	
25549.416	1	1	0	0	0.072948	0.22502	0.033556	0.15695	0.13837	0.26645	0.1888	0.2233	0.1505	0.022095	0.14714	0.28055	0.15499	0.4261	0.12609	0.41855	-2.9396	-3.0563	-2.825	-3.5854	-2.9417	-3.2562	-3.7271	-2.8438	-3.3875	-3.2771	-2.9208	-3.5667	-2.975	-3.0687	-3.4792	-2.9562	134.146	177.923	-93.528	256.164	126.652	225.872	204.822	178.043	233.668	169.199	240.296	217.995	252.487	-32.027	-77.694	194.016	0.00029329	0.00057352	0.00024946	876.14	1.2166e-05	4.7743e-06	1461.6	233.92	3.0985e-06	3.9707e-06	556.76	222.98	88.969	35.182	4.5056e-06	97.825	0.00031016	0.00023166	6.8022e-05	672.15	2.7495e-06	2.4522e-06	1127.3	180.88	2.4469e-06	2.3086e-06	429.9	173.35	69.65	27.391	2.4951e-06	76.551	-54.958	-15.660	-12.565	-84.267	80.866	31.847	-84.138	-78.589	72.432	-13.905	-79.387	-75.269	-75.241	-70.836	70.591	-71.986	-8191	255	
25549.512	1	1	0	0	0.17895	0.091653	0.14585	0.26957	0.10253	0.17099	0.13124	0.2055	0.08641	0.23146	0.29647	0.2162	0.20794	0.21687	0.055312	0.41097	-3.0187	-3.2562	-2.8187	-3.5604	-2.975	-2.9021	-3.7021	-2.9708	-3.5021	-3.4542	-2.9688	-3.7396	-3.0979	-2.9375	-3.4938	-2.9271	38.746	68.654	65.227	166.640	24.133	189.359	130.508	144.372	59.228	-46.867	63.963	206.225	260.402	251.013	57.022	155.023	0.00030066	0.00094535	0.00025984	869.8	7.5339e-06	6.0657e-06	1450.8	235.54	6.1442e-06	6.0654e-06	556.25	222.31	88.928	35.231	8.678e-06	98.339	0.00030065	0.00025263	6.6184e-05	669.01	2.4085e-06	2.6458e-06	1122.2	180.93	2.382e-06	2.4665e-06	430.29	172.99	69.643	27.511	2.5885e-06	76.318	-61.803	6.544	31.505	-84.082	55.486	94.891	-84.012	-79.085	64.625	28.145	-79.320	-74.900	-74.914	-70.520	41.367	-72.171	-8191	255	
25549.609	1	1	0	0	0.29411	0.31192	0.16688	0.28427	0.10913	0.20855	0.21872	0.13632	0.15829	0.011165	0.16806	0.25872	0.14638	0.24919	0.14089	0.25426	-2.6813	-3.2604	-2.8042	-3.5917	-3.1562	-2.9521	-3.6875	-3.05	-3.1208	-3.5104	-2.8563	-3.4146	-3.1104	-2.8333	-3.5167	-2.9833	190.872	163.614	28.683	205.897	79.219	63.720	234.249	130.013	-48.563	20.593	207.382	247.970	170.159	-58.851	26.778	223.879	0.00025051	0.00099633	3.6797e-05	869.64	7.3305e-06	5.5743e-06	1455	236.5	3.9629e-06	7.139e-06	557.6	223.74	89.514	34.903	7.9281e-06	97.967	0.00030297	0.00024485	6.2783e-05	668.31	2.5933e-06	2.5023e-06	1122.8	181.36	2.4935e-06	2.4828e-06	430.38	173.83	69.758	27.364	2.578e-06	76.683	-67.580	-17.177	4.278	-83.826	41.075	60.722	-83.545	-79.132	100.070	60.384	-79.521	-75.233	-75.228	-71.362	15.002	-72.070	-8191	255	
25549.705	1	1	0	0	0.19179	0.018593	0.19119	0.12232	0.14826	0.21289	0.21959	0.13729	0.13134	0.068956	0.19234	0.23707	0.14595	0.065032	0.16384	0.29368	-2.5833	-3.5958	-2.7417	-3.2938	-3.1437	-2.8063	-3.6813	-3.0417	-2.9938	-3.5812	-2.9667	-3.4292	-3.325	-2.8417	-3.5875	-3.1229	193.659	114.147	11.530	144.711	-36.875	32.369	202.032	94.607	20.664	11.048	169.463	-85.468	-81.318	41.012	247.478	228.211	0.00025309	0.00032348	0.00015115	863.1	3.0378e-06	6.794e-06	1473.9	238.98	3.8319e-06	7.9573e-06	564.41	223.7	90.179	35.405	9.0866e-06	99.148	0.00031182	0.00024474	7.3681e-05	666.82	2.4255e-06	2.6326e-06	1133.1	184.11	2.6118e-06	2.4713e-06	433.92	174.49	70.153	27.408	2.3381e-06	77.274	-50.187	-69.362	-31.911	-84.066	99.335	68.179	-84.028	-78.717	166.407	53.663	-79.807	-75.335	-75.384	-70.907	46.958	-72.351	-8191	255	
25549.801	1	1	0	0	0.10228	0.081032	0.16519	0.27467	0.22363	0.23283	0.3297	0.13801	0.16834	0.16361	0.20535	0.39091	0.09742	0.13459	0.061358	0.012803	-2.5938	-3.3812	-2.7687	-3.1833	-3.2646	-2.8417	-3.6188	-3.1875	-2.8896	-3.6937	-3	-3.3104	-3.5917	-2.6396	-3.4792	-3.225	123.510	173.678	-50.841	196.442	98.601	109.842	226.422	-13.682	-67.942	35.548	213.102	230.482	202.568	230.088	-56.529	-44.461	0.00034483	0.00057765	0.00017644	880.05	7.7672e-06	9.4801e-06	1474.4	237.49	1.3677e-06	7.7214e-06	560.42	223.93	90.414	35.112	7.1339e-06	98.024	0.00030882	0.00025084	6.4771e-05	673.45	2.6434e-06	2.7334e-06	1134.1	183.67	2.5576e-06	2.4811e-06	433.48	174.34	69.826	27.406	2.6398e-06	76.635	-58.987	9.274	3.496	-83.955	73.443	77.218	-83.696	-78.785	79.359	39.606	-80.147	-74.699	-74.570	-70.499	34.035	-72.060	-8191	255	
25549.896	1	1	0	0	0.073227	0.14151	0.1939	0.30021	0.1838	0.098145	0.29999	0.26424	0.12057	0.028757	0.23532	0.32206	0.11408	0.16009	0.25	0.11933	-2.5729	-3.5458	-2.9479	-3.2062	-3.5646	-2.8563	-3.4667	-3.1292	-2.7771	-3.6583	-2.9083	-3.3021	-3.425	-2.8812	-3.4813	-3.3729	256.734	6.090	151.657	-50.769	24.441	-14.699	177.970	225.658	240.314	-85.834	200.281	243.231	189.752	30.514	134.736	223.308	0.00033119	0.0010785	0.00015868	872.52	9.1492e-06	3.5514e-06	1474.3	239.27	4.9335e-06	6.7474e-06	563.96	225.24	89.894	35.532	1.0088e-05	98.875	0.00031267	0.00025657	6.8044e-05	670.09	2.5523e-06	2.429e-06	1131.7	184.25	2.7015e-06	2.5754e-06	434.49	174.64	70.047	27.53	2.6442e-06	77.117	-67.715	-27.502	-8.906	-84.195	49.198	56.830	-83.889	-79.030	75.242	15.992	-79.870	-74.649	-75.344	-71.213	74.509	-71.547	-8191	255	
25549.990	1	1	0	0	0.11687	0.10998	0.29311	0.29953	0.18983	0.29455	0.22115	0.1268	0.27859	0.12638	0.0090145	0.27568	0.16537	0.1596	0.10206	0.36295	-2.3208	-3.4854	-2.9583	-3.0187	-3.5333	-2.9229	-3.5604	-3.2021	-2.8292	-3.5292	-3.0187	-3.2188	-3.5958	-2.8625	-3.3729	-3.4771	-14.109	53.522	56.974	144.542	-60.620	46.756	250.903	219.879	-37.519	78.189	121.884	234.742	254.274	25.042	142.347	209.100	0.00031713	0.0007877	0.00012742	870.84	1.1644e-05	2.8184e-06	1465.6	239.51	7.7334e-06	6.9252e-06	562.38	225.19	89.95	35.632	6.7796e-06	99.162	0.00031034	0.00025041	6.5738e-05	671.19	2.5833e-06	2.3949e-06	1133.1	185.04	2.8885e-06	2.4471e-06	436.11	174.19	70.337	27.701	2.5415e-06	77.24	-57.001	-27.378	-10.568	-83.936	81.978	76.593	-84.240	-78.858	126.529	11.636	-79.677	-75.099	-75.444	-70.731	25.400	-72.221	-8191	255	
25550.090	1	1	0	0	0.28397	0.24894	0.32567	0.088813	0.018967	0.2574	0.27278	0.17855	0.084114	0.18989	0.26625	0.17015	0.068658	0.10885	0.27259	0.14524	-2.4667	-3.6021	-2.8563	-2.9938	-3.5271	-2.975	-3.3	-3.2792	-2.6562	-3.4208	-3.2646	-2.9562	-3.6521	-3.1188	-3.0104	-3.4042	-7.341	115.524	218.757	95.899	-85.260	188.552	192.161	203.640	59.446	105.176	235.948	-31.051	-89.331	-0.680	201.615	263.034	0.00033996	0.00092698	0.0001475	877.64	8.0632e-06	6.905e-06	1472.2	237.29	2.6446e-06	1.0344e-05	566.34	224.6	91.399	35.329	5.6361e-06	98.231	0.00030026	0.00023167	6.1681e-05	674.57	2.3683e-06	2.5484e-06	1134.2	184.48	2.6412e-06	2.6534e-06	437.28	174.79	70.852	27.585	2.3426e-06	76.951	-54.619	-1.460	-45.089	-84.153	79.836	73.224	-83.976	-78.349	114.443	31.763	-80.125	-75.389	-75.333	-70.993	82.647	-72.076	-8191	255	
25550.207	1	1	0	0	0.28475	0.34634	0.18741	0.22842	0.21933	0.10663	0.18228	0.21882	0.03993	0.051225	0.096582	0.14966	0.19373	0.2222	0.061623	0.27101	-2.2708	-3.3563	-3.1375	-2.9542	-3.4229	-2.8833	-3.1	-3.5542	-2.8896	-3.4458	-3.3125	-2.9542	-3.675	-3.0938	-2.9979	-3.6375	-52.234	86.026	49.398	-64.361	197.569	-66.163	228.156	200.337	133.756	147.322	216.133	226.976	208.088	193.484	39.730	233.683	0.00035084	0.00082989	0.00011982	880.22	9.419e-06	8.212e-06	1483.5	240.65	4.1881e-06	9.7583e-06	563.28	223.29	91.006	35.58	8.5109e-06	99.194	0.00033179	0.00022927	6.6502e-05	676.05	2.3833e-06	2.5688e-06	1140.9	185.49	2.5697e-06	2.3214e-06	435.67	174.04	70.793	27.517	2.6905e-06	77.12	-61.411	-15.189	-8.907	-84.223	71.927	63.408	-83.832	-79.291	92.146	74.920	-79.823	-75.102	-74.699	-71.450	31.837	-72.429	-8191	255	
25550.281	1	1	0	0	0.0422	0.24341	0.080067	0.31196	0.15767	0.11569	0.16495	0.31476	0.093217	0.31786	0.022543	0.094247	0.21059	0.056942	0.057126	0.34887	-2.3625	-3.2833	-3.3688	-2.9083	-3.4146	-2.9458	-3.0833	-3.5479	-2.9771	-3.2271	-3.6917	-2.9833	-3.5542	-3.0687	-3.0187	-3.6708	165.505	111.073	173.587	148.532	182.610	115.696	213.447	188.947	52.779	-22.740	70.703	184.083	-71.111	-80.283	-63.009	185.470	0.00023095	0.00091064	0.0001771	863.7	1.1976e-05	8.7491e-06	1479.6	238.24	5.0685e-06	4.5951e-06	563.56	226.12	89.956	35.358	4.1022e-06	98.368	0.00032529	0.00021149	5.8516e-05	671.17	2.4768e-06	2.6317e-06	1139.8	184.18	2.7251e-06	2.6758e-06	437.46	174.93	70.384	27.542	2.64e-06	76.893	-48.878	9.889	28.133	-83.864	62.796	73.510	-83.965	-78.485	71.078	63.124	-79.214	-75.236	-75.457	-71.252	68.724	-71.466	-8191	255	
25550.400	1	1	0	0	0.26727	0.057903	0.33075	0.10267	0.33619	0.19644	0.13572	0.060297	0.28337	0.182	0.26948	0.29914	0.011714	0.382	0.03453	0.28198	-2.4646	-3.2562	-3.4708	-2.9	-3.425	-3.125	-3.1083	-3.6312	-3.0625	-3.1	-3.5979	-2.825	-3.5396	-3.35	-2.7458	-3.7583	154.951	30.776	9.304	243.844	235.566	128.628	215.365	190.888	172.471	151.631	205.741	239.069	-54.218	143.048	-3.336	-96.302	0.00029437	0.00086856	0.00019944	878.13	4.235e-06	5.2812e-06	1476.9	240.26	6.0685e-06	3.5388e-06	564.97	223.72	91.418	35.719	5.9365e-06	98.382	0.00030531	0.0002402	6.1627e-05	676.22	2.5943e-06	2.5098e-06	1140.9	185.59	2.4987e-06	2.5535e-06	436.37	174.53	70.649	27.663	2.5071e-06	77.018	-62.585	14.715	-3.453	-83.874	69.687	72.066	-83.559	-78.615	106.079	-2.289	-80.025	-75.137	-75.157	-71.079	80.401	-71.899	-8191	255	
25550.496	1	1	0	0	0.19307	0.072961	0.22069	0.06713	0.20611	0.1725	0.35251	0.22606	0.037281	0.35807	0.1555	0.21402	0.23462	0.33346	0.044097	0.09768	-2.55	-2.8833	-3.4146	-2.6354	-3.3625	-3.1625	-3.0438	-3.6896	-3.15	-2.9313	-3.4708	-2.8583	-3.3667	-3.3458	-2.6208	-3.7646	-58.622	202.709	-18.381	30.164	174.872	24.423	182.741	140.104	122.395	147.293	223.625	219.368	227.642	-75.244	-49.298	219.325	0.00036579	0.00055002	0.00012365	878.29	7.9793e-06	5.1961e-06	1484.6	239.64	6.1725e-06	4.2854e-06	566.49	224.14	91.304	35.463	6.1642e-06	99.461	0.00030198	0.00025095	6.0735e-05	675.16	2.5987e-06	2.5978e-06	1141.1	184.83	2.7366e-06	2.5975e-06	437.13	174.8	71.061	27.687	2.8634e-06	77.412	-65.764	16.045	-47.779	-83.903	37.703	90.073	-84.172	-78.743	75.610	50.609	-79.448	-75.504	-75.131	-71.095	84.286	-71.980	-8191	255	
25550.594	1	1	0	0	0.11669	0.32254	0.10011	0.14778	0.13057	0.012099	0.55375	0.22448	0.13558	0.046638	0.17084	0.10859	0.17104	0.11371	0.15997	0.16552	-2.6562	-2.9104	-3.5667	-2.9479	-3.3021	-3.4625	-2.9417	-3.5458	-3.0354	-2.8667	-3.5896	-3.0271	-3.3208	-3.5208	-2.8208	-3.6729	114.409	244.360	229.761	188.837	-27.649	240.421	227.169	236.023	214.890	160.892	-91.637	-91.631	233.252	-37.085	228.131	171.919	0.00031315	0.00056828	0.00015907	877.01	7.0933e-06	7.361e-06	1480.2	239.81	5.4416e-06	6.4591e-06	564.92	225.87	89.848	35.462	9.4e-06	99.852	0.0003005	0.00024214	6.1622e-05	675.27	2.7095e-06	2.5309e-06	1139.5	184.9	2.5487e-06	2.6449e-06	435.87	174.48	70.469	27.684	2.7488e-06	77.357	-64.196	19.203	9.010	-84.221	75.031	67.860	-84.335	-78.502	29.834	42.862	-79.828	-75.626	-75.148	-71.375	61.747	-71.556	-8191	255	
25550.689	1	1	0	0	0.21728	0.25468	0.29847	0.14225	0.27832	0.13558	0.1308	0.029085	0.13476	0.069476	0.28519	0.040053	0.046294	0.07559	0.15896	0.12668	-2.7917	-2.8104	-3.4479	-3.0208	-3.1188	-3.4854	-3.1521	-3.5042	-3.0354	-2.8354	-3.5604	-3.1167	-3.1	-3.4208	-2.8583	-3.5125	27.373	29.583	22.236	208.594	182.586	17.207	118.954	-34.059	78.512	62.597	190.023	49.584	63.477	6.294	169.517	215.972	0.0003241	0.00043944	0.00015027	872.88	7.1066e-06	7.055e-06	1480.7	240.6	7.8177e-06	7.8561e-06	565.16	225.47	90.256	35.345	6.4968e-06	98.693	0.00030693	0.00025074	6.1525e-05	672.92	2.5756e-06	2.4951e-06	1139.1	185.4	2.6287e-06	2.5509e-06	436.53	174.56	70.391	27.549	2.685e-06	77.048	-54.005	17.547	-19.149	-84.407	60.795	123.770	-84.020	-78.023	77.457	47.652	-79.658	-75.519	-74.902	-71.609	2.810	-71.671	-8191	255	
25550.811	1	1	0	0	0.077581	0.040592	0.1996	0.14138	0.16674	0.15012	0.32168	0.17995	0.15643	0.20871	0.26391	0.47947	0.40596	0.12353	0.14541	0.25252	-2.9271	-2.8208	-3.5229	-3.1708	-3.0042	-3.5125	-2.9042	-3.2625	-3.275	-2.7479	-3.5958	-3.0833	-3.0062	-3.4271	-2.9583	-3.325	137.153	-36.263	54.229	-77.805	205.920	34.242	165.385	173.547	47.290	131.375	196.670	208.178	-62.620	-38.665	174.487	204.522	0.00032979	0.00048821	0.0002262	874.21	2.4766e-06	6.3008e-06	1471.9	242.08	7.4638e-06	5.1065e-06	565.36	224.62	91.405	35.336	6.4679e-06	98.889	0.00029582	0.00025622	6.4911e-05	674.54	2.704e-06	2.5394e-06	1137.9	185.57	2.6376e-06	2.6383e-06	437.6	174.92	71.004	27.673	2.5096e-06	76.974	-59.486	-36.727	-20.947	-84.476	73.401	47.405	-84.142	-78.473	66.109	48.884	-79.752	-75.308	-75.224	-70.840	14.348	-72.108	-8191	255	
25550.904	1	1	0	0	0.18055	0.18419	0.18001	0.046789	0.04066	0.18205	0.16359	0.21538	0.055237	0.20321	0.095475	0.27419	0.16407	0.27365	0.12954	0.13536	-2.9854	-2.7167	-3.4188	-3.1229	-2.8438	-3.5854	-3.0312	-3.0979	-3.3458	-2.7771	-3.3958	-3.2042	-2.9333	-3.4875	-2.9708	-3.1604	-72.846	-32.290	143.659	189.127	106.376	110.160	235.412	205.010	80.213	215.622	216.257	188.430	188.105	-49.327	-76.326	226.492	0.00031186	0.00063559	0.00015521	868.57	5.3706e-06	8.8395e-06	1474.9	240.47	3.3359e-06	6.3876e-06	563.98	225.24	91.582	35.853	9.626e-06	98.833	0.00028711	0.00026319	6.2342e-05	672.7	2.6618e-06	2.3333e-06	1140.8	185.2	2.5725e-06	2.6938e-06	437.66	175.24	71.083	27.795	2.6225e-06	77.131	-64.770	-7.322	-24.785	-84.284	48.801	54.670	-84.192	-78.828	14.937	51.065	-79.549	-75.180	-74.765	-71.191	57.454	-71.980	-8191	255	
25551.002	1	1	0	0	0.085315	0.22356	0.14642	0.083959	0.39216	0.27982	0.095003	0.28836	0.14806	0.040446	0.4039	0.12529	0.12454	0.097113	0.11558	0.056565	-3.0375	-2.8125	-3.3354	-3.2729	-2.7146	-3.5083	-3.0792	-3.0771	-3.5042	-2.6396	-3.5187	-3.525	-2.975	-3.4021	-3.0083	-2.9604	89.741	221.393	179.254	120.793	-5.608	-83.430	226.610	111.919	36.886	132.092	217.985	-89.946	234.934	-88.498	16.026	158.442	0.00033898	0.00078072	7.7011e-05	880.31	1.1591e-05	6.505e-06	1482.5	240.99	4.9814e-06	8.365e-06	570.89	222.72	91.147	35.738	1.2646e-05	98.665	0.00031173	0.00023935	6.8866e-05	677.91	2.7945e-06	2.5356e-06	1144	185.91	2.6531e-06	2.5222e-06	438.39	174.24	70.749	27.799	2.7758e-06	76.99	-53.138	-28.692	-31.922	-83.989	84.794	74.458	-84.158	-78.998	97.840	44.651	-79.900	-74.649	-74.658	-70.714	48.102	-72.056	-8191	255	
25551.096	1	1	0	0	0.071065	0.12356	0.086289	0.15348	0.22112	0.11297	0.071328	0.15859	0.19307	0.025648	0.19491	0.19747	0.20586	0.30797	0.071633	0.25188	-3.0938	-2.8438	-3.325	-3.4333	-2.6688	-3.5708	-3.0667	-3.1	-3.5292	-2.8021	-3.3333	-3.6229	-2.7812	-3.5625	-3.1937	-3.1396	96.271	122.612	18.621	-88.380	73.746	240.758	-85.390	-86.275	-69.856	233.201	67.168	-89.823	182.090	250.420	256.919	232.028	0.00027687	0.00047295	0.0001106	885.69	5.0204e-06	5.6771e-06	1469.3	240.4	1.1334e-05	7.8628e-06	572.02	225.26	91.433	35.679	8.2668e-06	98.58	0.00030539	0.00022846	6.8742e-05	681.07	2.549e-06	2.4484e-06	1141.3	185.49	2.8103e-06	2.4129e-06	439.47	175.26	70.874	27.779	2.545e-06	77.087	-48.627	7.750	27.134	-84.267	83.229	84.944	-83.952	-78.807	96.768	27.777	-79.638	-75.001	-75.479	-70.648	29.494	-71.815	-8191	255	
25551.191	1	1	0	0	0.16073	0.10678	0.14133	0.20756	0.17005	0.085778	0.35161	0.23659	0.086067	0.091121	0.16049	0.061899	0.21941	0.07358	0.2087	0.19596	-2.9729	-2.8729	-3.2333	-3.4479	-2.7979	-3.4854	-3.2521	-2.9042	-3.6458	-2.8625	-3.2354	-3.6375	-2.8396	-3.3104	-3.25	-2.8833	256.742	197.509	-87.417	189.447	236.540	109.810	201.915	207.396	-17.946	25.604	159.524	-42.748	-59.425	214.863	-4.003	262.973	0.0003478	0.00083397	0.00018949	876.98	9.8571e-06	6.1539e-06	1487.5	241.36	5.365e-06	8.2974e-06	568.29	225.58	91.49	35.736	6.1694e-06	98.816	0.00027805	0.00024716	6.6131e-05	678.2	2.7288e-06	2.6108e-06	1144.2	185.72	2.5086e-06	2.6341e-06	437.93	175.51	70.854	27.826	2.7297e-06	77.301	-60.707	-4.083	-32.599	-84.190	53.458	48.025	-83.697	-78.691	78.261	63.269	-79.435	-74.976	-75.320	-70.765	53.124	-71.553	-8191	255	
25551.289	1	1	0	0	0.14659	0.19431	0.11715	0.29132	0.19212	0.17676	0.27647	0.30736	0.22269	0.19443	0.21269	0.16447	0.14122	0.31212	0.074608	0.24639	-3.1875	-2.8542	-2.9833	-3.5229	-2.7687	-3.3438	-3.4354	-2.8292	-3.4146	-2.8625	-2.9479	-3.6021	-2.6562	-3.45	-3.2562	-2.9813	-26.743	-53.892	-60.198	-52.539	26.368	-16.423	231.816	241.435	-16.698	-93.678	224.966	246.584	-75.690	255.373	80.331	252.802	0.00029951	0.0010928	0.00013937	881.97	7.5759e-06	9.5458e-06	1490.4	242.45	5.5569e-06	7.5419e-06	571.53	226.49	90.916	35.762	3.7473e-06	98.279	0.00029346	0.00021938	6.2353e-05	675.48	2.6407e-06	2.6684e-06	1144.3	185.99	2.6392e-06	2.6156e-06	440.29	175.86	70.865	27.852	2.5393e-06	77.266	-49.065	12.809	-14.705	-83.917	32.488	61.114	-83.783	-78.189	94.207	41.305	-79.923	-75.217	-74.760	-71.044	74.367	-72.383	-8191	255	
25551.408	1	1	0	0	0.10139	0.023044	0.18713	0.35609	0.15255	0.25738	0.2017	0.26747	0.17096	0.18511	0.10427	0.18801	0.16267	0.20807	0.25219	0.031502	-3.0708	-3.0563	-2.8229	-3.7146	-2.7812	-3.1312	-3.5146	-2.7958	-3.3458	-3.0042	-3.0292	-3.5333	-2.9562	-3.2917	-3.4062	-3.0125	-3.774	-7.192	157.061	125.200	175.389	204.274	199.298	199.828	-17.739	137.509	40.487	212.389	12.139	-68.173	104.050	213.274	0.00029356	0.00057884	0.00014421	875.47	5.9666e-06	9.2026e-06	1486.7	240.54	2.4876e-06	6.2963e-06	568.06	224.98	90.703	35.43	4.6123e-06	98.483	0.0003213	0.00022546	7.0887e-05	676.02	2.4001e-06	2.5008e-06	1147.8	185.39	2.3681e-06	2.553e-06	439.6	174.97	70.623	27.754	2.4366e-06	76.818	-68.574	-16.439	-33.531	-84.198	5.564	45.723	-84.026	-78.884	161.991	74.210	-79.456	-75.053	-75.120	-71.419	44.306	-71.994	-8191	255	
25551.506	1	1	0	0	0.053276	0.19678	0.18756	0.16731	0.22777	0.38749	0.087422	0.143	0.24547	0.25089	0.19585	0.45233	0.058816	0.087425	0.22209	0.13693	-2.7896	-3.1312	-2.7354	-3.5375	-2.8063	-3.0604	-3.6125	-2.9417	-3.5229	-3.1708	-2.9208	-3.6021	-2.9396	-3.2438	-3.45	-3.0938	-96.508	181.263	135.890	179.234	-70.629	23.148	-72.111	205.546	-92.414	5.121	254.315	245.790	66.019	99.669	48.956	221.327	0.00041812	0.00074568	0.00015192	876.88	6.5482e-06	8.6166e-06	1474.3	237.59	3.0658e-06	6.584e-06	568.8	226.96	91.261	35.291	9.595e-06	99.178	0.00028698	0.00023571	6.8538e-05	675.07	2.5326e-06	2.5946e-06	1139.9	184.69	2.4659e-06	2.6885e-06	439.88	175.54	70.932	27.552	2.5731e-06	77.393	-66.283	-5.603	2.251	-83.774	14.182	76.576	-83.702	-78.899	70.817	25.048	-79.493	-75.627	-74.568	-70.749	53.369	-71.927	-8191	255	
25551.576	1	1	0	0	0.068478	0.28137	0.16622	0.062659	0.20733	0.19746	0.19503	0.24327	0.13967	0.15979	0.16556	0.11661	0.2279	0.020552	0.20105	0.15925	-2.9583	-3.2833	-2.8104	-3.6188	-3.0979	-3.0292	-3.7188	-2.7271	-3.3708	-3.3896	-2.7583	-3.525	-3.0917	-3.0854	-3.5854	-3.025	3.933	223.270	-44.877	65.542	142.704	78.046	214.941	193.609	-77.040	96.160	215.501	222.137	169.247	188.049	50.886	184.956	0.00024193	0.00060307	0.00014375	877.48	3.5722e-06	5.6045e-06	1486.2	243.2	7.631e-06	6.1755e-06	571.55	225.93	91.732	35.715	7.8164e-06	99.636	0.0003221	0.00022165	6.878e-05	676.42	2.4768e-06	2.7549e-06	1146.5	186.63	2.685e-06	2.5171e-06	441.87	175.46	71.377	27.82	2.5489e-06	77.608	-61.950	-35.197	22.519	-84.449	65.392	63.977	-83.608	-78.706	90.750	47.282	-79.333	-75.451	-74.950	-71.509	72.270	-71.893	-8191	255	
25551.674	1	1	0	0	0.014185	0.15641	0.42	0.21719	0.031604	0.10889	0.21389	0.12103	0.14583	0.079111	0.013923	0.34073	0.19961	0.16341	0.16869	0.37333	-2.9833	-3.3083	-2.8521	-3.5396	-3.0312	-2.8583	-3.6083	-2.8875	-3.0687	-3.3458	-2.8646	-3.5	-3.3479	-2.9813	-3.7208	-3.0625	0.964	-13.255	-80.336	-78.990	78.099	78.865	252.672	-65.035	65.236	-47.337	-83.925	231.361	84.200	166.593	259.865	211.280	0.00030975	0.00084153	0.00022134	874.3	1.0131e-05	1.1446e-05	1499	243.26	4.2067e-06	9.0482e-06	575.2	227.64	91.379	36.002	6.2933e-06	99.504	0.00030075	0.00025597	6.9151e-05	674.28	2.5287e-06	2.9869e-06	1152.3	186.9	2.8591e-06	2.6079e-06	443.48	176.51	71.25	27.928	2.4201e-06	77.455	-59.747	2.837	-0.298	-84.713	57.280	67.818	-83.678	-78.845	97.336	21.630	-79.389	-75.217	-75.172	-70.987	114.455	-72.392	-8191	255	
25551.770	1	1	0	0	0.11389	0.081609	0.055228	0.26533	0.21058	0.10597	0.21806	0.092702	0.15523	0.24482	0.26309	0.25364	0.038756	0.19694	0.23264	0.30185	-2.5375	-3.4354	-2.8667	-3.4854	-3.3458	-2.7938	-3.875	-3.0938	-3.0583	-3.4104	-3.0167	-3.4688	-3.2521	-2.9729	-3.3979	-3.1104	-53.226	238.939	69.401	196.779	-29.631	64.877	120.783	110.409	28.106	116.947	-47.428	234.653	102.767	223.443	243.581	219.283	0.00038844	0.00066259	0.00014539	883.02	4.5961e-06	8.245e-06	1492.5	242.48	3.1478e-06	1.1722e-05	569.45	227.58	91.003	35.564	7.2417e-06	99.23	0.00031226	0.00023814	6.6598e-05	679.05	2.6541e-06	2.5509e-06	1150.5	186.61	2.6503e-06	2.8178e-06	440.89	175.77	70.941	27.695	2.5156e-06	77.282	-55.109	-18.120	38.859	-84.156	102.079	28.224	-83.840	-78.954	113.099	49.240	-79.952	-75.212	-74.849	-71.179	99.708	-71.836	-8191	255	
25551.891	1	1	0	0	0.24978	0.080332	0.14164	0.2529	0.12394	0.1368	0.30432	0.19928	0.21703	0.047976	0.15186	0.083586	0.14534	0.17809	0.15849	0.12383	-2.5563	-3.6312	-2.7229	-3.4958	-3.2604	-2.5458	-3.5062	-2.9667	-3.2375	-3.5542	-2.9917	-3.5354	-3.3792	-2.8458	-3.2604	-3.4021	217.646	63.712	91.023	242.761	163.542	97.117	238.353	-42.470	51.828	205.970	204.498	206.287	161.344	195.652	117.077	208.165	0.00028532	0.00033815	5.9808e-05	880.07	6.6217e-06	7.4203e-06	1491.7	241.35	7.2115e-06	9.1302e-06	574.43	228.74	91.072	35.484	6.9269e-06	98.978	0.00031597	0.00023596	6.2541e-05	678.94	2.5369e-06	2.5987e-06	1146.8	186.71	2.7936e-06	2.4031e-06	442.44	176.25	71.007	27.793	2.6182e-06	77.546	-52.830	-11.566	9.270	-84.893	75.104	56.267	-83.789	-79.062	61.596	65.649	-79.849	-75.261	-75.503	-70.813	53.277	-71.345	-8191	255	
25551.984	1	1	0	0	0.12979	0.13109	0.22894	0.20759	0.045672	0.12265	0.061681	0.27737	0.26084	0.31397	0.1421	0.32366	0.18941	0.20396	0.11084	0.14607	-2.4917	-3.5208	-2.6958	-3.2792	-3.4188	-2.6625	-3.4833	-3.2417	-2.7729	-3.4813	-2.9479	-3.2667	-3.3958	-2.7708	-3.2292	-3.3312	117.027	-10.550	19.174	246.432	173.049	-80.689	-77.928	215.887	51.030	140.136	178.740	-88.907	-78.914	213.546	-58.642	134.449	0.00029862	0.00040211	0.00018516	880.04	5.9177e-06	9.9912e-06	1491.5	240.59	6.3568e-06	3.0153e-06	568.74	226.64	91.792	36.173	4.8402e-06	98.978	0.00031837	0.00022765	6.4454e-05	679.23	2.5665e-06	2.9376e-06	1150	186.11	2.5308e-06	2.2852e-06	441.17	176.48	71.496	27.916	2.5098e-06	77.378	-62.054	7.257	3.262	-84.155	84.060	58.509	-83.728	-78.345	64.721	70.629	-80.064	-75.513	-74.460	-71.427	68.355	-71.805	-8191	255	
25552.082	1	1	0	0	0.17882	0.044741	0.20937	0.16639	0.147	0.21843	0.14405	0.11823	0.22952	0.053638	0.28678	0.41372	0.12085	0.20248	0.22573	0.19368	-2.2687	-3.2333	-2.6917	-3.1708	-3.4813	-2.85	-3.3875	-3.1917	-2.6937	-3.375	-3.1583	-2.9313	-3.7146	-2.6854	-3.2417	-3.2833	-68.567	219.448	162.806	-81.394	174.580	50.729	175.749	255.796	144.449	-81.025	219.600	255.760	168.771	-74.302	-48.450	203.375	0.00035514	0.00078193	0.00022717	883.16	6.254e-06	8.2989e-06	1498.2	242.46	7.9964e-06	1.1143e-05	567.5	226.75	90.84	35.856	9.6594e-06	99.591	0.00030196	0.00023283	6.3637e-05	678.2	2.6393e-06	2.6629e-06	1148.2	186.52	2.8172e-06	2.5726e-06	439.98	176.15	71.065	27.817	2.6615e-06	77.309	-60.992	-41.706	-7.055	-84.240	17.596	42.874	-83.880	-78.643	44.256	56.025	-79.902	-74.570	-75.000	-71.415	68.648	-71.820	-8191	255	
25552.178	1	1	0	0	0.13029	0.10091	0.1873	0.25298	0.21127	0.10329	0.26854	0.16803	0.12246	0.38611	0.10448	0.20137	0.11093	0.25745	0.069629	0.19531	-2.5062	-3.4667	-3.1229	-3.0187	-3.5479	-2.8896	-3.2292	-3.4729	-2.6458	-3.475	-3.1396	-3.1375	-3.6458	-2.9333	-3.0875	-3.7771	163.225	124.571	104.835	208.673	147.738	77.612	224.798	173.765	100.297	169.702	146.871	224.706	239.357	-59.648	-52.094	207.100	0.00033351	0.00066089	0.00022233	883.59	5.0689e-06	6.9633e-06	1487.9	240.89	4.8447e-06	6.312e-06	562.47	224.85	91.603	35.461	5.3483e-06	99.327	0.00029918	0.00021755	6.2149e-05	679.66	2.4793e-06	2.617e-06	1142.6	185	2.5711e-06	2.4875e-06	436.4	175.02	70.804	27.705	2.6112e-06	76.991	-55.136	-20.452	42.022	-84.020	79.517	53.579	-83.778	-78.886	75.276	40.403	-79.771	-75.018	-74.693	-71.254	47.649	-71.974	-8191	255	
25552.273	1	1	0	0	0.18174	0.084424	0.052515	0.37104	0.12403	0.16031	0.36105	0.22453	0.15348	0.17638	0.20217	0.16799	0.11859	0.19915	0.21001	0.36363	-2.2417	-3.4	-3.1937	-2.7042	-3.5146	-2.8875	-3.2292	-3.4771	-2.8917	-3.5521	-3.2854	-2.7292	-3.5521	-3.075	-2.85	-3.6125	232.844	-0.191	137.995	244.486	65.066	184.825	196.939	209.754	113.722	-43.182	256.978	-83.763	227.773	-80.733	121.176	212.125	0.00025462	0.00056119	0.00024381	880.43	6.1659e-06	1.0325e-05	1481.2	239.22	2.5884e-06	6.6446e-06	557.48	225.31	90.146	35.543	8.9115e-06	98.211	0.00028822	0.00021611	6.7506e-05	677.53	2.5328e-06	2.3056e-06	1142.6	185.06	2.4209e-06	2.5279e-06	433.86	175.15	70.588	27.643	2.6837e-06	76.915	-54.112	34.269	8.799	-84.229	48.251	98.162	-83.763	-78.549	33.473	54.569	-79.657	-75.175	-75.188	-71.181	42.978	-72.064	-8191	255	
25552.369	1	1	0	0	0.27659	0.18981	0.2129	0.22112	0.10143	0.21502	0.17906	0.085201	0.071161	0.14453	0.26751	0.21548	0.22476	0.19905	0.068465	0.018421	-2.2583	-3.2833	-3.1396	-2.9771	-3.4604	-3.0833	-3.0583	-3.5729	-2.7938	-3.2646	-3.3417	-2.9458	-3.3729	-3.1896	-2.7292	-3.7125	103.835	58.042	14.549	235.651	118.534	95.610	241.451	154.443	-77.475	115.648	145.455	191.197	220.829	69.357	236.809	229.627	0.00032665	0.00060448	0.0001278	869.85	1.0459e-05	3.703e-06	1481.1	240.27	6.3992e-06	6.2308e-06	568.17	225.05	91.262	35.616	6.1478e-06	98.404	0.00031446	0.00024645	6.4723e-05	674.17	2.5385e-06	2.6164e-06	1138	184.32	2.5927e-06	2.4609e-06	438.32	175.38	70.818	27.713	2.7921e-06	76.957	-62.480	11.910	8.425	-84.170	38.645	95.299	-84.177	-78.374	42.037	57.993	-79.682	-75.197	-74.826	-70.613	45.226	-72.011	-8191	255	
25552.490	1	1	0	0	0.13221	0.078342	0.11292	0.082754	0.14411	0.12447	0.21902	0.13165	0.017648	0.064792	0.048572	0.15964	0.16204	0.22251	0.14999	0.073263	-2.4854	-3.0083	-3.3063	-2.8833	-3.2333	-3.0125	-2.8854	-3.4813	-2.8646	-2.9688	-3.4479	-2.9521	-3.4021	-3.3208	-2.6937	-3.6604	-51.365	203.204	28.205	248.221	175.219	65.976	201.920	209.393	180.030	199.689	224.734	-60.532	225.318	246.379	-32.405	214.862	0.00032792	0.00082965	0.00021994	864.65	8.323e-06	8.9833e-06	1468.1	241.19	5.8396e-06	6.7203e-06	566.78	224.48	91.54	35.085	7.5551e-06	97.81	0.00030572	0.00024114	7.0725e-05	672.89	2.5358e-06	2.115e-06	1137.2	185.36	2.4387e-06	2.7189e-06	434.7	174.53	70.882	27.465	2.7987e-06	76.709	-57.452	-24.536	10.295	-83.633	82.445	39.444	-83.750	-78.914	101.218	25.858	-79.807	-74.866	-74.824	-70.796	74.647	-71.817	-8191	255	
25552.586	1	1	0	0	0.25999	0.072678	0.21565	0.33415	0.33786	0.037076	0.36681	0.24279	0.1397	0.13337	0.11044	0.21115	0.17012	0.2105	0.2839	0.38271	-2.5896	-2.8875	-3.275	-2.7896	-3.3688	-3.3875	-2.925	-3.6688	-3.0021	-2.7875	-3.5563	-2.9917	-3.2458	-3.3917	-2.7125	-3.6188	155.614	58.153	209.173	-77.436	0.964	-62.165	195.830	187.688	36.084	245.539	195.502	172.594	236.465	-82.410	210.419	174.167	0.00031889	0.00086944	0.00024586	880.19	7.9531e-06	7.4689e-06	1475.7	238.17	6.7655e-06	7.3072e-06	564.36	223.57	91.111	35.468	8.5221e-06	98.615	0.00030178	0.00024778	6.2622e-05	674.84	2.4817e-06	2.3529e-06	1137.4	183.68	2.3669e-06	2.5992e-06	435.53	173.93	70.404	27.6	2.3476e-06	76.957	-67.853	-18.771	-12.242	-83.965	56.225	56.569	-83.663	-78.279	85.922	87.834	-79.859	-75.247	-74.999	-71.483	67.572	-71.640	-8191	255	
25552.682	1	1	0	0	0.13647	0.082633	0.069338	0.25654	0.15265	0.13628	0.4486	0.14122	0.21573	0.10374	0.2791	0.13786	0.066975	0.2706	0.07585	0.41026	-2.6104	-2.85	-3.5354	-2.8063	-3.0896	-3.2021	-3.1042	-3.5896	-3.0312	-2.8875	-3.8812	-3.1688	-3.1833	-3.4771	-2.8208	-3.6688	-18.791	120.204	-40.442	239.100	-36.158	240.030	183.689	229.025	87.522	-54.727	227.872	223.719	-88.213	185.549	185.600	180.701	0.00034244	0.00082723	0.00021926	878.92	9.0602e-06	6.3268e-06	1469.6	237.42	5.9099e-06	8.3033e-06	568.64	223.97	90.357	35.598	1.8228e-06	98.634	0.00030004	0.00025584	6.3164e-05	676.44	2.6417e-06	2.1947e-06	1136.7	183.97	2.6305e-06	2.5964e-06	436.72	174.16	70.667	27.637	2.5953e-06	76.759	-56.629	-12.921	-12.854	-84.767	74.881	58.031	-83.782	-78.345	68.054	68.980	-79.172	-75.479	-75.033	-71.042	72.925	-71.789	-8191	255	
25552.803	1	1	0	0	0.067146	0.3645	0.13302	0.18187	0.16778	0.11907	0.17932	0.16793	0.055139	0.071286	0.16663	0.27141	0.34697	0.27558	0.15371	0.22823	-2.7396	-2.8125	-3.6292	-2.7396	-3.1312	-3.5687	-3.05	-3.4042	-3.1333	-2.8958	-3.5271	-2.9437	-3.0646	-3.5896	-2.8542	-3.4354	-16.685	-71.310	231.593	243.844	225.003	145.931	225.944	86.555	250.750	263.760	238.631	205.305	-79.616	212.981	-18.627	207.496	0.00034011	0.0008157	0.00021362	871.18	8.331e-06	4.4065e-06	1479.5	238.53	2.9558e-06	6.0077e-06	560.05	226.12	90.81	35.415	7.8911e-06	99.038	0.00030365	0.00025305	6.4658e-05	673.96	2.5511e-06	2.6473e-06	1142.4	184.74	2.4425e-06	2.6741e-06	434.37	175.18	70.78	27.591	2.6231e-06	76.931	-60.928	-29.773	-40.876	-84.258	75.946	74.060	-83.957	-78.199	16.925	32.190	-79.819	-75.380	-74.944	-71.185	63.499	-71.694	-8191	255	
25552.873	1	1	0	0	0.13367	0.06736	0.19986	0.23202	0.11126	0.17113	0.076571	0.2983	0.28711	0.12395	0.1007	0.18555	0.2792	0.20645	0.31487	0.044199	-3.0104	-2.7417	-3.3833	-3.0479	-2.8792	-3.5938	-2.9792	-3.4062	-3.3646	-2.8208	-3.5125	-3.1604	-2.9208	-3.4667	-2.7229	-3.2708	201.705	-91.704	239.859	225.635	-81.850	-78.339	-80.173	191.769	91.150	163.094	203.393	245.564	197.407	250.497	-93.478	-78.980	0.00032427	0.0002674	0.00020836	885.16	8.5821e-06	6.2214e-06	1476.1	240.68	5.4872e-06	8.6957e-06	557.92	224.8	91.309	35.658	6.7839e-06	98.866	0.00031473	0.00022279	7.2117e-05	679.56	2.8561e-06	2.629e-06	1139.4	185.52	2.5523e-06	2.6205e-06	433.86	174.08	71.105	27.745	2.6654e-06	77.12	-70.925	-50.200	-8.294	-84.362	57.995	60.577	-83.918	-78.151	120.973	30.230	-79.652	-74.861	-75.248	-71.273	128.216	-72.067	-8191	255	
25552.971	1	1	0	0	0.18105	0.19624	0.056072	0.33023	0.07682	0.06198	0.10587	0.18359	0.087378	0.13111	0.24053	0.27154	0.099017	0.17034	0.25559	0.23845	-2.8688	-2.6542	-3.4292	-3.0062	-2.775	-3.4646	-2.9375	-3.1417	-3.3771	-2.6854	-3.5271	-3.2854	-2.6375	-3.5542	-2.9146	-3.2062	76.503	-66.275	164.489	233.056	87.673	142.034	238.041	142.604	-61.406	186.145	175.434	220.201	-8.890	213.872	-50.981	173.311	0.00034077	0.00087147	0.00022175	871.52	6.629e-06	6.0518e-06	1474.5	241.13	6.7905e-06	8.5541e-06	560.29	223.16	90.65	35.594	8.1256e-06	98.845	0.00029672	0.00023054	6.5502e-05	671.4	2.5722e-06	2.617e-06	1135.2	185.48	2.6793e-06	2.455e-06	434.45	174.03	70.829	27.648	2.7355e-06	77.007	-58.644	-18.777	-1.817	-84.280	61.834	46.573	-83.948	-78.993	57.446	82.683	-79.330	-75.277	-74.329	-71.035	36.198	-71.978	-8191	255	
25553.066	1	1	0	0	0.1911	0.16516	0.11355	0.26006	0.16442	0.16984	0.18965	0.15288	0.27527	0.1057	0.20359	0.29501	0.16393	0.060967	0.04104	0.15619	-3.2021	-2.7417	-3.2833	-3.3104	-2.7396	-3.3792	-3.2646	-3.0167	-3.35	-2.7479	-3.3708	-3.25	-2.6396	-3.5146	-3.0583	-3.0563	-29.364	-25.601	81.941	193.058	42.195	77.156	195.183	162.830	170.040	-87.960	248.407	214.263	80.158	45.002	93.617	-91.797	0.00028299	0.0011131	0.00015125	873.61	2.1892e-06	6.489e-06	1476.7	240.29	5.3868e-06	4.442e-06	562.83	224.62	90.85	35.469	1.4041e-05	98.715	0.00030219	0.00025617	6.3481e-05	675.37	2.5715e-06	2.2887e-06	1140.8	185.79	2.4701e-06	2.5258e-06	435.69	174.65	70.766	27.825	2.6901e-06	76.9	-46.859	2.429	-17.217	-83.622	59.337	65.482	-84.132	-78.800	53.759	45.100	-79.711	-75.342	-75.460	-70.360	40.265	-71.740	-8191	255	
25553.186	1	1	0	0	0.085782	0.21381	0.10191	0.14317	0.24364	0.19422	0.12251	0.15238	0.19282	0.36553	0.017275	0.12658	0.082406	0.18951	0.080625	0.31682	-3.1	-2.7854	-3.2271	-3.3354	-2.8542	-3.6292	-3.2083	-2.8521	-3.5104	-2.775	-3.2375	-3.5812	-2.7521	-3.4292	-3.1542	-2.8083	222.700	186.567	211.896	-60.561	54.864	222.559	252.367	215.909	203.656	96.010	153.255	193.535	-81.955	-51.233	12.857	153.480	0.0002953	0.00052313	0.00011405	877.98	1.0763e-05	7.2241e-06	1474.3	239.97	6.2618e-06	5.6103e-06	562.83	224.26	90.712	35.677	4.262e-06	99.362	0.0003005	0.00022409	6.4486e-05	678.62	2.7239e-06	2.4774e-06	1140.1	185.26	2.5334e-06	2.5709e-06	435.78	174.68	70.71	27.856	2.7342e-06	77.104	-52.471	-21.315	-16.297	-84.519	78.810	64.921	-83.842	-78.709	65.443	57.706	-79.722	-74.946	-75.010	-71.362	58.644	-71.888	-8191	255	
25553.281	1	1	0	0	0.11723	0.15376	0.071391	0.16051	0.31704	0.14614	0.24869	0.18449	0.14317	0.084593	0.27143	0.41389	0.099003	0.15056	0.059748	0.18055	-3.0104	-2.8417	-3.1437	-3.4208	-2.6188	-3.3417	-3.2104	-2.8604	-3.3458	-2.8292	-3.0833	-3.6021	-2.8917	-3.2875	-3.0417	-2.8958	36.336	23.404	144.968	220.382	189.211	-56.403	202.934	209.731	226.435	-91.686	-86.843	209.087	208.835	-80.784	146.209	167.930	0.00028995	0.00038504	9.6384e-05	887.72	1.0414e-05	4.7934e-06	1475.5	238.14	8.69e-06	5.1202e-06	565.13	223.04	91.3	35.689	5.4164e-06	98.324	0.00029186	0.00023575	7.3923e-05	680.13	2.5837e-06	2.335e-06	1136.6	184.1	2.4493e-06	2.6426e-06	434.35	174.31	70.834	27.766	2.6788e-06	76.987	-62.325	26.808	-18.398	-84.258	67.048	112.089	-83.852	-79.279	93.820	42.800	-79.346	-74.987	-74.821	-70.836	40.878	-71.735	-8191	255	
25553.379	1	1	0	0	0.18994	0.20386	0.1498	0.12916	0.16435	0.21524	0.14756	0.16466	0.11837	0.25963	0.17454	0.21413	0.12433	0.13855	0.18819	0.12844	-2.9417	-2.8625	-2.7354	-3.475	-2.6896	-3.2687	-3.3917	-2.6813	-3.4958	-2.8833	-2.95	-3.5812	-2.5646	-3.1604	-3.3167	-2.7021	51.051	-91.684	100.137	-23.239	-3.350	127.759	199.104	59.458	-70.126	-8.004	241.183	236.608	-8.712	195.191	103.622	243.592	0.00038603	0.00084268	0.00023358	871.15	2.0119e-06	7.3511e-06	1478.1	241.3	4.0223e-06	6.8761e-06	560.39	223.12	90.701	35.572	9.2184e-06	98.124	0.00029628	0.00024193	6.9763e-05	672.56	2.7279e-06	2.5028e-06	1140.4	185.53	2.3441e-06	2.6964e-06	432.94	173.72	70.716	27.713	2.6106e-06	76.504	-62.632	-13.455	12.666	-84.240	93.753	35.166	-83.861	-79.063	113.094	29.311	-79.598	-75.203	-75.152	-71.064	53.109	-71.781	-8191	255	
25553.449	1	1	0	0	0.10708	0.17501	0.16435	0.047994	0.28546	0.24463	0.14899	0.24195	0.018028	0.17998	0.18254	0.11382	0.08843	0.068284	0.16463	0.27569	-3.0542	-2.8271	-2.9021	-3.5062	-2.75	-3.0917	-3.6562	-2.7438	-3.4604	-3.0979	-2.9875	-3.6042	-2.8187	-3.2667	-3.3771	-2.75	91.632	179.332	59.947	99.910	224.161	62.472	132.498	54.718	233.470	-65.576	184.042	208.226	-75.870	219.519	-66.116	161.836	0.00038338	0.00064395	0.00028862	875.13	7.9626e-06	5.2219e-06	1471.9	238.79	4.4534e-06	4.088e-06	558.09	222.62	91.628	36.135	5.8646e-06	98.564	0.00029561	0.00022515	6.6512e-05	676.98	2.6817e-06	2.5799e-06	1135.1	184.11	2.3887e-06	2.8366e-06	432.74	173.75	71.129	27.969	2.5055e-06	76.904	-59.798	-71.783	-4.924	-84.314	66.996	76.157	-83.923	-78.784	72.979	16.981	-79.650	-75.519	-75.553	-70.878	60.891	-71.561	-8191	255	
25553.570	1	1	0	0	0.10095	0.042581	0.24775	0.13247	0.1183	0.03918	0.24805	0.031803	0.095201	0.22017	0.41964	0.31637	0.076592	0.12707	0.25551	0.11951	-3.1271	-3.0083	-2.6875	-3.4833	-2.7354	-2.9313	-3.5646	-2.9646	-3.4208	-3.2833	-2.9479	-3.5	-2.9437	-3.1437	-3.3312	-2.8146	12.347	86.983	-53.767	36.558	38.992	121.120	149.382	180.198	114.678	225.445	187.579	250.838	114.198	230.986	111.817	178.639	0.00030078	0.0010536	0.00010814	876.52	6.3791e-06	1.2858e-05	1484.5	239.03	2.1817e-06	4.2197e-06	561.9	225.14	90.585	35.973	1.0106e-05	98.384	0.00030883	0.00025638	6.54e-05	675.19	2.5277e-06	2.7511e-06	1140	184.65	2.6098e-06	2.5632e-06	435.19	174.85	70.766	27.96	2.4477e-06	76.887	-68.788	-24.591	-5.744	-84.310	63.323	37.320	-83.886	-78.809	157.250	66.671	-79.806	-75.273	-74.963	-70.335	40.174	-72.027	-8191	255	
25553.666	1	1	0	0	0.18322	0.12292	0.22378	0.029344	0.15676	0.2745	0.23446	0.21448	0.085786	0.14189	0.18841	0.053888	0.15982	0.065006	0.16768	0.078183	-2.9021	-3.3479	-2.5854	-3.4625	-3.0292	-3.0375	-3.5083	-2.9958	-3.2729	-3.4021	-2.9562	-3.5417	-3.2062	-2.9562	-3.6958	-2.9146	63.339	-32.993	-33.388	-18.070	232.890	165.274	198.323	223.989	145.116	177.028	247.660	7.579	22.800	3.537	239.494	40.796	0.00032087	0.0003931	0.00011913	873.75	7.0669e-06	5.1493e-06	1486.2	238.94	5.3708e-06	5.8192e-06	561.76	223.34	91.115	35.968	3.8399e-06	97.92	0.00032468	0.0002184	6.4793e-05	674.12	2.6261e-06	2.772e-06	1139.4	184.34	2.511e-06	2.4341e-06	435.2	174.23	70.694	27.796	2.4873e-06	76.674	-57.734	-8.065	4.639	-83.528	87.199	82.772	-84.031	-78.783	126.367	36.936	-79.565	-75.294	-75.229	-71.020	12.681	-72.437	-8191	255	
25553.762	1	1	0	0	0.17013	0.15362	0.095715	0.10112	0.15533	0.11426	0.11338	0.098867	0.028354	0.086165	0.18266	0.32877	0.037943	0.19182	0.09577	0.12288	-2.7792	-3.4437	-2.8688	-3.3	-3.2208	-2.9479	-3.7021	-3.0146	-2.95	-3.3396	-2.7375	-3.4396	-3.2083	-2.7687	-3.3312	-2.9542	33.631	-78.269	-28.928	131.639	232.991	223.897	174.297	199.969	254.083	59.623	133.107	233.048	-51.819	-88.398	-77.313	233.855	0.00032358	0.00093245	0.00021973	881	4.8825e-06	2.4972e-06	1471.4	238.65	4.999e-06	4.9192e-06	559.67	224.22	91.819	35.708	4.0227e-06	98.586	0.00030468	0.0002381	6.4905e-05	678.42	2.5933e-06	2.6236e-06	1138.3	184.25	2.534e-06	2.5098e-06	432.73	174.43	71.182	27.919	2.4257e-06	76.805	-67.597	0.341	-9.657	-84.085	76.041	77.239	-83.802	-78.592	84.984	83.231	-79.786	-75.367	-74.982	-70.570	60.815	-72.326	-8191	255	
25553.883	1	1	0	0	0.13571	0.13199	0.039459	0.24041	0.23943	0.23613	0.21961	0.20536	0.1621	0.097357	0.22255	0.093569	0.20257	0.098415	0.051211	0.21685	-2.575	-3.5229	-2.6771	-3.4708	-3.0896	-2.8896	-3.6396	-3.0167	-2.9271	-3.4458	-2.925	-3.3875	-3.2167	-2.6063	-3.3979	-3.3563	232.254	-7.908	49.150	226.322	56.474	225.307	241.546	-74.505	-72.028	-14.190	99.962	2.286	103.830	259.146	-69.846	226.822	0.0002787	0.00089527	0.00024042	872.02	7.6048e-06	9.4262e-06	1469.8	238.72	3.3236e-06	3.4622e-06	560.44	225.2	91.123	35.558	7.6426e-06	98.547	0.00030038	0.00021869	6.044e-05	673.23	2.3746e-06	2.7106e-06	1137	184.82	2.5896e-06	2.3916e-06	434.5	174.77	70.919	27.736	2.6223e-06	76.906	-59.538	-14.285	-13.473	-84.111	85.243	30.930	-84.001	-78.510	122.032	17.063	-79.998	-75.521	-75.046	-71.119	80.398	-71.807	-8191	255	
25553.977	1	1	0	0	0.13553	0.15592	0.12252	0.16612	0.073302	0.15448	0.34983	0.01562	0.23202	0.28623	0.15185	0.31475	0.30298	0.28021	0.28815	0.29586	-2.4646	-3.3458	-2.8708	-3.3146	-3.4292	-2.6688	-3.3667	-3.1479	-2.8167	-3.575	-2.7938	-3.2146	-3.3104	-2.8375	-3.2938	-3.1667	83.094	-41.064	-45.357	240.862	169.766	229.787	-96.314	147.724	234.504	35.968	246.135	-44.056	222.171	233.360	-47.891	202.315	0.00031524	0.00073187	0.00020506	872.6	3.7014e-06	4.0631e-06	1470.2	241.06	7.0292e-06	7.7456e-06	563.65	224.25	91.088	35.303	6.7954e-06	98.888	0.00030257	0.00021719	6.4599e-05	676.8	2.3794e-06	2.4906e-06	1138.3	185.11	2.8658e-06	2.4754e-06	435.93	174.79	71.137	27.67	2.6005e-06	77.052	-50.920	17.017	11.004	-84.236	43.073	123.475	-83.633	-78.345	101.570	69.639	-79.477	-75.118	-74.765	-70.632	39.189	-71.602	-8191	255	
25554.072	1	1	0	0	0.19465	0.12932	0.24145	0.22429	0.15141	0.11432	0.44782	0.29607	0.23397	0.11336	0.21364	0.17243	0.15374	0.10188	0.092752	0.18539	-2.4083	-3.375	-2.85	-2.9479	-3.3229	-2.7167	-3.4375	-3.0833	-2.7229	-3.3854	-2.9604	-3.1146	-3.4104	-2.7438	-3.3167	-3.2313	138.662	90.692	45.462	-81.678	110.462	154.778	203.642	52.749	-84.330	200.884	193.447	213.332	0.404	-33.640	215.743	250.202	0.00037369	0.0004024	0.00020527	878.93	4.0232e-06	7.7761e-06	1483.8	241.26	7.0568e-06	4.1877e-06	567.59	224.28	90.451	35.52	5.3346e-06	99.206	0.00031256	0.00023031	6.4991e-05	676.39	2.2143e-06	2.711e-06	1140.1	185.5	2.762e-06	2.4365e-06	435.13	173.83	70.686	27.771	2.5994e-06	77.029	-58.969	-38.917	-6.404	-84.167	37.723	33.818	-83.898	-78.550	91.631	73.152	-79.403	-75.092	-74.914	-70.395	40.744	-71.934	-8191	255	
25554.170	1	1	0	0	0.3852	0.063158	0.18754	0.29253	0.069808	0.066766	0.17526	0.40464	0.1608	0.10128	0.17091	0.21333	0.12439	0.22197	0.24912	0.25225	-2.3021	-3.4646	-2.9125	-3.0083	-3.4771	-2.7292	-3.4062	-3.5062	-2.7146	-3.4167	-3.0125	-2.9396	-3.5083	-2.9	-3.2229	-3.4375	-46.155	87.600	227.901	-72.855	-6.975	239.551	216.593	249.459	87.879	124.975	-81.605	-51.883	154.269	-52.555	240.035	214.051	0.00029951	0.00083822	0.00017781	884.63	4.5064e-06	4.7063e-06	1470.6	239.09	6.1285e-06	7.8484e-06	567.6	224.88	92.235	35.521	4.9509e-06	99.29	0.00031054	0.00023062	6.7786e-05	677.15	2.2839e-06	2.5733e-06	1137.3	185.04	2.8392e-06	2.5907e-06	437.63	174.58	71.408	27.726	2.4484e-06	77.224	-82.041	4.717	-16.967	-84.289	37.584	69.369	-83.455	-78.442	101.951	47.250	-79.972	-75.123	-74.733	-70.946	21.725	-71.993	-8191	255	
25554.266	1	1	0	0	0.25878	0.041594	0.1388	0.16567	0.02819	0.12047	0.20465	0.13262	0.13509	0.25734	0.26486	0.28919	0.2998	0.075167	0.050015	0.058104	-2.3896	-3.4	-3.0375	-2.8583	-3.5833	-2.8896	-3.3625	-3.5354	-2.6042	-3.3438	-3.3	-2.8875	-3.3958	-2.8854	-2.8875	-3.5854	16.311	107.790	248.537	3.035	123.588	-78.367	237.086	32.527	24.426	114.755	209.590	251.637	-5.379	37.757	166.672	190.052	0.00029082	0.00079304	0.00034603	877.16	1.0791e-05	6.8003e-06	1481.8	238.47	1.8373e-06	7.6193e-06	564.06	224.57	90.941	35.37	9.9544e-06	99.055	0.00031084	0.00022804	6.3041e-05	678.13	2.4612e-06	2.4348e-06	1143.8	184.67	2.6102e-06	2.5556e-06	436.78	174.65	70.82	27.808	2.5353e-06	77.067	-64.368	-18.788	5.457	-83.409	86.425	32.236	-83.730	-78.881	87.474	20.466	-79.400	-75.073	-74.998	-71.325	57.979	-71.941	-8191	255	
25554.361	1	1	0	0	0.17718	0.026244	0.12542	0.079699	0.19081	0.21077	0.23982	0.16581	0.056795	0.14643	0.23504	0.061106	0.082616	0.38013	0.21854	0.32201	-2.3479	-3.2083	-3.225	-2.7646	-3.5479	-2.8042	-3.2979	-3.5792	-2.6292	-3.4146	-3.5646	-2.9583	-3.6042	-3.1333	-2.8958	-3.5312	79.600	-63.744	156.044	5.423	83.606	90.419	218.696	-90.310	245.254	114.527	213.929	202.424	72.064	-77.154	213.010	149.416	0.00038878	0.00073804	0.00015229	874.35	1.0266e-05	9.0031e-06	1482.6	240.45	5.1644e-06	4.2447e-06	558.33	224.94	90.52	35.671	3.9356e-06	98.312	0.00030782	0.00025749	6.4207e-05	677.72	2.6898e-06	2.9031e-06	1145.1	186.29	2.502e-06	2.3846e-06	437.11	175.14	71.136	27.899	2.6528e-06	76.988	-63.548	-20.800	-4.834	-84.448	96.270	63.756	-83.964	-78.515	121.734	52.642	-79.599	-75.326	-74.846	-70.990	81.054	-72.087	-8191	255	
25554.482	1	1	0	0	0.067868	0.097016	0.064686	0.066004	0.1762	0.2007	0.25681	0.18768	0.046099	0.18666	0.092855	0.045112	0.2159	0.10167	0.15002	0.2973	-2.4875	-3.175	-3.1771	-2.7562	-3.4396	-2.975	-3.0542	-3.5333	-2.8708	-3.2687	-3.4938	-2.8833	-3.4708	-3.1458	-2.6854	-3.5042	12.196	-85.901	99.226	195.734	156.960	160.332	216.547	179.928	159.265	-50.708	-72.032	171.224	-76.412	140.409	197.928	243.916	0.0004018	0.00049772	0.00016151	875.63	7.2022e-06	1.0313e-05	1480	238.76	5.8525e-06	8.828e-06	567.44	223.65	90.917	35.469	4.6171e-06	98.554	0.00031564	0.00024807	6.6442e-05	675.91	2.6168e-06	2.7588e-06	1144.5	185.57	2.5449e-06	2.5549e-06	439.4	174.68	71.17	27.858	2.5254e-06	77.191	-57.150	40.850	-39.028	-83.660	85.571	61.317	-83.696	-78.305	38.209	10.273	-79.329	-75.036	-74.717	-71.015	37.549	-71.744	-8191	255	
25554.578	1	1	0	0	0.24393	0.17431	0.13013	0.33608	0.12132	0.28015	0.1229	0.18647	0.18081	0.17047	0.2402	0.33313	0.094186	0.092176	0.045098	0.1552	-2.4729	-2.9437	-3.2792	-2.7938	-3.4146	-3.15	-3.0292	-3.6208	-3.0042	-2.9813	-3.4375	-2.8042	-3.4437	-3.2188	-2.6688	-3.475	-76.493	241.150	-10.665	120.031	-17.379	9.553	256.457	238.294	-25.447	-70.865	263.332	217.625	179.705	163.021	147.990	158.548	0.0003943	0.00056027	0.00017614	871.59	7.0283e-06	6.1362e-06	1490.6	240.18	2.082e-06	4.0798e-06	566.96	224.7	90.023	35.362	8.3318e-06	99.724	0.00030116	0.00023491	6.2783e-05	674.38	2.6655e-06	2.5388e-06	1145.7	186.32	2.5421e-06	2.5226e-06	440.12	175.32	71.155	27.805	2.7301e-06	77.52	-52.794	2.932	6.908	-84.019	85.877	95.396	-83.654	-78.465	44.838	66.431	-79.577	-75.032	-74.571	-71.487	47.903	-72.109	-8191	255	
25554.676	1	1	0	0	0.28157	0.12065	0.37656	0.098609	0.20163	0.18938	0.10609	0.1724	0.23623	0.12048	0.16151	0.30722	0.17448	0.075027	0.01868	0.18454	-2.4104	-2.875	-3.3917	-2.8667	-3.2562	-3.3229	-2.8563	-3.4104	-3.1208	-3.0021	-3.6208	-2.9021	-3.2875	-3.5312	-2.7854	-3.4729	195.960	177.304	-42.690	140.384	246.981	19.516	-79.147	212.913	191.990	-74.200	203.453	210.462	235.420	-53.032	-23.860	179.043	0.00042592	0.00068652	0.00017802	880.88	1.0401e-05	6.584e-06	1479	241.27	7.9171e-06	8.7664e-06	565.01	225.43	91.303	35.44	5.1536e-06	99.377	0.00030012	0.00021982	6.8098e-05	678.47	2.8269e-06	2.5949e-06	1143.9	186.94	2.5203e-06	2.5843e-06	439.03	176.19	71.688	27.897	2.5475e-06	77.669	-61.900	5.560	15.460	-84.195	51.734	26.246	-83.943	-77.979	106.873	64.644	-78.942	-75.103	-74.881	-70.783	79.622	-71.934	-8191	255	
25554.746	1	1	0	0	0.26457	0.23314	0.32676	0.32146	0.14952	0.26698	0.35626	0.39618	0.078516	0.11707	0.27134	0.10153	0.12932	0.20002	0.088322	0.056417	-2.5333	-2.7896	-3.4125	-2.8167	-2.9229	-3.2938	-2.8479	-3.4062	-3.2208	-2.9396	-3.6417	-2.8396	-3.3229	-3.4646	-2.65	-3.6833	-48.386	-5.679	167.556	-87.191	166.798	-36.702	199.657	255.733	230.256	-35.570	262.810	199.055	249.807	238.296	-63.984	165.263	0.00031252	0.0005587	0.00020417	868.7	8.3669e-06	3.6948e-06	1485.7	242.03	3.9844e-06	4.229e-06	568.87	226.35	91.843	35.83	5.7103e-06	100.02	0.00029627	0.00025303	6.1283e-05	672.8	2.534e-06	2.228e-06	1146.8	187.32	2.5517e-06	2.4796e-06	439.69	176.05	71.442	27.922	2.7138e-06	77.799	-67.648	-43.654	-27.272	-83.641	81.740	57.070	-84.186	-78.677	101.165	45.938	-79.406	-75.065	-74.602	-70.872	27.205	-71.841	-8191	255	
25554.867	1	1	0	0	0.17915	0.33774	0.2042	0.21253	0.08258	0.25637	0.45366	0.46069	0.10584	0.24071	0.28495	0.21878	0.24679	0.10563	0.45611	0.25901	-2.6208	-2.6958	-3.4292	-3.0792	-3.1292	-3.6104	-2.9208	-3.4313	-3.2354	-2.7521	-3.5979	-3.1646	-3.1125	-3.5729	-2.6167	-3.3438	62.333	56.250	133.216	208.742	81.019	85.586	228.457	230.097	-15.244	-41.074	214.338	219.071	222.188	1.362	225.034	201.354	0.00027561	0.00054073	0.0002059	879.81	6.7907e-06	3.8195e-06	1480.5	241.22	4.612e-06	7.0206e-06	571.5	224.1	91.959	35.865	1.1259e-05	98.597	0.00029926	0.00024002	6.6996e-05	678.36	2.7302e-06	2.4401e-06	1144.8	186.17	2.4681e-06	2.6449e-06	439.78	175.45	71.646	28.046	2.6472e-06	77.451	-63.824	1.596	8.351	-84.308	107.333	64.998	-83.902	-78.469	46.331	89.999	-79.391	-75.393	-75.108	-71.099	37.872	-72.021	-8191	255	
25554.963	1	1	0	0	0.39864	0.16793	0.15847	0.42376	0.2785	0.16944	0.11712	0.028519	0.075813	0.21544	0.34742	0.41894	0.26015	0.1615	0.22599	0.12714	-2.8292	-2.85	-3.3979	-2.9625	-3.0729	-3.4313	-2.8542	-3.3333	-3.3833	-2.6646	-3.6583	-3.2292	-2.8917	-3.4688	-2.8229	-3.2375	-22.992	118.673	-27.934	258.300	228.922	190.197	230.186	219.331	58.869	-26.518	196.066	251.227	157.619	-88.971	92.578	214.058	0.00033186	0.00032725	0.00018287	876.78	7.1957e-06	4.0153e-06	1484.3	240.96	1.5347e-06	9.8161e-06	564.57	225.37	89.449	35.707	8.9787e-06	98.954	0.00029618	0.00023645	6.6115e-05	678.81	2.8914e-06	2.2376e-06	1143.9	186.99	2.5261e-06	2.763e-06	438.43	175.61	70.841	27.91	2.6798e-06	77.433	-64.344	-10.445	-14.005	-84.211	119.957	68.063	-83.641	-78.563	44.989	34.462	-79.640	-75.296	-74.875	-70.571	56.896	-71.608	-8191	255	
25555.059	1	1	0	0	0.068756	0.11709	0.11415	0.24432	0.029924	0.096359	0.10174	0.24737	0.10003	0.058826	0.077836	0.099919	0.27319	0.23362	0.041657	0.22506	-2.8771	-2.8771	-3.3042	-3.1625	-2.7542	-3.5292	-2.8708	-3.2562	-3.4125	-2.7188	-3.4688	-3.4437	-2.75	-3.5417	-2.8771	-3.1375	213.720	80.491	51.727	206.758	117.857	28.187	105.592	189.113	121.858	50.167	85.228	223.535	199.672	-64.690	234.461	157.915	0.00035418	0.00082398	0.00028216	875.14	3.8601e-06	8.9712e-06	1474.2	240.49	5.4389e-06	6.644e-06	566.85	224.5	90.85	35.608	8.6497e-06	100.17	0.00030522	0.00023802	7.4691e-05	674.38	2.4821e-06	2.6516e-06	1143.7	186.16	2.5396e-06	2.6236e-06	438.93	175.44	71.087	27.973	2.5436e-06	77.858	-74.207	12.987	-24.237	-84.150	38.719	65.840	-83.759	-78.098	79.347	69.808	-79.509	-75.350	-74.480	-70.324	41.736	-72.340	-8191	255	
25555.154	1	1	0	0	0.049717	0.13009	0.041059	0.10876	0.097048	0.035943	0.17378	0.067563	0.033297	0.0706	0.15164	0.18304	0.49354	0.24912	0.28834	0.22254	-3.0896	-2.6646	-3.3	-3.4583	-2.7	-3.3521	-3.0396	-3.0625	-3.5125	-2.8771	-3.3708	-3.5458	-2.6625	-3.3521	-2.9146	-2.9	121.834	67.576	-27.975	-96.082	136.248	213.810	204.374	204.707	245.423	-26.851	241.635	211.903	178.524	187.968	-34.273	221.394	0.00027124	0.00082003	0.0002576	870.4	8.3348e-06	4.0883e-06	1468.1	240.53	1.8236e-06	7.2185e-06	562.82	224.75	90.821	35.98	5.057e-06	98.926	0.00031331	0.00024928	6.8506e-05	673.14	2.7117e-06	2.5025e-06	1139.6	186.13	2.4715e-06	2.436e-06	437.2	174.68	71.02	28.054	2.4401e-06	77.243	-58.117	-7.875	-18.675	-83.841	99.857	80.888	-83.858	-78.443	51.539	35.221	-79.684	-75.027	-75.422	-70.756	72.361	-71.874	-8191	255	
25555.250	1	1	0	0	0.12187	0.045777	0.10032	0.0058944	0.074042	0.1943	0.29131	0.078267	0.1101	0.018683	0.11891	0.25977	0.25986	0.25649	0.16838	0.16777	-2.9854	-2.8542	-3.1125	-3.3312	-2.7833	-3.6188	-3.3187	-2.8375	-3.3521	-2.825	-3.2729	-3.6396	-2.7542	-3.2625	-3.1104	-2.9896	133.175	19.011	210.037	139.754	-42.565	255.166	132.612	196.469	208.565	216.792	-76.454	233.044	-92.486	246.714	29.791	235.927	0.00030993	0.00073848	0.00013164	866.45	8.8228e-06	7.4972e-06	1468.9	239.74	4.5425e-06	1.0119e-05	566.98	223.32	91.045	35.315	1.2424e-05	98.487	0.00030892	0.00023377	6.2573e-05	669.6	2.618e-06	2.6652e-06	1136.4	185.39	2.5028e-06	2.4335e-06	438.73	174.65	70.859	27.799	2.5623e-06	77.149	-45.505	-20.700	-0.516	-84.008	58.434	23.980	-83.530	-78.655	52.792	47.869	-79.426	-75.483	-74.665	-70.839	67.401	-71.723	-8191	255	
25555.346	1	1	0	0	0.31838	0.18133	0.15238	0.18167	0.24068	0.22585	0.058085	0.31683	0.1483	0.17484	0.20628	0.093271	0.23203	0.25409	0.32224	0.054506	-3.1604	-2.8708	-3.0687	-3.3479	-2.8438	-3.4729	-3.4375	-2.9729	-3.6063	-2.9521	-3.1896	-3.6292	-2.8688	-3.2313	-3.1396	-2.8521	-27.421	21.360	205.000	174.855	110.653	-49.742	-6.542	196.505	134.325	16.993	250.074	260.077	-83.914	205.188	210.319	224.020	0.00036856	0.00029104	0.00018677	867.45	1.1849e-05	5.6696e-06	1462.7	239.19	3.6258e-06	7.1422e-06	564.82	225.18	91.302	35.48	4.7628e-06	98.828	0.00027645	0.00022027	6.3917e-05	670.92	2.7732e-06	2.4354e-06	1134	184.98	2.7299e-06	2.5815e-06	436.97	174.82	71.261	27.752	2.3769e-06	76.958	-62.428	29.896	11.061	-83.590	77.352	81.250	-83.762	-77.963	139.601	29.949	-79.657	-75.490	-75.239	-70.765	52.667	-71.976	-8191	255	
25555.441	1	1	0	0	0.17762	0.17559	0.12193	0.35826	0.060315	0.27334	0.44802	0.16068	0.10918	0.20091	0.098283	0.17551	0.065172	0.22707	0.081412	0.21762	-3.2188	-2.8583	-2.8583	-3.5229	-2.7271	-3.2687	-3.4271	-2.9104	-3.4875	-3.1292	-2.9521	-3.7104	-2.9271	-3.1813	-3.4458	-2.8542	-47.717	56.011	130.065	106.354	111.516	202.887	168.544	188.006	126.818	-85.419	142.848	248.545	224.944	183.689	11.397	237.958	0.00026582	0.0010006	0.00011001	866.21	6.3657e-06	3.5071e-06	1476	241.24	4.574e-06	6.9532e-06	562.86	225.05	91.125	35.441	4.6978e-06	99.053	0.00031094	0.00023002	6.3659e-05	670.24	2.6768e-06	2.4243e-06	1135.5	185.32	2.5646e-06	2.5245e-06	435.7	175.18	71.146	27.738	2.5382e-06	77.131	-46.178	8.417	3.107	-84.348	90.276	18.508	-84.112	-78.768	104.258	59.553	-79.585	-75.439	-75.082	-71.130	43.666	-72.135	-8191	255	
25555.562	1	1	0	0	0.23458	0.23975	0.04749	0.19235	0.10272	0.26241	0.13766	0.16229	0.22092	0.11945	0.22828	0.12757	0.20191	0.10035	0.17203	0.24494	-3.2271	-3.0312	-2.8104	-3.7542	-2.9	-3.1042	-3.6521	-2.9667	-3.4708	-3.1188	-2.8979	-3.7604	-3.0021	-3.1562	-3.4458	-2.7833	155.827	-44.413	185.318	245.657	182.846	124.937	230.900	180.843	200.218	61.832	224.336	240.839	113.109	153.362	226.720	216.359	0.00032672	0.00089977	0.00018858	881.62	7.1647e-06	4.4821e-06	1460.8	238.06	4.5776e-06	6.3503e-06	564.99	225.22	90.216	35.693	7.6113e-06	98.578	0.00030812	0.00022831	6.5298e-05	673.94	2.6939e-06	2.5011e-06	1133.1	183.85	2.6852e-06	2.6743e-06	437.36	174.39	70.478	27.86	2.5442e-06	76.795	-70.628	10.412	-19.515	-84.470	100.165	70.150	-83.760	-78.832	65.174	73.708	-79.462	-74.997	-74.903	-70.597	71.794	-71.462	-8191	255	
25555.658	1	1	0	0	0.15178	0.18174	0.0015606	0.22246	0.1447	0.266	0.3462	0.12788	0.18238	0.18003	0.27984	0.12227	0.19254	0.16591	0.050615	0.12849	-2.9479	-2.9813	-2.8125	-3.4208	-3.025	-2.9875	-3.5479	-2.8271	-3.2479	-3.2271	-2.8083	-3.575	-3.0687	-2.9354	-3.5312	-2.9375	62.557	250.050	180.000	-62.979	165.318	173.242	221.682	178.900	-25.076	220.571	190.329	220.219	220.008	193.077	201.185	120.599	0.00034748	0.00070033	0.0001468	878.53	7.4874e-06	6.5757e-06	1477.3	238.83	4.8373e-06	6.3172e-06	565.95	221.98	91.474	35.208	9.6603e-06	98.102	0.00031514	0.00021813	6.8775e-05	673.85	2.4847e-06	2.5539e-06	1139.2	185	2.7303e-06	2.5941e-06	438.28	173.62	71.063	27.686	2.6472e-06	76.772	-50.033	7.009	-23.549	-84.208	42.297	54.108	-84.026	-78.362	58.983	52.287	-79.157	-75.437	-75.253	-71.369	71.351	-71.419	-8191	255	
25555.756	1	1	0	0	0.31834	0.13889	0.22053	0.20378	0.10418	0.18172	0.029609	0.17149	0.17988	0.22488	0.25796	0.040081	0.09899	0.1135	0.21267	0.29599	-2.9104	-3.2438	-2.6792	-3.55	-2.9667	-2.7562	-3.6854	-2.7812	-3.0812	-3.4083	-2.7062	-3.5333	-3.2646	-2.9021	-3.4896	-2.8542	-17.595	135.204	155.787	206.846	179.188	169.714	158.419	193.458	-8.258	45.068	255.482	136.438	-12.230	-63.966	145.967	218.794	0.00032032	0.00067254	0.00023114	875.77	6.198e-06	7.4705e-06	1469.2	238.71	4.4077e-06	6.8344e-06	564.48	224.27	91.062	35.701	7.5606e-06	98.208	0.00030552	0.00022265	6.7017e-05	673.99	2.4608e-06	2.5595e-06	1135.2	184.67	2.6844e-06	2.4377e-06	437.56	174.83	70.642	27.828	2.5432e-06	77.023	-63.164	-22.055	9.795	-84.009	43.905	69.070	-84.089	-78.922	76.075	15.123	-79.566	-74.533	-74.873	-71.345	79.653	-71.907	-8191	255	
25555.852	1	1	0	0	0.10957	0.18308	0.29602	0.07797	0.037919	0.11046	0.28331	0.0082892	0.21653	0.19491	0.18462	0.32321	0.22989	0.1803	0.22409	0.096079	-2.725	-3.3042	-2.6583	-3.3708	-3.2104	-2.8542	-3.7812	-3.1271	-3.1917	-3.5438	-2.8	-3.475	-3.3875	-2.7938	-3.5729	-3.3021	247.573	-31.153	48.538	186.772	88.529	130.905	190.747	-89.948	-22.993	100.962	257.567	204.129	-87.033	38.155	72.789	210.896	0.00032093	0.00078727	7.0123e-05	870.19	6.4685e-06	4.9447e-06	1476.7	238.05	3.6696e-06	6.0906e-06	562.84	224.83	91.209	35.637	3.4938e-06	98.51	0.00030635	0.00023747	6.4954e-05	674.28	2.4673e-06	2.9202e-06	1140.7	185.71	2.5959e-06	2.4535e-06	436.66	175.06	71.109	27.866	2.314e-06	77.111	-43.710	-14.452	4.567	-84.108	87.312	51.684	-83.388	-78.619	140.487	39.493	-79.768	-75.245	-74.754	-71.011	41.022	-71.854	-8191	255	
25555.973	1	1	0	0	0.24274	0.23937	0.21673	0.055826	0.057244	0.057432	0.21159	0.11905	0.18163	0.064546	0.3733	0.20277	0.21704	0.077346	0.020047	0.2885	-2.6896	-3.4417	-2.75	-3.4417	-3.2188	-2.7958	-3.5896	-3.0896	-2.9833	-3.525	-2.9417	-3.2875	-3.3729	-2.8042	-3.5458	-3.2229	105.016	-89.336	27.644	44.564	39.017	123.882	191.297	-19.883	-79.919	36.083	223.648	224.553	217.426	161.943	-35.978	206.765	0.00032555	0.00094843	0.00018036	871.69	1.2252e-05	1.0481e-05	1476.1	239.13	6.0811e-06	6.6229e-06	564.56	224.67	90.967	35.463	4.4117e-06	98.099	0.0003035	0.00020083	6.3535e-05	672.57	2.563e-06	2.6388e-06	1139.7	185.42	2.3911e-06	2.4673e-06	437.69	174.46	71.059	27.875	2.4175e-06	76.739	-56.631	-13.281	-21.609	-83.746	48.162	56.284	-83.701	-78.546	90.833	14.637	-79.863	-75.014	-74.787	-70.579	48.785	-71.579	-8191	255	
25556.045	1	1	0	0	0.097334	0.10616	0.31537	0.27127	0.21111	0.27647	0.26367	0.10941	0.22306	0.15822	0.079437	0.25434	0.35486	0.1452	0.15695	0.31036	-2.4313	-3.4396	-2.8271	-3.2229	-3.5208	-2.8271	-3.5708	-3.2625	-3.0771	-3.5812	-2.9771	-3.3583	-3.5271	-2.8917	-3.4708	-3.3042	5.530	104.557	172.115	204.233	75.393	164.092	177.085	44.505	-66.171	193.839	98.810	177.299	180.009	-77.683	221.238	186.797	0.0003955	0.00043638	0.00027065	869.09	1.3129e-05	6.554e-06	1471.4	240.86	5.5437e-06	4.6851e-06	569.38	224.98	91.493	35.71	8.0551e-06	98.74	0.00032183	0.00022979	6.6727e-05	672.93	2.5123e-06	2.6366e-06	1136.4	186.29	2.5235e-06	2.5109e-06	440.59	175	71.185	27.972	2.6326e-06	76.924	-67.088	14.846	-10.769	-83.468	66.945	37.930	-83.844	-78.244	73.276	64.412	-79.774	-74.981	-75.277	-71.085	62.206	-72.171	-8191	255	
25556.162	1	1	0	0	0.24349	0.20451	0.11235	0.35509	0.10815	0.0080088	0.24451	0.26197	0.063217	0.27215	0.098312	0.30741	0.20525	0.038436	0.10293	0.27408	-2.4083	-3.4292	-2.8521	-3.1479	-3.4771	-2.7313	-3.6083	-3.3771	-2.7938	-3.2667	-3.075	-3.2479	-3.4479	-2.8271	-3.3625	-3.3521	142.830	49.474	30.131	212.815	-8.422	96.539	215.462	182.520	176.666	-71.744	140.900	227.976	202.223	-52.264	129.010	229.847	0.00035889	0.00085016	0.00019648	871.84	8.513e-06	6.1089e-06	1475.4	238.7	5.8234e-06	4.7373e-06	567.83	224.12	91.498	35.539	7.6455e-06	98.705	0.00031356	0.00022538	6.7512e-05	673.75	2.5395e-06	2.6959e-06	1143.3	185.86	2.9129e-06	2.3469e-06	439.82	175.34	71.4	27.813	2.5096e-06	77.266	-61.491	12.876	1.683	-84.042	74.803	67.130	-83.641	-78.663	101.468	35.688	-80.039	-74.668	-74.751	-70.925	54.813	-72.108	-8191	255	
25556.260	1	1	0	0	0.23405	0.091205	0.070691	0.040799	0.19174	0.019594	0.27507	0.16402	0.21171	0.16045	0.1642	0.14428	0.061365	0.072597	0.085764	0.13312	-2.3312	-3.4479	-2.8854	-2.8625	-3.6042	-2.8688	-3.3563	-3.5229	-2.6625	-3.3917	-3.1146	-3.0625	-3.5875	-3.0646	-3.0062	-3.5854	-69.839	-70.792	-45.488	227.937	173.368	-71.764	157.044	144.214	179.858	241.393	250.245	235.710	-14.278	49.001	-40.976	234.896	0.00027568	0.00077323	8.4247e-05	875.33	3.2502e-06	4.5555e-06	1476.7	241.16	6.6286e-06	3.5261e-06	567.43	225.71	92.032	35.811	5.2819e-06	98.909	0.00032003	0.00022738	6.8447e-05	674.47	2.4472e-06	2.5147e-06	1144.5	186.55	2.7422e-06	2.3741e-06	438.96	175.21	71.413	27.816	2.3647e-06	77.297	-64.103	-0.996	-2.424	-83.947	85.579	66.014	-83.567	-78.630	77.594	49.407	-79.705	-74.972	-74.721	-70.565	57.587	-71.697	-8191	255	
25556.355	1	1	0	0	0.11731	0.097489	0.10005	0.14103	0.22534	0.083845	0.090488	0.13674	0.16895	0.11171	0.15587	0.19407	0.1316	0.12773	0.029933	0.21646	-2.1208	-3.325	-3.0938	-2.8438	-3.5042	-2.8125	-3.2354	-3.7042	-2.9333	-3.2812	-3.4188	-2.8708	-3.5	-2.9313	-3.0125	-3.7521	4.051	197.203	102.628	157.161	90.330	238.770	41.421	187.704	195.476	81.219	137.245	195.828	166.834	122.930	-39.502	166.994	0.00031577	0.00087548	6.7963e-05	862.5	5.6742e-06	9.0456e-06	1480	243.21	3.7452e-06	3.4629e-06	564.49	225.25	91.524	35.463	4.3333e-06	99.405	0.00031846	0.00021694	6.4019e-05	671.31	2.775e-06	2.7618e-06	1144	187	2.6114e-06	2.6668e-06	437.87	175.45	71.211	27.895	2.7352e-06	77.386	-40.028	4.606	30.150	-83.903	43.101	47.907	-83.667	-78.915	71.292	81.754	-79.320	-75.101	-74.769	-71.037	53.537	-72.175	-8191	255	
25556.451	1	1	0	0	0.23467	0.23725	0.079811	0.18048	0.18286	0.08114	0.15667	0.12234	0.092278	0.12308	0.34952	0.097262	0.12441	0.17041	0.098645	0.41052	-2.2542	-3.3042	-3.3646	-2.85	-3.6688	-3.0187	-3.1625	-3.6	-2.9021	-3.3333	-3.5167	-2.9521	-3.6167	-3.1667	-2.8521	-3.7458	167.609	148.963	-53.688	191.659	211.619	198.411	-72.014	249.255	184.848	44.469	234.219	156.438	147.414	221.205	227.420	209.290	0.00024663	0.00057238	0.00027246	868.93	5.52e-06	5.7892e-06	1483.5	240.23	3.2786e-06	7.7902e-06	568.28	224.71	91.333	35.753	1.0534e-05	98.768	0.00033634	0.00022765	6.2127e-05	672.03	2.6732e-06	2.4652e-06	1144.5	186.88	2.6614e-06	2.6432e-06	439.04	175.5	71.201	27.952	2.8368e-06	77.184	-70.962	-39.204	-18.495	-84.178	152.594	74.131	-83.972	-78.482	76.418	41.753	-79.490	-75.174	-75.042	-71.038	51.345	-71.618	-8191	255	
25556.572	1	1	0	0	0.14173	0.10664	0.19294	0.34735	0.13745	0.092886	0.22036	0.065586	0.090773	0.17629	0.41925	0.5451	0.13531	0.32491	0.096565	0.21536	-2.4146	-3.2271	-3.325	-2.8104	-3.475	-3.0792	-3.0896	-3.4479	-2.8333	-3.2833	-3.4979	-2.9875	-3.1937	-3.2479	-2.8563	-3.8125	-41.922	-56.355	38.570	251.680	-73.899	26.094	211.708	-63.555	-54.907	-44.910	226.890	134.460	129.340	-82.624	176.432	220.498	0.00034602	0.00077833	0.00016018	873.32	7.2266e-06	7.7631e-06	1484.1	240.28	4.7335e-06	7.7824e-06	572.02	224.95	91.403	35.974	8.306e-06	99.041	0.00031831	0.00021905	6.4846e-05	675.45	2.6397e-06	2.5294e-06	1144.9	186.24	2.5527e-06	2.4896e-06	441.63	175.79	71.486	28.111	2.6633e-06	77.702	-59.380	-28.318	69.175	-84.071	61.619	71.411	-83.719	-78.988	139.078	57.475	-79.697	-74.680	-74.688	-70.569	92.742	-71.556	-8191	255	
25556.643	1	1	0	0	0.074236	0.10958	0.10681	0.23441	0.046787	0.25873	0.15257	0.29006	0.3328	0.24981	0.18358	0.34572	0.094022	0.22654	0.086446	0.28212	-2.4083	-3.0625	-3.4896	-2.7938	-3.3979	-3.2854	-3.0042	-3.5458	-2.9125	-3.0479	-3.5729	-2.9167	-3.3375	-3.3125	-2.7229	-3.7	-4.877	36.439	90.296	207.106	20.904	206.532	252.312	189.939	203.604	80.494	192.887	175.880	178.545	-60.580	100.753	166.778	0.0003136	0.00067949	0.00021294	865.96	6.9478e-06	4.4051e-06	1483	240.59	8.8396e-06	1.2107e-05	573.62	225.11	92.39	35.871	1.0201e-05	99.232	0.00031469	0.00024978	6.5658e-05	670.35	2.5529e-06	2.3925e-06	1145.8	186.72	2.6178e-06	2.6804e-06	442.59	175.79	71.662	27.914	2.72e-06	77.22	-56.966	-17.721	-8.850	-84.022	53.028	47.356	-83.673	-78.556	85.806	30.643	-79.642	-75.588	-74.630	-71.145	77.560	-71.822	-8191	255	
25556.738	1	1	0	0	0.14386	0.13362	0.22061	0.10768	0.050072	0.18584	0.11695	0.04897	0.33227	0.14314	0.047365	0.16426	0.23183	0.15869	0.075704	0.4771	-2.6792	-3.0771	-3.3583	-2.8854	-3.4021	-3.3104	-3.0417	-3.4354	-3.0979	-2.7875	-3.625	-2.775	-3.3458	-3.4833	-2.8021	-3.525	153.436	230.593	-16.231	261.668	242.450	181.692	202.548	149.968	166.629	84.062	28.289	211.014	140.516	254.007	0.361	216.520	0.00034615	0.0012168	0.00017392	872.84	5.3812e-06	4.8958e-06	1485	240.13	6.2682e-06	7.005e-06	573.28	226.25	90.495	35.802	9.4818e-06	98.937	0.00029452	0.00025301	6.3686e-05	675.39	2.449e-06	2.4654e-06	1147.1	186.07	2.383e-06	2.6124e-06	442.63	175.46	71.092	27.883	2.68e-06	77.47	-59.483	-45.702	-11.815	-83.703	55.787	53.092	-83.830	-78.316	61.025	31.058	-79.481	-75.353	-75.046	-70.752	71.596	-71.146	-8191	255	
25556.836	1	1	0	0	0.18184	0.074964	0.13448	0.3626	0.10934	0.082032	0.17127	0.1248	0.19128	0.37808	0.12789	0.070645	0.13157	0.19475	0.081387	0.071792	-2.7354	-2.8167	-3.4854	-2.7333	-3.1479	-3.5354	-2.6375	-3.4917	-3.1125	-2.7354	-3.7354	-3	-3.2062	-3.2708	-2.5292	-3.5167	-54.429	193.521	-83.147	222.897	26.084	185.971	206.592	244.216	209.612	-45.030	140.155	104.984	67.101	251.340	256.860	97.795	0.00035383	0.00090327	0.00023898	878.75	4.9729e-06	9.1326e-06	1486.8	241.88	6.9315e-06	6.9937e-06	573.12	226.75	91.511	35.768	8.1899e-06	100.91	0.00031635	0.00024081	5.9478e-05	674.46	2.5809e-06	2.5648e-06	1145.7	187.47	2.4338e-06	2.5956e-06	443.85	176.18	71.551	27.982	2.7245e-06	78.035	-52.600	6.592	22.835	-84.090	35.129	40.667	-83.442	-78.189	43.349	74.208	-79.187	-75.442	-74.700	-70.449	45.971	-71.732	-8191	255	
25556.932	1	1	0	0	0.068802	0.16631	0.25391	0.024509	0.085847	0.052167	0.18243	0.16767	0.18801	0.18268	0.12467	0.24544	0.15784	0.15028	0.1474	0.2786	-2.8042	-2.775	-3.4208	-2.925	-3.2438	-3.6521	-2.8667	-3.3438	-3.3063	-2.6792	-3.5292	-3.1396	-3.0354	-3.5917	-2.8396	-3.3958	224.044	239.062	134.813	181.416	89.936	-78.514	230.345	-74.444	211.604	229.350	-87.387	176.626	-16.369	-39.462	111.526	204.716	0.00031653	0.00073304	0.0001108	877.16	9.8166e-06	6.95e-06	1484.3	242.53	4.7351e-06	9.1508e-06	569.88	227.36	91.392	35.674	6.9449e-06	99.803	0.00030865	0.00025792	6.8329e-05	675.96	2.7135e-06	2.7042e-06	1149	187.97	2.5415e-06	2.7545e-06	443.68	176.02	71.594	27.849	2.7282e-06	77.891	-53.336	-10.481	-13.123	-84.149	63.636	73.536	-83.716	-78.313	67.771	60.941	-79.734	-74.966	-74.446	-70.560	70.068	-71.914	-8191	255	
25557.051	1	1	0	0	0.081635	0.18379	0.1277	0.16916	0.01373	0.25075	0.37579	0.11132	0.12524	0.29281	0.23119	0.28698	0.45598	0.27304	0.12631	0.18985	-2.8792	-2.6063	-3.4771	-3.0396	-2.8438	-3.6	-3.0708	-3.2479	-3.4458	-2.7562	-3.4833	-3.2896	-2.9292	-3.6604	-2.9	-3.3583	125.706	-78.902	239.650	221.250	137.043	4.364	175.340	174.048	142.108	-58.251	184.958	239.903	237.641	63.493	180.265	230.114	0.00036494	0.00070884	0.00024322	880.89	7.1873e-06	7.1386e-06	1480.3	243.91	2.8254e-06	8.3132e-06	568.74	225.78	91.401	35.602	8.5978e-06	99.379	0.00030337	0.00025076	6.3315e-05	678.01	2.7113e-06	2.5686e-06	1148.2	188.2	2.6707e-06	2.8051e-06	441.24	175.97	71.291	27.944	2.5904e-06	77.52	-61.823	-30.515	-8.339	-83.825	58.836	68.206	-83.841	-78.379	88.071	48.560	-79.705	-75.111	-74.605	-70.827	73.778	-71.967	-8191	255	
25557.146	1	1	0	0	0.094756	0.18316	0.2205	0.18628	0.05588	0.06115	0.41407	0.085846	0.18375	0.12943	0.10068	0.29808	0.33254	0.20715	0.051623	0.1828	-2.7271	-2.6958	-3.3479	-3.2042	-2.6792	-3.4479	-2.9875	-3.0208	-3.525	-2.9271	-3.3063	-3.2708	-2.7583	-3.5417	-2.9229	-3.0542	60.258	155.447	-55.091	212.540	224.448	-8.979	163.133	116.278	212.024	-32.459	256.612	160.623	260.287	-89.575	189.257	225.153	0.00027587	0.00077884	0.0002071	874.8	1.1436e-05	4.0887e-06	1489.9	242.87	6.4992e-06	6.1454e-06	576.04	226.63	91.834	36.085	7.4573e-06	98.987	0.00029721	0.00023623	6.5115e-05	673.13	2.7825e-06	2.5639e-06	1147.7	187.32	2.5288e-06	2.8378e-06	443.97	176.35	71.661	28.055	2.4407e-06	77.398	-53.203	-16.743	-22.906	-84.043	69.493	62.813	-84.023	-78.247	96.466	55.886	-79.627	-75.425	-74.866	-70.602	91.540	-71.921	-8191	255	
25557.242	1	1	0	0	0.25472	0.1716	0.16628	0.2049	0.19061	0.14123	0.32344	0.31083	0.13112	0.14945	0.40204	0.24416	0.17162	0.14879	0.10834	0.15335	-3.0062	-2.7021	-3.2188	-3.4	-2.6937	-3.3229	-3.0042	-2.8792	-3.5687	-2.7667	-3.4292	-3.4146	-2.8042	-3.5958	-3.1021	-3.0542	26.987	225.709	-11.722	-83.383	126.289	-1.326	191.312	199.433	-72.400	33.777	232.114	241.455	133.918	36.831	52.041	159.336	0.00033622	0.00067284	0.00019179	882.19	7.7632e-06	8.5891e-06	1487.3	243.94	6.6784e-06	7.3713e-06	568.03	225.36	92.057	35.65	1.1343e-05	99.588	0.00030355	0.00022729	6.4513e-05	676.46	2.848e-06	2.4895e-06	1147.3	187.88	2.6805e-06	2.389e-06	441.79	176.09	71.749	27.904	2.5766e-06	77.662	-59.857	-12.152	-25.501	-83.872	52.304	75.313	-83.786	-78.801	84.666	49.766	-79.922	-75.265	-75.213	-71.092	86.620	-71.816	-8191	255	
25557.340	1	1	0	0	0.13719	0.23186	0.054187	0.042853	0.34181	0.15886	0.42736	0.25401	0.083449	0.32803	0.32163	0.38299	0.10666	0.29033	0.069574	0.26019	-3.1271	-2.7292	-3.2542	-3.4562	-2.7417	-3.3083	-3.1979	-2.8896	-3.5271	-2.9104	-3.3438	-3.4938	-2.9792	-3.4062	-3.1479	-2.9313	113.166	124.672	114.047	87.101	257.617	228.673	188.146	211.738	-53.083	-94.143	150.732	258.197	245.987	244.822	30.958	248.224	0.00035305	0.00081347	0.00022584	868.55	7.1969e-06	1.0268e-05	1493.4	239.26	6.1258e-06	8.9202e-06	571.18	228.03	91.984	35.874	3.9057e-06	99.667	0.00030737	0.00023316	6.1998e-05	673.75	2.5182e-06	2.5254e-06	1150.7	186.59	2.4618e-06	2.56e-06	443.49	177.05	71.822	28.038	2.1153e-06	77.782	-54.320	-25.435	-3.269	-83.822	37.275	57.154	-83.780	-78.785	70.603	22.921	-79.660	-74.960	-74.863	-71.069	22.109	-71.739	-8191	255	
25557.436	1	1	0	0	0.14249	0.048546	0.30039	0.032273	0.1123	0.045508	0.19394	0.19963	0.22445	0.18766	0.17274	0.196	0.12321	0.16548	0.11195	0.32652	-3.0833	-2.9	-2.9458	-3.4354	-2.4604	-3.3292	-3.5458	-2.75	-3.4271	-3.0104	-2.775	-3.5083	-2.7917	-3.3333	-3.2375	-2.9125	-88.118	-96.500	-60.103	77.994	75.014	82.327	190.865	239.700	-49.493	229.764	179.774	258.846	-56.097	158.695	189.521	255.504	0.00037396	0.0011752	0.00028593	873.23	8.8198e-06	5.1096e-06	1490.9	241.2	2.3778e-06	4.4871e-06	570.89	226.58	91.681	35.957	8.805e-06	99.49	0.00030957	0.00025147	6.7748e-05	675.35	2.5586e-06	2.4893e-06	1149.9	186.68	2.6886e-06	2.5483e-06	443.36	175.83	71.307	27.968	2.4958e-06	77.652	-57.194	6.239	-41.603	-83.620	55.082	57.565	-83.971	-78.523	81.971	46.614	-79.561	-75.151	-75.072	-70.959	15.541	-71.890	-8191	255	
25557.531	1	1	0	0	0.3224	0.072041	0.12294	0.15111	0.12296	0.15172	0.075343	0.030492	0.23888	0.14566	0.2379	0.2615	0.062022	0.14387	0.20738	0.4501	-3.0208	-2.8833	-2.8479	-3.5521	-2.8187	-3.1396	-3.4208	-2.6729	-3.5083	-3.0354	-2.9437	-3.3729	-3.1	-3.2417	-3.3187	-2.8625	197.330	239.105	57.539	85.146	47.603	-80.648	149.257	146.282	-85.143	201.092	252.506	218.327	154.676	241.047	-5.876	214.323	0.00029859	0.00073398	0.00018085	875.97	9.2823e-06	8.2919e-06	1488	242.01	6.7887e-06	1.0049e-05	574.25	224.52	91.573	36.088	1.2276e-05	100.11	0.00028963	0.00023925	6.8076e-05	673.97	2.5089e-06	2.4742e-06	1148.9	187.18	2.5725e-06	2.5213e-06	443.89	175.48	71.672	28.112	2.8436e-06	77.983	-62.134	-2.655	15.376	-84.257	63.378	80.745	-83.839	-79.131	97.704	58.314	-79.825	-75.063	-75.422	-70.799	50.760	-71.722	-8191	255	
25557.652	1	1	0	0	0.14278	0.067823	0.22066	0.18018	0.25471	0.10575	0.098335	0.22188	0.14885	0.096245	0.043887	0.23414	0.13512	0.14937	0.10569	0.30032	-2.9188	-3.2479	-2.6417	-3.5729	-2.6688	-3.1042	-3.4479	-2.8271	-3.4104	-3.0687	-2.9813	-3.7292	-2.9479	-3.025	-3.3458	-2.875	-40.743	4.410	121.558	55.996	44.328	16.845	72.120	232.095	244.266	80.523	240.068	255.041	116.226	213.466	247.854	208.970	0.00029338	0.00055486	0.00030644	879.22	5.3205e-06	1.0305e-05	1468.9	242.68	1.5553e-06	7.2421e-06	568.5	226.26	91.687	35.669	1.0103e-05	99.198	0.00028825	0.0002426	6.1638e-05	674.46	2.3689e-06	2.7758e-06	1145	187.69	2.5525e-06	2.3961e-06	442.78	176.63	71.39	27.941	2.5902e-06	77.837	-69.266	29.814	-9.385	-83.963	90.716	70.761	-83.762	-78.245	144.579	40.019	-79.253	-74.732	-74.814	-70.666	85.826	-71.513	-8191	255	
25557.748	1	1	0	0	0.24232	0.12219	0.26733	0.13845	0.060959	0.089682	0.19183	0.19596	0.10894	0.26194	0.45455	0.29223	0.40227	0.15524	0.23049	0.13926	-3.0542	-3.1229	-2.6354	-3.4396	-2.9042	-2.8271	-3.5792	-2.7979	-3.1646	-3.2062	-2.7625	-3.7479	-3.1208	-2.9708	-3.5604	-2.9167	179.152	212.427	85.150	-49.466	29.051	-72.327	238.989	138.486	46.350	-71.702	222.843	219.456	147.311	233.519	239.166	-75.243	0.00023928	0.0004943	0.00027139	872.62	3.1396e-06	5.1314e-06	1485.5	243.65	5.79e-06	9.637e-06	574.63	225.11	91.822	35.76	5.6723e-06	99.87	0.00030285	0.0002362	7.5868e-05	674.16	2.5235e-06	2.481e-06	1150.7	188.4	2.7916e-06	2.4794e-06	446.41	176.8	71.659	28.06	2.4428e-06	78.126	-52.641	-13.641	-12.479	-83.693	68.591	23.860	-83.608	-78.818	145.894	73.324	-79.624	-74.819	-74.594	-70.684	33.981	-72.225	-8191	255	
25557.844	1	1	0	0	0.36233	0.22787	0.26724	0.15492	0.20961	0.16393	0.33198	0.10702	0.13521	0.22855	0.010142	0.4128	0.2257	0.21759	0.080983	0.26132	-2.8438	-3.2417	-2.7854	-3.6083	-3.1917	-3.0396	-3.4542	-2.8083	-3.1562	-3.5604	-2.8563	-3.375	-3.1583	-2.975	-3.7417	-2.9042	242.076	16.345	92.752	178.233	-75.993	148.352	189.543	4.414	228.858	258.167	186.605	206.896	232.354	210.645	-83.434	222.933	0.00031277	0.00057406	0.00023795	874.79	7.5457e-06	7.2175e-06	1490.2	243.09	4.7733e-06	6.9716e-06	574.86	225.54	91.41	35.921	7.6314e-06	98.42	0.00029388	0.00021767	7.1816e-05	675.72	2.3474e-06	2.5345e-06	1151.5	187.92	2.6162e-06	2.2765e-06	444.34	176.05	71.391	28.063	2.5605e-06	77.348	-57.318	-6.856	-23.222	-83.781	46.978	69.083	-83.840	-78.826	58.760	19.366	-79.749	-75.047	-74.534	-71.036	71.647	-72.022	-8191	255	
25557.939	1	1	0	0	0.13142	0.20026	0.14322	0.07891	0.17639	0.21284	0.27494	0.30947	0.042007	0.12094	0.1665	0.14112	0.17608	0.13414	0.17691	0.25267	-2.6875	-3.425	-2.6708	-3.5438	-3.2729	-2.8042	-3.7438	-3.0667	-2.875	-3.4458	-3.0583	-3.7271	-3.3688	-2.95	-3.5	-3.2625	258.224	-72.127	17.200	9.160	-19.086	-18.245	-92.718	174.421	66.911	36.039	228.283	175.484	-96.656	161.266	-89.630	201.656	0.00031028	0.00065668	0.00015418	873.36	1.17e-05	8.648e-06	1488.3	241.97	4.46e-06	1.0759e-05	572.55	225.6	91.308	36.042	9.6865e-06	98.969	0.00030749	0.00022279	6.928e-05	673.65	2.588e-06	2.5665e-06	1150.1	187.39	2.5656e-06	2.4926e-06	444.36	176.31	71.401	28.136	2.599e-06	77.635	-60.790	-25.937	3.698	-83.820	68.656	66.251	-83.509	-78.703	95.611	41.325	-79.267	-75.172	-74.128	-71.016	48.576	-71.728	-8191	255	
#DATA ENDS
