BOXY.EXE: ISS Imagent and Oximeter Data Acquisition Program Version 0.80
Ascii Record File

#ACQ INFORMATION
2  Detector Channels 
16  External MUX Channels 
1  Auxiliary Channels 
5000  Waveform (CCF) Frequency (Hz)
1  Waveforms Skipped 
30  Waveforms Averaged 
1  Cycles Averaged 
16  Acquisitions per Waveform 
10.0806  Updata Rate (Hz) 

#FILE INFORMATION
TRUE -- External MUX Channel results are PARSED.
FALSE -- AC DC and Phase are NOT grouped.
TRUE -- Companion Program Settings File CREATED.
FALSE -- AC data not excluded
FALSE -- DC data not excluded
FALSE -- Phase data not excluded
FALSE -- Auxillary Chn. data not excluded
Tab delimiters

#CALIBRATION STATE
TRUE -- Waveform Calibration Values APPLIED.


#AUX CALIBRATION VALUES
Val Type	aux-1	

Term	1.0000e+00	
Factor	0.0000e+00	


#WF CALIBRATION VALUES
A = Detector Channel
Val Type	A-AC1	A-AC2	A-AC3	A-AC4	A-AC5	A-AC6	A-AC7	A-AC8	A-AC9	A-AC10	A-AC11	A-AC12	A-AC13	A-AC14	A-AC15	A-AC16	A-DC1	A-DC2	A-DC3	A-DC4	A-DC5	A-DC6	A-DC7	A-DC8	A-DC9	A-DC10	A-DC11	A-DC12	A-DC13	A-DC14	A-DC15	A-DC16	A-Ph1	A-Ph2	A-Ph3	A-Ph4	A-Ph5	A-Ph6	A-Ph7	A-Ph8	A-Ph9	A-Ph10	A-Ph11	A-Ph12	A-Ph13	A-Ph14	A-Ph15	A-Ph16	

Term	0.00000e+00	0.00000e+00	0.00000e+00	0.00000e+00	0.00000e+00	0.00000e+00	0.00000e+00	0.00000e+00	0.00000e+00	0.00000e+00	0.00000e+00	0.00000e+00	0.00000e+00	0.00000e+00	0.00000e+00	0.00000e+00	0.00000e+00	0.00000e+00	0.00000e+00	0.00000e+00	0.00000e+00	0.00000e+00	0.00000e+00	0.00000e+00	0.00000e+00	0.00000e+00	0.00000e+00	0.00000e+00	0.00000e+00	0.00000e+00	0.00000e+00	0.00000e+00	0.00000e+00	0.00000e+00	0.00000e+00	0.00000e+00	0.00000e+00	0.00000e+00	0.00000e+00	0.00000e+00	0.00000e+00	0.00000e+00	0.00000e+00	0.00000e+00	0.00000e+00	0.00000e+00	0.00000e+00	0.00000e+00	
Factor	1.00000e+00	1.00000e+00	1.00000e+00	1.00000e+00	1.00000e+00	1.00000e+00	1.00000e+00	1.00000e+00	1.00000e+00	1.00000e+00	1.00000e+00	1.00000e+00	1.00000e+00	1.00000e+00	1.00000e+00	1.00000e+00	1.00000e+00	1.00000e+00	1.00000e+00	1.00000e+00	1.00000e+00	1.00000e+00	1.00000e+00	1.00000e+00	1.00000e+00	1.00000e+00	1.00000e+00	1.00000e+00	1.00000e+00	1.00000e+00	1.00000e+00	1.00000e+00	X	X	X	X	X	X	X	X	X	X	X	X	X	X	X	X	

B = Detector Channel
Val Type	B-AC1	B-AC2	B-AC3	B-AC4	B-AC5	B-AC6	B-AC7	B-AC8	B-AC9	B-AC10	B-AC11	B-AC12	B-AC13	B-AC14	B-AC15	B-AC16	B-DC1	B-DC2	B-DC3	B-DC4	B-DC5	B-DC6	B-DC7	B-DC8	B-DC9	B-DC10	B-DC11	B-DC12	B-DC13	B-DC14	B-DC15	B-DC16	B-Ph1	B-Ph2	B-Ph3	B-Ph4	B-Ph5	B-Ph6	B-Ph7	B-Ph8	B-Ph9	B-Ph10	B-Ph11	B-Ph12	B-Ph13	B-Ph14	B-Ph15	B-Ph16	

Term	0.00000e+00	0.00000e+00	0.00000e+00	0.00000e+00	0.00000e+00	0.00000e+00	0.00000e+00	0.00000e+00	0.00000e+00	0.00000e+00	0.00000e+00	0.00000e+00	0.00000e+00	0.00000e+00	0.00000e+00	0.00000e+00	0.00000e+00	0.00000e+00	0.00000e+00	0.00000e+00	0.00000e+00	0.00000e+00	0.00000e+00	0.00000e+00	0.00000e+00	0.00000e+00	0.00000e+00	0.00000e+00	0.00000e+00	0.00000e+00	0.00000e+00	0.00000e+00	-7.70394e+01	-1.24773e+02	-1.22023e+02	-1.83689e+02	-5.26907e+01	-6.57493e+01	-1.55956e+02	-1.62015e+02	-4.12905e+01	-6.64813e+01	-1.69979e+02	-1.70582e+02	-1.79937e+02	-1.76627e+02	-6.08650e+01	-1.49193e+02	
Factor	1.65381e-05	1.27404e-04	4.20882e-05	1.74909e-01	1.21720e-06	1.50233e-06	1.52390e-01	4.88806e-02	1.05316e-06	1.33437e-06	8.28644e-02	2.88030e-02	2.48227e-02	8.64829e-03	1.26265e-06	1.23097e-02	3.77851e-06	4.39697e-06	1.22931e-06	9.36027e-02	4.74484e-08	4.83570e-08	7.69343e-02	2.63740e-02	4.70575e-08	4.84823e-08	4.32323e-02	1.50964e-02	1.35041e-02	4.69083e-03	4.79849e-08	6.44294e-03	X	X	X	X	X	X	X	X	X	X	X	X	X	X	X	X	



#DISTANCE SETTINGS
A = Detector Channel
A-1	A-2	A-3	A-4	A-5	A-6	A-7	A-8	A-9	A-10	A-11	A-12	A-13	A-14	A-15	A-16	

2.5000e+00	3.0000e+00	2.5000e+00	3.0000e+00	2.0000e+00	3.0000e+00	1.5000e+00	3.0000e+00	3.0000e+00	3.0000e+00	3.0000e+00	3.0000e+00	3.0000e+00	3.0000e+00	1.5000e+00	3.0000e+00	

B = Detector Channel
B-1	B-2	B-3	B-4	B-5	B-6	B-7	B-8	B-9	B-10	B-11	B-12	B-13	B-14	B-15	B-16	

1.0000e+01	1.0000e+01	1.0000e+01	1.4400e+00	1.0000e+01	1.0000e+01	1.5100e+00	1.9400e+00	1.0000e+01	1.0000e+01	1.9900e+00	2.4900e+00	2.4100e+00	2.9000e+00	1.0000e+01	2.9800e+00	




#DATA BEGINS
time	group	step	mark	flag	A-AC1	A-AC2	A-AC3	A-AC4	A-AC5	A-AC6	A-AC7	A-AC8	A-AC9	A-AC10	A-AC11	A-AC12	A-AC13	A-AC14	A-AC15	A-AC16	A-DC1	A-DC2	A-DC3	A-DC4	A-DC5	A-DC6	A-DC7	A-DC8	A-DC9	A-DC10	A-DC11	A-DC12	A-DC13	A-DC14	A-DC15	A-DC16	A-Ph1	A-Ph2	A-Ph3	A-Ph4	A-Ph5	A-Ph6	A-Ph7	A-Ph8	A-Ph9	A-Ph10	A-Ph11	A-Ph12	A-Ph13	A-Ph14	A-Ph15	A-Ph16	B-AC1	B-AC2	B-AC3	B-AC4	B-AC5	B-AC6	B-AC7	B-AC8	B-AC9	B-AC10	B-AC11	B-AC12	B-AC13	B-AC14	B-AC15	B-AC16	B-DC1	B-DC2	B-DC3	B-DC4	B-DC5	B-DC6	B-DC7	B-DC8	B-DC9	B-DC10	B-DC11	B-DC12	B-DC13	B-DC14	B-DC15	B-DC16	B-Ph1	B-Ph2	B-Ph3	B-Ph4	B-Ph5	B-Ph6	B-Ph7	B-Ph8	B-Ph9	B-Ph10	B-Ph11	B-Ph12	B-Ph13	B-Ph14	B-Ph15	B-Ph16	aux-1	digaux	

21486.244	1	1	0	256	0.20765	0.035109	0.040183	0.069344	0.2946	0.16188	0.28881	0.27114	0.082018	0.10821	0.17758	0.15203	0.24469	0.20656	0.29429	0.060188	-2.8208	-2.5438	-3.4375	-2.8812	-2.5563	-3.275	-2.7042	-2.9458	-3.4375	-2.5625	-3.3604	-2.9792	-2.55	-3.2313	-2.7146	-2.8812	12.828	-138.007	-23.184	118.982	11.853	-70.907	125.045	51.930	50.622	-143.002	-119.488	177.322	-104.558	83.118	83.333	95.873	0.0003497	0.0017766	0.00013958	459.47	2.3978e-05	1.9515e-05	503.87	154.47	3.6137e-06	6.6443e-06	195.86	74.834	55.229	20.947	1.2399e-05	30.446	0.0083116	0.0095163	0.0026065	614.1	9.968e-05	0.00010062	616.4	194.17	9.5655e-05	9.8997e-05	267.05	99.028	77.388	28.626	9.58e-05	40.985	-84.942	-69.145	-40.633	-158.368	-42.502	114.834	-159.670	-153.814	-156.358	50.820	-155.643	-152.277	-150.937	-147.271	36.026	-148.536	-8191	255	
21486.340	1	1	0	0	0.13143	0.17454	0.112	0.046098	0.023124	0.068631	0.22623	0.058944	0.17335	0.097285	0.3262	0.25263	0.16663	0.23386	0.33301	0.29294	-3.0438	-2.55	-3.1771	-3.075	-2.5854	-3.5354	-2.8104	-2.9083	-3.4688	-2.6792	-3.225	-3.2396	-2.6583	-3.5167	-2.8396	-2.8604	105.025	-120.276	147.933	-31.046	66.874	92.580	-171.863	-169.664	108.372	-13.056	-124.113	165.545	146.542	-166.196	123.058	-123.838	0.00030288	0.0010413	0.00055503	459.51	1.692e-05	1.611e-05	497.99	153.25	1.0358e-05	1.4694e-05	197.07	74.692	55.102	21.059	1.5942e-05	31.328	0.0075545	0.008648	0.0024265	600.73	9.3658e-05	9.4292e-05	604.71	190.59	8.8814e-05	9.1048e-05	261.01	96.449	75.396	27.871	8.6666e-05	40.018	-71.437	-67.061	-79.887	-158.626	-17.915	0.734	-158.861	-153.902	35.320	-63.494	-155.427	-152.813	-150.761	-146.455	-21.232	-148.447	-8191	255	
21486.412	1	1	0	0	0.18443	0.25762	0.20664	0.058473	0.17758	0.12879	0.18218	0.11489	0.16165	0.057206	0.1617	0.2791	0.15341	0.20594	0.049449	0.24829	-2.9646	-2.5354	-3.1292	-3.2396	-2.6625	-3.4104	-2.95	-2.7875	-3.3979	-2.6021	-3.1458	-3.3104	-2.5563	-3.2042	-3.2167	-2.925	172.609	-15.995	138.257	160.394	90.461	-92.570	-161.188	-114.067	-84.065	-62.856	-158.950	126.558	120.782	164.704	-136.889	92.809	0.00024042	0.00032954	0.00053756	461.15	1.6937e-05	6.8141e-06	501.82	152.91	2.1493e-06	1.2621e-05	196.64	75.686	54.977	20.784	5.9011e-06	30.809	0.0067314	0.0077997	0.0021656	580.14	8.2608e-05	8.4111e-05	587.99	185.94	8.2338e-05	8.4682e-05	255.97	95.714	74.525	27.681	8.689e-05	40.136	-123.788	-170.316	-135.127	-158.468	-119.566	146.119	-159.017	-153.624	-101.702	16.546	-155.289	-152.030	-151.321	-146.930	-60.658	-148.915	-8191	255	
21486.510	1	1	0	0	0.17552	0.22357	0.16469	0.19973	0.11445	0.13632	0.10622	0.26097	0.028512	0.12566	0.1879	0.22044	0.28098	0.26174	0.032921	0.1562	-3.0917	-2.7062	-2.9271	-3.1896	-2.7062	-3.275	-3.0958	-2.8042	-3.3604	-2.8187	-2.9938	-3.5229	-2.6854	-3.2354	-3.1958	-2.5875	88.881	-57.722	9.991	100.647	-22.888	-13.201	59.867	83.277	91.854	61.399	-24.665	177.769	-161.602	-161.807	-88.518	149.281	0.00029361	0.0026031	8.1624e-05	454.97	1.6018e-05	2.7058e-06	499.41	152.48	8.8969e-06	8.4255e-06	195.93	75.179	54.824	21.011	5.9923e-06	31.048	0.0069786	0.0080163	0.002245	585.42	8.6287e-05	8.772e-05	594.56	186.98	8.4895e-05	8.674e-05	257.57	95.527	74.033	27.352	8.3141e-05	39.472	184.103	-21.197	-52.940	-158.336	173.831	99.611	-159.252	-153.732	-71.129	90.625	-155.955	-152.439	-151.373	-147.111	118.734	-148.833	-8191	255	
21486.629	1	1	0	0	0.055294	0.21916	0.16071	0.20184	0.11488	0.11359	0.12951	0.1146	0.1397	0.19745	0.29684	0.084717	0.25926	0.21263	0.081127	0.21332	-3.0062	-2.7854	-2.8146	-3.3	-2.7938	-3.0604	-3.1854	-2.5479	-3.4833	-2.9604	-3.0208	-3.3896	-2.8583	-3.1688	-3.2396	-2.5229	-7.563	80.529	-47.998	184.985	-73.730	94.552	74.156	186.861	-59.250	129.889	173.440	38.704	-163.569	100.908	87.862	-160.562	0.00019443	0.0012157	0.00065193	458.14	1.155e-05	1.9355e-05	503.41	152.41	9.9363e-06	8.0945e-06	195.83	75.183	55.16	20.91	6.6891e-06	30.942	0.0063953	0.007353	0.0020382	568.32	7.6777e-05	7.7848e-05	579.2	180.99	7.4827e-05	7.7784e-05	249.12	93.218	72.293	26.935	7.8166e-05	38.861	-103.028	-104.314	-108.173	-158.165	28.445	118.048	-159.142	-154.040	69.102	-10.166	-155.860	-152.634	-151.046	-146.649	-137.887	-149.021	-8191	255	
21486.725	1	1	0	0	0.29659	0.050373	0.044221	0.31137	0.15234	0.037499	0.3102	0.24624	0.15216	0.35985	0.095967	0.16958	0.2478	0.2906	0.10379	0.19838	-2.7104	-2.9625	-2.65	-3.5042	-2.7417	-2.9437	-3.3854	-2.6562	-3.3208	-3.1625	-2.8979	-3.4729	-2.7146	-2.95	-3.3563	-2.6063	-21.832	67.123	146.478	123.551	-60.423	-123.551	82.609	104.787	75.913	99.335	118.490	186.782	14.236	-27.630	21.603	31.091	0.00034025	0.0010642	0.00032992	461.64	1.5913e-05	1.5631e-05	499.83	154.22	7.2322e-06	2.979e-05	196.12	75.483	55.407	20.784	8.5498e-06	31.116	0.0062231	0.0072593	0.0020268	571.08	7.7821e-05	7.8693e-05	580.62	182.07	7.5622e-05	7.8455e-05	249.12	93.021	71.777	26.72	7.7001e-05	38.81	-132.937	-61.920	120.512	-158.391	-6.934	78.036	-158.989	-153.935	31.890	-59.448	-155.774	-152.411	-150.551	-146.876	138.830	-148.609	-8191	255	
21486.820	1	1	0	0	0.18455	0.070332	0.1347	0.13231	0.27	0.094856	0.12025	0.28288	0.30906	0.16843	0.28777	0.07447	0.16921	0.23293	0.17574	0.20062	-2.8667	-3.2167	-2.6188	-3.3354	-2.9771	-2.9271	-3.2646	-2.5563	-3.0667	-3.1625	-2.5854	-3.3396	-2.6792	-2.7646	-3.4083	-2.9	-56.742	178.694	15.471	110.599	-143.267	-161.628	155.987	136.390	49.892	89.958	-166.724	-170.943	34.677	-126.610	51.415	-125.560	0.00032524	0.0010991	0.00021446	460.87	1.2713e-05	1.0415e-05	503.27	153.13	1.0074e-05	1.0558e-05	197.49	75.697	55.157	21.214	1.1962e-05	31.334	0.0060892	0.0070591	0.0019658	569.06	7.5989e-05	7.7806e-05	583.92	182.74	7.5413e-05	7.7769e-05	249.07	92.825	71.473	26.643	7.4162e-05	38.492	-129.116	-115.830	49.243	-158.064	160.505	172.212	-158.867	-153.699	26.743	-1.143	-155.649	-152.551	-151.074	-146.821	90.320	-148.604	-8191	255	
21486.941	1	1	0	0	0.054897	0.2618	0.067914	0.10054	0.12445	0.083209	0.14	0.1656	0.03541	0.024825	0.057948	0.29884	0.082888	0.24641	0.15489	0.17069	-2.7542	-3.0646	-2.4188	-3.3271	-2.8333	-2.6188	-3.3854	-2.6437	-2.9208	-3.2938	-2.5854	-3.2167	-3.0958	-2.5667	-3.4229	-2.8354	-70.233	-137.558	-149.613	157.421	-143.398	-39.422	-108.958	47.962	-17.839	82.758	37.119	15.995	-120.761	-28.223	-135.692	-49.094	0.00025572	0.00082077	0.00059809	464.22	5.19e-06	1.2967e-05	509.79	154.01	6.5119e-06	8.1601e-06	199.45	75.942	55.647	21.458	2.4422e-05	31.486	0.0059026	0.0067809	0.001886	565.15	7.277e-05	7.4209e-05	579.06	180.66	7.1962e-05	7.4217e-05	248.1	92.578	71.806	26.95	7.7811e-05	39.291	-72.937	98.463	-1.660	-158.774	-43.021	-2.556	-158.964	-153.735	121.091	7.145	-155.730	-151.906	-151.551	-146.697	129.552	-149.188	-8191	255	
21487.014	1	1	0	0	0.11488	0.19958	0.22696	0.16441	0.23366	0.22923	0.047417	0.069461	0.19274	0.24887	0.10663	0.11561	0.18582	0.15378	0.10652	0.15213	-2.4854	-3.2938	-2.5854	-3.3625	-3.0875	-2.5563	-3.5042	-2.8042	-2.9	-3.2896	-2.8187	-3.0854	-3.05	-2.625	-3.3333	-2.8125	167.584	-160.796	-84.127	102.108	40.189	93.744	-69.816	103.819	-92.529	-128.722	117.397	128.674	185.355	-162.897	-163.354	-54.324	0.000313	0.0019799	0.00050477	466.75	8.1855e-06	5.5816e-06	505.04	154.51	7.4051e-06	8.0943e-06	197.94	75.848	55.515	21.264	1.484e-05	31.565	0.0063856	0.0074913	0.0021366	588.24	8.4532e-05	8.7085e-05	598.32	188.26	8.531e-05	8.7747e-05	259.01	96.472	75.046	27.841	8.7035e-05	40.255	-122.214	-53.575	-152.147	-157.927	-153.864	136.455	-158.553	-153.848	65.538	-105.302	-155.661	-151.842	-150.726	-146.165	-33.170	-148.222	-8191	255	
21487.109	1	1	0	0	0.38586	0.24025	0.32265	0.24934	0.07411	0.21307	0.16984	0.17576	0.23758	0.18837	0.06828	0.11712	0.35872	0.11497	0.2928	0.26881	-2.2625	-3.275	-2.4542	-3.0979	-2.9938	-2.5771	-3.4562	-2.6521	-2.7021	-3.3854	-2.7333	-2.9188	-3.1708	-2.5563	-3.2854	-2.9813	33.655	42.324	80.873	-164.265	6.978	155.957	-163.348	-150.569	170.427	-131.758	146.672	-51.970	164.675	168.434	141.434	86.056	0.00035838	0.00071441	0.00015542	457.21	5.9877e-06	2.7276e-05	503.74	152.79	1.2714e-05	1.7407e-05	197.88	76.097	55.7	21.229	8.8948e-06	31.245	0.0070194	0.0081751	0.0023267	595.79	9.0011e-05	9.1647e-05	605.46	189.84	8.8133e-05	9.0835e-05	260.81	97.402	75.716	28.12	9.009e-05	40.891	-92.596	153.042	-115.272	-158.203	-57.509	-151.588	-158.483	-153.365	3.028	-115.608	-156.009	-151.895	-150.447	-147.132	71.966	-149.583	-8191	255	
21487.230	1	1	0	0	0.26769	0.14435	0.2464	0.01585	0.2458	0.25455	0.26781	0.14505	0.1043	0.087934	0.15839	0.22781	0.17264	0.029954	0.10804	0.1623	-2.2812	-3.3229	-2.3937	-2.8958	-3.3521	-2.4604	-3.2292	-3.0708	-2.5771	-3.5	-2.8208	-2.9417	-3.3667	-2.6625	-3.075	-2.9042	89.553	60.719	57.726	72.139	33.959	179.809	62.945	123.609	-20.740	184.176	-115.005	29.388	16.215	8.981	69.246	59.771	0.00050527	4.8912e-05	0.00029028	460.13	1.1836e-05	2.9144e-05	503.68	153.53	9.0136e-06	1.8946e-06	197.7	75.063	55.11	20.993	7.0668e-06	31.265	0.0072522	0.0085167	0.002408	604.76	9.3898e-05	9.7966e-05	615.98	194.44	9.5815e-05	9.8383e-05	268.09	99.782	77.923	28.833	9.753e-05	41.724	-101.939	-13.794	49.072	-158.849	182.222	11.017	-159.147	-153.720	-164.487	-52.348	-156.178	-151.684	-151.242	-146.643	114.570	-148.956	-8191	255	
21487.326	1	1	0	0	0.10301	0.071809	0.12311	0.26579	0.092461	0.2293	0.10592	0.28588	0.071429	0.060238	0.16492	0.086691	0.17901	0.16627	0.139	0.010503	-2.0708	-3.2604	-2.6125	-2.8083	-3.0979	-2.7229	-3.2083	-2.975	-2.5646	-3.2687	-2.7562	-2.9917	-3.2625	-2.5521	-3.1813	-3.1437	143.357	-89.043	80.921	49.507	166.869	37.759	129.069	71.765	118.520	93.965	101.334	-98.808	-95.408	92.851	74.151	160.114	0.00030484	0.0014389	0.0001929	463.79	1.8648e-05	1.8028e-05	501.37	154.84	1.6569e-05	2.5036e-05	198.5	74.677	55.367	21.05	2.7565e-05	31.107	0.0077016	0.0089308	0.0024701	610.98	9.6455e-05	9.8985e-05	615.9	194.02	9.664e-05	9.9524e-05	269.73	100.3	78.685	29.152	0.00010057	42.076	-77.837	-47.184	118.168	-158.548	145.882	-13.546	-159.368	-153.960	-167.272	159.758	-156.011	-151.881	-150.920	-146.680	-27.588	-149.008	-8191	255	
21487.422	1	1	0	0	0.098486	0.23963	0.13469	0.13599	0.12951	0.17625	0.24082	0.10744	0.22018	0.12283	0.32678	0.13261	0.11405	0.1901	0.18087	0.24448	-2.0646	-3.2083	-2.8125	-2.7271	-3.2354	-2.6521	-3.0229	-3.3354	-2.4458	-3.1833	-3.0833	-2.5021	-3.25	-2.625	-2.8625	-3.2562	-22.199	181.910	150.998	14.007	49.287	95.596	-101.681	59.133	-160.231	-170.177	162.182	-15.075	56.071	-109.887	-152.501	149.859	0.00018253	0.00080179	0.00038786	462.29	1.9092e-05	1.4779e-05	501.63	151.1	5.271e-06	1.0782e-05	196.81	75.015	54.815	21.047	3.2054e-05	31.132	0.0079174	0.0092325	0.0025804	613.01	9.8887e-05	0.00010007	615.62	193.16	9.5591e-05	9.9703e-05	267.76	99.542	77.356	28.724	9.7746e-05	41.549	-155.218	20.516	160.055	-158.356	83.978	-44.883	-158.892	-154.171	102.493	-98.611	-155.672	-152.050	-150.883	-146.577	36.968	-149.129	-8191	255	
21487.541	1	1	0	0	0.17892	0.14974	0.065424	0.21958	0.29811	0.25846	0.18877	0.11086	0.30468	0.16085	0.20289	0.21054	0.18048	0.25989	0.13504	0.15482	-2.4479	-3.0542	-2.9521	-2.7542	-3.4104	-2.7729	-2.8042	-3.2438	-2.6312	-3.2479	-2.9958	-2.4625	-3.2979	-2.7188	-2.6646	-3.15	106.928	9.451	-90.854	179.187	-49.235	-161.505	12.380	78.186	155.095	75.651	92.058	19.114	131.836	74.267	48.543	179.735	0.00024271	0.00087131	0.00048606	460.79	1.1731e-05	1.5324e-05	503.31	152.63	2.0864e-05	2.123e-05	199.74	75.595	55.479	20.981	1.1719e-05	31.218	0.0077171	0.0089979	0.002512	611.15	9.6417e-05	9.7971e-05	613.77	192.95	9.4974e-05	9.8352e-05	268.36	99.467	77.49	28.678	9.7055e-05	41.493	-94.982	42.669	176.237	-158.406	-22.478	-166.516	-159.018	-154.252	122.870	-106.433	-156.487	-152.317	-150.438	-146.736	-77.673	-148.748	-8191	255	
21487.613	1	1	0	0	0.13496	0.0039038	0.10633	0.082721	0.15849	0.14974	0.066124	0.1568	0.3191	0.079937	0.19858	0.10006	0.26994	0.045098	0.12049	0.063323	-2.0896	-3.1042	-3.1542	-2.3771	-3.3896	-2.8146	-2.8292	-3.2979	-2.6437	-3.1167	-3.1271	-2.5917	-3.1312	-3.0292	-2.5375	-3.4292	139.033	-96.800	-87.207	70.036	136.453	180.002	155.413	-5.048	-52.962	-50.057	132.584	138.443	-89.168	-60.392	36.756	150.099	0.00035525	0.00092628	0.00095334	469.43	9.7084e-06	2.0318e-05	501.21	152.79	7.6426e-06	5.8535e-06	199.83	75.514	55.171	20.963	2.112e-05	31.048	0.0076868	0.0089568	0.0024813	609.82	9.6395e-05	9.8625e-05	615.96	193.21	9.6043e-05	9.9349e-05	269.89	100.52	78.705	29.31	0.00010311	42.279	-93.955	-46.566	-45.651	-158.435	16.048	53.928	-158.672	-153.888	14.664	172.655	-155.596	-151.988	-150.851	-146.969	36.170	-149.031	-8191	255	
21487.709	1	1	0	0	0.29515	0.23214	0.070041	0.24155	0.078433	0.27188	0.46255	0.088872	0.12092	0.11905	0.074862	0.24655	0.11773	0.12725	0.11877	0.16825	-2.2854	-2.9917	-3.3125	-2.6479	-3.0833	-3.1437	-2.8854	-3.3812	-2.7354	-2.9771	-3.3146	-2.5979	-3.3021	-3.0854	-2.675	-3.5312	-156.997	-171.414	2.218	98.454	-35.090	22.702	117.347	-4.277	-112.106	-65.064	-70.552	-124.327	-84.865	158.445	7.821	135.983	4.6843e-05	0.0015267	0.00029661	460.36	1.6877e-05	3.9242e-05	501.81	152.92	1.7848e-05	2.5244e-05	196.19	74.673	54.946	20.761	1.5767e-05	30.744	0.0082842	0.009556	0.0026914	621.34	0.00010334	0.00010547	624.57	196.65	0.0001025	0.00010639	274.55	101.72	80.279	29.578	0.00010899	42.87	124.396	-51.113	-32.047	-158.446	17.313	-23.097	-158.893	-154.023	65.718	-24.764	-156.848	-152.318	-150.692	-146.212	-45.343	-148.738	-8191	255	
21487.805	1	1	0	0	0.13691	0.19775	0.17285	0.28508	0.2187	0.2078	0.14534	0.025151	0.072911	0.19784	0.054605	0.12625	0.20531	0.26197	0.22164	0.073634	-2.3854	-2.725	-3.0729	-2.5958	-3.1	-3.1146	-2.6688	-3.4125	-2.8708	-2.7104	-3.4542	-2.6833	-2.9021	-3.1333	-2.5896	-3.4104	181.994	-88.538	16.353	4.457	4.150	-110.253	68.142	170.479	111.333	60.437	-142.964	-133.546	55.854	64.422	-27.520	99.100	0.00012062	0.001191	0.00047357	452.15	6.223e-06	5.9061e-06	496.93	150.29	2.6925e-05	1.6968e-06	194.69	74.279	54.402	20.851	1.0193e-05	30.524	0.0086693	0.0099818	0.0028089	628.83	0.00010696	0.00010845	625.96	196.22	0.00010196	0.00010402	270.59	99.499	78.324	28.771	0.00010095	41.474	-135.725	-88.802	-71.876	-158.306	-65.066	-30.342	-158.578	-153.397	157.866	6.826	-156.262	-151.947	-150.728	-146.589	-170.173	-148.988	-8191	255	
21487.924	1	1	0	0	0.22927	0.30939	0.29788	0.087395	0.078797	0.011455	0.14699	0.17724	0.2703	0.14839	0.045761	0.082704	0.21714	0.10458	0.12138	0.30173	-2.5521	-2.5812	-3.4396	-2.6375	-3.075	-3.3333	-2.6271	-3.3312	-3.0417	-2.6354	-3.375	-2.7896	-2.9708	-3.3333	-2.5646	-3.2604	31.293	-93.856	-116.914	-98.687	68.048	-132.838	63.650	-26.086	6.611	-76.241	121.538	137.111	82.720	149.504	-16.499	-17.412	0.00027548	0.0011919	0.000755	459.93	2.5832e-06	1.4588e-05	496.91	151.96	8.8514e-06	1.4015e-05	196.43	74.904	54.584	20.974	1.0269e-05	30.803	0.0079942	0.009246	0.0025572	610.84	9.737e-05	9.8347e-05	612.18	192.41	9.5731e-05	9.8713e-05	266.87	98.857	77.239	28.708	9.9473e-05	41.611	-151.453	-133.392	-27.705	-158.196	16.771	-16.848	-158.979	-153.627	44.629	107.461	-156.547	-152.098	-150.462	-146.861	65.075	-148.731	-8191	255	
21488.020	1	1	0	0	0.090649	0.21352	0.23773	0.094286	0.15919	0.13398	0.15023	0.12416	0.13935	0.2154	0.058516	0.30847	0.14932	0.18871	0.26309	0.17077	-2.6146	-2.4646	-3.3229	-2.7729	-2.8729	-3.4062	-2.6542	-3.1813	-3.0187	-2.8646	-3.2896	-2.8521	-2.8042	-3.3625	-2.6271	-3.1292	130.064	-111.174	-88.422	183.792	-74.925	109.044	176.596	171.955	4.428	-125.763	-137.801	121.278	-48.918	27.337	-36.637	76.188	0.00038075	0.0018258	0.00052614	462.65	2.4507e-05	4.321e-06	498.79	153.05	1.1915e-05	1.2202e-05	197.27	74	54.992	20.845	1.9625e-05	30.422	0.0080064	0.0093167	0.0026152	618.69	0.00010136	0.00010403	622.85	195.93	0.00010078	0.00010465	272.36	100.39	79.242	29.213	0.00010361	41.892	-99.061	79.091	97.568	-158.466	155.212	-99.698	-159.477	-154.042	26.788	143.268	-156.217	-151.409	-150.498	-146.276	120.624	-148.495	-8191	255	
21488.115	1	1	0	0	0.1122	0.17275	0.25455	0.1641	0.20599	0.094979	0.13401	0.20853	0.20099	0.031685	0.17681	0.093588	0.0069959	0.17945	0.20846	0.069372	-2.7458	-2.5875	-3.4437	-2.9604	-2.7646	-3.4917	-2.6875	-3.0604	-3.2625	-2.6375	-3.4292	-2.9583	-2.875	-3.3229	-2.8396	-3.0604	-96.463	-39.321	187.905	152.086	-92.420	-44.591	126.352	23.248	-87.524	-0.276	-141.167	68.659	73.394	-53.051	76.273	20.062	0.00031373	0.00066805	0.00051867	458.31	8.6416e-07	5.0195e-06	499.18	152.17	2.1116e-05	4.7118e-06	194.8	74.394	53.979	20.857	8.2563e-06	30.625	0.0080115	0.009245	0.002559	612.26	9.9355e-05	0.00010073	615.7	192.95	9.5704e-05	9.831e-05	266.85	98.693	77.33	28.429	9.722e-05	41.146	-123.364	-27.114	119.656	-158.454	-81.115	134.910	-158.597	-153.876	23.387	-119.892	-155.479	-152.141	-150.949	-146.654	51.891	-148.258	-8191	255	
21488.213	1	1	0	0	0.084227	0.32995	0.17482	0.098082	0.18258	0.13137	0.27833	0.45416	0.23097	0.13733	0.24928	0.29414	0.31416	0.28077	0.21706	0.22983	-2.9625	-2.6458	-3.2667	-3.075	-2.5375	-3.4104	-2.7521	-2.9938	-3.1417	-2.6437	-3.2542	-3.1708	-2.7229	-3.3708	-2.9313	-2.8708	113.826	-46.960	169.887	167.158	-24.847	38.887	119.534	80.755	127.583	51.558	166.892	-153.466	58.825	-68.089	-122.172	28.895	0.000125	0.0020445	0.00085866	459.15	8.9323e-06	1.8014e-05	499.52	151.94	1.0588e-05	2.8392e-05	196.98	74.531	54.389	20.676	1.5074e-05	30.408	0.0077337	0.0089396	0.0024661	605.4	9.4599e-05	9.6126e-05	608.41	190.62	9.3553e-05	9.6223e-05	265.7	97.917	76.991	28.355	9.5522e-05	40.827	-120.864	157.062	70.238	-158.593	-47.106	-42.057	-158.555	-153.323	-66.970	-66.414	-155.412	-152.272	-150.548	-146.306	-152.042	-148.220	-8191	255	
21488.309	1	1	0	0	0.06244	0.094731	0.42293	0.080321	0.19465	0.19657	0.32676	0.12778	0.049527	0.061424	0.16913	0.22	0.07244	0.28592	0.048481	0.19056	-2.9708	-2.525	-3.2833	-3.0812	-2.7667	-3.2083	-3.0708	-2.9479	-3.3042	-2.6813	-3.1771	-3.2313	-2.5667	-3.3729	-2.9917	-2.7562	-145.930	-67.721	-143.337	-151.548	-123.359	-160.035	143.386	187.736	-143.038	-101.470	-86.853	84.267	-95.383	136.493	173.946	-165.281	0.0002865	0.0021259	0.00087188	461.73	1.0691e-05	1.1687e-05	500.5	153.17	7.1989e-06	8.5862e-06	198.72	74.41	54.509	21.167	1.5892e-05	31.043	0.0076043	0.0088259	0.0024697	607.67	9.4272e-05	9.6373e-05	611.14	191.9	9.2747e-05	9.496e-05	265.52	97.858	76.43	28.163	9.1996e-05	40.679	-110.343	-169.245	-139.459	-158.088	38.508	65.863	-158.969	-153.404	-12.345	103.769	-155.044	-152.055	-150.749	-146.508	48.261	-148.650	-8191	255	
21488.404	1	1	0	0	0.052663	0.15614	0.24501	0.07856	0.1528	0.14123	0.29255	0.035608	0.18305	0.17665	0.20578	0.22365	0.096142	0.20768	0.14961	0.11803	-3.0521	-2.625	-2.9229	-3.2229	-2.5083	-3.2604	-2.9958	-2.6396	-3.3854	-2.7271	-2.975	-3.3292	-2.625	-3.2708	-3.2292	-2.5771	75.900	90.437	181.209	-148.778	55.499	-98.838	114.396	-11.705	127.378	-124.619	166.803	103.225	177.439	40.437	36.841	171.999	0.00037842	0.0017102	0.00063067	457.08	1.7991e-05	1.1056e-05	505.45	155.14	1.5319e-05	1.6863e-05	199.16	74.991	54.667	20.916	1.464e-06	31.062	0.0072399	0.0083114	0.002302	595.38	8.8177e-05	8.9063e-05	604.62	189.45	8.6184e-05	8.8257e-05	259.72	96.057	74.663	27.637	8.5945e-05	40.016	-110.271	121.781	-92.728	-158.302	-105.536	19.792	-158.954	-153.564	109.197	25.506	-155.106	-152.327	-150.875	-146.494	112.986	-148.501	-8191	255	
21488.502	1	1	0	0	0.18233	0.21036	0.16902	0.081402	0.18188	0.14737	0.31869	0.15562	0.09136	0.18062	0.12774	0.22082	0.091204	0.15062	0.15986	0.3134	-3.0729	-2.6229	-2.7479	-3.2812	-2.5687	-3.2104	-3.2188	-2.6167	-3.2792	-2.8104	-2.9396	-3.3583	-2.6604	-3.05	-3.1312	-2.7458	-134.735	47.265	-131.754	125.953	155.039	-70.291	106.772	160.512	-97.937	-30.515	-19.392	120.063	-154.488	109.063	101.061	-78.863	0.00017426	0.0021206	0.00033897	468.65	5.062e-06	1.5445e-05	507.15	153.29	2.5243e-05	2.9994e-05	200.48	74.849	54.65	20.84	1.6667e-05	31.153	0.0069294	0.0080865	0.0022856	597.94	8.8524e-05	9.0669e-05	605.68	190.36	8.7952e-05	8.9696e-05	261.79	96.283	74.425	27.53	8.6273e-05	39.972	-95.753	53.925	-51.974	-158.099	-143.183	42.085	-158.965	-153.344	-55.236	-15.269	-155.645	-151.629	-150.564	-146.886	145.791	-148.729	-8191	255	
21488.621	1	1	0	0	0.21906	0.11799	0.37737	0.071747	0.30027	0.044571	0.11967	0.086889	0.11699	0.13979	0.23907	0.096282	0.039308	0.16647	0.11875	0.10224	-2.9437	-2.8729	-2.7521	-3.3917	-2.7125	-2.9354	-3.2125	-2.5604	-3.4083	-3.05	-2.8104	-3.4792	-2.6708	-3.0125	-3.2125	-2.7917	-114.112	-43.180	120.076	181.101	-154.655	91.078	6.496	180.713	-102.963	113.018	140.462	-75.838	7.159	-83.003	151.646	88.506	0.00031563	0.0013195	0.0002365	466.61	2.0361e-05	1.8219e-05	511.42	154.26	6.9e-06	2.3157e-05	200.76	75.484	55.646	21.004	2.0408e-05	31.425	0.0068508	0.0079409	0.0022226	590.07	8.3558e-05	8.5392e-05	598.67	186.12	8.02e-05	8.1545e-05	254.79	93.982	72.211	26.756	7.484e-05	38.62	-75.536	-97.461	-124.267	-158.504	155.693	16.707	-159.169	-153.611	-64.189	-125.481	-155.322	-151.793	-150.670	-146.875	-26.975	-148.962	-8191	255	
21488.717	1	1	0	0	0.10044	0.094893	0.10453	0.13322	0.038925	0.25884	0.05961	0.21223	0.18199	0.17091	0.1727	0.028627	0.17525	0.27904	0.16226	0.16272	-2.8896	-3.0229	-2.5479	-3.4542	-2.7812	-2.8854	-3.2833	-2.6479	-3.1437	-2.9854	-2.5229	-3.3333	-2.8937	-2.9417	-3.375	-2.5604	-105.986	2.842	-83.297	179.541	157.560	-130.092	-106.861	-13.008	92.139	133.033	118.315	-18.902	157.979	-160.140	-52.669	-113.695	0.00020804	0.0018408	0.0003567	470.97	2.5019e-05	3.1751e-06	515.45	155.81	6.8577e-06	1.5305e-05	199.78	76.261	55.636	21.257	1.6081e-05	31.474	0.0059061	0.0068053	0.0019132	575.51	7.3651e-05	7.4622e-05	590.78	182.63	7.0991e-05	7.1834e-05	246.36	91.594	69.744	25.924	6.5704e-05	37.523	-66.249	-45.746	30.042	-157.775	-53.238	-52.424	-159.049	-153.714	-107.532	-88.588	-155.821	-151.976	-150.715	-146.636	-70.838	-148.805	-8191	255	
21488.814	1	1	0	0	0.022222	0.10136	0.17101	0.072852	0.12381	0.18842	0.19382	0.093621	0.1366	0.078548	0.13739	0.21672	0.21994	0.20696	0.21056	0.19742	-2.7854	-3.2896	-2.525	-3.3875	-2.8063	-2.6729	-3.3542	-2.6646	-3.1771	-3.2417	-2.6979	-3.3125	-2.9125	-2.8646	-3.325	-2.7062	-33.738	-68.617	24.426	131.390	168.229	-51.062	182.946	-40.926	-14.812	-134.287	47.132	-1.362	27.590	-125.302	12.033	182.087	0.00036001	0.00090148	5.7238e-05	475.82	1.0516e-05	1.9146e-05	516.77	156.48	9.4075e-06	2.3521e-05	199.99	76.966	56.19	21.106	8.7408e-06	31.293	0.0051697	0.0060213	0.0016971	563.35	6.8124e-05	7.1433e-05	590.9	183.68	7.5489e-05	8.0592e-05	258.59	96.987	75.492	28.097	9.2035e-05	41.186	-78.059	-18.375	-159.882	-157.961	25.272	-111.585	-158.974	-154.161	-1.810	-152.602	-155.650	-151.880	-151.123	-146.058	-33.653	-148.797	-8191	255	
21488.910	1	1	0	0	0.1363	0.12566	0.24051	0.035505	0.22985	0.11196	0.13699	0.08506	0.1738	0.20278	0.12109	0.070288	0.048638	0.11047	0.15246	0.091111	-2.6396	-3.1208	-2.6479	-3.2917	-2.9021	-2.8146	-3.5583	-2.7042	-3.0875	-3.2313	-2.6521	-3.4271	-3.025	-2.5896	-3.3208	-2.6542	-80.442	-124.673	85.470	-58.759	-126.246	-56.878	101.279	63.343	162.563	-86.690	-94.743	-123.018	-13.058	-81.776	-117.711	113.441	0.00031063	0.0014026	0.00034766	474.69	4.058e-06	2.4347e-05	511.47	155.49	1.0175e-05	2.0794e-05	198.27	75.641	55.26	21.055	9.364e-06	30.994	0.0075517	0.0088737	0.0025381	623.96	0.00010077	0.00010446	634.97	199.49	0.00010499	0.00010838	279.21	103.24	80.434	29.503	0.00010377	42.045	-113.240	-149.267	-63.620	-158.106	-52.327	168.073	-159.128	-153.995	-37.694	-63.363	-156.103	-151.672	-151.274	-146.582	165.363	-148.186	-8191	255	
21489.004	1	1	0	0	0.1543	0.08236	0.1345	0.076194	0.1149	0.26989	0.18845	0.30015	0.011304	0.15998	0.068315	0.21153	0.2174	0.11951	0.043935	0.17814	-2.6229	-3.3354	-2.4125	-3.2438	-3.1479	-2.6729	-3.3771	-2.9875	-2.8333	-3.3812	-2.7583	-3.0979	-3.0917	-2.6771	-3.2667	-2.925	154.621	93.176	-116.552	70.207	164.383	7.563	156.190	79.027	-9.799	28.625	-159.357	42.512	179.136	-148.925	-154.199	-119.105	0.00035937	0.0023516	0.00048568	467.83	1.1366e-05	2.4205e-05	510.83	153.04	6.1548e-06	1.1028e-05	199.37	74.7	55.166	20.796	6.9363e-06	30.516	0.0080815	0.0092693	0.0025643	619.68	9.873e-05	0.00010191	627.36	196.6	9.9469e-05	0.00010256	273.78	101.06	79.392	29.164	0.00010383	42.006	-97.362	117.114	-132.458	-158.649	37.465	161.924	-158.963	-153.863	62.796	-153.582	-155.675	-151.712	-149.936	-146.666	87.654	-148.055	-8191	255	
21489.100	1	1	0	0	0.23108	0.12047	0.19449	0.094725	0.062825	0.059093	0.045261	0.35617	0.14343	0.074806	0.20445	0.13699	0.16873	0.038871	0.25948	0.23443	-2.2979	-3.3833	-2.6354	-3.2313	-3.0938	-2.6417	-3.4146	-2.9104	-2.5687	-3.4333	-2.5208	-2.9521	-3.2979	-2.5792	-3.3417	-3.05	162.909	47.001	-107.780	-63.475	34.084	-68.034	89.579	148.295	-13.387	171.562	102.856	83.115	-152.157	-92.022	149.631	185.182	0.00040899	0.0021934	0.00017762	466.91	1.1185e-05	8.6644e-06	502.42	152.59	1.8098e-06	1.4437e-05	196.48	74.136	54.224	20.582	1.7755e-05	30.73	0.0082927	0.0096288	0.002722	631.11	0.00010612	0.00010896	635.79	199.89	0.00010929	0.00011353	280.81	103.89	82.117	30.263	0.0001162	43.733	-75.292	-127.298	185.756	-158.123	3.178	-76.871	-159.365	-153.243	159.992	-77.982	-156.082	-152.105	-149.958	-146.191	33.372	-148.349	-8191	255	
21489.221	1	1	0	0	0.13766	0.13513	0.1701	0.11661	0.23958	0.31601	0.23317	0.22096	0.185	0.23468	0.051738	0.082575	0.11206	0.082218	0.1034	0.22074	-2.1937	-3.2854	-2.7125	-2.8792	-3.2708	-2.6958	-3.3042	-3.1792	-2.7208	-3.3417	-2.8563	-2.8125	-3.3542	-2.5875	-3.1146	-3.1562	-123.556	48.297	-41.521	-145.201	51.385	109.724	136.910	177.095	-39.512	-101.515	181.217	128.746	-9.143	47.097	-31.800	81.914	0.00012085	0.0015806	0.00042765	460.91	1.3429e-05	2.8885e-05	499.24	152.61	1.1019e-05	1.7082e-05	195.63	74.688	55.013	20.789	6.104e-06	31.026	0.0093196	0.010771	0.0030328	651.6	0.0001163	0.00011744	642.54	202.95	0.0001134	0.00011649	281.79	104.8	82.756	30.358	0.00011671	43.877	-115.494	159.785	-47.321	-158.296	-116.125	163.622	-158.814	-153.971	-145.057	63.647	-155.533	-151.485	-150.576	-146.494	-85.979	-148.791	-8191	255	
21489.316	1	1	0	0	0.20567	0.16654	0.2636	0.17997	0.048702	0.12264	0.015772	0.12369	0.091175	0.033451	0.18236	0.086504	0.18112	0.12464	0.27668	0.18358	-2.2521	-3.3958	-2.6458	-2.7917	-3.4	-2.6875	-3.1937	-3.1021	-2.4625	-3.4375	-2.8271	-2.7667	-3.3583	-2.6521	-2.8854	-3.225	40.191	-53.051	57.160	138.396	-111.279	-147.066	-98.768	-155.119	84.570	-158.343	-18.368	-159.106	-107.540	-43.362	-19.772	142.254	0.0003067	0.0012179	0.00048826	456.62	4.1795e-06	2.0903e-05	492.18	150.95	1.8307e-05	1.7879e-05	195.47	74.75	53.954	20.637	1.6602e-05	30.194	0.0094066	0.010777	0.003026	648.35	0.00011718	0.00011924	644.3	202.72	0.0001155	0.00011946	284.84	105.39	83.579	30.645	0.00012157	44.442	-91.216	104.094	74.502	-157.919	-118.145	-14.123	-158.965	-153.759	151.739	23.639	-155.900	-151.806	-150.261	-146.731	96.268	-149.398	-8191	255	
21489.412	1	1	0	0	0.26385	0.1769	0.15041	0.21726	0.17038	0.18185	0.16516	0.095666	0.13731	0.065348	0.071274	0.054704	0.070741	0.093026	0.18047	0.16496	-2.1292	-3.2042	-2.9313	-2.6417	-3.2833	-2.825	-3.0687	-3.3146	-2.3958	-3.275	-3.0938	-2.6292	-3.4375	-2.8979	-2.8792	-3.2646	-77.689	-1.628	-27.367	179.684	-63.794	-92.633	74.508	156.068	23.805	26.677	152.059	-164.005	94.299	100.383	129.356	-80.306	0.00019063	0.0010279	0.00097112	458.4	2.035e-05	1.5379e-05	489.46	151.71	1.4705e-05	2.4368e-05	193.61	73.148	54.163	20.232	1.9934e-05	30.065	0.00987	0.011626	0.0032939	665.98	0.00012811	0.000132	659.53	209.05	0.00012823	0.00013202	294.23	108.43	85.773	31.321	0.00012757	44.939	-41.317	-101.226	112.152	-157.720	16.199	-28.749	-158.884	-154.259	-92.466	23.819	-155.735	-151.714	-150.463	-146.685	-164.455	-148.584	-8191	255	
21489.510	1	1	0	0	0.093324	0.15999	0.042116	0.22482	0.14856	0.070118	0.30433	0.10009	0.15812	0.067877	0.30021	0.089823	0.10474	0.20755	0.22133	0.25154	-2.0958	-3.1375	-2.9646	-2.3729	-3.3479	-2.8229	-2.8042	-3.4125	-2.5375	-3.2188	-3.3021	-2.7167	-3.1833	-2.7438	-2.7812	-3.2938	-97.324	-126.254	-161.296	-123.313	-32.378	-146.703	72.226	-134.880	-79.702	92.788	163.581	178.102	91.917	112.745	-102.246	-150.157	0.00026819	0.0011602	0.00056333	454.58	1.8875e-05	6.6699e-06	494.38	150.12	1.076e-05	1.2561e-05	194.97	73.88	54.348	20.802	6.4401e-06	30.436	0.0099176	0.011463	0.0032034	655.83	0.00012195	0.00012409	650.69	205.53	0.00012109	0.00012582	289.82	106.86	84.089	30.745	0.00012013	43.882	-136.418	147.328	-93.160	-158.204	-157.116	26.529	-159.109	-153.691	-99.794	-55.599	-155.106	-151.081	-150.356	-146.017	-42.576	-148.567	-8191	255	
21489.605	1	1	0	0	0.088911	0.067074	0.091439	0.076318	0.2203	0.17018	0.17406	0.21772	0.05786	0.10591	0.1015	0.35075	0.0063031	0.25112	0.01649	0.044441	-1.9833	-2.8812	-3.0687	-2.6479	-3.2958	-2.9271	-2.9062	-3.325	-2.6208	-2.9688	-3.2729	-2.6729	-3.2479	-2.9521	-2.6021	-3.4625	-6.213	-49.426	-96.831	37.687	-51.485	-22.121	80.733	155.550	-103.381	152.793	88.146	91.851	-7.798	-161.949	-63.774	59.056	0.00019038	0.001494	0.00028051	452.51	5.7088e-06	3.558e-05	487.85	151.17	1.7629e-05	1.0021e-05	195.17	73.54	54.263	20.546	1.0546e-05	30.378	0.0092495	0.01076	0.0030004	641.1	0.00011502	0.00011641	635.61	201.59	0.00011367	0.00011692	282.43	103.94	81.865	30.077	0.00011345	43.047	-50.837	130.334	-161.146	-158.483	-154.566	-20.450	-159.098	-153.719	-88.546	-119.252	-155.745	-151.522	-151.082	-146.887	-54.565	-149.367	-8191	255	
21489.701	1	1	0	0	0.13206	0.13254	0.062341	0.15944	0.10667	0.022452	0.30471	0.21301	0.18224	0.15352	0.16509	0.29793	0.065215	0.25154	0.21682	0.053311	-2.125	-2.9604	-3.2583	-2.6208	-3.1458	-3.0958	-2.7646	-3.5021	-2.7146	-2.7375	-3.3604	-2.5979	-3.0458	-3.0646	-2.6104	-3.3312	-63.063	-79.360	80.219	98.715	96.430	72.058	157.288	123.690	-137.553	93.448	56.411	100.588	-159.589	117.899	27.824	-134.674	0.00016063	0.0016389	0.00037467	447.47	1.429e-05	1.3986e-05	491.63	150.44	1.1594e-05	6.2244e-06	193.41	73.995	54.658	20.535	3.4467e-05	30.947	0.0089624	0.010335	0.0028867	632.69	0.00011346	0.00011549	635.2	201.82	0.0001147	0.00012026	285.25	105.45	83.378	30.622	0.00011918	43.807	-123.979	-162.361	-121.247	-158.252	5.639	-20.294	-158.644	-153.705	133.932	132.270	-155.476	-151.139	-150.560	-146.587	4.035	-148.349	-8191	255	
21489.799	1	1	0	0	0.15146	0.068218	0.082938	0.10449	0.18892	0.17805	0.21577	0.17514	0.049065	0.14076	0.087678	0.17562	0.22522	0.082823	0.17418	0.36516	-2.5083	-2.8375	-3.3292	-2.5542	-2.9813	-3.225	-2.5896	-3.2771	-2.9167	-3.0333	-3.3708	-2.7812	-3.1542	-3.2729	-2.5438	-3.3792	-154.090	-25.307	88.034	155.178	99.305	-113.936	153.676	15.801	-3.376	-150.115	-103.673	96.236	-151.959	93.612	51.253	-165.519	0.00034361	0.00047556	0.00071528	453.36	3.7308e-06	1.761e-05	492.68	152.44	1.8616e-05	3.1312e-06	196.37	75.12	54.577	21.004	4.8638e-06	30.628	0.0092115	0.010645	0.0029377	636.35	0.00011314	0.00011502	635.28	201.24	0.00011123	0.00011508	281.83	104.51	82.488	30.505	0.00011609	43.895	-94.984	22.458	-87.171	-158.536	73.340	16.810	-158.843	-153.829	11.063	-142.337	-155.952	-151.454	-150.851	-146.556	-78.646	-148.708	-8191	255	
21489.895	1	1	0	0	0.08597	0.19666	0.34363	0.27262	0.14706	0.11271	0.22242	0.15111	0.31628	0.13882	0.16526	0.11584	0.23374	0.10554	0.061597	0.055207	-2.4437	-2.4979	-3.425	-2.7708	-2.9458	-3.3292	-2.5042	-3.3083	-3.0167	-2.5563	-3.3167	-2.8604	-2.9313	-3.3021	-2.6479	-3.0833	99.725	-50.703	100.516	165.149	87.780	126.451	173.027	22.458	-52.140	176.020	113.541	-101.502	12.797	29.945	-140.150	68.854	0.00051686	0.00044659	0.00034182	460.34	7.2613e-06	9.1386e-06	494.52	152.15	1.6965e-05	1.4312e-06	194.89	74.446	54.692	20.558	2.0554e-05	30.551	0.009197	0.010724	0.0029504	639.6	0.00011309	0.00011499	635.52	201.46	0.00011115	0.00011546	280.64	103.85	82.145	30.307	0.00011624	43.594	-90.644	-83.022	-137.330	-158.518	-76.156	173.140	-158.538	-153.758	-91.445	66.351	-155.272	-152.635	-150.350	-147.097	20.178	-148.757	-8191	255	
21490.014	1	1	0	0	0.22316	0.10219	0.14484	0.21296	0.27146	0.06171	0.16144	0.19761	0.053296	0.19772	0.38474	0.19037	0.20664	0.086042	0.23548	0.055139	-2.8875	-2.7125	-3.3375	-2.7938	-2.8729	-3.3896	-2.5125	-3.3312	-3.0312	-2.4208	-3.3229	-2.9292	-2.8479	-3.2667	-2.6854	-2.8792	-33.792	5.682	-137.320	29.718	155.069	-106.513	92.701	175.493	-135.089	95.373	73.842	-152.784	-66.744	102.024	-1.439	-108.553	0.00047173	0.0010491	0.00043	454.6	1.7941e-05	1.0172e-05	493.24	152.05	1.2518e-05	7.949e-06	195.88	74.519	54.419	20.761	2.3039e-05	30.771	0.0091749	0.010712	0.0029782	641.69	0.00011583	0.00011795	639.92	202.99	0.00011493	0.00011815	283.31	104.71	81.991	30.244	0.00011429	43.492	-54.278	148.926	-128.941	-158.404	-99.679	5.523	-159.042	-154.060	-34.218	-39.974	-155.065	-151.839	-150.639	-146.600	-67.700	-148.568	-8191	255	
21490.109	1	1	0	0	0.13304	0.12069	0.24157	0.084553	0.097189	0.01323	0.23186	0.056846	0.14883	0.27593	0.12015	0.089546	0.31739	0.037659	0.066102	0.060102	-2.7167	-2.6458	-3.3312	-2.7417	-2.6562	-3.4	-2.7062	-3.0625	-3.15	-2.5646	-3.2625	-2.9437	-2.6417	-3.3438	-2.7083	-2.9833	-90.329	-143.689	-54.079	135.546	-99.043	-163.913	128.950	28.321	-75.662	-78.042	-140.320	-47.083	119.711	155.339	13.866	84.465	0.00039586	0.001695	0.00052919	458.13	1.6068e-05	1.8032e-05	493.6	151.51	8.714e-06	1.9699e-06	194.79	73.545	54.198	20.903	1.5109e-05	30.96	0.0091109	0.010525	0.0029595	639.87	0.00011472	0.00011773	640.44	203	0.00011567	0.00011925	284.65	104.64	82.516	30.262	0.00011368	43.401	-148.038	-24.411	-142.378	-158.288	-142.202	39.147	-158.996	-153.408	132.881	69.774	-155.458	-151.429	-151.398	-146.470	-157.835	-148.302	-8191	255	
21490.182	1	1	0	0	0.18666	0.34806	0.063624	0.03331	0.106	0.23023	0.038739	0.1493	0.13648	0.096328	0.15149	0.12212	0.099384	0.029607	0.083138	0.17889	-2.8271	-2.4875	-3.1375	-3.1646	-2.6708	-3.1146	-3.0104	-2.9146	-3.3333	-2.5729	-3.0563	-2.9458	-2.5708	-3.3104	-2.8646	-2.7896	24.278	186.383	37.342	153.861	-60.950	-169.478	88.722	-22.354	124.470	24.796	184.634	23.347	-58.611	-62.464	160.353	-131.358	0.0004131	0.001359	0.000703	455.86	3.097e-06	1.7469e-05	500.81	151.7	1.3397e-05	2.4082e-05	198.46	75.331	54.365	20.807	1.4692e-05	30.808	0.0089087	0.010252	0.0028768	634.33	0.00011169	0.00011263	635.65	201.07	0.00011069	0.00011418	282.2	104.17	81.995	30.27	0.00011228	43.526	-56.067	153.956	152.882	-158.507	63.102	47.918	-158.896	-153.542	-5.711	92.536	-156.080	-152.506	-150.995	-146.974	29.948	-148.311	-8191	255	
21490.301	1	1	0	0	0.10519	0.13057	0.1473	0.064836	0.16075	0.079379	0.1436	0.030531	0.1035	0.14604	0.16498	0.14799	0.080223	0.16197	0.17506	0.21483	-2.8167	-2.6646	-3.2458	-3.1042	-2.5208	-3.3375	-2.8229	-2.8417	-3.3042	-2.6521	-3.0104	-3.3187	-2.7333	-3.3208	-3.0271	-2.8271	-170.171	-90.112	104.591	-152.787	40.863	102.579	-170.827	-152.123	109.920	-131.192	-160.138	97.182	26.237	-13.525	-44.594	120.538	0.00023441	0.0010584	0.00045717	465.19	9.3539e-06	2.207e-05	496.75	152.17	9.7465e-06	3.4115e-05	197.49	74.281	54.349	20.831	1.5307e-05	30.469	0.0089138	0.010341	0.0028961	638.75	0.00011126	0.000113	633.45	200.15	0.00010916	0.0001126	278.79	102.57	80.462	29.665	0.00010979	42.635	-75.904	-42.404	46.953	-158.624	-48.398	-65.838	-159.495	-153.603	40.742	157.034	-155.634	-152.034	-150.102	-146.393	-31.582	-149.080	-8191	255	
21490.396	1	1	0	0	0.09453	0.017609	0.26759	0.2029	0.11104	0.11184	0.27824	0.042565	0.24761	0.21419	0.27019	0.14271	0.33517	0.21033	0.067275	0.010221	-3.0604	-2.7313	-3.1125	-3.1333	-2.6229	-3.2146	-2.9396	-2.6646	-3.3208	-2.7917	-2.7271	-3.4625	-2.5042	-3.2104	-3.1021	-2.6521	15.916	-52.625	83.688	63.664	-129.805	-148.899	111.072	87.341	148.705	-131.502	36.150	44.723	104.009	166.754	-123.330	60.216	0.00017311	0.00016445	0.00030556	457.53	6.4405e-06	2.3535e-05	498.69	150.72	1.4842e-05	1.39e-05	196.91	74.198	54.461	20.719	1.3626e-05	30.309	0.0086506	0.0099573	0.0027824	626.67	0.00010623	0.00010797	624.48	196.11	0.00010307	0.00010593	271.99	100.85	79.167	29.182	0.00010523	42.044	-100.210	184.511	-124.194	-158.719	-155.632	4.213	-159.601	-153.388	-74.157	-155.425	-155.366	-151.997	-150.548	-146.151	-37.929	-148.872	-8191	255	
21490.494	1	1	0	0	0.18755	0.30688	0.2045	0.074098	0.24664	0.17835	0.21454	0.11638	0.077593	0.23199	0.35593	0.17277	0.12185	0.084182	0.11934	0.23613	-2.8958	-2.8083	-2.7292	-3.4375	-2.4417	-3.1646	-3.2313	-2.7208	-3.2896	-2.9542	-2.8708	-3.3979	-2.6333	-3.1188	-3.1396	-2.6646	-10.306	-59.674	12.685	152.510	8.932	-166.276	119.824	-70.730	-53.913	150.536	115.642	97.931	144.892	44.473	119.397	102.060	0.0003079	0.0014779	0.0010163	457.41	7.0096e-06	2.2487e-05	501.94	152.52	1.0498e-05	2.632e-05	196.87	75.261	54.827	20.8	1.7888e-05	30.833	0.0083041	0.0095916	0.0026823	622.01	0.00010196	0.0001041	623.81	196.13	0.00010108	0.00010476	273.5	101.47	79.556	29.354	0.0001056	42.434	-141.656	35.524	-9.755	-158.305	32.012	141.596	-159.117	-153.613	114.861	-74.185	-155.960	-151.493	-150.533	-146.930	64.479	-148.502	-8191	255	
21490.613	1	1	0	0	0.14557	0.22229	0.4789	0.1386	0.056489	0.19716	0.15223	0.019731	0.21652	0.23531	0.17706	0.092055	0.10512	0.27334	0.15701	0.25853	-2.9437	-3.0104	-2.65	-3.2271	-2.6771	-2.9188	-3.3083	-2.5208	-3.1312	-3.1521	-2.675	-3.325	-2.6208	-2.8729	-3.1792	-2.7042	8.434	36.367	-99.613	-168.588	122.723	145.230	-143.868	53.946	-0.507	171.885	-171.275	104.228	45.330	103.260	152.043	-101.328	0.00034954	0.001254	0.00053785	464.64	2.3159e-05	3.7651e-06	500.7	153.71	2.4132e-05	8.4968e-06	197.55	74.378	55.076	21.012	1.3053e-05	30.625	0.0083329	0.00963	0.0026966	625.53	0.00010378	0.00010545	628.59	197.6	0.0001033	0.00010617	275.61	101.63	79.862	29.424	0.00010686	42.627	-91.823	-90.510	149.644	-158.532	-21.111	-70.915	-158.868	-154.099	29.944	-0.411	-155.240	-151.410	-150.729	-146.094	150.796	-148.708	-8191	255	
21490.711	1	1	0	0	0.064236	0.28122	0.10926	0.24694	0.15454	0.1311	0.13279	0.25274	0.17633	0.099871	0.16627	0.2001	0.20673	0.050764	0.19773	0.19333	-2.8167	-3.0875	-2.5771	-3.325	-2.6979	-2.9229	-3.3583	-2.6042	-3.2021	-3.125	-2.6896	-3.3271	-2.8292	-2.9	-3.2271	-2.6708	46.413	-147.604	-29.024	-140.947	-121.542	-52.292	169.052	115.404	-132.114	184.235	86.706	128.771	-159.323	93.163	15.731	65.628	0.00029526	0.0018635	0.00090255	458.48	3.1508e-06	9.7547e-06	502.27	153.93	4.6413e-06	1.0471e-05	197.66	73.291	53.865	20.575	2.8754e-06	30.262	0.0085002	0.0098632	0.0027815	630.11	0.00010683	0.00010942	632.81	199.26	0.00010634	0.00010993	277.01	101.84	80.143	29.414	0.0001079	42.458	-104.299	104.231	-44.936	-157.972	-57.134	57.143	-159.575	-154.318	-17.059	-82.100	-155.679	-151.755	-150.276	-146.081	106.585	-149.261	-8191	255	
21490.781	1	1	0	0	0.23366	0.20903	0.19103	0.015607	0.23085	0.20476	0.22985	0.38125	0.12811	0.096621	0.24887	0.20154	0.10518	0.11786	0.077584	0.41797	-2.7562	-3.2812	-2.5167	-3.2708	-2.8646	-2.7417	-3.3312	-2.5062	-3.1458	-3.1771	-2.5104	-3.225	-2.9979	-2.5687	-3.3854	-2.6896	106.364	-39.628	51.574	-12.145	-56.962	-103.567	174.017	-15.803	152.421	-91.430	46.232	-77.364	181.852	-74.344	152.380	85.349	0.00031907	0.0016005	0.00052512	460.74	1.4341e-05	1.0283e-05	505	151.04	6.9499e-06	2.3918e-05	197.37	74.345	54.32	20.463	6.7398e-06	30.786	0.0085896	0.0099667	0.0027781	631.44	0.00010632	0.00010968	632.95	198.41	0.00010731	0.00010997	277.53	102.18	80.489	29.594	0.00010936	42.585	-94.873	116.023	64.681	-158.178	-53.291	-1.174	-158.848	-153.246	27.077	18.482	-155.200	-151.846	-151.320	-146.701	-164.174	-148.566	-8191	255	
21490.902	1	1	0	0	0.19353	0.22805	0.12437	0.14647	0.18024	0.40402	0.067259	0.20635	0.19195	0.20486	0.092109	0.10493	0.078702	0.13557	0.14146	0.16236	-2.5604	-3.1813	-2.5354	-3.1583	-2.9437	-2.5	-3.4917	-2.7979	-2.9458	-3.2979	-2.65	-3.1312	-3.1667	-2.5896	-3.225	-2.6333	-85.769	-9.088	-54.814	-90.620	-55.805	95.965	-133.656	133.828	169.216	150.263	0.434	-140.870	-50.247	159.180	-39.446	-156.967	0.00047999	0.00039964	0.00068612	461.21	8.3032e-06	8.542e-06	505.27	151.42	3.6678e-06	1.9222e-05	197.2	74.254	54.951	20.603	6.543e-06	30.592	0.008637	0.0099862	0.0027888	631.5	0.00010771	0.00011051	634.46	199.14	0.00010692	0.00011098	278.24	102.63	80.635	29.631	0.00010896	42.719	-121.167	-137.210	-144.093	-158.620	-64.219	51.630	-158.502	-153.806	133.505	-15.224	-156.222	-151.810	-151.418	-146.517	119.893	-148.872	-8191	255	
21490.996	1	1	0	0	0.13857	0.23268	0.11581	0.23511	0.22944	0.14762	0.11524	0.21621	0.31557	0.092565	0.22585	0.2587	0.19912	0.11205	0.15256	0.08967	-2.2542	-3.2708	-2.6083	-3.0479	-3.1354	-2.4562	-3.3458	-2.8896	-2.7271	-3.3688	-2.5271	-3.0292	-3.1354	-2.6458	-3.3479	-2.8667	11.941	-146.918	125.973	151.444	61.281	179.857	159.053	162.724	-115.933	-0.213	73.378	135.021	178.089	-159.296	134.925	-112.213	0.00020609	0.00041669	0.00026757	458.68	5.284e-06	1.9501e-05	502.5	153.65	1.9128e-05	1.3109e-05	197.41	75.484	54.822	20.655	1.4701e-05	30.421	0.008663	0.010049	0.0028095	632.65	0.00010895	0.00011096	637.8	200.13	0.00010716	0.0001105	277.33	102.89	80.595	29.459	0.00010807	42.636	-51.166	-107.268	129.209	-158.516	-57.483	-54.961	-158.522	-154.173	157.866	166.309	-155.535	-152.258	-150.983	-147.071	-73.862	-148.516	-8191	255	
21491.094	1	1	0	0	0.21745	0.26777	0.26989	0.13485	0.18556	0.24866	0.082886	0.032982	0.22277	0.081445	0.086527	0.21959	0.2123	0.09768	0.15604	0.2314	-2.3875	-3.3375	-2.6396	-3.1083	-3.1458	-2.6688	-3.3688	-3.0521	-2.625	-3.3979	-2.7896	-2.9146	-3.3563	-2.3708	-3.1146	-3.1646	-28.094	30.191	-83.170	19.156	-91.863	-58.029	88.570	151.232	-21.781	79.194	-105.011	-150.569	127.200	163.714	-165.217	-156.277	0.00046353	0.0021232	0.00051216	459.16	9.5794e-06	1.8926e-05	503.9	152.93	1.7013e-05	1.4581e-05	196.47	74.87	54.669	20.642	1.4105e-05	30.999	0.0086441	0.010027	0.0027906	634.81	0.00010802	0.00010927	633.05	198.43	0.00010534	0.00010772	275.16	101.68	79.103	29.006	0.00010351	42.034	-118.265	-30.244	34.611	-158.370	177.629	17.118	-158.717	-153.559	-15.324	-125.530	-155.814	-151.493	-150.226	-146.908	-58.586	-148.858	-8191	255	
21491.189	1	1	0	0	0.099698	0.14309	0.37495	0.12836	0.15903	0.11051	0.13142	0.083726	0.14899	0.20384	0.37185	0.06028	0.10117	0.20531	0.11076	0.10288	-2.0354	-3.3229	-2.7854	-2.8146	-3.2417	-2.5375	-3.1729	-3.2687	-2.4708	-3.2333	-2.7521	-2.8187	-3.3729	-2.6479	-2.9396	-3.325	106.184	-76.920	26.398	-86.787	87.216	-129.480	96.593	-79.519	181.003	-162.584	-109.652	176.820	49.865	-164.759	91.597	-133.486	0.00015089	0.0028581	0.00024569	464.72	6.6961e-06	1.929e-05	504.77	153.73	2.7666e-06	2.4474e-05	199.44	74.995	55.728	20.906	1.2737e-05	31.144	0.0080994	0.0093681	0.0026306	619.34	0.00010042	0.0001022	623.86	195.88	9.9237e-05	0.00010279	272.28	101.43	78.803	29.049	0.00010187	41.974	-131.434	-72.152	183.955	-157.771	0.248	-17.742	-158.785	-153.383	-58.230	108.132	-155.578	-152.094	-150.618	-146.439	-58.072	-148.601	-8191	255	
21491.311	1	1	0	0	0.20963	0.20503	0.17851	0.097684	0.1331	0.26198	0.20842	0.055513	0.073142	0.015761	0.10184	0.066114	0.1554	0.040859	0.14196	0.25484	-2.15	-3.2375	-2.8458	-2.8021	-3.4104	-2.6521	-3.1396	-3.1771	-2.5375	-3.3917	-3.0458	-2.5333	-3.4771	-2.7271	-2.825	-3.3708	-12.818	46.051	-93.392	-125.665	-107.168	-150.126	51.244	59.239	121.035	-166.483	79.759	146.982	151.443	8.995	148.208	69.520	8.7205e-05	0.001604	0.00021747	468.38	3.1992e-05	1.7601e-05	508.5	153.96	5.0166e-06	1.0168e-05	197.78	75.566	54.98	21.019	9.7116e-06	30.99	0.0080724	0.0092031	0.0025622	619.13	9.7577e-05	9.768e-05	618.27	194.01	9.3229e-05	9.508e-05	266.04	98.387	76.398	28.148	9.2566e-05	40.992	27.208	33.968	-150.335	-158.229	-145.906	-4.033	-158.937	-153.750	-40.002	170.122	-156.031	-152.031	-150.747	-146.923	-55.785	-148.349	-8191	255	
21491.406	1	1	0	0	0.13343	0.21728	0.092021	0.12072	0.12904	0.14387	0.18344	0.43298	0.23056	0.14626	0.2863	0.25986	0.0621	0.11586	0.053098	0.20021	-2.2854	-3.1417	-2.9313	-2.4	-3.3125	-2.7333	-3.0833	-3.2938	-2.5333	-3.1437	-3.325	-2.525	-3.3729	-2.8187	-2.8125	-3.2458	32.764	-89.603	13.738	-131.646	-140.401	-137.842	-37.667	118.013	-86.911	-150.026	156.878	84.209	-64.134	-124.753	138.606	-164.701	0.00020577	0.0020905	0.00071065	471.98	8.9074e-06	2.3761e-06	513.84	155.47	1.3709e-05	5.7214e-06	197.23	74.811	55.438	21.019	6.1587e-06	31.221	0.0073174	0.0084711	0.0023709	609.25	9.2179e-05	9.3633e-05	618.08	192.56	9.1306e-05	9.3737e-05	265.98	98.259	76.435	28.14	9.2849e-05	41.025	-169.381	-82.281	-1.887	-158.093	-134.327	-95.227	-158.938	-153.582	143.279	-114.191	-155.755	-151.901	-150.666	-146.487	-30.944	-148.406	-8191	255	
21491.479	1	1	0	0	0.18638	0.24672	0.14789	0.12913	0.31005	0.098993	0.072676	0.20939	0.25556	0.11654	0.29106	0.35755	0.066027	0.11663	0.067348	0.2111	-2.2604	-3.1063	-3.0438	-2.5667	-3.1833	-2.8312	-2.9896	-3.3125	-2.5729	-2.9979	-3.1021	-2.4313	-3.2104	-2.775	-2.8063	-3.5979	69.327	-156.656	69.360	-136.987	8.999	-109.025	128.242	-68.001	68.047	55.554	128.780	140.572	-96.796	-148.787	-45.007	76.367	0.00029309	0.00061262	0.00015754	467.79	6.8814e-06	1.11e-05	508.11	153.38	2.454e-05	5.9249e-06	197.54	75.423	54.996	20.722	1.138e-05	31.349	0.0073601	0.0085199	0.0024014	607.93	9.2504e-05	9.5203e-05	618	192.65	9.2618e-05	9.5997e-05	267.6	99.118	77.233	28.427	9.6524e-05	41.751	-43.028	5.751	104.213	-157.732	-12.825	-17.247	-158.585	-153.748	-98.687	147.443	-156.195	-151.917	-150.775	-146.764	-124.634	-148.246	-8191	255	
21491.574	1	1	0	0	0.076831	0.25984	0.20885	0.15747	0.12354	0.052056	0.38338	0.15374	0.15259	0.18335	0.18003	0.18263	0.059911	0.28323	0.16078	0.14431	-2.3167	-3.0687	-3.1688	-2.6104	-3.3312	-3.0917	-3.0312	-3.2979	-2.8104	-2.8312	-3.3333	-2.5875	-3.2083	-3.0167	-2.6208	-3.4167	-44.516	-168.217	-90.597	-72.404	-46.097	-119.456	129.632	-154.626	136.392	-98.202	-145.765	104.059	178.046	111.146	-132.305	92.353	0.00034019	0.0030702	6.1406e-05	463.37	8.093e-06	1.4877e-05	508.88	153.9	1.2306e-05	8.0553e-06	199.36	74.681	54.875	20.846	2.4608e-05	31.093	0.0077827	0.0091716	0.0025991	622.26	0.00010153	0.0001044	631.13	197.39	0.00010199	0.00010475	274.12	101.11	78.989	29.136	0.00010312	42.217	-165.419	-160.391	-71.108	-158.359	-83.917	-29.328	-158.739	-153.175	106.807	84.514	-155.768	-152.198	-150.308	-146.864	18.091	-148.626	-8191	255	
21491.695	1	1	0	0	0.22832	0.24817	0.14213	0.16529	0.1154	0.031743	0.1749	0.26516	0.36878	0.13602	0.22046	0.1339	0.060047	0.28764	0.14857	0.13917	-2.2438	-2.9	-3.2167	-2.5479	-3.25	-3.1312	-2.7271	-3.3854	-2.7271	-2.8417	-3.325	-2.7708	-3.1375	-3.2354	-2.4521	-3.2729	-110.969	113.038	-152.245	102.656	20.512	169.028	-14.426	59.173	-31.712	183.370	99.107	95.841	85.632	53.714	-75.439	138.337	0.00025123	0.0010253	0.00017235	465.22	1.0521e-05	6.8323e-06	500.48	153.98	6.4747e-06	2.1349e-05	198.88	75.73	55.3	20.955	1.3609e-05	31.232	0.008155	0.0095144	0.0026687	628.58	0.00010391	0.00010651	631.63	197.85	0.00010317	0.00010617	275.31	101.72	79.495	29.338	0.00010402	42.504	-81.743	69.793	8.594	-158.129	11.719	169.562	-158.930	-153.362	-35.863	-14.985	-155.433	-151.847	-150.141	-146.381	-39.904	-148.184	-8191	255	
21491.791	1	1	0	0	0.071739	0.12787	0.21799	0.032137	0.13118	0.11719	0.17919	0.17202	0.14807	0.3036	0.12589	0.14735	0.086762	0.25198	0.17638	0.25277	-2.3187	-2.6708	-3.2229	-2.7771	-3.0625	-3.1646	-2.4688	-3.3187	-2.8521	-2.6729	-3.3854	-2.8146	-2.7583	-3.25	-2.6458	-3.2562	141.656	-120.527	-121.550	77.093	95.493	-164.845	102.623	31.550	-17.002	-138.707	-86.399	139.901	70.908	42.331	43.034	-122.904	0.00031527	0.0020652	0.00036337	464.21	1.6553e-05	1.3177e-05	509.76	153.3	7.2558e-06	6.2233e-06	200.16	74.357	54.888	20.496	1.6911e-05	30.823	0.0081838	0.0095209	0.0026531	624.61	0.00010278	0.00010461	630.85	197.29	0.00010203	0.00010547	274.6	101.28	79.394	29.106	0.00010364	42.178	-80.210	-75.772	130.129	-158.627	2.302	23.834	-158.345	-153.829	129.321	164.044	-156.057	-151.651	-150.003	-146.810	3.427	-148.401	-8191	255	
21491.885	1	1	0	0	0.078284	0.12765	0.16331	0.21226	0.061573	0.2721	0.10265	0.031957	0.14999	0.19552	0.22434	0.25124	0.15346	0.17217	0.024527	0.38754	-2.5958	-2.5708	-3.2958	-2.7292	-2.7354	-3.3083	-2.8146	-3.1021	-3.325	-2.5979	-3.3521	-2.5604	-2.8833	-3.3896	-2.6188	-3.1188	35.767	23.435	23.143	29.424	-11.678	42.518	130.221	-95.427	32.834	60.005	-160.643	12.969	-165.995	-107.967	175.614	89.707	0.00027854	0.0025367	0.00071415	459.15	1.4775e-05	1.0526e-06	495.97	152.66	2.1422e-05	5.81e-06	197.35	73.989	54.432	20.529	1.3671e-05	30.964	0.0082276	0.0095748	0.0026961	627.16	0.00010528	0.0001086	631.9	199.1	0.00010581	0.00010943	275.92	101.72	79.42	29.279	0.00010485	42.419	-108.126	-96.854	81.535	-158.021	-147.860	60.022	-158.650	-153.673	-15.631	-19.146	-155.610	-151.887	-150.168	-146.027	-60.584	-148.480	-8191	255	
21491.982	1	1	0	0	0.072834	0.022686	0.30762	0.027566	0.27067	0.080317	0.1688	0.068159	0.12443	0.0036496	0.20252	0.1996	0.087037	0.19969	0.28298	0.076678	-2.6417	-2.3229	-3.3	-2.8021	-2.8229	-3.4188	-2.5896	-3.0146	-3.225	-2.4875	-3.425	-2.9229	-2.6125	-3.3604	-2.5458	-2.9625	-71.768	118.472	-144.739	92.205	-41.588	32.948	102.780	34.748	109.893	-106.371	124.355	106.042	146.314	131.691	101.228	92.105	0.0003234	0.0008069	0.00040368	462.48	1.6533e-05	7.4701e-06	503.46	154.12	5.3008e-06	2.3352e-05	198.16	74.493	54.233	20.757	1.0752e-05	31.124	0.0083649	0.0096637	0.0027215	625.73	0.00010629	0.00010783	627.83	197.07	0.00010205	0.00010452	272.22	100.76	78.501	28.995	0.00010174	42.168	-73.259	-143.403	2.807	-157.974	176.404	-65.916	-158.197	-153.453	-13.376	-10.852	-155.461	-152.448	-150.353	-146.378	50.761	-148.173	-8191	255	
21492.076	1	1	0	0	0.096379	0.25133	0.11217	0.19501	0.23963	0.25184	0.26944	0.21036	0.17486	0.15831	0.16794	0.16732	0.11509	0.1438	0.23334	0.34515	-2.8063	-2.4292	-3.1396	-2.825	-2.5333	-3.1708	-2.6021	-3.0354	-3.3688	-2.4521	-3.3271	-3.1625	-2.7208	-3.2896	-2.7583	-2.7979	-8.462	-146.742	-52.578	128.162	-145.532	117.654	74.301	-116.600	75.312	2.015	-33.477	-78.536	186.467	22.094	-1.134	-152.419	0.00018825	0.0010101	0.00068146	455.43	6.3912e-06	2.3202e-05	498.52	151.14	3.1023e-05	1.2096e-05	197.57	75.794	54.332	20.925	1.662e-06	30.878	0.0081645	0.0094879	0.0026718	619.81	0.00010416	0.00010517	625.17	196.65	0.00010213	0.00010509	274.67	101.4	79.15	29.327	0.0001036	42.307	-80.374	67.595	-55.548	-158.263	13.280	-24.403	-159.052	-153.318	-33.237	-118.157	-155.868	-151.625	-150.975	-146.155	27.036	-147.986	-8191	255	
21492.174	1	1	0	0	0.16654	0.13536	0.12429	0.076451	0.048017	0.11635	0.36308	0.25372	0.11665	0.11298	0.1476	0.26662	0.34883	0.075999	0.22175	0.074521	-2.8771	-2.5333	-3.2083	-3.1729	-2.6333	-3.3667	-3.0021	-2.6792	-3.3604	-2.6604	-3.125	-3.1604	-2.6646	-3.3875	-2.875	-2.6833	145.234	-131.716	-76.655	-119.247	-125.269	91.791	151.654	140.021	141.752	99.341	164.622	144.956	71.142	-4.114	66.438	-73.567	0.00031286	0.0015562	0.00022565	458.77	1.74e-05	2.2564e-05	491.19	151.33	1.4934e-05	1.3355e-05	196.01	74.777	54.203	20.598	2.0415e-05	30.587	0.0082408	0.0094614	0.0026469	615.04	0.0001005	0.00010208	611.82	193.5	9.6751e-05	9.8093e-05	266.28	98.487	76.691	28.213	9.6089e-05	41.048	-142.454	57.271	-7.256	-157.553	62.951	-168.564	-158.746	-153.098	-37.670	-20.594	-155.155	-151.386	-150.834	-147.077	-31.551	-148.005	-8191	255	
21492.295	1	1	0	0	0.17084	0.046034	0.16404	0.16222	0.25257	0.29429	0.29271	0.34495	0.15573	0.082531	0.08651	0.058093	0.12667	0.053216	0.15555	0.21264	-3.075	-2.6542	-2.9729	-3.1854	-2.6125	-3.4208	-2.9188	-2.8063	-3.3771	-2.7854	-3.0625	-3.275	-2.475	-3.3021	-2.9292	-2.5625	121.011	79.611	-168.630	-143.484	142.127	-119.350	113.670	55.494	-8.144	-67.861	-40.111	38.434	115.387	-119.589	118.912	-101.009	0.00034338	0.0014452	0.00016997	453.82	1.8695e-05	1.8115e-05	495.88	151.3	1.0609e-05	1.7521e-05	196.5	74.145	54.393	20.563	2.5412e-05	30.824	0.0076827	0.0089499	0.0025208	604.91	9.8205e-05	0.00010032	611.34	193.67	9.8974e-05	0.00010162	268.82	99.99	78.18	28.72	0.00010012	41.738	-92.259	-33.529	121.124	-158.015	-61.115	-80.000	-159.135	-154.086	-24.555	-43.249	-155.238	-151.590	-150.781	-146.312	-10.207	-148.985	-8191	255	
21492.391	1	1	0	0	0.033557	0.11295	0.090858	0.30769	0.094894	0.034352	0.15802	0.26839	0.13622	0.093965	0.1419	0.29732	0.17366	0.1418	0.16769	0.26659	-3.0625	-2.7562	-3.0292	-3.2792	-2.6208	-3.1729	-3.1792	-2.5354	-3.3271	-3.0187	-2.8563	-3.3542	-2.7	-3.1937	-3.25	-2.5396	-152.605	152.618	183.991	88.266	-8.037	-154.045	-130.551	166.283	-135.723	-100.680	158.178	128.980	-154.841	-124.525	-166.084	138.463	0.00032837	0.001038	0.00053738	453.59	2.0103e-05	1.7191e-05	492.47	150.61	1.156e-05	2.2542e-05	198.56	74.439	54.769	20.749	2.0085e-06	31.099	0.007906	0.0090294	0.0025113	600.35	9.4578e-05	9.4719e-05	599.44	188.71	8.8792e-05	9.0396e-05	260.42	96.524	74.114	27.488	8.6895e-05	40.15	-157.743	21.706	-75.425	-158.432	98.441	-139.808	-158.890	-153.282	81.669	28.148	-155.398	-151.869	-150.645	-146.695	8.742	-149.439	-8191	255	
21492.486	1	1	0	0	0.11945	0.17753	0.15774	0.12256	0.28595	0.08282	0.15494	0.11926	0.16071	0.12315	0.25784	0.15988	0.073864	0.072328	0.16847	0.19404	-2.9729	-2.9062	-2.7521	-3.4229	-2.5271	-3.0354	-3.1833	-2.6458	-3.3771	-2.9437	-2.6937	-3.3917	-2.5917	-2.8625	-3.2562	-2.4938	-117.557	-82.917	121.405	146.234	89.739	126.218	148.096	26.485	-127.173	21.526	96.737	-164.543	-148.263	-147.523	96.100	129.341	0.00021147	0.0013709	0.00023598	454.31	7.3286e-06	6.8107e-06	495.78	151.75	1.4951e-05	8.156e-06	199.07	75.061	54.474	21.02	1.6749e-05	31.2	0.0069978	0.0081692	0.0023121	588.57	8.9868e-05	9.1886e-05	600.71	189.21	9.0584e-05	9.479e-05	265.04	98.379	76.439	28.341	9.4631e-05	40.873	-92.101	-110.411	-9.343	-158.316	59.986	141.394	-158.351	-153.409	89.155	-108.929	-155.218	-151.405	-150.774	-146.556	-59.161	-148.639	-8191	255	
21492.582	1	1	0	0	0.081458	0.1177	0.085159	0.027553	0.24921	0.21721	0.17887	0.59573	0.16835	0.30728	0.086865	0.18947	0.081863	0.18162	0.18607	0.12957	-2.7792	-3.0521	-2.6813	-3.5583	-2.6167	-2.8396	-3.2729	-2.6271	-3.3833	-3.1021	-2.7958	-3.3521	-2.9313	-2.9021	-3.2625	-2.7521	-29.195	44.029	147.759	-57.696	81.726	-114.132	112.842	127.184	-33.106	53.167	143.922	164.299	-131.895	-150.606	-90.601	-123.031	0.0005766	0.00034373	0.00060144	453.3	8.1608e-06	3.9598e-06	496.02	151.18	1.315e-05	1.5717e-05	197.78	73.701	54.763	20.763	1.4636e-05	30.907	0.0073821	0.008585	0.0023937	593.87	9.1249e-05	9.2863e-05	598.75	188.95	9.0834e-05	9.4033e-05	264.13	98.131	76.788	28.546	9.8267e-05	41.453	-103.231	-34.305	-163.935	-157.727	51.868	101.736	-158.645	-153.354	-89.041	-14.245	-155.292	-152.200	-151.255	-146.978	109.557	-148.375	-8191	255	
21492.703	1	1	0	0	0.13778	0.071086	0.011609	0.15866	0.075928	0.026986	0.1706	0.13486	0.080521	0.078743	0.064104	0.024169	0.13218	0.23869	0.21884	0.11194	-2.75	-3.2771	-2.5312	-3.2146	-3.0021	-2.8208	-3.4437	-2.5021	-2.9979	-3.2771	-2.6813	-3.3229	-2.8771	-2.7542	-3.3667	-2.6583	-83.874	-167.171	-101.589	154.327	-12.577	56.090	118.466	18.777	84.842	-17.502	57.867	144.851	2.718	-77.085	-5.065	-27.878	0.00016942	0.0015529	0.00082092	457.9	1.469e-05	1.3199e-05	496.44	150.65	1.0705e-05	1.2113e-05	199.33	74.638	55.011	20.888	1.0647e-05	30.787	0.0077659	0.0089567	0.0024911	599.56	9.3778e-05	9.4744e-05	601.96	188.94	8.9115e-05	9.0841e-05	259.77	96.149	74.033	27.469	8.5672e-05	39.831	-144.691	177.276	-141.890	-158.373	21.745	85.424	-158.704	-153.245	-70.408	120.809	-155.695	-151.754	-150.377	-146.803	-133.921	-148.124	-8191	255	
21492.775	1	1	0	0	0.08649	0.12014	0.13066	0.14753	0.21668	0.12381	0.052508	0.12956	0.14129	0.37636	0.23049	0.20881	0.096912	0.15103	0.20897	0.1276	-2.5854	-3.0771	-2.5792	-3.35	-3.0938	-2.8104	-3.5625	-2.5729	-3.1021	-3.3646	-2.6667	-3.4854	-3.1229	-2.8896	-3.2646	-2.5667	131.661	36.681	17.746	-115.919	-48.525	73.234	186.137	72.178	-86.905	-99.936	66.024	-98.259	127.614	-148.402	40.644	178.725	0.0001834	0.0010388	0.00049101	458.9	1.8664e-05	2.7348e-05	505.08	152.33	2.9803e-06	3.5309e-06	198.92	76.158	54.79	20.762	6.3826e-06	31.253	0.0067394	0.0078889	0.002207	584.18	8.4544e-05	8.5877e-05	594.91	186.58	8.3237e-05	8.6113e-05	258.66	96.249	74.315	27.564	8.6253e-05	40.262	-101.001	-152.808	136.100	-158.168	-113.846	-164.929	-158.939	-153.807	-87.152	64.370	-156.067	-152.276	-150.760	-147.167	-141.559	-148.358	-8191	255	
21492.871	1	1	0	0	0.18048	0.19717	0.18524	0.17614	0.19399	0.16094	0.19629	0.19711	0.097247	0.20122	0.085136	0.19639	0.084052	0.088522	0.1285	0.069473	-2.4667	-3.3167	-2.6063	-3.2062	-3	-2.6	-3.4583	-2.7292	-2.8417	-3.2833	-2.5187	-3.1417	-3.1937	-2.6896	-3.2875	-2.8688	-55.333	4.652	-140.995	62.331	87.912	55.472	-170.207	-6.326	-12.916	77.128	-165.651	-18.685	-132.875	-57.476	-59.391	95.866	0.00039932	0.00086863	0.00069237	461.37	1.1291e-05	1.2113e-05	506.47	154.36	6.7746e-06	9.3235e-06	199.22	77.068	55.682	21.02	2.6975e-05	31.694	0.0069162	0.0080007	0.0022472	588.29	8.7152e-05	8.8866e-05	601.27	187.94	8.3804e-05	8.5591e-05	258.51	96.354	74.188	27.49	8.2866e-05	40.043	-121.771	-68.900	87.850	-158.227	-155.148	-166.029	-158.628	-153.948	16.579	84.939	-155.806	-152.123	-151.297	-146.906	-107.832	-148.774	-8191	255	
21492.990	1	1	0	0	0.28042	0.24616	0.096617	0.11009	0.14656	0.088204	0.13165	0.12069	0.23283	0.17319	0.15905	0.051351	0.20629	0.096976	0.3203	0.053431	-2.4146	-3.4813	-2.5667	-3.1792	-3.1063	-2.5125	-3.3521	-2.9208	-2.7729	-3.2542	-2.5354	-3.0854	-3.5021	-2.4708	-3.2938	-3.0458	-103.876	-109.826	137.180	-134.305	130.285	170.963	2.310	87.779	144.827	89.578	57.197	-166.859	28.865	-77.611	172.403	74.350	0.00033161	0.00063444	0.00052896	459.34	1.1821e-05	1.3497e-05	508.45	154.32	6.6705e-06	1.0543e-05	200.7	76.263	55.236	21.086	2.2364e-05	31.661	0.0065988	0.0076743	0.002155	581.56	8.3587e-05	8.5181e-05	597.78	187.29	8.3299e-05	8.5824e-05	259.39	96.671	74.544	27.616	8.5171e-05	40.484	-60.218	-155.784	-155.203	-159.007	31.939	20.780	-158.682	-154.176	-140.734	103.971	-155.726	-152.045	-150.800	-146.253	-97.279	-148.102	-8191	255	
21493.086	1	1	0	0	0.1214	0.13172	0.14144	0.11952	0.10716	0.1761	0.14975	0.024406	0.15014	0.04133	0.22336	0.10915	0.1056	0.29289	0.12538	0.16365	-2.0875	-3.4104	-2.7833	-2.9833	-3.2854	-2.6167	-3.3146	-2.9792	-2.5167	-3.3604	-2.675	-2.8417	-3.2708	-2.5667	-3.2854	-3.2	-61.847	51.282	123.513	-158.123	147.569	102.797	173.951	-147.100	188.132	88.153	143.677	17.307	104.451	-138.365	128.490	111.490	0.00025134	0.00076005	0.00061635	462.39	1.7266e-05	1.1255e-05	507.42	156.06	9.9786e-06	1.8918e-05	202.49	76.779	55.128	20.78	1.0369e-05	31.408	0.0068169	0.007881	0.002217	590.58	8.7326e-05	8.9318e-05	605.23	189.93	8.6781e-05	8.8411e-05	261.85	97.825	75.245	27.819	8.8576e-05	40.773	-97.298	-20.938	-78.565	-158.350	34.037	106.841	-159.325	-153.710	182.824	133.578	-155.562	-152.663	-151.107	-147.020	-46.349	-148.548	-8191	255	
21493.182	1	1	0	0	0.17497	0.12343	0.078024	0.10923	0.079913	0.089492	0.095483	0.11013	0.16056	0.062838	0.20449	0.29284	0.11539	0.22827	0.24066	0.19488	-2.1375	-3.2875	-2.8917	-2.8	-3.3438	-2.7146	-3.1813	-3.1083	-2.5542	-3.3812	-2.8979	-2.8458	-3.3917	-2.5604	-3.0521	-3.1479	113.872	74.942	-2.003	-150.184	-131.389	-55.304	61.799	143.148	-117.251	110.439	-158.013	-116.925	60.464	97.035	-92.794	-64.972	0.0003271	0.0020905	0.00033821	463.46	1.6707e-05	7.6683e-06	511.35	155.14	1.0291e-05	2.8118e-06	200.59	77.041	55.261	21.156	1.2825e-05	31.374	0.0070986	0.0081045	0.0022615	593.77	8.7651e-05	8.9487e-05	609.32	190.69	8.9157e-05	9.1682e-05	266.44	99.207	76.593	28.421	9.4563e-05	41.582	-95.675	-29.878	57.991	-158.260	165.800	-0.961	-158.473	-153.687	-8.467	-107.043	-155.443	-152.099	-151.013	-146.224	163.958	-148.702	-8191	255	
21493.277	1	1	0	0	0.20817	0.17427	0.15498	0.12979	0.040498	0.19464	0.34336	0.31951	0.22501	0.11846	0.21202	0.26625	0.053567	0.12701	0.2744	0.28638	-2.3375	-3.3458	-2.8458	-2.4354	-3.3375	-2.6063	-2.8667	-3.1292	-2.6333	-3.3375	-3.1562	-2.6021	-3.4042	-2.7188	-2.8937	-3.275	-145.249	133.375	149.982	-114.103	-163.225	-124.893	117.429	-23.271	20.094	67.949	-104.266	-104.995	-10.461	2.781	-41.628	143.127	0.00040951	0.00086211	0.00028834	461.17	1.423e-05	2.2479e-05	506.17	153.68	1.7001e-06	6.5991e-06	200.36	75.737	55.516	20.757	8.8568e-06	31.645	0.007482	0.0086883	0.0024394	608.12	9.5439e-05	9.8348e-05	621.35	195.96	0.00010071	0.0001055	277.81	103.26	80.411	29.491	0.00010554	42.948	-77.582	-89.429	-154.694	-158.210	46.086	24.758	-158.221	-153.830	55.006	44.660	-155.765	-151.348	-151.145	-146.833	118.844	-148.949	-8191	255	
21493.375	1	1	0	0	0.16726	0.17761	0.02986	0.16794	0.096385	0.034187	0.064656	0.057781	0.19808	0.064808	0.14418	0.18637	0.11732	0.15468	0.10663	0.087169	-2.1292	-3.1396	-3.1083	-2.775	-3.3917	-2.7958	-2.8729	-3.2729	-2.5458	-3.2562	-3.1396	-2.6458	-3.2188	-2.7167	-2.6979	-3.2792	-40.381	36.599	-56.335	153.630	30.195	-64.011	50.955	-19.629	153.510	185.399	9.414	107.475	-14.268	109.808	110.353	-104.419	0.00012905	0.0035494	9.1422e-05	461.6	2.3897e-05	1.7134e-05	504.63	153.89	1.0545e-05	2.5892e-05	202.82	76.553	55.326	21.086	9.8734e-07	31.112	0.0081674	0.0093325	0.0025852	613.31	9.5997e-05	9.5792e-05	612.18	191.3	8.8528e-05	9.0059e-05	263.51	97.936	75.356	27.89	9.0153e-05	40.79	-99.943	-74.898	10.528	-158.212	-91.361	5.512	-158.293	-153.526	38.623	-131.364	-156.851	-152.517	-150.710	-147.189	-162.460	-148.301	-8191	255	
21493.471	1	1	0	0	0.28127	0.215	0.1537	0.32467	0.082823	0.16659	0.14146	0.1735	0.14885	0.084929	0.20405	0.082662	0.1098	0.040242	0.18134	0.090583	-2.1813	-3.1375	-3.0604	-2.6854	-3.2646	-2.9437	-2.7396	-3.3083	-2.4979	-3.0604	-3.1813	-2.3875	-3.325	-3.0938	-2.5521	-3.3958	-164.656	170.012	39.215	-79.276	-148.066	-18.613	169.676	107.364	-81.140	-36.632	-108.089	45.974	-96.228	-9.620	-105.696	93.660	0.00030077	0.00074604	0.00024621	469.18	1.1338e-05	2.5316e-05	509.4	154.3	1.1188e-05	2.2016e-05	201.11	75.417	55.332	21.065	9.0443e-06	31.79	0.0071267	0.0082675	0.0023368	602.18	8.9648e-05	9.0472e-05	611.06	190.75	8.8006e-05	9.1839e-05	264.91	98.486	76.514	28.461	9.4423e-05	41.74	-46.790	-48.942	154.384	-157.615	112.845	-43.203	-159.083	-153.384	9.646	130.473	-156.194	-151.263	-150.960	-146.387	-53.881	-149.029	-8191	255	
21493.566	1	1	0	0	0.16171	0.097166	0.069944	0.36151	0.1102	0.25154	0.32468	0.41753	0.068195	0.092734	0.20561	0.13734	0.075835	0.28611	0.15249	0.14578	-2.3854	-2.8896	-3.3271	-2.5812	-3.1792	-3.1625	-2.6896	-3.2958	-2.7583	-2.9813	-3.3688	-2.5229	-3.1917	-3.1208	-2.6937	-3.4646	87.946	72.945	177.570	-143.683	18.620	139.920	-131.280	-143.159	-79.991	69.328	71.426	-113.330	-14.677	120.557	94.536	28.106	0.00032349	0.00072211	0.00032467	462.89	2.0751e-05	2.5845e-05	513.38	155.51	1.1075e-05	8.5594e-06	204.14	76.673	56.066	21.049	5.7713e-06	31.769	0.0075608	0.0088838	0.002487	613.31	9.6309e-05	9.8038e-05	624.05	195.26	9.3931e-05	9.5723e-05	268.61	98.924	75.996	27.853	8.5013e-05	40.285	-59.797	148.548	10.766	-157.761	-94.840	-73.249	-158.400	-153.441	-18.804	106.694	-155.738	-151.787	-150.958	-146.144	-72.594	-148.157	-8191	255	
21493.662	1	1	0	0	0.1843	0.056282	0.13375	0.12445	0.19701	0.18991	0.23379	0.10805	0.11119	0.16607	0.066327	0.21788	0.16553	0.09611	0.12999	0.46387	-2.3604	-2.8312	-3.3271	-2.7313	-2.975	-3.2458	-2.7438	-3.2562	-3.0208	-2.7792	-3.3312	-2.7542	-3.025	-3.1542	-2.4875	-3.2875	158.229	106.599	94.391	-149.569	113.847	-110.663	101.767	145.020	-71.672	-43.098	-149.089	138.024	-150.268	-23.026	-150.369	-83.381	0.00027461	0.0012582	0.00050914	471.56	9.0946e-06	7.7642e-06	522.21	157.57	1.4958e-05	1.3815e-05	205.71	77.827	55.908	21.502	4.1688e-06	31.709	0.0064375	0.0073752	0.0020328	580.52	7.7154e-05	7.9079e-05	598.85	185.59	7.5592e-05	7.9288e-05	257.17	95.938	73.629	27.348	7.9567e-05	39.952	-157.650	177.980	-65.293	-157.950	-13.045	45.313	-158.836	-153.709	-82.429	53.712	-155.817	-152.440	-150.665	-146.265	93.058	-149.003	-8191	255	
21493.783	1	1	0	0	0.14714	0.25577	0.10759	0.15796	0.028212	0.095519	0.18153	0.19124	0.14047	0.26863	0.25937	0.26377	0.072177	0.062073	0.17749	0.12893	-2.3187	-2.6562	-3.3021	-2.5479	-2.8271	-3.2146	-2.5729	-3.3167	-2.8063	-2.725	-3.3958	-2.7021	-2.7146	-3.3063	-2.6	-3.2687	170.412	28.311	-116.943	62.887	-21.650	-149.482	141.653	-137.191	132.182	150.256	187.459	152.699	177.332	59.000	19.511	157.734	0.00025522	0.0013678	7.2848e-05	472.23	5.1481e-06	2.8556e-05	522.89	156.72	2.43e-05	2.1534e-05	204.45	78.217	56.526	21.454	1.3829e-05	31.736	0.0063723	0.0075017	0.0021038	591.4	8.462e-05	8.7292e-05	615.98	192.89	9.0282e-05	9.532e-05	272.72	101.64	78.754	29.293	9.9358e-05	42.667	-102.900	77.480	-105.589	-158.391	-21.258	-35.752	-159.572	-153.174	34.305	-119.198	-155.119	-152.164	-150.509	-146.514	-27.897	-148.729	-8191	255	
21493.879	1	1	0	0	0.11647	0.20894	0.1352	0.10672	0.052127	0.029941	0.27153	0.37496	0.17675	0.21716	0.32289	0.12069	0.26795	0.15921	0.17457	0.28259	-2.5604	-2.5146	-3.4125	-2.8375	-2.8354	-3.4271	-2.6333	-3.0542	-3.1979	-2.6417	-3.3688	-2.8083	-2.8833	-3.4313	-2.5833	-3.225	-99.374	7.827	-150.605	-21.620	-43.624	-171.141	64.676	17.217	-113.200	111.445	-5.878	-14.106	161.671	119.525	-16.387	23.635	0.0003003	0.001335	0.00040209	473.81	3.9976e-06	6.338e-06	514.19	157.21	1.988e-05	1.9455e-05	207.05	77.889	56.275	21.46	1.7382e-05	32.471	0.0079524	0.0092261	0.0025919	623.41	0.00010099	0.00010234	634.24	198.27	0.00010017	0.00010264	278.21	103.23	79.705	29.543	0.00010039	43.062	-60.330	-109.551	155.194	-158.161	-94.758	-55.433	-159.011	-153.912	-22.398	-79.754	-155.450	-151.825	-150.616	-146.144	-43.759	-148.465	-8191	255	
21493.977	1	1	0	0	0.12206	0.14779	0.2431	0.1829	0.258	0.030938	0.31849	0.15013	0.26524	0.097124	0.085473	0.23617	0.17048	0.21229	0.33988	0.097946	-2.8542	-2.5604	-3.2958	-3	-2.6792	-3.4062	-2.7917	-3.0667	-3.0458	-2.5833	-3.3667	-3.05	-2.6688	-3.4521	-2.6562	-2.7396	41.260	155.491	38.294	-95.822	-86.606	70.330	148.190	-43.849	78.763	-128.299	0.039	-56.910	185.518	29.460	86.843	-165.884	0.00024438	0.0012291	0.00027449	470.91	1.1656e-05	6.7355e-06	516.26	158.93	4.9168e-06	1.1043e-05	206.53	78.683	56.574	21.374	1.9862e-05	32.448	0.0079531	0.0091416	0.0025115	617.19	9.6577e-05	9.7999e-05	624.47	196.57	9.2953e-05	9.4699e-05	271.44	101.06	77.785	28.594	9.204e-05	41.868	-163.620	-128.678	-47.984	-158.224	-28.004	-87.196	-158.659	-153.669	-108.593	-15.071	-155.280	-152.349	-150.641	-146.158	143.589	-148.296	-8191	255	
21494.070	1	1	0	0	0.11668	0.32613	0.022018	0.14324	0.26214	0.10889	0.43896	0.14406	0.21449	0.20531	0.081636	0.28539	0.21245	0.22357	0.16944	0.1522	-2.8771	-2.5417	-3.2104	-3.0396	-2.6146	-3.3271	-2.7167	-2.9437	-3.3521	-2.9437	-3.2583	-3.0458	-2.4708	-3.2708	-2.8125	-2.7875	146.208	26.948	5.185	-147.248	74.519	65.611	119.033	95.228	11.967	54.909	101.633	142.240	162.122	-58.413	-19.897	-118.482	0.00016781	0.00073303	0.00033158	465.93	9.1391e-06	8.0089e-06	513.6	156.31	1.6956e-05	1.4959e-05	203.47	76.942	55.8	21.181	1.93e-05	31.905	0.0073222	0.0085418	0.0023714	607.87	9.2785e-05	9.5397e-05	621.93	194.95	9.3553e-05	9.6209e-05	271.95	100.87	77.887	28.679	9.6608e-05	42.066	-87.433	117.332	-112.933	-157.973	-96.006	88.823	-158.778	-153.306	-24.867	-111.693	-155.465	-151.913	-149.882	-146.431	-107.973	-148.825	-8191	255	
21494.166	1	1	0	0	0.20968	0.24145	0.15952	0.05288	0.1064	0.11039	0.069392	0.27711	0.12311	0.13437	0.0847	0.13405	0.2287	0.23736	0.19396	0.21829	-2.9375	-2.4125	-3.1333	-3.4396	-2.3958	-3.3812	-2.9104	-2.5771	-3.2812	-2.4437	-3.0271	-3.2792	-2.6333	-3.2979	-2.8521	-2.7062	176.188	35.283	126.110	-7.110	47.461	10.846	75.090	172.583	142.990	181.259	-46.830	127.305	163.447	-65.248	81.166	-159.786	0.00031736	0.0030525	0.00043447	461.35	1.0714e-05	2.3103e-05	514.74	156.51	4.4693e-06	7.6755e-06	204.94	76.857	55.224	21.155	9.4886e-06	31.556	0.0075935	0.0087023	0.0024581	610.8	9.4561e-05	9.5488e-05	620.54	195	9.2658e-05	9.6468e-05	271.48	100.19	77.635	28.728	9.5157e-05	41.826	-89.247	-127.564	-56.202	-157.544	-57.419	48.373	-158.734	-153.007	-84.917	-161.308	-155.872	-151.661	-150.289	-146.881	76.439	-148.227	-8191	255	
21494.264	1	1	0	0	0.3508	0.28869	0.11292	0.11651	0.090336	0.08144	0.24047	0.18451	0.047849	0.28476	0.24944	0.19649	0.2007	0.14594	0.1358	0.13216	-3.1	-2.6417	-2.8604	-3.2458	-2.5458	-3.2708	-2.9479	-2.8042	-3.2875	-2.65	-2.925	-3.2938	-2.4104	-3.15	-3.1625	-2.6667	17.203	-118.519	55.480	-144.098	124.034	120.965	99.158	149.901	-19.320	-32.721	144.605	126.953	-161.470	60.505	187.414	147.114	0.00020923	0.001409	0.00034396	463.02	1.5043e-05	5.4481e-06	513.64	155.35	2.1249e-05	2.602e-05	204.15	76.626	54.998	20.989	2.0626e-05	31.483	0.0075542	0.0087999	0.0024587	610.11	9.5183e-05	9.7014e-05	626.05	195.91	9.5239e-05	9.8862e-05	274.51	101	78.19	28.699	9.7393e-05	42.019	-106.593	-114.209	157.509	-157.774	-4.542	-0.140	-158.910	-153.739	91.692	-97.095	-155.855	-151.736	-150.788	-146.575	-111.617	-148.752	-8191	255	
21494.383	1	1	0	0	0.20287	0.18512	0.1699	0.064556	0.18433	0.053141	0.088519	0.18605	0.25456	0.091607	0.036609	0.11336	0.093977	0.01273	0.19318	0.27943	-2.9938	-2.8375	-2.6917	-3.3021	-2.3312	-3.2208	-3.1583	-2.675	-3.3708	-2.8917	-2.7667	-3.4562	-2.6	-3.1813	-3.2792	-2.6854	13.202	-74.228	-115.869	32.615	118.459	53.949	97.716	96.857	153.155	71.746	169.233	130.972	42.990	-109.814	63.907	105.093	0.00029427	0.0013962	0.00065123	468.77	1.6223e-05	1.745e-05	515.44	156.87	1.2459e-05	5.3399e-06	204.59	75.496	55.14	20.826	1.548e-05	31.225	0.0077749	0.0090717	0.0025575	622.11	9.8678e-05	0.00010056	631.45	197.42	9.6816e-05	9.9273e-05	273.95	100.4	77.649	28.639	9.8151e-05	41.867	-144.205	-85.664	-16.240	-158.323	-170.861	-158.239	-158.747	-153.539	-78.287	18.909	-155.260	-151.708	-150.872	-146.130	121.258	-148.772	-8191	255	
21494.479	1	1	0	0	0.064892	0.16428	0.21033	0.25422	0.14616	0.11398	0.13294	0.11843	0.17231	0.031128	0.14284	0.061002	0.098441	0.22613	0.14184	0.05309	-2.8354	-2.9396	-2.6979	-3.5583	-2.6167	-3.0312	-3.2792	-2.5979	-3.1417	-2.8812	-2.7854	-3.3812	-2.5167	-2.9333	-3.3146	-2.6583	33.558	-159.007	-8.449	26.746	138.433	25.391	-107.040	8.267	-159.300	132.771	-86.964	123.350	33.222	62.707	17.076	145.321	0.00030885	0.0015022	8.2075e-05	469.75	4.4466e-06	6.2988e-06	510.41	156.62	1.5548e-05	8.766e-06	201.33	76.501	55.481	20.896	1.7166e-05	31.195	0.0078853	0.0092157	0.0025958	624.56	9.9335e-05	0.00010156	626.92	196.45	9.6558e-05	9.8394e-05	270.53	99.83	77.294	28.442	9.6141e-05	41.473	-95.290	47.132	179.897	-157.556	77.524	-160.137	-159.042	-153.057	-101.332	179.476	-155.218	-152.321	-150.833	-146.385	30.318	-148.630	-8191	255	
21494.576	1	1	0	0	0.21132	0.094296	0.072955	0.14844	0.008947	0.14751	0.1558	0.21386	0.27503	0.3741	0.075308	0.11884	0.14574	0.2594	0.057626	0.088918	-2.8187	-2.9792	-2.4875	-3.4375	-2.6479	-2.7812	-3.5271	-2.5729	-2.9833	-3.1542	-2.6854	-3.2729	-2.8104	-2.8208	-3.3604	-2.6437	66.267	166.906	121.369	18.956	99.406	167.414	182.559	103.078	148.875	186.362	-165.924	160.157	7.876	39.646	4.388	79.369	0.00034322	0.00018435	0.00088545	472.16	7e-06	1.584e-05	514.99	156.15	8.0388e-06	8.3292e-06	201.72	76.501	54.939	21.127	1.928e-05	30.847	0.0076713	0.0089361	0.0025528	619.43	9.9517e-05	0.00010293	632.23	198.27	0.00010041	0.0001044	278.31	102.42	79.643	29.355	0.00010398	42.543	-156.478	-9.259	-161.322	-158.255	-32.039	-135.683	-159.024	-153.970	-68.973	-144.881	-155.570	-152.104	-150.268	-146.235	-81.322	-148.840	-8191	255	
21494.646	1	1	0	0	0.089593	0.22767	0.29993	0.13554	0.15097	0.10668	0.12754	0.34096	0.36631	0.10802	0.041125	0.23208	0.061419	0.29379	0.14289	0.12442	-2.8875	-2.9833	-2.7417	-3.2687	-2.7542	-2.8792	-3.3396	-2.7125	-3.0833	-3.0458	-2.4833	-3.3854	-2.9521	-2.6958	-3.5375	-2.725	20.504	72.300	111.824	64.942	139.748	2.035	110.138	144.939	-125.657	59.333	173.256	179.910	-167.586	-156.954	-123.010	-152.127	0.0002834	0.00045292	0.00032062	473.59	5.8028e-06	2.0497e-05	509.76	154.88	1.2675e-05	1.4379e-05	203.81	77.291	54.47	20.619	6.9754e-06	31.027	0.0082752	0.0095283	0.0027019	631.87	0.00010345	0.00010694	638.35	198.69	0.00010254	0.00010541	278.71	102.98	79.344	29.21	0.0001036	42.619	-122.207	139.668	-158.560	-157.803	90.248	-153.126	-158.917	-153.561	-103.911	-24.014	-154.882	-152.282	-151.016	-146.878	-36.632	-149.105	-8191	255	
21494.768	1	1	0	0	0.18516	0.35541	0.23683	0.041898	0.16457	0.09716	0.02414	0.1412	0.23319	0.17059	0.014668	0.097899	0.1114	0.17973	0.10737	0.22197	-2.4396	-3.0854	-2.5729	-3.1833	-2.8771	-2.5958	-3.3896	-2.6854	-2.9458	-3.4083	-2.6417	-3.2708	-3.1396	-2.4938	-3.3375	-2.7917	132.813	96.812	15.241	103.288	8.150	162.510	53.306	-143.738	167.955	47.254	-165.695	-170.191	-162.029	-157.818	9.172	32.953	0.00016705	0.0029904	0.00026139	470.25	9.5736e-06	1.1969e-05	515.8	154.63	3.9237e-06	1.5407e-05	202.66	75.552	55.277	20.831	1.7001e-05	31.003	0.0082736	0.0096246	0.0026711	630.26	0.00010244	0.00010521	637.27	198.61	0.00010185	0.00010472	278.62	102.62	79.821	29.357	0.00010646	42.479	-103.382	142.000	-67.249	-157.480	35.081	-125.042	-158.673	-153.747	146.232	-145.822	-155.519	-151.734	-150.703	-146.353	80.327	-149.170	-8191	255	
21494.861	1	1	0	0	0.39003	0.083536	0.33748	0.10932	0.1573	0.19459	0.11236	0.35133	0.11256	0.29069	0.11672	0.21837	0.17237	0.12284	0.078189	0.26804	-2.3625	-3.2021	-2.5875	-3.2812	-3.1271	-2.4625	-3.35	-2.8375	-2.7667	-3.3042	-2.6479	-3.0354	-3.1104	-2.5479	-3.2042	-3.0125	-128.551	-8.656	185.547	108.795	-117.663	-20.717	168.396	77.376	36.036	-5.622	169.186	149.557	-116.156	-163.801	-107.450	-165.658	0.00032639	0.0014575	0.00042327	469.78	6.957e-06	1.7581e-05	515.59	156.21	7.8502e-06	1.0171e-05	201.83	75.687	55.073	21.084	2.1555e-05	30.957	0.0084945	0.0099073	0.0027218	635.31	0.00010599	0.00010807	641.5	200.66	0.00010621	0.00010976	282.36	103.82	80.784	29.681	0.00011009	43.515	-110.435	-99.327	-156.154	-158.645	-23.171	134.943	-158.832	-153.367	-7.411	-163.750	-155.929	-151.969	-150.941	-146.251	-132.595	-149.155	-8191	255	
21494.957	1	1	0	0	0.076931	0.19877	0.29432	0.12666	0.018147	0.17211	0.14334	0.14347	0.28683	0.08499	0.35437	0.2331	0.19938	0.18143	0.086257	0.13348	-2.1104	-3.2479	-2.4688	-3.1854	-3.1958	-2.5062	-3.3812	-3.05	-2.5542	-3.2896	-2.5917	-3.0333	-3.2083	-2.5229	-3.2021	-3.1083	59.756	28.622	32.470	168.674	-0.209	154.392	-40.194	98.332	125.104	-20.789	96.655	122.647	118.937	24.489	-17.149	106.569	0.00023697	0.0034923	0.00030977	470.02	1.4125e-05	6.0445e-06	514.52	154.24	1.2051e-05	1.6965e-05	202.92	76.132	55.063	20.865	1.1811e-05	31.204	0.0088773	0.010287	0.0028493	644.97	0.00011215	0.00011426	651.04	204.24	0.00011253	0.0001169	289.6	106.82	83.766	30.792	0.00012031	45.051	-100.833	0.877	-3.747	-158.000	118.467	12.885	-159.133	-153.473	-113.508	-170.687	-155.406	-151.165	-151.234	-146.438	-67.720	-148.792	-8191	255	
21495.057	1	1	0	0	0.17715	0.27473	0.23314	0.17565	0.23978	0.10278	0.15301	0.18472	0.13467	0.11753	0.16061	0.29995	0.069769	0.067517	0.010497	0.22001	-2.1688	-3.1292	-2.7125	-2.9375	-3.15	-2.55	-3.2792	-3.075	-2.5104	-3.3479	-2.7708	-2.7896	-3.4375	-2.6542	-3.1958	-3.1042	-9.286	-70.259	66.254	-2.857	1.809	-166.517	-113.935	114.983	109.897	75.903	101.709	163.402	-154.533	14.082	114.993	80.441	0.0001851	0.0013825	0.00047643	463.34	2.2546e-05	2.1098e-05	511.16	156.12	1.1913e-05	2.527e-05	202.39	76.056	54.49	20.738	2.8309e-05	31.281	0.0096455	0.011104	0.0030786	658.54	0.000118	0.0001193	655.3	205.74	0.00011382	0.00011588	286.47	105.92	82.071	30.156	0.0001131	43.652	-110.086	-85.461	40.356	-158.413	-13.766	-104.310	-158.834	-153.120	-92.577	-75.163	-155.568	-151.998	-150.477	-147.036	176.101	-148.879	-8191	255	
21495.176	1	1	0	0	0.27035	0.12032	0.15341	0.13358	0.089987	0.10304	0.15391	0.077503	0.32904	0.1327	0.16491	0.010391	0.17888	0.19843	0.1912	0.066966	-2.1375	-3.2687	-2.8083	-2.6958	-3.2188	-2.4229	-3.1208	-3.2917	-2.5125	-3.3229	-2.8771	-2.8479	-3.4583	-2.6917	-2.8292	-3.1667	184.580	115.392	38.839	-117.847	45.439	-166.898	71.714	23.658	111.287	136.147	128.531	-49.644	131.187	-162.953	180.308	168.777	0.00037953	0.00032084	0.00070118	472.17	1.9273e-05	6.0146e-06	509.12	153.25	1.2154e-05	6.5474e-06	200.3	74.803	54.577	20.71	1.6355e-05	30.772	0.008846	0.010111	0.0028165	638.07	0.00010882	0.00011169	643.73	202.33	0.0001078	0.0001104	280.51	103.67	80.906	29.659	0.00011076	43.246	-91.023	-105.913	181.541	-158.084	97.177	62.359	-158.832	-153.699	12.156	-61.771	-155.668	-152.681	-150.553	-146.697	-161.990	-148.499	-8191	255	
21495.246	1	1	0	0	0.10426	0.16829	0.092671	0.27269	0.12146	0.25072	0.1306	0.26111	0.072468	0.17185	0.18326	0.098206	0.054353	0.053668	0.1456	0.038431	-2.1875	-3.3229	-2.9292	-2.6688	-3.2375	-2.7542	-3.0208	-3.2146	-2.4854	-3.3312	-3.2104	-2.6771	-3.3583	-2.8063	-2.9562	-3.5	1.828	110.124	174.444	-163.792	160.830	-65.784	-23.757	125.064	148.485	161.488	-154.751	54.337	81.502	34.977	126.517	-60.379	0.00015121	0.0023362	0.00044373	461.7	2.5367e-05	7.0637e-06	505.8	154.64	1.8084e-05	7.5731e-06	200.04	74.878	54.292	20.662	6.3506e-06	30.881	0.0087883	0.010153	0.0028516	636.89	0.00010943	0.00011167	640.49	202.49	0.00010994	0.000114	285.33	105.48	82.826	30.458	0.00012002	44.413	-99.344	-65.020	157.296	-158.397	-48.446	98.434	-158.590	-153.936	18.151	170.219	-155.419	-152.316	-150.467	-146.620	89.682	-148.675	-8191	255	
21495.344	1	1	0	0	0.053327	0.18043	0.054883	0.10486	0.01881	0.086971	0.26722	0.21699	0.21488	0.15288	0.31318	0.11379	0.20211	0.13478	0.16577	0.14977	-2.3208	-3.1562	-2.9562	-2.5667	-3.1896	-3.0271	-2.5833	-3.5396	-2.6042	-3.1125	-3.3187	-2.6562	-3.3063	-2.9208	-2.8	-3.3438	-112.958	-25.921	81.602	-144.599	-45.655	118.935	93.676	-70.139	45.052	30.604	140.142	45.924	-145.017	55.905	-28.601	-164.146	0.0004707	0.0023052	0.00078559	457.79	8.7696e-06	1.7919e-05	505.23	152.92	1.3429e-05	8.9427e-06	196.45	74.484	54.004	20.615	1.7935e-05	30.137	0.0095805	0.011197	0.0031274	653.76	0.00011751	0.00012026	651.71	204.53	0.00011399	0.00011725	286.73	105.6	83.516	30.837	0.00012626	44.862	-108.221	-93.569	-65.376	-158.106	-112.986	-135.519	-158.328	-153.498	-98.220	-96.438	-155.634	-151.806	-151.497	-146.326	-60.953	-148.081	-8191	255	
21495.465	1	1	0	0	0.087317	0.26459	0.10487	0.071504	0.1207	0.093941	0.12491	0.20815	0.057993	0.077729	0.1676	0.14897	0.24716	0.15788	0.088489	0.013889	-2.1833	-2.9583	-3.1688	-2.5208	-3.1437	-2.7938	-2.5396	-3.5167	-2.6063	-2.9958	-3.2062	-2.625	-3.2792	-2.9167	-2.625	-3.3917	40.988	-127.489	60.001	-155.155	-52.291	11.549	134.202	144.851	161.726	-120.993	-40.824	33.589	131.867	-121.534	47.275	-133.569	0.00024937	0.00071545	0.00090534	455.87	6.1219e-06	2.274e-05	498.59	153.21	1.8932e-05	2.4732e-05	196.97	74.182	54.847	20.231	2.2576e-06	30.49	0.010179	0.012099	0.0034062	677.67	0.00013246	0.00013482	671.58	213.16	0.00013047	0.00013594	300.65	110.2	87.064	31.525	0.00013304	45.605	-63.415	-145.416	-29.090	-157.656	118.810	187.344	-158.157	-153.170	-91.885	22.614	-155.005	-151.790	-150.671	-145.831	96.999	-148.132	-8191	255	
21495.561	1	1	0	0	0.31221	0.11349	0.1345	0.18996	0.11386	0.20068	0.1384	0.14185	0.14449	0.083324	0.22825	0.067359	0.14379	0.13096	0.056743	0.24616	-2.2479	-2.7292	-3.2938	-2.5083	-3.2	-3.0229	-2.4979	-3.3271	-2.7729	-2.8208	-3.3312	-2.5667	-3.1354	-3.2229	-2.6917	-3.3375	-167.536	-165.645	120.452	164.173	153.412	-148.234	-108.657	124.160	-74.953	5.584	31.990	0.001	108.915	-62.687	13.717	118.659	0.0004105	0.0007882	2.1112e-05	455.2	7.5408e-06	1.3407e-05	498.89	150.61	1.4327e-05	2.2597e-05	196.5	73.949	54.391	20.128	4.12e-05	30.047	0.01036	0.012102	0.0033512	670.22	0.00012991	0.00013304	670.5	212.63	0.00013374	0.00014048	306.16	112.89	90.227	32.805	0.00014678	47.368	186.894	-38.384	-16.014	-158.093	7.935	-70.560	-158.926	-153.450	46.480	-2.684	-154.862	-151.447	-150.690	-146.721	-52.725	-148.669	-8191	255	
21495.656	1	1	0	0	0.055809	0.20914	0.24081	0.11792	0.21466	0.072884	0.23362	0.13867	0.16304	0.24237	0.35089	0.14045	0.37786	0.17075	0.2044	0.2384	-2.3458	-2.5479	-3.3312	-2.5625	-3.0875	-3.1854	-2.725	-3.4021	-2.9083	-2.7188	-3.3083	-2.7625	-3.0917	-3.2625	-2.5521	-3.2458	25.234	44.443	159.181	120.020	117.996	-72.859	103.467	87.613	35.991	147.971	120.556	182.242	-112.005	148.098	-58.762	-121.530	0.0006229	0.0010623	0.00074036	455.87	1.2292e-05	2.0146e-05	499.2	150.07	1.4123e-05	2.4537e-05	194.59	73.532	53.67	20.006	7.6742e-06	30.063	0.011574	0.013397	0.0036894	692.23	0.00014032	0.00014215	679.52	215.26	0.00013852	0.00014399	305.8	112.61	89.11	32.476	0.00014197	46.761	-115.540	28.267	109.524	-158.046	6.373	-25.806	-158.519	-153.438	26.620	59.064	-156.207	-151.770	-151.005	-146.035	-100.020	-148.467	-8191	255	
21495.777	1	1	0	0	0.13569	0.055218	0.01811	0.12938	0.24937	0.14085	0.072131	0.18199	0.11654	0.17863	0.17808	0.069579	0.27606	0.11526	0.11827	0.30335	-2.4354	-2.5	-3.2646	-2.7062	-2.8104	-3.3292	-2.5854	-3.3125	-2.9146	-2.5938	-3.4938	-2.9313	-3.0417	-3.4917	-2.4333	-3.2104	109.171	84.172	11.988	-161.383	-105.801	173.816	-100.553	-149.916	-80.782	79.778	-32.176	171.773	-168.994	97.650	-18.409	163.704	0.00025045	0.00069938	0.00053579	455.71	3.3603e-05	4.5859e-05	505.54	151.9	1.0813e-05	2.8643e-05	197	74.263	54.204	20.453	3.378e-05	30.345	0.011068	0.012827	0.0035738	681.78	0.00013655	0.00013965	676.77	215.55	0.00013763	0.00014219	306.81	112.6	89.736	32.769	0.00014331	47.151	-72.463	177.321	-121.185	-157.849	114.945	62.294	-158.953	-153.219	-87.492	-142.120	-154.803	-151.731	-151.243	-146.011	-129.390	-148.608	-8191	255	
21495.873	1	1	0	0	0.09075	0.11253	0.25878	0.098734	0.19157	0.077013	0.24198	0.28969	0.11848	0.0411	0.1273	0.18984	0.18214	0.34405	0.13587	0.17917	-2.5958	-2.4646	-3.3333	-2.8187	-2.7625	-3.2938	-2.6688	-3.0375	-3.1708	-2.7021	-3.3292	-3.1021	-2.6896	-3.4062	-2.6292	-2.975	-124.316	-23.806	-75.516	68.525	-14.951	46.662	-47.984	-138.055	-30.525	-18.622	-88.147	134.642	117.813	160.348	-158.229	145.363	0.00027553	0.001779	0.00056054	457.15	8.9677e-06	3.0908e-05	498.16	153.61	1.9405e-05	1.3896e-05	198.59	74.059	54.895	20.604	1.8805e-05	30.92	0.011312	0.013084	0.003641	691.81	0.00014092	0.00014279	682.65	218.16	0.0001381	0.0001422	307.31	112.36	88.917	32.292	0.00013604	46.555	-56.651	-2.840	-85.491	-157.647	-69.182	-1.833	-159.162	-153.616	34.928	-62.259	-155.499	-152.300	-150.427	-146.293	57.647	-148.601	-8191	255	
21495.943	1	1	0	0	0.11526	0.052893	0.13298	0.056477	0.22009	0.073019	0.17311	0.13888	0.13235	0.070193	0.11936	0.053903	0.083927	0.020931	0.33676	0.20375	-2.7667	-2.4625	-3.375	-3.0687	-2.5667	-3.4229	-2.8187	-2.9021	-3.2021	-2.6792	-3.4167	-3.2042	-2.8229	-3.3042	-2.7583	-2.8812	-79.453	-74.342	-49.113	135.449	179.535	179.420	126.090	124.232	21.845	-101.275	157.400	-144.425	108.726	19.934	42.047	-139.050	0.00021205	0.0010334	0.00043541	456.07	3.6049e-06	5.4673e-05	500.96	153.66	1.0191e-05	2.7529e-05	201.04	75.589	54.899	20.528	1.3046e-05	31.033	0.010691	0.012189	0.0033859	673.01	0.0001321	0.00013336	667.55	213.9	0.00013202	0.00013603	304.63	111.35	88.308	32.249	0.00013669	46.7	-40.400	50.742	-131.570	-158.454	-75.525	-109.987	-159.055	-153.301	134.765	-165.930	-155.616	-152.084	-150.758	-146.175	12.072	-148.658	-8191	255	
21496.062	1	1	0	0	0.23076	0.10061	0.057276	0.19313	0.14888	0.11149	0.099447	0.19035	0.12666	0.29703	0.066409	0.12549	0.080835	0.11798	0.12622	0.094761	-2.8979	-2.6479	-3.0396	-2.9521	-2.3396	-3.2938	-2.8771	-2.9604	-3.3167	-2.6333	-3.1792	-3.3354	-2.5542	-3.5875	-2.8104	-2.8521	181.257	-39.655	16.724	-130.503	-107.420	-73.201	136.914	85.569	-128.380	-49.881	-11.282	-128.574	166.249	-46.491	-58.672	119.050	0.00041633	0.0012828	0.00067999	456.28	6.4091e-06	2.5236e-05	494.83	151.49	2.6661e-05	1.3316e-05	195.77	73.655	53.694	20.126	1.1798e-05	30.093	0.010927	0.012642	0.0035177	682.3	0.00013594	0.00013876	675.75	215.06	0.00013638	0.00014089	306.46	112.16	89.405	32.522	0.00014387	47.085	-114.041	115.788	23.351	-158.311	105.813	-50.240	-159.082	-153.382	-87.691	-76.729	-155.903	-152.160	-151.223	-146.910	-57.831	-148.819	-8191	255	
#DATA ENDS
