BOXY.EXE: ISS Imagent and Oximeter Data Acquisition Program Version 0.80
Ascii Record File

#ACQ INFORMATION
2  Detector Channels 
16  External MUX Channels 
1  Auxiliary Channels 
5000  Waveform (CCF) Frequency (Hz)
1  Waveforms Skipped 
30  Waveforms Averaged 
1  Cycles Averaged 
16  Acquisitions per Waveform 
10.0806  Updata Rate (Hz) 

#FILE INFORMATION
TRUE -- External MUX Channel results are PARSED.
FALSE -- AC DC and Phase are NOT grouped.
TRUE -- Companion Program Settings File CREATED.
FALSE -- AC data not excluded
FALSE -- DC data not excluded
FALSE -- Phase data not excluded
FALSE -- Auxillary Chn. data not excluded
Tab delimiters

#CALIBRATION STATE
TRUE -- Waveform Calibration Values APPLIED.


#AUX CALIBRATION VALUES
Val Type	aux-1	

Term	1.0000e+00	
Factor	0.0000e+00	


#WF CALIBRATION VALUES
A = Detector Channel
Val Type	A-AC1	A-AC2	A-AC3	A-AC4	A-AC5	A-AC6	A-AC7	A-AC8	A-AC9	A-AC10	A-AC11	A-AC12	A-AC13	A-AC14	A-AC15	A-AC16	A-DC1	A-DC2	A-DC3	A-DC4	A-DC5	A-DC6	A-DC7	A-DC8	A-DC9	A-DC10	A-DC11	A-DC12	A-DC13	A-DC14	A-DC15	A-DC16	A-Ph1	A-Ph2	A-Ph3	A-Ph4	A-Ph5	A-Ph6	A-Ph7	A-Ph8	A-Ph9	A-Ph10	A-Ph11	A-Ph12	A-Ph13	A-Ph14	A-Ph15	A-Ph16	

Term	0.00000e+00	0.00000e+00	0.00000e+00	0.00000e+00	0.00000e+00	0.00000e+00	0.00000e+00	0.00000e+00	0.00000e+00	0.00000e+00	0.00000e+00	0.00000e+00	0.00000e+00	0.00000e+00	0.00000e+00	0.00000e+00	0.00000e+00	0.00000e+00	0.00000e+00	0.00000e+00	0.00000e+00	0.00000e+00	0.00000e+00	0.00000e+00	0.00000e+00	0.00000e+00	0.00000e+00	0.00000e+00	0.00000e+00	0.00000e+00	0.00000e+00	0.00000e+00	0.00000e+00	0.00000e+00	0.00000e+00	0.00000e+00	0.00000e+00	0.00000e+00	0.00000e+00	0.00000e+00	0.00000e+00	0.00000e+00	0.00000e+00	0.00000e+00	0.00000e+00	0.00000e+00	0.00000e+00	0.00000e+00	
Factor	1.00000e+00	1.00000e+00	1.00000e+00	1.00000e+00	1.00000e+00	1.00000e+00	1.00000e+00	1.00000e+00	1.00000e+00	1.00000e+00	1.00000e+00	1.00000e+00	1.00000e+00	1.00000e+00	1.00000e+00	1.00000e+00	1.00000e+00	1.00000e+00	1.00000e+00	1.00000e+00	1.00000e+00	1.00000e+00	1.00000e+00	1.00000e+00	1.00000e+00	1.00000e+00	1.00000e+00	1.00000e+00	1.00000e+00	1.00000e+00	1.00000e+00	1.00000e+00	X	X	X	X	X	X	X	X	X	X	X	X	X	X	X	X	

B = Detector Channel
Val Type	B-AC1	B-AC2	B-AC3	B-AC4	B-AC5	B-AC6	B-AC7	B-AC8	B-AC9	B-AC10	B-AC11	B-AC12	B-AC13	B-AC14	B-AC15	B-AC16	B-DC1	B-DC2	B-DC3	B-DC4	B-DC5	B-DC6	B-DC7	B-DC8	B-DC9	B-DC10	B-DC11	B-DC12	B-DC13	B-DC14	B-DC15	B-DC16	B-Ph1	B-Ph2	B-Ph3	B-Ph4	B-Ph5	B-Ph6	B-Ph7	B-Ph8	B-Ph9	B-Ph10	B-Ph11	B-Ph12	B-Ph13	B-Ph14	B-Ph15	B-Ph16	

Term	0.00000e+00	0.00000e+00	0.00000e+00	0.00000e+00	0.00000e+00	0.00000e+00	0.00000e+00	0.00000e+00	0.00000e+00	0.00000e+00	0.00000e+00	0.00000e+00	0.00000e+00	0.00000e+00	0.00000e+00	0.00000e+00	0.00000e+00	0.00000e+00	0.00000e+00	0.00000e+00	0.00000e+00	0.00000e+00	0.00000e+00	0.00000e+00	0.00000e+00	0.00000e+00	0.00000e+00	0.00000e+00	0.00000e+00	0.00000e+00	0.00000e+00	0.00000e+00	-1.18665e+02	-1.43103e+02	-1.31458e+02	-1.83497e+02	-5.54734e+01	-7.70765e+01	-1.55340e+02	-1.62015e+02	-5.71864e+01	-6.23776e+01	-1.71006e+02	-1.70504e+02	-1.79973e+02	-1.76425e+02	-7.82450e+01	-1.49762e+02	
Factor	1.93118e-05	1.61628e-04	4.26647e-05	2.20701e-01	1.28616e-06	1.56004e-06	1.72996e-01	5.74726e-02	1.10787e-06	1.53154e-06	9.82376e-02	3.28947e-02	5.70057e-02	1.04581e-02	1.48207e-06	1.47673e-02	1.71346e-06	1.81190e-06	5.03972e-07	1.10140e-01	1.97318e-08	1.98080e-08	8.23502e-02	2.89539e-02	1.96931e-08	1.98287e-08	4.75880e-02	1.60157e-02	2.79623e-02	5.24248e-03	1.96653e-08	7.15294e-03	X	X	X	X	X	X	X	X	X	X	X	X	X	X	X	X	



#DISTANCE SETTINGS
A = Detector Channel
A-1	A-2	A-3	A-4	A-5	A-6	A-7	A-8	A-9	A-10	A-11	A-12	A-13	A-14	A-15	A-16	

2.5000e+00	3.0000e+00	2.5000e+00	3.0000e+00	2.0000e+00	3.0000e+00	1.5000e+00	3.0000e+00	3.0000e+00	3.0000e+00	3.0000e+00	3.0000e+00	3.0000e+00	3.0000e+00	1.5000e+00	3.0000e+00	

B = Detector Channel
B-1	B-2	B-3	B-4	B-5	B-6	B-7	B-8	B-9	B-10	B-11	B-12	B-13	B-14	B-15	B-16	

1.0000e+01	1.0000e+01	1.0000e+01	1.4400e+00	1.0000e+01	1.0000e+01	1.5100e+00	1.9400e+00	1.0000e+01	1.0000e+01	1.9900e+00	2.4900e+00	2.4100e+00	2.9000e+00	1.0000e+01	2.9800e+00	




#DATA BEGINS
time	group	step	mark	flag	A-AC1	A-AC2	A-AC3	A-AC4	A-AC5	A-AC6	A-AC7	A-AC8	A-AC9	A-AC10	A-AC11	A-AC12	A-AC13	A-AC14	A-AC15	A-AC16	A-DC1	A-DC2	A-DC3	A-DC4	A-DC5	A-DC6	A-DC7	A-DC8	A-DC9	A-DC10	A-DC11	A-DC12	A-DC13	A-DC14	A-DC15	A-DC16	A-Ph1	A-Ph2	A-Ph3	A-Ph4	A-Ph5	A-Ph6	A-Ph7	A-Ph8	A-Ph9	A-Ph10	A-Ph11	A-Ph12	A-Ph13	A-Ph14	A-Ph15	A-Ph16	B-AC1	B-AC2	B-AC3	B-AC4	B-AC5	B-AC6	B-AC7	B-AC8	B-AC9	B-AC10	B-AC11	B-AC12	B-AC13	B-AC14	B-AC15	B-AC16	B-DC1	B-DC2	B-DC3	B-DC4	B-DC5	B-DC6	B-DC7	B-DC8	B-DC9	B-DC10	B-DC11	B-DC12	B-DC13	B-DC14	B-DC15	B-DC16	B-Ph1	B-Ph2	B-Ph3	B-Ph4	B-Ph5	B-Ph6	B-Ph7	B-Ph8	B-Ph9	B-Ph10	B-Ph11	B-Ph12	B-Ph13	B-Ph14	B-Ph15	B-Ph16	aux-1	digaux	

11725.617	1	1	0	768	0.20641	0.10895	0.017079	0.13134	0.26749	0.11854	0.38626	0.22964	0.17536	0.15446	0.22812	0.35806	0.081242	0.1935	0.12029	0.30725	-2.6688	-3.5833	-3.3083	-2.9708	-3.8063	-3.2417	-3.325	-3.6646	-3.1458	-3.5792	-3.6354	-3.0187	-3.7458	-3.35	-3.0875	-3.7417	158.442	268.015	33.998	140.908	268.089	50.347	234.232	246.306	222.940	100.323	107.768	279.804	204.157	131.749	-48.596	149.910	0.00030529	0.0039978	0.00077658	507.14	5.6035e-06	3.9556e-05	807.53	188.53	6.0459e-06	6.4251e-05	318.35	129.86	66.881	26.786	3.6809e-05	59.844	0.022188	0.023515	0.0064847	1870.1	0.00025539	0.00025675	1795.2	542.42	0.0002547	0.00025699	899.87	324.69	423.03	92.08	0.0002552	147.24	185.979	268.304	22.147	-65.057	-58.649	9.284	-65.960	-62.114	-17.936	-18.248	-63.688	-59.819	-58.338	-55.510	232.398	-56.310	-8191	255	
11725.713	1	1	0	0	0.1344	0.14533	0.17391	0.015375	0.15804	0.10424	0.045959	0.36954	0.31379	0.10554	0.04736	0.26781	0.19401	0.053509	0.1802	0.22512	-2.6271	-3.4437	-3.7396	-3.0479	-3.7313	-3.2729	-3.1604	-3.9188	-2.8937	-3.4708	-3.7021	-3.0854	-3.6771	-3.3792	-2.9917	-3.8833	178.933	-5.358	-13.335	110.621	-60.168	10.087	98.939	172.057	244.454	-0.282	163.056	-74.094	-40.335	235.836	258.567	190.479	9.6683e-05	0.0050025	0.0010133	500.39	2.3421e-05	4.5739e-05	810.92	188.07	4.2891e-05	1.1039e-05	316.03	128.14	65.105	26.052	5.427e-05	59.814	0.022415	0.023672	0.0065336	1896.1	0.00025885	0.00025901	1814	551.7	0.0002584	0.00025969	903.44	326.8	426.58	92.027	0.00025655	147.78	-7.006	65.699	229.068	-65.320	132.358	211.755	-66.493	-61.626	150.466	-78.694	-63.909	-60.135	-59.239	-55.156	259.629	-57.074	-8191	255	
11725.810	1	1	0	0	0.072793	0.085449	0.095393	0.18457	0.1289	0.133	0.35495	0.36028	0.13366	0.25214	0.11686	0.1398	0.057509	0.12581	0.15117	0.080406	-2.8229	-3.4188	-3.4854	-2.9458	-3.6063	-3.4458	-2.9854	-3.7896	-3.2521	-3.4083	-3.8688	-3.0208	-3.625	-3.5708	-3.0958	-3.9146	255.301	154.781	197.815	171.607	-6.753	159.744	223.652	253.624	103.475	185.933	261.107	72.250	23.644	138.125	-51.004	193.944	0.00047403	0.0078854	0.0015236	502.43	2.8863e-05	1.0056e-05	798.46	186.05	3.2083e-05	4.1214e-05	320.3	127.07	65.212	26.227	6.1556e-05	59.747	0.022592	0.023794	0.006572	1902.8	0.00026007	0.00026004	1808.6	550.21	0.00025918	0.00025911	903.89	325.44	424.35	91.445	0.00025457	146.78	103.684	-39.516	277.501	-65.713	-39.809	194.114	-66.790	-61.882	79.446	59.846	-63.994	-59.977	-58.272	-55.825	102.416	-56.674	-8191	255	
11725.906	1	1	0	0	0.21767	0.15557	0.1295	0.32605	0.15487	0.15817	0.08013	0.12605	0.069151	0.26043	0.21606	0.28462	0.17879	0.13579	0.37329	0.16485	-2.9167	-3.125	-3.6479	-3.025	-3.425	-3.5146	-3.1188	-3.8396	-3.3708	-3.2083	-3.8646	-3.1	-3.4688	-3.7062	-3.1646	-3.7146	168.531	275.306	50.693	275.047	86.955	52.388	79.697	-67.627	228.707	272.290	187.482	75.302	157.778	-41.373	268.777	242.769	0.00068477	0.0035933	0.00048579	502.75	4.404e-05	8.0009e-06	802.87	188.46	2.6488e-05	3.3452e-05	315.98	130.59	66.037	25.891	3.536e-05	59.645	0.02235	0.023417	0.0065329	1882.6	0.00025565	0.00025482	1794.4	544.34	0.00025373	0.00025423	895.4	323.97	418.66	90.202	0.00025229	145.61	-62.589	-5.184	104.357	-65.599	139.832	-60.746	-66.315	-61.896	-41.436	41.591	-63.333	-60.360	-59.308	-54.752	253.519	-57.106	-8191	255	
11726.002	1	1	0	0	0.11628	0.14243	0.053381	0.16072	0.090077	0.094145	0.28585	0.20272	0.20129	0.18362	0.10479	0.11689	0.22326	0.081765	0.23848	0.032978	-2.9479	-3.1271	-3.7646	-3.0875	-3.3417	-3.6854	-3.2854	-3.7542	-3.2771	-3.2625	-3.9813	-3.2792	-3.2562	-3.6937	-3.1	-3.7146	-61.116	152.609	92.475	238.296	216.759	81.637	199.411	-60.567	141.793	228.817	159.809	279.375	108.415	270.116	86.853	-53.419	0.00099521	0.0047107	0.0020059	506.99	3.084e-05	3.8683e-05	808.9	187.06	3.6616e-05	3.5024e-05	319.48	130.05	67.391	25.949	4.3836e-05	60.025	0.022013	0.023162	0.0064731	1875	0.00025297	0.0002518	1793.4	541.86	0.00025117	0.00025218	895.1	323.03	415.13	89.722	0.0002511	145.25	238.393	161.847	-46.906	-65.316	61.337	174.286	-66.283	-61.696	96.463	19.090	-63.488	-59.491	-58.019	-54.829	71.923	-56.859	-8191	255	
11726.098	1	1	0	0	0.19553	0.27709	0.1422	0.088895	0.18744	0.15625	0.31427	0.19095	0.11266	0.23108	0.18847	0.1681	0.067556	0.17312	0.24187	0.20523	-3.15	-2.9604	-3.8167	-3.1542	-3.3792	-3.825	-3.2438	-3.6729	-3.5542	-3.1167	-3.8646	-3.2896	-3.2208	-3.7625	-3.2062	-3.6896	66.092	234.307	212.952	76.730	158.781	187.480	240.243	210.756	239.444	64.362	-43.278	279.033	261.650	161.329	33.008	175.362	0.00023735	0.00046489	0.0015196	505.43	1.6465e-05	7.0569e-05	802.73	187.12	3.9675e-05	2.6961e-05	314.82	127.79	68.748	25.501	3.8932e-06	58.604	0.021769	0.023013	0.0064477	1864.4	0.00025104	0.00025069	1784.8	538.06	0.00024749	0.00025086	887.12	319.99	411.36	89.576	0.00025267	145.58	16.392	-55.712	110.762	-65.665	52.592	136.683	-66.366	-61.647	-54.546	225.920	-63.669	-60.013	-59.730	-55.739	238.870	-56.866	-8191	255	
11726.217	1	1	0	0	0.28361	0.070763	0.10288	0.20174	0.15698	0.10704	0.22733	0.38603	0.289	0.11564	0.367	0.16441	0.20671	0.17734	0.18425	0.076212	-3.15	-2.9833	-3.9167	-3.3583	-3.2542	-3.8854	-3.2562	-3.4771	-3.7583	-3.0229	-3.7812	-3.4979	-3.0833	-3.7542	-3.175	-3.4313	143.010	245.958	-60.108	162.443	132.374	138.920	182.165	251.815	173.199	214.226	240.004	132.750	233.533	142.003	100.865	224.685	0.00082788	0.0072457	0.0009325	501.16	4.8154e-05	3.556e-05	800.79	188.75	7.9197e-06	3.7344e-05	316.7	128.8	66.655	25.811	5.0095e-05	60.032	0.021939	0.02327	0.0065106	1876.4	0.00025329	0.00025509	1801.7	545.93	0.00025337	0.00025614	901.29	323.07	417.82	90.761	0.00025585	146.42	13.617	93.919	195.469	-65.224	62.355	275.190	-66.615	-61.319	68.314	1.107	-63.554	-60.168	-58.781	-54.988	1.620	-57.096	-8191	255	
11726.313	1	1	0	0	0.22812	0.18193	0.13032	0.25006	0.1446	0.44137	0.17714	0.14295	0.018324	0.21838	0.13768	0.092597	0.14527	0.23935	0.19012	0.21665	-3.3833	-3.0729	-3.6979	-3.5521	-3.1813	-3.7958	-3.3729	-3.3292	-3.9042	-3.0104	-3.6583	-3.6562	-3.0375	-3.7396	-3.1688	-3.3208	221.161	241.683	148.682	201.237	267.906	225.665	112.874	213.112	30.500	-16.810	-64.327	268.914	108.388	226.997	26.394	279.725	0.00035309	0.0025504	0.0014022	509.65	2.688e-05	5.3095e-06	802.6	190.91	3.1453e-05	5.0966e-05	318.98	129.86	67.696	26.199	3.9405e-05	59.994	0.02213	0.023537	0.0065843	1886.5	0.00025413	0.00025751	1810.9	546.9	0.00025516	0.00025889	908.52	324.94	419.8	91.509	0.00025572	146	131.436	225.403	131.420	-66.298	-51.691	42.322	-66.829	-62.002	148.107	90.223	-62.930	-60.642	-58.936	-55.644	25.258	-56.250	-8191	255	
11726.409	1	1	0	0	0.11481	0.15642	0.15972	0.067977	0.20736	0.25314	0.34631	0.071915	0.10933	0.2778	0.22842	0.2732	0.21586	0.13749	0.083573	0.14691	-3.25	-2.925	-3.3708	-3.375	-2.9208	-3.7875	-3.3625	-3.1625	-3.6771	-3	-3.5583	-3.6583	-2.9813	-3.7458	-3.3792	-3.1229	151.159	159.403	141.902	263.787	-30.880	74.196	219.527	-74.018	26.034	264.882	191.031	109.009	266.154	172.267	266.767	242.131	0.00029466	0.0026834	0.0012898	503.43	1.9211e-05	4.3774e-06	809.86	191.27	2.3062e-05	3.0565e-05	315.24	130.07	64.249	25.502	3.9726e-05	59.579	0.02205	0.023487	0.0065269	1870.6	0.0002525	0.0002553	1795.5	540.52	0.00025186	0.00025564	899.04	320.91	415.54	90.665	0.00025127	144.51	201.719	95.355	239.699	-65.287	128.206	-24.180	-66.194	-62.502	247.046	123.948	-63.574	-60.087	-58.731	-54.668	12.093	-56.579	-8191	255	
11726.505	1	1	0	0	0.2092	0.36994	0.015847	0.11993	0.23228	0.1313	0.22379	0.12155	0.24095	0.37347	0.4572	0.27514	0.27954	0.14878	0.016079	0.22354	-3.5479	-3.0708	-3.3667	-3.4583	-3.0021	-3.5917	-3.5333	-2.95	-3.6854	-3.0083	-3.2938	-3.6333	-3.0312	-3.4208	-3.3	-3.1437	189.423	74.306	25.985	-55.691	151.580	-35.299	191.267	161.314	203.016	122.452	225.895	212.409	95.073	-66.796	-42.367	208.349	0.00040959	0.0053946	0.00077405	507.96	3.0399e-05	4.1641e-05	806.56	187.5	3.1712e-05	1.8426e-05	321.39	129	67.09	26.101	6.7588e-05	59.784	0.021832	0.023206	0.0064383	1851.2	0.00025163	0.00025458	1782.8	537.39	0.0002512	0.00025427	891.26	319.11	413.87	90.124	0.00024893	144.12	98.926	130.027	68.740	-65.366	169.963	278.550	-66.241	-61.757	236.062	242.496	-63.056	-59.562	-59.032	-55.427	43.396	-56.480	-8191	255	
11726.602	1	1	0	0	0.24034	0.22843	0.15253	0.046813	0.23114	0.12113	0.05473	0.24063	0.18343	0.067016	0.12049	0.19376	0.25402	0.15394	0.14601	0.2758	-3.3125	-3.2833	-3.2	-3.5729	-2.9417	-3.5625	-3.5167	-2.9417	-3.5542	-3.1437	-3.2167	-3.7292	-3.0083	-3.6562	-3.5438	-3.15	-47.819	-52.305	-78.254	163.104	53.597	135.652	-19.991	210.670	245.666	176.510	79.694	177.767	50.263	196.664	268.926	249.982	0.00015526	0.0059781	0.0014556	505.21	4.7194e-05	3.4544e-05	801.73	187.47	5.2691e-05	6.0944e-05	317.84	129.94	67.482	25.426	3.3413e-05	59.325	0.021839	0.023244	0.0064289	1857.2	0.00025278	0.00025499	1787.1	539.58	0.00025479	0.0002568	897.48	322.6	421.88	91.378	0.00025389	146.07	194.206	246.847	29.478	-64.536	8.789	64.089	-65.742	-62.527	164.277	174.763	-63.402	-59.550	-59.648	-53.486	268.645	-56.500	-8191	255	
11726.698	1	1	0	0	0.082899	0.14727	0.31741	0.27533	0.10083	0.13535	0.1824	0.15081	0.10021	0.06741	0.25861	0.18687	0.2449	0.13298	0.0019155	0.22737	-3.3167	-3.2562	-3.075	-3.7229	-2.8771	-3.4208	-3.6604	-3.0792	-3.6958	-3.4708	-3.2188	-3.6854	-3.2104	-3.3396	-3.7292	-3.1604	56.446	-65.948	162.977	241.861	-24.599	181.787	220.556	147.244	-62.664	61.805	138.064	164.107	184.719	217.538	180.000	201.184	0.0006346	0.002439	0.0010751	504.7	5.4846e-05	4.3952e-05	813.56	188.11	1.4163e-05	3.1931e-05	324.55	131.15	65.864	26.015	6.1102e-05	60.28	0.022378	0.023652	0.0065204	1885.6	0.00025833	0.00025903	1808.5	548.97	0.00025952	0.00026097	908.53	327.89	428.05	92.223	0.0002566	148.06	177.178	276.112	262.238	-65.469	50.811	67.820	-66.016	-61.747	38.226	47.576	-63.438	-59.177	-58.377	-53.989	185.437	-56.539	-8191	255	
11726.818	1	1	0	0	0.038022	0.15933	0.09478	0.10637	0.18507	0.21302	0.17536	0.14193	0.24142	0.047234	0.1029	0.024713	0.036134	0.13949	0.16743	0.19382	-3.2812	-3.3479	-3.0479	-3.8271	-3.0875	-3.2771	-3.7062	-2.9813	-3.6208	-3.4208	-3.0646	-3.8229	-3.0896	-3.2229	-3.6708	-2.9375	97.869	169.791	-51.065	30.061	44.464	-25.320	188.576	-35.746	175.775	144.148	266.028	232.751	206.719	17.520	13.795	118.639	0.00044042	0.004648	0.00059801	509.5	8.6294e-06	2.295e-05	802.46	187.82	1.5879e-05	2.9826e-05	318.68	128.9	65.051	25.881	3.49e-05	59.25	0.022735	0.023875	0.0066003	1906.3	0.00026088	0.0002603	1815	552.62	0.00026107	0.00026074	908.65	327.7	425.6	91.653	0.00025498	147.19	31.827	208.833	24.425	-65.061	94.337	22.972	-65.912	-61.390	230.055	107.017	-62.795	-60.359	-60.662	-55.092	84.073	-56.821	-8191	255	
11726.914	1	1	0	0	0.28087	0.21256	0.045805	0.1425	0.23568	0.11251	0.27122	0.32533	0.081143	0.25879	0.31724	0.09803	0.054212	0.040076	0.19985	0.39906	-3.0083	-3.7062	-3.0208	-3.7542	-3.2521	-3.1667	-3.8229	-2.9979	-3.4521	-3.5958	-3.15	-3.7188	-3.4	-3.1229	-3.8125	-3.2271	17.104	-21.063	82.073	232.611	29.628	258.612	208.532	259.231	205.067	112.058	-23.501	133.909	64.674	-70.118	-55.500	199.026	0.00047565	0.0056115	0.00048722	497.13	1.7973e-05	4.3066e-05	804.37	188.84	2.0295e-05	6.8346e-05	319.69	128.74	67.062	25.912	3.3604e-05	59.952	0.022356	0.023436	0.0065264	1888.4	0.00025669	0.00025579	1797.8	546.5	0.00025506	0.00025503	897.47	325.11	419.4	90.4	0.00025259	146.28	247.369	-48.563	179.791	-65.474	-30.194	80.693	-66.892	-61.532	79.762	-22.969	-63.877	-59.585	-59.439	-55.340	49.751	-57.441	-8191	255	
11727.011	1	1	0	0	0.039754	0.10627	0.14693	0.2037	0.22008	0.17501	0.047367	0.26076	0.072676	0.19399	0.1975	0.070046	0.041228	0.18348	0.1237	0.11598	-2.9229	-3.6	-2.8542	-3.6042	-3.3083	-3.2021	-3.8312	-3.2396	-3.3312	-3.6229	-3.175	-3.7208	-3.5604	-3.1208	-3.7667	-3.2417	248.452	200.783	-46.164	260.402	240.409	202.143	275.712	248.752	187.160	190.191	271.266	202.669	-40.458	-31.434	164.694	193.262	0.00015058	0.0017251	0.00028303	506.15	1.7603e-05	7.5215e-05	813.23	186.67	1.8844e-05	4.3578e-05	320.35	129.54	66.33	26.276	1.0187e-05	60.194	0.022048	0.023152	0.0064648	1875.9	0.0002526	0.00025331	1796.1	544.45	0.00025209	0.00025302	897.84	324.99	416.34	90.346	0.00025307	146.4	-4.197	-54.287	137.064	-65.606	225.271	216.171	-67.255	-62.879	42.931	63.080	-63.499	-60.364	-57.427	-54.845	-70.250	-57.063	-8191	255	
11727.105	1	1	0	0	0.10122	0.16009	0.14513	0.1965	0.093295	0.15688	0.050669	0.14834	0.027067	0.11942	0.21348	0.11787	0.15261	0.20324	0.083032	0.22189	-2.9646	-3.7313	-2.8708	-3.3875	-3.5667	-3.0333	-3.6813	-3.3187	-3.2104	-3.8333	-3.0125	-3.5333	-3.475	-3.0479	-3.6312	-3.3771	-62.349	-64.046	-5.575	110.676	133.980	-77.296	262.101	145.898	12.348	4.310	86.298	166.137	248.328	174.012	87.349	2.767	0.0005462	0.0048487	0.00076909	510.77	3.4811e-05	6.2431e-05	822.03	189.07	6.8128e-05	1.9348e-05	325.19	130.38	67.413	25.908	2.1191e-05	60.712	0.02199	0.023116	0.0064897	1879.4	0.0002531	0.00025476	1812	547.74	0.00025426	0.00025711	911.98	327.19	420.34	91.662	0.00025708	147.78	264.130	18.954	217.292	-67.401	160.846	69.970	-66.274	-62.096	11.072	220.708	-63.261	-60.155	-58.749	-55.067	-19.326	-56.513	-8191	255	
11727.201	1	1	0	0	0.023528	0.19925	0.092148	0.06748	0.070749	0.094414	0.10292	0.2222	0.17998	0.048118	0.094327	0.2014	0.10856	0.22136	0.14237	0.10687	-2.6646	-3.7458	-2.8812	-3.3771	-3.5896	-2.8063	-3.7375	-3.3583	-3.0625	-3.6312	-3.2708	-3.4479	-3.6979	-3.275	-3.5292	-3.5604	177.734	214.106	7.256	-75.373	250.320	69.503	224.050	-4.557	108.370	59.304	-6.587	194.185	278.185	197.214	-2.522	-78.714	0.00017937	0.0039746	0.0010489	501.95	1.878e-05	1.8593e-05	807.9	190.84	4.1785e-06	6.0518e-05	325.36	130.46	67.878	25.709	2.105e-05	60.016	0.022261	0.023638	0.0066059	1898.2	0.00025607	0.00025864	1823.2	549.36	0.0002558	0.00026013	914.98	328.08	422.12	92.126	0.00025931	147.67	-5.238	178.739	193.559	-65.440	124.743	-24.785	-66.925	-62.024	81.300	24.040	-63.938	-60.356	-61.049	-55.492	59.608	-57.488	-8191	255	
11727.297	1	1	0	0	0.088748	0.049871	0.014147	0.1792	0.13837	0.15377	0.063246	0.35361	0.26546	0.1235	0.22251	0.10164	0.12926	0.11293	0.0721	0.24139	-2.5167	-3.7604	-3.0646	-3.0542	-3.7687	-2.9979	-3.7229	-3.5958	-3.1729	-3.8521	-3.3146	-3.2958	-3.6854	-3.1104	-3.4583	-3.525	33.611	234.877	155.903	171.317	87.301	268.564	177.668	85.072	-34.855	-69.311	223.213	207.552	-48.041	77.114	60.288	212.571	0.00074587	0.0027836	0.0011918	514.94	3.1411e-05	1.5618e-05	806.42	190.64	1.2971e-05	3.1398e-05	322.86	131.01	67.182	25.876	2.8155e-05	60.36	0.0224	0.023909	0.0066637	1903.5	0.00025701	0.00026158	1831.7	550.23	0.0002572	0.00026289	919.43	328.51	424.2	92.331	0.00025841	147.45	188.705	-73.774	-51.679	-66.249	26.633	83.312	-66.853	-61.617	206.383	213.170	-64.099	-60.385	-60.507	-54.581	64.077	-57.219	-8191	255	
11727.393	1	1	0	0	0.22567	0.11199	0.13987	0.1093	0.0178	0.23544	0.091296	0.21207	0.13137	0.1246	0.35924	0.076708	0.2247	0.14741	0.18942	0.13308	-2.5396	-3.6375	-3.1604	-3.1688	-3.7875	-3.1354	-3.5479	-3.6063	-3.0771	-3.6625	-3.3688	-3.3021	-3.7979	-3.1792	-3.5208	-3.8021	-4.110	-48.145	-40.452	197.391	-5.898	66.523	138.079	253.021	-52.280	185.386	269.546	65.569	167.000	-3.347	270.914	190.953	0.00050708	0.0037346	0.001057	510.04	2.3065e-05	7.3688e-05	811.16	188.82	2.3384e-05	5.6034e-05	323.82	131.16	68.433	26.402	1.9569e-05	60.29	0.022251	0.023786	0.0065914	1886	0.00025526	0.00025899	1818.5	545.37	0.00025488	0.00025902	909.14	325.54	420.99	91.974	0.00025578	146.64	101.029	255.129	120.578	-65.209	26.208	257.046	-66.851	-61.775	161.429	20.346	-63.499	-60.937	-59.071	-55.509	126.834	-57.495	-8191	255	
11727.490	1	1	0	0	0.19938	0.19173	0.15314	0.095443	0.17323	0.070737	0.17485	0.24868	0.11819	0.10468	0.056894	0.17108	0.20044	0.077289	0.10205	0.13569	-2.5812	-3.7188	-3.2062	-2.9958	-3.9375	-3.0521	-3.4396	-3.7979	-3.0042	-3.6958	-3.3854	-2.9437	-3.8271	-3.2208	-3.2917	-3.8146	250.298	20.177	87.730	7.581	85.753	60.199	262.555	264.979	67.627	143.234	-36.784	217.726	208.481	202.209	262.201	145.655	0.00043771	0.0036683	0.00043453	512.79	4.6213e-05	5.2214e-05	818.74	190.23	6.7968e-06	4.7596e-05	324.4	130.34	67.512	26.367	4.5344e-05	59.846	0.022153	0.023679	0.0065306	1879.6	0.00025543	0.00025788	1812.7	544.26	0.00025511	0.00025821	904.88	324.66	420.05	91.815	0.00025348	146.07	257.056	32.884	1.017	-64.909	119.319	243.883	-66.540	-62.180	86.347	55.844	-64.028	-60.388	-58.948	-55.622	-13.967	-56.818	-8191	255	
11727.586	1	1	0	0	0.29523	0.1421	0.10806	0.066454	0.14126	0.22263	0.38292	0.16319	0.094946	0.075956	0.17053	0.12228	0.0066616	0.22127	0.17098	0.01341	-2.4583	-3.5729	-3.4833	-3.1688	-3.9813	-3.3271	-3.2542	-3.7542	-2.9979	-3.5208	-3.5917	-2.9396	-3.5125	-3.2021	-3.1104	-3.8333	100.074	126.291	237.406	40.528	152.334	143.840	240.379	48.960	161.725	25.352	278.874	248.995	122.976	186.788	266.751	214.422	0.00018179	0.0034817	0.00069474	502.29	1.9069e-05	2.4357e-05	810.92	186.41	2.192e-05	3.4551e-05	323.04	131.28	67.354	26.342	2.6875e-05	60.346	0.022145	0.023521	0.0064839	1869.7	0.00025445	0.00025701	1803.8	543.6	0.00025595	0.00025934	906.02	326.42	423.72	91.987	0.00025532	147.22	177.807	-62.068	44.817	-65.700	199.284	49.317	-66.720	-61.849	-67.792	239.366	-63.875	-60.182	-57.809	-56.615	-37.205	-57.378	-8191	255	
11727.706	1	1	0	0	0.17274	0.11605	0.28384	0.16706	0.22926	0.20565	0.25729	0.2094	0.19298	0.19202	0.063462	0.21271	0.29625	0.26324	0.2736	0.11758	-2.6042	-3.4813	-3.5312	-2.9813	-3.7313	-3.4562	-3.175	-3.7667	-3.1125	-3.3792	-3.8375	-3.025	-3.5979	-3.3479	-2.9771	-3.7646	168.607	33.559	94.223	234.441	-47.435	3.211	180.324	-58.704	148.558	6.119	251.028	-10.278	265.205	-76.434	81.250	128.872	0.00034724	0.0025116	0.0012413	505.89	1.048e-05	6.1008e-05	821.81	189.77	2.5801e-05	3.5714e-05	325.91	131.52	68.608	26.178	2.6287e-05	60.578	0.022506	0.023854	0.0065886	1897	0.00026012	0.00025978	1819	550.57	0.0002596	0.00026213	913.75	329.7	429.04	92.458	0.00025702	148.81	-11.032	59.849	88.870	-65.470	150.036	201.303	-66.940	-62.880	120.659	140.958	-63.470	-59.933	-59.101	-55.440	-27.304	-57.217	-8191	255	
11727.778	1	1	0	0	0.046195	0.054665	0.12967	0.22953	0.13069	0.060672	0.086321	0.27189	0.11989	0.13265	0.25768	0.098629	0.26222	0.23455	0.1102	0.063208	-2.7708	-3.1646	-3.6458	-3.0771	-3.5854	-3.5583	-3.1292	-3.7083	-3.1271	-3.2542	-3.8479	-3.0771	-3.7396	-3.4	-3.0125	-3.8583	78.307	16.071	117.139	199.997	139.889	134.174	-79.673	270.569	51.362	237.857	166.833	-0.583	-44.836	102.360	101.297	148.194	0.00016506	0.0040301	0.00093178	509.26	4.6771e-05	3.257e-05	823.59	189.04	4.004e-05	1.3985e-05	328.16	132.87	68.976	26.629	1.6622e-05	61.367	0.022658	0.023905	0.0066287	1914.8	0.00026177	0.00026215	1835.8	556.02	0.0002621	0.00026325	925.86	333.16	432.44	92.866	0.0002592	150.07	64.352	278.415	29.491	-65.085	103.625	10.945	-66.826	-62.679	149.055	152.072	-63.663	-60.266	-59.135	-55.942	28.206	-57.240	-8191	255	
11727.899	1	1	0	0	0.2335	0.12753	0.12961	0.16292	0.29876	0.13462	0.097888	0.11251	0.20745	0.016162	0.26259	0.11613	0.24039	0.15346	0.0875	0.15797	-2.8354	-3.0354	-3.7146	-3.0458	-3.4104	-3.5167	-3.0792	-3.6188	-3.1417	-3.05	-3.5667	-3.1271	-3.3688	-3.5417	-3.0104	-3.7	111.224	241.995	163.730	55.730	11.546	198.496	-34.216	205.417	261.913	254.811	-76.864	139.679	95.109	233.574	-78.116	254.668	0.00044234	0.006906	0.001101	505.4	2.9746e-05	2.0965e-05	819.04	186.41	5.6301e-05	4.3536e-05	321.29	131.28	66.932	26.077	5.345e-05	60.827	0.02268	0.023781	0.0066069	1910.3	0.00026024	0.00025873	1824.4	552.06	0.00025721	0.0002578	910.73	329.25	424.07	91.468	0.00025555	147.92	207.675	253.693	104.805	-65.476	13.881	-1.408	-66.835	-62.196	279.341	-13.442	-63.789	-60.501	-58.912	-54.951	160.456	-57.346	-8191	255	
11727.995	1	1	0	0	0.075721	0.12248	0.15631	0.25477	0.11638	0.083366	0.18542	0.2061	0.064293	0.18045	0.25933	0.1832	0.081248	0.10149	0.090726	0.10547	-2.9604	-3.0312	-3.5542	-3.0396	-3.3417	-3.5917	-2.9146	-3.8438	-3.5208	-3.1104	-3.7354	-3.3333	-3.4188	-3.7333	-3.0292	-3.7062	-28.924	62.897	46.925	165.405	-33.708	94.492	201.496	-79.452	201.915	45.082	252.114	-58.174	189.439	187.339	73.626	-7.147	0.00047943	0.0037134	0.00036394	505.64	1.3606e-05	7.9512e-05	813.27	189.38	2.0795e-05	4.5984e-05	322.82	131.39	66.241	26.155	3.5572e-05	60.896	0.022226	0.02343	0.0065471	1896.4	0.00025639	0.00025584	1813.9	549.68	0.00025534	0.00025566	910.59	328.01	421.65	91.174	0.00025513	147.92	119.621	136.455	189.403	-66.483	-36.438	23.254	-66.916	-62.399	202.630	138.679	-63.637	-60.186	-57.908	-55.190	183.433	-57.483	-8191	255	
11728.091	1	1	0	0	0.068716	0.24154	0.054172	0.11561	0.16166	0.099981	0.13568	0.0635	0.079182	0.075892	0.15367	0.098571	0.24037	0.086887	0.25471	0.071923	-3.0104	-3.1354	-3.675	-3.2521	-3.1688	-3.5938	-3.2958	-3.5854	-3.6521	-3.0854	-3.7667	-3.3292	-3.2167	-3.7625	-3.0167	-3.4604	250.143	-49.573	62.095	-24.562	178.559	204.389	226.257	106.903	-35.212	237.893	271.299	194.382	254.039	-11.019	-65.065	233.682	0.00074573	0.0012825	0.00077258	502.7	1.8366e-05	7.9703e-05	818.68	190.96	3.1446e-05	4.7719e-05	331.95	131.9	66.667	26.279	4.1743e-05	61.676	0.02213	0.023403	0.0065548	1891	0.00025532	0.00025631	1823.6	551.2	0.00025582	0.00025866	921.28	331.38	424.78	92.278	0.00026005	149.59	149.888	-37.649	-23.005	-66.036	5.112	110.935	-66.521	-61.503	128.370	-27.596	-63.826	-60.766	-59.200	-55.387	189.646	-56.881	-8191	255	
11728.187	1	1	0	0	0.094303	0.052987	0.12325	0.14712	0.16176	0.11745	0.2451	0.21109	0.057311	0.48864	0.26159	0.11848	0.19991	0.16269	0.11448	0.099293	-3.2625	-2.9	-3.7583	-3.3375	-3.0812	-3.8021	-3.2	-3.575	-3.7167	-3.0958	-3.7792	-3.5208	-3.1854	-3.8479	-3.3021	-3.2146	-26.524	97.174	-66.817	129.280	-49.564	-63.575	246.640	-74.284	258.328	126.704	155.128	189.081	-17.909	55.928	-25.100	-56.977	0.00021292	0.0050389	0.00084551	510.42	4.2494e-05	1.0043e-05	812.49	190.96	7.3637e-06	1.0852e-05	327.32	133.57	66.129	26.406	2.8447e-05	60.879	0.022442	0.023959	0.006729	1922.1	0.00026034	0.00026207	1847.7	556.63	0.00025844	0.00026289	932.36	332.97	427.89	93.066	0.00026249	149.72	198.832	62.848	-2.538	-65.969	-7.430	236.247	-66.737	-61.928	104.534	74.618	-63.597	-60.506	-56.891	-55.691	244.941	-57.499	-8191	255	
11728.306	1	1	0	0	0.087483	0.37275	0.16134	0.092904	0.046774	0.14725	0.24521	0.28089	0.18759	0.097222	0.14889	0.17891	0.14075	0.11702	0.02676	0.076822	-3.2375	-2.9437	-3.6729	-3.5979	-3.1021	-3.7562	-3.3833	-3.3396	-3.5604	-3.1583	-3.7271	-3.6854	-3.0687	-3.85	-3.1562	-3.4125	180.731	153.657	-73.095	-55.970	130.086	195.278	216.225	196.692	-77.659	35.161	108.580	258.177	171.611	209.118	188.720	-74.251	0.00051223	0.0030168	0.00016408	505.64	9.2332e-06	1.446e-05	817.54	192.57	3.0082e-05	2.0565e-05	325.27	130.84	67.501	25.948	3.898e-05	60.904	0.022562	0.024142	0.0067531	1920.6	0.00026091	0.00026256	1843.9	555.47	0.000259	0.00026304	929.05	331.47	427.75	93.173	0.00026112	148.96	187.881	197.576	136.916	-65.734	252.910	-66.792	-66.558	-62.393	130.532	73.802	-63.661	-60.222	-60.061	-54.536	-74.478	-57.426	-8191	255	
11728.402	1	1	0	0	0.17	0.013367	0.095633	0.079133	0.12391	0.22354	0.20969	0.19021	0.054333	0.070293	0.24813	0.12194	0.12739	0.021565	0.16659	0.14846	-3.3917	-3.0563	-3.4688	-3.6417	-3.0333	-3.7292	-3.3646	-3.0938	-3.7396	-3.1333	-3.5208	-3.7125	-2.9896	-3.5833	-3.1979	-3.2521	102.507	73.962	239.140	44.318	16.858	238.932	148.251	269.087	-1.011	69.853	235.323	-31.140	230.308	-22.894	-42.412	220.643	0.0003786	0.0045081	0.00033649	492.78	3.4079e-05	3.3135e-05	816.32	191.68	3.015e-05	2.006e-05	328.04	131.96	69.59	26.162	3.1541e-05	61.16	0.022438	0.023959	0.0066591	1896.3	0.00025799	0.00026126	1827.8	549.78	0.00025636	0.00026015	916.34	327.16	422.13	92.373	0.00025558	147.48	-75.052	120.296	-64.191	-66.545	189.970	47.813	-67.002	-61.788	-58.175	128.997	-64.040	-60.610	-56.870	-55.264	10.075	-57.205	-8191	255	
11728.498	1	1	0	0	0.036958	0.19798	0.21299	0.23309	0.21462	0.048746	0.31465	0.1989	0.11575	0.086073	0.1474	0.2356	0.25459	0.077874	0.2225	0.10496	-3.4792	-3.0812	-3.3021	-3.7	-2.9396	-3.7896	-3.525	-3.1896	-3.8354	-3.2521	-3.6292	-3.7396	-2.9125	-3.6083	-3.4125	-3.0687	-68.541	55.636	270.192	225.286	-73.903	191.357	248.885	-19.962	118.126	234.028	256.042	-63.512	247.239	202.831	117.605	141.493	0.00028384	0.002102	0.0012854	508.81	3.5621e-05	5.3089e-05	822.08	189.42	3.1454e-05	3.0262e-05	331.34	132.81	67.036	26.419	1.1072e-05	61.928	0.022214	0.023684	0.0065674	1878.2	0.00025621	0.00025853	1817.3	545.63	0.0002556	0.0002585	911.79	326.38	421.93	92.052	0.00025326	147.39	-51.388	-1.577	171.002	-66.381	-1.096	29.008	-66.592	-61.815	39.402	74.432	-63.290	-59.404	-59.098	-54.933	16.354	-56.792	-8191	255	
11728.594	1	1	0	0	0.12202	0.075797	0.094214	0.11738	0.13529	0.095745	0.23727	0.085924	0.24077	0.1486	0.17981	0.054651	0.05531	0.056688	0.054781	0.2271	-3.4125	-3.1646	-3.1979	-3.7313	-3.1958	-3.5667	-3.7667	-3.1708	-3.75	-3.3438	-3.2792	-3.8187	-3.0021	-3.5187	-3.7188	-3.0812	12.272	237.167	228.302	90.547	228.572	70.903	162.751	218.894	-27.067	221.454	-66.112	-69.672	-7.927	-30.368	255.515	212.787	0.00044061	0.0063096	0.00023064	509.47	4.2591e-06	4.1767e-05	823.8	190.39	1.5977e-05	4.7179e-05	323.01	132.54	68.162	26.636	4.2688e-05	60.818	0.02225	0.023622	0.0065217	1874	0.00025603	0.00025789	1811.8	545.29	0.00025585	0.00025854	909.02	328.02	424.45	92.148	0.00025453	147.68	127.407	38.160	112.984	-66.744	206.618	-48.991	-66.326	-62.382	84.417	-31.450	-63.635	-60.307	-58.179	-55.303	-12.662	-57.132	-8191	255	
11728.691	1	1	0	0	0.16245	0.19203	0.19304	0.12638	0.10864	0.15272	0.17522	0.073109	0.20856	0.053956	0.13511	0.16462	0.12815	0.15678	0.078749	0.41919	-3.2354	-3.1917	-3.0667	-3.7208	-3.0167	-3.4521	-3.5583	-3.0687	-3.6625	-3.3438	-3.0812	-3.8104	-3.0812	-3.3292	-3.7271	-3.0292	133.073	175.852	-67.634	238.933	-52.240	245.516	256.856	188.722	-21.707	154.496	-45.944	245.292	39.043	211.183	-30.303	188.961	0.00040313	0.009341	0.00050342	503.59	2.1431e-05	4.0501e-05	814.01	188.85	1.7785e-05	2.4308e-05	322.64	130.74	66.127	26.432	2.6451e-05	60.44	0.02247	0.023753	0.0065774	1896	0.00026008	0.00025989	1817.3	549.91	0.00025847	0.00025952	910.2	329.49	426.35	92.138	0.00025534	148.49	188.093	51.533	146.256	-65.219	92.953	40.895	-66.763	-61.646	-31.658	72.681	-63.790	-59.529	-58.351	-55.625	62.338	-57.632	-8191	255	
11728.787	1	1	0	0	0.11197	0.26417	0.077753	0.16736	0.1351	0.25303	0.15596	0.17099	0.099584	0.31079	0.092361	0.13141	0.069919	0.094649	0.1336	0.25464	-3.2521	-3.4625	-3.0917	-3.8042	-3.0146	-3.3167	-3.775	-3.0479	-3.4729	-3.4208	-3.1396	-3.7687	-3.0958	-3.2229	-3.5833	-3.0458	208.522	41.538	144.805	-54.214	147.349	13.476	176.541	47.918	144.650	-25.111	243.444	39.994	87.031	74.531	148.221	189.672	0.00053403	0.003419	0.00060799	506.25	3.129e-05	6.6216e-05	811.27	189.01	1.0138e-05	5.4173e-05	323.6	130.48	69.6	26.358	2.842e-05	61.405	0.022526	0.023717	0.0065912	1904.1	0.00025986	0.0002586	1814.5	550.53	0.00025851	0.00025899	911.47	330.11	426.46	91.934	0.00025607	148.29	-8.506	-45.331	106.342	-64.692	128.580	56.175	-66.461	-61.970	47.756	75.546	-64.295	-59.556	-59.333	-55.763	51.130	-56.742	-8191	255	
11728.883	1	1	0	0	0.080484	0.094463	0.10805	0.13787	0.061769	0.092587	0.23651	0.030477	0.071096	0.10994	0.12032	0.12969	0.21283	0.17445	0.093986	0.25137	-3.0958	-3.4313	-2.8542	-3.7417	-3.2062	-3.2521	-3.9104	-3.0667	-3.5375	-3.6437	-2.9104	-3.7292	-3.4125	-3.225	-3.6625	-3.1458	168.580	227.028	186.261	-7.982	-2.400	-26.006	252.373	54.917	-21.736	141.335	-46.072	-4.079	-15.432	145.739	-51.402	260.463	0.00036885	0.0020661	0.00074769	498.84	2.8371e-05	2.2525e-05	820.26	188.3	3.6624e-05	2.0792e-05	325.04	130.69	66.046	25.93	3.5694e-05	60.11	0.02246	0.023469	0.0065201	1887.1	0.0002564	0.00025569	1811.6	546.39	0.00025512	0.00025458	905.43	326.95	419.73	90.376	0.00025185	146.61	35.339	-64.935	84.190	-65.154	73.401	109.928	-66.518	-61.748	264.472	73.226	-63.742	-60.361	-58.709	-55.497	94.874	-57.020	-8191	255	
11729.002	1	1	0	0	0.24838	0.084979	0.066363	0.079597	0.23503	0.16767	0.24673	0.26583	0.23976	0.067874	0.27525	0.14804	0.084448	0.12501	0.064134	0.25808	-3.1375	-3.5125	-2.95	-3.6771	-3.2979	-3.0521	-3.8792	-3.1729	-3.2583	-3.6042	-3.0667	-3.5771	-3.375	-3.1354	-3.5354	-3.3104	76.969	205.493	145.723	46.421	19.543	51.319	235.816	213.895	277.307	104.256	196.184	233.839	225.224	79.191	-20.200	69.387	0.00042579	0.0029942	0.0017449	497.59	3.553e-05	2.41e-05	811.96	185.52	3.9535e-05	4.9597e-05	321.13	130.1	66.455	25.799	3.2716e-05	59.876	0.021957	0.023029	0.0064544	1865.5	0.00025102	0.00025109	1788.9	538.33	0.0002505	0.00025079	894.09	322.4	412.39	89.349	0.00024975	144.82	-35.704	53.292	-46.420	-64.762	104.101	-18.776	-66.441	-62.067	-46.088	202.209	-64.207	-59.840	-59.920	-54.930	204.058	-56.552	-8191	255	
11729.075	1	1	0	0	0.24237	0.22005	0.12097	0.15845	0.24257	0.1572	0.18286	0.059207	0.20676	0.16479	0.23428	0.093405	0.17408	0.079356	0.056374	0.023524	-2.75	-3.45	-2.8792	-3.6792	-3.4958	-3.05	-3.6792	-3.0583	-3.2708	-3.7562	-3.1625	-3.5875	-3.5667	-2.8771	-3.6333	-3.3958	140.237	47.390	156.338	176.423	-64.510	240.283	172.721	79.844	-16.033	93.357	178.739	188.707	140.406	20.789	130.003	-75.022	0.00038313	0.0051369	0.00098073	500.8	1.5884e-05	5.1038e-06	806.33	187.25	7.2005e-06	7.1322e-05	320.22	129.99	67.094	25.495	2.9023e-05	60.754	0.021698	0.022874	0.0063996	1852.3	0.00024802	0.00024966	1786	538.38	0.00024946	0.00025136	898.72	324.24	414.81	90.187	0.00025259	146.09	-20.410	271.770	5.898	-65.613	134.695	-65.163	-66.401	-61.595	9.288	-48.469	-62.846	-60.374	-60.939	-54.197	192.644	-56.830	-8191	255	
11729.171	1	1	0	0	0.058778	0.28331	0.1847	0.29692	0.20487	0.19209	0.1036	0.069519	0.217	0.35757	0.26659	0.1545	0.079279	0.20053	0.039383	0.118	-2.9021	-3.7083	-3.1625	-3.5417	-3.5854	-2.8979	-3.8	-3.2729	-2.9437	-3.8979	-3.2208	-3.4917	-3.55	-2.9354	-3.725	-3.4938	-74.610	121.696	252.823	10.715	39.700	53.392	271.653	182.341	273.149	50.467	21.156	-60.850	34.144	186.913	-6.890	0.454	0.00016517	0.0012471	0.00044573	507.13	2.4306e-05	4.046e-05	815.54	186.3	4.5987e-05	8.8138e-06	320.1	131.2	67.459	25.931	4.1852e-06	60.239	0.021869	0.023167	0.0065232	1874.8	0.000253	0.00025529	1811.1	544.08	0.0002525	0.00025545	909.02	327.07	419.03	91.264	0.00025576	147.05	50.073	26.231	68.167	-65.500	3.953	257.916	-66.498	-62.005	148.710	225.153	-63.250	-59.708	-59.713	-54.666	-30.525	-57.016	-8191	255	
11729.267	1	1	0	0	0.26459	0.12575	0.19426	0.066547	0.067188	0.18015	0.16014	0.27111	0.057169	0.32865	0.33742	0.058467	0.085308	0.24247	0.12577	0.12249	-2.7104	-3.6646	-3.1229	-3.3167	-3.7771	-3.0229	-3.7479	-3.4062	-2.8958	-3.7229	-3.2021	-3.3792	-3.8375	-3.175	-3.5604	-3.7104	53.980	-61.017	222.506	-15.021	-57.181	53.337	178.516	246.479	134.802	207.483	-49.352	248.020	104.329	233.441	-2.916	257.608	0.00024201	0.0068089	0.00083583	507.27	2.4113e-05	4.6264e-05	818.92	188.83	2.32e-05	2.886e-05	321.1	131.35	67.303	26.007	4.2183e-05	60.684	0.022099	0.023531	0.0065893	1888.6	0.0002553	0.00025851	1822	546.02	0.00025363	0.0002574	909.48	325.96	420.09	91.445	0.00025548	146.04	276.507	8.749	-14.455	-66.305	121.878	-60.560	-66.475	-62.079	119.608	6.832	-63.707	-59.617	-59.608	-54.200	-5.644	-56.469	-8191	255	
11729.386	1	1	0	0	0.25518	0.063045	0.20996	0.083166	0.1566	0.2385	0.16871	0.11119	0.074913	0.17446	0.095616	0.38745	0.076277	0.20147	0.13054	0.24717	-2.6604	-3.6312	-3.2479	-3.0375	-3.8375	-3.0292	-3.4375	-3.7042	-3.1292	-3.8354	-3.4208	-3	-3.6604	-3.0521	-3.3667	-3.7104	-31.360	219.706	57.269	188.592	-67.228	161.480	244.344	104.716	126.353	159.246	-9.100	203.747	57.268	-30.528	277.869	-55.054	0.0010668	0.0016041	0.0021513	507.28	2.5484e-05	4.2473e-05	807.52	185.47	2.8958e-05	4.8786e-05	321.19	129.89	67.693	25.683	3.6557e-05	60.346	0.021985	0.023408	0.0064981	1860.5	0.00025166	0.00025474	1797.7	537.11	0.00025044	0.00025478	897.46	320.98	414	90.401	0.00025009	144.36	48.298	-46.770	-36.382	-65.907	161.231	-20.189	-66.674	-61.690	246.133	240.877	-64.075	-59.358	-59.656	-54.758	111.654	-57.237	-8191	255	
11729.483	1	1	0	0	0.21966	0.18065	0.2658	0.13498	0.16073	0.097994	0.23231	0.082697	0.15194	0.1961	0.14911	0.32666	0.18902	0.16501	0.15889	0.23	-2.6292	-3.5896	-3.4646	-3.1437	-3.8167	-3.1688	-3.4958	-3.65	-2.9333	-3.7208	-3.6396	-3.0979	-3.7646	-3.2458	-3.3479	-3.7958	91.839	-10.381	48.156	-30.219	145.681	58.348	224.769	31.127	24.648	-9.648	220.713	135.105	262.152	-43.550	110.163	232.994	0.00011717	0.002691	0.00069078	501.77	3.5607e-06	6.1316e-05	808.7	184.49	2.3273e-05	3.0539e-05	319.36	130.28	67.81	25.929	5.0018e-05	59.702	0.021725	0.023154	0.0064259	1844.8	0.00025098	0.00025287	1784.3	533.53	0.00024937	0.00025341	890.52	319.82	413.7	89.938	0.00024842	144.16	266.529	15.231	116.972	-65.442	46.619	263.916	-66.383	-61.639	-65.246	-71.063	-63.757	-59.895	-59.652	-55.166	-11.789	-56.991	-8191	255	
11729.579	1	1	0	0	0.16346	0.17706	0.21284	0.13715	0.19196	0.20963	0.033205	0.25804	0.038418	0.080929	0.10307	0.13233	0.1478	0.21871	0.3344	0.097329	-2.725	-3.6042	-3.3833	-2.9375	-3.8292	-3.2083	-3.3375	-3.8604	-2.9854	-3.6125	-3.6958	-3.0854	-3.7271	-3.3625	-3.0208	-3.6312	36.531	151.112	96.900	-9.228	75.258	185.778	248.057	-79.169	-10.266	162.002	181.656	244.853	27.540	141.875	-52.507	-62.152	0.00028424	0.00019223	0.00039358	508.98	2.2734e-05	7.7209e-06	814.65	187.33	1.6786e-05	4.3092e-05	323.57	131.15	68.42	25.683	1.5229e-05	61.248	0.021749	0.02311	0.0063603	1840.6	0.00025115	0.00025194	1783.6	534.78	0.00025074	0.00025394	894.82	322.66	418.87	90.814	0.00024988	145.84	68.179	252.067	-65.109	-65.916	171.402	184.285	-66.444	-62.124	59.121	21.721	-63.176	-59.493	-57.330	-55.767	107.010	-56.837	-8191	255	
11729.675	1	1	0	0	0.13129	0.20325	0.28135	0.26463	0.10878	0.22238	0.094356	0.19772	0.2495	0.043478	0.056953	0.12912	0.26647	0.14422	0.20352	0.20292	-2.4417	-3.4896	-3.5167	-2.8812	-3.55	-3.3271	-3.2604	-3.8354	-2.9917	-3.4646	-3.7562	-2.9313	-3.6854	-3.3125	-3.1583	-3.8646	4.909	17.479	19.293	176.611	38.743	277.345	151.648	7.953	-55.298	157.464	66.440	75.506	-74.084	-35.830	-72.531	277.043	0.00067687	0.0023909	0.00075317	504.91	4.6084e-05	3.2214e-05	815.21	190.06	5.1706e-05	1.234e-05	323.05	130.37	65.719	26.118	3.6321e-05	60.837	0.022087	0.023284	0.0064264	1863	0.00025501	0.00025547	1794.9	540.77	0.00025437	0.00025574	896.41	324.46	421.82	91.094	0.00025251	146.41	-68.378	213.315	225.347	-65.253	-71.292	-72.680	-66.220	-62.305	37.504	127.481	-63.548	-59.708	-59.550	-54.672	66.858	-56.625	-8191	255	
11729.771	1	1	0	0	0.17017	0.27554	0.089146	0.23339	0.052317	0.12316	0.26276	0.2319	0.27004	0.16875	0.060136	0.13565	0.20522	0.068224	0.12984	0.19093	-2.6708	-3.2604	-3.7646	-3.1229	-3.5833	-3.5521	-3.1271	-3.8	-3.2583	-3.4396	-3.9125	-3.0687	-3.7083	-3.5792	-3.1063	-3.8208	213.516	248.471	159.193	-28.953	-9.642	187.975	268.664	242.808	59.398	62.373	251.687	211.745	-39.545	55.098	138.514	279.255	0.00090623	0.0051798	0.0010541	499.95	3.1746e-05	2.3974e-05	811.06	188.28	2.569e-05	1.329e-05	317.2	130.56	65.582	25.849	6.408e-05	60.687	0.022237	0.023383	0.0064698	1880.5	0.00025713	0.00025609	1798.7	545.28	0.00025535	0.00025613	902.72	326.83	424.98	91.26	0.00025415	147.22	101.568	48.054	188.979	-65.922	-18.638	5.038	-66.347	-61.451	176.065	50.923	-63.543	-60.033	-60.749	-55.199	210.910	-56.730	-8191	255	
11729.867	1	1	0	0	0.31175	0.036675	0.069184	0.21616	0.27274	0.096718	0.057765	0.11916	0.074815	0.2266	0.12762	0.14995	0.077669	0.10734	0.20189	0.37013	-2.8979	-3.1979	-3.6333	-3.0687	-3.4979	-3.5354	-3.0479	-3.7604	-3.1542	-3.1917	-3.7292	-3.1667	-3.4167	-3.7125	-3.0604	-3.8167	124.143	228.687	14.851	255.786	77.917	182.080	188.761	203.375	245.529	159.609	-10.963	247.266	71.966	99.602	28.573	267.313	0.00040551	0.0042342	0.00059688	514.13	3.1644e-05	3.0971e-05	814.64	189.66	2.4005e-05	2.8686e-05	323.42	131.6	67.006	25.88	2.4339e-05	60.24	0.022235	0.023324	0.0064701	1876.6	0.00025501	0.00025351	1796.3	544.99	0.00025283	0.00025351	899.09	325.18	417.31	90.067	0.00025172	146.6	111.611	37.050	-28.252	-65.762	242.232	42.291	-66.131	-62.329	239.864	-64.882	-63.487	-59.930	-57.918	-54.839	65.999	-56.884	-8191	255	
11729.988	1	1	0	0	0.13136	0.14057	0.076547	0.147	0.17283	0.17348	0.24114	0.21606	0.058806	0.073743	0.21989	0.13053	0.24471	0.17055	0.21071	0.31097	-3.0146	-3.0708	-3.6688	-2.9688	-3.2938	-3.7729	-3.0438	-3.6521	-3.4021	-3.1813	-3.8083	-3.2104	-3.5042	-3.6562	-2.9583	-3.7188	82.038	144.986	83.107	-24.513	67.076	159.575	-79.678	236.143	69.081	-26.708	191.648	229.308	69.572	170.584	252.996	253.996	0.00030548	0.0029831	0.00092731	496.56	1.7128e-05	6.9171e-05	812.43	189.37	1.6844e-05	1.7567e-05	320.66	132.71	68.236	26.246	3.8353e-05	60.506	0.021914	0.023022	0.0064252	1870.8	0.00025233	0.00025165	1799	542.88	0.00025036	0.00025183	898.64	324.24	415.49	89.865	0.00025097	145.92	189.728	-57.485	-56.603	-65.534	190.043	114.602	-66.038	-61.916	-39.405	-52.088	-62.688	-60.242	-58.648	-55.378	-11.535	-56.955	-8191	255	
11730.082	1	1	0	0	0.30462	0.16628	0.23641	0.16631	0.27576	0.14652	0.096661	0.13619	0.035473	0.16832	0.21669	0.15717	0.039599	0.29482	0.069969	0.11755	-3.2292	-2.9792	-3.8896	-3.1646	-3.2167	-3.7062	-3.0396	-3.6	-3.5438	-3.0417	-3.7833	-3.2375	-3.0625	-3.7438	-3.0917	-3.625	131.177	136.976	72.172	139.312	23.293	163.021	244.331	123.639	200.762	116.815	204.460	104.743	-23.245	235.763	54.939	-71.558	0.00020564	0.0055311	0.0015287	510.73	1.6929e-05	3.4751e-05	814.15	189.61	4.5771e-05	4.4151e-05	320.01	131.17	67.484	26.17	3.3808e-05	60.572	0.021746	0.02297	0.0064429	1859.8	0.00024991	0.00025091	1792.3	539.59	0.00024938	0.00025284	898.61	324.85	417.23	90.65	0.00025421	146.37	-33.768	149.501	-68.230	-65.828	-3.182	122.384	-66.535	-61.489	249.894	164.815	-63.249	-60.083	-58.537	-54.876	167.557	-56.806	-8191	255	
11730.178	1	1	0	0	0.071436	0.14305	0.18753	0.13507	0.12327	0.09982	0.14422	0.15213	0.096007	0.047074	0.20153	0.25272	0.043218	0.12081	0.091458	0.2133	-3.2438	-2.9562	-3.7188	-3.4	-3.1021	-3.6437	-3.1271	-3.3542	-3.7167	-3.0417	-3.7458	-3.5604	-2.9604	-3.6875	-3.2188	-3.3208	118.954	118.779	56.165	40.397	169.461	89.571	180.507	258.426	-10.661	-33.676	161.343	272.593	224.084	199.036	210.549	12.224	0.00052978	0.0046517	0.0014514	514.09	1.7816e-05	2.9384e-05	815.06	188	3.0493e-05	5.3295e-05	319.06	130.59	65.171	25.573	7.4026e-06	60.575	0.021886	0.023291	0.0065452	1881.9	0.00025392	0.00025754	1819.5	546.04	0.00025376	0.00025844	909.8	326.87	420.92	91.843	0.00025748	147.15	-20.892	195.302	128.188	-66.885	194.271	67.793	-66.915	-61.856	61.635	182.843	-63.379	-59.641	-59.267	-55.045	98.681	-56.608	-8191	255	
11730.299	1	1	0	0	0.13835	0.23826	0.12616	0.20747	0.16467	0.20826	0.13754	0.21914	0.11905	0.16067	0.20998	0.10614	0.10117	0.2072	0.055537	0.11946	-3.3438	-3.05	-3.6104	-3.4271	-3.1063	-3.7208	-3.15	-3.2375	-3.6688	-3.3042	-3.6021	-3.45	-2.9646	-3.6625	-3.2917	-3.25	245.859	117.017	-76.175	174.436	278.787	259.773	53.175	279.061	15.952	55.337	223.433	233.164	112.590	248.018	-53.958	-70.686	0.00022311	0.0012133	0.00037229	507.61	1.1873e-05	2.3898e-05	819.02	187.26	2.0871e-05	4.6096e-05	325.24	131.48	65.195	26.195	4.9709e-05	60.616	0.022167	0.023692	0.0066136	1889.6	0.00025705	0.00026073	1828.3	548.01	0.00025602	0.00026045	916.85	327.92	422.8	92.591	0.00025879	147.82	100.821	-66.208	56.700	-65.781	270.977	277.998	-66.844	-62.014	147.939	205.410	-63.869	-59.657	-58.237	-56.048	-8.065	-56.622	-8191	255	
11730.371	1	1	0	0	0.1033	0.16377	0.30177	0.18507	0.06566	0.05211	0.1199	0.059701	0.26582	0.18051	0.23645	0.31183	0.17103	0.061462	0.20248	0.12682	-3.2958	-2.9271	-3.5354	-3.6271	-2.925	-3.7542	-3.3292	-3.0812	-3.9	-3.2146	-3.5354	-3.6604	-2.9521	-3.75	-3.325	-3.1542	48.967	-60.273	-43.848	31.418	103.126	247.774	198.306	194.010	9.707	115.906	85.721	234.118	140.166	258.746	193.373	217.065	0.00029333	0.0056288	0.00079622	512.1	2.9818e-05	4.9859e-05	826.62	189.88	1.5073e-05	6.5541e-05	324.25	130.89	67.422	25.642	4.4085e-05	60.04	0.022347	0.023784	0.0066059	1881.6	0.00025476	0.00025819	1815.9	542.77	0.00025253	0.00025673	902.97	323.05	417.14	91.093	0.00025264	145.39	205.981	41.191	95.047	-65.799	27.053	242.169	-66.438	-61.800	231.554	52.692	-62.897	-59.618	-59.044	-54.681	52.142	-56.808	-8191	255	
11730.467	1	1	0	0	0.16745	0.23935	0.2038	0.2621	0.27939	0.18096	0.16166	0.084136	0.18321	0.14309	0.14218	0.19417	0.26876	0.13095	0.080793	0.20117	-3.3146	-3.1292	-3.4604	-3.7542	-3.025	-3.5646	-3.5312	-3.1792	-3.8271	-3.1688	-3.2979	-3.8812	-2.9875	-3.6542	-3.4375	-3.1875	42.970	189.378	-3.510	244.372	225.270	-38.618	245.458	-37.476	-52.482	124.027	154.160	206.506	174.013	236.897	137.067	253.128	0.00062124	0.0012607	0.0027593	507.85	5.7817e-05	6.1203e-05	812.87	188.59	5.3252e-05	3.6594e-05	319.16	131.95	66.436	26.153	5.0561e-05	60.459	0.021952	0.023324	0.0064621	1855.4	0.00025154	0.00025445	1791.1	537.48	0.00025097	0.00025399	894.43	321.4	414.81	90.595	0.00025032	144.46	123.799	49.872	13.940	-64.630	82.043	211.388	-66.253	-61.408	108.511	-25.165	-63.187	-59.978	-59.140	-55.394	6.181	-56.122	-8191	255	
11730.563	1	1	0	0	0.27739	0.039707	0.35776	0.2451	0.28183	0.10051	0.16191	0.37514	0.13975	0.11211	0.17912	0.10085	0.25412	0.16233	0.13563	0.28452	-3.4938	-3.2708	-3.1083	-3.7729	-2.9125	-3.6375	-3.5896	-3.0917	-3.6625	-3.3417	-3.2438	-3.7792	-2.9333	-3.5896	-3.6167	-3.1937	270.697	263.954	-58.809	260.544	106.409	113.558	273.657	-57.264	35.638	182.641	7.172	98.844	177.227	-38.509	-51.846	241.516	0.00022638	0.0038507	0.0013897	509.84	4.8413e-05	4.2705e-05	815.84	188.86	2.3171e-05	5.7996e-05	321.22	130.19	65.68	26.004	8.4645e-05	60.279	0.021822	0.023197	0.0063891	1851.7	0.00025129	0.00025338	1789.4	538.33	0.00025099	0.00025316	893.64	321.12	415.65	90.477	0.00024874	145.02	5.987	-11.964	35.507	-64.805	138.731	145.206	-66.523	-62.133	168.781	122.146	-63.543	-60.137	-58.417	-55.246	96.958	-56.431	-8191	255	
11730.684	1	1	0	0	0.17734	0.046477	0.096614	0.12421	0.24184	0.071662	0.051144	0.23341	0.20641	0.066845	0.10679	0.17979	0.26756	0.19345	0.33718	0.27814	-3.3354	-3.2167	-3.1375	-3.9146	-3.1708	-3.4875	-3.5979	-2.9146	-3.6729	-3.3792	-3.1917	-3.8937	-3.2396	-3.3146	-3.6604	-3.1729	159.496	123.464	-30.169	150.847	164.470	8.410	276.822	178.377	128.681	180.393	186.355	103.228	241.318	-17.799	84.091	272.079	0.00023184	0.0029367	0.0013299	507.21	1.0716e-05	5.8289e-05	821.7	187.5	5.3577e-05	5.6589e-05	329.85	131.5	68.94	26.556	3.9546e-05	60.577	0.021916	0.023243	0.0064401	1868.2	0.00025518	0.0002563	1810.5	545.96	0.00025612	0.00025684	908.4	326.83	425.74	92.131	0.0002554	147.82	-59.874	251.643	237.326	-66.153	128.922	7.914	-66.849	-61.896	185.952	105.071	-62.505	-59.979	-59.582	-54.545	17.662	-56.884	-8191	255	
11730.780	1	1	0	0	0.069274	0.088432	0.069508	0.034187	0.090754	0.11773	0.1539	0.12488	0.14471	0.048001	0.20824	0.22383	0.15328	0.029691	0.23218	0.12119	-3.2729	-3.4562	-2.9625	-3.8458	-3.0938	-3.1813	-3.8	-3.0354	-3.4375	-3.5187	-3.0938	-3.8208	-3.2229	-3.2	-3.725	-3.0917	229.251	22.054	57.846	227.194	-25.443	102.826	239.737	-61.782	211.609	95.336	-76.977	149.999	32.797	250.078	246.160	-68.082	0.00052849	0.0040665	0.00067799	500.01	2.8268e-05	1.6511e-05	824	186.47	1.1691e-05	4.4002e-06	319.99	130.12	67.369	25.986	5.0917e-05	59.874	0.022449	0.023592	0.0065406	1890	0.00025834	0.0002581	1817.3	548.66	0.00025775	0.00025828	909.15	327.73	426.26	91.697	0.00025679	147.72	96.901	180.062	81.213	-66.058	6.256	-9.913	-66.549	-61.962	15.615	31.541	-63.270	-59.808	-60.258	-54.606	-37.412	-56.926	-8191	255	
11730.876	1	1	0	0	0.17027	0.27383	0.16124	0.14635	0.12203	0.13983	0.1109	0.18558	0.053754	0.012617	0.21339	0.10008	0.17886	0.23529	0.17355	0.37694	-3.3083	-3.4167	-2.9167	-3.7417	-3.2792	-3.0667	-3.7979	-3.1188	-3.6063	-3.6042	-2.8771	-3.7854	-3.5292	-3.1042	-3.8417	-3.1625	72.970	181.499	190.738	196.780	238.306	209.639	182.736	28.270	35.695	-69.880	73.407	-60.861	220.569	-50.840	-2.132	207.447	0.00029684	0.0047481	0.0002802	507.12	6.4977e-05	3.8959e-05	815.71	188.31	1.2491e-05	5.4812e-05	320.73	131.14	68.734	25.844	9.1876e-06	60.12	0.022488	0.023544	0.006529	1892.3	0.00025651	0.00025576	1806.3	545.24	0.0002546	0.00025429	902.11	326.03	419.14	90.489	0.00025217	146.15	231.757	190.020	159.288	-66.244	120.182	-47.239	-66.942	-61.340	177.318	52.054	-63.611	-60.114	-58.632	-54.562	132.595	-57.169	-8191	255	
11730.947	1	1	0	0	0.31364	0.17436	0.073133	0.17642	0.18622	0.22326	0.19496	0.14286	0.086413	0.060112	0.089556	0.19391	0.22172	0.3498	0.13025	0.17084	-3.0542	-3.7792	-3.0563	-3.5187	-3.3583	-3.0938	-3.7313	-3.2313	-3.4396	-3.7	-2.9479	-3.5875	-3.5292	-3.0604	-3.6875	-3.2458	-76.776	62.897	-42.631	101.969	140.765	-48.341	214.654	221.235	273.701	-0.688	101.825	238.453	276.149	189.949	207.983	111.349	0.00065722	0.0032509	0.00079496	501.43	2.7868e-05	3.2754e-05	820.58	188.66	2.3625e-05	4.9223e-05	322.19	129.92	67.836	25.911	3.716e-05	60.654	0.02197	0.023026	0.0064541	1873.3	0.00025208	0.00025185	1801.1	543.93	0.0002518	0.0002524	900.29	324.86	415.49	90.106	0.00025185	145.86	144.015	253.702	107.667	-64.967	63.179	245.943	-66.694	-62.253	-32.762	164.218	-62.886	-60.065	-59.685	-54.353	104.111	-56.722	-8191	255	
11731.068	1	1	0	0	0.17567	0.19116	0.089854	0.15875	0.1618	0.20208	0.22554	0.10154	0.18751	0.10146	0.060588	0.1527	0.22264	0.216	0.12978	0.19153	-3.0042	-3.6396	-3.0667	-3.5563	-3.3458	-2.9417	-3.5687	-3.2729	-3.2458	-3.7375	-3.1896	-3.425	-3.5187	-3.075	-3.7042	-3.4562	260.839	83.965	-4.412	104.403	91.921	-76.905	171.348	-55.802	-32.919	-8.728	188.288	270.577	213.165	194.160	218.097	47.203	0.00046182	0.0027681	0.0002925	507.55	4.9966e-05	5.7212e-05	819.43	190.25	3.7056e-05	4.0596e-05	322.74	131.32	66.491	25.943	4.6701e-05	60.234	0.021855	0.023057	0.006457	1870.7	0.00025132	0.00025179	1804.2	543.75	0.00024977	0.00025185	899.74	322.9	412	89.803	0.00025114	144.68	222.341	245.688	1.426	-65.233	263.897	52.069	-66.842	-61.990	126.606	-63.633	-64.092	-60.761	-57.475	-55.091	72.169	-57.008	-8191	255	
11731.163	1	1	0	0	0.069041	0.18644	0.10698	0.1167	0.29887	0.040391	0.077928	0.12217	0.060823	0.18632	0.12483	0.086821	0.13137	0.19612	0.19931	0.17369	-2.7833	-3.7458	-3.1583	-3.4646	-3.5979	-3.1771	-3.8	-3.5229	-3.0812	-3.75	-3.3021	-3.5479	-3.625	-3.0667	-3.7583	-3.5771	83.788	156.251	-21.570	180.066	174.774	188.275	216.943	271.038	179.990	212.990	255.682	82.348	192.703	5.422	-3.806	105.960	0.00033406	0.0040726	0.00035976	504.77	2.9296e-05	2.4089e-05	812.26	187.44	5.2909e-06	3.1385e-05	318.82	130.01	65.818	25.738	6.48e-05	60.105	0.021624	0.022969	0.006449	1862.3	0.00025022	0.0002536	1806.1	541.25	0.00025062	0.00025399	902.73	322.99	415.48	90.819	0.00025554	145.78	254.928	169.667	47.657	-64.468	37.473	158.895	-66.647	-62.253	126.024	34.222	-63.476	-59.717	-59.502	-55.344	51.673	-56.959	-8191	255	
11731.260	1	1	0	0	0.11336	0.13853	0.072613	0.23765	0.041627	0.17143	0.061481	0.050303	0.094557	0.16198	0.090882	0.17083	0.27736	0.10873	0.29325	0.21325	-2.7125	-3.55	-3.1375	-3.225	-3.7208	-3.1875	-3.7729	-3.4562	-2.9688	-3.7792	-3.2604	-3.1667	-3.6688	-2.925	-3.5958	-3.5604	22.243	-6.435	27.695	198.593	127.609	171.011	206.066	246.635	228.215	40.309	92.360	76.361	272.741	265.570	115.927	175.535	0.0010312	0.0035037	0.00091466	505.16	1.7663e-05	5.3517e-05	815.51	189.04	8.2461e-06	7.0638e-06	320.66	130.63	67.099	26	3.4945e-05	59.761	0.021987	0.023434	0.0065546	1877.4	0.00025352	0.00025676	1813.2	543.96	0.00025287	0.00025718	906.8	324.13	418.93	91.461	0.00025684	146.19	85.230	162.417	21.193	-65.912	212.555	-56.002	-66.815	-62.826	180.074	194.675	-64.630	-60.624	-59.205	-55.112	260.553	-57.780	-8191	255	
11731.379	1	1	0	0	0.1305	0.16993	0.085345	0.049646	0.05882	0.0071374	0.21909	0.17213	0.15529	0.12034	0.18536	0.27679	0.15226	0.1631	0.23946	0.2238	-2.5479	-3.7917	-3.2354	-3.1292	-3.6917	-3.0833	-3.6479	-3.5687	-2.9792	-3.8771	-3.4771	-3.1917	-3.8979	-3.025	-3.2854	-3.7188	86.606	257.390	26.404	91.134	-41.493	244.662	215.106	-27.212	103.525	261.141	14.541	255.725	252.785	-21.311	190.501	191.616	0.00022587	0.00099041	0.00056595	503.5	3.2106e-05	2.9201e-05	817.5	192.37	8.0022e-06	4.1653e-05	322.53	128.51	66.729	25.685	6.6023e-05	58.895	0.022145	0.023581	0.0065537	1873.4	0.00025441	0.00025794	1813.9	543.67	0.00025314	0.00025741	902.7	322.41	417.27	90.767	0.00025241	144.26	-54.836	54.986	-61.686	-67.032	75.428	119.605	-66.826	-62.012	249.977	-69.791	-63.809	-60.181	-58.657	-55.061	36.124	-57.366	-8191	255	
11731.475	1	1	0	0	0.021458	0.29459	0.13364	0.14859	0.084468	0.34037	0.057578	0.23159	0.0056553	0.09533	0.048242	0.22675	0.079014	0.1807	0.20293	0.08801	-2.5292	-3.525	-3.2896	-3.0792	-3.725	-3.1479	-3.3875	-3.775	-3.0125	-3.5938	-3.6229	-3.1896	-3.6542	-3.1854	-3.3125	-3.8875	212.324	84.010	44.161	-48.919	73.974	102.698	76.115	194.168	88.253	-52.312	203.652	264.788	-63.278	83.072	-14.529	204.765	0.00078056	0.0014742	0.0014089	513.88	3.2855e-05	6.0992e-05	811.59	189.34	2.7383e-05	4.4155e-05	315.8	128.21	65.945	25.319	2.148e-05	58.948	0.021952	0.023342	0.0064544	1856.1	0.00025142	0.00025348	1790.5	535.81	0.00025014	0.0002537	887.59	317.81	414.08	89.641	0.00024874	142.85	-79.190	240.138	-64.321	-66.340	115.769	117.653	-66.791	-61.956	11.060	279.797	-64.410	-60.042	-58.248	-55.932	-10.681	-56.813	-8191	255	
11731.572	1	1	0	0	0.17305	0.15097	0.14601	0.062667	0.10527	0.17176	0.26319	0.17598	0.17341	0.052804	0.084034	0.071566	0.1023	0.3242	0.081753	0.13753	-2.5979	-3.4396	-3.6042	-2.9917	-3.8729	-3.2062	-3.3063	-3.8708	-3.0083	-3.4583	-3.8229	-3.0104	-3.725	-3.4271	-3.2458	-3.8187	220.495	-17.783	131.077	216.717	-63.415	-50.157	179.976	106.930	61.547	-19.525	264.148	266.729	-76.783	269.684	173.738	-59.753	0.00041681	0.0041895	0.00087078	491.49	3.0818e-05	2.6871e-05	805.04	184.88	4.5997e-05	4.8528e-05	317.56	127.28	67.929	25.44	1.5232e-05	58.78	0.021826	0.023182	0.0063962	1847.6	0.00025172	0.00025302	1777.8	536.04	0.00025106	0.00025363	888.28	319.97	416.28	90.046	0.00024936	143.48	-71.963	-33.659	225.855	-65.219	157.865	159.870	-66.783	-62.234	63.332	3.290	-63.508	-60.604	-57.843	-55.669	37.362	-57.679	-8191	255	
11731.668	1	1	0	0	0.18322	0.20027	0.10373	0.26962	0.24158	0.34764	0.036173	0.13926	0.16089	0.18206	0.15906	0.075295	0.12901	0.16331	0.093657	0.12998	-2.7792	-3.4229	-3.4833	-3.1021	-3.7167	-3.475	-3.1979	-3.8187	-2.9833	-3.4708	-3.7708	-3.0146	-3.5771	-3.3896	-3.1312	-3.8396	132.278	-17.499	61.208	238.981	-8.180	104.012	258.548	113.899	-24.736	130.599	-39.049	224.742	15.580	29.172	276.862	152.790	0.00044491	0.0055065	0.00060147	504.9	1.449e-05	3.5331e-05	798.7	185.7	2.7659e-05	4.5308e-05	318.72	127.96	67.606	25.904	2.5849e-05	58.378	0.021834	0.023071	0.0063578	1852.6	0.00025242	0.00025323	1784.7	540.47	0.00025353	0.00025483	891.25	321.61	417.96	90.155	0.00025053	144.86	279.484	61.472	87.379	-66.237	86.285	-58.756	-66.356	-62.398	-18.756	20.515	-63.687	-60.439	-59.523	-56.159	104.392	-57.036	-8191	255	
11731.764	1	1	0	0	0.2782	0.044286	0.29226	0.095188	0.15272	0.23447	0.089483	0.024963	0.052759	0.11855	0.12913	0.18645	0.28607	0.0090753	0.056409	0.11368	-2.7562	-3.3167	-3.8271	-2.9875	-3.6271	-3.6208	-3.1458	-3.7333	-3.1396	-3.2625	-3.8063	-3.1208	-3.6479	-3.5167	-2.9396	-3.8417	174.832	41.152	91.381	179.403	210.954	68.284	172.756	128.996	58.579	141.237	265.984	256.776	35.009	269.866	-79.497	-68.852	0.0007335	0.0048378	0.0010663	498.79	1.696e-05	1.5791e-05	810.63	188.32	7.0763e-05	4.0505e-05	317	126.98	65.043	25.396	4.6127e-06	58.172	0.022061	0.023216	0.006432	1866.8	0.00025497	0.0002545	1793.7	544.22	0.00025531	0.00025502	891.55	322.33	418.17	89.715	0.00025123	144.64	-53.862	17.442	73.401	-65.692	116.495	15.924	-66.846	-62.603	56.964	127.264	-64.103	-60.133	-60.364	-55.675	190.877	-57.901	-8191	255	
11731.860	1	1	0	0	0.13608	0.076394	0.18041	0.10293	0.23168	0.27788	0.15899	0.096908	0.13206	0.26933	0.090146	0.17089	0.10994	0.068939	0.016655	0.098963	-2.7521	-3.275	-3.8063	-3.0167	-3.5312	-3.7021	-3.1167	-3.6771	-3.3896	-3.0771	-3.8625	-3.2354	-3.5312	-3.6854	-2.8896	-3.7167	79.085	41.214	129.444	263.624	254.262	232.981	265.440	244.792	47.795	77.884	234.409	168.644	58.799	194.089	165.254	244.853	0.00036182	0.0059943	0.00021295	504.28	3.0696e-05	1.7985e-05	796.4	185.14	3.5147e-05	5.7412e-06	311.29	125.71	66.852	25.178	2.0984e-05	57.397	0.021987	0.023064	0.0063979	1859.9	0.00025185	0.00025086	1772.1	536.84	0.00024989	0.00024997	881.26	318.38	412.22	88.315	0.00024798	142.46	163.253	274.717	-15.216	-65.657	130.173	227.184	-66.703	-62.193	26.890	101.644	-64.162	-60.232	-59.132	-55.512	77.646	-56.772	-8191	255	
11731.981	1	1	0	0	0.045341	0.097058	0.20809	0.087568	0.1887	0.17689	0.052457	0.13936	0.10369	0.018799	0.29966	0.15377	0.25231	0.35864	0.22359	0.17783	-3.0167	-3.1188	-3.8292	-3.075	-3.2938	-3.6896	-3.125	-3.5917	-3.5271	-3.2208	-3.8417	-3.2292	-3.2708	-3.7604	-3.1104	-3.6521	-25.453	205.782	-18.761	-67.571	77.431	146.506	208.482	-59.666	37.182	166.448	223.899	192.276	-23.973	153.921	194.768	271.030	0.00047757	0.0032998	0.00084432	497.13	2.9368e-05	7.4413e-06	793.39	186.02	4.0435e-05	3.7061e-05	309.47	125.01	64.066	25.212	1.4483e-05	57.891	0.021601	0.022709	0.0063517	1842.8	0.00024785	0.00024733	1761	533.7	0.00024597	0.00024728	874.61	315.27	405.76	87.554	0.00024535	140.99	277.418	-17.890	4.801	-65.814	79.512	191.570	-66.735	-62.403	265.242	106.842	-63.539	-60.043	-59.175	-56.046	153.393	-57.179	-8191	255	
11732.075	1	1	0	0	0.092509	0.20178	0.059351	0.24999	0.17528	0.18145	0.1948	0.13402	0.15336	0.23687	0.045234	0.07937	0.14958	0.2657	0.12122	0.20917	-3.0854	-2.9042	-3.5625	-3.3438	-3.2271	-3.7792	-3.25	-3.6375	-3.4958	-2.9062	-3.8396	-3.1646	-3.0521	-3.7854	-3.0958	-3.4792	166.155	226.421	-48.024	-63.794	274.525	-52.356	51.045	-69.502	61.375	123.275	237.255	43.986	166.406	233.762	180.858	200.789	7.9154e-05	0.0016195	0.00047474	494.09	1.6529e-05	3.3471e-05	801.63	186.13	1.9976e-05	2.4162e-05	316.04	127.56	65.029	24.877	3.6243e-05	58.192	0.021237	0.022405	0.0062852	1825	0.00024521	0.00024658	1764.7	531.25	0.0002452	0.00024777	880.13	316.28	406.35	87.952	0.00024679	141.32	250.057	-19.983	242.096	-66.241	17.269	63.746	-66.786	-62.229	3.663	55.919	-63.756	-59.234	-59.383	-54.722	166.581	-56.802	-8191	255	
11732.171	1	1	0	0	0.067738	0.36766	0.13444	0.43441	0.03799	0.13241	0.34547	0.046617	0.12808	0.16526	0.11418	0.27812	0.0064922	0.15663	0.10364	0.1428	-3.2125	-2.9542	-3.6833	-3.1479	-3.1542	-3.7208	-3.0833	-3.3646	-3.4938	-2.9979	-3.6833	-3.3521	-3.0292	-3.8021	-3.1646	-3.4313	190.943	59.058	257.872	141.441	-14.106	201.699	183.506	-26.802	-40.878	199.767	105.988	189.673	173.712	213.806	-50.039	119.992	0.00020273	0.0017437	0.0010524	506.98	1.5656e-05	4.857e-05	804.19	184.46	1.9137e-05	1.2492e-06	313.06	126.46	66.27	24.902	1.552e-05	56.929	0.02124	0.022518	0.0063299	1828.7	0.00024568	0.000248	1772.6	533.53	0.00024613	0.0002495	883.54	315.4	407.32	88.473	0.00024939	141.49	202.284	224.252	168.945	-65.635	231.886	-71.114	-66.693	-62.305	108.313	114.635	-63.682	-60.607	-60.322	-55.235	188.242	-56.978	-8191	255	
11732.245	1	1	0	0	0.063248	0.22207	0.089468	0.090318	0.22877	0.15904	0.070018	0.14074	0.18439	0.06539	0.17776	0.077767	0.17009	0.13418	0.07847	0.31007	-3.3625	-3.1229	-3.4792	-3.4896	-3.0563	-3.8104	-3.25	-3.3271	-3.825	-3.0125	-3.6208	-3.6896	-3	-3.9625	-3.2875	-3.3688	129.192	16.890	203.179	107.170	79.737	-5.565	150.380	228.595	210.433	11.407	-51.585	190.370	99.363	238.458	229.014	224.231	9.9436e-05	0.0018046	0.0013835	492.59	2.9619e-05	3.6338e-05	801.84	185.65	2.5575e-05	6.7401e-05	309.33	126.63	63.809	24.953	6.6283e-05	57.037	0.021538	0.022935	0.0063958	1836.2	0.00024786	0.00025036	1770.9	532.19	0.00024731	0.00025076	881.54	314.86	408.59	88.94	0.00024912	141.43	146.254	-47.513	-74.580	-65.837	-68.949	213.061	-67.204	-62.386	-77.912	120.625	-63.630	-60.950	-59.242	-54.559	89.332	-56.887	-8191	255	
11732.341	1	1	0	0	0.017111	0.15536	0.048136	0.046288	0.24539	0.16283	0.03468	0.073918	0.046373	0.064573	0.19643	0.16914	0.20752	0.19428	0.091478	0.29042	-3.3312	-2.9708	-3.5292	-3.6229	-3.0333	-3.6979	-3.2792	-3.2083	-3.6688	-3.1854	-3.5875	-3.6771	-3.0542	-3.7771	-3.4896	-3.2667	71.076	154.182	-11.236	52.553	48.593	229.295	143.049	113.458	-54.282	231.374	222.439	133.782	114.296	229.959	104.930	182.781	0.00047413	0.0029231	0.00093071	498.73	3.8991e-05	2.4537e-05	796	185.32	2.889e-05	2.4828e-05	315.85	126.07	64.555	24.985	5.7161e-05	57.376	0.021652	0.023097	0.0064036	1833	0.00024778	0.00024992	1761.4	527.81	0.00024552	0.00024876	876.23	312.25	405.28	88.258	0.00024493	139.58	149.476	6.110	-64.556	-65.698	270.880	29.982	-66.771	-62.467	-14.413	236.144	-64.287	-60.087	-57.796	-55.355	200.176	-57.175	-8191	255	
11732.460	1	1	0	0	0.043271	0.12584	0.10461	0.079049	0.084849	0.15784	0.091561	0.13939	0.11325	0.25733	0.27421	0.064765	0.073939	0.24399	0.2836	0.15146	-3.4229	-2.9896	-3.3063	-3.7229	-3.0062	-3.7083	-3.4854	-3.3146	-3.8125	-3.2542	-3.5396	-3.7917	-3.0542	-3.5438	-3.4958	-3.2396	61.059	49.974	27.194	176.376	271.186	127.552	242.033	245.282	171.086	61.073	158.789	3.297	84.362	275.690	48.030	125.019	0.0001235	0.0090247	0.00027386	493.43	1.7585e-05	4.468e-05	803.52	185.9	1.4253e-05	1.2589e-05	314.3	126.86	65.713	25.395	4.3925e-05	56.964	0.021288	0.022711	0.0062857	1812.4	0.00024586	0.00024846	1753	526.3	0.00024487	0.00024775	873.31	312.69	406.26	88.075	0.0002443	139.91	217.160	-23.921	-43.172	-65.045	100.677	89.273	-66.706	-62.420	7.171	86.565	-63.798	-60.746	-59.730	-55.160	-9.462	-56.926	-8191	255	
11732.556	1	1	0	0	0.019436	0.061173	0.21118	0.12146	0.012261	0.22238	0.17229	0.21515	0.18403	0.21567	0.017352	0.14936	0.18371	0.139	0.27895	0.057156	-3.3125	-3.2938	-3.2	-3.7729	-2.9896	-3.5646	-3.5792	-3.075	-3.6521	-3.2854	-3.0979	-3.7708	-3.0521	-3.5104	-3.6042	-3.025	-47.974	163.477	129.790	217.320	270.647	259.918	249.423	218.028	176.559	63.938	138.753	118.935	273.011	139.260	41.669	200.591	0.00033508	0.0036606	0.00062535	499.84	1.9826e-05	4.1422e-05	795.62	185.58	2.503e-05	8.3256e-05	309.09	125.05	67.734	25.379	1.869e-05	56.298	0.021374	0.0227	0.0062733	1814.5	0.00024683	0.00024862	1747.8	525.62	0.00024568	0.00024785	866.16	310.73	405.9	87.605	0.0002423	139.38	197.372	26.764	200.934	-65.573	29.143	74.455	-66.538	-62.203	138.683	188.725	-64.041	-60.378	-59.702	-55.483	23.240	-57.694	-8191	255	
11732.652	1	1	0	0	0.17857	0.065024	0.198	0.12281	0.012064	0.15544	0.056632	0.30969	0.069239	0.15292	0.26961	0.23001	0.27304	0.14799	0.18054	0.18248	-3.3625	-3.275	-2.9583	-3.7062	-2.9146	-3.475	-3.6667	-2.9479	-3.4875	-3.3833	-3.25	-3.8354	-3.175	-3.2104	-3.7708	-3.2208	139.022	142.842	264.046	262.672	126.306	62.829	194.786	143.585	58.791	279.667	232.634	276.910	216.828	-57.690	112.049	126.484	0.0002671	0.0060243	0.0013301	496.36	3.6158e-05	6.9522e-05	790.38	185.38	9.9241e-06	3.4459e-05	305.82	125.04	64.367	25.192	4.8307e-05	56.797	0.021372	0.022512	0.0062161	1811.7	0.00024617	0.00024697	1738.6	526.82	0.00024785	0.00024788	869.3	313.94	410.38	88.288	0.00024646	141.63	193.692	37.676	10.674	-64.842	159.402	5.885	-67.146	-61.711	153.139	38.273	-63.888	-59.729	-58.962	-54.727	64.981	-56.826	-8191	255	
11732.773	1	1	0	0	0.079511	0.37181	0.12391	0.097809	0.012414	0.14018	0.16542	0.091942	0.19755	0.17008	0.11142	0.1254	0.11592	0.054911	0.10089	0.12599	-3.1896	-3.4437	-3.0354	-3.7687	-3.1354	-3.4833	-3.9167	-3.1708	-3.6437	-3.5458	-3.0917	-3.7104	-3.3625	-3.2583	-3.8667	-3.0083	146.705	111.010	189.575	-8.374	-50.144	143.098	157.502	32.759	245.354	238.798	208.922	261.603	33.567	-45.859	9.524	62.928	0.00054677	0.002902	0.00056067	494.55	2.0627e-05	7.5663e-06	794.03	183.49	1.0115e-05	6.6327e-05	310.01	125.37	67.265	25.379	5.7975e-05	57.272	0.021856	0.022957	0.0063696	1845.6	0.0002514	0.00025142	1763.7	536.05	0.00025274	0.00025263	884.03	319.1	415.75	89.228	0.0002496	142.62	240.106	180.338	124.430	-64.774	205.892	230.509	-66.507	-61.660	125.900	87.904	-63.867	-59.843	-59.184	-54.845	136.149	-56.423	-8191	255	
11732.844	1	1	0	0	0.15016	0.21331	0.10017	0.18522	0.16853	0.11395	0.22237	0.11635	0.16352	0.32573	0.05256	0.26867	0.086135	0.2976	0.060356	0.16877	-3.2042	-3.6583	-3.1375	-3.7708	-3.2208	-3.225	-3.9188	-3.0812	-3.5687	-3.7729	-3.1146	-3.7188	-3.1937	-3.2896	-3.7917	-3.1562	244.273	138.987	247.021	66.426	146.843	-70.650	189.285	-20.954	51.555	15.501	218.632	207.731	104.725	102.774	-21.600	212.045	0.00017918	0.00074892	0.001657	494.55	6.1426e-06	1.5998e-05	797.63	182.97	3.1413e-05	1.2667e-05	312.48	126.16	67.918	25.334	3.0323e-05	56.391	0.021968	0.023003	0.0063945	1852.1	0.0002514	0.00025068	1770.1	535.57	0.00025045	0.00024992	884.34	318.05	411.13	88.127	0.00024805	141.44	188.375	16.367	69.606	-64.501	104.353	182.490	-66.733	-62.336	145.786	56.027	-63.424	-59.955	-59.190	-55.796	-23.169	-57.418	-8191	255	
11732.940	1	1	0	0	0.20049	0.034701	0.15753	0.10951	0.01651	0.19886	0.25924	0.16	0.16331	0.3036	0.15901	0.25587	0.12453	0.33807	0.092918	0.21413	-2.9313	-3.3792	-3.2146	-3.7375	-3.4875	-3.2354	-3.6146	-3.2104	-3.2604	-3.6833	-2.9229	-3.6854	-3.2854	-3.1	-3.8417	-3.0208	273.794	132.795	270.304	-27.025	130.298	49.228	-37.000	265.962	116.095	58.404	244.479	277.443	262.738	249.306	95.321	119.857	0.00069027	0.0040424	0.00090164	501.37	2.5541e-05	2.4646e-05	797.37	184.95	1.1723e-05	4.8079e-05	309.11	125.33	66.122	25.209	6.1793e-05	56.945	0.021581	0.022664	0.0063382	1834.4	0.00024699	0.00024672	1756.4	532.08	0.00024654	0.00024779	875.88	316.33	406.21	87.794	0.00024657	141.03	213.179	-73.815	17.741	-65.109	88.123	-57.150	-66.216	-61.756	0.361	139.701	-63.585	-59.775	-57.938	-55.547	76.330	-56.932	-8191	255	
11733.061	1	1	0	0	0.18634	0.16762	0.2263	0.16874	0.23189	0.11633	0.077046	0.17711	0.22959	0.10786	0.26019	0.087446	0.12808	0.26882	0.1954	0.20703	-2.9229	-3.5229	-2.9229	-3.5896	-3.4771	-2.9771	-3.875	-3.1333	-3.1417	-3.7958	-3.1146	-3.5729	-3.7146	-3.0271	-3.8271	-3.3271	7.714	119.686	43.573	259.011	243.389	-75.449	155.693	226.049	-60.764	42.785	-69.298	135.950	86.847	-12.671	6.011	140.261	0.00038153	0.0045016	0.00026038	494.32	8.632e-06	1.9316e-05	796.56	183.78	2.2942e-05	2.2923e-05	306.42	126.66	65.736	24.847	2.1914e-05	57.31	0.021364	0.022545	0.0063335	1831.2	0.00024604	0.00024701	1762.4	530.2	0.00024462	0.0002474	876.35	315.19	405.41	87.962	0.00024726	141.32	225.464	29.170	194.255	-66.010	166.658	-65.129	-66.692	-62.362	202.540	254.438	-64.019	-60.123	-58.651	-54.970	32.295	-56.707	-8191	255	
11733.157	1	1	0	0	0.29703	0.071201	0.06188	0.06368	0.10177	0.1404	0.29561	0.14568	0.21794	0.10111	0.083476	0.16448	0.13506	0.15642	0.18291	0.08149	-2.7521	-3.6271	-3.0354	-3.4062	-3.6208	-3.0938	-3.7646	-3.5771	-3.0563	-3.7896	-3.2729	-3.4104	-3.5438	-2.9333	-3.6146	-3.3542	245.742	2.411	-79.327	21.882	10.070	205.894	274.602	222.331	-44.809	-5.433	-72.226	176.854	-40.540	169.349	166.537	43.969	0.00023266	0.0060708	0.00038894	492.71	2.34e-05	1.2079e-05	800.53	184.01	2.739e-05	5.5322e-05	308.55	126.81	68.16	24.879	7.5958e-06	58.455	0.021382	0.022697	0.0063675	1835.2	0.00024686	0.00024975	1774.2	534.12	0.00024805	0.00025185	890.06	319.12	410.25	89.444	0.0002521	143.2	118.490	45.031	271.925	-65.594	105.588	38.458	-65.828	-62.403	209.414	181.799	-63.430	-59.941	-58.410	-55.331	165.811	-57.066	-8191	255	
11733.252	1	1	0	0	0.10194	0.28187	0.12342	0.23409	0.10304	0.17279	0.05517	0.031527	0.19616	0.14282	0.19905	0.3347	0.35079	0.057574	0.11897	0.15859	-2.4896	-3.6958	-3.1083	-3.2438	-3.6646	-2.9875	-3.6562	-3.4521	-2.9042	-3.8104	-3.4354	-3.1562	-3.7687	-3.0542	-3.5458	-3.6229	-40.478	-23.160	162.278	244.834	237.964	-40.806	265.199	-33.037	230.780	85.815	-20.849	219.524	-68.619	178.173	-58.040	-59.029	0.00020919	0.0023795	0.00037833	501.32	3.9641e-05	5.1998e-05	794.01	186.6	2.904e-05	3.7193e-05	310.65	126.66	65.838	24.931	5.6009e-05	57.592	0.021795	0.023344	0.0064952	1860.6	0.00025099	0.00025471	1793.3	537.61	0.00025093	0.00025543	894.45	318.87	413.04	90.091	0.00025286	143.08	265.493	-69.541	166.461	-65.146	-76.742	-78.051	-66.245	-62.051	221.666	232.011	-63.656	-59.958	-59.265	-55.771	80.511	-57.018	-8191	255	
11733.350	1	1	0	0	0.24374	0.1236	0.17551	0.068424	0.18407	0.13142	0.33398	0.1575	0.23631	0.25863	0.16252	0.29658	0.19985	0.17957	0.2038	0.059177	-2.4479	-3.575	-3.2104	-3.175	-3.8312	-3.1729	-3.6667	-3.6625	-3.1521	-3.8312	-3.2771	-3.3229	-3.8	-3.0687	-3.4479	-3.7917	-69.209	72.581	115.224	263.820	-17.526	179.852	246.745	171.615	153.049	37.157	98.575	-45.504	40.937	178.631	-72.708	125.738	0.00068381	0.0034484	0.00016941	497.08	1.392e-05	2.6772e-05	796.36	183.94	3.9692e-05	1.7198e-05	316.6	126.3	64.567	25.456	3.9719e-05	58.075	0.021902	0.023431	0.0065247	1857.5	0.00025298	0.00025525	1786.7	536.39	0.00025132	0.00025487	888.39	317.92	412.97	89.603	0.00025037	142.02	168.368	-37.058	-40.024	-65.307	54.591	100.255	-66.640	-61.767	205.577	-25.406	-62.499	-60.033	-56.770	-55.185	93.974	-57.212	-8191	255	
11733.468	1	1	0	0	0.24179	0.088987	0.13364	0.32961	0.083331	0.081711	0.11284	0.19725	0.049189	0.11886	0.17774	0.32002	0.021839	0.15957	0.25475	0.1105	-2.6063	-3.7188	-3.3417	-2.9958	-3.8583	-3.2083	-3.4562	-3.7708	-3.2229	-3.6875	-3.5833	-3.1208	-3.7479	-3.2208	-3.2708	-3.8208	255.252	125.706	202.080	250.140	110.005	179.396	-75.640	267.236	138.838	16.701	171.012	269.453	21.009	-71.260	-64.896	230.555	0.00061189	0.0070192	0.00068529	495.22	1.8498e-05	3.1899e-05	806.06	186.11	1.058e-05	2.8729e-05	311.77	127.42	66.929	25.465	2.9762e-05	58.231	0.021724	0.023085	0.0063921	1835.3	0.00024962	0.00025215	1773.9	531.97	0.00024997	0.0002532	882.82	317.31	412.52	89.459	0.00024905	142.39	76.354	-57.149	-10.890	-65.724	-54.486	-0.600	-66.754	-61.787	-25.849	207.113	-63.077	-59.714	-57.800	-55.356	-20.962	-56.509	-8191	255	
11733.540	1	1	0	0	0.1543	0.17057	0.098878	0.066247	0.062687	0.12446	0.15699	0.073612	0.29415	0.11791	0.2441	0.27264	0.021148	0.26091	0.20291	0.10012	-2.6063	-3.6958	-3.4667	-2.9167	-3.6896	-3.2354	-3.2938	-3.7708	-3.1	-3.5292	-3.5687	-3.0625	-3.8667	-3.5	-3.1854	-3.8083	230.765	119.006	141.467	245.969	74.905	188.716	123.595	215.070	252.773	43.567	264.132	-44.927	67.375	213.558	-63.660	276.901	5.8958e-05	0.0048134	0.00069703	501.94	4.7556e-05	1.8066e-05	804.32	184.9	2.7577e-05	3.2843e-05	317.21	127.46	64.962	25.275	4.0959e-05	58.768	0.021722	0.023052	0.0063694	1834.3	0.00025056	0.00025224	1768.5	532.89	0.00024901	0.00025168	882.6	317.37	412.94	89.244	0.00024723	142.49	-69.360	-74.759	11.865	-64.566	50.058	241.433	-66.243	-61.948	218.542	6.190	-63.532	-59.524	-58.869	-54.360	243.547	-56.808	-8191	255	
11733.636	1	1	0	0	0.065071	0.20851	0.057721	0.095674	0.049206	0.24546	0.27553	0.17103	0.15343	0.050882	0.012422	0.098602	0.16783	0.14543	0.066076	0.16635	-2.5667	-3.4104	-3.5125	-2.8979	-3.6562	-3.2021	-3.1583	-3.8771	-2.9854	-3.4083	-3.7104	-2.9958	-3.6729	-3.3688	-2.8688	-3.7958	64.805	127.504	-14.826	242.055	151.533	-58.095	182.864	21.156	119.416	126.630	99.610	143.723	270.646	144.283	49.031	147.296	0.00033115	0.0074198	0.0012196	492.66	1.8376e-05	6.6372e-05	795.29	186.7	2.0525e-05	6.6756e-05	313.99	126.05	66.295	25.284	3.0009e-05	57.852	0.02174	0.022968	0.006333	1828.8	0.00025074	0.00025143	1764	533.8	0.00025184	0.00025321	884.28	319	416.54	89.782	0.00025055	143.78	-20.001	-74.810	82.741	-65.277	44.713	-13.177	-66.947	-61.573	89.867	80.569	-63.325	-60.470	-60.150	-55.586	27.958	-57.518	-8191	255	
11733.757	1	1	0	0	0.3727	0.14184	0.02899	0.095446	0.27598	0.11357	0.24784	0.16228	0.123	0.37533	0.19502	0.18035	0.14157	0.15406	0.13523	0.037208	-2.6479	-3.3208	-3.5062	-3.0646	-3.7354	-3.5021	-3.0938	-3.5729	-2.9896	-3.2646	-3.7229	-2.9021	-3.4979	-3.6896	-3.0521	-3.8312	-57.777	267.623	96.101	190.842	222.875	52.043	178.891	251.600	237.166	-26.833	161.463	269.126	-73.508	206.137	133.733	266.460	0.00074831	0.00258	0.0013129	491.17	1.4791e-05	6.8783e-05	788.29	185.02	3.9611e-05	2.8446e-05	307.47	126.7	66.656	25.372	3.0357e-05	58.231	0.022107	0.023295	0.0064734	1860.1	0.0002561	0.00025597	1786.7	541.11	0.00025634	0.00025737	896.03	323.46	422.25	90.491	0.00025367	145.26	-57.867	275.709	181.391	-65.391	-10.194	87.727	-66.913	-62.383	-73.452	32.616	-64.225	-60.654	-59.817	-56.303	228.227	-57.198	-8191	255	
11733.853	1	1	0	0	0.17601	0.080739	0.13619	0.11545	0.10695	0.16043	0.14078	0.10231	0.36466	0.19075	0.20829	0.18969	0.058492	0.25429	0.19292	0.076716	-3.0375	-3.2667	-3.6437	-2.9583	-3.5687	-3.7313	-3.0667	-3.5646	-3.2313	-3.1583	-3.7667	-3.1042	-3.4896	-3.5792	-2.9313	-3.6937	-67.589	159.153	126.377	264.713	12.846	-24.104	-76.411	237.414	162.780	163.480	256.855	-23.205	208.247	-1.374	211.270	-72.030	0.0003265	0.0044902	0.00063224	490.04	6.0987e-05	2.2232e-05	794.9	184.46	3.5501e-05	5.2129e-05	311.48	128.48	64.177	25.132	3.3968e-05	58.446	0.022301	0.023398	0.0065179	1880.1	0.00025612	0.00025561	1790	542.94	0.00025378	0.00025494	895.71	322.54	418.89	89.887	0.0002519	145.01	98.212	34.663	129.863	-65.961	157.795	143.935	-67.069	-62.774	233.157	80.288	-64.354	-60.852	-59.541	-55.639	17.946	-57.131	-8191	255	
11733.949	1	1	0	0	0.20107	0.12319	0.17902	0.03829	0.14335	0.079652	0.3119	0.097807	0.24646	0.13126	0.26094	0.13476	0.14248	0.019955	0.059153	0.20913	-2.8563	-2.95	-3.7229	-3.1125	-3.1604	-3.6167	-3.1646	-3.4542	-3.2979	-3.0146	-3.8208	-3.1562	-3.2354	-3.5812	-3.0563	-3.75	-56.910	77.721	117.160	52.671	-73.929	-61.575	167.416	251.249	-73.077	277.702	227.255	211.130	25.177	171.798	77.313	238.054	0.00019025	0.0060487	0.00049266	497.67	5.102e-05	5.2927e-05	798.4	184.41	2.9355e-05	1.6899e-05	313.72	126.27	65.289	25.357	2.0157e-05	58.201	0.021984	0.023124	0.0064615	1862.4	0.00025267	0.00025194	1782.7	540.14	0.00025047	0.0002515	889.4	320.09	413.23	89.05	0.00025028	143.38	247.730	-2.082	40.968	-64.720	66.362	224.825	-66.850	-62.028	247.436	80.037	-63.725	-60.320	-59.237	-55.621	174.643	-57.400	-8191	255	
11734.045	1	1	0	0	0.059661	0.037174	0.21958	0.080415	0.21066	0.14003	0.21211	0.21776	0.18196	0.11775	0.12405	0.19271	0.098092	0.26928	0.19818	0.22415	-3.1396	-2.95	-3.8	-3.15	-3.0438	-3.875	-3.1875	-3.4479	-3.5062	-3.1271	-3.9104	-3.5375	-2.9146	-3.6854	-3.0062	-3.4583	268.470	230.905	188.609	172.297	-7.043	-23.341	213.462	215.798	219.511	80.843	-20.383	183.885	27.284	31.618	117.210	135.609	0.00010484	0.00164	0.00040381	495.19	1.2249e-05	3.2155e-05	795.93	186.54	4.188e-05	3.5647e-05	308.95	127.35	66.483	25.456	3.8173e-05	58.242	0.021702	0.022875	0.0064212	1846.8	0.00024999	0.0002507	1771.6	536.22	0.0002487	0.00025088	883.47	318.34	410.8	88.912	0.00025015	143.02	29.480	-17.271	135.863	-65.410	54.530	-63.987	-67.001	-62.221	51.308	98.419	-63.945	-60.422	-59.612	-54.840	27.319	-56.986	-8191	255	
11734.141	1	1	0	0	0.084236	0.26691	0.13896	0.09852	0.16523	0.061632	0.043037	0.3432	0.13153	0.23633	0.30047	0.056397	0.14079	0.23343	0.28203	0.04123	-3.1104	-3	-3.5938	-3.3271	-3.25	-3.7646	-3.0833	-3.3937	-3.7625	-3.1146	-3.4979	-3.4958	-2.8229	-3.6646	-3.0896	-3.2625	268.574	-69.321	266.264	9.526	264.670	-20.879	188.891	190.670	229.760	212.349	188.321	194.569	261.852	150.135	190.842	168.668	0.00062449	0.0026436	0.00092304	492.18	3.5665e-05	3.6815e-05	794.92	185.48	1.9063e-05	1.8123e-05	308.49	126.4	65.451	25.165	1.3491e-05	58.746	0.021599	0.022904	0.0064331	1844	0.00024906	0.00025069	1774.9	534.97	0.00024877	0.00025331	893.72	320.26	414.24	90.058	0.00025417	144.12	52.469	276.671	235.544	-65.681	262.473	-51.707	-66.386	-61.958	161.392	255.446	-64.060	-60.791	-57.603	-55.071	-66.103	-57.057	-8191	255	
11734.238	1	1	0	0	0.24478	0.11663	0.19293	0.18906	0.14483	0.23013	0.09231	0.16993	0.070632	0.27999	0.11559	0.14042	0.23448	0.066157	0.15061	0.32836	-3.2625	-2.75	-3.4396	-3.2667	-3.0979	-3.7167	-3.325	-3.2208	-3.7146	-2.9313	-3.5521	-3.6437	-3.1125	-3.6688	-3.1354	-3.1771	-66.683	-7.222	-10.232	179.092	67.939	78.213	126.341	210.198	-8.001	250.477	30.208	180.532	102.540	155.438	131.899	255.849	0.00098171	0.0029963	0.0014378	492.51	4.6091e-05	1.5626e-05	802.09	186.41	7.1603e-06	5.1516e-05	311.05	127.7	66.533	25.372	4.0925e-05	57.886	0.021911	0.023448	0.0065721	1870.6	0.00025343	0.0002572	1800.4	542.15	0.00025292	0.00025823	903.5	322.67	419.58	91.016	0.00025629	144.87	34.368	134.302	175.513	-66.011	132.940	112.817	-66.849	-61.587	194.331	155.442	-63.982	-60.699	-58.551	-56.101	82.522	-56.457	-8191	255	
11734.332	1	1	0	0	0.023446	0.069781	0.19185	0.04862	0.22032	0.12582	0.077475	0.085346	0.15815	0.28597	0.24532	0.020747	0.087837	0.12633	0.067159	0.30251	-3.25	-2.9625	-3.4292	-3.4813	-2.875	-3.7479	-3.4396	-3.2417	-3.7917	-3.1521	-3.5354	-3.6542	-2.9708	-3.7292	-3.3958	-3.2458	6.326	69.502	141.874	-43.670	-25.144	-63.395	220.882	-23.263	184.360	266.880	214.702	-50.029	-57.527	-18.116	-64.976	19.620	0.00085881	0.002875	0.00062636	493.82	1.1094e-05	3.7989e-05	779.83	185.24	4.1128e-05	8.8968e-06	310.4	124.54	65.623	25.396	5.8305e-05	57.906	0.022201	0.023675	0.0066006	1871.9	0.00025597	0.00025949	1790.4	539.9	0.00025444	0.00025736	894.42	318.9	416.62	90.475	0.00025165	143.05	147.665	-72.715	258.505	-65.930	-34.577	137.056	-66.756	-62.016	56.506	260.369	-63.499	-59.806	-58.941	-55.245	56.707	-57.294	-8191	255	
11734.430	1	1	0	0	0.1232	0.14343	0.15195	0.091799	0.061914	0.066613	0.071802	0.17675	0.11486	0.15809	0.19661	0.085613	0.26877	0.088349	0.05916	0.36766	-3.4208	-3.0187	-3.225	-3.6979	-2.9813	-3.5917	-3.5417	-3.1	-3.7542	-3.1021	-3.4271	-3.7062	-3.1875	-3.5958	-3.4313	-2.9458	113.460	226.540	-37.388	144.751	-17.209	217.810	40.088	42.528	106.882	264.294	247.305	218.988	235.887	79.272	24.173	166.779	0.00016982	0.0029603	0.0015289	483.61	3.6713e-05	3.3224e-05	789.72	182.01	1.4025e-05	4.5305e-05	310.23	125.56	66.709	25.405	5.2248e-05	58.306	0.021897	0.023295	0.0064498	1841.7	0.00025132	0.00025469	1770.4	533.08	0.00025075	0.00025403	882.78	316.7	413.16	89.813	0.00024902	142.35	150.564	13.955	194.461	-65.514	129.423	5.661	-66.644	-62.169	-32.018	138.346	-63.335	-60.460	-58.634	-55.506	22.863	-56.844	-8191	255	
11734.549	1	1	0	0	0.16306	0.070176	0.25622	0.19742	0.16622	0.16528	0.15311	0.32948	0.13486	0.14264	0.25807	0.16808	0.10721	0.028144	0.13844	0.18889	-3.2479	-3.2167	-3.0854	-3.7229	-2.9375	-3.6292	-3.4583	-3.1646	-3.6688	-3.2667	-3.2354	-3.7583	-3.0396	-3.5646	-3.6396	-3.2333	237.653	49.521	252.676	-72.029	55.934	-7.249	147.593	-75.907	274.413	48.643	241.231	41.960	104.479	-50.142	-18.992	164.171	0.00045453	0.0016665	0.00051016	490.51	4.3268e-05	2.9355e-05	798.02	182.26	2.3777e-05	1.2036e-05	316.6	127.15	63.915	25.43	3.4957e-05	59.025	0.021816	0.023124	0.0063948	1835.4	0.00025137	0.0002534	1763.6	531.63	0.0002511	0.00025288	884	317.5	414.22	89.576	0.00024815	143	197.103	234.230	157.180	-66.280	90.335	14.258	-67.124	-62.289	-63.651	-26.817	-64.113	-60.115	-59.101	-55.242	123.685	-57.559	-8191	255	
11734.645	1	1	0	0	0.23006	0.038378	0.14921	0.23753	0.061736	0.16371	0.23834	0.15513	0.064475	0.076815	0.15265	0.038078	0.079073	0.059894	0.092438	0.09202	-3.3312	-3.5833	-2.9708	-3.6542	-3.0687	-3.4688	-3.7333	-3.0583	-3.6021	-3.4458	-3.2208	-3.6979	-3.2562	-3.4292	-3.6	-2.9688	125.177	253.383	-24.323	256.847	-27.784	-45.413	-37.582	179.859	243.901	105.521	-40.966	248.581	160.677	173.428	45.753	151.151	0.0002353	0.0048974	0.00032775	488.98	3.3854e-05	4.6073e-05	792.75	183.43	5.8232e-05	1.3525e-05	311.1	127.29	66.362	25.767	1.2655e-05	57.983	0.021887	0.022996	0.0063646	1834	0.00025114	0.000252	1760.2	534.63	0.0002516	0.00025342	885.52	320.25	416.97	89.599	0.00024938	143.56	-27.209	276.245	-11.718	-66.227	251.548	-47.349	-66.537	-62.391	202.353	-76.146	-63.621	-60.248	-58.901	-55.095	59.160	-57.154	-8191	255	
11734.741	1	1	0	0	0.10327	0.099082	0.029358	0.12827	0.305	0.23747	0.062716	0.16569	0.13006	0.17728	0.072922	0.039707	0.12066	0.31659	0.28279	0.12119	-3.1771	-3.4125	-3.0917	-3.8833	-3.3187	-3.2125	-3.7896	-3.1625	-3.5104	-3.5229	-3.0625	-3.8312	-3.1729	-3.2396	-3.6771	-3.175	-30.143	174.750	7.425	245.316	72.662	159.530	185.930	50.932	59.641	151.180	20.484	211.180	148.124	-59.281	23.234	153.068	0.00076693	0.0011075	0.00073604	483.45	3.2055e-05	4.4194e-05	788.5	182.34	1.0835e-05	1.3898e-05	309.58	126.13	65.318	25.332	2.518e-05	57.435	0.022065	0.02318	0.0064387	1862.5	0.00025508	0.00025411	1767.7	536.83	0.00025384	0.00025441	886.27	320.68	418.58	89.637	0.00025062	143.95	129.502	241.412	214.358	-64.845	35.046	-51.990	-66.656	-61.703	234.514	-50.107	-63.400	-60.251	-61.617	-55.673	-59.053	-57.107	-8191	255	
11734.837	1	1	0	0	0.2607	0.17396	0.23093	0.060287	0.11469	0.17102	0.19357	0.050198	0.1081	0.082978	0.2375	0.12285	0.25024	0.11955	0.079011	0.11858	-3.1896	-3.4667	-2.9667	-3.8167	-3.3479	-3.2313	-3.6854	-3.0229	-3.4083	-3.6667	-2.9875	-3.8333	-3.2604	-3.2188	-3.7854	-3.2583	229.063	-17.334	-71.977	144.527	253.973	258.717	205.781	-68.174	7.835	99.941	262.501	219.310	215.517	211.882	-73.677	252.599	5.1542e-05	0.0054231	0.001096	482.18	4.2949e-05	2.8669e-05	786.98	181.55	3.1354e-05	2.3168e-05	306.88	124.83	65.572	24.927	5.0348e-05	57.765	0.022068	0.023121	0.0064539	1864.9	0.00025537	0.00025334	1769.7	537.47	0.00025272	0.00025196	883.12	319.14	413.21	88.71	0.00024938	143	18.285	166.036	126.792	-65.311	97.444	257.577	-66.754	-62.372	76.327	48.870	-63.315	-60.098	-58.386	-54.937	142.629	-56.960	-8191	255	
11734.933	1	1	0	0	0.22002	0.13472	0.17723	0.32619	0.2212	0.23696	0.15218	0.19409	0.11313	0.13286	0.14725	0.18492	0.16655	0.29616	0.2023	0.054521	-3.0104	-3.5896	-3.0708	-3.575	-3.4	-3.0625	-3.7979	-3.1021	-3.2625	-3.7979	-3.2604	-3.7896	-3.5333	-3.0292	-3.8187	-3.2667	221.583	43.544	99.253	144.241	167.372	-72.808	-51.988	213.081	264.014	212.350	-46.053	150.704	223.833	-53.379	217.253	102.151	0.00050441	0.0046667	0.0013141	482.41	2.5663e-05	8.7141e-05	787.7	181.38	3.6921e-05	4.3e-05	307.97	125.94	66.839	24.728	3.3777e-05	57.933	0.021715	0.022874	0.0063794	1838.5	0.00024958	0.000249	1761.6	533.22	0.00024849	0.00024944	878.04	317.66	408.72	88.168	0.0002479	142.48	167.932	44.816	102.379	-66.545	275.605	16.664	-66.175	-62.155	64.232	59.067	-64.292	-60.295	-58.667	-55.292	-2.162	-57.224	-8191	255	
11735.030	1	1	0	0	0.1312	0.08754	0.07615	0.19084	0.17742	0.07958	0.28697	0.11117	0.1183	0.1587	0.095811	0.093499	0.12122	0.27109	0.13698	0.1875	-2.8	-3.7062	-3.1896	-3.7438	-3.5438	-3.0708	-3.8229	-3.3021	-3.3583	-3.9354	-2.9604	-3.4479	-3.45	-2.9146	-3.7021	-3.3438	136.739	275.914	237.143	-17.268	33.385	161.349	225.032	106.218	-71.140	172.104	90.579	-66.048	-59.486	198.502	7.704	211.530	0.00020787	0.0027099	0.0010018	482.31	2.5275e-05	7.8606e-05	788.96	181.46	8.7768e-06	4.3987e-05	307.01	126.37	64.707	25.248	1.5953e-06	57.044	0.021524	0.022627	0.006361	1828.3	0.0002466	0.00024767	1754	528.08	0.00024483	0.00024664	871.97	314.14	403.47	87.63	0.00024623	140.67	19.974	99.124	270.853	-65.162	183.667	130.228	-66.256	-61.463	-0.863	-69.045	-63.263	-59.998	-57.962	-55.547	16.724	-56.863	-8191	255	
11735.150	1	1	0	0	0.10443	0.16739	0.119	0.050964	0.15129	0.099211	0.061415	0.025603	0.16422	0.13976	0.16544	0.060779	0.073135	0.36502	0.19462	0.26354	-2.7604	-3.6771	-3.0563	-3.425	-3.4396	-2.7333	-3.7562	-3.4562	-3.1354	-3.9062	-3.2958	-3.3521	-3.6125	-2.9167	-3.6208	-3.5458	5.223	-22.884	277.895	-72.978	207.307	6.753	204.594	184.740	134.635	51.235	142.692	174.246	11.642	207.352	170.202	-39.838	0.00054223	0.0040648	0.0016769	481.66	1.6731e-05	6.1508e-05	788.23	181.15	1.3692e-05	2.97e-05	309.38	126.37	65.138	25.135	2.9404e-05	57.468	0.02123	0.022521	0.0063168	1813.4	0.00024431	0.00024628	1747.8	525.64	0.000244	0.0002481	876.9	315.81	406.87	88.567	0.0002494	142.09	247.637	170.940	13.447	-65.479	-18.274	158.239	-66.293	-62.310	-26.127	99.973	-63.515	-60.233	-60.798	-54.786	127.803	-56.901	-8191	255	
11735.245	1	1	0	0	0.19537	0.10706	0.17831	0.14378	0.22088	0.098027	0.035047	0.096817	0.23492	0.33037	0.27311	0.18758	0.048899	0.091405	0.061253	0.10575	-2.6063	-3.5625	-3.0729	-3.2146	-3.6646	-3.0208	-3.8021	-3.5438	-2.8729	-3.7458	-3.2479	-3.2917	-3.775	-3.1854	-3.6562	-3.8542	3.897	165.804	25.968	94.401	124.479	-19.003	168.651	200.087	125.847	230.478	247.039	277.436	-3.544	173.178	236.920	230.072	0.0008019	0.0016179	0.00084944	481.26	4.9551e-06	2.8576e-05	785.48	180.94	3.2986e-05	1.5459e-05	313.98	125.51	65.703	24.893	3.3005e-05	58.356	0.021592	0.022926	0.0064276	1836.4	0.00024964	0.00025201	1768.2	530.82	0.00024909	0.00025333	887.14	318.59	412.58	89.656	0.00025176	142.82	204.999	-29.207	116.210	-65.825	237.220	86.271	-66.656	-61.582	162.296	163.893	-63.278	-59.926	-58.533	-54.705	195.946	-56.819	-8191	255	
11735.341	1	1	0	0	0.21209	0.035876	0.087806	0.12918	0.23793	0.063905	0.077789	0.15235	0.17307	0.10171	0.1276	0.01689	0.12118	0.26327	0.17083	0.40616	-2.7354	-3.5563	-3.2271	-3.1813	-3.6937	-3.0312	-3.4313	-3.6208	-2.9104	-3.7854	-3.3083	-3.0667	-3.7083	-3.2104	-3.4021	-3.7146	55.234	134.606	96.864	-0.604	148.988	252.632	92.511	59.345	54.526	85.426	42.011	139.130	159.329	216.798	-29.092	236.925	0.00063968	0.00084601	0.001549	489.15	3.3516e-05	4.1478e-05	792.07	183.8	3.6618e-05	3.5462e-05	313.97	126.53	65.428	25.376	2.4602e-05	58.382	0.021842	0.023253	0.0064742	1844.4	0.00025224	0.00025467	1782.8	533.37	0.00025022	0.00025425	887.27	317.28	411.95	89.503	0.00025004	142.17	107.236	213.632	30.375	-66.664	71.997	271.081	-66.205	-62.295	152.746	-54.666	-63.602	-60.314	-57.352	-55.314	84.159	-56.958	-8191	255	
11735.437	1	1	0	0	0.16579	0.021754	0.11074	0.29781	0.083948	0.10021	0.12227	0.37441	0.23975	0.070297	0.061137	0.045074	0.47843	0.035301	0.041481	0.31164	-2.7125	-3.6729	-3.3229	-3.1229	-3.7708	-3.1729	-3.5146	-3.7229	-3.0771	-3.7146	-3.6708	-2.9604	-3.775	-3.1021	-3.2896	-3.6688	219.400	246.793	76.048	146.137	-60.571	40.627	-61.634	-75.910	43.351	27.287	167.881	-18.895	123.390	177.962	-39.133	255.022	0.00078991	0.0015448	0.0015221	482.96	2.0153e-05	3.2164e-05	787.94	182.53	7.921e-06	6.5505e-05	307.61	124.57	64.815	25.159	1.2636e-05	58.03	0.021603	0.023008	0.0063664	1819.4	0.00024899	0.00025112	1756.4	526.54	0.00024692	0.00025038	874.78	313.89	408.08	88.782	0.00024614	141.14	41.101	130.088	-8.712	-66.340	-59.526	-40.903	-66.136	-62.074	131.950	18.455	-63.962	-59.381	-60.305	-54.321	112.995	-56.656	-8191	255	
#DATA ENDS
