BOXY.EXE: ISS Imagent and Oximeter Data Acquisition Program Version 0.80
Ascii Record File

#ACQ INFORMATION
2  Detector Channels 
16  External MUX Channels 
1  Auxiliary Channels 
5000  Waveform (CCF) Frequency (Hz)
1  Waveforms Skipped 
30  Waveforms Averaged 
1  Cycles Averaged 
16  Acquisitions per Waveform 
10.0806  Updata Rate (Hz) 

#FILE INFORMATION
TRUE -- External MUX Channel results are PARSED.
FALSE -- AC DC and Phase are NOT grouped.
TRUE -- Companion Program Settings File CREATED.
FALSE -- AC data not excluded
FALSE -- DC data not excluded
FALSE -- Phase data not excluded
FALSE -- Auxillary Chn. data not excluded
Tab delimiters

#CALIBRATION STATE
TRUE -- Waveform Calibration Values APPLIED.


#AUX CALIBRATION VALUES
Val Type	aux-1	

Term	1.0000e+00	
Factor	0.0000e+00	


#WF CALIBRATION VALUES
A = Detector Channel
Val Type	A-AC1	A-AC2	A-AC3	A-AC4	A-AC5	A-AC6	A-AC7	A-AC8	A-AC9	A-AC10	A-AC11	A-AC12	A-AC13	A-AC14	A-AC15	A-AC16	A-DC1	A-DC2	A-DC3	A-DC4	A-DC5	A-DC6	A-DC7	A-DC8	A-DC9	A-DC10	A-DC11	A-DC12	A-DC13	A-DC14	A-DC15	A-DC16	A-Ph1	A-Ph2	A-Ph3	A-Ph4	A-Ph5	A-Ph6	A-Ph7	A-Ph8	A-Ph9	A-Ph10	A-Ph11	A-Ph12	A-Ph13	A-Ph14	A-Ph15	A-Ph16	

Term	0.00000e+00	0.00000e+00	0.00000e+00	0.00000e+00	0.00000e+00	0.00000e+00	0.00000e+00	0.00000e+00	0.00000e+00	0.00000e+00	0.00000e+00	0.00000e+00	0.00000e+00	0.00000e+00	0.00000e+00	0.00000e+00	0.00000e+00	0.00000e+00	0.00000e+00	0.00000e+00	0.00000e+00	0.00000e+00	0.00000e+00	0.00000e+00	0.00000e+00	0.00000e+00	0.00000e+00	0.00000e+00	0.00000e+00	0.00000e+00	0.00000e+00	0.00000e+00	0.00000e+00	0.00000e+00	0.00000e+00	0.00000e+00	0.00000e+00	0.00000e+00	0.00000e+00	0.00000e+00	0.00000e+00	0.00000e+00	0.00000e+00	0.00000e+00	0.00000e+00	0.00000e+00	0.00000e+00	0.00000e+00	
Factor	1.00000e+00	1.00000e+00	1.00000e+00	1.00000e+00	1.00000e+00	1.00000e+00	1.00000e+00	1.00000e+00	1.00000e+00	1.00000e+00	1.00000e+00	1.00000e+00	1.00000e+00	1.00000e+00	1.00000e+00	1.00000e+00	1.00000e+00	1.00000e+00	1.00000e+00	1.00000e+00	1.00000e+00	1.00000e+00	1.00000e+00	1.00000e+00	1.00000e+00	1.00000e+00	1.00000e+00	1.00000e+00	1.00000e+00	1.00000e+00	1.00000e+00	1.00000e+00	X	X	X	X	X	X	X	X	X	X	X	X	X	X	X	X	

B = Detector Channel
Val Type	B-AC1	B-AC2	B-AC3	B-AC4	B-AC5	B-AC6	B-AC7	B-AC8	B-AC9	B-AC10	B-AC11	B-AC12	B-AC13	B-AC14	B-AC15	B-AC16	B-DC1	B-DC2	B-DC3	B-DC4	B-DC5	B-DC6	B-DC7	B-DC8	B-DC9	B-DC10	B-DC11	B-DC12	B-DC13	B-DC14	B-DC15	B-DC16	B-Ph1	B-Ph2	B-Ph3	B-Ph4	B-Ph5	B-Ph6	B-Ph7	B-Ph8	B-Ph9	B-Ph10	B-Ph11	B-Ph12	B-Ph13	B-Ph14	B-Ph15	B-Ph16	

Term	0.00000e+00	0.00000e+00	0.00000e+00	0.00000e+00	0.00000e+00	0.00000e+00	0.00000e+00	0.00000e+00	0.00000e+00	0.00000e+00	0.00000e+00	0.00000e+00	0.00000e+00	0.00000e+00	0.00000e+00	0.00000e+00	0.00000e+00	0.00000e+00	0.00000e+00	0.00000e+00	0.00000e+00	0.00000e+00	0.00000e+00	0.00000e+00	0.00000e+00	0.00000e+00	0.00000e+00	0.00000e+00	0.00000e+00	0.00000e+00	0.00000e+00	0.00000e+00	-2.07275e+01	-1.32847e+02	-1.52787e+02	-1.83875e+02	-6.77554e+01	-5.54330e+01	-1.56919e+02	-1.62015e+02	-3.22664e+01	-7.99954e+01	-1.74562e+02	-1.70840e+02	-1.80437e+02	-1.77427e+02	-6.96928e+01	-1.50391e+02	
Factor	2.96057e-05	1.28999e-04	4.41538e-05	1.97066e-01	1.45415e-06	1.07368e-06	1.67062e-01	5.22067e-02	1.19540e-06	1.26644e-06	1.23098e-01	2.98311e-02	3.04790e-02	9.88491e-03	1.28029e-06	1.43348e-02	1.34528e-06	1.40145e-06	3.88201e-07	9.80757e-02	1.52263e-08	1.53501e-08	7.86761e-02	2.62170e-02	1.51695e-08	1.52930e-08	5.81304e-02	1.43474e-02	1.50814e-02	4.92209e-03	1.51770e-08	6.84804e-03	X	X	X	X	X	X	X	X	X	X	X	X	X	X	X	X	



#DISTANCE SETTINGS
A = Detector Channel
A-1	A-2	A-3	A-4	A-5	A-6	A-7	A-8	A-9	A-10	A-11	A-12	A-13	A-14	A-15	A-16	

2.5000e+00	3.0000e+00	2.5000e+00	3.0000e+00	2.0000e+00	3.0000e+00	1.5000e+00	3.0000e+00	3.0000e+00	3.0000e+00	3.0000e+00	3.0000e+00	3.0000e+00	3.0000e+00	1.5000e+00	3.0000e+00	

B = Detector Channel
B-1	B-2	B-3	B-4	B-5	B-6	B-7	B-8	B-9	B-10	B-11	B-12	B-13	B-14	B-15	B-16	

1.0000e+01	1.0000e+01	1.0000e+01	1.4400e+00	1.0000e+01	1.0000e+01	1.5100e+00	1.9400e+00	1.0000e+01	1.0000e+01	1.9900e+00	2.4900e+00	2.4100e+00	2.9000e+00	1.0000e+01	2.9800e+00	




#DATA BEGINS
time	group	step	mark	flag	A-AC1	A-AC2	A-AC3	A-AC4	A-AC5	A-AC6	A-AC7	A-AC8	A-AC9	A-AC10	A-AC11	A-AC12	A-AC13	A-AC14	A-AC15	A-AC16	A-DC1	A-DC2	A-DC3	A-DC4	A-DC5	A-DC6	A-DC7	A-DC8	A-DC9	A-DC10	A-DC11	A-DC12	A-DC13	A-DC14	A-DC15	A-DC16	A-Ph1	A-Ph2	A-Ph3	A-Ph4	A-Ph5	A-Ph6	A-Ph7	A-Ph8	A-Ph9	A-Ph10	A-Ph11	A-Ph12	A-Ph13	A-Ph14	A-Ph15	A-Ph16	B-AC1	B-AC2	B-AC3	B-AC4	B-AC5	B-AC6	B-AC7	B-AC8	B-AC9	B-AC10	B-AC11	B-AC12	B-AC13	B-AC14	B-AC15	B-AC16	B-DC1	B-DC2	B-DC3	B-DC4	B-DC5	B-DC6	B-DC7	B-DC8	B-DC9	B-DC10	B-DC11	B-DC12	B-DC13	B-DC14	B-DC15	B-DC16	B-Ph1	B-Ph2	B-Ph3	B-Ph4	B-Ph5	B-Ph6	B-Ph7	B-Ph8	B-Ph9	B-Ph10	B-Ph11	B-Ph12	B-Ph13	B-Ph14	B-Ph15	B-Ph16	aux-1	digaux	

3139.461	1	1	0	256	0.099558	0.10778	0.22181	0.061381	0.21088	0.053872	0.068036	0.22415	0.19922	0.18526	0.15023	0.12997	0.068042	0.39498	0.097814	0.30761	-2.9646	-3.0875	-2.6167	-3.3917	-2.825	-2.8854	-3.4646	-2.6458	-3.0771	-3.2021	-2.7083	-3.5146	-2.8729	-3.0187	-3.2625	-2.5917	-106.072	73.962	0.301	144.071	91.570	154.882	114.671	231.834	228.707	158.223	220.789	-109.474	126.448	170.402	209.638	194.007	0.0001984	0.0022136	0.00068652	972.82	5.7479e-05	1.8173e-05	1008.9	406.73	1.9186e-05	4.9175e-05	412.95	181.73	199.71	88.67	1.2523e-05	79.155	0.0044989	0.0042119	0.0010466	1114.3	4.9921e-05	4.4725e-05	1065.6	422.45	4.8792e-05	4.4865e-05	494.97	196.69	214.37	88.734	4.1252e-05	87.033	201.473	-61.250	-15.788	-113.577	-6.756	7.140	-115.787	-109.542	37.221	13.906	-112.028	-108.941	-106.330	-100.916	-64.307	-105.974	-8191	255	
3139.580	1	1	0	0	0.15133	0.2868	0.12333	0.31796	0.1671	0.15937	0.23384	0.38785	0.039735	0.20485	0.2982	0.24373	0.45671	0.46484	0.18412	0.15989	-2.7292	-3.0083	-2.5104	-3.3625	-2.9875	-2.6562	-3.6375	-2.7104	-2.8812	-3.375	-2.6	-3.4917	-3.1958	-2.7083	-3.475	-2.8875	36.999	10.053	-14.974	231.852	-14.085	93.658	145.475	193.759	190.697	95.807	90.367	211.698	207.003	165.938	113.186	187.012	0.00087901	0.0031422	0.00044891	972.22	3.4175e-05	2.0133e-05	994.47	406.62	3.0362e-05	2.5574e-05	414.23	182.68	198.73	89.082	1.7061e-05	79.819	0.0042802	0.0040738	0.0010294	1132.4	4.8453e-05	4.3235e-05	1060.9	428.7	4.7028e-05	4.385e-05	497.6	199.52	212.22	88.45	4.2001e-05	88.569	-33.098	-83.716	83.429	-114.115	45.915	60.127	-115.520	-108.667	64.933	29.079	-112.066	-109.001	-106.139	-100.553	207.382	-106.032	-8191	255	
3139.676	1	1	0	0	0.15782	0.12236	0.40809	0.19309	0.060398	0.095355	0.24746	0.26091	0.050166	0.35348	0.20614	0.17848	0.13668	0.23413	0.34096	0.041669	-2.7812	-3.1396	-2.5292	-3.3646	-3.0625	-2.5375	-3.4729	-2.7625	-3.0625	-3.325	-2.65	-3.3229	-3.2792	-2.6792	-3.5917	-3.1292	57.272	-60.873	-111.781	-73.619	197.103	83.158	110.780	196.026	213.950	111.034	-62.862	186.067	193.385	185.038	-86.261	199.461	0.00022649	0.0014777	0.0008482	973.07	2.7952e-05	1.9159e-05	1003.1	407.65	5.6784e-06	4.7708e-05	412.69	185.18	197.88	89.292	2.4873e-05	80.017	0.0040679	0.0039479	0.001066	1141.1	4.5824e-05	4.1369e-05	1078	431.6	4.4376e-05	4.2843e-05	510.57	201.71	210.29	88.415	4.5297e-05	88.892	46.978	171.104	148.216	-113.535	-28.998	10.042	-115.747	-108.958	-55.298	30.485	-112.493	-108.523	-106.122	-100.912	-125.240	-105.966	-8191	255	
3139.772	1	1	0	0	0.14072	0.16409	0.095058	0.33098	0.28292	0.10758	0.066663	0.18386	0.1573	0.1161	0.22876	0.087547	0.14825	0.048791	0.19197	0.32665	-2.6708	-3.4646	-2.6958	-3.325	-3.1625	-2.6604	-3.7375	-3.1	-2.8167	-3.4104	-2.6521	-3.1646	-3.4979	-2.7729	-3.5542	-2.8771	-85.565	-79.573	218.655	154.244	-44.017	7.735	95.434	172.926	221.275	-30.857	173.432	108.296	140.687	126.708	-94.234	140.762	0.00055502	0.0045344	0.0012238	970.02	5.106e-06	4.7609e-06	1002.6	406.57	1.3589e-05	2.4975e-05	416.87	182.58	198.95	88.486	1.5903e-05	80.132	0.0038692	0.0038622	0.0011528	1132.6	4.4216e-05	4.023e-05	1089.9	428.1	4.2017e-05	4.1502e-05	520.85	197.63	208.61	87.811	4.7111e-05	87.638	-84.624	-32.244	121.286	-113.393	-86.150	-126.188	-115.581	-108.674	51.886	18.379	-112.187	-108.559	-106.084	-100.680	-80.442	-105.606	-8191	255	
3139.868	1	1	0	0	0.13364	0.080812	0.084611	0.4111	0.22943	0.10624	0.086591	0.16679	0.29771	0.17658	0.20606	0.16568	0.20781	0.45765	0.28599	0.12406	-2.2521	-3.5187	-2.5062	-3.1375	-3.3479	-2.6937	-3.4833	-3.0958	-2.7854	-3.4396	-2.8167	-3.0083	-3.4604	-2.7438	-3.3146	-3.0771	193.787	-86.727	-42.064	128.164	-114.573	211.987	7.980	-104.970	185.243	214.188	204.343	113.285	-102.668	200.863	6.384	166.260	0.00051523	0.0020851	0.00020509	976.96	3.3211e-05	1.4299e-05	992.04	406.55	2.0831e-06	9.4095e-06	415.08	184.4	197.94	88.965	2.248e-05	80.595	0.0036794	0.0038192	0.0012243	1115.6	4.2962e-05	4.0907e-05	1099.4	423.43	4.0358e-05	4.2757e-05	529.5	195.6	207.4	88.821	4.906e-05	87.242	-37.392	88.329	-44.108	-113.086	20.910	179.330	-115.362	-108.784	-44.018	-27.367	-112.541	-108.862	-106.491	-101.352	9.132	-106.081	-8191	255	
3139.964	1	1	0	0	0.35444	0.29379	0.38115	0.054654	0.11892	0.16333	0.24377	0.27018	0.079459	0.10734	0.11004	0.21069	0.15466	0.34528	0.0656	0.092161	-2.2313	-3.6688	-2.6937	-2.975	-3.3604	-2.5667	-3.1375	-3.3479	-2.425	-3.4625	-2.9188	-2.9146	-3.3937	-2.75	-3.1104	-3.3958	32.682	147.466	-8.204	223.954	104.668	95.436	159.671	181.416	-12.516	117.884	83.704	154.774	186.320	-75.062	142.131	-43.250	0.00051252	0.00098357	0.00078997	970.65	1.4892e-05	1.7889e-05	1003.6	407.13	2.1226e-05	2.2943e-05	421.35	184	198.9	89.498	7.4355e-06	80.829	0.003609	0.0040676	0.0012662	1104.4	4.1803e-05	4.441e-05	1104.1	422.09	3.9729e-05	4.5874e-05	533.88	195.32	207.07	90.645	4.8326e-05	87.364	-21.620	125.581	-116.364	-113.651	-60.442	133.556	-115.960	-109.170	75.466	216.001	-112.633	-109.080	-106.993	-101.584	-64.838	-106.369	-8191	255	
3140.060	1	1	0	0	0.10855	0.31035	0.26209	0.16563	0.15151	0.18247	0.30214	0.22556	0.32799	0.25937	0.12201	0.23354	0.22891	0.051096	0.070968	0.11684	-2.3167	-3.4021	-2.8292	-2.8542	-3.3292	-2.725	-3.3312	-3.4729	-2.6458	-3.3896	-3.0854	-2.9813	-3.6333	-2.9562	-3.0708	-3.3104	206.721	218.908	87.470	142.029	-80.656	115.208	144.413	87.426	122.896	207.084	132.956	161.375	188.539	16.476	225.446	190.634	0.00067545	0.0004305	0.0014699	976.13	1.7222e-05	1.9345e-05	1008.5	407.96	2.3194e-05	4.0749e-06	417.08	183.2	197.83	89.144	1.3369e-05	80.208	0.0035849	0.0043788	0.0012487	1097.1	4.1859e-05	4.8125e-05	1093.5	420.06	3.9915e-05	4.8564e-05	522.62	192.49	207.02	90.992	4.488e-05	86.049	-18.896	210.017	-45.441	-114.265	-52.067	-127.109	-116.009	-109.374	-46.831	-96.736	-112.896	-109.171	-106.914	-101.458	115.261	-106.129	-8191	255	
3140.157	1	1	0	0	0.22208	0.22204	0.17333	0.30414	0.071316	0.086242	0.15431	0.25936	0.04163	0.070429	0.15236	0.13987	0.081202	0.36836	0.20843	0.12868	-2.2771	-3.2729	-2.9083	-2.7438	-3.35	-2.825	-3.1542	-3.4917	-2.6604	-3.2271	-3.1667	-2.7729	-3.5917	-2.975	-2.9688	-3.4	-50.556	231.946	196.888	195.451	179.730	-69.353	-74.951	205.271	148.410	119.580	154.677	-125.812	97.949	168.607	121.047	-83.191	0.00052244	0.00078524	0.0008397	973.11	8.5026e-06	9.0271e-06	1009.5	407.01	9.6858e-06	1.2979e-05	421.41	183.64	199.33	90.28	1.6226e-05	81.911	0.0036247	0.0044925	0.0011563	1080.9	4.2406e-05	4.9266e-05	1081	416.36	4.1542e-05	4.8526e-05	511.74	191.28	209.24	91.939	4.1951e-05	86.219	-81.887	-77.458	-59.410	-114.170	228.977	158.225	-115.881	-109.321	135.949	-86.335	-112.648	-109.387	-106.632	-101.289	-67.949	-105.972	-8191	255	
3140.277	1	1	0	0	0.081327	0.11802	0.092684	0.19869	0.018215	0.27236	0.22214	0.30041	0.080384	0.19222	0.14285	0.040164	0.41986	0.2211	0.20802	0.34295	-2.3229	-3.3167	-3.0375	-2.7375	-3.3937	-2.9083	-3.0646	-3.5646	-2.5458	-3.1979	-3.1583	-2.5521	-3.5604	-2.9813	-2.6375	-3.4583	107.859	-106.213	0.433	172.280	-92.914	-91.247	193.071	183.848	-103.790	88.714	194.563	193.249	-80.457	216.524	-117.651	192.531	0.0013667	0.0013868	0.0003357	983.7	1.9755e-05	4.0087e-06	1012.4	407.63	2.1957e-05	2.8001e-05	416.97	186.43	199.86	91.732	3.066e-05	83.425	0.0038486	0.0043604	0.001099	1071.5	4.4738e-05	4.7697e-05	1072.9	416.2	4.4331e-05	4.6196e-05	509.52	193.12	212.75	92.281	4.0514e-05	87.202	-56.632	-80.118	-28.725	-114.346	-120.793	-58.205	-116.065	-109.668	-94.653	-17.953	-112.550	-109.231	-106.515	-101.627	-7.735	-106.321	-8191	255	
3140.373	1	1	0	0	0.41702	0.12147	0.15359	0.049449	0.13616	0.039104	0.10722	0.30425	0.14314	0.08247	0.12001	0.071028	0.12187	0.33066	0.065098	0.10094	-2.4021	-3.0958	-3.1479	-2.6167	-3.2625	-3.0208	-2.9271	-3.4667	-2.6125	-2.9896	-3.4875	-2.7062	-3.3792	-3.2667	-2.4542	-3.5479	231.034	166.458	4.040	-97.300	73.365	17.253	206.479	200.780	193.854	187.657	-115.474	178.134	193.907	204.046	47.711	-118.313	0.00070554	0.0037055	0.0012653	979.71	6.7925e-06	2.1932e-05	1018	407.61	3.3706e-05	3.3332e-05	422.08	184.53	199.93	90.959	2.9421e-06	81.86	0.0040904	0.0041167	0.0010553	1076.3	4.6682e-05	4.547e-05	1066.9	416.66	4.6579e-05	4.3746e-05	503.49	193.03	213.69	90.951	3.8797e-05	87.01	-56.272	-4.887	2.700	-114.249	-27.604	18.589	-116.000	-109.553	47.959	39.504	-111.965	-109.476	-106.334	-101.532	-22.300	-106.173	-8191	255	
3140.469	1	1	0	0	0.076681	0.13526	0.17105	0.11683	0.034427	0.048204	0.14625	0.23308	0.18035	0.16085	0.20721	0.21896	0.11957	0.090864	0.15953	0.24148	-2.425	-2.9417	-3.2687	-2.8229	-3.3021	-3.1083	-2.7167	-3.4646	-2.7	-3.0333	-3.4521	-2.6917	-3.1729	-3.2083	-2.5812	-3.4271	70.770	-62.158	-26.751	-32.555	229.528	-118.567	210.675	-125.299	-107.480	18.422	108.503	183.799	-125.686	-20.031	-85.187	24.604	0.0015173	0.0008475	0.00027606	964.45	6.3903e-06	9.7937e-06	1014	408.51	2.072e-05	2.3318e-05	425.09	183.88	200.6	90.824	1.4644e-05	82.481	0.0042117	0.0039162	0.001038	1090.7	4.7354e-05	4.3393e-05	1057.4	422.19	4.7415e-05	4.2023e-05	500.96	196.71	213.59	90.346	3.8475e-05	88.916	-39.180	-123.819	49.165	-114.153	97.954	49.160	-116.203	-109.644	116.088	48.061	-112.153	-109.022	-106.433	-101.177	-4.703	-106.236	-8191	255	
3140.564	1	1	0	0	0.11719	0.12523	0.1748	0.52994	0.21205	0.090306	0.22291	0.087725	0.086282	0.1121	0.1794	0.19013	0.2196	0.22262	0.092417	0.26273	-2.5563	-2.5667	-3.4042	-2.4479	-3.0792	-3.1771	-2.7229	-3.5833	-2.9042	-2.7479	-3.4708	-2.6854	-3.125	-3.5208	-2.5	-3.5125	79.692	-32.979	47.840	217.620	27.115	61.195	35.772	57.530	-68.754	-126.819	200.815	208.957	163.389	155.710	31.284	184.515	0.00072984	0.001239	0.0010522	980.46	2.8704e-05	3.2756e-05	1013	410.58	2.5537e-05	6.3815e-06	422.51	187.19	200.01	91.272	1.6628e-06	82.155	0.0041724	0.0038197	0.0010347	1120.6	4.6102e-05	4.2633e-05	1060.1	430.1	4.5999e-05	4.0974e-05	504.6	201.73	211.76	90.379	4.0065e-05	90.103	-30.092	-85.667	-72.722	-114.322	75.259	97.026	-115.795	-109.418	36.695	123.586	-112.830	-109.358	-106.625	-101.642	76.646	-106.305	-8191	255	
3140.660	1	1	0	0	0.19128	0.11705	0.26543	0.084116	0.085861	0.037683	0.1145	0.35321	0.15295	0.22305	0.10365	0.17434	0.068253	0.33632	0.10074	0.1011	-2.5833	-2.5542	-3.3375	-2.9354	-2.9896	-3.3667	-2.8729	-3.2958	-3.2646	-2.6312	-3.6042	-2.8208	-3.0146	-3.4562	-2.6396	-3.3583	111.130	-48.037	-95.480	109.587	203.154	146.118	122.185	168.137	124.031	228.679	118.603	139.655	200.584	204.729	-54.610	182.086	0.0008454	0.002659	0.000655	985.09	1.9024e-05	1.246e-05	1000.6	407.39	2.2443e-05	2.4316e-05	412.4	184.5	198.81	89.355	2.1692e-05	80.887	0.0040722	0.0037777	0.0010781	1141.9	4.4437e-05	4.2401e-05	1070.6	431.2	4.4982e-05	4.0388e-05	510.33	201.62	209.32	89.068	4.3874e-05	89.4	0.043	-60.553	131.539	-114.440	16.333	60.640	-116.024	-109.528	24.816	62.924	-112.420	-109.168	-106.911	-101.397	209.566	-106.220	-8191	255	
3140.756	1	1	0	0	0.22035	0.084219	0.10461	0.46409	0.08752	0.11972	0.31519	0.25319	0.22909	0.21018	0.17179	0.24171	0.20667	0.049303	0.17634	0.17391	-2.6875	-2.5792	-3.375	-2.9292	-2.8667	-3.4354	-2.9688	-3.1625	-3.3479	-2.5	-3.3479	-2.9396	-2.9958	-3.7896	-2.7208	-3.3542	174.548	-15.429	226.083	206.982	189.765	130.989	146.160	-120.800	200.985	94.802	226.580	229.531	226.232	-9.677	143.259	187.600	0.00064655	0.0038241	0.00082361	981.76	3.0501e-05	8.5701e-06	1007.4	405.29	1.1023e-05	2.0235e-05	413.9	182.64	198.81	88.439	2.1679e-05	80.079	0.0039622	0.0037161	0.0011825	1146.3	4.3634e-05	4.2527e-05	1093.8	429.82	4.4929e-05	4.0894e-05	526.89	200.65	208.81	88.562	4.8689e-05	88.696	-99.890	-36.640	158.949	-114.109	84.212	7.444	-115.885	-109.148	189.003	-15.297	-113.041	-109.080	-106.258	-101.460	-98.572	-106.096	-8191	255	
3140.877	1	1	0	0	0.029943	0.22459	0.058995	0.16686	0.19175	0.2524	0.16794	0.10567	0.086797	0.38112	0.22589	0.40831	0.25374	0.23344	0.06769	0.056018	-2.7396	-2.5542	-3.5354	-3.0542	-2.6917	-3.5708	-2.9688	-3.2521	-3.3812	-2.6542	-3.4125	-3.0833	-2.8042	-3.6792	-2.7021	-2.8875	99.903	46.848	-78.441	-45.921	126.560	142.756	211.647	206.146	14.269	89.817	217.554	193.599	165.955	-118.750	3.858	-70.440	0.00082924	0.0010294	0.00093903	984.1	3.1691e-05	2.455e-05	1009.5	405.79	8.3169e-06	4.4109e-05	413.94	184.14	198.76	88.066	1.9212e-05	79.821	0.0039727	0.0038375	0.0012812	1141.9	4.3201e-05	4.417e-05	1118.2	426.48	4.4648e-05	4.3753e-05	541.62	200.63	208.49	89.236	5.2305e-05	87.796	-12.002	87.679	113.979	-114.009	-15.338	-22.351	-115.971	-109.173	-4.966	-107.677	-112.968	-109.096	-106.458	-101.155	-42.257	-106.310	-8191	255	
3140.973	1	1	0	0	0.16763	0.024922	0.19119	0.14035	0.384	0.10118	0.20524	0.20572	0.31241	0.19613	0.21975	0.25971	0.34712	0.17691	0.076081	0.25324	-2.9938	-2.4833	-3.4021	-3.3646	-2.9521	-3.5292	-2.9979	-3.1	-3.25	-2.6208	-3.3708	-3.3333	-2.7625	-3.5458	-2.925	-2.8688	92.367	-62.556	17.527	229.056	-31.321	-6.937	183.789	200.806	91.189	101.124	58.089	161.749	-113.133	227.064	122.785	114.343	0.00043801	0.00072151	0.00055582	979.36	2.5334e-05	2.2568e-05	1000.4	403.62	4.632e-05	1.6221e-05	414.38	182.25	197.91	87.164	2.278e-05	78.949	0.0039582	0.0041819	0.0013385	1132.6	4.2689e-05	4.7998e-05	1121.9	421.67	4.4023e-05	4.7668e-05	540.07	198.27	206.62	89.691	5.1907e-05	86.131	-92.248	133.580	-57.910	-114.030	-0.355	-101.070	-115.794	-109.104	51.438	223.364	-112.270	-109.041	-106.257	-101.274	5.725	-105.836	-8191	255	
3141.069	1	1	0	0	0.091408	0.13363	0.22947	0.14807	0.22371	0.17018	0.17551	0.25608	0.18057	0.19012	0.097432	0.18661	0.20927	0.15637	0.21917	0.071612	-3.0521	-2.5687	-3.2062	-3.2625	-2.7292	-3.3354	-3.0938	-2.8625	-3.6042	-2.85	-3.0229	-3.3083	-2.75	-3.3667	-2.9958	-2.9333	-83.149	69.298	228.466	-104.027	204.508	-53.321	11.069	217.478	-7.995	95.338	164.498	230.678	-5.811	114.485	191.121	160.911	0.0011608	0.0021521	0.00063833	976.96	2.6357e-05	6.75e-06	1009.4	404.77	2.5994e-05	1.884e-05	420.18	182.23	197.74	87.196	4.1647e-05	79.219	0.0039218	0.0045725	0.0012977	1125.4	4.2662e-05	5.1531e-05	1113.7	420.23	4.4166e-05	5.1728e-05	533.08	197.35	207.57	90.689	5.0017e-05	85.823	-59.783	197.758	-12.143	-114.249	-94.899	102.738	-115.978	-109.048	-124.273	223.044	-112.298	-109.275	-106.685	-101.009	-23.241	-105.999	-8191	255	
3141.141	1	1	0	0	0.19695	0.14876	0.1047	0.1073	0.1096	0.10506	0.12252	0.1394	0.2075	0.18245	0.17792	0.11134	0.24479	0.099015	0.15497	0.25097	-3.0979	-2.7354	-2.9854	-3.3896	-2.4979	-3.1333	-3.125	-2.8792	-3.3333	-2.8521	-2.8479	-3.6521	-2.6729	-3.3167	-3.1208	-2.6312	140.350	121.311	75.182	133.617	90.487	229.540	-111.350	198.946	224.361	4.170	-29.473	-93.804	164.739	159.279	57.808	166.394	0.00061344	0.0037636	0.00076913	974.01	2.7694e-05	5.7423e-06	1001.9	404.83	2.5541e-05	1.7927e-05	415.17	184.11	197.66	87.105	1.9337e-05	79.25	0.004052	0.0048766	0.0012465	1119.7	4.5226e-05	5.42e-05	1107.2	419.85	4.7128e-05	5.4202e-05	525.32	197.82	211.45	90.841	4.8678e-05	85.384	-82.958	167.047	-21.037	-114.371	224.302	-66.694	-116.071	-109.351	-118.294	99.650	-112.232	-109.271	-106.418	-100.980	3.146	-105.833	-8191	255	
3141.261	1	1	0	0	0.18177	0.17865	0.11808	0.19052	0.040153	0.10213	0.23064	0.16161	0.053808	0.21351	0.10153	0.10465	0.39588	0.2768	0.13494	0.39074	-3.1625	-2.7479	-2.8708	-3.3688	-2.625	-3.1479	-3.5208	-2.7021	-3.4354	-2.9479	-2.9708	-3.7104	-2.7208	-3.2333	-3.225	-2.8125	175.918	-50.185	217.044	228.623	48.015	177.478	-98.247	189.775	-101.654	118.945	76.284	184.269	-81.544	224.255	-37.192	229.087	0.0012841	0.0012406	0.00034769	977.27	1.5749e-05	2.0149e-05	1006.4	401.64	1.1663e-05	3.448e-05	415.45	181.2	196.63	86.91	3.3636e-05	79.098	0.0043721	0.0049516	0.0012013	1116	4.9315e-05	5.3157e-05	1102.4	416.56	5.0519e-05	5.3281e-05	519.17	195.55	215	90.162	4.757e-05	85.181	-79.103	199.802	64.151	-113.977	23.682	-30.703	-116.423	-109.037	-51.574	21.497	-111.824	-109.124	-106.472	-101.169	-75.326	-106.197	-8191	255	
3141.358	1	1	0	0	0.20401	0.22403	0.052157	0.033286	0.1678	0.32261	0.30598	0.19765	0.058235	0.091727	0.17617	0.075735	0.2683	0.095093	0.24668	0.30177	-3.0958	-2.8958	-2.6833	-3.4833	-2.5917	-3.0958	-3.2979	-2.6604	-3.2229	-3.0438	-2.5208	-3.4771	-2.8771	-3.2021	-3.3583	-2.5708	-64.323	-112.321	133.247	199.645	25.112	228.590	191.016	197.921	6.100	155.734	188.635	68.251	-8.641	179.867	-125.504	192.676	0.00093157	0.0011068	0.00051442	960.76	2.701e-05	1.9244e-05	1004	401.26	8.4754e-06	2.341e-05	414.05	180.25	195.64	86.695	1.1654e-05	77.941	0.0046861	0.0048061	0.0011692	1115.3	5.345e-05	5.1086e-05	1091.3	419.01	5.398e-05	5.1584e-05	513.78	196.96	218.02	89.044	4.6768e-05	86.353	-39.855	-73.053	-3.199	-114.418	157.206	55.800	-115.623	-109.137	7.332	-65.590	-112.407	-109.209	-106.212	-100.887	89.975	-106.023	-8191	255	
3141.454	1	1	0	0	0.175	0.16845	0.058958	0.36833	0.14348	0.087272	0.25144	0.15131	0.013661	0.11861	0.21106	0.19989	0.15707	0.33802	0.13537	0.26103	-2.7708	-3.1125	-2.7792	-3.6729	-2.6417	-2.9083	-3.5312	-2.7896	-3.1896	-3.3521	-2.6375	-3.4958	-2.8875	-3.0938	-3.2188	-2.6042	169.733	193.913	217.688	177.946	-112.746	223.609	-57.284	104.914	129.903	214.536	-100.707	172.026	-89.002	181.680	-37.182	-77.279	0.00054098	0.0068763	0.0010106	963.58	4.0737e-05	3.612e-05	1010	401.34	1.5092e-05	2.1623e-05	414.77	183.43	198.21	86.978	2.2229e-05	79.129	0.0048678	0.0046469	0.001142	1134.7	5.4944e-05	4.9127e-05	1089.4	426.11	5.4179e-05	4.9774e-05	512.14	202.22	219.03	88.759	4.6259e-05	88.862	-36.800	-10.231	-61.750	-114.154	46.875	21.005	-115.945	-109.091	7.534	66.610	-111.921	-108.867	-106.455	-100.710	-27.793	-106.400	-8191	255	
3141.550	1	1	0	0	0.061235	0.14418	0.093998	0.026138	0.27056	0.076661	0.16244	0.29342	0.17846	0.23289	0.19089	0.20647	0.16222	0.18265	0.11017	0.3723	-2.6813	-3.2771	-2.4938	-3.4917	-2.9229	-2.8708	-3.5042	-2.7479	-2.8812	-3.25	-2.7708	-3.3125	-3.1312	-2.6729	-3.2062	-2.8063	90.143	67.828	-89.398	-34.345	73.623	226.958	211.739	205.974	124.754	51.638	16.471	163.617	141.820	162.443	37.581	105.255	0.00032381	0.002049	0.00066654	974.79	3.8025e-05	1.6054e-05	1003.7	403.67	3.4142e-05	1.1079e-05	412.13	183.52	197.62	86.698	2.072e-05	78.039	0.0047442	0.0045123	0.0011335	1167.2	5.3668e-05	4.7337e-05	1092.1	434.84	5.1621e-05	4.8571e-05	509.82	204.05	215.66	87.866	4.6468e-05	89.552	0.433	27.522	-121.510	-113.905	50.818	44.865	-115.944	-109.187	31.328	-50.910	-112.347	-109.131	-106.504	-101.115	-126.728	-105.340	-8191	255	
3141.669	1	1	0	0	0.14954	0.059182	0.2558	0.15696	0.29511	0.33561	0.19282	0.048937	0.083557	0.26936	0.03903	0.47942	0.083698	0.22789	0.22598	0.10856	-2.5646	-3.2771	-2.5458	-3.3896	-3.0583	-2.7125	-3.4	-2.8563	-2.8312	-3.275	-2.8521	-3.3292	-3.1771	-2.8479	-3.2958	-2.8771	130.400	162.494	-111.612	198.296	-110.845	-119.960	205.849	159.400	10.993	19.541	67.171	-66.118	-94.139	-66.829	176.443	128.114	0.00045351	0.0025369	0.0001179	981.43	3.8575e-05	1.4489e-05	1002.9	400.01	1.5223e-05	1.2805e-05	418.74	182.88	197.13	87.403	2.1557e-05	79.344	0.0044413	0.004334	0.0011556	1173.2	5.0492e-05	4.5097e-05	1093	435.95	4.8252e-05	4.6534e-05	522.38	204.85	213.3	87.769	4.8554e-05	90.49	-48.933	-97.245	142.701	-113.657	51.158	-24.947	-115.678	-109.372	37.922	2.859	-112.912	-109.011	-106.456	-100.989	-106.786	-105.919	-8191	255	
3141.740	1	1	0	0	0.26621	0.12407	0.11812	0.15355	0.18582	0.25756	0.27358	0.22412	0.079018	0.15344	0.16984	0.11985	0.10722	0.26547	0.08799	0.21018	-2.4854	-3.2771	-2.35	-3.0104	-3.1375	-2.6375	-3.6083	-3.0104	-2.7375	-3.4	-2.7125	-3.2021	-3.4792	-2.6375	-3.2854	-2.8958	-86.711	-32.241	29.987	157.160	217.930	146.309	215.980	207.990	33.114	30.028	-109.263	-63.095	106.568	175.340	223.080	149.209	0.00083199	0.0018702	0.00095378	976.69	2.8539e-05	2.0338e-05	1013.5	406.31	1.9294e-05	1.1346e-05	415.34	185.96	196.98	87.503	4.7855e-06	79.687	0.0042147	0.0042182	0.0012444	1170.3	4.8255e-05	4.382e-05	1121.4	436.81	4.6616e-05	4.5873e-05	541.99	204.76	213.52	88.128	5.2881e-05	90.2	3.154	69.771	157.902	-113.540	27.478	102.935	-115.584	-109.076	97.760	68.870	-111.958	-108.923	-105.970	-101.119	223.648	-105.486	-8191	255	
3141.838	1	1	0	0	0.39236	0.11182	0.10961	0.26087	0.17757	0.033091	0.38935	0.14372	0.14145	0.13988	0.32231	0.27324	0.26516	0.24897	0.19111	0.059492	-2.1042	-3.2646	-2.5479	-3.0938	-3.3812	-2.4875	-3.4375	-3.1125	-2.7938	-3.625	-2.8667	-3.0563	-3.5042	-2.9208	-3.3708	-3.0146	-44.694	-3.733	197.745	221.125	111.453	-3.633	180.306	164.815	174.633	-63.424	90.194	146.970	201.545	218.563	198.923	-93.246	0.0004177	0.0013306	0.00054288	976.71	1.609e-05	3.2685e-06	1005.1	407.8	2.1696e-05	2.0537e-05	415.22	183.78	198.04	86.78	8.6094e-06	78.652	0.0041145	0.0042413	0.0013656	1156.8	4.7782e-05	4.5367e-05	1135.7	433.8	4.5496e-05	4.7281e-05	551.79	201.26	211.92	88.309	5.4907e-05	88.439	-34.306	11.052	115.098	-113.900	-113.907	-84.511	-115.794	-109.513	7.107	221.869	-112.406	-108.596	-105.977	-100.869	-30.752	-106.095	-8191	255	
3141.957	1	1	0	0	0.11446	0.34589	0.11287	0.13692	0.17857	0.27557	0.053367	0.32071	0.23425	0.17194	0.24542	0.15158	0.1209	0.079901	0.08314	0.22033	-2.1417	-3.3771	-2.8625	-2.9437	-3.1937	-2.4042	-3.35	-3.1208	-2.5146	-3.3792	-2.6521	-3.0479	-3.5062	-2.8042	-2.9708	-3.2313	-3.512	42.534	25.387	-106.296	-114.310	183.798	221.389	173.923	-39.695	196.582	190.435	132.186	-62.378	38.830	-103.740	-97.154	0.00054932	0.0027777	0.00069107	971.72	3.4522e-05	1.8079e-05	999.51	402.46	9.4056e-06	1.573e-05	417.73	182.48	198.44	85.208	3.3042e-05	77.983	0.0040009	0.0044975	0.0014177	1140.5	4.7072e-05	4.9296e-05	1134.1	428.29	4.4914e-05	5.1262e-05	553.18	198.61	211.23	88.878	5.4256e-05	87.368	227.539	119.336	-14.857	-114.037	57.032	-101.087	-115.233	-108.915	86.967	-76.737	-112.418	-108.794	-106.143	-101.160	63.989	-105.458	-8191	255	
3142.053	1	1	0	0	0.2841	0.12257	0.25181	0.16842	0.18965	0.28434	0.176	0.12656	0.22162	0.22066	0.13131	0.09686	0.44263	0.076621	0.20751	0.06195	-2.0958	-3.1896	-2.7896	-2.8438	-3.2792	-2.5375	-3.2938	-3.3708	-2.5667	-3.2667	-3.0792	-2.8271	-3.5833	-2.85	-3.0917	-3.4479	114.622	-34.417	-12.827	209.425	-112.762	146.698	148.854	-110.695	-96.336	80.969	-67.831	228.013	157.524	196.080	41.240	67.808	0.00085204	0.0021253	0.00053552	971.34	1.7807e-05	3.0257e-05	999.81	402.65	8.6138e-06	2.8874e-05	415.76	184.62	197.78	86.158	4.9368e-05	78.613	0.0039836	0.0049083	0.0014038	1128.8	4.6998e-05	5.4009e-05	1128.7	427.63	4.4992e-05	5.5223e-05	550.26	199.06	211.97	90.811	5.2203e-05	87.333	-2.669	183.448	-5.404	-113.882	-2.668	187.524	-115.400	-108.693	166.397	-40.207	-111.908	-108.808	-105.769	-101.068	53.542	-105.633	-8191	255	
3142.149	1	1	0	0	0.12039	0.063791	0.097235	0.17222	0.27986	0.077066	0.27866	0.38442	0.10156	0.2752	0.074353	0.16193	0.15914	0.17161	0.13	0.16212	-2.2292	-3.2771	-2.9646	-2.7708	-3.5021	-2.7229	-3.1042	-3.4562	-2.5312	-3.3021	-3.1375	-2.7062	-3.5125	-3.0292	-2.9042	-3.4021	213.549	-85.556	156.244	199.372	167.430	-71.449	149.413	216.420	155.479	-45.472	82.444	232.465	61.790	193.419	170.197	202.370	0.0011165	0.00086016	0.0011482	972.7	4.039e-05	3.2951e-05	1007.3	406.22	1.5971e-05	2.8208e-05	419.71	184.26	198.02	86.761	1.6933e-05	78.703	0.0041433	0.005141	0.0013343	1118.3	4.7978e-05	5.588e-05	1112.8	425.59	4.6806e-05	5.5265e-05	535.51	196.45	214.74	91.15	4.8453e-05	86.451	-63.995	231.389	-39.707	-113.575	-51.553	184.634	-115.758	-109.549	148.490	109.104	-112.850	-109.049	-106.683	-101.037	35.522	-105.902	-8191	255	
3142.270	1	1	0	0	0.31567	0.07809	0.15126	0.15211	0.10185	0.18734	0.12335	0.21724	0.10395	0.19372	0.095113	0.41237	0.074477	0.28965	0.055554	0.097181	-2.2146	-3.025	-3.0979	-2.7	-3.3625	-2.7896	-3.0271	-3.5854	-2.5187	-3.1375	-3.4146	-2.6979	-3.3438	-2.9771	-2.7188	-3.5292	-109.099	-36.813	40.427	194.517	96.603	81.634	-97.345	127.174	47.118	184.098	106.309	-109.234	94.572	-117.002	90.137	-112.604	0.00090225	0.0027768	0.00077965	980.87	1.186e-05	3.0057e-05	1000.3	402.51	1.472e-05	3.2794e-05	418.13	183.88	197.66	86.827	1.1174e-05	78.592	0.0043648	0.0050447	0.0012704	1111.6	5.1834e-05	5.5658e-05	1095.4	421.86	5.1348e-05	5.3986e-05	530.66	195.74	218.16	90.686	4.6902e-05	86.383	-84.549	-28.982	231.967	-114.247	199.822	6.087	-115.729	-109.514	-32.326	-21.915	-112.434	-109.558	-106.383	-101.156	-48.334	-105.774	-8191	255	
3142.366	1	1	0	0	0.24993	0.11603	0.09116	0.21831	0.22575	0.12977	0.29637	0.27013	0.16898	0.095962	0.21395	0.23133	0.19032	0.34262	0.058105	0.0285	-2.4125	-3.0042	-3.1917	-2.6312	-3.3563	-3.0792	-2.8667	-3.55	-2.825	-3.0583	-3.4792	-2.7146	-3.5604	-3.1833	-2.7229	-3.6854	-84.755	-35.182	229.001	115.757	96.204	-20.699	153.692	208.996	189.869	-6.829	152.934	187.239	202.581	231.549	221.461	47.260	0.0012824	0.001801	0.001396	977.51	2.4342e-05	1.9181e-05	998.66	404.87	1.4266e-05	2.2549e-05	417.36	181.74	197.34	86.112	1.5572e-05	77.994	0.0047447	0.0048477	0.0012515	1114.6	5.5293e-05	5.3768e-05	1088.9	426.12	5.5636e-05	5.2264e-05	528.83	198.32	221.65	89.872	4.6275e-05	87.739	-109.564	-12.631	14.986	-114.270	143.179	48.911	-115.699	-109.533	-118.096	165.882	-112.224	-109.056	-106.092	-100.787	-12.217	-106.070	-8191	255	
3142.438	1	1	0	0	0.18308	0.14698	0.26814	0.27447	0.25094	0.15624	0.29008	0.11488	0.066787	0.099768	0.099386	0.41995	0.21543	0.29413	0.032602	0.081946	-2.5521	-2.8125	-3.3667	-2.7229	-3.1146	-3.2687	-2.7167	-3.7375	-2.7292	-2.7792	-3.4646	-2.8792	-3.2708	-3.3563	-2.5729	-3.5083	73.470	23.974	106.915	185.469	-105.487	-69.030	222.475	-105.344	184.231	-100.546	125.988	162.203	174.249	12.714	-83.613	166.778	0.00045977	0.0016398	0.00099136	966.36	2.9397e-05	3.8915e-06	998.62	401.04	1.375e-05	1.4008e-05	407.24	182.05	198.15	85.552	1.3425e-05	77.165	0.0050528	0.0046651	0.0012328	1141.9	5.6847e-05	5.1996e-05	1081.7	431.01	5.6542e-05	4.9825e-05	520.87	201.63	220.15	88.783	4.513e-05	88.548	-47.073	-41.873	37.781	-114.211	6.567	-65.862	-115.505	-109.478	61.601	42.358	-112.173	-109.490	-106.503	-101.440	-3.773	-105.814	-8191	255	
3142.559	1	1	0	0	0.18373	0.32721	0.38956	0.20773	0.10059	0.336	0.27904	0.27347	0.30527	0.38681	0.050012	0.17239	0.20336	0.17234	0.20268	0.26066	-2.625	-2.7396	-3.3708	-2.6813	-3.2292	-3.2375	-2.6813	-3.4708	-2.875	-2.8042	-3.4375	-2.8479	-3.2438	-3.3917	-2.55	-3.2625	-83.335	-92.533	115.614	185.364	67.281	105.888	159.526	160.306	53.103	-86.551	4.397	224.871	171.560	136.200	161.390	116.350	0.0004839	0.0027373	0.0004095	968.64	2.6491e-05	2.663e-05	987.19	403.44	3.385e-05	4.9904e-05	413.28	182.24	199.48	86.687	2.7417e-05	78.368	0.0049304	0.0044901	0.001196	1162.6	5.4045e-05	5.0047e-05	1072.8	436.22	5.4056e-05	4.7686e-05	520.8	205.52	217.37	88.761	4.5756e-05	90.441	-31.057	26.776	7.762	-113.915	45.860	86.133	-115.704	-109.224	6.582	15.014	-112.340	-109.511	-106.519	-101.325	132.626	-106.034	-8191	255	
3142.653	1	1	0	0	0.1141	0.12498	0.058691	0.084764	0.13471	0.22728	0.073111	0.16654	0.12947	0.19275	0.213	0.092457	0.12467	0.26596	0.089515	0.34906	-2.4125	-2.6292	-3.4583	-2.8167	-2.9104	-3.2104	-2.6437	-3.3271	-3	-2.5708	-3.5354	-2.975	-3.0583	-3.3646	-2.6604	-3.3833	-107.990	-96.221	206.456	-22.729	-22.034	64.199	-63.142	-124.521	-13.431	210.420	156.344	223.461	212.218	225.205	91.419	121.204	0.00061025	0.0040292	0.0010689	982.79	2.3279e-05	2.6994e-05	999.37	405.33	3.3927e-05	1.6542e-05	415.33	183.91	198.89	86.823	4.2323e-06	80.362	0.0047053	0.0042954	0.0012386	1187	5.1147e-05	4.8986e-05	1092.4	441.49	5.1309e-05	4.6463e-05	535.24	208.5	215.62	88.845	4.9076e-05	91.653	-45.322	-38.865	144.053	-113.886	51.058	94.856	-115.732	-109.231	87.191	66.651	-112.714	-109.206	-106.503	-101.324	139.039	-105.664	-8191	255	
3142.749	1	1	0	0	0.2771	0.086883	0.033594	0.17688	0.013391	0.052334	0.12491	0.22689	0.057116	0.062607	0.11294	0.32067	0.2516	0.20498	0.22943	0.12528	-2.8208	-2.7729	-3.4	-3.0917	-2.8792	-3.5812	-2.85	-3.2896	-3.2042	-2.5854	-3.5104	-3.0146	-2.8542	-3.4083	-2.5417	-3.3729	-77.811	147.364	23.541	-69.844	164.686	180.846	197.152	154.082	-5.467	-38.753	160.405	205.529	-119.397	201.127	-89.642	-125.580	0.00082158	0.00085867	0.0017997	977.98	1.3937e-05	1.7929e-05	1003	405.6	1.6867e-05	1.6387e-05	417.26	185.05	198.89	87.166	2.4722e-05	79.552	0.0044941	0.0041664	0.0013159	1185.6	4.8528e-05	4.761e-05	1120	438.76	4.9631e-05	4.514e-05	548.51	207.45	213.83	88.705	5.3013e-05	90.136	11.874	193.970	158.860	-113.793	60.557	25.623	-115.653	-108.983	27.756	69.890	-113.095	-108.842	-106.016	-101.227	195.360	-105.362	-8191	255	
3142.845	1	1	0	0	0.30157	0.087065	0.17696	0.20137	0.29447	0.10602	0.028349	0.06401	0.18166	0.14082	0.078431	0.29339	0.07636	0.28835	0.32578	0.19593	-2.9167	-2.5083	-3.275	-3.0708	-2.7354	-3.4292	-2.7271	-3.1479	-3.3708	-2.5208	-3.1771	-3.0729	-2.8896	-3.4604	-2.5625	-3.1021	-125.507	49.817	-57.046	228.847	159.771	51.461	-16.810	63.450	-90.568	-101.516	-89.349	-107.591	200.855	178.598	29.775	139.524	0.00098968	0.0010113	0.00033875	976.84	1.9941e-05	8.1631e-06	997.72	408.58	9.085e-06	2.1732e-05	417.48	184.22	198.86	86.679	1.8011e-05	79.443	0.0043566	0.0041697	0.0013896	1169.6	4.6784e-05	4.7422e-05	1129	433.67	4.7918e-05	4.6552e-05	557.93	204.19	211.65	89.153	5.5613e-05	88.901	-3.692	75.011	-68.987	-114.020	18.492	-40.271	-115.933	-109.200	138.101	214.678	-112.011	-109.008	-106.362	-101.107	-55.379	-105.653	-8191	255	
3142.966	1	1	0	0	0.10379	0.06127	0.12288	0.21958	0.033569	0.10104	0.20816	0.19937	0.089112	0.11817	0.22899	0.13061	0.14979	0.14162	0.091048	0.20563	-2.9458	-2.5146	-3.0354	-3.0146	-2.5771	-3.4688	-3.0167	-3.0271	-3.5396	-2.5625	-3.2375	-3.1458	-2.8042	-3.475	-2.7646	-2.8417	186.747	-91.873	-37.537	182.850	-71.755	144.066	-103.530	198.856	78.274	-115.187	116.173	162.492	194.773	164.915	-119.176	-2.836	0.0005628	0.0042097	0.00070465	984.04	3.239e-05	1.5898e-05	1006.2	409.26	2.3009e-05	3.4762e-05	423.84	185.87	201.11	87.476	1.7991e-05	79.866	0.0042654	0.0044352	0.001434	1155.6	4.5657e-05	5.0754e-05	1142.1	431.13	4.7112e-05	5.0402e-05	559.62	203.97	212.14	90.926	5.5574e-05	88.67	-11.905	185.294	148.761	-113.880	61.904	152.477	-115.342	-108.716	74.232	195.540	-112.156	-109.313	-106.238	-101.139	78.374	-105.365	-8191	255	
3143.038	1	1	0	0	0.18195	0.18722	0.22583	0.18344	0.13174	0.010352	0.2484	0.19273	0.11419	0.17581	0.088015	0.063218	0.062877	0.26956	0.064387	0.14135	-3.0042	-2.6854	-3.225	-3.3646	-2.4729	-3.4021	-2.95	-2.6292	-3.35	-2.8063	-3.1396	-3.3063	-2.6146	-3.4917	-2.9771	-2.7521	34.883	-17.508	-119.232	180.575	159.137	-49.654	201.366	216.455	27.401	173.821	115.361	-109.905	124.533	194.938	-19.913	80.962	0.00086577	0.00056857	0.0011099	984.24	1.9954e-05	1.001e-05	1007.4	408.01	1.607e-05	2.306e-05	419.52	186.32	199.28	87.797	3.2321e-05	79.622	0.0041661	0.0048417	0.0013919	1147.8	4.5153e-05	5.4555e-05	1137	428.03	4.6725e-05	5.4362e-05	546.67	202.15	212	91.723	5.2159e-05	87.341	-25.188	163.943	-16.752	-113.709	179.379	-66.124	-115.564	-108.966	-82.106	106.031	-111.837	-108.862	-106.340	-100.800	32.633	-105.842	-8191	255	
3143.134	1	1	0	0	0.22162	0.048091	0.10743	0.057867	0.080203	0.25238	0.259	0.19598	0.1915	0.20072	0.19749	0.26013	0.24292	0.31504	0.21531	0.023909	-2.95	-2.8021	-2.9938	-3.3292	-2.6625	-3.25	-3.0875	-2.6937	-3.4688	-2.9042	-2.9771	-3.2833	-2.6646	-3.3125	-3.0438	-2.7708	-5.717	183.944	150.439	-44.837	66.398	-86.363	169.998	156.135	-34.434	105.791	164.248	177.689	137.474	192.516	51.505	-70.422	0.00017001	0.0018043	0.0016907	973.83	2.7469e-05	2.4484e-05	1012.7	408.43	2.4065e-05	4.7172e-06	420.33	185.17	200.05	87.516	4.2499e-05	79.661	0.0041792	0.0050338	0.0012898	1131.5	4.6136e-05	5.5237e-05	1115.7	423.7	4.7794e-05	5.5334e-05	535.31	200.02	214.65	91.842	5.007e-05	86.622	221.051	182.423	-106.406	-113.664	189.121	58.327	-115.604	-109.086	-96.634	29.219	-111.795	-108.871	-105.868	-101.003	90.914	-105.757	-8191	255	
3143.230	1	1	0	0	0.21619	0.25152	0.15889	0.20819	0.082185	0.3155	0.34679	0.2146	0.13335	0.051636	0.13563	0.1529	0.20973	0.14	0.066679	0.3065	-3.0167	-2.8042	-2.8688	-3.4979	-2.5271	-3.2229	-3.2604	-2.7875	-3.2833	-3.1146	-2.8208	-3.6271	-2.7229	-3.0875	-3.0833	-2.6479	-19.145	-117.891	54.369	80.689	-110.539	115.103	124.840	-122.482	35.339	131.236	-9.681	85.220	-117.454	193.954	193.606	89.209	0.00046994	0.0027944	0.0014754	983.72	2.5227e-05	3.6828e-05	1009.7	405.8	9.7015e-06	1.9504e-05	423.21	185.75	199.36	87.489	2.2329e-05	80.222	0.0044657	0.0051541	0.0012402	1128.7	5.0633e-05	5.4991e-05	1112.9	422.3	5.224e-05	5.5109e-05	530.56	199.78	219.4	91.267	4.8731e-05	86.945	-106.070	3.369	-61.668	-113.842	188.475	52.895	-115.761	-109.000	-54.676	44.856	-112.169	-108.939	-106.483	-100.881	105.898	-105.869	-8191	255	
3143.350	1	1	0	0	0.23327	0.10334	0.2944	0.056842	0.1182	0.087419	0.15048	0.13393	0.072004	0.29476	0.11912	0.19244	0.11267	0.17473	0.22227	0.28065	-2.9375	-2.8896	-2.75	-3.4604	-2.5917	-3.1312	-3.2771	-2.8354	-3.3354	-3.15	-2.8438	-3.5917	-2.8438	-3.1021	-3.1771	-2.6792	176.193	232.767	212.270	181.809	142.689	-126.890	178.612	137.710	176.847	210.850	-10.957	192.630	-122.017	-98.662	190.506	108.213	0.00092039	0.0035072	0.00039836	980.87	9.4986e-06	1.5908e-05	1004	407.38	2.8361e-05	1.8727e-05	420.9	184.83	199.71	86.597	1.7824e-05	78.815	0.0048224	0.0049717	0.0012097	1132.2	5.4807e-05	5.2923e-05	1104.2	424.43	5.5138e-05	5.2956e-05	522.2	200.68	221.87	89.429	4.8012e-05	87.013	-74.078	-44.733	67.073	-113.838	178.619	120.532	-115.656	-109.131	-90.541	9.346	-111.772	-109.002	-106.326	-100.721	30.285	-105.925	-8191	255	
3143.447	1	1	0	0	0.05788	0.11382	0.076386	0.083933	0.41036	0.12429	0.13202	0.20504	0.021047	0.12027	0.16032	0.08161	0.20299	0.37269	0.093216	0.34378	-2.7229	-2.8771	-2.4958	-3.5479	-2.6958	-2.8	-3.5187	-2.6979	-3.1271	-3.1958	-2.5792	-3.4938	-2.9146	-3.0187	-3.3583	-2.7062	-89.813	-15.979	186.934	27.801	-108.203	15.163	116.206	156.005	2.188	165.981	224.541	172.714	204.629	184.170	-97.419	168.580	0.00084685	0.0037643	0.00046773	974.15	1.9636e-05	2.1656e-05	997.61	401.71	3.2403e-05	3.262e-05	420.92	182.99	198.69	87.224	1.4206e-05	78.668	0.0049452	0.0046769	0.0011556	1140.9	5.5551e-05	4.9526e-05	1091.8	428.41	5.4749e-05	5.0493e-05	515.56	203.22	220.16	88.685	4.643e-05	88.61	-85.831	-23.541	-40.473	-114.217	-121.032	38.181	-115.520	-109.167	-45.229	-66.352	-112.291	-109.045	-105.995	-101.049	-74.737	-105.493	-8191	255	
3143.541	1	1	0	0	0.059235	0.43845	0.25862	0.078459	0.10517	0.048419	0.20242	0.075731	0.26352	0.045533	0.095224	0.33061	0.25257	0.076127	0.1695	0.13356	-2.7313	-3.1688	-2.4375	-3.3917	-2.8854	-2.825	-3.6229	-2.8667	-3.2562	-3.2229	-2.6188	-3.5938	-3.1417	-2.9437	-3.5229	-2.9	-55.413	-44.197	218.813	-2.854	226.641	161.757	-98.498	-37.451	3.088	72.601	-14.845	185.225	168.355	135.150	-79.688	76.988	0.00095344	0.0033632	0.00061924	970.65	3.4036e-05	1.1613e-05	1011.2	404.71	4.3014e-05	2.3136e-05	419.68	185.6	200.82	87.068	1.8236e-05	79.557	0.0047893	0.0045192	0.0011265	1164.8	5.3745e-05	4.7283e-05	1090.4	434.86	5.1403e-05	4.8342e-05	513.81	206.75	218.22	88.181	4.621e-05	90.699	-32.012	-12.686	-105.483	-113.982	62.212	-45.856	-115.753	-108.828	85.417	-19.857	-112.518	-108.549	-106.293	-100.803	1.912	-105.818	-8191	255	
3143.639	1	1	0	0	0.097964	0.070137	0.063338	0.3031	0.21734	0.21248	0.22015	0.21158	0.30435	0.15844	0.1661	0.1615	0.12977	0.33556	0.11641	0.35249	-2.4667	-3.3771	-2.4958	-3.4125	-2.9458	-2.7229	-3.5667	-2.9521	-2.9271	-3.4646	-2.6604	-3.3729	-3.0875	-2.6562	-3.3667	-2.9104	-70.635	111.946	-65.482	166.251	-106.104	-79.221	35.587	159.301	-5.629	206.718	146.765	170.817	-114.441	184.171	36.551	165.278	0.00029328	0.0040736	0.0010636	980.65	1.3889e-05	8.4361e-06	1000.9	407.64	2.1899e-05	1.996e-05	420.4	185.51	199.74	87.054	4.1801e-05	79.022	0.004468	0.0043688	0.0011547	1179.5	5.1159e-05	4.5255e-05	1100.6	439.9	4.8353e-05	4.6814e-05	523.78	207.05	214.83	87.392	4.8159e-05	90.326	-55.664	-51.954	64.841	-114.062	28.798	17.415	-115.588	-108.980	51.250	-64.764	-112.940	-108.669	-106.509	-100.994	199.015	-105.629	-8191	255	
3143.733	1	1	0	0	0.060802	0.13631	0.055836	0.14805	0.1322	0.14342	0.18602	0.30781	0.13391	0.1139	0.083113	0.27891	0.045595	0.19684	0.1044	0.079862	-2.4167	-3.3875	-2.5729	-3.1979	-3.2396	-2.7771	-3.5042	-3.0479	-2.9583	-3.5125	-2.7333	-3.275	-3.325	-2.4979	-3.3042	-3.1854	168.515	-104.141	166.162	117.409	194.737	-19.493	58.306	130.153	-13.612	191.944	-86.768	69.713	153.219	213.536	-110.597	164.513	0.00030937	0.0012371	0.0012076	975.28	8.2016e-06	9.6118e-06	999.87	404.44	4.0698e-05	4.5878e-05	410.06	185.95	198.97	86.405	1.8419e-05	78.642	0.0041939	0.004187	0.0012313	1167.6	4.8412e-05	4.3863e-05	1111.1	435.14	4.6303e-05	4.5462e-05	537.28	205.27	213.86	86.982	5.1916e-05	89.343	-44.292	6.448	120.321	-113.213	-51.245	76.113	-115.765	-109.330	49.624	43.681	-112.354	-108.627	-106.022	-100.763	-80.366	-105.647	-8191	255	
3143.831	1	1	0	0	0.17865	0.10507	0.21712	0.17139	0.23936	0.19727	0.1863	0.12192	0.26514	0.22006	0.12563	0.11108	0.16665	0.30775	0.076423	0.088559	-2.3708	-3.4417	-2.5917	-3.1021	-3.2375	-2.575	-3.6042	-3.0146	-2.7562	-3.5438	-2.7958	-3.0083	-3.6	-2.75	-3.2667	-3.1104	215.360	45.176	-0.094	207.709	120.968	-29.545	182.984	68.657	122.923	51.802	138.716	227.759	176.731	-120.887	188.518	232.944	0.00060746	0.003688	0.0011839	988.72	7.0962e-06	2.31e-05	998.33	403.25	1.9475e-05	5.9313e-06	421.78	186.55	199.17	86.26	2.7843e-05	78.882	0.0040782	0.0042015	0.0013431	1156.7	4.7672e-05	4.4752e-05	1131	432.5	4.5113e-05	4.6964e-05	551.97	203.26	212.6	87.647	5.4558e-05	88.511	-10.973	225.386	106.029	-113.732	214.539	-93.993	-115.595	-108.655	-3.009	88.296	-112.466	-108.395	-106.095	-100.977	88.015	-105.331	-8191	255	
3143.950	1	1	0	0	0.13924	0.19861	0.23189	0.071657	0.1373	0.054123	0.16946	0.3939	0.16477	0.2711	0.05787	0.060008	0.18002	0.2285	0.041875	0.25997	-2.2271	-3.3292	-2.6292	-3.0042	-3.2667	-2.5396	-3.2979	-3.3521	-2.6458	-3.3292	-2.7292	-2.9792	-3.3208	-2.8	-3.2917	-3.2167	228.845	90.170	151.915	108.724	170.159	206.246	-87.600	172.216	22.607	205.113	-17.746	36.587	225.974	144.046	-13.410	171.868	0.00067711	0.0018682	0.00094405	982.34	3.0042e-05	3.7276e-06	1013.8	403.64	1.6197e-05	3.3974e-05	415.85	185.39	198.4	85.254	3.1125e-05	78.833	0.004007	0.0044392	0.0014095	1143	4.6713e-05	4.8685e-05	1136.5	429.34	4.4321e-05	5.04e-05	554.06	200.31	211.14	88.592	5.3345e-05	87.255	-42.325	110.752	190.544	-113.784	-2.898	16.508	-115.133	-108.762	65.448	203.597	-112.644	-108.440	-105.998	-100.828	53.657	-105.735	-8191	255	
3144.046	1	1	0	0	0.22394	0.19485	0.26502	0.35768	0.18841	0.11586	0.26301	0.24847	0.2245	0.3023	0.056618	0.15605	0.1229	0.14097	0.16997	0.075266	-2.2979	-3.4125	-2.8271	-2.8479	-3.4729	-2.7208	-3.3167	-3.5583	-2.4708	-3.425	-2.8792	-2.9042	-3.3521	-2.6646	-3.0812	-3.3208	195.770	17.829	-28.307	198.375	-62.810	89.585	206.574	221.570	32.784	32.707	126.031	139.282	225.073	190.397	122.294	-88.000	0.00070712	0.0027417	0.0013581	977.34	2.4386e-05	2.777e-05	997.11	401.03	8.9886e-06	2.6363e-05	410.3	182.22	195.49	84.552	4.1944e-05	76.654	0.0038942	0.0047619	0.0013738	1127.3	4.59e-05	5.2629e-05	1115.7	425.8	4.4457e-05	5.4152e-05	544.68	197.41	210.8	89.234	5.1881e-05	85.916	-48.823	134.606	-72.296	-113.299	187.399	-125.174	-115.081	-108.889	-111.134	98.051	-111.964	-108.800	-105.712	-101.002	4.595	-105.422	-8191	255	
3144.142	1	1	0	0	0.23925	0.15277	0.28911	0.11522	0.16423	0.14519	0.071463	0.21548	0.067423	0.083761	0.2941	0.38829	0.022899	0.23972	0.076856	0.19725	-2.1104	-3.2938	-2.9313	-2.7062	-3.3771	-2.7479	-3.1146	-3.3812	-2.6479	-3.1813	-3.0417	-2.6854	-3.6083	-3.0438	-2.8167	-3.7062	89.342	25.715	98.649	187.995	116.693	175.868	100.658	153.745	199.998	121.961	-14.339	170.083	58.584	185.868	-53.938	89.053	0.00082812	0.0034187	0.0012149	970.81	3.2528e-05	7.6324e-06	991.16	401.42	2.7517e-05	3.8258e-05	412.96	183.09	196.35	84.676	1.1147e-05	77.447	0.0040652	0.0051012	0.0013411	1117.6	4.8254e-05	5.6649e-05	1101.3	423.69	4.7579e-05	5.6875e-05	537.97	196.79	214.34	89.701	4.9624e-05	85.729	-56.477	132.754	-16.936	-113.483	-69.284	-59.363	-115.528	-109.008	211.340	67.891	-112.172	-109.189	-106.482	-101.023	-24.012	-105.812	-8191	255	
3144.239	1	1	0	0	0.14919	0.22509	0.074991	0.0033216	0.24239	0.20788	0.10902	0.24278	0.14277	0.11694	0.21359	0.13971	0.3132	0.41027	0.15129	0.19909	-2.2333	-3.1562	-3.0708	-2.8229	-3.3854	-2.9917	-3.1875	-3.5104	-2.7229	-3.1083	-3.2562	-2.65	-3.4104	-3.1312	-2.7792	-3.4667	95.323	-64.641	60.534	163.140	190.512	-88.913	191.077	152.652	209.461	114.396	226.195	230.335	211.103	192.007	232.182	186.348	0.0008101	0.0046351	0.00071444	974.15	2.4172e-05	2.1434e-06	997.77	402.56	2.3375e-05	8.4794e-06	411.22	182.64	196.6	84.928	2.7012e-05	76.904	0.0044549	0.0051698	0.0013036	1115.6	5.2221e-05	5.6568e-05	1094.3	421.57	5.1685e-05	5.4819e-05	529.22	195.75	217.51	89.238	4.7148e-05	85.253	-81.590	-48.984	28.838	-113.537	-52.320	-24.200	-115.312	-109.019	141.532	1.784	-112.002	-108.768	-106.018	-101.067	-11.673	-105.809	-8191	255	
3144.335	1	1	0	0	0.47024	0.05871	0.069808	0.13075	0.10783	0.17951	0.089492	0.26416	0.20641	0.19754	0.050659	0.31849	0.57051	0.079559	0.17985	0.22592	-2.4104	-3.0542	-3.1937	-2.6479	-3.4625	-2.9229	-2.6792	-3.6479	-2.5938	-2.9688	-3.5125	-2.6792	-3.4833	-3.175	-2.575	-3.3354	-50.448	-51.371	150.182	-44.108	10.779	-82.614	205.580	193.053	29.688	25.871	204.250	198.970	232.795	192.080	227.618	174.589	0.00060238	0.0030573	0.00086872	969.22	2.8835e-05	4.0465e-05	985.35	399.88	2.2492e-05	3.876e-05	414.35	181.77	196.19	85.382	1.1852e-05	76.875	0.0047629	0.004867	0.0012383	1108.4	5.4478e-05	5.3269e-05	1075.7	420.45	5.4232e-05	5.1093e-05	522.61	195.94	219.09	88.476	4.5215e-05	85.737	-113.798	-22.786	-46.215	-113.541	-93.874	46.619	-115.251	-108.655	226.806	25.340	-112.075	-108.715	-106.118	-101.030	27.323	-105.285	-8191	255	
3144.431	1	1	0	0	0.16761	0.03188	0.086735	0.3415	0.074804	0.072864	0.27628	0.25184	0.12987	0.17134	0.23175	0.064278	0.13658	0.13683	0.30997	0.1329	-2.1771	-3.0146	-3.1417	-2.6104	-3.1583	-3.2396	-2.8146	-3.5375	-2.5708	-2.6896	-3.3563	-2.5917	-3.2938	-3.1854	-2.5	-3.4708	56.734	50.569	-17.873	187.618	135.293	50.927	85.718	150.665	179.180	156.810	174.354	-26.309	210.503	-97.452	-109.474	155.635	0.00090648	0.0014891	0.00029913	958.05	4.5607e-05	3.0705e-06	985.83	400.54	2.3194e-05	2.0372e-05	415.08	181.69	197.56	85.184	3.2906e-05	77.108	0.004923	0.0045413	0.0012034	1122.6	5.5392e-05	5.0921e-05	1065.4	427.12	5.5349e-05	4.901e-05	517.44	200.77	219.24	87.675	4.4554e-05	88.076	-54.449	-101.070	-0.404	-113.727	36.546	205.924	-115.558	-108.989	83.317	-21.889	-111.931	-108.856	-105.771	-100.823	97.023	-105.777	-8191	255	
3144.527	1	1	0	0	0.32049	0.15943	0.14678	0.23561	0.096481	0.090836	0.19517	0.18858	0.066572	0.1885	0.14868	0.029783	0.18528	0.29797	0.09694	0.09935	-2.6083	-2.5729	-3.4021	-2.6125	-3.1	-3.3583	-2.7729	-3.4854	-2.6854	-2.7042	-3.2812	-2.7542	-3.2083	-3.5312	-2.5229	-3.3604	158.347	-2.258	144.155	127.584	-90.607	155.712	-89.522	176.395	103.543	198.580	-94.917	-125.392	-119.374	184.494	-82.587	182.555	0.00053848	0.002225	0.00079597	968.04	1.0065e-05	9.1302e-06	985.12	400.76	1.1534e-05	1.0879e-05	411.32	181.57	196.56	84.458	4.3904e-06	76.417	0.0049025	0.0044318	0.001198	1156.5	5.3982e-05	4.9933e-05	1066.7	433.75	5.3731e-05	4.736e-05	516.91	203.72	215.6	86.944	4.5144e-05	88.514	-24.639	-66.487	-67.734	-114.136	39.980	47.630	-115.386	-109.006	40.134	95.553	-112.051	-109.402	-105.905	-100.741	-107.972	-105.918	-8191	255	
3144.621	1	1	0	0	0.29891	0.077613	0.17323	0.21544	0.21927	0.11795	0.0028386	0.11481	0.11518	0.1801	0.11919	0.34471	0.26703	0.15504	0.11232	0.28586	-2.4396	-2.6312	-3.2792	-2.6333	-3.1042	-3.3438	-2.6979	-3.5833	-3.0042	-2.6375	-3.3833	-2.8417	-2.9542	-3.5938	-2.7188	-3.25	43.914	95.643	-81.058	227.653	19.110	140.004	196.999	103.274	170.726	22.164	-117.541	181.896	139.996	112.336	-4.058	-72.241	0.0003238	0.0014026	0.00028988	961.16	6.7581e-06	3.4673e-05	976.59	399.75	1.261e-05	4.1255e-05	405.48	180.12	195.29	83.44	1.7787e-05	76.023	0.0046681	0.0042574	0.0012091	1169.6	5.0546e-05	4.831e-05	1069.7	434.12	5.0882e-05	4.5434e-05	521.88	203.75	211.95	85.98	4.8366e-05	88.226	8.566	-109.044	139.601	-113.849	32.330	80.242	-115.793	-109.043	78.027	12.554	-112.354	-108.839	-105.899	-101.106	217.133	-105.153	-8191	255	
3144.742	1	1	0	0	0.14663	0.27098	0.040277	0.25427	0.10469	0.16657	0.41874	0.31578	0.14962	0.1818	0.23601	0.21283	0.057428	0.14979	0.26097	0.34075	-2.8104	-2.5563	-3.5375	-2.9062	-2.7104	-3.5333	-2.7938	-3.4417	-3.0812	-2.6771	-3.3604	-2.8854	-2.8	-3.5792	-2.7771	-3.2938	218.336	89.129	61.919	115.969	-44.418	94.870	152.893	189.394	-91.201	12.649	228.743	180.909	-62.986	203.508	-2.370	185.042	0.00073702	0.0017101	0.00060283	963.26	2.0357e-06	1.8911e-05	967.33	394.28	2.1456e-05	3.3333e-05	408.45	180.53	195.89	83.856	4.6818e-05	76.231	0.0044418	0.0041229	0.0012994	1170.5	4.8394e-05	4.6929e-05	1087.9	431.41	4.9606e-05	4.4919e-05	539.73	203.19	209.87	85.937	5.2932e-05	87.613	14.689	-29.494	157.202	-113.628	69.249	29.444	-116.030	-108.850	2.067	-33.770	-112.133	-108.822	-105.866	-100.821	174.005	-105.177	-8191	255	
3144.838	1	1	0	0	0.056974	0.2624	0.096978	0.30978	0.11132	0.050034	0.20468	0.31474	0.1225	0.17258	0.15615	0.22958	0.20647	0.21941	0.10733	0.16757	-2.8833	-2.6271	-3.1729	-2.8688	-2.7042	-3.5354	-2.7812	-2.9854	-3.2354	-2.6292	-3.4771	-3.0896	-2.7208	-3.5292	-2.6896	-3.1104	189.312	-50.982	83.538	203.550	-61.697	96.845	157.457	144.573	144.720	134.704	219.373	173.792	111.624	196.959	65.341	198.324	0.00060053	0.00019935	0.00089281	968.04	1.308e-05	1.4893e-05	976.84	400.7	1.5522e-05	2.7308e-05	406.1	181.08	195.46	83.86	8.8797e-06	76.156	0.0043724	0.004128	0.0013929	1158.3	4.6989e-05	4.7315e-05	1112.8	428.53	4.8009e-05	4.618e-05	549.09	201.07	208.9	86.426	5.5232e-05	85.843	7.716	-57.063	76.814	-113.668	24.544	176.071	-115.668	-108.675	87.684	226.636	-111.700	-108.664	-106.213	-101.121	208.059	-105.496	-8191	255	
3144.910	1	1	0	0	0.15074	0.12103	0.1845	0.074874	0.12542	0.14367	0.1375	0.20992	0.28302	0.13448	0.21147	0.10364	0.21516	0.24391	0.035224	0.1297	-3.0312	-2.5083	-3.3833	-2.9437	-2.3917	-3.3792	-2.7938	-3.0625	-3.4604	-2.6	-3.2833	-3.2062	-2.6708	-3.4375	-2.7958	-2.8083	-0.326	78.201	-89.455	-125.100	14.490	221.862	79.103	183.583	108.549	207.418	88.740	121.387	179.890	178.392	97.205	205.255	0.000347	0.0025453	0.00040734	952.77	2.8765e-05	9.8245e-06	967.55	396.02	1.8797e-05	9.1915e-06	413.58	180.94	195.31	84.35	2.6049e-05	76.273	0.0042492	0.004393	0.0014115	1132.4	4.5167e-05	4.9938e-05	1110.5	420.67	4.6524e-05	4.9157e-05	544.75	197.9	206.73	87.639	5.4238e-05	84.996	-61.654	160.604	-67.414	-113.445	-5.516	-10.251	-115.609	-108.645	25.858	170.805	-111.935	-108.843	-106.282	-100.749	69.865	-105.297	-8191	255	
3145.030	1	1	0	0	0.07669	0.12116	0.19146	0.22341	0.15614	0.20265	0.16104	0.33974	0.083649	0.16204	0.14689	0.27392	0.23352	0.39222	0.037876	0.17206	-3.0083	-2.4729	-3.0792	-3.4188	-2.6063	-3.2958	-2.9708	-2.95	-3.4292	-2.6021	-3.1375	-3.3354	-2.6771	-3.4688	-2.9062	-2.725	-22.817	2.310	24.855	218.459	177.555	167.950	-110.417	158.991	56.676	90.275	105.219	220.546	206.315	194.659	-29.331	194.171	0.0011516	0.0032344	0.0015936	962.53	1.598e-05	1.4017e-05	975.6	399.64	4.9752e-06	3.1095e-05	410.05	181.03	196.31	84.726	2.2687e-05	77.592	0.004079	0.0047196	0.0013641	1126.1	4.4033e-05	5.3144e-05	1104.7	419.01	4.5756e-05	5.3194e-05	537.81	197.81	207.97	89.256	5.2051e-05	85.045	-58.501	132.886	-52.709	-113.434	163.545	-122.895	-115.041	-108.581	136.630	228.146	-111.736	-108.829	-105.563	-100.608	-14.008	-105.401	-8191	255	
3145.127	1	1	0	0	0.24682	0.042547	0.050031	0.14962	0.08672	0.13962	0.088563	0.25331	0.052982	0.12059	0.16423	0.36671	0.26016	0.17753	0.090129	0.19449	-2.8646	-2.6271	-2.9833	-3.4917	-2.6833	-3.2375	-3.3187	-2.8563	-3.5625	-2.9146	-3.0354	-3.4646	-2.6063	-3.3	-3.0292	-2.8542	94.058	48.148	-104.537	168.797	-48.221	181.317	77.075	184.469	5.668	-60.124	16.607	211.906	225.306	178.688	146.152	74.863	0.00090756	0.0018963	0.00039112	963.14	4.7705e-05	1.5192e-05	979.24	399.92	2.3575e-05	7.9596e-06	415.7	180.71	196.28	84.562	4.1559e-05	76.605	0.0041692	0.0050326	0.0013011	1119.2	4.6128e-05	5.6236e-05	1089.6	416.54	4.7947e-05	5.5461e-05	526.43	196.54	210.5	89.078	4.9821e-05	83.681	-57.630	217.954	-1.698	-113.548	223.074	26.391	-115.272	-108.468	-62.924	60.730	-111.091	-108.519	-106.143	-100.478	-23.082	-105.478	-8191	255	
3145.223	1	1	0	0	0.066237	0.01666	0.23405	0.028895	0.13449	0.13268	0.1078	0.080905	0.18215	0.37502	0.16578	0.251	0.26326	0.22337	0.35003	0.13903	-2.9979	-2.9521	-2.9146	-3.5396	-2.7146	-3.1125	-3.3438	-2.7167	-3.4146	-2.8958	-2.7792	-3.5729	-2.7792	-2.9979	-3.2833	-2.6917	71.105	174.618	-88.118	-89.342	-56.415	73.010	191.744	130.330	233.273	177.872	-88.063	169.469	199.476	204.077	-29.062	156.992	0.00099611	0.0019891	0.00118	961.53	4.3436e-05	2.4637e-05	974.72	393.23	7.9831e-06	4.0373e-05	409.24	179.16	195.51	84.07	3.327e-05	75.55	0.004438	0.005055	0.0012242	1106.4	4.9741e-05	5.4686e-05	1076.9	411.59	5.1279e-05	5.447e-05	514.49	194.43	214.96	88.221	4.8799e-05	83.207	-64.862	35.370	-105.897	-114.190	212.001	15.729	-115.400	-108.481	180.988	42.551	-111.935	-108.546	-105.653	-100.653	73.463	-105.718	-8191	255	
3145.319	1	1	0	0	0.17552	0.16207	0.3049	0.13048	0.040288	0.054043	0.020913	0.2088	0.10026	0.11998	0.1222	0.11208	0.076072	0.25578	0.083224	0.095552	-2.8104	-2.8771	-2.6083	-3.6625	-2.8958	-3.0292	-3.5792	-2.6458	-3.4083	-2.9354	-2.7333	-3.5229	-2.75	-3.075	-3.4396	-2.7458	174.500	87.241	-83.338	198.156	-46.339	-101.352	77.149	207.943	-70.574	69.909	196.818	-83.476	61.528	-82.690	42.747	-92.576	0.0010003	0.0030146	0.00052997	969.68	3.5713e-05	2.0207e-05	969.94	397.43	4.3964e-06	1.7879e-05	409.55	182.36	197.25	84.924	1.2664e-05	77.127	0.0047614	0.0049051	0.0011878	1113.4	5.3824e-05	5.2241e-05	1072.5	416.03	5.4352e-05	5.2156e-05	511.02	197.57	219.5	87.985	4.7304e-05	85.6	-109.076	-69.711	28.801	-113.549	221.257	18.862	-115.188	-108.423	72.932	103.440	-112.168	-108.844	-105.782	-100.733	77.292	-105.124	-8191	255	
3145.440	1	1	0	0	0.18193	0.019447	0.36402	0.15643	0.33166	0.1121	0.39479	0.11943	0.0067556	0.047017	0.023862	0.10297	0.16683	0.39217	0.053411	0.25688	-2.9896	-2.9021	-2.5062	-3.5	-2.775	-2.9896	-3.4958	-2.6021	-3.1771	-3.0729	-2.5271	-3.5958	-2.8812	-2.8146	-3.3625	-2.7958	-102.022	53.144	-97.850	203.176	53.949	-67.021	200.601	157.264	21.281	201.786	-26.448	211.957	152.647	-96.329	71.477	172.036	0.00047164	0.0011563	0.00016611	958.97	1.4177e-05	1.743e-05	977.23	399.05	3.0467e-05	1.2766e-05	413.87	183.32	197.15	85.057	4.2746e-06	76.516	0.0049099	0.0047217	0.0011596	1130.2	5.5799e-05	4.9937e-05	1075.6	424.64	5.527e-05	5.0469e-05	510.57	202.19	219.38	87.215	4.6451e-05	87.214	-74.066	105.818	-56.931	-113.109	46.052	44.256	-115.192	-109.126	21.129	12.515	-111.385	-108.983	-105.732	-100.673	64.769	-105.316	-8191	255	
3145.534	1	1	0	0	0.22396	0.13027	0.099275	0.23021	0.15394	0.074059	0.11088	0.24349	0.12974	0.15063	0.15974	0.098186	0.42551	0.15675	0.062004	0.16769	-2.8229	-3.2313	-2.6146	-3.5229	-2.8896	-2.6771	-3.5104	-2.8896	-3.0187	-3.1417	-2.7271	-3.3937	-3.1562	-3.0083	-3.3688	-2.8542	-101.422	114.525	-16.305	223.725	86.023	-25.788	214.520	184.296	177.115	165.321	-94.809	-96.915	186.192	-126.632	178.378	-104.074	0.00087076	0.0038669	0.00089305	962.28	3.1187e-05	1.7044e-05	977.39	397.19	3.3125e-05	1.8511e-05	408.52	181.81	196.19	84.578	2.544e-05	76.482	0.0048289	0.0045985	0.0011477	1156	5.4877e-05	4.8251e-05	1066.5	430.37	5.2863e-05	4.9305e-05	507.36	204.74	216.97	86.536	4.6986e-05	88.726	-8.014	-1.122	-57.324	-113.651	14.576	71.743	-115.764	-108.967	58.940	11.171	-112.527	-108.752	-105.641	-100.566	122.005	-105.351	-8191	255	
3145.632	1	1	0	0	0.18049	0.27517	0.14935	0.053564	0.16965	0.081731	0.26433	0.33775	0.20701	0.14492	0.3152	0.030463	0.22187	0.29616	0.050188	0.21857	-2.7021	-3.4813	-2.5729	-3.4	-2.8708	-2.5438	-3.3667	-2.8438	-3.1458	-3.4333	-2.5021	-3.35	-3.0812	-2.6271	-3.375	-2.9062	19.017	104.913	-3.814	-92.012	83.431	-97.979	218.963	197.952	-125.139	164.566	204.379	222.271	170.606	-112.298	142.421	181.429	0.00040757	0.00065743	0.00028949	979.98	1.7667e-05	2.7762e-05	974.79	398.1	1.5012e-05	1.6311e-05	411.51	183.81	198.16	84.667	2.0745e-05	78.227	0.0045954	0.0044594	0.0011857	1178	5.2291e-05	4.6449e-05	1081.2	436.45	5.0105e-05	4.811e-05	523.41	207.03	214.85	86.167	5.0067e-05	90.173	-30.213	16.099	162.690	-112.987	109.819	48.268	-115.147	-109.080	143.509	7.168	-111.957	-108.353	-105.821	-100.357	201.421	-105.381	-8191	255	
3145.726	1	1	0	0	0.081746	0.018774	0.183	0.19497	0.099632	0.30325	0.23788	0.24724	0.15353	0.1268	0.068235	0.14576	0.14953	0.15455	0.085317	0.12803	-2.3312	-3.375	-2.4896	-3.3688	-3.1396	-2.4625	-3.4271	-2.8042	-2.8896	-3.4062	-2.5542	-3.1958	-3.2146	-2.5833	-3.3208	-2.9188	-14.973	184.827	-101.873	216.437	-97.347	-94.133	175.046	157.430	-0.119	-25.957	-56.533	116.105	131.536	-124.591	42.615	214.144	0.00078276	0.0039827	0.0011028	974.15	6.1737e-06	3.1812e-06	989.31	402.97	2.2103e-05	1.8066e-05	417.63	187.37	199.51	85.312	2.2991e-05	78.551	0.0043597	0.0043511	0.0012826	1177.6	5.0146e-05	4.5416e-05	1111.9	437.57	4.7951e-05	4.6952e-05	544.13	206.71	214.92	86.552	5.3271e-05	89.682	82.556	-13.606	100.284	-112.787	-84.102	-83.614	-115.181	-108.728	86.102	45.572	-112.017	-108.476	-105.755	-100.630	220.180	-105.499	-8191	255	
3145.822	1	1	0	0	0.057403	0.17768	0.2065	0.05906	0.17724	0.060316	0.076112	0.39644	0.058194	0.1535	0.061417	0.079011	0.16534	0.27102	0.04071	0.30701	-2.3604	-3.3333	-2.6875	-3.0563	-3.1729	-2.6479	-3.4146	-3.1417	-2.775	-3.575	-2.6125	-3.125	-3.325	-2.9	-3.325	-3.1667	161.711	52.885	-49.171	216.378	-71.302	173.777	209.989	178.900	34.744	105.679	91.713	-33.086	219.361	233.324	166.909	187.119	0.00020435	0.0006967	0.00093408	972.32	1.2836e-05	3.7894e-05	997.58	402.09	2.8362e-05	2.2543e-05	415.81	185.55	198.89	85.827	3.8934e-05	79.036	0.0041631	0.0042835	0.0013695	1156.3	4.8575e-05	4.5679e-05	1128.3	432.38	4.5713e-05	4.7438e-05	553.04	203.53	212.4	87.498	5.5087e-05	88.833	-13.831	-0.810	152.861	-112.894	15.542	-107.643	-114.816	-108.631	62.078	-77.092	-111.790	-108.389	-106.018	-100.840	-100.646	-105.198	-8191	255	
3145.919	1	1	0	0	0.15647	0.12175	0.22234	0.21127	0.1709	0.18666	0.15298	0.13317	0.1487	0.10428	0.15837	0.30776	0.12078	0.15898	0.14234	0.19623	-1.9729	-3.4104	-2.7167	-2.8937	-3.3937	-2.6354	-3.4792	-3.3625	-2.7812	-3.5292	-2.7917	-3.1271	-3.4479	-2.7479	-3.0792	-3.3833	198.903	188.779	153.509	216.849	-77.785	118.883	5.384	154.306	-81.028	-70.768	134.487	170.882	105.801	213.587	61.387	148.865	0.0002647	0.0017064	0.00043536	979.22	1.5082e-05	1.8037e-05	1005.6	403.41	1.8872e-05	2.9071e-05	416.79	185.38	198.41	84.869	1.809e-05	79.004	0.0040148	0.0045006	0.0014179	1142.6	4.6969e-05	4.894e-05	1137	428.84	4.4831e-05	5.0959e-05	557.49	202.01	212.33	88.688	5.476e-05	88.013	163.644	226.992	207.508	-113.454	74.428	-123.811	-115.712	-108.748	185.704	219.993	-111.777	-108.554	-106.343	-101.055	-25.835	-105.556	-8191	255	
3146.039	1	1	0	0	0.10479	0.28543	0.11994	0.25597	0.17151	0.072339	0.21447	0.34242	0.054913	0.10176	0.032797	0.10666	0.22818	0.14891	0.13241	0.15421	-2.2667	-3.3729	-3.0354	-2.9292	-3.2604	-2.7021	-3.3125	-3.3063	-2.6437	-3.4229	-3.0396	-2.7708	-3.375	-2.825	-2.9417	-3.2875	188.624	188.123	20.126	163.928	40.567	-111.946	136.881	180.809	105.724	-23.741	-82.592	116.835	190.149	185.580	-63.638	207.363	0.0010521	0.0039271	0.00073996	983.27	3.0396e-05	7.0664e-06	1004	400.19	3.0941e-05	4.2731e-05	419.56	185.17	196.32	84.603	2.8976e-05	77.348	0.0040038	0.0049374	0.0014212	1135.8	4.7124e-05	5.4503e-05	1129.1	428.6	4.5464e-05	5.5797e-05	552.8	200.62	212.36	89.58	5.2478e-05	86.863	-68.377	160.316	10.530	-113.932	-4.959	-111.909	-114.771	-108.885	-15.926	212.820	-112.101	-108.475	-105.995	-100.689	40.629	-105.570	-8191	255	
3146.135	1	1	0	0	0.13767	0.18012	0.20749	0.16094	0.045006	0.28656	0.066644	0.21216	0.1369	0.30028	0.043131	0.062474	0.20315	0.10653	0.16654	0.17998	-2.2313	-3.3083	-3.0167	-2.6583	-3.325	-2.7583	-3.2854	-3.3688	-2.525	-3.3396	-3.1188	-2.9375	-3.4437	-2.9	-2.8625	-3.3604	-64.390	116.621	-122.924	230.671	149.896	-103.422	146.246	120.237	132.960	93.994	149.908	95.373	-109.439	-100.874	-6.207	198.971	0.0011089	0.0030001	0.00099649	972.76	5.8781e-05	4.6543e-06	995.46	399.97	2.0249e-05	2.711e-05	414.45	183.96	195.68	84.119	2.7017e-05	76.897	0.0041285	0.0051885	0.0013621	1123.1	4.8757e-05	5.7091e-05	1105.8	423.12	4.781e-05	5.6939e-05	538.36	197.1	214.3	89.558	4.9254e-05	85.453	-62.674	192.688	-61.624	-113.136	187.699	47.917	-115.329	-108.775	224.127	-38.489	-111.800	-108.899	-106.237	-101.093	40.542	-105.237	-8191	255	
3146.207	1	1	0	0	0.10481	0.22072	0.044784	0.17077	0.11193	0.036678	0.39453	0.17387	0.13048	0.046562	0.056878	0.12554	0.19104	0.26705	0.11954	0.25554	-2.0938	-3.1188	-3.1875	-2.6292	-3.3729	-3.0125	-2.8604	-3.5979	-2.5958	-3.1083	-3.2438	-2.7042	-3.4417	-3.2313	-2.7687	-3.4188	201.122	-113.812	31.286	226.333	-70.189	-7.813	147.482	178.938	41.632	-68.835	-119.544	190.633	144.594	211.287	-62.627	168.763	0.0013087	0.00261	0.00028781	968.21	1.0677e-05	1.7348e-05	991.24	399.53	3.5338e-05	2.7042e-05	415.3	184.4	195.88	84.628	1.6085e-05	76.753	0.0044769	0.0051563	0.0012974	1111.6	5.2515e-05	5.6536e-05	1091.7	420.96	5.2111e-05	5.5026e-05	533.57	196.76	217.85	89.274	4.7585e-05	85.491	-51.167	1.145	-94.794	-113.462	137.237	157.176	-115.487	-109.196	-82.142	-22.178	-112.157	-108.592	-106.242	-101.069	27.777	-105.426	-8191	255	
3146.303	1	1	0	0	0.10234	0.095375	0.13372	0.17162	0.23067	0.20507	0.13986	0.37953	0.19561	0.20637	0.19865	0.1164	0.26691	0.090367	0.0241	0.28677	-2.1125	-3.0479	-3.25	-2.7458	-3.4	-2.925	-2.8208	-3.4729	-2.7104	-3.0896	-3.3563	-2.75	-3.2667	-3.275	-2.6375	-3.5812	60.747	-81.030	-11.691	-16.631	-13.802	79.129	193.286	212.015	57.335	181.390	177.858	-121.084	164.645	94.714	117.369	197.630	0.00063867	0.0019141	0.00037928	971.36	2.2554e-05	3.3844e-05	992.84	401.59	1.7252e-05	1.9823e-05	418.29	183.56	197.73	84.63	3.3082e-05	77.01	0.0048017	0.0048851	0.00126	1114.2	5.5153e-05	5.3801e-05	1085.9	422.76	5.5033e-05	5.1616e-05	527.3	198.72	220.29	88.213	4.5561e-05	86.182	-39.045	-24.843	-48.496	-113.334	-39.458	46.499	-114.901	-108.919	-119.024	-11.101	-111.571	-108.721	-105.908	-100.998	37.251	-105.347	-8191	255	
3146.424	1	1	0	0	0.11684	0.27652	0.17737	0.079114	0.21244	0.10465	0.23108	0.2352	0.22708	0.17919	0.16495	0.20013	0.20524	0.32798	0.34595	0.22898	-2.4833	-2.9625	-3.2812	-2.6958	-3.2979	-3.1021	-2.9208	-3.5771	-2.9062	-3.1146	-3.5687	-2.7917	-3.3063	-3.3	-2.5167	-3.3833	-74.827	-47.756	38.921	192.369	163.302	54.788	202.864	-126.356	172.698	113.181	-80.724	122.427	197.056	174.514	-45.182	131.262	0.00094624	0.0050348	0.0010841	968.69	2.9046e-05	4.4194e-05	980.93	397.14	2.5709e-05	2.1926e-05	408.19	181.66	194.1	83.885	1.8594e-05	76.618	0.004982	0.0046199	0.0012095	1128.4	5.5796e-05	5.1055e-05	1064.4	424.69	5.5554e-05	4.891e-05	514.52	200.04	216.9	86.766	4.4297e-05	87.255	-52.644	-10.282	97.088	-113.774	69.060	60.941	-115.257	-108.836	40.484	-6.361	-112.266	-108.721	-105.656	-100.666	-71.477	-105.544	-8191	255	
3146.520	1	1	0	0	0.10584	0.17553	0.085777	0.057818	0.3969	0.19802	0.28603	0.13895	0.22198	0.17204	0.16557	0.085726	0.12796	0.18163	0.17162	0.078262	-2.6125	-2.7938	-3.325	-2.7667	-3.1937	-3.3396	-2.6188	-3.4771	-2.8042	-2.7042	-3.3417	-2.8167	-3.1333	-3.4958	-2.5792	-3.4708	104.474	81.856	88.035	-54.230	213.904	74.708	199.509	188.683	-6.200	75.012	188.230	117.417	223.876	219.967	208.571	-113.305	0.00039532	0.0017535	0.00067378	965.16	3.8084e-05	2.8458e-05	981.27	399.59	3.0516e-05	8.6083e-06	409.75	180.5	196.56	83.588	2.2281e-05	76.423	0.0048509	0.0043818	0.0011808	1152.6	5.3463e-05	4.9573e-05	1063.9	432.34	5.3476e-05	4.7244e-05	515.58	204.06	215.3	86.092	4.549e-05	88.401	-44.580	66.335	-120.514	-113.565	7.661	-41.156	-115.570	-108.802	62.767	-77.747	-111.909	-108.845	-106.023	-101.020	161.269	-105.908	-8191	255	
3146.614	1	1	0	0	0.14158	0.030717	0.40572	0.19264	0.067951	0.15904	0.23802	0.36408	0.18135	0.10546	0.18302	0.27941	0.23134	0.10372	0.16668	0.27659	-2.5292	-2.5458	-3.4125	-2.6437	-2.9042	-3.1917	-2.6458	-3.3417	-3.0167	-2.675	-3.2667	-2.8688	-2.9646	-3.5854	-2.5104	-3.3438	232.925	181.137	129.482	190.610	196.926	176.310	-60.579	178.462	-93.018	98.156	106.673	-88.199	10.706	222.405	85.302	211.607	0.00032562	0.0015674	0.00019899	953.28	2.5844e-05	3.1332e-05	973.2	397.03	2.6451e-05	1.2515e-05	406.6	182.51	195.43	83.028	4.4937e-05	76.091	0.0047072	0.0042837	0.0012217	1172.9	5.0444e-05	4.8105e-05	1074.2	434.16	5.0719e-05	4.5796e-05	526.56	205.06	211.54	85.576	4.8798e-05	88.095	88.716	-14.320	179.154	-113.799	16.017	-42.254	-115.843	-108.765	86.541	-10.558	-112.289	-108.903	-106.129	-101.135	216.234	-105.789	-8191	255	
3146.712	1	1	0	0	0.077733	0.14107	0.16645	0.11719	0.054308	0.092454	0.2423	0.14805	0.18625	0.12206	0.3973	0.19688	0.24362	0.14538	0.25413	0.056993	-2.8563	-2.5375	-3.3583	-2.9875	-2.8458	-3.4542	-2.7771	-3.3083	-3.0417	-2.5146	-3.4375	-2.9167	-2.9313	-3.6667	-2.6125	-3.2292	-115.355	-78.897	43.003	173.432	70.796	26.894	-104.919	190.950	-107.218	70.697	199.148	62.124	144.972	142.297	-73.239	-98.735	0.00084846	0.00069211	0.001978	963.47	1.7799e-05	3.1159e-05	969.71	397.58	7.7218e-06	2.2223e-05	406.87	180.71	194.14	82.886	4.4686e-05	75.961	0.0044457	0.0041008	0.0013028	1167.7	4.7903e-05	4.6808e-05	1088.1	429.86	4.879e-05	4.4137e-05	535.95	201.95	208.42	84.954	5.2443e-05	86.582	-65.649	-29.486	130.037	-114.100	40.844	-31.038	-115.634	-109.469	-117.063	-61.561	-112.179	-109.422	-106.498	-101.332	206.381	-105.683	-8191	255	
3146.807	1	1	0	0	0.11833	0.094985	0.23147	0.27007	0.18072	0.14772	0.018665	0.148	0.33696	0.21289	0.1827	0.35264	0.20345	0.15949	0.051313	0.057421	-2.8646	-2.5917	-3.2854	-2.9896	-2.6896	-3.2771	-2.8708	-3.2271	-3.2792	-2.475	-3.3438	-3.0542	-2.8937	-3.6229	-2.75	-3.05	133.493	35.059	28.282	183.494	-56.729	42.101	34.473	-27.024	-30.193	193.984	190.064	165.986	169.528	150.266	180.709	202.799	0.00099758	0.0012249	0.00040964	957.13	1.8715e-05	2.0988e-05	970.75	397.78	5.157e-05	2.9898e-05	404.79	180.26	194.25	83.291	2.1751e-05	76.44	0.0042681	0.0040688	0.0013696	1146.9	4.5677e-05	4.6692e-05	1104.6	424.73	4.7288e-05	4.5809e-05	545.3	199.45	207.22	86.089	5.4719e-05	85.65	-38.403	153.114	103.454	-113.750	29.474	176.733	-116.072	-108.827	55.148	158.373	-112.329	-109.290	-106.139	-101.470	-23.614	-105.439	-8191	255	
3146.903	1	1	0	0	0.20629	0.3264	0.24047	0.23769	0.26492	0.25021	0.16655	0.31154	0.1273	0.19595	0.17605	0.1919	0.39005	0.4073	0.17018	0.30487	-3.1854	-2.6021	-3.2021	-3.1646	-2.5312	-3.3729	-2.9229	-2.95	-3.5396	-2.6917	-3.1312	-3.0938	-2.5312	-3.5479	-2.8375	-2.8812	198.184	155.700	-21.236	187.983	-102.194	-58.431	127.420	191.253	159.816	161.849	104.870	191.645	-124.128	205.484	98.052	160.012	0.00046056	0.0045876	0.0005121	966.5	3.4314e-05	3.8249e-05	975.98	398.16	2.4244e-05	6.8308e-06	417.4	182.23	195.7	83.743	2.3484e-05	76.566	0.0041466	0.0043393	0.001397	1136.6	4.4521e-05	4.9896e-05	1116	421.26	4.6055e-05	4.9715e-05	547.64	199.43	206.72	87.565	5.4256e-05	84.746	-79.788	161.559	-34.296	-114.250	12.961	-112.203	-115.937	-109.235	87.977	-114.738	-112.297	-109.010	-106.064	-101.068	30.620	-105.588	-8191	255	
3146.999	1	1	0	0	0.080504	0.1417	0.24891	0.095206	0.084953	0.24016	0.21978	0.14511	0.19345	0.16692	0.087043	0.14203	0.18032	0.28937	0.080168	0.048764	-3.0292	-2.4417	-3.0687	-3.2562	-2.7521	-3.4188	-3.0146	-2.9292	-3.4062	-2.7021	-3.1667	-3.4896	-2.6104	-3.3604	-2.8729	-2.6417	189.701	178.190	215.343	84.741	-40.809	44.604	177.453	116.522	186.572	66.989	-12.771	220.636	232.527	204.755	38.454	-9.556	0.00068873	0.0019456	0.00050078	961.3	1.2951e-05	1.4204e-05	970.94	393.37	7.455e-06	2.3108e-05	406.91	180.65	193.97	83.02	3.1757e-05	75.829	0.0040873	0.0047543	0.0013535	1121.9	4.4201e-05	5.3643e-05	1102.3	414.58	4.5279e-05	5.3356e-05	532.15	196.46	206.33	87.967	5.1348e-05	83.632	-47.195	154.173	-66.319	-113.649	100.340	231.837	-115.591	-109.313	110.504	-110.257	-112.189	-109.089	-106.412	-101.006	14.514	-105.998	-8191	255	
3147.120	1	1	0	0	0.15889	0.11212	0.33533	0.096928	0.058812	0.14888	0.23878	0.24296	0.13706	0.14981	0.50632	0.45073	0.24146	0.24389	0.1655	0.30099	-3.1146	-2.7979	-3.0312	-3.1875	-2.4292	-3.2958	-2.9625	-2.7292	-3.4917	-2.9667	-2.8146	-3.4542	-2.8292	-3.3417	-3.0083	-2.7583	164.087	33.830	-25.223	207.283	-95.254	230.053	181.745	166.012	132.407	-125.803	198.010	181.831	221.102	-110.546	-80.148	-76.282	0.0012717	0.00078778	0.0005756	958.55	2.5916e-05	2.04e-06	975.06	397.9	1.3719e-05	3.2692e-06	411.1	181.72	193.09	83.251	1.5565e-05	75.688	0.004167	0.00499	0.0012709	1113.5	4.6073e-05	5.5518e-05	1088.2	413.67	4.8499e-05	5.5677e-05	524.61	196.32	210.72	88.421	5.0185e-05	83.171	-53.753	-81.455	36.457	-113.809	232.761	48.208	-115.681	-109.017	-76.156	10.068	-112.640	-109.339	-106.419	-100.820	-23.421	-105.416	-8191	255	
3147.216	1	1	0	0	0.14964	0.16168	0.17116	0.042038	0.19667	0.033979	0.095506	0.12547	0.1986	0.088857	0.097649	0.18536	0.2098	0.41269	0.20109	0.35349	-2.9542	-2.7625	-2.5771	-3.325	-2.575	-3.1396	-3.1125	-2.7167	-3.3979	-2.7812	-2.7458	-3.475	-2.7687	-3.0125	-3.2562	-2.7417	0.911	108.015	224.702	98.628	-48.852	98.753	-79.469	166.773	-86.294	52.992	211.407	151.741	-113.971	171.597	83.907	186.708	0.0011543	0.0031124	0.0013573	962.22	2.7893e-05	4.6878e-05	974.84	397.34	9.427e-06	2.3954e-05	410.78	180.24	195.02	83.73	3.3861e-05	75.975	0.0045171	0.005134	0.0012354	1110.3	5.0871e-05	5.4768e-05	1083	414.02	5.2589e-05	5.5104e-05	519.47	195.55	216	87.648	4.9339e-05	83.412	-36.689	-84.672	-52.339	-114.022	135.399	19.854	-115.684	-109.016	195.875	37.771	-112.386	-109.010	-106.350	-101.069	40.951	-106.258	-8191	255	
3147.312	1	1	0	0	0.13597	0.052289	0.067184	0.029624	0.06711	0.20101	0.094452	0.20961	0.1555	0.043647	0.24209	0.2136	0.056401	0.28382	0.16161	0.30009	-2.9604	-2.9479	-2.85	-3.5083	-2.6646	-3.1188	-3.4188	-2.7875	-3.2604	-3.075	-2.8625	-3.5229	-2.8812	-3.0542	-3.2833	-2.8042	7.503	70.773	7.607	-30.913	177.391	3.345	151.225	110.214	167.562	17.364	132.730	232.677	143.092	154.415	60.234	95.967	0.0010468	0.0021709	0.0012283	952.48	4.5481e-05	1.0682e-05	970.96	392.3	1.1109e-05	2.8182e-05	403.89	178.48	191.71	83.108	2.1744e-05	74.307	0.0048646	0.0049687	0.0012053	1112.3	5.4964e-05	5.2386e-05	1069.8	413.5	5.5642e-05	5.2823e-05	508.8	195.83	216.45	86.029	4.7413e-05	83.842	-30.881	13.807	-62.171	-113.875	-115.170	68.787	-115.893	-109.123	-28.688	-22.766	-112.602	-108.420	-106.030	-101.313	38.890	-106.406	-8191	255	
3147.432	1	1	0	0	0.10548	0.33047	0.1365	0.12563	0.3324	0.13664	0.069882	0.35671	0.095785	0.16751	0.13299	0.24339	0.039456	0.10633	0.19433	0.17394	-3.0458	-3.1354	-2.5667	-3.3708	-2.8917	-2.9146	-3.5458	-2.7	-3.1375	-3.2	-2.5687	-3.4792	-2.8771	-2.7833	-3.3625	-2.7625	23.982	-24.968	-88.114	133.496	196.682	-104.847	2.083	193.083	32.110	70.136	91.271	203.565	184.508	154.568	-25.347	170.987	0.00057507	0.0036895	0.00028416	949.08	2.7912e-05	1.7659e-05	958.52	390.95	5.0991e-05	3.7798e-05	404.71	179.64	193.86	82.658	5.4426e-06	74.719	0.0049645	0.0047119	0.0011569	1128.6	5.6361e-05	4.9886e-05	1059.5	420.38	5.5402e-05	5.0561e-05	505.23	199.77	216.96	85.325	4.6609e-05	86.105	-28.866	1.465	-62.673	-113.908	45.321	-9.128	-115.784	-109.614	100.180	28.706	-112.234	-109.597	-106.849	-101.436	-32.782	-106.132	-8191	255	
3147.504	1	1	0	0	0.085142	0.1607	0.13235	0.050669	0.14543	0.14889	0.18216	0.28736	0.15138	0.2444	0.088688	0.22683	0.11029	0.16588	0.19978	0.4353	-2.8458	-3.0583	-2.6479	-3.6437	-2.8896	-2.6979	-3.625	-2.6646	-2.9813	-3.3312	-2.8042	-3.4479	-2.95	-2.825	-3.4125	-2.8812	-5.289	9.762	-109.630	96.967	229.232	207.061	171.573	169.269	222.620	81.415	-90.524	116.812	-68.479	-61.158	-30.276	94.512	0.00077398	0.0028392	0.00042788	958.99	3.3356e-05	1.4394e-05	968.32	392.43	2.9561e-05	1.8504e-05	405.61	179.09	193.59	82.769	6.4937e-05	74.346	0.0048332	0.0046042	0.001149	1155.9	5.4817e-05	4.8207e-05	1063.5	428.96	5.2884e-05	4.9578e-05	510.5	203.41	214.46	84.632	4.7877e-05	87.423	42.176	-85.626	-52.016	-114.108	10.592	6.297	-116.212	-109.700	55.355	221.660	-112.796	-109.159	-106.735	-101.403	183.000	-105.764	-8191	255	
3147.600	1	1	0	0	0.062165	0.13609	0.26964	0.025921	0.012946	0.32195	0.21175	0.22211	0.12476	0.10523	0.33432	0.26154	0.10602	0.11368	0.16772	0.2016	-2.5417	-3.1792	-2.5208	-3.3417	-3.0896	-2.8125	-3.4104	-2.9771	-2.8667	-3.3896	-2.7146	-3.4562	-3.3125	-2.8021	-3.5167	-2.8688	-117.272	-88.776	-10.664	-30.037	71.875	-108.668	151.563	151.532	228.314	37.669	-91.364	161.086	211.024	197.103	169.639	203.229	0.00060192	0.001563	0.00031246	946.05	2.2325e-05	2.684e-05	953.28	391.32	3.0425e-05	2.1933e-05	396.64	176.53	190.98	81.531	2.7922e-05	73.511	0.0046027	0.0044848	0.0012051	1166.7	5.2545e-05	4.6764e-05	1065.3	430.14	4.9882e-05	4.81e-05	516.8	201.69	210.88	83.467	5.1256e-05	86.666	57.721	108.623	189.261	-114.276	38.196	-10.883	-116.060	-109.654	98.744	-12.346	-113.202	-109.622	-106.596	-101.510	-83.028	-106.093	-8191	255	
3147.719	1	1	0	0	0.21175	0.28752	0.27526	0.21297	0.29849	0.17234	0.14516	0.14921	0.22833	0.13809	0.13693	0.067492	0.35812	0.11802	0.12987	0.28258	-2.3125	-3.3396	-2.6583	-3.3583	-3.1625	-2.5958	-3.4958	-3.175	-2.8646	-3.2812	-2.7583	-3.3667	-3.3729	-2.6188	-3.5292	-2.875	-121.338	148.273	156.197	170.144	55.022	100.329	183.979	179.669	193.323	123.295	181.069	183.731	202.124	-45.395	112.242	-56.453	0.00095579	0.0020874	0.00010231	947.72	1.5288e-05	2.3753e-05	945.58	390.87	8.3714e-06	1.3951e-05	396.96	177.63	191.65	81.228	2.384e-05	74.079	0.0043682	0.0043611	0.0013105	1154.7	5.0735e-05	4.5626e-05	1083.9	428.03	4.8465e-05	4.7629e-05	534.39	200.25	210.02	83.396	5.5118e-05	86.194	-36.042	52.357	-5.042	-113.805	-20.229	-2.347	-116.465	-109.399	94.586	-110.062	-113.348	-108.739	-106.942	-101.553	190.192	-105.943	-8191	255	
3147.815	1	1	0	0	0.1406	0.039956	0.10261	0.25972	0.10337	0.17507	0.16484	0.18798	0.17003	0.13235	0.098007	0.36118	0.12909	0.22511	0.19291	0.47625	-2.4062	-3.4917	-2.6188	-3.0604	-3.3125	-2.6271	-3.3521	-3.0542	-2.7229	-3.4646	-2.9042	-3.1354	-3.3812	-2.6167	-3.2917	-3.1688	51.269	-72.673	58.773	142.829	116.355	-2.821	23.642	209.454	-1.733	-97.410	-5.388	-70.706	184.870	-96.483	23.407	161.036	0.00056676	0.00071467	0.0006892	956.08	4.0976e-05	1.9849e-05	964.54	391.82	1.7111e-05	3.5825e-05	402.79	179.82	193.22	81.754	1.6283e-05	74.425	0.0042356	0.0044273	0.0014213	1145.7	4.9628e-05	4.7189e-05	1108.6	425.01	4.7017e-05	4.9135e-05	550.06	199.08	209.62	84.985	5.6721e-05	85.57	-10.240	173.537	113.971	-113.898	69.355	-120.048	-115.802	-109.781	86.642	208.562	-112.667	-109.322	-106.460	-101.423	-9.800	-106.169	-8191	255	
3147.911	1	1	0	0	0.28859	0.14225	0.23813	0.43111	0.10246	0.23286	0.12487	0.40658	0.21366	0.1361	0.15698	0.15998	0.060777	0.34811	0.20246	0.16851	-2.1083	-3.5042	-2.8083	-2.975	-3.3042	-2.6188	-3.4208	-3.2625	-2.625	-3.2917	-2.9104	-2.9604	-3.6125	-2.8146	-3.0583	-3.3625	52.951	-109.466	145.182	-124.868	119.791	43.596	-108.641	126.331	-102.073	198.845	84.023	204.885	-42.192	-116.770	-0.857	81.359	0.00077031	0.0020254	0.0011193	956.65	2.3597e-05	3.9577e-05	962.14	388.47	1.6487e-05	1.4574e-05	405.39	176.42	192.01	81.583	2.4548e-05	74.799	0.0041114	0.0046574	0.0014671	1127.8	4.7945e-05	5.0936e-05	1102.5	419.74	4.5238e-05	5.2472e-05	546.1	195.04	207.21	85.926	5.4637e-05	84.495	-29.239	52.337	-104.149	-114.390	60.238	-117.965	-115.824	-109.339	-27.477	-111.223	-112.559	-109.105	-106.889	-101.469	25.890	-106.204	-8191	255	
3148.008	1	1	0	0	0.21666	0.13165	0.20876	0.15033	0.034037	0.20233	0.055411	0.1796	0.076717	0.065061	0.25633	0.21289	0.17945	0.087412	0.12486	0.36176	-2.3438	-3.4646	-2.6917	-2.8271	-3.5375	-2.6729	-3.1854	-3.4417	-2.3187	-3.3208	-3.0563	-2.9208	-3.5104	-2.8604	-3.1167	-3.3312	136.357	43.924	95.019	-121.212	-124.939	62.380	151.584	106.560	10.302	45.566	117.350	180.180	157.744	128.385	225.596	180.203	0.00033894	0.0018962	0.0006707	948.69	2.1426e-05	3.8103e-05	952.37	389.55	3.0772e-05	3.6597e-05	398.13	175.63	192	82.447	6.818e-06	74.38	0.0040301	0.0050213	0.0014187	1112.4	4.7807e-05	5.5306e-05	1092.4	418.29	4.6246e-05	5.6647e-05	539.87	194.08	208.73	87.707	5.2752e-05	83.985	-94.087	-124.345	-59.442	-113.897	-97.359	191.669	-115.729	-109.427	-54.122	202.556	-112.479	-109.343	-106.573	-101.393	79.225	-106.156	-8191	255	
3148.079	1	1	0	0	0.13419	0.2055	0.16491	0.33007	0.14654	0.14986	0.29975	0.12173	0.094676	0.063669	0.20746	0.11324	0.10051	0.30542	0.085721	0.25846	-2.1729	-3.225	-2.8792	-2.6979	-3.4729	-2.8063	-2.9958	-3.5792	-2.5542	-3.2438	-3.2854	-2.7521	-3.4021	-2.7438	-2.8458	-3.5292	126.107	-77.314	34.474	-42.774	190.005	117.147	187.805	194.686	26.287	-106.371	-89.660	209.129	152.723	226.174	125.595	123.555	0.0011617	0.00093288	0.001342	949.64	3.4797e-05	1.2841e-05	959.92	392.01	2.9761e-05	1.9788e-05	405.86	178.2	191.85	81.136	7.7608e-06	74.034	0.0042605	0.0052841	0.0013745	1105.9	5.0411e-05	5.8714e-05	1081.6	417.96	4.9734e-05	5.8393e-05	534.95	194.28	212.25	87.662	5.0382e-05	83.676	-64.147	-18.334	-71.409	-114.243	-108.347	125.229	-115.779	-109.212	232.030	-85.115	-112.313	-109.259	-106.633	-101.301	48.083	-105.790	-8191	255	
3148.200	1	1	0	0	0.136	0.11685	0.23051	0.22466	0.10926	0.073741	0.14231	0.10859	0.18425	0.13251	0.42197	0.1636	0.17765	0.11731	0.072764	0.20425	-2.1917	-3.1333	-3.1021	-2.7292	-3.4354	-2.9125	-2.8958	-3.5521	-2.5208	-3.1104	-3.3167	-2.6542	-3.4313	-3.0542	-2.7979	-3.525	29.600	102.936	-18.841	76.863	-96.566	-79.973	150.411	175.927	2.983	182.720	183.106	139.913	-104.002	125.199	-84.899	174.919	0.0015613	0.0043221	0.00072129	950	4.3402e-05	1.1205e-05	956.81	388.3	1.8818e-05	2.9972e-05	403.76	177.2	190.52	80.681	2.1647e-05	73.078	0.004655	0.0052794	0.0013263	1100.4	5.4477e-05	5.7936e-05	1067.9	413.3	5.4184e-05	5.5871e-05	525.42	193.04	215.35	86.625	4.8875e-05	83.085	-70.450	-62.246	-33.908	-114.093	206.924	194.277	-115.868	-109.618	-114.694	43.619	-112.662	-109.172	-106.831	-101.631	105.117	-106.233	-8191	255	
3148.296	1	1	0	0	0.12152	0.09623	0.37936	0.041582	0.1262	0.16001	0.27499	0.21463	0.2562	0.093255	0.1655	0.17013	0.10134	0.21877	0.15695	0.26612	-2.3229	-2.975	-3.2146	-2.6792	-3.1708	-3.2021	-2.9208	-3.5438	-2.8396	-2.9875	-3.4813	-2.8542	-3.4167	-3.3083	-2.4958	-3.5979	44.410	-121.158	-33.309	-39.479	-84.885	21.147	75.657	201.170	178.681	153.135	203.730	193.996	136.271	189.549	129.815	68.186	0.0014331	0.0046431	0.00033494	945.5	2.5121e-05	3.0629e-05	956.34	390.45	7.144e-06	2.2604e-05	405.38	179.05	193.25	82	1.1434e-05	74.834	0.004995	0.0050029	0.0012904	1106.9	5.7537e-05	5.5234e-05	1062.7	417.25	5.7449e-05	5.2992e-05	522.22	196.34	218.56	86.455	4.7064e-05	85.553	-73.280	-55.559	50.625	-114.109	150.519	21.988	-115.655	-109.514	10.991	4.882	-111.635	-109.596	-106.573	-101.249	89.901	-106.569	-8191	255	
3148.392	1	1	0	0	0.18786	0.16515	0.042181	0.25435	0.29701	0.096624	0.38451	0.15475	0.12185	0.25379	0.13316	0.17217	0.41627	0.18825	0.13739	0.21933	-2.4479	-2.8542	-3.3646	-2.625	-3.2562	-3.0833	-2.7562	-3.4062	-2.8875	-2.9271	-3.4792	-2.6792	-3.2729	-3.3417	-2.5792	-3.4729	173.675	181.434	189.699	-20.959	14.634	137.952	186.109	-126.362	-53.051	-86.914	219.207	215.755	-97.504	-116.437	183.849	167.742	0.00062626	0.0047781	0.0012926	956.34	1.9604e-05	1.7531e-05	968.54	392.82	3.0907e-05	3.0253e-05	409.38	180.26	194.41	82.921	7.9025e-06	75.99	0.0051496	0.0047453	0.001253	1132.9	5.7472e-05	5.2724e-05	1063.9	426.62	5.7375e-05	5.0451e-05	522.54	202.22	218.08	86.492	4.5754e-05	88.172	-117.929	-79.536	-41.353	-114.316	-50.477	-37.440	-115.723	-109.470	93.455	51.575	-112.894	-109.370	-106.103	-101.531	-96.143	-106.002	-8191	255	
3148.511	1	1	0	0	0.23773	0.057689	0.18512	0.36025	0.14797	0.25218	0.28358	0.15643	0.11637	0.1556	0.31415	0.073969	0.17548	0.32949	0.034784	0.22607	-2.8042	-2.9	-3.2417	-2.6771	-3.0812	-3.55	-2.7938	-3.6208	-3.1104	-2.6271	-3.4396	-2.9583	-3.1042	-3.4646	-2.6229	-3.6208	-31.004	229.501	197.522	198.638	-47.424	-48.003	-123.495	132.368	37.716	-110.492	210.225	79.177	225.840	217.034	51.858	140.894	0.00051897	0.0022967	0.0010849	950.45	4.596e-05	2.3542e-05	973.16	395.99	2.0879e-05	3.5216e-05	403.92	179.71	195.07	83.184	3.09e-05	75.782	0.0050263	0.0045069	0.0012262	1161	5.464e-05	5.0887e-05	1062.8	432.69	5.4406e-05	4.8244e-05	519.82	204.48	214.37	85.954	4.688e-05	88.935	38.851	212.321	188.209	-114.406	8.188	137.716	-115.831	-109.603	110.098	-0.269	-112.759	-109.050	-106.229	-100.969	192.572	-105.913	-8191	255	
3148.607	1	1	0	0	0.14636	0.13896	0.050334	0.039963	0.14633	0.077611	0.23105	0.029161	0.13638	0.21985	0.072317	0.11457	0.15733	0.11204	0.17164	0.028862	-2.6458	-2.6604	-3.6188	-2.8604	-3.0708	-3.2417	-2.8375	-3.2979	-3.2	-2.6583	-3.5896	-2.9146	-3.0583	-3.5	-2.5042	-3.3812	213.864	101.831	-48.650	-12.627	-65.163	189.109	180.199	131.313	-20.165	89.155	176.627	164.662	195.195	140.603	-66.854	170.691	0.00065954	0.0045086	0.00032551	961.92	3.156e-05	1.5743e-05	980.72	396.29	4.7235e-06	2.0576e-05	406.95	181.02	194.67	83.314	2.7516e-05	77.101	0.0047073	0.004358	0.0012567	1182.4	5.1452e-05	4.9346e-05	1084.1	434.13	5.1985e-05	4.6713e-05	534.22	207	211.87	86.03	5.1115e-05	89.616	-26.647	-1.878	36.742	-113.925	217.989	5.171	-115.901	-109.356	-80.458	60.976	-112.870	-109.428	-106.091	-101.442	-107.475	-105.525	-8191	255	
3148.703	1	1	0	0	0.15781	0.29065	0.17789	0.094433	0.31152	0.024309	0.16856	0.25427	0.12536	0.16028	0.12952	0.16772	0.17408	0.34908	0.14514	0.16872	-2.8354	-2.5125	-3.4979	-2.8542	-2.65	-3.4521	-2.7771	-3.1063	-3.2896	-2.3896	-3.4271	-3.1354	-2.8854	-3.6375	-2.7292	-3.2062	-12.396	99.483	185.255	191.709	-57.960	-32.705	207.170	-78.672	-105.548	-104.886	114.887	193.360	155.542	208.914	132.029	227.749	0.00051063	0.0038171	0.00080524	962.19	2.0524e-05	1.0614e-05	981.74	396.11	1.5517e-05	1.1614e-05	412.3	184.31	194.94	83.385	1.9489e-05	77.687	0.0045643	0.0042175	0.0013632	1180.1	4.9233e-05	4.8397e-05	1112	433.42	5.0732e-05	4.6341e-05	552.61	206.92	210.96	86.16	5.5349e-05	88.771	139.654	-47.894	65.040	-113.642	112.383	-24.007	-116.144	-109.249	21.709	62.130	-112.887	-109.130	-106.505	-101.224	-89.998	-105.545	-8191	255	
3148.800	1	1	0	0	0.23923	0.21096	0.053495	0.23845	0.061269	0.022247	0.057255	0.12826	0.13396	0.10517	0.31174	0.1578	0.095449	0.24611	0.044862	0.047514	-2.9417	-2.4104	-3.3479	-3.1104	-2.5396	-3.4271	-2.8688	-3.0458	-3.4917	-2.5917	-3.3	-3.1437	-2.7062	-3.5687	-2.6333	-3.0854	66.562	-68.026	109.711	155.416	227.336	-9.943	153.488	188.143	-36.659	-34.959	224.383	199.738	-113.966	-110.954	108.697	142.443	0.00052052	0.0048802	0.0006099	965.11	3.2197e-05	2.4802e-05	983.55	398.65	8.0135e-06	2.4174e-05	409.28	182.14	194.42	82.074	2.9865e-06	76.258	0.0044602	0.0042947	0.0014573	1166	4.7885e-05	4.9635e-05	1131.2	426.67	4.968e-05	4.8177e-05	558.72	202.57	208.27	86.16	5.7583e-05	86.118	230.898	118.324	128.439	-114.490	94.540	169.549	-116.059	-109.208	215.635	197.986	-112.273	-109.120	-106.520	-101.539	-35.355	-106.122	-8191	255	
3148.896	1	1	0	0	0.19161	0.14048	0.36165	0.11314	0.082678	0.0264	0.24255	0.037539	0.30518	0.084084	0.015987	0.24844	0.13052	0.13069	0.11609	0.07619	-3.0875	-2.6146	-3.2125	-3.1583	-2.7687	-3.4146	-2.8771	-3.1271	-3.4021	-2.6562	-3.2812	-3.2479	-2.7479	-3.6208	-3.0396	-2.8875	159.506	-95.742	-71.024	229.921	170.752	138.328	121.046	207.756	-8.941	232.177	3.338	179.002	183.629	159.241	43.579	174.106	0.0009166	0.0025329	0.00046046	956.06	2.9345e-05	3.3593e-05	981.58	396.49	1.5423e-05	2.1844e-05	413.14	181.01	192.13	82.371	4.6825e-05	75.742	0.0043522	0.004619	0.00147	1147.7	4.6294e-05	5.3496e-05	1131.8	421.78	4.8186e-05	5.2759e-05	553.28	200.3	207.14	87.423	5.6272e-05	85.18	25.682	154.137	137.644	-114.299	54.558	-124.526	-115.891	-109.141	92.562	181.849	-111.980	-109.226	-106.501	-101.140	-18.131	-105.649	-8191	255	
3148.992	1	1	0	0	0.0577	0.25454	0.11319	0.16328	0.17478	0.26903	0.41532	0.24765	0.087694	0.17579	0.16493	0.16179	0.22347	0.18551	0.1701	0.20008	-3.0292	-2.6479	-3.0583	-3.3646	-2.6271	-3.3729	-3.1188	-2.8646	-3.4417	-2.6917	-3.0479	-3.4062	-2.9417	-3.5583	-3.0458	-2.7062	76.719	105.980	-39.316	-72.276	69.829	105.433	151.317	-110.507	3.817	118.204	-107.947	4.172	-69.145	207.166	34.622	163.489	0.00058778	0.0034652	0.0010046	959.9	1.5286e-05	8.3537e-06	980.77	395.82	1.9761e-05	2.5907e-05	408.46	181.75	193.14	82.73	5.6233e-05	76.062	0.004254	0.0050636	0.0014144	1139.3	4.6692e-05	5.7056e-05	1121	420.38	4.8235e-05	5.7003e-05	544.89	200.35	208.99	88.585	5.3954e-05	84.9	-2.793	117.390	59.205	-114.295	63.853	-41.109	-115.867	-109.620	-103.502	231.834	-112.637	-109.081	-106.617	-101.067	31.946	-105.788	-8191	255	
3149.112	1	1	0	0	0.1388	0.089921	0.24193	0.20827	0.14512	0.053693	0.18866	0.11552	0.086977	0.11147	0.33719	0.32298	0.1409	0.25482	0.11645	0.032416	-2.9479	-2.6417	-3.0125	-3.2042	-2.7125	-3.2479	-3.0958	-2.6708	-3.3812	-2.8146	-3.0792	-3.5146	-2.6271	-3.4542	-3.2875	-2.6813	196.323	-26.458	-19.428	-62.135	-35.026	69.437	136.357	109.480	189.400	190.037	-107.263	201.968	-99.610	-122.356	70.384	121.770	0.00043368	0.00051187	0.0013256	963.08	3.2345e-05	1.386e-05	978.28	395.93	2.052e-05	2.2232e-05	405.38	181.09	192.98	82.772	1.1076e-05	74.924	0.0044201	0.0053068	0.0013307	1130.4	4.8809e-05	5.8037e-05	1100.2	415.21	5.0809e-05	5.7681e-05	528.83	197.16	212.03	87.992	5.0897e-05	83.057	-54.879	123.153	-16.040	-114.567	219.048	146.698	-115.844	-108.672	-70.489	124.991	-112.289	-108.953	-106.763	-101.136	51.748	-105.906	-8191	255	
3149.209	1	1	0	0	0.093051	0.29036	0.10607	0.16303	0.21421	0.11922	0.15235	0.046045	0.0546	0.062319	0.18846	0.10843	0.36464	0.25276	0.10327	0.15328	-2.95	-2.8	-2.8625	-3.4562	-2.6146	-3.1292	-3.2396	-2.8729	-3.5354	-2.8604	-2.8563	-3.5708	-2.8583	-3.2104	-3.2	-2.7521	10.417	48.670	-20.348	-106.329	123.525	96.980	-108.401	-79.846	-88.629	27.361	-77.860	-46.182	181.110	184.518	219.876	135.653	0.0011984	0.002399	0.0012733	964.92	1.2387e-05	7.1312e-06	983.52	394.27	4.5144e-05	2.4343e-05	408.43	181.27	192.23	82.606	2.1109e-05	75.781	0.0046914	0.0052122	0.0012486	1119	5.2343e-05	5.5251e-05	1090.6	412.24	5.3795e-05	5.552e-05	519.74	196.28	215.26	86.842	4.9029e-05	83.572	-61.930	-39.133	-53.380	-114.116	-76.599	98.972	-115.590	-109.077	217.149	15.553	-111.833	-108.953	-107.236	-101.042	-4.602	-105.828	-8191	255	
3149.305	1	1	0	0	0.10104	0.2061	0.066577	0.05631	0.1507	0.12075	0.36723	0.20866	0.19757	0.098235	0.083834	0.076648	0.1823	0.16711	0.11068	0.072034	-2.9688	-3.0042	-2.7313	-3.4	-2.5812	-3.0708	-3.4979	-2.6625	-3.2667	-3.1375	-2.7021	-3.4833	-2.8167	-3.0792	-3.4479	-2.8688	91.646	47.330	-40.247	221.889	221.249	66.803	196.007	206.463	23.034	186.491	-0.472	215.490	-112.193	-105.300	45.722	91.533	0.00091831	0.00036562	0.00017139	956.59	1.2391e-05	4.3483e-05	977.17	396.44	1.7805e-05	4.2105e-05	414.58	181.1	194.66	83.101	2.0351e-05	75.748	0.0049087	0.0049503	0.0011982	1120.8	5.5813e-05	5.2427e-05	1082.8	417.06	5.5908e-05	5.2307e-05	517.19	199.61	219.09	86.316	4.7832e-05	85.448	-82.411	193.164	19.617	-114.160	62.505	12.927	-115.903	-109.442	120.044	23.531	-112.337	-109.066	-106.413	-100.995	30.457	-106.079	-8191	255	
#DATA ENDS
