BOXY.EXE: ISS Imagent and Oximeter Data Acquisition Program Version 0.80
Ascii Record File

#ACQ INFORMATION
2  Detector Channels 
16  External MUX Channels 
1  Auxiliary Channels 
5000  Waveform (CCF) Frequency (Hz)
1  Waveforms Skipped 
30  Waveforms Averaged 
1  Cycles Averaged 
16  Acquisitions per Waveform 
10.0806  Updata Rate (Hz) 

#FILE INFORMATION
TRUE -- External MUX Channel results are PARSED.
FALSE -- AC DC and Phase are NOT grouped.
TRUE -- Companion Program Settings File CREATED.
FALSE -- AC data not excluded
FALSE -- DC data not excluded
FALSE -- Phase data not excluded
FALSE -- Auxillary Chn. data not excluded
Tab delimiters

#CALIBRATION STATE
TRUE -- Waveform Calibration Values APPLIED.


#AUX CALIBRATION VALUES
Val Type	aux-1	

Term	1.0000e+00	
Factor	0.0000e+00	


#WF CALIBRATION VALUES
A = Detector Channel
Val Type	A-AC1	A-AC2	A-AC3	A-AC4	A-AC5	A-AC6	A-AC7	A-AC8	A-AC9	A-AC10	A-AC11	A-AC12	A-AC13	A-AC14	A-AC15	A-AC16	A-DC1	A-DC2	A-DC3	A-DC4	A-DC5	A-DC6	A-DC7	A-DC8	A-DC9	A-DC10	A-DC11	A-DC12	A-DC13	A-DC14	A-DC15	A-DC16	A-Ph1	A-Ph2	A-Ph3	A-Ph4	A-Ph5	A-Ph6	A-Ph7	A-Ph8	A-Ph9	A-Ph10	A-Ph11	A-Ph12	A-Ph13	A-Ph14	A-Ph15	A-Ph16	

Term	0.00000e+00	0.00000e+00	0.00000e+00	0.00000e+00	0.00000e+00	0.00000e+00	0.00000e+00	0.00000e+00	0.00000e+00	0.00000e+00	0.00000e+00	0.00000e+00	0.00000e+00	0.00000e+00	0.00000e+00	0.00000e+00	0.00000e+00	0.00000e+00	0.00000e+00	0.00000e+00	0.00000e+00	0.00000e+00	0.00000e+00	0.00000e+00	0.00000e+00	0.00000e+00	0.00000e+00	0.00000e+00	0.00000e+00	0.00000e+00	0.00000e+00	0.00000e+00	0.00000e+00	0.00000e+00	0.00000e+00	0.00000e+00	0.00000e+00	0.00000e+00	0.00000e+00	0.00000e+00	0.00000e+00	0.00000e+00	0.00000e+00	0.00000e+00	0.00000e+00	0.00000e+00	0.00000e+00	0.00000e+00	
Factor	1.00000e+00	1.00000e+00	1.00000e+00	1.00000e+00	1.00000e+00	1.00000e+00	1.00000e+00	1.00000e+00	1.00000e+00	1.00000e+00	1.00000e+00	1.00000e+00	1.00000e+00	1.00000e+00	1.00000e+00	1.00000e+00	1.00000e+00	1.00000e+00	1.00000e+00	1.00000e+00	1.00000e+00	1.00000e+00	1.00000e+00	1.00000e+00	1.00000e+00	1.00000e+00	1.00000e+00	1.00000e+00	1.00000e+00	1.00000e+00	1.00000e+00	1.00000e+00	X	X	X	X	X	X	X	X	X	X	X	X	X	X	X	X	

B = Detector Channel
Val Type	B-AC1	B-AC2	B-AC3	B-AC4	B-AC5	B-AC6	B-AC7	B-AC8	B-AC9	B-AC10	B-AC11	B-AC12	B-AC13	B-AC14	B-AC15	B-AC16	B-DC1	B-DC2	B-DC3	B-DC4	B-DC5	B-DC6	B-DC7	B-DC8	B-DC9	B-DC10	B-DC11	B-DC12	B-DC13	B-DC14	B-DC15	B-DC16	B-Ph1	B-Ph2	B-Ph3	B-Ph4	B-Ph5	B-Ph6	B-Ph7	B-Ph8	B-Ph9	B-Ph10	B-Ph11	B-Ph12	B-Ph13	B-Ph14	B-Ph15	B-Ph16	

Term	0.00000e+00	0.00000e+00	0.00000e+00	0.00000e+00	0.00000e+00	0.00000e+00	0.00000e+00	0.00000e+00	0.00000e+00	0.00000e+00	0.00000e+00	0.00000e+00	0.00000e+00	0.00000e+00	0.00000e+00	0.00000e+00	0.00000e+00	0.00000e+00	0.00000e+00	0.00000e+00	0.00000e+00	0.00000e+00	0.00000e+00	0.00000e+00	0.00000e+00	0.00000e+00	0.00000e+00	0.00000e+00	0.00000e+00	0.00000e+00	0.00000e+00	0.00000e+00	-7.70394e+01	-1.24773e+02	-1.22023e+02	-1.83689e+02	-5.26907e+01	-6.57493e+01	-1.55956e+02	-1.62015e+02	-4.12905e+01	-6.64813e+01	-1.69979e+02	-1.70582e+02	-1.79937e+02	-1.76627e+02	-6.08650e+01	-1.49193e+02	
Factor	1.65381e-05	1.27404e-04	4.20882e-05	1.74909e-01	1.21720e-06	1.50233e-06	1.52390e-01	4.88806e-02	1.05316e-06	1.33437e-06	8.28644e-02	2.88030e-02	2.48227e-02	8.64829e-03	1.26265e-06	1.23097e-02	3.77851e-06	4.39697e-06	1.22931e-06	9.36027e-02	4.74484e-08	4.83570e-08	7.69343e-02	2.63740e-02	4.70575e-08	4.84823e-08	4.32323e-02	1.50964e-02	1.35041e-02	4.69083e-03	4.79849e-08	6.44294e-03	X	X	X	X	X	X	X	X	X	X	X	X	X	X	X	X	



#DISTANCE SETTINGS
A = Detector Channel
A-1	A-2	A-3	A-4	A-5	A-6	A-7	A-8	A-9	A-10	A-11	A-12	A-13	A-14	A-15	A-16	

2.5000e+00	3.0000e+00	2.5000e+00	3.0000e+00	2.0000e+00	3.0000e+00	1.5000e+00	3.0000e+00	3.0000e+00	3.0000e+00	3.0000e+00	3.0000e+00	3.0000e+00	3.0000e+00	1.5000e+00	3.0000e+00	

B = Detector Channel
B-1	B-2	B-3	B-4	B-5	B-6	B-7	B-8	B-9	B-10	B-11	B-12	B-13	B-14	B-15	B-16	

1.0000e+01	1.0000e+01	1.0000e+01	1.4400e+00	1.0000e+01	1.0000e+01	1.5100e+00	1.9400e+00	1.0000e+01	1.0000e+01	1.9900e+00	2.4900e+00	2.4100e+00	2.9000e+00	1.0000e+01	2.9800e+00	




#DATA BEGINS
time	group	step	mark	flag	A-AC1	A-AC2	A-AC3	A-AC4	A-AC5	A-AC6	A-AC7	A-AC8	A-AC9	A-AC10	A-AC11	A-AC12	A-AC13	A-AC14	A-AC15	A-AC16	A-DC1	A-DC2	A-DC3	A-DC4	A-DC5	A-DC6	A-DC7	A-DC8	A-DC9	A-DC10	A-DC11	A-DC12	A-DC13	A-DC14	A-DC15	A-DC16	A-Ph1	A-Ph2	A-Ph3	A-Ph4	A-Ph5	A-Ph6	A-Ph7	A-Ph8	A-Ph9	A-Ph10	A-Ph11	A-Ph12	A-Ph13	A-Ph14	A-Ph15	A-Ph16	B-AC1	B-AC2	B-AC3	B-AC4	B-AC5	B-AC6	B-AC7	B-AC8	B-AC9	B-AC10	B-AC11	B-AC12	B-AC13	B-AC14	B-AC15	B-AC16	B-DC1	B-DC2	B-DC3	B-DC4	B-DC5	B-DC6	B-DC7	B-DC8	B-DC9	B-DC10	B-DC11	B-DC12	B-DC13	B-DC14	B-DC15	B-DC16	B-Ph1	B-Ph2	B-Ph3	B-Ph4	B-Ph5	B-Ph6	B-Ph7	B-Ph8	B-Ph9	B-Ph10	B-Ph11	B-Ph12	B-Ph13	B-Ph14	B-Ph15	B-Ph16	aux-1	digaux	

20058.432	1	1	0	256	0.23036	0.22687	0.23402	0.14221	0.40343	0.10113	0.42127	0.094693	0.2933	0.12842	0.22296	0.17469	0.1033	0.11329	0.11678	0.41013	-2.5958	-2.8083	-3.3667	-2.7833	-2.8854	-3.1771	-2.8417	-3.3625	-2.9625	-2.5854	-3.5938	-2.7792	-2.9833	-3.2375	-2.5479	-3.1417	28.125	298.413	111.297	-27.168	236.992	169.414	242.439	252.344	-38.662	182.737	240.134	304.557	276.642	-11.450	207.436	-30.828	8.4128e-05	0.00037334	0.00019062	1134.8	1.9934e-06	1.1288e-06	1216	242.85	1.0774e-06	6.5673e-07	299.9	84.189	67.323	19.583	2.2297e-06	26.963	0.00040732	0.0004566	0.00012586	1112.8	5.0374e-06	5.1622e-06	1195.2	240.45	4.9896e-06	5.1831e-06	298.93	85.115	67.74	19.962	5.2338e-06	27.414	153.018	33.983	67.704	-38.341	86.714	130.467	-38.175	-30.724	207.008	102.236	-31.232	-24.172	-23.418	-17.044	2.296	-16.916	-8191	255	
20058.527	1	1	0	0	0.19919	0.084318	0.16637	0.063829	0.12015	0.2184	0.10275	0.22789	0.042089	0.34108	0.037219	0.22635	0.43647	0.057512	0.35015	0.23186	-2.5354	-2.7292	-3.3854	-2.8271	-2.7875	-3.4042	-2.9521	-3.1208	-3.1021	-2.7458	-3.3896	-2.8583	-2.825	-3.3187	-2.6604	-3.1792	-15.944	109.024	32.853	17.669	21.411	84.946	266.768	290.192	212.151	81.480	263.934	9.028	258.597	-8.139	158.516	184.615	8.0996e-05	0.00048518	8.3987e-05	1134	2.4261e-06	3.9377e-06	1222.2	242.09	3.1371e-06	6.5e-06	302.32	84.112	67.063	19.553	2.7694e-06	26.882	0.00043091	0.00049251	0.00013268	1112.9	5.4337e-06	5.4154e-06	1200.1	240.66	5.2503e-06	5.4479e-06	300.57	85.199	67.93	19.968	5.4371e-06	27.467	251.367	73.053	42.649	-38.327	109.912	125.717	-37.863	-30.625	73.695	96.607	-31.150	-23.993	-23.412	-17.074	158.009	-17.336	-8191	255	
20058.623	1	1	0	0	0.14834	0.25873	0.17136	0.3512	0.14186	0.22966	0.43726	0.10178	0.063023	0.31321	0.10911	0.2282	0.1174	0.20026	0.038835	0.13823	-2.9396	-2.7146	-3.3625	-3.1937	-2.7	-3.2875	-2.7917	-3.0521	-3.2333	-2.5	-3.5438	-2.9854	-2.7458	-3.4042	-2.7021	-3.0271	286.000	279.906	-34.276	266.705	297.008	-21.279	249.568	297.723	91.355	209.704	44.053	235.285	1.662	280.033	78.574	-31.026	8.2757e-05	0.00030201	8.2597e-05	1131.7	4.6899e-06	8.5404e-06	1224.1	242.61	1.2325e-06	3.8947e-06	301.71	84.017	67.281	19.542	3.7226e-06	27.188	0.00044945	0.00050979	0.00013855	1117.2	5.6104e-06	5.7111e-06	1201.5	241.81	5.7575e-06	5.9138e-06	301.06	85.648	68.386	20.087	6.246e-06	27.749	184.529	113.735	21.285	-38.152	141.383	103.550	-37.942	-30.560	142.969	22.965	-31.038	-24.168	-23.772	-16.653	111.534	-16.917	-8191	255	
20058.721	1	1	0	0	0.14742	0.34645	0.14965	0.26647	0.19218	0.19402	0.24033	0.21038	0.33074	0.35884	0.027249	0.088162	0.33601	0.063637	0.059315	0.083913	-2.9208	-2.6417	-3.3875	-3.1063	-2.7792	-3.2292	-2.9271	-3.05	-3.4208	-2.6146	-3.1604	-3.0917	-2.7104	-3.4188	-2.8458	-2.9917	298.534	183.483	196.427	289.918	69.289	275.662	264.135	274.661	30.556	-39.712	29.558	282.045	259.234	231.466	57.236	203.294	7.1834e-05	0.00038862	9.0338e-05	1134.8	5.1877e-06	6.1158e-06	1228.7	242.9	1.6721e-06	2.5559e-06	302.45	83.749	67.337	19.711	3.9737e-06	27.3	0.00051655	0.00058657	0.00016266	1120	6.5343e-06	6.3703e-06	1205.7	242.33	6.3076e-06	6.5809e-06	302.43	85.942	68.571	20.214	6.5667e-06	27.78	188.422	-22.239	118.451	-38.236	193.947	139.165	-38.219	-30.343	262.333	94.709	-31.210	-24.059	-23.626	-16.834	108.707	-17.473	-8191	255	
20058.816	1	1	0	0	0.22636	0.16503	0.098264	0.076333	0.047987	0.1796	0.21482	0.12754	0.088254	0.14959	0.28	0.1122	0.23714	0.061044	0.52455	0.096132	-2.7896	-2.5687	-3.2313	-3.5333	-2.6854	-3.2854	-2.9875	-2.9042	-3.4146	-2.6604	-3.3	-3.2812	-2.6396	-3.4854	-2.8146	-2.8063	106.286	13.518	207.682	265.442	34.759	-47.180	261.912	284.416	-18.016	105.073	-16.008	216.704	283.316	126.476	212.895	141.561	4.1104e-05	0.0002358	5.6263e-05	1140.8	2.2856e-06	5.2799e-06	1225.9	243.54	2.4998e-06	3.3662e-06	305.28	84.264	68.083	19.712	1.3534e-06	27.205	0.00053893	0.0006085	0.00016559	1122.5	6.4722e-06	6.3081e-06	1207.3	243.05	6.0756e-06	6.1998e-06	303.46	85.84	68.777	20.161	5.778e-06	27.743	173.311	96.635	56.554	-38.435	227.331	139.634	-38.117	-30.929	126.888	83.095	-31.244	-24.348	-23.674	-16.556	146.499	-17.296	-8191	255	
20058.912	1	1	0	0	0.15842	0.12207	0.11759	0.10494	0.11897	0.19724	0.015037	0.19038	0.082948	0.2154	0.23599	0.10509	0.25109	0.14785	0.20239	0.28272	-3.075	-2.8292	-3.0417	-3.375	-2.5938	-3.2125	-3.2188	-2.7687	-3.4771	-2.7479	-3.0729	-3.3312	-2.5854	-3.4042	-3.2188	-2.7167	170.025	43.041	20.361	285.961	179.671	293.638	0.458	213.088	45.871	-1.365	281.242	255.643	-26.496	263.251	159.003	175.492	0.00012128	0.00035829	5.129e-05	1142.7	1.4397e-06	8.0031e-06	1230.2	243.44	4.29e-06	2.7574e-06	303.74	84.79	68.103	19.953	9.762e-07	27.094	0.0004549	0.00051858	0.00014705	1124.8	5.7183e-06	5.7049e-06	1207.6	242.74	5.5494e-06	5.6429e-06	302.7	85.944	68.588	20.246	5.4635e-06	27.653	173.546	-13.901	41.558	-38.571	135.178	68.975	-37.509	-30.424	62.753	139.087	-30.803	-23.804	-23.413	-16.715	195.084	-17.503	-8191	255	
20059.010	1	1	0	0	0.29367	0.033234	0.22875	0.051188	0.063467	0.071916	0.12442	0.14064	0.1787	0.093703	0.12826	0.24107	0.10409	0.27773	0.22718	0.35791	-2.8896	-2.6063	-2.8271	-3.7375	-2.5792	-3.2542	-3.3063	-2.8292	-3.4979	-2.7979	-2.85	-3.4375	-2.7938	-3.2396	-3.2042	-2.6979	-3.682	-49.135	293.907	-48.231	214.292	111.845	22.044	297.522	147.189	55.975	165.981	141.475	186.572	243.403	136.991	170.201	8.5401e-05	0.0001796	0.00012107	1147.4	4.6481e-06	4.6322e-07	1227.5	243.75	2.9803e-06	3.9867e-06	305.28	84.724	67.496	19.566	3.3858e-06	27.156	0.00044996	0.00049786	0.00013856	1123.4	5.3068e-06	5.2755e-06	1206.4	241.91	5.3123e-06	5.4304e-06	302.77	85.921	68.491	20.117	5.4954e-06	27.627	224.335	178.903	-0.643	-38.709	112.756	-45.201	-38.442	-31.312	136.518	70.816	-30.946	-24.249	-24.030	-17.270	98.555	-17.358	-8191	255	
20059.105	1	1	0	0	0.26609	0.034929	0.13537	0.074383	0.15665	0.088256	0.12403	0.25952	0.17866	0.18442	0.10401	0.10485	0.14637	0.34331	0.069733	0.035208	-3.0854	-2.9229	-2.8583	-3.4792	-2.6542	-3.0938	-3.4958	-2.6562	-3.2313	-2.9062	-2.8875	-3.5021	-2.8688	-2.9958	-3.1708	-2.6146	-33.225	-47.213	177.513	136.343	56.332	-45.438	300.993	-46.706	-31.988	293.163	243.737	288.190	308.467	148.796	173.381	-34.296	6.9193e-05	0.00017242	6.5206e-05	1142.8	5.8139e-06	6.3345e-07	1227.1	243.63	2.8674e-06	9.1244e-07	304.37	84.876	67.577	19.783	2.919e-06	27.221	0.00045896	0.00051303	0.00014538	1122.8	5.733e-06	5.7788e-06	1206.5	242.53	5.716e-06	5.8231e-06	303.03	86.213	68.704	20.197	5.9956e-06	27.753	212.249	144.163	-27.679	-38.142	210.238	168.031	-37.903	-30.660	96.119	24.837	-31.138	-23.838	-23.924	-17.318	155.060	-17.409	-8191	255	
20059.227	1	1	0	0	0.16534	0.16519	0.12509	0.070479	0.23609	0.14027	0.074457	0.068012	0.19452	0.18597	0.20349	0.19068	0.33861	0.12702	0.32782	0.16894	-2.8187	-2.9417	-2.6875	-3.4958	-2.6854	-2.8583	-3.5208	-2.725	-3.3438	-3.175	-2.7667	-3.625	-3.0062	-3.05	-3.4958	-2.8625	247.910	29.683	193.368	-8.292	160.001	98.820	301.240	118.150	-34.336	99.960	309.273	-38.226	268.321	62.897	288.838	243.963	9.5847e-05	0.00043097	0.00017761	1145.8	2.4805e-07	5.1705e-06	1230.1	243.38	4.4534e-06	4.7921e-06	303.72	84.779	67.657	19.656	3.8365e-06	26.905	0.0004973	0.0005509	0.00015576	1126.2	6.0677e-06	6.0972e-06	1208.9	243.04	6.0788e-06	6.2654e-06	303.77	86.285	68.69	20.206	5.9395e-06	27.623	166.463	46.440	14.910	-38.118	151.350	121.140	-37.950	-30.743	88.722	83.012	-30.753	-23.444	-23.782	-16.700	162.557	-17.234	-8191	255	
20059.320	1	1	0	0	0.091974	0.063329	0.16584	0.05887	0.024714	0.076791	0.1594	0.16504	0.05374	0.1816	0.35831	0.19132	0.36726	0.30907	0.19721	0.25554	-2.9083	-3.2042	-2.4938	-3.4042	-2.875	-2.8604	-3.6229	-2.7708	-3.2	-3.2313	-2.8354	-3.4979	-3.05	-2.8646	-3.5708	-2.9125	-19.820	163.975	233.583	78.401	61.018	186.402	291.369	-34.588	242.853	5.651	-17.454	64.706	301.900	-36.604	110.895	270.378	8.3723e-05	0.00036988	4.4991e-05	1142.1	5.5512e-06	3.3081e-06	1222.3	243.55	3.097e-06	2.3338e-06	303.31	84.99	67.749	19.785	5.7407e-06	27.153	0.00049017	0.00053605	0.00015017	1124.5	5.8717e-06	5.8284e-06	1207.2	242.84	5.6873e-06	5.7585e-06	302.75	85.901	68.513	20.195	5.5576e-06	27.707	170.353	16.134	-3.108	-38.428	100.197	83.957	-38.589	-30.969	99.943	140.164	-31.027	-24.223	-23.970	-17.166	71.458	-18.022	-8191	255	
20059.418	1	1	0	0	0.10241	0.14564	0.17864	0.27047	0.13776	0.050174	0.34342	0.037587	0.12289	0.41336	0.22657	0.065187	0.19193	0.12946	0.12519	0.070385	-2.5875	-3.2833	-2.7229	-3.4542	-3.0875	-2.825	-3.5021	-2.9479	-3.1271	-3.2812	-2.6083	-3.3833	-3.1083	-2.6021	-3.2896	-2.7958	7.320	246.759	-34.198	-13.346	286.811	160.512	261.845	227.574	243.269	25.241	35.985	16.986	22.067	-25.086	271.991	30.653	7.5363e-05	0.00040628	3.1793e-05	1145	1.5626e-06	3.2057e-06	1225	243.14	6.5561e-06	3.8416e-06	303.27	85.347	67.544	19.661	2.9875e-06	27.292	0.000448	0.00049123	0.00014026	1121.6	5.4006e-06	5.5211e-06	1207.2	242.08	5.4235e-06	5.5441e-06	302.94	86.023	68.519	20.128	5.6157e-06	27.717	175.424	50.078	193.008	-38.438	213.705	102.183	-38.242	-31.078	129.975	77.231	-31.163	-24.196	-23.999	-17.577	152.377	-17.784	-8191	255	
20059.514	1	1	0	0	0.088253	0.29142	0.027462	0.052103	0.14077	0.31883	0.24259	0.15496	0.082469	0.26684	0.20327	0.10348	0.12429	0.16286	0.24229	0.036671	-2.5604	-3.3167	-2.8479	-3.2146	-3.0146	-2.5792	-3.5583	-2.8625	-2.8583	-3.4104	-2.6542	-3.2771	-3.2104	-2.6917	-3.45	-2.8104	197.076	40.108	194.523	83.987	127.980	114.700	222.647	255.374	32.590	143.568	280.358	-6.848	12.201	275.327	204.291	289.857	6.2177e-05	6.0705e-05	8.4169e-05	1144.3	1.8497e-06	7.2261e-06	1226.7	242.47	5.2032e-06	5.8191e-06	302.82	84.678	67.612	19.591	6.9139e-06	27.102	0.00047536	0.00052738	0.00014795	1121.5	5.8071e-06	5.7843e-06	1205.6	242.06	5.8637e-06	5.918e-06	302.18	85.976	68.516	20.163	5.8446e-06	27.705	147.274	151.065	49.485	-38.270	96.782	-7.770	-37.973	-30.827	184.949	79.387	-31.443	-23.935	-23.842	-16.782	129.368	-17.482	-8191	255	
20059.607	1	1	0	0	0.17889	0.2264	0.085189	0.11832	0.1504	0.16756	0.28852	0.22007	0.21066	0.089964	0.0029647	0.2519	0.14796	0.14048	0.13043	0.28561	-2.4521	-3.3021	-2.675	-3.3479	-3.3396	-2.6354	-3.4	-2.9437	-2.8021	-3.4708	-2.8187	-3.0125	-3.2313	-2.4	-3.2896	-3.1063	306.788	36.941	61.464	248.387	-30.299	-40.895	259.983	248.368	56.525	-44.651	101.929	168.190	36.111	62.756	235.211	270.236	0.00010491	0.00042677	3.1242e-05	1141	2.8321e-06	4.5532e-06	1229.8	243.35	2.6296e-07	1.8917e-06	301.85	84.565	67.213	19.806	4.2709e-06	27.211	0.00049506	0.00054714	0.00015337	1123.2	6.1838e-06	6.2567e-06	1208.9	242.76	6.0612e-06	6.3449e-06	302.59	86.128	68.758	20.289	6.5908e-06	27.893	206.381	-5.649	22.486	-38.415	176.557	47.386	-37.935	-30.596	305.390	142.913	-31.350	-23.971	-23.689	-17.046	245.576	-17.625	-8191	255	
20059.705	1	1	0	0	0.21028	0.25275	0.15233	0.27872	0.091497	0.23878	0.092527	0.34155	0.24959	0.098602	0.12444	0.13279	0.041739	0.070064	0.046938	0.24172	-2.1354	-3.3917	-2.7021	-3.0479	-3.2313	-2.7083	-3.4167	-3.1375	-2.6562	-3.5854	-2.925	-2.9729	-3.5125	-2.7792	-3.2396	-3.1813	-2.063	301.162	235.906	287.734	24.710	302.001	242.110	224.286	99.018	-9.535	254.722	283.283	236.230	127.494	-33.679	142.819	0.0001169	0.00020833	4.8271e-05	1152.8	2.3882e-06	3.0541e-06	1229.8	244.72	2.8882e-06	4.6506e-06	305.45	85.139	68.034	19.728	5.1487e-06	27.271	0.00057202	0.00063463	0.00017917	1130.7	6.955e-06	7.1308e-06	1212.5	244.38	7.0774e-06	6.9287e-06	304.69	86.575	69.247	20.374	6.7395e-06	28.005	150.937	45.360	46.144	-38.088	75.240	104.525	-38.011	-30.959	158.879	93.268	-31.263	-24.285	-23.512	-16.841	64.068	-17.316	-8191	255	
20059.824	1	1	0	0	0.068117	0.14118	0.17242	0.086912	0.042915	0.13591	0.16599	0.19416	0.16692	0.34106	0.11819	0.21744	0.098837	0.089076	0.21824	0.1461	-2.0938	-3.525	-2.7646	-3.0854	-3.4458	-2.5646	-3.4771	-3.2313	-2.5917	-3.2667	-3.075	-2.7854	-3.4729	-2.7229	-3.0917	-3.2417	285.476	305.813	87.595	-39.105	46.201	7.670	242.697	204.127	177.643	284.917	86.224	120.971	39.859	-29.301	309.792	284.520	4.8788e-05	0.00024806	0.0001381	1147.4	3.1698e-06	4.3999e-06	1231.6	243.9	2.4444e-06	5.9153e-06	304.8	84.98	67.871	19.764	1.9364e-06	27.387	0.00054734	0.00059729	0.00016958	1130.6	6.487e-06	6.6009e-06	1216.3	244.05	6.4127e-06	6.5133e-06	303.59	86.587	69.061	20.311	6.4506e-06	28.037	197.227	72.610	144.648	-38.201	161.306	52.786	-37.633	-30.819	176.512	132.117	-30.871	-24.076	-23.710	-17.308	218.180	-17.022	-8191	255	
20059.922	1	1	0	0	0.21131	0.16486	0.22767	0.026043	0.16308	0.20505	0.28276	0.17859	0.2224	0.039432	0.04817	0.018742	0.25813	0.15819	0.09416	0.12748	-2.3312	-3.4688	-2.9625	-2.8479	-3.4604	-2.6958	-3.3458	-3.3417	-2.5792	-3.3875	-3.2604	-2.8063	-3.5125	-2.6479	-2.9313	-3.4271	288.402	-39.987	129.120	233.213	273.981	76.500	251.840	252.233	-31.444	286.694	263.160	37.245	206.919	16.173	227.664	236.915	3.3366e-05	0.00028504	0.00011036	1152.7	3.1435e-06	1.3423e-06	1237.1	244.46	1.5727e-06	3.0431e-06	304.94	84.826	67.93	19.957	3.2118e-06	27.131	0.00053504	0.00058521	0.00016328	1131.6	6.2832e-06	6.293e-06	1215.6	244.26	5.9888e-06	6.0938e-06	303.62	86.512	69.108	20.392	6.2612e-06	27.906	130.440	30.540	30.698	-38.159	165.479	46.549	-37.600	-30.834	221.436	174.319	-30.841	-23.969	-23.909	-17.372	23.394	-17.263	-8191	255	
20060.018	1	1	0	0	0.14218	0.18802	0.17062	0.22658	0.10656	0.23419	0.31476	0.30761	0.16072	0.066683	0.040157	0.21654	0.030801	0.40003	0.082235	0.15385	-2.2854	-3.3979	-3.2083	-2.8042	-3.3438	-2.7667	-3.1875	-3.4708	-2.7646	-3.1937	-3.1771	-2.7917	-3.0375	-3.0438	-2.8625	-3.4146	299.781	19.438	144.842	243.129	16.210	120.698	224.808	305.030	158.756	-16.669	-41.044	48.150	292.460	-48.451	32.708	300.366	0.00012566	0.0002147	4.2141e-05	1144.6	1.7364e-06	2.8467e-06	1229.2	245.36	1.0231e-06	2.4296e-06	305.55	85.52	68.024	19.776	3.7587e-06	27	0.00050891	0.00057309	0.00016007	1129.7	6.3605e-06	6.5173e-06	1215	244.72	6.4973e-06	6.6263e-06	304.53	86.816	69.238	20.357	6.7426e-06	27.957	177.195	-19.549	26.490	-38.079	192.338	150.664	-37.653	-30.819	52.074	-11.756	-31.554	-23.720	-23.483	-17.130	76.193	-17.521	-8191	255	
20060.113	1	1	0	0	0.084535	0.05959	0.14432	0.31008	0.19447	0.13187	0.17788	0.34283	0.091653	0.15203	0.069046	0.18682	0.15417	0.20257	0.26888	0.2555	-2.0521	-3.1271	-3.2583	-2.6333	-3.375	-2.7792	-3.0417	-3.5229	-2.7833	-3.2354	-3.2896	-2.7417	-3.4292	-2.975	-2.6792	-3.4771	219.738	-9.336	192.683	298.472	146.543	15.820	264.753	-46.644	15.790	292.724	153.017	272.061	143.659	9.763	189.336	160.338	0.00011725	0.00049807	4.9392e-05	1150.6	1.5864e-06	4.2032e-06	1234.3	244.39	3.8035e-06	2.7335e-06	304.47	84.538	68.354	19.993	1.4792e-06	27.266	0.00055248	0.00061493	0.00017078	1131	6.7873e-06	6.7503e-06	1216.6	245.12	6.7157e-06	6.7257e-06	305.17	86.613	69.379	20.428	6.7813e-06	27.995	179.173	-9.674	-29.086	-37.959	262.235	98.962	-37.586	-30.797	136.131	-4.634	-31.127	-23.957	-23.632	-16.699	127.079	-17.643	-8191	255	
20060.211	1	1	0	0	0.091388	0.093805	0.15576	0.29636	0.17537	0.029223	0.30549	0.1055	0.15108	0.13259	0.10437	0.20842	0.13464	0.31957	0.19154	0.12632	-2.3771	-3.0208	-3.3021	-2.5938	-3.3354	-3.0729	-2.9792	-3.3854	-2.6104	-2.9167	-3.4625	-2.6479	-3.3146	-3.1292	-2.5708	-3.3854	-28.619	185.268	242.315	299.923	133.054	52.184	270.363	137.958	62.607	-14.581	229.340	200.337	-33.413	11.977	97.718	64.928	9.9022e-05	0.0004481	0.00017328	1149	4.4851e-06	2.1182e-06	1242.7	245.4	3.5649e-06	7.6391e-07	307.89	84.964	68.31	19.92	3.0266e-06	27.467	0.00053938	0.00060991	0.00017254	1134.5	6.8055e-06	6.9405e-06	1219.6	244.87	6.5735e-06	6.7473e-06	305.19	86.484	69.33	20.42	6.313e-06	28.036	176.564	67.198	56.536	-38.046	164.133	80.793	-37.673	-30.350	73.992	52.896	-30.650	-23.897	-23.378	-16.971	138.083	-17.095	-8191	255	
20060.307	1	1	0	0	0.39073	0.18936	0.36285	0.13238	0.076279	0.18301	0.3808	0.10508	0.24041	0.068841	0.20004	0.030308	0.23796	0.14442	0.25019	0.1845	-2.3125	-2.8688	-3.4917	-2.9396	-3.3771	-3.1729	-2.8042	-3.5438	-2.8917	-3.0333	-3.6021	-2.7125	-3.2375	-3.2875	-2.7354	-3.5229	276.882	192.506	253.972	220.818	71.748	120.904	237.024	151.143	197.719	164.506	29.350	295.561	137.036	253.784	-16.892	-45.039	3.9442e-05	0.00036453	9.6697e-05	1154.5	1.4124e-06	4.6232e-06	1238.8	245.44	4.1196e-06	4.2016e-06	307.52	85.942	68.563	19.851	1.3901e-06	27.339	0.00052106	0.00058128	0.00016141	1134.8	6.1838e-06	5.9703e-06	1217.2	244.28	5.9896e-06	5.914e-06	304.6	86.753	69.299	20.419	5.9787e-06	27.951	178.093	7.393	51.190	-38.112	104.449	164.203	-37.333	-30.309	101.621	149.467	-31.033	-23.625	-23.210	-17.328	290.358	-16.910	-8191	255	
20060.426	1	1	0	0	0.18864	0.16507	0.36307	0.35855	0.12991	0.26637	0.37683	0.26348	0.077076	0.12533	0.081431	0.19991	0.087358	0.14564	0.15367	0.14272	-2.6771	-2.8479	-3.2687	-2.9188	-3.1646	-3.2333	-2.7292	-3.5583	-2.9917	-2.5917	-3.4146	-2.7854	-3.0208	-3.3563	-2.575	-3.45	137.255	127.978	192.494	252.959	-35.094	23.915	261.710	300.984	260.967	305.791	287.796	-26.302	164.753	301.404	111.214	168.160	8.57e-05	0.00054267	0.0001857	1152.7	1.8355e-06	6.7371e-07	1229.8	244.51	2.5309e-06	1.9912e-06	305.14	84.6	68.255	19.795	4.3422e-06	27.437	0.00049643	0.00055668	0.00015588	1133.3	6.2044e-06	6.2338e-06	1216.9	244.89	6.5574e-06	6.6094e-06	305.42	86.815	69.339	20.368	6.6531e-06	28.003	157.910	51.882	41.991	-37.821	126.409	280.065	-37.659	-30.565	36.631	134.320	-30.957	-24.082	-23.214	-16.752	87.686	-16.756	-8191	255	
20060.521	1	1	0	0	0.16414	0.13107	0.22205	0.18412	0.16551	0.11251	0.20678	0.079792	0.08462	0.082809	0.205	0.14071	0.21601	0.10929	0.42078	0.18476	-2.5062	-2.5958	-3.3354	-2.8396	-2.95	-3.3792	-2.7979	-3.4292	-3.0396	-2.6604	-3.5125	-2.8771	-2.8542	-3.4354	-2.5458	-3.2438	5.709	292.168	255.566	173.230	-42.510	175.188	210.657	91.622	303.521	245.957	-27.440	130.708	-41.048	288.958	112.754	302.463	9.4242e-05	0.00049749	0.00020553	1155.6	4.0849e-06	3.619e-06	1231.1	245.93	3.7172e-06	2.2112e-06	305.72	85.128	67.663	19.964	4.2283e-06	27.412	0.00054048	0.00057889	0.00016157	1131.6	6.2274e-06	6.0855e-06	1216	244.91	6.0046e-06	6.019e-06	304.81	86.614	69.116	20.406	6.4498e-06	28.036	146.491	69.396	82.940	-38.125	142.908	114.973	-37.523	-30.360	158.253	71.319	-30.496	-23.582	-23.323	-16.894	60.859	-17.087	-8191	255	
20060.594	1	1	0	0	0.087946	0.20886	0.16982	0.20645	0.15598	0.13745	0.22603	0.38305	0.20167	0.11964	0.10616	0.093803	0.20925	0.19784	0.18534	0.18141	-2.8354	-2.8667	-3.3771	-3.1417	-2.8146	-3.4042	-2.7292	-3.2729	-3.3271	-2.5292	-3.4083	-2.8542	-2.8625	-3.5958	-2.7938	-3.1708	264.357	23.660	268.551	291.002	-40.809	111.650	281.780	240.076	309.289	193.118	130.548	28.512	210.371	-5.636	243.544	7.373	8.3049e-05	0.0006317	0.00014317	1155.4	2.3077e-06	2.9796e-06	1235.3	244.25	2.8763e-06	2.176e-06	306.98	86.239	68.601	19.881	4.1016e-06	27.447	0.00055547	0.00063289	0.00017869	1135.9	7.1427e-06	7.2416e-06	1217.2	245.3	7.3585e-06	7.608e-06	306.52	87.44	69.895	20.53	7.5069e-06	28.232	215.349	26.404	84.383	-37.918	79.894	175.680	-37.505	-30.140	164.067	201.913	-30.923	-23.905	-23.485	-16.789	29.875	-16.999	-8191	255	
20060.689	1	1	0	0	0.089867	0.10551	0.077007	0.13707	0.16182	0.25739	0.33857	0.37991	0.43446	0.19028	0.053528	0.26911	0.16337	0.13453	0.34591	0.22693	-3.0167	-2.6729	-3.3812	-3.1625	-2.9708	-3.3312	-2.9021	-2.8896	-3.3312	-2.575	-3.4125	-3.1625	-2.6771	-3.4958	-2.95	-2.925	273.657	-14.595	-12.183	239.031	256.165	7.039	285.528	307.408	231.109	288.137	201.409	-30.160	26.657	94.039	289.642	234.401	3.7299e-05	0.00021951	0.00010067	1155.6	1.6476e-06	6.4318e-06	1245.3	245.86	3.0744e-06	3.8821e-06	308.22	85.19	68.368	19.895	2.5774e-06	27.337	0.00062226	0.00068686	0.00019479	1137.3	7.5901e-06	7.7317e-06	1222	246.29	7.6192e-06	8.0379e-06	307.23	87.374	69.953	20.583	7.9781e-06	28.241	235.153	276.056	104.558	-38.271	196.232	59.422	-37.791	-30.385	143.600	92.313	-30.644	-23.750	-22.900	-16.215	85.327	-17.184	-8191	255	
20060.785	1	1	0	0	0.1531	0.29465	0.22616	0.068701	0.25879	0.098848	0.10675	0.044679	0.10786	0.1004	0.17148	0.11479	0.26653	0.19383	0.2122	0.034038	-3.0312	-2.7479	-3.2854	-3.1958	-2.6562	-3.4521	-3.0542	-2.9542	-3.4271	-2.8229	-3.2062	-3.2333	-2.8271	-3.3729	-2.8646	-2.8958	99.207	254.409	12.085	202.889	16.371	250.697	284.157	256.219	64.597	81.339	274.263	108.101	250.489	244.426	-3.334	162.405	5.3783e-05	0.0006055	0.00017975	1154.2	2.83e-06	7.8194e-06	1241.8	246.99	2.4934e-06	2.2394e-06	306.51	85.136	68.198	19.648	2.6713e-06	27.278	0.00063688	0.00072045	0.00020053	1139.2	7.9557e-06	7.7782e-06	1222.3	246.95	7.5219e-06	7.6474e-06	307.34	87.141	69.673	20.491	7.1933e-06	28.119	224.951	40.267	88.500	-38.112	73.212	102.374	-37.971	-30.333	113.870	67.053	-30.749	-23.883	-23.476	-17.044	87.587	-16.832	-8191	255	
20060.906	1	1	0	0	0.1959	0.29982	0.14232	0.27137	0.088829	0.28699	0.20742	0.24649	0.18016	0.076264	0.12233	0.15732	0.09721	0.16845	0.13254	0.097627	-2.95	-2.5812	-3.1583	-3.3625	-2.6	-3.4542	-3.2125	-2.8812	-3.3958	-2.8354	-3.125	-3.3958	-2.6708	-3.3438	-3.0563	-2.7104	280.597	2.910	37.059	266.075	84.433	204.793	305.347	264.793	-38.060	-39.091	232.278	-34.558	242.242	-19.368	191.018	305.407	0.00010838	0.00014605	0.00020565	1157.9	1.4336e-06	3.5934e-06	1234.9	246.36	7.2908e-06	7.7377e-08	307.14	84.744	67.958	19.648	2.5282e-06	27.383	0.00058382	0.00064897	0.00017866	1138.6	7.0533e-06	7.0176e-06	1219	246.35	7.2064e-06	7.473e-06	307.29	87.235	69.673	20.511	8.022e-06	28.242	175.348	58.850	57.662	-37.840	234.644	58.774	-37.879	-30.472	113.112	92.638	-30.749	-24.035	-23.313	-16.555	209.036	-16.799	-8191	255	
20061.002	1	1	0	0	0.22048	0.033668	0.1196	0.41467	0.010402	0.16629	0.36371	0.31548	0.094726	0.15377	0.056801	0.14178	0.077057	0.28094	0.13635	0.1483	-2.9229	-2.6417	-2.9854	-3.5312	-2.7146	-3.3083	-3.0708	-2.7229	-3.4313	-2.8708	-3.0646	-3.3833	-2.6417	-3.25	-3.2438	-2.7104	-46.633	208.764	294.940	211.820	235.791	-22.090	241.744	238.184	100.040	120.132	235.925	108.102	93.886	-24.958	-16.497	-44.779	0.00013875	0.00039581	0.00013087	1156	3.9916e-06	3.3076e-06	1239.4	247.76	4.2305e-06	7.1439e-06	308.22	85.527	68.363	19.994	3.7471e-07	27.511	0.00066004	0.00075547	0.00021644	1139.5	8.581e-06	8.5958e-06	1222.5	247.61	8.4819e-06	8.6929e-06	309.58	87.929	70.116	20.714	8.6183e-06	28.371	187.487	44.913	68.506	-37.959	105.283	125.175	-37.632	-30.707	169.746	105.391	-30.733	-24.034	-23.409	-17.100	77.773	-17.281	-8191	255	
20061.098	1	1	0	0	0.11292	0.11106	0.071399	0.16718	0.20386	0.24773	0.27423	0.26475	0.14164	0.18862	0.30766	0.086006	0.14228	0.015633	0.13939	0.32179	-3.0646	-2.9688	-2.9021	-3.475	-2.5083	-3.3021	-3.3792	-2.8729	-3.3583	-2.9604	-2.9062	-3.3583	-2.9042	-3.1125	-3.2333	-2.625	191.750	179.992	145.798	274.128	113.338	18.851	274.349	247.734	271.183	3.482	300.666	200.523	-14.177	-20.922	223.067	203.462	9.1904e-05	0.00040175	0.00011822	1159.7	7.3314e-06	2.9855e-06	1242.6	246.96	4.8173e-06	3.4736e-06	307.82	85.166	68.233	19.908	4.3031e-06	27.254	0.00070852	0.00077694	0.0002222	1145.1	8.6499e-06	8.6185e-06	1224.6	247.25	8.1257e-06	8.118e-06	307.95	87.197	69.944	20.499	7.2723e-06	28.039	202.559	13.735	12.131	-38.031	134.540	51.274	-37.976	-30.431	143.967	114.377	-31.047	-24.138	-23.944	-17.061	58.756	-18.032	-8191	255	
20061.219	1	1	0	0	0.058895	0.097992	0.20063	0.24143	0.20328	0.27318	0.12615	0.19853	0.035501	0.091254	0.20231	0.064503	0.31972	0.15666	0.057288	0.18921	-2.8979	-2.7542	-2.8417	-3.5938	-2.6896	-3.0271	-3.6771	-2.7292	-3.3417	-3.0021	-2.8708	-3.575	-2.9021	-3.0583	-3.4188	-2.7	103.714	-31.372	-45.154	234.263	127.305	29.580	242.313	237.853	262.133	239.684	-18.554	203.771	-32.392	-36.051	64.288	275.958	6.4686e-05	0.00019974	6.11e-05	1157.5	1.3624e-06	2.0854e-06	1238.8	247.15	1.0105e-06	6.478e-06	306.97	85.725	67.945	20.028	5.3861e-06	27.131	0.00057771	0.00063161	0.00017903	1137.5	6.8289e-06	6.8633e-06	1220.1	246.04	6.8548e-06	6.9153e-06	306.54	87.079	69.477	20.546	6.9e-06	28.023	196.206	140.701	115.469	-38.554	177.778	279.911	-38.119	-30.634	139.727	101.342	-31.095	-24.243	-24.076	-16.766	186.775	-17.504	-8191	255	
20061.289	1	1	0	0	0.039994	0.067385	0.081371	0.15117	0.25799	0.18043	0.14228	0.20289	0.20173	0.133	0.26407	0.097703	0.02861	0.11057	0.12741	0.18316	-2.7271	-3.1042	-2.7062	-3.5271	-2.8417	-3	-3.5625	-2.5958	-3.2292	-3.2646	-2.7771	-3.4938	-2.9583	-2.7479	-3.5	-2.6688	185.334	5.755	244.497	-5.520	-8.016	247.553	220.007	240.509	83.820	189.835	266.031	279.152	171.600	46.470	-3.762	287.439	0.00010167	0.00059492	0.00011507	1163.2	4.379e-06	1.087e-06	1241	245.98	1.7112e-06	3.5334e-06	307.79	85.606	68.083	19.907	5.2285e-06	27.292	0.00057275	0.00064315	0.00017559	1139.9	6.7535e-06	6.8791e-06	1221.8	246.03	6.5711e-06	6.6609e-06	306.74	87.172	69.462	20.433	6.3952e-06	27.927	203.274	81.145	77.600	-38.423	102.517	302.603	-37.951	-30.903	208.940	125.329	-31.105	-24.297	-23.686	-16.840	36.412	-17.105	-8191	255	
20061.387	1	1	0	0	0.24436	0.081589	0.058787	0.12305	0.28321	0.11051	0.22199	0.018684	0.083957	0.22039	0.15405	0.17176	0.25723	0.12947	0.075137	0.052712	-2.6917	-3.2479	-2.7146	-3.6375	-3.0229	-2.8667	-3.5979	-2.9188	-2.9375	-3.3146	-2.6458	-3.3	-3.0479	-2.9917	-3.5292	-2.7833	86.581	99.034	238.320	244.721	138.971	90.904	229.227	-28.797	93.707	188.142	124.017	169.419	-16.972	-7.522	36.262	36.333	9.0195e-05	0.00021182	0.0001288	1153.5	6.7102e-07	5.7854e-06	1237.3	245.74	1.9753e-06	4.6301e-06	306.4	85.539	68.179	19.921	4.2821e-07	27.317	0.00050986	0.00056563	0.00016172	1137.5	6.0545e-06	6.2029e-06	1218.8	244.71	5.9649e-06	5.9445e-06	304.64	86.591	69.277	20.429	6.1547e-06	27.874	164.133	60.058	57.009	-38.236	63.457	230.848	-37.686	-30.573	79.796	99.335	-31.170	-23.912	-23.395	-16.721	71.815	-16.896	-8191	255	
20061.508	1	1	0	0	0.052409	0.31091	0.08504	0.3291	0.26758	0.12527	0.21524	0.27589	0.0403	0.11847	0.20294	0.20612	0.12157	0.40107	0.11694	0.17846	-2.5958	-3.3646	-2.6625	-3.2854	-3.0667	-2.6271	-3.6063	-2.9333	-3.0417	-3.3417	-2.8958	-3.2021	-3.1396	-2.6833	-3.3458	-2.9917	45.617	227.247	22.698	257.162	303.152	304.144	253.483	275.723	145.572	300.692	295.923	311.089	26.867	223.414	278.751	52.005	5.547e-05	0.0002007	5.0357e-05	1158.1	3.0636e-06	3.1652e-06	1241.5	245.41	3.5781e-06	2.2093e-06	308.44	85.517	67.745	19.944	3.4431e-06	27.369	0.00051902	0.00057245	0.00016325	1138.4	6.403e-06	6.5598e-06	1220.4	245	6.4812e-06	6.3008e-06	306.28	86.884	69.08	20.424	6.1507e-06	27.864	246.097	140.031	219.991	-38.197	104.563	236.507	-37.884	-30.888	134.478	136.920	-30.607	-23.512	-23.526	-16.928	68.126	-17.494	-8191	255	
20061.602	1	1	0	0	0.15827	0.11626	0.1078	0.034162	0.18419	0.1567	0.30684	0.20126	0.21694	0.23477	0.17391	0.20517	0.085642	0.33966	0.076149	0.077498	-2.3104	-3.2938	-2.5938	-3.4521	-3.2875	-2.5354	-3.5292	-2.975	-2.6688	-3.4437	-2.6396	-3.1562	-3.1771	-2.7125	-3.2438	-2.9542	311.310	307.947	-37.989	68.980	-11.835	1.020	289.532	153.731	138.070	78.866	51.117	-18.016	301.739	-47.144	243.885	24.733	0.00010111	0.00056694	6.6894e-05	1156	6.4024e-06	4.7277e-06	1243.7	245.74	2.8288e-06	6.1333e-06	305.19	84.921	67.738	19.844	5.937e-06	27.253	0.00049979	0.00055407	0.00015427	1135.4	5.9976e-06	5.9173e-06	1218.9	244.46	5.7215e-06	5.9862e-06	303.62	86.567	69	20.349	5.9522e-06	27.862	144.189	99.159	309.960	-38.248	125.835	109.154	-37.485	-30.400	87.735	83.761	-30.643	-23.520	-23.773	-16.777	93.200	-16.711	-8191	255	
20061.697	1	1	0	0	0.18938	0.10765	0.032903	0.18771	0.10004	0.075192	0.15116	0.15037	0.13893	0.053327	0.14347	0.20797	0.076282	0.096002	0.14921	0.15628	-2.4667	-3.4104	-2.7646	-3.2021	-3.3354	-2.5687	-3.4708	-3.0438	-2.5167	-3.275	-3.0771	-2.8833	-3.4021	-2.8625	-3.3042	-3.225	167.749	213.222	133.510	281.467	35.265	83.053	146.416	43.641	73.264	279.286	247.442	260.233	284.243	-44.486	73.612	166.605	6.3163e-05	0.0004462	0.00011496	1150.9	2.8968e-06	3.0263e-06	1233.3	245.59	2.2134e-06	4.096e-06	306.72	85.104	68.344	19.85	5.1484e-06	27.322	0.00049986	0.00055911	0.00015536	1131.6	6.0816e-06	6.2917e-06	1215	244.2	6.15e-06	6.196e-06	305.12	86.486	69.233	20.33	6.3097e-06	27.918	210.973	64.729	15.725	-38.203	131.533	236.949	-38.028	-30.969	64.741	253.838	-31.204	-23.901	-23.731	-17.226	96.514	-17.530	-8191	255	
20061.818	1	1	0	0	0.073832	0.1677	0.069493	0.10532	0.19632	0.24927	0.32583	0.094035	0.1696	0.16046	0.091729	0.047124	0.27295	0.11218	0.070478	0.16838	-2.2375	-3.6521	-2.8875	-3.0417	-3.4396	-2.675	-3.4229	-3.2167	-2.7042	-3.3042	-3.1312	-2.9271	-3.425	-2.65	-2.9708	-3.2021	87.987	253.997	222.931	235.180	188.285	87.396	270.022	36.231	210.765	-37.191	266.446	305.638	0.169	3.999	160.054	18.030	9.1369e-05	0.00033279	5.4399e-05	1153.9	2.5117e-06	2.805e-06	1236.2	244.42	2.7804e-06	5.4825e-06	304.27	85.543	67.758	19.659	3.3999e-06	27.202	0.00051115	0.0005534	0.00015416	1134.5	5.7418e-06	5.7266e-06	1215.2	243.53	5.403e-06	5.4026e-06	303.38	86.548	68.845	20.15	5.3328e-06	27.74	156.340	58.284	305.899	-38.462	186.550	117.303	-38.145	-31.020	122.278	85.363	-31.604	-24.435	-24.306	-17.331	49.740	-18.098	-8191	255	
20061.891	1	1	0	0	0.21013	0.080171	0.078855	0.14501	0.18342	0.039922	0.40281	0.067592	0.17456	0.066819	0.031829	0.13616	0.29227	0.15162	0.047975	0.18813	-2.2646	-3.3833	-2.8812	-2.8604	-3.4854	-2.7146	-3.2146	-3.3479	-2.4854	-3.3292	-2.9354	-2.6667	-3.4146	-2.7313	-2.9604	-3.3771	284.224	37.051	110.828	261.444	1.069	277.919	243.337	179.684	54.630	149.826	23.989	273.816	236.882	178.690	196.412	293.015	7.7422e-05	0.00050291	0.00017226	1146.3	3.0075e-06	3.3789e-06	1231.9	244.04	1.5295e-06	1.1845e-06	303.36	85.21	68.218	19.791	4.3603e-06	27.424	0.00044649	0.00049464	0.00013993	1128.4	5.5804e-06	5.873e-06	1213.9	244.25	6.1334e-06	6.1694e-06	304.08	86.658	69.28	20.341	6.2528e-06	27.951	177.484	22.210	63.182	-38.815	131.377	50.922	-38.503	-31.246	172.884	3.101	-31.916	-24.829	-24.408	-17.788	43.751	-17.918	-8191	255	
20061.986	1	1	0	0	0.34588	0.055406	0.14802	0.21995	0.15836	0.29503	0.18711	0.31755	0.19339	0.31435	0.23948	0.18375	0.23465	0.13362	0.091408	0.15987	-2.3229	-3.2896	-2.9062	-2.6937	-3.4708	-2.9708	-3.1625	-3.3	-2.55	-3.0896	-3.1667	-2.8104	-3.4104	-2.8063	-2.8	-3.2208	73.823	292.195	101.195	34.713	208.607	77.363	-21.903	-41.391	102.659	212.277	293.881	101.927	306.231	55.509	85.988	50.995	6.6487e-05	0.00070632	9.6525e-05	1155.4	4.4728e-06	2.9664e-06	1236.9	244.81	2.1163e-06	3.0176e-06	306.35	85.524	68.37	19.881	1.6132e-06	27.286	0.0005085	0.00057037	0.00015723	1134.1	5.9845e-06	6.1228e-06	1216.4	244.7	6.2358e-06	6.2319e-06	304.05	86.888	69.438	20.415	6.4602e-06	27.955	172.937	27.935	141.652	-38.682	111.788	145.873	-38.469	-31.619	120.430	28.761	-31.673	-24.592	-24.224	-17.995	285.152	-18.141	-8191	255	
20062.107	1	1	0	0	0.050191	0.14842	0.16812	0.5385	0.21259	0.054735	0.22587	0.15332	0.11868	0.12902	0.22394	0.2372	0.23094	0.087188	0.24895	0.076691	-2.075	-3.2458	-3.0333	-2.6354	-3.4479	-2.7771	-2.8354	-3.2812	-2.5875	-3.1958	-3.2792	-2.5521	-3.4354	-2.8125	-2.6437	-3.4104	133.927	-42.131	233.226	288.028	108.861	99.844	241.828	215.302	134.662	203.934	195.058	156.649	291.353	-8.596	27.823	218.429	9.8885e-05	0.00022514	3.0366e-05	1151.6	4.9518e-06	2.8944e-06	1237.8	245.42	1.9296e-06	2.7684e-06	304.39	85.432	68.099	19.872	1.6056e-06	27.457	0.00050046	0.00054817	0.00015588	1134.6	5.8886e-06	5.8134e-06	1218	244.82	5.8842e-06	5.8404e-06	304.02	86.834	69.233	20.428	6.2988e-06	28.016	174.159	95.204	230.789	-38.737	198.052	118.516	-38.370	-31.516	197.502	141.738	-31.851	-24.323	-24.362	-17.893	40.377	-18.196	-8191	255	
20062.203	1	1	0	0	0.43077	0.080063	0.10401	0.072586	0.11328	0.15997	0.16229	0.31148	0.048134	0.098246	0.15452	0.20259	0.14045	0.070442	0.22719	0.29359	-2.1979	-3.1479	-3.0479	-2.5271	-3.1854	-2.875	-2.7042	-3.4646	-2.5271	-3.0021	-3.4042	-2.4875	-3.2292	-3.1021	-2.7	-3.4333	245.905	143.339	81.081	300.274	177.521	38.804	237.956	302.979	125.702	55.141	305.145	239.313	282.775	20.886	152.046	304.241	0.00010973	0.0005437	0.00011357	1149.2	2.3617e-06	2.6429e-06	1234.5	244.54	2.7279e-06	3.2592e-06	307.75	85.435	68.147	20.015	3.1134e-06	27.222	0.00053031	0.00058116	0.0001652	1134.3	6.3849e-06	6.485e-06	1217.7	245.17	6.2408e-06	6.3367e-06	305.79	86.94	69.324	20.383	6.0973e-06	27.908	196.232	7.758	82.151	-38.572	146.274	66.672	-38.430	-31.469	178.307	122.589	-31.592	-24.332	-24.231	-17.509	80.184	-17.916	-8191	255	
20062.299	1	1	0	0	0.12241	0.14238	0.13981	0.20023	0.20175	0.12606	0.48234	0.26253	0.016088	0.30121	0.18588	0.27009	0.054709	0.23495	0.058856	0.2164	-2.5	-2.95	-3.3208	-2.7792	-3.175	-3.1396	-2.8312	-3.4542	-2.5625	-2.8083	-3.2729	-2.8271	-3.2375	-3.2896	-2.5521	-3.4021	156.140	222.021	8.610	310.256	-18.522	6.980	250.946	-24.297	158.870	304.201	264.165	270.747	169.675	-5.463	10.079	265.117	5.9369e-05	0.00047208	2.9489e-05	1153.1	4.3945e-06	3.7425e-06	1238.2	244.62	1.9307e-06	1.547e-06	306.6	85.546	68.233	19.757	5.2263e-07	27.258	0.00049337	0.00056036	0.00015532	1136.4	6.0062e-06	6.1408e-06	1220.2	245.26	6.0342e-06	5.9716e-06	305.74	86.798	69.276	20.329	5.924e-06	27.89	158.759	74.773	253.018	-38.840	125.162	60.435	-38.462	-30.891	199.965	102.364	-31.782	-24.775	-23.912	-17.997	232.141	-18.141	-8191	255	
20062.393	1	1	0	0	0.12904	0.20697	0.061035	0.45481	0.15575	0.18817	0.27545	0.2748	0.15571	0.19845	0.13586	0.12103	0.25082	0.10077	0.083094	0.13982	-2.4813	-2.8833	-3.5396	-2.9437	-3.0187	-3.2979	-2.7521	-3.4646	-3.0062	-2.7708	-3.4646	-2.6292	-2.9562	-3.4271	-2.6688	-3.3458	146.302	49.875	307.624	272.602	205.276	229.349	204.372	293.903	53.573	307.711	2.192	194.182	280.976	286.967	277.434	186.591	7.5891e-05	0.00033843	9.2707e-05	1156.2	3.4939e-06	1.6005e-06	1233.8	245.82	2.7163e-06	1.3775e-06	306.61	85.759	67.787	19.797	6.6612e-06	27.194	0.00047532	0.00053681	0.00014761	1137.3	5.7435e-06	5.9398e-06	1217.7	244.71	6.0731e-06	6.2277e-06	305.43	87.128	69.319	20.432	6.9901e-06	28.005	185.553	65.651	21.248	-39.070	-40.807	-22.216	-38.443	-31.500	143.284	129.628	-31.714	-24.854	-24.053	-17.864	121.364	-17.908	-8191	255	
20062.488	1	1	0	0	0.21202	0.075932	0.035358	0.14917	0.15534	0.14397	0.26937	0.14527	0.041507	0.11837	0.0022423	0.26804	0.23884	0.10724	0.08646	0.11933	-2.6271	-2.7062	-3.4521	-2.7792	-2.9708	-3.3187	-2.8937	-3.3271	-3.075	-2.7562	-3.3917	-2.9542	-3.0687	-3.3771	-2.5229	-3.2792	144.321	168.237	203.911	2.477	108.206	59.773	240.828	-7.072	222.507	195.048	289.102	310.168	288.987	288.566	285.624	250.073	7.9939e-05	0.0004263	6.9574e-05	1145.8	2.3473e-06	5.3973e-06	1234.1	246.76	1.011e-06	3.6296e-06	303.84	85.237	68.435	19.814	3.9768e-06	27.142	0.00057153	0.00065226	0.00017862	1132	7.0352e-06	7.0658e-06	1221.1	246.01	7.3821e-06	7.573e-06	306.1	87.204	69.943	20.499	7.0998e-06	28.055	189.076	48.385	122.240	-38.831	157.195	63.900	-38.571	-31.073	-29.368	82.034	-31.785	-24.748	-24.753	-18.042	43.762	-18.095	-8191	255	
20062.586	1	1	0	0	0.24037	0.14053	0.065901	0.18442	0.25361	0.14633	0.46648	0.19551	0.14807	0.28341	0.088608	0.12892	0.13567	0.069398	0.21561	0.091385	-2.7354	-2.7125	-3.2062	-2.7604	-2.9437	-3.3688	-2.8917	-3.2604	-3.2854	-2.8104	-3.4604	-2.9896	-2.95	-3.5125	-2.7313	-3.1792	219.678	163.366	269.839	307.286	-2.633	-13.333	210.564	256.139	-31.739	5.387	20.376	278.653	224.450	300.730	237.475	304.471	0.00012518	0.00058579	1.3418e-05	1152	3.2477e-06	6.7575e-06	1235.7	245.57	3.6836e-06	3.737e-06	304.13	85.134	68.382	19.737	1.7375e-06	27.193	0.00053639	0.000585	0.00015413	1131.5	5.7347e-06	5.5205e-06	1215.1	243.9	5.1165e-06	5.1431e-06	302.71	85.995	68.818	20.172	5.153e-06	27.653	174.816	80.258	274.640	-38.733	221.034	136.769	-38.773	-31.306	109.190	95.495	-31.681	-24.671	-24.359	-17.716	145.275	-17.779	-8191	255	
20062.682	1	1	0	0	0.12295	0.057021	0.17616	0.21332	0.073712	0.08609	0.36729	0.069284	0.097681	0.15079	0.23086	0.095074	0.01664	0.17165	0.3777	0.098108	-2.6771	-2.6292	-3.5271	-3.0167	-2.7562	-3.3625	-2.9083	-3.0208	-3.2354	-2.6792	-3.2833	-3.1021	-2.7229	-3.3417	-2.5729	-2.8771	285.167	88.351	63.075	279.140	20.073	165.203	230.967	220.490	211.581	49.651	162.479	173.235	-26.590	-27.319	-20.429	-6.232	9.7101e-05	0.00018916	0.00016266	1145.7	5.4845e-07	2.0055e-06	1232.3	244.65	3.441e-06	7.4655e-07	304.91	85.342	67.811	19.743	2.1133e-06	27.301	0.00044203	0.00050839	0.00014686	1126.5	5.9908e-06	6.1812e-06	1211.9	244.33	6.4629e-06	6.7113e-06	304.81	86.993	69.289	20.42	7.076e-06	28.033	201.669	282.041	127.044	-39.134	258.867	112.108	-38.753	-31.244	149.209	142.124	-32.120	-24.418	-24.418	-17.692	81.618	-17.875	-8191	255	
20062.777	1	1	0	0	0.073289	0.40569	0.09431	0.32013	0.095772	0.040117	0.11432	0.10298	0.054587	0.31431	0.27231	0.065533	0.13953	0.18314	0.067971	0.12874	-2.9562	-2.5896	-3.2292	-3.2771	-2.4542	-3.3333	-2.7958	-2.9542	-3.2729	-2.4917	-3.1646	-3.2708	-2.6708	-3.4083	-2.8875	-2.7812	25.727	-29.531	300.383	-23.047	298.816	33.822	90.777	177.018	176.117	227.361	217.848	224.470	309.780	295.000	-14.976	-12.524	6.7042e-05	0.00012831	0.00015105	1150.5	2.5065e-06	3.6734e-07	1230.5	245.21	1.8257e-06	3.8493e-06	307.04	85.181	67.853	19.831	3.0656e-06	27.335	0.00056889	0.00062573	0.000171	1131.9	6.5752e-06	6.4044e-06	1212.8	244.56	6.3183e-06	6.5571e-06	305.57	86.647	69.155	20.422	6.7329e-06	27.94	194.800	34.988	259.648	-38.950	139.485	-28.103	-38.533	-31.144	105.472	165.109	-31.781	-24.749	-24.672	-17.647	69.909	-17.955	-8191	255	
20062.898	1	1	0	0	0.076946	0.12316	0.11282	0.11714	0.27548	0.22564	0.25421	0.27435	0.19004	0.13425	0.17768	0.07622	0.12549	0.039181	0.038551	0.23889	-3.0125	-2.4313	-3.0875	-3.4188	-2.4521	-3.2208	-3.0958	-2.7667	-3.2562	-2.5396	-3.3021	-3.3187	-2.4792	-3.3563	-2.6917	-2.6813	111.500	264.558	135.944	283.246	51.066	219.240	287.348	-24.469	146.271	126.077	-31.366	27.024	35.005	214.037	173.752	-19.824	0.00010039	0.00037717	3.5254e-05	1151	7.2101e-07	2.9516e-06	1233.8	245.17	5.3415e-06	5.2394e-07	303.71	84.986	67.443	19.857	5.6054e-06	27.231	0.00056663	0.0006314	0.00017914	1133.5	7.2214e-06	7.2959e-06	1217.2	245.49	7.1115e-06	7.1292e-06	304.92	86.919	69.27	20.436	6.7447e-06	27.967	209.250	16.084	206.421	-38.735	292.369	251.831	-38.655	-31.239	241.544	194.122	-31.626	-24.372	-24.059	-17.280	94.810	-17.587	-8191	255	
20062.994	1	1	0	0	0.17193	0.27877	0.13552	0.31392	0.08432	0.12554	0.20139	0.3905	0.25803	0.092061	0.087018	0.096655	0.064762	0.3536	0.20611	0.12338	-2.9854	-2.7812	-2.7354	-3.4583	-2.5021	-3.2271	-3.2417	-2.7771	-3.2104	-2.7	-3.0021	-3.3146	-2.8104	-3.2	-2.9979	-2.5042	225.305	-14.061	198.060	244.550	14.654	-47.094	258.647	249.765	232.361	106.369	-20.629	267.590	104.389	65.001	198.046	18.605	9.5643e-05	0.00062027	9.6442e-05	1155.6	6.8785e-06	6.7472e-06	1230.2	244.77	2.6881e-06	3.1431e-06	306.34	85.36	67.956	20.041	2.2844e-06	27.183	0.00054706	0.00058593	0.00016337	1134.3	6.2464e-06	6.1558e-06	1213.6	244.59	6.0844e-06	6.2528e-06	304.62	86.87	69.286	20.498	6.3769e-06	27.846	191.531	5.681	14.098	-38.551	155.654	106.210	-38.357	-31.216	299.427	109.115	-31.560	-24.180	-24.355	-17.131	83.479	-17.989	-8191	255	
20063.092	1	1	0	0	0.056433	0.10724	0.078917	0.15617	0.10646	0.10131	0.43001	0.11448	0.27474	0.076058	0.06148	0.20967	0.065092	0.11375	0.014712	0.068097	-3.0458	-2.7938	-2.7271	-3.4146	-2.4521	-3.1312	-3.3167	-2.5479	-3.4813	-2.9146	-2.8875	-3.3625	-2.875	-2.9854	-3.3667	-2.6292	89.422	5.538	180.585	280.659	231.928	171.739	261.138	293.416	17.550	141.632	-8.898	-15.563	-8.755	300.460	106.829	-23.829	9.2656e-05	0.00037381	9.1663e-05	1151	1.9242e-06	4.9725e-06	1236.6	245.59	2.4552e-06	5.1887e-06	305.74	84.896	68.107	20.089	4.3092e-06	27.326	0.00052367	0.00058537	0.00016235	1134.3	6.2593e-06	6.2287e-06	1217.6	244.95	5.9607e-06	6.0222e-06	305.13	86.558	69.357	20.475	6.0743e-06	28.031	213.960	292.638	97.180	-38.504	63.622	109.906	-38.359	-31.078	188.474	132.460	-31.500	-24.602	-24.125	-17.439	88.711	-17.887	-8191	255	
20063.188	1	1	0	0	0.067251	0.14093	0.076073	0.42945	0.088837	0.12185	0.22345	0.30721	0.094376	0.083707	0.15903	0.12426	0.15087	0.219	0.082547	0.12971	-2.9646	-2.8333	-2.7625	-3.5208	-2.5563	-3.0708	-3.3333	-2.6917	-3.4208	-2.9542	-2.7562	-3.3	-2.7729	-2.7979	-3.3833	-2.7375	261.277	83.520	-40.892	258.282	109.179	302.059	251.877	299.141	10.371	267.829	260.533	282.874	117.140	1.484	26.017	211.218	3.0564e-05	0.00033937	0.0001298	1152.2	2.0903e-06	6.1158e-06	1232.7	245.69	1.5043e-06	2.4317e-06	304.73	85.7	68.23	19.974	6.9852e-06	27.307	0.00049518	0.00054217	0.0001518	1130.2	5.8771e-06	5.9163e-06	1213.9	245.25	5.8792e-06	5.9791e-06	304.53	86.576	69.118	20.46	6.287e-06	27.965	177.294	132.661	92.184	-38.609	37.359	13.330	-38.216	-31.233	233.630	15.375	-31.446	-24.223	-24.174	-17.624	116.232	-17.623	-8191	255	
20063.283	1	1	0	0	0.17884	0.11032	0.15695	0.31668	0.12716	0.10889	0.2853	0.16683	0.1165	0.23825	0.096382	0.24088	0.12439	0.2509	0.20375	0.088895	-2.8896	-2.9542	-2.6146	-3.3875	-2.8187	-2.8771	-3.3604	-2.5187	-3.1688	-3.3479	-2.7542	-3.4271	-2.8208	-2.7875	-3.3854	-2.9333	118.842	86.358	140.152	239.418	1.971	278.526	249.082	267.226	-8.402	98.810	197.261	209.423	303.334	-37.311	238.390	301.304	4.4087e-05	0.00033893	3.6842e-05	1148.2	9.0945e-07	3.6062e-06	1233.2	245.93	5.375e-07	4.3124e-06	307.39	86.193	68.016	19.887	3.961e-06	27.422	0.00051715	0.00057778	0.000163	1131.7	6.1786e-06	6.1174e-06	1216.6	245.21	5.855e-06	5.8574e-06	305.17	86.736	68.998	20.343	5.459e-06	27.835	195.712	19.577	174.995	-38.855	10.905	56.391	-38.056	-31.012	145.725	85.626	-31.572	-24.399	-24.265	-17.450	142.717	-17.750	-8191	255	
20063.379	1	1	0	0	0.11492	0.26475	0.31896	0.1703	0.046124	0.24069	0.13043	0.29748	0.042343	0.085861	0.27332	0.17571	0.21863	0.12435	0.21108	0.053835	-2.7479	-3.1104	-2.4979	-3.4083	-2.7083	-2.7271	-3.6646	-2.5354	-2.975	-3.1333	-2.7146	-3.3167	-2.9229	-2.7542	-3.2292	-2.8688	162.655	132.752	30.676	191.298	164.796	235.499	241.979	266.742	237.842	243.428	260.162	302.981	247.046	258.970	39.587	259.251	0.00010636	0.00057725	0.00014625	1148.1	4.403e-06	1.9862e-06	1233.3	246.03	1.263e-06	2.1571e-06	305.38	85.216	68.475	19.82	2.6272e-06	27.411	0.00044178	0.00047708	0.00013447	1129.4	5.0516e-06	5.1286e-06	1214.4	244.46	4.9644e-06	4.9302e-06	304.12	86.501	68.943	20.278	5.1348e-06	27.853	173.291	71.649	21.153	-38.635	94.286	123.650	-38.099	-31.045	207.323	48.884	-31.289	-24.633	-23.831	-16.828	129.166	-17.545	-8191	255	
20063.498	1	1	0	0	0.058664	0.1947	0.23326	0.082857	0.14848	0.1635	0.38227	0.19988	0.10936	0.13915	0.26031	0.32504	0.21869	0.32072	0.077268	0.10329	-2.6833	-3.1312	-2.6479	-3.3312	-2.8625	-2.7104	-3.4146	-2.8271	-2.8979	-3.3937	-2.5833	-3.2292	-3.1917	-2.6292	-3.3354	-2.9542	260.517	114.041	20.713	-26.085	59.751	253.706	268.772	245.431	286.353	186.151	237.306	295.699	271.411	307.112	7.799	-29.208	0.0001065	0.00033533	0.00012472	1153.7	2.5173e-06	4.7133e-06	1235.6	245.35	4.0735e-06	5.9432e-06	306.19	84.93	68.668	19.903	4.7365e-06	27.294	0.00042659	0.00047044	0.00013294	1130.9	5.1523e-06	5.2088e-06	1214.4	244.47	5.1379e-06	5.2043e-06	303.93	86.399	69.019	20.324	5.3134e-06	27.812	211.708	83.178	20.586	-38.499	203.797	118.634	-38.252	-30.978	223.995	149.583	-31.379	-24.239	-24.202	-17.453	124.626	-17.734	-8191	255	
20063.594	1	1	0	0	0.05033	0.070234	0.11715	0.013359	0.056734	0.31825	0.10824	0.43478	0.20646	0.08903	0.11377	0.24436	0.062471	0.12753	0.2427	0.27773	-2.4562	-3.2729	-2.55	-3.3979	-3.0229	-2.4771	-3.4333	-2.825	-2.9625	-3.3604	-2.6833	-3.0208	-3.25	-2.5833	-3.6354	-2.9542	285.238	13.097	63.821	105.148	168.821	191.326	238.341	300.933	43.972	152.475	236.906	23.784	160.083	237.633	206.088	213.151	4.8582e-05	0.00035749	0.00014178	1154.6	3.9614e-06	6.0336e-06	1232	246.3	3.3205e-06	1.6802e-06	305.23	85.149	67.485	19.791	4.795e-06	27.251	0.000441	0.00048189	0.00013766	1133.3	5.4255e-06	5.319e-06	1212	245.29	5.1288e-06	5.2689e-06	304.31	86.4	68.689	20.246	5.0323e-06	27.801	203.283	106.646	114.801	-38.510	99.383	88.074	-38.296	-31.136	169.903	34.051	-31.628	-24.419	-24.628	-17.304	108.296	-18.160	-8191	255	
20063.689	1	1	0	0	0.21841	0.32973	0.19241	0.26829	0.13477	0.0524	0.027073	0.048143	0.31073	0.27037	0.15099	0.29455	0.10061	0.26529	0.029134	0.22118	-2.3625	-3.3104	-2.4854	-3.1646	-3.1188	-2.55	-3.3958	-3.0208	-2.5938	-3.4875	-2.6896	-2.9417	-3.4375	-2.5792	-3.2729	-3.0708	142.128	-6.629	91.530	236.766	-41.215	144.700	224.248	10.125	118.018	244.737	-30.346	220.233	253.815	230.345	304.459	187.519	8.6385e-05	0.00071846	8.617e-05	1148.4	2.6629e-07	3.9126e-06	1232.8	246.15	6.794e-07	4.6613e-06	305.7	84.646	68.461	19.876	3.1944e-06	27.327	0.00042406	0.00046819	0.00012864	1129.2	4.987e-06	5.0592e-06	1214.8	245.03	5.2711e-06	5.3063e-06	303.98	86.249	69.148	20.34	5.7074e-06	27.917	201.462	39.416	-30.777	-38.556	294.192	89.064	-38.110	-30.924	83.560	111.508	-31.408	-24.026	-24.130	-17.251	100.364	-17.921	-8191	255	
20063.762	1	1	0	0	0.1243	0.12405	0.26991	0.16646	0.23752	0.13189	0.37894	0.082939	0.204	0.10804	0.22247	0.35987	0.31184	0.14391	0.13332	0.04923	-2.2562	-3.2354	-2.6729	-3.1375	-3.2417	-2.5271	-3.4313	-2.9646	-2.5729	-3.4	-2.875	-2.8875	-3.3312	-2.5875	-3.1417	-3.1	143.283	29.134	52.393	255.756	33.816	67.556	238.963	302.330	48.358	10.574	309.627	32.152	238.326	133.981	28.016	284.119	5.9704e-05	0.00036885	0.00010341	1150.7	5.6454e-06	3.5486e-06	1234.6	246.2	1.9874e-06	4.4675e-06	306.01	85.279	67.986	19.941	5.1754e-06	27.277	0.00047416	0.00051503	0.00014387	1130.8	5.6767e-06	5.6954e-06	1216	245.01	5.6001e-06	5.5937e-06	304.99	86.666	68.884	20.338	5.9809e-06	27.892	151.738	32.826	70.595	-38.439	139.545	119.652	-38.078	-30.932	112.512	118.481	-31.593	-24.129	-23.904	-17.335	40.706	-17.673	-8191	255	
20063.883	1	1	0	0	0.13635	0.17588	0.20534	0.10143	0.12828	0.29697	0.12946	0.21919	0.26804	0.16336	0.45255	0.17353	0.10791	0.098985	0.045007	0.086978	-2.1646	-3.4062	-2.6333	-2.7771	-3.2938	-2.6042	-3.1479	-3.3	-2.6479	-3.2687	-2.9854	-2.6917	-3.3937	-2.6708	-2.8312	-3.3396	187.701	216.251	69.030	301.035	299.537	246.169	-1.305	-45.900	207.920	245.325	274.404	201.788	209.476	156.612	309.170	289.465	5.6407e-05	0.00015674	8.775e-05	1155.1	1.2471e-06	2.5683e-06	1231.5	247.27	8.3364e-07	7.4966e-06	306.56	85.37	68.63	20.036	8.1507e-06	27.519	0.00049324	0.00055056	0.00015242	1131.5	5.9648e-06	6.0506e-06	1213.8	245.47	5.995e-06	5.8651e-06	304.78	86.616	69.376	20.399	5.7891e-06	27.899	192.929	2.911	22.760	-38.345	153.054	124.878	-38.226	-30.979	288.496	79.701	-31.175	-24.400	-23.848	-17.273	120.045	-17.825	-8191	255	
20063.979	1	1	0	0	0.036399	0.21242	0.19953	0.15505	0.20657	0.073159	0.13539	0.12447	0.30523	0.20362	0.24057	0.17848	0.094518	0.34354	0.079445	0.19232	-1.95	-3.2375	-2.8812	-2.8479	-3.2458	-2.6688	-3.2375	-3.4292	-2.4125	-3.1375	-3.3042	-2.7958	-3.5083	-2.7562	-2.8708	-3.3667	22.352	277.367	110.796	218.376	229.768	178.804	261.351	252.719	168.800	246.572	40.594	-0.916	215.013	157.530	-10.345	241.485	9.725e-05	0.00011288	0.0001786	1147.9	3.9521e-06	9.2509e-06	1233.9	244.46	3.989e-06	5.4239e-06	306.94	84.772	67.746	19.886	5.1356e-06	27.311	0.00047908	0.00053811	0.00015052	1130.5	5.761e-06	5.9783e-06	1215.7	244.63	6.0628e-06	5.9383e-06	304.88	86.422	68.989	20.389	5.7951e-06	27.897	196.860	228.846	66.351	-38.330	41.236	108.487	-38.228	-30.845	130.768	129.366	-31.540	-23.976	-24.226	-17.600	81.910	-17.629	-8191	255	
20064.074	1	1	0	0	0.19411	0.081499	0.14307	0.21355	0.11096	0.084228	0.19955	0.097104	0.11035	0.0768	0.22241	0.2338	0.11568	0.07268	0.052295	0.19602	-2.1542	-2.9625	-2.9417	-2.8021	-3.3937	-2.9188	-2.9458	-3.4979	-2.4042	-3.0667	-3.1083	-2.5687	-3.3625	-2.9771	-2.7417	-3.4646	80.036	202.103	51.723	248.960	84.448	73.448	238.264	266.199	164.777	58.577	254.698	254.176	-17.119	200.050	58.497	301.930	8.2017e-05	0.00033682	0.00012934	1150.1	4.0336e-06	2.9011e-06	1238.2	245.46	1.4842e-06	6.0716e-06	307.15	85.206	67.707	19.78	3.8129e-06	27.284	0.00048327	0.0005229	0.000144	1131.4	5.5437e-06	5.6111e-06	1217	245.06	5.586e-06	5.4341e-06	305.03	86.672	68.846	20.238	5.394e-06	27.819	193.783	91.248	88.736	-38.352	121.986	151.039	-37.791	-30.951	218.397	61.237	-31.245	-24.025	-23.702	-17.017	289.939	-17.878	-8191	255	
20064.172	1	1	0	0	0.27945	0.20264	0.18108	0.17455	0.28592	0.19693	0.21147	0.035553	0.030309	0.095813	0.046793	0.18129	0.3674	0.072368	0.10025	0.18901	-2.225	-3.1854	-3.0583	-2.6958	-3.1292	-3.05	-2.8896	-3.4021	-2.7625	-3.0812	-3.325	-2.8438	-3.2708	-2.9313	-2.8146	-3.2667	255.091	271.004	-2.079	265.601	135.147	98.546	223.289	57.104	191.969	30.454	35.205	243.138	277.563	48.018	290.455	249.708	5.9459e-05	4.8863e-05	7.3098e-05	1151.7	9.945e-07	2.4211e-06	1235.6	246.88	1.8329e-06	4.7388e-06	306.6	84.626	68.342	19.942	3.8717e-06	27.31	0.0004594	0.00050168	0.00014272	1129.4	5.5686e-06	5.6173e-06	1216.1	245.35	5.8112e-06	5.8775e-06	304.85	86.322	69.189	20.384	5.8456e-06	27.885	191.065	112.594	80.755	-38.501	145.471	119.680	-37.909	-31.006	270.417	74.299	-31.293	-24.194	-24.042	-17.502	41.393	-17.161	-8191	255	
20064.289	1	1	0	0	0.12111	0.25179	0.14799	0.15439	0.12793	0.30858	0.20243	0.051653	0.15901	0.090618	0.18166	0.12888	0.081921	0.10039	0.1338	0.20296	-2.2896	-2.8708	-3.0875	-2.8729	-3.0333	-3.0417	-2.7125	-3.3771	-2.7917	-2.8812	-3.4521	-2.6917	-3.3271	-3.1896	-2.4625	-3.4417	221.200	-8.267	233.130	234.617	72.543	103.127	238.998	271.617	144.227	49.052	150.284	24.069	-19.162	162.847	107.988	203.836	7.2224e-05	0.00069506	7.1361e-05	1149.1	2.5875e-06	6.1921e-06	1232.2	247.42	4.6615e-06	2.8408e-06	306.44	85.509	67.531	19.869	2.1775e-06	27.293	0.00048515	0.00053633	0.00014815	1130.6	5.878e-06	5.8904e-06	1216	245.72	5.902e-06	6.0191e-06	305.07	86.555	69.029	20.359	5.9449e-06	27.946	150.673	34.587	94.869	-38.549	128.327	152.049	-37.939	-30.930	185.405	148.275	-31.382	-23.695	-23.970	-16.987	83.779	-17.435	-8191	255	
20064.387	1	1	0	0	0.23581	0.22803	0.20771	0.18031	0.068841	0.16251	0.045316	0.31953	0.089555	0.15072	0.082696	0.10079	0.31415	0.069717	0.069737	0.14289	-2.4167	-2.8083	-3.3729	-2.7938	-3.1063	-3.1312	-2.6521	-3.4125	-2.7354	-2.7854	-3.4562	-2.6604	-3.0792	-3.1917	-2.4688	-3.3833	231.931	94.106	53.518	120.834	105.546	-45.311	232.771	271.629	263.402	-26.809	38.440	303.875	125.874	-38.403	185.906	0.972	7.0008e-05	0.00052466	7.0391e-05	1155.1	3.6642e-06	3.2444e-06	1235.2	247.92	2.0166e-06	5.0046e-06	304.99	84.847	68.231	19.745	2.0323e-06	27.198	0.00049335	0.00056063	0.00015361	1132.6	6.0312e-06	6.063e-06	1213	245.76	6.0617e-06	6.2692e-06	304.86	86.532	69.183	20.322	6.2187e-06	27.941	231.042	104.059	29.184	-38.257	160.356	97.827	-38.023	-31.096	46.585	148.046	-31.131	-24.132	-23.617	-16.974	77.266	-17.399	-8191	255	
20064.461	1	1	0	0	0.1704	0.23215	0.25284	0.12613	0.049885	0.21809	0.1391	0.17428	0.12855	0.072083	0.097452	0.038846	0.22104	0.24154	0.25855	0.21483	-2.475	-2.6479	-3.3854	-2.8479	-2.9792	-3.2438	-2.7938	-3.3646	-3.0792	-2.6562	-3.425	-2.7208	-3.0208	-3.4375	-2.3063	-3.2667	7.080	94.927	190.414	310.087	80.618	288.119	246.727	219.165	100.493	146.511	23.027	217.759	245.783	246.797	41.318	232.370	0.00010658	0.00027443	0.00014644	1149.3	1.734e-06	5.1125e-06	1234.6	246.54	1.643e-06	9.7345e-07	306.2	85.699	68.001	19.77	3.0268e-06	27.434	0.00049883	0.0005517	0.0001542	1130.7	5.8911e-06	6.0215e-06	1216.2	245.21	5.8527e-06	5.9781e-06	304.7	86.741	69.041	20.341	5.7776e-06	28.028	174.244	71.627	68.628	-38.360	89.923	38.056	-37.996	-30.803	190.333	70.320	-31.133	-24.018	-23.754	-17.406	189.234	-17.381	-8191	255	
20064.578	1	1	0	0	0.2654	0.13947	0.26177	0.19966	0.070706	0.14389	0.19783	0.13262	0.14015	0.11007	0.18594	0.24436	0.15194	0.14909	0.18572	0.15038	-2.6667	-2.5333	-3.2708	-2.925	-2.7292	-3.2938	-2.7	-3.1292	-3.125	-2.475	-3.3708	-3.0021	-3.0792	-3.4521	-2.6312	-3.1771	168.378	226.369	80.412	268.163	64.848	226.595	229.423	231.431	217.896	166.115	209.289	-45.091	218.476	273.352	23.845	292.604	4.3058e-05	0.00033649	0.00022574	1151.7	2.2078e-06	5.2051e-06	1235.9	247.42	5.6446e-07	3.6458e-06	307.13	85.235	68.363	19.874	1.1524e-06	27.367	0.0004775	0.00053423	0.00014855	1130.8	5.8056e-06	5.8721e-06	1218.6	245.91	5.8684e-06	6.0176e-06	305.6	86.655	69.312	20.353	6.1533e-06	27.947	184.739	44.515	83.561	-38.545	186.839	105.047	-38.216	-30.936	181.049	162.904	-31.077	-24.357	-23.870	-17.124	172.962	-17.578	-8191	255	
20064.676	1	1	0	0	0.36268	0.16994	0.089224	0.11565	0.089684	0.13892	0.19374	0.1221	0.0941	0.11009	0.17478	0.31725	0.0023421	0.21497	0.22533	0.17548	-2.8292	-2.4083	-3.1688	-3.05	-2.7417	-3.4729	-2.8292	-3.1125	-3.3021	-2.7979	-3.4625	-2.9938	-2.6958	-3.3167	-2.6979	-2.8563	-17.287	251.812	249.597	244.782	126.893	232.416	219.236	198.998	-7.218	21.874	3.745	54.539	155.295	241.734	159.001	22.660	0.0001032	0.00039248	1.9008e-05	1154.4	4.1386e-06	3.7696e-06	1234	246.99	6.1995e-07	1.0329e-06	306.73	85.048	68.197	19.892	4.6839e-06	27.428	0.00049394	0.00055602	0.00015251	1134.3	6.1183e-06	6.1929e-06	1214	246.26	5.9997e-06	6.0958e-06	304.64	86.502	69.209	20.392	6.1456e-06	28.017	196.584	21.669	263.669	-38.735	171.947	93.241	-38.319	-30.821	98.595	175.696	-31.209	-24.433	-23.775	-17.129	122.078	-17.387	-8191	255	
20064.771	1	1	0	0	0.19951	0.28521	0.075815	0.035044	0.30123	0.15134	0.069573	0.28933	0.060957	0.11388	0.13454	0.15037	0.23663	0.24007	0.25966	0.036853	-2.725	-2.6771	-3.3292	-3.1813	-2.7438	-3.3104	-2.9833	-2.9604	-3.2167	-2.4729	-3.4292	-3.3229	-2.5396	-3.4646	-2.7542	-2.9375	-29.889	171.820	115.888	286.709	40.264	44.977	267.515	303.557	208.234	270.423	82.241	69.372	22.966	234.050	203.025	143.411	0.0001165	0.00029723	5.9948e-05	1153.5	4.2952e-06	1.786e-06	1231.6	245.78	7.883e-07	2.9435e-06	305.37	84.768	68.909	19.891	1.4971e-06	27.349	0.00051434	0.0005639	0.00015635	1132.1	6.2756e-06	6.1541e-06	1213.5	245.7	6.1186e-06	6.2237e-06	305.34	86.344	69.443	20.384	6.199e-06	27.991	187.511	-19.270	35.814	-38.614	131.455	137.288	-38.031	-30.546	23.191	154.176	-30.898	-23.752	-23.832	-17.281	159.571	-17.350	-8191	255	
20064.867	1	1	0	0	0.19471	0.10354	0.13101	0.1502	0.21054	0.13939	0.30755	0.18969	0.087993	0.061499	0.14042	0.16803	0.15672	0.33173	0.22021	0.16465	-3.0583	-2.2979	-3.175	-3.3375	-2.6125	-3.4688	-3.0271	-2.9896	-3.2833	-2.8729	-3.1792	-3.2875	-2.5646	-3.3708	-2.8708	-2.75	-38.237	61.202	257.077	202.302	191.432	193.812	253.018	-36.318	286.495	-15.126	263.264	305.796	299.663	40.929	129.281	-40.434	9.8064e-05	0.00011067	0.0001572	1155.6	2.7021e-06	2.8297e-06	1238.9	246.02	6.3819e-06	3.4512e-06	306.11	85.155	67.821	19.946	3.5888e-06	27.406	0.00050554	0.00058171	0.00015674	1136.5	6.2889e-06	6.2141e-06	1217.4	245.42	6.2581e-06	6.3062e-06	305.75	86.616	69.062	20.447	6.2379e-06	27.967	186.733	82.503	75.914	-38.271	170.729	93.853	-37.893	-30.637	215.493	22.717	-30.970	-23.901	-23.378	-17.126	172.500	-17.419	-8191	255	
20064.988	1	1	0	0	0.18705	0.14124	0.073414	0.072188	0.17786	0.21028	0.25293	0.14973	0.27929	0.12757	0.44464	0.1283	0.16448	0.15828	0.1044	0.082772	-2.7917	-2.7354	-3.0979	-3.3833	-2.5958	-3.3063	-3.1396	-2.7708	-3.4562	-2.5771	-2.9833	-3.3958	-2.7	-3.2667	-2.9062	-2.6375	35.016	147.579	87.939	245.267	298.926	192.926	229.978	230.489	107.758	185.644	253.640	21.739	208.534	44.703	113.855	223.906	6.1044e-05	3.0467e-05	8.2044e-05	1148.2	6.211e-06	7.0221e-06	1235.4	247.04	1.0807e-06	6.1782e-06	306.54	85.469	67.644	20.006	2.4662e-06	27.344	0.00052472	0.00058427	0.000167	1133.5	6.5827e-06	6.6007e-06	1218	246.57	6.614e-06	6.7065e-06	306.14	86.879	69.388	20.492	6.5934e-06	28.026	217.132	73.442	-39.013	-38.145	131.480	132.818	-37.788	-30.474	207.702	93.783	-30.769	-24.011	-23.516	-16.786	111.963	-17.045	-8191	255	
20065.059	1	1	0	0	0.076274	0.062786	0.26126	0.46779	0.13203	0.072282	0.33322	0.02292	0.27385	0.15212	0.15075	0.09405	0.04885	0.19825	0.12916	0.26971	-2.9062	-2.6375	-2.8542	-3.3688	-2.5917	-3.3042	-3.2313	-2.6229	-3.3208	-2.8396	-2.9771	-3.4437	-2.65	-3.0917	-3.1063	-2.6167	158.604	25.753	170.103	258.128	213.187	187.734	234.599	155.816	100.772	117.538	-11.536	-1.121	-38.117	307.051	215.262	-32.681	7.6955e-05	0.00032454	8.9229e-05	1155.9	1.8058e-06	5.3877e-06	1235.5	247.74	1.3324e-06	3.5216e-07	305.56	84.922	68.588	19.876	2.0512e-06	27.547	0.00053563	0.00060696	0.00016618	1134.4	6.2456e-06	6.3779e-06	1214.9	246.09	6.1185e-06	6.2105e-06	305.67	86.622	69.245	20.409	6.1809e-06	27.983	166.062	35.216	-18.540	-38.622	81.316	134.770	-37.749	-30.629	194.983	146.505	-31.058	-23.636	-23.375	-16.570	46.455	-17.602	-8191	255	
20065.180	1	1	0	0	0.29149	0.25721	0.39826	0.13566	0.23006	0.17874	0.32651	0.12323	0.20302	0.13293	0.34831	0.090459	0.26849	0.14255	0.098218	0.25504	-2.9542	-2.8021	-2.6375	-3.5312	-2.7854	-2.9521	-3.3708	-2.6667	-3.3542	-2.9583	-2.6917	-3.425	-2.8646	-2.9062	-3.3417	-2.6479	285.217	147.987	-27.754	271.963	12.470	59.293	-47.287	-20.654	141.436	38.837	252.756	21.800	250.637	277.313	219.063	271.445	7.9042e-05	0.00021953	5.5079e-05	1150.3	2.1885e-06	4.6913e-06	1239.5	247.82	2.3939e-06	3.3025e-06	306.32	84.585	67.893	19.899	3.7114e-06	27.383	0.00051801	0.00057882	0.00016201	1134	6.5186e-06	6.4632e-06	1217.3	246.35	6.2624e-06	6.4588e-06	305.69	86.457	69.117	20.421	6.3273e-06	27.975	214.545	272.338	105.164	-38.049	215.167	122.356	-37.861	-30.985	86.651	105.625	-30.989	-23.674	-24.003	-17.038	144.001	-17.566	-8191	255	
20065.275	1	1	0	0	0.037384	0.10648	0.11254	0.32905	0.27914	0.19484	0.11712	0.27406	0.13966	0.14659	0.17431	0.076622	0.092209	0.16988	0.17622	0.055079	-2.7375	-3.0062	-2.6667	-3.4354	-2.8771	-2.8646	-3.3917	-2.6792	-3.1875	-2.9813	-2.6833	-3.4	-2.8354	-2.9958	-3.3604	-2.6146	142.628	-19.275	206.764	-45.521	36.601	29.811	-38.674	275.517	191.319	-0.028	212.066	-12.171	86.788	110.659	238.501	190.266	2.4223e-05	0.00028793	0.00017124	1151.8	7.0082e-06	4.6203e-07	1231.1	247.57	2.8705e-06	2.7134e-06	307.09	85.611	68.419	19.949	8.5719e-07	27.081	0.00051389	0.0005684	0.00015777	1134.4	6.1907e-06	6.125e-06	1214.7	245.69	6.0837e-06	6.0725e-06	305.74	86.757	69.22	20.478	6.0675e-06	27.906	246.678	57.627	74.715	-38.116	106.692	248.566	-38.092	-30.604	138.299	136.436	-30.754	-23.752	-23.731	-16.725	149.290	-17.236	-8191	255	
20065.369	1	1	0	0	0.13912	0.14658	0.094443	0.078888	0.099784	0.13755	0.23671	0.16976	0.42282	0.11739	0.18861	0.16606	0.1022	0.31979	0.31316	0.15548	-2.7083	-3.1021	-2.7188	-3.4688	-2.8417	-2.8792	-3.6021	-2.7062	-3.0833	-3.2062	-2.7354	-3.2708	-2.95	-2.7396	-3.3688	-2.6521	267.139	230.306	85.084	289.169	198.772	132.661	293.983	250.539	208.275	105.279	267.510	54.019	218.660	264.131	245.900	217.547	6.4009e-05	0.00025588	0.00018149	1148.4	4.9926e-06	2.4098e-06	1236.8	246.95	3.9904e-06	7.7128e-07	307.23	85.395	68.301	19.766	5.0015e-06	27.439	0.00049773	0.00056118	0.00015523	1132.1	6.1147e-06	6.1682e-06	1216.2	245.72	5.9139e-06	5.9503e-06	305.35	86.64	69.269	20.357	5.7234e-06	28.05	216.367	56.970	49.722	-37.959	90.984	81.893	-37.822	-30.761	37.551	-27.008	-30.795	-23.856	-23.682	-17.016	85.331	-17.439	-8191	255	
20065.467	1	1	0	0	0.2416	0.17809	0.19163	0.16351	0.11035	0.17682	0.11026	0.27497	0.1655	0.042992	0.1828	0.14855	0.22724	0.15855	0.28654	0.24614	-2.5771	-3.2521	-2.3833	-3.4208	-2.9854	-2.7708	-3.5167	-2.7729	-2.9	-3.3479	-2.5812	-3.2667	-3.1583	-2.6708	-3.3833	-2.7146	182.924	56.234	245.571	-22.983	27.003	3.351	-47.388	218.415	251.237	-38.712	230.246	31.289	308.933	-43.278	171.817	181.571	0.00012128	4.1925e-05	8.6507e-05	1152	1.3276e-06	4.4158e-06	1237.3	247.44	5.2578e-07	2.3446e-06	307.97	85.18	68.085	19.975	4.8913e-07	27.329	0.00048054	0.00054562	0.00015065	1133.9	5.7784e-06	5.8475e-06	1217.1	245.85	5.6442e-06	5.7262e-06	304.98	86.655	69.117	20.431	5.6993e-06	27.919	206.486	-0.938	36.607	-37.854	158.279	118.213	-37.417	-30.295	244.187	-35.176	-30.752	-23.568	-23.546	-16.494	113.041	-16.996	-8191	255	
20065.588	1	1	0	0	0.16339	0.077898	0.082985	0.29543	0.1742	0.19725	0.2738	0.1068	0.22452	0.10046	0.20995	0.15154	0.17202	0.16621	0.013563	0.16625	-2.625	-3.3083	-2.5042	-3.1021	-3.0812	-2.7542	-3.4729	-2.8688	-2.7188	-3.4646	-2.5833	-3.3125	-2.9792	-2.6333	-3.3063	-3.0021	197.743	84.200	39.999	-38.764	190.315	59.722	5.679	-29.035	269.554	70.365	-30.695	275.952	-15.289	291.495	80.165	-30.579	9.9671e-05	0.00031874	0.0001588	1155	4.4956e-06	6.1006e-06	1236.8	245.75	4.8241e-06	6.199e-06	307.4	85.095	67.832	19.994	6.131e-06	27.098	0.00047532	0.00050308	0.00014224	1133	5.6213e-06	5.7024e-06	1218	245.18	5.7885e-06	5.7424e-06	305.63	86.445	69.207	20.385	5.6712e-06	27.867	191.019	21.623	28.925	-37.952	164.582	170.925	-37.691	-30.492	127.038	125.460	-30.974	-23.756	-23.452	-16.761	147.125	-16.710	-8191	255	
20065.684	1	1	0	0	0.24819	0.12559	0.17936	0.28245	0.036988	0.25366	0.31631	0.20345	0.19802	0.16682	0.18111	0.095875	0.11177	0.12825	0.13	0.071401	-2.375	-3.2271	-2.5646	-3.2438	-3.1146	-2.5021	-3.3187	-3.1604	-2.6562	-3.2896	-2.6667	-2.9604	-3.2854	-2.6125	-3.2438	-3.1271	258.195	-7.898	134.935	282.959	182.311	276.296	253.285	299.669	241.608	234.243	267.400	270.997	64.242	-20.585	208.771	28.750	7.7559e-05	0.00031432	0.00011935	1164.1	3.0914e-06	4.9505e-06	1236.3	246.92	1.0859e-06	2.5259e-06	306.26	85.946	68.339	19.859	4.324e-06	27.512	0.00048709	0.0005392	0.00014888	1136.2	5.7352e-06	5.7806e-06	1216.3	245.38	5.7747e-06	5.6644e-06	304.76	86.721	69.153	20.426	5.8143e-06	27.994	179.093	6.528	61.105	-37.941	257.179	167.538	-37.627	-30.545	88.166	119.514	-31.030	-23.716	-23.580	-16.796	242.185	-17.269	-8191	255	
20065.756	1	1	0	0	0.15321	0.086128	0.099454	0.2171	0.12141	0.21097	0.30554	0.32636	0.18061	0.14197	0.37348	0.3721	0.013002	0.077571	0.018741	0.27576	-2.4083	-3.3125	-2.6188	-3.2583	-3.2	-2.6625	-3.4792	-3.2438	-2.825	-3.3812	-2.8604	-2.9437	-3.4417	-2.6896	-3.1437	-3.1813	171.137	24.945	183.681	251.927	77.975	280.849	256.097	279.954	216.043	301.715	276.167	221.304	277.338	276.080	221.275	-6.182	4.6099e-05	0.00047514	8.3184e-05	1150.9	4.2536e-06	3.0885e-06	1240.4	246.42	5.7298e-06	6.66e-06	306.24	85.318	67.974	19.863	2.4127e-06	27.639	0.0004823	0.00053089	0.00015161	1132.9	5.7033e-06	5.7839e-06	1220.8	245.43	5.9799e-06	6.0926e-06	305.48	86.762	69.097	20.398	6.0624e-06	28.087	169.236	26.838	279.710	-37.897	122.424	-2.903	-37.562	-30.642	152.413	116.002	-30.686	-23.782	-23.798	-16.879	219.084	-17.048	-8191	255	
20065.852	1	1	0	0	0.12514	0.10104	0.29746	0.27999	0.17477	0.19408	0.13382	0.26669	0.41012	0.18065	0.16041	0.22717	0.15792	0.10234	0.11332	0.051004	-2.3688	-3.4125	-2.7104	-2.7958	-3.4917	-2.6604	-3.1229	-3.3083	-2.5625	-3.2896	-2.9479	-2.7979	-3.4854	-2.6375	-3.0312	-3.2854	178.001	-36.453	64.699	258.497	45.146	213.432	163.428	-20.057	278.599	16.868	229.298	233.757	302.542	173.140	52.641	267.001	0.00011308	0.00024589	0.00017129	1153.3	2.486e-06	7.7297e-06	1237.7	247.15	2.2953e-06	4.5446e-06	307.04	85.67	67.854	20.035	3.0523e-06	27.189	0.00050038	0.00055837	0.0001595	1133.2	6.2819e-06	6.2189e-06	1219.3	246.57	6.1596e-06	6.2622e-06	305.47	86.996	69.151	20.468	6.1115e-06	28.008	177.742	92.529	19.360	-37.777	185.213	117.431	-37.538	-30.565	130.733	113.490	-31.014	-24.247	-23.826	-16.939	-40.336	-17.298	-8191	255	
20065.973	1	1	0	0	0.03745	0.10676	0.11829	0.34582	0.1025	0.070075	0.17626	0.19865	0.16791	0.12693	0.15037	0.067458	0.21723	0.073924	0.13563	0.20117	-2.2271	-3.2292	-2.9375	-2.7521	-3.4625	-2.8271	-3.1771	-3.3354	-2.4313	-3.3354	-3.2354	-2.6521	-3.3875	-3.0792	-2.9354	-3.4083	179.805	213.243	236.217	260.843	58.963	264.195	254.700	251.185	47.533	100.697	176.287	300.388	303.860	130.463	192.384	188.257	3.2764e-05	0.0003101	0.00012633	1154.6	3.9703e-06	6.4236e-06	1238.2	247.28	2.012e-06	5.4409e-06	305.41	85.682	67.827	20.045	2.9576e-06	27.468	0.00051661	0.00055844	0.00015765	1134.2	6.1779e-06	6.108e-06	1218.3	245.9	6.158e-06	6.0361e-06	305.48	86.742	69.184	20.451	5.8957e-06	27.98	176.676	52.033	55.576	-37.838	139.177	97.195	-37.521	-30.326	270.894	128.536	-30.764	-23.712	-23.588	-16.946	172.732	-17.121	-8191	255	
20066.068	1	1	0	0	0.21931	0.14001	0.059983	0.21107	0.19622	0.083488	0.24849	0.20995	0.24323	0.11307	0.32261	0.21613	0.21527	0.31463	0.17509	0.15452	-2.1813	-3.1729	-3.0375	-2.9333	-3.3688	-3.0667	-3.0042	-3.4604	-2.5958	-3.1229	-3.0583	-2.6896	-3.2938	-2.9437	-2.9125	-3.4604	-1.597	284.401	-3.476	-26.417	56.661	38.038	273.631	243.607	-30.224	270.115	277.461	163.742	-21.002	209.421	218.468	285.680	6.1382e-05	0.00015268	8.6028e-05	1155	5.0831e-06	5.0552e-06	1240.3	246.42	3.4909e-06	4.1799e-06	305.9	84.652	67.728	19.99	3.1744e-06	27.448	0.00049705	0.00053851	0.00014897	1133.5	5.7454e-06	5.8717e-06	1218.8	245.79	5.7868e-06	5.9297e-06	304.96	86.479	69.224	20.444	5.9856e-06	27.93	173.040	6.463	58.247	-38.051	134.874	142.042	-37.888	-30.373	214.417	38.785	-30.926	-23.720	-23.604	-17.162	134.249	-16.774	-8191	255	
20066.164	1	1	0	0	0.21879	0.11399	0.34257	0.22797	0.07999	0.10964	0.21129	0.074118	0.23396	0.25937	0.25726	0.114	0.057526	0.13554	0.082727	0.11819	-2.1813	-3.1	-3.1937	-2.775	-3.3563	-2.8146	-2.9833	-3.45	-2.7479	-2.9688	-3.4292	-2.7583	-3.2854	-3.0187	-2.6771	-3.4292	292.386	102.578	34.199	106.452	108.648	119.590	243.694	-6.418	115.578	139.159	-19.699	287.408	309.860	301.819	-14.933	175.905	7.0556e-05	0.00025831	5.996e-05	1157.1	3.6502e-06	2.8109e-06	1233.5	247.79	3.6878e-06	2.4485e-06	307.47	84.955	68.367	19.956	1.6369e-06	27.348	0.00048876	0.00055211	0.00015003	1134.9	5.9201e-06	5.8915e-06	1216.3	246.23	5.8661e-06	5.8276e-06	305.23	86.547	69.308	20.383	5.8527e-06	27.844	188.971	78.050	127.348	-38.013	74.373	67.752	-37.562	-30.622	103.932	89.279	-31.068	-23.657	-23.327	-16.663	135.914	-17.335	-8191	255	
20066.260	1	1	0	0	0.044606	0.18558	0.11873	0.41735	0.052425	0.26754	0.2497	0.35752	0.0657	0.26182	0.12116	0.13375	0.21981	0.26721	0.22339	0.22323	-2.5104	-2.7708	-3.2833	-2.5646	-3.2021	-2.9479	-2.8812	-3.4125	-2.8333	-2.8271	-3.3875	-2.55	-3.1146	-3.1396	-2.6375	-3.4854	275.374	87.409	-27.978	297.838	80.158	242.235	245.156	164.048	157.101	218.768	205.143	125.926	219.993	43.334	113.233	230.524	9.7078e-05	0.00054136	0.00010901	1154.8	4.8123e-06	7.1748e-06	1229.9	246.49	2.6563e-06	4.8038e-06	306.98	84.923	68.161	19.922	6.1092e-06	27.574	0.00047462	0.00052704	0.0001457	1134.2	5.7224e-06	5.6124e-06	1213.4	245.69	5.5753e-06	5.6602e-06	304.93	86.473	69.165	20.368	5.5963e-06	27.889	197.910	55.599	22.760	-38.009	114.325	107.329	-37.634	-30.423	-11.763	153.024	-31.116	-23.587	-23.065	-17.123	98.319	-17.461	-8191	255	
20066.355	1	1	0	0	0.20306	0.18509	0.054585	0.22328	0.1365	0.13706	0.45617	0.053426	0.15204	0.010125	0.1046	0.10367	0.19173	0.20414	0.17073	0.11399	-2.3833	-2.6562	-3.2667	-2.6542	-3.1375	-3.0354	-2.7333	-3.5021	-2.7771	-2.7438	-3.4854	-2.7396	-3.2396	-3.1042	-2.6521	-3.2792	120.829	140.955	281.229	251.540	98.990	267.247	260.823	-19.657	233.350	-3.581	294.917	188.818	211.634	193.512	32.890	66.079	8.4872e-05	0.00046358	0.00013431	1155.4	1.9326e-06	6.6595e-06	1240.2	247.74	2.7179e-06	3.4997e-06	305.86	84.493	68.506	19.861	2.0683e-06	27.537	0.000459	0.00052201	0.00014244	1133.1	5.7012e-06	5.893e-06	1219	246.54	5.6607e-06	5.9046e-06	304.19	86.135	69.281	20.395	5.9192e-06	27.972	214.619	53.513	28.971	-38.409	51.969	49.452	-38.088	-30.478	84.885	110.550	-30.867	-23.693	-23.523	-16.940	47.641	-17.180	-8191	255	
20066.451	1	1	0	0	0.024771	0.25691	0.17233	0.25683	0.030887	0.43817	0.35512	0.33555	0.32286	0.19925	0.028045	0.096438	0.31006	0.23877	0.16151	0.16007	-2.2854	-2.7687	-3.3833	-2.725	-3.0354	-3.2375	-3.0167	-3.3125	-2.925	-2.6875	-3.5208	-2.8021	-2.9083	-3.4854	-2.6188	-3.3458	107.701	68.722	211.674	281.778	66.975	220.911	218.737	242.229	281.444	41.065	288.078	-8.997	254.858	198.906	119.637	270.051	5.1824e-05	0.00035382	7.1321e-05	1151.3	5.6632e-06	3.7723e-06	1235.3	247.14	1.773e-06	1.7843e-06	306.06	85.529	68.079	19.773	5.5631e-06	27.443	0.0004884	0.00054782	0.0001509	1132.7	5.9626e-06	5.9867e-06	1215.9	246.21	6.0313e-06	5.9784e-06	305.55	86.599	69.37	20.379	6.0151e-06	27.936	192.732	107.132	37.141	-38.307	197.147	89.586	-37.985	-30.549	255.531	91.496	-30.945	-24.016	-23.884	-17.171	99.282	-16.950	-8191	255	
20066.549	1	1	0	0	0.13164	0.15294	0.109	0.13785	0.11585	0.030341	0.32317	0.2924	0.079466	0.21291	0.16802	0.042684	0.055902	0.11044	0.15942	0.20113	-2.7875	-2.6479	-3.3646	-2.9146	-2.9542	-3.4646	-2.8792	-3.3979	-3.0958	-2.7833	-3.3208	-2.9188	-2.7854	-3.4083	-2.6646	-3.25	145.236	150.310	-24.813	-42.613	191.519	252.400	264.761	241.485	243.402	79.783	-27.805	282.194	121.818	128.435	207.175	115.436	7.6662e-05	0.00021183	7.884e-05	1147.2	2.4455e-06	7.1859e-06	1242.4	246.35	2.3304e-06	2.4892e-06	306.27	85.333	67.766	19.826	2.8527e-06	27.252	0.00049761	0.00055562	0.00015028	1132.2	6.0718e-06	6.0499e-06	1217.8	246.02	6.0078e-06	6.1228e-06	304.95	86.609	69.222	20.338	5.9962e-06	27.888	217.357	125.158	-3.377	-38.326	60.585	67.611	-37.940	-30.740	42.809	29.164	-31.025	-23.999	-23.878	-16.921	295.303	-17.605	-8191	255	
20066.668	1	1	0	0	0.22311	0.11012	0.11184	0.34108	0.035283	0.26848	0.16311	0.4496	0.12116	0.22029	0.13332	0.062663	0.046596	0.085804	0.24705	0.078581	-2.6958	-2.4854	-3.15	-3.1083	-2.7833	-3.3479	-2.7188	-3.2229	-3.2438	-2.5375	-3.3479	-3.0854	-2.8792	-3.2729	-2.45	-2.9375	40.371	133.953	-10.996	-41.451	185.789	293.097	248.081	291.485	250.472	174.106	268.877	94.741	232.187	243.717	143.852	-25.408	9.6855e-05	0.00037916	0.00013231	1151.5	3.5864e-06	4.2299e-06	1235.1	246.94	5.2584e-06	5.2266e-06	305.16	84.578	68.277	19.685	1.6317e-06	27.434	0.00050291	0.00055593	0.00015408	1131.3	6.114e-06	5.9437e-06	1217.3	245.75	5.8348e-06	5.9431e-06	304.97	86.29	69.131	20.286	5.7274e-06	27.982	197.888	-18.016	61.335	-38.316	119.800	89.090	-38.182	-30.581	153.456	88.809	-31.501	-24.436	-23.568	-17.641	22.253	-17.507	-8191	255	
20066.764	1	1	0	0	0.10076	0.0306	0.22316	0.076452	0.22479	0.19748	0.056026	0.077651	0.18718	0.27106	0.19624	0.1263	0.066496	0.1253	0.30938	0.12167	-2.9125	-2.4792	-3.2042	-3.0917	-2.6188	-3.2562	-2.975	-2.8917	-3.2083	-2.5396	-3.3354	-3.1396	-2.7062	-3.4	-2.8958	-2.9854	172.731	120.382	158.949	290.983	-38.504	63.608	284.157	281.527	4.609	-3.193	4.330	262.097	303.624	-34.608	264.969	215.999	9.1057e-05	0.0006007	8.8575e-05	1154	3.6944e-06	4.8964e-06	1240	247.01	5.827e-06	2.2295e-06	306.94	85.015	67.506	19.898	1.0319e-06	27.213	0.00046569	0.00051891	0.00014435	1132.7	5.7842e-06	5.6433e-06	1216.6	246.26	5.6493e-06	5.6928e-06	305.17	86.414	68.923	20.344	5.6136e-06	27.886	159.345	42.260	50.912	-38.626	77.097	69.153	-38.196	-31.169	149.910	201.645	-31.610	-24.042	-23.997	-17.381	42.821	-17.660	-8191	255	
20066.859	1	1	0	0	0.21555	0.1909	0.26075	0.19903	0.1687	0.0045539	0.29723	0.15581	0.23821	0.15477	0.30546	0.22924	0.17548	0.066482	0.1138	0.18492	-3.0333	-2.5958	-3.0979	-3.2479	-2.6354	-3.4833	-3.0146	-2.85	-3.4396	-2.5479	-3.3229	-3.1979	-2.3979	-3.4021	-2.8	-2.6208	85.426	164.195	285.202	279.709	16.753	203.571	205.612	230.487	-36.817	126.348	310.220	158.989	-28.940	18.850	289.866	163.622	5.8023e-05	0.00018797	9.095e-05	1150.4	3.1703e-07	7.6852e-06	1232.3	246.96	2.7165e-06	2.6866e-06	306.49	85.596	67.951	20.055	5.3632e-06	27.263	0.000463	0.00050617	0.00014397	1131.9	5.5862e-06	5.5405e-06	1214.8	245.57	5.517e-06	5.4677e-06	305.45	86.382	68.914	20.419	5.5172e-06	27.804	171.245	49.849	24.862	-38.576	40.013	79.896	-38.383	-30.780	15.124	203.041	-31.520	-24.473	-24.258	-16.996	165.176	-17.474	-8191	255	
20066.955	1	1	0	0	0.1651	0.079768	0.15447	0.089022	0.12482	0.1164	0.18666	0.11681	0.12061	0.12374	0.33783	0.1955	0.20331	0.14256	0.1537	0.07719	-2.9958	-2.575	-3.0563	-3.175	-2.6417	-3.2896	-3.0771	-2.7667	-3.4333	-2.8646	-3.025	-3.4104	-2.6063	-3.4667	-3.0792	-2.7771	222.404	71.208	158.023	138.828	218.537	74.886	260.166	-42.864	62.946	-23.873	264.780	52.404	278.178	184.345	-29.859	306.209	6.0412e-05	0.00040779	0.0001813	1152.9	4.8811e-06	4.9059e-06	1235.6	245.68	2.0789e-06	2.708e-06	305.71	85.388	68.381	19.842	4.0182e-06	27.381	0.00045818	0.00049994	0.00014147	1131.8	5.6894e-06	5.6011e-06	1214.7	245.16	5.5152e-06	5.5703e-06	305.1	86.628	69.099	20.348	5.724e-06	27.92	155.360	-2.429	50.081	-38.672	115.977	123.816	-38.498	-30.849	-39.365	296.593	-31.711	-24.079	-23.846	-17.419	130.525	-17.779	-8191	255	
20067.053	1	1	0	0	0.22154	0.12453	0.11948	0.22316	0.0087484	0.28147	0.36237	0.087961	0.16413	0.10832	0.20158	0.16132	0.099022	0.089722	0.092493	0.071898	-3.0167	-2.6396	-2.7938	-3.3354	-2.5687	-3.1021	-3.0875	-2.6521	-3.5125	-2.7062	-2.8375	-3.3083	-2.7542	-3.1125	-3.05	-2.7542	-3.388	269.392	282.970	268.566	-7.502	116.501	250.866	-20.772	43.911	192.690	-28.716	226.847	305.262	174.952	300.233	168.606	0.00011948	0.00010343	0.00022306	1150.1	2.0415e-06	4.0917e-06	1235.1	247.51	2.7118e-06	5.5759e-06	305.15	85.595	67.688	19.805	1.4255e-06	27.255	0.00047083	0.00051358	0.0001479	1133.2	5.7733e-06	5.7632e-06	1216.9	245.76	5.6745e-06	5.8139e-06	304.49	86.501	68.994	20.287	5.6664e-06	27.859	209.828	35.376	86.623	-38.557	12.932	78.934	-38.534	-31.030	292.362	178.907	-31.677	-24.280	-24.525	-17.240	105.928	-17.704	-8191	255	
20067.148	1	1	0	0	0.075612	0.094384	0.052245	0.24568	0.17073	0.13826	0.36814	0.35423	0.2569	0.16866	0.17778	0.083871	0.25709	0.19117	0.11232	0.34983	-2.9188	-2.6188	-2.7667	-3.4833	-2.6521	-3.1104	-3.3521	-2.3937	-3.4167	-2.9313	-2.9729	-3.25	-2.6875	-3.1396	-3.1729	-2.4042	260.634	37.172	223.038	238.563	-5.070	79.892	230.993	291.638	137.790	198.909	292.731	300.740	-46.240	-44.353	288.174	182.747	6.7204e-05	0.00022922	0.00019118	1144.8	5.6548e-06	1.0032e-07	1232.6	246.67	1.5776e-06	2.1855e-06	306.05	85.124	67.613	19.9	3.386e-06	27.016	0.0004698	0.00051978	0.00014693	1130.4	5.7392e-06	5.7053e-06	1213.5	245.62	5.5295e-06	5.7226e-06	304.96	86.53	68.661	20.307	5.6392e-06	27.685	189.909	16.202	105.451	-38.774	147.296	205.794	-38.373	-31.170	222.220	154.288	-31.370	-24.256	-24.109	-17.288	183.849	-17.921	-8191	255	
20067.270	1	1	0	0	0.077815	0.035397	0.19248	0.15856	0.17746	0.27647	0.29148	0.0768	0.052115	0.1055	0.13999	0.055445	0.3021	0.13774	0.34304	0.20949	-3.0354	-3.0479	-2.625	-3.4604	-2.675	-2.9437	-3.5438	-2.7313	-3.2729	-3.0104	-2.7417	-3.4562	-2.8063	-2.7104	-3.2917	-2.4167	309.894	3.250	1.131	301.281	-17.004	13.379	269.727	170.366	286.312	310.466	129.124	-22.384	21.405	-21.936	64.519	216.906	6.1236e-05	0.00024493	1.3606e-05	1151.1	4.2041e-06	2.9528e-06	1230.8	246.74	1.0227e-06	4.3425e-06	305.73	85.083	68.364	19.874	2.7682e-06	27.125	0.00046185	0.00051564	0.00014489	1129.8	5.621e-06	5.6407e-06	1213.4	245.56	5.7093e-06	5.5489e-06	304.16	86.174	69.056	20.348	5.7121e-06	27.82	191.702	157.488	114.571	-38.826	194.971	56.337	-38.443	-31.492	197.022	72.499	-31.373	-24.429	-24.048	-17.126	65.920	-18.011	-8191	255	
20067.363	1	1	0	0	0.20306	0.10496	0.10851	0.19714	0.055751	0.19662	0.29109	0.12684	0.083421	0.045811	0.20635	0.11646	0.14965	0.088574	0.21378	0.15858	-3.0479	-2.9667	-2.7062	-3.4562	-2.9583	-2.8646	-3.4771	-2.6292	-3.1	-2.9938	-2.6375	-3.3667	-2.8375	-2.8583	-3.2333	-2.775	48.327	270.404	74.001	237.549	12.225	161.655	241.439	51.810	295.819	-45.753	225.667	304.658	265.400	253.997	272.971	257.633	7.4453e-05	0.00013322	0.00011233	1145.6	1.3774e-06	3.8511e-06	1231.4	245.82	1.616e-06	9.6245e-07	305.05	84.597	68.134	19.886	6.069e-06	27.309	0.00047176	0.00051751	0.00014557	1128.6	5.6696e-06	5.6508e-06	1211.9	245.19	5.6433e-06	5.5469e-06	304.54	86.321	68.987	20.279	5.4836e-06	27.81	199.497	207.410	66.705	-38.579	107.101	45.822	-38.347	-31.212	99.484	167.148	-31.519	-24.144	-24.103	-16.912	118.721	-17.555	-8191	255	
20067.461	1	1	0	0	0.23712	0.11305	0.076762	0.06663	0.058686	0.1923	0.31744	0.015891	0.088119	0.16097	0.17799	0.10428	0.32935	0.056416	0.29063	0.2425	-2.4854	-3.2812	-2.6354	-3.4313	-2.8958	-2.7396	-3.6188	-2.6771	-2.8312	-3.2167	-2.6146	-3.35	-2.9562	-2.6896	-3.2958	-2.8125	66.971	270.121	275.646	218.174	200.448	89.026	175.293	212.849	38.864	174.355	261.553	295.362	253.973	21.919	217.018	171.493	6.9215e-05	0.00014468	0.00014572	1153.4	8.6187e-07	3.8205e-06	1237.9	245.06	8.5895e-07	2.035e-06	305.34	85.586	68.04	19.868	2.2321e-06	27.496	0.00045256	0.00049591	0.00013626	1129.9	5.3624e-06	5.3516e-06	1214.6	244.67	5.2809e-06	5.272e-06	304.09	86.464	68.641	20.298	5.1425e-06	27.776	143.402	99.509	-2.501	-38.737	156.295	140.972	-38.263	-31.230	228.538	249.194	-31.699	-23.799	-24.237	-17.153	107.034	-17.706	-8191	255	
20067.557	1	1	0	0	0.067563	0.1196	0.14104	0.19723	0.11712	0.11822	0.29412	0.19251	0.12301	0.099774	0.22701	0.14146	0.13738	0.076149	0.22698	0.37438	-2.5729	-3.4188	-2.7771	-3.2313	-3.0208	-2.6354	-3.4792	-2.7604	-2.8229	-3.3104	-2.6292	-3.1625	-3.2167	-2.5021	-3.2833	-2.8979	6.764	34.156	195.507	-19.373	-5.775	303.743	307.442	270.905	-10.158	55.505	280.096	284.859	255.938	218.062	235.106	189.645	0.00010183	0.00049709	0.00019688	1151.6	2.5397e-06	4.2139e-06	1233	245.99	2.6355e-06	7.0606e-06	304.32	84.383	67.924	19.83	3.9154e-06	27.095	0.00044275	0.000476	0.00013303	1128.7	5.1827e-06	5.2065e-06	1213.8	245.05	5.1731e-06	5.1736e-06	303.33	85.999	68.676	20.258	5.1254e-06	27.628	211.222	5.143	59.752	-38.732	132.610	85.570	-38.278	-31.257	148.115	154.305	-31.291	-23.917	-23.992	-17.249	111.062	-17.881	-8191	255	
20067.629	1	1	0	0	0.14347	0.11188	0.13527	0.21944	0.067968	0.11619	0.056131	0.27682	0.22086	0.11873	0.23421	0.24688	0.05878	0.13921	0.14316	0.14713	-2.4146	-3.3312	-2.5167	-3.3021	-3.1771	-2.6188	-3.6125	-2.6854	-2.7812	-3.2271	-2.6375	-3.0375	-3.4771	-2.625	-3.4271	-2.8812	54.201	-41.136	-32.886	290.256	61.741	6.269	116.192	-43.055	204.157	169.343	254.943	284.070	186.722	225.775	-44.170	82.842	0.00010576	0.00029498	3.6272e-05	1150.9	3.495e-06	6.7634e-07	1235.9	245.5	2.5214e-06	3.3336e-06	305.12	84.942	67.841	19.852	3.428e-06	27.339	0.00041749	0.00045363	0.00012818	1126.6	4.9397e-06	4.9851e-06	1212.6	244.48	4.9424e-06	4.8704e-06	303.17	86.147	68.67	20.169	4.8579e-06	27.725	189.211	-6.552	173.508	-38.429	89.552	159.660	-38.202	-30.830	128.404	14.774	-31.251	-24.214	-23.929	-17.146	165.510	-17.816	-8191	255	
20067.748	1	1	0	0	0.12881	0.30195	0.25186	0.012557	0.19503	0.15028	0.34644	0.34257	0.063346	0.089049	0.075783	0.042063	0.10627	0.15574	0.12453	0.050198	-2.3042	-3.3	-2.7917	-3.0062	-3.2833	-2.5125	-3.3542	-3.0667	-2.7854	-3.1354	-2.9667	-3.0354	-3.3979	-2.6417	-3.1188	-3.0292	62.302	87.710	190.988	225.639	-31.932	295.919	247.057	-46.470	49.651	156.936	123.115	271.339	158.143	-48.304	277.237	212.307	8.8557e-05	0.00031304	6.431e-05	1146.1	3.3327e-07	3.6586e-06	1230.8	246.22	1.1316e-06	1.2943e-06	306.73	84.675	68.066	19.804	5.2769e-06	27.221	0.00040501	0.00043785	0.00012344	1124.7	4.7862e-06	4.8513e-06	1208.6	244.58	4.8435e-06	4.7919e-06	303.2	85.848	68.68	20.164	4.7846e-06	27.614	188.949	38.459	256.235	-38.493	148.377	16.352	-38.058	-30.916	247.870	127.300	-31.333	-24.130	-23.961	-17.365	116.213	-17.537	-8191	255	
20067.844	1	1	0	0	0.10555	0.022981	0.22206	0.15239	0.29227	0.097553	0.16211	0.23276	0.27705	0.25375	0.24005	0.13448	0.090428	0.19792	0.26797	0.18609	-2.2208	-3.1646	-2.7292	-2.9521	-3.3271	-2.6167	-3.3104	-3.2625	-2.5833	-3.0812	-3.0563	-2.8479	-3.4354	-2.6	-2.9167	-3.1792	302.128	-30.468	97.897	260.473	75.110	135.730	223.629	243.451	10.480	-14.494	-26.444	245.222	225.804	303.553	107.684	262.312	6.7949e-05	0.0001287	0.00013602	1144.7	8.7138e-07	2.9027e-06	1227.5	245.3	1.4032e-06	4.3837e-06	304.88	84.303	67.885	19.82	6.2154e-06	27.047	0.00040587	0.00044471	0.00012539	1124	4.8245e-06	5.0923e-06	1208.7	244.34	4.9768e-06	4.9993e-06	303.57	85.741	68.504	20.146	4.8664e-06	27.539	203.545	151.176	61.953	-38.375	108.729	157.015	-37.870	-31.326	108.871	167.387	-31.729	-24.372	-24.164	-17.222	114.065	-17.858	-8191	255	
20067.939	1	1	0	0	0.19287	0.0084052	0.079201	0.094422	0.08297	0.23524	0.34808	0.33739	0.24488	0.11465	0.12417	0.23246	0.11704	0.28245	0.058748	0.23981	-2.2229	-3.1417	-2.8875	-2.8646	-3.2417	-2.7354	-3.0812	-3.2396	-2.4833	-3.3771	-3.0083	-2.6167	-3.4646	-2.5396	-3.025	-3.2687	210.131	182.284	210.989	192.866	34.538	125.566	221.426	260.950	192.807	-10.422	112.768	197.174	-14.177	128.574	198.281	7.563	9.092e-05	0.00025677	0.00015231	1145.8	3.5093e-06	4.4029e-06	1231.3	245.62	4.8984e-06	1.5079e-06	305.29	85.657	67.394	19.724	3.8152e-06	27.088	0.00041929	0.00045621	0.00012855	1124.3	5.0011e-06	4.9492e-06	1208.8	244.5	5.0246e-06	5.0597e-06	303.32	86.351	68.371	20.161	4.971e-06	27.577	163.656	114.406	77.062	-38.438	149.337	137.833	-38.100	-30.879	67.616	88.359	-31.694	-24.236	-23.776	-17.253	84.953	-17.701	-8191	255	
20068.061	1	1	0	0	0.10463	0.20054	0.1785	0.39427	0.22538	0.12867	0.19788	0.13609	0.11021	0.080226	0.2371	0.10856	0.16042	0.075708	0.25566	0.2858	-2.1958	-3.0833	-2.95	-2.7375	-3.2396	-2.5938	-3	-3.2396	-2.5729	-3.0646	-3.2625	-2.4688	-3.4208	-2.8438	-2.8458	-3.2938	3.243	277.208	74.353	250.159	72.535	141.350	236.586	158.213	-23.266	-15.804	287.312	278.607	286.710	130.589	170.576	-37.281	8.1984e-05	0.00021853	0.00015102	1148.8	1.692e-06	2.7044e-06	1232.4	245.36	8.0273e-07	4.5858e-06	305.68	84.603	67.902	19.623	2.6268e-06	27.157	0.00041852	0.00044924	0.00012677	1125.1	4.9322e-06	4.9955e-06	1208.8	244.03	4.8962e-06	4.9304e-06	303.31	85.859	68.617	20.119	5.0565e-06	27.639	174.046	69.437	56.790	-38.848	166.636	182.953	-38.116	-31.029	49.362	143.215	-31.722	-23.938	-23.969	-17.185	159.260	-17.465	-8191	255	
20068.156	1	1	0	0	0.18271	0.14456	0.19756	0.071531	0.059539	0.032066	0.28675	0.15576	0.32734	0.11268	0.16688	0.15759	0.15507	0.026526	0.089109	0.40712	-2.1083	-3.0958	-3.1	-2.6667	-3.4542	-2.6896	-3.0208	-3.4062	-2.5187	-2.9792	-3.3042	-2.6667	-3.4229	-2.8396	-2.7062	-3.4604	14.292	-45.674	-18.850	252.904	180.085	161.511	251.000	123.781	264.555	269.453	113.788	190.115	91.024	72.689	287.556	259.954	5.9408e-05	0.00021499	6.6128e-05	1148.2	4.1989e-06	2.4369e-06	1229.7	246.61	1.1599e-06	3.5079e-06	305.52	84.814	67.654	19.782	1.1169e-06	27.368	0.00041712	0.00044764	0.00012656	1125.8	4.8943e-06	5.1016e-06	1207.7	244.73	4.8983e-06	5.0398e-06	302.9	85.701	68.608	20.171	5.0059e-06	27.72	177.563	-0.363	217.032	-38.129	134.891	126.516	-37.863	-31.095	156.481	120.847	-31.410	-24.243	-24.059	-17.914	238.044	-17.706	-8191	255	
20068.229	1	1	0	0	0.11644	0.16917	0.11203	0.25447	0.33762	0.11732	0.18008	0.42551	0.11187	0.12602	0.20633	0.017912	0.12501	0.051025	0.080621	0.14295	-2.0563	-2.85	-3.2958	-2.625	-3.2229	-3.0938	-2.8917	-3.3083	-2.6479	-2.8667	-3.4729	-2.5792	-3.1	-3.0375	-2.5938	-3.3292	98.055	7.934	251.299	163.479	40.809	119.208	-34.848	268.441	171.956	275.648	279.199	4.758	40.494	4.943	196.937	26.052	6.504e-05	0.00023234	9.8463e-05	1149.7	6.7206e-06	5.2217e-06	1230.3	245.21	3.0259e-06	4.6215e-06	306.25	84.233	67.756	19.771	1.4596e-06	27.292	0.0004165	0.00045268	0.00012606	1124.1	4.9306e-06	4.8936e-06	1207.6	244.26	4.869e-06	4.7836e-06	302.93	85.549	68.277	20.183	4.8316e-06	27.675	222.251	165.540	15.931	-38.547	108.375	111.016	-38.324	-31.087	124.729	163.689	-31.302	-24.291	-23.751	-17.513	101.591	-17.107	-8191	255	
#DATA ENDS
