BOXY.EXE: ISS Imagent and Oximeter Data Acquisition Program Version 0.80
Ascii Record File

#ACQ INFORMATION
2  Detector Channels 
16  External MUX Channels 
1  Auxiliary Channels 
5000  Waveform (CCF) Frequency (Hz)
1  Waveforms Skipped 
30  Waveforms Averaged 
1  Cycles Averaged 
16  Acquisitions per Waveform 
10.0806  Updata Rate (Hz) 

#FILE INFORMATION
TRUE -- External MUX Channel results are PARSED.
FALSE -- AC DC and Phase are NOT grouped.
TRUE -- Companion Program Settings File CREATED.
FALSE -- AC data not excluded
FALSE -- DC data not excluded
FALSE -- Phase data not excluded
FALSE -- Auxillary Chn. data not excluded
Tab delimiters

#CALIBRATION STATE
TRUE -- Waveform Calibration Values APPLIED.


#AUX CALIBRATION VALUES
Val Type	aux-1	

Term	1.0000e+00	
Factor	0.0000e+00	


#WF CALIBRATION VALUES
A = Detector Channel
Val Type	A-AC1	A-AC2	A-AC3	A-AC4	A-AC5	A-AC6	A-AC7	A-AC8	A-AC9	A-AC10	A-AC11	A-AC12	A-AC13	A-AC14	A-AC15	A-AC16	A-DC1	A-DC2	A-DC3	A-DC4	A-DC5	A-DC6	A-DC7	A-DC8	A-DC9	A-DC10	A-DC11	A-DC12	A-DC13	A-DC14	A-DC15	A-DC16	A-Ph1	A-Ph2	A-Ph3	A-Ph4	A-Ph5	A-Ph6	A-Ph7	A-Ph8	A-Ph9	A-Ph10	A-Ph11	A-Ph12	A-Ph13	A-Ph14	A-Ph15	A-Ph16	

Term	0.00000e+00	0.00000e+00	0.00000e+00	0.00000e+00	0.00000e+00	0.00000e+00	0.00000e+00	0.00000e+00	0.00000e+00	0.00000e+00	0.00000e+00	0.00000e+00	0.00000e+00	0.00000e+00	0.00000e+00	0.00000e+00	0.00000e+00	0.00000e+00	0.00000e+00	0.00000e+00	0.00000e+00	0.00000e+00	0.00000e+00	0.00000e+00	0.00000e+00	0.00000e+00	0.00000e+00	0.00000e+00	0.00000e+00	0.00000e+00	0.00000e+00	0.00000e+00	0.00000e+00	0.00000e+00	0.00000e+00	0.00000e+00	0.00000e+00	0.00000e+00	0.00000e+00	0.00000e+00	0.00000e+00	0.00000e+00	0.00000e+00	0.00000e+00	0.00000e+00	0.00000e+00	0.00000e+00	0.00000e+00	
Factor	1.00000e+00	1.00000e+00	1.00000e+00	1.00000e+00	1.00000e+00	1.00000e+00	1.00000e+00	1.00000e+00	1.00000e+00	1.00000e+00	1.00000e+00	1.00000e+00	1.00000e+00	1.00000e+00	1.00000e+00	1.00000e+00	1.00000e+00	1.00000e+00	1.00000e+00	1.00000e+00	1.00000e+00	1.00000e+00	1.00000e+00	1.00000e+00	1.00000e+00	1.00000e+00	1.00000e+00	1.00000e+00	1.00000e+00	1.00000e+00	1.00000e+00	1.00000e+00	X	X	X	X	X	X	X	X	X	X	X	X	X	X	X	X	

B = Detector Channel
Val Type	B-AC1	B-AC2	B-AC3	B-AC4	B-AC5	B-AC6	B-AC7	B-AC8	B-AC9	B-AC10	B-AC11	B-AC12	B-AC13	B-AC14	B-AC15	B-AC16	B-DC1	B-DC2	B-DC3	B-DC4	B-DC5	B-DC6	B-DC7	B-DC8	B-DC9	B-DC10	B-DC11	B-DC12	B-DC13	B-DC14	B-DC15	B-DC16	B-Ph1	B-Ph2	B-Ph3	B-Ph4	B-Ph5	B-Ph6	B-Ph7	B-Ph8	B-Ph9	B-Ph10	B-Ph11	B-Ph12	B-Ph13	B-Ph14	B-Ph15	B-Ph16	

Term	0.00000e+00	0.00000e+00	0.00000e+00	0.00000e+00	0.00000e+00	0.00000e+00	0.00000e+00	0.00000e+00	0.00000e+00	0.00000e+00	0.00000e+00	0.00000e+00	0.00000e+00	0.00000e+00	0.00000e+00	0.00000e+00	0.00000e+00	0.00000e+00	0.00000e+00	0.00000e+00	0.00000e+00	0.00000e+00	0.00000e+00	0.00000e+00	0.00000e+00	0.00000e+00	0.00000e+00	0.00000e+00	0.00000e+00	0.00000e+00	0.00000e+00	0.00000e+00	-2.80792e+01	-1.26731e+02	-1.22018e+02	-1.83776e+02	-5.40367e+01	-5.85387e+01	-1.56154e+02	-1.62015e+02	-3.33067e+01	-7.23125e+01	-1.69848e+02	-1.70119e+02	-1.79176e+02	-1.76608e+02	-5.86712e+01	-1.49440e+02	
Factor	2.52474e-05	1.47901e-04	3.78751e-05	1.73751e-01	1.70863e-06	1.59019e-06	1.53219e-01	4.81282e-02	1.39630e-06	1.50569e-06	8.24633e-02	2.87923e-02	2.45327e-02	8.81194e-03	1.71434e-06	1.25282e-02	7.24671e-06	9.23466e-06	2.57945e-06	9.15544e-02	9.73687e-08	1.02327e-07	7.57850e-02	2.54859e-02	9.67483e-08	1.02096e-07	4.23445e-02	1.47771e-02	1.31307e-02	4.71386e-03	9.89239e-08	6.47113e-03	X	X	X	X	X	X	X	X	X	X	X	X	X	X	X	X	



#DISTANCE SETTINGS
A = Detector Channel
A-1	A-2	A-3	A-4	A-5	A-6	A-7	A-8	A-9	A-10	A-11	A-12	A-13	A-14	A-15	A-16	

2.5000e+00	3.0000e+00	2.5000e+00	3.0000e+00	2.0000e+00	3.0000e+00	1.5000e+00	3.0000e+00	3.0000e+00	3.0000e+00	3.0000e+00	3.0000e+00	3.0000e+00	3.0000e+00	1.5000e+00	3.0000e+00	

B = Detector Channel
B-1	B-2	B-3	B-4	B-5	B-6	B-7	B-8	B-9	B-10	B-11	B-12	B-13	B-14	B-15	B-16	

1.0000e+01	1.0000e+01	1.0000e+01	1.4400e+00	1.0000e+01	1.0000e+01	1.5100e+00	1.9400e+00	1.0000e+01	1.0000e+01	1.9900e+00	2.4900e+00	2.4100e+00	2.9000e+00	1.0000e+01	2.9800e+00	




#DATA BEGINS
time	group	step	mark	flag	A-AC1	A-AC2	A-AC3	A-AC4	A-AC5	A-AC6	A-AC7	A-AC8	A-AC9	A-AC10	A-AC11	A-AC12	A-AC13	A-AC14	A-AC15	A-AC16	A-DC1	A-DC2	A-DC3	A-DC4	A-DC5	A-DC6	A-DC7	A-DC8	A-DC9	A-DC10	A-DC11	A-DC12	A-DC13	A-DC14	A-DC15	A-DC16	A-Ph1	A-Ph2	A-Ph3	A-Ph4	A-Ph5	A-Ph6	A-Ph7	A-Ph8	A-Ph9	A-Ph10	A-Ph11	A-Ph12	A-Ph13	A-Ph14	A-Ph15	A-Ph16	B-AC1	B-AC2	B-AC3	B-AC4	B-AC5	B-AC6	B-AC7	B-AC8	B-AC9	B-AC10	B-AC11	B-AC12	B-AC13	B-AC14	B-AC15	B-AC16	B-DC1	B-DC2	B-DC3	B-DC4	B-DC5	B-DC6	B-DC7	B-DC8	B-DC9	B-DC10	B-DC11	B-DC12	B-DC13	B-DC14	B-DC15	B-DC16	B-Ph1	B-Ph2	B-Ph3	B-Ph4	B-Ph5	B-Ph6	B-Ph7	B-Ph8	B-Ph9	B-Ph10	B-Ph11	B-Ph12	B-Ph13	B-Ph14	B-Ph15	B-Ph16	aux-1	digaux	

25442.369	1	1	0	768	0.21486	0.19715	0.16547	0.089007	0.13879	0.28973	0.21174	0.25452	0.24049	0.030983	0.24971	0.25517	0.27075	0.26901	0.19199	0.047196	-2.8354	-3.7854	-3.5646	-3.3958	-3.9479	-3.3083	-3.4521	-3.9688	-3.2938	-3.9292	-3.7958	-3.2479	-3.9313	-3.6333	-3.4292	-4.1292	26.941	130.117	115.532	140.981	218.770	195.701	184.845	263.644	45.091	257.816	179.281	-12.938	103.893	-10.927	240.579	21.460	0.00052718	0.00077724	0.00035032	1177.1	1.449e-05	2.1584e-05	1615.4	414.87	2.5375e-05	2.9517e-05	660.62	241.55	141.42	47.072	2.9604e-05	91.863	0.0057744	0.0073197	0.002045	973.28	7.6974e-05	8.0557e-05	1307.9	340.75	7.6033e-05	8.0945e-05	547.66	199.47	118.88	40.191	7.8222e-05	76.334	271.880	-3.590	-18.853	-47.627	158.115	87.744	-48.068	-43.230	85.049	45.096	-44.352	-40.476	-40.249	-35.755	100.213	-37.348	-8191	255	
25442.467	1	1	0	0	0.11363	0.25836	0.050258	0.097145	0.19296	0.23106	0.35333	0.12671	0.13966	0.25579	0.13122	0.42253	0.21109	0.051119	0.078618	0.058363	-3.1625	-3.5792	-3.7167	-3.4021	-3.8833	-3.4729	-3.6354	-4.0125	-3.3688	-3.6896	-3.9583	-3.4292	-3.8125	-3.6875	-3.4313	-4.0333	94.692	284.618	155.710	158.465	131.680	-35.812	239.510	137.564	173.746	136.298	-22.362	245.138	201.288	238.968	-52.408	230.174	0.00033526	0.0013714	0.0009302	1162.3	1.0048e-05	3.1791e-05	1612.7	416.28	1.387e-05	2.0955e-05	664.11	243.03	139.25	47.327	3.0308e-05	92.646	0.0057845	0.0072481	0.0020423	967.46	7.6319e-05	7.9703e-05	1302.2	340.27	7.4e-05	7.9307e-05	546.86	200.09	118.19	40.471	7.872e-05	76.799	148.702	154.515	116.883	-47.754	103.618	225.204	-48.318	-43.263	-18.616	79.976	-45.065	-40.515	-39.649	-36.020	138.683	-37.174	-8191	255	
25442.562	1	1	0	0	0.23108	0.056994	0.23097	0.11177	0.23499	0.030264	0.18709	0.080312	0.13528	0.18692	0.15775	0.17883	0.075846	0.08247	0.24444	0.15931	-2.9375	-3.7167	-3.9229	-3.2188	-3.8125	-3.4688	-3.5208	-4.0708	-3.3917	-3.5542	-4.1813	-3.3688	-3.8792	-3.6417	-3.1813	-4.0375	57.245	-56.964	54.926	234.594	-14.369	178.851	202.196	298.613	238.097	231.764	234.109	289.332	-20.797	220.664	-42.999	237.438	0.00038783	0.0019587	0.0005551	1164.8	1.1253e-05	9.386e-06	1619.8	415.87	5.1313e-06	1.6763e-05	673.6	243.85	140.2	47.605	2.0607e-05	93.34	0.00579	0.0073735	0.0020529	970.85	7.7951e-05	8.1087e-05	1309.8	341.44	7.7406e-05	8.212e-05	551.68	200.64	119.43	40.682	7.7802e-05	77.067	281.748	-53.102	25.978	-47.643	75.548	-2.979	-48.050	-43.068	208.146	262.992	-44.628	-40.217	-39.657	-35.723	31.410	-36.989	-8191	255	
25442.658	1	1	0	0	0.0066927	0.10772	0.12894	0.097521	0.13992	0.098843	0.33584	0.097238	0.28114	0.027066	0.1481	0.086214	0.39985	0.049309	0.26482	0.40829	-3.0646	-3.3625	-4.0062	-3.4313	-3.7188	-3.8187	-3.2938	-3.9375	-3.3646	-3.5125	-4.1271	-3.4875	-3.675	-3.6958	-3.1229	-3.9729	213.960	60.220	246.457	97.694	227.959	183.895	213.703	-59.331	219.052	121.294	-42.135	226.468	271.173	169.312	156.682	247.411	0.00037736	0.0038166	0.00031663	1176	1.8474e-05	1.8185e-05	1616.8	414.24	1.8803e-05	1.916e-05	676.6	244.81	140.96	47.985	1.7428e-05	93.214	0.0058058	0.0074041	0.0020303	973.12	7.7673e-05	8.181e-05	1308	341.09	7.6853e-05	8.1578e-05	553.86	200.57	119.56	40.836	7.9361e-05	77.477	227.862	-12.776	9.318	-47.999	37.945	156.005	-48.020	-43.699	-43.862	125.912	-44.486	-40.824	-39.740	-35.950	43.300	-36.621	-8191	255	
25442.754	1	1	0	0	0.08885	0.089264	0.16419	0.21035	0.11638	0.065204	0.37631	0.065829	0.17419	0.013364	0.12963	0.17706	0.15389	0.13393	0.13681	0.25392	-3.2521	-3.4458	-3.9625	-3.4333	-3.5167	-3.8854	-3.4188	-3.9208	-3.5833	-3.1458	-4.05	-3.5625	-3.6583	-3.8729	-3.1042	-3.8896	68.917	6.887	166.265	293.690	-43.472	108.592	236.525	253.291	293.764	226.557	241.159	278.686	242.958	246.388	-47.188	276.196	0.00034649	0.0032149	0.00049951	1168.5	1.0875e-05	2.0823e-05	1632.5	417.43	7.2471e-06	1.9558e-05	666.59	243.98	140.86	47.858	1.1581e-05	93.724	0.0057894	0.007259	0.0020058	972.37	7.6989e-05	8.0348e-05	1311.9	341.82	7.4972e-05	8.1237e-05	549.72	200.73	119.42	40.845	7.6718e-05	77.641	238.850	-30.048	267.724	-47.997	77.365	252.083	-48.086	-43.405	109.662	202.387	-44.744	-40.723	-39.973	-35.716	189.108	-36.614	-8191	255	
25442.850	1	1	0	0	0.10002	0.11546	0.13282	0.34206	0.11843	0.19819	0.028691	0.13029	0.081587	0.12147	0.044101	0.21499	0.26463	0.17555	0.10243	0.33121	-3.275	-3.2583	-3.8604	-3.4146	-3.4688	-3.9875	-3.4333	-3.8917	-3.8021	-3.1875	-4.1813	-3.4521	-3.5104	-4.15	-3.1562	-3.8417	-11.825	-15.788	125.519	273.294	256.745	229.860	277.071	-59.851	100.510	-59.270	294.302	219.487	-3.145	76.805	289.672	221.087	0.00034882	0.00086229	4.4666e-05	1170.9	2.2707e-05	2.7587e-05	1630.2	417.55	2.3532e-06	2.2702e-05	673.73	246.85	141.16	47.847	3.73e-05	93.913	0.0057765	0.0073163	0.0020097	968.27	7.6606e-05	8.04e-05	1314	341.31	7.5814e-05	7.8485e-05	554.07	202.5	119.88	40.687	7.6818e-05	77.987	209.401	142.331	-16.050	-47.891	32.701	48.907	-48.184	-43.297	111.941	174.252	-44.942	-40.567	-39.466	-35.594	30.557	-37.386	-8191	255	
25442.971	1	1	0	0	0.11722	0.099636	0.14969	0.23834	0.23272	0.16338	0.27641	0.13541	0.086572	0.26959	0.19045	0.26243	0.072683	0.15887	0.19842	0.33871	-3.2729	-3.0042	-3.8792	-3.5479	-3.4437	-3.8479	-3.5125	-3.8375	-3.7771	-3.4625	-3.9271	-3.8479	-3.4562	-3.9479	-3.3521	-3.9562	100.895	17.272	208.694	288.477	165.234	236.901	267.324	238.315	232.306	-1.012	-54.862	234.735	-37.764	193.128	39.459	275.896	0.00058802	0.00075258	0.00081061	1167.3	1.8974e-06	1.1401e-05	1632.7	420.34	8.1799e-06	3.1799e-05	676.83	247.98	141.92	48.145	2.9442e-05	93.748	0.0057754	0.0072295	0.0020052	972.56	7.6475e-05	7.9806e-05	1312.3	343.42	7.4284e-05	7.8978e-05	555.93	203.24	120.36	41.083	7.6438e-05	78.322	278.795	-16.312	44.099	-47.828	175.139	109.168	-47.987	-43.409	137.753	46.666	-44.543	-40.015	-39.779	-35.912	287.397	-37.041	-8191	255	
25443.066	1	1	0	0	0.13924	0.058004	0.22131	0.27946	0.13198	0.089821	0.41119	0.33885	0.04212	0.23733	0.13572	0.4101	0.10554	0.079246	0.10951	0.10957	-3.5458	-3.1917	-4.0125	-3.9333	-3.3167	-4.1958	-3.6813	-3.5667	-3.8937	-3.3333	-4.0021	-3.6854	-3.225	-4.0292	-3.3458	-3.6104	-59.874	-12.455	-40.371	255.455	155.576	267.333	252.776	248.345	82.135	244.971	-22.871	254.675	41.434	47.574	255.151	-10.131	0.00010989	0.002963	0.00058711	1164.4	1.7518e-05	2.3297e-05	1627.9	420.92	1.0777e-05	2.6353e-05	676.76	247.83	142.32	48.397	1.6506e-05	93.862	0.0057847	0.0072759	0.0020151	969.85	7.6471e-05	8.0072e-05	1315.1	344.66	7.51e-05	7.9512e-05	554.64	203.33	120.7	41.112	7.5843e-05	78.254	227.826	-38.866	296.787	-48.284	53.587	-24.748	-47.940	-43.489	144.940	57.895	-44.698	-40.457	-39.527	-35.811	-43.431	-37.327	-8191	255	
25443.160	1	1	0	0	0.20791	0.057287	0.23388	0.32853	0.23264	0.17238	0.297	0.2403	0.13773	0.2211	0.48625	0.070426	0.14753	0.27289	0.33485	0.17556	-3.5667	-3.2042	-3.6979	-3.9208	-3.2604	-3.8583	-3.7375	-3.4875	-3.8812	-3.1312	-3.8667	-3.9542	-3.2146	-3.9333	-3.4958	-3.3771	255.300	103.283	29.506	231.081	133.184	122.845	248.801	232.812	268.877	72.871	266.488	153.282	29.872	232.701	211.882	215.507	0.00016674	0.001794	0.00033098	1162	5.253e-05	9.2754e-06	1618.8	419.73	5.394e-06	9.6535e-06	673.62	245.41	142.15	48.716	1.615e-05	93.791	0.0057245	0.0070658	0.002024	968.16	7.5633e-05	7.9183e-05	1311.9	343.67	7.4019e-05	7.9298e-05	554.75	202.89	120.5	41.27	7.6964e-05	78.276	270.310	48.107	55.766	-48.144	51.866	296.841	-48.299	-43.362	194.726	101.287	-44.990	-40.458	-39.843	-35.453	131.473	-37.174	-8191	255	
25443.260	1	1	0	0	0.19645	0.15305	0.22556	0.052083	0.241	0.28616	0.29047	0.36198	0.28235	0.046402	0.090091	0.13418	0.13081	0.31425	0.17602	0.085397	-3.5604	-3.3646	-3.5521	-3.7396	-3.0333	-3.9167	-3.7042	-3.425	-4.0062	-3.3792	-3.8458	-4.0417	-3.35	-4.0167	-3.5708	-3.4	-46.503	229.327	278.249	250.007	288.139	246.027	217.255	245.050	261.424	198.920	136.455	276.865	275.144	290.228	119.431	189.587	7.2889e-05	0.0027803	0.00050871	1165.4	2.3918e-05	3.0237e-05	1633.2	420.69	1.0632e-05	3.6825e-05	680.61	248.75	142.12	48.569	1.2463e-05	95.265	0.0057748	0.007056	0.0020312	968.41	7.5329e-05	7.9022e-05	1312.2	342.6	7.57e-05	8.0008e-05	557.67	204.48	120.89	41.481	7.7563e-05	78.715	161.122	121.729	124.418	-47.791	-15.363	122.269	-47.951	-43.264	128.790	184.034	-44.576	-40.719	-40.067	-35.550	129.811	-37.247	-8191	255	
25443.354	1	1	0	0	0.14548	0.062227	0.15798	0.19522	0.036873	0.15616	0.26432	0.14766	0.20814	0.17045	0.32822	0.15224	0.21885	0.093056	0.21675	0.38177	-3.5458	-3.3458	-3.4333	-3.9125	-3.0708	-3.8063	-3.9167	-3.3542	-3.9104	-3.3958	-3.4917	-4.1208	-3.2854	-3.5854	-3.7625	-3.2771	122.457	260.451	198.343	-57.553	21.892	130.761	257.460	227.635	-9.437	189.497	241.109	215.644	294.859	65.654	86.412	210.225	0.00038902	0.0031503	0.00051317	1162.5	2.5653e-05	1.4235e-05	1624.4	423.4	3.2204e-05	1.8703e-05	683.89	250.58	144.11	48.916	1.8205e-05	95.036	0.0058305	0.0072112	0.0020617	968.82	7.6858e-05	8.1024e-05	1315.4	345.74	7.5919e-05	8.1902e-05	561.33	205.65	121.93	41.675	7.828e-05	79.269	-26.870	-31.873	47.149	-47.590	72.202	8.516	-48.202	-43.556	98.706	-13.562	-44.794	-40.118	-40.112	-35.405	95.874	-37.672	-8191	255	
25443.449	1	1	0	0	0.20889	0.23106	0.13452	0.072799	0.038159	0.16138	0.16125	0.15679	0.039883	0.16442	0.32008	0.22127	0.029704	0.1902	0.011066	0.15262	-3.6125	-3.3146	-3.325	-3.9917	-3.2062	-3.625	-3.8479	-3.2354	-3.9646	-3.3958	-3.3583	-4.0771	-3.2958	-3.8708	-3.8083	-3.2542	61.632	178.568	244.762	284.757	39.964	-49.731	-3.094	-6.863	228.978	224.645	268.765	-48.848	25.224	252.693	-49.695	-35.794	0.00012031	0.0014892	0.00020171	1166.2	8.1683e-06	7.3286e-06	1629.6	421.78	1.0436e-05	3.2939e-06	688.52	252.92	145.39	49.073	3.1358e-05	95.54	0.005888	0.0073001	0.002074	971.02	7.6192e-05	8.1498e-05	1317	346.06	7.7185e-05	8.1055e-05	563.96	206.42	122.31	41.751	7.9705e-05	79.69	158.023	92.688	212.987	-47.768	151.550	124.848	-48.018	-43.572	8.111	23.119	-44.678	-40.228	-39.994	-35.567	132.580	-37.287	-8191	255	
25443.570	1	1	0	0	0.1726	0.087296	0.12954	0.14841	0.18863	0.1947	0.4049	0.18729	0.13118	0.16103	0.13762	0.12097	0.13478	0.098843	0.14862	0.23839	-3.5479	-3.3187	-3.2729	-3.9479	-3.275	-3.6312	-3.8812	-3.2667	-3.9042	-3.4583	-3.3729	-4.075	-3.3458	-3.5417	-3.9792	-3.2562	155.790	48.749	160.954	257.719	11.341	123.007	254.520	175.825	81.571	-25.309	-51.964	115.395	-35.803	289.937	74.699	234.772	0.00057849	0.0028993	0.00038911	1165.5	1.8867e-05	1.6223e-05	1637.7	422	2.4453e-05	6.6891e-06	684.94	250.03	145.07	48.889	1.8113e-05	95.405	0.0059035	0.0072303	0.0020607	969.08	7.754e-05	8.237e-05	1316.1	346	7.6875e-05	8.1872e-05	558.53	205.76	122.53	41.698	7.9105e-05	79.376	183.349	27.263	76.086	-47.981	61.844	-56.337	-48.003	-43.903	157.556	278.030	-44.576	-40.080	-39.894	-35.330	77.514	-37.750	-8191	255	
25443.668	1	1	0	0	0.23862	0.089798	0.13167	0.093618	0.057956	0.17944	0.3296	0.17913	0.24707	0.057039	0.089495	0.25925	0.0378	0.1315	0.18525	0.33198	-3.4729	-3.525	-3.0833	-3.9188	-3.4375	-3.5104	-4.0771	-3.4354	-3.8083	-3.7354	-3.2292	-3.9229	-3.4521	-3.4708	-3.7458	-3.5292	-29.174	-23.804	275.981	0.507	217.761	47.076	277.132	-39.559	173.215	77.217	5.119	285.653	260.677	290.088	-15.872	225.215	0.00044814	0.0027243	0.00031537	1164.1	1.5505e-05	2.2803e-05	1633	421.64	9.0486e-06	1.2146e-05	683.8	249.71	144.23	48.987	1.608e-05	95.263	0.0058985	0.0072746	0.0020426	968.6	7.6871e-05	8.1578e-05	1314.1	344.83	7.6819e-05	8.0853e-05	561.83	205.44	121.99	41.772	7.8324e-05	79.295	248.450	78.323	139.867	-47.365	280.671	136.405	-47.782	-43.593	139.288	79.174	-44.663	-40.107	-39.617	-35.584	244.301	-37.430	-8191	255	
25443.764	1	1	0	0	0.15768	0.17121	0.25636	0.27412	0.099382	0.20809	0.32932	0.30382	0.2762	0.18016	0.27812	0.1629	0.088372	0.29135	0.12902	0.20829	-3.1667	-3.7125	-3.1208	-4.0188	-3.4396	-3.3021	-4.15	-3.6458	-3.6417	-3.7292	-3.3167	-4.0458	-3.5104	-3.2979	-3.7271	-3.475	173.214	28.189	146.583	274.270	169.166	-38.346	212.730	231.052	-18.769	55.489	268.484	198.273	-38.543	-48.119	108.009	192.736	0.00032853	0.00052999	0.00023748	1156.4	3.1984e-05	1.6253e-05	1629.7	420.93	8.499e-06	5.9961e-06	680.59	251.42	143.54	48.595	1.8807e-05	94.957	0.0059894	0.0076475	0.0021078	966.76	7.9023e-05	8.4163e-05	1314.3	345.45	7.9163e-05	8.3763e-05	560.09	206.06	121.95	41.599	8.1772e-05	79.307	279.220	285.923	70.774	-47.266	143.027	109.134	-47.993	-43.320	79.605	285.735	-44.785	-39.699	-39.519	-35.372	66.621	-37.296	-8191	255	
25443.859	1	1	0	0	0.1691	0.24664	0.15901	0.24433	0.302	0.2275	0.45269	0.29185	0.097727	0.11515	0.11798	0.13691	0.22677	0.43334	0.10143	0.25404	-3.1833	-3.6063	-3.1417	-3.9104	-3.6521	-3.1229	-4.0083	-3.5104	-3.575	-3.725	-3.1896	-3.9833	-3.7146	-3.2792	-3.7458	-3.2729	157.343	48.002	3.817	296.782	-7.264	137.509	273.712	281.092	6.905	70.143	277.243	-55.199	20.849	252.509	-34.942	247.712	0.00027142	0.002723	0.0003995	1170.6	1.8411e-05	2.2905e-05	1627.7	416.26	2.6135e-06	7.6053e-06	673.15	246.26	141.52	47.993	3.3453e-05	93.582	0.0060113	0.0075957	0.002109	972.54	7.9071e-05	8.4352e-05	1307.9	343.25	7.9016e-05	8.3501e-05	554.61	203.23	120.71	41.246	7.8712e-05	77.908	225.522	1.165	145.883	-47.686	11.776	51.236	-47.615	-43.817	14.894	-59.950	-44.860	-39.977	-39.610	-35.821	21.790	-37.319	-8191	255	
25443.955	1	1	0	0	0.17179	0.13802	0.18599	0.25927	0.10298	0.17051	0.2935	0.23209	0.27318	0.10753	0.31449	0.16806	0.20789	0.18259	0.16657	0.24999	-2.95	-3.8229	-3.2854	-3.8146	-3.8229	-3.0979	-3.9604	-3.6208	-3.1813	-3.8875	-3.3354	-3.7667	-3.8083	-3.2417	-3.8271	-3.5229	187.062	188.385	237.467	218.606	115.274	144.782	212.570	249.120	237.368	8.397	285.854	269.288	-59.395	9.704	78.528	234.275	0.00038931	0.0013706	0.00060695	1151.3	2.3909e-05	9.298e-06	1602.7	413.96	1.4828e-05	2.9706e-05	670.35	245.12	141.88	48.022	1.7685e-05	93.471	0.0060092	0.007458	0.0020743	963.11	7.9243e-05	8.2091e-05	1303.3	341.75	7.9207e-05	8.2911e-05	553.01	202.99	120.34	41.105	8.1091e-05	77.782	234.760	4.560	234.239	-47.876	-58.930	146.168	-48.303	-43.656	182.575	113.079	-44.565	-39.826	-40.277	-35.755	53.842	-37.712	-8191	255	
25444.051	1	1	0	0	0.10579	0.10401	0.057017	0.2396	0.12221	0.32505	0.13598	0.14973	0.073611	0.22017	0.36088	0.27372	0.12087	0.15143	0.29334	0.15158	-2.8438	-3.7771	-3.0938	-3.7292	-3.8167	-3.2938	-3.9729	-3.6396	-3.1312	-3.9417	-3.3917	-3.5646	-3.9833	-3.4229	-3.8854	-3.6729	136.986	258.256	119.586	280.484	227.890	131.861	288.846	263.945	80.130	111.164	229.556	273.675	287.145	227.996	39.114	282.501	0.00015838	0.001048	0.00065378	1156.1	2.9406e-05	2.0508e-05	1612.3	414.23	5.1123e-06	1.4389e-05	674.94	246.57	140.9	48.325	1.5328e-05	93.384	0.0059389	0.007449	0.0020612	963.64	7.8731e-05	8.1188e-05	1299.5	341.02	7.8014e-05	8.361e-05	554.94	203.07	119.97	41.358	8.06e-05	77.698	224.570	133.654	-59.879	-47.653	33.390	61.258	-47.986	-43.615	5.828	281.366	-44.917	-40.405	-39.795	-35.829	61.835	-37.121	-8191	255	
25444.146	1	1	0	0	0.19512	0.20602	0.24951	0.1976	0.24437	0.15051	0.14592	0.17489	0.25447	0.12343	0.22664	0.28801	0.18685	0.079307	0.26644	0.12653	-2.75	-3.7708	-3.5104	-3.4521	-3.8042	-3.2625	-3.9896	-3.725	-3.0854	-3.7938	-3.4875	-3.3771	-4.0229	-3.2271	-3.6792	-3.9833	134.255	67.576	130.682	8.490	165.868	-44.460	266.069	248.037	42.896	244.901	-49.292	-52.661	278.854	216.569	136.731	192.234	0.00028216	0.00059231	6.5189e-05	1150.6	1.153e-05	2.9906e-05	1609	415.11	8.7096e-06	5.7645e-06	679.15	249.06	142.24	48.549	1.793e-05	93.716	0.0059423	0.0073876	0.002061	959.66	7.694e-05	8.074e-05	1297.7	341.15	7.6784e-05	7.8781e-05	555.05	204.56	120.55	41.28	7.754e-05	78.102	46.681	79.683	101.505	-47.560	45.001	-21.434	-48.051	-43.668	-57.191	181.594	-44.840	-40.176	-40.222	-35.901	-59.141	-36.798	-8191	255	
25444.242	1	1	0	0	0.063709	0.1644	0.12294	0.36437	0.20965	0.34776	0.17266	0.24617	0.35325	0.22395	0.032859	0.35228	0.078867	0.1868	0.29171	0.15214	-2.7771	-3.7271	-3.4042	-3.2958	-3.9688	-3.2417	-3.7479	-3.8312	-3.2729	-3.9208	-3.6625	-3.5833	-4.0542	-3.3417	-3.4729	-4.0021	-10.094	142.924	243.949	273.757	166.711	133.924	224.024	260.255	42.592	116.783	67.620	252.127	-33.321	-4.407	35.651	221.271	0.00028249	0.0015118	5.438e-05	1149.6	1.3774e-05	8.1819e-06	1599.3	414.98	1.105e-05	1.7795e-05	675.95	245.96	142.79	48.501	2.1725e-05	93.272	0.0057168	0.0072171	0.0020194	960.51	7.54e-05	8.069e-05	1299	341	7.6e-05	8.0301e-05	553.03	202.56	120.99	41.317	7.8717e-05	77.738	291.049	-13.307	53.452	-48.035	121.785	142.563	-47.701	-43.590	-40.218	177.632	-44.535	-40.413	-39.373	-36.220	87.177	-37.320	-8191	255	
25444.340	1	1	0	0	0.26395	0.13331	0.12243	0.13178	0.13742	0.0036002	0.25833	0.24876	0.14843	0.15342	0.20031	0.12899	0.085926	0.35463	0.027952	0.27275	-2.8542	-3.6917	-3.3458	-3.3187	-3.8604	-3.3208	-3.7979	-3.8271	-3.1063	-3.8271	-3.6625	-3.325	-4.0312	-3.3417	-3.4417	-3.9479	253.964	42.122	80.581	261.739	9.488	207.874	232.607	261.287	199.357	-2.990	285.454	282.833	-9.588	255.367	120.791	286.963	0.00042497	0.0018191	0.00060389	1137.2	4.74e-05	2.533e-05	1606	414.39	4.5316e-06	2.7034e-05	668.88	246.43	141.55	48.528	4.2318e-05	94.55	0.0057569	0.0071929	0.0020343	953.14	7.6869e-05	8.0367e-05	1300.3	340.18	7.724e-05	8.0884e-05	551.99	203.59	120.68	41.381	7.9983e-05	78.34	-56.116	25.095	24.340	-47.797	158.846	109.787	-47.315	-43.351	174.614	71.154	-44.587	-40.314	-39.870	-35.915	86.534	-37.399	-8191	255	
25444.459	1	1	0	0	0.10925	0.3246	0.2198	0.032767	0.18559	0.19213	0.13463	0.15933	0.30442	0.18111	0.18825	0.40182	0.13028	0.042701	0.22429	0.24025	-2.7021	-3.5479	-3.6229	-3.1604	-3.9	-3.1958	-3.4646	-3.9646	-3.1813	-3.6625	-3.9167	-3.2292	-3.9313	-3.5396	-3.2562	-3.8688	95.746	78.027	289.917	59.382	111.702	294.627	199.436	298.014	75.731	228.241	-58.979	225.064	232.447	77.353	114.634	225.401	0.00042631	0.0021607	0.00074974	1153.7	1.1122e-05	1.3669e-05	1598.8	417.08	2.4869e-05	1.7872e-05	675.55	248.03	144.26	49.064	1.6479e-05	96.081	0.00581	0.0073867	0.0020065	957.36	7.665e-05	8.0876e-05	1295.5	341.84	7.5628e-05	7.9487e-05	555.35	204.96	122.14	41.815	7.8595e-05	79.462	222.822	98.796	79.655	-47.346	226.949	138.157	-47.972	-43.626	83.886	6.610	-44.376	-40.009	-39.898	-35.553	65.495	-37.376	-8191	255	
25444.529	1	1	0	0	0.18484	0.099691	0.052471	0.31888	0.23751	0.31354	0.15938	0.27016	0.25873	0.10135	0.24808	0.029736	0.17626	0.27925	0.28919	0.0060676	-2.8396	-3.4167	-3.7542	-3.25	-3.8729	-3.4521	-3.4729	-4.0104	-3.2979	-3.6083	-3.9208	-3.1542	-3.7167	-3.6188	-3.2292	-4.0479	-48.520	190.948	277.491	230.767	228.436	6.293	243.774	218.798	-52.527	118.333	-50.133	127.965	-59.215	284.876	197.999	157.618	0.00048984	0.00073903	0.00032215	1141.1	1.3017e-05	3.1148e-05	1606.3	419.35	3.2709e-05	9.3486e-06	677.88	251.62	145.58	48.608	3.7763e-06	96.37	0.0057975	0.007312	0.0020316	958.15	7.7381e-05	8.122e-05	1304.4	344.94	7.6877e-05	8.0103e-05	559.14	207.71	123.27	41.806	7.7468e-05	80.09	283.620	-43.479	262.275	-47.594	50.012	113.838	-47.540	-43.329	158.475	201.826	-44.770	-40.054	-39.706	-36.087	223.334	-36.910	-8191	255	
25444.650	1	1	0	0	0.24804	0.071339	0.1167	0.31694	0.18236	0.21048	0.12065	0.23097	0.137	0.13776	0.050991	0.14918	0.29161	0.27664	0.031865	0.1366	-2.8417	-3.5146	-3.8083	-3.1896	-3.7729	-3.6188	-3.3792	-4.0875	-3.2562	-3.3479	-4.0833	-3.2771	-3.7604	-3.6125	-3.2229	-3.9458	214.480	190.328	-59.838	287.054	53.335	-36.344	262.319	219.598	151.463	-60.001	194.146	254.755	232.486	-55.029	170.526	221.243	0.00030743	0.0017291	0.00091647	1144.2	2.9761e-05	3.0837e-05	1597	420.91	2.3154e-05	2.9203e-05	680.47	251.68	145.77	49.077	2.3104e-05	96.381	0.0058308	0.0073006	0.0019842	955.79	7.6775e-05	7.9927e-05	1304.1	344.36	7.836e-05	8.1379e-05	560.99	207.66	123.5	42.131	7.8997e-05	80.117	228.582	-43.705	32.551	-47.698	49.517	22.230	-47.776	-43.235	91.400	134.777	-44.370	-39.912	-39.754	-35.519	75.414	-36.985	-8191	255	
25444.746	1	1	0	0	0.080217	0.18972	0.18851	0.17545	0.22811	0.23267	0.28239	0.20896	0.21919	0.23588	0.31733	0.24375	0.3945	0.072005	0.26291	0.1497	-2.7896	-3.3625	-3.7167	-3.1	-3.6021	-3.5542	-3.3521	-3.9875	-3.4437	-3.3771	-3.9792	-3.2792	-3.6958	-3.8021	-3.2812	-4.0604	9.091	146.730	222.157	-21.154	209.289	288.026	213.574	261.146	242.028	175.441	-34.831	-20.037	248.249	29.765	0.513	265.138	0.00056808	0.0030459	0.00044536	1150.9	1.0372e-05	6.9098e-06	1609.6	420.82	6.4592e-06	1.4833e-05	686.24	251.77	145.72	49.689	2.0767e-05	97.017	0.0058354	0.0074184	0.0020527	956.73	7.7368e-05	8.0887e-05	1306.4	346.45	7.6474e-05	8.1942e-05	564.86	208.99	124.13	42.405	7.9626e-05	80.896	195.063	29.988	128.134	-47.978	155.764	272.415	-47.735	-43.498	-11.457	74.538	-44.491	-40.430	-39.365	-35.447	78.310	-37.373	-8191	255	
25444.844	1	1	0	0	0.15509	0.3301	0.095266	0.061739	0.09522	0.2192	0.27773	0.12796	0.19638	0.18957	0.24565	0.094138	0.20046	0.26328	0.28058	0.068492	-3.05	-3.3292	-3.9688	-3.1896	-3.5854	-3.7271	-3.4229	-4.0396	-3.5042	-3.3792	-4.0188	-3.1854	-3.4896	-3.8021	-3.2625	-3.7083	41.880	-9.373	90.620	22.109	146.156	161.471	270.112	-39.545	144.254	82.689	252.579	213.313	288.198	221.212	20.877	156.718	0.00031168	0.0019236	0.00012862	1160.6	2.942e-05	1.1983e-05	1607.3	425.74	1.2108e-05	7.2575e-06	692.28	256.47	147.18	49.72	2.5959e-06	98.132	0.0058921	0.0074515	0.0020519	965.86	7.8909e-05	8.0681e-05	1311.4	349.84	7.82e-05	8.1795e-05	568.61	211.79	125.52	42.753	7.927e-05	82.001	-51.849	183.495	216.380	-47.706	93.260	118.579	-48.209	-43.388	141.509	55.264	-44.778	-40.209	-39.846	-35.726	184.670	-37.060	-8191	255	
25444.939	1	1	0	0	0.2274	0.046199	0.17491	0.162	0.27481	0.22568	0.13184	0.12455	0.15626	0.14388	0.23119	0.27659	0.080373	0.16314	0.08579	0.15504	-3.1604	-3.1833	-3.8708	-3.4104	-3.3438	-3.7229	-3.3083	-3.8229	-3.5708	-3.1375	-3.9708	-3.5187	-3.3208	-3.8479	-3.1833	-3.7188	296.013	176.825	175.653	201.300	218.178	-16.938	165.364	73.380	104.513	208.943	294.712	274.045	260.854	284.708	62.876	264.912	0.00023917	0.0015671	0.00016038	1152.9	1.6417e-05	1.5715e-05	1622.9	428.92	1.1308e-05	2.331e-05	700.31	260.64	149.41	50.816	1.574e-05	99.122	0.0059493	0.007447	0.0020344	969.18	7.7627e-05	8.2309e-05	1323.4	352.18	7.6773e-05	8.2501e-05	575.84	214.19	126.36	43.113	7.9736e-05	82.225	-50.729	-45.405	254.734	-48.243	5.361	-6.786	-47.589	-43.353	-41.962	140.704	-44.142	-40.052	-39.565	-35.621	105.517	-36.817	-8191	255	
25445.061	1	1	0	0	0.2454	0.17128	0.16937	0.19423	0.038257	0.097706	0.29586	0.021363	0.11508	0.081421	0.19966	0.2193	0.28617	0.12744	0.21596	0.29739	-3.2042	-3.2604	-3.9458	-3.4958	-3.2292	-3.95	-3.3438	-3.7917	-3.7396	-3.1375	-4.0146	-3.625	-3.5479	-3.9437	-3.3667	-3.6854	178.941	84.863	249.577	289.023	116.928	36.152	252.274	243.363	71.167	191.015	219.686	283.483	293.710	237.700	275.889	229.589	0.00024491	0.0026246	0.00031444	1153.5	9.5396e-06	6.5004e-06	1636	426.44	3.0011e-05	3.7715e-06	698.31	256.1	148.24	50.157	1.0939e-05	99.136	0.0058392	0.0074589	0.0021003	968.55	7.8628e-05	8.3036e-05	1329.1	351.32	7.7235e-05	8.2899e-05	575.27	212.51	126.08	42.924	7.8758e-05	82.117	167.838	58.969	32.470	-47.657	1.469	122.922	-47.674	-43.142	137.486	138.146	-44.131	-40.388	-39.311	-35.954	42.860	-37.280	-8191	255	
25445.154	1	1	0	0	0.071443	0.10758	0.25894	0.17952	0.30776	0.18771	0.26613	0.33687	0.11443	0.026415	0.22015	0.25774	0.24355	0.048299	0.23291	0.3119	-3.425	-3.1063	-3.7292	-3.5458	-3.2313	-3.8021	-3.5542	-3.5208	-3.7917	-3.2021	-4.0458	-3.7646	-3.2229	-3.9271	-3.2708	-3.5229	110.974	273.251	91.474	-17.557	-58.608	197.028	239.643	254.899	297.277	292.768	258.355	202.220	290.748	48.535	171.193	163.533	0.00019139	0.0011462	0.00047828	1162.2	2.6149e-05	2.5315e-05	1634.7	428.02	9.5734e-06	1.6908e-05	696.61	258.98	149.46	50.545	3.585e-06	98.749	0.0058785	0.0073872	0.0020469	969.06	7.8965e-05	8.2492e-05	1323.8	351.23	7.7725e-05	8.3022e-05	574.5	213.15	126.05	43.058	8.091e-05	82.25	267.724	-59.507	91.199	-48.561	91.864	59.710	-47.900	-43.378	119.037	107.005	-44.660	-40.530	-39.746	-35.778	-7.385	-37.063	-8191	255	
25445.229	1	1	0	0	0.17286	0.15751	0.18744	0.27972	0.074354	0.16068	0.34428	0.33319	0.090425	0.19545	0.15755	0.33178	0.086257	0.28013	0.16132	0.24921	-3.5708	-3.1917	-3.7562	-3.6063	-2.9938	-4.0188	-3.65	-3.5083	-3.9104	-3.2854	-3.975	-3.7354	-3.2375	-3.8812	-3.3354	-3.6229	256.911	185.055	269.818	34.416	13.386	-45.123	253.119	236.151	298.023	112.757	68.303	272.847	20.586	-21.668	90.315	257.321	0.00051189	0.0030814	0.00034376	1172.1	4.1875e-05	2.7571e-05	1635.8	430.16	2.6289e-05	3.3068e-05	704.86	257.16	148.56	50.134	1.2455e-05	98.764	0.0059151	0.0074934	0.0021142	976.88	8.0464e-05	8.3863e-05	1329.9	353.81	7.8189e-05	8.3857e-05	579.32	213.42	126.09	42.952	8.1672e-05	81.951	155.555	51.960	231.393	-47.800	80.338	-45.090	-48.111	-43.191	89.763	144.070	-44.018	-40.475	-39.819	-35.554	143.433	-37.374	-8191	255	
25445.348	1	1	0	0	0.11425	0.19219	0.15134	0.17584	0.19442	0.13438	0.27676	0.10983	0.12734	0.1884	0.25647	0.31201	0.2505	0.33181	0.36415	0.3772	-3.4708	-3.2167	-3.6458	-3.9437	-3.0687	-3.8667	-3.6188	-3.3854	-3.8	-3.3333	-3.6729	-3.8792	-3.3354	-3.9667	-3.5917	-3.3333	13.102	67.187	188.607	-55.970	-36.320	144.831	253.681	239.406	53.077	-29.975	261.584	-52.982	251.585	267.792	16.018	267.979	0.00012675	0.003317	0.00099826	1175	1.5824e-05	9.5847e-06	1644.7	430.06	1.8326e-05	1.5822e-05	694.35	259.49	149.53	49.942	3.4993e-05	98.246	0.0061361	0.0076591	0.0021333	980.46	8.0434e-05	8.5306e-05	1334.6	352.27	8.0276e-05	8.4345e-05	576.68	213.57	126.52	42.953	8.0725e-05	81.864	204.957	263.383	125.703	-47.738	51.482	103.177	-47.781	-43.412	52.850	-31.951	-44.532	-40.286	-39.483	-35.162	197.582	-37.153	-8191	255	
25445.443	1	1	0	0	0.16464	0.13915	0.22163	0.2175	0.046671	0.21264	0.16427	0.46779	0.071053	0.36231	0.18197	0.19611	0.11442	0.16127	0.10875	0.08201	-3.5208	-3.2646	-3.2938	-3.7708	-3.0958	-3.7667	-3.7625	-3.4688	-3.9417	-3.4729	-3.65	-4.1729	-3.1312	-3.8167	-3.6562	-3.3146	-8.328	268.134	262.210	200.710	160.780	15.566	211.181	258.662	56.840	273.644	250.161	241.444	-56.413	235.691	97.272	176.486	9.9461e-05	0.001711	0.00020104	1159.7	1.0994e-05	7.8201e-06	1647.4	430.68	3.8652e-06	2.191e-05	696.48	257.48	149.07	50.275	3.0658e-05	97.745	0.0060143	0.0075973	0.0021504	973.8	7.9277e-05	8.395e-05	1329.3	352.87	7.9332e-05	8.4266e-05	575.83	212.78	126.51	42.897	8.0952e-05	82.015	38.380	40.995	154.747	-47.978	97.981	219.852	-47.922	-43.224	186.412	220.974	-44.381	-40.177	-39.629	-35.722	66.681	-37.127	-8191	255	
25445.539	1	1	0	0	0.35863	0.25531	0.10959	0.29635	0.1567	0.04697	0.22718	0.39449	0.10099	0.31612	0.15372	0.24833	0.34998	0.12558	0.090645	0.37405	-3.5146	-3.35	-3.4167	-3.8917	-3.3042	-3.6063	-3.8729	-3.2042	-3.8438	-3.2833	-3.3521	-4.1062	-3.3125	-3.7292	-3.725	-3.4562	247.329	-40.168	62.865	256.192	71.821	157.599	282.059	293.187	70.122	-22.535	-41.371	217.291	271.328	-22.283	-47.478	236.370	0.00015697	0.0031324	0.00020621	1161.7	1.3467e-05	1.6171e-05	1633.9	430.3	8.3429e-06	1.8325e-05	698.89	258.32	147.64	49.861	2.1635e-05	97.705	0.0060561	0.0076552	0.0021501	975.59	8.1134e-05	8.5457e-05	1324.5	352.47	7.9801e-05	8.3655e-05	576.14	212.94	126.51	42.868	8.2212e-05	81.966	284.402	75.986	107.093	-47.677	284.106	93.469	-48.267	-43.507	-30.481	126.851	-44.635	-40.330	-39.642	-35.692	281.265	-37.088	-8191	255	
25445.660	1	1	0	0	0.071183	0.18138	0.22841	0.031139	0.16929	0.29174	0.47304	0.070131	0.051601	0.12773	0.16903	0.33023	0.014487	0.15533	0.18855	0.35246	-3.5771	-3.4562	-3.2458	-3.9083	-3.3771	-3.4583	-3.8271	-3.1188	-3.7771	-3.5792	-3.2313	-3.9062	-3.3354	-3.4667	-3.8792	-3.0875	199.479	227.530	18.574	283.901	64.232	23.453	255.216	21.186	-61.356	-54.124	235.238	223.516	79.611	17.485	64.902	225.002	0.00033387	0.0014701	0.00021446	1171.8	1.6166e-05	3.8434e-05	1635.9	431.32	9.124e-06	1.9354e-05	701.25	260.27	149.86	49.874	3.3131e-05	98.669	0.0061164	0.0075737	0.0021355	978.38	8.0988e-05	8.5767e-05	1332.8	353.51	7.9097e-05	8.3859e-05	578.06	214.46	127.09	43.046	8.2213e-05	82.396	213.192	234.038	270.842	-47.665	128.543	36.879	-47.589	-43.535	223.013	93.040	-44.410	-40.023	-39.600	-35.499	76.232	-37.174	-8191	255	
25445.756	1	1	0	0	0.11663	0.057444	0.11717	0.24392	0.23273	0.11807	0.22607	0.23157	0.23512	0.25059	0.057539	0.20059	0.19633	0.18333	0.071094	0.38136	-3.3708	-3.4688	-3.1104	-4.0083	-3.2042	-3.3333	-4.0521	-3.2771	-3.65	-3.625	-3.4354	-4.0604	-3.4333	-3.4417	-4.0583	-3.1896	-58.535	-22.594	-11.769	265.485	187.077	292.533	222.080	269.492	78.128	261.792	268.290	253.956	-50.020	287.564	194.511	238.465	0.00027335	0.0025578	0.00054223	1167.8	2.4513e-06	2.0184e-05	1642.1	428.18	2.3755e-05	3.4107e-05	696.05	258.68	148.19	49.794	3.9913e-05	98.91	0.0061452	0.0075804	0.0021831	979.46	8.2015e-05	8.5546e-05	1334.2	354.29	8.091e-05	8.5069e-05	578.18	213.84	126.31	43.034	8.2716e-05	82.285	-61.168	105.328	2.996	-47.858	34.657	148.418	-47.991	-43.442	188.799	89.456	-44.343	-40.071	-39.344	-35.873	258.842	-37.345	-8191	255	
25445.826	1	1	0	0	0.13129	0.22413	0.2723	0.18773	0.25014	0.16945	0.12339	0.33205	0.19388	0.22709	0.45386	0.22429	0.37159	0.036484	0.23275	0.19387	-3.2812	-3.7083	-3.1063	-4.0292	-3.4333	-3.35	-4.0833	-3.3812	-3.6521	-3.925	-3.2167	-3.8875	-3.6292	-3.4104	-3.75	-3.4729	158.255	77.880	87.074	248.852	61.818	184.073	260.210	297.611	121.948	172.115	274.889	241.470	295.738	194.982	144.550	228.390	0.00051659	0.0012094	0.00086559	1161.6	2.6185e-05	8.6811e-06	1631.4	427.35	1.147e-05	1.7145e-05	700.67	257.63	147.36	49.857	2.3234e-05	98.927	0.0061907	0.0077253	0.0021613	976.11	8.0865e-05	8.4789e-05	1332.7	353.97	7.9372e-05	8.424e-05	578.77	213.69	126.36	43.054	8.2476e-05	82.339	270.686	-45.233	37.503	-47.919	118.773	72.294	-47.715	-43.487	270.094	-56.711	-44.572	-40.115	-39.027	-35.997	198.151	-36.976	-8191	255	
25445.924	1	1	0	0	0.12488	0.16519	0.095304	0.16355	0.061866	0.18315	0.31364	0.29909	0.20617	0.14684	0.31288	0.18949	0.17298	0.15466	0.18563	0.5391	-3.2188	-3.7917	-3.2	-3.8917	-3.5479	-3.1958	-4.0729	-3.4833	-3.5417	-3.8792	-3.3771	-3.8083	-3.6104	-3.2396	-4	-3.3521	14.389	40.429	-58.467	10.255	-29.239	-6.745	263.999	260.118	-39.392	46.987	264.355	280.467	54.811	248.195	75.856	250.473	0.00043641	0.0034198	0.00019877	1167.3	1.625e-05	2.5655e-05	1630.5	427.29	1.2547e-05	6.6402e-06	698.81	257.91	149.09	49.761	2.2869e-05	98.104	0.0062406	0.007719	0.0021635	981.33	8.1409e-05	8.6254e-05	1328.8	354.81	8.082e-05	8.6442e-05	580.01	214.4	126.93	43.112	8.3853e-05	82.436	178.204	32.311	131.527	-47.277	165.363	29.343	-47.875	-43.414	-4.814	225.879	-44.556	-39.947	-39.378	-35.140	29.464	-36.320	-8191	255	
25446.020	1	1	0	0	0.26469	0.045633	0.1484	0.27369	0.20392	0.33319	0.26675	0.21358	0.042815	0.14446	0.36207	0.2695	0.13805	0.0707	0.18659	0.093784	-3.0875	-3.8563	-3.0354	-3.7583	-3.6583	-3.2646	-4.2292	-3.4708	-3.4938	-4.0458	-3.3354	-3.7792	-3.8438	-3.1958	-3.6688	-3.4708	287.526	281.869	273.686	256.440	293.855	174.098	246.423	224.387	237.032	280.029	269.834	247.475	244.647	238.663	170.338	-23.419	0.00038782	0.0015663	0.00057007	1173.1	1.7295e-05	5.1104e-06	1626.4	427.52	6.2927e-06	6.1011e-06	700.23	259.68	147.97	49.58	2.4334e-05	98.143	0.0062107	0.0077672	0.0022071	983.07	8.1692e-05	8.7059e-05	1331.7	354.88	8.2781e-05	8.7787e-05	580.73	215.62	126.76	43.089	8.4647e-05	82.489	270.015	278.535	65.137	-48.066	46.132	214.553	-47.844	-43.372	23.584	117.502	-44.622	-39.649	-39.380	-35.534	62.947	-37.100	-8191	255	
25446.141	1	1	0	0	0.090155	0.087977	0.091969	0.22744	0.14844	0.14799	0.20883	0.26859	0.21296	0.12761	0.26519	0.30667	0.205	0.04829	0.23003	0.44048	-2.9417	-3.6917	-3.2042	-3.6375	-3.7729	-3.0563	-4.1042	-3.7146	-3.3333	-3.7896	-3.4792	-3.6792	-3.8854	-3.2729	-3.8063	-3.6937	166.830	218.416	265.354	230.283	48.637	170.338	203.767	270.525	257.693	72.137	-57.942	256.765	229.750	235.164	270.078	232.819	0.00030028	0.0021538	0.00014742	1158.5	2.2916e-05	1.1052e-05	1635.4	426	5.816e-07	8.0196e-06	700.64	256.35	148.47	50.002	1.14e-05	97.384	0.0062601	0.0078586	0.0022067	978.31	8.3765e-05	8.7616e-05	1335.2	353.81	8.1973e-05	8.5122e-05	580.44	213.19	126.61	43.19	8.2888e-05	81.994	266.576	297.835	37.936	-47.504	134.251	182.874	-47.640	-43.511	105.141	67.520	-44.225	-40.116	-39.609	-35.524	111.209	-37.163	-8191	255	
25446.234	1	1	0	0	0.26902	0.076798	0.1655	0.26987	0.30103	0.11223	0.26173	0.064557	0.051286	0.12531	0.5138	0.28093	0.26114	0.24437	0.033695	0.19168	-2.8167	-3.8771	-3.2292	-3.6292	-3.7458	-3.3125	-3.7729	-3.7687	-3.2	-3.8979	-3.5854	-3.5167	-3.7521	-3.1604	-3.7979	-3.7167	79.004	46.234	193.249	287.461	269.084	11.882	236.387	240.522	51.094	168.460	270.612	238.561	-25.757	256.930	142.517	178.310	0.00026249	0.0022348	0.00063968	1154.6	2.2502e-05	3.4692e-06	1634.8	429.3	1.6467e-05	1.032e-05	694.63	258.91	148.61	50.515	1.9257e-05	98.224	0.006099	0.0076963	0.0021643	977.94	8.1514e-05	8.5812e-05	1334	353.49	8.1922e-05	8.5826e-05	578.5	215.16	127.63	43.493	8.2596e-05	82.401	280.744	91.966	266.052	-47.281	161.638	-10.874	-48.023	-43.113	189.681	146.739	-44.120	-39.803	-39.128	-35.273	237.569	-36.815	-8191	255	
25446.332	1	1	0	0	0.21152	0.058787	0.20699	0.038815	0.25325	0.19076	0.16633	0.33509	0.07565	0.14045	0.1357	0.28276	0.078083	0.16893	0.099347	0.25656	-2.8688	-3.8833	-3.2771	-3.4958	-3.8063	-3.1063	-3.9396	-3.8792	-3.2167	-3.8875	-3.6	-3.3667	-3.9688	-3.4229	-3.525	-3.9583	132.847	48.658	199.484	226.219	194.296	76.808	190.454	260.593	54.562	249.699	215.683	268.974	218.360	-38.523	179.342	261.922	0.00026121	0.00084745	0.00055528	1164.5	1.4836e-05	2.053e-05	1645.9	425.49	7.2147e-06	4.1252e-06	698.19	261.89	150.61	50.524	1.4428e-05	99.557	0.0061674	0.0076098	0.002149	983.54	7.9797e-05	8.5041e-05	1339.7	354.27	8.0502e-05	8.6522e-05	580.87	216.65	128	43.431	8.2809e-05	83.126	-36.350	31.058	-59.725	-47.499	182.373	24.485	-47.311	-43.134	282.737	95.632	-44.599	-40.427	-39.431	-35.879	43.995	-36.637	-8191	255	
25446.428	1	1	0	0	0.070278	0.13543	0.075822	0.19765	0.10381	0.1753	0.41486	0.32694	0.24115	0.19363	0.27336	0.14383	0.20539	0.070856	0.044038	0.30846	-2.8792	-3.7292	-3.4896	-3.3271	-3.9417	-3.3708	-3.5417	-3.8646	-3.0375	-3.6792	-3.6792	-3.3958	-3.9292	-3.4083	-3.6063	-3.8812	145.099	177.759	-54.645	249.687	168.584	105.030	228.465	250.585	-33.836	-43.467	229.371	221.202	280.754	242.967	184.210	221.651	0.0004775	0.0013618	0.00046034	1161.2	7.2929e-06	1.2417e-05	1640.1	430.53	1.9715e-05	1.0848e-05	705.59	263.7	150.82	50.814	1.3389e-05	99.633	0.0062477	0.0078	0.0021395	978.84	8.0791e-05	8.5654e-05	1341.2	355.84	8.0644e-05	8.5087e-05	584.92	217.54	128.88	43.691	8.2819e-05	83.292	-35.413	278.171	-29.643	-47.389	143.838	4.961	-47.913	-43.364	119.018	148.816	-44.325	-39.747	-39.445	-35.790	297.315	-36.917	-8191	255	
25446.523	1	1	0	0	0.27156	0.054506	0.18664	0.25773	0.056219	0.14705	0.38709	0.26239	0.36786	0.11024	0.10795	0.21251	0.14311	0.19988	0.2967	0.22353	-2.875	-3.5792	-3.5646	-3.3792	-3.8438	-3.4042	-3.4125	-3.9521	-3.1854	-3.6354	-3.6521	-3.4396	-3.9208	-3.6021	-3.2562	-4.1667	-54.505	8.246	105.902	-44.403	-55.832	202.409	260.057	264.835	242.609	-13.663	215.021	231.719	-57.521	-7.578	245.220	252.291	0.00023024	0.00245	0.00040251	1163.9	2.2293e-05	2.3169e-05	1634	431.87	2.4698e-05	1.6617e-05	702.15	259.53	149.96	50.526	2.8526e-05	98.386	0.0062216	0.0076809	0.0021368	981.98	8.1774e-05	8.4017e-05	1337.5	356.13	8.0723e-05	8.468e-05	581.46	216.1	128.62	43.52	8.2889e-05	83.006	262.776	7.231	282.973	-47.598	124.825	282.604	-47.392	-42.988	15.230	142.776	-44.555	-40.314	-39.986	-35.878	58.379	-36.858	-8191	255	
25446.619	1	1	0	0	0.18328	0.12778	0.12453	0.1414	0.13124	0.14963	0.19253	0.29974	0.10684	0.20423	0.22771	0.185	0.26387	0.031695	0.14454	0.36788	-2.8083	-3.5938	-3.5979	-3.3312	-3.6896	-3.4646	-3.5521	-3.9875	-3.2938	-3.4	-3.7521	-3.2167	-3.9271	-3.575	-3.1146	-4.0813	235.358	19.992	161.495	278.432	266.070	253.968	259.490	259.587	272.849	22.603	270.468	225.884	274.265	222.584	21.014	222.376	0.00027579	0.0018366	0.00053454	1165.1	1.8508e-05	2.467e-05	1630.7	427.05	1.6159e-05	1.1349e-05	707.28	261.01	150.72	50.609	2.443e-05	99.26	0.00634	0.0078255	0.002167	979.61	8.1213e-05	8.6574e-05	1339	355.89	8.1326e-05	8.6722e-05	586.53	217.12	129.29	43.783	8.4433e-05	83.49	137.744	282.326	170.843	-47.630	176.614	258.275	-47.327	-42.863	28.446	182.328	-44.307	-39.837	-39.793	-34.981	239.563	-36.414	-8191	255	
25446.740	1	1	0	0	0.10134	0.032735	0.16497	0.21239	0.12157	0.25196	0.31629	0.1063	0.25033	0.12995	0.451	0.19472	0.33042	0.21036	0.10285	0.21039	-2.8312	-3.3833	-3.75	-3.3542	-3.8167	-3.6625	-3.4333	-4.0167	-3.2583	-3.5938	-4.1375	-3.1833	-3.8667	-3.8854	-3.2271	-3.9688	-21.158	53.699	245.368	262.790	26.638	170.317	173.865	71.563	115.882	99.295	234.395	217.562	274.408	232.566	169.104	247.265	0.0001249	0.0018922	0.00056971	1162	1.912e-05	8.0701e-06	1631.5	429.25	1.7485e-05	7.5152e-06	703.43	259.33	149.54	50.775	5.4117e-06	99.549	0.0060784	0.0078791	0.0021848	981.28	8.1698e-05	8.6207e-05	1339.4	356.58	8.1015e-05	8.7507e-05	583.81	216.77	128.3	43.613	8.3413e-05	83.224	184.770	170.433	59.236	-47.193	60.020	149.375	-47.228	-42.702	217.060	130.755	-44.245	-40.360	-39.136	-35.454	275.353	-37.298	-8191	255	
25446.836	1	1	0	0	0.25932	0.093176	0.090381	0.16404	0.11656	0.10265	0.33534	0.14391	0.29521	0.23153	0.10163	0.097445	0.13677	0.11811	0.076579	0.16022	-2.8375	-3.3083	-3.7854	-3.2208	-3.7521	-3.7812	-3.4396	-4.0521	-3.4562	-3.2375	-3.9833	-3.4125	-3.7708	-3.7958	-3.2438	-3.9625	258.635	113.517	144.729	-21.397	226.708	115.218	178.763	253.176	-10.570	150.814	-10.628	232.887	264.094	261.591	26.499	-14.008	0.00052143	0.0012409	0.00072959	1160.3	2.0518e-05	3.1987e-05	1648.5	430.34	1.6659e-05	3.2909e-05	698.11	257.22	148.13	50.087	1.4534e-05	99.16	0.0062101	0.0077518	0.002184	979.92	8.176e-05	8.5293e-05	1336.5	355.43	8.1422e-05	8.6794e-05	583.26	215.52	127.56	43.518	8.5168e-05	82.781	230.078	56.488	70.427	-47.382	123.319	138.767	-47.576	-43.033	114.240	65.152	-44.128	-40.124	-39.464	-35.794	107.522	-36.963	-8191	255	
25446.932	1	1	0	0	0.1893	0.21171	0.063787	0.1783	0.056344	0.10004	0.025691	0.047507	0.10293	0.15716	0.46612	0.21833	0.21662	0.29024	0.097541	0.34877	-3.1958	-3.3229	-3.8292	-3.375	-3.5417	-3.8833	-3.3042	-3.8792	-3.4875	-3.1792	-4.0729	-3.3917	-3.7167	-3.8688	-3.1063	-4.0208	-30.989	136.591	183.413	226.133	40.345	-3.799	-5.183	254.033	246.209	-54.576	251.197	262.220	284.874	264.203	256.556	256.487	0.00027627	0.0038169	0.00056098	1151.3	2.0396e-05	2.295e-05	1620.7	423.84	7.4973e-06	1.4084e-05	689.44	254.71	146.56	49.621	2.9322e-05	96.848	0.0061395	0.0079127	0.0022102	974.82	8.3092e-05	8.7162e-05	1330.6	352.04	8.0252e-05	8.7504e-05	573.82	212.39	126.6	43.005	8.3963e-05	81.807	261.541	26.060	-58.228	-47.743	191.732	63.795	-47.487	-43.010	64.276	125.843	-43.905	-40.254	-39.144	-35.091	116.958	-36.777	-8191	255	
25447.053	1	1	0	0	0.17546	0.31083	0.14313	0.43358	0.060193	0.128	0.31214	0.29246	0.33915	0.076603	0.16797	0.3319	0.065629	0.14341	0.027545	0.28043	-3.0833	-3.25	-3.9833	-3.5167	-3.4875	-3.9542	-3.3333	-3.8646	-3.6604	-3.3604	-4.0646	-3.6521	-3.3542	-3.9583	-3.3333	-3.8646	84.753	128.596	-60.050	264.183	254.423	220.401	237.823	268.826	47.926	-22.068	219.514	272.521	260.411	60.593	207.333	251.706	5.499e-05	0.0028532	0.0006661	1142	2.2744e-05	2.2624e-05	1622.9	424.44	8.5337e-06	1.7529e-05	687.68	254.28	146.12	49.177	1.2394e-05	95.954	0.0062322	0.0078962	0.0022044	970.99	8.4278e-05	8.6839e-05	1325.3	351.75	8.2103e-05	8.6049e-05	574.94	212.26	126.27	42.81	8.446e-05	80.959	170.387	-3.433	29.909	-47.456	102.325	205.951	-47.480	-42.987	282.781	176.995	-44.377	-39.880	-39.243	-35.414	9.232	-37.067	-8191	255	
25447.125	1	1	0	0	0.12536	0.22492	0.15945	0.11702	0.15574	0.31782	0.21819	0.27548	0.19719	0.20488	0.16753	0.28195	0.2486	0.26188	0.17494	0.22202	-3.2979	-3.2542	-3.7708	-3.3896	-3.3917	-4.0062	-3.3708	-3.9896	-3.9792	-3.2708	-3.9104	-3.7417	-3.4896	-4.0167	-3.1979	-3.7479	289.954	-16.556	168.585	298.541	247.931	230.553	227.639	255.434	276.549	-56.895	147.442	287.598	181.930	-25.934	247.650	275.054	0.00051368	0.0017531	0.00033208	1148.1	2.0408e-05	1.8011e-05	1600	421.03	2.615e-05	4.5445e-05	682.67	252.78	145.26	49.179	8.3222e-06	94.797	0.0061661	0.0079627	0.002203	971.62	8.3947e-05	8.8294e-05	1322	351.12	8.3996e-05	8.7699e-05	573.15	211.58	125.26	42.786	8.5403e-05	80.682	275.614	25.577	-30.658	-47.652	238.569	109.493	-47.453	-43.082	293.435	98.946	-43.951	-40.195	-38.986	-35.496	71.751	-36.884	-8191	255	
25447.219	1	1	0	0	0.21809	0.056465	0.11563	0.21278	0.21603	0.24741	0.13856	0.36834	0.18421	0.19289	0.27407	0.22319	0.22882	0.21691	0.10702	0.24832	-3.4437	-3.1375	-3.7167	-3.6729	-3.2896	-4.0146	-3.6104	-3.7604	-3.7979	-3.1125	-3.875	-3.7396	-3.4688	-4.0354	-3.45	-3.5563	107.408	232.810	174.862	279.244	119.139	-7.455	258.161	-57.207	112.506	-4.610	-58.451	277.919	267.407	-16.354	195.528	-56.976	0.00043676	0.0022444	9.5478e-05	1149.4	2.2464e-05	2.442e-05	1609.7	422.73	2.1694e-05	1.0126e-05	686.77	250.14	144.98	49.001	3.6192e-06	95.828	0.0063496	0.0081103	0.0022154	975.66	8.5812e-05	8.7974e-05	1317.3	352.37	8.1953e-05	8.841e-05	573.58	210.11	125.15	42.566	8.3488e-05	81.245	216.639	49.366	186.347	-47.579	-29.456	68.177	-47.784	-43.151	92.682	255.999	-44.171	-40.061	-39.195	-35.059	-20.218	-36.853	-8191	255	
25447.314	1	1	0	0	0.2073	0.082829	0.21419	0.08077	0.1012	0.10654	0.26478	0.21839	0.14229	0.11504	0.32345	0.15567	0.4018	0.087965	0.42426	0.27701	-3.5771	-3.1937	-3.5458	-3.7271	-3.3063	-3.9062	-3.7208	-3.5875	-3.8417	-3.3479	-3.7708	-3.9146	-3.4042	-4.0292	-3.5208	-3.4917	54.560	6.217	160.142	274.214	276.174	212.684	287.730	284.915	120.406	-53.534	224.459	171.224	205.800	-57.559	208.951	214.512	0.00021637	0.0025575	0.0006368	1129.9	2.5935e-05	8.6765e-06	1597.2	418.18	5.6274e-06	2.1914e-06	691.34	251.48	145.97	49.278	2.7774e-05	96.788	0.0060728	0.0076087	0.0021381	962.96	8.0506e-05	8.5055e-05	1314	350.18	7.9105e-05	8.4333e-05	575.04	211.19	125.73	42.915	8.096e-05	81.915	201.119	-10.939	69.851	-47.354	30.387	205.877	-46.997	-42.718	160.380	127.309	-44.033	-39.996	-39.055	-35.273	14.867	-36.652	-8191	255	
25447.436	1	1	0	0	0.035006	0.19137	0.15825	0.27886	0.099119	0.21087	0.36877	0.017847	0.030409	0.056772	0.23958	0.17888	0.18561	0.28264	0.13616	0.12098	-3.5375	-3.2271	-3.5292	-3.8375	-3.1458	-4.0146	-3.7938	-3.5187	-3.9792	-3.3312	-3.7104	-4.0396	-3.1708	-3.8875	-3.65	-3.5062	192.952	135.241	139.690	261.800	119.985	-5.621	222.945	236.999	10.848	296.093	202.972	-55.844	264.550	15.471	198.662	192.717	0.00025519	0.00097148	0.00028747	1156.7	1.0999e-05	2.2029e-05	1601.7	419.71	2.6509e-05	1.8182e-05	696.49	255.47	149.01	49.703	3.1139e-05	96.978	0.006171	0.0077735	0.0021264	973.37	8.1267e-05	8.559e-05	1320.8	352.11	8.0577e-05	8.4234e-05	576.39	212.64	127.01	43.189	8.3731e-05	82.174	257.211	17.705	219.038	-47.339	78.489	52.953	-47.473	-43.240	134.717	24.875	-44.516	-40.039	-39.702	-35.524	65.180	-36.547	-8191	255	
25447.531	1	1	0	0	0.091557	0.11409	0.076771	0.13435	0.21072	0.41582	0.13381	0.25812	0.11878	0.055039	0.33009	0.20198	0.28567	0.17203	0.18419	0.14886	-3.5479	-3.4729	-3.5104	-3.9458	-3.2083	-3.6208	-3.9771	-3.4333	-3.7833	-3.3563	-3.7417	-4.1604	-3.3937	-3.9583	-3.6958	-3.425	-35.612	34.950	-37.942	167.002	257.977	45.564	278.977	285.571	114.415	164.022	-42.436	293.026	276.619	244.452	203.188	232.967	0.00013866	0.00095694	0.0002473	1154.3	9.5374e-06	1.8668e-05	1611.6	424.3	1.3049e-05	2.4659e-05	693.44	257.64	147.27	49.254	2.1382e-05	96.247	0.0061977	0.0079616	0.0022131	974.24	8.2566e-05	8.666e-05	1324.6	353.48	8.3288e-05	8.6997e-05	578.85	214.03	126	42.853	8.5319e-05	81.783	205.371	14.592	105.605	-47.696	210.634	171.275	-47.459	-43.123	246.496	150.482	-44.066	-39.927	-39.170	-35.668	154.376	-36.470	-8191	255	
25447.629	1	1	0	0	0.078546	0.24573	0.26259	0.17493	0.14757	0.2542	0.41569	0.17922	0.067415	0.20896	0.3172	0.26271	0.1666	0.18043	0.05059	0.049598	-3.5083	-3.5042	-3.3104	-4.0917	-3.1333	-3.6188	-3.8979	-3.2583	-3.9833	-3.7083	-3.6063	-4.1083	-3.35	-3.6375	-3.8021	-3.2646	104.295	71.631	91.173	292.629	-60.430	-9.289	237.089	204.465	-2.364	110.595	278.197	232.391	-26.992	-43.435	83.853	-25.459	0.00042291	0.0029288	0.00088055	1156.6	2.2306e-05	1.6412e-05	1629.6	425.45	2.1763e-05	1.6224e-05	684.57	251.89	145.59	49.172	1.8315e-05	95.663	0.0062844	0.0079485	0.0022547	984.09	8.5315e-05	8.8375e-05	1340.6	354.37	8.4658e-05	8.7977e-05	576.59	212.16	126.13	42.92	8.5187e-05	81.31	265.921	268.518	1.522	-47.750	257.272	71.760	-47.345	-42.871	61.503	40.545	-44.427	-39.580	-39.025	-35.100	134.888	-36.708	-8191	255	
25447.699	1	1	0	0	0.1909	0.15081	0.1537	0.11207	0.23876	0.11595	0.22075	0.15804	0.10911	0.15842	0.16304	0.13137	0.19154	0.12683	0.096103	0.194	-3.5167	-3.4333	-3.1542	-4.1188	-3.3083	-3.5417	-4.025	-3.4042	-3.9833	-3.5708	-3.4896	-3.9729	-3.2917	-3.5583	-3.7542	-3.1437	234.174	260.993	57.833	275.922	199.323	292.592	182.707	-60.456	238.740	247.534	196.008	278.530	-42.658	-40.329	-26.885	189.484	0.00027266	0.00090369	0.00030137	1147	9.6974e-06	1.6746e-05	1603.2	423.87	1.8563e-05	2.4974e-05	686.58	250.43	145.86	49.111	3.1968e-06	95.583	0.0063225	0.0079898	0.0022501	976.82	8.4152e-05	8.7549e-05	1328.3	352.87	8.3309e-05	8.6874e-05	575.2	210.59	125.53	42.631	8.2688e-05	80.957	214.850	291.242	54.690	-47.039	-50.109	273.654	-47.766	-42.617	12.814	42.480	-44.368	-39.731	-39.294	-35.137	43.629	-37.055	-8191	255	
25447.820	1	1	0	0	0.081283	0.0947	0.10852	0.1796	0.10185	0.15854	0.073973	0.20643	0.12314	0.029822	0.21378	0.03322	0.27011	0.24356	0.081508	0.2528	-3.4208	-3.6688	-3.2938	-4.15	-3.4188	-3.5292	-4.0604	-3.3208	-3.7417	-3.7125	-3.3063	-4.0333	-3.4458	-3.4917	-3.9083	-3.4125	134.012	9.900	85.718	-27.980	278.932	6.108	259.277	186.591	297.590	197.446	287.052	216.782	14.794	219.777	141.198	249.522	0.00027508	0.00027428	0.0004147	1152	7.5278e-06	2.5395e-05	1601.3	423.06	1.5095e-05	1.5042e-05	685.36	252.48	146.12	48.98	4.0318e-05	96.283	0.0061817	0.0078683	0.0021897	977.14	8.1107e-05	8.6621e-05	1326.6	352.3	8.2371e-05	8.6378e-05	573.93	211.91	125.79	42.707	8.4107e-05	81.055	251.234	13.479	44.695	-47.335	-20.296	153.213	-47.807	-43.124	179.183	32.930	-44.102	-40.008	-39.423	-35.385	37.682	-36.856	-8191	255	
25447.918	1	1	0	0	0.31913	0.081896	0.057745	0.18839	0.048387	0.2605	0.2663	0.18247	0.15287	0.15883	0.070633	0.25909	0.10112	0.18132	0.055992	0.29263	-3.2604	-3.875	-3.3146	-4.0292	-3.3917	-3.4167	-4.0708	-3.4062	-3.6729	-3.8146	-3.2896	-3.8958	-3.6104	-3.2667	-3.9917	-3.3729	140.131	194.237	103.546	-43.852	-0.545	169.503	234.027	292.454	77.454	90.269	179.494	238.736	62.176	242.921	154.024	227.425	0.00047028	0.0033397	0.00061489	1163.9	2.0087e-05	2.64e-05	1623.1	423.23	8.3555e-06	1.0654e-05	686.57	253.52	146.31	49.533	3.8615e-05	97.315	0.0062243	0.008033	0.0022505	982.46	8.4755e-05	8.9027e-05	1337.7	353.5	8.292e-05	8.7854e-05	577.7	212.3	126.24	42.972	8.4245e-05	81.985	-4.846	-2.316	53.452	-47.221	60.071	209.857	-47.414	-43.071	-56.770	2.423	-44.034	-39.729	-39.454	-35.863	75.487	-36.560	-8191	255	
25448.014	1	1	0	0	0.066294	0.0012402	0.18222	0.17196	0.25964	0.05878	0.33808	0.25868	0.055843	0.1418	0.25207	0.20443	0.16505	0.22469	0.24594	0.1877	-3.175	-3.8458	-3.15	-3.9208	-3.7292	-3.3125	-3.8937	-3.3375	-3.3937	-3.925	-3.4125	-3.9854	-3.7104	-3.1875	-3.8167	-3.525	269.621	180.000	183.257	288.099	-5.503	-46.186	234.448	215.309	163.657	-34.975	294.609	-36.371	165.264	30.368	28.904	224.190	0.00020216	0.0020976	0.00091423	1157.1	1.9338e-05	2.8929e-05	1623.3	422.02	9.8344e-06	1.2624e-05	689.81	251.99	145.32	48.621	1.4822e-05	96.413	0.0063018	0.0079743	0.0022322	984.01	8.4583e-05	9.005e-05	1338.7	353.63	8.4799e-05	8.75e-05	578.87	212.29	126.02	42.696	8.3656e-05	81.4	266.011	297.857	-36.492	-47.246	71.231	44.492	-47.253	-42.885	180.255	163.577	-43.619	-40.026	-39.183	-34.236	14.311	-36.949	-8191	255	
25448.133	1	1	0	0	0.21103	0.23141	0.10286	0.16916	0.11683	0.24218	0.28737	0.17747	0.12867	0.25561	0.26665	0.23531	0.22358	0.11081	0.13893	0.33694	-2.9625	-3.8979	-3.0542	-3.775	-3.4667	-3.0604	-4.0312	-3.6708	-3.3896	-3.9292	-3.4958	-3.8417	-3.7104	-3.3917	-3.7854	-3.6271	-27.318	281.912	235.093	-39.770	-26.043	225.138	254.139	257.615	40.625	-56.219	-21.397	209.851	233.885	244.409	160.361	220.638	0.00031863	0.00089899	0.00029621	1162.2	1.3295e-05	1.8573e-05	1616.3	423.89	3.5243e-05	2.0957e-05	685.21	250.58	144.56	48.874	1.7981e-05	95.972	0.0063871	0.0079574	0.0022197	983.6	8.3399e-05	8.8508e-05	1336.8	354.09	8.53e-05	8.9638e-05	575.97	211.78	125.87	42.828	8.492e-05	81.153	60.321	239.162	132.965	-47.373	94.731	235.994	-47.135	-43.127	239.406	45.319	-44.211	-39.758	-39.490	-34.862	127.571	-36.916	-8191	255	
25448.229	1	1	0	0	0.26242	0.25198	0.12768	0.12949	0.087785	0.22192	0.30543	0.21288	0.20057	0.16	0.36876	0.19252	0.16884	0.29118	0.11772	0.1419	-2.8958	-3.7313	-3.3208	-3.6896	-3.8083	-3.0958	-4.0104	-3.6229	-3.3125	-3.8417	-3.2833	-3.6229	-4.0437	-3.1083	-3.7729	-3.6021	190.450	244.210	142.756	249.872	76.943	58.663	252.829	293.420	124.061	-15.370	231.839	274.911	234.706	295.814	36.335	200.260	0.00016928	0.002861	0.00066031	1149.6	3.9624e-05	7.1675e-06	1639	424.81	1.9839e-05	1.7865e-05	685.11	251.36	144.93	49.41	2.3482e-05	97.205	0.0064452	0.0078524	0.0021743	980.38	8.2769e-05	8.685e-05	1340.3	354.34	8.3268e-05	8.666e-05	577.73	213.06	126.03	43.142	8.3862e-05	82.05	-30.001	48.234	92.866	-47.023	107.866	180.954	-46.774	-42.577	-30.702	72.487	-44.273	-39.461	-39.062	-35.005	118.226	-37.015	-8191	255	
25448.324	1	1	0	0	0.091581	0.069498	0.16944	0.093499	0.024495	0.19318	0.29133	0.18186	0.18397	0.13987	0.18491	0.10427	0.2821	0.12575	0.34994	0.11064	-2.9188	-3.85	-3.1771	-3.4062	-3.8375	-3.3583	-3.9833	-3.8646	-3.1833	-4.0083	-3.5958	-3.5771	-3.9521	-3.3	-3.7062	-3.8625	3.076	106.298	204.244	60.577	139.482	-14.852	191.423	271.649	253.745	133.728	262.115	254.710	-26.416	239.272	267.629	246.819	0.00043321	0.0038229	0.00067109	1147.8	6.9369e-06	1.5382e-05	1625.8	420.64	1.9127e-05	1.1191e-05	691.92	255.71	146.65	49.695	2.1197e-05	97.115	0.0062878	0.0078412	0.0021769	982.91	8.1943e-05	8.5114e-05	1347.1	354.07	8.2047e-05	8.4697e-05	579.37	214.66	127.09	43.21	8.4131e-05	82.202	249.559	95.700	77.658	-47.188	105.493	27.971	-47.187	-42.922	101.362	24.263	-44.147	-39.634	-39.501	-35.377	90.867	-37.063	-8191	255	
25448.420	1	1	0	0	0.24257	0.1069	0.13294	0.041014	0.040439	0.11153	0.24067	0.20035	0.026101	0.11088	0.22564	0.2609	0.38352	0.11432	0.10864	0.15309	-2.7333	-3.7667	-3.3563	-3.6667	-3.8042	-3.1833	-3.7062	-3.9833	-3.1854	-3.7562	-3.6146	-3.4271	-3.8604	-3.3292	-3.6417	-3.85	131.536	53.265	170.516	179.558	4.077	276.592	204.203	265.431	259.924	180.321	277.816	275.703	282.581	231.126	-52.916	272.337	0.00016157	0.0021448	0.00055662	1155.2	2.2262e-05	1.1171e-05	1623.2	425.13	1.2354e-05	1.5173e-05	695.27	257.14	146.27	49.472	2.5901e-05	96.354	0.0062626	0.0077589	0.002162	983.98	8.3434e-05	8.527e-05	1343.5	355.49	8.0919e-05	8.5189e-05	578.92	214.28	126.47	43.203	8.2378e-05	81.718	256.824	-23.932	42.471	-47.261	59.914	189.511	-47.155	-43.122	217.668	96.703	-44.530	-39.592	-39.626	-35.722	112.723	-36.320	-8191	255	
25448.516	1	1	0	0	0.059188	0.093382	0.199	0.16774	0.066366	0.26451	0.2538	0.10146	0.096499	0.13085	0.10009	0.044877	0.32444	0.23418	0.27281	0.22773	-2.7125	-3.7438	-3.5604	-3.15	-3.8646	-3.2333	-3.5812	-3.9062	-3.1042	-3.7896	-3.85	-3.5062	-4.0583	-3.5542	-3.3729	-3.9313	242.999	255.000	214.004	235.949	-30.320	22.077	245.061	203.882	130.264	271.987	230.589	259.999	-48.751	221.257	93.804	269.905	0.00015164	0.0021973	0.00024323	1154.3	7.724e-06	1.2804e-05	1639.5	425.96	7.1483e-06	2.531e-05	684	255.94	146.44	49.25	1.9869e-05	96.089	0.0061588	0.0075836	0.002127	984.87	7.9997e-05	8.2739e-05	1345.7	354.48	7.9882e-05	8.4123e-05	578.58	214.3	126.31	42.9	8.1418e-05	81.734	178.008	52.107	277.032	-47.074	41.644	242.857	-46.876	-43.177	-48.505	136.942	-43.993	-39.357	-39.119	-34.886	98.719	-36.543	-8191	255	
25448.611	1	1	0	0	0.23563	0.034576	0.12265	0.24819	0.11187	0.20779	0.28052	0.17306	0.24884	0.34236	0.18244	0.19501	0.069247	0.22291	0.24885	0.16929	-2.7083	-3.5583	-3.6417	-3.3312	-3.8167	-3.5042	-3.6458	-3.9583	-3.1813	-3.4208	-4.0104	-3.3125	-3.8937	-3.4167	-3.2687	-3.9708	285.530	-30.542	208.975	205.621	-25.970	278.303	249.481	221.563	104.594	250.171	-37.893	277.291	31.461	-56.175	195.276	258.278	0.00036139	0.0013695	0.00028766	1161.3	3.3849e-05	2.5525e-05	1632.5	423.54	1.1565e-06	1.5953e-05	692.82	251.76	145.67	48.969	1.726e-05	95.945	0.0062162	0.0075942	0.0021318	983.53	8.0063e-05	8.3504e-05	1345.6	354.77	7.9954e-05	8.4404e-05	581.27	212.41	126.02	43.016	8.3792e-05	81.721	101.992	258.400	-8.938	-47.557	13.754	110.310	-47.362	-42.723	104.965	79.694	-44.222	-39.633	-39.016	-35.570	89.966	-36.342	-8191	255	
25448.732	1	1	0	0	0.19305	0.12051	0.12611	0.24145	0.049826	0.13005	0.50355	0.076355	0.17439	0.13317	0.28738	0.33954	0.2173	0.11263	0.11509	0.10214	-2.95	-3.6979	-3.7188	-3.2042	-3.7646	-3.6208	-3.5125	-4.1042	-3.2417	-3.5354	-3.9354	-3.3146	-3.7896	-3.7812	-3.2375	-4.0125	-44.796	-36.940	-49.980	-7.765	291.055	-43.090	241.655	205.782	269.750	221.740	285.316	270.385	-12.258	-41.300	61.728	191.640	0.00022869	0.0029186	0.00030481	1162.7	9.8815e-06	2.7876e-05	1633.1	425.19	5.9819e-06	2.2835e-05	696.33	254.8	147.06	49.916	2.2688e-05	96.912	0.0061174	0.0077274	0.0021612	986.45	8.2164e-05	8.4886e-05	1349.2	355.49	8.0526e-05	8.6208e-05	581.13	213.67	126.51	43.142	8.5424e-05	82.213	263.894	14.027	-54.175	-47.090	2.036	31.346	-47.191	-42.648	-31.209	122.120	-44.272	-39.588	-38.951	-35.489	145.684	-36.040	-8191	255	
25448.828	1	1	0	0	0.16993	0.18391	0.023385	0.18364	0.26376	0.10138	0.31578	0.1432	0.081484	0.23499	0.052486	0.30379	0.20767	0.17097	0.43143	0.29752	-2.9042	-3.4	-3.9583	-3.2771	-3.6458	-3.6937	-3.4646	-3.9583	-3.3563	-3.4604	-4.1125	-3.3812	-3.8083	-3.7708	-3.0417	-3.9917	201.966	220.168	80.812	187.631	148.770	85.662	263.159	238.475	-2.361	70.550	160.727	-16.309	-43.258	209.069	245.228	244.640	0.00045109	0.0017593	0.00014469	1159.8	3.9262e-05	1.6664e-05	1629.4	420	1.9254e-05	2.3113e-05	686.78	253.65	145.87	49.146	2.1946e-05	96.773	0.0060682	0.0077339	0.0021661	986.21	8.2404e-05	8.5442e-05	1346.8	353.58	8.0156e-05	8.5288e-05	578.6	212.33	126.55	42.897	8.3248e-05	81.745	223.883	275.641	277.561	-47.025	148.327	232.879	-47.238	-42.995	151.412	83.888	-43.896	-39.523	-39.554	-34.895	41.443	-36.723	-8191	255	
25448.926	1	1	0	0	0.19786	0.28332	0.051563	0.20071	0.19843	0.086295	0.13437	0.30246	0.28084	0.083836	0.11657	0.05949	0.1419	0.18838	0.10519	0.57636	-3.0583	-3.3208	-3.6917	-3.2854	-3.6229	-3.5938	-3.3688	-4.0708	-3.3563	-3.3604	-4.0125	-3.4292	-3.4979	-3.8187	-3.1854	-3.7521	220.900	36.633	163.512	254.351	129.910	49.049	210.055	255.791	-8.734	95.230	193.072	53.451	88.170	224.917	147.600	250.149	0.00042866	0.0017204	0.00066932	1158.7	2.5638e-05	1.4852e-05	1632.8	423.13	7.7428e-06	1.51e-05	687.12	253.37	144.3	49.364	2.2067e-06	96.239	0.0061447	0.0077538	0.0021616	985.42	8.1962e-05	8.6093e-05	1342.2	353.22	8.0605e-05	8.5655e-05	575.07	212.1	126.13	43.108	8.1915e-05	81.899	233.528	55.549	-1.975	-47.507	58.443	144.173	-47.377	-42.752	133.057	126.718	-43.917	-40.129	-39.312	-35.359	233.758	-36.368	-8191	255	
25448.996	1	1	0	0	0.029127	0.15852	0.17049	0.42033	0.15442	0.17951	0.13285	0.22224	0.13411	0.15577	0.096532	0.17166	0.079433	0.14881	0.059282	0.23135	-3.0812	-3.0312	-3.7604	-3.5563	-3.4896	-3.7833	-3.3917	-4.0104	-3.475	-3.2042	-4.0729	-3.4792	-3.7271	-3.9167	-3.2167	-3.9229	235.779	137.615	34.720	278.708	-1.920	206.296	256.934	273.298	32.060	116.316	276.872	205.476	208.820	239.841	69.518	191.965	0.00018651	0.00050881	0.00023974	1149.7	2.7012e-05	7.0909e-06	1630.4	422	2.296e-05	9.5984e-06	692.84	252.57	145.1	49.391	2.7465e-05	97.476	0.0061232	0.0077961	0.0021488	980.74	8.0441e-05	8.516e-05	1344.4	353.61	8.0945e-05	8.6401e-05	577.62	212.55	126.3	43.072	8.3076e-05	82.245	-50.930	220.976	67.097	-46.859	76.322	3.586	-47.526	-42.704	-31.320	237.878	-44.192	-39.911	-39.304	-35.375	95.328	-36.742	-8191	255	
25449.115	1	1	0	0	0.061888	0.24168	0.14423	0.0924	0.10889	0.094832	0.12438	0.20665	0.22119	0.16797	0.21291	0.2388	0.028435	0.12599	0.26724	0.10811	-3.1208	-3.0333	-3.9354	-3.5375	-3.2958	-3.9167	-3.4542	-3.8979	-3.6854	-3.1562	-3.8792	-3.5083	-3.3542	-3.9646	-3.2938	-3.7458	21.943	-54.128	-1.790	274.301	-6.222	188.584	222.855	232.130	98.784	163.005	250.571	252.472	224.377	-19.494	124.955	-20.043	0.00015896	0.001635	0.00074793	1157.8	1.6074e-05	1.2217e-05	1632.6	421.15	2.6153e-05	1.8414e-05	691.98	254.54	145.36	50.022	2.9988e-05	97.207	0.0061927	0.0077548	0.0021414	984.24	8.1165e-05	8.3122e-05	1345.7	353.93	8.0458e-05	8.2929e-05	580.63	213.05	126.28	43.388	8.1312e-05	82.344	253.372	-0.107	13.884	-47.030	37.277	271.244	-47.227	-42.746	76.023	97.477	-43.879	-39.978	-39.784	-35.213	53.251	-36.498	-8191	255	
25449.213	1	1	0	0	0.10018	0.11669	0.042668	0.24023	0.3081	0.096792	0.12524	0.13899	0.33367	0.19901	0.039265	0.1454	0.35323	0.25853	0.17124	0.15001	-3.45	-3.1333	-3.7958	-3.5812	-3.1667	-3.8896	-3.4604	-3.7083	-3.7104	-3.2125	-4.0396	-3.6063	-3.3292	-3.8625	-3.2354	-3.6771	111.323	173.093	73.898	-43.764	-43.460	-0.766	211.564	243.803	70.465	6.792	243.260	220.290	260.320	-41.440	94.346	258.527	0.00025025	0.0020052	0.00047474	1149	9.4018e-06	3.1684e-05	1629	421.48	2.0087e-05	3.0429e-05	692.35	254.74	147.72	49.767	1.5614e-05	97.386	0.0060655	0.0075774	0.0020874	982.92	8.1091e-05	8.3101e-05	1343.7	354.4	8.0255e-05	8.437e-05	577.5	212.47	126.52	43.235	8.1107e-05	82.148	137.407	40.069	229.716	-47.787	63.920	31.819	-47.116	-42.621	98.444	48.854	-44.301	-40.261	-39.471	-35.392	84.715	-35.812	-8191	255	
25449.309	1	1	0	0	0.10716	0.31802	0.10799	0.27634	0.13712	0.21235	0.27371	0.10817	0.12289	0.33433	0.2467	0.23087	0.28381	0.13186	0.08625	0.15489	-3.375	-3.1083	-3.8229	-3.7313	-3.4146	-3.8583	-3.3042	-3.6063	-3.7979	-3.0667	-3.9042	-3.8	-3.3167	-3.9646	-3.2146	-3.45	116.405	53.156	204.331	286.141	229.396	271.312	267.606	246.127	145.600	272.451	205.105	236.355	211.332	57.479	-46.375	142.527	0.00042522	0.0022494	0.00028968	1146.3	5.3909e-05	1.6051e-05	1623.7	422.96	2.325e-06	2.4878e-05	692.24	252.13	146.57	49.857	2.5756e-05	96.524	0.0060953	0.0075769	0.0021144	982.98	8.0621e-05	8.5127e-05	1343.2	353.75	7.9937e-05	8.4519e-05	577.45	211.93	126.25	43.2	8.0804e-05	81.808	200.805	-4.526	-55.346	-47.061	106.824	155.820	-47.605	-43.119	73.649	98.614	-43.897	-39.716	-39.453	-35.280	-21.306	-36.525	-8191	255	
25449.404	1	1	0	0	0.19231	0.08851	0.031395	0.21068	0.38872	0.16137	0.26351	0.286	0.086441	0.081171	0.40408	0.28899	0.18542	0.015929	0.20023	0.1065	-3.2875	-3.1	-3.7479	-3.7562	-3.0042	-3.9104	-3.6167	-3.4104	-3.9062	-3.1875	-3.8021	-3.8375	-3.1375	-3.9208	-3.3458	-3.3937	99.962	14.515	208.101	274.445	299.084	3.330	215.920	244.107	241.059	-1.494	275.606	276.641	293.297	-57.254	55.129	280.917	0.0002998	0.0011762	0.00012092	1156.9	1.6971e-05	2.4131e-05	1636.4	423.43	3.9053e-05	1.4178e-05	687.75	255.24	145.25	49.241	3.8351e-05	96.677	0.006177	0.0077152	0.0021607	984.47	8.0224e-05	8.4939e-05	1345.1	353.86	7.9123e-05	8.5027e-05	577.58	212.94	126.13	43.105	8.0642e-05	81.831	289.657	110.611	214.507	-47.034	24.397	44.972	-47.473	-42.871	3.004	-50.554	-43.975	-40.094	-39.042	-35.065	64.595	-36.912	-8191	255	
25449.500	1	1	0	0	0.14977	0.070171	0.20126	0.33209	0.33778	0.13943	0.51103	0.41717	0.07301	0.06185	0.17648	0.24343	0.13498	0.12161	0.36244	0.17321	-3.4813	-3.1021	-3.3958	-3.8917	-3.0646	-3.7687	-3.6333	-3.3333	-3.8458	-3.5167	-3.5438	-3.8063	-3.275	-3.7479	-3.5417	-3.375	57.730	152.567	62.017	288.617	210.476	-12.512	245.293	256.880	76.381	-4.084	231.067	281.740	-54.014	124.002	18.460	243.016	6.7715e-05	0.0016427	0.00068485	1167.8	1.08e-05	1.2652e-05	1648.8	421.27	2.2623e-05	3.4698e-05	693.79	255.24	145.11	49.384	3.1055e-05	97.084	0.0059884	0.0074599	0.002122	986.77	7.9028e-05	8.4353e-05	1347.6	353.32	7.7831e-05	8.2951e-05	579.1	213.81	125.82	43.143	8.1426e-05	82.183	105.400	-57.662	34.813	-47.227	127.660	126.818	-47.678	-43.167	123.333	103.913	-43.867	-39.942	-38.725	-35.346	7.871	-36.421	-8191	255	
25449.598	1	1	0	0	0.14666	0.21557	0.11192	0.16326	0.10781	0.1429	0.19998	0.19955	0.079734	0.090654	0.019798	0.1217	0.31216	0.23929	0.16623	0.19666	-3.6	-3.2	-3.3479	-3.9854	-3.1437	-3.65	-3.8083	-3.4688	-3.8625	-3.4167	-3.475	-4.1979	-3.2562	-3.675	-3.4729	-3.375	290.667	23.368	238.382	297.553	24.261	96.446	166.495	193.512	100.441	112.451	149.286	185.282	244.749	231.329	42.187	279.046	0.00022004	0.0013523	0.00075234	1146.3	1.6692e-06	9.6797e-06	1626.6	420.57	7.8894e-06	1.8384e-05	688.69	251.85	145.39	49.683	3.1132e-05	95.843	0.0060185	0.0074975	0.0021234	976.77	7.7903e-05	8.3e-05	1339	352.17	7.8299e-05	8.2623e-05	576.01	211.46	125.5	43.155	7.8801e-05	81.518	123.905	293.864	42.665	-47.380	128.469	18.318	-47.404	-42.849	-32.723	273.103	-43.914	-39.752	-39.052	-35.498	37.517	-36.611	-8191	255	
25449.693	1	1	0	0	0.10593	0.17994	0.22209	0.21118	0.030311	0.39975	0.19954	0.17614	0.15635	0.061598	0.14143	0.13834	0.20548	0.097015	0.14144	0.081214	-3.4458	-3.3292	-3.2458	-3.9083	-3.2396	-3.5542	-3.8917	-3.2542	-3.8229	-3.45	-3.325	-4.0854	-3.3708	-3.675	-3.7771	-3.0979	-7.676	113.363	-12.074	248.836	291.836	196.325	234.828	189.427	-19.552	292.380	215.940	187.023	278.800	277.808	15.708	96.023	0.0003595	0.0013298	0.00046375	1163.8	1.6503e-05	1.973e-05	1633.1	424.56	1.0996e-05	1.4323e-05	686.55	252.7	145.73	49.095	1.5837e-05	96.193	0.005882	0.0073762	0.002095	983.19	7.7466e-05	8.1833e-05	1337.4	351.85	7.7178e-05	8.2077e-05	572.27	211.41	125.15	42.703	7.9305e-05	81.236	271.898	126.014	6.757	-47.020	46.558	-26.070	-47.097	-43.131	-58.516	73.917	-44.348	-40.120	-39.831	-35.618	118.510	-36.928	-8191	255	
25449.812	1	1	0	0	0.015952	0.17033	0.18926	0.054715	0.11052	0.064467	0.43602	0.11545	0.19846	0.016984	0.14542	0.228	0.36883	0.4054	0.19605	0.22729	-3.3042	-3.5958	-3.0271	-3.8896	-3.3042	-3.5229	-3.9854	-3.2396	-3.8125	-3.525	-3.3	-3.8937	-3.425	-3.5354	-3.6583	-3.1813	108.727	43.372	244.071	139.477	179.409	116.473	216.701	248.401	140.470	262.845	-50.423	244.321	273.699	282.797	29.120	-7.681	0.00024815	0.00161	0.00041745	1163.3	4.2053e-05	1.9441e-05	1622.1	419.39	1.2288e-05	1.1887e-05	690.94	251.89	145.11	49.802	1.469e-05	96.218	0.0057926	0.0072219	0.0020518	976.43	7.5894e-05	8.1256e-05	1332.9	349.95	7.6551e-05	8.0604e-05	574.34	210.83	124.84	43.084	7.7691e-05	81.457	295.596	51.512	77.938	-47.384	149.831	-13.118	-47.338	-42.930	250.372	157.725	-43.856	-39.751	-38.861	-35.286	25.681	-36.396	-8191	255	
25449.908	1	1	0	0	0.042877	0.12251	0.051391	0.35643	0.062466	0.057258	0.27603	0.087865	0.058167	0.22029	0.36578	0.43657	0.30356	0.15808	0.047135	0.36563	-3.4021	-3.45	-3.1521	-3.8417	-3.3583	-3.45	-4.0292	-3.2354	-3.7812	-3.6188	-3.2812	-4.1208	-3.4292	-3.3083	-4.0271	-3.3042	268.760	27.474	176.989	215.996	87.648	42.938	176.362	6.671	110.344	142.322	254.540	279.114	190.789	255.870	191.309	237.452	0.00048585	0.0015252	0.00017293	1148	1.8672e-05	1.5526e-05	1609.7	419.35	5.9779e-06	1.1953e-05	684.51	252.37	145.1	49.313	2.0688e-05	95.938	0.0057309	0.0072921	0.0020346	976.4	7.6495e-05	7.9689e-05	1332.7	349.64	7.4918e-05	8.0368e-05	570.56	210.41	124.45	42.765	7.5889e-05	80.943	211.167	-6.783	276.429	-47.382	75.311	88.023	-47.210	-42.717	-22.128	44.230	-43.739	-39.697	-39.220	-35.134	170.061	-36.755	-8191	255	
25450.006	1	1	0	0	0.21646	0.24698	0.16781	0.097687	0.27256	0.19509	0.18727	0.31928	0.13754	0.090535	0.3105	0.22474	0.024233	0.27673	0.078861	0.30576	-3.1979	-3.7542	-3.2479	-3.9125	-3.3896	-3.4562	-4.075	-3.4375	-3.5771	-3.6167	-3.0625	-3.9292	-3.4854	-3.3042	-3.85	-3.4521	183.116	293.069	54.373	255.508	141.384	238.165	190.788	221.369	254.384	190.471	262.906	280.063	5.313	233.247	108.227	248.763	0.00056843	0.0011596	0.00056009	1157.8	4.9696e-06	2.3449e-05	1640.8	422.06	5.3632e-06	1.6876e-05	685.88	252.38	145.36	49.746	1.9364e-05	96.968	0.0057452	0.0070803	0.0020381	970.61	7.5816e-05	7.8707e-05	1329.6	347.49	7.5266e-05	7.9969e-05	564.68	208.38	123.43	42.551	7.7448e-05	80.424	254.257	-36.516	28.322	-47.537	277.345	97.407	-48.058	-43.340	146.817	41.382	-44.848	-40.288	-39.917	-35.523	229.971	-36.943	-8191	255	
25450.102	1	1	0	0	0.19339	0.11202	0.15754	0.25184	0.026526	0.16212	0.37178	0.24915	0.15214	0.057218	0.3129	0.32099	0.040108	0.24512	0.17785	0.22942	-3.1375	-3.6771	-3.1708	-3.7229	-3.6312	-3.0896	-4.1146	-3.5667	-3.3646	-3.7667	-3.3312	-3.8583	-3.5062	-3.3646	-3.8708	-3.3625	63.028	143.645	154.365	268.884	261.080	-49.343	185.843	-49.806	102.134	-57.660	-48.317	-53.665	244.666	44.576	186.631	275.174	0.00064876	0.0016441	0.00068802	1167	5.7667e-06	8.5376e-06	1643.8	427.53	1.805e-05	1.3258e-05	690.41	254.59	146.72	50.236	3.1563e-05	97.188	0.0057457	0.007145	0.0019839	970.7	7.5317e-05	7.8979e-05	1329.1	349.09	7.4744e-05	7.834e-05	565.56	209.25	123.89	42.47	7.5232e-05	80.796	282.964	49.538	69.678	-47.126	185.238	248.950	-47.888	-43.533	99.002	22.298	-44.916	-39.893	-40.046	-35.618	117.953	-37.517	-8191	255	
25450.221	1	1	0	0	0.029374	0.072717	0.086561	0.13338	0.1429	0.2332	0.11183	0.41357	0.17753	0.093178	0.15993	0.30836	0.019409	0.27244	0.16408	0.073981	-2.8563	-3.9208	-2.9125	-3.7958	-3.5812	-3.1896	-4.0354	-3.4229	-3.3271	-3.8792	-3.4313	-3.5625	-3.7771	-3.25	-3.7938	-3.4833	232.633	68.543	16.098	287.143	287.397	36.831	-49.668	294.575	14.112	115.431	218.917	283.743	-37.451	-44.478	46.939	217.189	0.00037067	0.0014621	0.0003361	1163.8	1.7892e-05	2.1848e-06	1640.6	427.86	2.8497e-05	2.0291e-05	691.22	256.21	146.38	50.026	6.5602e-06	97.955	0.0056659	0.0070505	0.0019345	968.11	7.3549e-05	8.0027e-05	1330.9	349.31	7.51e-05	7.862e-05	567	210.93	124.32	42.733	7.6653e-05	81.114	230.313	32.770	-61.564	-47.885	100.460	193.513	-47.893	-43.610	88.645	-44.081	-44.808	-40.461	-39.807	-35.990	265.403	-36.948	-8191	255	
25450.293	1	1	0	0	0.35685	0.15262	0.20758	0.059083	0.24583	0.25188	0.12833	0.19326	0.10713	0.19051	0.38064	0.32717	0.27762	0.24006	0.1186	0.25624	-2.8542	-3.7917	-3.275	-3.6854	-3.7167	-3.0604	-4.075	-3.7208	-3.2938	-3.8667	-3.4313	-3.3958	-3.8896	-3.2125	-3.7667	-3.7375	-24.762	122.694	224.821	249.724	142.423	269.292	181.069	285.687	-53.844	276.452	258.237	287.191	265.199	-32.445	88.119	199.570	0.00010551	0.0015081	0.00070636	1178.6	1.4791e-05	1.4219e-05	1639.2	424.17	6.8859e-06	2.8131e-05	695.07	255.58	145.99	49.994	7.4404e-06	96.874	0.0056847	0.0071011	0.0020129	971.88	7.5222e-05	7.9497e-05	1327.3	348.35	7.3598e-05	7.7653e-05	567.07	209.58	123.41	42.717	7.437e-05	80.373	203.839	268.034	128.205	-47.714	153.913	164.941	-47.598	-43.448	282.289	44.710	-44.804	-40.216	-40.206	-35.755	189.178	-37.531	-8191	255	
25450.412	1	1	0	0	0.052145	0.14368	0.12274	0.14799	0.042462	0.06204	0.19454	0.056822	0.011536	0.13536	0.19887	0.19196	0.36069	0.036522	0.2641	0.073645	-2.8812	-3.8125	-3.1333	-3.4	-3.7521	-3.2021	-3.7625	-3.7438	-3.1792	-3.9354	-3.425	-3.375	-3.8042	-3.3083	-3.5583	-3.7542	285.140	4.645	5.896	209.502	84.571	-59.945	278.945	189.477	275.368	43.324	208.505	227.644	281.453	179.639	115.877	117.067	0.00032832	0.0010969	7.3144e-05	1164.4	1.8387e-05	6.8842e-06	1643.1	423.53	2.298e-05	1.0645e-05	691.59	253.96	145.64	50.004	2.0179e-05	97.086	0.0056145	0.0069258	0.0019517	969.43	7.3542e-05	7.6484e-05	1323	347.58	7.217e-05	7.5794e-05	566.01	208.9	123.49	42.526	7.4278e-05	80.821	295.543	264.100	-55.936	-47.431	91.880	183.961	-47.849	-43.646	57.952	84.117	-44.892	-40.524	-39.511	-36.312	79.102	-37.557	-8191	255	
25450.510	1	1	0	0	0.01908	0.2217	0.22756	0.2038	0.19634	0.1277	0.41468	0.18256	0.040893	0.11482	0.29996	0.12286	0.20341	0.50922	0.13492	0.1966	-2.8937	-3.8083	-3.2417	-3.3937	-3.7667	-3.1021	-3.6937	-3.8417	-3.0229	-3.7313	-3.5521	-3.175	-3.8187	-3.3854	-3.4604	-3.925	41.566	-9.056	93.816	197.519	237.719	119.556	210.623	244.739	196.094	139.232	247.088	225.719	3.226	266.747	223.734	-60.265	0.00015594	0.0012068	0.00056806	1167	8.3547e-06	3.2563e-05	1627.6	426.97	3.8556e-05	1.8473e-05	685.89	253.91	147.41	50.898	2.1326e-05	96.855	0.0056069	0.0068646	0.001965	968.65	7.1969e-05	7.6245e-05	1319.7	347.52	7.1298e-05	7.6194e-05	564.2	208.35	123.97	42.82	7.6386e-05	80.497	-41.788	5.126	29.879	-47.841	-55.407	34.721	-48.004	-43.884	136.556	221.716	-44.900	-39.938	-39.516	-36.025	157.769	-38.113	-8191	255	
25450.605	1	1	0	0	0.10732	0.10601	0.20421	0.33917	0.11988	0.17938	0.095321	0.34723	0.1831	0.10988	0.16716	0.21923	0.30032	0.067188	0.18888	0.13014	-2.7313	-3.6813	-3.4729	-3.3396	-3.7188	-3.2687	-3.6562	-3.8375	-3.175	-3.5333	-3.65	-3.3917	-3.9083	-3.4021	-3.2979	-4.0208	-22.992	172.411	285.507	232.034	218.919	156.821	269.911	1.219	227.843	62.114	255.261	193.776	-53.545	292.964	-21.857	220.536	0.0007348	0.0017648	0.00011804	1165.8	1.4918e-05	8.7295e-06	1647.6	424.97	6.406e-06	3.4462e-05	691.46	255.26	145.57	50.05	3.5827e-05	97.682	0.005532	0.0069203	0.001947	968.53	7.2644e-05	7.7421e-05	1322.8	348.05	7.2968e-05	7.6929e-05	568.23	209.81	123.76	42.638	7.5756e-05	81.346	256.488	16.602	-23.037	-48.125	80.409	265.340	-47.952	-43.415	-3.466	85.883	-44.568	-40.312	-39.769	-35.530	168.067	-37.322	-8191	255	
25450.701	1	1	0	0	0.11096	0.087383	0.17746	0.13934	0.29499	0.073875	0.18226	0.21396	0.057349	0.27659	0.22477	0.15986	0.064522	0.0054307	0.14446	0.17691	-2.6958	-3.4271	-3.6708	-3.15	-3.825	-3.2062	-3.3937	-3.9771	-3.025	-3.5979	-3.7812	-3.1521	-3.8125	-3.5333	-3.2	-4.0312	-21.645	143.899	132.418	145.707	-61.000	-26.220	210.699	206.169	139.624	-59.818	270.077	293.124	218.281	19.874	153.575	164.700	0.00050211	0.0015838	0.00059865	1162	1.5028e-05	3.9723e-06	1638.7	424.2	4.2526e-06	2.0447e-05	684.13	255.08	145.91	50.287	1.3366e-05	97.211	0.0055139	0.0070494	0.00196	964.9	7.1816e-05	7.6386e-05	1324.8	347.92	7.2231e-05	7.5964e-05	564.41	209.79	123.61	42.59	7.4149e-05	80.84	-59.884	27.108	6.370	-47.784	125.691	73.174	-47.809	-43.151	39.358	73.839	-44.657	-40.347	-39.685	-36.217	73.141	-36.976	-8191	255	
25450.799	1	1	0	0	0.22821	0.13967	0.10851	0.29519	0.25801	0.10348	0.19601	0.1603	0.11624	0.16363	0.1883	0.27435	0.085284	0.34655	0.13806	0.17812	-2.8208	-3.5563	-3.6917	-3.3583	-3.6813	-3.4833	-3.4792	-3.9729	-3.2208	-3.4479	-3.9104	-3.2708	-3.8333	-3.6667	-3.1521	-3.8854	170.029	-12.324	127.037	248.566	262.623	284.320	256.980	-59.878	165.115	201.465	238.644	268.317	91.334	281.549	36.056	194.849	0.00023626	0.0013744	0.0004643	1164.7	1.976e-05	2.3679e-05	1625.4	423.6	6.1443e-06	3.1989e-05	689.67	254.27	146.65	49.902	1.9507e-05	97.041	0.0054701	0.006838	0.0019374	966.79	7.3291e-05	7.61e-05	1320.8	347.87	7.1316e-05	7.6334e-05	565.51	209.24	124.28	42.69	7.4507e-05	81.018	-51.015	298.001	14.640	-47.583	41.774	31.462	-47.490	-43.299	87.954	57.243	-44.576	-40.390	-39.549	-35.811	67.072	-37.079	-8191	255	
25450.895	1	1	0	0	0.089507	0.2855	0.10359	0.16164	0.13794	0.12747	0.213	0.28359	0.085442	0.067689	0.24153	0.29359	0.38724	0.32779	0.16268	0.078695	-2.7854	-3.3729	-3.6937	-3.3604	-3.5563	-3.5417	-3.3979	-4.1542	-3.475	-3.4292	-4.0104	-3.1646	-3.7146	-3.7979	-3.2354	-4.0542	7.074	160.033	178.952	244.574	253.251	15.174	250.358	288.452	-13.224	107.111	-60.611	255.738	289.154	201.441	102.545	221.904	0.00026435	0.0020617	0.00063677	1158.7	1.4883e-05	3.253e-05	1633.6	424.49	1.6477e-05	9.629e-06	686.38	254.78	146.58	49.824	1.4711e-05	97.587	0.0053008	0.0068707	0.0018985	961.94	7.168e-05	7.4142e-05	1320.5	348.85	7.1444e-05	7.6083e-05	566.25	210.61	125.1	42.804	7.258e-05	81.644	209.241	61.059	-28.417	-47.501	20.374	-1.342	-47.765	-43.356	195.506	288.200	-44.786	-39.537	-39.267	-35.783	50.379	-36.885	-8191	255	
25450.990	1	1	0	0	0.28973	0.13239	0.010132	0.12761	0.14085	0.059346	0.28431	0.25333	0.032584	0.23201	0.27529	0.2327	0.067948	0.13599	0.045727	0.10772	-2.8729	-3.4021	-3.7479	-3.2313	-3.575	-3.6688	-3.2583	-3.9354	-3.4333	-3.2833	-4	-3.3479	-3.5646	-3.8083	-3.15	-3.8458	218.697	49.431	152.034	248.125	226.634	40.827	239.692	276.213	-57.382	100.403	288.845	264.593	58.806	180.851	223.761	116.878	0.00055089	0.0013609	0.00057139	1149.9	3.4874e-05	2.5783e-05	1618.1	424.5	1.8763e-05	4.0158e-06	691.64	256.27	146.56	50.307	3.4923e-05	98.78	0.0054055	0.0068921	0.0019017	965.77	7.2422e-05	7.6998e-05	1324.7	350.02	7.3565e-05	7.7468e-05	570.11	212.4	125.24	43.178	7.5231e-05	82.411	66.845	31.641	19.090	-47.660	152.885	-40.899	-47.724	-43.259	47.906	102.312	-44.711	-39.856	-39.439	-35.581	69.615	-36.555	-8191	255	
25451.086	1	1	0	0	0.18351	0.13786	0.22335	0.10776	0.20732	0.098219	0.18617	0.18547	0.37285	0.13233	0.22677	0.18125	0.053372	0.19295	0.10004	0.048376	-3.0708	-3.1979	-3.7979	-3.5271	-3.3708	-3.9	-3.2021	-3.7854	-3.4979	-3.2	-4.0896	-3.4417	-3.4667	-3.925	-3.1479	-3.7083	274.378	-36.408	0.235	273.282	249.237	69.965	-52.577	287.425	231.234	150.015	-4.557	273.308	11.857	9.202	-9.729	-45.347	0.00022954	0.0002845	0.0001811	1152.2	1.8587e-05	1.3846e-05	1622.6	422.96	1.4935e-05	1.1592e-05	690.83	255.88	145.79	50.065	3.2567e-05	98.466	0.0056383	0.0069929	0.0019777	965.71	7.4984e-05	7.7108e-05	1325.4	349.77	7.3097e-05	7.7132e-05	571.02	211.76	125	43.058	7.5787e-05	82.456	217.333	52.215	197.809	-47.412	267.051	118.756	-47.762	-43.135	225.337	139.570	-44.541	-40.441	-39.201	-35.785	-19.435	-36.524	-8191	255	
25451.182	1	1	0	0	0.11801	0.023346	0.026237	0.060211	0.17284	0.15197	0.24216	0.2223	0.10197	0.11033	0.13497	0.28689	0.16367	0.013731	0.023294	0.14439	-3.1708	-3.1646	-3.75	-3.3979	-3.3292	-3.9104	-3.3417	-3.8146	-3.5479	-3.1396	-3.9188	-3.5375	-3.2479	-3.9146	-2.9792	-3.7083	-53.090	146.594	-9.498	10.448	-33.602	258.196	243.421	282.643	255.637	-31.822	267.834	270.530	37.049	1.613	-20.155	-47.236	7.9658e-05	0.0055085	0.00047508	1142.3	2.3438e-05	7.4505e-06	1613.7	424.41	9.6549e-06	7.8483e-06	692.67	256.49	147.09	49.987	1.1521e-06	98.545	0.0056596	0.0070709	0.0019399	966.25	7.5021e-05	7.6592e-05	1323	351.68	7.263e-05	7.7466e-05	574.25	213.41	125.72	43.255	7.5761e-05	82.891	292.111	-4.401	100.542	-47.522	53.995	165.070	-47.448	-43.378	153.990	56.135	-44.069	-40.111	-39.024	-35.459	103.572	-36.964	-8191	255	
25451.301	1	1	0	0	0.035132	0.17235	0.24031	0.20673	0.24923	0.43302	0.30431	0.10931	0.03329	0.20246	0.33402	0.32359	0.081719	0.12317	0.079823	0.31536	-3.2458	-3.2125	-3.6521	-3.5396	-3.275	-4.0229	-3.3854	-3.7792	-3.6979	-3.2271	-4.0938	-3.5792	-3.3271	-3.8979	-3.0938	-3.5042	208.548	44.495	286.165	266.350	6.901	71.321	199.504	225.994	82.619	200.037	231.232	293.324	58.966	1.020	33.180	182.906	0.00011887	0.0028598	0.00050118	1149.5	5.9434e-06	9.2505e-06	1632.2	421.22	4.7684e-06	1.6746e-05	690.67	258.82	149.33	51.01	1.9906e-05	100.22	0.005659	0.0071852	0.0019936	966.76	7.6923e-05	7.9609e-05	1334.4	351.4	7.6217e-05	8.1545e-05	576.39	214.53	127.51	43.785	7.9019e-05	84.002	271.973	20.883	78.813	-47.344	169.365	180.668	-47.356	-43.222	180.770	155.930	-44.315	-40.081	-39.696	-35.275	151.326	-37.032	-8191	255	
25451.396	1	1	0	0	0.03995	0.2389	0.19181	0.043076	0.29989	0.14368	0.31682	0.25006	0.41306	0.065875	0.2524	0.17211	0.2782	0.25857	0.272	0.32916	-3.2979	-3.2667	-3.625	-3.5958	-3.0917	-3.9583	-3.5104	-3.5812	-3.7271	-3.0187	-3.85	-3.8458	-3.2	-3.9292	-3.4104	-3.5021	-13.386	119.564	234.346	276.169	184.271	2.575	268.018	190.353	-7.114	21.598	-38.172	261.990	251.882	-56.176	188.174	233.297	0.00042504	0.0033165	0.00035495	1147.2	1.8525e-05	3.6548e-05	1636.8	425.66	2.4869e-05	2.0999e-05	699.38	263.71	149.38	51.454	2.0546e-05	100.91	0.0058546	0.0071674	0.0020538	972.86	7.651e-05	8.0068e-05	1337	354.55	7.6539e-05	7.9364e-05	582.28	217.35	127.69	44.308	7.7852e-05	84.784	110.087	98.003	83.167	-47.381	124.944	101.046	-47.525	-42.696	254.399	251.153	-43.926	-39.871	-39.029	-35.425	28.337	-36.819	-8191	255	
25451.492	1	1	0	0	0.13241	0.28368	0.11844	0.17824	0.079804	0.17497	0.278	0.17813	0.13757	0.22797	0.12346	0.08605	0.40176	0.20963	0.14469	0.26142	-3.5458	-3.1208	-3.9021	-3.6208	-3.1	-3.9417	-3.5729	-3.475	-3.7542	-3.1146	-3.9396	-3.8208	-3.3708	-3.9167	-3.6063	-3.5187	236.218	37.398	208.071	246.594	63.964	207.977	238.429	266.885	107.846	225.381	-28.042	-59.530	239.045	-58.007	54.482	252.009	0.00033399	0.0024528	9.2588e-05	1155.3	2.0682e-05	2.9743e-05	1640.3	426.36	1.7871e-05	1.9299e-05	700.64	262.23	150.42	51.046	1.0204e-05	101	0.0057015	0.0073304	0.0020039	971.8	7.6192e-05	7.9025e-05	1337.6	354.27	7.4155e-05	7.9178e-05	581.51	217.6	128.66	44.28	7.6981e-05	84.967	208.599	-0.061	81.498	-47.677	226.606	71.896	-47.381	-43.207	128.261	34.611	-44.349	-39.685	-39.139	-35.648	99.581	-36.666	-8191	255	
25451.590	1	1	0	0	0.18011	0.18385	0.17536	0.17005	0.13668	0.17316	0.25697	0.48569	0.23226	0.16328	0.38986	0.11045	0.4335	0.2809	0.21797	0.20522	-3.65	-3.1604	-3.5208	-3.9417	-3.1813	-3.7917	-3.8187	-3.3333	-4.0167	-3.2604	-3.6896	-3.8229	-3.3208	-3.7188	-3.6542	-3.3875	7.006	209.861	-41.408	289.186	-6.765	188.688	225.538	214.449	77.486	11.447	252.699	-44.075	267.989	-11.022	170.223	250.828	0.00050602	0.0013527	0.00081114	1150	2.6876e-05	2.8276e-05	1632.3	428.35	2.0958e-05	1.4639e-05	703.53	261.36	149.78	51.312	2.3376e-05	101.44	0.0056557	0.0070033	0.0019974	972.67	7.5314e-05	7.8679e-05	1337.6	355.35	7.454e-05	7.7256e-05	583.88	218.03	127.8	44.262	7.5339e-05	84.834	284.245	4.481	0.792	-47.550	100.665	108.152	-47.579	-43.073	121.652	-37.894	-44.294	-39.952	-39.527	-35.528	71.993	-36.750	-8191	255	
25451.686	1	1	0	0	0.17836	0.15739	0.20938	0.23632	0.19898	0.087777	0.30724	0.28418	0.046462	0.12318	0.1302	0.2881	0.17502	0.44877	0.318	0.1358	-3.5208	-3.2604	-3.4271	-3.7854	-3.1146	-3.7188	-3.7979	-3.3563	-3.8458	-3.4167	-3.3917	-4.0229	-3.2938	-3.7229	-3.5729	-3.1792	256.685	165.969	9.357	286.746	120.961	96.570	278.346	288.330	36.704	-57.741	254.150	247.034	-60.403	221.784	-55.886	182.768	0.00021717	0.0016747	0.00065683	1147.8	1.9226e-06	1.0782e-05	1636.3	427.28	7.7199e-06	1.3932e-05	706.91	263.77	150.78	51.641	1.3436e-05	102.34	0.0056537	0.0071242	0.0019695	970.84	7.5083e-05	7.7379e-05	1337.8	354.95	7.4208e-05	7.7343e-05	587.67	219.04	128.72	44.489	7.5054e-05	85.483	14.732	10.959	11.288	-47.235	100.200	115.492	-47.584	-43.285	32.062	15.276	-44.296	-39.691	-39.386	-34.773	242.542	-36.637	-8191	255	
25451.781	1	1	0	0	0.31305	0.073421	0.18558	0.088267	0.19292	0.082689	0.25797	0.25998	0.15202	0.15399	0.40138	0.22635	0.17867	0.15271	0.23471	0.086211	-3.4125	-3.325	-3.2604	-4.0146	-2.9229	-3.4292	-3.8167	-3.3708	-3.8708	-3.4688	-3.3667	-4.0312	-3.1042	-3.4646	-3.7812	-3.3854	-35.868	19.539	103.074	-34.724	66.343	35.252	277.915	285.105	12.994	223.071	248.323	260.381	284.887	222.304	182.207	-53.507	0.00033318	0.0013695	0.00015847	1164.6	3.2305e-05	2.2596e-05	1631.7	429.07	1.778e-05	3.4781e-05	714.95	267.05	151.67	52.182	1.069e-05	102.04	0.0056026	0.0070407	0.0019454	974.49	7.317e-05	7.8417e-05	1343.6	355.93	7.343e-05	7.8658e-05	592.32	222.19	129.45	44.855	7.6914e-05	85.922	270.887	-18.939	-17.619	-47.651	52.960	162.287	-47.527	-43.231	232.117	130.154	-44.122	-40.351	-39.511	-35.432	38.628	-36.990	-8191	255	
25451.902	1	1	0	0	0.14456	0.076313	0.12709	0.076475	0.05322	0.18775	0.072552	0.24854	0.080666	0.1341	0.16738	0.42766	0.37365	0.20133	0.23204	0.13136	-3.4583	-3.55	-3.2542	-4.0604	-3.2375	-3.4313	-3.9521	-3.3146	-3.7938	-3.4854	-3.4188	-4.0958	-3.2542	-3.5187	-3.7771	-3.4333	253.584	-25.663	-50.281	-9.270	94.657	-46.956	273.407	268.597	41.456	285.768	216.469	270.831	292.361	213.458	-4.275	218.738	0.0004103	0.0021104	0.00056324	1151.4	2.4692e-05	1.8921e-05	1635.7	432.15	1.3741e-05	1.2618e-05	701.87	263.54	149.2	51.124	3.2502e-05	100.61	0.005671	0.0071092	0.0020047	972.29	7.5497e-05	8.1087e-05	1340.2	356.97	7.6538e-05	8.097e-05	585.53	218.85	128.66	44.223	7.7982e-05	84.597	-53.091	17.660	31.003	-47.535	56.693	137.295	-47.358	-42.780	151.892	215.262	-44.023	-39.807	-39.529	-34.793	63.856	-36.646	-8191	255	
25451.998	1	1	0	0	0.11358	0.16605	0.31489	0.15577	0.043681	0.12307	0.21057	0.2146	0.22765	0.16718	0.22937	0.35069	0.10596	0.16237	0.17124	0.21248	-3.3375	-3.55	-3.0167	-3.8542	-3.5042	-3.2812	-3.9833	-3.3958	-3.725	-3.5875	-3.1729	-3.8812	-3.2979	-3.3521	-3.9021	-3.4604	55.864	-59.386	-19.805	271.934	184.459	79.223	237.768	249.612	76.149	168.336	245.204	272.274	254.698	223.916	85.084	277.626	0.00027427	0.0014694	0.00018021	1151.2	7.5418e-06	1.6702e-05	1628	425.05	4.3792e-06	3.9012e-05	700.5	260.02	148.87	50.9	8.4337e-06	100.65	0.0058691	0.0072118	0.0020208	973.71	7.5575e-05	7.9623e-05	1336.6	353.27	7.4938e-05	7.98e-05	582.96	217.63	127.97	44.099	7.7172e-05	84.548	-46.186	18.763	132.583	-47.193	-36.077	164.222	-47.249	-42.521	138.857	171.155	-43.783	-39.981	-39.231	-35.020	2.855	-36.887	-8191	255	
25452.096	1	1	0	0	0.14445	0.089624	0.071977	0.19852	0.15458	0.086901	0.20039	0.099277	0.15328	0.15765	0.29877	0.23717	0.057362	0.27851	0.058529	0.27774	-3.1437	-3.6229	-3.1937	-3.8854	-3.4167	-3.025	-4.0271	-3.2583	-3.5833	-3.9396	-3.3812	-4.0125	-3.4521	-3.3042	-3.9	-3.6104	-12.733	148.260	205.738	297.305	-6.210	54.441	229.621	262.834	196.210	23.977	249.776	220.910	250.228	184.162	133.901	213.249	0.00044938	0.0020651	0.00024727	1146.9	2.2664e-05	2.8669e-05	1624.5	425.29	1.2564e-05	3.0086e-06	702.01	263.87	150.23	51.705	3.048e-05	100.26	0.0057489	0.0072385	0.001988	971.42	7.5042e-05	7.9848e-05	1332.3	353.79	7.4811e-05	7.8171e-05	584.84	220.32	129.17	44.752	7.5027e-05	85.031	-47.623	284.032	128.696	-46.908	139.759	180.720	-47.211	-42.761	-46.503	168.573	-43.843	-39.842	-39.409	-34.953	-30.825	-36.777	-8191	255	
25452.189	1	1	0	0	0.18653	0.13658	0.079232	0.18161	0.077526	0.22868	0.30402	0.25816	0.16201	0.13349	0.30766	0.070777	0.33333	0.28	0.1719	0.22567	-3.1208	-3.7583	-3.1396	-3.7875	-3.6312	-3.1937	-4.0583	-3.3625	-3.3458	-3.7542	-3.2396	-3.8	-3.625	-3.2875	-3.8167	-3.5062	247.090	147.693	229.796	188.277	3.751	180.396	251.100	281.339	-5.428	201.219	298.996	196.091	252.865	293.237	-42.722	219.414	0.00015786	0.00079302	3.8843e-05	1145.9	3.0744e-05	6.324e-06	1629.6	429.28	1.1883e-05	2.0323e-05	708.04	264.03	151.69	51.331	1.6866e-05	101.38	0.0057037	0.0070329	0.0019934	971.56	7.418e-05	7.8312e-05	1337.7	355.6	7.346e-05	7.8907e-05	586.25	218.88	128.81	44.314	7.7537e-05	85.042	281.682	250.222	249.154	-47.453	71.585	145.150	-47.355	-42.980	21.745	104.760	-43.924	-40.044	-39.089	-35.337	64.000	-37.058	-8191	255	
#DATA ENDS
