BOXY.EXE: ISS Imagent and Oximeter Data Acquisition Program Version 0.80
Ascii Record File

#ACQ INFORMATION
2  Detector Channels 
16  External MUX Channels 
1  Auxiliary Channels 
5000  Waveform (CCF) Frequency (Hz)
1  Waveforms Skipped 
30  Waveforms Averaged 
1  Cycles Averaged 
16  Acquisitions per Waveform 
10.0806  Updata Rate (Hz) 

#FILE INFORMATION
TRUE -- External MUX Channel results are PARSED.
FALSE -- AC DC and Phase are NOT grouped.
TRUE -- Companion Program Settings File CREATED.
FALSE -- AC data not excluded
FALSE -- DC data not excluded
FALSE -- Phase data not excluded
FALSE -- Auxillary Chn. data not excluded
Tab delimiters

#CALIBRATION STATE
TRUE -- Waveform Calibration Values APPLIED.


#AUX CALIBRATION VALUES
Val Type	aux-1	

Term	1.0000e+00	
Factor	0.0000e+00	


#WF CALIBRATION VALUES
A = Detector Channel
Val Type	A-AC1	A-AC2	A-AC3	A-AC4	A-AC5	A-AC6	A-AC7	A-AC8	A-AC9	A-AC10	A-AC11	A-AC12	A-AC13	A-AC14	A-AC15	A-AC16	A-DC1	A-DC2	A-DC3	A-DC4	A-DC5	A-DC6	A-DC7	A-DC8	A-DC9	A-DC10	A-DC11	A-DC12	A-DC13	A-DC14	A-DC15	A-DC16	A-Ph1	A-Ph2	A-Ph3	A-Ph4	A-Ph5	A-Ph6	A-Ph7	A-Ph8	A-Ph9	A-Ph10	A-Ph11	A-Ph12	A-Ph13	A-Ph14	A-Ph15	A-Ph16	

Term	0.00000e+00	0.00000e+00	0.00000e+00	0.00000e+00	0.00000e+00	0.00000e+00	0.00000e+00	0.00000e+00	0.00000e+00	0.00000e+00	0.00000e+00	0.00000e+00	0.00000e+00	0.00000e+00	0.00000e+00	0.00000e+00	0.00000e+00	0.00000e+00	0.00000e+00	0.00000e+00	0.00000e+00	0.00000e+00	0.00000e+00	0.00000e+00	0.00000e+00	0.00000e+00	0.00000e+00	0.00000e+00	0.00000e+00	0.00000e+00	0.00000e+00	0.00000e+00	0.00000e+00	0.00000e+00	0.00000e+00	0.00000e+00	0.00000e+00	0.00000e+00	0.00000e+00	0.00000e+00	0.00000e+00	0.00000e+00	0.00000e+00	0.00000e+00	0.00000e+00	0.00000e+00	0.00000e+00	0.00000e+00	
Factor	1.00000e+00	1.00000e+00	1.00000e+00	1.00000e+00	1.00000e+00	1.00000e+00	1.00000e+00	1.00000e+00	1.00000e+00	1.00000e+00	1.00000e+00	1.00000e+00	1.00000e+00	1.00000e+00	1.00000e+00	1.00000e+00	1.00000e+00	1.00000e+00	1.00000e+00	1.00000e+00	1.00000e+00	1.00000e+00	1.00000e+00	1.00000e+00	1.00000e+00	1.00000e+00	1.00000e+00	1.00000e+00	1.00000e+00	1.00000e+00	1.00000e+00	1.00000e+00	X	X	X	X	X	X	X	X	X	X	X	X	X	X	X	X	

B = Detector Channel
Val Type	B-AC1	B-AC2	B-AC3	B-AC4	B-AC5	B-AC6	B-AC7	B-AC8	B-AC9	B-AC10	B-AC11	B-AC12	B-AC13	B-AC14	B-AC15	B-AC16	B-DC1	B-DC2	B-DC3	B-DC4	B-DC5	B-DC6	B-DC7	B-DC8	B-DC9	B-DC10	B-DC11	B-DC12	B-DC13	B-DC14	B-DC15	B-DC16	B-Ph1	B-Ph2	B-Ph3	B-Ph4	B-Ph5	B-Ph6	B-Ph7	B-Ph8	B-Ph9	B-Ph10	B-Ph11	B-Ph12	B-Ph13	B-Ph14	B-Ph15	B-Ph16	

Term	0.00000e+00	0.00000e+00	0.00000e+00	0.00000e+00	0.00000e+00	0.00000e+00	0.00000e+00	0.00000e+00	0.00000e+00	0.00000e+00	0.00000e+00	0.00000e+00	0.00000e+00	0.00000e+00	0.00000e+00	0.00000e+00	0.00000e+00	0.00000e+00	0.00000e+00	0.00000e+00	0.00000e+00	0.00000e+00	0.00000e+00	0.00000e+00	0.00000e+00	0.00000e+00	0.00000e+00	0.00000e+00	0.00000e+00	0.00000e+00	0.00000e+00	0.00000e+00	-2.07275e+01	-1.32847e+02	-1.52787e+02	-1.83875e+02	-6.77554e+01	-5.54330e+01	-1.56919e+02	-1.62015e+02	-3.22664e+01	-7.99954e+01	-1.74562e+02	-1.70840e+02	-1.80437e+02	-1.77427e+02	-6.96928e+01	-1.50391e+02	
Factor	2.96057e-05	1.28999e-04	4.41538e-05	1.97066e-01	1.45415e-06	1.07368e-06	1.67062e-01	5.22067e-02	1.19540e-06	1.26644e-06	1.23098e-01	2.98311e-02	3.04790e-02	9.88491e-03	1.28029e-06	1.43348e-02	1.34528e-06	1.40145e-06	3.88201e-07	9.80757e-02	1.52263e-08	1.53501e-08	7.86761e-02	2.62170e-02	1.51695e-08	1.52930e-08	5.81304e-02	1.43474e-02	1.50814e-02	4.92209e-03	1.51770e-08	6.84804e-03	X	X	X	X	X	X	X	X	X	X	X	X	X	X	X	X	



#DISTANCE SETTINGS
A = Detector Channel
A-1	A-2	A-3	A-4	A-5	A-6	A-7	A-8	A-9	A-10	A-11	A-12	A-13	A-14	A-15	A-16	

2.5000e+00	3.0000e+00	2.5000e+00	3.0000e+00	2.0000e+00	3.0000e+00	1.5000e+00	3.0000e+00	3.0000e+00	3.0000e+00	3.0000e+00	3.0000e+00	3.0000e+00	3.0000e+00	1.5000e+00	3.0000e+00	

B = Detector Channel
B-1	B-2	B-3	B-4	B-5	B-6	B-7	B-8	B-9	B-10	B-11	B-12	B-13	B-14	B-15	B-16	

1.0000e+01	1.0000e+01	1.0000e+01	1.4400e+00	1.0000e+01	1.0000e+01	1.5100e+00	1.9400e+00	1.0000e+01	1.0000e+01	1.9900e+00	2.4900e+00	2.4100e+00	2.9000e+00	1.0000e+01	2.9800e+00	




#DATA BEGINS
time	group	step	mark	flag	A-AC1	A-AC2	A-AC3	A-AC4	A-AC5	A-AC6	A-AC7	A-AC8	A-AC9	A-AC10	A-AC11	A-AC12	A-AC13	A-AC14	A-AC15	A-AC16	A-DC1	A-DC2	A-DC3	A-DC4	A-DC5	A-DC6	A-DC7	A-DC8	A-DC9	A-DC10	A-DC11	A-DC12	A-DC13	A-DC14	A-DC15	A-DC16	A-Ph1	A-Ph2	A-Ph3	A-Ph4	A-Ph5	A-Ph6	A-Ph7	A-Ph8	A-Ph9	A-Ph10	A-Ph11	A-Ph12	A-Ph13	A-Ph14	A-Ph15	A-Ph16	B-AC1	B-AC2	B-AC3	B-AC4	B-AC5	B-AC6	B-AC7	B-AC8	B-AC9	B-AC10	B-AC11	B-AC12	B-AC13	B-AC14	B-AC15	B-AC16	B-DC1	B-DC2	B-DC3	B-DC4	B-DC5	B-DC6	B-DC7	B-DC8	B-DC9	B-DC10	B-DC11	B-DC12	B-DC13	B-DC14	B-DC15	B-DC16	B-Ph1	B-Ph2	B-Ph3	B-Ph4	B-Ph5	B-Ph6	B-Ph7	B-Ph8	B-Ph9	B-Ph10	B-Ph11	B-Ph12	B-Ph13	B-Ph14	B-Ph15	B-Ph16	aux-1	digaux	

3289.168	1	1	0	512	0.29204	0.048382	0.28684	0.19225	0.27078	0.15721	0.19275	0.10203	0.13881	0.11041	0.20419	0.079824	0.27763	0.25919	0.40982	0.17538	-1.9813	-3.0583	-2.8542	-2.6125	-3.2708	-2.6937	-2.85	-3.2521	-2.55	-3.2646	-3.0104	-2.5917	-3.1292	-2.9646	-2.9062	-3.3979	6.546	109.065	-43.867	183.270	-145.529	44.684	83.813	119.529	145.181	-96.815	167.347	176.012	178.533	153.018	-22.832	175.578	0.00088558	0.00070525	0.00019377	562.1	4.6533e-06	2.3722e-06	810.77	195.01	5.7268e-06	5.5573e-06	283.35	115.54	87.011	44.556	7.5708e-06	59.972	0.0002722	0.00030306	7.9851e-05	486.59	2.92e-06	3.3495e-06	687.39	167.6	2.8656e-06	3.3068e-06	240.17	97.634	74.14	37.868	2.9793e-06	50.543	-55.567	-133.496	-119.428	-157.912	-18.131	-101.293	-159.775	-152.140	-36.666	-73.803	-154.724	-151.097	-148.474	-144.146	-28.927	-148.778	-8191	255	
3289.265	1	1	0	0	0.15768	0.18475	0.012786	0.1398	0.060125	0.14695	0.21821	0.15645	0.11427	0.097143	0.12416	0.064442	0.10485	0.1947	0.10461	0.11628	-2.2188	-3.1417	-3.1271	-2.575	-3.2396	-2.8729	-2.8875	-3.3146	-2.6729	-3.2521	-3.0354	-2.6333	-3.3375	-2.8417	-2.6937	-3.3479	-93.395	107.687	-59.675	-124.682	68.064	164.255	173.192	114.706	-31.473	-0.070	-36.786	132.476	-58.445	185.035	34.277	82.349	0.00092355	0.00022967	3.8788e-05	567.71	8.7228e-06	1.4007e-06	815.06	195.79	2.4129e-06	7.895e-06	282.37	116.1	87.44	44.517	5.5021e-06	60.228	0.00028123	0.00030025	7.691e-05	488.23	3.1176e-06	3.3439e-06	692.61	167.76	3.1093e-06	3.3041e-06	240.36	98.317	74.587	38.085	3.0063e-06	50.594	-61.122	75.835	12.332	-157.060	-151.008	129.213	-159.806	-151.767	118.141	10.510	-154.785	-150.949	-148.332	-143.754	-90.758	-148.218	-8191	255	
3289.361	1	1	0	0	0.044681	0.09416	0.1477	0.17568	0.20015	0.090894	0.25715	0.21254	0.34574	0.093929	0.2286	0.16625	0.20429	0.12046	0.029694	0.15994	-2.1771	-3.0062	-3.1292	-2.6417	-3.3583	-2.9	-2.7687	-3.4979	-2.65	-2.9271	-3.3125	-2.5479	-3.2667	-3.0542	-2.7687	-3.3417	152.768	-24.311	95.096	85.911	-158.989	-149.678	190.286	-138.367	-86.953	-39.624	128.030	108.117	166.138	134.982	-126.873	95.299	0.00078954	0.00072746	0.00015426	563.13	8.2968e-06	4.1632e-06	794.2	193.3	3.2809e-06	3.7725e-06	276.6	115.23	86.631	44.776	4.4878e-06	59.807	0.00031477	0.0002985	7.681e-05	484.1	3.2926e-06	3.2851e-06	678.56	166.05	3.376e-06	3.2606e-06	237.26	97.781	74.647	37.922	3.0946e-06	50.418	-50.270	-45.439	-90.434	-157.719	-55.155	29.190	-159.860	-151.684	24.347	-155.228	-154.800	-151.552	-148.864	-144.084	-11.333	-148.655	-8191	255	
3289.457	1	1	0	0	0.078849	0.11805	0.089047	0.10917	0.079165	0.11788	0.4054	0.27839	0.16865	0.14671	0.21215	0.067792	0.16248	0.12503	0.10178	0.095286	-2.2771	-2.825	-3.2479	-2.5604	-3.2708	-3.05	-2.7417	-3.4021	-2.8812	-2.8979	-3.3354	-2.4813	-3.2354	-3.3375	-2.5312	-3.4625	-169.192	101.243	64.625	-130.569	-40.636	-104.721	-149.609	146.771	-114.428	124.138	-165.507	-88.224	8.645	-139.591	-148.542	112.041	0.00072127	0.00080874	0.00030469	563.32	1.0539e-05	7.4981e-06	800.19	193.75	6.9049e-06	9.5577e-06	282.85	116.63	87.684	44.789	5.0251e-06	60.558	0.00032653	0.00029429	7.7978e-05	484.73	3.4062e-06	3.1952e-06	681.23	166.72	3.4857e-06	3.1354e-06	240.01	98.781	75.108	38.155	2.9454e-06	50.998	-46.476	-102.361	-77.155	-157.359	-38.905	36.923	-159.505	-151.912	-24.787	-8.499	-154.394	-151.786	-149.103	-143.773	-97.694	-148.349	-8191	255	
3289.551	1	1	0	0	0.18203	0.13266	0.15667	0.078724	0.20912	0.19843	0.13627	0.15438	0.17694	0.067974	0.16965	0.2212	0.20463	0.027111	0.19195	0.22661	-2.4313	-2.7458	-3.4562	-2.7417	-2.9896	-3.0625	-2.8208	-3.3125	-2.7958	-2.8688	-3.2271	-2.8146	-3.1083	-3.1479	-2.6896	-3.325	76.817	51.713	159.017	-105.723	-136.337	102.126	108.247	126.655	155.269	-74.071	121.462	163.086	-31.798	-42.887	-30.820	101.887	0.00071823	0.00079827	0.00012452	561.51	5.49e-06	6.9628e-06	808.31	195.65	5.2858e-06	1.7257e-06	286.44	116.77	87.601	45.085	3.3581e-07	60.408	0.00033591	0.00028709	7.5599e-05	487.11	3.4132e-06	3.2302e-06	689.38	169.16	3.4367e-06	3.1316e-06	243.32	99.241	75.436	38.34	2.9925e-06	51.158	-52.621	-76.393	-88.020	-157.451	-67.712	-72.321	-159.249	-151.617	-47.685	-76.704	-154.458	-151.333	-148.211	-143.870	135.345	-148.528	-8191	255	
3289.647	1	1	0	0	0.31487	0.25149	0.18732	0.15233	0.1112	0.066831	0.29847	0.10487	0.11955	0.1094	0.073082	0.14964	0.085367	0.12015	0.2833	0.26041	-2.55	-2.6979	-3.4188	-2.6063	-2.8521	-3.3458	-2.6479	-3.2708	-2.8187	-2.6312	-3.4104	-2.9313	-2.8563	-3.3292	-2.4854	-3.3917	127.919	82.405	7.853	156.030	109.760	154.400	76.105	-147.794	181.571	-140.953	189.594	-127.496	-44.596	-26.826	99.110	-137.644	0.00082704	6.288e-05	9.1137e-05	567	3.8006e-06	2.0893e-06	799.49	195.55	1.1268e-05	7.5206e-06	280.66	114.88	88.515	44.648	4.7937e-06	59.78	0.00031738	0.00027744	7.6837e-05	488.58	3.3058e-06	3.1453e-06	681.04	168.35	3.3264e-06	2.9754e-06	239.14	98.509	75.125	37.957	3.1297e-06	50.671	-43.570	-59.382	156.922	-157.799	42.172	-7.510	-159.683	-151.351	-48.394	-35.730	-154.589	-151.653	-148.197	-143.537	-52.314	-148.344	-8191	255	
3289.744	1	1	0	0	0.26416	0.079555	0.12188	0.025272	0.3059	0.14364	0.2152	0.050052	0.32314	0.19948	0.088096	0.27889	0.14198	0.25732	0.12113	0.20372	-2.6208	-2.6458	-3.2375	-2.7333	-2.8625	-3.2687	-2.5687	-3.1354	-2.9708	-2.6167	-3.4437	-2.8563	-2.9	-3.3937	-2.7604	-3.1458	187.044	7.269	-75.624	184.293	-146.787	160.435	-0.633	-95.870	6.002	156.916	-105.772	94.653	-142.114	124.417	-42.611	155.446	0.00080386	0.00012988	0.00016014	556.85	5.752e-06	6.2582e-06	806.25	193.83	9.1675e-06	1.8591e-06	280.25	116.94	88.04	44.359	4.4302e-06	60.354	0.00031633	0.00027939	8.1985e-05	485.44	3.1792e-06	3.0526e-06	682.78	168.11	3.281e-06	2.972e-06	240.63	99.251	75.098	37.991	3.282e-06	51.048	-55.308	-116.934	-12.640	-157.425	-24.769	-37.213	-159.602	-151.409	-14.876	121.914	-155.258	-151.316	-148.729	-144.052	56.958	-148.525	-8191	255	
3289.840	1	1	0	0	0.19034	0.19558	0.1925	0.21408	0.10358	0.34282	0.30376	0.1504	0.059936	0.16766	0.22735	0.13693	0.18182	0.063521	0.10632	0.13746	-2.8	-2.4188	-3.3792	-2.9771	-2.8875	-3.5125	-2.8396	-3.1146	-3.2292	-2.5854	-3.3312	-2.9625	-2.8563	-3.4562	-2.8396	-3.1437	140.585	136.864	-161.035	-71.803	155.264	4.043	108.337	61.756	-33.578	-26.303	188.438	-66.928	113.184	109.673	-43.796	86.930	0.00068749	0.00039601	0.00019524	560.35	1.6464e-06	6.9084e-06	811.07	194.96	4.7873e-06	1.0893e-05	283.08	116.22	88.224	44.813	3.2879e-06	60.482	0.00031261	0.00026522	8.5824e-05	486.05	3.1919e-06	3.015e-06	689.83	168.63	3.2052e-06	2.9752e-06	242.73	99.108	75.086	38.019	3.5444e-06	51.118	-55.441	-120.458	-57.897	-157.187	111.320	-11.804	-159.712	-151.517	42.636	-166.363	-154.715	-151.365	-148.624	-143.467	170.368	-147.981	-8191	255	
3289.960	1	1	0	0	0.26373	0.15817	0.15654	0.086449	0.12301	0.032269	0.019439	0.11047	0.11621	0.23484	0.22734	0.15921	0.26144	0.13225	0.13077	0.11883	-2.8458	-2.6896	-3.1083	-3.1521	-2.675	-3.6021	-2.7604	-3.0771	-3.4333	-2.6937	-3.2896	-3.0771	-2.6146	-3.4229	-2.8521	-2.9917	-115.396	172.263	-135.701	148.883	-47.611	-136.497	-155.777	-160.427	-146.743	-44.555	-169.301	183.313	37.604	190.005	50.307	-169.544	0.00080534	0.0002188	0.0002735	562.7	1.1563e-05	6.2202e-07	802.43	194.88	8.0739e-06	7.6684e-06	280.43	114.54	86.677	44.509	5.8547e-07	59.161	0.00031075	0.00028525	9.4208e-05	485.41	3.1918e-06	3.2983e-06	683.82	167.71	3.276e-06	3.2546e-06	241.18	98.054	74.467	37.896	3.6826e-06	50.266	-56.036	-20.156	-113.156	-157.592	-37.721	131.420	-159.393	-151.561	4.467	-83.344	-154.982	-151.308	-148.091	-143.689	-47.898	-148.469	-8191	255	
3290.056	1	1	0	0	0.10437	0.15119	0.14912	0.39374	0.35162	0.14582	0.19159	0.29037	0.15253	0.14662	0.16075	0.21921	0.25903	0.27129	0.033655	0.29639	-3.0208	-2.3312	-3.2938	-3.1375	-2.5792	-3.2062	-2.8146	-2.9271	-3.3354	-2.7438	-3.1646	-3.1854	-2.6479	-3.6667	-2.9542	-2.8479	-168.241	-54.059	8.487	128.860	-116.397	-55.941	-124.722	-163.164	179.900	50.402	-156.505	-167.475	-76.424	146.984	136.482	130.876	0.00076573	0.00071321	0.0002094	553.95	5.3676e-06	4.7818e-06	802.66	194.34	2.9178e-06	1.3243e-05	282.66	115.37	87.723	44.236	3.0598e-06	59.77	0.0003007	0.00030504	9.2233e-05	482.62	3.0474e-06	3.4052e-06	683.55	167.82	3.0413e-06	3.3902e-06	241.65	98.526	74.691	38.047	3.5407e-06	50.647	-45.588	-72.961	-158.730	-157.542	-7.802	-84.252	-159.485	-151.408	-7.547	3.978	-154.320	-151.381	-148.361	-143.566	-75.551	-147.883	-8191	255	
3290.153	1	1	0	0	0.097525	0.20415	0.23451	0.044704	0.2851	0.21509	0.34643	0.079182	0.12244	0.11783	0.28557	0.15125	0.13533	0.19944	0.33193	0.27611	-3.1396	-2.675	-2.9521	-3.2458	-2.5979	-3.2938	-3.0521	-2.6771	-3.5104	-2.65	-3.0396	-3.3542	-2.6208	-3.4833	-3.0938	-2.75	-12.152	-84.467	-10.555	188.623	113.555	63.838	173.729	103.432	90.006	-41.211	61.362	-134.485	64.797	154.572	-11.985	147.769	0.00070495	0.00065908	0.00020525	561.35	4.4441e-06	2.5167e-06	804.4	194.65	4.9028e-06	7.9205e-06	285.38	116.12	87.921	44.659	6.1239e-06	60.564	0.00030677	0.00032862	8.9848e-05	483.87	3.134e-06	3.6557e-06	687.91	167.9	3.202e-06	3.6734e-06	242.46	98.772	74.86	38.267	3.5314e-06	51.037	-53.905	-49.425	-37.251	-156.891	40.056	-164.519	-159.237	-151.495	27.518	-66.927	-153.787	-150.830	-148.378	-143.580	-62.346	-147.602	-8191	255	
3290.249	1	1	0	0	0.11753	0.19827	0.14233	0.13492	0.16464	0.024905	0.22513	0.21712	0.26459	0.21847	0.1302	0.062089	0.080793	0.080514	0.21579	0.10915	-3.1146	-2.8104	-3.0583	-3.275	-2.6292	-3.15	-3.0875	-2.75	-3.3521	-2.8271	-2.7562	-3.5146	-2.4562	-3.1917	-3.1063	-2.6583	-80.220	19.281	-6.047	24.412	34.467	-51.255	132.736	87.128	71.404	93.929	176.193	-134.919	28.504	134.603	-85.296	-129.454	0.00068895	0.00058213	0.00016727	558.71	7.1718e-06	9.7529e-07	793.42	195.49	4.4036e-06	4.6224e-06	279.74	115.57	87.413	44.308	2.8941e-06	59.56	0.00030716	0.00034309	8.6107e-05	483.95	3.2091e-06	3.7239e-06	679.53	167.28	3.3633e-06	3.7824e-06	239.23	97.724	74.76	37.958	3.4332e-06	50.163	-42.094	-31.763	-160.904	-156.735	-24.186	112.763	-159.444	-151.793	-36.619	-2.420	-154.780	-151.581	-148.387	-143.701	28.174	-148.597	-8191	255	
3290.345	1	1	0	0	0.083702	0.15863	0.12388	0.22262	0.058293	0.18696	0.2036	0.1205	0.0042979	0.15449	0.15858	0.20356	0.30134	0.36659	0.27278	0.1135	-3.0396	-2.7958	-2.7812	-3.3854	-2.5479	-3.1708	-3.1833	-2.5792	-3.3771	-2.8917	-2.7458	-3.4354	-2.6375	-3.125	-3.2917	-2.75	154.109	185.230	-68.696	-143.124	-69.287	73.855	87.860	-167.907	87.341	-84.825	119.966	148.671	49.857	144.468	68.877	157.529	0.0006869	0.00034106	0.00032122	552.35	2.867e-06	2.2317e-06	791.08	192.49	7.423e-06	4.2519e-06	278.89	114.89	87.374	44.518	9.2382e-06	59.575	0.00033075	0.0003471	8.1114e-05	479.01	3.5116e-06	3.6249e-06	675.26	166.29	3.5529e-06	3.6306e-06	240.4	97.482	74.953	38.063	3.3786e-06	50.417	-58.903	17.481	-141.925	-156.982	-160.590	63.278	-159.363	-151.303	-23.103	-64.650	-154.338	-151.416	-148.911	-143.885	45.046	-148.308	-8191	255	
3290.441	1	1	0	0	0.066145	0.051538	0.089395	0.025262	0.23407	0.12947	0.21488	0.31376	0.11348	0.092121	0.35321	0.21461	0.17408	0.15412	0.11966	0.12205	-3.1021	-3.0896	-2.6104	-3.6208	-2.6104	-2.85	-3.3833	-2.5646	-3.275	-3.0021	-2.7729	-3.5417	-2.9062	-3.1063	-3.4271	-2.8792	180.501	66.506	-14.135	-8.981	183.670	-83.070	143.785	170.248	-154.090	154.534	-119.701	141.462	-117.369	81.680	-14.721	27.559	0.00083184	0.00025233	0.00025305	553.57	1.2384e-05	4.795e-06	796.27	194.3	3.5685e-06	8.3935e-06	282.82	115.22	86.565	44.621	1.0266e-05	60.237	0.00034959	0.00033094	8.1592e-05	479.4	3.6897e-06	3.5237e-06	681.11	167.79	3.7354e-06	3.5308e-06	239.31	98.064	75.02	37.994	3.2391e-06	50.726	-52.173	76.808	-53.093	-157.210	-39.370	36.363	-159.927	-151.885	-26.893	-30.774	-154.548	-151.013	-149.262	-143.950	-9.263	-148.005	-8191	255	
3290.562	1	1	0	0	0.049813	0.0073859	0.067907	0.089788	0.16793	0.11216	0.04364	0.058375	0.24195	0.0056441	0.063551	0.13923	0.18806	0.07316	0.10706	0.19636	-2.6729	-3.0583	-2.5896	-3.5771	-2.9167	-2.8875	-3.4479	-2.5646	-3.2667	-3.1229	-2.7687	-3.4104	-2.9	-2.9146	-3.2479	-2.8958	60.620	-103.216	147.113	-145.891	-93.500	1.517	52.575	-167.033	-30.124	-56.777	-106.972	161.691	-152.277	-141.409	-40.829	156.996	0.00069967	0.00012554	0.00016155	555.23	3.0869e-06	8.2027e-06	790.94	192.7	8.4362e-06	1.4891e-06	279.62	112.77	86.591	44.195	7.2044e-06	58.763	0.00035407	0.00030867	7.987e-05	481.65	3.7375e-06	3.3416e-06	675.73	166.43	3.7546e-06	3.3997e-06	237.38	96.853	74.307	37.647	3.1185e-06	49.788	-55.222	-153.410	190.379	-157.530	-135.635	-56.390	-159.674	-151.586	33.486	37.419	-154.515	-151.341	-148.387	-143.508	-158.670	-148.389	-8191	255	
3290.656	1	1	0	0	0.17976	0.10959	0.15927	0.11138	0.054118	0.087508	0.12209	0.23656	0.20056	0.16852	0.15816	0.19118	0.23805	0.11395	0.12261	0.26573	-2.7604	-3.2958	-2.375	-3.5042	-2.8854	-2.8583	-3.4896	-2.6958	-3.0042	-3.3438	-2.4896	-3.4875	-3.2	-2.9	-3.3146	-2.6292	172.506	-54.716	12.769	153.029	181.593	2.601	-133.087	-145.761	98.708	55.002	-97.675	-116.308	124.368	59.849	125.856	-0.606	0.00063094	0.00015468	0.00052987	551.36	1.2005e-05	4.5474e-06	777.25	192.52	8.3909e-06	8.6913e-06	276.87	113.71	86.773	43.859	5.3621e-06	59.038	0.00033565	0.00030705	7.8511e-05	479.33	3.5746e-06	3.2722e-06	668.05	166.21	3.5273e-06	3.2749e-06	235.51	96.984	74.257	37.477	3.1948e-06	50.058	-43.438	-71.285	-115.209	-157.605	44.832	-13.591	-159.018	-151.881	-66.321	-52.192	-154.717	-151.446	-148.912	-143.482	-78.746	-148.321	-8191	255	
3290.752	1	1	0	0	0.10175	0.081147	0.20151	0.2157	0.16226	0.061651	0.16581	0.16782	0.22449	0.10745	0.13051	0.1417	0.43672	0.13214	0.12777	0.2291	-2.7083	-3.0375	-2.5187	-3.225	-2.925	-2.6833	-3.4646	-2.8271	-3.05	-3.375	-2.6083	-3.2271	-2.9958	-2.775	-3.2271	-2.8375	-145.062	158.441	48.880	-126.981	110.267	-6.295	175.933	-15.043	70.189	185.153	-133.151	-101.711	180.552	-119.392	77.128	189.044	0.00068772	0.00046976	0.00044654	547.88	6.0562e-06	6.1578e-06	782.21	193.92	6.4565e-06	7.5365e-06	282.15	115.43	86.783	44.039	7.4276e-06	59.674	0.00032663	0.00030105	7.9727e-05	480.16	3.493e-06	3.1475e-06	671.08	167.25	3.3531e-06	3.2303e-06	238.65	98.354	74.785	37.59	3.2766e-06	50.678	-48.170	67.770	168.955	-157.041	8.398	20.594	-159.663	-152.139	-34.609	-58.807	-154.446	-151.427	-148.920	-143.575	79.162	-148.860	-8191	255	
3290.848	1	1	0	0	0.12475	0.04644	0.29282	0.073481	0.064884	0.12842	0.075909	0.11507	0.34905	0.0067705	0.21253	0.11553	0.32826	0.17101	0.19012	0.16855	-2.4938	-3.3958	-2.4625	-3.25	-3.1208	-2.6917	-3.4083	-2.8146	-2.7604	-3.4542	-2.7687	-3.3271	-3.2167	-2.5	-3.4229	-2.9333	73.907	40.019	52.517	-137.617	-47.029	49.323	114.936	-143.348	-68.799	-115.633	116.065	-28.209	89.570	171.234	-136.528	185.268	0.00074626	0.00026708	0.00010791	550.88	6.8642e-06	3.221e-06	798.16	193.8	8.6586e-06	6.781e-06	280.08	114.18	86.982	43.817	2.2475e-06	59.347	0.00030938	0.00028793	8.5049e-05	480.84	3.3971e-06	3.104e-06	680.33	167.45	3.2723e-06	3.089e-06	239.48	97.679	74.148	37.433	3.4839e-06	50.068	-38.937	-82.142	136.438	-157.417	-61.429	-15.379	-159.593	-152.102	38.052	-34.598	-154.981	-151.049	-148.442	-144.161	-102.781	-148.437	-8191	255	
3290.945	1	1	0	0	0.050409	0.23467	0.22787	0.15794	0.1834	0.19358	0.073443	0.17452	0.076564	0.26207	0.111	0.14757	0.043078	0.13652	0.256	0.25243	-2.4	-3.2583	-2.5917	-3.1896	-3.2083	-2.5583	-3.5375	-2.9229	-2.7208	-3.3479	-2.7667	-3.175	-3.3042	-2.4979	-3.3958	-2.9833	106.845	60.836	-4.460	-87.727	-40.221	-76.584	-55.564	87.120	66.445	1.641	110.743	80.292	-81.181	90.484	137.052	146.278	0.00079557	0.00060141	0.00023694	549.73	4.8909e-06	5.2988e-06	790.59	192.77	8.3596e-06	1.2714e-05	276.4	115.1	86.293	43.727	5.3591e-06	59.313	0.00031233	0.00029583	9.3408e-05	480.18	3.3549e-06	3.1731e-06	674.11	166.02	3.1844e-06	3.2152e-06	238.88	97.415	73.663	37.314	3.6419e-06	49.997	-44.842	-103.471	-161.542	-157.360	-22.057	-6.787	-159.333	-151.802	-31.006	-27.513	-154.629	-150.857	-149.180	-143.689	-8.052	-148.410	-8191	255	
3291.041	1	1	0	0	0.095159	0.21179	0.16676	0.054075	0.12232	0.24172	0.045435	0.033438	0.29314	0.20173	0.2166	0.059903	0.075259	0.34336	0.31128	0.13548	-2.1042	-3.4729	-2.6958	-2.9479	-3.3917	-2.7	-3.3458	-3.0729	-2.5687	-3.4979	-2.7396	-2.9229	-3.4688	-2.7771	-3.3208	-3.2271	105.097	127.336	54.038	110.601	88.966	124.039	109.094	-58.411	65.573	160.243	63.952	-71.651	147.594	-91.869	-118.611	-22.858	0.00069689	0.00045735	0.00024604	551.78	1.3362e-05	6.8641e-06	795.04	194.09	4.9231e-06	6.5238e-06	282.43	115.31	87.487	44.104	3.1577e-06	59.517	0.00029906	0.00029923	9.3641e-05	479.49	3.216e-06	3.2494e-06	680.95	167.17	3.1431e-06	3.4165e-06	241.95	97.875	74.583	37.778	3.5992e-06	50.573	-47.626	1.181	-80.674	-157.247	-72.001	103.512	-159.063	-151.303	22.277	-53.306	-154.382	-151.085	-148.364	-143.719	-90.472	-148.513	-8191	255	
3291.137	1	1	0	0	0.097395	0.12433	0.10663	0.15156	0.35288	0.16186	0.1425	0.040201	0.24339	0.054198	0.28591	0.14701	0.072866	0.065047	0.13941	0.021061	-2.3563	-3.3563	-2.7562	-2.8625	-3.3187	-2.4938	-3.0333	-3.1542	-2.5896	-3.3271	-2.9583	-2.8625	-3.4229	-2.5146	-2.9958	-3.4604	-50.116	-3.869	159.943	175.321	76.415	34.231	71.572	-96.824	-121.641	155.550	127.221	-158.221	58.988	163.794	-84.451	187.760	0.00076054	0.00058485	0.00024098	558.68	3.3317e-06	5.3605e-06	806.41	194.52	3.8512e-06	5.8718e-06	281.81	116.15	87.783	44.43	1.3593e-05	59.486	0.00029278	0.00031661	9.0826e-05	483.55	3.0989e-06	3.4859e-06	688.72	168.15	3.1207e-06	3.567e-06	243.29	98.726	75.152	38.057	3.513e-06	50.757	-51.493	-125.430	-61.138	-157.063	-105.839	-135.279	-159.508	-151.469	-34.490	-14.062	-155.184	-150.994	-149.088	-143.962	-10.259	-148.650	-8191	255	
3291.233	1	1	0	0	0.035404	0.34178	0.15198	0.23055	0.1595	0.063707	0.26124	0.069386	0.25509	0.24504	0.10753	0.010763	0.15743	0.078793	0.067265	0.1359	-2.0771	-3.1479	-3.0833	-2.6813	-3.5062	-2.7021	-2.9396	-3.2375	-2.6542	-3.3021	-3.025	-2.6688	-3.25	-2.8917	-2.9375	-3.5042	-152.520	155.574	179.424	-139.122	-79.164	82.468	145.294	118.732	-5.400	-81.247	140.323	152.198	-112.277	119.904	-127.207	41.157	0.00079308	0.00053656	0.00034486	558.12	7.3946e-06	6.3129e-06	793.43	193.74	9.8777e-06	6.416e-06	282.23	116.06	88.294	44.529	5.7948e-06	59.709	0.00029354	0.00033423	8.9557e-05	481.3	3.1873e-06	3.6675e-06	679.96	167.15	3.1647e-06	3.6842e-06	241.92	98.659	75.089	37.958	3.3673e-06	50.572	-53.015	-81.277	-73.098	-157.252	69.963	-43.898	-159.243	-151.867	-35.142	17.715	-154.555	-151.374	-149.158	-144.153	41.920	-148.465	-8191	255	
3291.354	1	1	0	0	0.18025	0.2521	0.096063	0.13895	0.019975	0.18147	0.10526	0.21032	0.049523	0.19578	0.078549	0.19948	0.31485	0.22577	0.16033	0.31516	-2.1437	-3.2375	-3.225	-2.5563	-3.3229	-2.8021	-2.8542	-3.3854	-2.4708	-3.1792	-3.0042	-2.6917	-3.3812	-2.9271	-2.9021	-3.4875	-4.845	-123.058	-97.251	8.594	149.911	-96.921	117.751	174.010	-122.918	22.288	-158.758	156.006	-141.479	-95.744	55.053	91.392	0.00081095	0.00088782	0.00014049	552.37	1.0203e-05	1.0271e-05	796.7	195.13	6.8454e-06	2.5458e-06	284.88	116.87	88.648	44.587	2.5086e-06	61.028	0.0003101	0.00034054	8.6653e-05	478.59	3.352e-06	3.6898e-06	681.44	168.26	3.3632e-06	3.5901e-06	243.08	99.197	75.682	38.243	3.3024e-06	51.152	-53.581	-102.797	-127.937	-157.312	-65.667	-46.223	-159.330	-151.908	-121.176	86.293	-155.774	-151.293	-148.695	-143.924	-153.085	-148.601	-8191	255	
3291.448	1	1	0	0	0.1756	0.21579	0.1327	0.27283	0.21701	0.19881	0.19309	0.096525	0.13723	0.11692	0.10801	0.12386	0.038816	0.13186	0.14488	0.17413	-2.3146	-2.975	-3.0146	-2.75	-3.2313	-2.9562	-2.8896	-3.3542	-2.6333	-3.1521	-3.3	-2.625	-3.3146	-2.9271	-2.75	-3.5958	-54.063	28.498	149.915	-136.726	180.724	-75.683	62.729	148.305	158.406	-19.060	146.473	100.484	-114.292	110.875	35.185	154.499	0.00070682	0.00086787	0.00018395	558.48	4.9879e-06	5.9321e-06	809.22	195.59	1.1279e-05	6.6767e-06	287	117.33	88.043	44.449	5.1294e-06	60.68	0.00033762	0.000335	8.5276e-05	482.69	3.5895e-06	3.6956e-06	690.38	168.72	3.6388e-06	3.5025e-06	244.32	99.493	75.548	38.075	3.2029e-06	51.16	-57.273	-19.084	-50.484	-157.628	-53.294	21.675	-159.380	-152.059	-77.144	-103.727	-155.075	-151.829	-148.759	-144.250	-54.143	-148.549	-8191	255	
3291.521	1	1	0	0	0.19243	0.16265	0.0074689	0.10567	0.14786	0.064647	0.18337	0.1535	0.36209	0.044017	0.17766	0.17077	0.15111	0.029132	0.21754	0.13351	-2.2562	-2.8271	-3.3333	-2.6813	-3.0875	-2.7271	-2.7646	-3.5583	-2.8333	-2.8812	-3.4521	-2.6646	-3.2792	-3.1875	-2.6854	-3.5292	-73.828	-65.440	-61.542	94.523	-163.943	-153.084	118.685	64.780	-41.600	104.668	82.332	64.137	-141.680	139.977	87.550	164.460	0.00095286	0.0005826	0.0002083	559.33	4.6917e-06	7.3397e-06	797.97	194.98	4.0288e-06	4.1264e-06	280.98	116.08	87.326	44.369	6.9985e-06	59.904	0.00035031	0.00032651	8.1694e-05	483.09	3.6058e-06	3.4731e-06	681.4	167.75	3.6473e-06	3.3299e-06	240.94	98.719	75.233	37.826	3.0587e-06	50.575	-55.579	-5.196	-150.812	-157.386	73.823	-14.480	-159.984	-152.118	-104.846	33.856	-154.880	-151.166	-148.308	-143.755	-8.352	-148.938	-8191	255	
3291.642	1	1	0	0	0.27287	0.11939	0.086721	0.044386	0.29045	0.24079	0.11872	0.066388	0.097611	0.23998	0.20823	0.23423	0.25147	0.19093	0.13251	0.070972	-2.2542	-2.8542	-3.2687	-2.6854	-3.1437	-3.1479	-2.7479	-3.325	-2.8229	-2.9	-3.4125	-2.7313	-3.1542	-3.3688	-2.65	-3.3688	-9.181	91.927	-107.462	-109.964	-55.767	-167.099	72.390	-111.881	103.640	130.011	166.978	164.716	-83.687	-65.765	-51.495	-75.951	0.00066151	0.00031744	0.00017492	558.04	7.6297e-06	5.8479e-06	803.36	195.49	4.7978e-06	6.6251e-06	280.22	115.57	87.162	44.648	7.3217e-06	60.102	0.00034151	0.00030674	7.909e-05	483.38	3.59e-06	3.3514e-06	683.83	167.93	3.5906e-06	3.2298e-06	240.32	98.579	74.698	37.8	2.9863e-06	50.956	-54.380	-136.638	-101.716	-157.507	0.624	-0.837	-159.285	-151.580	52.942	-31.761	-155.023	-151.432	-148.468	-143.401	12.180	-148.414	-8191	255	
3291.737	1	1	0	0	0.16255	0.19673	0.11016	0.047155	0.22789	0.30333	0.2434	0.17419	0.016244	0.062871	0.19476	0.2608	0.070002	0.18764	0.21458	0.10586	-2.4562	-2.6375	-3.4188	-2.6625	-3.0583	-3.2938	-2.7313	-3.4021	-2.7812	-2.6271	-3.3708	-2.5083	-2.9292	-3.6083	-2.425	-3.2333	-60.755	47.000	164.178	-41.552	0.590	93.369	144.779	180.510	89.629	52.918	169.076	-149.036	-41.956	182.890	-26.877	112.197	0.00078265	0.00074933	0.00014872	564.17	9.1983e-06	8.7719e-06	816.26	194.68	3.5969e-06	1.1375e-06	283.46	116.55	87.502	44.053	7.3633e-06	60.911	0.00033186	0.00028119	7.9653e-05	489	3.4206e-06	3.2628e-06	694.93	168.01	3.4375e-06	3.1405e-06	242.18	99.424	74.704	37.709	3.1465e-06	51.272	-49.615	-100.504	-54.736	-157.543	37.287	4.652	-159.207	-151.679	-3.526	81.055	-155.100	-151.388	-148.536	-143.746	-41.888	-147.949	-8191	255	
3291.833	1	1	0	0	0.08288	0.073441	0.25557	0.101	0.28125	0.05194	0.24098	0.088902	0.093719	0.16399	0.088547	0.29712	0.36066	0.15234	0.11273	0.22776	-2.7313	-2.4667	-3.425	-2.8563	-2.7979	-3.3563	-2.7167	-3.4	-2.8229	-2.5396	-3.4813	-2.8312	-2.7604	-3.4646	-2.7104	-3.1167	-152.961	-26.776	-56.486	-101.370	-14.683	-110.062	115.821	-99.632	-92.088	-92.653	-47.028	136.255	169.858	90.071	114.529	168.548	0.00070812	0.00036245	0.00012227	561.35	2.0704e-05	3.0842e-06	809.08	193.23	5.1142e-06	1.2384e-06	276	115.53	86.655	44.119	8.4087e-06	60.097	0.00031944	0.00027517	8.0338e-05	487.2	3.2913e-06	3.0646e-06	687.44	167.21	3.2835e-06	3.0199e-06	238.27	98.193	74.072	37.43	3.2378e-06	50.602	-52.217	-100.678	-83.760	-157.309	-70.928	49.154	-159.554	-151.513	35.303	-74.229	-154.462	-151.154	-148.453	-143.928	-86.557	-148.639	-8191	255	
3291.929	1	1	0	0	0.23782	0.044516	0.087781	0.091885	0.15781	0.012569	0.34381	0.080265	0.13124	0.12401	0.099591	0.08029	0.20547	0.12803	0.17959	0.35303	-2.7313	-2.6417	-3.4396	-2.7938	-2.7292	-3.2917	-2.7604	-3.1396	-3.3229	-2.6562	-3.3063	-2.8396	-2.8979	-3.4188	-2.6312	-2.9292	-28.590	26.287	-74.953	125.387	148.022	-156.618	105.552	-114.877	-100.905	-19.419	102.304	-159.584	4.579	129.081	42.978	115.974	0.00071484	0.00076693	0.00022854	558.21	7.4863e-06	4.6849e-06	802.68	193.79	2.8126e-06	5.5718e-06	281.69	115.89	88.054	44.581	9.2671e-06	60.506	0.00030951	0.00027158	8.4879e-05	487.64	3.1626e-06	3.0536e-06	686.62	167.56	3.2196e-06	2.9584e-06	242.08	98.999	74.674	37.9	3.5563e-06	51.146	-47.512	-144.460	-117.272	-157.485	-66.767	-73.596	-159.069	-151.720	34.927	-17.333	-154.270	-151.378	-148.315	-143.211	-66.875	-147.980	-8191	255	
3292.049	1	1	0	0	0.30801	0.28847	0.15798	0.23626	0.24086	0.20779	0.094726	0.26196	0.11082	0.13239	0.19959	0.22274	0.29311	0.18668	0.08579	0.13117	-2.8646	-2.5208	-3.3979	-2.85	-2.5875	-3.3625	-2.775	-2.9604	-3.2583	-2.5896	-3.3333	-2.9208	-2.6146	-3.4875	-2.7208	-3.0187	-61.473	136.243	-29.164	169.377	107.295	-69.739	41.746	130.533	44.048	-152.447	-119.033	175.018	178.895	-143.114	45.096	38.790	0.00088813	0.00022376	0.00012271	561.12	7.5889e-06	8.983e-06	811.24	194.93	5.0991e-06	6.5419e-06	288.33	118.03	87.666	44.197	7.3121e-06	60.772	0.00031824	0.00028116	9.1823e-05	486.62	3.1939e-06	3.131e-06	695.3	168.82	3.1036e-06	3.1461e-06	246.8	100	74.907	37.834	3.5769e-06	51.482	-42.876	-78.857	-135.875	-157.606	-69.721	46.858	-159.624	-151.697	118.825	-47.866	-154.637	-151.230	-148.595	-143.385	-117.221	-147.980	-8191	255	
3292.146	1	1	0	0	0.20389	0.22196	0.15088	0.095366	0.16562	0.24832	0.11638	0.064452	0.12428	0.12236	0.27098	0.12033	0.3958	0.22118	0.19924	0.067428	-2.9042	-2.3542	-3.2667	-3.1583	-2.4625	-3.3958	-3.0167	-2.6208	-3.4083	-2.4062	-3.1792	-3.1125	-2.5708	-3.375	-2.5729	-2.7333	-81.663	75.400	-13.163	-103.478	98.891	-37.776	166.631	-29.409	31.012	-0.972	-143.708	-163.994	-169.041	109.794	-2.752	77.815	0.00080852	0.00067203	4.7655e-05	557.09	8.9941e-06	5.2714e-06	808.37	193.49	5.2913e-06	4.1379e-06	286.25	116.64	86.772	44.254	3.6072e-06	59.754	0.00029852	0.0002933	9.326e-05	485.9	3.0562e-06	3.2932e-06	690.91	167.61	3.1684e-06	3.3712e-06	245.84	99.101	74.506	37.759	3.6713e-06	50.583	-51.211	-149.319	-93.939	-157.178	-1.726	-47.867	-159.002	-151.426	-5.523	-7.989	-155.038	-151.612	-148.833	-144.053	-3.199	-148.374	-8191	255	
3292.242	1	1	0	0	0.28823	0.0075605	0.13336	0.1892	0.026042	0.12056	0.12131	0.35246	0.12729	0.067881	0.18914	0.045482	0.14905	0.28897	0.13632	0.078387	-2.7604	-2.7271	-2.9313	-3.1958	-2.4771	-3.375	-3.0229	-2.8	-3.2562	-2.7083	-3.0687	-3.4396	-2.4917	-3.1937	-3.0062	-2.6396	-51.885	66.025	125.153	120.756	35.740	148.777	-168.467	175.350	-94.044	174.696	89.500	-154.666	169.864	137.212	189.622	142.928	0.00066592	0.00052741	3.8629e-05	556.32	5.1191e-06	7.0867e-06	801.05	193.51	2.09e-06	2.737e-06	285.5	116.87	87.583	44.358	9.6761e-06	60.372	0.0003019	0.00031908	9.1091e-05	481.8	3.0656e-06	3.5641e-06	684.61	166.75	3.1669e-06	3.6373e-06	243.73	99.498	74.717	37.986	3.5619e-06	50.99	-56.291	-151.931	-58.133	-157.257	-4.165	-100.126	-159.956	-152.069	67.179	-82.514	-154.467	-151.282	-148.692	-144.105	-1.746	-148.420	-8191	255	
3292.338	1	1	0	0	0.15964	0.068913	0.17185	0.16871	0.19899	0.016442	0.15447	0.37682	0.21575	0.27659	0.34885	0.1649	0.17421	0.20273	0.10461	0.046421	-2.9417	-2.6729	-3.0375	-3.4083	-2.6229	-3.3292	-3.1083	-2.8771	-3.3604	-2.8667	-2.9354	-3.6312	-2.6271	-3.3229	-3.1417	-2.6063	171.971	-141.322	144.482	-133.459	70.387	-18.562	104.488	-135.693	-116.686	114.421	169.792	112.186	-159.055	70.003	-0.195	46.454	0.00089217	0.0002008	9.3954e-05	556.94	1.1667e-05	7.4764e-07	816.97	193.6	4.7066e-06	8.1741e-06	288.46	117.53	88.074	44.738	5.8485e-06	61.072	0.00030894	0.00033664	8.7574e-05	483.49	3.2106e-06	3.7637e-06	695.13	167.56	3.4448e-06	3.814e-06	245.47	100.29	75.552	38.253	3.4516e-06	51.268	-61.095	-80.915	162.664	-157.075	-65.973	146.624	-159.437	-151.588	-52.941	-2.691	-154.347	-151.163	-148.472	-143.999	-43.150	-148.437	-8191	255	
3292.434	1	1	0	0	0.2098	0.20283	0.28603	0.11375	0.058762	0.21249	0.34634	0.066619	0.11149	0.058445	0.19	0.073653	0.086499	0.36266	0.089121	0.18187	-3.1562	-2.8229	-2.9271	-3.4188	-2.5167	-3.3417	-3.225	-2.5604	-3.3021	-2.9562	-2.8458	-3.3146	-2.6833	-3.1667	-3.2167	-2.725	145.584	125.917	-20.880	110.267	-99.284	34.615	104.063	-94.781	173.765	-151.312	96.554	141.273	-45.342	135.942	-115.472	-134.950	0.00082259	0.00017649	0.00013966	551.7	3.6209e-06	3.2494e-06	793.23	193.86	1.2295e-05	2.5832e-06	282.73	116.65	88.081	44.335	9.0719e-06	60.023	0.00033654	0.00034359	8.6613e-05	481.54	3.5106e-06	3.8321e-06	682.91	167.46	3.678e-06	3.9424e-06	243.02	99.49	75.967	38.066	3.4736e-06	50.716	-51.305	-130.093	-67.707	-157.494	-141.052	174.892	-159.932	-151.916	-92.703	-39.260	-155.118	-150.883	-149.079	-143.597	32.594	-147.698	-8191	255	
3292.528	1	1	0	0	0.18426	0.28342	0.20127	0.26225	0.19735	0.17693	0.12235	0.10885	0.15968	0.26578	0.23001	0.056456	0.075612	0.11478	0.12662	0.19705	-3.0479	-2.925	-2.6771	-3.4083	-2.6937	-3.0854	-3.2167	-2.5854	-3.475	-2.95	-2.6208	-3.4208	-2.7417	-3.075	-3.4062	-2.6896	-17.581	-139.104	17.917	100.472	74.635	-137.930	110.057	139.035	-85.968	-53.868	102.116	41.487	-76.404	-136.922	0.391	15.860	0.00086269	0.00074064	0.00026284	553.41	7.3993e-06	8.3104e-07	799.6	192.33	3.3297e-06	4.5451e-06	283.68	117.5	88.548	44.799	5.7919e-06	60.529	0.000359	0.0003404	8.6348e-05	480.25	3.8296e-06	3.7039e-06	679.51	166.92	3.8689e-06	3.759e-06	242.74	99.817	75.917	38.258	3.482e-06	51.003	-52.004	-58.885	-156.829	-157.305	147.824	72.100	-159.060	-151.681	-123.762	13.811	-154.645	-151.436	-148.575	-143.474	115.846	-148.137	-8191	255	
3292.649	1	1	0	0	0.089941	0.31125	0.11581	0.201	0.096795	0.22199	0.10626	0.1088	0.095759	0.13204	0.051558	0.12202	0.21647	0.22542	0.10256	0.21767	-2.9125	-3.0125	-2.6604	-3.4729	-2.7042	-2.8625	-3.4896	-2.6667	-3.2667	-3.0896	-2.7208	-3.4354	-2.8604	-3.1437	-3.5396	-2.5771	-124.297	-163.926	-44.422	-13.875	-69.030	-6.459	7.976	-118.117	144.258	-165.380	82.449	-154.334	159.255	-161.284	89.339	57.732	0.00089194	0.00055206	0.00018992	548.74	9.0382e-06	4.3382e-06	793.45	195.65	5.9003e-06	1.2214e-05	285.29	118.7	87.851	44.648	3.543e-06	60.643	0.00037541	0.00033796	8.6714e-05	478.94	4.1093e-06	3.7303e-06	681.75	168.91	4.0549e-06	3.8116e-06	244.47	100.85	76.109	38.153	3.4487e-06	51.499	-44.945	-6.486	-39.518	-157.185	-54.983	-55.443	-158.728	-151.565	-139.604	-35.186	-154.202	-151.300	-148.588	-143.398	26.573	-147.771	-8191	255	
3292.745	1	1	0	0	0.17715	0.037694	0.26288	0.033049	0.019961	0.21247	0.12541	0.21588	0.34141	0.13504	0.31502	0.17202	0.060597	0.20573	0.063605	0.16822	-2.775	-3.1792	-2.7417	-3.3812	-2.8208	-2.7521	-3.5896	-2.8333	-3.0917	-3.225	-2.5271	-3.425	-3.0979	-2.9333	-3.4625	-2.6771	-58.411	-2.484	-137.425	131.406	8.146	111.118	-164.467	76.711	26.654	96.594	97.171	141.648	56.564	155.332	-138.330	179.502	0.00085684	0.00049534	0.00010133	549.05	7.0066e-06	2.9841e-06	794.62	195.33	7.3058e-06	5.3328e-07	282.3	116.69	87.434	44.385	2.0668e-06	59.006	0.00037018	0.00032713	8.3856e-05	479.09	3.9581e-06	3.5744e-06	679.61	168.92	3.9811e-06	3.687e-06	241.48	99.789	75.517	37.87	3.5722e-06	50.589	-50.190	-41.000	156.122	-157.077	186.604	114.123	-159.078	-151.416	-2.129	118.178	-154.836	-151.231	-148.962	-144.072	150.193	-148.295	-8191	255	
3292.817	1	1	0	0	0.057958	0.31285	0.092295	0.23383	0.069217	0.15579	0.15032	0.20384	0.26892	0.2737	0.20816	0.20578	0.31937	0.26427	0.17999	0.24675	-2.7396	-3.3125	-2.5854	-3.3563	-3.0479	-2.8479	-3.5312	-2.8	-2.9688	-3.2396	-2.6354	-3.2125	-3.0833	-2.6521	-3.4542	-2.7313	-130.152	17.446	-17.699	4.519	-98.896	161.707	11.481	158.856	21.381	75.032	184.845	72.171	180.954	164.288	133.022	112.972	0.00084804	0.00014726	0.0001229	543.96	1.1806e-05	2.0343e-06	787.91	191.59	8.1643e-06	3.1472e-06	281.4	115.96	87.64	44.111	7.1129e-06	59.027	0.00037937	0.0003412	8.9744e-05	477.93	3.934e-06	3.5188e-06	672.15	166.96	3.8285e-06	3.5607e-06	239.99	99.124	75.261	37.766	3.6343e-06	50.483	-40.786	183.098	-151.615	-157.077	44.753	101.159	-159.321	-151.768	-32.583	154.100	-153.959	-151.394	-148.486	-143.424	21.633	-148.153	-8191	255	
3292.913	1	1	0	0	0.064479	0.20014	0.19502	0.2264	0.053873	0.27393	0.011839	0.1621	0.1678	0.11769	0.068515	0.23321	0.14563	0.26738	0.18503	0.33834	-2.325	-3.5417	-2.4417	-3.2083	-3.1063	-2.725	-3.4292	-3.0604	-2.9167	-3.1771	-2.6688	-3.325	-3.1167	-2.4562	-3.3854	-2.975	35.996	54.038	71.378	174.279	-55.379	-140.948	-102.084	110.242	16.115	52.523	155.195	157.854	81.639	-122.877	-107.630	-152.643	0.00069774	0.00035071	0.0001929	547.55	1.818e-06	2.6894e-06	785.61	191.91	2.9166e-06	8.373e-06	280.19	117.52	87.946	44.16	3.0446e-06	60.104	0.00035594	0.00033044	9.5774e-05	479	3.7622e-06	3.5554e-06	674.01	167.95	3.7484e-06	3.5592e-06	243.17	100.2	75.905	37.874	3.9045e-06	51.013	-44.684	158.751	102.295	-156.987	32.270	67.711	-159.378	-151.557	-18.902	-43.504	-154.431	-151.065	-148.775	-143.796	-19.126	-148.418	-8191	255	
3293.034	1	1	0	0	0.097708	0.27849	0.061493	0.04879	0.0104	0.27759	0.10079	0.31593	0.1891	0.13762	0.21864	0.075762	0.069157	0.142	0.12319	0.12877	-2.1771	-3.2958	-2.6312	-3.0812	-3.35	-2.5521	-3.4375	-2.9604	-2.8229	-3.4792	-2.3229	-3.0896	-3.1333	-2.7229	-3.1417	-3.1042	-116.482	-125.518	108.633	32.140	95.305	86.317	51.278	-113.810	124.253	-160.080	129.571	145.243	-23.789	-108.495	18.678	79.063	0.00071985	0.00034778	0.00011989	547.05	5.0533e-06	6.7183e-06	793.23	194.72	8.6155e-06	1.1624e-05	282.3	115.69	87.727	43.76	2.8681e-06	59.048	0.0003415	0.00031982	9.9227e-05	476.62	3.7028e-06	3.437e-06	679.05	168.04	3.5854e-06	3.5067e-06	243.55	98.924	75.142	37.499	3.9984e-06	50.321	-38.349	-126.477	-140.012	-157.440	49.032	15.862	-159.338	-151.558	-18.589	-8.706	-154.765	-151.012	-148.990	-143.631	-6.811	-148.430	-8191	255	
3293.130	1	1	0	0	0.1566	0.10121	0.25674	0.33045	0.23018	0.069609	0.342	0.30669	0.1891	0.056223	0.1173	0.35399	0.10316	0.20328	0.13735	0.3251	-2.0292	-3.2708	-2.7562	-3.0062	-3.2438	-2.5729	-3.2708	-3.025	-2.6208	-3.4042	-2.7521	-3.0208	-3.1437	-2.6104	-3.2375	-3.1875	128.957	-12.237	122.001	88.476	-55.987	95.770	182.409	124.180	-47.078	77.088	-50.862	164.162	-155.522	22.007	-52.881	-167.829	0.0007764	0.00043243	0.00011537	545.01	5.0068e-06	3.6728e-06	785.17	191.82	1.0785e-06	4.0081e-07	277.95	113.38	87.288	43.569	4.6002e-06	58.514	0.00033065	0.00031945	0.00010421	475.14	3.5304e-06	3.5171e-06	671.86	166.52	3.4076e-06	3.6215e-06	240.34	97.186	74.472	37.284	3.9422e-06	49.484	-60.037	28.579	9.850	-157.535	48.366	6.130	-159.693	-151.944	140.479	3.124	-154.344	-151.242	-148.694	-143.964	13.323	-148.594	-8191	255	
3293.226	1	1	0	0	0.16938	0.12789	0.36517	0.2113	0.19345	0.26273	0.17369	0.17788	0.067943	0.092344	0.22884	0.22581	0.058498	0.39324	0.056478	0.071387	-2.1167	-3.2375	-2.5917	-2.9542	-3.3458	-2.5604	-3.2542	-3.2354	-2.6042	-3.4333	-2.9958	-2.9688	-3.5	-2.5771	-3.2062	-3.5229	37.621	-47.571	-165.933	178.009	-99.891	-16.414	85.855	-114.570	-13.988	-108.742	-159.741	139.425	-127.044	166.614	-48.001	50.048	0.0008516	0.00057485	0.00024051	539.74	3.4901e-06	2.52e-06	789.8	192.87	5.2697e-06	8.5524e-06	278.11	113.51	86.023	43.627	1.1316e-06	59.451	0.0003166	0.00033477	0.00010076	472.52	3.4191e-06	3.6851e-06	675.36	165.47	3.3088e-06	3.8718e-06	240.49	97.168	73.982	37.377	3.8681e-06	50.145	-41.264	154.160	-75.167	-157.090	-118.430	-120.319	-159.494	-151.638	-87.440	-19.166	-154.825	-151.312	-148.985	-143.732	69.372	-148.523	-8191	255	
3293.322	1	1	0	0	0.14216	0.065552	0.13967	0.12552	0.087135	0.15326	0.078088	0.15087	0.11807	0.091874	0.15569	0.126	0.013961	0.17777	0.0502	0.14903	-2.1021	-3.3375	-2.9188	-2.5792	-3.3208	-2.7333	-3.1	-3.3333	-2.725	-3.1208	-2.8729	-2.6396	-3.4708	-2.8104	-3.0396	-3.3479	134.016	101.945	155.033	-108.915	55.153	-79.395	176.882	149.889	120.422	-154.580	115.795	-112.187	177.580	171.827	-74.100	154.969	0.00065988	0.00038971	0.00017239	541.85	7.9152e-06	3.1137e-06	795.07	190.35	6.8347e-06	3.3214e-06	276	114.28	85.337	43.368	1.0268e-05	58.218	0.00031332	0.00035208	9.4415e-05	474.75	3.4264e-06	3.8583e-06	679.34	165.2	3.3014e-06	3.936e-06	238.45	97.019	73.708	37.299	3.7418e-06	49.541	-52.291	-40.019	-54.222	-157.149	52.018	160.994	-159.503	-151.246	-96.962	-65.198	-154.779	-150.932	-148.603	-143.528	17.272	-148.254	-8191	255	
3293.443	1	1	0	0	0.10508	0.067734	0.13228	0.2129	0.14574	0.16885	0.075546	0.17304	0.11513	0.16201	0.10492	0.055831	0.1647	0.1515	0.17869	0.33264	-2.3104	-3.2542	-3.1667	-2.6875	-3.4042	-2.6917	-2.9437	-3.2	-2.6583	-3.1375	-3.125	-2.7083	-3.3146	-2.8271	-2.7042	-3.4917	-148.762	56.735	32.575	142.810	179.665	-51.239	3.869	-130.093	-155.712	143.103	153.691	-97.413	-157.584	55.715	122.818	162.025	0.00066357	0.00032974	0.0001714	543.24	5.8391e-06	8.1365e-06	783.2	188.45	3.2642e-06	6.8422e-06	274.23	112.11	87.07	43.316	6.7058e-06	58.152	0.00032428	0.00036636	9.2728e-05	471.88	3.5292e-06	3.8991e-06	670.48	163.48	3.4279e-06	3.8315e-06	235.99	95.988	73.876	37.14	3.3757e-06	49.132	-42.674	-143.056	-107.494	-157.115	-163.596	-46.654	-159.075	-151.762	-50.832	-22.554	-154.854	-151.229	-148.861	-143.881	-26.129	-148.774	-8191	255	
3293.514	1	1	0	0	0.1006	0.26449	0.20904	0.28711	0.061491	0.11309	0.1917	0.19942	0.24495	0.085643	0.081923	0.17065	0.11464	0.23913	0.15322	0.29803	-2.3917	-3.0521	-3.1875	-2.5833	-3.2917	-2.8354	-2.8604	-3.3708	-2.7271	-3.1625	-3.3479	-2.7542	-3.4042	-2.9979	-2.6417	-3.4854	40.569	175.289	180.394	142.036	54.549	116.418	107.762	169.326	-135.085	-16.022	65.864	153.884	-147.806	22.255	-151.760	-165.422	0.00092539	0.00048	0.00038963	547.84	8.1014e-06	4.7303e-06	783.83	190.17	7.3487e-06	3.8832e-06	278.67	112.04	85.607	43.484	9.1868e-06	58.759	0.00033608	0.00034664	8.9046e-05	474.27	3.6947e-06	3.8152e-06	671.62	164.4	3.7595e-06	3.7216e-06	237.05	96.051	73.524	37.054	3.2844e-06	49.699	-53.598	-21.266	-126.563	-157.512	-154.870	-3.912	-159.186	-151.676	-5.998	-134.160	-154.367	-151.257	-149.053	-144.202	-62.745	-148.076	-8191	255	
3293.611	1	1	0	0	0.32011	0.12579	0.10139	0.16093	0.018685	0.13325	0.27148	0.10693	0.23731	0.11462	0.20228	0.063556	0.11603	0.18636	0.235	0.33043	-2.3937	-3.1562	-3.2188	-2.4667	-3.2167	-2.9417	-2.7083	-3.3688	-2.6375	-3.0458	-3.3563	-2.6208	-3.1833	-3.1229	-2.7188	-3.3312	-106.942	-114.572	32.522	117.056	74.307	167.278	188.348	49.127	-15.452	113.487	-129.592	135.011	147.285	186.194	-14.679	114.860	0.00060637	0.00041359	8.7821e-05	545.68	3.7546e-06	3.1624e-06	794.97	188.91	6.8709e-06	2.3366e-06	276.66	113.85	84.554	43.054	4.137e-06	58.258	0.00034515	0.00032131	8.5175e-05	474.79	3.7219e-06	3.5991e-06	678.37	163.36	3.7635e-06	3.3856e-06	236.67	96.104	73.248	36.873	3.224e-06	49.261	-32.687	-21.670	-132.315	-157.113	46.805	57.107	-159.219	-151.920	-5.025	-16.916	-154.529	-151.120	-148.214	-143.809	-56.982	-147.773	-8191	255	
3293.729	1	1	0	0	0.29767	0.11835	0.17148	0.17648	0.099116	0.051972	0.15774	0.27572	0.13438	0.14628	0.14415	0.15224	0.2427	0.12491	0.19032	0.076637	-2.4417	-2.9354	-3.3771	-2.7125	-3.1917	-3.2458	-2.7729	-3.5771	-2.9021	-2.9167	-3.4521	-2.5583	-3.0604	-3.0375	-2.5438	-3.3792	176.803	158.875	-21.704	-146.031	1.098	-47.445	-146.850	-89.827	-4.229	82.275	169.680	109.813	-122.060	-168.339	184.333	143.065	0.00058711	0.00061358	0.00020188	541.48	4.3624e-06	4.006e-06	787.42	188.03	9.2658e-06	4.3464e-06	272.61	110.21	83.784	42.743	8.1411e-06	57.628	0.00035875	0.0003097	8.3137e-05	472.73	3.7653e-06	3.4151e-06	667.76	162.5	3.6487e-06	3.2795e-06	232.28	94.487	72.178	36.43	2.9992e-06	48.882	-69.549	-42.407	-71.755	-157.499	8.052	-6.772	-159.180	-150.767	-12.522	-1.028	-154.179	-151.010	-148.260	-143.478	-59.835	-147.650	-8191	255	
3293.826	1	1	0	0	0.18849	0.12919	0.22774	0.043226	0.14431	0.082091	0.31372	0.12225	0.1648	0.072441	0.11051	0.18669	0.07237	0.22336	0.1788	0.28217	-2.3979	-2.6521	-3.2938	-2.6437	-3.1375	-3.1792	-2.675	-3.3	-2.8625	-2.575	-3.3583	-2.6875	-2.9	-3.3688	-2.5271	-3.2646	24.252	45.733	-10.820	-131.326	-161.519	94.838	158.356	-21.884	137.687	-102.396	-123.581	-164.419	19.083	-155.819	-15.883	133.902	0.00074688	0.00036156	0.00034666	548.96	1.108e-05	6.1336e-06	791.86	190.15	6.0366e-06	5.8022e-06	275.73	112.03	84.018	42.947	4.7915e-06	58.606	0.00033496	0.00029667	7.8789e-05	476.84	3.5477e-06	3.278e-06	674.83	163.81	3.5015e-06	3.2102e-06	235.13	95.606	72.399	36.507	3.1149e-06	49.541	-41.965	-66.146	-74.926	-158.016	-42.447	-1.015	-159.017	-151.596	169.787	-40.439	-154.665	-151.533	-148.272	-143.840	-94.104	-148.247	-8191	255	
3293.922	1	1	0	0	0.15233	0.1334	0.093873	0.1087	0.26583	0.079189	0.21861	0.12403	0.038559	0.40901	0.14311	0.091086	0.17195	0.11674	0.038847	0.24895	-2.4271	-2.5583	-3.3271	-2.6604	-2.9354	-3.4562	-2.7229	-3.3604	-3.1229	-2.5083	-3.5438	-2.8271	-2.8896	-3.3292	-2.4354	-3.1979	-142.577	-32.422	-65.078	31.916	111.666	50.157	151.718	112.123	63.323	-142.430	108.987	175.226	-11.960	-81.976	52.492	118.687	0.0005404	0.00045009	8.7807e-05	557.74	4.0265e-07	9.302e-06	803.34	189.7	3.6229e-06	6.6415e-06	278.04	112.96	86.198	43	5.7222e-06	58.762	0.00032862	0.00028881	8.1242e-05	481.48	3.2994e-06	3.2051e-06	682.64	165.29	3.4143e-06	3.0803e-06	238.38	96.586	73.055	36.619	3.3574e-06	49.825	-45.938	-53.068	114.036	-157.648	-56.013	-83.263	-159.418	-151.835	-15.196	81.419	-155.392	-151.638	-149.049	-143.937	190.120	-148.313	-8191	255	
3294.042	1	1	0	0	0.24858	0.26201	0.11301	0.2768	0.18586	0.097508	0.12804	0.22222	0.03818	0.10246	0.18146	0.22594	0.069943	0.16817	0.18286	0.184	-2.6104	-2.5271	-3.3646	-2.8646	-2.7792	-3.4396	-2.8021	-3.0354	-3.125	-2.4417	-3.3646	-2.8833	-2.7604	-3.3563	-2.5979	-2.9771	-52.917	76.640	-63.528	165.170	-147.335	21.325	-7.307	182.759	-112.097	-167.666	153.223	-118.487	171.669	59.903	-168.254	115.371	0.00081729	0.00058875	7.0387e-05	550.49	1.0798e-05	4.762e-06	788.83	189.73	8.1397e-06	5.7491e-06	277.02	112.71	83.647	42.813	4.0755e-06	58.399	0.00032019	0.00027616	8.6672e-05	480.08	3.3239e-06	3.0738e-06	677.84	163.99	3.259e-06	3.0502e-06	237.38	95.757	72.001	36.399	3.4791e-06	49.334	-41.849	-103.426	162.792	-157.808	-48.872	8.472	-159.539	-151.549	-54.848	2.095	-155.637	-151.447	-147.988	-144.032	-70.355	-148.445	-8191	255	
3294.114	1	1	0	0	0.080058	0.1612	0.182	0.045824	0.025604	0.063407	0.23616	0.13926	0.19019	0.08578	0.020311	0.15343	0.28304	0.2171	0.31867	0.064438	-2.8667	-2.3312	-3.35	-2.9813	-2.7271	-3.5083	-2.8333	-3.125	-3.1375	-2.4667	-3.2292	-3.0396	-2.4771	-3.3688	-2.5958	-2.9458	-53.135	11.267	-46.484	-24.160	172.103	-27.163	95.301	-153.372	113.468	-14.444	-26.543	188.677	88.130	166.425	1.216	16.051	0.00068066	0.0006965	0.00021443	548.86	8.1977e-06	1.1426e-06	795.51	188.88	3.22e-06	1.0744e-05	278.44	112.41	84.786	42.511	8.661e-06	58.802	0.00031061	0.00027549	9.0385e-05	478.72	3.1694e-06	3.1681e-06	683.89	164.13	3.2096e-06	3.1119e-06	238.5	96.494	72.484	36.536	3.6156e-06	49.938	-64.215	-36.866	-38.082	-157.158	-76.707	17.420	-159.730	-152.000	121.936	18.582	-154.692	-151.724	-149.461	-143.927	-11.990	-148.566	-8191	255	
3294.210	1	1	0	0	0.087806	0.22777	0.02289	0.11635	0.15692	0.063337	0.28544	0.30257	0.21461	0.1375	0.13242	0.037304	0.18563	0.14296	0.21653	0.23978	-2.975	-2.375	-3.1542	-3.0042	-2.6958	-3.3708	-2.825	-2.9188	-3.3229	-2.5646	-3.0896	-3.2208	-2.6125	-3.5125	-2.8417	-3.1042	128.171	70.110	186.816	-12.595	-169.532	-55.927	117.489	72.571	56.067	-59.610	-69.673	-115.306	113.353	152.314	171.070	-163.826	0.00076538	0.0003016	0.00011059	555.46	4.108e-06	9.3466e-06	814.31	192.9	1.3377e-06	7.7204e-06	282.94	114.74	85.715	43.326	6.8519e-06	59.127	0.0003024	0.00029483	9.2212e-05	481.69	3.0931e-06	3.3636e-06	694.94	165.28	3.1658e-06	3.3107e-06	242.27	97.423	72.932	36.89	3.5774e-06	49.95	-51.935	-117.106	-156.300	-157.789	-33.417	79.077	-159.913	-151.879	-59.137	-75.860	-154.784	-151.604	-148.717	-144.046	-19.283	-148.370	-8191	255	
3294.331	1	1	0	0	0.09409	0.083246	0.22107	0.1727	0.098861	0.2834	0.35057	0.25247	0.056579	0.12827	0.27149	0.15346	0.1437	0.15625	0.032684	0.10607	-3.1354	-2.7167	-3.1646	-3.175	-2.6083	-3.4062	-3.0167	-2.7604	-3.3812	-2.7646	-2.9958	-3.3875	-2.4417	-3.4021	-2.8104	-2.5917	161.430	-11.304	56.833	128.051	-49.048	161.557	186.618	134.848	-147.382	-61.417	62.961	-77.292	-33.615	34.191	103.275	-148.387	0.00081793	0.00052954	7.9139e-05	550.95	6.1737e-06	9.7443e-06	805.25	190.19	2.3873e-06	6.4438e-06	277.09	112.92	84.723	42.739	1.8873e-06	58.038	0.00030616	0.00032161	9.0239e-05	479.56	3.0499e-06	3.5114e-06	687.5	163.93	3.101e-06	3.5427e-06	237.38	96.078	71.929	36.617	3.533e-06	49.301	-39.314	-55.992	-99.388	-157.732	93.930	-28.942	-159.879	-151.323	72.445	-64.143	-154.823	-151.648	-148.604	-143.821	-26.931	-148.319	-8191	255	
3294.425	1	1	0	0	0.15204	0.13049	0.27468	0.24107	0.10082	0.10698	0.18344	0.030205	0.014124	0.1708	0.16696	0.17439	0.14372	0.10097	0.21052	0.18644	-2.9667	-2.5708	-3.0208	-3.3417	-2.6271	-3.2854	-3.0687	-2.4958	-3.4104	-2.6583	-2.9104	-3.175	-2.4333	-3.1688	-3.0521	-2.6896	-68.872	-143.354	96.612	102.649	41.071	1.775	22.524	8.199	41.971	42.750	184.869	80.566	8.587	185.112	151.310	176.521	0.00054856	0.0010665	0.00022311	550.18	1.1637e-05	4.1559e-06	803.03	190.24	4.521e-06	3.594e-06	282.2	114.62	84.634	43.206	8.2614e-06	58.918	0.00030059	0.00033579	8.7283e-05	477.92	3.1173e-06	3.6816e-06	686.92	164.26	3.3148e-06	3.7471e-06	240.72	97.453	72.891	36.974	3.5309e-06	49.76	-50.262	-122.526	-1.616	-157.451	-12.526	108.176	-159.818	-152.018	-48.673	-71.376	-155.124	-151.583	-149.200	-143.771	103.431	-147.917	-8191	255	
3294.521	1	1	0	0	0.17111	0.07351	0.18269	0.15802	0.16173	0.049674	0.20765	0.08839	0.18017	0.11084	0.17911	0.049865	0.12148	0.26273	0.14539	0.13242	-3.1063	-2.5812	-2.7458	-3.2292	-2.4083	-3.1667	-3.2667	-2.5458	-3.2375	-2.875	-2.7542	-3.4354	-2.6188	-3.1917	-3.3583	-2.6146	148.012	109.363	107.861	-114.421	-112.758	143.240	126.657	-16.586	-8.150	-21.936	56.513	-102.569	-143.807	125.169	-139.600	105.049	0.00064207	0.00050137	0.00033031	556.61	6.5129e-06	3.4729e-06	813.7	190.19	1.4162e-05	1.1073e-06	284.88	115.49	85.362	43.042	4.4936e-06	59.244	0.00032656	0.0003464	8.5387e-05	481.86	3.3243e-06	3.7049e-06	694.45	164.25	3.5338e-06	3.7186e-06	241.86	97.88	73.33	36.983	3.4145e-06	50.017	-48.987	-148.599	-94.821	-156.896	-141.573	-4.928	-159.860	-152.194	-22.924	-39.914	-154.282	-151.234	-149.195	-143.622	-167.813	-148.681	-8191	255	
3294.618	1	1	0	0	0.15288	0.48409	0.13221	0.15051	0.17479	0.24115	0.22276	0.12396	0.1795	0.13571	0.11685	0.13774	0.19449	0.11845	0.080475	0.17849	-2.8396	-2.9167	-2.6792	-3.4958	-2.5646	-2.9875	-3.2646	-2.6042	-3.3833	-2.8729	-2.7875	-3.3	-2.6083	-3.1729	-3.0938	-2.6229	-112.101	-31.818	138.928	131.221	0.809	97.113	22.539	-70.698	-136.036	-48.134	-82.247	15.204	-107.853	-82.952	0.382	77.341	0.00080655	0.0011388	0.00031781	553.49	9.9905e-06	9.4272e-06	799.77	190.27	6.2811e-06	8.5455e-06	279.15	114.35	85.181	42.73	1.4017e-06	58.607	0.0003438	0.00033836	8.3742e-05	479.81	3.6472e-06	3.6859e-06	684.5	164.53	3.714e-06	3.6318e-06	237.18	96.843	73.446	36.616	3.2909e-06	49.475	-54.931	-54.603	-125.752	-157.722	-89.942	-34.985	-159.770	-151.903	13.906	-55.113	-155.236	-151.720	-149.609	-143.921	157.498	-148.680	-8191	255	
3294.715	1	1	0	0	0.15836	0.1595	0.13276	0.35742	0.15015	0.22313	0.082587	0.1056	0.063376	0.2411	0.2669	0.23957	0.035987	0.1004	0.16636	0.19599	-2.7354	-2.9417	-2.6	-3.4042	-2.6292	-2.7896	-3.3125	-2.4938	-3.0312	-2.9125	-2.5938	-3.3292	-2.6771	-3.1437	-3.1688	-2.6104	-15.454	159.932	65.449	122.952	97.701	153.093	90.701	-150.719	-63.121	141.455	160.090	25.964	-85.944	156.047	-144.813	166.525	0.00063063	0.00044302	8.3267e-05	558.24	1.2061e-05	9.7419e-06	800.53	191.34	3.1205e-06	2.4528e-06	280.42	113.85	84.761	42.604	5.7337e-06	58.959	0.00035324	0.00032181	8.194e-05	479.48	3.798e-06	3.476e-06	684.03	164.43	3.7116e-06	3.5395e-06	238.78	97.039	73.553	36.719	3.2563e-06	49.653	-55.008	138.019	-127.141	-158.655	-74.912	-16.095	-160.043	-152.246	187.464	-66.438	-155.283	-151.765	-148.701	-143.966	-49.513	-148.708	-8191	255	
3294.810	1	1	0	0	0.14344	0.094149	0.080991	0.26792	0.12591	0.083817	0.14487	0.1085	0.19858	0.089782	0.24905	0.16224	0.058556	0.030593	0.061317	0.17204	-2.825	-3.0042	-2.5542	-3.4042	-2.8667	-2.65	-3.3187	-2.5417	-3.1333	-3.1813	-2.3979	-3.3521	-2.9062	-2.8083	-3.3396	-2.5563	-121.059	99.326	-160.209	180.302	-42.859	-18.585	85.466	26.202	105.945	101.330	94.468	-10.488	-129.460	-139.863	188.308	32.872	0.00056385	0.00011037	0.00027178	556.29	1.2654e-05	3.3019e-06	812.37	191.19	1.0791e-05	1.0018e-05	282.14	114.46	85.362	43.287	6.5792e-06	59.102	0.00035228	0.000318	7.9937e-05	483.34	3.7713e-06	3.4156e-06	691.32	165.23	3.6594e-06	3.4458e-06	240.62	97.657	73.438	36.869	3.2508e-06	50.255	-55.048	-61.865	-107.632	-157.120	-61.364	-106.721	-159.707	-151.877	-5.199	-21.353	-154.497	-151.538	-148.938	-144.011	-126.452	-148.304	-8191	255	
3294.906	1	1	0	0	0.1951	0.026137	0.21444	0.16326	0.071601	0.13147	0.20491	0.13867	0.095863	0.20038	0.17838	0.10184	0.35065	0.25597	0.19827	0.20259	-2.6125	-3.1833	-2.4979	-3.3438	-2.9208	-2.7167	-3.4896	-2.7229	-2.9	-3.2042	-2.3604	-3.2417	-3.0583	-2.6292	-3.3167	-2.7521	-116.022	1.836	151.592	51.812	114.026	-71.871	73.495	7.182	63.917	9.278	-139.359	180.840	-165.731	110.693	-45.060	120.775	0.00076536	0.00010905	0.00024627	548.3	7.2045e-06	4.2929e-06	803.21	189.04	7.2181e-06	1.3854e-06	277.33	114.6	85.29	42.642	8.7837e-06	58.544	0.00034496	0.00031296	8.0811e-05	482.05	3.5852e-06	3.3321e-06	688.01	164.66	3.5536e-06	3.3196e-06	238.29	97.493	72.802	36.508	3.3142e-06	49.65	-62.299	167.171	-144.053	-157.334	-84.636	-17.052	-159.618	-151.683	22.896	-136.881	-154.428	-151.056	-148.881	-143.937	-134.076	-148.322	-8191	255	
3295.002	1	1	0	0	0.060931	0.22151	0.28371	0.29306	0.26315	0.050845	0.12158	0.17515	0.23	0.03449	0.43069	0.25304	0.17207	0.12244	0.056336	0.20909	-2.4188	-3.3583	-2.4083	-3.0292	-3.0146	-2.6542	-3.6854	-2.6292	-2.6667	-3.4083	-2.4917	-3.0375	-3.2646	-2.6542	-3.3521	-2.7438	87.046	-158.112	48.481	-40.871	-38.139	-3.255	105.650	144.075	51.923	-140.800	105.649	127.604	121.244	135.303	60.459	173.629	0.00085306	0.00047876	0.00012448	552.15	7.2755e-06	6.1187e-06	800.61	187.85	7.3371e-06	4.946e-06	274.94	112.63	84.308	42.354	4.5862e-06	57.815	0.00032903	0.00030483	8.5715e-05	480.81	3.4647e-06	3.1381e-06	681.56	163.83	3.41e-06	3.2668e-06	237.25	96.773	72.27	36.354	3.6047e-06	49.398	-42.177	-42.259	-117.509	-157.944	-120.199	28.910	-159.391	-152.017	-32.147	-10.743	-154.783	-151.480	-149.104	-143.795	47.722	-147.968	-8191	255	
3295.123	1	1	0	0	0.19903	0.17297	0.14185	0.21749	0.17061	0.11653	0.28255	0.23792	0.24726	0.068313	0.12012	0.1212	0.060291	0.18255	0.3125	0.22348	-2.2604	-3.3375	-2.5	-3.1063	-3.2521	-2.6042	-3.3563	-2.8979	-2.4833	-3.2792	-2.5542	-3.0667	-3.2687	-2.6042	-3.2646	-3.0812	-143.228	18.948	-151.900	-26.087	97.112	185.668	81.969	113.616	-121.108	-128.810	170.172	128.366	146.521	167.672	97.876	76.528	0.00068949	0.00026408	0.00013715	549.65	1.1319e-05	7.0245e-06	803.74	189.58	2.7606e-06	9.8763e-06	279.21	113.18	84.331	42.621	4.3852e-06	58.163	0.00031779	0.00030203	9.2936e-05	480.69	3.4532e-06	3.1573e-06	689.95	164.08	3.2981e-06	3.3209e-06	240.28	96.817	72.391	36.417	3.7496e-06	49.573	-57.429	161.423	-108.113	-157.489	-34.529	-42.402	-159.117	-151.520	-41.799	-80.683	-155.240	-151.005	-148.853	-143.671	-126.854	-148.084	-8191	255	
3295.219	1	1	0	0	0.14373	0.099245	0.33001	0.11443	0.15325	0.073785	0.12958	0.21824	0.18325	0.16977	0.11066	0.091888	0.09699	0.24113	0.030753	0.24339	-2.1042	-3.2479	-2.7458	-2.9938	-3.2896	-2.5708	-3.2417	-3.0167	-2.3625	-3.3667	-2.7167	-2.8208	-3.2104	-2.5875	-3.175	-2.9917	142.067	150.998	-31.617	-68.171	-145.175	117.311	-96.877	46.197	29.625	-72.762	-92.444	117.952	29.648	176.901	-39.142	101.001	0.00076768	0.00023568	0.0003789	552.24	2.6336e-06	2.4615e-06	807.81	188.56	3.1279e-06	5.8485e-06	273.78	112.09	83.086	42.361	9.7973e-06	57.737	0.00031712	0.00031009	9.8146e-05	481.3	3.3425e-06	3.2754e-06	691.02	163.44	3.2457e-06	3.4311e-06	237.39	95.764	71.507	36.036	3.7873e-06	48.747	-43.721	-58.756	-26.880	-157.208	-60.732	148.150	-159.378	-151.089	35.432	40.846	-154.796	-150.988	-148.413	-144.002	74.079	-147.714	-8191	255	
3295.315	1	1	0	0	0.033114	0.1308	0.042547	0.16724	0.11245	0.092711	0.27175	0.10141	0.29751	0.18972	0.102	0.20443	0.3911	0.34079	0.062036	0.031248	-2.1583	-3.2729	-2.7938	-2.8458	-3.3771	-2.5062	-3.0854	-3.175	-2.6937	-3.3521	-2.7792	-2.7854	-3.4208	-2.6792	-2.9792	-3.2896	59.109	42.618	175.308	153.687	19.330	-87.014	187.796	-160.457	-104.297	145.774	103.237	143.118	112.236	148.478	111.083	-111.606	0.00062127	0.0009586	9.1371e-05	553.58	3.2641e-06	1.4625e-06	793.21	187.69	5.1139e-06	8.2999e-07	273.78	111.04	83.991	42.409	5.5863e-06	57.748	0.00029985	0.00032233	9.542e-05	478.97	3.2283e-06	3.5114e-06	682.01	162.08	3.2042e-06	3.5535e-06	235.57	95.494	71.832	36.312	3.6378e-06	48.927	-54.502	-153.266	-113.586	-157.535	-61.371	171.664	-159.140	-151.152	-57.870	-151.480	-154.187	-151.171	-148.268	-143.631	-124.421	-148.307	-8191	255	
3295.411	1	1	0	0	0.11618	0.13866	0.093229	0.14232	0.12446	0.11136	0.29579	0.44075	0.33028	0.21555	0.02766	0.43243	0.29211	0.13918	0.10706	0.16469	-2.0083	-3.4604	-2.7521	-2.7146	-3.4917	-2.9229	-2.9521	-3.4292	-2.6229	-3.3479	-3.0687	-2.8146	-3.3125	-2.6208	-2.9437	-3.45	177.461	188.759	11.435	158.815	133.760	-104.779	120.840	143.386	-88.920	144.541	105.378	-145.388	-63.827	103.199	179.077	154.613	0.00074148	0.00037576	0.00015895	551.39	6.7977e-06	3.2867e-06	803.81	187.9	8.7121e-06	3.1857e-06	275.72	112.18	84.761	42.445	7.2729e-06	58.885	0.00029721	0.00033659	9.2153e-05	477.9	3.1938e-06	3.7032e-06	686.09	162.52	3.2111e-06	3.7293e-06	237.04	95.76	72.11	36.449	3.4776e-06	49.612	-50.311	-74.040	148.345	-157.643	-115.242	1.760	-158.770	-151.243	148.916	-160.699	-154.635	-150.675	-148.791	-143.524	8.364	-148.070	-8191	255	
3295.507	1	1	0	0	0.22638	0.32298	0.20572	0.35236	0.12539	0.097214	0.2005	0.071429	0.31336	0.13373	0.10101	0.17053	0.31992	0.29465	0.35627	0.031704	-2.1208	-3.2	-2.9854	-2.6146	-3.3854	-2.6583	-3.0521	-3.275	-2.6708	-3.2646	-3.0208	-2.7708	-3.3812	-2.8812	-2.7375	-3.4521	-156.795	162.016	19.189	-152.826	177.580	40.448	186.503	-133.126	-83.123	-41.455	-76.233	-68.681	-66.638	154.596	-65.253	112.270	0.00072458	0.00056209	0.0001076	555.42	6.9517e-06	7.5517e-06	802.71	188.82	8.5338e-06	1.0921e-05	276.94	113.08	84.239	42.572	5.1051e-06	58.162	0.00031639	0.00035724	9.2578e-05	479.39	3.4305e-06	3.9254e-06	686.35	162.9	3.3944e-06	3.8072e-06	238.61	96.284	72.412	36.542	3.5131e-06	49.143	-51.519	-28.686	178.169	-156.584	-15.512	27.842	-158.915	-151.402	-21.768	-26.870	-154.195	-150.894	-148.463	-143.325	-9.049	-147.886	-8191	255	
3295.603	1	1	0	0	0.094471	0.094512	0.15303	0.16062	0.12075	0.25957	0.094175	0.23535	0.16987	0.034426	0.15338	0.26372	0.078311	0.25789	0.12796	0.05774	-2.0833	-3.0667	-3.0917	-2.5312	-3.3187	-2.9667	-2.925	-3.2104	-2.7021	-3.1312	-3.2396	-2.5375	-3.3208	-2.9	-2.6667	-3.3958	-38.506	184.823	-159.272	37.679	-65.479	165.747	-20.187	139.714	68.243	-102.357	164.057	-74.533	162.574	173.232	-40.639	-134.756	0.0010073	0.00033512	0.0003172	551.12	4.976e-06	6.9959e-06	795.24	187.71	6.1571e-06	3.8828e-07	274.75	112.81	84.653	42.598	3.4632e-06	58.165	0.00034168	0.00034674	8.981e-05	475.94	3.7062e-06	3.8725e-06	680.8	162.26	3.7047e-06	3.78e-06	236.64	96.264	72.664	36.438	3.3424e-06	49.117	-45.158	-74.456	-59.916	-157.160	-153.005	-21.571	-159.657	-151.413	-117.042	149.380	-154.937	-150.709	-147.825	-143.353	78.621	-147.947	-8191	255	
3295.722	1	1	0	0	0.20852	0.046579	0.25536	0.25917	0.19954	0.074197	0.10179	0.27037	0.27393	0.089331	0.10641	0.147	0.028085	0.31916	0.077968	0.21323	-2.2979	-2.9229	-3.1104	-2.5417	-3.2833	-3.1188	-2.6562	-3.3771	-2.7146	-2.8604	-3.3958	-2.5271	-3.2	-3.1167	-2.5396	-3.3979	-82.092	93.473	-99.170	89.257	-102.517	-85.790	177.308	79.467	-109.297	38.396	107.617	183.296	136.660	152.366	84.055	142.268	0.00077791	0.000996	0.00017754	546.25	5.0728e-06	6.2554e-06	800.29	190	3.3119e-06	1.1682e-05	279.13	112.89	84.406	42.305	1.045e-05	58.538	0.00036128	0.00033392	8.9935e-05	475.05	3.9699e-06	3.8241e-06	684.46	163.76	3.927e-06	3.6325e-06	238.55	96.646	73.047	36.498	3.2815e-06	49.668	-48.289	-35.440	13.083	-157.596	-54.286	-49.959	-158.935	-151.737	-18.712	46.970	-154.398	-151.097	-148.618	-143.910	-48.252	-147.884	-8191	255	
3295.819	1	1	0	0	0.29774	0.17371	0.047179	0.2913	0.096818	0.034684	0.16708	0.040361	0.12873	0.16752	0.15935	0.20047	0.077925	0.093331	0.14992	0.17293	-2.3208	-2.7792	-3.2313	-2.6896	-3.1813	-3.025	-2.525	-3.3479	-2.9437	-2.8458	-3.3417	-2.5896	-3.1521	-3.1625	-2.5625	-3.2687	-53.128	36.600	-102.795	-134.782	-117.207	-133.274	164.497	27.903	-86.551	18.365	-116.101	112.293	169.075	166.063	54.110	100.668	0.00072791	7.7311e-05	3.5205e-05	553.51	3.2976e-06	3.9691e-06	801.36	188.29	3.8433e-06	5.3155e-06	277.51	113.16	84.038	42.462	7.9296e-06	57.728	0.00036494	0.00032738	8.4558e-05	480.17	3.8688e-06	3.5979e-06	685.78	163.57	3.8494e-06	3.43e-06	236.86	96.717	72.473	36.272	3.2578e-06	49.115	-50.764	51.790	-46.005	-157.339	-19.097	-60.174	-159.677	-151.378	26.151	99.479	-154.378	-150.884	-148.591	-144.150	-43.372	-148.215	-8191	255	
3295.915	1	1	0	0	0.15956	0.20479	0.23114	0.29907	0.17703	0.16194	0.31598	0.15618	0.092389	0.18791	0.12955	0.16864	0.13717	0.085284	0.21185	0.060491	-2.45	-2.7375	-3.2792	-2.5187	-3.0167	-3.2021	-2.6417	-3.2	-2.7396	-2.4271	-3.2917	-2.5	-2.9708	-3.2125	-2.4562	-3.2604	-55.208	38.912	141.514	-149.556	63.858	61.243	-146.074	-128.153	1.283	37.149	170.489	151.400	186.881	-87.895	-70.056	159.057	0.00079286	0.00074986	0.00021178	552.29	8.8089e-06	1.6946e-06	793.68	188.6	2.0755e-06	2.6141e-06	273.48	112.11	84.38	42.185	7.3194e-07	58.188	0.0003657	0.00032103	8.6643e-05	478.81	3.8432e-06	3.5769e-06	679.12	163.68	3.8517e-06	3.4444e-06	234.93	96.126	72.433	36.311	3.3134e-06	49.251	-71.446	-155.032	-126.705	-157.937	-128.945	-60.372	-159.339	-152.101	-10.694	-16.750	-154.432	-151.614	-148.582	-143.899	16.301	-148.360	-8191	255	
3296.011	1	1	0	0	0.046484	0.089353	0.014779	0.23511	0.23234	0.24274	0.13677	0.20829	0.079797	0.23484	0.087407	0.2258	0.325	0.25779	0.045192	0.23139	-2.5354	-2.4729	-3.3167	-2.6	-2.7875	-3.3937	-2.5	-3.0854	-2.9458	-2.5208	-3.425	-2.5958	-2.8646	-3.3854	-2.5104	-3.0646	-7.744	183.644	-55.896	142.032	-102.262	127.667	119.216	80.073	42.843	-119.879	-154.058	177.848	174.510	132.731	-89.507	12.435	0.00068451	4.1363e-05	5.7824e-05	547.56	6.1102e-06	2.3316e-06	793.75	187.92	2.01e-06	6.368e-06	280.34	112.44	84.379	42.859	4.9721e-06	58.46	0.00035109	0.00031532	8.7606e-05	479.17	3.6544e-06	3.4568e-06	680.52	163.88	3.7045e-06	3.3546e-06	239.02	96.81	72.379	36.465	3.5979e-06	49.582	-51.186	-136.693	94.500	-157.463	3.558	74.411	-159.902	-151.832	33.632	48.272	-154.943	-151.363	-148.940	-143.830	-165.339	-148.609	-8191	255	
3296.107	1	1	0	0	0.37128	0.18618	0.12621	0.16463	0.13013	0.23413	0.12673	0.15641	0.11407	0.21067	0.011013	0.22764	0.18782	0.26382	0.14607	0.13475	-2.8292	-2.5167	-3.3042	-2.7104	-2.7812	-3.4083	-2.5812	-3.2313	-2.9021	-2.6167	-3.3917	-2.9188	-2.7708	-3.4813	-2.6688	-3.0458	99.827	-83.229	-26.409	169.011	80.600	-169.026	137.436	147.677	-158.886	35.688	-57.320	-36.506	-66.672	101.940	-23.953	-82.131	0.00091116	0.00040439	8.7557e-05	550.4	4.2119e-06	2.7134e-06	797.14	187.66	7.8203e-06	1.9086e-06	275.42	112.1	83.761	41.837	3.1607e-06	57.809	0.00033896	0.00030136	9.4925e-05	481.36	3.4703e-06	3.3764e-06	684.98	163.44	3.6592e-06	3.3542e-06	238.22	96.106	71.948	36.048	3.8573e-06	49.036	-63.978	-116.323	20.252	-158.370	-108.508	-24.463	-159.720	-151.639	15.010	-75.321	-155.217	-151.625	-149.404	-143.939	-69.024	-148.678	-8191	255	
3296.203	1	1	0	0	0.082633	0.20871	0.2633	0.27869	0.22741	0.083848	0.11346	0.16557	0.18289	0.1556	0.23162	0.12676	0.12583	0.067435	0.24628	0.11076	-2.7583	-2.3937	-3.2042	-2.9271	-2.6396	-3.2583	-2.7208	-3.1146	-3.1958	-2.4229	-3.4021	-3.1125	-2.7	-3.3229	-2.6542	-2.9792	40.914	131.797	-5.754	166.425	109.238	184.409	-66.977	-63.717	111.480	-44.008	-70.976	159.478	109.924	-106.322	58.199	175.397	0.00060664	0.00089694	0.00033133	538.47	1.3209e-05	4.7418e-06	790.24	186.58	6.8855e-07	4.9316e-06	268.27	111.68	84.015	41.961	1.6542e-06	56.999	0.00034509	0.00031003	9.9187e-05	476.44	3.5063e-06	3.5313e-06	675.31	161.93	3.4846e-06	3.4122e-06	234.8	94.889	71.69	36.005	4.0783e-06	48.515	-42.746	-117.922	149.811	-158.330	-4.756	-72.522	-160.083	-152.189	86.726	-128.881	-154.679	-152.019	-149.293	-143.762	132.903	-148.695	-8191	255	
3296.299	1	1	0	0	0.081896	0.19084	0.25133	0.11395	0.14645	0.24706	0.33049	0.18475	0.095098	0.1394	0.20314	0.18839	0.18074	0.027446	0.13908	0.12795	-3.1125	-2.475	-3.1458	-2.8521	-2.6271	-3.3042	-2.8333	-2.8812	-3.3792	-2.6875	-3.2479	-3.1562	-2.6167	-3.2562	-2.8	-3.0104	-91.443	6.306	-84.969	-86.182	-129.718	88.274	129.923	138.259	-95.652	158.916	74.311	131.057	151.241	11.141	13.052	-156.449	0.00061628	0.00088836	0.00033041	541.87	9.4669e-06	4.2349e-06	785.92	185.59	1.2207e-05	6.135e-06	275.02	110.09	84.311	42.27	3.5279e-06	57.971	0.00033335	0.00033128	0.00010234	475.04	3.4045e-06	3.6994e-06	677.68	161.4	3.4818e-06	3.7011e-06	237.54	94.809	71.746	36.207	4.0097e-06	48.899	-38.807	-131.506	-92.195	-157.699	0.237	43.493	-159.981	-151.956	36.308	41.957	-155.555	-151.624	-149.081	-144.071	-42.692	-148.727	-8191	255	
3296.395	1	1	0	0	0.094061	0.33287	0.13342	0.19158	0.14454	0.10951	0.20526	0.10486	0.15466	0.037355	0.097872	0.11818	0.091277	0.21032	0.16954	0.28979	-2.8229	-2.6063	-3.1188	-3.1042	-2.6021	-3.4021	-2.9583	-2.7271	-3.4146	-2.5812	-3.1292	-3.3542	-2.5625	-3.375	-2.9729	-2.6771	80.856	4.101	-95.776	-45.785	121.128	164.742	143.632	-122.291	6.841	-74.313	169.218	75.954	22.890	-67.044	181.338	61.379	0.00068696	0.00058554	0.00025753	545.61	1.1336e-05	3.273e-06	797.4	188.11	8.1013e-06	5.0123e-06	272.86	110.56	83.251	41.767	4.0793e-06	57.45	0.00032949	0.00034666	9.8394e-05	474.6	3.2938e-06	3.9437e-06	680.89	162.18	3.3854e-06	3.9495e-06	235.85	94.333	71.106	36.089	3.8882e-06	48.501	-48.362	-61.559	-88.837	-158.333	130.039	12.955	-159.702	-151.647	27.239	-45.161	-155.032	-151.852	-148.815	-143.853	-125.745	-148.805	-8191	255	
3296.514	1	1	0	0	0.2103	0.16395	0.16701	0.29863	0.16013	0.13351	0.11158	0.28846	0.057136	0.26554	0.18399	0.35247	0.083528	0.25978	0.23237	0.25998	-2.9771	-2.5521	-2.9417	-3.3521	-2.4708	-3.3187	-3.0417	-2.8667	-3.4167	-2.6042	-2.8563	-3.4271	-2.4375	-3.3875	-2.975	-2.7104	-29.761	-83.372	122.067	72.802	-112.242	-130.941	130.536	145.736	-61.410	-135.844	172.868	124.857	-163.269	-138.526	40.439	33.380	0.00087876	0.00081542	0.00038808	543.18	1.1005e-05	7.5215e-06	784.8	184.76	2.095e-06	2.4802e-06	271.59	108.51	82.313	41.685	3.3635e-06	56.102	0.00032349	0.00036103	9.5412e-05	471.19	3.4099e-06	4.0133e-06	669.88	159.8	3.6104e-06	3.9663e-06	232.34	92.991	70.662	35.782	3.662e-06	47.513	-60.340	47.653	-48.059	-158.108	-165.267	-9.198	-159.680	-152.453	-31.045	68.537	-154.726	-151.989	-149.416	-143.800	75.169	-148.678	-8191	255	
3296.610	1	1	0	0	0.25181	0.12548	0.21845	0.21348	0.27592	0.091835	0.15933	0.050453	0.079436	0.088573	0.23739	0.34132	0.11731	0.074563	0.19463	0.18946	-3.0062	-2.7667	-2.7229	-3.3125	-2.6312	-3.2146	-3.2188	-2.6104	-3.4333	-2.9646	-2.8417	-3.45	-2.7104	-3.1396	-3.0729	-2.5479	46.672	-104.892	139.159	181.320	-99.743	140.897	136.403	88.534	-130.617	168.643	-142.545	111.195	-7.385	13.411	115.315	95.520	0.00065033	0.00054124	0.00014763	535.29	2.2714e-06	3.8219e-06	775.64	185.07	1.9465e-06	1.8542e-06	266.24	107.7	81.402	41.286	1.1879e-05	56.328	0.00034117	0.00036118	9.0842e-05	468.39	3.5417e-06	3.9447e-06	666.13	159.23	3.716e-06	3.9022e-06	229.68	92.192	70.581	35.521	3.5115e-06	47.64	-49.995	-42.671	-156.946	-157.886	-128.411	1.389	-159.817	-152.099	121.982	104.552	-154.852	-151.636	-149.308	-144.212	48.631	-148.743	-8191	255	
3296.684	1	1	0	0	0.16267	0.21551	0.18669	0.12649	0.23265	0.085437	0.15941	0.1325	0.057165	0.077449	0.26541	0.11249	0.29856	0.2508	0.26125	0.15594	-2.9583	-2.6479	-2.6625	-3.2646	-2.625	-2.9708	-3.3958	-2.4542	-3.2417	-2.9792	-2.5312	-3.5375	-2.6708	-3.1229	-3.2521	-2.6208	-160.096	137.442	-136.619	168.409	74.633	187.262	-57.404	-79.379	-110.702	57.518	121.289	125.000	98.014	-143.851	-41.697	11.498	0.00066819	0.00057481	0.00030341	547.1	2.0444e-06	1.2684e-05	787.88	183.3	2.7594e-06	4.9235e-06	270.49	108.69	82.587	41.136	8.6197e-06	56.352	0.00034703	0.00034349	8.5392e-05	470.59	3.6806e-06	3.6876e-06	673.82	159.15	3.7111e-06	3.6488e-06	231.28	92.814	70.724	35.328	3.3888e-06	47.668	-37.395	54.080	-6.524	-157.837	-53.402	17.113	-160.028	-152.017	-161.323	19.356	-155.306	-152.086	-148.893	-144.256	170.941	-148.959	-8191	255	
3296.803	1	1	0	0	0.14691	0.15588	0.12451	0.19477	0.243	0.23284	0.038495	0.14256	0.18789	0.083852	0.3392	0.12105	0.15307	0.12455	0.35851	0.053217	-2.8646	-2.8937	-2.65	-3.5	-2.6896	-2.775	-3.4437	-2.5854	-3.1792	-2.9313	-2.7646	-3.3396	-2.8208	-2.8604	-3.2271	-2.5812	28.716	97.156	-131.824	-149.271	186.016	52.155	37.298	119.415	162.858	-123.289	-89.834	20.764	-130.310	120.400	-133.785	104.263	0.00075613	0.00079044	0.00024686	544.36	8.985e-06	4.5042e-06	783	184.03	6.014e-06	3.0375e-06	267.57	107.25	81.059	41.297	6.15e-06	55.704	0.00035363	0.00032147	8.2404e-05	471.58	3.7213e-06	3.4037e-06	667.06	158.36	3.7661e-06	3.4195e-06	228.1	91.591	70.081	35.083	3.1816e-06	47.265	-64.019	-81.220	-88.278	-157.738	-147.190	6.684	-160.059	-152.897	-4.603	-164.589	-155.564	-151.933	-149.021	-144.124	-55.840	-148.471	-8191	255	
3296.899	1	1	0	0	0.12906	0.18112	0.062974	0.14091	0.13385	0.033963	0.067529	0.24171	0.18197	0.089784	0.13775	0.18116	0.17379	0.092634	0.07999	0.27291	-2.7604	-3.0083	-2.6396	-3.3958	-2.8396	-2.7521	-3.3979	-2.5083	-3.2646	-3.1417	-2.6	-3.4458	-2.8604	-2.9104	-3.3521	-2.55	54.245	-23.230	-35.952	-136.734	138.862	23.886	-118.502	155.769	-72.313	-8.335	163.841	-91.745	57.544	176.884	-150.299	152.515	0.00074943	0.00036864	0.00028203	544.72	8.2105e-06	5.0512e-06	785.84	182.81	4.0162e-06	3.587e-06	273.39	108.4	82.253	41.364	9.2581e-06	56.275	0.00034408	0.00030666	7.5018e-05	473.58	3.574e-06	3.2813e-06	671.56	158.43	3.507e-06	3.3114e-06	230.72	92.784	70.236	35.225	3.1655e-06	47.879	-45.090	-87.286	-65.576	-158.259	-52.196	-43.437	-159.841	-152.391	65.850	115.695	-154.858	-151.807	-149.340	-144.504	-39.020	-148.567	-8191	255	
3296.995	1	1	0	0	0.11065	0.058671	0.38188	0.35546	0.12786	0.054569	0.019856	0.22649	0.1659	0.13823	0.15922	0.12208	0.10705	0.092867	0.13866	0.041214	-2.6042	-3.0917	-2.4521	-3.4062	-3.0458	-2.675	-3.4271	-2.9521	-3.0187	-3.3729	-2.4521	-3.2812	-3.0583	-2.7146	-3.4229	-2.7917	119.060	70.005	-75.106	188.035	41.572	-78.150	-132.002	89.595	-9.104	-80.780	-17.201	144.044	13.411	116.515	-85.147	127.921	0.00054813	0.0009131	0.00030216	547.63	6.2815e-06	1.0084e-05	799.82	185.78	2.5694e-06	5.3405e-06	272.82	110.5	81.642	41.671	3.5421e-06	57.502	0.00032756	0.00030064	7.6101e-05	476.66	3.3889e-06	3.1493e-06	681.56	161.23	3.3526e-06	3.1293e-06	233.11	94.708	70.445	35.574	3.2077e-06	48.652	-50.800	-50.969	176.534	-157.665	-26.795	-37.498	-159.902	-152.194	112.585	-133.896	-155.410	-151.285	-149.133	-144.149	-19.575	-148.773	-8191	255	
3297.091	1	1	0	0	0.16902	0.13048	0.16603	0.164	0.10708	0.060783	0.23919	0.34156	0.1179	0.12026	0.27425	0.026705	0.14448	0.14016	0.20245	0.16698	-2.3583	-3.2917	-2.5458	-3.2313	-3.0708	-2.6833	-3.4146	-2.8479	-2.8083	-3.4437	-2.5312	-3.1708	-3.1375	-2.5854	-3.3854	-2.8604	-73.992	-82.947	-127.838	-151.938	-71.162	-105.422	136.526	113.745	163.602	-120.159	110.620	156.199	8.676	-102.881	186.216	-108.980	0.0007636	0.0005611	0.00016458	548.77	2.3481e-06	5.7319e-06	793.65	183.28	3.5671e-06	2.307e-06	270.18	109.81	81.196	41.074	8.0865e-06	56.217	0.00031262	0.0002895	8.0898e-05	479	3.2555e-06	2.9967e-06	679.94	159.03	3.1144e-06	2.921e-06	230.42	93.17	69.566	35.03	3.2552e-06	47.67	-43.801	-90.243	82.643	-157.653	-161.643	42.062	-160.001	-152.435	-7.669	18.823	-155.524	-151.176	-149.650	-144.007	-89.301	-148.863	-8191	255	
3297.212	1	1	0	0	0.13618	0.17381	0.19649	0.27875	0.18327	0.17094	0.23496	0.28411	0.29245	0.08581	0.089355	0.050087	0.12167	0.28436	0.15093	0.093886	-2.4146	-3.2896	-2.4667	-3.175	-3	-2.6562	-3.4729	-2.9604	-2.6021	-3.3354	-2.7333	-3.2	-3.2729	-2.4562	-3.3396	-3.0354	137.132	118.755	-119.398	126.420	-15.157	131.810	137.558	-144.183	-102.281	9.274	157.731	78.329	-115.576	115.904	59.885	-148.327	0.00055545	0.00031093	0.00010482	551.51	6.2632e-06	1.7445e-06	800.17	184.89	6.6774e-06	7.2354e-06	270.99	109.93	81.543	41.379	4.5691e-06	57.02	0.00029846	0.000268	8.5352e-05	478.19	3.1662e-06	2.9539e-06	683.99	159.75	3.0088e-06	2.9408e-06	231.99	93.143	69.711	35.087	3.3548e-06	48.144	-74.497	-85.715	-130.762	-157.476	-45.368	95.086	-159.673	-151.751	-7.177	-127.558	-155.377	-150.978	-149.053	-144.252	-22.803	-148.538	-8191	255	
3297.283	1	1	0	0	0.047346	0.0058987	0.23067	0.16133	0.19024	0.15589	0.10367	0.099291	0.31346	0.087078	0.11606	0.034644	0.092584	0.17872	0.16087	0.13835	-2.2896	-3.2938	-2.6063	-2.9458	-3.45	-2.6208	-3.3	-3.0583	-2.4688	-3.325	-2.6354	-2.925	-3.1896	-2.7521	-3.1854	-3.1458	139.176	-0.790	27.109	107.666	-138.309	-19.048	106.396	48.321	63.315	30.894	27.702	162.798	126.569	-118.989	-29.620	167.308	0.0006792	0.001036	0.00010976	557.46	4.8779e-06	4.4024e-06	814.83	185.68	5.2104e-06	4.9459e-06	275.26	111.75	81.958	41.569	1.0223e-05	57.635	0.00027765	0.00027213	8.3746e-05	481.37	2.8908e-06	2.8804e-06	695.01	160.18	2.8398e-06	2.998e-06	235.92	94.889	70.187	35.501	3.3288e-06	48.786	-57.450	-91.390	170.939	-157.095	-165.325	-129.369	-159.988	-152.107	81.934	52.959	-155.141	-151.400	-149.209	-144.252	15.674	-149.040	-8191	255	
3297.404	1	1	0	0	0.22334	0.048196	0.084003	0.20209	0.073586	0.060902	0.15357	0.20659	0.24515	0.2528	0.30878	0.2347	0.20317	0.15018	0.19142	0.19141	-2.1854	-3.475	-2.6	-2.8958	-3.3	-2.5396	-3.1521	-3.0771	-2.4375	-3.3083	-2.7979	-2.8438	-3.4708	-2.5354	-2.9979	-3.2208	-87.829	-3.736	79.906	-137.990	119.915	131.691	-75.829	-147.496	58.381	-24.448	115.566	-166.685	134.912	-60.885	108.965	130.302	0.00069692	0.00072135	0.00017108	553.88	8.1696e-06	5.1645e-06	808.1	185.36	3.8584e-06	5.7045e-06	274.49	110.87	82.28	41.907	4.9972e-06	57.135	0.00026882	0.00028626	8.5159e-05	480.23	2.8633e-06	3.069e-06	689.06	159.53	2.7652e-06	3.1047e-06	234.64	94.601	70.463	35.636	3.2283e-06	48.466	-45.322	-138.418	-131.271	-157.670	-109.068	185.636	-159.784	-152.024	-131.658	-63.526	-154.836	-151.711	-148.878	-144.527	-105.736	-148.893	-8191	255	
3297.500	1	1	0	0	0.069579	0.2097	0.045324	0.21013	0.17025	0.06154	0.046771	0.17796	0.15107	0.073305	0.069949	0.19861	0.16729	0.22797	0.10833	0.14308	-2.0812	-3.2583	-2.8708	-2.7354	-3.3542	-2.7021	-3.1	-3.35	-2.6562	-3.275	-2.8083	-2.775	-3.4229	-2.7021	-2.8083	-3.3146	-115.286	-103.661	86.222	137.893	158.273	84.081	89.636	169.109	95.673	153.718	-56.232	179.037	-132.348	-156.214	-4.196	33.196	0.00082577	9.7985e-05	0.00033815	555.02	6.2602e-06	8.1003e-07	806.79	187.8	6.3139e-06	2.5645e-06	276.76	112.66	84.268	42.138	2.3083e-06	58.191	0.00027118	0.00030833	8.2852e-05	476.39	2.9193e-06	3.3942e-06	687.28	161.11	2.8328e-06	3.389e-06	236.32	95.364	71.368	35.987	3.1373e-06	49.023	-47.393	170.261	125.576	-157.551	40.988	142.125	-159.917	-152.710	-13.079	26.518	-155.233	-151.256	-149.321	-144.141	119.010	-148.461	-8191	255	
3297.595	1	1	0	0	0.15212	0.14942	0.21922	0.090462	0.057151	0.0741	0.18325	0.21643	0.089713	0.15696	0.037568	0.10397	0.032643	0.42905	0.027159	0.12379	-2.0708	-3.3083	-2.9062	-2.6	-3.1917	-2.6958	-2.8688	-3.4792	-2.6375	-3.0938	-3.0187	-2.575	-3.5292	-2.7271	-2.6354	-3.3354	-10.610	-10.173	-13.643	-148.180	-57.664	-5.404	-10.938	186.557	164.891	-155.069	-14.636	35.157	-59.631	171.184	-50.268	-136.921	0.00066584	0.00068128	0.00029372	552.15	7.8536e-06	6.0301e-06	815.27	189.5	3.5129e-06	8.9204e-06	278.48	114.22	83.866	42.426	8.0114e-06	59.337	0.00027863	0.0003052	8.1172e-05	477.42	3.0362e-06	3.4111e-06	691.51	162.55	2.9785e-06	3.3606e-06	238.39	96.936	71.76	36.294	3.0343e-06	49.649	-54.486	-84.327	-123.597	-157.530	-64.729	10.051	-159.558	-152.071	-0.866	-50.576	-155.343	-151.394	-149.236	-143.898	-44.311	-148.717	-8191	255	
3297.691	1	1	0	0	0.1838	0.18165	0.18384	0.035302	0.075723	0.12848	0.18499	0.072294	0.17347	0.24627	0.22292	0.053318	0.060613	0.20193	0.23342	0.30261	-2.4417	-3.0375	-3.1437	-2.5958	-3.2125	-2.8937	-2.8271	-3.475	-2.6354	-3.1021	-3.2146	-2.4437	-3.3354	-3	-2.6542	-3.4104	80.912	-77.059	-53.513	-131.868	-22.694	-47.787	-150.816	-108.953	120.393	100.132	183.557	-130.225	177.377	174.330	138.235	95.874	0.00079127	0.00038393	0.00013026	554.78	8.3965e-06	2.7624e-06	814.96	188.28	4.6e-06	8.7641e-06	274.42	113.22	83.624	42.131	2.4678e-06	58.045	0.00029994	0.00030431	7.84e-05	477.09	3.1304e-06	3.3256e-06	691.04	161.59	3.2647e-06	3.2001e-06	236.03	95.523	71.676	35.93	2.9216e-06	48.917	-47.328	0.710	-145.224	-157.881	-102.598	18.125	-159.325	-151.931	-4.578	-64.789	-155.036	-151.297	-149.122	-144.464	-48.502	-148.632	-8191	255	
3297.811	1	1	0	0	0.34318	0.11237	0.081317	0.13145	0.24293	0.13475	0.20734	0.34845	0.10649	0.16126	0.29191	0.038711	0.14902	0.28597	0.082547	0.17517	-2.225	-2.9792	-3.1021	-2.5583	-3.3917	-2.9208	-2.6083	-3.2708	-2.4979	-2.9479	-3.225	-2.6688	-3.3	-2.9104	-2.6229	-3.4083	-82.723	166.338	43.434	148.654	109.264	171.317	143.677	152.546	91.223	97.174	-103.795	82.402	180.284	166.720	-84.071	29.583	0.00076067	0.00088887	8.9718e-05	553.29	9.3443e-06	5.3055e-06	806.59	187.65	1.8168e-06	2.5289e-06	274.52	112.58	82.615	42.044	2.7488e-06	58.125	0.00031415	0.00029072	7.6562e-05	475.5	3.4196e-06	3.1825e-06	684.95	161.44	3.4451e-06	3.1609e-06	234.73	95.668	71.391	35.875	2.807e-06	49.006	-51.703	-99.364	153.900	-157.620	-93.317	1.143	-159.538	-152.056	88.082	15.246	-155.135	-151.624	-149.043	-144.160	-141.082	-148.944	-8191	255	
3297.883	1	1	0	0	0.15331	0.050073	0.1973	0.16066	0.17992	0.16984	0.097462	0.069189	0.099919	0.13022	0.039544	0.14503	0.20898	0.12712	0.25639	0.081544	-2.1146	-2.9292	-3.2188	-2.5938	-3.0604	-3.0312	-2.4792	-3.35	-2.6813	-2.7313	-3.425	-2.6813	-3.1312	-3.2979	-2.3333	-3.275	-49.861	-27.492	-161.187	111.231	-0.497	37.902	27.458	111.904	-87.050	102.786	-121.215	133.134	-99.022	-113.705	189.702	184.414	0.00067096	0.00066468	0.00016512	554.82	9.8214e-06	4.96e-06	812.79	186.48	3.8066e-06	8.586e-06	279.95	113.4	83.812	42.31	1.0542e-06	58.521	0.00032508	0.0002859	7.3928e-05	478.55	3.3886e-06	3.1378e-06	688.93	161.38	3.3851e-06	3.0682e-06	236.94	96.296	71.753	35.985	2.8551e-06	49.443	-47.959	-111.006	153.465	-157.457	-43.833	-49.006	-159.908	-151.877	181.165	-25.258	-154.893	-151.958	-149.237	-143.872	-5.682	-148.382	-8191	255	
3297.979	1	1	0	0	0.40957	0.32804	0.17447	0.095193	0.12583	0.27143	0.15874	0.14748	0.084653	0.30213	0.16911	0.22988	0.19219	0.21295	0.16171	0.17594	-2.5229	-2.6312	-3.1854	-2.4958	-2.9938	-3.4146	-2.6625	-3.3042	-2.7188	-2.6292	-3.5896	-2.6021	-2.9375	-3.3688	-2.4688	-3.3833	40.858	-147.657	93.678	-148.961	91.230	174.516	185.806	41.939	129.514	115.418	-167.098	-120.653	123.560	133.275	-2.515	-136.997	0.00062861	0.00042888	0.00025311	555.81	2.4944e-06	2.0131e-06	811.58	186.23	7.9233e-06	4.0859e-06	279.16	112.64	83.457	41.759	3.8053e-06	57.56	0.00032548	0.00027988	7.5618e-05	479.85	3.4231e-06	3.0505e-06	689.2	161.31	3.3043e-06	2.9864e-06	234.7	95.932	71.446	35.708	2.9263e-06	48.857	-51.434	168.765	-107.568	-157.768	16.108	24.812	-159.584	-151.945	58.743	-38.255	-155.013	-151.695	-148.719	-143.990	-133.356	-148.920	-8191	255	
3298.075	1	1	0	0	0.32004	0.12719	0.21626	0.22806	0.097758	0.22625	0.030969	0.090254	0.32623	0.11861	0.17071	0.12699	0.1039	0.34679	0.25539	0.22727	-2.7396	-2.6354	-3.3271	-2.6833	-2.9729	-3.325	-2.7521	-3.2042	-2.9208	-2.5771	-3.3604	-2.8833	-3.0333	-3.4354	-2.6312	-3.2146	-43.730	-35.101	92.332	-145.714	44.959	-23.030	119.332	181.480	-77.120	-35.210	132.135	-100.159	159.227	186.533	171.728	16.642	0.0007519	0.00060587	0.00014528	545.75	6.6307e-06	4.4425e-06	808.9	186.17	7.6264e-06	3.4763e-06	274.57	113.57	84.376	41.861	3.5498e-06	58.076	0.00031074	0.00027104	7.7509e-05	476.04	3.2165e-06	3.0536e-06	682.93	162.07	3.3559e-06	2.9462e-06	236.52	96.5	71.853	35.79	3.2543e-06	49.297	-51.674	-77.296	-153.555	-157.549	-71.361	-42.682	-159.621	-152.487	33.210	-103.284	-155.264	-151.629	-148.602	-144.107	31.528	-148.617	-8191	255	
3298.194	1	1	0	0	0.082616	0.11617	0.062721	0.21779	0.10439	0.031106	0.19905	0.18966	0.10473	0.17335	0.12523	0.095552	0.26291	0.095658	0.3042	0.049958	-2.7417	-2.6479	-3.3917	-2.8708	-2.7542	-3.3583	-2.5958	-3.15	-3.1625	-2.5667	-3.4125	-3.1167	-2.7771	-3.5271	-2.5062	-3.0896	63.189	-8.224	67.050	150.031	40.381	-92.103	125.625	93.241	-58.465	157.613	128.440	155.022	131.370	-17.757	9.549	135.522	0.00062246	9.255e-05	0.00037932	551.84	9.8936e-06	1.5806e-06	805.98	186.48	1.2623e-06	3.1839e-06	278.63	113.69	84.735	42.486	5.9109e-06	58.727	0.00030925	0.00026806	8.5096e-05	477.33	3.1196e-06	2.9858e-06	686.39	162.83	3.2028e-06	2.926e-06	238.44	96.934	71.98	36.132	3.5321e-06	49.623	-53.265	27.791	178.338	-157.430	0.596	-162.786	-159.475	-151.593	121.129	65.661	-154.727	-151.921	-148.691	-143.530	-43.498	-147.724	-8191	255	
3298.290	1	1	0	0	0.30163	0.16488	0.10001	0.19774	0.062684	0.26321	0.060371	0.19428	0.33951	0.14744	0.21179	0.16262	0.31305	0.11933	0.33133	0.12609	-2.8625	-2.4771	-3.1479	-2.8812	-2.575	-3.3271	-2.7146	-3.2229	-3.2708	-2.5042	-3.3104	-3.0563	-2.7979	-3.425	-2.7188	-3.0542	136.318	157.243	67.722	179.255	35.317	134.451	45.415	6.257	164.138	93.887	182.615	36.541	180.129	-9.821	-164.594	-164.381	0.00059814	0.00052143	0.00027921	547.47	4.2375e-06	1.8631e-06	799.99	188.14	5.8794e-06	4.2166e-06	279.92	112.55	84.297	41.888	3.6487e-06	58.269	0.00030924	0.00027344	9.0849e-05	475.15	3.0579e-06	3.094e-06	687.24	162.41	3.2678e-06	3.0525e-06	238.88	96.291	71.73	35.972	3.6941e-06	48.901	-47.942	-18.384	188.597	-157.607	-124.262	-47.171	-159.739	-151.530	12.526	-3.549	-154.640	-151.758	-149.004	-144.129	-104.840	-148.259	-8191	255	
3298.387	1	1	0	0	0.16043	0.009559	0.053729	0.067164	0.16623	0.16917	0.15149	0.21897	0.079308	0.21323	0.17388	0.2892	0.19732	0.19847	0.24472	0.12795	-3.0375	-2.5604	-3.1167	-3.175	-2.7354	-3.3125	-2.9625	-2.9208	-3.4583	-2.5208	-3.3146	-3.2771	-2.6208	-3.4146	-2.8333	-3.0792	-3.686	109.892	-135.644	156.189	6.893	68.067	-8.448	160.193	44.953	-72.806	-164.787	80.234	165.760	28.641	-154.715	101.885	0.00062384	0.00043185	0.00015347	545.68	6.3459e-06	6.2602e-06	787.02	186.51	1.1184e-05	3.9081e-06	275.46	111.42	83.069	41.931	1.7475e-06	57.751	0.00030324	0.00029432	9.239e-05	471.61	3.0827e-06	3.3534e-06	675.67	160.42	3.1348e-06	3.2713e-06	236.1	95.161	71.196	35.989	3.6248e-06	48.715	-32.055	149.045	-40.540	-157.274	-75.130	-40.975	-159.526	-151.807	64.720	59.794	-154.964	-151.771	-149.128	-143.901	-77.550	-148.959	-8191	255	
3298.483	1	1	0	0	0.15811	0.16657	0.07115	0.17398	0.071392	0.20698	0.26278	0.083417	0.29485	0.039089	0.29885	0.18657	0.24509	0.094666	0.043486	0.21306	-2.7625	-2.7354	-3.1292	-3.1229	-2.6854	-3.4625	-3.0062	-2.7812	-3.375	-2.5938	-2.9188	-3.3521	-2.7313	-3.4062	-3.0646	-2.8688	77.956	140.216	-164.961	145.901	-57.960	46.036	100.920	152.724	163.215	95.098	52.081	68.812	143.577	-156.132	45.463	83.028	0.00081411	0.00095666	0.0003579	539.12	1.0185e-05	4.5127e-06	795.87	186.36	2.4221e-06	2.4061e-06	280	113.23	84.34	42.262	7.5e-06	58.519	0.00029935	0.00031692	9.0863e-05	469.56	2.9739e-06	3.6036e-06	679.92	161.45	3.2471e-06	3.5852e-06	239.15	96.36	71.804	36.276	3.5468e-06	49.343	-44.586	-103.342	-86.046	-158.235	-32.752	46.872	-159.877	-152.349	95.739	-7.370	-155.537	-152.275	-149.380	-144.650	7.626	-148.995	-8191	255	
3298.579	1	1	0	0	0.056723	0.15558	0.19114	0.084328	0.20482	0.12457	0.1287	0.16099	0.18755	0.18401	0.13114	0.1362	0.20069	0.16213	0.18572	0.037855	-2.9792	-2.6375	-3.0312	-3.3063	-2.6937	-3.3271	-3.0333	-2.7	-3.3771	-2.7583	-2.9729	-3.2646	-2.6542	-3.3063	-2.9958	-2.7729	156.275	-114.336	-57.916	-73.868	152.174	-101.288	119.058	53.583	-87.984	163.744	106.920	146.388	93.783	-23.630	155.223	140.012	0.00073564	0.00067626	0.00011066	542.32	4.0119e-06	1.6973e-06	793.5	186.76	2.6072e-06	2.5617e-06	281.74	114.19	84.13	42.347	9.2092e-06	58.043	0.00030125	0.00033904	8.6202e-05	470.21	3.0971e-06	3.7431e-06	679.33	161.88	3.313e-06	3.6944e-06	238.95	96.954	72.357	36.495	3.5033e-06	49.101	-55.794	25.340	169.841	-158.084	119.051	159.939	-160.215	-152.216	-3.562	73.002	-155.162	-151.675	-149.193	-144.624	77.274	-149.102	-8191	255	
3298.675	1	1	0	0	0.20273	0.25882	0.28443	0.1205	0.24567	0.23665	0.25194	0.17345	0.10719	0.12032	0.10262	0.44584	0.091767	0.1555	0.12438	0.12678	-2.975	-2.7104	-2.7646	-3.3417	-2.4229	-3.2854	-3.1979	-2.4938	-3.1667	-2.7083	-2.7771	-3.3354	-2.6271	-3.1167	-3.1646	-2.7229	-12.359	180.104	178.810	34.993	-72.537	-112.504	107.971	-141.577	-43.692	55.622	173.109	164.914	158.161	-124.813	-138.387	128.262	0.0006277	0.00038586	0.00029411	540.2	2.7621e-06	1.0071e-05	781.43	188.62	1.9656e-06	7.0692e-06	278.16	113.19	85.041	42.46	3.5493e-06	57.56	0.00032365	0.00035263	8.4477e-05	466.72	3.4659e-06	3.8235e-06	670.59	162.06	3.5033e-06	3.718e-06	237.3	96.194	72.874	36.455	3.3144e-06	48.939	-36.180	163.279	-97.803	-158.910	-96.014	-22.102	-159.856	-152.315	149.263	-92.794	-155.124	-152.272	-149.283	-144.638	49.075	-148.635	-8191	255	
3298.771	1	1	0	0	0.13953	0.12631	0.076796	0.19308	0.22559	0.37006	0.27301	0.13756	0.21139	0.18835	0.25608	0.22171	0.15511	0.36468	0.37014	0.088618	-2.9562	-2.8146	-2.7979	-3.4792	-2.6396	-3.0187	-3.4104	-2.6208	-3.2417	-3.1021	-2.7771	-3.4125	-2.7021	-3.0667	-3.3812	-2.7146	-3.777	-108.734	126.872	-168.761	-60.614	-90.023	141.709	-168.515	179.593	16.941	134.253	127.075	114.128	-164.146	180.724	-91.455	0.00073012	0.00099993	0.00027101	532.41	9.1108e-06	4.5889e-06	783.69	188.48	2.1095e-06	6.4519e-06	281	114.52	85.205	42.576	1.0918e-06	58.656	0.00034054	0.00034063	8.3407e-05	465.05	3.7007e-06	3.6868e-06	671.32	162.71	3.8405e-06	3.7311e-06	239.07	97.711	73.45	36.581	3.3195e-06	49.672	-50.768	-17.498	-144.948	-158.165	162.683	35.768	-160.140	-151.926	34.460	138.321	-155.335	-151.661	-149.768	-144.265	-72.497	-149.062	-8191	255	
3298.892	1	1	0	0	0.040974	0.072822	0.1351	0.11181	0.073055	0.057879	0.2238	0.064361	0.12706	0.16549	0.19791	0.12457	0.14572	0.14266	0.23102	0.21951	-2.8458	-3.1208	-2.6146	-3.4708	-2.6146	-3.0271	-3.3146	-2.6896	-3.1104	-2.9833	-2.6688	-3.6104	-2.8396	-2.8396	-3.4792	-2.6729	-59.835	-168.485	109.929	-135.164	-70.784	40.925	111.059	-71.425	-61.403	170.822	37.677	179.985	-96.475	158.072	79.229	44.535	0.00081251	0.00073729	4.0711e-05	542.46	8.4892e-06	3.6583e-06	791.69	189.89	3.3547e-06	6.2842e-06	280.25	115.12	85.172	42.749	4.6078e-06	58.41	0.00036665	0.00032927	8.2039e-05	470.63	3.8547e-06	3.4687e-06	678.5	163.99	3.8386e-06	3.5172e-06	239.79	98.173	73.802	36.543	3.2393e-06	49.557	-42.287	172.044	142.925	-158.318	-21.337	-91.510	-160.041	-151.913	70.950	-27.974	-155.524	-151.787	-149.993	-143.870	9.616	-148.878	-8191	255	
3298.986	1	1	0	0	0.01346	0.17429	0.1787	0.13954	0.12981	0.13813	0.10358	0.1222	0.10684	0.11726	0.31558	0.11908	0.1644	0.096412	0.27578	0.17451	-2.6521	-3.1021	-2.6521	-3.2792	-2.9062	-2.6646	-3.5979	-2.4938	-3.0896	-3.425	-2.6542	-3.4604	-2.9667	-2.8792	-3.3521	-2.6625	73.859	-9.323	-124.620	95.741	-23.978	-114.071	144.425	64.838	-55.421	31.382	-157.893	101.298	-104.199	96.908	-66.664	171.049	0.00070039	0.00032661	0.00013972	533.9	8.9897e-06	5.1226e-06	780.5	187.21	2.0272e-06	4.5024e-06	277.21	113.61	85.078	42.377	4.3929e-06	58.062	0.00035597	0.000314	8.0579e-05	467.44	3.7329e-06	3.3564e-06	665.86	162.9	3.6382e-06	3.4276e-06	237.13	96.94	73.285	36.319	3.1857e-06	49.262	-54.088	125.889	-78.632	-157.648	13.232	158.098	-160.369	-152.166	20.216	-45.319	-155.012	-152.265	-149.595	-144.527	13.942	-149.159	-8191	255	
#DATA ENDS
