BOXY.EXE: ISS Imagent and Oximeter Data Acquisition Program Version 0.80
Ascii Record File

#ACQ INFORMATION
2  Detector Channels 
16  External MUX Channels 
1  Auxiliary Channels 
5000  Waveform (CCF) Frequency (Hz)
1  Waveforms Skipped 
30  Waveforms Averaged 
1  Cycles Averaged 
16  Acquisitions per Waveform 
10.0806  Updata Rate (Hz) 

#FILE INFORMATION
TRUE -- External MUX Channel results are PARSED.
FALSE -- AC DC and Phase are NOT grouped.
TRUE -- Companion Program Settings File CREATED.
FALSE -- AC data not excluded
FALSE -- DC data not excluded
FALSE -- Phase data not excluded
FALSE -- Auxillary Chn. data not excluded
Tab delimiters

#CALIBRATION STATE
TRUE -- Waveform Calibration Values APPLIED.


#AUX CALIBRATION VALUES
Val Type	aux-1	

Term	1.0000e+00	
Factor	0.0000e+00	


#WF CALIBRATION VALUES
A = Detector Channel
Val Type	A-AC1	A-AC2	A-AC3	A-AC4	A-AC5	A-AC6	A-AC7	A-AC8	A-AC9	A-AC10	A-AC11	A-AC12	A-AC13	A-AC14	A-AC15	A-AC16	A-DC1	A-DC2	A-DC3	A-DC4	A-DC5	A-DC6	A-DC7	A-DC8	A-DC9	A-DC10	A-DC11	A-DC12	A-DC13	A-DC14	A-DC15	A-DC16	A-Ph1	A-Ph2	A-Ph3	A-Ph4	A-Ph5	A-Ph6	A-Ph7	A-Ph8	A-Ph9	A-Ph10	A-Ph11	A-Ph12	A-Ph13	A-Ph14	A-Ph15	A-Ph16	

Term	0.00000e+00	0.00000e+00	0.00000e+00	0.00000e+00	0.00000e+00	0.00000e+00	0.00000e+00	0.00000e+00	0.00000e+00	0.00000e+00	0.00000e+00	0.00000e+00	0.00000e+00	0.00000e+00	0.00000e+00	0.00000e+00	0.00000e+00	0.00000e+00	0.00000e+00	0.00000e+00	0.00000e+00	0.00000e+00	0.00000e+00	0.00000e+00	0.00000e+00	0.00000e+00	0.00000e+00	0.00000e+00	0.00000e+00	0.00000e+00	0.00000e+00	0.00000e+00	0.00000e+00	0.00000e+00	0.00000e+00	0.00000e+00	0.00000e+00	0.00000e+00	0.00000e+00	0.00000e+00	0.00000e+00	0.00000e+00	0.00000e+00	0.00000e+00	0.00000e+00	0.00000e+00	0.00000e+00	0.00000e+00	
Factor	1.00000e+00	1.00000e+00	1.00000e+00	1.00000e+00	1.00000e+00	1.00000e+00	1.00000e+00	1.00000e+00	1.00000e+00	1.00000e+00	1.00000e+00	1.00000e+00	1.00000e+00	1.00000e+00	1.00000e+00	1.00000e+00	1.00000e+00	1.00000e+00	1.00000e+00	1.00000e+00	1.00000e+00	1.00000e+00	1.00000e+00	1.00000e+00	1.00000e+00	1.00000e+00	1.00000e+00	1.00000e+00	1.00000e+00	1.00000e+00	1.00000e+00	1.00000e+00	X	X	X	X	X	X	X	X	X	X	X	X	X	X	X	X	

B = Detector Channel
Val Type	B-AC1	B-AC2	B-AC3	B-AC4	B-AC5	B-AC6	B-AC7	B-AC8	B-AC9	B-AC10	B-AC11	B-AC12	B-AC13	B-AC14	B-AC15	B-AC16	B-DC1	B-DC2	B-DC3	B-DC4	B-DC5	B-DC6	B-DC7	B-DC8	B-DC9	B-DC10	B-DC11	B-DC12	B-DC13	B-DC14	B-DC15	B-DC16	B-Ph1	B-Ph2	B-Ph3	B-Ph4	B-Ph5	B-Ph6	B-Ph7	B-Ph8	B-Ph9	B-Ph10	B-Ph11	B-Ph12	B-Ph13	B-Ph14	B-Ph15	B-Ph16	

Term	0.00000e+00	0.00000e+00	0.00000e+00	0.00000e+00	0.00000e+00	0.00000e+00	0.00000e+00	0.00000e+00	0.00000e+00	0.00000e+00	0.00000e+00	0.00000e+00	0.00000e+00	0.00000e+00	0.00000e+00	0.00000e+00	0.00000e+00	0.00000e+00	0.00000e+00	0.00000e+00	0.00000e+00	0.00000e+00	0.00000e+00	0.00000e+00	0.00000e+00	0.00000e+00	0.00000e+00	0.00000e+00	0.00000e+00	0.00000e+00	0.00000e+00	0.00000e+00	-2.80792e+01	-1.26731e+02	-1.22018e+02	-1.83776e+02	-5.40367e+01	-5.85387e+01	-1.56154e+02	-1.62015e+02	-3.33067e+01	-7.23125e+01	-1.69848e+02	-1.70119e+02	-1.79176e+02	-1.76608e+02	-5.86712e+01	-1.49440e+02	
Factor	2.52474e-05	1.47901e-04	3.78751e-05	1.73751e-01	1.70863e-06	1.59019e-06	1.53219e-01	4.81282e-02	1.39630e-06	1.50569e-06	8.24633e-02	2.87923e-02	2.45327e-02	8.81194e-03	1.71434e-06	1.25282e-02	7.24671e-06	9.23466e-06	2.57945e-06	9.15544e-02	9.73687e-08	1.02327e-07	7.57850e-02	2.54859e-02	9.67483e-08	1.02096e-07	4.23445e-02	1.47771e-02	1.31307e-02	4.71386e-03	9.89239e-08	6.47113e-03	X	X	X	X	X	X	X	X	X	X	X	X	X	X	X	X	



#DISTANCE SETTINGS
A = Detector Channel
A-1	A-2	A-3	A-4	A-5	A-6	A-7	A-8	A-9	A-10	A-11	A-12	A-13	A-14	A-15	A-16	

2.5000e+00	3.0000e+00	2.5000e+00	3.0000e+00	2.0000e+00	3.0000e+00	1.5000e+00	3.0000e+00	3.0000e+00	3.0000e+00	3.0000e+00	3.0000e+00	3.0000e+00	3.0000e+00	1.5000e+00	3.0000e+00	

B = Detector Channel
B-1	B-2	B-3	B-4	B-5	B-6	B-7	B-8	B-9	B-10	B-11	B-12	B-13	B-14	B-15	B-16	

1.0000e+01	1.0000e+01	1.0000e+01	1.4400e+00	1.0000e+01	1.0000e+01	1.5100e+00	1.9400e+00	1.0000e+01	1.0000e+01	1.9900e+00	2.4900e+00	2.4100e+00	2.9000e+00	1.0000e+01	2.9800e+00	




#DATA BEGINS
time	group	step	mark	flag	A-AC1	A-AC2	A-AC3	A-AC4	A-AC5	A-AC6	A-AC7	A-AC8	A-AC9	A-AC10	A-AC11	A-AC12	A-AC13	A-AC14	A-AC15	A-AC16	A-DC1	A-DC2	A-DC3	A-DC4	A-DC5	A-DC6	A-DC7	A-DC8	A-DC9	A-DC10	A-DC11	A-DC12	A-DC13	A-DC14	A-DC15	A-DC16	A-Ph1	A-Ph2	A-Ph3	A-Ph4	A-Ph5	A-Ph6	A-Ph7	A-Ph8	A-Ph9	A-Ph10	A-Ph11	A-Ph12	A-Ph13	A-Ph14	A-Ph15	A-Ph16	B-AC1	B-AC2	B-AC3	B-AC4	B-AC5	B-AC6	B-AC7	B-AC8	B-AC9	B-AC10	B-AC11	B-AC12	B-AC13	B-AC14	B-AC15	B-AC16	B-DC1	B-DC2	B-DC3	B-DC4	B-DC5	B-DC6	B-DC7	B-DC8	B-DC9	B-DC10	B-DC11	B-DC12	B-DC13	B-DC14	B-DC15	B-DC16	B-Ph1	B-Ph2	B-Ph3	B-Ph4	B-Ph5	B-Ph6	B-Ph7	B-Ph8	B-Ph9	B-Ph10	B-Ph11	B-Ph12	B-Ph13	B-Ph14	B-Ph15	B-Ph16	aux-1	digaux	

25041.539	1	1	0	768	0.1465	0.28008	0.056297	0.29446	0.08577	0.041372	0.5162	0.37034	0.13631	0.29522	0.12418	0.11494	0.21155	0.23124	0.13445	0.088861	-2.7583	-3.7417	-2.975	-3.4708	-3.425	-2.7708	-3.6562	-3.4833	-2.9458	-3.5312	-2.95	-3.3583	-3.65	-2.7875	-3.5083	-3.3542	438.344	346.706	318.237	463.668	317.148	418.098	414.026	386.035	315.855	344.063	123.843	449.882	126.173	466.831	311.491	425.943	0.00079413	0.00042008	0.00017704	1361.8	8.4286e-06	5.0607e-06	1367.8	369.65	6.6963e-06	5.4523e-06	418.6	141.8	122.53	41.949	7.1244e-06	51.987	0.00049797	0.00042676	0.00012026	1383.6	4.6747e-06	4.6717e-06	1385.1	375.96	4.8217e-06	4.5649e-06	427.4	144.12	125.01	43.124	4.7793e-06	53.32	283.924	204.618	245.115	126.720	251.675	298.090	126.734	131.252	291.530	246.502	130.687	135.458	135.765	140.410	282.854	139.513	-8191	255	
25041.637	1	1	0	0	0.086068	0.11352	0.11994	0.13566	0.013012	0.17987	0.15224	0.55085	0.1115	0.18763	0.24537	0.00809	0.38965	0.11355	0.12013	0.18194	-2.4875	-3.3729	-2.9104	-3.2917	-3.6542	-2.8729	-3.5875	-3.3146	-2.8229	-3.5	-3.2208	-2.9729	-3.6604	-3.1271	-3.3583	-3.45	325.371	437.215	374.563	145.347	419.403	439.630	377.141	438.163	132.371	350.027	130.598	342.528	455.471	181.368	378.589	216.061	0.00079875	0.0005458	0.00015195	1357.3	6.3233e-06	3.5554e-06	1367.1	369.11	6.1368e-06	4.9649e-06	421.34	142.3	122.78	42.02	4.329e-06	51.916	0.00049426	0.00043557	0.00012269	1382.2	4.7029e-06	4.6346e-06	1383.2	375.66	4.7824e-06	4.5286e-06	428.43	144.12	125.21	43.166	4.5756e-06	53.261	282.103	183.246	206.327	126.874	246.755	269.970	126.586	131.585	276.432	262.184	130.572	135.613	135.889	140.308	267.534	139.280	-8191	255	
25041.730	1	1	0	0	0.18463	0.15519	0.22005	0.22243	0.15435	0.060934	0.14315	0.099631	0.13331	0.3415	0.35267	0.18343	0.33063	0.26109	0.19148	0.37674	-2.5917	-3.375	-3.0042	-3.2687	-3.6542	-2.8375	-3.5938	-3.4646	-2.6604	-3.5917	-3.2542	-3.1104	-3.5167	-3.0833	-3.1917	-3.5292	325.148	281.784	338.954	178.488	145.447	176.139	133.442	423.073	180.333	343.320	398.063	429.926	444.237	261.594	309.394	429.190	0.00076526	0.00028791	0.00014677	1362.6	8.5418e-06	5.7212e-06	1357	368.37	6.883e-06	6.5762e-06	420.89	141.62	122.73	41.804	5.7784e-06	52.232	0.00049705	0.00042933	0.00012294	1384.4	4.7889e-06	4.7495e-06	1380.1	375.34	4.911e-06	4.7781e-06	427.68	143.99	125.08	43.092	4.9668e-06	53.315	283.011	203.213	215.890	126.728	283.878	251.114	126.573	131.316	286.305	261.577	130.379	135.679	135.993	140.371	267.017	139.327	-8191	255	
25041.828	1	1	0	0	0.081703	0.23295	0.15666	0.22422	0.24807	0.16882	0.13711	0.41403	0.11955	0.16956	0.10408	0.065673	0.038058	0.13539	0.21372	0.13533	-2.2646	-3.4396	-3.1146	-2.9333	-3.4896	-3.0271	-3.4062	-3.6083	-2.8375	-3.475	-3.4458	-2.8708	-3.7083	-3.125	-3.0375	-3.6979	181.638	385.873	197.642	148.714	402.913	411.532	439.879	422.390	431.696	361.608	395.519	434.171	250.115	153.415	311.215	431.075	0.00083098	0.00053104	9.8275e-05	1366.9	7.972e-06	6.5478e-06	1365.9	367.61	5.9697e-06	6.5535e-06	419.76	141.5	122.74	41.826	6.3535e-06	52.059	0.00050147	0.00044096	0.00012611	1387.2	4.8674e-06	4.9273e-06	1382.8	375.5	5.0235e-06	4.9646e-06	427.95	143.78	125.06	43.073	5.0249e-06	53.307	282.959	207.813	195.994	126.895	254.479	270.630	126.527	131.215	267.337	256.020	130.911	135.500	135.948	140.254	280.121	139.139	-8191	255	
25041.924	1	1	0	0	0.2971	0.078492	0.2057	0.20272	0.3097	0.22102	0.3957	0.091503	0.099695	0.17979	0.26972	0.2572	0.31858	0.22956	0.20476	0.13458	-2.5563	-3.3438	-3.4021	-3.0146	-3.4896	-3.0667	-3.275	-3.7188	-2.7542	-3.4708	-3.475	-2.875	-3.6042	-2.9854	-2.7833	-3.7562	348.146	180.320	378.332	145.659	346.213	306.852	418.367	353.299	133.265	207.415	212.445	442.976	448.867	419.956	434.178	338.957	0.00081805	0.00032321	0.00015621	1358.9	7.6112e-06	3.8443e-06	1364.3	370.34	7.1024e-06	4.5702e-06	419.5	141.06	122.31	41.556	6.3263e-06	51.306	0.00050543	0.00046518	0.00012901	1382.7	4.9672e-06	5.1424e-06	1382	376.16	5.142e-06	5.0703e-06	427.86	143.88	124.88	42.964	5.0738e-06	53.177	281.585	217.495	189.135	126.796	265.578	289.648	126.749	131.515	307.163	258.443	130.721	135.387	136.423	140.270	259.284	139.337	-8191	255	
25042.020	1	1	0	0	0.04646	0.1063	0.06791	0.22219	0.058577	0.048798	0.20254	0.1464	0.1319	0.36764	0.24642	0.01623	0.17716	0.090664	0.13559	0.12344	-2.5583	-3.4437	-3.2521	-3.0187	-3.5417	-3.1333	-3.1562	-3.7104	-2.9583	-3.2792	-3.6083	-2.9188	-3.7729	-3.2917	-2.8208	-3.6958	205.210	324.641	375.515	463.271	221.145	379.609	448.459	446.428	314.510	320.596	379.836	467.397	245.467	406.005	460.615	158.263	0.0007778	0.0007052	0.00011599	1357.8	4.9985e-06	6.0526e-06	1360.3	367.4	6.808e-06	7.085e-06	421.22	141.77	122.78	41.732	9.098e-06	51.861	0.00052901	0.00047189	0.00013121	1381.8	5.1839e-06	5.269e-06	1380.8	375.06	5.3339e-06	5.3513e-06	427.9	143.88	125.07	43.058	5.5309e-06	53.355	280.007	190.719	218.294	126.744	254.219	278.763	126.768	131.513	286.347	253.163	130.668	135.511	135.903	140.047	255.713	138.942	-8191	255	
25042.141	1	1	0	0	0.10214	0.31324	0.19788	0.12822	0.31814	0.13705	0.28854	0.094185	0.042328	0.30587	0.15986	0.16776	0.12631	0.12365	0.11188	0.040816	-2.5417	-3.1917	-3.3979	-2.9813	-3.4354	-3.3604	-3.3167	-3.7896	-3.1375	-3.2167	-3.75	-3.0042	-3.5083	-3.4417	-2.8771	-3.6396	321.914	249.566	309.220	130.805	417.851	363.718	436.477	472.462	298.509	182.718	410.105	376.171	411.162	452.972	412.141	457.858	0.00074886	0.00064559	0.00011812	1353	8.8248e-06	5.8698e-06	1363.6	368.32	5.7974e-06	8.4084e-06	419.97	141.65	122.07	41.893	9.2061e-06	52.303	0.00054394	0.00050127	0.00013572	1382.1	5.5395e-06	5.2534e-06	1383.7	375.31	5.4685e-06	5.5495e-06	428.27	143.81	124.93	43.123	5.6102e-06	53.423	278.782	210.285	206.772	126.650	270.697	280.840	126.607	131.469	284.344	260.445	130.408	135.357	136.202	140.308	254.261	139.391	-8191	255	
25042.236	1	1	0	0	0.18447	0.16114	0.080131	0.18972	0.11919	0.083654	0.26593	0.1234	0.23482	0.14621	0.087493	0.32734	0.177	0.16228	0.1429	0.19082	-2.7188	-3.0125	-3.5771	-2.9062	-3.2333	-3.3458	-3.0833	-3.6375	-3.175	-2.9625	-3.7542	-3.0146	-3.4167	-3.5479	-2.775	-3.6271	411.946	246.342	200.283	392.704	218.640	286.432	376.561	437.669	153.980	147.896	144.710	408.341	342.307	286.133	270.963	331.106	0.00076264	0.00029025	0.0001017	1359	1.0253e-05	2.5942e-06	1371	371.71	7.7887e-06	6.1385e-06	424.04	142.25	123.08	42.085	6.6718e-06	52.048	0.00055892	0.00051531	0.00014135	1382.5	5.6036e-06	5.4212e-06	1384	376.46	5.6616e-06	5.5334e-06	428.93	144	125.27	43.101	5.6453e-06	53.408	281.575	175.875	224.934	126.713	271.308	290.578	126.229	131.286	290.899	239.973	130.572	135.401	135.961	140.164	253.591	139.253	-8191	255	
25042.332	1	1	0	0	0.1194	0.12327	0.29166	0.42708	0.095196	0.12442	0.37806	0.19783	0.10756	0.20156	0.32026	0.22723	0.22502	0.13883	0.2195	0.10024	-2.8896	-2.9333	-3.5792	-2.9938	-3.2167	-3.4354	-3.0021	-3.5854	-3.1646	-2.9458	-3.4896	-2.8792	-3.2812	-3.6688	-2.8083	-3.5521	306.998	231.723	133.777	427.246	353.589	355.200	419.875	388.497	192.591	403.528	435.216	310.001	425.683	440.517	193.350	272.481	0.00079837	0.00020848	0.00015343	1363.2	9.8866e-06	3.0315e-06	1369	370.6	5.6079e-06	4.6461e-06	422.12	142.26	122.9	42.011	6.1752e-06	52.006	0.00055102	0.00050793	0.00014016	1385.4	5.6395e-06	5.4805e-06	1383	376.64	5.5388e-06	5.6016e-06	428.46	144.19	125.26	43.178	5.6807e-06	53.454	282.456	181.174	216.263	126.558	276.121	270.908	126.546	131.279	281.980	259.980	130.623	135.524	135.906	139.932	276.625	139.204	-8191	255	
25042.428	1	1	0	0	0.12934	0.15832	0.1103	0.35086	0.13351	0.052962	0.17336	0.1899	0.10963	0.17476	0.14043	0.060576	0.14274	0.22729	0.13712	0.24228	-2.9167	-2.7979	-3.5375	-3.1646	-2.9833	-3.5854	-3.0229	-3.3854	-3.4	-3.0062	-3.6437	-3.1604	-3.0271	-3.5979	-2.9604	-3.4437	225.079	224.558	217.667	434.635	245.931	368.689	386.003	401.024	368.735	313.225	392.112	329.926	136.414	394.796	381.893	390.260	0.00081462	0.0005409	0.00011859	1357.5	6.994e-06	4.383e-06	1366.5	369.56	4.8322e-06	6.0254e-06	420.72	142.25	122.98	41.88	4.766e-06	52.167	0.00055478	0.00051822	0.00013876	1380.6	5.606e-06	5.815e-06	1382.1	375.3	5.5558e-06	5.7714e-06	428.08	144.08	125.42	43.055	5.6374e-06	53.339	283.873	215.848	218.294	126.623	305.761	281.138	126.201	131.445	270.034	260.733	130.561	135.529	136.332	140.229	269.693	139.173	-8191	255	
25042.523	1	1	0	0	0.055286	0.21311	0.06159	0.24275	0.11646	0.148	0.3892	0.22664	0.11084	0.023033	0.10987	0.18197	0.13824	0.28612	0.15888	0.23945	-2.8812	-2.8563	-3.4854	-3.2313	-2.7146	-3.5792	-3.0854	-3.4271	-3.4396	-2.7958	-3.5271	-3.2646	-2.9354	-3.5583	-2.8292	-3.2083	148.351	238.574	356.321	376.450	284.546	137.928	364.427	425.174	206.170	265.678	428.649	150.781	120.801	418.473	212.847	456.376	0.00075272	0.0003866	0.00016477	1365.5	8.1869e-06	6.6865e-06	1375.9	373.38	6.3406e-06	6.0633e-06	425.27	142.93	123.37	42.068	9.2017e-06	52.192	0.00055125	0.00051485	0.00014073	1384.2	5.6709e-06	5.4297e-06	1384.6	377.13	5.5566e-06	5.5725e-06	429.97	144.26	125.42	43.233	5.5294e-06	53.427	281.430	218.726	203.750	126.476	262.358	252.554	126.184	131.232	302.173	255.974	130.574	135.435	135.877	140.156	260.894	139.564	-8191	255	
25042.621	1	1	0	0	0.19925	0.1926	0.05822	0.14598	0.28517	0.23476	0.16242	0.10744	0.086807	0.27935	0.05694	0.21919	0.42983	0.24274	0.19861	0.16048	-3.1979	-2.8292	-3.5021	-3.3083	-3.0333	-3.5375	-3.3271	-3.1188	-3.5396	-2.8333	-3.5687	-3.4958	-2.8937	-3.5563	-3.0062	-3.2	461.337	386.380	274.006	117.282	348.639	246.740	433.519	389.686	249.145	385.104	285.271	388.727	408.079	369.331	327.496	250.355	0.00078582	0.00062705	0.0001121	1367.9	8.1684e-06	5.1327e-06	1375.4	371.85	4.7375e-06	7.3024e-06	423.74	142.75	123.62	42.218	9.3998e-06	51.968	0.00055197	0.0005035	0.00014304	1384.4	5.5727e-06	5.5233e-06	1384.3	376.31	5.6529e-06	5.705e-06	428.7	144.28	125.19	43.248	5.5748e-06	53.469	281.143	178.491	214.443	126.600	267.506	291.313	126.347	131.252	302.172	268.861	130.704	135.209	135.874	139.946	274.528	138.964	-8191	255	
25042.738	1	1	0	0	0.13205	0.068023	0.0093091	0.32272	0.09645	0.13773	0.24766	0.033586	0.16037	0.1616	0.088703	0.28243	0.1142	0.11965	0.23579	0.15849	-3.2083	-2.8792	-3.325	-3.4729	-2.8312	-3.5146	-3.0854	-2.9833	-3.3792	-2.7542	-3.3812	-3.5375	-2.8812	-3.6125	-3.2896	-3.1021	390.198	381.043	120.825	471.419	468.436	382.370	337.122	425.674	335.166	166.739	447.837	445.510	362.107	143.514	240.041	349.811	0.00081567	0.00041214	0.00012447	1365.4	5.8563e-06	7.0872e-06	1374.2	368.94	5.0457e-06	6.456e-06	417.34	141.35	122.1	41.818	5.4712e-06	51.927	0.00055887	0.00051377	0.00014449	1386.2	5.6888e-06	5.4199e-06	1384.9	375.74	5.556e-06	5.6982e-06	428.49	144.24	125.06	43.133	5.541e-06	53.397	283.224	205.104	237.284	126.445	272.056	263.441	126.297	131.596	281.833	254.125	130.787	135.204	136.140	140.463	259.087	139.388	-8191	255	
25042.836	1	1	0	0	0.12026	0.07659	0.13024	0.31889	0.20561	0.13005	0.12796	0.32506	0.15542	0.21638	0.26212	0.19541	0.26633	0.13095	0.12807	0.21079	-3.125	-2.6917	-3.4479	-3.5625	-2.8083	-3.6479	-3.5208	-3.0646	-3.6937	-2.9854	-3.2917	-3.5	-2.8917	-3.6458	-3.2521	-2.8	124.440	169.782	327.054	167.825	259.483	276.384	393.996	166.771	125.963	268.427	452.183	425.660	428.301	446.908	324.136	472.265	0.00076377	0.00045016	7.4998e-05	1357.8	4.3748e-06	4.2573e-06	1359.4	367.81	4.1532e-06	4.6853e-06	419.87	142.72	122.11	42.201	7.4885e-06	52.2	0.00055123	0.00052832	0.00014263	1384.8	5.5222e-06	5.5849e-06	1381.9	375.39	5.6267e-06	5.661e-06	428.37	144.37	125.02	43.23	5.4258e-06	53.468	281.311	208.710	197.304	126.746	246.145	282.698	126.680	131.636	290.392	265.278	130.644	135.088	135.966	140.368	272.873	139.526	-8191	255	
25042.932	1	1	0	0	0.16684	0.15915	0.079654	0.060306	0.17287	0.17264	0.53498	0.12641	0.15489	0.322	0.12984	0.031005	0.28509	0.28202	0.05936	0.1471	-3.275	-2.9437	-3.0646	-3.4938	-2.7042	-3.4542	-3.5458	-2.9271	-3.3833	-3.0729	-3.2375	-3.6167	-3.0083	-3.3875	-3.3833	-2.8792	348.431	178.615	339.340	227.492	208.635	289.795	429.428	413.763	182.340	422.422	138.691	467.554	432.385	470.436	295.130	314.303	0.00085165	0.00050183	0.00015537	1362.7	7.6311e-06	5.5887e-06	1373.2	374.42	5.8739e-06	4.6832e-06	421.98	142.44	123.49	42.13	6.0361e-06	51.795	0.0005592	0.00050302	0.00014342	1388.1	5.5944e-06	5.7188e-06	1385.5	377.52	5.5489e-06	5.6257e-06	429.19	144.37	125.52	43.275	5.6113e-06	53.434	282.473	181.214	198.502	126.652	283.511	260.308	126.199	131.298	304.658	233.523	130.775	135.373	135.764	140.235	240.368	139.358	-8191	255	
25043.027	1	1	0	0	0.078964	0.2961	0.085284	0.074226	0.17834	0.093	0.064628	0.2232	0.056902	0.13651	0.19598	0.20186	0.13519	0.17308	0.14643	0.15119	-3.125	-3.1979	-3.0146	-3.6188	-2.7729	-3.3729	-3.5833	-2.9646	-3.5375	-3.0687	-3.1875	-3.7313	-3.1688	-3.2917	-3.5104	-3.05	369.691	315.529	322.620	429.639	198.804	223.646	203.933	392.237	454.521	239.165	323.242	459.638	449.108	325.740	244.341	440.522	0.0008014	0.00059473	0.00013992	1360.9	5.6622e-06	7.2516e-06	1359.2	368.4	7.1641e-06	6.923e-06	418.15	140.22	121.88	41.583	7.4784e-06	51.389	0.00056019	0.00051173	0.000143	1386	5.5401e-06	5.4617e-06	1381.9	375.86	5.5423e-06	5.4723e-06	427.91	143.9	124.91	43.052	5.615e-06	53.242	281.064	210.426	210.796	126.797	283.122	258.345	126.596	131.501	293.769	270.875	130.976	135.507	136.096	140.530	254.266	139.527	-8191	255	
25043.102	1	1	0	0	0.3417	0.052569	0.28374	0.21079	0.29513	0.05691	0.24772	0.13376	0.14288	0.1773	0.21056	0.11436	0.2007	0.20607	0.25721	0.29027	-3.2062	-3.3625	-2.9479	-3.6708	-2.9771	-3.2458	-3.4333	-2.9646	-3.4854	-3.3521	-3.0167	-3.5625	-3.1312	-3.1	-3.3937	-2.7604	354.351	408.229	218.387	399.330	233.484	414.366	363.896	350.783	388.177	355.783	470.226	435.922	453.455	414.680	176.131	154.014	0.00082085	0.0008147	0.00012169	1352.3	6.9013e-06	4.3413e-06	1370.4	368.35	6.089e-06	3.5769e-06	420.3	141.24	122.39	41.79	4.4224e-06	51.965	0.00055329	0.00050427	0.0001427	1382.6	5.6358e-06	5.5943e-06	1385.5	375.59	5.5132e-06	5.5366e-06	428.45	143.93	125.22	43.154	5.6306e-06	53.331	280.101	204.408	180.529	126.660	264.980	233.922	126.367	131.567	271.679	257.218	130.652	135.419	136.175	140.429	260.949	139.260	-8191	255	
25043.221	1	1	0	0	0.13964	0.074103	0.20517	0.14411	0.080828	0.14174	0.0097945	0.077275	0.30107	0.15129	0.2473	0.1442	0.18037	0.24663	0.098343	0.34054	-2.9667	-3.2917	-2.8917	-3.7854	-3.0667	-3.0708	-3.8083	-2.9625	-3.5208	-3.3083	-3.0875	-3.6188	-3.1646	-2.9854	-3.75	-3.0646	284.339	166.130	296.830	397.069	307.003	218.555	377.265	320.407	446.417	357.532	453.276	428.258	460.514	159.479	286.219	184.507	0.00074419	0.00032671	0.00015201	1348.9	9.6598e-06	3.1695e-06	1348.9	364.9	7.0083e-06	5.2796e-06	419.09	141.61	122.6	41.727	8.1079e-06	51.642	0.00055007	0.00050943	0.00014505	1382.3	5.7924e-06	5.6941e-06	1378.8	374.3	5.5671e-06	5.4721e-06	428.49	144.11	125.12	43.124	5.5509e-06	53.283	282.286	206.126	181.908	127.176	260.076	253.784	126.817	131.632	289.642	272.282	130.759	135.593	135.851	140.513	273.252	139.314	-8191	255	
25043.316	1	1	0	0	0.12931	0.21611	0.24681	0.24801	0.17021	0.23347	0.27696	0.16512	0.23759	0.1058	0.32119	0.02912	0.27762	0.22931	0.090774	0.14835	-2.9229	-3.4	-2.75	-3.7188	-3.0896	-2.9708	-3.7333	-3.0187	-3.0583	-3.5563	-2.9917	-3.3729	-3.4958	-3.0667	-3.5854	-3	243.281	244.258	263.840	157.324	150.437	115.864	471.957	445.735	448.022	248.392	447.535	261.617	135.456	473.785	278.814	360.778	0.00080184	0.00064802	0.00010002	1342.9	8.7957e-06	5.326e-06	1347.3	366.08	7.2635e-06	4.7729e-06	414.54	139.26	120.64	41.173	1.2485e-05	51.098	0.00056804	0.00050487	0.00014243	1379.9	5.5561e-06	5.5873e-06	1380.7	374.91	5.642e-06	5.5768e-06	427.4	143.44	124.69	42.981	5.6255e-06	53.165	280.934	203.501	178.251	127.119	280.762	276.224	126.729	131.853	298.364	255.448	130.985	135.912	136.549	140.836	270.072	140.044	-8191	255	
25043.412	1	1	0	0	0.23597	0.060804	0.10331	0.076172	0.23586	0.15179	0.091499	0.1613	0.15477	0.16976	0.12366	0.31255	0.063819	0.017087	0.080144	0.37729	-2.7562	-3.5292	-2.8104	-3.5729	-3.3625	-2.8917	-3.8771	-3.2667	-3.0521	-3.5812	-3.0187	-3.4771	-3.4917	-2.8563	-3.5083	-3.2021	204.696	235.913	118.170	360.336	140.475	187.913	392.095	443.380	394.947	298.753	369.413	462.943	412.073	395.094	135.377	389.929	0.00080029	0.00039766	0.00013617	1344.6	7.2327e-06	6.6521e-06	1347	365.03	7.2123e-06	7.7676e-07	420.18	141.4	122.16	41.96	9.5456e-06	51.781	0.00055859	0.00051198	0.00014233	1382	5.6245e-06	5.7591e-06	1378	374.66	5.786e-06	5.5306e-06	427.94	144.15	124.92	43.137	5.65e-06	53.238	282.347	175.419	225.839	127.077	302.611	278.118	126.671	131.850	279.564	180.207	130.698	135.475	135.776	140.358	261.642	139.078	-8191	255	
25043.510	1	1	0	0	0.15457	0.17055	0.19202	0.2807	0.21597	0.021991	0.28295	0.21928	0.25871	0.18675	0.19384	0.18042	0.27964	0.19104	0.16254	0.23387	-2.6792	-3.475	-2.8792	-3.5542	-3.3812	-2.8333	-3.6937	-3.1479	-3.1354	-3.5229	-3.0583	-3.3979	-3.7333	-2.9917	-3.6542	-3.3063	157.114	444.451	418.581	398.595	159.491	283.298	428.484	402.374	365.882	119.420	407.740	467.577	426.805	409.141	378.677	368.297	0.00082377	0.00063928	0.00016607	1365.2	3.3856e-06	4.4986e-06	1357.9	369.01	6.4773e-06	6.4634e-06	419.03	141.29	121.92	41.815	6.2013e-06	51.799	0.00057065	0.000511	0.00014607	1386.5	5.6583e-06	5.7779e-06	1380.2	375.05	5.7168e-06	5.5376e-06	427.94	143.94	124.86	43.132	5.5478e-06	53.257	282.591	195.992	203.968	126.700	267.467	272.730	126.564	131.338	300.093	273.656	130.785	135.380	136.029	140.262	279.759	139.052	-8191	255	
25043.629	1	1	0	0	0.11494	0.23621	0.10807	0.27375	0.13177	0.11487	0.32	0.41868	0.28774	0.015109	0.23181	0.18037	0.14678	0.22061	0.07912	0.10082	-2.5479	-3.7333	-2.9083	-3.3729	-3.3688	-2.7229	-3.6667	-3.3312	-2.9625	-3.3646	-2.9917	-3.3958	-3.6479	-2.9354	-3.4667	-3.2771	153.342	462.574	230.901	458.504	378.600	156.233	371.937	453.340	437.981	269.719	145.145	436.815	120.282	116.635	164.048	403.971	0.00077751	0.00054751	0.00012168	1357.6	7.9314e-06	2.8418e-06	1369.8	370.19	6.133e-06	5.9687e-06	421.48	141.78	122.74	41.805	6.7526e-06	52.215	0.00057438	0.0005177	0.00014411	1383.2	5.6206e-06	5.6726e-06	1383.7	375.5	5.6948e-06	5.6603e-06	427.88	144.15	125.18	43.142	5.6108e-06	53.528	280.735	221.852	213.949	126.673	275.321	312.351	126.506	131.486	311.070	233.240	130.921	135.538	136.010	140.182	249.525	139.367	-8191	255	
25043.701	1	1	0	0	0.089821	0.23006	0.076043	0.18603	0.12971	0.22666	0.10192	0.11335	0.057128	0.14843	0.25629	0.12453	0.18209	0.15722	0.1269	0.20021	-2.65	-3.5083	-2.9583	-3.2354	-3.3896	-2.8438	-3.6188	-3.6063	-2.8854	-3.6396	-3.0854	-2.9875	-3.6	-2.9521	-3.2854	-3.4458	285.899	341.884	463.814	407.826	213.273	374.961	172.589	462.018	143.111	326.027	419.113	148.870	447.452	261.458	239.611	428.212	0.00079075	0.0006989	9.47e-05	1362.2	6.3126e-06	6.2702e-06	1377.1	372.39	6.3899e-06	7.4795e-06	420.11	142.3	123.46	42.163	6.9689e-06	52.012	0.00056263	0.00050958	0.00014085	1386.3	5.6423e-06	5.6139e-06	1386.5	376.39	5.6177e-06	5.6935e-06	428.04	144.38	125.29	43.164	5.6624e-06	53.394	280.585	174.805	178.041	126.631	265.971	263.273	126.342	131.338	301.583	232.012	130.617	135.512	136.105	140.256	270.522	139.170	-8191	255	
25043.822	1	1	0	0	0.19296	0.20246	0.30591	0.16525	0.16872	0.071601	0.37831	0.16466	0.15188	0.21001	0.21836	0.20782	0.28564	0.13814	0.12242	0.2037	-2.4396	-3.3854	-3.1583	-3.2833	-3.4271	-2.8292	-3.4896	-3.6562	-2.6813	-3.4562	-3.375	-2.8833	-3.625	-2.9833	-3.2	-3.7271	125.078	280.747	360.761	167.323	253.477	399.833	411.364	337.658	229.232	429.538	136.362	458.532	146.948	471.876	459.934	288.280	0.00075927	0.00054806	0.00014688	1367.3	8.95e-06	5.0383e-06	1369.1	368.2	5.6215e-06	5.2114e-06	419.13	142.4	123.12	41.94	5.9175e-06	52.12	0.00056775	0.00050011	0.00014614	1386.9	5.6531e-06	5.6419e-06	1384.8	375.58	5.7323e-06	5.6733e-06	427.39	144.26	125.21	43.182	5.7028e-06	53.336	282.863	199.091	203.167	126.505	262.241	250.284	126.619	131.109	297.226	225.150	130.995	135.431	135.717	140.221	268.007	139.254	-8191	255	
25043.916	1	1	0	0	0.090093	0.096153	0.26223	0.20269	0.12154	0.26596	0.33759	0.42239	0.069036	0.13156	0.086469	0.20491	0.067242	0.20396	0.29093	0.060277	-2.4021	-3.5167	-3.2	-2.9833	-3.3917	-3.1854	-3.2562	-3.6	-2.8604	-3.55	-3.4354	-2.9271	-3.6208	-3.075	-3.1604	-3.7354	347.246	298.638	275.270	445.331	128.049	222.818	429.938	433.327	298.964	133.847	431.505	241.759	376.010	412.209	345.280	435.673	0.0007618	0.00052343	0.00016897	1364.5	8.4008e-06	6.2449e-06	1373.3	370.99	6.1093e-06	3.8091e-06	419.85	142.2	123.11	41.988	7.5851e-06	51.923	0.00057321	0.00052045	0.00014337	1385.5	5.478e-06	5.6327e-06	1384.4	375.73	5.6124e-06	5.4942e-06	428.08	144.25	125.52	43.134	5.8309e-06	53.35	282.709	194.745	237.456	126.679	270.341	251.860	126.217	131.135	299.080	284.551	130.747	135.291	136.018	140.001	279.009	139.239	-8191	255	
25044.012	1	1	0	0	0.048773	0.021135	0.23399	0.20442	0.013575	0.11052	0.17269	0.19815	0.17283	0.043051	0.10793	0.038084	0.17777	0.29083	0.059228	0.15375	-2.4562	-3.3979	-3.3875	-3.0271	-3.5333	-3.1146	-3.2417	-3.7438	-2.8729	-3.1417	-3.4333	-2.7833	-3.5563	-3.2687	-2.9854	-3.6979	227.872	212.016	248.154	453.001	216.825	148.116	380.881	427.379	390.188	175.033	204.118	118.953	409.481	472.115	314.633	405.405	0.00077721	0.00069475	0.00017251	1360.7	7.9607e-06	3.8895e-06	1377.4	370.14	6.5966e-06	2.6444e-06	421.12	141.73	123.03	41.972	4.1253e-06	52.464	0.00056277	0.00051522	0.00014294	1384.7	5.574e-06	5.5267e-06	1386.6	375.63	5.5912e-06	5.5387e-06	428.5	144.06	125.37	43.12	5.5445e-06	53.517	282.323	205.373	204.658	126.647	290.724	268.058	126.472	131.273	302.797	251.812	130.673	135.360	136.075	140.282	292.480	139.115	-8191	255	
25044.107	1	1	0	0	0.22996	0.19829	0.30047	0.15914	0.051806	0.19544	0.27076	0.19853	0.17262	0.20224	0.018412	0.3119	0.30324	0.10847	0.26546	0.24053	-2.6896	-3.1042	-3.3604	-2.9938	-3.2917	-3.2	-3.175	-3.6063	-3.0792	-3.2896	-3.5896	-3.0354	-3.5167	-3.3167	-2.7354	-3.6312	368.551	427.240	431.781	434.503	181.308	396.778	390.304	422.364	195.335	250.324	200.005	121.690	427.457	433.901	248.874	387.542	0.0007644	0.00061739	0.0001394	1364.3	8.2451e-06	4.3994e-06	1369.3	369.89	7.2952e-06	2.978e-06	419.61	141.77	122.8	41.884	5.4713e-06	52.094	0.00057451	0.00050741	0.00014867	1384.7	5.6796e-06	5.5798e-06	1384.4	375.66	5.5781e-06	5.5799e-06	427.92	144.09	125.12	43.165	5.7732e-06	53.388	281.762	198.433	191.153	126.617	270.311	280.869	126.368	131.445	294.290	260.425	130.530	135.541	136.075	140.140	252.143	139.483	-8191	255	
25044.229	1	1	0	0	0.12962	0.10574	0.1126	0.025344	0.11169	0.090178	0.11454	0.20201	0.10772	0.14728	0.037792	0.21131	0.1396	0.51225	0.14461	0.15407	-2.4938	-2.9833	-3.4333	-2.7979	-3.3521	-3.325	-3.0125	-3.5729	-3.1417	-3.0521	-3.6437	-3.0563	-3.4083	-3.3792	-2.8083	-3.6854	175.594	213.883	440.077	197.646	289.866	119.882	407.185	417.178	313.730	149.559	296.292	430.878	435.378	453.725	383.696	452.130	0.00084628	0.00038971	0.0001659	1360.4	3.8691e-06	3.8179e-06	1369.7	368.95	8.475e-06	5.4788e-06	424.96	142.92	124.12	42.414	2.8964e-06	52.544	0.00056191	0.00050946	0.00014347	1384.5	5.5141e-06	5.7178e-06	1384.1	375.83	5.7553e-06	5.6176e-06	429.3	144.37	125.43	43.305	5.5987e-06	53.599	281.482	195.363	226.449	126.625	255.338	253.052	126.586	131.265	309.169	245.074	130.481	134.822	135.724	140.159	301.375	138.957	-8191	255	
25044.324	1	1	0	0	0.1092	0.13758	0.22279	0.25852	0.13957	0.05011	0.097151	0.092311	0.20115	0.040074	0.23734	0.1434	0.13188	0.12376	0.09194	0.20014	-2.65	-2.9417	-3.5646	-3.0854	-3.1792	-3.4083	-3.125	-3.6646	-3.1729	-3.0229	-3.8292	-3.0729	-3.2729	-3.4792	-2.6271	-3.4354	407.535	339.583	231.958	457.004	344.892	144.184	120.985	439.633	174.491	424.617	397.404	410.328	365.580	116.664	418.947	287.632	0.00075166	0.00051333	7.2985e-05	1377	7.0863e-06	7.3437e-06	1383.2	375.17	6.4916e-06	5.7923e-06	423.97	143.08	123.89	42.372	7.6174e-06	52.609	0.00055304	0.00050948	0.00014064	1388	5.5912e-06	5.6159e-06	1387.2	377.7	5.6751e-06	5.7137e-06	429.11	144.28	125.63	43.253	5.8194e-06	53.622	283.543	247.870	200.716	126.316	284.240	283.652	126.045	131.272	304.599	263.273	130.592	135.452	135.788	139.960	293.139	139.107	-8191	255	
25044.422	1	1	0	0	0.037716	0.078056	0.17013	0.20773	0.1601	0.016197	0.26367	0.16454	0.14595	0.070899	0.24235	0.37243	0.27519	0.085389	0.16148	0.086104	-2.7521	-2.7417	-3.6604	-3.2271	-3.0625	-3.4708	-2.9354	-3.5687	-3.1875	-2.7854	-3.7167	-2.9646	-3.1583	-3.7854	-2.7396	-3.4083	128.886	187.239	446.459	124.964	392.117	326.194	464.882	219.800	252.880	247.154	429.227	470.524	429.039	428.067	429.243	238.678	0.00086232	0.00030518	0.0001277	1379.1	5.0568e-06	5.4405e-06	1385	375.8	8.3926e-06	6.0687e-06	424.16	143.44	124.12	42.337	6.3543e-06	52.298	0.00056808	0.0005157	0.00014226	1388.1	5.7032e-06	5.3999e-06	1386.1	377.53	5.5346e-06	5.5523e-06	429.41	144.37	125.65	43.289	5.7697e-06	53.482	276.214	197.933	208.997	126.613	304.834	300.569	126.213	131.272	306.526	281.162	130.663	135.220	135.804	139.953	266.847	139.023	-8191	255	
25044.518	1	1	0	0	0.18367	0.099365	0.090064	0.15837	0.11011	0.025441	0.097774	0.13082	0.057634	0.30876	0.020732	0.079096	0.22492	0.1836	0.32718	0.17028	-2.8979	-2.7104	-3.3479	-3.1667	-2.9146	-3.4146	-3.0583	-3.4396	-3.3021	-2.8104	-3.6042	-3.1437	-2.9813	-3.5521	-2.8917	-3.3917	256.031	161.944	360.184	438.892	415.283	352.501	331.071	121.243	230.446	330.634	113.339	157.477	326.973	420.738	467.065	471.843	0.00076152	0.00025119	9.2111e-05	1375.9	8.6946e-06	6.7724e-06	1381.5	374.64	6.6768e-06	4.8157e-06	425.66	143.51	123.62	42.302	5.9911e-06	52.778	0.00055327	0.00052222	0.00013804	1385.2	5.6549e-06	5.6578e-06	1385.5	377.09	5.5868e-06	5.6903e-06	429.52	144.49	125.63	43.292	5.6345e-06	53.502	282.194	206.119	199.264	126.241	266.770	262.709	126.378	131.273	285.609	254.628	130.375	135.168	135.799	139.915	274.636	138.972	-8191	255	
25044.613	1	1	0	0	0.21567	0.095222	0.1357	0.27632	0.21653	0.17904	0.31584	0.088055	0.19554	0.12054	0.048676	0.21164	0.056185	0.268	0.25761	0.036615	-2.9146	-2.7208	-3.3792	-3.3229	-2.925	-3.6875	-3.1042	-3.3	-3.4292	-2.85	-3.4771	-3.3667	-2.8812	-3.6208	-2.8458	-3.1979	383.796	245.090	117.841	472.213	205.025	382.320	447.692	459.641	439.787	434.340	352.851	464.386	407.170	429.004	362.552	334.297	0.00070729	0.00080671	8.9944e-05	1378.8	6.6018e-06	4.8801e-06	1388.8	374.43	6.4212e-06	5.3293e-06	424.95	143.38	124.16	42.181	6.7669e-06	52.558	0.0005562	0.00051685	0.00014141	1388.5	5.6425e-06	5.6163e-06	1388.9	376.5	5.7182e-06	5.6429e-06	429.59	144.3	125.66	43.187	5.5869e-06	53.482	283.000	201.816	176.144	126.138	257.571	271.976	125.938	131.191	307.818	253.249	130.586	135.203	135.808	139.783	262.617	138.978	-8191	255	
25044.707	1	1	0	0	0.33285	0.08462	0.13049	0.29215	0.11362	0.21077	0.29267	0.045458	0.042213	0.052101	0.099707	0.01212	0.062972	0.30396	0.36992	0.19613	-3.1354	-2.7854	-3.2854	-3.3354	-2.6625	-3.6458	-3.2083	-3.1542	-3.3042	-2.6937	-3.5312	-3.5542	-2.8958	-3.5604	-3.0979	-2.9375	416.978	123.775	128.423	443.675	380.874	211.450	454.469	125.573	442.903	407.842	172.815	188.727	151.672	432.611	254.221	467.675	0.00082035	0.00047346	0.00014297	1373.8	7.2622e-06	6.2942e-06	1380.9	373.88	7.9286e-06	4.526e-06	423.02	143.46	124.68	42.385	8.52e-06	52.659	0.00056696	0.00052718	0.00013986	1385.3	5.8602e-06	5.6532e-06	1385	376.66	5.643e-06	5.7803e-06	428.58	144.15	125.54	43.274	5.6284e-06	53.493	282.504	213.626	197.153	126.189	280.892	295.450	126.222	131.270	308.665	278.060	130.505	135.288	135.739	139.732	262.681	139.082	-8191	255	
25044.828	1	1	0	0	0.26483	0.11113	0.076525	0.078227	0.29158	0.17124	0.33226	0.19893	0.21747	0.09378	0.073658	0.17704	0.11726	0.09599	0.32029	0.13335	-3.1083	-2.9146	-3.0729	-3.4375	-2.6708	-3.4771	-3.3146	-2.9917	-3.4958	-2.7792	-3.4479	-3.6188	-3.0229	-3.325	-3.3292	-2.9792	382.237	405.771	386.734	449.001	330.222	217.362	366.483	443.568	256.129	140.143	285.812	358.056	144.591	257.934	173.699	414.960	0.00079987	0.00058289	0.00020954	1381.6	8.9615e-06	6.6674e-06	1381.9	374.52	4.0689e-06	2.8463e-06	424.32	143.43	124.23	42.013	7.776e-06	52.423	0.00055865	0.00051949	0.0001421	1387.8	5.8295e-06	5.6792e-06	1385.1	376.42	5.7237e-06	5.7448e-06	429.49	144.29	125.47	43.135	5.7728e-06	53.457	280.418	206.991	202.280	126.493	258.668	260.311	126.082	130.899	279.436	190.402	130.488	135.089	135.798	139.966	275.939	139.176	-8191	255	
25044.926	1	1	0	0	0.19043	0.058099	0.1012	0.48883	0.22566	0.23978	0.17719	0.27991	0.22382	0.080106	0.19912	0.16473	0.16663	0.1495	0.11038	0.079897	-3.1208	-2.9604	-3.1312	-3.5833	-2.75	-3.4583	-3.3438	-2.9083	-3.45	-2.8396	-3.3104	-3.6146	-2.9	-3.3833	-3.2458	-2.8271	208.994	178.426	264.725	439.120	320.750	331.331	408.615	387.481	254.842	394.580	187.538	414.338	427.048	355.105	357.625	415.409	0.00082412	0.00060471	0.00011818	1372.1	6.1814e-06	5.7365e-06	1381.8	374.05	3.439e-06	6.4498e-06	428.22	142.82	124.34	42.375	5.9231e-06	52.356	0.00057098	0.00052968	0.00014542	1385.3	5.8208e-06	5.8495e-06	1385.4	376.72	5.7434e-06	5.7839e-06	429.82	144.14	125.5	43.215	5.7747e-06	53.491	280.264	217.257	194.206	126.367	284.751	273.309	126.132	131.139	291.163	237.546	130.397	135.078	135.819	140.189	269.307	139.321	-8191	255	
25044.996	1	1	0	0	0.20545	0.03863	0.084909	0.16556	0.13621	0.22543	0.27461	0.1086	0.22058	0.065471	0.093784	0.081116	0.11278	0.11331	0.055542	0.21119	-3.0708	-2.8083	-3.0812	-3.7333	-2.875	-3.3667	-3.3604	-3.0604	-3.5	-2.9813	-3.1271	-3.6271	-2.8833	-3.2521	-3.4167	-2.8146	457.123	323.495	133.455	455.448	332.669	230.466	399.869	159.977	403.867	142.458	395.848	154.438	464.968	203.081	159.171	368.491	0.00075383	0.00038084	0.00016952	1373.7	1.3148e-06	4.7817e-06	1376.5	374.39	6.963e-06	3.9842e-06	422.99	142.4	123.68	42.244	5.8711e-06	52.545	0.00056834	0.00052118	0.00014782	1386.6	5.7202e-06	5.6438e-06	1385.7	376.66	5.6541e-06	5.7765e-06	428.36	143.94	125.52	43.206	5.737e-06	53.388	280.919	213.631	219.558	126.413	214.293	280.533	126.154	131.146	276.031	236.637	130.567	135.148	135.698	140.191	269.952	139.150	-8191	255	
25045.094	1	1	0	0	0.026	0.1696	0.19503	0.21988	0.15378	0.044542	0.037375	0.23052	0.15241	0.19307	0.13625	0.1891	0.18322	0.08553	0.076085	0.20664	-3.0563	-3.1979	-2.9062	-3.8104	-2.9125	-3.15	-3.5229	-2.9479	-3.2833	-3.275	-2.9771	-3.7313	-3.0542	-3.2458	-3.4021	-2.9229	232.783	434.609	427.220	466.419	398.987	453.924	342.205	389.494	122.153	382.270	442.497	284.467	435.617	442.869	162.328	434.458	0.00080032	0.00046352	8.9646e-05	1378.1	8.2038e-06	5.0655e-06	1384.1	373.75	7.9962e-06	7.5285e-06	424.37	142.83	124.76	42.461	4.0774e-06	52.365	0.00056497	0.00053473	0.00014875	1387.1	5.806e-06	5.6853e-06	1386.6	376.58	5.8585e-06	5.7146e-06	428.47	144.01	125.58	43.187	5.7096e-06	53.464	282.428	214.072	214.621	126.580	292.822	269.152	126.145	131.086	278.914	241.522	130.508	135.250	135.553	140.054	237.447	139.264	-8191	255	
25045.189	1	1	0	0	0.34782	0.20042	0.098295	0.12021	0.0577	0.085535	0.096301	0.19048	0.12784	0.082199	0.097772	0.19849	0.0997	0.24653	0.04983	0.23016	-2.9917	-3.1188	-2.8458	-3.7833	-2.9875	-3.075	-3.5354	-2.7687	-3.2583	-3.1708	-2.9229	-3.6312	-2.9437	-3.2396	-3.5167	-2.8146	270.707	377.570	418.967	388.405	455.319	309.826	468.228	411.782	197.447	310.719	151.360	139.663	125.709	429.129	332.064	454.753	0.00079665	0.00042882	7.9581e-05	1379.5	6.4676e-06	6.8827e-06	1383.5	374.02	6.5773e-06	5.9365e-06	424.58	143.07	123.48	42.591	7.9836e-06	52.626	0.00057207	0.00052095	0.00015141	1387.2	5.8153e-06	5.6653e-06	1385	376.94	5.7765e-06	5.7656e-06	429.03	144.09	125.14	43.191	5.6725e-06	53.411	278.662	194.285	186.628	126.488	273.343	295.473	126.009	131.166	294.988	252.244	130.307	135.194	135.604	140.083	284.957	139.009	-8191	255	
25045.309	1	1	0	0	0.15209	0.15445	0.035325	0.095132	0.008278	0.16775	0.22376	0.33485	0.038667	0.10621	0.12127	0.18847	0.15171	0.1108	0.26983	0.25624	-2.9958	-3.1437	-2.8271	-3.5604	-3.1479	-2.9125	-3.625	-3.0167	-3.2854	-3.3354	-2.8729	-3.7333	-3.2604	-2.9729	-3.6583	-3.0312	150.567	148.859	354.469	429.013	266.019	210.213	398.282	159.898	281.459	470.803	410.685	411.788	160.772	117.519	229.580	384.053	0.00076696	0.00058311	0.00012092	1383	5.1605e-06	6.5054e-06	1387.8	374.09	4.8284e-06	7.2742e-06	425.38	143.02	123.67	42.175	7.2179e-06	52.552	0.00056924	0.00052376	0.00014977	1386.8	5.7934e-06	5.9597e-06	1386.2	376.52	5.8787e-06	5.7843e-06	429.41	144.24	125.04	43.099	5.7382e-06	53.423	283.397	217.743	193.086	126.190	292.663	270.034	126.105	131.073	286.661	238.114	130.535	135.466	135.683	140.237	255.736	139.193	-8191	255	
25045.404	1	1	0	0	0.3989	0.075994	0.14402	0.31154	0.35121	0.072829	0.28316	0.095214	0.10574	0.1506	0.42122	0.129	0.22656	0.17851	0.1444	0.097899	-2.8812	-3.3375	-2.9792	-3.8187	-3.1708	-2.9354	-3.8896	-2.9104	-3.0979	-3.6188	-3.1063	-3.4562	-3.2708	-2.9917	-3.4979	-3.0583	441.757	295.005	308.885	466.192	305.924	471.026	412.655	118.364	282.184	241.635	388.137	384.774	120.976	123.725	290.457	429.286	0.00079602	0.00039224	0.00015154	1378.9	6.5839e-06	5.7828e-06	1387.3	372.46	7.3774e-06	2.9902e-06	426.59	143.73	124.33	42.104	4.5733e-06	52.563	0.00059012	0.00052245	0.00015221	1386.6	5.7626e-06	5.7301e-06	1385.9	376.2	5.8742e-06	5.7863e-06	430.16	144.42	125.27	43.156	5.7357e-06	53.481	281.487	183.408	220.757	126.490	248.450	271.081	126.194	131.201	285.428	266.118	130.524	135.043	135.246	140.171	231.737	138.858	-8191	255	
25045.502	1	1	0	0	0.057589	0.18348	0.10545	0.13699	0.17062	0.17215	0.17369	0.1675	0.043462	0.18073	0.095541	0.043005	0.015002	0.15646	0.13567	0.16558	-2.7958	-3.3708	-2.8625	-3.4958	-3.4104	-2.8104	-3.4208	-3.1333	-2.925	-3.5875	-2.9354	-3.4146	-3.4667	-2.8271	-3.3042	-3.0875	314.262	358.915	363.893	395.650	319.942	141.711	414.650	250.181	462.278	218.878	416.753	154.403	183.950	440.002	291.314	441.533	0.00078665	0.00026597	0.00011796	1378.6	5.2426e-06	5.5745e-06	1384.5	373.22	6.9175e-06	5.8849e-06	423.45	142.63	124.01	42.342	6.7886e-06	52.365	0.00058289	0.00052172	0.00015051	1389.7	5.7768e-06	5.8663e-06	1384.4	376.34	5.7914e-06	5.8252e-06	428.9	144.21	125.36	43.18	5.6483e-06	53.36	283.228	218.200	202.681	126.611	282.397	253.785	126.270	131.212	310.764	250.600	130.578	135.328	135.816	140.166	281.996	138.817	-8191	255	
25045.598	1	1	0	0	0.13142	0.24666	0.10234	0.2637	0.11035	0.10295	0.19181	0.1156	0.066229	0.086484	0.1613	0.23816	0.12278	0.13816	0.098106	0.12463	-2.6708	-3.5563	-2.7562	-3.3979	-3.5396	-2.7375	-3.5667	-3.2771	-2.9979	-3.7188	-2.8708	-3.2396	-3.4146	-2.7854	-3.3792	-3.3083	319.363	364.994	385.325	117.035	125.605	440.883	401.366	430.338	300.146	364.480	455.610	394.785	119.007	421.685	413.009	241.095	0.00079087	0.00067736	0.00012432	1373.2	9.024e-06	3.6028e-06	1383.3	374.43	6.46e-06	5.2408e-06	424.37	143.08	123.95	42.289	7.0279e-06	52.277	0.000578	0.00052291	0.00014783	1386.3	5.7312e-06	5.8774e-06	1387.5	376.74	5.7747e-06	5.594e-06	429.16	144.23	125.3	43.18	5.622e-06	53.315	281.771	199.806	227.809	126.533	290.642	303.511	126.245	131.202	311.676	275.087	130.287	134.990	135.764	140.019	260.028	138.767	-8191	255	
25045.693	1	1	0	0	0.15808	0.025285	0.039058	0.1272	0.063391	0.14587	0.207	0.34512	0.076816	0.17652	0.23982	0.37337	0.21305	0.069193	0.13676	0.10047	-2.4521	-3.5542	-2.9042	-3.3792	-3.6125	-2.8771	-3.5563	-3.3521	-2.7188	-3.5271	-2.9313	-3.1	-3.6354	-3.0125	-3.2604	-3.3146	442.008	364.348	472.493	369.768	118.382	257.115	423.182	421.965	296.638	155.850	455.558	412.155	402.218	242.055	179.940	135.132	0.00081124	0.00079661	0.00016354	1375	7.3977e-06	9.1462e-06	1375.7	372.82	6.0028e-06	5.9629e-06	424.39	142.86	124.08	42.523	7.4777e-06	52.401	0.00056207	0.00052153	0.0001456	1385.7	5.6488e-06	5.9331e-06	1383.8	376.19	5.7882e-06	5.5874e-06	428.15	144.11	125.15	43.142	5.5515e-06	53.398	280.308	221.794	188.636	126.500	275.194	283.675	126.315	131.116	284.103	224.493	130.545	135.026	135.498	139.714	283.859	139.059	-8191	255	
25045.789	1	1	0	0	0.27486	0.2204	0.15353	0.12673	0.33242	0.11894	0.084123	0.32466	0.17588	0.22482	0.12689	0.098284	0.26693	0.20508	0.059544	0.26377	-2.4	-3.4938	-3.0312	-3.1896	-3.675	-2.7146	-3.5125	-3.4562	-2.9542	-3.4646	-3.1688	-2.9708	-3.4979	-2.6937	-3.0708	-3.4688	366.442	148.862	227.432	249.244	451.834	249.965	343.225	422.921	365.325	168.827	444.191	403.920	440.376	183.794	181.689	456.992	0.00079931	0.00028374	0.00017469	1376.4	4.6497e-06	5.4222e-06	1390.8	373.9	7.2904e-06	3.5155e-06	427	143.38	124.2	42.554	5.6066e-06	52.406	0.00056417	0.00052224	0.00014128	1386.5	5.7233e-06	5.7657e-06	1388	376.29	5.6739e-06	5.7173e-06	428.96	144.43	125.52	43.31	5.7314e-06	53.434	280.466	217.215	216.979	126.421	302.520	248.455	126.102	131.173	290.629	255.911	130.455	135.021	135.526	140.078	243.651	139.066	-8191	255	
25045.908	1	1	0	0	0.21133	0.057671	0.073633	0.22248	0.15788	0.25724	0.27125	0.19256	0.11461	0.023082	0.24159	0.090611	0.26957	0.15027	0.081287	0.15242	-2.3354	-3.4917	-2.825	-3.1	-3.5417	-2.825	-3.3417	-3.6167	-2.8917	-3.2667	-3.225	-3.0375	-3.65	-2.7625	-3.2	-3.55	294.378	391.794	157.865	146.295	213.802	206.860	428.049	472.377	457.390	220.009	445.871	406.186	453.423	419.469	339.510	439.851	0.00078402	0.00043873	0.00011518	1372.1	8.4515e-06	3.2149e-06	1380.4	372.95	6.2705e-06	4.4729e-06	424.35	143.67	124.66	42.169	6.3582e-06	52.364	0.00058236	0.00051489	0.00014218	1387	5.7429e-06	5.663e-06	1386.2	375.9	5.7644e-06	5.7403e-06	428.78	144.31	125.58	43.071	5.8472e-06	53.435	280.379	201.429	219.791	126.490	258.904	232.924	126.371	131.156	303.919	254.422	130.424	135.357	135.412	139.838	270.266	139.082	-8191	255	
25046.006	1	1	0	0	0.11864	0.4041	0.16937	0.33706	0.14855	0.1233	0.10211	0.22755	0.060266	0.22666	0.15544	0.12565	0.15945	0.22968	0.093407	0.16508	-2.375	-3.3458	-3.225	-2.9792	-3.4833	-2.9771	-3.25	-3.6229	-2.7146	-3.4	-3.5354	-2.9542	-3.5875	-3.1708	-3.0687	-3.5042	157.519	118.937	258.546	433.262	283.158	449.665	344.066	413.964	345.253	388.956	117.819	447.791	468.836	446.508	388.951	143.746	0.00077149	0.0007458	9.3343e-05	1377.7	9.4372e-06	6.6759e-06	1381.5	372.62	5.6821e-06	4.7641e-06	423.98	142.99	123.76	42.462	2.9429e-06	52.197	0.00056423	0.00050845	0.00014487	1387.5	5.7423e-06	5.806e-06	1386.4	376.2	5.795e-06	5.5793e-06	428.74	144.13	125.41	43.195	5.7982e-06	53.441	279.136	224.403	195.463	126.506	263.619	275.045	126.025	131.151	292.120	260.787	130.468	135.166	135.708	139.854	256.634	139.055	-8191	255	
25046.102	1	1	0	0	0.12813	0.14851	0.05387	0.26561	0.23465	0.16771	0.24546	0.28417	0.021857	0.17187	0.23638	0.15065	0.43298	0.48738	0.1926	0.14967	-2.4375	-3.3875	-3.3	-2.8833	-3.4521	-3.0333	-3.0729	-3.6729	-2.8021	-3.2542	-3.5812	-3.0146	-3.6917	-3.2417	-2.9917	-3.5583	187.563	203.678	132.945	381.260	288.842	216.237	439.489	431.378	418.345	432.906	456.146	348.867	444.270	470.848	420.705	342.710	0.00077718	0.00061711	0.00013291	1369.7	9.0825e-06	4.2288e-06	1374	371.95	5.6826e-06	6.1379e-06	424.76	142.05	123.34	42.059	6.1398e-06	52.178	0.00057694	0.00052747	0.00014639	1384.6	5.6535e-06	5.7084e-06	1384.6	376.38	5.8134e-06	5.7176e-06	429.04	144.05	125.34	43.159	5.7745e-06	53.317	280.696	212.843	212.947	126.548	275.081	264.775	126.374	131.214	290.321	278.372	130.540	135.121	135.880	140.090	275.141	139.174	-8191	255	
25046.223	1	1	0	0	0.31132	0.12269	0.19346	0.28969	0.027635	0.048247	0.075971	0.10376	0.059525	0.10052	0.1128	0.31836	0.081992	0.15034	0.073053	0.12018	-2.5854	-3.1083	-3.3604	-3.0375	-3.5	-3.2354	-3.0687	-3.5271	-2.8979	-2.8479	-3.6417	-2.8396	-3.5104	-3.3708	-2.6833	-3.55	126.105	390.299	446.364	397.076	439.431	473.160	422.691	403.803	444.396	400.038	373.582	456.446	423.385	418.525	391.114	131.329	0.00077555	0.00064063	0.00010691	1371.9	7.052e-06	5.137e-06	1375.4	372.86	7.0526e-06	6.4298e-06	422.22	142.73	123.65	42.319	1.0145e-05	52.424	0.00056511	0.00052809	0.00014693	1384.5	5.8989e-06	5.745e-06	1385.7	375.71	5.7914e-06	5.7244e-06	428.19	143.97	125.15	43.272	5.7399e-06	53.484	285.467	213.554	202.015	126.271	273.126	272.388	126.238	131.190	302.019	225.437	130.577	135.174	135.868	139.681	287.137	139.228	-8191	255	
25046.295	1	1	0	0	0.15614	0.13416	0.2652	0.24467	0.090299	0.3982	0.31001	0.32295	0.32721	0.12616	0.21879	0.14669	0.10863	0.23152	0.13186	0.1631	-2.6333	-3.0062	-3.5021	-2.9125	-3.2958	-3.3333	-2.9188	-3.625	-3.0375	-2.925	-3.6333	-2.9042	-3.3625	-3.4313	-2.7125	-3.5229	134.303	138.271	442.465	360.966	177.436	118.214	425.125	438.077	198.036	351.350	453.909	141.655	338.811	438.431	223.737	454.244	0.00081249	0.00097465	0.00011027	1375.6	9.8887e-06	6.1726e-06	1377.4	374.96	6.1238e-06	3.8808e-06	425.33	143.39	124.07	41.92	9.1123e-06	52.01	0.00056108	0.0005287	0.00014969	1386.3	5.6993e-06	5.7642e-06	1384.9	377.15	5.8511e-06	5.729e-06	429.23	144.37	125.53	43.105	6.0325e-06	53.37	281.391	203.406	200.829	126.537	279.107	256.544	126.283	131.206	304.254	292.854	130.342	135.269	135.508	140.076	266.168	139.103	-8191	255	
25046.391	1	1	0	0	0.17062	0.14688	0.19757	0.24621	0.26024	0.1422	0.22608	0.23056	0.17629	0.14996	0.06209	0.094501	0.2708	0.4039	0.096712	0.2698	-2.6229	-2.9208	-3.5333	-2.8812	-3.1063	-3.4542	-2.9375	-3.6	-3.0687	-2.9167	-3.7375	-3.0042	-3.0563	-3.5771	-2.7396	-3.275	469.109	186.090	191.732	123.920	457.351	330.814	429.318	432.300	118.149	168.235	437.917	425.186	464.696	461.267	163.079	469.504	0.00084855	0.00053923	0.00010774	1374.6	4.659e-06	3.9764e-06	1377.4	372.74	7.5092e-06	3.3787e-06	424.48	143.77	124.09	42.486	7.6822e-06	52.693	0.00056813	0.00054198	0.00014393	1385.9	5.8417e-06	5.9024e-06	1384	376.56	5.7974e-06	5.806e-06	429.18	144.12	125.4	43.171	5.827e-06	53.515	283.295	178.306	223.335	126.385	266.610	265.644	126.039	131.321	313.465	271.109	130.795	134.912	135.525	139.809	282.846	138.960	-8191	255	
25046.486	1	1	0	0	0.074662	0.19844	0.1299	0.38404	0.13888	0.18878	0.15541	0.094687	0.27302	0.37203	0.19573	0.22901	0.14808	0.15168	0.21801	0.23682	-2.7708	-2.8542	-3.4979	-3.0104	-2.9583	-3.4979	-3.0521	-3.4229	-3.2458	-2.7833	-3.5396	-3.1604	-3.0292	-3.5521	-2.8521	-3.4771	471.965	342.103	400.511	434.475	368.252	354.035	396.619	399.589	332.194	323.844	385.298	410.104	413.182	278.978	179.168	401.002	0.00070675	0.00062157	0.00016747	1377.6	6.7702e-06	6.8403e-06	1379.1	373.11	4.259e-06	6.2112e-06	424.75	143.3	124.69	42.481	7.3886e-06	52.698	0.00057137	0.00054123	0.00014534	1385	5.9563e-06	5.8542e-06	1384.9	376.12	5.9603e-06	5.8375e-06	429.51	143.88	125.54	43.125	5.8312e-06	53.456	282.807	214.984	207.143	126.268	271.568	248.686	126.303	131.164	284.062	274.845	130.459	134.918	135.520	139.876	273.266	138.928	-8191	255	
25046.605	1	1	0	0	0.1323	0.05312	0.091755	0.19317	0.34416	0.04656	0.22666	0.16796	0.16208	0.24259	0.12574	0.20169	0.1523	0.26358	0.21252	0.23155	-2.8708	-2.5792	-3.3979	-3.1604	-2.8917	-3.7313	-3.1375	-3.3458	-3.2417	-2.7292	-3.3937	-3.2625	-3.0292	-3.4792	-2.7542	-3.2167	265.641	365.744	186.013	115.311	140.377	356.226	449.671	428.157	421.930	165.394	127.888	420.426	440.966	138.167	470.715	403.755	0.00075857	0.00048183	0.00011611	1375.3	6.3995e-06	6.2993e-06	1388.3	375.49	7.8643e-06	3.1489e-06	426.11	143.06	122.93	42.356	6.8346e-06	52.282	0.00057838	0.0005501	0.00015499	1387.4	6.0429e-06	5.9712e-06	1385.4	376.22	5.9972e-06	6.2053e-06	429.11	144	124.94	43.188	6.0253e-06	53.359	285.147	205.079	211.689	126.190	268.484	277.712	125.963	131.143	279.662	281.088	130.728	134.969	135.678	140.071	265.241	138.914	-8191	255	
25046.701	1	1	0	0	0.16816	0.064028	0.21239	0.11071	0.15074	0.11732	0.33051	0.4021	0.13608	0.18514	0.17636	0.083663	0.16686	0.15062	0.16054	0.14472	-3.0271	-2.65	-3.3417	-3.2812	-2.6792	-3.6437	-3.0521	-3.0187	-3.3604	-2.6771	-3.575	-3.5083	-2.7521	-3.6521	-2.8771	-3.1625	118.686	418.879	447.535	432.957	469.939	114.072	438.917	350.746	270.958	405.469	430.998	449.135	351.288	438.356	122.133	325.270	0.00077824	0.00040108	0.00014986	1374.9	6.0081e-06	4.845e-06	1380.7	372.04	6.6907e-06	4.0572e-06	423.77	143.05	123.72	42.208	7.1635e-06	52.452	0.00057583	0.00054529	0.00014902	1384.5	6.0912e-06	5.8678e-06	1383.9	376.03	6.0109e-06	6.1736e-06	428.93	143.89	125.07	43.058	5.9459e-06	53.344	275.879	210.611	189.514	126.554	283.120	270.067	126.125	131.341	276.223	263.034	130.591	135.206	135.712	139.855	262.605	138.960	-8191	255	
25046.797	1	1	0	0	0.30456	0.15618	0.18719	0.33722	0.33507	0.091384	0.2191	0.21984	0.13249	0.11342	0.2819	0.057404	0.36293	0.14613	0.15452	0.091165	-3.0021	-2.7604	-3.3875	-3.4604	-2.8229	-3.4146	-3.0208	-3.1833	-3.5417	-2.7417	-3.4437	-3.3729	-2.7625	-3.5187	-3.1604	-3.0563	144.809	206.843	326.285	414.269	186.691	275.270	390.143	462.818	167.713	247.189	461.829	178.587	468.183	401.890	459.996	399.699	0.00075615	0.00071981	0.00014196	1369.9	9.36e-06	3.0225e-06	1373.7	372.47	6.3229e-06	5.618e-06	423.25	141.72	122.54	41.989	9.1459e-06	52.079	0.00058366	0.00056239	0.00015032	1381.7	6.2245e-06	5.9697e-06	1382.5	375.67	6.0256e-06	6.0317e-06	428.15	143.51	124.83	43.08	6.1772e-06	53.328	283.151	212.445	213.150	126.360	262.390	272.059	126.335	131.352	313.573	256.774	131.227	135.330	135.899	139.856	275.577	139.340	-8191	255	
25046.869	1	1	0	0	0.072975	0.10251	0.26413	0.23703	0.24998	0.080442	0.1246	0.31296	0.23694	0.096804	0.12734	0.13266	0.22543	0.14858	0.079017	0.01049	-3.1562	-2.7625	-3.0979	-3.5208	-2.7479	-3.6958	-3.4208	-2.9896	-3.4917	-2.8729	-3.3667	-3.5312	-2.9208	-3.5729	-3.0854	-3.1625	165.719	394.475	464.455	449.940	124.248	447.339	441.408	419.392	259.978	369.795	140.282	381.724	454.355	171.106	450.254	464.604	0.00076517	0.00060756	0.00023019	1371.8	5.9728e-06	6.2641e-06	1370.6	369.63	1.0383e-05	5.2325e-06	422.68	142.67	123.39	42.158	1.0154e-05	52.31	0.00059797	0.00055254	0.00015443	1384.6	6.1998e-06	6.0757e-06	1381.8	375.33	5.9821e-06	6.0011e-06	428.37	143.72	125.16	43.09	6.1646e-06	53.365	283.717	202.160	230.244	126.462	288.647	280.740	126.372	131.334	298.456	265.281	130.538	135.546	135.697	140.157	273.155	139.179	-8191	255	
25046.988	1	1	0	0	0.038477	0.17698	0.13628	0.32566	0.30611	0.17153	0.23843	0.46938	0.16419	0.15551	0.27278	0.2001	0.11173	0.23248	0.021957	0.066622	-3.2625	-2.7729	-3.0167	-3.6021	-2.8521	-3.4979	-3.4771	-3.0625	-3.6125	-2.8187	-2.9354	-3.5958	-2.8729	-3.3646	-3.3021	-2.9313	413.146	222.649	242.040	465.530	178.610	158.198	418.753	462.375	452.175	471.195	400.773	327.415	205.630	135.066	264.301	378.714	0.00077337	0.0002543	0.00014709	1383.7	6.9786e-06	4.4657e-06	1387.1	374.36	8.2797e-06	5.3332e-06	428.48	143.79	124.56	42.269	6.0456e-06	52.357	0.00058226	0.00054132	0.00015474	1387	6.0079e-06	5.8661e-06	1385.1	376.14	5.9704e-06	5.9218e-06	429.85	144.18	125.32	43.122	5.9365e-06	53.37	283.088	204.925	233.096	126.342	299.624	275.811	126.172	130.962	302.094	247.759	130.105	135.006	135.573	139.841	267.558	138.950	-8191	255	
25047.086	1	1	0	0	0.21978	0.20438	0.18259	0.23334	0.17308	0.062036	0.1151	0.10445	0.25636	0.14487	0.17267	0.19781	0.18267	0.15428	0.17232	0.28093	-3.0917	-3.1	-3.0542	-3.8771	-2.6542	-3.3479	-3.6833	-2.9479	-3.5417	-3.0208	-3.0104	-3.5021	-2.9188	-3.3104	-3.3604	-2.7125	214.117	240.101	330.591	415.781	288.169	268.687	443.917	320.460	374.941	124.472	402.420	381.853	468.750	457.405	248.077	441.775	0.00077133	0.00065856	0.00012235	1375.8	5.5971e-06	5.218e-06	1380.4	371.82	6.4302e-06	5.4333e-06	427.08	142.71	123.53	42.147	8.5481e-06	52.487	0.00058626	0.00054704	0.00015212	1386.6	5.8308e-06	6.1637e-06	1384.9	376.29	5.9037e-06	5.9147e-06	429.69	144.02	125.04	43.118	5.9202e-06	53.38	277.336	179.908	212.746	126.543	291.790	274.528	126.157	131.069	281.947	269.838	130.489	135.313	135.694	140.009	288.453	139.114	-8191	255	
25047.182	1	1	0	0	0.17444	0.21874	0.11816	0.11235	0.12143	0.14724	0.18564	0.2766	0.090301	0.37566	0.18943	0.17315	0.1253	0.2229	0.12717	0.1928	-3.0938	-3.0833	-2.9021	-3.5104	-2.9896	-3.1958	-3.7188	-2.8958	-3.4208	-3.1854	-2.9646	-3.65	-3.0687	-3.0396	-3.4521	-2.9	172.062	339.798	442.204	419.642	472.768	351.141	452.131	428.695	208.901	262.685	403.906	428.655	459.135	430.469	429.210	318.672	0.00080918	0.00074192	0.00016516	1372.2	8.3805e-06	7.9714e-06	1378.9	371.48	6.6729e-06	4.819e-06	425.54	142.53	124.26	42.071	8.5403e-06	52.008	0.00059462	0.00054831	0.00015478	1385	6.0427e-06	6.0985e-06	1383.1	375.31	5.9478e-06	6.0094e-06	428.91	143.69	125.13	43.068	6.0195e-06	53.297	281.636	215.173	221.995	126.483	262.878	245.541	126.302	130.966	305.422	284.237	130.470	135.286	135.446	139.899	277.254	139.180	-8191	255	
25047.303	1	1	0	0	0.13592	0.15958	0.10305	0.20479	0.19371	0.12422	0.24696	0.24777	0.20066	0.18995	0.17975	0.067076	0.14167	0.080581	0.26117	0.10799	-2.9625	-3.2625	-2.7354	-3.7771	-2.7792	-2.9854	-3.7792	-2.9146	-3.1437	-3.4125	-2.9	-3.5896	-2.9729	-3.0042	-3.3604	-2.8208	471.871	417.463	291.867	127.563	238.530	149.539	430.264	385.127	336.585	431.165	443.969	412.177	333.804	132.218	359.803	145.030	0.00072449	0.00020735	0.00019879	1378.1	7.1643e-06	5.2063e-06	1380.2	372.48	5.0113e-06	5.853e-06	427.31	142.82	123.53	42.147	4.9367e-06	52.469	0.00059178	0.00055664	0.00015636	1387	6.0831e-06	6.0416e-06	1384	375.62	6.1145e-06	6.0979e-06	429.58	143.9	124.96	43.072	5.8377e-06	53.357	283.785	229.251	220.261	126.282	287.968	295.736	126.100	131.064	289.454	274.689	130.510	135.028	135.546	140.126	267.353	139.095	-8191	255	
25047.398	1	1	0	0	0.034953	0.26493	0.13342	0.067886	0.087126	0.26676	0.32772	0.35906	0.17736	0.17416	0.10654	0.19706	0.14577	0.2993	0.25532	0.18238	-2.7042	-3.4875	-2.6792	-3.6479	-3.1146	-2.7854	-3.8708	-2.825	-3.1729	-3.2833	-2.9229	-3.5146	-3.1125	-2.9271	-3.5208	-2.7979	281.461	266.320	411.591	379.838	373.904	229.818	449.009	447.896	357.726	169.661	151.812	177.294	240.227	121.194	166.953	122.838	0.000728	0.0004643	0.0001619	1377.8	8.187e-06	5.8951e-06	1380.1	373.58	8.6288e-06	3.2928e-06	425.31	143.02	123.83	42.191	5.2063e-06	52.31	0.00059118	0.00053292	0.00015234	1386.6	5.9089e-06	5.9983e-06	1385.2	375.84	5.7759e-06	5.8541e-06	429.29	144.11	125.42	43.136	5.6834e-06	53.401	283.315	203.999	206.433	126.449	271.054	253.624	126.139	131.246	292.711	247.260	130.432	135.068	135.647	140.035	269.552	139.278	-8191	255	
25047.494	1	1	0	0	0.20731	0.13262	0.16805	0.19321	0.032806	0.11358	0.13539	0.25742	0.047824	0.12799	0.2169	0.23562	0.16206	0.12658	0.03885	0.30438	-2.5563	-3.3083	-2.7188	-3.5396	-3.1437	-2.8625	-3.6271	-3.0125	-2.9542	-3.3646	-2.8937	-3.5208	-3.4604	-2.7562	-3.5417	-3.0146	439.480	125.821	348.266	398.887	265.223	183.255	386.030	441.828	389.677	269.656	355.586	413.398	444.200	427.191	191.381	408.766	0.00080645	0.0004542	7.4276e-05	1371.8	6.4235e-06	4.4806e-06	1377.1	372.64	6.9361e-06	6.3635e-06	425.12	143.42	123.68	42.161	6.7864e-06	52.767	0.00059009	0.0005374	0.0001524	1384.9	5.7401e-06	5.9717e-06	1383.9	376.37	5.9111e-06	5.8588e-06	429.1	144.44	125.28	43.151	5.7943e-06	53.578	284.749	183.645	235.140	126.590	272.714	240.889	126.111	131.162	286.147	256.441	130.521	134.930	135.631	140.017	283.221	138.891	-8191	255	
25047.592	1	1	0	0	0.23186	0.11257	0.15409	0.16051	0.37544	0.21558	0.21856	0.11862	0.26169	0.080113	0.058874	0.22137	0.16982	0.17124	0.13643	0.32251	-2.6167	-3.4083	-2.5583	-3.5917	-3.2521	-2.6375	-3.7604	-3.1729	-2.9688	-3.425	-3.1208	-3.3958	-3.5271	-3.0333	-3.4062	-3.1813	298.066	216.747	392.552	465.490	440.223	177.022	354.730	369.688	415.425	159.362	434.402	157.675	393.647	468.483	317.208	424.545	0.00077759	0.00062524	0.00010116	1382.7	5.6886e-06	5.2363e-06	1380.4	372.31	7.8069e-06	4.1831e-06	425.7	142.19	123.54	42.273	5.8191e-06	52.197	0.00056914	0.00051928	0.00014978	1390.4	5.6833e-06	5.9277e-06	1384.5	375.89	5.8349e-06	5.6863e-06	428.91	144.15	125.33	43.148	5.6271e-06	53.39	282.448	184.844	232.033	126.383	260.200	265.946	126.337	131.183	303.231	222.540	130.665	135.434	135.492	139.855	233.180	139.001	-8191	255	
25047.688	1	1	0	0	0.18898	0.28244	0.17693	0.45195	0.031265	0.2036	0.29348	0.18591	0.23488	0.14786	0.17897	0.10206	0.097238	0.44315	0.16463	0.1888	-2.2604	-3.2896	-2.8875	-3.3396	-3.4292	-2.8729	-3.5812	-3.2	-2.7708	-3.7542	-2.9542	-3.1104	-3.4729	-2.8333	-3.2042	-3.3104	391.188	159.618	273.903	445.800	225.404	337.663	410.708	418.582	448.576	199.577	436.591	420.284	228.243	150.895	277.081	139.324	0.00077396	0.00042401	0.00010086	1381.6	8.2984e-06	2.9515e-06	1393.8	377.32	7.1615e-06	7.2005e-06	425.81	144.25	124.83	42.637	7.2887e-06	53.014	0.0005742	0.00051156	0.00014491	1387.4	5.7792e-06	5.6772e-06	1387.1	377.09	5.8245e-06	5.6242e-06	429.29	144.36	125.4	43.197	5.6688e-06	53.513	283.072	213.915	235.966	126.498	285.116	289.892	125.935	130.765	300.008	271.035	130.170	135.097	135.340	139.738	267.559	138.760	-8191	255	
25047.781	1	1	0	0	0.11892	0.33495	0.07214	0.16645	0.044474	0.10173	0.24765	0.26538	0.18488	0.13053	0.33465	0.22009	0.1323	0.13762	0.14124	0.073175	-2.6229	-3.4375	-3.0125	-3.1688	-3.5438	-2.8458	-3.5479	-3.3312	-2.7667	-3.5271	-3.1625	-3.1312	-3.5979	-2.9625	-3.2396	-3.5875	464.052	296.821	305.561	375.444	115.637	435.243	378.836	416.410	208.809	232.736	471.114	423.336	410.473	432.634	398.607	452.788	0.00073736	0.00087426	0.00011005	1388.2	7.3239e-06	5.5104e-06	1394.7	377.3	6.2475e-06	6.0108e-06	427.65	144.64	124.56	42.516	5.5375e-06	52.803	0.00058384	0.00052226	0.00014275	1389.8	5.8324e-06	5.8365e-06	1388.7	376.81	5.8031e-06	5.6395e-06	429.42	144.39	125.15	43.187	5.8429e-06	53.407	279.195	206.839	221.100	126.255	273.049	280.636	126.062	130.883	283.214	269.065	130.317	135.183	135.634	139.654	270.518	138.786	-8191	255	
25047.902	1	1	0	0	0.18101	0.30653	0.1101	0.24336	0.25127	0.097004	0.23743	0.22748	0.12138	0.14488	0.066379	0.376	0.048884	0.22461	0.19397	0.30203	-2.3958	-3.5042	-3.0458	-3.1042	-3.6021	-3.0729	-3.5646	-3.5062	-2.6771	-3.5896	-3.1896	-2.8	-3.5875	-2.9167	-3.0958	-3.5521	229.535	223.860	289.738	393.516	167.861	343.846	383.098	196.725	234.884	131.289	425.710	424.187	318.842	292.874	178.029	398.793	0.00074781	0.00058461	0.00010251	1384.5	7.4845e-06	5.8297e-06	1389.7	375.86	1.1018e-05	2.8694e-06	425.45	143.84	123.72	42.449	8.3198e-06	52.186	0.00058439	0.0005171	0.0001457	1386.6	5.7894e-06	5.864e-06	1386.1	376.6	5.9315e-06	5.7622e-06	428.8	144.1	125.07	43.15	5.9313e-06	53.291	285.435	181.011	221.595	126.411	278.310	269.403	126.278	131.065	295.003	261.041	130.031	135.088	135.824	140.113	242.620	138.961	-8191	255	
25047.998	1	1	0	0	0.093913	0.1375	0.025854	0.18732	0.12872	0.11798	0.40012	0.19736	0.24433	0.23018	0.17066	0.23851	0.30827	0.11687	0.080656	0.13682	-2.3167	-3.3167	-3.2875	-3.0875	-3.4583	-2.8708	-3.3438	-3.6833	-2.9021	-3.4229	-3.2875	-2.7979	-3.5917	-3.0687	-2.9437	-3.6354	336.955	230.482	426.404	457.588	231.029	176.137	398.392	384.031	269.710	425.620	432.823	433.541	468.712	357.471	439.094	216.560	0.00076136	0.00027631	0.00017851	1374.6	7.6324e-06	5.9899e-06	1381.3	373.13	6.0675e-06	5.738e-06	424	144.11	123.2	42.088	7.7871e-06	52.434	0.00058727	0.00051935	0.00014579	1383.7	5.7888e-06	5.871e-06	1383.1	376.23	5.7166e-06	5.818e-06	429.37	144.24	125.31	43.088	5.8252e-06	53.466	281.203	218.874	214.685	126.232	262.581	260.668	126.415	131.011	289.243	260.256	130.328	134.962	135.844	139.909	279.083	139.135	-8191	255	
25048.094	1	1	0	0	0.10042	0.20838	0.13382	0.14063	0.14519	0.041775	0.08727	0.11105	0.17283	0.047976	0.11542	0.34633	0.28519	0.18165	0.22978	0.29271	-2.3417	-3.4271	-3.2958	-2.9604	-3.4583	-2.9875	-3.1958	-3.6833	-2.8854	-3.2667	-3.4771	-2.8604	-3.7021	-3.1854	-2.8396	-3.6813	400.613	288.538	264.458	122.154	261.473	409.863	430.341	432.048	300.712	258.586	437.053	443.137	462.047	138.697	424.598	344.360	0.00078243	0.0007956	0.00017759	1381.5	8.8075e-06	6.3485e-06	1383.7	374.63	7.5719e-06	7.1643e-06	423.27	143.87	124.25	41.955	5.8249e-06	52.196	0.00057405	0.00053346	0.00014809	1387.8	5.7709e-06	5.7683e-06	1384.6	377.11	5.8392e-06	5.9437e-06	428.66	144.37	125.26	43.111	5.8167e-06	53.283	280.789	202.055	210.324	126.389	252.872	267.551	126.201	131.217	301.577	276.324	130.319	134.917	135.855	139.985	261.571	139.080	-8191	255	
25048.166	1	1	0	0	0.16221	0.31446	0.14044	0.11407	0.1933	0.24978	0.23181	0.13236	0.040814	0.20714	0.10058	0.49027	0.19143	0.28876	0.21759	0.33809	-2.4479	-3.1521	-3.3479	-2.95	-3.5042	-3.0667	-2.9813	-3.4875	-2.7562	-3.2604	-3.6104	-2.8167	-3.5583	-3.3229	-2.8937	-3.4146	461.545	463.108	195.284	425.909	160.963	440.798	122.377	197.867	285.342	395.022	403.450	433.150	410.051	409.817	322.661	401.526	0.0007389	0.00073368	0.00018422	1378.9	2.7348e-06	6.1663e-06	1381.2	373.93	6.4991e-06	4.7799e-06	424.07	143.32	123.95	42.406	7.5986e-06	52.483	0.00056917	0.0005344	0.00014836	1388.6	5.6671e-06	5.7936e-06	1386.3	376.78	5.7303e-06	5.7095e-06	429.31	144.43	125.33	43.262	5.9723e-06	53.519	276.790	186.509	219.199	126.276	286.729	268.967	126.146	131.097	288.131	243.340	130.589	135.244	135.910	139.853	287.721	139.124	-8191	255	
25048.285	1	1	0	0	0.064693	0.10986	0.037975	0.3885	0.091608	0.10177	0.23764	0.23473	0.21035	0.29645	0.2635	0.15337	0.27854	0.2135	0.41509	0.10148	-2.3458	-3.0583	-3.4417	-2.8917	-3.2479	-3.325	-2.9229	-3.6063	-2.825	-2.9729	-3.7875	-2.8083	-3.4375	-3.3563	-2.625	-3.5938	420.934	238.177	293.737	127.739	185.725	114.003	420.940	433.893	131.186	249.765	414.361	433.287	447.198	420.559	144.009	407.317	0.00077295	0.00035345	0.00014679	1376.7	7.2305e-06	5.5698e-06	1386.4	374.99	7.6265e-06	5.5997e-06	426.99	143.96	124.78	42.511	9.8204e-06	52.783	0.00057995	0.00053155	0.00014634	1389.3	5.8101e-06	5.7841e-06	1388.8	377.04	5.6676e-06	5.8569e-06	429.8	144.4	125.7	43.305	5.8305e-06	53.617	281.847	193.925	229.862	126.309	277.290	264.360	126.062	131.109	282.863	252.219	130.425	135.197	135.598	139.966	281.725	138.899	-8191	255	
25048.383	1	1	0	0	0.15777	0.23672	0.065757	0.18114	0.066696	0.076373	0.34954	0.2258	0.34816	0.057335	0.079122	0.2403	0.2351	0.28584	0.16981	0.106	-2.55	-2.9562	-3.3146	-2.8896	-3.1729	-3.3646	-2.9417	-3.5729	-3.0646	-2.8896	-3.4146	-2.8646	-3.025	-3.4354	-2.6729	-3.7104	189.741	242.725	177.927	127.035	433.980	369.627	421.804	438.590	144.407	316.531	323.220	464.296	154.813	430.596	324.069	289.184	0.00082746	0.00053769	8.7413e-05	1372.6	7.0998e-06	5.5613e-06	1381.5	375.16	8.6658e-06	4.9025e-06	424.98	143.56	123.85	42.469	3.7511e-06	52.267	0.00056559	0.00053174	0.00014481	1389.5	5.8186e-06	5.67e-06	1389.6	377.84	5.8339e-06	5.7401e-06	429.97	144.47	125.49	43.276	5.8437e-06	53.478	282.736	182.545	212.209	126.577	271.253	300.809	126.167	131.153	265.541	261.968	130.357	134.974	135.783	139.952	282.642	139.275	-8191	255	
25048.479	1	1	0	0	0.056166	0.28644	0.17656	0.12665	0.082018	0.25715	0.37831	0.50939	0.11536	0.13427	0.068564	0.36605	0.062132	0.2439	0.025897	0.15558	-2.6875	-2.8063	-3.3812	-3.0521	-3.2521	-3.3979	-2.9542	-3.4521	-3.1729	-2.7146	-3.7604	-3	-3.0271	-3.5521	-2.8563	-3.2146	379.472	270.488	214.162	410.941	199.080	160.979	455.094	459.341	197.592	165.039	396.404	444.902	404.906	157.775	380.188	329.965	0.00075941	0.00026973	0.00011553	1377.9	1.1334e-05	6.2786e-06	1383.9	374.87	6.5576e-06	3.6038e-06	426.32	142.89	123.94	42.457	8.6106e-06	52.711	0.00056927	0.00054656	0.00014783	1390	6.0127e-06	5.8516e-06	1388.5	377.32	5.8742e-06	5.909e-06	430.56	144.27	125.34	43.226	5.9552e-06	53.554	281.147	158.238	204.946	126.377	265.971	273.931	126.155	131.192	299.004	299.239	130.609	134.953	135.754	139.853	264.420	138.913	-8191	255	
25048.574	1	1	0	0	0.28858	0.076751	0.11773	0.2974	0.14694	0.029375	0.25621	0.20559	0.050397	0.17967	0.30801	0.34697	0.093722	0.21763	0.29028	0.15628	-2.8542	-2.6854	-3.5542	-3.0458	-3.0854	-3.5167	-2.8854	-3.575	-3.1625	-2.8937	-3.5604	-3.1312	-3.0375	-3.5479	-2.8479	-3.1729	246.828	229.413	307.655	428.283	162.367	145.789	407.864	415.373	271.659	410.777	332.575	462.932	125.747	427.818	230.526	155.275	0.00079502	0.00058664	6.642e-05	1386.4	6.461e-06	5.0305e-06	1387.4	375.85	7.6535e-06	8.1607e-06	429.73	143.97	124.97	42.517	7.873e-06	52.884	0.00058485	0.00053478	0.00014722	1391.1	5.846e-06	5.7926e-06	1389.5	377.21	5.9516e-06	5.9507e-06	430.4	144.57	125.6	43.242	5.9128e-06	53.558	284.169	233.122	255.313	126.273	256.484	266.953	126.109	131.108	281.147	254.712	130.216	134.966	135.510	140.017	250.702	139.011	-8191	255	
25048.672	1	1	0	0	0.23776	0.28304	0.18166	0.16278	0.034621	0.15637	0.24444	0.0877	0.24281	0.23771	0.137	0.28706	0.061781	0.15716	0.29745	0.10427	-2.7583	-2.5792	-3.5896	-3.1667	-2.8417	-3.5146	-3.0146	-3.2833	-3.2292	-2.7438	-3.3063	-3.2667	-2.8667	-3.7104	-2.8937	-3.1771	121.510	138.628	318.339	411.039	309.222	439.236	451.898	392.931	207.728	369.920	364.347	457.278	468.398	436.506	440.529	277.960	0.00079931	0.00048129	0.00011283	1387.9	5.2463e-06	5.0611e-06	1394	376.69	8.3479e-06	3.6701e-06	430.09	144.66	124.99	42.625	8.1726e-06	52.812	0.00058161	0.00052718	0.00014988	1391	5.8575e-06	5.7041e-06	1390.1	377.39	5.8313e-06	5.9103e-06	431.26	144.75	125.75	43.348	5.723e-06	53.512	276.337	196.328	248.823	126.312	265.246	241.707	125.849	130.978	289.607	219.955	130.403	135.014	135.663	139.791	248.654	138.814	-8191	255	
25048.768	1	1	0	0	0.0507	0.09772	0.17725	0.33029	0.11817	0.073919	0.44573	0.20279	0.29672	0.043749	0.28187	0.061453	0.31204	0.095559	0.10801	0.22336	-3.05	-2.5375	-3.4021	-3.4083	-3	-3.4104	-3.1312	-3.1667	-3.3958	-2.7938	-3.4333	-3.3479	-2.8667	-3.7375	-2.925	-3.0812	188.911	136.067	146.212	437.301	373.243	421.497	416.310	445.482	320.618	188.118	437.441	346.999	386.956	376.515	187.334	412.538	0.00080677	0.00053316	0.00017647	1393.7	5.778e-06	5.7768e-06	1386.3	374.66	7.1994e-06	3.8416e-06	427.27	144.16	124.72	42.504	5.7489e-06	52.79	0.00057048	0.00051222	0.00014487	1396.9	5.8178e-06	5.5221e-06	1388.7	377.34	5.7148e-06	5.6021e-06	430.32	144.9	125.75	43.216	5.7524e-06	53.651	282.158	200.367	204.094	126.132	272.688	267.632	126.249	131.039	289.970	239.427	130.373	134.863	135.829	139.788	268.042	139.194	-8191	255	
25048.863	1	1	0	0	0.10301	0.10138	0.21302	0.11829	0.10033	0.099758	0.43455	0.24909	0.22545	0.22333	0.2425	0.039321	0.23176	0.10632	0.21418	0.11025	-3.2729	-2.7271	-3.2458	-3.5167	-2.7062	-3.5583	-3.2958	-3.1063	-3.5875	-2.8312	-3.4417	-3.3104	-2.9021	-3.5125	-3.0375	-3.1167	146.404	265.632	206.634	423.982	132.032	220.333	364.031	458.243	464.942	464.473	406.472	455.411	462.264	149.110	190.562	141.542	0.0007958	0.00031657	0.00014625	1381.2	8.5091e-06	5.3422e-06	1383	374.05	5.5087e-06	4.0075e-06	425.61	144.32	124.28	42.371	5.7205e-06	52.58	0.0005645	0.00052001	0.00014789	1389.7	5.6869e-06	5.6647e-06	1388.5	377.57	5.7061e-06	5.7675e-06	430.55	144.63	125.67	43.247	5.6413e-06	53.474	282.439	199.848	200.188	126.255	292.720	247.988	126.122	131.184	287.192	245.232	130.625	135.081	135.755	140.126	292.533	139.225	-8191	255	
25048.982	1	1	0	0	0.23326	0.31934	0.19142	0.076472	0.049151	0.05202	0.11869	0.33764	0.13337	0.17424	0.17891	0.3442	0.20783	0.090951	0.11037	0.16003	-3	-2.7438	-3.1729	-3.5646	-2.7313	-3.6104	-3.4604	-2.9	-3.6479	-2.9854	-3.1854	-3.5646	-2.875	-3.4542	-3.3792	-2.8896	281.948	317.919	322.066	412.250	133.559	323.722	442.257	396.466	419.986	200.630	402.880	234.316	303.616	391.222	253.309	422.871	0.00078133	0.00057003	0.00018443	1384.2	7.2493e-06	4.8969e-06	1388.7	374.31	8.1406e-06	6.3184e-06	425.15	143.89	124.47	42.483	5.1535e-06	52.496	0.00055726	0.00051918	0.00014589	1391.7	5.7385e-06	5.6423e-06	1390	377.67	5.5927e-06	5.6476e-06	430.13	144.74	125.72	43.352	5.664e-06	53.633	281.944	200.026	205.373	126.276	270.724	258.474	126.194	131.207	265.194	248.489	130.281	135.255	135.791	139.903	266.723	138.895	-8191	255	
25049.078	1	1	0	0	0.051061	0.24622	0.17004	0.19805	0.13937	0.16715	0.17693	0.21359	0.17786	0.023662	0.22617	0.25676	0.37091	0.057633	0.055666	0.22176	-3.1292	-2.825	-2.9625	-3.7979	-2.9562	-3.25	-3.525	-2.9625	-3.5667	-2.9771	-3.0438	-3.5104	-2.8917	-3.3896	-3.3021	-2.9479	317.740	421.968	271.582	118.958	244.010	453.833	405.727	144.808	332.456	388.157	240.422	459.451	137.367	356.499	381.676	448.671	0.00077144	0.00071958	0.00015884	1381.4	7.8474e-06	3.5955e-06	1385.3	373.26	7.3477e-06	5.338e-06	423.55	143.06	123.66	42.163	6.5378e-06	52.566	0.000561	0.00050627	0.00014456	1391.4	5.8113e-06	5.7105e-06	1389.6	377.59	5.6918e-06	5.6723e-06	429.11	144.69	125.3	43.254	5.6024e-06	53.539	282.987	211.471	232.483	126.635	273.421	293.306	126.103	131.278	311.767	246.710	130.669	135.194	135.487	140.144	280.486	139.096	-8191	255	
25049.176	1	1	0	0	0.46895	0.10434	0.25219	0.12573	0.16953	0.15709	0.39714	0.31828	0.206	0.093065	0.12328	0.25698	0.20525	0.1393	0.10875	0.16175	-2.8563	-2.975	-2.9562	-3.4813	-2.7854	-3.2333	-3.4521	-2.9	-3.4188	-3.0042	-3.1625	-3.5187	-2.9583	-3.2104	-3.4313	-2.8563	221.110	143.542	265.594	365.566	439.512	242.801	416.570	447.548	211.940	290.337	447.792	401.801	459.950	462.330	411.313	121.636	0.00073432	0.00076093	7.2998e-05	1384	9.1321e-06	5.2418e-06	1380.3	374.19	6.7843e-06	3.4482e-06	426.18	143.65	124.25	42.318	6.0458e-06	52.306	0.00055024	0.00051416	0.00014577	1392.6	5.6873e-06	5.7199e-06	1388.9	377	5.5074e-06	5.6129e-06	430.24	144.68	125.63	43.3	5.5173e-06	53.428	283.665	206.831	167.857	126.471	285.020	243.653	126.153	131.215	298.377	246.186	130.311	135.073	135.678	139.748	251.028	139.282	-8191	255	
25049.271	1	1	0	0	0.34992	0.21115	0.19412	0.25709	0.16014	0.11376	0.27311	0.40533	0.068267	0.19713	0.60062	0.076967	0.053574	0.051783	0.063501	0.30048	-3.2	-3.0875	-2.6958	-3.6083	-2.9458	-3.05	-3.6333	-2.9354	-3.5396	-3.2229	-2.8125	-3.6937	-3.1625	-3.1271	-3.4813	-2.9271	317.584	296.970	285.560	455.284	138.713	255.052	117.708	436.919	450.537	349.943	467.978	449.510	288.140	358.827	120.816	365.628	0.00087051	0.00056372	0.00017962	1378.5	1.2184e-05	5.839e-06	1378.4	372.8	6.4394e-06	4.231e-06	426.21	143.24	122.93	42.115	6.4835e-06	51.99	0.00056197	0.00051474	0.00014559	1388.7	5.8616e-06	5.6557e-06	1385.2	377.06	5.6479e-06	5.6663e-06	430.43	144.46	125.13	43.224	5.7376e-06	53.418	277.817	194.883	191.247	126.424	266.279	244.936	126.431	131.171	302.429	266.315	130.469	135.363	135.563	140.271	270.139	139.322	-8191	255	
25049.391	1	1	0	0	0.19734	0.082094	0.18127	0.18968	0.05351	0.17619	0.39038	0.30381	0.12985	0.25732	0.094314	0.043093	0.38058	0.49275	0.1423	0.10747	-3.0667	-3.2896	-2.6521	-3.6917	-2.9417	-3.0208	-3.9188	-3.1354	-3.2458	-3.5375	-2.7354	-3.525	-3.1583	-2.9792	-3.3875	-2.7875	146.449	404.723	438.587	446.999	229.919	361.658	397.050	433.951	237.649	472.105	357.471	464.233	131.840	118.185	340.768	194.837	0.00080399	0.00039559	0.00013448	1373.7	4.8524e-06	3.8924e-06	1375.9	372.9	4.7546e-06	6.8063e-06	424.39	142.27	123.91	42.216	5.5972e-06	52.317	0.00056167	0.00050025	0.00014524	1387	5.5214e-06	5.5852e-06	1385	376.51	5.6299e-06	5.45e-06	429.7	144.37	125.57	43.223	5.4365e-06	53.404	277.979	218.006	216.872	126.423	245.894	281.551	126.422	131.099	293.463	261.552	130.390	135.434	135.855	140.014	291.483	139.182	-8191	255	
25049.463	1	1	0	0	0.11946	0.012818	0.33242	0.25371	0.13573	0.18387	0.22611	0.23027	0.16784	0.054008	0.24636	0.19031	0.11258	0.21867	0.16359	0.093239	-2.5687	-3.5521	-2.9479	-3.6833	-2.9896	-2.7646	-3.7729	-2.9792	-3.1604	-3.4292	-2.6958	-3.4562	-3.1292	-2.8833	-3.6208	-3.1312	291.703	140.360	119.327	119.879	386.804	130.655	430.234	414.816	415.614	191.396	430.954	416.366	344.368	384.307	323.954	123.463	0.00079678	0.00055527	0.00010926	1370.1	6.1747e-06	5.324e-06	1374.2	371.75	5.6246e-06	4.7638e-06	422.72	143.24	123.34	42.086	9.6148e-06	52.389	0.0005541	0.00049344	0.00014137	1386.7	5.4468e-06	5.5788e-06	1384.5	376.28	5.502e-06	5.4096e-06	428.99	144.64	125.22	43.192	5.5781e-06	53.45	283.446	211.503	219.806	126.577	288.678	275.721	126.382	131.213	296.124	244.973	130.723	135.584	135.916	140.006	280.446	139.269	-8191	255	
25049.584	1	1	0	0	0.16776	0.079607	0.17674	0.3161	0.14277	0.12303	0.27215	0.12705	0.090756	0.18171	0.14253	0.31802	0.20278	0.032996	0.20184	0.15697	-2.475	-3.3354	-2.8312	-3.525	-3.1604	-2.8167	-3.8104	-3.0375	-2.8583	-3.7271	-2.9792	-3.4021	-3.5417	-2.7458	-3.4979	-3.1729	140.455	192.950	191.216	408.299	294.020	273.884	411.343	404.239	164.187	203.953	143.768	472.815	441.920	378.619	239.890	149.900	0.00081119	0.00042195	0.00015851	1369.1	9.6745e-06	5.9471e-06	1372.6	371.72	4.5076e-06	3.6943e-06	421.79	142.6	124.01	41.912	1.1009e-05	52.016	0.00055437	0.00048846	0.00013874	1386.2	5.5076e-06	5.5945e-06	1384.2	376.53	5.4919e-06	5.3407e-06	428.63	144.41	125.4	43.092	5.393e-06	53.373	286.118	199.948	202.118	126.663	246.394	284.506	126.327	131.203	265.199	279.424	130.295	135.251	135.841	140.223	267.186	139.026	-8191	255	
25049.680	1	1	0	0	0.10369	0.24583	0.059599	0.23195	0.15491	0.17886	0.1544	0.12909	0.19499	0.29251	0.37634	0.2648	0.15322	0.13432	0.10835	0.11404	-2.5729	-3.6042	-2.7812	-3.3375	-3.3542	-2.6208	-3.7021	-3.1937	-2.9417	-3.4271	-2.8875	-3.15	-3.5521	-2.8146	-3.4333	-3.2792	409.661	465.235	166.855	433.122	191.383	380.337	415.998	451.887	414.031	164.577	410.169	418.591	370.295	438.029	328.542	379.403	0.00080471	0.00064338	0.00016106	1367.1	9.6189e-06	5.9942e-06	1373.4	371.36	8.2205e-06	2.5148e-06	422.32	142.18	122.94	41.847	7.2921e-06	51.887	0.00055776	0.00047914	0.00014005	1386	5.4249e-06	5.4076e-06	1386.5	376.05	5.5231e-06	5.413e-06	428.87	144.05	125.09	43.04	5.5187e-06	53.253	285.408	215.049	203.145	126.734	261.865	272.672	126.511	131.158	297.742	287.859	130.524	135.437	135.949	140.331	276.091	139.187	-8191	255	
25049.773	1	1	0	0	0.073157	0.16649	0.19404	0.11237	0.14325	0.074553	0.24003	0.12598	0.19113	0.069881	0.27599	0.55244	0.28789	0.19533	0.28532	0.33167	-2.4396	-3.4333	-2.9604	-3.2958	-3.3792	-2.7271	-3.5083	-3.225	-2.8542	-3.5438	-3.0583	-3.0167	-3.6083	-2.7042	-3.4833	-3.2708	276.442	382.970	167.299	471.553	448.057	169.774	420.561	437.929	218.949	151.557	405.125	462.388	449.654	137.858	395.018	417.195	0.0007902	0.00016901	0.00011428	1368	7.9643e-06	8.3365e-06	1375.2	371.4	7.8489e-06	5.395e-06	422.37	142.47	123.11	42.194	6.6499e-06	51.948	0.00055066	0.00047478	0.00013981	1386.6	5.5687e-06	5.4769e-06	1384.9	376.47	5.535e-06	5.327e-06	429.09	144.17	125.19	43.216	5.4526e-06	53.333	278.986	221.403	215.276	126.679	254.951	250.273	126.249	131.105	312.716	234.483	130.348	135.475	135.895	140.010	275.286	138.863	-8191	255	
25049.869	1	1	0	0	0.22379	0.10854	0.13509	0.11436	0.10455	0.28458	0.05386	0.088575	0.10306	0.17926	0.11658	0.232	0.21049	0.057546	0.051815	0.12176	-2.4375	-3.5896	-3.0875	-3.0729	-3.3646	-2.9708	-3.5333	-3.3979	-2.7417	-3.6146	-3.2208	-3.1271	-3.6813	-3.0104	-3.2292	-3.4875	282.875	345.293	220.871	229.579	219.968	117.544	451.816	380.756	307.188	429.459	152.439	139.995	461.989	388.135	253.525	471.358	0.00078675	0.00063199	0.00017938	1368	5.7335e-06	5.4956e-06	1377.2	371.11	6.3908e-06	6.3816e-06	422.36	142.58	123.54	42.066	5.8991e-06	52.412	0.00054424	0.00048203	0.00013857	1385.7	5.3003e-06	5.4214e-06	1386	375.82	5.6729e-06	5.4106e-06	429.31	144.31	125.24	43.228	5.2553e-06	53.61	284.747	198.987	208.065	126.558	286.843	270.770	126.328	131.374	287.722	273.365	130.541	135.277	135.526	140.131	256.423	139.061	-8191	255	
25049.967	1	1	0	0	0.063097	0.12219	0.18242	0.37462	0.1721	0.078331	0.34096	0.1518	0.12707	0.1293	0.10114	0.1057	0.083597	0.28722	0.12173	0.27353	-2.2875	-3.6146	-3.0833	-3.075	-3.5083	-2.8333	-3.4062	-3.6125	-2.7	-3.5896	-3.2812	-2.9479	-3.7875	-2.9167	-3.3021	-3.6667	238.807	456.060	258.918	115.422	154.058	448.188	380.317	432.541	359.097	246.361	226.384	116.489	450.613	451.067	125.302	394.182	0.00080414	0.00058053	0.00011296	1364.3	8.3139e-06	5.0922e-06	1375.6	371.16	7.2564e-06	5.7879e-06	420.05	142.64	123.41	42.126	4.9768e-06	51.786	0.00055158	0.00049425	0.00013909	1386.1	5.3664e-06	5.492e-06	1387.5	376.37	5.3941e-06	5.2875e-06	428.42	144.46	125.32	43.154	5.4369e-06	53.37	281.481	220.879	238.430	126.659	264.275	249.462	126.446	131.527	287.987	267.361	130.418	135.477	135.911	140.124	261.093	139.321	-8191	255	
25050.062	1	1	0	0	0.23083	0.087723	0.21024	0.18856	0.012175	0.24009	0.22553	0.070148	0.18735	0.29527	0.2907	0.15445	0.20264	0.24334	0.12637	0.19444	-2.2833	-3.2417	-3.2	-2.9583	-3.4646	-3.025	-3.2958	-3.5812	-2.6604	-3.2083	-3.3042	-2.8833	-3.8021	-3.0604	-3.0146	-3.5208	389.630	178.659	237.739	419.580	141.940	155.220	434.985	337.546	208.000	161.193	124.426	404.294	389.074	158.643	307.659	427.880	0.00077525	0.00046022	0.00015575	1373.5	7.6769e-06	5.6197e-06	1381.6	373.87	8.6037e-06	6.1835e-06	425.05	143.08	123.92	42.253	9.374e-06	52.38	0.00054664	0.00050535	0.00013841	1386.3	5.49e-06	5.5248e-06	1387.6	377.21	5.4532e-06	5.4487e-06	429.73	144.15	125.53	43.266	5.4138e-06	53.568	279.941	191.147	190.616	126.547	276.224	270.788	126.317	131.298	287.679	253.164	130.703	135.245	135.882	139.835	257.621	139.176	-8191	255	
25050.158	1	1	0	0	0.34213	0.089966	0.22651	0.23692	0.20008	0.38258	0.32943	0.25388	0.048425	0.17308	0.25998	0.42042	0.24363	0.10747	0.15069	0.021262	-2.4021	-3.3229	-3.2875	-2.9021	-3.5021	-3.1458	-3.1771	-3.6854	-2.8	-3.2604	-3.6208	-2.8604	-3.4833	-3.1125	-2.8396	-3.6521	204.099	404.301	322.241	389.493	162.225	196.868	423.223	469.699	197.615	392.153	428.190	401.880	440.959	161.519	214.396	334.238	0.00077283	0.00049275	0.00018266	1375.6	9.4404e-06	4.0355e-06	1379.5	374.36	4.6631e-06	5.1915e-06	424.76	142.8	124.03	42.238	5.9363e-06	52.371	0.00054673	0.00049402	0.00013463	1388.9	5.4096e-06	5.2803e-06	1386.2	377.13	5.5018e-06	5.4132e-06	429.07	144.38	125.61	43.263	5.4245e-06	53.502	284.242	214.320	203.357	126.584	285.994	251.753	126.223	131.276	289.687	272.239	130.354	135.118	135.818	139.704	252.357	139.118	-8191	255	
25050.256	1	1	0	0	0.11398	0.21397	0.078037	0.16064	0.065201	0.0052909	0.2329	0.12918	0.051199	0.10675	0.29407	0.30995	0.12479	0.32959	0.16388	0.15735	-2.5979	-3.0854	-3.4667	-2.9667	-3.2687	-3.1896	-3.05	-3.725	-3.0229	-3.1521	-3.6188	-2.6125	-3.2812	-3.4479	-2.9875	-3.7104	338.587	364.030	427.174	143.395	397.729	212.427	436.463	425.293	135.317	114.968	382.556	403.669	144.629	422.419	197.125	390.215	0.0007438	0.00072045	0.00011084	1369.1	8.008e-06	2.8459e-06	1377.8	372.54	4.5081e-06	5.8177e-06	424.04	142.63	123.85	42.007	6.5981e-06	52.272	0.00053897	0.0004915	0.00013415	1386.5	5.2904e-06	5.3641e-06	1387.8	377.07	5.4542e-06	5.2913e-06	429.68	144.22	125.56	43.195	5.3198e-06	53.419	282.231	209.717	171.204	126.573	268.657	307.432	126.360	131.212	314.378	228.429	130.443	135.480	135.948	140.094	263.520	139.284	-8191	255	
25050.352	1	1	0	0	0.11793	0.17057	0.1678	0.13334	0.10565	0.16675	0.11661	0.19913	0.13941	0.04746	0.15191	0.13772	0.041473	0.16337	0.13247	0.22794	-2.6104	-3.05	-3.55	-2.8396	-3.4417	-3.3688	-2.9417	-3.625	-3.1083	-3.0083	-3.5958	-2.8729	-3.2792	-3.5604	-2.5646	-3.6771	376.028	383.924	121.760	177.692	201.195	400.255	351.346	316.091	273.755	170.703	136.011	144.434	396.884	436.215	286.110	167.052	0.00076351	0.00057618	6.1529e-05	1366.4	8.9786e-06	4.3719e-06	1368	370.69	7.9138e-06	6.6363e-06	421.61	141.91	122.92	42.176	8.271e-06	52.071	0.00054184	0.00049948	0.00013377	1384.4	5.5243e-06	5.3918e-06	1384.7	376.47	5.3073e-06	5.5019e-06	428.84	144.25	125.21	43.203	5.358e-06	53.46	280.356	214.240	211.420	126.618	273.520	296.296	126.279	131.400	277.995	264.091	130.613	135.585	136.171	139.730	291.840	139.449	-8191	255	
25050.473	1	1	0	0	0.18194	0.20284	0.1491	0.38739	0.10117	0.095036	0.28879	0.17995	0.12847	0.11977	0.093812	0.038995	0.17394	0.041936	0.13996	0.083647	-2.8187	-2.9417	-3.5312	-3.0104	-3.1333	-3.3417	-2.9646	-3.7542	-3.1292	-2.9542	-3.675	-3.0187	-3.2208	-3.4979	-2.6146	-3.4646	424.983	454.745	448.959	417.561	248.916	423.712	371.778	446.035	408.534	184.786	408.217	458.396	286.907	437.079	203.190	264.068	0.00081517	0.00047453	0.00021303	1367.9	4.8017e-06	5.2902e-06	1372	370.07	4.4026e-06	7.5909e-07	420.41	142.33	122.46	41.654	6.0355e-06	52.318	0.00055096	0.00048659	0.000135	1386	5.333e-06	5.3524e-06	1385.9	376.59	5.3167e-06	5.46e-06	428.71	144.38	125.19	43.125	5.4981e-06	53.484	280.467	211.921	218.964	126.564	263.343	300.054	126.220	131.369	297.985	420.665	130.567	135.191	136.047	140.173	266.718	139.330	-8191	255	
25050.568	1	1	0	0	0.20964	0.044279	0.13991	0.20752	0.13011	0.11361	0.41224	0.18709	0.1349	0.13169	0.11561	0.10293	0.028862	0.12881	0.28628	0.32097	-2.9313	-2.9562	-3.575	-2.9833	-2.9521	-3.5729	-3.0979	-3.6063	-3.2458	-2.9729	-3.6583	-3.0979	-3.1792	-3.6875	-2.6896	-3.4313	381.782	319.594	164.884	453.836	197.592	378.001	428.296	415.216	367.623	287.011	439.561	162.937	280.391	429.293	145.860	434.418	0.00080767	0.00027204	0.00010637	1363.1	5.703e-06	4.5723e-06	1369.8	368.38	6.9566e-06	5.6025e-06	422.76	142.31	122.55	41.686	7.0186e-06	51.667	0.00055457	0.00049983	0.00013674	1383.2	5.5314e-06	5.4236e-06	1383.6	375.93	5.5082e-06	5.4111e-06	429.67	144.36	125.23	43.101	5.4752e-06	53.266	280.982	181.007	197.021	126.631	309.296	238.542	126.537	131.490	294.681	250.445	130.900	135.523	135.711	140.108	275.051	139.479	-8191	255	
25050.664	1	1	0	0	0.097561	0.15675	0.098608	0.21683	0.13518	0.21932	0.24532	0.13295	0.00995	0.26143	0.10406	0.17194	0.096499	0.13268	0.0733	0.086251	-2.9292	-2.8187	-3.4875	-3.1188	-2.9375	-3.7062	-3.125	-3.4521	-3.3729	-2.8896	-3.6021	-3.1562	-2.8521	-3.5104	-2.8208	-3.3583	451.000	180.954	453.246	401.763	171.085	222.213	132.160	129.981	330.109	366.445	156.658	137.572	346.505	169.573	136.561	303.023	0.0008294	0.00050122	7.1501e-05	1358.5	1.0141e-05	2.9638e-06	1365.2	369.25	7.0972e-06	7.64e-06	418.69	140.91	122.61	41.733	7.145e-06	51.957	0.00054855	0.00051116	0.00013682	1383.6	5.5066e-06	5.3743e-06	1382.1	376.06	5.5493e-06	5.4632e-06	427.86	143.71	125.23	43.114	5.4493e-06	53.268	284.660	186.070	215.513	126.872	287.364	256.902	126.316	131.470	323.524	243.616	131.062	135.539	136.056	140.408	276.818	139.169	-8191	255	
25050.760	1	1	0	0	0.14354	0.098742	0.14761	0.18274	0.079852	0.12129	0.2905	0.071562	0.11176	0.11129	0.21653	0.088867	0.024039	0.32335	0.11112	0.27679	-3.0333	-2.8396	-3.5604	-3.3312	-2.9437	-3.4875	-3.1792	-3.2938	-3.5208	-2.9188	-3.6042	-3.3229	-2.8458	-3.5646	-2.9792	-3.0521	286.321	318.063	213.771	124.036	458.629	356.409	372.300	339.640	286.152	161.958	387.416	468.024	466.793	394.395	115.461	331.080	0.00085452	0.00049611	0.00010617	1362.6	1.0158e-05	4.9204e-06	1369.6	370.12	8.7905e-06	5.3411e-06	420.78	142.34	122.48	41.846	8.8468e-06	52.069	0.00055063	0.00050221	0.00013575	1383.8	5.574e-06	5.3873e-06	1384.1	376.23	5.4842e-06	5.5308e-06	428.39	144	125.11	43.09	5.5783e-06	53.325	281.843	192.005	205.724	126.601	265.192	269.582	126.503	131.677	302.638	255.143	130.512	135.315	136.110	140.103	271.117	139.310	-8191	255	
25050.855	1	1	0	0	0.13231	0.27499	0.15044	0.38505	0.18073	0.1582	0.45856	0.21496	0.24116	0.03571	0.025842	0.13863	0.28647	0.17247	0.13284	0.10581	-3.1417	-2.7875	-3.3438	-3.3563	-2.7604	-3.6312	-3.1979	-3.2375	-3.5333	-2.8208	-3.5542	-3.4458	-2.8771	-3.6437	-3.0125	-3.0083	147.043	387.210	435.642	466.125	457.776	129.700	438.963	456.494	462.339	327.903	377.103	154.538	148.601	119.319	366.234	379.164	0.00077701	0.00039961	0.00011997	1361.9	8.6666e-06	6.3538e-06	1377.4	372.55	5.0274e-06	5.2119e-06	425.31	143.17	123.79	42.36	4.4669e-06	52.596	0.00054974	0.00050883	0.00013764	1382.4	5.6648e-06	5.3848e-06	1384.8	376.94	5.4385e-06	5.5083e-06	429.7	144.24	125.35	43.275	5.5544e-06	53.527	281.601	185.640	201.204	126.338	265.380	266.483	126.164	131.156	260.618	256.986	130.479	135.202	135.558	140.077	259.333	139.210	-8191	255	
25050.951	1	1	0	0	0.20188	0.1073	0.099205	0.1437	0.28498	0.022631	0.25514	0.29099	0.21005	0.1736	0.16987	0.19097	0.10596	0.10766	0.15198	0.29572	-3.0938	-2.8833	-3.2396	-3.5021	-2.6958	-3.4667	-3.2062	-3.1771	-3.4833	-2.7875	-3.3083	-3.5396	-2.6708	-3.5896	-3.1896	-3.0979	166.177	406.583	215.788	390.775	421.800	376.258	131.423	400.439	252.532	460.034	221.511	379.038	202.613	246.450	196.285	373.130	0.00074084	0.00061284	0.00016031	1374.8	7.0591e-06	4.5055e-06	1377.2	372.34	6.7317e-06	6.23e-06	424.2	142.85	124.5	42.193	9.6657e-06	52.32	0.00054766	0.00050585	0.00014276	1388.1	5.6257e-06	5.4668e-06	1386.6	377.23	5.5336e-06	5.5527e-06	429.84	144.24	125.48	43.168	5.541e-06	53.415	281.727	207.816	209.033	126.587	259.248	249.496	126.223	131.216	285.248	252.511	130.913	135.213	135.761	139.963	255.095	138.977	-8191	255	
25051.070	1	1	0	0	0.10665	0.048594	0.2788	0.13903	0.10219	0.16966	0.32766	0.21854	0.25276	0.094084	0.17533	0.33751	0.13746	0.2181	0.17402	0.26215	-3.25	-2.7958	-3.2583	-3.5958	-2.7729	-3.4396	-3.4437	-3.0771	-3.6521	-3.1083	-3.2083	-3.5938	-2.9979	-3.6083	-3.2104	-2.9583	437.707	322.047	306.867	439.540	344.796	334.178	437.724	422.589	201.855	382.371	414.587	396.253	439.395	460.784	447.425	456.380	0.00080156	0.00040606	0.0001002	1381.5	7.1912e-06	3.4148e-06	1376.1	373.25	4.8033e-06	5.7295e-06	422.13	141.41	123.06	42.002	6.3161e-06	52.161	0.00055113	0.00050204	0.00013778	1390.7	5.5961e-06	5.4922e-06	1385.8	377.17	5.4215e-06	5.5272e-06	429.23	144.08	125.22	43.231	5.2947e-06	53.352	283.305	225.581	212.415	126.401	280.450	261.922	126.162	131.108	278.743	281.587	130.702	135.439	135.793	140.368	253.445	139.376	-8191	255	
25051.168	1	1	0	0	0.046118	0.24259	0.07376	0.40503	0.075894	0.21869	0.39167	0.28717	0.10718	0.17653	0.048976	0.35116	0.14956	0.10487	0.11751	0.11331	-3.1708	-2.9583	-3.0958	-3.8396	-2.9542	-3.5062	-3.7	-3.0896	-3.5667	-3.0271	-3.0417	-3.6	-3.0167	-3.2167	-3.3875	-2.8646	199.690	434.584	467.289	453.779	276.448	469.930	377.130	346.200	430.851	419.507	472.877	450.198	452.676	251.296	354.600	382.112	0.00084545	0.00016982	0.00012755	1365.3	6.7825e-06	6.3955e-06	1373.4	370.95	7.3031e-06	5.9614e-06	422.12	143.11	123.47	41.883	1.155e-05	52.283	0.00055446	0.00049169	0.00013975	1385	5.4309e-06	5.4212e-06	1383	376.31	5.6009e-06	5.4196e-06	428.83	144.26	125.48	43.13	5.3623e-06	53.385	283.351	167.152	236.738	126.483	273.586	268.581	126.335	131.191	290.530	250.026	130.557	135.527	135.691	140.138	268.916	139.161	-8191	255	
25051.264	1	1	0	0	0.2559	0.12834	0.078554	0.33508	0.2322	0.1852	0.13802	0.41344	0.33657	0.32414	0.10213	0.13981	0.23759	0.09802	0.023142	0.23965	-3.1813	-3.1417	-2.8187	-3.5979	-2.9146	-3.2	-3.5187	-2.8875	-3.45	-3.2375	-3.0312	-3.5708	-2.9146	-3.3208	-3.5417	-2.8833	316.118	299.580	233.777	133.449	407.574	230.404	385.440	463.153	232.078	220.717	228.727	471.712	433.127	252.794	369.165	130.318	0.00080395	0.00049965	0.00014213	1372.7	5.1433e-06	4.9681e-06	1387.6	373.61	7.7565e-06	5.1724e-06	424.3	143.14	123.55	42.388	9.2276e-06	52.545	0.00055061	0.00049863	0.00014021	1385.7	5.3965e-06	5.4489e-06	1388.1	376.88	5.3879e-06	5.313e-06	429.21	144.37	125.33	43.259	5.3788e-06	53.536	279.979	217.259	202.571	126.561	269.799	281.049	125.954	131.035	286.999	256.389	130.420	135.162	135.544	139.942	259.098	138.908	-8191	255	
25051.359	1	1	0	0	0.32483	0.22428	0.22675	0.40668	0.29901	0.093949	0.25136	0.2984	0.096469	0.044197	0.2245	0.23941	0.28476	0.17271	0.075951	0.48246	-3.0917	-3.2792	-2.7354	-3.6375	-2.8958	-3.0167	-3.7375	-2.8292	-3.4146	-3.3396	-2.9104	-3.7542	-2.9167	-3.2021	-3.4813	-3.0167	445.277	123.221	116.026	132.159	183.415	179.757	451.155	405.749	356.204	398.874	459.905	452.076	159.491	408.394	279.721	426.044	0.00082112	0.00046954	0.00014385	1368	6.1475e-06	8.0624e-06	1373.9	371.55	4.8929e-06	5.5591e-06	421.55	141.3	123.7	42.014	7.0359e-06	52.246	0.00054258	0.00049717	0.00014235	1386.1	5.6131e-06	5.5536e-06	1383.9	376.14	5.5626e-06	5.5119e-06	428.68	144.12	125.2	43.105	5.4433e-06	53.396	280.831	187.645	197.752	126.602	273.226	255.089	126.332	131.448	294.257	248.777	130.770	135.648	136.025	140.130	276.453	139.011	-8191	255	
#DATA ENDS
