BOXY.EXE: ISS Imagent and Oximeter Data Acquisition Program Version 0.80
Ascii Record File

#ACQ INFORMATION
2  Detector Channels 
16  External MUX Channels 
1  Auxiliary Channels 
5000  Waveform (CCF) Frequency (Hz)
1  Waveforms Skipped 
30  Waveforms Averaged 
1  Cycles Averaged 
16  Acquisitions per Waveform 
10.0806  Updata Rate (Hz) 

#FILE INFORMATION
TRUE -- External MUX Channel results are PARSED.
FALSE -- AC DC and Phase are NOT grouped.
TRUE -- Companion Program Settings File CREATED.
FALSE -- AC data not excluded
FALSE -- DC data not excluded
FALSE -- Phase data not excluded
FALSE -- Auxillary Chn. data not excluded
Tab delimiters

#CALIBRATION STATE
TRUE -- Waveform Calibration Values APPLIED.


#AUX CALIBRATION VALUES
Val Type	aux-1	

Term	1.0000e+00	
Factor	0.0000e+00	


#WF CALIBRATION VALUES
A = Detector Channel
Val Type	A-AC1	A-AC2	A-AC3	A-AC4	A-AC5	A-AC6	A-AC7	A-AC8	A-AC9	A-AC10	A-AC11	A-AC12	A-AC13	A-AC14	A-AC15	A-AC16	A-DC1	A-DC2	A-DC3	A-DC4	A-DC5	A-DC6	A-DC7	A-DC8	A-DC9	A-DC10	A-DC11	A-DC12	A-DC13	A-DC14	A-DC15	A-DC16	A-Ph1	A-Ph2	A-Ph3	A-Ph4	A-Ph5	A-Ph6	A-Ph7	A-Ph8	A-Ph9	A-Ph10	A-Ph11	A-Ph12	A-Ph13	A-Ph14	A-Ph15	A-Ph16	

Term	0.00000e+00	0.00000e+00	0.00000e+00	0.00000e+00	0.00000e+00	0.00000e+00	0.00000e+00	0.00000e+00	0.00000e+00	0.00000e+00	0.00000e+00	0.00000e+00	0.00000e+00	0.00000e+00	0.00000e+00	0.00000e+00	0.00000e+00	0.00000e+00	0.00000e+00	0.00000e+00	0.00000e+00	0.00000e+00	0.00000e+00	0.00000e+00	0.00000e+00	0.00000e+00	0.00000e+00	0.00000e+00	0.00000e+00	0.00000e+00	0.00000e+00	0.00000e+00	0.00000e+00	0.00000e+00	0.00000e+00	0.00000e+00	0.00000e+00	0.00000e+00	0.00000e+00	0.00000e+00	0.00000e+00	0.00000e+00	0.00000e+00	0.00000e+00	0.00000e+00	0.00000e+00	0.00000e+00	0.00000e+00	
Factor	1.00000e+00	1.00000e+00	1.00000e+00	1.00000e+00	1.00000e+00	1.00000e+00	1.00000e+00	1.00000e+00	1.00000e+00	1.00000e+00	1.00000e+00	1.00000e+00	1.00000e+00	1.00000e+00	1.00000e+00	1.00000e+00	1.00000e+00	1.00000e+00	1.00000e+00	1.00000e+00	1.00000e+00	1.00000e+00	1.00000e+00	1.00000e+00	1.00000e+00	1.00000e+00	1.00000e+00	1.00000e+00	1.00000e+00	1.00000e+00	1.00000e+00	1.00000e+00	X	X	X	X	X	X	X	X	X	X	X	X	X	X	X	X	

B = Detector Channel
Val Type	B-AC1	B-AC2	B-AC3	B-AC4	B-AC5	B-AC6	B-AC7	B-AC8	B-AC9	B-AC10	B-AC11	B-AC12	B-AC13	B-AC14	B-AC15	B-AC16	B-DC1	B-DC2	B-DC3	B-DC4	B-DC5	B-DC6	B-DC7	B-DC8	B-DC9	B-DC10	B-DC11	B-DC12	B-DC13	B-DC14	B-DC15	B-DC16	B-Ph1	B-Ph2	B-Ph3	B-Ph4	B-Ph5	B-Ph6	B-Ph7	B-Ph8	B-Ph9	B-Ph10	B-Ph11	B-Ph12	B-Ph13	B-Ph14	B-Ph15	B-Ph16	

Term	0.00000e+00	0.00000e+00	0.00000e+00	0.00000e+00	0.00000e+00	0.00000e+00	0.00000e+00	0.00000e+00	0.00000e+00	0.00000e+00	0.00000e+00	0.00000e+00	0.00000e+00	0.00000e+00	0.00000e+00	0.00000e+00	0.00000e+00	0.00000e+00	0.00000e+00	0.00000e+00	0.00000e+00	0.00000e+00	0.00000e+00	0.00000e+00	0.00000e+00	0.00000e+00	0.00000e+00	0.00000e+00	0.00000e+00	0.00000e+00	0.00000e+00	0.00000e+00	-2.80792e+01	-1.26731e+02	-1.22018e+02	-1.83776e+02	-5.40367e+01	-5.85387e+01	-1.56154e+02	-1.62015e+02	-3.33067e+01	-7.23125e+01	-1.69848e+02	-1.70119e+02	-1.79176e+02	-1.76608e+02	-5.86712e+01	-1.49440e+02	
Factor	2.52474e-05	1.47901e-04	3.78751e-05	1.73751e-01	1.70863e-06	1.59019e-06	1.53219e-01	4.81282e-02	1.39630e-06	1.50569e-06	8.24633e-02	2.87923e-02	2.45327e-02	8.81194e-03	1.71434e-06	1.25282e-02	7.24671e-06	9.23466e-06	2.57945e-06	9.15544e-02	9.73687e-08	1.02327e-07	7.57850e-02	2.54859e-02	9.67483e-08	1.02096e-07	4.23445e-02	1.47771e-02	1.31307e-02	4.71386e-03	9.89239e-08	6.47113e-03	X	X	X	X	X	X	X	X	X	X	X	X	X	X	X	X	



#DISTANCE SETTINGS
A = Detector Channel
A-1	A-2	A-3	A-4	A-5	A-6	A-7	A-8	A-9	A-10	A-11	A-12	A-13	A-14	A-15	A-16	

2.5000e+00	3.0000e+00	2.5000e+00	3.0000e+00	2.0000e+00	3.0000e+00	1.5000e+00	3.0000e+00	3.0000e+00	3.0000e+00	3.0000e+00	3.0000e+00	3.0000e+00	3.0000e+00	1.5000e+00	3.0000e+00	

B = Detector Channel
B-1	B-2	B-3	B-4	B-5	B-6	B-7	B-8	B-9	B-10	B-11	B-12	B-13	B-14	B-15	B-16	

1.0000e+01	1.0000e+01	1.0000e+01	1.4400e+00	1.0000e+01	1.0000e+01	1.5100e+00	1.9400e+00	1.0000e+01	1.0000e+01	1.9900e+00	2.4900e+00	2.4100e+00	2.9000e+00	1.0000e+01	2.9800e+00	




#DATA BEGINS
time	group	step	mark	flag	A-AC1	A-AC2	A-AC3	A-AC4	A-AC5	A-AC6	A-AC7	A-AC8	A-AC9	A-AC10	A-AC11	A-AC12	A-AC13	A-AC14	A-AC15	A-AC16	A-DC1	A-DC2	A-DC3	A-DC4	A-DC5	A-DC6	A-DC7	A-DC8	A-DC9	A-DC10	A-DC11	A-DC12	A-DC13	A-DC14	A-DC15	A-DC16	A-Ph1	A-Ph2	A-Ph3	A-Ph4	A-Ph5	A-Ph6	A-Ph7	A-Ph8	A-Ph9	A-Ph10	A-Ph11	A-Ph12	A-Ph13	A-Ph14	A-Ph15	A-Ph16	B-AC1	B-AC2	B-AC3	B-AC4	B-AC5	B-AC6	B-AC7	B-AC8	B-AC9	B-AC10	B-AC11	B-AC12	B-AC13	B-AC14	B-AC15	B-AC16	B-DC1	B-DC2	B-DC3	B-DC4	B-DC5	B-DC6	B-DC7	B-DC8	B-DC9	B-DC10	B-DC11	B-DC12	B-DC13	B-DC14	B-DC15	B-DC16	B-Ph1	B-Ph2	B-Ph3	B-Ph4	B-Ph5	B-Ph6	B-Ph7	B-Ph8	B-Ph9	B-Ph10	B-Ph11	B-Ph12	B-Ph13	B-Ph14	B-Ph15	B-Ph16	aux-1	digaux	

25097.406	1	1	0	768	0.24077	0.097132	0.091506	0.25342	0.046446	0.22844	0.21725	0.30224	0.11627	0.18567	0.17365	0.30482	0.13412	0.091554	0.079892	0.086356	-2.475	-3.2958	-3.2562	-3.0417	-3.525	-3.0854	-3.2042	-3.6958	-2.8729	-3.3104	-3.4104	-3.0354	-3.5625	-3.2667	-2.9688	-3.6354	162.351	349.339	352.748	399.484	140.081	295.775	396.034	355.427	384.904	334.155	342.242	195.966	358.178	236.521	101.439	326.820	0.00063861	0.00052214	0.00017498	1389.8	6.8077e-06	4.4773e-06	1399.5	373.6	5.7184e-06	3.494e-06	427.41	143.7	124.74	42.596	8.6299e-06	52.728	0.00046495	0.00040511	0.00011329	1430.6	4.597e-06	4.4269e-06	1429.6	385.88	4.6006e-06	4.314e-06	440.58	147.57	129.26	44.346	4.4087e-06	54.869	265.597	137.802	152.404	71.939	245.964	239.088	72.195	76.908	251.461	206.304	76.185	81.303	81.428	85.323	218.712	84.609	-8191	255	
25097.504	1	1	0	0	0.099873	0.15349	0.093047	0.10498	0.2247	0.061367	0.18919	0.41352	0.037527	0.21463	0.073016	0.15832	0.11656	0.23496	0.10979	0.10262	-2.4813	-3.3708	-3.4167	-2.7438	-3.5687	-3.2708	-3.1271	-3.7708	-2.8667	-3.3146	-3.5208	-2.9771	-3.5042	-3.2083	-2.8979	-3.5563	195.146	339.731	403.447	162.659	367.917	390.431	268.005	344.628	72.932	177.591	85.441	150.492	74.291	355.642	369.231	70.631	0.00062221	0.00051261	0.00018517	1391.4	7.2169e-06	6.4342e-06	1399.6	377.11	6.9582e-06	3.4897e-06	430.68	144.28	125.03	42.776	7.4186e-06	52.471	0.00045016	0.00041569	0.00011374	1432.8	4.4183e-06	4.2764e-06	1428.9	387.26	4.4498e-06	4.3597e-06	440.94	148.01	129.49	44.431	4.4553e-06	54.759	260.337	150.005	149.257	71.925	215.872	191.305	71.762	76.332	254.956	202.677	75.496	80.771	81.491	85.057	233.399	84.432	-8191	255	
25097.600	1	1	0	0	0.26579	0.30202	0.16694	0.15167	0.11559	0.10416	0.34742	0.33615	0.090833	0.11906	0.22308	0.16844	0.27271	0.12405	0.096336	0.25184	-2.4708	-3.0812	-3.4667	-3.1042	-3.4771	-3.175	-3.0167	-3.6979	-2.8167	-2.9625	-3.6937	-2.9479	-3.5	-3.4146	-2.875	-3.5938	117.259	181.986	101.310	375.320	131.333	105.566	338.887	372.221	309.324	230.894	418.070	386.888	68.378	297.256	171.216	96.922	0.00063443	0.00030518	8.7297e-05	1400.3	7.089e-06	2.5812e-06	1395.4	378.2	6.1699e-06	4.0197e-06	428.18	144.02	125.82	42.678	7.8972e-06	52.848	0.00045558	0.00039519	0.00010632	1434.8	4.4796e-06	4.2421e-06	1427.2	387.77	4.3238e-06	4.5245e-06	439.87	148.07	129.78	44.422	4.4409e-06	54.761	256.259	145.468	144.458	71.991	230.495	220.939	71.856	76.471	256.931	207.016	75.865	80.763	81.432	85.281	213.731	84.514	-8191	255	
25097.695	1	1	0	0	0.13547	0.13232	0.29393	0.22098	0.038583	0.072397	0.10333	0.17511	0.30111	0.066146	0.32307	0.13553	0.18022	0.10435	0.29252	0.13228	-2.5854	-2.8708	-3.4813	-2.9417	-3.3479	-3.2812	-2.9354	-3.6688	-3.0458	-2.8896	-3.6417	-3.0563	-3.3167	-3.5042	-2.7104	-3.5833	171.011	109.987	375.703	368.279	352.762	276.775	338.887	401.298	83.371	269.581	353.518	344.507	65.107	338.381	331.727	226.612	0.0006179	0.00045973	0.00013534	1397.6	5.1905e-06	3.9728e-06	1402.4	377.2	5.2569e-06	3.8164e-06	428.39	144.93	126.25	42.784	9.1033e-06	52.814	0.00044816	0.00041616	0.000114	1433	4.4836e-06	4.5141e-06	1429.9	387.3	4.4659e-06	4.5203e-06	440.7	148.07	129.71	44.399	4.657e-06	54.699	261.807	139.780	158.184	71.949	239.172	196.138	71.776	76.618	263.312	224.062	76.222	80.849	81.323	85.267	223.885	84.327	-8191	255	
25097.793	1	1	0	0	0.053877	0.021471	0.15486	0.22895	0.30008	0.028826	0.13541	0.29254	0.37335	0.33838	0.15907	0.31943	0.15776	0.20544	0.22251	0.076396	-2.7396	-2.8646	-3.5542	-3.1188	-3.2375	-3.4396	-2.9188	-3.475	-3.3292	-3.1437	-3.6146	-2.9458	-3.3396	-3.625	-2.8833	-3.6354	364.446	104.766	106.029	353.895	234.986	192.750	344.353	355.188	68.041	98.160	369.783	358.249	379.600	335.465	188.796	332.177	0.00065946	0.00021403	8.7738e-05	1382.4	6.5009e-06	8.7448e-06	1390	375.66	5.8225e-06	3.3285e-06	425.7	142.74	124.69	42.613	8.5052e-06	52.356	0.0004598	0.00041265	0.00011469	1429	4.451e-06	4.6322e-06	1427.2	386.54	4.6598e-06	4.5652e-06	440.21	147.5	129.18	44.406	4.6278e-06	54.734	263.649	133.682	138.894	72.222	215.374	229.980	71.985	76.964	235.284	189.211	76.061	81.369	81.633	85.394	223.118	84.666	-8191	255	
25097.889	1	1	0	0	0.093396	0.07819	0.20387	0.21553	0.21145	0.069543	0.34918	0.18783	0.22518	0.029146	0.29802	0.19909	0.37889	0.27648	0.10837	0.14758	-2.7021	-2.7479	-3.5667	-3.1771	-3.0104	-3.4375	-3.0333	-3.5854	-3.0938	-2.8937	-3.6188	-3.2333	-3.125	-3.5875	-3.0479	-3.4604	132.356	80.940	313.478	394.977	112.116	182.435	376.135	160.774	118.560	323.780	75.553	388.351	392.015	74.289	378.819	315.935	0.00067552	0.00051068	0.00011323	1381.1	6.9294e-06	5.6844e-06	1384	371.63	6.4815e-06	5.547e-06	422.24	141.61	124.19	42.057	4.7988e-06	52.368	0.000457	0.00041775	0.00011466	1430.3	4.5966e-06	4.5299e-06	1425.7	386.13	4.5591e-06	4.6054e-06	439.75	147.01	129	44.228	4.5202e-06	54.684	260.645	147.158	172.748	72.168	216.873	236.018	72.056	77.092	251.645	207.891	76.405	81.409	81.630	85.957	193.652	84.848	-8191	255	
25098.008	1	1	0	0	0.21807	0.056212	0.15251	0.12637	0.13511	0.14318	0.2195	0.3465	0.10144	0.11563	0.15913	0.16491	0.29624	0.15427	0.26705	0.23026	-2.75	-2.7479	-3.55	-3.2708	-2.9917	-3.7583	-3.0729	-3.3583	-3.3458	-2.8771	-3.6813	-3.1292	-3.0938	-3.6063	-2.7188	-3.2125	59.370	377.237	104.171	382.580	274.498	62.814	345.867	354.354	165.895	126.673	379.028	386.950	74.398	351.389	271.994	284.322	0.0006588	0.0004954	0.00016248	1384.7	7.1949e-06	3.3648e-06	1379.7	371.67	6.6174e-06	3.2975e-06	422.2	141.98	124.85	42.232	5.4332e-06	53.019	0.00046483	0.00041777	0.00011354	1428.7	4.5599e-06	4.3815e-06	1425	385.62	4.4385e-06	4.4433e-06	438.89	147.21	129.39	44.246	4.5752e-06	54.652	263.694	134.936	153.428	72.236	240.467	208.323	72.106	77.230	269.016	208.865	76.583	81.282	81.551	85.578	228.902	84.851	-8191	255	
25098.105	1	1	0	0	0.24295	0.097115	0.16532	0.15832	0.19479	0.12799	0.36706	0.2517	0.057194	0.21379	0.15306	0.14978	0.19862	0.2898	0.099127	0.35139	-3.0187	-2.8292	-3.4542	-3.3792	-2.9896	-3.4979	-3.1625	-3.2854	-3.3917	-2.9	-3.5667	-3.3875	-3.0687	-3.6688	-2.9417	-3.175	246.260	326.969	333.745	363.519	60.460	357.609	353.765	396.434	226.433	123.589	409.084	408.919	61.450	361.958	400.751	392.254	0.00063903	0.00073737	0.00010994	1400.7	7.3276e-06	7.0609e-06	1403.1	377.6	7.7728e-06	5.0365e-06	429.62	143.32	125.98	42.944	9.3401e-06	53.105	0.000469	0.00041554	0.00011263	1433.1	4.5877e-06	4.4193e-06	1427.2	386.9	4.622e-06	4.5864e-06	441.14	147.62	129.64	44.429	4.4182e-06	54.851	262.038	144.926	139.708	71.832	244.912	195.906	71.514	76.523	257.704	217.985	75.972	80.870	81.244	85.144	235.327	84.289	-8191	255	
25098.201	1	1	0	0	0.2246	0.16683	0.13259	0.11294	0.1059	0.18044	0.14032	0.19658	0.34137	0.12376	0.13548	0.32732	0.22044	0.11775	0.07633	0.22951	-3.1896	-2.8167	-3.3	-3.4917	-2.7542	-3.4792	-3.2146	-3.3063	-3.4875	-2.8375	-3.4667	-3.5104	-3.0833	-3.5938	-3.1083	-2.9229	206.438	60.051	60.193	372.480	163.609	223.391	64.978	366.165	83.793	119.080	320.987	388.183	397.095	356.122	209.981	400.645	0.00063415	0.00054585	0.00012868	1395.2	7.8432e-06	2.7222e-06	1392	373.74	5.4859e-06	3.6323e-06	425.54	142.98	124.7	42.521	7.8088e-06	52.739	0.00045514	0.00040515	0.00011192	1430.5	4.6163e-06	4.3414e-06	1425.9	386.66	4.4901e-06	4.3635e-06	440.51	147.37	129.12	44.317	4.3329e-06	54.631	261.842	174.904	109.723	72.011	208.477	198.930	72.052	76.855	256.600	184.131	76.002	80.941	81.219	85.316	243.547	84.869	-8191	255	
25098.297	1	1	0	0	0.18528	0.04112	0.11298	0.3195	0.033249	0.072709	0.39132	0.065918	0.18879	0.17472	0.16758	0.23454	0.10542	0.099441	0.13594	0.084771	-3.2417	-2.8438	-3.2687	-3.4688	-2.7646	-3.3563	-3.2583	-3.1604	-3.5521	-3.0146	-3.3854	-3.6979	-2.8688	-3.5771	-3.3375	-3.0708	279.035	150.860	360.706	374.658	66.618	147.744	375.477	86.803	307.087	368.775	392.036	86.545	332.352	232.875	326.777	271.794	0.00061681	0.00041595	0.00018745	1388.2	8.8391e-06	7.6574e-06	1391.7	376.03	6.208e-06	3.21e-06	428.38	142.91	123.61	42.221	6.2732e-06	52.108	0.000442	0.00039711	0.00011436	1429.7	4.5522e-06	4.3903e-06	1424.6	385.85	4.4867e-06	4.3225e-06	440.27	147.25	128.84	44.191	4.3615e-06	54.58	263.368	153.582	152.922	71.804	214.857	232.090	71.916	76.664	256.442	241.985	76.476	81.048	81.475	85.772	239.594	85.137	-8191	255	
25098.391	1	1	0	0	0.056078	0.13646	0.06893	0.14348	0.27716	0.13801	0.42084	0.2711	0.16881	0.085036	0.080071	0.22884	0.26625	0.16389	0.16044	0.15716	-3.1167	-2.8917	-3.1437	-3.6625	-2.9062	-3.3979	-3.4104	-2.8542	-3.5771	-3.0958	-3.1625	-3.4625	-2.7646	-3.4792	-3.1937	-2.9688	381.900	351.117	161.188	348.335	399.675	134.215	73.938	67.360	398.502	64.509	372.953	382.634	411.480	85.219	114.439	372.031	0.00068976	0.00061554	9.779e-05	1394	5.3508e-06	6.9594e-06	1388.4	370.88	6.0939e-06	5.2484e-06	428.95	143.68	125.49	42.768	6.824e-06	52.673	0.00044258	0.00040209	0.00011074	1429.4	4.538e-06	4.3822e-06	1422.4	384.96	4.4023e-06	4.3903e-06	440.58	147.53	129.19	44.333	4.4062e-06	54.647	262.621	179.450	150.927	71.652	225.588	203.718	71.789	76.941	258.360	195.778	76.148	81.129	81.210	85.397	222.801	84.380	-8191	255	
25098.486	1	1	0	0	0.1092	0.29425	0.23835	0.033542	0.089845	0.14103	0.39439	0.24643	0.072522	0.29895	0.15604	0.19362	0.10432	0.15683	0.094524	0.075185	-2.9813	-2.8604	-3.0062	-3.7354	-3.0125	-3.1937	-3.3875	-3.0146	-3.5125	-2.9875	-2.9708	-3.6813	-2.9188	-3.3875	-3.1521	-2.8021	206.812	186.668	278.905	240.588	277.247	270.613	338.808	360.196	144.118	314.173	363.197	392.778	88.947	306.943	104.101	278.035	0.00063529	0.0004617	0.0001786	1379.8	9.4947e-06	6.9164e-06	1377	377.08	5.6699e-06	4.2098e-06	429.61	143.33	125.33	42.573	5.9281e-06	52.645	0.00045505	0.00039984	0.00011126	1426.5	4.4597e-06	4.3333e-06	1420.1	386.58	4.3702e-06	4.3793e-06	440.05	147.53	129.35	44.325	4.3028e-06	54.625	261.653	165.513	184.604	72.355	212.209	197.513	72.116	76.361	238.520	187.919	75.780	81.018	81.074	85.268	233.683	84.422	-8191	255	
25098.607	1	1	0	0	0.092759	0.08528	0.1551	0.17478	0.05666	0.13376	0.26766	0.20132	0.10771	0.061832	0.26894	0.17698	0.12281	0.14316	0.057966	0.11161	-2.8833	-3.1458	-2.9	-3.6104	-2.8271	-3.2458	-3.5792	-3.0167	-3.5312	-3.2958	-2.7896	-3.6562	-2.9583	-3.275	-3.4625	-3.0625	254.205	348.196	202.448	400.011	64.649	264.585	358.206	61.248	345.832	326.912	373.964	335.384	79.096	390.292	124.800	402.472	0.00061258	0.00072866	0.00018444	1387.4	8.5243e-06	5.1316e-06	1386.7	372.53	7.5978e-06	4.4382e-06	427.8	143.79	126.04	42.998	7.1636e-06	52.945	0.00045689	0.0004059	0.0001147	1427.5	4.665e-06	4.3924e-06	1422.7	386.55	4.4407e-06	4.3101e-06	440.4	147.55	129.4	44.449	4.2477e-06	54.706	258.824	146.650	160.659	72.135	211.183	223.596	71.858	76.741	256.213	188.361	76.037	81.262	81.078	85.454	191.747	84.365	-8191	255	
25098.703	1	1	0	0	0.038819	0.21776	0.090461	0.32706	0.27639	0.042973	0.32681	0.33732	0.13818	0.13466	0.25523	0.098089	0.1437	0.17807	0.16736	0.20318	-3.05	-3.0875	-2.7625	-3.5375	-3.0521	-2.9771	-3.65	-2.8917	-3.3125	-3.4146	-2.975	-3.5104	-2.9813	-2.9875	-3.5187	-2.9833	301.787	68.914	98.482	378.699	284.858	376.245	376.618	66.728	77.236	108.247	378.475	402.756	91.665	347.729	328.260	353.695	0.00067157	0.00073492	8.0352e-05	1403.7	4.7677e-06	3.3861e-06	1399	377.56	6.5121e-06	3.5852e-06	429.02	144.4	126.14	43.198	7.1752e-06	52.903	0.00046121	0.00040977	0.00011465	1432.8	4.4471e-06	4.382e-06	1426.6	386.99	4.3736e-06	4.248e-06	440.8	147.75	129.67	44.42	4.4559e-06	54.644	259.431	158.567	130.955	71.611	223.094	202.315	71.760	76.517	246.740	187.113	75.970	81.022	81.087	85.307	242.965	84.196	-8191	255	
25098.801	1	1	0	0	0.13096	0.12252	0.26486	0.18461	0.3487	0.11244	0.069785	0.11058	0.25195	0.12381	0.28943	0.38542	0.28468	0.17911	0.23707	0.20716	-2.7708	-3.1937	-2.7708	-3.6167	-2.9813	-2.9625	-3.5833	-3.025	-3.2792	-3.3854	-2.6063	-3.5333	-3.2917	-3.1063	-3.5833	-2.9688	230.307	382.787	289.603	95.556	347.075	102.797	199.026	401.551	381.415	353.131	393.573	393.005	95.456	90.034	65.640	416.208	0.00068375	0.0005153	7.9039e-05	1401.7	6.5372e-06	5.4529e-06	1396.7	376.95	5.5845e-06	5.8774e-06	429.73	145.03	125.84	42.675	6.6196e-06	53.382	0.0004562	0.00039197	0.00011073	1431.4	4.4055e-06	4.325e-06	1427.7	386.72	4.3261e-06	4.2195e-06	440.98	148.21	129.59	44.339	4.1507e-06	54.793	261.747	148.202	160.692	71.703	223.996	216.826	71.612	76.197	243.884	212.283	76.034	80.814	81.322	85.352	221.708	84.239	-8191	255	
25098.896	1	1	0	0	0.10125	0.11574	0.14272	0.24624	0.20736	0.11552	0.2986	0.04933	0.15822	0.15054	0.27917	0.20503	0.32677	0.1664	0.16362	0.36168	-2.8104	-3.3604	-2.6396	-3.5479	-3.2375	-2.8083	-3.7208	-2.9917	-3.0542	-3.4688	-2.8604	-3.5167	-3.1063	-3.0625	-3.5208	-2.9625	69.112	76.813	406.967	372.689	412.370	376.023	408.371	148.224	295.646	149.331	382.346	409.125	363.081	117.211	395.759	399.442	0.00064623	0.00066525	0.000135	1406.4	6.3743e-06	5.587e-06	1411.3	380.16	6.299e-06	4.2608e-06	433.52	145.83	127.41	43.254	5.927e-06	53.736	0.0004385	0.00037808	0.00010419	1432.8	4.1988e-06	4.1577e-06	1427.9	387.67	4.2989e-06	4.0349e-06	442.17	148.73	130.11	44.606	4.0491e-06	54.978	257.729	159.807	163.819	71.661	209.314	225.112	71.463	76.266	255.196	216.768	75.653	80.820	80.893	85.046	200.261	84.127	-8191	255	
25098.992	1	1	0	0	0.21463	0.29165	0.39275	0.15463	0.19616	0.034481	0.32156	0.22191	0.091515	0.22902	0.17298	0.16554	0.26609	0.018189	0.25244	0.20978	-2.675	-3.4375	-2.7917	-3.7062	-3.2375	-2.6458	-3.8396	-3.0229	-2.8625	-3.3688	-2.9062	-3.3542	-3.5125	-2.8937	-3.4208	-3.0125	88.606	314.619	182.579	211.021	102.014	68.087	328.081	388.932	197.112	204.229	382.786	411.452	348.560	121.336	238.500	334.876	0.00067791	0.00070449	0.00012448	1433.4	9.5144e-06	6.1677e-06	1423.1	383.93	5.9028e-06	4.2063e-06	437.09	146.68	128.28	43.712	9.2164e-06	53.668	0.00043657	0.00037368	0.00010485	1439	3.956e-06	3.9867e-06	1433.4	389.25	4.0703e-06	3.8607e-06	442.88	148.66	130.15	44.665	3.9444e-06	54.916	256.930	158.641	163.699	71.170	222.093	192.272	71.351	75.987	264.024	187.532	75.503	80.369	80.869	84.900	220.338	83.878	-8191	255	
25099.090	1	1	0	0	0.098709	0.14945	0.047668	0.14626	0.25162	0.11939	0.15632	0.22234	0.23478	0.28091	0.21597	0.13438	0.19887	0.076631	0.31436	0.15571	-2.5187	-3.5271	-2.8521	-3.3542	-3.2708	-2.6833	-3.7375	-3.1104	-2.8187	-3.4542	-2.9833	-3.3312	-3.3083	-2.8667	-3.3875	-3.0958	402.234	292.025	230.835	346.374	290.885	71.881	307.443	65.531	201.055	360.464	382.429	147.122	318.922	223.273	401.807	374.321	0.00068832	0.00060757	0.00010782	1425.3	9.7506e-06	4.5799e-06	1429.4	386.7	4.4501e-06	4.061e-06	443.3	147.84	129.34	43.802	7.5549e-06	54.127	0.00043467	0.00036104	0.00010324	1434.1	4.0012e-06	4.0481e-06	1431.3	389.51	4.108e-06	3.9156e-06	443.83	148.76	130.2	44.605	3.938e-06	54.971	260.894	133.831	180.939	71.258	232.265	213.892	71.164	75.870	254.743	209.461	75.130	80.520	80.547	84.671	208.253	83.964	-8191	255	
25099.186	1	1	0	0	0.3135	0.137	0.5107	0.28279	0.11838	0.16821	0.29111	0.29088	0.1748	0.097931	0.33827	0.26938	0.1052	0.12813	0.19713	0.071492	-2.5521	-3.5563	-2.6937	-3.2083	-3.4688	-2.775	-3.7333	-3.3917	-2.8688	-3.6625	-3.1229	-3.2646	-3.6271	-2.9333	-3.525	-3.425	64.827	271.198	413.463	333.599	303.286	249.553	381.337	62.333	313.746	321.970	387.620	67.967	257.738	371.896	382.811	403.041	0.00062943	0.00030748	0.00015561	1415.7	5.3859e-06	4.9144e-06	1415.1	383.46	5.3035e-06	3.4106e-06	436.41	147.05	128.1	43.209	9.4417e-06	53.589	0.0004324	0.00035384	0.00010152	1433.5	4.0542e-06	3.9547e-06	1427	388.81	4.0374e-06	3.7552e-06	442.07	148.51	130.06	44.489	3.9864e-06	54.816	260.298	134.389	167.570	71.618	226.928	219.239	71.253	75.848	233.442	237.719	75.527	80.585	81.039	84.903	212.438	84.155	-8191	255	
25099.281	1	1	0	0	0.06552	0.16885	0.13198	0.12158	0.15603	0.24689	0.22171	0.24879	0.19536	0.14475	0.41993	0.12969	0.20815	0.20026	0.20884	0.074816	-2.3354	-3.5042	-3.1021	-3.1312	-3.6208	-2.9271	-3.475	-3.5083	-2.7917	-3.5583	-3.2167	-2.9771	-3.6083	-2.9292	-3.2	-3.425	120.720	383.347	77.464	369.045	307.065	272.766	332.628	404.420	356.006	95.606	384.336	112.457	354.919	351.901	255.790	98.015	0.0006432	0.00055692	0.00011264	1418.4	7.7893e-06	4.2418e-06	1418.3	384.08	5.4238e-06	5.6214e-06	432.43	145.73	127.94	43.204	6.1763e-06	53.275	0.00042316	0.00034603	9.8637e-05	1432.7	3.8751e-06	3.9861e-06	1429.3	389.47	4.0233e-06	3.798e-06	440.97	148.39	130.2	44.518	4.0266e-06	54.88	257.918	164.056	168.632	71.555	247.984	219.340	71.185	75.917	258.992	188.064	75.636	80.642	81.089	85.039	232.909	84.302	-8191	255	
25099.377	1	1	0	0	0.16563	0.065208	0.1231	0.22858	0.25478	0.16443	0.27781	0.21407	0.030019	0.026449	0.1262	0.14836	0.023247	0.17919	0.2743	0.1507	-2.2979	-3.5687	-3.0271	-3.225	-3.4146	-2.8146	-3.3625	-3.4667	-2.8083	-3.4938	-3.3	-3.0854	-3.6854	-2.9958	-3.1042	-3.6	291.603	288.332	397.454	59.423	405.174	86.419	285.477	379.127	167.008	154.718	277.361	220.336	177.598	81.140	88.766	324.415	0.0006896	0.00057872	0.00011417	1412.5	9.3628e-06	4.0431e-06	1418.1	385.19	8.5419e-06	4.9937e-06	435.46	146.12	127.4	43.39	6.5466e-06	53.606	0.00043098	0.00035178	9.674e-05	1433.8	4.0077e-06	4.0202e-06	1431	390.42	3.9409e-06	3.9439e-06	442.33	148.72	130.25	44.546	3.9776e-06	55.074	261.288	150.178	142.182	71.432	231.338	223.902	71.290	76.255	254.810	198.320	75.335	80.801	80.910	84.854	207.278	84.261	-8191	255	
25099.496	1	1	0	0	0.26168	0.2847	0.11892	0.28386	0.10123	0.16992	0.12297	0.078404	0.16497	0.15593	0.059759	0.29906	0.099356	0.2061	0.12851	0.12353	-2.2167	-3.3771	-3.1792	-2.8208	-3.5146	-2.8667	-3.0979	-3.6854	-2.8063	-3.2708	-3.4083	-2.9646	-3.5938	-3.0979	-3.0729	-3.6479	346.745	274.695	218.024	340.114	370.230	285.513	349.429	398.684	286.115	418.084	128.139	376.286	115.359	70.934	208.914	360.311	0.0006603	0.0006656	0.00014138	1399.4	4.43e-06	4.2783e-06	1412	382.09	5.0766e-06	2.6615e-06	436.75	146.64	127.69	43.438	8.193e-06	53.67	0.00041438	0.00036419	9.8401e-05	1430.5	3.9142e-06	3.8816e-06	1429.5	389.73	3.9701e-06	3.7669e-06	443.75	148.89	130.32	44.634	4.0983e-06	55.043	260.761	168.950	164.090	71.864	219.393	184.938	71.590	76.095	249.727	198.863	75.508	80.559	80.794	84.802	236.828	84.450	-8191	255	
25099.568	1	1	0	0	0.1085	0.083795	0.17232	0.18705	0.18881	0.076969	0.19433	0.064032	0.17824	0.23671	0.12106	0.12684	0.15147	0.19778	0.15738	0.21738	-2.2833	-3.1813	-3.3792	-2.8729	-3.475	-3.0146	-3.1771	-3.5479	-2.8771	-3.2729	-3.3917	-2.8167	-3.5375	-3.1604	-3.0229	-3.5792	229.003	351.819	333.672	365.185	89.975	280.193	301.525	324.049	316.695	253.032	413.175	319.475	374.251	89.701	345.880	385.756	0.00068004	0.00029549	0.00015598	1399.3	7.2325e-06	7.8667e-06	1410.7	381.86	6.6485e-06	4.7419e-06	435.19	146	127.23	43.318	7.0314e-06	53.65	0.00042407	0.0003514	9.9019e-05	1431.7	3.8903e-06	3.7138e-06	1430	389.96	4.0916e-06	3.9073e-06	442.94	148.8	130.17	44.626	3.9947e-06	55.026	260.062	150.390	132.862	71.828	208.852	197.582	71.559	76.416	266.018	197.665	75.413	80.852	81.059	85.046	209.135	84.199	-8191	255	
25099.688	1	1	0	0	0.13724	0.028572	0.20816	0.079888	0.27584	0.12037	0.30529	0.40926	0.1726	0.091362	0.26194	0.087514	0.24815	0.39115	0.11211	0.25661	-2.6271	-3.0854	-3.425	-2.8854	-3.4125	-3.1875	-3.0583	-3.6542	-3.0396	-3.1854	-3.5729	-2.8271	-3.4625	-3.3667	-2.5896	-3.6458	207.051	326.871	367.347	78.719	114.911	401.935	59.281	349.708	312.731	155.842	362.542	277.895	401.692	366.114	366.113	411.325	0.00065208	0.00056928	0.00012313	1414	7.4065e-06	5.4524e-06	1410.4	381.48	6.8403e-06	6.0756e-06	434.5	146.06	127.5	43.273	4.4997e-06	53.903	0.00041439	0.00035577	0.00010003	1433.1	3.9339e-06	3.7509e-06	1428.3	389.34	3.9457e-06	3.9539e-06	442.01	148.49	130.28	44.572	3.9483e-06	55.06	264.763	162.412	161.453	71.321	225.301	205.876	71.438	76.309	253.685	180.898	75.744	80.844	80.921	84.835	218.989	84.077	-8191	255	
25099.785	1	1	0	0	0.047342	0.032235	0.17383	0.22083	0.12705	0.090288	0.19705	0.16831	0.1228	0.019333	0.23484	0.15571	0.17224	0.17419	0.16438	0.16856	-2.4208	-3.0396	-3.5104	-2.7708	-3.3292	-3.3958	-2.9562	-3.6188	-2.8833	-2.8187	-3.3854	-2.9938	-3.3542	-3.3979	-2.8417	-3.4813	92.539	414.691	401.597	388.525	117.826	178.777	349.211	366.055	331.843	104.138	407.379	381.171	58.097	349.399	307.754	322.811	0.0006794	0.00048293	0.00010505	1436.3	7.4096e-06	5.1522e-06	1431.2	390.15	5.4183e-06	7.3744e-06	444.14	148.53	129.84	44.273	9.0371e-06	54.074	0.00042218	0.00036958	9.8954e-05	1439.3	3.9911e-06	3.8936e-06	1433.4	391.24	4.0183e-06	3.8522e-06	445.02	149.25	130.66	44.793	3.9512e-06	54.959	257.304	132.692	171.420	71.155	234.208	222.237	71.181	76.005	267.337	216.898	75.316	80.480	80.500	84.693	223.341	83.823	-8191	255	
25099.881	1	1	0	0	0.15975	0.28402	0.16813	0.30404	0.072721	0.085771	0.12066	0.2638	0.086102	0.23101	0.23015	0.2026	0.175	0.15877	0.14841	0.14666	-2.6937	-3.0792	-3.4437	-2.9708	-3.2208	-3.3312	-3.1458	-3.7333	-3.1833	-2.9729	-3.5375	-2.9917	-3.2896	-3.2917	-2.7083	-3.6729	81.718	102.007	79.193	363.618	135.179	406.422	381.547	390.207	412.996	379.656	65.423	78.402	386.696	416.330	100.952	392.373	0.00062652	0.00056462	0.00012853	1430.3	7.0859e-06	7.4901e-06	1432.1	387.84	7.4721e-06	3.5948e-06	434.42	146.43	128.01	43.537	6.9697e-06	54.109	0.00042404	0.00036006	9.817e-05	1435.4	3.9522e-06	3.9153e-06	1433.6	391.04	3.9772e-06	3.9341e-06	442.78	148.79	130.28	44.678	4.0173e-06	55.072	261.308	140.876	132.165	71.117	224.616	233.124	71.080	76.019	250.513	192.477	75.735	80.488	81.170	84.757	226.254	84.194	-8191	255	
25099.977	1	1	0	0	0.07225	0.059127	0.21944	0.27822	0.25379	0.23364	0.23439	0.22787	0.11522	0.060027	0.27159	0.1104	0.25662	0.21418	0.072502	0.31621	-2.7542	-2.8438	-3.6021	-3.0625	-3.1521	-3.45	-2.9354	-3.3729	-3.3104	-2.8208	-3.6417	-3.0625	-3.0729	-3.4688	-2.7479	-3.2646	107.783	131.884	266.975	69.722	269.701	251.302	334.432	331.822	153.149	413.530	336.270	407.230	399.037	73.869	405.597	379.121	0.00063731	0.00058342	0.0001282	1407.2	7.114e-06	4.0131e-06	1412.5	383.79	5.0948e-06	4.6779e-06	436.29	147.72	128.69	43.477	7.3042e-06	53.282	0.00041051	0.00034684	9.4306e-05	1433.8	4.0161e-06	3.7247e-06	1429.2	390.68	3.8461e-06	3.8326e-06	442.83	149.16	130.64	44.727	3.9769e-06	54.859	262.941	144.857	144.601	71.674	212.235	221.199	71.176	76.161	258.002	186.311	75.487	80.408	80.900	85.169	241.694	84.459	-8191	255	
25100.098	1	1	0	0	0.16587	0.18019	0.15675	0.4032	0.057964	0.11835	0.14766	0.27576	0.054528	0.10895	0.022056	0.28796	0.23954	0.13789	0.13753	0.20761	-2.8125	-2.8083	-3.5583	-3.1354	-2.8875	-3.5292	-3.0104	-3.4271	-3.2771	-2.8563	-3.6854	-3.1229	-2.9083	-3.6208	-2.7687	-3.3187	129.959	126.836	233.929	410.691	342.527	370.345	367.103	388.630	64.913	368.395	169.293	413.335	111.128	416.543	332.918	380.568	0.0006006	0.00072925	0.00014722	1399	7.162e-06	6.3906e-06	1417.6	383.38	5.5095e-06	4.0382e-06	434.14	144.36	126.11	42.762	9.4524e-06	52.767	0.00040106	0.00035769	9.7197e-05	1428.7	3.7899e-06	3.7399e-06	1427.1	390.31	3.8992e-06	3.9103e-06	442.45	148.27	129.67	44.529	3.8924e-06	54.774	260.604	149.659	164.016	71.489	215.028	205.265	71.334	76.297	249.969	198.176	75.532	80.835	81.202	85.794	223.239	84.509	-8191	255	
25100.191	1	1	0	0	0.10626	0.25506	0.019377	0.24951	0.067199	0.16826	0.37485	0.27006	0.094316	0.11269	0.10629	0.19534	0.21466	0.20922	0.091845	0.076123	-3.0292	-2.8167	-3.4396	-3.3187	-2.8563	-3.5458	-3.0958	-3.2938	-3.4521	-2.6688	-3.4521	-3.1833	-2.7875	-3.7083	-2.8708	-3.2687	252.022	299.582	383.079	398.076	91.461	123.583	391.188	365.858	245.652	319.427	61.213	66.994	382.086	401.624	130.805	87.249	0.0006604	0.00060814	0.00015685	1383.1	7.4342e-06	4.6934e-06	1387.8	375.87	5.803e-06	3.8499e-06	427.67	145.21	127.92	43.468	6.451e-06	53.13	0.00041894	0.00035134	9.939e-05	1423.2	3.9751e-06	3.8226e-06	1420	388.39	3.9284e-06	3.8356e-06	441	148.35	130.35	44.555	3.9862e-06	54.887	260.425	141.493	148.400	71.838	219.159	236.369	71.818	76.680	253.369	198.140	76.348	80.481	80.722	85.006	229.743	84.251	-8191	255	
25100.266	1	1	0	0	0.24482	0.099198	0.11073	0.060649	0.02847	0.056367	0.24839	0.23499	0.063322	0.11507	0.46024	0.19693	0.29893	0.17554	0.2986	0.12884	-2.8729	-2.7896	-3.4437	-3.4042	-2.7542	-3.6542	-3.0771	-3.0958	-3.5958	-2.8187	-3.3958	-3.3438	-2.9021	-3.6958	-3.0479	-3.1167	90.619	92.058	191.853	394.969	218.552	67.884	379.841	367.778	212.238	68.117	371.318	333.726	375.733	348.941	255.800	355.571	0.00060023	0.00047073	0.00012641	1403.9	7.2041e-06	6.4496e-06	1403.9	382.26	5.6097e-06	6.0987e-06	435.87	146.65	127.94	43.581	7.9231e-06	53.55	0.00040352	0.00036385	9.666e-05	1429.8	3.9444e-06	3.8869e-06	1425.3	389.8	3.9465e-06	3.9702e-06	442.22	148.62	130.2	44.569	3.9225e-06	54.939	259.828	149.344	145.358	71.661	244.459	230.572	71.511	76.480	271.873	210.133	75.607	80.521	80.835	84.477	222.717	84.148	-8191	255	
25100.385	1	1	0	0	0.13221	0.083449	0.16065	0.26475	0.13425	0.17524	0.11873	0.32744	0.11338	0.19798	0.31969	0.05505	0.26511	0.13027	0.11011	0.21473	-3.1354	-2.8958	-3.3063	-3.5708	-2.8104	-3.4062	-3.5354	-3.0229	-3.5438	-2.7229	-3.2917	-3.5042	-2.8375	-3.5625	-3.1792	-3.025	64.171	389.284	188.812	404.579	230.274	150.965	308.422	357.017	224.154	78.899	327.855	102.627	377.652	415.800	144.236	285.087	0.00060187	0.00077101	0.00015667	1403	5.5906e-06	3.3039e-06	1406.7	382.27	4.6204e-06	4.8668e-06	433.98	144.55	126.61	42.942	9.0003e-06	52.837	0.00041309	0.00035461	9.7836e-05	1429.5	3.9763e-06	3.8125e-06	1423.9	389.01	3.8427e-06	4.0092e-06	441.77	147.94	129.74	44.382	3.9887e-06	54.746	258.266	164.089	145.759	71.460	235.189	213.881	71.240	76.439	267.681	195.293	75.738	80.634	81.258	85.439	243.217	84.525	-8191	255	
25100.480	1	1	0	0	0.15235	0.38073	0.25349	0.14507	0.10136	0.16953	0.18409	0.46367	0.08278	0.15278	0.23722	0.24447	0.29666	0.1566	0.084041	0.30011	-3.2104	-2.8104	-3.1312	-3.5583	-2.7771	-3.5604	-3.3458	-2.9875	-3.6854	-2.9958	-3.2104	-3.4813	-2.9417	-3.2687	-3.2708	-2.8563	412.490	139.249	293.199	332.649	68.622	357.423	364.138	77.547	264.743	381.169	388.257	393.349	364.039	325.289	250.812	314.388	0.00067669	0.00051914	0.00011745	1402	7.1838e-06	2.0093e-06	1407.4	381.63	3.6255e-06	4.355e-06	429.51	145.3	123.89	42.329	6.0639e-06	52.491	0.00041119	0.00035678	0.00010021	1429.1	4.1189e-06	3.9006e-06	1424.8	389.47	3.7877e-06	3.8943e-06	441.59	148.48	129.15	44.354	3.944e-06	54.608	263.352	154.582	155.905	71.599	228.060	175.980	71.612	76.400	261.812	206.785	75.687	80.840	81.620	85.887	214.430	84.812	-8191	255	
25100.576	1	1	0	0	0.29842	0.27681	0.21557	0.17574	0.23416	0.30155	0.37165	0.32273	0.10091	0.069257	0.29613	0.10053	0.062836	0.14538	0.16831	0.34945	-3.0875	-2.8083	-2.9062	-3.5667	-2.7812	-3.4229	-3.4021	-3.0667	-3.4562	-2.9854	-3.1083	-3.5438	-3.0833	-3.3479	-3.2938	-3.0187	346.767	290.172	349.360	336.320	401.264	184.554	332.531	316.814	212.236	97.602	303.070	147.803	125.273	69.006	201.329	283.627	0.0006587	0.00072259	0.00010834	1393.1	7.5465e-06	3.9316e-06	1390.1	377.23	6.4416e-06	4.1037e-06	432.31	144.24	127.51	43.281	6.379e-06	53.331	0.0004076	0.00036113	9.9013e-05	1424.9	4.0025e-06	4.0268e-06	1422.4	387.95	4.0973e-06	3.8396e-06	441.25	147.72	129.99	44.534	4.0083e-06	54.78	260.358	135.257	156.629	71.776	211.387	248.962	71.582	76.659	237.170	211.075	75.771	80.910	80.756	85.282	221.886	84.099	-8191	255	
25100.697	1	1	0	0	0.058583	0.074347	0.040486	0.26992	0.3252	0.059858	0.18447	0.027313	0.089607	0.52543	0.2598	0.17461	0.21693	0.22972	0.10178	0.20542	-3.1437	-3.0521	-2.6958	-3.6625	-2.7667	-3.2292	-3.6292	-2.7479	-3.3396	-3.1458	-2.9792	-3.5187	-3.0458	-3.2	-3.2979	-2.75	105.396	238.861	170.944	60.169	367.150	339.176	317.223	288.186	92.865	321.250	59.967	396.840	410.948	382.866	219.237	152.222	0.00066543	0.00038304	0.00014758	1398.9	6.8209e-06	3.1593e-06	1402.6	382.03	6.1261e-06	5.1377e-06	431.18	145.38	126.49	42.76	6.2008e-06	53.326	0.00041925	0.00034136	0.00010167	1428.4	3.997e-06	3.7614e-06	1424	389.11	3.8405e-06	3.7063e-06	441.01	148.23	129.6	44.358	3.7537e-06	54.777	261.284	157.364	172.701	71.721	241.016	217.588	71.449	76.204	261.110	219.872	75.859	80.868	80.997	85.336	216.352	84.155	-8191	255	
25100.793	1	1	0	0	0.11691	0.035517	0.12859	0.13165	0.1771	0.14282	0.16343	0.09229	0.14133	0.23561	0.16449	0.16691	0.16859	0.10172	0.079108	0.22649	-2.9313	-3.2083	-2.7729	-3.6792	-2.8354	-2.9792	-3.5708	-2.9813	-3.3563	-3.2521	-2.9146	-3.5667	-2.9938	-3.2604	-3.4313	-2.975	322.021	302.233	64.305	417.055	362.870	288.364	363.932	328.531	159.647	210.836	412.979	364.926	147.935	68.474	208.764	251.585	0.0006875	0.00049712	0.00015199	1396	3.8396e-06	6.1313e-06	1389.5	376.54	4.8367e-06	6.0316e-06	426.67	144.56	125.28	42.566	6.7987e-06	52.311	0.00041244	0.00034709	9.7847e-05	1423.6	3.8641e-06	3.8629e-06	1415.7	386.95	3.8877e-06	3.7726e-06	438.95	147.45	129.18	44.258	3.8294e-06	54.436	261.905	167.413	170.436	71.705	199.916	216.146	71.689	76.593	252.514	226.464	76.125	80.798	81.267	85.440	221.397	84.415	-8191	255	
25100.865	1	1	0	0	0.23097	0.15759	0.043117	0.30089	0.15684	0.18219	0.37807	0.17489	0.18211	0.32753	0.13609	0.19432	0.065265	0.16575	0.27395	0.21818	-2.9354	-3.175	-2.7771	-3.7812	-2.8875	-3.0208	-3.825	-2.825	-3.4292	-3.2313	-2.9417	-3.6625	-3.225	-2.9708	-3.5458	-2.8187	209.546	389.842	163.095	376.457	265.448	226.782	405.578	307.592	211.677	241.224	382.656	86.343	302.833	71.129	67.869	387.342	0.00061982	0.00074801	8.9205e-05	1388.8	4.7152e-06	3.2265e-06	1394.5	380.01	6.4255e-06	3.3062e-06	435.12	146.47	127.44	43.3	5.2965e-06	53.267	0.00040645	0.00033556	9.7202e-05	1421.7	3.9002e-06	3.8718e-06	1420	387.12	3.9485e-06	3.7709e-06	441.12	148.26	129.51	44.336	3.8199e-06	54.562	262.023	154.763	145.987	72.051	241.125	227.017	71.654	76.323	259.467	208.929	75.443	80.630	80.863	85.115	227.861	84.108	-8191	255	
25100.961	1	1	0	0	0.17925	0.18433	0.055881	0.26679	0.1619	0.065856	0.22887	0.32431	0.16046	0.116	0.1957	0.15214	0.27617	0.24801	0.10399	0.071654	-2.7333	-3.3896	-2.6896	-3.5312	-3.0271	-2.7687	-3.8875	-3.0979	-3.0271	-3.4583	-2.8521	-3.5292	-3.3354	-2.9542	-3.4375	-3.0146	385.462	189.820	82.993	393.355	164.216	397.044	339.638	370.718	171.036	331.951	350.825	222.208	393.090	335.068	296.071	343.873	0.00061207	0.00048329	9.7632e-05	1403.1	6.2966e-06	5.9583e-06	1405.8	381.04	5.2191e-06	3.2686e-06	431.07	143.88	126.11	43.09	6.3571e-06	53.031	0.00041478	0.00034657	0.00010146	1423.6	3.9065e-06	3.7951e-06	1420.1	387.97	3.9413e-06	3.8367e-06	439.63	147.66	129.26	44.257	3.9174e-06	54.513	261.473	123.532	170.752	71.650	195.336	217.046	71.308	76.101	261.393	191.814	75.809	80.827	81.157	85.240	211.519	84.112	-8191	255	
25101.057	1	1	0	0	0.09654	0.05445	0.11558	0.14058	0.1219	0.28272	0.24881	0.36404	0.12815	0.17514	0.30545	0.18851	0.39909	0.24807	0.17234	0.063311	-2.8604	-3.4458	-2.6437	-3.4021	-3.2188	-2.8042	-3.7646	-2.9458	-3.1396	-3.3667	-2.7667	-3.4333	-3.5083	-2.9979	-3.5208	-3.0667	277.480	350.431	265.216	329.814	384.584	132.206	349.989	410.612	244.943	383.454	80.581	414.411	399.304	64.065	93.148	310.719	0.00065289	0.00085012	0.0001394	1395.5	7.734e-06	5.3183e-06	1404	381.54	6.7584e-06	4.5611e-06	432.74	144.54	126.94	43.038	6.8973e-06	53.441	0.00042366	0.00034703	0.00010209	1422.8	3.9406e-06	3.8867e-06	1421.7	388.02	3.878e-06	3.6848e-06	440.11	147.86	129.55	44.387	3.8502e-06	54.611	260.669	142.987	153.653	71.671	227.856	213.582	71.435	76.363	241.475	202.740	75.708	80.918	81.095	85.124	232.322	84.048	-8191	255	
25101.178	1	1	0	0	0.073238	0.27139	0.19943	0.2981	0.16172	0.057246	0.081822	0.38743	0.18612	0.10485	0.20885	0.060033	0.2123	0.11566	0.20759	0.22029	-2.6833	-3.4729	-2.8104	-3.55	-3.4229	-2.8187	-3.6708	-3.2417	-3.075	-3.6479	-3.0271	-3.4896	-3.4417	-2.9083	-3.4979	-3.4188	72.593	106.606	236.303	291.106	105.058	82.384	375.563	364.845	393.645	349.776	386.368	144.624	65.045	359.837	278.322	266.324	0.00062004	0.00069996	0.00015124	1410.9	8.9888e-06	5.0806e-06	1415.1	382.21	6.2035e-06	4.3602e-06	434.95	146.19	127.11	43.199	6.9353e-06	53.554	0.00041682	0.00034972	9.9862e-05	1431.1	3.8593e-06	3.9206e-06	1425.6	388.51	4.0429e-06	3.504e-06	440.78	148.24	129.58	44.462	3.7222e-06	54.773	258.407	145.950	155.901	71.377	236.539	237.249	71.476	76.215	244.295	205.689	75.443	80.687	80.751	84.883	224.860	84.048	-8191	255	
25101.273	1	1	0	0	0.22701	0.13441	0.11988	0.25428	0.20004	0.31594	0.12402	0.32745	0.20236	0.18522	0.044266	0.13734	0.22477	0.25818	0.10394	0.19517	-2.4583	-3.5312	-3.0104	-3.3167	-3.3271	-2.7271	-3.5083	-3.2292	-2.7875	-3.4771	-3.0396	-3.1708	-3.4458	-3.0521	-3.3812	-3.2687	58.114	196.931	409.405	98.451	201.538	192.500	361.126	330.741	310.615	394.527	92.741	376.577	367.940	362.017	396.541	403.450	0.00067542	0.00071916	0.00010966	1393.5	6.7728e-06	5.9009e-06	1402.6	383.04	6.172e-06	7.6074e-06	435.61	145.75	127.21	43.326	8.5853e-06	53.526	0.00041124	0.00033487	9.516e-05	1424.4	3.7112e-06	3.8217e-06	1422.7	388.56	3.9421e-06	3.5727e-06	440.98	148.26	129.71	44.39	3.7513e-06	54.778	256.341	148.407	170.999	71.688	229.974	218.011	71.494	75.995	251.488	203.217	75.543	80.799	81.052	84.842	217.210	83.866	-8191	255	
25101.369	1	1	0	0	0.14022	0.2201	0.25692	0.12139	0.069023	0.085176	0.17111	0.29105	0.24105	0.086953	0.42552	0.37564	0.21474	0.37334	0.12168	0.040002	-2.4771	-3.6063	-2.9062	-3.2313	-3.4375	-2.8354	-3.6562	-3.5062	-2.925	-3.5812	-3.0062	-2.9271	-3.5438	-2.8375	-3.3	-3.3688	107.905	251.642	358.551	396.263	189.967	389.056	310.385	362.044	123.107	259.582	381.794	358.912	113.203	408.626	239.431	315.924	0.00065602	0.00048201	0.00017828	1401.4	8.443e-06	3.9431e-06	1410.7	379.8	6.7084e-06	5.3868e-06	433.65	146.57	127.04	42.955	7.8187e-06	52.916	0.00040006	0.00032698	9.1726e-05	1422.4	3.7408e-06	3.6486e-06	1419.7	387.88	3.8133e-06	3.5989e-06	439.95	148.42	129.76	44.316	3.7812e-06	54.628	260.767	157.042	153.588	71.554	222.581	235.324	71.466	76.192	238.807	210.637	75.677	80.665	80.920	85.222	223.965	84.125	-8191	255	
25101.465	1	1	0	0	0.12555	0.18074	0.10604	0.16891	0.11964	0.23389	0.12811	0.27548	0.083129	0.13099	0.083277	0.14745	0.24643	0.24421	0.18611	0.15267	-2.3312	-3.4646	-3.1917	-3.1167	-3.4875	-2.8208	-3.0833	-3.4208	-2.8438	-3.2292	-3.1708	-2.9854	-3.5958	-2.8083	-3.1	-3.4271	344.218	296.398	307.921	383.135	297.433	173.804	384.798	379.310	316.007	177.637	405.868	305.051	371.307	91.126	188.501	380.735	0.00060963	0.00053013	0.00017697	1399.3	6.6648e-06	4.2169e-06	1404	380.8	5.7689e-06	7.1986e-06	429.76	144.88	126.29	43.071	6.6379e-06	53.027	0.00040692	0.0003326	8.9577e-05	1421	3.7568e-06	3.6096e-06	1419.9	387.97	3.7661e-06	3.4585e-06	439.78	147.95	129.58	44.411	3.6146e-06	54.671	258.231	131.243	151.395	71.761	229.802	210.784	71.356	76.119	261.932	214.192	75.766	80.829	81.195	85.048	214.513	84.474	-8191	255	
25101.561	1	1	0	0	0.33086	0.105	0.066326	0.23987	0.14913	0.10427	0.16874	0.09567	0.032122	0.042757	0.37768	0.11307	0.036158	0.24727	0.28679	0.21051	-2.3375	-3.2042	-3.0896	-2.9667	-3.3354	-2.7396	-3.175	-3.5375	-2.8063	-3.3146	-3.3229	-3.0563	-3.5771	-2.8958	-3.0146	-3.5896	332.323	184.453	198.192	374.648	389.093	384.689	343.300	90.694	411.311	161.247	342.222	379.460	415.603	94.328	378.328	307.219	0.00066125	0.00056783	8.4688e-05	1388.1	8.9485e-06	5.5715e-06	1394.4	375.94	5.7503e-06	4.436e-06	428.8	145.02	125.88	42.697	7.3535e-06	53.245	0.00039902	0.00033385	8.8819e-05	1420.1	3.6219e-06	3.5942e-06	1417.4	386.32	3.7758e-06	3.5846e-06	438.68	147.87	129.16	44.257	3.7669e-06	54.608	257.999	138.897	135.598	71.677	218.957	257.648	71.683	76.509	248.007	200.587	75.661	80.761	81.402	85.377	235.413	84.371	-8191	255	
25101.658	1	1	0	0	0.10605	0.18798	0.17784	0.46407	0.049877	0.10965	0.26523	0.202	0.12195	0.042275	0.14049	0.41713	0.28069	0.21444	0.32185	0.16939	-2.4542	-3.2479	-3.2271	-3.0979	-3.5021	-2.8917	-3.2146	-3.65	-2.9354	-3.1917	-3.2646	-2.8854	-3.5354	-3.1188	-2.7604	-3.7417	72.177	325.938	95.352	375.471	61.551	163.334	403.025	345.370	179.387	72.615	397.140	383.058	373.170	356.167	235.928	360.925	0.00066476	0.00051356	7.35e-05	1385.7	7.5688e-06	3.6903e-06	1392.9	376.53	5.7522e-06	3.7298e-06	427.44	144.37	125.11	42.577	5.8984e-06	52.927	0.00040764	0.00033018	8.7277e-05	1417.2	3.6219e-06	3.5431e-06	1415.1	386.39	3.8075e-06	3.6127e-06	438.48	147.67	129.16	44.176	3.6344e-06	54.715	263.378	140.894	143.015	71.966	211.381	216.312	71.722	76.421	263.911	198.421	75.975	80.792	81.326	85.164	232.593	84.448	-8191	255	
25101.777	1	1	0	0	0.17702	0.088753	0.067083	0.31113	0.10194	0.2533	0.082469	0.1654	0.30202	0.41269	0.11543	0.10638	0.25581	0.23006	0.091403	0.23782	-2.4896	-3.0708	-3.2667	-2.95	-3.3937	-3.0563	-2.9688	-3.6	-2.7979	-2.9479	-3.5646	-2.7875	-3.4083	-3.2229	-2.8812	-3.6396	157.787	136.872	311.475	334.934	186.129	77.137	402.294	81.672	350.336	336.493	367.054	347.284	406.178	406.309	172.323	415.010	0.00064407	0.0006195	0.00018666	1372	6.6259e-06	5.5176e-06	1387.6	375.05	6.6262e-06	4.601e-06	426.97	143.06	125.21	42.118	7.2505e-06	52.252	0.00040094	0.00033306	8.8131e-05	1415	3.6406e-06	3.536e-06	1415.3	385.96	3.6738e-06	3.6163e-06	437.87	147.31	129.1	44.088	3.7173e-06	54.369	262.368	156.770	143.682	72.010	226.917	196.100	71.755	76.577	243.620	203.090	76.028	81.183	81.271	85.516	205.620	84.808	-8191	255	
25101.873	1	1	0	0	0.12955	0.096815	0.10216	0.16317	0.10308	0.16613	0.28393	0.23017	0.038688	0.083866	0.088337	0.092347	0.12746	0.25935	0.1524	0.27279	-2.4688	-3.1021	-3.3688	-2.9979	-3.4562	-3.275	-2.8833	-3.5792	-2.9521	-3.0812	-3.6479	-2.9396	-3.3	-3.4771	-2.8271	-3.4792	230.333	384.857	377.312	351.935	279.700	203.937	371.452	401.961	263.974	210.571	401.466	70.101	303.876	391.156	400.624	352.433	0.0006292	0.0004005	0.00019873	1373.9	5.3959e-06	4.0846e-06	1374.4	372.01	6.6497e-06	4.7333e-06	424.12	142.58	124.25	42.062	6.671e-06	52.238	0.00040136	0.00033959	9.1544e-05	1412.1	3.6635e-06	3.5292e-06	1411	384.78	3.9109e-06	3.4791e-06	437.64	147.11	128.65	43.974	3.7387e-06	54.421	260.739	130.953	159.414	72.000	215.706	200.912	72.039	76.894	253.818	178.892	76.446	81.235	81.498	85.433	230.618	85.336	-8191	255	
25101.971	1	1	0	0	0.055776	0.25116	0.24859	0.23277	0.13556	0.17792	0.29495	0.31079	0.21476	0.23706	0.073263	0.16301	0.1885	0.18735	0.071995	0.15983	-2.6562	-2.9625	-3.5417	-2.7646	-3.4167	-3.2958	-2.9375	-3.4771	-2.8812	-3.0333	-3.6021	-2.8729	-3.3104	-3.425	-2.7583	-3.6813	146.014	156.929	297.883	346.642	59.209	340.773	362.499	397.509	290.490	314.509	375.285	320.924	392.102	268.335	93.594	106.672	0.00061498	0.00052	0.00014039	1363.6	7.5443e-06	7.0176e-06	1364.8	371.87	8.7408e-06	4.5173e-06	423.6	142.07	124.25	42.297	7.825e-06	52.331	0.00040299	0.00033137	9.0125e-05	1411.4	3.655e-06	3.5945e-06	1409.1	385.15	3.7738e-06	3.7137e-06	437.31	146.98	128.76	44.122	3.7601e-06	54.471	261.766	146.337	130.145	71.980	233.267	225.998	72.391	76.889	249.077	171.399	76.235	81.522	81.708	85.690	206.439	84.834	-8191	255	
25102.090	1	1	0	0	0.095653	0.088859	0.15223	0.2683	0.062457	0.010582	0.41683	0.32396	0.22063	0.33726	0.16806	0.13701	0.20672	0.21298	0.1295	0.26721	-2.9083	-2.8021	-3.375	-3.0125	-3.3271	-3.5146	-2.9	-3.65	-3.2417	-2.9437	-3.7604	-2.825	-3.1792	-3.4813	-2.8688	-3.3479	343.746	71.938	397.129	327.140	121.141	61.438	337.894	379.865	350.827	289.996	369.423	124.802	390.460	404.795	132.258	271.325	0.00062815	0.00066953	0.00014728	1377.5	5.1416e-06	4.1215e-06	1380	375.36	3.0825e-06	4.9107e-06	427.34	142.18	124.57	42.241	5.6763e-06	52.409	0.00039926	0.00034453	8.9346e-05	1415.7	3.7292e-06	3.5721e-06	1410.6	385.98	3.6855e-06	3.6869e-06	438.55	146.79	128.9	44.057	3.7793e-06	54.396	262.908	152.925	162.722	72.103	206.668	242.551	72.061	76.737	251.975	212.219	76.136	81.350	81.128	85.290	226.265	84.788	-8191	255	
25102.162	1	1	0	0	0.056022	0.15883	0.23061	0.14673	0.25547	0.21548	0.43433	0.094274	0.076305	0.32221	0.36718	0.17009	0.2971	0.0999	0.31686	0.19829	-3.0229	-2.8542	-3.3854	-3.1562	-2.9688	-3.5333	-2.9125	-3.4396	-3.3458	-2.8333	-3.6688	-3.1521	-3.0187	-3.6271	-2.9271	-3.4729	302.350	290.793	360.107	316.826	327.954	180.829	354.168	135.142	411.601	407.441	375.287	298.783	376.495	67.893	323.693	308.289	0.00066201	0.00072409	0.00013922	1369.7	5.2544e-06	6.1151e-06	1380.3	374.65	7.1611e-06	4.9987e-06	423.78	142.39	124.06	42.051	6.2835e-06	52.269	0.00040126	0.00033833	9.1968e-05	1413.9	3.7396e-06	3.4702e-06	1413.2	385.87	3.7561e-06	3.6895e-06	438.46	146.93	128.66	44.016	3.6837e-06	54.349	260.862	124.928	149.465	72.137	224.797	214.451	71.933	76.849	241.341	221.066	76.358	81.175	81.659	85.939	222.119	84.430	-8191	255	
25102.258	1	1	0	0	0.038929	0.18488	0.071607	0.23813	0.22532	0.095859	0.23673	0.34963	0.065811	0.089313	0.193	0.033894	0.17885	0.074614	0.21707	0.15271	-2.8958	-2.7167	-3.4958	-3.225	-2.8438	-3.4771	-3.0229	-3.4354	-3.3312	-2.9437	-3.6937	-3.2292	-3.1146	-3.4771	-2.95	-3.2875	155.120	163.205	133.188	70.478	110.830	108.702	394.638	384.792	223.281	395.706	392.199	198.831	386.956	343.418	182.276	163.046	0.00064942	0.00055904	0.00011845	1366.8	6.9335e-06	4.4383e-06	1378.1	374	7.4468e-06	6.8022e-06	422.86	141.98	124.59	42.173	7.3904e-06	52.16	0.00040636	0.00033991	9.1786e-05	1411.6	3.8497e-06	3.6729e-06	1410.6	385.94	3.8724e-06	3.8188e-06	437.53	146.8	128.62	44.055	3.872e-06	54.317	258.350	136.534	137.462	72.160	222.142	208.721	72.042	76.717	262.470	209.581	76.359	81.299	81.487	85.719	218.756	84.466	-8191	255	
25102.354	1	1	0	0	0.14656	0.2873	0.31345	0.21887	0.10521	0.28278	0.15289	0.15119	0.16636	0.096346	0.31291	0.21036	0.10974	0.13457	0.20592	0.037986	-3.0646	-2.7	-3.4458	-3.3896	-2.8125	-3.6208	-3.0854	-3.1813	-3.4646	-2.8583	-3.5042	-3.2958	-2.9354	-3.6688	-2.9083	-2.9833	147.026	352.539	117.716	392.544	399.252	245.085	325.749	355.385	229.411	145.675	328.387	345.749	323.286	109.141	292.211	105.899	0.00062976	0.00044586	7.8151e-05	1369.6	6.2323e-06	4.62e-06	1374.6	371.9	3.5745e-06	5.5631e-06	420.6	141.66	123.51	42.014	4.7902e-06	52.072	0.00040607	0.00035436	9.6477e-05	1413.2	3.8872e-06	3.6727e-06	1411	384.76	3.9189e-06	3.8815e-06	437.01	146.92	128.24	43.91	3.8349e-06	54.289	259.401	153.255	151.707	71.916	209.439	238.670	72.057	76.917	262.025	188.419	76.529	81.498	81.810	85.888	218.638	84.832	-8191	255	
25102.473	1	1	0	0	0.13324	0.43547	0.019654	0.21695	0.18912	0.18591	0.079518	0.34373	0.082418	0.13081	0.37278	0.43325	0.17635	0.15801	0.024706	0.26701	-3.0542	-2.7771	-3.3229	-3.3771	-2.8	-3.6958	-3.1167	-3.0979	-3.4417	-2.7021	-3.2604	-3.4583	-2.7938	-3.3167	-3.0563	-2.9437	248.687	306.337	241.106	348.997	226.691	369.958	181.329	348.342	161.393	368.459	347.246	66.644	290.608	236.298	237.751	354.889	0.00065093	0.0004954	0.00016529	1367.1	5.9978e-06	5.471e-06	1365.4	371.57	6.0333e-06	6.3731e-06	421.29	142.41	124.07	42.095	4.9119e-06	52.755	0.00041265	0.00035538	9.9572e-05	1414.6	3.9666e-06	3.8467e-06	1409.2	384.99	3.8691e-06	3.9166e-06	437.4	146.87	128.53	43.994	3.7162e-06	54.443	257.501	167.157	158.402	72.103	218.443	225.109	72.026	77.064	242.490	194.857	76.517	81.328	81.473	85.904	210.044	84.474	-8191	255	
25102.568	1	1	0	0	0.038509	0.1416	0.25422	0.16829	0.037216	0.094354	0.17598	0.29968	0.18704	0.15385	0.26812	0.21924	0.29143	0.2116	0.15794	0.18828	-3.1583	-2.7771	-3.1188	-3.5333	-2.8958	-3.4938	-3.3729	-2.9146	-3.4458	-2.8312	-3.2458	-3.3542	-2.775	-3.6083	-3.1271	-2.9208	262.505	267.894	375.622	391.289	274.986	92.715	342.986	330.757	160.783	389.680	353.739	400.210	353.482	99.081	229.944	280.467	0.00062907	0.00060236	0.00015094	1380.2	5.6287e-06	6.2256e-06	1382.8	374.29	5.0946e-06	4.4605e-06	424.27	142.37	124.77	42.406	7.8109e-06	52.528	0.00041315	0.00035946	9.6676e-05	1415.2	4.1209e-06	3.817e-06	1413.9	385.15	3.9334e-06	3.8424e-06	436.69	146.97	128.75	44.032	3.8321e-06	54.325	259.002	152.375	160.304	71.755	227.906	227.213	71.745	76.579	237.339	202.889	76.153	80.963	81.315	85.359	193.197	84.582	-8191	255	
25102.666	1	1	0	0	0.13291	0.19456	0.15794	0.18344	0.11948	0.38925	0.12806	0.16609	0.31135	0.35431	0.12987	0.30963	0.19373	0.1708	0.025733	0.20031	-3.1708	-2.8104	-3.1042	-3.5833	-2.7146	-3.1813	-3.4562	-3.0042	-3.3396	-3.0396	-3.1833	-3.5583	-2.8917	-3.575	-3.3833	-2.9271	167.750	370.278	274.929	384.075	72.987	104.613	321.697	344.062	92.730	379.388	350.543	369.759	83.686	415.997	154.248	307.353	0.00063508	0.00071891	0.00010969	1382.9	6.5475e-06	5.7687e-06	1383.2	373.96	6.4436e-06	5.3526e-06	427.15	142.83	125.62	42.602	4.1255e-06	52.764	0.00042429	0.00035763	9.975e-05	1417.4	4.0069e-06	3.8556e-06	1412.8	384.89	3.9405e-06	3.8401e-06	438.58	146.83	128.73	44.097	3.7911e-06	54.389	260.894	148.428	140.256	71.798	212.583	219.040	71.575	76.851	253.623	198.843	76.033	81.051	80.994	85.339	239.857	84.296	-8191	255	
25102.736	1	1	0	0	0.28509	0.11791	0.1448	0.33954	0.18796	0.13223	0.27506	0.479	0.17145	0.12407	0.18212	0.23162	0.06074	0.24272	0.14336	0.06355	-3.1271	-2.8937	-3.0146	-3.5958	-2.8875	-3.3292	-3.7125	-3.0542	-3.6979	-3.2729	-3.1229	-3.6458	-2.7562	-3.3833	-3.375	-2.8271	303.116	314.802	258.042	385.377	393.865	140.093	364.030	61.499	284.415	283.328	377.936	385.775	89.863	404.086	402.934	304.369	0.00061143	0.00036055	0.00014829	1380.4	6.1232e-06	2.912e-06	1377.7	373.32	3.9625e-06	6.9518e-06	423.64	142.6	123.68	42.327	2.9964e-06	52.611	0.00041223	0.00035392	9.832e-05	1418	4.0116e-06	3.8132e-06	1413	385.3	3.9824e-06	3.9509e-06	438.44	147.05	128.49	44.138	3.9598e-06	54.488	263.452	148.770	152.494	71.839	227.811	211.358	71.731	76.929	253.318	213.161	76.324	81.000	81.602	85.878	211.361	84.755	-8191	255	
25102.857	1	1	0	0	0.25227	0.088474	0.16261	0.18885	0.097791	0.10262	0.21455	0.31336	0.12305	0.15782	0.40056	0.21489	0.28404	0.29428	0.19223	0.21271	-3.0354	-3.1333	-2.7396	-3.7062	-2.7604	-3.1125	-3.5812	-2.8292	-3.4667	-3.1917	-3.0062	-3.7958	-3.0583	-3.0667	-3.4667	-2.7625	213.759	226.535	145.317	278.743	166.543	354.758	376.938	350.670	340.560	137.522	375.775	304.811	359.884	335.116	413.741	298.477	0.00063157	0.00057779	0.00010906	1364.5	8.0153e-06	4.5585e-06	1370	371.51	5.6174e-06	3.5672e-06	423.09	141.56	123.98	42.424	4.7525e-06	52.057	0.00041324	0.00035611	9.9347e-05	1414.9	3.9751e-06	3.7731e-06	1412.7	384.87	3.9383e-06	3.7503e-06	438.26	147	128.61	44.131	3.809e-06	54.309	259.533	158.955	155.760	72.217	219.813	226.469	72.190	77.050	248.354	197.440	76.498	81.344	81.492	85.652	220.160	84.926	-8191	255	
25102.953	1	1	0	0	0.076069	0.15303	0.15264	0.15635	0.088525	0.15183	0.29992	0.23306	0.24823	0.13014	0.060911	0.23911	0.23504	0.088368	0.32761	0.32151	-3.1562	-3.1521	-2.8854	-3.5812	-3.0062	-3.1542	-3.8125	-3.0417	-3.3187	-3.3979	-2.8833	-3.6833	-3.1146	-3.0458	-3.3958	-2.9667	143.109	258.708	202.651	369.143	64.427	396.668	395.264	309.543	358.810	101.865	209.455	387.533	271.366	384.231	329.454	404.424	0.00069893	0.00051083	0.00013633	1372.9	4.9645e-06	3.7106e-06	1379.4	372.9	5.2286e-06	6.746e-06	424.05	143.58	125.32	42.609	7.1324e-06	52.794	0.00041607	0.00034667	9.8761e-05	1419.5	3.8939e-06	3.8119e-06	1417.2	385.57	3.9502e-06	3.7626e-06	438.41	147.48	129.09	44.215	3.776e-06	54.437	260.834	156.587	165.249	72.159	246.365	220.051	72.040	76.869	244.362	215.519	76.050	80.942	81.340	85.344	238.545	84.325	-8191	255	
25103.051	1	1	0	0	0.014929	0.13048	0.19284	0.28246	0.20474	0.1152	0.33277	0.27421	0.2751	0.24081	0.17278	0.10905	0.065592	0.050799	0.071455	0.26646	-2.8854	-3.2812	-2.7979	-3.5542	-3.0687	-3.0625	-3.6708	-2.9229	-3.1271	-3.4	-2.9354	-3.5646	-3.1583	-3.0833	-3.4979	-2.9333	135.210	89.815	63.634	344.686	303.197	107.711	297.431	352.817	217.350	122.914	374.579	313.130	61.054	247.320	166.838	389.932	0.00068208	0.00031021	0.00014256	1382.9	6.5682e-06	6.2946e-06	1388	377	4.9855e-06	4.7087e-06	424.69	142.19	125.67	42.747	7.2268e-06	52.416	0.00041386	0.00035038	9.7342e-05	1421.4	3.9477e-06	3.9897e-06	1416.7	386.22	4.0161e-06	3.8411e-06	438.67	147.03	129.07	44.203	3.7972e-06	54.33	266.127	163.977	151.139	72.022	213.682	196.943	71.661	76.269	254.400	228.360	75.987	81.093	80.921	85.179	234.175	84.775	-8191	255	
25103.172	1	1	0	0	0.23496	0.040181	0.094786	0.17586	0.10944	0.2499	0.16399	0.17001	0.2083	0.16355	0.029028	0.25334	0.35035	0.084447	0.043688	0.28811	-2.7375	-3.2604	-2.9958	-3.6021	-3.1208	-2.8542	-3.7542	-3.175	-3.15	-3.6167	-2.9396	-3.3312	-3.4375	-2.8583	-3.5	-2.9792	101.407	304.708	271.975	381.113	307.450	179.135	333.610	355.837	312.759	238.369	225.417	207.280	341.192	62.338	84.940	354.102	0.00062424	0.00034041	0.00013497	1377.8	7.3337e-06	4.2411e-06	1379.5	374.5	6.4936e-06	6.4888e-06	425.6	143.16	124.9	42.296	4.5499e-06	51.838	0.00040807	0.00035001	9.853e-05	1418.6	3.9187e-06	4.0085e-06	1415.5	385.51	3.9911e-06	3.8507e-06	438.73	147.29	128.76	44.164	3.8073e-06	54.318	262.019	136.000	161.934	72.343	209.247	213.626	71.856	77.017	259.449	215.594	75.927	81.090	81.518	85.670	205.562	84.897	-8191	255	
25103.268	1	1	0	0	0.19912	0.15417	0.22453	0.12451	0.16618	0.22806	0.067654	0.31867	0.1211	0.072132	0.15264	0.043733	0.4449	0.16332	0.093308	0.18911	-2.7417	-3.5146	-2.7646	-3.5479	-3.2687	-2.5896	-3.8063	-3.3271	-3.0292	-3.4417	-3.0146	-3.4562	-3.3187	-2.7729	-3.7208	-3.2812	221.852	121.869	314.020	401.231	232.263	105.702	343.660	333.741	97.475	190.644	246.811	266.009	66.376	80.560	130.538	276.031	0.00065439	0.0004805	0.00015025	1374.3	1.02e-05	3.5396e-06	1378	372.84	4.3672e-06	5.2984e-06	422.54	142.27	124.7	42.121	7.9376e-06	51.775	0.0004258	0.00034453	9.7901e-05	1419.6	3.9418e-06	3.7313e-06	1415.4	385.33	3.9915e-06	3.809e-06	437.94	147.38	129.08	44.125	3.9056e-06	54.244	261.234	161.979	141.589	72.242	243.566	213.686	72.153	76.920	254.185	209.765	76.073	81.274	81.595	85.616	243.922	84.801	-8191	255	
25103.361	1	1	0	0	0.018186	0.31813	0.18507	0.20146	0.08619	0.023557	0.185	0.41769	0.046014	0.18645	0.19837	0.28596	0.2163	0.23133	0.16198	0.081606	-2.6417	-3.4437	-3.0292	-3.1333	-3.4646	-2.7313	-3.5229	-3.4417	-2.9167	-3.5542	-3.1271	-3.2062	-3.475	-2.8083	-3.6458	-3.2812	153.813	128.012	363.068	322.574	139.172	59.399	331.089	344.977	332.432	85.606	384.412	265.987	392.886	378.896	84.427	214.447	0.00063881	0.00054255	0.00013211	1361.6	7.4747e-06	6.2252e-06	1360.9	367.46	6.9549e-06	4.5255e-06	419.77	139.51	121.87	41.448	6.8696e-06	51.741	0.00040858	0.0003428	9.6885e-05	1416.2	3.8649e-06	3.8703e-06	1412.9	384.29	4.0052e-06	3.7384e-06	436.88	146.71	128.15	43.899	3.7989e-06	54.334	258.795	143.182	153.051	72.590	234.673	221.024	72.608	77.274	254.129	198.529	76.323	81.908	82.083	86.327	205.794	85.288	-8191	255	
25103.459	1	1	0	0	0.20025	0.15676	0.11692	0.21238	0.17344	0.33748	0.20415	0.082356	0.15727	0.11919	0.23259	0.071398	0.25048	0.1217	0.13826	0.090038	-2.3312	-3.5729	-2.9813	-3.2667	-3.4896	-2.8229	-3.5167	-3.35	-2.9417	-3.5146	-3.2	-3.1583	-3.7833	-2.9646	-3.2771	-3.3146	327.665	135.299	384.619	399.977	169.600	194.715	107.529	121.502	62.416	350.092	383.465	416.376	371.220	193.036	214.158	295.840	0.00063601	0.00055498	0.00013353	1349.1	9.264e-06	3.8001e-06	1349.1	365.46	7.4921e-06	4.5605e-06	414.3	139.52	121.73	41.268	7.5513e-06	50.881	0.00041746	0.00034372	9.6611e-05	1414.6	4.0359e-06	3.833e-06	1409.9	383.49	4.0116e-06	3.5757e-06	436.17	146.47	128.39	43.935	3.85e-06	54.153	261.136	147.149	140.841	72.990	227.819	210.028	73.192	77.655	247.560	204.396	76.938	82.125	82.232	86.417	230.069	85.830	-8191	255	
25103.555	1	1	0	0	0.053105	0.21796	0.339	0.06511	0.21107	0.20089	0.16425	0.19873	0.037185	0.18165	0.22422	0.091652	0.30386	0.25588	0.15735	0.12052	-2.3271	-3.6	-3.0458	-3.2104	-3.6437	-2.6917	-3.4271	-3.5187	-2.8	-3.2979	-3.1479	-3.0104	-3.6896	-2.9688	-3.2521	-3.4375	230.168	378.669	129.828	372.649	341.932	334.807	372.886	406.555	184.852	236.745	117.116	104.655	320.827	408.929	353.407	283.665	0.00064151	0.0004456	0.00016396	1350.9	6.6279e-06	3.6702e-06	1359	368.22	7.8147e-06	3.577e-06	419.29	140.47	123.24	41.619	7.8849e-06	51.64	0.00041093	0.00032696	9.5279e-05	1415.6	3.739e-06	3.5893e-06	1411.7	384.59	3.8963e-06	3.8307e-06	436.98	146.99	128.69	43.989	3.7772e-06	54.239	260.508	135.028	162.060	73.169	245.081	237.443	72.343	77.376	255.319	197.399	76.476	81.876	81.928	86.126	201.565	85.088	-8191	255	
25103.650	1	1	0	0	0.11835	0.26525	0.14999	0.084391	0.14534	0.10578	0.025103	0.3021	0.29293	0.14784	0.097402	0.30471	0.052322	0.11505	0.14203	0.016554	-2.4521	-3.3146	-3.1271	-3.1312	-3.5125	-2.9167	-3.4313	-3.6125	-2.6792	-3.3563	-3.3417	-2.9271	-3.5396	-3.0375	-3.0896	-3.7958	342.341	152.603	98.358	364.706	252.543	327.082	395.849	395.693	294.134	208.716	333.940	406.531	220.397	197.006	400.936	414.869	0.00062072	0.00068086	0.0001673	1370.4	5.5791e-06	3.5346e-06	1374.2	372.9	5.8269e-06	4.8267e-06	426.42	142.24	124.37	42.144	5.9589e-06	52.415	0.00040829	0.00033774	9.279e-05	1419.2	3.7982e-06	3.7522e-06	1414.5	385.47	3.9334e-06	3.745e-06	439.21	147.09	129.01	44.066	3.8634e-06	54.436	260.057	150.867	155.876	72.267	210.753	222.818	72.174	76.801	258.684	187.570	76.057	81.610	81.601	85.733	224.945	84.693	-8191	255	
25103.770	1	1	0	0	0.3111	0.055102	0.15593	0.41228	0.097024	0.29986	0.14478	0.054088	0.22015	0.28377	0.068221	0.19956	0.15963	0.15759	0.15268	0.14695	-2.4604	-3.3312	-3.2042	-2.9792	-3.3875	-2.9375	-3.2771	-3.7625	-2.7896	-3.375	-3.4375	-2.8958	-3.5583	-3.2354	-3.0896	-3.6104	385.253	262.369	207.951	371.439	287.956	382.588	320.664	182.840	121.291	118.312	154.292	400.939	385.830	413.078	260.210	410.676	0.00059832	0.0004091	0.00012575	1369.5	5.1121e-06	4.1001e-06	1373.1	371.93	4.4428e-06	3.2088e-06	423.39	142.26	124.03	42.155	7.0337e-06	52.044	0.00040369	0.00034153	9.2463e-05	1418.5	3.8781e-06	3.8027e-06	1415.6	385.42	3.7857e-06	3.7722e-06	438.07	147.24	128.75	44.059	3.7923e-06	54.373	258.272	133.319	152.880	72.121	223.620	235.329	72.183	76.965	278.904	218.484	76.165	81.487	81.536	85.522	213.619	84.785	-8191	255	
25103.867	1	1	0	0	0.22751	0.22402	0.11027	0.18731	0.1218	0.14805	0.27168	0.14806	0.30742	0.25888	0.18899	0.25581	0.11544	0.13643	0.018809	0.093206	-2.3979	-3.2917	-3.3125	-3.0062	-3.4938	-2.9229	-3.3208	-3.7917	-3.0542	-3.1958	-3.5062	-2.9229	-3.5104	-3.3229	-2.9354	-3.7125	355.949	139.121	322.126	71.168	404.925	197.360	333.269	89.784	209.459	202.876	404.430	89.060	136.742	356.708	95.288	349.659	0.00060239	0.00035996	0.00011065	1369	7.0209e-06	3.4843e-06	1375	372.86	5.998e-06	4.1056e-06	420.86	140.84	123.42	42.113	6.1077e-06	52.331	0.00041175	0.00034043	9.3887e-05	1416.6	3.8459e-06	3.7725e-06	1416.1	385.12	3.8691e-06	3.7401e-06	437.41	146.75	128.63	44.066	3.7941e-06	54.385	261.736	140.350	156.490	72.101	210.434	209.465	72.289	76.868	260.389	212.168	76.376	81.701	81.849	85.544	209.593	84.885	-8191	255	
25103.963	1	1	0	0	0.066338	0.083468	0.18518	0.32423	0.19272	0.19408	0.21854	0.13474	0.12136	0.11258	0.1815	0.17138	0.045525	0.30486	0.1261	0.088487	-2.6667	-3.0167	-3.3854	-2.9521	-3.4979	-3.2062	-3.1333	-3.6979	-2.8229	-3.2229	-3.8563	-3.0021	-3.45	-3.3688	-2.9	-3.7646	204.371	316.307	298.273	367.058	357.784	61.168	350.858	395.821	119.638	346.669	383.117	376.220	204.974	333.142	209.835	383.455	0.00062447	0.0005122	0.00010064	1377.2	7.6536e-06	7.3086e-06	1379.7	372.81	6.9319e-06	3.0825e-06	422.97	142.15	124.7	42.292	5.5784e-06	52.723	0.00040997	0.00034982	9.2301e-05	1420.5	3.7452e-06	3.7514e-06	1416.4	385.06	3.7861e-06	3.6695e-06	437.63	147.1	128.92	44.017	3.8121e-06	54.505	258.218	167.094	131.556	72.169	240.170	222.290	72.086	76.838	271.440	169.333	76.210	81.195	81.559	85.457	226.056	84.677	-8191	255	
25104.033	1	1	0	0	0.088231	0.081443	0.1922	0.069532	0.14048	0.18134	0.10361	0.14749	0.065289	0.11057	0.091951	0.18722	0.3514	0.12243	0.21393	0.24856	-2.5646	-3.0479	-3.4458	-2.9979	-3.2333	-3.3917	-3.1521	-3.6146	-3.0687	-2.8438	-3.6354	-2.8542	-3.45	-3.2417	-2.6854	-3.4167	415.544	331.631	126.134	60.231	402.915	277.931	237.593	96.270	357.841	417.202	380.312	284.792	360.375	226.704	332.315	416.995	0.00063738	0.0004913	0.0001131	1387.2	9.2972e-06	5.177e-06	1397.7	378.94	8.0952e-06	5.7647e-06	430.5	143.9	125.89	42.517	6.1214e-06	53.021	0.00040322	0.00034767	9.6783e-05	1421.4	3.9187e-06	3.6644e-06	1419.1	386.64	3.8177e-06	3.7184e-06	439.21	147.45	129	44.107	3.8778e-06	54.557	260.761	152.121	165.588	71.865	216.877	231.573	71.317	76.379	261.856	211.164	75.747	80.899	81.152	85.323	253.779	84.286	-8191	255	
25104.154	1	1	0	0	0.18745	0.21334	0.065432	0.21196	0.11187	0.12876	0.20564	0.14678	0.31141	0.12135	0.17961	0.10035	0.16175	0.27519	0.028714	0.26249	-2.5917	-2.8646	-3.5375	-3.0396	-3.1646	-3.4562	-2.9458	-3.6937	-3.0896	-2.8333	-3.7062	-3.1042	-3.1333	-3.6125	-2.6896	-3.5917	213.945	131.322	77.559	337.424	131.023	187.916	350.774	366.256	353.984	205.275	141.587	275.195	70.929	374.727	140.133	407.974	0.00061274	0.00048078	0.00013967	1396.9	3.6482e-06	5.2742e-06	1393.6	376.51	6.6602e-06	4.1234e-06	429.3	144.38	126.34	42.717	5.9535e-06	53.332	0.00041749	0.00035094	9.7251e-05	1423.3	3.9373e-06	3.7418e-06	1418.9	386.31	3.7544e-06	3.8928e-06	439.05	147.4	128.92	44.152	3.9596e-06	54.593	261.737	129.809	126.295	71.623	253.944	229.250	71.855	76.526	257.655	206.298	75.956	80.882	81.097	85.370	241.185	84.495	-8191	255	
25104.252	1	1	0	0	0.1123	0.088063	0.13521	0.16472	0.16235	0.15537	0.27449	0.29502	0.026481	0.014592	0.27628	0.11625	0.24447	0.12879	0.17453	0.23503	-2.8125	-2.6792	-3.7438	-3.2146	-3.1833	-3.6063	-3.0938	-3.3854	-3.3604	-2.7771	-3.7229	-3.1063	-3.1708	-3.6688	-2.8667	-3.4542	340.852	304.565	110.249	415.594	268.556	346.189	337.688	323.447	189.238	158.655	374.402	333.440	64.893	361.863	110.674	292.882	0.00062284	0.00066583	0.00011118	1392.6	8.0489e-06	6.1125e-06	1400.2	378.08	5.1444e-06	6.2321e-06	425.91	144.57	125.89	42.787	7.8682e-06	52.893	0.00040779	0.00035184	9.3828e-05	1421.7	3.8258e-06	3.7362e-06	1420.7	386.39	3.7518e-06	3.798e-06	437.81	147.36	129.05	44.177	3.8498e-06	54.496	264.720	161.801	137.710	71.893	220.126	205.894	71.790	76.481	251.682	194.764	75.793	81.176	81.008	85.028	210.576	84.234	-8191	255	
25104.348	1	1	0	0	0.15677	0.087246	0.03607	0.19825	0.26326	0.21006	0.21009	0.38374	0.09885	0.21376	0.26392	0.32831	0.14598	0.18154	0.087005	0.11047	-2.8854	-2.7542	-3.5104	-3.0875	-3.1083	-3.5375	-2.9396	-3.5187	-3.2479	-2.875	-3.7708	-3.1708	-2.9708	-3.7271	-3.0062	-3.3458	352.602	305.217	119.843	97.992	152.032	331.742	397.254	71.625	209.408	158.982	367.333	398.821	316.882	58.641	321.108	136.559	0.00066929	0.00047743	0.00014753	1395.8	7.9519e-06	4.4626e-06	1396.6	377.19	6.6138e-06	6.748e-06	426.88	143.24	124.91	42.482	6.1292e-06	52.423	0.00041484	0.00034091	9.2726e-05	1420.2	3.8749e-06	3.7106e-06	1420.6	385.76	3.878e-06	3.7703e-06	438.18	147.06	128.69	44.064	3.6035e-06	54.39	260.972	162.292	156.574	71.450	233.147	218.803	71.441	76.420	255.064	210.212	76.214	81.131	81.550	85.267	228.165	84.726	-8191	255	
25104.441	1	1	0	0	0.11146	0.07605	0.12063	0.25756	0.125	0.088783	0.44792	0.23585	0.15726	0.16067	0.20127	0.18204	0.25517	0.28389	0.16428	0.24951	-3.1021	-2.7417	-3.55	-3.3146	-2.8896	-3.5958	-3.1208	-3.2771	-3.5417	-2.8104	-3.6146	-3.4479	-2.6792	-3.6917	-2.975	-3.1979	194.415	289.244	178.604	392.813	113.596	76.289	323.404	390.107	72.784	86.648	67.531	310.870	99.300	145.771	244.394	362.134	0.00064926	0.00044963	7.0237e-05	1381.1	6.9042e-06	6.1634e-06	1386.2	375.64	6.669e-06	4.371e-06	425.33	143.32	124.61	42.409	7.4887e-06	52.562	0.00040254	0.00034996	9.2828e-05	1418.4	3.9471e-06	3.7087e-06	1415.8	385.77	3.8603e-06	3.7643e-06	438.19	147.27	128.78	44.108	3.7857e-06	54.372	258.776	168.671	157.670	71.841	234.403	207.923	71.742	76.870	250.522	194.549	76.034	81.025	81.374	85.345	204.433	84.558	-8191	255	
25104.539	1	1	0	0	0.09133	0.16133	0.17688	0.24604	0.14772	0.029665	0.24904	0.12433	0.077023	0.17391	0.28741	0.11897	0.313	0.068622	0.24844	0.051118	-3.2438	-2.8646	-3.375	-3.4125	-2.7417	-3.4354	-3.1042	-3.1771	-3.4125	-2.6417	-3.4354	-3.1813	-2.8688	-3.5667	-2.9437	-3.0292	381.216	249.112	172.725	403.511	126.911	280.298	352.571	357.212	61.267	168.358	334.762	377.257	66.004	256.966	236.835	63.528	0.00065613	0.00067978	0.00011941	1400.1	9.3159e-06	5.8014e-06	1404.9	378.9	6.0204e-06	5.294e-06	430.3	143.04	125.08	42.444	4.2323e-06	52.558	0.0004055	0.00035578	9.717e-05	1425.2	3.9566e-06	3.61e-06	1418.5	386.38	3.7617e-06	3.8237e-06	438.73	146.64	128.66	44.04	3.781e-06	54.307	257.872	142.480	139.524	71.323	220.024	227.883	71.263	76.676	234.465	197.889	75.989	80.962	81.235	85.136	203.589	84.545	-8191	255	
25104.635	1	1	0	0	0.23845	0.019665	0.2426	0.1475	0.18848	0.11119	0.41694	0.31468	0.12915	0.10164	0.044743	0.19345	0.094593	0.079219	0.0799	0.044128	-3.0167	-2.7979	-3.1875	-3.6208	-2.8875	-3.5563	-3.1562	-3.0104	-3.3854	-2.8729	-3.5104	-3.4542	-2.9104	-3.6188	-3.1437	-2.8979	164.519	264.899	180.117	378.867	402.359	89.272	364.847	307.878	65.146	188.873	375.699	303.504	334.998	187.516	403.533	334.081	0.00064729	0.00063683	8.8628e-05	1387.2	3.2773e-06	4.6071e-06	1384.2	374.19	5.6129e-06	3.3796e-06	427.81	142.74	125.54	42.607	7.1544e-06	52.647	0.00039981	0.00035251	9.6692e-05	1421	4.057e-06	3.8076e-06	1416.3	384.71	3.7637e-06	3.842e-06	438.11	147.03	128.99	44.086	3.9736e-06	54.393	260.349	162.683	163.635	71.893	228.611	238.553	71.791	76.813	257.174	205.912	76.041	80.992	81.270	85.351	203.924	84.367	-8191	255	
25104.730	1	1	0	0	0.2172	0.16349	0.27523	0.1927	0.085498	0.29501	0.1879	0.059461	0.30256	0.26236	0.062974	0.091735	0.15149	0.090914	0.040173	0.3035	-3.1875	-2.775	-3.2542	-3.6104	-2.7062	-3.3479	-3.4125	-2.8479	-3.4417	-2.7792	-3.2938	-3.4	-2.7896	-3.3937	-3.1479	-2.9729	259.072	237.460	230.079	356.170	182.329	346.184	354.344	330.210	379.676	147.982	321.317	65.770	383.478	106.758	309.583	376.568	0.00064303	0.00055197	0.00017249	1394	9.5728e-06	6.5136e-06	1387.7	375.8	6.2231e-06	3.7135e-06	426.17	142.68	124.62	42.431	8.063e-06	52.355	0.0004132	0.00034713	9.9991e-05	1422.2	4.0053e-06	3.7352e-06	1415.9	385.05	3.9207e-06	3.7373e-06	438.71	146.65	128.54	44.05	3.8712e-06	54.24	259.603	142.916	151.759	71.791	222.093	241.254	71.658	76.710	262.096	224.228	76.121	80.853	81.161	85.368	218.308	84.678	-8191	255	
25104.852	1	1	0	0	0.21966	0.2132	0.058816	0.12649	0.1926	0.14084	0.25634	0.12619	0.056314	0.21102	0.22722	0.28522	0.094776	0.11719	0.19447	0.057032	-3.1229	-2.8833	-2.8479	-3.6208	-2.8583	-3.5104	-3.4729	-3.1437	-3.5146	-3.2625	-3.0875	-3.6937	-2.9437	-3.3042	-3.3479	-2.8292	237.881	82.255	394.374	380.493	167.192	97.402	316.179	293.260	124.533	281.196	136.607	376.757	126.143	325.377	75.767	204.436	0.00067848	0.00047255	0.000149	1374.8	6.7444e-06	5.8748e-06	1380.5	374.72	8.2015e-06	5.7771e-06	429.01	143.35	125.46	42.437	7.919e-06	52.894	0.00041294	0.00035398	9.9943e-05	1416.4	3.8684e-06	3.7936e-06	1414.1	385.02	3.8564e-06	3.7563e-06	438.54	146.8	128.77	43.956	3.9413e-06	54.397	261.140	158.598	154.271	72.070	220.777	211.762	71.707	76.631	254.821	195.199	75.918	81.015	81.317	85.500	226.009	84.591	-8191	255	
25104.947	1	1	0	0	0.17468	0.11339	0.22349	0.32273	0.085346	0.066084	0.27918	0.4546	0.21832	0.047504	0.24453	0.014008	0.070534	0.25276	0.15987	0.17347	-3.0271	-3.2354	-2.8417	-3.5979	-2.8563	-3.275	-3.6021	-2.9521	-3.4958	-3.1167	-2.8521	-3.5438	-3.0187	-3.3042	-3.4625	-2.9583	163.027	98.545	300.193	407.983	322.370	256.486	353.859	395.751	325.344	158.819	310.027	133.075	377.934	413.703	396.455	277.100	0.00065338	0.00043011	0.00011719	1381.7	5.6094e-06	3.992e-06	1386.5	374.6	3.6378e-06	5.4337e-06	429.16	143.24	124.38	42.431	3.1572e-06	52.634	0.00041563	0.0003472	9.6482e-05	1415.8	3.9053e-06	3.7209e-06	1415.2	384.8	3.8353e-06	3.8467e-06	438.29	146.89	128.47	44.042	3.8628e-06	54.297	259.529	132.044	172.514	71.624	230.423	210.169	71.666	76.714	243.956	201.547	75.957	80.845	81.301	85.338	222.685	84.186	-8191	255	
25105.043	1	1	0	0	0.12876	0.090561	0.039253	0.34134	0.094559	0.12104	0.2137	0.20138	0.025553	0.082664	0.067977	0.14222	0.097984	0.31238	0.17859	0.24709	-2.8896	-3.1937	-2.8563	-3.5708	-2.9542	-3.0104	-3.6917	-3.0021	-3.2708	-3.1417	-2.7354	-3.5833	-2.8812	-3.1125	-3.4896	-2.8833	155.966	217.694	329.738	87.866	353.067	99.827	378.860	368.792	287.575	213.870	94.574	404.100	71.068	371.625	284.573	165.023	0.00061812	0.00033533	0.00013695	1378.8	7.0318e-06	3.2369e-06	1390	375.1	3.6132e-06	7.1575e-06	427.49	142.38	124.73	42.566	6.9134e-06	52.64	0.00040701	0.00034705	9.7251e-05	1417	3.8848e-06	3.8921e-06	1415.3	384.69	3.8726e-06	3.8626e-06	438.02	146.71	128.58	44.038	3.7358e-06	54.355	261.545	160.152	139.823	72.031	220.542	249.724	71.519	76.677	248.390	206.474	76.075	81.140	81.236	85.333	234.030	84.220	-8191	255	
25105.139	1	1	0	0	0.16775	0.00087694	0.051267	0.28078	0.2656	0.15559	0.27362	0.30841	0.14971	0.095729	0.17869	0.12439	0.12232	0.034049	0.31848	0.14417	-2.9229	-3.3646	-2.5708	-3.6292	-3.1375	-2.9542	-3.8146	-2.9417	-3.2687	-3.3646	-3.0625	-3.55	-3.1542	-2.8708	-3.5667	-3.0208	318.853	180.000	257.278	331.392	332.609	259.651	360.754	64.326	110.335	380.150	359.650	117.129	408.134	365.127	61.445	146.674	0.00062729	0.00040555	0.00012769	1381.4	8.2105e-06	7.6179e-06	1389.2	372.59	5.9633e-06	4.4297e-06	425.82	143.11	124.52	42.219	2.8426e-06	52.286	0.00040758	0.00034089	9.8772e-05	1418.1	4.0806e-06	3.9019e-06	1413.1	383.62	4.011e-06	3.8435e-06	437.9	146.96	128.42	43.966	3.8139e-06	54.221	261.888	125.223	173.717	71.846	207.105	205.943	71.706	76.628	250.666	172.895	75.834	80.943	81.695	85.443	210.341	84.478	-8191	255	
25105.260	1	1	0	0	0.15579	0.33743	0.12044	0.13952	0.084142	0.15215	0.23084	0.43826	0.044018	0.20576	0.083388	0.18502	0.2695	0.053401	0.046664	0.25054	-2.8063	-3.3708	-2.6729	-3.5687	-3.0708	-2.8229	-3.9271	-3.075	-3.175	-3.2417	-2.8563	-3.55	-3.3396	-2.75	-3.5854	-2.9208	319.394	342.216	394.458	401.997	121.517	398.707	380.728	367.666	135.714	121.173	337.185	121.092	64.148	398.415	68.773	349.774	0.0006324	0.00057881	0.00017136	1383.5	6.4711e-06	7.0299e-06	1386.3	371.24	5.9694e-06	5.7544e-07	422.04	142.15	123.88	42.068	3.7585e-06	51.873	0.00040748	0.00034328	9.3554e-05	1418.8	3.9021e-06	3.9283e-06	1414.2	383.7	3.9326e-06	3.7531e-06	436.69	146.52	128.2	43.885	3.8073e-06	54.167	260.688	163.544	144.700	72.017	218.074	223.181	71.702	76.680	272.998	212.843	76.291	81.098	81.536	85.274	228.488	84.537	-8191	255	
25105.332	1	1	0	0	0.090144	0.21442	0.1192	0.40147	0.23851	0.24515	0.45645	0.37846	0.15693	0.29657	0.28755	0.052163	0.093097	0.19812	0.12206	0.29141	-2.8583	-3.5187	-2.7646	-3.5438	-3.2438	-2.7167	-3.9104	-3.0792	-3.0146	-3.4688	-2.9688	-3.3854	-3.3479	-2.8979	-3.3979	-3.2354	135.013	144.617	218.500	379.636	185.742	89.934	374.950	341.239	230.367	276.900	411.409	325.814	153.698	414.108	297.404	64.499	0.00064306	0.00023964	8.5924e-05	1378.7	6.6199e-06	6.111e-06	1380.7	376.46	4.3989e-06	6.756e-06	424.62	143.43	123.61	42.186	6.595e-06	51.869	0.00042309	0.0003408	0.00010061	1416.1	3.9463e-06	3.8867e-06	1413	384.42	3.9493e-06	3.7643e-06	437.6	146.91	128.12	43.932	3.7989e-06	54.154	261.644	191.035	129.923	71.984	225.308	212.332	72.112	76.631	262.515	217.942	75.863	81.393	81.362	85.450	231.507	85.083	-8191	255	
25105.449	1	1	0	0	0.20728	0.2037	0.045131	0.15876	0.13004	0.17528	0.16223	0.089174	0.14456	0.16419	0.062781	0.23195	0.085834	0.1006	0.27654	0.077741	-2.5229	-3.5042	-2.7396	-3.4	-3.3667	-2.8438	-3.7146	-3.2146	-2.9042	-3.5333	-2.9917	-3.1896	-3.5312	-2.8375	-3.3	-3.0208	363.858	364.066	399.122	175.224	290.205	326.454	386.034	61.219	403.253	109.876	218.982	405.913	417.055	97.003	282.350	286.531	0.00060603	0.00041255	0.00012986	1374.3	8.1141e-06	4.9344e-06	1374.7	371.79	4.9925e-06	4.2306e-06	423.02	142.48	123.81	42.048	3.0062e-06	52.108	0.00041344	0.00034413	9.7482e-05	1417.1	3.8659e-06	3.8443e-06	1411.1	383.94	4.0445e-06	3.7129e-06	437.03	146.52	127.96	43.852	3.8446e-06	54.146	261.168	151.932	167.668	72.268	225.041	202.245	72.049	76.874	264.182	197.756	76.028	81.298	81.140	85.340	231.148	84.752	-8191	255	
25105.547	1	1	0	0	0.20133	0.11201	0.10164	0.29102	0.12223	0.083302	0.32602	0.15784	0.22252	0.24206	0.24619	0.25533	0.12777	0.15095	0.20304	0.19469	-2.4396	-3.4479	-2.8354	-3.2812	-3.4708	-2.8667	-3.6479	-3.3125	-2.8375	-3.5646	-3.0479	-3.3021	-3.5875	-2.7458	-3.4625	-3.3625	165.517	119.125	296.834	331.557	135.537	144.051	356.718	80.622	368.781	291.822	61.779	417.997	362.303	401.539	317.464	345.731	0.00062203	0.00067235	0.00014319	1380.6	7.0494e-06	3.2678e-06	1370.8	371.32	7.7723e-06	5.7136e-06	423.39	142.07	123.58	41.965	5.516e-06	52.344	0.00041776	0.0003377	9.6815e-05	1416.5	3.8091e-06	3.7799e-06	1411.8	383.71	3.9695e-06	3.6242e-06	436.78	146.64	128.06	43.815	3.7682e-06	54.164	257.963	157.229	142.771	72.127	242.703	202.844	71.997	76.825	255.108	179.434	75.962	81.201	81.358	85.628	204.215	84.284	-8191	255	
25105.643	1	1	0	0	0.2045	0.23926	0.13848	0.022513	0.13298	0.10467	0.18609	0.20905	0.067943	0.0424	0.21659	0.13625	0.035213	0.22515	0.2793	0.050294	-2.4313	-3.4021	-2.9021	-3.2687	-3.6813	-2.8625	-3.4729	-3.4792	-2.7417	-3.6708	-3.1167	-3.0208	-3.6063	-2.7833	-3.425	-3.5104	327.030	205.012	174.498	361.603	352.706	300.389	329.979	345.251	302.231	327.637	412.766	414.835	298.997	76.391	318.677	125.110	0.00063712	0.00046517	0.00013414	1377.7	4.9807e-06	4.6851e-06	1381.5	373.55	5.2907e-06	5.4013e-06	425.94	142.96	124.15	42.441	7.5945e-06	52.702	0.00042034	0.00034461	9.6858e-05	1415.9	3.8238e-06	3.8458e-06	1415.1	384.61	3.9915e-06	3.98e-06	437.94	146.92	128.42	43.985	3.9656e-06	54.33	262.742	146.024	149.659	71.850	229.409	243.453	71.718	76.540	266.585	181.935	75.942	81.258	81.451	85.187	210.220	84.315	-8191	255	
25105.738	1	1	0	0	0.1364	0.08809	0.051938	0.31657	0.082438	0.051165	0.28327	0.2458	0.2026	0.25227	0.11935	0.35102	0.20777	0.15454	0.04332	0.15982	-2.3458	-3.3729	-2.9854	-3.0646	-3.475	-2.8	-3.1813	-3.4833	-2.6979	-3.3937	-3.3771	-2.9542	-3.5979	-2.925	-3.1667	-3.4729	355.368	176.445	302.819	407.849	414.247	240.781	358.832	394.945	98.699	409.544	302.386	297.637	320.076	72.710	210.421	83.635	0.00065034	0.00055788	0.00011591	1386.8	5.6596e-06	3.2678e-06	1389.2	375.13	5.6561e-06	3.7269e-06	428.82	143.55	126.09	42.523	6.3368e-06	52.942	0.00041981	0.00034836	9.8035e-05	1419.4	3.8996e-06	3.8445e-06	1414.6	384.93	3.9905e-06	3.8241e-06	437.86	146.9	128.82	44.079	3.9091e-06	54.396	260.776	154.244	160.414	71.640	232.642	203.915	71.701	76.287	266.737	172.549	76.022	80.859	81.045	85.214	207.554	84.133	-8191	255	
25105.836	1	1	0	0	0.14124	0.11352	0.10088	0.34844	0.051661	0.1186	0.26771	0.066052	0.15696	0.15053	0.093556	0.26494	0.10079	0.11325	0.14813	0.13974	-2.2646	-3.3125	-3.2	-2.9146	-3.4646	-2.7687	-3.2062	-3.575	-2.6937	-3.4583	-3.5083	-2.9313	-3.5375	-2.9021	-3.0812	-3.6375	213.827	285.647	169.983	385.246	91.993	329.157	326.520	345.503	147.834	323.559	381.369	358.961	335.488	392.664	106.550	389.909	0.00066765	0.00049118	0.00014716	1382.3	7.9771e-06	4.4441e-06	1384.4	374.56	6.0489e-06	4.5026e-06	426.29	143.22	125.86	42.663	6.2843e-06	53.065	0.00043394	0.00035371	9.8481e-05	1417.7	4.0219e-06	3.8432e-06	1413	384.8	4.0451e-06	3.8762e-06	437.67	146.7	128.82	44.058	3.9384e-06	54.486	261.379	160.860	172.180	71.948	220.601	242.234	71.894	76.517	241.934	201.827	75.567	81.030	81.294	84.970	237.119	84.287	-8191	255	
25105.932	1	1	0	0	0.25274	0.10761	0.22131	0.10906	0.2334	0.19651	0.24727	0.40897	0.22509	0.13393	0.084407	0.28804	0.17754	0.23564	0.31954	0.054059	-2.3208	-3.0854	-3.2396	-2.9854	-3.5875	-2.8333	-2.975	-3.6	-2.8104	-3.1937	-3.4042	-2.8979	-3.4896	-3.1979	-2.8458	-3.675	218.348	131.189	350.611	396.457	344.869	336.757	403.111	352.474	416.748	238.711	244.133	369.212	372.745	376.949	207.100	294.338	0.00062579	0.00050265	0.00011266	1391.1	8.8417e-06	2.7574e-06	1404.4	379.29	6.2839e-06	5.073e-06	432.36	144.57	125.95	42.911	7.321e-06	52.875	0.00041616	0.00035792	9.6203e-05	1418.7	3.9051e-06	3.8891e-06	1419	385.64	4.013e-06	3.8881e-06	438.78	147.23	128.65	44.097	3.884e-06	54.478	262.287	156.710	144.781	71.606	219.096	234.557	71.326	75.909	256.800	202.305	75.546	80.982	80.952	85.055	202.679	84.043	-8191	255	
25106.027	1	1	0	0	0.090102	0.23626	0.098921	0.21695	0.14799	0.20204	0.28549	0.45863	0.19535	0.092813	0.26521	0.14983	0.20231	0.204	0.26452	0.049917	-2.3729	-2.8917	-3.4354	-2.9313	-3.425	-2.9771	-2.9417	-3.6958	-2.6458	-3.0667	-3.6896	-2.8229	-3.5646	-3.2812	-2.7583	-3.5521	399.252	415.683	106.782	406.002	221.124	201.095	346.360	404.317	270.112	270.420	362.582	334.306	349.754	370.557	242.463	146.724	0.00066648	0.00057864	0.00014746	1398.8	5.7043e-06	4.3272e-06	1397.6	378.4	7.0825e-06	4.2259e-06	429.09	144.11	126.28	42.727	6.7135e-06	53.119	0.0004156	0.00035325	9.8852e-05	1420.3	3.9623e-06	3.7782e-06	1417.6	385.67	4.0243e-06	3.8371e-06	437.94	147.02	129.1	44.14	3.8766e-06	54.406	261.111	149.377	149.745	71.699	240.952	172.482	71.567	76.398	244.520	189.077	75.540	80.621	80.917	84.953	228.190	83.894	-8191	255	
25106.123	1	1	0	0	0.27555	0.16016	0.040147	0.10096	0.27075	0.08373	0.26255	0.099777	0.11616	0.23855	0.15206	0.25041	0.31155	0.30866	0.06733	0.096795	-2.4208	-3.0438	-3.4396	-2.8125	-3.3708	-3.3063	-3.1667	-3.6458	-2.825	-3.0333	-3.6958	-2.8146	-3.1813	-3.4	-2.5458	-3.6875	369.520	267.072	362.184	399.271	122.718	116.916	334.271	355.301	278.958	396.398	400.111	381.970	410.751	392.622	230.913	336.045	0.00068171	0.00059022	0.00016937	1396.7	4.2636e-06	7.7568e-06	1395.7	378.73	4.5792e-06	6.4735e-06	430.84	144.68	126.52	42.974	5.3288e-06	53.175	0.00041515	0.0003457	9.7659e-05	1419.5	3.9858e-06	3.939e-06	1415.9	385.99	4.0572e-06	4.0309e-06	438.82	147.16	128.87	44.193	3.9343e-06	54.415	260.001	152.384	154.034	71.613	230.114	221.149	71.571	76.174	251.000	212.040	75.869	80.833	80.782	84.877	202.422	83.806	-8191	255	
25106.221	1	1	0	0	0.18851	0.15028	0.022792	0.25149	0.050756	0.14813	0.22541	0.25734	0.28899	0.1618	0.10205	0.45212	0.24205	0.13624	0.043264	0.19052	-2.6333	-3.0333	-3.3542	-2.9917	-3.2667	-3.4896	-2.9125	-3.7625	-2.9917	-2.9479	-3.6229	-2.9208	-3.3896	-3.4562	-2.7792	-3.5104	281.603	328.866	198.555	359.873	140.975	108.176	345.120	281.342	99.384	256.025	314.982	405.798	87.666	368.655	261.414	191.975	0.00061142	0.00069257	0.00017488	1406.3	8.8936e-06	5.2428e-06	1411.5	380.77	5.7094e-06	6.2845e-06	434.47	145.27	126.68	43.2	6.611e-06	53.446	0.00041453	0.00035405	9.6434e-05	1422.4	4.0499e-06	3.8388e-06	1419.9	386.33	3.8748e-06	4.0375e-06	440.18	147.42	128.97	44.162	3.9693e-06	54.484	263.155	138.231	150.112	71.505	221.570	203.293	71.333	76.281	255.292	181.323	75.181	80.375	80.580	84.758	228.689	84.224	-8191	255	
25106.338	1	1	0	0	0.10318	0.10651	0.1661	0.073574	0.27724	0.17248	0.25847	0.2884	0.02708	0.10321	0.25138	0.081172	0.1227	0.12087	0.13242	0.19753	-2.7875	-2.9729	-3.4521	-2.9979	-3.0417	-3.5563	-2.9583	-3.5333	-3.2708	-2.7479	-3.7271	-3.075	-3.1937	-3.5208	-2.8042	-3.4146	163.787	339.228	110.548	187.578	347.137	324.805	381.894	271.304	277.836	269.714	382.512	342.432	397.132	79.750	367.583	245.180	0.00062762	0.00052916	0.0001223	1397.5	5.9776e-06	4.4912e-06	1407	380.88	5.8793e-06	3.842e-06	430.84	144.07	126.57	42.861	6.1533e-06	52.963	0.00042283	0.000368	9.5897e-05	1421.6	4.0996e-06	3.826e-06	1416.7	386.03	3.9274e-06	3.8048e-06	438.94	146.95	129.13	44.076	3.9656e-06	54.486	259.748	165.824	121.612	71.442	235.671	233.170	71.267	76.183	276.570	206.363	75.652	80.742	81.168	85.053	231.070	83.962	-8191	255	
25106.436	1	1	0	0	0.10617	0.13039	0.22176	0.14412	0.096482	0.18791	0.26211	0.15621	0.14984	0.086486	0.22333	0.20462	0.14786	0.2265	0.11251	0.085099	-2.9771	-2.7771	-3.5542	-3.1875	-3.2479	-3.6583	-2.8646	-3.475	-3.2396	-2.6229	-3.5896	-3.2188	-2.9083	-3.6042	-2.7875	-3.2	201.488	282.983	416.889	345.871	285.541	168.304	357.866	79.694	146.997	361.301	359.126	398.871	363.838	230.855	355.554	166.684	0.00064732	0.00056294	9.4341e-05	1398.8	7.3275e-06	7.0231e-06	1401.7	380.44	8.1372e-06	5.233e-06	431.64	145.33	126.23	42.887	5.35e-06	53.001	0.00041489	0.00035369	9.5961e-05	1421.2	3.9479e-06	3.7477e-06	1418.2	386.36	3.8867e-06	3.8794e-06	439.49	147.36	128.95	44.089	4.0081e-06	54.48	262.319	142.166	154.914	71.390	240.686	207.900	71.511	76.453	250.265	221.895	75.750	80.759	81.089	84.931	222.050	84.116	-8191	255	
25106.533	1	1	0	0	0.090968	0.053181	0.27001	0.22679	0.28898	0.14799	0.25657	0.064425	0.093975	0.12813	0.26707	0.17849	0.13157	0.20603	0.15506	0.1921	-3.0146	-2.7854	-3.3896	-3.2104	-2.9708	-3.3646	-3.0583	-3.3208	-3.4625	-2.7812	-3.6042	-3.3146	-2.7979	-3.6271	-2.775	-3.2792	364.349	167.470	186.243	71.653	329.427	277.602	376.835	274.063	157.435	169.140	415.214	340.368	381.955	62.840	341.478	393.792	0.00066868	0.00040962	0.00013147	1400.8	6.7748e-06	5.6157e-06	1394.2	375.76	6.2992e-06	5.2529e-06	428.27	143.21	125.7	42.573	7.2969e-06	52.867	0.00042031	0.00035209	9.6552e-05	1421.5	3.9603e-06	3.7761e-06	1414.6	385.06	3.9048e-06	3.8607e-06	438.34	147.04	128.85	44.102	3.8661e-06	54.468	257.081	147.800	150.222	71.549	235.495	250.098	71.491	76.508	239.857	208.693	75.790	80.864	81.519	85.098	225.212	84.458	-8191	255	
25106.627	1	1	0	0	0.25956	0.26611	0.183	0.13254	0.22213	0.16174	0.27325	0.16388	0.20242	0.19743	0.1976	0.24816	0.30522	0.064959	0.13596	0.05523	-2.9146	-2.8229	-3.4417	-3.2667	-2.7604	-3.4813	-3.1	-3.2938	-3.2604	-2.7958	-3.2854	-3.3021	-2.7396	-3.5542	-2.8604	-3.0604	292.982	385.310	60.164	104.639	332.372	90.149	329.009	379.938	72.276	326.393	344.454	382.755	145.392	344.376	339.153	303.071	0.00063438	0.00065814	0.0001234	1392.4	7.6502e-06	7.3241e-06	1392.3	378.86	9.0766e-06	4.6675e-06	430.59	144.41	126.37	42.838	7.312e-06	53.142	0.00040802	0.00035936	9.6208e-05	1417.5	3.9509e-06	3.8569e-06	1414.1	386.16	3.8584e-06	3.9247e-06	438.6	147.06	129.11	44.113	3.9409e-06	54.576	260.104	155.415	165.157	71.422	219.437	211.183	71.435	76.466	248.528	177.823	75.719	80.569	80.776	85.312	218.953	84.188	-8191	255	
25106.723	1	1	0	0	0.17052	0.060062	0.2803	0.1842	0.032483	0.21194	0.17515	0.32541	0.07751	0.1309	0.13462	0.028604	0.079502	0.094085	0.26925	0.033327	-3.175	-2.8146	-3.1896	-3.5104	-2.8792	-3.4854	-3.2562	-3.0875	-3.5667	-2.925	-3.3604	-3.3333	-2.825	-3.5083	-2.9646	-3.0458	136.343	128.504	108.636	319.512	353.349	284.493	330.652	349.614	335.262	288.021	407.911	301.428	304.477	98.752	244.897	308.903	0.00060003	0.00044146	0.00014123	1391.8	8.0084e-06	5.9739e-06	1390.3	378.57	5.523e-06	6.3398e-06	431.31	143.74	125.41	42.802	7.5642e-06	52.753	0.00040761	0.0003555	9.6649e-05	1418.9	3.8895e-06	3.9134e-06	1414	385.8	3.8449e-06	3.8613e-06	438.94	146.91	128.46	44.111	3.9054e-06	54.341	260.744	159.513	131.472	71.574	202.482	216.291	71.469	76.507	262.989	204.141	75.811	80.748	81.240	85.085	223.132	84.289	-8191	255	
25106.818	1	1	0	0	0.13493	0.12234	0.23414	0.26524	0.18685	0.17789	0.2477	0.20613	0.091767	0.18239	0.028553	0.21244	0.055138	0.25561	0.22168	0.20553	-3.2396	-2.8271	-3.1937	-3.4208	-2.5979	-3.4021	-3.3167	-2.9417	-3.4938	-2.8354	-3.1521	-3.6417	-2.9792	-3.475	-3.2583	-2.7479	67.312	385.651	85.376	110.314	245.395	385.603	362.108	344.057	216.677	274.018	158.831	365.904	310.114	374.264	405.478	333.886	0.00065556	0.00042691	7.48e-05	1388.1	8.8895e-06	6.3427e-06	1394	376.9	8.5844e-06	6.2049e-06	430.66	144.46	126.12	43.021	7.0889e-06	53.237	0.00041922	0.00035407	9.8342e-05	1418.1	3.966e-06	3.8183e-06	1414.8	385.5	3.8754e-06	3.8652e-06	438.41	146.93	128.8	44.17	3.8096e-06	54.458	264.820	138.469	161.481	71.531	224.473	218.961	71.383	76.337	250.923	207.032	75.843	80.529	80.860	85.102	231.676	84.404	-8191	255	
25106.939	1	1	0	0	0.10624	0.08952	0.055271	0.37216	0.15272	0.096415	0.18009	0.11268	0.23254	0.058765	0.12147	0.14256	0.20482	0.15778	0.17664	0.22478	-2.8542	-2.8771	-2.8979	-3.5542	-2.8208	-3.4271	-3.5917	-2.9792	-3.5208	-3.0854	-3.0896	-3.5917	-2.9271	-3.3646	-3.2417	-3.1021	394.202	102.212	258.383	387.245	293.364	407.325	410.691	345.172	82.687	311.800	318.767	387.866	297.074	338.639	81.558	379.353	0.00066992	0.00041781	0.00016362	1400.2	8.874e-06	6.4136e-06	1392.1	376.82	6.5287e-06	5.7741e-06	429.5	143.46	125.13	42.241	4.2729e-06	52.936	0.00041225	0.00035111	9.8503e-05	1419.9	3.952e-06	3.7855e-06	1413.1	385.77	3.9227e-06	3.8203e-06	439.08	146.84	128.68	43.957	3.7451e-06	54.44	265.046	145.774	147.048	71.367	243.369	223.422	71.557	76.260	233.541	218.926	75.950	80.716	81.160	85.507	235.762	84.450	-8191	255	
25107.035	1	1	0	0	0.15766	0.085803	0.24064	0.1585	0.19775	0.061431	0.10948	0.4142	0.13302	0.30698	0.17194	0.21261	0.25859	0.074278	0.15662	0.21246	-3.1354	-3.0979	-2.9708	-3.6792	-2.7542	-3.3458	-3.8729	-2.9396	-3.4604	-3.0854	-2.9167	-3.6417	-3.0812	-3.2	-3.4875	-2.8729	264.505	91.345	398.217	400.900	177.556	324.468	371.386	342.564	277.935	385.016	305.390	377.325	119.918	208.085	194.209	383.959	0.00063078	0.0006544	0.00013612	1392.9	6.2042e-06	7.5067e-06	1399.3	379.2	6.4278e-06	5.4649e-06	429.24	143.58	125.45	42.743	6.1061e-06	52.755	0.00041697	0.00035663	9.997e-05	1420.5	3.9879e-06	3.8435e-06	1417.7	385.75	3.9383e-06	3.792e-06	438.87	146.94	128.54	44.021	3.7865e-06	54.233	261.086	160.579	163.509	71.397	249.065	218.781	71.529	76.493	249.961	198.475	75.592	80.831	81.192	85.053	225.277	84.252	-8191	255	
25107.133	1	1	0	0	0.17108	0.092932	0.22417	0.33275	0.25204	0.072544	0.16004	0.19349	0.1834	0.098889	0.10683	0.19287	0.31425	0.17278	0.21165	0.33352	-3.0354	-3.1458	-2.8521	-3.6542	-2.9021	-3.1708	-3.7208	-3.0146	-3.4896	-3.2458	-3.125	-3.6521	-2.9208	-2.9479	-3.2854	-3.0458	146.338	383.232	129.860	373.068	145.649	292.661	67.806	366.013	400.730	114.908	135.216	372.838	107.550	347.228	104.003	315.983	0.00063768	0.00042447	0.00011801	1389.6	7.9177e-06	6.2667e-06	1385.4	376.73	5.6407e-06	3.0974e-06	430.86	143.76	125.16	42.554	7.6359e-06	52.864	0.00041383	0.00034203	9.7342e-05	1419.3	4.0522e-06	3.9639e-06	1413.6	385.29	3.9758e-06	3.8322e-06	438.73	146.95	128.66	44.065	3.8762e-06	54.262	258.330	152.271	144.946	71.814	223.954	203.473	71.705	76.623	247.041	202.474	75.733	80.651	80.894	85.349	230.171	84.676	-8191	255	
25107.229	1	1	0	0	0.20243	0.12926	0.24999	0.24523	0.12911	0.05426	0.088239	0.12963	0.12789	0.21338	0.093386	0.20189	0.15931	0.056811	0.15321	0.089739	-3	-3.1917	-2.7542	-3.7375	-2.8604	-3.0229	-3.9229	-3.075	-3.2354	-3.2	-2.7812	-3.6188	-3.1729	-2.9771	-3.6854	-3.0208	96.712	322.742	67.824	396.491	193.493	318.358	367.515	197.054	186.267	147.768	311.103	66.232	406.278	143.566	385.762	355.554	0.00064379	0.00053268	0.00014173	1383.3	5.675e-06	3.9784e-06	1376.7	371.92	5.7225e-06	5.6189e-06	421.48	141.69	123.69	42.16	5.9554e-06	52	0.00041557	0.00035505	0.0001011	1417.1	3.9136e-06	3.8693e-06	1411.5	384.05	4.0128e-06	3.7669e-06	436.97	146.58	128.44	43.947	3.9227e-06	54.175	261.652	168.632	166.934	71.771	201.474	223.966	71.817	76.505	251.257	206.288	76.132	81.339	81.593	85.476	212.580	84.301	-8191	255	
#DATA ENDS
