BOXY.EXE: ISS Imagent and Oximeter Data Acquisition Program Version 0.80
Ascii Record File

#ACQ INFORMATION
2  Detector Channels 
16  External MUX Channels 
1  Auxiliary Channels 
5000  Waveform (CCF) Frequency (Hz)
1  Waveforms Skipped 
30  Waveforms Averaged 
1  Cycles Averaged 
16  Acquisitions per Waveform 
10.0806  Updata Rate (Hz) 

#FILE INFORMATION
TRUE -- External MUX Channel results are PARSED.
FALSE -- AC DC and Phase are NOT grouped.
TRUE -- Companion Program Settings File CREATED.
FALSE -- AC data not excluded
FALSE -- DC data not excluded
FALSE -- Phase data not excluded
FALSE -- Auxillary Chn. data not excluded
Tab delimiters

#CALIBRATION STATE
TRUE -- Waveform Calibration Values APPLIED.


#AUX CALIBRATION VALUES
Val Type	aux-1	

Term	1.0000e+00	
Factor	0.0000e+00	


#WF CALIBRATION VALUES
A = Detector Channel
Val Type	A-AC1	A-AC2	A-AC3	A-AC4	A-AC5	A-AC6	A-AC7	A-AC8	A-AC9	A-AC10	A-AC11	A-AC12	A-AC13	A-AC14	A-AC15	A-AC16	A-DC1	A-DC2	A-DC3	A-DC4	A-DC5	A-DC6	A-DC7	A-DC8	A-DC9	A-DC10	A-DC11	A-DC12	A-DC13	A-DC14	A-DC15	A-DC16	A-Ph1	A-Ph2	A-Ph3	A-Ph4	A-Ph5	A-Ph6	A-Ph7	A-Ph8	A-Ph9	A-Ph10	A-Ph11	A-Ph12	A-Ph13	A-Ph14	A-Ph15	A-Ph16	

Term	0.00000e+00	0.00000e+00	0.00000e+00	0.00000e+00	0.00000e+00	0.00000e+00	0.00000e+00	0.00000e+00	0.00000e+00	0.00000e+00	0.00000e+00	0.00000e+00	0.00000e+00	0.00000e+00	0.00000e+00	0.00000e+00	0.00000e+00	0.00000e+00	0.00000e+00	0.00000e+00	0.00000e+00	0.00000e+00	0.00000e+00	0.00000e+00	0.00000e+00	0.00000e+00	0.00000e+00	0.00000e+00	0.00000e+00	0.00000e+00	0.00000e+00	0.00000e+00	0.00000e+00	0.00000e+00	0.00000e+00	0.00000e+00	0.00000e+00	0.00000e+00	0.00000e+00	0.00000e+00	0.00000e+00	0.00000e+00	0.00000e+00	0.00000e+00	0.00000e+00	0.00000e+00	0.00000e+00	0.00000e+00	
Factor	1.00000e+00	1.00000e+00	1.00000e+00	1.00000e+00	1.00000e+00	1.00000e+00	1.00000e+00	1.00000e+00	1.00000e+00	1.00000e+00	1.00000e+00	1.00000e+00	1.00000e+00	1.00000e+00	1.00000e+00	1.00000e+00	1.00000e+00	1.00000e+00	1.00000e+00	1.00000e+00	1.00000e+00	1.00000e+00	1.00000e+00	1.00000e+00	1.00000e+00	1.00000e+00	1.00000e+00	1.00000e+00	1.00000e+00	1.00000e+00	1.00000e+00	1.00000e+00	X	X	X	X	X	X	X	X	X	X	X	X	X	X	X	X	

B = Detector Channel
Val Type	B-AC1	B-AC2	B-AC3	B-AC4	B-AC5	B-AC6	B-AC7	B-AC8	B-AC9	B-AC10	B-AC11	B-AC12	B-AC13	B-AC14	B-AC15	B-AC16	B-DC1	B-DC2	B-DC3	B-DC4	B-DC5	B-DC6	B-DC7	B-DC8	B-DC9	B-DC10	B-DC11	B-DC12	B-DC13	B-DC14	B-DC15	B-DC16	B-Ph1	B-Ph2	B-Ph3	B-Ph4	B-Ph5	B-Ph6	B-Ph7	B-Ph8	B-Ph9	B-Ph10	B-Ph11	B-Ph12	B-Ph13	B-Ph14	B-Ph15	B-Ph16	

Term	0.00000e+00	0.00000e+00	0.00000e+00	0.00000e+00	0.00000e+00	0.00000e+00	0.00000e+00	0.00000e+00	0.00000e+00	0.00000e+00	0.00000e+00	0.00000e+00	0.00000e+00	0.00000e+00	0.00000e+00	0.00000e+00	0.00000e+00	0.00000e+00	0.00000e+00	0.00000e+00	0.00000e+00	0.00000e+00	0.00000e+00	0.00000e+00	0.00000e+00	0.00000e+00	0.00000e+00	0.00000e+00	0.00000e+00	0.00000e+00	0.00000e+00	0.00000e+00	-2.07275e+01	-1.32847e+02	-1.52787e+02	-1.83875e+02	-6.77554e+01	-5.54330e+01	-1.56919e+02	-1.62015e+02	-3.22664e+01	-7.99954e+01	-1.74562e+02	-1.70840e+02	-1.80437e+02	-1.77427e+02	-6.96928e+01	-1.50391e+02	
Factor	2.96057e-05	1.28999e-04	4.41538e-05	1.97066e-01	1.45415e-06	1.07368e-06	1.67062e-01	5.22067e-02	1.19540e-06	1.26644e-06	1.23098e-01	2.98311e-02	3.04790e-02	9.88491e-03	1.28029e-06	1.43348e-02	1.34528e-06	1.40145e-06	3.88201e-07	9.80757e-02	1.52263e-08	1.53501e-08	7.86761e-02	2.62170e-02	1.51695e-08	1.52930e-08	5.81304e-02	1.43474e-02	1.50814e-02	4.92209e-03	1.51770e-08	6.84804e-03	X	X	X	X	X	X	X	X	X	X	X	X	X	X	X	X	



#DISTANCE SETTINGS
A = Detector Channel
A-1	A-2	A-3	A-4	A-5	A-6	A-7	A-8	A-9	A-10	A-11	A-12	A-13	A-14	A-15	A-16	

2.5000e+00	3.0000e+00	2.5000e+00	3.0000e+00	2.0000e+00	3.0000e+00	1.5000e+00	3.0000e+00	3.0000e+00	3.0000e+00	3.0000e+00	3.0000e+00	3.0000e+00	3.0000e+00	1.5000e+00	3.0000e+00	

B = Detector Channel
B-1	B-2	B-3	B-4	B-5	B-6	B-7	B-8	B-9	B-10	B-11	B-12	B-13	B-14	B-15	B-16	

1.0000e+01	1.0000e+01	1.0000e+01	1.4400e+00	1.0000e+01	1.0000e+01	1.5100e+00	1.9400e+00	1.0000e+01	1.0000e+01	1.9900e+00	2.4900e+00	2.4100e+00	2.9000e+00	1.0000e+01	2.9800e+00	




#DATA BEGINS
time	group	step	mark	flag	A-AC1	A-AC2	A-AC3	A-AC4	A-AC5	A-AC6	A-AC7	A-AC8	A-AC9	A-AC10	A-AC11	A-AC12	A-AC13	A-AC14	A-AC15	A-AC16	A-DC1	A-DC2	A-DC3	A-DC4	A-DC5	A-DC6	A-DC7	A-DC8	A-DC9	A-DC10	A-DC11	A-DC12	A-DC13	A-DC14	A-DC15	A-DC16	A-Ph1	A-Ph2	A-Ph3	A-Ph4	A-Ph5	A-Ph6	A-Ph7	A-Ph8	A-Ph9	A-Ph10	A-Ph11	A-Ph12	A-Ph13	A-Ph14	A-Ph15	A-Ph16	B-AC1	B-AC2	B-AC3	B-AC4	B-AC5	B-AC6	B-AC7	B-AC8	B-AC9	B-AC10	B-AC11	B-AC12	B-AC13	B-AC14	B-AC15	B-AC16	B-DC1	B-DC2	B-DC3	B-DC4	B-DC5	B-DC6	B-DC7	B-DC8	B-DC9	B-DC10	B-DC11	B-DC12	B-DC13	B-DC14	B-DC15	B-DC16	B-Ph1	B-Ph2	B-Ph3	B-Ph4	B-Ph5	B-Ph6	B-Ph7	B-Ph8	B-Ph9	B-Ph10	B-Ph11	B-Ph12	B-Ph13	B-Ph14	B-Ph15	B-Ph16	aux-1	digaux	

3306.142	1	1	0	256	0.23808	0.038223	0.15675	0.10294	0.14497	0.23652	0.26458	0.082513	0.18405	0.079618	0.070109	0.14529	0.12688	0.047227	0.08603	0.12225	-2.1958	-2.8563	-3.1896	-2.6813	-3.3583	-3.0458	-2.7521	-3.4125	-2.7708	-2.8521	-3.4083	-2.6542	-3.2083	-3.1063	-2.6312	-3.4729	-48.465	-44.761	-30.178	101.582	-77.914	82.392	88.986	41.849	153.657	-79.365	-165.178	-125.583	170.450	-80.358	-80.504	180.309	0.00087294	0.0016243	0.00044961	559.04	5.1971e-06	1.0564e-05	816.19	181.92	4.3663e-06	7.062e-06	280.72	115.43	84.961	38.314	5.1273e-06	56.547	0.0011171	0.0010832	0.00028294	531.1	1.2908e-05	1.2142e-05	735.23	171.5	1.3398e-05	1.2255e-05	272.5	106.68	83.205	35.903	1.1321e-05	52.208	-64.461	-52.279	-153.192	-157.469	50.770	7.327	-159.343	-152.418	-10.793	130.815	-155.310	-151.040	-149.221	-143.985	31.845	-148.449	-8191	255	
3306.213	1	1	0	0	0.094122	0.10006	0.20306	0.22248	0.12529	0.1733	0.085695	0.1091	0.038204	0.10175	0.17203	0.22857	0.1049	0.15474	0.12874	0.094101	-2.4625	-2.7396	-3.2188	-2.6417	-3.1688	-2.9458	-2.6229	-3.4896	-2.725	-2.6854	-3.2917	-2.6437	-2.9729	-3.1063	-2.6375	-3.3583	43.198	-162.867	184.375	153.490	-113.284	113.857	79.933	-28.204	51.269	120.896	127.025	129.980	-79.665	140.677	4.158	-26.507	0.00056463	0.00095213	0.00034131	556.14	1.1257e-05	1.7062e-06	825.84	182.2	1.5373e-05	8.3146e-06	285.97	116.74	86.66	38.648	4.1991e-06	57.739	0.0012339	0.0011036	0.00028882	541.54	1.3061e-05	1.2072e-05	742.36	173.93	1.3064e-05	1.174e-05	273.36	108.31	83.425	35.886	1.1045e-05	53.159	-35.964	-24.115	-52.695	-157.714	-145.150	-52.679	-159.274	-152.327	-37.563	18.573	-155.671	-151.878	-149.410	-144.477	153.434	-148.753	-8191	255	
3306.334	1	1	0	0	0.27324	0.12944	0.037524	0.24933	0.0375	0.15532	0.40653	0.061281	0.043797	0.11316	0.24361	0.1029	0.24187	0.32518	0.17079	0.30033	-2.4	-2.6813	-3.2771	-2.5229	-3.0667	-3.3833	-2.7375	-3.3333	-2.9979	-2.5104	-3.3438	-2.7292	-2.8854	-3.2542	-2.5125	-3.3312	-167.654	-86.141	-125.003	150.523	182.478	-169.143	115.152	179.840	-52.070	45.660	-123.924	105.089	-142.289	178.787	13.690	-166.472	0.00039311	0.001837	0.00011081	560.18	1.157e-05	1.1041e-05	828.03	183.08	5.9465e-06	9.9835e-06	284.95	117.41	85.038	38.36	6.8122e-06	57.446	0.0012192	0.0010921	0.00029989	552.8	1.3021e-05	1.2349e-05	747.36	176.07	1.3126e-05	1.1606e-05	275.82	109.9	82.57	35.697	1.1387e-05	53.178	-59.866	-78.829	45.047	-158.287	82.212	16.714	-159.824	-152.434	105.822	-43.345	-155.336	-151.359	-148.457	-144.218	9.172	-148.394	-8191	255	
3306.430	1	1	0	0	0.10342	0.10583	0.070392	0.10995	0.13337	0.025935	0.27588	0.10752	0.040125	0.079695	0.18639	0.20115	0.12612	0.34393	0.30582	0.16616	-2.6208	-2.4646	-3.375	-2.6333	-2.8646	-3.4833	-2.6188	-3.1292	-2.9583	-2.6417	-3.3563	-2.8292	-2.775	-3.4562	-2.55	-3.1271	-131.596	175.842	39.704	136.298	-110.499	-28.240	164.353	12.596	-83.262	-34.852	-138.587	155.722	-163.499	-147.439	140.022	102.875	0.00068192	0.00070815	0.00054074	565.5	1.4526e-05	1.5019e-05	827.54	183.65	5.1741e-06	1.4691e-05	284.18	117.85	86.533	39.059	7.4268e-06	57.996	0.001145	0.0010594	0.00030435	555.97	1.2419e-05	1.1905e-05	750.13	177.79	1.2553e-05	1.1405e-05	279.68	109.63	82.563	35.929	1.2418e-05	53.524	-74.055	-29.239	24.438	-158.318	-10.981	56.837	-159.813	-152.211	117.599	-59.372	-154.978	-151.213	-149.156	-144.195	-133.097	-148.248	-8191	255	
3306.526	1	1	0	0	0.095555	0.065198	0.17571	0.20581	0.14994	0.13742	0.20421	0.32282	0.36176	0.3418	0.038148	0.091139	0.19976	0.1377	0.31179	0.29826	-2.7313	-2.3812	-3.4625	-3.0021	-2.7875	-3.475	-2.6083	-3.1167	-3.1875	-2.65	-3.2854	-2.8896	-2.7667	-3.4688	-2.7729	-3.0125	-128.542	43.615	-119.437	-137.081	160.747	-0.835	88.518	186.024	-65.975	166.749	94.841	177.912	154.825	122.839	-97.939	71.928	0.0010121	0.00040198	0.00033344	567.84	5.6302e-06	9.3937e-06	831.28	183.5	1.3003e-05	5.9495e-06	288.08	118.53	86.92	39.061	7.9337e-06	57.804	0.0011253	0.0010273	0.00033043	557.72	1.2118e-05	1.1928e-05	758.53	177.05	1.2507e-05	1.1456e-05	285.69	110.83	83.299	36.189	1.3726e-05	53.661	-65.451	-62.772	103.067	-157.557	183.233	-45.720	-159.861	-152.618	-168.477	12.482	-154.870	-151.625	-149.323	-144.293	-55.788	-148.633	-8191	255	
3306.622	1	1	0	0	0.095771	0.013268	0.065993	0.068746	0.2306	0.14411	0.11508	0.034376	0.15295	0.096584	0.02035	0.12737	0.16058	0.21283	0.056452	0.051897	-2.8812	-2.7146	-3.1688	-2.9813	-2.7146	-3.3583	-2.5792	-2.8521	-3.3104	-2.3979	-3.0333	-3.0958	-2.675	-3.6375	-2.7708	-2.9792	74.981	65.723	-88.824	39.635	61.191	-72.211	144.786	-170.300	128.292	86.919	73.450	-44.993	14.548	90.257	188.144	63.787	0.00071826	0.00047257	0.0005576	567.26	6.8425e-06	8.3302e-06	830.21	185.51	5.5206e-06	1.3881e-05	289.61	116.87	86.68	38.792	2.9355e-05	58.129	0.0011487	0.0010824	0.00036714	556.63	1.2266e-05	1.266e-05	765.4	177.03	1.2791e-05	1.2491e-05	288.95	109.64	82.819	36.271	1.4585e-05	53.256	-51.589	115.151	-92.989	-157.867	-90.644	-23.919	-159.951	-152.434	-125.628	-82.354	-155.006	-151.879	-149.460	-144.153	25.411	-148.740	-8191	255	
3306.743	1	1	0	0	0.24418	0.12536	0.17453	0.056827	0.084012	0.05924	0.3749	0.17682	0.21618	0.06974	0.14065	0.073576	0.28198	0.18996	0.1615	0.44593	-2.8854	-2.5396	-3.2958	-2.9917	-2.5938	-3.325	-2.8479	-2.8396	-3.1875	-2.625	-3.2562	-3.2146	-2.6104	-3.4396	-2.8833	-2.8229	111.382	-135.446	-48.162	2.166	114.685	150.232	55.635	128.201	-63.575	-157.335	34.762	-91.488	95.219	97.870	96.683	155.022	0.00084112	0.0009713	0.00032262	566.95	1.7499e-05	6.9761e-06	822.66	184.85	8.2547e-06	1.5399e-05	286.77	117.92	87.246	38.656	1.0512e-05	57.576	0.0011407	0.0011936	0.00037822	554.57	1.2418e-05	1.3986e-05	765.05	176.9	1.3206e-05	1.4189e-05	290.11	110.53	83.165	36.769	1.499e-05	53.379	-57.678	-135.207	-165.681	-157.496	9.878	-113.158	-159.730	-152.346	189.484	-124.987	-154.884	-151.539	-149.687	-144.003	-1.747	-148.596	-8191	255	
3306.815	1	1	0	0	0.13905	0.056008	0.088419	0.086636	0.11499	0.17646	0.12711	0.022122	0.29244	0.059395	0.31548	0.22136	0.051827	0.10322	0.25697	0.30986	-3.0042	-2.7313	-3.1229	-3.3229	-2.6771	-3.3563	-3.0062	-2.725	-3.4542	-2.65	-3.0812	-3.4875	-2.6042	-3.3312	-2.9208	-2.7354	180.138	-90.736	-115.918	115.062	155.717	-92.847	-124.462	107.834	-145.860	-123.828	39.032	118.486	-44.578	-106.670	-68.436	-33.554	0.00089974	0.00089005	0.00014244	561.84	2.372e-05	4.3729e-06	826.57	186.28	1.1374e-05	1.5196e-05	290.91	118.43	86.834	39.208	2.906e-05	57.568	0.0011683	0.0013337	0.0003794	554.4	1.2766e-05	1.5454e-05	766.57	177.98	1.3397e-05	1.541e-05	290.43	110.95	84.109	37.317	1.5219e-05	53.602	-33.375	-120.073	-164.268	-157.895	-73.700	-107.989	-159.573	-152.357	-61.372	-84.343	-154.070	-151.904	-149.245	-144.440	-27.253	-148.576	-8191	255	
3306.911	1	1	0	0	0.13105	0.17211	0.079282	0.17448	0.10343	0.21715	0.2431	0.081447	0.14014	0.22701	0.14702	0.11869	0.19775	0.069913	0.21157	0.15763	-3.0292	-2.6083	-2.8708	-3.4	-2.5438	-3.1354	-3.1833	-2.6771	-3.4292	-2.85	-2.9562	-3.4729	-2.8042	-3.1417	-3.1458	-2.8187	110.212	124.810	93.541	150.339	-27.176	106.496	116.039	-141.410	59.854	159.936	56.864	76.047	181.286	-34.933	-100.527	-131.605	0.00095709	0.0016697	0.00032473	561.93	2.2222e-05	7.0562e-06	825.74	184.37	1.5114e-05	1.3655e-05	286.83	118.07	86.983	38.931	1.5335e-05	57.913	0.0012562	0.0014867	0.00038224	557.4	1.3966e-05	1.6691e-05	768.49	178.24	1.528e-05	1.7228e-05	290.99	111.61	86.378	37.903	1.595e-05	53.934	-65.528	110.955	80.511	-157.517	94.645	-32.752	-159.518	-152.241	-94.282	-102.969	-154.913	-151.473	-149.345	-144.236	34.800	-148.815	-8191	255	
3307.007	1	1	0	0	0.027746	0.122	0.089838	0.11423	0.077126	0.15062	0.24712	0.13163	0.16207	0.052456	0.20557	0.28671	0.087194	0.16769	0.057554	0.13083	-3.1104	-2.7917	-2.8917	-3.4188	-2.8521	-3.0104	-3.0708	-2.6708	-3.2479	-2.9646	-2.8104	-3.5042	-2.5146	-3.1771	-3.3021	-2.6583	44.552	46.367	11.892	116.949	146.142	141.601	163.872	-110.234	-14.655	-11.462	-140.193	86.020	174.445	-131.710	-9.002	186.565	0.0011045	0.0018144	0.00062891	557.48	1.4582e-05	7.533e-06	817.03	184.89	1.0807e-05	4.7877e-06	286.92	118.31	86.175	38.939	1.4254e-05	57.787	0.0014594	0.0016274	0.00039821	556.56	1.5778e-05	1.6868e-05	760.04	177.43	1.6055e-05	1.6768e-05	287.71	111.21	87.194	37.686	1.5776e-05	53.741	-66.391	-162.005	-61.218	-157.706	181.169	-71.993	-159.717	-152.448	-143.581	49.970	-154.984	-151.584	-149.974	-144.365	-60.998	-148.820	-8191	255	
3307.126	1	1	0	0	0.23126	0.043112	0.17708	0.32889	0.067432	0.30008	0.096434	0.31543	0.15027	0.13388	0.15341	0.23739	0.33235	0.12417	0.20022	0.084148	-2.8812	-2.8937	-2.8125	-3.3958	-2.6229	-3.1125	-3.4125	-2.5146	-3.3542	-2.9646	-2.6396	-3.3771	-2.8	-3.15	-3.2354	-2.6854	12.335	99.897	-32.393	56.499	40.757	-118.215	175.045	80.468	-163.090	33.551	129.690	-30.996	-100.481	189.644	-106.725	35.730	0.00096106	0.0013443	0.00017651	558.15	7.6491e-06	1.9417e-06	812.83	183.59	1.1465e-05	1.6888e-05	286	118.57	86.656	38.725	1.159e-05	57.358	0.0015796	0.0016402	0.00040656	565.27	1.874e-05	1.8245e-05	767.37	181.32	1.9292e-05	1.8474e-05	294.73	113.43	89.909	37.863	1.6372e-05	54.768	-59.250	-128.376	-130.234	-157.494	30.834	45.687	-159.526	-152.181	-10.670	17.024	-155.307	-151.422	-149.590	-144.075	-105.219	-148.740	-8191	255	
3307.222	1	1	0	0	0.11397	0.11041	0.25725	0.045031	0.27276	0.21032	0.14251	0.32501	0.14877	0.34575	0.20898	0.1301	0.21089	0.14274	0.12665	0.25427	-2.8146	-2.9667	-2.5833	-3.4792	-2.5875	-3.0229	-3.2167	-2.5771	-3.1625	-3.0812	-2.6188	-3.4208	-2.9313	-2.6688	-3.4292	-2.7313	95.589	115.363	166.539	156.663	-156.587	61.579	-160.435	142.187	-6.277	-42.898	-90.213	31.317	14.737	-118.619	64.372	98.218	0.00084421	0.0012342	0.00018036	554.17	1.4728e-05	5.0592e-06	816.59	184.2	5.8023e-06	1.2905e-05	285.04	118.46	87.007	38.801	1.5651e-05	57.544	0.0016826	0.0015729	0.000392	567.1	1.8632e-05	1.6683e-05	763.88	182.17	1.8828e-05	1.7623e-05	290.65	114.36	90.697	37.77	1.6834e-05	55.664	-36.354	-0.023	-24.096	-157.490	-59.277	-166.115	-159.651	-152.144	-136.835	186.125	-154.606	-151.709	-149.418	-144.097	-16.623	-148.513	-8191	255	
3307.318	1	1	0	0	0.17415	0.085567	0.19691	0.21402	0.19388	0.11774	0.12265	0.16288	0.17747	0.19539	0.14686	0.20616	0.1748	0.14138	0.091751	0.18874	-2.8208	-3.1292	-2.4875	-3.5563	-2.8292	-2.8667	-3.5771	-2.8104	-3.1188	-3.2729	-2.7083	-3.2625	-3.0375	-2.7792	-3.3833	-2.8417	-14.264	95.460	-112.984	-98.139	-47.117	-102.793	54.822	79.827	152.824	132.947	116.873	-139.122	138.036	174.907	-99.641	125.205	0.00089093	0.0013416	0.00037667	547.87	1.3964e-05	1.0568e-05	809.8	181.25	1.9753e-05	1.0392e-05	284.24	117.44	86.891	38.386	1.6216e-05	57.299	0.001746	0.0016411	0.00040817	576.12	1.9113e-05	1.6505e-05	759	183.51	1.7826e-05	1.675e-05	289.07	114.07	89.064	37.053	1.5862e-05	55.121	-33.350	-8.772	-105.574	-157.628	89.443	117.819	-159.789	-152.367	81.876	-31.559	-154.113	-152.110	-149.370	-143.976	-139.136	-148.140	-8191	255	
3307.414	1	1	0	0	0.14253	0.11594	0.15616	0.073325	0.17827	0.18281	0.10643	0.095104	0.14646	0.23705	0.14349	0.11068	0.26236	0.03666	0.17099	0.17429	-2.5729	-3.1167	-2.5187	-3.3229	-3.0438	-2.6937	-3.5417	-2.8187	-3.1292	-3.3479	-2.6792	-3.0833	-3.1729	-2.7062	-3.4125	-2.7146	-105.690	-140.912	-156.876	-44.164	-97.564	-130.699	109.263	183.316	25.398	-54.662	42.801	80.326	-163.384	150.704	-58.365	84.064	0.00092039	0.0014361	0.00040087	556.78	1.6398e-05	5.3235e-06	810.63	183.21	7.6978e-06	6.9093e-06	283.11	117.83	85.73	38.596	1.7445e-05	57.706	0.0015428	0.0014712	0.00039039	576.94	1.6905e-05	1.5087e-05	756.8	182.78	1.5844e-05	1.4928e-05	286.41	113.31	86.18	36.701	1.5574e-05	55.107	-33.994	172.842	-27.272	-157.263	-25.329	-18.816	-159.715	-151.814	-37.692	49.978	-154.585	-151.385	-148.686	-143.793	-76.674	-148.621	-8191	255	
3307.510	1	1	0	0	0.2322	0.12015	0.067663	0.20981	0.36705	0.30191	0.41259	0.19391	0.2216	0.15057	0.20228	0.12378	0.075944	0.18844	0.10285	0.36136	-2.4521	-3.3958	-2.6896	-3.2729	-3.1854	-2.5208	-3.3896	-2.8833	-2.8583	-3.3729	-2.6333	-3.2583	-3.4021	-2.7583	-3.4104	-3.0354	73.270	49.503	106.794	162.551	-119.959	-119.879	157.602	81.770	173.044	-35.763	-164.202	132.556	-108.431	159.956	8.340	135.918	0.0011464	0.00048957	0.0011244	555	8.5329e-06	5.0902e-06	815.7	182.35	1.3546e-05	1.9644e-05	284.46	118.06	85.709	38.57	2.3102e-05	57.248	0.0014166	0.0013844	0.00040644	577.48	1.5939e-05	1.4591e-05	765.47	182.67	1.5099e-05	1.4767e-05	291.13	112.73	85.469	36.444	1.6163e-05	54.266	-51.635	-12.802	-169.031	-156.856	-21.648	-25.014	-159.410	-151.983	107.424	79.199	-154.737	-151.484	-149.253	-143.588	-103.791	-148.229	-8191	255	
3307.607	1	1	0	0	0.23077	0.038356	0.18576	0.055518	0.20418	0.24784	0.11878	0.1558	0.053016	0.074738	0.10051	0.14352	0.19508	0.0819	0.090233	0.11858	-2.2438	-3.4313	-2.6	-2.9917	-3.3229	-2.6021	-3.4479	-3.0312	-2.7479	-3.4313	-2.7313	-3.2562	-3.3521	-2.5167	-3.4917	-3.1937	171.189	78.862	60.728	-88.781	95.731	-13.700	127.361	170.231	3.804	90.045	-114.956	55.665	-59.719	-149.295	111.563	44.209	0.00063466	0.0008304	0.00046157	557.73	4.6743e-06	5.618e-06	815.32	181.58	1.9758e-05	1.631e-06	283.07	117.94	86.252	38.697	1.9576e-05	57.163	0.0013143	0.0013287	0.00041458	564.11	1.4977e-05	1.392e-05	762.99	180.2	1.4241e-05	1.4397e-05	293.2	111.37	85.189	36.605	1.6528e-05	54.187	-61.158	156.585	174.465	-158.168	-158.313	188.738	-159.795	-151.870	11.141	11.332	-154.769	-151.761	-149.007	-144.048	-67.595	-148.526	-8191	255	
3307.727	1	1	0	0	0.097121	0.144	0.16635	0.088907	0.1898	0.14278	0.19334	0.083204	0.12871	0.20897	0.20369	0.076218	0.063742	0.24508	0.040136	0.23803	-2.4146	-3.425	-2.9208	-2.8354	-3.2729	-2.6208	-3.2104	-3.1208	-2.5729	-3.5729	-2.8812	-2.9958	-3.3917	-2.6542	-3.2417	-3.2583	153.308	-30.092	-141.190	101.992	107.371	83.209	117.094	173.884	73.952	-91.862	92.041	-116.466	-89.137	-120.949	32.351	-169.008	0.00073956	0.0016637	0.00033927	554.02	6.5745e-06	6.2961e-06	820.68	185.06	8.9391e-06	1.4229e-05	289.3	119.26	86.999	38.979	5.7662e-06	57.936	0.0012553	0.0013501	0.00042855	558.91	1.4566e-05	1.4484e-05	767.13	180.04	1.3709e-05	1.4992e-05	295.9	112.03	85.608	37.144	1.6893e-05	54.688	-45.322	-121.476	-50.104	-156.880	-124.667	-82.833	-159.354	-152.311	17.033	-109.194	-154.627	-151.191	-149.044	-144.021	-91.029	-148.100	-8191	255	
3307.823	1	1	0	0	0.20675	0.10934	0.16509	0.071667	0.25644	0.14367	0.15362	0.046093	0.1558	0.32583	0.19588	0.1158	0.068036	0.029005	0.093652	0.14124	-2.1813	-3.3854	-2.8812	-2.9917	-3.3875	-2.7875	-3.2521	-3.3604	-2.5542	-3.3979	-2.6854	-2.7854	-3.4354	-2.4125	-3.1583	-3.2812	-94.982	127.553	118.358	158.694	23.635	-73.491	-97.802	146.656	127.346	64.249	52.577	-166.079	-58.642	-144.933	142.734	108.651	0.00076534	0.0018242	0.00061321	552.77	8.8193e-06	6.6225e-06	818.81	184.33	1.5856e-06	4.2765e-06	285.72	119.89	86.326	39.046	1.4636e-05	58.276	0.001279	0.0014954	0.00044525	562.31	1.5165e-05	1.6668e-05	772	181.08	1.4587e-05	1.6979e-05	297.38	112.2	85.544	37.737	1.6071e-05	54.383	-23.415	167.648	-160.518	-157.449	171.601	-164.296	-159.110	-152.150	-13.516	80.688	-154.597	-151.026	-149.022	-143.718	-53.288	-148.597	-8191	255	
3307.919	1	1	0	0	0.025995	0.23783	0.095302	0.29657	0.13494	0.15793	0.305	0.3312	0.14524	0.20951	0.037297	0.37068	0.038494	0.24952	0.16284	0.01117	-2.1479	-3.3458	-2.9333	-2.7833	-3.3771	-2.8604	-3.1375	-3.4521	-2.4958	-3.3792	-3.0521	-2.575	-3.5125	-2.8979	-2.9583	-3.3875	-33.594	103.905	93.281	-101.780	-95.543	-30.979	149.770	40.673	28.043	141.264	7.532	162.230	-148.572	134.228	-93.436	127.136	0.0011032	0.00079681	0.00041228	560.19	8.7793e-06	6.2632e-06	821.01	184.66	4.3558e-06	6.517e-06	288.41	119.67	86.898	39.168	4.1158e-06	58.222	0.0012397	0.0015195	0.00040339	555.08	1.4193e-05	1.6699e-05	763.26	179.01	1.413e-05	1.6869e-05	293.46	111.43	86.191	37.841	1.5331e-05	54.349	-78.377	-51.061	5.891	-157.394	-160.141	142.540	-159.138	-151.543	68.154	-4.229	-154.464	-151.415	-148.861	-143.525	13.768	-148.411	-8191	255	
3308.016	1	1	0	0	0.14452	0.14564	0.078256	0.1505	0.16492	0.024839	0.27369	0.26101	0.092515	0.15649	0.12213	0.24097	0.18815	0.069003	0.036203	0.14171	-2.325	-3.2104	-2.9667	-2.5792	-3.3396	-2.7958	-2.8937	-3.3042	-2.4646	-3.2729	-2.9896	-2.5021	-3.5542	-2.9146	-2.6854	-3.5854	64.800	-85.512	125.979	-131.825	188.548	-145.909	73.091	167.437	-114.704	38.008	30.024	119.806	-163.765	-163.529	-148.374	108.111	0.001069	0.00045901	0.00015131	560.78	3.5592e-06	9.4058e-06	820	184.18	8.4936e-06	1.3472e-05	291.28	118.69	88.472	39.286	6.6064e-06	58.573	0.0013164	0.0015628	0.00039699	552.26	1.5316e-05	1.7074e-05	759.63	178.87	1.4865e-05	1.6366e-05	290.95	110.8	86.837	37.693	1.3864e-05	54.208	-78.459	-168.332	-107.946	-157.109	140.794	151.614	-159.106	-151.336	7.613	17.497	-154.812	-151.341	-148.977	-144.108	-110.260	-148.291	-8191	255	
3308.110	1	1	0	0	0.1117	0.069872	0.11059	0.1559	0.2146	0.064305	0.21215	0.050107	0.14904	0.17779	0.15928	0.22665	0.10131	0.086543	0.22569	0.19578	-2.2583	-3.1396	-3.125	-2.4188	-3.3354	-2.9604	-2.7292	-3.4104	-2.7458	-2.8292	-3.4313	-2.6042	-3.2812	-2.8979	-2.525	-3.4333	99.552	-156.557	33.247	-114.277	73.697	166.387	111.216	-75.206	-95.231	156.075	61.357	157.535	152.525	116.360	117.207	-163.650	0.00072937	0.0021822	0.00063153	562.8	8.9526e-06	1.242e-05	820.83	186.2	9.8095e-06	5.9925e-06	291.81	120.29	86.943	39.792	6.3205e-06	59.208	0.0013504	0.0014526	0.00037304	552.94	1.6276e-05	1.683e-05	761.88	181.32	1.6918e-05	1.675e-05	294.41	112.71	88.648	38.17	1.449e-05	54.773	-61.774	-98.417	-166.466	-157.373	170.299	-56.131	-158.867	-152.073	15.488	21.413	-154.708	-151.056	-148.811	-143.578	-38.830	-148.581	-8191	255	
3308.206	1	1	0	0	0.16971	0.042806	0.061345	0.10079	0.22002	0.20121	0.032871	0.17773	0.2626	0.14666	0.024843	0.12307	0.13104	0.098983	0.17565	0.17106	-2.2208	-2.9354	-3.3	-2.7979	-3.35	-2.9188	-2.6833	-3.4583	-2.5875	-2.8438	-3.0896	-2.5979	-3.325	-3.1292	-2.4938	-3.4188	58.626	83.943	20.174	-163.953	55.206	-134.574	24.310	123.265	-112.721	122.968	-31.912	187.116	173.418	180.843	-66.478	-14.764	0.0010548	0.0011279	8.9016e-05	556.33	1.8471e-05	8.5526e-06	810.06	185.52	3.1492e-06	1.1874e-05	289.59	120.05	88.469	39.593	1.4104e-05	59.058	0.0015091	0.0014485	0.00036764	552.11	1.6636e-05	1.5574e-05	752.18	181.34	1.6965e-05	1.5623e-05	291.74	113.77	90.215	38.064	1.5039e-05	55.789	-46.631	-71.225	-6.839	-157.070	14.695	170.215	-158.960	-151.725	-59.886	-14.053	-154.186	-150.903	-149.173	-143.684	-67.769	-148.202	-8191	255	
3308.302	1	1	0	0	0.13828	0.20181	0.12752	0.024731	0.13479	0.16335	0.089108	0.081326	0.17984	0.13053	0.17454	0.15201	0.14303	0.25968	0.092579	0.093293	-2.3146	-2.8625	-3.1771	-2.7083	-3.1437	-3.2104	-2.5896	-3.3854	-2.6917	-2.9208	-3.3646	-2.6417	-3.0687	-3.0833	-2.3646	-3.3646	-135.392	-50.049	53.826	-117.195	163.192	-53.860	-18.078	-130.655	186.174	49.736	184.232	158.642	-112.073	119.251	86.975	84.360	0.00059828	0.0006679	0.00060708	553.52	1.1059e-05	1.1667e-05	812.28	186.35	1.0683e-05	1.0379e-05	291.5	120.62	88.901	39.417	1.6818e-05	58.875	0.0016582	0.0015153	0.00040776	569.71	1.8491e-05	1.7098e-05	753.93	185.33	1.8268e-05	1.6211e-05	294.87	115.81	90.438	38.175	1.487e-05	56.128	-72.720	98.730	-33.018	-157.934	-130.916	23.788	-159.050	-151.633	-17.784	-13.588	-154.638	-150.979	-148.588	-143.163	-38.763	-148.221	-8191	255	
3308.398	1	1	0	0	0.17117	0.25558	0.091915	0.032988	0.20666	0.045195	0.11965	0.14986	0.21481	0.25151	0.09511	0.16841	0.10468	0.15353	0.12903	0.093262	-2.3417	-2.7125	-3.4583	-2.75	-3.0542	-3.3312	-2.5104	-3.2938	-2.8396	-2.6104	-3.3146	-2.6813	-3.1396	-3.3667	-2.5292	-3.1208	-61.976	98.771	-24.805	-158.492	-7.873	9.940	186.020	24.747	119.276	-147.473	1.662	94.321	103.667	186.985	129.745	148.608	0.00069716	0.0014174	0.00032206	553.63	8.6008e-06	9.9253e-06	807.54	186.89	1.324e-05	9.2859e-06	286.45	120.06	89.2	39.886	7.6943e-06	59.562	0.0015608	0.001415	0.00038971	572.08	1.703e-05	1.623e-05	751.96	187.41	1.7728e-05	1.5894e-05	296.96	117.41	90.838	38.664	1.6645e-05	57.597	-44.167	46.280	-131.976	-157.328	172.171	-112.870	-159.139	-151.430	84.986	-149.798	-154.933	-151.175	-148.935	-143.544	-62.381	-148.021	-8191	255	
3308.519	1	1	0	0	0.17808	0.067963	0.12249	0.22618	0.28054	0.20889	0.11728	0.067721	0.32651	0.14263	0.24169	0.17475	0.12794	0.093066	0.089864	0.39563	-2.6854	-2.4875	-3.3937	-2.8	-2.7854	-3.4396	-2.8187	-3.3292	-3.0042	-2.5	-3.3333	-2.9313	-2.8854	-3.5167	-2.5854	-3.2854	-110.986	-54.632	102.915	60.762	137.983	99.524	162.785	-63.612	-84.083	149.036	-167.641	125.628	183.929	31.242	44.603	68.395	0.00077271	0.00062806	0.00053445	547.56	1.9052e-05	5.1653e-06	800.72	186.04	1.3986e-05	7.5367e-06	290.77	120.77	88.599	39.434	1.4813e-05	58.854	0.0016551	0.0015424	0.00044544	583.8	1.7908e-05	1.7081e-05	755.07	188.59	1.7819e-05	1.6171e-05	301.91	117.61	89.779	38.351	1.7791e-05	56.929	-38.977	-9.422	134.931	-157.095	-34.968	-84.627	-159.055	-151.535	39.311	-129.265	-154.368	-151.209	-148.600	-143.646	-29.053	-148.433	-8191	255	
3308.615	1	1	0	0	0.13951	0.11425	0.20358	0.27253	0.077727	0.095849	0.15841	0.18172	0.073985	0.081299	0.26474	0.086795	0.1368	0.28207	0.081887	0.089846	-2.7458	-2.6646	-3.425	-3.0167	-2.8063	-3.5438	-2.65	-3.1646	-3.1625	-2.4979	-3.3896	-3.0563	-2.6771	-3.475	-2.5646	-3.2917	182.406	-115.470	-91.009	-161.607	-39.977	187.985	143.058	147.615	94.430	101.063	-104.087	-2.802	114.529	-124.687	63.357	45.130	0.00062551	0.0013225	0.00064346	540.65	2.7454e-05	9.933e-06	796.22	184.81	8.0845e-06	4.8379e-06	286.53	119.18	88.559	39.859	1.9914e-05	59.003	0.0016167	0.001519	0.00048591	579.58	1.7629e-05	1.7365e-05	759.24	188.11	1.811e-05	1.6849e-05	306.96	117.31	89.955	38.549	1.9502e-05	56.638	-42.019	109.203	169.725	-157.091	1.656	-0.976	-159.082	-151.336	-166.250	183.803	-154.649	-151.194	-148.714	-143.815	-148.715	-147.776	-8191	255	
3308.687	1	1	0	0	0.12521	0.14016	0.19137	0.15635	0.16817	0.14345	0.15725	0.093334	0.062496	0.21403	0.088745	0.045947	0.23837	0.17193	0.09103	0.22343	-2.8958	-2.4104	-3.3375	-2.9833	-2.6417	-3.4875	-2.825	-2.9542	-3.2583	-2.5271	-3.2333	-3.1437	-2.8083	-3.3812	-2.65	-3.0458	74.202	89.036	-70.329	166.404	-64.793	58.831	-3.816	-20.419	-2.488	92.436	38.624	73.232	184.673	-121.939	-65.392	-164.171	0.0007188	0.0016084	0.00041904	538.8	1.4661e-05	5.652e-06	790.54	186.07	1.1051e-05	9.8187e-06	286.38	118.37	89.558	39.89	5.3619e-07	58.306	0.0015968	0.0015244	0.00049452	569.08	1.6547e-05	1.7184e-05	760.19	186.27	1.7625e-05	1.7438e-05	309.64	116.45	89.829	39.021	2.1135e-05	56.508	-70.445	-62.661	20.977	-156.819	5.307	17.233	-158.890	-152.058	-46.960	-110.099	-154.724	-150.819	-148.385	-143.731	173.782	-147.608	-8191	255	
3308.808	1	1	0	0	0.31776	0.23931	0.32153	0.12563	0.19624	0.2069	0.26484	0.11361	0.15525	0.018545	0.20524	0.17912	0.22899	0.070395	0.10382	0.17826	-2.8625	-2.5542	-3.2479	-3.1188	-2.6437	-3.4292	-2.7729	-2.9792	-3.3146	-2.5833	-3.15	-3.2396	-2.7042	-3.4646	-2.8937	-2.8042	83.522	37.928	2.775	32.178	29.995	5.035	-125.893	171.355	146.884	-33.073	-108.537	118.738	-128.164	180.783	-147.312	52.167	0.00043288	0.00082614	0.00026541	539.57	1.0803e-05	1.564e-05	783.71	183.25	1.2458e-05	1.8981e-05	285.46	117.83	87.995	39.598	1.4504e-05	58.366	0.0016237	0.0016811	0.00052956	566.41	1.7004e-05	1.8738e-05	755.95	183.85	1.6947e-05	1.8158e-05	304.69	114.28	87.921	38.878	1.9312e-05	55.337	-34.265	184.919	180.792	-156.665	41.235	-152.409	-159.177	-151.255	-48.003	-121.010	-154.171	-151.307	-148.604	-143.289	89.717	-148.100	-8191	255	
3308.904	1	1	0	0	0.083967	0.10178	0.14003	0.064231	0.053905	0.11652	0.29508	0.16861	0.13031	0.22213	0.088103	0.079216	0.25462	0.16493	0.060202	0.18015	-2.8542	-2.6229	-2.9479	-3.1667	-2.5208	-3.3646	-3.0104	-2.7375	-3.4458	-2.7083	-3.1188	-3.3583	-2.6229	-3.3854	-3.0979	-2.7583	139.413	-112.369	85.923	-107.513	123.179	173.333	95.504	-22.937	-40.005	-101.759	105.075	-160.663	127.910	77.744	-114.913	116.175	0.0005652	0.0017379	0.00086	543.88	8.0902e-06	1.4276e-05	787.59	185.73	6.7538e-06	1.1258e-05	285.68	119.27	88.168	39.732	1.1292e-05	58.299	0.0014872	0.0017332	0.00048762	563.66	1.6333e-05	1.96e-05	754.07	183.88	1.7109e-05	1.9752e-05	303.35	114.44	88.597	39.35	1.88e-05	55.403	-40.825	64.844	-113.483	-157.238	176.498	135.580	-159.098	-150.939	62.939	-106.994	-154.794	-151.944	-149.331	-143.853	124.757	-148.752	-8191	255	
3309.000	1	1	0	0	0.20116	0.11187	0.13566	0.24492	0.067455	0.14228	0.06677	0.27624	0.19134	0.023729	0.17264	0.076123	0.15657	0.018858	0.20473	0.19166	-3.0083	-2.7521	-2.8167	-3.3542	-2.3646	-3.2667	-3.0938	-2.7125	-3.4771	-2.8021	-3.0833	-3.4896	-2.7479	-3.1813	-2.9646	-2.7229	178.540	58.753	53.166	156.398	-41.605	-65.274	-140.335	172.985	-94.038	-73.710	-149.387	99.386	112.648	189.179	5.389	-52.234	0.0010319	0.0020445	0.00032402	540.35	1.9379e-05	3.454e-06	796.32	184.59	1.6915e-05	8.9978e-06	283.94	119.44	89.098	39.668	7.4684e-06	58.042	0.0015254	0.0017868	0.00045359	556.87	1.6721e-05	1.9609e-05	752.72	181.96	1.7135e-05	1.9463e-05	298.15	113.92	89.108	39.135	1.7145e-05	54.823	-70.464	118.424	-167.432	-157.769	-134.770	84.330	-159.588	-151.723	-129.614	62.520	-154.989	-152.035	-149.939	-144.378	11.207	-148.675	-8191	255	
3309.096	1	1	0	0	0.13814	0.14934	0.25695	0.12983	0.20326	0.29151	0.2593	0.21974	0.096193	0.18777	0.10378	0.1015	0.050804	0.16823	0.12425	0.21374	-2.9917	-2.7521	-2.6396	-3.3917	-2.4688	-3.1146	-3.1688	-2.5771	-3.525	-2.8521	-2.9792	-3.425	-2.5646	-3.2229	-3.1958	-2.7729	32.426	89.035	-43.613	52.714	-11.966	-20.549	176.669	164.611	119.600	-50.531	-65.180	59.926	-9.557	170.787	133.136	136.515	0.00074697	0.00095303	0.00010976	542.12	6.6345e-06	1.4391e-05	791.33	184.5	5.2206e-06	7.0255e-06	287.41	119.01	88.168	39.596	1.6527e-05	58.456	0.0015682	0.0017302	0.00042114	555.69	1.7203e-05	1.8539e-05	746.88	180.69	1.7382e-05	1.8327e-05	294.52	113.24	89.624	38.667	1.6775e-05	54.934	-70.952	-75.067	-14.698	-157.978	-71.133	-1.622	-159.814	-152.571	64.370	-13.336	-154.995	-151.604	-150.017	-144.243	91.803	-148.679	-8191	255	
3309.215	1	1	0	0	0.17926	0.058028	0.22433	0.31206	0.065924	0.076559	0.4331	0.15205	0.11828	0.081324	0.067955	0.026356	0.11332	0.19115	0.10141	0.25411	-2.9229	-2.9	-2.5979	-3.3021	-2.6312	-2.975	-3.3604	-2.6104	-3.2	-2.9604	-2.6646	-3.4896	-2.5438	-2.8063	-3.2687	-2.7021	-24.008	162.023	-63.604	166.664	-17.074	163.813	47.103	105.383	1.959	-168.031	-128.201	44.449	-116.217	-112.910	-91.607	121.898	0.00079944	0.001193	5.3008e-05	546.27	1.2681e-05	7.4287e-06	798.62	184.83	1.4925e-05	1.0006e-05	286.24	121.34	88.495	39.676	9.9633e-06	58.434	0.0016793	0.0017291	0.00042167	557.41	1.9015e-05	1.8517e-05	751.28	182.14	1.9204e-05	1.8159e-05	293.67	114.86	90.974	38.546	1.6382e-05	55.418	-36.650	-48.331	40.551	-157.638	-64.170	102.253	-159.592	-152.660	-125.395	26.972	-154.592	-151.589	-150.146	-143.837	45.162	-148.757	-8191	255	
3309.311	1	1	0	0	0.11872	0.15875	0.22765	0.17497	0.0044562	0.17183	0.22168	0.18621	0.11788	0.0443	0.17946	0.27952	0.11451	0.19684	0.32837	0.21181	-2.9896	-2.9104	-2.6375	-3.4583	-2.7917	-2.6875	-3.5875	-2.7667	-3.1667	-3.1375	-2.6271	-3.4625	-2.7292	-2.8604	-3.2021	-2.5708	127.075	-101.363	154.250	-29.077	71.781	45.190	-58.707	148.258	186.504	16.965	183.285	-36.450	147.834	-161.217	-58.530	161.061	0.00080009	0.00074221	0.00045658	543.33	1.4467e-05	1.7064e-05	803.52	184.65	6.5641e-06	2.6357e-06	289.07	121.09	88.692	39.627	3.5879e-06	58.996	0.0016937	0.0015987	0.0003989	559.88	1.8788e-05	1.7023e-05	748.83	183.77	1.9126e-05	1.7611e-05	294.93	116.65	91.786	38.579	1.6388e-05	56.511	-61.531	86.015	-122.752	-157.599	109.236	102.516	-159.221	-152.175	-85.098	63.047	-154.240	-151.439	-149.723	-143.911	-42.724	-149.020	-8191	255	
3309.407	1	1	0	0	0.14665	0.042922	0.27777	0.081511	0.20307	0.26326	0.13686	0.27736	0.12639	0.099718	0.20869	0.11706	0.28715	0.16785	0.1026	0.22109	-2.8083	-3.1063	-2.4437	-3.3333	-2.8875	-2.6875	-3.475	-2.6917	-3.1562	-3.2604	-2.5896	-3.35	-2.8417	-2.6521	-3.3229	-2.6688	42.328	131.459	-4.944	27.692	17.719	176.866	58.369	119.336	105.699	13.008	67.984	170.882	128.485	-141.206	-141.573	103.263	0.00075758	0.0018194	0.00023731	546.77	1.1853e-05	2.5681e-05	798.72	184.27	1.4409e-05	4.2153e-06	285.06	121.65	88.452	39.572	2.1278e-05	58.073	0.0016923	0.0015888	0.00039967	570.3	1.868e-05	1.6796e-05	746.1	185.32	1.7898e-05	1.6609e-05	291.94	116.65	90.307	38.15	1.6249e-05	56.477	-55.023	-46.606	-39.089	-157.582	-27.361	11.652	-159.745	-152.406	-161.106	120.489	-154.643	-151.422	-149.989	-143.711	16.983	-148.685	-8191	255	
3309.503	1	1	0	0	0.29051	0.099583	0.067572	0.0606	0.11958	0.10359	0.084531	0.13271	0.16343	0.1761	0.065503	0.1324	0.044367	0.030216	0.12863	0.1859	-2.45	-3.1354	-2.3937	-3.2771	-2.9729	-2.6479	-3.3958	-2.7833	-2.7042	-3.2792	-2.4667	-3.2667	-2.9875	-2.6583	-3.3583	-2.8396	-53.064	-81.392	113.445	-130.872	42.272	-7.761	-169.816	112.380	124.133	-20.082	-106.455	-50.697	125.891	-16.795	-96.906	143.018	0.00065905	0.00051402	0.00034303	545.72	5.3159e-06	1.1475e-05	795.76	185.37	1.518e-05	1.0615e-05	288.45	120.29	88.262	39.532	1.7029e-05	58.643	0.0016371	0.001583	0.00041752	580.11	1.884e-05	1.7123e-05	755.61	189.24	1.8371e-05	1.7426e-05	298.3	117.67	90.531	38.071	1.7283e-05	56.685	-15.155	-151.617	-102.471	-157.715	-38.424	102.866	-159.812	-152.167	101.405	-36.196	-155.070	-151.529	-149.364	-143.355	-168.481	-148.786	-8191	255	
3309.599	1	1	0	0	0.029006	0.013493	0.13849	0.12795	0.026608	0.20576	0.20967	0.20704	0.034021	0.24636	0.40234	0.16828	0.13913	0.072199	0.056478	0.082597	-2.2667	-3.3646	-2.4667	-3.2229	-2.9208	-2.5083	-3.3167	-2.8229	-2.7646	-3.3771	-2.6958	-3.1292	-3.2104	-2.5146	-3.2333	-2.8604	-153.891	-136.153	-91.855	26.768	81.467	-131.692	97.469	-68.093	98.878	77.992	33.497	-164.193	158.109	131.119	-4.359	160.908	0.0001331	0.00015197	0.00057791	548.66	1.59e-05	1.0483e-05	801.54	185.47	2.4106e-05	5.9757e-06	289.57	120.67	88.963	39.447	2.6402e-05	58.732	0.0015261	0.0015178	0.00043228	574.57	1.713e-05	1.5801e-05	758.91	187.87	1.7039e-05	1.6887e-05	304.76	118.05	90.114	38.293	1.9047e-05	57.068	-59.185	122.597	160.822	-157.304	64.000	-48.367	-159.583	-152.443	65.641	55.466	-155.086	-151.012	-149.470	-144.040	-135.852	-148.431	-8191	255	
3309.696	1	1	0	0	0.078906	0.26213	0.20242	0.1817	0.22421	0.16693	0.24608	0.31913	0.30313	0.073645	0.13268	0.3136	0.19823	0.15802	0.12824	0.085157	-2.2375	-3.3937	-2.425	-2.9917	-3.0292	-2.7167	-3.3646	-3.0438	-2.7042	-3.3479	-2.6958	-3.0438	-3.5438	-2.5417	-3.3417	-3.0687	19.203	-33.097	124.149	154.584	-134.568	2.746	98.666	-159.468	111.072	-9.959	-72.937	-150.728	181.742	176.178	28.617	79.780	0.00033031	0.0017773	0.00071121	552.22	3.7361e-06	9.9485e-06	797.39	184.89	2.3666e-05	1.042e-05	288.07	120.58	88.265	39.63	3.6715e-06	58.114	0.0015463	0.001563	0.00048825	578.79	1.7804e-05	1.65e-05	768.35	188.1	1.7164e-05	1.72e-05	308.84	116.75	89.375	38.279	1.941e-05	56.056	-17.940	30.878	-156.321	-157.671	-59.681	9.778	-159.815	-151.645	16.877	-131.194	-154.488	-151.697	-148.973	-143.995	144.750	-148.690	-8191	255	
3309.816	1	1	0	0	0.18997	0.089301	0.10663	0.30293	0.025366	0.25551	0.27937	0.40956	0.10643	0.20293	0.15226	0.30777	0.13964	0.25527	0.093666	0.050046	-2.3958	-3.2562	-2.4792	-3.1479	-3.2875	-2.5167	-3.3521	-3.225	-2.7042	-3.3854	-2.8083	-2.8417	-3.2708	-2.6958	-3.2229	-3.1729	129.018	127.515	-48.396	189.837	-134.488	71.404	129.233	154.259	-111.249	77.582	-169.721	176.263	38.725	130.343	123.947	185.097	0.00034046	0.00031507	0.00018839	547.49	2.8797e-05	1.0959e-05	797.02	185.2	1.5638e-05	2.1176e-05	290.67	119.83	88.644	39.645	1.7717e-05	58.686	0.0014763	0.0015486	0.00048828	565.61	1.6693e-05	1.686e-05	763.55	185.91	1.6473e-05	1.803e-05	310.72	116	89.877	38.836	2.0375e-05	56.611	-89.728	-126.463	64.369	-157.277	-61.220	-145.611	-158.957	-151.911	-99.896	-137.168	-154.780	-151.715	-149.121	-143.950	-38.657	-148.687	-8191	255	
3309.911	1	1	0	0	0.3831	0.12961	0.32695	0.16044	0.069723	0.14329	0.24403	0.17131	0.1857	0.20837	0.27472	0.27661	0.1663	0.1762	0.047403	0.34564	-2.0667	-3.3042	-2.8542	-2.7875	-3.2917	-2.6688	-3.1292	-3.2333	-2.6792	-3.2958	-2.9625	-2.8125	-3.4125	-2.7625	-2.9271	-3.2188	100.702	77.823	33.849	-20.618	-2.566	-165.157	155.760	-143.668	124.875	-149.803	-166.903	22.163	173.767	183.259	60.860	99.102	0.0009161	0.0015744	0.00067714	549.22	1.3294e-05	1.6386e-05	792.62	184.64	1.375e-05	1.6554e-05	292.88	119.99	87.958	39.441	2.6007e-05	58.525	0.0015273	0.0017827	0.00052763	571.02	1.765e-05	1.9373e-05	765.55	185.66	1.6315e-05	1.9476e-05	309.33	115.35	88.916	38.991	1.8596e-05	55.927	-53.214	186.512	-8.149	-157.081	-122.602	-109.572	-158.759	-151.802	27.093	147.287	-154.775	-151.274	-148.965	-143.966	28.709	-148.790	-8191	255	
3309.984	1	1	0	0	0.18034	0.12261	0.076756	0.12326	0.061407	0.1091	0.17517	0.11027	0.0031427	0.069216	0.24239	0.046105	0.05008	0.21645	0.13102	0.021548	-2.2354	-3.375	-2.8688	-2.7083	-3.4562	-2.6458	-3.2125	-3.3604	-2.6021	-3.2896	-3.0708	-2.7	-3.4604	-2.5854	-2.9771	-3.5375	-93.364	73.744	112.272	116.963	11.032	156.259	136.334	41.697	-85.530	-88.802	124.350	18.552	-47.445	176.733	-20.964	151.868	0.00077455	0.0003464	0.00058549	552.21	2.7903e-05	2.2526e-05	801.73	185.48	5.5478e-06	1.5029e-05	284.9	119.4	87.99	38.907	1.1965e-05	57.785	0.0014417	0.0017754	0.00047702	562.28	1.6833e-05	1.9639e-05	760.82	183.67	1.6429e-05	1.9719e-05	301.18	113.69	89.011	38.871	1.731e-05	54.987	-63.091	-23.821	119.199	-157.086	-120.401	-90.142	-158.902	-151.712	141.545	112.004	-155.190	-151.029	-149.147	-143.950	0.073	-148.465	-8191	255	
3310.080	1	1	0	0	0.1589	0.16714	0.26236	0.13185	0.077029	0.035628	0.11034	0.29623	0.094712	0.15817	0.083465	0.3391	0.3064	0.19548	0.19844	0.19702	-2.1729	-3.0708	-2.9854	-2.3583	-3.4167	-2.8875	-3	-3.4354	-2.5146	-3.2313	-3.1479	-2.6354	-3.5417	-2.7938	-2.6771	-3.2979	77.898	-46.770	-99.305	-165.819	-82.744	18.246	-18.229	-134.069	5.389	-69.234	-84.645	87.020	116.496	160.252	-71.639	71.355	0.0014204	0.00097424	0.00029468	545	2.2113e-05	2.2079e-05	793.76	183.85	2.038e-05	1.4807e-05	283.15	118.6	87.438	39.254	1.0548e-05	57.843	0.0014782	0.0017422	0.00044761	555.21	1.7448e-05	1.9445e-05	749.36	181.47	1.7404e-05	1.9213e-05	296.64	112.81	89.141	38.81	1.694e-05	54.768	-52.593	-16.130	-40.266	-157.342	-152.978	37.117	-159.146	-151.834	-97.227	-9.302	-154.509	-151.692	-148.888	-143.993	-83.795	-148.011	-8191	255	
3310.199	1	1	0	0	0.16631	0.14192	0.21311	0.093435	0.37598	0.033359	0.14812	0.040573	0.18742	0.026482	0.3511	0.21455	0.19072	0.070545	0.10853	0.090241	-2.2104	-3.1729	-3.0979	-2.7646	-3.2896	-3.0229	-2.9417	-3.2729	-2.725	-3.3208	-3.3438	-2.4271	-3.4292	-3.0521	-2.6771	-3.5167	-111.975	-61.897	107.413	166.997	-83.050	-22.815	-89.321	84.464	-92.805	-101.753	156.125	139.115	6.060	-146.235	111.585	-33.324	0.0010188	0.00059245	0.0007757	541.56	1.4548e-05	1.2039e-05	789.73	183.61	1.1185e-05	9.042e-06	286.44	118.09	86.97	39.55	7.6939e-06	58.485	0.0016127	0.0017258	0.00044171	551.85	1.8675e-05	1.8953e-05	745.9	181.48	1.8548e-05	1.8437e-05	296.9	112.9	90.728	38.684	1.666e-05	55.235	-72.702	37.904	-69.946	-157.045	-76.005	16.359	-159.231	-151.551	-127.485	165.076	-154.797	-150.771	-149.054	-143.793	69.103	-148.439	-8191	255	
3310.295	1	1	0	0	0.16639	0.10843	0.18834	0.14916	0.035254	0.12114	0.22144	0.055316	0.050308	0.014902	0.039098	0.3037	0.084575	0.21641	0.067803	0.03641	-2.3104	-2.9396	-3.3667	-2.7396	-3.2792	-3.0229	-2.825	-3.4188	-2.7896	-2.8271	-3.3396	-2.6896	-3.35	-3.3083	-2.6312	-3.5167	-151.572	-163.530	-120.296	-7.290	188.022	54.726	-159.296	-18.483	-99.649	25.218	62.856	80.052	33.467	-141.127	-103.041	125.619	0.00045508	0.0026909	0.00044822	543.61	3.1287e-05	1.101e-05	792.68	183.02	1.8464e-05	1.1698e-05	283.02	118.78	87.907	39.494	1.6309e-05	57.588	0.0017345	0.0016665	0.00043532	554.72	1.9275e-05	1.8117e-05	744.03	182.82	1.9479e-05	1.7705e-05	295.22	114.09	91.264	38.541	1.6509e-05	55.668	-64.501	-93.177	-32.958	-156.864	-156.951	7.316	-158.927	-151.989	-29.286	-29.166	-154.899	-151.002	-149.086	-143.534	27.787	-148.136	-8191	255	
3310.391	1	1	0	0	0.21052	0.28914	0.13892	0.19813	0.12174	0.12269	0.1463	0.14431	0.11125	0.21578	0.063585	0.2754	0.14075	0.20428	0.11514	0.1202	-2.3271	-2.6979	-3.2958	-2.675	-3.0667	-3.0875	-2.7542	-3.4562	-2.6958	-2.8396	-3.3417	-2.6708	-3.2812	-3.3042	-2.55	-3.4313	-77.065	102.637	-150.833	125.028	145.637	78.441	154.640	146.486	-68.191	156.387	-57.920	82.655	-71.440	33.322	141.685	156.064	7.0369e-05	0.00056144	0.00037507	545.3	1.2136e-05	4.6383e-06	789.16	184.33	1.6382e-05	8.8325e-06	287.62	119.72	88.315	39.25	8.6394e-06	58.117	0.001847	0.0016788	0.00045022	571.16	2.0686e-05	1.9159e-05	743.45	187.53	2.0485e-05	1.8086e-05	297.71	116.4	91.669	38.563	1.6316e-05	56.384	185.395	-37.902	-150.786	-156.860	146.979	31.508	-158.817	-152.254	160.462	94.858	-154.466	-151.641	-148.925	-143.770	100.168	-148.342	-8191	255	
3310.488	1	1	0	0	0.083126	0.2083	0.093407	0.050984	0.22989	0.13204	0.15597	0.13076	0.31005	0.098259	0.15006	0.3496	0.16119	0.27594	0.12444	0.21913	-2.3542	-2.5812	-3.3875	-2.7125	-2.9833	-3.3729	-2.7896	-3.4708	-2.9896	-2.6688	-3.4562	-2.6417	-3.0083	-3.3812	-2.6542	-3.5167	30.186	-58.656	-156.495	-154.298	150.502	99.736	104.508	-94.992	4.194	174.190	59.134	166.287	141.073	77.377	-92.289	-39.030	0.00035521	0.0012522	0.00035505	542.34	1.6659e-06	1.1423e-05	790.8	186.52	1.8669e-05	6.5917e-06	284.31	121.03	89.069	40.198	1.4836e-05	58.669	0.0017521	0.0015873	0.00043058	574.72	1.9117e-05	1.7923e-05	745.09	189.13	1.9437e-05	1.7597e-05	298.51	118.76	91.423	38.824	1.7191e-05	57.394	-88.854	-22.300	-119.933	-157.189	179.943	-65.203	-159.087	-151.601	155.482	-78.471	-154.351	-151.370	-149.105	-143.875	-146.190	-148.130	-8191	255	
3310.584	1	1	0	0	0.14677	0.39492	0.20841	0.077517	0.099715	0.16031	0.39445	0.22123	0.044613	0.11232	0.13546	0.15487	0.039574	0.23484	0.026223	0.1244	-2.5687	-2.5438	-3.2417	-2.9021	-2.8	-3.1771	-2.6896	-3.2625	-2.9938	-2.8208	-3.4708	-2.8583	-2.8042	-3.4833	-2.6083	-3.2333	-85.432	-38.120	-164.154	-120.940	-88.791	115.634	103.397	153.828	155.951	-147.024	-21.130	148.147	188.122	-143.007	-107.493	12.580	0.00063784	0.00052242	0.00030782	544.86	2.3885e-05	1.5941e-05	794.64	184.81	1.6465e-06	2.5947e-05	284.34	119.16	88.715	39.663	2.3499e-05	58.099	0.0017141	0.001564	0.00045448	581	1.8152e-05	1.7461e-05	753.53	188.75	1.8215e-05	1.6274e-05	301.4	117.19	89.633	38.118	1.7252e-05	56.248	-14.104	-165.739	-68.570	-156.945	-64.052	53.142	-159.264	-151.752	88.243	31.108	-155.125	-151.093	-149.038	-143.499	-135.599	-148.436	-8191	255	
3310.680	1	1	0	0	0.15024	0.23167	0.22364	0.27824	0.27735	0.06978	0.33581	0.051464	0.2119	0.16781	0.24535	0.21171	0.12754	0.18737	0.12826	0.13959	-2.7208	-2.7479	-3.5729	-2.7521	-2.6125	-3.4708	-2.6396	-3.05	-3.1167	-2.5271	-3.2521	-2.9875	-2.6208	-3.4854	-2.675	-3.0604	27.871	-32.550	-129.610	168.830	35.158	21.091	86.108	-109.453	-22.165	183.338	129.542	94.237	-6.239	37.798	-145.471	145.506	0.00040697	0.00065252	0.00030935	547.38	1.4059e-05	6.0793e-06	800.58	184.87	8.1012e-06	1.886e-05	288.39	119.43	88.389	39.424	5.1762e-06	58.556	0.0015271	0.0014243	0.00044592	567.88	1.6082e-05	1.5784e-05	751.87	184.7	1.6192e-05	1.4913e-05	300.57	115.54	88.405	37.95	1.8073e-05	55.745	-88.131	64.857	-14.019	-156.568	17.505	66.842	-158.941	-151.800	-147.732	161.722	-154.573	-151.061	-148.841	-143.409	46.191	-148.160	-8191	255	
3310.776	1	1	0	0	0.17472	0.1374	0.1252	0.063798	0.19919	0.28664	0.20438	0.066485	0.054639	0.26094	0.10497	0.28472	0.09626	0.16933	0.24191	0.095701	-2.9583	-2.4167	-3.2729	-2.9437	-2.6979	-3.4021	-2.7417	-2.9708	-3.3854	-2.5375	-3.4437	-3.075	-2.6813	-3.5021	-2.7271	-2.9667	-161.778	85.493	172.131	-156.417	102.883	171.995	-100.670	-142.426	18.604	84.462	148.004	117.610	175.921	144.113	82.231	190.450	0.00091747	0.00097168	0.00053631	543.91	6.9204e-06	3.3715e-06	794.5	187.29	2.7855e-06	9.8079e-06	290.5	120.85	87.981	39.649	3.9421e-06	59.16	0.0014763	0.0014229	0.00046946	563.83	1.5427e-05	1.5806e-05	758.14	183.8	1.5643e-05	1.5253e-05	301.62	114.92	87.38	38.144	1.7745e-05	55.71	-69.513	88.569	-113.896	-157.587	92.449	-102.995	-159.311	-151.444	-127.631	180.965	-154.778	-151.552	-148.547	-143.708	-82.181	-148.452	-8191	255	
3310.897	1	1	0	0	0.1955	0.22074	0.32341	0.2061	0.039484	0.09043	0.30729	0.063865	0.031762	0.099434	0.066463	0.29265	0.0059194	0.17975	0.10937	0.20563	-2.8021	-2.5917	-3.1667	-3.1083	-2.5438	-3.3771	-2.9125	-2.7917	-3.2458	-2.6458	-3.3167	-3.2125	-2.6312	-3.4813	-2.7812	-2.8354	63.838	-92.537	-158.896	188.934	-102.189	75.833	55.482	-55.334	158.659	24.386	-121.062	121.348	25.145	150.639	127.678	50.101	0.00065847	0.00073194	0.00020284	544.8	1.0498e-05	1.0696e-05	801.83	189.83	8.3847e-06	1.0132e-05	292.04	122.12	89.834	40.061	2.0178e-05	59.111	0.0013947	0.0014574	0.00045618	558.12	1.4994e-05	1.6612e-05	761.79	184.71	1.5255e-05	1.6522e-05	303.6	115.69	87.704	38.75	1.7683e-05	55.528	-38.296	185.156	-83.981	-157.118	75.616	179.684	-159.520	-151.753	134.285	-17.968	-154.797	-151.242	-149.086	-143.727	-10.681	-148.342	-8191	255	
3310.993	1	1	0	0	0.0015496	0.077349	0.19115	0.24434	0.10706	0.0096637	0.092041	0.18944	0.034275	0.059928	0.18434	0.22174	0.27356	0.071235	0.10066	0.40269	-2.9896	-2.6208	-2.9042	-3.175	-2.6375	-3.4125	-2.9896	-2.6917	-3.3292	-2.6937	-2.9708	-3.3771	-2.6354	-3.3688	-2.9813	-2.6854	180.000	133.603	80.528	107.022	-4.444	72.899	123.737	117.066	161.035	-92.120	3.096	151.691	124.298	156.348	41.607	-157.566	0.00081908	0.0015067	0.00031148	541.78	5.3996e-06	1.3078e-05	793.79	188.32	1.3924e-05	8.4987e-06	289.06	120.89	89.189	40.344	6.4681e-06	59.002	0.0013645	0.0015593	0.00043661	553.98	1.4164e-05	1.6915e-05	750.25	182.32	1.4555e-05	1.6655e-05	296.17	114.36	87.505	38.846	1.6208e-05	55.117	-38.166	122.615	-77.134	-157.376	-99.514	-89.900	-159.413	-151.720	-131.904	35.475	-154.783	-151.581	-149.273	-143.618	0.105	-147.907	-8191	255	
3311.089	1	1	0	0	0.32511	0.18452	0.21594	0.1676	0.12006	0.19702	0.17402	0.22155	0.078763	0.055362	0.19298	0.04087	0.055194	0.096597	0.19399	0.23734	-2.8688	-2.6063	-2.7833	-3.3104	-2.825	-3.1937	-2.9958	-2.4521	-3.425	-2.7812	-2.7646	-3.5438	-2.675	-3.2979	-3.0729	-2.6708	-157.469	93.269	23.492	-16.475	-60.328	-141.953	109.242	104.525	137.870	182.289	100.014	-72.789	21.069	50.277	94.850	53.555	0.00083258	0.0003758	0.00027195	550.24	2.2636e-05	8.2704e-06	803.98	187.14	8.2853e-06	4.0061e-06	290.5	122.94	89.88	40.208	1.3515e-05	59.596	0.0013516	0.0015955	0.00040818	552.01	1.4889e-05	1.749e-05	751.67	181.74	1.5283e-05	1.7094e-05	295.07	114.1	87.667	38.682	1.4478e-05	54.528	-60.919	126.916	-100.836	-156.938	-123.257	35.175	-159.103	-151.565	2.889	-156.790	-154.103	-151.682	-149.010	-143.642	32.750	-148.490	-8191	255	
3311.208	1	1	0	0	0.10413	0.1526	0.099077	0.098209	0.27513	0.16609	0.18022	0.30714	0.099937	0.037513	0.1422	0.33231	0.20826	0.15549	0.28847	0.025593	-2.9208	-2.6604	-2.5917	-3.3604	-2.4333	-3.075	-3.1792	-2.6708	-3.4146	-3.1125	-2.7771	-3.4292	-2.775	-3.175	-3.2812	-2.7208	-47.559	56.313	-159.391	71.694	1.673	-43.158	73.601	123.161	-8.634	-159.165	-158.924	146.660	180.315	146.898	69.033	142.128	0.00085054	0.0014193	0.00050637	548.59	2.2461e-05	3.307e-06	800.83	190.29	2.3213e-06	7.1571e-07	290.18	122.47	90.661	40.691	3.1495e-06	59.267	0.0013106	0.001464	0.00035781	540.8	1.4616e-05	1.5922e-05	743.66	180.52	1.5645e-05	1.6433e-05	292.87	114.22	89.746	38.906	1.499e-05	55.016	-41.978	-54.319	-101.419	-157.618	181.413	121.302	-159.379	-151.989	-123.119	82.187	-154.879	-151.680	-149.718	-143.767	117.174	-148.326	-8191	255	
3311.279	1	1	0	0	0.1225	0.26367	0.097381	0.13049	0.32165	0.25517	0.05929	0.30815	0.12482	0.13879	0.12745	0.13527	0.13787	0.15039	0.060088	0.33913	-2.9229	-2.8833	-2.8875	-3.4396	-2.7062	-3.2229	-3.4021	-2.5667	-3.4604	-2.8604	-2.5417	-3.4	-2.7917	-3.0312	-3.3083	-2.6125	64.521	182.919	-142.168	-116.795	-52.082	56.273	155.783	175.112	-151.825	177.321	-164.201	132.227	-84.202	25.683	-75.744	129.410	0.0010144	0.00027124	0.00025088	547.08	1.2155e-05	1.7446e-06	804.94	189.77	5.987e-06	9.0615e-06	294.47	122.15	89.985	39.964	5.449e-06	59.134	0.0014574	0.0014763	0.00036028	544.44	1.6053e-05	1.5489e-05	744.18	181.1	1.5966e-05	1.5424e-05	290.59	113.99	89.685	38.259	1.4359e-05	55.08	-47.395	-130.638	-156.198	-157.657	-61.905	-57.319	-159.337	-152.764	28.286	39.107	-154.748	-152.047	-149.807	-143.325	58.114	-148.561	-8191	255	
3311.376	1	1	0	0	0.19469	0.14906	0.13729	0.039366	0.16325	0.13579	0.27849	0.33621	0.24416	0.22317	0.20615	0.086681	0.18451	0.075573	0.056842	0.19772	-2.7938	-2.8937	-2.575	-3.3167	-2.6979	-2.7479	-3.5646	-2.675	-3.1917	-3.0229	-2.5938	-3.3292	-2.9396	-2.9	-3.4562	-2.7292	-114.762	-128.735	-52.549	125.584	75.950	-9.298	104.184	125.386	-141.845	-88.673	148.198	-144.763	176.467	123.945	-97.064	174.461	0.0010472	0.00090478	0.00027249	537.98	1.8339e-05	4.4141e-06	810.11	188.45	5.4963e-06	1.9339e-05	301.77	123.12	91.039	40.521	1.1142e-05	60.056	0.001526	0.001453	0.00036467	549.96	1.7337e-05	1.543e-05	744.95	183.02	1.6047e-05	1.4566e-05	289.81	115	89.575	37.963	1.3222e-05	55.547	-35.642	-95.535	66.838	-157.165	-84.604	-13.581	-159.242	-151.922	-133.581	89.261	-154.514	-151.568	-149.021	-143.489	-38.479	-148.645	-8191	255	
3311.496	1	1	0	0	0.076873	0.054187	0.095645	0.16142	0.088492	0.20499	0.096923	0.3138	0.061529	0.11945	0.20878	0.29107	0.06118	0.20142	0.14298	0.081998	-2.8333	-3.3125	-2.4979	-3.5312	-2.9021	-2.6625	-3.4604	-2.5771	-2.8792	-3.2958	-2.6521	-3.4667	-3.0417	-2.6771	-3.3417	-2.7292	-109.288	113.237	-92.202	164.774	34.867	96.794	-28.642	145.331	93.859	102.075	-126.751	120.930	145.000	-148.310	-57.269	38.997	0.00051147	0.0013827	0.00044106	549.39	2.834e-05	7.776e-06	806.32	189.56	9.5265e-06	2.1467e-05	293.25	121.9	90.549	40.034	2.1067e-06	58.985	0.001377	0.0013121	0.00033377	553.6	1.6026e-05	1.4619e-05	747.07	186.3	1.6485e-05	1.5448e-05	293.17	116.36	90.126	38.184	1.4541e-05	55.834	-63.411	49.681	-2.327	-157.599	27.645	108.015	-159.596	-152.552	56.656	35.574	-154.332	-151.718	-149.541	-144.104	-167.125	-148.607	-8191	255	
3311.592	1	1	0	0	0.076024	0.073897	0.20726	0.17579	0.071112	0.12982	0.27014	0.25756	0.16263	0.019246	0.083732	0.16307	0.25632	0.07317	0.074001	0.15379	-2.6229	-3.25	-2.3937	-3.2562	-2.9875	-2.5729	-3.525	-2.7729	-2.9188	-3.3792	-2.5833	-3.2542	-3.0021	-2.7062	-3.325	-2.8479	15.955	178.601	-109.663	-120.757	-27.031	-105.227	108.260	174.751	172.589	31.920	-138.139	-157.787	140.490	82.520	86.226	131.387	0.00068809	0.0018194	0.00051201	546.61	1.0588e-05	1.2681e-05	802.31	189.8	1.3663e-05	7.3072e-06	288.98	121.11	89.064	40.037	1.1833e-05	58.769	0.0013998	0.0013478	0.00034178	557.11	1.5026e-05	1.3458e-05	739.98	184.12	1.4324e-05	1.3909e-05	288.12	114.94	87.732	37.468	1.4377e-05	55.613	-51.465	-3.363	-157.751	-157.436	25.345	8.171	-159.411	-151.888	-6.051	-89.489	-154.526	-151.879	-149.638	-144.122	-114.508	-148.624	-8191	255	
3311.689	1	1	0	0	0.14635	0.0067828	0.11497	0.10034	0.047207	0.11288	0.19005	0.22383	0.24687	0.1239	0.23702	0.34459	0.25616	0.23778	0.27925	0.4204	-2.425	-3.3042	-2.5438	-3.0354	-3.1542	-2.7583	-3.4625	-2.8187	-2.8812	-3.4854	-2.6167	-3.1375	-3.1937	-2.6604	-3.2792	-2.875	-98.301	18.556	-142.541	162.756	-102.194	-140.119	151.794	162.908	187.333	174.882	79.532	68.567	67.981	146.520	172.255	184.562	0.00065414	0.0013288	0.00048107	546.65	1.9046e-05	1.109e-05	800.95	186.31	1.3614e-05	7.2052e-06	291.1	121.38	89.202	39.734	1.1771e-05	59.112	0.0013009	0.001287	0.00036911	556.52	1.4743e-05	1.337e-05	743.17	183.98	1.4264e-05	1.3585e-05	293.12	114.79	87.288	37.293	1.5166e-05	55.305	-37.086	-2.153	182.926	-157.570	60.414	53.522	-158.843	-151.458	69.759	-103.713	-154.809	-151.307	-149.202	-144.098	-139.663	-148.502	-8191	255	
3311.785	1	1	0	0	0.093033	0.10006	0.20698	0.16284	0.06347	0.27123	0.16737	0.16322	0.049963	0.14106	0.39363	0.30518	0.15998	0.16487	0.12106	0.15813	-2.3375	-3.2896	-2.5542	-3.2396	-3.0271	-2.4854	-3.4042	-2.9	-2.6271	-3.35	-2.8063	-3.0125	-3.1688	-2.5792	-3.325	-3.0167	43.823	-127.582	-12.492	149.819	49.127	70.097	103.872	-46.620	159.352	-114.480	-164.389	-165.846	-68.488	92.230	85.522	166.320	0.0010449	0.00098678	0.00020057	545.24	1.0423e-05	7.2248e-06	797.2	188.44	1.0946e-05	1.0895e-05	291.6	118.87	90.143	39.875	1.3496e-05	59.075	0.0012525	0.001251	0.00039693	552.3	1.4632e-05	1.3731e-05	749.64	184.58	1.444e-05	1.4323e-05	299.36	114.01	87.7	37.77	1.6584e-05	55.194	-37.145	-151.931	115.691	-157.136	-59.522	-161.996	-159.297	-151.711	-99.836	173.333	-154.910	-151.145	-149.311	-144.171	64.861	-148.400	-8191	255	
3311.881	1	1	0	0	0.14626	0.044656	0.1688	0.10399	0.018673	0.089136	0.21522	0.088594	0.36069	0.076562	0.27065	0.042005	0.27225	0.035193	0.12797	0.041435	-2.2917	-3.4437	-2.7313	-2.9958	-3.4542	-2.4271	-3.2771	-2.9646	-2.5604	-3.4604	-2.75	-2.7646	-3.2958	-2.6104	-3.1646	-3.3458	19.049	171.205	16.764	-132.412	158.686	-138.268	173.314	-168.738	157.570	67.618	97.465	107.103	136.470	-121.674	-14.592	112.394	0.0005789	0.0013681	0.00049893	543.29	1.503e-05	1.8591e-05	800.48	189.19	9.1537e-06	1.0593e-05	287.95	119.5	89.434	39.405	1.0431e-05	58.251	0.0012478	0.001318	0.00041507	546.99	1.3939e-05	1.4021e-05	747.42	181.82	1.3301e-05	1.4232e-05	295.95	111.91	86.627	37.539	1.6341e-05	54.623	-42.175	-159.395	134.515	-157.094	-12.593	-105.848	-159.333	-152.106	69.565	149.560	-154.971	-151.263	-149.497	-143.851	-62.012	-148.355	-8191	255	
3311.977	1	1	0	0	0.068025	0.30111	0.20326	0.25243	0.13757	0.080439	0.13989	0.25917	0.096501	0.11423	0.11911	0.085908	0.22509	0.070823	0.23571	0.053525	-2.2542	-3.325	-2.7604	-2.75	-3.375	-2.5563	-3.0854	-3.2104	-2.5292	-3.4708	-2.6521	-2.8312	-3.3104	-2.6375	-2.9958	-3.425	-29.515	-85.629	-17.644	-99.642	-17.725	-156.621	-121.853	-145.006	136.744	-132.787	-37.689	-139.546	123.544	45.543	-104.118	36.014	0.00085787	0.00049647	0.00062221	542.19	1.1341e-05	1.9611e-05	785.84	186.36	5.1705e-06	1.974e-05	291.84	119.71	88.344	40.135	1.1442e-05	58.427	0.0012585	0.0014693	0.00044557	547.98	1.5147e-05	1.689e-05	748.75	183.25	1.4704e-05	1.7167e-05	301.6	113.42	87.789	38.763	1.7161e-05	55.211	-43.282	153.933	-31.109	-157.284	-35.335	-96.032	-159.269	-151.617	173.949	-82.122	-154.647	-151.477	-149.099	-143.577	-21.653	-148.540	-8191	255	
3312.073	1	1	0	0	0.092481	0.21988	0.096409	0.14907	0.1521	0.1629	0.096836	0.093901	0.12567	0.34045	0.30689	0.1099	0.047634	0.18099	0.14078	0.4103	-2.0687	-3.2625	-2.85	-2.6833	-3.5042	-2.7521	-3.1042	-3.3438	-2.6188	-3.2188	-2.9646	-2.5354	-3.3812	-2.7604	-2.825	-3.3667	-85.916	-149.421	-53.626	14.431	104.206	-59.201	-22.604	-97.206	-26.446	-54.360	166.529	133.498	121.720	153.607	-107.606	116.701	0.00044285	0.00067183	0.00053152	537.74	1.2478e-05	7.5915e-06	786.86	187.54	1.6377e-06	2.342e-05	288.03	120.8	89.767	39.833	5.2015e-06	58.434	0.0013239	0.0016163	0.00044414	544.06	1.5327e-05	1.7907e-05	741.8	182.77	1.5294e-05	1.8392e-05	299.41	113.52	89.262	39.198	1.7208e-05	55.502	-33.879	122.446	24.553	-156.624	13.344	-11.995	-159.333	-151.647	182.758	177.210	-154.552	-151.830	-149.007	-143.666	-26.242	-148.412	-8191	255	
3312.169	1	1	0	0	0.23183	0.2084	0.10622	0.055264	0.21428	0.23906	0.055349	0.033403	0.26092	0.16337	0.14636	0.10974	0.071981	0.1641	0.24123	0.10036	-2.2708	-3.2583	-3.0812	-2.6708	-3.3208	-2.8625	-2.8292	-3.4208	-2.525	-3.1854	-3.1937	-2.6188	-3.2438	-2.7604	-2.6604	-3.3542	-88.537	-110.935	-65.805	-32.953	-19.549	56.683	-141.930	129.518	-103.066	-62.729	-7.861	12.655	-158.481	142.772	-28.677	-147.111	0.00081184	0.0010111	0.00043794	533.81	1.2176e-05	8.5319e-06	784.65	186.28	9.1517e-06	1.6704e-05	288.56	120.31	90.148	39.904	8.3284e-06	58.066	0.001502	0.0017925	0.00046527	549.3	1.7994e-05	2.0189e-05	743.39	183.94	1.8022e-05	1.9854e-05	299.97	113.79	90.873	39.249	1.653e-05	54.816	-65.131	38.167	-17.053	-156.944	-64.397	4.852	-158.348	-151.807	172.095	-84.231	-154.548	-151.051	-148.684	-143.382	-59.352	-148.231	-8191	255	
3312.288	1	1	0	0	0.27324	0.1369	0.089544	0.14736	0.23016	0.40376	0.32185	0.29517	0.25733	0.25482	0.085525	0.20451	0.09043	0.35621	0.24553	0.28177	-1.8417	-3.0354	-2.9875	-2.4729	-3.2729	-2.9646	-2.6417	-3.5438	-2.6125	-2.9333	-3.1354	-2.6958	-3.2896	-2.9542	-2.6604	-3.4833	189.422	-128.741	-25.846	164.877	-142.020	-147.703	145.322	3.140	-81.728	127.645	-59.271	-129.451	106.851	175.331	-81.711	91.014	0.00059553	0.0010968	0.00073194	532.03	1.4651e-05	1.0391e-05	777.2	184.88	8.5001e-06	1.4464e-05	288.35	119.36	87.419	39.76	1.0065e-05	58.183	0.0015783	0.0016945	0.0004362	542.52	1.8413e-05	1.9087e-05	733.78	182.64	1.9109e-05	1.91e-05	298.85	114	91.508	39.039	1.6401e-05	55.054	-64.544	-4.361	-152.121	-157.571	144.448	116.585	-158.704	-152.059	31.702	50.867	-154.099	-151.527	-148.584	-143.414	-147.277	-148.390	-8191	255	
3312.384	1	1	0	0	0.19355	0.19	0.21305	0.065805	0.27585	0.063587	0.18393	0.23712	0.013979	0.11145	0.14743	0.27222	0.10712	0.11251	0.16276	0.20786	-2.2292	-2.75	-3.0604	-2.7562	-3.2229	-3.0062	-2.7542	-3.3563	-2.4875	-2.9896	-3.3917	-2.6	-3.2104	-3.125	-2.5375	-3.4292	-26.842	-98.353	-4.580	48.434	148.094	88.966	160.749	143.571	36.440	28.463	116.040	99.636	31.881	65.505	-169.746	85.804	0.0011927	9.7515e-05	0.00026814	532.15	2.4767e-05	9.0915e-06	781.54	185.81	1.7641e-05	2.4644e-05	285.97	119.66	89.165	39.825	7.8189e-06	58.201	0.0016633	0.0015995	0.00041128	540.87	1.8074e-05	1.6907e-05	726.56	180.81	1.7383e-05	1.5968e-05	290.44	113.22	90.439	38.235	1.4761e-05	55.054	-55.706	123.079	-49.809	-157.031	-61.465	4.354	-159.091	-151.803	-91.672	27.205	-154.615	-150.892	-148.952	-143.318	154.628	-148.184	-8191	255	
3312.480	1	1	0	0	0.13917	0.19421	0.11449	0.11271	0.2953	0.24262	0.26456	0.28761	0.1241	0.22851	0.10799	0.13889	0.20608	0.24809	0.32908	0.22672	-2.1646	-2.7667	-3.2333	-2.575	-3.1479	-3.0812	-2.4396	-3.3438	-2.8208	-2.7167	-3.4479	-2.5708	-3	-3.2792	-2.4188	-3.5375	116.477	-159.671	101.681	83.498	-161.020	-131.680	93.539	-84.071	-2.380	-46.628	84.235	184.939	-139.495	138.020	-68.200	107.662	0.00076685	0.00062438	0.00016804	531.78	7.409e-06	5.6297e-06	772.7	185.6	1.3103e-05	4.6172e-06	284.46	119.49	88.045	39.801	1.6342e-05	58.019	0.0015994	0.0014722	0.00039224	548.8	1.7895e-05	1.6384e-05	722.69	182.82	1.7328e-05	1.5404e-05	286.96	113.18	88.578	37.86	1.3603e-05	54.78	-52.638	-150.333	-165.876	-157.560	-71.733	77.780	-158.926	-152.003	140.387	50.634	-154.688	-151.766	-148.932	-144.391	-70.608	-148.874	-8191	255	
3312.577	1	1	0	0	0.22286	0.099135	0.085845	0.19507	0.26447	0.2068	0.28906	0.11295	0.21453	0.22076	0.020785	0.10855	0.13125	0.21127	0.15364	0.26338	-2.4729	-2.6979	-3.3937	-2.6021	-2.9875	-3.2208	-2.5792	-3.2229	-2.8396	-2.5708	-3.2646	-2.7396	-3.0021	-3.325	-2.5938	-3.3833	35.807	3.615	101.596	59.881	-102.836	-139.545	58.329	109.016	176.365	167.791	-135.979	26.161	-70.504	168.163	-125.041	-32.208	0.00072608	0.0019553	8.8603e-05	534.18	1.1045e-05	1.9168e-06	777.44	184.9	1.6689e-05	1.1585e-05	287.78	120.25	88.1	39.704	1.4187e-05	58.55	0.0014447	0.0013158	0.00035771	545.81	1.5563e-05	1.4674e-05	720.45	182.3	1.5736e-05	1.4025e-05	285.97	113.47	87.28	37.548	1.325e-05	54.831	-57.186	96.551	183.094	-158.009	50.766	-15.058	-159.971	-152.712	28.446	175.978	-155.826	-152.493	-149.421	-144.750	79.876	-149.238	-8191	255	
3312.673	1	1	0	0	0.073604	0.24724	0.041741	0.15422	0.14136	0.09217	0.13117	0.050138	0.43727	0.1595	0.34507	0.32648	0.12743	0.15349	0.099753	0.23122	-2.475	-2.5792	-3.4188	-2.7354	-2.8208	-3.3375	-2.6437	-3.2896	-3.0229	-2.6917	-3.4688	-2.8917	-2.8604	-3.4208	-2.6167	-3.2375	148.626	-152.728	-44.280	167.480	-44.018	-49.152	66.824	-102.240	-111.164	-44.689	-155.893	134.352	73.309	96.407	61.762	82.686	0.00099836	0.00085065	0.00012402	534.74	3.5411e-05	1.3364e-05	786.35	186.72	7.7345e-06	1.8505e-05	287.09	119.62	89.105	39.842	6.0797e-06	58.459	0.0012738	0.0011571	0.00033244	543.05	1.3359e-05	1.289e-05	725.46	180.41	1.3344e-05	1.2175e-05	283.83	112.86	85.656	36.912	1.3027e-05	54.531	-21.783	-18.727	119.328	-158.365	15.232	-89.338	-159.986	-152.947	17.344	-53.165	-155.686	-151.853	-149.645	-144.524	-11.010	-148.925	-8191	255	
3312.769	1	1	0	0	0.22062	0.082798	0.053801	0.15327	0.17541	0.085873	0.15032	0.26918	0.066656	0.13253	0.18519	0.096502	0.12051	0.19096	0.16226	0.17891	-2.7521	-2.6188	-3.5104	-2.9125	-2.775	-3.4062	-2.7604	-3.0125	-3.2375	-2.4813	-3.4021	-3.1083	-2.8312	-3.4979	-2.6917	-3.4229	132.796	-120.697	13.538	-48.012	78.548	-8.642	-169.074	119.795	189.817	32.568	52.162	-127.482	60.656	122.174	149.020	19.944	0.00088295	0.00072713	0.00034478	538.86	5.1663e-06	7.986e-06	811.28	186.48	5.9498e-07	2.7254e-06	290.83	119.73	89.171	39.549	1.4176e-05	58.865	0.0011404	0.001063	0.00033306	536.01	1.1624e-05	1.1392e-05	734.23	177.23	1.1386e-05	1.047e-05	281.39	110.47	83.487	36.254	1.1666e-05	53.211	-51.262	-132.645	-138.864	-158.066	176.521	33.980	-159.970	-152.076	57.344	-138.580	-155.769	-152.174	-149.893	-144.135	-48.553	-148.694	-8191	255	
3312.890	1	1	0	0	0.21598	0.066795	0.16664	0.27891	0.10183	0.14424	0.22546	0.32481	0.084876	0.25245	0.25398	0.12958	0.084808	0.35559	0.16981	0.21305	-2.8937	-2.2646	-3.4125	-2.9104	-2.725	-3.2479	-2.7854	-2.8583	-3.275	-2.4833	-3.4896	-3.1521	-2.5521	-3.5146	-2.5938	-3.175	-164.285	66.311	-33.537	-169.155	108.034	81.903	131.792	149.034	-13.044	167.096	112.495	167.455	82.013	177.127	-166.338	-147.816	0.00066245	0.00023635	0.00037515	551.95	2.1603e-05	2.0578e-06	806.42	188.02	1.51e-05	1.4072e-05	292.88	122.24	89.481	40.163	4.7088e-06	59.018	0.00096063	0.00091206	0.00029928	528.45	1.0104e-05	1.0296e-05	733.29	175.6	1.0333e-05	1.014e-05	282.12	110.12	83.018	36.573	1.1661e-05	53.215	-52.504	-83.834	86.102	-158.049	-44.766	115.838	-159.752	-152.147	73.018	65.458	-154.676	-152.312	-150.237	-144.314	16.718	-148.655	-8191	255	
3312.986	1	1	0	0	0.20623	0.33156	0.026745	0.14297	0.16857	0.15135	0.084717	0.12737	0.36216	0.16392	0.20867	0.25186	0.36431	0.41357	0.32049	0.27512	-3.0146	-2.4375	-3.2625	-3.1479	-2.4688	-3.4437	-2.6979	-2.9062	-3.2354	-2.5187	-3.0271	-3.2833	-2.4708	-3.4354	-2.8792	-2.775	82.879	88.208	67.239	-98.130	-43.230	-27.825	-155.620	-104.003	-166.720	-161.668	-151.085	72.722	17.244	-47.252	46.361	141.938	0.00071959	0.00023826	0.00017306	557.01	2.7267e-06	1.0911e-05	810.79	189.77	8.8398e-06	1.1166e-05	297.54	121.93	89.573	40.344	1.4519e-05	59.85	0.00089377	0.00092141	0.00028689	525.84	9.319e-06	1.0129e-05	736.2	174.64	9.2039e-06	1.0085e-05	280.59	110.05	82.63	36.784	1.0605e-05	53.382	-52.467	172.474	67.750	-158.396	-156.679	175.768	-159.775	-152.441	23.207	6.889	-155.401	-152.146	-149.771	-144.645	-136.546	-149.246	-8191	255	
3313.080	1	1	0	0	0.13671	0.18699	0.22509	0.12061	0.097975	0.26286	0.28103	0.086178	0.20279	0.15555	0.20796	0.14999	0.15509	0.12321	0.050716	0.10083	-2.8604	-2.5542	-2.9938	-3.1521	-2.4875	-3.4917	-2.8667	-2.6042	-3.4167	-2.65	-2.9396	-3.2396	-2.4833	-3.2896	-2.8479	-2.7146	154.298	141.257	-132.706	-65.825	121.691	-1.032	116.835	181.885	-6.130	177.622	113.579	46.689	168.146	162.789	31.156	188.803	0.00054245	0.0017293	0.00036591	557.89	4.6251e-06	2.1505e-06	823.21	188.98	9.2269e-06	3.742e-06	293.71	122.43	91.506	40.119	2.1811e-05	59.396	0.00082135	0.00094241	0.00026167	523.65	8.6692e-06	1.0351e-05	738.28	173.77	8.9904e-06	1.0521e-05	279.05	109.8	83.316	36.955	1.0302e-05	53.039	-42.699	118.684	89.957	-158.444	-148.436	-124.187	-160.237	-152.691	18.147	-37.842	-154.801	-152.456	-149.696	-144.892	-11.899	-149.168	-8191	255	
3313.178	1	1	0	0	0.19474	0.011039	0.1888	0.042228	0.2083	0.11934	0.28079	0.17729	0.024803	0.26969	0.15353	0.21233	0.033268	0.22213	0.1929	0.19434	-2.9271	-2.5833	-2.9521	-3.2667	-2.5833	-3.1354	-3.0792	-2.725	-3.4396	-2.7021	-2.8604	-3.1833	-2.3688	-3.2875	-3.0729	-2.5146	-42.555	45.598	-89.003	-94.077	22.027	-104.071	131.594	163.661	-141.548	-125.970	58.058	-127.771	155.828	100.623	178.882	107.962	0.00074745	0.0008006	4.8312e-05	550.06	5.7095e-06	4.7709e-06	826.9	190.49	1.2911e-05	6.2379e-06	300.29	123.25	90.424	40.628	1.6768e-05	60.719	0.00085279	0.00099325	0.00026085	522.74	9.5073e-06	1.1377e-05	737.92	176.02	1.0141e-05	1.1448e-05	282.48	111.03	84.165	37.435	1.0301e-05	53.751	-55.566	101.656	137.002	-157.746	146.581	52.007	-160.045	-152.927	-54.008	-43.616	-155.675	-152.037	-149.729	-144.657	102.017	-148.945	-8191	255	
3313.272	1	1	0	0	0.1639	0.12111	0.078709	0.10166	0.13727	0.19372	0.17769	0.19608	0.16933	0.064622	0.27601	0.072941	0.14592	0.15169	0.15463	0.13102	-2.9479	-2.6688	-2.825	-3.4208	-2.6208	-3.1583	-3.2979	-2.6896	-3.3688	-2.8583	-2.8438	-3.3854	-2.6708	-3.0917	-3.1	-2.7396	-62.828	27.172	-73.061	-141.042	-18.064	-12.826	79.383	58.722	102.792	60.359	-120.619	144.443	113.050	123.898	120.861	80.874	0.00056898	0.0011539	0.00025206	556.89	1.4457e-05	3.1386e-06	827.22	192.35	8.3638e-06	1.7976e-05	296.69	123.89	90.937	40.644	7.6222e-06	60.475	0.00094278	0.0010439	0.00025828	524.9	1.0406e-05	1.1302e-05	741.68	176.93	1.0981e-05	1.1539e-05	281.94	112.06	86.096	37.63	1.0781e-05	54.263	-61.202	158.846	-163.966	-158.155	-4.537	52.740	-160.039	-153.046	9.067	-40.664	-155.515	-152.395	-150.021	-144.631	123.867	-149.436	-8191	255	
3313.369	1	1	0	0	0.17526	0.35269	0.19296	0.16742	0.20839	0.26229	0.17315	0.1538	0.14343	0.11814	0.2035	0.036288	0.17578	0.066464	0.20679	0.11639	-2.8521	-2.8563	-2.6417	-3.4271	-2.525	-2.9396	-3.3667	-2.5979	-3.1896	-3.0396	-2.6875	-3.4083	-2.7458	-2.9917	-3.3521	-2.5271	23.062	-44.163	180.897	95.785	-18.818	78.880	162.913	-72.455	-60.333	55.189	184.917	60.487	28.782	-60.676	-57.995	140.536	0.00065721	0.00028632	8.6042e-05	553.57	1.2603e-05	1.9747e-06	824.19	191.91	9.9304e-06	1.2369e-05	302.9	124.55	90.989	40.68	6.7267e-06	59.943	0.0010658	0.0010687	0.00026602	527.79	1.1757e-05	1.1366e-05	740.33	177.74	1.1631e-05	1.1279e-05	282.79	112.34	86.108	37.23	1.0206e-05	53.904	-79.379	-146.047	36.245	-158.314	-48.551	-13.943	-160.157	-152.702	-21.471	-15.816	-155.747	-152.524	-150.037	-144.319	51.930	-148.863	-8191	255	
3313.465	1	1	0	0	0.15425	0.12878	0.14214	0.20934	0.11863	0.09962	0.18843	0.2424	0.21613	0.083762	0.12137	0.24706	0.045975	0.27382	0.15623	0.18758	-2.9396	-2.9167	-2.4083	-3.3083	-2.7708	-2.9437	-3.2833	-2.5917	-3.0604	-3.0062	-2.5292	-3.475	-2.7938	-2.8167	-3.3833	-2.8042	87.139	-91.595	81.001	-146.592	-142.953	-32.614	174.978	140.737	82.576	-72.817	13.844	131.648	169.230	166.366	163.700	95.504	0.00098814	0.0012403	0.00065181	556.38	6.9923e-06	5.6917e-06	812.63	191.39	7.2196e-06	1.7701e-05	298.67	123.88	91.121	40.486	1.2078e-05	60.63	0.0010685	0.0010062	0.00025057	530.14	1.1997e-05	1.0636e-05	735.35	178.56	1.185e-05	1.0931e-05	279.77	112.99	86.466	37.231	1.0356e-05	54.714	-49.184	32.501	-33.656	-157.827	44.858	66.534	-160.113	-153.268	-13.504	-82.369	-155.081	-152.054	-149.981	-144.468	-100.699	-149.110	-8191	255	
3313.561	1	1	0	0	0.22611	0.11829	0.21242	0.092625	0.096303	0.17826	0.090622	0.12606	0.056968	0.074966	0.16626	0.18795	0.20824	0.31965	0.21547	0.14504	-2.5812	-3.1208	-2.5292	-3.4771	-2.6625	-2.6521	-3.6292	-2.7562	-3.1854	-3.1229	-2.5604	-3.4146	-2.8063	-2.6542	-3.4479	-2.6729	119.371	165.660	72.546	76.343	-27.723	-11.080	29.494	78.587	-170.387	137.045	-43.198	146.667	-163.236	-31.376	158.287	-159.503	0.00067834	0.00044581	0.00017909	558.34	5.9092e-06	9.85e-06	815.85	191.51	1.2746e-05	7.6838e-06	297.91	124.1	90.288	40.667	6.3199e-06	60.25	0.0010917	0.0010183	0.00025923	537.66	1.216e-05	1.0787e-05	740.44	180.05	1.1657e-05	1.0746e-05	280.38	113.64	85.887	37.07	1.0169e-05	54.835	-40.000	43.503	167.349	-158.858	-28.571	-11.331	-160.142	-153.045	39.934	-51.198	-154.938	-151.976	-149.111	-144.567	100.000	-149.426	-8191	255	
3313.681	1	1	0	0	0.29319	0.1253	0.15237	0.20953	0.29686	0.081955	0.070678	0.083485	0.11728	0.17085	0.062039	0.2268	0.18886	0.2182	0.10493	0.13708	-2.6667	-3.0812	-2.4021	-3.1688	-3.1667	-2.5875	-3.5417	-2.5	-2.8604	-3.3083	-2.6688	-3.2167	-3.0667	-2.6688	-3.2729	-2.8688	-140.339	-75.820	-100.399	-98.958	10.713	-63.396	-159.742	112.717	-34.034	37.048	-95.245	-151.421	125.460	60.434	76.641	132.030	0.00065284	0.0018191	0.0003808	557.95	2.2245e-05	5.4103e-06	826.56	192.3	4.3476e-06	1.5221e-05	298.63	123.92	91.569	40.578	7.9638e-06	59.891	0.0010163	0.00096443	0.00025852	540.34	1.1364e-05	1.0324e-05	740.64	180.14	1.1223e-05	1.0612e-05	281.77	113.09	85.536	36.926	1.0908e-05	54.743	-73.244	-2.880	165.552	-158.668	14.021	-6.306	-160.151	-152.725	47.871	-64.516	-155.421	-152.555	-150.310	-144.510	-77.370	-149.819	-8191	255	
3313.753	1	1	0	0	0.26094	0.15582	0.17093	0.058739	0.20516	0.22905	0.19729	0.10863	0.19818	0.25608	0.14128	0.017304	0.31512	0.16675	0.048182	0.21191	-2.3083	-3.3479	-2.5604	-3.1583	-3.0396	-2.725	-3.45	-2.7958	-2.7667	-3.2125	-2.6146	-3.2313	-3.0896	-2.6792	-3.3104	-2.8833	166.514	-101.710	-84.504	10.340	-108.596	-0.987	-166.383	-109.208	-17.443	-7.451	-126.204	117.679	59.816	152.479	-2.000	131.292	0.0011003	0.00055216	0.00037352	553.57	3.3752e-06	7.372e-06	819.41	192.25	5.2764e-06	1.5929e-05	296.83	124.23	91.833	40.882	7.8191e-06	60.699	0.00098182	0.00095374	0.00027391	539.15	1.1111e-05	1.0123e-05	741.53	180.75	1.0779e-05	1.0554e-05	285.6	113.91	85.996	37.175	1.1992e-05	55.368	-39.155	173.859	142.351	-158.215	-65.092	137.504	-160.026	-152.825	-97.206	69.119	-155.524	-152.054	-150.157	-144.486	-134.782	-148.982	-8191	255	
3313.849	1	1	0	0	0.29206	0.10078	0.18694	0.1994	0.13561	0.086688	0.19144	0.2457	0.11102	0.19473	0.12088	0.21564	0.16239	0.12629	0.10057	0.16262	-2.5896	-3.225	-2.5646	-3.0667	-3.1854	-2.4062	-3.2167	-2.9875	-2.5854	-3.2021	-2.6458	-3.0271	-3.2979	-2.7292	-3.2771	-3.075	-26.467	13.837	10.950	123.340	113.665	-96.744	162.643	125.543	-88.202	-38.173	165.924	145.776	153.062	23.682	-82.405	79.429	0.00085325	0.00070785	0.00018083	552.53	1.0171e-05	1.2679e-05	819.51	193.67	7.4588e-06	1.7854e-05	300.48	125.84	91.281	40.743	1.1014e-05	61.212	0.0010145	0.0010115	0.0003116	540.52	1.1214e-05	1.0444e-05	747.86	180.66	1.0349e-05	1.0138e-05	288.44	113.59	85.049	37.082	1.1165e-05	55.102	-77.838	-83.561	23.080	-158.083	186.614	-64.672	-160.212	-152.420	1.615	-115.791	-155.502	-151.789	-150.227	-144.428	-16.961	-148.790	-8191	255	
3313.970	1	1	0	0	0.13648	0.11228	0.20922	0.18119	0.2423	0.24526	0.16758	0.13986	0.1403	0.18793	0.46745	0.039312	0.19274	0.23918	0.11301	0.13401	-2.2042	-3.3667	-2.6583	-3.05	-3.1917	-2.6646	-3.1896	-3.0979	-2.4292	-3.2729	-2.6292	-2.8083	-3.375	-2.6208	-3.1271	-3.0083	-58.213	-85.599	-146.173	68.755	-129.747	116.966	-131.206	178.351	-30.639	114.557	134.920	132.853	-161.390	151.055	47.604	-144.448	0.00068162	0.00094631	0.0007313	562.71	1.1738e-05	1.13e-05	828.99	192.61	1.6019e-05	8.838e-06	301.27	124.58	91.05	41.152	1.4208e-05	60.76	0.00085897	0.00089162	0.00028511	532.48	9.7621e-06	1.0043e-05	751.03	180.04	9.6167e-06	1.0368e-05	288.91	113.07	84.714	37.401	1.1317e-05	54.664	-55.569	128.141	158.336	-158.246	132.747	-124.235	-160.329	-153.102	-14.587	-128.297	-155.442	-152.135	-149.818	-145.536	7.407	-149.170	-8191	255	
3314.066	1	1	0	0	0.20557	0.27335	0.19819	0.24318	0.032294	0.039653	0.16904	0.30392	0.20388	0.15322	0.22706	0.090143	0.15073	0.17768	0.041772	0.089397	-2.0354	-3.3667	-2.5646	-2.5979	-3.3125	-2.725	-3.3708	-3.1188	-2.4792	-3.2438	-2.8292	-2.5292	-3.3875	-2.6396	-2.9583	-3.4437	-39.617	-113.610	-145.747	16.926	-35.872	147.938	59.970	-68.271	-81.608	-56.677	-155.199	100.906	167.627	-12.006	110.683	103.686	0.00058516	0.00043113	0.00045503	563.99	8.5544e-06	1.064e-05	829.27	191.54	6.6384e-06	4.9933e-06	302.28	126.17	92.185	41.007	1.3975e-05	61.245	0.00083983	0.00096208	0.00028561	528.61	9.1708e-06	1.0068e-05	745.89	177.32	8.5323e-06	9.8946e-06	284.11	112.01	83.878	37.209	9.6632e-06	54.315	-24.949	-93.665	-41.115	-158.231	15.869	-87.818	-159.898	-153.295	6.385	-42.037	-155.538	-152.367	-150.508	-145.334	-31.000	-149.704	-8191	255	
3314.162	1	1	0	0	0.1952	0.14731	0.27317	0.24054	0.21139	0.36645	0.27684	0.14352	0.036833	0.083108	0.072085	0.1564	0.11894	0.20008	0.14049	0.073828	-2.1708	-3.2396	-2.9708	-2.5542	-3.4	-2.8146	-3.1229	-3.2354	-2.5458	-3.1208	-2.9646	-2.7354	-3.3667	-2.8271	-2.7062	-3.1167	-6.393	-7.877	142.867	-165.802	-38.342	-87.409	181.263	47.028	-1.279	-33.794	-110.766	119.293	-142.283	-148.747	80.585	126.907	0.0008922	0.00034145	0.00074052	562.43	1.5059e-05	1.1313e-05	836.65	194.29	7.4249e-06	6.5535e-06	305.5	124.86	92.725	40.963	4.6308e-06	62.054	0.00075385	0.00091375	0.0002482	523.47	8.5661e-06	9.9369e-06	745.86	176.87	8.5085e-06	9.9593e-06	284.04	111.48	84.137	37.198	8.9229e-06	54.533	-63.073	53.199	-95.453	-158.248	-90.135	-46.501	-159.767	-152.894	-98.669	-109.234	-155.572	-152.011	-150.474	-145.406	-38.444	-149.610	-8191	255	
3314.258	1	1	0	0	0.1772	0.03522	0.010555	0.09164	0.24638	0.17905	0.32215	0.051959	0.29537	0.073954	0.057007	0.34066	0.41095	0.18046	0.064608	0.047396	-2.0417	-3.1583	-2.8729	-2.4437	-3.3	-2.8542	-3.0167	-3.5375	-2.4688	-3.1792	-3.1333	-2.4583	-3.3333	-2.9313	-2.8438	-3.3875	80.789	125.501	118.378	-157.540	-68.899	163.719	187.190	171.918	100.247	117.406	62.050	171.666	142.851	80.803	-97.212	116.306	0.00081442	0.00065079	0.00042574	566.44	8.5962e-07	7.4152e-06	834.08	193.7	1.8598e-06	1.9269e-05	302.87	125.99	92.2	40.697	1.3629e-05	61.736	0.00078274	0.00091224	0.00023425	523.09	9.1407e-06	1.0281e-05	743.28	176.85	9.2407e-06	1.0084e-05	281.18	111.82	85.004	37.179	8.9457e-06	54.053	-42.483	-117.361	-30.603	-157.939	-90.439	-61.246	-160.147	-152.939	-138.098	107.920	-155.643	-152.435	-149.860	-144.994	-104.791	-148.892	-8191	255	
3314.377	1	1	0	0	0.015927	0.16985	0.13228	0.057856	0.16303	0.080389	0.26658	0.24012	0.22144	0.10451	0.25032	0.032921	0.17854	0.085803	0.052706	0.13058	-2.2729	-3.1646	-3.2125	-2.5354	-3.3979	-2.8208	-2.7458	-3.2833	-2.65	-3.1104	-3.3979	-2.7188	-3.2292	-3.1208	-2.6896	-3.4708	-146.649	49.798	15.558	50.413	-82.945	-40.183	64.059	-141.470	0.064	151.908	132.904	-25.214	126.505	82.208	-59.632	153.433	0.00056767	0.00080607	0.00034367	561.53	4.7672e-06	1.1797e-05	833.2	193.63	1.1591e-05	1.028e-06	304.49	124.98	92.497	40.698	9.1258e-06	61.213	0.00085773	0.00089632	0.00022876	518.65	9.5879e-06	9.7206e-06	739.66	175.77	9.5594e-06	9.7426e-06	280.59	111.38	85.35	37.049	8.9846e-06	54.154	-32.882	-53.413	-73.566	-158.059	163.651	15.911	-159.720	-152.862	1.724	100.288	-156.044	-152.124	-150.132	-144.756	-25.845	-149.285	-8191	255	
3314.449	1	1	0	0	0.17664	0.19686	0.01698	0.081182	0.15511	0.16111	0.33509	0.021723	0.22144	0.16967	0.17399	0.072512	0.1372	0.24752	0.32268	0.41648	-2.3917	-2.8604	-3.3521	-2.3937	-3.0417	-2.8604	-2.8021	-3.2521	-2.6667	-2.8333	-3.2708	-2.5458	-3.2729	-3.1667	-2.4562	-3.3438	-68.443	152.079	-63.542	-25.759	-107.569	44.164	92.965	-67.448	-73.662	136.834	-72.556	134.423	33.048	119.747	-121.163	119.805	0.00091318	0.0012703	0.00050425	556.35	1.631e-05	6.6059e-06	827.22	193.69	2.9676e-06	6.2834e-06	303.95	124.48	92.206	40.884	1.2995e-05	61.488	0.00093984	0.00089873	0.00023531	520.85	1.0598e-05	1.0205e-05	738.83	177.86	1.0784e-05	9.8859e-06	280.76	112.32	86.407	37.279	9.2672e-06	54.814	-58.178	-22.757	54.465	-158.375	-89.546	100.296	-160.251	-152.538	-23.751	60.791	-156.191	-152.344	-149.647	-145.128	-5.818	-149.066	-8191	255	
3314.570	1	1	0	0	0.14033	0.060858	0.11064	0.11232	0.12772	0.14357	0.11207	0.17626	0.19796	0.13483	0.2419	0.35666	0.15389	0.21556	0.070223	0.013551	-2.4729	-2.8396	-3.2542	-2.4396	-3.2125	-3.0271	-2.5625	-3.2417	-2.9583	-2.6208	-3.3208	-2.575	-3.0438	-3.1667	-2.1667	-3.4354	-153.055	-147.491	-97.169	138.359	-161.359	19.905	-116.409	35.927	160.913	12.577	-138.528	83.975	-161.094	94.841	-169.304	-14.872	0.00052053	0.00092785	0.00043427	556.44	1.5447e-05	5.6788e-06	824.41	191.72	8.2405e-06	8.1571e-06	301.34	124.07	91.624	40.787	3.0151e-06	60.384	0.0010184	0.0009234	0.00024264	530.35	1.1122e-05	1.0205e-05	734.11	178.32	1.0808e-05	9.6066e-06	279.1	112.03	85.759	36.926	9.0024e-06	54.4	-40.255	-130.782	-103.099	-158.374	37.104	19.058	-159.871	-152.382	-36.423	-56.148	-155.555	-152.365	-149.841	-144.427	-76.141	-148.996	-8191	255	
3314.666	1	1	0	0	0.21652	0.13405	0.099195	0.24959	0.1442	0.10528	0.061562	0.21384	0.15631	0.089931	0.020954	0.028923	0.15255	0.21141	0.19327	0.13879	-2.4625	-2.5979	-3.3167	-2.6792	-3.0438	-3.3375	-2.4333	-3.275	-3.1125	-2.5792	-3.4583	-2.5771	-2.925	-3.3146	-2.3625	-3.2104	-50.201	-82.623	-133.881	-89.124	85.547	-96.731	-151.628	-156.093	-26.661	4.376	189.229	-142.342	116.884	84.511	34.583	150.934	0.00056596	0.00041007	0.000323	552.31	4.988e-06	6.2686e-06	813.83	190.56	1.2655e-05	2.3503e-06	298.68	123.05	91.198	40.49	2.7772e-06	60.018	0.00097347	0.00089924	0.00024509	529	1.0844e-05	1.0362e-05	727.3	179.66	1.1314e-05	1.0467e-05	282.12	113.06	86.413	37.177	1.0763e-05	55.204	-48.640	-112.023	183.212	-157.766	-35.437	-97.275	-160.092	-152.325	71.930	-94.362	-155.547	-152.470	-150.078	-145.006	-124.360	-149.391	-8191	255	
3314.762	1	1	0	0	0.34134	0.16387	0.16947	0.41918	0.35705	0.062623	0.079491	0.06019	0.051179	0.15765	0.060738	0.2373	0.19485	0.19505	0.12146	0.12966	-2.5458	-2.6063	-3.2417	-2.6896	-2.6833	-3.3771	-2.5333	-3.1188	-3.1104	-2.3792	-3.4875	-2.8146	-2.7979	-3.3417	-2.5542	-3.15	130.916	-148.477	17.122	-165.538	170.651	-101.612	108.844	113.499	-4.466	-41.369	116.163	-156.376	-65.645	184.602	163.049	-24.090	0.00080874	0.00022052	0.00041031	548	9.2095e-06	4.4054e-06	807.47	189.15	1.3796e-05	4.8179e-06	296.11	122.92	91.166	40.32	1.6645e-05	60.736	0.0010849	0.0010077	0.00029202	537.08	1.1765e-05	1.1369e-05	729.23	180.37	1.1793e-05	1.0894e-05	283.87	113.52	86.155	37.212	1.1674e-05	55.244	-40.763	-91.986	-90.987	-158.557	-146.239	65.890	-159.855	-152.664	-11.810	110.224	-156.047	-152.431	-149.404	-144.529	-168.089	-149.199	-8191	255	
3314.858	1	1	0	0	0.092247	0.31408	0.10959	0.11954	0.17351	0.15049	0.16011	0.094907	0.064052	0.17498	0.15645	0.34315	0.060658	0.16897	0.2778	0.17327	-2.75	-2.4646	-3.2438	-2.9125	-2.5542	-3.2458	-2.6458	-2.9917	-3.1104	-2.6708	-3.2792	-2.8979	-2.6688	-3.2021	-2.4208	-3.1625	-20.206	-113.228	-37.730	93.986	92.581	-54.763	-167.949	143.980	54.479	-33.743	154.055	-143.614	-15.187	184.457	-151.757	-154.736	0.00077551	0.0020632	0.00043226	541.72	5.1539e-06	2.5717e-06	798.64	185.91	7.5151e-06	1.7381e-05	296.26	122.7	91.396	40.681	1.19e-05	59.594	0.0010652	0.00098593	0.00031346	534.05	1.1526e-05	1.144e-05	729.26	179.72	1.2156e-05	1.1426e-05	289.89	114.1	86.617	37.592	1.3721e-05	55.184	-44.596	-72.679	-131.062	-158.945	181.138	-119.976	-160.189	-152.765	-130.784	25.413	-155.254	-151.754	-149.686	-144.374	-156.819	-149.367	-8191	255	
3314.979	1	1	0	0	0.14808	0.2125	0.091255	0.17551	0.1506	0.1962	0.15579	0.10923	0.19026	0.12118	0.17097	0.12414	0.13077	0.085542	0.21238	0.18447	-2.875	-2.7083	-3.3083	-2.9271	-2.5104	-3.4771	-2.8104	-3.0021	-3.1312	-2.5625	-3.1375	-2.8125	-2.7188	-3.5167	-2.6396	-2.8542	-153.786	-113.385	138.664	130.472	-79.615	-33.823	-165.676	-163.899	-9.255	-96.491	107.596	-135.355	69.416	-92.400	-93.002	93.482	0.00065653	0.0006201	0.00032044	536.87	1.5495e-05	1.0823e-05	785.03	188.83	2.7815e-06	3.7227e-06	290.3	121.98	89.932	40.592	3.2635e-06	59.955	0.0011286	0.0010863	0.00036015	533.56	1.2225e-05	1.252e-05	729.13	180.09	1.2837e-05	1.2584e-05	293.35	113.78	86.114	37.908	1.4563e-05	55.212	-71.798	21.558	189.045	-158.287	63.015	-153.089	-159.769	-152.574	-154.582	1.933	-155.533	-152.201	-150.306	-144.359	-29.427	-148.699	-8191	255	
3315.050	1	1	0	0	0.094979	0.2258	0.13098	0.040337	0.15026	0.069557	0.10128	0.085252	0.086229	0.27362	0.23794	0.25153	0.23784	0.30319	0.20472	0.18479	-2.9792	-2.525	-3.1437	-3.0396	-2.6188	-3.1688	-2.9437	-2.8125	-3.2625	-2.5687	-3.1021	-3.1479	-2.6292	-3.3812	-2.7708	-2.8604	-87.605	101.389	-136.290	-90.449	-167.215	-27.450	-150.684	83.282	26.209	90.410	-168.059	156.007	119.501	-128.147	34.791	-164.363	0.00081412	0.00043316	0.000211	535.82	8.8051e-06	1.6477e-05	779.34	187.93	5.4174e-06	1.1403e-05	296.12	122.36	91.459	40.894	1.7384e-05	60.842	0.0011349	0.0011735	0.0003716	527.84	1.2153e-05	1.3438e-05	728.14	179.4	1.252e-05	1.3626e-05	295.84	114.13	86.81	38.497	1.4783e-05	55.776	-48.501	-155.627	165.003	-158.446	-125.157	-93.721	-160.464	-152.696	-2.004	-89.593	-155.625	-152.301	-149.806	-144.363	-49.950	-148.635	-8191	255	
3315.146	1	1	0	0	0.15102	0.2493	0.098186	0.071731	0.23533	0.087392	0.25698	0.2309	0.29113	0.14807	0.17635	0.39108	0.10879	0.24843	0.2285	0.11737	-2.9	-2.5833	-3.0333	-3.0062	-2.5375	-3.3479	-3.0542	-2.7542	-3.3958	-2.6562	-2.9938	-3.3271	-2.5917	-3.3354	-2.8896	-2.6583	-3.693	-7.438	9.730	-153.128	86.495	-32.027	90.606	95.947	-102.125	139.233	-165.758	128.434	42.575	170.868	62.238	177.764	0.00053688	0.00078047	0.00021529	529.99	1.4343e-05	5.3549e-06	787.14	187.46	5.1094e-07	7.3588e-06	292.82	124.03	90.374	40.884	1.3661e-05	60.632	0.0011543	0.0013202	0.0003775	530	1.2548e-05	1.4976e-05	730.29	180.09	1.2947e-05	1.5057e-05	292.9	114.61	86.925	38.862	1.4571e-05	55.504	-34.617	-36.697	74.978	-157.426	-42.336	-45.511	-159.860	-152.322	-146.895	-35.596	-155.367	-152.597	-149.874	-144.442	32.178	-148.771	-8191	255	
3315.265	1	1	0	0	0.11929	0.082908	0.10579	0.13031	0.051992	0.27534	0.25185	0.1856	0.30759	0.20696	0.24987	0.087515	0.15029	0.17456	0.15232	0.20887	-2.9542	-2.6562	-2.7687	-3.1125	-2.5312	-3.025	-3.0458	-2.5167	-3.2646	-2.5	-2.9125	-3.3229	-2.5146	-3.3125	-3.0125	-2.6792	30.835	-67.021	-2.798	156.286	7.937	-116.520	162.015	92.855	124.656	-99.173	127.933	62.769	-160.298	169.765	-24.266	-90.122	0.0010193	0.0016497	0.00043924	529.53	4.438e-06	1.9777e-06	777.6	186.94	2.0836e-05	9.9419e-06	289.85	123.68	91.388	40.526	2.2973e-06	60.815	0.0011918	0.0013922	0.0003603	526.86	1.2836e-05	1.4995e-05	720.99	177.24	1.2765e-05	1.4281e-05	286.07	112.99	86.527	38.204	1.2771e-05	54.753	-56.392	149.603	131.293	-157.833	-78.613	10.406	-160.269	-152.845	-130.599	-87.275	-155.746	-152.280	-150.521	-144.589	140.370	-148.786	-8191	255	
3315.361	1	1	0	0	0.064022	0.063504	0.31674	0.23308	0.092668	0.18862	0.14153	0.17336	0.18266	0.20894	0.24908	0.20663	0.2153	0.2043	0.11898	0.34197	-3.0417	-2.7146	-2.9354	-3.3563	-2.4313	-3.2104	-3.175	-2.4979	-3.4167	-2.7208	-2.8063	-3.3979	-2.5146	-3.1021	-3.1479	-2.5375	99.421	-103.606	-147.327	96.119	103.460	-1.812	78.213	-106.271	-70.697	157.874	146.157	139.321	48.557	161.321	178.564	119.533	0.00093554	0.00097234	0.00036965	531.72	1.6261e-05	5.7244e-06	785.17	188.68	7.226e-06	1.6148e-06	293.11	124.67	90.622	41.289	3.5258e-06	60.824	0.0011415	0.0012984	0.00031913	519.48	1.2906e-05	1.405e-05	719.2	177.66	1.3293e-05	1.3797e-05	285.13	113.36	87.425	38.491	1.2247e-05	55.071	-75.096	-147.878	-81.184	-158.237	-138.369	159.941	-160.344	-152.814	-136.904	-133.779	-155.389	-152.289	-149.710	-144.559	145.509	-148.571	-8191	255	
3315.458	1	1	0	0	0.20216	0.28418	0.1675	0.066535	0.16455	0.49401	0.22064	0.15679	0.051146	0.27215	0.19709	0.2282	0.12848	0.084331	0.19129	0.13886	-2.7167	-3.125	-2.4792	-3.3146	-2.4688	-2.7708	-3.3438	-2.5792	-3.2667	-2.9188	-2.6708	-3.3958	-2.6875	-3.0146	-3.1437	-2.6125	106.193	-156.370	40.884	-109.419	87.394	73.219	98.111	-154.904	25.404	-107.776	151.809	109.888	-145.226	5.289	130.240	63.423	0.00076291	0.00097996	7.773e-05	533.79	1.2279e-05	1.1412e-05	789.62	190.2	1.6698e-05	1.4241e-05	296.68	125.47	91.642	41.239	6.441e-06	61.674	0.0011853	0.001203	0.0002927	517.56	1.2954e-05	1.2301e-05	720.32	177.25	1.2576e-05	1.2003e-05	282.22	113.45	87.393	37.938	1.0502e-05	55.111	-45.173	-60.362	-121.996	-158.221	-111.764	-26.466	-159.890	-152.651	-57.723	24.627	-155.350	-152.019	-150.205	-144.393	-65.241	-149.447	-8191	255	
3315.554	1	1	0	0	0.047889	0.076357	0.25734	0.26236	0.1082	0.2003	0.18593	0.090305	0.24524	0.14424	0.11977	0.18338	0.23077	0.26082	0.21299	0.2845	-3.0208	-3.1229	-2.4917	-3.1917	-2.5833	-2.9146	-3.4354	-2.6437	-3.2167	-3.1146	-2.4771	-3.3146	-2.7021	-2.8583	-3.25	-2.4979	103.208	-73.489	82.128	-170.200	-92.331	-37.258	89.043	94.467	96.448	18.777	144.837	24.879	72.534	-83.715	84.980	118.310	0.00044486	0.00099116	0.00055394	541.19	1.1449e-05	1.1391e-05	794.79	191	5.9391e-06	6.555e-06	297.02	124.17	91.709	41.605	8.8657e-06	60.933	0.0011002	0.0010169	0.00025674	516.51	1.1902e-05	1.0754e-05	716.58	176.89	1.1612e-05	1.0648e-05	278.57	112.98	86.671	37.691	9.6576e-06	54.906	-19.132	29.679	-64.406	-158.382	-12.076	-74.395	-159.626	-152.659	173.983	-147.177	-155.328	-152.383	-149.836	-144.162	179.833	-149.113	-8191	255	
3315.650	1	1	0	0	0.10219	0.1827	0.18147	0.17301	0.18337	0.099228	0.26062	0.10036	0.14619	0.24761	0.067785	0.1629	0.032935	0.050107	0.15834	0.31367	-2.8771	-3.1146	-2.5062	-3.2333	-2.775	-2.6875	-3.3604	-2.5792	-2.9896	-3.3042	-2.5375	-3.2625	-2.75	-2.6625	-3.4292	-2.7313	5.957	-166.749	181.657	-113.153	-104.957	-157.258	104.743	64.203	-159.632	114.428	-167.961	156.843	180.152	-85.665	-119.540	131.447	0.0010152	0.0014986	0.00012284	545.25	1.2439e-05	7.5394e-06	803.6	192.21	9.9478e-06	1.0537e-05	301.45	125.4	92.452	41.833	9.046e-06	61.655	0.00098737	0.00091868	0.00023239	519.38	1.0882e-05	9.754e-06	714.87	178.27	1.0541e-05	9.6915e-06	278.18	113.8	85.675	37.372	8.7142e-06	55.252	-51.712	156.453	-96.180	-157.763	148.994	-31.590	-160.060	-152.641	93.590	79.762	-155.437	-152.072	-149.981	-144.648	-68.535	-148.955	-8191	255	
3315.744	1	1	0	0	0.11722	0.09281	0.15542	0.18628	0.092074	0.14922	0.16322	0.14026	0.22951	0.35622	0.12219	0.11868	0.25084	0.13264	0.23539	0.042634	-2.4604	-3.2979	-2.5771	-3.1208	-2.825	-2.7667	-3.4021	-2.5812	-2.9375	-3.1125	-2.5917	-2.9938	-2.875	-2.7021	-3.3375	-2.7021	-75.077	-100.934	-53.120	127.403	60.679	-43.353	166.974	-24.175	89.244	6.468	-51.132	47.071	166.140	64.035	-16.144	88.016	0.00081203	0.00036124	0.00039442	544.68	4.5533e-06	6.3049e-06	814.05	194.17	1.3878e-05	2.097e-05	304.66	127.43	92.444	41.426	8.8543e-06	62.561	0.00085973	0.00080775	0.00021224	514.77	9.2318e-06	8.2763e-06	720.89	178.21	8.6654e-06	8.2779e-06	278.82	114.03	84.82	37.322	8.6187e-06	55.554	-32.178	-104.803	79.359	-157.803	-64.328	-56.659	-160.125	-152.506	-27.702	96.623	-155.465	-151.854	-149.809	-144.638	-107.043	-149.195	-8191	255	
3315.840	1	1	0	0	0.27132	0.20405	0.11167	0.31031	0.15601	0.19641	0.18217	0.37886	0.16952	0.095553	0.081082	0.30626	0.20896	0.21534	0.15591	0.37612	-2.3063	-3.3542	-2.4521	-3.1792	-3.0917	-2.6688	-3.4792	-2.7729	-2.6688	-3.3792	-2.4437	-2.9729	-3.125	-2.5812	-3.3521	-2.8937	118.999	-144.124	141.851	-131.897	-55.223	-105.419	136.677	-146.107	135.494	75.877	-49.693	152.647	144.633	122.914	174.855	72.321	0.00095413	0.00074689	0.00014057	546.09	1.6739e-05	8.2125e-06	812.15	192.61	1.266e-05	1.4766e-05	304.48	126.57	92.667	41.653	5.6398e-06	62.432	0.00080124	0.00077102	0.00022455	517.12	8.8877e-06	8.23e-06	726.41	178.05	8.7672e-06	8.4085e-06	281.31	113.99	84.656	37.286	9.1527e-06	55.4	-35.575	-149.256	-57.095	-158.358	-103.111	-166.349	-159.810	-152.757	-42.108	-138.945	-155.592	-151.928	-149.439	-144.700	-164.380	-149.374	-8191	255	
3315.961	1	1	0	0	0.03934	0.10276	0.20646	0.28664	0.14384	0.24568	0.20819	0.045577	0.072173	0.080429	0.2149	0.11055	0.12	0.29445	0.018723	0.16699	-2.2	-3.4083	-2.575	-3.0979	-3.1875	-2.6833	-3.3479	-3.0604	-2.4562	-3.525	-2.5958	-3.0875	-3.1708	-2.4729	-3.4042	-3.0292	-27.647	151.111	-57.697	-71.224	-100.263	-75.703	111.506	-77.041	-1.329	94.213	103.540	168.107	142.121	77.680	-17.251	107.688	0.00082307	0.0012061	0.00043266	550.43	4.4562e-06	6.6331e-06	822.59	195.21	1.8985e-06	6.601e-06	308.69	129.54	94.013	42.128	1.0392e-05	63.03	0.0007627	0.00074109	0.00023155	515.71	8.4478e-06	7.9808e-06	732.1	179.01	8.5599e-06	8.4726e-06	287.65	115.18	85.789	37.74	1.0242e-05	56.158	-54.387	-11.928	85.290	-158.349	-35.233	-80.038	-159.896	-152.449	119.161	-84.586	-155.435	-152.056	-149.618	-144.704	-139.338	-148.902	-8191	255	
#DATA ENDS
