BOXY.EXE: ISS Imagent and Oximeter Data Acquisition Program Version 0.80
Ascii Record File

#ACQ INFORMATION
2  Detector Channels 
16  External MUX Channels 
1  Auxiliary Channels 
5000  Waveform (CCF) Frequency (Hz)
1  Waveforms Skipped 
30  Waveforms Averaged 
1  Cycles Averaged 
16  Acquisitions per Waveform 
10.0806  Updata Rate (Hz) 

#FILE INFORMATION
TRUE -- External MUX Channel results are PARSED.
FALSE -- AC DC and Phase are NOT grouped.
TRUE -- Companion Program Settings File CREATED.
FALSE -- AC data not excluded
FALSE -- DC data not excluded
FALSE -- Phase data not excluded
FALSE -- Auxillary Chn. data not excluded
Tab delimiters

#CALIBRATION STATE
TRUE -- Waveform Calibration Values APPLIED.


#AUX CALIBRATION VALUES
Val Type	aux-1	

Term	1.0000e+00	
Factor	0.0000e+00	


#WF CALIBRATION VALUES
A = Detector Channel
Val Type	A-AC1	A-AC2	A-AC3	A-AC4	A-AC5	A-AC6	A-AC7	A-AC8	A-AC9	A-AC10	A-AC11	A-AC12	A-AC13	A-AC14	A-AC15	A-AC16	A-DC1	A-DC2	A-DC3	A-DC4	A-DC5	A-DC6	A-DC7	A-DC8	A-DC9	A-DC10	A-DC11	A-DC12	A-DC13	A-DC14	A-DC15	A-DC16	A-Ph1	A-Ph2	A-Ph3	A-Ph4	A-Ph5	A-Ph6	A-Ph7	A-Ph8	A-Ph9	A-Ph10	A-Ph11	A-Ph12	A-Ph13	A-Ph14	A-Ph15	A-Ph16	

Term	0.00000e+00	0.00000e+00	0.00000e+00	0.00000e+00	0.00000e+00	0.00000e+00	0.00000e+00	0.00000e+00	0.00000e+00	0.00000e+00	0.00000e+00	0.00000e+00	0.00000e+00	0.00000e+00	0.00000e+00	0.00000e+00	0.00000e+00	0.00000e+00	0.00000e+00	0.00000e+00	0.00000e+00	0.00000e+00	0.00000e+00	0.00000e+00	0.00000e+00	0.00000e+00	0.00000e+00	0.00000e+00	0.00000e+00	0.00000e+00	0.00000e+00	0.00000e+00	0.00000e+00	0.00000e+00	0.00000e+00	0.00000e+00	0.00000e+00	0.00000e+00	0.00000e+00	0.00000e+00	0.00000e+00	0.00000e+00	0.00000e+00	0.00000e+00	0.00000e+00	0.00000e+00	0.00000e+00	0.00000e+00	
Factor	1.00000e+00	1.00000e+00	1.00000e+00	1.00000e+00	1.00000e+00	1.00000e+00	1.00000e+00	1.00000e+00	1.00000e+00	1.00000e+00	1.00000e+00	1.00000e+00	1.00000e+00	1.00000e+00	1.00000e+00	1.00000e+00	1.00000e+00	1.00000e+00	1.00000e+00	1.00000e+00	1.00000e+00	1.00000e+00	1.00000e+00	1.00000e+00	1.00000e+00	1.00000e+00	1.00000e+00	1.00000e+00	1.00000e+00	1.00000e+00	1.00000e+00	1.00000e+00	X	X	X	X	X	X	X	X	X	X	X	X	X	X	X	X	

B = Detector Channel
Val Type	B-AC1	B-AC2	B-AC3	B-AC4	B-AC5	B-AC6	B-AC7	B-AC8	B-AC9	B-AC10	B-AC11	B-AC12	B-AC13	B-AC14	B-AC15	B-AC16	B-DC1	B-DC2	B-DC3	B-DC4	B-DC5	B-DC6	B-DC7	B-DC8	B-DC9	B-DC10	B-DC11	B-DC12	B-DC13	B-DC14	B-DC15	B-DC16	B-Ph1	B-Ph2	B-Ph3	B-Ph4	B-Ph5	B-Ph6	B-Ph7	B-Ph8	B-Ph9	B-Ph10	B-Ph11	B-Ph12	B-Ph13	B-Ph14	B-Ph15	B-Ph16	

Term	0.00000e+00	0.00000e+00	0.00000e+00	0.00000e+00	0.00000e+00	0.00000e+00	0.00000e+00	0.00000e+00	0.00000e+00	0.00000e+00	0.00000e+00	0.00000e+00	0.00000e+00	0.00000e+00	0.00000e+00	0.00000e+00	0.00000e+00	0.00000e+00	0.00000e+00	0.00000e+00	0.00000e+00	0.00000e+00	0.00000e+00	0.00000e+00	0.00000e+00	0.00000e+00	0.00000e+00	0.00000e+00	0.00000e+00	0.00000e+00	0.00000e+00	0.00000e+00	-9.29852e+01	-1.33296e+02	-1.17972e+02	-1.83514e+02	-6.10041e+01	-6.68737e+01	-1.55681e+02	-1.62015e+02	-6.37700e+01	-6.08445e+01	-1.71225e+02	-1.69747e+02	-1.80595e+02	-1.76656e+02	-4.62200e+01	-1.49255e+02	
Factor	1.72239e-05	1.51077e-04	3.90219e-05	1.52671e-01	1.29822e-06	1.61351e-06	1.77629e-01	5.79230e-02	1.04663e-06	1.52934e-06	9.62527e-02	2.99250e-02	2.79958e-02	9.77860e-03	1.33337e-06	1.40708e-02	2.65951e-06	2.92866e-06	8.15356e-07	7.75076e-02	3.17008e-08	3.21495e-08	8.47087e-02	2.93650e-02	3.17257e-08	3.22051e-08	4.70433e-02	1.47731e-02	1.43622e-02	4.97118e-03	3.19154e-08	6.90677e-03	X	X	X	X	X	X	X	X	X	X	X	X	X	X	X	X	



#DISTANCE SETTINGS
A = Detector Channel
A-1	A-2	A-3	A-4	A-5	A-6	A-7	A-8	A-9	A-10	A-11	A-12	A-13	A-14	A-15	A-16	

2.5000e+00	3.0000e+00	2.5000e+00	3.0000e+00	2.0000e+00	3.0000e+00	1.5000e+00	3.0000e+00	3.0000e+00	3.0000e+00	3.0000e+00	3.0000e+00	3.0000e+00	3.0000e+00	1.5000e+00	3.0000e+00	

B = Detector Channel
B-1	B-2	B-3	B-4	B-5	B-6	B-7	B-8	B-9	B-10	B-11	B-12	B-13	B-14	B-15	B-16	

1.0000e+01	1.0000e+01	1.0000e+01	1.4400e+00	1.0000e+01	1.0000e+01	1.5100e+00	1.9400e+00	1.0000e+01	1.0000e+01	1.9900e+00	2.4900e+00	2.4100e+00	2.9000e+00	1.0000e+01	2.9800e+00	




#DATA BEGINS
time	group	step	mark	flag	A-AC1	A-AC2	A-AC3	A-AC4	A-AC5	A-AC6	A-AC7	A-AC8	A-AC9	A-AC10	A-AC11	A-AC12	A-AC13	A-AC14	A-AC15	A-AC16	A-DC1	A-DC2	A-DC3	A-DC4	A-DC5	A-DC6	A-DC7	A-DC8	A-DC9	A-DC10	A-DC11	A-DC12	A-DC13	A-DC14	A-DC15	A-DC16	A-Ph1	A-Ph2	A-Ph3	A-Ph4	A-Ph5	A-Ph6	A-Ph7	A-Ph8	A-Ph9	A-Ph10	A-Ph11	A-Ph12	A-Ph13	A-Ph14	A-Ph15	A-Ph16	B-AC1	B-AC2	B-AC3	B-AC4	B-AC5	B-AC6	B-AC7	B-AC8	B-AC9	B-AC10	B-AC11	B-AC12	B-AC13	B-AC14	B-AC15	B-AC16	B-DC1	B-DC2	B-DC3	B-DC4	B-DC5	B-DC6	B-DC7	B-DC8	B-DC9	B-DC10	B-DC11	B-DC12	B-DC13	B-DC14	B-DC15	B-DC16	B-Ph1	B-Ph2	B-Ph3	B-Ph4	B-Ph5	B-Ph6	B-Ph7	B-Ph8	B-Ph9	B-Ph10	B-Ph11	B-Ph12	B-Ph13	B-Ph14	B-Ph15	B-Ph16	aux-1	digaux	

268.200	1	1	0	768	0.086332	0.24093	0.22828	0.27556	0.13046	0.39127	0.19896	0.38876	0.27034	0.026977	0.095079	0.13606	0.29744	0.4224	0.15444	0.36407	-0.81875	-1.8479	-1.4375	-1.5812	-2.0667	-1.2458	-1.9729	-1.975	-0.98333	-2	-1.6021	-1.4562	-1.9792	-1.1604	-1.6208	-2.0646	-85.935	219.838	-44.672	146.823	88.790	84.150	168.538	228.246	-47.619	-78.387	148.546	190.707	169.306	117.202	96.283	163.402	0.00023193	0.000609	0.00013939	1365.1	5.9431e-06	4.5227e-06	1356.4	365.9	2.4194e-06	3.6383e-06	420.47	138.36	121.04	41.872	3.8676e-06	52.049	0.00047719	0.00049163	0.00013614	1369.3	5.354e-06	5.2534e-06	1368.5	370.08	5.3308e-06	5.3448e-06	423.71	141.82	123.41	42.613	5.3438e-06	52.84	234.884	-72.182	-38.041	-104.544	16.169	57.054	-104.311	-99.938	36.476	56.660	-100.392	-96.044	-95.339	-91.041	-44.674	-91.444	-8191	255	
268.296	1	1	0	0	0.14345	0.12871	0.26497	0.53971	0.18379	0.061747	0.11313	0.086924	0.3408	0.26103	0.17817	0.26003	0.083528	0.16341	0.25597	0.22909	-0.725	-2.0062	-1.4583	-1.5187	-2.0979	-1.1875	-1.9	-2.2583	-1.3125	-2.05	-1.6979	-1.3417	-2.075	-1.3229	-1.2917	-1.8146	-32.050	50.035	216.798	203.885	22.831	90.328	-107.714	233.826	5.767	-20.468	218.333	237.159	177.583	-78.820	230.203	-79.419	0.00024108	0.00028751	8.1732e-05	1363.5	3.8956e-06	4.2216e-06	1356	366.09	2.536e-06	4.755e-06	418.93	138.2	120.69	41.919	6.6241e-06	51.843	0.00047615	0.00048717	0.0001344	1369.1	5.3289e-06	5.2422e-06	1366.1	370.05	5.2846e-06	5.3144e-06	422.29	141.51	123.18	42.55	5.254e-06	52.724	229.663	-3.981	12.124	-104.441	-17.180	30.870	-104.352	-99.979	31.335	66.214	-100.174	-95.916	-95.541	-91.245	76.151	-91.792	-8191	255	
268.392	1	1	0	0	0.32577	0.17382	0.24463	0.26128	0.14315	0.23243	0.029759	0.25229	0.27934	0.2078	0.19507	0.24992	0.27106	0.21194	0.044508	0.28438	-0.62708	-1.6979	-1.6271	-1.3625	-1.7292	-1.1812	-1.4438	-2.1021	-1.075	-1.8042	-2	-1.2646	-2.2458	-1.5875	-1.4229	-1.9667	76.912	13.553	220.554	-88.083	66.832	147.749	25.737	122.871	-58.540	11.306	158.419	239.939	108.475	160.571	192.270	129.754	0.00029567	0.00034118	0.00010199	1359.9	3.8958e-06	5.6672e-06	1354.4	365.96	1.0116e-06	9.1583e-06	418.01	138.16	120.56	41.628	6.4561e-06	51.888	0.00047515	0.00047648	0.00013511	1367.9	5.2152e-06	5.2244e-06	1365.9	369.77	5.3137e-06	5.2881e-06	422.97	141.5	123.21	42.574	5.3332e-06	52.739	-113.309	-36.081	-2.519	-104.524	51.696	73.117	-104.336	-99.852	39.729	73.638	-100.560	-96.022	-95.445	-91.023	78.460	-91.564	-8191	255	
268.488	1	1	0	0	0.30428	0.20287	0.20366	0.40345	0.16398	0.31092	0.30449	0.044432	0.33013	0.20314	0.14885	0.28394	0.09247	0.068478	0.043313	0.23749	-0.83333	-1.6875	-1.75	-1.2437	-2.0062	-1.5771	-1.4333	-2.0062	-1.0333	-1.7	-2.0083	-1.2396	-1.8021	-1.4979	-1.0708	-2.0146	52.411	5.131	-107.124	-111.126	0.098	50.513	205.854	190.047	31.598	139.064	22.708	203.334	-88.993	6.573	184.165	94.233	0.00026768	0.00048283	0.00010093	1366.1	3.0036e-06	4.1435e-06	1357.7	365.92	2.0841e-06	1.4396e-06	418.69	138.36	120.75	41.802	4.779e-06	51.797	0.00048013	0.00048994	0.00013569	1369.5	5.3894e-06	5.3732e-06	1366.9	370.12	5.3433e-06	5.3744e-06	422.78	141.76	123.15	42.568	5.345e-06	52.718	-117.293	-37.421	-5.904	-104.436	22.704	0.835	-104.142	-99.887	19.013	41.359	-100.519	-96.149	-95.667	-90.874	56.168	-91.617	-8191	255	
268.583	1	1	0	0	0.16519	0.19337	0.058943	0.088029	0.24034	0.17598	0.55837	0.19198	0.2479	0.051176	0.068923	0.13054	0.16349	0.11372	0.068521	0.23183	-0.83958	-1.325	-1.8229	-1.25	-1.9854	-1.7812	-1.3375	-2.2625	-1.2729	-1.3771	-1.9771	-1.1333	-1.9833	-1.9375	-1.0083	-2.05	10.898	-100.478	128.745	-39.882	-35.226	103.466	220.800	209.432	159.093	14.052	117.674	205.762	211.496	69.309	86.541	-105.097	0.00023205	0.00081802	0.00012049	1361.9	2.7546e-06	4.4583e-06	1355.8	367.45	3.6308e-06	5.2984e-06	418.15	138.28	120.46	41.94	5.5826e-06	51.648	0.00047616	0.00049177	0.00013388	1368.6	5.2948e-06	5.3048e-06	1367.4	370.29	5.3252e-06	5.2684e-06	422.11	141.49	123.27	42.577	5.2775e-06	52.743	240.191	-32.239	-29.207	-104.517	28.264	54.220	-104.378	-100.094	-7.506	31.028	-100.461	-96.428	-95.322	-91.010	46.060	-91.264	-8191	255	
268.680	1	1	0	0	0.35454	0.13897	0.14561	0.22678	0.089391	0.067997	0.24833	0.18857	0.044903	0.12642	0.163	0.26215	0.13547	0.10303	0.087456	0.25059	-0.97292	-1.1187	-1.8146	-1.2563	-1.6063	-1.9104	-1.6083	-2.2958	-1.6979	-1.5458	-2.4292	-1.2583	-1.9708	-1.8875	-0.91042	-2.0854	63.016	21.134	-62.064	229.714	-35.265	-112.528	104.406	180.289	118.920	240.326	-94.087	234.656	-95.341	77.044	66.616	159.628	0.00020141	0.00038569	9.8013e-05	1362.7	1.7045e-06	6.0484e-06	1354.2	365.19	1.7083e-06	8.1759e-06	418.23	138.44	120.94	41.854	3.5249e-06	51.882	0.00047497	0.00048217	0.00013507	1368.3	5.3815e-06	5.3609e-06	1365.2	370.05	5.3392e-06	5.4249e-06	422.23	141.41	123.27	42.531	5.3613e-06	52.769	240.785	-65.374	-11.162	-104.479	61.429	0.158	-104.292	-99.675	20.667	29.558	-100.454	-96.099	-95.363	-91.128	37.138	-91.583	-8191	255	
268.799	1	1	0	0	0.21315	0.16374	0.19355	0.20872	0.086003	0.22911	0.40703	0.13372	0.095586	0.067429	0.18502	0.19809	0.21808	0.2939	0.38002	0.20536	-1.2521	-1.2021	-2.1354	-1.2958	-1.75	-1.9646	-1.5146	-2.1208	-1.7417	-1.1396	-2.1375	-1.2938	-1.6083	-2.0958	-0.82292	-1.8563	-115.220	60.277	90.632	-95.588	224.161	88.873	209.880	198.219	184.583	-83.929	42.807	237.069	-97.016	210.995	-73.796	110.312	0.00024983	0.00057623	0.0002135	1360.8	6.0138e-06	1.8065e-06	1357.3	365.97	6.2096e-06	4.3144e-06	418.01	138.52	121.03	41.939	2.8324e-06	51.919	0.00048638	0.00049177	0.00013669	1368.4	5.418e-06	5.3366e-06	1366.5	370.45	5.4398e-06	5.3961e-06	423.31	141.48	123.51	42.607	5.4197e-06	52.834	239.965	-2.088	-32.170	-104.419	23.509	-1.894	-104.355	-99.929	14.070	-23.677	-100.514	-96.025	-95.390	-91.067	110.242	-91.513	-8191	255	
268.895	1	1	0	0	0.064429	0.098851	0.24495	0.10834	0.12692	0.30502	0.28009	0.24677	0.18382	0.27646	0.23732	0.073338	0.22022	0.085319	0.12912	0.31174	-1.2125	-1.1167	-1.85	-1.7125	-1.4354	-2.1979	-1.3687	-1.7938	-1.6854	-1.0875	-2.4229	-1.5438	-1.65	-2.175	-1.325	-1.7833	50.318	178.395	-62.781	135.039	48.123	86.343	195.871	132.853	176.478	193.925	170.485	-5.705	181.774	202.296	-54.886	-114.315	0.00022606	0.00077919	0.00012008	1360.7	1.5448e-06	3.0235e-06	1356.2	366.17	1.8875e-06	5.0265e-06	418.03	138.76	120.78	41.779	2.2822e-06	51.922	0.00048213	0.00049924	0.00013658	1368.4	5.4268e-06	5.3034e-06	1367.3	370.54	5.3866e-06	5.3893e-06	423.39	141.69	123.36	42.567	5.3786e-06	52.803	230.001	-26.439	-13.034	-104.520	17.030	50.894	-104.278	-99.929	38.991	96.375	-100.360	-96.119	-95.400	-91.068	14.830	-91.528	-8191	255	
268.992	1	1	0	0	0.26115	0.22775	0.1074	0.098848	0.10676	0.23887	0.10519	0.21027	0.1084	0.16914	0.13605	0.016641	0.20482	0.25894	0.24858	0.13237	-1.375	-1.0146	-1.8	-1.525	-1.0979	-2.1208	-1.2938	-1.6854	-1.9104	-1.1333	-2.2125	-1.7208	-1.2771	-2.1771	-1.2104	-1.525	-30.161	210.453	84.002	159.730	-27.802	78.887	-101.031	198.694	-90.326	155.707	149.307	56.144	7.221	-2.074	-61.395	172.139	0.00025939	0.00052549	9.9329e-05	1362	3.745e-06	7.4173e-06	1353.3	365.01	1.7589e-06	6.2505e-06	421.47	138.88	120.82	41.966	8.1891e-07	51.89	0.00047816	0.00049239	0.00013945	1369.5	5.4083e-06	5.3848e-06	1366.9	370.45	5.3548e-06	5.3831e-06	423.56	141.61	123.18	42.545	5.4568e-06	52.791	237.248	-7.608	-64.001	-104.414	44.015	-14.521	-104.428	-99.836	-64.012	93.019	-100.354	-96.070	-95.430	-91.055	128.604	-91.357	-8191	255	
269.088	1	1	0	0	0.10481	0.12785	0.28125	0.11688	0.033497	0.17545	0.12966	0.13772	0.078645	0.1322	0.26666	0.10007	0.11913	0.49582	0.071311	0.1621	-1.5958	-1.1271	-1.8896	-1.7833	-1.1458	-2.0354	-1.4771	-1.6292	-1.8708	-1.0521	-1.9125	-1.6604	-1.0417	-1.9646	-1.2812	-1.2208	229.335	23.338	52.416	145.330	-1.077	13.854	179.379	178.718	11.464	121.717	207.191	-61.135	212.598	-113.320	-12.035	-93.824	0.00020707	0.00052962	0.00016904	1362.3	3.379e-06	4.333e-06	1354.6	365.15	4.3299e-06	9.1491e-06	421.02	138.36	120.48	42.014	3.6093e-06	51.609	0.0004798	0.0004934	0.00013783	1368.5	5.3562e-06	5.4044e-06	1366.8	370.14	5.372e-06	5.4506e-06	423.03	141.4	123.14	42.594	5.4434e-06	52.653	241.253	-44.667	-23.101	-104.499	27.845	28.309	-104.448	-99.695	-9.396	10.791	-100.306	-96.000	-95.408	-90.902	5.545	-91.515	-8191	255	
269.184	1	1	0	0	0.23317	0.10328	0.10568	0.090388	0.078995	0.089683	0.26668	0.10908	0.12259	0.16783	0.1622	0.16138	0.16452	0.21975	0.26788	0.17019	-1.525	-0.9625	-1.7146	-2.0479	-1.2292	-2.1271	-1.6167	-1.3583	-2.0417	-1.1958	-1.6833	-1.775	-1.2833	-2.0833	-1.55	-1.4833	-58.803	216.509	-25.951	-111.361	72.961	233.997	207.466	162.594	-71.878	24.609	-116.338	108.341	147.634	231.593	-89.679	54.603	0.00017315	0.00041362	0.00017	1362.2	4.3604e-06	4.2897e-06	1352.7	365.16	3.3085e-06	5.3781e-06	420.77	138.72	120.81	41.927	3.6645e-06	51.821	0.00048092	0.00049587	0.00013781	1368.6	5.3701e-06	5.3826e-06	1366.1	369.77	5.3615e-06	5.3985e-06	423.13	141.54	123.11	42.593	5.3049e-06	52.687	234.658	-46.692	-3.075	-104.510	30.069	14.067	-104.282	-99.736	-17.957	55.421	-100.107	-96.151	-95.557	-91.128	32.168	-91.360	-8191	255	
269.280	1	1	0	0	0.17748	0.17088	0.27987	0.36329	0.20373	0.11596	0.1458	0.11383	0.14472	0.26606	0.082966	0.14104	0.26494	0.16111	0.21627	0.15229	-1.7	-1.0792	-1.6812	-1.9542	-1.0875	-1.8583	-1.7104	-1.2083	-1.9792	-1.1708	-1.575	-2.1917	-1.1104	-1.8937	-1.7875	-1.3979	42.571	-51.103	238.639	195.173	-64.265	3.853	84.950	155.883	181.234	-17.113	-107.903	62.461	181.453	-65.815	-86.268	-42.268	0.00021295	0.00027278	4.5951e-05	1361	4.6268e-06	2.333e-06	1359.3	365.11	1.793e-06	4.015e-06	420.42	138.31	120.41	41.924	2.9753e-06	51.674	0.00047427	0.00048752	0.00013434	1369.3	5.3068e-06	5.2757e-06	1367.5	369.7	5.3061e-06	5.2753e-06	423.21	141.65	123.25	42.595	5.3079e-06	52.649	-110.434	-19.213	-16.141	-104.436	76.853	15.197	-104.265	-99.759	-50.816	87.831	-100.260	-95.889	-95.473	-90.852	71.215	-91.126	-8191	255	
269.401	1	1	0	0	0.18641	0.19274	0.37747	0.17585	0.32483	0.36786	0.21522	0.37119	0.16274	0.19788	0.33403	0.22495	0.094901	0.36247	0.19134	0.15365	-1.5979	-1.2208	-1.2708	-2.25	-1.0938	-1.7771	-1.85	-1.4146	-2.1375	-1.3667	-1.5458	-2.1896	-1.1917	-1.9875	-1.8875	-1.2708	-5.048	-91.242	224.293	225.375	112.940	208.573	196.381	162.603	-113.301	-23.794	142.868	74.065	234.302	-45.602	-55.422	107.136	0.00022677	0.00067961	0.00018971	1359.8	3.7959e-06	6.0928e-06	1352.9	365.22	2.1654e-06	2.8647e-06	420.17	138.67	121.28	41.792	1.77e-06	51.9	0.00047576	0.00048646	0.0001347	1367.6	5.3725e-06	5.3753e-06	1364.4	369.5	5.2828e-06	5.3379e-06	423.13	141.67	123.14	42.576	5.2751e-06	52.82	239.998	-52.697	-2.273	-104.441	-5.290	52.307	-104.307	-99.757	26.043	75.552	-100.346	-96.003	-95.468	-90.641	9.643	-91.452	-8191	255	
269.495	1	1	0	0	0.12745	0.11531	0.078001	0.37674	0.10423	0.23588	0.26752	0.19053	0.25984	0.34641	0.11158	0.32016	0.17499	0.44218	0.085049	0.21961	-1.7042	-1.5042	-1.1729	-2.3479	-0.91042	-1.5792	-2.0687	-1.0229	-2.0292	-1.4312	-1.275	-2.1958	-1.1792	-1.7812	-1.7458	-1.1187	-4.295	130.011	45.187	-75.778	177.381	-76.654	221.712	237.551	-87.037	89.991	-45.525	202.764	159.667	223.621	-90.286	184.558	0.00021651	0.00050299	7.8502e-05	1366.6	5.2516e-06	5.108e-06	1355.3	365.69	1.4823e-06	4.7656e-06	419.29	138.21	120.46	41.685	3.2579e-06	51.72	0.00047275	0.00049004	0.00013659	1368.9	5.345e-06	5.2952e-06	1367	369.59	5.3212e-06	5.3303e-06	422.28	141.46	123	42.459	5.3511e-06	52.68	234.492	-55.477	-20.084	-104.376	27.303	21.313	-104.557	-99.857	129.219	1.034	-100.150	-96.069	-95.219	-91.032	49.211	-91.480	-8191	255	
269.591	1	1	0	0	0.2259	0.29677	0.27379	0.22163	0.19438	0.077595	0.16032	0.16528	0.092316	0.19649	0.12544	0.23701	0.19499	0.10858	0.14123	0.23987	-1.5417	-1.3833	-1.1271	-2.2	-1.3833	-1.4729	-2.1958	-1.3771	-1.8958	-1.5333	-1.1104	-1.8188	-1.1917	-1.2708	-2.0062	-1.1104	14.140	41.343	-52.370	135.938	158.272	-40.730	133.973	167.811	-30.609	-81.850	-101.414	-15.167	198.966	215.262	177.400	154.229	0.00025236	0.00078641	9.6255e-05	1364.4	4.1428e-06	4.0443e-06	1351.4	364.93	3.3553e-06	1.4335e-06	418.76	138.48	120.28	41.954	2.8057e-06	51.665	0.00047621	0.00048755	0.00013559	1368.9	5.2802e-06	5.3307e-06	1365.8	369.68	5.3184e-06	5.3587e-06	422.13	141.57	123.12	42.597	5.2831e-06	52.718	236.515	-5.970	-14.391	-104.412	39.227	53.873	-104.532	-99.643	43.473	-87.081	-100.307	-96.048	-95.547	-90.785	38.794	-91.560	-8191	255	
269.687	1	1	0	0	0.059149	0.35258	0.18132	0.31049	0.21534	0.33508	0.019473	0.26835	0.24382	0.20197	0.38514	0.085975	0.045481	0.16622	0.20621	0.097846	-1.4958	-1.8583	-1.3646	-2.1333	-1.5104	-1.475	-2.2417	-1.3958	-1.7437	-2	-1.2917	-2.1167	-1.6688	-1.4937	-2.1688	-1.4375	109.191	119.167	229.745	239.389	53.386	30.178	82.397	183.486	59.132	109.309	198.583	59.625	237.537	84.802	123.659	-62.709	0.00016995	0.00025933	9.5073e-05	1366	3.0178e-06	5.7525e-06	1350.4	365.82	1.7465e-06	7.6261e-06	419.28	138.56	120.65	41.692	5.3136e-06	51.937	0.00047315	0.00048981	0.00013524	1368.6	5.3177e-06	5.2781e-06	1364.1	369.53	5.393e-06	5.3281e-06	422.65	141.57	123.05	42.425	5.2875e-06	52.642	-116.789	-10.409	-6.333	-104.458	31.861	23.218	-104.350	-99.932	60.348	32.116	-100.304	-95.892	-95.498	-90.851	35.392	-91.519	-8191	255	
269.761	1	1	0	0	0.27661	0.071817	0.10456	0.47348	0.05597	0.077972	0.14257	0.25997	0.10874	0.24542	0.12771	0.091836	0.076455	0.15625	0.085927	0.23885	-1.3083	-1.9937	-1.0542	-2.3354	-1.6375	-1.325	-2.2125	-1.3167	-1.4625	-2.15	-1.2458	-2.0312	-1.8375	-1.2833	-2.3167	-1.4542	157.865	198.755	-8.253	216.588	155.449	229.261	84.792	79.036	-77.836	79.740	159.941	215.230	-90.556	65.363	222.783	220.939	0.0002236	0.00048558	0.00015064	1362.5	4.5021e-06	6.631e-06	1356.4	365.23	6.5627e-07	7.0774e-06	419.68	138.23	120.95	41.786	3.8089e-06	51.54	0.00047545	0.00047968	0.00013502	1369	5.3444e-06	5.3055e-06	1365.5	369.73	5.3622e-06	5.3274e-06	423.11	141.65	123.05	42.494	5.2436e-06	52.505	-116.713	-30.522	-34.234	-104.421	30.274	48.094	-104.314	-99.878	-6.746	81.930	-100.320	-95.957	-95.267	-90.783	76.787	-91.164	-8191	255	
269.880	1	1	0	0	0.10194	0.21767	0.07283	0.23389	0.14244	0.37088	0.038872	0.34391	0.14737	0.094443	0.14129	0.25766	0.31898	0.099458	0.069342	0.25044	-1.2792	-1.9854	-0.99375	-2.0708	-1.6083	-0.97917	-2.1771	-1.2792	-1.4958	-1.8229	-1.0792	-1.9979	-1.9188	-1.2646	-2.1646	-1.3958	-102.085	58.869	148.167	215.658	231.099	156.881	-85.927	228.962	-44.484	0.754	183.909	-55.309	156.275	-62.317	143.096	99.340	0.00023587	0.0004582	6.8195e-05	1367.2	7.1837e-07	8.7759e-06	1352.8	365.49	1.7368e-06	3.8231e-06	417.78	137.99	120.6	42.002	2.8104e-06	51.564	0.00047717	0.00048495	0.00013507	1369.3	5.3351e-06	5.2852e-06	1366.2	369.53	5.3557e-06	5.3441e-06	422.62	141.31	123.04	42.603	5.306e-06	52.557	234.017	-28.403	-63.376	-104.381	202.933	55.047	-104.267	-99.812	7.367	15.051	-100.366	-96.063	-95.425	-90.898	70.188	-91.551	-8191	255	
269.976	1	1	0	0	0.21687	0.090426	0.14817	0.33596	0.16873	0.16505	0.16608	0.045991	0.11515	0.10978	0.14908	0.13649	0.20365	0.16381	0.065806	0.22224	-0.93542	-2.0917	-1.0729	-1.8896	-1.6938	-1.2875	-2.3063	-1.6479	-1.2292	-2.2396	-1.6187	-1.9375	-1.9458	-1.1958	-1.8333	-1.5187	187.420	163.799	233.833	-116.055	-108.504	-71.510	231.833	-89.244	18.219	-60.233	180.619	110.125	137.773	115.966	197.057	217.731	0.00028758	0.00033259	0.00017103	1365.6	1.5497e-06	4.4309e-06	1359.3	364.6	2.2278e-06	6.8573e-06	418.84	138.6	120.21	41.748	4.4696e-06	51.683	0.00047408	0.00048769	0.00013531	1370.2	5.3375e-06	5.2536e-06	1367.4	369.48	5.4319e-06	5.2392e-06	422.44	141.53	122.96	42.468	5.3625e-06	52.618	241.608	-43.747	-3.904	-104.344	-25.556	57.469	-104.153	-99.853	-68.483	64.375	-100.404	-95.944	-95.499	-90.792	17.697	-91.361	-8191	255	
270.072	1	1	0	0	0.12027	0.23875	0.24522	0.3988	0.32399	0.19795	0.25851	0.14828	0.090028	0.031675	0.12611	0.24268	0.21202	0.1538	0.10104	0.13483	-0.725	-1.8479	-1.1042	-1.6021	-1.8354	-1.0146	-2.0625	-1.8729	-1.1938	-2.0938	-1.4667	-1.5167	-1.9417	-1.2188	-1.7958	-1.875	121.667	-35.609	130.000	177.556	-87.336	202.616	177.568	194.753	34.629	241.771	166.275	-93.668	18.065	178.089	-67.319	-116.382	0.00026244	0.00017184	0.00020743	1367.1	1.2677e-06	5.511e-06	1347.9	364.94	2.4796e-06	4.428e-06	417.81	138.64	120.37	41.676	3.1673e-06	51.621	0.00048146	0.00048715	0.00013698	1370.4	5.328e-06	5.3741e-06	1363.4	369.97	5.319e-06	5.4168e-06	422.49	141.61	123.04	42.536	5.3422e-06	52.726	236.465	-37.432	-17.416	-104.408	102.585	17.922	-104.173	-99.789	-42.323	69.750	-100.193	-95.856	-95.270	-90.889	69.886	-91.417	-8191	255	
270.193	1	1	0	0	0.19701	0.088667	0.093223	0.33171	0.16262	0.20149	0.29403	0.11788	0.12315	0.19191	0.4095	0.27881	0.087732	0.15744	0.10714	0.15844	-0.77083	-2.0604	-1.4375	-1.7062	-2.0667	-1.3813	-1.7646	-1.9771	-0.99583	-2.1333	-1.5521	-1.5521	-2.125	-1.4271	-1.6646	-1.8208	48.608	159.281	-68.465	228.805	64.455	-8.453	-116.093	213.547	213.052	155.418	171.281	-70.977	-31.059	113.535	-14.434	-101.251	0.00019307	0.00055847	9.2613e-05	1358.3	4.9248e-06	2.8786e-06	1359.9	364.31	5.0305e-06	4.0442e-06	417.56	138.53	120.71	41.707	4.2723e-06	51.624	0.00047944	0.00048714	0.00013546	1366	5.3125e-06	5.2862e-06	1368.6	369.58	5.3272e-06	5.3014e-06	421.5	141.47	123.04	42.452	5.3452e-06	52.599	230.168	-15.051	-33.392	-104.360	-13.986	55.111	-104.243	-99.769	-8.666	62.781	-100.089	-95.962	-95.529	-90.991	2.193	-91.455	-8191	255	
270.289	1	1	0	0	0.18879	0.079146	0.17005	0.084633	0.27626	0.040527	0.45166	0.070626	0.07171	0.10402	0.045643	0.23292	0.091645	0.40981	0.10984	0.21046	-0.82292	-1.7208	-1.3521	-1.3042	-1.8792	-1.0771	-1.4479	-1.8396	-0.925	-1.7354	-1.5896	-1.075	-1.8958	-1.2313	-1.3667	-1.8167	92.672	140.984	207.726	-102.012	60.455	-38.885	173.970	-83.369	208.209	14.301	58.687	236.771	33.426	-91.630	28.321	132.779	0.00022727	0.00040721	0.0001308	1363.9	2.1046e-06	9.0858e-06	1356.3	363.17	1.8196e-06	3.3043e-06	418.13	138.36	120.4	41.703	6.4521e-06	51.782	0.00047588	0.00048487	0.0001353	1367.8	5.2858e-06	5.3552e-06	1366.6	368.97	5.325e-06	5.3739e-06	422.01	141.4	122.9	42.54	5.3494e-06	52.664	241.242	-51.599	-33.598	-104.321	15.268	54.334	-104.289	-99.932	-70.628	11.997	-100.180	-95.945	-95.332	-90.707	41.773	-91.490	-8191	255	
270.360	1	1	0	0	0.091659	0.12093	0.28308	0.36512	0.19646	0.20414	0.07173	0.15912	0.13559	0.26613	0.24993	0.12958	0.17188	0.14334	0.33553	0.32104	-0.4875	-1.8229	-1.5146	-1.3	-2.0333	-1.3958	-1.6104	-2.1208	-1.2333	-1.7062	-1.7458	-1.3479	-2.15	-1.5354	-1.525	-2.2	68.057	-11.746	138.688	183.828	-80.140	9.223	140.028	48.769	-7.352	147.180	220.277	231.204	75.072	-37.937	0.159	168.981	0.00024433	0.00069367	0.00011698	1361.8	3.3414e-06	4.9212e-06	1356.5	365.08	1.2579e-06	2.474e-06	418.22	138.39	120.29	41.665	5.0109e-06	51.916	0.00047659	0.00048697	0.00013582	1367.5	5.3053e-06	5.3077e-06	1365.6	369.52	5.2934e-06	5.2721e-06	421.3	141.34	122.89	42.465	5.3586e-06	52.657	240.515	-45.988	-8.835	-104.355	-56.684	5.802	-104.012	-99.667	-40.366	64.598	-100.305	-96.101	-95.405	-90.899	64.614	-91.347	-8191	255	
270.481	1	1	0	0	0.23389	0.30487	0.086499	0.11119	0.31693	0.2513	0.30256	0.25982	0.20734	0.11032	0.23306	0.20373	0.050138	0.094268	0.19866	0.46037	-0.96042	-1.7458	-1.8042	-1.2667	-2.0021	-1.6979	-1.6187	-2.1729	-1.3333	-1.6604	-1.8875	-1.3125	-1.7083	-1.4208	-1.1333	-1.8479	27.254	29.746	-30.014	160.495	-3.040	90.369	184.779	193.947	74.435	159.125	172.751	200.010	108.740	136.928	190.434	-110.507	0.0001941	0.00054742	7.3774e-05	1362.6	1.0057e-06	5.4405e-06	1355.9	365.38	3.2678e-06	4.9603e-06	418.8	138.44	120.84	41.888	2.8895e-06	51.673	0.00047726	0.0004825	0.00013379	1367.6	5.3457e-06	5.3125e-06	1365.1	369.42	5.3061e-06	5.3309e-06	422.39	141.4	123.06	42.556	5.3307e-06	52.715	-116.715	-40.226	-51.658	-104.328	-42.463	51.520	-104.183	-99.628	10.252	70.720	-100.066	-95.626	-95.067	-90.771	32.801	-91.422	-8191	255	
270.576	1	1	0	0	0.38447	0.10608	0.24362	0.36782	0.12094	0.072221	0.22858	0.30295	0.0539	0.12596	0.070618	0.02335	0.27401	0.1102	0.2211	0.054327	-0.81458	-1.4792	-1.8104	-1.3	-2.1042	-1.7125	-1.3729	-2.2875	-1.3354	-1.4083	-2.1875	-1.1708	-2.0958	-1.8521	-1.125	-2.1458	106.026	172.025	88.994	-105.716	99.436	67.435	192.071	233.597	57.862	218.950	28.807	98.913	164.506	231.930	-49.375	-101.734	0.00022488	0.00051478	0.00012886	1365.4	5.1135e-06	8.966e-06	1354	365.28	2.1361e-06	6.278e-06	418.15	138.67	120.53	41.656	3.4402e-06	51.9	0.0004759	0.00048593	0.00013432	1367.2	5.3091e-06	5.2744e-06	1363.7	369.27	5.3065e-06	5.247e-06	421.71	141.23	123.07	42.462	5.2909e-06	52.644	235.617	-39.404	-40.922	-104.291	30.943	55.370	-104.214	-99.631	2.041	30.471	-100.267	-95.687	-95.335	-91.018	-113.707	-91.313	-8191	255	
270.672	1	1	0	0	0.11045	0.069217	0.262	0.30285	0.14321	0.066402	0.39289	0.22456	0.20036	0.073465	0.11787	0.20934	0.23432	0.51392	0.10422	0.16304	-0.98125	-1.4	-2.0646	-1.3229	-1.5979	-1.8792	-1.0542	-1.9562	-1.3292	-1.2625	-2.1604	-1.0938	-1.8208	-1.8625	-1.15	-2.0875	78.310	8.573	103.420	211.082	-115.704	-61.495	188.397	194.076	143.096	-115.353	-105.645	-46.334	55.858	235.501	17.332	-15.752	0.0002454	0.00051508	0.0001758	1361.1	1.2065e-06	4.564e-06	1351.2	365.53	5.9802e-07	9.3558e-06	418.63	138.17	120.38	41.847	5.4835e-06	51.836	0.00047428	0.00048011	0.00013381	1365.6	5.2985e-06	5.2452e-06	1362.9	369.83	5.2761e-06	5.34e-06	422.04	141.13	122.94	42.517	5.2967e-06	52.678	-116.079	-89.691	-29.758	-104.300	18.459	1.899	-104.125	-99.630	-0.420	32.646	-100.093	-95.689	-95.442	-90.637	70.866	-91.416	-8191	255	
270.792	1	1	0	0	0.23161	0.082992	0.14098	0.059555	0.099621	0.24941	0.19345	0.17312	0.23559	0.039493	0.24855	0.38027	0.24033	0.25592	0.14582	0.17117	-1.0729	-1.1167	-1.9604	-1.6354	-1.6542	-1.9417	-1.45	-2.1646	-1.6104	-1.2542	-2.2521	-1.4792	-1.8104	-2.2125	-1.0292	-2.1813	-47.724	-81.182	-49.807	-108.644	-91.424	-91.218	195.405	-111.906	129.500	101.949	193.306	191.546	240.552	194.839	-34.760	139.122	0.00019999	0.00070354	0.00011516	1360.9	5.2472e-06	3.9873e-06	1352.5	364.79	2.3377e-06	4.2093e-06	419.02	137.78	120.14	41.611	6.1006e-06	51.933	0.00047303	0.0004841	0.0001337	1365.4	5.3101e-06	5.2335e-06	1362.9	369.49	5.3385e-06	5.2625e-06	422.19	141.09	122.8	42.422	5.3368e-06	52.69	240.008	-20.878	-31.587	-104.419	26.123	-35.627	-104.096	-99.580	44.564	21.511	-100.314	-95.740	-95.204	-90.853	39.859	-91.217	-8191	255	
270.888	1	1	0	0	0.14233	0.078597	0.26017	0.20459	0.22256	0.013558	0.28272	0.3765	0.12233	0.29244	0.18254	0.058354	0.22267	0.27742	0.22641	0.11843	-1.3583	-1.2729	-1.8021	-1.3333	-1.3542	-1.6458	-1.2729	-1.9521	-1.6396	-1.0729	-2.1437	-1.4917	-1.3729	-2.2167	-1.3312	-1.6125	-59.783	148.861	-50.084	200.373	-0.037	-111.079	191.503	149.075	-75.459	144.383	-89.279	224.901	224.846	140.682	-76.441	-47.268	0.00016838	0.00055291	0.00010879	1364.9	3.0111e-06	3.5516e-06	1351.2	364.39	2.2561e-06	5.3775e-06	419.28	138.14	121.24	41.945	6.1341e-06	51.834	0.00046951	0.00048402	0.00013475	1368	5.323e-06	5.2702e-06	1363.6	368.99	5.2403e-06	5.31e-06	422.54	141.2	123.01	42.512	5.3085e-06	52.654	225.449	50.402	21.564	-104.346	72.047	27.243	-104.095	-99.518	61.213	75.772	-100.256	-95.691	-95.135	-90.677	37.163	-91.127	-8191	255	
270.985	1	1	0	0	0.070366	0.14225	0.34013	0.44702	0.11724	0.18627	0.26952	0.19925	0.22444	0.1825	0.45683	0.088174	0.04951	0.27707	0.10057	0.068559	-1.4979	-1.0063	-2.0208	-1.7563	-1.2042	-2.0687	-1.4104	-1.6708	-1.7292	-1.0521	-2.1396	-1.6958	-1.3979	-2.1771	-0.94167	-1.4396	117.376	88.799	-19.450	231.958	95.524	96.330	145.115	212.612	-58.778	165.306	190.956	-102.824	-47.538	241.583	91.015	-104.627	0.0001714	0.00070528	0.00014552	1365.5	4.2622e-06	7.7353e-06	1353.2	365.3	4.4395e-06	1.1524e-06	420.68	138.32	120.71	41.866	3.0329e-06	51.789	0.00047213	0.00048716	0.00013364	1366.6	5.3198e-06	5.2045e-06	1362.9	369.65	5.2357e-06	5.2881e-06	422.68	141.31	122.85	42.503	5.3248e-06	52.651	-113.907	-21.579	-9.913	-104.280	6.020	28.905	-104.112	-99.672	-18.706	216.763	-100.078	-95.803	-95.165	-90.830	37.626	-91.264	-8191	255	
271.056	1	1	0	0	0.19618	0.13065	0.10389	0.29131	0.18931	0.10488	0.34042	0.29702	0.089878	0.22621	0.13011	0.06396	0.23445	0.16027	0.30098	0.22611	-1.4979	-1.2	-1.8875	-1.7292	-1.2229	-1.8875	-1.2896	-1.4958	-2.0146	-1.3229	-2.05	-1.9438	-1.3979	-2.1458	-1.0979	-1.4667	117.225	216.535	-114.202	-99.304	-38.264	-85.202	213.785	197.147	240.304	-1.299	122.014	237.928	198.520	238.099	130.038	-73.751	0.00018803	0.00064182	6.8387e-05	1363.7	1.5591e-06	6.1007e-06	1354.8	364.57	2.3716e-06	8.8474e-06	418.48	137.9	120.31	41.802	3.8842e-06	51.756	0.00047274	0.00048631	0.00013363	1366.6	5.2612e-06	5.2692e-06	1364	369.13	5.3034e-06	5.275e-06	421.77	141.06	122.8	42.46	5.2371e-06	52.645	-110.994	-16.372	-76.694	-104.502	45.601	3.448	-104.194	-99.711	43.227	-15.244	-100.186	-95.810	-94.926	-90.795	48.588	-90.976	-8191	255	
271.177	1	1	0	0	0.14792	0.13835	0.24201	0.20469	0.23952	0.14705	0.31134	0.068118	0.0614	0.17589	0.33756	0.065523	0.21062	0.20446	0.15761	0.12899	-1.6646	-1.2729	-1.8896	-2.0458	-1.2542	-2.2021	-1.7792	-1.4896	-2.2083	-1.1521	-2.0896	-1.8104	-1.2854	-2.1146	-1.4604	-1.3542	242.090	131.108	129.920	230.776	85.638	157.039	159.178	215.284	197.726	100.999	219.096	-37.136	229.059	29.767	218.439	188.689	0.00022532	0.00045306	0.00016255	1355.5	2.1931e-06	5.8944e-06	1348	363.84	2.5861e-06	6.3359e-06	418.37	138.29	120.18	41.858	3.8095e-06	51.988	0.00046891	0.00048586	0.00013342	1365.2	5.2047e-06	5.2198e-06	1362	368.4	5.1887e-06	5.2295e-06	421.85	141.06	122.7	42.473	5.2373e-06	52.642	231.591	-53.441	6.200	-104.366	-2.790	58.949	-104.143	-99.451	62.157	43.388	-100.040	-95.794	-95.344	-90.478	56.269	-91.082	-8191	255	
271.273	1	1	0	0	0.18985	0.31425	0.098827	0.25425	0.42485	0.18049	0.31368	0.15424	0.19116	0.079043	0.32989	0.31377	0.044785	0.14778	0.15685	0.2043	-1.6333	-0.91458	-1.5792	-2.05	-1.2812	-2.0771	-1.9958	-1.3917	-2.2313	-1.5354	-1.675	-2.2875	-1.1917	-2.1896	-1.6667	-1.2437	143.769	-116.492	-87.306	149.375	-28.441	190.730	156.481	221.268	16.347	187.517	-81.280	165.176	23.970	-57.024	-30.115	-92.212	0.00018529	0.00019901	0.0002389	1364.2	3.3999e-06	4.2852e-06	1347.2	363.22	3.2694e-06	5.2634e-06	419.52	137.94	120.44	41.873	3.947e-06	51.767	0.00046602	0.00047708	0.00013409	1365.6	5.2392e-06	5.1756e-06	1360.7	368.06	5.1572e-06	5.1907e-06	421.6	141.12	122.57	42.451	5.209e-06	52.576	-116.169	-6.302	-23.503	-104.321	59.458	51.984	-104.224	-99.649	49.647	64.999	-99.793	-95.844	-95.271	-90.603	4.374	-91.121	-8191	255	
271.369	1	1	0	0	0.18397	0.092075	0.44311	0.27681	0.070216	0.08305	0.47476	0.16236	0.096271	0.16233	0.14836	0.10615	0.15442	0.19417	0.020171	0.13067	-1.5521	-1.0625	-1.4	-2.0458	-0.98542	-1.5646	-1.7083	-1.3708	-2.0521	-1.2167	-1.7604	-2.075	-1.1771	-1.825	-1.8854	-1.3312	217.481	-71.858	-54.904	183.531	-17.286	171.556	164.161	-40.812	-88.290	233.125	94.335	123.701	231.858	145.786	212.988	-56.146	0.00025311	0.00026564	0.00010873	1356.4	1.2476e-06	4.2539e-06	1348.6	364.99	2.387e-06	7.5401e-06	419.05	138.79	120.76	41.82	4.6681e-06	51.461	0.00046373	0.00047796	0.00013295	1362.3	5.1778e-06	5.2753e-06	1360.8	368.44	5.2182e-06	5.3235e-06	422.01	141.2	123.04	42.497	5.2432e-06	52.539	-115.724	-53.080	-28.553	-104.316	-41.446	3.186	-104.107	-99.823	-25.873	22.348	-99.853	-95.687	-95.147	-90.524	46.993	-91.270	-8191	255	
271.464	1	1	0	0	0.35282	0.15871	0.10958	0.32111	0.21433	0.1918	0.17345	0.17789	0.36396	0.16694	0.2882	0.24541	0.12444	0.046227	0.16155	0.072098	-1.8396	-1.4292	-1.4062	-2.3167	-1.3104	-1.8458	-2.0333	-1.2417	-1.7437	-1.5292	-1.3083	-2.15	-1.2125	-1.8208	-1.9708	-1.1896	70.985	89.973	16.209	214.584	28.348	-73.282	195.749	192.351	206.588	-46.420	203.642	12.219	162.939	103.412	1.430	140.870	0.00019201	0.00023422	0.00017421	1357.8	3.0274e-06	4.434e-06	1356.3	363.99	2.2195e-06	4.0404e-06	418.36	137.62	120.25	41.605	6.9855e-06	51.898	0.00046965	0.00048402	0.00013474	1364.7	5.2634e-06	5.29e-06	1364	368.96	5.3267e-06	5.3048e-06	421.86	141.07	122.71	42.392	5.3142e-06	52.621	237.597	-13.641	-7.551	-104.189	59.053	-9.432	-104.080	-99.654	14.527	20.138	-99.913	-95.902	-95.343	-90.351	36.674	-91.339	-8191	255	
271.584	1	1	0	0	0.17603	0.20022	0.17617	0.25213	0.16981	0.19729	0.10207	0.23303	0.24354	0.28031	0.27375	0.079655	0.23834	0.18252	0.1988	0.31588	-1.6021	-1.5938	-1.3125	-2.2958	-1.4646	-1.7062	-2.3792	-1.3042	-1.9833	-1.6354	-1.3521	-2.2625	-1.4646	-1.4562	-2.025	-1.3583	94.705	50.935	35.965	166.882	71.477	44.202	-106.262	188.733	95.401	171.698	188.189	75.278	-84.069	-72.865	54.077	218.973	0.00019894	0.00038631	0.00021546	1356.7	2.1427e-06	5.5363e-06	1352.2	364.67	2.6374e-06	3.5279e-06	417.91	137.8	119.96	41.885	3.6994e-06	51.602	0.00046662	0.00048671	0.00013288	1364.5	5.3152e-06	5.2114e-06	1362.8	368.72	5.3096e-06	5.285e-06	421.58	141.09	122.55	42.515	5.3008e-06	52.6	-111.701	6.259	3.042	-104.275	164.488	34.541	-104.184	-99.448	10.240	42.481	-99.868	-95.755	-95.303	-90.332	47.317	-91.185	-8191	255	
271.656	1	1	0	0	0.21777	0.25637	0.37122	0.29978	0.31569	0.21558	0.1769	0.18624	0.14009	0.16094	0.35714	0.2548	0.21569	0.1181	0.055297	0.20926	-1.3813	-1.7625	-1.1292	-2.1875	-1.4562	-1.3458	-2.0229	-1.3521	-1.7313	-1.7917	-1.1104	-1.9833	-1.4188	-1.1708	-1.8937	-1.2271	-29.646	-96.456	118.500	227.478	150.733	-81.829	-110.119	209.400	-49.118	97.585	163.318	166.531	220.861	-113.163	76.226	51.246	0.00021114	0.00031245	0.00018416	1359.4	2.4863e-06	7.6287e-06	1354.4	364.43	3.2853e-06	6.2126e-06	419.22	138.4	120.29	41.693	5.6664e-06	51.642	0.00047468	0.00047313	0.00013223	1365.2	5.2722e-06	5.3017e-06	1362.7	368.79	5.2844e-06	5.2184e-06	421.53	141.21	122.61	42.403	5.282e-06	52.539	241.566	-11.502	-8.174	-104.227	-14.703	25.687	-104.198	-99.389	8.832	47.160	-100.106	-95.810	-95.184	-90.495	46.893	-91.310	-8191	255	
271.752	1	1	0	0	0.097824	0.13771	0.011242	0.24944	0.21687	0.12442	0.11988	0.29827	0.042605	0.064119	0.12284	0.22697	0.025673	0.16854	0.069995	0.1683	-1.1375	-1.7313	-0.96667	-2.35	-1.6417	-1.3062	-2.2792	-1.4125	-1.5063	-2.0208	-1.3083	-1.9979	-1.7771	-1.275	-2.1063	-1.3021	83.105	75.523	-10.707	234.662	193.951	149.252	110.904	-11.115	129.655	153.385	157.637	136.652	1.005	226.912	179.476	224.191	0.00022581	0.00050467	0.00015421	1360.1	5.6882e-06	4.6123e-06	1356.1	364.4	1.7801e-06	4.8379e-06	418.42	137.84	120.02	41.791	3.9756e-06	51.78	0.00047344	0.00047631	0.00013222	1364.9	5.2257e-06	5.2689e-06	1362.4	368.15	5.2365e-06	5.1799e-06	421.29	141.1	122.56	42.449	5.1219e-06	52.606	238.737	-53.820	50.866	-104.119	21.220	27.323	-104.207	-99.609	-23.894	47.220	-100.251	-95.654	-95.103	-90.628	63.744	-91.285	-8191	255	
271.873	1	1	0	0	0.20018	0.23232	0.23845	0.20898	0.32946	0.11502	0.19793	0.21423	0.1485	0.18746	0.24768	0.15702	0.2229	0.10715	0.12532	0.29004	-1.125	-1.7646	-0.99792	-2.2062	-1.8021	-1.2083	-2.3542	-1.3875	-1.4042	-1.8833	-1.15	-1.9646	-1.9396	-0.9875	-2.1354	-1.4688	87.089	181.895	66.149	-99.388	90.213	13.687	240.116	-22.636	135.660	-24.442	-91.173	209.233	175.871	235.597	-39.652	169.863	0.00019753	0.00030201	0.00012695	1363.2	4.4695e-06	2.6786e-06	1351.4	364.76	4.2795e-06	5.0568e-06	416.5	137.86	120.18	41.766	2.3218e-06	51.81	0.00046479	0.00046768	0.00013099	1365.8	5.1707e-06	5.1241e-06	1361.9	368.97	5.1215e-06	5.1911e-06	421.11	141.27	122.57	42.447	5.1079e-06	52.499	-116.047	-52.462	-37.872	-104.253	19.206	36.048	-104.023	-99.581	20.042	42.598	-99.845	-95.650	-95.420	-90.672	40.789	-91.321	-8191	255	
271.969	1	1	0	0	0.084944	0.048333	0.2489	0.14944	0.094528	0.1245	0.16653	0.038873	0.21296	0.11999	0.20975	0.20312	0.085736	0.13293	0.21842	0.10599	-1.2437	-2.1167	-0.95417	-2.0563	-1.4958	-1.1688	-2.0521	-1.5792	-1.1833	-1.9562	-1.2979	-1.7458	-1.9917	-1.1125	-1.8146	-1.7458	174.515	184.502	-87.848	197.349	197.388	65.407	-73.632	-101.583	-63.166	88.593	219.538	148.374	227.404	-44.682	39.851	-64.138	0.00021229	0.00043461	7.178e-05	1361.2	3.6991e-06	1.4849e-06	1355.2	363.84	2.7661e-06	3.4481e-06	419.01	138.57	120.07	41.697	3.843e-06	51.818	0.00045991	0.0004673	0.00013151	1366	5.1394e-06	5.0922e-06	1362.5	368.26	5.1875e-06	5.2039e-06	421.62	141.29	122.63	42.465	5.1952e-06	52.581	-111.085	-61.609	15.782	-103.958	-20.314	84.172	-104.063	-99.626	-38.593	47.689	-100.106	-95.557	-95.389	-90.478	53.087	-91.079	-8191	255	
272.065	1	1	0	0	0.17313	0.25211	0.2332	0.27713	0.15454	0.13505	0.35727	0.21797	0.22328	0.17976	0.30261	0.12669	0.051651	0.19722	0.071473	0.21632	-1.1083	-1.8792	-1.0063	-1.5542	-1.6562	-1.1063	-1.8104	-1.6146	-1.1688	-1.9854	-1.2104	-1.4521	-1.9417	-1.0792	-1.75	-1.7083	134.266	-52.822	-95.855	204.396	165.093	153.922	208.376	147.609	150.054	-1.882	170.612	-91.440	-48.839	-79.652	116.660	134.023	0.00019993	0.00022308	0.00013495	1362.4	5.8177e-06	4.061e-06	1356.6	364.55	2.2872e-06	4.5499e-06	418.14	138.27	119.83	41.834	2.42e-06	51.608	0.00046614	0.00047701	0.00013238	1366.2	5.1705e-06	5.231e-06	1366.2	368.76	5.195e-06	5.1404e-06	421.96	141.24	122.75	42.485	5.0948e-06	52.582	239.920	-47.804	-44.724	-103.939	6.610	117.006	-103.993	-99.522	-10.713	-2.628	-100.016	-95.691	-95.002	-90.558	-43.342	-91.245	-8191	255	
272.161	1	1	0	0	0.21141	0.15251	0.25394	0.14642	0.23786	0.059028	0.29956	0.20744	0.1843	0.083313	0.045209	0.19803	0.16858	0.13831	0.19847	0.2486	-0.88333	-1.9813	-1.2542	-1.3312	-1.8375	-1.0375	-1.775	-1.6167	-0.97292	-1.9167	-1.3813	-1.1	-1.9375	-1.0146	-1.5021	-1.6979	204.259	195.384	198.021	-116.043	-87.030	63.530	154.058	-81.937	-82.730	92.416	-14.427	163.248	206.114	111.085	223.458	158.636	0.00020147	0.00083812	0.00015201	1361.8	2.6223e-06	3.1451e-06	1355.4	363.95	3.3192e-06	2.4914e-06	418.32	138.51	120.31	41.904	4.5113e-06	51.766	0.00046477	0.00047438	0.00013224	1366	5.1568e-06	5.2032e-06	1365.8	368.13	5.1728e-06	5.1479e-06	422.11	141.29	122.82	42.507	5.1774e-06	52.578	228.574	-52.468	-48.689	-104.094	-13.503	34.173	-104.169	-99.395	-18.358	6.229	-99.734	-95.527	-95.143	-90.486	56.901	-91.240	-8191	255	
272.257	1	1	0	0	0.14687	0.035915	0.34369	0.10167	0.13395	0.052639	0.20615	0.24307	0.17949	0.1592	0.31475	0.32468	0.14755	0.25896	0.29495	0.12228	-0.8875	-1.9562	-1.6021	-1.4833	-2.3604	-1.2812	-1.9562	-2.0729	-1.0354	-1.9375	-1.5708	-1.3104	-1.9979	-1.0917	-1.2625	-1.8396	-41.702	159.612	-52.377	15.725	27.670	52.781	176.831	186.152	-93.177	137.164	142.027	-79.961	-91.721	236.048	133.919	-81.446	0.00023174	0.00051986	1.5794e-05	1358.8	2.8504e-06	4.341e-06	1355.2	364.14	2.6194e-06	4.8341e-06	418.41	137.99	120.37	41.694	4.0947e-06	51.985	0.0004626	0.00047177	0.00013189	1364.5	5.1648e-06	5.184e-06	1363.3	369.04	5.1934e-06	5.143e-06	421.26	141.15	122.67	42.412	5.2646e-06	52.635	234.680	-41.694	41.193	-104.092	-3.318	-42.437	-104.023	-99.359	35.444	30.939	-100.048	-95.738	-95.064	-90.819	33.137	-91.136	-8191	255	
272.353	1	1	0	0	0.3272	0.035072	0.15728	0.31235	0.24638	0.18375	0.072439	0.12044	0.044096	0.14371	0.20056	0.31644	0.074573	0.26335	0.25224	0.048773	-0.7	-1.7458	-1.5729	-1.2479	-2.0958	-1.5104	-1.7625	-2.1688	-1.0667	-1.8438	-1.9333	-1.1479	-2.1458	-1.3083	-1.3396	-2	-63.779	29.764	-43.330	220.582	227.375	-19.240	26.177	213.550	-113.278	228.970	-11.923	235.002	136.326	-93.258	-34.043	168.334	0.00019515	0.00065626	0.00015992	1356.9	4.0614e-06	6.6272e-06	1352.1	363.37	2.8289e-06	3.3459e-06	417.32	137.77	120.47	41.683	4.6844e-06	51.446	0.00047274	0.00047586	0.0001341	1364.1	5.2498e-06	5.3199e-06	1363.3	368.36	5.3014e-06	5.3027e-06	421.08	140.75	122.73	42.349	5.3212e-06	52.529	-115.077	-56.787	-14.981	-104.111	46.801	27.315	-104.084	-99.550	-17.883	42.606	-100.139	-95.751	-94.680	-90.633	50.871	-91.033	-8191	255	
272.474	1	1	0	0	0.17499	0.37538	0.34868	0.16891	0.080111	0.11386	0.097849	0.34584	0.11049	0.254	0.16843	0.28933	0.1199	0.20771	0.16441	0.012766	-0.69167	-1.6125	-1.9125	-1.3792	-2.0208	-1.4021	-1.6708	-2.25	-1.4667	-1.7979	-1.7833	-1.0333	-1.8875	-1.6875	-1.1667	-2.0938	-18.414	-10.485	129.654	225.845	-58.781	194.977	110.373	227.742	62.640	136.526	180.752	231.337	170.455	142.290	40.433	145.112	0.00022191	0.00052677	0.00016733	1363.4	6.312e-06	5.2484e-06	1353.9	364.47	2.9175e-06	3.6671e-06	418.26	138.39	120.31	41.837	4.1464e-06	51.714	0.00047209	0.00048311	0.00013646	1364.6	5.3434e-06	5.3333e-06	1364.4	368.61	5.4677e-06	5.3342e-06	421	141.2	122.78	42.432	5.2778e-06	52.571	237.270	-50.452	-38.697	-104.046	15.541	23.092	-103.640	-99.317	-34.032	32.941	-99.939	-95.825	-95.028	-90.566	54.560	-91.051	-8191	255	
272.568	1	1	0	0	0.39308	0.23023	0.33126	0.14313	0.13171	0.31544	0.15984	0.10237	0.21282	0.11824	0.22657	0.1276	0.1588	0.16723	0.091712	0.050319	-1.0521	-1.6	-2.0812	-1.2958	-1.9	-1.6646	-1.1604	-2.0646	-1.2271	-1.2687	-1.9771	-1.1625	-1.8104	-1.4875	-1	-2.0438	44.790	6.824	6.068	138.786	-2.096	165.986	146.049	-82.444	43.355	-18.329	125.706	159.718	-99.290	224.513	177.628	112.804	0.00024034	0.00075824	7.3322e-05	1358.3	2.8341e-06	4.3388e-06	1357.3	363.59	3.5578e-06	3.9744e-06	416.14	137.82	120.39	41.694	2.2033e-06	51.71	0.0004727	0.00048915	0.00013319	1363.8	5.249e-06	5.2043e-06	1362.3	368.07	5.2718e-06	5.1831e-06	419.9	140.6	122.48	42.356	5.0763e-06	52.525	-116.743	-13.092	-20.872	-103.989	93.779	98.940	-103.844	-99.487	-9.718	0.643	-99.985	-95.718	-94.981	-90.480	173.624	-91.138	-8191	255	
272.665	1	1	0	0	0.074034	0.21383	0.15385	0.25651	0.098853	0.040169	0.27845	0.42869	0.15098	0.008895	0.18159	0.2796	0.34426	0.034028	0.018218	0.042491	-0.91458	-1.5312	-2.1542	-1.4625	-1.7729	-1.9958	-1.3771	-2.2958	-1.5646	-1.2875	-1.9583	-1.0729	-1.65	-2	-1.0958	-2	-18.320	73.125	111.941	242.215	210.284	56.719	219.551	143.056	77.304	-62.849	-108.019	152.998	155.025	205.751	95.769	135.831	0.00021221	0.00016768	0.00010756	1351.8	2.7941e-06	4.2022e-06	1349.8	364.15	3.0202e-06	4.8766e-06	418.11	136.82	119.88	41.703	3.1821e-06	51.641	0.00046743	0.00047291	0.00012987	1359.2	5.1808e-06	5.0823e-06	1359.3	367.9	5.1324e-06	5.2315e-06	421.06	140.48	122.36	42.305	5.1734e-06	52.456	236.352	-48.660	-29.922	-104.042	77.327	38.497	-103.935	-99.177	24.006	66.218	-99.790	-95.483	-94.922	-90.576	-3.045	-90.866	-8191	255	
272.761	1	1	0	0	0.27435	0.15348	0.25295	0.20089	0.056112	0.17863	0.30654	0.39858	0.13247	0.1814	0.11843	0.040242	0.28962	0.16177	0.19072	0.24636	-0.96667	-0.95208	-1.6938	-1.2833	-1.575	-1.8708	-1.1812	-2.1437	-1.6854	-1.3062	-2.2917	-1.5333	-1.4708	-1.8687	-0.97708	-1.7646	71.383	235.458	-15.992	-116.175	127.585	-60.268	194.843	231.000	141.004	-78.617	28.484	-114.206	158.172	199.954	-99.614	233.968	0.00020411	0.00040128	7.5541e-05	1357.4	2.9488e-06	5.2509e-06	1351.8	363.21	4.4806e-06	1.3435e-06	417.62	137.72	120.02	41.716	2.824e-06	51.725	0.00046864	0.00047532	0.00013273	1361.1	5.2457e-06	5.2068e-06	1361.5	367.53	5.2639e-06	5.2147e-06	420.68	140.81	122.7	42.439	5.245e-06	52.511	236.764	-99.095	-53.133	-104.022	-0.267	32.112	-104.069	-99.456	-8.131	51.260	-99.829	-95.399	-94.813	-90.461	27.781	-90.977	-8191	255	
272.881	1	1	0	0	0.23155	0.16453	0.2144	0.45911	0.058253	0.11501	0.37808	0.1687	0.41469	0.28135	0.12333	0.088327	0.17415	0.1311	0.12921	0.23187	-1.3	-1.0521	-2.0979	-1.5708	-1.4208	-2.0083	-1.1792	-2.0042	-1.5854	-1.0042	-1.9917	-1.3	-1.2875	-2.0542	-1.0688	-1.8521	106.220	121.995	52.422	204.360	165.802	-24.724	208.443	225.319	15.597	-38.827	201.590	-115.210	188.777	145.599	3.300	141.534	0.0002112	0.00065753	0.00016226	1357.1	5.9638e-06	5.6267e-06	1350.8	363.8	4.3374e-06	2.742e-06	417.08	137.43	119.6	41.727	1.5028e-06	51.489	0.00046568	0.00047942	0.00013084	1363	5.2581e-06	5.2025e-06	1362.8	367.77	5.2145e-06	5.2008e-06	420.97	140.68	122.47	42.343	5.2621e-06	52.475	240.980	-23.974	-8.310	-104.100	-27.953	71.133	-104.097	-99.474	33.281	93.732	-99.976	-95.536	-94.631	-90.324	63.614	-90.880	-8191	255	
272.953	1	1	0	0	0.085235	0.15031	0.27435	0.31497	0.27599	0.15763	0.092141	0.21268	0.065459	0.14163	0.11098	0.28613	0.2513	0.046511	0.29092	0.07396	-1.3854	-0.90625	-1.7583	-1.5604	-1.2563	-1.9729	-1.2292	-1.6583	-1.9625	-1.0542	-2.0667	-1.5729	-1.4	-2.1083	-1.1917	-1.7021	11.786	213.642	125.922	224.401	3.638	21.060	142.122	118.598	-7.572	108.040	95.909	-105.039	-41.864	161.505	15.065	120.838	0.00021966	0.0002408	5.135e-05	1357.2	1.6661e-06	1.3928e-06	1349.4	363.65	2.2219e-06	7.2525e-06	416.79	137.83	120.31	41.685	2.7423e-06	51.804	0.00046436	0.00047491	0.00013165	1361	5.2593e-06	5.1899e-06	1359.1	367.86	5.242e-06	5.1733e-06	420	140.78	122.68	42.362	5.2021e-06	52.571	237.351	3.147	49.037	-104.284	-53.183	227.259	-103.859	-99.415	-10.811	32.074	-99.627	-95.436	-94.849	-90.384	84.397	-90.748	-8191	255	
273.049	1	1	0	0	0.035231	0.12809	0.26512	0.28955	0.2011	0.29174	0.18043	0.20588	0.13085	0.24594	0.34595	0.21906	0.12103	0.10132	0.1067	0.35349	-1.4875	-0.85	-1.6354	-1.6229	-1.0312	-1.7	-1.35	-1.5896	-1.9208	-0.85417	-1.6979	-1.7604	-1.2062	-2.225	-1.4542	-1.2188	76.836	188.499	143.353	168.102	15.748	146.282	223.958	176.046	54.493	102.738	-90.589	191.034	89.715	79.966	93.544	-100.215	0.0002213	0.00084251	8.7327e-05	1355.3	1.6261e-06	4.2095e-06	1350.6	364.34	4.778e-06	3.4181e-06	418.64	137.04	120.04	41.825	2.7708e-06	51.61	0.00046547	0.00047852	0.00013388	1361.1	5.1963e-06	5.1964e-06	1360.4	368.27	5.1933e-06	5.2164e-06	421	140.73	122.74	42.46	5.1786e-06	52.487	233.263	-31.810	-19.619	-104.066	33.317	62.827	-103.937	-99.475	-4.021	45.174	-99.889	-95.648	-94.863	-90.194	61.792	-90.781	-8191	255	
273.145	1	1	0	0	0.10502	0.22272	0.022824	0.44692	0.29123	0.022128	0.30005	0.24289	0.11883	0.44724	0.048332	0.29825	0.11289	0.25831	0.35082	0.037637	-1.5854	-1.0208	-1.4646	-1.6375	-0.94375	-2.0812	-1.7229	-1.5604	-2.1042	-1.2583	-1.7458	-1.8875	-1.05	-1.8979	-1.2646	-1.075	-18.101	113.565	196.691	209.539	174.182	195.678	186.077	-98.674	82.323	126.762	234.830	-60.367	173.791	187.682	35.340	111.633	0.00022142	0.00092545	0.00013735	1358.9	1.3612e-06	4.7217e-06	1354.4	364.15	3.5291e-06	3.2823e-06	416.66	137.97	120.41	41.838	3.4887e-06	51.651	0.00046193	0.00047161	0.00013197	1363.4	5.1018e-06	5.1577e-06	1361.3	368.37	5.1003e-06	5.0645e-06	420.74	140.89	122.66	42.44	5.0913e-06	52.524	234.550	-65.223	-44.510	-104.068	81.026	75.776	-104.160	-99.484	-9.944	9.779	-99.732	-95.573	-95.008	-90.616	57.609	-91.012	-8191	255	
273.264	1	1	0	0	0.060609	0.0097153	0.24983	0.036949	0.14669	0.24218	0.2523	0.1391	0.090174	0.12733	0.235	0.24701	0.29976	0.13055	0.29846	0.26579	-1.6667	-1.1313	-1.3833	-1.9708	-0.96875	-1.9271	-1.6979	-1.2229	-1.7812	-1.2833	-1.4375	-1.9083	-1.2437	-1.9708	-1.6625	-1.2875	-95.613	92.588	27.216	-97.414	69.667	142.717	178.218	-106.774	-1.669	99.832	197.299	213.353	-25.969	152.480	193.238	92.551	0.0001932	0.00056873	7.0883e-05	1357.7	1.1216e-06	6.6982e-06	1351.5	364.36	1.003e-06	6.619e-06	420.1	137.72	120.14	41.713	3.9337e-06	51.674	0.00045714	0.00046997	0.00013065	1362.6	5.1378e-06	5.12e-06	1361.1	368.53	5.077e-06	5.1468e-06	421.41	140.96	122.58	42.435	5.0951e-06	52.595	224.536	-64.773	-59.051	-104.189	4.887	46.871	-104.195	-99.419	15.934	43.785	-99.506	-95.662	-95.243	-90.370	29.704	-91.205	-8191	255	
273.360	1	1	0	0	0.082001	0.11538	0.15854	0.2472	0.23429	0.12067	0.19531	0.076746	0.14093	0.033053	0.081518	0.25592	0.12729	0.060934	0.11309	0.37926	-1.5	-1.1271	-1.4583	-2.0521	-1.3167	-1.8125	-1.6542	-1.2104	-1.9542	-1.3458	-1.5333	-2.1292	-1.3229	-1.8083	-1.6875	-1.2604	-90.552	-5.181	131.974	140.799	103.895	-2.823	213.652	-48.388	74.833	235.096	-105.848	145.710	-115.081	26.899	205.525	172.413	0.00024541	0.00064298	0.00013117	1362.3	6.0911e-06	8.8262e-06	1351.7	364.71	3.6243e-06	6.6751e-06	417.72	138.05	120.36	41.741	2.1947e-06	51.622	0.00045296	0.00045837	0.00012861	1365.2	5.0806e-06	5.049e-06	1359.8	368.33	5.0957e-06	5.1222e-06	420.53	140.75	122.51	42.429	5.102e-06	52.54	236.473	-59.601	-36.400	-104.104	78.805	16.916	-103.853	-99.271	49.943	48.953	-99.698	-95.574	-95.018	-90.578	38.769	-91.149	-8191	255	
273.457	1	1	0	0	0.25618	0.1273	0.12855	0.15978	0.13877	0.25241	0.16751	0.20076	0.21267	0.282	0.12899	0.29511	0.1722	0.17951	0.019109	0.11906	-1.3229	-1.2812	-1.0708	-2.2875	-1.2396	-1.8083	-2.0375	-1.0854	-1.9813	-1.6688	-1.2333	-2.1792	-1.1479	-1.5688	-1.8042	-1.0521	122.979	-59.328	206.507	-109.888	190.260	124.281	156.930	201.958	226.510	67.275	-43.717	148.060	77.205	40.514	240.974	108.338	0.00024935	0.00046658	0.00017375	1354.2	2.4458e-06	3.7329e-06	1349.7	364	1.0694e-06	6.0235e-06	419.86	138.65	120.4	41.666	2.6575e-06	51.714	0.00045617	0.00046548	0.00012962	1362.2	5.0795e-06	5.0797e-06	1360.4	367.81	5.1464e-06	5.1086e-06	421.45	141.08	122.56	42.442	5.2398e-06	52.499	-117.101	-36.476	-51.211	-104.074	59.587	79.778	-103.984	-99.433	-5.466	12.580	-99.954	-95.602	-95.180	-90.497	77.773	-91.033	-8191	255	
273.554	1	1	0	0	0.25264	0.10947	0.11748	0.23205	0.076014	0.20462	0.12323	0.22536	0.30455	0.24373	0.071592	0.069303	0.14779	0.22139	0.18928	0.17089	-1.5063	-1.5854	-1.3125	-2.1937	-1.1313	-1.3854	-2.0021	-1.3438	-1.7229	-1.5396	-1.075	-2.0687	-1.425	-1.4417	-1.9271	-1.1583	-50.455	52.951	168.230	160.417	38.508	-82.686	104.360	221.197	79.254	46.212	190.259	-65.580	-76.893	193.370	27.658	159.242	0.00022742	0.00037879	0.00015619	1354.2	4.0709e-06	4.3723e-06	1345.2	363.93	3.4672e-06	3.6214e-06	418.49	138.53	120.65	41.735	4.491e-06	51.866	0.00046073	0.00047224	0.00013016	1363.1	5.1631e-06	5.1206e-06	1359.2	367.91	5.1735e-06	5.1118e-06	420.69	140.85	122.67	42.387	5.1646e-06	52.572	239.254	-50.889	-17.365	-104.051	70.495	59.840	-103.925	-99.522	49.235	2.911	-99.813	-95.515	-95.032	-90.582	71.646	-91.039	-8191	255	
273.649	1	1	0	0	0.14718	0.21266	0.21699	0.058067	0.16294	0.12413	0.11421	0.12793	0.13513	0.1366	0.48413	0.33111	0.24436	0.25593	0.29334	0.4063	-1.4875	-1.7042	-0.90625	-2.0646	-1.1479	-1.3125	-2.2542	-1.3312	-1.8167	-1.6896	-1.2208	-1.8354	-1.5625	-1.4583	-1.9813	-1.0917	-39.574	7.952	24.664	130.370	-34.504	206.487	-83.438	219.397	-83.704	204.349	199.173	214.154	176.215	189.637	165.211	167.050	0.00023651	0.00055571	0.0001583	1361.5	3.1818e-06	3.579e-06	1352.2	363.05	2.4756e-06	5.4231e-06	416.48	138.08	119.71	41.75	1.8627e-06	52.042	0.00046341	0.00047549	0.0001316	1364	5.1843e-06	5.1449e-06	1361.5	367.77	5.1639e-06	5.1248e-06	420.35	141.02	122.37	42.408	5.1454e-06	52.581	240.744	-6.846	-15.603	-104.115	-25.292	59.355	-103.641	-99.282	-25.403	42.271	-99.753	-95.498	-95.076	-90.303	40.729	-90.887	-8191	255	
273.745	1	1	0	0	0.16457	0.24567	0.23553	0.22895	0.31766	0.23501	0.12942	0.2314	0.049611	0.088675	0.40097	0.17368	0.19855	0.31736	0.056405	0.14566	-1.2313	-1.8604	-1.0292	-1.8271	-1.3792	-1.1208	-2.2812	-1.3458	-1.2104	-1.7729	-0.96458	-2.0208	-1.6313	-1.2125	-1.7396	-1.2188	-60.887	-68.853	-40.132	240.723	-93.538	211.222	188.465	237.793	127.418	75.162	209.957	-96.169	-103.492	-105.859	109.748	118.568	0.00016509	0.00078401	5.2002e-05	1360.7	3.0342e-06	4.6101e-06	1348.2	363.43	1.7654e-06	3.6007e-06	416.38	138.14	120.59	41.535	9.7386e-07	51.532	0.00046227	0.00046895	0.00013008	1363.9	5.134e-06	5.0704e-06	1358.4	367.42	5.0749e-06	5.0235e-06	419.67	140.7	122.54	42.315	4.9745e-06	52.458	233.063	-39.497	80.430	-103.918	-9.410	13.508	-103.818	-99.441	51.626	65.113	-100.029	-95.375	-95.356	-90.347	48.455	-91.190	-8191	255	
273.841	1	1	0	0	0.060839	0.10994	0.024693	0.10295	0.16998	0.22003	0.2707	0.37428	0.057413	0.30767	0.095932	0.21077	0.32046	0.13669	0.17383	0.37564	-1.0667	-1.8229	-1.1	-1.9125	-1.5812	-0.84792	-2.0292	-1.5708	-1.3604	-2.0792	-1.2229	-1.8854	-1.7104	-1.1688	-2.0458	-1.6729	201.381	-83.356	-83.722	221.131	-28.751	236.803	179.148	184.126	-79.017	209.504	-77.346	-24.398	166.186	233.832	37.540	-87.717	0.00021712	0.00045532	0.00017408	1353.6	3.6291e-06	3.9286e-06	1353.1	363	3.7075e-06	3.6104e-06	416.47	138.14	119.77	41.83	4.49e-06	51.625	0.00045425	0.00046299	0.00012885	1360.5	5.0646e-06	5.0255e-06	1360.3	366.65	5.0498e-06	4.9882e-06	419.52	140.63	122.2	42.386	5.0271e-06	52.395	235.468	34.012	-27.968	-104.022	80.724	24.325	-103.860	-99.342	14.836	58.853	-99.840	-95.497	-95.112	-90.567	15.356	-91.114	-8191	255	
273.962	1	1	0	0	0.21055	0.43865	0.23557	0.17664	0.24115	0.11978	0.21953	0.18209	0.2225	0.07805	0.17845	0.18612	0.086834	0.10396	0.14563	0.30303	-0.97083	-1.925	-0.93958	-1.7396	-1.7667	-0.96458	-2.0563	-1.7	-1.3062	-2.1417	-1.2563	-1.6479	-1.8833	-0.99375	-1.7646	-1.5312	194.864	40.890	-33.102	131.980	-104.370	-0.314	175.368	159.196	-114.569	-114.249	158.215	231.588	138.133	128.770	236.898	151.579	0.0002466	0.00041533	0.00013649	1358.7	4.1896e-06	7.0521e-06	1349.4	362.54	3.9047e-06	7.1926e-06	415.44	137.7	120.38	41.732	1.6695e-06	51.628	0.0004492	0.00045674	0.00012878	1359.9	5.0728e-06	5.0142e-06	1358.3	366.91	4.9951e-06	4.9991e-06	419.21	140.72	122.45	42.299	5.0879e-06	52.517	238.213	6.666	-16.341	-104.154	18.638	42.628	-103.893	-99.500	26.142	79.032	-99.953	-95.533	-95.038	-90.348	36.627	-91.229	-8191	255	
274.058	1	1	0	0	0.31239	0.1761	0.2226	0.47657	0.16653	0.27267	0.22455	0.12024	0.15936	0.18413	0.12745	0.058314	0.076576	0.26399	0.14839	0.083063	-0.69375	-1.9792	-1.1625	-1.5938	-1.9583	-1.0604	-1.8708	-1.7271	-1.0604	-1.7854	-1.2604	-1.4833	-2.0104	-1.4896	-1.6917	-1.5542	143.926	162.253	122.469	194.702	105.252	-23.195	226.438	200.961	146.479	-81.859	213.531	-37.673	-57.085	193.249	154.020	-100.129	0.00019764	0.00058768	0.00014448	1358.5	1.7383e-06	1.0697e-06	1350.1	363.54	1.3185e-06	4.7331e-06	417.12	137.75	119.77	41.77	3.4783e-06	51.725	0.00044971	0.00045974	0.0001297	1362.4	5.0907e-06	5.0037e-06	1359.8	367.79	5.0766e-06	5.1156e-06	419.94	140.81	122.37	42.338	5.0878e-06	52.383	-113.671	-37.737	7.250	-103.916	10.839	56.141	-103.751	-99.521	-10.924	56.128	-99.776	-95.502	-95.258	-90.465	42.511	-91.278	-8191	255	
274.154	1	1	0	0	0.25246	0.10793	0.32105	0.21325	0.0058261	0.15693	0.055135	0.16893	0.14586	0.19115	0.15749	0.33393	0.28971	0.16265	0.31151	0.28871	-0.59583	-2.0479	-1.3375	-1.5667	-1.9729	-1.2958	-2.1104	-1.9188	-0.94375	-1.8979	-1.35	-1.5312	-2.1542	-1.1562	-1.6583	-1.8896	178.229	233.304	-111.749	191.120	235.635	-22.227	124.757	165.658	177.274	-23.247	179.912	177.130	86.748	-116.778	-97.893	217.957	0.00018938	0.00056515	0.000156	1359.6	3.2195e-06	4.579e-06	1348.2	362.58	4.2615e-06	5.9159e-06	417.19	137.96	119.79	41.757	4.2673e-06	51.583	0.00045654	0.00046561	0.00012989	1363	5.0997e-06	5.1045e-06	1359.7	367.27	5.0883e-06	5.0819e-06	420.37	140.81	122.36	42.37	5.1177e-06	52.483	241.358	-40.223	-21.899	-103.947	26.483	72.956	-103.768	-99.309	25.434	4.885	-100.044	-95.488	-94.819	-90.472	25.305	-91.062	-8191	255	
274.250	1	1	0	0	0.18687	0.17648	0.091034	0.31642	0.15976	0.14221	0.19133	0.035386	0.079416	0.17395	0.10661	0.38153	0.17389	0.39226	0.2198	0.22712	-0.50625	-1.7437	-1.6083	-1.35	-1.9188	-1.1562	-1.5833	-2.0062	-0.88333	-1.7521	-1.8042	-1.3354	-2.0167	-1.1313	-1.0958	-2.1417	28.987	182.798	105.017	226.861	94.640	-106.565	163.176	-98.240	95.767	-99.297	-76.257	188.148	218.210	-100.711	36.552	-109.705	0.00020061	0.0003667	0.00015994	1357.8	2.8069e-06	2.9295e-06	1348.5	362.38	1.0492e-06	7.3872e-06	416.24	137.84	120.2	41.677	4.1469e-06	51.883	0.00045637	0.00046405	0.0001287	1362.4	5.0722e-06	5.1647e-06	1358.8	367.02	5.0646e-06	5.1032e-06	420.31	140.72	122.5	42.397	5.0519e-06	52.482	234.159	-25.575	-43.099	-103.962	47.786	53.544	-103.801	-99.280	39.208	14.931	-99.728	-95.333	-94.993	-90.496	50.892	-90.942	-8191	255	
274.346	1	1	0	0	0.1517	0.13646	0.11255	0.30396	0.26397	0.21775	0.26614	0.060907	0.098105	0.12834	0.2719	0.20983	0.20862	0.15882	0.20394	0.1534	-0.82083	-1.9583	-1.575	-1.3333	-1.9042	-1.4583	-1.5292	-1.8333	-1.0812	-1.9667	-1.8333	-1.3833	-2.1396	-1.5604	-1.1708	-2.175	165.150	153.422	192.225	220.728	176.581	78.352	217.254	170.091	241.113	-30.078	62.437	193.264	-102.266	-108.369	-43.764	191.502	0.00019472	0.00020292	0.00016125	1357.8	2.627e-06	7.875e-06	1347.3	363.01	3.9747e-06	4.3911e-06	417.16	138.56	120.26	41.669	1.6558e-06	51.781	0.00045178	0.00046004	0.00012783	1361.2	5.125e-06	5.0001e-06	1359.7	367.54	5.035e-06	5.0571e-06	420.38	141.03	122.48	42.263	5.0324e-06	52.529	234.838	8.480	-34.112	-104.014	12.396	43.219	-103.883	-99.393	-25.225	34.987	-99.873	-95.807	-94.938	-90.558	148.077	-90.854	-8191	255	
274.441	1	1	0	0	0.2791	0.033	0.14808	0.44444	0.2072	0.19006	0.18607	0.22553	0.16314	0.13836	0.22538	0.32781	0.35298	0.24572	0.14333	0.23948	-0.58125	-1.4833	-1.5562	-1.2938	-2.0396	-1.3896	-1.2812	-2.325	-1.0958	-1.5396	-1.7	-1	-2.0458	-1.6271	-1.2604	-2.2958	145.728	207.463	-42.009	-100.519	63.504	56.071	-101.630	150.344	38.637	-3.766	142.522	200.401	180.351	77.124	149.760	90.696	0.00022097	0.00058563	0.00015375	1358.2	3.7245e-07	3.2317e-06	1353.9	363.44	3.7907e-06	3.5026e-06	415.39	138.4	120.07	41.857	1.4143e-06	51.585	0.00045438	0.0004647	0.00012771	1363.8	5.1384e-06	5.0662e-06	1361.2	367.96	5.0771e-06	5.0847e-06	419.79	141	122.53	42.456	5.0577e-06	52.472	238.038	22.209	-31.690	-103.925	-104.378	8.804	-103.705	-99.414	-2.697	-2.699	-99.916	-95.397	-95.012	-90.745	168.565	-90.931	-8191	255	
274.561	1	1	0	0	0.064798	0.19527	0.094262	0.083991	0.18983	0.015605	0.35442	0.31015	0.089498	0.11983	0.2418	0.20935	0.224	0.26734	0.27566	0.19352	-0.84375	-1.3458	-1.8708	-1.05	-1.8125	-1.3083	-1.1396	-2.1583	-1.2667	-1.4208	-2.1188	-1.075	-2.1146	-1.8438	-1.1938	-2.2104	207.003	205.877	3.897	108.834	-31.736	-37.449	201.685	149.023	190.769	75.499	29.591	191.462	199.910	224.750	5.679	179.569	0.00017665	0.00044721	0.00014589	1356	2.3639e-06	7.1863e-06	1349.6	363.46	1.2015e-06	1.5172e-06	418.69	138.63	120.7	41.729	2.6455e-06	51.573	0.0004599	0.00046566	0.00012807	1361.5	5.11e-06	5.0649e-06	1360.3	367.87	5.108e-06	4.9922e-06	419.93	140.93	122.63	42.392	4.927e-06	52.515	233.718	-45.864	-7.550	-104.078	28.115	22.229	-103.780	-99.408	10.709	6.247	-99.910	-95.561	-94.874	-90.562	12.739	-91.005	-8191	255	
274.658	1	1	0	0	0.084135	0.034694	0.026653	0.26994	0.074557	0.13925	0.15572	0.068917	0.15782	0.21747	0.25354	0.091246	0.38668	0.19555	0.32856	0.20243	-0.87917	-1.1375	-1.7354	-1.2	-1.7542	-1.5021	-1.2854	-2.2188	-1.5833	-1.4354	-2.0875	-1.3563	-1.8521	-1.7771	-1.0708	-1.9167	158.530	231.296	48.738	207.188	95.396	241.022	162.223	3.853	234.907	-61.127	217.891	137.633	-54.802	-96.075	-87.259	-109.493	0.00020368	0.00049526	0.00011149	1354.2	3.204e-06	4.8467e-06	1349.1	362.92	2.8939e-07	1.5038e-06	417.81	137.68	120.63	41.612	3.61e-06	51.658	0.00045342	0.000459	0.00012698	1359.6	5.0503e-06	5.0052e-06	1358.7	367.47	4.9948e-06	4.9857e-06	420.36	140.75	122.64	42.426	5.1197e-06	52.484	-113.486	-32.035	22.677	-103.961	66.993	57.079	-103.885	-99.155	64.264	3.103	-99.752	-95.643	-95.042	-90.785	44.243	-90.899	-8191	255	
274.754	1	1	0	0	0.18408	0.08229	0.073397	0.57101	0.13753	0.1453	0.13746	0.26813	0.18388	0.051243	0.098201	0.23413	0.18779	0.19902	0.029112	0.073234	-0.98958	-1.1292	-2.0583	-1.4875	-1.65	-1.8979	-1.3646	-1.6917	-1.3729	-1.0562	-2.2146	-1.2938	-1.4208	-2.1063	-1.0312	-1.9042	-33.274	-112.159	240.655	212.033	-73.982	53.590	-115.533	183.188	83.740	18.149	-80.764	160.209	240.656	-35.743	191.432	201.369	0.0002404	0.00054875	0.00011919	1357.9	4.5611e-06	6.5724e-06	1349.1	363.58	2.1827e-06	6.0011e-06	416.64	138.15	121.15	41.886	4.7586e-06	52.072	0.00044982	0.00046304	0.00012978	1362.5	5.0659e-06	4.9836e-06	1360.2	367.94	5.0913e-06	5.0216e-06	419.73	140.86	122.65	42.428	5.0354e-06	52.659	236.121	-37.951	-28.077	-103.956	20.454	-7.488	-103.994	-99.588	35.184	50.529	-99.820	-95.580	-95.243	-90.742	32.531	-91.045	-8191	255	
274.825	1	1	0	0	0.10544	0.18586	0.081577	0.34646	0.10598	0.26977	0.26016	0.22466	0.15201	0.22149	0.10516	0.10051	0.097523	0.10264	0.19772	0.25061	-1.3687	-1.1896	-1.8104	-1.4771	-1.4312	-2.2333	-1.3542	-2.1208	-1.7062	-1.1104	-2.0708	-1.5583	-1.5438	-1.95	-0.84583	-1.675	167.524	154.015	97.227	229.148	-54.814	108.553	70.151	192.524	117.480	-107.298	-103.746	22.354	25.847	133.602	8.632	-111.448	0.00023685	0.00067448	8.7512e-05	1354.3	2.5072e-06	7.7149e-06	1346.6	362.94	4.099e-06	3.9146e-06	414.74	138.39	120.14	41.728	4.0353e-06	51.625	0.00045	0.00045255	0.00012712	1359.2	5.0292e-06	4.978e-06	1357.9	367.35	4.9907e-06	5.0516e-06	419.48	140.74	122.45	42.4	5.0712e-06	52.512	238.767	-37.665	-30.926	-103.870	20.389	35.158	-103.845	-99.234	16.652	70.262	-99.548	-95.531	-95.117	-90.546	49.788	-91.011	-8191	255	
274.946	1	1	0	0	0.11505	0.14588	0.16034	0.077977	0.15441	0.013507	0.17108	0.28827	0.17009	0.12021	0.17047	0.14716	0.15361	0.092801	0.03023	0.32226	-1.5854	-0.98542	-1.9	-1.5833	-1.1417	-2.0438	-1.3146	-1.7979	-1.7979	-1.1708	-1.9312	-1.4833	-1.0792	-1.9312	-1.1021	-1.6708	85.303	176.268	-100.756	139.668	194.471	10.070	149.390	208.066	61.212	215.680	163.116	212.181	123.099	-116.539	73.767	154.592	0.0002279	0.00024587	0.00014411	1357.7	3.5218e-06	9.4538e-06	1346	363.86	2.2091e-06	2.6512e-06	418.75	138.15	120	41.665	3.5865e-06	51.806	0.00045065	0.00045529	0.00012691	1362.7	5.0474e-06	4.9905e-06	1358.1	367.51	5.0106e-06	5.0605e-06	420.44	140.91	122.53	42.393	5.0234e-06	52.499	223.106	-41.061	-48.292	-104.096	3.121	11.084	-103.965	-99.394	-23.368	-26.133	-99.799	-95.589	-94.827	-90.627	82.550	-91.167	-8191	255	
275.042	1	1	0	0	0.14202	0.097778	0.068377	0.20804	0.1954	0.18322	0.084772	0.081118	0.19215	0.19794	0.24077	0.32453	0.28702	0.052664	0.031421	0.065047	-1.6875	-1.3	-1.8292	-1.7229	-1.2271	-1.9167	-1.3792	-1.425	-1.7354	-1.0104	-2.05	-1.4854	-1.2979	-2.175	-1.2437	-1.5958	-21.951	201.029	-64.229	146.852	185.264	139.396	224.929	-69.534	32.650	-43.809	177.844	181.012	-89.410	-21.435	47.738	79.621	0.00024008	0.00044	0.00011805	1355.5	4.9898e-06	4.1353e-06	1344.9	364.1	2.3865e-06	4.4935e-06	418.15	137.56	119.82	41.615	3.7992e-06	51.799	0.0004521	0.00046433	0.00012834	1360	5.0986e-06	4.9789e-06	1357.3	367.42	5.0815e-06	5.0262e-06	420.65	140.67	122.38	42.348	4.9712e-06	52.496	234.505	-22.411	5.031	-104.032	62.056	-5.543	-103.860	-99.472	-34.542	78.380	-99.739	-95.519	-94.743	-90.238	54.199	-90.862	-8191	255	
275.138	1	1	0	0	0.27207	0.20324	0.22185	0.43342	0.054944	0.081349	0.31312	0.075392	0.14529	0.16	0.14126	0.064994	0.16961	0.12889	0.1591	0.084373	-1.8104	-1.1396	-1.6417	-1.7687	-1.3708	-2.0167	-1.5187	-1.2875	-1.975	-1.2208	-1.7854	-1.8833	-1.2458	-2.0958	-1.6083	-1.3646	42.910	-41.477	57.405	208.975	235.726	100.207	156.402	-62.275	-59.762	33.917	130.108	45.633	186.508	123.853	168.047	41.947	0.00022748	0.00045283	9.0962e-05	1355.6	3.2249e-06	4.7565e-06	1347.9	361.68	3.449e-06	5.0717e-06	415.73	138.27	120.36	41.714	2.522e-06	51.614	0.000448	0.00046348	0.00012631	1360.4	5.0354e-06	4.9528e-06	1358	366.45	5.0226e-06	5.0742e-06	419.58	140.72	122.58	42.375	5.008e-06	52.449	238.540	-28.515	-42.013	-104.042	30.530	13.449	-103.969	-99.090	5.534	52.018	-99.649	-95.511	-94.765	-90.507	15.176	-90.912	-8191	255	
275.234	1	1	0	0	0.092565	0.37956	0.20911	0.0083965	0.22142	0.19076	0.38362	0.16614	0.073673	0.1217	0.18513	0.11733	0.059761	0.12446	0.044573	0.14338	-1.5083	-1.0667	-1.5187	-2.0375	-0.92917	-1.9625	-1.5771	-1.3333	-1.7167	-1.2208	-1.5354	-2.2604	-1.3354	-1.9396	-1.8042	-1.2229	189.250	-92.453	202.874	109.834	212.612	139.593	141.575	224.406	114.516	46.041	181.063	-70.574	-44.574	-100.291	27.132	104.401	0.00025052	0.00038148	0.00016595	1353.3	3.1685e-06	6.0411e-06	1348.9	362.39	4.7966e-06	7.2329e-07	416.01	137.64	120.81	41.781	3.0539e-06	51.594	0.00044923	0.00046295	0.00012785	1359.8	5.0742e-06	5.0546e-06	1357.7	367.05	5.0289e-06	5.0307e-06	419.48	140.57	122.52	42.407	5.0148e-06	52.444	242.314	-58.413	-0.044	-104.028	75.954	5.623	-104.092	-99.133	40.302	235.239	-99.664	-95.539	-95.100	-90.333	94.599	-90.752	-8191	255	
275.355	1	1	0	0	0.061507	0.1702	0.17241	0.17077	0.14213	0.20963	0.11988	0.16647	0.20339	0.32863	0.22824	0.13601	0.14173	0.24693	0.23321	0.13847	-1.5271	-1.3042	-1.4771	-2.2812	-1.0417	-1.6896	-1.8521	-1.2396	-2.1167	-1.2833	-1.1792	-1.95	-1.2437	-1.8646	-1.7875	-1.0083	170.297	189.315	-51.708	241.538	120.624	137.937	93.069	199.475	-75.414	86.143	212.831	-117.321	224.077	-113.362	184.208	157.349	0.00021922	0.00062162	0.0002146	1353.8	6.1085e-06	4.5172e-06	1347	362.05	3.2664e-06	1.6574e-06	416.98	138.47	119.83	41.702	3.1358e-06	51.862	0.00045024	0.00045971	0.0001261	1359.8	5.0324e-06	5.0036e-06	1356.5	366.39	4.9765e-06	4.9818e-06	419.59	140.71	122.28	42.381	4.9845e-06	52.494	239.150	-72.789	-21.903	-103.692	-13.489	24.553	-103.922	-99.350	9.327	98.050	-99.560	-95.389	-95.005	-90.602	-50.867	-91.139	-8191	255	
275.427	1	1	0	0	0.078082	0.22933	0.24514	0.24455	0.21486	0.15035	0.20081	0.35697	0.16714	0.26847	0.10999	0.35625	0.42536	0.24256	0.1482	0.15417	-1.5417	-1.3458	-1.1562	-2.1208	-1.1583	-1.8062	-2.1146	-1.2188	-1.8354	-1.4937	-1.0854	-2.1104	-1.3771	-1.675	-1.8937	-1.1104	-88.680	-38.597	26.923	230.471	81.375	47.596	225.275	198.521	117.779	95.652	-62.609	142.224	195.752	199.133	-20.145	169.630	0.00021947	0.00051783	0.00010548	1358.2	4.2376e-06	2.8653e-06	1346.8	363.17	5.6544e-07	5.3384e-06	416.07	137.42	120.27	41.747	3.557e-06	51.596	0.00045111	0.00045815	0.00012641	1360.9	4.9818e-06	5.0116e-06	1357.1	366.94	5.0392e-06	4.9978e-06	418.79	140.66	122.12	42.368	5.0326e-06	52.445	237.092	18.676	-1.826	-103.952	51.841	-16.942	-104.083	-99.158	64.060	49.985	-99.675	-95.725	-94.821	-90.458	54.350	-90.998	-8191	255	
275.523	1	1	0	0	0.07808	0.11468	0.072306	0.2907	0.058811	0.47346	0.13717	0.30257	0.27415	0.26903	0.4777	0.21202	0.23437	0.18866	0.11064	0.3092	-1.4604	-1.4708	-1.0333	-1.9979	-1.225	-1.5375	-1.9979	-1.3542	-1.8042	-1.5083	-1.2542	-2.1542	-1.3188	-1.2437	-1.8792	-1.3917	174.469	-35.709	-57.053	115.230	73.781	46.462	215.466	211.109	206.906	-68.300	206.665	173.614	234.456	232.038	17.296	140.696	0.00019345	0.00044586	0.00012215	1356.4	5.1288e-06	7.1594e-06	1345.5	363.13	1.0959e-06	2.3948e-06	415.86	138.1	119.82	41.535	6.4776e-06	51.707	0.0004547	0.00045839	0.00012738	1361.3	5.0699e-06	5.0516e-06	1356.1	366.88	5.0375e-06	5.0665e-06	419.39	140.78	122.27	42.293	4.9926e-06	52.394	240.992	9.808	-22.728	-103.803	15.375	39.465	-103.858	-99.507	81.180	72.451	-99.814	-95.437	-94.646	-90.374	37.589	-91.041	-8191	255	
275.642	1	1	0	0	0.34909	0.049888	0.075938	0.28173	0.19705	0.19804	0.19975	0.17225	0.15738	0.20431	0.39877	0.10343	0.28703	0.33257	0.1544	0.18541	-1.2271	-1.2896	-1.1875	-2.1562	-1.3208	-1.2687	-2.1396	-1.2812	-1.7313	-1.9188	-1.3375	-1.8583	-1.3458	-1.1042	-1.9667	-1.275	240.482	80.002	-79.130	-108.635	-114.137	-70.655	233.463	186.430	48.108	123.520	117.275	178.582	68.557	111.355	79.424	-27.269	0.00023999	0.00052874	0.00014675	1355.4	2.9207e-06	8.0888e-06	1347	361.44	3.6041e-06	7.1651e-06	417.36	137.29	119.85	41.719	2.4058e-06	51.799	0.00045418	0.0004577	0.00012813	1360.9	5.053e-06	5.0402e-06	1355.9	366.12	4.956e-06	4.9723e-06	418.97	140.37	122.23	42.333	4.9708e-06	52.529	241.158	-17.566	-29.608	-104.025	18.654	64.854	-103.607	-99.269	-8.227	23.755	-100.033	-95.441	-94.991	-90.319	16.926	-91.019	-8191	255	
275.738	1	1	0	0	0.2919	0.21536	0.081407	0.3718	0.10496	0.053595	0.08996	0.19548	0.1178	0.16274	0.18306	0.065787	0.2511	0.15969	0.1948	0.12311	-1.3208	-1.5792	-1.0354	-2.3042	-1.5583	-1.1542	-2.0271	-1.1792	-1.5125	-2.1021	-1.1583	-2.0229	-1.5042	-1.4062	-2.1375	-1.4542	65.280	41.008	185.400	195.687	26.514	18.338	75.964	183.105	198.081	128.377	213.381	-73.143	181.897	196.964	-87.361	239.180	0.0002223	0.00078086	5.7496e-05	1355.7	3.54e-06	4.5246e-06	1347.7	362.78	2.0782e-06	4.3447e-06	418.8	138	120.03	41.73	6.1133e-06	51.368	0.00044707	0.00044908	0.00012731	1360.7	4.9751e-06	4.9514e-06	1356.7	366.6	4.973e-06	4.9598e-06	419.39	140.77	122.29	42.315	4.9839e-06	52.388	-113.052	-32.853	12.760	-103.948	-27.848	34.224	-103.865	-99.435	-50.032	55.828	-99.786	-95.554	-95.055	-90.393	8.434	-91.153	-8191	255	
275.834	1	1	0	0	0.41784	0.13466	0.095895	0.35677	0.20413	0.19092	0.15973	0.24561	0.28146	0.075275	0.26544	0.35625	0.22898	0.13631	0.0693	0.28358	-1.3146	-1.9125	-0.97917	-1.9104	-1.6562	-1.1521	-2.3187	-1.3417	-1.3104	-1.8	-1.3125	-1.8958	-1.7812	-1.0688	-2.1271	-1.3896	95.047	63.560	209.602	235.932	176.665	191.576	138.151	177.242	137.484	160.185	72.593	219.979	-83.362	151.697	90.888	174.340	0.00024017	0.00048884	0.00011361	1357.1	1.6242e-06	3.4037e-06	1347.5	361.96	3.169e-06	3.392e-06	414.56	137.77	120.22	41.62	3.0481e-06	51.526	0.00045138	0.00045485	0.00012565	1359.3	5.011e-06	4.9733e-06	1357.1	366.37	4.9513e-06	4.921e-06	419.05	140.86	122.51	42.332	4.9525e-06	52.391	232.457	-33.505	-16.329	-103.686	76.636	-10.153	-103.688	-99.342	-30.412	39.968	-99.979	-95.399	-94.669	-90.399	48.836	-91.122	-8191	255	
275.955	1	1	0	0	0.1991	0.166	0.047685	0.25974	0.25117	0.076131	0.072237	0.30901	0.28771	0.12706	0.15858	0.14	0.22051	0.087332	0.31306	0.079721	-0.75	-1.6313	-0.99792	-1.6521	-1.9167	-1.1208	-2.1042	-1.5458	-1.1458	-1.9417	-1.0979	-1.375	-1.7771	-1.1521	-1.9208	-1.7604	205.597	-111.468	120.622	231.497	207.157	-94.265	144.670	149.315	-12.534	39.001	64.030	186.831	184.194	-96.918	14.675	155.367	0.00024383	0.0005693	0.00017247	1356.1	4.3924e-06	7.0345e-06	1349.6	361.6	2.3074e-06	2.1199e-06	414.1	138.18	119.58	41.488	5.0811e-06	51.558	0.00044824	0.00044764	0.00012648	1359.5	5.0002e-06	4.9917e-06	1357.9	366.2	4.941e-06	5.0073e-06	418.32	140.65	122.05	42.234	5.0477e-06	52.478	238.861	-6.132	19.857	-103.942	35.913	33.930	-103.805	-99.283	-20.952	46.349	-99.649	-95.404	-95.082	-90.248	29.299	-90.953	-8191	255	
276.051	1	1	0	0	0.25328	0.21464	0.083599	0.2029	0.23085	0.1841	0.20891	0.1273	0.15251	0.33346	0.12015	0.26062	0.28477	0.18438	0.17212	0.088252	-0.77292	-1.9854	-1.2104	-1.7104	-1.9375	-0.88958	-1.9271	-1.6417	-1.0083	-2.0187	-1.5167	-1.5729	-1.9021	-1.1792	-1.6583	-1.6688	49.588	-12.659	180.574	239.800	224.147	94.151	180.628	195.857	-36.817	64.504	-69.669	212.197	-115.678	198.488	-15.202	-115.055	0.00021311	0.0004857	0.00013244	1352	2.0652e-06	3.5424e-06	1350.1	362.23	1.0166e-06	4.175e-06	417.82	137.5	119.58	41.472	3.2766e-06	51.557	0.00045305	0.00045639	0.00012809	1359.3	5.0672e-06	5.0235e-06	1357.4	366.34	5.0557e-06	5.0377e-06	419.14	140.32	121.98	42.216	5.1353e-06	52.372	242.162	-46.160	18.111	-103.830	12.900	50.862	-103.698	-99.247	48.016	69.066	-99.707	-95.361	-95.022	-90.478	8.556	-91.099	-8191	255	
276.122	1	1	0	0	0.30628	0.12352	0.21572	0.34986	0.02771	0.090757	0.46722	0.19679	0.23147	0.32168	0.21397	0.19053	0.29369	0.17175	0.14294	0.10174	-0.76875	-1.8354	-1.3208	-1.5521	-2.1375	-1.0104	-1.8708	-1.8875	-1.2917	-1.9542	-1.3	-1.2812	-1.9396	-1.2646	-1.7	-1.9208	127.080	121.330	192.571	226.149	-75.349	17.561	180.704	217.721	-2.129	-78.854	201.809	-113.140	182.716	-102.572	93.169	104.536	0.00023859	0.00075036	9.7678e-05	1356	4.6705e-06	2.3383e-06	1351.5	363.07	2.1078e-06	4.2374e-06	417.08	138.23	120.36	41.636	4.5961e-06	51.476	0.0004532	0.00045798	0.00012964	1360.4	5.0639e-06	5.0996e-06	1358.9	366.42	5.1244e-06	5.1084e-06	419.65	140.72	122.43	42.352	5.1678e-06	52.382	229.922	-10.517	-20.129	-103.805	2.514	32.669	-103.712	-99.262	7.091	77.335	-99.710	-95.239	-94.727	-90.480	68.216	-90.610	-8191	255	
276.219	1	1	0	0	0.18567	0.15248	0.31262	0.16885	0.098436	0.24158	0.141	0.11178	0.21927	0.091366	0.18677	0.17313	0.31818	0.21941	0.15234	0.11148	-0.45625	-1.8396	-1.3979	-1.5833	-1.9458	-1.3	-1.7625	-1.9875	-1.0167	-1.6958	-1.6542	-1.2104	-2.1937	-1.3687	-1.2479	-1.8979	138.310	106.477	-79.181	-103.918	-92.055	52.922	60.853	201.526	156.282	-0.771	-110.602	145.694	218.612	154.476	93.943	156.673	0.00019805	0.00057224	0.00015853	1354.7	2.227e-06	5.431e-06	1351.4	363.04	2.9051e-06	3.8517e-06	415.63	137.07	120.32	41.66	2.7475e-06	51.24	0.00046254	0.00047067	0.00013035	1359.9	5.1798e-06	5.1221e-06	1358.6	367.15	5.1417e-06	5.0901e-06	419.22	140.48	122.59	42.339	5.114e-06	52.34	-110.354	-1.582	-28.124	-103.818	66.194	9.521	-103.863	-99.327	-49.369	27.009	-99.529	-95.626	-94.840	-90.476	-16.597	-90.761	-8191	255	
276.339	1	1	0	0	0.17164	0.28758	0.19076	0.18707	0.19732	0.25911	0.25228	0.090874	0.09492	0.061708	0.23865	0.12474	0.17886	0.21514	0.17731	0.31594	-0.64583	-1.7708	-1.7625	-1.2188	-2.0687	-1.3104	-1.6104	-2.1604	-1.2083	-1.8188	-1.6458	-0.98958	-2.0375	-1.6271	-1.3646	-1.9062	232.346	111.700	-6.371	229.347	47.416	-78.166	204.105	192.174	26.447	-41.115	192.740	43.596	157.100	-101.812	24.814	175.366	0.0002281	0.00060798	0.00012435	1353.4	4.6201e-06	2.1478e-06	1346.1	363.08	1.4713e-06	3.7773e-06	415.68	137.6	120.62	41.451	3.5385e-06	51.579	0.00046173	0.00047079	0.00013156	1359.7	5.1139e-06	5.1844e-06	1357.6	367	5.1733e-06	5.1988e-06	419.69	140.63	122.46	42.221	5.199e-06	52.456	-114.788	-30.628	-54.034	-104.077	42.590	45.458	-103.843	-99.298	-73.053	32.722	-99.992	-95.422	-95.058	-90.449	-3.124	-91.027	-8191	255	
276.434	1	1	0	0	0.11994	0.059406	0.16526	0.087243	0.089425	0.27829	0.41037	0.21123	0.12268	0.22702	0.26124	0.33057	0.17424	0.15957	0.32201	0.32639	-0.91875	-1.6458	-1.875	-1.0771	-1.9125	-1.6604	-1.6688	-2.1458	-1.0562	-1.4792	-1.9708	-1.1833	-2.075	-1.7042	-1.0958	-2.15	166.093	-24.315	78.899	-9.351	44.031	-91.866	193.435	231.089	35.307	79.683	154.245	151.046	-30.257	-5.826	-47.775	195.728	0.00023627	0.00068497	0.00015941	1357	5.236e-06	7.1028e-06	1350.8	363.51	4.0729e-06	5.6373e-06	415.77	138.32	119.89	41.677	3.8776e-06	51.454	0.00046378	0.0004728	0.00013032	1360.9	5.2256e-06	5.1844e-06	1359.5	367.12	5.1643e-06	5.1949e-06	419.64	140.82	122.51	42.328	5.1627e-06	52.425	236.620	-7.770	7.521	-103.994	20.504	40.230	-103.880	-99.418	-2.188	24.559	-99.847	-95.652	-94.765	-90.208	142.260	-90.976	-8191	255	
276.530	1	1	0	0	0.17739	0.29365	0.10552	0.42073	0.34902	0.21779	0.30163	0.21551	0.24093	0.28396	0.20827	0.19475	0.10777	0.30971	0.082792	0.20017	-0.91042	-1.5625	-1.8208	-1.2146	-1.8292	-1.6833	-1.2708	-1.8625	-1.1458	-1.3021	-2.0417	-1.3042	-2.0187	-1.8687	-1.1833	-2.0187	-75.974	166.818	194.429	-103.563	165.610	48.510	145.808	79.712	46.094	-20.660	-94.214	-95.086	-91.479	191.594	202.145	211.438	0.00019531	0.0003639	0.00010644	1357	3.0205e-06	3.5759e-06	1350.1	362.73	1.0138e-07	4.9392e-06	416.76	137.91	119.95	41.536	3.0319e-06	51.625	0.0004708	0.00046987	0.00013067	1361.3	5.2291e-06	5.1199e-06	1359.3	367.15	5.2186e-06	5.1472e-06	419.7	140.77	122.3	42.269	5.1563e-06	52.429	236.540	-21.624	1.097	-103.982	-21.801	34.664	-103.785	-99.452	-7.373	42.690	-99.815	-95.550	-94.719	-90.493	41.747	-90.909	-8191	255	
276.626	1	1	0	0	0.10733	0.19012	0.34522	0.30172	0.10663	0.077583	0.19045	0.1737	0.13953	0.3813	0.10286	0.38814	0.19689	0.1409	0.2273	0.42388	-1.0333	-1.5146	-1.925	-1.325	-1.7271	-1.6896	-1.3729	-2.2375	-1.3625	-1.3396	-2.1146	-1.3458	-1.6583	-1.9146	-1.2062	-2	-63.770	-13.706	205.416	177.608	240.161	219.133	171.105	144.167	23.133	211.579	-112.574	229.027	-69.365	60.932	98.017	171.911	0.00022416	0.00035482	0.00016743	1354.3	5.7442e-07	2.2164e-06	1351.8	363.57	2.9132e-06	9.9891e-06	415.93	137.67	120.05	41.559	6.1285e-06	51.469	0.00046311	0.00047084	0.00013036	1358.8	5.1467e-06	5.1424e-06	1357.7	366.87	5.1697e-06	5.1678e-06	419.26	140.55	122.35	42.252	5.1347e-06	52.419	-111.053	-13.494	-39.865	-104.008	63.895	13.251	-103.835	-99.321	-8.513	41.640	-99.693	-95.813	-94.816	-90.463	46.327	-90.726	-8191	255	
276.722	1	1	0	0	0.25491	0.16709	0.089868	0.38919	0.10298	0.19799	0.17848	0.202	0.27526	0.096895	0.20511	0.20959	0.21277	0.3096	0.18553	0.17429	-1.1083	-1.1042	-2.1854	-1.2042	-1.6812	-1.9729	-1.1	-1.9229	-1.4646	-1.2875	-2.0583	-1.2021	-1.4188	-2.1104	-0.82917	-1.8563	-21.199	28.732	169.739	223.296	-72.985	-46.824	-104.060	241.364	-35.580	-46.579	215.703	153.463	-71.378	-89.090	232.944	221.214	0.00021817	0.00083193	9.1965e-05	1354.8	2.6849e-06	6.3247e-06	1348.9	362.49	4.0882e-06	1.0739e-05	414.81	137.86	120.38	41.713	6.5359e-06	51.574	0.00046	0.00046963	0.00012945	1360.4	5.1209e-06	5.0345e-06	1358.3	366.72	5.0817e-06	5.0448e-06	419.59	140.43	122.5	42.396	5.1569e-06	52.356	-110.436	-14.961	6.212	-103.868	23.272	58.292	-103.810	-99.242	50.285	53.560	-99.578	-95.480	-94.781	-90.365	43.950	-90.853	-8191	255	
276.818	1	1	0	0	0.094666	0.32471	0.21106	0.13297	0.12207	0.1835	0.43811	0.31662	0.17747	0.11819	0.27072	0.12702	0.15078	0.36554	0.16052	0.11384	-1.3583	-1.0063	-1.8625	-1.4	-1.2708	-1.9833	-1.1063	-1.8792	-1.7792	-1.1063	-2.0354	-1.4562	-1.4312	-2.0021	-1.0187	-1.7437	-11.802	-10.266	130.470	201.384	231.447	241.895	183.215	231.164	-95.533	-57.485	-108.014	127.131	142.199	210.205	116.081	3.149	0.00019191	0.00051669	9.4587e-05	1358.3	5.0971e-06	2.7309e-06	1344.2	363.28	4.1305e-06	4.4886e-06	416.97	137.67	120.3	41.856	3.4871e-06	51.625	0.00045797	0.00046469	0.00012963	1360.8	5.1213e-06	5.0315e-06	1355.7	366.8	5.055e-06	5.0628e-06	419.94	140.62	122.47	42.399	5.1456e-06	52.487	241.962	-80.080	-24.988	-103.848	36.409	16.672	-104.015	-99.136	22.750	-32.138	-99.870	-95.364	-94.758	-90.152	33.127	-90.990	-8191	255	
276.914	1	1	0	0	0.20605	0.073149	0.21572	0.064188	0.044966	0.10557	0.025239	0.043952	0.11549	0.056393	0.18512	0.18587	0.10143	0.077901	0.31144	0.18339	-1.375	-0.94583	-2.0104	-1.6437	-1.1562	-2.0125	-1.2021	-1.6792	-1.6313	-0.98542	-1.8979	-1.7167	-1.6208	-2.1021	-1.0021	-1.6896	-44.661	39.612	-8.400	5.799	-51.566	150.574	62.576	-74.277	238.111	230.748	-72.342	102.891	224.018	127.944	-42.096	194.875	0.00023692	0.00075992	0.00012258	1356.1	3.8118e-06	7.7336e-06	1348.5	362.92	3.5254e-06	5.4109e-06	416.52	138.25	119.7	41.485	5.787e-06	51.893	0.00045137	0.00046713	0.00012944	1360.2	5.0657e-06	5.0319e-06	1356.8	367.01	5.0051e-06	5.0886e-06	419.4	140.6	122.4	42.252	5.0055e-06	52.512	239.283	-51.006	-3.826	-103.811	-5.152	35.482	-103.622	-99.158	-5.889	8.698	-99.637	-95.478	-94.825	-90.348	63.075	-90.877	-8191	255	
277.035	1	1	0	0	0.10683	0.036383	0.073314	0.28612	0.14098	0.17202	0.0094249	0.31766	0.26858	0.15298	0.16478	0.4024	0.162	0.21958	0.091096	0.34735	-1.4854	-1.1042	-1.7771	-1.6313	-1.1708	-2.2062	-1.5854	-1.4667	-1.9021	-1.2604	-2.0604	-1.7979	-1.1604	-2.2062	-1.3604	-1.4521	-60.427	154.601	42.027	223.646	206.209	29.400	75.772	189.693	-72.374	89.717	-101.851	140.714	39.177	226.999	227.763	208.745	0.00020551	0.00047609	0.0001766	1358.1	4.8583e-06	6.3911e-06	1348.3	363.84	3.9047e-06	4.8822e-06	416	138.38	120.05	41.725	5.1321e-06	51.586	0.000445	0.00045682	0.00012722	1360.9	4.9852e-06	5.0139e-06	1357.8	367.19	5.036e-06	5.0416e-06	419.77	140.82	122.37	42.386	5.0613e-06	52.498	240.234	-2.551	-29.089	-103.990	37.519	29.765	-103.932	-99.228	47.729	74.731	-99.567	-95.526	-95.072	-90.430	60.719	-91.167	-8191	255	
277.131	1	1	0	0	0.06042	0.22908	0.16539	0.15343	0.13643	0.12946	0.082633	0.2239	0.22689	0.19042	0.26795	0.10283	0.10699	0.041989	0.16094	0.33337	-1.85	-0.7625	-1.8479	-1.9438	-1.1729	-1.8854	-1.6396	-1.4229	-1.9021	-1.1354	-1.6375	-1.8208	-1.2917	-1.9312	-1.4729	-1.3271	48.380	-92.640	-37.445	200.418	-43.293	110.780	-65.764	235.416	49.256	-20.219	194.634	112.818	209.674	64.080	228.573	-20.349	0.00022723	0.0004497	0.00016067	1356.4	2.6532e-06	5.6275e-06	1347.2	362.41	2.6944e-06	1.647e-06	418.4	137.6	120.14	41.615	2.0862e-06	51.879	0.00044888	0.00045685	0.00012796	1361.8	5.0468e-06	5.0281e-06	1358.3	367.23	5.1113e-06	5.1183e-06	420.43	140.75	122.45	42.391	5.0658e-06	52.571	234.380	-62.435	-47.385	-103.791	53.236	20.863	-103.777	-99.246	45.130	11.373	-99.582	-95.599	-94.883	-90.338	78.382	-90.698	-8191	255	
277.227	1	1	0	0	0.075788	0.15395	0.15431	0.28141	0.097497	0.28778	0.15252	0.066025	0.073077	0.35562	0.27678	0.16428	0.33269	0.26065	0.25071	0.28006	-1.7167	-1.2021	-1.7292	-1.9896	-1.0646	-2.2083	-1.75	-1.3146	-1.9208	-1.1958	-1.6229	-1.8708	-1.1604	-1.9312	-1.6646	-1.2729	-11.546	182.565	-14.890	215.776	52.229	188.465	224.594	5.275	55.407	208.262	222.935	228.261	87.625	204.496	146.579	189.163	0.00024872	0.00058478	0.00012222	1358.9	1.8446e-06	7.9979e-06	1349.1	363.27	1.9061e-06	3.5453e-06	418.46	137.71	119.81	41.858	2.6157e-06	51.687	0.00045217	0.00046809	0.00013089	1362.5	5.1397e-06	5.0582e-06	1360.7	367.71	5.0646e-06	5.1048e-06	420.85	140.7	122.24	42.408	5.0544e-06	52.521	234.040	-52.449	-7.142	-103.925	31.525	20.899	-103.871	-99.265	-9.228	64.747	-99.670	-95.653	-94.687	-90.465	28.156	-90.797	-8191	255	
277.323	1	1	0	0	0.27166	0.11828	0.1385	0.058352	0.30646	0.09927	0.29853	0.16085	0.05725	0.10131	0.19548	0.2676	0.24958	0.2227	0.18101	0.17173	-1.4625	-1.2437	-1.4646	-2.1312	-1.1812	-1.65	-1.8792	-1.2833	-1.9104	-1.3417	-1.4771	-2.1375	-0.975	-1.75	-1.875	-1.2083	-90.847	55.193	-68.820	140.201	80.794	37.888	241.491	217.672	124.542	19.001	187.609	210.793	-89.501	-68.980	100.614	-100.023	0.00019995	0.00047344	0.00013891	1356.9	4.6759e-06	3.5983e-06	1348.6	363.63	4.6114e-06	2.9374e-06	416.8	137.42	120.11	41.585	3.7356e-06	51.593	0.00045294	0.00046672	0.00012999	1361	5.11e-06	5.0256e-06	1359.2	366.95	5.0499e-06	5.0728e-06	420.04	140.54	122.38	42.354	5.0877e-06	52.459	231.967	-4.084	-19.614	-104.108	-15.669	-44.763	-104.006	-99.348	24.651	31.360	-99.439	-95.449	-95.089	-90.170	23.017	-90.795	-8191	255	
277.420	1	1	0	0	0.34124	0.20502	0.16966	0.1072	0.14616	0.22348	0.14837	0.15718	0.27647	0.19654	0.11299	0.11117	0.26191	0.21057	0.15658	0.26685	-1.6229	-1.1938	-1.3937	-2.4229	-1.2021	-1.5458	-2.0729	-1.3125	-1.9021	-1.45	-1.4333	-2.1083	-1.4417	-1.6437	-1.825	-1.1875	173.756	-110.455	145.072	175.989	-53.944	184.548	220.019	138.804	-114.213	-95.050	41.221	163.718	238.332	12.591	123.675	232.961	0.00022785	0.00045597	0.00018086	1359.2	5.1498e-06	5.8983e-06	1353.6	363.6	1.6103e-07	6.6602e-06	418.04	138.09	119.85	41.771	3.5975e-06	51.702	0.00045488	0.00046612	0.00013023	1362.2	5.1134e-06	5.156e-06	1361	367.44	5.1104e-06	5.0812e-06	420.09	140.66	122.42	42.378	5.0337e-06	52.497	240.043	-41.972	-27.793	-103.946	65.331	17.773	-103.965	-99.371	-17.402	40.964	-99.803	-95.706	-95.091	-90.647	64.773	-90.819	-8191	255	
277.514	1	1	0	0	0.18238	0.16845	0.076366	0.44589	0.27101	0.11501	0.41384	0.15617	0.18013	0.22697	0.095417	0.23185	0.17137	0.27654	0.075383	0.23026	-1.5562	-1.4708	-1.2083	-2.0312	-1.1458	-1.4896	-2.2396	-1.2958	-1.7021	-1.7687	-1.4167	-2.1375	-1.2792	-1.4125	-1.9292	-1.3417	143.154	-86.492	80.915	217.142	164.576	22.855	168.420	-87.505	81.750	23.287	113.351	154.792	57.774	-97.310	-70.421	-91.996	0.00021675	0.00045495	0.0001807	1361.9	2.2079e-06	3.6132e-06	1353.8	362.62	5.018e-07	2.2451e-06	416.13	137.9	120.59	41.773	2.9663e-07	51.53	0.00046165	0.00046654	0.00012945	1362.3	5.0999e-06	5.0303e-06	1360	366.99	5.0745e-06	5.0696e-06	419.98	140.74	122.57	42.412	5.0362e-06	52.401	238.830	-71.177	-29.849	-103.989	55.838	37.260	-103.799	-99.150	-60.207	40.146	-99.617	-95.371	-94.927	-90.441	89.884	-90.827	-8191	255	
277.635	1	1	0	0	0.038005	0.1453	0.23112	0.26779	0.26419	0.096507	0.054304	0.10601	0.068011	0.091059	0.18589	0.24882	0.14086	0.05517	0.064759	0.34458	-1.6208	-1.7479	-1.0312	-2.0229	-1.4354	-1.4625	-2.3667	-1.1479	-1.7333	-1.7958	-1.2042	-2.0167	-1.6375	-1.3729	-1.8646	-1.1604	39.352	-72.862	-98.363	237.889	55.086	101.724	103.769	-54.539	8.329	240.592	139.369	-49.371	6.084	55.745	75.152	-106.493	0.00022615	0.00031225	0.00016616	1356.2	2.8618e-06	5.9501e-06	1349.4	363.68	3.0846e-06	3.3988e-06	417.6	138.02	119.56	41.645	3.0495e-06	51.675	0.00045502	0.00045976	0.00012782	1360.8	5.0855e-06	5.0309e-06	1359.6	367.19	5.1106e-06	5.1186e-06	419.88	140.87	122.36	42.382	5.0558e-06	52.53	218.389	230.065	-44.097	-103.869	62.194	56.137	-103.937	-99.105	51.323	113.162	-99.825	-95.296	-94.681	-90.266	25.675	-91.013	-8191	255	
277.731	1	1	0	0	0.16779	0.25091	0.056602	0.34176	0.44722	0.14128	0.31373	0.25821	0.15244	0.16197	0.2519	0.14546	0.30149	0.21012	0.16924	0.29292	-1.325	-1.8667	-1.0583	-2.2917	-1.7417	-1.1917	-1.9396	-1.4583	-1.7542	-2.1	-1.1187	-1.9292	-1.5042	-1.4146	-2.2062	-1.3604	232.817	86.191	131.875	186.106	93.985	43.342	151.916	176.164	227.512	207.122	-74.560	54.230	-88.772	223.609	162.625	106.429	0.000234	0.00091587	2.0354e-05	1359.8	3.0379e-06	3.9051e-06	1345.3	363.25	1.358e-06	5.7241e-06	417.5	138.07	119.98	41.752	2.9287e-06	51.635	0.00045468	0.00046461	0.00012833	1364.1	5.0585e-06	5.1054e-06	1359.3	367.35	5.1043e-06	5.0585e-06	419.68	141	122.24	42.387	4.9833e-06	52.452	-116.761	-33.859	150.233	-103.937	95.942	8.251	-103.728	-99.142	14.174	12.315	-99.688	-95.399	-94.965	-90.246	23.126	-91.090	-8191	255	
277.827	1	1	0	0	0.17585	0.19163	0.38583	0.13099	0.16495	0.13757	0.35387	0.21655	0.17671	0.20017	0.21987	0.23606	0.091062	0.2169	0.18422	0.32557	-0.94792	-1.9604	-1.1771	-2.0625	-1.6625	-1.0208	-2.0396	-1.5667	-1.2938	-1.8188	-1.1958	-1.6646	-1.6938	-1.1688	-1.8813	-1.4229	9.137	92.928	-74.547	114.232	-45.744	230.543	214.783	99.030	60.859	-33.914	74.571	216.945	185.742	190.370	120.682	-100.263	0.00021828	0.00048183	0.00019418	1359.2	2.7983e-06	3.7582e-06	1350.4	362.07	2.6869e-06	6.9281e-06	417.99	137.94	120.14	41.564	5.4298e-06	51.647	0.00045022	0.00045754	0.00013155	1360.8	5.0674e-06	5.0223e-06	1358.8	366.6	5.0213e-06	5.0169e-06	419.35	140.86	122.3	42.298	4.9423e-06	52.477	236.202	-29.080	32.999	-103.842	27.311	16.288	-103.863	-99.514	6.502	-3.980	-99.658	-95.332	-94.943	-90.334	68.196	-91.075	-8191	255	
277.923	1	1	0	0	0.12359	0.14384	0.076896	0.28454	0.35404	0.11582	0.12898	0.2294	0.30703	0.065846	0.093031	0.30245	0.16313	0.15531	0.30034	0.1092	-0.94167	-1.9854	-1.0333	-1.7771	-1.7375	-1.375	-2.1708	-1.6271	-1.05	-1.8771	-1.0667	-1.3875	-1.7563	-1.0125	-1.7146	-1.725	126.143	145.720	40.537	168.543	139.276	30.989	238.032	182.288	141.181	29.336	89.720	206.886	156.112	166.817	218.298	-106.914	0.00022132	0.0004917	0.00012374	1357.9	3.9238e-06	6.5418e-06	1350.7	361.87	2.1006e-06	6.5102e-06	415.59	137.77	119.57	41.762	3.4751e-06	51.552	0.00045076	0.00045819	0.00012884	1361.3	5.0249e-06	5.0509e-06	1357.9	366.43	5.0886e-06	5.0693e-06	419.4	140.75	122.33	42.369	4.9941e-06	52.394	235.701	-3.328	-2.688	-103.844	31.956	45.717	-103.694	-99.240	69.009	112.038	-99.899	-95.305	-94.996	-90.394	14.083	-91.137	-8191	255	
278.019	1	1	0	0	0.27949	0.078053	0.28436	0.16852	0.32336	0.23982	0.19191	0.23084	0.11982	0.22797	0.3272	0.13873	0.11414	0.1596	0.14738	0.071029	-0.90417	-2.1312	-1.1688	-1.8125	-1.8062	-1.1313	-1.8292	-1.6688	-1.0875	-1.9521	-1.2167	-1.3479	-2.025	-1.2104	-1.8104	-1.8687	34.481	142.264	127.049	-102.928	-49.450	76.309	209.445	223.872	196.445	-58.053	-68.058	231.851	16.817	153.849	124.505	-61.567	0.00018468	0.00071345	0.00013956	1356.3	3.3525e-06	5.0921e-06	1350.6	363.41	3.2285e-06	8.799e-07	416.65	137.47	119.81	41.712	2.2497e-06	51.497	0.00044736	0.00045509	0.00012727	1360.1	4.9633e-06	4.9542e-06	1357.8	366.81	4.9659e-06	4.985e-06	419.36	140.57	122.31	42.321	4.9906e-06	52.4	228.390	-15.683	-17.063	-103.949	6.193	26.624	-103.515	-99.303	35.273	-76.285	-99.652	-95.370	-94.833	-90.388	-5.724	-91.071	-8191	255	
#DATA ENDS
