BOXY.EXE: ISS Imagent and Oximeter Data Acquisition Program Version 0.80
Ascii Record File

#ACQ INFORMATION
2  Detector Channels 
16  External MUX Channels 
1  Auxiliary Channels 
5000  Waveform (CCF) Frequency (Hz)
1  Waveforms Skipped 
30  Waveforms Averaged 
1  Cycles Averaged 
16  Acquisitions per Waveform 
10.0806  Updata Rate (Hz) 

#FILE INFORMATION
TRUE -- External MUX Channel results are PARSED.
FALSE -- AC DC and Phase are NOT grouped.
TRUE -- Companion Program Settings File CREATED.
FALSE -- AC data not excluded
FALSE -- DC data not excluded
FALSE -- Phase data not excluded
FALSE -- Auxillary Chn. data not excluded
Tab delimiters

#CALIBRATION STATE
TRUE -- Waveform Calibration Values APPLIED.


#AUX CALIBRATION VALUES
Val Type	aux-1	

Term	1.0000e+00	
Factor	0.0000e+00	


#WF CALIBRATION VALUES
A = Detector Channel
Val Type	A-AC1	A-AC2	A-AC3	A-AC4	A-AC5	A-AC6	A-AC7	A-AC8	A-AC9	A-AC10	A-AC11	A-AC12	A-AC13	A-AC14	A-AC15	A-AC16	A-DC1	A-DC2	A-DC3	A-DC4	A-DC5	A-DC6	A-DC7	A-DC8	A-DC9	A-DC10	A-DC11	A-DC12	A-DC13	A-DC14	A-DC15	A-DC16	A-Ph1	A-Ph2	A-Ph3	A-Ph4	A-Ph5	A-Ph6	A-Ph7	A-Ph8	A-Ph9	A-Ph10	A-Ph11	A-Ph12	A-Ph13	A-Ph14	A-Ph15	A-Ph16	

Term	0.00000e+00	0.00000e+00	0.00000e+00	0.00000e+00	0.00000e+00	0.00000e+00	0.00000e+00	0.00000e+00	0.00000e+00	0.00000e+00	0.00000e+00	0.00000e+00	0.00000e+00	0.00000e+00	0.00000e+00	0.00000e+00	0.00000e+00	0.00000e+00	0.00000e+00	0.00000e+00	0.00000e+00	0.00000e+00	0.00000e+00	0.00000e+00	0.00000e+00	0.00000e+00	0.00000e+00	0.00000e+00	0.00000e+00	0.00000e+00	0.00000e+00	0.00000e+00	0.00000e+00	0.00000e+00	0.00000e+00	0.00000e+00	0.00000e+00	0.00000e+00	0.00000e+00	0.00000e+00	0.00000e+00	0.00000e+00	0.00000e+00	0.00000e+00	0.00000e+00	0.00000e+00	0.00000e+00	0.00000e+00	
Factor	1.00000e+00	1.00000e+00	1.00000e+00	1.00000e+00	1.00000e+00	1.00000e+00	1.00000e+00	1.00000e+00	1.00000e+00	1.00000e+00	1.00000e+00	1.00000e+00	1.00000e+00	1.00000e+00	1.00000e+00	1.00000e+00	1.00000e+00	1.00000e+00	1.00000e+00	1.00000e+00	1.00000e+00	1.00000e+00	1.00000e+00	1.00000e+00	1.00000e+00	1.00000e+00	1.00000e+00	1.00000e+00	1.00000e+00	1.00000e+00	1.00000e+00	1.00000e+00	X	X	X	X	X	X	X	X	X	X	X	X	X	X	X	X	

B = Detector Channel
Val Type	B-AC1	B-AC2	B-AC3	B-AC4	B-AC5	B-AC6	B-AC7	B-AC8	B-AC9	B-AC10	B-AC11	B-AC12	B-AC13	B-AC14	B-AC15	B-AC16	B-DC1	B-DC2	B-DC3	B-DC4	B-DC5	B-DC6	B-DC7	B-DC8	B-DC9	B-DC10	B-DC11	B-DC12	B-DC13	B-DC14	B-DC15	B-DC16	B-Ph1	B-Ph2	B-Ph3	B-Ph4	B-Ph5	B-Ph6	B-Ph7	B-Ph8	B-Ph9	B-Ph10	B-Ph11	B-Ph12	B-Ph13	B-Ph14	B-Ph15	B-Ph16	

Term	0.00000e+00	0.00000e+00	0.00000e+00	0.00000e+00	0.00000e+00	0.00000e+00	0.00000e+00	0.00000e+00	0.00000e+00	0.00000e+00	0.00000e+00	0.00000e+00	0.00000e+00	0.00000e+00	0.00000e+00	0.00000e+00	0.00000e+00	0.00000e+00	0.00000e+00	0.00000e+00	0.00000e+00	0.00000e+00	0.00000e+00	0.00000e+00	0.00000e+00	0.00000e+00	0.00000e+00	0.00000e+00	0.00000e+00	0.00000e+00	0.00000e+00	0.00000e+00	-9.29852e+01	-1.33296e+02	-1.17972e+02	-1.83514e+02	-6.10041e+01	-6.68737e+01	-1.55681e+02	-1.62015e+02	-6.37700e+01	-6.08445e+01	-1.71225e+02	-1.69747e+02	-1.80595e+02	-1.76656e+02	-4.62200e+01	-1.49255e+02	
Factor	1.72239e-05	1.51077e-04	3.90219e-05	1.52671e-01	1.29822e-06	1.61351e-06	1.77629e-01	5.79230e-02	1.04663e-06	1.52934e-06	9.62527e-02	2.99250e-02	2.79958e-02	9.77860e-03	1.33337e-06	1.40708e-02	2.65951e-06	2.92866e-06	8.15356e-07	7.75076e-02	3.17008e-08	3.21495e-08	8.47087e-02	2.93650e-02	3.17257e-08	3.22051e-08	4.70433e-02	1.47731e-02	1.43622e-02	4.97118e-03	3.19154e-08	6.90677e-03	X	X	X	X	X	X	X	X	X	X	X	X	X	X	X	X	



#DISTANCE SETTINGS
A = Detector Channel
A-1	A-2	A-3	A-4	A-5	A-6	A-7	A-8	A-9	A-10	A-11	A-12	A-13	A-14	A-15	A-16	

2.5000e+00	3.0000e+00	2.5000e+00	3.0000e+00	2.0000e+00	3.0000e+00	1.5000e+00	3.0000e+00	3.0000e+00	3.0000e+00	3.0000e+00	3.0000e+00	3.0000e+00	3.0000e+00	1.5000e+00	3.0000e+00	

B = Detector Channel
B-1	B-2	B-3	B-4	B-5	B-6	B-7	B-8	B-9	B-10	B-11	B-12	B-13	B-14	B-15	B-16	

1.0000e+01	1.0000e+01	1.0000e+01	1.4400e+00	1.0000e+01	1.0000e+01	1.5100e+00	1.9400e+00	1.0000e+01	1.0000e+01	1.9900e+00	2.4900e+00	2.4100e+00	2.9000e+00	1.0000e+01	2.9800e+00	




#DATA BEGINS
time	group	step	mark	flag	A-AC1	A-AC2	A-AC3	A-AC4	A-AC5	A-AC6	A-AC7	A-AC8	A-AC9	A-AC10	A-AC11	A-AC12	A-AC13	A-AC14	A-AC15	A-AC16	A-DC1	A-DC2	A-DC3	A-DC4	A-DC5	A-DC6	A-DC7	A-DC8	A-DC9	A-DC10	A-DC11	A-DC12	A-DC13	A-DC14	A-DC15	A-DC16	A-Ph1	A-Ph2	A-Ph3	A-Ph4	A-Ph5	A-Ph6	A-Ph7	A-Ph8	A-Ph9	A-Ph10	A-Ph11	A-Ph12	A-Ph13	A-Ph14	A-Ph15	A-Ph16	B-AC1	B-AC2	B-AC3	B-AC4	B-AC5	B-AC6	B-AC7	B-AC8	B-AC9	B-AC10	B-AC11	B-AC12	B-AC13	B-AC14	B-AC15	B-AC16	B-DC1	B-DC2	B-DC3	B-DC4	B-DC5	B-DC6	B-DC7	B-DC8	B-DC9	B-DC10	B-DC11	B-DC12	B-DC13	B-DC14	B-DC15	B-DC16	B-Ph1	B-Ph2	B-Ph3	B-Ph4	B-Ph5	B-Ph6	B-Ph7	B-Ph8	B-Ph9	B-Ph10	B-Ph11	B-Ph12	B-Ph13	B-Ph14	B-Ph15	B-Ph16	aux-1	digaux	

790.795	1	1	0	512	0.31518	0.25745	0.22012	0.27786	0.12517	0.026387	0.36302	0.22555	0.15113	0.27226	0.03158	0.26021	0.1751	0.047094	0.14057	0.18737	-1.3667	-1.4042	-1.0063	-2.1021	-1.0063	-1.4542	-2.0021	-1.1021	-1.6542	-1.4771	-1.1333	-1.9417	-1.1437	-1.2792	-1.7833	-1.125	27.915	36.231	211.951	186.058	32.732	52.180	-93.944	241.491	-91.871	68.506	28.349	152.885	-32.997	10.304	-21.466	255.630	0.00029632	0.00056846	0.00021372	1403.8	3.7876e-06	1.279e-05	1795.2	473.97	5.1164e-06	9.2609e-06	638.64	208.79	150.53	62.058	9.1652e-06	96.224	0.00065199	0.00065436	0.00018264	1372	7.1896e-06	7.1757e-06	1754.5	465.26	7.338e-06	7.216e-06	624	206.79	150.51	61.485	7.2028e-06	94.851	230.370	-30.236	-24.791	-86.421	39.140	77.047	-86.770	-81.978	37.261	52.073	-82.838	-77.889	-76.081	-69.800	94.341	-72.054	-8191	255	
790.914	1	1	0	0	0.056944	0.25517	0.19164	0.45313	0.11898	0.11684	0.40567	0.13307	0.1489	0.18581	0.21419	0.16607	0.17567	0.13806	0.12954	0.30978	-1.2771	-1.4771	-0.7875	-1.8875	-1.1833	-1.3854	-1.9417	-1.0688	-1.5063	-1.4271	-1.0375	-1.8646	-1.4271	-1.4438	-1.8958	-1.1292	134.782	-81.402	-54.246	258.517	190.307	-1.025	195.888	200.551	258.671	244.023	-86.276	163.369	82.651	-64.812	20.924	150.077	0.00028825	0.00061269	0.00015013	1405.3	7.9276e-06	1.287e-05	1797.6	473.66	5.3696e-06	1.2423e-05	640.62	209.17	151.88	62.353	4.7059e-06	97.031	0.00065363	0.00066623	0.00018271	1373.4	7.1764e-06	7.2618e-06	1757.4	466.43	7.3418e-06	7.317e-06	625.85	207.45	150.97	61.849	7.3397e-06	95.662	227.660	22.623	-26.498	-86.414	44.772	16.024	-86.719	-82.069	16.675	67.231	-82.940	-77.754	-76.242	-69.922	73.416	-71.847	-8191	255	
791.010	1	1	0	0	0.2572	0.10296	0.15859	0.37539	0.1022	0.13266	0.19166	0.38891	0.093244	0.10879	0.22878	0.28502	0.083569	0.090266	0.13741	0.2752	-1.1708	-1.5833	-0.83958	-2.0792	-1.2646	-1.1979	-2.0375	-1.3667	-1.3104	-1.6792	-1.0667	-1.8687	-1.65	-1.2375	-1.8417	-1.2104	-90.317	-71.647	-32.495	221.513	148.919	59.703	168.636	158.256	61.094	188.647	195.184	216.717	-28.852	241.793	49.442	247.825	0.00030343	0.00040445	0.00022055	1402.6	5.9627e-06	4.24e-06	1805.4	472.37	6.5619e-06	6.0836e-06	638.16	206.99	149.71	61.302	1.0224e-05	96.053	0.00066126	0.0006591	0.00018151	1372.6	7.0633e-06	7.0372e-06	1761	463.88	6.932e-06	6.8423e-06	622.42	205.25	149.07	60.751	7.0166e-06	94.592	233.416	-1.964	3.967	-86.368	37.032	52.363	-86.685	-81.920	-18.402	49.659	-82.633	-77.514	-76.142	-69.767	55.632	-71.808	-8191	255	
791.107	1	1	0	0	0.1983	0.081664	0.3647	0.38256	0.2709	0.22462	0.15182	0.42336	0.13977	0.21873	0.18376	0.27966	0.20706	0.26563	0.30273	0.11149	-0.88958	-1.6812	-0.84792	-1.7396	-1.5833	-1.1083	-1.9937	-1.3042	-1.3479	-1.7687	-1.1271	-1.6396	-1.5021	-1.0688	-1.8937	-1.3083	25.740	-12.165	252.110	198.157	-85.948	247.370	164.640	157.659	-36.557	188.780	189.937	235.183	-45.374	-98.022	83.123	221.623	0.00033699	0.0009695	0.00017897	1412.9	5.2704e-06	1.36e-05	1799.9	477.28	4.4493e-06	1.0214e-05	644.1	210.91	151.88	62.921	6.7842e-06	98.029	0.00064991	0.00065569	0.00018508	1378.3	7.393e-06	7.5595e-06	1759.2	468.93	7.5293e-06	7.5885e-06	629.15	209.57	151.86	62.424	7.5997e-06	96.704	221.004	-5.984	-5.497	-86.134	43.990	29.236	-86.661	-81.940	17.971	54.097	-82.908	-77.776	-76.242	-69.881	45.576	-71.812	-8191	255	
791.203	1	1	0	0	0.10348	0.2235	0.31384	0.26561	0.14964	0.21472	0.29807	0.24731	0.20918	0.12958	0.086213	0.33874	0.2201	0.29235	0.35694	0.14516	-0.90625	-1.5979	-0.80208	-1.5667	-1.7042	-0.99792	-2.0167	-1.5125	-1.0896	-1.8563	-1.0042	-1.6333	-1.7146	-0.87083	-1.6125	-1.3896	252.826	37.992	195.312	-78.402	124.380	236.019	-85.192	166.974	113.899	227.599	24.978	-93.682	240.821	-93.945	-78.256	182.012	0.00029877	0.00054783	0.00015431	1407.8	8.8721e-06	2.696e-06	1791.9	475.16	2.0606e-06	5.4905e-06	641.5	208.96	152.19	62.754	3.879e-06	96.745	0.00068882	0.00070382	0.0001955	1374.5	7.7078e-06	7.6739e-06	1752.8	469.22	7.5645e-06	7.7173e-06	627.62	208.56	152.18	62.352	7.5661e-06	95.572	224.160	10.994	47.490	-85.967	65.243	124.754	-86.822	-82.086	47.141	117.029	-82.858	-77.959	-76.387	-69.895	110.893	-72.130	-8191	255	
791.323	1	1	0	0	0.17024	0.21663	0.047566	0.23779	0.17041	0.15725	0.41578	0.36666	0.28283	0.093491	0.113	0.16346	0.078791	0.14555	0.0050953	0.18751	-0.64792	-1.8167	-0.9625	-1.3958	-1.6854	-0.72292	-1.8667	-1.4688	-0.85417	-1.8875	-1.1562	-1.3917	-1.9083	-0.86458	-1.5854	-1.7062	154.600	130.526	-38.326	217.573	-69.877	-56.943	174.622	227.097	227.852	-32.411	184.406	240.236	240.257	237.895	225.293	159.106	0.00033334	0.0006427	0.0002071	1405.6	7.8696e-06	1.0507e-05	1793.7	473.67	4.0768e-06	8.4427e-06	635.74	208.73	150.6	62.295	4.1648e-06	96.72	0.00067656	0.00067561	0.00018936	1372.4	7.3962e-06	7.3261e-06	1748.8	466.21	7.3454e-06	7.3864e-06	622.91	206.99	150.66	61.78	7.2712e-06	95.229	223.979	-11.127	8.884	-86.167	53.621	59.040	-86.861	-82.343	13.182	60.390	-83.205	-77.777	-76.499	-70.284	56.906	-72.066	-8191	255	
791.395	1	1	0	0	0.075274	0.17578	0.087716	0.29617	0.15118	0.21624	0.26555	0.077503	0.24187	0.14487	0.1427	0.25783	0.28039	0.15312	0.10463	0.18391	-0.61042	-1.8125	-1.2062	-1.4396	-1.8125	-0.87083	-1.7771	-1.8958	-0.87292	-1.7521	-1.2833	-1.4708	-1.9542	-0.95625	-1.4729	-1.825	-6.395	39.413	245.019	152.035	156.261	-44.091	222.181	187.542	186.869	252.272	138.220	239.024	-56.113	-70.879	37.797	209.116	0.00036863	0.00070092	0.00019221	1402.7	6.1951e-06	1.089e-05	1788.5	470.48	4.4346e-06	1.0475e-05	636.16	207.11	149.54	61.763	6.1767e-06	96.596	0.00064735	0.0006553	0.00018221	1369.4	6.9864e-06	7.0757e-06	1746.9	464.25	6.9616e-06	7.0314e-06	621.1	205.44	149.58	61.279	7.0615e-06	95.097	230.701	22.412	-42.379	-86.432	51.121	44.016	-86.746	-82.015	47.325	68.860	-83.162	-77.614	-76.431	-70.136	21.921	-72.301	-8191	255	
791.491	1	1	0	0	0.17005	0.27131	0.34453	0.06336	0.19789	0.14381	0.046125	0.40986	0.28875	0.17738	0.47933	0.37224	0.151	0.15422	0.18353	0.104	-0.61458	-1.6187	-1.1562	-1.3292	-2.0042	-1.0729	-1.6521	-1.9	-0.91875	-1.8625	-1.4458	-1.2208	-1.9937	-1.0688	-1.4875	-2.0458	187.707	89.664	-7.947	154.175	-73.055	91.385	90.520	229.853	-14.145	-42.409	229.231	235.764	124.680	181.963	93.640	255.253	0.0003246	0.00095456	0.00018433	1401.8	7.6042e-06	8.7618e-06	1789.3	475.13	1.4749e-06	8.7853e-06	641.43	211.3	152.93	63.672	5.7916e-06	100.24	0.00065135	0.00065699	0.00018668	1370.2	7.3594e-06	7.4535e-06	1746.5	468.24	7.554e-06	7.5579e-06	627.17	210.15	153.12	63.384	7.5867e-06	98.427	228.330	-37.074	-6.068	-86.380	93.844	65.112	-87.009	-82.196	50.164	52.372	-83.144	-77.748	-76.460	-69.994	10.273	-72.114	-8191	255	
791.587	1	1	0	0	0.14124	0.19897	0.42005	0.3473	0.25596	0.11915	0.18072	0.15407	0.25864	0.23836	0.37229	0.13767	0.11225	0.1405	0.13183	0.19325	-0.54792	-1.5229	-1.4167	-1.2104	-1.9062	-0.99792	-1.3563	-1.9438	-0.7375	-1.5792	-1.5708	-1.1187	-1.9896	-1.3333	-1.025	-1.9271	-10.847	-45.347	101.222	218.566	58.997	216.797	168.936	245.256	82.368	15.367	227.005	252.818	35.816	185.166	133.493	77.237	0.00030371	0.0009215	0.00025831	1395.7	3.2771e-06	5.5993e-06	1779.7	475.56	1.9565e-06	8.1587e-06	639.06	211.72	153.76	64.067	2.6335e-06	99.712	0.00069373	0.00070669	0.00019683	1363.8	7.7046e-06	7.7796e-06	1739.5	468.39	7.6521e-06	7.7538e-06	625.92	210.65	153.51	63.675	7.6159e-06	98.143	227.923	0.563	-16.570	-86.189	27.527	66.708	-86.804	-82.194	-22.798	57.131	-83.178	-77.853	-76.412	-70.107	59.607	-72.075	-8191	255	
791.708	1	1	0	0	0.12898	0.12419	0.104	0.16443	0.21574	0.29793	0.30722	0.19937	0.062105	0.063069	0.15977	0.13056	0.21823	0.21431	0.2551	0.13724	-0.525	-1.5104	-1.4396	-1.0875	-1.7917	-1.2062	-1.4937	-2.0875	-0.93958	-1.4188	-1.7625	-1.1458	-2.0062	-1.35	-0.96458	-2.05	-97.683	126.004	-94.085	252.702	225.966	80.359	181.765	184.678	149.806	172.493	128.437	-58.111	-86.904	211.291	24.416	245.897	0.00026955	0.0010724	0.00010899	1396.1	9.0272e-06	5.6988e-06	1771.7	471.11	7.7849e-06	9.1329e-06	634.94	209.16	152.46	63.678	5.077e-06	98.378	0.00067954	0.00069084	0.00018907	1360.6	7.5226e-06	7.508e-06	1733	465.27	7.5068e-06	7.5085e-06	621.94	208.16	152.34	63.282	7.4478e-06	96.983	226.089	-21.183	-8.091	-86.473	25.238	27.349	-86.972	-82.167	46.273	74.558	-82.993	-78.024	-76.416	-69.965	30.352	-72.139	-8191	255	
791.802	1	1	0	0	0.013258	0.036378	0.27642	0.50925	0.18495	0.28456	0.38383	0.42163	0.038056	0.08249	0.13537	0.11534	0.12616	0.29938	0.19825	0.29772	-0.79375	-1.5021	-1.6771	-1.2021	-1.6521	-1.4292	-1.2875	-1.9062	-1.0542	-1.3625	-1.8417	-1.2188	-1.7896	-1.5479	-0.79583	-1.875	-20.557	233.034	2.521	254.503	61.983	18.092	177.610	195.770	129.334	35.688	200.789	231.355	-71.537	251.023	57.176	157.189	0.00030853	0.0010087	0.00013998	1387.8	3.4024e-06	5.5998e-06	1769	470.7	3.8898e-06	1.1039e-05	633.29	207.36	150.76	62.729	8.8986e-06	97.054	0.00066431	0.00067476	0.00018519	1356.8	7.2895e-06	7.2619e-06	1730	463.29	7.177e-06	7.1942e-06	617.61	205.83	150.67	62.274	7.1412e-06	95.871	221.893	-6.007	-23.620	-86.252	-2.728	68.507	-86.644	-82.012	52.442	74.866	-83.157	-77.729	-76.173	-69.921	22.737	-71.942	-8191	255	
791.899	1	1	0	0	0.3047	0.20075	0.23878	0.12987	0.26404	0.19915	0.24584	0.31753	0.24355	0.21788	0.11044	0.55739	0.067744	0.095983	0.19419	0.30569	-0.86667	-1.3521	-1.8604	-1.0896	-1.4604	-1.5208	-1.1938	-2.0021	-1.175	-1.1083	-1.8188	-1.0646	-1.7229	-1.6688	-0.76458	-2.1813	58.226	239.879	5.822	-97.989	173.217	244.142	140.448	182.050	100.999	-98.800	165.028	219.445	134.722	221.003	-33.049	205.552	0.0003097	0.0014046	0.00011185	1390.1	6.4566e-06	6.5477e-06	1768.3	472.98	3.1314e-06	8.9194e-06	637.44	210.08	153.32	64.116	6.2247e-07	100.1	0.0006507	0.00066298	0.00018188	1359.4	7.3401e-06	7.3883e-06	1730.3	465.81	7.5043e-06	7.5406e-06	624.72	209.3	153.07	63.719	7.4842e-06	98.471	225.635	-22.315	47.216	-86.273	84.177	97.613	-86.838	-81.953	110.063	103.305	-83.074	-78.052	-76.417	-70.088	47.381	-72.097	-8191	255	
791.995	1	1	0	0	0.24731	0.25448	0.054343	0.059136	0.030462	0.19677	0.34231	0.12053	0.064633	0.19806	0.11035	0.18937	0.4124	0.087816	0.22929	0.032634	-0.84167	-0.94583	-1.7292	-1.2313	-1.4937	-1.8021	-1.075	-1.9083	-1.1542	-1.0021	-2.2188	-0.93125	-1.4396	-1.8292	-0.88542	-2.0042	-17.773	244.081	136.317	216.939	-41.396	191.024	212.290	233.128	192.393	-13.987	163.266	-90.689	249.464	258.606	248.576	219.411	0.00030456	0.00086722	0.00024454	1389.2	7.6528e-06	1.0201e-05	1762.5	474.29	3.0691e-06	1.0587e-05	634.37	211.49	153.5	64.518	3.1096e-06	100.68	0.0006887	0.00069494	0.00019342	1355.3	7.4196e-06	7.4271e-06	1724.8	466.61	7.54e-06	7.4351e-06	623.68	210.07	153.16	64.102	7.3786e-06	98.887	232.710	-22.708	20.753	-86.181	55.046	11.521	-86.693	-81.782	17.702	77.670	-82.654	-77.551	-75.793	-69.705	-91.071	-71.518	-8191	255	
792.091	1	1	0	0	0.17559	0.16473	0.067037	0.49938	0.22544	0.1529	0.10752	0.14769	0.076465	0.19511	0.47706	0.26814	0.29711	0.16986	0.17266	0.073815	-1.1313	-0.8625	-1.7458	-1.4375	-1.3667	-1.7042	-1.0312	-1.8604	-1.6333	-1.1104	-1.7833	-1.3292	-1.3583	-1.8646	-0.84375	-1.7979	98.471	10.769	193.078	232.370	53.884	78.221	207.172	217.013	223.855	53.217	192.077	204.463	-74.100	137.108	-71.848	-50.551	0.00031502	0.00078376	8.1354e-05	1389.8	3.0047e-06	8.2848e-06	1772.2	472.84	3.4701e-06	7.5428e-07	632.47	210.5	152.14	63.927	5.1e-06	98.821	0.00067117	0.00067324	0.00018486	1357.6	7.2525e-06	7.3068e-06	1732.8	465.19	7.1795e-06	7.1772e-06	620.78	208.44	151.56	63.301	7.003e-06	97.407	236.350	3.911	24.207	-85.872	19.217	39.595	-86.527	-81.672	-12.106	117.031	-83.228	-77.855	-76.303	-69.971	63.515	-72.124	-8191	255	
792.187	1	1	0	0	0.15932	0.043852	0.12618	0.24856	0.2741	0.13213	0.39488	0.066059	0.20272	0.17836	0.14856	0.12168	0.23229	0.30628	0.12987	0.20918	-1.2083	-0.78958	-1.6917	-1.3438	-1.1854	-1.6333	-1.1375	-1.4937	-1.6167	-0.74583	-1.8146	-1.4229	-1.1437	-1.9542	-0.88542	-1.7646	120.355	160.451	90.295	236.124	259.207	254.833	188.281	108.637	5.951	217.662	230.287	238.843	174.616	214.960	-90.084	122.254	0.00033392	0.00093865	0.0002069	1384.1	7.7379e-06	1.0545e-05	1764.1	469.21	2.0215e-06	4.9533e-06	627.12	204.74	148.8	61.863	5.4565e-06	95.565	0.00063708	0.00062737	0.00017307	1352.9	6.7574e-06	6.6507e-06	1723.6	460.61	6.6633e-06	6.5302e-06	612.83	203.47	148.65	61.342	6.4041e-06	93.91	233.395	-21.780	33.118	-86.189	78.710	65.030	-86.667	-81.758	17.333	76.643	-83.106	-78.033	-76.543	-69.932	29.758	-72.187	-8191	255	
792.308	1	1	0	0	0.14938	0.49126	0.033492	0.047255	0.030554	0.17951	0.10005	0.17195	0.050815	0.28098	0.38402	0.038571	0.014623	0.12058	0.12588	0.18675	-1.3083	-0.62292	-1.4896	-1.4646	-1.1417	-2.0438	-1.1167	-1.3854	-1.6521	-0.87708	-1.8937	-1.5063	-0.90625	-1.9083	-1.0583	-1.3479	201.462	223.866	-13.199	158.956	24.710	224.816	203.445	169.971	75.447	83.003	240.554	-98.627	161.914	210.559	166.030	202.359	0.00028093	0.00071044	0.00030106	1390.6	4.7016e-06	7.0449e-06	1770.7	467.73	2.7286e-06	5.3206e-06	627.19	205.75	149.51	62.874	6.9614e-06	97.22	0.00057484	0.00056789	0.00015862	1354.4	6.1567e-06	6.1805e-06	1726.4	458.91	6.2668e-06	6.2882e-06	613.7	204.16	149.24	62.133	6.6261e-06	95.791	231.576	-31.754	14.494	-86.108	88.424	7.950	-86.897	-81.716	18.121	69.390	-83.055	-78.073	-75.867	-70.117	57.001	-71.888	-8191	255	
792.402	1	1	0	0	0.28037	0.1297	0.23148	0.14109	0.18562	0.052375	0.17618	0.096166	0.1524	0.10219	0.26267	0.17266	0.439	0.26989	0.15061	0.17713	-1.2938	-0.68125	-1.6187	-1.6292	-0.86667	-1.7313	-1.35	-1.3813	-1.8896	-0.75208	-1.55	-1.7417	-1.0063	-2.0062	-1.1562	-1.0771	139.985	128.145	246.507	229.495	138.884	98.168	-92.882	105.192	-32.510	182.553	211.659	187.915	252.111	176.208	26.085	108.869	0.00035156	0.00063969	0.00024311	1387.7	7.9125e-06	7.4166e-06	1765.2	469.67	2.5536e-06	7.8239e-06	631.73	208.62	152.63	64.237	5.8981e-06	99.69	0.00060467	0.00060715	0.0001697	1354.2	6.7035e-06	6.7274e-06	1724	462.33	6.7189e-06	6.7568e-06	617.81	207.15	152.05	63.73	7.0447e-06	98.29	221.921	-7.446	-2.832	-86.803	52.172	49.783	-87.420	-82.399	-22.529	88.722	-83.635	-78.306	-76.744	-70.458	58.299	-72.529	-8191	255	
792.498	1	1	0	0	0.26824	0.08762	0.22341	0.35596	0.20199	0.085796	0.27444	0.44508	0.1545	0.030821	0.13256	0.32016	0.17142	0.19151	0.1393	0.31144	-1.5104	-0.95208	-1.3833	-1.6229	-0.9	-1.6271	-1.2833	-1.2479	-1.7833	-1.0604	-1.5125	-1.9521	-1.0229	-1.9146	-1.35	-1.2958	160.298	81.695	20.325	245.680	189.276	-45.198	147.583	187.990	142.489	138.809	-50.836	200.698	245.380	-66.725	68.877	160.860	0.00034521	0.00050214	0.00020137	1389.7	6.0734e-06	6.2379e-06	1774.5	472.33	3.9759e-06	8.8237e-06	637.89	210.26	153	64.475	1.0741e-05	100.17	0.00065779	0.00066443	0.00018585	1360.3	7.3352e-06	7.3334e-06	1730.2	466.29	7.2932e-06	7.3329e-06	622.3	209.45	152.86	64.075	7.229e-06	98.881	245.889	-59.431	-4.458	-86.927	63.500	12.842	-87.487	-82.653	1.236	74.659	-83.582	-78.516	-77.005	-70.655	78.369	-72.708	-8191	255	
792.619	1	1	0	0	0.25092	0.11961	0.27484	0.30044	0.37198	0.14809	0.37977	0.077178	0.051531	0.18306	0.21803	0.045996	0.092993	0.24133	0.18444	0.33759	-1.4208	-0.90208	-1.1583	-1.9813	-0.78125	-1.8312	-1.7729	-1.0375	-1.775	-1.1958	-1.3354	-1.8604	-0.85833	-1.5667	-1.3229	-1.1896	72.765	243.987	212.336	190.082	-55.758	-95.863	141.773	250.569	85.963	244.485	176.596	62.506	-100.020	247.891	84.045	212.716	0.00033088	0.00086405	0.00025428	1381.9	7.0085e-06	5.6033e-06	1761.3	471.94	2.5009e-06	6.5744e-06	631.21	209.95	151.69	64.15	4.3808e-06	99.243	0.00065617	0.00066889	0.00018812	1351.5	7.2555e-06	7.226e-06	1721.5	464.54	7.1468e-06	7.189e-06	619.21	208.44	151.74	63.542	6.9149e-06	97.423	232.692	-24.032	-12.978	-86.866	50.014	57.738	-87.597	-82.931	39.533	34.225	-83.281	-78.535	-76.653	-70.319	93.360	-72.488	-8191	255	
792.691	1	1	0	0	0.23493	0.12794	0.019732	0.25768	0.029974	0.098332	0.41439	0.15445	0.14638	0.035774	0.10617	0.24809	0.40626	0.094507	0.13673	0.31218	-1.425	-1.1208	-1.2646	-1.9917	-0.77708	-1.6146	-1.6104	-1.0187	-1.7625	-1.1708	-1.1021	-1.8042	-1.0562	-1.7542	-1.5292	-0.98125	55.497	220.976	-34.444	153.945	29.309	223.635	201.619	-77.441	101.141	236.949	-91.913	234.214	152.094	-40.310	151.526	252.961	0.00032972	0.00048879	0.00020176	1385.8	3.9039e-06	8.7306e-06	1757.1	467.59	1.6474e-06	4.3548e-06	625.19	205.16	150.42	63.183	3.4373e-06	96.674	0.00062071	0.00064055	0.00017577	1353.1	6.8735e-06	6.9003e-06	1717.1	460.08	6.8033e-06	6.8345e-06	611.4	204.16	149.82	62.38	6.7346e-06	95.137	229.136	-7.393	-12.791	-86.910	62.047	44.385	-87.534	-82.448	69.141	54.904	-83.673	-78.353	-77.206	-70.547	62.804	-72.765	-8191	255	
792.787	1	1	0	0	0.19333	0.31279	0.093689	0.23371	0.081666	0.2371	0.20524	0.3784	0.18529	0.088024	0.22816	0.21525	0.031079	0.16569	0.051562	0.25869	-1.425	-1.1271	-0.98958	-2.1333	-0.96667	-1.3542	-1.8333	-1.2146	-1.6896	-1.2792	-0.92917	-1.9958	-1.075	-1.4958	-1.7229	-1.1354	113.869	64.970	80.436	246.741	41.756	50.466	242.722	177.857	37.102	-22.034	222.594	2.426	-21.344	-83.231	-44.649	193.347	0.00037233	0.00092609	0.00017565	1382.5	5.7653e-06	5.9458e-06	1761.2	466.2	5.9801e-06	5.3176e-06	627.1	207.36	151.17	63.708	6.4962e-06	98.788	0.00061604	0.00060806	0.00017014	1349.6	6.6984e-06	6.7503e-06	1718.9	459.89	6.8278e-06	6.8952e-06	614.21	206.19	150.98	63.228	7.0088e-06	97.217	226.067	-24.965	-25.911	-86.953	92.526	12.412	-87.615	-82.574	70.749	67.946	-83.857	-78.693	-76.976	-70.570	108.474	-72.747	-8191	255	
792.883	1	1	0	0	0.25607	0.14235	0.29618	0.19731	0.028792	0.22755	0.19568	0.17364	0.097804	0.055072	0.24171	0.43634	0.01849	0.31399	0.18376	0.046238	-1.4792	-1.2854	-0.8375	-1.8875	-1.2167	-1.1167	-1.9542	-1.1604	-1.6104	-1.4188	-0.975	-1.9167	-1.3104	-1.1854	-1.9083	-1.0375	240.043	249.997	-100.234	198.982	56.422	254.868	172.227	207.860	165.657	39.420	120.281	-70.091	-61.200	222.345	-47.938	94.754	0.00030693	0.00074347	0.00032343	1389.1	4.6334e-06	6.2182e-06	1763.5	471.84	2.3447e-06	7.3501e-06	633.44	209.89	153.41	65.006	7.2889e-06	100.57	0.0006572	0.00065585	0.00018418	1357.3	7.2337e-06	7.2458e-06	1724	464.88	7.3958e-06	7.3219e-06	620.57	208.75	153.24	64.398	7.5409e-06	99.131	234.048	-10.390	-0.958	-86.841	43.190	62.466	-87.594	-82.817	12.359	45.844	-83.639	-78.577	-76.809	-70.798	51.990	-72.800	-8191	255	
792.979	1	1	0	0	0.17531	0.18548	0.074322	0.48363	0.036842	0.36545	0.3385	0.2926	0.26221	0.19708	0.19451	0.2244	0.25171	0.22814	0.14358	0.083575	-1.1646	-1.5104	-0.94167	-1.8458	-1.1583	-1.1187	-2.2729	-1.025	-1.3479	-1.5167	-0.87917	-1.9271	-1.7479	-1.1125	-1.9521	-1.125	230.541	39.470	170.050	253.872	88.769	71.479	251.878	164.478	212.818	9.898	168.922	-31.587	-99.114	181.648	209.513	-86.355	0.00029974	0.00070682	0.00018537	1384.4	3.3695e-06	9.7603e-06	1759.5	470.55	3.0048e-06	7.8837e-06	632.63	210.54	153.42	65.129	7.8158e-06	101	0.00067574	0.00067833	0.0001894	1357.2	7.4359e-06	7.3997e-06	1722.2	464.24	7.3591e-06	7.3652e-06	620.58	209.72	153.13	64.659	7.3204e-06	99.57	230.801	-57.690	-7.196	-86.973	57.439	106.043	-87.482	-82.574	140.159	33.817	-83.829	-78.221	-76.723	-70.543	64.781	-72.737	-8191	255	
793.098	1	1	0	0	0.16805	0.064381	0.089793	0.18708	0.08553	0.22042	0.23106	0.35349	0.31052	0.16538	0.21625	0.43572	0.073522	0.28641	0.24753	0.1924	-1.0354	-1.6646	-0.67292	-1.9646	-1.3521	-0.93125	-2.0833	-1.1417	-1.4688	-1.8042	-0.975	-1.9333	-1.5479	-1.1667	-1.7229	-1.2958	-74.052	67.736	-33.297	233.829	-21.729	155.021	190.604	255.402	-70.575	145.019	-92.255	220.274	149.974	-93.862	-84.584	165.367	0.0003703	0.0011572	0.00019821	1387.8	3.1778e-06	1.1011e-05	1771.6	471.96	5.1461e-06	4.8112e-06	633.81	210.26	152.79	64.612	8.726e-06	99.302	0.00067465	0.00066533	0.0001838	1357.5	7.2253e-06	7.2516e-06	1732.1	465.13	7.0943e-06	7.2166e-06	621.53	208.78	152.37	63.958	7.032e-06	97.851	228.101	-17.582	-0.967	-86.639	88.092	36.928	-87.458	-82.697	34.828	19.985	-83.484	-78.464	-76.921	-70.673	52.895	-72.729	-8191	255	
793.194	1	1	0	0	0.24824	0.11563	0.15714	0.20854	0.17855	0.074153	0.2767	0.1085	0.23634	0.0803	0.03583	0.10082	0.050127	0.068383	0.053904	0.30061	-0.92708	-2.0125	-0.88542	-1.9	-1.7563	-1.0396	-2.0833	-1.3375	-1.0333	-1.6521	-1.2521	-1.6792	-1.7188	-0.94375	-1.7188	-1.2854	170.669	56.186	16.504	219.916	-1.530	-4.943	225.725	230.015	133.919	26.943	-75.486	-96.312	223.912	148.443	158.361	194.599	0.00030026	0.00063108	0.00022658	1395.3	3.2246e-06	1.0105e-05	1775.7	472.3	7.566e-06	8.6844e-06	631.7	206.54	150.51	62.975	3.161e-06	96.576	0.00063322	0.00063891	0.00017988	1365.9	6.9558e-06	6.8586e-06	1736.2	464.86	6.851e-06	6.7239e-06	617.47	204.81	150.14	62.363	6.6643e-06	94.946	231.968	-7.559	7.361	-86.928	49.173	27.199	-87.468	-82.744	19.766	62.790	-83.966	-78.501	-76.854	-70.577	29.702	-72.881	-8191	255	
793.267	1	1	0	0	0.24948	0.097839	0.077275	0.22409	0.24137	0.081672	0.3101	0.23614	0.18373	0.12102	0.11433	0.23902	0.23795	0.2052	0.18242	0.27754	-0.77917	-1.8729	-0.89167	-1.5708	-1.7167	-0.775	-1.9792	-1.3917	-1.0458	-1.9958	-1.1	-1.4708	-1.9625	-1.0458	-1.6583	-1.5479	14.621	252.704	113.725	247.880	221.897	-57.189	129.766	198.545	188.539	118.158	131.299	230.914	185.016	248.625	126.125	206.286	0.00033121	0.0011737	0.0001591	1402.4	4.2755e-06	1.0379e-05	1789	470.78	2.6281e-06	6.5722e-06	632.57	206.27	150.41	62.788	2.799e-06	96.772	0.00060525	0.00060775	0.00016877	1370.8	6.5534e-06	6.5626e-06	1743.9	464.09	6.5531e-06	6.5767e-06	617.3	204.74	150.1	62.203	6.6613e-06	95.258	233.517	9.866	-15.619	-86.815	130.504	61.649	-87.388	-82.840	-3.855	83.403	-83.897	-78.625	-77.036	-70.815	123.201	-72.841	-8191	255	
793.386	1	1	0	0	0.14267	0.19604	0.10598	0.17211	0.091325	0.064941	0.24249	0.39007	0.18414	0.12739	0.27966	0.089744	0.11498	0.15974	0.084129	0.025792	-0.61042	-1.5938	-1.1333	-1.3958	-1.8021	-0.89583	-1.7687	-1.5375	-0.89583	-1.8833	-1.2563	-1.3042	-1.8625	-0.98542	-1.5417	-1.6542	159.261	59.320	-9.762	223.725	108.147	157.786	226.785	229.010	-41.250	173.712	157.117	-30.325	-86.947	219.656	-64.587	28.994	0.00024949	0.00068594	0.00029979	1397.8	2.6449e-06	9.6267e-06	1782.2	472.74	3.0999e-06	8.6039e-06	633.18	207.67	151.99	64.105	6.5925e-06	98.266	0.00060746	0.00060614	0.00016966	1368.9	6.551e-06	6.7261e-06	1739.5	464.15	6.7086e-06	6.7735e-06	618.14	206.09	151.26	63.27	6.7975e-06	97.056	234.886	-27.685	8.694	-86.971	79.287	29.164	-87.426	-82.524	65.161	33.199	-83.706	-78.545	-76.953	-70.552	95.111	-72.791	-8191	255	
793.482	1	1	0	0	0.09917	0.039581	0.47749	0.1598	0.40279	0.24524	0.52941	0.19619	0.015943	0.10876	0.22674	0.21255	0.2378	0.1809	0.19058	0.34254	-0.47708	-1.7229	-1.1708	-1.3625	-1.8208	-0.87708	-1.7333	-1.6833	-0.86458	-1.6437	-1.4583	-1.1667	-2.0792	-1.1979	-1.2979	-1.8042	1.000	142.017	92.442	-98.504	248.636	208.152	195.490	140.864	178.564	126.860	191.071	-79.321	-77.254	-40.490	142.614	-80.549	0.00037047	0.00068856	0.00026777	1397.3	6.4786e-06	4.4805e-06	1779.5	471.73	4.061e-06	4.3341e-06	634.87	209.29	152.36	64.313	7.1462e-06	99.155	0.00062112	0.00062599	0.00017268	1365.5	6.8487e-06	6.7992e-06	1738.2	464.79	6.7404e-06	6.7965e-06	620.43	207.45	151.84	63.611	6.8877e-06	97.841	234.744	-22.844	-9.235	-86.890	112.845	89.968	-87.424	-82.921	79.590	-85.074	-83.701	-78.630	-76.866	-70.732	62.333	-72.843	-8191	255	
793.579	1	1	0	0	0.048798	0.077566	0.05424	0.13161	0.16996	0.22716	0.27563	0.26477	0.27129	0.19494	0.15876	0.25935	0.20757	0.078486	0.12268	0.11096	-0.50417	-1.65	-1.2042	-1.1292	-1.8125	-1.1063	-1.4167	-2.0187	-1.0063	-1.5438	-1.4771	-1.2354	-1.7313	-1.3438	-1.3917	-2.0333	78.870	145.782	36.907	-49.892	184.673	122.670	178.004	245.240	11.676	31.568	-85.284	-80.159	-52.423	-70.705	65.555	-17.434	0.00030648	0.00076124	0.00017862	1403.8	3.8875e-06	1.0352e-05	1780.5	472.01	5.119e-06	4.9584e-06	634.76	208.86	151.53	63.718	8.4341e-06	98.259	0.00063405	0.00062756	0.00017653	1368.1	6.9304e-06	6.9662e-06	1740.6	466.13	6.9871e-06	6.9386e-06	621.33	207.69	151.57	63.3	6.8321e-06	96.752	227.088	9.086	-12.483	-87.044	66.650	61.768	-87.615	-82.822	65.435	11.836	-83.879	-78.578	-76.802	-70.878	92.671	-72.932	-8191	255	
793.699	1	1	0	0	0.082477	0.17388	0.30412	0.1629	0.028679	0.28282	0.107	0.26248	0.12589	0.38937	0.38871	0.069329	0.22266	0.14706	0.040521	0.095284	-0.55625	-1.4917	-1.6354	-1.1104	-1.7229	-1.2354	-1.4104	-2.0979	-0.77917	-1.5542	-1.8438	-0.87917	-1.7313	-1.5458	-1.0125	-2.0625	208.258	185.677	228.680	177.188	57.680	-29.273	222.305	167.596	-15.222	124.647	258.052	147.111	-30.114	5.355	35.995	167.428	0.00037725	0.0008295	0.00034721	1397.9	5.5298e-06	8.739e-06	1782.3	471.75	4.68e-06	7.9333e-06	630.08	204.16	149.21	62.382	5.3285e-06	95.141	0.00062898	0.00061481	0.00017059	1367.5	6.5443e-06	6.603e-06	1738.5	463.45	6.4953e-06	6.3928e-06	614.37	202.85	149.1	61.607	6.2709e-06	93.676	228.445	-10.002	-22.876	-86.976	49.615	32.763	-87.741	-82.958	36.882	71.447	-83.967	-78.654	-76.980	-70.864	48.792	-72.769	-8191	255	
793.795	1	1	0	0	0.13036	0.27061	0.10969	0.15434	0.24747	0.089983	0.26238	0.25877	0.096271	0.094101	0.22251	0.19369	0.17773	0.036455	0.1161	0.33888	-0.58542	-1.2687	-1.6333	-1.1854	-1.7271	-1.2979	-1.3104	-2.1333	-1.025	-1.4146	-2.0563	-1.0729	-1.8438	-1.6229	-0.94167	-2.0438	123.804	116.879	241.450	163.044	104.565	-71.921	187.283	233.731	103.517	109.829	211.788	-62.118	229.643	227.918	-6.897	-94.865	0.00033321	0.00089865	0.00024179	1405.2	7.3198e-06	4.8606e-06	1779.2	471.37	5.0628e-06	1.1107e-05	631.83	205.29	151.75	62.745	8.6923e-06	97.168	0.00058106	0.00057812	0.00015942	1370.4	6.2633e-06	6.311e-06	1742.8	463.56	6.3984e-06	6.3575e-06	616.83	204.15	150.69	62.183	6.5493e-06	95.434	230.411	-7.327	22.453	-87.093	51.352	77.914	-87.610	-82.793	39.236	58.996	-83.947	-78.620	-77.174	-70.753	43.153	-72.799	-8191	255	
793.892	1	1	0	0	0.12291	0.15718	0.072826	0.11598	0.13395	0.22006	0.25745	0.20693	0.11931	0.29745	0.17298	0.19318	0.21647	0.23071	0.21198	0.22786	-0.86875	-1.3396	-1.6875	-1.0688	-1.7729	-1.6063	-1.2604	-1.8813	-1.2354	-1.3375	-2.0187	-1.0417	-1.4875	-1.6688	-0.96875	-2.0271	140.540	-57.162	-67.662	124.732	56.785	-54.772	189.226	175.193	107.752	138.507	150.210	142.254	187.958	116.281	65.853	242.734	0.00032865	0.00060644	0.00018624	1399	5.9311e-06	6.9056e-06	1778.8	475.61	7.8969e-06	8.7589e-06	634.4	207.56	153.39	64.525	3.9652e-06	98.857	0.00061346	0.0006094	0.00016844	1369.1	6.6502e-06	6.7192e-06	1736.9	466.38	6.8701e-06	6.7403e-06	619.47	206.74	152.33	63.645	6.9201e-06	97.586	229.875	-37.735	-59.886	-87.123	79.646	75.980	-87.526	-82.994	15.211	50.887	-83.910	-78.726	-77.059	-70.870	42.918	-72.783	-8191	255	
793.988	1	1	0	0	0.11204	0.037071	0.075014	0.42566	0.201	0.11389	0.16815	0.32202	0.18496	0.38483	0.20412	0.069658	0.24729	0.4133	0.057605	0.14516	-0.83542	-0.99792	-1.8354	-1.1313	-1.4875	-1.5688	-1.2229	-1.9688	-1.25	-1.1083	-2.0833	-1.1979	-1.5583	-1.9042	-0.9	-1.8667	55.950	188.711	42.277	210.471	57.605	60.365	234.355	192.753	137.242	-20.107	253.001	115.910	251.668	246.644	124.148	162.420	0.00034627	0.00087293	0.00024083	1397.9	5.4864e-06	4.9485e-06	1772.5	473.65	5.9083e-06	4.5862e-06	635.48	209.74	152.97	64.567	4.1616e-06	99.863	0.00062939	0.00062855	0.0001772	1364.8	6.9652e-06	6.9092e-06	1735.5	466.71	6.8242e-06	6.8945e-06	622.57	208.08	152.92	64.02	6.8842e-06	98.243	237.189	-9.713	12.629	-86.853	58.773	82.013	-87.503	-82.708	87.633	62.789	-83.840	-78.618	-76.957	-70.797	93.931	-73.036	-8191	255	
794.084	1	1	0	0	0.2314	0.060354	0.13776	0.74686	0.23962	0.11671	0.26548	0.094478	0.10297	0.12534	0.33085	0.26272	0.050089	0.080768	0.22635	0.18522	-0.95208	-1.1667	-1.9	-0.94375	-1.3729	-1.7958	-1.3292	-2.0312	-1.4125	-0.89375	-1.9021	-1.3854	-1.3854	-1.9375	-0.90208	-1.8833	245.109	196.921	207.881	224.542	226.614	36.126	184.078	-85.536	28.630	76.426	219.258	245.912	145.520	88.376	184.290	199.957	0.00033494	0.00065262	0.00024841	1400.7	4.6709e-06	3.5315e-06	1782.6	475.25	1.8899e-06	5.4238e-06	634.07	208.77	152.75	63.808	2.7349e-06	97.856	0.00063228	0.00063104	0.00017554	1369.6	6.84e-06	6.7569e-06	1740.1	467.97	6.8432e-06	6.8125e-06	620.65	207.25	152.38	63.395	6.6971e-06	96.426	224.715	-6.350	-4.644	-87.085	113.687	60.370	-87.584	-82.887	80.364	61.091	-83.731	-78.659	-77.082	-70.697	103.874	-72.859	-8191	255	
794.178	1	1	0	0	0.12181	0.078027	0.11938	0.55642	0.073126	0.10888	0.13081	0.30019	0.088922	0.039864	0.24932	0.26681	0.27536	0.19922	0.094064	0.13083	-1.2125	-0.75	-1.7062	-1.3583	-1.1458	-1.8521	-1.1812	-1.7687	-1.4146	-1.1187	-1.9833	-1.3375	-1.2229	-1.8208	-1.2083	-1.6646	180.848	-46.043	-87.756	212.650	215.497	154.152	-93.174	189.805	46.455	-100.784	251.976	192.431	-1.442	206.132	239.507	178.128	0.00029729	0.00087276	5.7415e-05	1406.3	4.7299e-06	7.2667e-06	1778.7	473.06	6.1148e-06	5.5699e-06	628.8	205.4	150.36	62.634	3.6073e-06	96.449	0.00060984	0.00060636	0.00016716	1370.3	6.4697e-06	6.4457e-06	1737.9	464.85	6.3912e-06	6.422e-06	613.44	203.14	149.65	61.964	6.4671e-06	94.49	220.640	-33.079	39.447	-87.021	106.134	91.896	-87.914	-82.870	26.160	34.162	-83.849	-78.726	-76.917	-70.712	41.925	-72.988	-8191	255	
794.274	1	1	0	0	0.1441	0.16528	0.27927	0.36472	0.024331	0.14097	0.34113	0.23126	0.18115	0.11065	0.18301	0.19293	0.27821	0.28361	0.1403	0.18816	-1.2479	-0.825	-1.6917	-1.4562	-1.1333	-1.9438	-1.3979	-1.5125	-1.55	-0.74583	-1.9229	-1.5854	-1.1708	-1.9917	-1.1167	-1.4854	242.533	131.106	54.528	189.502	91.228	129.226	195.645	224.773	93.687	-71.048	227.368	214.857	43.790	197.609	-76.262	227.736	0.00031723	0.00056523	0.00015877	1406.6	7.7381e-06	8.2511e-06	1773.7	473.15	2.4338e-06	6.3792e-06	632.4	205.36	151.14	63.824	4.4761e-06	97.8	0.00058973	0.00058837	0.00016266	1372.5	6.4882e-06	6.4391e-06	1736.1	464.87	6.524e-06	6.5271e-06	616.03	204.64	151.01	63.005	6.782e-06	96.265	228.951	1.797	8.822	-87.419	92.370	53.050	-87.675	-82.818	53.878	63.636	-83.971	-78.469	-77.005	-70.792	61.737	-72.966	-8191	255	
794.395	1	1	0	0	0.1639	0.14061	0.17851	0.23622	0.061323	0.20215	0.2136	0.099527	0.19624	0.21119	0.24222	0.3095	0.42197	0.19088	0.26512	0.10699	-1.2313	-0.90833	-1.6396	-1.7812	-1.0417	-1.6167	-1.3729	-1.3792	-1.775	-1.0063	-1.9125	-1.5208	-1.0562	-2.0729	-1.3167	-1.4813	55.038	-58.004	216.972	176.738	221.300	112.453	212.985	242.413	71.116	100.790	214.397	233.053	225.843	256.506	204.188	215.254	0.00029422	0.00083099	0.00015631	1394.8	2.3349e-06	4.9019e-06	1774.7	472.92	4.099e-06	7.0141e-06	629.77	208.66	153.79	64.714	2.8827e-06	99.034	0.00061828	0.00062175	0.00017232	1364.4	6.7364e-06	6.8197e-06	1731.7	465.47	6.8173e-06	6.9311e-06	617.76	207.43	152.72	64.078	6.8953e-06	97.837	238.391	-26.630	-35.161	-87.298	87.684	-6.457	-87.591	-82.533	19.037	67.964	-83.811	-78.674	-76.647	-71.057	122.771	-72.798	-8191	255	
794.491	1	1	0	0	0.11481	0.12598	0.2012	0.083949	0.1799	0.44451	0.21569	0.36376	0.10937	0.25075	0.28919	0.13375	0.27539	0.51991	0.17283	0.17746	-1.4542	-0.83958	-1.6208	-1.8271	-0.93542	-1.8333	-1.5312	-1.3021	-1.8958	-1.1417	-1.95	-1.9062	-0.98958	-1.9979	-1.2563	-1.2125	236.099	256.260	40.483	208.520	97.626	39.743	223.781	207.760	7.329	5.269	-71.865	215.829	-85.671	218.402	-15.630	-72.010	0.00030355	0.00059942	0.00024878	1393.1	6.2174e-06	1.1381e-05	1780.8	473.69	4.2405e-06	1.0005e-05	635.33	209.32	153.37	64.621	4.6107e-06	99.443	0.0006327	0.00063563	0.00017596	1366	6.8949e-06	6.9061e-06	1739.1	466.98	6.8951e-06	6.8877e-06	619.66	208.03	153	64.114	6.8199e-06	98.12	227.264	1.137	-44.792	-87.247	68.274	35.571	-87.642	-82.608	26.571	89.858	-83.905	-78.772	-77.116	-70.670	91.982	-72.884	-8191	255	
794.563	1	1	0	0	0.019578	0.086003	0.13852	0.30958	0.12014	0.069543	0.3137	0.33267	0.085854	0.36863	0.095878	0.19302	0.27295	0.10181	0.37908	0.19728	-1.6542	-1.1458	-1.3125	-1.9542	-0.98125	-1.8021	-1.5479	-1.1375	-1.9042	-0.99375	-1.3917	-1.7812	-0.87083	-1.8875	-1.3646	-1.1771	-47.506	-36.260	74.927	222.940	13.696	7.196	-93.970	177.713	88.922	45.222	242.518	237.905	216.840	103.835	29.874	-93.407	0.00028388	0.00094526	0.00019033	1402.1	4.637e-06	8.6735e-06	1783.6	473.97	5.06e-06	5.1844e-06	631.52	207.6	152.04	63.611	4.112e-06	97.142	0.00061416	0.00062634	0.0001715	1369.6	6.719e-06	6.7089e-06	1738.3	465.44	6.6934e-06	6.6226e-06	617.17	205.89	151.71	63.072	6.6114e-06	95.76	225.256	-11.803	-9.075	-87.153	33.726	30.916	-87.410	-82.868	52.311	26.531	-83.914	-78.731	-77.001	-70.732	106.770	-72.926	-8191	255	
794.659	1	1	0	0	0.2587	0.095829	0.089765	0.37429	0.14729	0.093073	0.32794	0.068922	0.2758	0.10251	0.099856	0.15332	0.39449	0.18365	0.31222	0.44156	-1.35	-1.1521	-1.2	-2.05	-0.98958	-1.5208	-1.8896	-1.1688	-1.7521	-1.1979	-1.3271	-1.9542	-1.0167	-1.8042	-1.5333	-1.0854	-44.002	171.782	231.576	236.431	111.985	-69.332	158.500	-99.074	-55.499	144.294	57.206	-59.637	258.149	42.520	15.662	182.458	0.00037	0.00041711	5.2714e-05	1412.2	6.8612e-06	6.3016e-06	1778.6	473.59	4.7914e-06	8.2302e-06	628.9	206.66	151.97	63.388	4.8926e-06	96.638	0.00061087	0.00061895	0.00016894	1376.4	6.7386e-06	6.67e-06	1739.7	466.19	6.7768e-06	6.7796e-06	615.46	204.82	151.33	62.884	6.7736e-06	95.459	232.013	-32.718	-22.091	-87.200	55.259	58.981	-87.674	-82.829	17.293	67.450	-83.981	-78.478	-77.117	-70.776	44.420	-72.944	-8191	255	
794.780	1	1	0	0	0.171	0.36055	0.31296	0.17836	0.39614	0.17587	0.2571	0.27337	0.35092	0.23114	0.37743	0.18683	0.40261	0.20784	0.21005	0.28084	-1.5229	-1.2708	-1.1292	-2.3271	-1.0729	-1.4604	-1.9271	-1.2229	-1.7833	-1.375	-1.375	-2.0104	-1.0667	-1.6583	-1.8854	-1.0042	201.322	198.679	-42.075	204.734	28.311	199.625	-82.806	160.514	-84.166	209.375	199.507	-17.952	160.090	225.454	120.822	226.219	0.00029316	0.00095769	0.00028284	1415.9	1.9979e-06	7.3579e-06	1781.9	475.31	1.2739e-06	5.3337e-06	634.05	208.28	153.23	64.031	7.5226e-06	98.311	0.00061293	0.00062845	0.00017272	1380.6	6.892e-06	6.9694e-06	1740.2	467.88	7.075e-06	7.065e-06	619.4	207.01	152.94	63.798	7.1106e-06	96.934	218.339	-1.207	5.427	-87.087	39.755	33.705	-87.807	-82.924	-2.088	76.625	-84.019	-78.892	-77.020	-70.761	77.689	-73.096	-8191	255	
794.876	1	1	0	0	0.36267	0.10242	0.049879	0.348	0.14916	0.053057	0.27571	0.21626	0.40617	0.11315	0.45958	0.12292	0.26234	0.38911	0.15913	0.24415	-1.4354	-1.5	-0.91667	-2.0896	-0.95833	-1.3	-1.9937	-1.1979	-1.6	-1.2896	-1.1708	-2.0396	-1.2542	-1.35	-1.7167	-1.2104	159.454	43.031	-30.771	258.552	110.058	-77.181	218.192	132.070	153.827	39.491	221.479	174.718	-89.993	-55.262	-46.464	144.721	0.00027843	0.00077899	0.00017309	1408.3	1.0255e-06	9.7686e-06	1781.4	480.47	5.776e-06	3.1548e-06	634.12	210.13	154.41	65.062	6.5361e-06	99.61	0.0006536	0.00066111	0.00018263	1376.4	7.1971e-06	7.369e-06	1740	471.16	7.2804e-06	7.304e-06	622.45	209.1	154.4	64.584	7.2963e-06	98.236	240.491	-35.520	0.061	-86.987	43.787	66.813	-87.584	-83.040	62.762	45.446	-83.875	-79.008	-77.291	-70.738	93.013	-72.845	-8191	255	
794.972	1	1	0	0	0.076595	0.035318	0.12697	0.35023	0.15791	0.30196	0.40163	0.12359	0.10066	0.073362	0.2979	0.057866	0.22735	0.095456	0.094085	0.08975	-1.2896	-1.4896	-1.0083	-2.1292	-1.4292	-1.125	-2.0979	-0.87083	-1.4854	-1.5458	-0.87708	-1.9354	-1.2708	-1.2646	-1.825	-1.3438	174.673	-7.411	33.489	163.388	-67.905	-33.682	212.537	147.078	240.651	74.307	213.718	-57.281	135.201	252.028	-60.570	175.591	0.00037129	0.0011606	0.00024935	1411.6	5.5913e-06	1.3112e-05	1779.3	477.7	8.0678e-06	7.4553e-06	636.61	210.57	154.65	64.873	4.9738e-06	99.872	0.00066162	0.00066641	0.00018432	1379	7.2866e-06	7.3407e-06	1742.3	470.45	7.2129e-06	7.2435e-06	623.41	209.38	154.4	64.496	7.2205e-06	98.528	232.713	-15.273	-2.683	-87.046	10.683	51.744	-87.776	-82.847	30.322	49.036	-83.718	-78.693	-77.088	-70.866	60.982	-72.821	-8191	255	
795.068	1	1	0	0	0.11763	0.070255	0.13806	0.1203	0.15143	0.1725	0.21499	0.52114	0.04447	0.1342	0.21584	0.18827	0.32294	0.235	0.18443	0.52155	-1.0354	-1.6292	-0.97708	-1.925	-1.4354	-1.0063	-2.1063	-1.3646	-1.5604	-1.6896	-1.0354	-1.7437	-1.3604	-1.2542	-1.7896	-1.2563	153.167	-87.996	137.828	-37.960	163.051	-24.287	184.989	176.832	77.205	50.211	78.617	189.022	-90.514	203.578	8.568	137.764	0.00029817	0.00075786	0.00016686	1407.8	5.097e-06	7.1121e-06	1781.9	476.28	6.7662e-06	7.4529e-06	630.49	208.95	152.63	63.977	3.4528e-06	97.949	0.00064937	0.00064853	0.00018043	1378.3	7.0605e-06	7.1121e-06	1741.9	468.92	6.9924e-06	7.104e-06	617.92	206.95	152.39	63.481	6.9733e-06	96.496	232.669	-24.045	-20.625	-86.922	36.164	10.514	-87.697	-82.881	13.325	43.983	-83.779	-78.644	-76.931	-70.891	84.150	-73.071	-8191	255	
795.164	1	1	0	0	0.13042	0.13959	0.14741	0.34479	0.13102	0.33987	0.41683	0.10715	0.041159	0.10015	0.16998	0.25704	0.20063	0.15243	0.16546	0.4566	-0.93333	-1.6792	-0.95417	-1.8167	-1.4521	-0.88333	-2.1021	-1.3125	-1.0938	-1.7479	-0.76042	-1.8	-1.5583	-0.93125	-1.7896	-1.3667	202.809	224.716	243.161	238.425	159.348	29.667	157.453	114.983	158.282	-0.743	207.796	214.130	72.740	79.902	66.621	178.142	0.00023314	0.00081215	0.000358	1406.5	6.2707e-06	1.2255e-05	1769.3	475.96	6.708e-06	1.015e-05	629.11	207.74	153.39	64.704	3.1278e-06	98.248	0.00063605	0.00063695	0.00017944	1378.1	6.8895e-06	6.9699e-06	1733.7	468.5	7.0553e-06	7.0853e-06	616.41	206.2	153.11	64.111	7.2159e-06	96.886	242.028	-22.868	-10.512	-86.939	46.612	51.151	-87.702	-82.970	-6.440	14.610	-84.054	-78.486	-77.033	-70.849	77.022	-73.061	-8191	255	
795.260	1	1	0	0	0.12129	0.092082	0.16615	0.32044	0.13853	0.18532	0.3671	0.16425	0.084133	0.17514	0.33886	0.29883	0.076166	0.17296	0.16016	0.26593	-0.84583	-1.9333	-0.83542	-1.7104	-1.6292	-0.9125	-1.9146	-1.3083	-0.99792	-1.7667	-0.94167	-1.5229	-1.8937	-0.92708	-1.7396	-1.3792	59.677	14.345	159.306	201.057	-35.612	107.607	242.193	66.221	63.481	85.514	-89.949	-93.198	248.828	215.642	169.933	-2.200	0.00033521	0.00068854	0.00027546	1403.2	7.3587e-06	5.1848e-06	1772.3	474.94	4.1297e-06	7.73e-06	629.33	207.85	153.15	64.755	6.4712e-06	99.07	0.00066091	0.00065653	0.00018382	1372.8	7.2752e-06	7.2991e-06	1729.7	468	7.2702e-06	7.3444e-06	616.54	207.08	153.28	64.351	7.3213e-06	97.573	236.487	-18.203	1.401	-87.033	67.539	-5.034	-87.829	-82.879	53.013	107.119	-83.919	-78.641	-77.313	-70.852	58.795	-73.033	-8191	255	
795.379	1	1	0	0	0.22351	0.15699	0.17815	0.12562	0.2815	0.24931	0.17369	0.17004	0.12874	0.24363	0.20394	0.36275	0.12594	0.03606	0.32976	0.29587	-0.68333	-1.9521	-0.90417	-1.3625	-1.8	-0.93125	-1.9562	-1.5896	-1.0187	-1.75	-1.1271	-1.4979	-1.9438	-0.93958	-1.6771	-1.7125	12.895	60.078	-12.402	150.398	-5.148	184.615	157.917	186.939	230.212	200.237	-46.933	150.740	220.746	-64.208	216.175	233.718	0.00032026	0.00091767	0.00020411	1405.8	7.9454e-06	5.5258e-06	1772.7	475.32	5.1802e-06	8.0062e-06	632.37	209.03	153.47	64.682	8.6856e-06	99.17	0.00065745	0.00065558	0.00018753	1373	7.3221e-06	7.2753e-06	1732.5	468.08	7.2754e-06	7.2531e-06	618.33	208.03	153.87	64.388	7.1417e-06	97.769	233.459	-8.685	-0.865	-86.980	65.159	37.222	-87.659	-82.924	30.353	56.334	-83.964	-78.549	-76.774	-70.958	53.284	-72.981	-8191	255	
795.475	1	1	0	0	0.038206	0.10055	0.080941	0.36364	0.25038	0.30774	0.23572	0.19038	0.15632	0.14521	0.16467	0.046354	0.30797	0.23635	0.15646	0.19347	-0.76875	-1.9958	-0.96458	-1.1896	-1.8708	-0.73333	-1.6458	-1.7687	-0.89375	-1.7521	-1.2042	-1.1417	-1.8479	-1.1	-1.5063	-1.8062	-76.127	62.716	248.412	-61.108	191.702	129.157	189.419	-47.523	122.156	-25.738	229.374	68.078	215.738	234.939	55.893	123.271	0.00033206	0.00080975	0.00024983	1409.8	8.9466e-06	5.5436e-06	1779.9	477.34	4.369e-06	6.4124e-06	632.99	209.07	154.7	65.079	5.408e-06	99.048	0.00063201	0.00064473	0.00017936	1374.8	7.012e-06	6.9464e-06	1740.7	469.99	6.9762e-06	7.0693e-06	620.47	208.46	153.92	64.383	7.009e-06	97.842	230.683	-16.477	9.330	-87.143	51.533	63.915	-87.575	-82.819	8.882	34.918	-83.811	-78.517	-76.956	-70.845	54.955	-72.812	-8191	255	
795.572	1	1	0	0	0.16096	0.094507	0.14939	0.34651	0.013777	0.1997	0.24425	0.25763	0.11285	0.082644	0.20182	0.16817	0.089505	0.33109	0.16026	0.32274	-0.57708	-1.7583	-1.0938	-1.2396	-1.8854	-0.90208	-1.7875	-1.8792	-0.70833	-1.7625	-1.5146	-1.1125	-1.8188	-1.0604	-1.1604	-1.9479	23.367	-27.862	-97.798	199.279	-95.306	221.255	198.944	215.989	154.073	195.849	207.953	-90.719	-25.331	255.269	179.289	203.483	0.00027679	0.00056885	0.0001865	1412.4	5.0017e-06	6.2018e-06	1781.7	476.62	4.9419e-06	6.1932e-06	627.98	207.09	152.71	63.669	6.4562e-06	97.248	0.00064151	0.00063849	0.0001771	1378.3	6.9272e-06	6.9213e-06	1739.7	468.44	6.832e-06	6.8408e-06	615.86	205.74	152.3	63.247	6.8484e-06	95.796	234.950	-52.340	14.934	-86.981	41.874	-5.894	-87.716	-82.926	-1.134	31.663	-84.002	-78.601	-76.982	-70.734	50.071	-73.227	-8191	255	
795.668	1	1	0	0	0.17817	0.098374	0.11128	0.26998	0.086446	0.078347	0.1819	0.27338	0.083931	0.14931	0.011076	0.2557	0.0866	0.2432	0.12403	0.017634	-0.375	-1.4854	-1.3646	-1.0792	-1.6458	-1.0458	-1.5375	-2.0146	-1.0833	-1.5604	-1.7104	-1.0375	-1.725	-1.4521	-1.1333	-1.975	112.226	158.193	-52.706	222.804	-25.326	-59.837	131.811	165.065	-80.762	-17.290	-3.849	217.167	-97.130	-94.205	7.690	-58.705	0.00034638	0.00072827	0.00018937	1404.2	4.4503e-06	1.7067e-05	1765	475.8	4.4486e-06	8.9038e-06	625.9	206.86	153.36	64.56	2.4478e-06	98.017	0.00063444	0.00063511	0.00017604	1371.4	6.853e-06	6.9368e-06	1725.8	467.47	6.9292e-06	6.9521e-06	613.12	205.54	152.95	63.902	6.8658e-06	96.45	229.763	-8.183	-2.534	-87.077	23.385	61.642	-87.529	-82.947	30.073	56.599	-83.833	-78.801	-76.986	-70.957	34.916	-73.043	-8191	255	
795.788	1	1	0	0	0.21461	0.073956	0.20248	0.17001	0.16901	0.11653	0.24134	0.17086	0.17633	0.29411	0.20142	0.17204	0.17841	0.34373	0.31497	0.061802	-0.675	-1.5375	-1.4646	-1.0375	-1.6042	-1.1604	-1.2083	-1.7833	-0.77708	-1.5021	-1.7917	-1.0125	-1.9021	-1.3937	-1.0021	-1.9917	120.812	-40.891	-70.183	193.628	144.548	170.743	-66.501	178.115	56.423	223.788	223.865	192.077	-98.532	230.935	57.450	-72.766	0.00032689	0.00077918	0.00032308	1396.1	2.2638e-06	4.6646e-06	1753.8	471.58	5.557e-06	9.2818e-06	625.35	207.52	153.17	64.687	3.6787e-06	98.61	0.00063497	0.00063712	0.00017673	1364.4	6.9007e-06	6.9541e-06	1717.2	465.4	6.9395e-06	6.9624e-06	612.44	205.76	152.78	64.227	6.9453e-06	97.124	239.385	-19.676	-5.134	-86.968	53.087	40.007	-87.743	-82.734	16.311	64.023	-84.076	-78.711	-77.041	-70.768	94.420	-72.813	-8191	255	
795.860	1	1	0	0	0.15766	0.21226	0.082051	0.1981	0.16278	0.10034	0.41753	0.42295	0.26406	0.084766	0.18331	0.21585	0.22738	0.28559	0.18519	0.13475	-0.56042	-1.35	-1.5667	-1.1333	-1.6833	-1.3104	-1.2229	-2.1562	-1.1	-1.3312	-1.9333	-1.1417	-1.8896	-1.5833	-0.76042	-1.9625	57.316	-85.737	230.659	51.647	-29.406	-59.533	207.600	238.264	-34.824	256.003	243.100	-86.579	164.308	233.729	-22.488	188.797	0.00029634	0.00068981	6.6589e-05	1395.2	6.1107e-06	8.8376e-06	1765.2	475.37	3.926e-06	4.812e-06	629.96	209.12	154.55	65.173	4.8703e-06	99.953	0.00063578	0.00062902	0.0001753	1364.7	6.9837e-06	7.0598e-06	1720.2	467.69	7.124e-06	7.0312e-06	616.42	207.53	154.11	64.688	7.1651e-06	98.39	221.135	-38.299	-21.592	-86.991	43.139	27.147	-87.516	-82.624	38.460	35.743	-83.792	-78.637	-77.084	-70.935	92.495	-72.829	-8191	255	
795.956	1	1	0	0	0.060234	0.057151	0.11808	0.21129	0.16289	0.21922	0.19494	0.25262	0.076457	0.27887	0.1772	0.43068	0.12555	0.10485	0.11364	0.33594	-0.84167	-1.1354	-1.7854	-1.0583	-1.5854	-1.4167	-1.0667	-2.025	-1.1979	-1.1958	-2.0438	-1.1292	-1.6812	-1.825	-0.775	-1.8729	35.720	-31.630	162.827	227.409	-56.975	99.571	183.149	207.086	152.132	-3.295	249.399	230.856	184.295	165.995	8.808	240.660	0.00035932	0.0010254	0.00012403	1403.5	5.1055e-06	8.0556e-06	1770.3	477.59	2.3417e-06	1.1768e-05	632.4	210.54	154.67	65.507	7.7147e-06	100.17	0.00065469	0.00065386	0.00017953	1371.8	7.1582e-06	7.151e-06	1728.5	470.44	7.2119e-06	7.1833e-06	619.41	208.78	154.67	65.075	7.2127e-06	98.593	229.372	-26.952	-57.791	-87.057	41.410	89.378	-87.679	-82.883	55.093	57.069	-83.857	-78.853	-76.937	-70.660	64.862	-72.754	-8191	255	
796.077	1	1	0	0	0.24012	0.13989	0.19932	0.60323	0.13639	0.34098	0.20952	0.1963	0.033839	0.20153	0.22279	0.25468	0.17131	0.25533	0.11326	0.22602	-0.725	-0.9625	-1.7542	-1.1708	-1.3667	-1.7125	-1.0354	-1.7437	-1.3542	-1.1146	-1.9417	-1.3021	-1.4646	-1.8667	-0.75625	-1.7604	231.864	134.141	-89.495	200.671	-85.818	46.870	193.243	113.420	-45.987	-50.338	188.731	-42.304	-85.928	242.489	-38.926	206.969	0.00027939	0.0008063	0.00014327	1404.5	4.8514e-06	3.6125e-06	1764.9	475.05	5.0391e-06	1.2263e-05	627.39	206.47	153.28	64.329	4.7345e-06	97.57	0.00065894	0.00065438	0.00018027	1371.1	7.0734e-06	7.0152e-06	1723.6	468.19	7.055e-06	7.0029e-06	613.68	205.45	152.84	63.947	6.9051e-06	96.195	231.470	39.997	-30.499	-86.986	33.405	38.583	-87.711	-82.867	-2.346	32.673	-83.869	-78.600	-77.012	-70.830	50.638	-72.643	-8191	255	
796.171	1	1	0	0	0.070645	0.046644	0.27272	0.14002	0.11806	0.19973	0.2988	0.35135	0.12618	0.19594	0.073283	0.091026	0.26249	0.13508	0.17962	0.34852	-0.95	-0.79792	-1.6979	-1.1792	-1.2958	-1.7792	-0.96458	-1.7521	-1.4354	-0.92708	-2.1083	-1.3604	-1.0875	-1.9708	-0.9125	-1.6854	-27.949	128.904	-17.572	213.800	-83.176	126.705	198.492	191.158	157.237	109.838	250.878	122.028	227.057	-66.551	-94.028	203.039	0.00032073	0.00069164	0.00024136	1392.7	1.9592e-06	1.1856e-05	1753.8	473.79	2.6369e-06	6.0245e-06	622.93	206.4	153.55	64.823	7.6939e-06	98.662	0.00063567	0.00063567	0.00017859	1366.5	6.9551e-06	7.0549e-06	1713.7	466.59	7.0487e-06	7.0538e-06	610.67	205.17	153.04	64.338	7.2384e-06	97.149	233.537	-13.491	-27.560	-87.069	3.854	49.526	-87.876	-82.709	12.699	70.175	-83.852	-78.762	-77.020	-70.922	70.954	-72.852	-8191	255	
796.267	1	1	0	0	0.21883	0.19265	0.057408	0.10039	0.27092	0.18484	0.2484	0.24057	0.32909	0.035713	0.08323	0.20752	0.26476	0.049451	0.092315	0.25365	-1.15	-0.76042	-1.5729	-1.3292	-1.0104	-1.6021	-1.1104	-1.7208	-1.65	-0.85208	-1.6854	-1.4521	-1.0833	-1.9	-1.0354	-1.6333	156.122	-52.381	109.689	248.389	60.997	-71.137	195.033	234.957	-79.885	-73.007	247.917	167.402	204.008	210.055	39.515	189.453	0.00030923	0.00086704	0.00018303	1390.1	5.7264e-06	3.6961e-06	1740.8	473.77	5.7729e-06	8.735e-06	622.87	206.68	153.76	65.203	3.6478e-06	98.882	0.00063833	0.00064912	0.00018057	1360.5	7.0951e-06	7.0984e-06	1705.5	466.19	7.0417e-06	7.1166e-06	610.05	205.56	153.18	64.801	7.1537e-06	97.642	230.901	-9.933	-2.321	-87.085	23.872	157.626	-87.710	-82.666	38.509	34.262	-83.626	-78.423	-76.628	-70.969	108.184	-72.701	-8191	255	
796.363	1	1	0	0	0.16388	0.20006	0.20858	0.031846	0.03035	0.39303	0.5951	0.33253	0.088165	0.073746	0.039597	0.15425	0.13704	0.069319	0.35453	0.28854	-1.3479	-0.78125	-1.6125	-1.4771	-0.96667	-1.7458	-1.1208	-1.4229	-1.3958	-0.8625	-1.8583	-1.6229	-1.1938	-1.9688	-0.95	-1.4354	83.479	25.051	213.568	8.968	20.262	68.974	159.757	192.696	84.543	158.066	124.667	143.159	253.702	26.230	-62.046	194.341	0.00033688	0.00079736	0.00016996	1390.4	7.0943e-06	7.2534e-06	1743.4	473.94	5.7171e-06	7.9362e-06	624.9	208.31	153.64	65.828	9.0709e-06	99.82	0.00064953	0.00064814	0.00018144	1358.6	7.0979e-06	7.0746e-06	1706.3	466.33	7.0423e-06	7.1306e-06	612.2	206.96	153.79	65.199	7.0915e-06	98.288	221.952	-41.995	1.580	-87.049	70.698	45.616	-87.572	-82.602	-4.704	84.776	-83.798	-78.459	-76.835	-70.942	57.369	-72.904	-8191	255	
796.460	1	1	0	0	0.088154	0.19138	0.25304	0.27564	0.12261	0.16154	0.35981	0.41705	0.2825	0.23356	0.2123	0.25283	0.12205	0.16974	0.28294	0.096456	-1.4396	-0.8375	-1.5938	-1.725	-0.95208	-1.6896	-1.3958	-1.3729	-1.8125	-0.88958	-1.7396	-1.575	-0.87708	-1.7708	-1.3708	-1.2437	18.800	70.221	188.494	205.700	93.329	36.864	143.264	199.961	252.662	198.322	108.551	233.055	232.951	-71.214	91.462	227.134	0.00036381	0.00099146	0.00016593	1391.3	5.4524e-06	7.1845e-06	1752.1	473.12	4.8733e-07	5.9428e-06	622.32	207.84	154.44	65.163	4.0634e-06	99.52	0.00063282	0.00064385	0.00017745	1361.8	6.9024e-06	6.8813e-06	1710.5	466.14	6.866e-06	6.9856e-06	612.29	206.87	153.62	64.9	6.9035e-06	98.084	239.424	18.454	-10.665	-87.046	87.827	74.075	-87.485	-82.453	149.527	64.511	-83.702	-78.613	-76.676	-70.534	68.108	-72.899	-8191	255	
796.556	1	1	0	0	0.24032	0.18974	0.18294	0.21472	0.25778	0.23088	0.4897	0.29909	0.20707	0.13738	0.29108	0.37438	0.012393	0.30317	0.24462	0.23896	-1.5708	-0.92917	-1.4625	-1.9	-1.0167	-1.6604	-1.2938	-1.3333	-1.9813	-0.84583	-1.6396	-1.9042	-0.88333	-1.8896	-1.2146	-1.2542	-22.980	-82.643	113.962	-94.248	76.371	217.173	163.946	148.956	-92.257	232.481	-85.123	200.613	20.561	-72.479	181.003	226.883	0.00038151	0.00084926	0.0002494	1394.7	6.935e-06	9.3845e-06	1735	470.7	2.8341e-06	1.1647e-05	620.73	205.22	151.54	64.464	4.1661e-06	97.038	0.00063022	0.00063803	0.00017677	1361.5	6.8262e-06	6.8905e-06	1702.4	463.65	6.667e-06	6.6531e-06	605.32	203.44	151.23	63.719	6.5987e-06	95.433	238.110	-30.609	-24.114	-86.994	70.562	63.440	-87.725	-82.799	27.989	48.354	-83.856	-78.444	-76.822	-70.817	72.538	-72.944	-8191	255	
796.652	1	1	0	0	0.21203	0.37241	0.047919	0.16709	0.52236	0.2074	0.30301	0.23964	0.12425	0.16776	0.16154	0.15476	0.28389	0.032539	0.14739	0.21666	-1.55	-0.98125	-1.2146	-1.9396	-0.89583	-1.8854	-1.7833	-1.2646	-1.7833	-1.0146	-1.3937	-2.075	-0.96042	-1.6958	-1.6688	-1.0875	83.992	145.511	112.491	-89.571	100.670	54.656	139.722	184.436	20.855	216.508	-28.407	-54.876	-99.863	135.000	105.232	198.244	0.0002927	0.0010584	0.00021751	1391.5	4.4012e-06	3.4164e-06	1736	467.14	4.0271e-06	9.2379e-06	617.01	203.86	151.82	64.425	4.1694e-06	98.254	0.00060528	0.00060222	0.00016737	1356	6.6251e-06	6.5277e-06	1692.8	460.42	6.4853e-06	6.5604e-06	603.69	202.57	151.04	63.942	6.5836e-06	96.349	231.243	-9.111	4.202	-86.981	108.981	3.898	-87.706	-82.707	107.010	53.930	-83.898	-78.593	-77.055	-70.706	96.803	-72.749	-8191	255	
796.748	1	1	0	0	0.066108	0.12601	0.015634	0.097027	0.1122	0.12156	0.18671	0.42061	0.19258	0.24807	0.081835	0.14822	0.21904	0.19715	0.24163	0.19397	-1.5583	-1.2208	-1.1771	-1.9937	-1.1083	-1.4271	-2.0042	-1	-1.7667	-1.1542	-1.2229	-2.0625	-0.9625	-1.7062	-1.6625	-1.1646	-85.259	157.121	-85.331	-63.282	151.385	-39.234	192.225	259.008	211.016	192.052	164.422	195.981	166.491	-98.446	228.634	156.360	0.00033877	0.00092249	0.00012079	1386.3	8.0355e-06	8.4041e-06	1731.9	470.61	3.9817e-06	8.1382e-06	617.41	204.52	152.57	65.103	8.8115e-06	98.273	0.00061086	0.0006057	0.00016852	1351.9	6.7786e-06	6.7095e-06	1692.3	461.72	6.674e-06	6.7042e-06	603.44	203.78	152.02	64.559	6.7392e-06	97.209	225.663	8.028	17.679	-87.157	41.622	55.447	-87.671	-82.692	31.997	67.911	-83.852	-78.673	-77.106	-70.638	96.035	-72.726	-8191	255	
796.869	1	1	0	0	0.083183	0.27615	0.12399	0.18767	0.3009	0.19574	0.18776	0.22448	0.14451	0.32413	0.087571	0.43884	0.20581	0.31936	0.12493	0.092168	-1.2417	-1.2646	-1.0146	-2.05	-1.05	-1.4021	-1.9083	-1.025	-1.6958	-1.375	-1.0917	-1.95	-1.2313	-1.4083	-1.7458	-1.2208	117.726	189.804	67.595	200.584	-23.912	216.310	182.885	235.745	24.320	99.211	150.497	131.014	-16.958	231.940	215.744	38.349	0.00035409	0.00078442	0.0001784	1382.8	4.6489e-06	1.0738e-05	1725.6	467	7.0736e-06	1.2104e-05	616.53	206.38	152.35	65.73	4.3476e-06	99.517	0.00062046	0.00062352	0.00017425	1349.7	6.8233e-06	6.6993e-06	1684.6	460.19	6.8085e-06	6.7388e-06	604.27	205.19	152.35	65.182	6.6435e-06	98.134	236.571	-34.726	1.904	-87.049	19.090	58.559	-87.786	-82.610	-9.009	67.880	-83.703	-78.462	-76.933	-70.815	76.906	-72.838	-8191	255	
796.965	1	1	0	0	0.22299	0.019903	0.14285	0.18621	0.10028	0.14431	0.31829	0.28875	0.19221	0.22197	0.20164	0.10139	0.26157	0.039519	0.35635	0.2311	-1.3104	-1.4479	-0.81875	-1.9896	-0.87917	-1.2583	-2.2479	-1.175	-1.6271	-1.4813	-1.0438	-2.0354	-1.2625	-1.2729	-1.8625	-1.0167	58.030	170.156	38.010	257.506	219.449	130.458	178.385	201.200	101.448	-38.151	218.078	195.275	231.780	221.558	-90.172	204.520	0.00036435	0.00044703	0.00019453	1381.8	6.1701e-06	4.1463e-06	1731.7	467.81	4.8764e-06	7.8534e-06	619.44	207.21	153.43	65.469	5.6216e-06	99.066	0.00061716	0.00060703	0.00017043	1349.4	6.8145e-06	6.7401e-06	1690.5	461.31	6.7458e-06	6.6805e-06	605.73	205.55	152.87	64.99	6.6569e-06	97.837	229.100	-58.636	-5.598	-87.044	89.264	-17.049	-87.590	-82.631	161.366	99.778	-83.625	-78.662	-76.749	-70.735	71.794	-72.937	-8191	255	
797.061	1	1	0	0	0.24098	0.043582	0.068275	0.19276	0.099965	0.22117	0.19047	0.10971	0.12092	0.18661	0.16926	0.23106	0.60082	0.29927	0.16239	0.17486	-1.0896	-1.6417	-0.62292	-1.7563	-1.2042	-1.0271	-1.8438	-1.2646	-1.6167	-1.5604	-1.0354	-1.8312	-1.4375	-1.2375	-1.9	-1.1771	114.534	-40.337	-61.488	194.217	32.503	50.335	208.661	190.812	-16.317	-82.042	225.690	169.068	-85.094	235.302	-69.049	-96.524	0.00033722	0.0010926	0.00022472	1383.3	4.6717e-06	4.9646e-06	1724.5	469.3	3.4259e-06	7.045e-06	613.74	204.5	151.4	64.711	1.8278e-06	96.878	0.00061221	0.00060731	0.00017081	1350.6	6.6103e-06	6.6427e-06	1682.6	461.44	6.6732e-06	6.6491e-06	601.2	202.59	151.15	63.983	6.4611e-06	95.341	231.264	-31.226	-22.557	-87.111	-8.873	41.066	-87.614	-82.724	80.602	73.753	-83.783	-78.627	-76.914	-70.751	57.965	-73.009	-8191	255	
797.157	1	1	0	0	0.11037	0.17047	0.13606	0.31786	0.09615	0.11107	0.20838	0.16183	0.37395	0.16691	0.18746	0.33472	0.13286	0.097494	0.095262	0.20618	-0.85208	-1.7875	-0.65417	-1.8875	-1.4667	-0.83333	-2.1688	-1.3146	-1.2563	-1.8667	-0.92292	-1.7729	-1.6104	-0.98333	-1.8396	-1.5208	60.793	154.564	46.583	-78.496	38.423	13.865	219.182	-98.788	-88.869	235.734	257.372	244.646	195.796	-73.560	-1.549	257.595	0.00031313	0.00080506	0.0001782	1381.1	6.953e-06	7.1082e-06	1723.8	466.8	3.4172e-06	1.1229e-05	612.06	202.45	150.95	64.418	3.0713e-06	97.591	0.00058878	0.00058441	0.00016197	1347.8	6.3552e-06	6.3833e-06	1682.3	458.68	6.4042e-06	6.3386e-06	598.25	201.31	150.67	63.826	6.5207e-06	95.953	233.547	-20.740	44.125	-86.948	32.189	25.485	-87.771	-82.796	-22.813	58.444	-83.601	-78.575	-76.991	-70.692	111.804	-72.742	-8191	255	
797.252	1	1	0	0	0.21466	0.123	0.15403	0.20688	0.15698	0.33805	0.37716	0.30984	0.085465	0.092224	0.13471	0.33313	0.21265	0.1738	0.20125	0.38332	-0.71042	-1.775	-0.90208	-1.8104	-1.5646	-0.76667	-2.0042	-1.0521	-1.0792	-1.9062	-1.0479	-1.6292	-1.6313	-1.1313	-1.7604	-1.7292	99.806	95.288	86.218	253.705	-67.569	229.327	188.547	179.546	10.264	29.108	147.254	214.099	-92.465	185.440	245.601	226.523	0.0003089	0.00052014	0.00012468	1377.8	2.5023e-06	9.3747e-06	1714.6	466.92	2.0641e-06	9.9764e-06	610.89	205.29	151.56	65.291	2.8147e-06	98.671	0.00059556	0.00059692	0.00016649	1346.4	6.5798e-06	6.591e-06	1676.9	459.24	6.6311e-06	6.5818e-06	598.55	203.1	151.72	64.819	6.6443e-06	97.274	234.517	-6.664	-4.614	-87.110	58.400	60.769	-87.600	-82.887	233.116	71.623	-83.820	-78.379	-76.978	-70.857	37.216	-73.077	-8191	255	
797.349	1	1	0	0	0.17112	0.1912	0.10943	0.15514	0.032293	0.14522	0.31436	0.18171	0.35479	0.1117	0.41919	0.059728	0.12892	0.27289	0.32352	0.2428	-0.61458	-1.75	-0.89583	-1.6458	-1.6521	-0.975	-1.9604	-1.5625	-0.85625	-1.85	-1.1792	-1.5583	-1.9146	-1.1083	-1.6979	-1.6125	-98.234	-93.683	241.111	194.465	165.559	67.659	237.960	-84.115	5.247	257.462	-84.507	-93.326	136.102	197.931	59.927	216.458	0.00028118	0.00050677	0.00015938	1375.1	4.0163e-07	9.0086e-06	1708.8	466.48	1.5548e-06	9.7779e-06	613.97	205.46	152.69	66.079	9.0247e-06	100.41	0.00060433	0.00060499	0.00017111	1340.8	6.5829e-06	6.7342e-06	1672	459.32	6.7803e-06	6.7101e-06	600.18	204.74	152.66	65.452	6.8383e-06	98.723	225.142	9.444	-8.814	-86.988	-94.117	32.482	-87.594	-82.731	-58.191	78.955	-83.923	-78.527	-76.839	-70.836	56.989	-72.907	-8191	255	
797.468	1	1	0	0	0.20008	0.23407	0.039092	0.12042	0.36033	0.12108	0.27575	0.16265	0.20575	0.25988	0.17458	0.22577	0.26988	0.18775	0.015214	0.099493	-0.4625	-1.6479	-0.98333	-1.375	-1.7979	-0.91875	-1.7938	-1.6375	-1.0125	-1.7792	-1.225	-1.2104	-1.9583	-1.0958	-1.4188	-1.7375	193.081	145.812	93.679	222.218	16.100	-67.392	169.618	125.958	11.017	49.688	203.086	-50.530	-99.689	-71.152	-96.325	18.363	0.00036352	0.00064032	0.00034005	1379.4	8.1347e-06	6.2049e-06	1718.5	466.81	3.0353e-06	5.5184e-06	614	205.35	153.8	65.736	4.3162e-06	98.877	0.00062141	0.00061887	0.00017439	1344.7	6.6667e-06	6.7967e-06	1679	460.33	6.7754e-06	6.6419e-06	600.66	204.15	152.98	65.226	6.7132e-06	97.524	227.033	-3.726	-10.941	-87.028	70.432	47.360	-87.519	-82.553	27.233	-46.310	-84.027	-78.511	-76.723	-70.760	69.762	-72.968	-8191	255	
797.564	1	1	0	0	0.13002	0.25786	0.2755	0.080577	0.20758	0.049487	0.43739	0.2042	0.18036	0.38337	0.18855	0.13857	0.16265	0.29483	0.19252	0.26377	-0.46458	-1.8	-1.2208	-1.2583	-1.9208	-1.0146	-1.6812	-1.7646	-0.97083	-1.8229	-1.5458	-1.1854	-1.9146	-1.1479	-1.3646	-2.0021	186.309	180.192	19.756	249.300	250.905	239.504	193.480	248.124	89.818	198.770	209.519	254.713	-51.903	-75.536	-4.831	163.401	0.00037074	0.00078231	0.0001288	1371.6	5.0489e-06	9.9959e-06	1711.5	466.06	2.5803e-06	6.8145e-06	608.17	202.24	151.02	64.62	5.8987e-06	96.495	0.00060718	0.00060794	0.00016735	1342	6.4503e-06	6.5633e-06	1669.3	457.81	6.3976e-06	6.4338e-06	595.01	201.44	150.87	64.145	6.3722e-06	95.296	231.166	-38.844	-28.838	-87.080	26.039	66.984	-87.610	-82.718	62.883	51.834	-83.894	-78.591	-76.746	-70.834	28.683	-72.804	-8191	255	
797.661	1	1	0	0	0.2528	0.048857	0.16211	0.32791	0.16833	0.19804	0.15326	0.2986	0.34521	0.20541	0.11215	0.10024	0.17617	0.16633	0.28754	0.17101	-0.37708	-1.6688	-1.5063	-1.2917	-1.8	-1.0063	-1.4937	-2.0187	-0.86042	-1.7083	-1.5812	-0.90208	-1.925	-1.2708	-1.2396	-2.1292	4.845	15.435	47.225	241.681	120.873	135.788	192.771	231.878	207.414	-3.786	253.067	84.166	169.687	196.173	190.785	222.110	0.00033745	0.00065828	0.00012923	1373	5.3574e-06	1.0297e-05	1702.4	462.2	2.2646e-06	6.1481e-06	606.67	200.37	149.7	64.318	8.4452e-06	96.548	0.00056542	0.00055644	0.0001536	1337.8	5.9954e-06	6.1263e-06	1664.1	453.91	6.0067e-06	6.0542e-06	590.75	199.33	149.48	63.619	6.0795e-06	94.816	224.576	-37.571	62.307	-87.128	38.932	52.001	-87.540	-82.683	30.203	72.644	-83.864	-78.682	-76.802	-70.684	60.582	-73.055	-8191	255	
797.757	1	1	0	0	0.17666	0.060788	0.26445	0.36219	0.12434	0.061318	0.3894	0.20375	0.12019	0.2996	0.095981	0.11354	0.25938	0.21215	0.35974	0.29013	-0.47083	-1.5729	-1.4937	-1.0187	-1.7729	-1.2125	-1.3542	-2.0938	-0.91458	-1.7771	-1.8604	-1.1104	-2.0646	-1.5854	-0.81667	-2.1333	-87.723	188.380	98.445	250.741	18.668	235.444	149.912	155.153	242.544	-75.616	34.812	231.555	254.328	184.209	-62.476	216.610	0.00031958	0.00084256	0.00021744	1369.8	6.5909e-06	9.5806e-06	1702.9	462.58	4.5588e-06	3.0858e-06	607.96	203.19	151.38	65.024	5.179e-06	98.156	0.00056179	0.00055091	0.00015256	1337.7	6.0564e-06	6.1009e-06	1664.1	454.96	6.0384e-06	6.0625e-06	593.44	201.27	151.01	64.408	6.1679e-06	96.481	227.791	20.972	0.441	-87.053	58.772	78.682	-87.389	-82.847	28.866	45.794	-83.778	-78.501	-76.509	-70.580	44.418	-72.911	-8191	255	
797.853	1	1	0	0	0.27507	0.22289	0.10303	0.308	0.13863	0.11985	0.21716	0.13207	0.26452	0.14597	0.069049	0.19857	0.057428	0.15876	0.11656	0.2666	-0.60208	-1.4146	-1.7313	-1.1896	-1.75	-1.4062	-1.3896	-2.1083	-1.0771	-1.4917	-1.8917	-1.0542	-1.8521	-1.65	-0.93958	-2.2271	110.396	194.806	242.021	244.000	208.933	230.311	200.393	189.677	22.908	164.432	232.922	218.331	204.018	-68.534	-42.523	238.618	0.00030068	0.00083758	0.00019626	1369.3	7.8997e-06	4.8443e-06	1705.2	462.17	1.4931e-06	6.0318e-06	608.67	203.33	152	65.458	4.0885e-06	98.869	0.00057366	0.00056384	0.00015694	1336.1	6.1693e-06	6.1082e-06	1663.6	455.96	6.164e-06	6.1021e-06	594.81	202.2	151.38	64.8	6.146e-06	97.349	230.905	-9.775	-38.924	-86.891	62.726	25.374	-87.493	-82.716	14.429	37.134	-83.891	-78.418	-76.823	-70.789	85.673	-72.697	-8191	255	
797.949	1	1	0	0	0.15592	0.23904	0.20822	0.31741	0.26962	0.095915	0.2554	0.13123	0.21949	0.062873	0.15258	0.055336	0.23742	0.12836	0.057086	0.10473	-0.62292	-1.0333	-1.7917	-1.1896	-1.5792	-1.3896	-1.3167	-2.0687	-1.0854	-1.1708	-1.9792	-1.1812	-1.6729	-1.6271	-0.78125	-2.1063	-87.217	31.397	64.641	158.855	86.890	145.764	161.044	-13.015	-6.165	-35.923	-77.741	-100.265	205.135	130.504	58.159	174.633	0.00029705	0.00089908	0.00012051	1366.1	2.4878e-06	9.7185e-06	1700.3	463.55	3.5948e-06	9.5384e-06	610.25	203.02	152.04	65.379	5.6587e-06	98.134	0.00057344	0.00055341	0.00015488	1336.8	6.0431e-06	6.0212e-06	1661.4	456.44	6.165e-06	6.173e-06	593.48	201.46	151.18	64.688	5.9975e-06	96.502	223.625	-5.515	21.553	-87.005	62.214	75.620	-87.622	-82.564	79.500	50.047	-83.837	-78.547	-76.608	-70.527	36.673	-72.886	-8191	255	
798.045	1	1	0	0	0.2494	0.12017	0.046253	0.092719	0.14472	0.056165	0.013464	0.26995	0.19482	0.26897	0.14378	0.10725	0.27845	0.25894	0.17794	0.24677	-0.89167	-1.0396	-1.7625	-1.1667	-1.3354	-1.6646	-1.1646	-1.9146	-1.2979	-1.2729	-1.9312	-1.2979	-1.4354	-2.0542	-0.89792	-1.8188	134.657	-43.406	237.931	-83.525	-36.641	227.024	256.676	191.642	93.370	139.878	228.804	231.809	108.919	229.283	19.320	-92.100	0.00030566	0.00077682	0.00020562	1359	3.9956e-06	7.6952e-06	1695	459.98	3.7288e-06	4.8032e-06	601.6	200.59	150.53	64.647	3.0263e-06	96.843	0.00055573	0.00053623	0.00015028	1329.7	5.9467e-06	5.8418e-06	1651.6	452.98	5.85e-06	5.8163e-06	586.05	198.98	149.73	63.984	5.725e-06	95.207	229.431	-53.249	25.716	-87.078	76.383	59.125	-87.618	-82.530	46.030	44.364	-83.654	-78.651	-76.768	-70.763	45.178	-73.006	-8191	255	
798.164	1	1	0	0	0.16174	0.10624	0.12775	0.28369	0.13465	0.10617	0.29373	0.39795	0.14903	0.12043	0.27645	0.25163	0.18433	0.050114	0.18645	0.30485	-1.1667	-0.89583	-1.6812	-1.3687	-1.1396	-1.8396	-1.2125	-1.8333	-1.3958	-1.1958	-1.825	-1.3625	-1.3479	-1.9625	-0.875	-1.7812	142.239	-69.624	216.400	177.643	257.482	242.061	143.574	235.539	161.868	22.741	226.393	47.058	147.071	238.590	18.188	183.079	0.00032978	0.00089552	0.0002547	1359	8.5392e-06	9.4776e-06	1688.8	456.53	6.7247e-06	9.6295e-06	595.6	198.73	149.44	64.071	4.692e-06	95.637	0.00053329	0.00051758	0.00014321	1326.1	5.6977e-06	5.5564e-06	1646.3	448.95	5.6065e-06	5.509e-06	582.45	197.43	148.63	63.234	5.4712e-06	94.011	226.985	0.788	-27.939	-87.089	21.866	72.572	-87.561	-82.500	19.455	29.811	-83.785	-78.528	-76.670	-70.699	114.302	-72.766	-8191	255	
798.260	1	1	0	0	0.13695	0.088017	0.046588	0.48095	0.10891	0.10181	0.22265	0.28832	0.24735	0.26674	0.21895	0.12605	0.1327	0.21705	0.23891	0.16748	-1.1604	-0.7125	-1.8333	-1.025	-1.2854	-2.1292	-1.0146	-1.6562	-1.6437	-0.82708	-1.8438	-1.3104	-1.2229	-1.8729	-0.98125	-1.6187	-99.989	-30.373	-40.190	184.354	52.474	85.990	183.800	225.698	-27.369	-57.913	217.623	-49.843	48.207	-74.399	158.768	229.608	0.00025736	0.00060732	6.6236e-05	1356.4	1.7073e-06	2.9664e-06	1688.5	457.25	6.3564e-06	6.0714e-06	599.18	200.82	149.89	64.785	4.8923e-06	97.613	0.00050887	0.00050582	0.00013838	1325.1	5.4966e-06	5.4854e-06	1649.7	449.17	5.5954e-06	5.5576e-06	584.38	198.74	149.24	64.074	5.7278e-06	95.894	230.306	-38.273	10.371	-87.102	30.732	56.109	-87.721	-82.360	79.563	75.814	-83.704	-78.427	-76.706	-70.553	59.558	-72.683	-8191	255	
798.334	1	1	0	0	0.20322	0.11592	0.093023	0.27641	0.24471	0.15526	0.051187	0.26032	0.24121	0.075701	0.19507	0.21645	0.29346	0.34614	0.16489	0.29804	-1.4354	-0.88125	-1.7167	-1.3667	-0.94583	-1.9146	-1.3396	-1.4479	-1.7062	-0.87083	-1.7458	-1.7396	-1.1375	-2.1312	-1.0458	-1.4771	-48.311	-54.095	-63.930	-46.229	43.211	37.162	108.385	106.437	-63.505	238.887	225.237	160.504	201.670	231.151	-87.707	206.200	0.00030582	0.00080217	0.00012086	1360.8	4.9222e-06	6.9625e-06	1692.3	459.95	3.2173e-06	6.2303e-06	603.14	202.29	151.67	65.798	5.3241e-06	99.095	0.00052561	0.00052241	0.00014564	1327.7	5.7783e-06	5.7533e-06	1651.3	451.94	5.8289e-06	5.8344e-06	589.55	200.98	150.94	64.996	5.9204e-06	97.387	221.692	17.407	11.081	-87.161	16.444	76.872	-87.850	-82.607	43.498	80.671	-83.756	-78.555	-76.720	-70.705	10.862	-72.884	-8191	255	
798.430	1	1	0	0	0.23823	0.10977	0.34001	0.21249	0.11096	0.081888	0.15067	0.16291	0.13739	0.1573	0.2658	0.2559	0.197	0.0688	0.17265	0.076863	-1.6063	-0.95417	-1.65	-1.55	-1.0938	-2.0062	-1.5604	-1.5896	-1.8729	-1.0458	-1.8521	-1.7875	-1.1021	-2.0062	-1.325	-1.3479	56.296	-56.589	-12.555	252.835	-52.895	203.018	175.816	198.001	-15.332	171.267	197.485	-88.073	-99.122	178.394	38.721	232.657	0.00026749	0.00064108	0.00025631	1364.5	2.7938e-06	2.846e-06	1685.9	459.68	3.9865e-06	6.5916e-06	602.25	202.83	152.06	65.949	6.588e-06	98.287	0.0005458	0.00054027	0.00015021	1329.8	5.9467e-06	5.9507e-06	1648.4	453	5.9313e-06	6.057e-06	588.84	201.21	151.42	65.27	6.0161e-06	96.658	223.659	-7.474	-5.927	-87.111	59.564	144.497	-87.570	-82.347	81.563	44.799	-83.840	-78.520	-76.602	-70.650	84.131	-72.911	-8191	255	
798.549	1	1	0	0	0.16663	0.23005	0.007319	0.2811	0.2951	0.12707	0.15951	0.21197	0.25981	0.1493	0.28572	0.12569	0.062301	0.10848	0.086579	0.1647	-1.4104	-0.97083	-1.5146	-1.8438	-0.92083	-1.7729	-1.5896	-1.4167	-1.9771	-1.1313	-1.6667	-1.9896	-1.1479	-2.1188	-1.3625	-1.2646	129.041	-86.382	79.182	226.393	-52.088	223.547	246.244	-28.175	188.220	-78.493	234.419	-99.646	234.560	-48.079	170.738	188.972	0.00030931	0.00057666	0.00020208	1360.5	5.8484e-06	6.6498e-06	1690.6	461.15	1.9862e-06	7.7881e-06	601.78	201.92	151.31	65.455	8.5739e-06	96.904	0.00055279	0.00055496	0.0001538	1326.9	6.0371e-06	5.9418e-06	1646.3	453.22	5.872e-06	5.8591e-06	586.68	199.61	150.6	64.656	5.8389e-06	95.517	226.533	-12.108	24.951	-86.978	41.250	49.235	-87.859	-82.644	1.931	83.315	-83.634	-78.670	-76.544	-70.740	77.526	-72.820	-8191	255	
798.645	1	1	0	0	0.21155	0.15773	0.13902	0.19496	0.16163	0.034564	0.11855	0.36116	0.24967	0.10425	0.02167	0.43511	0.11187	0.17922	0.22114	0.16442	-1.6125	-1.2292	-1.3958	-2.0604	-1.1229	-2.05	-1.5625	-1.3896	-1.9021	-1.1458	-1.4125	-2.0875	-1.0208	-1.8271	-1.7604	-1.2167	253.672	228.375	214.954	213.952	206.775	86.028	209.538	-88.405	-20.800	217.119	166.062	-55.877	88.338	247.991	33.451	-28.767	0.00031914	0.0006011	0.00017877	1364	2.6626e-06	6.0222e-06	1684.9	459.34	4.424e-06	9.6351e-06	598.73	199.3	149.47	64.321	7.5286e-06	95.183	0.00053068	0.00052801	0.00014708	1329.4	5.677e-06	5.7822e-06	1644.3	451.81	5.5745e-06	5.7053e-06	583.72	197.73	148.68	63.548	5.3666e-06	93.817	235.066	0.978	-13.325	-87.082	-0.498	58.288	-87.941	-82.470	15.065	67.180	-83.812	-78.691	-76.531	-70.662	53.762	-72.902	-8191	255	
798.741	1	1	0	0	0.034332	0.12468	0.12286	0.15287	0.13599	0.13469	0.12702	0.13374	0.11771	0.31288	0.153	0.23753	0.1601	0.094286	0.046317	0.26896	-1.3917	-1.1354	-1.2521	-2.225	-0.9625	-1.7542	-1.7729	-1.15	-1.8521	-1.4042	-1.2062	-1.8937	-1.3271	-1.6396	-1.7292	-1.2062	150.558	141.875	-9.174	246.816	-35.879	7.224	157.260	-43.475	50.432	138.009	-77.055	-74.360	243.713	137.067	101.738	179.166	0.00027442	0.00089281	0.00025981	1364.7	7.356e-06	1.579e-05	1690.4	455.08	2.8186e-06	5.1898e-06	595.46	199.88	148.83	64.19	4.2963e-06	96.218	0.00049391	0.000479	0.00013182	1326.8	5.23e-06	5.0902e-06	1646.3	446.59	5.1716e-06	5.1982e-06	579.25	197.05	147.86	63.285	5.1019e-06	94.45	228.647	-18.670	-21.166	-86.981	36.702	40.853	-87.903	-82.436	-16.281	99.935	-83.895	-78.469	-76.651	-70.583	84.517	-72.796	-8191	255	
798.862	1	1	0	0	0.29791	0.15864	0.21701	0.38532	0.10771	0.054904	0.12361	0.36489	0.094701	0.087822	0.13508	0.17988	0.33503	0.10243	0.074009	0.32728	-1.5667	-1.1854	-1.1583	-2.2625	-1.0729	-1.4688	-2.0187	-1.1792	-1.8208	-1.3729	-1.1104	-1.9167	-1.1458	-1.5667	-1.7	-0.99167	175.479	-31.955	108.961	249.061	104.762	-77.670	204.977	246.665	-63.218	214.555	112.245	187.654	-71.465	103.715	150.212	181.888	0.00031247	0.00083336	0.00027577	1356.9	5.7623e-06	6.5491e-06	1686.9	457.77	2.4303e-06	6.1625e-06	598.79	201.61	151.51	65.61	5.4047e-06	98.31	0.0004833	0.00048094	0.00013176	1322.7	5.3021e-06	5.1791e-06	1642	448.63	5.3662e-06	5.3433e-06	584.96	199.92	150.61	64.853	5.5185e-06	96.742	231.588	-35.867	-18.253	-87.174	81.897	30.218	-87.694	-82.624	16.972	55.257	-83.830	-78.454	-76.592	-70.913	63.425	-72.769	-8191	255	
798.958	1	1	0	0	0.055406	0.096466	0.21892	0.11755	0.056341	0.050961	0.23013	0.15504	0.12838	0.091048	0.24266	0.093402	0.2106	0.098452	0.14954	0.15018	-1.3271	-1.5292	-1.0729	-2.0729	-1.1292	-1.1625	-2.1958	-1.0146	-1.8125	-1.6187	-1.2042	-2.0042	-1.2292	-1.375	-1.9688	-1.1479	-90.785	-15.900	163.774	223.112	218.638	127.937	147.923	33.549	177.784	61.046	9.823	211.379	257.362	215.906	-4.772	196.566	0.00030531	0.00055809	0.00019984	1362.9	1.8872e-06	6.5335e-06	1675.9	459.19	4.1209e-06	6.5024e-06	596.77	201.49	151.27	65.736	3.4484e-06	97.902	0.00051582	0.00050788	0.00014179	1326.3	5.5908e-06	5.5652e-06	1638.5	451.49	5.5737e-06	5.5367e-06	583.41	199.63	150.65	65.098	5.6454e-06	96.343	223.940	-30.733	16.876	-86.832	56.609	72.406	-87.630	-82.470	39.803	57.547	-83.527	-78.474	-76.702	-70.552	59.413	-72.911	-8191	255	
799.029	1	1	0	0	0.20075	0.19273	0.24567	0.039674	0.19705	0.22025	0.15495	0.27047	0.055606	0.1565	0.15279	0.30444	0.19832	0.47556	0.2196	0.28737	-1.4062	-1.7583	-0.87292	-1.9521	-1.3396	-1.4229	-2.1271	-1.0354	-1.375	-1.6958	-1.0375	-2.0896	-1.4542	-1.2833	-1.9229	-1.3458	-72.274	-90.128	129.790	257.439	111.262	205.161	191.191	229.217	29.613	-98.805	213.680	244.963	-69.197	-31.197	-75.343	137.460	0.00034768	0.0011197	8.5019e-05	1356.2	7.1015e-06	6.3103e-06	1663.9	459.93	4.9157e-06	4.4752e-06	598.51	202.26	152.32	66.086	7.024e-06	98.13	0.00052685	0.00051382	0.00014553	1323.5	5.7536e-06	5.7739e-06	1630.2	451.68	5.7797e-06	5.7826e-06	583.28	199.62	151.3	65.32	5.7041e-06	96.412	223.789	-8.195	7.830	-86.948	36.501	39.106	-87.716	-82.591	66.846	39.321	-83.873	-78.477	-76.749	-70.712	81.238	-72.865	-8191	255	
799.150	1	1	0	0	0.23243	0.19818	0.22895	0.24425	0.29275	0.27399	0.10866	0.26928	0.13227	0.15595	0.27873	0.1228	0.074827	0.28831	0.1096	0.3212	-1.125	-1.8375	-0.90625	-1.925	-1.4208	-1.2771	-2.0875	-1.4333	-1.3667	-1.7521	-1.0021	-1.7667	-1.6521	-1.3604	-1.7896	-1.475	-55.851	134.609	95.077	212.708	233.556	209.470	-26.813	162.378	19.389	250.392	251.977	216.008	115.151	200.942	124.135	227.443	0.00026084	0.00074363	0.00013573	1355.1	4.5091e-06	2.7176e-06	1673.7	458.48	3.5575e-06	7.7503e-06	596.67	201.45	152.69	66.051	4.1809e-06	98.214	0.00053574	0.00053185	0.00014771	1320.8	5.7549e-06	5.7146e-06	1629.1	450.57	5.7641e-06	5.7108e-06	582.29	199.67	151.3	65.234	5.7027e-06	96.63	227.806	-50.334	53.945	-86.812	38.427	5.021	-87.639	-82.478	40.260	62.082	-83.606	-78.372	-76.867	-70.464	21.892	-72.855	-8191	255	
799.244	1	1	0	0	0.25973	0.28309	0.15197	0.085125	0.174	0.36371	0.2641	0.20754	0.12163	0.11783	0.21719	0.17241	0.21608	0.21323	0.032768	0.35799	-1.0063	-1.5208	-0.98125	-2.0229	-1.6604	-1.0875	-2.0708	-1.4917	-1.1979	-1.9729	-1.1562	-1.7708	-2.0021	-1.1604	-2.0333	-1.4854	-30.899	-3.609	186.742	42.973	88.779	227.134	72.181	233.018	236.822	-80.980	168.890	209.873	184.946	159.855	133.691	248.005	0.00032484	0.00082484	0.00015064	1354.7	7.4253e-06	3.6693e-06	1680.8	458.2	5.4918e-06	2.3691e-06	595.26	200.94	151.37	65.673	5.9822e-06	98.065	0.0005335	0.00052216	0.00014701	1324.1	5.6451e-06	5.7312e-06	1637.1	450.45	5.6123e-06	5.5846e-06	583.34	199.07	150.51	64.952	5.6222e-06	96.445	222.426	-26.275	-21.561	-86.847	80.709	66.699	-87.635	-82.595	23.918	58.652	-83.785	-78.450	-76.452	-70.514	25.115	-72.843	-8191	255	
799.341	1	1	0	0	0.042034	0.21236	0.20781	0.4462	0.14482	0.06393	0.1967	0.20432	0.13665	0.14862	0.22536	0.18493	0.17538	0.17322	0.012435	0.11291	-1.0354	-1.7792	-1.025	-1.6542	-1.7854	-0.94167	-2.1833	-1.4958	-1.2062	-1.85	-1.3396	-1.6333	-2.0083	-1.1958	-1.8146	-1.7979	170.065	98.351	15.383	189.865	-84.369	-65.234	104.530	43.611	-17.068	133.632	200.304	243.731	-52.496	172.321	218.469	151.505	0.000325	0.00071168	0.00016756	1361.4	5.8036e-06	4.1797e-06	1679.9	459.72	4.699e-06	3.0342e-06	603.28	202.93	153.17	66.666	4.7547e-06	99.224	0.00052298	0.00051141	0.00014558	1327.9	5.6576e-06	5.6673e-06	1639.8	452.2	5.809e-06	5.6117e-06	587.24	201.53	152.28	65.906	5.7301e-06	97.82	229.533	14.825	-6.158	-86.961	44.967	0.600	-87.641	-82.574	42.667	160.999	-83.687	-78.650	-76.417	-70.509	96.001	-72.872	-8191	255	
799.461	1	1	0	0	0.10151	0.12687	0.061447	0.34736	0.49639	0.23508	0.15751	0.26657	0.23277	0.12069	0.19548	0.15901	0.14869	0.12631	0.15721	0.23677	-0.75208	-2.0042	-1.2687	-1.5271	-2.0396	-1.0875	-2.1	-1.7896	-1.2625	-2.0187	-1.4375	-1.4125	-2.0438	-1.2875	-1.5833	-2.0479	93.092	138.410	252.635	198.445	34.070	251.830	173.793	247.774	-55.782	-5.643	-69.004	-91.018	210.085	28.240	162.362	244.116	0.00036751	0.00053338	0.00014326	1359	5.5106e-06	7.0734e-06	1674.6	463.79	4.0691e-06	8.3325e-06	599.83	202.57	153.5	66.817	5.7226e-06	99.161	0.00054657	0.00053302	0.00014906	1327.7	5.8555e-06	5.8693e-06	1634.4	454.14	5.9694e-06	5.8397e-06	585.2	200.71	152.38	66.199	5.9628e-06	97.478	231.448	13.195	36.318	-86.906	47.045	61.699	-87.612	-82.564	-13.647	40.171	-83.600	-78.536	-76.860	-70.672	15.372	-72.935	-8191	255	
799.557	1	1	0	0	0.22071	0.25499	0.28406	0.16779	0.22242	0.19349	0.13378	0.33492	0.28759	0.082778	0.10526	0.45291	0.16808	0.12984	0.21044	0.1956	-0.76042	-1.9438	-1.1771	-1.4042	-1.9479	-1.1083	-1.8062	-2.0958	-1.0833	-1.975	-1.5562	-1.1417	-2.1604	-1.1896	-1.5667	-1.9917	250.317	111.004	57.127	228.162	183.873	-31.373	206.561	211.912	-8.580	198.516	-90.404	245.651	250.244	72.600	-28.222	219.209	0.00029924	0.00051857	0.00021737	1356.7	7.932e-06	4.0739e-06	1667.8	461.42	3.2379e-06	1.0456e-05	594.89	201.7	153.72	66.909	4.6486e-06	99.453	0.00055434	0.00053995	0.00015265	1325.8	5.9388e-06	6.0875e-06	1629	454	6.0398e-06	6.0671e-06	582.02	200.75	152.73	66.325	5.9597e-06	97.719	228.090	9.366	-33.513	-86.959	46.746	12.680	-87.456	-82.638	61.295	61.569	-83.885	-78.391	-76.864	-70.553	0.743	-72.886	-8191	255	
799.629	1	1	0	0	0.066619	0.10888	0.087239	0.44915	0.22996	0.071396	0.20588	0.24037	0.17526	0.21459	0.23004	0.32445	0.39006	0.31391	0.24929	0.10853	-0.72917	-1.7542	-1.4792	-1.3438	-2.0542	-1.1042	-1.8062	-2.125	-1.2271	-1.6375	-1.7625	-1.1479	-2.175	-1.3646	-1.4229	-2.1104	-89.821	-3.773	147.558	222.979	-36.512	-10.588	206.517	240.537	116.910	136.624	139.356	230.623	-98.783	237.943	35.127	22.682	0.00030227	0.0010838	0.00028836	1359.7	7.13e-06	6.9842e-06	1668.6	460.43	5.3008e-06	6.9175e-06	597.97	202.74	153.42	66.734	5.9999e-06	99.375	0.00056319	0.00055051	0.00015231	1324.2	5.9282e-06	5.9406e-06	1627.2	452.73	5.9957e-06	5.9946e-06	583.38	200.97	152.69	66.107	5.8728e-06	97.626	234.610	-17.485	3.998	-86.819	73.760	56.391	-87.793	-82.568	47.130	72.300	-83.801	-78.288	-76.500	-70.753	104.835	-72.952	-8191	255	
799.725	1	1	0	0	0.020582	0.1849	0.098659	0.3713	0.2236	0.15228	0.27773	0.18083	0.036567	0.082009	0.15358	0.30647	0.25309	0.29326	0.22492	0.20369	-0.44583	-1.9042	-1.6688	-1.2313	-1.9438	-1.3583	-1.3875	-2.3333	-1.1729	-1.6854	-1.7854	-1.2292	-2.0375	-1.6104	-1.3083	-2.2354	11.217	-30.329	177.675	257.933	254.882	181.164	227.944	138.442	161.329	113.988	211.573	-93.615	160.735	202.702	32.769	-99.620	0.00033566	0.00073895	0.00016374	1359.3	1.0543e-06	9.4493e-06	1673.5	461.93	2.9178e-06	5.1422e-06	594.57	201.8	152.22	65.845	9.4622e-06	98.195	0.00054761	0.00053984	0.00014858	1326.1	5.7429e-06	5.8189e-06	1632	453.31	5.7582e-06	5.7228e-06	582.22	200.2	151.63	65.276	5.6165e-06	96.567	223.205	-10.716	-11.993	-86.872	205.856	38.000	-87.539	-82.585	70.446	52.841	-83.817	-78.598	-76.616	-70.703	58.086	-72.915	-8191	255	
799.821	1	1	0	0	0.10955	0.23462	0.061976	0.30586	0.25861	0.19761	0.4519	0.32901	0.23106	0.077546	0.14232	0.051077	0.12266	0.57862	0.20887	0.15031	-0.78125	-1.4937	-1.7354	-1.1625	-1.7479	-1.5896	-1.3729	-2.1521	-1.2313	-1.4958	-1.9896	-1.0854	-2.0667	-1.6292	-1.0312	-2.025	79.403	8.948	-33.002	237.849	-38.215	-94.390	198.538	-56.731	10.392	-42.686	-97.475	79.831	27.236	232.107	27.892	171.723	0.00029892	0.00070728	0.00031615	1365.2	3.6066e-06	5.0069e-06	1680.6	461.56	1.2898e-06	6.4032e-06	602.07	202.25	152.03	66.015	7.5902e-06	98.788	0.00051801	0.00051203	0.00013988	1331.6	5.5644e-06	5.5082e-06	1639.6	453.42	5.5601e-06	5.5815e-06	585.13	200.32	151.47	65.455	5.6388e-06	96.998	235.321	-0.965	-22.750	-87.121	10.921	28.177	-87.738	-82.317	22.170	71.695	-83.687	-78.503	-76.382	-70.520	87.176	-73.013	-8191	255	
799.942	1	1	0	0	0.20345	0.13152	0.076886	0.17632	0.31564	0.066466	0.16321	0.21031	0.24231	0.12388	0.21432	0.11765	0.13419	0.094667	0.33834	0.2624	-0.76667	-1.4042	-1.8708	-1.2354	-1.8312	-1.7375	-1.3479	-2.1042	-1.1938	-1.2292	-2.0563	-1.1	-1.6812	-1.7437	-0.98333	-2.0583	18.401	159.370	-13.269	220.565	-8.481	27.138	224.084	136.293	156.023	-52.567	204.134	200.207	251.325	136.049	35.811	252.108	0.00029715	0.00090717	0.00028788	1364.7	5.866e-06	7.4931e-06	1675.6	461.84	4.1887e-06	7.9168e-06	597.31	201.64	154.23	66.973	1.047e-06	99.448	0.00052977	0.00052196	0.00014138	1330.1	5.7329e-06	5.7501e-06	1632.4	454.33	5.9009e-06	5.853e-06	584.64	200.39	153.02	66.268	5.9349e-06	97.624	228.582	-7.994	24.776	-86.970	38.875	55.607	-87.910	-82.462	39.225	59.193	-83.573	-78.644	-76.554	-70.498	54.234	-72.888	-8191	255	
800.038	1	1	0	0	0.08958	0.056544	0.16095	0.35878	0.26054	0.28818	0.091449	0.21911	0.24059	0.10926	0.12815	0.15349	0.29286	0.25501	0.048127	0.29066	-0.91458	-1.2563	-2.0042	-1.2104	-1.7042	-1.6604	-1.2083	-1.9458	-1.3021	-0.97708	-2.0583	-1.1562	-1.7083	-1.8792	-0.92917	-2.0625	231.045	230.715	31.892	195.242	-16.189	115.304	183.551	219.164	-42.722	217.978	-91.844	-87.163	-96.876	-71.072	27.655	214.378	0.00035715	0.00077265	0.00023152	1358.7	4.656e-07	7.4014e-06	1663.5	462.76	5.441e-06	6.2925e-06	596.31	202.95	154.4	67.48	5.8839e-06	100.07	0.0005508	0.00054557	0.00015067	1324.6	5.9377e-06	5.9846e-06	1622.7	455.14	6.0547e-06	5.9746e-06	582.86	201.04	153.55	66.937	6.0648e-06	98.486	229.784	13.729	11.311	-87.017	163.551	49.548	-87.792	-82.590	64.791	42.202	-83.903	-78.467	-76.665	-70.717	92.677	-73.086	-8191	255	
800.134	1	1	0	0	0.026404	0.18823	0.069057	0.075375	0.14426	0.044231	0.28711	0.38058	0.054795	0.096422	0.28016	0.26408	0.28355	0.13769	0.093055	0.27815	-1.0833	-1.1375	-1.9167	-1.2812	-1.6083	-1.9458	-1.3417	-1.9979	-1.4229	-1.0479	-1.975	-1.2125	-1.4813	-1.9771	-1.1688	-1.8937	209.249	214.680	248.478	-79.980	-36.355	217.880	176.192	161.092	21.381	-80.034	242.913	191.078	173.225	164.085	85.251	180.637	0.00036537	0.0010571	0.0002542	1356.9	7.8637e-06	1.0083e-05	1659.3	461.44	2.7577e-06	8.2231e-06	599.09	203.73	155.43	68.104	7.8591e-06	101.27	0.00057211	0.00055964	0.00015605	1323.3	6.1265e-06	6.1915e-06	1619.5	454.43	6.129e-06	6.1779e-06	584.55	202.08	154.24	67.492	6.1424e-06	99.436	231.334	-26.101	-12.569	-86.971	59.528	55.567	-87.845	-82.481	1.778	82.841	-83.848	-78.360	-76.542	-70.837	106.307	-72.820	-8191	255	
800.230	1	1	0	0	0.34394	0.14365	0.067759	0.35046	0.091992	0.04144	0.19515	0.3539	0.25581	0.056862	0.22611	0.23675	0.1442	0.059343	0.14356	0.22243	-1.2479	-0.78333	-1.9646	-1.3458	-1.2229	-1.9354	-1.3708	-1.8792	-1.8292	-0.98125	-2.1688	-1.4521	-1.3542	-2	-0.85417	-1.5792	165.464	-17.399	107.590	254.451	18.838	28.981	-100.021	167.861	78.466	11.162	226.603	187.135	117.435	225.706	5.320	113.040	0.00038686	0.00074503	0.00019161	1354.2	2.8223e-06	4.4761e-06	1664.5	461.58	4.4341e-06	4.7572e-06	598.95	204.08	154.79	68.102	4.7198e-06	100.59	0.00056772	0.0005529	0.00015253	1322	6.0126e-06	5.9754e-06	1622.8	454.52	5.917e-06	5.911e-06	585.89	202.47	154.03	67.152	5.9117e-06	98.923	230.408	-41.569	6.912	-87.099	68.358	41.466	-87.804	-82.469	31.947	53.538	-83.571	-78.494	-76.805	-70.847	82.134	-72.746	-8191	255	
800.325	1	1	0	0	0.12939	0.12198	0.22121	0.30558	0.20297	0.056871	0.35392	0.13238	0.30577	0.15743	0.27954	0.21583	0.086805	0.18624	0.20354	0.30463	-1.2917	-0.93125	-1.8542	-1.5792	-1.0646	-2.0354	-1.3813	-1.5375	-1.6313	-0.95417	-1.975	-1.675	-1.2708	-1.8708	-1.1812	-1.35	214.365	57.271	137.869	201.830	-85.558	-6.615	190.983	200.730	167.996	257.946	256.862	207.935	186.905	239.664	134.410	240.114	0.00033896	0.0012288	0.00014027	1364.2	5.9329e-06	5.3853e-06	1670.3	461.44	4.8631e-06	9.6347e-06	596.63	201.01	152.85	66.312	3.5772e-06	98.591	0.0005403	0.0005182	0.00014688	1327.1	5.6674e-06	5.5695e-06	1630.1	452.82	5.4728e-06	5.5159e-06	582.18	199.61	151.94	65.592	5.5345e-06	96.758	236.648	-11.233	-10.584	-87.109	64.984	35.676	-87.702	-82.577	102.945	65.368	-83.674	-78.494	-76.596	-70.705	41.525	-72.851	-8191	255	
800.423	1	1	0	0	0.15511	0.25014	0.21391	0.28537	0.12027	0.25618	0.36107	0.19154	0.1877	0.10956	0.18344	0.32601	0.27419	0.33301	0.13994	0.40544	-1.4083	-0.9625	-1.6021	-1.7583	-1.1375	-2.2292	-1.4	-1.5187	-1.9	-1.1771	-2.0563	-1.6667	-1.0187	-2.3563	-1.125	-1.3604	43.601	81.108	-5.050	229.718	78.237	12.391	257.376	236.025	-12.253	120.561	1.457	249.384	-91.069	146.579	63.134	232.238	0.00029118	0.00063873	7.1359e-05	1355.1	7.0156e-06	4.2446e-06	1656.8	458.4	2.3977e-06	3.901e-06	589.17	200.66	153.22	67.12	5.7875e-06	98.724	0.00050812	0.00050345	0.00013969	1322.7	5.476e-06	5.4482e-06	1617.1	450.29	5.4759e-06	5.4886e-06	577.33	198.96	152.11	66.365	5.7105e-06	97.217	221.076	-13.781	-21.934	-87.077	69.404	77.051	-87.768	-82.431	48.970	89.838	-83.725	-78.433	-76.616	-70.534	86.480	-73.028	-8191	255	
800.542	1	1	0	0	0.043775	0.062824	0.19188	0.22348	0.089576	0.15136	0.20757	0.48997	0.24735	0.48997	0.15239	0.38377	0.18953	0.24661	0.19095	0.12694	-1.6458	-1.0271	-1.6958	-1.9479	-1.0792	-1.7833	-1.55	-1.3875	-1.9833	-1.1	-1.7	-1.8083	-1.1021	-1.9729	-1.3083	-1.2729	247.646	213.646	244.967	240.591	51.403	25.622	195.024	214.956	-36.247	176.944	159.537	194.551	-94.283	243.777	44.396	87.730	0.00036742	0.00095583	0.00019755	1344.6	6.0881e-06	6.4055e-06	1641.5	458.13	6.7991e-06	6.6514e-06	592.98	202.46	153.95	68.029	5.7888e-06	100.33	0.00052153	0.00052368	0.00014707	1314.8	5.8469e-06	5.8415e-06	1602.2	451.47	5.8026e-06	5.9813e-06	577.77	200.01	153.35	67.517	5.9702e-06	98.66	221.894	-9.638	-5.909	-86.937	40.765	46.058	-87.866	-82.602	55.937	60.648	-83.586	-78.468	-76.717	-70.401	101.091	-72.966	-8191	255	
800.638	1	1	0	0	0.017385	0.10518	0.2176	0.1911	0.29993	0.2004	0.37893	0.20215	0.054643	0.23385	0.14324	0.24803	0.37004	0.10191	0.15512	0.27295	-1.6833	-1.0417	-1.3333	-2.1417	-0.90417	-1.8125	-1.6479	-1.2104	-1.925	-1.4208	-1.4688	-1.925	-1.1229	-1.9937	-1.6271	-1.2146	152.212	82.453	-97.292	-70.008	171.483	237.993	228.874	225.475	-66.223	196.735	224.745	254.982	236.996	50.246	86.396	231.496	0.00037148	0.00092114	0.0003003	1341.4	1.269e-06	8.8025e-06	1634.3	457.48	5.2925e-06	9.8721e-06	592.71	203.38	154.79	68.683	6.6176e-06	101.9	0.00055573	0.0005445	0.00015192	1308	5.9815e-06	5.9608e-06	1597.9	450.71	5.9535e-06	6.0229e-06	578.77	201.29	153.82	67.903	5.8905e-06	99.804	224.195	1.646	9.005	-87.133	251.004	43.775	-87.786	-82.307	58.591	67.902	-83.855	-78.319	-76.398	-70.719	63.859	-72.837	-8191	255	
#DATA ENDS
