BOXY.EXE: ISS Imagent and Oximeter Data Acquisition Program Version 0.80
Ascii Record File

#ACQ INFORMATION
2  Detector Channels 
16  External MUX Channels 
1  Auxiliary Channels 
5000  Waveform (CCF) Frequency (Hz)
1  Waveforms Skipped 
30  Waveforms Averaged 
1  Cycles Averaged 
16  Acquisitions per Waveform 
10.0806  Updata Rate (Hz) 

#FILE INFORMATION
TRUE -- External MUX Channel results are PARSED.
FALSE -- AC DC and Phase are NOT grouped.
TRUE -- Companion Program Settings File CREATED.
FALSE -- AC data not excluded
FALSE -- DC data not excluded
FALSE -- Phase data not excluded
FALSE -- Auxillary Chn. data not excluded
Tab delimiters

#CALIBRATION STATE
TRUE -- Waveform Calibration Values APPLIED.


#AUX CALIBRATION VALUES
Val Type	aux-1	

Term	1.0000e+00	
Factor	0.0000e+00	


#WF CALIBRATION VALUES
A = Detector Channel
Val Type	A-AC1	A-AC2	A-AC3	A-AC4	A-AC5	A-AC6	A-AC7	A-AC8	A-AC9	A-AC10	A-AC11	A-AC12	A-AC13	A-AC14	A-AC15	A-AC16	A-DC1	A-DC2	A-DC3	A-DC4	A-DC5	A-DC6	A-DC7	A-DC8	A-DC9	A-DC10	A-DC11	A-DC12	A-DC13	A-DC14	A-DC15	A-DC16	A-Ph1	A-Ph2	A-Ph3	A-Ph4	A-Ph5	A-Ph6	A-Ph7	A-Ph8	A-Ph9	A-Ph10	A-Ph11	A-Ph12	A-Ph13	A-Ph14	A-Ph15	A-Ph16	

Term	0.00000e+00	0.00000e+00	0.00000e+00	0.00000e+00	0.00000e+00	0.00000e+00	0.00000e+00	0.00000e+00	0.00000e+00	0.00000e+00	0.00000e+00	0.00000e+00	0.00000e+00	0.00000e+00	0.00000e+00	0.00000e+00	0.00000e+00	0.00000e+00	0.00000e+00	0.00000e+00	0.00000e+00	0.00000e+00	0.00000e+00	0.00000e+00	0.00000e+00	0.00000e+00	0.00000e+00	0.00000e+00	0.00000e+00	0.00000e+00	0.00000e+00	0.00000e+00	0.00000e+00	0.00000e+00	0.00000e+00	0.00000e+00	0.00000e+00	0.00000e+00	0.00000e+00	0.00000e+00	0.00000e+00	0.00000e+00	0.00000e+00	0.00000e+00	0.00000e+00	0.00000e+00	0.00000e+00	0.00000e+00	
Factor	1.00000e+00	1.00000e+00	1.00000e+00	1.00000e+00	1.00000e+00	1.00000e+00	1.00000e+00	1.00000e+00	1.00000e+00	1.00000e+00	1.00000e+00	1.00000e+00	1.00000e+00	1.00000e+00	1.00000e+00	1.00000e+00	1.00000e+00	1.00000e+00	1.00000e+00	1.00000e+00	1.00000e+00	1.00000e+00	1.00000e+00	1.00000e+00	1.00000e+00	1.00000e+00	1.00000e+00	1.00000e+00	1.00000e+00	1.00000e+00	1.00000e+00	1.00000e+00	X	X	X	X	X	X	X	X	X	X	X	X	X	X	X	X	

B = Detector Channel
Val Type	B-AC1	B-AC2	B-AC3	B-AC4	B-AC5	B-AC6	B-AC7	B-AC8	B-AC9	B-AC10	B-AC11	B-AC12	B-AC13	B-AC14	B-AC15	B-AC16	B-DC1	B-DC2	B-DC3	B-DC4	B-DC5	B-DC6	B-DC7	B-DC8	B-DC9	B-DC10	B-DC11	B-DC12	B-DC13	B-DC14	B-DC15	B-DC16	B-Ph1	B-Ph2	B-Ph3	B-Ph4	B-Ph5	B-Ph6	B-Ph7	B-Ph8	B-Ph9	B-Ph10	B-Ph11	B-Ph12	B-Ph13	B-Ph14	B-Ph15	B-Ph16	

Term	0.00000e+00	0.00000e+00	0.00000e+00	0.00000e+00	0.00000e+00	0.00000e+00	0.00000e+00	0.00000e+00	0.00000e+00	0.00000e+00	0.00000e+00	0.00000e+00	0.00000e+00	0.00000e+00	0.00000e+00	0.00000e+00	0.00000e+00	0.00000e+00	0.00000e+00	0.00000e+00	0.00000e+00	0.00000e+00	0.00000e+00	0.00000e+00	0.00000e+00	0.00000e+00	0.00000e+00	0.00000e+00	0.00000e+00	0.00000e+00	0.00000e+00	0.00000e+00	-9.29852e+01	-1.33296e+02	-1.17972e+02	-1.83514e+02	-6.10041e+01	-6.68737e+01	-1.55681e+02	-1.62015e+02	-6.37700e+01	-6.08445e+01	-1.71225e+02	-1.69747e+02	-1.80595e+02	-1.76656e+02	-4.62200e+01	-1.49255e+02	
Factor	1.72239e-05	1.51077e-04	3.90219e-05	1.52671e-01	1.29822e-06	1.61351e-06	1.77629e-01	5.79230e-02	1.04663e-06	1.52934e-06	9.62527e-02	2.99250e-02	2.79958e-02	9.77860e-03	1.33337e-06	1.40708e-02	2.65951e-06	2.92866e-06	8.15356e-07	7.75076e-02	3.17008e-08	3.21495e-08	8.47087e-02	2.93650e-02	3.17257e-08	3.22051e-08	4.70433e-02	1.47731e-02	1.43622e-02	4.97118e-03	3.19154e-08	6.90677e-03	X	X	X	X	X	X	X	X	X	X	X	X	X	X	X	X	



#DISTANCE SETTINGS
A = Detector Channel
A-1	A-2	A-3	A-4	A-5	A-6	A-7	A-8	A-9	A-10	A-11	A-12	A-13	A-14	A-15	A-16	

2.5000e+00	3.0000e+00	2.5000e+00	3.0000e+00	2.0000e+00	3.0000e+00	1.5000e+00	3.0000e+00	3.0000e+00	3.0000e+00	3.0000e+00	3.0000e+00	3.0000e+00	3.0000e+00	1.5000e+00	3.0000e+00	

B = Detector Channel
B-1	B-2	B-3	B-4	B-5	B-6	B-7	B-8	B-9	B-10	B-11	B-12	B-13	B-14	B-15	B-16	

1.0000e+01	1.0000e+01	1.0000e+01	1.4400e+00	1.0000e+01	1.0000e+01	1.5100e+00	1.9400e+00	1.0000e+01	1.0000e+01	1.9900e+00	2.4900e+00	2.4100e+00	2.9000e+00	1.0000e+01	2.9800e+00	




#DATA BEGINS
time	group	step	mark	flag	A-AC1	A-AC2	A-AC3	A-AC4	A-AC5	A-AC6	A-AC7	A-AC8	A-AC9	A-AC10	A-AC11	A-AC12	A-AC13	A-AC14	A-AC15	A-AC16	A-DC1	A-DC2	A-DC3	A-DC4	A-DC5	A-DC6	A-DC7	A-DC8	A-DC9	A-DC10	A-DC11	A-DC12	A-DC13	A-DC14	A-DC15	A-DC16	A-Ph1	A-Ph2	A-Ph3	A-Ph4	A-Ph5	A-Ph6	A-Ph7	A-Ph8	A-Ph9	A-Ph10	A-Ph11	A-Ph12	A-Ph13	A-Ph14	A-Ph15	A-Ph16	B-AC1	B-AC2	B-AC3	B-AC4	B-AC5	B-AC6	B-AC7	B-AC8	B-AC9	B-AC10	B-AC11	B-AC12	B-AC13	B-AC14	B-AC15	B-AC16	B-DC1	B-DC2	B-DC3	B-DC4	B-DC5	B-DC6	B-DC7	B-DC8	B-DC9	B-DC10	B-DC11	B-DC12	B-DC13	B-DC14	B-DC15	B-DC16	B-Ph1	B-Ph2	B-Ph3	B-Ph4	B-Ph5	B-Ph6	B-Ph7	B-Ph8	B-Ph9	B-Ph10	B-Ph11	B-Ph12	B-Ph13	B-Ph14	B-Ph15	B-Ph16	aux-1	digaux	

825.560	1	1	0	256	0.07493	0.33115	0.23683	0.29038	0.18165	0.074224	0.33168	0.34751	0.21939	0.11561	0.044426	0.14725	0.16942	0.098428	0.38179	0.3291	-0.92917	-1.7833	-0.93333	-1.7125	-1.5354	-0.9125	-2.2125	-1.5042	-1.0125	-1.975	-1.175	-1.7729	-1.8083	-1.1292	-2.0042	-1.5396	167.338	87.284	166.414	220.726	37.766	-47.860	229.220	232.576	-47.873	23.021	257.099	227.441	237.209	249.516	186.380	170.822	0.00033574	0.0017879	0.00030688	1183.8	1.3914e-05	1.3081e-05	1321.2	398.62	7.941e-06	9.6092e-06	498.83	178.16	143.59	69.114	1.3587e-05	94.466	0.0035549	0.003722	0.0010191	1240.5	3.7561e-05	3.7327e-05	1381.6	421.3	3.5414e-05	3.5243e-05	530.83	190.45	156.03	72.972	3.3781e-05	99.484	208.530	9.060	127.149	-84.867	70.202	26.885	-85.567	-80.097	157.263	6.185	-81.685	-75.843	-74.052	-68.208	21.844	-70.647	-8191	255	
825.654	1	1	0	0	0.019897	0.12514	0.20783	0.070574	0.053947	0.1358	0.10883	0.10158	0.23139	0.13019	0.24734	0.4968	0.17912	0.27728	0.099102	0.23513	-0.92292	-1.7062	-0.95625	-1.7563	-1.9417	-1	-2.0208	-1.3146	-1.0938	-1.9438	-1.2229	-1.6396	-2.0875	-1.0458	-1.7896	-1.5042	125.568	-92.680	139.043	240.635	90.028	39.135	176.058	-35.035	93.534	28.714	224.343	220.269	203.691	214.176	-51.591	165.643	0.00034625	0.00018119	0.00019237	1152.1	5.7858e-06	7.017e-06	1301.2	389.38	9.4197e-07	2.8388e-06	485	179.07	144.92	69.632	5.9153e-06	95.189	0.002849	0.0030178	0.00082947	1195.1	3.1161e-05	3.1285e-05	1337.5	406.34	2.9532e-05	2.9468e-05	510.78	189.13	154.86	72.608	2.8021e-05	98.94	209.747	239.939	15.856	-85.029	3.244	-52.960	-85.984	-79.915	193.719	125.171	-81.493	-75.652	-73.934	-68.273	27.792	-70.716	-8191	255	
825.728	1	1	0	0	0.17365	0.17197	0.20887	0.12036	0.22661	0.072905	0.48474	0.2235	0.25719	0.29729	0.26488	0.17949	0.18835	0.036673	0.10267	0.1471	-0.64583	-1.9479	-1.1104	-1.3813	-1.8729	-0.92083	-2.0479	-1.5667	-0.95417	-1.825	-1.2958	-1.4396	-2.1146	-1.1146	-1.7479	-1.8021	174.402	204.442	132.177	-30.112	247.498	15.419	229.288	-55.583	143.845	40.888	204.018	233.364	198.981	256.908	95.192	158.410	0.00037911	0.00053661	0.00014071	1130.8	7.7418e-06	1.1792e-05	1273.9	388.93	7.2426e-06	2.1484e-06	483.87	181.28	146.74	70.531	1.1944e-05	96.584	0.0023134	0.00247	0.0006822	1158.8	2.5919e-05	2.6236e-05	1300.8	402.3	2.5371e-05	2.5574e-05	504.45	189.13	154.97	73.008	2.4626e-05	99.247	216.224	117.040	-39.458	-84.689	60.880	-68.905	-85.661	-79.727	229.697	253.542	-81.358	-75.788	-73.747	-68.301	17.848	-70.769	-8191	255	
825.824	1	1	0	0	0.21143	0.1874	0.20759	0.12922	0.050988	0.22041	0.22963	0.29477	0.074159	0.31554	0.20742	0.050389	0.094939	0.24506	0.090785	0.044311	-0.72917	-1.9896	-1.4521	-1.3604	-1.8625	-0.87083	-1.75	-1.7271	-0.94583	-2.025	-1.5896	-1.2229	-2.1104	-1.3563	-1.6125	-1.5896	59.722	60.051	143.160	250.285	-28.035	2.074	112.446	233.513	41.312	67.429	196.643	168.687	185.291	-71.254	250.291	119.763	0.00038303	0.0007027	6.5427e-05	1108.9	4.1562e-06	7.5518e-06	1240.4	385.5	6.5262e-06	1.3771e-05	472.3	178.93	147.44	71.15	2.4003e-06	95.866	0.0020574	0.0021925	0.00060317	1131.7	2.3015e-05	2.2854e-05	1259.9	395.52	2.1997e-05	2.2136e-05	488.5	185.69	153.53	72.954	2.1318e-05	98.055	234.483	-60.157	198.813	-84.730	233.289	118.160	-85.686	-79.948	35.450	94.856	-81.635	-75.778	-73.608	-68.389	27.136	-70.928	-8191	255	
825.920	1	1	0	0	0.11871	0.10486	0.36137	0.45317	0.064181	0.2148	0.18355	0.091872	0.076575	0.22742	0.24723	0.30298	0.12415	0.12944	0.099455	0.31678	-0.62917	-1.6562	-1.5458	-1.25	-1.8292	-1.1792	-1.7083	-1.8896	-0.95625	-1.7687	-1.6979	-1.2833	-2.0792	-1.4208	-1.475	-2.1896	-32.901	72.637	250.819	244.355	37.497	210.544	164.545	-28.554	232.922	252.719	169.146	180.299	-8.120	123.599	190.422	258.510	0.00042144	0.00057209	0.00024402	1088.8	9.5738e-06	8.0355e-06	1214.2	383.13	2.6409e-06	7.1064e-06	474.63	181.04	148.13	71.919	5.8695e-06	97.491	0.0017967	0.0019206	0.00053118	1103.8	2.0356e-05	2.056e-05	1229	392.06	2.0033e-05	2.0386e-05	486.36	186.49	154.57	73.67	2.0281e-05	99.108	232.309	27.179	-32.350	-84.654	101.640	-44.022	-86.008	-79.489	39.110	92.771	-81.242	-76.120	-73.745	-68.352	81.895	-71.078	-8191	255	
826.039	1	1	0	0	0.1133	0.078157	0.075196	0.28913	0.20903	0.20215	0.082541	0.32071	0.18842	0.030073	0.0087285	0.066816	0.35276	0.28865	0.1188	0.1277	-0.69375	-1.6625	-1.3833	-1.0917	-1.8729	-1.45	-1.5042	-2.1729	-0.96875	-1.6479	-1.9104	-1.2646	-2.1083	-1.3083	-1.3438	-2.2583	133.136	255.081	76.204	199.855	95.124	133.386	145.901	184.830	-89.284	-10.712	-89.817	200.229	-36.047	199.591	260.606	225.074	0.0003384	0.0004118	0.00012764	1093.1	8.2069e-06	3.9208e-06	1222	387.42	9.0956e-06	8.8224e-06	479.21	182.84	149.44	73.116	6.5972e-06	99.603	0.0017485	0.0018742	0.00052249	1106.8	2.0441e-05	2.0667e-05	1239.4	395.66	2.0615e-05	2.0968e-05	492.73	188.95	156.17	74.938	2.1212e-05	101.25	225.978	35.589	63.607	-84.733	-64.713	152.779	-85.810	-79.518	12.178	75.923	-81.364	-75.968	-73.656	-68.453	26.755	-71.033	-8191	255	
826.135	1	1	0	0	0.26789	0.22397	0.26543	0.29061	0.03744	0.12785	0.31559	0.41621	0.20322	0.17916	0.02711	0.23606	0.1614	0.25261	0.099151	0.33824	-0.82083	-1.6042	-1.7437	-1.0625	-1.9396	-1.5792	-1.3563	-2.0771	-1.1354	-1.5542	-1.9646	-1.225	-1.9229	-1.4708	-1.1354	-2.1063	77.608	68.705	8.281	119.663	-11.231	88.067	195.521	207.478	159.179	141.569	-51.791	-90.980	250.651	-79.532	245.297	253.242	0.00030692	0.00098763	0.00018663	1110.2	8.5089e-06	3.3795e-06	1238.1	392.4	1.0445e-05	1.0358e-05	488.15	185.63	151.34	74.337	1.1062e-05	100.56	0.0018198	0.0019581	0.00054602	1123.7	2.1222e-05	2.1536e-05	1255.3	401.52	2.1213e-05	2.1777e-05	500.59	191.69	158	75.898	2.1577e-05	102.61	222.765	7.445	26.274	-84.863	24.883	82.557	-85.814	-79.510	-12.064	95.435	-81.532	-75.847	-73.455	-68.506	45.794	-70.863	-8191	255	
826.231	1	1	0	0	0.11896	0.27928	0.024056	0.21077	0.082185	0.13368	0.18289	0.3731	0.35329	0.23494	0.098873	0.4097	0.10896	0.14482	0.078316	0.1883	-0.9625	-1.5292	-1.8896	-1.1917	-1.8312	-1.5542	-1.1833	-2.2146	-1.3396	-1.3708	-1.9312	-1.1146	-1.7917	-1.8083	-1.0917	-2.1979	236.083	150.158	60.992	-24.150	-35.582	69.494	243.423	173.869	65.644	96.053	225.591	-85.325	-17.067	229.964	38.885	146.067	0.00025072	0.0012648	0.00015644	1114.8	1.5921e-06	1.4803e-05	1242.8	397.1	5.2981e-06	8.1039e-06	489.63	187.07	151.85	74.511	8.781e-06	101.02	0.0018368	0.0019763	0.00054532	1128.5	2.128e-05	2.1383e-05	1261.9	404.69	2.1133e-05	2.1445e-05	502.89	192.73	158.34	76.147	2.1354e-05	102.83	227.821	-52.064	-53.113	-84.841	52.590	21.461	-86.046	-79.522	34.055	-54.234	-81.537	-76.059	-73.855	-68.387	201.853	-71.149	-8191	255	
826.327	1	1	0	0	0.11019	0.14866	0.21478	0.20778	0.18972	0.21795	0.094703	0.088244	0.065096	0.08191	0.3018	0.40159	0.26677	0.25264	0.097279	0.098621	-0.84167	-1.4667	-2.0208	-1.2	-1.6708	-1.7542	-1.3833	-2.0958	-1.2583	-1.0042	-2.0312	-1.3479	-1.6375	-1.8458	-1.0312	-2	-38.874	188.563	14.315	-94.931	-48.253	145.708	-50.587	259.770	86.598	-3.062	-91.871	249.097	250.274	178.702	174.971	246.635	0.00032783	0.00087496	0.00033348	1113.2	4.5596e-06	3.5149e-06	1240.6	393.67	3.0726e-06	8.3146e-06	483.52	184.63	150.54	73.419	7.1352e-06	99.401	0.0018218	0.0019458	0.0005412	1127.5	2.1079e-05	2.1314e-05	1258.3	403.56	2.0817e-05	2.126e-05	498.8	190.54	157.22	75.251	2.071e-05	100.96	230.570	-36.846	-6.312	-84.927	122.704	224.454	-86.003	-79.569	-63.604	80.285	-81.247	-76.083	-73.867	-68.489	81.197	-71.093	-8191	255	
826.424	1	1	0	0	0.4473	0.21541	0.18006	0.18425	0.014235	0.11324	0.14295	0.10713	0.23377	0.15635	0.20334	0.30452	0.1853	0.23746	0.097089	0.35048	-0.9875	-1.0646	-1.9125	-1.2917	-1.4792	-1.9813	-1.4167	-1.7062	-1.5	-1.0917	-2.0896	-1.1187	-1.575	-1.9854	-1.0458	-2.0021	100.795	11.981	-23.209	206.148	-18.135	-56.939	61.906	185.988	-34.572	-17.842	127.956	-48.730	-95.431	179.729	-21.733	188.642	0.00033668	0.0009491	5.5648e-05	1111.7	9.1451e-06	9.9803e-06	1241.4	393.86	2.1162e-06	5.5829e-06	483.48	183.56	150.93	73.213	1.3597e-05	99.358	0.0017777	0.0019017	0.00053119	1127.6	2.0524e-05	2.0582e-05	1254.4	401.84	2.0272e-05	2.0306e-05	495.63	189.16	156.62	74.876	1.9864e-05	100.76	223.515	-9.210	-15.224	-85.206	188.690	69.357	-85.867	-79.665	77.219	-33.238	-81.577	-76.140	-73.645	-68.594	21.012	-71.239	-8191	255	
826.520	1	1	0	0	0.27361	0.14319	0.1034	0.39444	0.082764	0.21069	0.37539	0.27566	0.028087	0.17577	0.33651	0.22537	0.19754	0.041307	0.1853	0.25474	-1.2625	-0.925	-1.9312	-1.45	-1.3125	-1.9333	-1.1021	-1.8479	-1.4688	-0.93958	-2.1292	-1.3188	-1.5292	-1.9833	-1.0583	-1.7687	82.062	-25.688	229.317	219.627	244.000	124.587	183.712	-27.304	137.952	233.327	182.265	-37.357	210.866	13.205	14.113	229.034	0.00025143	0.00077979	0.00026095	1110.8	7.8731e-06	9.7764e-06	1238	393.07	6.8234e-06	1.028e-05	484.03	184.87	151.52	73.544	6.377e-06	99.346	0.0017022	0.0018192	0.00050475	1123.2	1.9621e-05	1.9782e-05	1249.5	401.25	1.9697e-05	1.9809e-05	495.33	189.65	156.81	74.966	1.9144e-05	100.8	239.682	-28.952	-34.753	-85.202	73.096	47.602	-86.103	-79.634	55.868	44.057	-81.398	-76.187	-74.099	-68.492	31.930	-71.059	-8191	255	
826.640	1	1	0	0	0.065598	0.10658	0.16149	0.03223	0.27743	0.14123	0.23334	0.25398	0.097638	0.009838	0.29284	0.20736	0.11733	0.41616	0.2601	0.27717	-1.3979	-1.2354	-1.9167	-1.4521	-1.1708	-1.9021	-1.2083	-1.8167	-1.8271	-1.1021	-1.9417	-1.6833	-1.0562	-2.0687	-1.2583	-1.6688	189.349	-9.118	170.983	-33.237	239.482	72.214	84.826	192.709	183.672	176.516	157.236	173.856	246.894	252.477	41.251	170.951	0.00026971	0.0014266	9.5674e-05	1107.4	4.432e-06	1.0606e-05	1234.9	394.25	2.3624e-06	7.4905e-06	486.54	185.82	151.64	73.8	3.0042e-06	100.31	0.0016189	0.0017138	0.00047605	1115.7	1.8393e-05	1.8653e-05	1247.5	399.53	1.8519e-05	1.8764e-05	495.54	190.63	156.9	75.142	1.8339e-05	101.39	240.796	29.893	31.527	-84.977	131.756	79.147	-85.757	-79.535	19.052	148.419	-81.329	-76.187	-73.569	-68.518	136.174	-70.981	-8191	255	
826.735	1	1	0	0	0.087019	0.0627	0.23215	0.14694	0.2108	0.18379	0.36584	0.22774	0.27333	0.22655	0.2468	0.25562	0.4141	0.21893	0.36721	0.234	-1.4667	-0.90625	-1.6792	-1.5729	-1.0458	-2.1063	-1.3083	-1.475	-1.8667	-1.1917	-2.0917	-1.6812	-1.3354	-2.1063	-1.3646	-1.6229	210.114	186.532	-49.524	120.210	44.431	-27.369	211.576	144.096	239.657	-5.305	251.609	218.291	-76.411	207.521	-18.005	192.565	0.00035522	0.0009952	0.00017871	1117	2.5899e-06	4.4559e-06	1243.5	395.58	3.4383e-06	9.7263e-06	487.58	186.59	151.7	73.539	7.0721e-06	99.836	0.0015728	0.0016617	0.00046146	1121.4	1.7743e-05	1.804e-05	1250.9	401	1.7798e-05	1.7968e-05	496.27	191.05	156.52	74.839	1.7593e-05	100.7	225.671	9.109	55.270	-84.915	218.606	58.981	-85.929	-79.566	-5.557	49.346	-81.351	-76.023	-74.007	-68.623	16.846	-70.946	-8191	255	
826.831	1	1	0	0	0.30263	0.18148	0.016135	0.018889	0.15694	0.16171	0.16168	0.17554	0.10519	0.092727	0.15104	0.3336	0.085471	0.28928	0.33508	0.24974	-1.6313	-1.0292	-1.7437	-1.9292	-1.05	-1.875	-1.4708	-1.5229	-1.9708	-0.97708	-1.6854	-2.0625	-1.2437	-2.2875	-1.4583	-1.4333	240.016	174.009	216.241	210.801	189.158	41.523	176.198	-94.166	190.341	145.206	-64.491	208.901	209.490	223.491	27.846	259.395	0.00025444	0.00084966	0.00023813	1111.4	9.8263e-06	1.0087e-05	1247.4	392.97	3.3136e-06	1.257e-05	483.46	182.83	149.71	72.307	8.4172e-06	96.869	0.0015052	0.0015917	0.0004462	1120	1.7241e-05	1.7507e-05	1250.5	397.82	1.705e-05	1.7324e-05	490.67	187.55	154.59	73.352	1.7421e-05	98.093	217.333	55.905	42.626	-85.002	41.760	35.979	-85.832	-79.630	-49.841	50.681	-81.534	-76.288	-73.949	-68.424	68.644	-70.898	-8191	255	
826.927	1	1	0	0	0.24891	0.11269	0.39892	0.42955	0.091465	0.043193	0.018378	0.060112	0.21029	0.20182	0.37765	0.12523	0.20448	0.24755	0.17407	0.26186	-1.5938	-1.1896	-1.5312	-2.0104	-1.0292	-1.7104	-1.625	-1.3396	-1.9667	-1.3458	-1.7521	-2.0146	-1.0458	-1.9958	-1.6187	-1.3542	-33.480	110.360	59.392	249.883	-51.188	-53.359	167.627	213.171	58.193	238.491	-89.253	-79.720	245.877	-83.451	75.033	180.046	0.00036523	0.0012057	0.00020479	1138.2	2.403e-06	1.0471e-05	1255.9	395.35	9.8669e-06	8.3231e-07	484.43	182.22	149.73	71.74	9.0876e-06	96.454	0.0014891	0.001592	0.00044607	1138.9	1.7366e-05	1.7521e-05	1266.2	400.04	1.7497e-05	1.7474e-05	492.52	186.76	154.27	72.891	1.7495e-05	97.624	231.964	0.466	-23.289	-85.024	188.253	-12.783	-86.092	-79.423	44.382	-31.322	-81.477	-75.905	-73.901	-68.555	28.697	-71.113	-8191	255	
827.023	1	1	0	0	0.057641	0.15454	0.077356	0.17445	0.1633	0.26135	0.196	0.28818	0.23531	0.34468	0.045156	0.075181	0.21136	0.49098	0.26309	0.35136	-1.5688	-1.0896	-1.3875	-2.0312	-0.99375	-1.7146	-1.8917	-1.1542	-2.0333	-1.2167	-1.6187	-1.9771	-1.2	-1.7833	-1.6854	-1.3438	10.768	115.248	200.776	173.663	125.398	-24.944	192.791	189.932	-1.581	202.884	87.249	-7.489	-85.550	224.673	117.578	218.392	0.00037128	0.00153	0.00029827	1138.3	5.5453e-06	8.7539e-06	1265.1	394.45	6.7922e-06	1.1311e-05	488.09	183.44	150.62	72.446	8.5604e-06	97.915	0.0015137	0.0016116	0.00044912	1143	1.7552e-05	1.7995e-05	1275.1	401.52	1.7708e-05	1.7936e-05	496.86	188.27	155	73.626	1.7738e-05	98.84	233.144	-15.638	22.297	-84.930	79.023	-40.154	-86.412	-79.709	36.160	-14.240	-81.482	-76.005	-74.083	-68.401	126.627	-71.070	-8191	255	
827.119	1	1	0	0	0.22912	0.35056	0.032883	0.17562	0.37324	0.14966	0.40684	0.34847	0.30249	0.073003	0.36973	0.17308	0.076174	0.094481	0.097626	0.17791	-1.7229	-1.2563	-1.3875	-2.0375	-1.075	-1.8	-1.9979	-1.2208	-1.725	-1.5562	-1.1792	-2.175	-1.1292	-1.7604	-1.9354	-1.175	2.847	149.827	-64.414	199.099	11.369	6.865	202.943	194.694	137.251	138.734	237.039	189.131	88.302	133.294	-8.687	243.913	0.00034338	0.00041696	0.00012152	1154.3	4.8806e-06	4.2471e-06	1282.1	400.25	3.7667e-06	1.1469e-05	493.27	185.43	150.87	73.101	9.7904e-06	98.728	0.0015558	0.0016581	0.00046285	1154.5	1.8142e-05	1.8476e-05	1287.5	406.25	1.8344e-05	1.8682e-05	501.4	189.87	155.85	74.193	1.8261e-05	99.786	229.635	-37.550	43.046	-85.123	257.981	-45.289	-86.014	-79.745	25.028	35.781	-81.493	-76.130	-73.826	-68.484	82.138	-71.298	-8191	255	
827.215	1	1	0	0	0.11448	0.054574	0.07817	0.11333	0.074125	0.037549	0.28701	0.32004	0.3448	0.12823	0.20751	0.42433	0.17309	0.13034	0.22806	0.25063	-1.5562	-1.6292	-0.82917	-1.9438	-1.3417	-1.5208	-2.1396	-1.1917	-1.8354	-1.4979	-1.3188	-2.0375	-1.3521	-1.5792	-1.8042	-1.3208	123.154	258.141	-61.336	254.885	-15.460	70.648	175.706	215.247	-6.430	-9.805	196.319	224.271	-9.001	216.724	228.593	171.945	0.00027522	0.0012012	0.00030368	1151.6	9.9458e-06	4.7913e-06	1286.7	399.12	4.6848e-06	1.1527e-05	494.68	186.29	150.15	71.954	5.2625e-06	97.516	0.0015584	0.0016576	0.00046284	1155	1.7898e-05	1.7954e-05	1291.7	404.79	1.773e-05	1.7864e-05	501.7	189.68	155.32	73.187	1.7254e-05	98.386	238.653	17.381	-3.931	-84.848	81.446	133.827	-86.192	-79.489	-82.485	64.379	-81.340	-76.150	-73.939	-68.257	28.799	-70.995	-8191	255	
827.336	1	1	0	0	0.10769	0.1206	0.1974	0.050033	0.22012	0.14012	0.081862	0.1619	0.15306	0.14244	0.16327	0.14386	0.24501	0.32004	0.1134	0.099749	-1.4312	-1.7062	-0.96042	-2.1188	-1.1583	-1.6479	-2.0875	-1.2667	-1.7146	-1.6417	-0.97917	-1.9396	-1.3937	-1.3958	-2.0542	-1.0292	34.207	0.051	50.648	44.630	132.132	-44.590	201.958	123.827	161.767	98.893	239.514	-34.027	-85.108	246.297	-41.039	251.486	0.00040162	0.00089569	8.1087e-05	1154.6	1.093e-05	6.9954e-06	1289	394.24	5.7101e-06	1.2834e-05	486.53	183.24	149.74	70.845	7.9081e-06	95.186	0.0014889	0.0015603	0.00042813	1155.1	1.6536e-05	1.6801e-05	1291.6	400.41	1.6603e-05	1.6629e-05	494.6	186.88	153.91	71.883	1.6408e-05	96.004	221.213	14.503	220.333	-84.910	96.042	62.690	-85.958	-79.887	-72.000	58.208	-81.246	-76.262	-73.879	-68.519	-15.081	-71.115	-8191	255	
827.430	1	1	0	0	0.15401	0.066485	0.035672	0.20808	0.053913	0.10433	0.086153	0.23788	0.087072	0.16721	0.25104	0.096805	0.22486	0.18855	0.13721	0.17513	-1.3687	-1.6437	-0.99167	-2.0292	-1.5938	-1.0417	-2.2854	-1.3521	-1.6833	-1.8354	-1.2208	-1.9896	-1.7375	-1.0833	-1.9188	-1.375	48.081	-7.310	-72.868	-89.467	-31.177	209.770	152.697	211.560	76.958	52.206	175.547	133.288	31.430	210.689	169.726	247.932	0.00037313	0.00087347	0.00021959	1160	7.5444e-06	5.943e-06	1297.5	393.48	3.5285e-06	1.3971e-05	485.82	181.45	147.28	69.127	7.8516e-06	92.974	0.0014158	0.001479	0.00041659	1158.3	1.6028e-05	1.6231e-05	1298.1	398.41	1.5929e-05	1.6147e-05	490.47	184.26	151.4	70.017	1.5678e-05	93.553	232.945	-49.429	-19.493	-85.038	70.679	41.940	-85.943	-79.665	90.756	87.130	-81.377	-76.194	-73.942	-68.376	115.059	-71.039	-8191	255	
827.527	1	1	0	0	0.055843	0.083527	0.11096	0.062418	0.14723	0.10193	0.31675	0.37174	0.23724	0.1225	0.073728	0.24175	0.28165	0.09121	0.20347	0.2591	-1.4062	-1.9562	-1.2563	-1.9583	-1.7125	-1.3438	-2.1542	-1.4042	-1.475	-1.9438	-1.2979	-1.9604	-1.8667	-1.2313	-1.9396	-1.4875	-82.797	31.294	-33.288	240.842	153.942	151.501	160.308	256.628	-3.051	110.824	-14.283	-92.451	261.773	-58.172	13.373	234.647	0.00024315	0.00062297	0.00020727	1172.2	8.2351e-06	1.3192e-05	1315.3	393.87	7.1436e-06	4.9408e-06	488.85	180.91	147.29	68.753	3.7542e-06	92.831	0.0013534	0.0014225	0.00039669	1167.1	1.5381e-05	1.5551e-05	1312	397.61	1.5573e-05	1.5623e-05	491.43	183.75	150.79	69.598	1.5288e-05	93.307	239.643	-17.580	-21.568	-84.878	1.932	25.425	-85.979	-79.673	93.700	27.649	-81.521	-75.707	-73.906	-68.399	118.249	-70.955	-8191	255	
827.623	1	1	0	0	0.20884	0.28167	0.34704	0.25789	0.061198	0.15802	0.23694	0.15816	0.17283	0.13369	0.31242	0.308	0.17432	0.12464	0.044701	0.21791	-0.8625	-2.0354	-0.975	-1.8354	-1.9667	-1.1521	-2.2062	-1.5271	-1.5667	-2.1063	-1.2	-1.8188	-1.8646	-1.4125	-1.9229	-1.7062	-68.277	233.732	230.224	220.437	-27.971	84.167	-11.664	51.347	245.538	60.820	156.957	204.982	189.579	139.499	-24.261	-34.476	0.00033681	0.00041392	0.00015436	1174.2	5.9926e-06	2.6849e-06	1332.3	396.29	2.9514e-06	1.0822e-05	490.82	181.37	146.92	68.653	3.567e-06	93.158	0.0013132	0.0013905	0.00038875	1174.7	1.5105e-05	1.536e-05	1326.7	399.94	1.5191e-05	1.5341e-05	495.48	184.52	151.16	69.571	1.5398e-05	93.799	228.520	-19.861	-33.963	-84.807	-19.415	172.825	-86.259	-79.921	-65.485	54.937	-81.901	-76.089	-74.165	-68.515	141.927	-71.164	-8191	255	
827.719	1	1	0	0	0.05929	0.12116	0.14313	0.13512	0.08944	0.14566	0.29902	0.080737	0.10515	0.015949	0.15048	0.31463	0.15655	0.12003	0.14538	0.202	-0.92708	-2.1604	-0.97917	-1.5375	-2.1292	-1.0521	-1.8729	-1.6104	-1.1542	-1.9792	-1.6	-1.7729	-1.9521	-1.1479	-1.8979	-1.8646	68.666	54.451	107.449	205.344	-84.024	161.434	190.258	97.443	136.734	156.708	123.533	165.557	195.431	27.820	170.567	195.997	0.00027507	0.00092974	0.00012761	1189.2	7.0837e-06	4.4603e-06	1358.2	398.61	2.4717e-06	5.184e-06	494.31	181.55	146.49	67.353	2.3485e-06	91.523	0.0013268	0.0013924	0.00039008	1187	1.4983e-05	1.4985e-05	1348.7	400.82	1.4746e-05	1.4628e-05	496.91	183.94	149.86	68.249	1.4368e-05	92.134	236.853	10.880	97.387	-84.875	61.316	66.312	-86.091	-79.655	-8.519	102.261	-81.527	-76.088	-74.141	-68.344	114.834	-71.100	-8191	255	
827.815	1	1	0	0	0.31379	0.11026	0.31783	0.21194	0.20137	0.14698	0.32146	0.14733	0.062761	0.14089	0.40841	0.17255	0.25907	0.25172	0.36275	0.31428	-0.66667	-1.8667	-1.3104	-1.5875	-2.0125	-1.0625	-1.825	-1.7375	-1.2146	-1.7917	-1.35	-1.2042	-1.9958	-1.3521	-1.6187	-1.7792	52.287	226.086	49.958	-55.998	109.493	-40.671	236.764	189.122	-22.468	199.487	173.663	-44.025	-62.301	-38.614	55.156	180.640	0.0003272	0.00050602	0.00021676	1199.2	4.2387e-06	7.3265e-06	1359.5	395.22	1.2617e-06	1.9431e-06	489.27	178.43	144.78	66.132	1.7265e-06	89.235	0.0012358	0.0013039	0.00035899	1193	1.385e-05	1.4013e-05	1354.2	397.03	1.3911e-05	1.4117e-05	492.11	180.46	147.72	66.934	1.4331e-05	89.79	234.422	-36.559	30.484	-85.420	7.564	30.563	-86.100	-79.964	-39.336	-52.549	-81.561	-76.050	-73.919	-68.483	125.625	-71.133	-8191	255	
827.911	1	1	0	0	0.15329	0.17949	0.23091	0.13632	0.38911	0.1824	0.22814	0.24574	0.029233	0.1764	0.13295	0.21145	0.34902	0.16696	0.35622	0.33272	-0.58333	-1.9583	-1.3917	-1.3667	-2.0958	-1.1167	-1.8125	-1.7833	-0.93958	-1.9396	-1.6021	-1.4146	-2.1458	-1.2792	-1.5125	-2.0208	-38.594	238.750	123.995	212.459	168.166	149.983	181.977	208.209	91.732	176.069	-78.928	-97.505	213.573	202.703	244.576	230.191	0.00033459	0.00038151	1.0315e-05	1202.5	6.1776e-06	5.0286e-06	1365.5	395.04	3.1136e-06	1.3075e-05	487.73	176.22	143.58	65.818	9.6889e-06	89.021	0.0012324	0.0013062	0.00036474	1197.6	1.4143e-05	1.418e-05	1358.3	397.01	1.4047e-05	1.4228e-05	489.96	178.92	147.03	66.468	1.429e-05	89.186	235.472	-77.859	233.274	-85.265	89.970	60.137	-86.270	-80.260	115.582	35.947	-81.866	-76.200	-73.802	-68.735	73.367	-71.330	-8191	255	
828.032	1	1	0	0	0.12367	0.09738	0.16128	0.26065	0.31292	0.13355	0.48895	0.23732	0.16293	0.22529	0.12611	0.32225	0.18514	0.26899	0.059525	0.13761	-0.66667	-1.8875	-1.4375	-1.3271	-1.9396	-1.2687	-1.5812	-1.8896	-1.1375	-1.8979	-1.6646	-1.2042	-1.8625	-1.3583	-1.2771	-1.8833	181.267	115.510	166.425	-86.566	164.728	30.361	-46.214	187.541	144.632	108.590	143.914	-58.808	229.251	212.017	131.341	76.794	0.00025442	0.00014793	8.0198e-05	1204	5.4136e-06	6.6493e-06	1367.8	396.68	8.427e-07	1.2598e-05	489.77	176.56	144.13	65.753	4.9224e-06	88.221	0.0012385	0.0013286	0.00036493	1199.8	1.4233e-05	1.4344e-05	1359.6	397.83	1.4128e-05	1.4268e-05	490.76	179.02	146.97	66.219	1.4036e-05	88.832	219.066	-17.796	-58.791	-85.031	212.660	75.845	-86.078	-80.236	-12.662	63.781	-82.038	-76.458	-73.879	-68.668	10.289	-71.128	-8191	255	
828.126	1	1	0	0	0.21864	0.1568	0.081447	0.45434	0.32028	0.14869	0.24166	0.11389	0.16863	0.13652	0.21272	0.24482	0.19367	0.16071	0.086873	0.15916	-0.5625	-1.7083	-1.6187	-1.3062	-1.8729	-1.4188	-1.3708	-1.9354	-1.2021	-1.7229	-1.9521	-1.2437	-1.9333	-1.4875	-1.3312	-2.0854	145.260	25.108	228.399	224.349	238.065	157.601	187.337	220.469	61.336	233.364	209.182	11.098	229.393	255.926	0.863	114.826	0.00026008	0.0010063	0.00023185	1210.4	5.7327e-06	3.0119e-06	1374.5	393.85	4.5783e-06	7.4666e-06	490.71	176.77	143.44	65.152	7.7149e-06	88.429	0.0012029	0.0012801	0.00035574	1201.9	1.3627e-05	1.3942e-05	1366	396.58	1.3703e-05	1.386e-05	491.48	179.2	146.46	65.894	1.3705e-05	88.844	232.746	-14.276	44.264	-85.334	87.256	49.788	-86.572	-80.434	-38.934	24.901	-82.182	-76.297	-74.265	-68.708	88.251	-71.380	-8191	255	
828.224	1	1	0	0	0.30108	0.20657	0.10104	0.27443	0.067398	0.032594	0.24568	0.20156	0.18853	0.18463	0.23873	0.35262	0.33941	0.10903	0.053438	0.077538	-0.77917	-1.5417	-1.725	-1.1604	-1.8792	-1.6063	-1.4646	-2.1604	-1.2708	-1.4854	-1.9917	-1.0708	-1.675	-1.5688	-1.0875	-2.05	52.054	153.447	237.532	152.577	99.343	20.778	237.686	186.414	82.749	190.166	71.476	197.619	-55.206	170.067	20.930	-54.088	0.00030482	0.00085646	0.00026314	1214.8	8.7543e-06	7.2889e-06	1381.8	395.52	5.9498e-06	6.8834e-06	491.97	177.48	143.36	65.299	6.0864e-06	88.941	0.0011947	0.001261	0.00034371	1203.3	1.3471e-05	1.3815e-05	1371.7	397.48	1.3657e-05	1.377e-05	494.26	179.55	146.46	65.917	1.3645e-05	89.095	230.778	-28.018	30.373	-85.461	97.072	86.970	-86.488	-80.193	17.752	58.764	-81.865	-76.143	-74.097	-68.470	55.186	-71.094	-8191	255	
828.320	1	1	0	0	0.056667	0.19919	0.16007	0.12449	0.047265	0.062242	0.32932	0.17838	0.22697	0.10274	0.1454	0.016769	0.11719	0.20532	0.1058	0.13152	-0.96458	-1.4958	-1.8146	-1.2979	-1.5958	-1.6729	-1.3646	-2.1271	-1.2979	-1.5625	-2.0208	-1.3542	-1.7437	-1.7583	-1.1063	-1.9375	138.304	-23.325	206.910	-70.386	106.912	-40.363	252.297	181.793	123.053	-75.785	247.088	118.033	-41.386	253.643	109.211	137.968	0.00029873	0.0011492	0.0003977	1220.1	7.2497e-06	6.9201e-06	1379.5	395.99	2.459e-06	8.0158e-06	490.82	175.31	142.85	64.94	6.1287e-06	87.736	0.0011657	0.0012472	0.00034521	1206.9	1.3491e-05	1.3493e-05	1370.9	397.34	1.3423e-05	1.3512e-05	491.67	178.11	145.85	65.512	1.3586e-05	88.003	239.206	-40.421	3.879	-85.330	13.331	56.019	-86.171	-79.820	78.015	64.838	-81.674	-76.398	-74.056	-68.772	-62.123	-71.165	-8191	255	
828.415	1	1	0	0	0.2264	0.098136	0.36939	0.2788	0.072756	0.21118	0.33229	0.31952	0.16048	0.2785	0.39086	0.27637	0.18641	0.41768	0.21745	0.34818	-0.89375	-1.1042	-2.0312	-1.3667	-1.5688	-1.7271	-1.2292	-2.1958	-1.2875	-1.4417	-2.0875	-1.1688	-1.5708	-1.9188	-1.0792	-2.0271	55.752	0.769	150.118	235.038	81.504	78.445	190.689	209.162	-15.761	14.622	252.746	178.860	224.718	-93.547	-49.154	-82.152	0.0002991	0.00051046	0.00023196	1219	1.1506e-05	1.1324e-05	1384.3	396	4.6894e-06	4.6493e-06	487.75	174.14	142.73	64.656	2.6053e-06	87.321	0.0011889	0.0012591	0.00034792	1209.8	1.3785e-05	1.3785e-05	1373.9	397.91	1.37e-05	1.3915e-05	491.07	177.09	145.71	65.309	1.3788e-05	87.582	231.253	-53.620	-11.369	-85.387	114.212	114.099	-86.118	-80.193	-61.681	5.473	-81.838	-76.276	-74.161	-68.551	174.518	-71.349	-8191	255	
828.511	1	1	0	0	0.26463	0.27291	0.1306	0.089398	0.1839	0.12187	0.14429	0.21189	0.19698	0.0082064	0.23739	0.26018	0.28358	0.3502	0.15435	0.24948	-1.1208	-1.1333	-1.9688	-1.4208	-1.4125	-1.6729	-1.1833	-2.1125	-1.6354	-1.0771	-2.0271	-1.1021	-1.5042	-2.1521	-0.93958	-2.0354	-42.506	-97.392	101.473	-36.449	0.802	13.137	196.877	118.532	-34.041	211.091	213.451	245.082	244.639	134.954	-39.058	123.122	0.00026354	0.00022495	0.00014703	1222.6	9.4194e-06	2.2747e-06	1389.3	395.07	4.5238e-06	3.9086e-07	488.68	174.19	141.98	64.142	1.085e-05	86.521	0.0012158	0.0012598	0.00035169	1213.6	1.3847e-05	1.3818e-05	1377.2	397.56	1.3718e-05	1.379e-05	490.89	176.85	144.79	64.733	1.3526e-05	86.919	228.873	87.378	252.641	-85.161	6.795	-35.534	-86.377	-79.909	54.924	121.354	-81.843	-76.483	-73.985	-68.418	28.101	-71.171	-8191	255	
828.631	1	1	0	0	0.29366	0.15933	0.13178	0.28374	0.26213	0.16395	0.31852	0.20909	0.21776	0.037634	0.25674	0.1529	0.51341	0.3341	0.20392	0.1798	-1.3792	-0.96875	-1.8833	-1.3271	-1.1854	-1.9854	-1.2104	-1.9729	-1.7833	-1.0333	-2.15	-1.6208	-1.2563	-2.1979	-0.975	-1.6167	-54.219	117.528	-0.940	14.020	77.479	90.147	203.480	-76.165	4.094	187.486	-34.889	153.537	254.125	-83.919	-49.369	180.553	0.00024318	0.00090779	0.00020192	1219.9	8.0677e-06	1.3098e-05	1386.6	394.19	4.4188e-06	1.2154e-05	490.2	175.05	141.85	64.241	4.0882e-06	87.137	0.0011766	0.0012181	0.00034365	1212.2	1.3294e-05	1.338e-05	1380.7	396.77	1.3255e-05	1.3498e-05	491.74	177.36	145.33	64.867	1.3481e-05	87.378	209.559	-47.685	99.696	-85.621	77.143	62.635	-86.709	-80.176	29.440	66.326	-81.921	-76.241	-74.103	-68.670	70.331	-71.043	-8191	255	
828.728	1	1	0	0	0.14596	0.11603	0.1163	0.38998	0.16312	0.33221	0.0681	0.33873	0.14035	0.14622	0.10679	0.34818	0.27344	0.18717	0.16203	0.17902	-1.4271	-0.91458	-1.9354	-1.5292	-1.1667	-2.0146	-1.4375	-1.75	-1.7	-0.99792	-2.0646	-1.7104	-1.2667	-2.0771	-1.05	-1.6646	164.428	26.833	103.309	-90.704	86.051	208.107	90.067	195.507	12.280	-42.074	229.327	-91.337	205.117	203.226	212.268	-72.737	0.00026733	0.0011301	8.538e-05	1222.6	5.9717e-06	2.5876e-06	1398	396.54	4.1155e-06	2.1933e-06	491.08	175.1	142.32	64.288	5.7279e-06	87.196	0.0011695	0.0012319	0.00034349	1214	1.3298e-05	1.3428e-05	1388.4	397.16	1.3162e-05	1.328e-05	493.63	177.64	145.01	64.947	1.34e-05	87.635	224.100	-9.960	-17.385	-85.496	-18.987	75.948	-86.256	-80.019	-19.374	107.020	-81.830	-76.210	-73.746	-68.403	121.272	-70.698	-8191	255	
828.824	1	1	0	0	0.12755	0.19	0.132	0.37819	0.031813	0.18514	0.26869	0.23037	0.092901	0.22653	0.1639	0.3473	0.37381	0.44399	0.043347	0.24482	-1.5187	-1.1396	-1.8604	-1.7292	-1.0896	-1.9833	-1.5646	-1.55	-1.8062	-0.99792	-1.9188	-1.9	-1.2125	-2.1708	-1.4167	-1.4771	108.086	-70.882	163.280	241.287	220.007	-75.232	231.652	126.746	71.946	194.030	111.973	215.743	248.031	-76.914	-39.770	243.398	0.00029956	0.00031463	5.5762e-05	1225.1	6.2291e-06	7.4372e-06	1398.1	396.86	3.5684e-06	2.8235e-06	490.9	174.98	142.69	64.297	3.3371e-06	86.618	0.0011679	0.0012359	0.00034536	1218.3	1.3396e-05	1.3666e-05	1390.2	398.87	1.3458e-05	1.3501e-05	493.06	177.5	145.19	64.871	1.3474e-05	86.858	225.748	-14.498	6.725	-85.215	131.067	31.797	-86.215	-80.042	-38.060	-6.078	-81.971	-76.262	-74.032	-68.381	96.141	-70.940	-8191	255	
828.895	1	1	0	0	0.12342	0.2024	0.22014	0.39226	0.091364	0.13145	0.10747	0.29196	0.14154	0.37956	0.022737	0.12499	0.10144	0.23378	0.13976	0.26714	-1.5875	-0.90208	-1.5729	-1.9479	-1.0875	-1.9958	-1.5417	-1.3646	-1.8979	-0.95	-1.8813	-2.0687	-1.225	-2.0271	-1.4479	-1.4583	69.054	247.991	128.319	189.330	-27.056	229.470	146.124	211.398	37.148	118.453	30.251	78.086	-10.621	147.419	31.950	-58.949	0.00024735	0.0010235	0.00025593	1225.4	3.976e-06	4.634e-06	1395.6	396.52	1.9556e-06	7.3171e-06	490.58	173.5	141.69	63.83	2.8198e-06	85.516	0.0011494	0.0012186	0.00034373	1217.4	1.3109e-05	1.3247e-05	1385.6	397.52	1.3028e-05	1.3168e-05	490.79	175.93	144.01	64.267	1.2984e-05	85.971	234.880	-7.311	-26.342	-85.331	28.652	57.552	-86.446	-80.077	127.095	-1.639	-81.826	-76.296	-74.209	-68.328	82.601	-71.248	-8191	255	
829.016	1	1	0	0	0.055209	0.15654	0.13228	0.14731	0.10929	0.1372	0.28613	0.23909	0.077368	0.17245	0.20012	0.186	0.14169	0.30393	0.082181	0.20613	-1.7271	-1.0708	-1.3604	-2.1333	-1.0958	-1.9333	-1.6896	-1.4062	-1.8521	-1.325	-1.2687	-1.8146	-0.93542	-1.9417	-1.6375	-1.3583	118.800	-94.383	163.565	231.297	174.042	194.283	255.141	204.001	-6.813	82.026	201.077	156.621	123.406	226.733	-54.365	-77.784	0.00022513	0.00034343	0.00023039	1232.1	1.0589e-05	8.2732e-06	1401.9	395.33	4.5058e-06	5.8589e-06	489.75	172.65	140.72	63.117	5.5824e-06	85.504	0.0011352	0.0011939	0.00033451	1218.8	1.2885e-05	1.3008e-05	1389.5	395.74	1.2784e-05	1.2892e-05	490.39	175.01	143.26	63.566	1.2566e-05	85.416	218.580	5.295	72.891	-85.258	79.727	72.519	-86.485	-79.894	65.312	50.295	-81.804	-76.242	-74.139	-68.358	83.475	-70.967	-8191	255	
829.112	1	1	0	0	0.17726	0.10766	0.28214	0.19497	0.07764	0.25742	0.20286	0.17746	0.041563	0.093709	0.53654	0.35825	0.22908	0.092417	0.1237	0.2504	-1.7021	-1.3771	-1.1604	-1.9688	-1.0771	-1.7792	-1.8667	-1.2458	-1.9792	-1.4729	-1.4813	-2.075	-1.1042	-1.6583	-1.5833	-1.1792	109.423	-65.074	193.749	251.591	130.991	8.232	173.311	190.412	98.036	101.127	-87.430	201.247	257.218	175.134	-17.571	-86.931	0.0002966	0.00095081	0.00016806	1233.9	1.2191e-05	3.7943e-06	1407.6	392.5	3.1154e-06	6.713e-06	490.39	173.21	140.15	62.957	2.6275e-06	85.073	0.0010791	0.0011309	0.00031524	1218.7	1.2182e-05	1.2307e-05	1391.9	393.59	1.2087e-05	1.2199e-05	489.75	174.82	142.46	63.286	1.2118e-05	85.144	225.823	-31.035	-47.062	-85.217	54.349	37.299	-86.414	-80.157	75.006	56.462	-81.892	-76.465	-73.922	-68.283	-27.849	-70.978	-8191	255	
829.208	1	1	0	0	0.2027	0.15874	0.31481	0.32563	0.21423	0.2442	0.28571	0.10024	0.37062	0.2591	0.12038	0.15729	0.31162	0.21409	0.13887	0.30704	-1.7354	-1.3563	-1.2062	-2.2021	-1.3833	-1.775	-1.9375	-1.0667	-1.7917	-1.5146	-1.3396	-1.9042	-1.1396	-1.5208	-1.8104	-1.1437	-46.119	238.922	82.926	250.932	-85.180	252.477	251.118	116.928	-22.121	-6.106	249.157	80.059	159.338	-50.230	247.724	-75.293	0.00031058	0.00026568	0.00024841	1237.2	1.2888e-06	9.3141e-06	1417	394.3	3.2925e-06	8.1126e-06	495.07	174.6	140.99	63.045	3.2366e-06	85.845	0.0010483	0.0011133	0.00030861	1223.3	1.2087e-05	1.2237e-05	1401.7	395.58	1.2181e-05	1.2339e-05	494.12	176.38	143.19	63.668	1.2428e-05	85.914	226.194	27.606	-23.076	-85.429	-55.475	64.651	-86.354	-80.104	-58.081	40.839	-82.129	-76.337	-74.005	-68.509	-17.486	-71.216	-8191	255	
829.305	1	1	0	0	0.30159	0.21465	0.033527	0.38957	0.18785	0.067199	0.30605	0.025702	0.12761	0.15992	0.15623	0.32132	0.34064	0.3385	0.18041	0.11826	-1.4	-1.5604	-1.1	-2.1542	-1.2354	-1.3479	-2.1708	-1.0875	-1.8771	-1.8292	-1.2062	-2.2062	-1.3021	-1.3667	-1.8167	-1.0875	38.425	127.499	198.914	238.637	-24.147	237.681	170.969	224.540	-52.692	2.251	235.740	211.734	192.978	209.087	-68.811	10.021	0.00031814	0.00080574	0.00022504	1236.5	3.4431e-06	2.6332e-06	1416.4	395.41	2.6561e-06	6.9726e-06	493.21	172.75	140.2	62.765	5.7573e-06	84.802	0.0010813	0.0011459	0.00031933	1226.1	1.2367e-05	1.2494e-05	1404.4	396.54	1.2405e-05	1.2408e-05	492.87	174.84	142.85	63.273	1.2192e-05	84.782	226.940	-39.446	36.606	-85.437	83.653	67.766	-86.377	-80.151	92.420	62.888	-82.149	-76.353	-74.043	-68.452	65.150	-70.898	-8191	255	
829.423	1	1	0	0	0.2534	0.15403	0.42416	0.15969	0.11693	0.14394	0.070285	0.32135	0.28973	0.039372	0.05893	0.17708	0.064567	0.18125	0.32474	0.3388	-1.375	-1.7083	-0.98542	-2.1354	-1.3354	-1.2188	-1.9167	-1.3937	-1.7188	-1.7833	-1.3146	-1.9438	-1.3396	-1.3333	-1.8604	-1.1979	247.588	45.095	-92.803	215.231	228.653	-8.241	121.553	222.066	-71.115	-11.521	102.334	-62.865	18.607	-93.527	-4.835	128.482	0.00028654	0.0006039	0.00012202	1246.8	6.9174e-06	1.0797e-05	1414.6	396.64	3.1696e-06	4.9993e-06	491.9	171.88	139.99	62.297	3.428e-06	83.561	0.001082	0.0011256	0.00031281	1229.6	1.221e-05	1.2365e-05	1401	395.96	1.225e-05	1.2276e-05	490.55	173.41	142.22	62.713	1.2105e-05	83.88	235.682	80.557	59.572	-85.243	47.394	110.501	-86.442	-80.305	38.962	68.654	-82.076	-76.403	-73.963	-68.343	74.462	-71.309	-8191	255	
829.495	1	1	0	0	0.29684	0.30003	0.020508	0.081897	0.06026	0.0039296	0.33833	0.23907	0.29759	0.31568	0.13618	0.099141	0.20538	0.12347	0.44176	0.25053	-1.3979	-1.7396	-1.0063	-2.2021	-1.3375	-1.1771	-2.3167	-1.2812	-1.5104	-1.8646	-1.2563	-2.0312	-1.7938	-1.2167	-2.0104	-1.4875	19.143	164.335	180.856	252.667	131.091	-50.838	161.988	243.474	-55.381	27.385	-77.457	-54.790	257.831	110.601	160.636	168.248	0.00035742	0.00056481	0.00027578	1242.7	4.2486e-06	8.4972e-06	1417.9	394.98	2.3947e-06	4.5793e-06	489.59	171.57	139.12	61.446	1.3539e-06	83.589	0.0010576	0.0011156	0.00030932	1228.5	1.1963e-05	1.1991e-05	1402	393.88	1.1889e-05	1.1873e-05	489.15	172.81	141.08	61.96	1.1609e-05	83.471	222.358	15.773	-7.787	-85.411	66.858	85.610	-86.468	-80.070	21.518	131.563	-82.136	-76.158	-73.925	-68.340	92.748	-71.283	-8191	255	
829.591	1	1	0	0	0.053197	0.18664	0.16631	0.20791	0.0868	0.054977	0.17336	0.23209	0.11933	0.30516	0.084595	0.1717	0.04792	0.25933	0.30394	0.083282	-1.1938	-2.0271	-1.0625	-2.0563	-1.6271	-1.2125	-2.1229	-1.3563	-1.475	-2.0917	-1.3396	-1.9292	-1.8771	-1.4542	-1.9062	-1.6583	-15.165	83.093	8.599	239.641	241.580	182.704	189.627	190.114	21.783	-5.669	93.834	-91.697	80.369	-84.243	25.007	-81.170	0.00027747	0.00081966	0.00025021	1235.4	1.0738e-06	4.7284e-06	1419.6	392.83	4.2207e-06	8.0871e-06	489.61	170.82	139.11	61.614	3.5846e-06	83.724	0.0010206	0.0010645	0.00029518	1222.1	1.1464e-05	1.1664e-05	1402.5	392.6	1.1486e-05	1.149e-05	487.83	172.83	141.09	62.09	1.1562e-05	83.758	226.719	-3.226	1.232	-85.450	-85.691	44.015	-86.418	-80.207	25.325	60.560	-81.992	-76.355	-73.976	-68.223	65.184	-71.094	-8191	255	
829.712	1	1	0	0	0.2092	0.19764	0.18598	0.095565	0.18625	0.042506	0.14767	0.41433	0.25318	0.040557	0.12891	0.3306	0.21088	0.36211	0.22153	0.14008	-1.1833	-1.9146	-1.0167	-2.0042	-1.6479	-1.1562	-2.1521	-1.7125	-1.2667	-1.9479	-1.2042	-1.6708	-1.8896	-1.1458	-1.7417	-1.6562	166.658	123.176	177.228	-40.708	0.430	253.442	164.334	247.497	45.488	230.066	226.831	-85.510	214.317	236.697	-12.686	230.506	0.00027264	0.00069164	0.00014414	1237	5.114e-06	8.8151e-06	1412.9	395.09	2.1037e-06	9.8533e-06	495.19	174.41	141.01	62.852	5.3941e-06	85.248	0.00099994	0.0010564	0.00029438	1223.5	1.167e-05	1.1696e-05	1400.9	395.07	1.1797e-05	1.1959e-05	492.64	175.5	142.88	63.228	1.2087e-05	85.318	226.170	-31.008	53.659	-85.215	14.941	52.316	-86.345	-80.031	44.105	16.250	-81.764	-75.950	-73.869	-68.484	41.085	-71.134	-8191	255	
829.808	1	1	0	0	0.29103	0.141	0.14337	0.11028	0.075247	0.25578	0.16695	0.33411	0.044568	0.062008	0.070342	0.22591	0.12149	0.27918	0.064337	0.33261	-0.81667	-1.8896	-0.91667	-1.8521	-1.7833	-0.93958	-1.9354	-1.6063	-1.0854	-1.8958	-1.1333	-1.3563	-1.9688	-1.1375	-1.8271	-1.8396	123.844	239.792	-9.100	132.789	241.249	194.419	-91.538	221.794	217.604	181.788	175.899	228.011	220.876	202.780	201.500	188.518	0.000282	0.0010099	0.0001307	1232.1	5.1421e-06	1.645e-06	1406.9	394.35	9.6142e-06	1.3988e-06	491.25	172.2	140.56	62.613	9.417e-06	84.084	0.0010417	0.0011001	0.00030837	1220.1	1.1882e-05	1.2054e-05	1394.2	394.83	1.1856e-05	1.1986e-05	490.15	174.15	142.62	63.007	1.1991e-05	84.401	234.585	32.271	19.023	-85.328	45.146	76.299	-86.124	-80.201	50.626	-31.070	-81.628	-76.138	-73.984	-68.388	70.239	-70.968	-8191	255	
829.904	1	1	0	0	0.32797	0.1636	0.15023	0.41097	0.12204	0.38867	0.039703	0.16146	0.21117	0.29832	0.2256	0.12109	0.22425	0.14354	0.18281	0.25685	-0.66458	-2.0062	-1.1	-1.5396	-1.8563	-0.87708	-1.9062	-1.675	-1.2771	-2.0375	-1.4333	-1.4146	-2.0792	-1.3937	-1.5979	-1.9312	24.887	123.971	42.859	232.193	46.875	14.240	46.757	40.154	-47.240	61.051	-49.162	127.768	250.349	134.106	-15.422	203.291	0.00026489	0.00041116	0.00016894	1232.7	3.757e-06	6.1456e-06	1400.5	393.62	5.2559e-06	8.3077e-06	489.95	171.21	139.93	62.013	4.3055e-06	83.8	0.0010315	0.0010959	0.0003029	1217.9	1.1838e-05	1.1908e-05	1390.5	393.45	1.1806e-05	1.197e-05	487.18	173.16	141.85	62.607	1.1707e-05	83.885	229.726	31.249	-29.461	-85.312	70.397	99.441	-86.385	-79.952	18.568	20.576	-81.847	-76.380	-73.938	-68.521	95.353	-71.075	-8191	255	
830.025	1	1	0	0	0.042439	0.12162	0.061354	0.25403	0.077716	0.17959	0.063182	0.099239	0.25106	0.30504	0.19695	0.33276	0.21944	0.10183	0.11226	0.051849	-0.725	-1.6042	-1.2604	-1.275	-2.0938	-1.1	-1.7875	-2.0271	-1.0229	-1.7812	-1.5771	-1.3458	-2.1813	-1.2333	-1.3479	-2.0083	128.587	205.002	94.908	240.560	-51.462	-55.632	95.870	179.010	195.748	-28.674	222.180	237.694	259.595	-86.667	-39.645	-58.315	0.00025819	0.00028239	8.0689e-05	1231.1	3.9756e-06	4.6939e-06	1403.8	391.86	5.0953e-06	7.3223e-06	485.81	171.14	139.6	62.342	3.3358e-06	83.454	0.001013	0.0010536	0.00029736	1213.5	1.1394e-05	1.1546e-05	1384.8	391.64	1.1251e-05	1.1438e-05	485.18	172.81	141.21	62.403	1.123e-05	83.752	209.138	-33.412	64.363	-85.301	-19.462	37.020	-86.424	-80.240	102.776	39.498	-81.862	-75.897	-73.729	-68.222	-34.018	-70.920	-8191	255	
830.096	1	1	0	0	0.25697	0.17636	0.31293	0.25809	0.047551	0.15842	0.16383	0.13716	0.090223	0.074949	0.129	0.14755	0.16857	0.25938	0.29089	0.18597	-0.68958	-1.9729	-1.5729	-1.325	-2.0042	-1.1938	-1.6729	-2.1375	-0.825	-1.7396	-1.6625	-0.98542	-2.0563	-1.3417	-1.3021	-1.9396	11.539	37.955	28.488	244.775	18.279	72.672	192.895	248.876	-85.804	-19.818	-75.239	213.809	237.226	187.828	48.007	-78.157	0.00032696	0.00080864	0.0002104	1224.6	8.2263e-06	5.3786e-06	1402.4	392.08	5.3309e-06	5.6323e-06	490.06	171.77	139.65	62.278	2.1742e-06	84.18	0.0009804	0.0010297	0.00028625	1208.1	1.0976e-05	1.1133e-05	1383.4	390.67	1.0906e-05	1.1007e-05	485.33	172.98	141.4	62.467	1.0857e-05	84.152	220.102	2.249	27.322	-85.020	35.771	6.896	-86.144	-79.853	32.669	37.484	-81.513	-76.105	-73.687	-68.299	24.240	-70.951	-8191	255	
830.193	1	1	0	0	0.44836	0.27805	0.34577	0.13328	0.23561	0.29909	0.19996	0.23709	0.013318	0.024129	0.12648	0.16065	0.21857	0.21187	0.13441	0.39413	-0.85833	-1.4958	-1.6292	-1.0688	-1.8708	-1.2479	-1.525	-1.9937	-1.1667	-1.6167	-1.7271	-1.0146	-2.1625	-1.5312	-1.1229	-2.1292	-5.578	-9.136	76.975	-59.127	46.506	-48.632	178.420	220.775	72.074	131.728	136.170	158.687	156.956	249.817	135.307	211.189	0.00035089	0.00099944	8.4347e-05	1225.9	6.2773e-06	3.9154e-06	1400.4	394.41	2.3204e-06	1.16e-05	492.38	173.76	141.04	62.646	5.8093e-06	84.629	0.0009571	0.00099175	0.00027688	1209.4	1.0962e-05	1.0904e-05	1384.1	392.34	1.0896e-05	1.1105e-05	488.55	174.83	142.61	62.879	1.0898e-05	84.766	215.991	-32.306	1.280	-85.026	60.460	88.560	-85.907	-79.781	139.099	45.988	-81.569	-76.016	-73.897	-68.219	84.161	-70.745	-8191	255	
830.313	1	1	0	0	0.37324	0.041898	0.38409	0.32262	0.19858	0.060751	0.26931	0.23236	0.14492	0.25469	0.293	0.31748	0.32478	0.23331	0.36699	0.21966	-0.88125	-1.4208	-1.7521	-1.0792	-1.9854	-1.8	-1.4021	-2.1208	-1.2354	-1.675	-1.8917	-1.1104	-1.9646	-1.7875	-0.99792	-2.1521	76.651	67.013	-41.738	233.160	-42.098	182.404	191.030	159.147	70.120	17.747	204.531	233.717	236.836	-47.749	161.972	236.348	0.00029116	0.00054617	0.00014184	1226.7	3.985e-06	1.2033e-05	1397.8	394.7	4.6061e-06	5.2629e-06	487.5	172.15	139.48	62.236	6.6526e-06	83.773	0.00095515	0.00099608	0.00027769	1208.8	1.0777e-05	1.0883e-05	1380.8	392.94	1.0899e-05	1.0951e-05	485.81	173.14	141.57	62.485	1.0746e-05	83.758	227.876	-14.961	-8.194	-85.196	112.084	53.692	-85.829	-79.697	78.453	31.659	-81.464	-76.015	-73.796	-68.109	9.543	-70.625	-8191	255	
830.408	1	1	0	0	0.25207	0.24558	0.3447	0.06034	0.21234	0.18433	0.12311	0.26851	0.088567	0.13815	0.17688	0.17607	0.26092	0.31518	0.12718	0.14898	-0.78125	-1.3875	-1.825	-1.0854	-1.6833	-1.6396	-1.1583	-2.1125	-1.2146	-1.3333	-1.975	-1.2437	-1.7979	-1.7146	-0.95417	-2.2208	-37.972	-43.234	102.630	236.371	-85.551	60.159	102.336	240.534	-7.046	182.256	236.253	183.868	228.397	239.331	141.918	215.674	0.00025593	0.0011646	0.00016454	1223.9	1.0493e-05	6.8366e-06	1398.9	393.01	6.674e-06	1.0734e-05	487.25	171.61	138.97	61.658	2.912e-06	83.289	0.00094554	0.00098085	0.00027401	1207.1	1.0691e-05	1.0705e-05	1378.5	390.95	1.0608e-05	1.0521e-05	482.78	172.01	141.08	61.985	1.0257e-05	83.111	229.893	10.708	29.987	-84.989	11.307	65.192	-85.999	-79.617	11.443	102.703	-81.853	-75.897	-73.570	-68.169	100.041	-70.643	-8191	255	
830.504	1	1	0	0	0.10889	0.21264	0.23265	0.23741	0.16668	0.38852	0.11253	0.31079	0.14863	0.16117	0.16486	0.40039	0.20243	0.20579	0.20542	0.18457	-0.90417	-1.2604	-1.9542	-1.1938	-1.7167	-1.6521	-1.0708	-2.225	-1.2667	-1.1354	-2.175	-1.2729	-1.5854	-1.8167	-1.1542	-2.0687	191.868	233.419	142.151	123.889	126.514	162.781	199.548	237.542	207.699	-63.774	158.583	157.705	180.686	-61.252	154.897	201.712	0.00028349	0.00075494	0.00016248	1224.9	3.8973e-06	6.2547e-06	1393.3	393.15	3.0768e-06	1.3993e-05	486.66	170.97	138.96	61.474	8.1056e-06	83.338	0.00090331	0.00095565	0.00026483	1203.7	1.0297e-05	1.0253e-05	1374.5	390.41	1.0237e-05	1.0185e-05	482.69	171.65	140.36	61.701	1.0085e-05	83.061	227.960	-14.928	-69.130	-85.062	-0.062	79.000	-85.999	-79.575	35.886	76.262	-81.359	-75.870	-73.760	-68.098	75.898	-70.621	-8191	255	
830.600	1	1	0	0	0.056428	0.09783	0.1016	0.10338	0.12509	0.22813	0.19352	0.33669	0.1491	0.1682	0.16882	0.16012	0.15497	0.19201	0.17471	0.28329	-1.1146	-1.1375	-1.975	-1.6	-1.3833	-2.1229	-1.1979	-1.9958	-1.4229	-1.025	-2.1125	-1.525	-1.4292	-2.1042	-1.1042	-1.9562	-56.508	211.007	63.177	35.676	40.934	98.487	196.214	229.637	223.468	-16.285	179.627	-55.569	166.353	233.807	121.017	171.106	0.00028634	0.0008242	0.00022549	1224.3	6.9895e-06	4.7996e-06	1397	393.99	6.223e-06	2.9288e-06	489.33	171.22	139.53	61.623	8.9552e-06	83.625	0.00090287	0.00093843	0.00026052	1204.9	1.0175e-05	1.0181e-05	1379.6	390.61	1.0042e-05	1.0236e-05	485	172.32	140.78	61.792	1.0117e-05	83.38	240.537	2.021	-3.711	-85.124	40.906	36.669	-86.146	-79.633	61.331	48.817	-81.247	-75.748	-73.679	-68.024	64.714	-70.600	-8191	255	
830.721	1	1	0	0	0.088859	0.13364	0.10584	0.31732	0.367	0.20479	0.10627	0.15805	0.094743	0.25393	0.16623	0.23807	0.46821	0.056845	0.20224	0.13219	-1.2625	-1.1458	-1.9333	-1.4688	-1.45	-1.9917	-1.3146	-1.9021	-1.5812	-1.0979	-2.0896	-1.5167	-1.225	-2.0708	-1.0271	-1.6125	4.496	164.934	166.377	246.972	191.282	143.918	81.125	209.288	60.136	106.968	108.816	253.529	256.199	231.457	118.455	225.139	0.00026582	0.0011365	0.00011433	1229.2	5.9034e-06	1.7126e-05	1402.6	394.48	5.639e-07	9.3919e-06	490.55	173.14	139.72	62.232	5.6195e-06	84.794	0.00090116	0.0009284	0.00025933	1209.3	1.0093e-05	1.0291e-05	1384.3	391.68	1.0424e-05	1.028e-05	487.59	173.87	141.56	62.452	1.0432e-05	84.316	223.819	-25.024	-3.160	-84.968	53.511	67.636	-86.104	-79.983	204.759	95.757	-81.557	-75.837	-73.815	-68.141	77.269	-70.430	-8191	255	
830.792	1	1	0	0	0.13165	0.24161	0.14634	0.1486	0.26229	0.13544	0.36501	0.18493	0.038865	0.13306	0.15067	0.19854	0.28143	0.35319	0.16477	0.29402	-1.3729	-1.0146	-1.8937	-1.5354	-1.1458	-1.8813	-1.4854	-1.7375	-1.8813	-1.0375	-2.0229	-1.6437	-1.2146	-2.0563	-1.1542	-1.4979	84.047	-16.137	-9.906	-4.720	191.322	25.411	262.103	194.135	117.061	68.814	194.467	222.068	-90.872	251.136	159.483	211.587	0.0002226	0.00081939	0.00026635	1225.5	8.6776e-06	7.5349e-06	1399.5	395	4.7298e-06	3.8072e-06	488.43	172.29	140.09	62.035	9.5498e-07	83.86	0.00092158	0.00095853	0.00026959	1208.2	1.0559e-05	1.0587e-05	1380.5	393.08	1.0519e-05	1.0656e-05	486.56	173.11	141.47	62.249	1.0806e-05	83.606	235.610	-44.268	6.252	-84.997	33.181	42.964	-86.135	-79.698	65.755	-24.818	-81.414	-75.962	-73.710	-68.303	-94.368	-70.845	-8191	255	
830.888	1	1	0	0	0.043533	0.24284	0.17451	0.25532	0.097805	0.1863	0.2075	0.097837	0.32987	0.42315	0.077089	0.18077	0.012209	0.28323	0.057368	0.19485	-1.3521	-1.0542	-1.7417	-1.8229	-0.9875	-1.9271	-1.3937	-1.4312	-1.9937	-1.1688	-1.8625	-1.6708	-1.1729	-2.1312	-1.1646	-1.5771	-2.523	194.531	-34.751	200.186	-15.687	112.195	52.271	-93.434	-38.978	142.451	-50.688	-73.152	61.249	233.323	48.681	231.844	0.00036172	0.00049035	0.00021477	1224.9	5.8803e-06	5.6211e-06	1398.8	393.86	9.1501e-06	5.082e-06	490.1	171.16	139.67	62.221	9.7604e-07	83.785	0.00093732	0.0009946	0.00027525	1209	1.0638e-05	1.0898e-05	1379.9	393.21	1.0792e-05	1.1065e-05	486.35	172.29	141.76	62.433	1.1008e-05	83.666	230.047	4.241	-18.176	-85.078	25.681	112.324	-86.052	-79.638	-5.521	15.025	-81.427	-76.010	-73.582	-67.921	165.333	-70.675	-8191	255	
830.985	1	1	0	0	0.042659	0.15366	0.12405	0.099312	0.10257	0.24301	0.045331	0.088997	0.26689	0.084132	0.15823	0.27285	0.050581	0.066604	0.12695	0.25147	-1.6875	-1.1292	-1.5583	-1.6625	-1.0604	-1.8687	-1.6979	-1.5	-1.9458	-1.1604	-1.7042	-1.9146	-1.1792	-2.0604	-1.4208	-1.2542	15.587	13.731	257.548	-55.664	240.062	140.706	110.546	237.271	47.818	2.727	97.157	180.956	231.892	-71.750	160.215	-61.987	0.00025705	0.0011324	0.00012823	1222.6	6.1961e-06	8.9298e-06	1392.9	395.28	5.5329e-06	1.4381e-07	489.04	172.56	139.84	62.48	7.4004e-06	83.76	0.00096481	0.001008	0.00028139	1208.2	1.0925e-05	1.1138e-05	1376.9	393.28	1.0839e-05	1.0947e-05	486.67	173.02	141.59	62.489	1.0817e-05	83.914	214.146	3.096	5.810	-84.887	74.810	37.436	-85.997	-79.414	21.467	36.101	-81.202	-75.859	-73.520	-67.994	66.029	-70.704	-8191	255	
831.105	1	1	0	0	0.035907	0.23813	0.14593	0.47519	0.11385	0.12975	0.18783	0.31767	0.23491	0.12126	0.093643	0.16881	0.19896	0.17594	0.28235	0.10558	-1.6938	-1.0896	-1.5875	-2.0187	-0.99375	-2.0938	-1.725	-1.2896	-2.0875	-1.3312	-1.5771	-1.9813	-1.1354	-2.0042	-1.6313	-1.1708	192.920	-55.427	91.307	-89.779	0.392	249.408	213.782	220.629	164.522	79.170	229.576	132.833	220.886	241.872	227.652	1.963	0.00028483	0.00037069	0.00011573	1222.8	3.496e-06	5.1645e-06	1399.6	394.3	1.7084e-06	1.0833e-05	491.28	172.26	140.15	62.485	8.1002e-06	84.435	0.00094698	0.0010003	0.00027612	1203.4	1.0725e-05	1.089e-05	1378.6	392.09	1.073e-05	1.0951e-05	487.56	173.52	141.57	62.541	1.0794e-05	84.22	224.756	-18.256	-28.490	-85.006	80.236	160.935	-85.998	-79.717	87.206	86.373	-81.214	-75.861	-73.318	-67.900	64.111	-70.622	-8191	255	
831.200	1	1	0	0	0.089616	0.087317	0.34825	0.21536	0.17931	0.14391	0.37244	0.29623	0.1612	0.031707	0.084469	0.12602	0.10091	0.17116	0.18884	0.17241	-1.4146	-1.1688	-1.25	-2.0938	-1.1979	-1.7313	-2.0563	-1.2958	-2.0542	-1.2979	-1.4583	-2.1771	-1.4042	-1.9021	-1.6333	-1.2625	-65.900	151.481	184.317	85.900	70.924	103.473	103.282	207.679	-19.513	-96.948	69.010	193.924	-53.285	-52.253	156.721	0.497	0.00031608	0.00065293	0.00015103	1224.4	2.5822e-06	3.3261e-06	1391	396.7	4.2104e-06	6.7725e-06	494.37	174.37	140.46	63.142	3.6082e-06	85.615	0.00094175	0.00098894	0.00027585	1207.4	1.0739e-05	1.0912e-05	1378.4	394.11	1.0787e-05	1.1007e-05	490.39	175.21	142.53	63.223	1.1031e-05	85.198	227.002	-90.282	-60.459	-84.812	111.413	107.043	-86.053	-79.402	55.534	54.641	-81.447	-76.053	-73.543	-67.671	38.426	-70.672	-8191	255	
831.296	1	1	0	0	0.18288	0.45186	0.19848	0.19825	0.23494	0.15984	0.28738	0.21596	0.29052	0.48853	0.048419	0.14256	0.20845	0.20821	0.28427	0.1923	-1.3833	-1.1708	-1.2625	-2.1396	-1.3375	-1.6792	-2.0271	-1.1917	-1.9417	-1.4458	-1.2667	-2.0812	-1.0854	-1.65	-1.7708	-1.0208	167.084	83.852	70.186	106.158	210.374	214.591	213.400	240.019	91.585	-20.830	-22.367	41.400	66.879	239.908	95.481	238.077	0.00035004	0.00096354	0.00020825	1222.9	7.3454e-06	7.4196e-07	1400.7	394.75	5.7103e-06	1.3902e-05	491.72	173.44	141.68	62.572	6.2309e-06	84.249	0.00096967	0.0010148	0.00028451	1206.3	1.1056e-05	1.1012e-05	1380.1	394.58	1.0991e-05	1.1096e-05	489.53	174.38	142.72	62.821	1.0885e-05	84.139	218.939	12.822	-7.682	-84.921	102.192	78.305	-86.141	-79.432	1.302	74.096	-81.206	-75.989	-73.733	-67.963	95.981	-70.920	-8191	255	
831.394	1	1	0	0	0.030783	0.029926	0.10564	0.20068	0.24689	0.17891	0.018176	0.026274	0.14063	0.20929	0.18779	0.15448	0.20217	0.17531	0.10021	0.4658	-1.4646	-1.5396	-1.1667	-2.1063	-1.2062	-1.45	-1.8312	-1.0562	-1.8875	-1.8729	-1.2292	-2.2042	-1.4688	-1.3854	-1.8354	-1.1708	154.729	215.150	195.666	-97.342	261.787	204.713	142.275	215.150	-48.922	127.445	18.204	147.678	256.690	-60.783	216.195	233.047	0.00027062	0.0011061	0.00016931	1219.5	4.112e-06	6.819e-06	1397.7	392.14	4.1431e-06	6.0689e-06	487.27	171.21	139.5	62.118	9.3174e-06	83.611	0.00095087	0.00098772	0.00027281	1206	1.0698e-05	1.0716e-05	1377.9	391.59	1.0669e-05	1.0737e-05	485.14	172.66	141.4	62.221	1.0459e-05	83.289	226.332	-7.439	42.507	-84.801	212.425	49.241	-86.118	-79.711	-52.064	134.502	-81.534	-75.858	-73.855	-68.159	45.769	-70.600	-8191	255	
831.488	1	1	0	0	0.15649	0.070944	0.41576	0.31693	0.26926	0.073456	0.45331	0.227	0.24033	0.21562	0.055022	0.14983	0.22685	0.26926	0.058716	0.030909	-1.5083	-1.5542	-1.0042	-2.1562	-1.1437	-1.2583	-2.1646	-1.3083	-1.6458	-1.725	-1.1688	-1.8583	-1.5958	-1.3958	-2.0333	-1.3438	239.925	106.391	81.466	182.342	214.148	194.277	172.999	148.415	-8.598	-94.960	133.184	-28.902	248.036	-39.990	152.391	-47.678	0.00035497	0.00046269	0.00031134	1223.8	6.9284e-06	6.5417e-06	1388.3	392.69	6.9353e-06	8.2355e-06	489.82	172.23	139.61	61.954	7.6166e-06	83.759	0.00092241	0.00095109	0.00026536	1203.6	1.0479e-05	1.0291e-05	1372.6	390.65	1.0175e-05	1.03e-05	484.48	172.89	140.84	62.009	1.01e-05	83.358	229.321	-31.686	-47.519	-84.941	50.007	-16.040	-86.026	-79.756	1.032	48.955	-81.632	-76.201	-73.745	-68.078	51.517	-70.842	-8191	255	
831.584	1	1	0	0	0.32127	0.15976	0.16419	0.11781	0.18101	0.13843	0.35846	0.27957	0.37335	0.12262	0.069038	0.2118	0.30989	0.14957	0.032152	0.19629	-1.275	-1.7917	-0.73542	-1.9896	-1.475	-1.1021	-2.0687	-1.1313	-1.5104	-1.7833	-1.3396	-2.1271	-1.5979	-1.3771	-1.9417	-1.4417	70.368	-57.001	179.565	224.929	-4.855	239.601	225.031	211.443	13.401	77.222	151.111	-44.547	15.858	237.009	-84.111	-46.041	0.00022698	0.00058865	0.00011165	1220.1	5.1949e-06	2.5004e-06	1392.5	392.46	4.5125e-06	8.2544e-06	491.94	172.57	140.24	61.735	2.6316e-06	83.819	0.00088087	0.00091828	0.00025299	1201.2	9.9312e-06	1.0032e-05	1373.1	389.8	9.9797e-06	9.9745e-06	485.44	172.96	141.03	61.806	9.8141e-06	83.432	225.989	11.803	-0.997	-85.071	80.847	63.046	-86.025	-79.883	40.949	79.410	-81.216	-75.801	-73.411	-67.977	145.949	-70.568	-8191	255	
831.705	1	1	0	0	0.16999	0.35737	0.078704	0.22853	0.034279	0.15103	0.22289	0.31193	0.2476	0.22808	0.13396	0.26301	0.19137	0.14423	0.2621	0.10573	-1.1854	-1.8021	-1.175	-1.8583	-1.6917	-1.3875	-2.1937	-1.4333	-1.2792	-2.0146	-1.1938	-1.7979	-1.8375	-1.1562	-1.8687	-1.2687	173.090	101.665	7.839	241.265	54.125	232.356	19.757	-95.062	29.305	13.160	-33.734	240.856	242.744	-49.330	114.868	171.216	0.00022982	0.00066316	0.00013476	1218.3	2.6461e-06	6.8456e-06	1400.9	393	4.1642e-06	1.078e-05	491.92	174.07	139.78	62.299	4.0419e-06	84.165	0.00086155	0.00089671	0.00025118	1202.3	9.7882e-06	9.8473e-06	1379.2	391.51	9.913e-06	9.9886e-06	486.48	174.16	141.39	62.243	9.8538e-06	83.872	224.335	-29.451	24.479	-84.905	-19.963	57.902	-85.970	-79.734	43.395	43.951	-81.325	-75.725	-73.613	-67.994	26.342	-70.635	-8191	255	
831.801	1	1	0	0	0.20602	0.14913	0.090466	0.27866	0.066261	0.077371	0.17145	0.085592	0.062179	0.20373	0.10821	0.37895	0.090615	0.33005	0.23474	0.20485	-0.7375	-1.9208	-1.0667	-1.7563	-1.725	-0.93333	-2.1146	-1.4	-1.2125	-1.7938	-1.3229	-1.6854	-1.825	-1.1167	-1.8958	-1.6208	19.140	17.793	138.628	251.858	183.517	-55.861	227.305	218.374	25.976	23.828	169.810	239.971	183.026	259.627	130.462	165.058	0.0002027	0.00087701	7.8572e-05	1219.3	9.5559e-06	1.1367e-05	1393.4	392.23	4.3721e-06	9.1081e-06	489.25	171.73	139.08	61.926	1.0779e-05	83.71	0.00087589	0.00090946	0.00025406	1201.4	1.0004e-05	1.0117e-05	1375.4	390.75	9.9943e-06	1.0058e-05	485.19	172.66	140.86	62.016	1.0054e-05	83.401	235.732	7.608	217.895	-84.770	131.959	88.776	-85.788	-79.784	23.752	18.478	-81.284	-75.660	-73.719	-67.960	134.143	-70.742	-8191	255	
831.897	1	1	0	0	0.23957	0.019537	0.34296	0.12145	0.081278	0.46168	0.17116	0.22985	0.16029	0.22905	0.19706	0.047009	0.37521	0.047245	0.11299	0.093985	-0.88333	-1.9021	-1.0104	-1.7062	-1.9438	-1.0438	-1.9312	-1.5479	-1.0292	-1.8604	-1.125	-1.5854	-2.0292	-1.15	-1.6708	-1.6792	164.679	-9.140	92.914	-13.549	-87.807	171.964	-91.729	90.999	-56.777	212.496	196.387	154.987	245.202	251.103	-13.325	214.650	0.00022658	0.00084334	0.0002453	1220.3	3.376e-06	9.7794e-06	1396.3	391.19	3.2327e-06	8.7642e-06	487.56	171	139.64	61.657	1.9663e-06	83.646	0.0008743	0.00091108	0.00025597	1200.6	9.7841e-06	9.9684e-06	1371.9	389.6	9.8701e-06	9.8523e-06	482.13	171.79	140.52	61.659	9.8619e-06	82.993	235.251	-68.632	14.340	-84.839	97.106	105.601	-85.848	-79.665	35.177	40.130	-81.572	-75.760	-73.650	-68.348	60.430	-70.619	-8191	255	
831.993	1	1	0	0	0.19794	0.15737	0.039543	0.21339	0.21644	0.18925	0.55875	0.26787	0.14011	0.19592	0.015786	0.40282	0.31968	0.36817	0.15845	0.299	-0.83125	-1.9167	-1.3438	-1.4062	-1.8312	-1.1187	-1.8375	-1.8	-1.0083	-2.0312	-1.5667	-1.2896	-2.0417	-1.3167	-1.5458	-2	-57.617	-38.268	-50.813	-74.392	258.626	-20.851	195.438	-83.398	50.979	-48.262	46.978	172.289	-95.262	257.595	205.974	229.944	0.0002392	0.00069248	0.00028586	1215.3	3.2165e-06	2.3853e-06	1387.1	390.49	2.6606e-06	1.0403e-05	486.29	170.78	138.85	61.853	3.1896e-06	83.264	0.00086553	0.00090371	0.00024835	1197.3	9.7217e-06	9.7556e-06	1368.1	389.4	9.6401e-06	9.7448e-06	482.44	172.12	140.83	61.784	9.7285e-06	83.156	218.256	-38.629	24.436	-85.508	40.672	-89.128	-86.384	-80.289	-45.010	149.784	-82.250	-76.365	-74.211	-68.824	83.751	-71.498	-8191	255	
832.089	1	1	0	0	0.20782	0.28234	0.16662	0.065554	0.13647	0.20516	0.064013	0.14171	0.16114	0.073577	0.19123	0.15042	0.079613	0.20118	0.11371	0.38778	-0.62292	-1.9583	-1.3521	-1.3687	-1.7521	-1.2771	-1.8208	-2.1188	-1.1167	-1.9583	-1.6292	-1.0958	-1.9917	-1.1187	-1.4771	-1.8917	-46.507	11.117	-18.499	29.842	-89.588	48.583	-14.291	132.946	27.648	152.827	221.011	-46.693	31.611	-83.189	-92.125	210.858	0.00022074	0.00060085	0.00011761	1218	3.8613e-06	2.5074e-06	1390.5	391.3	4.6825e-06	1.1233e-05	487.32	172.71	139.34	62.098	2.7345e-06	84.414	0.00085033	0.00088562	0.00024603	1196.9	9.6453e-06	9.7282e-06	1369.2	389.22	9.5325e-06	9.7635e-06	483.25	173.12	140.87	61.933	9.6589e-06	83.78	225.836	-13.777	58.128	-85.443	60.707	91.669	-86.484	-80.324	53.102	64.221	-82.179	-76.353	-74.103	-68.831	69.337	-71.576	-8191	255	
832.186	1	1	0	0	0.16134	0.23793	0.040272	0.054005	0.27676	0.15553	0.36136	0.26425	0.056326	0.11652	0.21703	0.18725	0.065568	0.19119	0.13342	0.23919	-0.63542	-1.7625	-1.5792	-1.3458	-2.0167	-1.2229	-1.3646	-1.8771	-1.1458	-1.6938	-1.8042	-1.2771	-2.1625	-1.5229	-1.2833	-2.1104	59.004	-70.212	62.104	32.441	176.683	36.289	259.846	244.302	105.127	208.613	-63.172	-91.495	139.650	148.990	141.657	178.913	0.00021032	0.00020763	0.00033691	1214.1	8.1359e-06	6.4081e-06	1392.6	392.83	8.7974e-07	4.2188e-06	489.54	173.13	140.83	62.369	6.0515e-06	85.007	0.00083991	0.00088285	0.00024631	1195.6	9.5609e-06	9.6773e-06	1372	390.7	9.7795e-06	9.8252e-06	485.39	174.03	141.83	62.358	9.862e-06	84.427	215.596	-75.859	13.115	-85.561	-15.613	64.566	-86.475	-80.211	-39.022	-94.864	-81.975	-76.421	-74.299	-68.653	6.935	-71.405	-8191	255	
832.280	1	1	0	0	0.1193	0.070632	0.2388	0.30435	0.18086	0.1434	0.37999	0.33435	0.32585	0.038141	0.20573	0.22498	0.075159	0.41044	0.3394	0.41513	-0.71667	-1.4937	-1.5688	-1.2812	-1.9146	-1.2188	-1.6271	-2.0896	-0.93125	-1.7167	-1.95	-1.2625	-1.8792	-1.3625	-1.1604	-2.0583	195.903	179.762	160.899	-52.844	-95.185	124.245	227.003	-49.283	-84.278	11.573	252.485	214.594	85.326	249.222	250.353	196.077	0.00027326	0.00035206	0.00026139	1218	8.5838e-06	7.3172e-06	1386.8	393.7	3.528e-06	5.5194e-06	488.47	172.27	141.24	62.501	7.6012e-06	84.386	0.00086864	0.00091246	0.00025323	1198.9	9.8935e-06	1.0063e-05	1369.2	391.68	9.8557e-06	1.0059e-05	485.12	173.3	142.18	62.735	1.002e-05	84.148	236.444	-59.556	13.607	-85.695	29.924	37.009	-86.457	-80.234	86.608	90.038	-81.862	-76.416	-74.293	-68.634	66.709	-71.374	-8191	255	
832.401	1	1	0	0	0.1282	0.17761	0.11356	0.10502	0.14073	0.40951	0.14668	0.22225	0.23802	0.1316	0.2016	0.09148	0.38153	0.37206	0.34739	0.4046	-0.86875	-1.4417	-1.8521	-1.0604	-1.8354	-1.4688	-1.2104	-2.1354	-1.1104	-1.525	-1.9271	-1.1292	-1.8813	-1.8479	-1.0292	-1.9625	64.421	199.815	-71.504	91.895	-58.561	-16.570	257.492	199.591	113.043	-0.230	230.149	222.424	188.175	228.831	135.564	181.480	0.00026611	0.00093571	0.00020421	1215.6	8.3462e-06	4.7663e-06	1385.5	393.59	4.2557e-06	6.6434e-06	486.3	172.69	140.93	62.361	4.0337e-06	84.474	0.00087986	0.00091299	0.00025457	1196.2	9.9229e-06	9.9953e-06	1362.9	391.21	9.9703e-06	1.0105e-05	482.71	173.31	142.21	62.582	1.0038e-05	84.293	229.853	-10.084	-4.466	-85.518	35.831	52.501	-86.694	-80.187	69.914	89.563	-81.904	-76.403	-73.962	-68.786	-10.581	-71.339	-8191	255	
832.497	1	1	0	0	0.18152	0.23685	0.10507	0.2484	0.18887	0.19764	0.30486	0.21159	0.17167	0.090354	0.19081	0.049076	0.20566	0.11741	0.049993	0.21864	-0.7125	-1.2687	-1.8604	-1.0562	-1.75	-1.4479	-1.1833	-1.9208	-1.425	-1.5042	-2.0083	-1.2271	-1.9062	-1.9271	-1.0042	-1.9917	122.094	81.142	88.936	240.266	-75.509	96.676	229.559	178.067	189.486	256.085	-39.372	173.902	204.220	-96.881	58.755	-95.001	0.00027158	0.0012095	0.00011809	1214.2	1.396e-06	7.1303e-06	1388.3	392.25	3.0852e-06	7.5653e-06	489.3	174.22	141.1	62.611	3.5057e-06	85.364	0.00088734	0.00091137	0.00025538	1195.6	9.9199e-06	1.0002e-05	1361.4	390.44	9.7097e-06	9.9269e-06	483.15	174.22	142.14	62.659	9.8333e-06	84.865	221.646	-13.238	14.452	-85.575	95.838	109.674	-86.488	-79.968	55.245	23.676	-81.681	-76.595	-74.046	-68.617	107.704	-71.204	-8191	255	
832.593	1	1	0	0	0.25032	0.28375	0.36776	0.11384	0.23388	0.078573	0.21423	0.098078	0.093627	0.074777	0.33288	0.30005	0.21785	0.2494	0.19748	0.46566	-0.89792	-1.1667	-1.8979	-1.2229	-1.5729	-1.6917	-1.0792	-2.0729	-1.4583	-1.1833	-2.1646	-1.2583	-1.6604	-2.1688	-1.0021	-1.8896	-52.151	-26.741	52.925	189.357	186.553	39.659	196.279	136.373	154.866	-41.129	-80.440	205.268	187.276	217.229	48.569	171.552	0.00030449	0.00057118	0.00021386	1209.1	3.6829e-06	1.0103e-05	1388.5	392.6	5.4683e-06	9.3233e-06	489.47	174.76	141.71	62.494	5.0797e-06	85.45	0.00086267	0.00089422	0.00024716	1191	9.5571e-06	9.6193e-06	1362	390.83	9.5933e-06	9.415e-06	485.29	174.92	142.37	62.714	9.4732e-06	84.947	227.507	-28.075	-24.370	-85.377	21.971	94.124	-86.334	-80.148	16.908	43.982	-81.890	-76.338	-74.055	-68.630	100.789	-70.930	-8191	255	
832.665	1	1	0	0	0.15136	0.35449	0.054918	0.13712	0.13127	0.16779	0.57041	0.1527	0.14122	0.20644	0.22989	0.12029	0.16363	0.38044	0.036163	0.1443	-1.3687	-1.1917	-2.0542	-1.4833	-1.1896	-1.9417	-1.2333	-1.7458	-1.6771	-1.0375	-1.9813	-1.6063	-1.4417	-1.9583	-1.0708	-1.9021	-15.882	217.995	103.327	-93.839	-60.760	83.388	181.520	-73.332	-44.180	-75.987	249.970	-72.630	151.316	207.398	200.495	-85.740	0.00029226	0.00040873	3.1646e-05	1211.2	6.1934e-06	5.6851e-06	1386	391.81	2.0148e-06	3.5825e-06	490.21	173.41	140.92	62.268	6.8061e-06	84.604	0.00083562	0.00084857	0.00023539	1191.6	9.1259e-06	9.0386e-06	1364.4	389.94	8.9977e-06	8.9811e-06	484.14	174.09	141.56	62.177	8.9823e-06	84.239	224.760	-3.156	4.156	-85.287	5.188	62.023	-86.110	-79.731	70.118	191.299	-81.533	-75.958	-73.910	-68.333	54.664	-70.826	-8191	255	
832.785	1	1	0	0	0.12612	0.26687	0.13463	0.2273	0.30274	0.17667	0.35497	0.10789	0.26518	0.34582	0.23665	0.1867	0.14912	0.18838	0.22545	0.15542	-1.4354	-0.81042	-1.8958	-1.4333	-1.3708	-1.9937	-1.2625	-1.8687	-1.6021	-0.89375	-2.025	-1.6125	-1.3146	-2.0917	-1.05	-1.5354	220.679	-33.796	-6.014	202.714	166.908	183.899	200.988	243.529	228.946	194.204	131.024	143.715	-52.616	223.192	-91.526	52.765	0.00029893	0.00065373	0.00018897	1215.2	2.9228e-06	6.4922e-06	1387.9	392.24	4.5227e-06	6.5625e-06	485.68	172.95	140.7	62.034	5.5148e-06	84.332	0.00079957	0.00081828	0.0002285	1194.1	9.114e-06	9.0664e-06	1361	389.38	9.0092e-06	8.9949e-06	481.26	172.96	141.17	62.06	9.0812e-06	83.719	236.070	4.911	-36.452	-85.353	-17.475	26.511	-86.617	-80.021	59.972	16.549	-81.702	-76.433	-74.152	-68.529	40.107	-70.862	-8191	255	
832.881	1	1	0	0	0.13274	0.060788	0.06398	0.16866	0.14259	0.2317	0.45474	0.36914	0.11629	0.086304	0.21434	0.15829	0.2594	0.28338	0.0384	0.22356	-1.3229	-0.85	-1.8979	-1.7062	-1.1688	-1.9271	-1.2146	-1.5958	-1.8792	-1.0375	-1.9125	-1.5646	-1.1271	-2.1854	-1.0958	-1.3458	108.921	139.963	143.063	-37.864	79.788	-87.633	186.742	171.258	46.022	55.797	204.061	-97.657	211.519	-94.030	-41.428	259.816	0.00031332	0.00058656	0.0002022	1211.1	2.6486e-06	1.0191e-05	1384.2	392.88	2.2048e-06	2.3448e-06	486.32	171.93	140.48	62.025	1.0444e-05	84.298	0.00080753	0.00083107	0.00023316	1193.5	9.0332e-06	9.2025e-06	1362.9	390.08	8.9742e-06	9.1709e-06	482.2	172.76	141.2	62.028	9.2811e-06	83.935	230.298	-30.497	-13.686	-85.545	85.833	47.424	-86.495	-79.948	-15.119	65.891	-81.497	-76.445	-74.009	-68.432	27.036	-71.116	-8191	255	
832.977	1	1	0	0	0.2316	0.30913	0.23442	0.53583	0.086867	0.083772	0.27312	0.20238	0.14417	0.21262	0.37083	0.18104	0.13198	0.27363	0.13294	0.082605	-1.6313	-1.0771	-1.7792	-1.7437	-1.0771	-1.9104	-1.3729	-1.3208	-2.0292	-1.0854	-1.65	-1.7354	-0.95833	-2.0438	-1.2563	-1.4438	22.048	204.531	54.097	227.856	69.001	120.803	207.642	217.422	46.185	-74.897	228.640	196.579	-73.894	-84.084	105.246	169.719	0.00027546	0.00060632	0.00024618	1214.8	5.7394e-06	2.729e-06	1383.8	393.61	4.9832e-06	1.3105e-05	491.1	173.31	140.77	62.269	4.6644e-06	85.056	0.0008225	0.00084486	0.0002381	1196.3	9.2159e-06	9.2704e-06	1365.9	391.01	9.2356e-06	9.3586e-06	485.01	173.92	141.39	62.301	9.4262e-06	84.523	207.358	15.483	-40.233	-85.616	6.491	14.686	-86.398	-79.978	75.215	29.722	-81.574	-76.243	-74.245	-68.479	42.400	-70.822	-8191	255	
833.074	1	1	0	0	0.265	0.052658	0.24354	0.15434	0.050144	0.13095	0.30255	0.22733	0.20573	0.43768	0.051289	0.23044	0.19884	0.3165	0.19273	0.13789	-1.4438	-0.96667	-1.55	-1.9562	-0.88542	-1.9583	-1.7375	-1.6021	-2.0125	-1.1542	-1.6896	-1.8021	-1.0375	-2.175	-1.3771	-1.2938	-26.069	9.264	-91.241	241.778	137.155	206.227	185.140	-61.467	84.856	103.943	232.360	256.578	210.192	240.151	25.325	19.003	0.00025325	0.00077393	0.00033492	1213.4	3.6947e-06	1.1513e-06	1393.2	394.49	4.6225e-06	5.5599e-06	491.94	173.75	141.04	61.969	4.4847e-06	85.131	0.00081743	0.00085394	0.00023805	1196.7	9.2996e-06	9.2637e-06	1370	392.03	9.1274e-06	9.2599e-06	486.28	174.59	141.8	62.245	9.2078e-06	84.659	226.277	-0.688	20.554	-85.442	85.546	57.049	-86.340	-79.831	33.287	80.534	-81.954	-76.174	-74.294	-68.563	58.566	-70.926	-8191	255	
833.192	1	1	0	0	0.10552	0.044729	0.11084	0.36541	0.19567	0.039552	0.076123	0.31845	0.22414	0.16102	0.24849	0.12665	0.38216	0.097563	0.10696	0.053782	-1.6833	-1.0354	-1.4667	-2.0458	-1.1229	-1.9583	-1.6792	-1.2708	-1.8625	-1.1625	-1.4771	-1.975	-1.4354	-1.9167	-1.625	-1.1958	244.042	238.985	-73.703	223.856	-65.210	47.534	191.060	-96.855	184.299	-16.050	243.721	179.113	187.884	-64.130	109.753	249.486	0.0003073	0.00045569	0.00013799	1221.1	8.403e-06	7.0858e-06	1402	392.91	1.6325e-06	6.007e-06	491.67	174.16	139.93	62.114	3.4588e-06	84.386	0.00081153	0.00083536	0.00023296	1199.9	9.0795e-06	9.0004e-06	1374	390.83	8.8958e-06	8.9447e-06	485.85	174.35	140.9	61.937	8.8555e-06	84.099	236.385	-39.701	-16.812	-85.227	46.365	66.662	-86.320	-79.980	-40.886	79.330	-81.902	-76.314	-74.314	-68.421	63.511	-70.983	-8191	255	
833.266	1	1	0	0	0.08363	0.054146	0.22758	0.46744	0.15278	0.069009	0.2657	0.41796	0.10579	0.25141	0.23144	0.21736	0.19688	0.28558	0.053484	0.021408	-1.6063	-1.1208	-1.4562	-2.2417	-1.1458	-1.6375	-1.8687	-1.1479	-2.0312	-1.6125	-1.4708	-2.1458	-1.1917	-1.6771	-1.6313	-1.3479	99.177	-78.382	162.975	-80.816	85.508	115.412	240.385	205.545	212.597	7.853	-94.779	213.929	214.413	235.110	196.034	209.042	0.0002054	0.00067733	0.0002373	1223.1	5.6093e-06	4.9738e-06	1390	393.65	1.3767e-06	3.7279e-06	488.47	172.12	140.24	61.92	3.4441e-06	84.235	0.00079327	0.00083234	0.00022921	1200.2	9.0579e-06	9.0351e-06	1369	390.02	8.9586e-06	9.0454e-06	482.56	172.71	140.97	61.844	9.1287e-06	83.473	215.032	-28.737	30.780	-85.403	92.903	48.166	-86.543	-79.875	238.458	82.846	-81.731	-76.460	-74.215	-68.482	88.381	-71.133	-8191	255	
833.385	1	1	0	0	0.12206	0.11329	0.16451	0.29108	0.11163	0.061112	0.11938	0.16715	0.021697	0.13623	0.37332	0.14782	0.16511	0.12229	0.16716	0.16284	-1.4292	-1.2583	-0.9875	-2.0771	-1.0792	-1.7021	-2	-1.2083	-1.7292	-1.3604	-1.2708	-2.2208	-1.1521	-1.5	-1.875	-1.1063	206.105	66.473	187.041	205.191	84.262	79.417	179.910	202.871	125.993	165.088	236.252	229.409	226.028	237.406	78.855	223.968	0.00026304	0.00053627	4.7728e-05	1216.4	5.488e-06	6.5088e-06	1385.9	394.25	3.2429e-06	4.6756e-06	488.16	173.39	140.43	62.471	2.8901e-06	84.911	0.0008083	0.00084186	0.00023285	1199.5	9.1908e-06	9.3466e-06	1365.7	391.91	9.3425e-06	9.444e-06	483.99	173.7	141.84	62.457	9.4277e-06	84.438	244.161	-37.190	19.041	-85.281	75.556	71.512	-86.581	-80.138	51.197	-5.014	-81.860	-76.354	-74.367	-68.445	126.830	-71.052	-8191	255	
833.481	1	1	0	0	0.15515	0.18633	0.43866	0.086379	0.21698	0.00084814	0.24048	0.05912	0.27222	0.17476	0.21714	0.19769	0.39454	0.064966	0.24608	0.32718	-1.5708	-1.6667	-1.0396	-2.1729	-1.1354	-1.4688	-2.1792	-1.2708	-1.7625	-1.7146	-1.0458	-1.9562	-1.3646	-1.3083	-1.9208	-1.0312	87.895	194.898	55.337	-95.251	-89.062	180.000	163.818	212.240	-19.443	118.126	199.390	-53.623	-77.364	-40.998	15.476	234.375	0.00023071	0.00021251	0.00023184	1223.6	1.0668e-05	5.8151e-06	1387.6	396.49	3.5268e-06	6.0108e-06	492.53	174.18	141.28	63.145	6.529e-06	85.674	0.00084449	0.0008779	0.00023968	1201.5	9.5108e-06	9.5521e-06	1368.9	393.5	9.5728e-06	9.6827e-06	486.45	174.88	142.5	63.03	9.6303e-06	85.345	211.327	44.647	4.356	-85.528	94.749	46.462	-86.374	-80.370	56.445	74.511	-81.883	-76.580	-74.338	-68.651	110.136	-71.121	-8191	255	
833.577	1	1	0	0	0.24157	0.17022	0.11093	0.14819	0.22644	0.14822	0.19241	0.29212	0.091394	0.09486	0.18974	0.29167	0.10157	0.18242	0.093566	0.17605	-1.5083	-1.6917	-0.93542	-2.1875	-1.5167	-1.3583	-2.2625	-1.2854	-1.5833	-1.8417	-1.2104	-1.9229	-1.5083	-1.3729	-2.1188	-1.2146	95.532	-57.826	-80.453	224.202	9.686	-40.137	120.262	243.513	81.851	153.355	155.519	228.877	1.243	-53.533	-36.573	185.688	0.00031727	0.00049118	0.00013522	1219.4	1.1886e-05	4.5455e-06	1387	395.62	2.7701e-06	1.5873e-06	492.39	175.77	142.07	63.381	1.3871e-06	86.452	0.00085269	0.00088499	0.00024534	1200.9	9.6885e-06	9.7034e-06	1369	394.05	9.702e-06	9.6653e-06	489.27	176.26	143.18	63.266	9.6791e-06	85.879	228.255	18.980	-45.336	-85.681	63.761	88.991	-86.446	-80.195	85.817	218.397	-81.848	-76.126	-74.259	-68.620	-41.926	-70.971	-8191	255	
833.673	1	1	0	0	0.25314	0.22049	0.10049	0.17524	0.27493	0.33583	0.51902	0.27493	0.15942	0.27538	0.2164	0.12551	0.28007	0.20334	0.12912	0.22857	-1.2292	-1.8687	-1.0229	-1.9625	-1.3813	-1.1	-2.3292	-1.4458	-1.5375	-1.8687	-1.1646	-2.0771	-1.8021	-1.1729	-1.9896	-1.375	95.242	216.807	-78.076	-70.100	214.524	17.457	215.067	131.959	-37.449	11.369	246.137	182.831	-66.153	-51.766	-31.199	167.206	0.00026799	0.00071216	0.00011736	1220	6.7831e-06	4.975e-06	1396.5	396.18	7.1444e-06	7.1205e-06	494.72	175.79	141.56	62.734	6.4093e-06	85.957	0.00085213	0.00086854	0.00024293	1202	9.6662e-06	9.5876e-06	1372	393.88	9.3925e-06	9.4887e-06	489.31	175.98	142.74	62.914	9.4266e-06	85.513	235.555	20.621	-55.469	-85.428	26.151	25.941	-86.495	-80.040	8.323	44.760	-81.594	-76.262	-74.204	-68.618	91.275	-71.255	-8191	255	
833.794	1	1	0	0	0.14917	0.055471	0.29399	0.20269	0.10669	0.26077	0.37336	0.20327	0.27126	0.097761	0.22603	0.34418	0.061442	0.17214	0.16433	0.097271	-1.0854	-1.9375	-1.1187	-2.1833	-1.5792	-1.1729	-2.1604	-1.4479	-1.2396	-1.9375	-1.2437	-1.7625	-1.9646	-1.0604	-1.8125	-1.5125	-67.764	122.394	166.114	229.756	21.053	-54.427	175.916	253.929	130.570	127.760	148.923	238.131	-95.078	210.838	75.590	242.635	0.00023255	0.001127	0.00022974	1218.1	4.0971e-06	1.0441e-05	1388.1	393.88	1.8337e-06	7.0976e-07	488.49	172.85	140.72	62.145	5.1911e-06	84.68	0.00083632	0.00085554	0.00023678	1197.7	9.2058e-06	9.2865e-06	1364	391.14	9.0877e-06	9.1896e-06	483.35	174.02	141.62	62.072	9.0846e-06	84.116	223.541	-14.338	54.231	-85.377	37.072	58.919	-86.436	-80.304	111.307	116.922	-82.131	-76.431	-74.357	-68.378	75.858	-71.166	-8191	255	
833.890	1	1	0	0	0.19763	0.28921	0.061758	0.10675	0.14789	0.22639	0.38389	0.17912	0.085929	0.11251	0.2169	0.18693	0.20432	0.068236	0.0050288	0.28228	-0.69583	-1.925	-1.1229	-1.6187	-1.9042	-0.97708	-2.05	-1.7083	-1.0812	-1.8813	-1.2375	-1.6167	-1.7354	-1.0229	-1.825	-1.6146	216.182	137.999	113.145	-24.221	-82.518	-33.728	236.589	221.390	211.258	225.460	20.275	45.899	235.397	218.970	257.070	202.432	0.00034446	0.0011547	0.00030925	1218.3	7.1733e-06	7.2609e-06	1384.9	392.54	1.9007e-06	7.3658e-06	488.57	173.43	140.96	62.157	9.4953e-07	85.026	0.00080692	0.00082265	0.00023037	1195.6	8.918e-06	9.0497e-06	1361	390.1	8.9534e-06	8.9939e-06	482.32	173.83	141.4	62.183	9.062e-06	84.395	228.664	-30.698	-8.325	-85.312	24.584	51.644	-86.415	-80.176	53.206	27.368	-81.592	-76.216	-74.144	-68.600	194.141	-71.173	-8191	255	
833.962	1	1	0	0	0.35646	0.14463	0.2626	0.13513	0.23062	0.20965	0.21229	0.18008	0.11907	0.044015	0.065028	0.2781	0.19494	0.0863	0.065805	0.31653	-0.68125	-1.925	-0.97292	-1.5354	-2.0354	-0.93542	-1.9354	-1.7333	-1.1917	-1.9375	-1.6271	-1.4	-1.9937	-1.2167	-1.5854	-1.6063	227.923	-81.531	81.475	182.773	227.193	167.063	104.269	189.522	13.250	82.286	87.626	-89.935	-3.075	-69.053	94.300	194.041	0.00021842	0.00075378	0.00028546	1208.2	4.0302e-06	1.1838e-05	1382.2	393.4	3.6794e-06	6.8884e-06	489.55	174.36	140.81	62.468	3.1582e-06	85.568	0.00080123	0.00081728	0.00023074	1189.6	8.841e-06	8.9153e-06	1358.8	390.6	8.7872e-06	8.7917e-06	483.38	174.7	141.75	62.452	8.8445e-06	85.011	234.866	-10.459	21.565	-85.400	61.912	75.791	-86.167	-80.231	-15.274	71.877	-81.914	-76.292	-74.070	-68.397	134.546	-71.154	-8191	255	
834.058	1	1	0	0	0.2588	0.12842	0.39624	0.3487	0.20175	0.082472	0.15431	0.21415	0.25613	0.13963	0.31219	0.27363	0.27254	0.28104	0.38695	0.25907	-0.71875	-2.0062	-1.3771	-1.4312	-1.8062	-1.1542	-1.7667	-1.9625	-1.0562	-1.9854	-1.5354	-1.2875	-2.0375	-1.2229	-1.5292	-1.9958	33.660	156.936	144.932	201.904	-50.089	103.888	205.697	101.192	220.170	157.267	173.951	239.019	207.790	210.199	-69.456	215.299	0.00025078	0.0010462	0.0001647	1216.8	7.2444e-06	4.2612e-06	1384.4	394.09	1.9909e-06	1.3388e-06	492.1	174.88	141.62	62.355	3.4726e-06	85.913	0.00077863	0.00080482	0.00022536	1193.2	8.734e-06	8.7734e-06	1359.8	391.1	8.7213e-06	8.8276e-06	485.91	175.32	142.29	62.452	8.8511e-06	85.453	221.412	15.432	-26.646	-85.309	81.384	70.072	-86.289	-79.884	-2.841	59.417	-81.741	-76.118	-74.380	-68.471	32.397	-70.788	-8191	255	
834.178	1	1	0	0	0.18383	0.16427	0.11205	0.28941	0.0069017	0.15175	0.26073	0.36306	0.17858	0.10355	0.11538	0.43599	0.17568	0.095668	0.25158	0.19411	-0.60208	-1.8333	-1.4021	-1.3417	-2.0062	-1.1688	-1.7646	-1.8604	-0.9625	-1.9021	-1.525	-1.2125	-1.8146	-1.2729	-1.425	-1.9083	236.279	74.079	95.385	198.861	52.241	177.484	207.737	93.648	183.226	-24.624	240.644	-74.863	182.688	187.963	260.509	140.012	0.00033635	0.00039143	0.00021487	1216.3	4.6991e-06	1.0331e-05	1383.6	393.91	1.4976e-06	1.2207e-05	492.03	175.6	141.54	62.784	9.0699e-06	85.824	0.00077862	0.00080299	0.00022395	1193.7	8.6731e-06	8.7013e-06	1363.1	391.75	8.6748e-06	8.7544e-06	486.24	175.8	142.29	62.527	8.6591e-06	85.176	231.200	-74.547	58.466	-85.359	77.382	69.350	-86.249	-80.145	-1.664	23.535	-81.999	-76.173	-74.268	-68.407	51.655	-71.269	-8191	255	
834.273	1	1	0	0	0.10691	0.099787	0.15974	0.48318	0.027733	0.22365	0.17988	0.10164	0.24034	0.15165	0.13656	0.2638	0.23474	0.29736	0.18622	0.084227	-0.66875	-1.5979	-1.5708	-1.2479	-1.8854	-1.2729	-1.5688	-1.9792	-1.0562	-1.6917	-1.8792	-1.0792	-1.8833	-1.5479	-1.4583	-2.0333	66.246	130.324	91.694	210.539	15.955	10.456	193.818	228.735	252.128	-15.128	210.703	-18.168	253.712	218.215	223.083	215.243	0.00026114	0.0010873	0.00020963	1210.9	9.3817e-06	1.0547e-05	1382.8	394.36	5.6275e-06	6.2497e-06	491.81	174.26	140.16	62.293	4.7622e-06	85.3	0.00077571	0.00079961	0.00022196	1191.1	8.6682e-06	8.74e-06	1358.8	391.03	8.7379e-06	8.6757e-06	483.13	174.06	141.35	62.201	8.6883e-06	84.556	234.882	-36.508	24.001	-85.121	56.523	61.120	-86.266	-79.788	76.950	67.692	-81.713	-76.040	-73.936	-68.678	39.405	-71.049	-8191	255	
834.369	1	1	0	0	0.062417	0.028711	0.018597	0.18819	0.052632	0.25731	0.36474	0.12698	0.1333	0.18634	0.11436	0.21809	0.1084	0.16506	0.19658	0.40156	-0.70625	-1.4896	-1.6333	-1.0542	-1.9458	-1.2792	-1.5146	-2.0104	-1.1812	-1.6667	-1.8979	-1.0375	-2.0062	-1.5375	-1.2292	-2.2771	-71.741	179.381	208.314	199.240	-96.146	21.213	174.959	206.932	8.615	154.704	118.139	164.903	131.293	234.550	35.185	-78.488	0.00019747	0.00065599	0.00021607	1212.3	3.5556e-06	1.2544e-05	1373.7	393.96	2.4874e-06	4.9857e-06	487.62	173.6	140.69	62.219	4.7136e-06	85.087	0.00076566	0.00080168	0.00021702	1190.8	8.6513e-06	8.638e-06	1351.1	390.31	8.6022e-06	8.6574e-06	480.51	173.69	141.26	62.153	8.5327e-06	84.526	240.377	0.994	19.932	-85.237	-7.410	57.450	-86.319	-79.870	81.471	72.283	-81.760	-76.311	-74.047	-68.597	42.714	-71.245	-8191	255	
834.465	1	1	0	0	0.36331	0.27765	0.058978	0.209	0.074752	0.22288	0.13009	0.11923	0.10569	0.14562	0.17404	0.26207	0.1468	0.076986	0.28938	0.086434	-0.91875	-1.6	-1.5583	-1.1542	-1.8979	-1.4229	-1.2479	-2.0417	-1.2146	-1.4021	-2.0854	-1.0458	-1.8417	-1.7208	-1.0125	-2.2062	115.135	212.398	247.283	-78.425	66.889	129.092	-36.955	215.388	-21.539	235.073	224.101	152.536	243.709	222.262	-21.893	188.006	0.00022446	0.00067207	0.00022786	1208.3	1.8813e-06	9.0387e-06	1377	393.74	4.711e-06	7.368e-06	489.52	174.02	140.98	62.525	4.8697e-06	85.841	0.00076782	0.00078944	0.00021936	1188.9	8.5882e-06	8.723e-06	1352.7	390.05	8.7273e-06	8.795e-06	481.54	174.39	141.96	62.391	8.7205e-06	85.141	237.819	-14.894	28.048	-85.109	92.032	27.226	-85.990	-79.909	71.923	49.733	-81.554	-76.361	-73.835	-68.597	31.115	-71.007	-8191	255	
834.561	1	1	0	0	0.081272	0.36871	0.17245	0.23263	0.25561	0.21802	0.19167	0.37794	0.15466	0.15497	0.1503	0.1532	0.32642	0.15626	0.093512	0.2882	-0.97708	-1.2208	-1.8625	-1.1021	-1.6771	-1.6583	-1.2521	-2.1688	-1.4042	-1.4375	-2.1437	-1.175	-1.8396	-1.8146	-1.0896	-1.9625	221.446	76.918	-11.100	-83.656	114.846	42.897	-13.250	170.608	86.106	150.935	-54.715	228.733	-94.392	10.602	220.146	206.763	0.00027025	0.00035015	0.00018835	1213.8	3.4789e-06	5.5224e-06	1377.6	394.58	4.0802e-06	7.7872e-06	490.33	175.03	142.1	62.807	6.3622e-06	86.502	0.000777	0.00080293	0.00022073	1189.8	8.6649e-06	8.7396e-06	1353.9	390.73	8.7481e-06	8.8676e-06	484.38	175.33	142.46	62.726	8.8612e-06	85.913	217.472	17.538	-2.179	-85.382	59.353	38.919	-86.067	-80.172	120.790	52.801	-81.530	-76.176	-73.888	-68.436	66.999	-71.054	-8191	255	
834.657	1	1	0	0	0.03835	0.1929	0.16731	0.20477	0.16748	0.27994	0.20416	0.098138	0.058386	0.2611	0.076481	0.13511	0.17626	0.23201	0.46465	0.22854	-1.1792	-1.1938	-1.775	-1.3792	-1.6396	-1.5729	-1.3417	-2.1375	-1.4875	-1.0708	-2.0292	-1.3	-1.5792	-1.9604	-0.89375	-1.8542	220.274	100.237	117.072	187.892	83.745	147.837	-69.986	26.188	11.529	199.860	225.189	258.271	230.421	-39.787	-76.442	217.071	0.00031304	0.00048255	0.00011518	1211	6.9626e-06	1.1623e-05	1378.7	395.97	4.5838e-06	8.922e-06	492.09	176.31	142.25	62.645	5.2165e-06	86.853	0.00078097	0.00079666	0.00021994	1188.7	8.7474e-06	8.858e-06	1357.4	392.35	8.7182e-06	8.9008e-06	485.6	176.24	142.9	62.739	8.8159e-06	85.883	229.835	-40.272	9.308	-85.332	34.693	69.580	-86.051	-79.783	63.706	71.056	-81.749	-76.155	-73.976	-68.421	89.945	-70.665	-8191	255	
834.754	1	1	0	0	0.15342	0.14053	0.32789	0.16974	0.12517	0.156	0.20441	0.19194	0.21772	0.081837	0.16319	0.16247	0.1616	0.22477	0.046129	0.087088	-1.1229	-1.1229	-1.8521	-1.4896	-1.3646	-2.0042	-1.2729	-1.7812	-1.6396	-1.1771	-2.0938	-1.4167	-1.4646	-2.075	-0.85833	-1.9021	195.093	248.614	-64.568	182.972	218.833	98.309	170.896	192.275	160.707	70.730	227.839	-33.152	204.954	257.312	62.012	-59.596	0.00027341	0.00056194	9.8216e-05	1210	8.9523e-06	4.0891e-06	1375	394.16	6.8009e-06	7.9512e-06	487.74	173.41	141.44	62.324	3.9017e-06	85.313	0.00077901	0.00081502	0.00022479	1187.7	8.759e-06	8.8501e-06	1349.1	390.92	8.7463e-06	8.7268e-06	481.97	174.32	141.91	62.245	8.6733e-06	84.591	234.064	1.353	14.182	-84.987	80.920	45.546	-86.219	-80.001	69.476	61.240	-81.343	-76.126	-73.860	-68.649	75.124	-70.764	-8191	255	
834.874	1	1	0	0	0.090268	0.12561	0.24332	0.018346	0.11813	0.036365	0.22764	0.16568	0.017872	0.24304	0.22315	0.041546	0.28245	0.32055	0.22056	0.16995	-1.3604	-1.0562	-1.8188	-1.3167	-1.3167	-1.8563	-1.1167	-1.6042	-1.8167	-1.0271	-1.9937	-1.2729	-1.2583	-2.3021	-1.175	-1.4792	-57.701	137.577	-46.952	184.207	14.615	256.429	202.452	195.252	243.923	-45.878	189.979	-88.900	-85.259	-88.806	-51.125	233.309	0.00022129	0.00082284	0.00019991	1206.7	4.837e-06	7.8959e-06	1368.2	391.87	4.4917e-06	3.9728e-06	487.67	173.64	140.14	62.424	5.5715e-06	85.452	0.00077067	0.00079593	0.00022012	1184.1	8.5924e-06	8.6296e-06	1344.5	389.62	8.6535e-06	8.747e-06	480.77	173.94	141.47	62.21	8.7722e-06	84.872	220.827	-17.402	14.816	-85.102	-57.314	29.935	-86.193	-79.530	89.698	58.235	-81.480	-76.081	-73.783	-68.360	51.931	-70.856	-8191	255	
834.970	1	1	0	0	0.19094	0.11712	0.22642	0.1309	0.21295	0.096881	0.097823	0.24447	0.26083	0.052472	0.12612	0.29639	0.39116	0.19501	0.20396	0.23594	-1.5583	-0.99167	-1.7833	-1.6187	-1.0167	-1.8604	-1.1562	-1.3438	-1.7958	-1.0292	-1.8396	-1.7437	-1.0104	-1.9688	-1.1458	-1.5396	202.348	-14.486	55.673	-89.083	142.273	38.250	-64.236	221.569	117.591	-86.654	118.839	199.675	226.589	-40.880	135.628	130.565	0.00025962	0.00060051	0.00025969	1204.5	4.1214e-06	2.119e-06	1361.8	394.04	2.1698e-06	9.1384e-06	488.43	174.56	141.18	62.078	4.9778e-06	86.153	0.00076328	0.00079912	0.00022167	1182.5	8.5597e-06	8.6274e-06	1343.3	389.61	8.5386e-06	8.6532e-06	481.81	174.59	141.9	62.267	8.7454e-06	85.294	233.919	35.036	-0.156	-84.923	52.158	46.989	-86.043	-79.720	102.569	61.044	-81.152	-76.118	-73.759	-68.336	88.980	-70.589	-8191	255	
835.067	1	1	0	0	0.28977	0.23541	0.15321	0.13312	0.11918	0.12816	0.46206	0.19513	0.10587	0.090356	0.12298	0.21261	0.085543	0.11096	0.21664	0.10832	-1.5875	-0.80625	-1.8083	-1.8104	-0.85625	-1.9083	-1.4813	-1.3458	-1.9562	-1.0938	-1.6396	-1.7583	-0.99792	-2.1437	-1.2708	-1.1167	59.460	70.134	-3.585	173.804	-53.815	117.876	176.043	181.732	93.763	255.159	3.817	247.087	181.196	-84.832	-55.905	92.412	0.00028542	0.00082228	4.1707e-05	1204.6	6.6195e-06	3.4972e-06	1371	392.7	4.4605e-06	6.7847e-06	490.15	175.11	141.78	62.927	3.2802e-06	86.497	0.00076568	0.00079836	0.00021753	1183	8.5632e-06	8.6996e-06	1345.8	389.87	8.4222e-06	8.6803e-06	483.05	175.67	142.09	62.554	8.6323e-06	85.807	233.983	1.954	-23.895	-85.325	40.043	83.598	-86.116	-79.583	38.421	67.738	-81.022	-75.859	-73.940	-68.276	-58.830	-70.776	-8191	255	
835.187	1	1	0	0	0.11611	0.33812	0.39802	0.15188	0.11743	0.10837	0.3733	0.05155	0.17551	0.3568	0.091732	0.24481	0.18636	0.1716	0.10792	0.31997	-1.4625	-1.0875	-1.6667	-1.7563	-0.925	-1.8188	-1.5187	-1.4062	-1.9917	-1.1875	-1.4375	-1.9792	-1.1792	-1.7625	-1.6208	-1.3708	-8.028	163.051	188.434	174.358	13.078	91.622	182.592	116.543	68.071	94.943	255.117	200.507	79.943	244.219	-52.400	261.062	0.00022364	0.00055658	0.00012907	1202.5	6.4726e-06	7.397e-06	1375.2	393.89	5.0632e-06	9.7214e-06	490.07	176.01	142.01	62.805	6.797e-06	86.099	0.00075195	0.00078353	0.0002164	1182.4	8.4491e-06	8.3747e-06	1348.9	390.08	8.2768e-06	8.444e-06	483.79	175.88	142.05	62.397	8.3623e-06	85.383	217.196	26.928	-4.292	-84.782	57.226	24.210	-86.122	-79.727	21.886	54.696	-81.556	-76.081	-73.671	-68.415	110.725	-70.855	-8191	255	
835.259	1	1	0	0	0.24678	0.10717	0.37983	0.27138	0.047593	0.11911	0.14084	0.19652	0.29749	0.29077	0.34229	0.37899	0.34372	0.43683	0.078276	0.26538	-1.4646	-1.0646	-1.3188	-1.9625	-1.0042	-1.8604	-1.6313	-1.3271	-1.7104	-1.2083	-1.3687	-2.1188	-0.93542	-1.9396	-1.5646	-1.3417	32.329	237.622	252.245	-50.471	-12.508	114.166	101.374	-60.650	220.372	-41.416	209.483	214.616	212.179	235.973	185.472	221.578	0.00034389	0.00068377	0.00021702	1201.7	4.5147e-06	8.525e-06	1366.7	392.85	4.2242e-06	1.1388e-05	487	173.53	141.34	62.364	5.188e-06	85.574	0.00074666	0.00077054	0.00021568	1182	8.3369e-06	8.3346e-06	1342.6	388.65	8.4001e-06	8.4934e-06	480.16	173.83	141.54	62.087	8.4388e-06	84.593	233.200	18.253	-3.369	-84.781	27.152	52.454	-85.992	-79.664	13.384	79.754	-81.203	-75.932	-74.145	-68.204	70.966	-70.704	-8191	255	
835.355	1	1	0	0	0.18608	0.25888	0.081257	0.10056	0.13096	0.14103	0.10109	0.16491	0.15988	0.071156	0.22467	0.25715	0.19794	0.2235	0.17895	0.17299	-1.7146	-1.1812	-1.1104	-2.0958	-0.94375	-1.6917	-1.7667	-1.1271	-1.9937	-1.3458	-1.3396	-2.0438	-1.0625	-1.6938	-1.8958	-1.1896	187.896	212.031	5.323	-75.566	28.414	36.727	246.576	-64.632	261.902	-21.245	223.994	242.305	91.185	-65.126	41.315	-1.853	0.00024271	0.00085521	0.000123	1198.7	3.3869e-06	5.9985e-06	1366.8	391.86	7.0349e-06	6.3392e-06	485.06	173.43	141.07	62.152	3.0848e-06	85.412	0.00074425	0.0007653	0.00021262	1176.4	8.3181e-06	8.3137e-06	1339.1	388.34	8.4283e-06	8.4218e-06	478.97	173.65	141.39	62.146	8.4525e-06	84.758	234.000	30.541	-7.537	-85.412	46.440	19.360	-86.108	-79.749	57.138	22.489	-81.100	-76.068	-74.062	-68.123	18.352	-70.807	-8191	255	
#DATA ENDS
