BOXY.EXE: ISS Imagent and Oximeter Data Acquisition Program Version 0.80
Ascii Record File

#ACQ INFORMATION
2  Detector Channels 
16  External MUX Channels 
1  Auxiliary Channels 
5000  Waveform (CCF) Frequency (Hz)
1  Waveforms Skipped 
30  Waveforms Averaged 
1  Cycles Averaged 
16  Acquisitions per Waveform 
10.0806  Updata Rate (Hz) 

#FILE INFORMATION
TRUE -- External MUX Channel results are PARSED.
FALSE -- AC DC and Phase are NOT grouped.
TRUE -- Companion Program Settings File CREATED.
FALSE -- AC data not excluded
FALSE -- DC data not excluded
FALSE -- Phase data not excluded
FALSE -- Auxillary Chn. data not excluded
Tab delimiters

#CALIBRATION STATE
TRUE -- Waveform Calibration Values APPLIED.


#AUX CALIBRATION VALUES
Val Type	aux-1	

Term	1.0000e+00	
Factor	0.0000e+00	


#WF CALIBRATION VALUES
A = Detector Channel
Val Type	A-AC1	A-AC2	A-AC3	A-AC4	A-AC5	A-AC6	A-AC7	A-AC8	A-AC9	A-AC10	A-AC11	A-AC12	A-AC13	A-AC14	A-AC15	A-AC16	A-DC1	A-DC2	A-DC3	A-DC4	A-DC5	A-DC6	A-DC7	A-DC8	A-DC9	A-DC10	A-DC11	A-DC12	A-DC13	A-DC14	A-DC15	A-DC16	A-Ph1	A-Ph2	A-Ph3	A-Ph4	A-Ph5	A-Ph6	A-Ph7	A-Ph8	A-Ph9	A-Ph10	A-Ph11	A-Ph12	A-Ph13	A-Ph14	A-Ph15	A-Ph16	

Term	0.00000e+00	0.00000e+00	0.00000e+00	0.00000e+00	0.00000e+00	0.00000e+00	0.00000e+00	0.00000e+00	0.00000e+00	0.00000e+00	0.00000e+00	0.00000e+00	0.00000e+00	0.00000e+00	0.00000e+00	0.00000e+00	0.00000e+00	0.00000e+00	0.00000e+00	0.00000e+00	0.00000e+00	0.00000e+00	0.00000e+00	0.00000e+00	0.00000e+00	0.00000e+00	0.00000e+00	0.00000e+00	0.00000e+00	0.00000e+00	0.00000e+00	0.00000e+00	0.00000e+00	0.00000e+00	0.00000e+00	0.00000e+00	0.00000e+00	0.00000e+00	0.00000e+00	0.00000e+00	0.00000e+00	0.00000e+00	0.00000e+00	0.00000e+00	0.00000e+00	0.00000e+00	0.00000e+00	0.00000e+00	
Factor	1.00000e+00	1.00000e+00	1.00000e+00	1.00000e+00	1.00000e+00	1.00000e+00	1.00000e+00	1.00000e+00	1.00000e+00	1.00000e+00	1.00000e+00	1.00000e+00	1.00000e+00	1.00000e+00	1.00000e+00	1.00000e+00	1.00000e+00	1.00000e+00	1.00000e+00	1.00000e+00	1.00000e+00	1.00000e+00	1.00000e+00	1.00000e+00	1.00000e+00	1.00000e+00	1.00000e+00	1.00000e+00	1.00000e+00	1.00000e+00	1.00000e+00	1.00000e+00	X	X	X	X	X	X	X	X	X	X	X	X	X	X	X	X	

B = Detector Channel
Val Type	B-AC1	B-AC2	B-AC3	B-AC4	B-AC5	B-AC6	B-AC7	B-AC8	B-AC9	B-AC10	B-AC11	B-AC12	B-AC13	B-AC14	B-AC15	B-AC16	B-DC1	B-DC2	B-DC3	B-DC4	B-DC5	B-DC6	B-DC7	B-DC8	B-DC9	B-DC10	B-DC11	B-DC12	B-DC13	B-DC14	B-DC15	B-DC16	B-Ph1	B-Ph2	B-Ph3	B-Ph4	B-Ph5	B-Ph6	B-Ph7	B-Ph8	B-Ph9	B-Ph10	B-Ph11	B-Ph12	B-Ph13	B-Ph14	B-Ph15	B-Ph16	

Term	0.00000e+00	0.00000e+00	0.00000e+00	0.00000e+00	0.00000e+00	0.00000e+00	0.00000e+00	0.00000e+00	0.00000e+00	0.00000e+00	0.00000e+00	0.00000e+00	0.00000e+00	0.00000e+00	0.00000e+00	0.00000e+00	0.00000e+00	0.00000e+00	0.00000e+00	0.00000e+00	0.00000e+00	0.00000e+00	0.00000e+00	0.00000e+00	0.00000e+00	0.00000e+00	0.00000e+00	0.00000e+00	0.00000e+00	0.00000e+00	0.00000e+00	0.00000e+00	-9.29852e+01	-1.33296e+02	-1.17972e+02	-1.83514e+02	-6.10041e+01	-6.68737e+01	-1.55681e+02	-1.62015e+02	-6.37700e+01	-6.08445e+01	-1.71225e+02	-1.69747e+02	-1.80595e+02	-1.76656e+02	-4.62200e+01	-1.49255e+02	
Factor	1.72239e-05	1.51077e-04	3.90219e-05	1.52671e-01	1.29822e-06	1.61351e-06	1.77629e-01	5.79230e-02	1.04663e-06	1.52934e-06	9.62527e-02	2.99250e-02	2.79958e-02	9.77860e-03	1.33337e-06	1.40708e-02	2.65951e-06	2.92866e-06	8.15356e-07	7.75076e-02	3.17008e-08	3.21495e-08	8.47087e-02	2.93650e-02	3.17257e-08	3.22051e-08	4.70433e-02	1.47731e-02	1.43622e-02	4.97118e-03	3.19154e-08	6.90677e-03	X	X	X	X	X	X	X	X	X	X	X	X	X	X	X	X	



#DISTANCE SETTINGS
A = Detector Channel
A-1	A-2	A-3	A-4	A-5	A-6	A-7	A-8	A-9	A-10	A-11	A-12	A-13	A-14	A-15	A-16	

2.5000e+00	3.0000e+00	2.5000e+00	3.0000e+00	2.0000e+00	3.0000e+00	1.5000e+00	3.0000e+00	3.0000e+00	3.0000e+00	3.0000e+00	3.0000e+00	3.0000e+00	3.0000e+00	1.5000e+00	3.0000e+00	

B = Detector Channel
B-1	B-2	B-3	B-4	B-5	B-6	B-7	B-8	B-9	B-10	B-11	B-12	B-13	B-14	B-15	B-16	

1.0000e+01	1.0000e+01	1.0000e+01	1.4400e+00	1.0000e+01	1.0000e+01	1.5100e+00	1.9400e+00	1.0000e+01	1.0000e+01	1.9900e+00	2.4900e+00	2.4100e+00	2.9000e+00	1.0000e+01	2.9800e+00	




#DATA BEGINS
time	group	step	mark	flag	A-AC1	A-AC2	A-AC3	A-AC4	A-AC5	A-AC6	A-AC7	A-AC8	A-AC9	A-AC10	A-AC11	A-AC12	A-AC13	A-AC14	A-AC15	A-AC16	A-DC1	A-DC2	A-DC3	A-DC4	A-DC5	A-DC6	A-DC7	A-DC8	A-DC9	A-DC10	A-DC11	A-DC12	A-DC13	A-DC14	A-DC15	A-DC16	A-Ph1	A-Ph2	A-Ph3	A-Ph4	A-Ph5	A-Ph6	A-Ph7	A-Ph8	A-Ph9	A-Ph10	A-Ph11	A-Ph12	A-Ph13	A-Ph14	A-Ph15	A-Ph16	B-AC1	B-AC2	B-AC3	B-AC4	B-AC5	B-AC6	B-AC7	B-AC8	B-AC9	B-AC10	B-AC11	B-AC12	B-AC13	B-AC14	B-AC15	B-AC16	B-DC1	B-DC2	B-DC3	B-DC4	B-DC5	B-DC6	B-DC7	B-DC8	B-DC9	B-DC10	B-DC11	B-DC12	B-DC13	B-DC14	B-DC15	B-DC16	B-Ph1	B-Ph2	B-Ph3	B-Ph4	B-Ph5	B-Ph6	B-Ph7	B-Ph8	B-Ph9	B-Ph10	B-Ph11	B-Ph12	B-Ph13	B-Ph14	B-Ph15	B-Ph16	aux-1	digaux	

805.704	1	1	0	256	0.059462	0.046889	0.23288	0.35777	0.19187	0.18503	0.21914	0.26869	0.16317	0.12175	0.32476	0.1823	0.31801	0.13186	0.2977	0.097472	-0.475	-1.6875	-1.5667	-1.4146	-1.8625	-1.2042	-1.5583	-2.1604	-0.84167	-1.7958	-1.5729	-1.3125	-1.9833	-1.3896	-1.2896	-2.1292	175.675	77.403	131.958	251.509	23.663	68.968	186.055	-67.086	59.466	-72.866	171.092	129.834	-98.936	-88.088	81.737	210.911	0.00033632	0.00068835	0.00021478	1442.1	3.8867e-06	7.544e-06	1680.9	487.61	5.7309e-06	5.2955e-06	612.06	204.82	161.88	71.901	6.8233e-06	99.849	0.0010984	0.0011505	0.00031405	1421.9	1.2155e-05	1.2087e-05	1658.6	484.85	1.1934e-05	1.2018e-05	605.16	206.51	163.69	72.136	1.1253e-05	99.412	218.120	4.173	17.589	-86.574	-5.249	109.073	-87.167	-82.254	59.387	7.085	-83.879	-78.462	-76.504	-70.238	73.392	-72.591	-8191	255	
805.800	1	1	0	0	0.20664	0.16732	0.10186	0.23637	0.10443	0.31761	0.017943	0.29886	0.049099	0.18174	0.21297	0.25402	0.067699	0.19114	0.045829	0.20684	-0.68333	-1.7854	-1.6729	-1.2188	-1.8542	-1.3042	-1.475	-2.2708	-0.97083	-1.5854	-1.9083	-1.0375	-2.1042	-1.5271	-1.1792	-2.125	24.210	37.001	13.817	-75.909	69.190	8.105	24.909	221.882	50.841	38.959	29.482	238.033	213.933	242.566	201.792	214.423	0.00034983	0.00067922	9.8017e-05	1442.3	9.6825e-06	6.0123e-06	1680.6	478.99	8.0174e-06	6.3813e-06	600.39	201.33	158.19	70.207	7.0906e-06	97.881	0.00096843	0.001008	0.00027156	1418.2	1.029e-05	1.0175e-05	1654.2	473.98	9.8985e-06	9.8884e-06	590.82	201.3	159.09	69.906	9.4845e-06	96.797	213.150	-17.389	8.562	-86.756	88.315	44.903	-87.453	-82.405	51.150	56.570	-84.015	-78.206	-76.258	-70.121	96.797	-72.537	-8191	255	
805.896	1	1	0	0	0.21256	0.051724	0.22007	0.20785	0.11525	0.070454	0.38856	0.22923	0.25283	0.28175	0.18533	0.060233	0.19525	0.37381	0.12292	0.24989	-0.78958	-1.5979	-1.9646	-1.2563	-2.025	-1.3917	-1.3125	-2.2188	-1.1562	-1.5958	-2.1854	-1.1396	-2.0563	-1.6292	-1.1583	-2.1312	-43.968	-85.783	253.767	-84.913	131.495	-16.587	196.907	255.611	246.966	-46.662	230.684	140.088	115.357	244.691	24.586	80.058	0.0003576	0.00089029	0.00030035	1439.1	4.4599e-06	9.969e-06	1680.8	477.82	2.0324e-06	7.69e-06	601.65	203.52	160.9	71.86	3.9644e-06	101.19	0.00083547	0.00086632	0.00023881	1411.4	9.5385e-06	9.5725e-06	1651.2	473.29	9.797e-06	1.0001e-05	594.73	204.57	162.06	71.848	1.0158e-05	100.47	227.300	8.283	-2.353	-86.779	159.585	74.998	-87.442	-82.139	12.729	65.154	-83.732	-78.530	-76.358	-70.343	50.461	-72.724	-8191	255	
805.992	1	1	0	0	0.031711	0.037343	0.11352	0.39677	0.21189	0.16635	0.40055	0.30638	0.37916	0.28792	0.25452	0.22394	0.18189	0.061121	0.15218	0.24861	-0.94375	-1.5146	-1.7083	-1.2771	-1.8458	-1.7917	-1.25	-2.1354	-1.2792	-1.3542	-2.0646	-1.3917	-1.6854	-2.0354	-1.0146	-2.2188	186.807	63.535	177.103	221.553	76.023	116.490	163.670	211.422	148.049	-42.746	197.907	-84.818	-68.982	-80.403	248.383	214.488	0.0002616	0.0010887	0.00029656	1437.1	4.25e-06	7.8218e-06	1676.3	483.65	5.8182e-06	4.3983e-06	609.5	208.49	163.82	73.757	5.6183e-06	103.91	0.00091429	0.00094758	0.0002639	1410.9	1.0424e-05	1.0467e-05	1652.2	479.43	1.062e-05	1.0769e-05	602.82	208.82	165.07	73.683	1.0919e-05	103.2	219.015	-13.595	13.340	-86.826	110.619	30.558	-87.669	-82.202	0.660	23.255	-83.652	-78.194	-76.159	-70.296	10.476	-72.637	-8191	255	
806.089	1	1	0	0	0.091516	0.26946	0.18087	0.39772	0.13556	0.28332	0.44738	0.12281	0.22914	0.15154	0.15535	0.2278	0.25217	0.20805	0.15723	0.21359	-1.1417	-1.1875	-2.0292	-1.1729	-1.6125	-1.6917	-1.4208	-2.1583	-1.4917	-1.0792	-2.0625	-1.4521	-1.6625	-1.8667	-0.99375	-1.8958	13.807	202.913	-63.487	220.589	28.677	153.878	172.612	188.346	73.783	-53.825	245.147	164.953	-81.639	216.953	75.990	197.819	0.0003791	0.00038029	0.00011936	1438.8	2.9657e-06	1.2464e-05	1674.4	487.01	7.5005e-06	9.9603e-06	612.38	207.49	163.66	74.291	6.6065e-06	103.29	0.0009731	0.00099961	0.0002782	1414.2	1.0986e-05	1.1015e-05	1648.4	482.68	1.1129e-05	1.1022e-05	604.27	208.58	165.34	74.173	1.1005e-05	102.56	235.341	-38.751	70.685	-86.583	101.007	64.478	-87.510	-82.073	34.671	40.415	-83.624	-78.433	-76.387	-70.062	35.841	-72.722	-8191	255	
806.185	1	1	0	0	0.24555	0.076477	0.069174	0.37536	0.077544	0.32176	0.15281	0.29033	0.22281	0.1106	0.25621	0.21657	0.04103	0.29527	0.19851	0.30461	-1.1229	-1.0542	-1.8521	-1.4979	-1.5042	-1.8979	-1.1167	-2.0167	-1.5021	-1.2625	-2.1146	-1.3542	-1.5896	-2.0854	-0.97708	-1.9521	14.002	221.214	-3.926	-81.044	-30.999	146.187	218.513	189.691	24.630	121.477	-48.918	189.348	73.408	227.824	75.232	245.508	0.00039545	0.0011246	9.246e-05	1434.7	5.3547e-06	1.7051e-05	1678.2	485.31	5.1251e-06	1.2188e-05	608.04	206.5	163.26	73.436	1.4771e-07	101.67	0.00097509	0.0010069	0.00027953	1412.1	1.1003e-05	1.0864e-05	1648.2	481.77	1.0779e-05	1.0782e-05	600.46	207.15	164.46	73.581	1.051e-05	101.11	226.774	-28.805	-23.973	-86.863	50.941	10.864	-87.587	-81.999	17.980	91.756	-83.930	-78.241	-76.035	-70.078	42.518	-72.603	-8191	255	
806.304	1	1	0	0	0.084554	0.26917	0.22851	0.21634	0.076768	0.31215	0.14649	0.28145	0.33467	0.18685	0.27308	0.06363	0.045632	0.24943	0.15766	0.15774	-1.3625	-1.1958	-1.8958	-1.65	-1.2167	-1.8146	-1.3687	-1.9208	-1.5771	-1.0458	-2.1458	-1.3896	-1.3375	-2.1667	-1.0896	-1.7417	-65.070	144.865	15.328	226.766	58.346	15.529	187.342	157.404	44.981	83.296	240.785	-99.031	39.489	-97.020	54.968	128.869	0.00032883	0.00020256	0.00025342	1438.8	9.4361e-06	4.9433e-06	1677.7	483.67	4.4831e-06	9.9744e-06	607.1	206.14	162.02	73.118	1.0978e-05	101.81	0.00092771	0.00095387	0.00026284	1412.2	1.0169e-05	1.0136e-05	1648.2	478.54	1.0095e-05	1.0185e-05	598.3	206.43	163.63	72.876	9.9966e-06	100.6	230.780	100.751	22.987	-86.912	44.366	45.231	-87.481	-82.171	5.328	89.595	-83.683	-78.362	-76.253	-70.155	35.454	-72.639	-8191	255	
806.400	1	1	0	0	0.048515	0.22784	0.11075	0.14907	0.10515	0.18302	0.32496	0.28774	0.13221	0.046753	0.31825	0.093479	0.55261	0.048116	0.092138	0.064158	-1.4896	-0.83958	-1.8188	-1.7521	-1.0688	-1.8542	-1.425	-1.7708	-1.9021	-1.0167	-2.0083	-1.5896	-1.3208	-2.1646	-1.175	-1.8146	85.181	34.071	81.116	190.674	29.437	106.876	196.044	234.958	-15.565	258.412	105.859	35.783	184.662	248.639	10.866	-56.988	0.00036646	0.00041018	0.00020151	1436.2	7.9641e-06	7.0313e-06	1682.4	481.02	1.3255e-06	2.8475e-06	603.33	205.56	161.72	72.305	6.9781e-06	100.78	0.00086788	0.0008994	0.00024859	1412.7	9.5151e-06	9.5718e-06	1649.3	474.44	9.2876e-06	9.2824e-06	593.01	204.82	161.85	72.064	8.9625e-06	99.805	245.439	87.328	-3.786	-86.817	106.674	84.404	-87.479	-82.117	47.851	23.200	-83.535	-78.179	-75.892	-70.109	59.138	-72.621	-8191	255	
806.496	1	1	0	0	0.32229	0.32629	0.30493	0.43125	0.20127	0.21844	0.087242	0.40076	0.2659	0.23456	0.082594	0.29476	0.1845	0.26269	0.054403	0.29585	-1.4625	-1.0458	-1.7979	-1.6396	-1.1833	-2.0312	-1.3604	-1.5792	-2.0333	-1.1688	-1.9854	-1.7667	-1.3937	-2.0312	-1.2979	-1.525	244.038	-49.451	-11.747	235.487	165.010	117.869	78.537	195.634	120.864	216.567	-8.622	-79.418	-99.349	227.182	-39.096	202.102	0.00031606	0.0010974	0.00011235	1435.3	5.034e-06	7.1092e-06	1678.9	475.35	2.0677e-06	1.1876e-05	601.43	206.63	162.61	73.359	7.4098e-06	102.83	0.00079466	0.00081096	0.00022595	1407.1	8.7734e-06	8.8922e-06	1647.3	471.7	8.7767e-06	8.8204e-06	592.2	206.51	163.11	73.07	9.0451e-06	101.86	219.119	10.607	5.210	-86.884	96.313	47.494	-87.433	-82.065	25.327	57.095	-83.459	-78.200	-76.234	-70.118	16.633	-72.469	-8191	255	
806.592	1	1	0	0	0.1586	0.27187	0.13722	0.11804	0.11266	0.088795	0.35594	0.26127	0.2251	0.13997	0.0802	0.35193	0.088899	0.12934	0.046103	0.33187	-1.5667	-1.0604	-1.5917	-1.8375	-0.79167	-2.1104	-1.4333	-1.45	-1.9958	-1.1792	-1.8563	-1.9917	-1.0229	-2.0687	-1.5042	-1.4562	47.104	-63.741	100.449	-83.003	211.381	167.158	-87.485	215.386	0.805	112.162	10.109	210.487	-18.361	234.132	64.871	255.733	0.00034634	0.00075833	0.00019804	1430.6	3.5382e-06	8.2287e-06	1672.1	477.98	3.0768e-06	9.496e-06	600.89	207.96	163.4	74.062	2.7223e-06	103.31	0.00080288	0.00083597	0.00023099	1404.4	8.9861e-06	9.085e-06	1642.1	473.03	9.142e-06	9.1777e-06	592.76	207.43	164.16	73.967	9.1859e-06	102.27	230.623	-18.951	-44.414	-86.854	27.552	49.447	-87.646	-82.216	44.239	87.042	-83.411	-78.059	-76.142	-69.881	-100.163	-72.534	-8191	255	
806.688	1	1	0	0	0.28858	0.16916	0.27473	0.076804	0.089853	0.18837	0.11464	0.27205	0.079039	0.27868	0.2057	0.17264	0.27055	0.083903	0.035896	0.18804	-1.55	-1.1354	-1.3646	-2.1146	-1.1	-1.8271	-1.8729	-1.2792	-2.0396	-1.3292	-1.5208	-2.2313	-1.2583	-2	-1.6562	-1.1875	118.641	148.651	231.638	172.241	64.087	-83.335	171.674	215.667	207.889	-62.893	176.905	164.380	159.840	138.957	238.878	130.124	0.00031469	0.0011816	0.00027069	1421.5	7.0229e-06	6.1015e-06	1658.5	478.33	2.4714e-06	1.3406e-05	598.55	207.05	163.68	74.664	2.5843e-06	103.84	0.00082866	0.00083864	0.00023851	1395.7	9.2244e-06	9.4008e-06	1623.9	472.67	9.2481e-06	9.3254e-06	590.23	206.96	164.18	74.508	9.2516e-06	102.62	226.268	15.941	-37.444	-86.686	30.829	69.797	-87.589	-82.111	27.315	47.678	-83.512	-78.141	-75.973	-69.933	123.239	-72.476	-8191	255	
806.784	1	1	0	0	0.18016	0.24977	0.27532	0.29524	0.31486	0.24564	0.15554	0.24053	0.13686	0.1683	0.24079	0.075438	0.30893	0.44859	0.063694	0.29147	-1.6729	-1.3021	-1.4562	-2.1604	-1.1583	-1.6313	-1.9979	-1.1542	-2.0479	-1.4625	-1.4146	-2.0583	-1.0604	-1.8146	-1.5396	-1.4438	-24.136	-61.778	221.720	-79.331	138.540	216.230	193.837	-94.133	189.327	31.245	213.574	174.841	-95.149	215.798	41.783	193.247	0.00033476	0.00061943	0.00024401	1417.3	8.9569e-06	8.0118e-06	1646.5	476.5	3.2491e-06	1.0595e-05	597.38	207.43	163.91	74.826	4.9678e-06	103.96	0.00083735	0.00084587	0.00023694	1390.7	9.2087e-06	9.3118e-06	1617	471.36	9.1754e-06	9.1249e-06	588.71	206.93	163.86	74.525	8.9886e-06	102.69	220.913	-8.925	46.411	-86.891	-1.287	52.711	-87.722	-82.123	32.030	40.823	-83.317	-78.132	-76.047	-70.096	105.526	-72.572	-8191	255	
806.881	1	1	0	0	0.15551	0.12133	0.3448	0.24097	0.31004	0.25986	0.22684	0.037539	0.30602	0.50157	0.14887	0.30482	0.14453	0.28465	0.071559	0.25319	-1.6104	-1.4	-1.1021	-2.2979	-1.075	-1.6583	-2.0958	-1.1917	-1.9479	-1.6917	-1.4479	-2.1146	-1.2437	-1.9229	-1.7292	-1.3042	149.212	-67.455	127.561	250.418	225.253	-3.405	-83.159	165.972	-56.961	-72.414	87.345	-67.938	152.087	240.096	65.279	215.793	0.00034934	0.00092147	0.00021561	1412.3	5.6095e-06	3.6538e-06	1652.4	475.38	7.0387e-06	6.3073e-06	597.29	206.35	162	73.687	4.4691e-06	102.31	0.0008041	0.00081575	0.00022661	1386.9	8.7896e-06	8.7642e-06	1619.5	470.26	8.6168e-06	8.6096e-06	587.24	206.2	162.46	73.434	8.3602e-06	101.12	226.512	2.433	-17.439	-86.769	51.777	39.405	-87.540	-82.192	85.877	36.862	-83.560	-78.303	-75.839	-69.995	41.714	-72.526	-8191	255	
806.977	1	1	0	0	0.069093	0.093137	0.1307	0.29574	0.076705	0.12863	0.17947	0.056946	0.11092	0.42309	0.31038	0.35909	0.18064	0.24209	0.11311	0.25077	-1.3833	-1.5875	-1.2313	-2.1646	-1.0021	-1.375	-2.0187	-1.1625	-1.7437	-1.7146	-1.3167	-1.9604	-1.3771	-1.4646	-1.9062	-1.4083	-57.887	81.978	96.196	202.689	14.954	128.442	164.321	192.427	82.689	172.515	223.828	194.205	124.001	252.753	212.959	204.378	0.00033435	0.00073595	0.00033123	1412.9	5.2777e-06	5.7991e-06	1657.3	473.16	2.5522e-06	1.1063e-05	593.55	206.15	161.26	72.829	2.1001e-06	101.86	0.00074267	0.00073812	0.00020419	1387.1	7.9158e-06	7.8509e-06	1624.4	466.3	7.8032e-06	7.7716e-06	584.4	205.08	161.21	72.255	7.6219e-06	100.37	229.243	4.962	-3.648	-86.718	-2.930	23.840	-87.719	-82.170	-79.851	39.320	-83.476	-78.103	-76.147	-70.083	90.856	-72.564	-8191	255	
807.073	1	1	0	0	0.15965	0.069024	0.13849	0.23957	0.13554	0.27813	0.080068	0.23375	0.54528	0.047909	0.16363	0.23595	0.14479	0.055166	0.21377	0.3109	-1.4479	-1.7396	-0.90417	-2.2396	-1.1042	-1.2625	-2.3438	-1.3646	-1.6042	-1.8875	-1.1208	-1.9833	-1.5458	-1.3229	-2.0083	-1.1146	-89.348	158.223	142.401	208.616	142.932	36.836	154.573	191.882	-39.496	-20.990	239.873	207.866	187.017	195.414	6.411	-70.764	0.00034934	0.00042815	0.00033137	1414.3	3.9983e-06	9.4548e-06	1650.8	470.94	2.9282e-06	8.1728e-06	592.2	204.85	160.67	73.685	5.0856e-06	102.61	0.00068795	0.00068509	0.00019118	1383.6	7.5598e-06	7.5705e-06	1614.8	464.34	7.6362e-06	7.6763e-06	581.13	204.11	161.17	73.047	7.9281e-06	101.07	232.043	-13.350	6.855	-86.845	21.529	49.355	-87.506	-82.093	56.533	70.929	-83.564	-78.293	-76.084	-69.987	59.944	-72.786	-8191	255	
807.192	1	1	0	0	0.075868	0.16516	0.34268	0.22271	0.23006	0.1465	0.26799	0.27924	0.1738	0.1881	0.23822	0.061244	0.40303	0.52536	0.367	0.28661	-1.3312	-1.7875	-0.90625	-2.0542	-1.4792	-1.3979	-2.2917	-1.425	-1.4021	-1.9521	-1.0542	-1.8458	-1.6146	-1.2938	-2.0604	-1.6063	247.429	83.105	-40.296	225.117	169.777	76.112	148.792	188.278	171.552	-84.760	-56.615	72.170	208.446	-99.552	141.287	220.598	0.00031293	0.001303	0.00016297	1407.4	2.8672e-06	8.5818e-06	1633.8	473.78	6.2762e-06	4.015e-06	595.56	207.85	164.18	76.151	5.9122e-06	105.52	0.00073128	0.00074974	0.00020893	1378.8	8.2719e-06	8.3924e-06	1598.7	468.02	8.6003e-06	8.7109e-06	584.5	207.21	164.89	75.82	9.0804e-06	104.51	226.757	5.741	20.015	-86.723	5.535	19.510	-87.599	-82.054	50.130	85.125	-83.402	-78.199	-75.857	-69.855	63.370	-72.723	-8191	255	
807.265	1	1	0	0	0.040086	0.12188	0.055725	0.17289	0.080796	0.17696	0.39554	0.25459	0.23932	0.13301	0.31808	0.21107	0.17651	0.13211	0.16205	0.16367	-1.025	-2.0917	-1.0646	-1.9083	-1.6958	-0.87917	-2.0812	-1.45	-1.3396	-2.1646	-1.2167	-1.9729	-1.8771	-1.0771	-1.9354	-1.4958	256.304	-44.210	-10.563	209.954	125.555	-4.179	193.505	181.743	-66.875	142.993	216.989	186.958	77.665	-94.328	45.082	199.984	0.00035295	0.0010298	0.00013366	1391.9	8.5262e-06	3.3776e-06	1618.9	476.23	3.5658e-06	1.1195e-05	598.7	210.01	166.55	77.486	4.1603e-06	107.93	0.00082721	0.00084684	0.00023698	1369.6	9.36e-06	9.3555e-06	1586.7	471.38	9.5384e-06	9.6251e-06	588.64	210.54	167.29	77.568	9.6635e-06	106.88	226.996	-32.824	11.500	-86.761	71.105	15.577	-87.477	-81.973	59.456	54.499	-83.391	-77.794	-76.085	-70.073	66.998	-72.748	-8191	255	
807.384	1	1	0	0	0.21134	0.064624	0.20854	0.38283	0.092351	0.11446	0.24757	0.31277	0.17562	0.079333	0.093712	0.4573	0.21136	0.22051	0.19753	0.15159	-0.775	-2.0083	-1.2229	-1.9	-1.8271	-1.0542	-2.05	-1.7646	-1.1063	-1.9438	-1.3188	-1.4729	-1.9729	-1.2792	-1.7292	-1.7833	103.227	13.347	102.535	223.703	148.833	42.794	248.794	233.347	-71.023	-81.558	-90.118	245.471	-27.516	250.900	-61.271	-81.815	0.00034245	0.0012427	0.00020015	1387.7	1.4188e-06	4.0059e-06	1610.5	478.22	5.6106e-06	1.2786e-05	600.15	212.89	167.03	78.393	6.0161e-06	108.76	0.00086444	0.00088127	0.00024462	1366.9	9.6424e-06	9.6555e-06	1586	473.35	9.6196e-06	9.6051e-06	590.89	211.98	168.01	77.991	9.5611e-06	107.64	234.734	-14.541	10.283	-86.610	96.274	55.841	-87.316	-81.915	34.827	84.457	-83.296	-77.757	-76.031	-69.916	94.434	-72.607	-8191	255	
807.480	1	1	0	0	0.093065	0.15136	0.21716	0.18199	0.076601	0.254	0.090344	0.18096	0.06485	0.12498	0.078867	0.034245	0.01399	0.15355	0.33565	0.16002	-0.975	-1.7729	-1.0938	-1.5771	-1.8958	-0.91458	-2.0812	-1.8354	-1.1583	-2.1979	-1.6208	-1.4729	-2.0083	-1.1708	-1.9104	-2.0875	216.945	-52.512	25.845	207.354	222.181	-84.715	103.924	234.774	144.642	2.377	229.772	206.657	248.687	186.919	-22.358	246.706	0.00033018	0.00070482	0.00015742	1390.8	5.3457e-06	5.3066e-06	1626	476.85	3.7008e-06	7.7458e-06	598.31	211.59	166.76	77.566	7.293e-07	107.25	0.00085032	0.0008663	0.00024008	1369.6	9.1574e-06	9.2116e-06	1594.1	471.86	9.0981e-06	9.0074e-06	588.05	211.42	166.88	76.946	8.9005e-06	105.94	225.187	-0.508	7.046	-86.577	86.129	-4.954	-87.460	-81.888	40.569	116.419	-83.535	-77.823	-75.849	-70.007	50.198	-72.695	-8191	255	
807.576	1	1	0	0	0.12488	0.2567	0.2498	0.29664	0.22935	0.2119	0.25752	0.41925	0.13264	0.13738	0.16537	0.20585	0.16618	0.29119	0.22092	0.075128	-0.60833	-1.9604	-1.15	-1.4375	-1.9292	-1.0167	-1.8937	-1.9562	-1.0812	-2.0812	-1.6646	-1.3521	-2.1813	-1.2271	-1.5938	-2.0062	241.055	49.683	-0.858	216.325	206.970	-87.471	207.468	224.490	165.351	239.956	166.630	245.606	223.115	167.512	91.653	-12.466	0.00041006	0.001238	0.0002202	1401.4	7.407e-06	2.615e-06	1628.4	472.77	4.2432e-06	9.8883e-06	591.1	207.35	163.56	75.421	6.0634e-06	103.8	0.00077924	0.00079331	0.00021524	1372.7	8.3316e-06	8.3767e-06	1597.2	467.88	8.2094e-06	8.2429e-06	581.69	206.89	164.06	74.867	8.0472e-06	102.6	227.637	-9.296	19.061	-86.828	100.188	-3.811	-87.563	-81.919	17.315	70.688	-83.640	-78.149	-76.157	-70.084	25.912	-72.621	-8191	255	
807.672	1	1	0	0	0.31796	0.15336	0.13428	0.22658	0.084229	0.17765	0.15111	0.21107	0.22168	0.12581	0.04935	0.08664	0.31205	0.10374	0.15506	0.23748	-0.81875	-1.8667	-1.6771	-1.1854	-1.85	-1.3646	-1.8271	-2.1125	-1.1479	-1.875	-1.6729	-1.4042	-2.1417	-1.4021	-1.4729	-2.1833	178.957	-74.817	-53.765	-96.585	-31.414	-23.265	246.142	-89.842	92.536	249.852	-97.837	215.297	-76.687	192.805	51.190	197.433	0.00036922	0.00062784	0.00024237	1399.6	5.8375e-06	5.5527e-06	1626.1	470.35	6.5593e-06	7.0633e-06	591.72	205.77	163.68	75.317	7.7242e-07	103.62	0.00071615	0.0007196	0.00019757	1370.4	7.7626e-06	7.8154e-06	1593.2	465.14	7.7668e-06	7.8092e-06	579.49	205.38	163.36	74.582	7.8828e-06	102.47	225.907	-27.659	-21.460	-86.735	115.118	82.162	-87.302	-82.078	2.588	62.716	-83.744	-77.928	-76.216	-70.291	-15.858	-72.702	-8191	255	
807.793	1	1	0	0	0.23668	0.16172	0.069121	0.35889	0.12882	0.14588	0.14529	0.047897	0.28582	0.18992	0.13775	0.26398	0.10699	0.23602	0.24783	0.13885	-0.77917	-1.6854	-1.4833	-1.2146	-1.9813	-1.4333	-1.5312	-2.0917	-1.1396	-1.8479	-1.8458	-1.2083	-2.0521	-1.5167	-1.2958	-2.2458	17.135	117.438	27.391	254.805	113.541	-20.401	186.528	44.200	86.139	-9.058	191.856	237.704	-82.019	191.741	87.850	176.956	0.00033887	0.0010856	0.00019508	1397.9	4.1581e-06	1.0409e-05	1620.9	473.38	2.6509e-06	5.1819e-06	593.82	209.3	165.03	77.081	4.2189e-06	107.02	0.00070575	0.00072345	0.00019919	1370	7.889e-06	7.9587e-06	1589.5	467.36	8.0026e-06	8.1958e-06	582.81	208.61	165.88	76.507	8.5706e-06	105.83	230.881	-16.510	-15.719	-86.762	-21.929	69.476	-87.685	-82.043	-52.637	41.267	-83.719	-78.308	-76.062	-70.329	120.851	-72.705	-8191	255	
807.865	1	1	0	0	0.11028	0.14507	0.36575	0.39161	0.23109	0.030681	0.13949	0.34351	0.28437	0.2759	0.22195	0.11958	0.10999	0.10046	0.32108	0.24781	-0.8625	-1.5542	-1.8375	-1.3083	-1.8438	-1.3312	-1.5792	-2.2438	-1.3125	-1.4542	-1.9271	-1.3583	-1.8021	-1.6063	-1.2437	-2.3917	153.077	119.764	-42.624	243.731	212.113	25.204	175.192	251.633	143.091	95.885	165.760	219.514	252.623	-48.171	-54.846	191.214	0.00035891	0.00083474	0.00031108	1390	6.3404e-06	8.0547e-06	1609.1	477.64	3.6088e-06	9.3875e-06	594.15	212.56	167.83	78.936	6.1519e-06	110.03	0.00076641	0.00078941	0.00021804	1363.5	8.6698e-06	8.724e-06	1580.4	471.2	8.7184e-06	8.8347e-06	586.76	211.98	168.37	78.405	8.8879e-06	108.6	225.060	34.153	-2.653	-86.877	66.128	45.357	-87.603	-81.972	66.099	56.487	-83.418	-78.043	-75.974	-70.419	75.815	-72.561	-8191	255	
807.961	1	1	0	0	0.092551	0.21208	0.13238	0.40969	0.028445	0.086495	0.12331	0.16325	0.22052	0.12044	0.23664	0.29237	0.15991	0.041611	0.29399	0.17178	-0.74375	-1.4042	-1.8333	-1.2208	-1.8958	-1.5917	-1.2938	-2.2729	-1.2292	-1.4417	-1.9771	-1.2479	-2.0104	-1.6938	-1.1333	-2.1625	247.123	141.895	184.495	223.163	207.702	54.462	12.090	203.719	93.996	142.346	240.550	169.283	-92.530	-71.033	-72.818	175.988	0.00035118	0.0011228	0.00019162	1387.9	7.5513e-06	1.0004e-05	1610.5	477.08	3.5534e-06	4.5306e-06	599.7	212.53	167.85	79.099	2.7307e-06	110.02	0.00080362	0.00081883	0.00022603	1363.9	8.9162e-06	8.9936e-06	1581.7	472.89	8.8295e-06	8.945e-06	589.43	212.55	168.68	78.702	8.9091e-06	108.47	233.932	-15.460	-25.181	-86.774	42.921	26.083	-87.557	-82.058	-15.647	-19.646	-83.414	-78.270	-76.202	-70.298	74.772	-72.741	-8191	255	
808.082	1	1	0	0	0.22327	0.11347	0.12591	0.23061	0.096544	0.16716	0.21816	0.39224	0.26067	0.33181	0.1403	0.11646	0.094747	0.023771	0.14048	0.23777	-1.1042	-1.3438	-1.875	-1.1792	-1.6667	-1.7604	-1.025	-2.1562	-1.4125	-1.3833	-2.1542	-1.2375	-1.7	-2.025	-1.1042	-2.1437	214.702	203.750	73.830	196.611	151.682	29.397	247.550	206.148	210.160	-99.081	-39.644	158.459	238.310	-74.479	-88.763	215.713	0.00031779	0.0010069	0.00024056	1389.3	4.0239e-06	8.6613e-06	1599.7	477.39	3.6359e-06	6.7685e-06	592.65	211.17	167.21	78.526	4.5865e-06	108.58	0.00080571	0.00082462	0.00022639	1363.8	8.8986e-06	8.9371e-06	1576.5	472.03	8.9519e-06	8.9889e-06	584.47	210.87	168.01	78.259	8.8138e-06	107.24	229.691	15.047	-4.065	-86.968	6.270	35.574	-87.482	-81.800	40.960	54.585	-83.529	-78.059	-75.915	-70.123	42.622	-72.587	-8191	255	
808.176	1	1	0	0	0.29203	0.22086	0.14355	0.31131	0.08747	0.23381	0.24284	0.13022	0.024716	0.13979	0.074444	0.25235	0.30307	0.14046	0.15487	0.15097	-1.1437	-1.1187	-2.0521	-1.3229	-1.5729	-1.9292	-1.3062	-2.1958	-1.8042	-1.1729	-2.2229	-1.2542	-1.5542	-2.1208	-1.075	-1.9937	-3.165	209.937	256.947	221.526	68.532	71.901	137.023	227.055	-71.694	68.205	102.951	165.560	185.966	163.744	170.061	185.980	0.00036518	0.00057611	7.2788e-05	1390.3	6.9243e-06	1.0959e-05	1600.5	477.68	1.5668e-06	1.167e-05	592.16	210.95	168.02	78.826	1.0332e-05	108.69	0.00080193	0.00080717	0.00022461	1361.4	8.7256e-06	8.8134e-06	1572.6	471.93	8.8527e-06	8.8133e-06	583.12	210.5	168.11	78.393	8.8593e-06	107.5	228.988	-31.735	8.065	-86.736	10.239	70.068	-87.392	-81.735	146.141	44.467	-83.388	-78.130	-75.781	-70.068	102.075	-72.767	-8191	255	
808.272	1	1	0	0	0.077427	0.25813	0.24616	0.4182	0.088096	0.38666	0.21062	0.090214	0.32084	0.044224	0.10658	0.090394	0.31131	0.36288	0.13385	0.18721	-1.4833	-1.1583	-1.8771	-1.6396	-1.45	-1.7917	-1.2812	-1.9646	-1.7188	-1.0917	-1.9438	-1.5583	-1.5875	-2.2021	-1.2146	-1.8604	98.628	87.354	207.909	239.720	-25.710	178.448	179.816	-93.874	52.530	56.772	241.757	-37.867	-51.429	215.919	244.509	221.744	0.00037363	0.0008341	0.00019542	1384.1	5.8054e-06	6.2672e-06	1601.7	475.04	3.7499e-06	7.2632e-06	594.17	212.43	167.71	79.144	4.1677e-06	109.72	0.00079595	0.00079972	0.00022339	1358	8.7494e-06	8.6863e-06	1570.1	470.73	8.6634e-06	8.7155e-06	583.09	211.65	167.92	78.629	8.5056e-06	108.23	232.202	4.677	9.218	-86.708	50.959	5.842	-87.413	-81.965	113.672	57.482	-83.393	-78.118	-75.985	-70.212	143.336	-72.611	-8191	255	
808.368	1	1	0	0	0.17302	0.089237	0.18507	0.44089	0.13153	0.3778	0.19775	0.23673	0.061916	0.15697	0.28048	0.1009	0.11637	0.11247	0.2314	0.12434	-1.4125	-1.0896	-2	-1.3583	-1.3375	-2.0792	-1.4771	-1.7396	-1.7437	-1.0438	-2.0917	-1.8146	-1.3687	-1.9688	-1.0667	-1.7687	139.902	199.360	140.956	218.852	240.039	-7.488	182.684	239.088	-92.430	125.695	188.847	-61.312	-75.648	-46.967	227.846	166.249	0.0003584	0.00057438	0.00027741	1393.1	2.6654e-06	9.8187e-06	1603.1	476.08	5.4088e-06	6.7535e-06	596.91	212.81	168.6	79.178	7.0447e-06	110.08	0.0007843	0.0007848	0.00022179	1361.5	8.6994e-06	8.595e-06	1571.4	470.84	8.6097e-06	8.5292e-06	585.97	212.39	168.58	78.804	8.6664e-06	108.82	229.963	-9.441	7.484	-86.674	48.899	39.803	-87.540	-81.955	8.340	76.118	-83.143	-77.754	-75.881	-69.872	59.216	-72.730	-8191	255	
808.489	1	1	0	0	0.29412	0.045798	0.078882	0.31788	0.47186	0.11029	0.41868	0.35399	0.17419	0.11038	0.16934	0.12955	0.10217	0.14009	0.37115	0.24566	-1.4062	-1.0187	-1.8042	-1.7021	-1.0958	-2.1167	-1.3396	-1.4625	-1.9479	-1.0417	-1.9375	-1.7833	-1.2729	-2.05	-1.3896	-1.4229	214.153	45.790	-44.141	239.325	22.331	254.287	165.353	211.612	107.476	130.022	236.063	-28.510	72.641	148.621	70.679	227.419	0.00033623	0.0011434	0.00022287	1389	5.1267e-06	3.7252e-06	1609	476.12	2.3711e-06	3.4383e-06	595.72	212.75	168.3	78.88	5.368e-06	109.63	0.00076518	0.0007699	0.00021591	1362.1	8.3143e-06	8.3763e-06	1578.9	471.77	8.383e-06	8.4002e-06	585.23	211.97	168.2	78.47	8.3787e-06	108.03	220.361	-16.448	0.453	-86.961	31.500	53.264	-87.640	-81.806	55.205	29.636	-83.403	-77.800	-75.848	-70.214	102.157	-72.567	-8191	255	
808.561	1	1	0	0	0.25868	0.39245	0.19496	0.27825	0.26359	0.034475	0.10142	0.21387	0.2528	0.23297	0.21388	0.19322	0.037216	0.13451	0.38052	0.25616	-1.6125	-1.0333	-1.4562	-1.7875	-1.175	-2.1125	-1.5542	-1.4729	-1.9062	-1.1208	-1.8979	-1.7833	-1.1187	-2.1375	-1.4042	-1.1938	221.215	65.523	-56.467	204.663	173.064	149.757	16.885	249.064	167.228	174.349	164.635	-80.674	-36.792	105.380	-14.128	100.505	0.00035505	0.00098392	0.00023212	1385.3	4.6417e-06	3.1963e-06	1601.6	476.53	3.6007e-06	6.5832e-06	591.08	211.29	167.35	78.449	4.3439e-06	108.18	0.00074556	0.00076088	0.00021077	1363.1	8.1753e-06	8.2448e-06	1570.9	470.29	8.1348e-06	8.2753e-06	581.41	210.15	167.25	77.981	8.1894e-06	106.87	233.492	-11.406	-22.531	-86.519	23.641	58.158	-87.568	-81.929	34.197	59.394	-83.348	-78.326	-76.276	-70.281	103.179	-72.581	-8191	255	
808.657	1	1	0	0	0.35897	0.22621	0.14317	0.17499	0.17903	0.17244	0.1472	0.17945	0.24675	0.25099	0.42685	0.32428	0.28286	0.12407	0.16098	0.21098	-1.4646	-1.025	-1.4833	-1.9667	-1.1562	-1.9312	-1.8229	-1.4771	-1.775	-1.2313	-1.6958	-1.9625	-1.1021	-2.0792	-1.6292	-1.2646	234.347	84.132	147.960	196.778	-58.685	-86.931	241.463	157.790	-68.059	4.124	166.659	223.996	151.382	254.948	115.222	189.800	0.00036018	0.00044904	0.00010051	1387.5	4.3843e-06	5.178e-06	1598	475.32	5.3564e-06	7.7567e-06	591.83	211.99	167.04	78.458	7.0131e-06	108.53	0.00073174	0.0007427	0.00020694	1359.4	8.0677e-06	8.0855e-06	1569.9	469.75	8.0295e-06	8.1394e-06	581.5	210.29	167.13	77.963	8.0886e-06	106.93	224.266	-40.551	31.925	-86.902	24.989	54.721	-87.575	-81.864	59.085	70.454	-83.332	-77.984	-76.074	-70.094	34.984	-72.686	-8191	255	
808.753	1	1	0	0	0.24557	0.19492	0.31891	0.082711	0.059221	0.23944	0.18883	0.14075	0.058378	0.10072	0.23156	0.22913	0.28657	0.10196	0.22303	0.21487	-1.7271	-1.2125	-1.4229	-2.3021	-1.0354	-1.7229	-1.8583	-1.2854	-2.0438	-1.1604	-1.6021	-2.1167	-1.2229	-1.7188	-1.8042	-1.4021	19.683	77.922	29.614	198.328	110.274	179.377	218.325	205.711	-60.568	226.923	229.645	158.633	144.721	77.733	26.362	227.553	0.00035129	0.0011306	0.00022949	1389	5.6367e-06	1.2374e-05	1607.9	475.75	1.0643e-06	5.0419e-06	593.38	211.99	167.81	78.656	6.2093e-06	109.49	0.00073649	0.00074117	0.00020457	1361.6	8.0495e-06	8.0636e-06	1574.4	470.71	8.1585e-06	8.0358e-06	583.28	211.35	167.79	78.306	8.0608e-06	107.93	241.872	-5.314	-4.208	-86.813	20.935	51.272	-87.436	-81.824	169.367	56.478	-83.462	-78.318	-76.048	-70.177	66.484	-72.526	-8191	255	
808.873	1	1	0	0	0.17863	0.30459	0.20157	0.44974	0.17242	0.13226	0.29945	0.54453	0.10802	0.44404	0.19952	0.36295	0.16324	0.081897	0.15844	0.24477	-1.3646	-1.2583	-1.0667	-2.2292	-1.2958	-1.6271	-2.0833	-1.1625	-2.0042	-1.3125	-1.3771	-2.2562	-1.4333	-1.7563	-1.5479	-1.0042	43.736	61.850	235.116	-99.508	40.296	164.420	193.405	204.220	61.731	-39.247	-25.448	179.033	-96.254	233.725	86.993	233.475	0.00041322	0.00099795	0.00033825	1392.1	3.6745e-06	5.9723e-06	1616	475.66	5.5085e-06	6.6502e-06	595.21	212.83	168.02	79.389	4.524e-06	110.62	0.00073857	0.00074403	0.00020637	1364.4	8.0786e-06	8.1252e-06	1579.1	471.14	8.1241e-06	8.1429e-06	585.45	212.2	168.47	78.94	8.2556e-06	108.97	231.061	-40.494	-22.966	-86.926	50.226	50.636	-87.539	-81.803	77.376	42.635	-83.432	-78.061	-76.100	-70.152	64.933	-72.732	-8191	255	
808.970	1	1	0	0	0.29518	0.14938	0.055245	0.22099	0.04331	0.092941	0.39936	0.12943	0.042078	0.13415	0.14859	0.27522	0.31976	0.39921	0.15841	0.20115	-1.3729	-1.5063	-1.0854	-2.0896	-1.1437	-1.3771	-1.9333	-1.2333	-1.95	-1.5208	-1.2083	-2.1188	-1.2896	-1.4458	-1.9625	-1.15	-17.273	56.417	-36.170	222.933	-81.368	-88.127	194.418	185.112	110.442	-46.761	125.287	191.732	243.470	-88.683	177.309	215.713	0.00039917	0.00041289	0.00020756	1395.2	4.4501e-06	9.7888e-06	1607.9	477.83	3.1797e-06	5.415e-06	593.44	212.9	168.2	79.41	7.4917e-06	109.45	0.00074042	0.00075874	0.00020836	1367.7	8.1136e-06	8.2893e-06	1580.4	472.5	8.3498e-06	8.3272e-06	584.03	211.88	168.65	78.776	8.3777e-06	108.15	225.719	8.884	-26.335	-86.813	94.058	40.828	-87.542	-81.679	106.361	23.656	-83.314	-78.042	-76.025	-69.996	70.717	-72.631	-8191	255	
809.066	1	1	0	0	0.24083	0.12415	0.093267	0.068753	0.09558	0.18534	0.14296	0.29079	0.26981	0.17536	0.25649	0.11839	0.24426	0.16721	0.11207	0.46584	-1.4542	-1.7021	-1.2167	-2.0958	-1.3792	-1.3833	-2.1896	-1.3417	-1.6396	-1.7521	-1.0333	-2.0229	-1.6083	-1.3396	-1.9479	-1.3354	126.232	-25.138	47.504	-78.658	175.306	-10.286	-82.088	185.145	-63.117	-83.361	247.629	196.541	-45.907	226.255	132.554	219.238	0.00034986	0.00056619	0.00020065	1393.9	5.2978e-06	9.1376e-06	1597.2	476.57	5.2803e-06	1.0537e-05	591.26	211.44	167.56	79.326	1.9522e-06	108.87	0.00075629	0.00076671	0.00021034	1364.8	8.436e-06	8.3615e-06	1568.8	471.69	8.3329e-06	8.3817e-06	581.5	210.59	168.2	78.817	8.2761e-06	107.56	234.583	7.108	23.505	-86.719	76.921	41.326	-87.419	-81.868	25.642	61.447	-83.287	-78.015	-76.085	-69.954	179.735	-72.556	-8191	255	
809.162	1	1	0	0	0.029413	0.26904	0.1964	0.16432	0.070593	0.18702	0.35263	0.037131	0.092242	0.37898	0.19008	0.25044	0.097453	0.13323	0.25262	0.3486	-1.2354	-1.7188	-0.95417	-2.1146	-1.425	-0.98542	-2.3771	-1.2854	-1.4125	-1.8687	-1.2417	-2.0438	-1.8125	-1.2875	-1.7708	-1.2583	190.844	-56.395	-98.332	226.590	145.683	54.260	208.817	245.295	175.171	197.274	136.716	-89.624	-73.755	128.450	205.653	124.241	0.00039039	0.0011233	0.00027355	1395	7.4131e-06	6.0401e-06	1597	477.79	4.349e-06	1.1329e-05	591.66	212.25	168.75	79.247	3.8297e-06	109.5	0.00076018	0.00076761	0.00021511	1364.8	8.4582e-06	8.5053e-06	1570.3	472.48	8.4714e-06	8.5187e-06	582.32	211.45	168.8	78.831	8.5131e-06	108.23	228.416	4.764	-11.738	-86.805	67.809	8.748	-87.353	-81.974	40.434	58.638	-83.535	-78.029	-76.119	-70.047	62.926	-72.907	-8191	255	
809.258	1	1	0	0	0.21672	0.17208	0.23559	0.19422	0.30196	0.063452	0.2989	0.24863	0.25014	0.24043	0.17481	0.22118	0.078876	0.22013	0.17296	0.26504	-1.0938	-1.7938	-1.2	-2.0354	-1.7167	-1.0938	-2.1312	-1.4375	-1.2604	-1.9625	-1.1812	-1.8958	-1.8729	-1.0896	-2.0438	-1.5208	72.358	-23.840	23.758	-97.587	44.076	-58.118	183.203	233.225	-38.348	178.559	108.519	184.640	141.856	-75.753	36.567	127.028	0.00038071	0.00047309	0.00020996	1392.3	5.9795e-06	9.2561e-06	1607.7	476.91	3.1152e-06	7.4849e-06	595.27	213.01	168.59	79.406	6.6826e-06	110.37	0.00077334	0.00077375	0.0002148	1367.9	8.4412e-06	8.4473e-06	1578.6	472.86	8.5475e-06	8.4996e-06	585.52	212.54	168.68	78.922	8.4714e-06	108.61	225.012	12.159	54.581	-86.736	110.547	39.801	-87.495	-82.111	69.983	94.833	-83.449	-77.818	-75.935	-70.015	25.248	-72.757	-8191	255	
809.354	1	1	0	0	0.26736	0.2915	0.34816	0.34828	0.30801	0.26504	0.2373	0.35877	0.2355	0.12213	0.094318	0.1412	0.21924	0.093963	0.06128	0.39626	-1.1938	-1.9292	-1.0229	-1.8208	-1.6271	-0.96667	-1.9188	-1.3625	-1.1812	-1.9354	-1.2917	-1.9333	-1.75	-1.3333	-2.1042	-1.7563	202.425	41.025	69.775	219.194	67.699	69.882	234.420	232.663	242.871	185.313	249.056	-66.232	118.763	107.671	103.456	198.223	0.00039944	0.00047495	0.00025749	1398.7	1.5988e-06	3.5868e-06	1617	480.01	2.6981e-06	7.989e-06	600.51	213.96	169.04	79.384	5.178e-06	110.5	0.00077553	0.00076749	0.00021672	1370.6	8.4831e-06	8.4913e-06	1585.1	473.94	8.424e-06	8.3767e-06	588.7	213.04	169.31	78.934	8.3293e-06	108.7	231.654	23.127	18.931	-86.688	13.152	49.226	-87.293	-81.786	47.447	34.897	-83.492	-78.062	-76.016	-70.101	18.727	-72.873	-8191	255	
809.473	1	1	0	0	0.18959	0.13454	0.063529	0.23042	0.18561	0.14339	0.25224	0.27178	0.24273	0.15467	0.12148	0.23633	0.13098	0.34898	0.065124	0.22585	-0.8875	-1.8521	-1.2729	-1.5958	-1.6896	-1.0583	-1.8813	-1.7292	-1.1646	-2.0229	-1.4458	-1.6521	-2.1437	-1.1667	-1.6542	-1.9396	49.201	-18.775	58.782	-97.189	172.043	258.843	203.250	203.814	65.177	185.130	214.187	212.384	250.247	239.107	-73.854	203.692	0.00034246	0.00069914	0.0002241	1404.7	2.8021e-06	1.0722e-05	1628	479.67	3.9824e-06	6.5569e-06	595.93	212.18	167.68	78.514	6.104e-06	108.41	0.00075637	0.00075617	0.00021133	1380.2	8.2168e-06	8.172e-06	1592.5	474.55	8.0357e-06	8.2444e-06	585.97	211.66	168.02	78.049	8.2207e-06	106.96	228.381	-0.105	-10.995	-86.705	18.938	75.645	-87.519	-81.853	11.634	44.762	-83.543	-77.838	-75.990	-70.179	78.300	-72.726	-8191	255	
809.569	1	1	0	0	0.12078	0.27451	0.15223	0.29258	0.045585	0.022775	0.20777	0.15974	0.21612	0.12288	0.27497	0.32745	0.12799	0.072079	0.1623	0.28839	-0.72292	-2.025	-1.1083	-1.6271	-2.0542	-0.96042	-1.9542	-1.7292	-1.0375	-1.9062	-1.5271	-1.4396	-2.0771	-1.3188	-1.6396	-1.8083	-54.967	187.179	156.362	231.048	117.619	-42.260	199.394	216.296	-27.891	-70.010	220.644	216.694	203.807	240.818	258.305	-81.110	0.0003556	0.0010216	0.00023617	1410.2	5.2363e-06	4.9949e-06	1619.9	478.9	4.9864e-06	5.739e-06	593.4	211.29	167.81	78.192	4.8293e-06	108.12	0.00073287	0.00073422	0.00020793	1379.6	8.0618e-06	8.0565e-06	1588.3	472.79	7.9893e-06	8.0377e-06	582.86	210.13	167.47	77.55	8.0401e-06	106.35	223.838	-22.890	18.633	-86.678	94.091	98.800	-87.694	-81.920	-3.355	52.223	-83.606	-78.160	-76.024	-70.367	67.243	-72.793	-8191	255	
809.665	1	1	0	0	0.27431	0.28475	0.39282	0.35318	0.071853	0.2143	0.15759	0.39262	0.32493	0.22207	0.18612	0.19469	0.099003	0.28945	0.039222	0.29836	-0.58542	-1.9667	-1.5604	-1.4312	-1.8021	-1.2396	-1.7146	-1.9771	-1.0979	-1.9125	-1.4917	-1.3625	-2.1271	-1.3542	-1.5271	-2.0354	-17.986	-7.899	45.002	226.941	126.020	228.276	-80.615	260.158	-54.332	1.140	47.098	245.689	-62.781	258.701	13.775	233.838	0.000379	0.0007173	5.4269e-05	1407.6	5.2998e-06	7.7762e-06	1621.6	477.94	5.5738e-06	6.4962e-06	592.8	211.43	167.11	78.061	2.7811e-06	108.23	0.00072921	0.00073743	0.00020586	1377.3	7.8994e-06	7.9715e-06	1587.1	471.93	7.942e-06	7.9511e-06	582.15	210.27	167.26	77.661	8.014e-06	106.79	223.873	-17.153	-12.065	-86.778	103.319	99.995	-87.568	-81.846	23.991	43.150	-83.264	-78.061	-76.096	-70.024	36.045	-72.618	-8191	255	
809.786	1	1	0	0	0.22373	0.16794	0.1039	0.26911	0.085517	0.080059	0.17434	0.29082	0.27783	0.14639	0.20937	0.14253	0.1706	0.081943	0.20751	0.25221	-0.70625	-1.8417	-1.6562	-1.2979	-1.9771	-1.1583	-1.6938	-2.1312	-0.95833	-1.8458	-1.6958	-1.1104	-2.0667	-1.4229	-1.2437	-2.1542	146.450	186.906	-43.085	244.000	33.378	-8.056	207.262	245.851	192.581	-63.338	-37.608	-80.264	24.063	-56.174	-7.292	237.612	0.00031361	0.00089112	9.8709e-05	1404.3	7.9735e-06	1.0718e-05	1617.5	477.07	1.5394e-06	8.9265e-06	593.74	211.33	168.17	78.621	7.4139e-06	108.93	0.00072054	0.00073474	0.00020431	1375.3	7.9043e-06	8.0035e-06	1585.7	472.8	7.9678e-06	7.9503e-06	584.26	211.19	168.16	78.061	7.9223e-06	107.48	234.443	1.691	51.658	-86.721	39.410	73.169	-87.424	-81.886	68.309	70.060	-83.515	-77.945	-75.822	-70.257	49.007	-72.623	-8191	255	
809.858	1	1	0	0	0.19763	0.13619	0.11061	0.42028	0.10933	0.19866	0.17729	0.29162	0.18305	0.12698	0.26523	0.27161	0.12344	0.14219	0.30455	0.12339	-0.72708	-1.6854	-1.975	-1.2687	-1.8667	-1.5542	-1.5063	-2.1937	-1.1396	-1.5771	-1.9188	-1.3271	-1.9188	-1.6083	-1.3125	-2.2083	179.677	38.372	-0.958	218.010	203.183	-38.247	146.374	181.869	25.716	196.134	207.666	211.858	31.293	214.242	42.733	257.884	0.00035583	0.00051273	0.00022092	1407.9	6.1589e-06	5.3678e-06	1626	479.21	5.7703e-06	5.57e-06	596.14	213.11	168.8	78.367	7.7901e-06	109.23	0.00072119	0.00073334	0.00020114	1377.3	7.8448e-06	7.93e-06	1592.6	473.68	7.928e-06	8.0221e-06	586.45	212.24	168.36	77.94	7.8062e-06	107.68	233.009	-42.281	31.792	-86.610	90.480	77.178	-87.606	-81.932	15.305	40.531	-83.454	-78.090	-75.899	-70.235	34.513	-72.655	-8191	255	
809.952	1	1	0	0	0.065819	0.19703	0.052526	0.34324	0.086315	0.12461	0.17505	0.30644	0.1101	0.16545	0.089776	0.2181	0.10645	0.27587	0.11766	0.29663	-0.78542	-1.5292	-1.6417	-1.3917	-1.6729	-1.4438	-1.4146	-2.3354	-1.0542	-1.7208	-2.2896	-1.2333	-2.0271	-1.8604	-0.99375	-2.2271	112.040	76.388	166.610	-64.940	205.340	79.453	232.933	85.388	47.713	153.571	183.750	240.873	240.303	-78.493	218.390	239.699	0.00034964	0.00039716	0.0002792	1407.2	7.3935e-06	9.3108e-06	1614.6	479.8	2.2485e-06	4.757e-06	593.64	211.48	167.6	78.19	5.1405e-06	107.95	0.00072014	0.000712	0.0001963	1375.2	7.859e-06	7.8204e-06	1583.2	473.2	7.9189e-06	7.8794e-06	582.91	210.24	167.45	77.645	7.9286e-06	106.57	228.070	-2.494	-10.696	-86.657	40.341	48.441	-87.337	-81.790	18.645	113.762	-83.518	-77.940	-75.808	-70.284	48.563	-72.719	-8191	255	
810.048	1	1	0	0	0.079318	0.22085	0.45424	0.34797	0.26708	0.15737	0.36886	0.2056	0.11952	0.25694	0.36574	0.32024	0.28075	0.20211	0.19597	0.2682	-0.79167	-1.375	-2.0271	-1.4146	-1.6542	-1.8458	-1.4542	-2.1042	-1.4062	-1.15	-2.0812	-1.3333	-1.8062	-2.0438	-1.1583	-2.1167	16.964	74.934	90.077	252.066	-70.154	73.757	216.882	214.740	98.139	89.755	230.357	217.067	239.688	250.473	63.436	210.750	0.00030892	0.00059541	0.00019897	1402.7	4.1397e-06	3.4556e-06	1610.2	478.27	4.7619e-06	4.1683e-06	593.36	210.75	167.08	78.2	3.8225e-06	108.04	0.00071842	0.00073043	0.0001997	1373.6	7.8776e-06	8.0204e-06	1575.4	472.53	7.8997e-06	7.8811e-06	582.04	209.85	167.5	77.608	7.9842e-06	106.49	233.887	-21.207	17.092	-86.821	103.885	128.849	-87.659	-81.866	33.151	84.049	-83.669	-78.206	-75.958	-70.229	-12.008	-72.719	-8191	255	
810.169	1	1	0	0	0.30482	0.17063	0.13926	0.36045	0.030287	0.16845	0.14191	0.16358	0.30118	0.2311	0.099815	0.19129	0.3031	0.20056	0.022884	0.057442	-1.0938	-1.2625	-1.9125	-1.3604	-1.6417	-1.8292	-1.2687	-2.2479	-1.6396	-1.3396	-2.2771	-1.2667	-1.6042	-2.1771	-1.0542	-1.9688	237.040	45.892	92.210	-83.694	94.146	191.972	64.688	238.238	93.251	66.788	-70.561	232.103	-93.518	236.984	77.602	147.127	0.00036129	0.0008578	0.00031397	1398.7	8.863e-06	7.2492e-06	1609.8	479.74	5.6176e-06	5.5558e-06	594.51	211.39	168.31	78.583	6.018e-06	108.96	0.00072783	0.0007214	0.00020243	1371.5	7.9749e-06	8.0138e-06	1575.4	473.83	8.0176e-06	8.012e-06	583.49	210.49	168.1	77.997	8.1145e-06	107.42	223.369	-14.087	4.644	-86.710	84.662	61.819	-87.381	-82.060	18.932	104.439	-83.403	-78.116	-75.747	-70.343	104.596	-72.634	-8191	255	
810.265	1	1	0	0	0.041193	0.1327	0.27539	0.38714	0.12276	0.10803	0.10116	0.43889	0.13522	0.025698	0.043817	0.29911	0.18042	0.085612	0.10743	0.20468	-1.2917	-1.0625	-1.9	-1.6083	-1.3417	-1.8062	-1.3583	-1.9604	-1.5583	-1.1917	-2.1479	-1.7042	-1.2625	-2.0646	-0.9625	-1.8646	-33.253	216.229	34.546	-96.677	244.607	-37.370	68.248	239.287	61.683	115.541	106.279	191.853	92.285	-20.745	22.328	211.471	0.00035919	0.00061987	0.0002608	1400.8	7.3938e-06	1.1786e-05	1608.8	481.29	6.2762e-06	7.1392e-06	598.3	212.95	169.78	79.139	1.1796e-05	110.07	0.00074256	0.00075056	0.00020671	1373.1	8.2421e-06	8.2014e-06	1579.2	474.91	8.24e-06	8.2173e-06	586.47	212.08	169.16	78.704	8.2783e-06	108.76	228.413	-54.287	5.793	-86.958	19.513	54.213	-87.446	-81.782	52.119	84.964	-83.414	-77.918	-76.105	-70.113	89.888	-72.600	-8191	255	
810.361	1	1	0	0	0.027866	0.1159	0.1416	0.10971	0.064599	0.068317	0.11291	0.28684	0.25554	0.1484	0.2768	0.21926	0.33949	0.22335	0.25363	0.22242	-1.2917	-0.97917	-1.975	-1.5792	-1.2375	-1.875	-1.3708	-1.7812	-1.7812	-1.0583	-2.1042	-1.5958	-1.3479	-2.1646	-1.1333	-1.9	161.066	207.015	-47.196	137.039	-27.254	123.248	155.690	156.590	-87.738	83.569	215.513	-79.442	209.499	-83.559	-81.144	197.924	0.00039937	0.00078129	0.00026499	1401.8	6.2332e-06	5.6407e-06	1613.9	481.94	2.1432e-06	1.2958e-05	598.5	213.77	169.78	79.498	6.3127e-06	110.61	0.00075533	0.00076158	0.00021256	1373.7	8.3249e-06	8.3075e-06	1581.4	476.39	8.4001e-06	8.3932e-06	589.06	213.42	169.65	78.918	8.3153e-06	109	238.369	6.427	14.483	-86.658	124.035	61.305	-87.488	-81.889	-83.308	53.976	-83.181	-78.160	-75.868	-70.163	116.247	-72.423	-8191	255	
810.433	1	1	0	0	0.25178	0.39168	0.16523	0.21329	0.15458	0.10916	0.37413	0.34274	0.24834	0.15265	0.11561	0.15838	0.33925	0.30565	0.21366	0.51753	-1.5	-1.1667	-1.8146	-1.8208	-1.1354	-2.0292	-1.5229	-1.6458	-1.8667	-0.85417	-2.125	-1.8479	-1.2292	-2.3688	-1.275	-1.6292	222.541	196.083	221.749	-34.876	-87.837	108.546	198.401	206.321	-5.744	-24.040	-59.808	177.608	-93.734	220.218	-19.028	209.040	0.00031893	0.0006775	0.00023368	1399.2	5.281e-07	1.5683e-06	1600.9	479.91	2.1069e-06	5.8394e-06	596.62	212.55	169.21	78.931	3.9105e-06	109.24	0.00075083	0.00076024	0.0002147	1372.5	8.309e-06	8.4057e-06	1572.6	474.85	8.285e-06	8.3729e-06	583.63	211.21	169.12	78.604	8.3461e-06	107.79	220.617	-17.995	-30.644	-86.768	4.028	122.598	-87.493	-81.562	11.536	80.272	-83.149	-78.179	-75.890	-70.123	37.691	-72.263	-8191	255	
810.553	1	1	0	0	0.42053	0.28084	0.097381	0.26417	0.23876	0.28229	0.17767	0.17866	0.21381	0.15232	0.094413	0.17343	0.17177	0.17685	0.14147	0.24501	-1.6396	-1.1729	-1.6396	-1.7917	-1.0542	-2.0604	-1.4958	-1.4958	-1.7083	-1.0958	-1.8563	-1.9792	-1.2437	-2.1667	-1.5438	-1.5688	80.344	17.826	-1.781	-91.270	43.810	7.632	218.097	232.793	62.442	95.963	230.107	-75.335	-97.497	210.320	221.834	-85.238	0.00036901	0.00041155	0.00015466	1396	7.6076e-06	6.4781e-06	1597.3	478.89	5.1407e-07	1.4344e-05	592.05	211.3	168.16	79.077	2.7015e-06	109.17	0.00075455	0.00075276	0.00020926	1367.8	8.1458e-06	8.2346e-06	1566.5	472.9	8.1431e-06	8.2161e-06	581.46	210.43	168.32	78.481	8.2792e-06	107.67	224.596	-14.506	13.664	-86.700	77.061	46.925	-87.569	-81.943	67.006	47.387	-83.323	-78.219	-75.951	-70.370	56.940	-72.524	-8191	255	
810.650	1	1	0	0	0.11158	0.21774	0.092313	0.15319	0.21266	0.18092	0.22259	0.12992	0.26436	0.12252	0.16027	0.11388	0.27517	0.17976	0.14146	0.041168	-1.8438	-0.9125	-1.7396	-2	-1.1396	-2.1604	-1.8271	-1.4146	-1.9708	-1.3438	-1.6979	-2.1708	-1.275	-2.1396	-1.7021	-1.4813	-87.161	228.917	160.127	-96.320	138.501	65.204	-45.491	169.498	70.131	239.562	217.752	37.139	173.521	219.389	260.067	-17.063	0.00034387	0.0012545	0.00024678	1397.4	4.3607e-06	3.9707e-06	1593.7	478.25	4.7837e-06	3.0712e-06	590.58	211.64	168.04	79.235	9.7845e-06	109.41	0.00074907	0.00074308	0.00020731	1365.8	8.0096e-06	8.1814e-06	1564.9	472.02	8.0891e-06	8.1763e-06	580.5	210.65	168	78.441	8.2001e-06	107.91	222.387	-25.444	0.534	-86.762	41.800	4.473	-87.508	-81.542	62.765	79.640	-83.120	-77.946	-75.923	-70.008	53.450	-72.514	-8191	255	
810.746	1	1	0	0	0.085287	0.22413	0.35286	0.27373	0.28202	0.24274	0.21935	0.2154	0.30072	0.036463	0.45973	0.11487	0.16869	0.08736	0.18259	0.34861	-1.6104	-1.4979	-1.5646	-2.1708	-1.0021	-1.8813	-2.0333	-1.3042	-1.7792	-1.275	-1.6375	-2.0896	-1.2708	-2.0083	-1.6375	-1.2938	-89.009	216.062	238.569	235.074	166.463	45.969	135.531	229.048	121.724	93.041	234.235	95.086	258.671	143.339	237.986	174.006	0.0003696	0.00052338	0.00017847	1394	3.9975e-06	9.8403e-06	1599.8	478.32	4.714e-06	5.8818e-06	593.26	212.84	168.26	79.045	1.5565e-06	109.95	0.00073348	0.00074235	0.00020747	1366.7	8.035e-06	8.1743e-06	1570.7	473.29	7.9286e-06	8.1491e-06	582.38	211.77	168.59	78.588	8.0983e-06	108.5	228.486	16.142	45.247	-86.622	30.183	37.053	-87.519	-81.720	46.806	64.811	-83.376	-77.992	-75.859	-70.099	41.531	-72.488	-8191	255	
810.865	1	1	0	0	0.23247	0.088973	0.24244	0.16757	0.28207	0.17028	0.11039	0.11846	0.21158	0.079459	0.28899	0.25404	0.29956	0.20709	0.17788	0.39105	-1.7646	-1.2771	-1.3833	-2.3979	-1.1104	-1.7062	-2.0458	-1.3438	-2.0667	-1.3833	-1.4083	-1.9813	-1.1833	-1.7188	-1.6437	-1.2021	135.376	-98.043	98.808	249.048	93.015	29.687	176.826	-51.262	-77.279	209.583	252.678	-72.379	159.927	234.768	-23.080	228.242	0.00036497	0.00050134	0.00026434	1399.1	9.0692e-06	1.0588e-05	1608.4	481.16	5.9546e-07	5.8477e-06	597.46	214.32	169.05	79.617	2.6705e-06	109.85	0.00072755	0.00073456	0.00020206	1370.9	7.9075e-06	8.0282e-06	1578.8	474.44	7.922e-06	8.0303e-06	586.78	212.67	168.98	78.79	7.8674e-06	108.48	224.450	8.335	-36.534	-86.646	56.043	76.811	-87.280	-81.737	-51.228	78.944	-83.294	-77.920	-76.263	-70.071	78.726	-72.765	-8191	255	
810.961	1	1	0	0	0.2321	0.14653	0.23023	0.16968	0.24933	0.18497	0.20514	0.18671	0.28626	0.20966	0.12551	0.12323	0.043047	0.41375	0.086677	0.17537	-1.6292	-1.5521	-1.1812	-2.3354	-1.225	-1.4979	-2.0312	-1.2458	-2.0271	-1.4625	-1.3542	-2.1208	-1.5521	-1.7292	-1.925	-1.1271	250.053	-82.475	249.424	237.175	-26.239	88.673	121.721	154.876	29.968	20.534	206.289	-65.011	-45.052	-94.426	78.537	166.059	0.0003901	0.0013625	0.00029662	1406.3	6.959e-06	9.3515e-06	1608.9	479.38	4.7552e-06	6.9966e-06	589.96	211.84	167.82	78.719	5.3794e-06	108.75	0.00071326	0.00072201	0.00020042	1372.4	7.8617e-06	7.9344e-06	1574.2	473.18	7.8631e-06	7.8706e-06	580.15	210.74	167.87	78.198	7.7929e-06	107.24	227.528	-28.576	15.165	-86.683	53.510	31.380	-87.560	-81.796	38.134	73.429	-83.314	-77.918	-76.048	-70.208	47.837	-72.607	-8191	255	
811.034	1	1	0	0	0.086885	0.17575	0.06964	0.14246	0.043594	0.16945	0.19768	0.31369	0.11603	0.08381	0.25404	0.198	0.015236	0.25713	0.26223	0.26509	-1.5312	-1.7667	-1.0875	-2.2271	-1.5729	-1.3604	-2.1417	-1.05	-1.8104	-1.8604	-1.1792	-2.2229	-1.5667	-1.3875	-2.1417	-1.2125	121.076	187.124	43.101	200.029	63.772	136.996	156.779	215.981	80.055	-92.260	181.573	-79.622	-48.067	-99.347	26.182	20.176	0.00035811	0.0012279	0.00017976	1399.1	5.3507e-06	7.967e-06	1601.9	477.94	4.2801e-06	9.6205e-06	590.58	210.71	168.63	78.409	7.0825e-06	108.66	0.00071573	0.00071572	0.000199	1369.6	7.8188e-06	7.803e-06	1569.6	472.04	7.8038e-06	7.8871e-06	579.8	210.27	167.95	77.941	7.7864e-06	107.08	234.572	-28.483	16.143	-86.806	86.966	87.992	-87.560	-81.770	74.862	79.739	-83.378	-77.811	-76.160	-70.049	88.576	-72.847	-8191	255	
811.153	1	1	0	0	0.1297	0.21302	0.08874	0.36393	0.18637	0.21116	0.34826	0.25181	0.11982	0.29782	0.30995	0.18406	0.14633	0.19848	0.2462	0.27661	-1.4021	-1.8062	-1.0812	-2.0854	-1.5438	-1.2792	-2.2396	-1.3583	-1.6417	-1.8729	-1.1729	-2.1	-1.7229	-1.4375	-1.95	-1.4104	-20.465	117.564	-91.285	234.423	240.270	37.800	192.758	226.893	52.273	213.994	212.766	235.205	254.270	204.570	95.464	210.065	0.00033005	0.00051759	0.00030301	1401.9	5.0981e-06	2.9032e-06	1601	478.57	5.6156e-06	1.0634e-05	591.94	211.65	168.09	78.866	7.4302e-06	109.24	0.00071698	0.00070713	0.00019781	1371.6	7.8881e-06	7.7873e-06	1570.8	472.6	7.8468e-06	7.8515e-06	581.18	210.64	168.05	78.183	7.8686e-06	107.63	237.540	1.961	-30.671	-86.617	62.922	95.974	-87.514	-81.964	35.634	69.614	-83.328	-78.188	-76.090	-70.296	67.209	-72.504	-8191	255	
811.249	1	1	0	0	0.068213	0.037616	0.18031	0.26659	0.23109	0.13309	0.39144	0.35683	0.25548	0.19401	0.2162	0.025335	0.23651	0.062125	0.14151	0.17513	-1.3646	-2.0146	-1.0146	-1.8625	-1.4729	-1.1021	-2.1562	-1.5562	-1.3854	-1.8417	-1.1458	-2.0917	-1.7083	-1.2833	-2.0396	-1.6021	199.738	225.691	-47.179	210.857	99.451	-70.420	176.847	205.558	76.293	53.746	140.397	6.004	246.480	176.279	81.683	168.299	0.00036614	0.00088025	0.00032904	1397.3	5.3266e-06	6.4054e-06	1604.9	480.61	2.5004e-06	1.0341e-05	597.51	213.23	169.09	79.011	4.8449e-06	109.92	0.0007251	0.00072498	0.00020171	1372.2	7.8808e-06	7.926e-06	1573.2	474.07	8.0854e-06	7.9613e-06	585.74	212.25	169.12	78.532	7.9733e-06	108.49	231.729	-32.489	-14.882	-86.657	27.889	49.150	-87.272	-81.940	5.801	73.436	-83.246	-78.116	-75.837	-70.128	15.394	-72.692	-8191	255	
811.345	1	1	0	0	0.23813	0.18579	0.26738	0.29315	0.43821	0.093323	0.050884	0.55895	0.16372	0.11108	0.37615	0.11666	0.30834	0.51426	0.21523	0.046894	-1.0917	-2.0292	-1.1604	-1.8979	-1.6146	-1.2667	-2.2375	-1.6938	-1.1979	-1.8042	-1.4062	-1.7958	-1.9562	-1.2437	-2.1896	-1.5562	158.016	82.691	-98.556	240.258	61.342	102.761	-59.297	215.583	-69.118	-5.146	220.602	-57.938	202.443	216.035	146.623	160.986	0.00040626	0.00030715	0.00022874	1400.4	7.7098e-06	7.5798e-06	1610.3	482.09	5.1475e-06	8.7412e-06	601.86	213.86	168.95	79.611	6.0479e-06	110.01	0.00072849	0.00073334	0.00020748	1372.8	8.056e-06	8.0986e-06	1581.4	476.06	8.1006e-06	8.1689e-06	588.64	213.15	169.26	78.965	8.239e-06	108.75	227.301	-47.573	-5.531	-86.608	25.847	32.731	-87.404	-81.971	45.874	55.376	-83.306	-77.954	-75.995	-70.110	104.197	-72.573	-8191	255	
811.466	1	1	0	0	0.19129	0.17507	0.12567	0.27937	0.045986	0.29319	0.33944	0.47333	0.27072	0.27527	0.10982	0.21807	0.088923	0.22704	0.29504	0.21934	-0.75	-1.8687	-1.0792	-1.6708	-1.6542	-1.0083	-2.2917	-1.6542	-1.1458	-1.9083	-1.3188	-1.3813	-2.1958	-1.3042	-1.7917	-1.8333	131.110	61.500	1.688	216.972	211.607	107.685	142.313	-89.455	238.004	55.043	217.417	251.306	219.296	205.523	104.756	216.508	0.00034315	0.00095936	0.00025702	1403.5	5.2483e-06	8.9061e-06	1605.1	481.08	4.5949e-06	9.2655e-06	593.22	212.59	169.1	78.673	4.9752e-06	108.91	0.00073943	0.0007478	0.00020668	1375.9	8.0741e-06	8.1818e-06	1575.6	475.28	8.1189e-06	8.0779e-06	583.46	211.41	168.78	78.32	8.1507e-06	107.51	238.029	-18.488	-27.628	-86.442	45.685	76.261	-87.203	-81.760	32.814	42.357	-83.517	-77.849	-75.900	-69.987	43.885	-72.711	-8191	255	
811.560	1	1	0	0	0.035822	0.074039	0.16686	0.35583	0.2862	0.031385	0.26935	0.20481	0.074959	0.054431	0.18447	0.35949	0.13366	0.26515	0.21033	0.34335	-0.77917	-2.0292	-1.2292	-1.6542	-2.0062	-1.0458	-2.0021	-1.7437	-1.0812	-1.9125	-1.5479	-1.5312	-2.2333	-1.1979	-1.9083	-1.9188	63.180	67.374	-45.322	222.764	171.771	140.672	212.491	241.597	-91.624	32.570	238.448	206.317	-39.534	-51.212	46.177	247.151	0.00037851	0.00036976	0.00010128	1404.4	4.2901e-06	5.6225e-07	1605.9	480.79	3.2866e-06	1.1997e-05	592.36	210.95	168.47	78.757	2.7959e-06	109.2	0.00073643	0.00074391	0.00020953	1373.6	8.0766e-06	8.0715e-06	1573.8	474.68	8.1026e-06	8.286e-06	582.12	210.29	168.44	78.256	8.1833e-06	107.65	229.503	-15.366	5.249	-86.538	30.994	89.639	-87.311	-81.718	93.414	82.962	-83.296	-77.881	-75.966	-70.069	24.970	-72.631	-8191	255	
811.657	1	1	0	0	0.24233	0.13858	0.14214	0.18358	0.11568	0.063392	0.22878	0.11898	0.14374	0.15994	0.26121	0.16554	0.22766	0.36865	0.14778	0.095904	-0.85	-1.9833	-1.3771	-1.4188	-2.0771	-1.275	-1.8771	-1.9646	-0.96667	-1.8854	-1.4521	-1.3104	-2.1958	-1.4979	-1.525	-2.1458	-2.585	118.163	-77.941	181.402	192.310	52.988	173.018	215.408	129.005	-73.266	-63.283	245.531	155.119	223.185	90.271	130.797	0.00041468	3.6902e-05	0.00042077	1396.9	8.4113e-06	6.2671e-06	1603.2	481.24	5.7742e-06	1.1587e-05	592.57	211.85	168.57	78.969	1.0004e-05	109.84	0.00073495	0.00074479	0.00020879	1369.7	8.1709e-06	8.2356e-06	1570.4	474.84	8.1885e-06	8.2087e-06	582.8	211.43	168.55	78.428	8.3525e-06	108.34	217.797	9.915	-13.390	-86.769	67.294	41.815	-87.308	-81.913	42.215	51.042	-83.101	-77.853	-76.055	-70.126	80.676	-72.539	-8191	255	
811.730	1	1	0	0	0.21187	0.046009	0.062208	0.17964	0.21579	0.38164	0.16329	0.24327	0.49425	0.24631	0.23334	0.1697	0.20665	0.39358	0.081795	0.13627	-0.59583	-1.7333	-1.6604	-1.1771	-2.0104	-1.2583	-1.7208	-2.125	-1.0396	-1.6833	-1.6729	-1.2208	-2.1271	-1.5812	-1.2667	-2.0833	79.400	-57.061	6.221	195.191	192.587	176.566	173.808	183.744	258.738	35.949	253.543	146.762	-32.255	206.372	10.755	-36.886	0.00039167	0.00093517	0.00013622	1398.4	4.5311e-06	9.0453e-06	1608.3	479.76	5.4066e-06	5.1907e-06	596.66	213.24	170.28	79.604	6.5613e-06	110.71	0.0007503	0.00076392	0.00021218	1372	8.2508e-06	8.3074e-06	1574.6	474.75	8.34e-06	8.3878e-06	585.73	212.8	169.69	78.978	8.3482e-06	109.26	225.129	-15.345	17.310	-86.640	8.187	66.391	-87.253	-81.852	97.245	92.038	-83.282	-77.935	-75.826	-70.257	63.458	-72.478	-8191	255	
811.849	1	1	0	0	0.13962	0.26747	0.10738	0.30482	0.12284	0.19189	0.25587	0.23943	0.11447	0.17211	0.13589	0.21068	0.19532	0.24824	0.14641	0.15031	-0.69583	-1.5688	-1.7938	-1.2854	-1.9854	-1.4292	-1.575	-2.0833	-0.9	-1.7583	-1.9208	-1.2917	-2.0542	-1.55	-1.2417	-1.9896	105.968	-77.301	-90.260	222.167	146.092	97.073	256.882	-95.650	179.880	57.384	252.424	246.437	251.643	182.121	30.738	210.426	0.00040594	0.00025393	0.00016198	1398.3	7.0427e-06	1.3884e-05	1615	483.3	3.4385e-06	6.6587e-06	598.56	214.99	170.19	79.601	3.9021e-06	110.85	0.00075647	0.00076746	0.00021196	1374	8.1557e-06	8.3412e-06	1580.8	476.93	8.3112e-06	8.4236e-06	588.62	213.97	170.22	79.018	8.4615e-06	109.44	228.055	-15.713	-17.608	-86.655	72.441	19.609	-87.470	-81.791	56.332	64.941	-83.168	-77.906	-75.796	-70.238	38.846	-72.502	-8191	255	
811.945	1	1	0	0	0.1902	0.063772	0.29692	0.067344	0.12426	0.20652	0.090543	0.32249	0.31441	0.15701	0.14502	0.23786	0.066495	0.31591	0.10108	0.23416	-0.56042	-1.4521	-1.8125	-1.2833	-1.7646	-1.3937	-1.3312	-2.1479	-1.1354	-1.4229	-1.975	-1.125	-1.7917	-1.6729	-1.0917	-2.0667	160.222	-68.669	42.341	175.891	35.091	149.649	246.699	229.047	171.321	-65.250	248.597	216.992	13.038	-94.127	-10.363	252.475	0.00036917	0.0011809	0.00020049	1405.8	5.4207e-06	1.0771e-05	1608.8	481.97	5.2921e-06	4.0349e-06	597.42	212.76	169.39	78.799	6.7617e-06	109.46	0.00076419	0.00076718	0.00021382	1376.4	8.3498e-06	8.3616e-06	1578	476.15	8.3129e-06	8.39e-06	585.94	212.03	169.26	78.47	8.374e-06	108.05	228.223	-1.127	30.576	-86.725	111.949	85.024	-87.507	-81.923	43.778	38.405	-83.379	-77.880	-75.845	-70.172	23.739	-72.637	-8191	255	
812.041	1	1	0	0	0.10468	0.15223	0.14479	0.32559	0.1584	0.075873	0.090995	0.11857	0.35475	0.50917	0.19923	0.24894	0.086674	0.016923	0.2159	0.35929	-0.825	-1.5208	-1.8	-1.2437	-1.8375	-1.6792	-1.3646	-1.9583	-1.2771	-1.4208	-2.0062	-1.3021	-1.6146	-1.875	-0.92917	-2.3187	-88.890	150.292	-36.395	-91.505	81.075	-24.188	134.547	207.551	49.505	214.160	71.891	-83.584	223.058	21.669	167.041	215.783	0.00032244	0.00058745	0.00026051	1402.4	6.8224e-06	8.514e-06	1604.8	481.88	2.1504e-06	1.097e-05	597.23	211.57	169.04	78.692	5.985e-06	108.63	0.00076317	0.00077077	0.00021118	1373.5	8.353e-06	8.2916e-06	1573.6	475.33	8.2133e-06	8.3317e-06	584.35	211.24	168.92	78.12	8.2072e-06	107.62	225.222	-34.926	9.484	-86.698	31.492	39.901	-87.199	-81.984	51.334	35.247	-83.419	-78.038	-75.884	-70.106	33.895	-72.576	-8191	255	
812.137	1	1	0	0	0.22834	0.20359	0.1938	0.28127	0.33961	0.17627	0.13122	0.17566	0.11496	0.18358	0.16688	0.30351	0.38015	0.17014	0.23319	0.21681	-0.9125	-1.25	-1.8042	-1.275	-1.6104	-1.7104	-1.2979	-1.9854	-1.4917	-1.2375	-2.0542	-1.4021	-1.5146	-2.0187	-1.2542	-2.025	17.674	-67.445	223.474	199.852	-65.370	203.516	-99.455	252.394	-43.427	45.484	-34.815	189.978	258.218	202.169	-17.129	215.167	0.00034632	0.00081995	0.0002815	1403	6.2984e-06	5.4671e-06	1606.5	481.27	9.631e-06	7.4371e-06	593.47	211.57	169.02	78.755	3.5497e-06	108.58	0.00075369	0.00076261	0.00020887	1374.7	8.2186e-06	8.2471e-06	1576.4	475.3	8.2644e-06	8.2292e-06	584.02	211.19	168.54	78.136	8.186e-06	107.92	224.260	-8.716	0.744	-86.694	92.710	25.311	-87.333	-81.712	25.228	57.940	-83.347	-78.225	-75.835	-70.268	98.942	-72.647	-8191	255	
812.233	1	1	0	0	0.094925	0.18674	0.092708	0.25286	0.12288	0.16202	0.26228	0.20205	0.040353	0.075185	0.16745	0.136	0.24209	0.35392	0.18355	0.22499	-1.2771	-1.1708	-1.9792	-1.4	-1.6208	-2.0187	-1.0625	-1.7292	-1.4708	-0.9625	-1.8979	-1.3875	-1.425	-2.1688	-1.0833	-1.9396	139.113	-60.990	8.767	208.307	-13.936	226.879	229.128	166.961	180.688	140.513	206.103	259.565	236.614	192.840	-76.551	190.288	0.00037374	0.00023354	0.00022776	1404.6	4.1306e-06	6.1965e-06	1608.8	481.41	2.5592e-06	7.7338e-06	593	213.02	168.67	78.845	4.7404e-06	109.35	0.00075006	0.00074471	0.0002095	1375.3	8.1848e-06	8.1832e-06	1579.3	475.87	8.3115e-06	8.0779e-06	585.03	212.06	168.74	78.005	8.0525e-06	108.19	218.017	89.465	-0.480	-86.902	57.279	36.811	-87.373	-81.889	112.208	20.019	-83.469	-78.079	-75.939	-70.284	92.562	-72.423	-8191	255	
812.330	1	1	0	0	0.30728	0.087301	0.22498	0.38831	0.30586	0.17743	0.27376	0.15308	0.26493	0.13598	0.37509	0.031519	0.091826	0.15132	0.33481	0.24798	-1.3312	-0.7625	-1.8021	-1.5042	-1.1146	-2.0146	-1.2062	-1.95	-1.8813	-1.1583	-2.0583	-1.5875	-1.2521	-2.2375	-1.1167	-1.9417	18.895	-13.934	229.737	171.794	-6.613	245.890	203.971	227.998	47.346	23.394	245.274	105.628	-98.042	-65.277	254.479	205.031	0.00046258	0.00086112	0.00024204	1411.4	8.6842e-06	1.1717e-05	1619.2	481.18	2.9335e-06	7.5217e-06	598.99	213.89	169.42	79.177	5.9147e-06	111.06	0.000729	0.00073183	0.00020369	1380.7	8.0523e-06	8.0423e-06	1587.5	475.91	8.0219e-06	8.065e-06	587.4	213.01	169.36	78.469	7.9556e-06	109.09	230.322	-15.688	12.314	-86.590	70.829	35.748	-87.286	-81.729	56.638	77.274	-83.138	-77.930	-75.748	-70.072	105.688	-72.673	-8191	255	
812.426	1	1	0	0	0.16116	0.12695	0.27913	0.19972	0.29479	0.1092	0.28221	0.2627	0.075737	0.19824	0.23823	0.28631	0.29809	0.32125	0.17431	0.12142	-1.5042	-1.3083	-2.025	-1.5854	-1.2042	-1.9104	-1.3875	-1.7354	-1.9354	-1.0792	-2.0667	-1.5417	-1.3417	-2.0833	-0.98333	-1.6542	9.451	-39.785	141.347	173.324	80.100	112.291	-74.360	205.934	151.080	-28.571	243.832	212.466	177.118	236.035	62.015	209.189	0.00033799	0.0012251	0.00022436	1402	4.0879e-06	1.4598e-05	1615.8	480.56	6.3595e-06	7.4259e-06	593.73	211.47	168.26	78.523	4.8617e-06	109.12	0.00072412	0.00073198	0.00020388	1375	8.003e-06	7.9503e-06	1580.1	474.6	7.9665e-06	7.9055e-06	584.07	210.86	168.21	77.926	7.9848e-06	107.42	229.263	-30.430	-11.573	-86.729	99.213	81.263	-87.493	-81.893	45.034	88.715	-83.318	-77.994	-75.791	-70.186	-6.645	-72.621	-8191	255	
812.546	1	1	0	0	0.11908	0.16121	0.14847	0.26626	0.095676	0.13874	0.3383	0.095054	0.039761	0.10156	0.38715	0.22235	0.12053	0.10099	0.072707	0.09554	-1.5833	-1.0792	-1.6208	-1.65	-1.0333	-1.8854	-1.4854	-1.4688	-1.9771	-0.96875	-2.0312	-1.925	-1.1125	-2.0646	-1.3958	-1.5792	-25.593	233.565	257.424	229.193	175.234	80.491	209.287	103.921	29.331	196.147	164.211	257.343	22.014	-72.999	256.085	173.708	0.00036659	0.00090216	0.00020131	1399.2	6.2038e-06	4.5617e-06	1600.6	479.65	4.3255e-06	2.2036e-06	592.35	211.53	167.28	78.455	3.413e-06	109.08	0.00072186	0.00072673	0.00020121	1371	7.9388e-06	7.8662e-06	1570.3	473.42	7.9487e-06	7.9469e-06	581.36	210.11	167.97	77.868	7.9966e-06	107.36	220.729	40.132	-8.628	-86.688	93.200	39.087	-87.472	-81.824	37.844	65.622	-83.271	-77.925	-75.818	-70.249	53.035	-72.516	-8191	255	
812.641	1	1	0	0	0.10605	0.045056	0.13574	0.10288	0.31265	0.10503	0.15431	0.065728	0.15987	0.085118	0.37847	0.34123	0.17863	0.20211	0.095945	0.32252	-1.8042	-1.0917	-1.7812	-1.9292	-1.0167	-1.75	-1.5562	-1.4562	-1.9312	-1.125	-1.8	-1.9104	-1.1146	-2	-1.525	-1.4021	143.430	152.035	54.245	155.503	170.606	-93.790	185.590	33.271	135.527	225.588	197.951	-69.962	-70.789	-73.843	241.435	160.171	0.00032984	0.0008579	0.00014016	1394.3	6.878e-06	6.7142e-06	1601.9	479.08	2.3857e-06	9.0518e-06	589.87	211.13	168.11	78.39	4.5394e-06	108.85	0.00071923	0.00074029	0.00020262	1369.5	7.9459e-06	7.9762e-06	1570.6	472.66	7.9295e-06	7.9338e-06	581.34	210.45	168.1	77.918	8.0243e-06	107.52	226.776	-16.307	-24.232	-86.610	73.186	121.294	-87.388	-81.761	1.859	73.379	-82.989	-78.079	-75.796	-70.240	104.403	-72.421	-8191	255	
812.737	1	1	0	0	0.20239	0.16554	0.066586	0.23283	0.12729	0.12393	0.42862	0.20733	0.27676	0.25022	0.24068	0.50451	0.16257	0.25104	0.13919	0.29234	-1.4354	-1.175	-1.5729	-1.9417	-1.0958	-1.8687	-1.6812	-1.3583	-2.0729	-1.1	-1.5917	-2.1771	-1.275	-1.9833	-1.6917	-1.4354	-80.706	172.989	131.515	-51.316	25.162	29.521	218.072	226.696	115.160	48.778	0.383	195.277	196.629	-83.783	97.117	163.310	0.00030689	0.00087802	0.00035774	1398.3	5.2052e-06	2.3219e-06	1609	480.72	5.8033e-06	7.1034e-06	595.21	212.26	168.24	78.812	7.2308e-06	109.63	0.00072194	0.00073038	0.00020069	1370.4	7.8505e-06	8.0214e-06	1575.1	474.08	7.9137e-06	8.0383e-06	583.43	211.81	168.33	78.3	8.0344e-06	108.32	226.731	-64.875	4.933	-86.602	30.683	28.545	-87.408	-81.786	29.669	72.970	-83.196	-78.064	-76.003	-70.118	44.363	-72.537	-8191	255	
812.835	1	1	0	0	0.21004	0.34773	0.15297	0.067569	0.12717	0.29628	0.1749	0.29656	0.046186	0.058375	0.087544	0.2569	0.16681	0.41514	0.058245	0.18141	-1.7083	-1.3062	-1.5208	-2.0896	-1.1417	-1.9625	-2.05	-1.6417	-2.0583	-1.5187	-1.5896	-2.3708	-1.2354	-1.9979	-1.6521	-1.1812	-38.133	-0.285	193.402	4.802	56.009	68.013	22.295	230.173	167.722	27.862	-13.744	240.782	180.225	222.146	186.263	250.551	0.00041925	0.00055609	0.00016377	1399.7	4.5544e-06	3.6178e-06	1609.2	481.89	5.5002e-06	6.1423e-06	595.95	214.07	169.59	78.81	6.4957e-06	110.23	0.000728	0.00073499	0.00020193	1373.7	7.9707e-06	8.0923e-06	1578.5	474.86	7.9557e-06	7.9917e-06	585.52	213.01	168.78	78.317	7.917e-06	108.86	222.260	-32.796	-13.584	-86.557	33.776	68.954	-87.218	-81.648	44.606	108.610	-83.291	-77.824	-75.897	-70.154	72.317	-72.619	-8191	255	
812.954	1	1	0	0	0.28587	0.07824	0.27161	0.063705	0.27693	0.23627	0.23433	0.17993	0.063569	0.1062	0.30078	0.11831	0.14124	0.17372	0.12643	0.085661	-1.7125	-1.5104	-1.0938	-2.1354	-0.975	-1.7208	-2.1208	-1.2229	-1.9312	-1.5708	-1.4333	-2.2396	-1.3	-1.8167	-1.9479	-1.2792	186.541	66.340	-86.912	189.970	-81.363	146.610	219.677	-29.582	236.575	-69.754	219.775	247.776	89.793	165.752	250.900	-88.863	0.00039117	0.00084687	0.00010713	1407.1	4.2277e-06	7.8192e-06	1611.9	480.15	6.9258e-06	9.6361e-06	595.59	212.31	167.98	78.619	7.701e-06	109.11	0.00071611	0.00071881	0.00020154	1375.7	7.8525e-06	7.984e-06	1577.4	474.01	7.9638e-06	8.0792e-06	584.55	211.45	168.25	77.987	7.9203e-06	107.66	231.881	-17.712	-9.371	-86.733	33.798	54.347	-87.617	-81.749	31.890	76.532	-83.099	-78.024	-75.959	-70.116	-10.527	-72.569	-8191	255	
813.025	1	1	0	0	0.067266	0.21277	0.099798	0.19559	0.096078	0.081146	0.18285	0.25328	0.33851	0.13648	0.2681	0.18044	0.1482	0.36614	0.14545	0.4372	-1.7625	-1.5063	-1.2313	-2.2729	-1.2167	-1.4562	-2.3479	-1.375	-1.8729	-1.6708	-1.4062	-2.1146	-1.4625	-1.7771	-1.9833	-1.1958	-94.398	193.596	-71.367	219.141	176.747	69.745	186.858	-73.665	131.411	-35.978	-26.664	89.297	132.504	231.344	106.669	200.636	0.00039428	0.00074967	0.00015812	1402.3	3.4987e-06	7.666e-06	1603.6	479.27	2.1238e-06	7.8405e-06	590.42	211.28	167.6	78.267	4.238e-06	108.67	0.00072144	0.00072505	0.00020099	1373.8	7.8994e-06	7.8845e-06	1571.6	473.56	7.9279e-06	7.9793e-06	580.1	210.36	167.59	77.734	7.9103e-06	107.12	223.387	-30.903	17.659	-86.640	-20.992	86.659	-87.411	-81.808	18.426	85.924	-83.139	-77.869	-76.045	-70.091	75.520	-72.369	-8191	255	
813.146	1	1	0	0	0.24282	0.061236	0.13158	0.18659	0.12836	0.3143	0.17566	0.33063	0.12161	0.10528	0.10842	0.41808	0.35206	0.32448	0.077531	0.22141	-1.3833	-1.8021	-1.0917	-2.3708	-1.3917	-1.4896	-2.2687	-1.3208	-1.8	-1.8312	-1.3896	-2.3187	-1.6167	-1.5708	-2.1479	-1.35	-71.555	210.682	78.409	227.070	-35.685	175.151	240.849	226.661	-56.073	-46.655	-18.491	219.687	201.281	244.452	210.074	208.677	0.00039601	0.00060041	0.00019553	1403.9	2.7667e-06	1.1483e-05	1604.6	480.83	1.1383e-06	1.2837e-05	595.04	211.46	168.2	78.615	1.4042e-06	109.43	0.00073234	0.00073862	0.00020514	1373.8	8.054e-06	8.0277e-06	1571.6	473.67	8.031e-06	8.074e-06	582.58	210.86	167.77	77.914	8.0058e-06	107.62	225.101	18.338	26.441	-86.829	28.382	59.575	-87.537	-81.769	8.682	76.970	-83.132	-78.098	-75.907	-70.010	-9.784	-72.547	-8191	255	
813.242	1	1	0	0	0.18964	0.19282	0.099523	0.21473	0.076245	0.15622	0.19992	0.15584	0.079071	0.11595	0.3856	0.22328	0.32587	0.095295	0.038206	0.14475	-1.2458	-1.8521	-1.1688	-2.0375	-1.4625	-1.3896	-2.425	-1.2958	-1.6458	-1.9708	-1.3396	-2.0458	-1.6958	-1.5354	-1.9854	-1.5667	72.365	-1.612	131.396	202.862	131.364	-11.666	169.464	228.523	129.731	100.031	227.011	-96.624	-4.102	200.463	184.721	242.674	0.00035278	0.00053652	0.00020441	1407.2	3.9054e-06	4.8341e-06	1611.7	479.93	6.0444e-06	1.5268e-05	594.24	213.21	168.47	78.608	3.572e-06	109.69	0.00073227	0.00072919	0.00020198	1375.9	8.043e-06	7.9588e-06	1577.5	474.38	8.0195e-06	7.9063e-06	584.03	211.8	168.55	77.903	7.9288e-06	108.11	228.096	-20.863	11.694	-86.608	49.325	54.034	-87.471	-81.685	35.321	64.954	-83.146	-77.908	-75.775	-70.145	58.596	-72.630	-8191	255	
813.338	1	1	0	0	0.21993	0.16669	0.2937	0.072087	0.18354	0.28706	0.39669	0.087236	0.15077	0.10044	0.08622	0.19673	0.30946	0.262	0.34143	0.026533	-1.0896	-1.8792	-1.1583	-2.1333	-1.6437	-1.1167	-2.2188	-1.725	-1.2208	-2.1875	-1.3667	-1.9604	-2.0292	-1.2875	-1.9271	-1.6229	104.975	28.276	124.095	218.956	-18.439	-50.710	233.246	130.224	83.144	164.867	-88.574	206.590	-57.303	249.865	-94.841	195.908	0.00039352	0.0010216	0.00030525	1415.2	2.3822e-06	1.1856e-05	1615.6	481.89	1.5313e-06	8.1636e-06	596.8	213.81	168.99	78.646	8.1346e-06	110.34	0.00072176	0.00071839	0.00020293	1381.5	7.933e-06	7.9137e-06	1582.8	475.31	7.8546e-06	7.9919e-06	586.08	212.86	168.87	78.136	7.9844e-06	108.68	233.307	4.503	-21.363	-86.595	9.565	55.192	-87.250	-81.802	37.839	47.908	-83.204	-77.707	-75.900	-70.044	55.820	-72.536	-8191	255	
813.434	1	1	0	0	0.20606	0.28411	0.16924	0.38975	0.20086	0.13217	0.20155	0.26876	0.19526	0.28619	0.37701	0.26962	0.24501	0.17127	0.20259	0.18108	-0.9875	-1.9792	-1.3563	-2.0479	-1.8646	-0.99375	-2.125	-1.5896	-1.1812	-1.9958	-1.2646	-1.75	-2.0563	-1.1042	-1.7646	-1.6583	208.016	-86.559	-96.349	253.404	70.645	-23.098	243.555	206.968	-22.761	162.735	245.072	166.923	244.603	251.231	207.528	200.668	0.00044456	0.0011126	0.00021179	1411.2	4.3381e-06	8.7716e-06	1613.8	480.77	2.3334e-06	9.8174e-06	595.99	212.48	168.09	77.983	8.756e-06	108.79	0.00071317	0.00071831	0.00020038	1380.6	7.932e-06	7.8287e-06	1585.7	474.94	7.7956e-06	7.8698e-06	585.38	211.69	168.09	77.505	7.8832e-06	107.35	233.621	-48.414	4.336	-86.485	94.458	43.852	-87.349	-81.610	0.192	18.999	-83.470	-77.719	-75.877	-69.948	71.211	-72.674	-8191	255	
813.531	1	1	0	0	0.056369	0.1028	0.12916	0.30635	0.15637	0.12404	0.044446	0.30591	0.22543	0.16081	0.3181	0.22244	0.27358	0.2646	0.080619	0.31445	-0.84792	-1.9937	-1.025	-1.5042	-1.7729	-1.2271	-1.9	-1.6688	-1.1208	-2.0292	-1.3854	-1.5146	-2.225	-1.1958	-1.5312	-1.7938	161.657	181.384	82.179	191.129	163.685	238.640	184.161	228.880	54.866	-13.786	224.901	-69.165	-90.803	-57.133	-33.453	231.395	0.0003292	0.00077301	0.00014037	1406	6.5039e-06	1.0179e-05	1608.5	481.08	5.1631e-06	7.3335e-06	591.49	210.62	167.75	77.678	4.8665e-06	108.17	0.00071524	0.00070801	0.00020082	1376.7	7.8195e-06	7.7536e-06	1575.7	474.28	7.7882e-06	7.8758e-06	581.38	210.11	167.52	77.213	7.9997e-06	106.81	227.602	28.994	-13.824	-86.632	41.337	39.694	-87.314	-81.749	40.173	26.167	-83.087	-77.726	-75.994	-70.133	92.347	-72.546	-8191	255	
813.627	1	1	0	0	0.16117	0.2492	0.18002	0.13143	0.22694	0.20234	0.30682	0.1574	0.084235	0.049917	0.1545	0.23483	0.22332	0.2206	0.077967	0.18464	-0.85625	-2.0312	-1.3771	-1.4438	-1.9646	-1.1604	-1.8979	-1.9417	-1.1292	-1.8563	-1.5125	-1.3	-1.9604	-1.4333	-1.6875	-1.9521	-95.872	220.006	69.964	195.714	-42.561	256.610	209.956	226.274	-44.701	108.705	8.879	257.271	242.819	-49.033	107.835	-83.160	0.00033836	0.00043061	0.00028842	1402.5	9.5136e-07	6.8329e-06	1608.6	478.95	3.446e-06	2.9779e-06	591.21	211.14	167.33	78.058	5.5325e-06	108.85	0.00071602	0.00071788	0.0002038	1375.3	7.8679e-06	7.8516e-06	1575.3	473.51	7.8808e-06	7.8351e-06	581.22	210.62	167.56	77.421	7.9483e-06	107.39	229.076	-11.749	-9.025	-86.519	207.646	60.484	-87.274	-81.912	48.638	39.937	-83.398	-77.776	-75.755	-70.057	12.015	-72.551	-8191	255	
813.723	1	1	0	0	0.22213	0.28294	0.19183	0.1019	0.071585	0.27715	0.43155	0.52056	0.33672	0.33081	0.14442	0.2866	0.23288	0.33986	0.1052	0.10768	-0.56875	-1.9021	-1.45	-1.3604	-2.1	-0.97917	-1.7563	-2.1688	-1.0042	-1.6938	-1.6063	-1.3417	-2.2021	-1.2021	-1.4542	-2.0896	-58.312	124.129	57.008	217.542	175.410	-94.339	180.893	198.970	146.259	74.213	-92.799	255.736	-84.408	218.931	-47.003	188.767	0.0003384	0.00083397	0.00029387	1404.2	5.745e-06	5.3016e-06	1608.9	479.25	5.4552e-06	3.1466e-06	595.02	212	168.31	78.369	6.5147e-06	110.13	0.00072354	0.00072396	0.00020117	1375.7	7.8e-06	7.9624e-06	1576	473.53	7.9633e-06	7.9623e-06	583.88	211.35	168.26	77.765	7.9957e-06	108.3	218.711	-2.446	36.902	-86.465	45.309	41.608	-87.268	-81.713	50.010	87.831	-83.312	-77.999	-75.953	-70.198	83.944	-72.485	-8191	255	
813.817	1	1	0	0	0.26654	0.34104	0.24905	0.23175	0.14307	0.18892	0.13719	0.20575	0.22014	0.17976	0.059984	0.23507	0.37333	0.30685	0.10773	0.38108	-0.78958	-1.8146	-1.6208	-1.2938	-1.8687	-1.1792	-1.5375	-2.175	-1.1042	-1.6333	-1.85	-1.2437	-2.1146	-1.4604	-1.275	-2.1792	116.901	-32.658	56.815	-91.577	0.215	-76.825	231.126	123.237	59.450	-66.132	187.161	172.306	233.698	166.282	217.154	235.724	0.00032966	0.00059807	0.0002421	1404.4	1.1177e-05	6.8203e-06	1610	481.9	5.7664e-06	1.3259e-06	594.08	213.02	169.16	78.833	4.5172e-06	110.25	0.00072469	0.00073897	0.00020246	1374.6	7.9633e-06	7.9459e-06	1575.6	474.84	7.8957e-06	7.9122e-06	584.84	212.29	168.74	78.086	8.0096e-06	108.78	228.226	16.341	5.438	-86.256	63.500	40.813	-87.142	-81.791	24.625	78.375	-83.201	-77.821	-75.943	-70.235	90.461	-72.614	-8191	255	
813.915	1	1	0	0	0.036258	0.36735	0.088763	0.25642	0.14351	0.19436	0.14627	0.097127	0.13456	0.20487	0.083366	0.39079	0.1995	0.22045	0.13112	0.27177	-0.57708	-1.5729	-1.5979	-1.2	-1.8646	-1.3937	-1.4771	-2.0812	-0.87708	-1.4479	-1.9167	-1.1625	-1.8979	-1.6042	-1.2458	-2.2313	-44.216	60.903	26.608	210.640	9.456	-21.839	243.916	173.816	208.438	125.031	115.870	206.357	246.771	-60.711	-20.048	-54.744	0.00034449	0.00062702	0.00017494	1404.9	4.6967e-06	1.0459e-05	1615.7	480.83	2.7221e-06	8.5877e-06	594.17	213.36	168.35	78.507	9.1065e-06	109.5	0.00072307	0.00073031	0.00020125	1376.7	7.8784e-06	7.9692e-06	1581.7	475.68	7.9152e-06	8.0287e-06	585.31	212.56	168.59	77.849	7.9455e-06	108.04	222.163	4.315	2.348	-86.650	46.954	57.458	-87.413	-81.970	50.686	55.195	-83.494	-78.162	-76.215	-70.674	56.569	-72.890	-8191	255	
814.034	1	1	0	0	0.10047	0.15309	0.090214	0.20014	0.065042	0.061438	0.393	0.3214	0.29071	0.064518	0.29103	0.17055	0.33605	0.21233	0.0075462	0.025552	-0.84167	-1.4729	-1.8062	-1.1875	-1.7437	-1.4646	-1.3188	-2.1813	-1.1583	-1.4896	-2.0396	-1.1146	-1.8937	-1.8125	-0.97917	-2.3208	47.962	166.111	-77.899	240.659	-40.519	90.818	225.858	199.910	90.181	18.358	232.696	259.483	226.645	-43.305	157.166	-36.160	0.00035853	0.00036466	0.0001929	1400.9	2.0478e-06	7.7118e-06	1602.9	479.98	6.1165e-06	7.738e-06	592.6	211.42	167.82	78.078	1.6079e-06	108.62	0.00072259	0.00073131	0.00020102	1372.7	7.8265e-06	7.9465e-06	1571.1	473.89	7.953e-06	7.9317e-06	580.61	210.42	167.81	77.399	7.8316e-06	107.22	226.606	-1.648	15.557	-87.037	9.877	56.325	-87.474	-82.307	43.269	61.057	-83.551	-78.296	-76.150	-70.529	-38.381	-72.915	-8191	255	
814.130	1	1	0	0	0.18595	0.17808	0.14741	0.24508	0.11845	0.13111	0.28811	0.27004	0.022751	0.13177	0.24954	0.26903	0.21409	0.317	0.094073	0.26848	-0.99375	-1.3042	-1.7042	-1.3542	-1.75	-1.7062	-1.2437	-2.1354	-1.3896	-1.3021	-2.1604	-1.4562	-1.6875	-1.8229	-1.2146	-1.8625	206.831	258.404	185.736	42.788	-51.950	236.462	194.722	196.079	53.718	156.214	201.561	-98.800	164.750	-91.783	185.991	214.096	0.00043623	0.0012123	0.00020461	1400.6	6.055e-06	1.1134e-05	1606.8	479.68	5.7547e-06	8.577e-06	590.97	210.96	167.88	78.36	5.7685e-06	109.06	0.00072084	0.00072943	0.00020064	1372.5	7.8749e-06	7.9382e-06	1569	473.37	7.8624e-06	7.9318e-06	581.09	210.05	167.83	77.653	7.9886e-06	107.41	225.697	-8.941	-4.600	-87.141	77.781	82.904	-87.734	-82.066	29.293	49.391	-83.604	-78.365	-76.165	-70.535	50.474	-72.960	-8191	255	
814.226	1	1	0	0	0.32539	0.096355	0.16813	0.15921	0.27335	0.17701	0.23142	0.22617	0.090545	0.24174	0.23631	0.40304	0.21936	0.23883	0.25638	0.20764	-1.0688	-1.35	-1.8208	-1.3521	-1.4458	-1.9062	-1.2958	-2.0062	-1.4167	-1.1021	-2.0042	-1.4708	-1.5625	-2.0229	-1.1812	-1.9813	117.858	94.164	234.334	233.266	-69.100	-69.387	238.600	197.645	-37.124	-89.461	-63.309	196.497	222.428	221.604	11.269	223.129	0.00031816	0.00075477	0.00018142	1398.6	7.6661e-06	5.7748e-06	1597.2	480.93	3.0296e-06	9.2024e-06	593.38	211.5	168.77	78.564	8.7495e-06	109.91	0.00072525	0.00071516	0.00020237	1371.1	8.0049e-06	7.9898e-06	1569	474.52	7.9764e-06	8.0393e-06	582.83	210.99	168.52	77.931	8.0973e-06	108.4	237.217	-42.099	22.085	-87.039	40.420	38.472	-87.488	-82.015	86.582	64.550	-83.512	-78.446	-76.269	-70.503	66.203	-72.769	-8191	255	
814.323	1	1	0	0	0.12045	0.31548	0.18844	0.18342	0.32616	0.11701	0.19901	0.50204	0.16993	0.086288	0.069891	0.37744	0.23912	0.25491	0.20898	0.10711	-0.9125	-0.82708	-1.9896	-1.5896	-1.3667	-1.8667	-1.3354	-1.7896	-1.4312	-1.1208	-2.0062	-1.4604	-1.4708	-2.0667	-1.0271	-1.7812	-72.978	97.122	-44.293	-87.846	-84.934	-0.449	99.778	165.972	76.476	208.785	205.013	230.206	222.629	-82.709	-50.279	-56.821	0.00030615	0.0010541	0.00013439	1400	3.1211e-06	5.9602e-06	1603.9	480.1	2.6731e-06	7.5084e-06	596.48	214	168.7	78.678	4.7551e-06	110.28	0.00073031	0.00073221	0.00020342	1372.1	8.0348e-06	8.0146e-06	1574.9	474.78	8.0186e-06	8.0375e-06	585.59	212.63	168.6	78.069	8.1962e-06	108.97	228.505	-39.622	35.632	-86.923	98.937	29.688	-87.623	-81.895	-23.167	56.002	-83.505	-78.381	-76.167	-70.343	88.759	-72.621	-8191	255	
814.419	1	1	0	0	0.26462	0.090686	0.047473	0.014693	0.12319	0.092992	0.31589	0.21147	0.21231	0.1522	0.12585	0.16357	0.32511	0.36352	0.12887	0.062787	-1.3729	-0.84792	-1.7458	-1.5542	-1.1458	-1.95	-1.3396	-1.7146	-1.8771	-1.0479	-2.0208	-1.65	-1.2208	-2.2438	-1.125	-1.6521	107.248	59.425	233.790	67.950	-74.496	182.204	194.081	145.819	-5.445	134.336	163.157	180.020	143.897	248.867	-92.742	220.417	0.00034717	0.0007107	0.00020268	1404.2	3.7358e-06	1.1234e-05	1607.6	483.66	4.5447e-06	6.1507e-06	598.33	213.72	169.6	79.082	4.206e-06	110.57	0.00073523	0.00072663	0.00020215	1376.4	7.9189e-06	8.0011e-06	1579	476.69	8.0306e-06	8.0868e-06	588.03	213.51	169.24	78.375	8.1149e-06	109.11	232.428	14.999	26.706	-86.748	-24.551	42.678	-87.732	-82.225	25.036	59.638	-83.684	-78.221	-76.198	-70.355	58.153	-72.628	-8191	255	
814.515	1	1	0	0	0.16665	0.10509	0.34694	0.19175	0.14311	0.51649	0.14408	0.064608	0.24028	0.12179	0.26228	0.24488	0.30674	0.17496	0.048946	0.18475	-1.3958	-0.95208	-1.5896	-1.4896	-1.0229	-1.9104	-1.4312	-1.6208	-1.9562	-0.93958	-1.9875	-1.6938	-1.2354	-2.2062	-1.125	-1.5646	158.862	63.236	-65.401	212.810	-69.742	47.924	116.183	-47.635	82.078	177.696	-82.372	149.507	200.843	199.047	94.962	172.646	0.00036502	0.00049823	0.00013966	1407.3	6.0858e-06	6.1022e-06	1599.7	480.82	2.2043e-06	1.9157e-06	592.93	211.53	168.75	78.231	6.9929e-06	109.2	0.00073843	0.00073389	0.00020396	1376	7.9174e-06	7.9498e-06	1573.2	475.41	7.9331e-06	7.9146e-06	584.14	211.19	168.27	77.688	7.963e-06	107.61	227.952	-21.207	-18.210	-87.022	81.156	98.273	-87.732	-81.786	21.643	71.583	-83.318	-78.224	-76.259	-70.488	64.043	-72.650	-8191	255	
814.635	1	1	0	0	0.063593	0.22172	0.048887	0.027488	0.29331	0.28192	0.24733	0.35361	0.11375	0.28028	0.11052	0.15095	0.15904	0.24013	0.32137	0.19695	-1.6542	-1.1688	-1.6396	-1.6396	-1.0938	-1.9375	-1.6479	-1.3646	-1.8958	-1.075	-1.7	-1.9417	-1.175	-1.8979	-1.45	-1.4354	34.376	102.732	125.662	16.425	211.682	254.026	249.012	210.628	167.981	-24.128	-64.823	-78.896	247.720	-70.738	110.479	228.635	0.00034045	0.00055514	0.00010525	1400.9	6.4533e-06	9.2062e-06	1602.6	480.68	5.6867e-06	4.2658e-06	593.5	210.95	167.09	78.035	5.0132e-06	109	0.00071947	0.00072342	0.00020179	1374.7	7.799e-06	7.8451e-06	1571.4	474.51	7.8351e-06	7.8487e-06	582.6	210.2	167.57	77.287	7.9122e-06	107.38	222.170	-42.305	-59.308	-86.878	66.406	46.890	-87.836	-81.951	9.488	77.407	-83.380	-78.319	-76.448	-70.418	143.821	-72.939	-8191	255	
814.730	1	1	0	0	0.25286	0.25331	0.13095	0.23472	0.12524	0.39112	0.33101	0.32885	0.13651	0.17507	0.18882	0.22046	0.1839	0.10817	0.099288	0.36483	-1.475	-0.94792	-1.5021	-1.9125	-0.90625	-1.7146	-1.6583	-1.3667	-1.8563	-1.1917	-1.7208	-2.0167	-0.94375	-2.0354	-1.5604	-1.2062	172.872	-50.309	18.882	227.593	71.904	22.475	151.287	252.544	140.832	-98.528	219.559	-55.929	173.814	247.479	101.140	200.221	0.00034591	0.0010881	0.0001401	1404.2	2.6385e-06	8.4621e-06	1607.6	481.5	2.6728e-06	6.6855e-06	596.27	212.11	167.14	77.981	5.1852e-06	109.43	0.00070425	0.00071817	0.00019893	1374.6	7.7576e-06	7.7985e-06	1571.9	474.9	7.7981e-06	7.8295e-06	583.45	211.06	167.54	77.438	7.8185e-06	107.73	228.390	-9.745	-12.001	-86.830	82.185	36.689	-87.811	-81.794	36.784	6.973	-83.441	-78.192	-76.218	-70.265	9.666	-72.796	-8191	255	
814.826	1	1	0	0	0.23252	0.21531	0.10397	0.38909	0.20025	0.23124	0.24788	0.076693	0.21768	0.15338	0.15449	0.22828	0.074643	0.26005	0.09388	0.2143	-1.6125	-1.2208	-1.3917	-2	-0.91667	-1.9042	-1.8854	-1.4438	-1.9312	-1.3333	-1.5125	-2.1667	-1.2729	-1.7812	-1.6667	-1.1875	162.088	39.734	32.001	214.911	-8.681	145.792	221.068	135.183	-1.203	-20.693	98.555	-76.715	219.774	-68.691	88.756	208.389	0.00042783	0.00089914	0.00019172	1403.1	8.0398e-06	5.7591e-06	1608.6	481.57	4.3632e-06	1.1773e-05	596.2	212.7	167.98	78.066	6.8885e-06	109.39	0.00070269	0.00070326	0.00019809	1376.3	7.7924e-06	7.6996e-06	1577.4	474.82	7.6934e-06	7.7951e-06	585.46	211.68	167.94	77.464	7.7459e-06	107.86	233.318	-28.631	-13.139	-86.855	28.158	15.790	-87.683	-82.035	63.591	24.890	-83.281	-78.207	-76.030	-70.355	77.108	-72.959	-8191	255	
814.922	1	1	0	0	0.069113	0.34318	0.32158	0.22753	0.054434	0.17558	0.2242	0.14859	0.090572	0.2525	0.28104	0.13527	0.12828	0.2294	0.37185	0.098353	-1.5896	-1.3458	-1.1938	-2.1083	-0.94167	-1.7229	-1.8604	-1.1313	-1.95	-1.5125	-1.4208	-2.0833	-1.3375	-1.7021	-1.9083	-1.2583	153.576	30.163	63.689	-99.664	157.454	197.137	239.017	91.588	-26.296	241.808	258.132	202.225	-94.286	177.619	33.227	109.681	0.00031429	0.0010379	0.00033969	1408.6	5.6091e-06	9.7363e-06	1617.9	480.68	4.7737e-06	9.0833e-06	599.14	214.33	168.43	78.195	6.0577e-06	109.9	0.00070184	0.00069556	0.00019429	1380.2	7.6921e-06	7.6399e-06	1584	475.19	7.6555e-06	7.7695e-06	587.83	212.89	168.36	77.665	7.6347e-06	108.47	232.472	-14.880	10.340	-86.826	52.338	16.317	-87.597	-82.089	4.892	81.940	-83.239	-78.113	-76.030	-70.458	42.255	-72.622	-8191	255	
815.018	1	1	0	0	0.27726	0.20539	0.19216	0.27762	0.23341	0.12537	0.32735	0.19438	0.16336	0.17127	0.11404	0.25685	0.10183	0.13657	0.22054	0.031092	-1.5688	-1.3875	-1.0708	-2.1937	-1.3646	-1.6667	-2.1104	-1.1938	-1.9854	-1.6542	-1.4188	-2.1958	-1.3833	-1.7188	-1.9937	-1.3438	95.324	45.051	196.948	237.784	10.058	94.700	163.602	234.713	-44.798	156.211	74.621	161.167	223.056	-88.149	-0.628	247.517	0.0003722	0.0010147	0.00021794	1410.5	4.9292e-06	6.5716e-06	1613.9	482.06	6.7449e-06	7.4945e-06	593.64	212.34	167.79	77.677	4.4307e-06	108.23	0.00069575	0.00069921	0.00019569	1381.3	7.6195e-06	7.6875e-06	1580.5	475.49	7.6222e-06	7.6379e-06	583.47	210.93	167.74	77.13	7.539e-06	106.96	231.272	-14.096	34.694	-86.690	27.856	60.025	-87.474	-82.055	23.039	50.998	-83.565	-78.165	-76.368	-70.302	11.565	-72.699	-8191	255	
815.114	1	1	0	0	0.16459	0.11881	0.20175	0.323	0.021213	0.43127	0.15479	0.080269	0.31343	0.12163	0.29425	0.40085	0.20258	0.34334	0.2791	0.13015	-1.3854	-1.4	-1.0396	-2.1625	-1.3271	-1.4458	-2.2	-1.2729	-1.7729	-1.8104	-1.1187	-2.1063	-1.5146	-1.3229	-2.1146	-1.3333	-57.673	99.329	197.967	150.741	183.690	104.028	203.654	-87.695	115.858	232.420	-80.627	251.235	237.300	210.828	109.101	53.224	0.00034276	0.00062485	0.00023421	1407.4	5.176e-06	8.5287e-06	1613.5	480.73	5.3583e-06	1.4729e-05	594.52	211.52	168	77.72	4.2204e-06	108.5	0.00069961	0.00070213	0.00019557	1379.3	7.6164e-06	7.5589e-06	1575.4	474.05	7.5971e-06	7.5642e-06	581.86	210.12	167.36	77.015	7.6123e-06	106.82	233.138	-13.172	33.614	-86.919	40.627	-5.214	-87.738	-81.879	13.047	89.700	-83.406	-78.515	-76.147	-70.285	83.470	-72.974	-8191	255	
815.211	1	1	0	0	0.13844	0.13478	0.28413	0.19704	0.18949	0.1378	0.35246	0.16193	0.14833	0.081332	0.21674	0.19689	0.25083	0.30878	0.13225	0.18912	-1.3312	-1.6729	-1.0271	-2.1083	-1.1646	-1.3646	-2.1792	-1.2583	-1.4167	-1.7646	-1.1958	-1.8958	-1.6542	-1.2542	-1.7021	-1.2167	207.793	-18.966	50.036	231.107	190.290	78.867	241.167	198.781	251.487	220.165	-87.938	-35.656	236.379	252.379	59.630	-94.866	0.00038541	0.00071774	0.00023975	1411.2	6.9495e-06	1.2681e-05	1608.1	479.24	5.294e-06	1.0535e-05	591.73	211.38	167.56	77.849	4.5435e-06	108.89	0.0006907	0.00069602	0.00019319	1379.6	7.543e-06	7.5537e-06	1577	473.54	7.5496e-06	7.5815e-06	581.58	210.5	167.26	77.075	7.6341e-06	107.03	228.871	18.484	-7.885	-86.869	28.161	31.935	-87.611	-81.923	6.042	58.048	-83.322	-78.054	-76.102	-70.302	91.219	-72.703	-8191	255	
815.331	1	1	0	0	0.30934	0.092188	0.28515	0.33748	0.13607	0.16024	0.1768	0.10912	0.32143	0.30332	0.18106	0.096509	0.016617	0.20588	0.17123	0.20309	-1.1208	-1.7333	-0.8375	-2.0125	-1.5125	-1.0979	-2.1333	-1.1417	-1.3021	-1.8104	-1.0542	-1.8458	-1.7938	-1.2188	-1.8125	-1.4312	193.782	62.091	9.926	250.569	199.807	-31.188	167.123	244.372	180.821	154.861	228.747	167.829	198.517	-94.487	223.490	254.427	0.00034536	0.0016408	0.0002239	1416.3	4.1417e-06	1.0404e-05	1621	480.73	2.8071e-06	4.1726e-06	595.59	212.6	167.96	78.262	2.3321e-06	108.87	0.00068827	0.00069586	0.00019508	1382.9	7.5524e-06	7.5135e-06	1586.2	474.74	7.6163e-06	7.5475e-06	584.68	211.68	168	77.382	7.6312e-06	107.66	230.137	4.312	38.293	-86.762	60.117	65.885	-87.627	-82.113	35.666	90.689	-83.460	-77.921	-76.125	-70.306	50.538	-72.839	-8191	255	
815.427	1	1	0	0	0.089632	0.30268	0.074874	0.27504	0.19906	0.20592	0.29503	0.35272	0.22748	0.10172	0.22646	0.25307	0.07775	0.24523	0.1301	0.14183	-0.99583	-1.9104	-0.89792	-1.7812	-1.6875	-0.97917	-2.1042	-1.5312	-1.1625	-2.1083	-1.2771	-1.7729	-1.9396	-1.2458	-1.8292	-1.5333	116.446	107.985	183.577	200.933	95.930	119.501	145.858	140.711	-90.480	200.789	-36.489	232.353	208.628	245.894	133.567	161.873	0.00035442	0.001182	0.0001991	1418.8	6.8012e-06	9.6076e-06	1627.8	482.94	2.8538e-06	6.4204e-06	598.39	213.64	168.29	78.096	9.5013e-06	110.04	0.00068493	0.00069238	0.00019188	1384.8	7.4555e-06	7.5127e-06	1590.1	476	7.5928e-06	7.5198e-06	587.19	212.58	168.57	77.424	7.613e-06	108.36	233.734	-14.184	9.908	-86.860	42.246	42.792	-87.284	-81.848	48.806	55.534	-83.470	-78.084	-75.930	-70.170	67.715	-72.682	-8191	255	
815.499	1	1	0	0	0.12998	0.25397	0.027248	0.14527	0.21349	0.11142	0.38237	0.3317	0.11341	0.022666	0.18466	0.24655	0.18874	0.1934	0.29642	0.18168	-0.81667	-1.8167	-1.3271	-1.8208	-1.9229	-1.0521	-2.0479	-1.5604	-1.0292	-1.9542	-1.3979	-1.5896	-1.8062	-1.1938	-2.0062	-1.7375	81.326	252.758	253.341	217.814	30.191	163.935	218.918	160.137	-34.515	178.059	209.958	232.898	202.804	85.784	-27.252	137.350	0.00034667	0.00076517	0.00022304	1419.4	8.372e-06	8.8425e-06	1621.4	481.37	5.831e-06	1.2393e-05	594.82	213.1	168.15	77.577	6.5809e-06	109.09	0.00069147	0.00068629	0.00019278	1387.2	7.4013e-06	7.5468e-06	1588.6	475.46	7.5082e-06	7.5027e-06	584.97	211.69	167.74	77.123	7.612e-06	107.34	235.038	-19.600	0.168	-86.737	37.621	58.481	-87.598	-82.117	29.451	65.475	-83.432	-78.229	-76.151	-70.440	108.525	-72.554	-8191	255	
#DATA ENDS
