BOXY.EXE: ISS Imagent and Oximeter Data Acquisition Program Version 0.80
Ascii Record File

#ACQ INFORMATION
2  Detector Channels 
16  External MUX Channels 
1  Auxiliary Channels 
5000  Waveform (CCF) Frequency (Hz)
1  Waveforms Skipped 
30  Waveforms Averaged 
1  Cycles Averaged 
16  Acquisitions per Waveform 
10.0806  Updata Rate (Hz) 

#FILE INFORMATION
TRUE -- External MUX Channel results are PARSED.
FALSE -- AC DC and Phase are NOT grouped.
TRUE -- Companion Program Settings File CREATED.
FALSE -- AC data not excluded
FALSE -- DC data not excluded
FALSE -- Phase data not excluded
FALSE -- Auxillary Chn. data not excluded
Tab delimiters

#CALIBRATION STATE
TRUE -- Waveform Calibration Values APPLIED.


#AUX CALIBRATION VALUES
Val Type	aux-1	

Term	1.0000e+00	
Factor	0.0000e+00	


#WF CALIBRATION VALUES
A = Detector Channel
Val Type	A-AC1	A-AC2	A-AC3	A-AC4	A-AC5	A-AC6	A-AC7	A-AC8	A-AC9	A-AC10	A-AC11	A-AC12	A-AC13	A-AC14	A-AC15	A-AC16	A-DC1	A-DC2	A-DC3	A-DC4	A-DC5	A-DC6	A-DC7	A-DC8	A-DC9	A-DC10	A-DC11	A-DC12	A-DC13	A-DC14	A-DC15	A-DC16	A-Ph1	A-Ph2	A-Ph3	A-Ph4	A-Ph5	A-Ph6	A-Ph7	A-Ph8	A-Ph9	A-Ph10	A-Ph11	A-Ph12	A-Ph13	A-Ph14	A-Ph15	A-Ph16	

Term	0.00000e+00	0.00000e+00	0.00000e+00	0.00000e+00	0.00000e+00	0.00000e+00	0.00000e+00	0.00000e+00	0.00000e+00	0.00000e+00	0.00000e+00	0.00000e+00	0.00000e+00	0.00000e+00	0.00000e+00	0.00000e+00	0.00000e+00	0.00000e+00	0.00000e+00	0.00000e+00	0.00000e+00	0.00000e+00	0.00000e+00	0.00000e+00	0.00000e+00	0.00000e+00	0.00000e+00	0.00000e+00	0.00000e+00	0.00000e+00	0.00000e+00	0.00000e+00	0.00000e+00	0.00000e+00	0.00000e+00	0.00000e+00	0.00000e+00	0.00000e+00	0.00000e+00	0.00000e+00	0.00000e+00	0.00000e+00	0.00000e+00	0.00000e+00	0.00000e+00	0.00000e+00	0.00000e+00	0.00000e+00	
Factor	1.00000e+00	1.00000e+00	1.00000e+00	1.00000e+00	1.00000e+00	1.00000e+00	1.00000e+00	1.00000e+00	1.00000e+00	1.00000e+00	1.00000e+00	1.00000e+00	1.00000e+00	1.00000e+00	1.00000e+00	1.00000e+00	1.00000e+00	1.00000e+00	1.00000e+00	1.00000e+00	1.00000e+00	1.00000e+00	1.00000e+00	1.00000e+00	1.00000e+00	1.00000e+00	1.00000e+00	1.00000e+00	1.00000e+00	1.00000e+00	1.00000e+00	1.00000e+00	X	X	X	X	X	X	X	X	X	X	X	X	X	X	X	X	

B = Detector Channel
Val Type	B-AC1	B-AC2	B-AC3	B-AC4	B-AC5	B-AC6	B-AC7	B-AC8	B-AC9	B-AC10	B-AC11	B-AC12	B-AC13	B-AC14	B-AC15	B-AC16	B-DC1	B-DC2	B-DC3	B-DC4	B-DC5	B-DC6	B-DC7	B-DC8	B-DC9	B-DC10	B-DC11	B-DC12	B-DC13	B-DC14	B-DC15	B-DC16	B-Ph1	B-Ph2	B-Ph3	B-Ph4	B-Ph5	B-Ph6	B-Ph7	B-Ph8	B-Ph9	B-Ph10	B-Ph11	B-Ph12	B-Ph13	B-Ph14	B-Ph15	B-Ph16	

Term	0.00000e+00	0.00000e+00	0.00000e+00	0.00000e+00	0.00000e+00	0.00000e+00	0.00000e+00	0.00000e+00	0.00000e+00	0.00000e+00	0.00000e+00	0.00000e+00	0.00000e+00	0.00000e+00	0.00000e+00	0.00000e+00	0.00000e+00	0.00000e+00	0.00000e+00	0.00000e+00	0.00000e+00	0.00000e+00	0.00000e+00	0.00000e+00	0.00000e+00	0.00000e+00	0.00000e+00	0.00000e+00	0.00000e+00	0.00000e+00	0.00000e+00	0.00000e+00	3.11442e+01	-1.32585e+02	-1.25137e+02	-1.82803e+02	-6.99753e+01	-6.57492e+01	-1.55363e+02	-1.62015e+02	-5.19944e+01	-6.84061e+01	-1.72002e+02	-1.69539e+02	-1.79829e+02	-1.77289e+02	-5.95372e+01	-1.49288e+02	
Factor	4.46143e-05	1.55393e-04	3.79425e-05	1.69166e-01	1.65811e-06	1.54395e-06	1.50608e-01	4.38241e-02	2.52180e-06	1.64082e-06	8.20883e-02	2.44333e-02	2.46613e-02	7.74829e-03	1.75397e-06	1.09675e-02	1.31998e-05	1.98917e-05	5.63019e-06	8.76786e-02	2.03302e-07	2.24248e-07	7.35378e-02	2.28266e-02	1.97474e-07	2.25893e-07	4.16175e-02	1.24053e-02	1.29592e-02	4.07900e-03	2.08931e-07	5.61216e-03	X	X	X	X	X	X	X	X	X	X	X	X	X	X	X	X	



#DISTANCE SETTINGS
A = Detector Channel
A-1	A-2	A-3	A-4	A-5	A-6	A-7	A-8	A-9	A-10	A-11	A-12	A-13	A-14	A-15	A-16	

2.5000e+00	3.0000e+00	2.5000e+00	3.0000e+00	2.0000e+00	3.0000e+00	1.5000e+00	3.0000e+00	3.0000e+00	3.0000e+00	3.0000e+00	3.0000e+00	3.0000e+00	3.0000e+00	1.5000e+00	3.0000e+00	

B = Detector Channel
B-1	B-2	B-3	B-4	B-5	B-6	B-7	B-8	B-9	B-10	B-11	B-12	B-13	B-14	B-15	B-16	

1.0000e+01	1.0000e+01	1.0000e+01	1.4400e+00	1.0000e+01	1.0000e+01	1.5100e+00	1.9400e+00	1.0000e+01	1.0000e+01	1.9900e+00	2.4900e+00	2.4100e+00	2.9000e+00	1.0000e+01	2.9800e+00	




#DATA BEGINS
time	group	step	mark	flag	A-AC1	A-AC2	A-AC3	A-AC4	A-AC5	A-AC6	A-AC7	A-AC8	A-AC9	A-AC10	A-AC11	A-AC12	A-AC13	A-AC14	A-AC15	A-AC16	A-DC1	A-DC2	A-DC3	A-DC4	A-DC5	A-DC6	A-DC7	A-DC8	A-DC9	A-DC10	A-DC11	A-DC12	A-DC13	A-DC14	A-DC15	A-DC16	A-Ph1	A-Ph2	A-Ph3	A-Ph4	A-Ph5	A-Ph6	A-Ph7	A-Ph8	A-Ph9	A-Ph10	A-Ph11	A-Ph12	A-Ph13	A-Ph14	A-Ph15	A-Ph16	B-AC1	B-AC2	B-AC3	B-AC4	B-AC5	B-AC6	B-AC7	B-AC8	B-AC9	B-AC10	B-AC11	B-AC12	B-AC13	B-AC14	B-AC15	B-AC16	B-DC1	B-DC2	B-DC3	B-DC4	B-DC5	B-DC6	B-DC7	B-DC8	B-DC9	B-DC10	B-DC11	B-DC12	B-DC13	B-DC14	B-DC15	B-DC16	B-Ph1	B-Ph2	B-Ph3	B-Ph4	B-Ph5	B-Ph6	B-Ph7	B-Ph8	B-Ph9	B-Ph10	B-Ph11	B-Ph12	B-Ph13	B-Ph14	B-Ph15	B-Ph16	aux-1	digaux	

18130.172	1	1	0	256	0.13605	0.17062	0.2159	0.40459	0.15286	0.26184	0.22932	0.22571	0.10266	0.17746	0.099148	0.29479	0.21176	0.34658	0.18604	0.095359	-2.6521	-2.8396	-2.7313	-3.2979	-2.7625	-3.0042	-3.2375	-2.7208	-2.9417	-3	-2.9146	-3.2729	-2.875	-2.9604	-3.0646	-2.7938	13.711	-49.802	-64.306	108.116	38.832	-112.206	111.213	105.995	-119.749	-141.302	160.545	128.409	124.781	-150.850	-132.012	55.757	0.0013701	0.00053158	0.00016585	1404.5	6.3582e-06	6.0085e-06	1387.6	377.15	1.1553e-05	7.0419e-06	423.03	141.22	123.67	42.431	6.5389e-06	52.238	0.00053402	0.00039253	0.00010503	1429	4.3905e-06	4.0565e-06	1414.2	385.62	4.43e-06	4.1268e-06	432.22	144.12	126.16	43.738	4.2004e-06	53.868	0.200	-85.389	-92.661	-164.817	-54.702	-16.120	-165.214	-160.347	-40.563	-31.785	-160.973	-156.561	-156.120	-151.261	-31.051	-152.506	-8191	255	
18130.268	1	1	0	0	0.10893	0.17635	0.14748	0.30552	0.076091	0.26164	0.23947	0.27199	0.1514	0.023415	0.40229	0.13774	0.14355	0.4899	0.26424	0.32403	-2.5042	-2.9313	-2.55	-3.3396	-2.9021	-2.7458	-3.2438	-2.85	-2.9521	-2.8771	-2.7625	-3.1937	-2.8312	-2.8583	-3.0771	-2.8187	43.791	-56.031	167.183	151.895	-88.132	-115.439	98.477	161.702	111.546	129.097	-100.603	157.591	142.711	-178.452	-64.561	82.000	0.0014353	0.00064703	0.00012968	1404.3	8.0003e-06	5.844e-06	1379.9	377.71	9.9001e-06	4.9523e-06	422.31	140.97	123.26	42.265	6.4638e-06	52.069	0.0005476	0.00040049	0.000109	1424.7	4.3579e-06	4.2331e-06	1409.2	384.67	4.3621e-06	4.0181e-06	432.4	143.9	125.77	43.592	4.3371e-06	53.824	1.212	-73.315	-110.087	-164.882	-50.804	-38.869	-165.089	-160.475	-47.953	-31.128	-160.852	-156.435	-156.031	-151.160	-27.783	-152.196	-8191	255	
18130.363	1	1	0	0	0.26705	0.1889	0.30368	0.34292	0.17981	0.12856	0.35647	0.2672	0.095485	0.094125	0.064002	0.27943	0.30767	0.20129	0.21375	0.14704	-2.5292	-2.9146	-2.6271	-3.0833	-2.9479	-2.8333	-3.3021	-3.1667	-3.0521	-3.1833	-2.9479	-3.2562	-3.0979	-2.8083	-3.0708	-2.9125	-73.852	-176.102	-2.837	160.716	33.832	-20.838	146.610	130.580	116.823	69.940	35.221	104.627	56.957	150.215	-101.539	-154.178	0.0014087	0.00055227	0.0001353	1395.9	6.6059e-06	6.2804e-06	1385	375.78	1.0461e-05	6.8226e-06	419.67	139.8	123.19	42.277	5.3124e-06	52.287	0.00054103	0.00039945	0.00010877	1420.8	4.3693e-06	4.1505e-06	1408.1	383.98	4.5143e-06	4.0938e-06	431.38	143.38	125.66	43.618	4.2156e-06	53.854	0.704	-93.400	-95.304	-164.794	-42.019	-34.629	-165.000	-160.558	-39.700	-36.800	-160.852	-156.466	-156.346	-151.377	-22.133	-152.424	-8191	255	
18130.484	1	1	0	0	0.1641	0.084729	0.26685	0.22671	0.11498	0.2575	0.28958	0.2519	0.18501	0.31368	0.53173	0.15294	0.16895	0.23416	0.10635	0.038535	-2.4292	-2.9958	-2.5708	-2.9833	-2.8271	-2.7854	-3.1167	-3.0354	-2.7417	-3.1458	-2.8833	-3.2542	-2.9813	-2.8333	-3.0083	-2.95	119.362	156.552	-41.607	154.613	-25.848	7.915	136.093	151.406	3.608	-159.680	118.724	-152.931	127.929	-50.762	-88.013	48.478	0.0014348	0.00072143	0.00014018	1397.3	7.8349e-06	5.3732e-06	1387.8	376.83	9.6935e-06	4.9796e-06	420.58	140.99	123.5	42.39	5.7113e-06	52.199	0.0005322	0.00039808	0.00010357	1421.7	4.3846e-06	4.1126e-06	1413.2	384.82	4.6476e-06	4.2576e-06	432.09	144.05	125.95	43.676	4.2012e-06	53.918	0.045	-87.841	-79.512	-164.816	-38.061	-34.609	-165.441	-160.401	-53.749	-29.614	-160.851	-156.877	-156.069	-151.180	-35.503	-152.562	-8191	255	
18130.580	1	1	0	0	0.12494	0.031942	0.14202	0.1811	0.055212	0.26942	0.2588	0.12413	0.18158	0.08727	0.34767	0.24859	0.27566	0.29308	0.075441	0.05583	-2.6396	-3.0208	-2.7	-3.1146	-2.9917	-2.7125	-3.1292	-3.0896	-2.9146	-3.1188	-2.8063	-3.0354	-2.8875	-2.9542	-2.9896	-3.075	-128.676	34.640	-94.507	136.818	86.286	164.029	130.193	-98.314	148.151	-18.723	131.128	114.759	110.876	127.496	22.749	112.070	0.0014322	0.00062513	0.00016577	1398.6	6.4728e-06	5.9639e-06	1383.9	376.9	1.2884e-05	5.329e-06	423.56	140.24	123.24	42.318	6.4785e-06	52.352	0.00056319	0.00039232	0.00010858	1426.1	4.3168e-06	4.3373e-06	1412.9	385.28	4.5855e-06	4.02e-06	433.39	144.02	126.03	43.741	4.2187e-06	54.023	0.539	-99.701	-80.418	-164.843	-40.272	-28.823	-165.426	-160.255	-47.018	-32.855	-160.678	-156.537	-155.875	-151.409	-46.044	-152.333	-8191	255	
18130.676	1	1	0	0	0.25376	0.060289	0.3594	0.097013	0.063696	0.093213	0.19098	0.31008	0.24597	0.1918	0.25537	0.23271	0.045302	0.14535	0.11707	0.038918	-2.3688	-2.8063	-2.825	-3.1167	-2.9521	-2.7229	-3.3563	-3.1354	-2.7271	-2.925	-2.8583	-2.9938	-3.0896	-2.925	-3.0771	-3.0021	-153.245	172.147	-48.545	55.013	-155.961	-5.068	117.180	-158.714	-75.887	-108.643	-175.706	141.275	24.905	181.270	30.745	-132.574	0.0014453	0.000679	0.00012911	1402.9	7.8372e-06	5.1571e-06	1388	377.92	1.0922e-05	6.316e-06	424.23	141.58	123.52	42.392	6.9863e-06	52.236	0.00054955	0.00037832	0.00010487	1427.4	4.4616e-06	3.9668e-06	1413.9	384.99	4.4535e-06	4.1428e-06	433.08	144.46	126.12	43.733	4.2365e-06	54.017	-1.210	-94.199	-70.159	-164.830	-53.594	-36.791	-165.226	-160.320	-43.759	-38.304	-160.635	-156.778	-156.363	-151.292	-44.329	-152.338	-8191	255	
18130.771	1	1	0	0	0.02552	0.14963	0.097497	0.432	0.11394	0.060462	0.23964	0.23035	0.043216	0.042864	0.1807	0.32928	0.13543	0.11485	0.17878	0.16223	-2.3396	-2.9667	-2.8312	-3.0979	-3.075	-2.7313	-3.0292	-3.0833	-2.8854	-3.0292	-2.9333	-2.9083	-3.1708	-2.9542	-2.9625	-3.0187	-151.236	-60.276	150.993	154.894	71.586	-30.714	117.537	93.151	53.688	-178.205	-173.583	-169.343	-121.106	111.726	0.440	93.124	0.0014457	0.00066876	0.00013398	1402.2	5.4325e-06	5.4809e-06	1384.5	376.86	1.2722e-05	5.0072e-06	423.31	140.85	123.87	42.522	6.698e-06	52.018	0.00055621	0.00037007	0.00010003	1428.2	4.2952e-06	4.0547e-06	1414	384.97	4.4728e-06	3.9343e-06	432.72	143.97	126.09	43.624	4.2574e-06	53.876	0.123	-98.837	-83.926	-164.782	-45.204	-22.758	-165.204	-160.366	-36.219	-29.444	-160.777	-156.639	-156.043	-151.327	-27.155	-152.203	-8191	255	
18130.867	1	1	0	0	0.058323	0.22419	0.059006	0.23613	0.082162	0.23363	0.44674	0.22884	0.078844	0.12986	0.36615	0.20441	0.27775	0.27037	0.06885	0.1211	-2.275	-3.0938	-2.7604	-2.825	-2.9625	-2.7854	-3.0771	-3.1229	-2.8417	-3.0125	-2.9313	-2.975	-3.3021	-2.9688	-3.0375	-3.1271	-145.744	75.023	175.517	-161.661	32.313	12.652	120.833	136.065	-74.945	-80.672	148.572	107.590	-122.956	110.389	-127.688	-38.629	0.0013651	0.00047755	0.00014863	1403.3	5.8312e-06	3.6964e-06	1386.1	377.28	9.9742e-06	4.8484e-06	420.14	140.74	123.54	42.314	7.5836e-06	52.074	0.00053165	0.00036497	0.00010127	1428.1	4.2736e-06	4.0584e-06	1413.4	385	4.5493e-06	3.9804e-06	431.89	144.12	125.86	43.676	4.3357e-06	53.808	-0.103	-75.059	-90.589	-164.840	-46.468	-16.739	-165.217	-160.458	-30.650	-16.325	-160.802	-156.765	-156.280	-151.112	-40.641	-152.296	-8191	255	
18130.965	1	1	0	0	0.069756	0.10879	0.20479	0.1838	0.056963	0.096772	0.30513	0.22429	0.1623	0.20291	0.28204	0.056276	0.1309	0.069941	0.18467	0.12195	-2.2729	-2.9167	-2.8646	-2.8625	-3.0333	-2.9229	-3.0729	-3.2104	-2.6271	-3.2375	-3.2896	-2.8229	-3.1708	-2.7583	-2.5812	-3.1813	91.424	24.298	-101.154	-175.701	113.040	-136.310	81.661	129.841	42.405	-19.720	136.095	-172.855	157.964	-72.468	-31.477	-167.256	0.0013793	0.00058718	0.00010233	1400.4	4.3345e-06	4.5321e-06	1388.3	376.99	1.2646e-05	4.8829e-06	425.27	141.13	123.47	42.28	8.3017e-06	52.119	0.00053157	0.00037289	0.00010336	1429.3	4.23e-06	4.0084e-06	1415	385.23	4.5201e-06	3.9842e-06	433.39	144.41	125.88	43.684	4.5442e-06	53.883	-0.523	-99.439	-89.413	-164.765	-32.461	-32.283	-164.960	-160.405	-39.928	-19.360	-160.601	-156.806	-156.111	-151.267	-35.013	-152.434	-8191	255	
18131.061	1	1	0	0	0.22198	0.13702	0.19501	0.25836	0.18504	0.11596	0.072641	0.37595	0.40224	0.22414	0.20981	0.38141	0.20403	0.17563	0.020495	0.16195	-2.4333	-2.9146	-2.6458	-2.9688	-2.9646	-2.975	-3.0687	-3.1937	-2.6917	-3.05	-3.1562	-2.8063	-2.9625	-2.8812	-2.7667	-3.1146	64.165	-86.401	-111.517	-165.940	-58.422	-119.751	6.179	135.012	150.210	79.928	121.200	-174.028	138.559	116.293	130.990	169.339	0.0014392	0.000633	0.00014077	1397.9	6.8917e-06	5.1675e-06	1385.9	375.95	1.2963e-05	5.3405e-06	422.66	141.81	123.74	42.37	6.573e-06	52.026	0.00054416	0.00038147	0.00010266	1426.5	4.1423e-06	4.1168e-06	1414.4	384.95	4.3523e-06	3.9931e-06	432.62	144.46	126.36	43.681	4.3445e-06	53.921	-0.305	-93.411	-85.255	-164.886	-32.029	-16.601	-165.444	-160.221	-30.655	-23.905	-160.745	-156.773	-156.220	-151.088	-14.454	-152.488	-8191	255	
18131.182	1	1	0	0	0.10718	0.056227	0.047222	0.16913	0.10693	0.066154	0.34184	0.19349	0.092808	0.23745	0.18961	0.048092	0.039617	0.14567	0.1009	0.25242	-2.2938	-2.8292	-3.1042	-2.8104	-3.1333	-2.8792	-2.8958	-3.1417	-2.7479	-2.8583	-3.1375	-2.975	-3.0208	-3.1125	-2.7146	-3.0771	-14.855	69.207	-98.907	-141.323	16.382	97.659	114.868	128.740	-44.698	51.709	129.719	47.462	18.229	58.999	-143.075	76.212	0.0013941	0.00064419	0.00011769	1400.9	6.4583e-06	5.3389e-06	1380.8	376.01	1.1499e-05	5.2832e-06	420.74	140.37	122.92	42.223	6.2028e-06	52.097	0.00054007	0.0003709	9.9983e-05	1426.2	4.1537e-06	3.9566e-06	1410.6	384.59	4.395e-06	3.9941e-06	431.62	143.91	125.64	43.622	4.1773e-06	53.883	-1.318	-76.097	-104.699	-164.796	-36.142	-13.999	-165.339	-160.307	-32.875	-51.193	-160.728	-156.590	-155.917	-151.341	-36.524	-152.303	-8191	255	
18131.277	1	1	0	0	0.095677	0.18585	0.26284	0.11126	0.19112	0.25141	0.18023	0.13425	0.19729	0.3155	0.20897	0.18013	0.18462	0.34868	0.089292	0.053254	-2.4625	-2.775	-3.25	-2.8625	-3.0125	-2.8792	-2.9333	-3.1854	-2.9354	-2.9333	-3.1146	-2.8104	-2.9896	-3.0187	-2.7896	-2.9708	-111.938	68.342	-59.969	-23.537	70.009	-38.474	106.582	141.159	-32.706	11.944	161.814	-133.803	164.301	113.886	162.979	129.334	0.0013607	0.00052909	0.00012768	1401.2	4.2772e-06	4.5957e-06	1383.4	377.1	1.1999e-05	3.685e-06	423.79	140.59	123.32	42.265	7.0812e-06	52.268	0.00052918	0.00038321	0.00010062	1425.2	4.1414e-06	3.893e-06	1411.6	385.32	4.1424e-06	3.9527e-06	433.04	144.01	125.93	43.631	4.149e-06	53.936	-1.381	-81.466	-82.774	-164.828	-38.648	-34.350	-165.172	-160.430	-42.924	-37.254	-160.868	-156.514	-156.167	-151.268	-27.541	-152.303	-8191	255	
18131.350	1	1	0	0	0.16762	0.18881	0.14507	0.2101	0.14207	0.080275	0.25316	0.45158	0.18006	0.25457	0.16177	0.14551	0.16219	0.081361	0.064847	0.15254	-2.3937	-2.7896	-3.0104	-2.8563	-2.9188	-3.0583	-2.7896	-3.2458	-2.8125	-2.65	-3.3937	-2.8021	-2.9125	-3.2396	-2.65	-3.1	-115.776	-129.950	89.763	94.221	0.047	-33.186	140.839	172.220	-122.783	126.161	98.832	144.457	43.100	-110.640	-143.340	161.368	0.0014311	0.0006133	0.00014199	1398	8.0127e-06	5.8048e-06	1381.8	376.62	1.0043e-05	5.5714e-06	422.46	140.57	122.81	41.968	5.3003e-06	51.998	0.00055618	0.00038022	0.0001032	1419.5	4.1309e-06	3.9514e-06	1406.6	383.85	4.2634e-06	4.1042e-06	431.1	143.65	125.28	43.428	4.2012e-06	53.705	0.121	-94.348	-93.351	-164.888	-40.072	-33.772	-165.134	-160.402	-34.914	-27.113	-160.668	-156.734	-155.999	-151.422	-31.471	-151.908	-8191	255	
18131.445	1	1	0	0	0.25713	0.13726	0.19004	0.27743	0.18014	0.075818	0.24507	0.071964	0.18277	0.28796	0.23547	0.20637	0.49309	0.28887	0.087353	0.19094	-2.5271	-2.8187	-3.0417	-2.8208	-2.7562	-3.0521	-2.8542	-3.2875	-2.7917	-2.8417	-3.2438	-2.8354	-2.9437	-3.0333	-2.5812	-3.1188	-132.727	133.332	-2.043	73.103	131.221	92.458	122.926	111.141	93.322	-21.337	109.061	163.059	-152.532	-173.824	-162.276	174.488	0.0013981	0.00051925	0.00014714	1384.1	5.7571e-06	6.2679e-06	1371.6	374.49	9.5391e-06	5.8027e-06	421.34	139	121.93	41.804	6.7931e-06	51.394	0.00054092	0.00040111	9.7696e-05	1410.9	4.2173e-06	4.0178e-06	1398.3	381.54	4.3457e-06	3.8901e-06	429.32	142.47	124.69	43.202	4.1738e-06	53.336	0.042	-97.171	-74.852	-165.041	-47.197	-26.248	-165.233	-160.430	-47.669	-28.784	-160.837	-156.804	-156.155	-151.330	-44.214	-152.555	-8191	255	
18131.564	1	1	0	0	0.12318	0.12171	0.20665	0.11918	0.11104	0.10465	0.3905	0.10206	0.13398	0.25167	0.044196	0.17146	0.099532	0.24642	0.16572	0.10557	-2.4354	-2.7021	-2.9396	-2.8875	-2.7708	-3.0667	-2.9188	-3.2917	-2.7625	-2.6646	-3.0479	-3	-2.8354	-3.2271	-2.6833	-3.1229	-101.705	140.056	-26.756	161.403	-110.344	132.342	127.610	164.593	73.275	173.402	168.464	-11.791	-156.720	160.703	123.030	77.085	0.0013855	0.00057895	0.00014466	1375.6	5.3652e-06	4.7163e-06	1365.5	370.66	1.1852e-05	6.287e-06	418.35	139.05	120.88	41.859	6.9832e-06	51.631	0.00054812	0.00039709	0.00010252	1401.4	4.0673e-06	4.0173e-06	1391	379.65	4.4662e-06	4.0567e-06	427.28	142.06	123.94	43.058	4.0419e-06	53.286	0.144	-86.968	-73.298	-164.949	-41.837	-26.484	-165.072	-160.224	-37.348	-33.535	-160.784	-156.710	-155.856	-151.202	-28.435	-152.454	-8191	255	
18131.660	1	1	0	0	0.17084	0.14788	0.21284	0.15202	0.09676	0.093678	0.18402	0.14905	0.23898	0.11316	0.27664	0.081598	0.030319	0.25561	0.16308	0.069037	-2.4042	-2.7375	-3.0667	-3.1833	-2.8375	-2.9042	-2.9146	-3.0333	-3.0542	-2.6958	-3.2021	-3.1083	-2.9458	-3.0521	-2.8812	-3.0271	73.803	25.541	-105.745	171.336	-4.148	-59.529	158.183	95.398	70.983	7.780	86.790	-57.504	39.322	142.470	-170.004	-110.412	0.0014252	0.00063912	0.00011031	1367	5.5508e-06	6.2382e-06	1360.8	370.01	1.126e-05	3.2136e-06	416.62	138.76	121.11	41.64	6.6156e-06	51.512	0.00053253	0.0003697	9.7156e-05	1392.9	4.2012e-06	3.908e-06	1384	378.16	4.2646e-06	3.9117e-06	426.15	141.6	123.78	42.977	4.0328e-06	53.191	0.714	-87.524	-73.053	-164.641	-41.343	-27.124	-165.193	-160.356	-37.676	-51.096	-160.943	-156.508	-156.124	-151.396	-36.516	-152.089	-8191	255	
18131.758	1	1	0	0	0.086921	0.27364	0.037269	0.26348	0.26085	0.34636	0.25283	0.23835	0.075514	0.17435	0.20636	0.45386	0.19925	0.32125	0.042238	0.17535	-2.7125	-2.5167	-2.9146	-3.0458	-2.6958	-3.1292	-2.8771	-3.0812	-3.0271	-2.6833	-3.2104	-3.0042	-2.9542	-3.1167	-2.8229	-2.8833	163.461	103.712	108.627	162.255	148.705	84.108	138.443	134.086	-85.809	41.922	-175.681	83.082	171.655	123.316	-164.676	155.365	0.0013569	0.00062596	0.00013779	1373.9	5.5797e-06	4.9628e-06	1356	369.47	1.0763e-05	4.9542e-06	416.25	138.65	121.3	41.826	5.7162e-06	51.234	0.00052626	0.00035934	9.7449e-05	1392.5	4.1211e-06	3.6566e-06	1381.2	377.94	4.219e-06	3.8416e-06	425.72	141.63	123.77	43.069	3.9849e-06	53.094	2.669	-88.538	-87.993	-164.785	-49.166	-18.857	-165.291	-160.414	-27.694	-27.877	-160.881	-156.608	-156.078	-151.204	-23.882	-152.290	-8191	255	
18131.877	1	1	0	0	0.22793	0.16983	0.1174	0.1059	0.1005	0.067793	0.30354	0.069914	0.27496	0.097571	0.059627	0.18518	0.016851	0.16786	0.11876	0.24458	-2.4458	-2.7479	-2.775	-3.1229	-2.5458	-2.9646	-2.8	-3.0125	-3.1604	-2.7646	-2.9479	-2.9062	-2.7375	-3.0458	-2.8792	-2.8417	-162.480	59.901	-122.834	144.900	143.160	-57.788	95.269	-136.767	-16.599	-174.339	-83.366	35.430	-169.493	94.840	106.014	167.307	0.0013208	0.00054353	0.00013652	1363.8	6.6496e-06	5.7242e-06	1349.7	370.77	1.0301e-05	5.6249e-06	416.8	139.16	121.33	41.474	6.3152e-06	51.198	0.00052469	0.00035072	9.6816e-05	1391.7	4.1342e-06	3.6772e-06	1379.4	378.04	4.1947e-06	3.9291e-06	425.79	141.79	123.7	42.986	3.9457e-06	52.985	-0.400	-79.974	-92.289	-164.977	-44.270	-25.796	-165.018	-160.342	-43.515	-14.196	-160.701	-156.725	-156.077	-151.226	-25.159	-152.513	-8191	255	
18131.973	1	1	0	0	0.099402	0.041543	0.091846	0.32483	0.086069	0.068175	0.34902	0.24031	0.11685	0.093524	0.1374	0.16469	0.098883	0.0347	0.18177	0.081817	-2.475	-2.6458	-2.9583	-3.1437	-2.5854	-3.0854	-3.0312	-2.9271	-2.9979	-2.7729	-2.8937	-2.9979	-2.6125	-3.0604	-2.925	-2.9146	166.664	-57.397	-134.933	154.594	112.696	-31.446	111.063	86.614	138.570	57.330	86.537	-13.008	172.795	-16.186	131.264	-167.757	0.0013458	0.00063676	0.00012432	1360.6	5.5193e-06	6.0131e-06	1354	368.87	1.0396e-05	5.2473e-06	413	138.15	121.03	41.721	7.1805e-06	51.291	0.00051639	0.0003576	9.7414e-05	1388	4.0821e-06	3.8047e-06	1378.7	377.36	4.0803e-06	3.8562e-06	424.61	141.44	123.34	42.907	3.978e-06	53.046	0.264	-95.247	-90.014	-164.723	-55.807	-35.001	-165.091	-160.090	-35.864	-6.925	-160.726	-156.504	-156.254	-151.371	-23.120	-152.562	-8191	255	
18132.045	1	1	0	0	0.15886	0.12749	0.147	0.29303	0.099198	0.35389	0.36642	0.12279	0.15119	0.071976	0.14203	0.2207	0.19488	0.26249	0.16382	0.3711	-2.475	-2.7104	-2.8312	-3.2792	-2.7229	-3.025	-2.9583	-2.8792	-2.9521	-2.7771	-2.9208	-3.2042	-2.5062	-3.1979	-2.975	-2.7938	-34.333	-133.705	1.072	-173.034	180.905	119.143	107.605	104.391	-45.517	150.997	152.788	165.832	135.171	147.071	112.784	130.749	0.0013689	0.00062359	9.6732e-05	1360.6	7.0901e-06	3.904e-06	1352.2	369.95	1.3038e-05	6.1503e-06	416.51	139.03	121.18	41.707	7.8106e-06	51.743	0.00053237	0.00036688	9.6757e-05	1388.9	4.0063e-06	3.5875e-06	1381.2	378.4	4.1819e-06	3.8068e-06	426.05	141.74	123.68	43.055	4.1268e-06	53.258	0.599	-78.118	-67.210	-164.766	-40.565	-40.149	-165.093	-160.410	-45.724	-20.261	-160.741	-156.750	-155.902	-151.105	-49.498	-151.959	-8191	255	
18132.164	1	1	0	0	0.25731	0.16252	0.05142	0.19508	0.068284	0.13597	0.084952	0.33563	0.21765	0.046359	0.20855	0.088446	0.24695	0.091796	0.22991	0.33879	-2.65	-2.5792	-2.75	-3.2375	-2.8021	-2.95	-3.2104	-2.9125	-3.0646	-2.7687	-2.8104	-3.1458	-2.6667	-3.1146	-2.8688	-2.8208	-4.449	111.321	-153.937	100.548	57.687	-167.416	47.563	135.541	-11.887	65.819	77.386	112.779	162.591	-80.620	-105.286	50.446	0.0014993	0.00051281	0.00015697	1365.9	6.0967e-06	5.3728e-06	1360.8	370.31	1.0946e-05	5.2932e-06	418.07	138.93	121.68	41.903	7.0013e-06	51.438	0.00054282	0.00036315	0.00010694	1393.2	4.1872e-06	4.0986e-06	1386	378.93	4.207e-06	4.0167e-06	427.93	142.09	124.14	43.144	4.1991e-06	53.251	0.678	-106.705	-79.133	-164.834	-51.717	-6.892	-165.108	-160.488	-27.336	-18.156	-160.787	-156.647	-156.347	-151.259	-40.528	-152.457	-8191	255	
18132.262	1	1	0	0	0.20144	0.098672	0.036388	0.19661	0.13683	0.17226	0.42418	0.31983	0.026531	0.26128	0.14812	0.28732	0.29073	0.13197	0.15733	0.19117	-2.6583	-2.9	-2.7125	-3.0146	-2.6854	-2.9229	-3.2583	-2.9042	-2.8917	-2.6458	-2.7687	-3.1729	-2.7979	-2.8854	-2.9479	-2.7521	58.381	-146.381	-25.286	90.922	-75.813	86.535	94.484	69.782	-98.887	-100.585	-83.214	145.661	-133.659	-91.773	77.196	146.451	0.0014069	0.00060217	0.00016579	1372	5.7541e-06	4.5281e-06	1364.9	371.23	9.8039e-06	6.5565e-06	418.83	139.05	121.52	41.901	6.3185e-06	51.588	0.00054953	0.00036526	0.00010623	1398.2	4.2147e-06	3.9687e-06	1388.3	379.54	4.2761e-06	4.0411e-06	428.47	142.16	123.97	43.087	4.2043e-06	53.302	-1.110	-100.365	-74.727	-164.999	-54.886	-26.188	-165.018	-160.274	-44.017	-37.423	-160.647	-156.698	-156.299	-151.352	-25.163	-152.388	-8191	255	
18132.357	1	1	0	0	0.13261	0.10738	0.11563	0.33613	0.11903	0.078367	0.30875	0.30621	0.13587	0.16386	0.062791	0.15968	0.28882	0.16653	0.31231	0.12678	-2.4896	-2.9292	-2.6104	-3.0333	-2.7771	-2.9417	-3.1354	-2.9292	-2.9958	-3.0667	-2.8187	-3.1958	-2.8854	-2.9146	-3.0521	-2.9688	-89.370	144.290	-75.994	153.978	10.622	177.293	134.791	145.638	-165.438	-86.136	-88.054	151.624	129.931	-111.920	-0.923	-144.965	0.0012793	0.00049248	0.0001736	1369.5	5.7664e-06	4.4104e-06	1365	370.8	9.9672e-06	3.9042e-06	417.92	139.12	121.86	42.053	5.7413e-06	51.822	0.00051482	0.00037401	0.00010369	1396.5	4.2664e-06	4.0075e-06	1391.2	379.14	4.2733e-06	4.0684e-06	427.93	142.22	124.05	43.239	4.0628e-06	53.44	-1.693	-82.492	-81.603	-164.790	-26.623	-9.066	-165.296	-160.392	-32.065	-51.963	-160.708	-156.635	-156.226	-151.491	-43.116	-152.234	-8191	255	
18132.479	1	1	0	0	0.096724	0.18128	0.15643	0.16336	0.029402	0.080189	0.37411	0.31562	0.20914	0.10404	0.088042	0.0057601	0.2873	0.044276	0.20155	0.16829	-2.3792	-2.8937	-2.5417	-3.1167	-2.7687	-2.8521	-3.3167	-2.8958	-2.9271	-2.9625	-2.8688	-3.1167	-2.9125	-2.9083	-3.0375	-2.8229	-172.565	131.936	135.739	-50.521	87.055	-87.566	131.589	152.346	116.136	153.300	-155.233	-137.408	-161.194	1.110	-130.146	165.806	0.0013503	0.0005207	0.00013346	1376.7	6.6917e-06	5.7386e-06	1370	372.98	1.6648e-05	4.8906e-06	420.35	139.54	121.03	41.852	4.875e-06	51.675	0.00053715	0.00037164	0.00010259	1401.7	4.2401e-06	4.0393e-06	1391.7	380.26	4.5016e-06	4.1757e-06	429.08	142.2	124.11	43.161	4.025e-06	53.392	-0.357	-86.506	-86.537	-165.064	-59.065	-18.440	-165.178	-160.367	-37.750	-27.936	-160.727	-156.448	-155.972	-151.533	-37.476	-152.228	-8191	255	
18132.572	1	1	0	0	0.26808	0.21705	0.04022	0.39361	0.26369	0.1123	0.20544	0.2331	0.33509	0.26027	0.044764	0.1876	0.10712	0.32612	0.14393	0.16239	-2.475	-2.7583	-2.5646	-3.2021	-2.9	-2.8187	-3.2479	-2.8312	-2.9208	-3.1271	-2.8479	-3.0083	-3.0312	-2.8625	-3.075	-2.9542	-75.105	120.755	96.106	171.963	-5.793	-138.383	180.940	136.303	-100.856	171.229	49.013	139.189	-11.481	163.166	-73.245	44.137	0.00142	0.00063989	0.00012828	1376.3	5.0004e-06	5.7278e-06	1363.3	372.27	1.103e-05	4.2733e-06	417.16	138.93	121.38	41.661	7.7017e-06	51.706	0.00052516	0.00036174	0.00010104	1402	4.2668e-06	4.0295e-06	1389.3	380.55	4.2058e-06	4.0374e-06	428.01	142.12	124.21	43.046	4.095e-06	53.309	0.191	-103.879	-96.188	-164.766	-33.691	-23.465	-165.096	-160.264	-41.359	-27.000	-160.822	-156.660	-156.361	-151.262	-23.033	-152.197	-8191	255	
18132.645	1	1	0	0	0.12864	0.077269	0.17048	0.28099	0.022659	0.10514	0.39012	0.21961	0.28265	0.098139	0.14546	0.21589	0.25524	0.19238	0.092345	0.15839	-2.4146	-2.975	-2.5833	-3.0354	-2.7896	-2.6417	-3.1125	-3.0875	-2.8688	-3.0896	-2.8979	-3.0792	-3.1	-2.65	-2.8958	-2.6458	63.139	-109.257	60.979	137.543	-169.485	101.630	128.651	116.782	-123.170	167.984	145.073	153.044	127.361	149.395	52.188	176.444	0.0014159	0.00061575	0.00015115	1375.7	6.1045e-06	4.8429e-06	1363.4	369.79	1.1458e-05	6.9524e-06	418.48	139.46	121.29	41.886	4.3627e-06	51.556	0.00053256	0.00035855	0.00010211	1397.6	4.2622e-06	3.9309e-06	1389.6	378.58	4.3934e-06	3.9329e-06	427.41	142.39	124.04	43.091	3.934e-06	53.352	-0.029	-98.600	-84.615	-164.611	-58.685	-40.132	-165.179	-160.532	-41.723	-25.382	-160.689	-156.447	-156.306	-151.079	-34.203	-152.378	-8191	255	
18132.740	1	1	0	0	0.10174	0.1189	0.37091	0.17394	0.090457	0.14871	0.1236	0.32614	0.098981	0.1358	0.19984	0.087735	0.030314	0.10686	0.21599	0.21514	-2.3688	-2.9437	-2.4333	-3.2313	-3	-2.8229	-3.0938	-3.0563	-2.8021	-3.1167	-2.8917	-3.0375	-3.0021	-2.7604	-2.9	-2.9125	84.046	-79.982	-172.745	133.656	-97.119	127.977	127.175	55.424	98.721	53.954	162.209	124.596	83.248	125.373	-103.290	57.284	0.0014302	0.00064525	0.00011659	1373.8	6.3096e-06	5.3433e-06	1361.6	371.28	1.327e-05	5.6182e-06	419.52	138.59	121.53	41.877	6.0397e-06	51.512	0.00054111	0.00036725	0.00010438	1397.1	4.2012e-06	3.9e-06	1386.3	379.52	4.4423e-06	3.7654e-06	427.78	142.04	124	43.073	4.0437e-06	53.249	-0.086	-95.029	-91.040	-164.737	-50.614	-30.984	-165.302	-160.206	-42.817	-44.598	-160.742	-156.691	-155.958	-151.343	-41.697	-152.432	-8191	255	
18132.838	1	1	0	0	0.06264	0.025119	0.19655	0.23906	0.221	0.11012	0.21292	0.17759	0.2171	0.16329	0.091922	0.25864	0.11621	0.12188	0.17823	0.14046	-2.2896	-3.0604	-2.6729	-3.0479	-3.05	-2.6479	-3.2333	-2.9917	-2.7292	-2.9292	-2.8688	-2.8729	-3.0854	-2.9646	-2.8771	-2.9042	-142.049	90.960	152.264	132.112	149.225	-4.748	117.927	26.306	155.109	-128.611	39.993	-173.224	131.008	101.811	10.531	31.110	0.0013986	0.0006767	0.00011942	1367.5	5.2842e-06	3.824e-06	1358	372.27	1.3349e-05	5.9228e-06	418.3	139.21	121.08	41.714	6.5899e-06	51.304	0.00052533	0.00035175	0.00010406	1393.1	4.1914e-06	3.8561e-06	1385.3	379.48	4.4617e-06	3.8816e-06	427.76	142.21	123.9	43.073	4.0432e-06	53.162	1.033	-82.491	-74.616	-164.959	-46.241	-26.417	-165.025	-160.382	-38.026	-27.935	-160.748	-156.504	-155.938	-151.187	-33.792	-152.256	-8191	255	
18132.957	1	1	0	0	0.27696	0.1117	0.16048	0.071146	0.081392	0.21996	0.13764	0.20032	0.1213	0.059935	0.2794	0.15104	0.23609	0.35201	0.17131	0.32764	-2.1063	-3.0042	-2.6125	-2.8854	-2.9958	-2.8521	-3.1333	-3.1583	-2.7438	-3.1604	-2.9042	-2.9146	-3.1771	-2.7646	-2.8521	-3.0208	-167.262	-24.727	12.336	113.850	-94.063	85.150	133.116	142.537	158.255	78.681	-135.175	-177.654	-165.799	169.004	-160.086	78.871	0.0012621	0.00065023	0.00011874	1365.4	7.2754e-06	4.1865e-06	1354.6	371.62	1.2449e-05	5.6654e-06	415.9	138.97	121.57	41.724	6.2872e-06	51.543	0.0005278	0.0003607	9.9044e-05	1392.3	4.1643e-06	3.901e-06	1381.8	378.95	4.2704e-06	3.8764e-06	426.21	141.66	123.91	43.028	4.0837e-06	53.204	-1.456	-102.718	-90.138	-164.853	-43.139	-1.611	-165.188	-160.384	-42.137	-32.702	-160.560	-156.488	-156.014	-151.228	-38.111	-152.365	-8191	255	
18133.053	1	1	0	0	0.15839	0.31002	0.1921	0.29582	0.063168	0.20383	0.3304	0.12712	0.41531	0.12723	0.12421	0.09722	0.36127	0.092203	0.13661	0.19278	-2.2438	-2.6937	-2.8312	-2.9917	-3.1896	-2.9667	-3.1021	-3.0354	-2.6771	-2.9583	-3.0479	-2.8396	-3.2104	-2.9	-2.875	-3.1604	-92.467	144.969	-129.304	94.163	-24.440	-85.460	91.655	150.700	-102.761	-171.990	31.818	-48.579	131.343	-96.237	-74.953	19.845	0.0013905	0.00061928	0.00013593	1359.3	6.6206e-06	4.7774e-06	1349.2	369.91	1.1941e-05	4.4876e-06	418.07	138.42	121.48	41.727	7.5836e-06	51.461	0.00053198	0.0003561	0.00010233	1388.3	4.1461e-06	3.6795e-06	1380.9	378.06	4.2642e-06	3.8529e-06	426.86	141.43	123.79	42.931	4.2248e-06	53.173	-2.436	-103.363	-84.006	-164.741	-49.451	-39.913	-164.960	-160.071	-34.993	-32.995	-160.609	-156.614	-155.944	-151.333	-28.519	-152.474	-8191	255	
18133.148	1	1	0	0	0.1718	0.19123	0.12349	0.083357	0.23739	0.13159	0.2353	0.21719	0.26381	0.18196	0.18053	0.11881	0.33142	0.10984	0.20113	0.1748	-2.5812	-3.1771	-2.9792	-2.7687	-3.2146	-2.9375	-2.9167	-3.2771	-2.8792	-2.9917	-2.9042	-2.8792	-2.9729	-2.8438	-2.8479	-3.0729	35.940	74.248	142.481	-113.588	-14.438	-67.713	-140.462	121.542	-4.663	-177.157	102.582	-46.901	111.504	139.017	118.640	123.967	0.0013938	0.00069108	0.00018104	1359.6	5.0367e-06	5.6643e-06	1356.6	369.25	1.1847e-05	6.2039e-06	416.4	138.86	120.81	41.604	6.3719e-06	51.415	0.00052472	0.00035656	9.9901e-05	1385.8	4.0368e-06	3.8188e-06	1377.6	377.39	4.0277e-06	3.7042e-06	425.83	141.57	123.35	42.941	4.038e-06	53.159	0.721	-96.577	-84.015	-164.944	-48.639	-27.433	-165.106	-160.458	-34.955	-27.421	-160.780	-156.240	-156.086	-151.501	-39.206	-152.274	-8191	255	
18133.244	1	1	0	0	0.18189	0.068521	0.046385	0.1229	0.18944	0.089695	0.42998	0.22773	0.14841	0.085278	0.11427	0.21457	0.13508	0.15639	0.075559	0.11802	-2.425	-2.8708	-2.7687	-2.9979	-2.9646	-2.9833	-3.1208	-3.1958	-2.5708	-2.8396	-3.15	-2.6542	-3.0938	-3.0167	-2.6875	-3.1813	-133.529	-43.285	-26.720	172.549	-109.368	-123.475	176.249	134.705	16.248	-69.186	-165.430	157.414	-135.404	-12.812	-126.273	-126.519	0.0013876	0.00070395	0.00015762	1360.4	5.8562e-06	5.2384e-06	1348.8	369.35	1.2162e-05	6.195e-06	415.91	139.07	120.55	41.801	7.1904e-06	51.458	0.00053102	0.00035801	0.00010087	1387.6	3.9288e-06	3.9827e-06	1377.8	377.52	4.0202e-06	4.0233e-06	425.43	141.68	123.38	42.983	4.0328e-06	53.123	-0.959	-87.312	-98.711	-164.748	-51.902	-15.693	-164.930	-160.155	-39.150	-35.048	-160.753	-156.528	-156.097	-151.172	-26.735	-152.258	-8191	255	
18133.342	1	1	0	0	0.11306	0.12762	0.083382	0.27271	0.10562	0.11126	0.19308	0.080076	0.22987	0.088384	0.12958	0.15793	0.24088	0.34623	0.12611	0.086426	-2.0729	-2.8292	-2.7938	-2.8792	-3.1208	-2.8438	-3.0062	-3.325	-2.6167	-2.9625	-3.0708	-2.7833	-2.9542	-3.1271	-2.7125	-3.0375	44.053	111.222	9.717	171.872	181.496	101.715	161.693	-82.235	70.241	-115.381	86.308	36.956	-145.568	162.930	-56.731	-165.045	0.0013839	0.0007143	0.00014024	1357.3	5.4972e-06	5.7958e-06	1350.9	369.67	8.0194e-06	6.0169e-06	415.93	138.2	121.58	41.693	4.8112e-06	51.425	0.00051664	0.00036307	9.6241e-05	1383.3	3.8687e-06	3.7851e-06	1377	377.5	4.0729e-06	3.9178e-06	425.54	141.48	123.46	42.971	4.0493e-06	53.138	0.165	-90.349	-77.858	-164.656	-51.418	-8.580	-165.132	-160.319	-44.098	-33.136	-160.764	-156.301	-155.834	-151.242	-44.093	-152.261	-8191	255	
18133.438	1	1	0	0	0.13127	0.18755	0.22267	0.2429	0.26443	0.1184	0.40481	0.15812	0.18113	0.21203	0.14966	0.16358	0.15358	0.18308	0.17212	0.097473	-2.2729	-2.9292	-2.9646	-2.9208	-2.8812	-2.8542	-2.8625	-3.1354	-2.8229	-2.7354	-3.0438	-2.9313	-2.9917	-2.9	-2.5812	-3.025	118.863	102.717	14.879	94.938	114.202	34.649	111.495	140.563	54.831	-135.302	51.873	106.184	-134.920	52.776	-126.165	-167.571	0.0013129	0.00059064	0.00013419	1364.1	6.4069e-06	4.7589e-06	1356.7	368.07	1.3609e-05	3.7746e-06	415.84	138.36	121.62	41.647	5.9877e-06	51.394	0.00051815	0.00035432	9.359e-05	1386.4	3.9852e-06	3.8692e-06	1377.7	376.93	4.1498e-06	3.8345e-06	425.68	141.55	123.79	42.956	3.8613e-06	53.139	-1.587	-102.502	-82.779	-164.538	-51.691	-31.777	-165.177	-160.219	-36.848	-34.987	-160.601	-156.600	-156.038	-151.218	-38.405	-152.220	-8191	255	
18133.559	1	1	0	0	0.093333	0.23103	0.21823	0.19212	0.27645	0.14113	0.11413	0.020952	0.14292	0.20932	0.25779	0.15196	0.048948	0.084622	0.20268	0.04361	-2.1396	-2.5208	-2.8625	-2.7854	-2.9021	-3.0812	-2.9104	-3.0917	-2.8979	-2.7521	-3.05	-2.8563	-2.9938	-3.0854	-2.775	-2.9896	-20.338	-138.875	-100.292	122.493	-115.719	71.366	136.881	94.990	157.651	133.982	-161.895	-156.304	-109.274	33.884	-47.437	135.892	0.0013515	0.00067168	0.0001417	1362.9	7.3115e-06	4.5132e-06	1349.4	369.59	1.1152e-05	5.8376e-06	415.79	138.07	121.17	41.848	5.331e-06	51.185	0.00051259	0.00036555	9.5432e-05	1386.4	4.0893e-06	3.7043e-06	1377.6	377.62	4.0741e-06	3.963e-06	425.71	141.62	123.7	43.037	3.937e-06	53.012	1.750	-101.505	-87.136	-164.894	-39.196	-29.880	-165.167	-160.317	-43.025	-16.572	-160.868	-156.590	-155.920	-151.382	-39.454	-152.257	-8191	255	
18133.652	1	1	0	0	0.30198	0.1162	0.15273	0.33495	0.13406	0.18089	0.2655	0.06758	0.11552	0.090896	0.11281	0.098009	0.39783	0.20377	0.069871	0.18861	-2.1188	-2.7146	-2.9125	-2.9	-2.7521	-3.025	-3.0187	-3.1479	-2.9021	-2.8083	-3.0708	-2.8896	-2.9208	-3.1729	-2.8375	-3.175	-66.918	-54.113	114.470	154.934	20.835	-50.262	133.143	157.559	162.115	104.662	144.022	-94.447	-103.542	101.025	6.570	152.418	0.00132	0.00055929	0.00013858	1360.4	5.7626e-06	5.8919e-06	1353.3	370.26	1.3262e-05	5.5467e-06	415.98	139.11	120.51	41.754	5.3423e-06	51.433	0.00052142	0.00037305	9.5045e-05	1386.4	3.9936e-06	3.879e-06	1379.5	377.68	4.207e-06	3.8524e-06	426.44	141.76	123.72	43.037	3.8979e-06	53.104	-0.017	-81.740	-80.270	-164.583	-43.828	-31.588	-165.196	-160.278	-44.855	-32.395	-160.728	-156.591	-155.965	-151.200	-48.638	-152.532	-8191	255	
18133.748	1	1	0	0	0.10262	0.22233	0.064144	0.22896	0.058876	0.18216	0.39086	0.22992	0.21919	0.095899	0.24656	0.32693	0.10744	0.18524	0.19339	0.10633	-2.3521	-2.65	-3.0062	-2.7562	-3.0292	-2.8333	-2.8042	-3.2146	-2.9521	-2.6708	-3.2146	-2.9604	-2.7958	-3.175	-2.6771	-2.9938	26.330	75.949	134.315	169.166	5.973	108.701	102.548	140.174	51.526	87.156	170.508	144.008	180.241	137.095	-53.875	142.200	0.0013504	0.00066283	0.00014713	1365.2	7.356e-06	4.2188e-06	1357.2	371.87	8.7619e-06	7.4277e-06	418.97	138.68	121.61	41.939	6.8861e-06	51.552	0.00052293	0.00037268	0.00010063	1390.6	4.2219e-06	3.8496e-06	1382.2	379	4.1963e-06	4.1188e-06	427.29	141.83	123.91	43.12	3.887e-06	53.185	0.718	-97.266	-77.660	-164.806	-44.943	-13.765	-165.053	-160.395	-30.689	-21.891	-160.725	-156.573	-155.972	-151.148	-34.885	-152.393	-8191	255	
18133.846	1	1	0	0	0.062948	0.060617	0.14655	0.46028	0.084879	0.1162	0.22172	0.25329	0.1627	0.054025	0.028461	0.014131	0.3	0.13568	0.10929	0.35856	-2.4	-2.6729	-2.8417	-2.7833	-2.7792	-3.1729	-2.9938	-3.1167	-3.0042	-2.7417	-3.2833	-2.9833	-2.975	-3.1417	-2.7938	-3.0458	-7.646	41.593	12.734	-178.013	-9.782	-94.352	113.860	123.831	-94.163	-45.092	-156.162	-50.430	157.159	163.315	-149.072	137.675	0.0013635	0.00053867	0.00011586	1370.4	5.1734e-06	5.8731e-06	1362.6	372.94	9.766e-06	4.7767e-06	418.58	139.59	121.94	41.914	4.3873e-06	51.423	0.00052288	0.00036605	9.7696e-05	1395	4.3109e-06	3.9603e-06	1390.1	380.16	4.3165e-06	4.1418e-06	428.42	142.42	124.38	43.173	4.2591e-06	53.311	2.505	-89.968	-91.020	-164.852	-50.359	-34.706	-165.234	-160.354	-50.050	-33.965	-160.774	-156.592	-156.149	-151.103	-33.909	-152.267	-8191	255	
18133.941	1	1	0	0	0.29572	0.30546	0.2107	0.26141	0.096609	0.045629	0.37833	0.17894	0.31644	0.20281	0.1458	0.35427	0.35784	0.056697	0.20995	0.1951	-2.6063	-2.7958	-3.1833	-3.0229	-2.8146	-3.1479	-2.9021	-3.0875	-2.9875	-2.6063	-3.0583	-3.2875	-2.9562	-3.0771	-2.8521	-2.8896	155.384	104.987	-52.593	152.012	16.053	-89.067	109.414	61.703	176.862	-59.751	123.857	139.745	-160.330	5.586	-59.969	-157.266	0.0013356	0.00059035	0.00013944	1379.4	6.3546e-06	4.8088e-06	1368.5	373.65	1.2951e-05	3.1908e-06	419.03	139.62	122.07	41.705	7.2334e-06	51.83	0.00053512	0.00038022	0.00010322	1402.7	4.3778e-06	3.9935e-06	1392.6	380.63	4.3708e-06	3.964e-06	429.54	142.35	124.3	43.152	4.1669e-06	53.498	-0.381	-90.044	-92.701	-165.014	-49.527	-30.021	-165.045	-160.380	-41.353	-16.266	-160.700	-156.532	-156.102	-151.054	-40.606	-152.450	-8191	255	
18134.037	1	1	0	0	0.13824	0.11625	0.11532	0.2613	0.149	0.14771	0.36646	0.34091	0.13458	0.19852	0.31443	0.3872	0.13649	0.31913	0.13378	0.035751	-2.6542	-2.8312	-2.9354	-3.1083	-2.8688	-3.0917	-2.9833	-2.8792	-3.1958	-2.8937	-3.0667	-3.0312	-2.9167	-3.1896	-2.7854	-2.9875	8.143	15.512	-145.056	155.957	58.888	-14.235	142.934	150.879	119.952	-49.244	169.610	119.564	110.466	69.899	-86.130	151.008	0.0013265	0.00060372	0.00013597	1377.9	5.2384e-06	4.9589e-06	1367.1	374.36	1.3176e-05	5.4839e-06	420.09	138.87	122.04	41.998	6.082e-06	51.717	0.00053149	0.00037106	0.00010578	1403.3	4.2448e-06	3.7192e-06	1392.8	380.81	4.2013e-06	3.9729e-06	429.29	142.44	124.43	43.243	4.2261e-06	53.489	-0.582	-89.199	-90.450	-164.638	-66.973	-22.797	-165.044	-160.145	-36.302	-36.134	-160.909	-156.554	-156.179	-151.283	-23.035	-152.219	-8191	255	
18134.135	1	1	0	0	0.11239	0.1203	0.13708	0.071177	0.22496	0.06813	0.27172	0.29039	0.22048	0.086862	0.15197	0.27787	0.0507	0.3835	0.089793	0.19371	-2.6021	-2.6604	-2.8792	-3.1417	-2.7646	-2.9583	-3.025	-2.8833	-2.9542	-2.85	-2.9188	-3.2396	-2.7812	-3.1125	-2.8458	-2.8646	1.331	-147.018	-79.893	86.147	-61.101	-123.571	149.096	142.307	-166.979	-37.042	94.088	110.102	71.735	151.179	120.473	85.867	0.0013744	0.00043114	0.0001236	1382.7	5.9313e-06	5.6285e-06	1370.1	372.2	1.3103e-05	3.9184e-06	422	139.45	121.87	41.73	6.8002e-06	51.662	0.00054249	0.00036613	0.00010205	1403.3	4.2689e-06	3.9883e-06	1396.1	380.79	4.2124e-06	4.0407e-06	429.05	142.68	124.38	43.181	4.3392e-06	53.425	-1.169	-106.466	-84.300	-164.781	-54.969	-11.836	-165.056	-160.344	-41.719	-39.173	-160.627	-156.572	-156.081	-151.339	-23.232	-152.378	-8191	255	
18134.254	1	1	0	0	0.20714	0.11831	0.21064	0.078832	0.22835	0.042636	0.12525	0.11782	0.14792	0.19668	0.1568	0.092188	0.20662	0.12233	0.22597	0.19816	-2.4229	-2.7896	-2.8208	-3.2729	-2.7354	-2.7958	-3.25	-3.1708	-2.9083	-2.7333	-2.9688	-3.1167	-2.7646	-3.1542	-2.925	-3.0062	39.238	20.022	13.331	137.620	61.132	-126.344	21.688	97.764	-147.885	-139.315	136.309	102.709	179.275	41.762	21.117	99.977	0.0013756	0.00070877	0.00014172	1375.3	5.5492e-06	5.9464e-06	1365.4	372.92	9.4103e-06	4.5763e-06	418.65	139.73	122	41.816	7.0591e-06	51.665	0.00053113	0.00038362	0.00010787	1403	4.1673e-06	3.915e-06	1392.8	381.02	4.1828e-06	4.0025e-06	429.29	142.71	124.42	43.161	4.2265e-06	53.386	0.090	-95.309	-65.432	-164.817	-44.241	-19.063	-165.148	-160.183	-36.824	-12.730	-160.810	-156.494	-156.198	-151.413	-33.642	-152.163	-8191	255	
18134.350	1	1	0	0	0.12465	0.18265	0.094045	0.10656	0.054799	0.0541	0.15345	0.43881	0.10183	0.10273	0.054117	0.063624	0.20412	0.089628	0.17982	0.17018	-2.6875	-2.7917	-2.6833	-3.2771	-2.7896	-2.9917	-3.0375	-2.8521	-2.9979	-2.8688	-3.0021	-3.1562	-3.0083	-3.0333	-2.7854	-2.6937	8.144	2.638	23.545	8.889	149.488	-140.445	79.780	126.161	-66.175	90.589	136.222	163.176	146.697	-124.813	-111.317	132.004	0.0013467	0.00063697	0.00013977	1379.6	5.9738e-06	4.7708e-06	1363.1	372.7	8.1547e-06	5.2093e-06	419.08	139.41	121.87	42.019	6.0616e-06	51.633	0.00050965	0.00037823	0.00010577	1402.3	4.1059e-06	4.0089e-06	1391.1	380.53	4.1021e-06	3.8171e-06	429.38	142.38	124.48	43.239	4.173e-06	53.392	-0.040	-81.455	-86.079	-164.924	-46.986	-6.041	-164.992	-160.293	-58.607	-31.872	-160.779	-156.490	-155.967	-151.313	-29.714	-152.330	-8191	255	
18134.445	1	1	0	0	0.34337	0.24897	0.12102	0.29503	0.030024	0.22744	0.20559	0.13825	0.036566	0.15145	0.23267	0.1936	0.18795	0.44243	0.1547	0.23735	-2.65	-2.8271	-2.6271	-3.2021	-2.8958	-2.8396	-3.1271	-2.7792	-2.7396	-2.7667	-2.8375	-3.2354	-2.9375	-2.8708	-2.9562	-2.7208	140.743	119.987	-125.189	112.753	-177.353	-132.203	160.070	92.368	40.352	23.668	141.082	111.218	178.833	-159.569	95.335	-165.662	0.0013832	0.00074172	0.00012939	1375.1	5.4412e-06	5.1629e-06	1368.9	373.01	1.4065e-05	6.2461e-06	418.19	139.28	122.11	41.956	5.0001e-06	51.664	0.00053069	0.00035917	0.0001045	1401.6	4.1825e-06	3.9697e-06	1391.6	380.6	4.2926e-06	4.0929e-06	429.48	142.36	124.52	43.232	4.1586e-06	53.4	-0.543	-90.821	-91.767	-164.704	-54.000	-27.342	-165.158	-160.110	-42.678	-30.333	-160.732	-156.410	-156.352	-151.506	-23.190	-152.184	-8191	255	
18134.518	1	1	0	0	0.064493	0.11156	0.30462	0.22533	0.0096158	0.15942	0.08267	0.22158	0.3164	0.16317	0.31117	0.20816	0.34011	0.28967	0.33496	0.26951	-2.5729	-2.7438	-2.8104	-3.2229	-2.8646	-2.7854	-3.1792	-2.8875	-3.0812	-3.1542	-2.8812	-2.9979	-3.0083	-2.8937	-2.9875	-2.9396	60.579	160.452	36.252	-119.709	107.257	13.448	-174.139	117.466	-39.457	99.939	55.491	119.482	-159.584	146.021	-65.688	125.890	0.0014376	0.00056212	0.00014082	1374.3	5.733e-06	5.0288e-06	1363	371.61	1.1793e-05	5.6477e-06	418.48	138.96	121.82	41.889	6.0145e-06	51.522	0.00053215	0.00036344	0.00010184	1399.6	4.1834e-06	3.9575e-06	1389.1	380.24	4.2165e-06	4.0021e-06	428.25	142.36	124.36	43.185	3.9788e-06	53.334	-0.092	-91.395	-71.603	-164.929	-46.968	-25.421	-165.131	-160.337	-32.186	-26.132	-160.857	-156.381	-156.145	-151.612	-31.560	-152.109	-8191	255	
18134.637	1	1	0	0	0.032287	0.18077	0.22429	0.13357	0.11794	0.15236	0.30457	0.20392	0.052582	0.10181	0.24596	0.20342	0.13279	0.040026	0.22208	0.099367	-2.5958	-2.9188	-2.8125	-3.1375	-2.8312	-2.5438	-3.1333	-2.7854	-2.8917	-2.9479	-2.8417	-3.025	-2.9979	-2.8729	-3.1083	-2.9729	-73.879	-97.780	-39.005	155.139	35.844	-21.451	120.718	77.197	121.809	56.326	147.479	-170.952	-173.968	-25.724	107.911	123.131	0.0013685	0.00069534	0.00010581	1371.1	4.8086e-06	4.5095e-06	1365.1	371.83	1.2881e-05	6.1713e-06	419.18	139.12	120.89	42.035	7.8723e-06	51.397	0.00053943	0.00038122	0.00010189	1398.5	4.1503e-06	3.9921e-06	1388.8	380.35	4.4423e-06	4.0162e-06	428.52	142.29	123.92	43.229	3.9941e-06	53.364	-0.502	-97.601	-101.924	-164.718	-41.818	-29.748	-165.233	-160.186	-34.012	-22.306	-160.686	-156.411	-156.015	-151.208	-45.662	-152.085	-8191	255	
18134.732	1	1	0	0	0.17042	0.17735	0.19966	0.33363	0.11414	0.17458	0.13376	0.21037	0.25207	0.22968	0.26627	0.14088	0.30045	0.17232	0.16809	0.23866	-2.5438	-3.0458	-2.8708	-3.1562	-2.8417	-2.7167	-3.3833	-2.7417	-2.8396	-2.9375	-2.7917	-3.0083	-2.7042	-2.8271	-2.8875	-3.0333	-30.127	-105.170	-75.398	-167.551	-131.059	-73.431	116.117	111.038	-85.259	145.715	102.540	142.756	-170.004	-137.677	111.706	132.194	0.0013616	0.00054358	0.00013308	1372.5	6.6322e-06	5.0865e-06	1361.2	371.71	9.1018e-06	4.4861e-06	418.63	139.09	121.4	41.85	6.5744e-06	51.511	0.00052211	0.00036638	9.9056e-05	1399.1	4.4862e-06	3.8206e-06	1388.7	380.03	4.277e-06	3.7752e-06	428.46	142.22	123.99	43.17	4.0036e-06	53.286	-0.418	-86.523	-75.669	-164.554	-63.164	-17.642	-165.079	-160.329	-55.159	-40.846	-160.496	-156.663	-156.089	-151.346	-40.623	-152.305	-8191	255	
18134.828	1	1	0	0	0.26233	0.2462	0.089132	0.52825	0.12793	0.073385	0.26918	0.021147	0.49988	0.1501	0.12615	0.082619	0.18957	0.42942	0.25715	0.10135	-2.4375	-2.8896	-2.625	-2.95	-2.9188	-2.6937	-3.1896	-2.8354	-2.8	-3.0917	-2.8583	-3.1354	-3.1646	-2.8292	-3.0146	-3	-73.306	79.735	99.086	138.226	119.136	-172.208	129.594	25.177	-92.047	96.347	-44.919	155.073	123.349	-155.873	116.979	12.027	0.0013533	0.00047305	0.00013516	1370.9	7.3235e-06	6.5787e-06	1364.1	372.33	8.3891e-06	5.8522e-06	419.38	139.36	121.67	41.846	6.1962e-06	51.694	0.00052843	0.00036302	0.00010144	1398.5	4.1558e-06	4.263e-06	1388.5	380.5	4.4218e-06	3.9762e-06	428.48	142.35	124.38	43.173	3.978e-06	53.321	-0.436	-107.292	-81.721	-164.749	-56.520	-26.406	-165.113	-160.274	-40.852	-37.875	-160.873	-156.685	-156.174	-151.220	-54.777	-152.380	-8191	255	
18134.926	1	1	0	0	0.068763	0.056826	0.13645	0.35734	0.18401	0.1832	0.12001	0.15734	0.077868	0.15484	0.055069	0.21967	0.2106	0.20593	0.15143	0.12055	-2.3146	-3.0979	-2.8083	-3.1792	-2.9583	-2.7604	-3.3937	-3.0604	-2.8167	-3.1167	-2.8417	-2.9625	-3.0312	-2.7062	-3.05	-2.8146	-141.833	-158.927	-35.395	123.903	56.232	154.670	81.062	118.811	111.090	46.560	80.270	178.279	121.658	146.848	-30.712	-43.756	0.0013937	0.0006412	0.00013236	1367.9	5.0581e-06	4.2005e-06	1358.9	372.63	7.3967e-06	5.5937e-06	420.29	139.28	121.66	41.777	5.9192e-06	51.474	0.00053861	0.00036219	0.00010171	1397.1	4.0347e-06	3.8935e-06	1388.6	380.06	4.3403e-06	4.0708e-06	429.08	142.34	124	43.127	4.1895e-06	53.342	1.980	-91.975	-77.638	-164.957	-40.795	-33.571	-165.026	-160.422	-46.372	-22.468	-161.097	-156.318	-155.973	-151.315	-29.768	-152.421	-8191	255	
18135.045	1	1	0	0	0.2342	0.19417	0.22859	0.024846	0.043437	0.26065	0.42623	0.21014	0.24117	0.14944	0.096323	0.11881	0.22994	0.23693	0.096356	0.24951	-2.2562	-3.0375	-2.7	-2.9708	-2.9417	-2.7812	-3.3187	-3.1063	-2.7417	-2.9938	-2.9688	-2.8292	-3.1396	-2.6771	-2.8521	-3.1562	166.347	-14.290	110.117	28.976	126.336	2.705	125.105	76.845	46.348	-104.058	79.942	-121.795	167.613	109.089	-40.669	107.551	0.0013977	0.00046571	0.00014893	1369.8	7.2717e-06	5.7124e-06	1360.8	371.47	1.002e-05	6.3805e-06	419.26	139.6	121.6	41.937	4.949e-06	51.643	0.00053789	0.00036062	0.00010263	1396.8	4.2766e-06	4.0855e-06	1387.8	380.05	4.4144e-06	3.8416e-06	428.38	142.54	124.01	43.141	4.1155e-06	53.331	-1.700	-95.700	-90.673	-164.869	-42.660	-18.343	-165.354	-160.424	-22.168	-30.507	-160.838	-156.729	-156.084	-151.344	-13.401	-152.241	-8191	255	
18135.141	1	1	0	0	0.19125	0.13924	0.16756	0.26467	0.19136	0.10971	0.42162	0.062068	0.17303	0.094906	0.13584	0.10098	0.32955	0.16916	0.26922	0.29846	-2.1417	-2.8021	-2.8292	-3.0083	-2.9375	-2.7917	-2.9729	-3.0563	-2.5667	-2.9354	-2.9188	-3.1375	-3.1896	-2.9521	-2.9313	-2.8937	121.795	-50.955	37.050	-139.361	8.000	154.602	117.981	37.313	107.040	-62.165	131.677	134.431	160.064	119.818	-148.936	101.381	0.0013703	0.00043785	0.00014074	1369.7	5.4351e-06	4.9313e-06	1365.6	372.09	8.9635e-06	5.5913e-06	419.37	139.71	122.11	41.974	6.6814e-06	51.462	0.00053795	0.00035544	9.9385e-05	1397.2	4.044e-06	4.0122e-06	1388.2	380.18	4.3033e-06	3.995e-06	428.83	142.38	124.22	43.227	4.166e-06	53.316	-0.363	-100.135	-93.101	-164.788	-44.649	-29.090	-165.121	-160.267	-40.166	-25.476	-160.731	-156.519	-156.069	-151.470	-37.575	-152.460	-8191	255	
18135.236	1	1	0	0	0.16181	0.032941	0.11048	0.31855	0.16975	0.11116	0.22696	0.18161	0.1446	0.16928	0.26405	0.10397	0.30457	0.18188	0.079106	0.23672	-2.2333	-2.925	-2.7604	-3.0542	-2.9917	-2.5396	-3.0521	-3.0604	-2.7208	-2.9271	-2.9271	-3.0479	-3.1396	-2.7729	-2.9188	-3.0646	-167.635	-33.521	87.561	-177.469	92.732	72.813	79.952	104.287	-70.432	-169.389	-115.271	-137.001	73.232	-163.817	-136.621	85.570	0.0013716	0.00062506	0.00015636	1372.5	6.2969e-06	5.0233e-06	1366.4	372.06	9.3397e-06	6.137e-06	418.78	139.42	121.75	41.906	5.7229e-06	51.611	0.0005322	0.0003503	0.00010219	1397.1	4.0817e-06	3.9253e-06	1388.5	379.79	4.1692e-06	4.0162e-06	428.48	142.3	124.22	43.182	4.2766e-06	53.304	1.219	-95.186	-83.656	-164.792	-49.032	-32.323	-165.018	-160.427	-41.942	-24.774	-160.663	-156.482	-156.119	-151.489	-23.680	-152.400	-8191	255	
18135.332	1	1	0	0	0.12672	0.1014	0.15378	0.24823	0.11741	0.22294	0.19795	0.22165	0.10055	0.13363	0.25015	0.1781	0.30197	0.32978	0.065684	0.2735	-2.2229	-2.85	-2.7833	-2.8396	-2.9542	-2.7708	-2.9479	-3.1167	-2.7417	-2.9375	-3.0104	-2.8563	-3.1437	-2.9479	-2.9146	-3.2188	-18.624	170.343	13.333	170.114	95.960	44.644	128.572	165.105	148.417	-107.383	95.170	79.368	111.917	120.817	161.694	-90.999	0.0013801	0.00057478	0.00018895	1375.4	5.2027e-06	5.1003e-06	1362	371.64	1.1404e-05	4.9645e-06	418.25	139.14	121.88	41.878	6.9381e-06	51.657	0.00052258	0.00037591	0.00010234	1398	4.0262e-06	3.9636e-06	1389.1	380.06	4.2831e-06	3.9569e-06	428.75	142.56	124.22	43.175	4.2343e-06	53.411	0.327	-81.459	-88.289	-164.799	-44.997	-12.537	-165.275	-160.391	-42.178	-21.713	-160.796	-156.575	-156.051	-151.396	-28.695	-152.350	-8191	255	
18135.430	1	1	0	0	0.10257	0.18988	0.15502	0.31939	0.25611	0.14746	0.23547	0.41046	0.11585	0.037116	0.29908	0.13263	0.13542	0.16325	0.031398	0.41509	-2.3729	-2.9604	-2.7729	-2.8417	-3.0625	-2.7125	-2.9188	-3.2417	-2.6417	-3.0312	-3.0583	-2.9979	-3.0271	-2.9542	-2.8792	-3.0062	126.266	117.484	16.064	167.025	58.336	172.711	166.361	137.224	145.975	-44.727	116.843	83.489	131.401	125.842	48.028	65.568	0.0013848	0.00064753	0.00011003	1374.5	6.2296e-06	3.5292e-06	1362.2	371.71	1.2292e-05	4.5919e-06	418.11	139.33	122	41.8	7.7551e-06	51.5	0.00053677	0.00037081	0.00010052	1399.7	4.0034e-06	4.0743e-06	1388.8	379.55	4.2395e-06	4.0661e-06	428.49	142.17	124.06	43.162	4.3667e-06	53.383	-0.026	-99.672	-74.758	-165.044	-50.687	-39.941	-165.127	-160.316	-30.734	-36.061	-160.788	-156.730	-156.034	-151.267	-26.545	-152.137	-8191	255	
18135.551	1	1	0	0	0.16378	0.079815	0.20921	0.23381	0.22663	0.16719	0.23024	0.25463	0.19395	0.20542	0.15174	0.046886	0.068541	0.12589	0.14141	0.21449	-2.2521	-2.8021	-2.6792	-2.8667	-2.8833	-2.6604	-2.8688	-3.2	-2.7875	-3.0354	-3.0896	-2.6854	-3.0896	-3.0354	-2.7292	-3.0708	-14.800	60.765	135.533	138.961	-167.881	-139.919	130.198	138.062	135.480	47.630	95.713	166.214	101.183	33.643	-38.207	131.762	0.0013332	0.00062878	0.00010797	1372.4	5.2908e-06	4.8938e-06	1364.8	372.6	1.1527e-05	4.1814e-06	418.32	139.32	121.61	41.746	6.7347e-06	51.709	0.00052464	0.00038184	9.9631e-05	1397.5	4.1978e-06	3.8365e-06	1389.8	380.5	4.1531e-06	3.9672e-06	429.17	142.3	124.05	43.149	4.0842e-06	53.319	0.114	-93.115	-79.716	-164.902	-44.811	-38.845	-165.258	-160.345	-40.423	-14.759	-160.894	-156.533	-156.179	-151.028	-25.661	-152.139	-8191	255	
18135.646	1	1	0	0	0.16319	0.21604	0.13179	0.25033	0.14258	0.27926	0.15626	0.24377	0.072022	0.15954	0.47021	0.13622	0.14892	0.38847	0.2707	0.092794	-2.2521	-2.8729	-2.8958	-3.0125	-3.1854	-2.9479	-2.9167	-3.1625	-2.6312	-2.6417	-3.1	-2.8604	-2.9708	-2.8792	-2.6896	-3.1917	-151.564	-74.428	-54.414	139.350	-160.117	132.308	151.788	110.090	-82.624	-55.420	158.397	-141.212	56.624	154.382	-43.697	168.029	0.0012862	0.00036464	0.00018722	1371.8	4.6903e-06	4.7865e-06	1364.7	372.75	9.3439e-06	5.6199e-06	418.67	139.49	121.24	41.902	6.482e-06	51.678	0.0005195	0.00036982	0.00010438	1395.9	4.1512e-06	3.9169e-06	1389.3	380.07	4.3251e-06	3.8571e-06	428.16	142.41	123.91	43.126	4.0062e-06	53.284	0.170	-111.893	-78.787	-164.556	-21.411	-1.959	-165.190	-160.473	-39.448	-34.830	-160.699	-156.658	-156.056	-151.104	-24.371	-152.503	-8191	255	
18135.742	1	1	0	0	0.2962	0.11932	0.17896	0.17211	0.11921	0.13954	0.12287	0.21603	0.21303	0.20893	0.14341	0.1712	0.2469	0.23448	0.10198	0.2266	-2.3354	-2.925	-2.9917	-2.9917	-2.9938	-3.0021	-3.0979	-3.2875	-2.7396	-2.8667	-3.0812	-2.8896	-2.9437	-3.025	-2.8979	-3.1729	60.765	-53.382	-38.780	160.571	-103.291	160.137	128.179	153.480	-97.240	-66.285	94.398	88.948	161.751	149.262	-10.968	147.947	0.0013857	0.00054441	0.00010756	1371.3	6.4176e-06	6.4023e-06	1362.2	372.1	9.5032e-06	6.437e-06	418.82	138.58	121.17	41.786	6.9681e-06	51.804	0.00054064	0.00037086	9.4963e-05	1397.2	4.1012e-06	3.7688e-06	1389	379.69	4.3531e-06	4.1658e-06	428	142.17	123.85	43.136	4.1399e-06	53.31	0.447	-94.114	-88.101	-164.729	-60.909	-13.464	-165.130	-160.361	-27.327	-25.627	-160.894	-156.741	-156.119	-151.067	-39.812	-152.396	-8191	255	
18135.814	1	1	0	0	0.10567	0.18135	0.23269	0.18558	0.1742	0.17805	0.14135	0.22589	0.13575	0.34755	0.11295	0.28453	0.20178	0.091318	0.22294	0.33566	-2.3104	-2.7562	-3.0375	-2.8937	-3.0104	-3.0021	-3.0229	-3.1604	-2.8417	-2.7542	-3.1229	-2.8875	-2.8375	-2.95	-2.6854	-3.0396	-53.346	82.597	-89.258	130.858	21.869	-83.459	100.004	153.981	3.138	-97.247	-57.142	-127.589	-164.505	154.628	0.278	165.697	0.0013756	0.00053956	0.00015632	1374.6	6.2331e-06	4.7715e-06	1365.2	372.26	8.9848e-06	6.3388e-06	419.71	139.33	122.01	42	5.8458e-06	51.809	0.00054422	0.00038648	9.8622e-05	1396.9	4.2575e-06	3.7529e-06	1389	379.88	4.2572e-06	3.9287e-06	428.87	142.18	124.08	43.119	3.991e-06	53.408	-1.693	-86.808	-83.405	-164.783	-64.894	-32.643	-165.232	-160.275	-32.097	-19.465	-160.858	-156.530	-156.113	-151.242	-33.254	-152.226	-8191	255	
18135.932	1	1	0	0	0.067438	0.25235	0.094845	0.21298	0.25193	0.045663	0.32206	0.24104	0.28192	0.14823	0.064392	0.10012	0.16072	0.083555	0.085724	0.064847	-2.6729	-2.6	-2.9042	-2.9	-2.8333	-3.1833	-2.875	-2.9396	-2.9104	-2.6146	-2.9354	-2.8771	-2.775	-2.9542	-2.6063	-2.9292	42.056	155.355	20.793	142.100	-170.876	-47.610	119.509	79.216	-10.345	-24.479	173.208	160.441	-159.362	83.247	-144.943	61.345	0.0013345	0.00067469	0.00016784	1374.1	5.5183e-06	6.3305e-06	1365.5	370.99	1.0232e-05	6.2775e-06	418.28	138.96	121.6	41.626	7.8274e-06	51.585	0.00052805	0.0003755	0.00010001	1397.1	4.2452e-06	4.0388e-06	1386.9	379.33	4.4308e-06	4.0891e-06	428.15	142.23	123.91	43.124	4.015e-06	53.327	0.441	-97.463	-77.257	-164.631	-50.768	-28.228	-165.164	-160.489	-28.561	-2.674	-160.491	-156.675	-156.206	-151.220	-38.277	-152.431	-8191	255	
18136.029	1	1	0	0	0.22846	0.14042	0.20926	0.20796	0.25028	0.092172	0.13234	0.31024	0.22339	0.302	0.1337	0.32808	0.29191	0.10254	0.19592	0.15297	-2.4208	-2.5687	-2.9271	-2.925	-2.7771	-2.9083	-2.9021	-2.9708	-2.9062	-2.6958	-3.1042	-2.9271	-2.7104	-3.1021	-2.5396	-2.8104	-28.362	-175.348	-154.539	181.415	-63.035	-4.579	138.689	106.318	-155.024	129.341	82.715	128.086	-166.252	173.042	-48.165	57.207	0.0014745	0.00063712	0.00012066	1370.4	5.3405e-06	4.6575e-06	1357.6	371.86	1.098e-05	4.9435e-06	418.46	138.96	121.32	41.702	9.0948e-06	51.423	0.00054623	0.00035486	9.7402e-05	1395.3	4.2101e-06	3.6931e-06	1384.7	379.56	4.3107e-06	3.8021e-06	428.43	141.94	124.11	43.108	4.0802e-06	53.231	1.924	-87.809	-92.006	-164.712	-31.141	-41.228	-165.131	-160.418	-41.213	-34.657	-160.602	-156.697	-156.219	-151.114	-36.162	-152.198	-8191	255	
18136.125	1	1	0	0	0.20886	0.071088	0.1584	0.14501	0.14713	0.18303	0.15663	0.21148	0.11901	0.15299	0.11386	0.27559	0.070814	0.2387	0.067617	0.3168	-2.4833	-2.5438	-2.9521	-3.0604	-2.7396	-3.1354	-3.025	-3.025	-3.0896	-2.5979	-2.9	-3.0583	-2.7479	-2.9875	-2.6875	-3	-175.661	29.890	113.164	-137.917	31.693	-47.681	64.207	124.599	70.945	-113.932	8.412	143.574	103.944	161.774	-67.126	89.264	0.0013278	0.00076987	0.00013634	1367.5	7.3383e-06	4.3931e-06	1360.5	373.22	1.2996e-05	5.469e-06	417.86	138.62	122.12	41.991	4.939e-06	51.57	0.00052351	0.00036957	0.00010248	1394.5	4.4515e-06	3.609e-06	1386.3	380.11	4.2593e-06	3.7936e-06	428.41	142.16	124.2	43.169	4.0637e-06	53.286	-0.521	-90.491	-100.197	-164.713	-36.592	-12.081	-165.185	-160.403	-44.836	-18.408	-160.890	-156.694	-156.106	-151.323	-24.850	-152.107	-8191	255	
18136.221	1	1	0	0	0.10203	0.18333	0.078588	0.27296	0.36481	0.12566	0.171	0.43861	0.055123	0.020856	0.11318	0.15736	0.2845	0.081885	0.1413	0.20302	-2.6625	-2.6354	-2.9437	-2.9354	-2.8396	-3.1083	-3.0042	-3.0708	-3.0687	-2.8375	-3.0333	-3.0479	-2.8333	-3.2521	-2.8187	-2.9813	49.549	-114.352	-90.099	113.020	93.904	-138.671	64.106	90.796	-88.879	144.127	113.605	-173.835	150.049	136.983	45.687	78.333	0.0013882	0.00068986	0.00017494	1370.5	6.3356e-06	5.2788e-06	1360.8	371.85	1.3497e-05	5.4083e-06	418.99	139.25	121.69	41.693	5.1205e-06	51.723	0.00052288	0.00036505	9.9971e-05	1395.7	4.2325e-06	3.7786e-06	1385.8	379.76	4.1412e-06	3.9268e-06	428.88	141.96	124	43.092	4.3022e-06	53.382	0.085	-84.655	-73.610	-164.699	-45.706	-30.038	-165.274	-160.169	-23.174	-29.434	-160.631	-156.487	-156.207	-151.345	-24.576	-152.411	-8191	255	
18136.342	1	1	0	0	0.033947	0.24386	0.08805	0.16702	0.29424	0.10939	0.14313	0.20157	0.054972	0.38285	0.2368	0.074806	0.050439	0.38301	0.043659	0.19296	-2.5854	-2.7646	-2.9479	-2.9875	-2.6542	-3.05	-3.1813	-2.9333	-2.9354	-2.9125	-2.9875	-3.1167	-2.8937	-3.1104	-2.9333	-2.8646	-105.104	98.677	157.175	137.043	77.956	-84.243	109.390	117.375	-122.249	-133.082	-158.567	-2.853	-19.136	103.315	-158.019	157.477	0.0013722	0.00057696	0.00015402	1366.2	5.8536e-06	3.9894e-06	1356.4	371.96	1.2548e-05	5.0214e-06	418.43	139.09	121.13	41.878	6.9091e-06	51.422	0.00051477	0.00038209	0.00010379	1394.2	4.18e-06	3.8594e-06	1385	379.71	4.2831e-06	4.0209e-06	427.64	141.9	123.87	43.095	4.0963e-06	53.269	0.371	-98.529	-77.501	-164.750	-37.008	-22.355	-165.229	-160.392	-33.251	-38.028	-160.631	-156.571	-155.939	-151.142	-34.892	-152.395	-8191	255	
18136.438	1	1	0	0	0.36269	0.15334	0.024803	0.10789	0.011	0.16938	0.26397	0.14947	0.14728	0.088596	0.13609	0.41191	0.21455	0.10628	0.062629	0.28669	-2.6583	-2.7812	-2.8125	-3.2667	-2.7313	-3.1021	-3.2271	-2.9208	-3.1708	-2.6562	-3.0208	-3.1188	-2.6292	-3.1562	-2.9667	-2.875	129.790	52.994	8.764	97.998	162.007	-130.455	81.340	94.499	-64.576	123.620	117.407	119.410	75.442	-176.855	-116.130	146.454	0.0013335	0.00073575	0.00010935	1367.1	5.7672e-06	3.9468e-06	1358.4	369.98	1.3721e-05	6.2981e-06	417.46	138.71	121.08	41.673	6.6195e-06	51.523	0.00053292	0.0003774	0.00010367	1393.3	3.9716e-06	4.0313e-06	1385.2	379.14	4.1716e-06	4.0087e-06	428.47	141.99	123.81	43.095	4.1638e-06	53.263	-1.272	-80.670	-81.485	-164.820	-29.203	-33.754	-165.230	-160.472	-40.123	-33.823	-160.695	-156.553	-155.852	-151.134	-28.101	-152.087	-8191	255	
18136.510	1	1	0	0	0.13853	0.20975	0.073675	0.14719	0.12233	0.042308	0.36989	0.24776	0.36234	0.25725	0.18907	0.27154	0.038035	0.18863	0.13415	0.28591	-2.6458	-2.7896	-2.8812	-3.0833	-2.7479	-2.8604	-3.1292	-2.9042	-3.0792	-2.8979	-2.8375	-3.3292	-2.9583	-3.1333	-3.0271	-2.9375	-66.054	-170.997	-12.407	68.722	-107.124	104.154	117.850	95.311	-168.413	-158.143	-176.818	24.527	-166.612	155.095	-0.832	51.207	0.001449	0.00065831	0.00012418	1369.7	5.1466e-06	5.8345e-06	1353.1	371.14	1.2173e-05	5.4339e-06	415.72	138.5	121.31	41.68	6.2802e-06	51.48	0.00053319	0.00036443	9.9549e-05	1395.4	4.0682e-06	3.779e-06	1383	379.64	4.2021e-06	3.9785e-06	427.33	141.99	123.99	43.102	4.1055e-06	53.245	-0.375	-82.233	-76.932	-164.838	-53.581	-34.024	-165.124	-160.250	-37.182	-41.660	-160.738	-156.592	-156.159	-151.225	-23.151	-152.360	-8191	255	
18136.631	1	1	0	0	0.14144	0.13146	0.26266	0.35692	0.21603	0.17875	0.28691	0.17915	0.074684	0.06603	0.17502	0.018758	0.21518	0.16223	0.1647	0.10483	-2.6792	-2.8229	-2.7271	-3.3312	-2.8063	-3.0229	-3.2708	-3.025	-2.9667	-2.8854	-3.05	-2.9354	-3.0979	-3.0312	-3.0375	-2.7812	-176.098	136.163	22.855	89.507	127.614	146.490	57.534	63.398	-22.942	150.478	172.806	134.006	164.547	106.255	-29.451	-139.858	0.0013568	0.00081018	0.00010923	1366	4.8427e-06	3.845e-06	1362.3	371.5	1.1054e-05	5.2691e-06	418.28	139.06	121.27	41.93	6.6829e-06	51.692	0.00052137	0.00036025	9.6992e-05	1393.5	4.0504e-06	3.8977e-06	1387.3	379.5	4.2519e-06	3.9974e-06	428.68	141.97	124.05	43.111	4.0393e-06	53.325	-1.774	-91.324	-69.830	-164.909	-39.123	-13.588	-165.435	-160.239	-45.818	-43.134	-160.763	-156.630	-155.993	-150.979	-37.718	-152.380	-8191	255	
18136.727	1	1	0	0	0.30511	0.16095	0.10874	0.15504	0.19717	0.20409	0.079673	0.068968	0.24868	0.17286	0.20586	0.31252	0.1288	0.24103	0.08502	0.10756	-2.7146	-2.9021	-2.4521	-3.2792	-2.9188	-3.0167	-3.3833	-2.8646	-2.8771	-3.0021	-2.9333	-3.0896	-2.9875	-2.9292	-2.9042	-2.8292	1.927	-40.342	-171.996	55.442	172.022	88.671	-164.210	79.209	-150.175	6.551	174.669	-168.559	175.915	156.364	50.587	-137.116	0.0013761	0.00053358	0.00014428	1365.8	5.0253e-06	7.0045e-06	1357.7	372.16	1.0705e-05	7.597e-06	417.61	139.08	120.99	41.784	6.4628e-06	51.67	0.00052123	0.00037653	9.8223e-05	1390.9	4.4422e-06	4.2215e-06	1383.5	379.71	4.2276e-06	4.043e-06	427.81	142	123.8	43.064	4.1394e-06	53.252	-0.825	-93.422	-84.905	-164.540	-41.982	-19.448	-165.061	-160.382	-38.045	-24.367	-160.685	-156.740	-155.929	-151.226	-43.644	-152.343	-8191	255	
18136.822	1	1	0	0	0.16326	0.083812	0.28392	0.29364	0.20181	0.17692	0.14759	0.35807	0.2149	0.059965	0.15778	0.20462	0.21461	0.11837	0.18995	0.25252	-2.4083	-2.8396	-2.6208	-3.1688	-2.9437	-2.7333	-3.2396	-2.9208	-3.0062	-3.0354	-2.9583	-3.1583	-2.7896	-2.9708	-2.975	-2.9938	169.153	7.261	97.139	-178.033	-127.358	117.892	105.282	134.066	74.245	9.904	64.407	61.672	105.743	146.133	146.194	150.407	0.0013854	0.00063754	0.00011536	1360.5	6.1015e-06	5.221e-06	1352.6	370.72	1.2883e-05	6.8408e-06	419.58	139.23	121.26	41.929	5.7559e-06	51.301	0.00052304	0.00037624	0.0001015	1387.6	4.1118e-06	4.0201e-06	1380.6	378.77	4.4082e-06	3.8717e-06	428.55	142.12	123.64	43.105	3.8474e-06	53.195	-1.155	-90.472	-82.426	-164.703	-44.924	-45.208	-165.120	-160.242	-35.821	-39.937	-160.593	-156.495	-156.115	-151.400	-43.665	-152.117	-8191	255	
18136.918	1	1	0	0	0.23825	0.14366	0.22777	0.1428	0.017383	0.26747	0.27325	0.23969	0.070469	0.34197	0.23533	0.09369	0.26412	0.25887	0.095481	0.26807	-2.5354	-2.9542	-2.6937	-3.3812	-2.7479	-2.8875	-3.3354	-3.125	-2.8583	-2.9938	-2.7042	-3.1063	-2.8729	-2.8	-3.1063	-3.0042	-28.002	-9.586	-173.419	161.077	15.670	89.276	85.169	109.571	-127.336	127.787	-57.562	-115.507	-102.243	125.269	-44.021	178.055	0.0013585	0.00053835	0.00014993	1366.8	5.7619e-06	3.9853e-06	1356.7	371.65	1.075e-05	5.5886e-06	417.6	139.2	121.2	41.687	5.9642e-06	51.533	0.00053267	0.00036961	0.00010023	1390.2	4.1825e-06	4.0528e-06	1382.7	379.66	4.3971e-06	3.9574e-06	428.2	142.13	123.71	43.026	3.9462e-06	53.354	0.318	-76.124	-91.157	-164.851	-38.487	-35.996	-165.168	-160.516	-46.520	-15.555	-160.927	-156.677	-156.260	-151.387	-20.066	-152.330	-8191	255	
18137.037	1	1	0	0	0.18056	0.056823	0.16609	0.16104	0.27125	0.27808	0.19175	0.27603	0.18247	0.11109	0.32299	0.18231	0.21573	0.10601	0.29864	0.12237	-2.2042	-3.0542	-2.7167	-3.1417	-2.9833	-2.7229	-3.1729	-3.0333	-2.7708	-3.0104	-2.9021	-3.0729	-3.1646	-2.7396	-2.9917	-2.9688	-79.185	-84.816	154.070	139.136	-117.925	83.105	98.641	139.847	-116.353	-99.782	166.239	-133.998	-153.350	-126.356	38.708	160.150	0.0013578	0.00074453	8.8507e-05	1361.2	5.1806e-06	5.3298e-06	1359.2	370.94	9.5598e-06	4.0025e-06	420.29	138.69	120.82	41.779	5.8975e-06	51.584	0.00053187	0.00038515	0.00010082	1389.9	4.0754e-06	4.0234e-06	1385.2	378.75	4.423e-06	3.8463e-06	428.82	141.96	123.86	43.037	3.9544e-06	53.223	-0.477	-96.563	-77.423	-164.949	-31.596	-11.418	-165.315	-160.300	-46.514	-32.696	-160.670	-156.520	-155.967	-151.188	-30.505	-152.471	-8191	255	
18137.109	1	1	0	0	0.10131	0.1936	0.082942	0.18091	0.13243	0.11006	0.17563	0.30909	0.22672	0.18276	0.31226	0.35467	0.30442	0.041	0.32004	0.22807	-2.375	-3.0875	-2.6042	-3.2188	-3.1521	-2.8667	-3.25	-2.9292	-2.7521	-2.9646	-2.8229	-3.0521	-3.1021	-2.8896	-2.9125	-3.0521	55.708	-4.844	167.204	140.906	-50.857	-133.355	51.572	104.662	-105.635	-176.192	168.309	109.380	159.329	-136.125	-65.859	166.341	0.0014388	0.00061684	0.00016639	1363.6	5.8954e-06	4.7158e-06	1358.7	371.96	1.0057e-05	6.6967e-06	419.22	138.77	121.64	41.798	7.0697e-06	51.721	0.00054089	0.00035755	0.00010102	1391	4.1389e-06	3.6954e-06	1384.3	379.52	4.3099e-06	3.867e-06	428.05	142.03	123.87	43.081	4.0959e-06	53.4	-0.642	-97.173	-90.709	-164.842	-43.719	-29.176	-165.036	-160.319	-23.184	-41.218	-161.042	-156.548	-156.096	-151.345	-31.279	-152.435	-8191	255	
18137.230	1	1	0	0	0.39222	0.040479	0.022282	0.21192	0.15051	0.089421	0.076642	0.14496	0.1139	0.12513	0.092592	0.20485	0.057596	0.3029	0.026282	0.47724	-2.4875	-3.0458	-2.6542	-3.0667	-3.0583	-2.7104	-3.2271	-3.1375	-2.6229	-3.1625	-3	-2.9104	-3.1125	-2.8812	-3.0438	-3.0271	-32.092	32.992	120.395	121.982	-116.820	19.528	70.868	-139.007	88.016	75.407	111.651	116.049	177.837	144.370	115.206	90.967	0.001378	0.00067158	0.00013209	1368.4	6.2411e-06	5.3166e-06	1355.4	372.28	1.1498e-05	4.9313e-06	418.78	138.66	120.98	41.866	6.1686e-06	51.456	0.00052629	0.00035896	0.00010118	1392.4	3.986e-06	3.9061e-06	1382.3	379.36	4.3465e-06	3.9724e-06	428.52	142.08	123.73	43.09	4.1138e-06	53.228	-1.599	-89.286	-92.659	-164.718	-52.510	-34.780	-165.287	-160.265	-47.754	-25.866	-160.664	-156.311	-156.174	-151.160	-35.646	-152.114	-8191	255	
18137.326	1	1	0	0	0.21639	0.19793	0.29601	0.33277	0.1076	0.27874	0.20411	0.15012	0.08459	0.12552	0.059705	0.22455	0.29026	0.036225	0.17292	0.20611	-2.2646	-3.1125	-2.5583	-3.1292	-3.1479	-2.7042	-3.1771	-3.1375	-2.6583	-3.2292	-2.8958	-3.0104	-3.1063	-2.7229	-2.6667	-3.0125	119.834	58.251	18.630	106.343	84.890	126.030	156.599	-115.400	-44.377	37.632	109.085	113.682	155.323	159.356	-116.899	161.347	0.0013925	0.00079362	0.00013202	1366.4	7.0734e-06	5.5801e-06	1357.9	371.72	1.0896e-05	6.5952e-06	417.17	138.91	121.46	41.826	6.5121e-06	51.59	0.0005325	0.00036895	0.00010405	1390.4	4.0495e-06	3.7744e-06	1383.6	379.24	4.3156e-06	3.9037e-06	427.5	141.81	123.85	43.1	4.0929e-06	53.202	-0.036	-78.502	-78.528	-164.793	-41.356	-19.773	-165.263	-160.219	-32.894	-27.435	-160.756	-156.667	-156.043	-151.217	-59.541	-152.311	-8191	255	
18137.422	1	1	0	0	0.18334	0.2208	0.14692	0.098973	0.12734	0.031579	0.31993	0.16225	0.11748	0.40698	0.20307	0.35861	0.17631	0.19493	0.24423	0.34066	-2.4354	-2.8917	-2.7729	-2.9604	-2.9646	-2.6958	-3.1458	-3.0958	-2.8042	-2.9417	-3.0687	-2.8312	-3.3396	-3.0417	-2.9938	-3.0687	-91.626	8.657	9.001	118.196	-174.938	54.745	117.767	103.902	164.607	155.510	158.449	132.512	93.024	-62.718	141.891	159.571	0.0014154	0.00066482	0.00015508	1367.8	5.1571e-06	4.6331e-06	1356	370.74	1.1201e-05	4.4586e-06	419.06	138.93	121.3	41.82	7.0055e-06	51.537	0.00053132	0.00037272	0.00010321	1389.4	3.9424e-06	3.7613e-06	1382.1	379.19	4.1967e-06	4.0609e-06	428.96	141.83	123.88	43.083	4.2766e-06	53.177	0.862	-86.623	-77.137	-164.709	-36.572	-34.086	-165.219	-160.198	-40.484	-34.322	-160.542	-156.745	-156.157	-151.198	-25.883	-152.438	-8191	255	
18137.518	1	1	0	0	0.11454	0.087129	0.2149	0.21111	0.017471	0.096609	0.026372	0.20412	0.2266	0.083577	0.040697	0.19787	0.064588	0.22637	0.1657	0.12002	-2.2625	-3.0042	-2.8042	-2.9771	-3	-2.8542	-3.0458	-3.2583	-2.7229	-2.9562	-3.0917	-2.8208	-3.1958	-3.0083	-2.7354	-3.1917	-106.220	-138.350	71.946	170.031	96.292	-116.283	153.189	136.922	-129.893	134.541	-104.396	-139.039	130.477	-36.675	-64.636	130.195	0.0013556	0.00059941	0.00012779	1367.2	5.203e-06	4.5952e-06	1359.7	372.38	1.3591e-05	4.4281e-06	418.11	139.24	120.65	41.958	5.2563e-06	51.516	0.00053129	0.00035934	9.9889e-05	1392.5	4.1037e-06	3.9528e-06	1385.3	379.96	4.0885e-06	4.0345e-06	427.53	142.09	123.78	43.161	4.1451e-06	53.249	-0.757	-86.445	-87.609	-164.626	-58.158	-40.417	-165.227	-160.367	-41.440	-25.709	-160.842	-156.720	-156.003	-151.322	-25.090	-152.187	-8191	255	
18137.639	1	1	0	0	0.16499	0.34458	0.14221	0.24643	0.039595	0.061613	0.16164	0.35835	0.12518	0.22443	0.27873	0.27782	0.39575	0.35028	0.28005	0.30168	-2.4396	-3.0083	-2.7125	-2.9646	-3.1042	-2.8875	-2.9292	-3.0958	-2.8042	-2.925	-3.25	-2.9083	-3.2083	-2.8521	-2.9104	-3.2188	-140.601	-126.985	-7.835	158.485	-102.445	-57.013	-60.769	122.554	20.884	104.386	63.566	169.207	160.857	-165.755	-5.347	116.697	0.0013384	0.00057383	0.00016188	1361.2	7.3811e-06	5.5696e-06	1357.5	370.95	1.0606e-05	5.7335e-06	418.9	138.82	121.53	41.948	6.5547e-06	51.681	0.00051677	0.00035262	9.9877e-05	1389.9	4.144e-06	3.8935e-06	1381.7	378.91	4.133e-06	3.9371e-06	427.11	141.87	123.86	43.084	4.0554e-06	53.286	-2.016	-85.259	-86.255	-164.979	-42.456	-32.473	-165.226	-160.352	-35.776	-30.227	-161.055	-156.545	-156.007	-151.278	-32.880	-152.188	-8191	255	
18137.711	1	1	0	0	0.065433	0.16594	0.19908	0.23705	0.067592	0.1212	0.11298	0.25214	0.37255	0.16024	0.11185	0.15652	0.13234	0.29319	0.078376	0.12905	-2.2917	-2.8146	-2.775	-3.0354	-2.9146	-2.7625	-3.0312	-3.2458	-2.7833	-2.9104	-3.1688	-2.8729	-2.9729	-3.0417	-2.8438	-3.1667	161.138	135.108	26.658	100.523	137.230	157.715	149.238	125.538	-151.617	-145.879	-173.550	-77.103	-25.058	44.099	126.410	166.057	0.0013897	0.00055019	0.00014928	1367.9	6.4198e-06	5.6387e-06	1357.6	370.46	9.8908e-06	7.0344e-06	417.28	138.57	121.26	41.761	8.1078e-06	51.53	0.0005294	0.00037322	9.8259e-05	1388.7	3.9631e-06	3.9888e-06	1382.4	378.62	4.128e-06	3.9611e-06	426.97	141.85	123.71	43.097	4.0598e-06	53.226	3.234	-91.740	-75.160	-164.940	-37.231	-38.194	-164.958	-160.351	-24.914	-45.998	-160.712	-156.626	-156.012	-151.088	-24.771	-152.374	-8191	255	
18137.807	1	1	0	0	0.15656	0.20434	0.13539	0.36311	0.10843	0.22476	0.12304	0.18799	0.06449	0.1604	0.16019	0.082286	0.096923	0.20016	0.10418	0.088009	-2.5458	-2.7417	-2.9542	-2.7708	-3.0292	-2.9771	-2.8812	-3.0812	-2.9688	-2.9104	-2.9604	-2.9875	-3.0833	-2.9417	-2.7292	-3.2458	131.323	-37.582	6.753	138.221	-119.194	30.276	87.309	56.535	67.229	-33.966	-165.451	78.062	-115.722	153.045	0.272	104.992	0.0013067	0.00059261	0.00014222	1366.4	7.8247e-06	4.2286e-06	1357	370.59	1.2917e-05	4.6981e-06	418.11	138.66	121.19	41.613	7.4057e-06	51.315	0.00050701	0.00036692	0.00010042	1388.8	4.2753e-06	3.7576e-06	1381.1	378.9	4.0988e-06	3.9437e-06	427.42	141.84	123.73	43.012	4.0424e-06	53.205	1.486	-101.645	-90.673	-164.866	-31.019	-18.633	-165.042	-160.352	-35.306	-18.552	-160.776	-156.848	-156.305	-151.134	-31.229	-152.334	-8191	255	
18137.902	1	1	0	0	0.078303	0.10369	0.30205	0.12709	0.19848	0.22983	0.023249	0.26045	0.2288	0.066709	0.25505	0.10866	0.014518	0.13631	0.14365	0.0089333	-2.1958	-2.7708	-2.9896	-2.9354	-2.8875	-2.8937	-2.9167	-3.2104	-2.825	-2.8729	-3.3292	-2.9625	-3.0542	-3.0312	-2.85	-3.1542	-144.525	176.828	-74.903	94.203	171.845	163.576	-90.786	108.380	-89.492	-97.920	154.501	40.448	-92.770	166.607	-116.674	174.129	0.0013096	0.0006993	0.00013603	1367.5	6.3228e-06	5.4438e-06	1360	371.66	1.303e-05	5.4298e-06	417.96	138.63	121.36	41.749	5.394e-06	51.384	0.0005212	0.00035254	9.8165e-05	1392.3	3.9051e-06	3.972e-06	1381.1	379.31	4.3292e-06	4.0355e-06	428.13	141.95	123.85	43.056	3.9523e-06	53.18	1.346	-109.472	-88.766	-164.669	-39.803	-32.714	-165.147	-160.483	-40.816	-35.743	-160.746	-156.602	-156.031	-151.398	-11.533	-152.474	-8191	255	
18138.021	1	1	0	0	0.0089048	0.21974	0.017361	0.24203	0.22926	0.21973	0.3	0.24167	0.13256	0.14831	0.1172	0.065625	0.2153	0.34881	0.080769	0.020536	-2.4854	-2.8521	-2.9208	-2.9021	-2.8292	-3.1458	-2.8958	-3.2708	-2.7854	-2.6937	-3.1521	-2.8021	-3.2104	-3.0938	-2.6833	-3.1771	-90.070	62.836	61.258	136.473	124.044	-19.458	158.544	-133.666	36.883	-167.253	69.491	-118.891	181.684	150.348	115.264	-26.591	0.0013357	0.00070863	0.00015831	1364.6	5.5901e-06	5.8369e-06	1355.9	370.94	1.0246e-05	3.9228e-06	418.21	138.26	121.8	41.841	6.512e-06	51.587	0.00053085	0.00037861	9.5174e-05	1389.4	3.9191e-06	3.7146e-06	1382.5	379.08	4.1844e-06	3.8388e-06	427.67	141.56	123.86	43.044	3.7255e-06	53.165	-0.355	-78.014	-87.577	-164.880	-59.787	-26.538	-165.050	-160.214	-39.556	-20.044	-160.751	-156.730	-156.139	-151.459	-25.253	-152.428	-8191	255	
18138.117	1	1	0	0	0.19981	0.099067	0.32932	0.19685	0.15559	0.048018	0.40165	0.26803	0.2092	0.17881	0.15571	0.086923	0.23128	0.067739	0.26801	0.074854	-2.5667	-2.7313	-2.8917	-2.8563	-3.0479	-3.0375	-2.8542	-3.1958	-2.8917	-2.8521	-3.2167	-3.0208	-2.7938	-3.3312	-2.7583	-2.9083	12.885	-18.891	-163.210	128.509	59.762	102.196	154.511	93.783	-159.573	-10.719	74.556	141.581	180.272	110.324	91.697	116.876	0.0013811	0.00061299	0.00014388	1363.9	5.8998e-06	5.2626e-06	1361.8	371.91	1.1888e-05	4.4523e-06	417.84	138.4	121.36	41.748	7.7694e-06	51.548	0.00052313	0.00035378	9.4693e-05	1389.3	4.252e-06	3.7449e-06	1382.8	379.28	4.1963e-06	3.7597e-06	427.61	141.71	123.9	43.048	3.9279e-06	53.25	-0.741	-91.808	-80.893	-164.692	-38.476	-41.584	-165.054	-160.523	-27.399	-47.071	-160.645	-156.707	-156.066	-151.411	-13.821	-152.269	-8191	255	
18138.215	1	1	0	0	0.22404	0.23226	0.18765	0.50781	0.097368	0.084588	0.21492	0.20091	0.088909	0.14988	0.15752	0.23757	0.25137	0.21366	0.16195	0.15746	-2.5583	-2.7646	-3.1	-2.8646	-2.7583	-3.0146	-2.9604	-3.1792	-3.1625	-2.7542	-3.0833	-2.8792	-2.6729	-3.1542	-2.875	-3.0375	2.943	-2.777	64.896	167.649	57.988	-90.083	90.499	84.217	-107.649	50.909	-160.041	132.372	-142.905	79.637	49.030	167.564	0.0013295	0.00059858	0.00013638	1365.3	6.0203e-06	5.2893e-06	1357.1	370.3	1.1525e-05	3.344e-06	417.71	138.58	121.24	41.783	7.817e-06	51.615	0.00052225	0.00036157	9.8364e-05	1390	4.1334e-06	3.7505e-06	1384.1	379.06	4.2087e-06	3.8783e-06	428.01	141.82	123.82	43.011	3.8121e-06	53.199	-1.934	-92.980	-81.389	-164.744	-49.668	-17.601	-164.843	-160.460	-39.741	-48.027	-160.789	-156.392	-156.076	-151.528	-24.838	-152.272	-8191	255	
18138.311	1	1	0	0	0.061237	0.052486	0.023582	0.34776	0.060424	0.1903	0.24486	0.24565	0.10763	0.23825	0.18312	0.094426	0.043346	0.16552	0.13337	0.16051	-2.7896	-2.6063	-3.0729	-3.0708	-2.7042	-3.0687	-2.7562	-3.0271	-2.9854	-2.8125	-3.1521	-3.0979	-2.9062	-3.1813	-2.7917	-2.9688	18.939	68.798	34.395	133.863	110.483	-92.135	60.237	98.836	-156.758	61.492	67.442	-152.212	179.882	160.092	28.526	-175.912	0.0013809	0.0006936	0.00016623	1370	4.2041e-06	3.1615e-06	1351.9	371.68	1.0661e-05	6.0701e-06	420.94	139.08	121.2	41.824	6.6516e-06	51.356	0.00051592	0.00036029	9.8657e-05	1391.1	4.0453e-06	3.5861e-06	1382	379.11	4.0803e-06	3.763e-06	428.48	142.01	123.65	43.043	3.9e-06	53.163	1.335	-93.149	-89.652	-164.834	-50.777	-19.179	-165.167	-160.375	-44.851	-32.129	-160.683	-156.683	-156.280	-151.108	-43.863	-152.458	-8191	255	
18138.406	1	1	0	0	0.047058	0.017571	0.15301	0.12162	0.02275	0.11283	0.30805	0.11221	0.2568	0.2039	0.31001	0.29455	0.31969	0.31813	0.027414	0.28357	-2.6833	-2.7354	-2.8104	-2.9583	-2.675	-3.1542	-3.1354	-2.9437	-3.0667	-2.7146	-3.175	-3.0896	-2.7812	-3.1083	-2.6771	-2.8937	-51.977	43.592	95.137	40.821	25.700	179.418	138.007	80.608	134.235	92.039	136.069	158.206	-161.201	166.881	-139.388	104.943	0.0014191	0.00063861	0.00011895	1363	6.2077e-06	5.7632e-06	1358.8	371.55	1.2641e-05	3.8925e-06	417.86	138.99	121.36	41.63	7.4058e-06	51.481	0.00052568	0.00036207	0.00010171	1389	4.0343e-06	3.7991e-06	1381.8	379.19	4.251e-06	3.9771e-06	427.91	141.95	123.84	43.096	4.0672e-06	53.239	0.375	-87.866	-93.326	-164.720	-50.184	-30.317	-165.292	-160.264	-38.857	-24.828	-160.750	-156.721	-155.770	-151.202	-24.233	-152.195	-8191	255	
18138.502	1	1	0	0	0.16741	0.092878	0.2338	0.30445	0.13189	0.1929	0.21677	0.026014	0.038653	0.09786	0.17851	0.018822	0.20348	0.19344	0.096352	0.24533	-2.4208	-2.9062	-2.9	-3.2083	-2.6875	-3.2042	-3.2292	-2.9562	-2.9208	-2.7771	-3.0542	-3.1708	-2.7625	-3.1188	-2.8063	-3.0604	-52.106	51.160	-144.513	137.867	46.224	93.988	104.819	77.324	14.986	-45.215	168.037	-0.169	-174.411	173.195	-106.479	63.546	0.0014911	0.0005758	0.00014483	1366.8	6.0153e-06	5.3664e-06	1353.7	369.81	1.1609e-05	6.6796e-06	417.18	138.73	121.72	41.574	7.6228e-06	51.297	0.00054199	0.00035801	9.7578e-05	1391.5	4.058e-06	3.9458e-06	1382	378.5	4.1626e-06	3.9145e-06	428.38	141.83	123.85	43.013	3.9044e-06	53.188	0.715	-93.787	-62.489	-164.723	-33.775	-16.140	-165.287	-160.237	-50.974	-28.613	-160.981	-156.461	-156.138	-151.147	-32.538	-152.419	-8191	255	
18138.598	1	1	0	0	0.26878	0.17217	0.15599	0.16008	0.019002	0.091888	0.23958	0.057138	0.17164	0.20776	0.016584	0.16253	0.18856	0.19432	0.31633	0.22431	-2.6229	-2.6271	-2.8208	-3.2167	-2.6646	-2.8396	-3.1125	-3.0375	-3.0896	-2.7917	-2.9646	-3.1604	-2.9375	-3.2687	-3.0563	-2.9833	-45.023	-174.977	-167.866	124.638	-79.381	-158.448	127.495	91.093	155.894	118.789	-113.642	111.203	155.302	-172.087	-145.383	-20.777	0.0013994	0.00052478	0.00016177	1369.9	5.3005e-06	4.792e-06	1357.8	372.06	1.0391e-05	5.2974e-06	420.93	139.39	120.61	41.605	5.5578e-06	51.387	0.00052329	0.00037848	0.00010238	1390.7	4.0034e-06	3.8304e-06	1381.1	379.49	4.147e-06	3.875e-06	428.45	141.98	123.43	43.03	4.0746e-06	53.178	2.134	-89.425	-81.683	-164.823	-51.810	-28.221	-165.077	-160.376	-34.179	-30.629	-160.727	-156.708	-155.972	-151.177	-25.980	-152.167	-8191	255	
18138.719	1	1	0	0	0.03377	0.17158	0.27436	0.22895	0.06675	0.28612	0.40263	0.10132	0.12255	0.13772	0.069252	0.27886	0.15253	0.25376	0.14109	0.087669	-2.5812	-2.6625	-2.8396	-3.1813	-2.7562	-3.0812	-3.0812	-2.8854	-3.0667	-2.7417	-3.0062	-2.9583	-2.8563	-2.9625	-2.9562	-2.7708	-3.470	141.510	-168.950	166.003	-116.916	-164.901	129.877	128.125	-170.782	-124.909	-19.499	156.245	123.697	108.678	81.911	95.886	0.0013638	0.00056474	0.00014845	1362.1	6.8684e-06	5.7305e-06	1357.2	372.06	8.9183e-06	4.8669e-06	418.47	138.72	120.91	41.715	6.2639e-06	51.398	0.00051589	0.00037289	0.0001005	1388.7	4.0838e-06	3.8085e-06	1379.7	379.13	4.128e-06	3.8345e-06	427.65	141.65	123.57	42.934	3.8587e-06	53.132	0.177	-83.829	-73.543	-164.705	-53.806	-27.077	-165.023	-160.490	-44.742	-27.885	-160.690	-156.546	-156.142	-151.280	-35.977	-152.220	-8191	255	
18138.814	1	1	0	0	0.11837	0.12035	0.10809	0.35672	0.16657	0.015638	0.34894	0.37349	0.23525	0.0044127	0.15186	0.15915	0.31899	0.19272	0.21416	0.30639	-2.6167	-2.8667	-2.9938	-3.0417	-2.8979	-2.9604	-3.1979	-2.7917	-2.9167	-2.7667	-2.8542	-3.1292	-2.9583	-2.8833	-3.1813	-2.9271	-154.627	-165.388	46.539	180.588	149.612	-114.070	79.193	97.147	-77.276	158.411	90.872	157.993	74.434	96.000	-25.054	-174.779	0.0013174	0.0005172	0.00013663	1358.9	4.3043e-06	5.9258e-06	1351.7	370.25	1.233e-05	4.4486e-06	416.66	137.98	120.86	41.629	6.5067e-06	51.231	0.00051708	0.00036	9.6311e-05	1383.7	4.2037e-06	3.7991e-06	1378.8	378.8	4.1963e-06	3.8261e-06	427.18	141.37	123.47	42.915	3.9035e-06	53.079	0.492	-89.450	-84.710	-164.826	-29.753	-17.723	-165.292	-160.377	-26.914	-26.986	-160.847	-156.582	-156.157	-151.383	-26.490	-152.450	-8191	255	
18138.910	1	1	0	0	0.16784	0.21593	0.16308	0.2121	0.29116	0.20348	0.36804	0.29522	0.24294	0.19537	0.32705	0.29947	0.073831	0.15685	0.12919	0.12557	-2.6542	-2.9375	-2.8708	-3.25	-2.7687	-2.8604	-3.35	-3.0146	-2.7604	-3.0458	-2.7229	-3.0771	-2.9437	-2.7333	-3.1667	-2.9042	-175.371	-87.598	32.644	165.505	-72.972	-156.447	145.971	68.183	1.154	143.184	173.981	162.650	41.461	177.527	50.603	63.574	0.0013885	0.00058034	0.0001151	1356	5.8601e-06	4.0797e-06	1346.6	370.72	1.129e-05	4.8046e-06	415.31	138.65	120.55	41.688	5.4214e-06	51.585	0.00053135	0.00037314	9.9408e-05	1382	4.1711e-06	3.9145e-06	1375.3	378.52	4.3239e-06	3.8924e-06	426.85	141.63	123.34	42.967	3.9105e-06	53.135	-0.766	-81.821	-82.053	-164.753	-39.439	-19.473	-165.192	-160.295	-31.100	-24.686	-160.611	-156.454	-156.192	-151.175	-42.423	-152.033	-8191	255	
18139.008	1	1	0	0	0.25326	0.094215	0.20768	0.3258	0.015025	0.21413	0.064872	0.25704	0.36905	0.21948	0.049953	0.088266	0.2611	0.33871	0.13014	0.18429	-2.5208	-2.7896	-2.675	-3.2812	-2.7271	-2.7708	-3.3042	-2.8354	-3.0854	-3.0104	-2.7875	-3.1688	-2.8042	-2.8646	-3.1688	-2.9083	-82.588	114.272	14.724	139.629	-53.300	-164.736	145.948	29.722	-52.986	93.807	69.449	133.900	48.559	-127.066	-37.210	19.246	0.0014265	0.00061761	0.0001061	1360.5	6.0879e-06	5.1347e-06	1344.6	370.65	8.8423e-06	5.7988e-06	417.78	138.57	120.31	41.883	5.3343e-06	51.669	0.00053754	0.00034715	9.5045e-05	1384.1	4.0639e-06	3.7753e-06	1375.6	378.32	4.284e-06	3.8698e-06	426.73	141.47	123.47	43.041	4.0724e-06	53.209	0.088	-78.941	-83.527	-164.914	-46.173	-24.068	-165.276	-160.373	-47.500	-32.420	-160.842	-156.521	-156.146	-151.415	-40.225	-152.295	-8191	255	
18139.102	1	1	0	0	0.12427	0.11231	0.20504	0.20599	0.2781	0.10206	0.28746	0.24515	0.19069	0.38525	0.1574	0.24387	0.26972	0.14192	0.19839	0.17759	-2.5292	-2.9146	-2.6875	-3.1917	-2.7146	-2.775	-3.3458	-2.9604	-2.9708	-2.9354	-2.8354	-3.1146	-2.9542	-2.7354	-2.9896	-2.8937	-7.101	132.158	-41.338	152.972	-14.773	11.214	111.202	120.160	-145.353	152.432	169.540	-164.367	150.349	111.694	-71.065	-3.241	0.0013905	0.00059981	0.0001713	1362.3	5.3447e-06	5.384e-06	1356.7	371.2	9.0947e-06	5.1777e-06	416.08	138.3	121.34	41.76	5.7478e-06	51.598	0.00053886	0.00034189	0.00010037	1384.1	4.2545e-06	3.8547e-06	1378.4	378.64	4.2013e-06	3.7847e-06	426.51	141.32	123.51	43.027	4.2069e-06	53.171	-0.772	-91.000	-91.645	-164.738	-61.952	-40.413	-164.887	-160.174	-37.022	-31.542	-160.667	-156.550	-156.059	-151.165	-28.487	-152.082	-8191	255	
18139.197	1	1	0	0	0.14443	0.073967	0.092012	0.34451	0.37034	0.23765	0.27552	0.17408	0.10932	0.03927	0.090171	0.22888	0.34271	0.16446	0.077637	0.30903	-2.4	-3	-2.6708	-3.1583	-2.8312	-2.6958	-3.2417	-3.0354	-2.8333	-3.0833	-2.8312	-3.0958	-2.9917	-2.9313	-2.9875	-2.9437	131.939	-164.809	148.704	136.334	165.761	80.287	127.253	181.661	129.729	70.707	52.928	-168.568	-172.040	-83.464	11.433	154.945	0.0013795	0.00067497	0.0001344	1365.2	4.7298e-06	4.3742e-06	1350.5	371.3	1.2254e-05	5.4938e-06	417.13	138.64	121.2	41.791	6.975e-06	51.367	0.00054449	0.00035291	0.00010012	1386.7	4.1808e-06	3.7851e-06	1377.9	379.16	4.142e-06	3.8388e-06	427.12	141.63	123.4	43.057	4.0998e-06	53.154	-0.986	-100.470	-89.956	-164.634	-39.964	-16.416	-165.025	-160.290	-38.249	-25.244	-160.910	-156.615	-156.125	-151.462	-38.701	-152.238	-8191	255	
18139.318	1	1	0	0	0.20763	0.11128	0.13024	0.11906	0.21511	0.14975	0.15184	0.25533	0.14606	0.24386	0.080229	0.1611	0.1413	0.10481	0.38031	0.15663	-2.3292	-3.0375	-2.6958	-2.9875	-2.9167	-2.8229	-3.3625	-3.0417	-2.8688	-3.1917	-2.9583	-2.9792	-3.1333	-2.7646	-3.1063	-2.9479	9.383	81.409	-96.054	171.768	48.758	46.146	102.562	-104.420	50.561	83.847	43.476	171.581	-143.919	-156.168	-19.830	85.026	0.0013734	0.00066019	0.00011207	1360.8	7.0146e-06	4.7803e-06	1357.4	371.89	1.3025e-05	4.3391e-06	418.16	138.4	121.37	41.745	6.3551e-06	51.525	0.00053253	0.00035507	0.0001012	1386.6	4.1664e-06	3.7725e-06	1380.4	379.28	4.2622e-06	3.6543e-06	427.22	141.81	123.71	43.039	4.1355e-06	53.277	-1.219	-92.172	-90.386	-164.702	-29.443	-34.499	-165.092	-160.303	-33.956	-23.054	-160.819	-156.756	-156.146	-151.165	-27.047	-152.173	-8191	255	
18139.414	1	1	0	0	0.15612	0.050468	0.11772	0.17234	0.087967	0.094232	0.24378	0.22948	0.27553	0.15449	0.2271	0.20539	0.24574	0.078201	0.15812	0.12578	-2.3521	-3.0938	-2.7854	-3.0479	-3.0875	-2.7125	-3.3208	-3.1333	-2.8083	-3.0833	-2.9146	-3.0292	-3.2375	-2.8396	-2.9625	-3.0521	-29.769	-6.641	-0.853	93.779	-138.593	-172.305	149.903	70.627	2.993	158.125	-153.958	154.482	140.086	162.693	153.448	67.084	0.0013854	0.00046079	0.00013054	1364.2	6.1411e-06	5.4587e-06	1353	370.89	1.0911e-05	3.4701e-06	418.85	138.9	121.21	41.722	6.3954e-06	51.258	0.00052384	0.00035523	0.00010238	1389.1	4.144e-06	3.7879e-06	1381.1	379.2	4.1544e-06	3.7912e-06	428.56	141.8	123.81	43.071	4.0245e-06	53.249	1.175	-102.167	-83.835	-164.840	-42.340	-22.038	-165.311	-160.320	-37.643	-30.800	-160.887	-156.667	-156.174	-151.262	-47.786	-152.192	-8191	255	
18139.512	1	1	0	0	0.05403	0.15948	0.028165	0.34054	0.22278	0.11515	0.12854	0.50272	0.13057	0.1618	0.13762	0.33442	0.24457	0.24466	0.1643	0.32606	-2.2958	-2.8396	-2.6083	-3.0125	-3.2729	-3.0729	-3.2083	-3.1583	-2.7708	-3.0958	-2.9729	-3.0042	-2.9792	-2.925	-2.8458	-3.1688	-87.307	-154.524	123.226	-177.048	-62.345	-65.015	81.370	86.945	56.056	-7.651	67.557	127.606	89.180	-161.122	9.034	78.808	0.0013254	0.00059834	0.00014611	1369.5	6.1417e-06	4.2111e-06	1360.7	371.75	8.4258e-06	4.7568e-06	419.24	138.65	121.55	41.895	7.2871e-06	51.528	0.00051284	0.00035693	0.00010356	1394.1	4.047e-06	3.9907e-06	1384.2	379.56	4.0918e-06	3.691e-06	429.13	141.95	123.97	43.083	4.0176e-06	53.25	-0.053	-92.214	-88.856	-165.024	-42.922	-29.652	-165.302	-160.346	-53.475	-35.382	-160.547	-156.335	-156.004	-151.251	-45.016	-152.376	-8191	255	
18139.607	1	1	0	0	0.049227	0.087932	0.077064	0.36281	0.1144	0.099853	0.2495	0.086866	0.24966	0.30227	0.16503	0.15673	0.06076	0.040573	0.29282	0.17255	-2.2562	-3.1562	-2.675	-2.8875	-3.125	-2.85	-3.0896	-3.2188	-2.775	-3.0729	-2.9479	-2.8812	-3.0854	-2.7917	-2.8125	-3.2083	-64.352	-134.043	156.542	-168.906	99.407	-22.911	58.538	89.195	21.177	-84.024	-122.628	95.445	168.912	152.825	132.363	170.217	0.0014439	0.00056008	0.00014067	1364.8	5.8852e-06	4.3217e-06	1355.5	370.82	8.6847e-06	5.0055e-06	418.88	139.29	121.63	41.767	6.076e-06	51.536	0.00054045	0.00036112	9.8036e-05	1390.8	3.8971e-06	3.943e-06	1382.8	379.09	4.1638e-06	3.9983e-06	428.58	142.25	123.85	43.055	4.1464e-06	53.29	0.411	-89.716	-86.949	-164.835	-44.743	-32.453	-165.179	-160.386	-37.474	-27.108	-160.900	-156.471	-156.208	-151.243	-35.788	-152.370	-8191	255	
18139.680	1	1	0	0	0.16218	0.069248	0.086516	0.38736	0.14098	0.13223	0.19058	0.23777	0.1324	0.19531	0.30609	0.17017	0.2088	0.22503	0.26029	0.10123	-2.3979	-2.7292	-2.8875	-2.7313	-2.9396	-2.8042	-2.9938	-3.0438	-2.8083	-2.825	-3.1021	-2.7917	-3.1208	-2.7875	-2.7375	-3.0354	12.767	93.947	-70.651	129.136	91.436	-164.568	71.068	164.756	-167.658	93.124	-160.690	137.529	-161.737	61.751	-1.196	-20.945	0.0013624	0.00059561	0.00010908	1369.7	5.7031e-06	5.3532e-06	1360.4	372.73	1.0725e-05	6.093e-06	418.64	139.26	121	41.982	7.8243e-06	51.627	0.00052667	0.00036253	9.5948e-05	1392.5	3.9436e-06	3.9967e-06	1386.3	380.72	4.1593e-06	4.1221e-06	428.69	142.08	123.65	43.109	4.1451e-06	53.375	1.226	-104.388	-105.531	-164.844	-43.772	-29.512	-165.108	-160.180	-35.520	-11.628	-160.617	-156.760	-156.146	-151.338	-34.892	-152.242	-8191	255	
18139.799	1	1	0	0	0.10144	0.24692	0.18068	0.060428	0.095001	0.27644	0.35175	0.066231	0.12215	0.14351	0.13321	0.042803	0.16196	0.27952	0.083583	0.24222	-2.2479	-2.9021	-2.9125	-2.8208	-3.0958	-2.7146	-3.1708	-3.3208	-2.7229	-3.0917	-3.1417	-2.8229	-3.1312	-2.8312	-2.7438	-3.0479	-86.121	123.438	97.128	24.868	-109.995	-22.086	174.706	119.896	-29.687	-57.404	72.155	160.050	110.893	172.123	114.112	-147.733	0.0013649	0.00044801	0.00013672	1369.7	5.1637e-06	4.0565e-06	1361.8	373.85	1.1293e-05	5.6491e-06	422.09	139.55	121.91	41.958	6.2626e-06	51.645	0.00054092	0.00036609	9.915e-05	1397.2	4.1719e-06	3.9113e-06	1387.8	381.17	4.4333e-06	4.1866e-06	430.27	142.37	124.13	43.225	4.0472e-06	53.395	1.301	-96.661	-86.633	-164.756	-47.831	-25.967	-165.294	-160.363	-32.135	-32.677	-160.937	-156.726	-156.232	-151.341	-18.118	-152.323	-8191	255	
18139.896	1	1	0	0	0.10786	0.39374	0.30455	0.14696	0.071671	0.065869	0.12828	0.32949	0.18585	0.18229	0.049394	0.28968	0.20032	0.29537	0.23435	0.25268	-2.4042	-2.6542	-2.9479	-2.9229	-2.9479	-2.8875	-2.8229	-2.9938	-2.7458	-2.9208	-3.0479	-2.775	-3.15	-2.9062	-2.7458	-3.1083	42.434	113.131	41.758	116.290	36.099	-82.472	30.475	179.932	155.928	-19.638	-45.189	-158.773	181.724	151.123	118.208	144.635	0.0014076	0.00058174	0.00013931	1372.1	6.4248e-06	4.6287e-06	1358.3	373.57	1.2482e-05	5.2743e-06	419.3	139.33	121.35	41.813	5.2988e-06	51.583	0.00053589	0.00037774	9.9256e-05	1397.8	4.238e-06	3.9925e-06	1388.8	380.82	4.4419e-06	4.0891e-06	429.01	142.4	124.26	43.059	3.981e-06	53.345	-2.144	-102.096	-91.945	-165.112	-56.365	-19.929	-165.328	-160.240	-37.237	-38.033	-160.715	-156.580	-155.868	-151.392	-26.937	-152.482	-8191	255	
18139.992	1	1	0	0	0.34657	0.20711	0.1286	0.17944	0.17375	0.18566	0.31387	0.32788	0.059834	0.096719	0.32942	0.25933	0.12509	0.24995	0.14048	0.22355	-2.2812	-2.7271	-3.0417	-2.875	-2.8812	-3.1021	-3.1125	-3.25	-2.7583	-2.9313	-3.1625	-2.7458	-3.0333	-3.1188	-2.7625	-3.1	-72.109	76.974	129.422	80.797	-1.484	-12.168	149.801	137.962	-173.355	140.983	172.249	151.996	67.200	128.399	7.108	136.040	0.0014141	0.00044507	0.00010957	1373.1	6.4871e-06	5.0752e-06	1366.4	373.05	1.1618e-05	5.0528e-06	420.45	139.26	122.22	41.987	4.2009e-06	51.686	0.00054562	0.00036679	9.2699e-05	1396.6	4.3303e-06	4.0397e-06	1388	380.43	4.3391e-06	3.7922e-06	429.08	142.34	124.4	43.193	3.8996e-06	53.385	-0.318	-76.193	-85.562	-164.498	-28.796	-32.580	-165.343	-160.406	-37.235	-38.584	-160.973	-156.828	-156.331	-151.472	-45.052	-152.318	-8191	255	
#DATA ENDS
