BOXY.EXE: ISS Imagent and Oximeter Data Acquisition Program Version 0.80
Ascii Record File

#ACQ INFORMATION
2  Detector Channels 
16  External MUX Channels 
1  Auxiliary Channels 
5000  Waveform (CCF) Frequency (Hz)
1  Waveforms Skipped 
30  Waveforms Averaged 
1  Cycles Averaged 
16  Acquisitions per Waveform 
10.0806  Updata Rate (Hz) 

#FILE INFORMATION
TRUE -- External MUX Channel results are PARSED.
FALSE -- AC DC and Phase are NOT grouped.
TRUE -- Companion Program Settings File CREATED.
FALSE -- AC data not excluded
FALSE -- DC data not excluded
FALSE -- Phase data not excluded
FALSE -- Auxillary Chn. data not excluded
Tab delimiters

#CALIBRATION STATE
TRUE -- Waveform Calibration Values APPLIED.


#AUX CALIBRATION VALUES
Val Type	aux-1	

Term	1.0000e+00	
Factor	0.0000e+00	


#WF CALIBRATION VALUES
A = Detector Channel
Val Type	A-AC1	A-AC2	A-AC3	A-AC4	A-AC5	A-AC6	A-AC7	A-AC8	A-AC9	A-AC10	A-AC11	A-AC12	A-AC13	A-AC14	A-AC15	A-AC16	A-DC1	A-DC2	A-DC3	A-DC4	A-DC5	A-DC6	A-DC7	A-DC8	A-DC9	A-DC10	A-DC11	A-DC12	A-DC13	A-DC14	A-DC15	A-DC16	A-Ph1	A-Ph2	A-Ph3	A-Ph4	A-Ph5	A-Ph6	A-Ph7	A-Ph8	A-Ph9	A-Ph10	A-Ph11	A-Ph12	A-Ph13	A-Ph14	A-Ph15	A-Ph16	

Term	0.00000e+00	0.00000e+00	0.00000e+00	0.00000e+00	0.00000e+00	0.00000e+00	0.00000e+00	0.00000e+00	0.00000e+00	0.00000e+00	0.00000e+00	0.00000e+00	0.00000e+00	0.00000e+00	0.00000e+00	0.00000e+00	0.00000e+00	0.00000e+00	0.00000e+00	0.00000e+00	0.00000e+00	0.00000e+00	0.00000e+00	0.00000e+00	0.00000e+00	0.00000e+00	0.00000e+00	0.00000e+00	0.00000e+00	0.00000e+00	0.00000e+00	0.00000e+00	0.00000e+00	0.00000e+00	0.00000e+00	0.00000e+00	0.00000e+00	0.00000e+00	0.00000e+00	0.00000e+00	0.00000e+00	0.00000e+00	0.00000e+00	0.00000e+00	0.00000e+00	0.00000e+00	0.00000e+00	0.00000e+00	
Factor	1.00000e+00	1.00000e+00	1.00000e+00	1.00000e+00	1.00000e+00	1.00000e+00	1.00000e+00	1.00000e+00	1.00000e+00	1.00000e+00	1.00000e+00	1.00000e+00	1.00000e+00	1.00000e+00	1.00000e+00	1.00000e+00	1.00000e+00	1.00000e+00	1.00000e+00	1.00000e+00	1.00000e+00	1.00000e+00	1.00000e+00	1.00000e+00	1.00000e+00	1.00000e+00	1.00000e+00	1.00000e+00	1.00000e+00	1.00000e+00	1.00000e+00	1.00000e+00	X	X	X	X	X	X	X	X	X	X	X	X	X	X	X	X	

B = Detector Channel
Val Type	B-AC1	B-AC2	B-AC3	B-AC4	B-AC5	B-AC6	B-AC7	B-AC8	B-AC9	B-AC10	B-AC11	B-AC12	B-AC13	B-AC14	B-AC15	B-AC16	B-DC1	B-DC2	B-DC3	B-DC4	B-DC5	B-DC6	B-DC7	B-DC8	B-DC9	B-DC10	B-DC11	B-DC12	B-DC13	B-DC14	B-DC15	B-DC16	B-Ph1	B-Ph2	B-Ph3	B-Ph4	B-Ph5	B-Ph6	B-Ph7	B-Ph8	B-Ph9	B-Ph10	B-Ph11	B-Ph12	B-Ph13	B-Ph14	B-Ph15	B-Ph16	

Term	0.00000e+00	0.00000e+00	0.00000e+00	0.00000e+00	0.00000e+00	0.00000e+00	0.00000e+00	0.00000e+00	0.00000e+00	0.00000e+00	0.00000e+00	0.00000e+00	0.00000e+00	0.00000e+00	0.00000e+00	0.00000e+00	0.00000e+00	0.00000e+00	0.00000e+00	0.00000e+00	0.00000e+00	0.00000e+00	0.00000e+00	0.00000e+00	0.00000e+00	0.00000e+00	0.00000e+00	0.00000e+00	0.00000e+00	0.00000e+00	0.00000e+00	0.00000e+00	-1.62352e+02	-1.41008e+02	-1.11495e+02	-1.83984e+02	-1.11418e+02	-7.45502e+01	-1.55811e+02	-1.62015e+02	-8.09347e+01	-4.80968e+01	-1.73154e+02	-1.73613e+02	-1.86815e+02	-1.78292e+02	-6.95269e+01	-1.50256e+02	
Factor	2.31503e-05	1.21955e-04	3.53977e-05	1.73479e-01	9.55770e-07	1.44040e-06	1.63553e-01	5.56841e-02	9.89360e-07	1.12439e-06	9.67085e-02	2.82450e-02	5.57543e-02	8.47876e-03	1.11573e-06	1.21845e-02	1.04864e-06	1.07952e-06	3.00291e-07	8.44363e-02	1.18273e-08	1.18528e-08	7.57509e-02	2.71375e-02	1.18471e-08	1.18386e-08	4.50717e-02	1.32853e-02	2.55029e-02	4.11310e-03	1.18525e-08	5.73167e-03	X	X	X	X	X	X	X	X	X	X	X	X	X	X	X	X	



#DISTANCE SETTINGS
A = Detector Channel
A-1	A-2	A-3	A-4	A-5	A-6	A-7	A-8	A-9	A-10	A-11	A-12	A-13	A-14	A-15	A-16	

2.5000e+00	3.0000e+00	2.5000e+00	3.0000e+00	2.0000e+00	3.0000e+00	1.5000e+00	3.0000e+00	3.0000e+00	3.0000e+00	3.0000e+00	3.0000e+00	3.0000e+00	3.0000e+00	1.5000e+00	3.0000e+00	

B = Detector Channel
B-1	B-2	B-3	B-4	B-5	B-6	B-7	B-8	B-9	B-10	B-11	B-12	B-13	B-14	B-15	B-16	

1.0000e+01	1.0000e+01	1.0000e+01	1.4400e+00	1.0000e+01	1.0000e+01	1.5100e+00	1.9400e+00	1.0000e+01	1.0000e+01	1.9900e+00	2.4900e+00	2.4100e+00	2.9000e+00	1.0000e+01	2.9800e+00	




#DATA BEGINS
time	group	step	mark	flag	A-AC1	A-AC2	A-AC3	A-AC4	A-AC5	A-AC6	A-AC7	A-AC8	A-AC9	A-AC10	A-AC11	A-AC12	A-AC13	A-AC14	A-AC15	A-AC16	A-DC1	A-DC2	A-DC3	A-DC4	A-DC5	A-DC6	A-DC7	A-DC8	A-DC9	A-DC10	A-DC11	A-DC12	A-DC13	A-DC14	A-DC15	A-DC16	A-Ph1	A-Ph2	A-Ph3	A-Ph4	A-Ph5	A-Ph6	A-Ph7	A-Ph8	A-Ph9	A-Ph10	A-Ph11	A-Ph12	A-Ph13	A-Ph14	A-Ph15	A-Ph16	B-AC1	B-AC2	B-AC3	B-AC4	B-AC5	B-AC6	B-AC7	B-AC8	B-AC9	B-AC10	B-AC11	B-AC12	B-AC13	B-AC14	B-AC15	B-AC16	B-DC1	B-DC2	B-DC3	B-DC4	B-DC5	B-DC6	B-DC7	B-DC8	B-DC9	B-DC10	B-DC11	B-DC12	B-DC13	B-DC14	B-DC15	B-DC16	B-Ph1	B-Ph2	B-Ph3	B-Ph4	B-Ph5	B-Ph6	B-Ph7	B-Ph8	B-Ph9	B-Ph10	B-Ph11	B-Ph12	B-Ph13	B-Ph14	B-Ph15	B-Ph16	aux-1	digaux	

5255.820	1	1	0	256	0.18842	0.19774	0.17914	0.30062	0.1445	0.32089	0.14213	0.28378	0.12455	0.12475	0.24644	0.18782	0.086041	0.077484	0.085801	0.15113	-3.0687	-3.525	-2.9021	-3.6417	-3.2354	-3.3104	-4.025	-3.2917	-3.5312	-3.5667	-3.0875	-3.5438	-3.2938	-2.9729	-3.7125	-3.3771	412.644	488.456	475.781	185.359	220.158	260.104	426.187	238.316	382.046	401.639	422.827	263.578	389.019	339.791	416.892	371.252	0.00030022	0.00026486	3.3387e-05	1176.6	3.1467e-06	2.4867e-06	1230.6	238.85	6.6551e-07	3.2003e-06	294.18	84.153	65.389	18.579	2.0253e-06	26.475	8.5517e-05	7.1581e-05	1.8353e-05	1124.8	8.5501e-07	7.5522e-07	1188.3	228.84	8.522e-07	7.612e-07	279.78	80.813	60.435	18.15	7.0863e-07	25.837	529.144	275.256	217.011	184.460	233.527	312.746	184.205	191.281	217.701	329.456	191.065	197.068	197.346	205.536	318.392	204.606	-8191	255	
5255.916	1	1	0	0	0.058078	0.15663	0.061818	0.076898	0.27055	0.12871	0.010962	0.040498	0.11988	0.20235	0.063382	0.10219	0.32031	0.056641	0.21099	0.21561	-2.8563	-3.6333	-2.8542	-3.5646	-3.6125	-3.1917	-3.9958	-3.3104	-3.2687	-3.6021	-3.2646	-3.4188	-3.7479	-3.1792	-3.6417	-3.4417	272.753	381.594	320.042	174.530	454.377	344.148	525.367	189.167	403.481	470.567	463.494	524.681	495.732	524.998	219.749	211.016	0.00037896	0.00024744	0.00010395	1171.6	3.0061e-06	3.627e-06	1237.7	238.34	2.4175e-06	3.2401e-06	296.24	83.425	65.591	18.612	2.1417e-06	26.835	8.4156e-05	6.9087e-05	1.7879e-05	1125.7	8.2616e-07	7.713e-07	1188.6	229.16	8.269e-07	7.2534e-07	280.5	80.774	60.402	18.153	7.1308e-07	25.859	532.192	259.692	280.592	184.510	279.155	347.757	184.205	191.279	234.573	347.885	191.046	197.394	197.062	205.272	319.948	204.549	-8191	255	
5256.012	1	1	0	0	0.12416	0.19366	0.16497	0.094803	0.13548	0.38211	0.19741	0.19232	0.17198	0.11478	0.14787	0.21852	0.035709	0.16273	0.061381	0.28672	-2.9146	-3.6292	-3.1813	-3.6104	-3.6937	-2.9792	-3.9875	-3.5187	-3.2521	-3.7562	-3.2521	-3.3667	-3.7396	-3.0958	-3.5292	-3.3979	294.007	499.729	265.624	500.487	475.585	196.065	487.291	194.019	464.555	312.822	450.247	476.816	465.412	497.632	513.759	448.383	0.00034476	0.00010025	4.7673e-05	1180.4	2.6975e-06	1.7874e-06	1238.1	239.55	2.3782e-06	1.6602e-06	294.08	83.781	66.187	18.619	6.326e-07	26.611	7.8556e-05	6.5518e-05	1.7734e-05	1127.3	7.6288e-07	7.009e-07	1189.5	229.96	7.7559e-07	7.0006e-07	280.81	80.828	60.564	18.155	7.1666e-07	25.871	177.066	295.083	269.461	184.523	277.018	238.686	184.258	191.264	278.550	321.451	191.189	197.562	196.930	204.939	252.894	204.726	-8191	255	
5256.131	1	1	0	0	0.092072	0.26632	0.082458	0.19957	0.066904	0.33566	0.30176	0.12028	0.18332	0.29978	0.11878	0.073952	0.16372	0.12352	0.2025	0.15253	-2.825	-3.8771	-3.1208	-3.3521	-3.5833	-3.1417	-3.7708	-3.725	-3.1792	-3.7479	-3.275	-3.3375	-3.7854	-3.1479	-3.6229	-3.7417	368.778	462.925	288.246	487.527	396.566	416.833	467.730	409.389	308.543	328.292	192.541	208.452	381.178	505.519	364.638	503.043	0.00031364	0.00016334	5.2472e-05	1173.4	2.6704e-06	3.6119e-06	1230.1	236.88	3.9404e-06	2.603e-06	298.04	83.664	65.302	18.542	2.1195e-06	26.623	7.6177e-05	6.3685e-05	1.8407e-05	1123.7	7.6348e-07	6.9371e-07	1186.4	229.17	7.7549e-07	7.0132e-07	281.36	80.815	60.388	18.084	7.6498e-07	25.784	528.106	257.405	263.630	184.344	254.848	285.682	184.131	191.132	267.463	357.479	190.850	197.317	196.832	204.725	320.344	204.745	-8191	255	
5256.205	1	1	0	0	0.16223	0.07501	0.18271	0.27293	0.063388	0.044445	0.11251	0.056656	0.2126	0.047779	0.070577	0.16887	0.26342	0.2021	0.056635	0.030693	-2.7375	-3.7667	-3.4396	-3.2833	-3.7021	-3.1542	-3.6125	-3.4521	-3.0938	-3.7958	-3.2458	-3.3208	-3.7792	-3.1604	-3.2417	-3.55	213.804	268.219	330.628	177.097	438.099	524.684	476.136	342.884	197.447	344.235	221.468	384.827	194.535	327.319	254.502	214.073	0.0003658	0.00012252	4.7921e-05	1174	9.9378e-07	9.8072e-07	1227.5	238.82	3.2997e-06	1.8287e-06	294.78	83.16	66.102	18.419	2.0222e-06	26.294	7.573e-05	6.3849e-05	2.0198e-05	1123.1	7.6367e-07	7.0139e-07	1185.8	229.18	7.6559e-07	7.2401e-07	280.42	80.403	60.139	17.93	8.4333e-07	25.637	530.902	335.150	257.352	184.529	300.269	346.162	184.308	191.057	293.971	327.552	191.083	196.819	196.739	205.255	403.423	204.444	-8191	255	
5256.301	1	1	0	0	0.10087	0.083201	0.17439	0.24976	0.18773	0.11609	0.34168	0.12503	0.06987	0.19233	0.15347	0.10537	0.093308	0.044669	0.17416	0.046353	-2.4813	-3.6208	-3.3271	-3.3125	-3.7812	-3.1188	-3.5417	-3.7188	-3.0083	-3.6208	-3.6146	-3.0958	-3.6521	-3.3417	-3.2479	-3.625	481.842	400.549	419.052	529.707	298.506	468.245	433.766	529.615	289.443	376.017	438.465	529.181	403.547	194.059	405.589	212.194	0.0003253	0.00025006	8.6747e-05	1168.9	2.3495e-06	7.6351e-07	1230.7	236.85	1.9897e-06	1.5176e-06	293.39	83.352	65.366	18.498	6.1075e-07	26.528	7.7844e-05	6.9539e-05	2.1423e-05	1119.8	7.7175e-07	7.7782e-07	1185	227.47	7.7413e-07	7.9849e-07	279.47	80.173	59.921	17.982	8.7262e-07	25.656	529.404	296.361	291.488	184.287	258.714	395.519	184.153	191.307	242.848	364.102	191.347	197.209	197.058	205.423	445.086	204.853	-8191	255	
5256.420	1	1	0	0	0.055056	0.28452	0.015603	0.067656	0.1527	0.072537	0.15377	0.093787	0.23133	0.17208	0.18382	0.2908	0.185	0.23096	0.095095	0.24821	-2.6229	-3.4167	-3.4042	-3.2583	-3.6479	-3.2396	-3.5271	-3.6875	-3.1188	-3.5146	-3.675	-2.9854	-3.7396	-3.4042	-3.2083	-3.7625	271.886	339.693	352.210	242.367	432.077	211.271	454.568	213.178	211.231	312.567	466.652	489.346	418.458	499.636	464.528	510.568	0.00034357	0.00039148	4.7409e-05	1171.3	3.2436e-06	1.595e-06	1226.4	235.86	5.3078e-06	2.5415e-06	295.04	82.92	64.538	18.487	2.7773e-07	26.34	7.7645e-05	7.3219e-05	2.1892e-05	1120	7.7427e-07	8.4283e-07	1184.2	227.16	7.7287e-07	8.493e-07	279.93	79.859	59.565	17.935	8.6165e-07	25.526	523.724	244.198	271.645	184.484	265.196	384.005	184.279	191.263	266.519	321.320	191.068	197.423	196.107	205.566	408.444	204.524	-8191	255	
5256.516	1	1	0	0	0.19575	0.24725	0.10345	0.038558	0.19205	0.10716	0.098194	0.050984	0.19486	0.20793	0.14502	0.045073	0.21031	0.15412	0.13629	0.11907	-2.5333	-3.4042	-3.6042	-2.9104	-3.7229	-3.5333	-3.4167	-3.8875	-3.0979	-3.5854	-3.7646	-3.075	-3.4417	-3.4875	-3.1063	-3.7854	251.428	369.642	505.511	196.465	392.985	441.474	330.793	472.855	468.249	512.787	533.248	355.909	184.475	327.836	370.954	184.740	0.00035126	0.00023174	9.3673e-05	1164.1	1.3404e-06	2.104e-06	1225.6	236.01	2.8391e-06	3.544e-06	291.06	82.261	65.061	18.372	3.1009e-06	26.233	7.8814e-05	7.9529e-05	2.1977e-05	1116.7	8.0536e-07	8.9901e-07	1180.9	226.79	8.29e-07	8.9927e-07	277.18	79.336	59.7	17.85	8.6516e-07	25.444	527.680	264.580	257.245	184.582	296.521	404.585	184.220	191.441	288.735	360.488	190.960	197.103	196.722	205.407	298.890	205.145	-8191	255	
5256.612	1	1	0	0	0.11938	0.064972	0.22686	0.034323	0.29011	0.066445	0.23606	0.13401	0.13549	0.060772	0.036125	0.22522	0.060239	0.29093	0.17477	0.081761	-2.8563	-3.2479	-3.6271	-3.1521	-3.5958	-3.4667	-3.2333	-3.7458	-3.1271	-3.3542	-3.7958	-3.0125	-3.4833	-3.6229	-2.8875	-3.7188	467.185	307.641	312.916	231.408	434.757	391.364	462.462	310.745	284.659	461.833	479.950	523.577	431.561	475.870	230.623	434.349	0.00034718	0.00012672	0.00011226	1162.1	2.7828e-06	2.5768e-06	1223.5	234.64	3.3755e-06	3.8464e-06	288.15	82.063	64.359	18.12	1.7515e-06	25.783	8.3363e-05	8.2352e-05	2.1918e-05	1114.9	8.9239e-07	9.2529e-07	1177.1	225.45	9.2975e-07	9.8179e-07	275.65	78.895	59.499	17.718	9.3741e-07	25.183	173.186	214.902	241.328	184.513	221.928	261.071	184.153	191.147	290.437	306.124	190.988	197.280	197.132	205.434	326.324	205.017	-8191	255	
5256.733	1	1	0	0	0.10578	0.079748	0.20404	0.21916	0.18761	0.13246	0.12934	0.18315	0.18467	0.21616	0.18086	0.22017	0.21217	0.19363	0.059434	0.13653	-2.7396	-3.2271	-3.8729	-3.1958	-3.3833	-3.5021	-3.2583	-3.8833	-3.3729	-3.2458	-3.6917	-3.0125	-3.5125	-3.5062	-3	-3.7021	452.755	364.018	231.181	489.689	293.917	510.021	529.963	462.025	180.316	288.004	360.156	451.489	175.676	346.154	438.804	386.399	0.00034872	0.00039029	8.8269e-05	1160.5	1.818e-07	4.4677e-06	1211.8	233.09	1.7391e-06	2.1574e-06	289.11	80.423	63.749	17.96	3.438e-06	25.772	9.6971e-05	9.3133e-05	2.4255e-05	1111.7	1.0422e-06	1.0146e-06	1172.6	224.14	1.0801e-06	1.0293e-06	274.91	78.171	59.301	17.551	1.0047e-06	25.086	532.301	359.283	302.628	184.404	176.522	336.734	184.185	191.339	274.644	374.407	190.939	197.280	196.989	205.055	314.145	204.654	-8191	255	
5256.804	1	1	0	0	0.090077	0.1278	0.053663	0.095648	0.17507	0.14296	0.0044347	0.069799	0.31269	0.064331	0.036344	0.16003	0.030734	0.23777	0.26299	0.15207	-2.8604	-3.2	-3.6188	-3.2375	-3.4083	-3.5687	-3.2812	-3.6042	-3.5438	-3.0875	-3.8708	-3.3479	-3.2354	-3.725	-3.125	-3.6875	485.457	235.361	445.401	276.518	494.980	497.184	376.768	296.881	375.329	178.298	510.404	490.814	287.995	488.155	380.681	520.706	0.00037536	0.00034781	8.6812e-05	1154	5.8697e-07	4.5309e-06	1213.8	233.15	1.2477e-06	9.929e-07	288.5	80.649	63.55	17.793	2.9565e-06	25.576	0.00011391	0.00010226	2.6325e-05	1106.8	1.2189e-06	1.1292e-06	1169.4	223.91	1.2485e-06	1.1613e-06	275.17	78.151	59.215	17.467	1.1094e-06	25.069	529.313	231.370	342.002	184.418	312.045	322.001	184.226	191.451	412.204	304.917	190.984	197.153	197.390	204.711	317.151	204.507	-8191	255	
5256.900	1	1	0	0	0.19851	0.01051	0.16855	0.20608	0.24387	0.088236	0.37979	0.23209	0.12221	0.16766	0.11829	0.03626	0.033403	0.16476	0.18729	0.075799	-3.0917	-3.1063	-3.5833	-3.5625	-3.3958	-3.6437	-3.2667	-3.5042	-3.5312	-3.1479	-3.6542	-3.2833	-3.2646	-3.8438	-3.3167	-3.6396	514.326	243.197	311.962	469.677	386.170	405.346	448.335	486.509	279.249	485.990	509.583	331.908	335.089	454.132	506.260	188.890	0.00032226	0.00028176	5.0291e-05	1153.3	3.1485e-06	4.9525e-06	1213.7	231.93	1.5036e-06	1.6835e-06	288.62	80.541	63.106	17.81	2.6855e-06	25.52	0.00012177	0.00010744	2.7916e-05	1109.5	1.3491e-06	1.2327e-06	1171.2	223.9	1.365e-06	1.2324e-06	275.3	78.323	59.319	17.501	1.1755e-06	25.164	530.706	203.990	313.210	184.162	266.092	306.003	183.963	191.347	329.827	347.610	191.532	197.103	197.216	205.452	377.935	204.961	-8191	255	
5256.997	1	1	0	0	0.17973	0.12075	0.31041	0.06095	0.094091	0.05764	0.088759	0.15208	0.17257	0.18231	0.075011	0.22119	0.12321	0.12252	0.20945	0.33493	-3.1833	-3.1521	-3.5958	-3.5396	-3.1583	-3.9646	-3.2146	-3.4458	-3.6063	-3.1625	-3.6771	-3.4875	-3.2229	-3.6208	-3.1708	-3.5396	190.839	269.049	317.683	465.708	231.717	240.757	173.014	413.008	194.891	483.451	419.628	484.268	273.299	408.975	478.588	226.774	0.00032003	0.00016129	7.2136e-05	1157.4	2.6461e-06	3.3837e-06	1215.3	233.16	2.5557e-06	3.6088e-06	288.56	80.054	63.543	17.905	1.9967e-06	25.547	0.00012751	0.00011061	3.056e-05	1111.9	1.3799e-06	1.2483e-06	1174.8	224.37	1.3769e-06	1.2715e-06	276.68	78.14	59.528	17.547	1.2846e-06	25.107	525.186	266.924	241.419	184.231	294.906	288.870	183.954	190.938	223.609	344.433	191.191	197.372	197.003	205.268	236.424	205.051	-8191	255	
5257.115	1	1	0	0	0.14259	0.19086	0.087901	0.28475	0.03836	0.17037	0.21454	0.35168	0.24927	0.091883	0.19145	0.30668	0.075487	0.14037	0.14839	0.27044	-3.1396	-3.0167	-3.5812	-3.5667	-3.0729	-3.8833	-3.4396	-3.3667	-3.7313	-3.0604	-3.5896	-3.425	-3.0458	-3.7687	-3.2021	-3.1979	176.754	308.518	306.694	490.756	273.201	409.375	332.380	198.656	344.668	403.415	455.070	442.316	219.214	195.249	388.554	242.184	0.00032321	0.00019864	3.6834e-05	1159.4	1.195e-06	3.7536e-06	1213.9	231.02	3.7727e-07	4.1084e-07	287.32	80.152	63.303	17.785	3.2592e-06	25.613	0.00012929	0.0001171	3.2801e-05	1114.2	1.3656e-06	1.2673e-06	1173.6	224.09	1.3692e-06	1.2495e-06	275.98	78.469	59.529	17.532	1.4215e-06	25.195	175.186	311.179	341.104	184.325	213.731	327.350	184.199	191.565	281.522	310.181	191.011	197.595	197.352	205.486	290.041	204.437	-8191	255	
5257.212	1	1	0	0	0.079697	0.12961	0.29158	0.28918	0.21852	0.26687	0.17142	0.22886	0.11838	0.075136	0.067024	0.069546	0.088306	0.10361	0.2894	0.19191	-3.2271	-3.2125	-3.4813	-3.7625	-2.9958	-3.6917	-3.5667	-3.4271	-3.7687	-3.2104	-3.6	-3.6208	-3.1083	-3.6063	-3.4708	-3.1458	361.033	201.889	269.793	464.077	469.851	342.981	417.491	217.729	274.018	207.681	190.394	289.698	368.824	257.522	502.714	487.404	0.00034353	0.00014099	8.222e-05	1160	5.6653e-07	4.0439e-06	1217.5	230.89	2.0937e-06	3.0249e-06	288.54	80.702	63.777	17.992	1.9267e-06	25.56	0.00013552	0.0001173	3.7351e-05	1116.3	1.4169e-06	1.2913e-06	1177	224.62	1.439e-06	1.3468e-06	278.1	78.481	60.047	17.67	1.607e-06	25.179	528.772	185.609	238.119	184.381	526.521	327.903	184.175	191.536	258.203	233.649	191.143	197.250	196.959	205.157	370.008	204.534	-8191	255	
5257.308	1	1	0	0	0.097754	0.052518	0.25688	0.12981	0.25719	0.24378	0.25865	0.10893	0.017505	0.22899	0.26428	0.34059	0.18164	0.26592	0.168	0.20605	-3.4542	-3.1167	-3.2583	-3.9521	-3.1729	-3.6437	-3.6063	-3.3833	-3.9542	-3.2042	-3.2938	-3.7708	-3.0563	-3.7562	-3.4646	-3.1417	438.500	479.460	413.470	184.122	460.670	234.706	483.908	419.243	205.385	463.340	425.539	532.961	194.965	368.039	198.001	442.083	0.00028452	0.00025023	1.4732e-05	1167.8	3.7291e-06	5.0694e-06	1217	231.81	3.9287e-06	3.1506e-06	287.6	80.43	64.289	17.927	8.2624e-07	25.65	0.00013751	0.00013143	4.1582e-05	1123.1	1.481e-06	1.4713e-06	1183.7	225.18	1.4941e-06	1.4861e-06	278.17	78.637	59.971	17.688	1.6791e-06	25.318	528.966	243.178	434.113	184.439	321.753	250.175	184.095	191.190	302.228	351.477	191.132	197.392	197.243	205.059	283.674	204.590	-8191	255	
5257.404	1	1	0	0	0.053524	0.099404	0.062527	0.12899	0.039604	0.043254	0.24738	0.16183	0.18514	0.16681	0.13638	0.18386	0.15417	0.058876	0.0375	0.29997	-3.3833	-3.3771	-3.2271	-3.7854	-3.175	-3.5542	-3.6625	-3.1833	-3.6583	-3.3083	-3.4708	-3.9313	-3.0146	-3.6042	-3.5083	-3.1646	187.763	256.255	445.094	447.557	377.412	313.776	517.476	529.222	249.735	351.859	307.526	426.708	212.194	382.586	471.313	390.665	0.00035812	0.0002534	7.6511e-05	1166.9	3.6268e-06	3.3418e-06	1225.6	233.2	4.1266e-06	2.7393e-06	290.94	80.985	63.646	17.933	4.4888e-06	25.732	0.00013943	0.00014121	4.2716e-05	1127.3	1.4592e-06	1.6107e-06	1188.6	225.9	1.5241e-06	1.6558e-06	280.37	79.155	60.26	17.753	1.7147e-06	25.369	523.665	320.777	390.148	184.488	270.245	270.722	184.188	191.412	263.204	279.710	191.005	197.266	196.834	204.824	322.388	204.662	-8191	255	
5257.500	1	1	0	0	0.11983	0.10076	0.18721	0.17829	0.1511	0.25038	0.29301	0.032547	0.14013	0.22488	0.12865	0.14951	0.10681	0.23689	0.030757	0.05787	-3.4167	-3.3229	-3.0708	-3.8417	-3.15	-3.4604	-3.6667	-3.1771	-3.7708	-3.4917	-3.2792	-3.7917	-3.0521	-3.2854	-3.7271	-3.0187	365.942	410.476	310.652	478.928	377.507	462.943	440.984	254.550	240.926	179.277	286.138	465.345	278.669	495.195	196.121	223.322	0.00034857	0.00018697	8.3229e-05	1170.1	1.2927e-06	2.8819e-06	1229.9	233.7	3.7789e-06	3.4627e-07	290.99	81.51	63.21	17.893	4.2626e-06	25.535	0.0001407	0.00015479	4.0947e-05	1126.5	1.5039e-06	1.6644e-06	1187.8	225.92	1.5116e-06	1.6641e-06	279.24	78.873	60.005	17.787	1.6403e-06	25.248	528.965	279.132	305.127	184.326	324.481	399.106	184.145	191.379	313.605	232.865	190.825	197.425	196.705	205.041	328.279	204.589	-8191	255	
5257.596	1	1	0	0	0.057045	0.14965	0.076996	0.049756	0.33263	0.079205	0.25868	0.16033	0.28587	0.07698	0.25104	0.15534	0.10258	0.27308	0.19961	0.1026	-3.2917	-3.3208	-3.0542	-3.9729	-3.3875	-3.4458	-3.6958	-2.9792	-3.6042	-3.5479	-3.175	-3.7271	-3.3146	-3.2854	-3.7208	-3.2313	223.186	452.173	449.198	206.978	449.218	255.254	479.980	520.865	526.175	378.845	508.611	532.987	250.057	174.707	340.963	230.860	0.00031153	0.0001873	1.1089e-05	1173	3.1086e-06	3.9704e-06	1230.4	232.81	1.4543e-06	3.1663e-06	289.97	80.866	63.527	18.018	3.3129e-06	25.695	0.0001506	0.00016028	4.2317e-05	1130.5	1.6794e-06	1.8239e-06	1191.5	226.26	1.7262e-06	1.8858e-06	280.11	79.098	60.798	17.846	1.7413e-06	25.384	522.071	307.826	192.666	184.312	269.162	333.958	184.002	191.460	173.609	249.791	191.231	197.184	197.023	205.387	373.925	204.721	-8191	255	
5257.692	1	1	0	0	0.19463	0.22348	0.14219	0.53274	0.052482	0.27998	0.24696	0.31626	0.23241	0.3833	0.18589	0.085198	0.077153	0.015431	0.036582	0.11485	-3.175	-3.5146	-2.9688	-3.7604	-3.4854	-3.1375	-3.9875	-3.3875	-3.4396	-3.4917	-3.3312	-3.8896	-3.4125	-3.4146	-3.7604	-3.2188	234.153	463.547	431.133	476.937	238.833	208.915	422.536	491.169	237.924	472.060	404.898	187.183	265.585	314.963	465.431	493.860	0.00032185	0.00066115	0.00010555	1177.7	3.7025e-06	5.3843e-07	1233.1	235.78	2.2289e-06	2.0456e-06	291.74	81.433	64.572	17.845	2.6807e-06	25.567	0.00016614	0.00016562	4.3009e-05	1135.8	1.7845e-06	1.7785e-06	1195.9	227.41	1.8182e-06	1.7698e-06	281.22	79.435	61.432	17.837	1.6617e-06	25.326	529.231	218.426	253.828	184.445	263.204	329.634	184.102	191.092	223.431	441.452	190.850	197.431	197.235	205.244	364.575	204.661	-8191	255	
5257.813	1	1	0	0	0.16167	0.06128	0.3008	0.27526	0.11345	0.24841	0.29743	0.032903	0.15153	0.30059	0.2845	0.177	0.14079	0.34832	0.14742	0.24105	-3.0708	-3.5521	-3.0396	-3.7854	-3.425	-3.2542	-3.8375	-3.3354	-3.4542	-3.8417	-3.1583	-3.6604	-3.5271	-3.2562	-3.7354	-3.3625	208.563	224.455	442.185	493.353	366.356	280.039	182.378	453.330	478.779	266.579	207.251	467.004	370.579	360.227	194.747	396.067	0.00028761	0.00049284	0.00023485	1186.8	2.4993e-06	1.5122e-06	1239.9	235.68	5.5774e-06	3.1984e-07	293.89	81.426	63.479	17.975	4.6498e-06	25.744	0.00017334	0.00016096	4.1914e-05	1139.4	1.8445e-06	1.6959e-06	1198.7	227.33	1.812e-06	1.6882e-06	281.39	79.392	61.117	17.856	1.5556e-06	25.451	517.969	236.505	282.701	184.279	196.239	354.193	184.211	191.286	338.317	243.464	190.951	197.098	196.412	205.321	361.891	204.690	-8191	255	
5257.909	1	1	0	0	0.16313	0.34381	0.20249	0.056153	0.19991	0.11511	0.074149	0.20523	0.14394	0.079386	0.17415	0.23938	0.17794	0.27628	0.20786	0.1226	-2.9083	-3.4938	-3.1125	-3.7313	-3.5167	-3.2604	-3.8063	-3.3917	-3.3333	-3.8729	-3.0479	-3.5042	-3.4271	-3.0208	-3.8146	-3.2771	448.115	219.134	218.419	249.199	250.683	283.523	490.437	181.226	483.875	259.405	444.745	202.481	524.736	447.107	253.770	422.758	0.00032715	5.8903e-05	7.1578e-05	1183	7.5368e-07	3.3744e-06	1239.3	235.49	3.1464e-06	5.2004e-06	291.1	81.334	63.62	18.097	5.4553e-06	25.862	0.00016692	0.0001485	3.827e-05	1139	1.6631e-06	1.5201e-06	1199.3	227.78	1.6316e-06	1.4759e-06	279.15	79.216	60.681	17.787	1.3576e-06	25.394	511.424	347.809	316.240	184.441	279.224	301.601	184.179	191.346	272.963	387.706	191.384	197.119	196.507	205.185	297.453	204.197	-8191	255	
5258.005	1	1	0	0	0.14768	0.077999	0.27986	0.075191	0.2762	0.12757	0.21274	0.14683	0.15311	0.078892	0.1885	0.11323	0.11481	0.13572	0.1369	0.20238	-2.7104	-3.7375	-3.1271	-3.6708	-3.7396	-3.1167	-3.8271	-3.4625	-3.1562	-3.6958	-3.15	-3.4708	-3.7208	-3.2646	-3.775	-3.6708	390.530	441.353	201.799	334.974	200.272	372.379	483.261	418.994	181.825	212.598	177.988	369.059	386.154	510.493	521.556	456.686	0.0003349	0.00017879	0.00013623	1179.7	3.029e-06	2.9845e-06	1237.7	234.7	3.7835e-06	3.3744e-06	290.98	81.896	63.356	18.038	5.4438e-07	25.604	0.00014432	0.00012742	3.364e-05	1134.9	1.4857e-06	1.3839e-06	1192.7	226.76	1.5122e-06	1.406e-06	278.92	79.382	60.282	17.77	1.4536e-06	25.399	531.289	268.410	283.806	184.215	218.064	320.950	184.127	191.198	265.545	317.499	190.880	197.270	196.516	205.337	241.516	204.719	-8191	255	
5258.101	1	1	0	0	0.20555	0.079491	0.32363	0.12791	0.17001	0.14442	0.50861	0.13346	0.20744	0.081344	0.47977	0.21144	0.055711	0.22372	0.046945	0.031631	-2.9146	-3.8333	-3.0563	-3.5417	-3.6396	-3.0458	-3.9375	-3.7062	-3.1354	-3.9	-3.3104	-3.2417	-3.6	-3.1417	-3.5604	-3.5917	347.761	467.024	387.846	471.684	505.738	195.635	498.476	514.562	266.806	237.850	514.623	444.035	485.026	472.179	327.271	285.848	0.00034569	0.0003916	7.2928e-05	1182.2	3.2656e-06	4.2059e-07	1232.4	233.54	1.5735e-06	2.5634e-06	290.91	81.399	64.214	18.001	6.5857e-07	25.794	0.000148	0.00013145	3.6847e-05	1136	1.5527e-06	1.4147e-06	1194.1	226.81	1.5269e-06	1.3844e-06	279.39	79.336	60.4	17.749	1.5175e-06	25.356	529.802	248.165	240.239	184.524	269.702	409.721	184.060	191.562	260.768	339.948	190.601	196.832	197.192	205.251	345.802	204.580	-8191	255	
5258.196	1	1	0	0	0.14542	0.12687	0.19316	0.19949	0.24335	0.14192	0.18085	0.19304	0.064843	0.12709	0.01832	0.12386	0.098393	0.1999	0.0008149	0.18488	-2.6375	-3.6937	-3.2104	-3.5625	-3.5687	-3.0354	-3.8187	-3.6813	-3.2313	-3.6729	-3.2562	-3.3	-3.7271	-3.2062	-3.5083	-3.5458	369.411	253.282	338.723	181.373	275.006	477.174	498.357	511.237	379.339	313.423	519.858	198.681	466.828	210.730	180.000	204.189	0.00034014	0.00014283	9.3809e-05	1178.2	4.2071e-06	7.3324e-07	1230.9	232.77	2.8499e-06	3.5084e-06	291.72	80.96	64.028	18.011	3.5896e-06	25.67	0.00014033	0.0001232	3.7748e-05	1133.9	1.4352e-06	1.3368e-06	1194.1	226.15	1.4353e-06	1.3495e-06	279.92	79.159	60.342	17.762	1.5515e-06	25.384	176.525	327.065	335.528	184.356	262.761	360.786	184.248	190.993	277.371	390.189	191.038	197.215	197.248	205.521	285.619	205.019	-8191	255	
5258.292	1	1	0	0	0.14444	0.17041	0.12256	0.091269	0.15164	0.24399	0.37901	0.077778	0.27874	0.23098	0.10354	0.17501	0.13264	0.25816	0.18126	0.077015	-2.6937	-3.6542	-3.4542	-3.2458	-3.5958	-3.1937	-3.5229	-3.8333	-3.1125	-3.7042	-3.4458	-3.1771	-3.6396	-3.2229	-3.4917	-3.8104	294.437	493.423	379.569	476.405	231.501	513.831	462.420	218.535	530.809	377.207	472.760	483.753	378.855	208.090	478.415	476.550	0.00031602	0.00047657	8.3983e-05	1179.7	4.0964e-06	4.9441e-06	1232.2	233.79	2.0793e-06	2.6394e-06	291.53	81.297	64.118	18.087	1.118e-06	26.002	0.00013594	0.00012362	3.9628e-05	1134.3	1.4088e-06	1.3534e-06	1196.3	226.44	1.3623e-06	1.3652e-06	279.54	78.897	60.182	17.8	1.5339e-06	25.484	519.205	222.703	288.372	184.311	260.019	353.943	184.357	191.058	291.999	373.624	191.158	197.403	196.609	204.871	363.864	204.270	-8191	255	
5258.413	1	1	0	0	0.14656	0.12501	0.1477	0.093444	0.23075	0.18953	0.090384	0.11768	0.24068	0.097734	0.39974	0.017673	0.1938	0.23877	0.19814	0.11993	-2.6188	-3.625	-3.5521	-3.2875	-3.75	-3.2938	-3.3208	-3.6417	-3.0354	-3.5833	-3.4354	-3.2	-3.6688	-3.2729	-3.0958	-3.85	347.197	212.444	371.778	523.903	512.022	498.638	496.918	415.487	187.074	320.592	499.075	452.302	527.071	404.600	407.943	220.037	0.00034283	0.00044629	0.00013016	1180.2	1.4153e-06	4.4864e-06	1235.5	236.17	4.523e-06	2.1849e-06	290.52	81.033	64.175	18.118	2.2161e-06	25.612	0.00012902	0.00013201	3.9538e-05	1136.4	1.3508e-06	1.4314e-06	1194.7	226.94	1.3241e-06	1.4498e-06	279.79	79.279	60.043	17.821	1.4882e-06	25.425	518.151	265.631	268.041	184.344	290.807	377.739	184.355	191.080	311.477	364.810	191.102	197.200	197.147	205.106	313.109	204.430	-8191	255	
5258.509	1	1	0	0	0.24194	0.074957	0.25298	0.14233	0.16791	0.21657	0.25387	0.21549	0.37228	0.23473	0.095218	0.074452	0.1047	0.19149	0.16312	0.11128	-2.6688	-3.4083	-3.4521	-3.2167	-3.5604	-3.5417	-3.3063	-3.9042	-3.15	-3.5	-3.7729	-3.2083	-3.725	-3.4042	-3.075	-3.8125	512.106	432.442	184.463	494.472	520.123	420.289	491.542	181.322	180.776	404.265	241.447	406.509	457.258	263.304	368.919	469.015	0.00031502	0.00045063	0.00010964	1178.5	1.34e-06	7.4806e-06	1238.7	233.53	4.068e-06	2.0171e-06	291.09	81.835	64.639	18.195	3.5645e-06	26.008	0.00012596	0.00013325	3.792e-05	1136.1	1.3488e-06	1.5383e-06	1196.4	226.48	1.3912e-06	1.5213e-06	279.96	79.325	60.411	17.928	1.443e-06	25.461	527.549	204.139	305.614	184.296	300.655	262.242	184.092	191.004	291.207	425.267	190.919	197.618	196.556	204.874	319.679	204.663	-8191	255	
5258.605	1	1	0	0	0.10278	0.1388	0.013044	0.25823	0.26251	0.22313	0.3395	0.089908	0.20086	0.11237	0.2688	0.33881	0.048255	0.025193	0.033215	0.21472	-2.8396	-3.3104	-3.5146	-3.2208	-3.45	-3.5229	-3.2292	-3.7687	-3.1708	-3.3937	-3.8375	-3.2062	-3.5958	-3.4188	-3.0708	-3.6729	402.686	491.175	260.749	223.370	400.413	198.754	518.888	434.915	505.259	469.132	444.408	505.332	389.600	434.714	442.560	480.444	0.00034412	0.00025362	0.00010673	1190.6	1.4005e-06	2.3354e-06	1239.6	233.43	3.3613e-06	1.369e-06	289.41	81.573	64.213	18.162	2.2758e-06	25.739	0.00013034	0.00013749	3.5493e-05	1139.7	1.3547e-06	1.5086e-06	1198.7	226.33	1.3962e-06	1.5069e-06	279.39	79.377	60.655	17.907	1.4026e-06	25.414	528.024	273.238	275.815	184.340	344.293	488.205	183.778	191.303	285.504	293.845	190.899	196.930	196.153	205.361	278.867	204.553	-8191	255	
5258.701	1	1	0	0	0.075371	0.091729	0.24587	0.08233	0.28852	0.23806	0.2336	0.12638	0.25191	0.10142	0.25946	0.11425	0.28356	0.13627	0.14178	0.059574	-2.8208	-3.3146	-3.55	-3.2104	-3.6625	-3.5792	-3.3146	-3.8729	-3.2854	-3.2938	-3.825	-3.1542	-3.3729	-3.7875	-3.1667	-3.5812	476.680	355.099	422.665	461.016	388.128	522.631	450.429	497.821	524.035	367.133	395.284	358.961	232.336	283.192	411.233	381.456	0.00029096	0.00014788	3.044e-05	1184.4	8.5202e-07	4.5116e-06	1237.7	234.52	2.9209e-06	2.8829e-06	291	82.058	63.961	18.223	2.5278e-06	25.75	0.00013607	0.00014136	3.5892e-05	1137.3	1.5127e-06	1.5363e-06	1196.3	226.8	1.4997e-06	1.4862e-06	279.76	79.417	60.61	17.938	1.4125e-06	25.397	529.673	490.730	306.186	184.216	177.731	276.117	184.051	191.295	263.096	348.019	190.846	197.382	196.832	205.367	284.506	204.586	-8191	255	
5258.773	1	1	0	0	0.073164	0.17542	0.13835	0.25595	0.15816	0.23833	0.21906	0.20268	0.26301	0.02081	0.18122	0.077352	0.10774	0.15812	0.033383	0.1627	-2.9583	-3.1333	-3.5854	-3.2271	-3.4562	-3.6521	-3.2729	-3.7062	-3.4021	-3.2313	-3.7188	-3.3604	-3.4708	-3.5958	-2.9562	-3.7542	519.849	294.536	351.173	200.670	372.508	369.355	515.532	506.529	298.969	194.453	212.125	317.487	346.855	203.606	427.089	434.418	0.00031096	0.00019611	0.00015951	1183.7	2.7358e-06	1.7541e-06	1236	234.69	3.2764e-06	3.5601e-06	291.79	81.638	64.165	18.079	4.1452e-06	25.821	0.00014523	0.00013485	3.468e-05	1138.5	1.553e-06	1.4426e-06	1195.3	227.09	1.5499e-06	1.4641e-06	280.08	79.41	61.053	17.834	1.3484e-06	25.473	524.513	319.485	323.408	184.271	255.364	372.062	184.224	191.112	334.216	362.520	190.914	197.000	196.776	205.257	301.717	205.159	-8191	255	
5258.893	1	1	0	0	0.21053	0.10362	0.30242	0.087557	0.17111	0.060689	0.42461	0.11446	0.057502	0.22227	0.28076	0.10268	0.11161	0.1279	0.12029	0.26258	-3.2521	-2.9646	-3.7896	-3.4979	-3.4729	-3.7167	-3.0604	-3.6937	-3.4833	-3.3	-3.9125	-3.3646	-3.1813	-3.7417	-3.0729	-3.5	486.695	237.721	500.986	360.564	460.276	208.327	482.194	471.989	247.505	190.279	524.674	175.006	349.283	313.358	425.636	364.345	0.00034329	0.00050748	8.4909e-05	1184.9	2.2233e-06	4.0133e-06	1235.2	234.73	5.9753e-06	2.5676e-06	292.99	81.956	64.153	18.307	3.3456e-06	26.022	0.00014847	0.00012956	3.3845e-05	1140.6	1.5412e-06	1.3975e-06	1198.1	227.78	1.5383e-06	1.4204e-06	280.22	79.729	60.823	17.938	1.2903e-06	25.626	526.035	255.756	330.360	184.191	275.987	391.200	184.008	191.276	290.301	313.293	190.938	197.128	197.604	205.003	314.377	204.907	-8191	255	
5258.990	1	1	0	0	0.099847	0.29	0.24635	0.20328	0.020923	0.15597	0.084146	0.16224	0.091931	0.12532	0.21534	0.062107	0.10616	0.15147	0.21981	0.20004	-3.2146	-2.9583	-3.7042	-3.5042	-3.1375	-4.0062	-3.4229	-3.5042	-3.6312	-3.0604	-3.6042	-3.3333	-3.1833	-3.6354	-3.2604	-3.5417	449.689	273.622	321.950	472.382	467.923	264.676	179.551	200.015	175.566	249.492	429.647	375.186	381.255	415.958	486.655	476.456	0.000349	0.00024232	8.1515e-05	1182.7	2.6133e-06	7.8321e-06	1241.5	236.14	4.3142e-06	5.4965e-06	292.7	82.039	64.979	18.159	1.6446e-06	26.017	0.0001423	0.00012434	3.2727e-05	1139.1	1.4863e-06	1.3509e-06	1197.9	228.08	1.4788e-06	1.3491e-06	280.64	79.757	60.978	17.905	1.3297e-06	25.555	521.318	288.280	185.257	184.150	241.966	292.091	183.946	191.132	276.023	381.167	191.084	196.968	197.084	204.995	362.090	204.762	-8191	255	
5259.086	1	1	0	0	0.053353	0.20413	0.33381	0.21888	0.22503	0.11581	0.29813	0.19741	0.1298	0.1027	0.13615	0.18543	0.048527	0.084938	0.22794	0.20546	-3.1104	-3.0729	-3.5563	-3.4833	-3.0062	-3.8167	-3.4583	-3.3937	-3.65	-3.0438	-3.7104	-3.65	-3.0625	-3.8542	-3.2917	-3.4542	442.745	233.514	247.560	524.314	209.718	241.137	494.983	478.905	444.592	468.914	485.663	250.710	335.855	423.821	474.297	470.483	0.00032549	0.00033061	2.2228e-05	1185.8	2.3891e-06	3.1073e-06	1238.6	236.56	2.6527e-06	1.4276e-07	293.79	81.742	64.689	18.234	2.7184e-06	26.068	0.00013876	0.00012187	3.3799e-05	1141.3	1.4398e-06	1.3181e-06	1200	227.82	1.4208e-06	1.3346e-06	280.7	79.615	60.847	17.923	1.3779e-06	25.676	525.975	331.592	478.625	184.156	318.487	394.381	183.966	191.453	302.640	418.041	191.292	196.973	197.352	205.021	215.590	205.125	-8191	255	
5259.182	1	1	0	0	0.21075	0.21236	0.23708	0.16233	0.21614	0.12269	0.16734	0.093611	0.057579	0.15593	0.2581	0.070696	0.23366	0.11602	0.081902	0.19451	-3.3292	-2.9792	-3.6333	-3.7812	-2.9917	-3.6375	-3.6167	-3.2125	-3.6479	-3.0521	-3.5854	-3.7687	-3.1104	-3.7083	-3.4104	-3.2562	517.098	347.630	323.302	250.911	330.113	517.488	515.052	325.129	381.207	249.058	530.421	329.986	505.044	208.171	180.785	396.139	0.00034832	0.00015853	0.00017284	1186.7	4.065e-06	3.5945e-06	1239.4	236.37	5.3349e-07	4.1325e-06	292.75	82.215	65.246	18.313	2.0764e-06	25.988	0.00013198	0.00011595	3.454e-05	1142	1.3527e-06	1.2374e-06	1199.1	228.31	1.3447e-06	1.2545e-06	281.7	79.812	60.837	17.96	1.4732e-06	25.649	529.035	312.148	251.473	184.505	271.739	274.501	184.005	191.149	432.986	308.831	191.052	196.904	196.894	205.024	297.243	204.524	-8191	255	
5259.301	1	1	0	0	0.10617	0.16198	0.15265	0.29587	0.33616	0.049885	0.073039	0.38508	0.22128	0.15465	0.13077	0.1349	0.26739	0.073692	0.12588	0.35146	-3.4646	-2.9437	-3.3521	-3.6583	-3.1458	-3.6167	-3.6	-3.1667	-3.6437	-3.0646	-3.5354	-3.6292	-3.1625	-3.8333	-3.4083	-3.1854	189.722	377.560	482.802	513.261	405.231	510.102	490.811	193.382	364.376	192.614	173.874	434.481	464.127	247.061	413.803	399.419	0.00037735	0.00013445	0.0001103	1186.8	3.6067e-06	3.3695e-06	1243.3	236.36	3.9446e-06	2.5512e-06	293.19	82.113	64.584	18.292	3.1628e-06	26.076	0.00012874	0.00011887	3.7548e-05	1141.8	1.3612e-06	1.3019e-06	1201.4	228.48	1.3319e-06	1.2949e-06	281.33	79.676	60.543	17.994	1.5109e-06	25.629	521.801	302.193	305.301	184.140	278.986	288.590	183.905	191.137	358.339	266.030	190.830	196.678	196.956	204.690	299.401	204.789	-8191	255	
5259.374	1	1	0	0	0.1763	0.18468	0.11075	0.019501	0.15836	0.24152	0.15506	0.147	0.31927	0.17712	0.23092	0.15749	0.10494	0.34281	0.1363	0.10095	-3.2812	-3.3958	-3.3896	-3.925	-2.9813	-3.4958	-3.5875	-3.2021	-3.7438	-3.2208	-3.4271	-3.7271	-3.1	-3.5292	-3.4188	-3.1042	210.418	202.905	422.986	212.430	506.195	515.600	481.884	489.461	230.988	488.376	517.826	208.501	369.179	531.981	490.567	179.699	0.00039293	0.00046679	0.00014681	1186.6	2.4368e-06	3.8933e-06	1241.7	236.52	1.3215e-06	9.7711e-07	293.77	82.324	64.473	18.297	3.3772e-06	25.961	0.0001272	0.00012218	3.871e-05	1141.2	1.3143e-06	1.367e-06	1202	228.54	1.2996e-06	1.3813e-06	281.46	79.889	60.533	17.982	1.4578e-06	25.605	522.946	249.473	325.154	184.315	289.457	235.950	184.019	191.328	351.113	442.157	191.207	197.222	196.818	205.223	364.172	205.087	-8191	255	
5259.493	1	1	0	0	0.14293	0.16814	0.1562	0.20149	0.22223	0.15886	0.20667	0.47344	0.097073	0.046748	0.079605	0.10515	0.13883	0.085818	0.27981	0.10857	-3.4729	-3.2208	-3.2979	-3.7875	-3.1292	-3.5167	-3.9042	-3.2146	-3.6667	-3.3042	-3.3521	-3.7792	-3.3583	-3.4521	-3.6729	-3.1583	267.704	199.221	261.834	484.815	285.684	307.165	503.181	512.467	497.463	488.279	226.077	196.056	338.996	507.090	349.613	427.790	0.00033123	0.00017587	7.7078e-05	1188.5	2.333e-06	4.6484e-06	1241.2	236.58	4.6909e-06	2.9248e-06	292.38	82.299	64.775	18.37	1.0967e-06	26.166	0.00012447	0.00013201	3.7454e-05	1142.4	1.3262e-06	1.4285e-06	1202.8	228.6	1.308e-06	1.4899e-06	280.8	79.933	60.815	18.038	1.4683e-06	25.681	532.221	217.452	267.976	184.353	290.844	258.396	183.965	191.164	323.223	389.774	190.821	197.279	196.801	205.324	354.488	204.703	-8191	255	
5259.589	1	1	0	0	0.1444	0.2638	0.13918	0.44548	0.039507	0.14122	0.31607	0.32999	0.12093	0.4294	0.11057	0.077384	0.15842	0.16465	0.34927	0.066747	-3.5292	-3.3563	-3.2208	-4.0146	-3.0687	-3.4958	-3.6646	-3.0792	-3.7354	-3.5875	-3.05	-3.8167	-3.1792	-3.2458	-3.6917	-3.2854	186.874	346.466	235.768	177.707	507.196	442.463	507.627	489.340	298.677	519.564	491.298	428.451	418.442	526.944	271.604	516.537	0.00036914	0.00034281	7.7586e-06	1186.5	4.9545e-06	8.1942e-07	1245.1	235.58	2.4056e-06	1.1044e-06	295.8	82.497	64.44	18.306	4.8201e-06	25.955	0.00012599	0.00013483	3.6468e-05	1144.5	1.3745e-06	1.5078e-06	1202.5	228.34	1.3737e-06	1.5298e-06	282.02	79.858	60.901	18.01	1.4333e-06	25.586	525.740	314.185	176.563	184.291	260.704	271.282	183.863	191.327	204.508	375.931	190.940	197.349	196.673	205.476	318.539	204.482	-8191	255	
5259.685	1	1	0	0	0.05587	0.11315	0.091951	0.21429	0.21099	0.16032	0.18159	0.31784	0.067924	0.17738	0.13504	0.075011	0.2666	0.072275	0.10714	0.50265	-3.0271	-3.5396	-3.225	-3.8229	-3.175	-3.3375	-3.7812	-3.2354	-3.5458	-3.5938	-3.1917	-3.6479	-3.1417	-3.1875	-3.825	-3.1417	207.636	503.288	279.605	180.870	303.744	500.954	484.318	483.240	360.705	446.048	402.450	423.513	429.781	199.606	188.999	485.822	0.00030344	0.00029917	0.00012368	1188.6	3.9348e-06	1.923e-06	1244.6	237.45	3.448e-06	9.6906e-07	295.04	82.541	64.912	18.364	4.4236e-06	26.057	0.00013264	0.00013757	3.6111e-05	1144.6	1.4546e-06	1.488e-06	1202.3	228.85	1.4627e-06	1.4586e-06	282.41	79.934	60.911	17.998	1.358e-06	25.566	527.383	310.327	283.461	184.440	263.256	263.623	183.995	191.325	282.300	341.122	191.211	197.321	196.896	205.249	307.454	204.402	-8191	255	
5259.781	1	1	0	0	0.19244	0.21992	0.24243	0.23502	0.051857	0.10523	0.31282	0.19655	0.20827	0.14972	0.022681	0.18035	0.10524	0.090886	0.046512	0.14724	-3.1083	-3.6875	-3.1667	-3.7667	-3.4667	-3.4313	-3.8	-3.2583	-3.3375	-3.5958	-3.0812	-3.7042	-3.4167	-3.2021	-3.8833	-3.2042	438.941	194.553	362.535	487.633	520.099	423.374	489.161	531.011	463.953	443.074	325.133	219.476	507.026	355.324	379.217	475.218	0.00033883	0.00014655	8.6144e-05	1186.2	2.2268e-06	2.4049e-06	1244	238.19	2.7587e-06	2.3108e-06	292.56	82.418	65.136	18.278	3.0494e-06	26.119	0.00013868	0.00013015	3.395e-05	1142.6	1.4957e-06	1.399e-06	1203.2	229.1	1.472e-06	1.395e-06	281.29	79.98	61.136	18.005	1.3151e-06	25.65	528.276	312.153	262.971	184.337	195.687	278.099	183.969	191.377	274.534	425.159	191.320	197.186	196.377	205.004	324.313	204.552	-8191	255	
5259.902	1	1	0	0	0.1371	0.20145	0.26479	0.30581	0.11214	0.23626	0.18496	0.30069	0.093824	0.21253	0.18155	0.25869	0.092941	0.20979	0.037856	0.19128	-2.8833	-3.6937	-3.0542	-3.6146	-3.4396	-3.1167	-3.8792	-3.1104	-3.3146	-3.6521	-2.8146	-3.675	-3.5812	-3.0312	-3.8583	-3.4437	507.584	362.760	199.324	530.080	345.173	438.082	501.228	453.024	287.023	527.160	517.738	450.466	401.070	199.257	476.816	228.457	0.00036152	0.00047036	7.6307e-05	1189	4.8511e-06	1.9592e-06	1241.4	235.99	2.1608e-06	4.9582e-06	293.54	82.669	65.314	18.305	2.2736e-06	25.956	0.00014405	0.00012802	3.3511e-05	1144.4	1.532e-06	1.419e-06	1202.5	228.57	1.5178e-06	1.4048e-06	281.27	80.144	61.234	18.036	1.3025e-06	25.666	173.571	302.290	268.181	184.429	256.168	289.778	184.137	191.119	325.415	352.314	190.962	197.248	196.679	205.160	388.729	205.123	-8191	255	
5259.974	1	1	0	0	0.13924	0.20761	0.010634	0.11021	0.09349	0.06925	0.25371	0.1747	0.22652	0.12051	0.037792	0.060274	0.19735	0.10309	0.084164	0.15515	-3.0438	-3.6729	-3.1146	-3.6188	-3.5292	-3.0229	-3.8542	-3.5708	-3.1271	-3.775	-3.1604	-3.6208	-3.7125	-2.9875	-3.5312	-3.4229	198.286	444.008	264.627	183.213	187.098	519.568	392.624	456.185	258.894	207.302	283.160	433.593	418.220	529.083	306.724	524.592	0.00033198	0.00042053	9.0799e-05	1186.7	2.2031e-06	5.1333e-06	1245.4	236.97	1.917e-06	2.7025e-06	293.12	82.412	64.723	18.343	4.7154e-06	26.091	0.00014299	0.00012814	3.3135e-05	1142	1.5203e-06	1.3852e-06	1202.3	228.99	1.5391e-06	1.4158e-06	281.38	80.234	61.117	18.026	1.3887e-06	25.783	517.795	217.508	368.269	184.472	288.815	355.035	184.051	191.047	369.286	431.676	190.704	196.823	196.525	205.059	303.063	204.267	-8191	255	
5260.094	1	1	0	0	0.27057	0.03254	0.11071	0.20614	0.27799	0.13002	0.22242	0.4154	0.053343	0.10902	0.17478	0.11706	0.10666	0.13102	0.18886	0.27516	-2.8187	-3.7188	-3.0917	-3.4667	-3.5771	-3.2313	-3.8583	-3.5333	-3.1208	-3.7667	-3.2917	-3.25	-3.5438	-3.0208	-3.575	-3.4938	276.652	173.260	185.173	462.733	372.787	374.537	468.895	479.372	443.443	507.728	314.179	207.004	364.993	174.231	468.108	465.202	0.00038948	0.00020163	3.2183e-05	1189	2.326e-06	2.9451e-06	1242.1	237.26	2.5188e-06	4.5699e-08	295.36	82.088	63.81	18.298	1.4774e-06	25.982	0.00014377	0.0001268	3.5207e-05	1144.4	1.5281e-06	1.4109e-06	1201.5	229.78	1.5478e-06	1.4138e-06	282.47	80.125	60.815	18.01	1.506e-06	25.79	531.672	201.021	299.732	184.308	288.340	342.174	184.175	190.840	335.924	174.326	191.087	197.254	197.100	205.009	354.224	204.461	-8191	255	
5260.191	1	1	0	0	0.05983	0.096786	0.35021	0.27071	0.33696	0.16724	0.40999	0.28085	0.22885	0.1555	0.41448	0.08145	0.21137	0.24744	0.23348	0.10636	-2.6104	-3.7042	-3.2167	-3.45	-3.725	-2.8875	-3.8854	-3.5521	-3.1396	-3.7188	-3.4333	-3.4708	-3.7	-3.2	-3.6083	-3.7979	214.633	230.243	336.211	472.712	401.444	437.295	396.412	515.583	206.841	273.821	190.049	178.251	421.998	198.005	460.769	185.475	0.00031832	0.00047322	0.00018596	1188.2	1.7975e-06	3.0573e-06	1244.1	235.67	9.1647e-07	5.0566e-06	292.8	82.124	64.86	18.207	4.949e-06	25.954	0.00014406	0.00012735	3.8769e-05	1143.4	1.5055e-06	1.4077e-06	1202.6	229.21	1.4834e-06	1.3886e-06	282.13	80.284	61.083	17.969	1.5951e-06	25.714	525.812	282.660	239.596	184.325	209.996	370.730	184.319	191.078	383.050	363.386	190.987	197.392	197.068	205.091	313.417	204.880	-8191	255	
5260.285	1	1	0	0	0.21731	0.15865	0.072098	0.45742	0.18129	0.10029	0.36343	0.066696	0.10772	0.029222	0.12355	0.15654	0.04245	0.079332	0.037634	0.11255	-2.6312	-3.6333	-3.4062	-3.2729	-3.7042	-3.25	-3.6562	-3.725	-2.9958	-3.7646	-3.4875	-3.2687	-3.7646	-3.3583	-3.7271	-3.6646	295.960	331.296	424.934	460.672	447.742	493.610	484.326	231.881	289.401	408.356	459.316	430.899	183.184	522.076	499.684	382.906	0.00033818	0.00023643	0.00013262	1194.1	1.5363e-06	2.8514e-06	1250.1	237.48	6.1344e-06	1.6946e-06	294.83	82.331	64.672	18.269	2.9709e-06	26.116	0.00014217	0.00012841	4.0789e-05	1146.7	1.5085e-06	1.4304e-06	1207.4	229.88	1.4261e-06	1.3874e-06	282.66	80.121	60.954	17.956	1.5921e-06	25.747	516.768	219.571	253.195	184.301	340.485	316.326	184.072	191.196	277.390	241.115	190.951	196.950	197.234	204.618	460.889	204.594	-8191	255	
5260.381	1	1	0	0	0.13113	0.18565	0.17134	0.2208	0.14796	0.10391	0.16444	0.22753	0.17318	0.12508	0.1744	0.35111	0.18933	0.22861	0.087823	0.23416	-2.6188	-3.5062	-3.3958	-3.2729	-3.8292	-3.2458	-3.5438	-3.5875	-3.2792	-3.6333	-3.6708	-3.3042	-3.7896	-3.3771	-3.3625	-3.7458	259.380	480.403	296.321	468.967	466.546	352.489	435.130	469.797	426.413	278.567	452.733	201.738	243.625	468.196	397.956	342.124	0.00035219	0.00041763	7.6614e-05	1194	1.8756e-06	2.9126e-06	1247.5	238.86	2.7744e-06	3.7709e-06	294.3	82.776	64.623	18.305	3.1737e-06	26.053	0.00013199	0.0001278	3.9592e-05	1147.1	1.3611e-06	1.3811e-06	1208.5	230	1.3812e-06	1.4377e-06	282.99	80.275	60.886	18.071	1.5746e-06	25.647	518.307	210.039	229.546	184.472	290.096	329.540	183.949	191.076	273.193	270.998	191.035	197.020	196.837	205.051	263.022	204.573	-8191	255	
5260.477	1	1	0	0	0.10434	0.13009	0.11024	0.14321	0.15466	0.36584	0.40499	0.31887	0.10721	0.099276	0.25557	0.18535	0.048971	0.05536	0.16562	0.056074	-2.5521	-3.5104	-3.5187	-3.2	-3.6604	-3.3792	-3.4333	-3.8146	-3.0875	-3.4333	-3.6458	-3.1333	-3.75	-3.2812	-3.4542	-3.7438	294.433	248.379	269.244	490.590	344.954	468.612	419.442	455.458	350.835	351.309	517.941	436.403	506.974	245.522	315.439	487.023	0.00040048	0.00022177	4.0461e-05	1188.3	3.2138e-06	2.21e-06	1245	235.75	6.9055e-07	1.6987e-06	293.06	82.545	65.469	18.248	6.5515e-07	25.869	0.00012691	0.0001323	3.7986e-05	1145.3	1.3425e-06	1.4714e-06	1206.5	229.25	1.3681e-06	1.5097e-06	282.11	80.12	60.997	18.076	1.5156e-06	25.701	526.591	268.973	371.921	184.318	270.593	290.152	183.911	191.288	338.458	361.393	190.896	197.135	196.830	205.143	351.990	204.573	-8191	255	
5260.598	1	1	0	0	0.27535	0.083847	0.075008	0.15274	0.20394	0.25504	0.39811	0.16876	0.14153	0.065492	0.16076	0.022035	0.10881	0.1041	0.11254	0.0057483	-2.7958	-3.25	-3.5375	-3.2771	-3.6479	-3.2812	-3.2479	-3.7542	-3.2083	-3.2958	-3.6542	-3.1646	-3.7438	-3.4813	-3.0833	-3.9125	266.077	403.452	443.427	477.894	313.066	363.436	491.149	513.080	350.294	328.458	414.001	494.036	462.713	468.794	397.215	479.997	0.00036039	0.00031578	9.8198e-05	1191.4	1.9854e-06	1.0248e-06	1242.2	238.01	2.6066e-06	2.166e-06	293.84	82.291	65.24	18.225	1.0535e-06	26.014	0.00013056	0.00014003	3.6609e-05	1144.5	1.3893e-06	1.5392e-06	1204.1	229.76	1.3922e-06	1.5463e-06	282.28	79.913	61.185	18.059	1.4841e-06	25.633	530.195	196.406	354.080	184.086	259.673	176.134	184.109	191.460	277.412	242.173	190.631	197.040	196.626	205.183	264.337	204.390	-8191	255	
5260.670	1	1	0	0	0.15749	0.24279	0.11317	0.12919	0.22927	0.077428	0.38657	0.053898	0.057841	0.16475	0.37384	0.17404	0.11083	0.30046	0.24677	0.12271	-2.8312	-3.1458	-3.5208	-3.1625	-3.4542	-3.4688	-3.2896	-3.5646	-3.2333	-3.3021	-3.7479	-3.1312	-3.4771	-3.7104	-3.1667	-3.8479	399.858	349.016	256.773	442.409	239.033	306.253	528.770	341.662	437.073	522.822	528.442	174.988	472.376	511.882	467.623	473.235	0.00032983	0.00018662	0.00012441	1191.2	6.9347e-07	3.7742e-06	1246.1	235.72	2.2079e-06	2.8964e-06	293.63	82.248	64.883	18.501	3.5062e-06	26.069	0.00014217	0.00014654	3.7589e-05	1144.5	1.526e-06	1.6339e-06	1205	228.9	1.604e-06	1.6386e-06	282.22	80.154	61.311	18.103	1.4963e-06	25.673	514.688	222.863	265.450	184.391	474.199	313.050	183.943	191.084	299.068	336.281	190.908	197.089	196.791	205.599	318.959	204.706	-8191	255	
5260.766	1	1	0	0	0.070299	0.16288	0.21855	0.20092	0.038062	0.17378	0.24402	0.036008	0.14894	0.10913	0.18041	0.038016	0.20472	0.12004	0.06833	0.34686	-2.9521	-3.2958	-3.7708	-3.1646	-3.6625	-3.5854	-3.2375	-3.7062	-3.4354	-3.3042	-3.8708	-3.0792	-3.4979	-3.6542	-2.9542	-3.7417	377.691	385.953	465.640	459.177	195.359	282.129	481.746	449.045	174.242	462.491	201.873	530.896	234.346	229.704	431.115	498.791	0.00031392	0.00022933	9.4777e-05	1186.8	3.5405e-06	5.226e-06	1246.8	237.74	2.4938e-06	2.6521e-06	296.55	82.982	64.891	18.277	3.2399e-06	26.129	0.00015339	0.00014784	3.7737e-05	1142.4	1.6875e-06	1.6155e-06	1202.3	229.51	1.7283e-06	1.6371e-06	282.72	80.239	61.487	18.034	1.5139e-06	25.735	176.550	253.057	338.559	184.312	238.747	319.675	184.149	191.055	278.104	331.708	191.241	196.899	196.410	205.109	443.533	204.718	-8191	255	
5260.862	1	1	0	0	0.13632	0.13285	0.10451	0.31281	0.15923	0.14779	0.19617	0.15475	0.17336	0.018604	0.055747	0.18727	0.10589	0.24661	0.14202	0.052773	-2.9	-3.1354	-3.8688	-3.4333	-3.35	-3.6646	-3.175	-3.7583	-3.4437	-3.275	-3.7771	-3.2083	-3.3458	-3.6625	-3.2062	-3.6104	211.196	295.986	444.390	459.695	268.956	403.463	441.381	415.974	365.426	517.656	203.565	195.658	369.264	213.970	438.818	422.511	0.0002618	0.00033199	0.00011053	1187.1	9.8669e-07	8.034e-06	1248.4	236.41	3.8115e-06	1.7453e-06	296.45	82.369	64.999	18.334	3.4841e-06	26.063	0.00016254	0.0001454	3.75e-05	1144.3	1.6754e-06	1.5167e-06	1203.8	229.57	1.6321e-06	1.4654e-06	282.76	80.091	61.434	18.034	1.3651e-06	25.69	519.596	244.627	332.947	184.287	354.226	305.042	184.078	191.470	293.693	317.866	191.077	197.221	196.899	204.908	340.300	204.297	-8191	255	
5260.982	1	1	0	0	0.086081	0.16913	0.1296	0.22096	0.051333	0.20689	0.42941	0.30549	0.15179	0.15474	0.15982	0.046674	0.043253	0.20172	0.15008	0.094801	-3.1562	-2.9667	-3.7479	-3.3479	-3.3438	-3.5458	-3.3063	-3.5438	-3.7458	-3.0458	-3.9375	-3.3708	-3.2896	-3.7938	-3.2479	-3.3792	432.068	240.046	258.994	496.111	344.007	526.332	523.751	455.076	359.190	232.774	526.628	528.198	416.321	522.643	374.259	211.415	0.00030215	0.00047549	9.4231e-05	1188	1.3612e-06	4.3646e-06	1242.2	237.08	2.3648e-06	1.2257e-06	294.13	82.468	64.834	18.493	9.3751e-07	26.308	0.00014722	0.00012893	3.3597e-05	1144	1.533e-06	1.3877e-06	1202.2	230	1.4992e-06	1.3578e-06	282.11	80.355	61.209	18.08	1.334e-06	25.748	531.397	238.611	258.574	184.169	282.509	329.278	183.941	191.152	249.413	308.841	191.443	196.773	196.883	204.767	267.216	204.655	-8191	255	
5261.079	1	1	0	0	0.17339	0.14042	0.15248	0.013635	0.028901	0.15029	0.24936	0.09379	0.15716	0.21127	0.38545	0.18798	0.2169	0.085798	0.21004	0.10889	-3.2375	-3.0563	-3.6417	-3.5292	-3.1688	-3.6896	-3.3625	-3.2833	-3.7354	-2.9938	-3.7458	-3.4938	-3.1292	-3.8667	-3.2417	-3.3542	315.780	259.117	392.406	431.858	525.973	456.016	495.343	364.916	266.792	458.174	505.484	245.795	487.546	417.360	508.490	525.503	0.00034877	0.00017186	8.5065e-05	1188.4	3.4597e-06	4.135e-06	1241.9	237.73	9.3436e-07	2.677e-06	295.24	82.786	65.245	18.301	5.8637e-06	26.209	0.00013819	0.00012364	3.3008e-05	1143.1	1.4353e-06	1.2932e-06	1202.9	229.96	1.4206e-06	1.3327e-06	282.3	80.314	61.155	17.969	1.3791e-06	25.828	526.588	251.652	286.779	184.464	262.408	313.928	184.051	191.696	324.627	391.917	190.969	196.801	197.372	205.544	236.775	204.698	-8191	255	
5261.175	1	1	0	0	0.072185	0.12449	0.021417	0.15472	0.20615	0.39134	0.14809	0.30785	0.033074	0.021331	0.17595	0.32549	0.054831	0.22847	0.042049	0.14108	-3.2792	-3.0042	-3.4875	-3.4938	-3.1333	-3.6875	-3.4292	-3.3771	-3.7313	-3.0854	-3.625	-3.3604	-3.1396	-3.6458	-3.4521	-3.2417	512.249	304.305	495.995	498.571	528.083	448.229	454.315	275.716	321.320	296.687	431.720	456.955	297.347	180.157	331.767	415.576	0.00033208	0.00026523	6.9259e-05	1193.2	2.8909e-06	4.1627e-06	1240	236.68	5.66e-06	2.6264e-06	294.24	82.051	65.037	18.423	2.8294e-06	26.118	0.00013442	0.00011964	3.4944e-05	1144.6	1.4018e-06	1.3338e-06	1201.4	229.44	1.4161e-06	1.3536e-06	282.81	80.133	60.993	18.005	1.5928e-06	25.76	175.486	255.136	277.708	184.279	267.045	359.738	184.209	191.340	290.788	359.756	191.049	196.985	196.009	205.277	389.889	204.289	-8191	255	
5261.271	1	1	0	0	0.1023	0.25267	0.11181	0.1883	0.17003	0.10303	0.2313	0.30889	0.18703	0.070453	0.23037	0.30869	0.10063	0.12233	0.089398	0.17923	-3.2167	-2.8438	-3.4938	-3.7167	-3.0438	-3.6604	-3.4313	-3.4313	-3.6063	-3.1917	-3.475	-3.8479	-3.1354	-3.7083	-3.4458	-3.2562	355.807	502.508	256.187	516.044	325.068	204.945	516.498	466.915	248.643	466.518	228.115	352.706	205.882	242.260	249.163	528.838	0.00035349	0.00053872	5.3681e-05	1192.5	4.0711e-06	3.4088e-06	1243.8	237.32	1.401e-06	6.3557e-06	293.37	81.82	64.521	18.229	1.801e-06	26.234	0.00014431	0.00012939	4.1331e-05	1147	1.5681e-06	1.4244e-06	1202.1	229.96	1.5205e-06	1.4892e-06	282.98	80.093	60.803	18.016	1.7352e-06	25.796	524.937	206.440	292.153	184.372	264.907	347.104	183.953	191.206	247.342	361.593	191.106	196.860	197.199	205.733	270.542	204.633	-8191	255	
5261.365	1	1	0	0	0.23565	0.1546	0.095153	0.10309	0.43469	0.036807	0.36437	0.37895	0.2828	0.27445	0.051615	0.17677	0.057821	0.17123	0.18777	0.028992	-3.4938	-3.3	-3.3354	-3.6792	-3.0062	-3.6937	-3.6021	-3.3854	-3.7062	-3.2646	-3.2104	-3.6937	-3.1146	-3.5792	-3.4875	-3.15	366.565	458.085	302.746	496.337	270.338	286.410	431.454	453.456	275.101	380.600	220.967	465.585	496.399	491.386	348.145	358.816	0.00029338	0.00028416	0.00010539	1194.6	3.3071e-06	1.0929e-06	1244.1	237.46	4.5925e-06	4.4797e-07	296.45	82.487	64.662	18.294	2.0906e-06	25.985	0.00014667	0.00014112	4.4284e-05	1147	1.5333e-06	1.5605e-06	1207	229.91	1.5195e-06	1.5762e-06	284.65	80.193	61.091	18.067	1.7265e-06	25.708	530.072	286.627	269.563	184.109	233.162	231.713	184.084	191.152	294.032	252.874	190.970	197.397	196.967	205.279	368.121	204.449	-8191	255	
5261.463	1	1	0	0	0.10819	0.10174	0.19088	0.31846	0.045916	0.22415	0.15228	0.10378	0.1447	0.3518	0.043354	0.1757	0.16784	0.095707	0.19913	0.14345	-3.3271	-3.3208	-3.3021	-3.9583	-3.1333	-3.4688	-3.6937	-3.0979	-3.7104	-3.275	-3.2417	-3.8375	-3.2229	-3.3438	-3.4667	-3.1083	334.761	225.177	183.700	496.214	244.488	202.839	456.267	510.991	447.454	295.410	387.137	399.723	268.812	274.448	498.764	332.461	0.00031232	4.84e-05	0.00014436	1192	3.4427e-06	3.3083e-06	1245	237.68	3.6297e-06	2.7499e-06	292.59	81.681	64.25	18.154	3.6168e-06	25.862	0.00014517	0.00014876	4.2552e-05	1145.8	1.5367e-06	1.667e-06	1207.1	230.33	1.5404e-06	1.7264e-06	283.32	79.972	61.111	18.078	1.6899e-06	25.646	515.965	198.478	269.389	184.310	258.343	300.031	184.056	191.191	275.462	342.627	191.153	197.074	196.543	204.979	328.488	204.771	-8191	255	
5261.582	1	1	0	0	0.15438	0.22916	0.37351	0.1088	0.21371	0.1341	0.1193	0.26952	0.24206	0.26061	0.05405	0.031511	0.33526	0.2157	0.091325	0.18472	-3.2271	-3.3083	-3.1792	-3.8333	-3.1896	-3.4167	-3.8125	-3.1333	-3.6271	-3.3646	-3.2125	-3.7812	-3.1312	-3.4562	-3.5938	-3.125	221.185	484.448	313.101	419.498	294.672	345.655	425.638	190.718	264.291	476.317	386.783	501.898	482.201	435.522	530.886	232.669	0.0004267	0.00020537	0.00013965	1191.8	2.0469e-06	1.4898e-06	1252.1	238.17	1.2587e-06	3.2075e-06	296.81	82.422	64.588	18.194	4.4342e-06	26.112	0.0001429	0.00015702	4.2404e-05	1148.3	1.516e-06	1.7521e-06	1208.9	230.58	1.5892e-06	1.7764e-06	284.13	80.304	61.336	18.091	1.6644e-06	25.683	528.831	499.488	286.721	184.484	260.286	266.361	184.230	191.273	246.848	297.940	191.208	197.174	196.679	205.150	342.354	204.716	-8191	255	
5261.678	1	1	0	0	0.18636	0.044981	0.11262	0.13829	0.27411	0.20068	0.23437	0.25507	0.060147	0.2364	0.16265	0.31942	0.093356	0.14315	0.24641	0.23646	-3.2167	-3.4417	-3.1688	-3.725	-3.1312	-3.425	-3.8646	-3.225	-3.5375	-3.5187	-3.3438	-3.8375	-3.425	-3.3208	-3.7167	-3.2438	490.945	410.502	530.440	497.619	337.311	352.693	491.553	449.741	496.174	270.920	336.930	492.814	505.238	433.422	175.684	519.225	0.0003435	0.00053531	0.00018443	1195.2	2.2101e-06	2.5824e-06	1250.2	238.43	4.3861e-06	3.8749e-06	292.28	82.413	64.715	18.175	4.198e-06	26.072	0.00015209	0.00016124	4.156e-05	1151.2	1.636e-06	1.7685e-06	1209.2	230.73	1.6951e-06	1.7664e-06	283.5	80.182	61.703	18.094	1.6696e-06	25.75	520.393	289.086	330.152	184.148	274.224	372.760	184.208	190.984	282.742	306.133	191.060	196.958	196.395	205.042	340.050	204.556	-8191	255	
5261.774	1	1	0	0	0.2013	0.054844	0.10227	0.032325	0.088847	0.22529	0.35212	0.33629	0.026842	0.051887	0.13872	0.15987	0.14841	0.22707	0.043043	0.062072	-3.1229	-3.6146	-3.1167	-3.8083	-3.275	-3.2729	-3.9146	-3.0229	-3.4042	-3.7396	-3.3271	-3.6479	-3.325	-3.2458	-3.5833	-3.2	203.679	389.373	491.227	444.610	324.598	237.138	485.605	445.966	345.175	295.927	397.784	249.731	412.965	227.883	239.185	291.437	0.00033417	0.0003658	0.00013103	1196.1	1.8628e-06	3.3419e-07	1250.2	238.88	2.3198e-06	4.2271e-06	295.95	82.623	64.999	18.323	1.8175e-06	25.961	0.00016748	0.00016125	4.1826e-05	1152.9	1.7897e-06	1.721e-06	1212.2	230.73	1.7997e-06	1.725e-06	284.18	80.387	61.828	18.132	1.5742e-06	25.687	526.841	280.450	267.998	184.374	267.754	389.163	184.154	191.103	274.584	411.892	190.861	197.153	196.860	205.103	261.011	204.503	-8191	255	
5261.895	1	1	0	0	0.085491	0.18083	0.10959	0.33032	0.15731	0.14822	0.21992	0.38165	0.041553	0.0093553	0.22728	0.11295	0.16769	0.24826	0.11549	0.15612	-2.8688	-3.6146	-3.0854	-3.7917	-3.3917	-3.2708	-3.9521	-3.2354	-3.2979	-3.775	-3.0583	-3.7625	-3.5479	-3.1875	-3.7042	-3.2188	520.280	498.393	483.535	487.644	441.154	336.648	502.150	485.457	329.256	491.300	497.932	474.046	480.029	401.136	211.183	472.644	0.00035563	0.00036591	0.00010631	1195.8	2.5882e-06	3.9018e-06	1247.8	239.07	1.3768e-06	2.8456e-06	296.2	82.732	65.045	18.299	3.9746e-06	26.015	0.00016825	0.00015243	3.9875e-05	1154.7	1.7884e-06	1.6856e-06	1213.6	231.58	1.8118e-06	1.6828e-06	284.56	80.632	61.972	18.151	1.5795e-06	25.776	527.792	259.942	328.286	184.232	307.710	243.945	183.880	191.085	366.866	322.647	190.839	197.387	196.857	204.951	305.717	204.812	-8191	255	
5261.967	1	1	0	0	0.23362	0.12871	0.24358	0.063679	0.1569	0.27533	0.11704	0.15935	0.16993	0.24089	0.1263	0.095749	0.1582	0.1058	0.098777	0.015526	-2.8667	-3.6417	-3.2104	-3.5792	-3.5896	-3.1083	-3.9104	-3.325	-3.2188	-3.7229	-3.1437	-3.5396	-3.5708	-3.3396	-3.5812	-3.2812	476.636	222.285	437.689	289.405	493.661	526.679	467.748	472.772	298.954	453.974	492.512	512.117	197.290	389.276	413.559	498.376	0.00038313	0.00013976	8.1467e-05	1202.4	1.3888e-06	7.912e-06	1255.1	238.54	3.6361e-06	4.0334e-06	296.3	82.418	65.201	18.333	1.5955e-06	26.293	0.00016966	0.0001512	4.0222e-05	1157.9	1.7916e-06	1.6395e-06	1214.3	231.5	1.7822e-06	1.6012e-06	283.93	80.684	61.681	18.087	1.5322e-06	25.81	517.637	380.601	260.325	184.290	191.219	282.604	183.986	191.024	292.295	346.888	190.958	196.882	196.879	205.065	236.472	204.846	-8191	255	
5262.061	1	1	0	0	0.096395	0.21066	0.086669	0.10106	0.16936	0.058938	0.15429	0.079534	0.14606	0.094129	0.2295	0.3914	0.16894	0.12987	0.11803	0.023539	-2.7104	-3.5312	-3.125	-3.4688	-3.6375	-3.0083	-3.7896	-3.3333	-3.225	-3.6813	-3.1854	-3.5458	-3.7125	-3.1125	-3.5687	-3.3417	249.219	439.409	403.228	199.597	261.613	532.326	491.956	500.188	318.835	418.845	250.165	442.415	498.553	525.546	295.267	305.957	0.00031075	0.00044222	0.00013604	1202.3	2.2708e-06	7.7823e-07	1252.7	237.45	1.8978e-06	2.3866e-06	296.84	82.575	65.258	18.219	2.7198e-06	26.074	0.0001642	0.000145	3.8818e-05	1157.8	1.7005e-06	1.5681e-06	1213.8	231.67	1.6656e-06	1.5244e-06	284.23	80.585	61.57	18.033	1.5556e-06	25.784	530.631	235.722	287.294	184.489	242.795	264.806	183.885	191.031	313.983	404.707	190.721	197.131	197.103	204.783	283.258	204.371	-8191	255	
5262.157	1	1	0	0	0.14312	0.11816	0.12914	0.12153	0.20674	0.11275	0.28685	0.19007	0.037793	0.16872	0.090415	0.13485	0.14955	0.10129	0.10926	0.25863	-2.8792	-3.6937	-3.2938	-3.3375	-3.5938	-2.875	-3.8229	-3.6042	-3.1875	-3.7687	-3.2875	-3.4771	-3.775	-3.1958	-3.6042	-3.4771	511.422	505.794	212.773	434.105	401.607	513.538	447.013	480.127	196.062	254.278	187.180	179.833	506.323	244.643	487.200	488.621	0.00032768	0.00010892	9.5165e-05	1197.9	2.8345e-06	1.4742e-06	1257.8	239.8	3.8218e-06	2.2568e-06	294.84	83.099	64.999	18.282	3.7901e-06	26.256	0.00015525	0.00013836	3.9751e-05	1156.9	1.6307e-06	1.4871e-06	1214.1	231.73	1.5933e-06	1.4459e-06	283.94	80.872	61.3	17.997	1.6108e-06	25.839	528.961	295.624	355.428	184.329	229.467	197.665	184.126	191.420	245.356	447.806	190.845	197.165	197.292	205.329	332.786	204.610	-8191	255	
5262.278	1	1	0	0	0.1288	0.12162	0.22359	0.24043	0.38888	0.11645	0.41418	0.086795	0.18894	0.1219	0.27797	0.25856	0.13654	0.24296	0.067843	0.024847	-2.6354	-3.9542	-3.3354	-3.3354	-3.5229	-3.0938	-3.5938	-3.4437	-3.0292	-3.6667	-3.4146	-3.1521	-3.6083	-3.3479	-3.2875	-3.6521	399.933	410.153	502.492	482.851	442.159	452.178	432.718	176.601	305.995	207.786	220.703	173.256	508.810	243.687	336.975	185.568	0.00034364	0.0002061	8.8504e-05	1203.6	1.559e-06	2.9903e-06	1253	238.98	4.0388e-06	3.6884e-06	295.84	82.088	64.904	18.297	4.9084e-06	26.149	0.00014849	0.00013159	4.0847e-05	1156.5	1.5375e-06	1.4628e-06	1212.7	231.69	1.5219e-06	1.4402e-06	284.4	80.399	61.339	18.035	1.6628e-06	25.718	528.483	488.382	271.909	184.313	322.278	295.357	184.087	191.121	275.833	317.886	191.140	197.636	197.172	204.815	352.325	204.483	-8191	255	
5262.374	1	1	0	0	0.10882	0.2466	0.20515	0.15415	0.064479	0.23406	0.078623	0.07486	0.16138	0.061847	0.15826	0.10566	0.1582	0.093383	0.25502	0.081583	-2.6271	-3.6083	-3.3729	-3.2604	-3.7479	-3.1646	-3.5021	-3.6354	-2.9604	-3.4854	-3.5812	-3.1521	-3.6896	-3.0667	-3.4396	-3.6646	246.530	271.268	373.512	376.755	480.891	181.054	501.631	509.324	349.703	373.445	386.251	179.367	385.649	248.388	366.378	318.724	0.00034178	0.00018109	0.00011258	1192.6	1.1568e-06	4.5455e-06	1251	239.03	3.2182e-06	2.6691e-06	297.35	82.513	64.344	18.281	2.9278e-06	25.943	0.00014309	0.00013126	4.1518e-05	1152.3	1.4841e-06	1.4754e-06	1211.4	230.95	1.4417e-06	1.4567e-06	284.77	80.467	60.835	18.079	1.6595e-06	25.688	517.086	188.886	278.291	184.528	302.475	185.399	184.146	190.957	306.073	323.186	191.013	197.031	196.758	205.206	259.162	204.991	-8191	255	
5262.470	1	1	0	0	0.12914	0.13809	0.26157	0.28926	0.20528	0.14525	0.19101	0.12458	0.18242	0.025728	0.061765	0.24047	0.089046	0.020201	0.10597	0.31348	-2.7167	-3.6521	-3.4729	-3.4354	-3.75	-3.3625	-3.3042	-3.8854	-3.2229	-3.6229	-3.6458	-3.1625	-3.6813	-3.4313	-3.2979	-3.9104	511.660	278.911	430.360	529.850	298.787	230.626	480.060	459.181	217.543	291.402	408.748	344.968	497.294	333.306	209.676	454.832	0.00034773	0.00020748	4.128e-05	1193.4	2.2724e-06	4.1169e-06	1246.9	237.76	2.0876e-06	3.6484e-06	293.12	82.037	64.975	18.265	1.521e-06	26.244	0.0001375	0.0001413	4.069e-05	1150.8	1.4184e-06	1.5503e-06	1210.2	230.75	1.4078e-06	1.5595e-06	283.76	80.085	61.058	18.084	1.5906e-06	25.761	176.290	325.476	308.466	184.461	272.387	303.897	183.959	191.532	523.185	408.939	191.017	197.023	197.185	205.217	383.308	204.364	-8191	255	
5262.542	1	1	0	0	0.095648	0.13932	0.41971	0.026929	0.17164	0.15693	0.42365	0.17946	0.33884	0.014595	0.17394	0.22364	0.18604	0.11373	0.099966	0.13747	-2.7521	-3.5521	-3.5583	-3.3792	-3.7146	-3.4188	-3.2979	-3.8146	-3.0979	-3.5146	-3.7354	-3.0125	-3.5292	-3.5687	-3.1646	-3.8271	437.332	473.310	407.386	187.988	390.848	257.548	463.480	460.028	195.740	519.265	212.195	464.569	518.389	221.217	281.195	417.444	0.00037856	0.00023126	5.2232e-05	1201.2	4.1358e-06	9.7705e-07	1248.9	238.15	2.2367e-06	7.0147e-07	296.22	82.501	64.739	18.283	1.1175e-06	25.999	0.00013547	0.00014545	3.971e-05	1153.9	1.4461e-06	1.6157e-06	1209.5	230.81	1.4437e-06	1.5906e-06	284.08	80.295	61.058	18.12	1.529e-06	25.655	530.997	224.440	204.141	184.362	294.141	381.729	184.087	191.346	215.977	233.757	190.999	197.109	196.643	204.970	232.308	204.708	-8191	255	
5262.662	1	1	0	0	0.13501	0.14229	0.094191	0.15312	0.066128	0.11922	0.46456	0.036788	0.22972	0.11992	0.02882	0.11549	0.14752	0.19683	0.19041	0.25274	-2.7875	-3.2771	-3.6875	-3.3333	-3.5458	-3.6583	-3.3438	-3.8333	-3.1854	-3.5208	-3.6542	-3.2042	-3.3937	-3.4562	-3.0917	-3.7833	413.685	321.443	488.701	473.119	258.456	350.350	450.407	469.491	367.202	415.174	290.627	507.304	291.094	199.391	220.801	417.488	0.00037136	0.00085947	5.0753e-05	1191.3	1.6012e-06	1.8497e-06	1250.9	239.06	3.5911e-06	4.8309e-06	293.47	82.66	65.266	18.286	3.4704e-06	26.235	0.00013976	0.00014894	3.8382e-05	1148.2	1.5327e-06	1.648e-06	1211.1	230.65	1.5061e-06	1.6343e-06	283.35	80.224	61.373	18.096	1.5169e-06	25.755	525.713	282.147	212.883	184.439	268.380	360.876	183.929	191.161	264.822	233.183	191.003	196.716	196.319	205.122	256.108	204.768	-8191	255	
5262.757	1	1	0	0	0.13235	0.16281	0.18634	0.24366	0.056913	0.25187	0.17168	0.14077	0.25489	0.03861	0.20892	0.21278	0.10728	0.092699	0.24305	0.19431	-2.7771	-3.3083	-3.6375	-3.125	-3.6229	-3.5854	-3.0583	-3.5354	-3.3937	-3.2792	-3.8854	-3.1396	-3.5708	-3.4979	-3.15	-3.5896	472.465	286.607	347.548	518.746	398.442	229.961	176.623	375.916	202.517	330.823	439.954	217.968	528.890	490.149	320.659	412.341	0.00034348	0.00017819	6.7992e-05	1199.4	2.6436e-06	7.8422e-06	1252.3	238.29	2.5845e-06	3.6531e-06	296.42	82.288	65.369	18.312	9.6321e-07	25.92	0.00015016	0.0001464	3.8018e-05	1151.7	1.5994e-06	1.6033e-06	1211.7	230.91	1.6277e-06	1.5795e-06	283.64	80.399	61.844	18.114	1.5001e-06	25.743	174.001	188.521	178.984	184.316	211.215	321.737	184.066	191.143	324.740	345.964	191.022	197.506	197.154	204.975	285.428	204.570	-8191	255	
5262.853	1	1	0	0	0.12329	0.12615	0.057387	0.18471	0.082917	0.083995	0.19584	0.05954	0.038551	0.18345	0.14381	0.11111	0.27326	0.097198	0.040709	0.18827	-2.7812	-3.1271	-3.6021	-3.2396	-3.4979	-3.6125	-3.3292	-3.7104	-3.5083	-3.2333	-3.8021	-3.2021	-3.2146	-3.6479	-3.0375	-3.6542	375.196	295.187	206.611	482.893	472.805	351.827	495.556	226.569	371.511	380.203	484.279	293.878	376.006	409.894	252.525	435.559	0.00033566	0.00015262	0.0001327	1203.5	2.2829e-06	1.7426e-06	1253	239.26	1.5952e-06	1.7222e-06	295.4	82.868	65.072	18.45	1.2336e-06	26.34	0.00015577	0.00014395	3.7053e-05	1155.6	1.6538e-06	1.5364e-06	1210.9	230.89	1.6025e-06	1.5114e-06	283.9	80.452	61.777	18.176	1.4084e-06	25.881	523.565	280.822	292.691	184.307	332.341	288.409	184.099	191.469	204.440	342.133	190.559	197.050	196.644	205.015	388.040	204.445	-8191	255	
5262.974	1	1	0	0	0.22519	0.093122	0.1755	0.25035	0.22761	0.21396	0.24624	0.17755	0.21147	0.23118	0.073027	0.12223	0.16931	0.15018	0.22105	0.041539	-3.0354	-2.9313	-3.6813	-3.3	-3.2917	-3.7646	-3.15	-3.4792	-3.5563	-3.2896	-3.6813	-3.3542	-3.225	-3.7833	-2.9917	-3.5438	386.448	413.799	242.252	525.934	516.718	280.852	460.558	450.257	389.640	206.794	324.916	439.087	198.655	503.529	434.535	278.309	0.00029467	0.00027421	0.00020528	1205.6	4.2461e-06	2.2596e-06	1256.8	238.95	2.861e-06	1.2942e-06	294.49	82.565	64.99	18.501	2.1577e-06	26.248	0.0001506	0.00013469	3.5014e-05	1155.6	1.5958e-06	1.4668e-06	1214.2	231.31	1.6241e-06	1.5119e-06	283.01	80.759	61.604	18.175	1.4725e-06	25.959	526.502	315.954	267.277	184.198	309.099	325.474	184.024	191.183	329.217	316.935	190.999	197.114	197.324	205.308	243.913	204.408	-8191	255	
5263.070	1	1	0	0	0.25812	0.23517	0.14166	0.051535	0.25215	0.048606	0.38537	0.016035	0.29232	0.13695	0.08073	0.058461	0.11392	0.20645	0.13529	0.11592	-3.1875	-2.9604	-3.6771	-3.4417	-3.3	-3.7125	-3.2687	-3.5417	-3.6625	-2.8333	-3.6958	-3.5229	-3.2542	-3.7	-3.1771	-3.2979	434.968	360.795	277.644	381.840	356.035	521.478	432.686	444.316	443.055	444.114	265.176	413.128	195.740	270.921	487.129	290.680	0.00029205	0.00030786	0.00014356	1201.3	2.283e-06	1.7208e-06	1258.4	238.75	2.7752e-06	1.7188e-06	294.87	82.632	65.041	18.371	1.7583e-06	26.418	0.00015058	0.00013744	3.5472e-05	1157.5	1.6259e-06	1.5168e-06	1215.9	231.81	1.6161e-06	1.5182e-06	284.19	80.728	61.77	18.171	1.5091e-06	26.011	527.518	245.071	267.463	184.114	255.337	308.383	183.835	191.120	290.746	348.702	190.993	197.068	196.770	205.352	314.689	204.335	-8191	255	
5263.141	1	1	0	0	0.094749	0.012551	0.16701	0.12762	0.22646	0.22265	0.19229	0.074824	0.23745	0.10782	0.15563	0.12429	0.17788	0.27587	0.05978	0.15921	-3.3458	-3.05	-3.4917	-3.5479	-3.2313	-3.7938	-3.2438	-3.2854	-3.7917	-3.0875	-3.5417	-3.4521	-3.0563	-3.7896	-3.2146	-3.3396	363.500	504.258	324.569	501.675	311.651	334.933	499.413	446.645	393.430	431.571	457.055	466.043	512.447	492.233	307.063	210.905	0.00037937	0.00028413	0.00014207	1204.8	7.9937e-07	2.441e-06	1262.9	238.24	4.2306e-06	3.0651e-06	297.92	83.008	65.461	18.352	2.3496e-06	26.267	0.0001536	0.00013872	3.8555e-05	1159	1.6088e-06	1.4667e-06	1219.2	231.46	1.6107e-06	1.4974e-06	285.22	81.09	61.857	18.149	1.6398e-06	25.96	531.341	299.515	281.565	184.043	206.367	266.606	184.239	190.939	270.452	433.018	190.841	196.854	197.311	205.403	312.634	204.586	-8191	255	
5263.262	1	1	0	0	0.19652	0.10674	0.2586	0.28763	0.056924	0.12228	0.29444	0.078302	0.037383	0.16987	0.10068	0.33611	0.25966	0.17402	0.19656	0.26419	-3.4292	-2.9021	-3.4833	-3.5	-2.9313	-3.8854	-3.5208	-3.4167	-3.5521	-3	-3.5687	-3.5208	-3.1937	-3.675	-3.2604	-3.2375	521.728	321.472	412.154	479.543	525.342	456.154	505.638	398.243	211.675	229.810	405.116	499.704	509.292	504.240	186.582	499.375	0.0003349	0.00010805	0.00012938	1206.3	1.9671e-06	4.4317e-06	1261	238.55	1.3688e-06	1.8857e-06	297.5	83.272	65.867	18.436	3.1464e-06	26.323	0.00015103	0.00013418	4.1631e-05	1160.4	1.6038e-06	1.4739e-06	1218.6	231.86	1.5874e-06	1.4959e-06	285.8	81.041	61.763	18.209	1.6869e-06	25.97	524.873	286.844	260.066	183.928	304.288	411.051	183.860	191.180	347.087	354.058	190.933	196.919	196.685	204.634	290.944	204.218	-8191	255	
5263.358	1	1	0	0	0.062251	0.12518	0.20631	0.16627	0.23984	0.08111	0.16391	0.11942	0.17582	0.087894	0.23168	0.18979	0.19901	0.23366	0.10735	0.15434	-3.3417	-3.225	-3.3083	-3.575	-3.1083	-3.4708	-3.5687	-3.2354	-3.8563	-3.225	-3.4083	-3.7812	-2.9583	-3.6229	-3.6729	-3.1771	323.922	283.916	456.869	509.796	257.824	243.300	449.205	530.468	380.918	205.063	455.002	412.320	376.237	491.158	471.466	458.737	0.00037576	0.00027151	0.00017352	1206	1.0654e-06	5.1505e-06	1261.5	240.14	4.6099e-06	4.1836e-06	295.97	82.735	65.382	18.516	2.1179e-06	26.27	0.00014854	0.00013767	4.3308e-05	1161	1.5565e-06	1.518e-06	1222.8	232.55	1.564e-06	1.5397e-06	285.85	80.767	61.668	18.22	1.7364e-06	25.992	531.766	250.081	215.436	184.161	239.499	299.425	184.059	191.122	296.397	341.229	191.025	197.312	197.000	205.289	326.060	204.626	-8191	255	
5263.454	1	1	0	0	0.039958	0.22366	0.080429	0.19912	0.15088	0.15108	0.17641	0.13201	0.24071	0.27506	0.19559	0.2409	0.059411	0.18945	0.17887	0.36401	-3.5083	-3.3812	-3.2042	-3.8563	-3.1792	-3.6813	-3.8021	-3.1021	-3.7958	-3.3479	-3.4167	-3.6833	-3.0708	-3.5833	-3.5563	-3.25	299.002	323.331	482.514	447.642	238.300	356.856	470.211	476.150	457.693	529.094	220.863	441.980	508.004	317.041	510.931	502.687	0.00035715	0.00048093	0.00010085	1207.2	3.5088e-06	2.1322e-07	1265.8	239.85	3.8378e-06	3.2197e-06	298.04	83.403	64.506	18.364	3.2925e-06	26.432	0.00014272	0.00014581	4.4548e-05	1162.8	1.5286e-06	1.6594e-06	1223.8	232.65	1.5402e-06	1.6802e-06	285.97	80.997	61.541	18.247	1.744e-06	26.053	531.878	234.848	294.770	184.351	256.801	371.192	183.931	191.131	271.089	286.150	191.314	196.799	196.727	204.577	366.531	204.448	-8191	255	
5263.575	1	1	0	0	0.10672	0.30189	0.055115	0.23685	0.022536	0.2677	0.25033	0.28596	0.040202	0.29238	0.19799	0.05728	0.17569	0.11865	0.067322	0.25838	-3.2896	-3.3771	-3.0958	-3.7125	-3.2292	-3.2542	-3.7104	-3.1375	-3.625	-3.6333	-3.3333	-3.8667	-3.2542	-3.2333	-3.5167	-3.1375	322.048	489.239	357.218	494.208	434.626	251.948	458.786	426.163	436.879	208.939	412.432	266.431	257.502	527.961	230.985	475.915	0.00028047	0.00019777	6.8079e-05	1211.9	3.331e-06	3.8705e-06	1263.3	241.11	4.2179e-06	2.8976e-06	296.56	82.932	64.987	18.435	4.6865e-06	26.299	0.00014413	0.00015551	4.35e-05	1164.4	1.5538e-06	1.7297e-06	1222.3	232.91	1.5592e-06	1.7702e-06	285.75	80.895	61.786	18.276	1.7337e-06	25.955	517.597	490.142	314.278	184.178	242.949	388.284	184.019	191.458	279.585	272.680	190.921	197.079	196.323	205.279	327.146	204.792	-8191	255	
5263.669	1	1	0	0	0.21283	0.060342	0.027427	0.13216	0.15246	0.16224	0.114	0.17282	0.029244	0.20715	0.081767	0.062926	0.18365	0.34363	0.15938	0.058423	-3.3271	-3.475	-3.1771	-3.85	-3.2458	-3.4667	-3.7938	-3.2229	-3.4542	-3.3146	-3.2354	-3.7479	-3.1	-3.3146	-3.7188	-2.9333	265.776	492.338	226.242	316.299	367.589	233.756	500.360	189.131	286.908	199.343	366.145	415.444	179.835	188.544	527.618	406.889	0.00029844	0.00028456	0.00010246	1207	6.3177e-06	3.6831e-06	1263.3	239.73	3.4359e-06	3.4126e-06	297.4	82.887	65.419	18.395	2.0761e-06	26.324	0.00015078	0.00016473	4.3166e-05	1162.5	1.6334e-06	1.8306e-06	1222.3	232.46	1.6526e-06	1.8375e-06	285.67	80.835	62.115	18.277	1.6791e-06	25.923	513.232	218.456	286.613	184.256	241.359	454.792	183.832	191.429	214.685	414.894	191.091	197.036	196.825	205.135	300.099	204.479	-8191	255	
5263.766	1	1	0	0	0.12145	0.21492	0.33081	0.18404	0.25402	0.26085	0.25265	0.18719	0.17232	0.14148	0.16087	0.17671	0.15123	0.13851	0.12805	0.068646	-3.0062	-3.4062	-3.1292	-3.7625	-3.3604	-3.3833	-3.7729	-3.2896	-3.4458	-3.5458	-3.0812	-3.7646	-3.2604	-3.2417	-3.6667	-3.2354	394.237	260.957	286.974	295.178	449.254	473.038	452.340	516.379	236.764	341.295	210.942	326.393	232.685	192.527	408.169	285.038	0.00033919	0.00067972	0.00014055	1206.8	2.5497e-06	6.0271e-07	1264.5	240.56	3.0832e-06	2.4958e-06	298.66	82.612	64.543	18.429	1.4088e-06	26.315	0.00016318	0.00016319	4.1841e-05	1163.7	1.748e-06	1.8023e-06	1222.7	233.03	1.7795e-06	1.7517e-06	286.57	80.906	62.205	18.289	1.6575e-06	25.952	516.759	277.156	272.290	184.231	234.879	392.563	184.066	191.313	242.972	280.748	191.143	196.963	196.204	205.067	278.245	204.417	-8191	255	
5263.837	1	1	0	0	0.058623	0.20573	0.10244	0.025571	0.0538	0.15972	0.19146	0.20563	0.21333	0.21325	0.02203	0.19201	0.20954	0.063985	0.36523	0.060788	-2.8292	-3.5062	-3.0438	-3.7896	-3.4479	-3.2062	-3.8625	-3.2854	-3.2417	-3.4729	-3.125	-3.8354	-3.3583	-3.1625	-3.7333	-3.2729	515.399	527.190	527.580	324.315	344.868	365.841	508.481	177.288	276.910	346.441	384.672	234.974	443.124	316.364	462.331	201.511	0.00034575	0.00037896	0.00013894	1206.9	3.6532e-06	6.0916e-06	1264.5	240.87	2.5681e-06	4.8073e-06	297.67	83.153	65.357	18.435	5.8777e-06	26.334	0.00017112	0.0001596	4.148e-05	1164	1.8484e-06	1.7444e-06	1223.1	232.93	1.8395e-06	1.6742e-06	286.27	81.042	62.458	18.247	1.6016e-06	26.024	175.998	257.363	280.501	184.360	224.526	362.566	183.928	190.934	251.304	302.683	191.014	196.634	197.177	205.134	338.044	204.462	-8191	255	
5263.958	1	1	0	0	0.16542	0.24639	0.12343	0.068618	0.13804	0.067314	0.20934	0.2851	0.043994	0.043183	0.10896	0.26259	0.072535	0.070245	0.10052	0.10592	-2.8021	-3.725	-3.0563	-3.7333	-3.4146	-3.0104	-4.1417	-3.2396	-3.4813	-3.6729	-3.3042	-3.4562	-3.3167	-3.2333	-3.5771	-3.3521	214.707	349.024	238.124	397.918	517.192	500.671	220.609	174.555	438.543	355.046	384.936	197.068	525.892	359.897	487.327	232.584	0.00046023	0.00094221	0.00014442	1210.9	2.022e-06	7.7673e-06	1258.9	240.02	1.3756e-06	2.522e-06	297.14	83.4	65.129	18.39	1.3304e-06	26.305	0.00017033	0.00015538	4.0024e-05	1165	1.793e-06	1.6639e-06	1219.3	233.22	1.8187e-06	1.6671e-06	286.27	81.266	62.388	18.215	1.6013e-06	26.045	516.866	293.153	240.275	184.154	204.815	338.993	184.075	191.474	315.654	323.530	190.598	196.925	196.530	205.151	204.756	204.587	-8191	255	
5264.054	1	1	0	0	0.12313	0.26314	0.21854	0.18189	0.26818	0.067166	0.36776	0.12344	0.080913	0.10424	0.43168	0.13441	0.1518	0.05916	0.1278	0.22507	-2.9708	-3.675	-3.0854	-3.5354	-3.4313	-3.0542	-3.8667	-3.4542	-3.1458	-3.8479	-3.2146	-3.4604	-3.6667	-3.1083	-3.5083	-3.425	383.122	291.026	402.652	510.118	387.768	334.855	433.979	513.893	417.308	472.311	519.372	515.268	528.991	378.436	530.858	250.893	0.00032141	0.000429	7.0857e-05	1206.5	2.1102e-06	2.8398e-06	1264.7	240.11	3.7586e-06	1.3417e-06	298.76	83.396	65.38	18.371	2.982e-06	26.242	0.00017294	0.00015404	4.0531e-05	1163.8	1.8067e-06	1.7032e-06	1222.8	233.28	1.8195e-06	1.6838e-06	286.1	81.473	62.494	18.279	1.6987e-06	26.102	525.028	254.936	300.071	184.105	280.131	332.415	183.952	191.094	310.157	392.715	191.338	197.343	197.133	204.909	237.376	204.539	-8191	255	
5264.150	1	1	0	0	0.12801	0.08786	0.13047	0.12694	0.14627	0.11484	0.2903	0.22453	0.22101	0.13628	0.21911	0.11955	0.012055	0.16389	0.044627	0.22176	-2.7083	-3.7188	-3.1188	-3.4958	-3.7104	-3.1146	-3.6437	-3.5229	-3.0521	-3.6437	-3.2438	-3.4229	-3.7625	-2.9625	-3.5042	-3.5125	477.521	446.948	346.426	272.955	400.115	277.853	522.166	505.111	219.380	333.175	510.352	504.016	382.505	351.494	239.187	466.597	0.00027052	6.8809e-05	8.8614e-05	1209.4	2.2222e-06	2.2957e-06	1262.2	240.89	2.8182e-06	2.4985e-06	299.32	83.178	65.074	18.52	3.5148e-06	26.204	0.00017047	0.00015578	4.2979e-05	1166.8	1.7742e-06	1.6685e-06	1225.3	234.02	1.7726e-06	1.6667e-06	287.03	81.424	62.178	18.3	1.7736e-06	26.164	528.385	273.200	225.672	184.284	246.850	306.668	183.913	191.057	280.775	317.085	190.867	197.054	196.527	205.009	234.582	204.314	-8191	255	
5264.246	1	1	0	0	0.24058	0.39947	0.19259	0.19686	0.2943	0.052583	0.49412	0.04147	0.10168	0.29148	0.099174	0.087459	0.069437	0.2519	0.14503	0.09831	-2.7375	-3.6979	-3.3354	-3.3229	-3.6792	-3.1229	-3.775	-3.6167	-3.1479	-3.8854	-3.4375	-3.4271	-3.8563	-3.2208	-3.4875	-3.6125	217.281	401.569	266.876	203.888	495.661	398.575	496.418	429.356	260.054	335.733	214.023	180.747	256.894	174.995	523.893	290.126	0.0004422	0.00028186	0.00014199	1213.4	3.3594e-06	6.5067e-06	1264.4	241.65	2.7155e-06	1.3692e-06	298.85	83.182	65.179	18.358	1.1214e-06	26.39	0.00016863	0.00015311	4.5939e-05	1170	1.7758e-06	1.6356e-06	1227.5	234.18	1.7845e-06	1.6302e-06	287.05	81.355	62.142	18.21	1.8434e-06	26.088	525.574	339.786	296.175	184.167	220.437	276.196	183.810	190.983	299.454	493.518	190.885	197.134	197.390	204.992	394.562	204.301	-8191	255	
5264.367	1	1	0	0	0.35032	0.30662	0.2604	0.12045	0.05051	0.1134	0.29168	0.14355	0.1196	0.24597	0.15589	0.27899	0.24518	0.24161	0.0593	0.16272	-2.6375	-3.6646	-3.4125	-3.425	-3.6604	-3.2958	-3.5833	-3.8042	-3.0208	-3.5958	-3.4	-3.2396	-3.6771	-3.2354	-3.3583	-3.6125	513.514	361.807	493.661	518.089	499.429	503.499	494.215	221.654	173.710	307.865	474.939	207.761	262.989	432.411	274.935	286.093	0.00038375	0.00042663	4.8927e-05	1212.5	1.6158e-06	2.6756e-06	1269	240.66	2.1807e-06	2.3351e-06	297.23	83.158	65.264	18.463	1.5175e-06	26.252	0.00015963	0.00014851	4.6025e-05	1169.4	1.707e-06	1.5979e-06	1227.5	233.68	1.6516e-06	1.6163e-06	287.7	81.286	62.05	18.28	1.8266e-06	26.073	177.001	254.618	199.188	184.268	183.546	266.140	183.583	191.157	337.296	305.753	191.180	197.207	196.612	204.941	333.094	204.607	-8191	255	
5264.439	1	1	0	0	0.069197	0.11074	0.055558	0.14989	0.13795	0.12516	0.23736	0.18218	0.27186	0.2272	0.2047	0.088217	0.34365	0.065955	0.26691	0.15477	-2.5583	-3.5438	-3.4354	-3.2687	-3.7125	-3.3167	-3.3438	-3.7271	-2.9354	-3.6479	-3.5646	-3.1042	-3.7062	-3.3688	-3.3104	-3.8312	210.722	209.955	308.657	511.181	517.841	410.237	499.994	508.771	424.607	357.891	478.230	348.522	426.338	326.491	405.154	488.708	0.00029898	0.00021844	0.00024545	1212	2.7949e-06	3.8089e-06	1268.8	241.84	3.1621e-06	7.0701e-07	296.8	83.329	65.719	18.47	2.361e-06	26.14	0.00015312	0.00015072	4.5879e-05	1164.8	1.5867e-06	1.6794e-06	1225.9	233.84	1.5938e-06	1.6989e-06	286.79	81.191	61.964	18.287	1.859e-06	25.95	514.719	291.703	279.987	184.314	266.010	263.115	184.092	191.277	254.615	284.527	191.082	196.943	197.040	204.898	310.879	204.549	-8191	255	
5264.535	1	1	0	0	0.24563	0.11683	0.14547	0.048917	0.13301	0.16317	0.086432	0.079731	0.063121	0.38559	0.12369	0.11226	0.1369	0.17522	0.24678	0.052856	-2.65	-3.5083	-3.5729	-3.2687	-3.8021	-3.3396	-3.4	-3.6583	-3.1708	-3.5938	-3.5771	-3.0521	-3.7125	-3.3271	-3.1917	-3.8167	427.398	283.705	421.800	258.518	455.882	262.412	470.702	454.630	391.434	182.515	195.296	499.735	423.790	517.222	343.376	463.416	0.0003546	0.00038012	8.4215e-05	1209	1.4456e-06	1.193e-06	1257.6	241.23	7.0182e-07	3.1258e-06	297.29	82.995	65.037	18.569	1.4101e-06	26.391	0.00015177	0.00016228	4.5661e-05	1164.2	1.5862e-06	1.7469e-06	1223.2	233.49	1.6254e-06	1.7986e-06	286.94	80.972	62.05	18.36	1.804e-06	26.044	521.095	270.498	281.728	184.162	176.882	307.520	184.112	191.346	189.976	408.686	191.142	196.788	196.916	204.897	337.140	205.138	-8191	255	
5264.655	1	1	0	0	0.14307	0.25589	0.28149	0.19862	0.02291	0.077582	0.15976	0.073246	0.082964	0.20404	0.20147	0.11339	0.17769	0.12131	0.12757	0.30761	-2.5729	-3.3896	-3.6083	-3.0438	-3.4729	-3.2479	-3.25	-3.7958	-3.2458	-3.4104	-3.775	-3.2167	-3.4771	-3.4938	-3.0021	-3.6854	529.885	421.343	340.126	478.009	314.590	514.647	475.176	528.375	388.987	417.754	192.167	475.569	498.008	467.808	449.663	187.645	0.00034098	0.00018234	0.00010658	1210	2.6033e-06	9.1697e-07	1269.6	240.7	2.7874e-06	1.4268e-06	296.4	83.433	65.413	18.42	3.0577e-06	26.406	0.00015512	0.00017026	4.5163e-05	1164.2	1.7001e-06	1.8623e-06	1225.2	233.06	1.7221e-06	1.8953e-06	286.24	81.042	62.175	18.297	1.7684e-06	26.03	531.117	465.167	313.464	184.319	253.511	530.158	184.162	191.372	249.984	210.197	190.929	197.202	196.988	205.099	400.786	204.372	-8191	255	
5264.750	1	1	0	0	0.13751	0.18277	0.049263	0.2099	0.38172	0.13599	0.068481	0.27155	0.11674	0.15644	0.17057	0.46334	0.20291	0.27554	0.24042	0.13178	-2.8042	-3.2938	-3.6792	-3.2083	-3.4188	-3.6792	-3.2854	-3.6104	-3.1917	-3.3167	-3.7167	-3.1562	-3.5167	-3.4104	-2.9688	-3.8146	178.538	321.672	493.715	491.671	507.433	460.082	531.264	302.167	344.657	433.846	437.575	436.351	204.783	484.921	528.585	418.162	0.00031591	0.00040691	0.00012675	1206.9	2.8697e-06	3.1712e-06	1265.9	241.6	5.5214e-06	3.081e-06	297.69	82.944	64.755	18.441	7.5665e-07	26.216	0.00016475	0.00017152	4.5257e-05	1163.4	1.8014e-06	1.8603e-06	1223.2	233.94	1.8297e-06	1.9219e-06	287	80.857	62.226	18.249	1.7496e-06	25.94	526.256	295.033	285.255	184.438	244.091	402.408	183.964	190.911	270.358	323.053	191.029	197.060	196.529	204.983	385.317	204.471	-8191	255	
5264.846	1	1	0	0	0.12898	0.092636	0.20394	0.23749	0.060339	0.11766	0.044765	0.26946	0.27026	0.12164	0.40692	0.31214	0.4147	0.12686	0.11532	0.12733	-2.9271	-3.1667	-3.675	-3.2458	-3.3354	-3.7021	-3.2708	-3.6625	-3.4792	-3.2625	-3.6854	-3.2687	-3.475	-3.725	-3.0958	-3.6729	195.245	414.289	392.889	485.847	502.848	378.132	458.797	208.970	188.528	346.569	451.181	204.311	319.737	187.651	242.642	434.006	0.00034413	0.00018525	0.00017185	1208.6	2.3276e-06	3.0668e-06	1265	240.94	1.3777e-06	3.8672e-06	298.37	83.354	65.722	18.564	1.1725e-06	26.372	0.00017433	0.00016581	4.2613e-05	1163.5	1.8681e-06	1.7601e-06	1223	233.98	1.8613e-06	1.785e-06	286.16	81.056	62.663	18.308	1.6654e-06	25.971	522.468	440.096	337.105	184.302	285.843	329.652	183.935	191.317	176.862	401.124	190.950	197.129	196.638	204.691	523.184	204.617	-8191	255	
5264.942	1	1	0	0	0.18591	0.17225	0.17142	0.16408	0.2893	0.048561	0.28513	0.24	0.29968	0.31191	0.027008	0.024505	0.037106	0.08856	0.036278	0.26415	-2.9562	-3.1417	-3.6188	-3.3125	-3.3563	-3.7125	-3.1688	-3.7875	-3.4813	-3.3146	-3.7542	-3.2292	-3.2854	-3.6437	-2.9104	-3.5042	419.645	259.962	355.633	485.138	455.194	216.734	475.325	424.139	241.778	442.458	429.656	358.226	379.481	240.860	415.706	477.259	0.00033289	0.0003766	7.8542e-05	1205.5	3.3107e-06	1.0782e-06	1261.1	241.4	3.7402e-06	2.146e-06	297.19	83.009	64.908	18.385	3.4692e-06	26.105	0.00017741	0.0001603	4.1607e-05	1162.3	1.8855e-06	1.7398e-06	1224.1	233.81	1.9004e-06	1.7234e-06	286.08	80.976	62.471	18.269	1.634e-06	26.041	525.464	177.560	385.201	184.359	227.039	190.846	183.853	191.087	349.870	401.075	191.224	197.085	196.892	205.091	296.744	204.719	-8191	255	
5265.063	1	1	0	0	0.016336	0.11088	0.092859	0.32026	0.1976	0.16264	0.40446	0.20441	0.067991	0.12649	0.21455	0.23175	0.23999	0.14591	0.19632	0.054867	-3.2708	-3.0687	-3.7583	-3.4062	-3.2167	-3.875	-3.4125	-3.6188	-3.5396	-3.2375	-3.8167	-3.5125	-3.2083	-3.7646	-2.9708	-3.4479	246.127	383.707	393.039	475.842	359.120	350.250	436.729	435.528	204.059	304.706	521.695	177.141	181.737	451.818	342.852	331.091	0.00031398	0.00026249	7.9269e-05	1214.6	4.2181e-06	2.0953e-06	1265.1	240.91	2.9014e-06	4.1606e-06	299.03	82.383	65.448	18.384	1.5743e-06	26.385	0.00017541	0.00015754	4.1058e-05	1167.8	1.8625e-06	1.6883e-06	1226.1	234.23	1.8499e-06	1.6961e-06	286.75	81.203	62.382	18.212	1.616e-06	26.08	178.150	224.254	307.649	184.135	278.057	440.671	183.909	191.163	270.344	462.397	191.020	197.020	196.172	204.728	360.715	204.376	-8191	255	
5265.134	1	1	0	0	0.12828	0.24258	0.17727	0.019593	0.080654	0.24707	0.28213	0.13898	0.15186	0.1526	0.24197	0.2222	0.22992	0.10519	0.12858	0.021771	-3.0563	-2.9021	-3.6833	-3.5333	-3.1875	-3.6167	-3.2292	-3.4688	-3.6188	-3.125	-3.8292	-3.5042	-3.0083	-3.8917	-3.075	-3.3896	516.596	527.857	329.161	329.463	238.964	199.534	438.550	492.062	436.175	507.132	489.041	519.153	358.964	218.929	438.216	505.565	0.00032132	0.00026852	0.00011162	1210	2.8347e-06	4.2776e-06	1266.1	240.09	1.1423e-06	1.9979e-06	298.08	83.219	65.801	18.578	2.4044e-06	26.207	0.00016633	0.00015052	4.0905e-05	1166.9	1.7806e-06	1.6216e-06	1225.3	234.01	1.7303e-06	1.6327e-06	286.88	81.101	62.358	18.279	1.7077e-06	26.103	532.143	258.399	287.349	184.362	285.328	325.436	184.001	191.315	231.614	256.912	191.032	196.682	196.852	205.365	487.363	204.955	-8191	255	
5265.231	1	1	0	0	0.0082883	0.12899	0.040929	0.1028	0.15505	0.098429	0.20476	0.12995	0.054452	0.21681	0.10892	0.092654	0.17802	0.3362	0.24671	0.11402	-3.3896	-3.1292	-3.4167	-3.5167	-3.0687	-3.7313	-3.2271	-3.525	-3.825	-2.9979	-3.6042	-3.5729	-3.1917	-3.5958	-3.1958	-3.2292	178.525	473.846	363.638	174.183	429.065	222.007	527.099	464.607	526.644	191.031	471.763	452.830	189.122	510.039	268.599	327.777	0.00037714	0.0001456	8.5419e-05	1211.9	7.7349e-07	6.2025e-06	1265.4	240.43	1.4342e-06	3.3623e-06	298.31	83.174	65.441	18.422	2.9045e-06	26.294	0.00016491	0.00014814	4.432e-05	1168.6	1.7598e-06	1.624e-06	1225.7	234.52	1.7896e-06	1.6265e-06	287.62	81.291	62.247	18.227	1.865e-06	26.055	519.132	437.315	306.829	184.209	422.041	304.712	183.908	191.184	289.467	305.936	190.930	197.132	196.820	205.183	265.229	204.549	-8191	255	
5265.351	1	1	0	0	0.19654	0.20016	0.055495	0.30225	0.13496	0.10079	0.12763	0.17169	0.096417	0.1931	0.1718	0.13319	0.27818	0.17457	0.15728	0.12213	-3.325	-3.0312	-3.4333	-3.6542	-3.0229	-3.6312	-3.3625	-3.2979	-3.7271	-3.1042	-3.4854	-3.6458	-2.9021	-3.5125	-3.4313	-3.2458	408.451	423.558	424.481	497.137	224.799	510.849	436.595	480.255	429.994	385.976	517.079	496.309	272.850	513.549	285.693	401.540	0.00032363	0.00039792	4.0805e-05	1215.8	2.8814e-06	5.7042e-07	1262.4	240.19	2.2932e-06	5.9472e-06	300.02	83.442	65.132	18.339	1.0393e-06	26.128	0.00016102	0.00014784	4.6125e-05	1168.4	1.7135e-06	1.6307e-06	1226.5	234.43	1.6811e-06	1.6248e-06	287.52	81.147	62.22	18.222	1.9269e-06	25.985	523.008	266.487	313.606	184.558	267.519	330.870	183.707	191.089	340.713	310.121	190.952	197.497	196.606	205.205	230.563	204.546	-8191	255	
5265.447	1	1	0	0	0.043605	0.18037	0.12352	0.36499	0.14407	0.17225	0.32317	0.11138	0.2125	0.20956	0.07927	0.04344	0.47917	0.12063	0.085362	0.19957	-3.325	-3.1917	-3.3417	-3.8833	-3.0229	-3.5625	-3.5854	-3.15	-3.8937	-3.0438	-3.2917	-3.5875	-3.1667	-3.5729	-3.5479	-3.1104	224.960	522.587	430.195	531.383	179.886	346.115	489.785	511.275	382.983	416.660	379.635	517.988	490.230	416.616	255.787	247.755	0.00036065	0.00017451	0.00010921	1209.2	3.5172e-06	3.4535e-06	1268.6	240.66	2.3354e-06	2.8871e-06	299.58	82.891	65.912	18.439	1.1821e-06	26.384	0.00016039	0.00015734	4.8515e-05	1166.3	1.7085e-06	1.7708e-06	1227.1	233.84	1.6957e-06	1.7796e-06	288.74	81.315	61.933	18.305	1.9436e-06	25.983	517.499	206.741	241.217	184.112	326.655	304.112	183.922	191.197	300.193	342.533	190.838	196.797	196.577	205.053	287.666	204.459	-8191	255	
5265.543	1	1	0	0	0.064859	0.19022	0.23352	0.13025	0.040694	0.10871	0.02849	0.41859	0.13075	0.098941	0.16009	0.19045	0.28646	0.30517	0.15289	0.15112	-3.1479	-3.375	-3.2208	-3.6333	-3.1583	-3.4854	-3.6229	-3.2354	-3.6125	-3.2833	-3.1521	-3.7313	-3.1208	-3.5187	-3.6146	-3.0167	358.288	341.402	207.233	518.688	413.273	186.956	426.125	478.742	218.227	374.030	467.197	289.076	241.599	496.360	198.672	401.312	0.0004191	0.00021755	0.00011485	1213.2	1.9336e-06	6.7536e-06	1263.2	241.12	2.7467e-06	8.9128e-07	297.7	83.586	65.54	18.444	3.147e-06	26.209	0.00015751	0.00016851	4.7775e-05	1166.9	1.6925e-06	1.8423e-06	1225.3	233.91	1.6524e-06	1.8185e-06	287.22	81.295	61.925	18.284	1.7542e-06	25.876	524.862	429.264	202.257	184.247	256.200	364.603	184.089	191.152	327.415	248.878	190.950	197.367	196.881	205.422	309.133	204.479	-8191	255	
5265.662	1	1	0	0	0.10742	0.032592	0.19131	0.30738	0.083044	0.19751	0.03803	0.24763	0.11998	0.15226	0.15487	0.10905	0.065326	0.16841	0.14683	0.18815	-3.2458	-3.4813	-3.1312	-3.7417	-3.1021	-3.4104	-3.8417	-3.0042	-3.5312	-3.4542	-3.175	-3.75	-3.1813	-3.2562	-3.5417	-3.05	209.407	247.166	422.490	388.046	407.316	529.440	323.366	434.401	318.185	326.153	510.237	452.831	447.822	255.987	435.568	481.683	0.00030321	0.00011108	0.00011675	1209.3	3.2862e-06	1.8621e-06	1266	240.31	4.1607e-06	2.8053e-06	298.7	83.165	65.691	18.532	4.71e-06	26.172	0.00014756	0.00016477	4.4633e-05	1164.8	1.6241e-06	1.8755e-06	1225.5	233.41	1.6756e-06	1.8863e-06	287.24	81.197	62.224	18.339	1.7482e-06	25.856	530.468	249.930	341.469	184.155	268.381	407.021	183.784	191.172	245.993	320.758	191.174	197.288	196.384	205.432	324.590	204.485	-8191	255	
#DATA ENDS
