BOXY.EXE: ISS Imagent and Oximeter Data Acquisition Program Version 0.80
Ascii Record File

#ACQ INFORMATION
2  Detector Channels 
16  External MUX Channels 
1  Auxiliary Channels 
5000  Waveform (CCF) Frequency (Hz)
1  Waveforms Skipped 
30  Waveforms Averaged 
1  Cycles Averaged 
16  Acquisitions per Waveform 
10.0806  Updata Rate (Hz) 

#FILE INFORMATION
TRUE -- External MUX Channel results are PARSED.
FALSE -- AC DC and Phase are NOT grouped.
TRUE -- Companion Program Settings File CREATED.
FALSE -- AC data not excluded
FALSE -- DC data not excluded
FALSE -- Phase data not excluded
FALSE -- Auxillary Chn. data not excluded
Tab delimiters

#CALIBRATION STATE
TRUE -- Waveform Calibration Values APPLIED.


#AUX CALIBRATION VALUES
Val Type	aux-1	

Term	1.0000e+00	
Factor	0.0000e+00	


#WF CALIBRATION VALUES
A = Detector Channel
Val Type	A-AC1	A-AC2	A-AC3	A-AC4	A-AC5	A-AC6	A-AC7	A-AC8	A-AC9	A-AC10	A-AC11	A-AC12	A-AC13	A-AC14	A-AC15	A-AC16	A-DC1	A-DC2	A-DC3	A-DC4	A-DC5	A-DC6	A-DC7	A-DC8	A-DC9	A-DC10	A-DC11	A-DC12	A-DC13	A-DC14	A-DC15	A-DC16	A-Ph1	A-Ph2	A-Ph3	A-Ph4	A-Ph5	A-Ph6	A-Ph7	A-Ph8	A-Ph9	A-Ph10	A-Ph11	A-Ph12	A-Ph13	A-Ph14	A-Ph15	A-Ph16	

Term	0.00000e+00	0.00000e+00	0.00000e+00	0.00000e+00	0.00000e+00	0.00000e+00	0.00000e+00	0.00000e+00	0.00000e+00	0.00000e+00	0.00000e+00	0.00000e+00	0.00000e+00	0.00000e+00	0.00000e+00	0.00000e+00	0.00000e+00	0.00000e+00	0.00000e+00	0.00000e+00	0.00000e+00	0.00000e+00	0.00000e+00	0.00000e+00	0.00000e+00	0.00000e+00	0.00000e+00	0.00000e+00	0.00000e+00	0.00000e+00	0.00000e+00	0.00000e+00	0.00000e+00	0.00000e+00	0.00000e+00	0.00000e+00	0.00000e+00	0.00000e+00	0.00000e+00	0.00000e+00	0.00000e+00	0.00000e+00	0.00000e+00	0.00000e+00	0.00000e+00	0.00000e+00	0.00000e+00	0.00000e+00	
Factor	1.00000e+00	1.00000e+00	1.00000e+00	1.00000e+00	1.00000e+00	1.00000e+00	1.00000e+00	1.00000e+00	1.00000e+00	1.00000e+00	1.00000e+00	1.00000e+00	1.00000e+00	1.00000e+00	1.00000e+00	1.00000e+00	1.00000e+00	1.00000e+00	1.00000e+00	1.00000e+00	1.00000e+00	1.00000e+00	1.00000e+00	1.00000e+00	1.00000e+00	1.00000e+00	1.00000e+00	1.00000e+00	1.00000e+00	1.00000e+00	1.00000e+00	1.00000e+00	X	X	X	X	X	X	X	X	X	X	X	X	X	X	X	X	

B = Detector Channel
Val Type	B-AC1	B-AC2	B-AC3	B-AC4	B-AC5	B-AC6	B-AC7	B-AC8	B-AC9	B-AC10	B-AC11	B-AC12	B-AC13	B-AC14	B-AC15	B-AC16	B-DC1	B-DC2	B-DC3	B-DC4	B-DC5	B-DC6	B-DC7	B-DC8	B-DC9	B-DC10	B-DC11	B-DC12	B-DC13	B-DC14	B-DC15	B-DC16	B-Ph1	B-Ph2	B-Ph3	B-Ph4	B-Ph5	B-Ph6	B-Ph7	B-Ph8	B-Ph9	B-Ph10	B-Ph11	B-Ph12	B-Ph13	B-Ph14	B-Ph15	B-Ph16	

Term	0.00000e+00	0.00000e+00	0.00000e+00	0.00000e+00	0.00000e+00	0.00000e+00	0.00000e+00	0.00000e+00	0.00000e+00	0.00000e+00	0.00000e+00	0.00000e+00	0.00000e+00	0.00000e+00	0.00000e+00	0.00000e+00	0.00000e+00	0.00000e+00	0.00000e+00	0.00000e+00	0.00000e+00	0.00000e+00	0.00000e+00	0.00000e+00	0.00000e+00	0.00000e+00	0.00000e+00	0.00000e+00	0.00000e+00	0.00000e+00	0.00000e+00	0.00000e+00	-4.91106e+01	-1.29134e+02	-1.27521e+02	-1.82803e+02	-4.69321e+01	-6.59653e+01	-1.55300e+02	-1.62015e+02	-3.08113e+01	-5.60136e+01	-1.72433e+02	-1.69655e+02	-1.79183e+02	-1.77693e+02	-4.59966e+01	-1.49676e+02	
Factor	2.21910e-05	1.68420e-04	4.73740e-05	1.71963e-01	2.02722e-06	1.93536e-06	1.62812e-01	5.14453e-02	1.28848e-06	1.77628e-06	9.95207e-02	3.07250e-02	2.96854e-02	1.01395e-02	1.68739e-06	1.45673e-02	8.04080e-06	1.07497e-05	2.97371e-06	8.54535e-02	1.12668e-07	1.18595e-07	7.62481e-02	2.57182e-02	1.11776e-07	1.19426e-07	4.83138e-02	1.49934e-02	1.50207e-02	5.11324e-03	1.16012e-07	7.12113e-03	X	X	X	X	X	X	X	X	X	X	X	X	X	X	X	X	



#DISTANCE SETTINGS
A = Detector Channel
A-1	A-2	A-3	A-4	A-5	A-6	A-7	A-8	A-9	A-10	A-11	A-12	A-13	A-14	A-15	A-16	

2.5000e+00	3.0000e+00	2.5000e+00	3.0000e+00	2.0000e+00	3.0000e+00	1.5000e+00	3.0000e+00	3.0000e+00	3.0000e+00	3.0000e+00	3.0000e+00	3.0000e+00	3.0000e+00	1.5000e+00	3.0000e+00	

B = Detector Channel
B-1	B-2	B-3	B-4	B-5	B-6	B-7	B-8	B-9	B-10	B-11	B-12	B-13	B-14	B-15	B-16	

1.0000e+01	1.0000e+01	1.0000e+01	1.4400e+00	1.0000e+01	1.0000e+01	1.5100e+00	1.9400e+00	1.0000e+01	1.0000e+01	1.9900e+00	2.4900e+00	2.4100e+00	2.9000e+00	1.0000e+01	2.9800e+00	




#DATA BEGINS
time	group	step	mark	flag	A-AC1	A-AC2	A-AC3	A-AC4	A-AC5	A-AC6	A-AC7	A-AC8	A-AC9	A-AC10	A-AC11	A-AC12	A-AC13	A-AC14	A-AC15	A-AC16	A-DC1	A-DC2	A-DC3	A-DC4	A-DC5	A-DC6	A-DC7	A-DC8	A-DC9	A-DC10	A-DC11	A-DC12	A-DC13	A-DC14	A-DC15	A-DC16	A-Ph1	A-Ph2	A-Ph3	A-Ph4	A-Ph5	A-Ph6	A-Ph7	A-Ph8	A-Ph9	A-Ph10	A-Ph11	A-Ph12	A-Ph13	A-Ph14	A-Ph15	A-Ph16	B-AC1	B-AC2	B-AC3	B-AC4	B-AC5	B-AC6	B-AC7	B-AC8	B-AC9	B-AC10	B-AC11	B-AC12	B-AC13	B-AC14	B-AC15	B-AC16	B-DC1	B-DC2	B-DC3	B-DC4	B-DC5	B-DC6	B-DC7	B-DC8	B-DC9	B-DC10	B-DC11	B-DC12	B-DC13	B-DC14	B-DC15	B-DC16	B-Ph1	B-Ph2	B-Ph3	B-Ph4	B-Ph5	B-Ph6	B-Ph7	B-Ph8	B-Ph9	B-Ph10	B-Ph11	B-Ph12	B-Ph13	B-Ph14	B-Ph15	B-Ph16	aux-1	digaux	

41586.062	1	1	0	512	0.13482	0.1183	0.37961	0.17646	0.14939	0.047268	0.12766	0.35254	0.090184	0.20145	0.09557	0.055732	0.17892	0.26594	0.2201	0.10452	-2.6063	-3.1625	-2.65	-3.1542	-2.7687	-2.8458	-3.2	-2.925	-3.0458	-3.0563	-2.6	-3.15	-2.8646	-2.9354	-3.0854	-2.7792	291.158	425.702	458.006	285.925	441.685	348.391	272.032	474.417	347.624	178.556	482.499	183.747	260.260	457.206	292.005	178.469	0.00053899	7.0366e-05	7.7576e-05	529.5	8.5717e-07	2.2586e-06	506.7	193.71	4.2646e-06	1.2776e-06	204.67	87.565	75.393	42.217	5.1167e-06	49.193	0.00042682	0.00040739	0.00011181	518.94	4.157e-06	4.2946e-06	500.26	190.44	4.2398e-06	4.5173e-06	201.65	86.592	74.873	42.278	4.728e-06	48.752	271.251	308.974	268.059	179.057	398.029	302.767	177.751	184.044	304.409	305.824	181.568	185.245	188.396	192.700	333.967	188.054	-8191	255	
41586.160	1	1	0	0	0.17728	0.21235	0.055421	0.25683	0.18253	0.23109	0.25417	0.12941	0.24952	0.14264	0.33043	0.10945	0.13579	0.23186	0.25906	0.1486	-2.4062	-3.1708	-2.7104	-3.1521	-2.9667	-2.7583	-3.1375	-2.9146	-2.875	-3.1104	-2.9437	-3.0375	-2.9625	-2.7854	-3.0729	-3.0021	282.532	178.200	348.052	499.470	207.248	525.591	465.006	433.388	434.152	376.561	199.060	346.183	509.677	524.778	297.136	195.064	0.00055305	0.00012143	0.00010377	527.18	6.966e-06	1.9302e-06	514.5	192.7	3.4828e-06	5.2665e-06	204.38	87.084	75.442	42.439	2.991e-06	49.288	0.00042661	0.00039501	0.0001121	521	4.272e-06	4.3015e-06	504.66	190.81	4.1352e-06	4.6024e-06	202.27	86.782	75.129	42.491	4.5634e-06	49.011	272.697	269.063	279.234	178.839	326.560	272.327	177.255	184.483	329.362	328.651	181.384	185.156	188.298	192.943	359.077	188.505	-8191	255	
41586.258	1	1	0	0	0.12967	0.17668	0.030903	0.18787	0.036372	0.18913	0.092467	0.24499	0.28213	0.04807	0.2669	0.16087	0.20049	0.11854	0.33187	0.15018	-2.5167	-2.9104	-2.7479	-2.9813	-3.0958	-2.7354	-3.0146	-2.975	-2.8229	-3.0438	-2.9292	-3.0687	-3.1604	-2.775	-3.0958	-3.0104	254.090	456.114	365.341	280.731	396.455	513.175	292.027	189.440	299.502	323.022	448.440	286.757	348.046	394.067	388.073	487.590	0.00056674	0.00061047	7.5461e-05	531.5	2.3697e-06	2.6203e-06	511.85	193.23	3.5215e-06	2.9476e-06	204.5	87.679	75.246	42.48	4.1403e-06	49.049	0.00044102	0.00041133	0.00011192	522.66	4.4793e-06	4.5521e-06	503.22	191.07	4.2649e-06	4.5581e-06	201.6	86.624	75.105	42.438	4.4464e-06	48.599	274.970	269.452	274.421	179.322	359.927	262.569	177.831	184.216	346.410	330.243	181.338	185.314	188.468	192.733	337.439	188.163	-8191	255	
41586.352	1	1	0	0	0.20561	0.097586	0.092096	0.1266	0.21625	0.12824	0.16005	0.22478	0.05868	0.30813	0.22935	0.14308	0.15885	0.15558	0.078547	0.12475	-2.3229	-3.1521	-2.7104	-2.875	-3.0896	-2.8125	-3.1521	-2.9562	-2.7604	-3.0708	-2.8917	-3.0271	-3.1417	-2.9208	-2.9313	-3.1208	325.623	306.797	517.202	484.530	193.546	368.914	213.959	469.039	241.296	367.353	258.071	210.997	313.456	499.501	267.937	503.005	0.00052391	0.00035016	0.00012533	532.5	2.5159e-06	5.7268e-06	509.07	193.91	2.3371e-06	2.421e-06	204.18	87.193	75.594	42.499	4.5326e-06	48.777	0.00044724	0.00041662	0.00010823	522.27	4.5072e-06	4.4528e-06	500.94	191.04	4.3646e-06	4.4342e-06	201.49	86.435	75.047	42.334	4.2294e-06	48.732	274.990	289.274	251.714	178.889	334.565	300.977	177.806	184.214	287.976	324.997	181.509	185.239	188.027	192.820	336.324	188.521	-8191	255	
41586.449	1	1	0	0	0.15073	0.17851	0.20991	0.10002	0.064312	0.13287	0.21238	0.14892	0.030375	0.10432	0.06311	0.18053	0.27529	0.065226	0.033309	0.25711	-2.2792	-3.0417	-2.7354	-2.7354	-3.2271	-2.7833	-3.0958	-2.9792	-2.8688	-3.0958	-2.8521	-2.8396	-3.1333	-2.8	-2.8229	-2.9667	419.497	381.387	422.912	177.347	498.670	338.123	270.909	434.880	372.975	424.326	213.616	233.592	365.678	464.246	273.329	432.739	0.00055885	0.00032764	7.5782e-05	530.33	1.6594e-06	6.4572e-06	513.68	194.11	5.0318e-06	5.1189e-06	204.24	87.558	75.301	42.279	1.1531e-06	49.332	0.00045268	0.00040244	0.00010536	522.53	4.484e-06	4.3292e-06	503.86	191.34	4.353e-06	4.4133e-06	202.09	86.999	75.162	42.365	4.1786e-06	48.945	274.498	267.310	238.514	179.271	328.051	317.256	177.543	184.460	338.727	327.797	181.146	185.562	188.306	192.704	401.848	188.393	-8191	255	
41586.570	1	1	0	0	0.094275	0.16926	0.083582	0.060683	0.26851	0.26228	0.19568	0.11319	0.16687	0.094624	0.058453	0.20057	0.096264	0.084727	0.21078	0.27004	-2.3771	-2.9708	-2.7875	-2.8458	-3.025	-2.8917	-2.9333	-3.0792	-2.7229	-3.2208	-2.7833	-2.7938	-3.2938	-2.8833	-2.8	-3.1063	253.304	350.203	184.144	334.837	346.489	405.436	429.865	353.786	470.936	293.277	338.683	456.139	257.032	172.807	442.026	515.243	0.00059257	0.00033918	0.00015724	533.81	4.7595e-06	6.0469e-06	510.23	193.83	1.3513e-06	4.8182e-06	203.68	87.795	75.546	42.391	2.8607e-06	48.938	0.00044774	0.00038737	0.00010477	523.92	4.5002e-06	4.47e-06	503.65	191.33	4.4058e-06	4.262e-06	202.2	86.756	74.98	42.331	4.4043e-06	48.724	275.359	267.331	221.127	179.394	344.814	355.166	177.506	184.408	328.264	307.173	181.293	185.628	188.411	192.701	330.346	188.226	-8191	255	
41586.664	1	1	0	0	0.34498	0.08423	0.11188	0.28562	0.21546	0.15931	0.22004	0.085967	0.3144	0.29801	0.18122	0.30078	0.095826	0.070511	0.098697	0.29463	-2.4458	-3.0312	-2.7583	-2.8312	-3.1146	-2.8375	-2.8625	-3.0896	-2.9125	-3.0708	-3.1854	-2.6375	-3.1854	-2.8312	-2.8021	-3.2042	297.352	314.456	368.247	229.011	273.066	280.494	403.516	276.144	422.831	214.278	333.694	496.167	258.914	400.319	235.409	477.785	0.00054956	0.00043986	6.8667e-05	530.81	5.6776e-06	5.2291e-06	511.66	192.81	2.2794e-06	3.1503e-06	203.39	87.248	75.559	42.126	2.8406e-06	48.66	0.00045325	0.00040215	0.0001079	522.01	4.7905e-06	4.3411e-06	500.97	189.85	4.4822e-06	4.2212e-06	200.49	86.246	74.718	42.042	4.4957e-06	48.367	276.409	266.934	273.309	178.920	316.689	310.427	177.533	184.044	313.313	329.233	180.855	185.476	188.220	192.739	320.566	188.601	-8191	255	
41586.762	1	1	0	0	0.11071	0.33092	0.26509	0.24755	0.19722	0.21462	0.2085	0.11606	0.097985	0.12713	0.16144	0.012032	0.39706	0.17279	0.095101	0.25845	-2.3083	-3.0125	-2.875	-2.6729	-3.0104	-3.05	-2.9208	-3.225	-2.6896	-2.9375	-3.1042	-2.6875	-3.2188	-2.9437	-2.6604	-3.2396	312.634	197.087	239.823	446.702	524.815	479.935	410.320	491.984	266.038	391.067	266.043	274.511	488.723	451.076	398.381	512.404	0.00054196	0.0004016	0.00010118	526.67	5.6798e-06	5.432e-06	509.01	191.54	4.6076e-06	3.0386e-06	203.43	87.98	75.267	42.095	3.7304e-06	48.685	0.00045288	0.00039335	0.00011321	520.71	4.5668e-06	4.2976e-06	500.82	189.24	4.4564e-06	4.374e-06	200.3	86.244	74.68	42	4.5677e-06	48.395	274.941	259.851	266.469	178.926	320.601	295.895	177.700	184.380	328.030	297.609	181.131	185.032	188.576	192.685	333.934	188.058	-8191	255	
41586.879	1	1	0	0	0.10913	0.060547	0.111	0.13843	0.17178	0.097646	0.017169	0.23585	0.12131	0.19553	0.34097	0.29802	0.30767	0.12909	0.01281	0.13985	-2.4042	-2.8146	-2.9688	-2.8625	-3.0042	-2.7583	-2.8521	-3.1708	-2.8021	-2.8917	-3.075	-2.8458	-2.9458	-3.0812	-2.9979	-3.2479	360.850	459.375	357.284	419.262	498.597	320.130	518.772	483.366	339.712	336.226	449.765	481.169	205.783	186.582	220.986	386.951	0.00050028	0.00034017	0.00013837	528.72	4.665e-06	2.702e-06	510.12	192.1	5.1966e-06	4.7381e-06	203.36	87.431	75.057	42.026	3.9734e-06	48.612	0.00045323	0.00040638	0.00011684	520.47	4.5419e-06	4.3925e-06	501.62	189.87	4.3474e-06	4.5051e-06	201.37	86.303	74.606	42.077	4.924e-06	48.518	273.305	256.319	244.307	178.811	318.388	326.946	177.454	184.234	324.047	336.756	181.000	185.282	188.017	192.953	340.887	188.111	-8191	255	
41586.953	1	1	0	0	0.1056	0.042974	0.06335	0.077469	0.17398	0.17606	0.299	0.12282	0.23422	0.15193	0.18762	0.089635	0.11478	0.14679	0.11529	0.16807	-2.3521	-2.8896	-3.1083	-2.6562	-3.0021	-2.8646	-2.8542	-3.0979	-2.7833	-2.8667	-3.0146	-2.6792	-3.0083	-2.9208	-2.7771	-3.1167	361.483	386.874	403.900	493.381	513.307	479.349	361.217	469.748	365.463	335.318	451.915	168.506	483.180	321.580	471.281	279.236	0.00053	0.0004205	5.4523e-05	526.1	2.5448e-06	3.1388e-06	512.5	192.48	2.1496e-06	5.0131e-06	204.06	87.012	75.007	41.938	3.8863e-06	48.53	0.00043786	0.00041713	0.00012006	519.4	4.2288e-06	4.6408e-06	501.88	190.05	4.2996e-06	4.5442e-06	201.62	86.127	74.577	42.032	4.908e-06	48.164	274.590	300.568	258.539	178.958	294.663	310.489	177.846	184.424	316.645	329.344	181.248	185.415	188.349	192.772	298.657	188.495	-8191	255	
41587.047	1	1	0	0	0.19472	0.080276	0.2191	0.10092	0.062333	0.025232	0.10929	0.18535	0.1147	0.015789	0.12899	0.34647	0.10449	0.16635	0.18007	0.26373	-2.4313	-2.7438	-3.0354	-2.6188	-2.8021	-3.1146	-2.7604	-3.1375	-2.85	-2.8438	-3.0771	-2.6688	-3.0021	-3.0583	-2.6063	-2.8792	265.002	318.778	334.237	503.996	486.341	282.800	491.285	445.826	513.137	462.672	373.486	489.702	491.619	183.358	348.969	281.235	0.00054072	0.00049683	3.4364e-05	529.71	3.0904e-06	4.0126e-06	503.4	191.38	4.2069e-06	2.0848e-06	202.29	86.844	74.925	42.085	5.4913e-06	48.401	0.00044188	0.00042667	0.00011762	519.99	4.1732e-06	4.7786e-06	497.65	189.53	4.2955e-06	4.6419e-06	200.1	85.899	74.24	41.941	4.939e-06	48.121	273.314	284.687	234.962	179.038	347.458	315.704	177.595	184.582	372.544	319.446	181.487	185.287	188.180	192.802	358.200	188.413	-8191	255	
41587.145	1	1	0	0	0.089918	0.054133	0.087753	0.20679	0.1179	0.22617	0.14035	0.24683	0.23003	0.13995	0.030203	0.074887	0.087972	0.078693	0.21452	0.11465	-2.4875	-2.8125	-3.2625	-2.75	-2.9979	-3.1708	-2.7833	-3.0708	-2.9729	-3.0438	-3.1583	-3.0021	-2.8104	-3.2708	-2.7833	-3.2229	355.532	498.571	518.258	504.281	518.874	309.632	488.964	428.254	411.002	401.929	432.470	394.311	394.467	518.732	477.961	202.416	0.0005139	0.00046256	0.00016083	525.19	4.1196e-06	4.6488e-06	508.72	190.8	3.5914e-06	3.6121e-06	203.28	87.121	75.024	42.115	2.7834e-06	48.724	0.00045511	0.00043129	0.00011622	518.49	4.4488e-06	4.7228e-06	500.03	189.15	4.3846e-06	4.7243e-06	200.97	86.13	74.444	42.005	4.7069e-06	48.344	272.389	261.833	243.292	179.344	279.508	298.859	177.478	184.328	299.393	339.165	181.554	185.253	188.520	192.626	317.686	188.221	-8191	255	
41587.266	1	1	0	0	0.15304	0.045699	0.038859	0.13533	0.20089	0.20889	0.13781	0.12214	0.085346	0.24471	0.18371	0.04335	0.3349	0.031674	0.18621	0.051275	-2.5833	-2.7396	-3.0563	-2.8021	-2.9958	-3.1875	-2.875	-3.0771	-2.9833	-2.7208	-3.2	-2.8896	-2.6354	-3.3563	-2.7396	-3.2167	256.256	187.475	494.900	348.255	510.053	187.188	471.660	294.087	493.886	176.193	194.316	401.255	502.254	320.540	393.180	272.465	0.00051586	0.00028674	9.8968e-05	528.2	4.8291e-06	3.9857e-06	510.3	190.83	5.1975e-06	4.0479e-06	202.48	87.048	74.812	42.19	5.7437e-06	48.515	0.00045471	0.00044638	0.00011683	519.96	4.395e-06	5.0536e-06	500.56	188.65	4.6028e-06	4.891e-06	200.53	85.944	74.319	41.931	4.6163e-06	48.07	270.491	277.540	255.129	179.333	297.201	326.669	177.425	184.236	314.351	312.408	181.399	185.127	188.445	192.838	330.138	188.615	-8191	255	
41587.359	1	1	0	0	0.12022	0.18163	0.23343	0.090333	0.083316	0.21672	0.099184	0.030173	0.097423	0.17473	0.047904	0.11242	0.16171	0.17633	0.057841	0.3146	-2.5167	-2.6771	-2.9458	-2.9542	-2.8083	-3.0604	-2.6437	-3.2083	-2.9708	-2.9729	-3.0438	-2.9542	-2.8542	-3.1813	-2.7708	-2.875	319.932	295.540	421.714	386.925	501.576	280.241	433.943	519.565	195.171	369.563	322.029	399.646	421.088	475.311	228.011	473.565	0.00054714	0.00032217	6.5099e-05	525.41	2.9281e-06	4.1045e-06	502.28	191.28	1.4528e-06	5.8403e-06	202.28	86.952	74.93	42.014	2.9951e-06	48.391	0.00047982	0.00045189	0.0001206	517.8	4.6661e-06	4.983e-06	495.07	188.83	4.6697e-06	4.7992e-06	199.67	85.676	74.3	41.789	4.6378e-06	48.028	273.443	272.465	288.134	179.038	334.528	347.220	177.197	184.317	312.224	321.332	181.161	185.454	188.316	192.734	324.367	188.255	-8191	255	
41587.457	1	1	0	0	0.10325	0.045237	0.21467	0.040193	0.083742	0.1622	0.17229	0.245	0.11638	0.24112	0.13285	0.21228	0.14864	0.3162	0.080588	0.13809	-2.7125	-2.6437	-3.025	-2.8625	-2.7271	-3.0896	-2.7708	-2.9896	-3.1042	-2.8375	-2.9688	-3.0375	-2.8604	-3.1521	-2.8146	-2.7125	376.880	255.188	178.532	251.703	233.807	427.772	355.514	363.268	379.030	498.723	294.599	466.725	484.673	400.119	191.882	211.694	0.00053626	9.7325e-05	0.00014821	522.76	6.2767e-06	2.2695e-06	503.45	191.76	3.4186e-06	4.2877e-06	202.49	86.837	74.554	41.807	4.1032e-06	48.132	0.00047932	0.00043812	0.0001122	516.82	4.741e-06	4.8869e-06	497.02	189.23	4.6536e-06	4.7046e-06	199.78	85.804	74.247	41.729	4.5184e-06	48.02	271.956	308.933	239.688	179.153	319.218	345.579	177.448	184.358	335.086	347.590	181.608	185.496	188.368	192.608	327.845	188.058	-8191	255	
41587.527	1	1	0	0	0.081156	0.12508	0.07441	0.094555	0.1535	0.12711	0.038881	0.18339	0.12318	0.050869	0.40483	0.16438	0.22406	0.21482	0.24238	0.093629	-2.6813	-2.6271	-2.7938	-2.9229	-2.8021	-3.0333	-3.0979	-2.8333	-3.0312	-2.7812	-2.8729	-2.9292	-2.7062	-3.0187	-2.95	-3.0229	467.708	230.240	483.515	517.600	180.067	419.883	443.083	466.973	444.047	385.733	494.389	338.512	438.873	469.330	276.078	452.050	0.00052387	0.00031271	0.00015607	526.18	3.6668e-06	3.2158e-06	511.04	191.02	3.7568e-06	1.0375e-06	203.12	86.297	74.471	41.709	2.6856e-06	48.071	0.0004837	0.00043827	0.00011195	518.25	4.8729e-06	4.8466e-06	498.36	188.71	4.8578e-06	4.9238e-06	199.46	85.696	74.033	41.555	4.9025e-06	47.88	274.151	282.258	263.516	178.890	301.679	292.236	177.926	184.392	333.155	357.275	181.615	184.952	188.294	192.574	326.638	188.211	-8191	255	
41587.648	1	1	0	0	0.078401	0.18614	0.1557	0.16044	0.11889	0.25853	0.21658	0.067204	0.12138	0.18032	0.043415	0.20117	0.21426	0.17277	0.34897	0.15222	-2.8563	-2.675	-2.9458	-3.1729	-2.7771	-2.8333	-2.9958	-2.8979	-3.1813	-2.8125	-2.8937	-3.1813	-2.7167	-3.0208	-2.8417	-2.6188	395.900	389.431	265.391	439.387	320.722	237.561	505.246	478.233	283.141	464.646	436.311	214.449	466.165	510.976	454.855	422.726	0.00054946	0.00033494	0.00014481	518.19	8.4472e-06	2.4497e-06	499.08	189.09	1.2115e-06	5.4142e-06	200.09	85.817	73.731	41.196	7.3005e-07	47.976	0.00051218	0.00045928	0.00012768	514.41	5.2219e-06	5.0682e-06	491.15	186.34	5.2621e-06	5.2423e-06	196.83	84.829	73.266	41.143	5.3242e-06	47.334	275.242	262.993	285.229	178.805	316.968	310.722	177.669	184.298	332.997	360.314	181.206	185.204	188.246	192.883	289.986	188.299	-8191	255	
41587.746	1	1	0	0	0.14248	0.12326	0.14726	0.28762	0.21499	0.15641	0.15006	0.26199	0.068894	0.060354	0.17025	0.11245	0.12948	0.24053	0.21332	0.25065	-2.6583	-2.6417	-2.8312	-3.0146	-2.6646	-2.9521	-2.9604	-2.8042	-3.0167	-2.9042	-2.8229	-3.0271	-2.75	-3.0354	-3.1417	-2.9417	177.961	174.469	264.888	519.625	228.514	286.889	494.092	406.832	296.508	346.872	514.513	514.167	322.991	465.463	446.109	461.740	0.00054829	0.00046027	9.0848e-05	523.72	4.898e-06	4.2789e-06	501.06	187.73	2.7876e-06	3.3978e-06	197.5	84.928	73.134	41.248	4.9818e-06	47.759	0.00053666	0.00047155	0.00013198	513.33	5.3914e-06	5.1139e-06	490.38	186.33	5.3357e-06	4.995e-06	196.15	84.371	73.032	41.082	5.4547e-06	47.368	277.092	217.210	251.786	178.938	353.066	351.577	177.281	184.371	316.782	302.641	181.245	185.266	188.278	192.789	330.586	188.194	-8191	255	
41587.844	1	1	0	0	0.13239	0.11441	0.14533	0.20432	0.14401	0.067066	0.15442	0.34672	0.16415	0.052464	0.21976	0.23271	0.19854	0.07334	0.23544	0.15218	-2.6333	-2.7958	-2.6917	-3.0042	-2.8729	-2.7583	-2.9875	-2.7938	-3.1271	-2.8229	-2.9042	-3.0354	-2.5812	-3.0208	-3.0062	-2.625	317.049	207.380	189.975	465.740	502.485	249.923	418.082	489.910	340.936	342.486	457.940	409.951	180.498	354.842	385.405	360.424	0.00051839	0.00039117	0.00012155	519.23	3.3823e-06	4.0904e-06	499.04	188.58	2.5385e-06	1.1073e-06	198.52	85.103	73.054	41.128	3.3343e-06	47.725	0.0005049	0.00048589	0.00013794	512.77	5.067e-06	5.1132e-06	491.23	186.17	5.1219e-06	5.1592e-06	196.9	84.507	73.215	41.115	5.3784e-06	47.4	269.490	284.656	251.500	178.885	316.278	319.224	177.602	184.375	329.853	305.638	181.093	185.455	188.348	192.814	296.161	188.416	-8191	255	
41587.961	1	1	0	0	0.07485	0.11874	0.051321	0.050053	0.29668	0.078801	0.29106	0.17612	0.20384	0.11094	0.14887	0.099758	0.20153	0.066942	0.13779	0.25812	-2.6771	-2.7167	-2.6583	-3.1437	-2.6396	-2.9437	-3.0146	-2.5563	-2.9917	-2.85	-2.7396	-3.2375	-2.7833	-2.9313	-3.0458	-2.7625	395.893	387.688	426.041	344.809	379.577	342.342	330.024	389.089	411.233	178.595	280.792	194.508	435.467	183.861	457.655	488.684	0.00053859	0.00019558	5.2079e-05	520.84	3.8631e-06	3.6935e-06	499.65	188.11	3.61e-06	4.1089e-06	197.87	84.932	72.902	41.213	4.9837e-06	47.326	0.00048649	0.00047301	0.00013954	513.69	4.9588e-06	5.3039e-06	492.35	186.09	5.0434e-06	5.3866e-06	196.3	84.113	72.882	41.072	5.6118e-06	47.16	275.650	256.760	265.116	179.427	332.878	300.880	177.358	184.429	339.774	369.171	181.447	185.234	188.643	192.652	331.952	188.174	-8191	255	
41588.059	1	1	0	0	0.15871	0.034849	0.25733	0.13992	0.081626	0.15543	0.099723	0.35193	0.29265	0.28827	0.21756	0.14237	0.13089	0.27717	0.18983	0.19631	-2.5083	-2.8792	-2.7208	-3.0771	-2.7521	-2.8625	-3.1333	-2.7979	-2.8229	-3.0042	-2.6771	-3.0896	-2.6792	-2.7354	-3.0375	-2.5479	404.505	184.154	416.377	191.705	453.056	247.777	338.621	471.094	385.744	191.873	461.764	524.065	310.105	303.693	303.368	399.924	0.000517	0.00039117	7.0969e-05	516.87	1.9636e-06	1.7111e-06	493.64	188.43	1.0465e-06	4.4034e-06	196.7	84.705	73.09	41.196	5.5988e-06	47.406	0.00048947	0.00050747	0.00013957	510.64	4.8677e-06	5.5006e-06	485.85	185.89	4.9391e-06	5.2692e-06	195.1	83.854	72.986	41.038	5.4912e-06	47.139	273.381	275.043	275.374	179.368	299.467	429.768	177.661	184.239	325.416	325.396	181.159	185.147	188.287	192.508	311.135	188.376	-8191	255	
41588.152	1	1	0	0	0.047904	0.34663	0.14276	0.40694	0.1522	0.22496	0.1151	0.06916	0.047248	0.3938	0.25422	0.12234	0.15577	0.33474	0.17502	0.11989	-2.6667	-2.8167	-2.7125	-3.0062	-2.8229	-2.5417	-3.1729	-2.7333	-3.0187	-2.9833	-2.8542	-3.0333	-2.9729	-2.875	-3.0354	-2.8688	179.432	294.806	188.213	464.787	426.886	318.561	400.240	199.898	247.868	376.341	443.893	495.153	502.769	431.156	273.594	466.562	0.00051445	0.00026982	7.4856e-05	518.43	4.9924e-06	3.6345e-06	496.84	188.26	4.4447e-06	3.6195e-06	197.67	84.518	73.751	41.015	4.6209e-06	47.579	0.00048158	0.00050658	0.00013588	511.11	5.0259e-06	5.3205e-06	488.85	185.97	4.9575e-06	5.356e-06	195.84	83.974	73.235	40.997	5.3462e-06	47.283	268.168	283.496	235.586	178.750	317.360	346.907	177.560	184.377	303.813	346.572	181.345	185.576	188.170	192.627	315.133	188.399	-8191	255	
41588.250	1	1	0	0	0.20751	0.2176	0.10125	0.074406	0.15729	0.17903	0.13798	0.14552	0.17397	0.17615	0.12031	0.1744	0.092429	0.04034	0.29758	0.19536	-2.5833	-2.975	-2.7667	-3.1562	-3.0104	-2.7229	-3.1021	-2.9396	-2.9	-3.0729	-2.65	-2.8167	-2.9167	-2.8583	-3.0875	-2.6958	368.893	283.146	277.140	256.614	446.829	441.061	330.414	420.793	486.134	396.876	370.724	437.190	385.177	276.336	311.075	188.099	0.00048446	0.00034769	0.00011002	520.76	3.3584e-06	5.3178e-06	500.14	189.39	4.51e-06	2.1838e-06	199.93	85.606	73.628	41.268	3.9226e-06	47.951	0.00048453	0.00050188	0.00013265	513.2	4.7837e-06	5.1374e-06	491.64	186.72	4.7987e-06	5.2042e-06	197.37	84.608	73.324	41.242	5.0405e-06	47.445	270.321	286.925	295.135	179.175	302.962	284.598	177.393	184.131	304.033	286.269	181.387	185.658	188.411	192.757	327.703	188.127	-8191	255	
41588.344	1	1	0	0	0.15115	0.095014	0.11717	0.13337	0.31641	0.12432	0.07658	0.22161	0.10443	0.15415	0.10438	0.16486	0.16603	0.19999	0.1869	0.20637	-2.4417	-3.1042	-2.5417	-3.0979	-2.8563	-2.9271	-3.1583	-2.8688	-2.7354	-3.0312	-2.7979	-2.9313	-3.0438	-2.5479	-3.1188	-2.8875	386.300	442.877	228.259	505.514	199.852	258.121	269.465	461.092	407.391	184.057	492.479	243.086	509.484	413.908	379.985	487.914	0.00050481	0.0005823	0.00012889	520.75	4.8022e-06	3.3288e-06	493.94	188.38	5.275e-06	1.0837e-06	196.39	85.18	73.43	41.215	4.2607e-06	47.391	0.00049593	0.00050658	0.00013034	511.82	4.9121e-06	5.2214e-06	487.87	186.08	5.2877e-06	5.3396e-06	195.25	84.122	73.026	41.126	5.1819e-06	47.146	271.953	229.417	230.609	179.155	319.270	317.523	177.624	183.886	326.586	359.270	181.735	185.478	188.543	192.512	344.626	188.532	-8191	255	
41588.441	1	1	0	0	0.2842	0.10168	0.14172	0.18656	0.14351	0.18473	0.053614	0.23344	0.085745	0.043119	0.11366	0.23577	0.047411	0.263	0.16174	0.22284	-2.5021	-3.0396	-2.6854	-3.0021	-3.0792	-2.775	-3.1521	-2.9104	-2.9375	-3.175	-2.7896	-2.8208	-3.0438	-2.8937	-3.0333	-3	478.235	179.685	479.941	438.068	439.741	486.713	364.750	510.182	351.222	481.838	227.467	394.855	380.724	453.679	218.057	339.656	0.00054873	0.00040937	0.00010968	519.93	3.2234e-06	6.7213e-06	496.83	187.64	3.1672e-06	1.9561e-06	197.76	84.865	73.056	41.016	2.5295e-06	47.386	0.00049806	0.0005055	0.00012683	510.94	5.159e-06	5.3462e-06	488.61	185.98	5.199e-06	5.2222e-06	195.58	83.971	73.172	41.105	5.0497e-06	47.142	270.125	285.032	244.139	179.399	333.227	335.140	177.760	184.343	367.889	275.219	181.731	185.754	188.194	192.675	328.731	188.538	-8191	255	
41588.562	1	1	0	0	0.14085	0.17673	0.12333	0.081373	0.19294	0.0814	0.27973	0.3758	0.3282	0.17876	0.11591	0.022229	0.23544	0.10593	0.34021	0.14739	-2.4292	-3.0458	-2.7729	-3.0271	-2.9875	-2.7417	-3.0125	-2.9437	-2.8521	-3.0958	-2.8688	-2.7333	-3.0833	-2.6583	-2.9021	-2.9396	505.855	480.295	516.118	425.000	376.301	425.951	491.956	434.471	485.186	254.014	350.082	433.441	454.476	435.867	480.294	499.643	0.00053392	0.00045573	8.2673e-05	520.67	3.6008e-06	2.7747e-06	496.85	188.13	3.2586e-06	4.7485e-07	196.99	85.062	73.045	41.022	5.1046e-06	47.433	0.00051681	0.00050642	0.00012869	511.8	5.3541e-06	5.4025e-06	489.63	185.85	5.443e-06	5.5993e-06	195.24	84.247	72.924	40.997	5.3257e-06	47.17	277.231	209.291	247.480	179.189	367.843	315.451	177.672	184.716	327.801	230.330	181.064	185.515	188.451	192.856	310.295	187.995	-8191	255	
41588.656	1	1	0	0	0.34006	0.15886	0.19605	0.0065028	0.3442	0.089214	0.21039	0.17789	0.23552	0.26519	0.06889	0.20753	0.1296	0.30536	0.2493	0.12866	-2.3937	-2.9458	-2.65	-2.9375	-3.1063	-2.8479	-3.025	-2.9833	-2.5896	-3.075	-2.8563	-2.775	-3.1375	-2.8979	-2.9854	-3.1458	374.149	225.056	447.282	266.546	457.063	413.756	186.031	441.390	425.222	400.581	267.047	456.520	438.228	445.382	242.905	401.201	0.00055834	0.00018977	7.3657e-05	518.59	4.468e-06	6.5333e-06	500.16	188.03	3.5993e-06	6.486e-07	197.76	84.68	72.879	40.999	4.0253e-06	47.26	0.00052155	0.00049272	0.00013193	511.84	5.2684e-06	5.2728e-06	490.32	185.74	5.3944e-06	5.2448e-06	195.6	83.968	72.647	40.96	5.2379e-06	46.95	278.456	336.011	299.256	179.191	349.490	294.273	177.705	184.186	338.371	246.563	181.465	185.419	188.377	192.619	339.791	188.418	-8191	255	
41588.754	1	1	0	0	0.13875	0.2894	0.1452	0.094434	0.086201	0.0075586	0.045053	0.069943	0.046459	0.088255	0.16411	0.084269	0.13304	0.18465	0.16209	0.26096	-2.2562	-2.8625	-2.8875	-2.6917	-3.1	-2.9875	-2.9167	-3.0896	-2.6625	-3.0312	-3.0521	-2.9042	-3.1958	-2.9062	-2.9313	-3.1417	368.237	347.197	238.943	386.791	481.619	459.176	332.338	356.922	334.239	350.346	453.659	438.790	521.582	168.912	341.294	426.842	0.0005608	0.00032916	1.6123e-05	518.84	5.3087e-06	2.3948e-06	492.79	186.64	3.6398e-06	1.8882e-06	197.59	84.27	72.84	40.817	5.0321e-06	46.87	0.00051483	0.00047523	0.0001341	510.13	5.4769e-06	5.2224e-06	484.61	185	5.3443e-06	5.1413e-06	194.9	83.426	72.663	40.848	5.4719e-06	46.783	270.887	260.244	227.453	179.213	350.503	299.002	177.465	184.434	355.106	289.294	180.757	185.680	188.342	192.621	299.952	188.187	-8191	255	
41588.824	1	1	0	0	0.19661	0.15508	0.11115	0.16359	0.14763	0.026461	0.18539	0.13542	0.24505	0.10337	0.3401	0.024139	0.23689	0.26144	0.16656	0.31754	-2.2896	-2.8521	-2.9292	-2.7792	-3.0979	-2.9167	-2.8312	-3.0292	-2.5542	-3.0458	-3.0208	-2.8688	-3.2562	-3.1396	-2.8458	-3.1792	241.394	293.216	390.496	225.612	370.541	222.727	500.037	423.911	400.266	375.842	513.129	179.866	453.828	467.360	253.522	415.175	0.00053954	0.00044975	9.5752e-05	517.04	5.6463e-06	4.6796e-06	492.96	186.24	4.9899e-06	1.8423e-06	197.47	83.899	72.554	40.923	1.3394e-06	46.888	0.00050419	0.00046201	0.00014268	509.91	5.187e-06	5.2165e-06	486.96	185.01	5.3704e-06	5.1756e-06	195.31	83.471	72.475	40.809	5.4642e-06	46.855	272.785	237.826	253.109	179.546	294.128	301.916	177.372	184.459	322.868	322.922	181.533	185.358	188.270	192.662	343.497	188.755	-8191	255	
41588.945	1	1	0	0	0.088464	0.096412	0.14593	0.054603	0.1492	0.099289	0.11531	0.098787	0.21786	0.0713	0.054463	0.12554	0.07103	0.21257	0.10877	0.095271	-2.3354	-2.8396	-2.8771	-2.6708	-3.0333	-2.9146	-3.1292	-3.0417	-2.9417	-3.1396	-3.1083	-2.6479	-3.0604	-3.0292	-2.8167	-3.2313	435.527	175.788	405.151	483.801	462.380	373.657	401.015	256.778	416.209	311.562	455.155	455.911	259.895	430.126	430.224	168.695	0.00052466	0.00044004	6.7613e-05	519.14	6.374e-06	2.5058e-06	496.19	186.82	3.188e-06	5.1347e-06	196.7	84.79	72.627	41.035	4.258e-06	47.114	0.00048632	0.00047505	0.00014153	511.18	5.1609e-06	5.1821e-06	487.46	185.13	4.9626e-06	5.1149e-06	195.06	83.734	72.576	40.868	5.4944e-06	46.939	276.286	256.214	225.423	178.962	334.363	342.485	177.559	184.168	320.354	312.406	181.606	185.473	188.726	192.932	307.595	188.665	-8191	255	
41589.039	1	1	0	0	0.2696	0.15382	0.28949	0.23366	0.060781	0.01313	0.059616	0.10317	0.35978	0.03497	0.15356	0.28495	0.25127	0.24852	0.13558	0.094482	-2.5458	-3.0042	-2.9458	-2.7708	-3.05	-3.0417	-2.95	-3.0792	-2.9	-2.8958	-3.2458	-2.8208	-2.9917	-3.0604	-2.9062	-3.0687	387.176	230.231	398.824	310.819	252.298	429.319	383.499	457.843	430.342	511.109	169.483	481.319	473.270	174.313	240.149	513.895	0.00051052	0.00029724	0.00013249	514.98	6.2776e-06	2.3155e-06	491.4	187.66	5.9564e-06	3.2329e-06	196.21	84.569	72.766	40.956	7.5976e-06	47.232	0.000495	0.0004896	0.00014725	508.14	4.8677e-06	5.336e-06	484.25	185.24	5.0236e-06	5.2022e-06	194.57	83.492	72.684	40.916	5.4487e-06	46.771	276.236	264.166	251.964	179.124	308.442	316.765	177.518	184.099	350.402	299.650	181.498	185.523	188.619	192.465	323.434	188.372	-8191	255	
41589.137	1	1	0	0	0.226	0.26997	0.081887	0.1396	0.18835	0.1845	0.059553	0.2976	0.059011	0.014172	0.10198	0.039739	0.11536	0.26023	0.092576	0.30575	-2.3229	-2.6896	-3.0271	-2.725	-3.0146	-2.875	-2.8896	-3.1833	-2.8937	-2.9208	-3.1583	-2.6896	-3.1771	-3.1	-2.75	-3.1125	366.112	236.939	176.273	206.499	344.543	302.848	488.734	475.893	478.316	239.294	464.812	284.631	429.293	469.492	233.961	408.323	0.00050227	0.00032678	0.0001665	514.84	2.0412e-06	4.054e-06	494.63	188.69	3.2928e-06	2.1605e-06	197.66	84	73.061	41.093	3.0992e-06	47.248	0.00047149	0.00048548	0.00014009	509.3	4.6926e-06	5.0939e-06	486.79	186.41	4.7654e-06	5.3008e-06	195.3	83.368	72.792	41.017	5.3962e-06	46.952	273.902	268.301	259.585	179.086	345.767	328.724	177.346	184.221	335.370	292.247	181.313	185.423	188.523	192.926	323.538	188.522	-8191	255	
41589.234	1	1	0	0	0.12578	0.1214	0.14633	0.06193	0.20913	0.031116	0.13753	0.17849	0.050101	0.3373	0.10205	0.27089	0.28352	0.13433	0.096498	0.12472	-2.5625	-2.7542	-3.0812	-2.7542	-2.9938	-2.9792	-2.8083	-3.0646	-2.8229	-2.7958	-3.0042	-2.675	-2.9417	-3.2188	-2.9125	-3.0958	441.280	416.525	241.556	348.755	522.054	285.159	171.883	511.988	420.604	437.892	473.584	198.924	356.239	181.723	499.333	244.646	0.00051118	0.00037342	0.00012143	517.28	4.909e-06	3.1739e-06	497.95	188.59	3.4071e-06	5.1609e-06	198.25	84.546	73.163	41.197	3.9335e-06	47.646	0.00048945	0.00050875	0.00013719	510.9	5.0086e-06	5.4025e-06	489.51	186.23	5.2395e-06	5.4976e-06	196.82	83.737	72.875	41.067	5.4489e-06	47.152	275.204	257.808	270.327	179.003	317.672	329.282	177.815	184.568	332.160	324.736	181.327	185.761	188.281	192.848	302.622	188.539	-8191	255	
41589.328	1	1	0	0	0.19226	0.14862	0.21379	0.40418	0.11567	0.17806	0.31801	0.32271	0.17648	0.20023	0.24708	0.21506	0.16082	0.13853	0.082912	0.15428	-2.625	-2.5042	-3.0458	-2.8792	-2.9417	-3.1479	-2.9083	-3.1479	-2.9875	-2.8979	-3.0125	-2.6917	-2.9167	-3.0292	-2.8021	-3.0604	451.469	385.852	437.368	445.264	454.576	348.233	227.326	204.757	486.674	510.531	224.088	194.390	506.255	306.855	432.543	448.036	0.00051799	0.00016338	8.0656e-05	519.97	1.6889e-06	3.0584e-06	500.14	188.2	3.6503e-06	4.6096e-06	196.94	84.877	72.979	40.872	1.9295e-06	46.872	0.00048508	0.00051697	0.00014134	511.25	5.1508e-06	5.6394e-06	489.13	186.53	5.3443e-06	5.5496e-06	195.4	83.774	72.799	40.967	5.4835e-06	46.752	271.356	279.476	292.269	179.218	367.592	342.206	177.414	184.410	337.200	313.631	181.285	185.296	188.214	192.838	331.110	188.108	-8191	255	
41589.426	1	1	0	0	0.086897	0.10864	0.20652	0.11237	0.20601	0.10392	0.12045	0.41508	0.2197	0.18739	0.05993	0.026835	0.2918	0.10874	0.31902	0.087464	-2.4583	-2.6375	-2.925	-2.9792	-2.7812	-3.1125	-2.9021	-2.9437	-2.9167	-2.7729	-3.1292	-2.8646	-2.6792	-3.0563	-2.6479	-2.8667	206.095	220.190	233.150	256.022	336.885	272.921	484.852	452.651	315.695	486.795	518.979	384.316	244.485	518.091	344.729	190.540	0.00051198	0.00016566	8.6761e-05	516.38	4.9835e-06	2.8541e-06	497.17	186.99	2.798e-06	4.5447e-06	197.82	84.157	72.901	40.792	2.3709e-06	46.936	0.00051543	0.00052535	0.00013919	508.71	5.5198e-06	5.6639e-06	487.13	185.32	5.7353e-06	5.8285e-06	194.31	83.027	72.528	40.787	5.6464e-06	46.642	271.979	283.838	274.529	178.676	298.443	300.622	177.609	184.410	319.093	347.115	181.489	185.563	188.657	192.782	348.639	188.066	-8191	255	
41589.523	1	1	0	0	0.19598	0.23166	0.1843	0.19964	0.095741	0.15774	0.31302	0.19262	0.11061	0.11338	0.16159	0.18529	0.32768	0.23362	0.15238	0.09749	-2.6042	-2.8021	-2.9396	-2.925	-2.6917	-2.9604	-2.8333	-2.8542	-2.8729	-2.8875	-3.05	-3.0417	-2.675	-3.125	-2.8229	-2.8521	511.794	251.435	277.888	458.628	260.279	469.102	396.237	403.613	466.583	317.149	240.163	268.986	399.625	460.314	185.580	460.527	0.00052307	0.00050046	5.509e-05	515.11	4.1673e-06	4.4859e-06	495.11	186	3.1471e-06	5.3002e-06	196.44	83.867	72.704	40.796	2.7926e-06	46.913	0.00054168	0.00054732	0.00013733	509.06	5.6468e-06	5.863e-06	486.6	184.74	5.7353e-06	5.87e-06	194.61	83.214	72.599	40.723	5.346e-06	46.734	274.871	249.277	223.586	178.849	294.154	341.741	177.905	184.597	364.318	306.276	181.529	185.288	188.258	192.714	335.974	188.312	-8191	255	
41589.641	1	1	0	0	0.20595	0.10972	0.21996	0.26593	0.086397	0.16736	0.17895	0.21225	0.099206	0.1821	0.1387	0.035698	0.31094	0.14598	0.23712	0.10718	-2.5938	-2.9083	-2.8604	-2.7729	-2.6833	-3.0938	-2.9271	-2.9021	-3.0875	-2.6937	-2.95	-2.8208	-2.4958	-3.1125	-2.8646	-2.925	406.994	426.340	284.867	496.602	227.157	516.954	408.059	413.650	451.782	303.233	190.747	199.411	351.947	253.037	387.948	266.894	0.0005395	0.0004643	7.4846e-05	514.82	5.2199e-06	4.9509e-06	494.99	186.67	5.2546e-06	6.8117e-06	195.11	83.581	72.863	40.703	4.033e-06	46.893	0.00054718	0.0005137	0.00013688	509.7	5.8423e-06	5.6147e-06	487.44	185.24	5.7795e-06	5.7519e-06	194.6	83.33	72.498	40.763	5.5517e-06	46.64	269.381	255.258	260.981	178.903	306.052	342.408	177.532	184.197	331.903	325.648	181.440	185.657	188.602	192.737	313.379	188.321	-8191	255	
41589.738	1	1	0	0	0.29931	0.27354	0.096894	0.24421	0.11078	0.19274	0.14025	0.26527	0.13233	0.096419	0.18513	0.099703	0.20625	0.24512	0.1363	0.21347	-2.5854	-2.7562	-2.9688	-2.9708	-2.6813	-3.0938	-2.7958	-2.9	-3.2229	-2.8771	-2.9313	-2.975	-2.6854	-2.9729	-2.9042	-2.7625	406.117	444.663	432.347	458.604	172.091	253.695	280.794	370.086	247.550	168.416	327.890	229.678	507.964	505.538	397.282	299.585	0.00053953	0.00027315	4.0193e-05	514.12	2.7892e-06	3.7324e-06	491.69	186.13	3.7273e-06	4.4267e-06	194.99	82.913	72.761	40.605	2.6201e-06	46.857	0.00053743	0.00051471	0.00013853	508.32	5.7036e-06	5.4102e-06	484.05	184.85	5.8068e-06	5.5053e-06	193.68	82.724	72.426	40.578	5.7757e-06	46.543	275.524	278.394	218.941	179.096	336.985	272.758	177.482	184.593	348.512	339.628	181.239	185.378	188.463	192.903	335.663	188.556	-8191	255	
41589.832	1	1	0	0	0.081272	0.099499	0.15152	0.40624	0.096546	0.16724	0.15293	0.15918	0.21899	0.11445	0.14174	0.078359	0.14987	0.16997	0.16579	0.22479	-2.4813	-2.6688	-2.9	-2.9896	-2.7687	-3.1125	-3.0687	-2.6104	-2.9604	-2.9083	-2.9125	-3.0146	-2.8083	-3.0646	-2.9125	-2.7708	310.816	405.581	261.192	488.872	329.477	281.635	253.589	475.313	459.911	326.942	399.449	434.043	196.066	442.058	248.002	499.621	0.0004928	0.00057803	0.00012611	517.51	4.7447e-06	6.3342e-06	495.05	187.81	2.7674e-06	3.6228e-06	194.6	84.041	72.9	40.853	5.696e-06	46.648	0.00052455	0.00049417	0.00014009	510.61	5.5799e-06	5.3948e-06	485.41	185.07	5.8564e-06	5.5177e-06	193.61	83.041	72.234	40.643	5.8223e-06	46.5	269.950	257.909	243.220	178.936	331.979	280.190	177.589	184.597	315.073	360.340	181.309	185.044	188.664	192.746	299.863	188.377	-8191	255	
41589.930	1	1	0	0	0.10086	0.19821	0.17966	0.21803	0.29615	0.061213	0.075053	0.24961	0.035386	0.066401	0.31082	0.38311	0.15776	0.32497	0.018931	0.23083	-2.4854	-2.8563	-2.6729	-3.2146	-2.775	-2.9833	-2.8625	-2.7438	-2.8542	-2.7687	-2.8208	-2.9417	-2.6833	-2.7562	-2.9396	-2.6646	504.228	402.786	429.642	269.778	227.702	411.456	523.735	518.075	168.509	456.092	216.092	280.687	506.515	484.513	349.109	504.626	0.00049992	0.0003978	4.4051e-05	516.16	3.2199e-06	9.8416e-07	492.49	186.16	3.431e-06	2.6635e-06	197.05	83.469	72.818	40.835	2.4371e-06	46.979	0.0005197	0.00049735	0.0001468	509.8	5.4813e-06	5.5772e-06	486.74	184.81	5.5133e-06	5.6819e-06	194.33	83.206	72.327	40.819	6.0672e-06	46.718	275.678	253.635	245.995	179.274	317.844	301.229	177.923	184.670	335.858	278.485	181.292	185.534	188.318	192.802	290.927	188.287	-8191	255	
41590.051	1	1	0	0	0.12053	0.31331	0.18048	0.12429	0.1036	0.18708	0.23862	0.08707	0.07598	0.19216	0.16688	0.1696	0.15152	0.11046	0.29194	0.15715	-2.6813	-2.7979	-2.7083	-3.1083	-2.8042	-2.8792	-3.1667	-2.8292	-2.8917	-3.1083	-2.6521	-2.9813	-2.7687	-2.9417	-3.2708	-2.875	217.050	467.272	406.877	365.702	237.157	196.811	180.109	525.435	334.218	274.276	180.923	457.846	274.825	514.510	192.132	482.836	0.00054603	0.00017718	0.00014339	519.76	5.3417e-06	2.1124e-06	494.83	187.53	3.6874e-06	4.2647e-06	196.49	83.398	72.639	40.754	4.6283e-06	46.895	0.00050808	0.0004901	0.00014542	509.52	5.2839e-06	5.4136e-06	486.12	185.55	5.2849e-06	5.7394e-06	194.54	82.946	72.435	40.764	5.9115e-06	46.575	273.676	291.160	256.699	179.229	353.213	308.019	177.731	184.440	352.316	300.376	181.682	185.511	188.534	192.715	324.085	188.542	-8191	255	
41590.121	1	1	0	0	0.15689	0.21123	0.12742	0.18701	0.18103	0.2047	0.039258	0.17544	0.18007	0.10266	0.14125	0.097722	0.21592	0.30065	0.16513	0.15348	-2.4896	-2.8417	-2.7167	-3.0354	-2.9021	-2.8354	-3.0896	-2.6542	-3.1188	-3.1604	-2.7792	-3.15	-2.7812	-2.9125	-3.175	-2.8229	450.194	384.851	368.129	215.712	308.026	366.863	428.132	482.150	195.338	291.117	486.597	400.158	182.043	384.455	504.726	359.346	0.0005117	0.0002715	9.6505e-05	519.44	3.6806e-06	3.6422e-06	495.11	186.7	3.8309e-06	2.121e-06	198.52	83.645	72.774	40.794	1.6947e-06	46.847	0.00050119	0.00049621	0.00014192	509.75	5.2226e-06	5.57e-06	485.96	185.44	5.1042e-06	5.6994e-06	195.31	83.043	72.316	40.746	5.9797e-06	46.67	275.022	248.612	247.415	179.210	306.080	298.338	177.582	184.584	319.862	350.336	181.224	185.692	188.619	193.005	288.089	188.369	-8191	255	
41590.242	1	1	0	0	0.18658	0.26325	0.11309	0.050513	0.11415	0.1235	0.020843	0.12703	0.10933	0.32161	0.23942	0.061368	0.3516	0.12399	0.17483	0.11648	-2.4583	-2.9042	-2.7458	-3.0938	-2.7667	-2.8146	-3.1271	-2.9042	-2.9271	-3.1208	-2.7083	-3.05	-3.0646	-2.9021	-3.2479	-2.625	262.519	330.845	454.867	494.673	417.095	425.037	272.356	313.165	302.746	438.583	446.682	226.304	408.165	470.874	265.615	455.708	0.00048904	0.0003205	0.00012684	515.15	2.2626e-06	2.8232e-06	496.7	187.3	4.7567e-06	6.0932e-06	196.79	84.407	72.917	40.69	2.9834e-06	47.058	0.00050414	0.00053522	0.00014475	508.71	5.2971e-06	5.6953e-06	487	185.6	5.4963e-06	6.1263e-06	195.04	83.309	72.674	40.812	6.0355e-06	46.719	270.837	299.551	271.714	179.327	316.843	297.194	177.650	184.452	325.605	296.154	181.348	185.337	188.530	192.875	312.736	188.252	-8191	255	
41590.340	1	1	0	0	0.071476	0.29711	0.065625	0.088743	0.15728	0.11089	0.1128	0.36142	0.13767	0.097039	0.17678	0.205	0.21315	0.12422	0.27351	0.24893	-2.4313	-2.8917	-2.6042	-3.1792	-2.8917	-2.9125	-3.0354	-2.7833	-2.8792	-3.1708	-2.6667	-2.9688	-2.9229	-3.0187	-2.9688	-2.8771	322.092	210.005	464.490	503.689	323.778	180.733	201.646	421.409	376.337	221.558	317.270	517.382	452.738	505.786	358.633	456.972	0.0005177	0.00047249	5.0625e-05	517.61	2.9049e-06	6.8644e-06	494.36	187.12	3.4543e-06	2.1854e-06	195.07	83.657	72.475	40.653	3.9284e-06	46.734	0.00051138	0.00053204	0.00014449	510.99	5.5466e-06	5.9525e-06	487.98	185.45	5.6379e-06	6.0146e-06	194.26	82.995	72.297	40.704	6.0969e-06	46.511	275.913	283.978	253.759	179.316	297.455	306.042	177.372	184.659	348.625	332.976	181.130	185.433	188.516	192.813	320.749	188.205	-8191	255	
41590.434	1	1	0	0	0.20735	0.26714	0.13987	0.28142	0.082623	0.27457	0.1537	0.13977	0.24437	0.15644	0.12631	0.31396	0.073008	0.12579	0.10378	0.17387	-2.4813	-3.0708	-2.7	-3.1146	-3.0104	-2.7292	-3.1271	-2.9104	-2.9375	-3.1417	-2.7333	-2.8542	-2.9437	-2.9229	-3.0812	-2.8229	209.830	433.458	238.388	203.636	340.688	411.330	450.122	221.007	498.484	234.550	304.585	439.996	363.345	182.530	273.401	376.744	0.00055064	0.00019186	0.00012453	516.03	6.5986e-06	4.6385e-06	491.83	186.74	5.242e-06	1.47e-06	194.82	83.409	72.229	40.323	2.3249e-06	46.232	0.00054307	0.00055108	0.00014339	507.7	5.8379e-06	6.0264e-06	482.83	183.87	5.8799e-06	6.2549e-06	192.54	82.477	71.965	40.43	5.8528e-06	46.12	274.653	276.042	249.884	178.932	292.561	301.042	177.930	184.285	352.185	306.004	181.219	185.597	188.465	192.797	319.401	188.408	-8191	255	
41590.531	1	1	0	0	0.097358	0.33347	0.29725	0.078995	0.3002	0.11539	0.22255	0.26427	0.032329	0.033196	0.15439	0.052228	0.051251	0.35699	0.12614	0.30862	-2.4813	-3.0687	-2.7979	-2.75	-3.0146	-2.6271	-3.0333	-2.8312	-2.7271	-3.0854	-2.7667	-2.9437	-2.8833	-2.7521	-2.9271	-2.9729	188.885	227.250	296.463	243.488	370.759	456.365	440.194	413.682	305.279	171.900	372.178	459.186	254.216	237.437	279.719	348.396	0.00051869	0.0002655	8.2527e-05	511.71	4.1684e-06	1.5125e-06	490.55	184.82	2.7288e-06	2.3445e-06	194.98	83.272	72.322	40.496	5.0368e-06	46.399	0.00054925	0.00056154	0.00014119	506.38	5.9794e-06	6.1052e-06	483.37	183.86	5.7963e-06	6.0556e-06	192.6	82.666	72.179	40.45	5.9144e-06	46.268	276.960	236.111	227.628	178.953	310.497	370.710	177.718	184.613	335.611	360.773	181.224	185.244	188.488	192.702	338.052	188.594	-8191	255	
41590.652	1	1	0	0	0.21372	0.20204	0.16475	0.21485	0.34752	0.056828	0.21704	0.094907	0.11739	0.095751	0.094223	0.29866	0.17814	0.31448	0.16858	0.24648	-2.3708	-3.2375	-2.8125	-2.9354	-2.85	-2.7313	-2.9813	-3.0979	-2.8438	-3.0917	-2.7292	-2.7292	-3.1292	-2.7583	-3.1521	-2.9479	519.768	270.294	337.113	450.172	296.255	285.008	352.594	500.185	233.414	492.227	422.121	494.576	191.102	448.285	486.494	456.257	0.0005082	0.00017505	0.00016935	513.45	2.0392e-06	4.5236e-06	494.37	185.49	4.2791e-06	2.9227e-06	196.15	83.136	72.35	40.513	3.0722e-06	46.676	0.00055919	0.00056626	0.00014028	507.34	6.1996e-06	6.123e-06	485.25	184.18	6.0184e-06	6.392e-06	193.43	82.747	72.009	40.452	5.7317e-06	46.361	272.832	253.862	258.039	179.100	198.196	347.856	177.875	183.973	338.391	283.594	181.232	185.758	188.491	192.984	328.485	188.444	-8191	255	
41590.723	1	1	0	0	0.22126	0.27006	0.15718	0.12458	0.23786	0.092978	0.083001	0.1562	0.16816	0.18387	0.25269	0.08396	0.18993	0.30692	0.076128	0.29598	-2.1542	-2.9542	-2.9958	-2.7812	-3.0042	-2.6896	-3.0417	-3.0667	-2.6562	-3.0125	-2.8375	-2.8292	-2.9042	-2.9021	-2.8187	-2.8146	443.014	476.435	525.397	422.644	441.283	301.591	400.535	501.125	338.631	430.083	324.682	416.792	468.249	479.884	309.705	188.277	0.0005486	0.00019418	0.00010403	516.78	4.263e-06	2.9211e-06	487.85	185.34	2.7876e-06	3.5539e-06	194.47	82.13	71.589	40.285	3.0229e-06	46.306	0.00056748	0.00055406	0.00014647	508.06	6.4141e-06	6.0889e-06	481.12	183.39	6.2383e-06	6.0927e-06	191.77	82.055	71.599	40.24	5.9645e-06	45.999	272.817	239.965	278.159	179.223	300.211	334.005	177.355	184.283	317.648	326.770	181.018	185.460	188.535	192.599	331.489	188.023	-8191	255	
41590.820	1	1	0	0	0.17851	0.1046	0.31622	0.13508	0.11403	0.15246	0.30699	0.33038	0.14289	0.26046	0.21001	0.20124	0.20113	0.14792	0.054917	0.13925	-2.2979	-2.9229	-2.625	-2.6646	-3.0833	-2.8271	-2.7646	-2.9396	-2.7167	-3.0229	-2.8	-2.6854	-3.025	-2.7812	-2.8	-3.2104	426.395	273.207	199.794	170.882	442.790	369.171	496.095	481.578	514.867	203.025	476.061	424.853	308.174	481.628	287.698	267.564	0.00052245	0.00023006	0.0001237	511.38	5.228e-06	2.2383e-06	484.17	184.22	3.4396e-06	5.9268e-06	192.57	82.997	71.344	40.049	6.0821e-06	46.022	0.00056217	0.00056102	0.00015679	503.37	6.2953e-06	5.9325e-06	478.51	182.51	6.1488e-06	5.9407e-06	191.05	81.986	71.45	40.201	6.1798e-06	45.95	270.695	259.429	256.785	178.872	352.452	283.076	177.367	184.281	328.510	357.480	181.526	185.315	188.789	192.792	341.896	188.406	-8191	255	
41590.914	1	1	0	0	0.26475	0.20757	0.097162	0.28756	0.23689	0.16854	0.18206	0.23379	0.19234	0.088331	0.25858	0.23045	0.050458	0.13876	0.20791	0.23079	-2.15	-2.8229	-2.9021	-2.6937	-2.9292	-2.8271	-2.75	-3.0354	-2.6417	-2.975	-2.9375	-2.6333	-3.0062	-2.9771	-2.9229	-3.1792	434.901	525.033	349.836	406.358	499.625	347.172	465.624	489.119	170.538	525.167	173.796	394.836	363.191	372.320	244.329	462.630	0.0004979	0.00033551	9.8792e-05	511.91	2.1725e-06	5.6228e-06	486.67	184.16	2.2298e-06	3.968e-06	191.36	82.512	71.866	40.186	3.125e-06	46.777	0.00055028	0.00053975	0.00015072	504.72	6.0132e-06	5.8319e-06	479.19	182.83	5.7711e-06	5.7524e-06	191.36	82.209	71.692	40.3	6.1491e-06	46.298	272.999	287.461	270.572	179.266	304.106	296.299	177.724	184.524	335.998	301.649	181.192	185.573	188.626	193.195	312.744	188.257	-8191	255	
41591.012	1	1	0	0	0.44535	0.071243	0.051314	0.19629	0.15541	0.22058	0.12769	0.11232	0.069107	0.079348	0.16621	0.13128	0.14374	0.13825	0.14057	0.16146	-2.2146	-2.9062	-2.9958	-2.6667	-2.775	-2.8	-2.7562	-3.0375	-2.8063	-2.7354	-2.9125	-2.5833	-2.9792	-2.9479	-2.8208	-3.2125	449.544	519.406	304.603	190.431	404.396	201.292	233.771	466.684	461.980	209.805	409.591	361.140	190.602	259.633	343.815	180.427	0.00055311	0.00050646	0.00011092	512	5.5264e-06	3.7554e-06	491.43	185.81	1.8853e-06	1.9644e-06	194.02	82.886	72.38	40.494	5.9184e-06	46.211	0.00053336	0.00051211	0.00015113	505.75	5.5088e-06	5.74e-06	482.13	183.92	5.4568e-06	5.7334e-06	192.65	82.229	71.689	40.381	6.1078e-06	46.103	270.401	288.151	264.149	179.193	302.925	262.918	177.685	184.305	282.142	307.359	181.871	185.773	188.141	192.656	340.630	188.167	-8191	255	
41591.129	1	1	0	0	0.14262	0.28351	0.25097	0.21883	0.18446	0.25249	0.099001	0.11012	0.017099	0.076772	0.1453	0.15733	0.15478	0.2734	0.023053	0.18373	-2.3354	-2.7417	-3.0938	-2.7125	-2.8458	-2.8125	-2.7625	-3.1937	-2.7812	-2.6896	-3.0521	-2.6417	-2.8604	-2.7917	-2.5979	-2.9854	390.928	230.711	446.368	470.963	447.814	225.682	391.848	171.687	337.348	167.420	417.180	214.749	476.517	482.489	183.247	383.179	0.00048719	0.00035652	0.00011912	507.97	5.1392e-06	4.7628e-06	486.27	184.49	4.7697e-06	2.8609e-06	193.25	82.779	72.03	40.148	2.847e-06	46.153	0.00052265	0.00051368	0.00015412	503.84	5.2722e-06	5.9337e-06	478.28	182.83	5.2747e-06	5.7195e-06	191.8	81.85	71.599	40.211	5.9811e-06	45.923	269.212	233.987	241.068	179.048	315.283	328.655	177.175	184.111	333.347	263.940	181.211	185.346	188.539	192.593	292.217	188.297	-8191	255	
41591.227	1	1	0	0	0.12912	0.12236	0.070351	0.015326	0.10588	0.12167	0.13851	0.1958	0.25308	0.11226	0.10806	0.045831	0.17617	0.082234	0.14823	0.13427	-2.2083	-2.6667	-2.8229	-2.5854	-3.0042	-2.8458	-2.7917	-3.0771	-2.8688	-2.6333	-3.175	-2.8917	-2.8083	-2.8875	-2.6896	-3.0187	277.667	418.101	187.469	340.834	415.865	267.643	507.010	482.023	449.066	420.000	329.472	168.513	226.948	206.553	385.194	374.560	0.00050581	0.00024853	7.9497e-05	510.78	4.4713e-06	4.5795e-06	486.05	185.09	3.2974e-06	2.492e-06	192.9	82.654	71.959	40.017	1.9286e-06	46.244	0.00051397	0.00054642	0.00014801	503.35	5.4982e-06	5.9478e-06	478.86	182.51	5.5296e-06	6.0054e-06	191.44	81.895	71.423	40.122	6.0597e-06	45.89	273.224	253.950	228.985	179.136	307.999	315.656	177.636	184.404	347.354	323.374	181.778	185.372	188.682	192.554	299.975	188.167	-8191	255	
41591.320	1	1	0	0	0.12394	0.12328	0.063835	0.14891	0.2087	0.17593	0.10347	0.16668	0.098956	0.25333	0.095511	0.15258	0.20927	0.16983	0.19638	0.059331	-2.4208	-2.6125	-2.9375	-2.5771	-2.925	-2.8792	-2.6917	-2.9542	-2.8458	-2.5979	-2.9333	-2.6771	-2.8458	-3.0229	-2.6854	-2.9583	177.602	488.381	176.121	493.666	175.503	374.993	507.820	289.439	314.578	422.163	328.301	271.394	311.088	506.262	406.632	339.549	0.00056108	0.00053055	7.504e-05	513.47	2.9882e-06	1.3937e-06	485.35	184.44	3.3609e-06	4.736e-06	193.08	82.59	71.679	40.239	4.1921e-06	46.331	0.00053771	0.00056308	0.00015211	505.28	5.4461e-06	6.3424e-06	477.83	182.29	5.6647e-06	6.2271e-06	191.21	81.869	71.401	40.233	6.088e-06	45.962	274.638	245.915	265.003	179.082	323.072	288.923	177.739	184.018	344.649	334.921	181.010	185.454	188.542	192.559	343.136	187.767	-8191	255	
41591.418	1	1	0	0	0.068116	0.085468	0.21212	0.16733	0.13867	0.026685	0.1599	0.30071	0.079564	0.17682	0.33135	0.17629	0.12865	0.31198	0.27184	0.26292	-2.1833	-2.8208	-2.9042	-2.8563	-2.9062	-2.9604	-2.6312	-2.9479	-2.8646	-2.6396	-2.9479	-2.7604	-2.9188	-3.1729	-2.4979	-3.0021	384.311	194.195	437.295	362.801	201.439	471.956	387.961	476.031	326.532	214.187	301.807	502.466	296.542	496.931	210.611	518.990	0.00049327	0.00049374	9.3244e-05	513.53	5.9258e-06	4.3218e-06	484.16	183.87	4.4881e-06	4.9093e-06	191.29	82.596	71.386	40.152	4.749e-06	45.803	0.00054498	0.00054091	0.00015248	504.49	5.7905e-06	6.3093e-06	478.64	182.53	5.7681e-06	6.2748e-06	190.43	81.504	71.266	40.087	6.0696e-06	45.536	271.400	240.416	245.577	179.125	334.864	334.058	177.403	184.544	321.220	320.790	181.318	185.587	188.353	192.886	298.153	188.303	-8191	255	
41591.516	1	1	0	0	0.016867	0.20368	0.082848	0.43462	0.29564	0.32251	0.15071	0.36793	0.2949	0.15461	0.16144	0.16245	0.093977	0.14301	0.19082	0.30775	-2.25	-2.6375	-2.8958	-2.65	-2.6	-3.0333	-2.7521	-2.8896	-2.7646	-2.7938	-3.075	-2.9625	-2.7396	-2.9479	-2.8333	-2.8021	201.467	479.599	247.251	179.255	502.375	246.965	421.631	406.727	395.073	377.514	344.059	491.819	204.167	407.144	451.314	505.940	0.00051317	0.00049235	0.00010628	510.34	5.2408e-06	1.9851e-06	484.85	184.39	4.285e-06	4.7972e-06	191.46	82.557	71.442	39.881	4.6273e-06	45.793	0.00055555	0.00057607	0.00014971	503.19	5.9843e-06	6.419e-06	477.95	182.19	6.0408e-06	6.3221e-06	190.07	81.518	71.211	39.953	5.9611e-06	45.604	273.405	246.667	200.794	178.857	308.232	303.467	177.478	184.473	369.673	334.954	181.386	185.557	188.319	192.642	339.406	188.309	-8191	255	
41591.609	1	1	0	0	0.16899	0.2077	0.25421	0.11948	0.16109	0.13258	0.14087	0.21384	0.13918	0.24458	0.24158	0.14177	0.07239	0.23019	0.18456	0.098068	-2.4354	-2.7771	-2.8875	-2.775	-2.6813	-2.8771	-2.7125	-2.7917	-3.0104	-2.7417	-3.0271	-2.8271	-2.7167	-3.2083	-2.875	-2.9417	223.773	230.134	489.581	220.740	405.661	408.834	211.236	468.267	259.314	507.584	446.400	485.881	345.338	179.839	394.632	381.627	0.00052013	0.00026405	6.3908e-05	509.45	4.7042e-06	4.715e-06	483.95	184.73	3.7847e-06	2.6314e-06	192.98	82.482	71.801	39.954	2.4438e-06	45.877	0.00057441	0.00057845	0.00014342	503.23	6.1482e-06	6.3488e-06	478.68	182.84	6.0957e-06	6.0746e-06	191.39	81.598	71.363	40.12	5.8978e-06	45.753	271.751	293.153	250.583	179.169	313.624	294.343	177.591	184.445	313.131	312.079	181.058	185.602	188.343	192.798	357.732	188.241	-8191	255	
41591.730	1	1	0	0	0.19816	0.13169	0.15046	0.021375	0.23211	0.16704	0.11645	0.22911	0.25735	0.13839	0.19297	0.17805	0.13448	0.060612	0.069445	0.16336	-2.3479	-2.5812	-2.9521	-3.0833	-2.6083	-3.0083	-2.8812	-2.8583	-2.9167	-2.7021	-2.9188	-2.9667	-2.7833	-3.1292	-2.8167	-2.7729	406.442	225.558	251.710	333.944	170.529	369.569	242.911	482.786	470.792	184.596	347.302	521.528	480.820	433.713	478.462	472.849	0.00051209	0.00036118	9.5067e-05	511.7	5.5332e-06	3.143e-06	487.42	184.79	3.6125e-06	2.7492e-06	193.77	81.967	71.928	40.02	5.3856e-06	45.852	0.0005716	0.00055972	0.00014806	505.48	6.1249e-06	6.2967e-06	480.15	182.9	6.1533e-06	6.1825e-06	191.7	81.649	71.445	40.012	5.8243e-06	45.625	277.699	285.195	283.684	179.301	288.284	257.378	177.774	184.338	360.095	380.284	181.667	185.458	188.485	192.900	287.628	188.145	-8191	255	
41591.824	1	1	0	0	0.14453	0.07992	0.14098	0.13554	0.16398	0.082746	0.24391	0.14496	0.10858	0.080384	0.25162	0.068689	0.13342	0.14446	0.15879	0.21905	-2.6125	-2.6771	-2.6146	-2.8479	-2.6375	-2.9208	-2.8708	-2.7167	-2.9437	-2.6771	-3.025	-2.9604	-2.6521	-3.0417	-3.025	-2.9708	322.929	206.249	447.247	501.755	223.266	346.965	468.868	180.870	170.684	184.199	257.557	419.994	233.300	457.116	324.864	246.006	0.00052134	0.00032679	2.6879e-06	509.86	2.3981e-06	5.8247e-06	485.69	184.89	4.4081e-06	5.112e-06	190.26	81.985	71.602	40.068	4.5732e-06	45.739	0.00057287	0.00055495	0.0001433	503.81	5.913e-06	5.9777e-06	478.63	182.82	5.9211e-06	5.7683e-06	190.34	81.52	71.302	40.044	5.7624e-06	45.52	271.561	249.501	334.238	178.982	283.130	295.513	177.455	184.300	325.634	314.197	181.847	185.107	188.525	192.900	309.365	188.265	-8191	255	
41591.922	1	1	0	0	0.207	0.2176	0.13769	0.13593	0.22679	0.17089	0.31887	0.22252	0.21495	0.25221	0.2432	0.044983	0.07614	0.38603	0.28721	0.11289	-2.4938	-2.65	-2.8979	-3.0042	-2.8312	-2.9979	-2.8583	-2.7896	-3.1104	-2.8542	-2.7396	-3.0292	-2.6583	-3.0042	-2.9562	-2.6917	275.324	388.268	374.079	442.489	408.500	355.006	456.706	211.846	492.772	504.306	498.667	282.143	494.671	486.354	247.948	433.731	0.00053791	0.00048201	0.00015778	512.16	4.3977e-06	3.105e-06	488.89	185	5.5703e-06	2.7731e-06	193.51	82.417	71.591	40.216	1.8085e-06	46.024	0.00055696	0.00050902	0.00014135	505.58	5.7358e-06	5.4541e-06	481.08	183.45	5.5241e-06	5.4416e-06	191.99	81.854	71.56	40.211	5.9226e-06	45.809	274.815	256.492	229.683	179.015	327.294	265.516	177.612	184.658	348.247	372.806	181.696	185.350	188.413	192.672	389.272	188.222	-8191	255	
41592.020	1	1	0	0	0.2555	0.36398	0.16813	0.2643	0.1334	0.09215	0.11084	0.11007	0.062083	0.078335	0.035871	0.22879	0.12666	0.17489	0.10356	0.079697	-2.7521	-2.8021	-2.7687	-3.0271	-2.6083	-2.7854	-2.9083	-2.5271	-3.0146	-2.6792	-2.7208	-3.0021	-2.7396	-3.0646	-3.1167	-2.8521	370.683	275.866	401.376	244.830	232.567	467.669	462.101	489.836	393.117	186.766	315.942	433.998	457.590	453.611	202.199	335.241	0.00053752	0.00025738	9.9729e-05	515.08	5.9502e-06	2.697e-06	490.97	185.22	1.7528e-06	2.7074e-06	194.73	82.721	71.9	40.529	2.8287e-06	46.231	0.00054507	0.00049968	0.00014118	506.56	5.478e-06	5.4902e-06	482.95	183.6	5.2574e-06	5.5324e-06	192.36	82.17	71.552	40.405	5.9413e-06	46.06	272.196	252.738	293.536	178.911	300.014	293.861	177.484	184.132	306.013	334.386	181.441	185.443	188.587	192.840	359.682	188.230	-8191	255	
41592.113	1	1	0	0	0.17307	0.13461	0.11337	0.12605	0.32285	0.25001	0.29054	0.11914	0.015988	0.23402	0.19217	0.22251	0.31753	0.32538	0.26461	0.21847	-2.5083	-2.8937	-2.7042	-3.0229	-2.7375	-2.7313	-2.9604	-2.8563	-2.9437	-2.8063	-2.7229	-2.9542	-2.9188	-2.8854	-3.0208	-2.9062	261.818	198.759	316.979	508.202	366.716	175.237	441.190	275.860	362.540	490.401	255.745	280.002	481.995	170.585	216.798	379.449	0.00050205	0.0003484	2.1886e-05	514.09	7.4712e-06	3.6826e-06	486.37	184.66	2.4724e-06	6.3816e-06	193	82.028	71.936	40.3	3.4522e-06	45.835	0.00050211	0.00051359	0.00014775	506.3	5.4351e-06	5.4067e-06	480.11	183.35	5.4763e-06	5.6999e-06	191.7	81.474	71.409	40.226	5.9277e-06	45.574	276.959	264.100	360.570	179.132	314.447	320.883	177.816	184.390	352.566	285.446	181.574	185.384	188.697	192.771	360.360	188.231	-8191	255	
41592.211	1	1	0	0	0.10589	0.12854	0.23101	0.1202	0.050549	0.19276	0.26896	0.31993	0.34404	0.11928	0.18751	0.23702	0.14098	0.20988	0.030057	0.23672	-2.7125	-2.8583	-2.625	-3.0646	-2.7021	-2.9521	-3.05	-2.5208	-2.9479	-3.0208	-2.7	-2.95	-2.8292	-2.7729	-2.8708	-2.7562	518.600	515.400	390.127	198.188	401.959	366.196	421.571	496.236	308.885	422.771	246.364	511.622	254.759	461.911	341.288	413.018	0.0004889	0.00039125	0.00013459	511.44	3.8257e-06	5.5509e-06	486.14	185.09	4.1008e-06	2.1376e-06	192.8	82.418	71.69	39.995	5.3081e-06	45.652	0.00052275	0.00055435	0.00015681	504.53	5.3264e-06	5.9646e-06	478.9	182.55	5.4554e-06	6.0051e-06	190.48	81.443	71.169	40.002	6.2726e-06	45.459	277.488	261.619	253.771	179.286	302.154	348.793	177.566	184.278	335.699	327.558	181.804	185.390	188.365	192.535	314.011	188.142	-8191	255	
41592.309	1	1	0	0	0.17918	0.10357	0.23548	0.085774	0.11252	0.16371	0.18034	0.13387	0.15844	0.12061	0.23007	0.10224	0.019457	0.10271	0.24725	0.23793	-2.4938	-2.9938	-2.5417	-3.1	-2.9417	-2.6688	-2.9979	-2.7667	-2.8792	-2.8917	-2.6125	-2.9333	-2.5938	-2.7333	-3.0854	-2.9229	228.584	446.928	416.848	207.015	522.632	523.204	458.328	447.478	447.954	313.531	200.672	378.681	315.330	499.359	357.526	459.184	0.00051447	0.0002948	8.6837e-05	510.69	3.8518e-06	5.3654e-06	488.11	185.09	3.7458e-06	2.6111e-06	191.65	81.94	71.076	40.046	3.0745e-06	45.763	0.00052362	0.00057587	0.00015443	504.34	5.5616e-06	6.0488e-06	480.27	182.83	5.5676e-06	6.1288e-06	191.01	81.425	71.156	40.141	6.0423e-06	45.655	273.203	265.552	206.581	179.092	269.993	353.061	177.718	184.379	326.182	314.061	181.840	185.007	188.544	192.800	360.990	188.486	-8191	255	
41592.426	1	1	0	0	0.13091	0.4042	0.1532	0.010369	0.085374	0.39505	0.17622	0.31769	0.13223	0.078546	0.2138	0.11673	0.087554	0.23176	0.022987	0.13804	-2.3542	-3.0229	-2.7271	-2.9333	-2.9667	-2.7958	-3.0396	-2.7729	-2.7021	-3.1771	-2.65	-3.1	-2.8792	-2.7896	-2.7917	-2.85	348.296	203.111	381.785	312.690	343.286	445.652	444.952	413.526	341.910	311.124	443.414	397.824	166.639	247.093	465.324	223.886	0.00056724	0.00024202	8.0816e-05	510.6	5.8897e-06	3.9174e-06	488.5	184.7	2.726e-06	4.4501e-06	192.04	81.696	71.056	40.04	1.6157e-06	45.717	0.00052522	0.00058496	0.00015565	505.09	5.8322e-06	6.1687e-06	481.08	182.67	5.705e-06	6.2865e-06	190.63	81.273	71.15	40.019	6.0829e-06	45.439	275.491	253.751	205.137	179.301	302.249	306.581	177.595	184.325	325.662	310.450	181.193	185.647	188.537	192.789	297.167	188.416	-8191	255	
41592.523	1	1	0	0	0.24488	0.18985	0.20491	0.35583	0.23147	0.10986	0.17541	0.096416	0.10129	0.17746	0.094473	0.20261	0.18831	0.15007	0.097769	0.1245	-2.3604	-2.9125	-2.6646	-2.9125	-2.9646	-2.6458	-2.8229	-2.8812	-2.7354	-3.1479	-2.7125	-2.8833	-3.1104	-2.8604	-3.0521	-3.075	322.339	518.120	442.795	440.889	314.681	264.135	512.742	312.993	208.278	227.497	348.058	200.426	187.912	262.277	274.982	170.805	0.00046333	0.00042197	7.6002e-05	508.74	2.7127e-06	3.181e-06	483.77	183.86	3.2542e-06	3.7135e-06	189.85	82.099	71.704	40.122	1.9708e-06	45.576	0.00054009	0.00058496	0.0001489	502.12	5.9447e-06	6.1756e-06	476.25	182.28	5.9111e-06	6.3368e-06	189.47	81.153	71.315	39.988	5.8997e-06	45.294	277.515	254.356	208.384	179.262	363.660	271.159	177.645	184.255	300.417	281.011	181.458	185.378	188.604	193.051	359.797	188.289	-8191	255	
41592.594	1	1	0	0	0.15792	0.32784	0.21212	0.23726	0.19463	0.10631	0.098396	0.23452	0.36327	0.41172	0.25519	0.12174	0.050701	0.19537	0.1621	0.37178	-2.3292	-3.0687	-2.775	-3	-2.9958	-2.7542	-2.9896	-2.9479	-2.4688	-3.1292	-2.8375	-2.9437	-3.0208	-2.6063	-3.0646	-2.9667	325.016	520.124	519.080	478.096	306.233	339.515	192.378	440.600	224.988	246.346	414.067	172.035	201.171	237.033	460.174	405.430	0.00045711	0.000506	0.00011561	510.68	6.4397e-06	4.5899e-06	484.88	184.58	2.9422e-06	5.2162e-06	191.97	82.35	71.179	40.017	5.5041e-06	45.641	0.00054947	0.00057789	0.00014823	504.86	5.9198e-06	6.2702e-06	477.8	182.3	5.9807e-06	6.1621e-06	190.35	81.223	70.973	39.951	5.7786e-06	45.338	276.774	315.904	276.247	179.011	306.241	335.072	177.600	184.248	358.933	338.927	181.337	185.667	188.134	193.093	307.551	188.360	-8191	255	
41592.691	1	1	0	0	0.1182	0.30337	0.25055	0.16867	0.11054	0.20048	0.25851	0.23758	0.046534	0.039441	0.19778	0.064807	0.23972	0.30784	0.075588	0.24995	-2.2708	-2.9792	-2.8292	-2.8771	-2.9062	-2.6979	-3.05	-2.8771	-2.7542	-3.1667	-2.8104	-2.8729	-3.1396	-2.8042	-3.0104	-3.0104	456.335	401.773	387.231	404.419	420.035	218.764	476.216	509.964	366.859	232.071	435.146	368.430	484.504	501.485	497.833	223.741	0.00055767	0.00028996	0.00013905	511	2.5863e-06	5.7332e-06	489.06	184.5	4.2213e-06	5.6801e-06	192.21	82.657	71.983	40.154	4.4349e-06	45.926	0.00057036	0.00057063	0.00014467	504.03	5.9428e-06	6.0701e-06	480.77	182.68	6.102e-06	5.9636e-06	191.26	81.62	71.36	40.109	5.6179e-06	45.629	272.609	282.934	224.253	179.234	314.321	318.434	177.735	184.540	337.074	370.673	181.187	185.229	188.452	192.962	329.693	188.244	-8191	255	
41592.809	1	1	0	0	0.2543	0.25321	0.27958	0.15564	0.11603	0.13172	0.093517	0.10435	0.096754	0.14618	0.037253	0.088436	0.22857	0.078021	0.15693	0.19893	-2.2021	-2.9167	-2.8812	-2.8167	-3.1083	-2.6063	-2.9813	-2.9938	-2.6792	-3.1	-2.7458	-2.7583	-3.2562	-2.6937	-2.925	-3.1625	444.296	197.366	345.877	213.283	375.170	452.923	453.834	287.353	411.953	440.885	238.933	498.356	526.030	417.488	461.597	294.486	0.0005027	0.00036326	6.7243e-05	510.19	4.1617e-06	1.9075e-06	487.43	184.29	4.6262e-06	3.971e-06	192.38	81.948	71.305	40.163	4.3634e-06	45.917	0.000548	0.00054512	0.00014238	504.62	5.8888e-06	5.7338e-06	478.43	182.99	5.8608e-06	5.6414e-06	191.13	81.332	71.309	40.129	5.5833e-06	45.505	271.236	281.455	243.870	179.260	316.664	334.732	177.392	184.481	330.006	296.804	181.177	185.319	188.604	192.759	334.811	188.372	-8191	255	
41592.906	1	1	0	0	0.30354	0.19043	0.19185	0.097179	0.22212	0.23434	0.14394	0.061916	0.14707	0.23436	0.23521	0.12702	0.21341	0.18089	0.22419	0.058186	-2.3229	-3.0792	-2.7938	-2.7917	-3.0667	-3.0542	-2.8833	-2.9646	-2.7667	-3.0375	-2.8708	-2.8271	-2.8917	-2.7479	-2.7271	-2.9938	292.455	476.673	458.109	246.920	278.495	426.985	308.165	482.607	205.700	297.415	169.099	364.521	409.275	195.449	441.637	405.624	0.00053344	0.00032511	0.00010538	510.99	1.6603e-06	3.8062e-06	488.75	185.48	5.7268e-06	2.1435e-06	192.75	81.352	71.711	40.187	6.1539e-06	45.583	0.00054036	0.00051372	0.00013973	505.39	5.793e-06	5.3222e-06	480.3	183.79	5.8405e-06	5.5463e-06	191.65	81.241	71.361	40.102	5.9255e-06	45.343	271.539	254.901	283.042	179.321	436.367	332.378	177.612	184.470	321.353	296.703	181.164	185.642	188.683	192.767	318.271	187.766	-8191	255	
41593.004	1	1	0	0	0.045202	0.20043	0.17373	0.13845	0.16798	0.038583	0.20579	0.14646	0.13826	0.18347	0.29253	0.087873	0.016363	0.11282	0.1867	0.33039	-2.3396	-2.8375	-2.8271	-2.7562	-2.9833	-3.0083	-2.9562	-3.1562	-2.8583	-2.8583	-2.8604	-2.6521	-3.0667	-2.8875	-2.7479	-3.0687	454.766	218.870	486.730	178.307	500.856	441.762	380.112	281.285	336.587	360.851	299.747	502.694	432.810	176.279	483.249	459.615	0.00053646	0.00021048	0.00012268	512.26	5.8534e-06	3.2211e-06	489.74	186.26	3.4231e-06	3.7156e-06	191.52	82.127	72.056	40.084	3.0183e-06	45.954	0.00053434	0.00051018	0.00015194	505.35	5.5818e-06	5.571e-06	481.01	183.4	5.5585e-06	5.4063e-06	191.29	81.718	71.654	40.16	5.9214e-06	45.633	271.889	306.302	252.489	179.244	304.834	328.106	177.649	184.412	291.167	264.903	181.109	185.582	188.290	192.779	315.585	188.343	-8191	255	
41593.121	1	1	0	0	0.24847	0.19759	0.094581	0.25426	0.14411	0.18226	0.043798	0.17032	0.19796	0.046675	0.19897	0.20752	0.27729	0.21781	0.11214	0.066077	-2.2188	-3.0333	-2.9667	-2.5938	-2.9188	-2.9104	-2.6958	-3.0333	-2.6729	-3.0083	-3.0438	-2.8083	-2.9813	-2.7646	-2.7062	-2.9333	476.096	310.206	309.921	417.314	499.607	311.538	337.146	172.010	259.505	502.716	428.883	398.506	461.404	197.074	524.844	466.980	0.00054165	0.0003804	0.00016579	511.78	3.1019e-06	3.2572e-06	487.86	185.08	3.4618e-06	3.8675e-06	191.84	82.329	71.305	39.944	3.9583e-06	45.52	0.00052357	0.00051869	0.00015325	505.81	5.5578e-06	5.4808e-06	479.72	183.08	5.4018e-06	5.6633e-06	190.7	81.28	71.077	39.954	6.2233e-06	45.233	272.271	278.190	264.725	179.093	301.718	366.571	177.753	184.240	339.678	327.218	181.600	185.043	188.444	192.934	336.426	188.445	-8191	255	
41593.219	1	1	0	0	0.09377	0.28534	0.31313	0.11471	0.20202	0.059796	0.18196	0.04226	0.14179	0.050577	0.19746	0.1696	0.14299	0.11816	0.053608	0.22737	-2.3083	-2.875	-3.1396	-2.7562	-3.0167	-2.8396	-2.7646	-3.1312	-2.7979	-2.7354	-3.0042	-2.6875	-2.7687	-2.9708	-2.65	-3.0875	295.527	293.827	519.787	203.138	246.758	291.573	473.224	177.461	211.843	406.465	426.271	511.308	187.922	389.901	408.599	490.776	0.00054843	0.00028493	0.00015446	507.98	5.5195e-06	5.6452e-06	484.68	183.83	2.9533e-06	5.1636e-06	189.74	82.19	71.048	39.744	3.4553e-06	45.417	0.00052644	0.00053598	0.00015973	502.05	5.6222e-06	5.8376e-06	476.36	181.44	5.4961e-06	5.9964e-06	189.32	80.969	70.698	39.761	6.1341e-06	45.12	273.133	276.778	261.805	179.242	348.879	317.544	177.562	184.425	312.256	294.400	181.517	185.132	188.548	192.827	307.179	188.244	-8191	255	
41593.289	1	1	0	0	0.083032	0.12437	0.10715	0.036194	0.17347	0.13533	0.20193	0.28409	0.026448	0.1349	0.046008	0.1585	0.11386	0.16776	0.17895	0.061246	-2.3458	-2.7125	-2.9229	-2.6063	-3.0312	-2.9104	-2.75	-2.9896	-2.9062	-2.6542	-3.1083	-2.8063	-2.8083	-3.025	-2.5354	-3.0042	455.003	231.898	404.996	260.802	203.090	397.305	424.656	445.960	402.486	389.129	201.621	219.082	365.673	508.324	329.674	177.564	0.00046941	0.00029493	6.6423e-05	509.19	5.0044e-06	1.8981e-06	485.08	183.87	5.4194e-06	1.6459e-06	191.7	81.74	71.568	39.821	3.7583e-06	45.488	0.00050858	0.00054931	0.00015898	503.12	5.4024e-06	5.7558e-06	477.24	181.74	5.3708e-06	5.9422e-06	189.65	80.998	70.96	39.839	5.9567e-06	45.287	275.743	362.849	234.823	179.428	350.034	366.886	177.442	184.611	340.055	311.317	181.559	185.419	188.426	192.712	311.740	188.502	-8191	255	
41593.410	1	1	0	0	0.24684	0.24549	0.26346	0.18128	0.23262	0.16668	0.053295	0.22038	0.20622	0.034649	0.10476	0.17154	0.5434	0.039671	0.095407	0.33242	-2.5458	-2.5625	-3.0979	-2.6833	-2.9979	-2.9771	-2.7271	-2.8604	-2.9042	-2.9437	-3.0417	-2.8937	-2.9625	-3.1	-2.6292	-3.1208	225.965	180.654	427.355	373.221	494.797	426.855	387.330	460.666	483.158	456.736	252.946	343.184	501.889	409.791	335.261	384.264	0.0005281	0.00036759	0.00010167	510.26	1.0648e-07	2.4751e-06	488.73	184.78	4.5555e-06	4.077e-06	191.57	81.965	71.238	39.802	3.2315e-06	45.565	0.00051371	0.00053175	0.00015525	504.41	5.4313e-06	6.1254e-06	479.1	182.55	5.7513e-06	6.088e-06	190.02	81.118	70.945	39.849	6.0906e-06	45.227	276.696	237.052	211.482	179.374	366.075	324.982	177.318	184.395	308.938	337.254	181.435	185.310	188.287	193.007	297.689	188.055	-8191	255	
41593.508	1	1	0	0	0.24564	0.07255	0.29988	0.054588	0.15808	0.11014	0.21129	0.13211	0.17469	0.028965	0.21877	0.24123	0.16277	0.22799	0.33387	0.10935	-2.5708	-2.85	-3.0271	-2.8021	-2.8479	-3.0125	-2.575	-2.9979	-2.8896	-2.9771	-3.1042	-2.8167	-2.8104	-3.025	-2.7062	-2.9833	472.835	349.047	320.614	264.507	366.594	471.475	493.068	212.262	384.264	336.449	494.917	268.134	477.206	196.603	481.878	464.056	0.00052049	0.00040152	0.00015545	510.02	4.7253e-06	2.9624e-06	481.54	183.36	2.0137e-06	5.6813e-06	189.12	81.541	70.543	39.71	6.3802e-06	45.103	0.00053356	0.00056897	0.00015675	502.41	5.7156e-06	6.2581e-06	474.73	181.19	6.1626e-06	6.4077e-06	188.53	80.627	70.591	39.665	6.248e-06	44.927	274.707	260.997	253.345	178.962	322.735	356.673	177.651	184.560	316.466	373.419	181.184	185.196	188.790	192.637	338.962	188.402	-8191	255	
41593.605	1	1	0	0	0.15274	0.21606	0.22424	0.23663	0.079961	0.18486	0.24118	0.1493	0.38185	0.045801	0.08062	0.063242	0.11291	0.07952	0.18701	0.11063	-2.5563	-2.5667	-3.1354	-2.8458	-2.6729	-3.0167	-2.7313	-3.0563	-3.0083	-2.7396	-3	-2.8417	-2.6229	-2.9375	-2.7229	-2.9292	306.539	481.152	328.063	168.333	474.328	244.424	495.504	471.765	495.739	296.014	282.996	523.032	439.763	182.155	259.808	512.822	0.00045867	0.00016715	9.0342e-05	508.71	4.7927e-06	6.1868e-06	482.21	183.17	4.6476e-06	6.5476e-07	189.42	80.629	71.415	39.616	5.0329e-06	45.107	0.00055595	0.0005786	0.00015039	500.6	5.9487e-06	6.25e-06	473.9	181.16	6.1395e-06	6.4866e-06	188.43	80.357	70.712	39.598	6.0483e-06	44.857	275.449	253.971	262.998	179.127	332.819	282.282	177.277	184.212	316.617	288.995	181.725	185.252	188.422	192.959	333.979	188.441	-8191	255	
41593.723	1	1	0	0	0.1311	0.072376	0.24775	0.37643	0.28736	0.12605	0.12216	0.031962	0.13647	0.11691	0.023542	0.27602	0.053086	0.088754	0.16759	0.17625	-2.5375	-2.7208	-3.0292	-2.9688	-2.6625	-3.2292	-2.55	-2.7917	-2.9	-2.7396	-3.0396	-2.9688	-2.6542	-3.1	-2.6917	-2.8396	246.094	462.531	241.490	505.479	282.180	315.807	404.171	167.777	523.502	224.831	479.483	196.918	466.338	512.269	495.972	170.114	0.00050371	0.0004685	0.00014366	508.42	5.6927e-06	6.7234e-06	482.8	182.99	4.1551e-06	4.8867e-06	189.32	81.701	70.914	39.755	5.0246e-06	45.493	0.00058261	0.00058785	0.00015177	501.88	6.2547e-06	6.2598e-06	475.89	181.42	6.4972e-06	6.2858e-06	188.86	80.819	70.8	39.671	5.9065e-06	45.102	272.570	188.975	246.326	179.036	336.823	289.100	177.539	184.470	324.438	383.329	181.012	185.042	188.235	193.117	308.194	188.364	-8191	255	
41593.820	1	1	0	0	0.19336	0.12783	0.15271	0.21252	0.12283	0.087486	0.31265	0.33123	0.077841	0.138	0.11259	0.011458	0.22236	0.3541	0.087105	0.1504	-2.6688	-2.5771	-2.9208	-2.9938	-2.4854	-3.0167	-2.8646	-2.8208	-3.0521	-2.6542	-3.0396	-2.7958	-2.5417	-3.0979	-2.9854	-2.8667	253.533	338.733	434.857	496.237	328.366	428.371	479.907	316.819	198.861	485.855	340.470	179.677	525.938	489.044	311.261	524.535	0.00052129	0.00042909	0.00010069	509.9	1.594e-06	3.0399e-06	484.82	184.24	1.4951e-06	3.5289e-06	191.51	81.19	71.317	39.83	2.9755e-06	45.147	0.00055954	0.00056156	0.00014346	503.04	5.9731e-06	5.7561e-06	475.45	182.38	6.0382e-06	5.8156e-06	188.97	80.686	70.799	39.678	5.6575e-06	45	271.658	279.535	227.234	179.405	235.390	311.322	177.457	184.467	249.167	396.606	181.151	185.243	188.437	192.758	341.802	188.864	-8191	255	
41593.891	1	1	0	0	0.38845	0.28075	0.035255	0.18253	0.07771	0.13046	0.14647	0.14347	0.16646	0.055153	0.20381	0.066626	0.29801	0.1975	0.18253	0.25659	-2.7	-2.6479	-2.8	-3.1354	-2.8104	-3.0563	-2.9104	-3.0333	-2.9813	-2.8396	-2.9729	-3.0979	-2.7208	-3.0375	-2.7729	-2.7417	398.424	281.715	279.559	477.616	306.587	241.281	326.999	410.083	241.886	178.399	387.207	260.956	404.460	496.452	483.045	474.728	0.00048998	0.00047279	6.6846e-05	507.98	1.8792e-06	5.3085e-06	483.73	183.95	4.5917e-06	5.8718e-06	191.17	81.191	70.796	39.761	5.0683e-06	45.447	0.00053582	0.00052362	0.00013753	502.28	5.8365e-06	5.617e-06	474.87	182.5	5.9772e-06	5.6255e-06	189.05	80.735	70.87	39.743	5.7687e-06	45.192	274.424	290.912	292.214	179.086	311.346	300.845	177.523	184.215	334.179	349.236	181.376	185.731	188.374	192.856	296.875	188.402	-8191	255	
41593.988	1	1	0	0	0.073407	0.1925	0.10337	0.13243	0.22687	0.033966	0.1973	0.25528	0.15146	0.093994	0.13431	0.26159	0.17176	0.1003	0.2243	0.30467	-2.5896	-2.6708	-2.9	-3.0792	-2.55	-3.0438	-2.925	-2.6229	-3.0604	-2.8229	-2.7938	-3.1312	-2.825	-2.9688	-3.0625	-2.6917	227.949	310.740	262.032	398.109	373.193	283.145	480.952	492.497	518.989	290.378	315.364	433.553	400.955	491.517	462.105	473.260	0.00052014	0.00047436	0.00017044	510.63	2.3597e-06	4.4383e-06	485.28	184.88	2.8578e-06	3.9587e-06	191.1	81.478	70.939	39.807	4.2978e-06	45.394	0.00053912	0.0005131	0.00014441	503.62	5.5884e-06	5.551e-06	477.27	182.68	5.6777e-06	5.5531e-06	190.23	81.04	70.962	39.803	6.0906e-06	45.205	274.539	258.284	246.599	179.213	355.291	341.946	178.112	184.527	379.998	285.279	181.733	185.706	188.365	192.981	343.965	188.438	-8191	255	
41594.105	1	1	0	0	0.1432	0.16335	0.14605	0.12316	0.18663	0.12558	0.069055	0.21285	0.29121	0.090404	0.074476	0.20506	0.1335	0.27535	0.36292	0.17451	-2.7021	-2.7896	-2.6625	-3.0604	-2.7521	-2.9479	-2.8667	-2.7854	-2.9958	-2.8229	-2.7854	-3.0187	-2.8042	-3.0979	-3.0854	-2.6937	237.243	193.861	492.786	172.570	229.753	258.017	366.475	506.330	465.867	310.020	474.999	514.804	430.394	507.195	291.847	330.196	0.00054874	0.00030333	0.00010281	512.19	5.638e-06	5.4966e-06	487.65	184.38	1.7593e-06	4.0409e-06	191.88	81.947	70.883	39.822	5.433e-06	45.372	0.00053408	0.00051706	0.0001511	504.39	5.7407e-06	5.6382e-06	478.56	182.58	5.7725e-06	5.8536e-06	190.51	80.954	70.741	39.816	6.3562e-06	45.12	273.091	277.081	255.989	179.138	320.846	325.396	177.565	184.449	350.378	342.094	181.892	185.000	188.534	192.641	313.837	188.337	-8191	255	
41594.203	1	1	0	0	0.032294	0.18848	0.086246	0.41344	0.089502	0.10501	0.34561	0.14715	0.19976	0.1247	0.21763	0.073498	0.078116	0.080576	0.082515	0.054497	-2.4958	-2.725	-2.5896	-3.0604	-2.5521	-2.8229	-2.9083	-2.7687	-3.0979	-2.8375	-2.8896	-3.075	-2.7146	-2.8646	-3.0021	-2.6708	255.416	301.418	392.563	505.068	192.791	232.285	491.623	448.786	486.590	315.963	459.715	176.070	309.555	174.891	408.866	189.085	0.00051673	0.00034687	8.7972e-05	508.49	3.2512e-06	3.7114e-06	482.02	182.6	3.9421e-06	2.1232e-06	190.12	81.159	70.776	39.654	5.523e-06	45.284	0.00053379	0.00053807	0.00015658	501.91	5.6217e-06	5.933e-06	474.66	181.7	5.7697e-06	6.2278e-06	188.61	80.422	70.587	39.645	6.682e-06	44.959	273.659	257.405	229.940	179.137	338.245	320.358	177.559	184.214	328.919	284.195	181.460	185.508	188.073	192.780	304.842	188.274	-8191	255	
41594.301	1	1	0	0	0.0045431	0.31575	0.12201	0.080338	0.22023	0.012845	0.13713	0.082784	0.038561	0.099505	0.12748	0.28173	0.081736	0.080753	0.19468	0.11119	-2.4125	-2.7313	-2.6833	-2.9708	-2.7229	-2.8563	-2.9396	-2.6667	-2.9813	-2.9708	-2.8104	-3.0521	-2.8312	-2.7708	-2.875	-2.7333	518.313	339.939	358.840	265.331	282.034	414.541	438.197	191.837	297.922	265.884	448.110	409.929	195.124	487.349	197.300	520.270	0.00049067	0.00031432	0.00010648	508.47	2.814e-06	3.1073e-06	483.88	183.19	3.8233e-06	6.1793e-06	189.25	81	70.697	39.561	2.7044e-06	45.208	0.00054151	0.00057995	0.00016361	502.54	5.9613e-06	6.3742e-06	475.27	181.2	5.9591e-06	6.7655e-06	188.56	80.565	70.51	39.696	6.7243e-06	44.989	275.759	242.944	272.431	179.161	303.031	342.884	177.586	184.539	347.186	364.301	181.431	185.314	188.423	192.818	296.875	188.296	-8191	255	
41594.395	1	1	0	0	0.2884	0.26594	0.16692	0.10757	0.31683	0.25964	0.12988	0.15318	0.14819	0.15684	0.028345	0.047851	0.15856	0.14711	0.0502	0.22698	-2.6958	-2.7854	-2.6646	-3.0604	-2.6917	-2.7396	-3	-2.8063	-2.9104	-3.0958	-2.6271	-3.0396	-2.8	-2.7479	-3.0312	-2.8438	219.712	365.396	355.616	396.702	308.099	477.366	292.103	467.803	186.642	222.066	484.085	349.483	252.907	180.502	175.486	348.183	0.00052086	0.00010442	3.4109e-05	509.97	4.7398e-06	1.9526e-06	482.77	183.02	2.5603e-06	4.8941e-06	191.03	81.126	71.026	40.002	6.1406e-06	45.428	0.00055227	0.00060769	0.00016596	503.58	6.0782e-06	6.6396e-06	477.21	181.89	6.0729e-06	6.7817e-06	189.76	80.551	70.842	39.903	6.7705e-06	45.186	271.261	513.515	303.737	179.203	294.988	284.780	177.468	184.331	383.280	326.825	181.582	185.435	188.863	193.329	296.214	188.411	-8191	255	
41594.516	1	1	0	0	0.061253	0.089723	0.164	0.072021	0.054948	0.10545	0.24758	0.053709	0.17351	0.069785	0.069167	0.11921	0.12109	0.15541	0.14407	0.11663	-2.4521	-2.9938	-2.7167	-2.8396	-2.8	-2.7729	-3.15	-3.0125	-2.8292	-3.0812	-2.9417	-3.0062	-2.75	-2.7854	-3.0125	-2.9021	512.330	345.819	422.227	208.239	255.120	380.151	476.310	421.101	335.999	271.561	323.055	207.361	444.035	354.700	286.507	391.685	0.00050148	0.00059919	4.9594e-05	509.13	4.3018e-06	4.4268e-06	479.91	184.32	2.8828e-06	3.2847e-06	191.36	81.539	71.328	39.825	2.4266e-06	45.187	0.00057172	0.00060828	0.0001686	502.48	6.3291e-06	6.754e-06	475.46	182.05	6.1528e-06	6.8834e-06	189.29	80.532	70.816	39.772	6.5721e-06	44.961	272.933	230.434	234.837	179.152	347.100	300.369	177.532	184.391	366.378	242.333	181.846	185.313	188.484	192.855	335.964	188.258	-8191	255	
41594.590	1	1	0	0	0.21369	0.17669	0.15956	0.10613	0.25208	0.079927	0.10205	0.15222	0.1458	0.18819	0.21149	0.30279	0.18092	0.10748	0.22217	0.11599	-2.4896	-2.8979	-2.5563	-3.0083	-2.8458	-2.6688	-3.1104	-2.675	-2.8042	-3.0708	-2.7021	-3.1479	-2.9146	-2.675	-3.2104	-3.0375	463.043	251.167	208.609	175.330	221.037	515.554	482.437	183.173	304.603	191.137	497.138	230.021	244.976	340.346	203.815	330.733	0.00047707	0.00047977	4.78e-05	510.19	2.9607e-06	5.9961e-06	480.8	183.1	4.3273e-06	3.3305e-06	189.77	81.25	71.259	39.777	1.9677e-06	45.383	0.00057532	0.00060131	0.00016635	501.8	6.5465e-06	6.8256e-06	473.76	181.81	6.3233e-06	6.8307e-06	188.65	80.461	70.872	39.791	6.3821e-06	45.079	274.506	316.665	365.380	179.146	339.124	286.973	177.529	184.361	315.290	299.341	181.347	185.703	188.682	192.920	353.594	188.226	-8191	255	
41594.684	1	1	0	0	0.086612	0.11086	0.18569	0.13232	0.18407	0.057505	0.066741	0.028221	0.15706	0.24299	0.08005	0.24173	0.29648	0.20641	0.19013	0.031149	-2.45	-3.1917	-2.7188	-3.0396	-2.9167	-2.8625	-3.2104	-3.0083	-2.6688	-2.9667	-2.8229	-2.9375	-3.1521	-2.7313	-3.025	-3.0417	347.998	411.400	270.967	265.949	358.262	209.958	307.903	442.274	196.924	407.602	455.845	492.753	175.514	166.912	332.335	332.659	0.0005315	0.00024538	5.8531e-05	510.49	6.8272e-06	1.0771e-06	479.43	183.51	3.0115e-06	4.9306e-06	190.08	81.503	71.554	39.847	2.4101e-06	45.466	0.00059706	0.00062789	0.0001617	502.49	6.7808e-06	6.7663e-06	474.32	182.01	6.4602e-06	6.7889e-06	189.29	80.817	70.98	39.916	6.4014e-06	45.291	271.205	281.746	279.726	179.314	329.248	313.546	177.668	184.427	328.079	340.655	181.084	185.459	188.179	192.881	248.084	188.493	-8191	255	
41594.805	1	1	0	0	0.10588	0.14013	0.073149	0.26231	0.10488	0.05022	0.13708	0.18582	0.21243	0.10642	0.10879	0.10075	0.092428	0.26341	0.051837	0.080574	-2.3354	-2.9729	-2.6646	-3.0854	-3.0208	-2.8646	-3.1125	-3.075	-2.75	-3.0167	-3.0479	-2.9188	-3.1771	-2.8146	-3.025	-3.0375	255.802	509.283	507.219	218.502	450.108	392.586	199.907	289.741	457.431	292.421	467.366	430.358	180.203	492.956	176.152	442.176	0.0005156	0.00037575	8.2248e-05	511.69	3.3615e-06	4.2459e-06	486.66	183.95	2.4951e-06	2.87e-06	190.51	81.911	71.052	39.964	5.9555e-06	45.292	0.00060313	0.00060955	0.00015484	504.14	6.6768e-06	6.4523e-06	477.74	182.77	6.6034e-06	6.7819e-06	189.83	81.067	71.13	39.997	6.4188e-06	45.245	273.962	226.986	310.164	179.229	340.957	332.429	177.801	184.325	378.148	299.440	181.395	185.436	188.387	192.850	306.739	188.147	-8191	255	
41594.898	1	1	0	0	0.1123	0.1003	0.38483	0.10616	0.18146	0.088292	0.097458	0.084888	0.19448	0.14262	0.13175	0.07622	0.081178	0.12543	0.21693	0.12468	-2.2021	-3.0604	-2.6875	-2.8729	-2.9938	-2.6646	-2.9083	-3.0875	-2.8187	-3.0812	-2.8104	-2.8354	-3.1063	-2.6875	-2.8125	-3.0563	180.003	394.283	169.512	251.280	231.998	226.068	385.982	395.029	257.258	227.705	320.269	375.504	341.734	175.018	256.033	206.566	0.00048738	0.00025401	9.1685e-05	511.41	3.9093e-06	2.9519e-06	482.96	184.6	1.7278e-06	1.0598e-06	190.06	80.759	70.671	39.843	2.56e-06	45.481	0.00059443	0.00059587	0.00015648	504.29	6.773e-06	6.5423e-06	474.7	182.69	6.6111e-06	6.5351e-06	189.54	80.575	70.993	39.919	6.7258e-06	45.252	274.046	295.812	230.891	179.118	315.431	270.698	177.676	184.753	290.243	390.928	181.494	185.521	188.629	192.590	296.049	188.249	-8191	255	
41594.996	1	1	0	0	0.1731	0.24395	0.30333	0.2512	0.12445	0.15475	0.23692	0.079643	0.18012	0.17388	0.35425	0.32252	0.17458	0.055018	0.13831	0.14709	-2.2208	-2.8854	-2.9333	-2.5417	-3.0958	-2.7646	-2.7625	-2.9958	-2.8833	-2.9083	-2.9021	-2.5979	-3.0271	-2.7521	-2.6292	-2.9708	234.372	447.672	484.292	472.741	272.721	422.473	392.230	502.059	383.050	508.970	415.526	507.777	244.503	328.994	357.969	397.431	0.00050855	0.00024681	8.3088e-05	511.38	6.2746e-06	2.6068e-06	485.04	183.5	5.3218e-06	3.884e-06	190.98	81.233	71.018	40.045	6.607e-06	45.464	0.00060529	0.00058445	0.0001649	503.31	6.6329e-06	6.335e-06	477.14	182.55	6.4299e-06	6.2119e-06	189.9	80.917	70.963	40.02	6.7355e-06	45.42	277.295	236.548	278.839	179.312	334.004	283.706	177.743	184.561	264.685	280.394	181.652	185.673	188.413	193.154	313.018	188.469	-8191	255	
41595.094	1	1	0	0	0.28224	0.030141	0.019742	0.36942	0.19003	0.057848	0.13545	0.024759	0.184	0.035074	0.10814	0.1188	0.095951	0.19621	0.21326	0.16105	-1.95	-2.925	-2.8521	-2.6417	-2.925	-2.7333	-2.8458	-3.0167	-2.7854	-2.9333	-2.9354	-2.6146	-2.9833	-2.9771	-2.6333	-3.1292	368.854	394.446	333.632	489.187	381.518	415.152	191.511	455.051	286.992	428.729	380.428	505.006	192.634	487.833	254.361	362.045	0.00048834	0.00060507	0.0001122	509.46	4.0102e-06	4.5809e-06	486.19	183.92	4.7903e-06	3.6892e-06	191.99	81.841	71.166	39.879	4.1963e-06	45.514	0.00059889	0.00057553	0.00016851	503.78	6.4324e-06	6.2556e-06	477.1	182.55	6.5419e-06	6.4639e-06	189.79	81.163	70.769	39.894	7.1287e-06	45.34	273.332	254.892	250.376	179.199	328.077	279.071	177.724	184.372	332.169	358.237	181.483	185.275	188.224	192.763	296.716	188.464	-8191	255	
41595.188	1	1	0	0	0.43492	0.018207	0.27624	0.038394	0.24216	0.0030268	0.14698	0.14475	0.22704	0.14654	0.081134	0.19581	0.072076	0.13042	0.20754	0.28532	-2.2375	-2.8146	-3.0646	-2.7417	-2.8979	-2.8646	-2.7708	-3.0396	-2.6729	-2.9146	-2.9146	-2.8187	-2.9583	-2.8354	-2.5792	-2.9271	185.725	275.738	476.746	424.219	321.651	514.201	308.293	355.958	195.094	230.848	217.257	191.225	217.316	281.785	369.493	417.727	0.00053325	0.00046592	9.5147e-05	508.3	2.2368e-06	3.4696e-06	480.02	182.67	5.2482e-06	2.7115e-06	185.87	81.236	70.799	39.766	4.5031e-06	45.049	0.00061296	0.0006296	0.00018378	502.44	6.6904e-06	6.982e-06	473.98	181.14	6.8262e-06	6.8623e-06	187.23	80.504	70.712	39.654	7.3723e-06	44.952	277.158	237.924	285.471	179.157	341.712	296.225	177.521	184.472	327.815	307.896	181.475	185.677	188.577	192.990	307.152	188.064	-8191	255	
41595.285	1	1	0	0	0.16099	0.086294	0.23087	0.13815	0.059805	0.098947	0.20419	0.19549	0.21296	0.015739	0.24292	0.32525	0.074737	0.047152	0.036962	0.16558	-2.4104	-2.7438	-3.05	-2.7104	-2.9188	-2.8479	-2.7062	-3.0583	-2.7562	-2.8792	-3.1646	-2.7417	-2.8063	-2.9521	-2.7521	-3.1354	505.417	258.176	192.179	498.040	303.372	335.465	479.939	228.383	169.946	451.061	180.621	388.561	245.474	452.708	313.853	479.768	0.00050759	0.00033458	5.6739e-05	505.91	4.5361e-06	3.6728e-06	480.21	183.93	2.926e-06	3.4029e-06	189.4	80.75	70.704	39.58	2.4287e-06	45.247	0.00059262	0.0006375	0.00018068	499.15	6.3888e-06	7.1678e-06	473.35	181.2	6.4583e-06	6.9643e-06	187.93	80.225	70.577	39.765	7.1268e-06	45.102	271.206	244.276	281.146	179.248	313.050	376.643	177.429	184.548	323.521	342.421	181.260	185.468	188.953	192.830	349.326	188.853	-8191	255	
41595.402	1	1	0	0	0.26876	0.10038	0.11587	0.17901	0.2826	0.19351	0.16511	0.27077	0.312	0.21737	0.074842	0.20294	0.17981	0.11017	0.2845	0.23185	-2.3792	-2.8333	-2.9458	-2.8875	-2.8583	-3.0646	-2.8625	-3.0792	-2.9375	-2.8708	-3.2667	-2.6437	-3.0354	-2.9	-2.7104	-3.0021	505.854	180.009	256.765	487.492	178.578	398.469	503.906	476.855	280.537	437.488	386.185	461.120	187.750	523.248	168.304	458.488	0.00049398	0.00020376	3.3567e-05	506.56	6.7089e-06	2.7197e-06	479.91	183.6	4.6986e-06	5.5822e-06	190.67	81.758	70.889	39.717	2.1807e-06	45.441	0.00058961	0.00065141	0.00018124	500.87	6.4817e-06	7.2822e-06	474.29	181.48	6.694e-06	7.3348e-06	189.05	80.849	70.702	39.798	7.4057e-06	45.178	270.100	242.381	324.617	179.430	346.521	238.550	177.846	184.461	319.946	331.755	181.391	185.574	188.821	193.015	414.538	188.421	-8191	255	
41595.500	1	1	0	0	0.26206	0.17624	0.067759	0.15061	0.37075	0.14109	0.25646	0.23511	0.21611	0.22881	0.054885	0.30533	0.22187	0.18316	0.23029	0.048052	-2.4146	-2.8792	-3.1167	-2.7958	-2.8604	-2.9208	-2.6875	-3.0229	-2.9333	-2.6729	-3.1229	-2.7458	-2.9917	-3.0021	-2.7208	-3.0083	313.656	193.535	522.681	351.711	288.634	458.061	459.966	499.695	193.963	436.920	243.493	462.643	496.840	183.484	420.488	436.952	0.00052286	0.00036892	7.9227e-05	509.5	5.5107e-06	4.3074e-06	483.47	182.32	3.9334e-06	1.6539e-06	190.4	81.903	70.919	39.769	3.0807e-06	45.615	0.00059551	0.00066661	0.00018021	503.46	6.647e-06	7.3722e-06	476.04	181.62	6.6518e-06	7.3524e-06	189.48	81.007	70.874	39.9	7.3759e-06	45.273	277.240	280.786	216.569	179.203	312.764	343.017	177.873	184.556	335.098	358.347	181.082	185.353	188.995	192.964	382.293	188.363	-8191	255	
41595.598	1	1	0	0	0.1821	0.22509	0.16177	0.19525	0.20955	0.1657	0.12342	0.24077	0.13082	0.11681	0.24734	0.16946	0.11167	0.20691	0.21243	0.17351	-2.5521	-2.7562	-2.8604	-2.7188	-2.8688	-2.9958	-2.6854	-3.0375	-2.9562	-2.7417	-3.0625	-2.5292	-2.9083	-3.1375	-2.85	-3.0354	425.360	177.854	455.203	186.339	505.955	435.417	280.938	353.985	400.896	469.955	378.290	468.313	224.349	524.584	376.289	205.839	0.00052376	0.0003046	9.9171e-05	505.58	3.4083e-06	2.8108e-06	478.05	183.56	4.3124e-06	4.4375e-06	187.61	81.309	70.226	39.901	6.8967e-06	45.175	0.00064068	0.00069073	0.0001828	501.36	6.8836e-06	7.6462e-06	472.6	181.53	7.0053e-06	7.4664e-06	187.66	80.302	70.516	39.84	7.0127e-06	45.067	268.343	268.434	321.781	179.177	319.639	279.434	177.602	184.444	323.337	322.390	181.529	185.657	188.643	192.892	327.322	188.117	-8191	255	
41595.691	1	1	0	0	0.25313	0.083099	0.099271	0.091928	0.2991	0.054297	0.24829	0.27709	0.057979	0.3349	0.11529	0.1713	0.22763	0.067267	0.1078	0.26066	-2.3812	-2.7417	-3.0646	-2.7146	-2.9562	-3.1104	-2.6583	-2.9896	-3.0167	-2.875	-3.1479	-2.8896	-2.8312	-2.9458	-2.8125	-2.9375	315.650	230.692	524.723	404.775	408.741	280.272	500.959	185.917	339.408	346.527	523.646	209.018	445.778	483.452	330.188	398.146	0.00050914	0.0003818	6.3903e-05	507.85	1.9034e-06	4.2116e-06	482.78	183.6	1.0298e-06	5.6108e-06	190.85	81.24	71.196	39.758	6.8578e-06	45.509	0.00063351	0.00065347	0.00017638	501.31	6.907e-06	7.218e-06	474.83	182.11	6.9718e-06	7.2504e-06	189.21	80.826	70.916	39.891	6.8737e-06	45.277	270.442	228.499	255.659	179.242	428.556	277.135	177.311	184.350	277.546	324.508	181.554	185.307	188.553	193.022	283.576	188.565	-8191	255	
41595.789	1	1	0	0	0.30555	0.2	0.099511	0.11014	0.17827	0.05874	0.47515	0.095559	0.14124	0.14861	0.17687	0.19658	0.17469	0.20985	0.064215	0.094189	-2.5563	-2.5458	-2.9729	-2.8563	-2.7229	-3.0563	-2.9062	-2.8625	-3.0396	-2.6854	-2.9562	-2.7271	-2.7271	-3.2292	-2.7604	-2.8271	480.427	262.188	374.613	429.888	501.474	405.133	395.950	394.148	222.052	447.470	221.597	453.225	189.087	496.306	321.762	375.226	0.00050364	0.00028227	0.0001242	513.64	5.1157e-06	4.4212e-06	483.47	185.35	2.1604e-06	2.5894e-06	191.6	82.019	70.742	39.945	3.9236e-06	45.656	0.00063521	0.00065981	0.00016806	505.1	7.1669e-06	7.3927e-06	478.75	183.7	7.1099e-06	7.387e-06	190.32	81.074	70.999	39.87	6.8285e-06	45.502	275.158	246.080	211.372	179.329	249.461	313.147	177.899	184.356	368.920	295.043	181.760	185.713	188.430	192.768	292.133	188.656	-8191	255	
41595.883	1	1	0	0	0.10248	0.38045	0.053684	0.086769	0.21057	0.13481	0.0519	0.084623	0.11623	0.20127	0.30101	0.39565	0.15173	0.14909	0.13739	0.089822	-2.5396	-2.6396	-2.7667	-3.0021	-2.9646	-3.0812	-2.9042	-2.8896	-2.8875	-2.7292	-3.1875	-3.0958	-2.6167	-3.0375	-2.8875	-3.0125	225.974	377.469	445.100	464.956	263.458	515.600	377.133	456.197	253.805	484.366	494.809	443.036	242.501	168.803	250.120	439.734	0.00052823	0.00021926	0.00014377	511.63	2.6543e-06	3.7342e-06	481.98	183.44	2.5987e-06	3.3784e-06	189.76	80.849	70.697	39.644	1.7076e-06	45.379	0.00064951	0.00064256	0.00017127	505.2	7.1765e-06	7.28e-06	475.66	182.27	7.4827e-06	7.4432e-06	189.39	80.755	70.839	39.724	7.2157e-06	45.21	270.085	246.278	269.180	179.081	308.236	306.915	177.441	184.475	352.586	379.339	181.393	185.398	188.381	192.762	308.528	188.785	-8191	255	
#DATA ENDS
