BOXY.EXE: ISS Imagent and Oximeter Data Acquisition Program Version 0.80
Ascii Record File

#ACQ INFORMATION
2  Detector Channels 
16  External MUX Channels 
1  Auxiliary Channels 
5000  Waveform (CCF) Frequency (Hz)
1  Waveforms Skipped 
30  Waveforms Averaged 
1  Cycles Averaged 
16  Acquisitions per Waveform 
10.0806  Updata Rate (Hz) 

#FILE INFORMATION
TRUE -- External MUX Channel results are PARSED.
FALSE -- AC DC and Phase are NOT grouped.
TRUE -- Companion Program Settings File CREATED.
FALSE -- AC data not excluded
FALSE -- DC data not excluded
FALSE -- Phase data not excluded
FALSE -- Auxillary Chn. data not excluded
Tab delimiters

#CALIBRATION STATE
TRUE -- Waveform Calibration Values APPLIED.


#AUX CALIBRATION VALUES
Val Type	aux-1	

Term	1.0000e+00	
Factor	0.0000e+00	


#WF CALIBRATION VALUES
A = Detector Channel
Val Type	A-AC1	A-AC2	A-AC3	A-AC4	A-AC5	A-AC6	A-AC7	A-AC8	A-AC9	A-AC10	A-AC11	A-AC12	A-AC13	A-AC14	A-AC15	A-AC16	A-DC1	A-DC2	A-DC3	A-DC4	A-DC5	A-DC6	A-DC7	A-DC8	A-DC9	A-DC10	A-DC11	A-DC12	A-DC13	A-DC14	A-DC15	A-DC16	A-Ph1	A-Ph2	A-Ph3	A-Ph4	A-Ph5	A-Ph6	A-Ph7	A-Ph8	A-Ph9	A-Ph10	A-Ph11	A-Ph12	A-Ph13	A-Ph14	A-Ph15	A-Ph16	

Term	0.00000e+00	0.00000e+00	0.00000e+00	0.00000e+00	0.00000e+00	0.00000e+00	0.00000e+00	0.00000e+00	0.00000e+00	0.00000e+00	0.00000e+00	0.00000e+00	0.00000e+00	0.00000e+00	0.00000e+00	0.00000e+00	0.00000e+00	0.00000e+00	0.00000e+00	0.00000e+00	0.00000e+00	0.00000e+00	0.00000e+00	0.00000e+00	0.00000e+00	0.00000e+00	0.00000e+00	0.00000e+00	0.00000e+00	0.00000e+00	0.00000e+00	0.00000e+00	0.00000e+00	0.00000e+00	0.00000e+00	0.00000e+00	0.00000e+00	0.00000e+00	0.00000e+00	0.00000e+00	0.00000e+00	0.00000e+00	0.00000e+00	0.00000e+00	0.00000e+00	0.00000e+00	0.00000e+00	0.00000e+00	
Factor	1.00000e+00	1.00000e+00	1.00000e+00	1.00000e+00	1.00000e+00	1.00000e+00	1.00000e+00	1.00000e+00	1.00000e+00	1.00000e+00	1.00000e+00	1.00000e+00	1.00000e+00	1.00000e+00	1.00000e+00	1.00000e+00	1.00000e+00	1.00000e+00	1.00000e+00	1.00000e+00	1.00000e+00	1.00000e+00	1.00000e+00	1.00000e+00	1.00000e+00	1.00000e+00	1.00000e+00	1.00000e+00	1.00000e+00	1.00000e+00	1.00000e+00	1.00000e+00	X	X	X	X	X	X	X	X	X	X	X	X	X	X	X	X	

B = Detector Channel
Val Type	B-AC1	B-AC2	B-AC3	B-AC4	B-AC5	B-AC6	B-AC7	B-AC8	B-AC9	B-AC10	B-AC11	B-AC12	B-AC13	B-AC14	B-AC15	B-AC16	B-DC1	B-DC2	B-DC3	B-DC4	B-DC5	B-DC6	B-DC7	B-DC8	B-DC9	B-DC10	B-DC11	B-DC12	B-DC13	B-DC14	B-DC15	B-DC16	B-Ph1	B-Ph2	B-Ph3	B-Ph4	B-Ph5	B-Ph6	B-Ph7	B-Ph8	B-Ph9	B-Ph10	B-Ph11	B-Ph12	B-Ph13	B-Ph14	B-Ph15	B-Ph16	

Term	0.00000e+00	0.00000e+00	0.00000e+00	0.00000e+00	0.00000e+00	0.00000e+00	0.00000e+00	0.00000e+00	0.00000e+00	0.00000e+00	0.00000e+00	0.00000e+00	0.00000e+00	0.00000e+00	0.00000e+00	0.00000e+00	0.00000e+00	0.00000e+00	0.00000e+00	0.00000e+00	0.00000e+00	0.00000e+00	0.00000e+00	0.00000e+00	0.00000e+00	0.00000e+00	0.00000e+00	0.00000e+00	0.00000e+00	0.00000e+00	0.00000e+00	0.00000e+00	-1.03364e+02	-1.28589e+02	-1.22771e+02	-1.82799e+02	-5.29327e+01	-6.36955e+01	-1.54998e+02	-1.62015e+02	-5.44320e+01	-6.23480e+01	-1.71853e+02	-1.69414e+02	-1.80018e+02	-1.77411e+02	-5.74280e+01	-1.48938e+02	
Factor	1.60856e-05	1.42380e-04	4.19562e-05	1.84207e-01	1.34200e-06	1.50499e-06	1.63323e-01	4.88771e-02	1.25689e-06	1.78350e-06	9.25773e-02	2.71365e-02	2.66344e-02	8.67124e-03	1.27850e-06	1.23973e-02	7.02452e-06	9.64614e-06	2.71299e-06	9.29001e-02	1.02271e-07	1.07808e-07	7.77924e-02	2.48455e-02	1.01700e-07	1.07589e-07	4.55974e-02	1.35142e-02	1.37367e-02	4.44083e-03	1.04084e-07	6.15744e-03	X	X	X	X	X	X	X	X	X	X	X	X	X	X	X	X	



#DISTANCE SETTINGS
A = Detector Channel
A-1	A-2	A-3	A-4	A-5	A-6	A-7	A-8	A-9	A-10	A-11	A-12	A-13	A-14	A-15	A-16	

2.5000e+00	3.0000e+00	2.5000e+00	3.0000e+00	2.0000e+00	3.0000e+00	1.5000e+00	3.0000e+00	3.0000e+00	3.0000e+00	3.0000e+00	3.0000e+00	3.0000e+00	3.0000e+00	1.5000e+00	3.0000e+00	

B = Detector Channel
B-1	B-2	B-3	B-4	B-5	B-6	B-7	B-8	B-9	B-10	B-11	B-12	B-13	B-14	B-15	B-16	

1.0000e+01	1.0000e+01	1.0000e+01	1.4400e+00	1.0000e+01	1.0000e+01	1.5100e+00	1.9400e+00	1.0000e+01	1.0000e+01	1.9900e+00	2.4900e+00	2.4100e+00	2.9000e+00	1.0000e+01	2.9800e+00	




#DATA BEGINS
time	group	step	mark	flag	A-AC1	A-AC2	A-AC3	A-AC4	A-AC5	A-AC6	A-AC7	A-AC8	A-AC9	A-AC10	A-AC11	A-AC12	A-AC13	A-AC14	A-AC15	A-AC16	A-DC1	A-DC2	A-DC3	A-DC4	A-DC5	A-DC6	A-DC7	A-DC8	A-DC9	A-DC10	A-DC11	A-DC12	A-DC13	A-DC14	A-DC15	A-DC16	A-Ph1	A-Ph2	A-Ph3	A-Ph4	A-Ph5	A-Ph6	A-Ph7	A-Ph8	A-Ph9	A-Ph10	A-Ph11	A-Ph12	A-Ph13	A-Ph14	A-Ph15	A-Ph16	B-AC1	B-AC2	B-AC3	B-AC4	B-AC5	B-AC6	B-AC7	B-AC8	B-AC9	B-AC10	B-AC11	B-AC12	B-AC13	B-AC14	B-AC15	B-AC16	B-DC1	B-DC2	B-DC3	B-DC4	B-DC5	B-DC6	B-DC7	B-DC8	B-DC9	B-DC10	B-DC11	B-DC12	B-DC13	B-DC14	B-DC15	B-DC16	B-Ph1	B-Ph2	B-Ph3	B-Ph4	B-Ph5	B-Ph6	B-Ph7	B-Ph8	B-Ph9	B-Ph10	B-Ph11	B-Ph12	B-Ph13	B-Ph14	B-Ph15	B-Ph16	aux-1	digaux	

16318.683	1	1	0	768	0.13618	0.057188	0.082192	0.10956	0.11239	0.11381	0.21749	0.19306	0.1812	0.080838	0.22649	0.087491	0.1838	0.13682	0.080395	0.16336	-2.5229	-3.1667	-3.0938	-2.9042	-3.0938	-3.1312	-3.0479	-3.2833	-2.9458	-2.9979	-3.2958	-2.8563	-3.0083	-3.0479	-2.8312	-3.2479	-61.207	131.773	50.222	266.236	140.832	77.585	167.750	-57.314	4.348	80.405	268.224	-29.695	237.695	252.186	53.156	127.292	5.3964e-05	0.00046787	0.00040935	1692.6	4.3794e-06	9.0986e-06	1180	384.76	2.3098e-05	3.1489e-05	252.81	75.278	109.83	39.128	1.8357e-05	31.018	0.012812	0.017703	0.0049584	1622.7	0.00018807	0.00019771	1163.1	378.08	0.00018993	0.00020005	303.68	91.422	122.22	42.493	0.00020255	38.789	251.154	282.711	77.317	-54.901	251.856	50.988	-56.127	-50.396	149.191	122.717	-52.264	-47.941	-45.728	-40.539	160.202	-43.923	-8191	255	
16318.779	1	1	0	0	0.21736	0.10054	0.13042	0.25827	0.19347	0.18365	0.14861	0.42631	0.1769	0.1631	0.26853	0.093756	0.038308	0.080265	0.14457	0.072504	-2.5333	-2.9562	-3.2188	-3.125	-3.2	-3.0833	-3.0021	-3.2896	-2.8563	-3.0938	-3.2333	-3.1063	-3.2208	-3.1729	-3.0542	-3.3479	44.266	279.228	102.300	286.800	248.386	97.501	232.617	241.388	150.710	50.413	77.251	48.500	9.140	164.573	96.733	147.267	0.000141	0.002131	0.00030527	1732.2	3.7356e-06	1.3453e-05	1218	403.85	1.5645e-05	2.1694e-05	266.75	78.72	113.14	39.926	6.2e-06	31.001	0.013877	0.019226	0.0053792	1666.2	0.00020504	0.00021545	1207.5	396.81	0.00020347	0.00021538	320.65	95.212	126.55	43.512	0.00021005	39.446	133.690	57.232	140.724	-55.082	84.890	155.157	-56.448	-50.422	-61.312	40.916	-53.661	-48.120	-45.844	-40.926	40.979	-43.425	-8191	255	
16318.875	1	1	0	0	0.22516	0.09476	0.23088	0.14489	0.23383	0.37612	0.096008	0.1274	0.17098	0.11173	0.090918	0.10725	0.2757	0.12016	0.086835	0.31022	-2.7583	-3.0083	-3.0812	-3.1417	-3.2458	-3.1354	-3.1208	-3.3792	-3.0583	-2.9417	-3.4083	-3.0771	-3.1479	-3.2292	-2.8688	-3.1937	199.843	25.082	-26.070	114.359	174.581	82.682	188.296	170.792	57.420	-52.336	-20.990	232.255	35.934	119.651	105.011	286.061	9.8048e-05	0.0015295	0.00053247	1753	1.4115e-05	1.4939e-05	1229	402.94	1.1753e-05	1.4232e-05	268.18	79.413	113.51	40.065	9.6185e-06	31.308	0.014251	0.0198	0.0055261	1690.5	0.00020533	0.0002183	1218.9	399.84	0.00020488	0.00021724	320.78	95.905	126.74	43.611	0.00020779	39.559	180.711	-20.277	148.991	-55.324	43.232	101.754	-56.823	-50.746	125.494	212.406	-53.440	-48.345	-45.701	-40.821	189.805	-44.231	-8191	255	
16318.971	1	1	0	0	0.17824	0.3158	0.11646	0.22676	0.28469	0.16359	0.19611	0.19041	0.047715	0.17076	0.25145	0.16861	0.22653	0.32514	0.21546	0.20586	-2.6708	-2.7646	-3.2458	-3.1625	-2.875	-3.1521	-3.0375	-3.2812	-3.1354	-2.8854	-3.3667	-3.05	-3.0792	-3.3438	-2.8563	-3.1021	28.396	-53.558	62.507	174.223	172.056	-0.812	225.162	221.322	207.149	33.783	254.377	42.242	177.560	214.331	186.686	216.288	0.00024221	0.00056609	0.00065534	1739.6	1.3405e-05	1.7799e-05	1225.9	400.92	6.9849e-06	8.2132e-06	263.29	78.381	111.96	40.302	9.0826e-06	31.734	0.014022	0.019383	0.0054449	1676.3	0.00020308	0.00021628	1209.9	395.13	0.00020208	0.00021721	318.73	95.57	126.13	43.851	0.00021216	39.745	151.693	121.202	136.578	-55.311	-64.874	-47.418	-56.542	-50.996	125.533	117.160	-53.150	-48.026	-45.857	-41.011	-49.075	-43.765	-8191	255	
16319.067	1	1	0	0	0.16273	0.076434	0.21565	0.15535	0.051595	0.25747	0.3313	0.20969	0.23078	0.20418	0.21999	0.064573	0.21309	0.18555	0.083033	0.056846	-2.7292	-2.9521	-3.35	-3.2542	-3.0292	-3.1625	-3.0812	-3.0979	-3.0812	-2.9062	-3.2729	-3.1354	-2.9792	-3.2729	-2.8708	-3.1667	281.315	186.310	-45.940	247.245	250.081	56.888	276.388	198.281	253.628	280.810	-2.596	-50.590	235.336	275.444	205.662	77.385	1.9052e-05	0.0012187	0.0010222	1723.3	8.8047e-06	2.0547e-05	1218.4	396.57	1.4896e-05	7.0758e-06	261.96	77.612	113.17	39.946	2.3475e-05	31.622	0.01434	0.019733	0.0055885	1671.5	0.0002069	0.00021984	1206.8	394.69	0.00020859	0.00022303	319.95	95.726	126.86	43.9	0.0002137	39.891	73.019	44.871	98.243	-55.641	154.358	87.089	-56.846	-50.709	275.962	-35.766	-52.884	-48.698	-45.813	-41.053	146.271	-43.380	-8191	255	
16319.163	1	1	0	0	0.10695	0.38021	0.2001	0.23161	0.014091	0.07629	0.22837	0.34352	0.16474	0.070202	0.1439	0.12397	0.26351	0.51707	0.10414	0.07128	-2.6604	-2.7646	-3.1688	-3.2083	-2.9667	-3.3417	-3.1021	-3.1896	-3.2771	-2.9708	-3.275	-3.0312	-2.8458	-3.2396	-2.8354	-3.1167	87.750	-2.271	-41.749	-62.891	102.422	113.164	-51.661	239.560	0.923	218.951	291.401	236.136	188.387	286.787	49.610	104.359	0.00014236	0.00096525	0.00071274	1738.9	1.5603e-05	5.1586e-06	1217.3	397.02	2.3946e-06	2.1493e-05	260.49	77.86	112.83	40.079	2.8084e-06	31.436	0.01445	0.019756	0.005585	1677.7	0.00020739	0.00021851	1205.3	392.71	0.000203	0.00021405	314.71	94.402	125.32	43.618	0.00020796	39.353	171.184	25.673	-43.163	-55.356	18.416	213.890	-56.244	-50.396	74.515	-10.845	-53.534	-48.375	-45.495	-40.437	123.031	-43.515	-8191	255	
16319.284	1	1	0	0	0.17813	0.2799	0.096689	0.098516	0.079153	0.055487	0.12515	0.070243	0.13131	0.14355	0.0092533	0.18872	0.27668	0.26736	0.1119	0.14989	-2.9896	-2.6312	-3.25	-3.2021	-2.7229	-3.4062	-3.3	-3.15	-3.2667	-3.0187	-3.3063	-3.2021	-2.975	-3.2812	-3.1188	-3.0458	96.331	239.184	125.728	247.273	-34.460	100.638	-43.850	222.894	-42.192	-14.272	14.651	217.857	274.439	270.609	-66.917	212.533	0.00012504	0.00076962	0.00029723	1740.9	4.3982e-06	3.8744e-05	1207.3	396.48	7.8055e-06	5.4991e-06	261.14	77.273	112.07	39.742	8.2235e-06	31.69	0.014096	0.019315	0.0054678	1667.8	0.00020487	0.00021616	1196	390.65	0.00020403	0.00021461	315.16	94.312	125.21	43.581	0.00020707	39.618	9.405	244.537	78.287	-55.262	189.096	-5.046	-56.342	-50.412	291.202	168.658	-53.078	-47.629	-45.729	-40.613	175.162	-43.152	-8191	255	
16319.378	1	1	0	0	0.14688	0.080799	0.094575	0.29789	0.26773	0.085847	0.2542	0.17169	0.17693	0.27693	0.093792	0.16157	0.11961	0.066472	0.24168	0.065853	-2.7938	-2.9333	-3.1042	-3.2625	-2.9771	-3.2438	-3.2771	-3.2438	-3.15	-3.0083	-3.1	-3.1896	-2.9667	-3.3729	-3.2042	-3.0875	46.248	81.945	209.357	272.095	271.124	143.215	215.992	155.623	193.870	-45.591	231.960	158.145	188.519	52.946	261.236	260.488	0.00052249	0.0037323	0.00032402	1718.6	2.7197e-05	1.4699e-05	1208.4	394.09	1.9075e-05	3.0776e-05	257.4	76.638	111.76	39.936	9.1631e-06	31.54	0.014211	0.019494	0.0054825	1664.2	0.00020615	0.00021935	1197.1	390.99	0.00020596	0.00021811	314.25	94.503	124.66	43.706	0.00020769	39.437	153.734	81.785	44.063	-54.957	269.793	194.327	-56.474	-50.426	167.587	284.731	-52.541	-47.998	-45.448	-40.845	-63.715	-43.552	-8191	255	
16319.474	1	1	0	0	0.087549	0.10271	0.039052	0.14107	0.068909	0.058902	0.25408	0.093605	0.26834	0.18	0.11939	0.22147	0.14448	0.070083	0.32966	0.10129	-2.6896	-3.1146	-3.0583	-3.2854	-3.0229	-3.3333	-3.2667	-3.1917	-3.2729	-3.2458	-3.175	-3.2229	-3.1813	-3.175	-3.2542	-2.8229	261.143	223.653	217.117	-36.973	242.266	23.963	207.137	109.662	19.157	-31.063	-1.841	71.326	-40.274	168.862	276.803	31.051	0.0004178	0.0035284	0.00028542	1724.7	1.7019e-05	2.178e-05	1210.5	391.98	9.4325e-06	2.9878e-06	255.97	77.477	110.21	39.317	1.5084e-05	31.396	0.014123	0.01923	0.0054153	1655	0.00020175	0.00021239	1187.1	385.42	0.00019838	0.00020763	308.2	92.7	122.56	42.887	0.00020021	38.932	-8.616	-0.722	227.943	-55.484	285.894	31.894	-56.580	-50.496	145.981	154.161	-53.528	-48.070	-45.438	-40.426	-60.955	-43.342	-8191	255	
16319.571	1	1	0	0	0.30423	0.057807	0.13725	0.30847	0.20446	0.09275	0.31043	0.045931	0.34524	0.13877	0.068222	0.1617	0.089699	0.22152	0.22405	0.13761	-2.7958	-2.9188	-2.9208	-3.3354	-2.8354	-3.1958	-3.3646	-2.9479	-3.3229	-2.8708	-3.1104	-3.1792	-3.2396	-3.1396	-2.9917	-3.1	52.738	10.227	256.348	280.326	231.894	64.387	175.921	-21.261	218.151	291.243	200.081	-15.422	5.005	248.012	86.949	-56.181	8.3001e-05	0.0011457	0.00047947	1696	8.8783e-06	6.5117e-06	1195.6	387.16	1.02e-05	3.8352e-05	256.3	76.385	109.25	39.94	8.7957e-06	31.646	0.013699	0.018672	0.0052937	1636.2	0.00019923	0.00020866	1177.3	381.16	0.00019844	0.0002074	306.15	92.136	121.35	42.949	0.00019693	38.956	32.231	219.179	173.938	-55.141	185.897	210.448	-56.360	-50.307	207.793	117.462	-52.551	-47.655	-45.603	-40.391	-63.758	-42.916	-8191	255	
16319.667	1	1	0	0	0.18445	0.23034	0.25053	0.25261	0.078891	0.30577	0.27381	0.38279	0.074921	0.1371	0.060643	0.1952	0.23193	0.073006	0.2595	0.11972	-2.7354	-3.0687	-2.8604	-3.525	-2.8063	-3.0292	-3.4229	-3.1708	-3.4833	-3.1417	-3.0417	-3.2083	-3.0167	-3.0938	-3.2458	-3.0542	161.731	2.601	153.809	188.068	285.812	243.344	213.839	229.523	-2.202	-0.983	257.568	249.064	246.552	189.590	-7.877	114.786	0.00021201	0.0012962	0.00088141	1699.1	1.6383e-05	1.353e-05	1210.5	388.17	7.6465e-06	1.7791e-05	260.5	77.201	112.98	39.892	1.7024e-05	31.677	0.013438	0.018364	0.0052025	1635.4	0.00019571	0.00020648	1186	383.97	0.00019784	0.00021125	313.92	94.143	125.32	43.834	0.00020934	40.002	225.743	7.791	37.346	-55.071	191.303	176.456	-56.359	-50.231	-43.302	-24.703	-52.974	-47.997	-45.675	-41.250	52.794	-43.475	-8191	255	
16319.763	1	1	0	0	0.099046	0.058357	0.078534	0.058702	0.19916	0.17766	0.17447	0.33621	0.083864	0.12817	0.1522	0.25153	0.10331	0.31719	0.23451	0.13129	-2.7167	-2.9688	-2.7812	-3.2125	-2.9521	-3.0979	-3.4354	-3.2458	-3.2188	-3.3125	-3.0687	-3.2042	-2.9688	-3.0563	-3.4062	-3.025	-57.039	94.825	272.447	72.445	45.979	-39.948	201.675	271.322	26.133	-50.534	236.649	285.836	-30.413	288.329	-24.353	96.729	0.00017615	0.001346	0.00048132	1739.7	1.5009e-05	6.6504e-06	1239.5	400.43	2.3613e-05	1.797e-05	264.23	78.161	112.23	39.934	1.0716e-05	31.292	0.014293	0.019567	0.0055306	1690.7	0.00020551	0.00021523	1221.4	395.53	0.00020128	0.00021017	315.91	94.327	124.38	43.182	0.00020112	38.812	151.528	155.251	116.695	-55.103	-34.661	145.562	-56.316	-50.496	116.278	268.007	-52.929	-48.222	-45.849	-40.591	187.447	-43.562	-8191	255	
16319.884	1	1	0	0	0.098813	0.17582	0.23328	0.027918	0.17735	0.30262	0.069525	0.29858	0.17117	0.22432	0.15948	0.047685	0.38258	0.12773	0.10041	0.13807	-2.7583	-3.3083	-2.8292	-3.4729	-2.8917	-3.1188	-3.4958	-3.2021	-3.0583	-3.225	-3.075	-3.1646	-3.175	-3.1	-3.3438	-2.925	155.110	40.884	61.231	174.170	275.427	-34.500	240.949	263.881	153.815	-51.439	13.203	-14.145	259.039	243.385	117.646	27.565	0.00010063	0.00053164	0.00031077	1732.7	1.6131e-05	1.5034e-05	1212.1	397.51	1.0502e-05	2.1438e-05	260.44	77.947	112.28	39.998	1.9976e-05	31.569	0.013529	0.018461	0.0052378	1668.5	0.00019618	0.00021023	1201.3	391.38	0.0002004	0.00021221	314.14	95.003	125.37	43.785	0.00021146	39.685	-40.197	25.735	131.715	-55.080	219.281	18.314	-56.501	-50.490	69.782	108.431	-53.134	-47.645	-45.601	-40.887	-24.653	-43.786	-8191	255	
16319.980	1	1	0	0	0.16385	0.25302	0.036909	0.43077	0.10315	0.15413	0.25273	0.072187	0.10172	0.11631	0.15308	0.25923	0.31243	0.11734	0.068055	0.17924	-2.5687	-3.2333	-2.8604	-3.4167	-3.1	-3	-3.3583	-3.0833	-2.95	-3.2354	-3.0312	-3.2521	-3.075	-3.0542	-3.2687	-3.0062	160.529	177.795	251.435	269.522	224.723	243.686	264.828	253.215	191.586	16.676	35.690	198.215	-34.553	286.130	90.285	156.271	3.8537e-05	0.0018346	8.0576e-05	1733	9.9467e-06	1.4305e-05	1220.7	399.06	9.6024e-06	6.4303e-06	266.16	78.714	112.53	40.416	1.3724e-05	32.346	0.014446	0.019935	0.0056725	1680.2	0.0002151	0.00022916	1216.2	396.64	0.00021878	0.00022987	325.13	97.672	127.85	44.844	0.00022345	40.943	95.679	25.162	25.762	-55.064	146.562	259.981	-56.308	-50.909	270.376	200.548	-52.704	-48.507	-45.803	-40.509	21.792	-44.742	-8191	255	
16320.076	1	1	0	0	0.27775	0.091799	0.063818	0.3216	0.20111	0.17981	0.38603	0.21441	0.17477	0.18346	0.087247	0.026051	0.29007	0.060691	0.090512	0.19487	-2.5792	-3.125	-3.0062	-3.3896	-3.3708	-3.1875	-3.3146	-3.1896	-3.0375	-3.2646	-2.9979	-3.2021	-3.2062	-2.9313	-3.2875	-3.0917	196.598	247.615	150.220	213.426	7.115	78.481	222.923	230.728	143.409	273.823	156.616	291.277	146.171	276.591	49.165	224.093	0.00019766	0.0010107	0.00059177	1722.3	1.4479e-05	1.3623e-05	1215.5	395.65	1.5413e-05	1.2181e-05	260.42	78.104	112.33	39.9	2.4847e-05	32.181	0.014968	0.020689	0.0058247	1675.4	0.0002161	0.00022733	1209.5	394.13	0.0002132	0.00022507	319.41	95.929	125.68	44.059	0.00021371	40.289	202.758	267.777	-6.013	-55.254	85.201	14.652	-56.506	-50.540	-20.596	107.617	-53.027	-47.517	-46.212	-40.496	107.057	-43.813	-8191	255	
16320.170	1	1	0	0	0.19338	0.14532	0.080709	0.091566	0.30369	0.086939	0.15741	0.18366	0.20576	0.042187	0.1506	0.13401	0.35665	0.35301	0.23862	0.17785	-2.5479	-3.4458	-3.025	-3.2542	-3.2021	-2.8312	-3.5542	-3.1146	-3.1042	-3.4437	-3.0854	-3.0542	-3.2521	-3.0396	-3.1229	-3.0208	-24.729	-31.257	14.457	-59.813	218.121	-52.174	207.132	229.450	-52.116	261.011	214.318	-60.670	-55.896	175.458	97.634	248.935	9.3394e-05	0.00044376	0.000151	1712	5.2627e-06	2.0189e-05	1214.3	394.66	1.0575e-05	1.2137e-05	263.41	78.992	113.33	40.581	1.5795e-05	32.348	0.014372	0.019748	0.0055665	1665.7	0.00020836	0.0002217	1207.3	391.58	0.00020998	0.00022122	321.23	96.465	126.94	44.415	0.000216	40.512	189.371	234.065	197.587	-55.371	186.757	41.380	-56.601	-50.556	6.181	176.308	-52.971	-48.557	-45.578	-41.144	154.853	-44.038	-8191	255	
16320.244	1	1	0	0	0.2434	0.12652	0.086248	0.14588	0.18447	0.28752	0.21995	0.14957	0.11611	0.14349	0.182	0.12567	0.052551	0.051479	0.19436	0.14213	-2.6562	-3.3229	-3.0646	-3.325	-3.3021	-2.8292	-3.2542	-3.1792	-2.7875	-3.1833	-3.1208	-3.0208	-3.15	-3.025	-3.225	-3.3354	120.243	258.579	20.958	228.956	244.046	30.289	195.955	204.595	211.873	290.462	-32.997	253.595	78.270	125.669	238.953	224.552	0.00029064	0.0004059	0.00071601	1768.1	1.3127e-05	1.7173e-06	1243.7	401.7	1.1283e-05	7.2259e-06	266.27	77.866	113.44	39.821	2.0418e-05	30.913	0.014354	0.019618	0.0055035	1699.6	0.00020372	0.00021419	1221.9	394.76	0.00019785	0.00020841	314.82	93.563	124.3	42.848	0.00019969	38.45	150.496	70.466	242.207	-55.165	87.621	38.475	-56.807	-50.596	262.967	70.759	-53.011	-48.290	-46.386	-40.427	-18.990	-43.665	-8191	255	
16320.363	1	1	0	0	0.29451	0.02392	0.18359	0.19202	0.15215	0.09458	0.21954	0.14336	0.15945	0.14027	0.16165	0.19433	0.3666	0.10002	0.16246	0.21017	-2.5687	-3.25	-3.0104	-3.3958	-3.3604	-3.0354	-3.2708	-3.3271	-3.0812	-3.1729	-3.1104	-3.1896	-3.1937	-3.1167	-3.225	-3.2542	257.353	27.308	207.982	257.783	271.758	123.419	150.060	170.755	185.958	172.090	23.517	69.820	279.322	-53.764	131.408	254.948	5.8443e-05	0.0025658	0.00034943	1750.4	1.9566e-06	1.6208e-05	1246	400.58	1.2636e-05	1.1912e-05	265.49	77.807	112.56	39.488	1.5049e-05	30.677	0.013299	0.018213	0.0051127	1679.6	0.0001916	0.0002021	1211	391.56	0.00018822	0.0002024	309.8	92.393	123.3	42.719	0.00019442	37.918	273.187	57.028	14.984	-55.269	-61.734	210.722	-56.557	-50.726	176.525	-21.782	-53.073	-48.000	-45.705	-40.739	152.190	-43.186	-8191	255	
16320.459	1	1	0	0	0.1016	0.10246	0.27139	0.27335	0.13099	0.1656	0.26573	0.29923	0.41205	0.072282	0.11649	0.14579	0.17573	0.15051	0.317	0.27285	-2.4396	-3.2313	-2.8729	-3.075	-3.3688	-3.0271	-3.1375	-3.3021	-2.9542	-3.2438	-3.0687	-2.9396	-3.3187	-3.1417	-3.1	-3.2729	-61.681	150.673	204.596	-67.013	279.174	161.894	218.887	249.816	21.443	-47.364	279.946	-59.933	245.029	218.493	30.283	111.310	0.00044608	0.0042467	0.00099261	1758.2	1.4126e-05	9.519e-06	1249	402.93	1.7196e-05	1.8384e-05	269.46	77.631	113.47	39.614	1.5133e-05	30.694	0.013208	0.018119	0.0050808	1687.7	0.000192	0.00020215	1219.9	393.53	0.00019095	0.00020376	313.67	93.498	124.58	43.036	0.00019945	38.706	179.354	-4.405	268.559	-55.132	147.156	49.270	-56.568	-50.421	111.629	52.907	-53.168	-48.746	-45.247	-40.919	59.509	-43.997	-8191	255	
16320.555	1	1	0	0	0.15807	0.097332	0.1412	0.29872	0.067275	0.16456	0.095351	0.1478	0.058865	0.21128	0.071055	0.11992	0.30666	0.10754	0.17056	0.208	-2.525	-3.2917	-3.1104	-3.0521	-3.2438	-3.0604	-3.2438	-3.2458	-3.0271	-3.3833	-3.2687	-3.1167	-3.3875	-3.1437	-3.0792	-3.3646	-18.064	166.911	126.425	274.501	284.982	39.484	181.318	165.358	280.021	40.465	0.392	17.624	275.311	215.701	159.077	286.680	0.00014701	0.0022257	0.00023957	1778.7	9.6836e-06	2.2677e-05	1259	403.5	8.089e-06	8.5203e-06	265.52	79.625	114.19	40.388	1.3086e-05	31.606	0.013626	0.018799	0.0053015	1706	0.00020006	0.0002122	1233.3	398.06	0.00019997	0.00021244	318.85	95.219	126.52	43.732	0.00020432	39.243	62.545	-7.318	-61.621	-55.236	125.203	53.987	-56.526	-50.728	214.847	20.446	-52.530	-48.490	-45.908	-40.575	-16.318	-43.976	-8191	255	
16320.651	1	1	0	0	0.28953	0.2317	0.054348	0.36221	0.07434	0.1192	0.08965	0.26577	0.14758	0.065695	0.17099	0.17965	0.032199	0.36025	0.24643	0.23351	-2.5229	-3.1979	-3.175	-3.0479	-3.175	-3.2167	-3.1063	-3.5396	-3.0187	-3.1063	-3.2812	-2.7979	-3.3104	-3.1437	-2.8354	-3.3333	149.603	117.564	-24.296	-29.417	30.584	103.267	150.337	229.672	142.407	217.474	224.395	206.892	154.490	221.382	258.174	213.150	0.00020313	0.0016945	0.0005185	1772.7	2.3922e-05	5.9722e-06	1242.4	400.54	7.4196e-06	2.2068e-05	264.05	78.562	113.02	39.344	1.3809e-05	30.87	0.013873	0.018733	0.0052385	1697.1	0.00019927	0.00020815	1219.8	395.25	0.00019439	0.00020595	314.81	94.183	125.5	42.991	0.00020195	38.803	257.968	17.469	91.665	-55.171	154.768	92.908	-56.503	-50.799	72.518	207.456	-53.003	-47.702	-45.850	-40.616	216.298	-42.947	-8191	255	
16320.772	1	1	0	0	0.18436	0.24558	0.22073	0.40517	0.073893	0.035481	0.39161	0.36327	0.11268	0.2728	0.090805	0.042914	0.047185	0.17617	0.07943	0.15711	-2.4167	-3.05	-3.1583	-3.2062	-3.1896	-3.1688	-2.9625	-3.4375	-2.9271	-3.0563	-3.3958	-2.8708	-3.3271	-3.0708	-2.8417	-3.2521	7.269	275.817	240.890	270.176	15.648	55.985	233.357	228.159	-60.813	101.553	-39.240	-14.186	206.371	248.357	209.785	157.821	0.00016141	0.0023291	0.0004292	1768.7	1.8974e-06	2.0033e-05	1241.2	401.53	1.5133e-05	8.857e-06	263.58	78.505	112.89	39.815	2.7834e-05	31.111	0.013633	0.01853	0.0052045	1698.9	0.00019775	0.00020668	1220.8	394.39	0.00019404	0.00020886	313.41	93.926	124.3	43.148	0.00020048	38.892	54.089	-24.463	23.725	-55.181	5.789	92.719	-56.289	-50.534	9.166	65.455	-53.708	-48.165	-45.279	-40.596	-65.625	-43.757	-8191	255	
16320.843	1	1	0	0	0.2932	0.1058	0.11497	0.15656	0.24538	0.1374	0.32384	0.15105	0.0595	0.22859	0.045199	0.08486	0.14234	0.26474	0.17861	0.12791	-2.7208	-2.9562	-3.2562	-3.2687	-3.2104	-3.2812	-2.8438	-3.3729	-3.0042	-3.1125	-3.3229	-2.8479	-3.1958	-3.2458	-2.9792	-3.2542	92.903	291.291	253.931	235.378	-12.393	202.465	219.747	133.011	-6.540	188.036	218.142	272.776	-27.948	-56.626	223.392	125.515	0.0001729	0.0011557	0.00062454	1769.5	1.7788e-05	2.1177e-05	1253.6	401.88	2.4778e-05	2.6985e-05	265.57	78.55	113.73	40.184	1.6862e-05	31.532	0.013577	0.018491	0.0051803	1696.2	0.00019746	0.00020473	1224.6	394.7	0.00019466	0.00020883	316.84	94.952	125.85	43.539	0.00020514	39.448	174.317	9.151	-65.812	-54.921	183.881	118.833	-56.585	-50.333	125.395	248.946	-53.788	-47.674	-45.963	-40.758	-11.676	-43.828	-8191	255	
16320.964	1	1	0	0	0.21568	0.20556	0.2365	0.28707	0.039677	0.12879	0.34524	0.57249	0.16935	0.10986	0.12779	0.29663	0.22044	0.13745	0.14169	0.17521	-2.7167	-3.0521	-3.2646	-3.0812	-3.0604	-3.2062	-3.0062	-3.45	-3.1021	-2.9479	-3.15	-2.9979	-3.1396	-3.3125	-2.8625	-3.1396	172.600	-65.209	216.523	250.478	-24.067	188.370	248.898	249.684	28.488	118.496	191.347	283.519	235.632	244.338	57.854	20.571	0.00015402	0.0020306	0.00012277	1785.8	2.2055e-05	1.2965e-05	1275.2	406.99	8.1306e-06	2.5731e-05	271.74	80.272	116.84	40.415	1.3262e-05	31.796	0.013732	0.018979	0.0053984	1715.5	0.00020314	0.00021244	1248.2	402.91	0.00020007	0.00021292	322.85	96.367	128.01	43.839	0.00020309	39.528	250.281	-43.604	-7.357	-54.895	121.677	119.133	-56.787	-50.738	233.271	226.012	-52.988	-48.366	-45.637	-41.161	156.010	-43.064	-8191	255	
16321.060	1	1	0	0	0.14586	0.14794	0.2013	0.16686	0.45165	0.15503	0.21989	0.45829	0.049678	0.13108	0.10101	0.18498	0.13936	0.16256	0.15087	0.11572	-2.5792	-2.8667	-3.1917	-3.1104	-3.0667	-3.2792	-2.9854	-3.3354	-3.1896	-2.7687	-3.4271	-2.9521	-3.0062	-3.3771	-3.0479	-3.1104	96.296	54.643	194.642	211.551	145.559	-11.344	-51.203	229.154	216.469	229.811	174.943	278.219	-28.129	-32.670	186.604	142.656	0.00013129	0.0012355	0.00058392	1827.1	1.4322e-05	1.2212e-05	1288.2	418.74	3.5275e-05	9.5428e-06	275.5	80.967	118.15	40.95	7.2165e-06	31.602	0.01372	0.018931	0.0053287	1744.6	0.00020091	0.00021099	1265.6	411.48	0.0001977	0.00021206	326.54	96.475	129.75	44.178	0.00020583	39.328	86.960	22.575	121.577	-55.492	26.882	40.640	-56.548	-51.014	284.850	54.302	-53.421	-48.672	-46.371	-41.006	271.210	-43.747	-8191	255	
16321.156	1	1	0	0	0.18858	0.15822	0.20601	0.59876	0.09973	0.13908	0.098092	0.12736	0.11937	0.085699	0.12406	0.18984	0.30015	0.26483	0.14569	0.16647	-2.6521	-2.8896	-3.0563	-3	-2.9375	-3.2438	-3.1958	-3.2729	-3.2188	-2.8187	-3.0333	-3.0042	-2.9083	-3.2979	-2.9396	-3.1208	76.597	28.361	87.297	243.816	-43.011	159.970	261.075	262.395	213.836	274.593	217.510	232.467	-51.092	283.431	128.475	143.760	0.00013154	0.0012808	0.00017384	1827.9	2.0443e-05	1.1574e-05	1292.2	419.98	1.5296e-05	5.5591e-06	276.69	80.368	118.59	40.719	1.1546e-05	31.593	0.013822	0.018921	0.0053391	1750.3	0.00020083	0.00021271	1268.7	410.97	0.00019847	0.00021263	328.35	97.011	130.09	44.179	0.00020564	39.449	126.896	257.366	-44.275	-55.211	120.278	-63.833	-56.805	-51.113	-57.897	257.199	-53.634	-48.469	-45.870	-41.165	159.401	-44.444	-8191	255	
16321.252	1	1	0	0	0.05191	0.089271	0.18637	0.1307	0.065573	0.02772	0.32244	0.16973	0.32513	0.32959	0.063816	0.12357	0.23	0.19799	0.22963	0.17862	-2.7208	-3	-3.0958	-3.3354	-2.8625	-3.3958	-3.0271	-3.2208	-3.1813	-2.9354	-3.1646	-3.2458	-3.0563	-3.275	-3.0104	-2.9854	-38.036	245.871	208.578	-14.031	206.328	208.124	252.520	249.875	21.947	-29.004	192.119	267.373	21.718	-56.447	109.889	240.642	7.6478e-05	0.00038945	0.00091164	1830.9	8.4494e-06	1.8213e-05	1300.5	420.36	2.4797e-05	1.5459e-05	282.89	81.552	118.72	40.912	4.3818e-06	31.595	0.013908	0.01914	0.0053488	1750.2	0.00020219	0.00021561	1273.7	412.38	0.00020125	0.0002128	331.76	97.654	130.72	44.514	0.00020399	39.726	160.635	75.730	137.820	-55.309	182.405	123.348	-56.678	-50.704	236.696	0.857	-53.303	-48.344	-45.936	-41.204	153.448	-43.869	-8191	255	
16321.371	1	1	0	0	0.10412	0.011195	0.13043	0.099628	0.21754	0.24509	0.1537	0.3793	0.26541	0.089865	0.30762	0.10176	0.21861	0.14338	0.11472	0.16985	-2.7167	-2.9521	-3.2562	-3.2542	-2.8312	-3.2333	-3.2125	-3.1188	-3.1292	-3.0646	-3.3292	-3.0583	-2.9437	-3.2208	-2.9375	-2.9667	-63.851	188.344	145.551	185.924	250.832	1.235	183.000	193.015	193.604	-2.364	40.794	273.159	-19.046	192.995	0.724	265.221	0.00012839	0.0018868	0.00023277	1851.9	2.2889e-05	1.7948e-05	1324.8	424.66	2.4725e-05	2.8893e-05	280.24	82.622	120.31	41.178	2.4102e-05	32.013	0.013894	0.019255	0.0053957	1766.9	0.00020201	0.00021525	1287.6	415.93	0.00019962	0.00021464	332.66	98.39	131.72	44.509	0.00020251	39.738	242.463	46.594	2.211	-55.316	101.061	175.762	-56.533	-50.954	16.499	9.708	-53.311	-48.342	-45.918	-40.871	150.256	-44.230	-8191	255	
16321.467	1	1	0	0	0.20992	0.21123	0.16987	0.30376	0.14355	0.12053	0.20767	0.3362	0.067998	0.16783	0.13327	0.19574	0.10548	0.1154	0.18834	0.25845	-2.8	-3.0125	-3.0375	-3.2812	-3.0229	-3.4417	-3.1854	-3.1021	-3.3021	-2.8417	-3.1417	-3.2896	-2.8812	-3.2062	-3.1813	-2.8021	49.564	79.394	236.100	284.257	36.797	60.002	257.990	221.872	149.168	262.600	211.477	49.698	267.771	-5.367	173.323	-6.517	0.00021598	0.0025767	0.00043735	1839.2	2.7644e-05	9.2693e-06	1317.5	423.94	1.8881e-05	2.0987e-05	278.67	81.647	117.45	40.46	3.0164e-05	31.367	0.01372	0.018738	0.00525	1758.3	0.00019527	0.00020722	1277.5	411.5	0.00019066	0.00020304	323.04	95.524	128.35	43.434	0.00019291	38.595	246.901	37.629	161.799	-55.492	71.325	-57.233	-56.899	-51.125	60.104	144.382	-53.532	-48.062	-45.907	-40.947	-15.948	-44.336	-8191	255	
16321.539	1	1	0	0	0.30792	0.065851	0.07933	0.22049	0.18956	0.17577	0.14511	0.25157	0.11534	0.21499	0.12205	0.28247	0.14857	0.14148	0.093062	0.16519	-2.8438	-2.8667	-3.0812	-3.3208	-2.9938	-3.3229	-3.3167	-3.0479	-3.2313	-3.1208	-3.2438	-3.3479	-3.1104	-3.2417	-3.0979	-3.0542	-39.681	286.240	173.685	270.003	290.515	34.582	215.967	266.393	172.588	62.125	-56.114	286.536	254.278	-8.869	-66.663	289.650	0.00025249	0.00044202	0.00036067	1853.9	4.876e-06	5.9079e-06	1315	418.67	2.0433e-05	1.7457e-05	277.68	81.386	117.33	40.326	7.5209e-06	31.498	0.013072	0.017897	0.0050131	1752.9	0.00019073	0.00019973	1277	409.14	0.00018685	0.00019633	321.8	94.894	126.73	43.105	0.00018704	38.332	221.065	7.365	72.920	-55.397	60.007	42.336	-56.617	-51.137	237.578	-62.482	-53.900	-48.581	-45.883	-40.761	241.404	-43.454	-8191	255	
16321.660	1	1	0	0	0.14352	0.21936	0.13593	0.19584	0.085799	0.14625	0.26011	0.34615	0.093568	0.13251	0.28536	0.023157	0.1271	0.10026	0.16531	0.12269	-2.8375	-2.9646	-2.8	-3.4271	-3.0229	-3.1208	-3.3792	-3.1083	-3.2229	-3.1437	-2.9813	-3.1479	-2.9688	-3.2438	-3.0979	-2.9813	284.951	0.753	107.882	232.326	-65.714	258.901	247.252	244.475	203.687	247.486	174.339	263.011	184.916	61.119	57.678	88.296	0.00020091	0.0013044	0.00081429	1828.3	1.7724e-05	1.3263e-05	1313.5	419.58	7.9639e-06	3.6206e-05	278.97	80.853	117.84	40.504	1.7431e-05	31.341	0.012765	0.017576	0.0048981	1737	0.00018504	0.00019772	1265.9	406.92	0.00018568	0.00019438	321.8	95.042	127.69	43.33	0.00018964	38.431	176.667	173.742	101.221	-55.183	59.734	178.493	-56.690	-51.060	244.945	-0.512	-53.525	-48.897	-46.015	-40.998	116.874	-43.855	-8191	255	
16321.756	1	1	0	0	0.46507	0.12392	0.1391	0.18916	0.084381	0.059208	0.11536	0.23272	0.10171	0.22489	0.233	0.12567	0.15897	0.085358	0.15615	0.025309	-2.7354	-2.9292	-2.9604	-3.4417	-2.8604	-3.2333	-3.4667	-2.9333	-3.1542	-3.1813	-2.9229	-3.1937	-3.0333	-3.2167	-3.2562	-3.0021	-32.875	125.012	108.459	240.319	-28.565	29.310	-18.877	260.696	118.402	19.809	-66.041	87.135	-36.284	-43.917	-63.453	174.584	0.00016995	0.001627	0.00085349	1832.2	2.4045e-05	7.0872e-06	1316	421.93	6.8937e-06	2.496e-05	278.66	81.061	119.43	40.817	6.9029e-06	31.56	0.012976	0.017524	0.004962	1745.5	0.00018635	0.00019797	1274.1	408.85	0.00018591	0.0001966	324.19	95.819	128.74	43.657	0.00019089	38.863	-50.350	30.127	-60.858	-55.398	-15.180	199.200	-56.759	-51.039	29.842	146.106	-52.919	-48.583	-46.317	-41.336	274.473	-44.086	-8191	255	
16321.852	1	1	0	0	0.15527	0.10032	0.16124	0.42274	0.19722	0.14149	0.065227	0.36628	0.06414	0.13284	0.14518	0.12732	0.22282	0.25059	0.23033	0.1417	-2.8937	-3.0792	-2.8333	-3.4437	-3.0187	-3.0625	-3.3354	-2.9375	-3.1396	-3.025	-2.9583	-3.2604	-2.9896	-3.0208	-3.3417	-2.9562	186.853	209.885	52.942	256.181	117.608	-53.828	165.186	232.296	288.867	77.284	209.445	274.873	184.144	21.798	169.232	156.264	0.00020872	0.0021784	0.00027853	1853.6	1.8937e-05	4.6985e-05	1309.6	419.12	8.4769e-06	2.2471e-05	277.1	80.314	118.52	40.331	4.3259e-06	30.891	0.013177	0.017838	0.0050252	1753.8	0.00018898	0.00019963	1270.7	409.06	0.00018676	0.0001959	322.47	94.797	127.9	43.151	0.00018985	38.203	235.786	-31.619	-9.673	-55.204	150.617	63.831	-56.635	-50.668	100.576	72.290	-53.078	-48.368	-46.188	-41.451	185.820	-43.906	-8191	255	
16321.948	1	1	0	0	0.1782	0.091932	0.099021	0.17268	0.19517	0.069343	0.30561	0.13331	0.036996	0.081574	0.30225	0.21854	0.28917	0.076728	0.25019	0.21948	-2.8708	-3.1542	-3.0167	-3.3688	-3.0083	-2.9062	-3.3021	-3.1875	-3.0521	-3.1833	-2.9313	-3.2104	-3.0458	-3.2396	-3.2979	-2.8896	71.811	48.740	126.637	238.384	-44.956	-34.199	158.055	-68.264	254.668	162.690	-61.129	-16.169	-35.027	171.687	259.348	191.236	0.00028071	0.0010095	0.00052812	1830	2.6452e-05	2.354e-05	1313.5	416.78	2.3564e-06	1.5309e-05	276.46	79.41	116.62	40.512	1.1337e-05	31.176	0.012913	0.01767	0.0049646	1740.4	0.00018621	0.00019823	1267.3	405.81	0.00018532	0.00019615	319.22	94.612	126.78	43.196	0.00019094	38.206	98.886	83.225	262.588	-55.329	111.559	95.355	-56.459	-51.197	-22.408	175.156	-53.560	-48.406	-45.647	-41.263	132.327	-44.088	-8191	255	
16322.067	1	1	0	0	0.081057	0.064244	0.17309	0.45553	0.051784	0.16611	0.17483	0.2435	0.14757	0.16304	0.18231	0.055629	0.39842	0.28141	0.13975	0.25393	-2.6229	-3.2104	-2.8333	-3.325	-3.1312	-2.975	-3.4146	-2.9979	-3.0896	-3.3396	-2.8896	-3.2083	-3.1542	-3.0312	-3.1417	-3.15	188.542	36.313	135.218	-67.392	12.002	169.022	246.903	275.747	86.927	58.310	282.043	-10.399	280.085	-37.278	202.762	252.958	0.00027808	0.00078649	4.9355e-05	1832.5	1.0625e-05	6.4585e-06	1307.9	418.1	1.6277e-05	3.1385e-05	276.98	81.241	118.47	40.589	1.154e-05	31.712	0.013032	0.017841	0.0050807	1739.8	0.00018786	0.00020248	1269.7	408.35	0.00019	0.00020308	324.12	96.344	128.71	43.585	0.00019677	38.796	34.601	253.562	85.397	-55.445	-7.960	283.918	-56.417	-51.131	8.233	184.997	-53.538	-48.065	-46.181	-40.689	236.674	-43.910	-8191	255	
16322.140	1	1	0	0	0.017758	0.068821	0.048374	0.18074	0.23648	0.079614	0.098298	0.17412	0.25399	0.16336	0.14049	0.10216	0.23531	0.05881	0.071512	0.19445	-2.5667	-3.1688	-3.0062	-3.2417	-3.1542	-3.0292	-3.3479	-3.1771	-2.9833	-3.1771	-3.1104	-3.35	-3.0917	-3.0021	-3.2792	-3.0833	151.555	-66.019	14.851	251.874	54.152	-6.721	202.997	186.749	173.309	214.226	212.085	-42.259	-46.349	274.029	256.839	195.325	0.00012994	0.0010848	0.00021513	1830	2.2268e-05	1.98e-05	1300.9	418.45	1.7102e-05	6.9209e-06	277.96	81.683	119.04	40.686	2.2833e-05	31.643	0.013284	0.018134	0.0051371	1743.2	0.00019151	0.00020379	1269.4	407.33	0.00019033	0.00020272	325.64	96.44	128.97	43.748	0.00019772	38.961	251.565	119.775	-51.112	-55.216	-62.787	119.804	-56.501	-50.997	71.008	-3.363	-52.989	-48.865	-45.641	-41.003	82.049	-43.947	-8191	255	
16322.237	1	1	0	0	0.06073	0.18113	0.073361	0.29911	0.17297	0.30987	0.48366	0.37749	0.10724	0.13725	0.26723	0.03198	0.033	0.20758	0.13472	0.15091	-2.5604	-3.2354	-2.8354	-3.2104	-3.2292	-3.0833	-3.1854	-3.1021	-3.1854	-3.3146	-3.1542	-3.2042	-3.2583	-2.8417	-3.0812	-3.1188	244.968	182.151	237.201	270.730	19.017	24.224	247.092	243.560	148.429	166.840	-44.787	154.154	176.362	71.270	125.446	279.814	0.00025645	0.0041917	0.00036975	1818.1	1.5555e-05	3.1349e-05	1303.8	423.51	2.2152e-05	1.6481e-05	278.2	80.435	118.02	40.578	1.0295e-05	31.561	0.013441	0.018417	0.005206	1742.3	0.00019367	0.00020638	1267.3	410.64	0.00019151	0.00020468	324.17	95.979	128.84	43.885	0.00019774	38.909	238.270	58.732	152.482	-55.454	-45.320	90.935	-56.299	-50.823	175.930	-62.556	-53.469	-48.607	-46.410	-41.013	-45.124	-44.077	-8191	255	
16322.333	1	1	0	0	0.24688	0.16391	0.20156	0.16645	0.1365	0.099748	0.25721	0.54413	0.25876	0.18253	0.08664	0.11546	0.25845	0.15264	0.17715	0.10885	-2.6167	-3.2667	-2.9896	-3.3208	-3.2062	-3.0563	-3.4396	-3.2708	-2.975	-3.2979	-2.9562	-3.2188	-3.3104	-2.95	-3.1146	-3.1042	-8.387	40.143	140.811	-66.495	73.538	258.121	-61.314	216.315	238.284	234.768	274.884	237.623	224.772	262.234	207.208	-49.228	0.00015135	0.0024666	0.00027439	1836.7	3.2076e-05	2.451e-05	1311.2	421.7	3.2729e-05	2.3794e-05	277.98	81.038	118.34	40.775	1.0271e-05	31.751	0.013538	0.018542	0.0051771	1751.5	0.00019533	0.00020865	1278.1	411.34	0.00019542	0.00020743	326.35	96.721	128.95	43.859	0.00019671	38.957	59.468	266.635	53.074	-54.982	61.164	136.772	-56.622	-50.990	131.708	230.577	-53.498	-48.672	-46.125	-41.164	85.693	-44.122	-8191	255	
16322.452	1	1	0	0	0.13829	0.33186	0.1838	0.35457	0.11182	0.057783	0.15007	0.18097	0.22591	0.083093	0.13017	0.077712	0.24593	0.20768	0.083088	0.32961	-2.5	-3.1854	-2.7979	-2.9688	-3.2271	-2.7604	-3.3167	-3.1417	-2.95	-3.0062	-3.1854	-3.1188	-3.1646	-3.2417	-3.1562	-3.2458	75.372	23.707	130.969	211.887	10.427	202.991	187.692	282.528	-60.265	283.082	269.851	-41.021	216.941	213.545	103.564	250.774	0.00010725	0.0013609	0.00070258	1830.8	1.4241e-05	1.9186e-05	1304.4	418.15	6.3612e-06	3.6696e-05	279	80.962	117.21	40.713	9.2358e-06	32.014	0.013384	0.018452	0.0050983	1744.2	0.00019429	0.00020343	1270.9	408.25	0.00019157	0.00020343	324.03	96.22	128.17	43.738	0.00019626	39.054	38.983	96.573	66.054	-55.095	105.367	108.488	-56.400	-51.239	275.319	202.361	-53.374	-49.038	-46.076	-41.148	204.484	-43.496	-8191	255	
16322.548	1	1	0	0	0.19935	0.1545	0.18974	0.22526	0.22943	0.055389	0.042313	0.31081	0.090159	0.11263	0.30032	0.16973	0.26652	0.22962	0.12051	0.23163	-2.4938	-3.1125	-2.9958	-2.9583	-3.3833	-2.8958	-3.15	-3.2562	-2.9542	-3.0771	-2.9938	-2.9917	-3.2104	-2.9146	-2.9479	-3.3104	223.278	195.472	-18.898	286.141	167.176	-26.699	21.477	-52.339	89.702	175.883	222.329	157.200	238.385	261.816	131.182	-21.783	0.000106	0.0023781	0.00035688	1823.2	2.3766e-05	1.8528e-05	1306.8	420.41	1.5964e-05	1.4858e-05	279.87	81.785	118.78	41.085	3.779e-06	32.064	0.013363	0.01851	0.0051161	1742.6	0.00019563	0.00020804	1274.9	410.09	0.00019684	0.0002095	327.84	97.893	130.12	44.437	0.00020284	39.731	71.711	-7.532	-22.667	-55.359	159.009	17.295	-56.715	-51.124	112.412	-37.533	-53.060	-48.654	-46.163	-40.712	34.028	-44.142	-8191	255	
16322.644	1	1	0	0	0.12512	0.045502	0.16147	0.23827	0.17125	0.13905	0.21049	0.21487	0.24533	0.10402	0.046715	0.19834	0.27033	0.12544	0.24236	0.087267	-2.4854	-3.1917	-3.1063	-3.0125	-3.1729	-2.9542	-3.1312	-3.4146	-2.8937	-3.2479	-3.1688	-2.8375	-3.1542	-2.9833	-2.9667	-3.3146	131.786	120.974	228.259	258.422	44.710	241.515	-33.032	203.517	267.530	69.837	36.843	40.247	226.577	-24.716	221.432	82.053	0.00012762	0.0022904	0.00033807	1835.1	1.9852e-05	1.301e-05	1308.3	421.24	1.2453e-05	3.144e-05	278.36	80.898	118.58	41.332	1.4975e-05	31.983	0.013826	0.018929	0.0052309	1753.2	0.00019877	0.00020957	1279.6	412.46	0.00019768	0.0002099	327.99	97.32	130.6	44.389	0.00020171	39.641	49.202	85.956	193.293	-55.270	263.284	94.172	-56.373	-51.078	120.846	30.668	-53.481	-48.839	-46.339	-41.016	53.178	-43.859	-8191	255	
16322.740	1	1	0	0	0.11628	0.11511	0.10817	0.28414	0.25007	0.11338	0.23511	0.11929	0.19866	0.33457	0.089661	0.33032	0.17616	0.17487	0.12477	0.18226	-2.5292	-3.0896	-3.05	-3.1292	-3.1083	-3.0375	-3.1083	-3.5396	-2.9313	-3.0458	-3.1875	-2.85	-3.0292	-3.0521	-2.9958	-3.2354	-1.054	240.788	34.907	-64.647	70.258	-18.097	-34.672	269.575	208.397	138.079	118.762	172.454	127.736	205.370	-29.084	272.096	4.6937e-05	0.0029635	0.0001379	1845.6	1.1073e-05	2.2908e-05	1315.6	425.52	3.7217e-06	8.618e-06	281.52	82.793	119.68	41.117	1.523e-05	31.791	0.013801	0.018929	0.0053155	1766.3	0.00019772	0.00020879	1288.4	415.85	0.00019653	0.00020706	329.72	98.003	131.46	44.263	0.00019962	39.417	268.011	58.367	57.465	-55.240	-18.205	80.466	-56.844	-51.196	41.044	-2.307	-53.106	-48.561	-45.960	-41.273	145.703	-44.675	-8191	255	
16322.836	1	1	0	0	0.18199	0.34528	0.13555	0.27738	0.16666	0.034444	0.5174	0.098777	0.16084	0.12444	0.17318	0.16088	0.073665	0.33364	0.11128	0.23268	-2.5271	-2.8937	-3.0833	-3.0354	-3.0271	-2.9833	-2.9875	-3.3979	-2.8396	-2.9854	-3.2313	-2.85	-3.175	-3.1896	-2.9208	-3.1958	109.767	155.777	0.181	273.921	249.916	260.389	257.121	-11.028	216.561	17.995	171.359	107.425	-15.853	-38.625	69.657	150.754	0.00012269	0.0016781	0.00033053	1851.9	1.7844e-05	1.0199e-05	1332.5	427.21	2.9469e-06	5.8908e-06	285.38	83.33	120.99	41.587	1.2851e-05	32.737	0.013538	0.018509	0.0051772	1766.4	0.00019385	0.00020529	1294.7	416.39	0.00019789	0.00021172	336.21	99.466	132.74	45.202	0.00021181	40.836	217.995	84.291	27.909	-55.412	70.410	-23.720	-56.473	-51.028	243.559	250.986	-52.650	-48.918	-46.367	-41.175	0.006	-43.936	-8191	255	
16322.932	1	1	0	0	0.14111	0.45896	0.1818	0.34906	0.18016	0.17988	0.14804	0.35668	0.11008	0.30184	0.076944	0.089208	0.13435	0.10567	0.16172	0.2262	-2.4583	-2.7188	-3.1083	-3.0375	-3.05	-2.8729	-2.9042	-3.3812	-2.6896	-3.025	-3.2708	-2.8708	-3.1896	-3.15	-2.7917	-3.2521	50.960	46.137	-13.820	266.579	29.495	128.835	228.408	263.337	-7.282	190.835	231.557	-54.811	49.571	96.077	225.268	215.361	9.2124e-05	0.00078594	0.0003335	1871.5	1.0506e-05	2.2837e-05	1332.3	432.87	2.4959e-05	2.7604e-05	287.1	84.467	122.84	41.522	3.1635e-06	33.132	0.014476	0.020031	0.0056002	1791.5	0.00021003	0.000223	1312.7	424.25	0.00020827	0.00022042	341.65	100.89	134.37	45.336	0.00021122	40.921	168.982	-17.014	43.832	-55.521	-61.265	219.761	-56.691	-51.283	228.758	127.083	-53.593	-48.787	-46.235	-41.050	-16.734	-43.742	-8191	255	
16323.053	1	1	0	0	0.13239	0.11204	0.027902	0.061687	0.18212	0.25185	0.1694	0.17521	0.19595	0.10515	0.053622	0.068562	0.10291	0.087438	0.12215	0.24904	-2.5396	-2.8375	-3.0646	-3.2	-3.1917	-2.8937	-3.0667	-3.2188	-2.8479	-2.9479	-3.2021	-2.9833	-2.875	-3.0583	-2.7583	-3.1771	85.314	67.984	5.814	240.142	-47.813	-66.529	185.522	266.586	8.971	151.925	-49.405	-9.384	254.335	215.538	207.860	-63.843	0.00016291	0.0022801	0.00075999	1870.2	1.8857e-05	1.8213e-05	1343.8	433.48	1.1049e-05	4.8028e-06	285.85	83.419	121.47	41.432	5.7727e-06	32.148	0.014215	0.019541	0.0054863	1788.2	0.0002043	0.00021654	1307.9	423.72	0.00020032	0.00021314	336.46	99.373	132.96	44.706	0.00020329	39.585	48.837	28.277	7.514	-55.279	-44.292	9.947	-56.942	-51.128	-26.765	9.648	-53.609	-48.394	-46.304	-40.975	30.025	-43.911	-8191	255	
16323.149	1	1	0	0	0.098347	0.29966	0.1332	0.52676	0.11716	0.067624	0.29845	0.30259	0.12753	0.23951	0.2143	0.12009	0.13643	0.17181	0.27499	0.059196	-2.6562	-2.9792	-3.2125	-3.2562	-3.025	-3.1271	-3.0896	-3.2667	-3.1396	-2.8729	-3.2375	-2.85	-2.9833	-3.15	-2.9313	-3.0583	138.761	275.017	4.283	255.338	21.744	209.400	282.523	244.800	-65.781	79.683	10.200	7.565	42.085	226.646	213.625	229.927	0.00017179	0.0019212	0.00012941	1855.3	4.8917e-06	2.2334e-05	1327.2	427.39	1.273e-05	2.3506e-05	281.14	82.097	119.03	41.129	3.7173e-05	32.275	0.013692	0.018983	0.0053358	1776.6	0.00019857	0.00021125	1290.5	417.74	0.00020021	0.00021037	331.35	98.116	131.56	44.71	0.00020706	39.999	48.430	134.485	249.381	-55.451	-47.270	181.105	-56.932	-51.198	54.998	235.494	-53.884	-48.517	-46.020	-41.439	-68.807	-44.284	-8191	255	
16323.244	1	1	0	0	0.23349	0.077561	0.12331	0.36699	0.29326	0.10754	0.35292	0.073723	0.09092	0.17456	0.069827	0.22422	0.21835	0.074588	0.19757	0.12297	-2.5833	-2.9667	-3.1417	-3.0208	-2.8354	-3.2208	-3.0271	-3.0417	-3.075	-2.7938	-3.1167	-3.0792	-2.9938	-3.2396	-2.8375	-3.1292	221.240	111.492	228.620	260.401	282.224	144.070	250.019	286.718	45.531	149.913	-40.620	275.105	-26.073	175.527	99.676	287.460	0.00020559	0.002536	0.00047458	1854.1	8.5242e-06	9.4136e-06	1316.4	426.71	1.994e-05	1.7179e-05	284.51	82.969	119.22	41.885	2.7248e-05	32.288	0.013959	0.019353	0.0054888	1770.2	0.00020594	0.00021836	1293.6	418.97	0.00020482	0.00021621	335.27	98.99	131.56	44.939	0.00020893	40.175	233.250	135.660	-35.451	-55.311	74.749	80.713	-56.771	-51.086	122.215	273.803	-53.538	-48.557	-46.056	-40.787	84.327	-43.992	-8191	255	
16323.364	1	1	0	0	0.10462	0.16798	0.11826	0.26394	0.16257	0.20779	0.11272	0.16191	0.12645	0.16583	0.10503	0.17263	0.15566	0.074781	0.098731	0.041676	-2.7333	-2.7938	-2.9979	-3.1437	-3.0583	-3.3083	-3.1042	-3.2188	-3.0667	-2.8854	-3.1104	-3.2146	-2.8917	-3.3375	-3.0229	-3.2167	276.525	187.338	288.744	241.430	168.048	33.769	189.018	188.380	243.795	279.531	197.384	-63.236	107.720	-55.971	-18.432	131.499	0.00025633	0.0019474	0.0002883	1836.7	1.0029e-05	5.2406e-06	1329.2	427.56	9.847e-06	1.9041e-05	284.62	83.495	121.24	41.332	8.3138e-06	32.423	0.014025	0.019373	0.0054978	1768.4	0.00020353	0.00021538	1296.5	418.72	0.00020212	0.0002159	335.62	99.533	132.59	44.832	0.00020389	40.02	69.473	277.004	60.846	-55.548	72.291	124.435	-56.438	-51.127	167.751	260.046	-53.597	-48.937	-46.260	-41.255	-10.119	-44.631	-8191	255	
16323.436	1	1	0	0	0.13568	0.022219	0.29166	0.18251	0.043736	0.16251	0.35466	0.31567	0.049733	0.29519	0.26519	0.047727	0.27647	0.32168	0.10031	0.13661	-2.825	-2.9271	-3.025	-3.2458	-2.7792	-3.2562	-3.1208	-3.0833	-3.2938	-2.8104	-3.2062	-3.2417	-2.9229	-3.3208	-3.0229	-3.0771	109.646	59.615	9.108	224.183	39.474	-10.477	246.460	230.970	184.556	62.903	241.948	156.462	-55.531	201.308	273.742	215.765	0.00016493	0.0018262	0.00020074	1854.8	8.729e-06	3.1154e-05	1332.4	428.62	1.9555e-05	4.0735e-05	284.28	82.721	120.11	41.233	1.3859e-05	31.728	0.013701	0.018821	0.0052941	1768.5	0.00019563	0.00020715	1291.6	416.38	0.00019231	0.00020467	328.68	97.33	130.58	44.256	0.00019676	39.158	240.817	17.876	263.159	-55.405	98.910	240.395	-56.668	-51.201	131.906	114.671	-53.937	-48.692	-46.118	-41.179	33.069	-44.396	-8191	255	
16323.532	1	1	0	0	0.062606	0.22702	0.051002	0.29113	0.26588	0.092765	0.10901	0.12944	0.12127	0.19964	0.11228	0.24026	0.15319	0.17958	0.25654	0.26461	-2.6021	-2.7979	-3	-3.4188	-2.8833	-3.2792	-3.2396	-3.2792	-3.3229	-3.0021	-2.9979	-3.2375	-3.0729	-3.2562	-3.0146	-2.8979	189.011	102.308	29.458	252.958	179.475	112.818	255.825	216.299	-48.829	33.778	56.440	233.076	262.816	-43.979	281.471	128.337	0.00018084	0.00084715	0.00061797	1853.1	1.584e-05	8.8992e-06	1321.8	423.34	1.2002e-05	1.4469e-05	282.3	82.47	118.41	41.048	2.9778e-06	31.768	0.013468	0.018548	0.0052569	1763.3	0.00019675	0.00020732	1285.4	414.34	0.00019468	0.00020835	328.82	97.343	130.02	44.251	0.00019882	39.519	44.970	17.676	107.527	-55.313	186.246	140.610	-56.906	-50.931	-13.253	137.513	-53.469	-49.164	-45.951	-41.437	166.598	-43.552	-8191	255	
16323.628	1	1	0	0	0.19092	0.036269	0.097429	0.35392	0.18512	0.25785	0.27824	0.11875	0.16475	0.17007	0.069933	0.12676	0.17707	0.080627	0.051822	0.077762	-2.6479	-2.9354	-3.0187	-3.1958	-2.8771	-3.0625	-3.1458	-3.075	-3.15	-3.0312	-3.1896	-3.1021	-2.9333	-3.2083	-2.8604	-2.9042	135.124	125.902	0.537	279.300	150.850	173.098	230.726	251.596	270.446	270.197	171.672	253.052	-31.980	-14.474	191.455	266.453	0.00019736	0.0017645	0.00057453	1855.3	8.5695e-06	3.4443e-05	1320.9	427.97	1.1127e-05	2.7648e-05	284.51	83.035	120.55	41.527	2.405e-05	32.013	0.013635	0.018712	0.0053065	1771.4	0.00019973	0.00021116	1295	418.17	0.00019953	0.00021132	333.42	98.651	132	44.71	0.00020157	39.6	129.751	33.597	52.356	-55.172	87.831	11.188	-56.582	-51.325	141.565	177.631	-53.400	-48.725	-46.544	-41.331	155.582	-43.678	-8191	255	
16323.749	1	1	0	0	0.1593	0.29943	0.033681	0.18528	0.21312	0.12185	0.33404	0.35992	0.055462	0.063656	0.20457	0.040572	0.27291	0.25307	0.019892	0.082229	-2.6333	-2.8771	-3.1562	-3.3563	-2.8937	-3.1333	-3.2917	-3.125	-3.0833	-2.85	-2.9479	-3.1667	-3.0104	-3.1396	-3.0417	-2.6917	183.652	265.511	-28.356	191.505	268.772	-8.837	217.240	238.993	-59.306	41.872	259.855	109.195	250.465	-31.834	156.377	132.355	0.00012572	0.00097262	0.00085308	1879.5	1.4742e-05	2.6911e-05	1343.7	432.93	2.3642e-06	9.4391e-06	286.31	84.079	123.04	41.588	8.8873e-06	32.059	0.013599	0.018492	0.0052187	1786.9	0.00019484	0.00020286	1305.2	419.89	0.00019445	0.00020311	332.98	98.857	132.84	44.623	0.00019786	39.536	237.336	134.291	137.086	-55.484	18.929	164.275	-57.028	-51.356	187.005	122.969	-53.627	-48.465	-46.128	-40.889	149.789	-44.436	-8191	255	
16323.845	1	1	0	0	0.28539	0.40107	0.16156	0.1869	0.102	0.035894	0.3096	0.21199	0.13352	0.1169	0.27759	0.11011	0.19182	0.32537	0.32567	0.16843	-2.7125	-2.8375	-2.8729	-3.3688	-2.8229	-2.9771	-3.0354	-2.9938	-3.1396	-3.1604	-2.8479	-3.0854	-2.9833	-3.0229	-3.1063	-2.7896	283.929	273.942	-14.284	-53.693	87.294	264.403	203.817	-7.979	135.347	80.229	-52.669	12.913	-45.019	265.891	57.955	9.544	0.00012556	0.0015767	0.00022457	1896.7	3.2712e-06	1.0674e-05	1358.4	433.6	2.8628e-05	5.1953e-05	290.08	83.261	121.14	41.782	2.3023e-05	32.035	0.013474	0.018325	0.0052246	1798.4	0.00019521	0.00020483	1313.4	422.48	0.0001943	0.0002035	332.63	98.274	132.15	44.541	0.00019725	39.35	208.082	-60.915	133.636	-55.559	243.221	155.920	-56.752	-51.197	52.306	58.267	-53.390	-48.356	-46.445	-41.383	-64.331	-44.405	-8191	255	
16323.941	1	1	0	0	0.091873	0.21608	0.1525	0.18096	0.12024	0.22749	0.20661	0.414	0.13451	0.27563	0.16464	0.15667	0.2602	0.047048	0.14285	0.17885	-2.5375	-3.0896	-2.8125	-3.4	-2.9667	-2.8583	-3.0625	-2.9917	-3.1354	-3.1458	-3.0125	-3.1417	-3.0917	-3.0646	-3.3125	-2.9875	121.136	-2.209	-21.037	231.524	-22.754	188.148	206.746	229.400	156.329	108.890	247.611	217.633	-59.877	39.727	225.325	276.221	0.00010675	0.0021164	0.00051393	1876.1	2.6741e-06	6.3337e-06	1351.8	435.61	1.4403e-05	1.8198e-05	291.2	83.561	122.39	41.553	4.9728e-06	32.074	0.013402	0.018353	0.0052336	1792.7	0.00019316	0.00020518	1309.7	423.59	0.00019495	0.0002054	335.84	99.061	133.07	44.82	0.00020148	39.741	33.099	240.046	254.138	-55.142	18.476	70.347	-56.741	-51.401	101.194	109.123	-53.988	-49.111	-46.295	-41.371	234.891	-44.357	-8191	255	
16324.013	1	1	0	0	0.24202	0.088387	0.20559	0.19865	0.19602	0.070575	0.054766	0.34119	0.074744	0.12989	0.14871	0.26999	0.3313	0.18769	0.15771	0.15668	-2.675	-2.8104	-2.8688	-3.3896	-3.0042	-2.75	-3.2833	-2.9167	-3.0479	-2.9833	-2.7292	-3.2833	-2.9458	-3.1167	-3.225	-2.8771	32.884	-50.605	157.863	200.023	86.118	280.242	60.330	210.804	214.868	219.221	235.482	-8.889	231.619	93.806	47.207	140.308	0.00030648	0.0018463	0.00064431	1899.4	2.0294e-05	5.9158e-06	1357.8	439.07	2.3071e-05	1.8785e-05	292.53	84.398	123.03	41.812	1.3471e-05	32.246	0.013551	0.018785	0.005323	1809.6	0.00019841	0.0002092	1321.8	428.02	0.00020045	0.00020836	338.51	99.77	134.05	45.021	0.00020013	39.684	-54.660	-13.518	134.742	-55.408	123.410	210.714	-56.949	-51.404	16.189	117.168	-53.762	-48.725	-46.648	-41.475	51.113	-44.200	-8191	255	
16324.133	1	1	0	0	0.15854	0.089691	0.21601	0.20155	0.1749	0.21282	0.26506	0.2699	0.085014	0.2368	0.12843	0.11186	0.17468	0.17884	0.050994	0.10721	-2.6979	-3.15	-2.8917	-3.4583	-3.0187	-2.925	-3.4375	-3.1708	-3.1271	-3.0833	-2.9875	-3.1604	-3.0792	-3.0062	-3.2021	-3.1063	243.503	47.598	145.712	277.338	12.896	107.344	222.637	236.086	248.921	-58.835	-63.691	93.834	197.845	17.276	116.022	143.774	4.333e-05	0.001021	0.00018168	1898.3	8.3381e-06	5.7203e-06	1377.6	446.9	6.3479e-06	1.1226e-05	294.45	85.657	124.93	42.151	1.9495e-05	32.338	0.01344	0.018501	0.0052109	1813.2	0.00019551	0.00020731	1332.9	431.86	0.00019731	0.00020818	342.05	100.73	135.23	45.259	0.0002022	39.808	-47.393	94.614	82.797	-55.471	277.916	-16.960	-56.980	-51.242	53.881	-2.645	-53.393	-48.437	-46.857	-41.715	86.023	-44.691	-8191	255	
16324.230	1	1	0	0	0.19549	0.034581	0.034551	0.29197	0.13565	0.26525	0.29163	0.32077	0.026909	0.064141	0.091845	0.04031	0.017375	0.041921	0.15602	0.1315	-2.7792	-2.9604	-2.9458	-3.4625	-3.1396	-2.9354	-3.5062	-3.1188	-2.875	-3.0854	-3.0667	-3.1646	-3.1875	-2.9625	-3.3021	-3.0312	-7.687	112.864	-7.812	258.420	-0.490	30.218	271.178	225.228	54.029	-5.268	76.130	-38.381	-58.531	32.035	194.195	65.102	0.00011494	0.0020093	0.00023113	1910.8	1.7534e-05	3.3199e-06	1377.6	444.99	1.662e-05	1.9097e-05	295	86.037	124.76	42.091	1.7375e-05	32.157	0.013563	0.018688	0.0052237	1819.7	0.00019522	0.00020901	1336.4	431.88	0.00019774	0.00020805	340.79	100.43	135.28	45.045	0.00020188	39.577	100.835	81.351	-42.423	-55.490	119.506	210.062	-56.701	-51.457	150.362	68.518	-53.810	-48.924	-46.952	-41.331	80.120	-44.362	-8191	255	
16324.326	1	1	0	0	0.010707	0.10898	0.095584	0.16909	0.22432	0.3201	0.27654	0.16574	0.1652	0.075369	0.041673	0.23752	0.24293	0.22887	0.089203	0.25695	-2.4875	-3.2	-2.7958	-3.1562	-3.0542	-2.875	-3.4021	-3.1667	-2.9521	-3.0333	-2.9854	-3.0167	-3.1583	-2.7333	-3.0125	-2.9917	-43.973	207.401	-5.731	268.269	-29.985	-4.008	167.715	201.049	149.635	99.332	235.126	123.967	262.148	-2.652	-42.038	221.826	0.00013884	0.0013803	0.00055247	1916.8	6.1594e-06	1.7398e-05	1378.1	443.42	5.717e-06	1.49e-05	294.61	84.53	124.94	41.781	1.8713e-05	32.193	0.013429	0.018531	0.0052421	1823.5	0.0001955	0.00020711	1333.5	430.07	0.0001938	0.0002032	338.55	99.028	134.42	44.582	0.0001971	39.082	2.931	-21.638	-30.241	-55.709	131.861	-46.541	-56.766	-51.259	41.087	66.763	-53.864	-49.092	-46.157	-41.611	246.391	-44.394	-8191	255	
16324.445	1	1	0	0	0.078436	0.30829	0.010217	0.26992	0.084253	0.26522	0.15909	0.32393	0.20792	0.24412	0.23285	0.029348	0.29204	0.080388	0.16109	0.22306	-2.5292	-3.0167	-2.6521	-3.0917	-3.0292	-2.8063	-3.2854	-2.9917	-2.7917	-3.0563	-2.8583	-3.0979	-3.1458	-2.7687	-3.1083	-3.0333	71.031	126.415	251.206	-53.714	21.059	-55.426	227.843	242.782	53.138	-54.867	283.682	89.325	280.702	181.453	3.901	-35.878	8.1114e-05	0.0029373	0.00049861	1918.1	1.9916e-05	2.242e-05	1381.6	445.49	9.8734e-06	2.6763e-05	296.98	85.971	124.38	41.409	1.2673e-05	31.768	0.013235	0.018108	0.005066	1822.3	0.00018994	0.00020206	1335.9	430.97	0.0001912	0.00020362	339.2	99.594	134.01	44.663	0.00019632	39.063	201.759	254.946	18.642	-55.134	138.007	-42.162	-56.725	-51.343	-22.815	83.276	-53.182	-48.874	-46.822	-41.540	-10.284	-44.935	-8191	255	
16324.541	1	1	0	0	0.12402	0.15174	0.16747	0.44957	0.12171	0.16574	0.21873	0.20902	0.061457	0.20594	0.18759	0.063116	0.16509	0.33981	0.25043	0.0093089	-2.0833	-3.0833	-2.8271	-3.1542	-3.1375	-2.7646	-3.2167	-3.0312	-2.7604	-3.0083	-2.9417	-2.7979	-3.2646	-2.9625	-2.9688	-3.0792	246.750	182.177	37.282	233.620	85.925	177.973	271.717	235.171	-50.319	2.394	95.562	16.053	270.188	249.440	52.897	8.977	0.0001522	0.0005417	0.00037256	1926.9	7.9642e-06	2.6396e-05	1386.2	446.2	1.0071e-05	1.2127e-05	293.8	85.004	124.83	41.906	8.4028e-06	31.725	0.013216	0.018107	0.0050537	1826.5	0.00019065	0.00020116	1334.1	429.81	0.00018897	0.00020281	338.14	99.448	134.5	44.823	0.00019498	39.069	-65.452	-23.580	-5.922	-55.453	-36.965	-20.748	-56.840	-51.420	236.328	37.034	-53.910	-49.249	-46.295	-41.273	124.289	-44.570	-8191	255	
16324.637	1	1	0	0	0.17056	0.13461	0.20095	0.13318	0.14137	0.159	0.41042	0.15572	0.11915	0.10935	0.43656	0.26806	0.23381	0.24482	0.14447	0.13233	-2.3438	-3.1479	-2.7938	-3.1396	-3.1771	-2.75	-3.3979	-3.225	-2.8812	-3.1083	-2.8958	-2.8583	-3.1437	-2.9313	-3.0729	-3.1875	-0.804	151.691	63.486	247.151	5.100	4.814	217.647	273.909	214.985	154.703	-57.016	-37.266	-68.024	-8.511	-1.564	277.990	0.00021524	0.00056192	0.00045467	1939.2	1.7273e-05	1.1691e-05	1384.7	448.64	1.5698e-05	3.5786e-05	296.45	85.62	125.68	41.502	2.5011e-05	31.762	0.013208	0.018084	0.0050643	1833.2	0.00018782	0.00020023	1339	432.98	0.00019008	0.00020108	338.8	99.278	134.79	44.362	0.00019025	38.513	104.049	150.360	107.250	-55.532	233.344	109.793	-57.008	-51.425	164.022	90.258	-54.301	-48.817	-46.495	-41.354	86.047	-44.041	-8191	255	
16324.733	1	1	0	0	0.25155	0.15701	0.19654	0.43574	0.19173	0.15259	0.25017	0.2232	0.076388	0.082086	0.12776	0.12185	0.088272	0.11102	0.0056548	0.086884	-2.5125	-3.0167	-2.9125	-3.0646	-3.1583	-3.1646	-3.1271	-3.2083	-2.9667	-3.0917	-3.1083	-2.9104	-3.1625	-2.9938	-2.9833	-3.2271	-32.597	127.219	-32.953	280.339	278.957	260.257	276.888	273.720	259.605	67.785	163.530	134.136	-34.517	220.263	39.275	126.358	0.00021355	0.0024188	0.00042385	1942.7	1.3823e-05	1.0058e-05	1409.1	452.71	4.4042e-06	5.1745e-06	299.01	86.4	128.28	42.015	7.3748e-06	31.802	0.012795	0.017398	0.0048777	1833.5	0.00018438	0.00019396	1348.6	434.54	0.00018146	0.00019341	339.03	99.398	135.48	44.426	0.00018849	38.489	143.952	29.548	-13.456	-55.557	179.114	21.214	-56.624	-51.613	128.713	194.778	-53.885	-48.496	-46.991	-41.571	62.934	-44.453	-8191	255	
16324.829	1	1	0	0	0.14207	0.043223	0.21626	0.24234	0.30328	0.046416	0.28967	0.22744	0.11866	0.19494	0.099822	0.1661	0.13016	0.135	0.1366	0.11302	-2.4333	-2.9542	-2.9667	-3.1833	-3.1688	-2.8979	-3.0146	-3.4208	-2.9125	-3.0896	-3.1021	-2.9583	-3.1583	-2.9292	-2.8521	-3.1354	22.767	43.800	130.913	258.617	164.489	52.188	202.077	221.607	24.762	-44.274	-42.096	238.685	70.045	98.065	124.168	139.200	0.00014901	0.003259	0.00054102	1954.8	1.8355e-05	1.3495e-05	1421.9	458.65	9.9641e-06	5.0245e-06	304.57	86.994	127.44	42.033	1.3972e-05	31.642	0.012712	0.017404	0.0048857	1850.5	0.00018435	0.00019369	1358.8	440.2	0.00018078	0.00019443	342.55	100.03	136.36	44.732	0.00018876	38.787	206.533	85.560	40.582	-55.562	174.592	168.704	-56.826	-51.452	134.353	49.474	-54.027	-48.909	-47.122	-41.722	111.715	-43.862	-8191	255	
16324.925	1	1	0	0	0.053958	0.11425	0.1309	0.33924	0.11466	0.03348	0.20213	0.22149	0.2082	0.14909	0.098124	0.046465	0.20492	0.14891	0.14604	0.23174	-2.4417	-2.9333	-3.0896	-3.0896	-3.2542	-3.125	-3.1917	-3.2958	-2.9813	-2.9354	-3.1937	-2.9146	-3.15	-3.1271	-2.7313	-3.1396	95.150	205.349	286.147	204.883	165.904	93.957	231.944	255.415	263.592	210.277	-26.985	-41.399	220.799	289.332	109.506	160.470	0.00011451	0.00025516	0.0007476	1959.3	6.8097e-06	2.2114e-05	1414.3	459.1	2.778e-05	1.7586e-05	304.38	87.913	128.59	42.122	1.1023e-05	32.15	0.012777	0.017615	0.0049556	1850.9	0.00018888	0.00019812	1361.4	441.77	0.00018807	0.00020131	345.68	101.4	137.35	44.962	0.00019357	39.162	153.491	170.340	122.228	-55.489	-31.093	90.035	-56.886	-51.601	90.491	81.672	-53.872	-49.114	-46.721	-41.816	-6.544	-44.721	-8191	255	
16325.046	1	1	0	0	0.097001	0.086389	0.11982	0.34119	0.17647	0.15121	0.25128	0.1058	0.040847	0.14553	0.21953	0.18124	0.21664	0.19087	0.11563	0.11105	-2.3312	-2.9229	-3.1437	-2.825	-3.05	-3.0458	-3.0208	-3.3479	-2.9167	-2.8583	-3.1979	-2.7354	-3.1937	-3.0292	-2.8	-3.0958	-56.671	195.787	187.835	233.345	12.450	108.484	190.598	-37.696	48.157	161.886	260.262	-26.352	286.754	-59.821	238.931	229.328	0.00015802	0.00061831	0.00040519	1950.5	2.6352e-06	2.1304e-05	1402.2	453.11	1.7398e-05	1.2458e-05	297.97	85.596	127.32	41.755	1.4672e-05	31.553	0.012912	0.017689	0.0049839	1838.7	0.00018682	0.0001959	1350.5	436.7	0.00018322	0.00019869	340.33	99.784	135.23	44.446	0.00018743	38.51	48.011	150.579	239.522	-55.443	142.661	151.298	-56.807	-51.585	156.071	181.413	-53.372	-49.271	-46.530	-41.732	66.008	-44.472	-8191	255	
16325.142	1	1	0	0	0.16069	0.4417	0.092116	0.29191	0.091572	0.12066	0.18774	0.22481	0.018829	0.075534	0.24424	0.11548	0.26141	0.14775	0.071553	0.064365	-2.4188	-2.8479	-3.2083	-3.0167	-3.0396	-3.1312	-3.1708	-3.3021	-3.0062	-2.95	-3.1958	-2.8542	-3.0771	-3.2708	-2.8167	-3.3063	113.132	284.430	148.980	249.198	-54.613	-54.681	162.691	-21.970	122.895	68.365	-31.985	174.627	-16.737	-55.025	-3.814	281.602	0.00028381	0.0023995	0.00041895	1942	1.5073e-05	2.6489e-05	1379.9	445.21	7.0197e-06	2.4711e-05	295.28	84.451	124.6	41.272	1.425e-05	30.955	0.012677	0.017492	0.0048712	1827.5	0.00018282	0.00019181	1327.7	430.29	0.00018183	0.00019328	335.48	97.797	133.09	43.828	0.00018597	38.116	-43.486	27.934	1.895	-55.389	68.860	228.939	-56.794	-51.501	115.562	133.736	-54.245	-49.159	-46.535	-41.376	139.947	-44.817	-8191	255	
16325.236	1	1	0	0	0.20175	0.060096	0.073014	0.20096	0.17682	0.089935	0.026339	0.11381	0.18422	0.26084	0.16356	0.13174	0.23705	0.088889	0.086858	0.13765	-2.5312	-2.9	-2.9938	-3.1479	-3.0875	-3.2583	-2.9688	-3.2958	-2.8396	-2.8917	-3.1958	-2.9083	-2.9	-3.0563	-2.8604	-3.1417	-54.022	219.082	-30.467	227.512	-9.201	273.935	236.481	142.542	13.231	58.428	158.357	95.018	-44.973	-49.725	88.079	116.960	0.00024509	0.0016327	0.00034907	1928.8	1.8754e-05	1.9118e-05	1389.4	447.44	1.041e-05	2.2006e-05	297.34	84.856	124.83	41.038	4.4625e-06	30.922	0.012584	0.017266	0.0049117	1822.1	0.00018264	0.00019305	1335.2	430.56	0.00017964	0.00019236	335.75	97.653	132.86	43.676	0.00018405	37.885	-44.633	272.606	-44.666	-55.303	-49.385	-14.242	-57.090	-51.265	115.172	114.936	-54.000	-48.907	-46.286	-41.448	212.308	-44.440	-8191	255	
16325.310	1	1	0	0	0.28063	0.093486	0.12805	0.17861	0.21855	0.057445	0.25795	0.46184	0.11938	0.081767	0.28689	0.18904	0.22345	0.12258	0.12701	0.030359	-2.5833	-2.9021	-3.1292	-3.1104	-2.8271	-3.1937	-3.2354	-3.4354	-2.975	-2.7167	-3.0729	-2.9271	-3.0021	-3.0896	-3.0042	-3.125	182.423	155.683	1.690	289.697	223.672	228.766	235.620	223.064	272.798	91.876	216.409	211.728	-24.023	261.587	224.214	-3.936	0.00017368	0.001328	0.00046253	1922.9	1.6745e-05	2.5119e-05	1379.6	443.89	1.7162e-05	1.6069e-05	295.97	83.738	124.63	40.929	5.3214e-06	31.421	0.012477	0.017086	0.0048266	1814.4	0.00018024	0.00018827	1326.8	427.24	0.00017801	0.00018917	333.53	96.949	132.21	43.508	0.00018251	37.914	145.884	-4.592	212.512	-55.361	112.943	48.233	-56.672	-51.466	127.316	286.312	-54.313	-48.809	-45.906	-41.434	180.639	-44.520	-8191	255	
16325.406	1	1	0	0	0.1407	0.18005	0.17886	0.32276	0.17938	0.23794	0.24388	0.2236	0.12307	0.049111	0.16055	0.14075	0.14118	0.065574	0.26974	0.28742	-2.6813	-2.8208	-2.9833	-3.25	-2.8208	-3.0792	-3.2021	-3.3229	-3.0875	-2.7646	-3.2396	-3.0104	-2.9	-3.0708	-2.8396	-2.9375	105.645	34.315	116.734	270.705	138.947	-14.974	213.093	242.664	131.739	-26.280	231.418	127.992	237.738	228.180	225.152	209.513	0.00012504	0.0039722	0.00020993	1919.5	1.231e-05	7.2061e-06	1375.4	444.93	1.9469e-05	2.3505e-05	293.55	84.203	123.81	41.291	1.073e-05	31.064	0.012386	0.017123	0.0048051	1809.9	0.0001829	0.00019085	1326.4	427.99	0.00018015	0.00019412	335.74	98.133	132.62	43.836	0.00018809	38.145	218.461	8.476	168.181	-55.496	61.026	75.718	-57.029	-51.184	121.740	32.839	-53.857	-48.897	-46.873	-41.361	-32.500	-44.356	-8191	255	
16325.525	1	1	0	0	0.052109	0.20149	0.11538	0.092716	0.15617	0.31813	0.14769	0.25371	0.17859	0.25732	0.21349	0.15283	0.07466	0.121	0.10124	0.29314	-2.6167	-2.7271	-3.0896	-3.2188	-2.7625	-3.2188	-3.0021	-3.0917	-3.15	-2.6396	-2.9354	-2.8521	-2.8604	-3.2083	-2.7833	-2.9583	73.154	-46.095	280.905	237.294	4.988	242.984	195.239	224.879	63.076	283.256	162.496	251.136	49.267	48.502	3.305	-19.592	0.00017065	0.0016591	0.00016176	1916.2	5.9388e-06	1.8288e-05	1354.7	442.72	1.9398e-05	2.8004e-05	290.41	83.637	122.33	40.75	8.6698e-06	31.092	0.012766	0.017692	0.00494	1807.1	0.00018748	0.00019803	1314.2	426.22	0.00018654	0.00019832	332.28	97.506	132.13	43.714	0.00019177	38.215	-43.488	117.592	176.961	-55.807	143.846	92.592	-56.786	-51.293	198.411	181.124	-53.987	-49.286	-46.405	-41.692	74.139	-44.707	-8191	255	
16325.621	1	1	0	0	0.29256	0.12137	0.13268	0.24462	0.17196	0.075961	0.1493	0.30778	0.14903	0.056667	0.12629	0.33561	0.20877	0.1244	0.14123	0.22131	-2.5062	-2.8521	-2.9	-3.2958	-2.7458	-3.1208	-3.2292	-3.1333	-3.0917	-2.7854	-3.125	-3.1271	-2.8187	-3.2396	-3.0479	-2.7729	202.068	81.386	159.118	264.859	16.061	19.279	258.882	216.361	106.671	40.894	0.198	149.695	150.821	85.061	149.676	254.405	0.00034589	0.0025433	0.0003799	1896.4	2.3319e-05	2.7842e-05	1354.7	436.74	1.696e-05	1.6011e-05	287.82	83.28	123.26	40.996	1.5857e-05	31.463	0.013029	0.017766	0.0049858	1794.2	0.00018749	0.00020011	1306.6	423.36	0.00018636	0.00019625	332.45	97.181	132.15	43.932	0.00019256	38.89	34.723	9.863	97.378	-55.653	51.478	-39.066	-56.793	-51.245	115.509	42.816	-53.916	-49.177	-46.608	-41.513	212.218	-44.375	-8191	255	
16325.717	1	1	0	0	0.13239	0.089519	0.16581	0.3806	0.13472	0.1288	0.41884	0.043899	0.15294	0.063161	0.11516	0.18222	0.17568	0.14803	0.14937	0.16319	-2.6917	-2.7771	-2.8854	-3.1562	-2.8042	-3.0646	-3.0854	-3.0438	-3.0896	-2.9188	-3.1104	-3.2333	-2.9458	-3.2833	-2.9646	-2.7313	106.578	236.349	22.607	-55.689	69.585	61.570	280.104	-37.882	184.024	-39.360	-60.805	-48.172	168.223	212.038	-42.289	-13.123	2.8245e-05	0.00085371	0.00049988	1889.6	1.769e-05	2.2064e-05	1368.1	439.68	2.957e-05	2.2368e-05	293.6	84.992	123.47	41.575	1.4725e-05	32.024	0.013218	0.018082	0.0051343	1799.7	0.00019389	0.00020494	1319.1	426.39	0.00019165	0.00020342	336.47	99.128	133.66	44.431	0.00019636	39.3	127.924	-11.848	0.474	-55.654	160.646	219.415	-57.202	-51.513	170.309	106.363	-54.014	-49.349	-46.569	-41.801	193.085	-44.424	-8191	255	
16325.813	1	1	0	0	0.050404	0.29652	0.18254	0.26455	0.17358	0.084674	0.33902	0.20679	0.18389	0.19963	0.12389	0.12592	0.17087	0.29674	0.16911	0.27901	-2.5604	-2.8854	-3.1625	-3.3292	-2.825	-2.9875	-3.2667	-2.9542	-3.1667	-2.9625	-3.0771	-3.1792	-3.0167	-3.2625	-3.1229	-2.8063	116.682	-68.226	-28.582	-49.256	150.289	198.676	211.074	260.797	226.593	69.541	-65.320	209.087	-50.388	215.042	-57.063	-28.521	0.00014462	0.0026783	0.00073053	1908.8	7.5322e-06	2.4926e-05	1373.4	439.67	1.8569e-05	2.4903e-05	295.26	85.54	124.95	41.753	1.8815e-05	31.957	0.013485	0.018414	0.0051445	1816.1	0.00019641	0.00020683	1328.6	429.71	0.00019337	0.00020458	340.92	100.08	134.85	44.933	0.00019797	39.517	35.835	3.839	96.833	-55.426	290.592	154.738	-57.074	-51.415	84.911	-67.346	-54.077	-49.310	-46.739	-41.841	-56.572	-45.000	-8191	255	
16325.910	1	1	0	0	0.16928	0.16129	0.29365	0.21296	0.31346	0.28338	0.17484	0.18482	0.22831	0.12198	0.1663	0.1153	0.11421	0.40597	0.080113	0.1762	-2.6271	-2.9042	-2.8042	-3.4188	-2.7479	-2.9	-3.2562	-2.9437	-3.125	-3	-3.0125	-3.1292	-2.8229	-3.0333	-3.2313	-2.6021	164.099	70.388	-66.917	262.517	-21.177	268.191	219.617	-68.119	256.667	151.127	230.975	249.129	-64.788	233.305	-37.288	285.149	0.00024305	0.0012344	0.00049525	1918.3	1.5035e-05	2.1235e-05	1364	443.56	6.115e-06	8.8342e-06	292.84	85.738	124.25	41.698	1.107e-05	32.241	0.013561	0.018418	0.0051921	1819.1	0.00019542	0.00020772	1326	429.89	0.00019479	0.00020582	339.58	100.1	134.45	44.767	0.00019787	39.505	90.417	44.656	-18.886	-55.707	174.342	205.364	-56.545	-51.253	-46.464	-9.750	-53.662	-48.833	-46.425	-41.814	223.274	-45.202	-8191	255	
16326.006	1	1	0	0	0.10443	0.22375	0.10286	0.15457	0.19285	0.12752	0.2427	0.37952	0.19093	0.1984	0.29113	0.28591	0.17705	0.26366	0.043038	0.20561	-2.6271	-2.9417	-2.8292	-3.4604	-2.8833	-3.1646	-3.2396	-3.1833	-2.9062	-3.125	-3.0271	-3.2104	-2.9604	-3.0542	-3.1208	-2.9	-40.707	277.124	228.941	228.825	154.437	24.628	236.868	237.791	157.674	117.994	-33.521	187.954	-43.703	280.047	5.639	267.590	0.00022048	0.0013458	0.00082522	1899.7	3.9652e-06	3.1392e-05	1365.8	444.33	2.6824e-06	2.8253e-05	293.56	85.013	124.61	41.479	1.8767e-05	31.84	0.013652	0.018417	0.0052132	1809.9	0.00019365	0.00020709	1325.9	429.23	0.00019294	0.00020355	338.82	100.03	134.18	44.476	0.00019806	39.26	169.185	104.387	-25.953	-55.333	133.734	97.854	-57.089	-51.653	176.557	-26.494	-53.834	-48.983	-46.527	-41.388	184.977	-44.593	-8191	255	
16326.126	1	1	0	0	0.031111	0.065398	0.080094	0.40435	0.29429	0.19637	0.3341	0.39194	0.058599	0.19478	0.28468	0.15041	0.16983	0.083301	0.19192	0.22933	-2.575	-3.075	-2.8104	-3.3604	-3.1042	-3.0229	-3.3271	-3.0708	-3.1208	-3.0646	-2.8667	-3.1562	-2.8792	-3.0396	-3.1667	-2.6396	46.105	-67.503	173.007	275.992	-35.163	233.033	144.318	218.326	19.712	138.382	181.116	-46.199	239.182	127.561	-63.354	234.838	0.00020476	0.00063758	0.00030192	1914.7	6.6205e-06	6.929e-06	1372.6	444.9	2.8186e-05	2.6349e-05	298.27	86.314	126.1	42.009	7.8613e-06	32.312	0.013296	0.018205	0.0051581	1815.7	0.00019342	0.00020505	1328.3	430.8	0.00019199	0.00020494	340.92	101.02	135.31	44.949	0.00019977	39.651	179.811	31.440	-2.025	-55.422	-19.673	16.869	-57.013	-51.656	84.831	-23.037	-54.218	-49.379	-46.594	-41.476	-24.668	-44.621	-8191	255	
16326.222	1	1	0	0	0.27933	0.084779	0.10813	0.35968	0.12125	0.35481	0.30369	0.36937	0.40334	0.1964	0.095068	0.10924	0.17705	0.25042	0.078091	0.13291	-2.5271	-2.8396	-2.8063	-3.3729	-2.95	-2.9167	-3.2292	-3.1396	-2.9229	-3.1896	-2.8146	-3.1646	-3.0563	-2.9583	-3.1458	-2.8896	-50.246	69.804	33.805	266.601	5.566	-57.461	277.785	264.550	194.145	72.204	-32.825	-65.265	208.740	280.438	130.156	280.349	0.00034244	0.00068315	0.00044482	1922.5	1.814e-05	2.1799e-05	1374	448.73	6.7535e-06	9.2725e-06	296.89	85.246	125.39	42.25	1.1379e-05	32.257	0.013464	0.018347	0.0051589	1820.9	0.00019279	0.00020556	1333.5	433.62	0.00019103	0.00020407	342.39	101.08	135.14	45.068	0.00019768	39.325	173.015	-20.124	93.481	-55.619	63.402	196.226	-56.681	-51.564	227.145	139.829	-53.760	-48.667	-46.888	-41.533	124.464	-44.303	-8191	255	
16326.317	1	1	0	0	0.1125	0.20566	0.11869	0.12483	0.33634	0.19036	0.25912	0.16726	0.18567	0.203	0.053635	0.16658	0.14848	0.18648	0.013841	0.26768	-2.4646	-3.0417	-2.9542	-3.3833	-2.8812	-2.8375	-3.4896	-2.9521	-2.7875	-3.2438	-2.8479	-3.2167	-3.1042	-2.8771	-3.2104	-3.0187	40.673	181.184	-27.686	211.365	-4.169	88.104	176.863	274.439	96.346	40.482	228.426	-68.005	-54.497	-27.380	144.917	153.476	0.00020353	0.0017043	0.00037578	1923.9	2.0502e-05	8.4509e-06	1362.2	442.77	2.9374e-05	1.6872e-05	295.12	84.544	124.41	41.678	1.8266e-05	32.128	0.013395	0.018254	0.0051438	1818.2	0.00019277	0.00020451	1324.2	430.04	0.00019266	0.00020403	338.47	99.554	134.32	44.739	0.00019843	39.378	258.212	218.803	-62.329	-55.406	79.829	42.769	-56.719	-51.377	186.615	239.494	-54.053	-48.671	-46.899	-41.322	15.678	-44.400	-8191	255	
16326.415	1	1	0	0	0.24786	0.16396	0.26551	0.34879	0.19216	0.16829	0.23478	0.14347	0.038787	0.13206	0.19575	0.22974	0.28482	0.13485	0.19843	0.19945	-2.4292	-2.975	-2.8354	-3.3354	-3.1104	-2.9708	-3.2354	-3.0812	-2.9083	-3.2417	-2.8438	-3.0854	-3.0729	-2.6958	-3.0833	-2.9646	-17.264	228.219	139.735	234.630	85.402	64.968	236.128	227.909	-28.306	189.756	275.834	252.822	284.755	230.934	262.922	-67.101	0.00028719	0.0027677	0.0010978	1899.3	3.5997e-05	2.1106e-05	1367.4	441.44	1.7335e-06	1.6876e-05	294.23	85.333	123.87	42.024	1.7212e-05	32.341	0.013549	0.018496	0.0051809	1810.5	0.00019274	0.00020452	1326	428.33	0.0001926	0.00020299	338.05	100.05	134.12	44.882	0.00019683	39.468	242.610	93.128	40.205	-55.212	242.568	52.844	-56.796	-51.432	265.326	169.365	-54.045	-49.408	-46.753	-41.780	171.737	-44.540	-8191	255	
16326.534	1	1	0	0	0.087374	0.12893	0.24529	0.21561	0.18855	0.16496	0.13801	0.39363	0.1841	0.23303	0.053447	0.060313	0.1251	0.075259	0.067416	0.14681	-2.3792	-3.2687	-2.725	-3.0667	-3.0042	-2.7875	-3.2396	-2.9979	-2.7062	-3.1063	-2.825	-2.9958	-3.05	-2.7812	-3.1562	-2.9708	229.448	105.673	280.765	289.315	3.345	-7.449	183.515	249.426	249.357	137.263	163.999	194.441	23.911	233.381	45.308	276.478	0.00042446	0.0018285	0.00018966	1902	7.652e-06	6.6577e-06	1380	444.73	8.2282e-06	1.7918e-05	297.77	85.976	125.94	42.03	1.3371e-05	32.755	0.013426	0.018444	0.0051663	1814.3	0.00019556	0.00020793	1335.8	432.11	0.00019506	0.00020745	342.98	100.97	135.61	45.222	0.00019962	39.997	225.478	-43.409	258.802	-55.525	30.992	26.708	-56.667	-51.309	178.899	205.033	-53.425	-49.480	-47.313	-42.217	42.527	-44.517	-8191	255	
16326.605	1	1	0	0	0.21143	0.18674	0.19249	0.35722	0.087924	0.091726	0.48954	0.37813	0.087058	0.072064	0.14282	0.15206	0.072481	0.14684	0.055445	0.36666	-2.3292	-3.0292	-2.8812	-3.2938	-2.9771	-2.6604	-3.0917	-3.275	-2.8854	-3.1917	-3.1437	-2.9458	-3.1229	-2.9271	-3.1021	-2.9396	188.808	245.346	52.712	234.595	101.776	-51.511	251.452	268.494	287.556	118.214	194.731	104.706	236.886	276.289	188.343	257.292	0.00012664	0.0025594	0.00034802	1906.2	2.3096e-05	2.3477e-05	1380.8	442.76	6.0596e-06	9.2336e-06	296.16	86.817	124.89	42.128	1.2986e-05	32.915	0.013637	0.018869	0.0052168	1817.7	0.00019639	0.00020971	1335.6	430.79	0.00019625	0.00020904	343.17	101.68	135.47	45.495	0.00020184	40.383	45.386	275.952	256.466	-55.502	183.972	179.977	-56.474	-51.323	22.046	62.864	-53.920	-48.973	-46.522	-41.121	65.400	-44.221	-8191	255	
16326.726	1	1	0	0	0.29055	0.10847	0.37728	0.29589	0.17103	0.15322	0.24986	0.2629	0.067037	0.15451	0.1009	0.10782	0.2785	0.32891	0.35734	0.14803	-2.3479	-3.0458	-2.65	-2.9188	-3.0563	-2.8667	-3.3312	-3.1708	-2.8187	-2.9604	-2.9021	-2.95	-3.0958	-2.8104	-2.9667	-3.075	156.645	63.012	259.478	275.839	-2.113	-16.893	247.107	249.101	109.361	-56.707	-23.155	195.056	279.293	-35.757	155.835	241.059	3.8676e-05	0.0022375	0.0003363	1895.5	2.9953e-05	1.6927e-05	1361.3	439.28	1.766e-05	1.8052e-05	295.35	84.451	122.96	42.136	1.5863e-05	32.168	0.01368	0.018919	0.0052639	1806	0.00019813	0.00020867	1323.4	427.49	0.00019743	0.00020838	338.13	100.1	133.96	45.169	0.00019992	40.015	182.403	126.766	125.762	-55.285	12.162	-11.941	-56.654	-51.158	286.099	149.660	-53.826	-48.656	-46.466	-40.972	168.332	-45.347	-8191	255	
16326.822	1	1	0	0	0.34376	0.10103	0.1166	0.29936	0.2795	0.23433	0.2572	0.12572	0.035954	0.10073	0.070051	0.029208	0.1485	0.14014	0.1086	0.11479	-2.3833	-2.9208	-2.7333	-2.9708	-3.0271	-2.9458	-3.1521	-3.2292	-2.7583	-3.1896	-2.9813	-2.9979	-3.2021	-2.8312	-2.8042	-3.1813	114.083	205.089	121.533	271.241	186.831	112.853	213.857	148.548	260.657	199.900	88.835	173.819	239.278	114.865	271.528	11.437	0.00014274	0.0022468	0.00095184	1890.8	2.0132e-05	8.0877e-06	1364.9	438.31	2.0465e-05	1.2661e-05	294.05	85.682	123.63	41.822	2.6767e-05	32.171	0.01368	0.018852	0.0052166	1803.5	0.00019592	0.00020673	1325.4	427.39	0.00019537	0.00020563	337.46	99.903	133.82	44.971	0.00019879	39.661	29.425	62.685	-61.959	-55.354	-52.845	170.142	-56.893	-51.378	37.281	169.837	-54.111	-49.089	-46.246	-41.478	35.890	-44.636	-8191	255	
16326.918	1	1	0	0	0.31253	0.17264	0.2463	0.34387	0.20133	0.27699	0.2575	0.30694	0.11138	0.08807	0.24875	0.28634	0.25921	0.25963	0.21949	0.15842	-2.4646	-3.0375	-3.1583	-3.1208	-3.1146	-2.9917	-3.2521	-3.2083	-2.9146	-3.0979	-2.9958	-2.7896	-2.975	-2.9521	-3.0958	-3.0333	54.863	-5.633	-16.582	264.559	-3.769	50.533	264.583	259.669	-48.837	193.913	250.290	174.179	241.415	-22.387	-9.832	35.519	0.0003408	0.00073525	0.00047804	1900.5	4.5306e-06	4.9833e-06	1372.6	441.65	2.5485e-05	2.0905e-05	297.57	85.226	122.7	41.781	1.8303e-05	31.978	0.013439	0.018281	0.0051636	1805.1	0.00019299	0.00020322	1326.7	426.82	0.00019175	0.00020253	338.46	99.524	133.09	44.672	0.00019456	39.347	99.403	-64.278	100.425	-55.664	-65.968	9.051	-56.312	-51.458	39.816	278.157	-53.497	-49.298	-46.535	-41.470	68.168	-44.384	-8191	255	
16327.014	1	1	0	0	0.20094	0.045668	0.017481	0.23799	0.12601	0.26192	0.088633	0.36214	0.22963	0.29772	0.094245	0.1113	0.18547	0.18008	0.14153	0.16387	-2.5062	-2.9625	-3.2417	-3.0333	-3.1417	-2.975	-3.1792	-3.1813	-2.9104	-3.0125	-3.1958	-2.7854	-3.0833	-3.1063	-2.8896	-3.0333	-64.903	182.848	258.171	-54.710	215.759	74.806	235.172	242.930	-7.241	94.541	175.330	-47.942	48.444	225.361	268.340	74.011	8.6266e-05	0.00069785	0.00076986	1900.1	1.7955e-05	2.5693e-05	1362	437.86	5.6671e-06	3.2792e-05	292.56	84.613	123.73	41.906	1.5097e-05	32.124	0.013197	0.018248	0.0050697	1803.4	0.00018909	0.00020008	1318.7	424.33	0.00018869	0.00019755	334.71	98.861	132.66	44.406	0.00019116	38.957	271.279	249.343	160.856	-55.582	17.964	23.519	-57.102	-51.288	76.183	107.466	-53.844	-49.154	-46.432	-41.621	4.895	-44.155	-8191	255	
16327.135	1	1	0	0	0.46705	0.073986	0.15048	0.38636	0.237	0.1781	0.18396	0.10923	0.14572	0.11847	0.092748	0.1854	0.14236	0.20971	0.27377	0.19638	-2.3625	-3.0417	-2.8521	-3.0229	-3.0687	-3.0479	-3.0917	-3.2062	-2.8833	-3.0542	-3.0604	-2.7833	-3.1792	-3.0458	-2.8729	-3.1771	124.596	279.441	66.571	268.882	4.473	-38.871	-46.618	215.648	-19.605	236.777	144.504	-24.259	269.421	225.357	-54.404	247.554	0.00025909	0.0023839	0.00032666	1878.2	2.0813e-05	4.4493e-05	1348.9	433.18	3.0728e-06	8.4332e-06	286.1	82.705	121.44	40.726	3.5433e-06	31.501	0.012838	0.017674	0.0049633	1786.2	0.00018297	0.00019221	1301	418.55	0.00017987	0.00018914	325.86	95.986	129.77	43.343	0.00018636	38.236	139.653	11.944	126.627	-55.822	157.582	108.738	-56.859	-51.213	72.734	93.095	-53.455	-49.112	-46.391	-41.430	101.017	-44.848	-8191	255	
16327.207	1	1	0	0	0.16179	0.070747	0.093344	0.053467	0.1242	0.069424	0.21739	0.31735	0.13353	0.20466	0.22284	0.28665	0.20336	0.17343	0.1721	0.12071	-2.5354	-2.9854	-3.0042	-2.8479	-3.0583	-3.0146	-2.9021	-3.475	-2.9208	-3.0958	-3.0417	-2.8646	-3.1417	-3.1208	-2.7396	-3.1667	-48.721	126.680	0.657	8.645	265.270	71.946	249.847	258.967	-29.551	245.857	-38.889	270.992	266.665	226.981	243.268	-67.122	0.0001355	0.0018903	0.00067707	1871.4	1.511e-05	7.55e-06	1347.4	429.27	7.5095e-06	9.9322e-06	286.65	82.705	119.44	40.635	7.8509e-06	31.521	0.012678	0.017626	0.0048969	1770.5	0.00018521	0.00019711	1301	416.58	0.00018593	0.0001975	328.19	96.849	129.81	43.585	0.0001903	38.452	178.849	251.422	-14.929	-55.664	-43.516	160.068	-56.733	-51.478	-58.765	99.321	-53.281	-49.132	-46.632	-41.284	32.119	-43.448	-8191	255	
16327.303	1	1	0	0	0.19008	0.18911	0.019336	0.17498	0.14301	0.17465	0.2438	0.31444	0.062604	0.26724	0.1562	0.12972	0.19265	0.2699	0.18703	0.25947	-2.4	-2.9833	-2.9667	-2.9875	-2.9688	-3.1708	-2.9708	-3.2313	-2.9437	-2.9083	-3.2125	-2.9354	-2.9458	-3.0104	-2.7438	-3.0958	69.982	165.034	-5.143	225.949	40.039	148.240	225.357	249.196	125.032	15.274	228.122	106.431	-66.323	-3.824	22.478	66.472	0.00025383	0.001315	0.00078818	1854.3	1.1833e-05	7.7784e-06	1334.7	424.35	3.0688e-06	1.4167e-05	283.47	82.328	119.78	40.835	1.3888e-05	31.794	0.012839	0.017752	0.0049858	1760.7	0.00018493	0.00019668	1289.4	411.86	0.00018461	0.00019632	326.38	96.301	129.52	43.558	0.00018923	38.527	107.448	270.375	14.524	-55.215	43.175	217.627	-56.611	-51.345	275.771	37.031	-53.504	-48.761	-46.095	-41.125	259.163	-44.451	-8191	255	
16327.397	1	1	0	0	0.18372	0.19472	0.081738	0.22117	0.29031	0.17202	0.12319	0.3359	0.074669	0.21191	0.093726	0.10251	0.031556	0.31503	0.090261	0.23937	-2.7792	-2.7583	-3.1083	-3.2687	-2.8792	-3.1292	-3.05	-3.1896	-2.9521	-2.8563	-3.0187	-2.95	-2.9625	-3.1312	-2.9958	-3.1396	-44.671	252.107	171.656	282.538	130.789	-52.378	143.941	-54.869	-6.175	85.648	-22.017	168.018	-38.939	-37.744	261.096	212.390	0.00010887	0.001324	0.00090144	1872.7	1.8508e-05	1.6054e-05	1347.1	429.43	1.1097e-05	2.7519e-05	285.66	82.947	120.79	40.993	1.1874e-05	31.734	0.012751	0.017609	0.0049669	1770.7	0.0001835	0.00019441	1298.4	416.22	0.00018131	0.00019425	327.22	96.836	130.2	43.682	0.00018711	38.713	203.998	4.667	265.706	-55.367	135.872	64.529	-57.049	-51.173	235.858	156.944	-53.768	-48.787	-46.696	-41.220	14.924	-44.216	-8191	255	
16327.495	1	1	0	0	0.16341	0.013587	0.037458	0.24424	0.24316	0.20353	0.29673	0.076631	0.087777	0.22994	0.10713	0.22887	0.084491	0.029411	0.017135	0.11558	-2.5646	-2.8292	-3.2875	-3.0583	-2.9333	-3.3063	-3.0438	-3.2583	-3.2708	-2.8208	-3.1979	-2.9083	-2.7313	-3.2667	-3.0417	-3.1875	264.190	-60.741	20.389	238.359	58.953	207.314	227.382	70.911	198.057	279.288	-14.649	268.464	160.075	179.757	157.832	249.568	9.4636e-05	0.00091847	0.00016753	1873.8	8.9398e-06	3.0222e-05	1347	431.46	2.0091e-05	5.0602e-06	285.84	82.874	121.09	41.013	5.1008e-06	31.476	0.012814	0.017505	0.0049362	1771.5	0.00018525	0.0001957	1299.9	417.48	0.00018528	0.00019754	328.74	96.526	130.24	43.756	0.0001917	38.598	202.772	50.499	127.067	-55.433	211.606	84.907	-56.855	-51.095	142.623	67.984	-53.431	-49.226	-46.299	-40.967	197.700	-43.905	-8191	255	
16327.614	1	1	0	0	0.1815	0.075816	0.095931	0.24388	0.2362	0.21362	0.039097	0.36367	0.28385	0.22118	0.16313	0.17566	0.14192	0.064847	0.16761	0.11637	-2.6604	-2.9125	-3.1792	-3.2042	-2.8229	-3.3333	-3.1458	-3.2854	-3.0604	-2.8896	-3.1229	-3.0062	-2.8896	-3.2667	-2.8438	-2.9521	182.307	190.087	177.601	241.121	84.654	160.930	243.487	259.034	174.988	122.375	2.451	-5.415	284.109	192.206	261.385	278.329	0.00019163	0.002406	0.00072657	1872.9	1.0711e-05	5.7697e-06	1345.2	431.04	3.2172e-06	3.9483e-05	288.99	84.199	120.94	41.039	1.5955e-05	31.959	0.013026	0.017856	0.0050896	1776.2	0.00019066	0.0002002	1298.5	418.93	0.00018921	0.00020086	330.31	97.381	131.02	44.171	0.00019384	39.053	43.201	166.721	-16.822	-55.473	-32.611	50.812	-56.935	-51.376	262.630	208.270	-53.076	-49.400	-46.492	-41.293	-0.523	-44.498	-8191	255	
16327.710	1	1	0	0	0.098831	0.16215	0.2374	0.15775	0.26326	0.058848	0.14419	0.16128	0.26733	0.39745	0.081968	0.081757	0.10932	0.30466	0.10506	0.11188	-2.6396	-2.7708	-3.1333	-3.1625	-2.8729	-3.0583	-3.1979	-3.2917	-3.0792	-2.9729	-3.1333	-3.0979	-2.925	-3.3021	-2.9437	-2.8792	150.599	264.414	106.320	180.418	39.735	84.135	173.839	234.751	140.217	118.301	193.918	206.201	46.359	281.160	32.789	233.694	0.00015358	0.00078405	0.00062109	1882.6	1.3362e-05	8.9694e-06	1349.9	434.4	1.2391e-05	1.3145e-05	289.11	83.464	122.33	41.333	3.5762e-06	31.693	0.013208	0.018026	0.0050792	1784.4	0.00018888	0.00020121	1307.6	421.79	0.00018868	0.00019912	332.32	97.721	131.88	44.138	0.00018933	38.712	-32.147	-46.327	12.854	-55.366	198.219	103.260	-56.807	-51.332	235.143	59.415	-53.740	-48.491	-46.466	-41.426	126.144	-44.661	-8191	255	
16327.806	1	1	0	0	0.025974	0.07897	0.075	0.18762	0.15151	0.13549	0.084597	0.055776	0.22705	0.22275	0.3058	0.2293	0.23638	0.17875	0.33074	0.19614	-2.7062	-2.9229	-3.0792	-3.3667	-2.85	-3.1958	-3.1188	-3.0125	-3.1813	-2.8979	-3.1188	-3.1688	-2.7812	-3.025	-2.9479	-2.8667	202.544	40.183	178.906	254.460	269.553	-52.500	122.903	264.645	16.146	181.945	268.432	272.863	-6.230	278.097	50.799	6.315	0.00014858	0.0015481	0.00033816	1889.2	9.9797e-06	6.267e-06	1356.9	434.78	5.4991e-06	2.1699e-05	288.57	85.128	122.54	41.354	3.4811e-06	31.656	0.012773	0.017607	0.0049628	1783.2	0.00018492	0.00019311	1307.8	420.33	0.00018415	0.00019401	330.26	97.792	131.09	43.892	0.00018696	38.442	169.629	206.670	167.322	-55.398	278.640	223.702	-56.890	-51.073	-26.147	135.835	-53.544	-49.000	-46.318	-41.337	101.672	-44.027	-8191	255	
16327.902	1	1	0	0	0.17535	0.11308	0.10983	0.20817	0.17674	0.21721	0.11987	0.33444	0.16649	0.21476	0.27862	0.21845	0.25796	0.10819	0.19657	0.27289	-2.8167	-2.9938	-2.8812	-3.4146	-3.0771	-3.2917	-3.1937	-3.2417	-3.0521	-2.9479	-3.05	-3.2271	-2.8708	-3.1625	-3.2271	-2.9583	230.926	40.727	84.551	203.682	20.605	274.305	248.734	231.059	245.005	-60.614	231.885	-61.126	289.434	101.613	-54.407	162.550	0.00029416	0.0011045	0.00033603	1885.9	1.904e-05	1.0721e-05	1351.6	433.24	1.3464e-05	3.4256e-06	289.04	83.154	121.73	40.506	1.8757e-05	31.295	0.0127	0.017307	0.0049135	1784.1	0.0001816	0.0001924	1300.7	418.02	0.00018246	0.00019201	328.41	96.352	129.96	43.54	0.00018549	38.341	48.581	203.246	110.009	-55.444	100.961	46.010	-56.470	-51.523	238.180	-49.850	-53.576	-48.367	-46.569	-41.546	141.497	-43.712	-8191	255	
16327.999	1	1	0	0	0.14537	0.11136	0.26824	0.29098	0.28922	0.09782	0.23642	0.34315	0.21639	0.18738	0.13852	0.20945	0.21176	0.23084	0.12003	0.19522	-3.0187	-3.0438	-2.7792	-3.3563	-2.8854	-3.1208	-3.2062	-3.1021	-3.2938	-3.0396	-3.1312	-3.3875	-2.8896	-3.0667	-3.1833	-2.8833	139.000	-32.058	162.285	-55.204	124.798	-45.126	214.043	285.680	163.652	142.364	113.817	269.593	239.532	246.718	265.819	225.553	0.00021847	0.0014145	0.00030581	1876.2	2.2693e-05	1.9577e-05	1352.7	434.25	1.3577e-06	3.7128e-06	287.34	83.152	120.93	40.868	1.7187e-05	31.403	0.012627	0.017278	0.0049271	1784.7	0.00018296	0.00019303	1305.1	420.28	0.00018245	0.00019156	327.05	96.528	129.79	43.497	0.00018177	37.884	48.054	268.203	-17.775	-55.473	261.380	124.218	-56.878	-51.507	236.342	255.335	-53.237	-48.659	-46.250	-41.280	55.588	-44.487	-8191	255	
16328.095	1	1	0	0	0.11187	0.10645	0.026524	0.38802	0.26215	0.11345	0.35023	0.20086	0.15827	0.2771	0.071303	0.19189	0.064309	0.15017	0.15916	0.154	-2.7646	-2.9771	-2.7979	-3.5667	-3.0083	-3.0125	-3.3396	-2.9708	-3.1542	-3.0312	-3.0896	-3.2583	-2.9208	-3.0667	-3.2417	-2.8875	81.048	-66.527	186.832	223.980	25.032	-62.626	239.857	254.298	231.921	212.987	41.650	223.276	-13.699	-50.368	102.952	181.388	0.00034041	0.00053892	0.00029044	1884	1.3277e-05	3.4827e-05	1343.7	436.04	2.0851e-05	1.5582e-05	288.37	83.044	121.69	41.223	1.6001e-05	31.792	0.012344	0.016945	0.0047987	1780.4	0.0001782	0.00019	1301.1	419.24	0.00018044	0.00018981	327.76	96.444	130.17	43.764	0.00018513	38.365	143.971	37.913	156.933	-55.408	139.507	289.632	-56.883	-51.563	96.825	110.319	-53.898	-48.806	-46.555	-41.333	200.339	-44.891	-8191	255	
16328.215	1	1	0	0	0.16952	0.23065	0.1985	0.32411	0.16293	0.15499	0.23289	0.37742	0.18226	0.1435	0.21557	0.24698	0.15445	0.098962	0.23722	0.22094	-2.5583	-3.0875	-2.7208	-3.15	-2.925	-3.0208	-3.4125	-3.2188	-3.1396	-3.0083	-2.9938	-3.2875	-3.0292	-2.8875	-3.3312	-2.9771	73.939	290.054	0.724	287.132	235.479	271.802	178.599	274.165	89.550	54.992	276.192	14.499	48.495	262.391	64.977	93.840	0.0002739	0.0017602	0.00043163	1888.9	2.6928e-05	1.4611e-05	1350.5	430.28	1.8183e-05	7.093e-06	285.25	83.18	121.04	41.185	1.9577e-05	31.887	0.012606	0.017428	0.0049079	1788.7	0.00018334	0.0001959	1303.2	417.45	0.00018367	0.00019386	328.53	97.009	130.1	43.84	0.00018785	38.508	181.489	79.321	70.968	-55.558	66.733	-38.860	-56.554	-51.236	283.374	217.989	-53.457	-48.583	-46.038	-40.988	224.283	-44.179	-8191	255	
16328.310	1	1	0	0	0.17602	0.17647	0.17526	0.32239	0.066669	0.10152	0.28641	0.19235	0.16154	0.089012	0.28005	0.2353	0.34937	0.36455	0.13167	0.22049	-2.4917	-3.1125	-2.6583	-3.4208	-3.1688	-2.9646	-3.3292	-3.1021	-3.1312	-3.0833	-2.8083	-2.9979	-2.9562	-3.0979	-3.2729	-3.0042	-2.420	173.147	138.349	232.737	135.642	147.600	222.419	231.116	75.886	62.469	218.977	282.683	270.328	248.895	230.979	194.584	0.00026293	0.00036248	0.00087478	1885.9	1.0799e-05	7.4306e-06	1351	435.33	7.548e-06	3.1436e-05	285.28	82.439	121.77	40.998	1.0402e-05	31.086	0.012762	0.017562	0.00496	1777.8	0.00018543	0.00019696	1301.6	419.39	0.00018668	0.00019596	328.24	96.264	130.46	43.674	0.00019174	38.287	117.098	133.856	38.087	-55.483	248.188	26.497	-56.646	-51.333	266.887	234.928	-53.707	-49.060	-46.790	-41.187	259.625	-44.727	-8191	255	
16328.406	1	1	0	0	0.29778	0.09357	0.049873	0.25318	0.14552	0.017666	0.10229	0.29106	0.13113	0.19761	0.070826	0.1464	0.20463	0.2546	0.20097	0.2285	-2.5875	-2.8771	-2.9	-3.3958	-3.0458	-2.8104	-3.425	-3.0958	-3.0729	-3.1583	-2.875	-3.1437	-3.075	-2.7979	-3.1771	-3.0521	202.515	-28.822	70.003	263.240	159.746	-40.540	224.435	225.384	107.558	109.421	180.922	-10.515	-42.009	134.535	93.493	271.766	9.0081e-05	0.001149	0.00023456	1880.5	8.4007e-06	1.1084e-05	1347.2	432.42	6.8701e-06	1.5141e-05	287.03	81.973	121.74	40.824	1.563e-05	31.238	0.012839	0.017719	0.0049878	1786.6	0.00018581	0.00019748	1300.1	418.24	0.00018717	0.00019663	329.87	96.566	130.42	43.648	0.00019234	38.447	52.415	33.234	281.513	-55.594	157.760	124.822	-56.386	-51.347	78.209	54.050	-52.847	-48.366	-46.413	-41.120	241.245	-44.384	-8191	255	
16328.502	1	1	0	0	0.26928	0.010782	0.24786	0.1909	0.064839	0.21576	0.37069	0.25073	0.20453	0.17598	0.16823	0.20481	0.38072	0.18684	0.13859	0.075583	-2.5875	-3.1292	-2.8917	-3.4104	-3.1875	-2.9083	-3.3396	-3.0792	-2.8854	-3.1333	-2.8438	-3.0583	-3.1604	-2.8229	-3.2167	-3.0375	30.869	241.485	-22.901	248.809	28.437	258.035	216.341	208.056	14.134	-49.270	-47.613	228.860	265.473	280.418	187.800	-61.823	0.00023266	0.0010541	0.00042947	1876.6	2.105e-05	3.3945e-05	1348.5	429.39	1.5686e-05	3.4631e-05	284.15	82.916	120.8	40.746	1.0013e-05	31.848	0.01285	0.017742	0.0049704	1779.3	0.00018598	0.00019848	1303.1	416.32	0.00018553	0.00019655	327.7	96.393	129.54	43.568	0.00018938	38.36	-63.753	-65.272	149.162	-55.116	59.015	227.074	-56.828	-51.239	77.085	16.523	-53.802	-49.021	-46.779	-40.975	80.303	-44.020	-8191	255	
#DATA ENDS
