BOXY.EXE: ISS Imagent and Oximeter Data Acquisition Program Version 0.80
Ascii Record File

#ACQ INFORMATION
2  Detector Channels 
16  External MUX Channels 
1  Auxiliary Channels 
5000  Waveform (CCF) Frequency (Hz)
1  Waveforms Skipped 
30  Waveforms Averaged 
1  Cycles Averaged 
16  Acquisitions per Waveform 
10.0806  Updata Rate (Hz) 

#FILE INFORMATION
TRUE -- External MUX Channel results are PARSED.
FALSE -- AC DC and Phase are NOT grouped.
TRUE -- Companion Program Settings File CREATED.
FALSE -- AC data not excluded
FALSE -- DC data not excluded
FALSE -- Phase data not excluded
FALSE -- Auxillary Chn. data not excluded
Tab delimiters

#CALIBRATION STATE
TRUE -- Waveform Calibration Values APPLIED.


#AUX CALIBRATION VALUES
Val Type	aux-1	

Term	1.0000e+00	
Factor	0.0000e+00	


#WF CALIBRATION VALUES
A = Detector Channel
Val Type	A-AC1	A-AC2	A-AC3	A-AC4	A-AC5	A-AC6	A-AC7	A-AC8	A-AC9	A-AC10	A-AC11	A-AC12	A-AC13	A-AC14	A-AC15	A-AC16	A-DC1	A-DC2	A-DC3	A-DC4	A-DC5	A-DC6	A-DC7	A-DC8	A-DC9	A-DC10	A-DC11	A-DC12	A-DC13	A-DC14	A-DC15	A-DC16	A-Ph1	A-Ph2	A-Ph3	A-Ph4	A-Ph5	A-Ph6	A-Ph7	A-Ph8	A-Ph9	A-Ph10	A-Ph11	A-Ph12	A-Ph13	A-Ph14	A-Ph15	A-Ph16	

Term	0.00000e+00	0.00000e+00	0.00000e+00	0.00000e+00	0.00000e+00	0.00000e+00	0.00000e+00	0.00000e+00	0.00000e+00	0.00000e+00	0.00000e+00	0.00000e+00	0.00000e+00	0.00000e+00	0.00000e+00	0.00000e+00	0.00000e+00	0.00000e+00	0.00000e+00	0.00000e+00	0.00000e+00	0.00000e+00	0.00000e+00	0.00000e+00	0.00000e+00	0.00000e+00	0.00000e+00	0.00000e+00	0.00000e+00	0.00000e+00	0.00000e+00	0.00000e+00	0.00000e+00	0.00000e+00	0.00000e+00	0.00000e+00	0.00000e+00	0.00000e+00	0.00000e+00	0.00000e+00	0.00000e+00	0.00000e+00	0.00000e+00	0.00000e+00	0.00000e+00	0.00000e+00	0.00000e+00	0.00000e+00	
Factor	1.00000e+00	1.00000e+00	1.00000e+00	1.00000e+00	1.00000e+00	1.00000e+00	1.00000e+00	1.00000e+00	1.00000e+00	1.00000e+00	1.00000e+00	1.00000e+00	1.00000e+00	1.00000e+00	1.00000e+00	1.00000e+00	1.00000e+00	1.00000e+00	1.00000e+00	1.00000e+00	1.00000e+00	1.00000e+00	1.00000e+00	1.00000e+00	1.00000e+00	1.00000e+00	1.00000e+00	1.00000e+00	1.00000e+00	1.00000e+00	1.00000e+00	1.00000e+00	X	X	X	X	X	X	X	X	X	X	X	X	X	X	X	X	

B = Detector Channel
Val Type	B-AC1	B-AC2	B-AC3	B-AC4	B-AC5	B-AC6	B-AC7	B-AC8	B-AC9	B-AC10	B-AC11	B-AC12	B-AC13	B-AC14	B-AC15	B-AC16	B-DC1	B-DC2	B-DC3	B-DC4	B-DC5	B-DC6	B-DC7	B-DC8	B-DC9	B-DC10	B-DC11	B-DC12	B-DC13	B-DC14	B-DC15	B-DC16	B-Ph1	B-Ph2	B-Ph3	B-Ph4	B-Ph5	B-Ph6	B-Ph7	B-Ph8	B-Ph9	B-Ph10	B-Ph11	B-Ph12	B-Ph13	B-Ph14	B-Ph15	B-Ph16	

Term	0.00000e+00	0.00000e+00	0.00000e+00	0.00000e+00	0.00000e+00	0.00000e+00	0.00000e+00	0.00000e+00	0.00000e+00	0.00000e+00	0.00000e+00	0.00000e+00	0.00000e+00	0.00000e+00	0.00000e+00	0.00000e+00	0.00000e+00	0.00000e+00	0.00000e+00	0.00000e+00	0.00000e+00	0.00000e+00	0.00000e+00	0.00000e+00	0.00000e+00	0.00000e+00	0.00000e+00	0.00000e+00	0.00000e+00	0.00000e+00	0.00000e+00	0.00000e+00	-1.62352e+02	-1.41008e+02	-1.11495e+02	-1.83984e+02	-1.11418e+02	-7.45502e+01	-1.55811e+02	-1.62015e+02	-8.09347e+01	-4.80968e+01	-1.73154e+02	-1.73613e+02	-1.86815e+02	-1.78292e+02	-6.95269e+01	-1.50256e+02	
Factor	2.31503e-05	1.21955e-04	3.53977e-05	1.73479e-01	9.55770e-07	1.44040e-06	1.63553e-01	5.56841e-02	9.89360e-07	1.12439e-06	9.67085e-02	2.82450e-02	5.57543e-02	8.47876e-03	1.11573e-06	1.21845e-02	1.04864e-06	1.07952e-06	3.00291e-07	8.44363e-02	1.18273e-08	1.18528e-08	7.57509e-02	2.71375e-02	1.18471e-08	1.18386e-08	4.50717e-02	1.32853e-02	2.55029e-02	4.11310e-03	1.18525e-08	5.73167e-03	X	X	X	X	X	X	X	X	X	X	X	X	X	X	X	X	



#DISTANCE SETTINGS
A = Detector Channel
A-1	A-2	A-3	A-4	A-5	A-6	A-7	A-8	A-9	A-10	A-11	A-12	A-13	A-14	A-15	A-16	

2.5000e+00	3.0000e+00	2.5000e+00	3.0000e+00	2.0000e+00	3.0000e+00	1.5000e+00	3.0000e+00	3.0000e+00	3.0000e+00	3.0000e+00	3.0000e+00	3.0000e+00	3.0000e+00	1.5000e+00	3.0000e+00	

B = Detector Channel
B-1	B-2	B-3	B-4	B-5	B-6	B-7	B-8	B-9	B-10	B-11	B-12	B-13	B-14	B-15	B-16	

1.0000e+01	1.0000e+01	1.0000e+01	1.4400e+00	1.0000e+01	1.0000e+01	1.5100e+00	1.9400e+00	1.0000e+01	1.0000e+01	1.9900e+00	2.4900e+00	2.4100e+00	2.9000e+00	1.0000e+01	2.9800e+00	




#DATA BEGINS
time	group	step	mark	flag	A-AC1	A-AC2	A-AC3	A-AC4	A-AC5	A-AC6	A-AC7	A-AC8	A-AC9	A-AC10	A-AC11	A-AC12	A-AC13	A-AC14	A-AC15	A-AC16	A-DC1	A-DC2	A-DC3	A-DC4	A-DC5	A-DC6	A-DC7	A-DC8	A-DC9	A-DC10	A-DC11	A-DC12	A-DC13	A-DC14	A-DC15	A-DC16	A-Ph1	A-Ph2	A-Ph3	A-Ph4	A-Ph5	A-Ph6	A-Ph7	A-Ph8	A-Ph9	A-Ph10	A-Ph11	A-Ph12	A-Ph13	A-Ph14	A-Ph15	A-Ph16	B-AC1	B-AC2	B-AC3	B-AC4	B-AC5	B-AC6	B-AC7	B-AC8	B-AC9	B-AC10	B-AC11	B-AC12	B-AC13	B-AC14	B-AC15	B-AC16	B-DC1	B-DC2	B-DC3	B-DC4	B-DC5	B-DC6	B-DC7	B-DC8	B-DC9	B-DC10	B-DC11	B-DC12	B-DC13	B-DC14	B-DC15	B-DC16	B-Ph1	B-Ph2	B-Ph3	B-Ph4	B-Ph5	B-Ph6	B-Ph7	B-Ph8	B-Ph9	B-Ph10	B-Ph11	B-Ph12	B-Ph13	B-Ph14	B-Ph15	B-Ph16	aux-1	digaux	

5923.697	1	1	0	768	0.17078	0.075778	0.17692	0.18253	0.044643	0.089214	0.05546	0.14192	0.16747	0.14755	0.15269	0.36492	0.03084	0.21019	0.21453	0.15945	-2.4667	-3.0312	-2.9833	-2.9938	-3.1979	-3.0792	-2.9188	-3.2875	-2.8312	-3.1354	-3.3083	-2.8729	-3.0125	-3.0271	-2.8812	-3.1813	332.085	238.244	334.153	187.820	299.455	362.138	476.682	462.049	417.431	185.996	488.896	463.900	200.694	514.510	403.704	477.307	0.00083221	0.0010672	0.00032927	631.26	1.7836e-05	1.8626e-05	692.96	265.15	8.5262e-06	1.9713e-05	325.69	131.23	114.72	52.236	1.7576e-05	63.365	0.0030445	0.0031077	0.00081173	837.89	3.3905e-05	3.3372e-05	885.95	330.63	3.3673e-05	3.267e-05	433.44	162.68	180.71	63.393	3.1127e-05	77.43	512.251	284.693	325.310	187.325	187.043	408.233	185.780	191.782	232.143	373.925	189.690	194.002	194.876	202.290	387.064	198.013	-8191	255	
5923.793	1	1	0	0	0.20924	0.13266	0.24662	0.26347	0.30432	0.25549	0.14228	0.13713	0.2254	0.14684	0.11616	0.25486	0.20016	0.15904	0.10177	0.14133	-2.3667	-3.0479	-3.1083	-2.7687	-3.1833	-3.1146	-2.7583	-3.325	-2.825	-3.0958	-3.2229	-2.9854	-3.1604	-3.1708	-2.8625	-3.3563	465.104	404.527	447.576	392.047	236.972	367.054	202.663	513.285	471.457	235.656	457.992	488.585	431.807	475.774	393.970	224.614	0.0012217	0.0015635	0.00026928	629.22	6.8867e-06	6.7637e-06	686.23	264.21	3.0861e-06	1.5162e-05	323.27	130.14	115.83	52.476	1.7699e-05	63.477	0.0030987	0.0029933	0.00078819	845.84	3.4436e-05	3.2367e-05	875.43	331.82	3.3319e-05	3.0947e-05	425.15	161.96	176.79	62.539	2.8792e-05	77.227	520.941	264.231	437.647	187.040	238.664	417.227	185.839	191.750	399.875	397.051	189.671	193.428	195.398	202.149	278.707	198.283	-8191	255	
5923.889	1	1	0	0	0.17673	0.0027662	0.12206	0.14901	0.15197	0.26117	0.12546	0.13117	0.14845	0.026894	0.16427	0.16901	0.18172	0.19825	0.10095	0.1201	-2.4604	-2.6875	-3.075	-2.8875	-3.1312	-3.0646	-2.9229	-3.275	-2.9167	-2.9958	-3.1375	-2.9646	-3.0396	-3.2	-2.8354	-3.3875	194.248	526.277	261.654	424.022	198.608	434.606	505.261	520.098	212.940	442.853	234.660	435.358	512.308	521.595	279.484	287.154	0.0011598	0.0012876	0.00084716	628.3	2.2757e-06	1.4561e-05	688.17	264.76	1.6741e-05	1.6135e-05	324.45	130.7	115.65	52.423	1.5669e-05	63.371	0.0029114	0.0027827	0.00073389	845.71	3.2586e-05	3.074e-05	869.93	335.19	3.2549e-05	3.0505e-05	425.98	164.54	176.38	62.581	2.8989e-05	78.203	522.663	297.345	314.165	187.196	481.459	318.986	186.044	191.884	343.523	349.560	189.456	193.957	195.269	202.162	453.670	198.554	-8191	255	
5923.986	1	1	0	0	0.30159	0.21166	0.08842	0.30315	0.22273	0.16874	0.13627	0.19554	0.079067	0.049443	0.038692	0.22755	0.12506	0.041893	0.26925	0.14714	-2.3854	-2.7979	-3.0542	-2.8604	-3.1083	-3.0333	-3.0521	-3.0167	-2.9146	-2.9688	-3.2396	-3.0083	-3.0917	-3.3104	-2.9167	-3.275	454.265	503.064	311.569	522.393	254.789	291.681	501.311	439.478	251.746	237.931	247.091	221.252	201.268	458.910	376.038	511.146	0.00085371	0.0015657	0.00039186	626.77	1.5035e-05	1.035e-05	693.38	265.38	7.4525e-06	8.1618e-06	327.37	130.94	115.88	52.898	2.2346e-05	64.201	0.0028423	0.0027216	0.00074285	857.15	3.1805e-05	3.03e-05	878.54	340.09	3.2197e-05	3.0527e-05	433.82	167.16	176.47	62.952	3.126e-05	79.679	532.158	341.000	246.421	187.179	343.305	321.068	185.703	191.825	313.456	412.416	189.368	193.760	195.313	202.231	193.327	198.485	-8191	255	
5924.082	1	1	0	0	0.39798	0.11027	0.078961	0.22979	0.28349	0.07708	0.11937	0.35047	0.1625	0.10026	0.10353	0.13137	0.10985	0.2496	0.1947	0.21033	-2.6125	-2.8083	-3.0854	-2.9875	-2.9646	-3.3083	-2.9146	-3.0292	-2.9729	-2.7979	-3.2104	-2.9375	-2.9188	-3.3083	-2.8063	-3.0208	317.842	210.743	376.357	470.172	436.213	480.710	309.837	378.720	515.170	334.846	464.403	479.635	216.655	407.570	447.257	433.467	0.0009064	0.0019071	0.00040543	632.46	7.0506e-06	1.5155e-05	695.17	266.88	2.8151e-06	9.061e-06	329.09	132.57	116.63	53.197	5.2352e-06	64.71	0.00288	0.0027518	0.00079676	865.28	3.1537e-05	2.9813e-05	892.73	341.44	3.1491e-05	2.9818e-05	440.93	167.67	175.4	62.996	3.2652e-05	79.727	518.077	320.951	193.825	187.354	300.529	342.427	185.630	191.933	364.806	309.984	189.451	193.768	195.879	201.911	248.697	198.273	-8191	255	
5924.178	1	1	0	0	0.24761	0.010196	0.064588	0.14259	0.011346	0.031331	0.22933	0.13627	0.064526	0.078458	0.27956	0.21014	0.05126	0.37767	0.16024	0.15942	-2.575	-2.6562	-3.1458	-2.9771	-2.8333	-3.0354	-3	-3.0229	-2.9521	-2.925	-3.2604	-3.1333	-2.8667	-3.3167	-2.9292	-3.175	454.983	189.525	322.730	443.663	431.803	317.406	504.268	376.199	218.709	460.486	176.135	520.956	183.663	523.592	406.037	228.502	0.0007911	0.00016707	0.00032299	632.62	5.3324e-06	3.0208e-06	699.26	268.38	5.5557e-06	6.0559e-06	329.05	132.69	116.05	53.076	1.1398e-05	64.187	0.0028132	0.0027422	0.00084084	865.13	3.1275e-05	2.9856e-05	903.87	340.24	3.0846e-05	2.9766e-05	446.42	166.26	173.95	63.063	3.3724e-05	78.88	528.019	232.865	520.317	187.072	377.601	315.948	185.577	191.925	302.748	232.501	189.170	193.803	195.385	201.942	230.889	198.773	-8191	255	
5924.298	1	1	0	0	0.16359	0.11051	0.10725	0.094247	0.16444	0.29882	0.24098	0.25545	0.18544	0.19313	0.11362	0.21299	0.22871	0.27491	0.090376	0.064387	-2.6104	-2.7812	-3.0083	-3.0687	-2.8458	-3.1792	-2.9188	-3.1167	-3.1417	-2.8854	-3.2875	-2.9729	-2.8667	-3.2	-2.8729	-2.975	419.007	272.150	288.835	516.338	368.260	423.056	190.880	521.906	395.206	223.057	341.407	463.431	380.600	467.786	212.312	380.367	0.00060065	0.00076632	0.00031357	633.17	1.1058e-05	2.4673e-05	695.65	266.85	9.1948e-06	3.6373e-06	329.04	130.98	116.47	53.143	5.3047e-06	64.002	0.0027446	0.0027653	0.00085843	853.1	3.014e-05	3.047e-05	905.33	336.27	2.9716e-05	3.0263e-05	445.53	163.86	170.91	63.237	3.3586e-05	78.107	511.447	218.319	262.097	187.219	234.765	222.934	185.775	192.134	363.460	304.412	189.456	193.703	195.330	201.738	374.966	198.501	-8191	255	
5924.393	1	1	0	0	0.23549	0.24512	0.11947	0.23564	0.22968	0.12441	0.38208	0.066673	0.21388	0.20744	0.084419	0.24847	0.1654	0.032411	0.15739	0.16139	-2.7375	-2.8021	-2.9375	-3.0875	-2.7188	-3.1354	-2.9792	-2.9688	-3.0833	-2.9062	-3.1562	-3.0896	-2.8521	-3.2979	-2.8167	-3.1021	429.262	246.166	459.136	219.520	396.231	343.638	431.866	177.962	410.021	428.409	519.697	496.869	437.590	238.214	338.984	510.335	0.00064704	0.0018169	0.00057496	630.79	1.3875e-05	7.6407e-06	695.05	267.05	5.778e-06	1.9651e-05	327.41	131.22	116.82	53.196	1.3469e-05	64.326	0.002679	0.002917	0.00086551	851.67	2.9899e-05	3.2432e-05	906.56	336.99	2.9778e-05	3.2786e-05	446.37	164.53	172.32	64.343	3.4013e-05	78.485	179.939	476.177	363.347	187.362	295.415	276.076	185.649	192.216	501.947	227.467	189.829	193.958	195.334	202.046	417.509	198.521	-8191	255	
5924.491	1	1	0	0	0.19542	0.19838	0.11784	0.23269	0.24305	0.26702	0.3128	0.16365	0.16951	0.15934	0.17223	0.1647	0.23752	0.17468	0.24507	0.12724	-2.6625	-2.9792	-2.9375	-3.0646	-3.025	-3.0854	-3.1958	-2.9833	-3.0583	-2.9313	-3.1458	-3.3271	-2.675	-3.3312	-2.9396	-2.9708	237.708	409.874	432.188	191.740	302.415	353.049	441.114	300.898	218.208	328.104	189.435	401.887	491.600	306.039	399.980	202.913	0.00090501	0.0019938	0.0002484	631.84	4.3983e-06	1.8149e-05	697.38	267.05	1.2728e-05	5.5465e-06	328.38	131.6	116.66	53.13	2.1256e-05	64.162	0.0027361	0.0031072	0.0008535	851.04	3.0206e-05	3.3882e-05	902.6	335.7	3.0269e-05	3.4e-05	443.15	163.74	173.77	64.671	3.2757e-05	78.146	512.714	510.169	401.221	187.245	491.358	322.086	185.997	192.182	196.446	488.267	189.721	193.742	194.933	202.017	339.581	198.618	-8191	255	
5924.585	1	1	0	0	0.10472	0.11764	0.060961	0.15691	0.1766	0.15345	0.16837	0.27216	0.23698	0.10129	0.1478	0.10931	0.07251	0.2656	0.20512	0.45702	-2.8167	-2.9542	-3.0563	-3.1417	-2.8625	-3.1146	-3.1063	-2.9896	-3.1521	-3.0083	-3.1396	-3.2729	-2.9792	-3.2104	-3.275	-2.9354	519.368	517.192	328.479	439.489	251.991	253.620	391.099	454.809	303.625	533.974	465.108	522.573	413.994	506.230	427.340	505.486	0.0007226	0.0011137	0.00054035	631.07	1.7123e-05	5.6323e-06	695.26	266.89	1.0544e-05	1.0821e-05	331.2	132.3	116.02	53.117	5.7905e-06	64.156	0.0027964	0.0031602	0.0008259	843.13	3.158e-05	3.4608e-05	898.91	334.9	3.2384e-05	3.5151e-05	444.69	164.41	179.25	64.946	3.2927e-05	78.22	516.320	405.222	369.508	187.438	487.939	496.891	185.703	191.968	251.625	395.315	189.767	193.823	194.933	202.161	401.600	198.445	-8191	255	
5924.681	1	1	0	0	0.16047	0.29561	0.057785	0.15153	0.078335	0.28839	0.17218	0.1915	0.10581	0.036086	0.063047	0.24096	0.14644	0.32234	0.30768	0.15781	-2.8271	-2.8167	-3.0625	-3.2771	-3.0812	-3.1104	-3.2167	-2.9292	-3.4	-2.8708	-3.0312	-3.2354	-2.9688	-3.1312	-3.2375	-2.8937	296.225	282.376	187.960	332.881	489.338	363.428	504.711	460.669	177.083	295.447	268.835	210.236	218.500	198.123	527.280	189.748	0.0011915	0.0019994	0.00043502	632.73	1.6084e-05	2.2606e-05	696.17	267.35	6.0373e-06	1.7306e-05	325.5	130.9	115.93	53.187	1.1084e-05	63.537	0.0029908	0.0031839	0.0008272	842.24	3.3746e-05	3.4545e-05	897.02	334.18	3.4005e-05	3.444e-05	440.11	163.29	181.67	64.475	3.2156e-05	77.599	520.027	299.427	300.136	187.002	210.297	350.265	185.720	191.673	214.018	451.427	189.440	193.594	194.856	202.275	362.747	198.525	-8191	255	
5924.777	1	1	0	0	0.15932	0.10097	0.17322	0.037568	0.34945	0.095334	0.17543	0.10603	0.14616	0.087814	0.13935	0.11078	0.079777	0.16576	0.05356	0.22898	-2.8604	-3.0729	-2.9688	-3.2667	-2.9313	-2.9521	-3.3125	-2.9021	-3.1021	-3.1229	-2.9375	-3.0833	-2.8667	-3.1458	-3.1521	-3.1042	198.384	353.400	380.046	203.698	529.966	267.437	419.549	380.004	428.705	361.306	451.457	202.143	370.528	190.417	194.731	476.265	0.0009725	0.0009921	0.00013604	629.72	7.4715e-06	1.8102e-05	689.47	266.32	6.2264e-06	1.4101e-05	325.73	130.53	114.91	52.862	1.4933e-05	63.593	0.0031191	0.0031029	0.00081099	844.63	3.4572e-05	3.3307e-05	884.36	333.92	3.4321e-05	3.2547e-05	432.93	162.82	181.16	63.695	3.1148e-05	77.909	523.695	325.791	321.037	187.141	509.769	403.781	185.733	191.820	325.809	379.739	189.458	193.896	195.066	202.037	362.436	198.444	-8191	255	
5924.898	1	1	0	0	0.25708	0.1641	0.1719	0.061892	0.058758	0.057725	0.05314	0.10378	0.11651	0.17923	0.10838	0.051927	0.042033	0.23838	0.1121	0.093571	-2.7333	-3.1104	-2.7458	-3.2292	-2.9104	-2.875	-3.1937	-2.8937	-3.1208	-3.1188	-2.7833	-3.0021	-2.9604	-2.9667	-3.2167	-2.9938	410.578	251.973	211.374	209.075	301.679	333.417	346.934	198.196	225.009	350.039	296.927	444.294	190.554	508.282	228.662	524.997	0.00080218	0.0010799	0.00015286	632.74	7.7229e-06	1.2277e-05	694.22	266.1	3.1919e-06	1.0469e-05	324.38	129.92	116.02	52.845	1.6184e-05	63.716	0.0031345	0.0029994	0.00079485	857.07	3.5314e-05	3.3061e-05	885.92	339.63	3.5329e-05	3.3209e-05	434.52	166	183.79	63.94	3.1647e-05	79.368	527.857	198.952	424.405	187.264	312.884	358.285	185.712	191.876	378.549	301.462	189.519	193.172	195.423	202.260	362.810	198.250	-8191	255	
5924.994	1	1	0	0	0.12235	0.33001	0.2612	0.10689	0.15183	0.24579	0.16572	0.13647	0.03874	0.22919	0.11057	0.12285	0.10761	0.096227	0.34923	0.23937	-2.6479	-2.9938	-2.9083	-3.0271	-2.7938	-2.95	-3.3063	-2.9271	-3.2833	-3.3021	-2.8229	-3.1708	-2.8312	-2.8375	-2.9958	-3.0062	367.154	462.583	406.622	211.004	319.239	473.905	445.653	389.805	206.608	338.478	475.253	210.014	255.418	516.385	401.031	436.357	0.00054756	0.00074115	6.7012e-05	627.24	1.6033e-05	1.1418e-05	691.64	265.88	5.2521e-06	1.4067e-05	325.84	130.07	115.37	52.536	2.1461e-05	63.579	0.003167	0.0030561	0.00080661	874.72	3.5774e-05	3.3802e-05	893.94	347.03	3.629e-05	3.4318e-05	442.36	170.06	185.35	64.081	3.3711e-05	80.777	514.233	336.621	197.596	187.075	270.828	353.861	185.528	191.757	376.550	406.068	189.772	193.829	195.711	202.122	226.760	198.316	-8191	255	
5925.090	1	1	0	0	0.11984	0.20861	0.19735	0.19322	0.095624	0.2212	0.017759	0.18453	0.2297	0.09311	0.29813	0.16959	0.26122	0.096902	0.084424	0.086665	-2.3771	-3.0333	-2.9229	-3.1667	-2.9875	-2.8812	-3.3292	-2.95	-3.0646	-3.1417	-2.8958	-3.2021	-3.0521	-2.9708	-3.1146	-3.15	408.431	488.954	344.875	429.769	276.625	509.522	352.279	477.598	393.915	304.280	176.358	457.398	501.107	529.090	193.207	341.309	0.00081219	0.00091232	0.00017372	631.3	6.5117e-06	1.5434e-05	692.72	263.76	9.4695e-06	1.8322e-05	325.08	129.66	115.99	52.622	1.6869e-05	63.164	0.0032095	0.0030831	0.00085645	889.04	3.5415e-05	3.3531e-05	901.99	347.96	3.5179e-05	3.3144e-05	446.13	169.8	182.4	63.543	3.4604e-05	80.254	180.142	369.840	225.072	187.309	278.316	430.358	185.500	191.956	336.508	339.433	189.238	194.065	195.535	201.998	227.967	198.657	-8191	255	
5925.187	1	1	0	0	0.12856	0.1883	0.17747	0.037109	0.067151	0.074337	0.1816	0.40411	0.29386	0.13669	0.040299	0.16505	0.047984	0.32174	0.057923	0.31821	-2.5854	-3.1375	-2.7771	-3.0542	-2.925	-2.8292	-3.3146	-2.9771	-2.9479	-3.2375	-2.8312	-3.1771	-3.1458	-3.0687	-3.2271	-2.9833	417.278	371.714	515.685	426.515	237.375	312.749	529.563	460.185	477.325	352.287	488.908	486.632	270.956	237.451	482.283	409.775	0.00087806	0.0016596	0.00077806	633.01	1.0739e-05	8.3695e-06	688.83	264.89	1.2788e-05	9.6111e-06	322.87	128.51	115.25	52.459	4.1778e-06	63.231	0.0030812	0.002974	0.00088323	884.16	3.4341e-05	3.277e-05	912.15	346.57	3.4745e-05	3.3027e-05	450.91	167.71	179.6	63.169	3.5807e-05	79.429	533.297	279.865	202.874	187.266	286.072	432.038	185.937	192.076	269.615	331.716	189.210	193.909	195.354	202.091	390.752	198.347	-8191	255	
5925.258	1	1	0	0	0.080909	0.28499	0.1088	0.087932	0.2382	0.16031	0.040218	0.25976	0.14974	0.3462	0.16523	0.071482	0.074092	0.27368	0.36802	0.056564	-2.4375	-3.1292	-2.8896	-3.125	-2.9208	-2.7417	-3.1917	-3.0854	-2.975	-3.2896	-2.9021	-2.9292	-3.2521	-3.1625	-2.8917	-3.1458	456.003	518.616	411.628	533.717	522.005	263.737	175.565	474.346	194.504	398.737	477.682	353.592	253.254	181.724	509.256	428.233	0.00084652	0.00066823	0.00034603	625.65	1.3953e-05	5.9284e-06	688.58	262.04	1.1447e-05	1.4221e-05	321.66	128.36	115.12	52.147	8.4351e-06	62.819	0.0029737	0.0029099	0.00090526	865.62	3.2414e-05	3.1541e-05	904.91	338.45	3.206e-05	3.1926e-05	448.06	164.4	175.84	63.084	3.6382e-05	78.401	522.092	281.670	221.366	187.418	364.883	272.841	185.891	191.917	308.137	249.314	189.563	193.770	195.547	201.945	498.473	198.569	-8191	255	
5925.377	1	1	0	0	0.14849	0.12452	0.068696	0.18289	0.17239	0.18245	0.26046	0.16803	0.039458	0.036786	0.028661	0.19393	0.17066	0.35789	0.2036	0.18618	-2.4062	-3.2229	-2.9021	-3.025	-3.3438	-2.9521	-3.1896	-3.2125	-2.9417	-3.1417	-2.8875	-3.0375	-3.1667	-3.0271	-3.1125	-3.1917	268.822	311.495	281.654	503.084	514.703	333.217	503.595	451.051	302.278	502.687	435.085	190.342	319.416	477.911	453.776	417.583	0.00070769	0.0013153	0.00041233	625.45	9.3644e-06	1.0061e-05	686.01	263.24	1.6394e-05	1.6221e-05	320	128.01	114.44	52.256	2.0346e-05	62.605	0.0028975	0.003019	0.00092324	861.39	3.2192e-05	3.3405e-05	912.39	337.99	3.224e-05	3.4056e-05	451.11	164.29	174.71	63.771	3.6153e-05	77.948	177.652	529.846	515.880	187.409	341.828	189.798	185.837	191.932	315.009	271.779	189.722	193.998	195.552	202.055	352.841	198.812	-8191	255	
5925.473	1	1	0	0	0.19989	0.16628	0.20784	0.13154	0.085734	0.080605	0.29015	0.069249	0.35816	0.080932	0.12128	0.1622	0.020232	0.051117	0.15111	0.4249	-2.2562	-3.2562	-3.0229	-3.0875	-3.1458	-2.8292	-3.2729	-3.2458	-2.8604	-3.1521	-3.1625	-3.0771	-3.2354	-2.7938	-3.1208	-3.3417	341.141	179.067	288.662	478.026	463.913	197.111	449.280	508.247	265.343	518.980	301.192	485.440	272.298	449.880	199.923	515.278	0.00085457	0.0011965	0.00084123	625.36	5.1169e-06	2.2615e-05	685.33	263.07	4.1986e-06	1.5117e-05	322.83	129.38	114.79	52.801	9.8762e-06	63.51	0.0028467	0.003191	0.0009112	857.1	3.1749e-05	3.507e-05	908.38	336.8	3.1811e-05	3.5401e-05	447.7	163.93	174.75	64.51	3.4821e-05	77.923	511.653	245.789	374.294	187.242	322.389	261.024	186.061	192.128	406.011	256.597	189.384	193.919	195.292	202.049	329.458	198.792	-8191	255	
5925.571	1	1	0	0	0.17248	0.28292	0.20183	0.29397	0.12058	0.20341	0.15822	0.21444	0.17879	0.082181	0.14782	0.2691	0.071239	0.27971	0.2119	0.37175	-2.475	-3.1104	-3.0479	-2.8646	-3.1333	-3.1312	-2.9521	-3.0646	-2.6646	-3.1021	-2.9417	-2.9	-3.1604	-3.0021	-3.0187	-3.3375	392.136	314.152	271.585	203.041	237.184	250.698	419.369	483.169	383.814	410.442	493.284	462.226	526.822	531.614	309.389	474.366	0.00086699	0.00075661	0.00067061	628.1	1.048e-05	1.5285e-05	687.45	264.73	1.153e-05	1.0401e-05	322.48	129.73	115.1	52.805	4.317e-06	63.344	0.0028431	0.0032675	0.00087761	852.64	3.2217e-05	3.6236e-05	906.44	336.43	3.2923e-05	3.6884e-05	447.08	164.42	178.61	65.058	3.4378e-05	77.884	530.090	332.126	356.239	187.361	206.453	339.999	185.790	191.895	252.503	301.102	189.753	194.028	194.695	202.179	357.421	198.616	-8191	255	
5925.690	1	1	0	0	0.23122	0.1628	0.042114	0.062372	0.10401	0.016323	0.206	0.1551	0.20253	0.27597	0.41307	0.12829	0.28143	0.15842	0.23854	0.05773	-2.4437	-3.1188	-2.8625	-2.8667	-3.0187	-2.7417	-2.9146	-3.1958	-2.9083	-3.1583	-3.2271	-3.025	-3.3104	-3.1792	-2.8354	-3.1729	460.307	248.996	321.360	532.097	317.434	495.791	500.476	497.843	311.841	283.445	502.163	531.710	215.186	403.766	392.117	499.853	0.0012252	0.00034072	0.00025486	629.49	7.9043e-06	1.3546e-05	690.3	265.17	1.3413e-05	4.2526e-06	324.95	129.41	114.93	52.605	3.8628e-06	62.95	0.0029715	0.0032925	0.00085446	846.31	3.3461e-05	3.574e-05	896.41	332.7	3.3613e-05	3.5353e-05	439.07	162.18	179.82	64.307	3.2613e-05	77.021	520.896	255.551	333.605	187.370	213.863	327.956	185.777	192.033	222.602	317.367	189.788	193.779	194.981	202.029	347.180	198.665	-8191	255	
5925.786	1	1	0	0	0.18425	0.1776	0.20927	0.16966	0.12382	0.066839	0.15873	0.08546	0.13009	0.16707	0.24206	0.085948	0.15128	0.30558	0.12837	0.14672	-2.2542	-3.0104	-2.8771	-2.6708	-3.1875	-3.0438	-3.05	-3.2167	-2.8792	-3.0896	-3.1917	-3.0125	-3.1688	-3.05	-2.9958	-3.1292	310.323	260.410	262.642	480.865	422.715	314.842	506.293	465.314	199.552	231.600	406.291	500.044	383.622	522.515	408.333	525.785	0.0012686	0.0021439	0.00037343	628.28	7.9582e-06	1.7075e-05	686.18	263.34	7.5339e-06	1.6681e-05	319.87	128.57	115.61	52.631	5.5007e-06	62.691	0.0030387	0.0031397	0.00081667	836.86	3.422e-05	3.3993e-05	884.52	330.86	3.4304e-05	3.3579e-05	432.24	161.05	181.53	63.572	3.1374e-05	76.674	497.595	263.668	319.363	187.278	530.845	353.474	185.888	191.744	480.834	339.105	189.766	193.875	194.983	202.113	391.787	198.537	-8191	255	
5925.858	1	1	0	0	0.213	0.093651	0.12013	0.21852	0.10623	0.10338	0.17578	0.12742	0.016883	0.084035	0.46333	0.036456	0.048206	0.18255	0.061723	0.25439	-2.5833	-2.9542	-2.8771	-2.8479	-3.1229	-3.0938	-3.0563	-3.2958	-2.8625	-3.0167	-3.2083	-3.0646	-3.0938	-3.0708	-2.7229	-3.2854	178.583	468.646	323.812	494.955	270.544	506.905	439.342	480.259	298.037	369.868	444.837	523.956	284.165	195.934	419.584	422.100	0.00090081	0.0013745	0.00010821	626.78	1.6948e-05	1.6432e-05	685.66	264.39	6.4221e-06	7.1862e-06	320.88	128.74	115.03	52.517	2.5391e-07	63.216	0.0030761	0.0029923	0.00078218	840.61	3.412e-05	3.2295e-05	876.12	332.76	3.3914e-05	3.2051e-05	427.49	161.91	180.38	63.222	3.0117e-05	77.413	503.067	273.098	299.909	187.140	213.988	350.048	185.916	191.796	373.355	177.279	190.183	193.732	195.285	202.268	509.633	198.339	-8191	255	
5925.978	1	1	0	0	0.16128	0.10325	0.16224	0.14316	0.072961	0.12519	0.1468	0.26219	0.22273	0.14342	0.11428	0.073533	0.13167	0.043939	0.14336	0.018242	-2.5771	-2.8604	-3.0792	-3.0021	-3.0125	-3.0875	-2.875	-3.2708	-2.9938	-3.0854	-3.2854	-2.975	-3.0812	-3.1688	-2.8271	-3.3187	281.389	254.312	305.245	468.810	351.939	190.987	485.844	426.652	378.011	447.770	195.490	406.819	427.608	241.000	443.756	292.425	0.00077925	0.0012087	0.00026512	629.88	8.4928e-06	1.1e-05	690.44	267.04	7.4255e-06	2.1208e-05	324.2	129.34	116.63	52.706	7.5226e-06	63.616	0.0030165	0.0029054	0.00076161	851.11	3.3825e-05	3.1777e-05	876.14	337.3	3.3317e-05	3.1277e-05	427.11	163.97	178.24	63.078	2.974e-05	78.477	528.157	343.851	188.332	187.341	236.061	347.645	185.815	191.441	402.710	370.813	189.495	193.747	195.333	201.946	337.227	198.497	-8191	255	
5926.075	1	1	0	0	0.24821	0.021711	0.2171	0.28481	0.056673	0.088925	0.045823	0.11161	0.23755	0.087782	0.11224	0.074712	0.079265	0.10906	0.3089	0.10055	-2.5396	-2.9938	-3.05	-2.9896	-2.9354	-2.9688	-2.9229	-3.2167	-3.1667	-2.875	-3.275	-3.05	-2.9583	-3.2	-2.6917	-3.2479	528.688	439.483	389.111	447.479	191.114	196.398	312.456	320.481	432.507	310.060	491.719	428.573	433.668	487.840	529.301	522.453	0.00052756	0.0014567	0.00045772	629.36	1.4855e-05	1.063e-05	699.31	267.33	1.1638e-05	4.1478e-06	327.58	131.11	116.45	53.148	6.9574e-06	64.304	0.0029418	0.0028393	0.00076041	860.1	3.2679e-05	3.0947e-05	881.19	341.07	3.2485e-05	3.0594e-05	432.03	166.24	176.48	63.124	3.0069e-05	79.136	529.366	269.396	219.485	187.292	264.982	396.302	185.790	192.254	368.114	468.407	189.326	194.065	195.533	202.325	270.306	198.596	-8191	255	
5926.171	1	1	0	0	0.16561	0.10587	0.30511	0.15603	0.10224	0.11338	0.093701	0.32692	0.17609	0.12923	0.077046	0.37814	0.15354	0.26895	0.15132	0.25345	-2.6479	-2.8396	-3.0396	-3.0833	-3.0083	-3.2375	-2.8187	-3.3688	-3.1146	-2.7896	-3.3146	-2.9521	-3.0563	-3.2542	-2.8708	-3.2792	353.784	512.820	190.568	413.366	329.713	476.040	349.144	499.400	509.722	432.090	478.869	523.329	436.619	514.028	185.482	478.935	0.00058984	0.0017507	0.00011118	628.77	3.2547e-06	1.8071e-05	691.57	267.98	9.078e-06	1.9014e-05	326.61	131.02	117.28	53.125	1.8224e-05	63.905	0.0028194	0.0027257	0.00078319	862.25	3.1598e-05	3.0033e-05	888.47	341.96	3.162e-05	2.9909e-05	437.78	166.18	175.45	62.831	3.1673e-05	78.807	192.800	380.893	427.665	187.308	376.580	382.254	185.375	192.008	320.319	458.856	189.687	193.900	195.355	202.130	225.652	198.482	-8191	255	
5926.291	1	1	0	0	0.13294	0.26119	0.082674	0.26985	0.1926	0.072847	0.15773	0.12492	0.038528	0.13477	0.28218	0.099985	0.28718	0.19166	0.10259	0.28466	-2.5938	-2.8563	-3.2333	-3.2208	-2.825	-3.2146	-3.125	-3.2104	-2.8833	-2.9688	-3.3104	-3.0687	-2.9229	-3.2271	-2.8417	-3.2729	498.162	336.892	193.892	442.611	452.132	190.557	453.414	376.692	517.048	486.165	372.286	264.518	206.649	356.291	260.231	483.884	0.00095487	0.00090403	0.00049532	631.74	1.2817e-05	7.9888e-06	691.76	266.86	1.5237e-05	1.576e-05	325.62	130.55	116.49	52.984	1.2246e-05	63.384	0.0027958	0.0026926	0.00082022	859.52	3.1052e-05	2.9553e-05	892.85	337.93	3.0466e-05	2.9015e-05	437.98	163.57	171.91	62.574	3.2381e-05	77.673	510.519	254.439	178.812	187.325	294.155	442.059	185.787	191.926	307.436	267.892	189.369	193.694	195.449	202.520	258.168	198.542	-8191	255	
5926.388	1	1	0	0	0.11503	0.065318	0.052081	0.086184	0.15955	0.093059	0.081541	0.14766	0.12988	0.17232	0.25204	0.099718	0.072715	0.23404	0.22901	0.15841	-2.5708	-2.8167	-3.2271	-2.8792	-2.7479	-3.3146	-2.8667	-2.9292	-2.9667	-2.8583	-3.2188	-3.0479	-2.9833	-3.4708	-2.8854	-3.1792	179.195	338.206	289.440	245.108	341.254	328.266	516.466	182.074	192.423	405.769	412.025	359.881	512.818	421.936	339.456	176.930	0.00064101	0.0005373	0.00016011	634.77	4.1575e-06	5.3035e-06	696.35	268.08	8.5423e-06	9.2475e-06	326.79	130.79	117.36	52.861	1.8493e-06	63.663	0.0026833	0.0026746	0.00083045	850.45	2.9969e-05	2.9901e-05	899.21	336.77	2.9652e-05	3.0043e-05	442.19	163.09	171.58	62.968	3.3032e-05	77.477	495.223	484.909	414.388	187.444	335.544	321.958	185.583	191.944	335.096	249.113	189.405	193.870	195.420	202.023	523.458	198.712	-8191	255	
5926.482	1	1	0	0	0.18185	0.20081	0.089639	0.12122	0.091049	0.18971	0.17853	0.059434	0.15509	0.16878	0.36882	0.22489	0.034342	0.18218	0.12692	0.23428	-2.7458	-2.7667	-3.1208	-3.2396	-2.775	-3.1042	-2.9188	-3.0979	-3.0854	-3.0812	-3.2042	-3.2875	-2.9958	-3.1813	-2.9646	-2.9062	246.892	460.258	298.677	236.456	266.437	314.991	347.329	453.503	453.748	303.742	419.766	492.109	470.217	501.014	400.826	444.272	0.00067834	0.002531	0.00044081	631.32	3.1803e-06	4.7818e-06	694.52	267.85	4.5265e-06	1.1189e-05	326.72	131.21	117.94	53.273	3.8427e-06	64.137	0.0026404	0.0028105	0.00084085	848.1	2.9539e-05	3.1608e-05	904.23	337.2	2.9717e-05	3.2003e-05	445.05	163.71	171.79	64.094	3.2657e-05	77.75	175.108	181.260	269.663	187.237	529.935	287.134	185.634	192.037	345.629	222.997	189.916	193.729	195.230	202.073	356.246	198.427	-8191	255	
5926.554	1	1	0	0	0.13853	0.20022	0.053733	0.066992	0.17637	0.15581	0.18751	0.18472	0.1686	0.14268	0.098427	0.3849	0.13016	0.15583	0.094303	0.096186	-2.8063	-2.9208	-2.9688	-2.9583	-2.7687	-3.0583	-2.9813	-2.9375	-3	-2.8812	-3.075	-3.1875	-2.7167	-3.2333	-2.9792	-3	203.431	497.544	521.862	328.094	467.989	416.987	377.993	174.794	526.739	405.900	495.848	532.338	226.826	179.423	324.498	445.215	0.00087167	0.00039506	0.0003583	632.89	9.4846e-06	1.8917e-05	700.52	269.22	1.5401e-05	3.9574e-06	330.45	132.04	117.9	53.546	1.5113e-05	64.335	0.0026107	0.0029298	0.00081617	841.83	2.9069e-05	3.2402e-05	897.93	335.83	2.9537e-05	3.2998e-05	441.91	163.81	172.65	64.82	3.2183e-05	78.149	526.630	343.794	309.692	187.397	268.206	214.107	185.962	192.079	234.220	246.244	189.602	193.747	194.985	202.140	300.170	198.731	-8191	255	
5926.674	1	1	0	0	0.15777	0.12147	0.2073	0.13777	0.36778	0.25291	0.070173	0.11906	0.1407	0.18067	0.35864	0.23317	0.12883	0.36646	0.1591	0.44133	-2.7771	-2.9	-3.1208	-3.3104	-2.8458	-3.1646	-3.0438	-3.0292	-3.1125	-2.975	-3.0438	-3.1542	-2.9083	-3.1917	-3.0625	-2.9313	301.691	462.554	337.701	177.796	312.373	417.803	234.061	421.375	500.452	226.848	498.709	477.267	460.099	456.555	177.121	446.041	0.0010606	0.00053543	2.951e-05	632.37	1.1374e-05	2.3391e-05	698.86	267.84	1.0316e-05	7.7037e-06	326.96	131.48	117.39	53.401	9.4451e-06	64.39	0.0026983	0.003066	0.00081337	843.24	3.0731e-05	3.3818e-05	896.42	334.42	3.0962e-05	3.3707e-05	437.87	162.31	175.92	64.632	3.1266e-05	77.416	530.196	392.949	508.573	187.368	493.850	417.472	185.965	192.063	229.667	281.720	189.372	193.913	195.000	202.228	266.909	198.597	-8191	255	
5926.770	1	1	0	0	0.098153	0.10632	0.10706	0.26027	0.21485	0.11633	0.20823	0.30776	0.12507	0.30707	0.21401	0.21559	0.12081	0.27729	0.058118	0.054464	-2.8875	-3	-3.0125	-3.225	-2.8312	-3.0875	-3.0875	-2.8667	-3.175	-2.9958	-2.9833	-3.3187	-2.9958	-3.3458	-3.0938	-2.925	508.934	531.499	260.301	473.190	451.827	317.643	374.061	468.966	504.746	398.191	531.777	460.054	440.819	502.182	288.257	420.899	0.00086579	0.00090161	0.00043495	633.32	1.0851e-05	1.0901e-05	694.76	268.49	7.1182e-06	1.0303e-05	325.42	130.4	116.31	53.034	1.3965e-05	63.74	0.0028069	0.003012	0.00078891	834.37	3.1585e-05	3.2865e-05	885.55	331.85	3.1854e-05	3.2564e-05	433.4	160.76	177.49	63.979	3.0447e-05	76.742	504.073	312.620	318.340	187.021	519.867	344.485	185.382	191.805	199.943	365.577	189.981	193.698	195.511	202.248	399.542	198.358	-8191	255	
5926.867	1	1	0	0	0.051367	0.028761	0.0069954	0.25766	0.15577	0.13496	0.028669	0.063173	0.22645	0.12381	0.31137	0.2233	0.2142	0.1696	0.10538	0.21167	-2.85	-2.8646	-2.9688	-3.1917	-2.9292	-3.0521	-3.3979	-2.8958	-3.2604	-3.0208	-2.975	-3.2604	-3.1229	-3.1604	-3.1021	-2.9417	444.196	235.014	309.160	505.415	177.867	184.603	284.734	416.977	298.347	412.437	526.952	531.983	178.309	342.733	257.351	363.002	0.0010394	0.0012618	0.00020017	633.79	4.715e-06	2.1791e-05	695.47	268.59	2.6914e-06	1.2584e-05	326.74	130.91	116.75	53.517	1.1543e-05	63.467	0.0029081	0.0029398	0.00077095	835.84	3.2802e-05	3.2008e-05	882.74	333.25	3.297e-05	3.1837e-05	431.06	162.18	180.03	63.86	2.9928e-05	77.022	498.578	360.193	348.162	187.040	481.764	336.836	185.994	191.956	302.645	351.854	189.819	193.628	195.416	202.347	334.217	198.421	-8191	255	
5926.963	1	1	0	0	0.20387	0.064131	0.0605	0.050465	0.2042	0.12106	0.31623	0.17457	0.43275	0.17873	0.15632	0.047203	0.17004	0.053126	0.14813	0.28793	-2.8646	-2.8438	-2.8125	-3.3833	-2.9521	-2.9542	-3.3917	-2.925	-3.0958	-3.2812	-3.0896	-3.1375	-2.8604	-3.175	-3.4875	-3.1708	412.983	410.758	516.725	413.046	355.884	450.291	436.192	463.004	522.615	189.071	448.991	191.676	333.771	467.613	342.266	451.160	0.0010929	0.00034242	5.1482e-05	628.51	5.1829e-06	1.7394e-05	689.89	268.03	7.3209e-06	2.9614e-06	327.29	131.07	116.48	53.049	5.2496e-06	63.638	0.0029498	0.0028389	0.00074193	840.81	3.2674e-05	3.07e-05	873.04	334.66	3.2446e-05	3.0637e-05	427.58	163.41	178.58	63.373	2.902e-05	77.913	517.576	229.038	355.841	187.093	296.750	414.672	186.049	191.665	309.277	368.261	189.775	193.714	195.331	202.158	449.806	198.357	-8191	255	
5927.083	1	1	0	0	0.26559	0.055935	0.079804	0.10093	0.10063	0.072369	0.20604	0.21922	0.26469	0.19233	0.15357	0.068699	0.27003	0.12453	0.16805	0.16126	-2.7375	-3.0646	-2.9521	-3.2583	-3.1479	-3.0938	-3.4125	-2.7458	-3.1875	-3.2979	-2.9771	-3.2521	-3.0104	-3.1688	-3.1542	-3.0396	369.380	270.720	225.434	192.936	268.635	365.009	513.426	469.650	325.086	363.557	249.152	503.637	442.483	452.511	450.675	241.050	0.00065863	0.0012109	0.00031658	638.33	1.5827e-05	2.0441e-05	696	267.62	6.5923e-06	7.9258e-06	326.98	131.15	117.73	53.341	1.5079e-05	64.38	0.0029043	0.0027763	0.0007331	853.98	3.2264e-05	3.0406e-05	875.06	338.56	3.2046e-05	3.039e-05	429.05	165.67	177.36	63.291	2.9254e-05	78.859	519.489	254.754	431.381	187.321	332.663	356.029	185.419	191.686	432.342	372.004	189.760	193.943	195.621	202.079	259.175	198.652	-8191	255	
5927.155	1	1	0	0	0.12915	0.10881	0.084089	0.28526	0.30948	0.08834	0.13598	0.20066	0.076418	0.090412	0.32773	0.12119	0.074327	0.20128	0.30076	0.14431	-2.6271	-3.0646	-2.9188	-3.1708	-2.9813	-2.9333	-3.3771	-3.2979	-3.1125	-3.2417	-3.0354	-3.3812	-3.2854	-2.8688	-3.2062	-3.1688	208.346	438.552	443.525	533.108	532.656	502.277	433.747	177.473	502.156	493.392	498.454	254.255	525.030	503.619	512.115	443.638	0.00080471	0.00046192	0.00038573	632.35	1.6051e-05	2.8423e-06	700.36	268.74	9.2e-06	4.4679e-06	328.58	131.06	117.06	53.308	1.7732e-05	63.732	0.0028316	0.0027288	0.0007507	861.33	3.1584e-05	2.9834e-05	883.35	341.7	3.1421e-05	2.9736e-05	431.98	165.97	175.75	63.051	3.082e-05	78.847	525.243	295.639	520.261	187.550	320.211	400.862	185.955	192.145	378.488	361.839	189.499	193.677	195.632	202.066	272.894	198.536	-8191	255	
5927.251	1	1	0	0	0.3913	0.11637	0.091348	0.24792	0.14571	0.21043	0.12227	0.23192	0.10585	0.026755	0.10271	0.18145	0.17066	0.25142	0.17369	0.31824	-2.5229	-2.9437	-2.8625	-3.35	-3.2375	-3.1354	-3.3875	-3.1437	-2.8438	-3.2333	-3.0875	-3.2438	-3.1562	-3.1083	-3.2917	-3.15	373.811	372.664	371.845	310.599	500.172	522.048	427.394	494.128	361.679	254.654	444.220	498.105	223.968	457.065	322.339	414.034	0.00075897	0.001835	0.00050552	635.29	1.5112e-05	1.2662e-05	696.67	268.78	5.3929e-06	6.9755e-06	325.61	130.45	116.59	53.237	1.1837e-05	63.38	0.0027968	0.0027128	0.000795	865.13	3.113e-05	2.9355e-05	890.22	340.96	3.0902e-05	2.931e-05	438.18	165.07	175.33	62.899	3.2678e-05	78.354	526.053	292.695	216.041	187.268	233.551	333.393	185.704	192.155	346.534	439.819	189.553	193.910	195.384	202.306	206.709	198.590	-8191	255	
5927.372	1	1	0	0	0.20632	0.021909	0.072177	0.47557	0.30309	0.12838	0.11356	0.24308	0.17906	0.1031	0.15712	0.24552	0.10188	0.22489	0.076216	0.3506	-2.5583	-3.1958	-2.8833	-3.1375	-2.9354	-2.8875	-3.1583	-3.0792	-2.9167	-3.4083	-3.1937	-2.9917	-3.2042	-3.1896	-3.1458	-3.2208	470.474	188.005	435.525	497.899	418.031	365.570	445.681	524.351	462.217	523.741	519.948	531.985	186.227	523.105	355.528	431.321	0.0008954	0.00079456	0.00044747	630.23	6.2179e-07	1.0317e-05	690.85	268.97	1.245e-05	1.1079e-05	327.39	131.06	118.02	53.207	6.2609e-06	63.871	0.0027902	0.0027414	0.00084779	862.61	3.1237e-05	3.0026e-05	901.79	340.46	3.0563e-05	2.999e-05	445.13	164.89	174.35	63.266	3.359e-05	78.319	174.373	406.687	531.124	187.285	300.716	310.357	185.543	191.792	371.676	350.826	189.535	193.838	195.351	201.935	366.883	198.249	-8191	255	
5927.468	1	1	0	0	0.092767	0.16339	0.0779	0.146	0.074165	0.10143	0.2098	0.32556	0.24553	0.16526	0.091939	0.23661	0.20915	0.26423	0.2324	0.25385	-2.5292	-3.0208	-3.0271	-3.1146	-3.2938	-2.7542	-3.3083	-3.1063	-2.8979	-3.4	-3.0375	-3.125	-3.1167	-3.0604	-3.2583	-3.2313	246.281	247.575	271.053	477.270	322.013	399.316	501.087	522.783	182.348	391.991	497.362	226.745	229.466	191.046	352.632	472.224	0.00079508	0.0012129	0.00055502	636.61	6.4547e-06	1.6452e-05	698.15	268.51	1.0345e-05	1.1636e-05	329.79	130.22	117.2	53.479	8.515e-06	63.818	0.0027214	0.0028123	0.00086531	856.71	3.0577e-05	3.117e-05	910.82	339.79	3.0374e-05	3.1815e-05	449.27	164.63	174.46	64.114	3.4203e-05	78.327	526.872	520.515	274.281	187.315	349.044	279.111	185.738	191.885	309.704	261.964	190.032	194.045	195.784	202.050	331.911	198.478	-8191	255	
5927.562	1	1	0	0	0.26953	0.10625	0.18647	0.11372	0.12423	0.24319	0.22184	0.039131	0.28416	0.13507	0.11616	0.063196	0.098238	0.1081	0.2373	0.36281	-2.3604	-3.2021	-2.95	-3.0146	-3.1021	-2.9062	-3.3146	-3.1937	-2.9313	-3.2396	-3.1437	-3.2188	-3.2687	-3.2438	-3.1479	-3.35	519.188	433.438	208.923	455.423	254.708	431.726	468.575	178.455	282.543	178.039	405.778	178.291	196.431	420.452	383.155	518.318	0.00084365	0.0018557	0.000182	639.26	8.7154e-06	3.3412e-05	698.77	269.06	1.4904e-05	1.5521e-05	330.68	132.1	116.67	53.718	1.1953e-05	64.299	0.0026943	0.0029668	0.00086398	854.75	3.0035e-05	3.2785e-05	908.87	338.92	2.9863e-05	3.2947e-05	447.21	164.78	173.59	64.9	3.3254e-05	78.395	519.336	492.158	330.736	187.239	309.423	219.595	185.889	191.949	197.934	270.326	189.761	194.164	194.936	201.954	394.077	198.478	-8191	255	
5927.658	1	1	0	0	0.12261	0.016389	0.28243	0.038511	0.050268	0.057453	0.23506	0.30906	0.29166	0.14539	0.093572	0.21177	0.14664	0.096073	0.13236	0.26865	-2.3937	-3.0958	-2.9271	-3.0125	-3.0958	-3.0625	-3.2104	-3.2687	-2.9292	-3.4083	-3.0979	-3.0958	-3.2687	-3.0687	-3.1667	-3.3833	294.808	480.878	250.459	486.373	369.658	258.337	494.974	200.145	458.167	473.579	319.219	461.664	476.462	500.589	405.141	449.605	0.0011456	0.00060787	0.00046604	633.67	4.2359e-06	1.5555e-05	699.4	268.74	5.322e-06	2.8078e-06	329.47	132.22	117.58	53.647	1.0816e-05	64.29	0.0027139	0.0030975	0.00084638	852.22	3.0561e-05	3.4211e-05	906.09	338.18	3.0925e-05	3.446e-05	444.54	164.3	176.58	65.251	3.2607e-05	78.14	519.831	298.539	333.011	187.178	332.773	295.622	185.870	192.091	532.246	222.859	189.723	193.749	195.084	202.330	361.854	198.457	-8191	255	
5927.755	1	1	0	0	0.0505	0.40408	0.20021	0.090655	0.13046	0.13158	0.23291	0.19846	0.10934	0.13514	0.29888	0.18028	0.10896	0.15872	0.099237	0.32711	-2.4333	-3.1625	-3.15	-3.1104	-3.0521	-3.1125	-3.0667	-3.4062	-2.8563	-3.3312	-3.1833	-2.8667	-3.3479	-2.9667	-2.9688	-3.4396	483.013	505.326	288.301	432.918	220.589	288.793	481.001	267.192	423.262	208.290	502.309	485.026	423.684	490.519	445.323	218.372	0.0011201	0.0011	0.00026848	635.88	1.7129e-05	4.3908e-06	695.84	268.86	1.6983e-05	4.7395e-06	326.93	131.05	117.33	53.801	6.1002e-06	64.007	0.0028208	0.0031627	0.00082939	848.41	3.2556e-05	3.5454e-05	905.23	338.33	3.3407e-05	3.5532e-05	444.01	163.78	181.34	65.293	3.2663e-05	77.744	521.693	353.025	413.700	187.360	508.105	279.567	186.082	192.144	209.916	339.171	189.671	193.888	195.168	202.212	455.297	198.584	-8191	255	
5927.851	1	1	0	0	0.27121	0.0833	0.17698	0.15981	0.14486	0.23806	0.1175	0.17427	0.051162	0.24703	0.20913	0.36334	0.059039	0.2328	0.19038	0.12795	-2.4604	-3.0833	-3.1729	-2.7833	-3.2313	-2.9938	-3.0521	-3.2479	-2.9188	-3.1188	-3.0812	-2.8812	-3.2729	-3.2438	-2.9562	-3.4271	187.962	371.511	456.532	465.647	195.289	532.882	445.984	383.236	223.907	378.220	471.372	455.904	296.687	182.373	494.089	505.988	0.0010674	0.00070304	0.00033528	635.6	1.797e-05	1.2688e-05	695.01	268.83	1.1264e-05	1.2746e-05	327.48	130.99	117.91	53.696	7.2302e-06	64.099	0.0030105	0.0031516	0.00082406	847.92	3.4164e-05	3.4548e-05	898.36	337.62	3.4755e-05	3.4338e-05	441.85	163.95	184.14	64.913	3.192e-05	77.905	519.029	391.956	390.108	187.505	518.824	363.895	186.197	191.799	303.162	395.491	189.854	193.740	194.559	202.444	394.639	198.600	-8191	255	
5927.971	1	1	0	0	0.074129	0.12565	0.18521	0.154	0.21981	0.44032	0.32807	0.37522	0.032223	0.064909	0.064033	0.047306	0.21387	0.076635	0.08396	0.0043352	-2.4958	-3.0458	-3.2313	-2.8854	-3.2396	-3.0104	-2.9188	-3.3208	-2.8	-3.1125	-3.2833	-3.1042	-3.0312	-3.35	-2.8167	-3.3625	420.780	284.566	515.172	188.166	340.304	190.082	479.739	465.072	264.607	406.183	491.860	449.268	530.398	407.396	205.679	281.893	0.0012029	0.0022578	0.00011249	634.51	1.1404e-05	2.3573e-05	697.64	270.55	4.0208e-06	2.8482e-06	326.96	131.55	117.06	53.704	8.7308e-06	64.212	0.0030904	0.0030381	0.00079303	849.14	3.4483e-05	3.2963e-05	890.41	338.8	3.4891e-05	3.3109e-05	437.46	164.94	184.82	64.51	3.1151e-05	78.883	512.210	282.449	470.228	186.992	199.019	364.080	185.772	192.080	438.793	493.252	189.622	193.742	195.380	202.131	387.561	198.596	-8191	255	
5928.068	1	1	0	0	0.21931	0.077423	0.03534	0.13092	0.17663	0.04627	0.2711	0.33666	0.049668	0.058446	0.18897	0.17647	0.082517	0.18858	0.10816	0.25088	-2.7188	-3.0687	-3.3375	-3.0687	-3.2938	-3.2188	-2.9437	-3.3167	-3.1042	-3.175	-3.2521	-2.9292	-3.1771	-3.1604	-3.0333	-3.2917	226.845	234.050	446.330	507.639	193.250	200.985	469.511	451.405	492.334	476.613	486.628	500.408	439.833	433.671	282.704	403.914	0.00068322	0.0010826	0.00025499	638.27	1.2082e-05	1.3032e-05	699.1	270.15	5.4241e-06	2.8398e-06	330.19	131.31	116.72	53.475	1.1764e-05	64.246	0.0031275	0.0029848	0.00078564	863.37	3.4683e-05	3.2633e-05	890.27	342.85	3.4642e-05	3.2583e-05	436.51	167.42	183.89	64.488	3.1149e-05	79.966	520.268	204.583	301.542	186.912	182.439	357.669	186.027	191.960	416.823	314.824	189.727	193.961	195.466	202.172	257.743	198.379	-8191	255	
5928.164	1	1	0	0	0.017849	0.12167	0.035507	0.27738	0.17239	0.091406	0.2048	0.052808	0.12938	0.14179	0.20807	0.23167	0.20752	0.098688	0.084198	0.20676	-2.7479	-2.9	-3.2333	-3.0167	-2.9313	-3.1771	-3.1208	-3.4896	-2.875	-2.9875	-3.2375	-2.9208	-3.1188	-3.1417	-3.0917	-3.2875	508.139	200.720	302.797	516.312	379.772	347.927	494.764	334.791	457.288	332.749	179.348	430.320	411.327	187.007	466.668	440.629	0.00085695	0.0024932	0.00012363	638.1	1.1653e-05	1.8787e-05	698.98	269.01	1.4255e-05	5.0456e-06	328.99	131.13	118.67	53.45	1.7021e-05	64.197	0.0030961	0.0029672	0.000793	877.21	3.4209e-05	3.2154e-05	893.39	346.36	3.4035e-05	3.2157e-05	439.15	168.89	182.02	64.092	3.1802e-05	80.263	523.770	296.546	241.733	186.945	279.416	422.324	185.793	192.018	330.250	359.719	189.536	193.692	196.026	202.121	260.994	198.532	-8191	255	
5928.258	1	1	0	0	0.16804	0.089657	0.11512	0.27032	0.25041	0.104	0.10024	0.23607	0.31227	0.10423	0.058677	0.17827	0.10178	0.13212	0.11144	0.20838	-2.6396	-2.9271	-3.3187	-2.8896	-2.9271	-3.3083	-2.8604	-3.3083	-3.0438	-3.025	-3.3979	-2.875	-2.9708	-3.25	-2.95	-3.2854	433.825	404.145	425.049	412.746	280.003	279.929	500.605	414.198	329.032	368.788	493.029	504.966	275.269	515.190	207.516	422.091	0.00088093	0.0014455	0.00056181	629.62	8.0631e-06	8.0778e-06	700.83	268.47	7.431e-06	5.829e-06	327.98	130.96	117.06	53.181	9.7047e-06	63.343	0.0030068	0.002887	0.00081442	878.23	3.2966e-05	3.125e-05	896.06	345.77	3.259e-05	3.0721e-05	439.61	167.18	178.57	63.513	3.3083e-05	79.596	531.129	337.139	519.910	187.563	354.507	377.003	185.814	192.271	352.659	411.602	189.539	193.877	195.571	202.250	323.697	198.445	-8191	255	
5928.379	1	1	0	0	0.15484	0.12074	0.12892	0.0080107	0.27292	0.068064	0.21496	0.24079	0.048144	0.10104	0.27204	0.36626	0.13845	0.10997	0.15348	0.11131	-2.7229	-2.7792	-3.2521	-3.0563	-2.9792	-3.2125	-2.9125	-3.1833	-3.1021	-2.9021	-3.275	-3.0021	-2.7667	-3.4021	-2.8521	-3.4562	455.471	418.510	180.832	455.871	448.249	469.815	443.858	465.297	431.809	256.906	430.065	460.493	317.632	318.675	394.666	243.153	0.00087777	0.0002998	0.00053023	634.15	4.3703e-06	1.1281e-05	696.17	269.1	1.8369e-05	6.4713e-06	327.56	130.55	117.42	53.508	1.3351e-05	63.944	0.0029258	0.0028439	0.00086149	877.22	3.2832e-05	3.1061e-05	908.98	345.25	3.2376e-05	3.0887e-05	447.44	166.66	178.35	63.665	3.492e-05	79.389	523.586	386.753	181.947	187.198	435.311	271.238	185.577	192.139	408.786	451.957	189.614	193.875	195.326	201.943	258.194	198.508	-8191	255	
5928.450	1	1	0	0	0.088785	0.11986	0.084411	0.15708	0.24181	0.10287	0.33366	0.15019	0.24605	0.21773	0.11523	0.10916	0.071446	0.23322	0.1365	0.28807	-2.7271	-2.7521	-3.0938	-3.1708	-3.1292	-3.2396	-3.1562	-3.1979	-3.0854	-2.875	-3.1292	-3.2	-3.0417	-3.3667	-3.1	-3.0479	211.324	445.813	475.956	431.427	408.138	261.206	524.675	515.837	195.890	470.658	340.708	432.551	478.104	226.922	248.648	502.549	0.00067639	0.00063631	0.00059359	635.94	1.3038e-05	2.6081e-05	700.83	269.72	7.57e-06	4.4322e-06	330.61	131.34	118.27	53.887	1.5431e-06	64.27	0.0028786	0.0028426	0.00088637	869.25	3.184e-05	3.1499e-05	920.51	344.78	3.1834e-05	3.1963e-05	455.4	167.07	177.32	64.421	3.5573e-05	79.342	175.095	387.636	523.037	187.258	371.499	252.136	185.637	191.901	344.286	504.775	189.720	193.864	195.085	201.929	435.073	198.481	-8191	255	
5928.547	1	1	0	0	0.2007	0.21786	0.049595	0.20841	0.11554	0.15217	0.10455	0.43445	0.040101	0.17215	0.31043	0.03439	0.14528	0.14986	0.14996	0.32492	-2.7292	-2.8458	-3.0104	-3.2896	-3.0083	-3.2542	-3.2	-3.0896	-3.2417	-2.8583	-3.1688	-3.15	-2.8521	-3.3896	-3.0229	-3.1146	358.378	464.196	523.750	422.428	375.722	404.515	322.879	458.759	175.509	366.337	196.390	398.482	510.259	419.185	334.633	444.383	0.0006861	0.0012402	8.7997e-05	637.55	6.5198e-06	3.947e-05	699.92	269.88	3.3975e-06	1.2562e-05	328.97	131.58	117.03	53.504	1.3856e-05	64.435	0.0027986	0.0029642	0.00089892	865.14	3.1261e-05	3.3217e-05	923.72	343.53	3.1394e-05	3.3677e-05	454.61	166.54	176.07	64.876	3.5257e-05	79.232	176.810	512.248	426.850	187.287	220.107	222.280	186.008	192.011	345.671	235.662	189.701	193.722	195.635	201.941	348.344	198.652	-8191	255	
5928.643	1	1	0	0	0.10965	0.12818	0.16462	0.15311	0.19433	0.14414	0.11264	0.22555	0.23324	0.090257	0.13354	0.051734	0.19995	0.17658	0.17402	0.21952	-2.8438	-2.9979	-3.0938	-3.1562	-2.8833	-3.2917	-3.1979	-3.1875	-3.4604	-3.0104	-3.175	-3.3396	-3.0292	-3.2958	-3.2083	-3.0771	517.599	362.908	417.036	216.348	339.747	290.285	484.565	504.360	182.490	412.731	519.106	468.392	201.966	176.162	392.875	413.084	0.0010229	0.0018946	0.0007175	635.07	6.5085e-06	1.3242e-05	700.9	268.41	1.3801e-05	1.3853e-05	326.6	131.09	117.54	53.343	6.8317e-06	63.925	0.0028111	0.0031788	0.00090075	865.39	3.1555e-05	3.5139e-05	917.54	340.81	3.1318e-05	3.4948e-05	447.64	164.59	175.66	64.999	3.3568e-05	78.14	533.048	187.284	282.914	187.464	219.385	216.915	185.790	192.161	228.489	292.894	190.063	193.904	195.252	202.246	319.837	198.552	-8191	255	
5928.763	1	1	0	0	0.078436	0.19108	0.062595	0.025729	0.16933	0.31095	0.20427	0.14873	0.084015	0.058184	0.11508	0.3281	0.095927	0.12183	0.078227	0.032398	-2.8688	-2.9021	-2.9771	-3.3708	-2.9625	-3.2562	-3.1417	-3.0479	-3.3104	-3.1521	-3.3208	-3.4271	-2.8479	-3.4437	-3.1437	-3.1437	290.101	383.175	194.955	252.956	492.195	356.095	495.478	370.674	340.261	179.938	527.232	472.496	376.038	495.009	225.149	199.002	0.00090043	0.00046553	0.00044246	632.25	8.1539e-06	1.2057e-05	693.61	267.97	1.822e-05	5.7774e-06	324.88	129.74	116.42	53.182	8.4738e-06	63.416	0.002772	0.0031615	0.00084231	848.17	3.1329e-05	3.5084e-05	902.02	337.43	3.2181e-05	3.5505e-05	442.59	162.87	178.38	65.004	3.304e-05	77.294	523.569	301.174	388.590	187.499	529.301	496.567	185.960	191.944	233.755	406.598	189.997	193.857	194.954	202.318	358.845	198.416	-8191	255	
5928.859	1	1	0	0	0.21288	0.11051	0.18042	0.13476	0.16575	0.26276	0.14946	0.24709	0.088323	0.10606	0.21532	0.18285	0.15722	0.15767	0.15875	0.050839	-2.8792	-2.8812	-3.0167	-3.2958	-3.0271	-3.1958	-3.1979	-3.0062	-3.1708	-2.9437	-3.0521	-3.4354	-2.8875	-3.3521	-3.1375	-2.8979	267.923	530.899	481.116	229.842	250.128	235.849	470.510	469.098	225.021	465.470	494.612	437.666	227.170	499.293	185.254	518.329	0.0010311	0.0018024	0.00023437	632.86	2.3755e-06	1.9761e-06	690.81	267.61	1.775e-05	1.1642e-05	325.37	129.76	116.75	53.252	7.1762e-06	63.471	0.0029481	0.003219	0.00083668	846.62	3.3429e-05	3.5192e-05	897.76	335.82	3.3689e-05	3.4658e-05	438.64	161.99	180.71	64.565	3.1848e-05	77.119	527.424	392.201	330.642	187.219	215.938	281.565	185.879	192.064	228.396	426.151	189.888	193.850	195.270	202.399	297.648	198.741	-8191	255	
5928.956	1	1	0	0	0.16141	0.036926	0.22394	0.16626	0.17572	0.29506	0.14702	0.15959	0.26534	0.25506	0.10656	0.20834	0.15586	0.22185	0.072582	0.2091	-2.8542	-3.0625	-2.7562	-3.0958	-2.8708	-3.3063	-3.2979	-2.8292	-3.3083	-3.1771	-3.1104	-3.1688	-3.0917	-3.1521	-3.3396	-3.1625	302.314	265.199	316.604	464.286	365.018	392.082	177.098	494.559	230.531	464.415	503.782	254.037	285.487	332.620	267.416	353.507	0.0010645	0.001456	0.00013051	635.58	9.0406e-06	2.6911e-05	694.25	268.5	1.4016e-05	1.0687e-05	327.82	130.68	117.24	53.323	1.2574e-05	63.942	0.0030241	0.0030954	0.00080583	845.34	3.4416e-05	3.3855e-05	892.17	337.11	3.5129e-05	3.4215e-05	439.73	164.11	185.39	64.732	3.1627e-05	78.146	514.796	321.173	307.296	187.631	180.200	399.724	186.015	191.951	209.683	396.016	189.639	193.748	195.298	202.386	313.901	198.591	-8191	255	
5929.052	1	1	0	0	0.097809	0.23433	0.18149	0.21053	0.062432	0.11019	0.25758	0.142	0.042816	0.044923	0.25419	0.11259	0.18362	0.17711	0.19729	0.15332	-2.7792	-3.0438	-3.05	-3.3729	-3.1	-3.2729	-3.3979	-2.9167	-3.1646	-3.2729	-2.8354	-3.2542	-3.0583	-2.9375	-3.2812	-3.0625	533.775	499.284	247.541	515.503	451.845	281.422	391.016	197.175	373.467	306.370	470.562	461.722	453.186	317.733	185.138	434.132	0.00087384	0.0022654	0.00068453	637.01	1.6529e-05	1.0377e-05	696.29	269.92	1.191e-05	2.4265e-06	328.84	131.27	117.53	53.656	7.0028e-06	64.488	0.003125	0.0030146	0.00079176	854.75	3.4928e-05	3.2883e-05	890.49	341.23	3.5391e-05	3.344e-05	437.62	166.7	187.18	64.969	3.2231e-05	80.2	515.535	327.402	295.427	187.105	405.492	448.868	185.837	191.944	323.974	333.568	190.025	193.801	195.003	202.221	359.795	198.803	-8191	255	
5929.148	1	1	0	0	0.12214	0.23019	0.21252	0.28139	0.16907	0.19548	0.27276	0.10644	0.10294	0.11555	0.38657	0.12367	0.08575	0.19194	0.17782	0.089836	-2.6625	-3.0396	-2.8896	-3.3271	-3.0646	-2.9625	-3.4062	-2.9875	-3.0646	-3.1667	-2.9938	-3.3771	-3.1875	-3.1167	-3.2958	-2.8917	262.781	178.268	218.744	513.720	370.855	464.666	479.253	295.001	206.635	469.339	423.696	491.206	262.081	179.573	337.868	277.717	0.00062647	0.00091827	0.00051086	640.05	1.7585e-05	6.0263e-06	702.63	269.7	1.4626e-05	1.8893e-05	329.54	132.31	119.02	53.749	8.0155e-06	65.015	0.0032788	0.0031421	0.00082643	883.29	3.6445e-05	3.4017e-05	899.96	347.74	3.5524e-05	3.3281e-05	439.83	169.94	185.79	65.093	3.2424e-05	81.463	532.135	248.192	296.678	187.045	362.392	350.974	185.877	192.161	389.904	405.132	189.766	193.675	195.782	202.418	211.603	198.476	-8191	255	
5929.244	1	1	0	0	0.046973	0.08565	0.16565	0.22121	0.32274	0.1445	0.14085	0.10799	0.33659	0.1018	0.16654	0.24419	0.06488	0.19238	0.047042	0.17197	-2.7729	-3.1854	-2.9854	-3.1813	-3.1417	-3.0021	-3.4104	-3.0208	-2.975	-3.1813	-3.0625	-3.3375	-3.125	-2.9229	-3.2396	-3.2062	287.065	379.580	189.440	239.638	422.269	374.963	505.180	294.964	175.979	283.300	261.488	461.124	231.219	254.614	514.676	470.692	0.00098881	0.00096733	0.00026637	638.78	1.05e-05	1.0714e-05	696.07	269.85	7.7329e-06	5.1175e-06	328.29	131.67	118	53.842	1.3687e-05	64.534	0.0031692	0.0030301	0.00081565	887.15	3.4677e-05	3.2601e-05	899.84	350.64	3.464e-05	3.2818e-05	444.04	170.84	183.68	64.751	3.3475e-05	81.284	187.325	315.831	253.726	187.012	283.766	451.150	185.595	191.887	329.702	438.934	189.515	193.734	194.975	202.350	248.860	198.360	-8191	255	
5929.340	1	1	0	0	0.042197	0.36068	0.059139	0.099792	0.17302	0.0052371	0.1909	0.10455	0.061163	0.23606	0.1023	0.25521	0.13422	0.1083	0.087149	0.2925	-2.7	-3.2771	-2.7896	-3.3187	-3.3563	-2.8	-3.4062	-3.0938	-2.9604	-3.4021	-3.0542	-3.1813	-3.1104	-3.1437	-3.3104	-3.2104	229.373	413.841	218.054	178.882	513.832	404.806	472.120	217.189	503.942	293.017	460.111	180.713	465.874	527.894	387.801	197.583	0.00073623	0.0028921	0.00019452	638.14	1.6663e-05	7.9706e-06	696.9	270.77	8.9491e-06	2.098e-05	327.63	131.46	117.7	53.794	1.7166e-05	64.272	0.0030605	0.002965	0.00085565	889.37	3.4066e-05	3.2109e-05	909.88	351.18	3.3945e-05	3.2023e-05	449.51	169.7	181.11	64.211	3.4315e-05	80.395	518.701	281.214	219.432	187.167	372.252	434.400	186.010	191.874	327.428	376.280	189.532	193.920	195.261	202.336	238.225	198.764	-8191	255	
5929.461	1	1	0	0	0.1617	0.35439	0.22555	0.26998	0.10509	0.079804	0.46748	0.15869	0.25995	0.18491	0.24424	0.073362	0.15739	0.17311	0.1688	0.35251	-2.6562	-3.2438	-2.9229	-3.3187	-3.1875	-2.7854	-3.375	-3.0354	-2.9729	-3.2396	-2.9833	-3.1167	-3.0563	-3.1875	-3.2417	-3.3167	187.046	356.914	263.559	489.653	399.796	517.880	452.057	470.193	388.578	239.714	425.866	423.132	459.967	519.984	421.235	449.756	0.0010466	0.0010487	0.0004167	639.67	9.2947e-06	1.7012e-05	702.57	270.08	1.1686e-05	3.4308e-06	329.76	132.8	118.66	53.851	6.0288e-06	64.842	0.0029303	0.0028488	0.00087731	879.35	3.2713e-05	3.1443e-05	921.05	347.74	3.2808e-05	3.1784e-05	455.58	169.27	180.24	64.638	3.6093e-05	80.663	519.276	494.231	496.958	187.353	323.417	257.535	185.785	192.093	429.512	201.176	189.394	193.940	195.396	202.061	251.708	198.607	-8191	255	
5929.555	1	1	0	0	0.084947	0.031891	0.011921	0.10033	0.1138	0.16841	0.12555	0.14442	0.10452	0.17949	0.21859	0.2333	0.23585	0.23461	0.048622	0.14322	-2.7208	-3.1708	-2.9146	-3.0333	-3.3812	-3	-3.4854	-3.1625	-2.9437	-3.2333	-3.1333	-3.2667	-3.4	-3.1625	-3.2479	-3.1521	272.504	398.727	269.465	511.609	370.914	473.662	468.226	203.882	203.840	512.381	384.642	517.773	174.621	175.386	174.959	329.131	0.00074401	0.0010537	3.4071e-05	639.95	6.5708e-06	8.1806e-06	702.7	271.1	3.9458e-06	8.2054e-06	331.97	133.12	119.43	54.439	2.5179e-05	65.121	0.0029442	0.0029931	0.00093517	881.85	3.3406e-05	3.3827e-05	936.92	349.09	3.3119e-05	3.4099e-05	464.5	170.12	181.81	65.821	3.7431e-05	81.092	529.146	481.144	345.151	187.617	201.101	282.939	185.391	191.972	283.077	482.812	189.755	194.115	195.500	202.034	316.508	198.694	-8191	255	
5929.651	1	1	0	0	0.11069	0.30496	0.1666	0.16127	0.41799	0.26545	0.10153	0.077314	0.36156	0.20733	0.19716	0.092443	0.091683	0.24307	0.056515	0.33736	-2.4	-3.2958	-3.0167	-3.0938	-3.3042	-2.9208	-3.2229	-3.225	-2.9771	-3.2958	-3.1312	-3.0438	-3.3479	-2.9958	-3.1104	-3.2771	373.088	301.183	478.719	490.714	388.286	241.880	340.452	302.229	462.856	246.777	483.030	425.828	482.486	457.348	454.895	441.662	0.00088463	0.0016594	7.1489e-05	644.9	1.3853e-06	2.9171e-05	704.9	270.85	5.2921e-06	2.1619e-05	329.52	132.76	119.23	53.697	6.9163e-06	64.981	0.0029524	0.0031973	0.00094627	881.8	3.2943e-05	3.5799e-05	938.87	349.79	3.356e-05	3.7269e-05	466.8	171.2	184.28	67.053	3.9009e-05	81.568	184.448	502.670	523.590	187.500	345.973	232.398	185.998	191.925	532.945	208.960	190.049	194.160	195.458	201.867	464.318	198.521	-8191	255	
5929.748	1	1	0	0	0.15337	0.07823	0.22928	0.15428	0.19312	0.11892	0.15178	0.24238	0.19016	0.029752	0.11874	0.2975	0.11391	0.1379	0.099246	0.20232	-2.5854	-3.1437	-2.9896	-3.1042	-3.1604	-3.0083	-3.3458	-3.2167	-2.975	-3.225	-3.1708	-3.2021	-3.3021	-3.1333	-3.2562	-3.4208	467.895	337.621	250.704	487.297	402.844	516.466	469.896	530.808	294.618	215.883	456.524	507.171	195.532	177.674	233.670	450.513	0.0011046	0.003283	0.0005253	638	1.0255e-05	9.5147e-06	701.31	270.85	1.1286e-05	5.1516e-06	327.48	131.61	117.4	53.85	6.5456e-06	64.273	0.003106	0.0035419	0.00097368	887.63	3.4645e-05	3.8919e-05	937.79	349.66	3.5108e-05	3.9597e-05	463.87	169.89	186.11	67.311	3.8165e-05	80.766	511.297	499.304	360.331	187.314	229.514	201.454	185.994	191.919	252.850	500.431	189.368	194.228	195.091	202.200	306.538	198.714	-8191	255	
5929.844	1	1	0	0	0.046694	0.22957	0.20503	0.25879	0.16127	0.3201	0.12769	0.24083	0.22427	0.20216	0.25457	0.24461	0.10644	0.30604	0.26422	0.20769	-2.5792	-3.0812	-3.0042	-3.0333	-3.1437	-3.0604	-3.1021	-3.2583	-3.0229	-3.3875	-3.2167	-3.1146	-3.3083	-3.0292	-3.0604	-3.5062	188.442	374.703	341.676	533.281	194.422	213.247	509.867	515.847	493.652	518.951	428.362	487.860	205.172	448.975	324.415	482.040	0.0011823	0.001013	0.00060395	640.23	1.0949e-05	2.7362e-06	699.97	268.23	1.1817e-05	1.9549e-05	326.93	131.31	118.09	53.888	1.9127e-05	65.064	0.0032332	0.0036375	0.00095336	880.63	3.6399e-05	3.9984e-05	931.22	348.13	3.7483e-05	4.067e-05	463.11	169.62	191.16	67.598	3.7736e-05	80.867	504.234	198.014	331.073	187.577	182.561	359.586	185.807	191.963	278.953	382.492	190.069	193.850	194.838	202.229	361.930	198.575	-8191	255	
5929.940	1	1	0	0	0.049436	0.25259	0.067135	0.28146	0.04287	0.27305	0.22099	0.2549	0.048813	0.084666	0.16862	0.43129	0.078782	0.17373	0.22418	0.14208	-2.5271	-3.1813	-2.9354	-2.9292	-3.3521	-3.1667	-3.1125	-3.3167	-2.8812	-3.1792	-3.3229	-3.0833	-3.15	-3.2646	-3.1042	-3.4958	404.317	530.631	403.646	435.034	517.698	404.224	231.746	461.846	497.691	308.583	493.513	467.928	528.404	442.744	213.817	485.036	0.0012527	0.0021046	0.00027456	638.99	9.6183e-06	1.9137e-05	700.25	272.51	1.8354e-05	7.4915e-06	329.32	133.32	119.12	54.391	2.2311e-05	65.497	0.0034091	0.003627	0.00093981	878.78	3.7871e-05	3.8834e-05	929.9	348.7	3.8484e-05	3.8997e-05	460.11	170.23	195.62	67.619	3.7233e-05	81.807	507.583	296.348	237.365	187.238	218.934	416.785	185.746	191.969	188.223	319.122	189.548	193.822	194.536	202.457	358.259	198.415	-8191	255	
5930.060	1	1	0	0	0.20953	0.10714	0.21233	0.11678	0.10917	0.15548	0.14156	0.2757	0.18755	0.21182	0.14907	0.36357	0.07731	0.18835	0.18896	0.084157	-2.5125	-3.1229	-2.8688	-3.1271	-3.2438	-3.125	-3.1854	-3.4313	-2.9604	-3.0979	-3.3083	-3.0875	-3.4271	-3.2354	-3.0375	-3.5396	453.608	437.386	479.887	192.319	274.835	358.972	497.111	478.396	219.974	501.477	213.156	202.190	439.270	516.199	308.347	182.911	0.0010405	0.0013328	0.00050461	636.91	1.2211e-05	1.551e-06	699.94	274.18	9.4573e-06	1.2772e-05	333.71	135.18	119.91	54.816	1.001e-05	66.184	0.0036323	0.0036291	0.00095176	895.02	4.1009e-05	3.947e-05	936.46	354.42	4.0755e-05	3.8676e-05	462.51	173.36	198.03	67.469	3.6012e-05	82.884	525.728	349.443	301.506	186.948	525.037	356.347	186.251	192.001	327.367	396.878	189.939	193.594	195.358	202.373	321.166	198.201	-8191	255	
5930.157	1	1	0	0	0.20877	0.026164	0.10845	0.18006	0.054093	0.14174	0.18476	0.13513	0.14676	0.20503	0.17602	0.29071	0.1067	0.1606	0.31799	0.10319	-2.6667	-3.0833	-3.0312	-2.9167	-3.2604	-3.2792	-3.0646	-3.4313	-3.1625	-2.9688	-3.4625	-3.0125	-3.1208	-3.2729	-2.8688	-3.3833	471.953	195.632	431.088	532.468	210.065	495.766	485.401	531.954	479.152	513.751	339.798	530.940	482.364	186.594	504.126	443.830	0.0010912	0.0012562	0.00042051	644.4	8.344e-06	1.4575e-05	711.97	274.56	8.2195e-06	6.8228e-06	334.85	135.07	120.6	54.993	9.1863e-06	66.514	0.0035995	0.0034658	0.00091081	906.71	4.0666e-05	3.8114e-05	933.52	358.8	4.0305e-05	3.7908e-05	461.49	176.9	198.82	67.737	3.6057e-05	84.555	516.706	290.665	365.454	186.967	339.337	380.771	185.547	191.439	443.385	373.751	189.287	193.421	195.280	202.218	281.547	198.490	-8191	255	
5930.251	1	1	0	0	0.052726	0.17668	0.18813	0.026799	0.18858	0.047951	0.20108	0.22891	0.15468	0.096902	0.31703	0.10636	0.088914	0.16927	0.090909	0.10434	-2.6083	-2.9896	-3.2542	-2.9083	-3.1646	-3.1229	-2.9146	-3.2167	-3.0667	-3.0708	-3.1896	-3.15	-3.1562	-3.2708	-2.9625	-3.3812	416.688	306.784	528.966	271.885	462.060	462.778	297.856	461.709	406.817	387.159	467.321	382.514	417.897	515.241	394.481	311.655	0.00081245	0.0022858	0.00029835	644.48	1.2326e-05	8.383e-06	709.27	273.8	4.915e-06	7.3995e-06	334.93	134.77	119.81	54.502	1.7841e-05	65.746	0.0036149	0.0034625	0.00091462	920.6	3.9982e-05	3.7643e-05	931.29	363.61	3.9584e-05	3.7244e-05	461.77	177.73	195.83	67.019	3.6393e-05	84.4	174.037	311.700	253.439	187.026	311.949	259.954	185.483	191.863	472.942	492.829	189.443	193.666	195.495	202.025	250.030	198.483	-8191	255	
5930.324	1	1	0	0	0.29962	0.12259	0.20069	0.44455	0.24805	0.097218	0.20238	0.09609	0.18228	0.11501	0.17262	0.16356	0.12973	0.17751	0.26381	0.04188	-2.5708	-2.9958	-3.1542	-3.2729	-3.0062	-3.2938	-3.2146	-3.2396	-3.1917	-2.9854	-3.4479	-2.9146	-3.125	-3.3063	-2.9625	-3.3063	225.010	265.986	391.513	442.224	412.304	239.779	175.968	188.149	188.708	267.657	517.997	468.294	404.066	523.310	367.597	331.705	0.00078656	0.00091649	0.00024317	643.29	7.1446e-06	9.0318e-06	703.46	271.44	1.7252e-05	2.903e-06	329.14	133.24	118.7	53.816	1.6008e-05	65.132	0.0034822	0.0033621	0.00093064	924.97	3.8823e-05	3.6798e-05	934.22	364.01	3.8761e-05	3.657e-05	464.27	177.3	193.35	66.302	3.8583e-05	84.117	177.400	247.116	214.781	187.238	322.905	403.907	185.773	192.248	348.403	400.612	189.499	193.851	195.367	202.286	228.584	198.596	-8191	255	
5930.445	1	1	0	0	0.065321	0.12307	0.31512	0.16308	0.13439	0.14379	0.20258	0.1172	0.18458	0.10038	0.11975	0.25443	0.21051	0.25931	0.13747	0.19957	-2.7646	-2.7125	-3.2167	-3.0729	-3.0917	-3.1771	-3.1979	-3.25	-3.0521	-3.0146	-3.3854	-3.1104	-2.9625	-3.1917	-2.8688	-3.1583	323.000	262.099	256.714	206.678	414.205	447.710	188.507	453.191	422.382	293.809	482.721	200.529	281.231	463.172	202.430	450.663	0.00067743	0.00072704	0.00047909	641.54	1.1047e-05	1.2284e-05	703.47	272.21	6.2171e-06	3.88e-06	331.23	133.48	118.87	54.208	1.1428e-05	65.494	0.0034481	0.0033337	0.00098686	926.07	3.7943e-05	3.5804e-05	941.86	360.17	3.714e-05	3.5063e-05	467.92	175.21	189.77	65.901	3.884e-05	83.312	518.181	380.031	523.262	187.247	377.981	414.017	185.718	192.004	285.965	307.951	189.488	193.575	195.372	202.068	270.227	198.704	-8191	255	
5930.539	1	1	0	0	0.092773	0.14598	0.059274	0.083454	0.066532	0.23481	0.26453	0.29189	0.059602	0.28701	0.11588	0.12407	0.22275	0.31745	0.15211	0.10186	-2.6104	-2.9458	-3.2062	-3.0958	-3.0104	-3.3458	-3.025	-3.0583	-3.2146	-2.9729	-3.2729	-3.1146	-2.8583	-3.3833	-2.9875	-3.2708	361.585	330.186	424.404	470.700	404.498	265.780	482.941	496.665	510.340	475.634	194.802	480.606	210.254	460.162	372.974	491.398	0.00079901	0.0008453	0.00042804	640.87	1.4417e-05	2.071e-05	707.88	272.68	2.0513e-05	1.7147e-05	334.03	134.03	120.29	54.42	1.1086e-05	65.959	0.0032645	0.003215	0.0010005	911.75	3.6696e-05	3.5658e-05	955.57	358.69	3.6378e-05	3.5768e-05	475.93	175.13	188.45	66.544	4.0009e-05	83.407	516.195	212.121	498.693	187.392	319.455	533.267	185.774	192.221	330.484	277.364	189.615	193.836	195.603	202.142	268.890	198.470	-8191	255	
5930.636	1	1	0	0	0.22507	0.051981	0.14514	0.10505	0.12799	0.069615	0.21971	0.24339	0.22841	0.18992	0.22332	0.18495	0.30112	0.32178	0.26638	0.35635	-2.8771	-2.9958	-3.3063	-3.1562	-2.8583	-3.4729	-2.9938	-3.1437	-3.2854	-2.9062	-3.1396	-3.125	-3.0104	-3.2167	-3.1042	-3.1792	316.999	492.334	241.592	319.096	398.673	231.757	447.728	415.336	178.072	290.919	442.889	502.068	214.291	519.092	344.730	472.788	0.00093137	0.0019998	0.00054781	640.4	1.0049e-05	2.0404e-05	707.97	274.44	1.168e-05	6.1351e-06	336.32	135.22	120.94	55.038	5.2321e-06	66.926	0.003206	0.0033234	0.0010254	905.89	3.5903e-05	3.7137e-05	960.95	356.91	3.4905e-05	3.6431e-05	474.27	173.75	183.92	67.108	3.7988e-05	82.75	521.419	205.595	494.867	187.429	285.244	247.032	185.873	192.024	323.560	246.993	189.848	194.046	195.688	202.125	337.129	198.768	-8191	255	
5930.732	1	1	0	0	0.12829	0.14189	0.037718	0.15575	0.16479	0.17722	0.19202	0.24701	0.12151	0.11987	0.21956	0.21807	0.38545	0.15102	0.21701	0.12241	-2.8521	-2.7667	-2.9146	-3.0708	-3.0625	-3.2146	-3.1625	-2.9938	-3.2083	-2.8063	-3.2958	-3.3146	-2.7792	-3.4542	-3.1521	-3.1396	495.816	394.481	417.168	387.329	324.296	458.800	190.486	448.842	428.995	440.862	499.912	229.665	519.810	507.071	214.967	380.667	0.00087063	0.0011817	9.4467e-05	643.23	8.114e-06	3.7344e-05	708.11	276.55	8.8585e-06	1.1894e-05	335.28	135.04	119.72	54.778	2.5168e-05	66.572	0.0029673	0.0032788	0.00094791	885.1	3.3051e-05	3.6529e-05	942.53	353.35	3.4019e-05	3.8005e-05	471.4	173.22	185.56	67.92	3.803e-05	82.434	523.043	458.169	304.924	187.568	200.028	228.489	185.856	192.034	319.787	243.597	189.744	193.927	194.839	202.048	410.803	198.656	-8191	255	
5930.852	1	1	0	0	0.13176	0.12562	0.12206	0.1702	0.24606	0.10897	0.10478	0.18312	0.12047	0.11612	0.18438	0.060576	0.046785	0.068778	0.21827	0.49723	-2.8688	-3.1437	-3.0604	-3.3583	-2.9542	-3.2583	-3.2542	-3.0708	-3.2458	-2.9271	-3.1625	-3.3479	-3.0104	-3.2812	-3.2687	-3.0667	496.874	409.854	361.971	203.692	302.776	513.973	442.386	182.294	413.386	313.853	337.092	454.074	191.469	434.597	174.655	459.066	0.0011295	0.0012782	0.00025062	643.17	2.3232e-05	1.5428e-05	706.56	275.14	1.8125e-05	2.0925e-05	335.39	134.63	120.63	54.949	7.7255e-06	66.061	0.003076	0.0035009	0.00093833	884.11	3.4039e-05	3.8124e-05	932.99	350.14	3.4241e-05	3.8156e-05	464	171.02	186.56	67.93	3.656e-05	81.706	517.686	418.024	262.587	187.730	255.241	273.805	185.769	191.902	256.161	337.824	189.841	193.997	195.332	202.111	294.322	198.456	-8191	255	
5930.924	1	1	0	0	0.21683	0.1174	0.17655	0.09212	0.19056	0.1264	0.049608	0.15395	0.18188	0.054014	0.1043	0.069918	0.044711	0.16126	0.22487	0.26138	-2.9625	-3.1146	-2.9979	-3.2604	-2.9229	-3.1188	-3.1792	-3.0229	-3.2167	-3.0146	-3.2083	-3.375	-3.0167	-3.4792	-3.1292	-2.9604	459.450	401.974	350.212	459.472	437.078	401.296	521.265	367.013	528.720	533.745	289.552	186.219	476.909	180.136	189.566	484.733	0.00091446	0.0020051	0.000267	644.33	1.7414e-05	1.2895e-05	708.59	275.17	1.3922e-05	1.318e-05	335.82	134.44	119.75	54.943	8.7259e-06	66.299	0.003187	0.0035142	0.00091633	878.14	3.5438e-05	3.8054e-05	928.75	347.99	3.5856e-05	3.787e-05	460.36	169.97	189.37	67.547	3.5273e-05	81.342	516.444	447.497	329.858	187.164	529.547	503.388	185.843	191.891	218.548	372.167	189.691	193.820	195.203	202.191	260.655	198.675	-8191	255	
5931.020	1	1	0	0	0.068512	0.19097	0.25025	0.25881	0.23634	0.08848	0.43463	0.093871	0.34916	0.11905	0.1675	0.16818	0.22635	0.073314	0.25434	0.2785	-2.7562	-2.8812	-2.9896	-3.1875	-3.025	-3.1417	-3.3563	-2.9333	-3.1479	-3.0979	-3.1792	-3.2667	-2.9854	-3.1729	-3.1854	-3.1521	491.605	439.975	290.822	227.129	500.314	459.803	207.128	480.202	299.871	394.392	405.881	248.187	427.569	473.519	477.603	502.872	0.0012396	0.0006884	0.00028058	643.46	1.4169e-05	1.5644e-05	705.78	274.71	7.8261e-06	6.0101e-06	335.01	135.48	120.94	54.654	8.979e-06	66.34	0.0032846	0.0034211	0.00088945	875.66	3.7125e-05	3.7195e-05	926.57	348.48	3.7215e-05	3.6623e-05	456.03	170.46	192.18	67.116	3.4516e-05	81.684	513.051	270.880	335.160	187.408	495.636	341.356	185.956	191.891	205.871	401.250	189.846	193.752	195.125	202.001	296.573	198.477	-8191	255	
5931.141	1	1	0	0	0.089134	0.23614	0.14678	0.08063	0.099763	0.13367	0.24491	0.090181	0.089747	0.10799	0.090496	0.26958	0.14337	0.14618	0.17569	0.17566	-2.7042	-2.9458	-3.0375	-3.2917	-3.1333	-3.1167	-3.0542	-2.9833	-3.1979	-2.9938	-3.1813	-3.4042	-3.2229	-3.2708	-3.3625	-3.0542	271.734	452.247	415.809	502.150	425.392	418.944	205.894	419.555	317.446	248.769	180.981	463.446	507.141	242.276	274.164	458.054	0.0011708	0.0018798	0.00066862	645.65	5.9722e-06	9.4711e-06	709.17	275.98	4.98e-06	1.5308e-05	336.52	135.27	120.7	54.809	2.1381e-05	66.436	0.0033825	0.0033247	0.00087107	880.73	3.7989e-05	3.5975e-05	923.37	351.54	3.7748e-05	3.5557e-05	454.18	171.81	192.54	66.568	3.326e-05	82.326	525.061	268.270	352.295	186.972	339.290	397.860	185.964	191.512	306.264	393.571	189.738	193.697	195.316	202.234	320.853	198.664	-8191	255	
5931.237	1	1	0	0	0.088451	0.13105	0.033932	0.11982	0.21533	0.1989	0.062061	0.053778	0.079619	0.15773	0.12737	0.12995	0.24104	0.19757	0.11628	0.14137	-2.7792	-3.1646	-3.0292	-3.325	-3.0771	-3.2313	-3.3937	-2.9062	-3.1208	-3.1292	-2.9375	-3.5042	-2.9958	-3.0479	-3.1729	-3.0042	254.646	363.324	429.980	436.802	280.385	334.412	477.596	259.823	215.906	356.617	413.653	512.316	437.188	516.722	415.016	500.960	0.00087	0.00070478	0.00047728	645.65	4.1704e-06	2.0726e-05	710.5	275.37	9.5795e-06	1.4394e-05	333.63	135.01	119.84	54.438	1.0168e-05	66.398	0.0033433	0.0032062	0.00084448	891.32	3.7579e-05	3.5401e-05	915.94	354.64	3.7427e-05	3.507e-05	450.58	173.09	190.39	66.269	3.2964e-05	82.749	521.869	242.698	285.574	187.397	479.938	329.289	185.790	191.852	366.919	449.021	189.654	193.809	195.428	202.105	260.641	198.284	-8191	255	
5931.333	1	1	0	0	0.10788	0.27046	0.079343	0.42114	0.15837	0.18322	0.1129	0.13591	0.057207	0.027523	0.34076	0.039278	0.085363	0.29361	0.31829	0.14519	-2.8	-3.3792	-2.8937	-3.3875	-3.0438	-3.2979	-3.2875	-3.2292	-3.3083	-3.0792	-3.1146	-3.3375	-3.0292	-3.0396	-3.3708	-3.0958	235.287	458.321	258.485	176.758	273.047	236.032	433.801	478.148	298.270	500.468	463.587	181.404	234.264	515.753	186.170	508.859	0.00077764	0.0007326	0.00053662	646.06	1.7456e-05	1.6019e-05	703.96	275.83	8.1511e-06	8.8601e-06	333.02	135.85	119.92	54.431	1.3692e-05	66.301	0.0032819	0.0031702	0.00084826	901.43	3.6444e-05	3.433e-05	914.79	356.31	3.5491e-05	3.3293e-05	448.85	173.53	185.78	65.493	3.2492e-05	82.797	522.083	263.922	226.772	187.134	333.515	396.389	185.627	191.781	394.052	393.787	189.708	193.744	195.872	202.175	254.571	198.659	-8191	255	
5931.452	1	1	0	0	0.093551	0.31278	0.29303	0.14049	0.12065	0.11088	0.083537	0.11209	0.098618	0.19133	0.091807	0.30543	0.085818	0.40862	0.050602	0.18403	-2.7792	-3.2333	-2.9875	-3.2979	-3.0771	-3.0083	-3.3875	-3.0146	-3	-3.4167	-3.0146	-3.1688	-3.1833	-2.9958	-3.3771	-3.1979	491.245	235.382	359.801	174.702	336.018	423.437	237.127	489.355	510.764	217.109	478.020	490.680	335.257	462.990	487.343	414.670	0.0011694	0.0015709	0.00054858	644.66	1.0593e-05	7.2591e-06	711.59	274.94	6.7629e-06	6.7938e-06	336.11	134.89	120.43	54.498	1.252e-05	66.663	0.003067	0.0029617	0.000841	896.94	3.4402e-05	3.2635e-05	920.79	356.91	3.462e-05	3.265e-05	457.18	173.99	185.45	65.581	3.484e-05	83.391	529.482	265.078	497.122	187.540	252.107	461.995	185.916	192.358	469.738	399.604	189.574	193.750	195.637	202.334	214.794	198.534	-8191	255	
5931.548	1	1	0	0	0.23497	0.035438	0.029843	0.070279	0.24848	0.18402	0.1765	0.30892	0.19781	0.20345	0.11689	0.10846	0.14108	0.070023	0.17137	0.27155	-2.5938	-3.2125	-2.9	-3.2854	-3.0479	-2.8458	-3.2583	-2.9896	-2.9	-3.2792	-2.975	-3.1479	-3.2104	-3.0458	-3.2708	-3.1208	345.220	416.604	195.271	261.368	522.502	237.513	366.189	492.114	442.484	274.363	426.293	348.972	490.094	363.967	357.862	468.637	0.00065427	0.0019175	0.00026804	645.63	1.3406e-05	2.5066e-05	711.97	274.73	3.2042e-06	1.3996e-05	340.7	137.1	120.92	55.281	6.2484e-06	67.263	0.0030694	0.0029452	0.00089359	897.87	3.3899e-05	3.2025e-05	933.28	354.64	3.3056e-05	3.1737e-05	463.11	173.7	182.95	65.652	3.5286e-05	82.988	518.511	272.349	528.458	187.796	343.762	229.569	185.728	192.040	300.969	305.823	189.618	193.749	195.142	202.313	529.639	198.924	-8191	255	
5931.620	1	1	0	0	0.22149	0.18709	0.16337	0.14207	0.046235	0.27559	0.25075	0.075085	0.19606	0.11244	0.19835	0.1176	0.18714	0.1262	0.076803	0.14325	-2.4854	-3.2458	-2.9021	-3.0729	-2.9771	-2.9667	-3.4458	-3.1229	-2.975	-3.3063	-3.0292	-3.0771	-3.1771	-3.0917	-3.1083	-3.3167	432.205	318.032	522.215	174.541	411.201	208.416	457.928	470.354	500.957	364.189	522.256	502.235	185.332	184.770	285.091	465.510	0.00098198	0.00085912	0.00054636	646.56	1.6039e-05	1.3793e-05	718.02	277.86	1.5127e-05	7.0818e-06	341.88	137.04	122.09	55.461	4.6431e-06	67.531	0.0029317	0.0029205	0.00090859	887.08	3.2704e-05	3.2376e-05	944.09	354.44	3.2399e-05	3.246e-05	468.53	173.22	181.05	66.16	3.5304e-05	82.491	530.324	511.467	215.803	187.627	309.074	214.518	185.790	192.023	385.904	265.153	189.504	194.168	195.212	202.049	303.511	198.558	-8191	255	
5931.740	1	1	0	0	0.34769	0.083934	0.17434	0.22768	0.12939	0.051157	0.11051	0.18086	0.31464	0.19844	0.33135	0.15988	0.10689	0.093237	0.097923	0.25844	-2.5438	-3.2458	-2.8854	-3.1146	-3.375	-3.0187	-3.3167	-3.1937	-2.9146	-3.3021	-3.0521	-2.9104	-3.2146	-3.0896	-3.0667	-3.2771	450.797	395.348	516.473	481.792	235.217	264.247	405.835	513.292	523.356	516.665	184.307	389.230	452.818	330.579	392.645	432.599	0.00082772	0.0017864	0.00059416	650.07	1.2946e-05	1.5376e-05	713.41	279.37	2.4294e-06	3.428e-05	341.64	137.06	120.37	55.313	1.9518e-05	67.086	0.0028006	0.0029731	0.0009008	878.47	3.1575e-05	3.3563e-05	940.27	352.83	3.1831e-05	3.4249e-05	467.68	172.5	180.4	66.911	3.5283e-05	82.146	519.109	489.129	324.493	187.045	259.069	252.919	185.943	191.844	316.243	258.284	189.508	193.720	195.080	202.045	328.264	198.458	-8191	255	
5931.837	1	1	0	0	0.26195	0.044078	0.23977	0.216	0.14469	0.087742	0.044607	0.058578	0.12532	0.066119	0.19269	0.12569	0.039835	0.15731	0.052134	0.14175	-2.5896	-3.3146	-3.0417	-3.0417	-3.325	-2.8875	-3.2583	-3.1729	-2.9333	-3.1375	-3.2417	-3.1625	-3.3396	-3.2042	-3.0917	-3.2062	283.772	343.056	376.446	450.291	326.433	485.409	350.656	226.822	422.810	279.268	516.965	212.296	402.348	185.361	374.847	438.317	0.00092117	0.0018648	0.0007233	646.64	6.8042e-06	9.3325e-06	713.69	276.51	3.795e-06	9.7079e-06	339.01	137.42	121.35	55.307	6.7527e-06	67.271	0.0027876	0.0031266	0.00087719	870.69	3.0808e-05	3.4208e-05	926.69	347.17	3.0602e-05	3.4076e-05	457.33	169.68	178.3	66.845	3.3047e-05	81.187	522.001	513.641	318.446	187.252	282.483	507.402	185.751	191.745	278.911	428.704	189.495	193.764	194.825	202.158	304.044	198.423	-8191	255	
5931.933	1	1	0	0	0.22606	0.039119	0.33812	0.10545	0.10318	0.22898	0.27768	0.09912	0.24092	0.043507	0.13994	0.20799	0.093767	0.32952	0.28227	0.19738	-2.5146	-3.2021	-3.1146	-3.1896	-3.3417	-3.1083	-3.1417	-3.3063	-3.0042	-3.275	-3.2479	-2.9521	-3.3917	-3.2146	-2.9813	-3.2792	359.173	489.399	317.701	519.124	241.464	296.668	422.869	411.967	356.971	346.903	426.937	529.059	432.124	468.798	482.579	459.332	0.00082634	0.0016906	0.00034853	648.82	5.7567e-06	1.4579e-05	714.28	278.42	5.8444e-06	1.7039e-05	343.64	137.15	121.99	55.564	8.6527e-06	67.153	0.0027228	0.0030747	0.00080858	854.18	2.9861e-05	3.3057e-05	908.99	342.36	2.9939e-05	3.2907e-05	449.35	167.6	177.58	66.389	3.0267e-05	80.202	529.473	418.105	322.615	186.906	196.465	278.742	185.864	191.977	179.623	241.463	189.571	193.650	195.329	202.278	403.394	198.579	-8191	255	
5932.029	1	1	0	0	0.11231	0.19607	0.22911	0.07357	0.038853	0.27727	0.085033	0.19674	0.06436	0.072036	0.095288	0.027417	0.13906	0.2856	0.096035	0.063624	-2.3833	-3.2438	-3.1146	-2.8688	-3.2604	-3.0271	-3.0896	-3.2979	-2.9917	-3.1958	-3.3375	-2.9667	-3.1937	-3.0667	-3.0687	-3.4104	495.171	357.663	409.008	506.026	287.435	519.311	389.491	183.553	286.766	188.477	367.719	394.788	233.387	508.506	287.836	467.546	0.0013042	0.00047672	0.00012447	648.45	8.6498e-06	1.2031e-05	714.86	278.29	1.9871e-06	1.174e-05	341.9	137.65	121.71	55.565	1.627e-05	68.112	0.0027015	0.0029454	0.00077162	845.36	3.0894e-05	3.2555e-05	906.7	342.02	3.1741e-05	3.2686e-05	449.2	168.37	182.61	66.485	3.0748e-05	81.018	514.370	234.214	299.289	187.186	180.458	298.192	185.895	191.809	227.010	446.750	189.963	193.552	195.206	202.048	345.086	198.700	-8191	255	
5932.125	1	1	0	0	0.21066	0.09124	0.039531	0.19202	0.14112	0.20154	0.29959	0.35755	0.10794	0.24246	0.27634	0.11691	0.14784	0.20741	0.15974	0.27551	-2.5875	-2.9958	-3.0687	-2.9708	-3.3438	-3.0458	-3.1708	-3.2896	-3.0771	-3.0729	-3.2771	-2.9292	-3.1937	-3.1688	-2.9625	-3.4104	242.863	356.820	465.790	408.630	424.747	183.395	435.075	449.846	404.691	329.556	509.484	424.523	415.423	467.565	409.767	199.548	0.0011585	0.002926	0.00050729	649.3	1.6722e-05	6.3186e-06	716.68	279.89	1.3337e-05	1.0489e-05	343.73	138.55	122.93	55.929	1.7376e-05	68.08	0.0029395	0.0029998	0.00078392	855.8	3.3611e-05	3.3074e-05	911.99	346.71	3.4084e-05	3.2917e-05	452.67	171.02	187.72	66.859	3.1053e-05	82.128	509.034	300.491	307.378	187.278	514.116	290.993	185.705	191.849	209.311	419.061	190.078	193.702	195.087	202.004	350.438	198.354	-8191	255	
5932.221	1	1	0	0	0.040289	0.082954	0.32788	0.1144	0.12911	0.13431	0.17941	0.093431	0.19162	0.15676	0.14123	0.029654	0.11273	0.13626	0.27695	0.17267	-2.5708	-3.0312	-3.0812	-2.9896	-3.1833	-3.1854	-3.0417	-3.2479	-2.8646	-3.0958	-3.3833	-3.0438	-3.0729	-3.1583	-2.8875	-3.2125	237.474	348.168	228.344	452.763	395.854	533.087	508.412	218.555	400.403	319.422	465.048	508.828	394.912	205.358	225.531	237.240	0.00099136	0.00043684	0.00037522	650.46	1.0539e-05	2.1362e-05	716.86	278.78	8.1568e-06	7.413e-06	341.41	137.42	121.61	55.336	2.0593e-05	67.475	0.0031266	0.0030199	0.00079503	872.07	3.5443e-05	3.3528e-05	913.62	351.48	3.5574e-05	3.3291e-05	450.94	172.4	188.83	66.299	3.1049e-05	82.422	514.923	285.335	301.666	187.132	449.363	346.367	186.043	191.941	211.599	229.327	189.700	193.303	195.110	202.110	300.921	198.463	-8191	255	
5932.317	1	1	0	0	0.27045	0.24943	0.25792	0.097941	0.25395	0.13971	0.20279	0.40077	0.1914	0.11951	0.033911	0.18762	0.19616	0.14425	0.14093	0.27331	-2.6479	-2.975	-3.1146	-2.9313	-3.1167	-3.3187	-3.1188	-3.3875	-2.9229	-3.1063	-3.4042	-3.125	-3.2771	-3.1167	-2.8292	-3.3333	181.456	391.920	404.251	476.406	287.458	201.988	429.368	493.222	339.944	256.154	346.323	500.197	240.852	519.659	265.861	439.853	0.00071307	5.476e-05	0.00046224	649.65	1.0537e-05	1.6341e-05	714.61	278.18	1.1975e-05	6.3738e-06	341.71	136.59	121.62	55.128	7.1731e-06	67.321	0.0031051	0.0029453	0.00077089	877.11	3.3757e-05	3.175e-05	898.08	351.01	3.3458e-05	3.1388e-05	443.8	172.42	184.94	65.653	3.1073e-05	83.02	533.510	474.634	356.541	187.135	292.803	442.132	185.804	191.663	320.958	303.427	189.338	193.754	195.640	201.971	284.990	198.584	-8191	255	
5932.414	1	1	0	0	0.18708	0.12093	0.044812	0.20877	0.25429	0.25829	0.15481	0.0834	0.21934	0.06758	0.30892	0.16942	0.12859	0.13493	0.10046	0.39762	-2.4896	-3.0062	-3.15	-3.0333	-3.0938	-3.1375	-3.0667	-3.1729	-3.1188	-2.8208	-3.1417	-3.0375	-3.0083	-3.4833	-2.9625	-3.3583	226.597	221.245	211.592	532.842	303.120	386.654	458.221	417.843	424.571	372.292	521.244	444.386	219.352	414.661	274.088	501.395	0.00071829	0.001213	0.00026718	644.83	1.1543e-05	2.0531e-05	715.51	278.48	8.8181e-06	8.3639e-06	340.62	137.11	121.18	55.368	2.1195e-05	67.462	0.0030885	0.0029767	0.00081032	895.26	3.4346e-05	3.2362e-05	913.46	356.93	3.3799e-05	3.1866e-05	453.02	175.11	185.1	65.967	3.305e-05	83.954	195.196	324.325	362.037	187.146	332.698	373.773	185.764	191.853	407.777	415.954	189.527	193.625	195.246	202.180	230.135	198.542	-8191	255	
5932.532	1	1	0	0	0.10834	0.098251	0.041392	0.21756	0.13237	0.32639	0.14957	0.32757	0.14962	0.27771	0.0489	0.23814	0.09833	0.17125	0.072314	0.081739	-2.6583	-2.9562	-3.1437	-3.0771	-3.1083	-3.35	-2.8688	-3.2896	-3.2208	-2.8854	-3.2938	-3.0812	-3.1104	-3.2167	-2.7417	-3.1708	477.879	191.325	273.873	473.875	374.838	391.866	427.163	419.366	479.225	286.615	402.725	400.407	525.709	496.892	427.507	480.589	0.00077293	0.0017536	0.00015214	649.29	7.8614e-06	8.5588e-06	717.76	277.81	9.7234e-06	4.5824e-06	341.86	138.46	122.5	55.512	1.8416e-05	67.739	0.0030471	0.0029499	0.00085932	902.83	3.4077e-05	3.2067e-05	927.55	357.27	3.3018e-05	3.0937e-05	458.67	174.99	182.51	65.718	3.3718e-05	83.719	530.768	310.043	425.337	187.190	335.875	337.570	185.598	191.936	326.697	356.960	189.755	193.891	195.024	202.189	217.563	198.524	-8191	255	
5932.629	1	1	0	0	0.058234	0.26179	0.04757	0.15262	0.20557	0.12108	0.15206	0.30695	0.18979	0.20491	0.13585	0.062422	0.13634	0.40329	0.06547	0.16188	-2.6167	-2.9667	-3.2292	-3.1958	-3.1667	-3.4083	-3.0312	-3.2875	-3.0833	-2.7521	-3.4021	-3.1083	-3.0896	-3.275	-3	-3.1937	526.336	253.048	297.224	513.451	273.944	363.399	188.717	504.609	327.589	379.605	509.518	482.168	456.397	462.187	192.331	188.384	0.00084136	0.00061327	5.7417e-05	654.85	1.0306e-05	1.5633e-05	719.73	279.2	1.2116e-05	1.1879e-05	342.83	138.08	121.43	55.699	9.7961e-06	67.895	0.0029345	0.0028654	0.00088568	895.73	3.3164e-05	3.1756e-05	939.86	355.99	3.2696e-05	3.1196e-05	465.72	173.99	180.85	65.9	3.4513e-05	82.889	524.614	241.146	430.058	187.388	375.787	309.041	185.823	191.957	351.379	239.022	189.764	193.743	194.985	201.787	284.878	198.541	-8191	255	
5932.725	1	1	0	0	0.14054	0.13696	0.11445	0.099426	0.072462	0.19482	0.22052	0.09203	0.075971	0.059638	0.13403	0.21706	0.22611	0.10669	0.31976	0.21331	-2.7625	-2.8021	-3.1729	-3.3375	-3.0438	-3.2958	-3.0687	-3.1208	-3.2562	-2.9583	-3.3375	-3.3187	-2.9188	-3.475	-2.9729	-3.1271	259.925	346.422	366.837	505.593	437.687	405.569	513.488	198.751	315.071	506.088	244.851	530.743	383.187	498.227	387.062	531.048	0.00098679	0.0013045	0.00024248	648.07	9.6182e-06	1.3504e-05	714.5	279.43	8.8793e-06	2.6426e-05	343.2	138.43	122.38	55.553	1.5329e-05	67.853	0.0027793	0.002822	0.00087644	874.5	3.0961e-05	3.138e-05	932.3	351.05	3.082e-05	3.1899e-05	464.31	172.26	178.45	66.09	3.4232e-05	81.966	533.307	473.499	241.999	187.578	265.993	206.397	185.810	191.543	286.893	221.815	189.688	193.875	194.981	201.802	380.770	198.436	-8191	255	
5932.821	1	1	0	0	0.084473	0.11422	0.18998	0.19519	0.147	0.13822	0.18137	0.39396	0.10236	0.29025	0.14211	0.081792	0.11976	0.23791	0.23447	0.30559	-3.0167	-2.8542	-3.0542	-3.2021	-3.0458	-3.1312	-3.1625	-2.9854	-3.2083	-2.9313	-3.2083	-3.2875	-2.8563	-3.3208	-3.2396	-3.2542	261.644	469.440	331.791	220.240	230.804	267.086	424.862	436.042	301.365	216.300	180.219	489.563	318.159	438.018	445.060	446.854	0.00097592	0.0011652	0.00034861	646.64	3.7355e-06	2.4994e-05	711.56	277.36	9.0848e-06	1.4719e-05	339.15	137.29	121.95	54.956	8.0771e-06	67.103	0.0026876	0.0029054	0.00085245	862.9	2.9459e-05	3.1961e-05	920.27	345.83	2.9389e-05	3.2197e-05	455.81	169.87	175.74	65.976	3.3037e-05	80.797	178.926	214.840	297.297	187.475	440.710	202.495	185.682	191.893	351.423	208.873	189.650	194.061	195.018	202.151	322.565	198.339	-8191	255	
5932.917	1	1	0	0	0.20077	0.28616	0.14345	0.12089	0.29348	0.29556	0.0615	0.023883	0.13964	0.025014	0.092049	0.13843	0.12839	0.1987	0.10116	0.23512	-2.7979	-2.9417	-3.0563	-3.0458	-2.9062	-3.175	-3.1167	-2.9437	-3.1229	-2.9667	-3.1708	-3.1604	-2.9	-3.275	-3.0625	-3.0729	427.517	199.498	283.721	181.334	190.128	320.845	378.940	219.536	338.113	402.575	412.483	187.430	214.461	521.094	181.252	495.506	0.0010209	0.00104	0.00018333	646.5	4.8698e-06	1.7536e-05	705.17	276.79	1.5253e-05	1.0641e-05	340.13	136.28	120.76	54.892	8.7491e-06	66.431	0.0026439	0.0030308	0.00082998	856.77	2.9692e-05	3.3363e-05	909.16	341.96	2.949e-05	3.3017e-05	448.26	167.21	175.52	65.68	3.1394e-05	79.73	520.492	477.094	370.836	187.234	284.365	252.986	185.982	191.890	264.135	222.353	190.023	193.848	195.195	202.133	401.201	198.758	-8191	255	
5933.013	1	1	0	0	0.16539	0.23727	0.26245	0.21576	0.12449	0.18152	0.062611	0.16149	0.097459	0.15387	0.18194	0.11382	0.28613	0.34285	0.27921	0.2291	-3.0292	-2.775	-2.9333	-3.3292	-2.7854	-3.1771	-3.2104	-3.1479	-3.4042	-2.9875	-3.1479	-3.2896	-3.0354	-3.2354	-3.0521	-3.0229	281.388	452.009	202.474	346.006	485.314	522.759	463.712	459.558	188.596	293.398	236.745	197.119	437.270	455.964	379.035	503.461	0.0012084	0.0017014	0.00057551	644.61	1.257e-05	1.2781e-05	708.48	274.39	7.7684e-06	3.6833e-06	335.15	135.67	120.93	54.558	6.4364e-06	66.444	0.0026946	0.0030744	0.0008077	852.21	3.1052e-05	3.4181e-05	908.12	340.51	3.1299e-05	3.3575e-05	445.59	166.39	178.78	65.568	3.0818e-05	79.545	508.848	218.463	318.823	187.203	183.276	369.161	185.757	192.063	316.495	469.385	189.810	194.018	194.865	202.325	361.256	198.524	-8191	255	
5933.134	1	1	0	0	0.11759	0.14612	0.21887	0.058661	0.047192	0.34116	0.11583	0.08325	0.033042	0.14191	0.11932	0.11078	0.1769	0.20427	0.19298	0.13879	-2.7687	-2.8312	-2.95	-3.2292	-2.8833	-3.1312	-3.1708	-2.975	-3.1417	-3.1646	-3.1	-3.2875	-2.9208	-3.05	-3.175	-2.9208	393.097	464.860	364.010	216.449	253.077	349.696	424.308	514.443	187.659	519.926	450.134	520.812	477.376	522.397	268.768	450.686	0.0010055	0.0010889	0.00033328	645.67	6.8821e-06	2.5646e-05	711.27	277.44	2.1567e-05	1.485e-05	341.18	137.07	120.21	54.865	5.2555e-06	66.846	0.002826	0.0030334	0.00079178	848.91	3.2586e-05	3.3521e-05	907.58	341.72	3.2832e-05	3.2991e-05	447.25	167.4	181.88	65.419	2.9601e-05	79.523	510.423	274.563	291.054	187.329	478.541	332.023	185.814	191.766	252.256	408.733	189.620	193.650	195.293	202.157	336.564	198.374	-8191	255	
5933.230	1	1	0	0	0.091099	0.31423	0.12873	0.22048	0.21092	0.095211	0.12437	0.083166	0.18556	0.12927	0.34262	0.082419	0.15149	0.16959	0.15616	0.26184	-2.7062	-3.0167	-2.8958	-3.2833	-2.95	-3.0875	-3.1875	-2.9229	-3.3458	-3.2583	-3.0167	-3.2333	-2.8292	-3.1125	-3.0542	-2.725	431.944	267.702	382.028	474.267	364.979	358.516	426.473	454.561	423.581	455.743	410.789	293.847	500.079	525.948	386.412	454.863	0.0010234	0.0018753	0.00045776	646.38	3.0404e-06	1.0518e-05	708.31	274.81	1.0535e-05	1.0861e-05	337.07	136.58	121.51	54.692	1.4118e-05	66.556	0.002848	0.0028257	0.00074093	841.82	3.2351e-05	3.1208e-05	891.43	340.46	3.3034e-05	3.1484e-05	440.92	168.04	183.86	65.089	2.9466e-05	80.123	511.375	329.628	369.820	187.181	299.806	371.479	185.780	191.706	209.918	416.333	189.604	193.794	195.173	202.112	371.888	198.503	-8191	255	
5933.324	1	1	0	0	0.31004	0.10162	0.12869	0.16512	0.23865	0.37053	0.047008	0.2506	0.24431	0.17711	0.10128	0.35325	0.16526	0.22524	0.055804	0.33143	-2.7833	-2.9833	-2.9354	-3.125	-2.9604	-3.0438	-3.1875	-2.9313	-3.0708	-3.0187	-3.0854	-3.4375	-3.0125	-3.1229	-3.2	-3.0125	511.990	476.241	284.213	491.799	241.901	336.770	254.926	247.989	259.935	331.054	266.635	496.559	183.465	183.736	328.999	472.786	0.00093781	0.0010617	0.00026026	644.79	9.433e-06	9.3121e-06	711.87	276.6	5.7144e-06	1.8281e-05	339.28	136.54	120.38	54.587	3.1969e-06	66.679	0.002965	0.0028421	0.00074592	857.12	3.3044e-05	3.096e-05	889.38	344.32	3.268e-05	3.0681e-05	437.19	169.12	182.41	64.805	2.9033e-05	80.959	520.218	287.713	391.236	187.123	303.363	424.526	185.629	192.019	459.830	407.616	189.816	193.519	194.865	202.136	278.196	198.620	-8191	255	
5933.420	1	1	0	0	0.10973	0.25059	0.11499	0.065428	0.21368	0.17557	0.2174	0.073594	0.075303	0.053014	0.0947	0.17541	0.1374	0.15846	0.12458	0.15175	-2.5896	-3.0146	-2.9125	-3.2812	-3.0812	-3.0375	-3.1979	-3.0312	-3.1958	-3.1479	-2.9125	-3.1583	-3.0417	-2.7771	-3.0625	-3.0854	276.699	352.576	373.976	238.225	191.792	248.064	454.477	320.822	508.819	366.677	280.683	507.880	200.077	428.984	235.377	501.061	0.00088015	0.00062106	0.00011688	643.58	6.7684e-06	1.1576e-05	711.78	274.62	1.011e-05	1.5313e-05	338.44	136.78	121.32	54.759	2.2486e-05	66.702	0.0029137	0.0027918	0.00074157	867.92	3.2278e-05	3.0396e-05	890.9	347.19	3.1961e-05	2.9939e-05	438.89	170.89	180.1	64.56	2.901e-05	81.457	529.268	331.458	285.223	187.032	285.230	295.324	185.747	191.772	423.163	399.944	189.774	193.818	195.271	202.081	217.357	198.398	-8191	255	
5933.517	1	1	0	0	0.16984	0.20354	0.16346	0.1562	0.092758	0.12867	0.35349	0.16539	0.14577	0.32682	0.19385	0.15943	0.04903	0.163	0.1836	0.11663	-2.6729	-3.2271	-2.9271	-3.2479	-3.0625	-2.8167	-3.2729	-2.9292	-2.8458	-3.225	-2.9083	-3.1833	-2.9271	-2.9729	-3.2687	-3.1292	525.004	386.218	251.291	182.701	450.851	453.613	479.946	371.368	435.015	321.088	253.623	469.641	317.721	519.476	196.600	504.085	0.00097862	0.001273	0.00035946	646.56	1.7921e-05	2.013e-05	715.77	276.76	1.4713e-05	1.3733e-05	339.48	137.07	121.21	54.884	2.3686e-05	67.319	0.0027659	0.002665	0.00074673	871.56	3.0952e-05	2.9393e-05	899.13	348.96	3.1102e-05	2.9345e-05	444.74	171.64	178.25	64.463	3.072e-05	82.045	531.730	396.017	224.710	186.989	325.695	343.231	185.791	191.614	353.428	397.567	189.413	193.937	194.988	202.203	251.184	198.679	-8191	255	
#DATA ENDS
