BOXY.EXE: ISS Imagent and Oximeter Data Acquisition Program Version 0.80
Ascii Record File

#ACQ INFORMATION
2  Detector Channels 
16  External MUX Channels 
1  Auxiliary Channels 
5000  Waveform (CCF) Frequency (Hz)
1  Waveforms Skipped 
30  Waveforms Averaged 
1  Cycles Averaged 
16  Acquisitions per Waveform 
10.0806  Updata Rate (Hz) 

#FILE INFORMATION
TRUE -- External MUX Channel results are PARSED.
FALSE -- AC DC and Phase are NOT grouped.
TRUE -- Companion Program Settings File CREATED.
FALSE -- AC data not excluded
FALSE -- DC data not excluded
FALSE -- Phase data not excluded
FALSE -- Auxillary Chn. data not excluded
Tab delimiters

#CALIBRATION STATE
TRUE -- Waveform Calibration Values APPLIED.


#AUX CALIBRATION VALUES
Val Type	aux-1	

Term	1.0000e+00	
Factor	0.0000e+00	


#WF CALIBRATION VALUES
A = Detector Channel
Val Type	A-AC1	A-AC2	A-AC3	A-AC4	A-AC5	A-AC6	A-AC7	A-AC8	A-AC9	A-AC10	A-AC11	A-AC12	A-AC13	A-AC14	A-AC15	A-AC16	A-DC1	A-DC2	A-DC3	A-DC4	A-DC5	A-DC6	A-DC7	A-DC8	A-DC9	A-DC10	A-DC11	A-DC12	A-DC13	A-DC14	A-DC15	A-DC16	A-Ph1	A-Ph2	A-Ph3	A-Ph4	A-Ph5	A-Ph6	A-Ph7	A-Ph8	A-Ph9	A-Ph10	A-Ph11	A-Ph12	A-Ph13	A-Ph14	A-Ph15	A-Ph16	

Term	0.00000e+00	0.00000e+00	0.00000e+00	0.00000e+00	0.00000e+00	0.00000e+00	0.00000e+00	0.00000e+00	0.00000e+00	0.00000e+00	0.00000e+00	0.00000e+00	0.00000e+00	0.00000e+00	0.00000e+00	0.00000e+00	0.00000e+00	0.00000e+00	0.00000e+00	0.00000e+00	0.00000e+00	0.00000e+00	0.00000e+00	0.00000e+00	0.00000e+00	0.00000e+00	0.00000e+00	0.00000e+00	0.00000e+00	0.00000e+00	0.00000e+00	0.00000e+00	0.00000e+00	0.00000e+00	0.00000e+00	0.00000e+00	0.00000e+00	0.00000e+00	0.00000e+00	0.00000e+00	0.00000e+00	0.00000e+00	0.00000e+00	0.00000e+00	0.00000e+00	0.00000e+00	0.00000e+00	0.00000e+00	
Factor	1.00000e+00	1.00000e+00	1.00000e+00	1.00000e+00	1.00000e+00	1.00000e+00	1.00000e+00	1.00000e+00	1.00000e+00	1.00000e+00	1.00000e+00	1.00000e+00	1.00000e+00	1.00000e+00	1.00000e+00	1.00000e+00	1.00000e+00	1.00000e+00	1.00000e+00	1.00000e+00	1.00000e+00	1.00000e+00	1.00000e+00	1.00000e+00	1.00000e+00	1.00000e+00	1.00000e+00	1.00000e+00	1.00000e+00	1.00000e+00	1.00000e+00	1.00000e+00	X	X	X	X	X	X	X	X	X	X	X	X	X	X	X	X	

B = Detector Channel
Val Type	B-AC1	B-AC2	B-AC3	B-AC4	B-AC5	B-AC6	B-AC7	B-AC8	B-AC9	B-AC10	B-AC11	B-AC12	B-AC13	B-AC14	B-AC15	B-AC16	B-DC1	B-DC2	B-DC3	B-DC4	B-DC5	B-DC6	B-DC7	B-DC8	B-DC9	B-DC10	B-DC11	B-DC12	B-DC13	B-DC14	B-DC15	B-DC16	B-Ph1	B-Ph2	B-Ph3	B-Ph4	B-Ph5	B-Ph6	B-Ph7	B-Ph8	B-Ph9	B-Ph10	B-Ph11	B-Ph12	B-Ph13	B-Ph14	B-Ph15	B-Ph16	

Term	0.00000e+00	0.00000e+00	0.00000e+00	0.00000e+00	0.00000e+00	0.00000e+00	0.00000e+00	0.00000e+00	0.00000e+00	0.00000e+00	0.00000e+00	0.00000e+00	0.00000e+00	0.00000e+00	0.00000e+00	0.00000e+00	0.00000e+00	0.00000e+00	0.00000e+00	0.00000e+00	0.00000e+00	0.00000e+00	0.00000e+00	0.00000e+00	0.00000e+00	0.00000e+00	0.00000e+00	0.00000e+00	0.00000e+00	0.00000e+00	0.00000e+00	0.00000e+00	-1.03364e+02	-1.28589e+02	-1.22771e+02	-1.82799e+02	-5.29327e+01	-6.36955e+01	-1.54998e+02	-1.62015e+02	-5.44320e+01	-6.23480e+01	-1.71853e+02	-1.69414e+02	-1.80018e+02	-1.77411e+02	-5.74280e+01	-1.48938e+02	
Factor	1.60856e-05	1.42380e-04	4.19562e-05	1.84207e-01	1.34200e-06	1.50499e-06	1.63323e-01	4.88771e-02	1.25689e-06	1.78350e-06	9.25773e-02	2.71365e-02	2.66344e-02	8.67124e-03	1.27850e-06	1.23973e-02	7.02452e-06	9.64614e-06	2.71299e-06	9.29001e-02	1.02271e-07	1.07808e-07	7.77924e-02	2.48455e-02	1.01700e-07	1.07589e-07	4.55974e-02	1.35142e-02	1.37367e-02	4.44083e-03	1.04084e-07	6.15744e-03	X	X	X	X	X	X	X	X	X	X	X	X	X	X	X	X	



#DISTANCE SETTINGS
A = Detector Channel
A-1	A-2	A-3	A-4	A-5	A-6	A-7	A-8	A-9	A-10	A-11	A-12	A-13	A-14	A-15	A-16	

2.5000e+00	3.0000e+00	2.5000e+00	3.0000e+00	2.0000e+00	3.0000e+00	1.5000e+00	3.0000e+00	3.0000e+00	3.0000e+00	3.0000e+00	3.0000e+00	3.0000e+00	3.0000e+00	1.5000e+00	3.0000e+00	

B = Detector Channel
B-1	B-2	B-3	B-4	B-5	B-6	B-7	B-8	B-9	B-10	B-11	B-12	B-13	B-14	B-15	B-16	

1.0000e+01	1.0000e+01	1.0000e+01	1.4400e+00	1.0000e+01	1.0000e+01	1.5100e+00	1.9400e+00	1.0000e+01	1.0000e+01	1.9900e+00	2.4900e+00	2.4100e+00	2.9000e+00	1.0000e+01	2.9800e+00	




#DATA BEGINS
time	group	step	mark	flag	A-AC1	A-AC2	A-AC3	A-AC4	A-AC5	A-AC6	A-AC7	A-AC8	A-AC9	A-AC10	A-AC11	A-AC12	A-AC13	A-AC14	A-AC15	A-AC16	A-DC1	A-DC2	A-DC3	A-DC4	A-DC5	A-DC6	A-DC7	A-DC8	A-DC9	A-DC10	A-DC11	A-DC12	A-DC13	A-DC14	A-DC15	A-DC16	A-Ph1	A-Ph2	A-Ph3	A-Ph4	A-Ph5	A-Ph6	A-Ph7	A-Ph8	A-Ph9	A-Ph10	A-Ph11	A-Ph12	A-Ph13	A-Ph14	A-Ph15	A-Ph16	B-AC1	B-AC2	B-AC3	B-AC4	B-AC5	B-AC6	B-AC7	B-AC8	B-AC9	B-AC10	B-AC11	B-AC12	B-AC13	B-AC14	B-AC15	B-AC16	B-DC1	B-DC2	B-DC3	B-DC4	B-DC5	B-DC6	B-DC7	B-DC8	B-DC9	B-DC10	B-DC11	B-DC12	B-DC13	B-DC14	B-DC15	B-DC16	B-Ph1	B-Ph2	B-Ph3	B-Ph4	B-Ph5	B-Ph6	B-Ph7	B-Ph8	B-Ph9	B-Ph10	B-Ph11	B-Ph12	B-Ph13	B-Ph14	B-Ph15	B-Ph16	aux-1	digaux	

11001.805	1	1	0	768	0.059152	0.28186	0.087618	0.27904	0.15741	0.09224	0.1035	0.26591	0.24272	0.14897	0.084115	0.24071	0.22973	0.1681	0.31061	0.19931	-2.8375	-3.1	-2.9688	-3.5125	-3.1	-3.1104	-3.5312	-3.225	-3.3729	-3.2167	-3.3667	-3.5438	-2.95	-3.2687	-3.4	-3.1375	93.904	92.777	-4.873	205.997	23.387	-81.371	103.956	-123.031	149.228	19.828	104.382	198.799	218.358	101.089	-22.835	-14.241	0.00027551	0.00054895	0.00019955	1375.7	3.9758e-06	4.8529e-06	1366.2	369.55	2.5309e-06	4.3477e-06	423.8	140.14	121.83	42.256	1.6386e-06	52.249	0.00051396	0.00056617	0.00015953	1384.2	6.272e-06	6.2502e-06	1382	374.79	6.3734e-06	6.2821e-06	427.8	143.19	124.83	43.038	6.4498e-06	53.274	226.338	-27.979	-52.726	-114.049	28.390	38.079	-113.929	-109.680	-29.000	70.199	-110.258	-105.905	-105.227	-100.854	48.569	-100.910	-8191	255	
11001.901	1	1	0	0	0.084152	0.098155	0.19093	0.22384	0.10254	0.1129	0.15954	0.26509	0.27334	0.10973	0.087347	0.17463	0.1216	0.081895	0.29653	0.11491	-2.7938	-3.2917	-3.0187	-3.4188	-3.0604	-3.2354	-3.4437	-3.2687	-3.35	-3.2167	-3.2687	-3.4958	-3.0812	-3.25	-3.0771	-3.1354	-12.318	177.958	231.189	216.731	14.565	7.832	-70.831	127.239	97.442	78.526	-53.256	193.931	198.160	-127.049	71.010	180.850	0.00027842	0.00062882	0.00010515	1374.3	3.6401e-06	3.4261e-06	1365.3	368.86	2.6977e-06	4.2822e-06	423.75	139.69	121.21	42.153	3.8108e-06	52.183	0.00052125	0.00057811	0.00016348	1385.3	6.2699e-06	6.3901e-06	1379.6	374.44	6.3683e-06	6.3514e-06	428.25	143.16	124.36	42.853	6.3155e-06	53.185	230.446	-51.802	-26.100	-114.135	2.502	44.007	-114.026	-109.388	35.461	22.089	-110.140	-105.866	-105.279	-100.853	9.603	-101.384	-8191	255	
11001.998	1	1	0	0	0.15186	0.11276	0.063249	0.23331	0.26026	0.067988	0.18349	0.30356	0.0062312	0.0079451	0.090384	0.049353	0.2343	0.28567	0.14684	0.19961	-2.825	-3.075	-2.9813	-3.4833	-3.2896	-3.3458	-3.7396	-3.0521	-3.5	-3.1437	-3.1771	-3.3521	-3.0667	-3.1146	-3.3979	-3.1271	82.570	186.916	-14.967	-111.079	52.376	-85.848	194.867	185.873	-70.151	69.506	199.556	84.625	210.103	-112.450	-18.624	180.154	0.00027595	0.00030148	0.00014699	1375.7	2.9912e-06	2.9161e-06	1366	370.86	3.1225e-06	2.3683e-06	422.42	140.21	121.59	42.307	4.4117e-06	51.912	0.00053587	0.00058056	0.0001651	1383.6	6.4384e-06	6.36e-06	1381.4	374.68	6.2531e-06	6.4986e-06	427.4	143.05	124.22	42.984	6.3461e-06	53.07	227.406	-37.987	-51.783	-114.057	7.668	19.082	-113.979	-109.549	20.842	5.883	-110.071	-105.692	-105.307	-100.519	48.288	-101.164	-8191	255	
11002.094	1	1	0	0	0.19359	0.099717	0.14408	0.047178	0.20539	0.14982	0.15034	0.21016	0.011822	0.12099	0.034556	0.2155	0.20837	0.21535	0.079446	0.06987	-2.7687	-3.2562	-3.1104	-3.45	-3.0833	-3.2771	-3.4625	-3.0146	-2.9917	-3.3479	-3.1	-3.2687	-3.3438	-3.0438	-3.3854	-3.2188	-15.884	153.624	143.340	180.495	138.740	-47.912	128.145	161.985	-59.321	70.136	-96.467	198.785	227.601	-80.066	42.942	203.011	0.00029451	0.00030558	0.0001522	1378.5	2.3236e-06	4.1087e-06	1367.4	369.2	3.9018e-06	4.6735e-06	421.86	139.34	121.94	42.156	5.06e-06	52.145	0.00053092	0.00058854	0.000166	1386.5	6.3462e-06	6.4977e-06	1382.8	374.68	6.4266e-06	6.4141e-06	427.59	143.14	124.5	42.949	6.4101e-06	53.169	-123.213	-40.042	-32.648	-113.901	-22.023	0.771	-113.901	-109.481	8.854	57.754	-109.993	-105.956	-105.349	-100.835	43.055	-101.411	-8191	255	
11002.190	1	1	0	0	0.38018	0.13778	0.082898	0.42174	0.14221	0.27414	0.22049	0.17481	0.24037	0.052068	0.27765	0.27558	0.054868	0.14799	0.0086219	0.13768	-2.8	-3.3375	-3.1688	-3.4021	-3.1292	-3.1146	-3.4813	-3.2646	-3.2479	-3.3625	-3.0958	-3.4042	-3.1396	-3.0208	-3.4875	-3.15	95.131	196.996	8.951	220.236	93.422	-64.623	197.030	130.217	209.884	82.152	121.441	-121.496	159.877	-75.313	-100.279	59.169	0.00028395	0.000387	9.4029e-05	1375.5	3.8326e-06	6.1406e-06	1365.6	369.46	2.9601e-06	4.2149e-06	423.83	139.39	121.89	42.028	3.0032e-06	51.969	0.00052441	0.000582	0.00016095	1383.7	6.2852e-06	6.6095e-06	1380.4	374.31	6.3387e-06	6.5786e-06	428.32	142.96	124.54	42.933	6.3409e-06	53.175	-124.400	-18.013	-40.666	-114.176	41.153	44.403	-114.127	-109.292	-8.071	-5.103	-109.981	-105.600	-105.293	-100.847	50.479	-101.068	-8191	255	
11002.286	1	1	0	0	0.29336	0.32924	0.072453	0.11493	0.11158	0.18992	0.34866	0.071776	0.16162	0.25357	0.098543	0.18469	0.074329	0.12871	0.047182	0.20308	-2.6937	-3.2771	-2.9646	-3.4521	-3.1813	-2.9708	-3.3688	-3.2479	-3.1458	-3.3979	-3.1688	-3.3208	-3.3875	-3.1562	-3.1	-3.2875	28.420	157.463	38.470	-116.660	-44.868	38.471	167.630	-95.443	-89.946	131.886	-120.995	-113.882	226.612	192.042	31.717	97.777	0.00027049	0.0004283	0.00021412	1377.1	2.8513e-06	5.1182e-06	1370.9	370.18	3.2975e-06	5.4434e-06	425.18	139.29	121.85	41.991	3.9127e-06	51.833	0.0005361	0.00058612	0.0001621	1382.9	6.3798e-06	6.4806e-06	1381.6	374.79	6.4804e-06	6.5659e-06	428.57	142.79	124.46	42.901	6.6241e-06	53.067	224.540	-36.822	-36.879	-114.025	0.574	-6.093	-114.186	-109.482	-8.335	13.786	-109.970	-105.921	-105.327	-100.839	34.464	-101.155	-8191	255	
11002.407	1	1	0	0	0.10414	0.090607	0.012699	0.4049	0.17408	0.18129	0.36547	0.30553	0.053863	0.26026	0.16684	0.11361	0.16935	0.51462	0.023345	0.095777	-2.6479	-3.3917	-3.0271	-3.2354	-3.2042	-3.0417	-3.5792	-3.1396	-2.9875	-3.2771	-3.1458	-3.2438	-3.4188	-2.9896	-3.2812	-3.2021	97.649	-125.048	229.527	174.319	124.280	29.080	118.365	205.040	164.820	102.151	11.516	-0.635	-88.711	199.662	25.602	230.685	0.0002833	0.00054091	0.00013181	1378.4	5.5274e-06	3.6918e-06	1365.7	369.6	3.8564e-06	4.3391e-06	423.97	139.9	121.38	41.938	5.5067e-06	52.095	0.00053088	0.00059619	0.00016223	1384.1	6.2748e-06	6.5348e-06	1380.1	374.22	6.5221e-06	6.4379e-06	427.85	142.96	124.28	42.898	6.5064e-06	53.127	224.681	-49.171	-44.808	-114.165	31.198	55.364	-114.049	-109.492	-10.722	23.335	-109.934	-105.820	-105.433	-100.617	16.945	-101.219	-8191	255	
11002.503	1	1	0	0	0.089088	0.057377	0.16108	0.19585	0.2327	0.2545	0.14456	0.30682	0.17046	0.10408	0.2345	0.15671	0.23277	0.40535	0.13666	0.12763	-2.5917	-3.4521	-2.9938	-3.4542	-3.2562	-2.8979	-3.5896	-3.4271	-2.9437	-3.1771	-3.0917	-3.1917	-3.3167	-3.1625	-3.2062	-3.2313	100.987	59.447	175.494	-97.915	-40.316	-32.202	158.270	199.268	-76.732	217.543	144.052	-73.351	220.056	195.996	125.958	102.775	0.00026035	0.00042681	9.0919e-05	1374.9	3.4333e-06	5.3213e-06	1361.4	369.29	1.3108e-06	7.7922e-06	423.32	139.81	121.22	42.085	5.047e-06	52.061	0.00052835	0.00057413	0.00016212	1383.7	6.2886e-06	6.4047e-06	1378.6	374.44	6.6005e-06	6.4195e-06	427.85	142.91	124.27	42.846	6.3606e-06	53.159	230.299	2.601	-37.069	-114.020	19.465	0.200	-114.221	-109.474	33.601	21.367	-110.069	-105.917	-105.308	-100.801	-15.155	-101.178	-8191	255	
11002.597	1	1	0	0	0.060035	0.12571	0.2391	0.28992	0.13758	0.063001	0.13752	0.18682	0.45802	0.16342	0.061431	0.25511	0.089635	0.14195	0.19006	0.062787	-2.6542	-3.2208	-3.0854	-3.1896	-3.3792	-3.05	-3.3333	-3.4875	-2.85	-3.4313	-3.2938	-3.2354	-3.3979	-3.0271	-3.1896	-3.3937	43.287	-10.410	-39.440	207.285	-122.105	99.649	176.177	219.547	-94.047	28.164	181.305	202.790	178.747	22.860	-97.931	194.046	0.00027369	0.00051885	0.00017675	1374.9	3.5026e-06	3.3777e-06	1365.8	369.11	3.4304e-06	3.8837e-06	422.77	139.31	121.79	42.006	3.2486e-06	52.093	0.00053474	0.00057744	0.00016151	1383.7	6.2733e-06	6.5511e-06	1380	374.12	6.6469e-06	6.5278e-06	427.76	143.04	124.61	42.997	6.448e-06	53.186	-123.937	-19.396	-43.484	-113.991	-26.992	47.338	-114.074	-109.532	-0.989	37.915	-109.928	-105.740	-105.312	-100.725	45.842	-101.089	-8191	255	
11002.695	1	1	0	0	0.18865	0.10551	0.28833	0.238	0.1465	0.091732	0.12811	0.0026966	0.066188	0.088836	0.062373	0.063147	0.039777	0.1333	0.023873	0.12327	-2.4625	-3.2271	-3.2333	-3.3229	-3.2479	-3.0458	-3.2083	-3.425	-2.875	-3.2687	-3.2917	-3.0896	-3.3875	-3.1542	-3.225	-3.3458	65.413	231.370	-123.719	-99.444	-56.826	136.749	194.785	-51.749	-27.118	183.439	-32.981	-19.063	89.476	152.072	-4.985	222.142	0.00029179	0.00034604	0.00015733	1373	3.3082e-06	6.1701e-06	1365.1	370.22	3.2784e-06	7.6377e-06	423.45	139.57	121.19	42.151	3.8645e-06	52.221	0.00052478	0.00058379	0.00016141	1382.4	6.2999e-06	6.2915e-06	1381	374.99	6.4094e-06	6.2776e-06	427.45	142.91	124.45	42.998	6.3897e-06	53.168	232.176	-29.073	-18.773	-114.170	10.775	35.539	-114.169	-109.561	-1.019	42.663	-109.901	-105.745	-105.477	-100.817	59.424	-101.238	-8191	255	
11002.790	1	1	0	0	0.25997	0.030425	0.095931	0.26006	0.14236	0.12268	0.078156	0.30338	0.0076785	0.32066	0.17678	0.05879	0.092154	0.26316	0.16357	0.27972	-2.6292	-3.2458	-3.2938	-3.1292	-3.4271	-3.0979	-3.2438	-3.5083	-3.0396	-3.2833	-3.2375	-3.0271	-3.4854	-3.3146	-3.0125	-3.4938	-90.781	-76.467	-82.869	154.040	120.558	172.970	197.660	153.570	-41.556	117.958	138.517	148.174	-95.071	-95.041	-114.105	195.036	0.00028425	0.00056104	7.974e-05	1376.4	2.0349e-06	4.5065e-06	1372.7	370.05	4.0492e-06	6.5632e-06	424.58	139.69	122.21	42.123	3.6368e-06	52.18	0.00053059	0.00057563	0.0001655	1385.1	6.3344e-06	6.4099e-06	1383.2	374.95	6.4283e-06	6.2866e-06	427.84	143.15	124.89	42.972	6.378e-06	53.18	225.158	-43.996	-46.428	-114.175	49.808	21.851	-114.138	-109.447	16.388	26.887	-109.940	-105.996	-105.129	-100.668	-7.697	-101.037	-8191	255	
11002.886	1	1	0	0	0.027105	0.29853	0.17631	0.55715	0.37065	0.20696	0.21586	0.17385	0.13703	0.11274	0.075914	0.16584	0.09223	0.1138	0.12599	0.25212	-2.7458	-3.2417	-3.3417	-3.2542	-3.475	-3.1896	-3.1833	-3.5417	-3.2417	-3.2646	-3.5125	-3.0354	-3.4146	-3.2104	-3.2062	-3.4229	-95.464	72.838	100.947	-107.440	-66.833	108.151	161.354	-11.963	88.011	184.315	211.060	-81.679	-85.261	-110.666	-98.416	152.409	0.00028586	0.00045252	0.00012145	1376.2	3.9796e-06	3.7425e-06	1368.7	369.71	3.386e-06	5.6907e-06	423.85	140.48	121.24	42.113	4.1097e-06	52.263	0.00053391	0.0005817	0.00016492	1385.7	6.5183e-06	6.4728e-06	1382.2	374.88	6.4079e-06	6.4726e-06	428.43	143.42	124.56	43.009	6.597e-06	53.238	231.982	-33.889	-25.235	-114.079	45.074	29.754	-114.147	-109.665	23.598	26.203	-110.068	-105.765	-105.127	-100.712	-2.021	-101.378	-8191	255	
11003.006	1	1	0	0	0.16704	0.064566	0.096885	0.19011	0.13337	0.30273	0.047266	0.16508	0.10444	0.19617	0.44312	0.26692	0.098443	0.32202	0.15547	0.08681	-2.7479	-3.2562	-3.2542	-3.1708	-3.3042	-3.0125	-3.3896	-3.7271	-3.1542	-3.2979	-3.4021	-3.1396	-3.4333	-3.1875	-3.0687	-3.5229	53.036	20.717	190.698	201.173	-6.785	104.463	119.777	25.105	-98.806	100.456	220.944	163.916	93.057	221.035	90.970	204.774	0.00030219	0.00026876	0.00012227	1376.7	6.3922e-06	3.3602e-06	1368.8	370.87	3.2935e-06	5.7646e-06	423.94	140.02	121.91	42.117	1.7165e-06	51.919	0.00053578	0.00058518	0.00016535	1385.5	6.2959e-06	6.5779e-06	1382.4	375.53	6.5226e-06	6.5038e-06	428.9	143.34	124.77	43.011	6.4094e-06	53.111	226.914	-9.025	-28.314	-114.160	52.808	-19.636	-114.097	-109.528	-16.669	41.306	-109.952	-105.835	-105.415	-100.776	-20.587	-101.195	-8191	255	
11003.102	1	1	0	0	0.099063	0.15396	0.066778	0.53008	0.11647	0.25916	0.23085	0.24808	0.13369	0.2003	0.11169	0.23931	0.15222	0.11092	0.21053	0.19135	-2.5833	-3.0958	-3.4104	-3.0979	-3.2083	-3.2917	-3.2083	-3.2958	-3.175	-3.0812	-3.3667	-3.1104	-3.4417	-3.2771	-2.8563	-3.3771	204.629	92.427	-57.391	178.315	-78.096	112.878	133.758	157.221	50.175	-93.337	76.910	178.142	176.062	119.739	149.487	-116.532	0.00028177	0.0006531	6.2039e-05	1376.4	4.8499e-06	3.9322e-06	1370.7	369.15	2.2483e-06	6.2173e-06	422.56	139.64	121.3	42.294	4.3288e-06	52.031	0.00053793	0.00059872	0.00016673	1385.2	6.4857e-06	6.3438e-06	1383.4	374.76	6.3073e-06	6.3783e-06	428.36	143.27	124.62	43.02	6.4584e-06	53.346	-126.491	-36.173	-24.904	-114.084	17.182	36.728	-113.935	-109.535	-22.820	-1.755	-109.862	-105.722	-105.202	-100.633	36.965	-101.106	-8191	255	
11003.199	1	1	0	0	0.14537	0.11692	0.13248	0.02647	0.15701	0.15244	0.35705	0.28467	0.28575	0.093431	0.16069	0.24767	0.11148	0.12509	0.18327	0.18685	-2.875	-2.9833	-3.3104	-3.2625	-3.3229	-3.2646	-3.2167	-3.4021	-3.1417	-3.0833	-3.5667	-3.1646	-3.325	-3.2958	-2.8979	-3.4292	161.487	118.582	-34.711	31.825	96.269	-122.349	179.891	182.780	-71.187	16.407	141.889	198.780	-100.266	-79.742	3.812	176.285	0.00026346	0.0005003	0.00011951	1381.9	3.1558e-06	6.6309e-06	1369.1	369.52	3.0158e-06	3.4759e-06	424.97	140.14	122.26	42.174	2.2916e-06	52.219	0.00052637	0.00059378	0.00016276	1388.8	6.4685e-06	6.373e-06	1383.1	375.14	6.4467e-06	6.5051e-06	428.48	143.49	124.83	43.049	6.4105e-06	53.353	224.780	-51.599	-18.708	-114.124	55.451	26.064	-113.870	-109.611	-1.067	28.634	-109.838	-105.903	-104.899	-100.531	9.319	-101.103	-8191	255	
11003.295	1	1	0	0	0.16215	0.05055	0.079472	0.12472	0.18734	0.042576	0.32067	0.24072	0.040966	0.054188	0.10739	0.24232	0.25504	0.094459	0.17257	0.25094	-2.8458	-3.0333	-3.3771	-3.1917	-3.0417	-3.2958	-3.1146	-3.4667	-3.0312	-3.0354	-3.5062	-3.2021	-3.2875	-3.3479	-3.025	-3.3125	82.374	221.686	9.935	161.531	-3.370	-66.377	181.341	229.374	-70.133	176.261	-89.058	135.747	217.271	183.093	136.598	150.310	0.00029139	0.00048898	0.00013613	1383.8	4.2721e-06	5.1283e-06	1377.2	370.76	4.0356e-06	4.1546e-06	423.08	139.63	122.08	42.207	1.4848e-06	52.201	0.00052715	0.0005936	0.00016483	1389.9	6.2043e-06	6.4e-06	1385.3	375.8	6.3832e-06	6.4007e-06	428.56	143.37	124.86	43.083	6.3966e-06	53.337	231.423	-34.760	-24.839	-114.278	13.781	24.152	-114.307	-109.408	17.036	37.584	-110.085	-105.559	-105.189	-100.595	19.079	-101.159	-8191	255	
11003.391	1	1	0	0	0.32412	0.33022	0.16549	0.080996	0.15824	0.11746	0.3853	0.14605	0.035748	0.24341	0.31966	0.099724	0.12622	0.39523	0.24665	0.41146	-2.8792	-2.8167	-3.2812	-3.3667	-2.9021	-3.3479	-3.1	-3.3958	-3.25	-3.075	-3.3042	-3.1917	-3.1958	-3.4333	-3.1792	-3.1083	116.720	73.610	24.251	16.495	73.233	-101.070	176.712	-47.165	-39.231	90.437	171.155	118.303	69.656	-112.129	86.491	-113.861	0.00028321	0.0007057	0.00016524	1383	4.2894e-06	3.5446e-06	1372.5	372.47	3.9306e-06	7.4927e-06	424.89	141.09	122.27	42.457	3.759e-06	52.374	0.00053211	0.00058343	0.00016306	1387.4	6.542e-06	6.3818e-06	1383.9	376.2	6.5872e-06	6.4966e-06	429.21	144.11	125.18	43.28	6.4766e-06	53.406	229.137	-40.561	-43.986	-114.016	53.176	29.961	-113.932	-109.476	0.186	17.334	-110.026	-105.952	-105.480	-100.839	35.586	-101.232	-8191	255	
11003.487	1	1	0	0	0.18565	0.021524	0.33293	0.17585	0.05728	0.10201	0.3476	0.21804	0.073203	0.16817	0.30947	0.23688	0.14513	0.14648	0.23149	0.28753	-2.9104	-3.0292	-3.1479	-3.5	-3.0792	-3.3792	-3.2917	-3.3104	-3.3396	-3.1521	-3.4521	-3.2812	-3.1604	-3.5958	-3.1854	-3.1729	46.564	-62.660	29.701	192.498	-5.780	163.467	177.829	65.334	20.682	-46.521	-79.186	192.367	-60.560	185.377	109.391	214.222	0.00026414	0.00073135	0.0001586	1382.1	3.056e-06	3.8526e-06	1377.7	370.21	2.6324e-06	4.2108e-06	426.23	140.78	122.65	42.283	1.4477e-06	52.26	0.00054235	0.00060831	0.00016676	1391.9	6.49e-06	6.5015e-06	1390.7	376.22	6.573e-06	6.5181e-06	430.1	144.11	125.31	43.138	6.5218e-06	53.422	229.277	-25.664	-1.048	-114.135	21.875	47.604	-114.252	-109.476	1.951	43.261	-109.922	-105.919	-105.356	-100.734	74.052	-101.403	-8191	255	
11003.583	1	1	0	0	0.32138	0.17407	0.25605	0.11909	0.10165	0.29521	0.12541	0.24595	0.16954	0.23078	0.24011	0.095899	0.093837	0.1215	0.26185	0.20316	-3.0979	-3.0812	-3.1792	-3.3479	-2.9375	-3.4354	-3.3812	-3.2146	-3.3625	-3.0646	-3.2062	-3.25	-3.0271	-3.2417	-2.9458	-3.0271	227.026	158.856	-107.415	-37.266	214.243	31.108	203.566	211.945	63.790	-79.070	151.021	132.780	168.593	158.532	197.751	208.222	0.00028897	0.00053856	0.00015174	1380.2	2.8151e-06	1.7988e-06	1375.1	372.19	3.437e-06	7.2998e-06	424.53	140.28	122.76	42.174	3.9088e-06	52.179	0.00054699	0.00060415	0.00016564	1392.8	6.5379e-06	6.6235e-06	1389.5	376.7	6.491e-06	6.4802e-06	429.32	143.94	125.28	43.181	6.2277e-06	53.459	225.522	-38.186	-38.248	-114.160	33.131	46.508	-114.061	-109.504	6.865	-1.188	-109.969	-106.007	-105.172	-100.627	36.619	-101.079	-8191	255	
11003.678	1	1	0	0	0.20633	0.084678	0.2822	0.17396	0.35874	0.13962	0.39687	0.1081	0.18532	0.24138	0.055417	0.38231	0.12641	0.28723	0.12768	0.27083	-2.9375	-3.1292	-3.0542	-3.3604	-2.7938	-3.5792	-3.4375	-3.1479	-3.3667	-2.9938	-3.2229	-3.4521	-3.1312	-3.3375	-3.1771	-3.0292	32.964	-89.295	44.097	142.220	-97.649	147.238	180.221	175.984	128.871	-17.928	-66.917	-122.376	205.065	148.174	4.153	162.449	0.00028088	0.00047949	0.00015845	1384.5	3.1716e-06	3.524e-06	1377.7	371.2	4.7157e-06	3.2333e-06	423.07	140.27	122.32	42.422	1.0138e-06	52.382	0.00052982	0.00057718	0.0001582	1392.4	6.3555e-06	6.3665e-06	1389.5	376.58	6.2618e-06	6.3484e-06	428.94	143.98	125.36	43.276	6.2195e-06	53.434	229.076	-44.241	-20.662	-114.053	5.064	28.788	-114.102	-109.609	24.403	-13.180	-109.894	-105.784	-105.622	-100.836	70.340	-101.005	-8191	255	
11003.776	1	1	0	0	0.24881	0.10952	0.26566	0.30225	0.20407	0.081383	0.13968	0.059634	0.14592	0.13008	0.13884	0.088509	0.1541	0.091291	0.11324	0.096647	-2.9646	-2.9896	-3.0979	-3.5042	-2.9583	-3.1562	-3.4333	-3.1312	-3.4417	-3.0083	-3.0083	-3.4396	-3.0062	-3.3208	-3.3979	-3.0292	-119.955	139.873	149.008	176.745	144.232	-107.351	166.876	193.920	-114.568	-6.822	162.947	68.596	211.156	25.842	111.291	173.216	0.00029125	0.0005533	0.00019385	1378.6	2.8039e-06	5.3151e-06	1368.6	370.93	2.9253e-06	7.207e-06	424.27	140.08	122.32	42.377	5.0003e-06	52.446	0.0005206	0.00055944	0.00015618	1389.3	6.1725e-06	6.108e-06	1382.3	376.16	6.1278e-06	5.9994e-06	428.38	143.69	125.23	43.232	6.1035e-06	53.52	230.985	-44.389	-44.546	-114.204	28.818	33.459	-114.146	-109.472	-13.523	50.018	-110.051	-105.738	-105.331	-100.686	21.237	-101.150	-8191	255	
11003.894	1	1	0	0	0.052943	0.062081	0.28159	0.13033	0.13855	0.35045	0.20635	0.31464	0.15751	0.053009	0.14809	0.25124	0.040282	0.28139	0.17183	0.11373	-2.9417	-3.0042	-3.1833	-3.6167	-3.1937	-3.1688	-3.3417	-3.075	-3.5312	-3.2458	-3.2354	-3.2875	-3.1229	-3.3187	-3.2292	-3.0062	49.107	78.612	209.759	100.865	169.225	227.240	185.278	141.667	139.358	-61.726	136.169	-104.551	153.268	203.317	-127.268	196.363	0.00026661	0.0003855	0.00013507	1380.3	1.5883e-06	5.1231e-06	1370.8	371.74	1.8182e-06	2.7587e-06	426.19	141.18	123.31	42.712	2.7665e-06	52.701	0.00051605	0.00055777	0.00015643	1389	6.1962e-06	6.1233e-06	1386.5	376.65	6.1194e-06	6.2949e-06	430.68	144.28	125.81	43.435	6.0729e-06	53.754	227.070	-36.509	-36.837	-114.084	36.266	12.075	-114.143	-109.533	-2.603	-7.368	-109.930	-105.916	-105.332	-100.765	37.429	-101.190	-8191	255	
11003.966	1	1	0	0	0.11202	0.34942	0.22235	0.21255	0.19519	0.10472	0.27272	0.02586	0.18037	0.21628	0.45563	0.27105	0.045955	0.25783	0.1158	0.064485	-2.9917	-3.0167	-3.0938	-3.3979	-2.9729	-3.2958	-3.5042	-3.1479	-3.2125	-3.2354	-3.1063	-3.5458	-3.1979	-3.0563	-3.4375	-3.0896	86.606	152.474	172.082	226.538	-45.656	225.152	155.515	88.401	42.092	-78.206	223.113	232.248	-31.290	214.628	-114.872	195.533	0.00025984	0.00046	0.0001522	1383.2	4.0931e-06	4.2575e-06	1375	372.37	4.3388e-06	5.602e-06	424.98	141.92	123.05	42.718	2.2553e-06	52.674	0.00050505	0.00055276	0.00015489	1392.3	6.0361e-06	6.1186e-06	1387.7	377.53	5.9685e-06	6.1824e-06	430.6	144.95	125.88	43.497	6.1154e-06	53.827	229.730	-30.289	-24.324	-114.196	19.474	58.088	-114.165	-109.385	-6.072	17.915	-109.903	-105.933	-105.121	-100.825	41.750	-101.203	-8191	255	
11004.087	1	1	0	0	0.17255	0.043803	0.19457	0.34461	0.19784	0.23516	0.35764	0.18331	0.21488	0.070398	0.077215	0.29202	0.12892	0.27104	0.12312	0.28653	-2.7542	-3.1854	-3.0438	-3.3625	-3.1458	-3.1854	-3.5292	-3.1292	-3.1958	-3.4062	-3.1354	-3.4917	-3.2021	-3.1375	-3.2354	-3.0396	139.666	-111.880	-72.140	230.853	213.462	-83.256	169.274	42.891	-104.852	102.122	-29.656	229.827	199.865	177.281	173.830	-126.106	0.0002796	0.00048886	0.00021011	1381.5	4.2898e-06	3.9363e-06	1377.4	372.79	1.7542e-06	5.0173e-06	426.37	141.63	123.04	42.56	3.3526e-06	52.687	0.00050398	0.00054241	0.00015066	1393.2	5.9539e-06	5.9187e-06	1390	378.19	6.0717e-06	6.0828e-06	431.31	144.66	125.99	43.52	5.9894e-06	53.75	231.581	-33.055	-26.216	-114.096	41.539	30.980	-114.193	-109.534	1.923	28.027	-109.876	-105.744	-105.140	-100.779	7.845	-101.166	-8191	255	
11004.183	1	1	0	0	0.14169	0.18988	0.11163	0.36823	0.077142	0.13904	0.28928	0.48042	0.22953	0.078083	0.38168	0.17414	0.14927	0.29292	0.076268	0.10646	-2.8688	-3.0042	-2.8917	-3.5354	-3.2083	-3.3563	-3.4854	-3.2146	-3.1146	-3.4375	-3.2104	-3.4583	-3.325	-3.2104	-3.4021	-3.1458	26.740	99.090	32.468	163.147	128.955	-107.772	100.865	170.548	-84.924	43.904	198.492	180.493	169.585	-13.550	213.627	117.688	0.00031613	0.00048724	7.3254e-05	1383.1	3.8903e-06	3.6703e-06	1377.1	372.89	3.1595e-06	4.8883e-06	426.6	141.45	123.14	42.55	2.9293e-06	52.77	0.00051134	0.00054818	0.00015684	1393.3	5.883e-06	6.0251e-06	1390.6	377.99	5.9208e-06	5.9351e-06	432.13	144.81	126.12	43.484	5.9259e-06	53.81	-127.175	-27.963	-39.568	-114.105	41.065	1.469	-114.055	-109.467	5.376	23.048	-109.945	-105.823	-105.311	-100.739	1.132	-101.201	-8191	255	
11004.279	1	1	0	0	0.24284	0.17468	0.1071	0.20563	0.19438	0.16316	0.25016	0.13196	0.26243	0.097049	0.097849	0.24106	0.33947	0.18104	0.26216	0.15037	-2.6521	-3.2667	-3.0542	-3.2687	-3.1021	-2.9208	-3.4688	-3.1958	-3.1292	-3.4396	-3.1125	-3.4188	-3.2104	-3.3521	-3.4521	-3.3792	44.890	152.870	174.684	211.997	86.280	-13.036	126.170	169.780	19.416	-39.382	159.535	-115.663	199.479	179.394	81.416	152.759	0.0002801	0.00049387	0.00016237	1381.1	2.9328e-06	3.3767e-06	1376.4	373.5	3.4909e-06	5.7207e-06	428.22	140.82	123.24	42.545	3.6558e-06	52.754	0.0005007	0.00053852	0.00015255	1392.2	5.9405e-06	6.2142e-06	1390	378.38	6.0338e-06	6.0053e-06	431.74	144.76	126.05	43.465	6.0386e-06	53.695	-126.723	-41.484	-54.428	-114.250	44.167	21.107	-113.990	-109.607	25.034	35.918	-109.951	-105.934	-105.226	-100.732	28.737	-101.092	-8191	255	
11004.375	1	1	0	0	0.16717	0.18935	0.17646	0.15644	0.19185	0.23781	0.31421	0.27328	0.37909	0.14626	0.35732	0.020002	0.34653	0.20503	0.14381	0.12551	-2.6792	-3.2313	-2.8792	-3.4083	-3.2812	-3.1583	-3.5438	-3.325	-2.8792	-3.3375	-3.2	-3.3833	-3.3396	-2.9854	-3.2396	-3.2396	83.281	-56.469	157.597	194.656	81.705	163.380	192.960	166.514	-4.198	-118.775	163.824	-54.384	185.875	1.694	215.350	203.761	0.00026373	0.0002672	0.00017693	1378.6	2.7504e-06	3.6203e-06	1376.3	374.46	1.9551e-06	6.0127e-06	426.1	141.18	123.16	42.789	3.8054e-06	52.804	0.0005128	0.00056605	0.00015465	1389.7	6.0223e-06	6.1267e-06	1388.9	378.32	6.1677e-06	6.0261e-06	431.35	144.82	126.13	43.555	6.1074e-06	53.889	230.112	-48.460	-53.682	-113.987	-11.532	24.202	-114.111	-109.567	-1.050	14.615	-110.023	-105.690	-105.427	-101.040	11.113	-101.378	-8191	255	
11004.496	1	1	0	0	0.16593	0.095311	0.12195	0.11512	0.12386	0.10037	0.17998	0.13628	0.3059	0.17519	0.29773	0.26413	0.1206	0.33609	0.29788	0.36244	-2.5979	-3.175	-3.1896	-3.475	-3.2438	-3.0833	-3.4188	-3.4313	-3.0875	-3.375	-3.1437	-3.25	-3.3375	-3.0958	-3.2208	-3.3896	162.524	-51.034	129.072	197.786	33.934	62.083	124.428	7.511	6.500	-127.103	178.888	-100.408	77.113	118.553	-50.346	218.889	0.00029754	0.00040086	0.00013228	1388.7	4.8424e-06	4.9418e-06	1384.2	373.61	1.7881e-06	5.0592e-06	429.59	142.07	123.31	42.681	4.756e-06	52.813	0.00050819	0.00053771	0.00015318	1395.1	6.1693e-06	6.0611e-06	1392	378.58	6.1448e-06	6.0452e-06	431.55	145.36	126.43	43.647	6.028e-06	53.871	231.071	-46.931	-35.653	-114.151	12.143	39.958	-113.842	-109.577	8.036	45.361	-110.035	-105.588	-105.317	-100.627	24.842	-101.104	-8191	255	
11004.590	1	1	0	0	0.2407	0.043341	0.093467	0.10993	0.1183	0.18267	0.24893	0.059371	0.17749	0.035516	0.12342	0.083084	0.11754	0.18229	0.016451	0.18708	-2.5187	-3.3146	-2.9979	-3.2729	-3.4688	-3.1146	-3.4271	-3.4208	-3.15	-3.3063	-3.0208	-3.1146	-3.7083	-3.0708	-3.1792	-3.4521	156.190	-92.438	31.561	189.360	112.979	210.072	171.386	178.927	-81.722	138.869	85.900	157.874	183.417	118.830	59.136	156.365	0.00028445	0.00036461	8.0425e-05	1390.4	2.6267e-06	4.3999e-06	1375.6	374.97	2.4995e-06	6.2513e-06	426.72	142.42	123.8	42.873	3.9534e-06	52.915	0.00050442	0.00055532	0.00015354	1396.8	6.0193e-06	5.9544e-06	1391.5	379.26	6.1094e-06	5.919e-06	431.45	145.57	126.78	43.752	5.8246e-06	54.099	225.275	-42.169	-49.632	-114.184	25.760	31.071	-113.951	-109.608	-38.286	20.041	-109.969	-105.867	-105.348	-100.965	16.227	-101.324	-8191	255	
11004.664	1	1	0	0	0.088128	0.15386	0.16381	0.15921	0.10934	0.37604	0.39172	0.25325	0.21814	0.18034	0.15414	0.16837	0.062781	0.23513	0.26585	0.13004	-2.7625	-3.2417	-3.1292	-3.2062	-3.3604	-3.125	-3.3604	-3.2771	-2.9979	-3.2229	-3.1708	-3.175	-3.3604	-3.2396	-3.3312	-3.3979	12.327	-21.449	-56.540	154.028	188.506	102.697	163.468	-107.785	67.105	-33.596	183.277	152.096	-13.481	220.929	163.503	207.382	0.00027716	0.00049809	0.00013376	1390.5	3.6072e-06	5.0644e-06	1381.3	375.62	4.4089e-06	5.7062e-06	427.54	142.21	124.51	43.057	3.6349e-06	53.018	0.00050799	0.00053844	0.0001497	1398.5	5.8437e-06	6.0042e-06	1394.2	380.41	6.0215e-06	5.8172e-06	432.4	145.81	127.19	43.844	5.7923e-06	54.039	227.852	-30.642	-45.319	-114.178	31.235	-2.216	-113.948	-109.613	-18.719	39.080	-110.166	-105.910	-105.410	-100.743	31.905	-101.299	-8191	255	
11004.782	1	1	0	0	0.12515	0.17856	0.040685	0.2801	0.068401	0.1405	0.28381	0.15946	0.050431	0.17952	0.25935	0.11349	0.1488	0.14743	0.16673	0.21675	-2.6437	-3.2333	-3.1396	-3.2521	-3.4354	-3.1625	-3.4854	-3.4104	-3.0125	-3.2333	-3.3063	-2.9167	-3.3958	-2.9771	-3.1333	-3.5146	134.450	135.276	-72.500	181.235	40.969	-67.529	148.367	101.157	-79.372	62.663	103.937	214.480	-32.832	229.644	-117.297	14.732	0.00029798	0.00069928	0.00012972	1383.2	3.6764e-06	6.129e-06	1378	376.52	3.1846e-06	5.9133e-06	427.24	141.86	123.91	42.893	4.4913e-06	52.638	0.00049854	0.00052015	0.00014515	1393.6	5.8429e-06	5.8634e-06	1392.4	380.09	6.1317e-06	5.8715e-06	432.25	145.35	126.72	43.708	5.7769e-06	53.861	229.041	-33.743	-38.710	-114.189	35.060	34.175	-113.942	-109.692	-3.038	-10.761	-110.211	-105.912	-105.334	-100.872	15.602	-101.262	-8191	255	
11004.879	1	1	0	0	0.1537	0.083257	0.32469	0.31311	0.019205	0.039737	0.062251	0.26556	0.039759	0.072378	0.099028	0.1671	0.045626	0.12153	0.019851	0.047582	-2.5667	-3.1375	-3.0292	-3.1375	-3.3542	-3.1562	-3.3104	-3.6875	-3.2229	-3.35	-3.5	-3.0542	-3.5187	-3.3396	-3.0271	-3.5125	64.023	103.220	-35.119	226.847	-101.649	-28.962	113.357	161.311	121.367	189.251	-93.128	116.186	-55.057	-123.018	152.470	-72.433	0.00028441	0.00039168	7.9643e-05	1389.1	3.4759e-06	8.1654e-06	1381.5	375.53	4.2118e-06	6.4249e-06	427.42	142.29	124	42.955	3.5403e-06	53.13	0.00049883	0.0005181	0.00014626	1395.6	5.6011e-06	5.7233e-06	1392.4	380.57	5.7791e-06	5.5955e-06	432.4	145.9	126.86	43.791	5.7875e-06	54.116	229.858	-38.195	-57.137	-114.032	48.438	6.731	-114.151	-109.608	-4.758	24.036	-109.846	-105.719	-105.221	-100.880	40.177	-101.317	-8191	255	
11004.975	1	1	0	0	0.17357	0.075978	0.077022	0.057882	0.062653	0.14101	0.071861	0.21346	0.15538	0.034882	0.19557	0.35122	0.14363	0.13156	0.052609	0.13034	-2.6375	-3.1917	-3.3021	-3.2313	-3.2833	-3.0875	-3.1917	-3.4396	-2.9583	-3.1333	-3.4625	-3.1792	-3.4271	-3.1875	-3.0896	-3.2708	134.635	30.399	144.261	142.208	-1.885	150.803	177.374	214.682	85.839	40.944	186.539	186.646	-86.895	-121.792	-88.520	-123.838	0.00027994	0.00050336	0.00014053	1389.5	5.6785e-06	4.9602e-06	1379.3	375.49	4.101e-06	5.9945e-06	428.83	142.27	123.36	43.035	3.6529e-06	53.014	0.00047653	0.00052971	0.00014833	1395.9	5.695e-06	5.8834e-06	1392.8	380.6	6.0028e-06	5.7793e-06	432.41	145.66	126.49	43.804	5.9749e-06	54.058	-121.825	-26.059	-61.442	-114.063	18.205	29.573	-114.009	-109.561	-22.152	7.757	-110.143	-105.674	-105.100	-100.815	51.257	-100.804	-8191	255	
11005.095	1	1	0	0	0.13182	0.18396	0.21501	0.14661	0.17851	0.25255	0.085016	0.095069	0.216	0.067921	0.084258	0.13881	0.20402	0.25877	0.12368	0.28339	-2.7188	-3.1	-3.35	-3.2333	-3.25	-3.0417	-3.0958	-3.4583	-3.2583	-3.1167	-3.4854	-3.0604	-3.5625	-3.3375	-2.875	-3.4104	15.586	144.894	86.942	70.489	-41.096	216.977	222.887	179.033	218.361	229.997	179.425	20.295	142.954	34.206	-35.629	196.581	0.0002877	0.00032841	0.0001821	1387.3	2.4652e-06	3.9688e-06	1378.8	374.36	4.9656e-06	4.0613e-06	427.71	142.28	123.83	43.055	2.8261e-06	53.039	0.00049278	0.00053026	0.00015336	1395.6	5.7543e-06	5.8095e-06	1393.5	380.14	5.6746e-06	5.8957e-06	432.5	145.58	126.8	43.727	5.8608e-06	53.945	-126.227	-31.892	7.358	-114.164	-24.443	40.063	-114.038	-109.470	11.791	59.276	-110.236	-105.982	-105.138	-100.732	13.251	-101.212	-8191	255	
11005.192	1	1	0	0	0.28941	0.17458	0.23243	0.31552	0.086461	0.054364	0.26123	0.11118	0.24452	0.12429	0.089017	0.070103	0.1935	0.083494	0.15227	0.20404	-2.6792	-2.8333	-3.1875	-3.0625	-3.2042	-3.0833	-3.1479	-3.5521	-3.0312	-2.9396	-3.5729	-3.1667	-3.3646	-3.3438	-3.1604	-3.4	-94.632	-57.437	50.156	203.335	210.783	147.778	178.457	-120.436	-30.364	111.214	108.712	177.713	182.941	-49.109	-68.545	-98.331	0.00028877	0.00045321	0.00010201	1384.2	3.5101e-06	3.3021e-06	1375.8	373.49	2.5566e-06	6.6098e-06	427.76	141.59	123.37	42.603	4.1749e-06	52.671	0.0005008	0.00053048	0.00014555	1391.3	5.8337e-06	5.9133e-06	1390	379.09	5.9524e-06	6.0263e-06	431.83	145.22	126.29	43.541	5.902e-06	53.837	227.992	-25.392	-27.237	-114.082	6.362	20.191	-114.194	-109.523	-14.517	40.993	-110.279	-105.896	-105.176	-100.631	38.006	-100.984	-8191	255	
11005.263	1	1	0	0	0.2307	0.012261	0.21966	0.2496	0.075457	0.32129	0.37806	0.16875	0.31	0.22477	0.14077	0.19688	0.24011	0.26533	0.13734	0.27503	-2.7208	-3.1167	-3.4604	-3.325	-3.0896	-3.3208	-3.3063	-3.5396	-3.2104	-2.8	-3.3937	-3.2917	-3.1583	-3.3688	-2.9625	-3.3063	71.811	101.744	-79.011	191.789	2.616	37.914	175.566	149.453	-38.160	-75.608	172.552	138.607	216.784	-123.312	57.852	199.714	0.00028133	0.00058105	0.00012688	1386.9	4.1161e-06	6.4574e-06	1372.5	374.89	3.67e-06	6.753e-06	426.73	141.42	123.73	42.784	2.3926e-06	52.747	0.00049754	0.00053401	0.00014917	1393.3	5.8936e-06	5.872e-06	1388.5	379.1	5.9992e-06	6.1846e-06	431.83	144.89	126.15	43.569	5.9751e-06	53.75	232.382	-40.164	-72.513	-114.182	54.099	48.214	-114.211	-109.399	-19.568	41.696	-110.147	-105.790	-105.065	-100.769	41.193	-101.323	-8191	255	
11005.359	1	1	0	0	0.3685	0.15438	0.30404	0.32132	0.077391	0.19647	0.20053	0.1463	0.053091	0.26505	0.25397	0.13427	0.14304	0.1333	0.064005	0.11309	-2.7333	-2.8229	-3.3271	-3.1625	-3.1021	-3.25	-3.2583	-3.4396	-3.25	-3.1104	-3.4354	-3.3229	-2.9854	-3.4562	-2.9521	-3.2375	149.629	-113.079	158.796	-119.578	133.020	141.968	206.843	-116.879	23.473	186.150	193.097	180.558	-64.181	182.240	-18.756	-103.488	0.00029253	0.00058556	0.0001276	1386.2	3.3642e-06	3.8229e-06	1372.8	372.79	6.0615e-06	5.6978e-06	426.48	141.66	123.81	42.779	3.6004e-06	52.929	0.00050219	0.00055186	0.00015049	1391.3	5.8009e-06	5.9414e-06	1388	378.62	6.0416e-06	6.036e-06	431.96	144.95	126.3	43.634	5.8821e-06	53.949	227.586	-27.468	-32.330	-114.093	14.930	42.026	-114.257	-109.668	-3.358	54.084	-110.064	-105.900	-105.246	-100.701	17.510	-101.163	-8191	255	
11005.456	1	1	0	0	0.026937	0.11885	0.14954	0.17265	0.28902	0.21094	0.049208	0.3021	0.20293	0.25912	0.43021	0.29564	0.072742	0.16789	0.043863	0.067103	-2.8438	-2.9792	-3.3146	-3.1875	-2.9396	-3.3729	-3.0563	-3.3542	-3.2896	-3.0458	-3.3937	-3.2938	-3.0479	-3.3667	-3.0583	-3.2625	-7.162	-75.330	68.499	187.678	-99.923	193.285	103.538	117.673	-1.925	114.644	156.303	155.405	-80.751	-108.018	140.200	108.417	0.00029195	0.00037043	0.00016333	1390.3	3.5675e-06	4.3356e-06	1374.7	373.61	3.9061e-06	3.9281e-06	426.58	142.03	123.28	42.908	3.4865e-06	52.849	0.00049472	0.00054883	0.00015007	1395.9	5.9113e-06	6.0114e-06	1390.6	379.38	5.935e-06	5.9658e-06	432.31	145.39	126.31	43.649	5.8105e-06	53.772	229.311	-44.842	-45.446	-114.049	53.190	23.326	-114.096	-109.532	27.650	40.116	-109.976	-106.009	-105.360	-100.837	36.616	-101.125	-8191	255	
11005.574	1	1	0	0	0.30088	0.024038	0.26482	0.086215	0.18852	0.12711	0.32733	0.27738	0.1673	0.23041	0.18366	0.35419	0.27456	0.26095	0.28352	0.12223	-2.7583	-3.0646	-3.1167	-3.3937	-3.0979	-3.3708	-3.2354	-3.2583	-3.3708	-2.8208	-3.0333	-3.2771	-3.1521	-3.4521	-3.0729	-3.2417	-29.441	211.023	-114.219	195.790	194.503	-96.743	162.288	135.447	-38.546	-101.700	205.139	186.281	151.454	-105.019	206.926	-43.795	0.00027828	0.00050918	0.00016266	1382.5	5.8649e-06	8.065e-06	1371.5	374.53	1.6649e-06	5.6862e-06	428.75	141.72	123.33	42.83	2.659e-06	52.727	0.00049674	0.00054203	0.00014735	1392.4	5.9241e-06	5.933e-06	1388.9	379.23	6.0412e-06	5.9743e-06	431.79	145.13	126.34	43.684	5.848e-06	53.862	-127.194	-53.884	-8.116	-114.036	12.236	32.645	-114.213	-109.622	47.028	43.147	-110.012	-105.811	-105.466	-100.864	23.060	-101.315	-8191	255	
11005.671	1	1	0	0	0.097449	0.066902	0.25036	0.13108	0.20601	0.090151	0.2323	0.38503	0.27649	0.15508	0.20687	0.058751	0.092164	0.15076	0.28564	0.26596	-2.8542	-2.8771	-3.3208	-3.4375	-2.9229	-3.3479	-3.2833	-3.3083	-3.3375	-3.1771	-3.4688	-3.3917	-2.8438	-3.4125	-2.9729	-3.1646	183.010	-32.431	192.656	-107.016	21.878	204.562	80.591	125.443	70.397	16.475	213.748	54.327	119.961	130.335	-94.076	-32.984	0.00029026	0.0005161	0.00017914	1385.8	3.0279e-06	3.5626e-06	1374.6	374.02	2.597e-06	4.3226e-06	428.52	141.77	123.17	42.599	1.7658e-06	52.856	0.00049003	0.00054044	0.00014661	1393.1	5.9857e-06	5.9241e-06	1389.5	378.86	5.763e-06	5.8815e-06	432.06	145.22	126.19	43.596	5.9714e-06	53.826	231.557	-58.137	-35.770	-114.306	39.928	32.552	-114.227	-109.626	-38.237	50.905	-109.915	-105.645	-105.371	-100.847	40.223	-101.039	-8191	255	
11005.768	1	1	0	0	0.068207	0.28845	0.04587	0.038661	0.069411	0.10342	0.2863	0.33646	0.14828	0.20918	0.2066	0.10116	0.10583	0.078795	0.17522	0.15308	-2.8854	-2.9667	-3.0604	-3.35	-2.9104	-3.3771	-3.4104	-3.1771	-3.1292	-3.2604	-3.3479	-3.3937	-3.2167	-3.4542	-3.025	-2.9813	176.752	115.323	113.550	209.135	228.619	-83.302	183.069	151.876	200.023	36.526	-101.502	-50.591	-101.856	21.059	25.917	230.524	0.00029821	0.00035609	9.6246e-05	1387.5	2.697e-06	2.7052e-06	1374	373.67	2.6212e-06	8.0701e-06	426.66	141.81	123.61	42.719	2.7811e-06	52.799	0.00049631	0.00054057	0.0001478	1392.7	5.9535e-06	5.8879e-06	1389	379.01	5.9783e-06	5.8807e-06	431.48	145.07	126.32	43.588	5.8892e-06	53.882	230.724	-32.317	-23.973	-113.950	6.487	61.236	-113.998	-109.742	24.373	29.350	-109.782	-105.768	-105.239	-100.842	37.732	-101.178	-8191	255	
11005.863	1	1	0	0	0.10972	0.12849	0.044142	0.15308	0.23872	0.014741	0.23368	0.22816	0.19655	0.10815	0.26373	0.26707	0.29349	0.087893	0.0093993	0.2523	-2.8917	-2.9146	-2.9729	-3.5375	-3.0062	-3.2271	-3.4146	-2.9833	-3.2438	-3.0479	-3.1167	-3.4375	-3.1917	-3.3479	-3.3187	-3.15	159.286	173.775	37.184	222.978	9.972	-12.491	140.005	-114.457	-95.034	56.506	-127.331	143.834	163.145	117.295	7.091	168.973	0.00028704	0.00068356	0.00011833	1385.1	2.52e-06	4.04e-06	1378.5	372.57	2.2345e-06	3.4909e-06	425.96	140.97	122.87	42.805	1.569e-06	52.732	0.00049761	0.00052644	0.00014885	1394.5	5.9462e-06	5.962e-06	1390	378.68	5.9844e-06	5.9022e-06	430.93	144.87	126.03	43.508	6.0237e-06	53.803	231.651	-25.619	-33.887	-114.024	48.661	34.883	-114.224	-109.629	-63.291	12.967	-109.913	-105.845	-105.468	-100.764	51.140	-101.102	-8191	255	
11005.959	1	1	0	0	0.048603	0.20618	0.035605	0.23531	0.18657	0.048497	0.27686	0.31092	0.26789	0.17864	0.28784	0.28238	0.16511	0.23232	0.28671	0.15458	-3.0125	-3.2313	-3.1396	-3.4083	-3.0896	-3.2729	-3.4458	-2.9729	-3.3271	-3.1792	-3.1917	-3.4146	-2.9062	-3.1271	-3.2542	-3.1729	-79.778	40.203	173.092	-96.596	-39.906	184.911	135.496	190.094	-25.717	91.039	217.974	189.973	167.023	21.052	-8.820	178.333	0.0002947	0.00050561	0.00012063	1384.8	1.1329e-06	4.8786e-06	1372.8	374.47	2.2768e-06	6.8263e-06	426.07	141.81	122.95	42.673	3.0362e-06	52.599	0.00050209	0.00053767	0.00015142	1392.8	5.9955e-06	6.0031e-06	1389.1	379.16	5.8266e-06	5.8903e-06	431.44	144.94	126.09	43.487	5.9278e-06	53.804	230.188	-33.541	-36.850	-114.125	60.282	14.715	-114.114	-109.782	-1.560	32.118	-110.022	-105.751	-105.242	-100.703	23.795	-101.351	-8191	255	
11006.055	1	1	0	0	0.11767	0.07563	0.078528	0.33703	0.12045	0.051541	0.18641	0.25822	0.12023	0.1831	0.15595	0.10585	0.077195	0.22911	0.11769	0.056712	-2.7792	-2.8979	-3.1104	-3.5083	-3.1208	-3.0438	-3.4938	-3.2938	-3.1292	-3.2583	-3.1708	-3.3167	-3.2438	-3.2479	-3.2625	-3.0292	183.050	148.370	42.123	-124.178	-46.992	153.507	220.479	-126.287	-5.483	160.997	162.735	157.304	-64.860	220.878	138.456	202.881	0.00028219	0.00047383	0.0001368	1382.9	3.9071e-06	4.7499e-06	1375.5	373.23	2.3872e-06	5.1734e-06	427.72	141.23	123.42	42.891	2.4341e-06	52.515	0.00049343	0.00053243	0.00015207	1391.8	5.767e-06	6.0573e-06	1389	379.09	5.9369e-06	5.8121e-06	431.28	144.79	126.04	43.547	5.8081e-06	53.738	224.049	-18.332	-24.978	-114.378	52.344	11.196	-114.397	-109.545	-8.137	40.814	-109.871	-105.825	-105.060	-100.701	21.604	-101.382	-8191	255	
11006.176	1	1	0	0	0.18778	0.19214	0.068818	0.10547	0.1388	0.07482	0.33763	0.16869	0.19125	0.17925	0.18908	0.11462	0.19015	0.32789	0.030658	0.29085	-2.8646	-3.0979	-2.9437	-3.4854	-3.0167	-3.1542	-3.4792	-3.2104	-3.0792	-3.375	-3.1292	-3.5333	-3.1688	-3.2667	-3.3417	-3.1792	175.212	-60.168	8.631	213.620	-112.530	87.892	199.171	-112.643	-109.046	157.831	229.019	-104.693	153.495	226.369	13.911	156.960	0.00025829	0.00056795	0.00013726	1387.3	4.1626e-06	6.0053e-06	1370.5	373.31	3.2055e-06	5.5704e-06	427.52	141.7	123.13	42.629	4.177e-06	52.56	0.0004897	0.00052582	0.00014394	1392.9	5.7803e-06	5.8003e-06	1385.3	378.61	5.8446e-06	5.6686e-06	431.85	145.23	125.91	43.511	5.7778e-06	53.644	231.055	-8.360	-39.059	-114.113	18.222	19.815	-114.068	-109.736	-10.933	28.982	-109.901	-105.765	-105.170	-100.624	16.799	-101.216	-8191	255	
11006.272	1	1	0	0	0.23703	0.19616	0.11879	0.23097	0.17034	0.028302	0.40396	0.021204	0.09671	0.26314	0.13866	0.17974	0.077059	0.32052	0.15964	0.29659	-2.8042	-3.3125	-2.8833	-3.4375	-3.2646	-3.2792	-3.4313	-3.3604	-3.0417	-3.3312	-3.0333	-3.3854	-3.2604	-3.1208	-3.3688	-3.1979	43.110	103.029	-118.407	192.149	1.448	168.785	158.373	94.645	-96.498	-122.811	22.412	-93.086	-40.412	217.761	228.861	168.049	0.00028437	0.00080162	0.00018698	1383	4.9724e-06	5.375e-06	1374.8	373.96	3.1961e-06	7.9162e-06	426.58	142.03	123.52	42.782	2.8137e-06	52.673	0.00048048	0.00051928	0.000149	1391	5.714e-06	5.7736e-06	1386.8	378.59	5.7602e-06	5.7554e-06	430.75	145.21	126.28	43.598	5.7407e-06	53.819	-126.923	-33.771	-36.584	-114.246	19.719	39.052	-114.059	-109.535	-19.579	42.811	-110.137	-106.023	-105.228	-100.725	12.174	-101.197	-8191	255	
11006.368	1	1	0	0	0.075739	0.17643	0.11225	0.21532	0.13506	0.21893	0.36841	0.20642	0.095563	0.13268	0.070826	0.22592	0.13602	0.38185	0.091423	0.0074188	-2.8167	-3.3521	-2.7833	-3.3583	-3.325	-2.8063	-3.4646	-3.3354	-3.125	-3.3063	-3.0875	-3.3875	-3.2229	-3.2333	-3.3917	-3.3312	231.907	32.698	22.219	-104.950	168.947	175.042	169.337	151.276	164.936	127.972	105.771	-109.091	-35.505	-96.559	36.493	-80.551	0.00026995	0.00048002	0.00016525	1383.2	4.6671e-06	4.5505e-06	1374.9	373.68	1.8576e-06	8.157e-06	427.45	142.56	123.75	42.685	2.6053e-06	53.05	0.00049647	0.00052638	0.00014966	1392.1	5.6251e-06	5.8387e-06	1388.4	378.82	5.8552e-06	5.8103e-06	431.87	145.32	126.44	43.603	5.5748e-06	53.901	232.445	-30.240	-19.581	-114.129	4.507	30.850	-114.160	-109.494	20.847	7.654	-109.960	-105.807	-105.317	-100.587	47.442	-101.195	-8191	255	
11006.489	1	1	0	0	0.088455	0.1986	0.22553	0.4594	0.074525	0.089289	0.17859	0.25413	0.21386	0.21379	0.29786	0.14679	0.21147	0.12663	0.14124	0.40453	-2.5958	-3.4	-3.0438	-3.1646	-3.1625	-2.9938	-3.4313	-3.1958	-3.0979	-3.5208	-3.0312	-3.1396	-3.4708	-2.8583	-3.2479	-3.2583	138.358	70.606	202.093	229.079	167.906	225.787	209.311	212.550	159.190	121.981	228.302	169.160	95.848	156.736	189.228	110.965	0.00029883	0.00044526	7.3487e-05	1382.9	5.4865e-06	1.449e-06	1376.7	373.01	3.2843e-06	4.1954e-06	426.77	142.04	123.26	42.702	3.5859e-06	52.598	0.0004922	0.0005262	0.00015025	1391.7	5.6616e-06	5.6438e-06	1388.2	379.05	5.885e-06	5.6735e-06	431.63	145.11	126.1	43.563	5.7762e-06	53.779	225.445	-23.252	-15.291	-114.237	0.926	-51.816	-114.004	-109.543	3.300	26.111	-110.173	-105.777	-105.274	-100.558	6.085	-101.238	-8191	255	
11006.559	1	1	0	0	0.31199	0.11535	0.10095	0.089773	0.095786	0.15031	0.26651	0.074667	0.094957	0.17277	0.12755	0.082509	0.25651	0.38127	0.20706	0.19791	-2.7396	-3.2167	-3.0375	-3.3604	-3.1833	-2.8771	-3.3812	-3.2271	-2.9333	-3.4375	-3.1979	-3.1042	-3.3812	-2.9521	-3.2562	-3.2458	145.835	43.544	-38.808	195.530	228.038	-21.887	199.482	174.953	18.532	41.440	177.794	46.396	-100.593	183.247	-83.920	200.224	0.00026803	0.00036857	0.00018512	1384.3	2.7358e-06	3.9042e-06	1370.2	374.48	3.8542e-06	2.6756e-06	426.48	141.06	123.29	42.794	4.9507e-06	52.764	0.00049873	0.00053245	0.00014375	1392.1	5.6545e-06	5.8708e-06	1387.2	378.73	5.9198e-06	5.6917e-06	431.43	144.79	125.96	43.55	5.7641e-06	53.729	229.537	-47.200	-12.677	-114.057	-17.571	15.842	-114.295	-109.516	-6.732	23.044	-109.943	-105.840	-105.097	-100.658	31.873	-101.206	-8191	255	
11006.655	1	1	0	0	0.078438	0.20809	0.23128	0.30511	0.14469	0.1403	0.16792	0.18845	0.093147	0.083332	0.23618	0.10085	0.1417	0.084648	0.20906	0.17944	-2.6042	-3.2521	-2.8833	-3.1917	-3.2562	-2.8104	-3.2438	-3.2938	-2.9375	-3.3	-3.3771	-3.05	-3.3833	-3.2958	-3.2021	-3.2625	78.486	-13.554	-87.369	-110.042	85.277	39.522	191.512	146.648	-96.635	-64.448	190.209	161.531	-112.508	135.794	-99.145	109.439	0.00029622	0.0005421	0.00019014	1378.5	4.4006e-06	3.2477e-06	1375.2	372.12	3.5725e-06	2.4631e-06	426.36	141.21	123.04	42.528	4.2835e-06	52.906	0.00049283	0.00052579	0.00014758	1389	5.8595e-06	5.9315e-06	1386.9	377.74	5.717e-06	5.7459e-06	430.12	144.49	125.76	43.451	5.5069e-06	53.726	230.345	-40.812	-40.361	-114.031	40.561	45.942	-114.126	-109.609	-2.333	4.017	-109.767	-105.764	-105.247	-100.726	4.833	-101.071	-8191	255	
11006.751	1	1	0	0	0.14208	0.16224	0.17657	0.28414	0.096656	0.27703	0.34803	0.11628	0.19842	0.31246	0.082722	0.14965	0.070085	0.29879	0.29603	0.20991	-2.6229	-3.2375	-3.0146	-3.1375	-3.3375	-2.9062	-3.3146	-3.4	-3.0354	-3.3333	-3.3125	-3.1188	-3.3021	-3.0875	-2.9854	-3.2917	46.685	220.243	-100.108	213.053	-111.320	209.048	186.774	-114.605	163.190	127.219	171.809	-34.055	231.602	198.458	151.340	84.941	0.00025764	0.00069811	0.00012741	1381.1	5.6365e-06	3.1697e-06	1366.6	373.5	2.9555e-06	3.8961e-06	425.79	140.71	122.84	42.538	4.4994e-06	52.62	0.00048809	0.00052218	0.00014585	1387.2	5.7607e-06	5.7588e-06	1382.3	378.23	5.8901e-06	5.6783e-06	430.59	144.29	125.82	43.459	5.7422e-06	53.765	230.101	-39.944	-14.514	-114.212	25.343	-1.244	-114.226	-109.714	-20.331	23.399	-109.639	-105.637	-105.128	-101.038	55.142	-101.176	-8191	255	
11006.872	1	1	0	0	0.31531	0.2828	0.17617	0.11205	0.18973	0.054954	0.025718	0.35623	0.18035	0.088029	0.096691	0.12741	0.19813	0.18087	0.12579	0.23376	-2.5521	-3.3583	-3.0375	-3.1063	-3.2458	-3.0083	-3.4167	-3.4042	-3.0771	-3.1542	-3.25	-2.975	-3.3375	-3.0812	-3.0875	-3.4562	56.250	-83.506	195.291	-98.325	220.575	218.470	215.205	176.541	178.836	6.922	150.700	178.123	169.974	168.427	-64.544	114.431	0.00024628	0.00032375	0.00018826	1384.2	4.3096e-06	5.8975e-06	1372.5	373.79	3.7897e-06	7.3413e-06	426.13	142.44	123.42	42.7	4.9838e-06	52.789	0.0004892	0.00053056	0.00014654	1391.6	5.7566e-06	5.7195e-06	1389	378.95	5.8037e-06	5.7905e-06	430.79	145.33	126.07	43.573	5.7767e-06	53.878	231.183	-22.284	-30.837	-113.991	31.904	5.012	-114.097	-109.518	-0.138	39.689	-110.011	-105.614	-105.238	-100.656	-14.239	-101.131	-8191	255	
11006.968	1	1	0	0	0.071011	0.24968	0.16335	0.21258	0.2238	0.12919	0.21182	0.099998	0.038405	0.09107	0.19433	0.25578	0.29938	0.099644	0.19411	0.2247	-2.5833	-3.3479	-3.2188	-3.3125	-3.2708	-3.0354	-3.2875	-3.4271	-2.8396	-3.1542	-3.3604	-3.2042	-3.3479	-3.2	-2.9417	-3.3979	147.286	-117.458	43.600	112.871	28.305	0.555	176.186	-101.715	218.259	186.917	-110.022	172.329	198.140	-84.173	227.691	95.054	0.00027061	0.00057081	0.0001099	1386.6	4.1953e-06	2.8925e-06	1379.1	372.61	4.1307e-06	7.4181e-06	427.54	142.21	123.62	42.831	5.1298e-06	53.05	0.00049324	0.00052286	0.00015034	1393.4	5.9818e-06	5.6402e-06	1390.1	378.35	5.9022e-06	5.7383e-06	431.15	145.4	126.43	43.683	5.8636e-06	53.953	231.684	-26.321	-11.573	-114.040	39.785	3.716	-113.909	-109.561	-10.818	9.375	-110.023	-105.781	-105.423	-100.736	54.682	-101.376	-8191	255	
11007.064	1	1	0	0	0.14059	0.28837	0.14646	0.22558	0.27121	0.20491	0.21858	0.231	0.14479	0.21088	0.14326	0.14635	0.049622	0.25513	0.25116	0.057842	-2.5646	-3.1417	-3.1771	-3.1958	-3.2521	-3.1396	-3.1688	-3.5042	-3.0812	-3.1937	-3.4479	-3.0604	-3.2458	-3.3812	-2.9375	-3.3812	-54.552	219.696	-123.215	195.410	-73.862	153.730	4.391	194.754	-98.908	134.949	178.749	150.511	140.565	-110.268	5.001	9.227	0.00026422	0.00057704	7.8786e-05	1383.8	9.3626e-07	4.5267e-06	1376.1	374.67	3.6068e-06	6.2696e-06	426.21	141.39	123.45	42.447	3.1761e-06	52.477	0.00049444	0.00053064	0.00014542	1392.9	5.8531e-06	5.8917e-06	1388.8	379.02	6.0209e-06	6.0662e-06	430.6	144.64	125.95	43.408	6.0948e-06	53.627	226.613	-44.866	-42.084	-114.018	-16.382	29.285	-113.823	-109.221	15.732	36.760	-110.159	-105.728	-105.405	-100.900	-2.107	-101.088	-8191	255	
11007.136	1	1	0	0	0.34936	0.047203	0.037302	0.3001	0.34404	0.18778	0.19047	0.31574	0.24786	0.1545	0.13526	0.39566	0.17588	0.12499	0.24827	0.20389	-2.5875	-2.9688	-3.2042	-3.2417	-3.1167	-3.1479	-3.2583	-3.5208	-3.3438	-3.0708	-3.4354	-2.9979	-3.3083	-3.275	-2.9229	-3.3917	172.461	-102.673	136.964	230.031	189.525	-55.340	152.334	158.367	-110.009	195.202	-27.501	125.630	211.234	216.459	88.400	190.397	0.00027924	0.00064704	0.00017882	1381.6	3.8585e-06	4.9743e-06	1370.4	371.81	3.1358e-06	5.5863e-06	425.19	140.82	122.67	42.423	2.2807e-06	52.272	0.00049937	0.00055224	0.00015188	1390.4	5.8911e-06	6.1264e-06	1385.9	377.36	6.0346e-06	5.9869e-06	429.5	144.27	125.52	43.352	6.1464e-06	53.468	-123.143	-52.672	-34.788	-114.079	42.898	57.575	-114.169	-109.436	0.555	21.100	-109.964	-105.835	-105.127	-100.537	47.045	-101.488	-8191	255	
11007.256	1	1	0	0	0.13855	0.15004	0.11433	0.17577	0.085869	0.05804	0.18887	0.35443	0.26614	0.14262	0.14163	0.12646	0.29128	0.10245	0.19828	0.12523	-2.8229	-3.1167	-3.1396	-3.1979	-3.0979	-3.1625	-3.1875	-3.5104	-3.2042	-3.1813	-3.5667	-3.1479	-3.1396	-3.4583	-2.9333	-3.2917	142.167	162.990	180.834	188.941	-16.906	106.044	143.739	123.600	-43.419	87.452	181.747	189.021	-114.247	212.791	152.109	-79.201	0.00026096	0.00029251	6.4951e-05	1376.4	4.2043e-06	4.9518e-06	1363.6	371.76	4.275e-06	7.1918e-06	425.91	141.12	122.28	42.316	4.553e-06	52.106	0.00049764	0.00054963	0.00015363	1385.3	6.063e-06	6.0139e-06	1383.8	376.62	6.1151e-06	6.1604e-06	429.68	144.04	125.18	43.237	6.1219e-06	53.29	224.143	-33.141	-62.180	-114.146	2.205	11.651	-114.068	-109.576	20.966	37.612	-109.966	-106.059	-105.173	-100.637	35.734	-101.248	-8191	255	
11007.352	1	1	0	0	0.092595	0.087186	0.13731	0.17002	0.12866	0.083276	0.18855	0.30034	0.18708	0.083721	0.1347	0.17849	0.15876	0.13435	0.19699	0.10779	-2.7646	-3.1521	-3.3646	-3.2104	-3.3521	-3.275	-3.2812	-3.3833	-3.1771	-3.1458	-3.5333	-3.1042	-3.0208	-3.3083	-3.0375	-3.3604	218.195	2.833	28.884	-100.972	-42.562	-77.214	203.878	148.984	-95.617	44.041	-111.387	51.742	192.991	146.958	-24.813	154.641	0.0002836	0.0005871	0.00010372	1374.3	4.959e-06	5.3391e-06	1366.6	370.76	3.2057e-06	5.4743e-06	424.88	139.61	122.05	42.326	2.3496e-06	52.288	0.00050906	0.0005652	0.00015656	1384.9	6.0898e-06	6.0388e-06	1380.7	376.38	6.1069e-06	6.2007e-06	429.38	143.5	125.2	43.231	6.1525e-06	53.387	226.343	-41.856	-35.133	-114.166	44.938	34.566	-114.043	-109.639	24.876	22.072	-110.141	-105.619	-105.147	-101.091	17.402	-101.076	-8191	255	
11007.448	1	1	0	0	0.063844	0.18132	0.054955	0.19745	0.13643	0.10569	0.25324	0.32773	0.10599	0.045862	0.072916	0.11972	0.37128	0.40449	0.14564	0.12703	-2.6813	-2.9833	-3.4562	-3.0521	-2.9333	-3.5312	-3.0792	-3.5542	-3.1937	-2.9729	-3.4771	-3.075	-2.9792	-3.3979	-2.9292	-3.1688	-63.551	20.173	-77.328	-55.393	-33.611	-60.919	143.458	216.890	166.095	181.209	-94.847	-126.032	129.993	182.001	-98.995	96.094	0.00030553	0.00038291	0.00021231	1374.9	4.5546e-06	2.9191e-06	1362.9	371.57	2.896e-06	8.0323e-06	424.77	140.71	122.15	42.406	3.3067e-06	52.207	0.0005211	0.00056323	0.0001554	1385.7	6.2202e-06	6.2509e-06	1378.5	376.17	6.1838e-06	6.2021e-06	428.61	143.98	125.02	43.21	6.2075e-06	53.378	229.245	-34.950	-26.541	-113.898	28.492	44.565	-114.153	-109.597	-4.272	16.201	-110.040	-105.655	-105.451	-100.814	-4.134	-101.333	-8191	255	
11007.569	1	1	0	0	0.05287	0.024445	0.096631	0.17635	0.11135	0.03446	0.24118	0.26383	0.13269	0.14642	0.14954	0.047139	0.074563	0.11779	0.20256	0.11332	-2.9021	-2.7521	-3.3542	-3.3354	-3.1063	-3.2083	-3.2083	-3.4104	-3.3896	-2.8646	-3.4167	-3.1437	-3.1458	-3.35	-3.0187	-3.0563	137.509	158.873	177.069	219.019	-85.117	126.429	196.418	227.578	104.553	164.821	-32.320	151.813	222.097	70.989	-14.560	136.281	0.0002713	0.00061326	0.00011844	1382.1	2.808e-06	3.5341e-06	1367.7	371.08	3.3119e-06	7.4001e-06	424.2	140.69	122.29	42.334	2.7476e-06	52.29	0.00052644	0.00057051	0.00015839	1387.6	6.2236e-06	6.2639e-06	1382.6	376.04	6.3001e-06	6.0692e-06	429.41	143.8	125.15	43.179	6.2594e-06	53.354	-127.287	-19.251	-17.265	-114.235	13.103	18.611	-114.127	-109.340	-42.161	43.374	-110.005	-105.801	-105.213	-100.656	18.029	-101.191	-8191	255	
11007.663	1	1	0	0	0.20738	0.18937	0.055912	0.22681	0.14457	0.15721	0.19025	0.1484	0.038994	0.15473	0.14163	0.21299	0.13954	0.12309	0.14723	0.14195	-2.9854	-2.8417	-3.2729	-3.1625	-2.9354	-3.3792	-3.2979	-3.0979	-3.2438	-2.9021	-3.425	-3.2875	-2.9938	-3.4437	-3.0104	-3.1625	186.351	-126.052	-5.569	159.338	-5.819	-46.422	139.349	209.289	138.496	139.154	157.522	226.171	-117.988	206.584	152.750	73.895	0.00026226	0.00065961	9.7109e-05	1376.8	3.0829e-06	3.9833e-06	1368.3	371.51	2.1976e-06	4.5479e-06	423.68	140.08	122.22	42.398	2.9276e-06	52.027	0.00053243	0.00058261	0.00016145	1386.8	6.3702e-06	6.3322e-06	1382.8	375.53	6.3783e-06	6.2512e-06	428.71	143.3	125.07	43.145	6.3483e-06	53.221	229.035	-50.216	-36.090	-114.159	49.985	0.007	-114.077	-109.684	7.568	14.748	-110.030	-105.803	-105.276	-100.579	31.395	-101.289	-8191	255	
11007.760	1	1	0	0	0.10682	0.074547	0.053718	0.21793	0.066845	0.10204	0.29286	0.25637	0.27225	0.061353	0.20477	0.36573	0.39411	0.10584	0.20109	0.11712	-2.7958	-2.8563	-3.1896	-3.2292	-3.0479	-3.3792	-3.2917	-3.1667	-3.1875	-3.0292	-3.3146	-3.3187	-3.0646	-3.4271	-3.0938	-3.1437	1.550	70.755	-96.219	5.466	108.263	-102.010	157.477	230.109	147.470	-109.158	-114.879	208.884	229.640	-85.850	121.123	53.401	0.00029344	0.00054239	0.00022635	1381.1	3.1201e-06	3.484e-06	1372.4	371.73	2.9271e-06	7.6965e-06	423.85	140.04	122.06	42.072	3.2525e-06	51.993	0.00053054	0.0005945	0.00016631	1389.2	6.5788e-06	6.6421e-06	1385.6	376.3	6.6491e-06	6.6831e-06	428.97	143.42	124.85	43.058	6.6081e-06	53.229	-126.998	-13.748	-45.694	-114.177	17.304	37.574	-114.545	-109.525	-1.133	0.525	-109.904	-105.834	-105.345	-100.519	-10.700	-101.160	-8191	255	
11007.856	1	1	0	0	0.10526	0.20743	0.16323	0.36954	0.14057	0.16354	0.21393	0.1988	0.17689	0.11791	0.10344	0.066146	0.20222	0.1416	0.35817	0.10829	-2.7938	-3.0563	-3.0646	-3.4396	-2.9604	-3.25	-3.3042	-3.1292	-3.3042	-3.1125	-3.2104	-3.2854	-2.9	-3.1833	-3.1333	-2.9458	-12.570	-29.133	186.143	-114.338	-68.739	12.336	122.798	153.395	-90.014	-80.978	12.376	-105.727	166.864	14.768	36.528	140.390	0.00026806	0.00067834	0.00010701	1381.5	2.1923e-06	5.922e-06	1378.2	371.78	4.6663e-06	5.3646e-06	424.09	140.16	121.86	42.038	2.0046e-06	52.372	0.00055634	0.00061958	0.00017188	1391.2	6.8279e-06	6.8348e-06	1387.4	376.51	6.7444e-06	6.7239e-06	428.62	143.64	124.93	42.988	6.8622e-06	53.312	229.894	-46.737	-9.676	-114.038	-20.371	30.879	-114.269	-109.366	21.777	9.216	-110.015	-105.570	-105.319	-100.877	15.795	-101.029	-8191	255	
11007.952	1	1	0	0	0.030756	0.13426	0.17461	0.23849	0.068276	0.36457	0.3647	0.34531	0.07638	0.26441	0.25179	0.14945	0.097449	0.26229	0.1322	0.19085	-2.8667	-3.0187	-2.9667	-3.3896	-2.9	-2.9729	-3.4375	-2.9375	-3.3417	-3.1229	-3.0687	-3.4208	-2.9917	-3.1479	-3.2271	-2.9729	130.951	-84.252	-107.173	147.807	216.256	-17.379	150.069	210.028	-0.919	193.055	163.697	-126.771	107.306	-39.590	180.217	176.877	0.00026868	0.00056804	0.00013808	1381.1	3.9329e-06	5.2202e-06	1376	370.38	2.5636e-06	8.0177e-06	424.31	140.35	121.58	42.467	3.6462e-06	52.156	0.00055242	0.00060548	0.00017219	1390.5	6.7714e-06	6.8054e-06	1388.4	375.82	6.891e-06	6.8819e-06	428.92	143.55	124.84	43.128	6.9537e-06	53.329	229.794	-25.742	0.904	-114.141	14.855	41.567	-114.085	-109.519	-22.875	25.119	-110.079	-105.756	-105.244	-100.738	5.114	-101.450	-8191	255	
11008.048	1	1	0	0	0.2239	0.038582	0.25252	0.18666	0.057919	0.15664	0.04799	0.19476	0.22137	0.1726	0.035645	0.20303	0.21519	0.17066	0.034433	0.17724	-2.7792	-3.1667	-3.0708	-3.3708	-3.0438	-3.0979	-3.4917	-3.05	-3.325	-3.2333	-3.2562	-3.3854	-3.1021	-3.1792	-3.3667	-3.0771	-19.123	141.878	164.837	200.512	174.369	-82.088	132.608	-123.618	63.228	-36.967	-7.612	-94.299	168.108	-84.026	191.244	-79.409	0.00029602	0.0003745	0.00014495	1387.9	3.2569e-06	1.3755e-06	1381.8	371.41	1.8464e-06	1.1768e-06	425.47	140.25	122.34	42.146	4.1873e-06	52.284	0.00054743	0.00062903	0.00017364	1393.2	6.7925e-06	6.8521e-06	1389	376.89	6.8044e-06	6.5858e-06	429.43	143.59	125.01	43.122	6.8084e-06	53.382	225.037	-23.446	-22.054	-114.094	44.418	15.956	-114.256	-109.453	-18.591	53.543	-110.072	-105.772	-105.260	-100.628	-14.663	-101.202	-8191	255	
11008.169	1	1	0	0	0.16738	0.2108	0.24477	0.037348	0.28644	0.12352	0.095277	0.34325	0.14068	0.13844	0.030686	0.033813	0.25572	0.27988	0.15619	0.16482	-2.7354	-3.0833	-2.9375	-3.4042	-3.1937	-3.15	-3.5583	-3.1979	-3.2333	-3.0938	-3.0687	-3.5312	-3.1771	-3.2979	-3.025	-3.075	-13.441	-72.117	130.931	218.650	189.239	188.965	132.609	222.715	219.174	42.290	24.839	-30.177	-110.279	184.744	84.369	168.222	0.00028189	0.00058179	0.0001073	1383.7	1.5262e-06	6.3365e-06	1378.1	371.4	5.4693e-06	6.2218e-06	424.44	140.68	121.85	42.107	5.1037e-06	52.083	0.00056391	0.00061946	0.00017819	1392.3	6.7857e-06	6.9141e-06	1389.3	376.41	7.0241e-06	7.0267e-06	429.47	143.66	124.81	42.959	7.0736e-06	53.123	225.354	-36.125	-42.622	-114.131	-41.105	38.239	-114.024	-109.597	-14.451	49.756	-109.946	-105.902	-105.410	-100.801	16.063	-101.070	-8191	255	
11008.265	1	1	0	0	0.088204	0.18302	0.13637	0.30394	0.17944	0.21022	0.19984	0.46188	0.11732	0.11388	0.11502	0.13432	0.12189	0.20997	0.19319	0.1534	-2.75	-3.3125	-2.8688	-3.4667	-3.1417	-3.1729	-3.6042	-3.3417	-3.2021	-3.2354	-3.0687	-3.4083	-3.2938	-3.1188	-3.3958	-3.2625	7.028	27.530	218.095	131.843	118.919	-74.574	148.315	164.483	-66.240	198.167	181.157	64.088	162.161	178.624	26.915	-124.180	0.00029477	0.00041511	9.5398e-05	1380.4	3.2898e-06	4.2171e-06	1371.5	371.84	3.3253e-06	6.0469e-06	426.6	140.14	121.56	42.103	6.354e-06	52.199	0.00056801	0.00062583	0.00017594	1392.1	6.7212e-06	7.1596e-06	1385.5	376.52	6.8374e-06	6.966e-06	430.08	143.35	124.77	43.059	7.1061e-06	53.243	229.831	-24.868	-14.713	-113.963	60.862	58.252	-114.033	-109.423	-7.293	22.204	-110.136	-105.721	-105.290	-100.454	18.355	-101.442	-8191	255	
11008.361	1	1	0	0	0.13753	0.10856	0.15788	0.13775	0.11199	0.10621	0.16292	0.21665	0.07481	0.12389	0.13254	0.13223	0.12058	0.31437	0.075623	0.11471	-2.7521	-3.2458	-2.9896	-3.4896	-3.1479	-2.9813	-3.6271	-3.2083	-3.0333	-3.3458	-2.9771	-3.3729	-3.2479	-3.0146	-3.3438	-3.0229	-6.691	123.905	186.383	223.559	-109.870	42.950	177.915	77.884	216.715	40.297	88.307	154.461	123.668	177.189	93.542	126.137	0.00027889	0.00059632	9.4841e-05	1386.7	2.712e-06	5.3781e-06	1371.8	371.6	3.2333e-06	8.0151e-06	425.14	140.25	122.7	42.126	1.8741e-06	52.023	0.00055991	0.00062587	0.0001754	1391	6.878e-06	6.9229e-06	1387.3	376.61	6.7264e-06	6.9196e-06	429.27	143.73	125.22	43.007	6.873e-06	53.31	-126.842	-11.015	-37.980	-114.146	14.833	-3.375	-114.053	-109.678	-24.072	5.668	-110.021	-105.803	-105.483	-100.582	-7.824	-101.078	-8191	255	
11008.433	1	1	0	0	0.14419	0.1583	0.36344	0.091732	0.28111	0.10091	0.40002	0.054423	0.049326	0.093058	0.30482	0.15424	0.10891	0.081328	0.080831	0.15457	-2.6562	-3.3312	-3.0104	-3.3271	-3.1979	-3.0062	-3.4896	-3.2229	-3.0104	-3.1917	-3.0854	-3.275	-3.2333	-3.0563	-3.2625	-3.2042	-67.507	207.189	214.464	227.360	-33.775	157.267	184.130	132.304	134.269	30.877	160.014	184.238	140.662	-43.271	-12.436	113.789	0.00024491	0.00051358	0.00013868	1384.4	3.4156e-06	4.1473e-06	1376.1	371.46	3.6885e-06	6.3173e-06	425.73	140.78	122.41	42.199	4.8466e-06	52.272	0.00057171	0.00063132	0.00017756	1393.7	6.78e-06	7.0192e-06	1389.7	376.69	6.8781e-06	6.7952e-06	429.84	143.96	125.16	43.094	7.025e-06	53.308	229.405	-49.261	-43.100	-114.123	7.490	13.887	-114.260	-109.458	2.177	23.340	-110.115	-106.135	-105.453	-100.565	11.159	-101.154	-8191	255	
11008.552	1	1	0	0	0.15897	0.22374	0.10825	0.10506	0.14643	0.20482	0.23327	0.019812	0.36508	0.17828	0.21262	0.14134	0.14708	0.15316	0.20389	0.021162	-2.5375	-3.1854	-2.9333	-3.4437	-3.2542	-3.0812	-3.4688	-3.2354	-3.0375	-3.2896	-3.0354	-3.2	-3.2625	-2.9542	-3.2417	-3.2917	-125.185	73.415	134.323	200.318	80.880	185.428	186.314	89.927	28.300	-83.366	154.372	199.641	88.017	186.061	-17.210	80.569	0.0002842	0.00058501	0.00019435	1383.5	9.3757e-07	6.0082e-06	1378.2	371.67	5.0056e-06	4.1218e-06	425.41	140.32	122.07	42.3	4.629e-06	52.257	0.00057323	0.00063743	0.00017783	1392.8	6.8023e-06	7.0976e-06	1390.6	376.77	6.9599e-06	7.0372e-06	430.88	143.72	125.33	43.155	6.8917e-06	53.419	221.537	-35.207	-34.765	-114.043	95.786	23.876	-114.028	-109.534	-15.885	17.225	-109.848	-105.652	-105.342	-100.948	41.395	-101.186	-8191	255	
11008.649	1	1	0	0	0.26768	0.13406	0.026351	0.13637	0.19067	0.10735	0.0516	0.15725	0.070841	0.29052	0.29906	0.29728	0.083945	0.16708	0.24143	0.22394	-2.5354	-3.2229	-2.9875	-3.2417	-3.3937	-2.7396	-3.3812	-3.4646	-3.0583	-3.3438	-3.0187	-3.1417	-3.3312	-3.025	-3.1833	-3.3229	-95.015	-7.367	-6.073	-93.040	-94.615	-84.330	-26.116	187.772	-55.631	16.123	-109.268	175.625	167.218	-72.909	110.576	167.811	0.0002951	0.00046332	0.00016842	1389	2.8174e-06	4.403e-06	1379.7	370.86	3.9992e-06	8.9726e-06	426.98	140.65	121.83	42.483	3.6637e-06	52.104	0.00058429	0.0006515	0.00017784	1397.3	6.9476e-06	7.2519e-06	1392.2	376.98	7.1027e-06	7.0765e-06	431.37	144.04	125.19	43.247	7.05e-06	53.38	227.660	-38.960	-45.233	-114.305	20.327	2.987	-114.135	-109.621	2.233	26.378	-109.956	-105.838	-105.505	-100.809	65.251	-101.416	-8191	255	
11008.744	1	1	0	0	0.22715	0.37505	0.15183	0.17815	0.17135	0.17232	0.23036	0.10647	0.081931	0.18035	0.048892	0.50475	0.08732	0.053104	0.11503	0.24683	-2.6146	-3.3563	-3.0146	-3.3396	-3.4333	-3.0417	-3.4	-3.2375	-2.9979	-3.3438	-3.175	-3.0354	-3.325	-3.1146	-3.1417	-3.4667	-123.550	219.993	182.175	-70.461	27.697	169.760	131.139	123.492	-55.183	-36.325	150.439	139.439	193.597	37.621	21.114	167.104	0.0002666	0.00051484	0.00011474	1383.8	2.7574e-06	3.8851e-06	1380.1	372.33	4.582e-06	8.645e-06	425.18	140.61	122.74	42.172	2.7515e-06	52.35	0.00056656	0.00064271	0.00017755	1395	6.8942e-06	6.9083e-06	1393	377.5	7.026e-06	7.0608e-06	430.7	144	125.65	43.206	6.8104e-06	53.437	228.050	-44.196	-32.393	-114.004	29.080	-3.888	-114.230	-109.718	9.024	19.143	-109.982	-105.809	-105.414	-100.640	38.322	-101.089	-8191	255	
11008.840	1	1	0	0	0.27922	0.2787	0.27605	0.07407	0.14381	0.2161	0.43271	0.21528	0.18924	0.043259	0.4059	0.32459	0.17362	0.37594	0.10554	0.086401	-2.6042	-3.1354	-3.2042	-3	-3.2562	-3.0958	-3.2271	-3.4313	-3.0542	-3.3667	-3.3812	-3.1396	-3.4479	-3.1667	-3.0583	-3.425	136.657	99.123	-3.340	-98.944	-60.599	206.133	163.292	-76.377	44.177	222.373	174.674	213.976	-103.118	180.486	188.227	189.581	0.00027521	0.00049681	0.00010222	1384.8	8.9456e-07	4.6287e-06	1376	371.4	3.9249e-06	3.2703e-06	424.68	141.06	121.96	42.406	4.6907e-06	52.413	0.00056837	0.00063271	0.0001745	1393.8	6.8298e-06	6.8786e-06	1391.9	377.22	7.0821e-06	6.8171e-06	430.43	144.32	125.17	43.265	6.9645e-06	53.518	230.183	-75.547	-38.230	-114.355	2.001	39.037	-114.154	-109.525	0.325	16.814	-110.141	-105.907	-105.351	-100.687	15.720	-101.213	-8191	255	
11008.936	1	1	0	0	0.032688	0.093074	0.17018	0.49217	0.17548	0.093322	0.22152	0.25838	0.036442	0.17771	0.20803	0.15106	0.16194	0.2884	0.18813	0.13476	-2.5438	-3.2146	-3.0583	-3.1521	-3.275	-3.1208	-3.2042	-3.4604	-2.9625	-3.3187	-3.4375	-3.1813	-3.475	-3.2021	-3.0396	-3.4229	36.416	-36.253	21.355	204.615	-107.444	117.033	152.835	98.817	78.125	-113.518	99.225	-92.001	177.185	-92.372	166.336	-106.466	0.00029443	0.00055058	0.00013989	1385.8	4.9407e-06	5.7801e-06	1377.4	373.29	2.3442e-06	3.5016e-06	426.18	140.91	122.6	42.556	2.5308e-06	52.533	0.00057494	0.00063172	0.0001746	1396.3	6.8334e-06	6.9523e-06	1393.2	378.15	6.819e-06	6.7349e-06	431.34	144.29	125.69	43.381	6.9704e-06	53.59	223.196	-50.758	-32.866	-114.049	33.666	29.471	-114.140	-109.469	3.602	20.094	-109.833	-105.711	-105.513	-100.819	6.323	-101.589	-8191	255	
11009.032	1	1	0	0	0.095085	0.18506	0.1389	0.41429	0.16173	0.098269	0.030683	0.16493	0.20514	0.14618	0.22493	0.094376	0.0082899	0.29927	0.24077	0.093811	-2.6229	-3.1271	-3.1937	-3.075	-3.35	-3.1646	-3.2958	-3.4562	-2.9	-3.2958	-3.3958	-3.1688	-3.3333	-3.2083	-2.9188	-3.3771	106.901	-104.879	-40.019	193.127	-42.764	227.069	216.746	171.515	-37.336	229.486	196.151	-77.625	-4.325	-127.350	145.211	-74.305	0.00027942	0.0006067	9.8067e-05	1389	1.9652e-06	4.8805e-06	1380.4	372.75	2.1784e-06	6.5604e-06	427.64	141.77	122.51	42.253	4.0918e-06	52.399	0.00056432	0.00062451	0.00017658	1398.9	6.8471e-06	6.7753e-06	1392.8	378.12	6.7103e-06	6.9099e-06	430.94	144.53	125.51	43.252	6.9034e-06	53.399	-126.900	-33.891	-41.382	-114.011	33.594	26.687	-113.990	-109.735	-4.972	34.415	-110.160	-105.982	-105.422	-100.740	22.359	-101.133	-8191	255	
11009.128	1	1	0	0	0.026755	0.17196	0.21145	0.3485	0.1186	0.0828	0.1199	0.098119	0.26755	0.20698	0.1515	0.2351	0.19085	0.30387	0.22383	0.2346	-2.6729	-3.0896	-3.1354	-2.9542	-3.0917	-3.1771	-3.2021	-3.4229	-2.9458	-3.0062	-3.5146	-3.1083	-3.3458	-3.1917	-2.9125	-3.4813	130.158	-6.613	-74.466	189.599	115.390	226.928	155.257	-90.415	-28.801	130.580	197.090	-90.866	176.398	193.654	50.182	191.470	0.00028149	0.00042014	0.00010366	1386.8	5.1894e-06	4.8231e-06	1377.5	372.57	2.8102e-06	6.2423e-06	426.87	141.3	122.96	42.554	4.6094e-06	52.482	0.00056053	0.0006107	0.00017723	1396.1	6.7199e-06	6.7903e-06	1392.3	377.91	6.9292e-06	6.881e-06	431.41	144.62	125.67	43.314	6.9518e-06	53.557	229.105	-45.984	-16.138	-114.149	13.188	8.044	-114.352	-109.608	57.137	-2.387	-110.082	-105.832	-105.402	-100.714	23.944	-100.995	-8191	255	
11009.249	1	1	0	0	0.069555	0.1335	0.20168	0.45768	0.25726	0.13196	0.034534	0.15643	0.18825	0.15961	0.15742	0.031312	0.32004	0.077169	0.14741	0.10468	-2.4708	-3.0042	-3.275	-3.1667	-3.0729	-3.2438	-3.2667	-3.4604	-3.0875	-2.8271	-3.2313	-3.1188	-3.3354	-3.1729	-2.9938	-3.2333	-38.249	167.254	224.406	213.436	120.537	51.549	145.688	138.039	27.606	60.216	160.597	107.276	213.032	-62.650	47.546	-109.465	0.0002874	0.00047242	8.8458e-05	1386.1	4.299e-06	3.7101e-06	1378.9	372.31	3.8783e-06	4.3374e-06	426.45	140.07	122.67	42.334	2.8758e-06	52.542	0.0005647	0.00061275	0.00017485	1395	6.8085e-06	6.9745e-06	1393.2	377.7	6.7878e-06	6.9305e-06	431.29	143.98	125.68	43.233	6.7828e-06	53.549	225.147	-25.744	-21.271	-114.216	28.637	28.323	-114.085	-109.714	3.143	28.709	-109.797	-105.748	-104.920	-100.693	54.104	-101.132	-8191	255	
11009.345	1	1	0	0	0.15441	0.040978	0.14686	0.13627	0.033409	0.36485	0.15575	0.28694	0.38612	0.15234	0.063292	0.082943	0.16315	0.29231	0.11806	0.22482	-2.7229	-2.8667	-3.1917	-3.1875	-3.2375	-3.2958	-2.9354	-3.5896	-3.0187	-2.9667	-3.4437	-3.2625	-3.2125	-3.4542	-2.9375	-3.4625	90.648	-94.818	177.078	154.082	82.334	-64.996	162.621	174.139	62.691	173.431	159.074	196.578	-124.495	-85.453	145.961	-76.040	0.00030273	0.00030325	0.00020122	1386.1	3.9626e-06	2.4229e-06	1374.7	371.09	2.3446e-06	4.8191e-06	427.04	140.99	122.8	42.297	3.3819e-06	52.377	0.00055965	0.0006067	0.00017357	1396.3	6.7378e-06	6.9274e-06	1392	377.78	6.7789e-06	6.8817e-06	430.65	144.1	125.51	43.283	6.8338e-06	53.5	227.784	-60.497	-29.808	-114.091	56.718	39.333	-114.214	-109.475	-37.684	21.307	-110.124	-105.842	-105.351	-100.873	16.646	-101.133	-8191	255	
11009.441	1	1	0	0	0.22726	0.15109	0.093037	0.14204	0.42909	0.10086	0.10509	0.37359	0.17164	0.13687	0.32747	0.16791	0.15799	0.22488	0.055166	0.21478	-2.9667	-2.9583	-3.0729	-3.2313	-3.2604	-3.4333	-3.2354	-3.3271	-3.1104	-3	-3.5333	-3.1979	-3.0667	-3.3979	-3.1167	-3.2438	-44.204	44.742	-24.779	172.381	71.625	73.848	166.420	200.793	133.495	106.703	-18.454	141.771	-50.308	204.816	-18.091	164.271	0.00029304	0.00066355	0.00011742	1386.7	2.2034e-06	5.9593e-06	1376.9	373.74	4.7048e-06	3.7257e-06	426.53	140.73	123.25	42.395	2.3358e-06	52.647	0.00056733	0.00063787	0.00017392	1397.2	6.7322e-06	6.8126e-06	1390	378.02	6.8128e-06	6.7956e-06	430.83	144.35	125.6	43.344	6.9351e-06	53.589	225.878	-29.015	-28.578	-114.166	47.916	14.562	-114.004	-109.610	-3.369	33.448	-110.056	-105.851	-105.130	-100.517	34.340	-101.039	-8191	255	
11009.538	1	1	0	0	0.12605	0.24783	0.20054	0.15499	0.13953	0.096762	0.1621	0.34503	0.27397	0.14295	0.13266	0.24372	0.11109	0.082339	0.11939	0.16473	-2.8292	-2.9813	-3.4	-3.4188	-3.125	-3.3333	-3.3146	-3.4896	-3.2687	-2.9896	-3.4375	-3.1583	-3.1417	-3.3729	-3.0187	-3.2042	34.514	231.091	84.226	110.530	96.338	86.510	187.506	165.545	80.188	104.581	-95.833	157.516	9.147	-107.303	228.962	7.824	0.00026224	0.0006589	9.9794e-05	1385.9	2.5099e-06	3.0887e-06	1383.3	372.42	4.1546e-06	3.661e-06	425.71	140.61	123.2	42.542	3.1791e-06	52.508	0.00056092	0.00063882	0.00017374	1397.7	6.8164e-06	6.802e-06	1392.2	377.6	6.6741e-06	6.7017e-06	430.88	144.28	125.75	43.308	6.4608e-06	53.517	224.788	-32.041	-46.633	-114.097	19.440	-18.523	-114.126	-109.632	-20.577	17.343	-109.958	-105.741	-105.501	-100.667	43.732	-100.861	-8191	255	
11009.656	1	1	0	0	0.24841	0.08502	0.17872	0.25507	0.17393	0.054117	0.49815	0.19903	0.44797	0.20047	0.16145	0.23992	0.13573	0.1372	0.29386	0.15148	-2.8958	-2.8563	-3.1688	-3.2542	-3.1042	-3.2875	-3.2687	-3.2083	-3.1604	-3.0354	-3.3521	-3.0896	-2.8688	-3.5333	-2.9917	-3.075	230.960	141.552	126.787	104.113	165.615	218.030	160.762	-123.195	90.149	217.055	194.777	195.941	108.383	156.775	9.853	-32.667	0.00028105	0.00045685	0.00014577	1386.5	5.348e-06	3.8439e-06	1378.7	373.53	3.7459e-06	6.5932e-06	427.75	141.35	122.22	42.684	4.749e-06	52.827	0.0005433	0.00062087	0.00016913	1395	6.6366e-06	6.714e-06	1392.9	378.07	6.6304e-06	6.6598e-06	431.16	144.66	125.46	43.391	6.6204e-06	53.66	230.461	-84.868	-25.307	-114.121	18.802	31.882	-114.280	-109.560	29.968	33.817	-109.918	-105.876	-105.373	-100.772	15.183	-101.301	-8191	255	
11009.728	1	1	0	0	0.12128	0.016935	0.099729	0.10577	0.22241	0.063475	0.21445	0.070092	0.26467	0.025431	0.15231	0.28944	0.1901	0.18617	0.055882	0.17367	-2.9375	-2.8688	-3.0938	-3.4479	-3.1625	-3.2771	-3.1271	-3.0521	-3.3458	-2.9417	-3.1521	-3.3	-3.1437	-3.2479	-3.0146	-3.0604	-121.365	-71.691	-16.986	-67.763	217.879	145.883	183.788	-78.333	86.163	73.909	152.580	166.965	111.696	-121.487	115.872	-98.234	0.00028058	0.00037082	0.00021009	1388.3	2.6938e-06	4.3064e-06	1384.2	372.93	3.7939e-06	6.6925e-06	426.85	140.22	122.8	42.465	2.9264e-06	52.507	0.00055693	0.00061046	0.00017234	1397.3	6.8882e-06	6.7686e-06	1394	377.84	6.8497e-06	6.8144e-06	431.22	144.13	125.47	43.304	6.8683e-06	53.516	232.372	-21.610	-24.716	-114.194	24.124	45.390	-114.209	-109.620	11.689	35.146	-109.924	-105.849	-105.277	-100.702	30.382	-101.163	-8191	255	
11009.849	1	1	0	0	0.37077	0.11745	0.11634	0.54473	0.080946	0.046213	0.22802	0.24564	0.13093	0.13648	0.27554	0.19442	0.10859	0.24915	0.18308	0.059759	-2.9458	-3.0042	-3.1333	-3.3063	-2.9375	-3.3104	-3.3521	-2.9604	-3.3833	-3.0854	-3.2771	-3.4188	-3.3125	-3.3167	-3.2208	-3.1896	175.353	-10.549	164.414	185.354	124.857	-85.667	190.074	152.680	226.268	199.895	196.964	115.121	211.809	218.286	-64.496	138.791	0.00028609	0.00049621	0.00010656	1388.7	3.4979e-06	4.8706e-06	1376.7	373.8	2.7736e-06	7.1596e-06	424.69	141.06	122.77	42.501	2.8535e-06	52.205	0.00056814	0.00062794	0.00017443	1396.3	6.8865e-06	7.0354e-06	1392.3	378.11	6.8849e-06	6.781e-06	430.6	144.2	125.54	43.275	6.741e-06	53.416	231.224	-44.547	-58.049	-114.180	11.210	39.954	-114.214	-109.782	-9.869	26.047	-109.997	-105.761	-105.401	-100.855	16.505	-101.216	-8191	255	
11009.945	1	1	0	0	0.06364	0.022653	0.14177	0.035352	0.18992	0.20624	0.083344	0.27657	0.20027	0.13787	0.25491	0.13916	0.31049	0.29493	0.12474	0.071883	-2.9604	-2.9604	-2.9042	-3.3979	-2.9271	-3.1854	-3.3312	-3.1771	-3.2	-2.9688	-3.3	-3.3917	-3.125	-3.1917	-3.3458	-2.9792	-103.652	-11.891	-106.796	94.960	38.089	231.474	119.660	165.004	-91.081	183.743	180.819	147.161	-98.795	164.302	-92.501	-56.943	0.00028216	0.00077718	0.0002164	1390.1	3.4901e-06	3.2458e-06	1381.3	371.37	3.7465e-06	8.0317e-06	429.09	140.55	122.23	42.49	3.2521e-06	52.166	0.00055621	0.00062531	0.00017615	1395.7	6.8452e-06	6.8478e-06	1391.5	377.41	6.7808e-06	6.8418e-06	431.5	144	125.22	43.335	6.6592e-06	53.413	228.595	-16.788	-19.377	-114.192	25.101	27.852	-114.196	-109.538	-9.123	34.485	-110.026	-105.951	-105.427	-100.875	28.962	-101.194	-8191	255	
11010.041	1	1	0	0	0.027559	0.03413	0.30419	0.17391	0.19716	0.11803	0.24739	0.30245	0.22634	0.24455	0.15601	0.18067	0.40208	0.32733	0.14137	0.1546	-2.7792	-3.0083	-2.9771	-3.4667	-2.8854	-3.4021	-3.2979	-3.1021	-3.2896	-3.1688	-3.1292	-3.4583	-3.1354	-3.1875	-3.2812	-2.9708	-14.838	167.073	4.846	-88.718	24.840	-63.604	-114.347	173.533	150.980	82.700	211.472	156.981	-94.217	-115.822	227.560	217.408	0.00028634	0.00053119	0.00015209	1391.1	4.244e-06	5.2399e-06	1377.5	372.03	4.5956e-06	7.5632e-06	427.72	141.34	122.56	42.53	4.2019e-06	52.578	0.00054894	0.0006067	0.00016854	1394.4	6.6229e-06	6.8557e-06	1391.6	378.02	6.7857e-06	6.6663e-06	430.94	144.52	125.56	43.331	6.8043e-06	53.496	224.602	-18.867	-32.313	-114.372	60.970	21.136	-114.128	-109.543	-0.816	30.639	-109.921	-105.951	-105.250	-100.580	54.904	-100.930	-8191	255	
11010.137	1	1	0	0	0.29533	0.11327	0.04572	0.27881	0.026721	0.15439	0.24185	0.092352	0.13526	0.19328	0.46217	0.19498	0.18656	0.027019	0.17988	0.045829	-2.8458	-3.0958	-2.9354	-3.4	-2.9979	-3.0687	-3.4875	-2.9542	-3.2458	-3.2479	-3.2104	-3.4958	-3.2479	-3.2792	-3.3354	-3.0625	82.613	2.275	105.065	177.629	-25.733	93.891	144.563	175.199	169.926	93.503	156.208	209.654	-90.854	-37.855	223.434	132.034	0.00026548	0.00058745	0.00013862	1386.7	5.8281e-06	4.2844e-06	1375.9	372.42	3.5047e-06	6.2394e-06	426.44	140.67	122.34	42.448	4.0355e-06	52.369	0.00055355	0.00061044	0.00017458	1394.3	6.696e-06	6.8699e-06	1390.5	377.93	6.8508e-06	6.851e-06	430.58	144.1	125.12	43.246	6.8396e-06	53.377	-125.803	-48.496	-8.911	-114.102	39.727	16.143	-114.028	-109.576	-3.489	43.172	-110.137	-105.838	-105.308	-100.977	-1.167	-100.982	-8191	255	
11010.258	1	1	0	0	0.218	0.11572	0.13731	0.10648	0.27542	0.069563	0.16895	0.32684	0.1338	0.18584	0.20264	0.20446	0.083533	0.18529	0.20237	0.18624	-2.7188	-2.9542	-2.6604	-3.4979	-3.1146	-3.0896	-3.4479	-3.2354	-3.2188	-3.2021	-3.1104	-3.2687	-3.1125	-3.2667	-3.3104	-3.0958	116.377	-88.287	109.107	147.944	147.817	91.968	194.003	162.286	101.876	50.065	-40.650	148.349	133.683	80.930	148.898	77.049	0.0003022	0.00040263	0.00010899	1387.4	2.6089e-06	5.0082e-06	1377.6	373.18	3.7258e-06	4.8747e-06	426.69	140.93	122.43	42.273	3.5193e-06	52.555	0.00055006	0.00062559	0.00017843	1395.6	6.686e-06	6.7683e-06	1389.7	378	6.7614e-06	6.8319e-06	431.09	144.22	125.41	43.24	6.7607e-06	53.467	225.651	-51.185	-28.037	-114.032	20.702	15.601	-114.022	-109.529	-18.130	62.372	-109.743	-105.959	-105.136	-100.908	22.702	-101.258	-8191	255	
11010.329	1	1	0	0	0.11469	0.17435	0.15761	0.33512	0.20723	0.094541	0.17345	0.014951	0.12869	0.13112	0.083227	0.30869	0.25496	0.2661	0.095298	0.43011	-2.675	-3.3396	-3.1083	-3.2646	-3.0021	-3.0271	-3.5354	-3.2188	-2.8646	-3.2687	-3.0312	-3.5938	-3.1646	-3.0979	-3.1521	-2.9104	54.580	-108.315	27.191	183.517	169.878	67.111	148.732	212.540	-112.755	28.478	187.754	-97.281	175.093	203.311	46.151	158.905	0.00027552	0.00042662	0.00013005	1389.8	2.4554e-06	2.8751e-06	1379.6	372.18	2.3879e-06	3.8483e-06	424.62	140.62	122.65	42.447	3.6093e-06	52.606	0.00055978	0.00063528	0.00017907	1395.2	6.869e-06	7.0033e-06	1391.3	377.4	6.869e-06	6.9267e-06	430.26	144.01	125.17	43.303	6.8505e-06	53.439	-126.969	-45.633	-26.713	-114.136	-11.334	92.559	-114.069	-109.694	3.782	32.217	-109.852	-105.810	-105.231	-100.649	35.456	-101.188	-8191	255	
11010.426	1	1	0	0	0.13302	0.051308	0.21483	0.16771	0.16188	0.068339	0.21256	0.20805	0.14207	0.013103	0.25126	0.18947	0.21357	0.022295	0.20673	0.11014	-2.5896	-3.2458	-2.8167	-3.4104	-3.0187	-2.9625	-3.3021	-3.1917	-2.8937	-3.3063	-3.1167	-3.3688	-3.175	-2.9771	-3.1562	-3.0312	217.581	11.147	-3.645	130.965	176.366	47.307	183.535	131.970	129.898	-77.224	95.431	209.531	-23.125	183.448	-57.277	-85.273	0.00028902	0.00055113	0.00020069	1386.7	2.9888e-06	5.4253e-06	1380.1	371.78	4.1177e-06	6.3569e-06	425.04	140.49	122.01	42.303	3.3706e-06	52.609	0.00056645	0.00063962	0.00017894	1395.6	6.7678e-06	6.9774e-06	1391.5	377.42	7.0298e-06	6.9964e-06	430.31	144.02	125.27	43.217	6.8808e-06	53.42	231.149	-7.350	-46.202	-113.850	-3.543	7.263	-114.248	-109.674	35.422	7.013	-110.262	-105.892	-105.316	-100.782	-9.511	-101.237	-8191	255	
11010.522	1	1	0	0	0.16102	0.066693	0.14046	0.16743	0.11149	0.24125	0.091396	0.27015	0.252	0.26963	0.16636	0.079328	0.091942	0.14347	0.009818	0.22378	-2.5625	-3.2792	-2.9813	-3.2021	-3.1979	-3.0354	-3.5812	-3.2687	-2.9792	-3.2854	-3.0729	-3.2875	-3.2979	-3.1167	-3.1333	-3.0438	62.309	-14.645	-84.506	224.038	216.659	101.958	106.836	148.296	105.785	8.446	-127.687	166.452	-105.723	218.744	151.232	198.723	0.00025584	0.00032813	0.00011005	1389	3.2836e-06	3.5198e-06	1377.3	371.64	1.2383e-06	4.598e-06	425.75	140.49	122.04	42.52	2.0046e-06	52.485	0.00056053	0.00063058	0.00017849	1396.4	6.7849e-06	6.9891e-06	1391.6	377.18	6.9895e-06	6.8875e-06	430.53	144	125.18	43.259	6.7724e-06	53.426	227.582	-42.412	-30.088	-114.081	-2.518	25.899	-114.074	-109.735	-38.891	69.765	-109.897	-105.762	-105.264	-100.767	27.635	-101.365	-8191	255	
11010.618	1	1	0	0	0.098651	0.098376	0.18316	0.072599	0.33327	0.088778	0.27177	0.18317	0.08311	0.21354	0.11641	0.086707	0.20709	0.24719	0.2845	0.11699	-2.5979	-3.2604	-2.9938	-3.25	-3.325	-2.925	-3.4333	-3.1896	-2.9021	-3.2875	-3.0271	-3.1854	-3.2812	-3.1333	-3.1646	-3.1104	-8.624	-15.474	46.759	145.486	-115.118	-102.228	157.850	196.116	-4.044	81.291	208.479	84.945	157.888	-67.887	143.275	173.623	0.00028919	0.00043364	8.2485e-05	1390.7	3.0653e-06	5.4684e-06	1379.8	373.29	4.1488e-06	3.7403e-06	425.7	140.59	122.06	42.289	5.1617e-06	52.377	0.00057207	0.00063393	0.00017391	1395.8	6.8415e-06	7.1315e-06	1391	377.87	7.1116e-06	6.9973e-06	430.77	143.85	125.16	43.187	6.8136e-06	53.456	226.987	-42.682	-50.915	-114.120	-14.008	38.843	-114.137	-109.597	-19.638	44.168	-110.011	-105.813	-105.498	-100.518	4.953	-101.331	-8191	255	
11010.737	1	1	0	0	0.080632	0.19796	0.11465	0.30154	0.037643	0.10889	0.26564	0.19654	0.01916	0.13111	0.1214	0.19081	0.24184	0.16514	0.074924	0.0066321	-2.4437	-3.225	-3.0354	-3.3146	-3.275	-3.0833	-3.2771	-3.3438	-2.7938	-3.2729	-3.2229	-3.1417	-3.3042	-3.0646	-3.0833	-3.3354	59.194	-18.839	-61.275	-104.737	56.363	8.015	217.847	131.052	227.819	214.548	-99.583	166.365	-109.584	186.017	147.779	21.882	0.00027929	0.00025779	9.7094e-05	1388.8	4.2508e-06	6.7496e-06	1378.5	373.32	2.6469e-06	8.1082e-06	424.33	141.2	122.86	42.456	4.9988e-06	52.352	0.00058129	0.00063242	0.00017458	1397.1	6.9687e-06	7.0963e-06	1391.6	377.21	7.0957e-06	6.976e-06	430.32	144.14	125.44	43.261	6.8186e-06	53.45	227.732	-26.224	-36.803	-114.226	31.993	21.771	-114.093	-109.535	-37.310	38.464	-109.987	-105.667	-105.211	-101.044	22.245	-101.211	-8191	255	
11010.833	1	1	0	0	0.17544	0.029641	0.14902	0.11404	0.15698	0.22655	0.2534	0.14617	0.26979	0.073367	0.26298	0.25577	0.046468	0.11354	0.24791	0.2008	-2.5542	-3.2104	-3.1042	-2.8083	-3.1896	-2.9021	-3.3771	-3.5104	-2.9146	-3.3042	-3.2333	-3.1229	-3.2729	-3.1083	-3.175	-3.3396	-77.925	-65.703	65.273	196.683	124.011	188.169	179.155	-69.005	-57.492	-106.989	174.205	77.945	96.681	-57.637	-20.937	202.102	0.00027627	0.00040897	0.00010086	1388.6	3.244e-06	3.1378e-06	1379.5	371.1	2.7849e-06	6.4992e-06	425.18	140.72	121.73	42.235	4.6309e-06	52.414	0.00056569	0.0006194	0.00017495	1396.1	6.7633e-06	6.9606e-06	1391.7	376.9	6.9097e-06	6.9043e-06	430.75	143.9	124.98	43.117	6.6634e-06	53.444	228.858	-72.807	-3.960	-114.101	-3.022	7.641	-113.950	-109.476	-2.107	1.457	-110.189	-105.958	-105.168	-100.749	51.316	-101.159	-8191	255	
11010.929	1	1	0	0	0.3141	0.37412	0.40727	0.25272	0.01365	0.10781	0.13592	0.080059	0.12357	0.15272	0.22698	0.038072	0.19537	0.10347	0.11974	0.21612	-2.5708	-3.2229	-3.0542	-3.1229	-3.5	-3.0438	-3.3229	-3.375	-2.9854	-3.2313	-3.2583	-2.7188	-3.2542	-3.2354	-2.8625	-3.3312	110.946	2.866	156.969	-99.972	70.653	128.894	95.645	206.676	162.985	216.054	199.282	203.599	-123.804	-127.043	149.435	139.358	0.00028177	0.00033846	0.00011045	1388.1	2.9622e-06	3.886e-06	1370.1	371.32	3.4902e-06	7.6755e-06	426.25	140.25	122.7	42.263	3.8993e-06	52.215	0.00056404	0.00061416	0.00016888	1395.6	6.8982e-06	6.7793e-06	1389.5	377.27	7.0109e-06	6.8577e-06	430.16	143.86	125.44	43.265	6.6748e-06	53.446	227.965	-43.564	-57.031	-114.023	26.036	39.064	-114.198	-109.654	10.161	13.771	-110.047	-105.836	-105.318	-100.687	17.259	-101.180	-8191	255	
11011.025	1	1	0	0	0.059221	0.19836	0.29858	0.24953	0.10371	0.17829	0.23921	0.059691	0.030446	0.082961	0.18039	0.13345	0.11323	0.15013	0.088153	0.24416	-2.5833	-3.0458	-3.0479	-3.1208	-3.2833	-3.2	-3.2771	-3.45	-2.9792	-3.1188	-3.1229	-3.15	-3.4521	-3.1479	-2.8792	-3.3417	-107.306	-72.682	16.689	223.770	107.276	94.929	173.968	-124.316	-110.042	-31.758	158.637	72.888	206.654	192.437	156.490	134.636	0.0002628	0.00029699	0.00012677	1389.7	3.2372e-06	4.1188e-06	1378.7	372.51	2.9021e-06	7.3581e-06	424.89	140.33	122.4	42.449	1.1698e-06	52.584	0.00054964	0.00059985	0.00016975	1396.7	6.8368e-06	6.7537e-06	1390.5	378.05	6.905e-06	6.7051e-06	429.93	143.95	125.42	43.268	6.8329e-06	53.524	228.710	-42.910	2.850	-114.046	20.161	33.143	-114.258	-109.723	-12.882	36.216	-110.042	-105.769	-105.469	-100.744	-79.136	-101.202	-8191	255	
11011.121	1	1	0	0	0.10097	0.1082	0.13987	0.17631	0.10015	0.19107	0.20794	0.081731	0.064074	0.32928	0.19954	0.31478	0.091689	0.29527	0.2349	0.31606	-2.7083	-3.0708	-3.1271	-3.225	-3.1729	-3.1833	-3.0896	-3.2604	-3.0229	-3.2104	-3.4792	-2.9042	-3.1229	-3.3	-2.9021	-3.3771	88.654	131.115	-84.594	223.570	170.537	-37.753	130.894	158.052	117.639	111.565	97.155	202.177	174.635	194.964	-92.788	166.025	0.00026232	0.00042792	0.00018359	1383.7	3.796e-06	4.258e-06	1372.2	372.1	2.1369e-06	4.0961e-06	425.42	141.08	122.72	42.412	6.0231e-06	52.3	0.00056072	0.000611	0.00017417	1393.4	6.7241e-06	6.7254e-06	1389.8	377.63	6.7762e-06	6.7582e-06	430.29	144.32	125.53	43.276	6.739e-06	53.485	229.100	-10.021	-33.352	-114.031	3.838	41.184	-114.173	-109.493	-2.452	40.282	-110.147	-105.892	-105.216	-100.569	0.642	-101.265	-8191	255	
11011.218	1	1	0	0	0.19521	0.20027	0.12621	0.40148	0.17732	0.041907	0.15581	0.109	0.11464	0.1392	0.13598	0.096276	0.25794	0.088488	0.033286	0.13668	-2.6	-3.0208	-3.2292	-3.2583	-3.2	-3.2229	-3.0646	-3.3229	-3.0021	-2.8333	-3.4833	-3.0625	-3.3042	-3.1875	-3.0125	-3.3937	150.677	81.403	229.435	151.878	-37.712	-106.441	150.593	219.805	159.639	92.120	138.964	166.308	-30.196	111.446	161.670	168.015	0.00028445	0.00026229	0.00017538	1386.4	2.2186e-06	5.1126e-06	1380.8	372.39	3.9238e-06	5.5614e-06	426.01	140.94	122.82	42.375	2.191e-06	52.75	0.00055483	0.00061472	0.00017018	1395.3	6.6971e-06	6.4896e-06	1392.4	378	6.5355e-06	6.5744e-06	431.08	144.65	125.84	43.455	6.3691e-06	53.698	-121.929	-79.361	-42.818	-114.305	28.274	54.322	-114.038	-109.665	23.535	-6.984	-109.833	-105.618	-105.369	-100.523	38.042	-101.582	-8191	255	
11011.338	1	1	0	0	0.12938	0.047769	0.26424	0.48251	0.18791	0.13475	0.28755	0.098929	0.14152	0.19	0.038636	0.17162	0.12668	0.07392	0.042027	0.18242	-2.6417	-3.0125	-3.4542	-3.2021	-3.2146	-3.2042	-3.0771	-3.2771	-3.3792	-3	-3.4833	-3.0312	-3.2083	-3.1562	-2.85	-3.4729	166.944	57.369	55.860	212.424	160.902	143.248	151.297	-125.269	137.215	119.423	10.947	179.581	186.250	206.390	218.328	125.098	0.00024786	0.00035016	0.00014163	1387.7	1.6793e-06	6.848e-06	1381.3	372.94	4.689e-06	5.5731e-06	426.68	141.72	123.38	42.684	3.7889e-06	52.589	0.00054174	0.00060562	0.00016609	1397.7	6.4576e-06	6.6608e-06	1394.7	378.34	6.4274e-06	6.6318e-06	430.95	144.55	125.68	43.378	6.4443e-06	53.623	-126.477	-46.976	-11.149	-114.014	43.928	33.827	-114.126	-109.605	11.071	25.556	-109.964	-106.131	-105.301	-100.841	-15.840	-101.316	-8191	255	
11011.434	1	1	0	0	0.079515	0.13609	0.080998	0.36918	0.084162	0.34137	0.22734	0.3562	0.096406	0.10188	0.10346	0.43647	0.11943	0.10979	0.11587	0.26107	-2.8125	-2.9896	-3.2333	-3.0062	-3.1104	-3.3042	-3.3438	-3.2354	-3.15	-2.9521	-3.2542	-3.2542	-3.1625	-3.2083	-2.8708	-3.2646	177.811	160.748	56.116	214.693	155.565	137.050	205.101	203.952	-106.979	204.679	74.944	161.917	171.779	-127.398	175.454	185.500	0.0002623	0.00056524	0.00015656	1393.6	4.1178e-06	4.6381e-06	1381.1	373.89	5.5095e-06	3.6e-06	426.43	141.25	122.82	42.598	3.4189e-06	52.487	0.00052305	0.00059169	0.00016544	1398.2	6.4755e-06	6.4615e-06	1392.7	378.55	6.505e-06	6.4096e-06	431.27	144.65	125.74	43.352	6.4233e-06	53.634	229.413	-47.078	-39.590	-114.080	34.728	15.714	-114.053	-109.701	2.826	11.546	-109.878	-105.990	-105.476	-100.845	7.357	-101.119	-8191	255	
11011.530	1	1	0	0	0.13107	0.15316	0.2202	0.046256	0.11169	0.081233	0.12126	0.097893	0.12221	0.068321	0.036307	0.15467	0.1066	0.19775	0.086559	0.24812	-2.8146	-2.9125	-3.15	-3.4667	-3.0771	-3.1688	-3.2229	-3.4229	-3.2667	-2.9229	-3.4625	-3.2188	-3.0687	-3.4292	-2.7917	-3.1354	138.337	-118.002	158.955	67.022	144.846	-84.867	187.875	177.187	-105.577	127.292	6.875	179.198	31.249	97.690	23.615	102.638	0.00028065	0.00038338	0.00011835	1385.6	2.9839e-06	4.2969e-06	1377	372.42	2.117e-06	4.6581e-06	426.95	140.62	123.02	42.324	6.1773e-06	52.424	0.0005356	0.00059097	0.00016504	1396	6.4472e-06	6.5754e-06	1391.6	378.03	6.402e-06	6.4415e-06	431.33	144.24	125.81	43.276	6.5332e-06	53.469	225.031	-59.866	-43.764	-114.327	-14.306	4.526	-114.009	-109.640	48.544	21.027	-110.089	-105.897	-105.543	-100.563	12.091	-101.203	-8191	255	
11011.627	1	1	0	0	0.19369	0.19402	0.35093	0.28259	0.20605	0.079612	0.13589	0.25101	0.16073	0.050198	0.041143	0.115	0.1386	0.35233	0.10223	0.18112	-3.0229	-2.9729	-3.2438	-3.2583	-2.8125	-3.1458	-3.2229	-3.4021	-3.1854	-3.1042	-3.2188	-3.0563	-2.9188	-3.1979	-3.1458	-3.0646	2.116	147.700	-118.405	132.381	105.866	-85.921	-55.053	142.058	13.884	70.260	12.386	165.633	-118.709	188.406	171.472	122.743	0.00026812	0.00041444	8.4466e-05	1388.5	2.6941e-06	4.4172e-06	1378	373.33	4.378e-06	3.7812e-06	425.92	141.13	122.69	42.46	4.8004e-06	52.272	0.00053047	0.00057811	0.00016068	1395.4	6.3973e-06	6.4759e-06	1391.6	377.77	6.3223e-06	6.3603e-06	429.79	144.16	125.66	43.303	6.5361e-06	53.435	230.831	-52.915	-28.102	-114.060	31.768	2.679	-113.984	-109.609	-8.862	47.358	-109.844	-105.904	-105.316	-100.607	7.821	-101.385	-8191	255	
#DATA ENDS
