BOXY.EXE: ISS Imagent and Oximeter Data Acquisition Program Version 0.80
Ascii Record File

#ACQ INFORMATION
2  Detector Channels 
16  External MUX Channels 
1  Auxiliary Channels 
5000  Waveform (CCF) Frequency (Hz)
1  Waveforms Skipped 
30  Waveforms Averaged 
1  Cycles Averaged 
16  Acquisitions per Waveform 
10.0806  Updata Rate (Hz) 

#FILE INFORMATION
TRUE -- External MUX Channel results are PARSED.
FALSE -- AC DC and Phase are NOT grouped.
TRUE -- Companion Program Settings File CREATED.
FALSE -- AC data not excluded
FALSE -- DC data not excluded
FALSE -- Phase data not excluded
FALSE -- Auxillary Chn. data not excluded
Tab delimiters

#CALIBRATION STATE
TRUE -- Waveform Calibration Values APPLIED.


#AUX CALIBRATION VALUES
Val Type	aux-1	

Term	1.0000e+00	
Factor	0.0000e+00	


#WF CALIBRATION VALUES
A = Detector Channel
Val Type	A-AC1	A-AC2	A-AC3	A-AC4	A-AC5	A-AC6	A-AC7	A-AC8	A-AC9	A-AC10	A-AC11	A-AC12	A-AC13	A-AC14	A-AC15	A-AC16	A-DC1	A-DC2	A-DC3	A-DC4	A-DC5	A-DC6	A-DC7	A-DC8	A-DC9	A-DC10	A-DC11	A-DC12	A-DC13	A-DC14	A-DC15	A-DC16	A-Ph1	A-Ph2	A-Ph3	A-Ph4	A-Ph5	A-Ph6	A-Ph7	A-Ph8	A-Ph9	A-Ph10	A-Ph11	A-Ph12	A-Ph13	A-Ph14	A-Ph15	A-Ph16	

Term	0.00000e+00	0.00000e+00	0.00000e+00	0.00000e+00	0.00000e+00	0.00000e+00	0.00000e+00	0.00000e+00	0.00000e+00	0.00000e+00	0.00000e+00	0.00000e+00	0.00000e+00	0.00000e+00	0.00000e+00	0.00000e+00	0.00000e+00	0.00000e+00	0.00000e+00	0.00000e+00	0.00000e+00	0.00000e+00	0.00000e+00	0.00000e+00	0.00000e+00	0.00000e+00	0.00000e+00	0.00000e+00	0.00000e+00	0.00000e+00	0.00000e+00	0.00000e+00	0.00000e+00	0.00000e+00	0.00000e+00	0.00000e+00	0.00000e+00	0.00000e+00	0.00000e+00	0.00000e+00	0.00000e+00	0.00000e+00	0.00000e+00	0.00000e+00	0.00000e+00	0.00000e+00	0.00000e+00	0.00000e+00	
Factor	1.00000e+00	1.00000e+00	1.00000e+00	1.00000e+00	1.00000e+00	1.00000e+00	1.00000e+00	1.00000e+00	1.00000e+00	1.00000e+00	1.00000e+00	1.00000e+00	1.00000e+00	1.00000e+00	1.00000e+00	1.00000e+00	1.00000e+00	1.00000e+00	1.00000e+00	1.00000e+00	1.00000e+00	1.00000e+00	1.00000e+00	1.00000e+00	1.00000e+00	1.00000e+00	1.00000e+00	1.00000e+00	1.00000e+00	1.00000e+00	1.00000e+00	1.00000e+00	X	X	X	X	X	X	X	X	X	X	X	X	X	X	X	X	

B = Detector Channel
Val Type	B-AC1	B-AC2	B-AC3	B-AC4	B-AC5	B-AC6	B-AC7	B-AC8	B-AC9	B-AC10	B-AC11	B-AC12	B-AC13	B-AC14	B-AC15	B-AC16	B-DC1	B-DC2	B-DC3	B-DC4	B-DC5	B-DC6	B-DC7	B-DC8	B-DC9	B-DC10	B-DC11	B-DC12	B-DC13	B-DC14	B-DC15	B-DC16	B-Ph1	B-Ph2	B-Ph3	B-Ph4	B-Ph5	B-Ph6	B-Ph7	B-Ph8	B-Ph9	B-Ph10	B-Ph11	B-Ph12	B-Ph13	B-Ph14	B-Ph15	B-Ph16	

Term	0.00000e+00	0.00000e+00	0.00000e+00	0.00000e+00	0.00000e+00	0.00000e+00	0.00000e+00	0.00000e+00	0.00000e+00	0.00000e+00	0.00000e+00	0.00000e+00	0.00000e+00	0.00000e+00	0.00000e+00	0.00000e+00	0.00000e+00	0.00000e+00	0.00000e+00	0.00000e+00	0.00000e+00	0.00000e+00	0.00000e+00	0.00000e+00	0.00000e+00	0.00000e+00	0.00000e+00	0.00000e+00	0.00000e+00	0.00000e+00	0.00000e+00	0.00000e+00	-8.04234e+01	-1.37847e+02	-1.26162e+02	-1.82834e+02	-5.24038e+01	-6.82097e+01	-1.55347e+02	-1.62015e+02	-4.71552e+01	-6.29094e+01	-1.72033e+02	-1.69492e+02	-1.81206e+02	-1.77425e+02	-5.66357e+01	-1.49202e+02	
Factor	1.68067e-05	1.52540e-04	4.40358e-05	1.87130e-01	1.38784e-06	1.99638e-06	1.64779e-01	5.01756e-02	1.18323e-06	1.85048e-06	9.42551e-02	2.86956e-02	2.94153e-02	9.20885e-03	1.44991e-06	1.33427e-02	1.24920e-05	2.31203e-05	6.69980e-06	9.28491e-02	2.39388e-07	2.69183e-07	7.70233e-02	2.51105e-02	2.33104e-07	2.70199e-07	4.56869e-02	1.40546e-02	1.49162e-02	4.64599e-03	2.50135e-07	6.52096e-03	X	X	X	X	X	X	X	X	X	X	X	X	X	X	X	X	



#DISTANCE SETTINGS
A = Detector Channel
A-1	A-2	A-3	A-4	A-5	A-6	A-7	A-8	A-9	A-10	A-11	A-12	A-13	A-14	A-15	A-16	

2.5000e+00	3.0000e+00	2.5000e+00	3.0000e+00	2.0000e+00	3.0000e+00	1.5000e+00	3.0000e+00	3.0000e+00	3.0000e+00	3.0000e+00	3.0000e+00	3.0000e+00	3.0000e+00	1.5000e+00	3.0000e+00	

B = Detector Channel
B-1	B-2	B-3	B-4	B-5	B-6	B-7	B-8	B-9	B-10	B-11	B-12	B-13	B-14	B-15	B-16	

1.0000e+01	1.0000e+01	1.0000e+01	1.4400e+00	1.0000e+01	1.0000e+01	1.5100e+00	1.9400e+00	1.0000e+01	1.0000e+01	1.9900e+00	2.4900e+00	2.4100e+00	2.9000e+00	1.0000e+01	2.9800e+00	




#DATA BEGINS
time	group	step	mark	flag	A-AC1	A-AC2	A-AC3	A-AC4	A-AC5	A-AC6	A-AC7	A-AC8	A-AC9	A-AC10	A-AC11	A-AC12	A-AC13	A-AC14	A-AC15	A-AC16	A-DC1	A-DC2	A-DC3	A-DC4	A-DC5	A-DC6	A-DC7	A-DC8	A-DC9	A-DC10	A-DC11	A-DC12	A-DC13	A-DC14	A-DC15	A-DC16	A-Ph1	A-Ph2	A-Ph3	A-Ph4	A-Ph5	A-Ph6	A-Ph7	A-Ph8	A-Ph9	A-Ph10	A-Ph11	A-Ph12	A-Ph13	A-Ph14	A-Ph15	A-Ph16	B-AC1	B-AC2	B-AC3	B-AC4	B-AC5	B-AC6	B-AC7	B-AC8	B-AC9	B-AC10	B-AC11	B-AC12	B-AC13	B-AC14	B-AC15	B-AC16	B-DC1	B-DC2	B-DC3	B-DC4	B-DC5	B-DC6	B-DC7	B-DC8	B-DC9	B-DC10	B-DC11	B-DC12	B-DC13	B-DC14	B-DC15	B-DC16	B-Ph1	B-Ph2	B-Ph3	B-Ph4	B-Ph5	B-Ph6	B-Ph7	B-Ph8	B-Ph9	B-Ph10	B-Ph11	B-Ph12	B-Ph13	B-Ph14	B-Ph15	B-Ph16	aux-1	digaux	

679.826	1	1	0	768	0.14867	0.050149	0.019871	0.092002	0.22219	0.065193	0.24541	0.26278	0.26085	0.12197	0.041547	0.069023	0.033039	0.16481	0.22254	0.19202	-2.9771	-3.1354	-3.15	-3.6688	-2.9854	-3.4	-3.4583	-3.3479	-3.2729	-3.0104	-3.3583	-3.4688	-3.0812	-3.4521	-3.2542	-3.0792	252.099	202.259	170.936	181.250	180.366	177.788	316.711	279.809	184.152	73.696	29.164	36.680	357.013	234.078	127.693	295.922	0.00032065	0.0004861	0.00014581	1368.3	4.6962e-06	5.9409e-06	1365.5	367.85	3.8613e-06	5.019e-06	423.31	139.78	122.22	42.018	6.9378e-06	52.089	0.00053624	0.00066461	0.00018553	1381.1	7.2535e-06	7.3184e-06	1380.9	375	7.2743e-06	7.4626e-06	428.84	143.35	124.97	43.043	7.3946e-06	53.275	196.714	111.414	125.145	38.829	202.899	162.446	38.723	43.483	211.287	159.180	42.842	47.798	48.071	52.210	193.123	51.765	-8191	255	
679.922	1	1	0	0	0.088122	0.0966	0.092213	0.36073	0.23792	0.16292	0.16765	0.16529	0.13151	0.099587	0.12739	0.1799	0.34662	0.18705	0.21349	0.21437	-2.85	-3.2396	-3.2583	-3.7271	-3.2521	-3.4542	-3.5	-3.1292	-3.5771	-3.3187	-3.1292	-3.4854	-3.2646	-3.4938	-3.6896	-3.3542	294.029	260.688	282.205	344.966	305.276	273.728	341.363	330.541	189.862	262.427	240.680	282.952	344.561	316.431	55.290	368.125	0.00032199	0.00044618	0.00015785	1382.7	5.5393e-06	5.8769e-06	1376.4	371.07	5.0428e-06	4.04e-06	424.93	140.27	122.4	42.133	3.8848e-06	52.566	0.000577	0.00067815	0.0001948	1393.7	7.5048e-06	7.6269e-06	1391.2	377.55	7.4841e-06	7.498e-06	431.25	144.18	125.39	43.3	7.2659e-06	53.667	197.567	98.799	124.459	38.791	212.239	178.668	38.813	43.564	214.178	160.263	42.821	47.624	48.342	52.084	207.744	51.537	-8191	255	
680.018	1	1	0	0	0.075272	0.057982	0.048959	0.39506	0.26823	0.24383	0.41834	0.20021	0.1018	0.13014	0.1483	0.27052	0.085437	0.056917	0.11952	0.24696	-3.0458	-3.2958	-3.3979	-3.7458	-3.3104	-3.5167	-3.8104	-3.5125	-3.6104	-3.5125	-3.2542	-3.5896	-3.2167	-3.3979	-3.4313	-3.1937	59.453	337.496	245.965	378.772	52.854	295.377	344.367	316.456	192.035	141.798	29.372	345.621	62.963	364.191	88.250	71.163	0.0003374	0.00065945	0.00013477	1391.2	4.179e-06	6.3579e-06	1386.4	373.36	3.3454e-06	4.6987e-06	427.13	141.37	122.69	42.386	4.4467e-06	52.632	0.00056305	0.00067068	0.0001843	1402.4	6.9846e-06	7.0492e-06	1398.7	379.53	6.7217e-06	6.7015e-06	432.91	144.76	126.03	43.526	6.7677e-06	53.842	195.633	108.963	128.266	38.715	205.127	167.311	38.933	43.491	190.686	181.182	42.573	47.901	48.148	52.255	189.281	51.441	-8191	255	
680.114	1	1	0	0	0.16247	0.040175	0.024308	0.27415	0.10531	0.1609	0.21011	0.13109	0.11122	0.067716	0.15115	0.1959	0.11697	0.31195	0.25464	0.24804	-3.0938	-3.4813	-3.2667	-3.5792	-3.3521	-3.0771	-3.5917	-3.3375	-3.3146	-3.4688	-3.1167	-3.35	-3.2458	-3.3021	-3.5187	-3.5375	244.535	339.622	131.534	380.404	133.654	201.240	327.690	310.868	296.635	61.663	65.047	313.456	28.975	338.558	229.467	43.656	0.00032905	0.00055219	0.0001298	1391.3	4.6186e-06	4.4746e-06	1387.5	373.98	4.3058e-06	2.8032e-06	426.63	141.49	123.67	42.492	5.1144e-06	52.643	0.00053416	0.00060036	0.00017615	1402.4	6.6684e-06	6.5894e-06	1400.8	380.98	6.6644e-06	6.6711e-06	434.31	145.26	126.62	43.649	6.578e-06	53.945	199.549	119.557	127.078	38.641	199.999	173.874	38.699	43.434	220.370	181.158	42.702	47.588	48.222	52.134	201.710	51.440	-8191	255	
680.210	1	1	0	0	0.20456	0.09925	0.12099	0.37749	0.054264	0.17605	0.14052	0.24359	0.12323	0.10892	0.02651	0.39178	0.23678	0.13384	0.14821	0.20347	-3.0646	-3.4896	-3.0146	-3.5938	-3.2292	-2.9771	-3.6	-3.1604	-3.2938	-3.4417	-3.2396	-3.6833	-3.3625	-3.3667	-3.5938	-3.3312	256.140	88.847	205.411	385.217	212.174	319.482	283.670	252.903	271.854	156.214	314.209	343.171	25.854	348.159	138.445	70.352	0.0003405	0.00059224	0.00011047	1393.3	4.1724e-06	5.0124e-06	1392.2	377	5.0546e-06	5.0264e-06	428.72	141.68	124.59	42.831	6.4279e-06	52.838	0.00052365	0.00059564	0.00017608	1409.3	6.8989e-06	6.9073e-06	1408	383.09	6.7775e-06	6.9278e-06	435.74	145.61	127.14	43.828	7.3566e-06	54.071	201.118	120.322	113.286	38.649	186.626	173.909	38.753	43.542	205.942	182.014	42.928	47.791	48.081	52.311	197.525	51.497	-8191	255	
680.307	1	1	0	0	0.24366	0.14629	0.069527	0.084559	0.07729	0.30067	0.2382	0.24621	0.14385	0.1517	0.12535	0.16146	0.17942	0.27399	0.1105	0.092234	-3.0208	-3.2646	-3.0667	-3.5208	-3.375	-3.1312	-3.7062	-3.4375	-3.4792	-3.7208	-3.3479	-3.4813	-3.3937	-3.0458	-3.3583	-3.3583	313.501	288.402	363.750	170.756	252.976	285.585	327.434	28.121	282.356	151.834	231.820	129.218	373.710	373.492	369.646	351.010	0.00035522	0.00054625	0.00013553	1412.6	3.6091e-06	6.5381e-06	1413.6	379.31	4.4267e-06	5.9596e-06	433.93	143.55	125.89	43.05	5.4418e-06	53.263	0.00058017	0.00067752	0.00019683	1425.7	7.6395e-06	8.0856e-06	1427	386.83	7.3986e-06	7.6703e-06	439.78	147.27	128.53	44.191	7.3123e-06	54.527	198.695	105.716	110.142	38.687	175.640	175.589	38.801	43.453	192.829	176.089	42.828	47.752	47.970	52.296	193.508	51.288	-8191	255	
680.425	1	1	0	0	0.088778	0.15769	0.11602	0.12037	0.1024	0.12698	0.44967	0.21342	0.015542	0.054971	0.014673	0.15981	0.14953	0.25792	0.26527	0.24168	-2.9292	-3.6958	-3.1146	-3.3375	-3.2708	-3.2021	-3.7125	-3.4479	-3.3312	-3.4313	-3.125	-3.2438	-3.4313	-3.3083	-3.4562	-3.4042	316.066	100.587	252.843	374.904	232.756	206.070	349.320	352.045	108.620	344.903	267.642	352.147	43.526	305.200	147.965	241.063	0.00036341	0.00059305	0.00021233	1420.5	4.9775e-06	3.7148e-06	1418.7	383.35	4.1128e-06	5.7213e-06	434.43	144.15	125.93	43.364	5.2864e-06	53.827	0.00055657	0.00065243	0.00018408	1435.8	7.1677e-06	7.1552e-06	1432.7	389.22	6.8314e-06	6.8315e-06	441.57	147.82	129.09	44.478	6.8584e-06	54.878	199.702	104.509	109.222	38.649	197.518	169.092	38.744	43.455	220.210	190.751	42.861	47.634	48.106	52.138	187.191	51.058	-8191	255	
680.522	1	1	0	0	0.1114	0.16113	0.26545	0.19477	0.027873	0.25454	0.27881	0.14239	0.18528	0.41297	0.22406	0.1573	0.14775	0.24804	0.058612	0.11353	-2.7562	-3.6646	-3.1021	-3.4458	-3.2958	-3.1292	-3.8646	-3.6229	-3.2854	-3.5146	-3.0438	-3.1562	-3.375	-3.3812	-3.5667	-3.4792	249.489	101.298	99.033	311.815	185.194	370.347	334.099	266.877	230.245	380.831	53.552	358.116	64.744	324.558	79.367	355.375	0.00034568	0.00046112	0.00015269	1425.6	4.5159e-06	5.5131e-06	1421.7	383.99	4.4594e-06	5.166e-06	436.71	145.55	126.5	43.673	4.8546e-06	53.938	0.00052537	0.00059583	0.00016442	1438.1	6.7158e-06	6.7559e-06	1432.8	390.37	6.5687e-06	6.5416e-06	442.05	148.74	129.45	44.705	6.3102e-06	55.194	198.138	101.279	118.744	38.681	196.013	172.637	38.830	43.429	206.170	193.387	42.824	47.620	48.580	52.249	173.044	51.638	-8191	255	
680.618	1	1	0	0	0.13698	0.11605	0.087259	0.34673	0.10897	0.16985	0.093715	0.3231	0.23463	0.16649	0.03366	0.17446	0.056183	0.21918	0.044314	0.37113	-2.5604	-3.1479	-3.0062	-3.5146	-3.4708	-3.275	-3.725	-3.5563	-3.1063	-3.1875	-3.1437	-3.4042	-3.4917	-3.2188	-3.3833	-3.2271	261.559	246.641	293.600	246.163	35.711	58.118	304.131	324.465	215.964	339.031	115.193	350.938	207.441	342.289	370.998	341.556	0.00033096	0.00044861	0.00011608	1419.8	4.4716e-06	3.3619e-06	1417.6	383.56	3.9671e-06	5.825e-06	436.86	145.46	127.41	43.576	5.0981e-06	53.987	0.0005282	0.00058726	0.00015975	1436	6.5118e-06	6.443e-06	1431.1	390.68	6.5065e-06	6.4381e-06	443.02	148.85	129.71	44.697	6.6369e-06	55.046	196.307	109.490	126.969	38.759	195.308	165.292	38.669	43.377	212.205	181.637	42.804	47.544	48.112	52.281	208.384	51.408	-8191	255	
680.714	1	1	0	0	0.25229	0.071705	0.2102	0.16715	0.0095077	0.31678	0.47874	0.16957	0.20069	0.22924	0.25485	0.095273	0.18486	0.12992	0.24912	0.30555	-2.5167	-3.3688	-3.1604	-3.3396	-3.4896	-3.1354	-3.5875	-3.5208	-3.1854	-3.3458	-3.35	-3.3167	-3.6188	-3.2042	-3.1354	-3.3708	201.902	364.896	75.051	347.742	194.481	349.784	318.176	378.973	75.196	356.711	335.820	337.422	57.676	295.677	190.368	326.168	0.00035145	0.00050084	0.00013283	1425.2	5.4067e-06	5.0333e-06	1415.1	382.95	5.5155e-06	3.7136e-06	434.51	143.84	125.4	43.083	4.9426e-06	53.535	0.0005192	0.00058408	0.00016073	1435.1	6.5163e-06	6.526e-06	1428.5	389.07	6.6862e-06	6.6582e-06	440.76	147.44	128.42	44.2	6.367e-06	54.658	195.879	120.067	127.859	38.911	190.738	173.754	38.665	43.479	218.387	181.069	42.708	47.686	48.049	52.274	173.785	51.578	-8191	255	
680.810	1	1	0	0	0.10838	0.12293	0.14236	0.19664	0.11028	0.087139	0.28786	0.11824	0.16603	0.21435	0.25608	0.19382	0.18983	0.0096245	0.27375	0.14567	-2.5438	-3.1417	-3.2604	-3.075	-3.5563	-3.2208	-3.4437	-3.5479	-3.1312	-3.4771	-3.3812	-3.2812	-3.4938	-3.1417	-3.2833	-3.6	288.020	371.387	260.898	364.962	342.041	132.630	357.770	78.776	302.545	137.544	330.430	361.991	38.536	318.958	124.577	88.306	0.00033541	0.00039807	0.000131	1407.6	5.0215e-06	6.2176e-06	1398.2	378.33	3.7825e-06	4.4645e-06	430.94	141.72	123.81	42.725	4.5464e-06	52.549	0.00052	0.0005991	0.00016522	1421.4	6.5717e-06	6.4817e-06	1415.2	385.28	6.5871e-06	6.6734e-06	437.04	145.42	126.85	43.692	6.9663e-06	53.952	197.904	113.978	114.021	38.661	209.816	201.272	38.724	43.392	207.949	182.132	42.799	47.665	48.027	52.268	207.723	51.616	-8191	255	
680.906	1	1	0	0	0.14535	0.083599	0.16732	0.2039	0.16582	0.12889	0.18073	0.26067	0.056563	0.16663	0.21303	0.1021	0.12739	0.19792	0.036052	0.31168	-2.7333	-3.4938	-3.2792	-3.1167	-3.3625	-3.0729	-3.4583	-3.4667	-3.0104	-3.2354	-3.4979	-3.3083	-3.4771	-3.4104	-2.9792	-3.3875	211.103	175.868	160.234	344.073	143.419	92.239	348.578	357.433	30.480	240.077	373.546	329.528	115.842	54.362	314.190	266.662	0.00033343	0.00037091	0.00016411	1402.8	4.9342e-06	4.5866e-06	1394.8	373.86	4.772e-06	6.2417e-06	424.41	140.59	123	42.153	4.4964e-06	52.316	0.00054621	0.00061249	0.00017823	1415.1	6.9906e-06	7.0492e-06	1410	380.74	6.8921e-06	7.1929e-06	432.75	144.24	125.9	43.322	7.4467e-06	53.643	197.807	110.829	103.165	38.722	203.970	168.578	38.706	43.525	220.643	175.345	42.816	48.040	48.386	52.254	165.910	51.593	-8191	255	
681.027	1	1	0	0	0.15203	0.0618	0.04973	0.19161	0.15206	0.19737	0.27271	0.27564	0.062483	0.16006	0.057776	0.32953	0.11236	0.061234	0.07897	0.20978	-2.6729	-3.5125	-3.3438	-3.1583	-3.3479	-3.1271	-3.2625	-3.6125	-3.0917	-3.4729	-3.5229	-3.3937	-3.5667	-3.3021	-3.1646	-3.525	33.511	296.275	180.694	340.980	59.796	59.750	343.273	288.898	333.908	130.034	221.321	289.943	263.141	75.502	297.365	286.692	0.00033636	0.00048816	0.00016541	1394.1	5.4009e-06	5.5684e-06	1388.5	370.8	4.6511e-06	5.0459e-06	425.95	140.91	122.39	42.166	4.3935e-06	52.272	0.00055035	0.00063277	0.00017919	1408.1	7.044e-06	7.3683e-06	1403.3	378.45	6.9737e-06	7.1834e-06	432.38	144.07	125.45	43.237	7.0335e-06	53.563	196.850	118.625	116.533	38.733	209.534	179.034	38.994	43.377	224.476	178.608	42.768	47.938	48.064	52.350	195.294	51.652	-8191	255	
681.121	1	1	0	0	0.24046	0.25826	0.15548	0.29072	0.055451	0.19725	0.38284	0.18721	0.20973	0.16366	0.12607	0.12988	0.21596	0.12226	0.24057	0.26223	-2.9958	-3.3104	-3.4958	-3.2104	-3.2125	-3.3063	-3.225	-3.5958	-3.1875	-3.2417	-3.5729	-3.3167	-3.5104	-3.4979	-3.1562	-3.7292	364.972	73.416	312.779	360.378	220.808	238.717	320.967	378.515	40.828	182.228	233.693	276.035	348.790	63.972	264.294	289.188	0.00033755	0.00055957	0.00015254	1394.4	4.4115e-06	6.7869e-06	1390.6	372.21	4.0462e-06	4.3251e-06	425.91	140.31	122.6	42.341	4.034e-06	52.426	0.00053752	0.00064978	0.00017859	1408.4	7.1816e-06	6.9746e-06	1404.3	378.28	6.93e-06	7.2132e-06	431.48	143.84	125.53	43.315	7.1966e-06	53.596	199.813	116.350	112.649	38.752	207.328	165.843	38.846	43.535	220.002	189.118	42.751	47.620	48.411	52.097	209.885	51.431	-8191	255	
681.217	1	1	0	0	0.14176	0.18793	0.081614	0.26072	0.31937	0.17905	0.13713	0.2724	0.074963	0.16475	0.2326	0.21314	0.063656	0.14638	0.083043	0.15609	-2.8167	-3.3146	-3.3354	-3.3063	-3.3125	-3.3792	-3.5792	-3.7333	-3.175	-3.2042	-3.5687	-3.3563	-3.3563	-3.3563	-3.0687	-3.3375	143.493	230.469	88.081	318.321	36.657	27.106	336.860	302.438	219.997	201.190	266.143	329.385	292.641	384.887	328.179	299.388	0.00032187	0.00055495	0.00012503	1391.3	5.0867e-06	4.352e-06	1389.2	372.29	3.2997e-06	5.5326e-06	424.19	140.94	122.45	42.218	4.4214e-06	52.481	0.00054645	0.00067309	0.00017852	1405.2	7.1442e-06	7.1614e-06	1400.4	378.14	7.1e-06	7.2757e-06	431	143.96	125.55	43.237	7.1091e-06	53.549	196.540	122.686	136.275	38.834	206.357	173.938	38.900	43.459	228.372	162.679	42.672	48.076	48.412	52.184	201.372	51.568	-8191	255	
681.314	1	1	0	0	0.090156	0.17195	0.048167	0.10523	0.17097	0.027412	0.34259	0.053544	0.34675	0.21408	0.077176	0.12262	0.36951	0.17835	0.10853	0.11398	-2.8833	-3.1292	-3.5708	-3.3167	-3.4625	-3.3333	-3.2854	-3.5667	-3.175	-2.9062	-3.5521	-3.2729	-3.3979	-3.4833	-3.1188	-3.5271	97.965	325.880	155.536	197.223	374.793	64.256	296.256	134.984	226.320	320.894	349.629	351.188	295.179	344.463	223.706	270.520	0.00032483	0.00057077	0.00010734	1391.2	4.9744e-06	7.7005e-06	1385.6	371.59	3.1973e-06	6.1804e-06	423.62	140.57	122.3	42.17	4.8186e-06	52.4	0.00053523	0.00064872	0.00017771	1405.6	7.1258e-06	7.2646e-06	1399.7	378.4	6.7275e-06	7.1811e-06	430.65	143.93	125.46	43.229	7.2148e-06	53.431	197.612	115.138	109.252	38.612	216.008	164.123	38.809	43.503	209.555	167.303	42.916	47.551	48.385	52.264	202.834	51.676	-8191	255	
681.387	1	1	0	0	0.26206	0.091078	0.0979	0.22501	0.32926	0.19329	0.16706	0.12442	0.12654	0.075355	0.0035478	0.071815	0.30435	0.14822	0.18378	0.24823	-2.7438	-2.9729	-3.6063	-3.4396	-3.125	-3.3333	-3.1458	-3.7229	-3.3729	-3.0542	-3.4125	-3.1979	-3.4521	-3.4688	-3.0708	-3.3354	253.087	231.468	184.183	384.123	103.902	82.761	309.806	36.360	259.566	285.458	286.443	373.491	371.535	153.245	205.104	95.331	0.00033954	0.00053548	0.00017308	1387.3	4.9067e-06	5.7083e-06	1385.7	372.32	3.9039e-06	4.4042e-06	425.08	141.05	122.88	42.277	4.8958e-06	52.352	0.00054561	0.00065339	0.00017989	1403.6	6.9826e-06	6.7817e-06	1399.4	378.1	6.8698e-06	7.024e-06	430.7	144.11	125.38	43.267	7.0569e-06	53.464	198.472	111.715	113.568	38.690	204.191	158.804	38.742	43.597	207.867	193.294	42.768	47.859	48.297	52.118	190.988	51.930	-8191	255	
681.506	1	1	0	0	0.093236	0.11513	0.011904	0.13603	0.26026	0.23111	0.36525	0.29375	0.22644	0.088696	0.22598	0.15174	0.17253	0.093374	0.26594	0.29941	-2.9354	-3.1729	-3.4458	-3.475	-3.3979	-3.3979	-3.0833	-3.4021	-3.3667	-3.1604	-3.4604	-3.4042	-3.0333	-3.7396	-3.2812	-3.4375	118.884	135.210	112.534	46.204	131.728	264.358	336.487	356.528	235.233	70.078	347.854	349.219	300.046	219.645	240.961	279.225	0.00032168	0.00054436	0.00014513	1393.5	3.252e-06	4.7089e-06	1387.6	370.26	3.2867e-06	5.6401e-06	425.77	140.31	122.45	42.198	4.4193e-06	52.178	0.00053611	0.00063509	0.00017711	1404.3	6.8934e-06	6.7245e-06	1401.2	377.65	6.6969e-06	6.9238e-06	430.58	143.63	125.22	43.252	6.8584e-06	53.416	195.286	89.390	115.520	38.722	216.523	186.994	38.774	43.378	201.326	178.762	42.729	47.627	48.306	52.106	199.617	51.578	-8191	255	
681.602	1	1	0	0	0.11096	0.085004	0.069527	0.16316	0.19962	0.13802	0.16671	0.32854	0.045634	0.21449	0.034273	0.12074	0.3014	0.14729	0.08097	0.17579	-2.875	-3.125	-3.2313	-3.4479	-3.3854	-3.4479	-3.4125	-3.2229	-3.3708	-3.0354	-3.5542	-3.4813	-3.1292	-3.5458	-3.0292	-3.1937	296.586	294.741	109.514	372.097	268.572	263.262	310.217	324.698	73.942	237.733	116.847	370.935	307.365	36.049	161.924	352.410	0.00034661	0.00043008	0.00012848	1386.3	4.3788e-06	5.6073e-06	1387.4	371.46	4.3946e-06	4.8728e-06	423.69	140.17	122.36	42.207	5.6298e-06	52.475	0.00054246	0.00062064	0.00017277	1404.4	6.9348e-06	7.0991e-06	1398.4	377.7	6.9494e-06	6.8771e-06	429.89	143.57	125.21	43.156	6.9783e-06	53.512	197.351	121.502	116.827	38.819	216.932	187.255	38.820	43.709	208.694	184.887	42.930	47.608	48.116	52.326	200.435	51.829	-8191	255	
681.698	1	1	0	0	0.065835	0.25798	0.085516	0.1991	0.16825	0.10725	0.20976	0.050783	0.19663	0.34721	0.30184	0.04641	0.19824	0.010042	0.158	0.28906	-2.9229	-3.1979	-3.4667	-3.3792	-3.1667	-3.3646	-3.1979	-3.1646	-3.4792	-3.2854	-3.7479	-3.4479	-3.2104	-3.4104	-3.0229	-3.0438	107.098	200.535	351.025	91.215	264.322	260.092	371.236	376.782	270.265	60.264	362.361	365.004	298.658	345.045	47.685	251.787	0.00033282	0.00063016	0.00013842	1388.8	4.672e-06	5.0101e-06	1381.9	370.86	3.8923e-06	4.2392e-06	423.06	140.7	122.2	42.004	4.8491e-06	52.222	0.00053273	0.0006044	0.00017428	1403.5	6.9492e-06	7.0004e-06	1397.3	377.71	6.777e-06	6.9706e-06	430.32	143.71	125.17	43.142	6.8365e-06	53.386	197.726	106.028	121.295	38.590	208.458	170.855	38.897	43.602	192.769	153.951	43.003	47.696	48.151	52.198	200.852	51.397	-8191	255	
681.819	1	1	0	0	0.13393	0.14205	0.13312	0.059859	0.36878	0.033944	0.33233	0.14245	0.1011	0.1937	0.097699	0.47501	0.17888	0.34088	0.13743	0.236	-2.9521	-2.9771	-3.275	-3.475	-3.1937	-3.7042	-3.4813	-3.4375	-3.3333	-3.0062	-3.2083	-3.2146	-3.1146	-3.6042	-3.2	-3.225	167.841	97.445	374.255	98.110	326.248	256.794	308.278	369.513	72.530	138.645	71.098	346.139	268.564	322.330	317.689	367.438	0.00032365	0.00054614	0.0001469	1389.6	4.249e-06	6.0327e-06	1389	370.65	2.7398e-06	5.4889e-06	424.84	139.9	122.29	42.029	4.2723e-06	52.257	0.00052698	0.00063128	0.00017521	1404.4	7.0121e-06	7.0604e-06	1400.6	377.62	6.6867e-06	6.7882e-06	430.41	143.59	125.04	43.075	6.6322e-06	53.443	202.462	106.298	108.305	38.715	211.649	180.845	38.826	43.658	220.442	172.250	42.926	47.939	48.375	52.259	182.959	51.589	-8191	255	
681.915	1	1	0	0	0.11124	0.12109	0.048677	0.44605	0.078771	0.20983	0.31289	0.21026	0.13437	0.1605	0.17605	0.26682	0.17784	0.048446	0.22141	0.13538	-3.1146	-3.0104	-3.3396	-3.5521	-3.0146	-3.3979	-3.4292	-3.5187	-3.4062	-3.2562	-3.2938	-3.55	-3.1375	-3.3854	-3.2604	-3.0792	270.574	45.219	289.650	373.333	164.096	255.517	326.457	302.865	171.696	159.583	111.498	332.706	318.145	166.332	34.973	39.834	0.00032394	0.00061897	0.00012508	1388.4	4.8166e-06	7.4879e-06	1387.2	370.64	3.9135e-06	3.4542e-06	421.94	140.57	121.77	42.066	4.3445e-06	52.335	0.00052256	0.00060633	0.00016906	1404.1	7.0041e-06	6.5103e-06	1398.1	377.16	6.5692e-06	6.7876e-06	429.37	143.81	124.96	43.096	6.5697e-06	53.395	197.037	97.455	106.292	38.614	215.419	140.073	38.967	43.679	206.204	177.040	42.843	47.626	48.261	52.279	181.919	51.788	-8191	255	
681.987	1	1	0	0	0.016114	0.14607	0.19869	0.15526	0.1338	0.34745	0.27397	0.090839	0.11391	0.30967	0.25111	0.18371	0.064515	0.36159	0.29735	0.13408	-3.0854	-3.1312	-3.4	-3.7313	-3.0479	-3.2417	-3.3604	-3.1917	-3.4833	-3.2188	-3.1937	-3.4375	-3.1583	-3.4896	-3.2458	-3.3375	34.305	70.652	159.741	381.265	67.556	358.945	290.909	280.431	353.464	355.459	313.795	128.292	52.830	278.817	365.003	73.801	0.00032304	0.00063364	0.00014788	1393.6	4.2477e-06	6.5676e-06	1384.2	370.92	3.7688e-06	5.5437e-06	422.98	140	122.33	41.967	3.6622e-06	52.326	0.00051987	0.00060368	0.00016574	1403.6	6.8161e-06	6.7116e-06	1398.8	377.43	6.7411e-06	6.6294e-06	430.33	143.46	125.11	43.136	6.8282e-06	53.446	198.599	137.121	116.954	38.874	193.518	167.771	38.744	43.621	208.736	163.442	42.635	47.644	48.251	52.330	206.436	51.192	-8191	255	
682.107	1	1	0	0	0.12329	0.19094	0.17945	0.24917	0.11163	0.016861	0.23023	0.081131	0.14754	0.13484	0.31871	0.18418	0.19549	0.11896	0.13772	0.26604	-3.0875	-3.1562	-3.1396	-3.5354	-3.1333	-3.4958	-3.6708	-3.1875	-3.2208	-3.3333	-3.45	-3.6729	-3.3438	-3.4188	-3.4354	-3.0604	27.896	52.118	320.415	346.087	330.900	293.070	364.073	339.715	172.823	278.739	337.915	333.520	39.629	42.248	142.327	354.578	0.00033457	0.00053892	0.00012891	1393.8	4.0904e-06	5.5068e-06	1386.8	370.91	5.7578e-06	6.4508e-06	423.78	140.09	122.37	42.181	5.2698e-06	52.029	0.00052862	0.00059992	0.00017607	1407	7.041e-06	6.678e-06	1402.1	377.77	6.7678e-06	6.769e-06	430.49	143.67	125.25	43.229	6.6734e-06	53.417	197.547	105.318	91.443	38.573	201.956	176.427	38.724	43.657	231.202	160.675	42.913	47.923	48.211	52.271	186.283	51.423	-8191	255	
682.203	1	1	0	0	0.13527	0.21677	0.33225	0.2129	0.18291	0.20733	0.067197	0.30109	0.16689	0.071311	0.16262	0.28006	0.061551	0.19381	0.16035	0.25471	-2.9125	-3.4583	-3.1271	-3.5125	-2.9896	-3.1479	-3.6688	-3.2667	-3.3792	-3.3937	-3.2	-3.3063	-3.1479	-3.2708	-3.4875	-3.1625	366.287	178.106	143.431	357.550	123.704	93.803	355.373	360.865	132.465	369.112	360.375	347.233	317.687	251.010	156.095	236.856	0.00034439	0.00050176	0.00011933	1397.6	4.3531e-06	4.27e-06	1391.1	369.89	4.0123e-06	5.5191e-06	425.29	140.28	122.74	42.255	5.6003e-06	52.246	0.00053656	0.00061302	0.00017214	1411.9	6.8141e-06	6.8597e-06	1404.8	377.49	6.4978e-06	6.6294e-06	431.2	144	125.44	43.262	6.8683e-06	53.464	200.255	108.188	116.440	38.587	191.984	194.461	38.905	43.648	219.962	180.416	42.756	47.999	48.214	52.298	180.352	51.620	-8191	255	
682.298	1	1	0	0	0.040831	0.061829	0.19448	0.29687	0.054878	0.1153	0.12779	0.12699	0.46966	0.26162	0.099301	0.16828	0.11269	0.17346	0.25713	0.20121	-2.975	-3.2125	-2.8854	-3.6083	-3.3417	-3.3479	-3.6333	-3.3542	-3.0438	-3.1937	-3.1354	-3.5938	-3.4437	-3.2292	-3.3021	-2.9896	54.828	378.141	206.059	350.347	82.403	353.577	246.449	306.427	359.139	343.876	263.203	340.917	325.612	383.785	271.011	30.977	0.00032577	0.00062991	0.00014617	1402	5.7004e-06	5.0614e-06	1393.1	371.31	3.7467e-06	6.1917e-06	422.85	140.44	122.44	42.222	3.8699e-06	52.512	0.00051077	0.00060912	0.00017357	1414.6	6.6714e-06	6.8266e-06	1406.8	378.43	6.5692e-06	6.7527e-06	430.68	144.08	125.47	43.295	6.7073e-06	53.575	199.813	117.087	113.205	38.937	202.388	168.464	38.743	43.691	213.793	178.711	42.741	47.591	48.378	52.188	205.551	51.757	-8191	255	
682.418	1	1	0	0	0.029115	0.13232	0.094029	0.3055	0.11076	0.13179	0.28115	0.30405	0.08874	0.12481	0.035044	0.23588	0.27148	0.10085	0.10561	0.17348	-2.775	-3.3458	-3.075	-3.5292	-3.1958	-3.0312	-3.4292	-3.2938	-3.3229	-3.4229	-3.0875	-3.5604	-3.2979	-3.3229	-3.4146	-3.3542	256.150	70.999	45.793	333.498	85.425	94.765	292.447	266.108	323.724	36.606	45.383	376.747	376.851	63.166	120.559	310.490	0.00033138	0.00039314	0.00010391	1397.8	4.7528e-06	6.9911e-06	1392.7	371.61	4.4761e-06	6.631e-06	424.17	141.16	122.8	42.327	5.1179e-06	52.444	0.00052102	0.00062752	0.00017083	1413	6.7208e-06	7.0128e-06	1408	378.9	6.591e-06	6.9289e-06	430.65	144.21	125.53	43.341	6.7094e-06	53.478	200.959	97.314	129.286	38.624	215.185	178.476	38.779	43.603	218.607	179.022	42.745	47.841	48.407	52.119	204.211	51.515	-8191	255	
682.515	1	1	0	0	0.07208	0.016641	0.27292	0.053271	0.038012	0.16685	0.28352	0.30225	0.23176	0.061642	0.2114	0.32993	0.052376	0.13154	0.086883	0.11226	-2.8625	-3.3333	-3.0812	-3.4729	-3.3479	-3.1021	-3.6146	-3.1958	-3.0771	-3.4396	-3.375	-3.475	-3.325	-3.1271	-3.4021	-3.4396	381.576	44.857	188.443	363.153	240.693	50.402	337.682	284.477	170.025	28.093	278.629	38.320	165.489	277.973	202.466	383.934	0.00032806	0.00061997	9.2872e-05	1401	4.3435e-06	7.7314e-06	1397.3	372.09	3.8098e-06	5.2601e-06	426.59	140.92	122.52	42.248	4.9637e-06	52.408	0.00052677	0.00061673	0.00017516	1415.7	6.5368e-06	6.8272e-06	1408.9	378.64	6.6265e-06	6.8034e-06	431.91	144.27	125.69	43.342	6.4842e-06	53.624	199.469	102.216	103.377	38.856	208.105	182.906	38.838	43.432	204.158	168.126	42.972	47.747	48.397	52.028	185.919	51.659	-8191	255	
682.611	1	1	0	0	0.20018	0.055325	0.067748	0.21523	0.25435	0.10873	0.09841	0.18668	0.034958	0.23526	0.24196	0.12203	0.017739	0.12995	0.14205	0.07337	-2.7646	-3.3875	-3.1625	-3.5521	-3.3021	-3.0687	-3.5604	-3.55	-3.1979	-3.5271	-3.1896	-3.3333	-3.4021	-3.2167	-3.4125	-3.3208	128.396	189.806	262.467	323.928	296.305	75.137	335.976	36.318	196.234	192.725	55.082	172.941	102.700	95.163	262.932	108.193	0.00033199	0.00057066	0.00011596	1405.2	4.6883e-06	6.3487e-06	1401.8	373.29	5.3113e-06	6.6172e-06	427.37	140.51	122.58	42.395	5.1399e-06	52.347	0.00051418	0.00061346	0.00017594	1416.3	6.4784e-06	6.8816e-06	1411.7	379	6.4614e-06	6.5422e-06	432.24	143.98	125.69	43.397	6.6067e-06	53.591	196.445	110.606	119.311	38.728	209.765	179.713	38.562	43.352	204.735	176.007	42.776	47.757	48.498	52.236	200.352	51.612	-8191	255	
682.682	1	1	0	0	0.17468	0.23427	0.060269	0.28385	0.14965	0.15488	0.17858	0.045121	0.21059	0.056693	0.46119	0.15738	0.12994	0.21167	0.19148	0.19814	-2.8646	-3.4146	-2.9458	-3.4917	-3.4333	-3.0312	-3.5292	-3.4542	-3.1063	-3.5646	-3.1667	-3.1667	-3.6437	-3.25	-3.2917	-3.4625	144.263	98.336	115.331	54.610	219.209	85.001	353.062	290.939	164.248	27.160	314.789	41.672	309.828	346.773	117.850	311.007	0.0003417	0.00068972	0.00012686	1403	4.4681e-06	6.2895e-06	1398.3	372.88	4.0548e-06	5.4447e-06	426.24	140.39	122.53	42.398	3.9168e-06	52.197	0.00052386	0.00059511	0.00016244	1416.1	6.4046e-06	6.4896e-06	1411.9	379.11	6.5561e-06	6.4043e-06	432.54	144.26	125.65	43.411	6.3644e-06	53.61	198.247	114.182	113.017	38.690	207.516	145.150	38.735	43.515	203.999	162.375	43.003	47.775	48.210	52.109	188.780	51.776	-8191	255	
682.803	1	1	0	0	0.15687	0.12675	0.13433	0.33133	0.044342	0.072538	0.35195	0.22569	0.20337	0.11118	0.04455	0.19047	0.1457	0.13002	0.31447	0.036614	-2.8396	-3.4104	-2.9604	-3.4062	-3.5417	-3.0812	-3.3604	-3.3625	-3.1	-3.4729	-3.1583	-2.975	-3.2458	-3.0104	-3.275	-3.2958	292.212	118.525	178.092	327.868	50.091	132.075	310.960	277.666	382.514	80.878	162.851	34.801	208.537	318.232	314.937	258.131	0.00032186	0.00042311	0.00013348	1403	5.392e-06	5.8605e-06	1400.8	372.02	3.9587e-06	5.1263e-06	425.79	140.9	123.09	42.257	4.1971e-06	52.414	0.00051725	0.00057622	0.00016243	1418	6.4435e-06	6.6e-06	1411.2	378.7	6.4031e-06	6.3925e-06	431.99	144.34	125.77	43.398	6.393e-06	53.632	196.641	117.523	126.024	38.747	207.792	159.884	38.843	43.413	197.233	191.978	42.981	47.915	48.294	52.289	183.581	51.585	-8191	255	
682.899	1	1	0	0	0.0064526	0.098609	0.12319	0.31285	0.0056045	0.16382	0.16397	0.29638	0.14597	0.069618	0.12605	0.24114	0.20416	0.14672	0.1089	0.35076	-2.6021	-3.2833	-3.2021	-3.1813	-3.4125	-3.125	-3.3458	-3.3187	-3.1688	-3.4521	-3.125	-3.1646	-3.4146	-3.3354	-3.175	-3.0896	232.645	218.626	223.949	340.459	367.973	228.009	340.750	342.303	379.844	226.065	303.654	333.903	272.435	362.350	306.850	379.627	0.00031948	0.00050772	0.00016911	1401.2	4.5576e-06	4.1621e-06	1397	372.1	4.0469e-06	5.1222e-06	426.22	140.81	122.87	42.355	3.6453e-06	52.477	0.00050957	0.00057897	0.00015669	1417.1	6.5891e-06	6.3482e-06	1410.6	378.91	6.5721e-06	6.2574e-06	432.66	144.25	125.82	43.395	6.2956e-06	53.591	197.710	111.635	132.616	38.659	222.563	161.839	38.758	43.500	202.960	193.749	42.815	47.582	48.125	52.172	192.460	51.661	-8191	255	
682.995	1	1	0	0	0.21404	0.17221	0.23893	0.18729	0.11315	0.17133	0.29426	0.20439	0.2485	0.08615	0.12728	0.16281	0.11489	0.25061	0.12563	0.023585	-2.5042	-3.4938	-3.125	-3.0792	-3.2479	-3.3125	-3.3063	-3.7146	-3.0563	-3.2167	-3.2396	-3.1792	-3.4437	-3.0563	-3	-3.3479	189.888	299.090	155.647	358.343	137.462	99.121	280.100	320.772	324.353	219.794	346.483	43.972	313.860	260.438	291.295	157.371	0.00033328	0.00062107	0.00015915	1405.9	5.7716e-06	4.0876e-06	1401	373.35	4.3957e-06	4.7657e-06	426.37	141.12	122.92	42.236	4.4004e-06	52.298	0.00051428	0.0005453	0.00016191	1418.1	6.3139e-06	6.2832e-06	1412.4	379.06	6.3623e-06	6.2737e-06	432.89	144.32	125.72	43.316	6.3342e-06	53.528	196.826	112.832	128.642	38.666	210.433	150.747	38.882	43.331	194.144	193.621	42.914	47.978	48.382	52.099	199.792	51.495	-8191	255	
683.091	1	1	0	0	0.30884	0.15552	0.016976	0.33357	0.17255	0.095037	0.24513	0.12403	0.21203	0.24961	0.16364	0.20143	0.19831	0.11477	0.1206	0.13002	-2.6312	-3.3854	-3.0333	-2.8708	-3.2167	-3.25	-3.3146	-3.5333	-2.9271	-3.3458	-3.4188	-2.9354	-3.4292	-3.2292	-3.0042	-3.3229	350.784	213.242	100.459	376.156	359.610	176.066	265.040	337.087	93.822	177.919	54.164	353.449	132.245	375.502	227.334	335.383	0.0003156	0.00050669	0.00011948	1401.3	5.5002e-06	6.1954e-06	1395.9	373.05	4.7517e-06	4.9845e-06	427.83	140.96	122.86	42.371	5.2229e-06	52.738	0.00051441	0.00055397	0.00015722	1417.8	6.3099e-06	6.1396e-06	1412.2	379.87	6.1957e-06	6.1099e-06	432.66	144.17	125.68	43.416	6.4848e-06	53.727	199.658	94.011	133.605	38.656	191.929	175.819	38.642	43.459	226.369	189.737	42.844	47.684	48.330	52.326	182.550	51.491	-8191	255	
683.210	1	1	0	0	0.27361	0.16223	0.2205	0.45199	0.13939	0.10829	0.31885	0.050565	0.30042	0.13294	0.060649	0.25419	0.11212	0.11123	0.12037	0.10824	-2.5729	-3.1604	-3.2958	-3.1417	-3.2646	-3.2083	-3.2375	-3.7229	-2.9688	-3.15	-3.3958	-3.1708	-3.4479	-3.1792	-3.2042	-3.6292	88.571	314.054	360.395	382.672	216.930	233.417	308.686	322.013	82.252	261.493	229.353	345.739	260.243	343.687	122.084	356.983	0.00031005	0.00044299	0.00012129	1405.3	3.7033e-06	4.6892e-06	1398.8	372.8	3.2677e-06	4.7201e-06	426.37	140.74	123.15	42.212	4.5642e-06	52.661	0.00051454	0.00055301	0.0001552	1419.1	6.1747e-06	6.2148e-06	1413	379.5	6.1705e-06	6.3108e-06	432.63	144.24	126.09	43.342	6.3404e-06	53.627	197.887	112.276	122.237	38.654	209.958	175.276	38.613	43.727	214.221	186.558	42.973	47.645	48.328	52.291	181.326	51.515	-8191	255	
683.284	1	1	0	0	0.13777	0.36082	0.10771	0.18598	0.15256	0.035338	0.18719	0.32193	0.10347	0.094597	0.13871	0.11705	0.16262	0.24114	0.19778	0.11023	-2.8375	-3.3604	-3.3875	-3.1542	-3.5167	-3.3146	-3.4625	-3.6813	-3.3167	-3.175	-3.5729	-3.0542	-3.2646	-3.3688	-3.1917	-3.5062	132.628	218.976	231.476	375.064	162.355	269.278	315.881	313.110	238.857	252.505	346.740	55.668	47.331	311.003	189.804	159.851	0.00032678	0.00047875	0.00013705	1406.5	4.3474e-06	4.7209e-06	1404.6	372.96	4.7166e-06	4.775e-06	426.19	141.11	123.46	42.329	4.5763e-06	52.627	0.00050436	0.00056645	0.00015959	1419	6.3069e-06	6.3252e-06	1414.7	379.53	6.1136e-06	6.3193e-06	432.3	144.3	125.88	43.383	6.4123e-06	53.645	197.053	100.989	118.310	38.730	195.998	164.922	38.667	43.734	204.918	184.991	42.798	47.609	48.328	52.246	202.360	51.540	-8191	255	
683.380	1	1	0	0	0.20767	0.22885	0.074226	0.095544	0.20803	0.3314	0.10536	0.12605	0.34037	0.20997	0.11363	0.20638	0.10435	0.19642	0.07111	0.092412	-2.6625	-3.1667	-3.4729	-3.3479	-3.2812	-3.1813	-3.1792	-3.55	-3.1208	-3.0583	-3.3229	-2.9833	-3.2	-3.4188	-3.0896	-3.35	332.823	320.766	176.770	43.320	223.752	333.682	247.966	363.604	67.186	149.417	301.863	357.700	67.976	47.367	374.832	105.349	0.00032387	0.00052226	0.00012542	1403.8	5.0674e-06	4.1676e-06	1399.1	372.87	4.9231e-06	6.3735e-06	426.24	140.79	122.8	42.252	5.4087e-06	52.661	0.00051209	0.00057757	0.0001592	1418.6	6.2695e-06	6.3129e-06	1411.9	379.44	6.2972e-06	6.6503e-06	432.68	144.23	125.85	43.341	6.652e-06	53.665	199.077	115.074	118.664	38.567	204.501	175.303	38.745	43.544	215.839	182.676	42.819	47.540	48.155	52.153	184.309	51.580	-8191	255	
683.499	1	1	0	0	0.15039	0.14297	0.08519	0.28391	0.2138	0.20686	0.074228	0.40951	0.14785	0.1728	0.01572	0.17099	0.059976	0.3134	0.15938	0.23122	-2.9062	-2.85	-3.0896	-3.1854	-3.2479	-3.3125	-3.3896	-3.3979	-3.0812	-3.1042	-3.5604	-3.1604	-3.1937	-3.4167	-2.9708	-3.3917	345.681	153.601	115.592	306.182	95.473	376.124	129.357	30.349	141.056	81.850	34.684	374.966	243.174	373.793	175.210	372.316	0.0003189	0.00053174	0.0001251	1403.4	4.9169e-06	4.007e-06	1401.5	373.5	4.6529e-06	5.4525e-06	426.47	141.02	122.46	42.174	4.237e-06	52.548	0.00051149	0.00057589	0.00016375	1418	6.5867e-06	6.5838e-06	1412.5	379.44	6.3943e-06	6.8602e-06	432.87	144.39	125.83	43.386	6.724e-06	53.749	194.378	111.668	114.908	38.725	188.459	185.395	38.781	43.503	207.353	208.491	42.792	47.792	48.186	52.287	213.689	51.438	-8191	255	
683.595	1	1	0	0	0.12946	0.14959	0.21927	0.15601	0.18155	0.10649	0.17402	0.17272	0.0073639	0.10071	0.15846	0.038519	0.1098	0.05748	0.17909	0.1973	-2.7458	-3.0583	-3.4396	-3.1125	-2.9688	-3.3438	-3.1771	-3.3354	-3.2167	-3.1417	-3.7062	-3.2771	-3.2792	-3.3708	-2.9667	-3.1021	115.296	121.309	133.026	358.015	193.298	377.855	343.789	293.024	42.267	159.735	67.974	239.319	383.924	315.242	151.721	288.366	0.00031477	0.00047176	0.000126	1402.4	4.4519e-06	4.3502e-06	1399.1	373.36	3.6215e-06	5.3507e-06	426.46	141.01	122.76	42.27	5.1288e-06	52.565	0.0005287	0.00060604	0.00017256	1418.1	6.8535e-06	6.8681e-06	1412.5	379.59	6.6682e-06	6.836e-06	433.12	144.55	125.84	43.366	6.8845e-06	53.774	196.954	111.979	131.452	38.798	203.226	150.208	38.778	43.652	181.444	183.905	43.083	47.660	48.506	52.308	194.763	51.578	-8191	255	
683.691	1	1	0	0	0.12288	0.15685	0.081242	0.24593	0.2318	0.077242	0.29478	0.29269	0.13958	0.34133	0.19203	0.22138	0.14579	0.24678	0.037283	0.13627	-2.6646	-2.7896	-3.3479	-3.2562	-2.8438	-3.1417	-2.9417	-3.4958	-3.3312	-3.0708	-3.5104	-3.2604	-2.9646	-3.2812	-3.0667	-3.3833	162.499	362.588	33.699	359.788	176.521	225.196	281.190	353.687	187.010	83.625	75.017	381.418	367.123	337.828	289.885	283.710	0.00032878	0.00035448	0.00015387	1402.8	4.5824e-06	4.5761e-06	1395.9	372.24	3.7634e-06	3.7595e-06	427.19	141.06	123.11	42.162	3.3653e-06	52.699	0.00053239	0.00063533	0.0001757	1417	7.1572e-06	7.1059e-06	1411.4	379.34	6.9397e-06	7.2098e-06	433.14	144.5	125.86	43.364	7.1705e-06	53.698	198.217	98.047	115.501	38.623	198.463	147.186	38.958	43.460	203.375	185.843	42.839	47.801	48.148	52.274	181.270	51.388	-8191	255	
683.787	1	1	0	0	0.32667	0.12095	0.29228	0.20107	0.2149	0.13582	0.26835	0.26304	0.26099	0.13636	0.37597	0.18798	0.217	0.31665	0.035188	0.12413	-2.975	-2.8458	-3.0771	-3.1937	-3.1417	-3.5271	-3.3625	-3.225	-3.2021	-2.9958	-3.5208	-3.3396	-3.0771	-3.2958	-3.1896	-3.325	131.201	363.542	240.188	363.842	170.663	184.905	307.152	382.057	283.801	338.469	271.250	155.767	303.288	39.880	172.507	242.721	0.00031259	0.00062476	0.00015211	1401.8	4.6719e-06	6.4411e-06	1395.4	372.95	4.2943e-06	5.0363e-06	425.1	141.24	123.01	42.258	4.6021e-06	52.422	0.00054153	0.00064467	0.00018144	1416.3	7.2071e-06	7.2988e-06	1410.4	379.12	7.1631e-06	7.4468e-06	432.09	144.42	125.75	43.305	7.181e-06	53.659	198.206	104.762	142.315	38.921	206.414	160.265	38.779	43.543	223.786	189.753	42.959	47.670	48.208	52.177	198.672	51.581	-8191	255	
683.883	1	1	0	0	0.18549	0.1778	0.24288	0.18753	0.21095	0.095699	0.33859	0.18183	0.17936	0.30075	0.12	0.25314	0.077853	0.12534	0.15294	0.13071	-2.7687	-3.0521	-3.3312	-3.2687	-2.9271	-3.5417	-3.3688	-3.25	-3.1437	-2.9271	-3.4125	-3.4229	-3.0042	-3.3979	-3.2083	-3.2521	243.169	321.714	65.457	245.373	296.617	107.159	40.575	301.361	383.362	136.439	112.690	25.849	326.169	383.431	62.980	139.870	0.00033588	0.00048005	0.00014346	1400	4.0529e-06	4.2176e-06	1399.4	373.12	3.5354e-06	6.1353e-06	425.75	140.66	123.05	42.368	3.6194e-06	52.342	0.00056373	0.0006544	0.00018546	1415.6	7.2904e-06	7.4098e-06	1410.7	379.45	7.2908e-06	7.8543e-06	431.94	144.18	125.84	43.383	7.5202e-06	53.643	199.949	113.012	107.004	38.670	209.339	187.296	38.788	43.679	224.283	200.123	42.918	47.902	48.620	52.206	175.789	51.444	-8191	255	
683.980	1	1	0	0	0.078292	0.24879	0.11331	0.31434	0.073631	0.11106	0.16365	0.13526	0.20488	0.19121	0.1454	0.060972	0.20521	0.20235	0.14006	0.19973	-3	-3.0229	-3.3104	-3.3917	-2.9146	-3.4083	-3.3063	-3.2292	-3.5333	-3.1083	-3.0729	-3.2792	-3.125	-3.3167	-3.2562	-2.9437	112.382	328.282	185.728	365.069	275.602	33.013	353.419	312.321	187.745	56.558	80.102	39.957	49.473	372.280	48.692	362.258	0.00035595	0.00044699	0.00010214	1396.1	4.3105e-06	5.3724e-06	1394.9	371.78	3.5866e-06	5.4281e-06	427.26	140.75	123.04	42.3	4.9998e-06	52.104	0.00058002	0.00069062	0.00019326	1412.4	7.5587e-06	7.6689e-06	1408.2	379.45	7.5142e-06	7.9196e-06	433.38	144.16	125.93	43.379	7.625e-06	53.646	198.405	96.714	114.806	38.679	213.065	182.912	38.774	43.271	222.878	157.336	42.922	47.756	48.180	52.264	211.612	51.749	-8191	255	
684.100	1	1	0	0	0.19177	0.42078	0.056346	0.24053	0.079218	0.16152	0.36431	0.32121	0.064381	0.19114	0.056672	0.30583	0.18658	0.1376	0.14433	0.14429	-2.7771	-3.1312	-3.2104	-3.2792	-2.8937	-3.3896	-3.375	-3.1792	-3.2271	-3.2104	-3.2792	-3.6354	-3.2667	-3.5542	-3.0604	-2.9542	351.524	249.178	351.728	379.047	185.845	291.024	281.927	342.190	151.502	77.444	238.562	323.253	235.220	370.807	91.047	285.009	0.00034346	0.00051622	0.00015901	1397.6	5.2236e-06	4.3467e-06	1394.2	373.32	5.4235e-06	3.7984e-06	427.51	140.61	123.13	42.244	3.5466e-06	52.397	0.00058874	0.00070079	0.00019598	1413.2	7.7671e-06	7.8697e-06	1408.5	379.45	7.6968e-06	8.0637e-06	432.9	143.95	125.98	43.366	8.0221e-06	53.525	194.927	115.526	122.939	38.778	205.475	182.563	38.896	43.699	215.639	163.454	42.694	47.659	48.189	52.294	173.483	51.564	-8191	255	
684.196	1	1	0	0	0.064144	0.080717	0.15885	0.042889	0.16934	0.06594	0.33959	0.27479	0.19219	0.1532	0.1433	0.097498	0.14366	0.37112	0.21484	0.1135	-3.1562	-3.1937	-2.9208	-3.6854	-3.1104	-3.3438	-3.3125	-3.0521	-3.3917	-3.0375	-3.3146	-3.5146	-3.2979	-3.3729	-3.3375	-3.2188	299.181	299.460	164.781	209.381	187.236	140.548	339.928	307.953	136.036	339.350	326.011	31.686	323.679	331.160	118.044	269.519	0.00033509	0.0002593	0.0001494	1399.8	5.3994e-06	5.6984e-06	1397.5	373.34	4.183e-06	3.8049e-06	426.5	140.61	123.06	42.212	3.9812e-06	52.47	0.00059532	0.00070016	0.00020592	1413.7	7.7362e-06	7.6829e-06	1409.7	379.53	7.7104e-06	8.0457e-06	432.89	144.17	125.82	43.335	7.7469e-06	53.655	194.119	123.537	113.261	38.610	217.950	163.062	38.839	43.704	209.395	190.465	42.801	47.567	48.196	52.282	201.733	51.319	-8191	255	
684.291	1	1	0	0	0.17664	0.13484	0.20122	0.33537	0.20244	0.14757	0.24302	0.25448	0.11674	0.19192	0.33128	0.32713	0.053259	0.017177	0.081132	0.26339	-2.9875	-3.1104	-3.2333	-3.4417	-2.9313	-3.0438	-3.4375	-3.1188	-3.4292	-3.3521	-3.1708	-3.4437	-3.0667	-3.3438	-3.3042	-3.2188	258.521	220.963	153.626	331.111	78.195	72.900	334.238	301.045	111.285	377.318	286.908	329.672	328.654	348.726	213.867	38.246	0.00031016	0.00044783	0.00014309	1398.9	4.3969e-06	3.6408e-06	1398.6	372.67	4.2105e-06	5.9024e-06	427.84	140.13	123.17	42.399	5.3029e-06	52.448	0.00058978	0.00070671	0.00020422	1414.3	7.7557e-06	7.9538e-06	1409.7	379.5	7.674e-06	7.9968e-06	432.87	144.05	126.02	43.487	8.0226e-06	53.621	194.687	103.211	128.904	38.739	199.980	198.711	38.742	43.431	215.043	163.306	42.880	47.960	48.248	52.285	205.820	51.463	-8191	255	
684.387	1	1	0	0	0.26533	0.27457	0.12245	0.30281	0.074506	0.1823	0.32077	0.16933	0.16587	0.14898	0.12321	0.18502	0.27128	0.29773	0.01146	0.22578	-3.0042	-3.2812	-3.1146	-3.4688	-3.225	-3.0542	-3.4771	-3.2542	-3.2938	-3.3458	-3.4333	-3.5146	-3.2646	-3.225	-3.275	-3.0708	337.527	275.932	62.277	345.034	131.866	374.034	327.184	119.846	135.554	223.692	249.665	268.354	364.063	357.083	142.402	131.339	0.00035446	0.00058061	0.00013296	1401.8	5.6793e-06	5.0564e-06	1395.8	373.05	4.1775e-06	4.4382e-06	427.76	140.69	123.04	42.346	5.5196e-06	52.628	0.000591	0.00069216	0.00020633	1415	7.8439e-06	7.9959e-06	1409.3	379.58	7.5468e-06	7.8161e-06	433.02	144.3	125.69	43.432	7.9038e-06	53.66	196.503	96.765	128.494	38.723	210.906	168.662	38.814	43.413	207.416	193.989	42.757	48.095	48.303	52.227	194.697	51.774	-8191	255	
684.508	1	1	0	0	0.099488	0.31547	0.12363	0.1784	0.061046	0.20142	0.27748	0.34359	0.15252	0.13681	0.21423	0.32203	0.21984	0.03162	0.2701	0.08746	-2.7854	-3.1562	-2.9875	-3.4896	-2.9938	-3.0854	-3.4729	-3.0396	-3.0479	-3.1521	-3.2729	-3.4979	-3.3354	-3.1875	-3.1479	-3.2417	112.817	212.997	109.916	354.696	136.784	233.699	323.445	48.801	293.361	190.281	335.709	369.924	322.100	251.651	250.862	373.759	0.00033861	0.00042467	0.00011001	1401	3.3443e-06	7.892e-06	1394.3	371.89	4.8322e-06	4.6978e-06	428.78	140.71	123.26	42.246	4.1783e-06	52.607	0.00058671	0.00071793	0.00019958	1416.2	7.8155e-06	7.9863e-06	1408.7	379.11	7.6915e-06	7.7378e-06	433.06	144.3	125.99	43.353	8.1174e-06	53.684	196.982	135.510	119.691	38.797	203.259	173.868	38.667	43.427	209.813	176.408	42.900	47.657	48.232	52.339	184.742	51.637	-8191	255	
684.579	1	1	0	0	0.15918	0.16874	0.13236	0.40028	0.1141	0.10329	0.1901	0.22716	0.1678	0.20119	0.15901	0.050488	0.13103	0.25192	0.13308	0.27167	-3.0083	-3.2417	-2.8125	-3.5479	-3.2188	-2.9667	-3.6437	-3.3354	-3.3396	-3.3167	-3.0833	-3.4354	-3.2646	-3.1396	-3.4479	-3.2812	350.093	208.187	108.522	319.506	202.504	267.302	281.777	357.557	30.130	352.394	329.396	351.257	372.269	349.294	176.460	357.914	0.00032597	0.00042864	0.00018181	1403.9	4.7057e-06	5.2726e-06	1397.9	372.16	5.0718e-06	4.481e-06	425.76	140.86	123.16	42.256	4.8468e-06	52.618	0.00058465	0.00071678	0.00020774	1417.3	7.8205e-06	7.9532e-06	1410.1	379.53	7.7629e-06	8.1257e-06	433.03	144.24	125.93	43.367	7.848e-06	53.738	199.492	115.041	138.152	38.794	208.262	146.271	38.907	43.555	211.534	171.504	42.749	47.704	48.079	52.127	200.436	51.512	-8191	255	
684.675	1	1	0	0	0.37757	0.16294	0.12213	0.28469	0.17919	0.25949	0.35006	0.25052	0.11002	0.21397	0.24346	0.12674	0.27762	0.34398	0.1038	0.10753	-2.775	-3.3833	-3.0896	-3.4333	-2.9583	-3.0771	-3.6208	-3.3208	-3.3271	-3.3729	-2.9938	-3.3646	-3.3583	-3.1875	-3.5729	-3.3229	323.849	159.759	241.883	307.994	216.693	229.911	281.878	128.106	45.099	71.014	315.343	352.239	383.337	374.887	218.318	281.638	0.00033348	0.00055828	0.00011688	1402.4	4.4412e-06	4.6357e-06	1396.6	373.25	4.8729e-06	7.6577e-06	426.17	140.85	122.78	42.132	3.7143e-06	52.559	0.00059139	0.00069982	0.00019889	1414.8	7.606e-06	7.8932e-06	1409.9	379.53	7.6725e-06	7.6888e-06	432.6	144.18	125.8	43.347	7.602e-06	53.653	200.788	114.088	135.388	38.783	200.164	198.982	38.663	43.531	198.690	180.841	42.882	47.670	48.313	52.104	203.120	51.572	-8191	255	
684.771	1	1	0	0	0.31697	0.14632	0.11335	0.049811	0.30237	0.15254	0.27695	0.23841	0.26943	0.080058	0.36303	0.18498	0.14525	0.10263	0.2203	0.1679	-2.7917	-3.3229	-3.1125	-3.3083	-3.3417	-2.9771	-3.5104	-3.3208	-3.2146	-3.6063	-3.3417	-3.2104	-3.2708	-2.9771	-3.3979	-3.2896	363.708	122.976	286.326	273.552	214.816	98.208	285.263	340.597	381.315	174.842	342.590	372.823	300.148	252.690	50.196	330.019	0.00032197	0.00038191	0.00013252	1398.9	5.1828e-06	5.3042e-06	1396.7	373.4	5.8274e-06	4.3731e-06	427.82	141.09	122.81	42.368	4.8773e-06	52.382	0.0005789	0.00066437	0.00019001	1413.9	7.626e-06	7.8243e-06	1409.3	379.92	7.6784e-06	7.7913e-06	433.88	144.53	125.94	43.453	7.6729e-06	53.734	197.246	96.863	122.170	38.662	202.270	188.636	39.034	43.572	210.552	170.447	42.924	47.826	48.220	52.442	206.925	51.608	-8191	255	
684.892	1	1	0	0	0.15932	0.1614	0.080755	0.085277	0.098103	0.069943	0.21153	0.24651	0.14261	0.11142	0.076629	0.37609	0.38325	0.33077	0.21485	0.35846	-2.4313	-3.2917	-3.0938	-3.4375	-3.3833	-3.0771	-3.4708	-3.25	-2.9917	-3.6	-3.2188	-3.1146	-3.3542	-3.225	-3.3104	-3.1667	225.405	378.187	292.070	40.136	374.146	109.405	310.214	377.361	299.623	273.333	337.570	293.144	328.774	339.066	301.389	283.600	0.00031564	0.00053127	0.00012055	1395.5	3.5659e-06	6.4942e-06	1395.5	372.51	4.8749e-06	3.0891e-06	428.94	141.57	123.2	42.385	4.6322e-06	52.31	0.00057682	0.00071023	0.00019538	1413.3	7.6908e-06	8.0217e-06	1409.8	379.75	7.8037e-06	7.9759e-06	433.76	144.72	125.92	43.43	7.6661e-06	53.66	199.911	115.241	100.986	38.825	198.500	161.313	38.961	43.541	209.943	147.469	42.935	47.802	48.286	52.099	196.932	51.580	-8191	255	
684.988	1	1	0	0	0.12783	0.24291	0.079544	0.16857	0.18618	0.24427	0.2155	0.16856	0.24787	0.14991	0.32719	0.077746	0.097188	0.093382	0.066503	0.25157	-2.5812	-3.3646	-3.1125	-3.0604	-3.2917	-3.2271	-3.5271	-3.2521	-2.9188	-3.4417	-3.3583	-3.2292	-3.2396	-2.9688	-3.1625	-3.3542	335.469	330.095	168.195	75.243	347.697	68.951	311.337	346.978	270.243	124.905	38.484	356.731	57.623	63.428	253.014	204.311	0.00035669	0.00040091	0.00014939	1401.8	4.3334e-06	4.638e-06	1399.2	372.8	2.72e-06	4.9571e-06	428.02	141.12	123.35	42.521	4.4262e-06	52.699	0.00059303	0.00070295	0.00019981	1416.2	7.8813e-06	7.9762e-06	1410.2	380.02	7.9056e-06	7.9039e-06	433.49	144.46	126.05	43.535	7.738e-06	53.753	197.581	118.280	111.965	38.862	197.359	167.824	38.946	43.447	232.816	175.543	42.745	47.976	48.199	52.106	204.139	51.510	-8191	255	
685.084	1	1	0	0	0.066364	0.096149	0.17203	0.14648	0.26045	0.11788	0.25936	0.13446	0.16351	0.10853	0.12582	0.19823	0.09529	0.09532	0.10999	0.29034	-2.6396	-3.3292	-3.1958	-3.1625	-3.5312	-3.15	-3.3458	-3.4646	-3.1083	-3.2438	-3.1875	-3.0417	-3.4229	-3.2313	-3.2229	-3.4958	138.769	96.809	37.463	285.064	163.770	273.049	340.124	341.256	143.182	180.540	286.314	177.396	353.315	261.785	103.125	351.811	0.00030559	0.00059129	9.8184e-05	1401.5	5.3268e-06	4.246e-06	1396.1	373.48	2.9998e-06	5.9201e-06	426.63	141.11	123.68	42.38	4.8403e-06	52.358	0.0005751	0.00070936	0.00019746	1416	7.6973e-06	7.854e-06	1409.4	380.05	7.5434e-06	7.7435e-06	433.26	144.64	126.26	43.527	7.6187e-06	53.706	195.553	119.448	116.124	38.505	212.785	181.592	38.768	43.507	215.751	189.916	42.835	47.948	48.073	52.461	188.213	51.392	-8191	255	
685.181	1	1	0	0	0.077338	0.10317	0.13584	0.1044	0.12264	0.10762	0.089712	0.24705	0.24488	0.27928	0.23887	0.27853	0.074997	0.3563	0.14584	0.13907	-2.6125	-3.1688	-3.2042	-3.3542	-3.4167	-2.9917	-3.1562	-3.3688	-3.1229	-3.3917	-3.3917	-3.1417	-3.4479	-3.0229	-3.1437	-3.5458	286.045	329.361	59.913	383.075	110.342	258.356	301.502	330.678	25.500	96.465	369.885	356.329	379.394	325.181	111.815	43.279	0.00035726	0.00052113	0.00016902	1399.2	4.4332e-06	6.8984e-06	1399	374.44	3.652e-06	5.8401e-06	428.55	140.56	123.29	42.46	5.2115e-06	52.378	0.00058452	0.00067434	0.00019717	1414.8	7.7332e-06	7.7485e-06	1409.9	380.14	7.538e-06	7.7367e-06	434.3	144.37	126.17	43.463	7.7307e-06	53.639	192.360	105.392	117.471	38.744	186.914	174.914	38.675	43.330	214.559	174.355	43.095	47.938	48.392	52.314	185.727	51.696	-8191	255	
685.277	1	1	0	0	0.03103	0.12488	0.06446	0.051909	0.065885	0.12768	0.33661	0.15832	0.043667	0.022389	0.2941	0.22485	0.21715	0.23215	0.12694	0.12121	-2.5958	-3.2687	-3.0396	-3.1292	-3.3229	-3.2	-3.2	-3.7208	-3.0417	-3.4	-3.3458	-3.1708	-3.5563	-3.125	-2.9562	-3.65	294.162	370.027	369.836	333.715	362.246	293.103	287.930	281.745	156.741	176.374	31.609	359.857	338.947	380.362	68.450	280.644	0.00032551	0.00047662	0.00013936	1404.5	3.8011e-06	7.0157e-06	1401.6	373.33	4.1166e-06	6.1549e-06	428.4	141.15	123.18	42.248	5.3732e-06	52.475	0.00059321	0.00071355	0.00019914	1416.9	7.5846e-06	7.928e-06	1412.5	380.04	7.7133e-06	8.2827e-06	434.02	144.61	126.04	43.391	7.8251e-06	53.718	197.627	96.884	105.414	38.690	205.350	173.393	38.590	43.548	208.162	177.239	42.869	47.999	48.185	52.414	208.730	51.618	-8191	255	
685.371	1	1	0	0	0.087547	0.047371	0.19786	0.18373	0.21261	0.043959	0.1585	0.20826	0.27032	0.083189	0.22097	0.12083	0.27748	0.32489	0.10508	0.22176	-2.8688	-3.1417	-3.0417	-3.4062	-3.5021	-3.3083	-3.3396	-3.4562	-3.1312	-3.2687	-3.5938	-3.1042	-3.4375	-3.2896	-3.1188	-3.3438	152.236	310.408	144.751	356.736	212.685	196.316	341.928	375.592	312.806	138.035	312.335	264.807	357.680	340.475	139.574	327.654	0.000337	0.00050962	0.00013835	1399.3	4.0505e-06	6.3148e-06	1400.6	373.83	4.5325e-06	4.8926e-06	426.2	141	123.13	42.256	5.8355e-06	52.874	0.00057572	0.00070868	0.00020391	1416.2	7.7317e-06	7.8035e-06	1411.3	380.15	7.5662e-06	7.914e-06	433.42	144.51	126.13	43.447	8.0637e-06	53.766	199.210	110.455	113.820	38.709	188.239	167.853	38.946	43.458	219.206	174.105	42.948	47.625	48.145	52.295	200.440	51.351	-8191	255	
685.469	1	1	0	0	0.14887	0.14543	0.11785	0.38044	0.13455	0.35272	0.3154	0.14702	0.046976	0.24843	0.11448	0.28098	0.33037	0.1124	0.15515	0.077929	-2.7375	-3.1792	-3.2708	-3.3271	-3.2833	-3.3563	-3.5271	-3.6646	-3.3875	-3.3146	-3.6562	-3.2333	-3.3208	-3.325	-2.9833	-3.4667	62.982	311.026	41.363	300.432	63.488	112.550	362.567	334.551	61.203	374.254	376.940	25.548	68.292	296.270	50.046	301.983	0.00034533	0.00059462	0.00013433	1399.9	3.9968e-06	7.8428e-06	1401.7	374.2	2.5376e-06	3.5308e-06	425.63	140.97	122.87	42.446	5.3174e-06	52.434	0.00058103	0.00070811	0.00019732	1415.8	7.444e-06	8.0486e-06	1412.5	380.18	7.6215e-06	7.6736e-06	433.44	144.76	126.11	43.495	7.9913e-06	53.665	192.466	109.634	124.276	38.785	214.655	163.698	38.930	43.487	188.300	204.329	42.780	47.908	48.246	52.104	195.241	51.409	-8191	255	
685.588	1	1	0	0	0.2686	0.099153	0.20543	0.20453	0.027644	0.21775	0.25835	0.20586	0.20335	0.15367	0.12839	0.31304	0.16878	0.39189	0.14168	0.023389	-2.8104	-3.1063	-3.3396	-3.2146	-3.3271	-3.4229	-3.1437	-3.4708	-3.4229	-3.1521	-3.4667	-3.1979	-3.5667	-3.3896	-3.1917	-3.4	219.446	292.306	275.919	312.418	349.376	47.064	353.723	331.121	139.896	38.236	265.170	329.964	272.582	361.558	281.942	193.776	0.00033485	0.00059274	0.00013991	1405.9	5.8872e-06	5.7261e-06	1399.4	373.63	4.6794e-06	4.0979e-06	426.42	140.75	123.47	42.256	5.5861e-06	52.559	0.00058069	0.0006991	0.00020771	1418	7.7991e-06	7.8927e-06	1411.6	380.16	7.5793e-06	8.1184e-06	433.26	144.4	126.25	43.355	7.8688e-06	53.704	199.615	106.541	104.534	38.761	195.510	179.458	38.889	43.660	192.071	188.519	42.772	47.543	48.505	52.153	190.479	51.521	-8191	255	
685.684	1	1	0	0	0.12837	0.085337	0.14996	0.084365	0.16067	0.062126	0.18224	0.28999	0.12122	0.080782	0.090564	0.2356	0.14812	0.080414	0.094863	0.17841	-2.6917	-3.0687	-3.3812	-3.1562	-3.2125	-3.2479	-3.1417	-3.575	-3.3396	-3.15	-3.5896	-3.225	-3.1979	-3.5625	-3.1688	-3.4771	267.415	381.756	166.585	364.902	347.552	279.311	320.795	335.993	252.309	83.966	245.647	326.013	41.314	103.025	64.275	370.801	0.00034205	0.00044166	0.00012867	1404	5.458e-06	7.1198e-06	1393.6	373.68	4.1095e-06	4.2118e-06	426.73	141.13	122.84	42.179	4.9623e-06	52.409	0.00058174	0.0007071	0.00020405	1417.6	7.5966e-06	7.8787e-06	1410.3	380.32	7.6604e-06	8.0305e-06	433.3	144.47	126.09	43.403	7.9585e-06	53.643	197.796	123.449	149.153	38.712	211.311	174.718	38.746	43.586	214.814	181.545	42.710	47.926	48.534	52.295	193.839	51.463	-8191	255	
685.780	1	1	0	0	0.22347	0.090978	0.25325	0.21723	0.14014	0.20368	0.36563	0.27376	0.070751	0.1276	0.21608	0.16025	0.08802	0.21316	0.14707	0.12327	-2.7375	-3.1917	-3.4458	-3.2792	-3.1667	-3.4354	-3.3854	-3.425	-3.2646	-3.125	-3.5312	-3.2167	-3.2812	-3.4833	-3.15	-3.2687	242.185	86.806	332.543	35.431	236.649	185.573	362.882	41.931	242.169	230.287	369.055	34.878	221.387	31.930	259.739	322.818	0.00035003	0.0004392	0.00012086	1407	3.6841e-06	7.3449e-06	1398.6	374.84	2.9533e-06	4.5978e-06	427.22	141.08	123.01	42.272	3.6029e-06	52.456	0.00058481	0.00071259	0.00020271	1418.8	7.7342e-06	7.7121e-06	1410.6	380.56	7.4331e-06	7.9585e-06	433.82	144.26	126.1	43.365	7.7875e-06	53.629	198.015	128.814	125.414	38.800	205.034	177.567	38.948	43.574	222.611	185.762	42.790	47.609	48.275	52.314	191.984	51.517	-8191	255	
685.876	1	1	0	0	0.27513	0.16082	0.16544	0.16505	0.17446	0.2759	0.2065	0.18561	0.090458	0.15123	0.44213	0.31362	0.15152	0.2306	0.09475	0.17227	-2.7687	-3.1125	-3.4688	-3.4042	-3.1292	-3.2458	-3.3583	-3.3792	-3.3542	-2.9375	-3.3667	-3.2042	-3.3375	-3.6042	-3.3187	-3.4771	349.705	375.172	69.510	38.561	249.789	126.376	279.010	350.611	45.351	190.405	45.293	305.708	373.381	312.984	336.215	283.785	0.0003328	0.00064794	0.00013575	1403.7	4.4064e-06	6.6716e-06	1398.1	373.43	4.3154e-06	5.3635e-06	425.66	141.1	123.3	42.353	4.5986e-06	52.46	0.00057208	0.00071389	0.00019717	1417	7.6664e-06	7.8624e-06	1411.7	380.16	7.6983e-06	8.0446e-06	432.84	144.39	126	43.466	7.5431e-06	53.674	199.917	95.079	113.433	38.582	219.769	166.691	38.866	43.561	199.440	188.501	42.832	47.807	48.437	52.267	194.637	51.587	-8191	255	
685.972	1	1	0	0	0.3576	0.22851	0.1551	0.32615	0.17958	0.063668	0.32643	0.33846	0.17522	0.1093	0.095359	0.26215	0.39447	0.015814	0.079937	0.20961	-2.7104	-3.0896	-3.2438	-3.1708	-3.0979	-3.4437	-3.4188	-3.1063	-3.2854	-3.1104	-3.55	-3.2833	-2.9938	-3.3937	-3.1562	-3.2396	36.980	66.158	191.096	30.695	188.733	307.441	298.791	356.063	98.923	182.405	27.481	316.355	359.989	237.134	91.012	54.032	0.00033873	0.00049985	0.00011502	1396	4.9506e-06	6.7653e-06	1400.9	373.88	3.8765e-06	6.7625e-06	426.69	141.39	122.54	42.363	4.4131e-06	52.582	0.00058158	0.0006977	0.00019633	1416	7.829e-06	7.5068e-06	1411.7	380.33	7.4919e-06	8.0148e-06	433.52	144.56	125.82	43.39	7.8225e-06	53.699	195.363	93.778	134.646	38.760	187.613	176.313	38.985	43.542	215.238	183.546	42.896	47.654	48.361	52.266	194.734	51.736	-8191	255	
686.069	1	1	0	0	0.16779	0.06354	0.076511	0.27742	0.10476	0.064825	0.11485	0.17329	0.087277	0.1493	0.19537	0.1126	0.22536	0.10539	0.20724	0.12276	-2.8042	-3.0812	-3.3146	-3.3583	-2.8646	-3.5563	-3.2458	-3.25	-3.4062	-3.1042	-3.4083	-3.4938	-3.3042	-3.6979	-3.1125	-2.975	234.812	28.798	328.797	323.198	73.031	106.141	26.712	287.298	40.166	166.620	295.794	247.215	129.283	126.970	91.228	34.194	0.00035077	0.0004083	0.00017277	1402.4	4.2812e-06	5.8978e-06	1401.6	373.61	2.9432e-06	4.6807e-06	426.73	141.08	123.19	42.403	5.3852e-06	52.421	0.00058369	0.00070864	0.00019743	1419.1	7.8963e-06	7.6913e-06	1413	380.53	7.4516e-06	7.9787e-06	433.74	144.58	126.06	43.409	7.8741e-06	53.675	196.999	110.261	120.378	38.630	195.163	178.932	38.785	43.561	189.687	184.758	42.553	47.869	48.287	52.089	190.871	51.765	-8191	255	
686.189	1	1	0	0	0.27995	0.11153	0.059778	0.16329	0.27075	0.041427	0.23261	0.17188	0.12746	0.16673	0.37554	0.19884	0.089131	0.12997	0.12648	0.077756	-2.9896	-3.1396	-3.2062	-3.3833	-2.7542	-3.2125	-3.2667	-3.3208	-3.2875	-2.9062	-3.2354	-3.45	-3.2521	-3.6437	-3.1562	-3.0896	68.236	139.246	37.307	329.546	116.846	123.635	340.353	307.711	364.042	288.128	45.080	340.491	85.571	355.770	161.941	59.713	0.00033804	0.00047993	9.0318e-05	1400.3	3.8379e-06	5.8659e-06	1397.7	373.85	4.6887e-06	6.5079e-06	426.03	140.62	122.88	42.29	3.6272e-06	52.235	0.00057375	0.00068739	0.00019314	1416.4	7.9492e-06	7.8618e-06	1412.8	380.02	7.4686e-06	7.9371e-06	433.49	144.43	125.91	43.407	7.9215e-06	53.597	195.169	103.439	99.055	38.713	238.661	176.708	38.854	43.664	208.728	168.343	42.830	47.933	48.326	52.294	194.879	51.522	-8191	255	
686.284	1	1	0	0	0.14206	0.084454	0.1662	0.21768	0.27375	0.11165	0.22565	0.13176	0.094296	0.098647	0.21632	0.19162	0.073822	0.33864	0.16642	0.10926	-3.0854	-3.1063	-3.1146	-3.5187	-3.2833	-3.2958	-3.2104	-3.0417	-3.475	-3.2917	-3.2542	-3.5583	-3.1896	-3.3146	-3.0917	-3.1437	112.048	151.119	240.036	367.061	376.128	324.405	337.830	353.311	54.320	182.661	283.533	371.097	214.532	28.237	70.764	33.023	0.00033335	0.00042513	0.00011307	1403.4	4.2583e-06	4.209e-06	1401.3	374.12	3.8297e-06	7.5382e-06	427.73	140.29	122.98	42.261	4.7439e-06	52.157	0.00057713	0.00070006	0.00020369	1417.5	7.9666e-06	7.9975e-06	1412	380.44	7.5414e-06	7.9129e-06	433.91	144.29	125.95	43.398	7.7938e-06	53.615	198.798	102.395	127.697	38.757	211.185	169.624	38.721	43.590	206.803	179.208	43.026	47.638	48.256	52.175	189.682	51.577	-8191	255	
686.380	1	1	0	0	0.25205	0.1373	0.12915	0.16945	0.16852	0.07044	0.24155	0.27397	0.17187	0.09482	0.29195	0.14834	0.21734	0.04242	0.18482	0.13519	-3.0792	-3.2333	-2.9	-3.4333	-3.2583	-3.15	-3.3	-3.1688	-3.35	-3.3375	-3.0687	-3.4125	-3.1396	-3.1937	-3.1354	-3.1083	248.374	226.695	272.006	344.225	179.231	75.096	304.299	330.811	343.867	219.794	309.763	315.800	42.947	320.872	211.240	192.284	0.00033142	0.00063633	0.00011409	1404.8	5.3318e-06	5.5164e-06	1397.9	373.54	4.2647e-06	4.6205e-06	427.69	140.74	123.02	42.459	3.1324e-06	52.753	0.0005764	0.00067588	0.00019995	1416.3	7.7183e-06	7.868e-06	1411.9	380.02	7.3049e-06	7.6393e-06	433.43	144.53	126.06	43.451	7.7808e-06	53.671	198.755	116.023	99.991	38.570	197.540	154.441	38.724	43.495	205.376	204.894	42.786	47.600	48.280	52.299	182.064	51.559	-8191	255	
686.451	1	1	0	0	0.20284	0.30287	0.27074	0.16207	0.07849	0.095089	0.31979	0.030213	0.1221	0.12747	0.29854	0.055571	0.17467	0.30617	0.063253	0.042225	-3.0187	-3.0396	-2.7875	-3.5333	-3.0833	-3.1437	-3.4229	-3.2354	-3.3104	-3.2021	-3.0646	-3.5792	-2.9833	-3.2417	-3.4938	-2.9458	253.201	198.389	318.522	346.166	330.175	290.622	282.411	283.822	310.687	226.646	358.547	348.651	59.074	340.318	189.004	334.218	0.00033203	0.0005178	0.00011001	1400.8	4.4697e-06	4.7735e-06	1397	372.9	4.3323e-06	6.4251e-06	424.69	140.76	122.32	42.282	4.7071e-06	52.534	0.00056896	0.0006714	0.00020041	1417.6	7.6868e-06	7.9258e-06	1410.3	380.13	7.6016e-06	7.7969e-06	432.75	144.64	125.83	43.403	7.7422e-06	53.682	198.031	103.101	126.841	38.720	198.159	168.249	38.743	43.738	213.526	177.464	43.166	47.680	48.593	52.220	210.625	51.570	-8191	255	
686.572	1	1	0	0	0.042794	0.14481	0.12422	0.062155	0.32244	0.18526	0.28251	0.055719	0.060308	0.31671	0.37577	0.15009	0.11396	0.16672	0.30029	0.16488	-2.8271	-3.1104	-3.0938	-3.3438	-2.9313	-3.0958	-3.6813	-3.3812	-3.2042	-3.2062	-3.1708	-3.4729	-3.0604	-3.1188	-3.4729	-3.1333	339.712	29.839	325.354	45.716	49.580	77.605	308.570	337.438	337.758	149.986	347.389	92.937	314.718	320.310	211.191	216.668	0.00033037	0.00054435	0.00011032	1401.6	3.9658e-06	3.9533e-06	1395.7	372.73	4.1167e-06	5.4085e-06	426.34	140.81	122.64	42.351	4.6897e-06	52.565	0.00057835	0.00068292	0.00020486	1416.9	7.6983e-06	7.7715e-06	1410.9	380.04	7.5006e-06	8.0795e-06	432.58	144.28	125.86	43.416	7.824e-06	53.664	201.589	115.707	105.303	38.893	205.419	184.452	38.982	43.625	210.323	183.530	43.145	47.686	48.284	52.354	192.839	51.535	-8191	255	
686.668	1	1	0	0	0.10877	0.23815	0.11409	0.23099	0.10389	0.047692	0.19155	0.074597	0.078096	0.010924	0.1257	0.058971	0.054425	0.27325	0.16084	0.33571	-2.6042	-3.1583	-3.1354	-3.6063	-3.0958	-2.9562	-3.625	-3.1583	-3.225	-3.4	-3.0042	-3.3125	-3.2146	-3.1312	-3.5062	-3.2083	182.969	338.931	380.811	342.419	114.145	105.265	335.605	39.464	178.703	333.761	328.892	371.731	164.501	376.131	38.660	368.257	0.00035326	0.00042041	0.00019269	1401.4	6.0342e-06	4.3668e-06	1399.1	372.03	3.8567e-06	6.2761e-06	427.02	139.92	122.58	42.247	3.6138e-06	52.281	0.00057458	0.00070979	0.00019509	1417.6	7.6843e-06	7.8063e-06	1411.5	379.51	7.607e-06	7.7412e-06	433.41	144.26	125.74	43.385	7.7031e-06	53.643	195.503	111.441	120.298	38.656	206.171	166.160	38.786	43.653	201.745	185.320	42.793	47.737	48.090	52.390	189.049	51.644	-8191	255	
686.764	1	1	0	0	0.12388	0.055051	0.22588	0.29245	0.089988	0.23085	0.15961	0.3843	0.071801	0.1337	0.065215	0.35152	0.068125	0.31108	0.067624	0.20118	-2.7542	-3.1854	-3.0167	-3.5875	-3.2417	-3.3146	-3.6354	-3.3812	-3.2458	-3.5438	-3.0958	-3.4646	-3.3604	-3.2188	-3.2042	-3.1521	141.209	242.405	175.374	375.197	48.535	270.964	318.461	325.651	224.532	29.431	68.088	339.873	46.589	353.865	351.955	331.562	0.00032644	0.00044718	0.00011131	1404	4.1948e-06	4.9745e-06	1395.4	372.92	3.4637e-06	4.0348e-06	427.67	140.52	122.65	42.481	5.2631e-06	52.483	0.00058114	0.0006937	0.00019402	1417.5	7.5582e-06	8.0127e-06	1410.7	379.74	7.3714e-06	7.5909e-06	433.7	144.42	125.91	43.403	7.54e-06	53.618	197.916	107.131	111.684	38.741	202.119	185.551	38.784	43.571	210.214	186.075	42.757	47.722	48.267	52.359	197.171	51.483	-8191	255	
686.861	1	1	0	0	0.13977	0.1459	0.18002	0.11937	0.14026	0.11139	0.42316	0.44353	0.20769	0.1309	0.12885	0.15396	0.1121	0.51679	0.22172	0.23281	-2.9688	-3.2583	-2.8583	-3.3917	-3.1	-2.8896	-3.5896	-3.1896	-3.1167	-3.4667	-3.2792	-3.4333	-3.0875	-3.1125	-3.3854	-3.4458	291.583	188.809	135.005	294.238	171.090	244.867	333.685	312.997	135.606	340.481	163.390	290.724	38.318	315.745	144.925	362.043	0.00033835	0.00034308	0.00014209	1405.6	3.6975e-06	6.4548e-06	1396.9	372.33	3.9567e-06	4.4852e-06	425.05	141.47	122.83	42.298	4.2399e-06	52.272	0.0005682	0.0006742	0.00019815	1416.3	7.635e-06	7.8186e-06	1412.3	379.8	7.4326e-06	7.6067e-06	432.21	144.5	125.75	43.338	7.5338e-06	53.528	200.469	123.702	94.290	38.827	198.485	170.033	38.913	43.606	203.905	183.344	42.860	47.669	48.368	52.343	194.743	51.771	-8191	255	
686.981	1	1	0	0	0.19366	0.14171	0.088587	0.2737	0.42882	0.12326	0.03054	0.21114	0.087762	0.15614	0.060289	0.17401	0.28902	0.17709	0.23275	0.1654	-2.7354	-3.2	-2.9875	-3.35	-3.3104	-3.1312	-3.6312	-3.3688	-2.9938	-3.5208	-3.2646	-3.3104	-3.4729	-2.9271	-3.1896	-3.2792	366.004	304.359	360.981	272.219	251.404	363.676	197.003	383.389	219.474	121.829	257.822	335.373	354.753	41.614	376.126	282.824	0.0003345	0.00047148	0.00012904	1402.4	4.665e-06	6.4515e-06	1395.7	373.07	3.7847e-06	4.6769e-06	425.5	141.1	123.19	42.173	5.4635e-06	52.529	0.00057679	0.00068426	0.00019305	1417.5	7.5726e-06	7.8243e-06	1409.4	380.15	7.4997e-06	7.5656e-06	432.98	144.58	125.87	43.345	7.6687e-06	53.649	195.004	109.414	101.825	38.785	215.102	160.676	38.948	43.560	205.346	196.733	42.642	47.844	48.330	52.312	198.189	51.844	-8191	255	
687.053	1	1	0	0	0.23932	0.28374	0.059448	0.17931	0.12582	0.081977	0.15117	0.20174	0.10151	0.17699	0.15815	0.19212	0.23561	0.11237	0.032424	0.13728	-2.7667	-3.325	-2.9396	-3.3375	-3.4375	-3.1063	-3.5333	-3.45	-3.0729	-3.4083	-3.2438	-3.4062	-3.5292	-3.175	-3.2792	-3.4083	351.302	37.659	281.414	48.568	268.868	46.283	239.375	282.276	129.451	152.382	365.653	290.068	28.423	223.876	357.750	301.836	0.00034119	0.00050701	0.0001216	1403.2	3.9789e-06	6.0678e-06	1398.3	373.14	3.7082e-06	5.6921e-06	427.64	141.27	123.31	42.266	5.587e-06	52.382	0.00058004	0.00067829	0.00019583	1418.8	7.5676e-06	7.6717e-06	1411.6	379.86	7.5259e-06	7.8352e-06	433.71	144.45	126.08	43.357	7.6531e-06	53.693	196.886	127.340	119.884	38.785	199.033	165.517	38.858	43.483	218.099	169.796	42.773	47.737	48.200	52.474	195.728	51.452	-8191	255	
687.149	1	1	0	0	0.18831	0.086021	0.11743	0.1757	0.1679	0.1824	0.32268	0.066392	0.13734	0.34355	0.2204	0.21294	0.19893	0.22308	0.14139	0.065621	-2.7062	-3.2812	-3.1583	-3.3708	-3.3812	-3.1042	-3.3708	-3.3563	-3.0417	-3.2771	-3.3583	-3.0312	-3.5333	-3.1	-3.1479	-3.4625	58.877	111.502	242.523	352.812	101.432	126.085	351.853	281.358	110.036	124.075	335.013	286.670	321.219	385.318	302.098	49.091	0.00033779	0.00047332	0.00014	1405.8	6.7269e-06	5.2259e-06	1399.7	374.67	5.4375e-06	4.3597e-06	425.38	141.09	122.61	42.297	4.8295e-06	52.339	0.00058848	0.00067381	0.00019473	1419.8	7.3916e-06	7.6156e-06	1413.5	380.63	7.5327e-06	7.3821e-06	432.52	144.33	125.82	43.428	7.4363e-06	53.573	200.122	92.173	119.447	38.785	204.564	172.128	38.812	43.457	196.842	192.114	42.802	47.702	48.177	52.272	199.217	51.694	-8191	255	
687.270	1	1	0	0	0.086845	0.073214	0.35687	0.20493	0.12174	0.2353	0.16324	0.30156	0.21228	0.18868	0.093125	0.094457	0.14438	0.20269	0.032662	0.16779	-2.7062	-3.3771	-3.0438	-3.35	-3.4313	-3.1333	-3.5396	-3.3667	-3.1208	-3.4188	-3.3333	-3.2521	-3.5521	-2.9354	-3.2125	-3.3833	230.210	277.563	358.497	262.825	354.197	352.958	316.125	347.501	169.263	80.098	91.482	47.237	43.994	58.850	355.317	372.467	0.00034757	0.00047864	0.0001291	1405.6	5.4398e-06	6.7206e-06	1403.4	373.02	4.0893e-06	4.7918e-06	427.12	140.79	122.89	42.257	5.5702e-06	52.606	0.00057799	0.00065599	0.00019381	1417.9	7.3956e-06	7.6308e-06	1413	380.18	7.3141e-06	7.6962e-06	433.44	144.47	126.01	43.366	7.6114e-06	53.646	196.727	106.264	128.484	38.965	196.084	176.588	38.883	43.471	222.988	175.042	42.917	47.811	48.226	52.265	176.193	51.196	-8191	255	
687.364	1	1	0	0	0.072427	0.19557	0.12034	0.32137	0.09053	0.14997	0.39883	0.28991	0.21159	0.14459	0.1578	0.27104	0.25202	0.32853	0.18057	0.19221	-2.7396	-3.3771	-3.2229	-3.4	-3.5146	-3.3292	-3.4854	-3.6333	-2.9229	-3.2896	-3.1937	-3.1958	-3.7104	-3.3167	-3.2083	-3.3187	329.056	142.998	40.645	375.105	105.518	239.256	315.896	311.871	268.293	298.440	251.188	291.159	349.418	328.591	336.819	216.674	0.00032427	0.00037236	0.00012275	1401	4.4567e-06	4.9101e-06	1401.8	374.38	4.0335e-06	4.7302e-06	427.52	140.97	123.42	42.248	4.9003e-06	52.557	0.00056872	0.00068205	0.00020106	1419	7.7188e-06	7.7155e-06	1412.3	380.73	7.5293e-06	7.8718e-06	433.46	144.5	126.02	43.389	7.8959e-06	53.679	198.176	96.669	104.778	38.672	192.000	184.031	38.796	43.648	212.700	163.742	42.591	47.836	48.418	52.284	187.581	51.610	-8191	255	
687.462	1	1	0	0	0.20121	0.073106	0.18955	0.14494	0.14152	0.087353	0.22301	0.24555	0.16666	0.092357	0.23007	0.30476	0.07964	0.041386	0.13826	0.084879	-2.5312	-3.1271	-3.0687	-3.0208	-3.4688	-3.1229	-3.3479	-3.6542	-3.2438	-3.2542	-3.4313	-3.1437	-3.6063	-3.1917	-3.0604	-3.3438	323.338	325.632	168.543	341.223	263.612	55.945	317.156	343.343	310.349	344.835	200.538	380.466	312.835	323.493	288.148	160.809	0.00034547	0.00047081	0.00015897	1402.5	6.5139e-06	7.333e-06	1401.5	373.86	4.8258e-06	4.4875e-06	425.78	140.71	122.78	42.437	3.3139e-06	52.486	0.0005712	0.00068051	0.00019127	1418.4	7.3971e-06	7.6981e-06	1414.4	380.82	7.0621e-06	7.6979e-06	433.29	144.56	125.93	43.46	7.6854e-06	53.727	200.106	116.628	112.462	38.672	203.681	195.908	38.979	43.516	201.847	177.024	42.884	47.744	48.234	52.259	197.893	51.533	-8191	255	
687.581	1	1	0	0	0.16476	0.074989	0.31446	0.11732	0.10217	0.13237	0.26393	0.23631	0.15478	0.25445	0.29692	0.1196	0.28327	0.18028	0.21381	0.086014	-2.5542	-3.1479	-3.2042	-2.9708	-3.35	-3.3083	-3.225	-3.5083	-3.1208	-3.15	-3.5896	-3.0333	-3.3438	-3.1208	-3.1167	-3.5875	270.148	273.047	120.899	314.452	224.561	118.911	289.695	308.965	190.982	312.758	59.130	171.483	44.942	345.847	369.901	307.896	0.00030831	0.0004583	0.0001236	1402	3.7312e-06	6.6545e-06	1401.7	374.85	4.0707e-06	6.7581e-06	426.53	141.46	123.39	42.288	5.0525e-06	52.393	0.00055313	0.00065739	0.00019492	1417.9	7.2894e-06	7.4093e-06	1413.3	380.38	7.4263e-06	7.6151e-06	433.2	144.6	126.14	43.378	7.6244e-06	53.698	193.814	111.262	111.153	38.773	209.176	191.345	38.796	43.564	221.648	167.770	42.672	47.757	48.096	52.103	210.356	51.654	-8191	255	
687.677	1	1	0	0	0.18263	0.1079	0.053029	0.10423	0.36935	0.16755	0.37459	0.31939	0.13675	0.2123	0.1058	0.28474	0.22901	0.18423	0.087542	0.13598	-2.825	-3.2229	-3.3958	-3.3125	-3.3667	-2.9396	-3.3208	-3.5729	-3.2938	-3.2125	-3.4688	-3.1271	-3.3083	-3.5687	-3.1354	-3.3208	295.953	342.969	226.909	314.833	187.740	94.820	354.405	342.504	351.335	189.147	65.663	384.473	279.548	348.429	338.826	64.260	0.00033613	0.00039783	0.00015234	1405.5	5.2229e-06	4.3131e-06	1398.6	373.44	4.18e-06	5.4759e-06	428.01	140.45	122.97	42.386	3.4645e-06	52.564	0.00057377	0.00067569	0.00018819	1419.7	7.2564e-06	7.5949e-06	1410.1	380.43	7.1612e-06	7.5988e-06	434.14	144.37	125.83	43.384	7.3305e-06	53.714	199.645	108.183	126.319	38.827	202.707	174.599	38.845	43.677	213.610	181.567	43.123	47.739	48.074	52.304	210.660	51.724	-8191	255	
687.749	1	1	0	0	0.14978	0.074539	0.064175	0.23742	0.137	0.19937	0.3152	0.23829	0.1153	0.17841	0.22243	0.17397	0.070319	0.31031	0.092502	0.049641	-2.6146	-3.1813	-3.4313	-3.1104	-3.1188	-3.6312	-3.4167	-3.4896	-3.1542	-3.1771	-3.7667	-3.1958	-3.2021	-3.3521	-3.0729	-3.2625	94.817	340.795	304.933	378.649	284.434	32.668	346.390	344.889	378.942	126.860	73.588	371.282	229.539	355.406	326.545	41.039	0.00033874	0.00052608	0.00016256	1400.7	4.5848e-06	5.6093e-06	1403.1	372.79	3.277e-06	5.3326e-06	427.55	141.73	123.04	42.402	4.3489e-06	52.615	0.00057273	0.00069626	0.00019224	1417.1	7.5213e-06	7.3543e-06	1412.8	380.3	7.506e-06	7.5492e-06	433.41	144.75	126.06	43.471	7.3988e-06	53.674	196.988	112.930	106.081	38.740	209.367	188.829	38.898	43.538	211.780	186.376	42.772	47.943	48.203	52.217	191.421	51.651	-8191	255	
687.869	1	1	0	0	0.26632	0.11636	0.16709	0.166	0.15445	0.18354	0.22518	0.21334	0.062337	0.35811	0.10914	0.32733	0.22299	0.20376	0.102	0.28935	-2.6937	-3.1562	-3.3854	-3.1958	-3.0333	-3.5271	-3.475	-3.5458	-3.0083	-2.9562	-3.5604	-3.3021	-3.0708	-3.3854	-3.05	-3.4646	252.097	305.896	286.604	344.570	161.934	65.116	354.969	275.039	220.435	68.276	116.674	382.123	339.428	174.788	45.877	312.416	0.00035736	0.0004583	8.9167e-05	1404.1	3.3811e-06	8.517e-06	1401.1	373.65	5.188e-06	4.2743e-06	427.75	141.51	123.01	42.166	4.6986e-06	52.555	0.00056203	0.00066326	0.00018592	1418.4	7.445e-06	7.5057e-06	1412.2	380.19	7.3812e-06	7.7046e-06	433.77	144.62	125.86	43.375	7.7021e-06	53.684	196.426	110.105	141.236	38.759	200.890	174.539	38.691	43.389	218.484	202.278	42.590	47.612	48.303	52.321	198.135	51.685	-8191	255	
687.965	1	1	0	0	0.13119	0.1755	0.16311	0.21822	0.16614	0.34453	0.38244	0.23214	0.10433	0.01674	0.33706	0.343	0.12182	0.15385	0.1444	0.20735	-2.9625	-3.0875	-3.25	-3.1479	-3.1562	-3.4833	-3.3708	-3.4646	-3.3167	-2.9229	-3.3937	-3.1937	-3.3312	-3.525	-3.0604	-3.1604	275.854	138.333	219.602	319.804	64.274	224.034	319.995	371.917	127.531	358.505	359.485	335.855	339.805	52.561	135.275	88.932	0.00034156	0.00034933	0.00015481	1408	4.9872e-06	5.563e-06	1399.7	373.74	2.798e-06	7.2792e-06	427.24	141.63	123.05	42.461	4.5037e-06	52.308	0.00057161	0.00068364	0.00019009	1419.5	7.5966e-06	7.4121e-06	1414.2	380.34	7.3117e-06	7.8189e-06	433.54	144.66	126.21	43.45	7.4415e-06	53.559	197.206	117.490	129.703	38.705	215.841	181.013	38.890	43.522	207.508	182.756	43.037	47.746	48.232	52.332	189.838	51.435	-8191	255	
688.062	1	1	0	0	0.17577	0.16139	0.20736	0.23759	0.25592	0.24477	0.14786	0.23761	0.25231	0.16018	0.23996	0.34802	0.041621	0.19724	0.12194	0.3922	-3.0833	-3.1104	-3.2958	-3.2	-3.0563	-3.4354	-3.3104	-3.3458	-3.2375	-3.1437	-3.5563	-3.1167	-3.0833	-3.4458	-3.1208	-3.5542	131.131	208.691	283.915	356.394	105.144	297.996	51.398	304.319	92.179	183.604	316.911	337.281	336.011	97.903	172.230	343.804	0.00032596	0.00034547	0.00013911	1404.2	3.9433e-06	6.2882e-06	1402.3	372.66	3.716e-06	6.8762e-06	428.03	141.17	123.03	42.136	5.6846e-06	52.349	0.00057497	0.00066933	0.00019168	1419.3	7.6345e-06	7.7508e-06	1414.4	380.3	7.3948e-06	7.8268e-06	433.83	144.66	126.15	43.396	7.4368e-06	53.674	195.477	126.944	114.240	38.581	184.135	160.474	38.787	43.470	216.190	172.446	42.939	47.674	48.444	52.120	194.780	51.541	-8191	255	
688.158	1	1	0	0	0.17807	0.1615	0.086888	0.12492	0.22816	0.091871	0.31137	0.17114	0.10415	0.1079	0.10792	0.1784	0.18248	0.18075	0.085393	0.077655	-3.0979	-3.0146	-3.2375	-3.3042	-3.0125	-3.5896	-3.5	-3.2562	-3.4354	-2.9417	-3.4917	-3.2938	-3.2146	-3.5812	-3.3104	-3.05	312.476	65.648	156.476	339.875	99.196	294.380	368.285	338.074	257.865	298.747	211.198	26.121	332.460	332.889	132.955	372.375	0.0003343	0.00048633	0.00011995	1403.8	5.8352e-06	6.2482e-06	1403	373.35	4.4032e-06	5.8107e-06	427.07	140.77	123.45	42.321	5.1677e-06	52.157	0.00056045	0.00068022	0.00019011	1419.7	7.3692e-06	7.6599e-06	1414.3	380.3	7.3797e-06	7.9287e-06	433.48	144.41	126.13	43.422	7.4582e-06	53.585	196.726	108.713	124.090	38.791	194.991	163.025	38.744	43.572	205.633	183.544	42.813	47.890	48.289	52.276	191.364	51.656	-8191	255	
688.254	1	1	0	0	0.014248	0.29555	0.1129	0.23835	0.12012	0.20545	0.31898	0.36752	0.14799	0.20405	0.21058	0.10463	0.18539	0.23457	0.1499	0.14715	-2.9104	-2.8625	-3.2542	-3.3354	-3.1146	-3.35	-3.3583	-3.3458	-3.5583	-3.3625	-3.4938	-3.5146	-3.2667	-3.4292	-3.1937	-3.3646	239.384	86.186	291.669	330.474	132.174	335.515	283.740	43.562	314.659	293.896	55.885	42.079	269.631	86.085	368.756	338.132	0.00032886	0.00041538	0.00014767	1405.7	4.937e-06	5.8713e-06	1398.1	373.73	4.626e-06	4.9686e-06	427.9	141.48	122.77	42.443	4.9433e-06	52.518	0.00055847	0.00068475	0.00019135	1420.3	7.5118e-06	7.5164e-06	1412.2	380.38	7.2092e-06	7.4389e-06	434.03	144.73	125.9	43.512	7.3389e-06	53.703	199.470	102.103	118.490	38.850	200.029	178.075	38.869	43.410	228.846	180.944	43.053	47.762	48.267	52.436	206.105	51.547	-8191	255	
688.348	1	1	0	0	0.14693	0.14389	0.068334	0.1148	0.13012	0.13599	0.18734	0.30492	0.22534	0.24379	0.1478	0.11799	0.079577	0.1005	0.041337	0.25212	-3.0792	-3.05	-3.1937	-3.5833	-2.9958	-3.3563	-3.6146	-3.2938	-3.4188	-3.2333	-3.4604	-3.3187	-3.0438	-3.4938	-3.2917	-3.1875	313.576	382.021	285.451	358.915	280.460	223.867	311.832	351.545	307.221	56.042	27.992	385.408	75.047	131.402	35.443	360.036	0.00033091	0.00045812	0.00017335	1402.1	4.051e-06	5.4127e-06	1396.9	373.27	3.3472e-06	5.3862e-06	427.13	140.65	122.91	42.342	5.1975e-06	52.566	0.00055925	0.00067319	0.00018953	1418.2	7.5437e-06	7.4367e-06	1413.1	380.27	7.165e-06	7.4232e-06	433.79	144.46	126.16	43.402	7.4222e-06	53.624	198.405	128.413	101.289	38.627	211.859	181.258	38.842	43.541	211.147	181.530	42.780	47.619	48.311	52.319	186.017	51.751	-8191	255	
688.444	1	1	0	0	0.11708	0.28522	0.11777	0.34001	0.059591	0.15455	0.21017	0.022584	0.17835	0.1479	0.28313	0.15722	0.14875	0.30786	0.14206	0.30055	-2.8479	-3.0271	-3.1	-3.6646	-3.0146	-3.4979	-3.45	-3.0958	-3.2833	-2.9896	-3.1333	-3.4271	-3.0229	-3.3604	-3.3042	-3.0667	371.486	57.568	151.383	88.334	356.777	278.291	348.255	324.124	274.637	202.365	31.748	362.572	354.819	326.468	82.278	345.808	0.00034561	0.00042109	0.00013699	1402.2	4.4171e-06	5.9237e-06	1398.8	374.87	4.5906e-06	6.3074e-06	429.33	141.17	122.88	42.303	3.6473e-06	52.551	0.00055764	0.00066562	0.00019053	1419.6	7.4814e-06	7.3145e-06	1411.9	380.77	7.3389e-06	7.5228e-06	433.49	144.61	125.97	43.369	7.3482e-06	53.74	200.736	107.046	132.339	38.751	192.602	168.626	38.763	43.664	217.664	179.546	42.679	47.793	48.292	52.326	198.874	51.414	-8191	255	
688.542	1	1	0	0	0.11056	0.11434	0.021414	0.27749	0.17105	0.21827	0.05535	0.35416	0.088916	0.45586	0.16807	0.25475	0.25268	0.23272	0.048832	0.44725	-2.9083	-3.1	-3.1646	-3.5479	-3.225	-3.2542	-3.4792	-3.2458	-3.175	-3.1042	-3.1583	-3.5854	-3.3292	-3.2104	-3.3333	-3.2271	157.026	339.873	97.685	379.277	306.335	311.322	42.942	369.456	140.752	197.298	279.572	335.321	51.334	340.143	381.547	321.173	0.00031177	0.00043142	0.00014344	1406.3	4.8353e-06	5.1325e-06	1396.7	373.84	4.4352e-06	5.4274e-06	427.74	141.11	122.74	42.252	5.3691e-06	52.432	0.00054069	0.00065801	0.00019164	1419	7.3951e-06	7.5539e-06	1413.7	380.21	7.2253e-06	7.498e-06	433.92	144.64	125.95	43.366	7.3498e-06	53.606	198.165	112.046	119.127	38.644	200.062	171.569	38.957	43.516	198.271	185.466	42.921	47.848	48.461	52.062	196.939	51.785	-8191	255	
688.661	1	1	0	0	0.17245	0.16681	0.13826	0.27749	0.12721	0.019637	0.27081	0.15514	0.2034	0.091474	0.14828	0.17855	0.11919	0.011778	0.22713	0.27954	-3.0021	-3.2583	-2.9979	-3.5396	-3.0792	-3.3771	-3.525	-3.1479	-3.3583	-3.25	-3.2438	-3.4771	-3.1688	-3.2354	-3.2375	-3.1562	126.218	380.718	298.634	56.951	318.321	356.515	375.020	333.773	85.632	201.391	306.731	310.034	317.984	257.340	111.341	248.369	0.00034901	0.00053573	0.00010908	1406.2	4.7218e-06	4.4778e-06	1394.9	373.7	3.7264e-06	6.2733e-06	426.22	140.79	122.84	42.416	5.6559e-06	52.402	0.00056042	0.00067126	0.00018931	1417.8	7.3083e-06	7.5399e-06	1410.1	380.38	7.2092e-06	7.1333e-06	433.41	144.35	125.94	43.438	7.2581e-06	53.603	194.531	104.104	133.805	38.798	206.865	177.347	38.886	43.539	199.204	174.795	42.858	47.589	48.244	52.200	188.963	51.654	-8191	255	
688.757	1	1	0	0	0.2961	0.055618	0.21079	0.18063	0.27408	0.17434	0.23964	0.24576	0.22839	0.14082	0.14105	0.18891	0.19814	0.2013	0.12282	0.1816	-2.7083	-3.1417	-3.0979	-3.5375	-3.1937	-3.2667	-3.5687	-3.3208	-3.4417	-3.4813	-3.3646	-3.5958	-3.2562	-3.3167	-3.4938	-3.3021	180.553	111.044	93.853	349.031	128.330	231.667	265.826	337.074	125.588	189.816	84.580	308.210	325.226	335.253	323.997	340.882	0.0003198	0.00043881	6.8265e-05	1400.9	3.9929e-06	5.4834e-06	1401.4	373.8	3.9868e-06	6.8146e-06	427.62	141.31	123.36	42.297	5.7166e-06	52.499	0.00055415	0.00066249	0.00019695	1417.4	7.239e-06	7.5719e-06	1413	379.85	7.1374e-06	7.4642e-06	433.17	144.61	125.91	43.388	7.5207e-06	53.659	197.494	94.636	108.247	38.685	216.987	188.589	38.784	43.590	204.037	174.775	42.886	47.434	48.293	52.488	211.712	51.791	-8191	255	
688.853	1	1	0	0	0.11183	0.13362	0.067351	0.19946	0.10868	0.14026	0.30791	0.17924	0.12684	0.054225	0.27759	0.22608	0.24172	0.40754	0.034802	0.1681	-2.9792	-3.3542	-2.7625	-3.4542	-2.9521	-3.1458	-3.6208	-3.1854	-3.4646	-3.5917	-3.3333	-3.4583	-3.4188	-3.3208	-3.3708	-3.0396	168.037	100.820	33.219	329.539	158.563	350.211	348.977	325.018	49.666	39.028	359.377	364.498	365.017	333.336	79.886	332.274	0.00033625	0.00037715	0.00016055	1404.3	5.0058e-06	7.3954e-06	1402.4	373.57	5.2719e-06	6.2558e-06	427.87	140.72	122.8	42.334	4.3572e-06	52.506	0.00056911	0.00066365	0.00019311	1418.4	7.5003e-06	7.6313e-06	1414.4	380.33	7.2204e-06	7.8217e-06	433.15	144.47	125.97	43.42	7.3488e-06	53.703	196.198	98.356	115.825	38.737	196.701	167.956	38.740	43.656	225.069	177.777	42.881	47.779	48.194	52.366	186.915	51.750	-8191	255	
688.950	1	1	0	0	0.2779	0.092963	0.056831	0.27186	0.17642	0.16229	0.31162	0.2942	0.20825	0.056087	0.19286	0.12973	0.39181	0.45662	0.26952	0.15477	-2.7146	-3.1	-3.0771	-3.4729	-3.4146	-3.0146	-3.5167	-3.2271	-3.1604	-3.3187	-2.9875	-3.4437	-3.3021	-3.075	-3.4896	-3.2083	167.565	231.780	181.397	317.399	134.570	67.437	341.799	363.966	166.045	143.718	293.225	336.956	347.013	46.553	235.588	99.112	0.00033152	0.00059308	0.00013304	1403.1	5.9905e-06	5.3199e-06	1399.6	372.21	4.5569e-06	4.7642e-06	427.49	141.04	123.25	42.348	4.3512e-06	52.433	0.00056256	0.00066741	0.00018966	1417.5	7.3711e-06	7.4429e-06	1412.2	379.96	7.2568e-06	7.5577e-06	432.93	144.46	126.14	43.362	7.3227e-06	53.58	197.036	114.799	125.384	38.929	212.112	177.631	38.814	43.651	206.883	180.754	42.946	47.915	48.560	52.084	193.256	51.707	-8191	255	
689.046	1	1	0	0	0.085038	0.098322	0.25609	0.16248	0.19086	0.048598	0.054006	0.15456	0.20074	0.14555	0.25784	0.20887	0.11352	0.060519	0.18131	0.15339	-2.7333	-3.4021	-3.1042	-3.4583	-3.3771	-3.0875	-3.7562	-3.3458	-3.3208	-3.475	-3.2042	-3.3667	-3.4875	-3.3208	-3.3083	-3.2854	361.583	186.864	31.008	371.386	333.796	176.095	357.710	354.997	83.494	146.051	205.188	372.181	27.860	273.577	207.990	112.160	0.00033904	0.0003097	0.00016587	1401.7	5.7816e-06	4.5539e-06	1392.9	373.61	3.9237e-06	5.5824e-06	429.19	141.14	122.46	42.279	3.4891e-06	52.385	0.00058096	0.00066914	0.0001963	1418.1	7.5193e-06	7.7721e-06	1410.7	380.08	7.4224e-06	7.7243e-06	433.66	144.26	125.86	43.363	7.4087e-06	53.602	196.127	100.746	118.374	38.664	202.980	186.643	38.731	43.514	211.261	175.749	43.018	47.611	48.373	52.345	187.902	51.377	-8191	255	
689.142	1	1	0	0	0.2205	0.1357	0.076619	0.15688	0.14215	0.10144	0.2021	0.33817	0.30786	0.17683	0.31464	0.15696	0.13107	0.11147	0.12564	0.20784	-2.6583	-3.3208	-2.8396	-3.2792	-3.3187	-3.0021	-3.4437	-3.2396	-3.1458	-3.6583	-3.1813	-3.3458	-3.4667	-2.925	-3.1271	-3.1604	273.987	98.662	130.713	255.267	177.452	36.726	273.543	349.332	304.253	285.733	254.711	350.623	376.733	89.513	287.331	314.439	0.00033549	0.00054284	0.00010398	1400.1	5.4032e-06	5.6451e-06	1393.7	372.59	3.7277e-06	4.9304e-06	425.9	140.8	122.76	42.287	4.0326e-06	52.43	0.00058702	0.00066543	0.0001952	1416.3	7.5931e-06	7.5983e-06	1409.9	379.71	7.3554e-06	7.431e-06	432.54	144.38	125.82	43.386	7.4139e-06	53.598	198.938	107.409	123.756	38.775	214.511	175.212	38.804	43.536	209.037	180.479	42.779	47.755	48.154	52.336	188.317	51.680	-8191	255	
689.263	1	1	0	0	0.1848	0.3258	0.21985	0.16967	0.37799	0.24637	0.11	0.31032	0.1976	0.061253	0.30673	0.13111	0.12269	0.20209	0.05796	0.052952	-2.6417	-3.3458	-3.0979	-3.2917	-3.3	-2.85	-3.4417	-3.1396	-2.6979	-3.1583	-3.3396	-3.375	-3.525	-3.3042	-3.3146	-3.3063	183.874	255.639	301.779	358.564	83.929	28.096	316.316	327.605	282.213	382.278	285.059	293.665	257.321	372.209	352.167	377.236	0.0003295	0.00058489	0.00015797	1400.9	4.4657e-06	6.9097e-06	1399.3	374.4	4.4391e-06	6.1293e-06	426.5	141.32	123.3	42.522	3.5085e-06	52.431	0.00057062	0.00066639	0.00019291	1416.9	7.5691e-06	7.6661e-06	1412	380.57	7.4453e-06	7.3286e-06	433.05	144.59	125.98	43.42	7.5973e-06	53.596	201.345	103.654	105.778	38.888	224.210	169.330	38.839	43.548	196.534	192.217	42.821	47.920	48.007	52.204	193.572	51.604	-8191	255	
689.359	1	1	0	0	0.25757	0.26029	0.13521	0.18939	0.11224	0.12041	0.32301	0.10159	0.16208	0.1421	0.16796	0.27683	0.27669	0.42449	0.37362	0.15684	-2.5583	-3.1771	-3.2167	-3.325	-3.3812	-2.9562	-3.6104	-3.4188	-3.2417	-3.5438	-3.2542	-3.4313	-3.5521	-3.2208	-3.3312	-3.2417	281.448	355.923	228.950	332.246	382.838	340.801	320.009	335.479	38.562	192.269	83.896	279.906	54.850	367.644	344.043	223.242	0.00033419	0.00032567	0.00013021	1408.3	4.568e-06	4.7907e-06	1398	372.8	5.1414e-06	5.8373e-06	425.53	140.99	122.83	42.231	4.0743e-06	52.367	0.00056922	0.00068349	0.00018979	1418.1	7.5457e-06	7.5113e-06	1410.2	379.49	7.4904e-06	7.7592e-06	432.95	144.37	125.83	43.376	7.6229e-06	53.598	197.453	96.797	115.197	38.703	189.584	177.231	38.760	43.707	216.919	194.498	43.029	47.695	48.383	52.325	208.700	51.496	-8191	255	
689.453	1	1	0	0	0.18673	0.093466	0.21014	0.28422	0.10674	0.32222	0.28672	0.19595	0.076234	0.29237	0.065347	0.33794	0.13068	0.21663	0.15153	0.10716	-2.5896	-3.1229	-3.0896	-3.1604	-3.2562	-2.8438	-3.4271	-3.4396	-2.8979	-3.3396	-3.3771	-3.1292	-3.6375	-3.1896	-3.3187	-3.4729	330.066	85.445	385.110	335.972	180.300	383.471	363.760	315.639	260.171	309.621	28.480	46.247	243.706	358.720	192.910	310.154	0.00032296	0.00057278	0.00011832	1397.9	4.9348e-06	4.4463e-06	1398.2	373.11	3.9164e-06	5.923e-06	428.11	140.43	123.03	42.41	3.7805e-06	52.358	0.00057164	0.000686	0.00019608	1415.3	7.4978e-06	7.8512e-06	1412.1	379.67	7.6589e-06	7.5808e-06	433.37	144.16	125.98	43.452	7.7448e-06	53.632	199.606	115.651	114.696	38.714	200.257	172.697	38.849	43.344	184.795	161.256	42.879	47.738	48.201	52.322	210.363	51.722	-8191	255	
689.549	1	1	0	0	0.09232	0.07465	0.06127	0.14725	0.092006	0.15839	0.11113	0.18845	0.09048	0.25911	0.13759	0.26003	0.19725	0.28506	0.22445	0.24928	-2.7021	-3.4979	-3.3375	-3.1542	-3.2062	-3.1458	-3.2313	-3.2854	-2.9104	-3.1458	-3.3708	-2.9792	-3.3458	-3.0521	-3.0396	-3.3688	174.660	130.646	202.715	307.738	378.628	137.690	283.994	375.284	227.280	222.350	380.222	287.214	306.534	336.102	355.657	60.192	0.00032769	0.00053853	0.00019412	1399.6	3.5808e-06	6.402e-06	1395	373.91	4.859e-06	5.0542e-06	425.77	140.77	123.19	42.312	5.1119e-06	52.426	0.00057005	0.00069539	0.00020268	1416.8	7.4669e-06	7.6033e-06	1410.2	380.25	7.47e-06	7.865e-06	432.61	144.18	125.96	43.303	7.8423e-06	53.583	196.058	113.441	111.052	38.802	188.595	168.683	39.059	43.467	222.870	175.529	42.726	47.697	48.410	52.111	214.687	51.777	-8191	255	
689.645	1	1	0	0	0.18544	0.10095	0.25299	0.1473	0.050584	0.19861	0.15258	0.31631	0.056614	0.099623	0.16463	0.32306	0.17106	0.16434	0.10039	0.16662	-2.4417	-3.1583	-3.0167	-3.1354	-3.1146	-3.1667	-3.2333	-3.7354	-3.0521	-3.4125	-3.5896	-3.1271	-3.3146	-3.3958	-3.2313	-3.4792	180.414	339.043	221.971	63.238	317.811	325.041	298.919	355.193	273.670	45.100	195.800	376.368	318.984	327.605	54.491	266.768	0.00033807	0.00062329	0.00012072	1398.6	4.7755e-06	4.872e-06	1398.7	372.64	4.6187e-06	4.8716e-06	426.84	141.13	123.25	42.302	5.5663e-06	52.201	0.00057013	0.00069187	0.00019689	1415.9	7.5851e-06	7.4631e-06	1411.5	380.14	7.3661e-06	7.7389e-06	433.34	144.38	126.21	43.361	7.5551e-06	53.535	195.617	101.487	141.373	38.734	193.336	199.844	38.882	43.497	220.366	176.500	42.869	47.958	48.046	52.311	205.585	51.305	-8191	255	
#DATA ENDS
