BOXY.EXE: ISS Imagent and Oximeter Data Acquisition Program Version 0.80
Ascii Record File

#ACQ INFORMATION
2  Detector Channels 
16  External MUX Channels 
1  Auxiliary Channels 
5000  Waveform (CCF) Frequency (Hz)
1  Waveforms Skipped 
30  Waveforms Averaged 
1  Cycles Averaged 
16  Acquisitions per Waveform 
10.0806  Updata Rate (Hz) 

#FILE INFORMATION
TRUE -- External MUX Channel results are PARSED.
FALSE -- AC DC and Phase are NOT grouped.
TRUE -- Companion Program Settings File CREATED.
FALSE -- AC data not excluded
FALSE -- DC data not excluded
FALSE -- Phase data not excluded
FALSE -- Auxillary Chn. data not excluded
Tab delimiters

#CALIBRATION STATE
TRUE -- Waveform Calibration Values APPLIED.


#AUX CALIBRATION VALUES
Val Type	aux-1	

Term	1.0000e+00	
Factor	0.0000e+00	


#WF CALIBRATION VALUES
A = Detector Channel
Val Type	A-AC1	A-AC2	A-AC3	A-AC4	A-AC5	A-AC6	A-AC7	A-AC8	A-AC9	A-AC10	A-AC11	A-AC12	A-AC13	A-AC14	A-AC15	A-AC16	A-DC1	A-DC2	A-DC3	A-DC4	A-DC5	A-DC6	A-DC7	A-DC8	A-DC9	A-DC10	A-DC11	A-DC12	A-DC13	A-DC14	A-DC15	A-DC16	A-Ph1	A-Ph2	A-Ph3	A-Ph4	A-Ph5	A-Ph6	A-Ph7	A-Ph8	A-Ph9	A-Ph10	A-Ph11	A-Ph12	A-Ph13	A-Ph14	A-Ph15	A-Ph16	

Term	0.00000e+00	0.00000e+00	0.00000e+00	0.00000e+00	0.00000e+00	0.00000e+00	0.00000e+00	0.00000e+00	0.00000e+00	0.00000e+00	0.00000e+00	0.00000e+00	0.00000e+00	0.00000e+00	0.00000e+00	0.00000e+00	0.00000e+00	0.00000e+00	0.00000e+00	0.00000e+00	0.00000e+00	0.00000e+00	0.00000e+00	0.00000e+00	0.00000e+00	0.00000e+00	0.00000e+00	0.00000e+00	0.00000e+00	0.00000e+00	0.00000e+00	0.00000e+00	0.00000e+00	0.00000e+00	0.00000e+00	0.00000e+00	0.00000e+00	0.00000e+00	0.00000e+00	0.00000e+00	0.00000e+00	0.00000e+00	0.00000e+00	0.00000e+00	0.00000e+00	0.00000e+00	0.00000e+00	0.00000e+00	
Factor	1.00000e+00	1.00000e+00	1.00000e+00	1.00000e+00	1.00000e+00	1.00000e+00	1.00000e+00	1.00000e+00	1.00000e+00	1.00000e+00	1.00000e+00	1.00000e+00	1.00000e+00	1.00000e+00	1.00000e+00	1.00000e+00	1.00000e+00	1.00000e+00	1.00000e+00	1.00000e+00	1.00000e+00	1.00000e+00	1.00000e+00	1.00000e+00	1.00000e+00	1.00000e+00	1.00000e+00	1.00000e+00	1.00000e+00	1.00000e+00	1.00000e+00	1.00000e+00	X	X	X	X	X	X	X	X	X	X	X	X	X	X	X	X	

B = Detector Channel
Val Type	B-AC1	B-AC2	B-AC3	B-AC4	B-AC5	B-AC6	B-AC7	B-AC8	B-AC9	B-AC10	B-AC11	B-AC12	B-AC13	B-AC14	B-AC15	B-AC16	B-DC1	B-DC2	B-DC3	B-DC4	B-DC5	B-DC6	B-DC7	B-DC8	B-DC9	B-DC10	B-DC11	B-DC12	B-DC13	B-DC14	B-DC15	B-DC16	B-Ph1	B-Ph2	B-Ph3	B-Ph4	B-Ph5	B-Ph6	B-Ph7	B-Ph8	B-Ph9	B-Ph10	B-Ph11	B-Ph12	B-Ph13	B-Ph14	B-Ph15	B-Ph16	

Term	0.00000e+00	0.00000e+00	0.00000e+00	0.00000e+00	0.00000e+00	0.00000e+00	0.00000e+00	0.00000e+00	0.00000e+00	0.00000e+00	0.00000e+00	0.00000e+00	0.00000e+00	0.00000e+00	0.00000e+00	0.00000e+00	0.00000e+00	0.00000e+00	0.00000e+00	0.00000e+00	0.00000e+00	0.00000e+00	0.00000e+00	0.00000e+00	0.00000e+00	0.00000e+00	0.00000e+00	0.00000e+00	0.00000e+00	0.00000e+00	0.00000e+00	0.00000e+00	-1.03364e+02	-1.28589e+02	-1.22771e+02	-1.82799e+02	-5.29327e+01	-6.36955e+01	-1.54998e+02	-1.62015e+02	-5.44320e+01	-6.23480e+01	-1.71853e+02	-1.69414e+02	-1.80018e+02	-1.77411e+02	-5.74280e+01	-1.48938e+02	
Factor	1.60856e-05	1.42380e-04	4.19562e-05	1.84207e-01	1.34200e-06	1.50499e-06	1.63323e-01	4.88771e-02	1.25689e-06	1.78350e-06	9.25773e-02	2.71365e-02	2.66344e-02	8.67124e-03	1.27850e-06	1.23973e-02	7.02452e-06	9.64614e-06	2.71299e-06	9.29001e-02	1.02271e-07	1.07808e-07	7.77924e-02	2.48455e-02	1.01700e-07	1.07589e-07	4.55974e-02	1.35142e-02	1.37367e-02	4.44083e-03	1.04084e-07	6.15744e-03	X	X	X	X	X	X	X	X	X	X	X	X	X	X	X	X	



#DISTANCE SETTINGS
A = Detector Channel
A-1	A-2	A-3	A-4	A-5	A-6	A-7	A-8	A-9	A-10	A-11	A-12	A-13	A-14	A-15	A-16	

2.5000e+00	3.0000e+00	2.5000e+00	3.0000e+00	2.0000e+00	3.0000e+00	1.5000e+00	3.0000e+00	3.0000e+00	3.0000e+00	3.0000e+00	3.0000e+00	3.0000e+00	3.0000e+00	1.5000e+00	3.0000e+00	

B = Detector Channel
B-1	B-2	B-3	B-4	B-5	B-6	B-7	B-8	B-9	B-10	B-11	B-12	B-13	B-14	B-15	B-16	

1.0000e+01	1.0000e+01	1.0000e+01	1.4400e+00	1.0000e+01	1.0000e+01	1.5100e+00	1.9400e+00	1.0000e+01	1.0000e+01	1.9900e+00	2.4900e+00	2.4100e+00	2.9000e+00	1.0000e+01	2.9800e+00	




#DATA BEGINS
time	group	step	mark	flag	A-AC1	A-AC2	A-AC3	A-AC4	A-AC5	A-AC6	A-AC7	A-AC8	A-AC9	A-AC10	A-AC11	A-AC12	A-AC13	A-AC14	A-AC15	A-AC16	A-DC1	A-DC2	A-DC3	A-DC4	A-DC5	A-DC6	A-DC7	A-DC8	A-DC9	A-DC10	A-DC11	A-DC12	A-DC13	A-DC14	A-DC15	A-DC16	A-Ph1	A-Ph2	A-Ph3	A-Ph4	A-Ph5	A-Ph6	A-Ph7	A-Ph8	A-Ph9	A-Ph10	A-Ph11	A-Ph12	A-Ph13	A-Ph14	A-Ph15	A-Ph16	B-AC1	B-AC2	B-AC3	B-AC4	B-AC5	B-AC6	B-AC7	B-AC8	B-AC9	B-AC10	B-AC11	B-AC12	B-AC13	B-AC14	B-AC15	B-AC16	B-DC1	B-DC2	B-DC3	B-DC4	B-DC5	B-DC6	B-DC7	B-DC8	B-DC9	B-DC10	B-DC11	B-DC12	B-DC13	B-DC14	B-DC15	B-DC16	B-Ph1	B-Ph2	B-Ph3	B-Ph4	B-Ph5	B-Ph6	B-Ph7	B-Ph8	B-Ph9	B-Ph10	B-Ph11	B-Ph12	B-Ph13	B-Ph14	B-Ph15	B-Ph16	aux-1	digaux	

16155.035	1	1	0	256	0.44857	0.17814	0.13261	0.23686	0.13195	0.26943	0.099807	0.27258	0.19894	0.17255	0.31419	0.28558	0.22428	0.14131	0.10235	0.13413	-2.7708	-3.1854	-2.9167	-3.4979	-2.9708	-3.1125	-3.525	-3.025	-3.1562	-3.3583	-3.1771	-3.4125	-3.1813	-3.1375	-3.4062	-2.9417	-149.115	120.626	-167.097	39.830	33.042	-114.865	23.038	108.743	24.987	-58.596	-143.415	117.689	54.704	-122.086	-170.023	-144.946	0.00025711	0.00074262	7.4268e-05	916.45	3.9389e-06	9.9186e-06	522.77	214.71	2.7607e-06	1.2879e-05	140.55	40.421	57.575	26.218	6.4226e-06	22.035	0.0039554	0.0053477	0.0014934	925.91	5.7383e-05	5.881e-05	542.31	220.17	5.5022e-05	5.9775e-05	158.75	46.275	63.262	27.786	5.5952e-05	24.555	-115.311	-104.541	-114.686	-166.967	33.047	-6.874	-168.660	-161.515	15.581	98.937	-164.171	-159.308	-157.184	-152.664	-27.425	-155.683	-8191	255	
16155.154	1	1	0	0	0.041858	0.16003	0.027332	0.1701	0.144	0.058682	0.17521	0.18977	0.2341	0.18586	0.30416	0.028684	0.11319	0.28486	0.10959	0.081536	-2.9083	-3.3	-3.1063	-3.3167	-3.2083	-3.1042	-3.4208	-3.1208	-3.1021	-3.3688	-2.9875	-3.2271	-3.1229	-3.0729	-3.3771	-3.1229	-72.402	-88.113	8.096	-167.152	-56.560	76.210	68.747	167.351	-24.363	73.916	115.465	12.476	87.780	137.197	143.118	-128.272	0.0001389	0.0008323	7.5428e-05	922.09	1.295e-05	1.2625e-05	528.59	217.08	7.2012e-06	1.9954e-06	140.88	40.437	58.028	26.143	7.7393e-07	21.903	0.0038795	0.0052566	0.0014964	935.36	5.7972e-05	5.9048e-05	549.13	221.72	5.6374e-05	5.9208e-05	160.18	46.436	63.754	27.762	5.7566e-05	24.582	-157.494	-165.807	-2.063	-167.022	-58.179	-104.477	-168.824	-161.732	-15.806	-53.201	-163.749	-159.322	-157.140	-152.040	-69.755	-155.680	-8191	255	
16155.225	1	1	0	0	0.21526	0.058517	0.063954	0.11892	0.12614	0.08976	0.2079	0.1251	0.055076	0.18205	0.28993	0.083089	0.098133	0.06422	0.12719	0.08036	-2.6771	-3.1688	-3.0563	-3.2917	-3.3042	-3.0896	-3.3292	-2.975	-3.0625	-3.2188	-3.2167	-3.2146	-3.3021	-2.9833	-3.4604	-3.2542	-21.427	53.728	23.037	-130.633	-81.764	89.126	-145.609	-150.890	76.101	84.348	-130.241	59.573	29.980	-84.564	0.563	92.796	0.00020335	0.00072722	0.00037066	926.44	1.4193e-05	1.114e-05	535.13	216.77	9.084e-06	1.0509e-05	141.56	41.212	59.017	26.335	3.7094e-06	22.296	0.0039342	0.0052874	0.0014821	938.72	5.7847e-05	5.9894e-05	553.56	222.52	5.602e-05	5.9644e-05	162.25	47.119	64.373	28.009	5.7939e-05	25.048	-131.382	-175.292	-89.756	-166.974	-30.938	-42.221	-168.450	-161.587	-72.735	-45.192	-164.117	-159.012	-157.145	-152.444	-110.836	-155.856	-8191	255	
16155.322	1	1	0	0	0.18616	0.17745	0.13744	0.351	0.13158	0.16599	0.044566	0.089016	0.052989	0.15877	0.1414	0.14796	0.23387	0.29749	0.13737	0.11104	-2.7417	-3.2125	-2.8458	-3.2042	-3.0625	-2.9271	-3.3146	-3.1771	-3.0812	-3.5	-2.9708	-3.1667	-3.2042	-3.0208	-3.3333	-3.1688	-107.266	-71.270	-130.885	88.424	-109.202	99.978	-104.685	133.036	124.358	162.300	74.540	50.343	-163.309	116.261	-40.303	-82.413	0.00019394	0.00069784	0.00018606	948.81	9.3514e-06	6.1309e-06	548.34	220.74	4.8339e-06	1.14e-05	144.85	41.73	59.295	26.598	7.442e-06	22.272	0.0040092	0.0054491	0.0015372	957.36	6.0411e-05	6.2031e-05	569.48	226.61	5.9347e-05	6.295e-05	166.02	48.076	65.507	28.476	6.1548e-05	25.391	-130.233	160.762	-59.336	-167.312	5.971	9.657	-168.401	-161.563	-25.841	-142.379	-163.964	-159.344	-157.166	-152.181	132.205	-155.834	-8191	255	
16155.442	1	1	0	0	0.12765	0.18353	0.24046	0.27836	0.092662	0.077691	0.18934	0.051107	0.021503	0.096955	0.2776	0.17436	0.08873	0.37603	0.11616	0.18924	-2.5229	-3.2938	-3.025	-3.2146	-3.4146	-3.1312	-3.4042	-3.2417	-2.9333	-3.2812	-3.0792	-3.2875	-3.4208	-2.9271	-3.1125	-3.2958	-107.520	-91.660	84.440	87.893	8.754	129.172	156.620	-145.917	43.402	99.754	103.077	41.447	43.123	99.800	-9.822	-172.524	0.00020767	0.00066866	8.7949e-05	960.93	2.7955e-06	1.0497e-05	555	221	1.244e-05	1.417e-05	144.59	41.266	58.991	26.489	3.1074e-06	22.538	0.004274	0.0057367	0.0016286	973.42	6.1562e-05	6.5535e-05	577.39	227.73	6.1355e-05	6.4889e-05	166.85	48.19	65.613	28.425	6.3875e-05	25.478	-126.809	-159.386	-160.487	-167.016	-174.667	-76.293	-168.617	-161.573	-29.840	-10.156	-164.545	-159.116	-156.809	-151.889	-37.954	-155.571	-8191	255	
16155.538	1	1	0	0	0.098712	0.068521	0.11167	0.36555	0.41503	0.091692	0.15068	0.37969	0.036941	0.10936	0.17605	0.16386	0.053131	0.094413	0.16712	0.1079	-2.5292	-3.2542	-2.9271	-3.1354	-3.3583	-3.05	-3.225	-3.2375	-3.125	-3.3479	-3.125	-3.2292	-3.3646	-2.8729	-3.2854	-3.2771	-85.505	-13.662	1.048	127.450	-10.595	-50.304	-30.042	130.142	120.735	-1.110	61.745	89.481	58.501	141.723	148.569	21.620	0.00016896	0.00062959	0.00018066	954.57	3.5986e-06	6.3869e-06	551.98	220.11	4.6305e-06	5.5266e-06	142.86	41.479	58.923	26.669	1.2847e-05	22.43	0.0043731	0.0059397	0.0016767	969.1	6.3019e-05	6.9215e-05	575.87	226.63	6.336e-05	6.6709e-05	166.25	48.257	65.593	28.468	6.4981e-05	25.631	-128.867	36.728	141.289	-167.077	24.571	-63.309	-168.602	-161.680	-12.781	-89.213	-163.987	-159.847	-156.853	-152.703	-23.625	-155.934	-8191	255	
16155.634	1	1	0	0	0.040013	0.24665	0.15794	0.087224	0.14823	0.26061	0.13284	0.060139	0.082147	0.12087	0.048962	0.18552	0.09836	0.029559	0.16289	0.16917	-2.4771	-3.2896	-3.1667	-3.0458	-3.3854	-2.9708	-3.3792	-3.3292	-3.0333	-3.2354	-3.1917	-3.025	-3.2875	-3.0604	-3.2875	-3.3479	67.882	84.439	53.756	72.232	-85.224	-12.925	77.581	118.147	148.088	-83.556	-141.900	28.773	97.264	-47.170	-117.456	157.541	0.00024637	0.0014223	0.00029273	958.68	4.327e-06	4.3992e-06	552.44	220.74	6.4633e-06	9.3251e-06	145.8	42.183	59.499	26.906	9.9881e-06	23.071	0.0044465	0.0060756	0.0017103	972.4	6.3599e-05	6.8518e-05	579.46	227.73	6.3684e-05	6.6546e-05	168.46	48.983	65.782	28.835	6.471e-05	26.093	-128.173	-95.254	46.554	-167.035	-62.955	48.615	-168.398	-161.287	-11.669	-72.209	-163.492	-159.786	-157.235	-152.398	-123.125	-156.170	-8191	255	
16155.755	1	1	0	0	0.090304	0.090801	0.17637	0.32039	0.032165	0.065153	0.12872	0.20747	0.25247	0.028331	0.40512	0.25038	0.29461	0.19426	0.16104	0.23743	-2.5271	-3.1833	-3.1833	-2.95	-3.275	-3.1125	-3.1625	-3.3292	-3.1312	-3.175	-3.1708	-2.775	-3.4042	-3.0917	-3.1667	-3.45	-15.741	28.854	81.924	154.512	-77.013	-164.637	90.256	-175.474	-59.374	-86.320	130.436	-148.757	166.734	158.412	-38.285	-16.348	0.00022194	0.00066212	0.00012901	949.27	2.8852e-06	4.9216e-07	552.54	220.54	8.4532e-06	8.5609e-06	144.36	42.061	59.349	27.046	6.3567e-06	23.191	0.0044664	0.0059829	0.0016796	968.98	6.3576e-05	6.8356e-05	579	227.43	6.2794e-05	6.6298e-05	167.95	49.08	65.881	28.93	6.49e-05	26.087	-143.194	17.803	162.184	-167.171	-112.978	-44.852	-168.512	-161.679	94.105	95.705	-164.138	-159.324	-156.999	-152.160	0.816	-155.523	-8191	255	
16155.851	1	1	0	0	0.18407	0.18827	0.19311	0.18581	0.095418	0.044629	0.32087	0.18224	0.17188	0.092344	0.22836	0.20717	0.12114	0.056512	0.090085	0.11866	-2.7771	-3.2042	-3.2729	-3.0979	-3.3271	-3.0646	-3.1292	-3.4229	-3.1104	-3.3417	-3.2708	-3.1604	-3.4188	-3.2062	-3.1417	-3.4229	-35.256	23.962	108.131	-155.503	55.591	-164.919	115.224	108.253	-163.599	-98.707	156.405	-162.919	-163.126	99.414	25.585	63.384	0.00019113	0.00038043	0.00028348	958.83	7.479e-06	5.033e-06	552.24	219.75	5.7397e-06	1.4178e-05	144.63	42.175	58.896	26.7	5.5463e-06	22.919	0.004611	0.00608	0.0017053	974.14	6.3957e-05	6.8217e-05	577.84	227.19	6.3432e-05	6.7049e-05	166.82	48.933	65.654	28.74	6.4563e-05	25.942	-126.066	-30.739	23.836	-167.377	22.728	72.001	-168.618	-161.545	-34.856	33.935	-163.659	-159.263	-157.081	-152.513	-32.569	-155.412	-8191	255	
16155.923	1	1	0	0	0.1567	0.24335	0.046363	0.090478	0.32926	0.39426	0.17418	0.34243	0.32931	0.13491	0.30447	0.11454	0.2048	0.12486	0.13336	0.13174	-2.7896	-3.2	-3.3479	-3.2333	-3.2042	-3.2062	-2.9813	-3.3917	-3.0646	-2.9854	-3.1979	-3.0312	-3.2313	-3.2146	-2.9208	-3.375	-33.063	142.450	111.045	100.012	68.438	178.127	137.710	139.121	-152.141	-76.326	80.447	106.061	-176.054	-141.054	32.051	105.774	0.00015256	0.0010797	6.8378e-05	957.64	3.7293e-06	6.0204e-06	556.02	221.26	5.712e-06	1.0627e-05	145.45	42.193	59.642	27.208	9.5563e-06	23.149	0.0044793	0.0059839	0.0016945	972.67	6.342e-05	7.032e-05	580.13	227.81	6.3406e-05	6.7324e-05	167.66	49.261	66.144	29.005	6.4672e-05	26.16	-169.819	-25.115	-96.518	-167.286	-126.725	-48.191	-168.550	-161.790	-86.386	-66.476	-164.072	-159.150	-157.020	-151.864	1.035	-155.876	-8191	255	
16156.044	1	1	0	0	0.1507	0.10137	0.16397	0.39629	0.19565	0.14046	0.069528	0.41067	0.13678	0.15146	0.15926	0.087152	0.22169	0.19509	0.12019	0.17083	-2.6813	-3.075	-3.3688	-3.0938	-3.1937	-3.1437	-3.1875	-3.3312	-3.1229	-3.0646	-3.3312	-2.9979	-3.2521	-3.275	-2.9167	-3.4479	-161.347	96.678	110.330	147.275	-54.981	-32.193	12.448	66.283	165.430	81.657	-94.142	-98.128	-156.423	97.500	-128.151	-61.345	0.00034086	0.00048669	0.00012164	959.19	5.503e-06	6.0137e-06	554.85	219.94	3.8789e-06	6.0377e-06	145.18	42.079	59.554	27	1.9676e-06	23.214	0.0045298	0.0059923	0.001678	973.44	6.357e-05	6.8825e-05	580.54	227.79	6.3422e-05	6.6653e-05	167.58	49.461	65.995	28.958	6.4243e-05	26.252	-145.576	3.081	72.023	-167.115	-65.474	-52.958	-168.885	-161.574	-4.272	-53.930	-164.040	-158.783	-156.839	-152.175	58.958	-155.905	-8191	255	
16156.138	1	1	0	0	0.1973	0.10224	0.20464	0.14881	0.054542	0.16487	0.097469	0.12879	0.16506	0.15224	0.2234	0.18517	0.17455	0.37341	0.17945	0.1965	-2.7562	-3.1813	-3.35	-3.0812	-3.1875	-3.3854	-3.0979	-3.4083	-3.1125	-3.1188	-3.4	-2.9229	-3.2396	-3.3583	-3.1312	-3.4229	-47.098	142.766	138.180	141.895	45.586	124.057	82.894	173.514	103.170	44.704	87.493	-111.690	-175.606	-59.388	-125.874	-154.505	0.00018651	0.00039758	0.0002162	960.15	3.3503e-06	1.1414e-05	556.13	220.32	2.7273e-06	5.6109e-06	144.75	41.66	59.042	26.954	1.0658e-05	22.939	0.0045116	0.0060131	0.0016701	974.73	6.3605e-05	6.8384e-05	579.81	227.2	6.3139e-05	6.6602e-05	167.19	48.975	65.807	28.855	6.4827e-05	26.005	-130.651	-55.510	-60.282	-167.134	-78.676	1.678	-168.413	-161.865	-29.477	36.863	-163.770	-159.099	-157.184	-152.034	-75.076	-155.443	-8191	255	
16156.234	1	1	0	0	0.34603	0.083286	0.058287	0.11915	0.2649	0.2428	0.16623	0.25078	0.083525	0.13039	0.07706	0.096494	0.10849	0.23701	0.24444	0.35135	-2.7438	-3.0938	-3.1937	-3.1875	-3.1021	-3.275	-3.0792	-3.4792	-3.3625	-3.0687	-3.4271	-3.0292	-3.325	-3.5167	-3.0958	-3.325	104.825	-50.928	30.837	75.591	44.278	38.917	169.665	88.545	70.033	155.863	-31.808	-75.784	109.860	-149.711	0.296	75.097	0.00028698	0.0012898	0.00020055	955.89	6.5912e-06	2.1414e-06	551.93	218.73	1.4018e-05	8.8941e-06	142.26	41.386	58.671	26.94	3.312e-06	22.812	0.0045907	0.0060055	0.0017003	969.99	6.4115e-05	6.7099e-05	576.17	225.69	6.2592e-05	6.6963e-05	165.22	48.667	65.201	28.698	6.4195e-05	25.758	-138.621	-89.199	15.334	-167.325	-10.678	-94.356	-168.140	-161.730	-114.432	10.386	-164.078	-159.032	-157.268	-152.348	68.220	-155.809	-8191	255	
16156.330	1	1	0	0	0.058545	0.029226	0.1226	0.10946	0.072666	0.0833	0.21414	0.068263	0.15155	0.15108	0.16418	0.055968	0.113	0.28855	0.13147	0.15068	-2.7604	-3.1271	-3.3125	-3.2667	-3.1604	-3.2812	-3.175	-3.4208	-3.1833	-3.1	-3.3521	-3.3958	-3.1312	-3.5042	-3.0208	-3.2562	175.340	-46.120	-51.269	-166.772	139.439	173.149	95.262	154.245	10.649	-82.469	-64.349	-120.471	-134.929	-72.314	99.491	-90.791	0.00021085	0.00052465	0.00026291	944.65	9.6017e-06	6.459e-06	537.88	216.06	2.2673e-06	6.2626e-06	141.45	41.328	58.181	26.583	7.8504e-06	22.919	0.0045134	0.0059103	0.0016729	957.79	6.2574e-05	6.5167e-05	565.01	222.54	6.1789e-05	6.4663e-05	162.75	48.044	64.433	28.377	6.1438e-05	25.8	-166.199	-16.744	91.504	-167.080	-60.959	-67.602	-168.685	-161.653	-57.123	6.350	-163.929	-158.986	-157.274	-152.070	4.358	-154.979	-8191	255	
16156.451	1	1	0	0	0.1617	0.17629	0.2699	0.046236	0.13272	0.085092	0.24055	0.19651	0.14856	0.18388	0.21388	0.11312	0.15139	0.17426	0.12142	0.14048	-2.8896	-2.8812	-3.3396	-3.2958	-3.0396	-3.5167	-3.2083	-3.325	-3.2958	-3.0104	-3.325	-3.3563	-3.1771	-3.3625	-3.2292	-3.3167	58.904	-82.618	145.335	-31.092	-27.898	-69.565	96.393	-176.826	-170.452	145.791	70.542	96.949	130.146	7.224	-13.942	129.912	0.00025588	0.00070098	7.5375e-05	922.44	8.4369e-06	9.2249e-06	528.28	214.03	2.9594e-06	7.0639e-06	141.16	42.045	57.991	26.661	3.3023e-06	23.098	0.0043122	0.0056943	0.0015962	933.39	5.9562e-05	6.2378e-05	551.14	220.8	5.8888e-05	6.2021e-05	161.72	48.076	64.006	28.444	5.9629e-05	25.899	-161.339	-170.809	16.307	-166.894	119.110	-82.616	-168.121	-161.486	132.571	-71.538	-164.390	-159.228	-156.857	-152.051	60.123	-155.932	-8191	255	
16156.523	1	1	0	0	0.11048	0.2075	0.04276	0.29246	0.036485	0.19042	0.095095	0.13708	0.083182	0.12641	0.10404	0.42412	0.12202	0.28688	0.070999	0.12034	-2.9604	-3.1021	-3.1792	-3.3979	-3.1021	-3.3021	-3.3083	-3.175	-3.2604	-3.0833	-3.3521	-3.1729	-3.1312	-3.3729	-3.1417	-3.2396	-18.794	72.041	67.388	66.132	16.695	97.514	175.730	-41.221	73.517	159.991	-75.085	156.329	128.195	-155.491	-45.832	130.015	0.00017008	0.00076592	0.00019439	920.46	3.3779e-06	7.7472e-06	527.41	215.68	1.751e-06	6.8535e-06	141.23	42.068	58.143	27.015	9.6618e-07	23.276	0.0041259	0.0057087	0.0015673	931.61	5.8811e-05	6.1694e-05	551.94	221.59	5.757e-05	6.1273e-05	162.49	48.308	64.204	28.652	5.9104e-05	25.994	-141.170	93.309	-79.752	-167.234	67.639	4.306	-168.169	-161.222	-119.385	133.234	-163.374	-159.551	-156.689	-151.963	-168.856	-156.234	-8191	255	
16156.619	1	1	0	0	0.27809	0.0283	0.26458	0.029616	0.041865	0.17848	0.17913	0.045672	0.28216	0.088365	0.10708	0.24724	0.20904	0.11783	0.086265	0.12198	-2.9333	-2.9271	-3.2021	-3.3563	-2.8917	-3.4083	-3.0771	-3.2146	-3.4042	-2.9458	-3.2708	-3.3417	-3.0687	-3.3354	-3.2104	-3.1125	-110.845	145.704	-156.807	-2.216	-16.867	78.008	38.869	-177.524	-158.988	-37.570	15.862	153.715	159.620	-4.749	128.844	-148.906	0.00025735	0.00049107	0.00040646	915.69	5.2986e-06	8.2322e-06	527.11	214.61	1.2427e-05	3.7908e-06	140.85	41.567	58.193	27.023	3.2289e-06	23.068	0.0040656	0.0056566	0.0015508	929.82	5.8322e-05	6.1026e-05	547.21	220.29	5.7915e-05	6.1773e-05	161.55	48.162	64.45	28.658	6.0106e-05	25.892	-130.981	-108.450	-106.282	-167.162	-40.710	-24.783	-168.280	-161.198	-169.001	-75.401	-163.891	-159.343	-156.887	-152.204	-127.705	-155.265	-8191	255	
16156.715	1	1	0	0	0.22104	0.080145	0.38146	0.19764	0.045322	0.34191	0.252	0.23759	0.061124	0.15529	0.07659	0.097267	0.21902	0.1248	0.098508	0.035573	-2.9688	-3.175	-3.1437	-3.3917	-2.9562	-3.2104	-3.2104	-3.1312	-3.1917	-3.0563	-3.1104	-3.4688	-3.1146	-3.1479	-3.2021	-3.0896	-108.374	-175.604	-154.696	119.025	113.554	-132.668	12.381	144.238	148.212	-32.640	48.177	-14.497	151.594	-133.890	7.203	109.652	0.00017149	0.00097017	0.00026604	921.41	3.1234e-06	3.8096e-06	529.19	215.95	5.653e-06	6.6109e-06	143.51	41.79	58.73	27.148	6.6549e-06	23.396	0.0041228	0.0057307	0.0015842	935.57	5.9255e-05	6.3135e-05	552.82	221.95	5.9229e-05	6.258e-05	163.46	48.367	65.014	28.874	6.1497e-05	26.19	-114.547	133.272	-167.031	-167.004	-25.661	144.722	-168.338	-161.362	27.921	13.083	-163.426	-159.384	-157.007	-151.996	30.339	-155.934	-8191	255	
16156.835	1	1	0	0	0.027065	0.10467	0.099072	0.33681	0.26864	0.18193	0.072025	0.12694	0.29858	0.19395	0.13556	0.047357	0.16012	0.12113	0.12149	0.1572	-2.8958	-3.1188	-3.1042	-3.4104	-3.1375	-3.1688	-3.3083	-3.1333	-3.2583	-3.125	-3.0021	-3.3979	-3.0625	-3.1937	-3.2333	-2.9229	66.224	157.389	71.688	146.830	96.605	-97.843	177.173	42.054	-165.179	-68.083	-129.604	79.288	71.142	-174.014	75.696	14.493	0.00018369	0.0010264	6.1686e-05	932.81	6.3242e-06	6.463e-06	545.54	219.79	4.5722e-06	3.2901e-06	146.22	43.204	60.495	27.661	7.5938e-06	24.181	0.0041766	0.0059215	0.0016086	948.35	6.1246e-05	6.53e-05	568.95	226.53	6.169e-05	6.5703e-05	168.6	49.957	66.865	29.593	6.4731e-05	27.119	-140.565	-160.256	-13.366	-166.992	-9.397	-68.073	-168.604	-161.542	-25.768	161.819	-164.150	-159.840	-156.658	-152.030	-16.234	-155.404	-8191	255	
16156.930	1	1	0	0	0.077405	0.11576	0.19962	0.13017	0.1062	0.11273	0.19977	0.26834	0.12155	0.15042	0.094289	0.33471	0.18017	0.23066	0.23772	0.047487	-2.9208	-3.1188	-3.1208	-3.3146	-3.1229	-3.2833	-3.2292	-3.1312	-3.2146	-3.1979	-3.0646	-3.3417	-3.2104	-3.3792	-3.1979	-2.9646	-34.247	91.008	-26.301	129.895	-71.995	120.731	106.763	150.058	35.297	33.085	-177.106	-163.718	63.973	86.505	37.348	105.584	0.00019026	0.00079932	0.00026051	962.5	5.6086e-06	7.4025e-06	561.43	223.27	4.9817e-06	9.4404e-06	148.9	43.39	61.198	28.115	4.8977e-06	24.1	0.0044209	0.0061921	0.0017079	979.44	6.371e-05	6.6738e-05	589.36	230.55	6.314e-05	6.729e-05	171.57	50.681	67.828	29.92	6.5849e-05	27.097	-121.462	-111.559	-155.973	-167.139	-78.222	1.377	-168.733	-161.552	-62.717	155.278	-164.339	-159.038	-156.914	-152.308	-174.310	-155.920	-8191	255	
16157.026	1	1	0	0	0.18122	0.051187	0.086571	0.32111	0.1573	0.1452	0.1135	0.10657	0.073337	0.099713	0.22726	0.11916	0.26649	0.26419	0.20111	0.08003	-2.8604	-3.2104	-3.0083	-3.4062	-3.0417	-3.2896	-3.3563	-2.9771	-3.5604	-3.2687	-2.8917	-3.2896	-3.0708	-3.1604	-3.2958	-2.9729	39.894	26.955	78.846	167.217	153.013	74.328	106.663	44.294	-145.325	51.677	-20.070	164.795	-171.179	-109.247	46.686	-76.656	0.00017584	0.00079852	6.8463e-05	986.49	6.6079e-06	7.5966e-06	576.42	226.48	6.8963e-07	3.3206e-06	151.24	43.424	61.022	27.656	1.0405e-06	23.677	0.0045473	0.006359	0.0017299	1005.3	6.5692e-05	7.0349e-05	603.68	233.97	6.6598e-05	7.0611e-05	173.71	50.76	68.208	29.803	6.8017e-05	27.031	-122.804	-33.462	-135.300	-167.234	85.450	-109.147	-168.820	-161.755	-126.297	48.223	-164.075	-159.995	-157.096	-152.024	-117.766	-155.816	-8191	255	
16157.124	1	1	0	0	0.072346	0.19151	0.10056	0.17993	0.20249	0.037918	0.10448	0.20917	0.077849	0.21798	0.13278	0.086275	0.17393	0.029552	0.21065	0.15605	-2.925	-3.1021	-2.9125	-3.45	-3.1854	-3.1604	-3.4667	-2.9729	-3.275	-3.2167	-3.0479	-3.2396	-3.2208	-3.1875	-3.4292	-3.0875	-53.166	-3.276	-64.996	-130.174	61.268	-84.737	-101.883	64.017	-142.256	-106.268	-59.450	-138.325	-152.472	-20.749	42.047	109.709	0.00017528	0.00032582	0.00011411	1009.8	5.0204e-06	9.0551e-06	599.84	228.35	9.8125e-07	5.5801e-06	153.28	43.959	61.278	28.147	4.8556e-06	24.291	0.0047033	0.00657	0.001821	1027.2	6.8809e-05	7.296e-05	625.33	237.19	6.892e-05	7.3147e-05	177.24	51.872	68.839	30.232	6.9446e-05	27.583	-115.892	51.600	-178.491	-167.243	-9.514	-18.414	-168.987	-161.605	65.949	1.372	-164.325	-159.560	-156.983	-151.861	-148.941	-155.911	-8191	255	
16157.218	1	1	0	0	0.12335	0.1535	0.04899	0.16783	0.22793	0.27633	0.26735	0.091297	0.13084	0.11793	0.14084	0.29396	0.14456	0.23148	0.033221	0.22751	-2.7271	-3.3417	-2.925	-3.2229	-3.0833	-3.125	-3.5812	-3.2625	-3.0125	-3.2687	-2.9146	-3.2021	-3.2292	-3.2125	-3.475	-3.1583	14.006	-52.132	45.899	139.574	80.384	81.422	179.048	-141.022	177.910	101.705	76.631	72.585	43.857	176.459	161.352	15.201	0.00023894	0.00040322	0.00021241	995.37	1.4455e-06	2.759e-06	571.1	222.97	8.9729e-06	4.5119e-06	149.59	44.141	60.12	27.995	7.3581e-06	24.347	0.0047735	0.006534	0.0018216	1011.2	6.791e-05	7.0535e-05	600.37	231.28	6.5056e-05	6.8749e-05	171.43	51.004	67.053	29.866	6.366e-05	27.167	-136.750	-85.067	-151.430	-167.328	-70.322	152.941	-168.835	-161.927	90.201	145.215	-164.068	-159.355	-157.148	-152.013	-12.183	-155.407	-8191	255	
16157.314	1	1	0	0	0.12627	0.25743	0.18486	0.19867	0.16044	0.26131	0.22716	0.21107	0.19932	0.040018	0.089306	0.12273	0.056904	0.082724	0.096703	0.028726	-2.6188	-3.4208	-2.9833	-3.4604	-3.1729	-3.0438	-3.3083	-3.1479	-3.1854	-3.2792	-3.1667	-3.2146	-3.0812	-3.1271	-3.2062	-3.0854	-68.500	71.323	-75.433	65.347	36.758	56.398	124.201	-161.017	-28.091	91.255	-89.185	-122.165	138.348	63.963	-28.810	74.011	0.00020254	0.00056513	0.00016716	937.79	1.1788e-05	9.1814e-06	536.36	217.23	5.4538e-06	6.5144e-06	146.4	43.375	58.471	27.396	2.0944e-06	23.79	0.0042785	0.0057197	0.0016375	950.4	5.9221e-05	6.2684e-05	558.68	223.32	5.7883e-05	6.0516e-05	164.34	49.004	64.462	29.038	5.5924e-05	26.235	-130.948	-67.389	110.957	-167.099	-76.974	55.086	-168.215	-161.267	-82.416	64.367	-163.996	-159.472	-156.725	-152.038	8.122	-155.276	-8191	255	
16157.435	1	1	0	0	0.1173	0.2296	0.0045994	0.068929	0.099368	0.23992	0.17237	0.1436	0.10244	0.21875	0.061294	0.15263	0.11642	0.13579	0.3227	0.11636	-2.6	-3.2521	-2.9854	-3.4271	-3.0958	-2.9125	-3.3563	-3.2438	-3.0354	-3.2438	-3.1271	-3.1604	-3.2979	-3.1188	-3.2542	-3.1667	57.521	32.556	-111.589	-149.285	-140.473	15.048	157.772	-156.336	80.809	-174.191	-15.674	34.432	153.135	-159.084	-143.830	5.301	0.00021081	0.00025833	0.00030139	890.27	5.688e-06	4.8251e-06	508.71	211.16	1.5688e-06	8.089e-06	141.67	41.969	58.77	27.109	8.2886e-06	22.891	0.0037953	0.0051096	0.0014815	901.51	5.2811e-05	5.551e-05	527.48	217.51	5.1342e-05	5.3989e-05	158.69	47.157	63.567	28.526	5.1446e-05	25.081	-121.945	64.154	-46.141	-167.111	41.144	-4.657	-168.278	-161.327	-56.745	178.908	-163.692	-159.633	-156.804	-152.367	-153.743	-155.640	-8191	255	
16157.531	1	1	0	0	0.26224	0.13232	0.19027	0.1081	0.15224	0.3104	0.1494	0.076171	0.058587	0.22614	0.29551	0.14627	0.27731	0.12325	0.14498	0.35954	-2.6042	-3.3937	-3.0229	-3.2979	-3.2625	-3.1375	-3.4104	-3.3312	-3.0521	-3.3563	-3.0917	-3.1562	-3.2792	-3.1063	-3.3104	-3.2792	92.181	30.034	98.186	148.897	-176.941	-132.215	95.288	77.071	-33.914	-90.628	108.754	-157.395	65.715	-146.907	15.595	77.017	0.00019408	0.0011987	0.00019084	922.6	6.669e-06	8.8089e-06	541.87	221.27	4.7673e-06	1.4909e-05	145.47	42.359	60.1	26.729	4.1158e-06	22.245	0.0035367	0.0047138	0.0013915	926.34	4.9594e-05	5.3373e-05	554.99	224.62	5.0367e-05	5.3288e-05	161.98	47.068	64.603	28.164	5.1148e-05	24.474	-125.697	-134.488	-112.169	-166.915	77.269	5.951	-168.684	-161.929	-36.069	-62.518	-164.015	-159.464	-157.497	-152.213	115.283	-156.499	-8191	255	
16157.627	1	1	0	0	0.12824	0.19243	0.096116	0.14162	0.0042637	0.17332	0.16974	0.18776	0.12412	0.22723	0.087006	0.30394	0.1935	0.13845	0.14091	0.11417	-2.4313	-3.3833	-3.0458	-2.9562	-3.2313	-2.975	-2.9708	-3.2875	-2.8479	-3.175	-3.0854	-2.9958	-3.2938	-3.3208	-3.0583	-3.3021	404.999	391.051	278.518	218.428	280.293	478.440	393.130	434.374	181.291	215.495	521.745	528.891	475.781	523.941	466.794	266.408	0.00021217	0.00058785	0.00016483	975.96	1.8177e-06	7.3047e-06	576.86	229.58	1.4127e-06	1.2271e-05	151.56	43.261	62.494	27.594	3.5904e-06	22.999	0.0035153	0.0047527	0.0013906	977.98	4.9981e-05	5.2498e-05	587.21	232.6	4.9864e-05	5.2525e-05	167.18	48.409	67.17	28.973	5.1298e-05	25.373	215.688	265.827	327.512	193.185	372.161	295.393	191.229	197.774	455.332	375.996	195.159	200.109	202.372	206.894	338.383	203.192	-8191	255	
16157.724	1	1	0	0	0.27614	0.19198	0.3816	0.26068	0.22945	0.12013	0.09345	0.086893	0.16365	0.1255	0.10458	0.076405	0.2197	0.44405	0.28516	0.20342	-2.4833	-3.2208	-3.0083	-3.0625	-3.3312	-3.0729	-3.1875	-3.2292	-2.9938	-3.3354	-3.1833	-2.9729	-3.3333	-3.0563	-3.1354	-3.1583	207.618	535.312	434.928	448.716	309.110	450.427	244.339	185.010	524.629	269.948	538.564	206.860	253.740	474.388	475.426	537.182	0.00016658	0.00086686	0.00017717	1006.8	7.3715e-06	1.4828e-05	596.71	235	6.0628e-06	1.0408e-05	156.76	45.513	65.393	28.88	7.9945e-06	24.051	0.0035135	0.0047508	0.0013929	1010	5.0753e-05	5.3519e-05	610.45	239.65	5.1597e-05	5.3432e-05	172.77	50.672	70.14	30.339	5.3704e-05	26.366	233.282	327.701	306.625	192.507	359.738	494.353	191.109	197.879	274.575	272.763	195.448	199.117	201.695	206.483	340.702	202.508	-8191	255	
16157.820	1	1	0	0	0.1471	0.28471	0.21152	0.3547	0.17162	0.17249	0.16978	0.21157	0.1598	0.14486	0.076511	0.19552	0.32597	0.041484	0.16322	0.15583	-2.7083	-3.0458	-3.2396	-3.0083	-3.1708	-2.8792	-3.1625	-3.4396	-3.1917	-3.3167	-3.3563	-3.075	-3.3333	-3.1083	-3.2375	-3.3708	235.340	432.012	396.571	526.518	314.826	220.602	404.476	214.213	232.804	336.120	218.095	440.235	399.516	304.667	294.431	196.023	0.00018786	0.00016364	0.000155	1032	4.5418e-06	7.3476e-06	601.47	240.31	8.7732e-06	2.9813e-06	157.2	45.296	64.261	28.95	2.4479e-06	23.779	0.0036748	0.0050259	0.0014762	1033.6	5.3654e-05	5.6634e-05	618.76	243	5.4829e-05	5.569e-05	173.23	50.634	69.754	30.461	5.47e-05	26.142	237.107	279.964	322.348	192.154	214.633	335.415	191.203	197.528	445.732	491.510	195.686	199.498	202.021	206.111	369.985	202.624	-8191	255	
16157.916	1	1	0	0	0.055689	0.031654	0.04114	0.2397	0.13947	0.062336	0.42221	0.23056	0.21959	0.24091	0.11827	0.15812	0.33245	0.16483	0.19308	0.15563	-2.6312	-3.1292	-3.3583	-3.3146	-3.525	-3.2646	-3.2083	-3.45	-3.0854	-3.3312	-3.3333	-3.0875	-3.4188	-3.2083	-2.825	-3.5729	200.609	528.232	464.313	464.641	280.503	505.284	535.318	480.915	206.378	234.008	492.596	501.237	501.704	522.619	310.694	469.852	0.00019135	0.001067	0.00015677	1029.6	8.6404e-06	5.7729e-06	609.95	241.82	6.6198e-06	1.0362e-05	161.07	46.399	67.922	31.29	9.6428e-06	25.324	0.0038133	0.0051026	0.0014816	1033	5.5818e-05	5.9045e-05	628.51	246.5	5.9384e-05	6.0925e-05	179.76	52.813	73.762	32.735	5.9279e-05	27.928	221.073	386.087	315.368	192.672	317.481	292.186	191.061	197.319	419.118	333.456	195.291	198.527	201.170	205.453	182.066	201.980	-8191	255	
16158.012	1	1	0	0	0.26752	0.15947	0.0964	0.26586	0.24391	0.08477	0.2327	0.32233	0.15563	0.20131	0.23309	0.043053	0.16446	0.1811	0.073593	0.16594	-2.8042	-3.2625	-3.3771	-3.0646	-3.2917	-3.0021	-3.1104	-3.4104	-3.0125	-3.0687	-3.4958	-3.0583	-3.3958	-3.275	-2.9688	-3.3312	395.274	368.518	473.517	225.401	294.619	406.798	420.745	181.994	269.567	237.242	411.204	266.669	501.510	495.311	376.599	524.483	0.00031361	0.00060991	0.00031899	1072.6	9.1998e-06	6.4756e-06	650.39	259.74	3.5316e-06	2.044e-05	179.93	57.87	83.952	42.456	7.5514e-06	35.068	0.004004	0.0054334	0.0015338	1078.7	5.6515e-05	6.0145e-05	664.89	263.88	5.9662e-05	6.261e-05	198.96	63.869	89.939	44.369	6.9899e-05	38.194	226.238	270.764	233.962	192.338	302.521	299.002	190.546	196.531	339.346	321.923	193.904	197.488	199.868	201.993	215.375	197.961	-8191	255	
16158.131	1	1	0	0	0.087638	0.26593	0.24007	0.15539	0.21686	0.09406	0.3077	0.13455	0.21759	0.22784	0.31494	0.17288	0.29429	0.17829	0.14241	0.066975	-2.7042	-3.1188	-3.2792	-3.1792	-3.2542	-3.2729	-3.0958	-3.475	-3.0958	-3.1292	-3.4167	-3.0771	-3.3729	-3.3167	-3.0417	-3.3187	332.513	440.391	421.061	509.666	470.708	505.252	468.296	461.348	210.466	316.974	476.353	415.527	483.792	518.949	402.808	457.326	0.00042597	0.00027821	0.00018435	1224.3	2.3031e-06	4.3795e-06	806.73	315.57	8.2218e-06	1.2451e-05	231.14	91.04	128.06	63.214	1.8141e-06	51.243	0.0051104	0.0072212	0.0020912	1246.4	8.3585e-05	9.103e-05	839.85	327.79	9.6619e-05	0.00010444	266.9	102.38	138.99	66.57	0.00011698	56.73	218.982	210.968	220.798	191.614	180.236	353.251	189.833	195.520	354.622	349.647	192.135	195.187	198.044	197.292	409.768	193.840	-8191	255	
16158.227	1	1	0	0	0.11195	0.17938	0.035361	0.19804	0.099337	0.15816	0.11669	0.20907	0.032355	0.081256	0.18734	0.19211	0.16012	0.097835	0.17599	0.07803	-2.6896	-3.0708	-3.2042	-3.2917	-3.1896	-3.3833	-3.2687	-3.3708	-3.3083	-2.9604	-3.4479	-3.2667	-3.2104	-3.4417	-2.8896	-3.25	389.199	339.803	525.060	524.972	389.762	477.841	494.829	492.747	482.273	256.988	215.919	424.099	531.000	501.756	477.326	366.673	0.00052505	0.00035706	0.00034229	1333.6	1.2016e-05	1.1764e-05	925.42	402.85	5.5249e-06	1.0939e-05	277.29	105.23	143.36	61.233	1.1328e-05	48.719	0.0085181	0.011878	0.0035134	1405.1	0.00015699	0.00018681	1034.5	436.34	0.00019516	0.00020718	355.47	128.83	167.56	69.161	0.00023154	61.028	216.066	333.486	293.468	192.368	377.701	315.224	189.940	194.931	346.405	402.703	192.018	194.117	197.162	197.848	485.041	194.227	-8191	255	
16158.323	1	1	0	0	0.068835	0.10254	0.16643	0.20687	0.19543	0.19789	0.27042	0.22066	0.20592	0.13886	0.10565	0.090411	0.23684	0.048179	0.18684	0.10228	-2.6125	-3.0438	-3.1813	-3.3083	-3.1167	-3.275	-3.0896	-3.6104	-3.3354	-3.1188	-3.4104	-3.1354	-3.3396	-3.4313	-3.1771	-3.2687	402.194	496.578	385.668	467.206	179.988	228.645	473.941	442.488	277.666	431.057	213.206	231.913	494.073	264.142	520.537	451.570	0.00057112	0.0015552	9.6186e-05	1399.1	4.7252e-06	1.4736e-05	896.94	395.63	1.2103e-05	1.4759e-05	263.95	95.087	130.52	55.33	1.56e-05	42.189	0.015832	0.02145	0.0059508	1547	0.00022109	0.00023112	1027.6	432.52	0.00020838	0.00021472	340.79	117.77	152.92	61.978	0.00019594	52.185	237.263	282.752	346.881	192.240	426.148	360.190	190.242	194.828	252.386	413.368	191.990	194.064	197.546	198.520	219.393	194.840	-8191	255	
16158.395	1	1	0	0	0.12742	0.21217	0.11839	0.12276	0.1725	0.2166	0.062026	0.26606	0.094306	0.22907	0.24075	0.22293	0.16737	0.29795	0.21292	0.13452	-2.7646	-3.1104	-3.1917	-3.3521	-3.1125	-3.4688	-3.0438	-3.3771	-3.1292	-2.9625	-3.3771	-3.0625	-3.1437	-3.4417	-3.1063	-3.2083	377.783	258.888	383.477	457.524	451.840	523.523	333.202	206.946	294.131	251.913	413.845	479.806	530.052	474.554	535.177	518.384	0.00033828	0.00051693	0.00040635	1333.1	9.7286e-06	6.4579e-06	871.36	368.17	4.0506e-06	6.8569e-06	259.41	91.094	123.51	55.681	1.2092e-05	42.716	0.012813	0.017254	0.0048502	1444.7	0.00018121	0.00019229	975.77	398.19	0.00018264	0.00019089	327.89	111.78	144.26	62.094	0.00018998	52.457	224.106	367.592	197.702	192.131	460.044	392.377	189.851	195.019	316.690	390.119	191.664	193.515	196.910	197.560	208.546	194.083	-8191	255	
16158.515	1	1	0	0	0.13114	0.21056	0.071921	0.21281	0.14074	0.18488	0.058599	0.2451	0.038688	0.26812	0.18098	0.30874	0.15672	0.35139	0.24955	0.15849	-2.7729	-2.95	-3.2854	-3.3625	-3.0771	-3.2729	-3.3	-3.2104	-3.4854	-3.0604	-3.5021	-3.4854	-3.1562	-3.5312	-3.1854	-3.3083	473.749	272.047	200.081	186.311	478.337	227.815	487.247	465.257	277.190	520.546	206.034	281.802	516.378	517.932	369.128	410.317	0.00040022	0.00038733	0.0006142	1368.5	7.7747e-06	5.2088e-06	926.45	370.01	1.0956e-05	1.2268e-05	270.72	93.637	124	52.116	1.2352e-05	39.435	0.012847	0.01768	0.0049359	1481	0.00018754	0.00019735	1032.2	403.77	0.00018493	0.00019536	342.01	115.15	144.62	58.723	0.00018566	49.124	227.090	500.410	260.445	191.594	363.374	469.455	189.550	194.338	440.196	340.421	190.725	193.332	195.931	197.509	189.768	195.065	-8191	255	
16158.612	1	1	0	0	0.099316	0.113	0.23629	0.25834	0.15198	0.25971	0.185	0.21791	0.13006	0.10221	0.14177	0.19617	0.15377	0.50784	0.065892	0.23712	-2.9875	-3.0854	-3.1542	-3.4208	-3	-3.3708	-3.3688	-3.1688	-3.3187	-3.1521	-3.2792	-3.4	-3.1083	-3.5396	-3.2396	-3.1625	192.628	371.803	352.589	181.467	493.203	206.505	468.149	530.069	510.487	251.599	503.794	523.085	488.829	516.364	355.684	515.552	0.00037683	0.0011349	0.00044598	1380.6	1.2675e-05	2.359e-05	942.96	375.58	6.0278e-06	1.6048e-05	278	97.63	128.05	48.162	2.4053e-05	35.969	0.012517	0.017194	0.0048565	1495.5	0.00018527	0.0001983	1052.3	408.67	0.00019068	0.00020513	354.11	121.23	151.71	55.924	0.00021317	47.515	213.294	260.963	182.345	191.276	394.990	364.366	189.077	193.874	235.970	427.926	190.955	192.397	195.189	197.887	326.752	195.154	-8191	255	
16158.708	1	1	0	0	0.19321	0.091072	0.099087	0.15781	0.17224	0.14158	0.25698	0.11989	0.051481	0.1144	0.14849	0.111	0.10251	0.31219	0.16695	0.10165	-2.8937	-3.0604	-3.2396	-3.3979	-2.9583	-3.2938	-3.1458	-3.1375	-3.5187	-2.9938	-3.2104	-3.3271	-3.1	-3.3875	-3.1771	-3.1521	467.970	253.734	302.616	177.882	217.495	415.579	440.710	362.263	321.117	496.253	225.227	502.977	414.850	511.031	385.102	255.209	0.00031663	0.0012308	0.00015978	1406.7	1.2403e-05	5.8409e-06	981.47	382.43	1.3644e-05	5.1157e-06	284.63	100.62	129.42	41.461	8.7882e-07	31.367	0.014575	0.020177	0.0057643	1551.8	0.00021934	0.00023292	1111.8	422.18	0.0002235	0.00023813	373.06	127.02	156.68	50.21	0.00023274	44.271	226.952	376.036	325.345	191.093	428.578	272.536	188.691	193.773	261.622	444.141	190.437	192.014	194.807	198.410	229.600	196.571	-8191	255	
16158.804	1	1	0	0	0.088049	0.064373	0.1536	0.36713	0.025479	0.38339	0.41367	0.35322	0.080828	0.069162	0.057038	0.17214	0.09504	0.29599	0.14638	0.1786	-2.7521	-3.0604	-3.1021	-3.3604	-3.1	-3.375	-3.3021	-3.1021	-3.4333	-3.2562	-3.2687	-3.2167	-3.0833	-3.4979	-3.075	-3.0875	229.947	524.637	510.833	179.471	378.714	191.192	450.416	457.090	269.208	451.282	298.153	455.651	177.886	498.877	386.720	185.895	0.00040225	0.00029099	0.00022674	1426.2	1.3328e-05	8.7744e-06	1000.4	384.53	1.3525e-05	1.2736e-05	289.11	101.08	130.43	40.022	3.0516e-05	30.232	0.015877	0.021878	0.0061874	1582.8	0.00023548	0.00024862	1145.9	430.29	0.00023431	0.00025073	383.94	129.67	158.74	49.191	0.00024481	43.725	208.939	248.091	387.942	191.017	270.053	435.831	188.891	193.471	480.830	491.070	190.118	191.977	194.347	199.080	293.467	196.754	-8191	255	
16158.925	1	1	0	0	0.25296	0.070852	0.092119	0.093481	0.11796	0.16115	0.10786	0.28595	0.20455	0.099135	0.27803	0.16521	0.13546	0.087943	0.027271	0.19497	-2.9688	-3.0854	-2.9146	-3.4875	-2.9208	-3.2313	-3.3312	-3.0104	-3.4229	-3.0604	-3.0354	-3.3187	-2.9979	-3.2188	-3.2583	-2.9146	469.563	461.905	322.071	533.304	190.986	364.370	196.862	524.430	498.508	299.886	462.363	490.436	397.697	429.615	307.060	493.023	0.00018234	0.0012018	0.00024969	1408.6	2.1864e-05	1.2956e-05	986.03	384.06	1.3928e-05	9.732e-06	287.68	101.62	131.52	40.486	9.4581e-06	30.345	0.016445	0.022308	0.0062932	1571	0.00023861	0.00024969	1132.3	428.72	0.00023549	0.00025173	381.87	129.42	160.06	49.712	0.00024427	43.911	244.279	297.681	293.894	190.973	358.084	204.710	188.988	193.701	296.090	365.828	190.704	191.963	194.777	199.284	464.742	196.626	-8191	255	
16159.019	1	1	0	0	0.18958	0.18518	0.077935	0.19095	0.08688	0.14935	0.12523	0.25877	0.14135	0.03378	0.26121	0.12366	0.10114	0.096334	0.27724	0.15787	-2.9104	-3.2625	-2.9562	-3.4146	-3.0792	-3.15	-3.3042	-3.1229	-3.3875	-3.2313	-2.9917	-3.3333	-3.1896	-3.2792	-3.3833	-3.2687	248.599	422.710	330.400	482.151	356.131	495.931	402.650	494.241	357.371	364.928	518.467	476.656	456.371	188.677	213.279	422.889	0.00046863	0.0012049	0.00053933	1428.9	3.2686e-06	2.6603e-05	1000.6	392.28	8.2858e-06	3.2999e-05	292.83	103.54	133.42	39.988	7.8315e-06	30.069	0.016517	0.0225	0.0062882	1590.8	0.00023756	0.00024779	1145.2	436.21	0.00023545	0.00025108	385.54	131.16	161.11	49.311	0.00024117	43.599	256.755	234.055	239.175	191.248	417.700	350.871	188.866	193.663	227.775	276.031	190.665	192.065	194.519	198.803	208.411	196.733	-8191	255	
16159.115	1	1	0	0	0.17318	0.072853	0.014531	0.36396	0.222	0.16127	0.10061	0.26064	0.21064	0.4031	0.071083	0.32216	0.41635	0.13719	0.14785	0.12761	-2.8167	-3.0125	-2.8688	-3.4542	-3.2458	-3.1896	-3.4208	-3.1833	-3.2146	-3.3167	-3.1354	-3.3792	-3.2542	-3.3125	-3.2979	-3.2167	338.861	395.081	535.120	497.242	302.542	181.263	219.257	504.675	324.365	294.726	453.726	195.632	510.180	205.613	442.277	184.387	0.00022058	0.00096668	0.00017631	1425	5.4771e-06	9.8792e-06	992.99	387.07	2.9594e-05	2.5718e-05	289.03	100.62	131.05	38.713	7.6208e-06	29.093	0.01635	0.022417	0.0062755	1584	0.00023651	0.00024859	1133.9	432.12	0.00023441	0.00025321	383.2	129.52	159.83	48.126	0.00024282	42.657	197.027	257.451	343.466	191.303	413.034	300.140	188.826	193.480	355.383	346.943	190.497	191.960	194.662	199.199	460.662	196.756	-8191	255	
16159.211	1	1	0	0	0.12797	0.42169	0.07641	0.1446	0.066065	0.35165	0.43549	0.36693	0.16122	0.10118	0.27438	0.052422	0.25329	0.14673	0.1404	0.12501	-2.8688	-3.1937	-2.9	-3.5396	-3.075	-3.1396	-3.4583	-3.1729	-3.1896	-3.2375	-3.0792	-3.3479	-3.3458	-3.1896	-3.3417	-3.0208	524.176	501.278	406.909	216.682	309.517	355.301	180.927	477.377	434.511	326.321	195.142	491.879	477.909	196.893	258.110	302.212	0.00030457	0.0010702	0.00038466	1425.4	6.0747e-06	2.2145e-05	996.88	389.92	9.7276e-06	2.606e-05	291.64	102.05	132.1	38.907	1.0363e-05	29.292	0.016484	0.022585	0.0063545	1582.1	0.00024125	0.00025333	1142.9	434.68	0.00023819	0.00025503	387.21	130.7	160.75	48.421	0.00024491	43.158	260.305	354.356	528.383	191.220	505.186	309.322	188.958	193.692	231.142	343.749	190.752	192.072	194.698	199.281	367.305	196.278	-8191	255	
16159.307	1	1	0	0	0.046633	0.082497	0.17901	0.26912	0.17029	0.27831	0.085278	0.17358	0.042879	0.059021	0.09829	0.37025	0.13995	0.25156	0.0734	0.20588	-2.8875	-3.1583	-3.1229	-3.4229	-3.3083	-3.0938	-3.4583	-3.2167	-3.1125	-3.4729	-3.0208	-3.4042	-3.2542	-3.0875	-3.3646	-3.3167	257.089	383.805	517.495	526.505	436.261	435.364	506.858	468.800	432.029	528.980	237.303	445.631	396.641	470.990	221.563	466.640	0.00036917	0.0030698	0.00017624	1427.5	1.6779e-05	3.6059e-06	1006.4	394.64	9.5444e-06	1.3558e-05	295.74	103.77	134.99	39.042	3.6474e-06	29.734	0.016778	0.022861	0.0064553	1595.3	0.00024403	0.00025603	1160.3	441.09	0.00024131	0.00025631	394.13	133.15	164.09	48.698	0.00024738	43.531	213.423	244.234	194.274	191.245	384.557	424.609	189.082	193.519	265.064	463.716	190.489	191.872	194.647	199.218	479.193	196.253	-8191	255	
16159.404	1	1	0	0	0.12415	0.065163	0.2595	0.2657	0.26223	0.1443	0.10495	0.35322	0.2598	0.1499	0.023253	0.24013	0.3869	0.23316	0.11121	0.082555	-2.8	-3.4875	-3.0583	-3.3542	-3.3042	-3.2188	-3.4771	-3.4229	-3.1312	-3.4583	-3.0771	-3.4292	-3.5229	-3.0146	-3.2729	-3.1104	388.466	236.298	370.317	509.086	253.774	211.357	450.975	486.079	438.075	266.215	208.989	456.736	493.895	534.899	188.904	433.143	0.00039691	0.00089764	0.0003908	1439	1.1e-05	5.4092e-06	1002.1	392.81	1.9034e-05	1.2755e-05	292.36	101.16	131.24	38.914	6.6808e-06	29.46	0.016809	0.022879	0.0064273	1606.2	0.00024451	0.00025569	1153.1	438.34	0.00024005	0.00025386	387.35	129.86	160.49	48.366	0.00024583	43.15	260.264	241.256	246.152	191.002	405.643	496.462	189.111	193.464	286.701	503.764	190.550	192.187	194.500	199.496	194.915	197.119	-8191	255	
16159.524	1	1	0	0	0.096529	0.18977	0.20609	0.13205	0.24996	0.20528	0.3236	0.34197	0.2356	0.078528	0.18841	0.13313	0.10234	0.050968	0.032397	0.12172	-2.65	-3.2708	-3.0396	-3.3479	-3.325	-3.1417	-3.2792	-3.2854	-3.0812	-3.3563	-3.2271	-3.2938	-3.45	-3.1521	-3.3521	-3.2812	359.806	276.517	201.503	211.624	406.824	462.353	525.883	515.348	427.480	232.101	434.275	494.961	425.289	442.453	257.221	433.744	0.00031148	0.0024674	0.00021076	1416.9	5.9141e-06	8.2428e-06	983.74	380.27	1.3471e-05	9.409e-06	279.82	97.15	127.3	38.918	1.3035e-05	29.57	0.016662	0.022824	0.0064058	1584.6	0.00024253	0.00025494	1129.2	427.24	0.00023908	0.00025331	378.72	126.62	156.38	48.544	0.00024795	43.292	283.537	286.610	308.277	191.419	287.003	403.341	189.157	193.641	316.968	311.703	190.315	192.394	194.989	199.176	403.016	196.554	-8191	255	
16159.620	1	1	0	0	0.093898	0.091266	0.11225	0.12639	0.050639	0.14689	0.20641	0.057333	0.067258	0.072725	0.30047	0.034114	0.20748	0.10699	0.099637	0.066733	-2.7458	-3.4167	-3.0896	-3.3979	-3.3583	-3.0917	-3.4917	-3.4146	-3.0062	-3.3063	-3.2958	-3.1312	-3.3646	-3.1625	-3.3896	-3.3854	333.658	309.548	189.058	197.390	388.348	176.069	269.600	223.996	460.895	481.798	466.500	244.521	512.734	243.702	326.672	242.850	0.00026932	0.00034321	9.7558e-05	1395.2	1.5514e-05	1.0049e-05	959.71	374.69	6.4753e-06	3.0826e-05	273.07	94.929	124.5	38.132	2.4699e-06	28.432	0.016943	0.023342	0.0065346	1564.7	0.00024859	0.0002627	1113	422.88	0.00024798	0.00026194	375.72	125.37	155.12	48.046	0.00025482	42.952	211.344	289.649	303.082	191.328	533.785	273.332	189.292	193.767	329.192	526.551	190.733	192.651	194.988	199.632	262.202	196.723	-8191	255	
16159.692	1	1	0	0	0.24042	0.10042	0.17483	0.29993	0.10237	0.39648	0.2378	0.18982	0.17044	0.18766	0.042967	0.36227	0.10804	0.22078	0.043665	0.23389	-2.6854	-3.2917	-3.1813	-3.3354	-3.5438	-3.2021	-3.4167	-3.3917	-2.8125	-3.4667	-3.2812	-3.0875	-3.3417	-3.0146	-3.1562	-3.3875	360.282	341.298	515.390	200.947	357.683	400.485	492.482	431.485	188.415	245.332	521.088	485.948	457.891	496.813	203.840	423.684	0.00032738	0.0012603	0.00018124	1381.9	1.7641e-05	5.238e-06	946.6	371.1	1.2102e-05	1.2165e-05	275.96	93.775	123.81	37.443	1.5253e-06	28.257	0.017363	0.023744	0.0067045	1559.9	0.00025149	0.00026703	1107.3	420.73	0.00025078	0.000266	377.76	124.6	154.49	47.586	0.00025756	42.831	246.479	517.191	530.788	191.263	269.050	297.886	189.172	193.942	313.257	223.760	190.942	191.982	194.952	199.518	441.728	197.126	-8191	255	
16159.788	1	1	0	0	0.078226	0.24113	0.27495	0.1742	0.1654	0.09931	0.20711	0.25494	0.17077	0.19039	0.39252	0.18062	0.26823	0.23049	0.11657	0.078319	-2.7333	-3.2604	-3.0958	-3.2458	-3.4625	-3.0438	-3.3854	-3.4146	-3.175	-3.3208	-3.3792	-3.175	-3.4604	-3.1708	-3.0375	-3.4938	521.310	271.096	310.728	204.055	395.646	505.062	190.250	477.603	506.067	526.519	489.744	284.956	492.637	465.208	474.982	466.726	0.00018803	0.00080702	0.0003089	1393	4.1533e-06	7.4356e-06	961.07	372.34	5.2898e-06	2.2439e-05	274.15	92.805	123.46	36.866	4.41e-06	27.854	0.01758	0.02401	0.0068053	1569.1	0.00025629	0.00027198	1115.2	421.8	0.00025389	0.00026937	376.8	124.61	154.37	47.177	0.00026145	42.366	206.336	230.447	497.088	191.476	190.640	423.110	189.246	193.978	412.995	267.952	191.248	192.630	195.129	199.947	474.899	196.494	-8191	255	
16159.909	1	1	0	0	0.11697	0.16403	0.25906	0.30974	0.23093	0.14052	0.26036	0.19599	0.11817	0.28353	0.2636	0.27585	0.18945	0.19537	0.23387	0.13198	-2.5125	-3.2062	-3.2875	-3.1354	-3.4521	-3.1792	-3.3333	-3.4313	-2.9958	-3.2104	-3.3	-2.9521	-3.3125	-3.3208	-3.0708	-3.5687	247.367	267.945	305.404	487.980	377.153	407.845	429.569	429.767	490.994	207.997	487.207	486.855	455.825	206.903	432.793	420.466	0.00030927	0.0018039	0.00074017	1387.3	2.4248e-05	2.2985e-05	949.96	370.24	1.4689e-05	1.3522e-05	268.84	91.018	121.26	35.42	1.1817e-05	26.936	0.017844	0.024222	0.0068112	1565.3	0.00025434	0.00026934	1109.3	418.99	0.00025062	0.00026585	372.74	121.51	150.7	45.611	0.00025642	41.226	211.483	276.615	254.237	191.482	336.140	530.036	189.297	193.855	329.148	499.293	190.900	192.735	194.878	200.053	227.256	197.455	-8191	255	
16160.003	1	1	0	0	0.078704	0.16929	0.12402	0.20668	0.12866	0.29247	0.32358	0.17073	0.089242	0.17382	0.1535	0.15804	0.12951	0.11768	0.25629	0.12768	-2.8021	-3.2479	-3.2583	-3.1937	-3.1833	-3.2125	-3.0604	-3.5563	-3.125	-3.0958	-3.2146	-3.1375	-3.3333	-3.1917	-3.0312	-3.2896	253.207	470.574	320.182	470.201	390.357	336.220	446.538	444.706	454.124	404.347	406.540	419.282	189.350	254.285	325.175	447.033	0.00023097	0.0010506	0.00023843	1376.1	6.0013e-06	1.0642e-06	953.61	367.2	2.0632e-05	2.3564e-05	270.64	91.03	119.7	34.98	1.1992e-05	26.448	0.017517	0.023873	0.0067583	1555.8	0.00025285	0.00026964	1109.9	416.74	0.00025122	0.0002664	373.25	121.45	150.77	45.339	0.00025761	40.926	219.563	185.200	399.596	191.428	207.352	211.247	189.093	193.786	276.940	447.246	191.126	192.433	195.118	199.987	220.198	196.909	-8191	255	
16160.099	1	1	0	0	0.057697	0.28731	0.22181	0.18407	0.028765	0.26306	0.33009	0.26947	0.18227	0.11912	0.068711	0.23239	0.088236	0.17145	0.042419	0.27982	-2.5687	-3.1354	-3.3021	-3.1792	-3.3875	-3.3021	-3.2396	-3.4083	-3.0563	-3.1271	-3.375	-3.075	-3.3979	-3.1667	-2.9854	-3.3438	384.088	347.857	286.423	188.395	208.144	290.646	452.637	484.336	248.685	180.753	442.096	439.102	515.065	444.138	259.134	456.889	0.00013603	0.00066391	0.0003653	1376.3	4.853e-06	3.0063e-05	952.96	365.98	1.0119e-05	1.624e-05	271.31	90.17	119.16	34.273	1.1123e-05	25.695	0.017618	0.02398	0.0066951	1555.1	0.00025202	0.00026854	1113.7	415.72	0.00025206	0.00026724	373.07	121.44	149.88	44.384	0.00025761	40.223	260.874	188.101	418.506	191.093	254.743	278.740	189.283	193.947	359.951	381.161	191.116	192.113	195.250	200.249	431.324	197.366	-8191	255	
16160.197	1	1	0	0	0.20347	0.049228	0.0033521	0.16173	0.16083	0.13735	0.1633	0.13615	0.15127	0.2822	0.34906	0.21718	0.064652	0.17363	0.13464	0.17596	-2.5833	-3.2896	-3.4417	-3.3083	-3.1979	-3.2417	-3.3604	-3.4333	-2.9813	-3.2229	-3.3146	-3.0333	-3.2604	-3.4417	-3.1833	-3.3271	483.997	512.088	403.476	210.199	405.499	393.928	389.771	405.037	483.382	401.133	255.890	436.953	186.124	414.142	527.558	315.795	0.00022457	0.0030324	0.000401	1367.5	6.4746e-06	4.4557e-06	956.29	364.39	1.3879e-05	1.0047e-05	271.19	88.491	118.24	33.701	4.608e-06	25.372	0.017509	0.023877	0.006719	1550.4	0.00025292	0.00027052	1112.5	414.95	0.00025228	0.0002692	373.82	120.16	149.2	43.956	0.00026158	40.186	198.800	335.050	265.959	191.419	425.155	432.866	189.155	193.954	318.984	269.754	191.108	192.132	194.928	200.232	504.182	197.651	-8191	255	
16160.292	1	1	0	0	0.059193	0.059391	0.071113	0.045377	0.42027	0.15842	0.42887	0.05564	0.12733	0.23884	0.12052	0.13607	0.31003	0.079581	0.14078	0.15147	-2.7146	-3.0292	-3.2583	-3.2771	-3.225	-3.3229	-3.1979	-3.5125	-3.1417	-3.0458	-3.4021	-3.1958	-3.1771	-3.5479	-2.9437	-3.3667	388.612	442.288	427.019	292.421	406.947	445.381	493.591	369.138	215.936	216.255	195.511	458.380	471.928	203.015	251.879	414.583	0.0001672	0.001313	0.00023168	1381	1.9841e-05	9.6437e-06	949.13	362.55	8.0053e-06	1.4749e-05	265.44	87.015	115.66	33.172	1.0729e-05	24.959	0.0179	0.024225	0.0068378	1554.2	0.00025668	0.00027221	1108.4	412.32	0.00025451	0.00027074	368.31	118.51	146.75	43.701	0.00026109	39.677	221.488	258.838	183.922	191.354	177.182	330.171	189.322	194.085	208.766	287.001	190.784	192.619	195.479	200.653	375.747	198.514	-8191	255	
16160.388	1	1	0	0	0.073968	0.17522	0.16786	0.19373	0.011231	0.071155	0.12493	0.19443	0.037878	0.04894	0.18174	0.25481	0.22334	0.22565	0.34461	0.15547	-2.7188	-3.05	-3.4417	-3.4458	-3.1917	-3.3729	-3.1646	-3.4125	-3.2646	-2.9896	-3.4875	-3.2521	-3.3542	-3.6708	-3.0604	-3.3104	436.432	405.651	382.341	523.733	459.957	263.320	187.181	448.704	210.934	484.827	425.888	200.066	194.608	240.541	308.719	432.347	0.00037194	0.0013654	0.0006354	1361.9	3.7615e-06	1.8199e-05	938.61	357.48	1.8962e-05	8.0205e-06	262.2	86.526	115.14	33.213	1.0098e-05	24.932	0.017832	0.024274	0.0068239	1540	0.00025629	0.00027109	1100	408.56	0.00025603	0.00027059	366.6	117.53	146.49	43.57	0.00026157	39.797	217.959	250.780	288.332	191.439	351.278	334.518	189.029	193.959	348.134	497.224	190.782	192.389	195.238	200.427	361.790	198.055	-8191	255	
16160.484	1	1	0	0	0.058318	0.15306	0.12284	0.13675	0.25339	0.19809	0.13961	0.17852	0.098187	0.10953	0.0091721	0.36643	0.33097	0.14113	0.21234	0.24879	-2.9104	-3.0625	-3.4896	-3.3125	-3.2062	-3.3521	-3.2771	-3.2646	-3.2083	-3.15	-3.525	-3.2417	-3.0646	-3.4396	-3.25	-3.1583	265.712	307.951	488.895	298.710	189.439	231.939	535.689	443.910	523.552	421.190	368.134	501.044	502.340	377.802	389.346	432.041	0.00015296	0.00084581	0.0010621	1360.2	2.7258e-06	1.9072e-05	938.04	361.43	3.3489e-06	1.1035e-05	260.51	87.574	116.17	33.7	4.684e-06	25.163	0.017925	0.024319	0.006807	1541.9	0.00025573	0.00026998	1101.4	410.93	0.00025292	0.00026957	366.52	118.33	147.04	43.87	0.00026038	39.924	178.592	377.617	286.192	191.744	532.799	302.955	189.422	194.257	329.226	231.791	190.809	192.601	195.266	200.530	527.516	197.837	-8191	255	
16160.605	1	1	0	0	0.20515	0.06635	0.17391	0.059005	0.24742	0.16266	0.14229	0.25336	0.16101	0.093056	0.10532	0.13945	0.30257	0.02767	0.38796	0.19794	-2.825	-3.1333	-3.2708	-3.3146	-3.0354	-3.3917	-3.2729	-3.2125	-3.1604	-3.0896	-3.3396	-3.3708	-3.1375	-3.4104	-3.2104	-3.0979	451.936	312.830	464.847	211.532	351.282	286.146	408.024	460.538	180.265	384.578	309.917	299.672	457.922	324.710	417.829	448.038	0.00016422	0.00088044	0.00016607	1365	6.3496e-06	2.6852e-06	933.34	357.79	1.289e-05	1.0058e-05	260.17	85.579	113.56	33.145	6.1686e-06	24.601	0.017741	0.024382	0.0068226	1542.4	0.00025674	0.00027068	1095.3	409.09	0.00025466	0.0002708	363.56	116.65	145.18	43.422	0.00026173	39.307	188.010	508.058	325.109	191.515	239.627	470.173	189.581	194.231	331.152	346.709	191.099	192.334	195.618	200.678	276.942	196.973	-8191	255	
16160.701	1	1	0	0	0.20295	0.12428	0.19244	0.068648	0.1177	0.17854	0.22953	0.037609	0.14448	0.15475	0.17208	0.20238	0.24085	0.11801	0.12816	0.19655	-2.9938	-3.1917	-3.3521	-3.2771	-3.1458	-3.3771	-3.3208	-3.1312	-3.4896	-3.1479	-3.3479	-3.4188	-3.2083	-3.4604	-3.1208	-2.8958	319.958	504.311	239.434	396.394	234.891	383.964	386.440	456.568	516.020	181.853	337.481	389.612	229.610	385.578	259.312	417.880	3.5891e-05	0.0017714	0.0001261	1356.1	1.4132e-05	1.0128e-05	934.41	358.83	7.2296e-06	1.9715e-05	262.96	87.622	116.31	33.658	1.9111e-05	25.254	0.017681	0.024475	0.006817	1538.1	0.00025683	0.00027149	1096.4	409.8	0.00025744	0.00027289	368.67	119.4	148.39	44.202	0.0002642	40.196	482.428	519.623	421.525	191.677	234.302	180.054	189.497	194.270	528.654	272.945	190.620	192.748	195.327	200.658	520.225	198.018	-8191	255	
16160.797	1	1	0	0	0.15092	0.09319	0.32345	0.1563	0.14974	0.11679	0.35904	0.2543	0.12538	0.0061599	0.20067	0.22299	0.20226	0.08201	0.16661	0.16628	-2.9667	-3.1312	-3.0604	-3.5625	-3.0083	-3.2208	-3.2938	-3.1333	-3.4292	-3.1	-3.1458	-3.3583	-3.1188	-3.4083	-3.1917	-3.1063	249.611	217.639	429.567	497.920	470.067	480.899	453.320	467.593	360.242	179.736	422.946	204.812	285.210	234.952	329.067	378.043	0.00023286	0.0016407	0.00082507	1370.6	5.9633e-06	4.8027e-06	941.65	362.24	1.1923e-05	1.4216e-05	264.92	87.282	114.89	33.65	7.0935e-06	25.256	0.017983	0.024622	0.0069109	1548.6	0.00025984	0.00027422	1106.8	412.77	0.00025741	0.00027453	370.98	119.12	147.68	44	0.0002649	40.268	250.586	213.423	199.970	191.579	215.338	464.545	189.252	194.071	216.246	442.979	190.835	192.198	195.752	200.861	359.461	197.960	-8191	255	
16160.917	1	1	0	0	0.049043	0.050409	0.27757	0.21307	0.152	0.30064	0.25048	0.42149	0.31659	0.063487	0.089805	0.15295	0.11199	0.22331	0.066983	0.14495	-2.9146	-3.0396	-3.2313	-3.4792	-3.0583	-3.2896	-3.3917	-3.1917	-3.3625	-3.1708	-3.1771	-3.4521	-3.3292	-3.3708	-3.1437	-3.0896	384.736	214.924	397.921	469.089	304.689	285.925	499.794	509.805	216.233	502.169	246.882	493.951	453.455	535.413	436.419	485.882	0.00029526	0.0021616	0.00040742	1362	2.6995e-05	2.674e-05	940.02	358.01	1.1824e-05	8.4333e-06	261.99	85.467	114.73	33.536	2.1917e-05	25.033	0.018013	0.024786	0.0069128	1544.2	0.00026029	0.00027385	1099.6	409.15	0.00025802	0.00027334	367.35	117.24	146.67	43.881	0.00026377	39.978	260.675	346.843	275.354	191.372	263.235	477.792	189.336	194.031	329.635	481.573	191.039	192.546	195.605	200.777	277.235	197.901	-8191	255	
16160.989	1	1	0	0	0.071627	0.10652	0.11345	0.17659	0.046409	0.12596	0.046371	0.18884	0.22551	0.071596	0.067205	0.13084	0.079558	0.1267	0.25512	0.32834	-2.7104	-3.0708	-3.0667	-3.3125	-3.0354	-3.475	-3.4083	-3.0271	-3.4396	-3.0687	-3.1708	-3.5021	-2.9813	-3.5083	-3.3167	-2.9125	381.349	402.599	256.457	434.334	357.930	274.359	217.465	465.487	195.118	199.709	534.172	506.005	196.392	523.179	453.760	461.447	0.00047228	0.0023347	0.00017911	1361.1	6.8147e-06	1.2184e-05	928.99	355.86	1.6844e-05	5.8003e-06	256.99	84.838	113.58	34.381	1.5149e-05	26.086	0.017812	0.024488	0.0068577	1537.8	0.00025752	0.00026967	1093.8	405.64	0.00025155	0.00026677	361.73	115.66	144.51	44.372	0.00025755	40.537	248.886	243.233	207.074	191.647	421.432	398.845	189.143	194.107	281.248	390.846	190.833	193.558	195.685	200.679	464.873	197.944	-8191	255	
16161.084	1	1	0	0	0.061457	0.086083	0.32416	0.29662	0.1109	0.048981	0.12073	0.37494	0.08696	0.052137	0.088121	0.087027	0.15756	0.10714	0.13006	0.051027	-2.9729	-3.1667	-3.2	-3.5	-3.3375	-3.2333	-3.3396	-3.1021	-3.4542	-3.3604	-3.1312	-3.4479	-3.1688	-3.1771	-3.4542	-3.1458	439.084	209.616	462.847	509.821	217.844	394.622	186.533	479.930	244.334	357.657	448.059	408.608	516.020	466.437	518.797	198.669	0.0003438	0.00031833	0.00023707	1367.9	5.3857e-06	5.8308e-06	931.14	362.43	1.2394e-05	3.3828e-05	268.37	90.063	120.88	40.055	1.638e-05	30.858	0.017496	0.024118	0.0067329	1546.3	0.00025429	0.00027033	1094.5	413.02	0.00025415	0.00027116	372	121.69	152.67	50.232	0.00026377	45.552	255.253	413.751	435.012	191.433	255.048	256.921	189.618	194.126	289.618	390.380	190.925	192.533	196.078	199.644	365.765	196.894	-8191	255	
16161.204	1	1	0	0	0.19999	0.15636	0.061261	0.22725	0.06469	0.26375	0.13607	0.13579	0.10148	0.10999	0.15394	0.25182	0.29169	0.18764	0.14467	0.2099	-2.8812	-3.0167	-3.1229	-3.5271	-3.0167	-3.2375	-3.4417	-2.9021	-3.2917	-3.2812	-3.1208	-3.3542	-3.2062	-3.125	-3.5146	-3.2958	257.584	420.569	210.728	450.906	403.605	309.815	479.355	531.872	290.670	223.095	493.201	183.134	507.490	529.022	210.354	392.395	0.00039143	0.0017177	0.00041016	1400.6	1.0496e-05	6.2768e-06	956.6	378.23	1.4912e-05	5.5777e-06	276.81	95.744	127.11	43.377	1.2571e-06	33.373	0.017889	0.024828	0.006917	1582	0.00026001	0.00027532	1116.1	428.6	0.00025874	0.00027622	384.88	127.89	159.21	53.992	0.00026874	48.267	189.406	401.170	237.277	191.594	474.045	378.270	189.371	194.252	426.651	319.486	190.665	192.701	195.397	198.929	196.805	196.240	-8191	255	
16161.300	1	1	0	0	0.084445	0.11477	0.1476	0.19009	0.1282	0.26671	0.42702	0.3182	0.12712	0.12245	0.29434	0.13637	0.21188	0.26203	0.37676	0.24831	-2.7917	-3.2729	-2.9562	-3.4021	-3.2125	-3.1833	-3.5104	-3.2917	-3.1792	-3.4688	-3.1458	-3.4042	-3.3375	-3.1792	-3.4458	-3.1458	236.042	263.485	199.488	447.199	323.936	319.260	475.923	522.776	212.873	181.498	474.272	190.878	193.751	523.904	224.941	466.283	0.00018745	0.0018912	0.00013943	1437	1.7376e-05	2.712e-05	997.46	400.92	1.4268e-05	5.7126e-06	308.31	110.21	142.68	48.275	2.1474e-05	36.876	0.018432	0.025504	0.0071396	1629.2	0.00027194	0.00028754	1172.1	455.59	0.00027142	0.00029002	417.07	143.21	176.14	59.505	0.00028274	52.496	265.481	243.569	342.089	191.594	307.132	346.356	189.281	193.908	402.314	302.192	190.458	191.865	194.658	198.164	485.542	196.061	-8191	255	
16161.396	1	1	0	0	0.19963	0.12687	0.092872	0.21492	0.057486	0.24682	0.13723	0.089779	0.18229	0.1842	0.12138	0.091047	0.15613	0.055141	0.15947	0.27035	-2.8354	-3.2687	-2.9813	-3.525	-3.3292	-2.9396	-3.5042	-3.1042	-3.2062	-3.1396	-3.1896	-3.4	-3.275	-3.0646	-3.3146	-3.2917	388.891	395.732	515.663	495.751	415.895	372.993	492.510	313.454	252.674	278.908	525.808	177.221	306.250	204.803	229.777	501.823	0.0003083	0.0012124	0.00026653	1465.7	1.4032e-05	8.5225e-06	1005.2	405.08	1.4807e-05	1.696e-05	299.68	105.92	137.65	45.358	6.8631e-06	34.214	0.018977	0.025915	0.0072681	1655.1	0.00026876	0.00028147	1170.5	458.26	0.00025924	0.00027378	404.77	136.92	168.38	55.348	0.00025588	48.301	249.559	318.185	467.375	191.380	266.121	368.711	189.182	193.710	414.629	350.732	190.958	191.792	194.674	198.935	294.201	196.665	-8191	255	
16161.493	1	1	0	0	0.066975	0.28974	0.21092	0.3876	0.14648	0.065535	0.38745	0.23313	0.23636	0.12352	0.080541	0.063413	0.1624	0.35855	0.145	0.098498	-2.7354	-3.1333	-3.1604	-3.4271	-3.2625	-3.0938	-3.4875	-3.2438	-3.2167	-3.5104	-3.1417	-3.325	-3.3875	-3.0146	-3.5729	-3.4083	290.067	303.139	452.317	490.727	207.053	392.853	518.015	497.918	247.193	391.451	492.189	449.452	491.354	513.760	223.744	189.310	0.00028118	0.0010455	0.00044955	1433.1	2.1561e-05	7.9414e-06	965.76	385.69	2.821e-05	9.4171e-06	283.57	94.728	124.88	40.111	5.9297e-06	30.802	0.017148	0.023131	0.0065075	1595.4	0.00023568	0.00024611	1104.8	429.31	0.00022574	0.00023782	373.54	121.26	151.68	48.658	0.00022161	43.143	220.712	253.550	200.386	191.429	332.865	400.175	189.243	193.926	316.339	431.111	190.570	192.573	194.781	200.092	371.974	197.649	-8191	255	
16161.589	1	1	0	0	0.23344	0.045136	0.16156	0.21775	0.14962	0.18219	0.23858	0.43571	0.23796	0.062073	0.031377	0.020023	0.22144	0.25019	0.19627	0.04439	-2.5979	-3.4688	-3.1292	-3.4875	-3.4042	-3.1417	-3.3937	-3.3333	-2.9833	-3.4479	-3.0521	-3.1771	-3.4146	-3.2521	-3.2188	-3.3312	396.159	262.013	182.725	181.298	288.149	389.556	441.530	452.788	435.907	465.868	514.806	334.924	442.380	425.297	271.312	296.731	0.00030207	0.00086099	0.00028348	1391.6	1.196e-05	2.357e-05	926.93	374.05	1.8064e-05	5.7393e-06	272.25	87.83	116	39.065	6.2225e-06	30.825	0.014834	0.019977	0.0056431	1525.9	0.00020469	0.0002156	1045	409.68	0.00019508	0.00020216	344.75	109.57	136.88	45.77	0.00017375	39.939	237.268	298.867	284.940	191.342	360.126	312.390	189.427	194.154	332.100	424.694	190.998	193.357	196.098	201.153	257.848	199.211	-8191	255	
16161.685	1	1	0	0	0.19215	0.042686	0.12406	0.29077	0.010963	0.18746	0.1586	0.24555	0.34421	0.17441	0.12466	0.096697	0.14191	0.067235	0.2927	0.13197	-2.7042	-3.3333	-3.3125	-3.4229	-3.4396	-2.9604	-3.4271	-3.2958	-2.9646	-3.2104	-3.3	-3.2562	-3.4646	-3.1146	-3.1437	-3.4792	487.464	473.557	377.237	188.999	315.139	530.926	511.383	469.928	333.012	411.929	326.231	419.810	478.980	183.600	200.420	273.301	0.00030591	0.0021509	0.00013965	1315.9	1.3831e-05	1.5219e-05	855.37	346.98	9.6101e-06	1.2662e-06	255.77	83.654	108.76	39.186	4.0446e-06	32.293	0.011327	0.01516	0.0042531	1407.4	0.00015124	0.0001565	932.55	370.37	0.00014169	0.00014888	307.86	99.236	124.69	44.13	0.00013738	39.24	236.878	300.936	523.604	191.491	484.118	201.564	189.546	194.470	314.781	497.453	191.110	194.322	196.817	202.722	231.901	200.078	-8191	255	
16161.781	1	1	0	0	0.15256	0.22659	0.11903	0.24154	0.14221	0.042891	0.13254	0.15433	0.16691	0.13611	0.0041031	0.039607	0.13483	0.10453	0.2152	0.16498	-2.5083	-3.4354	-3.1396	-3.3333	-3.2896	-3.2875	-3.3604	-3.1708	-3.0042	-3.2958	-3.2458	-2.9562	-3.4604	-3.0042	-3.2021	-3.2896	268.591	399.780	346.425	500.339	283.031	333.942	428.951	446.318	404.879	292.959	250.805	519.718	351.078	223.949	225.524	409.362	0.00045424	0.0015354	0.00027675	1305.2	1.8541e-05	4.477e-06	847.54	344.91	1.5192e-05	6.2074e-06	248.68	78.946	102.51	35.552	2.4759e-06	28.896	0.0092263	0.012397	0.0035346	1369.5	0.000129	0.00013516	910.91	364.34	0.00012611	0.00013232	294.01	92.94	116.35	40.296	0.00012413	35.289	223.716	295.895	319.988	191.507	212.932	534.474	189.724	194.408	319.083	286.608	191.614	194.772	197.309	203.808	447.049	201.081	-8191	255	
16161.877	1	1	0	0	0.21541	0.069442	0.061391	0.14723	0.17308	0.12579	0.14831	0.29381	0.013995	0.033306	0.2823	0.046013	0.21001	0.40991	0.075061	0.047886	-2.5625	-3.3875	-3.15	-3.1292	-3.3833	-3.0958	-3.3063	-3.5125	-3.0187	-3.3542	-3.1937	-3.1896	-3.375	-3.2708	-3.0521	-3.2667	257.961	190.891	467.154	179.361	471.278	302.454	183.590	421.475	210.339	487.093	496.235	203.743	513.147	536.287	480.431	497.774	0.00022751	0.0006604	0.00017438	1264	1.998e-05	1.0606e-05	798.48	312.99	2.4536e-06	1.2256e-05	212.11	58.576	78.737	29.733	6.0677e-06	25.019	0.0083319	0.011329	0.0032243	1321.3	0.00011661	0.00012164	853.26	329.82	0.00011315	0.0001181	253.14	71.629	91.057	33.699	0.00011054	30.763	208.656	211.859	526.519	191.520	375.844	533.881	189.936	195.113	287.303	421.293	192.396	196.669	199.761	206.312	452.291	202.864	-8191	255	
16161.996	1	1	0	0	0.17647	0.37976	0.14134	0.20654	0.15616	0.14604	0.30126	0.2797	0.12852	0.10492	0.066144	0.22971	0.22375	0.21867	0.16373	0.16481	-2.6771	-3.3083	-3.1188	-3.2042	-3.2292	-3.2917	-3.3187	-3.4313	-3.0167	-3.1813	-3.4271	-3.1458	-3.5125	-3.2875	-3.0042	-3.5917	180.215	235.686	446.365	211.426	499.417	253.105	464.854	534.015	309.689	178.488	188.510	271.158	445.811	500.424	284.600	238.927	0.00030206	0.00058817	0.00025393	1207.4	1.2331e-05	1.2629e-05	751.65	285.19	1.3829e-05	1.9208e-05	189.66	52.393	70.654	28.747	5.3193e-06	24.252	0.0074622	0.010174	0.0028811	1254.7	0.00010631	0.00011153	801.83	300.11	0.00010781	0.00011036	228.77	64.613	82.505	32.39	0.00010565	29.728	224.143	297.996	518.462	191.816	225.832	502.767	190.075	195.522	321.363	400.366	192.810	198.368	200.110	206.657	265.734	202.961	-8191	255	
16162.092	1	1	0	0	0.1907	0.12352	0.10589	0.26399	0.29679	0.13391	0.23314	0.17528	0.37862	0.065359	0.02046	0.24212	0.21027	0.24445	0.18657	0.15904	-2.6396	-3.4042	-3.1542	-3.1479	-3.2438	-3.25	-3.225	-3.4479	-3.0229	-3.2271	-3.4521	-2.9458	-3.2271	-3.3021	-2.9979	-3.4104	299.202	231.296	253.267	203.239	489.169	331.467	493.575	433.575	525.215	275.899	304.691	181.676	519.434	508.651	317.826	252.787	0.00015724	0.00012713	0.00051944	1182.5	2.7983e-06	2.8145e-06	732.76	273.58	3.464e-06	1.3675e-05	179.72	50.225	67.787	28.522	5.2056e-06	24.445	0.0071111	0.0097344	0.0027891	1228.3	0.00010244	0.00010701	778.59	288.8	0.0001025	0.00010668	218.51	62.155	79.514	32.228	0.0001034	29.794	193.083	221.955	328.257	191.787	342.852	511.835	190.265	195.993	527.225	259.566	192.729	198.380	201.125	207.030	490.060	203.623	-8191	255	
16162.188	1	1	0	0	0.092549	0.25415	0.12889	0.18422	0.037955	0.10071	0.17992	0.25419	0.054253	0.12291	0.10655	0.19678	0.096254	0.15321	0.22348	0.037502	-2.6458	-3.1646	-3.1063	-3.1896	-3.3063	-3.2229	-3.1125	-3.4458	-3.2604	-3.1833	-3.3729	-3.0271	-3.2479	-3.3625	-2.9979	-3.4	316.939	368.006	446.816	377.840	311.898	432.813	514.963	492.710	512.386	437.805	495.247	459.338	533.421	259.388	286.312	200.186	0.00023656	0.0009471	0.00023948	1169	3.0447e-06	1.0817e-05	720.75	272.22	5.9309e-06	1.1e-05	181.42	51.268	69.313	29.19	3.8306e-06	24.942	0.0070738	0.0096395	0.0027136	1214.2	0.00010218	0.00010718	772.23	287.37	0.00010411	0.00010689	219.39	62.748	80.636	32.707	0.00010394	30.318	235.090	256.394	315.376	191.876	380.761	450.295	190.163	196.013	314.654	518.087	193.212	198.749	201.131	206.877	518.126	203.514	-8191	255	
16162.285	1	1	0	0	0.27137	0.24298	0.18028	0.34477	0.0722	0.083325	0.36999	0.20577	0.076016	0.12425	0.13591	0.084236	0.16791	0.19185	0.12676	0.15898	-2.775	-2.975	-3.2938	-3.1708	-3.1688	-3.2479	-3.175	-3.5958	-3.2354	-3.0042	-3.3167	-3.2333	-3.1146	-3.4292	-2.9917	-3.2979	420.593	508.449	461.963	534.137	319.099	405.452	482.527	444.452	187.169	240.496	464.884	238.841	367.419	497.166	311.150	472.040	0.00025796	0.0010473	0.00048769	1189.4	4.8622e-06	7.6408e-06	749.93	281.84	2.2169e-06	8.2546e-06	190.97	52.19	70.577	29.435	8.8011e-06	25.31	0.0071574	0.0097083	0.0027247	1242.3	0.00010361	0.00010972	798.6	298.08	0.0001053	0.00011049	229.3	64.356	82.639	33.139	0.0001082	30.704	237.645	322.747	303.560	191.826	267.604	504.120	190.160	195.508	416.815	281.371	193.202	198.236	200.698	206.978	217.315	203.277	-8191	255	
16162.381	1	1	0	0	0.32373	0.060516	0.20169	0.15837	0.22011	0.19574	0.094454	0.19854	0.31009	0.22589	0.24662	0.24388	0.1027	0.22913	0.13972	0.20843	-2.7417	-2.9729	-3.2542	-3.3646	-3.1042	-3.3187	-3.0958	-3.5125	-3.1396	-3.0729	-3.3208	-3.2083	-3.2167	-3.1063	-3.0208	-3.1917	250.879	276.968	497.952	515.174	526.919	179.467	519.385	246.067	485.849	248.080	201.931	374.427	394.788	501.332	528.999	425.998	0.00037467	0.00064554	0.00049685	1217.3	9.8549e-06	2.6607e-06	762.05	288.28	5.1074e-06	5.6114e-06	197.65	52.894	71.92	29.23	2.5515e-06	25.015	0.0073549	0.010127	0.0028665	1263.4	0.0001086	0.0001146	813.88	305.85	0.00011285	0.00011757	238.29	66.008	85.052	33.273	0.00011537	30.912	200.233	457.328	525.550	191.743	413.068	203.097	190.119	195.708	425.066	221.817	192.982	198.425	200.263	206.849	403.634	203.021	-8191	255	
16162.477	1	1	0	0	0.082318	0.092902	0.11364	0.044485	0.19856	0.13406	0.16909	0.10453	0.22853	0.18763	0.1966	0.14973	0.13408	0.28719	0.11585	0.22202	-2.8458	-2.9646	-3.2854	-3.1375	-3.0667	-3.2396	-3.0333	-3.2812	-3.4437	-2.9896	-3.4083	-3.1792	-3.1833	-3.5312	-3.0667	-3.1708	264.256	187.463	348.612	204.543	489.480	497.794	224.233	224.396	271.216	285.209	239.825	405.478	420.009	514.780	244.322	373.680	0.00024597	0.00026783	0.00021302	1228.5	1.6958e-06	1.3075e-05	772.91	294.72	6.1335e-06	6.9022e-06	197.17	53.203	72.138	29.126	2.8363e-06	24.832	0.0077639	0.01064	0.0029963	1279.2	0.00011331	0.0001192	827	311.16	0.00011438	0.00011971	240.24	66.303	85.316	33.275	0.00011903	31.063	227.262	262.196	235.526	191.472	377.826	346.935	190.112	195.261	229.988	343.951	192.570	198.475	200.537	206.682	536.514	203.245	-8191	255	
16162.597	1	1	0	0	0.027128	0.047305	0.089153	0.16446	0.20447	0.065333	0.24776	0.17327	0.12245	0.11765	0.11165	0.02436	0.020686	0.12928	0.043588	0.14566	-2.9062	-3.0292	-3.2313	-3.1708	-3.1813	-3.3937	-3.1625	-3.3229	-3.1521	-2.8417	-3.3292	-3.3208	-2.9792	-3.4125	-2.9396	-3.1521	350.021	483.562	401.680	184.161	225.741	406.721	441.737	202.693	481.695	294.165	251.784	237.953	489.911	525.453	444.451	392.681	0.0002395	0.0009518	6.9423e-05	1236.7	3.0803e-06	9.4245e-06	776.93	298.87	9.0317e-06	5.5436e-06	201.52	54.328	74.076	29.472	1.4116e-06	25.03	0.008025	0.010978	0.0030888	1288.3	0.00011621	0.00012288	834.91	315.94	0.00011796	0.00012304	245.04	67.663	87.621	33.636	0.00012143	31.214	245.564	322.284	389.190	191.858	202.120	476.241	190.284	195.443	324.316	405.138	192.611	197.789	200.003	206.712	381.103	203.198	-8191	255	
16162.694	1	1	0	0	0.18472	0.23685	0.086522	0.15902	0.16817	0.1432	0.35251	0.2024	0.18219	0.15361	0.16743	0.21514	0.12358	0.30111	0.067867	0.1366	-2.9896	-2.9479	-3.1854	-3.2229	-3.0604	-3.4792	-3.1354	-3.175	-3.3354	-3.1813	-3.3125	-3.1854	-3.0354	-3.2875	-3.0938	-3.2708	490.652	525.638	224.131	508.824	295.621	404.189	466.406	406.038	357.404	493.542	249.102	318.111	187.009	184.151	292.503	398.016	0.00027955	0.000217	0.00011574	1240.8	9.0111e-06	6.3536e-06	773.31	300.33	1.2905e-06	9.4765e-06	204.79	55.41	75.731	29.571	8.0767e-06	25.1	0.0081548	0.011245	0.0031676	1296.5	0.00011935	0.00012623	838.81	319.33	0.00012023	0.00012829	249.67	69.491	89.743	34.005	0.00012723	31.621	231.797	191.213	310.967	191.724	407.059	278.281	190.192	195.477	259.804	373.142	192.658	197.719	199.917	206.594	431.531	202.901	-8191	255	
16162.790	1	1	0	0	0.26819	0.078774	0.17669	0.26123	0.087767	0.11998	0.29312	0.10358	0.16645	0.27677	0.14289	0.060232	0.21709	0.28158	0.41717	0.19225	-3.025	-2.8542	-3.4	-3.4104	-2.9604	-3.2917	-3.3187	-3.2333	-3.3229	-3.0833	-3.1729	-3.2958	-3.1583	-3.4396	-3.1	-3.1604	485.311	311.369	512.363	463.819	217.737	354.178	465.027	477.046	220.602	299.710	410.167	433.168	285.926	470.990	305.204	347.378	0.00030444	0.00038733	0.00018367	1236.8	1.1722e-05	7.5375e-06	781.26	304.33	1.362e-06	5.8961e-06	207.72	56.169	76.51	29.773	1.4338e-05	25.153	0.0085594	0.01176	0.003296	1302.3	0.00012413	0.00013171	845.77	324.51	0.00012435	0.00013409	253.35	70.862	91.16	34.287	0.00012947	31.776	206.727	362.664	518.487	191.786	386.333	449.170	190.072	195.109	240.054	362.779	192.200	197.540	200.298	206.438	299.618	203.353	-8191	255	
16162.886	1	1	0	0	0.033025	0.27219	0.12931	0.13872	0.14363	0.27511	0.12414	0.21132	0.054607	0.13385	0.11924	0.23131	0.047093	0.14344	0.10136	0.22746	-2.9688	-2.9708	-3.1333	-3.5896	-3.0354	-3.1688	-3.2125	-3.0146	-3.3167	-3.0854	-3.2271	-3.3833	-3.0438	-3.3229	-3.3812	-3.1729	478.558	350.093	258.120	502.833	189.739	258.896	446.211	194.466	510.960	533.924	326.320	208.845	207.626	333.425	534.656	247.378	0.00018372	0.00065606	0.00012435	1249.1	7.1025e-06	1.8574e-05	784.28	306.89	4.4784e-06	1.445e-05	209.58	56.373	77.067	29.646	1.037e-05	25.096	0.0086876	0.011873	0.0033193	1310.8	0.00012632	0.00013336	848.96	325.75	0.00012462	0.00013315	255.64	71.077	91.485	34.106	0.00012882	31.615	235.619	193.466	466.153	191.918	211.148	301.769	190.050	195.465	510.768	483.478	192.233	197.855	200.128	206.267	194.596	203.232	-8191	255	
16162.980	1	1	0	0	0.13706	0.11903	0.17263	0.20278	0.12145	0.0953	0.17948	0.11853	0.064868	0.093034	0.19829	0.052257	0.11037	0.051958	0.17591	0.23284	-3.0167	-3.1542	-3.0896	-3.5333	-3.0229	-3.1646	-3.4646	-3.0812	-3.5333	-3.0417	-3.0854	-3.4292	-3.1229	-3.4	-3.175	-3.0146	293.741	217.543	430.869	504.436	487.422	411.801	534.571	296.689	289.336	417.908	343.000	477.238	486.053	353.545	402.026	383.624	0.00016659	0.00096692	0.00033942	1240.8	2.3421e-05	4.3107e-06	788.02	303.98	7.0361e-06	7.0278e-06	207.71	54.915	75.24	28.902	5.0924e-06	24.212	0.0086557	0.011761	0.0033342	1306	0.00012738	0.00013318	850.55	324.35	0.00012587	0.00013505	253.99	69.728	90.196	33.505	0.00012879	30.811	236.232	400.986	301.454	191.810	288.382	299.307	190.129	195.241	367.957	272.941	192.398	197.774	200.136	206.640	468.530	203.220	-8191	255	
16163.078	1	1	0	0	0.095162	0.15133	0.17747	0.085825	0.091969	0.32401	0.1874	0.11776	0.068845	0.070878	0.18134	0.17984	0.18368	0.15451	0.22598	0.06732	-2.9	-3.1521	-3.0542	-3.4021	-2.9729	-3.2646	-3.4646	-3.0146	-3.4688	-3.3646	-3.0292	-3.3438	-3.0917	-3.2521	-3.3146	-3.0292	348.180	254.975	362.968	501.006	224.208	420.573	483.000	473.583	433.161	432.516	249.780	493.889	229.396	432.074	413.648	400.806	0.00028703	0.0012889	0.00024452	1240.9	1.3617e-05	1.0161e-06	769.08	292.94	1.7303e-06	8.2153e-06	194.14	51.893	71.284	27.847	7.0362e-06	23.104	0.0086773	0.011762	0.0032961	1297.3	0.00012506	0.00012892	831.54	312.1	0.00012021	0.00012831	239.91	66.004	85.407	32.254	0.00012289	29.67	246.697	311.922	289.972	191.742	291.599	478.110	190.238	195.516	181.987	484.932	192.674	197.698	200.315	206.860	495.360	203.282	-8191	255	
16163.173	1	1	0	0	0.2357	0.1067	0.059815	0.15701	0.14963	0.093893	0.17104	0.059555	0.087863	0.074526	0.22126	0.10395	0.21274	0.066841	0.11573	0.10348	-2.9958	-3.2021	-3.2271	-3.5208	-3.1833	-3.3104	-3.5563	-3.0312	-3.3271	-3.3063	-3.0812	-3.4458	-3.0833	-3.3083	-3.3563	-3.1042	273.297	189.619	189.985	186.772	484.486	389.618	407.554	515.859	246.977	197.928	447.538	210.553	205.066	472.023	410.145	217.990	0.00016264	0.0020527	7.5944e-05	1195.4	2.6771e-06	1.4132e-05	739	274.38	8.375e-06	2.3676e-05	180.01	48.741	67.626	27.125	1.3533e-05	22.812	0.0080987	0.011044	0.0030878	1249.2	0.00011703	0.00012016	795.69	292.77	0.00011235	0.00012073	223.26	62.09	80.489	31.353	0.00011504	28.896	242.491	265.140	403.382	191.989	223.584	348.225	190.016	195.939	237.907	355.081	193.018	198.263	201.331	207.061	351.354	203.830	-8191	255	
16163.293	1	1	0	0	0.25111	0.068719	0.0079528	0.17451	0.10054	0.10877	0.085487	0.075238	0.15878	0.30004	0.13037	0.157	0.026468	0.13506	0.18539	0.2771	-2.9583	-3.1021	-2.8979	-3.3937	-3.1583	-3.1104	-3.4146	-3.2667	-3.2917	-3.2687	-2.9792	-3.3979	-3.1083	-3.0917	-3.2687	-3.1708	341.393	507.474	463.364	534.692	490.013	504.916	462.798	527.074	238.653	439.410	504.570	520.334	446.715	388.447	196.986	373.473	0.00039493	0.00018277	0.00026591	1187.2	8.4033e-06	1.5691e-05	731.31	270.94	4.5272e-06	1.1636e-05	179.58	48.022	66.616	27.137	1.5128e-05	22.652	0.0078277	0.010644	0.0029974	1238.6	0.00011456	0.00011811	787.8	289.99	0.00011142	0.00011978	221.08	61.558	79.867	31.125	0.00011375	28.852	207.922	360.041	219.778	191.820	332.976	404.674	189.990	195.978	200.495	375.116	192.884	199.090	200.911	207.117	407.826	203.581	-8191	255	
16163.389	1	1	0	0	0.12551	0.032483	0.055044	0.022157	0.10457	0.11781	0.21946	0.13553	0.036866	0.1098	0.21489	0.16215	0.12265	0.18624	0.088326	0.092472	-2.8458	-3.2458	-3.1104	-3.3667	-3.2479	-3.0687	-3.5542	-3.2146	-3.2458	-3.2771	-3.2604	-3.1354	-3.3083	-3.1125	-3.3312	-3.0292	399.633	189.646	519.193	536.940	461.751	346.280	465.940	413.889	246.279	325.860	400.096	430.739	519.055	501.607	476.073	266.553	0.00021645	0.00068385	0.0002707	1166.9	1.1782e-05	4.6002e-06	721.03	265.91	3.539e-06	1.9356e-05	174.22	46.933	65.211	26.614	5.0951e-06	22.263	0.0077354	0.010572	0.0029701	1222	0.00011355	0.00011776	777.37	284.03	0.00011096	0.0001184	215.52	60.073	77.986	30.617	0.0001111	28.08	214.752	363.252	298.595	191.974	457.332	533.908	190.242	196.246	288.974	359.597	193.356	199.095	200.870	207.162	343.181	203.658	-8191	255	
16163.461	1	1	0	0	0.13581	0.02509	0.21039	0.041371	0.16804	0.17235	0.14163	0.22337	0.26474	0.18889	0.26914	0.16459	0.066729	0.25749	0.050984	0.080188	-2.6833	-3.4813	-3.0125	-3.4604	-3.2771	-3.1	-3.3792	-3.2083	-3.1917	-3.3979	-3.1208	-3.275	-3.2062	-3.0375	-3.3625	-3.1167	461.006	440.044	460.994	506.109	208.304	511.341	225.756	462.520	364.791	185.154	532.023	320.174	188.526	203.453	280.792	446.832	0.00011837	0.00067831	0.00019387	1141.1	4.8237e-06	6.0944e-06	700.68	260.87	9.0006e-06	3.8803e-06	168.73	46.57	64.759	26.256	1.2627e-05	21.764	0.007605	0.010362	0.0029059	1197	0.00011055	0.0001158	756.5	277.38	0.00010954	0.00011539	211.24	59.248	77.453	30.293	0.00011222	27.811	263.695	348.749	275.836	192.041	453.259	279.702	190.327	196.395	367.565	384.051	193.560	198.628	201.074	207.121	209.709	203.324	-8191	255	
16163.557	1	1	0	0	0.31198	0.16703	0.42225	0.11513	0.18821	0.50904	0.16308	0.2848	0.077621	0.09058	0.10047	0.038804	0.1804	0.042523	0.14812	0.12955	-2.55	-3.2854	-3.0521	-3.3625	-3.3312	-2.9146	-3.2458	-3.3	-3.1042	-3.2812	-3.1562	-3.2208	-3.3333	-3.0438	-3.2438	-3.0542	485.789	421.477	522.384	292.073	292.608	267.209	469.688	518.103	182.155	438.514	423.516	246.628	219.602	442.311	180.186	524.233	0.00017588	0.0010988	0.00013546	1147.1	8.0262e-06	1.0986e-05	707.33	263.21	7.6275e-06	7.5767e-06	173.13	47.293	66.747	26.454	4.168e-06	22.072	0.0075665	0.010398	0.0029413	1201.9	0.00011162	0.0001171	763.33	281.24	0.00011087	0.00011758	217.4	60.528	79.421	30.674	0.00011483	28.239	226.978	454.942	354.297	191.900	285.544	392.185	190.356	196.065	295.541	323.649	193.897	198.501	201.067	207.156	222.978	203.195	-8191	255	
16163.678	1	1	0	0	0.013365	0.22636	0.13706	0.23019	0.057889	0.13401	0.27288	0.10224	0.23147	0.17474	0.18614	0.03959	0.22809	0.2223	0.075134	0.27369	-2.5667	-3.1896	-3.0292	-3.3438	-3.2854	-3.0896	-3.4333	-3.2771	-3.0958	-3.4062	-3.0521	-3.275	-3.2979	-3.1417	-3.1792	-3.3875	399.586	256.028	254.728	484.849	457.813	200.051	469.577	203.676	184.741	438.101	259.294	521.409	195.501	519.521	216.337	182.898	0.00017334	0.00072741	0.00038792	1161.4	3.8699e-06	8.102e-06	718.87	266.85	1.3811e-05	2.2085e-05	176.49	47.658	66.56	26.591	5.3149e-06	21.946	0.0078385	0.010727	0.0030023	1218.4	0.00011418	0.00012069	774.72	284.8	0.00011321	0.0001212	220.31	61.513	80.339	30.85	0.00011791	28.454	203.914	327.228	360.230	191.819	289.419	353.752	190.270	196.011	423.943	316.953	193.258	198.765	201.356	207.341	320.134	203.077	-8191	255	
16163.774	1	1	0	0	0.21905	0.067876	0.12215	0.17219	0.25569	0.10011	0.17952	0.323	0.14943	0.16825	0.066953	0.052722	0.034561	0.16999	0.21981	0.34559	-2.6562	-3.3771	-3.1021	-3.4354	-3.25	-3.1396	-3.3187	-3.2583	-3	-3.3042	-3.2646	-2.9938	-3.2375	-3.1188	-3.3812	-3.4042	329.898	354.390	482.381	201.660	304.503	506.115	440.006	445.082	199.269	326.479	343.147	513.648	201.867	477.675	204.252	438.360	0.00017857	0.00032067	0.00016983	1164	4.2434e-06	1.4477e-05	722.37	269	1.0829e-05	1.7448e-05	177.35	48.264	67.51	26.52	4.0307e-06	21.682	0.0080818	0.011115	0.0031288	1225.8	0.00011892	0.00012645	782.51	288.87	0.00011979	0.00012542	225.06	62.547	81.968	30.894	0.00012244	28.25	234.086	402.467	308.686	191.977	207.873	258.695	190.142	196.398	413.683	220.449	192.863	198.721	200.552	207.003	331.955	203.135	-8191	255	
16163.870	1	1	0	0	0.20942	0.075684	0.08871	0.13202	0.055132	0.083694	0.092718	0.33294	0.10651	0.10888	0.20747	0.11823	0.23024	0.14068	0.022682	0.18638	-2.5938	-3.2375	-3.2646	-3.1437	-3.4375	-3.0187	-3.2687	-3.4771	-2.8438	-3.3604	-3.25	-3.0396	-3.4188	-3.075	-3.1396	-3.2687	390.249	211.607	210.906	399.995	369.749	252.154	476.946	523.797	197.477	390.273	492.679	434.979	366.505	521.080	192.201	189.434	0.00022874	8.7531e-05	0.00038157	1168.4	3.7612e-06	7.7229e-06	718.08	269.67	2.0752e-05	1.2903e-05	176.61	47.713	67.039	26.258	4.7802e-06	21.451	0.0083332	0.01128	0.0031941	1233.5	0.00011997	0.00012876	782.04	288.45	0.00011939	0.00012637	222.49	61.744	81.061	30.474	0.000121	27.889	224.419	406.615	323.902	192.055	283.811	310.202	190.158	196.134	292.757	316.020	193.316	198.116	201.313	206.860	459.948	203.532	-8191	255	
16163.966	1	1	0	0	0.14047	0.18405	0.30587	0.09634	0.2102	0.10205	0.15963	0.22804	0.033493	0.23557	0.22011	0.1495	0.052627	0.26909	0.29151	0.040363	-2.45	-3.1458	-3.0792	-3.0938	-3.2542	-3.0292	-3.3229	-3.4125	-3.2292	-3.2313	-3.1958	-3.0646	-3.3667	-3.1917	-2.9688	-3.3146	333.672	512.286	488.262	439.214	515.275	418.957	421.554	412.946	329.693	216.406	194.795	179.390	510.461	239.898	275.868	529.934	0.00029214	0.0012393	0.00011707	1168.7	9.0674e-06	1.0527e-05	720.31	270.11	5.4858e-06	1.4162e-05	175.69	48.119	68.058	25.971	4.2534e-06	21.254	0.0082827	0.011178	0.0031363	1223.8	0.00011797	0.00012591	780.89	288.81	0.00011745	0.00012384	223.72	62.04	81.581	30.407	0.00012082	27.752	232.670	315.554	522.639	192.039	510.767	231.311	190.250	196.200	439.974	267.574	193.305	198.556	201.126	206.448	182.315	203.258	-8191	255	
16164.085	1	1	0	0	0.10521	0.017401	0.18227	0.034031	0.30343	0.12578	0.13583	0.18287	0.14339	0.13614	0.26755	0.061107	0.39696	0.098632	0.10999	0.024986	-2.5563	-3.2792	-3.1833	-3.1188	-3.325	-3.1562	-3.3042	-3.4958	-3.0021	-3.2417	-3.3271	-2.8667	-3.3312	-3.2875	-3.1646	-3.3417	200.410	258.738	243.087	487.937	348.805	251.780	442.155	422.247	306.431	526.669	496.394	344.838	188.543	229.272	331.665	401.252	0.00013389	0.00068345	0.00024695	1178.2	1.7735e-06	2.9701e-06	729.15	273.76	8.0293e-06	4.4838e-06	181.37	48.689	68.072	25.937	3.4869e-06	21.195	0.008323	0.011128	0.0031399	1236.9	0.00011834	0.00012658	790.58	292.79	0.00011852	0.00012641	227.28	62.768	82.88	30.459	0.00012316	27.683	261.456	188.457	325.301	191.843	213.907	526.752	190.118	196.129	287.781	423.748	193.543	198.269	200.550	206.609	267.388	203.665	-8191	255	
16164.159	1	1	0	0	0.15855	0.13656	0.15516	0.39457	0.22839	0.10815	0.28516	0.20459	0.078996	0.097973	0.48597	0.043028	0.11307	0.18951	0.1714	0.10054	-2.5917	-3.4	-3.2479	-3.1396	-3.3042	-3.3271	-3.2062	-3.375	-3.225	-3.2687	-3.5062	-2.9875	-3.4437	-3.1646	-2.8708	-3.4375	382.840	535.385	271.245	187.054	305.683	243.892	450.540	461.030	502.167	275.403	415.124	240.890	505.457	537.815	245.801	312.792	0.00030507	0.0016652	0.00026222	1176.4	4.8902e-06	1.3152e-05	726.93	271.61	1.4224e-05	1.5784e-05	177.62	47.946	67.211	25.632	3.5288e-06	20.942	0.0084762	0.011439	0.003238	1240.9	0.00012113	0.00012894	787.69	291.32	0.00012007	0.00012772	225.28	62.466	82.129	30.15	0.00012361	27.522	240.354	204.042	277.601	191.976	294.388	358.508	190.092	195.873	390.595	233.955	193.036	198.101	201.253	206.491	524.614	202.647	-8191	255	
16164.277	1	1	0	0	0.19204	0.096922	0.18432	0.30813	0.076667	0.040158	0.31266	0.31087	0.29174	0.36983	0.10898	0.23154	0.088444	0.099743	0.15283	0.18448	-2.5458	-3.0563	-3.2646	-3.0833	-3.4292	-3.2812	-3.1167	-3.35	-3.1083	-3.2	-3.4083	-3.0438	-3.1792	-3.1979	-2.9479	-3.3125	340.759	521.834	366.543	399.269	185.641	360.850	473.404	426.165	288.043	464.134	266.388	517.242	535.379	422.952	199.135	464.286	0.0001681	0.00036226	0.00027437	1187.4	1.55e-05	1.2336e-05	744.69	279.51	6.0676e-06	1.5033e-05	186.13	49.172	70.497	26.002	1.2741e-05	21.009	0.0085373	0.011697	0.003284	1253.3	0.00012506	0.00013479	811.1	301.05	0.00012668	0.00013471	237.25	64.762	85.653	30.884	0.00013103	28.203	187.776	237.886	259.689	192.059	302.363	370.571	190.084	195.850	328.093	389.221	193.091	197.785	200.097	206.095	314.871	202.941	-8191	255	
16164.374	1	1	0	0	0.073395	0.16939	0.084841	0.3742	0.17617	0.1932	0.20692	0.21588	0.093201	0.18804	0.026722	0.09262	0.1115	0.086407	0.18816	0.14866	-2.7354	-2.9938	-3.4104	-3.1854	-3.1646	-3.2896	-3.1688	-3.5312	-3.2146	-3.1063	-3.3937	-2.8646	-3.1854	-3.4333	-3.0979	-3.275	230.679	509.454	480.561	207.710	243.473	394.757	469.438	427.250	208.222	262.804	275.919	420.091	450.759	377.967	384.722	350.569	8.1277e-05	0.00076526	0.00021203	1210.7	8.5096e-06	6.2779e-06	754.15	285.56	1.2159e-05	9.9352e-06	189.72	49.505	71.147	26.03	3.6567e-06	21.055	0.0090356	0.012218	0.0034316	1275.1	0.00012929	0.00013833	824.17	305.71	0.0001287	0.00013747	239.87	65.813	86.443	30.889	0.00013329	28.328	203.395	211.577	230.218	191.755	337.895	363.556	189.929	195.846	487.514	398.595	192.506	197.988	200.273	206.617	379.282	203.392	-8191	255	
16164.470	1	1	0	0	0.15198	0.071189	0.12443	0.11286	0.040121	0.1464	0.10684	0.16767	0.16191	0.25238	0.28979	0.043513	0.4099	0.085051	0.19026	0.11131	-2.7125	-2.9875	-3.3875	-3.2062	-3.2479	-3.3854	-3.1271	-3.4458	-3.2958	-2.9771	-3.3125	-3.0896	-3.0479	-3.3333	-3.2396	-3.3021	305.549	379.040	194.288	467.270	360.249	459.788	467.587	504.041	515.119	386.461	416.271	519.667	522.282	233.597	222.536	307.838	0.00023115	0.001214	0.00016811	1198.8	9.8119e-06	1.0762e-05	749.04	281.83	2.1837e-05	1.2644e-05	185.28	49.61	70.682	26.068	1.0667e-05	21.213	0.0091172	0.012322	0.0034896	1270.8	0.00013062	0.00013969	820.91	303.81	0.00013	0.00013772	238.24	65.665	86.37	30.998	0.00013413	28.318	226.050	245.889	428.562	192.004	372.207	319.575	190.156	195.552	311.333	498.768	192.843	197.801	200.134	206.221	359.955	203.045	-8191	255	
16164.566	1	1	0	0	0.20767	0.11412	0.14984	0.096473	0.14296	0.22792	0.39594	0.17482	0.1743	0.21791	0.21215	0.30661	0.25803	0.20802	0.15779	0.11559	-2.8729	-3.0479	-3.2625	-3.2354	-3.0812	-3.2958	-3.075	-3.4667	-3.2062	-3.1396	-3.4125	-3.1917	-2.9833	-3.3208	-3.0896	-3.2687	338.692	366.414	336.921	529.135	363.478	294.406	521.072	430.300	406.628	410.339	455.318	187.843	184.970	409.766	410.861	207.794	0.00020023	0.00046817	0.00067376	1207.4	5.3689e-06	1.635e-05	756.24	284.74	1.0136e-05	1.3614e-05	191.61	50.278	71.818	26.204	2.3216e-06	21.389	0.0092167	0.012486	0.003488	1276.6	0.00013215	0.00013945	827.72	307.2	0.00013148	0.00013934	242.84	66.667	87.717	31.217	0.000136	28.611	211.991	430.865	293.520	191.698	273.786	241.540	189.985	195.964	234.354	241.130	192.383	197.360	200.287	206.257	373.383	202.606	-8191	255	
16164.687	1	1	0	0	0.18113	0.045677	0.20229	0.16092	0.16788	0.17838	0.22108	0.35014	0.17125	0.14808	0.09818	0.19534	0.15204	0.22839	0.3746	0.077688	-2.7708	-2.9667	-3.1229	-3.3583	-3.0646	-3.3854	-3.0729	-3.1188	-3.2979	-3.0563	-3.4021	-3.2333	-3.0854	-3.3771	-3.2125	-3.1104	185.803	329.745	356.919	468.506	491.776	325.632	493.499	456.501	290.269	319.241	239.215	503.087	480.619	536.012	362.817	224.890	0.00024868	0.00044881	0.00028154	1219.6	4.825e-06	9.8048e-06	761.94	286.61	1.0608e-05	2.8803e-06	190.17	50.045	70.94	26.085	4.0371e-06	21.001	0.0093186	0.012532	0.0035235	1285.7	0.00013314	0.00014013	831.86	308.31	0.00013109	0.00013969	241.86	66.377	87.248	31.173	0.0001335	28.361	529.381	450.059	214.252	191.906	512.878	495.820	189.747	195.278	260.924	346.090	192.824	197.674	200.027	206.469	266.287	202.760	-8191	255	
16164.758	1	1	0	0	0.16044	0.1678	0.03675	0.21929	0.29416	0.19002	0.061652	0.061833	0.23467	0.24449	0.21471	0.095773	0.10579	0.14193	0.063892	0.13528	-3.0104	-3.1229	-3.1604	-3.3604	-3.1479	-3.5896	-3.3625	-3.2292	-3.425	-3.0229	-3.1625	-3.2875	-3.1667	-3.3063	-3.1208	-3.2292	246.493	276.002	275.249	479.706	190.025	241.972	456.305	502.669	300.756	206.462	406.080	386.369	457.204	301.458	283.454	335.605	9.3216e-05	0.0019098	0.00012778	1202.8	8.4909e-06	1.1136e-05	750.24	281.65	7.9292e-06	1.4417e-05	191.23	50.093	71.44	25.916	8.3702e-06	21.194	0.0091975	0.012623	0.0035089	1275.3	0.00013197	0.0001401	825.89	305.85	0.00013277	0.00014162	242.57	66.54	87.362	31.13	0.00013831	28.457	529.977	297.770	268.864	191.813	322.286	334.616	189.881	195.864	420.547	374.370	192.778	197.079	200.043	206.268	490.592	202.918	-8191	255	
16164.854	1	1	0	0	0.23664	0.20683	0.032278	0.2388	0.27499	0.13637	0.34751	0.32572	0.066912	0.22915	0.24264	0.079408	0.12291	0.093893	0.21989	0.025746	-2.8729	-3.2062	-3.2354	-3.4646	-3.1521	-3.3229	-3.15	-3.2438	-3.3812	-3.1021	-3.1229	-3.1646	-3.1	-3.4938	-3.3542	-3.0958	243.435	244.365	444.927	217.359	253.336	227.912	508.326	496.037	237.219	349.858	439.413	423.973	215.743	301.605	278.202	358.742	0.00023731	0.00033701	9.8413e-05	1207.6	1.4348e-05	4.9922e-06	755.68	285.91	5.5049e-06	5.5901e-06	191.98	50.742	72.27	26.356	8.7501e-06	21.278	0.0093195	0.012939	0.0036095	1285.5	0.00013648	0.00014399	834.32	309.02	0.00013548	0.0001428	243.95	67.408	88.42	31.521	0.00013865	28.778	188.255	322.146	480.184	191.941	299.431	362.903	189.842	195.423	529.470	178.023	193.144	197.375	199.919	206.918	335.054	202.439	-8191	255	
#DATA ENDS
