BOXY.EXE: ISS Imagent and Oximeter Data Acquisition Program Version 0.80
Ascii Record File

#ACQ INFORMATION
2  Detector Channels 
16  External MUX Channels 
1  Auxiliary Channels 
5000  Waveform (CCF) Frequency (Hz)
1  Waveforms Skipped 
30  Waveforms Averaged 
1  Cycles Averaged 
16  Acquisitions per Waveform 
10.0806  Updata Rate (Hz) 

#FILE INFORMATION
TRUE -- External MUX Channel results are PARSED.
FALSE -- AC DC and Phase are NOT grouped.
TRUE -- Companion Program Settings File CREATED.
FALSE -- AC data not excluded
FALSE -- DC data not excluded
FALSE -- Phase data not excluded
FALSE -- Auxillary Chn. data not excluded
Tab delimiters

#CALIBRATION STATE
TRUE -- Waveform Calibration Values APPLIED.


#AUX CALIBRATION VALUES
Val Type	aux-1	

Term	1.0000e+00	
Factor	0.0000e+00	


#WF CALIBRATION VALUES
A = Detector Channel
Val Type	A-AC1	A-AC2	A-AC3	A-AC4	A-AC5	A-AC6	A-AC7	A-AC8	A-AC9	A-AC10	A-AC11	A-AC12	A-AC13	A-AC14	A-AC15	A-AC16	A-DC1	A-DC2	A-DC3	A-DC4	A-DC5	A-DC6	A-DC7	A-DC8	A-DC9	A-DC10	A-DC11	A-DC12	A-DC13	A-DC14	A-DC15	A-DC16	A-Ph1	A-Ph2	A-Ph3	A-Ph4	A-Ph5	A-Ph6	A-Ph7	A-Ph8	A-Ph9	A-Ph10	A-Ph11	A-Ph12	A-Ph13	A-Ph14	A-Ph15	A-Ph16	

Term	0.00000e+00	0.00000e+00	0.00000e+00	0.00000e+00	0.00000e+00	0.00000e+00	0.00000e+00	0.00000e+00	0.00000e+00	0.00000e+00	0.00000e+00	0.00000e+00	0.00000e+00	0.00000e+00	0.00000e+00	0.00000e+00	0.00000e+00	0.00000e+00	0.00000e+00	0.00000e+00	0.00000e+00	0.00000e+00	0.00000e+00	0.00000e+00	0.00000e+00	0.00000e+00	0.00000e+00	0.00000e+00	0.00000e+00	0.00000e+00	0.00000e+00	0.00000e+00	0.00000e+00	0.00000e+00	0.00000e+00	0.00000e+00	0.00000e+00	0.00000e+00	0.00000e+00	0.00000e+00	0.00000e+00	0.00000e+00	0.00000e+00	0.00000e+00	0.00000e+00	0.00000e+00	0.00000e+00	0.00000e+00	
Factor	1.00000e+00	1.00000e+00	1.00000e+00	1.00000e+00	1.00000e+00	1.00000e+00	1.00000e+00	1.00000e+00	1.00000e+00	1.00000e+00	1.00000e+00	1.00000e+00	1.00000e+00	1.00000e+00	1.00000e+00	1.00000e+00	1.00000e+00	1.00000e+00	1.00000e+00	1.00000e+00	1.00000e+00	1.00000e+00	1.00000e+00	1.00000e+00	1.00000e+00	1.00000e+00	1.00000e+00	1.00000e+00	1.00000e+00	1.00000e+00	1.00000e+00	1.00000e+00	X	X	X	X	X	X	X	X	X	X	X	X	X	X	X	X	

B = Detector Channel
Val Type	B-AC1	B-AC2	B-AC3	B-AC4	B-AC5	B-AC6	B-AC7	B-AC8	B-AC9	B-AC10	B-AC11	B-AC12	B-AC13	B-AC14	B-AC15	B-AC16	B-DC1	B-DC2	B-DC3	B-DC4	B-DC5	B-DC6	B-DC7	B-DC8	B-DC9	B-DC10	B-DC11	B-DC12	B-DC13	B-DC14	B-DC15	B-DC16	B-Ph1	B-Ph2	B-Ph3	B-Ph4	B-Ph5	B-Ph6	B-Ph7	B-Ph8	B-Ph9	B-Ph10	B-Ph11	B-Ph12	B-Ph13	B-Ph14	B-Ph15	B-Ph16	

Term	0.00000e+00	0.00000e+00	0.00000e+00	0.00000e+00	0.00000e+00	0.00000e+00	0.00000e+00	0.00000e+00	0.00000e+00	0.00000e+00	0.00000e+00	0.00000e+00	0.00000e+00	0.00000e+00	0.00000e+00	0.00000e+00	0.00000e+00	0.00000e+00	0.00000e+00	0.00000e+00	0.00000e+00	0.00000e+00	0.00000e+00	0.00000e+00	0.00000e+00	0.00000e+00	0.00000e+00	0.00000e+00	0.00000e+00	0.00000e+00	0.00000e+00	0.00000e+00	-4.91106e+01	-1.29134e+02	-1.27521e+02	-1.82803e+02	-4.69321e+01	-6.59653e+01	-1.55300e+02	-1.62015e+02	-3.08113e+01	-5.60136e+01	-1.72433e+02	-1.69655e+02	-1.79183e+02	-1.77693e+02	-4.59966e+01	-1.49676e+02	
Factor	2.21910e-05	1.68420e-04	4.73740e-05	1.71963e-01	2.02722e-06	1.93536e-06	1.62812e-01	5.14453e-02	1.28848e-06	1.77628e-06	9.95207e-02	3.07250e-02	2.96854e-02	1.01395e-02	1.68739e-06	1.45673e-02	8.04080e-06	1.07497e-05	2.97371e-06	8.54535e-02	1.12668e-07	1.18595e-07	7.62481e-02	2.57182e-02	1.11776e-07	1.19426e-07	4.83138e-02	1.49934e-02	1.50207e-02	5.11324e-03	1.16012e-07	7.12113e-03	X	X	X	X	X	X	X	X	X	X	X	X	X	X	X	X	



#DISTANCE SETTINGS
A = Detector Channel
A-1	A-2	A-3	A-4	A-5	A-6	A-7	A-8	A-9	A-10	A-11	A-12	A-13	A-14	A-15	A-16	

2.5000e+00	3.0000e+00	2.5000e+00	3.0000e+00	2.0000e+00	3.0000e+00	1.5000e+00	3.0000e+00	3.0000e+00	3.0000e+00	3.0000e+00	3.0000e+00	3.0000e+00	3.0000e+00	1.5000e+00	3.0000e+00	

B = Detector Channel
B-1	B-2	B-3	B-4	B-5	B-6	B-7	B-8	B-9	B-10	B-11	B-12	B-13	B-14	B-15	B-16	

1.0000e+01	1.0000e+01	1.0000e+01	1.4400e+00	1.0000e+01	1.0000e+01	1.5100e+00	1.9400e+00	1.0000e+01	1.0000e+01	1.9900e+00	2.4900e+00	2.4100e+00	2.9000e+00	1.0000e+01	2.9800e+00	




#DATA BEGINS
time	group	step	mark	flag	A-AC1	A-AC2	A-AC3	A-AC4	A-AC5	A-AC6	A-AC7	A-AC8	A-AC9	A-AC10	A-AC11	A-AC12	A-AC13	A-AC14	A-AC15	A-AC16	A-DC1	A-DC2	A-DC3	A-DC4	A-DC5	A-DC6	A-DC7	A-DC8	A-DC9	A-DC10	A-DC11	A-DC12	A-DC13	A-DC14	A-DC15	A-DC16	A-Ph1	A-Ph2	A-Ph3	A-Ph4	A-Ph5	A-Ph6	A-Ph7	A-Ph8	A-Ph9	A-Ph10	A-Ph11	A-Ph12	A-Ph13	A-Ph14	A-Ph15	A-Ph16	B-AC1	B-AC2	B-AC3	B-AC4	B-AC5	B-AC6	B-AC7	B-AC8	B-AC9	B-AC10	B-AC11	B-AC12	B-AC13	B-AC14	B-AC15	B-AC16	B-DC1	B-DC2	B-DC3	B-DC4	B-DC5	B-DC6	B-DC7	B-DC8	B-DC9	B-DC10	B-DC11	B-DC12	B-DC13	B-DC14	B-DC15	B-DC16	B-Ph1	B-Ph2	B-Ph3	B-Ph4	B-Ph5	B-Ph6	B-Ph7	B-Ph8	B-Ph9	B-Ph10	B-Ph11	B-Ph12	B-Ph13	B-Ph14	B-Ph15	B-Ph16	aux-1	digaux	

41353.730	1	1	0	512	0.29717	0.13314	0.098931	0.14328	0.18005	0.20474	0.18424	0.11741	0.076349	0.10782	0.14627	0.11649	0.2984	0.4493	0.037109	0.23943	-2.6417	-2.8208	-2.6312	-3.0667	-2.8333	-3.0854	-3.1375	-3.0896	-3.0354	-2.9062	-2.9938	-3.2188	-2.7667	-2.9083	-2.9875	-2.8625	188.592	213.911	25.405	250.935	15.735	66.204	-58.659	283.908	31.118	141.351	-44.387	-47.229	253.956	-58.787	-40.166	152.636	0.00024362	0.00078332	0.0003386	725.27	6.8613e-06	5.9123e-06	754.76	408.14	1.0129e-06	4.3335e-06	443.99	163.83	160.11	66.954	3.4771e-06	69.262	0.0008613	0.00098442	0.00027227	710.91	1.3558e-05	1.0787e-05	742.02	401.94	1.0578e-05	1.2895e-05	434.84	161.52	159.48	66.355	1.068e-05	68.568	248.452	35.854	1.480	-54.624	99.265	41.672	-55.546	-50.856	149.984	88.734	-53.353	-49.083	-46.854	-41.686	94.324	-44.951	-8191	255	
41353.828	1	1	0	0	0.25133	0.12776	0.22589	0.16442	0.065412	0.26248	0.3084	0.25411	0.25732	0.13699	0.20017	0.15256	0.090117	0.1631	0.14651	0.058505	-2.7167	-2.8458	-3.0146	-3.0625	-2.6458	-2.975	-3.2042	-2.8958	-2.9125	-2.6625	-3.0083	-3.1125	-2.9729	-2.9208	-3.1167	-2.7313	78.473	175.224	221.507	232.994	270.462	180.571	246.455	138.568	-11.402	-35.508	182.381	251.098	-42.166	281.014	90.669	226.473	0.00022857	0.00087718	0.00016945	730.4	2.3836e-06	8.7315e-06	769.01	412.31	2.5658e-06	1.4803e-05	446.95	164.8	161.48	66.694	5.7962e-06	70.016	0.00084216	0.00097679	0.00027333	715.24	1.2417e-05	1.0541e-05	753.35	404.61	1.0524e-05	1.2019e-05	440.01	163.02	160.59	66.514	1.0398e-05	69.204	241.325	23.863	22.755	-54.664	67.252	113.262	-55.758	-50.736	151.439	86.580	-53.509	-49.283	-46.910	-41.602	115.027	-45.139	-8191	255	
41353.902	1	1	0	0	0.38873	0.15711	0.11011	0.23172	0.11169	0.1022	0.23296	0.33584	0.12021	0.15748	0.11239	0.34937	0.20398	0.16456	0.24084	0.15664	-2.5521	-2.9521	-2.575	-3.2458	-2.9167	-2.9354	-3.1625	-3.0083	-3.1312	-3.0938	-2.8229	-3.2438	-2.9917	-2.8167	-3.1125	-2.8708	16.476	278.674	-31.723	246.635	16.148	106.948	148.355	282.440	-28.739	-40.809	-37.367	231.936	-45.768	273.318	70.707	187.144	0.00019432	0.0010661	7.4666e-05	732.4	1.2916e-05	9.4969e-06	778.11	413.93	2.1298e-06	4.4383e-06	452.39	165.52	162.34	67.283	8.9695e-06	69.678	0.00085259	0.0009765	0.00026563	720.8	1.3156e-05	1.0454e-05	765.94	407.2	1.0349e-05	1.0655e-05	443.42	163.64	160.74	66.738	1.0608e-05	69.161	243.301	21.429	15.935	-54.799	69.987	89.072	-55.748	-50.541	158.947	107.505	-53.579	-49.198	-47.021	-41.708	91.332	-45.361	-8191	255	
41354.020	1	1	0	0	0.25973	0.17991	0.15266	0.17013	0.25165	0.23697	0.2464	0.24116	0.039438	0.07607	0.0998	0.24076	0.078702	0.16715	0.14241	0.27853	-2.75	-3.0938	-2.6437	-3.1521	-2.9542	-2.875	-3.1125	-2.8542	-2.9688	-3.0083	-2.9188	-3.0687	-3.0083	-2.8625	-2.9854	-2.9333	226.525	114.177	276.439	236.664	-27.455	24.509	254.487	216.823	-67.146	110.931	151.568	285.929	-59.022	274.433	284.863	219.196	0.0002208	0.00061132	0.0001804	728.46	1.008e-05	7.6782e-06	750.89	410.97	1.8488e-06	7.178e-06	441.99	163.55	161.2	66.766	7.3346e-06	69.696	0.00085459	0.00094828	0.00026753	715.15	1.2353e-05	1.056e-05	739.21	402.96	1.0607e-05	1.0368e-05	435.75	161.63	159.88	66.606	1.0614e-05	69.051	250.222	6.421	14.801	-54.622	63.618	85.252	-56.084	-50.603	53.860	78.912	-53.377	-49.287	-47.003	-41.570	92.666	-45.039	-8191	255	
41354.117	1	1	0	0	0.22421	0.081482	0.05186	0.13897	0.24121	0.32573	0.17825	0.13787	0.068712	0.12058	0.20574	0.15364	0.31843	0.31906	0.30016	0.15061	-2.5604	-3.1146	-2.7396	-3.0833	-2.85	-2.6979	-3.2104	-3.0021	-2.8104	-3.2042	-2.9354	-3.1708	-2.9958	-2.8167	-3.1063	-3.0375	54.430	-30.178	63.575	-54.536	82.874	-6.884	158.181	280.855	-17.706	215.441	224.206	228.822	-32.117	-14.355	204.425	-63.234	0.00023313	0.00056861	0.00023178	724.74	1.1614e-05	8.2007e-06	760.76	410.26	3.6938e-06	3.0862e-06	446.96	164.48	161.61	67.526	5.7417e-06	70.406	0.00084125	0.00095997	0.00026586	713.82	1.1313e-05	1.1894e-05	744.42	404.17	1.0092e-05	1.0469e-05	439.31	162.93	160.7	67.071	1.0224e-05	69.591	243.206	8.340	20.963	-54.660	73.339	96.601	-55.767	-50.756	207.464	46.299	-53.429	-49.066	-46.868	-41.557	106.896	-45.181	-8191	255	
41354.211	1	1	0	0	0.15407	0.080293	0.072708	0.16233	0.24395	0.09215	0.16507	0.1321	0.20769	0.17636	0.064293	0.18496	0.11233	0.049763	0.099841	0.21108	-2.4562	-2.9437	-2.8875	-3.0604	-3.1042	-2.9396	-3.1771	-3.0083	-2.7542	-3.25	-2.9688	-3.0792	-2.9542	-2.9229	-2.8812	-3.0354	236.663	267.476	280.851	-34.277	23.360	-3.126	-33.514	267.140	11.481	97.249	246.200	-5.915	177.785	147.692	275.223	127.913	0.00021264	0.00066584	0.00015414	727.63	4.6126e-06	9.6503e-06	769.3	415.56	2.0784e-06	5.742e-06	451.91	167	162.7	67.875	5.2346e-06	71.236	0.00084281	0.00095141	0.00026526	717.27	9.9439e-06	1.2717e-05	754.92	407.34	1.0434e-05	1.0561e-05	442.73	164.85	161.7	67.574	1.067e-05	70.4	246.747	30.519	17.121	-54.570	112.584	50.265	-55.834	-50.799	101.872	96.917	-53.171	-49.366	-46.836	-41.640	75.293	-45.351	-8191	255	
41354.309	1	1	0	0	0.031533	0.26594	0.13457	0.34504	0.30928	0.032405	0.020975	0.19324	0.15731	0.070356	0.18236	0.14769	0.10179	0.15897	0.21623	0.059572	-2.2833	-3.0812	-2.775	-3.0729	-3.0125	-2.7292	-3.0917	-2.9146	-2.6437	-3.2917	-2.9938	-2.8542	-3.1542	-2.9271	-2.9979	-3.125	48.584	-1.422	150.789	-56.978	236.654	-26.431	46.778	242.417	-35.395	155.511	-5.036	86.152	7.274	195.597	207.178	270.365	0.0002089	0.00057071	0.00015751	734.27	4.4319e-06	7.0601e-06	763.59	410.6	2.1888e-06	3.6789e-06	443.52	163.91	162.2	67.299	3.2614e-06	70.525	0.00083755	0.00095838	0.00026257	720.31	9.8381e-06	1.3665e-05	748.03	404.34	1.0161e-05	1.0389e-05	437.05	162.31	160.67	67.14	1.0547e-05	69.562	242.583	-6.562	18.575	-54.703	97.703	59.365	-55.826	-50.591	96.594	110.640	-53.396	-49.334	-47.046	-41.526	102.883	-45.150	-8191	255	
41354.430	1	1	0	0	0.34682	0.10192	0.24417	0.19588	0.06725	0.20053	0.31165	0.15692	0.30059	0.13268	0.12088	0.20792	0.058843	0.24578	0.04275	0.030429	-2.4042	-2.9958	-2.8333	-2.9167	-3.0542	-2.7917	-3.1354	-3.1063	-2.6167	-3.0875	-2.8167	-2.9604	-3.3187	-2.7938	-2.8167	-3.1	15.477	245.028	171.753	267.847	263.329	108.135	217.700	266.316	158.983	-21.101	-62.654	238.172	-8.604	269.368	24.481	-66.234	0.00030665	0.0007389	0.00015486	723.14	4.8449e-06	1.0917e-05	752.15	409.66	3.4831e-06	5.2921e-06	443.05	164.47	162.77	67.564	7.6754e-06	70.611	0.00092163	0.00096696	0.00026873	711.11	9.859e-06	1.2656e-05	734.1	403.11	1.023e-05	1.0633e-05	437.1	162.53	161.29	67.316	1.054e-05	69.719	260.148	4.711	9.529	-54.852	99.614	49.309	-55.830	-50.612	57.093	68.737	-53.536	-49.311	-46.887	-41.547	113.885	-45.268	-8191	255	
41354.500	1	1	0	0	0.057789	0.068761	0.10489	0.17936	0.21139	0.092298	0.10072	0.26938	0.054382	0.074796	0.047114	0.17528	0.08678	0.18216	0.10749	0.13626	-2.2271	-3.0312	-2.8646	-3.0458	-2.9875	-2.7771	-3.2687	-3.0729	-2.8167	-3.1437	-2.8729	-2.9104	-3.125	-3.0021	-3	-3.2771	94.244	82.393	278.786	196.170	141.989	-50.805	263.088	227.103	74.869	98.634	242.661	176.809	211.037	243.740	-39.203	152.834	0.00022192	0.00067958	0.00022346	727.24	4.025e-06	7.7366e-06	760.86	411.95	3.091e-06	4.348e-06	446.09	166.64	162.93	67.902	5.2247e-06	71.303	0.00097597	0.00094248	0.00026423	714.68	9.8411e-06	1.3609e-05	744.53	405.21	1.0204e-05	1.0424e-05	439.75	164.4	161.94	67.577	1.0373e-05	70.435	244.380	-3.622	22.920	-54.658	114.568	77.435	-55.521	-50.662	126.789	104.715	-53.228	-49.260	-46.699	-41.906	145.217	-45.313	-8191	255	
41354.598	1	1	0	0	0.18527	0.23423	0.14772	0.057337	0.16345	0.23681	0.1132	0.26738	0.34324	0.21533	0.010299	0.051205	0.15504	0.068824	0.087416	0.10648	-2.35	-3.0396	-2.8063	-2.8542	-3.05	-2.8521	-3.0333	-3.3375	-2.6312	-2.9896	-2.9083	-2.7438	-3.0521	-3.0646	-2.8458	-3.3375	41.110	9.856	131.821	53.082	119.947	33.689	204.802	259.704	196.032	202.989	213.923	-54.039	-33.099	205.536	219.223	284.682	0.0002687	0.00053205	0.00019192	731.68	7.4516e-06	6.9998e-06	774.28	413.81	3.2634e-06	6.0159e-06	449.22	166.76	163.18	67.772	2.2788e-06	70.798	0.0010287	0.00094965	0.00025882	718.32	9.881e-06	1.2454e-05	758.73	407.49	1.0225e-05	1.0411e-05	441.81	164.71	161.83	67.469	1.0173e-05	69.982	263.395	5.094	40.061	-54.468	80.201	69.277	-55.549	-50.726	131.457	119.262	-53.325	-49.220	-46.875	-41.500	154.140	-45.210	-8191	255	
41354.719	1	1	0	0	0.18198	0.20208	0.13484	0.30272	0.31945	0.11756	0.14077	0.17469	0.23967	0.25344	0.10847	0.11914	0.057508	0.078651	0.16324	0.33571	-2.2562	-2.8375	-2.75	-2.8312	-2.9333	-2.7062	-2.9542	-3.2396	-2.5938	-2.9229	-3.2354	-2.9562	-3.2167	-2.8625	-2.6604	-3.2188	65.756	62.384	179.055	233.173	8.365	62.685	-62.766	219.864	-47.451	82.571	239.103	-51.130	264.691	123.404	239.989	229.239	0.00023698	0.00057617	0.00017309	727.59	8.0598e-06	9.0672e-06	748.95	409.39	3.6697e-06	6.6534e-06	441.55	164.22	161.59	67.908	3.8261e-06	71.03	0.00097121	0.00094911	0.00025644	713.73	9.981e-06	1.317e-05	733.11	403.53	1.0179e-05	1.039e-05	434.35	162.4	160.87	67.396	1.027e-05	69.888	252.526	18.860	11.772	-54.568	88.977	44.984	-55.720	-50.481	104.522	52.574	-53.401	-49.559	-47.119	-41.740	81.201	-45.211	-8191	255	
41354.812	1	1	0	0	0.087905	0.10505	0.15213	0.28044	0.12542	0.066861	0.29037	0.16546	0.10744	0.16855	0.1848	0.11957	0.18135	0.14979	0.20837	0.38511	-2.3417	-2.8125	-2.8312	-2.5375	-2.9729	-2.9333	-2.8708	-3.2583	-2.8937	-2.9646	-3.1625	-2.9979	-3.1	-3.1604	-2.8625	-3.0417	271.825	-64.194	8.302	-48.457	235.979	-64.315	235.374	260.606	-54.463	62.526	-29.234	-49.863	3.723	47.214	277.488	262.565	0.00024944	0.00085057	0.00019906	729.61	5.2833e-06	1.1124e-05	754.38	409.25	2.5914e-06	6.7128e-06	444.29	164.85	163.33	68.042	5.3437e-06	71.282	0.0010413	0.00093424	0.00025779	713.23	1.0156e-05	1.2247e-05	737.41	404.04	1.017e-05	1.0312e-05	437	163.47	161.44	67.793	1.0218e-05	70.375	256.274	26.958	15.513	-54.653	103.837	79.960	-55.745	-50.790	178.633	86.555	-53.518	-49.250	-47.074	-41.790	106.944	-45.247	-8191	255	
41354.910	1	1	0	0	0.013741	0.21187	0.27107	0.16211	0.19611	0.15054	0.38217	0.43973	0.38148	0.14784	0.19158	0.23499	0.24448	0.11094	0.16151	0.082568	-2.4854	-2.6813	-2.8625	-2.8229	-3.0312	-3.0187	-2.8375	-3.1417	-2.8063	-2.8146	-3.2208	-2.8479	-3.0146	-3.0458	-2.7833	-3.3	206.919	194.607	45.820	231.427	-20.996	159.610	161.645	286.705	6.979	22.722	259.392	272.628	-66.095	225.886	225.956	217.221	0.00023566	0.00091704	0.00010436	730.31	5.8497e-06	1.1838e-05	762.66	412.27	5.3858e-07	7.9668e-06	450.35	165.86	163.23	68.524	5.6196e-06	71.909	0.00096017	0.00092886	0.00025589	715.76	9.7932e-06	1.0927e-05	748.4	405.75	1.0162e-05	1.0014e-05	441.13	164.71	162.05	68.134	1.0169e-05	71.049	262.452	19.937	-4.652	-55.131	97.290	65.094	-55.942	-50.727	241.110	68.379	-53.599	-49.178	-46.987	-41.701	128.922	-45.280	-8191	255	
41355.027	1	1	0	0	0.26039	0.20531	0.1927	0.088235	0.1741	0.11856	0.1611	0.12766	0.2208	0.1096	0.16974	0.14381	0.39522	0.19574	0.074827	0.26957	-2.6521	-2.7521	-3.0125	-2.9792	-2.8688	-3.0438	-2.8229	-3.1833	-2.9729	-2.8063	-3.2271	-2.9729	-3.0083	-3.1917	-2.7604	-3.0896	79.886	50.816	23.336	266.729	-41.466	199.432	257.731	234.267	-49.983	132.530	253.120	177.774	267.257	249.036	-7.700	226.826	0.00021163	0.0010679	0.00014172	731.3	6.5682e-06	3.0673e-06	754.63	411.4	4.4286e-06	7.9447e-06	443.26	164.05	161.57	68.059	6.5101e-06	70.782	0.001027	0.00092488	0.00025598	716.32	9.6639e-06	9.9625e-06	740.18	404.57	1.0098e-05	1.008e-05	434.79	162.46	160.59	67.762	1.0314e-05	70.116	247.468	13.412	22.271	-54.848	118.278	121.269	-55.811	-50.647	91.177	110.468	-53.467	-49.473	-47.243	-41.718	107.524	-45.383	-8191	255	
41355.102	1	1	0	0	0.37036	0.17151	0.11733	0.28783	0.17562	0.14321	0.15751	0.13626	0.064204	0.20784	0.15372	0.020725	0.23486	0.25822	0.11042	0.23506	-2.6146	-2.7521	-3.15	-2.9313	-2.9313	-3.05	-2.6729	-3.2208	-2.8583	-2.7188	-3.25	-2.9062	-3.0354	-3.1312	-2.8	-3.0938	207.044	161.353	173.958	257.506	197.800	269.525	114.891	-66.207	161.043	208.920	-61.076	169.430	271.486	242.211	21.727	258.110	0.00023607	0.00059702	0.00020766	722.87	5.6222e-06	5.9095e-06	753.92	411.08	1.956e-06	5.5732e-06	445.79	164.07	161.48	68.268	4.752e-06	71.631	0.00093203	0.00092188	0.0002548	712.34	9.7874e-06	1.0086e-05	738.57	404.04	9.9064e-06	1.0423e-05	436.44	162.47	160.76	67.937	1.0486e-05	70.728	254.516	19.547	4.809	-54.554	140.374	98.843	-55.791	-50.510	126.249	82.860	-53.445	-49.248	-47.063	-41.770	140.647	-45.351	-8191	255	
41355.195	1	1	0	0	0.17003	0.2143	0.17294	0.2159	0.13062	0.043708	0.25148	0.086512	0.21019	0.16475	0.12511	0.29673	0.17541	0.36783	0.16119	0.17274	-2.4417	-2.7458	-2.9562	-2.9771	-2.8521	-3.1729	-2.9021	-3.1479	-3.0979	-2.7625	-3.1979	-3.0604	-2.8896	-3.2062	-2.7646	-2.9979	5.128	205.452	31.753	270.727	280.300	-33.896	266.162	279.523	120.336	102.871	257.949	158.189	82.066	286.134	54.262	196.369	0.0002584	0.00067443	0.00015437	730.47	7.1687e-06	7.9029e-06	764.74	412.97	1.501e-06	4.0827e-06	445.32	165.62	162.4	68.644	5.1414e-06	71.792	0.00085929	0.0011427	0.000263	717.39	9.928e-06	1.054e-05	751.18	406.03	1.0119e-05	1.046e-05	439.34	164.4	161.09	68.145	1.0879e-05	71.125	254.962	30.097	0.076	-54.721	130.977	59.314	-55.867	-50.573	125.139	67.320	-53.495	-49.309	-46.924	-41.492	115.708	-45.313	-8191	255	
41355.316	1	1	0	0	0.15788	0.1171	0.21325	0.04767	0.23744	0.086759	0.062624	0.28143	0.17933	0.15298	0.23385	0.14615	0.32766	0.14027	0.12384	0.21368	-2.5312	-2.6688	-3.0208	-2.8708	-2.7229	-3.1354	-2.8792	-2.9583	-3.0958	-2.7417	-2.9917	-2.9833	-2.7354	-3.2583	-2.7167	-3.0708	92.166	221.564	223.782	-42.502	190.916	181.661	214.549	287.739	128.380	171.843	-64.191	-58.178	214.546	-58.312	187.685	281.215	0.0002012	0.00094167	0.00021649	736.01	1.0548e-05	4.5382e-06	785.13	413.59	4.4033e-06	7.0574e-06	450.96	164.88	162.49	68.336	4.5915e-06	71.853	0.00084229	0.0011736	0.00027399	723.37	1.0334e-05	1.0737e-05	767.29	408.12	1.0293e-05	1.0863e-05	441.81	163.99	160.91	68.001	1.0581e-05	70.881	231.405	22.187	32.578	-54.611	131.286	78.599	-55.794	-50.769	116.127	110.320	-53.296	-49.194	-46.999	-41.772	58.463	-45.375	-8191	255	
41355.414	1	1	0	0	0.16004	0.39961	0.18979	0.2224	0.11088	0.12516	0.41052	0.26963	0.076871	0.24175	0.17727	0.15828	0.35718	0.16308	0.22989	0.29363	-2.6625	-2.6521	-2.8646	-3.0125	-2.7354	-2.9521	-3.05	-2.9646	-3.0896	-2.6562	-2.9938	-3.2604	-2.8812	-3.2917	-2.7396	-2.6125	93.181	169.176	38.703	249.760	258.520	83.450	226.553	253.053	-65.315	12.255	185.048	275.113	286.949	209.672	182.076	233.042	0.00021976	0.00055298	0.00010953	725.08	4.9587e-06	1.0023e-05	756.02	410.2	4.2087e-06	5.4469e-06	444.4	163.59	160.97	68.601	9.398e-06	71.873	0.00084288	0.0012267	0.00026973	714.75	1.0265e-05	1.056e-05	743.35	403.85	1.0441e-05	1.0823e-05	436.16	162.13	160.21	68.175	1.0598e-05	71.14	250.844	-12.950	11.777	-54.925	81.927	85.113	-55.464	-50.607	79.965	144.785	-53.576	-49.228	-46.922	-41.754	129.120	-45.031	-8191	255	
41355.512	1	1	0	0	0.2925	0.15826	0.12381	0.11609	0.19674	0.11817	0.36461	0.078855	0.066966	0.024689	0.48254	0.16319	0.18467	0.19275	0.13139	0.19142	-2.4958	-2.8208	-2.9104	-3.1396	-2.5479	-2.9792	-3.0042	-2.9917	-3.1125	-2.7979	-2.9958	-3.1333	-2.7438	-3.175	-2.8729	-2.7188	46.187	-8.067	275.314	250.535	-64.700	120.356	178.709	261.290	216.228	54.837	260.729	-60.997	58.921	196.976	106.146	265.790	0.00028831	0.00053704	0.00030157	732.63	3.5087e-06	7.1531e-06	765.11	413.05	9.9718e-07	7.907e-06	449.64	165.66	162.46	68.782	3.4756e-06	72.937	0.00084603	0.0011754	0.00026505	719.19	1.0365e-05	1.072e-05	754.5	406.32	1.0342e-05	1.0772e-05	439.16	163.7	161.57	68.765	1.0813e-05	71.995	255.853	-33.031	26.478	-54.763	73.830	69.852	-55.793	-50.953	111.755	91.207	-53.514	-49.438	-46.970	-41.752	98.752	-45.261	-8191	255	
41355.605	1	1	0	0	0.085406	0.086937	0.10056	0.24297	0.19592	0.10908	0.16086	0.32593	0.24149	0.12903	0.43224	0.22306	0.1138	0.088541	0.16948	0.23575	-2.4958	-2.7646	-2.7854	-3.0854	-2.7646	-3.0438	-3.1146	-2.8667	-2.9313	-2.825	-2.8812	-3.0708	-2.8146	-3.2146	-3.0375	-2.8646	87.189	-55.062	-61.453	248.775	93.436	215.374	233.225	241.799	251.079	216.815	256.249	-51.549	250.215	184.225	-22.291	229.032	0.0001983	0.00064335	0.00014998	737.04	7.0782e-06	7.0296e-06	772.03	414.36	1.2013e-06	6.522e-06	450.59	166.86	162.51	69.744	2.5783e-06	73.565	0.00084854	0.0012474	0.00027133	722.98	1.0506e-05	1.0798e-05	760.58	408.07	1.0417e-05	1.083e-05	442.02	164.96	162.07	69.415	1.08e-05	72.782	250.139	-12.427	2.704	-54.700	93.441	87.015	-55.775	-50.852	110.237	94.392	-53.403	-49.243	-46.794	-41.617	95.686	-45.307	-8191	255	
41355.727	1	1	0	0	0.25464	0.094782	0.061128	0.23634	0.18366	0.22558	0.31723	0.30878	0.12605	0.18562	0.1184	0.073829	0.29196	0.31547	0.11422	0.14593	-2.5833	-2.825	-2.7625	-3.2083	-2.7875	-2.8458	-3.1354	-2.8979	-3.1125	-2.9375	-2.9479	-3.0479	-2.8312	-3.0333	-3.0021	-2.7125	-16.374	183.017	110.509	191.951	-45.599	103.924	-68.366	224.693	12.742	145.899	253.175	29.974	215.846	192.185	36.718	-13.232	0.00022353	0.00072009	0.00014212	735.92	8.0039e-06	5.9579e-06	763.98	410.95	2.5518e-06	4.6611e-06	443.61	163.98	161.03	69.759	2.2933e-06	72.991	0.00085266	0.0012051	0.00027186	722.82	1.0534e-05	1.0742e-05	749.87	405.07	1.0525e-05	1.0569e-05	434.82	162.22	160.42	69.287	1.0678e-05	72.165	253.257	16.058	40.519	-54.715	81.594	82.654	-55.591	-50.482	90.250	116.677	-53.410	-49.454	-46.581	-41.570	156.890	-45.559	-8191	255	
41355.797	1	1	0	0	0.09457	0.21208	0.084451	0.28878	0.053549	0.029943	0.27563	0.37554	0.18477	0.1994	0.13077	0.23934	0.28765	0.10528	0.14418	0.16305	-2.525	-2.8125	-2.5125	-3.1167	-2.7938	-2.9313	-3.1937	-2.9938	-3.1083	-2.8563	-3.05	-3.1833	-2.8896	-2.8708	-3.075	-2.9271	30.050	256.516	-22.538	201.583	233.269	-26.448	183.819	290.652	281.164	201.408	-46.834	176.282	291.102	139.307	-46.930	163.245	0.00016465	0.00076238	0.00022693	727.44	4.4331e-06	6.9941e-06	756.59	410.62	3.2448e-06	7.7757e-06	441.84	164.37	161.45	69.671	8.0278e-06	73.455	0.00086459	0.0012399	0.0002721	715.17	1.0399e-05	1.0838e-05	739.84	404.18	1.0533e-05	1.0887e-05	434.43	162.81	161.1	69.392	1.0452e-05	72.531	245.285	15.659	17.847	-54.677	89.668	76.700	-55.991	-50.678	93.636	86.184	-53.806	-49.307	-46.833	-41.738	78.164	-44.891	-8191	255	
41355.891	1	1	0	0	0.2177	0.16307	0.17374	0.26618	0.08802	0.085094	0.25725	0.20577	0.12658	0.19382	0.10452	0.1113	0.14806	0.31909	0.14295	0.14685	-2.4896	-2.9208	-2.7729	-3.3625	-2.7833	-2.8333	-3.1188	-2.8667	-2.9125	-2.9646	-2.8729	-3.2	-2.9979	-2.875	-3.1833	-2.9479	-51.436	263.032	137.024	228.742	-21.874	-44.932	189.005	213.812	17.526	256.141	155.186	229.272	189.763	-52.763	115.205	125.335	0.0002471	0.00087864	0.00013526	731.73	5.5555e-06	4.8566e-06	763.65	411.97	1.9185e-06	9.3323e-06	445.11	166.09	162.14	69.726	5.397e-06	73.994	0.00086449	0.0011142	0.00027994	718.43	1.0401e-05	1.0811e-05	746.52	405.19	1.0425e-05	1.0617e-05	436.73	164.17	161.45	69.401	1.0408e-05	72.84	245.646	14.373	19.029	-54.577	83.879	87.696	-55.756	-50.650	137.788	81.755	-53.487	-49.002	-47.181	-41.544	129.211	-44.937	-8191	255	
41355.988	1	1	0	0	0.099888	0.15993	0.14962	0.18917	0.11708	0.080198	0.25721	0.22404	0.13018	0.33404	0.14098	0.25141	0.12385	0.23236	0.29242	0.24802	-2.3979	-3.0062	-2.7125	-3.0792	-2.8125	-2.7229	-3.1063	-2.9646	-3.0542	-3.1021	-2.9229	-3.2687	-2.9604	-3.0583	-3.025	-2.925	100.116	-67.565	24.786	17.539	128.959	-10.873	-15.935	238.883	184.484	183.262	182.512	281.585	178.313	279.789	-1.080	227.391	0.00018736	0.0012489	0.00023764	732.09	7.6611e-06	6.9463e-06	769.41	411.35	3.5191e-06	2.1561e-06	445.51	164.77	161.93	69.471	4.4302e-06	73.439	0.00084186	0.00097889	0.00031899	719.12	1.0237e-05	1.0674e-05	755.77	405.28	1.0307e-05	1.0531e-05	435.98	163.04	161.09	69.102	1.055e-05	72.085	239.867	-19.694	6.082	-54.671	115.390	60.910	-55.926	-50.874	95.956	100.103	-53.387	-49.495	-46.949	-41.683	122.861	-45.402	-8191	255	
41356.109	1	1	0	0	0.17669	0.17777	0.2284	0.39579	0.1468	0.18979	0.33134	0.27669	0.16214	0.10729	0.10769	0.31963	0.20048	0.27038	0.1317	0.20168	-2.5479	-3.0125	-2.65	-3.0583	-2.9042	-2.85	-3.225	-3.0979	-2.8167	-3.1063	-2.8729	-3.0854	-2.9437	-2.8438	-3.1896	-2.8875	127.557	181.697	243.491	248.802	266.688	252.374	245.334	235.998	-18.820	142.273	-37.237	181.866	258.661	-55.812	275.476	71.309	0.00025608	0.00066542	0.00015717	723.77	9.1822e-06	1.1415e-05	745.83	407.03	5.3356e-06	6.6029e-06	438.49	163.75	161.51	69.401	4.1683e-06	73.182	0.00084253	0.00095359	0.00031504	709.43	1.01e-05	1.0405e-05	730	401.45	1.0183e-05	1.0287e-05	430.8	162.06	160.18	68.988	1.0581e-05	72.05	250.301	25.065	14.402	-54.604	91.756	73.844	-55.915	-50.716	89.784	75.080	-53.527	-49.157	-47.079	-41.724	118.563	-45.322	-8191	255	
41356.203	1	1	0	0	0.18119	0.12197	0.049569	0.19435	0.14655	0.06351	0.099677	0.46908	0.12472	0.15588	0.053046	0.16831	0.21252	0.30443	0.10602	0.092879	-2.2604	-2.8958	-2.7208	-3.1104	-3.1646	-2.6063	-3.1271	-3.0583	-2.8875	-3.1063	-2.8438	-3.1042	-3.0375	-2.9354	-3.0729	-3.1521	149.300	280.126	48.319	254.308	203.654	149.852	227.055	256.840	95.284	-18.880	163.142	-39.281	235.806	276.846	99.630	42.588	0.00023792	0.0005449	0.00033871	723.97	3.4099e-06	5.3514e-06	748.45	408.13	1.8373e-06	9.0684e-06	441.12	164.94	161.68	69.434	2.877e-06	73.393	0.00084567	0.00095695	0.00033826	711.43	1.0294e-05	1.0622e-05	736.94	401.83	1.0384e-05	1.0653e-05	432.64	162.71	160.44	69.398	1.0768e-05	72.427	254.665	28.259	5.612	-54.793	136.583	57.037	-55.704	-50.601	148.122	82.532	-53.472	-48.978	-46.952	-41.668	124.239	-45.259	-8191	255	
41356.301	1	1	0	0	0.1139	0.18827	0.15186	0.14619	0.16517	0.37167	0.27009	0.11874	0.3185	0.25712	0.078652	0.15	0.07652	0.1488	0.2441	0.11764	-2.4146	-3.2458	-2.7125	-2.8708	-3.0417	-2.6562	-3.1896	-3.1896	-2.8312	-2.9562	-2.8667	-2.8833	-3.3271	-2.7938	-3.0667	-3	-19.855	-64.720	-53.186	273.485	62.263	177.398	220.939	231.342	83.189	30.226	183.997	20.795	-8.847	277.024	-59.366	36.457	0.00019231	0.00057508	0.00022506	726.23	3.6418e-06	9.3667e-06	760.41	410.32	2.6572e-06	7.9507e-06	441.87	165.2	161.98	69.539	6.204e-06	73.401	0.00084578	0.00097327	0.00032218	714.22	1.0004e-05	1.0576e-05	743.41	402.99	1.0312e-05	1.0733e-05	435.59	163.71	160.97	69.418	1.0716e-05	72.384	251.074	19.170	6.224	-54.622	107.388	73.500	-55.913	-50.734	165.742	67.260	-53.223	-49.560	-46.995	-41.735	136.316	-45.140	-8191	255	
41356.398	1	1	0	0	0.16447	0.2559	0.088119	0.12833	0.093406	0.095008	0.10907	0.23738	0.143	0.21097	0.22909	0.17215	0.08335	0.16067	0.039314	0.048349	-2.3187	-3.1063	-2.9125	-2.9625	-3.1417	-2.7354	-2.9854	-3.1437	-2.8063	-3.075	-2.95	-3.0229	-3.1208	-2.7896	-3.0042	-3.1479	181.025	217.527	157.984	207.177	276.804	197.566	14.439	281.082	114.904	84.239	260.999	213.125	22.003	-30.633	-30.370	19.812	0.00019192	0.00057263	0.00031453	724.18	4.226e-06	5.8429e-06	742.41	404.18	3.4077e-06	3.8293e-06	436.15	162.83	160.57	69.039	5.5795e-06	72.465	0.00084025	0.00097462	0.00034293	709.5	1.0205e-05	1.0738e-05	727.85	397.95	1.0736e-05	1.0664e-05	427.52	160.97	159.45	68.872	1.0747e-05	71.563	250.626	19.219	11.197	-54.697	93.779	65.277	-55.707	-50.721	178.396	64.871	-53.545	-49.252	-46.848	-41.601	111.043	-45.300	-8191	255	
41356.492	1	1	0	0	0.062354	0.24588	0.11292	0.20523	0.15043	0.22757	0.25548	0.14734	0.1283	0.071514	0.22646	0.33722	0.27225	0.15823	0.19143	0.25066	-2.3208	-3.0021	-2.9646	-2.7583	-3.225	-2.7208	-3.1542	-3.2875	-2.8	-3.2	-2.9125	-2.8521	-3.2667	-2.7417	-2.8958	-3.2146	270.079	-63.919	-6.398	-40.551	-40.512	208.312	129.721	259.849	141.642	121.321	37.117	219.340	250.224	247.731	54.864	231.463	0.00023605	0.00051938	0.00031748	713.7	6.0578e-06	1.0714e-05	741.56	403.27	2.571e-06	5.2535e-06	434.14	162.98	160.72	69.301	5.4073e-06	72.622	0.00085236	0.00096337	0.00032298	703.87	1.0169e-05	1.0763e-05	724.97	397.16	1.2725e-05	1.0814e-05	427.96	161.38	159.53	69.092	1.08e-05	71.677	240.309	18.292	-6.944	-54.713	115.616	77.463	-55.830	-50.445	195.219	73.439	-53.419	-49.000	-47.056	-41.618	107.931	-45.278	-8191	255	
41356.590	1	1	0	0	0.1321	0.21954	0.095383	0.17134	0.099682	0.14785	0.17228	0.32774	0.14828	0.1145	0.13416	0.35207	0.069088	0.17188	0.23088	0.062691	-2.225	-3.0792	-2.8083	-2.7979	-3.15	-2.8771	-2.9521	-3.1396	-2.7104	-2.8271	-2.9562	-2.8625	-3.2125	-3.0687	-2.8063	-3.2438	-24.191	58.685	112.306	127.233	-59.252	26.880	240.452	225.659	213.437	45.359	290.846	222.442	155.968	255.494	271.521	208.432	0.00021816	0.00074509	0.00033027	721.96	2.135e-06	8.5661e-06	746.43	403.42	3.6446e-06	7.2135e-06	438.1	164.08	161.12	69.402	6.0979e-06	72.822	0.00084221	0.00097574	0.00034368	708.15	1.0184e-05	1.08e-05	730.78	396.53	1.2343e-05	1.069e-05	429.66	162.02	159.87	69.09	1.085e-05	71.943	248.857	21.633	14.419	-54.586	176.350	81.053	-55.827	-50.606	230.744	108.410	-53.398	-49.383	-47.011	-41.825	90.415	-45.334	-8191	255	
41356.711	1	1	0	0	0.096835	0.17477	0.16891	0.26507	0.11699	0.18131	0.32888	0.14541	0.154	0.32132	0.12096	0.11864	0.13529	0.21395	0.14842	0.11579	-2.2354	-3.0062	-2.925	-2.65	-3.0417	-2.8438	-2.8771	-3.2562	-2.7271	-2.9	-3.1625	-2.8354	-3.1354	-2.8708	-2.7333	-3.1979	-46.738	-26.095	228.044	191.319	-47.724	160.958	286.158	120.236	125.416	-29.396	267.711	261.325	274.791	-36.039	61.801	184.918	0.00020199	0.00042358	0.0002393	721.35	8.7137e-06	1.5485e-07	744.77	403.3	2.6306e-07	4.0292e-06	432.7	162.66	160.19	68.716	1.7312e-06	71.931	0.00085628	0.00099403	0.00029767	707.89	1.0323e-05	1.0927e-05	730.71	395.74	1.3285e-05	1.0812e-05	425.87	160.74	159.38	68.699	1.0552e-05	71.209	246.806	42.479	-9.526	-54.856	111.247	53.163	-55.786	-50.471	271.332	-27.489	-53.357	-49.133	-46.811	-41.800	204.977	-45.178	-8191	255	
41356.805	1	1	0	0	0.088164	0.26764	0.2452	0.072594	0.052893	0.082242	0.026422	0.2223	0.13659	0.19227	0.15937	0.14145	0.32697	0.27711	0.35275	0.1993	-2.3479	-2.9958	-2.9542	-2.7938	-3.0583	-2.9021	-3.0292	-3.2104	-2.6979	-2.9021	-3.1167	-2.9979	-3.1437	-3.1958	-2.7896	-3.2417	234.465	134.604	248.938	60.429	-23.568	-49.625	278.400	225.837	143.695	243.744	251.281	-57.204	278.070	212.305	-31.081	176.205	0.00029197	0.0007547	0.00032171	710.27	1.7068e-06	7.9414e-06	733.22	401.38	3.6036e-06	7.6318e-06	432.08	162.12	160.35	69.07	4.1536e-06	72.599	0.00085715	0.00096145	0.00026273	703.31	1.0265e-05	1.0575e-05	718.81	394.36	1.2061e-05	1.0615e-05	425.12	160.57	159.55	68.898	1.0436e-05	71.702	239.110	-1.882	33.029	-54.549	118.414	71.107	-55.745	-50.684	152.834	88.143	-53.170	-49.287	-47.130	-41.599	110.912	-45.415	-8191	255	
41356.902	1	1	0	0	0.15453	0.15719	0.076874	0.18591	0.22806	0.21298	0.29472	0.11183	0.14643	0.070924	0.0381	0.15272	0.044187	0.13016	0.19019	0.38462	-2.4542	-2.9062	-2.9562	-2.725	-3.05	-2.8563	-2.7542	-3.2896	-2.7062	-2.9188	-3.1792	-2.9104	-3.0729	-3.25	-2.4479	-3.0167	131.556	249.074	207.575	149.782	272.545	47.332	255.671	280.882	42.356	251.165	-17.608	225.417	183.026	-65.622	-6.456	235.173	0.00017528	0.0005587	0.00021073	719.4	7.6184e-06	1.0562e-05	745.58	404.7	2.7383e-06	1.0275e-05	436.56	164.7	161.35	69.629	5.8659e-06	73.372	0.00083294	0.00093374	0.00026053	708.5	1.0055e-05	1.0252e-05	726.77	397.5	1.2998e-05	1.0342e-05	429.07	162.22	160.34	69.14	1.0944e-05	72.291	240.045	1.089	19.756	-54.690	114.104	67.697	-55.971	-50.640	208.458	104.076	-53.144	-49.276	-47.104	-41.754	122.345	-45.281	-8191	255	
41356.996	1	1	0	0	0.036925	0.18575	0.26777	0.028098	0.25375	0.10691	0.19926	0.095258	0.095801	0.1659	0.12761	0.3214	0.20211	0.16912	0.16742	0.31491	-2.4083	-2.8333	-3.1333	-2.9313	-2.9688	-2.9792	-2.8187	-3.2583	-2.8312	-2.7396	-3.0812	-2.7979	-3.0438	-3.1854	-2.7458	-3.1417	276.124	81.967	9.372	182.762	260.948	-35.025	233.988	221.628	-4.184	191.361	-24.979	272.709	203.473	-62.980	48.785	274.004	0.00019481	0.00039714	0.00018792	719.78	8.154e-06	4.6391e-06	745.62	404.63	2.5708e-06	3.4895e-06	437.16	163.89	160.83	69.036	1.1936e-06	72.424	0.00082338	0.00094217	0.00025979	709.97	1.0042e-05	1.0201e-05	731.43	398.86	1.2137e-05	1.0459e-05	429.75	161.88	159.86	68.717	1.3121e-05	71.64	235.937	60.076	21.157	-54.803	99.215	54.671	-55.962	-50.665	174.038	92.907	-53.265	-49.387	-46.779	-41.462	61.650	-45.214	-8191	255	
41357.094	1	1	0	0	0.20437	0.11191	0.06811	0.3088	0.095619	0.031564	0.27544	0.18168	0.13697	0.07224	0.15107	0.19728	0.086051	0.21591	0.16768	0.14024	-2.5792	-2.9188	-3.0104	-2.875	-2.9	-3.0792	-2.9625	-3.1792	-2.7542	-2.7167	-3.1063	-2.8583	-2.8521	-3.0292	-2.7062	-3.1437	-58.014	272.516	14.428	195.498	-53.359	-9.235	178.022	-63.480	156.537	143.485	265.782	255.752	0.578	-59.616	55.301	-43.070	0.00020183	0.00064743	0.00016635	714.88	5.3339e-06	7.7785e-06	727.28	400.18	4.7373e-06	1.0957e-05	431.29	161.08	158.69	68.574	5.5128e-06	71.393	0.00084727	0.0009616	0.00026141	702.86	1.0182e-05	1.044e-05	714.02	392.81	1.2744e-05	1.043e-05	422.61	159.45	158.53	68.13	1.2829e-05	70.579	249.976	8.923	35.040	-54.652	93.580	50.014	-55.776	-50.644	150.584	110.975	-53.484	-48.975	-46.902	-41.629	53.145	-44.933	-8191	255	
41357.191	1	1	0	0	0.34288	0.039768	0.1433	0.13067	0.06904	0.062083	0.12246	0.15044	0.24442	0.20395	0.12877	0.14923	0.094168	0.13045	0.1155	0.27014	-2.5396	-2.7792	-3.1542	-3.0083	-2.7771	-3.2438	-2.9104	-3.1771	-2.9042	-2.8521	-3.2396	-2.9354	-2.7646	-3.2375	-2.8479	-3.15	125.278	-9.180	181.494	-11.137	-64.231	213.047	231.609	174.428	189.528	192.075	224.896	243.221	-24.179	278.317	26.789	180.169	0.00026238	0.00058882	0.0001969	710.4	5.1127e-06	3.4255e-06	722.62	398.77	1.5507e-06	4.2171e-06	427.97	161.28	159.78	68.337	5.856e-06	71.692	0.00082996	0.00095807	0.00027235	698.69	1.0058e-05	1.0492e-05	710.28	391.78	1.1122e-05	1.1194e-05	421.52	159.55	158.61	68.317	1.3389e-05	70.921	239.885	18.233	39.008	-54.093	126.669	78.535	-56.096	-50.340	103.434	179.050	-53.544	-49.255	-47.027	-41.651	48.323	-45.006	-8191	255	
41357.285	1	1	0	0	0.24079	0.039403	0.27276	0.22143	0.16213	0.16131	0.18385	0.22479	0.039239	0.2243	0.33281	0.23504	0.40253	0.27208	0.2229	0.43602	-2.475	-2.7188	-2.9667	-2.8854	-2.8333	-3.0958	-2.8312	-3.0667	-3.0271	-2.7792	-3.1562	-3.05	-3.0646	-3.1125	-2.8292	-2.9542	43.082	-59.123	-17.287	238.275	263.644	68.611	232.134	229.101	62.932	55.077	252.593	239.480	283.492	-40.326	0.374	221.047	0.00020645	0.00062157	0.00020964	712.36	8.832e-06	5.5077e-06	734.4	398.19	8.0365e-07	6.485e-06	430.64	162.09	159.66	68.776	2.7554e-06	72.536	0.00082953	0.00095697	0.00026364	700.27	9.7557e-06	1.0512e-05	717.12	392.29	1.0113e-05	1.338e-05	424.24	160.64	159.29	68.617	1.2423e-05	71.558	246.263	12.604	21.911	-54.900	85.647	103.874	-56.092	-50.387	42.091	152.928	-53.152	-49.274	-46.773	-41.618	73.460	-44.983	-8191	255	
41357.406	1	1	0	0	0.038839	0.038395	0.11485	0.048862	0.13084	0.072934	0.2957	0.26132	0.24794	0.26996	0.16219	0.37291	0.213	0.089636	0.11947	0.1874	-2.6354	-2.5563	-3.0104	-2.9375	-2.7896	-3.275	-2.8979	-2.9896	-3.0792	-2.8875	-3.0042	-3.0396	-2.8104	-3.0125	-2.6667	-2.9146	285.703	-63.853	280.957	255.510	216.222	-33.779	221.628	273.915	286.074	147.630	213.674	253.268	250.444	107.957	222.554	291.099	0.00020527	0.0010698	0.00015472	711.52	4.155e-06	7.5212e-06	734.41	398.09	4.4369e-06	4.3526e-06	430.81	162.25	161.05	69.009	5.1418e-06	72.039	0.00082834	0.00097589	0.00026967	703.28	1.0001e-05	1.0558e-05	719.03	392.75	1.0021e-05	1.282e-05	423.01	160.31	159.35	68.628	1.331e-05	71.202	252.209	6.057	45.103	-54.654	87.866	68.414	-55.896	-50.563	153.496	102.144	-53.003	-49.308	-46.968	-41.407	60.390	-45.066	-8191	255	
41357.504	1	1	0	0	0.10574	0.12331	0.019152	0.296	0.23437	0.044641	0.22022	0.25235	0.19657	0.21735	0.13136	0.20386	0.1372	0.060347	0.096286	0.23709	-2.6813	-2.6854	-2.9479	-3.0938	-2.6937	-3.2125	-3.0667	-2.7562	-3.1	-2.8021	-3.0458	-3.05	-2.9083	-3.1646	-3.0604	-2.7562	220.859	32.719	-6.766	274.444	187.479	48.808	226.183	191.511	-16.873	221.756	70.795	-35.573	25.590	-47.500	-22.094	188.699	0.00024753	0.00061742	5.8185e-05	713.71	6.0266e-06	3.8309e-06	723.22	395.34	1.8926e-06	3.7822e-06	429.72	162.58	160.9	69.022	2.5361e-06	72.573	0.00082849	0.0009556	0.00026664	697.85	1.08e-05	1.0494e-05	709.37	390.33	1.0119e-05	1.3567e-05	422.06	160.63	159.44	68.726	1.2397e-05	71.659	241.554	27.591	54.599	-54.782	134.115	79.985	-55.786	-50.422	4.987	121.013	-53.315	-48.926	-46.519	-41.456	91.585	-45.025	-8191	255	
41357.598	1	1	0	0	0.11716	0.071371	0.13888	0.23354	0.093522	0.061229	0.14454	0.18238	0.27238	0.1202	0.061932	0.091331	0.20406	0.12375	0.013557	0.12579	-2.6646	-2.5938	-2.8979	-2.9479	-2.5875	-3.1312	-3.1417	-2.8292	-3.1417	-2.6958	-2.8854	-3.2167	-2.7229	-2.8604	-2.975	-2.8583	255.985	165.897	32.766	269.432	158.861	-63.094	245.908	250.030	237.338	104.032	-49.883	218.266	231.787	-16.556	133.452	266.324	0.0002126	0.0006539	0.00017798	713.81	1.4833e-05	8.996e-06	734.98	398.11	4.2957e-06	4.4461e-06	433.15	164.24	161.46	69.804	1.1145e-05	73.603	0.00083524	0.00093896	0.00026146	700.98	1.26e-05	1.0215e-05	718.06	392.25	9.9488e-06	1.2489e-05	425.05	162.15	160.46	69.5	1.2913e-05	72.662	251.946	6.834	10.538	-54.637	131.410	97.978	-55.791	-50.619	86.907	120.882	-53.357	-49.207	-46.912	-41.755	102.953	-45.152	-8191	255	
41357.672	1	1	0	0	0.25201	0.094347	0.19852	0.064844	0.11805	0.13417	0.23962	0.22653	0.10112	0.077988	0.17032	0.1064	0.048005	0.53614	0.15555	0.31589	-2.6729	-2.7687	-2.7729	-3.1688	-2.6625	-3.0938	-3.0167	-2.8583	-2.8208	-2.8104	-2.825	-3.2292	-2.9729	-2.9771	-3.0104	-2.8958	102.049	-55.176	22.575	191.524	236.710	236.848	258.449	244.814	81.705	148.755	205.067	-61.015	207.393	259.545	127.485	253.698	0.00018315	0.0004543	0.00022588	720.49	9.0036e-06	4.9681e-06	739.44	402.24	4.6298e-06	4.4888e-06	435.63	165.25	162.15	69.771	6.0605e-06	73.696	0.00081291	0.00093043	0.00025799	707.04	1.1855e-05	1.0192e-05	724.33	395.24	9.9911e-06	1.3239e-05	428.51	162.97	160.87	69.602	1.0962e-05	72.732	239.972	3.548	3.688	-54.768	84.209	96.721	-55.723	-50.534	100.045	147.360	-53.291	-49.186	-46.840	-41.488	55.203	-44.913	-8191	255	
41357.789	1	1	0	0	0.10444	0.17556	0.13052	0.041708	0.089434	0.099951	0.14229	0.24645	0.084551	0.17898	0.24845	0.18914	0.13408	0.30101	0.17228	0.27415	-2.6167	-2.9167	-2.85	-3.15	-2.8208	-2.9146	-2.9896	-2.9188	-2.8729	-2.8667	-2.7812	-3.0625	-3	-2.8458	-2.9625	-2.8333	208.543	115.755	237.754	100.939	237.483	147.983	206.824	216.550	128.014	46.553	220.387	267.680	96.751	199.952	289.493	175.445	0.00020762	0.00079479	0.00021982	715	9.7458e-06	4.4066e-06	726.65	399.11	4.6388e-06	4.5903e-06	432.84	162.68	161.23	69.626	5.0383e-06	73.361	0.00081963	0.00094438	0.00025656	702.6	1.2654e-05	1.0057e-05	714.65	392.79	9.9264e-06	1.2178e-05	424.5	160.91	160.15	69.267	9.9947e-06	72.477	255.143	-14.390	29.667	-54.505	122.795	55.968	-55.823	-50.401	132.310	113.386	-53.272	-49.163	-46.742	-41.613	145.460	-44.722	-8191	255	
41357.887	1	1	0	0	0.098042	0.16113	0.087624	0.12019	0.15096	0.086967	0.13715	0.046835	0.090247	0.25947	0.20278	0.069508	0.40127	0.15545	0.35444	0.23671	-2.6292	-2.9375	-2.8271	-3.2125	-2.8312	-2.975	-3.3521	-3.0729	-2.8896	-2.8937	-2.9146	-3.1458	-2.8646	-3.0083	-2.9917	-2.8917	78.320	191.028	-6.145	82.165	127.594	123.721	245.356	222.662	20.805	23.145	220.836	-23.495	209.466	253.371	166.765	185.572	0.00024058	0.00075831	0.00016946	711.38	8.1199e-06	8.8743e-06	729.47	398.76	1.0072e-06	5.4438e-06	431.6	163.43	161.16	69.805	8.3262e-06	73.435	0.00080579	0.00092989	0.00025226	702.53	1.1827e-05	1.0064e-05	715.09	392.57	1.0074e-05	1.2763e-05	424.27	161.45	160.06	69.279	9.8284e-06	72.703	250.670	36.117	-0.377	-54.470	106.607	101.873	-55.997	-50.582	66.530	61.950	-53.357	-49.101	-46.947	-41.696	101.108	-45.264	-8191	255	
41357.980	1	1	0	0	0.19157	0.041301	0.12909	0.23065	0.19938	0.043132	0.12245	0.32477	0.094188	0.24784	0.098173	0.32771	0.073288	0.080003	0.18022	0.058185	-2.5729	-2.8354	-2.7313	-3.225	-2.9229	-2.7917	-3.2438	-3.0146	-2.9354	-2.85	-2.8083	-2.925	-2.9562	-2.7104	-3.1708	-2.9813	69.549	205.147	-62.857	-67.568	7.421	141.320	246.438	238.962	168.634	141.435	198.080	257.896	137.211	155.193	150.589	234.782	0.00023704	0.00034795	0.00022077	715.62	7.4603e-06	6.1222e-06	730.97	398.09	2.7588e-06	6.4545e-06	430.79	161.78	159.59	68.404	2.5076e-06	71.982	0.00081207	0.00090718	0.00025016	703.69	1.2626e-05	1.0038e-05	718.39	391.44	9.9071e-06	1.0771e-05	423.16	160.51	158.53	68.066	1.0065e-05	71.21	252.944	55.024	20.784	-54.470	131.692	130.813	-55.681	-50.293	-1.020	79.275	-53.212	-49.121	-46.598	-41.572	99.547	-44.936	-8191	255	
41358.078	1	1	0	0	0.057282	0.11798	0.11953	0.24616	0.072094	0.17434	0.21979	0.19547	0.065415	0.096349	0.23101	0.202	0.13535	0.061232	0.34144	0.11745	-2.475	-2.8354	-2.8021	-3.0104	-2.9938	-2.8937	-3.1188	-2.8187	-2.6979	-2.9646	-2.6604	-3.2708	-3.0167	-2.8458	-3.1	-2.9062	199.011	247.867	212.805	-57.294	65.235	-51.247	222.802	198.429	201.166	21.167	242.575	256.755	188.513	279.535	203.629	245.021	0.00027435	0.00048357	0.00028201	709.77	4.0546e-06	1.1227e-05	718.18	388.19	4.1199e-06	7.0409e-06	418.19	156.95	155.12	64.934	7.1052e-06	67.366	0.0008074	0.00089366	0.00025231	695.74	1.1803e-05	9.9274e-06	700.94	382.11	9.8703e-06	9.9992e-06	412.3	155.81	154.33	64.735	1.0563e-05	66.689	237.320	-17.664	72.683	-54.611	131.715	97.808	-55.628	-50.365	102.945	92.853	-53.306	-48.973	-46.814	-41.612	114.304	-45.007	-8191	255	
41358.199	1	1	0	0	0.13137	0.085812	0.11749	0.24783	0.083426	0.10537	0.35402	0.29439	0.047152	0.19351	0.17066	0.09313	0.1297	0.26849	0.091302	0.10603	-2.4062	-2.9562	-2.7042	-2.925	-2.7854	-2.6792	-3.1667	-2.9375	-2.7354	-3.0833	-2.6479	-2.9729	-3.1333	-2.8688	-2.9958	-2.8	207.292	96.277	-12.256	188.896	122.652	264.014	245.892	259.571	204.663	71.078	222.547	235.335	233.075	229.649	55.520	155.750	0.00024403	0.00072469	0.00020163	685.81	1.4876e-05	2.895e-06	686.77	371.69	4.0558e-06	7.5687e-06	399.89	150.69	148.37	59.267	3.1773e-06	60.452	0.00081721	0.00092248	0.00026174	676.05	1.2493e-05	1.0152e-05	674.55	365.48	1.0321e-05	1.0734e-05	393.8	149.26	147.42	58.914	1.1068e-05	60.175	242.408	31.067	37.632	-54.640	96.586	162.760	-55.696	-50.426	90.204	95.626	-53.306	-48.860	-46.600	-41.275	45.249	-44.655	-8191	255	
41358.270	1	1	0	0	0.33569	0.089239	0.060367	0.11338	0.14726	0.011068	0.034021	0.090362	0.13371	0.15347	0.11309	0.17172	0.1857	0.31451	0.18832	0.099877	-2.2854	-3.0229	-2.7188	-3.0354	-3.0021	-2.7562	-3.0438	-2.8729	-2.8125	-3.15	-2.8583	-3.1104	-2.8896	-2.5812	-3.1708	-3.0583	199.464	135.666	43.966	163.193	-45.555	88.066	209.677	239.933	8.908	235.655	42.271	-4.386	245.667	252.169	-59.750	120.439	0.00021018	0.0006586	0.0002013	671.58	9.0449e-06	4.0487e-06	664.61	352.44	3.3403e-07	7.0618e-06	381.56	142.25	140.05	55.691	6.4875e-06	57.936	0.00085894	0.0010138	0.000277	661.29	1.1304e-05	1.2558e-05	655.36	347.43	1.0719e-05	1.1625e-05	376.41	140.5	139.12	55.549	1.1984e-05	57.353	250.991	18.475	3.185	-54.576	77.368	56.395	-55.748	-50.146	-42.966	114.868	-53.221	-48.661	-46.485	-41.048	92.438	-44.450	-8191	255	
41358.391	1	1	0	0	0.065186	0.11	0.17996	0.12868	0.22411	0.13113	0.11258	0.24181	0.17656	0.19292	0.087385	0.1192	0.15838	0.081756	0.14284	0.19205	-2.2396	-3.1333	-2.7021	-3.0229	-3.0417	-2.7167	-3.0792	-3.1104	-2.6437	-3.1646	-2.9292	-2.9854	-2.9958	-2.8312	-3.1396	-2.9708	280.558	-62.894	88.701	93.483	93.575	21.419	200.787	213.964	79.077	-36.111	-50.194	186.275	240.137	183.328	-67.536	194.383	0.00018421	0.00048285	0.00014432	659.32	1.4453e-06	8.5344e-06	659.89	342.49	3.4628e-06	6.4348e-06	368.29	134.44	135.16	53.618	3.8016e-06	55.294	0.0009023	0.0011069	0.00031295	649.94	1.1928e-05	1.5122e-05	647.54	337.24	1.2365e-05	1.2966e-05	363.82	133.27	134.59	53.74	1.2727e-05	54.98	254.691	26.382	54.157	-54.735	160.322	141.771	-55.746	-50.001	104.897	72.572	-52.779	-48.517	-46.133	-41.002	136.042	-44.425	-8191	255	
41358.488	1	1	0	0	0.17082	0.22603	0.23624	0.15234	0.30153	0.037463	0.20299	0.1011	0.01752	0.10365	0.22622	0.12274	0.097791	0.013764	0.30996	0.14966	-2.2333	-3.1458	-2.7125	-2.8771	-2.95	-2.9167	-3.0312	-3	-2.8812	-3.275	-2.9875	-2.8438	-3.2438	-2.9104	-3.0938	-3.0333	22.844	201.667	-43.571	214.831	249.886	101.723	209.093	241.626	284.649	75.285	-9.156	102.254	246.091	277.473	64.340	86.356	0.00022071	0.00061541	0.00019209	644.53	1.1284e-05	5.8663e-06	638.66	333.4	3.5023e-06	4.3301e-06	356.24	128.9	130.77	52.33	5.9411e-06	53.591	0.00096134	0.0011671	0.00032617	638.64	1.2813e-05	1.566e-05	629.46	328.74	1.3151e-05	1.3884e-05	352.03	128.31	131.15	52.46	1.4601e-05	53.284	250.437	34.934	41.654	-54.468	69.007	141.491	-55.587	-49.870	124.083	92.975	-52.990	-48.586	-46.118	-40.757	159.942	-44.285	-8191	255	
41358.582	1	1	0	0	0.35311	0.14919	0.21241	0.19081	0.17444	0.23016	0.095009	0.069471	0.064285	0.1338	0.16731	0.28011	0.121	0.213	0.16517	0.13275	-2.3625	-2.9417	-2.775	-2.9604	-3.05	-2.8292	-3.1771	-3.2375	-2.7667	-3.0646	-2.9604	-3.0271	-3.1833	-2.8521	-2.7458	-3.1146	82.758	65.167	286.531	-36.511	-12.871	-59.388	231.109	190.586	-58.779	178.316	131.711	242.381	167.297	-22.837	193.754	22.846	0.00014735	0.0007037	0.00010663	636.99	1.625e-06	7.4792e-06	624.21	323.84	5.0102e-06	4.2868e-06	343.01	123.77	127.53	50.655	9.5065e-07	51.468	0.0011814	0.0013889	0.00038715	631.47	1.5215e-05	1.8859e-05	617.77	319.93	1.6382e-05	1.7758e-05	341.7	124.03	127.81	51.035	2.1283e-05	51.75	209.596	31.080	40.939	-54.853	218.105	134.822	-55.740	-49.916	39.984	80.882	-53.138	-48.585	-46.090	-40.836	158.674	-44.372	-8191	255	
41358.680	1	1	0	0	0.24071	0.1169	0.12333	0.20454	0.09094	0.30086	0.14574	0.22512	0.12096	0.15721	0.16849	0.082678	0.15912	0.1322	0.058451	0.075359	-2.2104	-2.9417	-2.9188	-2.8292	-3.0854	-2.8604	-2.9521	-3.2562	-2.8625	-3.0187	-3.1625	-2.8271	-3.1125	-3.0812	-2.9	-3.2229	228.359	248.968	-50.265	252.625	-8.694	232.722	253.780	220.632	82.151	204.197	243.271	205.494	-42.989	262.588	63.185	67.038	0.00015578	0.00089762	7.0239e-05	641.09	1.1584e-05	8.6397e-06	615.95	317.79	3.8636e-06	7.6524e-06	332.3	118.07	121.6	48.354	8.5111e-06	48.979	0.0019175	0.0023218	0.00063603	643.57	2.856e-05	3.449e-05	620.81	319.47	3.9591e-05	4.4219e-05	343.07	121.42	126.26	49.825	4.9136e-05	50.978	238.536	29.677	-34.995	-54.754	75.802	94.718	-56.004	-49.831	172.404	60.927	-52.520	-48.879	-46.239	-40.789	96.313	-44.433	-8191	255	
41358.801	1	1	0	0	0.061804	0.31965	0.11069	0.36699	0.11072	0.024854	0.23812	0.20221	0.17208	0.077752	0.24719	0.16142	0.081631	0.24625	0.15084	0.056448	-2.3104	-2.9146	-2.8833	-3.0833	-3.0479	-2.8667	-2.7042	-3.0729	-2.6688	-2.8208	-3.1646	-2.6833	-3.1813	-3.0854	-2.8375	-2.9208	-11.299	76.838	-47.677	202.179	-27.648	-11.510	232.737	237.231	86.843	152.079	117.057	-21.647	208.494	-41.716	161.548	-7.161	8.8514e-05	0.0010283	0.00032046	640.37	9.3518e-06	5.4368e-06	592.55	306.65	5.7405e-06	4.9696e-06	320.71	114.51	118.58	47.18	6.7035e-06	47.541	0.003821	0.0049168	0.0013817	661.58	5.3305e-05	5.8894e-05	612.85	313.27	5.5231e-05	5.837e-05	334.33	119.42	124.48	49.155	5.7944e-05	50.2	209.063	-51.216	20.799	-54.505	190.492	82.501	-55.465	-49.653	123.589	84.461	-52.813	-48.434	-45.609	-40.374	110.604	-43.832	-8191	255	
41358.895	1	1	0	0	0.16754	0.086418	0.19954	0.22855	0.14877	0.1614	0.18891	0.22482	0.084566	0.046504	0.10131	0.17846	0.070294	0.040131	0.26959	0.14233	-2.1937	-3.0187	-3.15	-2.8688	-3.0208	-2.7812	-2.7188	-3.3458	-2.8708	-2.8875	-3.1021	-2.7313	-3.0208	-2.9062	-2.6875	-3.1042	90.655	97.310	259.380	-43.160	-48.197	124.271	-47.822	287.157	31.856	30.319	-31.551	80.217	210.398	117.962	102.108	258.175	0.00015351	0.001195	0.00011431	624.52	1.1454e-05	6.1542e-06	570.74	296.83	4.4405e-06	8.9573e-06	308.17	110.77	116.09	46.332	1.11e-05	46.409	0.0047344	0.0059908	0.0016747	656.99	6.4869e-05	6.9297e-05	597.66	306.5	6.6903e-05	7.2134e-05	328.24	117.94	124.13	49.004	7.4113e-05	49.973	279.616	60.053	206.579	-54.848	122.644	165.893	-55.707	-49.834	-1.822	43.785	-52.655	-48.495	-45.696	-40.461	34.569	-44.001	-8191	255	
41358.965	1	1	0	0	0.16234	0.086589	0.090423	0.22701	0.035776	0.087179	0.15532	0.16877	0.24082	0.044937	0.11677	0.073531	0.27065	0.033372	0.067401	0.23937	-2.3937	-2.9458	-3.1104	-2.7375	-3.0396	-2.9667	-2.8375	-3.2458	-2.8083	-2.9125	-3.15	-2.85	-2.9667	-3.2125	-2.8688	-3.1708	46.500	123.501	104.189	251.361	167.795	277.477	18.618	-12.826	-33.099	132.926	-29.917	54.020	-56.436	168.696	241.567	181.818	5.0566e-05	0.0002755	7.8209e-05	617.36	9.3473e-06	9.2335e-06	565.48	290.94	4.3044e-06	3.6129e-06	295.94	108.4	114.76	45.77	1.1248e-06	45.592	0.005453	0.0070631	0.001962	659.53	7.637e-05	8.1692e-05	602.7	303.01	7.7132e-05	8.0973e-05	322.12	116.94	122.92	48.622	7.7962e-05	49.526	284.660	-22.675	52.843	-54.445	103.317	135.837	-55.744	-49.861	172.548	55.324	-52.430	-48.400	-45.886	-40.519	277.113	-44.202	-8191	255	
41359.086	1	1	0	0	0.21836	0.088355	0.22743	0.012958	0.15672	0.19266	0.11056	0.21167	0.15044	0.036517	0.17232	0.19155	0.098297	0.16381	0.21909	0.13183	-2.5583	-2.6479	-3.0875	-2.8	-2.9354	-3.075	-2.8042	-3.2292	-2.925	-2.8396	-3.3042	-2.8771	-2.95	-3.0312	-2.7708	-3.05	94.904	83.689	61.407	20.252	138.618	-33.718	-53.668	3.880	45.561	244.547	128.187	209.391	223.990	-28.203	15.289	69.930	0.00010249	0.00053557	7.8741e-05	609.9	1.103e-05	7.5768e-06	547.12	280.21	4.213e-06	4.3323e-06	285.41	106.74	112.25	45.039	7.2965e-06	44.938	0.0056896	0.0071744	0.0019905	646.53	7.5502e-05	7.914e-05	581.14	291.73	7.5138e-05	7.9263e-05	309.41	115.33	121.02	48.223	8.0589e-05	49.135	-42.377	16.163	-31.742	-54.827	8.924	37.123	-55.458	-49.704	183.471	257.664	-52.620	-48.357	-45.616	-40.403	64.906	-43.791	-8191	255	
41359.184	1	1	0	0	0.17777	0.10009	0.062461	0.1679	0.090897	0.32806	0.23829	0.18059	0.16384	0.20733	0.24969	0.020887	0.1735	0.37747	0.12511	0.19785	-2.5896	-2.8854	-3.0771	-2.9813	-2.8917	-3.075	-2.6833	-3.1562	-2.9333	-2.875	-3.2833	-2.9375	-2.9771	-3.1958	-2.7542	-3.0542	291.718	63.918	179.672	55.556	204.771	6.753	204.864	212.044	130.674	111.118	-19.634	236.196	272.446	290.054	69.339	268.592	0.00016286	0.0017541	0.00037272	577.91	4.1058e-06	8.0058e-06	518.55	266.48	7.4006e-06	1.1464e-05	267.79	103.43	110.05	44.952	7.1908e-06	44.08	0.0058479	0.0075587	0.0021251	623.38	8.0901e-05	8.439e-05	562.68	279.47	8.0605e-05	8.5235e-05	295.44	112.87	118.89	47.853	8.3137e-05	48.311	212.778	26.861	37.996	-54.818	5.787	78.868	-55.633	-49.696	151.309	148.746	-52.872	-48.190	-45.700	-40.415	283.326	-44.106	-8191	255	
41359.277	1	1	0	0	0.35313	0.043721	0.18007	0.35769	0.17863	0.2149	0.12127	0.18631	0.052568	0.16629	0.21559	0.27752	0.10277	0.17343	0.063434	0.16545	-2.6479	-2.6375	-3.1542	-2.9042	-2.7854	-3.0375	-3	-3	-3.0417	-2.6708	-3.1125	-2.9938	-3.0062	-3.15	-2.675	-3.0438	35.641	200.505	50.499	2.330	205.641	-25.223	184.703	260.309	278.645	8.210	24.662	220.013	137.252	125.777	208.469	192.931	9.6327e-05	0.00094715	0.0001454	557.3	1.3798e-05	1.4345e-05	503.18	255.77	9.7521e-06	1.0715e-05	255.57	102.59	108.26	44.654	8.8614e-06	43.891	0.0059546	0.007671	0.0021392	606.53	7.9777e-05	8.3688e-05	544.8	267.87	7.912e-05	8.4324e-05	283.64	111.52	117.26	47.662	8.2871e-05	48.09	254.575	23.762	172.521	-54.591	72.170	78.505	-55.868	-49.391	93.396	93.486	-52.603	-48.334	-45.672	-40.424	20.186	-44.288	-8191	255	
41359.375	1	1	0	0	0.039733	0.15999	0.32234	0.13561	0.16584	0.38031	0.13206	0.2589	0.20481	0.062685	0.12746	0.21212	0.065341	0.35575	0.1964	0.14632	-2.6292	-2.7604	-3.05	-2.9313	-2.7938	-3.1979	-2.9083	-3.0333	-3.1792	-2.6771	-3.0958	-2.9542	-2.8229	-3.15	-2.8375	-3.0354	19.281	265.784	-0.785	72.001	138.735	215.646	200.593	250.818	179.653	225.129	177.429	273.605	-65.321	-65.921	-49.490	188.100	4.0937e-05	0.001332	0.00012352	547.82	9.9611e-06	4.3092e-06	489.8	245.7	6.1158e-06	3.8852e-06	246.12	102.03	106.72	44.46	2.6729e-06	43.726	0.0057514	0.0077391	0.0021133	592.05	7.8716e-05	8.2311e-05	532.24	258.53	7.6874e-05	8.2012e-05	273.25	110.08	115.51	47.348	7.9777e-05	47.956	178.933	67.010	16.851	-54.571	122.816	77.561	-55.735	-49.337	39.524	131.858	-52.592	-48.137	-45.438	-40.487	166.005	-44.113	-8191	255	
41359.496	1	1	0	0	0.074867	0.10944	0.080032	0.20188	0.07498	0.19943	0.14489	0.22992	0.13619	0.12514	0.2714	0.10674	0.098086	0.1929	0.094269	0.051751	-2.7562	-2.7396	-3.0479	-2.8979	-2.7125	-3.2062	-2.9	-2.8979	-3.1604	-2.8042	-3	-3.0896	-2.7521	-3.1021	-2.9562	-2.925	203.466	16.005	276.627	123.288	195.310	-50.456	177.940	183.111	241.413	-43.939	253.071	262.013	245.983	244.729	275.137	-46.000	8.6554e-05	0.0010347	0.00018298	534.41	5.6772e-06	7.9947e-06	479.67	240.33	4.0881e-06	1.4688e-05	239.83	99.08	104.97	43.585	1.0785e-05	43.059	0.0055501	0.007668	0.0020856	579.25	7.8395e-05	8.2449e-05	520.5	252.51	7.8544e-05	8.6193e-05	269.78	108.28	114.35	46.751	8.1112e-05	46.902	209.297	39.583	117.429	-54.879	52.095	152.748	-55.394	-49.759	8.496	51.205	-52.521	-48.310	-45.458	-40.583	82.396	-44.428	-8191	255	
41359.566	1	1	0	0	0.13454	0.27471	0.25004	0.15352	0.10655	0.10351	0.10772	0.30068	0.15421	0.11932	0.10237	0.42114	0.27681	0.10652	0.16953	0.080653	-2.5833	-2.7562	-2.8729	-3.0917	-2.8708	-2.9875	-2.9833	-2.7938	-3.15	-2.8625	-3.0062	-3.0938	-2.7833	-3.0667	-2.9042	-2.7271	158.566	87.346	194.799	7.186	210.059	4.125	114.982	242.916	-58.228	-54.382	113.248	-61.850	-64.541	32.682	268.307	217.417	0.00023385	0.00064962	0.00014933	522.33	1.546e-05	1.021e-05	468.62	233.22	7.3638e-06	5.9035e-06	232.08	97.659	103.9	43.359	1.7861e-05	42.51	0.0052721	0.0071538	0.0019684	564.12	7.6076e-05	8.2092e-05	509.25	246.03	7.826e-05	8.3477e-05	259.4	106.19	112.43	46.328	7.989e-05	46.678	244.196	56.476	74.545	-54.911	99.872	3.084	-55.829	-49.562	79.705	193.018	-51.756	-48.113	-46.004	-40.590	204.377	-44.152	-8191	255	
41359.664	1	1	0	0	0.29522	0.11938	0.15459	0.20037	0.24692	0.10043	0.25916	0.32235	0.18858	0.22548	0.25376	0.21459	0.15482	0.23355	0.25612	0.066261	-2.7229	-2.6	-2.8771	-3.1312	-2.7	-2.9979	-2.8771	-2.6104	-2.9938	-2.8917	-2.9479	-3.0229	-2.6688	-3.0417	-3.0604	-2.9562	122.231	-0.240	2.686	-30.728	-60.564	130.930	229.494	254.346	45.559	211.486	191.610	259.534	-25.320	-35.030	29.464	78.621	0.00016995	0.00074587	0.00039101	511.66	5.3742e-06	1.7053e-05	458.87	227.39	5.5575e-06	2.2163e-05	227.31	97.658	102.8	43.016	1.2204e-05	42.471	0.0056044	0.0075736	0.0020413	556.69	7.8169e-05	8.4477e-05	500.48	240.75	7.8931e-05	8.3794e-05	255	106.14	112.36	46.088	8.1126e-05	46.481	258.261	-14.649	36.297	-54.599	108.062	25.416	-55.587	-49.444	151.176	32.688	-52.164	-48.259	-45.715	-40.655	121.731	-44.245	-8191	255	
41359.758	1	1	0	0	0.1603	0.0086635	0.15608	0.36046	0.21226	0.10863	0.059917	0.12285	0.2714	0.10119	0.12911	0.062969	0.22339	0.24134	0.15838	0.24492	-2.5354	-2.8167	-2.8979	-2.9875	-2.7833	-2.925	-3.0792	-2.7854	-2.8854	-2.8646	-2.7687	-3.1604	-2.8208	-3.1979	-2.8604	-2.8187	282.144	-61.920	94.216	-6.729	58.296	118.860	66.391	208.517	246.757	120.809	157.243	283.096	222.628	57.351	187.950	227.875	9.6843e-05	0.00097492	0.00016688	507.89	6.6599e-06	3.0733e-06	450.7	223.91	4.8735e-06	7.2702e-06	227.13	97.22	103.5	41.842	8.1386e-06	41.074	0.0056669	0.0076027	0.0020793	551.51	7.8477e-05	8.3413e-05	492.16	236.91	7.8207e-05	8.4976e-05	255.72	106.19	113.7	45.177	8.7735e-05	45.76	-51.581	5.517	-59.104	-54.970	119.565	-52.078	-55.251	-49.300	-9.273	52.892	-52.310	-48.138	-45.993	-40.271	70.750	-43.600	-8191	255	
41359.879	1	1	0	0	0.26853	0.29434	0.18831	0.23343	0.13455	0.1251	0.15464	0.34397	0.12423	0.12308	0.11892	0.035723	0.12618	0.12946	0.2732	0.10125	-2.525	-2.8625	-2.7667	-3.0792	-2.8563	-2.9979	-3.1604	-2.9896	-3.1146	-3.0062	-2.7417	-3.1396	-2.7583	-2.9896	-3.3375	-2.7708	15.586	192.859	106.443	-35.530	238.301	205.299	68.642	182.033	124.107	278.899	-11.338	23.601	273.708	278.263	-16.996	112.975	0.00024082	0.00090997	0.00028636	503	8.1223e-06	3.6978e-06	447.84	224.23	1.0285e-05	1.7017e-05	227.75	94.438	101.88	40.794	6.2094e-06	39.685	0.0061287	0.0082722	0.0022196	554.89	8.6741e-05	9.2301e-05	494.62	240.61	8.9469e-05	9.5463e-05	261.04	104.97	113.04	44.511	9.8332e-05	45.217	219.594	25.044	-3.828	-54.434	227.528	259.608	-55.792	-49.710	173.688	83.499	-51.707	-48.341	-45.779	-40.288	87.090	-44.293	-8191	255	
41359.973	1	1	0	0	0.054525	0.054899	0.19002	0.10549	0.18502	0.13408	0.10745	0.30724	0.059015	0.21445	0.31948	0.24671	0.18578	0.28345	0.11434	0.072913	-2.5854	-2.9292	-2.8042	-3.125	-2.8063	-2.6604	-3.0708	-2.7812	-3.0833	-2.9521	-2.6667	-3.0792	-2.7896	-2.875	-3.0583	-3.0271	225.273	4.090	178.854	194.500	237.377	202.117	19.346	244.778	204.459	249.245	-61.043	253.523	20.389	149.722	227.645	-23.322	9.2472e-05	0.00073962	5.1175e-05	508.89	5.3062e-06	5.3335e-06	445.46	228.08	8.2016e-06	7.2157e-06	228.3	91.742	100.21	39.937	5.7539e-06	39.406	0.0071877	0.009696	0.0026353	569.37	9.9673e-05	0.00010463	503.36	246.93	9.9748e-05	0.00010779	268.05	104.22	112.43	44.33	0.00010754	45.321	237.496	66.030	-60.255	-54.433	208.645	-37.517	-55.790	-49.043	61.528	139.570	-52.057	-48.398	-45.699	-40.299	43.898	-43.947	-8191	255	
41360.070	1	1	0	0	0.065844	0.21179	0.053835	0.13177	0.059836	0.094102	0.19476	0.31787	0.18949	0.079092	0.16127	0.31376	0.082929	0.16575	0.3014	0.13161	-2.5146	-3.0229	-2.6792	-3.1146	-2.8708	-2.7958	-2.9104	-2.7521	-2.8812	-2.9854	-2.9437	-3.0833	-2.9813	-2.9313	-3.025	-2.7542	18.565	150.762	247.225	114.293	165.236	-48.941	167.648	209.009	129.691	272.098	259.873	71.118	35.465	258.863	147.046	228.806	8.7885e-05	0.0018148	0.00039929	509.39	1.0956e-05	6.8989e-06	446.82	228.14	1.8415e-06	6.2639e-06	230.54	91.361	99.666	39.692	1.0326e-05	39.179	0.007579	0.010168	0.0028402	577.89	0.00011212	0.00011934	513.35	250.1	0.0001163	0.00012668	276.57	105.83	113.84	44.44	0.00011768	45.622	216.345	-29.756	77.983	-54.975	53.535	53.820	-55.441	-49.639	16.492	74.125	-52.286	-48.243	-45.685	-40.165	77.685	-43.493	-8191	255	
41360.191	1	1	0	0	0.28401	0.30274	0.12274	0.22139	0.09702	0.16549	0.2075	0.063894	0.25905	0.08374	0.092618	0.18328	0.11033	0.20041	0.26394	0.1698	-2.4688	-2.9562	-2.5896	-3.1021	-3.0333	-2.6937	-3.2125	-2.9979	-2.8333	-3.05	-2.7917	-3.0542	-3.2125	-2.9313	-3.0271	-2.8396	219.677	-4.913	159.697	94.902	269.227	270.877	217.867	255.140	201.058	245.723	219.959	292.267	-33.783	-44.060	162.591	-39.372	0.00019491	0.00074546	3.6175e-05	504.28	1.7052e-05	1.7331e-05	444.07	223.96	7.0903e-06	5.5245e-06	225.26	92.732	100.89	39.918	4.4816e-06	39.013	0.0083929	0.011053	0.0030693	577.43	0.00011364	0.00011794	506.93	245.99	0.00011454	0.00012118	268.63	105.85	114.45	44.564	0.00011691	45.47	-50.418	38.762	95.893	-54.280	97.840	66.341	-55.609	-49.403	195.807	241.096	-52.574	-48.234	-45.692	-40.281	253.838	-44.207	-8191	255	
41360.262	1	1	0	0	0.294	0.10478	0.065466	0.33807	0.19156	0.2788	0.14156	0.29733	0.30534	0.17599	0.20196	0.23334	0.21916	0.2907	0.076943	0.071422	-2.4167	-3.0438	-2.6958	-2.9813	-2.9125	-2.7625	-3.2	-2.9792	-2.8167	-3.0917	-2.8667	-2.9646	-2.9396	-2.7812	-3.0271	-2.8917	29.170	114.725	65.285	263.754	169.262	287.704	130.723	228.003	252.305	220.463	163.456	-54.878	186.016	-11.590	-42.490	237.467	0.00013332	0.00088528	9.9843e-05	488.44	2.1651e-06	3.1891e-06	430.33	217.87	3.6597e-06	9.4723e-06	220.57	93.556	101.15	39.963	7.652e-06	39.144	0.0081316	0.010621	0.0030015	561.43	0.00011172	0.00011738	494.12	239.02	0.00011029	0.00011722	262.22	106	114.36	44.573	0.0001124	45.18	143.263	22.506	124.077	-55.104	39.193	-6.857	-55.484	-49.405	71.727	106.065	-52.630	-48.418	-46.245	-40.359	185.195	-43.865	-8191	255	
41360.359	1	1	0	0	0.15781	0.10544	0.18808	0.27765	0.089804	0.23512	0.12547	0.2775	0.22409	0.19981	0.27435	0.2547	0.13639	0.22563	0.21432	0.27089	-2.4896	-3.1437	-2.7833	-2.9708	-3.0687	-2.8187	-2.9313	-3.1208	-3.0687	-3.3229	-2.8792	-2.9125	-3.0229	-2.9458	-3.1208	-2.875	222.605	141.842	255.027	89.744	17.478	38.726	252.813	242.784	81.861	236.439	256.981	40.843	285.323	200.875	281.730	180.153	8.8082e-05	0.0012383	0.00035595	482.41	4.9514e-06	1.5002e-05	425.81	216.69	1.0503e-05	1.8409e-05	219.65	91.167	100.37	39.877	4.1671e-06	38.528	0.0077679	0.010315	0.0029438	554.66	0.00011004	7.4567e-05	457.72	237.89	0.00011676	0.00012664	266.8	106.41	115.14	45.057	0.00013377	46.065	192.029	55.282	154.771	-54.584	155.448	193.832	-55.484	-49.512	185.325	0.521	-52.542	-48.242	-45.757	-40.156	287.797	-43.824	-8191	255	
41360.480	1	1	0	0	0.087477	0.18734	0.20819	0.23891	0.19042	0.11213	0.20119	0.15585	0.098458	0.34069	0.23882	0.085671	0.2184	0.064613	0.19837	0.19995	-2.3229	-3.3479	-2.9042	-2.9479	-2.9917	-2.9896	-3.1792	-2.9167	-2.8083	-3.0729	-2.8396	-2.7708	-3.1417	-2.5979	-2.9479	-3.0604	285.333	77.698	281.085	239.594	100.105	-64.676	285.185	199.037	158.735	217.497	287.638	12.855	258.392	287.704	20.896	152.687	0.00013119	0.00021761	0.00026643	484.06	5.4046e-06	7.5291e-06	424.76	219.88	6.0952e-06	1.1174e-05	219.19	88.945	96.667	38.547	3.1208e-06	37.936	0.0093831	0.012734	0.0036443	573.98	0.00013652	0.00014686	509.88	247.89	0.00013959	0.00015133	276.83	106.49	115.05	45.136	0.00015269	46.386	184.931	66.533	54.678	-54.627	96.984	235.401	-55.622	-49.451	-34.592	283.261	-52.190	-48.267	-45.917	-40.241	150.245	-44.205	-8191	255	
41360.574	1	1	0	0	0.22824	0.21071	0.31146	0.23055	0.034723	0.1927	0.16308	0.20561	0.12884	0.34298	0.034028	0.20786	0.24774	0.17026	0.11926	0.013605	-2.3812	-3.1	-2.6167	-2.8583	-2.9792	-2.7417	-2.9229	-3.2271	-2.55	-3.1521	-3.0375	-2.6646	-3.3167	-2.9042	-2.7833	-3.0896	217.779	-24.633	211.748	177.017	-50.714	34.578	-13.580	-41.623	-12.647	186.178	282.066	168.611	183.950	225.304	209.018	143.563	0.00011341	0.00098325	0.0002373	482.07	9.1701e-06	1.0445e-05	423.14	218.75	6.6643e-06	1.1122e-05	217.53	88.087	97.85	38.579	5.3769e-06	37.709	0.010601	0.014165	0.0039613	582.1	0.00014707	0.00015579	509.74	247.4	0.00014234	0.00015186	273.76	105.49	114.94	44.824	0.00014578	45.808	262.496	151.183	19.495	-54.669	180.945	159.747	-55.500	-49.586	-15.709	102.013	-52.319	-48.307	-45.895	-40.564	165.273	-44.015	-8191	255	
41360.672	1	1	0	0	0.031467	0.084774	0.12717	0.19558	0.10513	0.11412	0.056523	0.20313	0.12384	0.10092	0.12425	0.059208	0.20504	0.1914	0.066115	0.13878	-2.3208	-3.0792	-2.8333	-2.7313	-3.1958	-2.9437	-3.0333	-3.0854	-2.8167	-3.0604	-3.0333	-2.8042	-3.0687	-2.8792	-2.7667	-3.1	-38.010	106.943	23.481	-67.315	202.097	8.382	-38.221	249.011	232.950	187.185	267.914	236.090	-13.511	289.951	221.838	219.509	0.00017835	0.001069	0.00050678	479.59	7.4298e-06	4.1858e-06	415.97	216.55	5.0218e-06	8.7149e-06	214.48	88.197	97.74	38.885	1.6274e-05	37.548	0.010091	0.013597	0.0038047	572.6	0.00014237	0.00015176	503.03	244.39	0.0001427	0.00015246	272.07	105.59	115.19	45.046	0.00014714	45.979	239.866	116.668	208.226	-55.072	126.068	25.439	-55.036	-49.665	-9.579	-45.143	-52.272	-48.502	-45.689	-40.272	88.980	-44.197	-8191	255	
41360.789	1	1	0	0	0.18179	0.15276	0.093621	0.11246	0.24029	0.082775	0.14316	0.29702	0.21759	0.24109	0.25251	0.26463	0.071477	0.26877	0.086117	0.068007	-2.3667	-3.0375	-3.1417	-2.5687	-3.1104	-2.8771	-2.9271	-3.1917	-2.7042	-3.0083	-3.1188	-2.85	-3.0646	-2.9167	-2.775	-3.0187	215.138	171.261	222.539	-37.227	75.122	118.948	268.403	274.858	242.110	-53.420	-42.427	253.808	173.032	-3.535	115.073	51.113	0.00026668	0.0001602	0.00028094	476.21	1.9876e-05	8.8127e-06	417.59	217.16	6.7707e-06	1.2756e-05	216.41	88.352	97.687	38.895	5.7786e-06	37.955	0.010319	0.013775	0.0038134	571.61	0.00014485	0.00015279	503	245.17	0.00014875	0.00015741	273.62	106.28	116.12	45.295	0.00015116	46.325	250.299	107.383	-36.673	-54.938	164.995	4.338	-55.949	-49.576	29.901	158.476	-52.185	-47.967	-45.533	-40.429	25.104	-44.583	-8191	255	
41360.863	1	1	0	0	0.10686	0.019001	0.026656	0.26935	0.078102	0.090775	0.11495	0.34777	0.14738	0.14855	0.11455	0.099332	0.15079	0.20696	0.16308	0.073754	-2.3417	-3.0271	-2.9958	-2.9271	-3.1375	-3.0208	-2.8521	-3.1854	-2.8063	-2.8729	-3.2375	-2.9521	-3.1875	-3.0896	-2.9437	-3.2396	65.883	272.896	-5.748	272.782	68.186	208.648	267.412	251.986	181.084	21.161	247.533	-9.148	249.391	-62.870	205.058	32.279	0.00018129	0.00062553	0.00031729	473.22	1.5325e-05	1.65e-05	411.85	212.71	1.0665e-05	5.0851e-06	211.82	89.574	98.844	39.373	5.0784e-06	37.788	0.010527	0.013845	0.0037834	567.11	0.00014259	0.00014952	493.32	239.59	0.00013974	0.00014635	264.29	105.73	115.27	45.075	0.00013594	45.498	278.620	211.089	67.408	-54.513	199.337	117.258	-55.268	-49.566	82.090	15.896	-52.178	-48.269	-45.784	-40.537	-40.037	-44.103	-8191	255	
41360.961	1	1	0	0	0.11458	0.11464	0.15776	0.13302	0.073871	0.16252	0.25921	0.072763	0.26184	0.060583	0.099012	0.064746	0.10174	0.090537	0.051404	0.018121	-2.4708	-2.7208	-3.1875	-2.9313	-3.0417	-3.0521	-2.9167	-3.2062	-2.9688	-3.0396	-3.2271	-2.8	-3.0292	-2.9792	-2.8917	-3.0896	187.664	-47.351	-64.233	196.235	91.314	23.004	250.054	249.441	-31.766	153.033	262.202	152.789	276.456	264.322	229.340	185.447	0.00015136	0.0011416	6.9473e-05	462.11	1.5532e-05	8.1179e-06	403.69	210.69	7.412e-06	4.6155e-06	210.27	91.935	101.44	39.735	2.3911e-06	38.382	0.0095136	0.012557	0.0034387	550.17	0.00013189	0.00013785	479.54	236.16	0.00013368	0.00013987	261.38	107.84	117.53	45.472	0.00013563	46.076	277.946	133.243	0.258	-54.703	59.093	145.110	-55.466	-49.302	-59.350	111.851	-52.588	-48.306	-45.874	-40.494	-5.811	-44.118	-8191	255	
41361.055	1	1	0	0	0.18945	0.12997	0.0046136	0.080922	0.1362	0.16621	0.21617	0.30708	0.13378	0.17117	0.30143	0.057391	0.34036	0.16158	0.1061	0.17052	-2.4542	-2.7792	-3.0667	-2.9604	-2.975	-3.2125	-2.775	-3.0854	-2.8375	-2.7812	-3.1188	-2.8875	-3.1188	-3.3	-2.7875	-3.1562	241.008	-20.332	108.950	82.830	-43.455	115.476	162.010	229.007	-49.553	-11.370	198.907	85.512	273.610	31.818	-4.704	209.202	0.00019318	0.00049011	0.00013746	457.4	1.1787e-06	7.1122e-06	396.28	208.39	1.2413e-05	1.3761e-05	209.9	92.373	101.69	40	8.6362e-07	38.514	0.009592	0.01256	0.0034387	545.22	0.00013002	0.00013386	471.25	233.2	0.00012658	0.0001304	257.38	107	116.39	44.946	0.00012594	45.328	-35.490	-48.302	110.686	-55.120	281.158	98.903	-55.813	-49.184	32.367	-61.856	-52.528	-48.467	-45.803	-40.430	-28.208	-44.100	-8191	255	
41361.152	1	1	0	0	0.17083	0.092045	0.13273	0.15844	0.30133	0.041869	0.129	0.2306	0.16532	0.07615	0.15832	0.17456	0.30265	0.12705	0.23827	0.14744	-2.5375	-2.7354	-3.0812	-2.8896	-2.9938	-3.1396	-2.8917	-3.0229	-2.9521	-2.8333	-3.1813	-3.0042	-2.875	-2.975	-2.5625	-2.9229	284.698	193.498	271.426	-6.191	254.574	274.034	126.816	240.462	72.170	-45.679	226.686	-33.787	198.395	281.870	182.158	258.314	0.00025625	0.00039015	0.00018525	454.21	8.1315e-06	4.2926e-06	393.43	210.68	8.4611e-06	8.2082e-06	211.71	88.801	97.775	38.816	1.0358e-05	37.378	0.0088036	0.011608	0.0032171	535.4	0.00012264	0.00012829	464.92	234.93	0.00012706	0.00013444	260.02	104.69	114.09	44.261	0.00013494	44.923	262.374	198.414	-33.623	-54.930	230.279	145.258	-55.584	-49.318	278.161	209.902	-52.652	-48.136	-45.712	-40.257	175.549	-43.977	-8191	255	
41361.273	1	1	0	0	0.1282	0.20169	0.23925	0.25319	0.066688	0.15511	0.13737	0.10432	0.055346	0.15528	0.11823	0.15108	0.26505	0.18934	0.19664	0.21934	-2.6625	-2.8271	-3.1375	-2.8271	-2.8333	-3.2104	-2.9	-3.0854	-3.0292	-2.7812	-3.1979	-3.0312	-2.7417	-3.2167	-2.8	-3.0563	175.277	49.391	100.917	203.445	258.273	273.636	-9.743	53.960	167.952	240.720	231.362	82.315	-43.368	290.502	184.947	168.114	0.00012996	0.0011913	0.00047243	448.57	1.2339e-05	1.0972e-05	387.42	210.4	6.3733e-06	5.5712e-06	209.19	89.89	99.166	38.851	1.0507e-05	37.314	0.0092669	0.012246	0.0033816	535.83	0.00012591	0.00013087	462.1	234.15	0.00012244	0.00012928	255.45	104.43	114	43.925	0.00012801	44.31	185.471	-25.507	42.357	-54.664	29.134	0.042	-55.452	-49.121	55.792	46.695	-52.875	-48.398	-45.760	-40.732	90.862	-44.166	-8191	255	
41361.367	1	1	0	0	0.040573	0.039102	0.16292	0.14716	0.22991	0.18867	0.23554	0.23524	0.12986	0.13422	0.20142	0.38471	0.021952	0.073187	0.013305	0.34332	-2.4729	-2.7396	-2.9958	-3.0583	-2.7917	-2.9583	-2.9292	-2.9	-3.1188	-2.5125	-3.2396	-2.9917	-2.8708	-3.3333	-3.1063	-2.9292	121.451	174.246	256.524	22.273	104.082	235.769	178.563	278.297	-56.109	210.261	74.104	-45.850	123.449	173.390	252.935	221.059	0.00019807	0.0010788	0.00010852	448.2	1.2326e-05	1.1659e-05	385.97	210.15	3.6302e-06	3.3185e-06	207.73	88.99	97.412	38.809	6.4502e-06	37.657	0.0087142	0.011565	0.0032344	529.43	0.00012211	0.00012908	459.33	233.64	0.0001236	0.00013283	256.29	103.93	113.56	44.867	0.00015784	46.724	232.129	23.530	148.569	-54.556	147.704	215.023	-55.652	-49.061	-61.984	9.623	-52.403	-48.317	-45.979	-40.428	220.868	-44.138	-8191	255	
41361.438	1	1	0	0	0.082845	0.043759	0.036819	0.20009	0.11365	0.12086	0.10245	0.1299	0.20126	0.14883	0.27024	0.089412	0.090683	0.10288	0.16366	0.12539	-2.6083	-2.6437	-2.975	-3.1625	-2.7292	-3.125	-2.9938	-3.0375	-3.0271	-2.8646	-2.9917	-2.9771	-2.9313	-3.0708	-2.8583	-2.8875	276.692	-58.920	276.912	292.074	-10.115	-14.664	220.575	-34.563	-37.980	63.756	-40.248	285.106	247.176	15.047	203.729	78.407	0.00033229	0.00060495	0.00026793	456.53	1.4829e-05	2.3419e-06	388.71	210.59	4.6714e-06	8.6171e-06	208.52	87.536	96.43	38.261	5.8503e-06	36.872	0.011271	0.014977	0.0041436	558.09	0.00015031	0.00015505	474.89	237.37	0.00012984	0.00013845	256.86	103.28	113.01	44.296	0.00015066	45.494	240.001	51.230	73.886	-55.019	2.591	230.442	-55.534	-49.581	266.489	25.800	-52.295	-48.306	-45.566	-40.311	166.267	-44.027	-8191	255	
41361.559	1	1	0	0	0.22104	0.14958	0.045754	0.28921	0.15712	0.20488	0.22407	0.027386	0.072696	0.20604	0.020973	0.21709	0.070414	0.035428	0.17413	0.22922	-2.8167	-2.4875	-2.8354	-3.0167	-2.7208	-3.0979	-3.0542	-2.7229	-3.1833	-2.9833	-2.9917	-3.1125	-2.8521	-3.1813	-2.9437	-2.7292	-49.153	-44.905	-60.153	272.780	175.737	-18.863	284.242	11.046	48.930	128.231	17.839	287.532	182.754	82.649	207.645	28.420	9.6719e-05	0.0010861	7.976e-05	453.6	1.4375e-05	9.8667e-06	393.14	214.41	1.3134e-05	4.8751e-06	208.46	80.87	90.869	36.883	1.2987e-05	35.325	0.01088	0.015096	0.0043071	568.26	0.00017345	0.00019199	509.71	253.46	0.00019459	0.00021139	287.59	105.29	115.31	45.218	0.00019784	46.62	-51.517	89.922	251.731	-54.702	106.844	142.274	-55.621	-49.300	133.245	-57.508	-52.942	-48.042	-45.734	-40.548	-49.924	-44.207	-8191	255	
41361.656	1	1	0	0	0.20411	0.18854	0.18478	0.12954	0.089267	0.11285	0.42769	0.10552	0.12382	0.23378	0.092571	0.2116	0.02712	0.33494	0.33704	0.24722	-2.7917	-2.8438	-2.9667	-3.1583	-2.6854	-3.125	-2.9688	-3.0271	-2.9583	-2.8875	-2.9562	-3.3625	-2.8917	-2.9208	-2.85	-2.8708	243.122	50.365	283.457	-31.127	209.258	-13.630	272.721	-35.628	170.833	195.906	235.294	188.793	231.786	227.393	164.024	126.669	0.00023426	0.0011991	0.00015837	463.6	7.8453e-06	1.8398e-05	396.82	216.25	9.5623e-06	1.2249e-05	209.45	80.377	89.642	36.629	1.3037e-05	34.935	0.013354	0.017863	0.0049373	591.58	0.00018826	0.00019986	515.87	255.1	0.00019335	0.00021386	289.66	106.37	116.48	45.695	0.0002177	47.665	292.604	35.862	184.236	-54.920	228.369	33.183	-55.505	-49.273	45.367	31.214	-52.345	-48.188	-45.442	-40.661	57.787	-44.206	-8191	255	
41361.754	1	1	0	0	0.039837	0.1212	0.025354	0.21748	0.42635	0.1675	0.31698	0.10263	0.11736	0.19019	0.082436	0.25634	0.065618	0.18346	0.036482	0.10935	-2.8208	-2.8917	-2.9396	-3.0729	-2.6167	-3.0167	-3.0792	-2.7833	-3.0187	-2.7438	-2.875	-3.0771	-2.7875	-3.0312	-3.0271	-2.8208	268.095	51.337	228.176	180.659	131.000	225.189	162.318	248.128	30.182	191.926	195.825	-13.567	290.794	-51.074	19.923	281.175	0.00024739	0.0015868	0.00026519	467.6	7.3759e-06	1.0163e-05	401.65	219.54	6.7127e-06	1.1318e-05	210.91	80.494	89.552	36.751	1.1118e-05	35.482	0.015119	0.020182	0.0055718	618.1	0.00021515	0.00022805	538.24	263.65	0.00021548	0.00023435	299.81	108.22	118.34	46.301	0.00022086	47.923	-59.698	13.422	74.403	-54.823	61.136	162.011	-55.879	-49.148	-50.925	53.679	-52.682	-47.834	-45.680	-40.035	-44.244	-44.019	-8191	255	
41361.871	1	1	0	0	0.12679	0.096178	0.19166	0.064785	0.12509	0.24245	0.32429	0.037015	0.19724	0.082323	0.17188	0.055435	0.14076	0.17395	0.30013	0.22997	-2.6771	-2.7875	-2.9083	-3.2604	-2.8875	-2.9875	-3.0042	-2.925	-3.0417	-3.1583	-2.7979	-3.0875	-2.7792	-3.1271	-2.9562	-2.7812	3.743	45.115	-61.102	85.665	-5.803	111.769	81.898	132.208	194.306	-17.021	113.774	194.034	16.703	235.624	-57.857	166.497	0.00023364	0.0012477	0.00030265	468.61	6.512e-06	5.9037e-06	403.23	216.77	1.4634e-05	1.2966e-05	209.41	80.334	90.281	37.073	2.2726e-05	34.845	0.014688	0.019436	0.0053118	607.99	0.00020129	0.00020844	524.37	258.46	0.00020381	0.00022358	294.47	106.96	119.08	48.392	0.00030553	56.06	250.785	292.022	-4.099	-54.947	18.296	102.426	-55.871	-49.232	57.887	117.813	-52.415	-48.339	-45.549	-39.929	109.748	-44.016	-8191	255	
41361.969	1	1	0	0	0.19818	0.077973	0.10812	0.095249	0.12406	0.28684	0.29258	0.36022	0.18277	0.1712	0.41234	0.10722	0.17184	0.31193	0.16754	0.052547	-2.5458	-2.9167	-2.8208	-3.1437	-2.8979	-2.9542	-3.05	-3.0062	-3.0979	-3.0208	-2.9625	-3.1708	-2.975	-2.9604	-3.1646	-3.1542	11.001	17.116	107.423	104.293	103.298	51.332	213.164	153.578	39.675	40.974	-12.396	264.646	-37.746	87.440	124.804	200.487	0.00011719	0.0011222	0.00041425	506.61	8.9142e-06	4.5218e-06	425.69	241.94	8.4667e-06	4.3156e-05	239.02	91.583	101.15	38.584	4.1107e-05	36.231	0.027363	0.039927	0.01179	850.62	0.00049003	0.00053273	775.05	365.53	0.00057456	0.00063746	498.13	174.84	187.92	68.325	0.00069477	79.668	57.885	65.790	-53.864	-54.907	60.552	288.351	-56.046	-50.019	222.162	85.830	-52.439	-48.921	-46.036	-41.353	146.432	-44.445	-8191	255	
41362.062	1	1	0	0	0.22863	0.16702	0.081203	0.095988	0.080365	0.090134	0.14639	0.11414	0.14199	0.052966	0.19283	0.22964	0.11087	0.21793	0.19922	0.2567	-2.5438	-2.8	-2.8042	-3.0438	-3.0458	-2.7271	-3.2229	-2.9062	-3.0625	-3.275	-2.8063	-3.1854	-2.9396	-2.9396	-3.15	-2.8917	49.005	201.518	88.833	32.672	3.127	35.890	207.662	211.299	288.835	29.388	276.209	236.463	-45.906	-36.671	184.992	219.797	0.00010877	0.00066726	0.00058351	481.03	3.6496e-05	5.1987e-06	399.45	241.53	1.6281e-05	3.5356e-05	231.11	89.716	98.769	35.723	3.9873e-05	32.491	0.049952	0.067172	0.018882	1028.7	0.00074935	0.0007992	918.03	420.93	0.00080924	0.00088767	595.99	207.12	219.21	77.803	0.00098906	96.171	116.179	245.937	168.386	-54.992	58.817	194.264	-55.960	-49.825	153.902	163.858	-52.702	-48.457	-45.693	-41.519	121.446	-44.230	-8191	255	
41362.160	1	1	0	0	0.072372	0.21778	0.087476	0.045944	0.13637	0.17472	0.16655	0.23448	0.20382	0.057362	0.26166	0.19341	0.18265	0.054635	0.32586	0.096334	-2.7083	-3.2562	-2.6833	-3.2812	-2.9188	-2.9208	-3.1458	-2.9896	-3.0875	-3.1771	-3.0125	-3.1271	-3.1146	-2.8146	-3.2354	-2.9375	190.699	221.383	65.861	248.353	205.773	186.825	-59.561	-54.265	175.227	-5.048	287.094	283.700	-61.219	121.905	199.638	278.890	0.00032603	0.0013883	0.0006194	404.58	2.7931e-05	1.0234e-05	337.74	199.23	4.2445e-06	1.3652e-05	192.94	82.374	87.603	31.613	2.59e-05	29.41	0.073495	0.099541	0.027939	1217.1	0.0010816	0.0011422	1077.6	450.57	0.0011078	0.0011868	678.04	233.71	240.64	83.931	0.0011878	103.3	-64.315	119.121	-40.181	-54.047	177.301	-33.381	-55.612	-49.413	152.910	58.648	-51.790	-48.310	-45.289	-40.753	-36.814	-44.027	-8191	255	
41362.258	1	1	0	0	0.17559	0.14641	0.15359	0.19636	0.16787	0.34922	0.18393	0.24436	0.069995	0.061121	0.084439	0.090822	0.16336	0.15493	0.15583	0.11867	-2.4188	-3.1958	-2.7896	-3.0646	-2.9896	-2.6896	-3.1333	-2.9104	-2.85	-3.0167	-2.9521	-3.2812	-3.1542	-2.9292	-3.2812	-2.8937	-8.493	3.761	102.482	-62.245	279.641	35.402	224.562	-65.309	89.751	232.213	210.239	212.065	258.444	-50.359	120.371	12.317	0.00040224	0.0028041	0.00090904	384.76	3.0989e-05	4.2616e-05	326.89	183.33	2.5738e-05	3.6891e-05	182.86	78.124	83.888	30.349	2.1624e-05	28.355	0.083001	0.11039	0.03071	1266.8	0.0011644	0.0012223	1112.7	447.06	0.0011492	0.0012191	674.43	229.74	233.39	80.145	0.0011022	94.43	258.775	228.277	140.201	-54.007	-14.658	15.322	-54.615	-49.075	284.397	-62.360	-52.058	-48.340	-45.711	-41.097	104.179	-44.193	-8191	255	
41362.352	1	1	0	0	0.092535	0.19104	0.25693	0.21703	0.23893	0.14903	0.30423	0.2284	0.14511	0.090305	0.21389	0.22308	0.058955	0.12913	0.11157	0.15393	-2.5354	-3.2062	-2.8271	-3.025	-3.125	-2.7979	-3.2313	-3.1208	-2.7042	-3.0687	-2.8187	-3.1271	-3.2229	-2.9375	-2.9938	-3.1167	-35.156	-9.813	-32.513	168.651	243.330	208.847	236.427	-54.147	57.319	109.622	-42.672	278.541	249.470	4.505	223.011	-24.973	8.4763e-05	0.00079311	0.00057388	399.62	2.2808e-05	6.2132e-05	346.89	188.5	9.757e-06	2.1805e-05	192.18	78.189	84.83	31.123	1.4211e-05	30.199	0.07044	0.089307	0.023586	1042.3	0.00083062	0.00085719	885.31	368.83	0.00078167	0.0008279	522.79	179.15	184.33	64.39	0.0007402	74.438	91.989	178.640	74.048	-54.467	97.776	-3.957	-54.814	-48.819	221.609	148.206	-51.794	-47.738	-45.345	-40.217	239.232	-44.315	-8191	255	
41362.449	1	1	0	0	0.17655	0.079557	0.073929	0.30615	0.10217	0.22998	0.26437	0.20655	0.049133	0.10888	0.064165	0.078125	0.070958	0.017252	0.13964	0.13294	-2.3125	-2.8875	-3	-2.9125	-3.2062	-2.8542	-2.9979	-3.0979	-2.7938	-3.1813	-2.9583	-2.9583	-3.0917	-2.8896	-3.0896	-3.2604	97.313	-48.798	32.573	204.267	148.846	-61.453	278.632	-65.824	192.054	159.365	181.117	188.327	287.628	73.631	88.031	202.124	0.00061378	0.0018869	0.00034393	414.56	9.5516e-06	4.9492e-05	355.68	189.67	1.511e-05	1.7184e-05	194.07	81.464	88.399	33.304	8.1716e-06	31.85	0.048381	0.063306	0.017237	893.31	0.00062642	0.00065648	767.13	328.34	0.00060204	0.00064334	448.16	159.87	167.36	60.287	0.00060552	68.913	195.324	-31.820	244.635	-54.067	292.888	20.758	-54.674	-48.939	49.957	-46.395	-51.732	-47.931	-45.780	-40.401	139.442	-44.053	-8191	255	
41362.570	1	1	0	0	0.11271	0.22505	0.09118	0.133	0.14819	0.063725	0.21109	0.13503	0.054589	0.081673	0.0025349	0.013567	0.21775	0.094843	0.06458	0.24554	-2.4083	-3.1	-2.7812	-2.8021	-3.0625	-2.7833	-2.9708	-3.0083	-2.7313	-3.1354	-2.8583	-2.9667	-3.1292	-3.0021	-3.0958	-3.1813	104.234	258.462	220.283	255.889	288.934	168.888	253.153	259.059	232.766	83.920	162.578	223.841	256.597	176.275	127.210	255.858	0.00036741	0.0030551	0.00022041	413.52	7.2846e-06	1.2654e-05	350.76	187.51	1.7968e-05	1.7292e-05	189.52	79.981	88.082	33.333	3.1207e-05	31.52	0.041566	0.055539	0.015446	845.75	0.000579	0.00061572	737.2	316.53	0.00057405	0.00061775	435.43	155.87	164.41	59.629	0.00060596	68.45	-51.393	-6.400	-30.552	-53.892	137.287	36.744	-55.608	-49.087	191.666	130.154	-51.855	-47.986	-45.682	-40.749	70.530	-43.834	-8191	255	
41362.664	1	1	0	0	0.37071	0.23696	0.075885	0.10688	0.2321	0.14283	0.089538	0.25406	0.24416	0.11555	0.27726	0.1207	0.067534	0.25598	0.25819	0.052907	-2.3063	-2.9813	-2.9292	-2.8583	-3.2146	-2.9188	-2.9771	-3.0687	-2.8958	-2.9792	-3.1458	-2.8063	-3.2938	-3.0021	-2.8604	-3.0708	30.772	-41.785	-61.374	250.086	112.503	53.726	199.674	185.981	44.075	141.276	262.452	-47.372	268.088	257.318	-21.880	131.514	9.0822e-05	0.0014617	0.00039125	408.14	1.6953e-05	3.4275e-05	343.62	185.91	1.1717e-05	1.4661e-05	185.17	78.238	87.133	33.223	2.0676e-06	32.054	0.042254	0.056826	0.015696	850.32	0.00058718	0.00062569	740.85	317.4	0.00058288	0.00062244	433.89	154.31	163.13	59.052	0.0005857	67.908	236.382	-51.345	257.919	-54.311	252.701	168.733	-55.139	-48.993	34.923	150.386	-51.842	-48.083	-45.666	-40.636	225.949	-44.068	-8191	255	
41362.738	1	1	0	0	0.11372	0.19237	0.080612	0.075205	0.2714	0.32503	0.098709	0.178	0.11154	0.30891	0.16958	0.079478	0.089802	0.11888	0.26041	0.037059	-2.5375	-2.9146	-2.8583	-2.7479	-3.1917	-3.0271	-2.9396	-3.1208	-2.65	-3.0208	-3.1521	-2.8146	-3.2	-2.9229	-2.9125	-3.3458	63.307	17.362	37.031	176.166	93.300	73.645	284.904	265.171	-35.083	49.357	-26.003	274.599	-21.486	276.065	-41.952	238.071	0.00033896	0.0019837	0.00063378	418.29	9.2875e-06	3.5501e-05	359.04	195.06	2.6907e-05	1.7131e-05	192.79	82.249	91.806	34.438	3.9033e-05	33.694	0.044645	0.063447	0.018491	963.73	0.00076026	0.00083698	911.2	389.74	0.00089455	0.001004	611.77	216.14	228.89	81.285	0.0010509	97.244	85.130	11.021	277.020	-54.188	75.839	43.326	-55.290	-48.948	141.346	29.983	-52.456	-48.236	-46.013	-41.253	104.409	-44.573	-8191	255	
41362.832	1	1	0	0	0.29421	0.096087	0.15742	0.18179	0.051378	0.10171	0.23915	0.069463	0.20247	0.20681	0.18199	0.24173	0.32447	0.24082	0.26606	0.30897	-2.4125	-3.1917	-2.8563	-2.7854	-3.0687	-3.2854	-2.8729	-3.3	-2.9792	-2.9	-3.1813	-2.9	-3.2396	-3.0229	-2.8021	-3.1625	275.134	100.450	1.973	-27.119	193.590	217.284	-8.895	186.932	-3.582	144.060	175.156	238.475	-36.884	115.562	20.789	180.436	0.000396	0.0022075	0.00036038	439.38	2.0671e-05	3.2103e-05	375.97	193.38	2.1395e-05	1.3557e-05	189.99	85.941	92.195	34.844	4.1046e-05	33.565	0.072201	0.095622	0.026182	1184.4	0.00098318	0.0010362	1029.4	412.99	0.0009665	0.0010331	601.07	213.69	221.62	78.669	0.0009751	92.554	226.359	-3.408	4.664	-54.428	152.238	131.215	-55.212	-48.800	-21.986	217.285	-51.816	-47.549	-45.880	-40.996	240.255	-44.765	-8191	255	
41362.953	1	1	0	0	0.13102	0.056835	0.33092	0.14306	0.21822	0.14343	0.089895	0.26622	0.12607	0.32347	0.19755	0.13544	0.34159	0.090888	0.073163	0.30188	-2.4771	-2.9083	-3.1229	-2.8042	-3.1979	-3.0187	-2.8688	-3.3208	-2.8812	-2.9208	-3.3063	-2.9229	-3.0229	-3.0354	-2.8667	-3.3417	80.646	292.171	169.659	260.437	200.811	160.753	-32.185	189.254	69.517	-42.892	-32.083	-24.466	226.071	23.451	144.556	223.203	0.0007453	0.0022037	0.0011323	422.83	4.6084e-05	3.2434e-05	374	175.77	2.828e-06	2.619e-05	166.63	80.566	86.915	33.325	1.3184e-05	31.358	0.067584	0.090248	0.025115	1150.3	0.00098736	0.0010623	1063.3	408.26	0.0010445	0.0011292	624.62	224.57	232.28	82.706	0.0011194	101.03	222.079	5.478	-3.031	-54.274	161.399	-7.876	-55.472	-48.931	266.269	164.547	-51.780	-47.577	-44.982	-40.782	150.971	-44.384	-8191	255	
41363.047	1	1	0	0	0.057743	0.14971	0.13443	0.24005	0.23982	0.17138	0.17764	0.23279	0.18606	0.15554	0.12843	0.080738	0.17171	0.10898	0.25533	0.026136	-2.4479	-2.8479	-3.5229	-2.7958	-3.1417	-3.0938	-2.9333	-3.3875	-3.0958	-3.0146	-3.2083	-2.8125	-3.0146	-3.2479	-2.9771	-3.2229	29.277	20.859	90.790	159.204	97.136	112.840	-57.635	218.775	52.265	6.184	247.800	135.374	204.577	107.667	230.914	14.167	0.00042913	0.0012911	0.00051171	450.35	9.5419e-06	2.4338e-05	397.9	149.99	2.9107e-05	4.8657e-05	146.78	76.15	80.233	31.162	3.5233e-05	30.451	0.079302	0.10616	0.029477	1297.9	0.0011327	0.0011974	1158	406.34	0.0011164	0.0011764	616.61	219.89	222.62	78.385	0.0010485	93.429	287.230	-64.398	259.803	-54.485	-49.657	70.219	-55.524	-47.933	-35.038	-2.077	-51.238	-47.602	-45.404	-41.303	162.886	-45.233	-8191	255	
41363.145	1	1	0	0	0.14483	0.20081	0.051757	0.29116	0.19428	0.075093	0.20212	0.11787	0.13745	0.15784	0.098365	0.39709	0.1708	0.20098	0.21985	0.21158	-2.6708	-3.0667	-3.1271	-2.8812	-2.9917	-3.3167	-2.7875	-3.1854	-2.9667	-2.9583	-3.15	-2.9625	-3.0875	-3.0729	-2.7646	-3.0979	93.010	39.491	-63.578	212.801	227.586	41.718	-15.376	19.385	281.220	99.163	112.730	217.630	192.984	284.299	184.372	-38.214	0.00018559	0.0028787	0.00057061	383.41	3.4813e-05	1.1544e-05	336.33	150.29	1.6985e-05	3.4899e-05	150.64	74.341	78.349	29.16	2.0987e-05	28.387	0.070214	0.091208	0.024671	1077	0.0008919	0.00091362	902.45	336.22	0.00079934	0.00083882	486.74	179.28	182.18	64.511	0.00080256	77.147	180.804	280.171	-58.463	-54.828	169.883	115.898	-55.389	-48.625	36.699	83.209	-52.335	-47.979	-45.505	-41.462	-54.254	-44.645	-8191	255	
41363.238	1	1	0	0	0.22845	0.10286	0.14543	0.23993	0.15056	0.1827	0.18591	0.38436	0.099536	0.18062	0.080765	0.037269	0.22085	0.060285	0.17654	0.17211	-2.6625	-2.6604	-3.1729	-2.8979	-2.9042	-3.0917	-2.8458	-3.1479	-3.1354	-2.8104	-3.1458	-2.9896	-2.8583	-3.1708	-2.7958	-3.0208	152.884	101.716	177.271	235.169	105.316	152.893	231.833	-51.475	206.314	204.599	241.162	111.439	254.420	242.289	102.520	189.784	0.00011546	0.0027119	0.00020819	360.73	1.9334e-05	2.9875e-05	322.47	145.82	1.1034e-05	3.666e-05	148.51	72.625	76.125	27.878	1.156e-05	27.074	0.055203	0.072096	0.019557	904.8	0.00070192	0.00071759	766.19	295.14	0.00063929	0.00066749	411.99	151.89	152.55	53.46	0.00056702	60.909	19.140	153.366	-64.522	-53.884	264.818	-63.254	-54.670	-48.687	203.433	49.008	-52.202	-48.629	-45.544	-41.339	152.040	-44.738	-8191	255	
41363.359	1	1	0	0	0.12475	0.21831	0.12057	0.35123	0.24165	0.065295	0.3004	0.23884	0.20949	0.16616	0.089661	0.16398	0.1164	0.18588	0.076946	0.051043	-2.6271	-2.65	-3.05	-2.7833	-2.9104	-3.2958	-2.8854	-2.8333	-3.1312	-2.9	-3.1917	-3.0687	-2.8792	-3.2938	-2.9583	-2.9646	149.946	115.416	211.013	-13.731	270.854	202.394	197.983	233.343	251.104	255.413	-14.541	-3.320	-39.039	272.236	190.001	113.418	0.00034289	0.0017388	0.00042311	362.79	1.1066e-05	2.1029e-05	320.78	145.26	1.5684e-05	2.3115e-05	146.45	70.888	73.517	27.759	1.0836e-05	26.65	0.037749	0.049166	0.013519	742.65	0.00051374	0.00054243	669.21	262.13	0.0005105	0.00053632	356.6	134.19	134.8	47.637	0.00043834	52.289	262.930	29.979	3.988	-54.207	67.894	188.948	-54.844	-48.084	93.544	208.248	-50.992	-48.358	-45.395	-41.402	91.544	-44.400	-8191	255	
41363.434	1	1	0	0	0.13169	0.22619	0.13317	0.14445	0.19583	0.15593	0.11493	0.25227	0.16634	0.059257	0.18079	0.19749	0.17492	0.10714	0.26613	0.026058	-2.5729	-2.8021	-2.9458	-2.8521	-2.7979	-3.0125	-2.9458	-3.0021	-3.1583	-2.8167	-3.1063	-3.1542	-2.8979	-3.225	-2.7708	-2.8396	-28.088	107.511	3.013	-35.968	26.462	243.661	173.427	267.057	-13.969	126.136	243.900	292.978	166.294	-17.864	-4.943	163.403	0.00034785	0.0014838	0.0004761	362.81	1.0784e-05	1.7248e-05	324.31	148.75	1.4062e-05	1.5261e-05	147.2	71.553	74.834	28.339	1.2099e-05	26.626	0.028199	0.036334	0.0098122	623.48	0.00034646	0.00035238	537.11	214.91	0.00028383	0.00028497	253.2	101.52	102.53	37.068	0.00019994	38.132	-28.360	185.689	210.782	-54.556	-11.044	-10.354	-55.358	-48.579	200.704	175.674	-51.630	-48.261	-45.753	-41.088	257.676	-44.857	-8191	255	
41363.555	1	1	0	0	0.2601	0.0098029	0.072322	0.057055	0.11391	0.2217	0.39792	0.076511	0.043298	0.3081	0.13907	0.17051	0.1032	0.091491	0.11425	0.24053	-2.6771	-2.6312	-2.9292	-3.0083	-2.8063	-3.1667	-3.0104	-2.8625	-3.2021	-2.7812	-3.0646	-3.1521	-2.7146	-3.2313	-2.7812	-2.7313	-44.627	220.942	239.798	162.239	51.223	89.956	252.018	164.053	-64.378	139.015	261.193	-16.460	9.871	208.968	195.757	20.379	0.00018005	0.00018487	0.0002244	362.33	1.3121e-05	3.2567e-06	332.91	147.88	8.2038e-06	1.3735e-05	148.25	70.541	73.862	27.751	2.1673e-06	26.169	0.013031	0.017422	0.0047266	486.87	0.00017104	0.00017999	436.01	182.02	0.00015598	0.00015988	206.13	87.54	89.773	32.835	0.00011784	32.631	212.944	156.785	-12.890	-53.901	75.910	276.902	-55.093	-48.868	-57.767	98.689	-51.620	-48.279	-45.233	-40.928	245.066	-44.333	-8191	255	
#DATA ENDS
