BOXY.EXE: ISS Imagent and Oximeter Data Acquisition Program Version 0.80
Ascii Record File

#ACQ INFORMATION
2  Detector Channels 
16  External MUX Channels 
1  Auxiliary Channels 
5000  Waveform (CCF) Frequency (Hz)
1  Waveforms Skipped 
30  Waveforms Averaged 
1  Cycles Averaged 
16  Acquisitions per Waveform 
10.0806  Updata Rate (Hz) 

#FILE INFORMATION
TRUE -- External MUX Channel results are PARSED.
FALSE -- AC DC and Phase are NOT grouped.
TRUE -- Companion Program Settings File CREATED.
FALSE -- AC data not excluded
FALSE -- DC data not excluded
FALSE -- Phase data not excluded
FALSE -- Auxillary Chn. data not excluded
Tab delimiters

#CALIBRATION STATE
TRUE -- Waveform Calibration Values APPLIED.


#AUX CALIBRATION VALUES
Val Type	aux-1	

Term	1.0000e+00	
Factor	0.0000e+00	


#WF CALIBRATION VALUES
A = Detector Channel
Val Type	A-AC1	A-AC2	A-AC3	A-AC4	A-AC5	A-AC6	A-AC7	A-AC8	A-AC9	A-AC10	A-AC11	A-AC12	A-AC13	A-AC14	A-AC15	A-AC16	A-DC1	A-DC2	A-DC3	A-DC4	A-DC5	A-DC6	A-DC7	A-DC8	A-DC9	A-DC10	A-DC11	A-DC12	A-DC13	A-DC14	A-DC15	A-DC16	A-Ph1	A-Ph2	A-Ph3	A-Ph4	A-Ph5	A-Ph6	A-Ph7	A-Ph8	A-Ph9	A-Ph10	A-Ph11	A-Ph12	A-Ph13	A-Ph14	A-Ph15	A-Ph16	

Term	0.00000e+00	0.00000e+00	0.00000e+00	0.00000e+00	0.00000e+00	0.00000e+00	0.00000e+00	0.00000e+00	0.00000e+00	0.00000e+00	0.00000e+00	0.00000e+00	0.00000e+00	0.00000e+00	0.00000e+00	0.00000e+00	0.00000e+00	0.00000e+00	0.00000e+00	0.00000e+00	0.00000e+00	0.00000e+00	0.00000e+00	0.00000e+00	0.00000e+00	0.00000e+00	0.00000e+00	0.00000e+00	0.00000e+00	0.00000e+00	0.00000e+00	0.00000e+00	0.00000e+00	0.00000e+00	0.00000e+00	0.00000e+00	0.00000e+00	0.00000e+00	0.00000e+00	0.00000e+00	0.00000e+00	0.00000e+00	0.00000e+00	0.00000e+00	0.00000e+00	0.00000e+00	0.00000e+00	0.00000e+00	
Factor	1.00000e+00	1.00000e+00	1.00000e+00	1.00000e+00	1.00000e+00	1.00000e+00	1.00000e+00	1.00000e+00	1.00000e+00	1.00000e+00	1.00000e+00	1.00000e+00	1.00000e+00	1.00000e+00	1.00000e+00	1.00000e+00	1.00000e+00	1.00000e+00	1.00000e+00	1.00000e+00	1.00000e+00	1.00000e+00	1.00000e+00	1.00000e+00	1.00000e+00	1.00000e+00	1.00000e+00	1.00000e+00	1.00000e+00	1.00000e+00	1.00000e+00	1.00000e+00	X	X	X	X	X	X	X	X	X	X	X	X	X	X	X	X	

B = Detector Channel
Val Type	B-AC1	B-AC2	B-AC3	B-AC4	B-AC5	B-AC6	B-AC7	B-AC8	B-AC9	B-AC10	B-AC11	B-AC12	B-AC13	B-AC14	B-AC15	B-AC16	B-DC1	B-DC2	B-DC3	B-DC4	B-DC5	B-DC6	B-DC7	B-DC8	B-DC9	B-DC10	B-DC11	B-DC12	B-DC13	B-DC14	B-DC15	B-DC16	B-Ph1	B-Ph2	B-Ph3	B-Ph4	B-Ph5	B-Ph6	B-Ph7	B-Ph8	B-Ph9	B-Ph10	B-Ph11	B-Ph12	B-Ph13	B-Ph14	B-Ph15	B-Ph16	

Term	0.00000e+00	0.00000e+00	0.00000e+00	0.00000e+00	0.00000e+00	0.00000e+00	0.00000e+00	0.00000e+00	0.00000e+00	0.00000e+00	0.00000e+00	0.00000e+00	0.00000e+00	0.00000e+00	0.00000e+00	0.00000e+00	0.00000e+00	0.00000e+00	0.00000e+00	0.00000e+00	0.00000e+00	0.00000e+00	0.00000e+00	0.00000e+00	0.00000e+00	0.00000e+00	0.00000e+00	0.00000e+00	0.00000e+00	0.00000e+00	0.00000e+00	0.00000e+00	-1.03364e+02	-1.28589e+02	-1.22771e+02	-1.82799e+02	-5.29327e+01	-6.36955e+01	-1.54998e+02	-1.62015e+02	-5.44320e+01	-6.23480e+01	-1.71853e+02	-1.69414e+02	-1.80018e+02	-1.77411e+02	-5.74280e+01	-1.48938e+02	
Factor	1.60856e-05	1.42380e-04	4.19562e-05	1.84207e-01	1.34200e-06	1.50499e-06	1.63323e-01	4.88771e-02	1.25689e-06	1.78350e-06	9.25773e-02	2.71365e-02	2.66344e-02	8.67124e-03	1.27850e-06	1.23973e-02	7.02452e-06	9.64614e-06	2.71299e-06	9.29001e-02	1.02271e-07	1.07808e-07	7.77924e-02	2.48455e-02	1.01700e-07	1.07589e-07	4.55974e-02	1.35142e-02	1.37367e-02	4.44083e-03	1.04084e-07	6.15744e-03	X	X	X	X	X	X	X	X	X	X	X	X	X	X	X	X	



#DISTANCE SETTINGS
A = Detector Channel
A-1	A-2	A-3	A-4	A-5	A-6	A-7	A-8	A-9	A-10	A-11	A-12	A-13	A-14	A-15	A-16	

2.5000e+00	3.0000e+00	2.5000e+00	3.0000e+00	2.0000e+00	3.0000e+00	1.5000e+00	3.0000e+00	3.0000e+00	3.0000e+00	3.0000e+00	3.0000e+00	3.0000e+00	3.0000e+00	1.5000e+00	3.0000e+00	

B = Detector Channel
B-1	B-2	B-3	B-4	B-5	B-6	B-7	B-8	B-9	B-10	B-11	B-12	B-13	B-14	B-15	B-16	

1.0000e+01	1.0000e+01	1.0000e+01	1.4400e+00	1.0000e+01	1.0000e+01	1.5100e+00	1.9400e+00	1.0000e+01	1.0000e+01	1.9900e+00	2.4900e+00	2.4100e+00	2.9000e+00	1.0000e+01	2.9800e+00	




#DATA BEGINS
time	group	step	mark	flag	A-AC1	A-AC2	A-AC3	A-AC4	A-AC5	A-AC6	A-AC7	A-AC8	A-AC9	A-AC10	A-AC11	A-AC12	A-AC13	A-AC14	A-AC15	A-AC16	A-DC1	A-DC2	A-DC3	A-DC4	A-DC5	A-DC6	A-DC7	A-DC8	A-DC9	A-DC10	A-DC11	A-DC12	A-DC13	A-DC14	A-DC15	A-DC16	A-Ph1	A-Ph2	A-Ph3	A-Ph4	A-Ph5	A-Ph6	A-Ph7	A-Ph8	A-Ph9	A-Ph10	A-Ph11	A-Ph12	A-Ph13	A-Ph14	A-Ph15	A-Ph16	B-AC1	B-AC2	B-AC3	B-AC4	B-AC5	B-AC6	B-AC7	B-AC8	B-AC9	B-AC10	B-AC11	B-AC12	B-AC13	B-AC14	B-AC15	B-AC16	B-DC1	B-DC2	B-DC3	B-DC4	B-DC5	B-DC6	B-DC7	B-DC8	B-DC9	B-DC10	B-DC11	B-DC12	B-DC13	B-DC14	B-DC15	B-DC16	B-Ph1	B-Ph2	B-Ph3	B-Ph4	B-Ph5	B-Ph6	B-Ph7	B-Ph8	B-Ph9	B-Ph10	B-Ph11	B-Ph12	B-Ph13	B-Ph14	B-Ph15	B-Ph16	aux-1	digaux	

11023.726	1	1	0	256	0.25175	0.24395	0.17124	0.37621	0.11258	0.12566	0.19002	0.23902	0.20251	0.029309	0.21499	0.057068	0.030143	0.16351	0.122	0.15663	-2.7917	-2.9854	-3.2646	-3.15	-3.1229	-3.1417	-3.1271	-3.0812	-3.3	-3.1146	-3.4104	-3.1167	-3.2146	-3.2229	-2.9208	-3.1458	180.889	158.333	194.118	-98.307	43.585	97.894	72.608	185.502	-97.854	54.331	216.235	156.972	-12.165	203.904	131.198	203.198	9.1142e-05	0.00038082	1.7063e-05	1176.1	2.9483e-06	1.9886e-06	1236.9	244.3	1.1902e-06	5.3617e-06	306.45	83.678	65.365	19.275	2.7146e-06	27.275	0.00065158	0.00083455	0.00023657	1152.4	8.9121e-06	9.1954e-06	1217.3	242.62	9.0466e-06	9.2632e-06	303.64	84.715	66.245	19.5	9.2635e-06	27.711	226.054	-42.556	55.003	-111.982	-12.096	70.421	-112.018	-105.159	-51.491	52.161	-105.401	-99.237	-98.464	-92.040	-3.439	-92.290	-8191	255	
11023.822	1	1	0	0	0.14836	0.082684	0.13321	0.40785	0.2192	0.12495	0.22152	0.24644	0.12366	0.19249	0.039873	0.22593	0.29961	0.022862	0.33845	0.13639	-2.6604	-2.9083	-3.2604	-3.1375	-3.0229	-3.325	-3.1854	-3.3	-3.2292	-3.2396	-3.3021	-2.9729	-2.9354	-3.475	-2.9771	-3.1437	-48.866	187.385	215.474	203.824	215.052	129.926	199.657	195.254	35.458	202.229	129.376	178.761	226.937	58.983	126.020	86.815	0.00011837	0.00038155	9.0528e-05	1176.8	1.7448e-06	1.7771e-06	1236.9	244.57	4.0304e-06	2.4386e-06	303.6	83.073	65.736	19.035	2.3011e-06	27.119	0.00067267	0.00085656	0.00023747	1151.2	9.0091e-06	9.3757e-06	1214.5	243.19	9.0454e-06	9.3139e-06	302.9	84.4	66.376	19.431	8.8296e-06	27.607	223.092	-72.038	-21.644	-112.366	-47.402	17.726	-112.073	-105.527	18.713	39.438	-105.494	-99.115	-98.576	-91.726	77.972	-92.020	-8191	255	
11023.918	1	1	0	0	0.14199	0.06196	0.33692	0.20716	0.13661	0.10985	0.11271	0.12129	0.17669	0.089015	0.031584	0.18775	0.14823	0.23266	0.03456	0.21319	-2.7812	-2.95	-3.1979	-3.1083	-2.9396	-3.2708	-3.0125	-3.0854	-3.325	-2.9521	-3.1375	-3.1375	-2.8917	-3.2625	-2.8854	-3.2125	-83.249	79.241	0.161	220.623	85.262	198.532	190.733	147.174	224.050	-112.156	141.123	135.984	12.248	163.112	-10.027	0.457	0.00012792	0.00044177	1.0712e-05	1170.3	3.4596e-06	4.2306e-06	1229.1	243.42	3.2717e-06	6.9861e-06	303.56	83.947	65.633	19.233	1.5251e-06	27.242	0.00064334	0.0008194	0.00022573	1144.6	8.8241e-06	8.9104e-06	1209.6	241.84	8.6941e-06	9.009e-06	301.89	84.544	66.246	19.44	8.8021e-06	27.595	230.381	-42.749	124.670	-112.263	54.308	5.430	-112.147	-105.288	8.707	48.418	-105.367	-99.016	-98.670	-91.506	57.648	-92.498	-8191	255	
11024.039	1	1	0	0	0.32529	0.22765	0.071756	0.20514	0.1621	0.30319	0.079884	0.11352	0.14576	0.14778	0.10857	0.072999	0.070414	0.15755	0.075672	0.16048	-2.6729	-2.9188	-3.1437	-3.2729	-2.9208	-3.2313	-3.1437	-2.9979	-3.3292	-3.0792	-3.1604	-3.2771	-3.0458	-3.1063	-3.1333	-3.125	44.169	206.139	-30.512	217.333	10.965	-10.579	58.087	135.589	215.785	-45.287	34.116	-72.886	213.676	183.859	18.899	-72.297	0.00011869	0.00012253	0.00012338	1169.1	3.8176e-06	4.3849e-06	1225.8	243.53	1.8432e-06	1.917e-06	305.03	83.505	65.67	19.233	1.0394e-06	27.133	0.00063626	0.00081532	0.00022513	1144.4	8.6779e-06	9.0042e-06	1208.1	241.93	8.5068e-06	8.7876e-06	302.24	84.406	66.282	19.449	8.6405e-06	27.516	223.778	99.757	-30.284	-112.494	17.426	49.922	-112.228	-105.153	68.762	30.805	-105.529	-99.416	-98.857	-91.818	4.412	-91.980	-8191	255	
11024.133	1	1	0	0	0.19978	0.13204	0.18748	0.13041	0.17135	0.1943	0.1035	0.1283	0.084856	0.31375	0.32967	0.24193	0.079141	0.21987	0.13996	0.29612	-2.8396	-2.9146	-2.9542	-3.4313	-3.0917	-3.1958	-3.1792	-3.1542	-3.3104	-3.0458	-3.2062	-3.25	-3.0479	-3.3708	-3.2396	-3.0812	-70.772	-13.208	-48.439	193.673	-1.893	-44.513	150.966	14.348	-29.872	180.952	164.192	225.657	97.983	-47.825	121.059	167.143	0.00014186	0.00036581	0.0001196	1169.5	2.8097e-06	3.6067e-06	1226.7	244.48	2.3015e-06	2.9997e-06	305.2	83.88	66.074	19.131	3.0723e-07	27.06	0.00063592	0.00079452	0.00021998	1143.8	8.5465e-06	8.8589e-06	1207.1	241.9	8.5928e-06	8.7762e-06	302.19	84.503	66.235	19.395	8.397e-06	27.525	-118.370	-28.883	103.357	-112.253	5.283	-5.087	-112.079	-105.582	-0.243	65.390	-105.144	-99.181	-98.767	-91.950	-105.052	-92.160	-8191	255	
11024.229	1	1	0	0	0.066851	0.20318	0.22631	0.014965	0.079163	0.10804	0.11704	0.1188	0.17452	0.20923	0.19632	0.16114	0.092511	0.17178	0.26933	0.26109	-2.7562	-2.8521	-3.1208	-3.3792	-3.0812	-3.3021	-3.3979	-3.0771	-3.2292	-3.0042	-3.1146	-3.3833	-2.9875	-3.2521	-3.0646	-2.9104	-121.362	-25.620	92.387	30.784	201.906	192.207	169.709	233.853	-82.063	-83.863	225.617	67.904	42.187	230.966	-24.429	193.454	9.1166e-05	0.0002536	6.4778e-05	1173.7	4.0667e-06	2.4938e-06	1229	243.38	4.1098e-06	6.1293e-06	304.21	83.472	65.689	19.125	1.3781e-06	27.213	0.00063768	0.00080184	0.00022187	1144.6	8.7994e-06	9.1657e-06	1208.5	241.56	8.8176e-06	9.1343e-06	301.71	84.471	66.08	19.39	8.5759e-06	27.57	228.088	-32.994	-7.335	-112.371	67.312	30.428	-111.920	-105.396	-18.826	33.573	-105.367	-99.459	-98.599	-91.744	69.519	-91.847	-8191	255	
11024.325	1	1	0	0	0.23515	0.15433	0.11878	0.22032	0.14358	0.10372	0.25771	0.10016	0.18519	0.14577	0.23067	0.35897	0.12332	0.12755	0.07888	0.17747	-2.9333	-3.0979	-3.0208	-3.4417	-3.0396	-3.1458	-3.4479	-3.2104	-3.2979	-2.9583	-2.975	-3.4	-2.9521	-3.2438	-3.1604	-2.8812	100.478	-16.160	198.704	214.552	-75.435	91.241	179.397	161.768	-16.604	-12.800	-71.431	101.156	216.327	-26.041	124.228	-114.938	0.0001062	0.00035876	0.00011654	1166.9	1.7367e-06	2.4908e-06	1218	244.87	4.312e-06	4.9892e-07	303.81	83.344	65.042	18.957	3.2825e-06	26.967	0.00061428	0.00077629	0.00021789	1141	8.3181e-06	8.4535e-06	1204.4	241.69	8.3608e-06	8.4368e-06	301.49	84.347	65.949	19.307	8.0902e-06	27.506	205.475	-21.153	-33.381	-112.323	215.680	14.301	-111.949	-105.260	16.262	-33.305	-105.197	-99.048	-98.712	-91.675	53.448	-91.861	-8191	255	
11024.422	1	1	0	0	0.16128	0.034617	0.12463	0.20566	0.055905	0.083395	0.043774	0.053527	0.20539	0.11121	0.23567	0.050948	0.25494	0.16366	0.085567	0.064179	-2.6958	-2.9125	-2.9625	-3.5354	-2.9708	-3.0833	-3.4729	-3.0687	-3.0896	-3.1229	-2.9021	-3.3167	-3.0458	-3.2188	-3.3292	-2.9688	77.729	88.407	-39.105	162.195	20.550	93.169	142.827	-61.031	149.996	-10.479	207.325	-44.487	147.169	143.277	-2.705	-62.179	0.00013329	0.00046121	0.00010892	1160.5	2.8753e-06	1.8104e-06	1220.6	242.7	9.0657e-07	2.9166e-06	301.22	83.128	64.88	18.986	3.8154e-06	26.931	0.00060273	0.00073859	0.00020617	1136.9	8.0515e-06	8.2029e-06	1199.4	240.68	8.0574e-06	8.2929e-06	300.24	83.912	65.618	19.245	7.8052e-06	27.237	227.396	15.407	-41.564	-112.501	9.175	16.966	-111.845	-105.305	21.445	28.922	-105.616	-99.061	-99.098	-91.827	86.213	-91.793	-8191	255	
11024.518	1	1	0	0	0.11942	0.19335	0.26974	0.33159	0.17701	0.23457	0.21942	0.17544	0.33518	0.1303	0.19969	0.24153	0.05954	0.14651	0.17725	0.053495	-2.7729	-3.0833	-2.7729	-3.275	-3.1562	-3.0292	-3.3083	-2.9583	-3.225	-3.1354	-2.9729	-3.2542	-2.9958	-2.9708	-3.2	-2.9333	-19.127	-106.690	-56.594	158.288	142.927	-36.842	235.065	173.450	-0.072	2.633	231.175	167.888	-100.277	206.297	-63.696	59.953	0.00013794	0.00029544	4.5152e-05	1145.9	6.2275e-07	4.0467e-06	1206.5	239.4	2.2109e-06	3.9893e-06	301.03	82.507	64.596	18.981	1.8965e-06	26.625	0.00057826	0.00073421	0.00020597	1123.6	7.9318e-06	8.0692e-06	1186.9	238.54	8.0815e-06	8.1923e-06	298.43	83.56	65.371	19.235	7.9876e-06	27.171	225.215	-54.558	213.943	-111.940	-7.466	35.196	-112.072	-105.387	-37.524	50.115	-105.156	-99.040	-98.910	-91.932	49.838	-92.297	-8191	255	
11024.638	1	1	0	0	0.054598	0.24158	0.041017	0.041894	0.052612	0.09345	0.3961	0.16202	0.20181	0.052872	0.093492	0.1314	0.12467	0.1857	0.069692	0.13359	-2.8354	-3.2208	-2.9354	-3.3312	-2.9271	-2.8771	-3.55	-3.1021	-3.0979	-3.0563	-3.0396	-3.2854	-2.9667	-3.1208	-3.4604	-3.0042	202.024	122.179	108.926	-68.805	-9.960	180.145	191.406	169.710	228.379	86.210	-106.697	50.786	140.222	-0.069	229.327	189.318	0.00013428	0.00029687	0.00015402	1141.7	3.4783e-06	2.572e-06	1202.7	240.62	4.4436e-06	2.7531e-06	300.15	82.815	64.873	18.931	2.1965e-06	26.677	0.00059405	0.00072881	0.00020728	1120.9	7.7795e-06	8.1274e-06	1183.2	238.51	7.7775e-06	7.867e-06	298.07	83.436	65.328	19.157	7.6803e-06	27.176	213.764	-38.734	2.019	-112.106	29.379	3.927	-112.056	-105.244	-20.520	17.932	-105.342	-99.001	-98.639	-91.804	-16.966	-91.583	-8191	255	
11024.735	1	1	0	0	0.23761	0.023093	0.15138	0.11938	0.10134	0.21093	0.20737	0.20091	0.08081	0.27991	0.24015	0.17541	0.058237	0.21143	0.48107	0.31472	-2.7271	-3.3958	-2.8896	-3.225	-3.1729	-3.1271	-3.3958	-3.0812	-3.1646	-3.325	-3.1146	-3.2542	-3.2875	-2.8438	-3.3021	-3.2917	142.986	-64.790	64.725	-114.214	-106.461	128.899	229.130	197.112	98.159	47.163	222.077	176.462	149.825	192.664	217.004	160.761	0.00012855	0.00066386	6.8264e-05	1134.7	3.7384e-06	2.5336e-06	1193.4	238.03	1.5257e-06	3.7546e-06	299.78	82.304	64.241	18.795	2.9899e-06	26.71	0.00053967	0.00068687	0.00019215	1112.9	7.4066e-06	7.5048e-06	1176.7	236.39	7.4851e-06	7.581e-06	296.38	83.015	64.776	19.047	7.7951e-06	27.183	-109.157	-23.660	39.203	-112.294	15.422	64.607	-111.837	-105.102	149.161	7.503	-105.284	-98.992	-98.664	-91.455	88.353	-91.856	-8191	255	
11024.831	1	1	0	0	0.48449	0.093134	0.15941	0.37065	0.1235	0.30215	0.19997	0.20636	0.21554	0.10699	0.097576	0.41987	0.16573	0.15935	0.1184	0.098929	-2.6771	-3.2583	-2.9708	-3.3167	-3.1167	-2.9062	-3.4625	-3.2375	-3.075	-3.3937	-2.9083	-3.2167	-3.3125	-3.0979	-3.3	-3.2229	234.299	227.211	28.613	182.993	163.433	-26.116	120.008	150.477	206.683	14.071	148.098	140.745	209.607	-79.529	151.221	230.457	9.1168e-05	0.00027453	0.00013005	1140.7	3.1904e-06	4.0105e-06	1199.1	239.51	3.0698e-06	1.3447e-06	299.97	82.143	64.182	18.937	2.6614e-06	26.826	0.00055842	0.00071588	0.00020174	1114.2	7.7537e-06	8.1121e-06	1179.9	237.12	7.8692e-06	8.0535e-06	297.49	83.144	65.094	19.134	7.7246e-06	27.154	227.240	-27.850	-48.678	-112.132	57.578	18.312	-112.058	-105.138	-64.035	27.291	-105.172	-98.727	-98.465	-91.993	85.639	-91.793	-8191	255	
11024.902	1	1	0	0	0.11554	0.18199	0.11917	0.05853	0.15911	0.1841	0.32518	0.1503	0.3131	0.20257	0.12043	0.14994	0.30813	0.31221	0.15306	0.10162	-2.5542	-3.4333	-3.0333	-3.1396	-3.3375	-2.8875	-3.3146	-3.1417	-2.8458	-3.3417	-3.1521	-3.2458	-3.2021	-3.0979	-3.1729	-3.0687	154.019	-22.115	185.240	133.909	54.220	72.314	201.007	197.557	136.186	61.976	50.645	220.440	176.186	209.111	83.162	1.605	0.00012421	9.4684e-05	6.9162e-05	1139.2	2.7075e-06	2.1681e-06	1203.2	239.31	4.0613e-06	2.4787e-06	298.88	82.414	64.42	18.908	3.715e-06	26.702	0.00056944	0.00071126	0.00020106	1114.6	7.6776e-06	8.0234e-06	1181	237.37	7.8059e-06	7.9596e-06	297.28	83.082	65.026	19.13	7.9991e-06	27.162	228.671	-29.256	-27.004	-112.307	98.990	48.981	-111.848	-105.236	-7.515	18.069	-105.393	-98.788	-99.064	-91.405	13.160	-91.933	-8191	255	
11025.023	1	1	0	0	0.1241	0.098511	0.15683	0.44637	0.16929	0.23493	0.22284	0.18679	0.20331	0.17724	0.10822	0.15263	0.11604	0.24475	0.30923	0.044303	-2.425	-3.1583	-3.0375	-3.1312	-3.2479	-2.9958	-3.2208	-3.3604	-3.0271	-3.3917	-3.0917	-2.9062	-3.3708	-2.9	-3.0521	-3.2375	28.038	69.655	73.110	173.920	35.161	84.373	193.579	174.428	74.121	37.625	24.329	-74.882	43.183	-84.102	100.873	194.219	0.00011716	0.00030455	0.00012363	1137.9	1.742e-06	4.4724e-06	1199.8	240.21	2.7447e-06	5.1246e-06	300.04	82.635	64.093	18.961	3.0037e-06	26.98	0.00057641	0.00073574	0.00020718	1113.4	7.7149e-06	8.0618e-06	1180.5	237.82	7.8767e-06	8.147e-06	297.22	83.314	65.002	19.17	7.7855e-06	27.215	-120.727	-69.450	-23.390	-112.288	38.203	74.436	-112.060	-105.114	-76.570	41.060	-105.190	-99.045	-98.613	-91.640	68.652	-91.964	-8191	255	
11025.117	1	1	0	0	0.14447	0.16558	0.057532	0.35688	0.087322	0.10957	0.16436	0.22602	0.20716	0.17224	0.16343	0.07736	0.16692	0.096302	0.12079	0.21885	-2.4437	-3.2958	-3.0333	-3.1208	-3.2583	-2.95	-3.1833	-3.2979	-2.9875	-3.2833	-3.1854	-3.0687	-3.35	-2.9	-3.1542	-3.1521	227.356	177.396	-36.211	-111.731	213.378	-99.535	207.980	-101.931	-64.523	222.536	118.608	100.007	-27.885	19.870	-1.573	92.176	0.00011564	0.00019884	0.00013492	1142.3	1.7091e-06	1.2635e-06	1209.8	240.24	2.1152e-07	4.5826e-06	300.26	82.144	64.718	19.043	2.6285e-06	26.739	0.00058248	0.00075563	0.00020754	1118.1	8.1892e-06	8.4232e-06	1186.2	238.14	8.1451e-06	8.3456e-06	298.11	83.289	65.379	19.277	8.0149e-06	27.219	222.226	28.774	-50.561	-112.134	76.647	35.129	-112.028	-105.163	-15.639	97.468	-105.403	-98.824	-98.582	-91.693	91.688	-91.921	-8191	255	
11025.214	1	1	0	0	0.20637	0.15704	0.24899	0.1013	0.091503	0.08849	0.13931	0.28171	0.10866	0.1684	0.17119	0.11216	0.21104	0.13179	0.16694	0.12917	-2.3771	-3.2938	-3.0375	-3.0312	-3.175	-2.8229	-3.3083	-3.225	-2.9542	-3.3042	-3.1708	-3.1854	-3.2833	-3.0625	-3.0229	-3.3958	-3.522	77.919	149.064	149.939	-77.047	-27.977	168.655	172.175	207.348	152.047	208.216	66.134	-63.397	103.092	154.216	219.154	0.00015386	0.00044363	7.4927e-05	1145.9	3.0268e-06	5.1835e-06	1201.2	240.64	3.279e-06	1.3298e-06	300.63	82.688	64.82	18.998	1.4663e-06	26.95	0.00060308	0.00076237	0.00020948	1119.7	8.275e-06	8.5577e-06	1184.7	238.3	8.2294e-06	8.4045e-06	298.47	83.556	65.301	19.289	8.2224e-06	27.358	232.840	-30.135	-38.787	-111.966	38.492	38.319	-111.911	-105.344	-44.384	34.706	-105.694	-99.029	-98.662	-91.626	103.287	-91.779	-8191	255	
11025.310	1	1	0	0	0.10623	0.06562	0.076123	0.043048	0.17775	0.18908	0.24507	0.14297	0.16334	0.15963	0.098203	0.22236	0.20203	0.057216	0.037142	0.16476	-2.5854	-3.2062	-3.1854	-3.0833	-3.3521	-3.0438	-3.1854	-3.2958	-2.9583	-3.2292	-3.1312	-3	-3.3583	-3.0812	-2.8854	-3.2479	-109.952	112.948	213.580	104.239	-49.810	-51.670	185.869	190.517	93.574	-93.002	96.181	94.526	-71.381	174.700	22.604	227.776	9.6508e-05	0.0001244	6.7845e-05	1146.4	4.9295e-06	4.9842e-06	1204.2	240.11	1.3942e-06	3.0914e-06	301.68	82.466	64.305	19.078	1.5001e-06	26.903	0.00062016	0.0007606	0.00020923	1123.5	8.4033e-06	8.5088e-06	1186.9	238.35	8.4519e-06	8.5565e-06	298.81	83.616	65.387	19.326	8.2884e-06	27.325	220.619	42.328	17.337	-112.199	-2.239	41.971	-112.200	-105.138	46.177	39.981	-105.273	-99.209	-98.870	-91.951	8.964	-91.989	-8191	255	
11025.430	1	1	0	0	0.15421	0.09539	0.11632	0.21658	0.046758	0.27545	0.14863	0.26589	0.071725	0.17385	0.066537	0.16038	0.011742	0.09043	0.22115	0.084124	-2.4042	-3.0729	-3.1917	-2.9083	-3.1437	-3.1271	-3.1333	-3.3083	-2.9792	-3.1583	-3.2979	-2.9396	-3.1875	-3.2062	-2.8104	-3.2271	142.511	42.947	59.747	-89.018	74.198	20.556	155.569	174.913	81.680	71.450	81.397	-38.510	91.211	-27.278	148.600	90.779	0.00011726	0.00051557	5.4493e-05	1144.9	9.6792e-07	3.5515e-06	1207.7	241.07	2.0375e-06	4.7153e-06	301.74	82.675	64.75	19.063	2.5468e-06	26.922	0.00062676	0.00077895	0.00021603	1125.4	8.6015e-06	8.6741e-06	1190.9	239.31	8.5191e-06	8.6116e-06	299.39	83.9	65.753	19.3	8.5197e-06	27.383	-110.157	-30.539	-25.445	-112.217	-2.338	59.929	-111.861	-105.360	-3.722	15.494	-105.577	-99.120	-99.065	-91.445	68.490	-91.997	-8191	255	
11025.526	1	1	0	0	0.35511	0.071023	0.18758	0.18148	0.18105	0.19633	0.05497	0.24468	0.18968	0.17804	0.072193	0.12257	0.14653	0.28102	0.20156	0.19076	-2.6042	-3.1583	-3.2604	-3.1125	-3.3812	-3.2271	-3.1521	-3.3458	-3.1375	-3.0167	-3.1792	-3.0979	-3.25	-3.3292	-3.05	-3.4396	179.824	52.918	-51.249	70.444	-55.482	143.467	-98.461	173.946	222.853	-53.196	131.659	117.488	118.997	87.385	-58.372	208.391	0.00011875	0.00038772	0.00012621	1150.2	1.3109e-06	2.5922e-06	1210.3	240.64	9.7125e-07	2.1592e-06	300.66	83.068	65.086	19.017	3.4311e-06	27.074	0.00062022	0.00078789	0.00021199	1126.9	8.4078e-06	8.4513e-06	1191.7	239.12	8.3854e-06	8.4343e-06	298.35	83.872	65.824	19.313	8.2819e-06	27.436	233.145	-0.815	26.870	-112.306	-100.074	91.827	-112.027	-105.086	-30.596	-0.646	-105.628	-98.942	-98.772	-91.754	30.465	-91.974	-8191	255	
11025.598	1	1	0	0	0.052766	0.10212	0.108	0.10086	0.16406	0.10716	0.21966	0.23765	0.10353	0.2492	0.23136	0.07784	0.23815	0.057822	0.27435	0.11343	-2.7812	-3.0729	-3.325	-3.2417	-3.1167	-3.2271	-3.1708	-3.2896	-3.2354	-2.8333	-3.4188	-3.1229	-3.225	-3.2125	-3.1021	-3.1917	-86.674	-94.307	25.153	-113.482	-85.284	57.634	-113.564	203.705	159.408	114.060	187.840	29.793	233.074	-91.732	98.576	126.086	0.00010408	5.6984e-05	9.5118e-05	1148.7	5.7895e-07	6.3425e-06	1212.3	240.97	6.7503e-07	4.1964e-06	301.34	82.818	64.777	19.057	1.7781e-06	27.199	0.00060906	0.00077061	0.00021409	1126.1	8.249e-06	8.6736e-06	1192.3	239.36	8.3496e-06	8.6116e-06	299.42	83.955	65.524	19.319	8.6416e-06	27.465	231.663	-60.026	-37.698	-112.173	-9.821	44.705	-111.884	-105.449	39.285	25.397	-105.492	-99.020	-98.247	-91.928	36.704	-92.084	-8191	255	
11025.719	1	1	0	0	0.074688	0.022067	0.2548	0.44114	0.17369	0.075908	0.33682	0.13308	0.14165	0.22904	0.071805	0.26635	0.11188	0.078148	0.057049	0.093405	-2.7687	-2.9917	-3.0938	-3.0708	-3.0312	-3.2667	-3.0146	-3.4062	-2.9896	-2.9688	-3.2229	-2.9042	-3.15	-3.4188	-2.9583	-3.3937	3.124	-90.166	41.595	152.835	86.011	13.326	-117.788	197.066	110.925	30.869	159.053	197.929	-43.773	115.394	-112.372	-96.878	0.00013876	0.00033784	6.1721e-05	1155.3	5.4634e-06	4.6972e-06	1210.9	241.32	2.5528e-06	2.6175e-06	299.77	82.81	64.577	19.117	2.7946e-06	27.132	0.00063469	0.00077493	0.00022046	1127	8.3396e-06	8.5786e-06	1191.3	239.2	8.4184e-06	8.6715e-06	298.46	83.989	65.501	19.346	8.4688e-06	27.404	236.589	3.992	-40.790	-112.335	-4.028	50.121	-112.036	-105.220	12.571	-13.162	-105.442	-98.931	-98.311	-91.270	45.186	-91.999	-8191	255	
11025.815	1	1	0	0	0.056038	0.32538	0.19201	0.2091	0.29455	0.27062	0.28524	0.083412	0.10419	0.44696	0.22814	0.14306	0.18994	0.037194	0.34187	0.093166	-2.6562	-2.9313	-3.3167	-3.15	-2.9958	-3.1521	-3.3021	-3.2875	-3.225	-2.8042	-3.5729	-2.8937	-3.0667	-3.2	-3.025	-3.1625	-47.479	83.110	212.073	203.706	19.683	97.020	207.571	201.202	-99.902	4.033	-87.902	187.438	198.883	118.944	68.717	-77.245	0.00011992	0.00019816	0.00018599	1154.3	1.5667e-06	2.3981e-06	1210.5	242.11	2.3191e-06	8.0197e-06	301.5	82.574	65.168	19.119	4.1251e-06	26.954	0.00059214	0.00076504	0.00021537	1127	8.496e-06	8.445e-06	1189	239.58	8.3822e-06	8.5924e-06	298.44	83.801	65.747	19.348	8.5406e-06	27.411	233.603	-52.077	-63.057	-112.474	14.332	-14.998	-112.104	-105.501	14.917	-1.557	-105.607	-99.097	-98.900	-91.728	22.438	-91.735	-8191	255	
11025.911	1	1	0	0	0.22473	0.081815	0.049196	0.20253	0.27537	0.26417	0.15277	0.12914	0.16705	0.15766	0.08159	0.16704	0.14838	0.15769	0.15998	0.14017	-2.8354	-3.0062	-3.4313	-3.1937	-2.975	-3.3042	-3.0833	-3.1562	-3.3167	-3.0021	-3.0417	-3.1354	-3.0958	-3.4188	-3.1083	-3.0792	-52.113	32.109	42.967	186.720	200.005	66.187	196.176	-32.681	-3.349	192.660	-77.839	128.736	130.123	95.483	-30.782	-25.019	0.00012381	0.00045671	5.5623e-05	1148.8	2.1147e-06	2.943e-06	1212.4	240.37	3.7246e-06	8.0488e-06	302.91	83.198	64.761	18.95	1.8511e-06	26.852	0.00061027	0.00076902	0.00021218	1126.4	8.0641e-06	8.2637e-06	1191.1	238.9	7.8118e-06	8.4529e-06	299.55	83.801	65.629	19.299	8.2795e-06	27.349	233.075	-2.614	2.264	-112.102	73.591	30.061	-112.084	-105.020	-53.811	35.768	-105.250	-99.360	-98.714	-91.888	69.232	-92.249	-8191	255	
11026.007	1	1	0	0	0.059249	0.053188	0.1023	0.30768	0.19371	0.18149	0.21816	0.095233	0.10223	0.11648	0.097259	0.16466	0.12264	0.050383	0.17774	0.17595	-2.9458	-3.0938	-3.2979	-3.1917	-3.0833	-3.175	-3.1292	-3.125	-3.3708	-3.0375	-3.2896	-3.1167	-2.9646	-3.2958	-3.0854	-3.1875	114.625	31.055	54.928	-102.657	26.711	209.331	133.559	44.567	221.854	-43.349	173.955	-7.287	-82.508	11.294	226.730	103.539	0.00011093	0.00024344	9.1361e-05	1143.9	1.1115e-06	4.0398e-06	1206.7	242.54	2.4009e-06	4.2375e-06	302.37	83.051	64.904	19.036	3.7937e-06	26.75	0.00059679	0.00076741	0.00021405	1124	8.1131e-06	8.655e-06	1190.6	239.35	8.0339e-06	8.567e-06	299.29	83.783	65.614	19.299	8.1461e-06	27.369	214.400	131.111	-40.741	-112.064	36.277	74.975	-111.976	-105.304	-19.409	-9.384	-105.190	-98.524	-98.563	-91.377	21.702	-91.221	-8191	255	
11026.128	1	1	0	0	0.18187	0.29881	0.066925	0.058416	0.27952	0.034098	0.31395	0.079954	0.1125	0.13254	0.19665	0.102	0.25035	0.076518	0.26826	0.23331	-2.875	-2.9917	-3.2333	-3.4188	-3.0042	-3.4146	-3.1521	-3.0333	-3.3563	-2.9521	-3.1479	-3.3021	-2.8542	-3.1042	-3.1979	-3.0187	213.630	1.945	165.716	147.061	131.936	-96.474	152.716	27.460	166.871	231.019	131.188	-61.161	-7.868	-7.424	82.067	15.934	0.00011662	0.00028917	0.00019336	1148.7	3.7089e-06	1.9645e-06	1207.4	242.84	2.6984e-06	6.1673e-06	302.67	83.282	64.984	19.189	2.3031e-06	26.853	0.00060269	0.00075624	0.00021489	1124.5	8.2848e-06	8.6269e-06	1189.9	239.62	8.1233e-06	8.4455e-06	299.59	83.875	65.518	19.369	8.2602e-06	27.375	236.780	-21.545	-60.672	-112.387	73.650	87.929	-111.996	-105.034	-80.120	36.035	-105.529	-99.128	-98.729	-91.143	13.103	-91.853	-8191	255	
11026.199	1	1	0	0	0.045954	0.35399	0.098679	0.12645	0.10379	0.068703	0.23969	0.11042	0.13395	0.16794	0.35171	0.080527	0.095564	0.12074	0.08023	0.26741	-2.825	-2.9646	-3.2188	-3.2979	-3.0333	-3.2479	-3.2042	-3.1562	-3.3187	-3.0062	-3.225	-3.4521	-2.8854	-3.1792	-3.175	-2.9104	132.268	-63.481	234.239	201.021	2.327	66.611	195.488	203.241	135.255	20.641	213.220	59.010	142.815	-93.499	181.321	182.874	0.00012542	0.00048868	3.7688e-05	1154.3	4.3505e-06	2.7693e-06	1210.1	240.62	2.4544e-06	2.8138e-06	300.58	83.015	64.959	19.066	3.8989e-07	27.009	0.00060399	0.00076231	0.00021273	1125.4	8.1212e-06	8.1928e-06	1191.4	238.81	8.0678e-06	8.3606e-06	299.48	83.6	65.559	19.269	8.0839e-06	27.441	228.875	-21.600	-40.252	-112.247	38.025	64.058	-111.800	-105.299	4.674	39.445	-105.258	-98.804	-98.481	-92.043	190.667	-92.258	-8191	255	
11026.318	1	1	0	0	0.16658	0.1962	0.067947	0.18613	0.11736	0.13054	0.1564	0.11268	0.26075	0.17636	0.19827	0.32158	0.27341	0.20146	0.12459	0.20481	-2.925	-2.8937	-3.0708	-3.4021	-2.8125	-3.1375	-3.35	-3.05	-3.1521	-2.9688	-3.1396	-3.2792	-2.9354	-3.1437	-3.2229	-2.9708	70.767	121.651	185.795	166.115	103.964	44.356	198.947	232.571	17.131	-77.962	194.814	209.904	214.619	149.153	92.103	10.275	0.00013487	0.00016794	9.98e-05	1153.3	2.9303e-06	1.1888e-06	1209.9	241.67	2.9198e-06	2.6431e-06	302.52	83.118	64.833	18.986	4.6406e-06	27.083	0.00060456	0.00075945	0.00020868	1125.1	8.1331e-06	8.2422e-06	1190.6	239.29	8.2866e-06	8.5607e-06	299.22	83.793	65.606	19.292	8.2565e-06	27.366	218.982	-7.951	-26.872	-112.355	43.889	1.767	-111.868	-105.381	50.613	-44.055	-105.628	-98.766	-98.655	-91.652	32.986	-91.706	-8191	255	
11026.415	1	1	0	0	0.11376	0.15114	0.033324	0.047531	0.1584	0.23807	0.072582	0.16331	0.1697	0.16509	0.16616	0.089844	0.095906	0.2683	0.35626	0.18974	-2.6958	-3.0354	-3.0979	-3.4333	-2.8646	-3.2	-3.4896	-2.9021	-3.2	-3.1958	-3.1	-3.5729	-3.0708	-3.2979	-3.2	-3.0042	44.986	-7.652	26.974	132.339	78.788	-54.966	199.955	208.324	-13.365	111.930	231.906	100.074	54.761	19.343	-85.606	161.323	0.00012228	0.00045676	7.8707e-05	1148.6	3.5121e-06	4.8154e-06	1208.7	241.03	2.1058e-06	2.0443e-06	301.92	82.782	64.949	19.133	1.8911e-06	27.254	0.00061744	0.00077525	0.00021069	1124.5	8.1875e-06	8.451e-06	1189.6	239.49	8.1046e-06	8.3379e-06	298.91	83.656	65.48	19.307	7.8844e-06	27.423	-116.611	-44.610	1.915	-112.145	14.083	7.653	-112.024	-105.385	-48.988	-27.811	-105.460	-99.239	-98.491	-92.005	1.730	-91.736	-8191	255	
11026.511	1	1	0	0	0.18441	0.20585	0.18204	0.19791	0.22603	0.15655	0.40517	0.15231	0.09054	0.12921	0.11161	0.3137	0.1015	0.27551	0.033607	0.12084	-2.9042	-3.025	-2.9792	-3.5896	-3.1437	-3.0687	-3.2125	-3.1583	-3.3438	-3.2646	-3.0292	-3.2875	-3.1021	-2.8812	-3.3521	-3.075	216.612	-34.975	-74.322	164.733	-48.455	13.704	140.175	104.247	-66.688	-59.367	107.425	-87.964	-82.930	140.974	13.325	208.004	0.0001046	0.00016822	1.5847e-05	1149.4	3.2716e-06	1.5552e-06	1207.5	241.35	3.0825e-06	3.0568e-06	300.83	82.384	64.89	19.142	1.4333e-06	27.048	0.0005863	0.00074563	0.00020505	1126.3	8.0852e-06	8.2848e-06	1188.9	239.37	8.2474e-06	8.2902e-06	298.85	83.683	65.579	19.333	8.1184e-06	27.469	223.606	-16.445	-64.604	-112.291	28.468	62.427	-112.208	-105.192	-14.652	30.989	-105.544	-99.367	-98.605	-91.652	130.221	-91.957	-8191	255	
11026.607	1	1	0	0	0.063328	0.1513	0.077346	0.14489	0.30588	0.14414	0.13406	0.26367	0.22279	0.089267	0.30386	0.13636	0.24587	0.084197	0.048084	0.15257	-2.7354	-3.1021	-2.9458	-3.3021	-3.0458	-2.9562	-3.4729	-3.1292	-3.0896	-3.375	-2.875	-3.2208	-3.05	-3.1646	-3.2583	-2.9479	-83.260	234.742	225.851	115.382	-32.242	3.208	132.968	195.237	-78.749	227.411	-108.173	224.846	210.222	-91.492	-91.453	-41.537	0.00010178	0.00051601	8.6447e-05	1151.9	4.6084e-06	4.3594e-06	1208.2	241.48	1.1882e-06	6.6449e-06	302.27	83.408	64.811	19.072	2.2541e-06	26.958	0.00060355	0.00077079	0.00021139	1125.9	8.2987e-06	8.3933e-06	1189.4	239.68	8.3989e-06	8.3142e-06	298.49	84.001	65.596	19.303	8.0856e-06	27.375	223.657	-25.991	-59.430	-112.309	95.415	39.310	-112.147	-105.241	85.416	27.113	-105.303	-98.829	-98.578	-91.676	-52.296	-92.071	-8191	255	
11026.727	1	1	0	0	0.26011	0.29645	0.12207	0.2364	0.080195	0.068254	0.18828	0.17013	0.16886	0.22573	0.27715	0.1741	0.043765	0.1225	0.23818	0.12498	-2.6917	-3.1604	-3.0938	-3.3625	-3.0792	-3.0312	-3.3833	-3.0312	-3.1146	-3.4167	-3.0667	-3.2354	-2.9917	-2.9729	-3.3083	-3.3125	177.007	19.805	-34.392	201.025	39.599	99.836	178.717	-8.062	197.798	-34.818	204.124	-48.155	91.961	150.076	71.811	-59.559	0.00015095	0.00046108	0.00013873	1147	3.6992e-06	2.7399e-06	1207.8	243.05	1.3659e-06	4.6292e-06	301.95	83.037	64.741	19.159	3.5539e-06	27.006	0.00061113	0.00075875	0.0002132	1126.2	8.362e-06	8.4403e-06	1191.2	239.79	8.2258e-06	8.4691e-06	299.64	83.885	65.569	19.308	8.3532e-06	27.405	224.477	-41.201	-37.161	-112.457	67.869	84.128	-112.190	-105.337	-98.261	40.310	-105.317	-99.259	-98.907	-92.168	36.448	-92.419	-8191	255	
11026.824	1	1	0	0	0.33953	0.215	0.061597	0.14107	0.12805	0.21275	0.14351	0.18649	0.2167	0.28688	0.13673	0.12653	0.24966	0.13919	0.13338	0.26128	-2.7021	-3.2	-2.85	-3.3854	-3.3167	-2.9229	-3.425	-3.0125	-3.2271	-3.1792	-3.0542	-3.1917	-3.1771	-3.1063	-3.3042	-2.9125	198.737	161.964	142.965	86.174	89.511	39.803	202.175	219.662	-56.434	-31.774	146.039	218.943	-107.591	-110.388	189.191	180.550	0.00013127	0.0004121	7.2993e-05	1144.9	1.5763e-06	4.2784e-06	1209.6	241.91	2.9615e-06	3.751e-06	301.68	83.118	65.008	19	2.1215e-06	27.103	0.00060706	0.00075897	0.00022078	1125.7	8.2612e-06	8.5431e-06	1189.6	239.5	8.1301e-06	8.4467e-06	299.86	83.784	65.693	19.293	8.3261e-06	27.501	-121.702	-16.296	44.606	-112.082	-77.800	13.557	-111.881	-105.681	42.150	36.548	-105.307	-99.107	-98.437	-92.081	-7.309	-91.555	-8191	255	
11026.895	1	1	0	0	0.065582	0.22549	0.14307	0.47259	0.081898	0.27314	0.010843	0.12589	0.17095	0.27086	0.23438	0.07253	0.34171	0.054462	0.092214	0.090451	-2.7979	-3.2396	-3.0417	-3.2625	-3.1146	-2.9188	-3.3896	-3.2521	-3.1125	-3.3	-3.0708	-3.2958	-3.2146	-2.95	-3.2125	-3.0979	91.012	112.913	-94.924	181.464	-18.342	64.784	142.881	228.865	-66.540	150.788	72.723	26.969	105.713	216.627	-118.563	37.073	0.00011368	0.00020096	9.4231e-05	1150.2	3.2138e-06	3.4414e-06	1212	239.91	3.45e-06	4.7958e-06	300.51	82.749	65.117	19.121	1.0153e-06	26.973	0.00060582	0.00076518	0.00022204	1126.5	8.1743e-06	8.5164e-06	1192.2	239.21	8.3642e-06	8.7661e-06	298.87	83.82	65.799	19.336	8.5583e-06	27.401	220.347	-61.186	-2.129	-112.271	65.337	-42.673	-111.916	-105.260	7.343	34.713	-105.723	-98.780	-98.683	-91.841	-14.432	-91.869	-8191	255	
11026.991	1	1	0	0	0.14349	0.12405	0.070612	0.2179	0.06432	0.11202	0.19605	0.11278	0.17454	0.15333	0.24538	0.17017	0.20923	0.39838	0.072402	0.18011	-2.6583	-3.125	-3.0417	-3.3104	-3.3479	-2.9542	-3.3479	-3.2021	-3.0687	-3.1937	-3.2	-3.1271	-3.3125	-3.0708	-3.0667	-3.2604	-116.241	151.658	53.809	-82.286	26.002	-9.274	222.147	-64.001	114.197	51.085	63.992	62.731	227.997	147.345	61.960	4.900	0.00015311	0.00022278	2.4183e-05	1146.5	4.6506e-06	1.7671e-06	1210.2	241.28	2.4792e-06	3.6765e-06	300.97	82.895	65.247	19.171	4.3319e-06	27.092	0.00062094	0.00077945	0.0002217	1125.9	8.3413e-06	8.5824e-06	1190.7	239.09	8.1911e-06	8.5755e-06	299.26	83.841	65.725	19.359	8.2535e-06	27.464	232.216	-0.623	22.312	-112.358	-2.611	146.527	-112.157	-105.319	13.261	14.359	-105.033	-98.992	-98.803	-91.681	-35.728	-92.206	-8191	255	
11027.110	1	1	0	0	0.2319	0.11658	0.082476	0.019083	0.21462	0.17409	0.18832	0.26683	0.099556	0.087251	0.15418	0.089337	0.21018	0.15249	0.061033	0.027023	-2.3937	-3.2917	-3.1083	-3.1917	-3.4042	-2.9271	-3.525	-3.1396	-2.9042	-3.3417	-3.1146	-3.2146	-3.25	-2.8625	-3.1125	-3.3208	191.172	-122.460	104.803	99.804	-55.763	102.141	214.152	131.318	22.624	-12.865	214.971	184.717	-116.074	156.818	133.277	187.339	7.3593e-05	0.00017266	9.8978e-05	1149.4	2.3298e-06	2.1581e-06	1208.4	241.81	1.1451e-06	4.5831e-06	300.72	82.642	64.724	18.953	6.2861e-07	27.091	0.00060992	0.00076689	0.00021781	1127.3	8.3679e-06	8.7403e-06	1191.8	239.61	8.5759e-06	8.9972e-06	299.19	83.902	65.74	19.305	8.531e-06	27.534	232.876	234.201	-34.739	-112.346	92.886	53.511	-112.135	-105.011	128.030	41.326	-105.523	-98.959	-98.503	-91.755	-7.713	-92.293	-8191	255	
11027.206	1	1	0	0	0.23009	0.093682	0.32154	0.074247	0.095522	0.14316	0.18189	0.21506	0.20388	0.026714	0.20347	0.21201	0.10376	0.0039931	0.19798	0.11925	-2.5646	-3.3708	-3.1667	-3.2375	-3.2208	-3.1208	-3.2458	-3.3563	-2.975	-3.3354	-3.2146	-3.0979	-3.4417	-2.9521	-2.8688	-3.3812	138.704	33.321	-66.561	-118.902	9.174	-22.490	188.625	131.942	-60.350	41.927	-12.943	-115.416	148.477	156.002	-106.161	85.604	0.0001455	0.00033971	7.1072e-05	1153	2.1193e-06	1.9339e-06	1213.5	241.99	2.1939e-06	3.2688e-06	301.65	82.768	65.226	19.19	2.0195e-06	27.145	0.00062403	0.0008119	0.00022503	1127.6	8.6684e-06	8.9027e-06	1194.8	239.7	8.6939e-06	8.8703e-06	299.5	83.616	65.659	19.334	8.6095e-06	27.441	-119.772	-15.023	35.728	-112.224	88.208	8.325	-112.179	-105.276	30.489	86.701	-104.981	-98.964	-99.036	-92.047	-1.358	-91.571	-8191	255	
11027.303	1	1	0	0	0.17763	0.014247	0.20398	0.32381	0.16001	0.26171	0.27641	0.14738	0.11625	0.15524	0.040478	0.24238	0.1779	0.17447	0.11283	0.14203	-2.6312	-3.1417	-3.1792	-3.0625	-3.275	-3.0312	-3.1521	-3.3021	-3.0417	-3.2896	-3.1292	-2.9146	-3.2979	-3.0125	-3.0417	-3.3396	-10.453	-51.696	-16.168	192.526	226.026	51.424	202.834	226.910	-87.582	161.894	-23.241	19.102	-8.475	207.028	82.102	217.689	7.4607e-05	0.0001921	0.00011867	1152.9	3.0214e-06	1.5988e-06	1213.2	241.1	5.2678e-06	5.058e-06	302.56	82.974	64.982	19.211	3.815e-06	27.174	0.00063582	0.00079494	0.00022254	1129.5	8.4517e-06	8.586e-06	1193.2	239.32	8.7648e-06	8.6997e-06	300.02	83.966	65.708	19.418	8.436e-06	27.482	223.089	-47.306	-47.877	-112.310	41.152	53.075	-112.057	-105.393	11.991	20.397	-105.558	-99.167	-99.000	-91.611	-1.499	-92.217	-8191	255	
11027.399	1	1	0	0	0.27583	0.3288	0.11402	0.11059	0.19697	0.14736	0.023162	0.20078	0.15965	0.12008	0.057975	0.19584	0.23943	0.057466	0.17136	0.14549	-2.5125	-3.2396	-3.0333	-3.15	-3.4042	-2.9813	-3.075	-3.2458	-3.1021	-3.1292	-3.1708	-3.0083	-3.2604	-3.1083	-3.1167	-3.1521	-82.551	111.224	162.541	145.034	-66.437	123.648	172.874	191.115	112.841	-113.015	156.482	-116.564	166.224	144.410	125.193	225.347	9.5831e-05	0.00027832	0.00010556	1154.8	1.8978e-06	2.6509e-06	1214	242.53	1.2216e-06	5.2137e-06	300.7	83.003	64.939	19.014	9.9302e-07	27.036	0.00062495	0.0007852	0.00022076	1130.3	8.5211e-06	8.8068e-06	1193.4	239.65	8.3943e-06	8.7322e-06	299.28	83.939	65.817	19.354	8.6026e-06	27.461	215.226	13.610	-96.180	-112.173	71.360	-22.040	-112.045	-105.533	-53.209	29.091	-105.376	-99.208	-98.302	-91.676	85.750	-91.760	-8191	255	
11027.495	1	1	0	0	0.18697	0.058545	0.15305	0.20621	0.15397	0.10369	0.19912	0.36293	0.20221	0.29132	0.25049	0.055864	0.15527	0.25464	0.2504	0.19853	-2.4583	-3.1625	-3.0417	-3.0229	-3.3146	-3.2438	-3.2083	-3.2667	-3.0229	-3.0354	-3.2562	-3.0104	-3.3042	-3.1417	-3.0125	-3.4417	17.557	-36.941	19.301	209.298	-18.440	-76.738	-111.727	175.970	-2.047	189.897	197.864	-46.559	225.610	-96.613	190.020	236.362	0.00010899	0.00028577	0.00010232	1155.7	3.1349e-07	3.2253e-06	1213.2	242.6	1.0335e-06	7.6926e-06	301.01	82.647	64.991	19.022	3.8963e-06	27.083	0.00063096	0.00078903	0.00022314	1130.8	8.7184e-06	8.6473e-06	1192.7	240.5	8.867e-06	8.862e-06	299.19	83.713	65.807	19.328	8.5137e-06	27.504	233.145	-62.960	-46.298	-112.182	-35.339	37.905	-111.951	-105.141	103.289	34.729	-105.536	-99.029	-98.807	-91.595	36.871	-92.296	-8191	255	
11027.591	1	1	0	0	0.08382	0.22668	0.15847	0.13702	0.073118	0.14381	0.22869	0.17105	0.092996	0.15316	0.11571	0.1858	0.21716	0.12294	0.032155	0.025281	-2.4417	-2.9792	-3.2667	-2.9604	-3.2292	-3.25	-3.0604	-3.3875	-3.1083	-2.9833	-3.3333	-2.9813	-3.1437	-3.0062	-2.9979	-3.4396	119.196	173.803	190.535	230.525	-61.715	92.362	133.941	151.131	-95.197	146.518	87.879	193.137	223.404	-49.853	59.803	140.183	0.00013424	0.00058848	9.6275e-05	1154.4	1.2306e-06	6.4397e-06	1211.9	242.31	8.0404e-07	5.7739e-06	302.28	83.015	65.351	19.104	5.6946e-06	26.978	0.00062209	0.00078727	0.00022113	1128.9	8.6279e-06	8.8162e-06	1192.6	239.91	8.6015e-06	8.8647e-06	299.34	83.817	65.861	19.393	8.5499e-06	27.433	222.854	-62.086	-89.709	-112.348	46.149	17.627	-111.905	-105.243	43.199	-12.526	-105.551	-99.351	-98.762	-92.036	71.041	-91.913	-8191	255	
11027.687	1	1	0	0	0.076911	0.16821	0.091059	0.084676	0.15433	0.08495	0.1445	0.34565	0.081943	0.082331	0.06244	0.1367	0.15808	0.057427	0.29362	0.12676	-2.7583	-2.9813	-3.3438	-3.2625	-3.1479	-3.2771	-2.9708	-3.3563	-3.2104	-2.8708	-3.3354	-2.9667	-3.2292	-3.3208	-2.9938	-3.4	-41.788	24.092	-61.935	185.690	220.610	208.605	80.773	196.567	236.266	40.966	-16.901	-22.579	230.624	-118.191	29.974	-54.107	0.00014743	0.00028828	9.7438e-05	1152.3	3.1169e-06	1.0089e-06	1213.1	242.16	2.8174e-06	2.9488e-06	300.72	82.954	65.012	19.06	2.9791e-06	27.08	0.00063104	0.00080417	0.00022257	1128.3	8.6658e-06	8.8142e-06	1194.1	240.34	8.8757e-06	8.7773e-06	299.17	83.97	65.724	19.322	8.5412e-06	27.407	226.391	24.612	-16.469	-112.240	166.699	-50.687	-112.014	-105.345	-1.379	40.864	-105.244	-99.098	-98.594	-91.386	54.598	-91.816	-8191	255	
11027.808	1	1	0	0	0.086757	0.053756	0.10877	0.245	0.20348	0.14452	0.13519	0.20181	0.18807	0.045792	0.089154	0.16273	0.19707	0.34516	0.13746	0.1174	-2.7667	-2.9771	-3.2458	-2.9396	-3.15	-3.3292	-3.0312	-3.3333	-3.0958	-3.1417	-3.2729	-3.1958	-3.1167	-3.2979	-3	-3.2812	211.798	195.720	49.317	215.013	-22.857	98.104	-107.746	165.474	211.755	88.863	87.372	-92.808	-108.469	-111.520	34.329	188.077	0.00012209	0.00015871	0.00010245	1157.6	3.7779e-06	4.4105e-06	1208.4	242.92	3.1677e-06	2.7686e-06	301.78	83.072	64.801	19.117	5.5843e-06	26.862	0.00062312	0.00078405	0.00022306	1128.1	8.636e-06	8.6826e-06	1189.9	240.1	8.4873e-06	8.7719e-06	299.78	83.884	65.493	19.335	8.5468e-06	27.413	227.044	24.130	2.468	-112.266	-34.189	58.267	-111.876	-105.098	13.383	23.479	-105.488	-98.900	-98.649	-91.647	43.626	-91.648	-8191	255	
11027.904	1	1	0	0	0.17287	0.11556	0.084802	0.039385	0.10128	0.13912	0.19296	0.36333	0.099475	0.29766	0.18635	0.13623	0.17283	0.2024	0.21042	0.10465	-2.8792	-2.9458	-3.1875	-3.4521	-3.0458	-3.3646	-3.1708	-3.1937	-3.1063	-3.1292	-3.2062	-3.2479	-2.8312	-3.2229	-3.075	-3.1604	73.834	208.511	122.221	221.177	191.649	-25.754	139.780	209.569	89.884	121.100	204.547	166.530	139.398	206.901	-93.803	24.488	7.7064e-05	0.00039301	3.5433e-05	1150.4	1.7196e-06	4.2727e-06	1206.1	241.85	5.2749e-07	5.7487e-06	302.39	83.19	65.475	19.089	2.5541e-06	26.887	0.00061789	0.00077716	0.00021576	1125.2	8.3843e-06	8.5593e-06	1189.3	239.27	8.2265e-06	8.4915e-06	299.64	83.801	65.816	19.291	8.4213e-06	27.368	227.462	-48.627	-11.976	-112.197	20.980	22.586	-111.928	-105.120	-61.273	-7.794	-105.593	-99.218	-98.953	-91.868	23.977	-92.241	-8191	255	
11028.000	1	1	0	0	0.15492	0.043864	0.17844	0.21773	0.2531	0.19193	0.24645	0.14122	0.060805	0.14485	0.1404	0.072566	0.069621	0.10925	0.18138	0.25787	-2.6729	-2.9042	-3.1771	-3.25	-3.0563	-3.2708	-3.1437	-3.1833	-3.3063	-3.0125	-3.3583	-3.2292	-3.0542	-3.3667	-2.8854	-3.1562	93.013	-22.732	34.474	112.219	1.713	226.316	127.064	20.941	57.461	2.158	122.034	224.165	157.436	186.711	-63.648	-19.481	0.00012167	0.00039315	0.0001295	1150.9	2.6345e-06	2.5669e-06	1208.8	241.67	2.0054e-06	7.0515e-06	302.75	83.491	64.641	19.034	4.7888e-06	26.779	0.00060932	0.00078029	0.00022092	1125.8	8.3027e-06	8.6411e-06	1189.3	239.57	8.3572e-06	8.7237e-06	299.27	84.004	65.668	19.294	8.4998e-06	27.386	220.660	-57.468	33.976	-112.315	-5.413	5.749	-112.100	-105.329	49.949	57.630	-105.350	-98.923	-98.801	-91.569	64.857	-91.606	-8191	255	
11028.096	1	1	0	0	0.24293	0.22519	0.050879	0.092025	0.2508	0.031411	0.23093	0.12011	0.12112	0.15903	0.15745	0.076964	0.025822	0.12155	0.19129	0.1058	-2.9021	-3.0354	-3.1208	-3.1688	-3.125	-3.3958	-3.425	-3.2875	-3.1917	-3.0646	-3.3646	-3.0979	-3.0417	-3.1667	-3.1042	-3.2313	-103.402	236.243	-50.804	217.346	224.803	-28.833	153.928	-120.397	181.645	205.795	140.427	-8.148	177.757	117.449	219.755	-96.817	0.0001237	0.0003748	8.1836e-05	1153.2	2.9074e-06	5.6037e-06	1206.6	242.33	4.2566e-06	4.9405e-06	301.23	82.898	65.11	19.05	2.1503e-06	26.931	0.00060295	0.00078244	0.00021828	1126.7	8.5659e-06	8.602e-06	1188.3	239.94	8.4479e-06	8.643e-06	299.26	83.776	65.69	19.346	8.4102e-06	27.396	-118.825	-20.758	-38.843	-112.253	-38.424	52.239	-111.879	-105.430	23.518	43.315	-105.445	-98.908	-98.977	-91.372	95.675	-91.795	-8191	255	
11028.191	1	1	0	0	0.024916	0.22305	0.059938	0.076939	0.2659	0.1339	0.34371	0.091101	0.17242	0.20797	0.31491	0.1289	0.034723	0.16919	0.2063	0.1667	-2.7771	-2.7104	-3.1146	-3.2188	-2.8937	-3.2958	-3.2354	-3.2708	-3.4667	-3.0854	-3.2125	-3.2646	-3.0375	-3.3375	-3.2583	-2.8708	202.508	103.995	44.957	122.338	-27.471	-59.176	209.768	16.448	-51.424	141.774	-113.560	-76.776	-114.595	6.268	-45.845	119.380	0.00011731	0.00025982	6.9137e-05	1151.6	4.4052e-06	1.2803e-06	1208.9	240.97	6.3042e-06	4.5961e-06	303.16	83.06	65.412	19.221	1.1302e-06	27.106	0.00060493	0.00078704	0.00021464	1125.3	8.2848e-06	8.7185e-06	1189.8	239.61	8.3494e-06	8.5836e-06	300.16	83.922	65.775	19.334	8.7201e-06	27.465	225.861	-26.761	-49.329	-112.122	31.456	21.990	-112.238	-105.141	15.043	70.935	-105.168	-98.785	-98.935	-91.874	84.390	-91.624	-8191	255	
11028.287	1	1	0	0	0.1001	0.12808	0.22488	0.20124	0.13328	0.38264	0.17972	0.31833	0.10517	0.14757	0.28317	0.11518	0.099053	0.12103	0.30272	0.15835	-2.9521	-2.9792	-3.1667	-3.4104	-3.0563	-3.3854	-3.4667	-2.8771	-3.4771	-3.1063	-3.1583	-3.3708	-2.9896	-3.1792	-3.3063	-2.95	224.901	-72.269	82.066	63.195	-72.785	234.947	207.354	163.088	115.778	-11.052	143.754	201.349	-97.666	0.760	-66.509	-36.492	0.00010861	0.00011774	0.00012519	1153.6	6.1929e-07	1.0211e-06	1212	241.68	1.923e-06	5.2368e-06	299	83.222	64.921	19.073	8.6837e-07	26.994	0.00060935	0.00077376	0.00021352	1125.7	8.3264e-06	8.3682e-06	1189.4	239.4	8.2682e-06	8.3366e-06	298.97	83.947	65.735	19.309	8.2715e-06	27.375	234.536	-58.947	-21.294	-112.438	64.078	-33.291	-112.189	-105.157	5.986	-41.175	-105.582	-98.760	-98.671	-92.004	88.158	-91.883	-8191	255	
11028.407	1	1	0	0	0.17596	0.14965	0.068045	0.23954	0.0097037	0.19406	0.23978	0.14724	0.079207	0.19664	0.06258	0.073596	0.28565	0.12008	0.1432	0.14578	-2.8646	-2.9333	-3.0729	-3.3021	-2.9333	-3.0958	-3.3667	-3.1854	-3.1917	-3.1729	-3.2375	-3.3125	-3.1375	-3.075	-3.1562	-3.0208	211.723	15.612	95.070	228.177	41.714	77.681	156.326	-122.743	160.197	200.739	130.197	144.907	29.885	139.832	-88.017	-85.234	0.00013634	0.00012855	0.00018089	1150.6	3.3357e-06	1.1619e-06	1207.3	243.17	1.3894e-06	3.7386e-06	302.2	83.309	64.717	19.005	2.1338e-06	27.161	0.00062736	0.00078546	0.00021793	1126	8.5062e-06	8.7614e-06	1191	239.95	8.2349e-06	8.6197e-06	299.21	83.881	65.662	19.309	8.078e-06	27.414	-120.224	-44.669	-54.922	-112.282	85.814	5.275	-112.192	-105.272	-38.988	24.506	-105.192	-99.176	-98.462	-91.524	18.980	-92.264	-8191	255	
11028.504	1	1	0	0	0.13596	0.077917	0.092917	0.25052	0.15335	0.10405	0.20201	0.29218	0.21039	0.3357	0.2027	0.1474	0.19719	0.06287	0.18566	0.12937	-2.9125	-3.0917	-3.0375	-3.3438	-3.1688	-3.0125	-3.4083	-2.9667	-3.2958	-3.1729	-3.0812	-3.4458	-2.9688	-2.9396	-3.2229	-2.9604	48.655	-13.976	66.727	-80.267	2.419	-90.012	170.108	188.741	220.787	214.359	161.178	-106.400	-31.674	-27.616	-114.718	-95.188	0.00011508	0.0002689	3.8368e-05	1149.9	2.1991e-06	1.8257e-06	1211.9	241.65	3.6239e-06	2.3185e-06	302.52	82.904	64.86	18.95	1.3353e-06	26.824	0.00062059	0.00077832	0.00021068	1125.6	8.5633e-06	8.6633e-06	1190.1	239.69	8.1671e-06	8.5444e-06	299.93	83.865	65.775	19.287	8.4677e-06	27.406	225.280	-52.432	-0.291	-112.174	53.382	63.962	-111.948	-105.388	19.284	36.923	-105.640	-98.955	-98.649	-91.613	-40.780	-91.875	-8191	255	
11028.600	1	1	0	0	0.04428	0.12436	0.20124	0.30616	0.1847	0.14081	0.38214	0.17472	0.063457	0.25153	0.16867	0.1142	0.071185	0.32588	0.12657	0.158	-2.8688	-3.1271	-2.9208	-3.35	-3.0896	-3.1625	-3.5875	-3.0833	-3.0958	-3.1792	-2.9813	-3.2708	-3.0542	-3.1458	-3.2917	-2.9875	-60.969	43.099	-114.240	137.112	153.413	218.837	216.879	131.275	50.919	-30.955	131.721	75.350	33.490	180.717	-29.525	39.028	0.00013104	0.00024726	8.3209e-05	1148.3	4.365e-06	1.4871e-06	1210.5	242.53	1.9022e-06	2.4792e-06	302.24	83.066	65.679	19.046	7.9079e-06	26.888	0.00062416	0.00077493	0.00021675	1125.8	8.441e-06	8.5472e-06	1190.8	240.12	8.4841e-06	8.6331e-06	299.52	83.894	65.896	19.335	8.2634e-06	27.382	235.543	-57.904	-19.004	-112.316	97.636	-102.899	-112.261	-105.265	37.444	32.152	-105.514	-98.973	-98.453	-91.759	48.775	-92.154	-8191	255	
11028.696	1	1	0	0	0.095068	0.031566	0.086801	0.025539	0.098016	0.098118	0.17491	0.11594	0.11388	0.11614	0.107	0.17342	0.15482	0.14509	0.067546	0.073654	-2.8417	-3.4688	-2.8979	-3.4604	-3.1208	-2.95	-3.3	-3.1333	-3.2083	-3.2583	-3.1854	-3.2708	-3.2521	-3.0687	-3.3125	-3.0792	-48.799	102.271	165.632	-24.171	-2.515	121.388	97.791	150.699	7.442	10.341	-22.643	186.527	210.851	200.276	-71.288	151.797	0.00011679	2.202e-05	5.7866e-05	1152.2	4.3513e-06	3.3314e-06	1210.5	242.31	2.4e-06	5.3066e-06	301.63	83.433	64.888	19.18	1.3656e-06	27.069	0.00061115	0.00077247	0.00021627	1126.7	8.3739e-06	8.5373e-06	1192.3	239.9	8.6337e-06	8.7134e-06	299.88	84.212	65.798	19.381	8.9235e-06	27.491	-116.459	12.633	-64.492	-112.092	20.836	81.130	-111.803	-105.212	-29.255	39.708	-105.270	-99.083	-98.672	-91.840	105.713	-91.923	-8191	255	
11028.792	1	1	0	0	0.1482	0.10945	0.20176	0.22239	0.16435	0.05513	0.12014	0.40813	0.26858	0.12829	0.12751	0.15665	0.040897	0.050264	0.060736	0.19692	-2.7729	-3.3146	-2.9979	-3.4396	-3.2458	-2.9396	-3.6042	-3.1875	-3.1479	-3.3875	-3.1146	-3.3271	-3.1479	-3.0833	-3.3333	-3.1	0.422	-21.295	179.972	191.458	115.899	214.662	5.334	-121.569	-100.711	155.344	15.048	-77.243	110.619	-84.509	12.965	44.478	0.00010882	0.00034879	7.6407e-05	1152.1	1.2762e-06	3.264e-06	1208.5	242.89	2.1825e-06	2.0947e-06	302.5	83.337	65.259	18.989	4.0428e-06	27.145	0.00064453	0.00081671	0.00022761	1130	8.7651e-06	8.8317e-06	1193.6	240.74	8.7977e-06	8.9893e-06	300.53	84.294	65.959	19.365	8.7988e-06	27.573	-119.977	-57.004	-58.145	-112.260	186.675	102.195	-112.118	-105.170	12.552	173.226	-105.132	-99.000	-98.758	-92.016	7.701	-91.994	-8191	255	
11028.888	1	1	0	0	0.044551	0.37429	0.10121	0.37632	0.072772	0.088534	0.25715	0.056631	0.12387	0.15576	0.10057	0.053437	0.25841	0.16514	0.3131	0.27302	-2.7958	-3.3083	-2.825	-3.2667	-3.15	-3.0458	-3.35	-3.3104	-3.0229	-3.5	-2.9417	-3.1646	-3.2479	-3.0563	-3.3833	-3.1917	162.296	-119.492	-24.101	176.077	156.426	172.095	173.511	111.776	155.758	198.816	0.515	-116.372	175.545	48.775	-30.799	136.278	0.00018252	0.00038653	6.9512e-05	1153.7	1.7012e-06	2.506e-06	1211.4	242.27	3.2536e-06	3.2222e-06	304.37	83.357	65.277	19.172	2.3857e-06	27.212	0.00063608	0.00079229	0.0002287	1129.4	8.4031e-06	8.8879e-06	1194.7	240.18	8.6712e-06	8.6865e-06	301.46	84.225	65.921	19.419	8.7717e-06	27.559	224.625	-45.001	-24.992	-112.393	144.128	61.624	-112.046	-105.504	-48.313	107.996	-105.370	-98.959	-98.627	-91.791	9.767	-91.396	-8191	255	
11028.984	1	1	0	0	0.10418	0.209	0.22645	0.16143	0.12814	0.19611	0.055664	0.18836	0.22893	0.13538	0.11969	0.074655	0.011527	0.17475	0.16452	0.12422	-2.5646	-3.2021	-3.0667	-3.2938	-3.3396	-2.9917	-3.4667	-3.1542	-3.0146	-3.3042	-3.15	-3.3625	-3.4583	-3.0563	-3.2375	-3.2375	40.318	202.321	124.708	224.092	81.473	102.828	54.837	176.762	85.513	193.282	164.263	78.205	-66.465	17.845	-54.101	175.508	0.00012699	0.0002174	7.3572e-05	1155.2	2.9558e-06	2.9222e-06	1215.4	243.85	3.3231e-06	2.1258e-06	303.33	82.835	65.414	19.132	3.2559e-06	27.289	0.00062758	0.00081484	0.00022804	1129.3	8.7574e-06	8.9144e-06	1194.7	241.01	8.5896e-06	9.0164e-06	300.59	84.007	66.039	19.348	8.7531e-06	27.574	-121.347	-52.238	-24.110	-112.232	-23.014	-7.837	-112.036	-105.445	-90.207	27.130	-105.807	-99.112	-98.478	-91.930	43.462	-92.196	-8191	255	
11029.081	1	1	0	0	0.088066	0.18942	0.10896	0.13244	0.19947	0.2933	0.26002	0.28339	0.093774	0.11683	0.084933	0.071843	0.14046	0.15631	0.10477	0.1385	-2.7062	-3.1417	-3.1729	-3.3271	-3.1979	-2.925	-3.4271	-3.1771	-2.9979	-3.5521	-3.1437	-2.9458	-3.4667	-2.7771	-3.3271	-3.4208	179.822	95.633	-110.107	-53.852	194.192	183.575	208.162	172.383	165.511	-44.476	151.207	191.600	205.022	52.066	150.550	-79.680	0.00011836	0.00039266	0.00010345	1156	3.0548e-06	3.0309e-06	1214	241.97	1.5908e-06	1.3425e-06	303.72	83.483	65.221	19.203	3.0533e-06	27.097	0.00062995	0.00081878	0.00022955	1131.5	8.6373e-06	8.8944e-06	1195.9	240.37	8.6002e-06	8.8282e-06	300.29	84.372	66.057	19.396	8.737e-06	27.539	235.753	-50.420	-61.505	-112.118	28.490	71.669	-112.029	-105.318	62.791	63.764	-105.188	-99.052	-98.776	-91.591	1.721	-92.073	-8191	255	
11029.199	1	1	0	0	0.056978	0.28869	0.22682	0.14283	0.24283	0.091505	0.47749	0.20542	0.098818	0.16929	0.17591	0.20724	0.056045	0.30393	0.10832	0.15788	-2.5396	-3.2062	-2.9771	-3.1021	-3.3042	-3.0458	-3.4271	-3.4479	-3.0187	-3.1875	-3.2542	-3.0312	-3.3312	-3.0979	-3.0979	-3.1312	123.447	24.075	-19.131	232.260	74.206	-39.028	178.007	204.663	205.835	94.749	-7.958	231.981	185.799	69.141	33.479	-122.596	0.00011474	0.00031155	6.6556e-05	1154.2	2.6934e-06	2.5332e-06	1214.2	242.7	1.1332e-06	3.4855e-06	303.06	83.013	65.076	19.215	3.046e-06	27.16	0.00063885	0.00081347	0.00023097	1130.2	8.8118e-06	9.0381e-06	1193.9	240.63	9.0168e-06	8.8571e-06	301.02	84.088	65.931	19.428	8.7463e-06	27.545	225.490	-3.756	42.255	-112.552	26.396	39.539	-112.050	-105.163	52.760	-14.885	-105.583	-98.910	-98.748	-91.567	79.896	-92.002	-8191	255	
11029.296	1	1	0	0	0.075635	0.45449	0.23722	0.1847	0.22865	0.13727	0.37298	0.060579	0.15408	0.36427	0.12351	0.38365	0.083429	0.17434	0.096908	0.20796	-2.475	-3.3333	-3.05	-3.2146	-3.2396	-3.0646	-3.3583	-3.3187	-2.8896	-3.375	-3.225	-3.1917	-3.3792	-2.9979	-3.125	-3.4083	150.997	-35.671	149.995	165.388	166.308	62.123	163.465	19.944	-106.139	5.977	3.814	183.989	-85.145	-10.258	26.145	-42.328	0.00013756	0.00034449	7.0191e-05	1150.7	2.8098e-07	4.2954e-06	1212.9	243.37	2.6718e-06	4.8559e-06	303.04	83.246	65.261	19.219	3.4821e-06	27.102	0.00064728	0.00081397	0.00022698	1131.4	8.7971e-06	9.1035e-06	1195.4	241.2	8.6892e-06	8.9756e-06	300.9	84.359	66.127	19.411	8.9484e-06	27.533	231.948	-19.327	-3.578	-112.416	208.960	-30.507	-112.140	-105.163	18.273	0.452	-105.658	-99.230	-98.681	-91.913	13.384	-92.155	-8191	255	
11029.369	1	1	0	0	0.027438	0.36177	0.26664	0.11743	0.13802	0.15612	0.26085	0.11653	0.18778	0.1823	0.186	0.051218	0.29464	0.26623	0.22002	0.2662	-2.6854	-3.2438	-3.0958	-3.0521	-3.2979	-3.0438	-3.2271	-3.4583	-3.0125	-3.1604	-3.3542	-3.0854	-3.4708	-3.2292	-3.1125	-3.3479	-4.976	52.107	53.156	37.497	20.043	40.325	-114.833	206.153	-48.308	65.695	179.523	-5.660	211.149	-30.672	131.276	177.804	9.8275e-05	0.00024087	1.7802e-05	1155.6	2.7944e-06	2.2598e-06	1215.6	242.64	3.4943e-06	3.6759e-06	305.42	83.566	65.5	19.256	3.5961e-06	27.191	0.00064898	0.00079904	0.00022591	1132.6	8.6837e-06	9.0334e-06	1197.1	241.01	8.892e-06	9.0951e-06	301.89	84.618	66.329	19.49	8.7528e-06	27.587	225.098	28.160	-71.022	-112.217	-4.622	0.355	-112.060	-105.258	-10.796	56.572	-105.508	-99.156	-99.033	-91.939	7.022	-91.707	-8191	255	
11029.488	1	1	0	0	0.19279	0.16414	0.19169	0.34178	0.18427	0.19734	0.25156	0.10115	0.37587	0.16659	0.10824	0.28926	0.21263	0.26883	0.33929	0.079606	-2.4938	-3.1896	-3.2542	-3.1271	-3.4562	-3.1417	-3.2167	-3.4125	-2.9875	-3.1833	-3.275	-3.0479	-3.3354	-3.2062	-2.9625	-3.3563	142.701	-97.114	24.592	202.802	58.499	6.362	159.824	210.329	106.791	166.591	208.002	166.850	-70.957	182.788	68.819	-35.715	0.00014769	0.00043478	0.00015564	1161.8	4.2801e-06	4.2975e-06	1212.6	243.87	4.9147e-06	3.2873e-06	304.52	83.291	65.353	19.189	3.4651e-06	27.148	0.00065329	0.00081413	0.00022645	1135.8	8.7154e-06	8.8594e-06	1196.1	241.36	8.875e-06	9.1751e-06	300.9	84.235	66.158	19.441	8.7119e-06	27.595	229.168	-4.137	-41.482	-112.261	70.101	-30.285	-111.980	-105.338	18.853	15.981	-105.511	-99.154	-98.585	-92.113	15.003	-92.059	-8191	255	
11029.584	1	1	0	0	0.2842	0.1153	0.2444	0.37135	0.27369	0.089401	0.21886	0.29971	0.10304	0.10896	0.097491	0.10587	0.17205	0.21093	0.3647	0.19873	-2.85	-3.1771	-3.2896	-3.1833	-3.25	-3.275	-3.2396	-3.4417	-3.1229	-3.3021	-3.5312	-3.0792	-3.2812	-3.3646	-3.0563	-3.325	23.477	25.311	126.817	-119.269	140.392	205.937	-118.257	203.778	174.866	-42.301	-15.978	128.493	219.415	-112.300	56.310	-102.771	0.00014493	0.00086235	0.00014476	1157.2	3.119e-06	2.7314e-06	1217.1	244.01	2.8878e-06	5.1515e-06	301.58	83.323	65.233	19.077	2.59e-06	27.035	0.00065147	0.00081898	0.00022592	1133.5	8.7866e-06	9.0334e-06	1198.1	241.47	8.7769e-06	8.9691e-06	300.18	84.359	65.93	19.4	8.7893e-06	27.623	228.232	-10.043	3.493	-112.210	-34.712	50.107	-112.018	-105.501	-7.877	58.701	-105.506	-99.141	-98.915	-91.766	29.386	-92.241	-8191	255	
11029.680	1	1	0	0	0.083073	0.086498	0.17959	0.1546	0.15119	0.080921	0.33052	0.2414	0.26547	0.3227	0.22949	0.22412	0.10854	0.1131	0.08934	0.14577	-2.5208	-3.1708	-3.3833	-3.0187	-3.1875	-3.2396	-3.225	-3.2625	-3.0979	-3.1083	-3.3229	-3.2271	-3.1562	-3.2438	-2.7917	-3.3833	-94.242	-72.331	99.560	165.669	14.340	-93.014	142.719	-106.921	-50.571	-46.669	204.079	111.656	229.305	210.836	195.925	211.829	0.00012141	0.00045903	6.5215e-05	1158.4	1.8323e-06	2.6167e-06	1215.2	244.08	3.1956e-06	5.6991e-06	304.68	83.927	65.177	19.22	1.5399e-06	27.2	0.00065684	0.00083331	0.00022819	1133.1	8.8914e-06	9.0532e-06	1195.6	241.66	8.7248e-06	9.0507e-06	301.39	84.35	65.974	19.435	8.7459e-06	27.578	-122.458	-42.336	-87.808	-112.495	105.199	40.491	-112.288	-105.222	113.530	6.441	-105.362	-99.254	-98.643	-91.954	27.039	-92.204	-8191	255	
11029.801	1	1	0	0	0.073243	0.18431	0.21027	0.20775	0.069879	0.19399	0.26326	0.27112	0.29193	0.012857	0.12072	0.22986	0.1799	0.22937	0.097306	0.023613	-2.5771	-3.0521	-3.3208	-3.0208	-3.2333	-3.2958	-3.0042	-3.4333	-2.9583	-2.9062	-3.4167	-3.2	-3.0833	-3.3604	-2.8812	-3.3312	31.681	225.670	-51.851	170.766	159.188	104.704	165.620	-123.010	224.621	-94.598	147.559	71.373	-92.841	235.771	-48.442	159.138	0.00016129	0.0001674	0.00011352	1157.1	4.9856e-06	6.6567e-07	1219	243.14	3.7329e-06	4.915e-06	302.65	83.696	65.464	19.028	7.9453e-07	27.179	0.00066524	0.00082647	0.00022749	1133.5	8.8305e-06	8.9382e-06	1198.1	240.96	8.871e-06	9.1236e-06	301.14	84.406	66.01	19.333	8.9111e-06	27.588	226.976	-52.626	-1.827	-112.211	10.407	149.347	-112.023	-105.217	-29.279	-1.941	-105.413	-99.145	-98.777	-91.496	-113.701	-92.039	-8191	255	
11029.897	1	1	0	0	0.18216	0.10191	0.12704	0.15733	0.10107	0.10105	0.25055	0.2258	0.29034	0.17387	0.047461	0.10196	0.1538	0.12414	0.27953	0.28316	-2.7146	-2.9062	-3.2938	-3.2646	-3.0896	-3.2021	-3.1625	-3.2917	-3.1979	-2.9667	-3.1813	-3.1437	-3.0938	-3.3583	-2.9583	-3.1813	112.392	-110.608	26.213	211.313	132.048	42.492	204.232	-104.489	-120.714	54.617	-81.352	65.167	196.975	-43.625	17.968	127.012	0.00010397	0.0004449	8.9976e-05	1161	1.7922e-06	3.1193e-06	1213.1	243.42	5.7943e-06	4.501e-06	301.98	82.958	65.452	19.224	1.5308e-06	27.364	0.00063919	0.00081285	0.00022879	1133	8.6965e-06	8.9932e-06	1195.7	241.52	8.4417e-06	8.8228e-06	301.09	84.315	66.027	19.475	8.6793e-06	27.667	-119.805	-34.541	-17.805	-112.357	36.836	26.464	-112.151	-105.389	9.141	36.706	-105.496	-98.995	-98.825	-91.872	8.974	-91.890	-8191	255	
11029.993	1	1	0	0	0.11173	0.10982	0.12718	0.26728	0.19311	0.20833	0.27374	0.048347	0.093666	0.10831	0.28861	0.14478	0.069231	0.095691	0.14705	0.14472	-2.7333	-2.9562	-3.3646	-3.05	-3.0042	-3.3333	-3.225	-3.3417	-3.2521	-3.0479	-3.4062	-3.2938	-3.0375	-3.25	-3.0021	-3.3	-75.912	-94.265	53.646	227.464	-18.544	-24.531	174.390	120.371	69.358	12.899	159.623	203.897	87.177	-103.752	20.650	21.430	9.2955e-05	0.00015238	9.7911e-05	1158.1	3.7681e-06	2.4995e-06	1210.5	242.47	1.6876e-06	4.2371e-06	303.08	83.302	65.331	19.122	2.3888e-06	26.934	0.0006374	0.00081367	0.00023298	1133.5	8.7391e-06	9.0018e-06	1196.1	241.06	8.597e-06	9.0516e-06	301.38	84.29	65.984	19.415	9.1369e-06	27.538	-114.783	-70.568	-64.401	-112.135	71.093	23.969	-111.963	-105.389	75.059	72.793	-105.423	-99.160	-98.535	-91.440	-8.368	-92.245	-8191	255	
11030.089	1	1	0	0	0.055183	0.21448	0.10882	0.074211	0.15161	0.11633	0.38848	0.060872	0.1619	0.10863	0.22919	0.40769	0.075389	0.13747	0.11805	0.26078	-2.7729	-3.1104	-3.4062	-3.1354	-2.8937	-3.2896	-3.3375	-3.1937	-3.2333	-2.9708	-3.2271	-3.1667	-2.9938	-3.3312	-3.0229	-3.2958	-16.401	185.806	-101.784	-116.988	-76.077	74.077	186.075	138.991	156.528	-55.369	202.901	183.839	-5.103	-62.220	-54.928	153.038	8.7731e-05	0.00032	8.6999e-05	1155.3	2.5341e-06	3.6853e-06	1216.2	242.24	3.4997e-06	2.8678e-06	301.6	82.925	65.434	19.21	3.8151e-06	27.125	0.00064835	0.00083077	0.00023967	1133.6	8.9368e-06	9.2183e-06	1195.5	241.14	8.7375e-06	9.3172e-06	300.94	84.355	66.074	19.474	9.1273e-06	27.562	-99.078	-31.587	-38.883	-112.204	-22.547	22.791	-112.034	-105.397	-30.903	-11.074	-105.640	-99.202	-98.716	-91.457	9.223	-92.180	-8191	255	
11030.184	1	1	0	0	0.19047	0.13946	0.11461	0.12235	0.11308	0.082656	0.28602	0.31415	0.14367	0.34244	0.21754	0.10682	0.094858	0.22849	0.18818	0.033869	-2.8875	-3.0104	-3.0854	-3.3292	-2.8792	-3.0687	-3.2208	-3.2083	-3.3229	-2.9958	-3.5062	-3.4042	-2.9437	-3.3292	-3.1375	-3.1271	112.221	22.640	-27.844	197.518	-104.186	87.427	142.264	193.020	-90.766	-75.128	24.984	-44.511	-25.137	201.753	-119.042	-85.470	0.00011242	8.6073e-05	6.0986e-05	1159.7	1.5976e-06	4.2059e-06	1217	243.46	2.2336e-06	1.6501e-06	301.94	82.77	65.056	19.257	2.4188e-06	27.265	0.00063771	0.0008269	0.00023185	1133.5	8.7894e-06	8.9705e-06	1199.1	241.86	8.7604e-06	9.0888e-06	301.29	84.055	66.073	19.5	9.0174e-06	27.629	227.346	-34.081	-77.191	-112.469	33.943	36.227	-111.933	-105.209	-26.642	75.731	-105.732	-99.003	-98.503	-91.893	57.115	-91.820	-8191	255	
11030.280	1	1	0	0	0.10567	0.081063	0.10256	0.22069	0.15349	0.19678	0.34083	0.16784	0.15577	0.27206	0.16814	0.179	0.086075	0.12325	0.10138	0.16196	-2.8438	-3.0292	-3.0479	-3.1021	-2.8958	-3.2958	-3.3063	-3.0792	-3.2875	-3.0438	-3.1854	-3.3646	-2.9479	-3.3625	-3.1146	-3.0729	117.858	187.425	-76.838	207.754	-48.246	167.983	206.216	149.660	127.735	29.426	174.461	-77.609	52.457	67.653	121.543	194.454	0.00013267	0.00023644	0.0001091	1159.6	3.31e-06	3.1792e-06	1212.9	243.5	2.7639e-06	4.7798e-06	302.4	83.379	65.323	19.266	2.9007e-06	27.066	0.0006627	0.0008247	0.00023178	1135.7	9.0711e-06	9.1942e-06	1196.1	241.19	9.0276e-06	9.1801e-06	300.84	84.345	66.012	19.471	9.0456e-06	27.512	-117.646	-79.021	-70.302	-112.115	102.589	-15.434	-112.201	-105.428	50.762	68.681	-105.400	-99.166	-98.506	-92.056	9.384	-91.929	-8191	255	
11030.376	1	1	0	0	0.23461	0.067748	0.11445	0.064112	0.23929	0.1565	0.29081	0.092907	0.1441	0.18903	0.11515	0.045355	0.32791	0.090153	0.18178	0.20184	-3.0438	-2.9875	-3.2438	-3.175	-3.0521	-3.2771	-3.2708	-2.9958	-3.2417	-3.1375	-3.2458	-3.4521	-3.1	-3.2875	-3.1437	-2.95	73.309	-101.772	168.221	4.572	-82.104	234.568	229.409	-111.236	96.954	2.164	196.092	6.120	228.260	159.015	90.718	-38.994	0.00011905	0.00020657	0.00011478	1164.8	2.6468e-06	2.5779e-06	1213.8	243.66	3.9054e-06	2.1889e-06	303.64	83.693	65.487	19.259	5.0686e-07	27.201	0.00066047	0.0008537	0.00022978	1136.7	9.1861e-06	9.4087e-06	1196.9	241.61	9.0163e-06	9.2838e-06	301.56	84.302	66.209	19.475	8.9233e-06	27.546	217.359	-16.356	7.284	-112.291	75.908	22.972	-112.057	-105.202	102.969	54.502	-105.461	-99.024	-99.091	-92.418	65.869	-92.000	-8191	255	
11030.497	1	1	0	0	0.2631	0.075006	0.089466	0.10116	0.28277	0.13576	0.1882	0.20292	0.059101	0.0068944	0.068378	0.15584	0.058767	0.20455	0.20061	0.15215	-2.8854	-3.1792	-2.85	-3.4271	-3.0583	-3.3083	-3.4083	-3.1896	-3.2896	-3.2208	-3.2083	-3.35	-3.0375	-3.2896	-3.325	-3.1458	234.399	-12.610	-2.114	224.341	-110.187	100.889	231.671	218.551	113.423	26.776	151.512	192.597	201.147	210.201	-49.545	177.750	0.00011133	0.00032903	0.0002547	1162.4	2.6429e-06	4.1028e-06	1218.7	241.86	4.5834e-06	4.0311e-06	303.39	83.709	65.1	19.125	3.0507e-06	27.088	0.00066628	0.00085111	0.0002348	1136	9.3216e-06	9.389e-06	1198.4	240.89	9.228e-06	9.4506e-06	301.01	84.416	66.048	19.461	9.3485e-06	27.567	236.120	-28.047	-36.921	-112.269	-5.381	56.015	-112.210	-104.933	-15.857	102.285	-105.348	-99.107	-99.013	-91.924	-8.398	-91.908	-8191	255	
11030.593	1	1	0	0	0.26518	0.099815	0.09834	0.1886	0.22206	0.035447	0.18506	0.11531	0.25758	0.13391	0.19578	0.060545	0.079234	0.14726	0.14292	0.32454	-2.9833	-3.0792	-2.8375	-3.4167	-3.0896	-3.1958	-3.4583	-3.1396	-3.2438	-3.0958	-3.0792	-3.3229	-2.9854	-3.1333	-3.2729	-3.0479	227.202	40.597	55.787	208.429	2.851	122.367	120.588	205.490	76.113	110.814	-92.644	132.531	86.433	-48.597	220.942	20.988	0.0001189	0.00032885	0.00011355	1161.3	3.2541e-06	5.112e-06	1218.9	243.41	1.0641e-06	2.2235e-06	304.5	82.742	64.947	19.109	2.7315e-06	27.174	0.00068196	0.00087004	0.00024131	1137.7	9.2649e-06	9.4427e-06	1198.9	241.77	9.5378e-06	9.3883e-06	302.11	84.167	65.996	19.411	9.3487e-06	27.682	-123.010	-64.972	-37.434	-112.345	-30.966	14.781	-112.107	-105.115	-49.145	40.242	-105.639	-98.795	-98.682	-91.638	151.797	-92.168	-8191	255	
11030.664	1	1	0	0	0.11069	0.13529	0.070393	0.3698	0.14616	0.13399	0.19163	0.094642	0.1399	0.11781	0.090744	0.1482	0.092313	0.030182	0.22197	0.048626	-2.9792	-3.1667	-2.7729	-3.4979	-2.9167	-3.2646	-3.4417	-3.0104	-3.3292	-3.3854	-3.0563	-3.3833	-3.0958	-3.1813	-3.2917	-3.1562	-12.959	40.002	-88.033	222.226	156.436	-94.629	219.239	109.456	-56.864	-98.323	-58.376	-101.007	173.221	140.829	155.920	92.757	0.00013351	0.00040524	8.2314e-05	1161.3	1.1468e-06	5.6351e-06	1217.4	242.39	1.3094e-06	3.6186e-06	303.93	83.544	65.558	19.138	2.3697e-06	27.027	0.00069712	0.00085567	0.00024055	1137.3	9.3282e-06	9.5204e-06	1199.2	241.39	9.1017e-06	9.3706e-06	301.77	84.573	66.26	19.456	9.0785e-06	27.543	227.761	36.107	-33.434	-112.350	226.454	80.900	-112.035	-105.418	-0.599	29.969	-105.284	-99.059	-98.924	-91.579	16.477	-91.873	-8191	255	
11030.761	1	1	0	0	0.20447	0.14261	0.18404	0.31755	0.063882	0.092791	0.32286	0.21072	0.035265	0.27107	0.23259	0.049889	0.27358	0.21457	0.097336	0.068121	-2.7021	-3.1396	-2.9542	-3.4229	-3.2479	-3.0438	-3.4958	-3.0208	-3.2667	-3.2062	-2.9354	-3.3896	-3.1708	-3.0208	-3.3708	-3.0354	61.196	117.196	205.325	166.738	-100.960	214.661	223.032	-77.062	14.761	61.448	194.506	212.558	192.589	190.786	-69.709	-13.460	0.00014335	0.00029476	0.00018843	1161.1	3.8352e-06	3.3245e-06	1220.1	244.96	2.6812e-06	3.4825e-06	303.93	83.268	65.511	19.217	4.2142e-06	26.954	0.0006929	0.00084255	0.0002438	1137.1	9.4812e-06	9.5801e-06	1200.3	242.32	9.4524e-06	9.79e-06	302.09	84.553	66.248	19.477	9.6083e-06	27.608	-122.525	-46.693	-17.142	-112.374	100.133	-9.879	-112.155	-105.092	-102.064	119.534	-105.475	-99.046	-99.074	-91.726	-62.639	-91.973	-8191	255	
11030.881	1	1	0	0	0.11832	0.054503	0.041928	0.13118	0.11787	0.071638	0.12888	0.21377	0.064358	0.14372	0.16227	0.12131	0.24229	0.26082	0.083369	0.22155	-2.6354	-3.3396	-2.9875	-3.3896	-3.375	-2.9458	-3.4688	-3.25	-3.1375	-3.3396	-3.0563	-3.2542	-3.35	-2.925	-3.2229	-3.2146	72.712	155.577	-81.642	232.028	-103.863	194.059	-63.693	200.741	40.675	168.438	233.263	87.634	-111.086	67.463	-120.075	191.591	0.00011025	0.0001614	4.2392e-05	1160.4	2.5046e-06	5.1083e-06	1219.1	244.16	1.3721e-06	2.0684e-06	304.55	83.423	65.717	19.273	1.5959e-06	27.046	0.00069035	0.00087669	0.00024314	1139.1	9.436e-06	9.7831e-06	1202.8	241.87	9.4282e-06	9.7642e-06	301.98	84.706	66.296	19.508	9.453e-06	27.605	226.595	32.160	7.699	-112.409	36.181	62.901	-112.241	-105.466	72.906	200.769	-105.327	-99.076	-99.024	-91.746	16.495	-92.136	-8191	255	
11030.977	1	1	0	0	0.19211	0.10456	0.055734	0.27362	0.20025	0.11855	0.12566	0.14584	0.18563	0.10869	0.041196	0.10463	0.14554	0.15176	0.13393	0.23675	-2.7229	-3.1625	-3.0146	-3.2562	-3.1063	-3.1583	-3.4521	-3.1896	-3.0042	-3.3875	-3.0125	-3.3479	-3.3271	-3.0146	-3.2979	-3.1854	-89.705	-84.600	35.385	212.109	187.167	104.150	180.798	-121.455	187.069	138.714	170.783	190.498	-107.714	120.490	144.062	149.555	0.00011522	0.0003599	7.7299e-05	1164.9	2.8988e-06	1.7724e-06	1213.7	244.86	4.8161e-06	5.5252e-06	304.41	83.599	65.45	19.194	1.6704e-06	27.09	0.00069288	0.00087189	0.00024847	1140.5	9.4509e-06	9.7115e-06	1199.5	242.13	9.3714e-06	9.5169e-06	301.97	84.605	66.21	19.49	9.589e-06	27.608	229.286	-36.243	-24.173	-112.255	71.113	51.147	-112.243	-105.260	-51.606	2.545	-105.263	-99.000	-99.038	-91.524	46.958	-92.007	-8191	255	
11031.073	1	1	0	0	0.25547	0.25064	0.063814	0.034957	0.0433	0.1136	0.32901	0.33172	0.080529	0.05345	0.11966	0.23908	0.090534	0.10318	0.1028	0.20572	-2.725	-3.3187	-3.0667	-3.2479	-3.1917	-2.9875	-3.3333	-3.1958	-3.0854	-3.3458	-3.1021	-3.2188	-3.1958	-2.9917	-3.2687	-3.2313	-73.408	-114.058	82.579	-67.447	-117.078	0.810	182.824	204.458	-36.333	235.346	-111.215	-121.828	-2.684	205.597	-68.403	197.399	0.00016612	0.00048162	0.00016081	1157.8	4.5375e-06	6.3252e-06	1222.9	242.71	2.8026e-06	1.2271e-06	302.25	83.178	64.874	19.087	1.2331e-06	27.183	0.00067749	0.00087004	0.00024299	1137.3	9.3035e-06	9.5055e-06	1202.1	241.35	9.2928e-06	9.5593e-06	301.51	84.311	66.051	19.495	9.2661e-06	27.53	235.510	1.903	-82.605	-112.412	64.249	64.884	-112.146	-105.478	12.403	-31.502	-105.585	-98.988	-98.482	-91.989	-13.801	-92.388	-8191	255	
11031.170	1	1	0	0	0.28649	0.17492	0.062557	0.18862	0.13747	0.31737	0.10194	0.21337	0.31056	0.10921	0.45106	0.32748	0.29032	0.060328	0.091898	0.23921	-2.4854	-3.3063	-3.1896	-3.0167	-3.2833	-2.8583	-3.3208	-3.3396	-2.975	-3.3333	-3.0708	-3.0604	-3.4062	-3.1479	-3.2396	-3.2	153.845	-99.888	148.925	78.698	23.621	160.046	211.671	-118.746	3.929	-19.363	166.509	224.775	106.605	61.944	-121.030	105.386	0.00013018	0.00028086	7.4994e-05	1158.1	1.9764e-06	1.5123e-06	1218.7	242.8	4.0928e-06	5.8456e-06	304.39	82.693	65.407	19.162	3.3759e-06	27.113	0.00065846	0.00084281	0.00023878	1137	9.0073e-06	9.5696e-06	1199.5	241.13	8.8752e-06	9.4233e-06	301.92	84.255	66.109	19.396	9.3084e-06	27.58	229.865	-76.986	-28.538	-112.193	-14.905	-44.411	-111.996	-105.080	-39.155	48.644	-105.329	-99.284	-98.684	-91.644	55.099	-91.917	-8191	255	
11031.264	1	1	0	0	0.18522	0.035996	0.16448	0.13431	0.11886	0.32684	0.32464	0.22647	0.34033	0.2156	0.067722	0.077723	0.20525	0.13269	0.16688	0.3141	-2.45	-3.3354	-3.0917	-3.1188	-3.4042	-3.0771	-3.3417	-3.2708	-2.7729	-3.3604	-3.2687	-3.1521	-3.3563	-3.0396	-3.25	-3.2104	-16.189	147.716	118.384	-115.335	-82.025	61.267	222.462	89.525	-72.786	162.762	99.598	180.108	-74.096	231.909	183.298	119.672	0.00011366	0.00047213	6.8305e-05	1159.6	2.0715e-06	1.8698e-06	1219.1	243.33	2.127e-06	6.2353e-06	304.48	83.544	64.961	19.138	4.3191e-06	27.098	0.00065704	0.00086729	0.00023687	1137.2	8.9716e-06	9.4366e-06	1198.1	241.44	8.9238e-06	9.3993e-06	301.23	84.361	66.064	19.38	9.0408e-06	27.424	224.885	10.029	37.116	-112.437	-19.088	56.349	-111.936	-105.257	206.931	26.229	-105.637	-98.914	-98.610	-91.759	61.820	-92.055	-8191	255	
11031.362	1	1	0	0	0.12666	0.22538	0.10558	0.26367	0.29672	0.17673	0.18768	0.19325	0.052285	0.33883	0.1274	0.18619	0.23318	0.019354	0.11392	0.13186	-2.5229	-3.2417	-3.025	-2.9625	-3.2333	-3.0083	-3.2125	-3.3854	-2.9062	-3.2604	-3.3896	-2.9479	-3.3708	-2.9458	-3.0458	-3.3333	-101.419	205.879	215.498	235.943	172.223	-0.370	145.428	164.985	52.018	38.470	201.069	213.317	162.569	134.397	-65.613	190.123	0.00010704	0.0003175	0.00012378	1157.1	1.3597e-06	2.4268e-07	1220.3	242.31	1.5772e-06	8.2553e-06	302.96	83.033	64.636	19.259	3.4038e-06	27.142	0.00065894	0.00085853	0.00023523	1136.6	9.0378e-06	9.3115e-06	1198.5	240.97	9.2017e-06	9.4295e-06	301.55	84.204	65.734	19.388	9.0681e-06	27.494	223.813	-52.650	-4.538	-112.395	-7.094	-32.075	-112.035	-105.349	-20.211	35.196	-105.818	-99.144	-98.375	-91.575	88.121	-92.227	-8191	255	
11031.481	1	1	0	0	0.11694	0.36226	0.23715	0.14539	0.21905	0.21674	0.23283	0.12435	0.17223	0.21706	0.090517	0.081679	0.15764	0.13086	0.010411	0.20693	-2.6479	-3.1604	-3.0438	-3.0792	-3.2313	-3.1417	-3.1979	-3.4396	-3.05	-3.2375	-3.3812	-2.8542	-3.1562	-3.1188	-2.9646	-3.4875	88.622	60.689	108.284	111.809	0.967	-84.590	210.290	-105.778	9.591	119.401	-106.759	59.879	24.973	61.382	203.699	-27.570	0.00010877	0.00048939	0.00017953	1160.2	3.2227e-06	1.9617e-06	1220.1	243.82	4.4843e-07	5.7275e-06	302.25	82.994	65.181	19.096	1.4433e-06	26.89	0.00067203	0.0008318	0.00023071	1134.6	8.9292e-06	9.3782e-06	1198.7	241.53	9.1176e-06	9.2944e-06	300.38	83.903	65.989	19.365	9.0785e-06	27.465	-120.130	-25.501	-39.064	-112.110	-22.640	176.895	-112.228	-105.155	-9.517	41.654	-105.459	-98.929	-98.777	-91.899	58.083	-92.030	-8191	255	
11031.577	1	1	0	0	0.27231	0.17221	0.26539	0.116	0.20205	0.15289	0.34962	0.065092	0.074347	0.080226	0.16172	0.21324	0.33084	0.1435	0.09295	0.11023	-2.5292	-3.1583	-3.225	-3.0625	-3.2625	-2.95	-3.1688	-3.2583	-3.0583	-3.0708	-3.3479	-3.0125	-3.1583	-2.9938	-2.8292	-3.1479	-78.781	75.238	-8.101	201.405	-81.430	120.181	234.942	-38.294	3.740	223.577	130.517	178.190	-82.295	159.979	-77.852	5.120	0.00011954	0.00017867	0.00016826	1158.9	1.0195e-06	4.8161e-06	1220.9	243.64	9.7554e-07	3.8178e-06	301.71	83.154	64.96	19.104	1.4018e-06	26.882	0.00066099	0.0008242	0.00022993	1134.5	8.7764e-06	9.137e-06	1200	241.49	8.9555e-06	9.1164e-06	300.39	84.188	65.74	19.323	9.0584e-06	27.412	-121.359	-30.842	-14.794	-112.480	74.527	112.183	-111.966	-105.351	20.511	52.359	-105.646	-99.323	-98.333	-92.068	-4.669	-91.943	-8191	255	
11031.673	1	1	0	0	0.10467	0.17583	0.1959	0.31261	0.11657	0.04773	0.25159	0.30545	0.063873	0.31639	0.14822	0.088355	0.21919	0.25249	0.12948	0.33755	-2.5875	-3.0563	-3.2042	-3.1625	-3.2438	-3.1562	-3.1354	-3.2854	-3.1583	-3.1479	-3.2958	-2.9667	-3.25	-3.0917	-2.9479	-3.3542	-14.853	159.536	78.761	-121.037	-75.665	194.187	188.016	207.226	226.125	147.979	236.014	-89.991	105.762	1.666	179.744	-68.976	9.9433e-05	0.00017611	5.0622e-05	1164.2	4.6919e-06	4.5657e-06	1217	242.57	1.9613e-06	3.8043e-06	301.8	83.129	64.923	19.115	3.5955e-06	27.157	0.00067097	0.0008329	0.00023098	1137.5	8.9929e-06	9.0386e-06	1196.8	241.26	9.106e-06	9.4896e-06	300.9	83.998	65.868	19.348	9.4372e-06	27.507	231.360	-28.508	17.199	-112.129	33.456	-8.774	-112.053	-105.294	65.771	25.366	-105.083	-98.827	-98.617	-91.465	101.269	-92.185	-8191	255	
11031.769	1	1	0	0	0.13321	0.30687	0.10703	0.23991	0.083305	0.16431	0.34511	0.3768	0.053371	0.12337	0.18477	0.22767	0.16949	0.23452	0.18228	0.11285	-2.5854	-3.1229	-3.1625	-3.0417	-3.2917	-3.1	-3.1333	-3.3521	-3.1375	-3.2687	-3.4	-3.1646	-3.2562	-3.2167	-2.9938	-3.3104	-86.006	183.712	-112.415	174.318	-92.631	-70.883	234.461	189.777	48.264	-27.677	-49.530	209.901	122.372	213.941	183.633	19.059	0.00013603	0.00013241	8.6472e-05	1157.9	2.3886e-06	1.5007e-06	1217.3	243.99	2.1551e-06	5.6964e-06	303.78	82.533	65.524	19.133	1.9919e-06	27.026	0.00068872	0.00086098	0.00024922	1135.8	9.7343e-06	9.7299e-06	1198.9	241.42	9.4708e-06	9.5539e-06	301.5	84.008	66.007	19.368	9.5799e-06	27.468	-121.392	-79.769	-21.631	-112.205	32.023	-29.049	-112.232	-105.455	27.288	-15.354	-105.486	-98.633	-98.688	-91.955	-16.048	-92.179	-8191	255	
11031.890	1	1	0	0	0.050699	0.21487	0.18249	0.17942	0.17204	0.33524	0.28715	0.20156	0.082717	0.16097	0.15543	0.02442	0.18592	0.20491	0.13946	0.23283	-2.8021	-2.9271	-3.275	-3.0417	-3.2458	-3.3646	-3.175	-3.3542	-3.0396	-3.1312	-3.4083	-3.1292	-3.175	-3.3146	-3.0167	-3.3042	-101.735	127.417	174.386	227.665	137.203	-106.850	159.096	-76.583	-4.097	179.265	182.863	102.495	31.555	114.047	141.625	20.970	0.00014994	0.00025628	5.6849e-05	1159.6	2.9555e-06	1.5934e-06	1219.3	242.55	2.5288e-06	4.5016e-06	301.67	82.844	65.466	18.991	2.5706e-06	27.001	0.00068251	0.00085007	0.00024719	1136.6	9.474e-06	9.8209e-06	1199.2	241.15	9.5704e-06	9.7151e-06	300.85	84.087	66.013	19.302	9.5656e-06	27.421	-114.799	-55.868	-50.959	-112.308	67.706	71.755	-112.133	-105.432	-50.636	53.880	-105.553	-99.220	-98.507	-91.628	17.403	-92.225	-8191	255	
11031.962	1	1	0	0	0.13948	0.16019	0.061101	0.44162	0.16783	0.12276	0.25759	0.19531	0.15013	0.089683	0.11331	0.44706	0.14579	0.031984	0.16972	0.19977	-2.6229	-2.8187	-3.2313	-3.1562	-3.0312	-3.2625	-3.0208	-3.3021	-3.1521	-2.8	-3.1854	-3.1167	-2.9521	-3.3333	-3.0583	-3.1896	5.765	-108.487	173.745	155.072	90.238	175.744	215.535	100.341	27.231	135.656	144.289	-74.331	-110.060	-98.188	-3.157	62.703	0.00010007	0.00018285	0.00013998	1163.8	1.3736e-06	5.4536e-06	1216.8	241.7	3.2982e-06	1.6931e-06	304.44	83.298	65.678	19.029	2.7787e-06	27.019	0.00066698	0.00084621	0.00024478	1137.8	9.2294e-06	9.5123e-06	1198.6	241.12	9.2814e-06	9.501e-06	301.6	84.068	66.122	19.349	9.5892e-06	27.465	232.389	5.005	1.840	-112.398	70.078	102.979	-111.929	-105.482	4.881	16.535	-105.623	-99.033	-98.534	-91.611	47.393	-92.196	-8191	255	
11032.058	1	1	0	0	0.12285	0.1923	0.075538	0.23623	0.11728	0.16481	0.13529	0.22121	0.084887	0.13968	0.024696	0.12762	0.20056	0.23167	0.021479	0.23172	-2.8667	-2.9604	-3.2667	-3.2625	-3.0458	-3.3396	-3.1896	-3.0729	-3.2958	-2.9	-3.3042	-3.3271	-2.9688	-3.325	-3.0375	-3.0792	66.455	-85.200	-59.550	196.111	22.585	115.217	188.628	194.301	60.553	167.903	231.623	-123.109	30.952	153.026	-113.095	234.231	0.00012085	0.00023518	0.00011647	1163.7	1.702e-06	3.0458e-06	1215.3	242.48	1.9736e-06	3.598e-06	303.9	82.895	64.987	19.099	9.8755e-07	27.239	0.00068684	0.00088198	0.00025107	1137.8	9.778e-06	9.65e-06	1198.2	240.87	9.2361e-06	9.7991e-06	302.23	84.02	65.846	19.416	9.7976e-06	27.506	220.122	-49.869	-31.352	-112.008	4.501	84.234	-112.051	-105.280	-39.371	46.745	-105.605	-99.154	-98.733	-91.848	79.146	-91.653	-8191	255	
11032.154	1	1	0	0	0.17261	0.10073	0.15048	0.081134	0.10775	0.2066	0.31414	0.21746	0.29245	0.14482	0.027823	0.25131	0.15882	0.11954	0.22026	0.18108	-2.8646	-3.0396	-3.2083	-3.3125	-3.0563	-3.325	-3.1833	-3.2104	-3.4229	-3.0438	-3.2958	-3.2458	-2.8	-3.3375	-2.9708	-3.0604	100.105	112.560	-68.185	188.737	-90.199	196.254	-121.175	172.172	-15.150	-63.769	220.685	46.324	180.326	108.726	179.548	-87.519	0.00012493	0.00038495	0.00011523	1159.5	2.953e-06	3.3661e-06	1219.1	243.46	2.1296e-06	6.3556e-06	303.5	82.634	64.877	19.147	2.9313e-06	26.98	0.00068823	0.0008859	0.00024836	1138.5	9.4026e-06	9.5776e-06	1200.6	241.37	9.3113e-06	9.87e-06	301.47	83.991	65.941	19.401	9.5129e-06	27.53	223.318	-30.962	-24.096	-112.559	195.052	-19.387	-112.121	-105.516	-32.058	-7.459	-105.812	-99.104	-98.706	-91.803	79.555	-91.825	-8191	255	
11032.273	1	1	0	0	0.2402	0.059548	0.19754	0.15456	0.14823	0.18767	0.33256	0.12112	0.18141	0.3204	0.26679	0.22441	0.25846	0.12558	0.066949	0.2448	-2.8729	-2.9646	-3.1458	-3.125	-3.1	-3.2	-3.2229	-3.0417	-3.1771	-2.9833	-3.2917	-3.0646	-2.9292	-3.3125	-3.0958	-3.0875	-21.768	51.080	229.512	-73.346	159.069	83.784	144.847	-15.571	166.014	133.952	108.624	130.115	-49.611	-69.330	125.551	231.486	0.00016375	0.00028557	0.00015974	1161.8	3.3604e-06	1.8032e-06	1221.8	243.93	2.8885e-06	9.6551e-06	303.35	83.564	65.408	19.045	3.9087e-06	26.996	0.00068262	0.00086552	0.00024589	1138.9	9.1708e-06	9.413e-06	1200.3	242.04	9.2236e-06	9.9834e-06	301.57	84.116	66.141	19.351	9.5441e-06	27.459	232.894	-49.457	44.306	-112.279	53.036	86.554	-112.046	-105.317	185.801	35.426	-105.455	-99.255	-98.546	-91.992	73.239	-92.035	-8191	255	
11032.369	1	1	0	0	0.14477	0.10076	0.079873	0.17574	0.079565	0.19992	0.1247	0.35286	0.22448	0.12476	0.018062	0.21232	0.32476	0.12799	0.039811	0.20521	-2.9313	-2.9646	-3.0146	-3.4167	-2.9729	-3.1042	-3.2729	-3.0583	-3.3104	-2.9229	-2.8833	-3.4437	-3.0604	-3.3063	-3.2604	-2.85	132.583	54.208	177.631	231.582	195.581	-32.102	147.543	201.574	162.962	47.771	224.443	-118.423	-106.538	-50.464	104.169	-25.792	0.00013279	0.00038443	9.9291e-05	1161.5	3.6202e-06	4.679e-06	1217.5	243.57	2.7312e-06	2.3806e-06	306.34	82.809	65.308	19.154	1.5851e-06	27.081	0.00066854	0.00085441	0.00024013	1137.2	9.1861e-06	9.5684e-06	1198.2	241.41	9.2386e-06	9.6189e-06	302	83.856	65.961	19.326	9.154e-06	27.359	213.487	-1.969	-44.188	-112.293	53.701	21.251	-112.247	-105.407	-36.208	-11.522	-105.189	-99.152	-98.568	-91.779	114.509	-92.175	-8191	255	
11032.465	1	1	0	0	0.09943	0.19196	0.19332	0.22332	0.19419	0.28671	0.25658	0.28085	0.060835	0.096522	0.35766	0.21348	0.15707	0.18005	0.22734	0.23665	-2.7771	-2.8896	-3.1583	-3.45	-2.9021	-3.2438	-3.2333	-2.9	-3.3146	-3.1146	-3.1813	-3.2625	-2.8958	-3.35	-3.1375	-3.0646	204.303	36.825	-80.397	28.252	8.711	225.663	111.365	188.118	120.947	47.079	147.264	234.159	157.062	-106.437	102.847	-108.019	0.00012053	0.00042888	6.736e-05	1157.7	3.8249e-06	3.4662e-06	1217	244.42	1.4246e-06	3.9232e-06	304.87	83.279	64.923	18.932	4.8384e-06	26.906	0.0006605	0.00083475	0.00023604	1134.3	9.2835e-06	9.5886e-06	1195	241.7	9.1886e-06	9.4141e-06	302	84.059	65.85	19.321	9.1659e-06	27.299	214.535	-42.420	-39.017	-112.155	-8.776	38.749	-112.071	-105.334	-100.195	62.035	-105.518	-99.183	-98.885	-91.889	32.744	-92.005	-8191	255	
11032.561	1	1	0	0	0.074239	0.18285	0.17277	0.033267	0.49593	0.15646	0.38246	0.23668	0.15542	0.34166	0.10869	0.13784	0.15429	0.21468	0.13663	0.29084	-3	-3.0667	-2.9792	-3.2687	-3	-2.9979	-3.2729	-3.1958	-3.4125	-3.0375	-3.0396	-3.2229	-3.0042	-3.2042	-3.2771	-2.9125	95.569	-22.246	-40.935	166.006	-114.135	-22.017	183.569	140.092	136.473	9.857	223.162	218.310	-58.314	188.420	174.069	109.914	0.00013421	0.00028454	3.5009e-05	1161.1	1.5085e-06	4.6456e-06	1219.2	243.8	3.8053e-06	3.9216e-06	304.55	83.196	65.615	19.018	1.21e-06	27.104	0.00070001	0.00088457	0.000242	1137.7	9.882e-06	9.9889e-06	1198.9	241.37	9.6106e-06	9.7545e-06	301.78	83.971	66.119	19.375	9.5567e-06	27.493	217.986	1.527	-3.066	-112.135	63.758	68.532	-112.208	-105.197	-38.124	31.336	-105.390	-99.153	-99.036	-91.658	72.999	-92.017	-8191	255	
11032.657	1	1	0	0	0.073934	0.12609	0.082628	0.14295	0.035321	0.094582	0.17215	0.26701	0.10273	0.22045	0.2155	0.32021	0.0729	0.19506	0.088897	0.41014	-2.8667	-3.0583	-2.75	-3.3729	-3.0833	-3.0438	-3.4271	-2.9583	-3.2938	-3.2771	-3.1063	-3.5438	-3.2479	-3.1458	-3.1854	-2.9917	-67.292	-75.367	36.770	210.758	72.352	150.351	185.285	134.216	209.958	203.787	-122.874	-122.289	234.899	-119.389	-112.924	152.276	0.0001305	0.00065469	9.337e-05	1163.8	5.6197e-06	2.5718e-06	1217.8	244.55	3.0189e-07	3.9098e-06	304.63	83.108	64.993	19.002	3.9908e-06	27.024	0.00071529	0.00089088	0.00025252	1139.3	9.9448e-06	1.0178e-05	1201	242.35	9.9429e-06	1.0325e-05	302.36	84.213	65.869	19.427	9.9542e-06	27.46	231.301	-17.576	-29.406	-112.363	-12.338	55.351	-112.174	-105.412	6.792	91.930	-105.303	-99.273	-98.956	-91.938	-22.990	-91.914	-8191	255	
11032.753	1	1	0	0	0.2948	0.086716	0.24299	0.25283	0.22955	0.11468	0.13707	0.22484	0.041619	0.15091	0.21566	0.2583	0.11624	0.095291	0.094472	0.13856	-2.7167	-3.225	-2.8542	-3.5083	-3.1437	-2.9021	-3.3875	-3.0979	-3.1625	-3.2646	-3.0479	-3.1688	-3.0542	-2.8667	-3.3208	-3.0563	60.967	1.007	148.576	174.954	177.344	38.894	126.007	125.163	-46.150	117.779	173.601	193.762	51.409	208.940	-55.121	-26.167	0.00012022	0.00031419	9.4315e-05	1169.9	1.6478e-06	2.147e-06	1220.6	244.22	2.4562e-06	7.7168e-06	303.61	83.251	64.759	18.926	4.3154e-06	27.112	0.00072955	0.00091554	0.00026142	1143	9.8485e-06	1.0209e-05	1202.8	242.11	1.0129e-05	1.0154e-05	302.03	84.252	66.066	19.35	9.9984e-06	27.479	220.857	12.513	-93.871	-112.201	10.677	19.543	-112.185	-105.298	-14.286	46.558	-105.643	-99.127	-98.809	-91.314	-24.791	-91.922	-8191	255	
11032.850	1	1	0	0	0.32289	0.13428	0.13497	0.16219	0.037485	0.21203	0.13417	0.25573	0.21636	0.11771	0.21971	0.14341	0.075963	0.10023	0.13842	0.12111	-2.8521	-3.2812	-2.7104	-3.3604	-3.1958	-2.9938	-3.65	-3.0833	-3.0917	-3.3708	-2.9688	-3.3021	-3.3521	-3.1771	-3.35	-2.9813	63.400	143.815	-3.479	-116.352	42.574	225.239	102.391	196.759	-50.420	209.415	-114.604	129.815	194.906	-100.052	-28.676	161.511	0.00010817	0.00041689	0.00014347	1165.1	1.908e-06	5.4283e-07	1220.3	242.54	9.5758e-07	6.3726e-06	304.24	83.638	65.273	19.034	2.9753e-06	27.157	0.00073075	0.00091755	0.00026098	1141.8	9.8879e-06	1.0247e-05	1201.8	241.61	1.0171e-05	1.0291e-05	302.68	84.323	66.14	19.389	1.0248e-05	27.486	210.121	-39.040	10.291	-112.374	65.741	-68.112	-112.279	-105.293	-0.397	92.035	-105.736	-98.939	-99.115	-91.793	57.064	-92.298	-8191	255	
11032.970	1	1	0	0	0.10427	0.26585	0.089964	0.10799	0.13842	0.31589	0.1368	0.22943	0.13027	0.11088	0.18496	0.045958	0.099896	0.075148	0.019416	0.15686	-2.6396	-3.3729	-2.9167	-3.1917	-3.2104	-2.9521	-3.2917	-3.1917	-3.0354	-3.2979	-3.0333	-3.2542	-3.2188	-2.9271	-3.2021	-3.0729	171.688	75.025	6.139	228.790	174.764	133.260	63.351	150.406	-72.886	-84.825	-88.671	223.036	102.158	165.918	-75.380	-89.028	0.00013598	0.0001853	0.00018495	1167.4	2.5628e-06	4.269e-06	1224.9	242.92	2.8535e-06	4.0732e-06	304.02	83.339	65.362	19.124	2.0714e-06	27.014	0.00075063	0.00094243	0.00026335	1144.5	1.0334e-05	1.0473e-05	1204.8	242.18	9.9791e-06	1.0333e-05	302.94	84.309	66.163	19.404	9.9921e-06	27.535	211.612	-5.533	-18.052	-112.296	62.627	-0.462	-112.307	-105.546	-32.523	5.553	-105.328	-98.918	-98.816	-91.616	52.195	-91.897	-8191	255	
11033.065	1	1	0	0	0.18803	0.10547	0.22318	0.26425	0.11102	0.067476	0.13399	0.23974	0.18591	0.19303	0.35066	0.08251	0.15136	0.27426	0.16477	0.13163	-2.6146	-3.2167	-2.8	-3.3187	-3.1042	-2.875	-3.3208	-3.1708	-2.9667	-3.3792	-3.0396	-3.2042	-3.1208	-3.0354	-3.3479	-3.1708	-2.672	203.076	117.389	104.863	235.645	-74.985	223.914	132.580	39.148	-90.115	224.764	15.931	-75.552	235.058	19.225	176.034	0.00013667	0.00037736	0.00012229	1164.1	3.9249e-06	1.8974e-06	1219.1	244.67	5.1254e-07	2.9389e-06	301.98	83.313	65.117	19.212	4.7902e-06	27.139	0.00073883	0.0009152	0.00026274	1142.9	9.7601e-06	1.0227e-05	1203	242.22	9.8969e-06	1.015e-05	302	84.195	66.013	19.417	1.0184e-05	27.435	-121.726	-14.757	-20.517	-112.187	55.108	-108.624	-112.150	-105.377	83.535	228.241	-105.476	-99.263	-98.664	-91.844	75.059	-92.070	-8191	255	
11033.163	1	1	0	0	0.19838	0.20593	0.16881	0.19867	0.13204	0.19489	0.26673	0.3497	0.32256	0.14138	0.31914	0.17557	0.025939	0.2182	0.053358	0.12665	-2.5938	-3.1021	-3.1021	-3.1479	-3.2062	-2.8646	-3.4708	-3.1479	-3.0604	-3.2479	-3.0729	-3.1958	-3.3563	-2.9625	-3.2854	-3.375	187.542	21.219	87.401	187.170	12.557	216.311	162.375	152.258	-7.336	205.382	150.806	138.139	15.545	202.232	44.405	98.711	0.00011864	0.00026945	0.00018604	1166.7	4.5279e-06	4.1469e-06	1223.7	243.93	1.2274e-06	8.3519e-06	304.45	82.614	65.493	18.99	2.4125e-06	26.886	0.00071297	0.0009075	0.00026146	1143.4	9.9007e-06	1.0228e-05	1204.7	242.45	1.0036e-05	1.0319e-05	302.63	84.116	66.264	19.363	9.9476e-06	27.446	208.309	-46.637	40.195	-112.304	64.273	40.894	-112.081	-105.357	12.421	20.560	-105.523	-98.958	-98.515	-91.877	69.331	-92.575	-8191	255	
11033.257	1	1	0	0	0.17387	0.0079418	0.093053	0.27955	0.086658	0.035065	0.23352	0.18901	0.067923	0.23277	0.10348	0.097926	0.35839	0.19636	0.18684	0.081516	-2.7229	-3.3917	-3.0375	-3.0979	-3.0604	-3.0729	-3.4188	-3.2146	-2.8563	-3.4125	-3.0167	-3	-3.2646	-3.25	-3.2083	-3.3479	-67.795	-123.301	-44.286	156.434	-94.374	129.578	159.161	187.669	228.004	-88.637	160.210	218.631	193.389	129.765	47.532	175.314	9.8817e-05	0.00047928	6.5375e-05	1168.3	3.6681e-06	3.2668e-06	1218	243.3	3.6821e-06	1.9955e-06	305.4	82.801	65.502	18.981	1.9239e-06	26.841	0.00071027	0.00090955	0.00025087	1142.8	9.8093e-06	1.0266e-05	1203.1	242.11	9.8318e-06	1.0283e-05	303.21	84.234	66.254	19.362	9.7425e-06	27.48	212.711	-63.147	-3.937	-112.198	23.143	67.759	-112.234	-105.623	-14.908	67.034	-105.482	-99.163	-98.794	-91.800	-40.516	-92.245	-8191	255	
11033.353	1	1	0	0	0.2013	0.04403	0.075318	0.10519	0.050551	0.077215	0.28973	0.48022	0.10115	0.42412	0.12098	0.13996	0.10968	0.093367	0.050934	0.11513	-2.6396	-3.1542	-3.0312	-3.2417	-3.3833	-2.9729	-3.35	-3.4625	-2.7687	-3.2396	-3.1375	-3.0042	-3.2875	-2.9167	-2.975	-3.2833	-15.193	64.760	52.606	16.923	11.882	-87.291	197.286	206.335	-33.112	-19.267	141.662	168.781	96.907	83.293	-99.325	144.651	0.00011562	0.00061292	5.7757e-05	1163.3	1.9769e-06	4.7662e-06	1220	243.11	2.1673e-06	6.0777e-06	303.05	83.15	64.797	19.014	2.3265e-06	26.841	0.0007122	0.00090517	0.00025362	1141.4	9.5217e-06	1.0006e-05	1201.6	241.67	9.4918e-06	9.9543e-06	302.09	84.076	65.841	19.311	9.5597e-06	27.362	-121.363	-34.259	-3.907	-112.401	38.391	9.071	-112.154	-105.533	76.841	8.095	-105.545	-99.123	-98.770	-91.724	-10.145	-92.189	-8191	255	
11033.449	1	1	0	0	0.14372	0.12829	0.13154	0.3955	0.23444	0.13033	0.091261	0.08239	0.10608	0.21368	0.19827	0.22413	0.20693	0.26054	0.10576	0.20234	-2.6417	-3.2271	-3.2083	-2.9958	-3.3083	-3.0583	-3.3646	-3.4979	-2.9896	-3.275	-3.1208	-3.1375	-3.2396	-3.1146	-3.0542	-3.4771	-69.404	97.018	119.824	226.472	162.861	167.583	213.855	91.509	79.263	4.560	34.543	-115.054	167.023	-103.093	104.026	110.100	0.00011888	0.00041422	0.0001138	1166.3	3.1122e-06	6.8777e-06	1221.8	243.71	4.5523e-06	5.4347e-06	303.87	82.72	65.236	19.109	1.1141e-06	26.953	0.00069001	0.00087987	0.00024795	1139.3	9.2958e-06	9.9698e-06	1201.7	241.94	9.7138e-06	9.9388e-06	301.72	83.982	66.13	19.388	9.5823e-06	27.495	223.661	-20.889	-6.467	-112.141	41.268	10.013	-112.182	-105.398	3.288	18.577	-105.435	-98.965	-98.798	-92.064	63.175	-91.913	-8191	255	
11033.570	1	1	0	0	0.074494	0.12331	0.030759	0.29716	0.10853	0.15777	0.28358	0.16492	0.20082	0.18916	0.11065	0.17799	0.18998	0.11938	0.1097	0.15523	-2.5646	-3.1312	-3.1896	-2.9146	-3.2313	-3.2562	-3.1583	-3.2938	-2.7979	-3.1854	-3.2521	-2.9458	-3.3375	-3.0417	-2.95	-3.4646	50.859	-1.107	-96.204	210.860	-24.696	-121.386	205.969	219.242	167.767	110.906	154.845	204.881	222.112	236.041	71.067	-10.655	9.7881e-05	0.00065341	6.0339e-05	1166.5	3.5969e-06	1.9675e-06	1221.1	242.11	4.3634e-06	3.196e-06	304.03	82.929	65.214	18.927	4.4194e-06	26.886	0.00069023	0.00089641	0.00024731	1142.2	9.416e-06	9.8685e-06	1201.6	241.41	9.6401e-06	9.8803e-06	302.3	84.08	66.17	19.354	9.5946e-06	27.346	229.632	-29.068	-77.983	-112.227	-46.043	2.482	-111.978	-105.387	29.779	119.558	-105.103	-98.852	-98.507	-91.562	18.568	-92.602	-8191	255	
#DATA ENDS
