BOXY.EXE: ISS Imagent and Oximeter Data Acquisition Program Version 0.80
Ascii Record File

#ACQ INFORMATION
2  Detector Channels 
16  External MUX Channels 
1  Auxiliary Channels 
5000  Waveform (CCF) Frequency (Hz)
1  Waveforms Skipped 
30  Waveforms Averaged 
1  Cycles Averaged 
16  Acquisitions per Waveform 
10.0806  Updata Rate (Hz) 

#FILE INFORMATION
TRUE -- External MUX Channel results are PARSED.
FALSE -- AC DC and Phase are NOT grouped.
TRUE -- Companion Program Settings File CREATED.
FALSE -- AC data not excluded
FALSE -- DC data not excluded
FALSE -- Phase data not excluded
FALSE -- Auxillary Chn. data not excluded
Tab delimiters

#CALIBRATION STATE
TRUE -- Waveform Calibration Values APPLIED.


#AUX CALIBRATION VALUES
Val Type	aux-1	

Term	1.0000e+00	
Factor	0.0000e+00	


#WF CALIBRATION VALUES
A = Detector Channel
Val Type	A-AC1	A-AC2	A-AC3	A-AC4	A-AC5	A-AC6	A-AC7	A-AC8	A-AC9	A-AC10	A-AC11	A-AC12	A-AC13	A-AC14	A-AC15	A-AC16	A-DC1	A-DC2	A-DC3	A-DC4	A-DC5	A-DC6	A-DC7	A-DC8	A-DC9	A-DC10	A-DC11	A-DC12	A-DC13	A-DC14	A-DC15	A-DC16	A-Ph1	A-Ph2	A-Ph3	A-Ph4	A-Ph5	A-Ph6	A-Ph7	A-Ph8	A-Ph9	A-Ph10	A-Ph11	A-Ph12	A-Ph13	A-Ph14	A-Ph15	A-Ph16	

Term	0.00000e+00	0.00000e+00	0.00000e+00	0.00000e+00	0.00000e+00	0.00000e+00	0.00000e+00	0.00000e+00	0.00000e+00	0.00000e+00	0.00000e+00	0.00000e+00	0.00000e+00	0.00000e+00	0.00000e+00	0.00000e+00	0.00000e+00	0.00000e+00	0.00000e+00	0.00000e+00	0.00000e+00	0.00000e+00	0.00000e+00	0.00000e+00	0.00000e+00	0.00000e+00	0.00000e+00	0.00000e+00	0.00000e+00	0.00000e+00	0.00000e+00	0.00000e+00	0.00000e+00	0.00000e+00	0.00000e+00	0.00000e+00	0.00000e+00	0.00000e+00	0.00000e+00	0.00000e+00	0.00000e+00	0.00000e+00	0.00000e+00	0.00000e+00	0.00000e+00	0.00000e+00	0.00000e+00	0.00000e+00	
Factor	1.00000e+00	1.00000e+00	1.00000e+00	1.00000e+00	1.00000e+00	1.00000e+00	1.00000e+00	1.00000e+00	1.00000e+00	1.00000e+00	1.00000e+00	1.00000e+00	1.00000e+00	1.00000e+00	1.00000e+00	1.00000e+00	1.00000e+00	1.00000e+00	1.00000e+00	1.00000e+00	1.00000e+00	1.00000e+00	1.00000e+00	1.00000e+00	1.00000e+00	1.00000e+00	1.00000e+00	1.00000e+00	1.00000e+00	1.00000e+00	1.00000e+00	1.00000e+00	X	X	X	X	X	X	X	X	X	X	X	X	X	X	X	X	

B = Detector Channel
Val Type	B-AC1	B-AC2	B-AC3	B-AC4	B-AC5	B-AC6	B-AC7	B-AC8	B-AC9	B-AC10	B-AC11	B-AC12	B-AC13	B-AC14	B-AC15	B-AC16	B-DC1	B-DC2	B-DC3	B-DC4	B-DC5	B-DC6	B-DC7	B-DC8	B-DC9	B-DC10	B-DC11	B-DC12	B-DC13	B-DC14	B-DC15	B-DC16	B-Ph1	B-Ph2	B-Ph3	B-Ph4	B-Ph5	B-Ph6	B-Ph7	B-Ph8	B-Ph9	B-Ph10	B-Ph11	B-Ph12	B-Ph13	B-Ph14	B-Ph15	B-Ph16	

Term	0.00000e+00	0.00000e+00	0.00000e+00	0.00000e+00	0.00000e+00	0.00000e+00	0.00000e+00	0.00000e+00	0.00000e+00	0.00000e+00	0.00000e+00	0.00000e+00	0.00000e+00	0.00000e+00	0.00000e+00	0.00000e+00	0.00000e+00	0.00000e+00	0.00000e+00	0.00000e+00	0.00000e+00	0.00000e+00	0.00000e+00	0.00000e+00	0.00000e+00	0.00000e+00	0.00000e+00	0.00000e+00	0.00000e+00	0.00000e+00	0.00000e+00	0.00000e+00	-1.62186e+02	-1.31730e+02	-1.27311e+02	-1.82839e+02	-7.22027e+01	-7.27005e+01	-1.55569e+02	-1.62015e+02	-8.76372e+01	-5.40435e+01	-1.72178e+02	-1.69985e+02	-1.81095e+02	-1.77169e+02	-7.66771e+01	-1.49038e+02	
Factor	2.42245e-05	1.56023e-04	3.81428e-05	1.75312e-01	1.40971e-06	1.64037e-06	1.54563e-01	4.71353e-02	1.24050e-06	1.69146e-06	8.91026e-02	2.75073e-02	2.74061e-02	8.82892e-03	1.31004e-06	1.28598e-02	5.15665e-06	6.04778e-06	1.70279e-06	8.69371e-02	6.52167e-08	6.74084e-08	7.23543e-02	2.35215e-02	6.47762e-08	6.74149e-08	4.30885e-02	1.33832e-02	1.37951e-02	4.43508e-03	6.56277e-08	6.27281e-03	X	X	X	X	X	X	X	X	X	X	X	X	X	X	X	X	



#DISTANCE SETTINGS
A = Detector Channel
A-1	A-2	A-3	A-4	A-5	A-6	A-7	A-8	A-9	A-10	A-11	A-12	A-13	A-14	A-15	A-16	

2.5000e+00	3.0000e+00	2.5000e+00	3.0000e+00	2.0000e+00	3.0000e+00	1.5000e+00	3.0000e+00	3.0000e+00	3.0000e+00	3.0000e+00	3.0000e+00	3.0000e+00	3.0000e+00	1.5000e+00	3.0000e+00	

B = Detector Channel
B-1	B-2	B-3	B-4	B-5	B-6	B-7	B-8	B-9	B-10	B-11	B-12	B-13	B-14	B-15	B-16	

1.0000e+01	1.0000e+01	1.0000e+01	1.4400e+00	1.0000e+01	1.0000e+01	1.5100e+00	1.9400e+00	1.0000e+01	1.0000e+01	1.9900e+00	2.4900e+00	2.4100e+00	2.9000e+00	1.0000e+01	2.9800e+00	




#DATA BEGINS
time	group	step	mark	flag	A-AC1	A-AC2	A-AC3	A-AC4	A-AC5	A-AC6	A-AC7	A-AC8	A-AC9	A-AC10	A-AC11	A-AC12	A-AC13	A-AC14	A-AC15	A-AC16	A-DC1	A-DC2	A-DC3	A-DC4	A-DC5	A-DC6	A-DC7	A-DC8	A-DC9	A-DC10	A-DC11	A-DC12	A-DC13	A-DC14	A-DC15	A-DC16	A-Ph1	A-Ph2	A-Ph3	A-Ph4	A-Ph5	A-Ph6	A-Ph7	A-Ph8	A-Ph9	A-Ph10	A-Ph11	A-Ph12	A-Ph13	A-Ph14	A-Ph15	A-Ph16	B-AC1	B-AC2	B-AC3	B-AC4	B-AC5	B-AC6	B-AC7	B-AC8	B-AC9	B-AC10	B-AC11	B-AC12	B-AC13	B-AC14	B-AC15	B-AC16	B-DC1	B-DC2	B-DC3	B-DC4	B-DC5	B-DC6	B-DC7	B-DC8	B-DC9	B-DC10	B-DC11	B-DC12	B-DC13	B-DC14	B-DC15	B-DC16	B-Ph1	B-Ph2	B-Ph3	B-Ph4	B-Ph5	B-Ph6	B-Ph7	B-Ph8	B-Ph9	B-Ph10	B-Ph11	B-Ph12	B-Ph13	B-Ph14	B-Ph15	B-Ph16	aux-1	digaux	

2247.419	1	1	0	256	0.27819	0.14926	0.26106	0.30751	0.13113	0.015846	0.18801	0.069994	0.08328	0.10283	0.084668	0.1043	0.062944	0.06425	0.10229	0.1925	-2.7021	-3.3438	-3.1729	-3.3208	-3.3646	-2.9875	-3.525	-3.3896	-3.1875	-3.5208	-3.2271	-3.3083	-3.5771	-3.1729	-3.4938	-3.3354	207.864	20.407	229.827	190.380	39.421	168.928	163.792	198.036	-77.193	189.240	-51.192	58.051	183.987	110.582	-44.879	115.818	0.00032699	0.00045303	7.8265e-05	556.18	1.195e-06	5.2684e-06	525.39	153.78	3.5956e-06	7.6176e-06	182.08	83.869	63.612	26.191	3.2236e-06	38.078	0.0017079	0.0019386	0.0005492	565.16	2.1159e-05	2.1563e-05	533.27	156.62	2.082e-05	2.1541e-05	190.01	85.773	66.202	26.986	2.1214e-05	38.996	158.696	-19.877	-3.860	-115.681	7.670	-21.640	-117.134	-111.187	-2.253	-22.115	-113.198	-109.950	-107.871	-102.158	-63.946	-105.168	-8191	255	
2247.515	1	1	0	0	0.17298	0.098955	0.075919	0.083741	0.066097	0.092725	0.14566	0.33077	0.05992	0.20128	0.15016	0.029513	0.073293	0.30715	0.16241	0.154	-2.7896	-3.1833	-3.1208	-3.1188	-3.5438	-3.1583	-3.3812	-3.45	-2.975	-3.5354	-3.3333	-3.2	-3.4958	-3.1771	-3.2562	-3.3354	205.678	117.365	114.482	142.501	-81.215	175.834	-78.317	-110.843	-119.491	170.318	-102.312	151.892	173.510	156.135	45.471	108.884	0.00031325	0.00016413	0.00011474	559.17	8.268e-06	6.2655e-06	528.88	153.87	6.0894e-06	3.78e-06	183.99	84.146	63.207	26.089	8.5816e-06	37.612	0.0017404	0.0019589	0.00055514	567.02	2.1084e-05	2.1833e-05	536.85	157.72	2.108e-05	2.1793e-05	191.51	86.365	66.397	27.054	2.0859e-05	38.928	139.554	218.916	108.263	-115.637	69.359	28.513	-116.678	-111.066	-47.238	74.179	-112.796	-109.804	-107.935	-101.846	46.444	-105.052	-8191	255	
2247.611	1	1	0	0	0.16751	0.06373	0.094627	0.10426	0.041179	0.040173	0.060555	0.1205	0.0573	0.13067	0.20328	0.12772	0.16796	0.11008	0.094678	0.07969	-2.7021	-3.575	-3.3542	-3.3354	-3.3833	-3.0312	-3.3979	-3.5292	-3.1688	-3.4875	-3.425	-3.3208	-3.5125	-3.3312	-3.1979	-3.4792	-57.074	-33.761	32.679	107.858	-45.228	-67.176	205.042	179.568	117.785	101.674	206.846	110.281	-124.651	14.666	-2.123	-63.838	0.00041214	0.00033754	0.00020958	554.59	2.8638e-06	5.7328e-06	527.76	154.77	3.7409e-06	1.9578e-06	183.92	84.243	63.651	26.283	2.7145e-06	37.601	0.0017198	0.001934	0.00055015	564.34	2.089e-05	2.1263e-05	534.25	157.87	2.0925e-05	2.1626e-05	191.09	86.686	66.558	27.147	2.1085e-05	38.973	168.408	-72.896	224.676	-115.512	178.143	204.373	-116.604	-111.012	14.779	87.964	-113.365	-109.877	-107.599	-102.079	57.045	-104.942	-8191	255	
2247.706	1	1	0	0	0.15822	0.11024	0.25257	0.11559	0.091146	0.11376	0.18358	0.12443	0.18812	0.17571	0.12018	0.12193	0.11269	0.07745	0.20879	0.12743	-2.7271	-3.3708	-3.2792	-3.0771	-3.5958	-3.2562	-3.3937	-3.5979	-3.2021	-3.5625	-3.4083	-3.1625	-3.5187	-3.3521	-3.2917	-3.6083	-37.128	41.168	43.706	31.497	124.644	178.491	161.547	-100.391	-108.516	98.560	167.967	183.649	-76.225	162.295	204.440	51.584	0.00034573	0.0011415	0.00017788	557.57	2.9572e-06	5.2715e-06	524.75	155.32	4.1836e-06	3.496e-06	185.68	85.204	64.317	26.442	2.9518e-06	38.342	0.0017243	0.001959	0.00054814	566.64	2.0854e-05	2.1549e-05	535.2	158.24	2.0688e-05	2.1624e-05	192.84	87.3	67.163	27.365	2.1367e-05	39.384	164.888	-55.017	-45.024	-115.751	-82.019	-124.002	-116.808	-110.619	92.766	193.501	-112.877	-109.793	-107.665	-102.079	13.382	-105.467	-8191	255	
2247.802	1	1	0	0	0.13959	0.30601	0.1638	0.1616	0.19565	0.26056	0.0070347	0.21578	0.060557	0.23007	0.056218	0.24655	0.17881	0.11091	0.1039	0.061096	-2.8937	-3.2958	-3.3979	-3.1437	-3.6521	-3.2479	-3.1479	-3.5187	-3.2167	-3.2667	-3.5312	-3.1646	-3.3917	-3.2854	-3.2271	-3.4938	-42.098	185.956	73.745	-120.249	-104.238	191.146	-54.125	156.780	-127.427	-122.284	-120.973	17.635	-54.101	102.505	-75.536	43.590	0.00027429	0.00028904	6.4751e-05	559.12	1.6017e-06	5.9733e-06	533.15	156.33	3.1878e-06	4.8698e-06	186.86	86.094	64.439	26.583	4.3884e-07	38.266	0.0017428	0.0019834	0.00055048	568.53	2.1203e-05	2.2013e-05	539.78	159.39	2.1094e-05	2.1843e-05	194.43	87.905	67.477	27.487	2.1385e-05	39.629	170.587	5.172	219.080	-115.654	22.255	94.453	-117.136	-111.018	12.890	-19.657	-113.063	-109.893	-107.422	-102.242	112.485	-104.953	-8191	255	
2247.923	1	1	0	0	0.27899	0.034118	0.023132	0.11246	0.093219	0.18918	0.12625	0.25717	0.10759	0.085918	0.10617	0.061531	0.32886	0.30531	0.23168	0.051053	-2.8229	-3.3479	-3.4125	-3.1146	-3.4521	-3.3854	-3.2583	-3.4729	-3.2875	-3.4042	-3.2479	-3.2771	-3.2521	-3.4583	-3.1562	-3.4729	-44.771	-41.376	156.118	166.102	-106.058	91.579	201.225	219.765	95.585	122.222	-93.223	-67.078	201.153	188.769	-36.208	218.369	0.00038164	0.0001639	3.12e-05	556.25	1.3088e-06	3.2669e-06	527.66	155.22	4.3778e-06	3.5147e-06	185.92	84.917	64.06	26.542	3.5529e-06	38.316	0.001738	0.0019755	0.00055345	567.12	2.0938e-05	2.1767e-05	536.85	159.02	2.0865e-05	2.1689e-05	193.05	87.076	67.156	27.358	2.1089e-05	39.226	145.684	-51.319	137.426	-115.791	-87.562	48.269	-116.835	-111.353	15.595	21.848	-112.938	-109.930	-107.621	-101.750	174.270	-105.186	-8191	255	
2248.019	1	1	0	0	0.3297	0.27599	0.18102	0.21342	0.11746	0.11661	0.14351	0.15894	0.092864	0.28773	0.085372	0.2893	0.12568	0.20375	0.24828	0.12212	-2.7375	-3.2708	-3.2521	-3.2292	-3.3729	-3.2979	-3.2417	-3.5542	-3.1896	-3.1063	-3.5958	-3.1333	-3.2646	-3.4021	-3.2208	-3.4542	-105.202	104.457	25.922	223.579	-50.099	-9.075	194.353	-110.215	137.679	79.524	-1.544	89.677	177.382	84.100	118.701	105.865	0.00028701	0.00081728	9.9535e-05	557.69	2.057e-06	3.0631e-06	532.04	155.36	8.0226e-06	7.927e-06	186.19	85.072	64.525	26.558	3.3242e-06	38.141	0.0017275	0.00196	0.00055107	566.74	2.1169e-05	2.1987e-05	537.86	158.81	2.1007e-05	2.1677e-05	193.72	87.391	67.248	27.405	2.1523e-05	39.364	152.042	-13.534	40.431	-115.688	11.893	-65.527	-117.077	-111.290	17.023	89.724	-113.238	-109.865	-107.909	-101.994	35.871	-104.901	-8191	255	
2248.115	1	1	0	0	0.057916	0.32633	0.14732	0.21714	0.045249	0.12901	0.091746	0.15669	0.050876	0.1268	0.083813	0.2049	0.16223	0.085068	0.0431	0.13176	-2.9062	-3.2417	-3.3729	-3.2083	-3.4083	-3.5438	-3.2542	-3.4479	-3.2458	-3.1937	-3.6625	-3.3396	-3.4313	-3.5708	-3.2313	-3.5854	52.480	116.938	171.761	101.242	-91.672	105.391	193.934	149.896	-48.973	-52.021	184.945	-79.453	-58.675	-64.226	136.765	149.567	0.0003119	0.0004477	5.0997e-05	558.47	2.9311e-06	2.1004e-06	528.05	157.28	2.1352e-06	3.8486e-06	186.9	86.364	64.552	26.8	8.7328e-06	38.654	0.0017274	0.0019647	0.00054814	567.33	2.1231e-05	2.1644e-05	537.91	159.84	2.1105e-05	2.1699e-05	194.15	88.303	67.649	27.644	2.1258e-05	39.749	177.839	-22.074	-61.199	-115.496	43.875	-17.944	-117.140	-111.051	-12.019	59.901	-113.047	-109.572	-107.826	-102.048	75.540	-104.925	-8191	255	
2248.211	1	1	0	0	0.19488	0.080015	0.093554	0.16363	0.16466	0.16651	0.11177	0.25936	0.27717	0.18331	0.19651	0.0098034	0.18598	0.12201	0.11863	0.22294	-2.9271	-3.175	-3.5375	-3.3708	-3.2604	-3.4354	-3.1521	-3.5208	-3.4729	-3.2292	-3.3438	-3.3896	-3.1646	-3.5062	-3.1	-3.575	146.381	-82.618	187.295	68.047	118.613	102.370	71.179	173.273	227.122	75.650	116.875	-22.469	-124.496	152.083	209.482	-118.665	0.000276	0.0011476	0.00019885	558.22	3.4088e-06	3.5276e-06	529.81	157.07	3.2231e-06	1.0931e-05	187.63	85.634	64.735	26.633	4.3228e-06	38.251	0.0017198	0.0019503	0.00054497	566.63	2.1049e-05	2.1609e-05	538.75	159.91	2.0924e-05	2.1599e-05	194.64	87.858	67.651	27.462	2.092e-05	39.361	174.771	-14.690	11.550	-115.886	201.093	114.518	-116.492	-110.920	-73.770	21.349	-113.232	-109.814	-107.650	-101.929	4.058	-104.867	-8191	255	
2248.332	1	1	0	0	0.25478	0.15654	0.21957	0.38273	0.24998	0.16719	0.13226	0.26968	0.15905	0.066158	0.21594	0.062219	0.064881	0.18214	0.15988	0.07036	-2.8333	-3.1229	-3.3604	-3.2354	-3.3563	-3.4646	-3.225	-3.4125	-3.4021	-3.3104	-3.6979	-3.2792	-3.2958	-3.7083	-3.2062	-3.5125	75.367	-88.082	13.465	196.979	45.651	-93.474	49.796	138.058	-121.554	-47.443	-112.593	-71.877	182.851	204.371	-48.268	220.591	0.00033321	0.00086046	0.00023168	557.09	2.9155e-06	2.9638e-06	526.79	156.01	1.1641e-05	5.0946e-06	185.48	85.704	64.49	26.655	4.1811e-06	38.188	0.0017037	0.0019372	0.00053663	565.03	2.0736e-05	2.1376e-05	536.03	159.24	2.0677e-05	2.1276e-05	193.76	87.575	67.238	27.419	2.086e-05	39.329	181.682	-91.915	206.896	-115.802	-73.291	97.676	-116.826	-111.153	-18.882	-32.780	-113.161	-109.714	-107.997	-101.704	-112.479	-104.855	-8191	255	
2248.403	1	1	0	0	0.18933	0.30302	0.13992	0.047581	0.14203	0.16679	0.25688	0.14256	0.16535	0.14142	0.042405	0.21794	0.15705	0.13858	0.091462	0.32302	-3.1083	-3.0125	-3.3937	-3.3417	-3.1333	-3.5938	-3.1708	-3.2833	-3.4104	-3.1208	-3.6042	-3.3667	-3.2062	-3.55	-3.3021	-3.2562	-83.246	208.597	99.296	226.211	-113.709	92.016	150.534	-58.224	218.861	48.142	226.351	227.740	-127.092	71.572	106.070	188.595	0.00028241	0.00019719	0.00015647	557.48	4.2325e-06	2.2141e-06	534.47	156.07	5.3803e-06	7.2372e-06	187.43	85.403	64.891	26.925	3.5141e-06	38.5	0.0016773	0.0019327	0.00054194	566.04	2.0869e-05	2.1388e-05	538.13	159.74	2.0256e-05	2.1467e-05	193.99	87.809	67.457	27.575	2.0986e-05	39.629	170.915	-23.486	-67.841	-115.769	4.099	46.401	-116.839	-111.018	12.222	3.286	-113.407	-109.867	-107.757	-101.979	35.653	-104.483	-8191	255	
2248.499	1	1	0	0	0.228	0.19939	0.14866	0.090503	0.15115	0.19068	0.13299	0.45789	0.030447	0.087732	0.38547	0.184	0.15025	0.026558	0.080307	0.084407	-3.0625	-3.2208	-3.3042	-3.6229	-3.2	-3.4771	-3.3187	-3.4313	-3.4771	-3.2646	-3.275	-3.4354	-3.1625	-3.5979	-3.2562	-3.2083	108.717	56.336	9.176	-66.112	-57.848	-14.805	-92.576	149.384	210.154	198.787	-94.651	163.260	99.989	62.493	214.878	110.476	0.00031099	0.0010997	3.5586e-05	557.03	3.7605e-06	2.0569e-07	531.31	156.94	7.6467e-06	2.5213e-06	187.88	85.905	65.426	26.62	2.6028e-06	38.294	0.0016846	0.0019225	0.0005421	565.47	2.0571e-05	2.1423e-05	540.18	159.95	2.0591e-05	2.1468e-05	194.37	87.958	67.629	27.533	2.0784e-05	39.473	162.965	-19.766	67.769	-115.602	14.886	-100.876	-116.701	-110.962	-49.235	48.360	-113.277	-109.714	-107.935	-101.720	-111.288	-105.092	-8191	255	
2248.596	1	1	0	0	0.29953	0.11348	0.16771	0.093327	0.095974	0.18038	0.25138	0.32196	0.064305	0.29533	0.32907	0.13425	0.18116	0.28975	0.035878	0.20531	-3.0958	-3.0917	-3.3083	-3.4917	-3.0729	-3.5104	-3.5	-3.1104	-3.5042	-3.2687	-3.4042	-3.4583	-3.0854	-3.5542	-3.2979	-3.1625	129.681	22.643	-6.274	61.992	-10.893	-66.470	191.517	-128.092	67.845	-26.629	-100.368	120.406	131.862	189.773	146.575	-112.826	0.00030149	0.00034464	0.00012845	555.77	4.302e-06	5.4311e-06	529.75	155.22	6.3729e-06	6.3881e-06	185.6	84.723	64.311	26.688	5.3037e-06	38.018	0.0016808	0.0019045	0.00053182	565.48	2.0541e-05	2.1059e-05	536.71	159.19	2.0256e-05	2.1182e-05	192.81	86.861	67.123	27.419	2.0744e-05	39.054	165.697	39.220	-117.515	-115.815	26.164	-17.144	-116.880	-111.121	-67.448	28.483	-113.215	-110.063	-108.073	-101.909	-71.946	-104.653	-8191	255	
2248.714	1	1	0	0	0.12247	0.19562	0.15504	0.26377	0.18076	0.20232	0.078237	0.050448	0.092015	0.078214	0.091272	0.052645	0.061262	0.16194	0.16889	0.18726	-3.0938	-3.0979	-3.35	-3.4375	-3.1813	-3.3583	-3.4354	-3.2562	-3.5583	-3.3	-3.2229	-3.3167	-3.3479	-3.5417	-3.3271	-3.1208	157.378	57.283	-31.153	155.657	120.825	25.957	154.339	123.055	14.668	-1.894	157.796	87.036	225.758	124.976	197.114	139.874	0.00023366	0.0005284	0.00013765	559.2	9.4217e-06	5.6923e-06	527	155.15	1.7872e-06	9.8996e-06	184.08	85.032	64.83	26.788	1.6457e-06	38.266	0.0016936	0.0018948	0.00053481	565.31	2.0322e-05	2.107e-05	535.98	158.99	2.0524e-05	2.1325e-05	192.35	87.11	67.321	27.566	2.0612e-05	39.342	151.702	-62.431	4.366	-115.942	-11.206	-69.592	-116.667	-111.102	21.475	-35.838	-113.191	-109.937	-107.601	-101.659	147.791	-104.896	-8191	255	
2248.811	1	1	0	0	0.030431	0.023218	0.23621	0.14159	0.18152	0.054087	0.19688	0.12632	0.14196	0.145	0.24914	0.23954	0.11815	0.088683	0.23731	0.23518	-3.0354	-3.375	-3.2792	-3.6146	-3.0521	-3.4896	-3.5167	-3.2167	-3.5979	-3.3333	-3.2021	-3.4729	-3.2	-3.4396	-3.4583	-3.1875	53.654	-55.956	-109.010	-25.325	-62.585	71.385	-12.063	173.066	27.126	-72.912	173.646	213.173	-61.943	-90.870	151.610	174.471	0.00025021	0.00011301	0.00010549	558.26	5.9353e-06	7.3271e-06	532.15	156.12	6.5752e-06	5.9026e-06	185.97	85.3	64.826	26.843	1.1316e-06	38.409	0.0016842	0.001908	0.00053966	566.1	2.0682e-05	2.1256e-05	538.15	159.49	2.0757e-05	2.1451e-05	193.33	87.355	67.632	27.629	2.0861e-05	39.631	174.103	111.399	22.337	-115.775	-71.320	20.162	-116.795	-110.870	-47.930	9.684	-113.055	-110.025	-107.748	-101.963	-45.571	-105.289	-8191	255	
2248.907	1	1	0	0	0.21507	0.26685	0.22072	0.043405	0.054039	0.15032	0.15767	0.15647	0.088067	0.11406	0.10682	0.18495	0.067899	0.10231	0.058796	0.06424	-2.9792	-3.2417	-3.1771	-3.4813	-3.1417	-3.15	-3.5625	-3.1	-3.5458	-3.4604	-3.1437	-3.6646	-3.3083	-3.3896	-3.5104	-3.1813	105.303	-28.815	188.953	136.013	179.021	153.525	77.837	45.520	178.857	-50.536	-50.044	141.318	189.239	230.259	70.581	124.013	0.00033355	0.00072857	8.7806e-05	556.26	4.9754e-06	3.9991e-06	531.14	156.7	1.3924e-06	1.5218e-06	185.75	85.352	64.605	26.807	4.0665e-06	38.191	0.001681	0.0019077	0.00054359	565.84	2.05e-05	2.1285e-05	538.75	159.62	2.0587e-05	2.1101e-05	193.26	87.301	67.327	27.519	2.0696e-05	39.27	153.840	-68.419	226.268	-115.861	-5.610	102.034	-116.703	-111.085	-56.999	-110.284	-112.852	-109.754	-107.742	-101.762	-45.185	-105.059	-8191	255	
2249.003	1	1	0	0	0.061405	0.30423	0.12681	0.097006	0.16522	0.25721	0.22227	0.25452	0.16729	0.18944	0.13053	0.157	0.096666	0.23026	0.10997	0.097924	-3.0708	-3.3229	-3.1771	-3.5104	-3.2167	-3.4104	-3.7229	-3.1521	-3.3312	-3.5167	-3.1875	-3.6146	-3.2417	-3.2375	-3.5521	-3.3208	-73.321	155.401	80.387	-23.880	169.680	-100.258	197.140	114.266	-105.534	180.837	192.673	-26.905	24.545	224.876	94.800	141.782	0.00026215	0.0001671	0.00020221	554.88	3.2306e-06	8.7975e-06	528.01	156.43	1.9248e-06	3.8424e-06	185.05	84.59	64.438	26.67	2.6353e-06	38.322	0.0016783	0.001907	0.00053632	563.9	2.0478e-05	2.1182e-05	535.95	159.56	2.0777e-05	2.1096e-05	192.79	86.845	67.227	27.503	2.0878e-05	39.313	165.081	-11.908	-22.421	-115.645	-3.677	-15.404	-116.956	-110.750	25.951	164.749	-113.056	-109.717	-107.704	-102.117	118.870	-104.819	-8191	255	
2249.099	1	1	0	0	0.25401	0.22379	0.084846	0.22874	0.043125	0.058699	0.18032	0.053471	0.15039	0.10842	0.32788	0.10539	0.044038	0.16608	0.19108	0.21682	-2.9833	-3.3	-3.0312	-3.4562	-3.1583	-3.2812	-3.5979	-3.3937	-3.6188	-3.6083	-3.1771	-3.5583	-3.4313	-3.3396	-3.5979	-3.2958	-77.005	104.767	39.553	-81.993	200.714	131.979	-48.674	-51.479	-49.046	93.296	228.439	-53.260	-102.940	-103.584	-33.591	148.869	0.00022801	6.2688e-05	8.5944e-05	556.52	1.9381e-06	2.8654e-06	531.12	156.07	1.1535e-06	4.0486e-06	186.43	85.451	65.208	26.855	6.1751e-06	38.656	0.0016961	0.0019239	0.00053672	563.82	2.0846e-05	2.1239e-05	538.21	159.66	2.0401e-05	2.1428e-05	193.52	87.58	67.638	27.593	2.0744e-05	39.57	169.530	38.162	215.371	-115.575	24.963	88.596	-116.855	-110.991	-56.794	-47.010	-113.626	-110.144	-107.831	-101.645	8.223	-105.020	-8191	255	
2249.195	1	1	0	0	0.073894	0.35902	0.16676	0.042611	0.11087	0.11324	0.055086	0.061319	0.089191	0.26677	0.24668	0.18935	0.24238	0.11813	0.21559	0.16499	-3.0125	-3.5438	-3.3333	-3.5792	-3.3167	-3.1729	-3.5604	-3.2104	-3.4417	-3.5625	-3.3958	-3.4729	-3.5042	-3.2917	-3.5479	-3.4021	113.370	166.792	61.500	183.775	-75.704	117.924	174.572	123.946	207.366	-13.198	-67.068	223.323	-107.502	142.446	65.069	96.826	0.00033299	0.00040036	0.0001398	558.42	5.8271e-06	1.3653e-06	535.18	157.07	2.3323e-06	6.438e-06	186.67	85.647	65.218	26.91	2.4328e-06	38.561	0.001714	0.0019152	0.00053663	566.84	2.0759e-05	2.1152e-05	539.87	160.02	2.0552e-05	2.1654e-05	193.93	87.791	67.813	27.701	2.0833e-05	39.518	171.416	222.891	-40.298	-115.909	-1.812	192.265	-116.894	-111.142	-90.375	-48.672	-113.241	-109.756	-107.786	-102.005	57.944	-104.843	-8191	255	
2249.291	1	1	0	0	0.3544	0.24773	0.31266	0.20121	0.069157	0.15187	0.11615	0.032035	0.20221	0.19101	0.092452	0.20789	0.1401	0.33008	0.23648	0.2937	-2.7729	-3.5479	-3.1583	-3.6917	-3.2917	-3.2938	-3.6667	-3.4188	-3.3854	-3.525	-3.3333	-3.4917	-3.4229	-3.3063	-3.4604	-3.4062	-85.270	200.413	36.005	210.204	-80.797	216.279	223.711	-113.858	197.657	-123.003	154.316	189.756	-113.574	89.955	219.988	220.409	0.00025738	0.0004547	6.2082e-05	554.45	2.6129e-06	5.8958e-06	532.84	157.07	3.0175e-06	1.6579e-06	184.95	84.867	64.885	26.842	4.8636e-06	38.447	0.0016904	0.001891	0.00053276	563.23	2.0386e-05	2.1127e-05	538.41	159.93	2.0307e-05	2.1211e-05	193.12	87.259	67.464	27.565	2.0623e-05	39.34	165.540	218.952	-72.705	-115.443	226.391	13.500	-116.711	-111.011	-16.787	-73.767	-113.222	-109.877	-107.873	-102.327	33.611	-104.882	-8191	255	
2249.412	1	1	0	0	0.030057	0.12669	0.22631	0.10994	0.046328	0.28091	0.19771	0.43833	0.18007	0.26042	0.19607	0.12841	0.046624	0.011165	0.084118	0.067136	-2.7875	-3.4125	-3.3479	-3.4562	-3.5312	-3.2542	-3.6813	-3.3083	-3.4	-3.6792	-3.4104	-3.4646	-3.5625	-3.2354	-3.475	-3.5771	90.731	-96.394	71.861	172.184	176.213	-103.482	140.872	182.008	150.666	-88.599	-108.868	-119.034	-36.242	28.156	-105.747	142.683	0.00030083	0.0011081	0.000112	555.26	5.1275e-06	4.8135e-06	531.74	156.35	2.128e-06	5.1065e-06	186.26	85.388	64.886	26.723	5.8473e-06	38.378	0.0016816	0.0019031	0.00054002	565.24	2.0626e-05	2.1456e-05	538.24	159.58	2.078e-05	2.1351e-05	193.24	87.353	67.558	27.598	2.0904e-05	39.509	162.110	-51.409	-3.781	-115.772	-81.284	-15.880	-116.774	-110.875	-73.316	57.719	-113.238	-109.852	-107.933	-101.465	80.937	-104.886	-8191	255	
2249.506	1	1	0	0	0.12855	0.13827	0.21374	0.19571	0.10045	0.28151	0.1068	0.13092	0.12713	0.1235	0.19072	0.052372	0.34927	0.1057	0.058181	0.27523	-2.8208	-3.5375	-3.1958	-3.4729	-3.7021	-3.3688	-3.4938	-3.3333	-3.2292	-3.6979	-3.4083	-3.2604	-3.7729	-3.4188	-3.4458	-3.525	-39.031	124.408	79.428	-82.488	161.538	164.701	-37.807	89.995	-7.878	122.728	67.857	34.977	-43.402	-12.962	23.123	195.928	0.00036953	0.00060663	0.00020549	557.71	1.5104e-06	6.7166e-06	531	156.75	5.5621e-06	1.1149e-05	186.4	86.005	64.609	26.956	6.0205e-06	38.562	0.0016813	0.0019135	0.000546	564.55	2.0722e-05	2.1566e-05	538.76	160.15	2.0827e-05	2.1437e-05	194.37	87.76	67.615	27.74	2.0858e-05	39.734	157.842	22.001	-17.997	-115.743	-124.603	-45.179	-116.605	-110.827	-5.757	22.078	-113.085	-110.001	-107.896	-101.873	65.656	-104.800	-8191	255	
2249.604	1	1	0	0	0.23695	0.071395	0.20528	0.31809	0.18614	0.064677	0.22069	0.25331	0.054292	0.18485	0.030784	0.038045	0.084328	0.092558	0.21147	0.14962	-2.7479	-3.5833	-3.4417	-3.3604	-3.6583	-3.3583	-3.6188	-3.4958	-3.2313	-3.4917	-3.3438	-3.3042	-3.525	-3.275	-3.4333	-3.425	-4.354	205.977	64.768	208.871	220.980	49.410	193.708	192.068	17.327	214.357	174.761	173.854	67.455	164.094	110.756	208.284	0.00024571	0.00021137	1.0427e-05	558.95	5.5195e-06	6.7646e-06	531.74	156.5	8.4261e-06	2.6812e-06	185.39	84.98	64.761	26.798	2.9806e-06	38.097	0.0016762	0.001923	0.00054357	564.31	2.0748e-05	2.1341e-05	538.41	159.8	2.0435e-05	2.0949e-05	193.38	87.142	67.381	27.61	2.0617e-05	39.195	172.365	105.732	-36.380	-115.501	12.101	-92.435	-116.801	-110.833	19.337	13.318	-113.069	-110.123	-107.784	-102.008	8.555	-105.231	-8191	255	
2249.699	1	1	0	0	0.074957	0.10922	0.28689	0.38857	0.054761	0.049133	0.087472	0.08068	0.31213	0.081768	0.038446	0.18878	0.28177	0.067609	0.068455	0.19405	-2.875	-3.4333	-3.4854	-3.2146	-3.45	-3.4021	-3.4042	-3.3563	-3.2042	-3.4271	-3.4313	-3.2125	-3.5979	-3.4208	-3.25	-3.5521	94.836	-106.470	-14.247	168.273	65.131	226.923	62.469	17.056	51.469	201.447	48.295	203.048	-67.697	-19.493	136.742	189.366	0.00026861	0.00041266	0.00016415	551.12	1.1064e-05	3.876e-06	527.79	155.76	3.3772e-06	5.255e-06	184.43	84.606	64.205	26.719	4.9581e-06	38.073	0.0016732	0.0018982	0.00052838	561.63	2.0289e-05	2.1053e-05	534.67	158.67	2.028e-05	2.0831e-05	191.81	86.59	67.049	27.407	2.0321e-05	39.154	168.746	152.915	-49.403	-115.501	2.700	73.166	-116.690	-111.018	-5.671	14.009	-113.049	-109.883	-107.938	-102.001	29.143	-105.183	-8191	255	
2249.795	1	1	0	0	0.13419	0.17893	0.091216	0.29081	0.15501	0.18441	0.20295	0.17997	0.076371	0.15845	0.098085	0.10889	0.2614	0.12247	0.13862	0.22976	-3.0667	-3.4542	-3.3083	-3.2354	-3.6604	-3.0938	-3.4354	-3.7208	-3.1854	-3.3271	-3.5646	-3.2188	-3.5312	-3.5083	-3.5104	-3.6063	211.904	218.656	-119.295	165.775	116.952	230.685	190.942	118.124	201.071	44.492	136.415	203.379	41.078	-66.597	199.194	3.312	0.00029202	0.00047554	9.4851e-05	553.09	6.0698e-06	5.7338e-06	526.43	155.43	3.6021e-06	7.177e-06	184.04	84.177	64.598	26.703	4.7797e-06	38.127	0.0016596	0.0019089	0.00053165	562.2	2.0283e-05	2.1101e-05	535.15	158.48	2.0221e-05	2.1174e-05	191.4	86.515	67.019	27.462	2.0581e-05	39.224	152.892	18.130	35.011	-116.335	-71.074	70.436	-116.418	-111.091	-43.150	53.421	-113.717	-109.850	-107.581	-102.012	70.970	-105.005	-8191	255	
2249.891	1	1	0	0	0.24059	0.09702	0.18053	0.075092	0.10866	0.11529	0.21606	0.16252	0.2027	0.067845	0.088587	0.19165	0.19049	0.058571	0.11274	0.058987	-2.875	-3.3521	-3.45	-3.3042	-3.3229	-3.3875	-3.2083	-3.5625	-3.3625	-3.4625	-3.3937	-3.3563	-3.4625	-3.4875	-3.2979	-3.7438	105.070	208.598	-11.992	221.172	119.010	173.332	175.917	-0.787	192.209	122.596	-26.936	-114.362	207.483	-32.162	9.019	226.958	0.00034178	3.918e-05	3.0283e-05	552.31	3.2812e-06	8.5747e-06	528.73	156.63	2.0733e-06	1.1614e-06	183.37	84.254	64.11	26.367	2.8385e-06	37.655	0.0016585	0.0018831	0.00052986	559.02	2.0288e-05	2.0858e-05	535.56	158.74	2.0168e-05	2.0654e-05	190.83	86.283	66.815	27.284	2.0394e-05	38.886	167.737	167.210	172.271	-115.820	-47.281	-0.711	-116.758	-111.209	85.415	-64.999	-113.119	-110.283	-107.903	-101.645	-79.004	-105.285	-8191	255	
2250.012	1	1	0	0	0.12114	0.27778	0.14638	0.28119	0.063205	0.015017	0.15215	0.12784	0.16126	0.18578	0.090086	0.14057	0.068138	0.16118	0.10132	0.13045	-3.0417	-3.3542	-3.4917	-3.2021	-3.3438	-3.3312	-3.1771	-3.6063	-3.1771	-3.2417	-3.7396	-3.375	-3.3125	-3.4333	-3.1979	-3.6354	126.659	74.335	178.422	-110.383	-19.504	-41.922	16.019	108.727	149.785	-22.711	-42.613	167.520	184.325	191.414	65.151	194.405	0.00034228	0.00069116	0.00016006	546.96	8.2766e-06	4.4287e-06	524.73	154.58	3.5785e-06	7.8233e-06	182.24	83.636	63.232	26.257	2.0498e-06	37.59	0.0016371	0.001863	0.00052525	556.2	2.0055e-05	2.0534e-05	531.07	157.17	1.9836e-05	2.0711e-05	189.25	85.417	66.174	27.112	2.0043e-05	38.583	173.447	-19.069	211.504	-115.695	44.803	59.711	-116.777	-111.380	217.623	22.384	-112.988	-109.956	-107.139	-101.828	107.471	-105.116	-8191	255	
2250.108	1	1	0	0	0.12206	0.27244	0.064101	0.078711	0.054595	0.30907	0.10718	0.023385	0.15031	0.23199	0.13096	0.23966	0.16662	0.28044	0.072671	0.23751	-2.9396	-3.1729	-3.5042	-3.2875	-3.4146	-3.4917	-3.2646	-3.4979	-3.2604	-3.3667	-3.4229	-3.2792	-3.3604	-3.3542	-3.2208	-3.4688	147.861	92.868	140.141	210.745	44.174	-126.377	-1.231	-34.074	100.864	27.311	-1.036	-115.937	167.267	90.704	172.428	-56.519	0.00028671	0.00065946	0.00014978	548.5	1.1322e-05	6.4019e-06	524.48	152.73	7.1436e-07	5.8614e-06	182.71	83.217	63.553	26.206	4.6752e-07	37.871	0.0016312	0.0018405	0.00051411	556.97	2.0039e-05	2.081e-05	531.14	156.67	1.9915e-05	2.0858e-05	189.33	85.253	66.263	27.079	2.0356e-05	38.755	196.894	-5.344	-33.120	-115.591	24.586	-52.323	-116.880	-110.898	53.586	53.790	-113.365	-110.032	-107.641	-101.955	-85.462	-104.660	-8191	255	
2250.204	1	1	0	0	0.086048	0.12508	0.038873	0.23027	0.17293	0.072628	0.16101	0.35168	0.26096	0.077878	0.18975	0.023623	0.24063	0.131	0.11808	0.21445	-2.7625	-3.1063	-3.6354	-3.2062	-3.3812	-3.6583	-3.1333	-3.6417	-3.2646	-3.3563	-3.5563	-3.3729	-3.4188	-3.5729	-3.1437	-3.3979	206.136	10.612	-45.324	224.083	210.880	178.305	221.609	206.186	31.388	-51.083	-110.084	168.171	-124.297	-102.581	25.933	-18.489	0.00027824	0.00015536	5.1588e-05	547.18	5.382e-06	3.7836e-06	525.96	154.2	2.061e-06	1.6383e-06	181.38	83.775	63.734	26.558	3.8367e-06	38.064	0.0016333	0.001857	0.00052522	556.63	2.0198e-05	2.0598e-05	532.09	157.24	2.0097e-05	2.0959e-05	189.55	85.857	66.524	27.306	2.0196e-05	39.152	174.116	94.341	-46.523	-115.583	70.377	-32.002	-116.828	-110.847	-42.092	-68.368	-112.924	-109.817	-107.374	-101.433	21.120	-104.778	-8191	255	
2250.276	1	1	0	0	0.066157	0.19665	0.028808	0.1959	0.2771	0.068315	0.1203	0.098767	0.19244	0.21327	0.17501	0.19112	0.093581	0.10997	0.22021	0.33644	-2.9125	-3.3354	-3.4229	-3.2938	-3.2646	-3.6479	-3.3542	-3.4917	-3.3896	-3.0375	-3.5021	-3.3021	-3.3896	-3.5625	-3.1375	-3.2917	-99.814	-46.918	131.530	-79.749	-121.113	43.460	-117.800	148.452	191.176	139.710	-104.885	174.038	2.330	-96.009	-125.172	218.349	0.00025737	0.00034843	0.00021428	555.69	6.2626e-06	2.7169e-06	521.13	154.47	4.6386e-07	1.2984e-05	181.6	83.284	63.991	26.593	9.094e-06	37.412	0.0016593	0.0018908	0.00053046	559.07	2.0427e-05	2.0907e-05	530.34	157.18	2.027e-05	2.0647e-05	189.02	85.446	66.373	27.222	2.027e-05	38.723	166.367	-49.882	-22.225	-115.679	-35.274	50.399	-116.685	-111.121	-73.880	-1.171	-113.197	-109.847	-107.786	-101.690	34.683	-104.671	-8191	255	
2250.396	1	1	0	0	0.068971	0.15949	0.1208	0.14456	0.043997	0.085531	0.15603	0.23296	0.23519	0.17592	0.15466	0.28265	0.017865	0.16364	0.053613	0.16178	-2.8438	-3.275	-3.3333	-3.2021	-3.3167	-3.5229	-3.3479	-3.3083	-3.4479	-3.1979	-3.4854	-3.4021	-3.2583	-3.6542	-3.2167	-3.2938	-68.829	-51.494	3.979	185.629	130.138	-28.530	158.740	101.249	192.669	73.786	-106.807	112.760	183.799	167.423	221.612	204.483	0.00029961	0.00024788	6.395e-05	548.01	7.217e-06	1.1024e-05	525.82	154.56	4.919e-06	7.6883e-06	182.2	83.595	63.85	26.665	4.3001e-06	37.986	0.0016601	0.0018761	0.00052711	556.85	2.0334e-05	2.0863e-05	532.35	157.48	2.012e-05	2.0914e-05	189.85	85.748	66.586	27.393	2.0575e-05	39.061	174.074	-57.381	177.304	-115.634	56.580	68.032	-116.977	-110.915	-76.875	22.298	-113.174	-109.801	-107.617	-102.053	10.738	-104.847	-8191	255	
2250.492	1	1	0	0	0.12907	0.076172	0.13675	0.1762	0.29287	0.099043	0.24992	0.14121	0.12472	0.055096	0.25141	0.050808	0.12356	0.064492	0.10925	0.12715	-2.9604	-2.9917	-3.3958	-3.3729	-3.2188	-3.5896	-3.1396	-3.2938	-3.6042	-3.1375	-3.4521	-3.3937	-3.1396	-3.4646	-3.275	-3.3312	165.221	207.474	-62.689	46.581	166.273	-100.699	156.771	86.211	66.630	73.043	111.748	201.939	127.855	212.043	229.056	120.589	0.00020584	0.00041915	0.00013333	550.53	2.8127e-06	1.213e-06	525.76	155.16	2.409e-06	5.5365e-06	184.42	84.711	64.053	26.814	4.9932e-06	38.468	0.0016788	0.0019046	0.00053413	558.63	2.0301e-05	2.0988e-05	533.57	157.98	2.0338e-05	2.1162e-05	190.98	86.399	66.965	27.616	2.0591e-05	39.441	168.436	-22.565	-42.139	-115.490	-44.397	-29.171	-116.834	-110.876	-127.702	36.130	-113.394	-109.586	-107.712	-102.045	71.738	-104.792	-8191	255	
2250.589	1	1	0	0	0.27013	0.24865	0.27842	0.054578	0.086472	0.31485	0.35241	0.043471	0.19072	0.23526	0.21867	0.20884	0.11889	0.035529	0.22609	0.15779	-3.1021	-3.0708	-3.2917	-3.3812	-3.0979	-3.5479	-3.3438	-3.2875	-3.5229	-3.1229	-3.4208	-3.4875	-3.2104	-3.3917	-3.3396	-3.3063	0.209	146.645	54.665	-52.090	41.041	-39.992	172.215	164.098	-126.086	148.576	125.310	117.627	79.169	198.555	134.413	205.096	0.00021117	0.00047948	0.00013586	549.23	1.4515e-06	2.6969e-06	527.32	155.46	5.3832e-06	5.1351e-06	183.83	84.013	64.61	26.689	1.9308e-06	38.051	0.0016571	0.0019107	0.00053886	558.62	2.0553e-05	2.0959e-05	535.55	158.63	2.02e-05	2.1018e-05	191.47	86.261	67.144	27.505	2.0502e-05	39.116	156.802	-60.156	-21.143	-115.960	39.260	-86.309	-116.706	-111.069	-17.099	73.053	-113.151	-109.818	-107.740	-101.700	194.570	-105.074	-8191	255	
2250.685	1	1	0	0	0.088955	0.16674	0.14847	0.17785	0.1645	0.15992	0.23907	0.16866	0.12279	0.13936	0.065124	0.30351	0.059988	0.064359	0.087435	0.041612	-3.0438	-3.2333	-3.4646	-3.4938	-3.1792	-3.3958	-3.3875	-3.2604	-3.5208	-3.2958	-3.3417	-3.6104	-3.1063	-3.375	-3.425	-3.2875	141.590	50.683	176.559	189.729	-62.187	-109.847	148.120	162.222	189.377	0.343	-82.923	139.700	133.493	123.975	150.558	-87.719	0.0003846	0.00031885	0.00017712	551.69	1.9417e-06	4.5737e-06	526.14	154.53	3.7641e-06	7.5627e-06	182.45	83.107	64.108	26.699	7.003e-06	37.867	0.0016611	0.001904	0.00053371	558.97	2.0424e-05	2.1025e-05	533.05	158.26	2.0261e-05	2.1206e-05	190.31	85.715	66.923	27.487	2.0657e-05	39.101	168.212	-102.875	63.163	-115.311	-57.624	-67.723	-116.556	-110.599	60.870	87.242	-113.321	-109.888	-107.713	-101.776	2.292	-104.928	-8191	255	
2250.804	1	1	0	0	0.10392	0.18057	0.10891	0.17758	0.13018	0.2686	0.021911	0.034324	0.069946	0.14341	0.18208	0.11397	0.051801	0.1041	0.13698	0.31425	-3.1458	-3.2979	-3.2188	-3.4854	-3.1917	-3.4146	-3.3875	-3.1458	-3.5625	-3.2188	-3.3729	-3.7104	-3.1937	-3.4792	-3.575	-3.125	106.764	13.157	-40.256	156.257	-65.366	185.090	14.772	-60.127	132.560	-45.768	-74.701	-27.355	192.892	187.290	-3.792	193.669	0.00030681	0.00078524	0.00012773	551.47	2.7916e-06	7.0475e-07	525.42	155.47	5.644e-06	1.1849e-05	183.82	83.575	64.34	26.824	2.6789e-07	38.198	0.0016762	0.0019082	0.00053553	559.47	2.0538e-05	2.1197e-05	534.64	158.69	2.0523e-05	2.1433e-05	191.05	86.215	67.304	27.706	2.0847e-05	39.377	177.480	-47.168	-114.410	-115.920	203.624	67.339	-116.794	-111.045	-64.174	109.115	-113.227	-109.873	-107.666	-101.796	112.597	-104.870	-8191	255	
2250.875	1	1	0	0	0.13368	0.15839	0.056526	0.38856	0.20347	0.10932	0.12292	0.17748	0.15607	0.12179	0.1539	0.15285	0.10154	0.18531	0.10623	0.15707	-3.0833	-3.3312	-3.0271	-3.5375	-3.175	-3.3937	-3.4208	-3.2458	-3.5229	-3.3521	-3.15	-3.5021	-3.1063	-3.3667	-3.4333	-3.3333	-82.641	194.744	58.730	159.745	-58.320	104.087	154.392	-107.958	177.809	183.411	-93.940	163.256	225.331	-66.950	198.790	184.938	0.00029948	0.00021772	0.00014417	551.36	2.5587e-06	3.6741e-06	531.11	155.87	3.9072e-06	3.6472e-06	184.66	85.43	64.835	27.008	3.4246e-06	38.562	0.0017044	0.0019099	0.00054304	560.09	2.0687e-05	2.1391e-05	536.94	159.15	2.0618e-05	2.1396e-05	192.22	86.901	67.655	27.804	2.0739e-05	39.561	157.328	184.755	-77.774	-115.787	-32.771	173.019	-116.510	-111.030	-34.676	32.044	-112.718	-109.874	-107.700	-101.798	65.576	-104.464	-8191	255	
2250.971	1	1	0	0	0.10185	0.35301	0.037524	0.076509	0.084391	0.16652	0.24333	0.084435	0.17669	0.25648	0.19824	0.040656	0.15671	0.26101	0.023106	0.082096	-3.0104	-3.375	-3.2438	-3.4437	-3.2167	-3.2562	-3.5229	-3.2208	-3.5979	-3.3375	-3.2083	-3.5958	-3.2625	-3.4146	-3.5771	-3.1188	144.621	66.607	107.053	110.292	84.399	157.095	173.686	202.154	-65.198	-125.732	-44.802	54.780	-8.894	199.093	175.843	-100.890	0.00039223	0.00040389	2.5864e-05	550.02	5.0924e-06	5.0679e-06	525.32	155.39	2.4772e-06	9.9627e-06	182.99	84.402	64.81	26.587	5.7045e-06	38.031	0.0016816	0.0018985	0.00053568	558.92	2.0546e-05	2.1333e-05	533.61	158.8	2.0336e-05	2.1034e-05	191.45	86.476	67.26	27.501	2.0387e-05	39.081	167.943	3.112	-117.938	-115.622	26.790	-16.173	-116.699	-111.148	-4.126	84.028	-112.940	-109.320	-107.919	-101.894	215.852	-104.972	-8191	255	
2251.092	1	1	0	0	0.019208	0.14958	0.13835	0.1378	0.12643	0.19652	0.084722	0.048049	0.041764	0.14438	0.099183	0.098062	0.10214	0.13917	0.14518	0.16943	-3.1292	-3.3104	-3.1437	-3.3958	-3.2812	-3.1792	-3.5021	-3.3646	-3.375	-3.5146	-3.0896	-3.7042	-3.4479	-3.3229	-3.5417	-3.4771	109.555	107.719	218.956	147.206	38.611	23.948	-128.082	-91.764	-103.042	-119.868	-83.426	177.982	-83.850	101.657	106.297	140.708	0.00023455	0.00065013	0.00010481	550.93	3.9145e-06	6.4273e-06	522.76	155.02	3.165e-06	3.3755e-06	183.02	84.082	64.314	26.974	5.8961e-06	37.978	0.0016697	0.0018896	0.00053725	558.15	2.044e-05	2.0998e-05	533.68	158.64	2.0479e-05	2.0899e-05	191.21	86.115	67.218	27.64	2.058e-05	39.166	169.242	-120.040	-6.875	-115.898	197.692	15.705	-116.427	-110.881	88.605	101.942	-113.099	-109.884	-107.694	-101.698	51.803	-104.981	-8191	255	
2251.188	1	1	0	0	0.21434	0.026402	0.13295	0.33074	0.16037	0.1884	0.24653	0.15746	0.28843	0.081896	0.049936	0.12987	0.068369	0.19807	0.092947	0.16306	-2.9167	-3.3875	-3.2104	-3.5229	-3.3542	-3.2812	-3.7021	-3.0625	-3.4417	-3.4292	-3.25	-3.5854	-3.3812	-3.2021	-3.3521	-3.3417	-76.357	-112.168	-115.147	207.644	108.888	157.370	133.704	154.975	101.038	126.758	226.548	-8.401	158.394	172.831	90.934	198.333	0.00029985	0.00019942	0.00010809	549.45	3.7053e-06	6.6898e-06	530.14	156.07	7.4807e-06	6.1184e-06	184.3	84.691	64.416	27.055	6.8746e-06	38.513	0.0016916	0.0018881	0.00053265	558.14	2.0372e-05	2.1118e-05	536	158.82	2.0396e-05	2.1126e-05	192.61	86.678	67.352	27.793	2.058e-05	39.63	175.591	-98.976	-50.188	-115.558	-15.507	-56.057	-116.756	-111.335	-13.840	20.520	-113.257	-109.797	-107.742	-101.854	61.199	-105.160	-8191	255	
2251.284	1	1	0	0	0.11744	0.11856	0.13456	0.052652	0.10748	0.28275	0.2337	0.068943	0.050522	0.16369	0.20282	0.16549	0.18454	0.1885	0.17993	0.24108	-2.9542	-3.4333	-3.0958	-3.3521	-3.2917	-2.9875	-3.4417	-3.2	-3.2583	-3.3792	-3.1479	-3.3896	-3.2833	-2.9604	-3.5542	-3.3792	-103.383	152.911	-115.390	-54.583	19.612	57.080	-108.495	111.002	216.172	-82.645	215.991	174.466	217.201	230.494	-113.587	152.592	0.00028219	0.00058702	9.821e-05	552.02	8.21e-06	4.4147e-06	528.86	156.32	3.3654e-06	3.5094e-06	183.62	84.441	64.59	26.758	3.2721e-06	37.884	0.001682	0.0018907	0.00053159	559.61	2.0502e-05	2.0919e-05	536.83	158.95	2.0088e-05	2.0752e-05	191.88	86.277	67.354	27.652	2.0341e-05	39.092	175.127	-67.685	-54.768	-115.673	-9.234	34.745	-116.700	-111.077	-67.160	88.936	-113.181	-109.832	-108.089	-101.873	-33.442	-105.248	-8191	255	
2251.405	1	1	0	0	0.03692	0.054675	0.067939	0.4031	0.069653	0.054666	0.33258	0.33393	0.061507	0.10687	0.086495	0.12249	0.16069	0.14033	0.14206	0.032867	-2.8229	-3.5104	-3.2021	-3.3771	-3.2708	-3.0875	-3.5187	-3.2313	-3.1354	-3.4313	-3.2583	-3.3	-3.4104	-3.125	-3.3583	-3.3833	169.016	20.624	64.481	-124.405	32.902	-29.014	187.928	199.981	-115.656	202.623	165.113	116.774	141.572	46.241	80.304	205.340	0.00037385	0.00070992	2.4691e-05	550.49	8.0785e-06	1.4047e-06	527	156.02	3.0013e-06	6.3853e-06	183.27	83.779	64.241	26.947	8.4438e-06	37.922	0.0016721	0.0018326	0.00052543	557.61	2.013e-05	2.0656e-05	533.21	158.41	2.0038e-05	2.0835e-05	190.71	85.954	66.986	27.573	2.014e-05	39.069	151.543	-63.029	-70.756	-115.816	10.058	-58.149	-116.973	-110.874	82.235	-44.105	-112.857	-110.049	-107.644	-101.654	12.669	-104.658	-8191	255	
2251.499	1	1	0	0	0.18519	0.15025	0.13222	0.1215	0.12583	0.11142	0.2603	0.02028	0.1272	0.12618	0.038418	0.19198	0.20497	0.24814	0.17574	0.045401	-2.9333	-3.5	-3.1562	-3.3958	-3.4229	-3.2208	-3.4125	-3.3792	-3.1979	-3.4208	-3.2542	-3.3021	-3.5104	-3.2771	-3.3458	-3.5458	165.768	-25.604	-13.299	54.874	168.976	-80.222	108.297	212.969	26.880	129.346	178.410	197.515	155.534	215.254	-4.964	104.094	0.00020593	0.00049813	0.00011535	549.27	3.4315e-06	5.0115e-06	529.09	156.14	4.7392e-06	2.7552e-06	183.94	84.194	64.819	26.946	2.6167e-06	38.519	0.0016563	0.0018822	0.00052847	557.91	2.0089e-05	2.0815e-05	535.43	159.13	2.0135e-05	2.0568e-05	191.57	86.353	67.353	27.707	2.0326e-05	39.436	148.274	2.797	15.487	-115.743	35.388	184.240	-116.692	-110.984	-33.186	35.180	-113.395	-109.815	-107.448	-101.809	53.123	-104.775	-8191	255	
2251.573	1	1	0	0	0.086174	0.20101	0.17815	0.17822	0.063828	0.25381	0.23706	0.071742	0.18984	0.19198	0.20618	0.25331	0.15876	0.18364	0.18338	0.17345	-2.8292	-3.4333	-3.35	-3.3125	-3.5083	-3.1875	-3.5271	-3.6063	-3.2333	-3.35	-3.3167	-3.3583	-3.5208	-3.3729	-3.4562	-3.3458	186.946	226.593	40.362	124.160	51.580	50.728	-126.364	103.101	-75.023	-0.325	157.804	113.663	-11.775	207.456	-20.382	-110.018	0.00026537	0.00070284	5.7643e-05	552.11	6.2363e-06	2.5708e-06	531.24	156.88	4.377e-06	7.3276e-06	186.28	85.409	64.691	26.9	1.6855e-06	38.253	0.0016592	0.0018601	0.00052437	558.91	2.0265e-05	2.092e-05	537.83	159.23	1.9914e-05	2.0519e-05	192.61	86.944	67.304	27.747	2.0121e-05	39.384	155.684	9.874	15.207	-115.642	36.145	-35.456	-116.596	-110.970	-18.643	-43.522	-113.277	-109.753	-107.871	-102.003	103.566	-104.846	-8191	255	
2251.692	1	1	0	0	0.16436	0.097553	0.23001	0.12184	0.096103	0.17321	0.13287	0.24294	0.16454	0.32696	0.074982	0.1572	0.059949	0.065101	0.24507	0.17706	-2.7208	-3.3229	-3.2646	-3.2458	-3.3542	-3.3438	-3.4792	-3.425	-3.2292	-3.5875	-3.3521	-3.2146	-3.6104	-3.2188	-3.2417	-3.4396	194.511	120.808	77.956	182.818	175.314	99.868	-51.886	75.434	227.400	207.678	-66.405	178.868	-114.668	-103.485	34.989	46.309	0.00026338	0.00012758	6.7758e-05	547.72	6.0523e-06	5.1688e-06	524.19	155.02	4.96e-06	1.1478e-05	183.9	83.657	64.407	26.777	9.5797e-06	37.876	0.0016364	0.0018685	0.0005206	556.08	1.9893e-05	2.0643e-05	533.9	158.59	1.983e-05	2.0467e-05	191.03	85.84	66.975	27.576	2.0042e-05	38.936	175.482	-100.169	2.197	-115.854	-0.472	31.205	-116.716	-110.805	-33.732	25.007	-113.132	-109.616	-107.656	-102.030	-16.330	-104.658	-8191	255	
2251.788	1	1	0	0	0.025279	0.15848	0.15865	0.081076	0.10256	0.10086	0.24925	0.22481	0.096082	0.24175	0.11801	0.10256	0.061495	0.12228	0.18428	0.089332	-2.8229	-3.3771	-3.15	-3.225	-3.2583	-3.2125	-3.4417	-3.4708	-3.075	-3.3688	-3.4646	-3.2417	-3.4333	-3.1813	-3.3333	-3.5938	225.794	-75.398	-27.310	-92.453	-101.246	-91.582	-124.870	-106.021	-70.847	-36.432	41.968	149.818	-96.736	207.553	121.992	-82.501	0.00036874	0.00065583	0.00028264	545.5	2.8243e-06	7.7294e-06	527	156.51	6.4501e-07	8.048e-06	184.51	83.262	64.364	26.817	2.0279e-06	38.178	0.0016243	0.001842	0.00052002	555.11	1.9781e-05	2.0512e-05	534.08	158.87	1.9908e-05	2.0552e-05	191.14	85.881	67.155	27.697	1.9936e-05	39.238	166.913	-39.762	74.459	-115.839	-64.740	-63.367	-116.938	-110.926	103.629	47.517	-113.407	-109.788	-107.489	-101.458	146.848	-105.140	-8191	255	
2251.884	1	1	0	0	0.22309	0.096482	0.081714	0.084706	0.09101	0.25036	0.10784	0.22557	0.13408	0.16852	0.19128	0.078274	0.28761	0.11713	0.19328	0.16972	-2.6833	-3.3958	-3.4208	-3.0979	-3.5875	-3.25	-3.275	-3.5125	-3.2188	-3.3708	-3.5958	-3.2104	-3.4604	-3.3979	-3.1271	-3.5563	21.432	160.685	101.335	-47.920	178.818	-110.545	7.292	223.114	-9.943	163.823	171.644	100.090	223.458	127.448	-8.832	157.389	0.00031086	0.00064979	0.00025053	547.81	3.0756e-06	6.6713e-06	525.72	156.42	5.1034e-06	2.608e-06	185.86	84.157	64.907	26.981	1.1326e-05	38.377	0.0016468	0.0018582	0.00052381	556.43	1.9932e-05	2.0434e-05	536.37	159.33	1.9841e-05	2.0626e-05	192.65	86.522	67.481	27.779	1.9998e-05	39.522	147.722	177.852	-82.170	-115.670	206.834	38.046	-116.787	-110.730	3.416	49.975	-112.805	-109.834	-107.733	-101.639	-77.444	-104.728	-8191	255	
2251.980	1	1	0	0	0.097208	0.13314	0.055562	0.11098	0.22429	0.068257	0.052372	0.18001	0.022264	0.1347	0.19411	0.1516	0.098062	0.0359	0.10909	0.16118	-2.8396	-3.2208	-3.4708	-3.0479	-3.2854	-3.3688	-3.1625	-3.5917	-3.3167	-3.3812	-3.4646	-3.0938	-3.4271	-3.3812	-3.1583	-3.6104	205.605	-94.690	-79.016	-122.262	96.407	69.456	214.919	-123.128	-2.348	28.230	115.587	15.393	-24.820	59.989	123.069	-89.435	0.0002747	0.00062802	7.4196e-05	547.97	2.8946e-06	2.7711e-06	527.87	156.62	7.0655e-07	3.6463e-06	184.86	84.204	64.746	26.806	7.8339e-06	38.107	0.0016184	0.0018538	0.00052042	555.81	1.989e-05	2.0691e-05	535.42	158.94	1.9635e-05	2.0436e-05	192.31	86.149	67.359	27.654	1.9881e-05	39.054	184.495	16.905	153.179	-115.625	157.242	3.127	-116.675	-110.936	-65.680	-20.339	-113.382	-110.155	-107.741	-101.888	16.789	-104.981	-8191	255	
2252.101	1	1	0	0	0.2892	0.10714	0.064051	0.15502	0.18151	0.21448	0.15462	0.14131	0.15912	0.074532	0.084454	0.16091	0.15971	0.10465	0.11124	0.084012	-3.0979	-3.2208	-3.4042	-3.2833	-3.4437	-3.3208	-3.2875	-3.5354	-3.2396	-3.3625	-3.6604	-3.25	-3.4688	-3.4708	-3.0271	-3.4979	135.661	212.839	109.349	62.844	170.615	-100.612	98.887	-116.833	170.888	186.290	116.982	-58.391	-118.922	99.112	62.546	197.160	0.00026217	7.0608e-05	7.8092e-05	545.51	2.0675e-06	4.6707e-06	527.92	156.18	3.9517e-06	6.0381e-06	184.24	84.65	64.65	26.894	4.068e-06	38.36	0.0016232	0.0018292	0.00051617	554.99	2.0078e-05	2.037e-05	533.85	158.86	1.9705e-05	2.0467e-05	191.36	86.168	67.117	27.659	1.9928e-05	39.225	170.564	-105.951	214.036	-115.908	71.965	-61.635	-116.851	-110.851	-10.163	1.728	-113.201	-109.844	-108.046	-101.928	-65.023	-104.929	-8191	255	
2252.172	1	1	0	0	0.24229	0.51593	0.16813	0.21276	0.26878	0.17666	0.085274	0.18793	0.015821	0.11109	0.32585	0.11558	0.037346	0.16744	0.10058	0.010754	-2.9521	-3.1354	-3.4104	-3.0938	-3.3771	-3.5604	-3.1646	-3.4958	-3.1625	-3.1021	-3.4562	-3.3021	-3.2792	-3.5271	-3.1896	-3.5042	103.532	-17.173	165.584	166.643	-51.918	-59.180	-17.707	-79.821	186.636	-12.668	221.682	108.103	135.880	-48.875	-114.059	183.287	0.00023334	4.2743e-05	0.00016633	545.21	4.6229e-06	6.233e-06	529.46	156.31	5.6807e-06	8.1961e-06	185.79	84.421	65.076	27.07	4.221e-06	38.312	0.0016378	0.001842	0.00051932	554.57	1.9957e-05	2.0749e-05	535.77	159.41	1.9961e-05	2.063e-05	192.41	86.625	67.548	27.834	2.0243e-05	39.503	158.692	-17.104	-59.198	-116.009	-43.699	-5.438	-116.662	-110.698	31.382	54.791	-113.006	-109.855	-107.602	-101.873	28.012	-104.761	-8191	255	
2252.269	1	1	0	0	0.055859	0.019527	0.29824	0.095016	0.08847	0.063674	0.16681	0.27525	0.15009	0.074157	0.12804	0.21784	0.32457	0.18006	0.2328	0.044875	-2.9313	-3.1208	-3.5687	-3.1667	-3.425	-3.5417	-3.3771	-3.4896	-3.5187	-3.2167	-3.5458	-3.2646	-3.1917	-3.5542	-3.3458	-3.4146	195.863	16.786	-47.671	196.333	192.474	161.422	-119.427	152.206	67.960	43.357	194.429	193.662	223.560	208.090	47.357	223.935	0.00036232	0.00042822	8.201e-05	547.88	1.499e-06	8.9446e-06	533.95	157.47	5.9967e-06	2.3809e-06	186.28	85.191	64.464	27.073	2.4904e-06	38.277	0.0016673	0.0018497	0.00052196	556.16	2.0269e-05	2.0662e-05	537.8	160.03	2.0008e-05	2.0588e-05	193.37	87.029	67.459	27.823	2.0175e-05	39.354	177.246	-127.296	90.798	-115.584	-16.921	6.764	-116.964	-110.880	-24.189	-1.174	-113.032	-109.725	-107.911	-102.060	-63.135	-105.101	-8191	255	
2252.365	1	1	0	0	0.11289	0.078095	0.10476	0.267	0.19226	0.078176	0.071587	0.10988	0.087716	0.19743	0.057597	0.060362	0.1794	0.29995	0.23678	0.181	-2.8812	-3.2438	-3.3688	-3.2521	-3.3271	-3.5792	-3.1771	-3.4625	-3.3521	-3.1604	-3.675	-3.5333	-3.1729	-3.5417	-3.1417	-3.3688	196.873	31.457	130.896	199.157	148.950	50.222	-90.070	145.970	88.909	-107.730	157.360	109.021	-38.170	148.555	105.760	159.854	0.00034213	0.00057236	7.2466e-05	546.02	3.3176e-07	3.7311e-06	526.94	156.34	4.3353e-06	6.5052e-06	186.41	84.939	65.104	26.978	4.5583e-06	38.371	0.0016436	0.0018351	0.0005213	554.74	2.0196e-05	2.0564e-05	533.08	159.39	1.9898e-05	2.056e-05	193.27	87.036	67.559	27.763	2.0173e-05	39.338	165.987	-24.763	34.515	-115.659	-123.877	-20.037	-117.018	-110.770	38.335	24.190	-113.214	-109.883	-107.747	-101.874	62.514	-104.918	-8191	255	
2252.485	1	1	0	0	0.13914	0.068455	0.17043	0.084847	0.10675	0.19654	0.1494	0.12131	0.10797	0.056185	0.068426	0.19651	0.11717	0.077328	0.075667	0.20694	-3.0521	-3.2792	-3.5083	-3.4125	-3.2021	-3.5958	-3.3333	-3.4417	-3.4062	-3.1229	-3.5146	-3.5583	-3.1854	-3.3354	-3.2896	-3.2979	-56.533	27.115	-111.730	-11.762	-127.113	137.497	161.589	140.576	221.991	212.054	222.190	-118.786	211.032	194.951	206.040	176.885	0.00023559	0.00071126	3.8937e-05	545.29	5.5859e-06	2.0011e-06	527.7	156.61	5.0147e-06	8.8535e-06	186.26	84.926	64.961	27.323	5.6615e-06	38.58	0.0016501	0.0018769	0.00052293	553.79	2.024e-05	2.0658e-05	535.21	159.77	2.0224e-05	2.0653e-05	193.41	87.092	67.742	28.001	2.0127e-05	39.549	183.412	-63.951	-20.390	-115.978	29.377	-82.011	-116.641	-110.739	-48.626	52.799	-113.048	-109.849	-107.358	-101.590	-75.324	-104.794	-8191	255	
2252.580	1	1	0	0	0.21349	0.038031	0.25479	0.20134	0.10761	0.2951	0.065742	0.11263	0.033785	0.030432	0.10263	0.055524	0.046728	0.26183	0.31078	0.40639	-2.9646	-3.3229	-3.5021	-3.2833	-3.3021	-3.4521	-3.3354	-3.3563	-3.4646	-3.3583	-3.5458	-3.275	-3.1396	-3.3729	-3.4167	-3.4104	229.245	95.705	134.034	180.036	6.968	-11.470	136.992	173.301	95.417	134.169	26.653	55.611	-94.419	-82.263	184.337	101.336	0.00027021	0.00075222	0.0001838	545.48	2.2759e-06	1.6227e-06	531.34	157.47	5.0473e-06	1.6956e-06	188.59	85.83	65.346	27.265	3.0311e-06	38.557	0.0016566	0.0018806	0.00052346	554.9	2.0191e-05	2.0867e-05	537.08	160.31	1.9911e-05	2.0725e-05	195.3	87.76	67.959	28.041	2.0004e-05	39.751	161.284	75.684	17.506	-115.379	-62.253	-67.860	-116.434	-110.733	-91.437	-6.885	-112.872	-109.823	-107.526	-101.676	-59.321	-104.842	-8191	255	
2252.676	1	1	0	0	0.030164	0.069738	0.15796	0.34028	0.067392	0.33247	0.18418	0.15758	0.1417	0.19646	0.11042	0.16946	0.0058553	0.32333	0.29873	0.13805	-3.0854	-3.1	-3.4646	-3.3667	-3.1104	-3.4708	-3.2521	-3.2771	-3.425	-3.1604	-3.4667	-3.6437	-3.0563	-3.3604	-3.3	-3.2042	189.453	-63.196	148.298	226.145	22.035	-69.870	211.885	213.443	204.136	182.739	-109.324	214.579	-108.517	182.369	180.550	163.933	0.00030141	0.00090424	0.00017755	545.74	1.7701e-06	4.3031e-06	529.02	158.07	5.88e-06	8.6631e-06	186.65	84.898	64.81	27.121	2.442e-06	38.026	0.001628	0.0018492	0.00051963	554	1.9789e-05	2.0434e-05	535.02	159.93	1.9677e-05	2.0314e-05	193.15	86.773	67.463	27.837	1.9945e-05	39.158	173.722	-44.237	-17.642	-115.685	172.552	87.348	-116.750	-110.942	-34.256	-2.026	-113.144	-110.017	-107.585	-101.619	169.039	-104.883	-8191	255	
2252.774	1	1	0	0	0.076341	0.095136	0.01065	0.29355	0.16013	0.20186	0.21514	0.31354	0.12561	0.20879	0.085379	0.20862	0.31665	0.19417	0.35607	0.052847	-3.0833	-3.0812	-3.1771	-3.4875	-3.0771	-3.4458	-3.2938	-3.2083	-3.6042	-3.2021	-3.2354	-3.5354	-3.1125	-3.35	-3.4958	-3.2542	76.966	104.588	17.044	127.942	54.674	134.875	114.506	69.985	-39.371	206.151	196.527	177.895	155.010	-124.623	178.137	-21.755	0.00036937	0.00050478	6.9217e-05	539.91	6.3681e-06	6.413e-06	527.09	155.86	1.6654e-06	6.4452e-06	184.5	84.733	65.167	26.91	2.302e-06	38.26	0.0016049	0.0018163	0.000512	550.4	1.974e-05	2.0289e-05	533.15	158.88	1.9497e-05	2.0295e-05	192.34	86.792	67.461	27.735	1.9838e-05	39.314	160.094	57.549	-126.558	-115.589	-37.522	26.085	-116.647	-110.940	-76.686	4.812	-113.104	-109.767	-107.622	-101.689	56.208	-104.783	-8191	255	
2252.868	1	1	0	0	0.23303	0.23441	0.16964	0.11503	0.22601	0.069732	0.24556	0.21413	0.22899	0.28208	0.15101	0.11891	0.065547	0.070746	0.12518	0.30724	-3.0021	-3.0229	-3.1667	-3.6896	-3.2667	-3.4958	-3.3375	-3.1437	-3.5833	-3.3271	-3.3688	-3.4875	-3.3542	-3.3146	-3.6104	-3.1375	-124.781	-79.324	-18.829	39.131	12.807	168.311	-121.773	196.409	-25.538	-90.562	-125.986	13.215	-9.484	176.159	-18.975	-25.989	0.00032254	0.00029822	6.4949e-05	547.17	5.5612e-06	8.3394e-06	527.5	156.32	5.3551e-06	3.0662e-06	185.36	85.324	64.962	27.224	3.4911e-06	38.561	0.0016041	0.0017987	0.00050919	553.73	1.9824e-05	2.0271e-05	533.98	158.86	1.9654e-05	2.0303e-05	192.45	87.074	67.333	27.852	1.989e-05	39.512	161.460	171.494	186.053	-115.805	-14.401	34.182	-116.782	-111.067	-58.286	20.616	-113.228	-109.796	-107.696	-101.693	50.973	-105.075	-8191	255	
2252.964	1	1	0	0	0.060824	0.3441	0.043565	0.024838	0.17191	0.2264	0.08602	0.11707	0.28476	0.15472	0.2127	0.19828	0.2505	0.12304	0.14843	0.23854	-3.2	-3.2146	-3.0854	-3.5875	-3.0833	-3.3312	-3.4125	-3.4229	-3.2417	-3.3438	-3.1063	-3.5938	-3.2021	-3.3792	-3.4813	-3.2333	169.911	-28.652	112.327	204.862	93.996	167.863	-121.829	66.746	217.585	128.162	111.469	121.122	221.471	-42.385	41.201	229.908	0.0002666	0.00074329	0.00012048	544.6	7.7708e-06	6.5546e-06	528.15	156.65	1.5251e-06	4.4643e-06	185.55	84.86	64.605	26.871	1.2636e-06	38.112	0.0016321	0.0018173	0.0005161	553.65	1.9843e-05	2.0454e-05	534.49	158.91	1.9558e-05	2.0268e-05	192.89	86.628	67.173	27.735	1.9954e-05	39.247	162.979	13.393	-1.872	-115.522	22.881	28.997	-116.798	-111.059	91.209	50.096	-112.707	-109.921	-107.814	-101.486	-53.433	-105.111	-8191	255	
2253.085	1	1	0	0	0.035051	0.11536	0.10103	0.23397	0.37256	0.10603	0.35323	0.20637	0.055491	0.10325	0.18561	0.30118	0.094987	0.14199	0.20133	0.055345	-3.0354	-3.2104	-3.0354	-3.5854	-3.1979	-3.2833	-3.6917	-3.2104	-3.5042	-3.4688	-3.0667	-3.4562	-3.3104	-3.35	-3.5292	-3.2583	4.956	183.828	-72.824	178.159	215.328	-73.983	192.622	162.741	89.569	224.750	123.347	-43.440	215.743	110.149	79.459	209.607	0.00033209	0.00052584	9.7607e-05	543.98	5.8568e-06	1.2271e-05	521.94	155.36	2.8023e-06	2.2777e-06	184.85	84.267	64.225	26.75	1.076e-05	37.986	0.0016296	0.0018367	0.00051666	550.88	1.9883e-05	2.0295e-05	529	157.8	1.9804e-05	2.0193e-05	190.61	86.326	66.903	27.6	1.9973e-05	39.048	159.158	-58.786	-73.427	-115.543	-83.188	24.582	-116.936	-111.084	67.037	218.591	-113.191	-110.019	-107.638	-101.455	-6.673	-104.450	-8191	255	
2253.181	1	1	0	0	0.232	0.059993	0.10263	0.20861	0.19382	0.036134	0.18011	0.11707	0.10123	0.23831	0.16513	0.12639	0.12471	0.049841	0.17894	0.3002	-3.0167	-3.225	-3.0521	-3.4708	-3.1604	-3.3063	-3.6229	-3.0354	-3.3917	-3.1396	-3.125	-3.5187	-3.3479	-3.5438	-3.3812	-3.2208	-29.267	204.466	175.518	174.549	-88.226	-108.757	148.808	217.732	-58.657	178.810	-98.283	-15.029	200.708	219.233	-60.790	-110.632	0.00030965	0.000603	9.0782e-05	541.8	7.5837e-06	7.7329e-06	520.53	154.85	1.1416e-06	2.1468e-06	183.67	84.582	64.102	26.929	4.4149e-06	38.032	0.0016443	0.0018761	0.00052469	551.72	2.0214e-05	2.0492e-05	529.82	157.67	1.9783e-05	2.0457e-05	190.51	86.379	66.77	27.711	2.013e-05	39.193	163.611	56.636	191.250	-115.769	-36.029	76.149	-116.395	-110.863	-61.241	55.316	-113.209	-110.015	-107.645	-101.923	11.830	-105.062	-8191	255	
2253.277	1	1	0	0	0.13514	0.095847	0.11249	0.30338	0.16391	0.2281	0.19238	0.13001	0.1034	0.11738	0.30308	0.26753	0.17411	0.23393	0.099836	0.14012	-2.9	-3.3271	-3.025	-3.4354	-3.3042	-3.25	-3.4479	-3.2771	-3.2917	-3.3896	-3.0604	-3.2979	-3.3833	-3.1125	-3.2188	-3.1979	224.565	99.042	170.832	-8.311	64.084	-77.140	41.871	48.835	194.416	41.169	120.761	-88.110	-90.175	215.876	-58.705	-76.351	0.00019564	0.00017132	6.571e-05	541.7	4.5946e-06	5.8438e-06	525.09	155.7	9.0575e-06	2.5151e-06	185.18	84.601	64.449	27.238	1.273e-06	38.493	0.0016558	0.0018763	0.00052734	551.3	2.0087e-05	2.1056e-05	532.35	158.8	2.0092e-05	2.0665e-05	192.37	86.968	67.458	27.901	2.0296e-05	39.597	157.260	206.617	-42.913	-115.271	-42.173	13.988	-116.728	-110.910	-62.075	-51.243	-113.313	-109.624	-107.624	-101.411	214.293	-104.822	-8191	255	
2253.373	1	1	0	0	0.153	0.095199	0.12671	0.32272	0.062505	0.21	0.22674	0.22678	0.11033	0.23387	0.020225	0.034416	0.061846	0.056567	0.2698	0.25137	-2.8396	-3.3438	-3.025	-3.4396	-3.4375	-3.2687	-3.5458	-3.2917	-3.45	-3.5125	-3.3042	-3.4938	-3.3187	-3.1896	-3.4125	-3.2646	129.652	-7.768	99.921	202.124	10.827	88.076	-110.573	36.184	-56.157	54.094	22.511	13.692	220.390	-100.123	136.213	150.076	0.0003503	0.00060696	9.3807e-05	542.27	1.7292e-06	1.023e-06	524.12	156.79	3.5806e-06	5.3329e-06	187	85.585	64.542	26.929	3.5761e-06	38.367	0.0016408	0.0018525	0.00052918	550.53	1.9903e-05	2.0645e-05	530.61	159	1.9976e-05	2.0927e-05	193.29	87.412	67.508	27.859	2.0475e-05	39.492	157.354	53.016	24.667	-115.339	-59.309	35.689	-116.635	-111.069	31.056	89.405	-113.252	-109.858	-107.513	-101.470	136.358	-104.838	-8191	255	
2253.470	1	1	0	0	0.18708	0.061721	0.10528	0.10864	0.139	0.058537	0.35018	0.05111	0.32063	0.15313	0.035588	0.064877	0.20971	0.084048	0.16239	0.13375	-2.8354	-3.4313	-3.1792	-3.3104	-3.3688	-2.9917	-3.4437	-3.2479	-3.2833	-3.5604	-3.1833	-3.3125	-3.3542	-3.1937	-3.525	-3.4562	-25.519	-14.991	-56.454	-56.474	219.704	167.954	166.865	-99.958	65.134	222.940	-87.867	185.136	18.969	158.958	218.409	192.604	0.00037855	0.00072732	7.1388e-05	542.57	6.3261e-06	2.5505e-06	526.5	156.73	6.5456e-06	4.3578e-06	187.94	86.235	65.395	27.327	5.1038e-06	38.596	0.0016474	0.0018797	0.00052862	551.14	2.0144e-05	2.0706e-05	531.63	159.51	2.0105e-05	2.0975e-05	194.64	87.91	67.962	28.142	2.061e-05	39.847	161.967	15.398	-14.247	-115.407	-38.762	-83.721	-117.045	-110.991	17.163	186.891	-113.329	-109.876	-107.886	-102.008	-39.594	-104.923	-8191	255	
2253.566	1	1	0	0	0.20867	0.17889	0.11427	0.2436	0.1689	0.1581	0.20025	0.38244	0.13035	0.11037	0.18174	0.24905	0.17627	0.22192	0.06952	0.26438	-2.7104	-3.3875	-3.1729	-3.3312	-3.2896	-3.1667	-3.3958	-3.3354	-3.0354	-3.5771	-3.2625	-3.2188	-3.5917	-3.1729	-3.4771	-3.3854	157.966	230.340	-23.319	210.252	-22.301	81.105	-101.070	214.912	-20.133	93.019	63.322	66.265	189.027	160.579	83.486	131.621	0.00037598	4.7247e-05	7.8007e-05	541.86	1.6803e-06	2.3622e-06	531.42	156.53	4.935e-06	9.8143e-06	188.29	86.58	65.412	27.519	6.4211e-06	39.137	0.0016809	0.001888	0.00053611	554.07	2.0595e-05	2.128e-05	535.59	160.61	2.0624e-05	2.1222e-05	196.78	88.747	68.491	28.342	2.0687e-05	40.282	168.840	13.269	71.132	-115.725	-63.845	69.036	-116.452	-110.786	-23.733	47.970	-113.034	-109.812	-107.486	-101.888	38.572	-105.024	-8191	255	
2253.662	1	1	0	0	0.16633	0.043114	0.10632	0.22845	0.051284	0.040185	0.25049	0.16416	0.077353	0.16805	0.17437	0.1664	0.19075	0.041547	0.15461	0.3287	-2.7458	-3.3708	-3.1125	-3.1771	-3.4208	-3.1354	-3.5542	-3.4208	-3.0833	-3.5375	-3.3854	-3.2354	-3.4854	-3.3458	-3.4271	-3.6833	-117.891	80.336	170.120	-125.551	-9.157	44.702	129.781	170.312	102.519	130.167	-56.710	98.679	189.271	-59.003	211.128	158.898	0.00029899	0.00045669	0.00015844	543.74	9.4213e-07	4.9724e-06	527.39	158.08	4.5358e-06	1.0889e-05	189.78	86.764	65.821	27.364	1.9159e-06	38.791	0.0017033	0.0019155	0.00054262	554.3	2.0666e-05	2.127e-05	536.3	161.08	2.0499e-05	2.1214e-05	196.57	88.765	68.388	28.231	2.0786e-05	39.918	160.847	68.375	169.518	-115.265	219.816	50.648	-116.666	-110.788	205.931	44.291	-112.707	-110.121	-107.734	-101.970	-103.350	-104.536	-8191	255	
2253.756	1	1	0	0	0.12072	0.19769	0.18078	0.17986	0.02253	0.16237	0.19511	0.073838	0.1354	0.11396	0.27084	0.22004	0.22376	0.23468	0.047279	0.12066	-2.7938	-3.55	-3.3292	-3.1813	-3.5958	-3.1792	-3.3312	-3.4042	-3.0604	-3.4292	-3.55	-3.1271	-3.4333	-3.1396	-3.4167	-3.4396	-123.062	128.851	126.951	-121.368	-71.439	84.912	211.073	133.253	18.318	-47.885	-102.249	-54.670	48.669	-70.627	-37.594	57.143	0.00028467	0.00045297	0.00019705	542.49	3.4652e-06	6.1813e-06	529.5	157.77	5.9919e-06	6.38e-06	188.53	86.518	65.594	27.407	3.6336e-06	38.873	0.0016893	0.0019056	0.00053012	552.71	2.0377e-05	2.111e-05	533.9	160.62	2.0513e-05	2.1123e-05	195.89	88.28	68.181	28.138	2.0375e-05	39.865	193.549	-117.191	5.364	-115.331	205.051	-11.382	-116.641	-110.708	12.790	-18.910	-112.983	-109.873	-107.704	-101.538	-32.805	-105.092	-8191	255	
2253.877	1	1	0	0	0.31133	0.12696	0.22883	0.28285	0.17224	0.11114	0.17437	0.15927	0.14445	0.12003	0.15951	0.22262	0.14235	0.21617	0.062402	0.19636	-2.7479	-3.4167	-3.3333	-3.1771	-3.5812	-3.2646	-3.275	-3.4521	-3.2104	-3.4188	-3.2542	-3.15	-3.5062	-3.4146	-3.375	-3.6813	-24.724	62.463	111.899	94.832	-59.275	111.825	-112.797	-53.309	20.778	173.931	150.255	227.360	-115.262	146.332	210.722	59.296	0.00023622	0.0006528	0.00016965	545.53	1.2658e-06	2.4206e-06	526.41	157.93	1.4679e-06	1.3168e-06	189.85	86.923	66.019	27.461	4.741e-06	38.998	0.0016644	0.0019155	0.0005377	554.7	2.0475e-05	2.1218e-05	535.73	160.93	2.0321e-05	2.1206e-05	196.78	88.793	68.683	28.376	2.0857e-05	40.189	168.049	16.432	-26.893	-115.442	144.977	32.929	-116.582	-110.515	-11.193	167.142	-113.305	-109.949	-107.596	-101.658	83.801	-104.908	-8191	255	
2253.973	1	1	0	0	0.18649	0.27155	0.21411	0.24087	0.15254	0.1507	0.21219	0.092387	0.24826	0.17399	0.088204	0.21724	0.053868	0.090734	0.14799	0.075119	-2.7083	-3.4	-3.3896	-3.1063	-3.5479	-3.3875	-3.1833	-3.3917	-3.1333	-3.3292	-3.3521	-3.3125	-3.4771	-3.3583	-3.2833	-3.5083	2.307	141.838	34.176	210.376	152.296	97.083	195.423	61.210	-92.028	63.611	205.277	195.023	178.738	-20.625	94.607	152.346	0.00036447	0.00030003	0.00029995	543.13	9.4155e-06	3.843e-06	530.49	158.75	3.6206e-06	9.2328e-06	191	87.003	66.495	27.649	8.5405e-07	39.035	0.0017079	0.0019241	0.00054291	554.07	2.0791e-05	2.1383e-05	537.79	161.69	2.0602e-05	2.133e-05	197.84	89.341	68.964	28.467	2.0924e-05	40.271	156.866	66.309	4.483	-115.818	26.937	190.333	-116.986	-110.961	18.352	-4.829	-112.851	-109.935	-107.409	-101.763	-10.161	-104.797	-8191	255	
2254.045	1	1	0	0	0.032318	0.10413	0.21505	0.30152	0.067363	0.06412	0.11555	0.1228	0.16337	0.14813	0.063296	0.41628	0.29067	0.14721	0.26826	0.22497	-2.9458	-3.2521	-3.4146	-3.3854	-3.4646	-3.4188	-3.2562	-3.6083	-3.2562	-3.1917	-3.6417	-3.1521	-3.4938	-3.375	-3.1937	-3.5646	104.989	184.208	144.756	94.841	34.617	128.599	149.924	204.562	74.781	134.735	-14.905	112.877	-82.042	196.278	129.127	91.133	0.00031019	0.00093365	0.00012823	545.33	8.2445e-06	3.29e-06	526.64	157.77	3.4934e-06	4.6725e-06	189.9	86.642	65.84	27.505	2.6227e-06	38.887	0.0016743	0.0018975	0.00053766	554.87	2.0502e-05	2.1124e-05	534.82	161.15	2.0395e-05	2.1196e-05	197.09	88.945	68.645	28.281	2.0717e-05	39.933	171.189	-60.574	-48.021	-115.502	1.342	-75.728	-116.673	-110.577	51.880	65.283	-113.034	-109.642	-107.490	-101.605	31.203	-105.003	-8191	255	
2254.165	1	1	0	0	0.25319	0.066299	0.020061	0.25285	0.32203	0.07258	0.077613	0.1004	0.12224	0.086495	0.14762	0.16866	0.21355	0.080006	0.084122	0.032114	-2.7229	-3.2812	-3.5667	-3.2146	-3.3187	-3.4437	-3.1312	-3.4125	-3.2625	-3.225	-3.5479	-3.2438	-3.2854	-3.5708	-3.0958	-3.4729	221.144	170.202	-36.957	205.902	-116.343	181.424	67.693	159.643	96.930	-24.676	122.711	47.027	66.645	-111.711	-90.908	18.796	0.00034345	0.00034776	3.0995e-05	548.02	3.0911e-06	3.6999e-06	527.82	158.67	4.1022e-06	7.3501e-06	189.58	85.962	65.842	27.459	2.7907e-06	39.165	0.0016698	0.001895	0.00053061	555.54	2.0541e-05	2.0943e-05	535.48	161.21	2.0366e-05	2.107e-05	197.33	88.675	68.681	28.353	2.0589e-05	40.24	179.141	-25.865	5.278	-115.490	26.312	-128.517	-116.406	-111.055	21.800	62.977	-113.113	-109.817	-107.158	-101.476	-92.189	-104.611	-8191	255	
2254.261	1	1	0	0	0.21467	0.12327	0.23456	0.0474	0.29586	0.12221	0.067386	0.19235	0.065004	0.11079	0.058092	0.28233	0.12029	0.051927	0.13696	0.10987	-3.0333	-3.3312	-3.5146	-3.1417	-3.3229	-3.5208	-3.1708	-3.4333	-3.4104	-3.1708	-3.2854	-3.2938	-3.1917	-3.4813	-3.1917	-3.5729	39.214	-66.828	-42.422	202.160	-116.575	137.278	112.402	171.284	-40.077	130.237	78.424	135.045	88.278	8.255	-82.367	60.485	0.00043755	0.0008513	0.00011497	541.44	9.0237e-06	6.4435e-06	530.95	158.16	5.6965e-06	6.6196e-06	191.14	87.526	66.317	27.624	3.1096e-06	39.342	0.0016696	0.0019013	0.00052652	552.11	2.0339e-05	2.0964e-05	537.82	162.07	2.035e-05	2.1122e-05	198.76	89.571	68.987	28.452	2.057e-05	40.486	170.263	-20.514	-66.858	-115.591	-8.997	-20.162	-116.677	-110.561	-59.617	15.511	-112.773	-109.876	-107.624	-101.560	-1.687	-104.743	-8191	255	
2254.358	1	1	0	0	0.15796	0.17247	0.036924	0.20773	0.060423	0.23772	0.23751	0.07704	0.017603	0.22701	0.1009	0.11881	0.20155	0.17364	0.070201	0.16827	-2.9771	-3.1521	-3.3542	-3.3667	-3.5208	-3.4646	-3.2562	-3.3812	-3.3958	-3.0917	-3.4	-3.1604	-3.3042	-3.3438	-3.2313	-3.4854	91.555	184.778	228.510	19.681	-11.523	-71.546	167.852	163.318	74.625	171.928	35.012	113.932	193.951	171.040	-89.619	147.316	0.000197	0.00054723	0.00010605	545.39	4.1282e-06	7.7699e-06	530.59	158.9	2.5754e-06	5.2951e-06	189.9	86.809	66.329	27.46	3.1346e-06	39.048	0.0016737	0.0018858	0.00053294	553.57	2.0433e-05	2.1056e-05	539.05	161.5	1.9997e-05	2.0859e-05	198	88.79	68.704	28.343	2.0139e-05	39.987	159.214	-14.630	-33.774	-115.539	-105.060	-45.201	-116.618	-110.859	52.001	113.030	-112.836	-109.760	-107.953	-101.675	-84.446	-105.025	-8191	255	
2254.454	1	1	0	0	0.23018	0.13771	0.18376	0.19494	0.17837	0.15109	0.18534	0.19898	0.03312	0.17016	0.063543	0.17386	0.168	0.14995	0.11176	0.31304	-2.95	-2.8833	-3.3292	-3.3604	-3.175	-3.4417	-3.1271	-3.4083	-3.4292	-3.1646	-3.5583	-3.3271	-3.1271	-3.5187	-3.2958	-3.3042	-41.277	84.596	223.017	-7.033	66.013	128.341	-9.638	-124.208	-97.433	-87.386	-2.080	200.506	189.604	-76.351	10.613	184.316	0.00029931	0.00026278	8.5644e-05	541.61	6.1545e-06	6.1696e-06	530.82	158.21	2.2467e-06	4.6015e-06	190.59	86.212	65.82	27.533	4.8432e-06	38.635	0.001651	0.0018658	0.00052346	551.35	2.0134e-05	2.0655e-05	536.76	161.2	1.9986e-05	2.0748e-05	197.43	88.517	68.525	28.317	2.0138e-05	40.031	160.674	5.940	-22.078	-115.590	71.934	-93.251	-116.678	-110.620	-89.925	42.113	-112.847	-109.729	-107.207	-101.533	-27.595	-104.735	-8191	255	
2254.574	1	1	0	0	0.1411	0.16953	0.22607	0.048891	0.20414	0.027883	0.13356	0.075677	0.19692	0.1767	0.19228	0.24289	0.030931	0.17804	0.27145	0.16689	-2.9375	-2.9729	-3.3625	-3.3833	-3.1396	-3.6021	-3.2521	-3.0812	-3.3187	-3.0333	-3.3625	-3.2729	-3.2104	-3.5125	-3.125	-3.2354	52.238	194.441	0.833	182.948	47.207	229.825	175.213	-126.634	135.547	-77.041	-20.425	100.515	-103.675	-103.308	-105.084	140.519	0.00033928	0.00043682	7.7199e-05	544.15	4.1961e-06	4.6294e-06	530.14	158.47	7.2573e-06	6.3902e-06	190.13	87.091	66.104	27.6	4.7816e-06	39.201	0.0016548	0.0018735	0.00052832	552.63	2.0255e-05	2.09e-05	536.75	161.35	2.0232e-05	2.0808e-05	197.97	89.014	68.724	28.425	2.0416e-05	40.196	177.042	-62.101	163.346	-115.898	51.474	-68.303	-116.996	-110.870	23.942	13.339	-112.789	-109.832	-107.659	-101.577	-8.662	-104.780	-8191	255	
2254.669	1	1	0	0	0.14525	0.19996	0.15865	0.22025	0.042368	0.11362	0.2327	0.23224	0.33248	0.19653	0.14807	0.31511	0.056229	0.19843	0.051213	0.14813	-2.925	-3.1479	-3.3104	-3.3208	-3.1312	-3.4062	-3.2917	-3.1042	-3.4958	-3.3479	-3.4604	-3.3354	-3.0271	-3.4667	-3.2875	-3.2292	114.804	18.683	61.167	193.366	230.856	-103.420	205.976	224.222	-72.238	195.569	-97.618	200.861	195.823	-126.722	-50.133	202.914	0.00035834	0.00054952	0.0001393	543.65	3.8876e-06	2.9869e-06	534.64	159.47	4.6764e-06	2.8336e-06	190.96	86.686	66.099	27.65	5.8633e-06	39.075	0.0016722	0.0018799	0.0005254	552.62	2.0462e-05	2.0863e-05	539.68	162.02	2.009e-05	2.0929e-05	198.97	89.29	68.775	28.397	2.0145e-05	40.061	160.013	8.897	-122.869	-115.433	-41.851	11.576	-116.927	-110.654	-36.157	47.651	-113.013	-109.779	-107.349	-101.445	29.613	-104.924	-8191	255	
2254.765	1	1	0	0	0.065469	0.028793	0.096862	0.2497	0.12818	0.21174	0.18658	0.19004	0.063069	0.20554	0.087259	0.051288	0.12995	0.17967	0.074771	0.14392	-2.9375	-3.2083	-3.1167	-3.4104	-3.2354	-3.4646	-3.2333	-3.3625	-3.55	-3.1437	-3.4396	-3.3521	-3.0812	-3.3833	-3.3729	-3.2438	56.490	10.844	5.341	199.991	146.000	158.861	81.971	168.021	2.270	-10.948	171.749	2.300	162.484	215.150	-24.790	200.605	0.00028973	0.00075508	1.7148e-05	543.01	5.9204e-06	2.4574e-06	528.26	157.41	3.7945e-06	8.0134e-06	190.37	87.162	65.576	27.567	5.3504e-06	39.066	0.0016301	0.0018392	0.00052398	550.39	2.0024e-05	2.0572e-05	535.72	161.08	1.9829e-05	2.0791e-05	197.91	88.824	68.554	28.288	2.0319e-05	39.992	162.973	-76.413	148.845	-115.353	17.057	89.010	-116.639	-110.744	-91.181	-24.006	-113.121	-110.001	-107.429	-101.565	29.469	-105.205	-8191	255	
2254.861	1	1	0	0	0.2435	0.1581	0.18218	0.11471	0.21917	0.13824	0.18858	0.10111	0.099105	0.1076	0.057505	0.21508	0.2803	0.16892	0.076727	0.28395	-3.0479	-3.0729	-3.2896	-3.5229	-3.1521	-3.5125	-3.4437	-3.1292	-3.4375	-3.3187	-3.2021	-3.7375	-3.1688	-3.4208	-3.4813	-3.2687	105.613	48.840	-13.161	99.460	3.777	207.297	170.378	172.744	-70.564	-7.918	216.801	159.788	178.916	158.374	153.424	219.738	0.00036762	0.00036508	0.00013493	544.34	6.6957e-06	2.5585e-06	527.8	158.41	3.0861e-06	4.0485e-06	191.82	87.415	66.19	27.787	2.791e-06	39.155	0.0016403	0.0018377	0.00052379	550.39	2.0136e-05	2.0637e-05	535.46	161.29	2.005e-05	2.0798e-05	198.7	89.254	68.662	28.475	2.0004e-05	40.249	166.657	0.337	-66.086	-115.766	32.239	14.616	-116.757	-110.865	113.849	102.733	-113.257	-109.762	-107.751	-101.618	-11.753	-104.647	-8191	255	
2254.957	1	1	0	0	0.18185	0.13038	0.089346	0.11031	0.055167	0.32292	0.16824	0.13492	0.15936	0.13473	0.1831	0.33943	0.31211	0.18345	0.22932	0.085983	-2.9771	-3.4542	-3.1375	-3.5458	-3.1979	-3.4083	-3.45	-3.1562	-3.3125	-3.2708	-3.4042	-3.4833	-3.0667	-3.2812	-3.4083	-3.2542	215.080	164.657	130.820	-69.904	-16.015	228.496	136.889	189.326	80.145	34.605	114.511	191.337	150.486	157.620	228.417	-103.333	0.00034321	0.00040955	0.00019228	542.52	7.0524e-06	6.8465e-06	534.43	159.51	4.5679e-06	2.2029e-06	193.96	87.821	66.083	27.858	4.5762e-06	39.265	0.0016549	0.0018474	0.00051996	551.31	1.998e-05	2.0889e-05	539.02	162.26	1.985e-05	2.0538e-05	200.46	89.631	68.911	28.569	2.0073e-05	40.458	169.523	166.999	5.856	-115.286	26.466	-8.467	-116.706	-110.621	49.148	-35.352	-113.179	-109.775	-107.731	-101.661	-58.247	-104.491	-8191	255	
2255.053	1	1	0	0	0.17858	0.31436	0.25447	0.076692	0.021687	0.15306	0.10054	0.15597	0.11291	0.087432	0.26225	0.22971	0.16817	0.30712	0.12496	0.20753	-3.1271	-3.2021	-3.0875	-3.4833	-3.0958	-3.2812	-3.5187	-3.2292	-3.4313	-3.5208	-3.1813	-3.5833	-3.3458	-3.3875	-3.3042	-3.2021	212.780	42.426	-30.081	-36.979	-64.812	-106.822	-91.425	173.419	94.679	-71.181	118.560	101.282	-81.819	-98.971	88.838	182.557	0.00038408	0.0008684	0.00011278	540.32	9.3205e-06	7.9592e-06	530.17	159.87	3.8938e-06	5.4242e-06	192.7	87.538	66.431	27.596	9.2672e-06	38.976	0.0016299	0.0018412	0.00051693	550.03	1.9905e-05	2.0573e-05	535.85	161.65	1.9619e-05	2.0359e-05	199.56	89.144	68.704	28.333	1.9725e-05	39.913	151.628	-43.716	18.901	-116.007	8.667	41.529	-116.728	-110.797	-125.128	59.066	-113.020	-109.766	-107.542	-101.676	46.039	-104.961	-8191	255	
2255.174	1	1	0	0	0.13784	0.066954	0.014485	0.21193	0.13955	0.11326	0.34582	0.09415	0.080908	0.15546	0.10439	0.20293	0.14889	0.13995	0.046799	0.22397	-3.0187	-3.375	-3.0062	-3.5604	-3.0708	-3.2604	-3.5104	-3.2979	-3.4104	-3.4292	-3.2396	-3.7479	-3.1771	-3.1312	-3.5187	-3.1333	71.019	-37.359	156.622	-72.760	165.683	80.816	188.930	210.603	-51.213	-80.182	-7.034	213.976	-100.594	-119.975	56.721	127.226	0.00033255	0.00091854	0.00034641	539.59	4.5471e-06	5.9189e-06	529.82	158.87	1.0613e-06	8.5888e-06	192.41	86.763	65.469	27.576	1.8224e-06	39.142	0.0016062	0.0018326	0.00051555	548.39	1.9802e-05	2.022e-05	535.03	161.46	1.9614e-05	2.0343e-05	199.04	89.134	68.468	28.353	1.9992e-05	40.067	163.539	25.908	-27.971	-115.514	26.447	-91.576	-116.668	-110.817	36.104	130.106	-113.150	-109.688	-107.781	-101.519	63.862	-104.775	-8191	255	
2255.270	1	1	0	0	0.082701	0.061269	0.024719	0.074534	0.076376	0.16372	0.19999	0.24561	0.19349	0.2697	0.13877	0.20248	0.30821	0.22774	0.21147	0.19689	-3.075	-3.2958	-3.1146	-3.5167	-3.3146	-3.2979	-3.3292	-3.1208	-3.2021	-3.4042	-3.1833	-3.3646	-3.2917	-3.1333	-3.4562	-3.2458	214.194	77.994	-72.925	156.820	-38.998	-68.842	162.628	-121.754	220.188	213.045	49.740	145.428	213.215	-101.952	126.965	90.745	0.00035394	0.00081169	0.00014828	538.92	1.0295e-07	6.9646e-06	530.19	158.81	4.3692e-06	7.3504e-06	193.39	87.975	66.18	27.648	7.3806e-06	39.345	0.0016219	0.0018072	0.00051638	549.04	1.985e-05	2.0262e-05	536.94	161.71	1.984e-05	2.0341e-05	200.27	89.756	68.697	28.471	2.0152e-05	40.386	174.041	20.283	-71.677	-115.310	-58.249	11.987	-116.748	-110.605	-32.663	17.218	-113.040	-110.166	-107.743	-101.461	-15.066	-104.907	-8191	255	
2255.342	1	1	0	0	0.14002	0.054643	0.088017	0.08994	0.18447	0.039631	0.12519	0.014481	0.18425	0.093777	0.14732	0.18389	0.142	0.16525	0.11438	0.12218	-2.9604	-3.3292	-3.1979	-3.3896	-3.3312	-3.1271	-3.6583	-3.2479	-3.2875	-3.4958	-3.1271	-3.5646	-3.2854	-3.0917	-3.625	-3.5146	-76.896	165.140	-92.795	-31.608	92.087	-115.201	119.969	18.490	-29.949	94.375	176.430	206.381	191.797	-87.424	-93.927	79.021	0.00027357	0.00063567	0.00010595	539.75	2.4039e-06	1.0258e-05	530.79	159.62	1.9702e-06	3.6585e-06	194.73	87.913	66.655	27.665	3.9611e-06	38.941	0.001648	0.0018528	0.00052	547.8	2.001e-05	2.0701e-05	538.87	162.5	1.9847e-05	2.0653e-05	201.53	90.017	68.951	28.415	1.9848e-05	40.06	176.380	-84.420	-38.859	-115.429	-38.779	72.970	-116.856	-110.998	0.415	40.045	-113.096	-109.841	-107.491	-101.633	-25.455	-104.956	-8191	255	
2255.438	1	1	0	0	0.1132	0.064313	0.30289	0.23488	0.068302	0.11382	0.070112	0.014721	0.19675	0.21439	0.20207	0.15325	0.09434	0.19117	0.24052	0.14277	-2.7792	-3.5896	-3.1083	-3.325	-3.6292	-3.2062	-3.3354	-3.4021	-3.3312	-3.2917	-3.4292	-3.4542	-3.4625	-3.1708	-3.5729	-3.4083	-64.589	-106.314	-8.275	-62.467	10.114	126.006	63.110	-27.377	-57.031	3.489	95.087	-127.970	110.723	214.231	20.490	173.962	0.0003966	0.00078118	0.00010824	539.6	4.542e-06	3.4237e-06	524.79	159.31	4.2041e-06	1.1088e-05	193.63	88.134	66.132	27.711	1.319e-06	38.723	0.0016238	0.0018154	0.00051235	547.29	1.9674e-05	2.0317e-05	534.53	161.87	1.9541e-05	2.0289e-05	200.59	89.497	68.658	28.326	1.994e-05	39.929	157.523	-46.843	129.925	-115.556	-36.194	-41.604	-116.316	-111.211	33.395	49.006	-113.453	-109.749	-107.667	-101.419	-16.587	-104.819	-8191	255	
2255.557	1	1	0	0	0.089838	0.11455	0.25949	0.32627	0.0393	0.11314	0.19057	0.069821	0.15531	0.12718	0.13203	0.28745	0.084507	0.17075	0.15448	0.10247	-2.6958	-3.4042	-3.0479	-3.1146	-3.3833	-3.0938	-3.5146	-3.5208	-3.2625	-3.6479	-3.2896	-3.3104	-3.6083	-3.2271	-3.425	-3.4188	11.650	163.588	122.018	158.743	31.391	24.215	216.205	2.340	80.745	-47.711	-84.377	-78.351	201.675	97.227	-56.763	166.945	0.00021071	0.00072512	4.6781e-05	540.68	5.5731e-06	6.1403e-06	528	159.22	3.4319e-06	2.1105e-06	193.96	88.024	66.85	27.635	5.8561e-06	39.297	0.0016069	0.001818	0.00051255	547.65	1.9676e-05	2.0294e-05	535.6	162.07	1.9538e-05	2.0151e-05	201.5	89.952	68.95	28.429	1.9974e-05	40.191	168.390	-1.151	227.823	-115.554	66.276	35.824	-116.727	-110.670	-61.357	-115.417	-113.438	-109.639	-107.453	-101.786	-54.880	-105.192	-8191	255	
2255.653	1	1	0	0	0.30601	0.2029	0.10052	0.12024	0.09205	0.16563	0.052014	0.11978	0.11629	0.13668	0.15308	0.092546	0.038715	0.17498	0.24399	0.14382	-2.7458	-3.4979	-3.325	-3.3187	-3.4333	-3.2458	-3.4354	-3.4458	-2.9938	-3.4729	-3.1937	-3.1875	-3.5396	-3.2917	-3.2896	-3.4188	227.234	-85.247	-18.794	-35.117	202.993	106.899	215.955	56.962	-49.947	-62.835	-81.450	174.141	-96.524	213.194	41.497	153.513	0.00030575	0.00038761	9.0533e-05	543.19	2.883e-06	7.2839e-06	532.73	159.57	2.4671e-06	5.1345e-06	195.36	88.591	66.299	27.851	3.1947e-06	39.055	0.001626	0.0018104	0.00051332	548.85	1.9561e-05	2.0355e-05	536.79	162.62	1.9527e-05	2.0102e-05	202.16	90.251	68.914	28.569	1.9576e-05	40.233	179.769	-85.001	16.367	-115.798	4.640	74.506	-116.370	-110.861	73.379	5.498	-113.214	-109.630	-107.633	-101.856	90.684	-105.076	-8191	255	
2255.749	1	1	0	0	0.14983	0.23038	0.030669	0.012378	0.19093	0.17381	0.23045	0.18746	0.26419	0.011938	0.045919	0.070643	0.065712	0.03239	0.35919	0.089719	-2.6625	-3.4938	-3.3229	-3.2958	-3.5458	-3.1063	-3.4771	-3.4021	-3.1	-3.4375	-3.3	-3.2958	-3.4917	-3.2313	-3.3	-3.5396	75.362	59.993	185.794	-80.456	90.055	56.148	142.807	225.575	-94.923	36.858	141.298	59.268	87.237	132.678	25.454	141.458	0.00037805	0.00037244	0.00010781	538.14	6.6949e-06	8.9046e-06	526.78	159.06	4.1362e-06	2.5828e-06	195.19	87.468	65.923	27.422	6.8355e-07	38.67	0.0015853	0.0018004	0.00050671	546.17	1.9196e-05	2.0167e-05	533.58	161.4	1.9398e-05	1.9897e-05	200.87	89.264	68.241	28.135	1.9282e-05	39.594	156.294	86.845	-51.314	-115.813	37.569	-45.425	-116.309	-111.077	28.780	99.999	-113.406	-110.008	-107.825	-101.503	140.696	-104.710	-8191	255	
2255.845	1	1	0	0	0.10664	0.29608	0.15035	0.10739	0.16989	0.10128	0.17948	0.13759	0.1266	0.33087	0.29147	0.16273	0.074655	0.29499	0.096881	0.089929	-2.6708	-3.4229	-3.4	-3.0958	-3.5583	-3.1396	-3.2375	-3.5167	-3.2542	-3.3646	-3.3792	-3.2375	-3.5563	-3.275	-3.2146	-3.4792	46.026	13.200	68.282	-51.928	-27.269	-90.087	-84.823	-80.872	162.854	28.078	113.854	199.185	-62.211	214.147	38.870	86.322	0.00030063	0.00054644	0.000126	535.89	3.1541e-06	7.1796e-06	524.98	157.88	3.839e-06	4.0931e-06	193.98	86.679	65.941	27.428	1.0347e-06	38.862	0.0015788	0.0017886	0.00050291	542.59	1.9197e-05	1.9654e-05	531.12	160.44	1.924e-05	1.9747e-05	199.88	88.91	68.139	28.058	1.9256e-05	39.799	163.994	69.838	-83.340	-115.606	-0.334	-6.631	-116.563	-110.867	-18.239	5.569	-113.138	-109.793	-107.738	-101.892	-117.810	-104.996	-8191	255	
2255.941	1	1	0	0	0.11158	0.18022	0.069084	0.13678	0.21659	0.16803	0.1189	0.23625	0.17614	0.45233	0.20735	0.12995	0.17422	0.10082	0.17154	0.1334	-2.8917	-3.3375	-3.4604	-3.1312	-3.4458	-3.3229	-3.2604	-3.3979	-2.8917	-3.2792	-3.4375	-3.2146	-3.4271	-3.1	-3.2604	-3.4313	-60.283	66.664	197.163	230.623	-64.128	114.360	165.392	211.285	54.441	50.820	184.947	80.225	202.324	117.140	-88.229	193.929	0.00022223	0.00016935	3.7431e-05	534.64	5.7704e-06	4.6696e-06	527.37	158.51	1.0885e-06	6.9678e-06	195.95	87.296	66.031	27.459	4.7357e-06	38.865	0.0015706	0.0017705	0.00050204	543.38	1.9047e-05	1.9716e-05	532.41	160.52	1.8919e-05	1.9605e-05	201.28	89.251	68.179	28.16	1.923e-05	39.989	190.331	70.975	54.210	-115.329	-5.961	0.165	-116.618	-110.840	2.220	32.603	-113.390	-109.929	-107.841	-101.659	-10.553	-104.995	-8191	255	
2256.038	1	1	0	0	0.18	0.090661	0.32384	0.012991	0.11152	0.16194	0.39328	0.058261	0.15263	0.1328	0.054787	0.16199	0.088311	0.23847	0.054874	0.24832	-2.7833	-3.2375	-3.4562	-3.1104	-3.5646	-3.3458	-3.1958	-3.3396	-3.2042	-3.4125	-3.4958	-3.1271	-3.475	-3.5958	-3.1229	-3.5167	176.254	88.875	84.194	70.814	20.410	-98.745	-91.084	187.729	39.314	182.130	181.828	175.000	91.748	-123.369	71.940	-101.567	0.00039165	0.00075576	0.0001275	534.94	1.9521e-06	5.1689e-06	527.87	157.39	2.8304e-06	6.3677e-06	194.72	87.498	65.792	27.291	3.5311e-06	38.345	0.0015842	0.00178	0.00049981	542.95	1.9346e-05	1.9627e-05	532.15	160.1	1.8951e-05	1.9507e-05	200.63	89.064	67.924	28.011	1.9101e-05	39.48	160.140	-78.895	194.597	-115.748	43.884	22.532	-117.025	-111.028	-36.203	-2.687	-113.073	-109.901	-107.869	-101.562	-12.105	-105.106	-8191	255	
2256.134	1	1	0	0	0.083942	0.067134	0.1684	0.23711	0.085073	0.12898	0.013874	0.1738	0.045469	0.11314	0.12323	0.11287	0.27147	0.13965	0.18842	0.24547	-2.7917	-3.2646	-3.4271	-3.1583	-3.2792	-3.2667	-3.0771	-3.2958	-3.2583	-3.1146	-3.4938	-3.1188	-3.325	-3.4042	-3.0146	-3.5625	-35.518	214.664	-67.930	207.901	-5.398	42.503	133.301	-125.379	36.091	-33.460	208.041	-120.584	-113.771	123.043	-112.826	89.852	0.00034964	0.0007579	5.1578e-05	531.06	3.7362e-06	3.417e-06	524.35	157.22	4.8453e-06	3.1379e-06	191.08	86.173	65.523	27.228	5.9422e-06	38.271	0.0015649	0.001758	0.00049301	539.58	1.9336e-05	1.9668e-05	528.59	159.61	1.8993e-05	1.9686e-05	198.17	88.037	67.625	27.916	1.9199e-05	39.333	169.292	-113.892	48.368	-115.711	-40.801	23.050	-116.594	-110.759	-77.291	108.425	-113.088	-109.913	-107.580	-101.577	-37.541	-104.650	-8191	255	
2256.254	1	1	0	0	0.14447	0.18474	0.19075	0.1645	0.082221	0.13244	0.055905	0.26143	0.12806	0.15399	0.19905	0.29824	0.13049	0.0342	0.19487	0.10884	-2.8417	-3.0583	-3.5208	-3.0979	-3.3333	-3.5854	-3.2521	-3.4958	-3.2771	-3.1875	-3.6354	-3.4979	-3.225	-3.3583	-3.1958	-3.7208	76.658	176.433	-0.599	129.917	1.929	71.152	68.621	218.401	12.185	6.438	195.528	-103.775	-52.159	217.107	-77.845	75.924	0.00034168	0.00030812	0.00016838	530.54	3.31e-06	3.4075e-06	520.61	156.92	7.2067e-06	7.7566e-06	191.05	87.178	65.21	27.297	3.7264e-06	38.536	0.0015733	0.0017639	0.00050039	539.09	1.9065e-05	1.9786e-05	529.32	159.15	1.9085e-05	1.9959e-05	198.01	88.682	67.775	27.995	1.9443e-05	39.652	161.931	-11.057	-45.467	-115.737	-74.369	-93.482	-116.936	-111.182	-51.527	24.261	-112.871	-110.198	-107.696	-101.496	173.839	-104.964	-8191	255	
2256.351	1	1	0	0	0.052131	0.094172	0.19481	0.15256	0.1102	0.11284	0.14034	0.2405	0.17327	0.090125	0.22415	0.17483	0.32983	0.26053	0.10635	0.093698	-2.7687	-3.1396	-3.4	-3.2667	-3.1625	-3.5438	-3.0792	-3.5479	-3.4417	-3.1667	-3.5083	-3.1542	-3.3958	-3.5854	-3.1604	-3.4708	69.796	-40.629	-127.539	0.474	15.868	140.495	64.633	161.577	187.319	-66.607	-110.637	178.359	181.576	225.239	198.125	-13.260	0.00028717	0.00045063	8.6981e-05	532.76	7.7863e-06	6.9491e-06	524.99	157.7	1.942e-06	8.3356e-06	193.76	87.195	65.919	27.489	2.1656e-06	38.641	0.001585	0.0017863	0.00049967	540.99	1.9285e-05	2.0119e-05	531.31	160.34	1.9311e-05	2.0269e-05	200.35	89.327	68.361	28.22	1.9464e-05	39.897	176.567	-56.789	-39.262	-115.761	-25.718	-95.207	-116.652	-110.981	7.012	101.562	-112.754	-109.820	-107.665	-101.630	127.926	-104.774	-8191	255	
2256.447	1	1	0	0	0.12021	0.090595	0.15492	0.25581	0.17797	0.081747	0.15752	0.21621	0.041882	0.10387	0.043818	0.023919	0.22459	0.33648	0.00084394	0.1922	-2.8	-3.0458	-3.3375	-3.3604	-3.1667	-3.5583	-3.125	-3.4437	-3.5146	-3.2313	-3.5208	-3.25	-3.2104	-3.5687	-3.2479	-3.4771	42.016	210.850	-39.254	194.695	189.858	32.894	-26.157	177.466	82.154	-109.804	153.353	201.467	175.894	154.293	180.000	-128.352	0.00028525	0.0011035	0.00021133	539.07	4.2974e-06	3.2086e-06	524.87	158.38	1.4106e-06	7.1262e-06	193.09	87.471	65.506	27.588	9.2412e-07	38.587	0.0015927	0.0017974	0.00050547	543.15	1.9402e-05	1.9666e-05	531.54	160.96	1.9158e-05	1.9897e-05	199.75	89.08	68.138	28.196	1.9434e-05	39.618	171.899	-1.964	-18.044	-115.822	-15.560	10.690	-116.719	-110.807	9.503	60.145	-113.520	-109.612	-107.280	-101.816	171.086	-104.683	-8191	255	
2256.567	1	1	0	0	0.047307	0.087708	0.11375	0.11669	0.22655	0.060353	0.21006	0.21295	0.091687	0.20002	0.1559	0.086404	0.057188	0.11525	0.19372	0.11079	-3.0312	-3.1729	-3.4354	-3.1708	-3.2583	-3.5812	-3.1813	-3.3125	-3.4813	-3.1042	-3.3021	-3.3312	-3.1188	-3.3937	-3.1521	-3.2292	219.669	44.264	81.541	204.684	37.438	185.900	110.714	91.310	110.830	102.051	-16.526	-42.610	30.463	-41.773	64.747	-32.059	0.00031948	0.00048677	0.00022025	536.93	7.2225e-06	7.7784e-06	526.16	158.39	1.9453e-06	4.8061e-06	193.66	87.252	65.596	27.552	1.8617e-06	38.961	0.0015892	0.0018116	0.00050707	543.88	1.9559e-05	2.015e-05	532.4	160.81	1.9254e-05	2.0252e-05	199.75	88.932	68.376	28.33	1.9756e-05	39.911	163.256	5.605	-18.590	-115.709	-42.713	-5.198	-116.329	-110.805	163.505	-5.974	-113.250	-109.706	-107.506	-101.880	-57.699	-104.449	-8191	255	
2256.639	1	1	0	0	0.12866	0.099756	0.057966	0.05283	0.20953	0.13998	0.22407	0.077809	0.16225	0.16319	0.19958	0.22642	0.054663	0.204	0.19275	0.13328	-3.15	-3.2042	-3.6417	-3.3667	-3.1521	-3.5458	-3.2167	-3.4958	-3.5333	-3.2458	-3.3167	-3.4042	-3.1688	-3.4396	-3.3104	-3.2229	66.133	-82.021	90.502	120.460	-91.383	68.071	167.066	222.052	128.534	129.684	-111.923	172.845	174.529	-21.104	64.816	204.902	0.00025857	0.00058068	6.2045e-05	535.87	4.6547e-06	1.8148e-06	530.51	158.02	1.0167e-06	4.5041e-06	194.79	87.904	66.5	27.86	2.3603e-06	39.158	0.0016083	0.0018085	0.00050874	544.32	1.9578e-05	2.0263e-05	534.77	161.47	1.9456e-05	2.0229e-05	200.92	89.828	68.758	28.524	1.9586e-05	40.262	168.281	-61.934	-7.608	-115.758	-27.060	129.178	-116.645	-110.742	120.252	197.702	-113.044	-109.523	-107.516	-101.846	113.413	-104.565	-8191	255	
2256.733	1	1	0	0	0.21408	0.21917	0.2021	0.075084	0.15069	0.078585	0.15981	0.041497	0.35115	0.13308	0.061447	0.19939	0.30604	0.13727	0.14501	0.14483	-3.0812	-3.3167	-3.3958	-3.3792	-3.1646	-3.4938	-3.3688	-3.3312	-3.6604	-3.2438	-3.2313	-3.5354	-3.1542	-3.3479	-3.3208	-3.3604	104.534	96.694	76.931	-21.203	-93.975	132.010	180.642	97.408	84.497	-36.421	-76.261	136.184	-69.496	-39.499	-20.851	185.865	0.00028378	0.0001799	0.00010096	539.51	2.8432e-06	2.8902e-06	529.15	159.26	2.7021e-06	7.0677e-06	193.54	87.18	66.496	27.589	9.8725e-07	38.897	0.0015838	0.0017949	0.00051031	544.34	1.931e-05	2.0107e-05	534.9	161.51	1.9143e-05	1.9968e-05	199.99	89.05	68.811	28.351	1.9391e-05	39.822	144.610	99.907	-101.043	-115.635	47.320	24.002	-116.642	-110.827	-63.522	-35.486	-113.146	-109.573	-107.741	-101.413	77.904	-104.717	-8191	255	
2256.854	1	1	0	0	0.013237	0.14008	0.093062	0.065247	0.12626	0.046969	0.26578	0.19106	0.068731	0.031893	0.14903	0.18015	0.040331	0.13113	0.060032	0.30196	-2.8729	-3.2583	-3.4	-3.6292	-3.0687	-3.5	-3.275	-3.2229	-3.5021	-3.2313	-3.6042	-3.6167	-3.1167	-3.4396	-3.1479	-3.0708	162.852	-48.879	181.818	-119.592	63.723	-47.060	229.464	134.835	-85.101	-49.473	-38.629	-110.017	111.493	-107.383	-111.094	196.488	0.00032182	0.00023254	9.7248e-05	534.73	1.0942e-06	2.5928e-06	526.24	158.4	2.6459e-06	3.9503e-06	193.4	86.853	66.602	27.708	3.3402e-06	38.888	0.0015798	0.0017915	0.0004982	542.87	1.9394e-05	1.9869e-05	532.66	161.39	1.9285e-05	2.0081e-05	198.93	89.013	68.779	28.464	1.9616e-05	39.935	151.865	-35.493	-87.762	-115.872	146.228	18.807	-116.621	-111.068	70.265	34.847	-113.270	-110.040	-107.822	-101.546	97.119	-104.691	-8191	255	
2256.950	1	1	0	0	0.17344	0.12847	0.15292	0.14216	0.03732	0.32553	0.11284	0.19939	0.32909	0.23005	0.04091	0.02699	0.16372	0.12243	0.045999	0.02249	-3.1521	-3.2521	-3.2854	-3.5667	-3.2042	-3.4458	-3.3833	-3.1854	-3.5167	-3.4375	-3.1479	-3.5146	-3.2625	-3.2333	-3.2042	-3.3208	22.681	206.222	-23.186	166.388	27.877	14.254	76.742	-58.664	60.420	224.623	120.417	88.075	122.316	179.134	-16.795	24.099	0.00022225	0.00022818	7.2902e-05	533.35	3.1988e-06	1.2304e-05	528.7	158.21	3.9636e-06	8.5905e-06	192.67	87.491	66.518	27.818	4.6633e-06	39.064	0.0015906	0.0017992	0.00051757	546.03	1.9678e-05	2.0247e-05	534.99	161.57	1.9738e-05	2.0114e-05	199.59	89.469	69.076	28.571	1.9987e-05	40.177	167.541	4.978	-22.791	-115.480	26.001	23.782	-116.842	-110.647	-73.280	7.890	-113.206	-109.713	-107.598	-101.251	-14.821	-104.686	-8191	255	
2257.046	1	1	0	0	0.108	0.11023	0.10657	0.17764	0.25152	0.13858	0.37102	0.092671	0.16489	0.16261	0.16461	0.074347	0.091876	0.20905	0.20958	0.098302	-3.05	-3.1083	-3.1229	-3.5792	-3.4188	-3.2896	-3.4188	-3.2271	-3.3896	-3.2896	-3.1646	-3.3229	-3.2438	-3.2708	-3.3792	-3.1667	173.730	75.193	137.156	210.971	-66.569	-90.974	59.669	127.503	0.982	-114.198	162.451	145.302	153.171	216.388	116.284	-39.662	0.00032971	0.0010708	0.00022805	537.36	7.5468e-06	4.2802e-06	531.14	159.12	5.0147e-06	1.3366e-06	194.9	88.089	66.582	28.083	4.9608e-06	39.179	0.0016275	0.0018418	0.00051632	545.94	1.9625e-05	2.0243e-05	537.24	162.35	1.9511e-05	2.0384e-05	201.32	90.029	69.34	28.747	1.9756e-05	40.234	176.819	-31.604	-37.371	-115.579	13.970	56.439	-116.651	-110.660	-8.200	150.939	-112.865	-109.506	-107.504	-101.511	-46.924	-105.055	-8191	255	
2257.142	1	1	0	0	0.18143	0.11835	0.14292	0.087973	0.14026	0.20011	0.16689	0.27165	0.12721	0.42909	0.2183	0.13367	0.20165	0.11303	0.1627	0.036405	-3.0812	-3.1833	-3.0542	-3.4854	-3.1417	-3.1875	-3.5563	-3.1604	-3.4667	-3.5938	-3.2125	-3.4667	-3.2896	-3.3271	-3.5542	-3.1917	-78.213	230.090	-107.474	161.360	215.130	-114.817	193.476	194.586	17.711	32.554	95.127	-90.313	-43.767	-120.523	52.925	85.874	0.00043798	0.00036219	1.5295e-05	537.2	3.4385e-06	7.1788e-06	525.64	159.71	1.069e-06	1.0725e-05	193.22	87.376	66.681	27.73	2.0226e-06	38.871	0.0016197	0.0018394	0.00051237	543.81	1.9833e-05	2.0136e-05	532.65	161.84	1.9412e-05	2.0242e-05	200.39	89.097	68.877	28.52	1.9752e-05	39.903	172.949	-20.780	-86.289	-115.392	70.737	25.828	-116.559	-110.923	81.488	19.607	-113.118	-110.141	-107.323	-101.416	136.932	-104.812	-8191	255	
2257.239	1	1	0	0	0.19975	0.20185	0.08671	0.088184	0.22341	0.24146	0.10184	0.037348	0.1668	0.16209	0.087739	0.038041	0.24143	0.1304	0.016379	0.060249	-2.8708	-3.3333	-3.1208	-3.4625	-3.3187	-3.3021	-3.5146	-3.1021	-3.1896	-3.3771	-2.9521	-3.475	-3.5292	-3.2604	-3.4938	-3.2687	191.361	15.169	148.002	-114.956	194.671	65.025	-38.576	143.084	59.918	71.075	148.523	132.732	129.038	-91.028	-67.480	-32.843	0.000314	0.00047947	9.1323e-05	536.89	3.7311e-06	2.8369e-06	527.84	160.21	3.0094e-06	8.064e-06	193.38	87.448	66.355	27.827	1.9784e-06	39.262	0.0016032	0.0018437	0.00051441	545.07	1.9609e-05	2.0228e-05	535.64	162.14	1.9653e-05	2.0279e-05	200.18	89.539	68.998	28.68	1.9797e-05	40.259	165.715	-126.080	23.851	-115.582	34.664	-49.894	-116.658	-110.850	-27.836	19.604	-112.746	-109.678	-107.542	-101.699	7.574	-104.551	-8191	255	
#DATA ENDS
