BOXY.EXE: ISS Imagent and Oximeter Data Acquisition Program Version 0.80
Ascii Record File

#ACQ INFORMATION
2  Detector Channels 
16  External MUX Channels 
1  Auxiliary Channels 
5000  Waveform (CCF) Frequency (Hz)
1  Waveforms Skipped 
30  Waveforms Averaged 
1  Cycles Averaged 
16  Acquisitions per Waveform 
10.0806  Updata Rate (Hz) 

#FILE INFORMATION
TRUE -- External MUX Channel results are PARSED.
FALSE -- AC DC and Phase are NOT grouped.
TRUE -- Companion Program Settings File CREATED.
FALSE -- AC data not excluded
FALSE -- DC data not excluded
FALSE -- Phase data not excluded
FALSE -- Auxillary Chn. data not excluded
Tab delimiters

#CALIBRATION STATE
TRUE -- Waveform Calibration Values APPLIED.


#AUX CALIBRATION VALUES
Val Type	aux-1	

Term	1.0000e+00	
Factor	0.0000e+00	


#WF CALIBRATION VALUES
A = Detector Channel
Val Type	A-AC1	A-AC2	A-AC3	A-AC4	A-AC5	A-AC6	A-AC7	A-AC8	A-AC9	A-AC10	A-AC11	A-AC12	A-AC13	A-AC14	A-AC15	A-AC16	A-DC1	A-DC2	A-DC3	A-DC4	A-DC5	A-DC6	A-DC7	A-DC8	A-DC9	A-DC10	A-DC11	A-DC12	A-DC13	A-DC14	A-DC15	A-DC16	A-Ph1	A-Ph2	A-Ph3	A-Ph4	A-Ph5	A-Ph6	A-Ph7	A-Ph8	A-Ph9	A-Ph10	A-Ph11	A-Ph12	A-Ph13	A-Ph14	A-Ph15	A-Ph16	

Term	0.00000e+00	0.00000e+00	0.00000e+00	0.00000e+00	0.00000e+00	0.00000e+00	0.00000e+00	0.00000e+00	0.00000e+00	0.00000e+00	0.00000e+00	0.00000e+00	0.00000e+00	0.00000e+00	0.00000e+00	0.00000e+00	0.00000e+00	0.00000e+00	0.00000e+00	0.00000e+00	0.00000e+00	0.00000e+00	0.00000e+00	0.00000e+00	0.00000e+00	0.00000e+00	0.00000e+00	0.00000e+00	0.00000e+00	0.00000e+00	0.00000e+00	0.00000e+00	0.00000e+00	0.00000e+00	0.00000e+00	0.00000e+00	0.00000e+00	0.00000e+00	0.00000e+00	0.00000e+00	0.00000e+00	0.00000e+00	0.00000e+00	0.00000e+00	0.00000e+00	0.00000e+00	0.00000e+00	0.00000e+00	
Factor	1.00000e+00	1.00000e+00	1.00000e+00	1.00000e+00	1.00000e+00	1.00000e+00	1.00000e+00	1.00000e+00	1.00000e+00	1.00000e+00	1.00000e+00	1.00000e+00	1.00000e+00	1.00000e+00	1.00000e+00	1.00000e+00	1.00000e+00	1.00000e+00	1.00000e+00	1.00000e+00	1.00000e+00	1.00000e+00	1.00000e+00	1.00000e+00	1.00000e+00	1.00000e+00	1.00000e+00	1.00000e+00	1.00000e+00	1.00000e+00	1.00000e+00	1.00000e+00	X	X	X	X	X	X	X	X	X	X	X	X	X	X	X	X	

B = Detector Channel
Val Type	B-AC1	B-AC2	B-AC3	B-AC4	B-AC5	B-AC6	B-AC7	B-AC8	B-AC9	B-AC10	B-AC11	B-AC12	B-AC13	B-AC14	B-AC15	B-AC16	B-DC1	B-DC2	B-DC3	B-DC4	B-DC5	B-DC6	B-DC7	B-DC8	B-DC9	B-DC10	B-DC11	B-DC12	B-DC13	B-DC14	B-DC15	B-DC16	B-Ph1	B-Ph2	B-Ph3	B-Ph4	B-Ph5	B-Ph6	B-Ph7	B-Ph8	B-Ph9	B-Ph10	B-Ph11	B-Ph12	B-Ph13	B-Ph14	B-Ph15	B-Ph16	

Term	0.00000e+00	0.00000e+00	0.00000e+00	0.00000e+00	0.00000e+00	0.00000e+00	0.00000e+00	0.00000e+00	0.00000e+00	0.00000e+00	0.00000e+00	0.00000e+00	0.00000e+00	0.00000e+00	0.00000e+00	0.00000e+00	0.00000e+00	0.00000e+00	0.00000e+00	0.00000e+00	0.00000e+00	0.00000e+00	0.00000e+00	0.00000e+00	0.00000e+00	0.00000e+00	0.00000e+00	0.00000e+00	0.00000e+00	0.00000e+00	0.00000e+00	0.00000e+00	5.86631e+01	-1.56400e+02	-1.26551e+02	-1.83880e+02	-1.09246e+02	-7.56946e+01	-1.56632e+02	-1.62015e+02	-4.97451e+01	-9.07007e+01	-1.74091e+02	-1.74047e+02	-1.85978e+02	-1.78374e+02	-8.62442e+01	-1.51155e+02	
Factor	5.26311e-05	1.61735e-04	4.04003e-05	1.79766e-01	1.77941e-06	1.50208e-06	1.73528e-01	5.90053e-02	1.98371e-06	1.52351e-06	1.02683e-01	2.97751e-02	5.44086e-02	8.92468e-03	1.82445e-06	1.29180e-02	1.91554e-06	2.01426e-06	5.61593e-07	8.71805e-02	2.19587e-08	2.21199e-08	7.97260e-02	2.86352e-02	2.18545e-08	2.20121e-08	4.81154e-02	1.39628e-02	2.54592e-02	4.34647e-03	2.18729e-08	6.10577e-03	X	X	X	X	X	X	X	X	X	X	X	X	X	X	X	X	



#DISTANCE SETTINGS
A = Detector Channel
A-1	A-2	A-3	A-4	A-5	A-6	A-7	A-8	A-9	A-10	A-11	A-12	A-13	A-14	A-15	A-16	

2.5000e+00	3.0000e+00	2.5000e+00	3.0000e+00	2.0000e+00	3.0000e+00	1.5000e+00	3.0000e+00	3.0000e+00	3.0000e+00	3.0000e+00	3.0000e+00	3.0000e+00	3.0000e+00	1.5000e+00	3.0000e+00	

B = Detector Channel
B-1	B-2	B-3	B-4	B-5	B-6	B-7	B-8	B-9	B-10	B-11	B-12	B-13	B-14	B-15	B-16	

1.0000e+01	1.0000e+01	1.0000e+01	1.4400e+00	1.0000e+01	1.0000e+01	1.5100e+00	1.9400e+00	1.0000e+01	1.0000e+01	1.9900e+00	2.4900e+00	2.4100e+00	2.9000e+00	1.0000e+01	2.9800e+00	




#DATA BEGINS
time	group	step	mark	flag	A-AC1	A-AC2	A-AC3	A-AC4	A-AC5	A-AC6	A-AC7	A-AC8	A-AC9	A-AC10	A-AC11	A-AC12	A-AC13	A-AC14	A-AC15	A-AC16	A-DC1	A-DC2	A-DC3	A-DC4	A-DC5	A-DC6	A-DC7	A-DC8	A-DC9	A-DC10	A-DC11	A-DC12	A-DC13	A-DC14	A-DC15	A-DC16	A-Ph1	A-Ph2	A-Ph3	A-Ph4	A-Ph5	A-Ph6	A-Ph7	A-Ph8	A-Ph9	A-Ph10	A-Ph11	A-Ph12	A-Ph13	A-Ph14	A-Ph15	A-Ph16	B-AC1	B-AC2	B-AC3	B-AC4	B-AC5	B-AC6	B-AC7	B-AC8	B-AC9	B-AC10	B-AC11	B-AC12	B-AC13	B-AC14	B-AC15	B-AC16	B-DC1	B-DC2	B-DC3	B-DC4	B-DC5	B-DC6	B-DC7	B-DC8	B-DC9	B-DC10	B-DC11	B-DC12	B-DC13	B-DC14	B-DC15	B-DC16	B-Ph1	B-Ph2	B-Ph3	B-Ph4	B-Ph5	B-Ph6	B-Ph7	B-Ph8	B-Ph9	B-Ph10	B-Ph11	B-Ph12	B-Ph13	B-Ph14	B-Ph15	B-Ph16	aux-1	digaux	

2270.701	1	1	0	768	0.14741	0.24486	0.12429	0.14374	0.19448	0.070736	0.14876	0.12962	0.11527	0.18021	0.15876	0.11136	0.14751	0.32752	0.14032	0.24069	-3.3708	-3.4167	-4.2729	-3.3479	-3.9104	-4.375	-3.2708	-4.3958	-4.0583	-3.6	-4.6333	-3.5625	-4.0125	-4.5125	-3.1417	-4.4167	260.916	155.918	87.906	179.878	233.690	97.295	182.666	91.317	36.449	249.624	174.767	26.159	148.276	246.898	163.824	179.961	0.00098148	0.00076803	0.00029228	875.84	3.7674e-06	7.2574e-06	834.81	374.76	4.728e-06	3.2284e-06	368.77	149.65	138.05	70.874	7.849e-06	79.776	0.00071131	0.0007298	0.00018652	885.01	7.8762e-06	7.9162e-06	843.6	374.62	7.9236e-06	7.9455e-06	373.32	150.99	140.3	71.435	7.5013e-06	79.937	24.634	-83.474	-26.156	-83.975	-53.285	58.168	-86.398	-79.827	69.889	-6.100	-82.868	-79.143	-75.625	-71.282	31.697	-75.420	-8191	255	
2270.798	1	1	0	0	0.046759	0.090746	0.19237	0.14519	0.23042	0.021023	0.27378	0.17438	0.085043	0.27473	0.30732	0.3513	0.17582	0.18806	0.11481	0.13405	-3.5479	-3.4771	-4.3479	-3.5792	-3.6	-4.3313	-3.3438	-4.2479	-4.0813	-3.3875	-4.6146	-3.7396	-3.5396	-4.5687	-3.325	-4.2396	-76.832	139.812	150.050	152.171	-5.820	253.150	204.997	237.536	-72.081	211.990	241.676	155.998	189.141	-71.927	90.000	188.789	0.001036	0.0013608	0.00025812	887.77	5.8283e-06	7.4775e-06	836.61	377.28	7.2507e-06	6.8044e-06	373.55	151.8	139.62	71.242	7.5423e-06	80.48	0.00074847	0.00073016	0.00019002	892.15	8.3145e-06	7.9245e-06	843.97	378.59	8.3194e-06	7.9235e-06	377.03	152.58	141.94	71.728	7.6284e-06	80.667	29.259	-9.320	-25.803	-83.927	-11.665	49.009	-86.081	-80.001	40.194	41.741	-83.049	-79.308	-75.371	-71.372	23.537	-75.248	-8191	255	
2270.894	1	1	0	0	0.24821	0.22331	0.067456	0.12977	0.21203	0.14511	0.20894	0.12575	0.20197	0.38057	0.17575	0.089602	0.17692	0.26361	0.24827	0.26081	-3.6854	-3.275	-4.4875	-3.6958	-3.7062	-4.5938	-3.3292	-4.2792	-4.25	-3.3854	-4.3604	-3.9583	-3.5062	-4.6083	-3.4125	-3.8167	181.483	251.100	-95.434	165.968	-74.001	259.387	173.791	201.541	193.084	187.759	168.544	111.833	-66.716	245.110	49.681	206.909	0.0011533	0.00075965	0.00010991	891.86	4.7917e-06	6.8854e-06	833.51	382.03	4.9616e-06	1.0185e-05	375.29	151.77	140.49	71.7	9.2576e-06	80.817	0.00078085	0.00072572	0.00019244	899.87	8.5833e-06	7.9133e-06	843.87	383.1	8.4725e-06	8.0849e-06	379.98	153.5	143.2	72.071	7.7266e-06	81.147	26.648	-48.301	-23.647	-83.972	-34.805	1.256	-86.001	-79.824	108.164	27.700	-82.925	-79.096	-75.856	-71.120	-86.023	-75.397	-8191	255	
2270.990	1	1	0	0	0.11419	0.1604	0.091552	0.087963	0.28078	0.13376	0.075769	0.21877	0.086726	0.14114	0.17227	0.20561	0.056642	0.054919	0.10288	0.16351	-3.6208	-3.2562	-4.1438	-3.7833	-3.3333	-4.4125	-3.5833	-3.8125	-4.3979	-3.4875	-4.2188	-4.0687	-3.4938	-4.7146	-3.4208	-3.5667	-15.205	207.008	54.837	186.568	51.020	157.285	-61.436	-91.784	204.262	93.313	-21.804	184.949	-90.872	132.198	28.288	228.998	0.00073618	0.00084073	0.00024751	895.12	7.908e-06	4.1787e-06	827.83	381.07	6.1759e-06	4.6124e-06	373.73	152.02	142.46	71.442	5.3616e-06	79.834	0.00078208	0.00074246	0.00019798	908.9	8.5241e-06	8.0654e-06	837.75	384.72	8.4336e-06	8.0089e-06	378.5	153.54	144.65	71.99	8.1298e-06	80.44	28.238	-72.246	10.147	-83.990	5.353	36.487	-86.265	-79.789	58.902	65.670	-82.520	-79.161	-75.322	-71.066	91.081	-75.148	-8191	255	
2271.086	1	1	0	0	0.13255	0.11934	0.10565	0.2209	0.059616	0.086569	0.17664	0.30235	0.071118	0.23415	0.28696	0.15486	0.078353	0.077406	0.12153	0.199	-3.8812	-3.15	-4.1042	-4.075	-3.45	-4.3917	-3.6063	-3.7542	-4.4667	-3.3438	-4.4396	-4.5146	-3.4333	-4.6625	-3.9625	-3.7687	-77.518	139.282	-85.865	237.542	132.667	138.618	121.937	183.112	151.908	34.769	244.033	122.637	-20.267	-19.377	-83.374	135.994	0.0010464	0.00078666	0.00024196	903.97	3.6572e-06	3.3434e-06	820.66	382.31	8.5536e-06	9.0546e-06	372.59	151.17	143.27	71.826	4.7572e-06	79.756	0.00077057	0.00073255	0.00020908	916.93	8.4464e-06	7.9215e-06	831.43	385.71	8.2616e-06	7.935e-06	377.93	153.48	145.21	72.059	8.4227e-06	80.3	26.268	-34.989	69.289	-83.995	14.115	79.968	-85.866	-79.639	47.162	52.549	-82.754	-79.384	-75.401	-71.221	87.761	-75.187	-8191	255	
2271.182	1	1	0	0	0.2258	0.19326	0.069346	0.28745	0.1157	0.053965	0.32657	0.16107	0.034917	0.11383	0.082872	0.068959	0.082979	0.12134	0.26213	0.12941	-4.1729	-3.3438	-4.125	-4.2167	-3.2667	-4.4708	-4.025	-3.4375	-4.5687	-3.6312	-4.175	-4.5104	-3.3271	-4.4708	-3.8458	-3.7	-14.632	2.202	160.110	217.783	184.253	58.101	192.737	150.822	54.484	-34.638	200.591	260.516	161.236	202.070	207.318	219.808	0.0010598	0.00041662	0.00015721	908.5	9.861e-06	5.3669e-06	825.98	384.52	1.2072e-05	5.2712e-06	374.18	151.65	143.71	71.862	5.1878e-06	80.268	0.00075263	0.00072314	0.00021979	919.02	8.2307e-06	7.8784e-06	839.32	386.43	8.1894e-06	7.9935e-06	381.1	153.91	145.48	72.253	8.9413e-06	80.638	11.922	-62.359	-20.031	-84.243	17.443	34.279	-85.884	-79.794	61.064	-20.882	-82.364	-79.450	-75.523	-71.390	159.831	-74.981	-8191	255	
2271.303	1	1	0	0	0.10816	0.19836	0.22837	0.19473	0.131	0.1283	0.086688	0.27041	0.075283	0.058116	0.32575	0.075443	0.2026	0.30785	0.12919	0.076674	-4.1333	-3.4208	-3.9333	-4.5771	-3.3438	-4.2542	-4.3125	-3.5312	-4.5146	-3.4854	-3.7854	-4.4437	-3.2396	-4.4229	-4.4	-3.5771	-77.847	126.873	-4.685	192.965	74.519	-1.322	14.996	190.310	224.457	254.311	244.754	236.611	256.902	-66.486	119.266	258.125	0.001047	0.00066977	0.00016684	909.46	1.4805e-06	9.6843e-07	835.61	385.12	1.0433e-05	5.0333e-06	374.9	153.84	143.18	71.822	5.8364e-06	80.564	0.00075694	0.00074344	0.00022909	919.25	8.2892e-06	8.2413e-06	846.68	387.81	8.1215e-06	8.3112e-06	383.37	154.99	145.35	72.478	9.0834e-06	80.967	16.276	-40.205	-2.314	-83.704	43.380	6.925	-85.951	-79.694	-2.744	6.300	-82.819	-79.051	-75.459	-71.079	62.776	-75.417	-8191	255	
2271.399	1	1	0	0	0.11241	0.18121	0.2667	0.1361	0.22741	0.13012	0.11602	0.21856	0.058014	0.045945	0.13674	0.1838	0.081455	0.34829	0.083929	0.11209	-4.2292	-3.5979	-3.6729	-4.5604	-3.4771	-4.2375	-4.3646	-3.5271	-4.5125	-3.8417	-3.6229	-4.5396	-3.2479	-4.1312	-4.2312	-3.3729	197.943	228.985	-45.401	112.845	174.958	177.980	210.359	206.383	-74.261	207.648	-32.309	101.831	-77.907	251.507	250.889	142.674	0.00087269	0.00096683	5.6673e-05	904.34	3.3372e-06	4.2163e-06	835.31	384.04	4.4796e-06	8.9589e-06	374.5	152.02	142.5	71.834	8.0771e-06	80.136	0.00074221	0.00077607	0.0002319	916.79	8.0828e-06	8.4601e-06	846.16	384.74	7.8749e-06	8.4516e-06	380.89	153.59	143.75	72.346	8.6429e-06	80.285	31.976	-82.961	46.019	-83.731	177.418	115.537	-86.025	-79.869	67.728	80.458	-82.592	-79.047	-75.047	-71.483	58.174	-75.387	-8191	255	
2271.495	1	1	0	0	0.059561	0.16664	0.11993	0.38202	0.19983	0.036662	0.091916	0.14038	0.17019	0.10915	0.24678	0.23124	0.11419	0.31478	0.18024	0.20367	-4.075	-3.7917	-3.4729	-4.4958	-3.5354	-3.7271	-4.3354	-3.4188	-4.2083	-4.0771	-3.3792	-4.475	-3.6042	-3.9354	-4.475	-3.4417	174.905	200.434	110.448	-59.229	112.944	-18.440	240.842	194.092	5.293	253.997	237.276	194.755	29.877	169.927	47.634	223.574	0.00096827	0.00092339	0.00018334	898.37	1.2331e-05	3.3514e-06	826.42	379.84	9.7347e-06	2.6179e-06	371.85	152.01	141.21	71.683	3.3229e-06	79.742	0.00071518	0.00078359	0.00021878	907.68	7.8226e-06	8.6453e-06	841.35	381.58	7.7881e-06	8.6364e-06	377.16	152.69	143.06	72.269	8.2766e-06	80.126	15.299	-0.211	-21.623	-83.583	44.387	-18.679	-86.113	-79.930	22.224	121.697	-82.995	-79.219	-75.430	-71.042	0.173	-75.435	-8191	255	
2271.591	1	1	0	0	0.16986	0.19337	0.0983	0.21122	0.34656	0.033684	0.10304	0.27919	0.12602	0.14382	0.19886	0.20174	0.39081	0.2361	0.030974	0.26538	-3.7083	-4.125	-3.3729	-4.6729	-3.6792	-3.7479	-4.4729	-3.1854	-3.9771	-4.0479	-3.1229	-4.4292	-3.6396	-3.8625	-4.5083	-3.5979	-24.728	-79.835	183.063	204.812	-62.595	-58.091	32.788	233.763	249.575	146.680	195.674	221.785	169.434	-94.770	40.886	208.378	0.00094499	0.0011195	0.00031517	898.61	1.0143e-05	7.9521e-06	828.95	379.21	5.2929e-06	9.2113e-06	370.12	151.3	139.87	71.426	5.9856e-06	79.35	0.00073698	0.00080474	0.00021272	908.38	8.1382e-06	8.9351e-06	839.73	380.59	8.218e-06	8.8638e-06	375.85	152.52	143.22	72.002	8.3018e-06	79.857	18.275	0.150	-13.770	-83.741	-73.012	36.241	-86.253	-79.795	-3.936	1.125	-82.609	-79.265	-75.814	-71.069	24.800	-75.347	-8191	255	
2271.686	1	1	0	0	0.098877	0.1454	0.11907	0.051488	0.15507	0.15799	0.12866	0.14323	0.18039	0.17415	0.050977	0.050751	0.18014	0.25081	0.14846	0.043608	-3.6854	-4.3625	-3.4375	-4.4729	-3.8563	-3.6646	-4.6229	-3.5062	-3.7625	-4.0813	-3.225	-4.4437	-4.1042	-3.6875	-4.5229	-3.8563	79.255	-68.310	49.263	-35.970	-81.492	251.711	-45.817	-41.724	51.208	-80.243	211.706	-48.243	212.613	-94.448	-0.459	-10.853	0.00074492	0.0012978	0.00025006	906.31	2.8956e-06	2.1486e-06	834.12	377.43	3.1608e-06	6.9941e-06	371.34	151.32	140.23	71.46	6.3099e-06	79.954	0.00078301	0.0008189	0.00021404	913.23	8.6575e-06	8.863e-06	843.06	379.53	8.7322e-06	8.8237e-06	375.97	152.31	143.44	71.943	8.158e-06	80.215	6.150	-65.279	-73.361	-83.899	32.994	105.342	-85.850	-79.574	190.739	5.534	-82.944	-79.080	-75.331	-71.216	-1.115	-75.308	-8191	255	
2271.782	1	1	0	0	0.036594	0.1938	0.12379	0.17134	0.060564	0.042908	0.029767	0.05917	0.087469	0.086053	0.087201	0.029328	0.25816	0.38016	0.10962	0.19772	-3.5333	-4.3021	-3.1813	-4.125	-3.8729	-3.275	-4.5104	-3.8083	-3.7104	-4.5354	-3.3563	-4.3729	-4.2	-3.6146	-4.6	-3.9167	59.349	229.134	240.709	167.780	163.204	204.524	159.882	194.241	75.918	150.533	218.409	-91.619	210.999	239.868	70.994	162.841	0.0010816	0.00082483	0.00012642	908.82	6.9689e-06	5.0001e-06	832.72	376.68	2.2045e-06	5.1513e-06	369.23	150.57	140.23	71.299	1.0415e-05	79.357	0.00082048	0.00078472	0.00020652	914.38	8.9483e-06	8.5513e-06	840.69	379.05	8.8258e-06	8.3181e-06	373.84	152.15	143.25	71.721	7.7698e-06	79.829	10.133	-69.086	7.429	-83.587	-12.351	58.004	-86.000	-79.820	163.440	-32.434	-82.752	-79.134	-75.709	-71.439	17.389	-75.370	-8191	255	
2271.902	1	1	0	0	0.18507	0.028957	0.18809	0.17891	0.18982	0.10331	0.20501	0.36216	0.13973	0.12708	0.3288	0.2152	0.36746	0.23625	0.14589	0.15087	-3.3625	-4.4375	-3.3417	-4.1896	-4.1	-3.4313	-4.4833	-3.8417	-3.6833	-4.4563	-3.5125	-4.0896	-4.4729	-3.5812	-4.5292	-4.0479	-67.462	-28.240	27.799	184.959	61.640	158.744	-12.538	224.865	132.455	44.840	186.163	211.856	207.967	-74.121	-3.118	237.146	0.0010541	0.00026165	0.00012761	900.13	2.935e-06	1.0002e-05	825.41	378.24	5.183e-06	9.3997e-06	365.76	150.19	140.51	71.112	7.2654e-06	79.256	0.00080449	0.00074706	0.00019907	910.88	8.6477e-06	8.0976e-06	834.16	379.89	8.5385e-06	7.9669e-06	371.8	151.57	143.17	71.493	7.3933e-06	79.547	27.228	-37.408	135.032	-83.930	253.085	49.762	-85.988	-79.884	21.184	45.261	-82.510	-79.066	-75.807	-71.265	-8.529	-75.424	-8191	255	
2271.999	1	1	0	0	0.20743	0.18152	0.058326	0.16344	0.15045	0.090311	0.091092	0.20785	0.24016	0.049612	0.14108	0.014078	0.17539	0.095243	0.22866	0.047449	-3.3083	-4.4792	-3.3521	-4.0687	-4.2479	-3.3167	-4.2542	-4.1521	-3.4333	-4.4083	-3.525	-3.9	-4.35	-3.5604	-4.1771	-4.2542	-55.310	-22.375	212.274	157.396	159.740	95.537	234.459	232.390	62.860	194.776	-58.255	230.781	7.230	186.309	134.879	-93.984	0.0010392	0.001038	7.2469e-05	900.9	6.9564e-06	9.672e-06	827.8	379.02	8.1532e-06	6.3282e-06	369.34	151.34	141.2	71.29	3.3731e-06	79.699	0.00076057	0.0007061	0.00019338	912.42	8.2249e-06	7.8199e-06	835.84	381.26	8.1777e-06	7.7088e-06	374.33	152.74	143.07	71.639	7.5888e-06	80.088	25.419	-91.711	-51.986	-83.868	-59.564	49.870	-85.938	-79.729	47.312	48.588	-82.927	-79.161	-75.576	-71.234	249.430	-75.309	-8191	255	
2272.095	1	1	0	0	0.077679	0.19618	0.24666	0.14114	0.10756	0.17922	0.20471	0.11746	0.089826	0.14409	0.19492	0.28444	0.082024	0.31897	0.079256	0.29583	-2.8167	-4.3354	-3.4333	-4.0917	-4.5021	-3.375	-4.3896	-4.2167	-3.4146	-4.4271	-3.4833	-3.5729	-4.3208	-3.5042	-4.0188	-4.1833	34.735	-69.700	149.344	-73.916	86.381	92.534	182.545	18.547	187.898	-18.482	129.950	215.802	-42.302	-69.725	51.283	207.136	0.0010474	0.00063354	6.5246e-05	899.23	3.2043e-06	1.424e-05	834.78	378.51	4.352e-06	9.1143e-06	371.15	151.75	140.81	71.248	6.9555e-06	79.906	0.00074405	0.00069403	0.00019957	914.07	8.0408e-06	7.7261e-06	843.84	381.32	8.0014e-06	7.6481e-06	376.68	153.61	142.6	71.673	8.1197e-06	80.395	24.060	-44.466	-43.900	-83.909	-7.844	19.620	-85.966	-79.641	70.885	-11.409	-82.667	-79.120	-75.436	-71.202	189.734	-75.378	-8191	255	
2272.191	1	1	0	0	0.24553	0.207	0.026273	0.21973	0.18703	0.040397	0.21585	0.16612	0.21821	0.035482	0.20938	0.0987	0.25501	0.12992	0.10685	0.12115	-2.9208	-4.3958	-3.5896	-3.6958	-4.5458	-3.2979	-4.1125	-4.3979	-3.1458	-4.4146	-3.8563	-3.4792	-4.5292	-3.4646	-3.9958	-4.3438	-56.646	-79.750	179.621	222.506	139.506	28.040	180.812	250.469	-54.303	83.700	234.843	168.907	148.707	247.203	32.227	196.433	0.00078269	0.00095502	0.00021636	902.74	8.4292e-06	2.0891e-06	837.39	379.13	1.8323e-06	8.2868e-06	372.95	151.86	141.06	71.363	5.1711e-06	79.706	0.00073866	0.00069123	0.00020957	914.17	7.8241e-06	7.61e-06	847.01	381.32	7.8407e-06	7.4575e-06	377.88	153.26	142.5	71.698	8.349e-06	80.041	16.628	-28.761	73.214	-83.889	11.381	196.208	-86.130	-79.852	111.181	14.657	-82.688	-79.206	-75.897	-71.132	50.859	-75.255	-8191	255	
2272.263	1	1	0	0	0.18419	0.12878	0.16778	0.12268	0.16472	0.25353	0.030725	0.33405	0.22039	0.016106	0.12429	0.22812	0.12455	0.11315	0.24419	0.10652	-2.5042	-4.0563	-3.7375	-3.4042	-4.4771	-3.7292	-4.0667	-4.475	-3.2958	-4.2646	-4.2396	-3.5917	-4.4938	-3.7646	-3.8292	-4.4396	-31.724	202.221	193.165	146.721	244.121	-10.469	-90.921	239.311	-64.344	205.305	179.228	156.507	261.288	119.574	45.996	122.314	0.0008501	0.00044749	0.00012969	905.93	3.1613e-06	5.9992e-06	829.95	375.75	7.727e-06	7.3424e-06	365.35	150.45	139.77	71.23	4.2869e-06	79.34	0.00071594	0.00068498	0.00021566	910.59	7.667e-06	7.6786e-06	841.11	377.52	7.6962e-06	7.6337e-06	372.98	151.65	141.36	71.513	8.3877e-06	79.568	32.585	41.082	91.224	-83.714	87.150	62.175	-85.838	-79.823	40.863	85.496	-82.476	-78.880	-75.209	-71.169	248.526	-75.438	-8191	255	
2272.383	1	1	0	0	0.13271	0.11608	0.27021	0.26502	0.069496	0.18372	0.17905	0.25617	0.055918	0.14778	0.30122	0.21534	0.17326	0.11738	0.089079	0.139	-2.9042	-4.1333	-4.2104	-3.375	-4.4292	-3.65	-3.5646	-4.4354	-3.2729	-3.9833	-4.0354	-3.1917	-4.3917	-3.9313	-3.4292	-4.7417	242.744	-1.532	191.917	155.610	224.700	8.422	256.260	-89.911	46.529	96.921	204.461	192.999	69.806	238.164	-1.394	-76.575	0.00111	0.00040191	0.00033986	899.42	9.3228e-07	4.7986e-06	827.45	375.95	6.3716e-06	6.0291e-06	368.6	151.11	139.59	71.096	3.1861e-06	79.392	0.00070272	0.00072279	0.00021962	909.19	7.5838e-06	8.061e-06	839.77	377.42	7.6302e-06	8.172e-06	374.08	151.56	141.11	71.501	8.5535e-06	79.606	18.545	260.904	-6.819	-83.861	107.521	93.341	-86.194	-79.763	56.930	-8.213	-82.665	-79.192	-75.717	-71.361	142.311	-75.491	-8191	255	
2272.479	1	1	0	0	0.2878	0.1691	0.10178	0.062128	0.063308	0.1391	0.098605	0.15149	0.087953	0.12034	0.15528	0.32293	0.17423	0.21252	0.12359	0.24752	-2.8208	-3.7354	-4.0208	-3.2479	-4.2208	-3.8708	-3.5375	-4.5708	-3.4271	-3.7979	-4.25	-3.3063	-4.0854	-3.9792	-3.2375	-4.4021	91.000	163.953	-73.259	160.545	-13.513	-86.677	-60.213	194.323	171.918	-6.808	-62.578	-73.207	-96.211	-79.871	127.015	152.729	0.00093859	0.00030527	0.00016733	895.7	7.714e-06	3.0533e-06	834.09	376.05	3.6519e-06	7.4911e-06	369.12	151.61	139.98	71.205	9.3875e-06	79.477	0.00070548	0.00076656	0.00021637	908.17	7.5351e-06	8.4985e-06	843.28	378.11	7.6385e-06	8.4685e-06	375.32	152.42	141.49	71.745	8.1413e-06	79.82	16.996	-63.060	42.343	-83.866	-2.724	16.979	-85.997	-79.684	94.695	102.526	-82.884	-78.920	-75.599	-71.362	31.006	-75.400	-8191	255	
2272.575	1	1	0	0	0.33473	0.094884	0.20289	0.16072	0.25592	0.23166	0.13227	0.12442	0.090454	0.25983	0.11176	0.19504	0.10987	0.26923	0.18622	0.35344	-3.0854	-3.5438	-4.2188	-3.2229	-4.0771	-3.9417	-3.4771	-4.6125	-3.5979	-3.5583	-4.4542	-3.3354	-4.0396	-4.3729	-3.425	-4.6292	162.030	-59.977	18.082	-87.635	95.531	16.647	-62.687	7.947	199.985	-91.584	169.787	125.066	186.634	180.225	50.193	215.648	0.00082381	0.0015397	0.00024777	894.47	6.0434e-06	3.5966e-06	838.03	378.11	2.8443e-06	6.1745e-06	370.53	151.65	140.05	71.162	1.1855e-05	79.482	0.00070699	0.0007864	0.00020413	903.76	7.7305e-06	8.503e-06	847.57	378.18	7.7514e-06	8.3728e-06	376.36	152.64	141.45	71.663	7.7465e-06	79.603	20.826	-33.117	-22.341	-83.805	108.902	105.229	-86.153	-79.984	101.431	39.777	-82.609	-79.075	-75.507	-71.131	-0.841	-75.073	-8191	255	
2272.694	1	1	0	0	0.10897	0.10598	0.14725	0.28517	0.10578	0.12396	0.26262	0.21211	0.079118	0.23747	0.096788	0.20474	0.12377	0.15786	0.26706	0.30061	-3.4333	-3.6229	-4.6188	-3.575	-4.0979	-4.375	-3.5333	-4.5917	-3.9938	-3.6188	-4.625	-3.6167	-4.2167	-4.5563	-3.4104	-4.4062	227.313	146.639	160.377	234.260	-46.908	39.603	192.404	168.607	228.145	-51.101	-91.370	207.898	255.932	174.992	59.962	210.739	0.0010153	0.00079598	0.00031819	892.24	7.6785e-06	5.5463e-06	831.36	373.59	5.473e-06	6.7052e-06	369.26	149.67	139.03	70.764	1.4282e-05	78.806	0.00072916	0.00076767	0.0001966	898.28	7.9728e-06	8.3198e-06	840.73	374.71	8.0456e-06	8.1735e-06	372.07	150.54	141.02	71.215	7.4995e-06	78.97	19.899	-21.123	42.263	-83.958	95.619	37.471	-86.119	-79.770	-63.658	38.184	-83.021	-78.856	-75.614	-71.171	22.795	-75.375	-8191	255	
2272.791	1	1	0	0	0.2007	0.25209	0.36232	0.1858	0.33007	0.14597	0.32726	0.3915	0.14658	0.079887	0.27063	0.10234	0.16673	0.15823	0.13462	0.14181	-3.5187	-3.5062	-4.5417	-3.5833	-3.9125	-4.5188	-3.35	-4.2854	-4.0708	-3.4083	-4.5229	-3.7583	-3.5938	-4.5375	-3.2042	-4.1312	192.663	244.828	-12.855	234.345	98.128	-87.696	171.044	-88.446	-60.178	164.904	146.002	198.529	-93.571	204.680	49.248	216.533	0.00086232	0.00080362	0.00010137	889.35	4.7358e-06	5.0997e-06	830.95	373.13	4.3621e-06	4.9325e-06	369.99	150.11	138.89	70.609	8.875e-06	78.484	0.00075246	0.00074088	0.00019217	894.71	8.2023e-06	7.9176e-06	839.19	374.36	8.2085e-06	7.8822e-06	372.02	151.04	140.82	71.006	7.4236e-06	78.987	18.075	-76.424	11.028	-83.842	-1.008	-5.620	-86.438	-79.793	47.490	44.793	-82.842	-79.333	-75.517	-71.093	12.149	-75.424	-8191	255	
2272.864	1	1	0	0	0.21508	0.11226	0.15105	0.28688	0.1166	0.16552	0.26011	0.40265	0.079235	0.11564	0.19167	0.04861	0.16963	0.14523	0.025024	0.21028	-3.7958	-3.1396	-4.4646	-3.5854	-3.4917	-4.3562	-3.4042	-4.1333	-4.0021	-3.0208	-4.5229	-3.9021	-3.6375	-4.6708	-3.4437	-4.0708	215.284	-63.346	254.861	-88.952	160.311	-83.927	252.379	245.287	57.558	111.474	177.096	104.362	-84.430	-76.557	256.565	208.261	0.00075458	0.0011128	0.00021563	883.01	9.6753e-06	6.0571e-06	832.95	374.14	1.4073e-05	5.1239e-06	367.78	150.18	138.43	70.534	4.6201e-06	78.997	0.00075586	0.00070867	0.00018724	891.3	8.2468e-06	7.641e-06	842.36	374.29	8.1164e-06	7.5592e-06	372.87	151.68	140.39	70.869	7.2287e-06	79.201	25.910	-16.407	-6.859	-83.982	-2.011	20.202	-86.246	-80.026	81.323	34.559	-82.732	-78.954	-75.494	-71.256	-14.668	-75.240	-8191	255	
2272.983	1	1	0	0	0.21445	0.15211	0.1127	0.18322	0.22831	0.20817	0.22823	0.23054	0.11512	0.070474	0.23915	0.23629	0.11555	0.18209	0.17587	0.091565	-3.8792	-3.175	-4.0479	-3.6937	-3.4604	-4.4917	-3.4729	-4.1333	-4.4208	-3.5312	-4.5083	-4.0042	-3.55	-4.7562	-3.6396	-4.1292	145.733	-20.707	-31.646	130.200	9.804	-23.068	214.616	249.933	33.480	10.561	225.515	218.208	143.528	-55.282	126.794	-92.864	0.00098157	0.001132	8.8834e-05	880.37	1.5249e-06	2.3164e-06	839.63	372.7	6.305e-06	5.7013e-06	372.5	150.17	137.34	70.345	1.1857e-05	78.638	0.00073536	0.00069327	0.00018454	889.31	8.0538e-06	7.5755e-06	843.63	373.89	7.8816e-06	7.3594e-06	373.32	151.8	139.74	70.737	7.2165e-06	79.096	3.853	-19.744	1.641	-83.926	29.099	30.200	-86.246	-79.799	22.751	-10.978	-82.821	-79.216	-75.555	-71.231	20.459	-75.238	-8191	255	
2273.079	1	1	0	0	0.17676	0.16718	0.12893	0.088394	0.080526	0.15459	0.31184	0.26533	0.15931	0.13199	0.13631	0.12039	0.16198	0.31351	0.28948	0.22594	-3.9583	-3.2	-4.1271	-4.0792	-3.3438	-4.4792	-3.7188	-3.8354	-4.3792	-3.4042	-4.2562	-4.3396	-3.3479	-4.6188	-3.6208	-3.7708	210.712	26.912	206.342	-86.139	-1.666	49.405	174.322	183.506	7.360	94.702	217.674	12.215	-21.998	251.778	51.476	249.765	0.0010397	0.00050857	0.0002387	881.79	1.0412e-05	6.7694e-06	833.94	372.13	3.7352e-06	3.928e-06	369.06	149.26	137.1	69.998	4.7351e-06	77.939	0.0007007	0.00066872	0.0001832	891.07	7.5694e-06	7.114e-06	839.91	373.29	7.3441e-06	7.0285e-06	370.68	150.46	138.68	70.235	7.2065e-06	78.3	21.502	-23.059	-21.813	-83.786	48.650	20.886	-86.496	-80.103	132.518	12.360	-83.006	-79.376	-75.611	-71.342	33.002	-75.341	-8191	255	
2273.175	1	1	0	0	0.33574	0.099799	0.26043	0.19378	0.21764	0.096804	0.15185	0.081454	0.087132	0.19323	0.010707	0.18332	0.12709	0.23819	0.055046	0.071087	-4.1167	-3.3833	-3.9813	-4.2083	-3.2104	-4.2604	-3.7313	-3.6917	-4.3458	-3.3417	-4.0479	-4.4375	-3.4875	-4.4792	-3.9167	-3.6667	152.296	83.001	249.387	227.064	187.151	212.561	122.138	242.980	17.455	227.648	114.642	228.369	189.142	242.693	54.180	67.550	0.0010444	0.00098461	7.4161e-05	883.06	1.0035e-05	3.5285e-06	829.53	371.87	8.5942e-06	6.4395e-06	367.95	149.35	137.6	69.878	4.2363e-06	77.962	0.0006588	0.00063056	0.0001859	887.59	7.1056e-06	6.6853e-06	838.58	372.58	6.958e-06	6.7052e-06	371.18	150.22	138.19	70.117	7.4355e-06	78.325	30.660	-73.103	16.104	-84.107	5.237	-58.373	-86.083	-79.928	34.140	114.146	-82.689	-79.063	-75.368	-71.113	15.540	-75.142	-8191	255	
2273.296	1	1	0	0	0.1506	0.31922	0.18469	0.053618	0.13404	0.082909	0.042082	0.14749	0.16299	0.15519	0.16702	0.23835	0.14112	0.098876	0.23624	0.17022	-4.1271	-3.3375	-3.8021	-4.2646	-3.0854	-4.1479	-3.9417	-3.3708	-4.4396	-3.5958	-3.7313	-4.3021	-3.2583	-4.2375	-3.9375	-3.5042	27.658	65.774	111.822	94.397	261.488	204.327	218.536	227.999	4.104	21.752	247.256	239.048	231.642	-59.555	70.299	124.823	0.00083447	0.00028179	0.0001135	881.05	1.5679e-06	4.1291e-06	831.98	371.18	1.0047e-05	3.5844e-06	368.97	150.33	137.68	70.126	1.0298e-06	78.653	0.00062546	0.00060949	0.00018893	885.25	6.7267e-06	6.6338e-06	840.83	371.96	6.6503e-06	6.6579e-06	372.98	150.74	138.37	70.369	7.5179e-06	78.716	22.950	76.861	-46.282	-83.959	-57.548	72.054	-86.294	-80.045	41.451	-13.620	-83.056	-79.398	-75.573	-71.279	-53.109	-75.406	-8191	255	
2273.392	1	1	0	0	0.16223	0.16146	0.15733	0.1448	0.22787	0.1553	0.27792	0.20257	0.17803	0.10797	0.14587	0.099372	0.08997	0.18624	0.095204	0.10536	-3.9688	-3.6875	-3.7687	-4.5021	-3.3208	-4.0958	-4.125	-3.5271	-4.5208	-3.8229	-3.675	-4.5896	-3.3438	-4.2104	-4.1208	-3.4771	-94.640	106.271	-22.911	197.383	248.152	113.435	177.713	233.391	194.296	232.749	76.219	118.263	-35.624	-94.931	219.771	259.958	0.00095531	0.00082289	0.00016074	878.46	1.0381e-05	2.6324e-06	841.67	374.29	8.4134e-06	4.6621e-06	373.46	150.88	139.12	70.48	6.5936e-06	79.057	0.00062163	0.00063474	0.00019448	885.81	6.7886e-06	7.1381e-06	847.06	374.2	6.6633e-06	7.1274e-06	377.65	151.67	139.15	70.696	7.5992e-06	79.077	26.471	-23.309	-54.777	-84.002	6.475	-1.379	-86.318	-80.012	29.509	9.783	-82.876	-79.238	-75.663	-71.465	2.255	-74.968	-8191	255	
2273.486	1	1	0	0	0.17826	0.18789	0.089085	0.15009	0.05297	0.082814	0.087805	0.064626	0.2644	0.13015	0.27397	0.30317	0.012968	0.46507	0.15088	0.033589	-4.1708	-3.8229	-3.5646	-4.5958	-3.4	-4.0333	-4.2167	-3.2438	-4.1771	-3.6979	-3.4792	-4.4292	-3.6396	-3.9042	-4.5208	-3.6188	86.466	-41.102	-97.364	246.821	191.014	-36.345	187.326	146.657	176.170	176.981	233.510	203.355	54.223	227.361	-47.730	-57.357	0.00092085	0.00068242	0.00022534	875.78	7.8328e-06	6.8768e-06	835.85	372.66	9.193e-06	6.9666e-06	369.92	149.71	137.31	70.138	3.5998e-06	78.451	0.00062274	0.00068215	0.00019667	885.55	6.821e-06	7.6757e-06	842.04	373.47	6.8344e-06	7.7095e-06	373.76	150.35	138.6	70.559	7.4758e-06	78.412	20.144	-82.763	-23.226	-84.115	79.187	24.774	-86.186	-79.879	44.879	35.135	-82.714	-79.424	-75.436	-71.262	30.397	-75.068	-8191	255	
2273.560	1	1	0	0	0.19419	0.034511	0.15981	0.31135	0.15744	0.087741	0.018472	0.26928	0.18904	0.2559	0.082223	0.28209	0.063266	0.36492	0.34415	0.087208	-3.9688	-4.1438	-3.4625	-4.625	-3.5312	-3.7562	-4.4604	-3.3812	-4.0979	-4.0396	-3.3646	-4.5938	-3.6729	-3.8021	-4.4958	-3.45	-43.302	105.920	129.788	179.708	236.632	194.449	186.598	-78.238	-9.633	1.082	-5.341	213.479	234.637	-84.721	18.141	-53.326	0.0010231	8.8999e-05	0.00023384	878.31	3.2819e-06	1.2774e-05	836.86	372.19	4.3957e-06	6.636e-06	370.24	150.49	138.01	70.059	4.8983e-06	78.317	0.00065396	0.00073351	0.00019555	886.91	7.3093e-06	8.2357e-06	843.28	373.29	7.496e-06	8.2793e-06	375.17	151.11	139.63	70.668	7.7784e-06	78.595	20.299	-38.590	-16.784	-84.023	157.831	22.242	-86.224	-79.840	-27.768	14.639	-82.829	-79.146	-75.736	-71.110	57.844	-75.307	-8191	255	
2273.679	1	1	0	0	0.26767	0.21863	0.13848	0.19362	0.085295	0.12721	0.058333	0.24625	0.27305	0.08508	0.10213	0.30821	0.24369	0.14184	0.18287	0.1412	-3.6854	-4.3375	-3.3812	-4.6167	-3.8125	-3.5542	-4.6896	-3.4979	-3.7667	-4.3146	-3.2125	-4.3167	-3.8563	-3.7062	-4.5813	-3.6917	29.299	49.486	182.477	242.772	190.933	65.233	114.891	220.024	134.430	-0.967	147.364	204.866	-80.866	253.263	210.918	130.508	0.0011123	0.0014289	0.00016908	880.51	3.8728e-06	9.7862e-06	840.4	372.82	2.6686e-06	4.7246e-06	372.85	151.05	137.96	70.281	5.9973e-06	78.689	0.00072526	0.00077688	0.00020337	889.59	8.1918e-06	8.6083e-06	848.04	374.47	8.2658e-06	8.4737e-06	377.38	151.9	140.47	70.755	7.6275e-06	78.915	9.745	-20.219	36.112	-83.827	76.435	2.903	-86.111	-79.666	183.609	65.035	-82.887	-78.975	-75.697	-71.147	80.786	-75.245	-8191	255	
2273.775	1	1	0	0	0.21185	0.12473	0.20539	0.10939	0.32482	0.11721	0.17533	0.20642	0.25175	0.073989	0.39741	0.22948	0.16739	0.15805	0.23809	0.24329	-3.5312	-4.3271	-3.3	-4.2979	-3.5271	-3.3563	-4.4083	-3.5146	-3.5875	-4.2375	-3.3958	-4.4021	-4.2167	-3.5687	-4.3729	-3.5458	41.748	-48.163	71.864	-11.811	41.524	219.269	189.629	170.414	198.545	109.333	42.923	-68.914	127.539	251.148	-47.259	188.881	0.00094163	0.00058873	0.00029976	885.68	5.8575e-06	4.5246e-06	843.83	373.84	4.1655e-06	1.672e-06	374.45	151.74	138.51	70.478	3.1813e-06	78.959	0.00075773	0.00074422	0.00019763	889.63	8.221e-06	8.0722e-06	848.56	374.99	8.0898e-06	7.7036e-06	377.63	152.54	140.37	70.779	6.9966e-06	79.154	18.023	-49.034	-9.912	-84.030	5.213	78.295	-86.083	-79.899	119.381	194.432	-82.876	-79.064	-75.578	-71.272	-52.446	-75.413	-8191	255	
2273.871	1	1	0	0	0.12686	0.1338	0.20988	0.076344	0.13291	0.12342	0.11138	0.1102	0.23432	0.099362	0.072855	0.11089	0.14785	0.20977	0.19622	0.25396	-3.1937	-4.325	-3.3104	-4.2271	-4.1646	-3.4542	-4.5979	-3.8771	-3.5563	-4.6292	-3.4688	-4.3229	-4.15	-3.5521	-4.4167	-3.9188	-43.828	14.503	-33.043	153.032	42.054	11.637	100.225	219.077	-42.986	157.964	242.815	196.213	11.480	219.768	143.839	189.601	0.0010285	0.001043	0.00025872	885.27	1.0996e-05	6.9348e-06	842.25	374.17	8.0911e-06	1.0281e-05	372.1	150.64	137.74	70.423	5.0846e-06	78.744	0.00072774	0.00066177	0.00017525	888.27	7.7496e-06	7.1312e-06	844.59	374.63	7.5572e-06	6.974e-06	373.74	151.5	139.48	70.483	6.4371e-06	78.719	25.036	-56.054	-39.017	-83.747	-1.114	45.922	-86.292	-79.912	35.430	6.132	-82.949	-79.346	-75.483	-71.081	-55.894	-75.285	-8191	255	
2273.967	1	1	0	0	0.26178	0.26759	0.075625	0.1856	0.074816	0.056603	0.35337	0.068061	0.063415	0.040365	0.047674	0.26333	0.14237	0.24319	0.188	0.055802	-3.2188	-4.4583	-3.3604	-4.2125	-4.2917	-3.3667	-4.5042	-4.0875	-3.5312	-4.5771	-3.4875	-4.05	-4.3667	-3.4354	-4.1896	-3.9375	252.526	61.065	104.295	257.389	-23.228	-55.870	193.731	22.349	65.603	-49.511	239.081	227.864	166.233	249.964	242.608	-93.954	0.0010149	0.00091086	0.00021474	878.45	1.0714e-05	1.4392e-05	834.75	372.86	4.6568e-06	7.4857e-06	370.88	150.92	138.01	70.816	2.0748e-06	79.326	0.00068279	0.00061115	0.00016478	886.1	7.2524e-06	6.7298e-06	837.58	374.42	7.2455e-06	6.6454e-06	372.14	151.66	139.44	70.75	6.4574e-06	79.247	23.053	-36.913	-38.356	-83.986	6.814	75.173	-86.232	-79.801	-6.490	7.763	-82.868	-79.053	-75.398	-71.367	80.668	-75.377	-8191	255	
2274.088	1	1	0	0	0.13628	0.17483	0.14596	0.12901	0.17384	0.28665	0.029925	0.12129	0.19155	0.1127	0.10163	0.38024	0.25686	0.19101	0.12878	0.17608	-2.8958	-4.4333	-3.7417	-3.9271	-4.3208	-3.3187	-4.3146	-4.2146	-3.1958	-4.2417	-3.6813	-3.6833	-4.3896	-3.4042	-4.1625	-4.35	-31.214	261.454	240.660	258.301	162.382	84.349	255.300	243.822	-31.433	185.622	236.602	219.973	157.650	144.364	97.947	-89.693	0.00082851	0.00082333	0.00015135	881.12	8.2688e-06	4.831e-06	836.21	374.27	1.1283e-05	9.7895e-06	372.33	151.82	138.46	70.633	7.3086e-06	79.54	0.00066672	0.00060087	0.00016959	889.4	7.0802e-06	6.6998e-06	841.25	375.26	7.0959e-06	6.5861e-06	374.5	152.33	139.2	70.728	6.8533e-06	79.616	32.018	-26.866	10.517	-83.945	-6.535	8.815	-86.161	-79.857	41.961	35.755	-82.620	-79.136	-75.483	-71.121	215.488	-75.006	-8191	255	
2274.159	1	1	0	0	0.056363	0.044124	0.19852	0.1976	0.051988	0.25804	0.17418	0.16928	0.12954	0.051761	0.077201	0.029298	0.1138	0.37687	0.17585	0.38902	-2.9896	-4.4875	-3.6896	-3.6917	-4.3604	-3.2896	-4.1479	-4.4042	-3.1708	-4.3729	-3.8146	-3.7729	-4.7083	-3.8333	-4.075	-4.5312	136.105	156.380	68.379	205.912	71.988	-93.417	141.105	177.666	-72.965	156.552	57.115	146.195	-26.097	227.446	2.344	189.940	0.00091881	0.00049595	0.00023783	879.31	2.9137e-06	9.3904e-07	842.56	376.2	5.9262e-06	5.5219e-06	376.39	152.53	139.67	70.604	4.4733e-06	79.784	0.00063101	0.00058426	0.00017708	889.67	6.7425e-06	6.4024e-06	848.24	376.4	6.7307e-06	6.3185e-06	379.02	153.46	139.78	70.729	7.0604e-06	79.714	26.580	-63.106	19.290	-83.914	-31.095	23.547	-86.227	-79.744	-27.108	45.838	-82.480	-79.078	-75.689	-71.087	1.313	-75.216	-8191	255	
2274.255	1	1	0	0	0.099259	0.095439	0.20443	0.14378	0.25533	0.1019	0.19502	0.25231	0.33181	0.02028	0.093479	0.29773	0.070583	0.34994	0.20324	0.10253	-2.9813	-4.2729	-3.6646	-3.6604	-4.4688	-3.6312	-3.8688	-4.3688	-3.2896	-4.375	-4.2146	-3.6458	-4.6396	-3.7521	-3.8083	-4.5	170.075	36.963	-60.704	-80.217	121.067	118.795	200.524	211.432	38.369	79.353	-91.847	-59.079	-44.000	199.391	215.362	-18.779	0.00097661	0.00057874	8.52e-05	885.95	1.0989e-05	1.0961e-05	842.54	376.14	9.3929e-06	3.6681e-06	374.71	151.4	138.42	70.262	2.9366e-06	78.913	0.00061336	0.00057138	0.00018232	889.05	6.3966e-06	6.2927e-06	848.09	376.02	6.3446e-06	6.2607e-06	376.56	152.1	138.67	70.518	7.1612e-06	78.928	16.354	-14.412	258.840	-84.007	24.832	10.642	-86.195	-79.881	63.334	37.441	-82.778	-79.358	-75.361	-71.172	-79.495	-75.167	-8191	255	
2274.376	1	1	0	0	0.25971	0.14978	0.22494	0.15455	0.13389	0.21706	0.22067	0.081547	0.19254	0.0612	0.14291	0.40074	0.19634	0.1908	0.094986	0.21384	-2.8979	-4.175	-4.0729	-3.6229	-4.5583	-3.4688	-3.7	-4.4208	-3.2938	-3.9521	-4.0333	-3.3104	-4.2146	-3.8646	-3.5396	-4.5854	-69.215	125.780	124.589	-90.645	136.209	225.559	234.408	-59.425	103.794	49.330	148.903	-88.415	211.782	222.985	152.438	226.979	0.00107	0.00076883	0.00026477	883.71	2.1704e-06	7.5327e-06	836.02	374.81	1.1252e-05	2.4531e-06	371.47	151.02	138.23	70.275	1.23e-05	78.727	0.00058547	0.00058544	0.00018254	884.32	6.1519e-06	6.4909e-06	842.07	373.69	6.1149e-06	6.4388e-06	374.85	151.45	138.08	70.47	6.9627e-06	78.769	17.498	-58.592	0.394	-83.806	104.134	25.258	-86.129	-79.841	61.630	67.714	-82.589	-79.045	-75.497	-71.096	-2.677	-75.198	-8191	255	
2274.472	1	1	0	0	0.14117	0.073	0.22423	0.26362	0.24766	0.037984	0.17774	0.29183	0.071258	0.057149	0.14497	0.18575	0.32006	0.25929	0.30665	0.2821	-2.9958	-3.9354	-4.3542	-3.5417	-4.4625	-3.7979	-3.6125	-4.65	-3.2854	-3.8333	-4.3667	-3.2938	-4.4458	-4.2	-3.3937	-4.6104	244.859	92.622	76.193	204.911	158.215	-89.169	178.087	177.768	-79.313	181.771	0.042	260.703	248.407	206.604	75.350	190.106	0.00091912	0.00055141	0.00027299	876.29	8.7886e-06	1.9596e-06	833.01	375.02	7.6142e-06	8.1344e-06	371.63	152.07	138.56	70.71	9.0689e-06	79.032	0.000564	0.00060929	0.00017687	883	5.9271e-06	6.7739e-06	841.72	375.19	6.0386e-06	6.833e-06	375.71	152.22	138.83	70.83	6.7256e-06	79.081	18.201	-28.270	-10.651	-83.970	21.031	-60.758	-85.995	-79.891	29.817	25.695	-82.866	-79.083	-75.502	-71.208	23.257	-75.318	-8191	255	
2274.567	1	1	0	0	0.043178	0.060813	0.028902	0.05487	0.15603	0.10959	0.19359	0.10841	0.24526	0.25104	0.1305	0.17901	0.232	0.28861	0.2845	0.21229	-2.9688	-3.5458	-4.1583	-3.1063	-3.9458	-3.8063	-3.3688	-4.2021	-3.3833	-3.525	-4.1646	-3.3229	-4.0938	-4.3021	-3.2917	-4.5979	84.038	121.631	-45.727	254.150	-53.744	-73.495	171.794	-48.046	141.000	-67.891	113.846	148.998	-20.800	-64.137	65.176	190.700	0.001075	0.00027016	0.00012083	884.6	8.1933e-06	4.5432e-06	836.95	376.6	5.6745e-06	4.3549e-06	377.58	152.37	139.9	70.403	8.4211e-06	79.909	0.00057358	0.00063306	0.00016935	885.56	6.1629e-06	7.0691e-06	843.72	376.4	6.2847e-06	7.1227e-06	378.35	152.52	139.65	70.806	6.5813e-06	79.322	18.824	30.486	-20.367	-84.228	35.969	34.259	-86.077	-79.974	105.765	40.311	-82.755	-79.112	-75.435	-71.104	62.034	-75.236	-8191	255	
2274.665	1	1	0	0	0.33113	0.1302	0.09522	0.17969	0.33223	0.14795	0.14596	0.21206	0.0937	0.082342	0.07092	0.3717	0.21802	0.15536	0.11913	0.13028	-3.2354	-3.5917	-4.3063	-3.4375	-4.0563	-4.0292	-3.35	-4.5229	-3.625	-3.5187	-4.6	-3.6063	-4.125	-4.3958	-3.2708	-4.3396	6.248	104.801	158.919	168.369	178.163	35.747	243.584	160.959	-16.676	217.125	-52.423	250.400	-32.676	236.375	-77.280	-69.578	0.00095591	0.00086001	0.00013449	886.82	6.9383e-06	1.3655e-06	841.18	376.15	6.872e-06	5.0335e-06	372.62	151.52	139.02	70.206	8.9411e-06	79.058	0.00060463	0.00065438	0.00016562	888.54	6.6679e-06	7.0733e-06	842.78	375.24	6.7673e-06	7.0617e-06	374.24	151.74	139.82	70.573	6.386e-06	78.84	9.232	-48.503	6.804	-84.060	-68.240	4.058	-86.328	-79.892	112.085	45.314	-82.742	-79.096	-75.817	-71.344	31.614	-75.099	-8191	255	
2274.759	1	1	0	0	0.14853	0.14595	0.18428	0.15389	0.24994	0.21688	0.026019	0.05883	0.072091	0.066099	0.086153	0.16306	0.10878	0.080104	0.074722	0.14755	-3.3937	-3.4	-4.4667	-3.5896	-3.925	-4.4271	-3.5042	-4.4333	-3.8458	-3.525	-4.5896	-3.7375	-3.9646	-4.4313	-3.3563	-4.4896	-56.542	143.966	51.574	254.920	-37.592	-88.242	-73.969	3.694	1.133	156.453	251.706	151.739	-32.382	-65.402	221.857	-85.743	0.00096884	0.0011336	0.00020266	886.63	5.8545e-06	5.9042e-06	830.41	373.95	1.1506e-05	1.3011e-05	370.3	150.47	138.57	70.075	4.7501e-06	78.409	0.00063769	0.00063364	0.00015991	887.36	6.9334e-06	6.812e-06	833.7	372.56	6.9518e-06	6.7255e-06	370.57	150.55	139.51	70.206	6.2618e-06	78.335	21.499	-23.512	-7.028	-83.588	24.953	39.957	-86.110	-79.847	27.611	18.175	-82.693	-78.972	-75.651	-70.967	30.555	-75.215	-8191	255	
2274.855	1	1	0	0	0.22084	0.050468	0.18483	0.26908	0.0902	0.042704	0.070044	0.26446	0.066816	0.12232	0.096273	0.043738	0.20342	0.090326	0.21353	0.13983	-3.6146	-3.5062	-4.5896	-3.5875	-3.8646	-4.5271	-3.7021	-4.2458	-4.1708	-3.2562	-4.5188	-3.8063	-3.5687	-4.65	-3.3896	-4.2646	11.660	138.232	230.255	230.018	65.937	-42.450	228.250	-77.968	124.764	-88.468	187.297	116.823	-64.813	-92.732	66.042	240.074	0.0009402	0.00061598	0.00038319	877.92	6.5195e-06	1.1847e-05	830.4	371.2	6.9978e-06	3.6535e-06	369.39	150.22	139.13	69.898	7.6161e-06	78.915	0.00066025	0.00060781	0.00015655	884.05	7.1356e-06	6.5214e-06	832.96	371.41	7.0483e-06	6.5321e-06	369.93	150.83	139.4	70.206	6.0853e-06	78.707	20.578	259.313	-5.762	-83.703	-52.264	25.951	-86.191	-79.688	71.582	70.924	-82.615	-79.035	-75.189	-71.113	13.190	-75.326	-8191	255	
2274.976	1	1	0	0	0.16207	0.12845	0.08021	0.14056	0.2307	0.21485	0.22088	0.14862	0.30239	0.084625	0.17056	0.14873	0.13691	0.19127	0.068932	0.11223	-3.8646	-3.1354	-4.3646	-3.8479	-3.6417	-4.6958	-3.5833	-3.9083	-4.225	-3.3042	-4.5188	-4.0563	-3.2979	-4.6562	-3.55	-3.9229	23.590	117.159	-33.664	214.147	254.538	-29.559	-95.746	255.015	176.141	186.960	182.838	217.415	93.065	175.170	-59.785	220.803	0.001023	0.00055187	0.00017478	881.28	6.9403e-06	4.3456e-06	835.01	373.18	6.7318e-06	5.4995e-06	371.51	151.68	138.09	70.269	5.2405e-06	79.32	0.00064855	0.00059513	0.00015403	888.17	6.9324e-06	6.2881e-06	836.45	373.41	6.8312e-06	6.3132e-06	372.05	151.96	138.85	70.388	6.0794e-06	79.396	28.786	-27.297	-51.812	-83.846	-2.162	57.272	-86.211	-79.755	34.139	43.832	-82.426	-78.864	-75.294	-71.226	78.493	-75.146	-8191	255	
2275.072	1	1	0	0	0.14287	0.24643	0.041738	0.15543	0.21046	0.10412	0.18826	0.29288	0.084732	0.12785	0.16775	0.18537	0.066049	0.16675	0.18192	0.21202	-3.7833	-3.1729	-4.2354	-4.1708	-3.35	-4.2854	-3.6292	-3.8958	-4.3625	-3.2208	-4.1521	-4.2188	-3.4688	-4.6125	-3.5625	-3.7125	43.478	233.527	-41.368	-5.327	-66.405	-86.700	-88.134	199.050	196.253	96.130	210.898	-89.973	79.368	-92.558	219.586	251.585	0.00077272	0.00025557	7.5478e-05	881.25	4.9677e-06	9.8827e-06	838.11	374.97	7.2966e-06	7.7812e-06	373.21	152.43	138.86	70.549	7.1086e-06	79.375	0.00062645	0.00057442	0.00015444	885.92	6.7113e-06	6.2044e-06	841.15	374.43	6.5159e-06	6.0992e-06	374.51	152.74	138.65	70.506	6.1924e-06	79.24	17.255	8.566	-7.396	-83.820	-11.541	22.288	-86.349	-79.809	17.211	8.763	-82.681	-78.905	-75.579	-71.140	22.882	-75.053	-8191	255	
2275.168	1	1	0	0	0.18665	0.13906	0.096104	0.099803	0.030594	0.12059	0.24619	0.083288	0.17311	0.17302	0.3391	0.38004	0.0902	0.041717	0.1019	0.20268	-3.8146	-3.2646	-3.9562	-4.1229	-3.2333	-4.2771	-3.8167	-3.6021	-4.2729	-3.3104	-4.1813	-4.2229	-3.2917	-4.2979	-3.6583	-3.6417	148.109	162.857	69.964	117.107	160.017	152.654	193.873	-57.536	93.697	119.344	194.255	176.407	246.665	199.771	118.717	261.891	0.00082619	0.00020391	7.9448e-05	879.22	2.228e-06	5.7549e-06	829.97	370.26	5.7691e-06	7.4519e-06	367.66	150.55	137.52	69.915	3.173e-06	78.769	0.00058776	0.00054655	0.00016122	884.36	6.3614e-06	5.9525e-06	836.4	371.58	6.2397e-06	5.9442e-06	370.8	151.12	137.61	70.01	6.6305e-06	78.653	35.834	45.334	140.232	-83.991	-61.341	22.453	-86.018	-79.806	1.947	8.626	-82.785	-79.161	-75.659	-71.104	115.775	-75.168	-8191	255	
2275.264	1	1	0	0	0.097133	0.10019	0.058756	0.041973	0.21224	0.13769	0.26554	0.087305	0.13568	0.31014	0.30862	0.12988	0.28577	0.18473	0.093567	0.20022	-4.0396	-3.4771	-3.7333	-4.4896	-3.1354	-4.1813	-3.85	-3.5333	-4.4667	-3.4125	-3.6646	-4.2875	-3.2208	-4.3938	-4.0458	-3.375	90.890	-78.949	-18.953	261.891	-7.566	-94.075	132.056	218.235	125.736	-81.557	242.725	237.233	-94.164	200.719	-74.513	249.872	0.0010438	0.00024733	0.00012965	881.32	4.616e-06	1.0415e-05	833.65	370.68	2.4536e-06	6.7168e-06	366.93	151.18	138.13	69.946	4.3946e-06	79.096	0.00057424	0.00054528	0.00017324	883.1	6.2042e-06	5.9868e-06	837.24	370.6	6.2278e-06	5.9966e-06	371.14	151.06	137.85	70.073	7.0719e-06	78.818	20.160	-66.223	-28.252	-83.831	-8.577	73.195	-86.174	-79.678	17.435	65.962	-82.543	-78.994	-75.442	-71.198	-28.113	-75.078	-8191	255	
2275.385	1	1	0	0	0.14941	0.10439	0.10404	0.22072	0.22296	0.23912	0.30619	0.24384	0.081638	0.2038	0.096734	0.10244	0.18139	0.14647	0.03988	0.14671	-4.1104	-3.4958	-3.6833	-4.4292	-3.3146	-3.9979	-4.2896	-3.5229	-4.3667	-3.6771	-3.9083	-4.5667	-3.1688	-4.1687	-4.2854	-3.4875	35.066	12.904	182.812	-0.096	245.806	124.874	202.672	204.492	-25.196	-61.989	-30.357	-56.782	231.086	227.565	160.922	26.088	0.0010833	0.00039568	0.00021031	877.35	7.1895e-06	6.9934e-06	836.12	370.61	7.9594e-06	9.2128e-06	368.32	151.65	138.51	70.273	6.2487e-06	79.27	0.00056798	0.00057571	0.00017789	881.82	6.174e-06	6.2632e-06	840.99	370.01	5.9621e-06	6.4083e-06	372.49	151.7	137.75	70.418	6.984e-06	79.124	20.050	19.317	-40.265	-83.932	45.283	64.714	-86.195	-79.603	57.409	27.453	-82.479	-79.115	-75.656	-70.956	24.628	-74.812	-8191	255	
2275.456	1	1	0	0	0.14947	0.07607	0.23505	0.11059	0.29547	0.20593	0.26955	0.079977	0.16429	0.08095	0.43625	0.14513	0.51742	0.2125	0.079121	0.28026	-3.8563	-3.5646	-3.4458	-4.3979	-3.3542	-4.0292	-4.3854	-3.2229	-4.25	-3.9958	-3.6375	-4.5667	-3.3521	-3.9917	-4.4625	-3.6396	-12.258	89.518	261.173	-53.958	27.182	-4.192	257.658	227.128	9.079	-89.882	247.262	117.369	-79.368	234.720	140.285	-80.813	0.00098201	0.00024671	0.00013715	881.84	3.2362e-06	4.6522e-06	839.77	370.87	9.4545e-07	4.66e-06	370.81	151.04	137.9	70.114	6.0369e-06	79.276	0.0005568	0.00060769	0.00017845	882.74	6.0407e-06	6.7283e-06	843.73	370.32	5.9095e-06	6.771e-06	373.44	151.74	138.17	70.34	6.6922e-06	78.915	10.524	56.143	72.431	-83.653	17.153	145.679	-86.217	-79.675	41.215	35.784	-82.758	-78.895	-75.268	-71.087	22.391	-75.104	-8191	255	
2275.553	1	1	0	0	0.2264	0.15465	0.16784	0.13079	0.16889	0.051463	0.10177	0.35901	0.14375	0.12538	0.073333	0.12086	0.16697	0.20846	0.14605	0.072633	-3.8729	-3.8812	-3.1937	-4.45	-3.4042	-3.9604	-4.4604	-3.3646	-4.2917	-3.9208	-3.4688	-4.6167	-3.8792	-3.9313	-4.5271	-3.3438	60.370	172.164	257.625	-35.434	-50.414	219.323	176.749	-86.127	238.983	142.333	58.695	-91.331	181.637	-82.150	106.859	254.490	0.00097574	0.00029818	0.00029735	882.59	6.3138e-06	2.3306e-06	835.06	368.97	7.6236e-06	9.8691e-06	367.95	150.24	136.51	69.821	4.8562e-06	78.96	0.0005622	0.00062426	0.00016961	882.06	6.0791e-06	6.9784e-06	837.58	367.74	6.021e-06	6.9368e-06	368.92	150.61	137.08	70.207	6.312e-06	78.453	15.104	-71.381	-4.335	-83.671	57.600	42.108	-86.034	-79.722	153.771	13.219	-82.375	-79.092	-75.489	-71.171	-40.474	-75.248	-8191	255	
2275.649	1	1	0	0	0.11935	0.046363	0.20852	0.12214	0.19222	0.13465	0.1547	0.11635	0.15364	0.21555	0.15905	0.035868	0.19543	0.26531	0.12488	0.10925	-3.9562	-4.1667	-3.1583	-4.6813	-3.925	-3.6271	-4.4271	-3.5521	-4.1771	-4.1917	-3.4021	-4.6917	-4.0437	-3.6479	-4.5417	-3.6708	60.727	-33.176	259.825	-52.163	100.414	56.427	233.870	9.789	-30.760	-28.962	170.981	75.750	70.970	237.111	191.001	246.353	0.00107	0.0006001	0.00024728	877.63	5.1208e-06	1.1718e-05	832.79	370.02	4.953e-06	9.8046e-06	367.89	150.85	138.1	69.988	7.1212e-06	78.592	0.00057224	0.00062726	0.00016258	879.56	6.3377e-06	6.8645e-06	834.98	368.54	6.3831e-06	6.8059e-06	369.09	150.56	138.24	70.212	6.0204e-06	78.517	29.412	1.517	-11.512	-83.746	-1.572	74.816	-85.972	-79.614	165.889	0.155	-82.669	-78.897	-75.402	-71.046	49.464	-75.227	-8191	255	
2275.768	1	1	0	0	0.21483	0.17327	0.035417	0.22887	0.27791	0.12602	0.15749	0.072441	0.13604	0.1207	0.19034	0.096234	0.23111	0.59402	0.26144	0.21682	-3.6188	-4.3146	-3.1437	-4.3708	-4.0583	-3.6396	-4.5563	-3.4188	-3.9062	-4.4812	-3.4146	-4.3104	-3.9021	-3.6688	-4.3229	-3.6917	198.460	115.059	12.865	-56.054	213.604	-12.953	191.500	241.064	-27.473	255.012	-7.682	-60.353	190.848	222.827	185.377	206.272	0.0010411	0.00057021	0.00028079	878.11	1.292e-06	9.317e-06	838.99	371.14	1.7196e-06	1.6384e-06	372.82	150.92	136.56	69.999	1.4446e-06	79.002	0.00060631	0.00060531	0.00015417	880.59	6.6415e-06	6.6719e-06	839.43	370.13	6.6842e-06	6.4709e-06	372.61	151.27	138.49	70.147	5.9767e-06	78.685	22.397	-23.423	-15.205	-83.918	183.013	41.740	-86.036	-79.650	66.673	-60.066	-82.796	-78.942	-75.659	-71.225	-26.420	-75.168	-8191	255	
2275.864	1	1	0	0	0.2427	0.086742	0.24141	0.15202	0.069908	0.14225	0.16471	0.43396	0.12725	0.28249	0.10681	0.020127	0.062018	0.26097	0.2361	0.20395	-3.4833	-4.4938	-3.2896	-4.2438	-4.175	-3.3104	-4.625	-3.6021	-3.5708	-4.3271	-3.2042	-4.45	-4.1792	-3.3896	-4.1979	-3.5792	259.543	176.833	257.559	22.099	-34.468	37.057	10.226	138.740	-85.042	105.409	224.198	185.730	133.581	249.807	-46.941	235.599	0.0010535	0.0011246	0.00015228	879.63	7.2789e-06	2.7273e-06	844.97	373.08	5.7714e-06	7.8073e-06	373.67	151.94	138.98	70.224	7.4905e-07	79.371	0.00063735	0.00058791	0.00015368	880.3	6.855e-06	6.324e-06	843.63	371.49	6.8246e-06	6.216e-06	374.16	152.69	139.42	70.378	5.8185e-06	79.153	21.649	-64.743	-16.222	-83.882	20.154	70.079	-86.309	-79.912	46.674	18.197	-82.622	-79.003	-75.659	-71.227	28.158	-75.149	-8191	255	
2275.960	1	1	0	0	0.12391	0.14072	0.25276	0.16053	0.11009	0.16513	0.33698	0.3103	0.28792	0.17818	0.13126	0.15032	0.20483	0.11328	0.16246	0.2977	-2.9208	-4.3146	-3.0187	-3.9708	-4.1833	-3.3271	-4.4583	-3.7479	-3.325	-4.3063	-3.7083	-4.0354	-4.3833	-3.45	-4.3771	-4.0729	48.020	92.115	65.426	259.476	16.795	39.388	224.024	213.695	-65.481	52.440	240.185	116.458	74.274	198.364	193.035	242.183	0.00086051	0.0007665	0.00019155	879.09	6.1771e-06	2.2634e-06	832.87	370.36	1.1799e-05	3.8664e-06	371.16	152.11	138.7	70.285	7.4755e-06	79.091	0.00063653	0.00056023	0.0001503	881.57	6.6749e-06	6.1649e-06	837.83	370.83	6.6141e-06	6.0315e-06	371.6	152.03	138.72	70.367	5.6775e-06	78.925	2.296	-17.169	4.546	-83.905	16.486	-32.638	-86.241	-79.793	26.926	0.286	-82.967	-78.974	-75.629	-71.060	47.631	-75.177	-8191	255	
2276.056	1	1	0	0	0.21533	0.15136	0.08741	0.25543	0.085646	0.14941	0.23425	0.14107	0.033298	0.019692	0.16952	0.31834	0.086828	0.20464	0.25199	0.15266	-3.1458	-4.2188	-3.3	-3.7583	-4.2562	-3.3854	-4.3583	-3.9771	-3.2125	-4.4292	-3.7208	-3.8208	-4.3438	-3.3875	-4.2104	-4.2875	15.156	-63.723	-37.678	-75.434	-29.830	171.891	146.105	207.930	-24.071	62.856	80.195	236.173	249.598	-80.503	-59.116	104.727	0.0010513	0.00092045	0.00012556	880.43	4.3386e-06	1.056e-05	829.9	372.11	5.864e-06	3.1067e-06	370.36	150.96	138.24	69.934	2.4923e-06	78.672	0.00060084	0.00054288	0.00014909	882.56	6.3917e-06	6.0132e-06	833.3	371.42	6.4253e-06	5.8999e-06	371.07	151.4	138.29	69.975	5.9819e-06	78.838	5.519	-20.905	30.454	-83.949	-29.298	36.874	-86.040	-79.817	47.687	-28.860	-82.757	-79.125	-75.306	-71.062	167.895	-75.416	-8191	255	
2276.152	1	1	0	0	0.17013	0.34496	0.24175	0.20058	0.1466	0.29813	0.34127	0.2548	0.041814	0.19953	0.12655	0.2013	0.25713	0.25552	0.069786	0.15971	-2.9167	-4.3354	-3.4292	-3.8771	-4.4333	-3.2083	-4.2208	-4.475	-3.2833	-4.5771	-3.6917	-3.6458	-4.2958	-3.5271	-4.0188	-4.3458	-77.227	210.471	134.688	207.353	225.685	238.053	207.472	-92.873	170.957	11.868	159.590	190.575	200.510	194.086	-38.872	223.846	0.0011177	0.0013178	0.00011627	879.73	8.7545e-06	4.0562e-06	840.61	373.32	1.0359e-05	3.9218e-06	370.3	151.64	137.86	69.956	6.703e-06	78.851	0.0005866	0.00052818	0.00015652	886	6.1157e-06	5.8728e-06	840.33	371.96	6.231e-06	5.7627e-06	372.32	151.84	137.63	69.948	6.4753e-06	78.959	18.654	-9.984	3.503	-83.987	41.260	54.322	-86.071	-79.868	167.540	-0.563	-82.435	-78.963	-75.411	-71.148	37.873	-75.171	-8191	255	
2276.248	1	1	0	0	0.1439	0.24279	0.24498	0.07728	0.10083	0.26807	0.052011	0.31967	0.18662	0.11484	0.27248	0.1329	0.25117	0.35873	0.23922	0.11015	-2.7458	-4.1417	-3.6042	-3.6854	-4.5417	-3.475	-4.0208	-4.5917	-3.3771	-4.1729	-3.875	-3.5396	-4.4958	-3.7438	-3.8958	-4.5792	-64.117	150.415	-9.401	3.028	-33.939	77.892	30.264	190.053	3.971	-96.590	169.212	-63.123	248.771	-91.525	45.216	176.609	0.001031	0.0010898	3.7945e-05	881.75	8.7396e-06	7.5209e-06	836.61	371.39	7.2132e-06	4.907e-06	370.57	151.22	137.13	69.752	3.3894e-06	78.822	0.00058065	0.00053041	0.00016846	884.36	6.1329e-06	5.9137e-06	841.19	371.05	6.1636e-06	5.8645e-06	373.08	151.65	137.6	69.87	6.8609e-06	78.877	24.813	-33.248	88.959	-83.769	4.160	49.853	-85.932	-79.538	76.318	3.965	-82.672	-79.068	-75.454	-71.070	92.948	-75.202	-8191	255	
2276.345	1	1	0	0	0.31817	0.17207	0.21731	0.25585	0.26341	0.094831	0.23647	0.12999	0.16877	0.24697	0.11698	0.22614	0.17826	0.16075	0.17324	0.34203	-2.9542	-3.9229	-3.8812	-3.5042	-4.6479	-3.6875	-3.8979	-4.375	-3.4313	-4.1312	-4.0333	-3.3563	-4.5396	-3.8604	-3.5229	-4.4021	90.586	21.057	-32.071	234.127	42.691	181.337	152.264	259.299	88.328	69.235	-43.008	203.534	228.984	-55.246	159.664	249.925	0.00079063	0.00072079	9.5199e-05	879.19	4.3105e-06	6.1052e-06	831.62	370.75	1.1357e-05	2.9488e-06	369.9	151.16	138.58	69.95	3.6748e-06	78.972	0.00057161	0.00054522	0.00017728	884.49	5.9608e-06	6.0918e-06	836.64	370.01	5.9779e-06	6.137e-06	371.44	151.11	137.53	70.155	6.838e-06	78.813	16.923	-33.521	37.079	-83.737	27.606	44.088	-85.935	-79.815	43.245	-29.119	-82.516	-79.047	-75.093	-70.898	28.027	-75.012	-8191	255	
2276.465	1	1	0	0	0.16913	0.2003	0.14746	0.21692	0.23437	0.13707	0.24015	0.18827	0.044275	0.17983	0.16758	0.22378	0.10522	0.41036	0.10025	0.068036	-2.9208	-4.0854	-4.35	-3.5708	-4.4083	-3.8292	-3.7292	-4.4521	-3.3646	-3.9979	-4.2833	-3.4958	-4.275	-3.8187	-3.475	-4.5292	225.875	125.585	184.025	253.488	-94.298	-71.229	253.038	-75.818	120.754	148.170	183.090	177.307	-2.188	-71.245	151.060	-71.980	0.0011529	0.00047462	0.00017856	877.41	2.5109e-06	1.7043e-06	821.24	370.29	9.1102e-06	2.4508e-06	367.85	150.44	138.62	70.005	2.0458e-06	79.436	0.00054669	0.00058275	0.00017381	880.84	5.7832e-06	6.5185e-06	828.94	369.56	5.9235e-06	6.4897e-06	370.37	150.66	137.78	70.256	6.6209e-06	78.924	29.545	-51.353	-35.827	-83.961	39.360	-71.394	-86.057	-79.838	88.162	-15.575	-82.796	-78.807	-75.360	-71.169	112.436	-75.136	-8191	255	
2276.560	1	1	0	0	0.020932	0.10753	0.11301	0.30322	0.070171	0.064212	0.19848	0.17066	0.13842	0.1783	0.097873	0.090723	0.13311	0.46333	0.14067	0.23972	-3.1375	-4.0188	-4.3187	-3.3729	-4.1667	-3.6396	-3.3458	-4.6333	-3.5771	-3.9271	-4.3854	-3.2917	-4.2667	-4.0958	-3.1208	-4.4521	93.161	182.889	-87.812	199.408	222.569	13.500	203.198	242.431	246.433	161.696	89.471	48.762	177.985	252.399	-85.146	233.360	0.00085078	0.00068488	0.00036785	886.13	3.605e-06	2.8061e-06	831.59	376.29	7.9706e-06	3.4429e-06	373.05	151.23	139.91	70.071	7.1622e-06	79.302	0.00055183	0.00061142	0.00016765	884.63	5.8093e-06	6.9092e-06	833.24	373.37	6.0716e-06	6.9359e-06	373.62	151.49	139.08	70.369	6.5105e-06	78.959	16.140	-30.226	-18.262	-83.834	66.968	22.147	-86.087	-79.609	6.105	34.559	-82.616	-78.998	-75.480	-71.115	24.347	-74.997	-8191	255	
2276.657	1	1	0	0	0.15897	0.043703	0.15729	0.052336	0.17987	0.075514	0.083079	0.12376	0.064065	0.021965	0.10085	0.16449	0.14901	0.30524	0.083852	0.22644	-3.05	-3.6125	-4.2958	-3.2333	-4.2521	-4.025	-3.5875	-4.6417	-3.6188	-3.7021	-4.6312	-3.3812	-4.0104	-4.1375	-3.0375	-4.3313	155.708	-3.137	156.760	215.467	-2.193	-64.396	185.750	-94.756	260.546	-63.089	-36.883	253.111	216.806	229.719	-66.548	220.124	0.0010484	0.0007244	0.00020256	882.86	9.0596e-06	5.5939e-06	832.31	377.77	4.7248e-06	2.4051e-06	376.24	153.17	140.12	70.322	5.5797e-06	79.926	0.00058444	0.00065022	0.0001652	886.25	6.4549e-06	7.1184e-06	835.9	376.64	6.5915e-06	7.1251e-06	377.83	152.86	140.61	70.702	6.5067e-06	79.526	22.250	-58.894	-32.623	-83.737	27.184	41.694	-85.809	-79.691	94.279	-2.109	-82.673	-78.826	-75.150	-70.873	21.961	-75.063	-8191	255	
2276.754	1	1	0	0	0.1241	0.20467	0.13927	0.20028	0.012115	0.21687	0.1029	0.25789	0.089251	0.29613	0.27987	0.11127	0.087537	0.18275	0.28311	0.27538	-3.4646	-3.5354	-4.3979	-3.3896	-3.8375	-4.3458	-3.3146	-4.3917	-3.6875	-3.4417	-4.5896	-3.4604	-3.7188	-4.4229	-3.2812	-4.2083	258.401	181.704	4.365	151.498	149.686	123.143	180.950	150.610	93.552	215.826	169.116	-93.694	201.172	216.312	53.533	-87.610	0.0010574	0.00087178	0.00018593	884.05	2.4552e-06	9.7279e-06	829.65	377.02	6.0377e-06	5.4792e-06	375.29	152.05	141.04	70.028	5.5144e-06	79.211	0.00063546	0.00064681	0.00016373	888.71	6.8589e-06	6.9534e-06	831.33	376.89	7.0018e-06	6.8401e-06	375.98	152.51	141.29	70.387	6.3436e-06	78.907	15.755	-49.467	-23.029	-83.718	134.901	80.312	-85.786	-79.615	-79.168	-18.261	-82.480	-79.206	-75.504	-70.959	37.506	-75.103	-8191	255	
2276.848	1	1	0	0	0.13227	0.17025	0.12792	0.26326	0.13004	0.23022	0.1628	0.097415	0.10722	0.15066	0.098666	0.37307	0.14772	0.1081	0.19888	0.094827	-3.5583	-3.2771	-4.3521	-3.4542	-3.7667	-4.4729	-3.2458	-4.2958	-4.0792	-3.3208	-4.4229	-3.6625	-3.7458	-4.5792	-3.4146	-4.1771	-47.753	-71.043	135.774	183.529	-3.358	221.176	-56.748	228.087	69.826	105.701	-72.195	237.132	75.823	256.802	212.128	196.408	0.00082691	0.00023786	8.1504e-05	885.96	3.0679e-06	6.3299e-06	820.42	378.67	2.6003e-06	1.1337e-05	374.92	151.82	141.03	70.186	7.2987e-06	78.734	0.00065751	0.00062322	0.00015766	889.59	7.1366e-06	6.6866e-06	824.36	378.44	7.225e-06	6.7323e-06	374.24	152.34	142.07	70.354	6.2049e-06	78.69	21.584	-40.896	3.108	-83.711	-3.975	57.981	-86.047	-79.643	106.125	16.268	-82.477	-78.850	-75.397	-70.978	36.317	-75.195	-8191	255	
2276.944	1	1	0	0	0.1966	0.10979	0.27212	0.185	0.0045193	0.28121	0.21747	0.20826	0.1005	0.1032	0.19469	0.14165	0.16375	0.13114	0.054224	0.058724	-3.8229	-3.2083	-4.4167	-3.8521	-3.6083	-4.4729	-3.6104	-4.0792	-4.0917	-3.2375	-4.4021	-3.7146	-3.4167	-4.5646	-3.3396	-4.1146	-21.654	101.100	252.469	238.058	163.615	-4.760	183.099	133.124	118.977	-17.356	146.987	167.925	-90.020	197.055	57.456	107.331	0.0011425	0.00046043	6.5854e-05	894.19	7.5852e-06	3.2177e-06	821.68	378.65	4.1044e-06	4.4848e-06	373.32	151.26	139.91	69.945	4.5697e-06	78.873	0.00066949	0.00061371	0.00015786	898.03	7.2632e-06	6.5427e-06	826.71	378.59	7.2383e-06	6.6985e-06	373.65	152.26	141.37	70.071	6.3343e-06	78.843	24.809	-96.437	-24.221	-83.947	50.361	93.169	-85.794	-79.663	70.321	46.378	-82.735	-79.069	-75.408	-71.111	22.443	-75.118	-8191	255	
2277.065	1	1	0	0	0.079028	0.12024	0.14424	0.13612	0.13574	0.25167	0.29445	0.28241	0.078351	0.090243	0.087508	0.11895	0.27748	0.41711	0.13276	0.23168	-4.0042	-3.1333	-4.3208	-3.8583	-3.4083	-4.4542	-3.3354	-3.8563	-4.2583	-3.2854	-4.3375	-3.9229	-3.2708	-4.4771	-3.4125	-3.8792	-75.052	1.439	242.712	-26.119	58.106	140.027	157.802	200.087	-67.018	-11.479	-25.228	-90.392	180.329	208.391	240.566	100.443	0.0011463	0.0013458	9.2125e-05	897.3	1.0987e-05	6.3009e-06	828.15	380.65	7.9764e-06	5.0911e-06	373.5	152.14	140.99	69.92	4.3323e-06	78.876	0.00066795	0.00060774	0.00016316	903.77	7.1927e-06	6.601e-06	830.77	380.69	7.0524e-06	6.6799e-06	375.94	153.08	141.47	70.142	6.642e-06	79.062	14.137	-49.928	-0.000	-84.085	-4.676	24.620	-85.968	-79.650	7.258	45.410	-82.713	-78.712	-75.315	-70.962	144.411	-75.052	-8191	255	
2277.161	1	1	0	0	0.082511	0.067684	0.04958	0.15429	0.14971	0.24215	0.13829	0.25301	0.11892	0.17142	0.11949	0.17065	0.13056	0.13195	0.070078	0.03693	-4.1146	-3.1167	-3.9896	-4.2021	-3.3187	-4.5646	-3.9542	-3.7042	-4.5667	-3.3271	-4.0083	-4.15	-3.2625	-4.5104	-3.5583	-3.6813	192.485	-39.886	102.734	238.245	46.766	12.816	220.379	215.502	172.603	207.449	149.865	10.164	-95.296	242.412	-85.468	12.236	0.00090246	0.00053623	7.9631e-05	897.22	7.0361e-06	5.3132e-07	826.93	380.04	4.8107e-06	4.4247e-06	375.27	152.95	140.89	69.939	4.6641e-06	78.675	0.00065343	0.00060366	0.00017267	906.86	7.0564e-06	6.4971e-06	832.2	381.02	6.8902e-06	6.5103e-06	376.82	153.15	141.76	70.235	7.0618e-06	78.951	24.633	-71.787	199.615	-83.654	-42.397	237.091	-85.893	-79.626	122.572	-2.978	-82.386	-79.072	-75.600	-70.982	220.807	-75.188	-8191	255	
2277.257	1	1	0	0	0.10828	0.22696	0.089448	0.13942	0.13609	0.095635	0.26519	0.16414	0.14672	0.11254	0.18465	0.082805	0.22854	0.18214	0.10588	0.10382	-4.1604	-3.4354	-4	-4.35	-3.1604	-4.3208	-3.8937	-3.65	-4.5792	-3.5396	-3.9042	-4.3583	-3.0812	-4.3375	-4.0917	-3.5438	207.209	-49.475	32.988	179.990	7.721	187.023	125.977	232.676	117.893	103.217	-78.474	71.160	198.075	157.973	139.983	21.625	0.00094259	0.00084449	0.00011182	898.69	2.1613e-06	4.505e-06	824.06	377.44	8.6269e-06	8.6533e-06	371.46	151.45	140.77	69.927	3.9786e-06	78.555	0.00062166	0.00058727	0.00018193	904.25	6.7579e-06	6.3203e-06	828.65	377.87	6.5615e-06	6.4054e-06	375.11	152.35	141.25	70.149	7.2984e-06	78.579	20.603	-48.168	29.446	-83.808	-28.130	13.238	-85.979	-79.697	-66.431	36.361	-82.648	-78.978	-75.283	-71.067	223.913	-75.202	-8191	255	
2277.329	1	1	0	0	0.063615	0.033811	0.19794	0.081105	0.16777	0.13494	0.22104	0.073139	0.18735	0.21045	0.27832	0.039213	0.16061	0.36308	0.12323	0.24667	-3.9229	-3.5146	-3.5	-4.5604	-3.1854	-4.2604	-4.3208	-3.5875	-4.4271	-3.7271	-3.7792	-4.4625	-3.2979	-4.0604	-3.8979	-3.2542	99.309	222.843	138.062	217.053	168.282	17.193	128.409	31.352	254.384	67.021	244.094	-3.970	231.128	198.561	117.202	218.887	0.00087067	0.00088753	8.8628e-05	898.45	5.1353e-06	7.7361e-06	823.98	380.27	7.3604e-06	2.3554e-06	374.47	152.44	140.99	69.937	1.3157e-06	78.477	0.00060887	0.00059209	0.00018877	904.45	6.5585e-06	6.4972e-06	832.79	380.18	6.4277e-06	6.6776e-06	377.92	152.67	141.34	70.299	7.4946e-06	78.537	20.802	-49.646	-32.562	-83.685	-21.705	86.161	-85.843	-79.544	44.109	47.678	-82.460	-79.237	-75.591	-70.799	36.131	-75.200	-8191	255	
2277.425	1	1	0	0	0.16268	0.26316	0.24749	0.30623	0.269	0.25187	0.23753	0.14674	0.16791	0.22671	0.3232	0.14962	0.29228	0.23479	0.10484	0.13552	-3.9125	-3.7146	-3.5271	-4.6021	-3.2333	-4.0062	-4.4021	-3.3812	-4.4292	-3.6646	-3.475	-4.4875	-3.3875	-3.9646	-4	-3.05	80.383	10.242	223.564	233.341	148.685	228.331	248.708	205.786	67.711	117.903	251.556	235.189	133.359	247.939	70.790	221.051	0.00088139	0.00058442	0.00018048	899.31	8.1536e-06	4.5538e-06	828.71	382.35	9.4295e-06	5.4451e-06	377.19	153.47	141.54	70.159	4.6683e-06	78.942	0.00059266	0.00062173	0.00019062	905.01	6.4345e-06	6.9898e-06	837.18	381.82	6.3263e-06	7.1084e-06	380.41	153.81	141.79	70.581	7.3359e-06	78.826	25.260	-3.912	-9.570	-83.808	-5.982	156.068	-86.016	-79.454	12.815	48.953	-82.598	-78.833	-75.234	-71.116	2.323	-75.346	-8191	255	
2277.546	1	1	0	0	0.059856	0.078506	0.1942	0.067104	0.11767	0.15076	0.097452	0.15189	0.16619	0.10007	0.11792	0.090593	0.044772	0.1543	0.12488	0.15007	-3.8354	-3.9	-3.5438	-4.6625	-3.3667	-3.9313	-4.3604	-3.2833	-4.3688	-4.1958	-3.4313	-4.5792	-3.6292	-3.7333	-4.3313	-3.4167	35.657	260.064	202.739	-59.894	9.750	-33.650	175.083	-65.545	1.192	-52.986	218.669	38.920	253.682	188.846	116.961	174.442	0.00087001	2.7676e-05	0.00016677	902	2.9988e-06	9.5008e-06	835.31	382.8	3.2623e-06	1.3852e-06	380.74	155.04	142.51	70.387	5.9313e-06	79.135	0.00060119	0.00067226	0.0001878	907.89	6.4977e-06	7.4897e-06	840	382.4	6.4499e-06	7.4374e-06	382.05	154.71	143.2	70.902	6.9169e-06	79.053	2.722	210.454	-20.730	-83.589	-79.374	5.093	-85.967	-79.481	130.740	95.541	-82.542	-79.026	-75.078	-71.016	0.560	-75.044	-8191	255	
2277.640	1	1	0	0	0.21717	0.11201	0.050181	0.14604	0.18194	0.20316	0.21984	0.39407	0.1227	0.091975	0.1705	0.1064	0.30333	0.42508	0.069017	0.16229	-3.5396	-3.925	-3.2792	-4.4646	-3.5583	-3.4396	-4.3229	-3.3937	-4.1042	-4.3438	-3.2125	-4.5458	-3.6542	-3.7438	-4.1979	-3.2958	137.853	113.619	-74.980	147.967	-69.790	251.429	115.079	134.135	96.983	67.133	262.326	248.810	142.733	-57.542	65.526	237.430	0.0010967	0.0010803	0.00022998	908.39	2.2393e-06	7.1315e-06	827.91	384.42	6.1282e-06	7.5083e-06	376.16	153.3	141.48	69.91	4.3216e-06	77.902	0.00060065	0.00067984	0.00017367	910.72	6.5965e-06	7.4948e-06	834.21	383.45	6.745e-06	7.5097e-06	377.9	152.98	142.87	70.412	6.7248e-06	77.931	21.733	-59.526	-11.542	-83.569	-24.504	86.188	-85.968	-79.617	94.186	-58.594	-82.713	-78.963	-75.110	-70.877	107.708	-75.151	-8191	255	
2277.738	1	1	0	0	0.21593	0.24407	0.022593	0.093957	0.11566	0.082092	0.19371	0.13534	0.079445	0.029023	0.36744	0.24441	0.19089	0.38581	0.20039	0.32656	-3.6021	-4.2479	-3.3208	-4.35	-3.9521	-3.6667	-4.5729	-3.5625	-3.7583	-4.0542	-3.3458	-4.3313	-3.9021	-3.7104	-4.3896	-3.6625	218.996	31.762	76.490	228.461	67.043	225.187	88.486	255.970	215.624	229.404	220.948	-78.889	171.546	-80.387	-4.953	155.841	0.0012065	0.0010205	0.00019099	912.09	9.1305e-07	3.0159e-06	831.42	382.8	7.3716e-06	8.0966e-06	374.43	152.08	141.6	70.078	7.8662e-06	78.111	0.00064417	0.00067484	0.00017293	910.91	7.1372e-06	7.3675e-06	833.48	382.08	7.2645e-06	7.2657e-06	376.36	152.45	142.48	70.39	6.6043e-06	78.25	19.586	-28.479	2.537	-83.538	142.292	38.061	-85.833	-79.544	-64.999	36.734	-82.702	-78.963	-75.595	-71.207	53.979	-75.065	-8191	255	
2277.857	1	1	0	0	0.11775	0.03191	0.12869	0.31537	0.096703	0.20195	0.18642	0.35261	0.17549	0.075111	0.24971	0.093131	0.23861	0.15944	0.21381	0.018507	-3.3229	-4.2917	-3.0917	-4.2083	-4.0896	-3.4646	-4.5708	-3.7229	-3.5625	-4.2833	-3.3625	-4.3354	-4.0958	-3.4708	-4.4021	-3.5771	-84.893	235.271	-37.067	259.748	36.235	-92.530	163.896	186.774	153.678	26.673	-80.140	-23.278	-69.980	259.543	182.564	63.394	0.0010883	0.0010673	0.0001691	908.8	4.2329e-06	9.4673e-06	833.4	383.5	7.4823e-06	9.2801e-06	377.61	153.66	142.8	70.256	3.6396e-06	78.732	0.00068489	0.00065716	0.00016903	909.26	7.4541e-06	7.0603e-06	837.39	383.18	7.4863e-06	7.0009e-06	379.73	154.07	144.23	70.611	6.4643e-06	78.849	19.516	-43.786	-21.643	-83.692	48.863	0.395	-85.770	-79.532	-2.241	31.280	-82.306	-79.001	-75.771	-71.034	64.234	-75.169	-8191	255	
2277.928	1	1	0	0	0.24154	0.1943	0.10565	0.095514	0.14092	0.23092	0.14763	0.14235	0.16412	0.13936	0.12386	0.080253	0.26206	0.15961	0.26353	0.18329	-3.3208	-4.3396	-3.2458	-4.2979	-4.3542	-3.3167	-4.4333	-3.6458	-3.3688	-4.6042	-3.4979	-4.2979	-4.2208	-3.3042	-4.3729	-3.9396	53.371	73.263	165.050	242.943	117.111	112.181	19.613	-80.961	-21.895	205.213	187.698	-72.902	262.021	188.689	119.594	-36.517	0.0010361	0.00072111	0.00021847	914.52	9.6039e-06	5.2831e-06	840.04	384.65	9.9354e-06	5.8454e-06	377.38	153.15	143.33	70.412	3.6241e-06	78.552	0.00069874	0.00062877	0.00016493	920.09	7.5631e-06	6.9374e-06	840.14	384.64	7.5614e-06	6.8081e-06	378.53	154.29	143.94	70.354	6.4304e-06	78.571	20.017	-61.557	27.144	-83.563	-20.561	57.611	-85.937	-79.643	80.709	14.549	-82.412	-78.940	-75.318	-71.043	2.168	-75.106	-8191	255	
2278.025	1	1	0	0	0.051575	0.11003	0.26638	0.090039	0.056715	0.1559	0.20753	0.22029	0.052243	0.089596	0.050342	0.17642	0.1467	0.23048	0.26671	0.30508	-2.9646	-4.4688	-3.4292	-4.1875	-4.3521	-3.2167	-4.3083	-4.0417	-3.4542	-4.4583	-3.6167	-3.8833	-4.2396	-3.1458	-4.3896	-4.0375	174.276	7.664	-79.970	156.542	237.617	131.010	218.937	210.274	21.238	127.034	174.541	177.512	200.425	-66.320	124.582	198.325	0.00084371	0.0013596	0.00023166	923.14	9.9531e-06	6.2937e-06	832.58	383.49	7.0084e-06	8.2714e-06	370.61	151.34	141.59	69.3	3.8219e-06	77.106	0.00068322	0.00061791	0.00016766	928.08	7.3874e-06	6.9093e-06	834.72	383.69	7.4342e-06	6.7031e-06	373.14	152.21	142.74	69.511	6.7052e-06	77.267	21.580	-49.829	26.140	-83.659	-26.629	89.422	-85.766	-79.433	17.747	61.416	-82.235	-79.034	-75.445	-70.848	-91.246	-75.324	-8191	255	
2278.145	1	1	0	0	0.2635	0.075944	0.095285	0.28356	0.085708	0.020398	0.24638	0.25227	0.23245	0.094693	0.20954	0.091039	0.078501	0.24626	0.15422	0.11375	-2.9437	-4.3979	-3.4958	-3.6729	-4.4167	-3.3333	-4.35	-4.3167	-3.1896	-4.2417	-3.5583	-3.6708	-4.5	-3.4396	-4.0792	-4.3187	173.034	-6.049	155.071	-50.147	170.580	82.616	148.319	198.277	139.667	244.359	196.836	-97.323	163.227	233.487	150.216	208.231	0.00096029	0.0005474	3.971e-05	924.42	4.1497e-06	4.5888e-06	828.17	381.79	4.7391e-06	1.0126e-05	371.65	152.18	142.49	69.849	1.0475e-05	77.37	0.00066763	0.00061089	0.00017473	933.17	7.0523e-06	6.6986e-06	834.78	383.87	7.0398e-06	6.5322e-06	374.75	152.53	143.02	69.897	7.0134e-06	77.516	25.913	7.950	105.362	-83.654	20.076	45.535	-85.745	-79.465	-17.026	-34.356	-82.184	-79.053	-75.411	-71.004	81.732	-75.107	-8191	255	
2278.241	1	1	0	0	0.19802	0.076655	0.042899	0.45191	0.18119	0.2012	0.15308	0.20379	0.08263	0.2624	0.17885	0.21427	0.33436	0.027082	0.28296	0.21017	-2.6813	-4.2	-3.4396	-3.5396	-4.3	-3.3875	-4.1771	-4.1312	-3.2854	-4.1625	-3.9583	-3.2729	-4.3792	-3.325	-3.6271	-4.4354	23.899	-35.920	19.471	193.537	174.443	32.099	227.738	194.190	-79.995	31.320	-94.341	261.457	-77.566	150.041	53.625	213.339	0.00092892	0.00018042	7.0581e-05	922.42	6.0737e-06	4.4384e-06	835.98	383.34	5.7248e-06	1.0775e-05	375.97	152.38	142.63	69.739	1.7333e-06	77.872	0.00064727	0.00059223	0.00018391	931.05	6.8436e-06	6.5424e-06	840.15	384.09	6.9202e-06	6.3791e-06	378.42	153.19	142.65	69.904	7.5424e-06	77.903	16.625	173.121	65.637	-83.753	40.024	21.868	-85.937	-79.536	30.318	82.712	-82.433	-79.052	-75.344	-70.894	73.056	-74.975	-8191	255	
2278.338	1	1	0	0	0.12166	0.10747	0.20071	0.054928	0.087286	0.22455	0.22607	0.24322	0.14559	0.033874	0.19903	0.2923	0.30901	0.054805	0.26098	0.14791	-2.7271	-4.3146	-3.8417	-3.375	-4.5125	-3.4562	-3.8625	-4.4917	-3.375	-4.1042	-4.0583	-3.3646	-4.4313	-3.8125	-3.7208	-4.4875	98.050	-49.144	51.944	197.632	-92.387	176.992	94.218	227.773	87.975	150.281	212.145	248.772	193.923	53.449	226.395	201.637	0.00089486	0.00018211	9.9944e-05	923.58	5.5596e-06	6.0204e-06	837.48	382.83	8.9244e-06	1.2762e-06	374.59	152.25	142.41	69.689	1.6027e-05	77.738	0.00063258	0.00059984	0.00019462	931.86	6.7589e-06	6.6998e-06	846.71	383.22	6.8119e-06	6.8164e-06	378.42	152.9	142.28	69.896	7.779e-06	77.84	18.730	21.851	5.331	-83.864	56.330	0.247	-85.921	-79.427	39.906	38.780	-82.357	-79.088	-75.161	-70.859	31.135	-75.052	-8191	255	
2278.458	1	1	0	0	0.048287	0.16387	0.20012	0.3324	0.059228	0.1803	0.30676	0.18795	0.16995	0.08757	0.1276	0.28421	0.033436	0.38129	0.22557	0.30339	-2.7958	-3.9729	-4.1354	-3.3583	-4.3771	-3.6312	-3.6604	-4.4938	-3.2	-4.1625	-4.2521	-3.4021	-4.3958	-3.8688	-3.4042	-4.5583	69.935	233.767	114.314	214.923	-48.832	64.736	167.832	219.894	197.377	62.385	214.068	-87.757	43.782	203.036	253.308	224.515	0.00098183	0.00078573	0.00017577	921.29	5.0297e-06	4.3425e-06	832.31	382.56	4.0397e-06	3.8344e-06	370.55	150.98	140.49	69.425	4.6635e-06	76.759	0.00062079	0.00063884	0.00019638	931.52	6.5332e-06	7.1531e-06	841.39	382.34	6.5822e-06	7.1647e-06	374.27	151.31	141.04	69.673	7.5397e-06	76.862	20.769	-41.874	35.334	-83.676	30.265	77.080	-85.685	-79.308	34.698	198.858	-82.137	-78.603	-75.306	-70.909	12.602	-74.948	-8191	255	
2278.554	1	1	0	0	0.35038	0.03008	0.12833	0.18712	0.13313	0.1573	0.14554	0.070942	0.050221	0.029564	0.13917	0.099309	0.1693	0.13053	0.16646	0.11697	-2.85	-3.8542	-4.0729	-3.1229	-4.1229	-3.7271	-3.5542	-4.6083	-3.4542	-3.8021	-4.5875	-3.4792	-4.2542	-3.925	-3.3312	-4.45	158.538	156.196	214.925	172.573	53.331	144.598	200.510	220.503	175.980	-0.142	96.293	209.147	148.772	189.646	-70.912	222.915	0.0009527	0.00037909	5.4626e-05	914.15	9.8123e-06	5.8225e-06	826.6	378.4	3.6015e-06	7.2685e-06	369.26	150.29	141.13	69.426	3.2054e-06	77.33	0.00059959	0.00067623	0.00018894	922.03	6.4544e-06	7.4368e-06	833.53	378.52	6.4464e-06	7.4009e-06	372.64	150.75	141.28	69.782	7.0793e-06	77.091	12.301	6.362	43.146	-83.479	9.412	57.228	-85.888	-79.473	78.994	31.711	-82.544	-79.075	-74.927	-70.836	-15.934	-74.967	-8191	255	
2278.626	1	1	0	0	0.0035526	0.099898	0.27245	0.25559	0.11902	0.19874	0.070758	0.26163	0.32636	0.12957	0.23133	0.12257	0.10388	0.04462	0.19655	0.12075	-3.075	-3.6063	-4.3542	-3.3708	-4.2917	-3.9667	-3.6354	-4.7792	-3.75	-3.7687	-4.5208	-3.5833	-4.1729	-4.3375	-3.3021	-4.4771	164.577	202.643	96.490	95.614	252.173	-25.986	246.727	190.197	-39.509	-25.222	209.810	-36.229	114.701	128.996	43.760	14.121	0.00094403	0.00021954	0.00023476	918.52	6.5229e-06	7.7852e-06	830.4	376.85	1.1572e-05	9.4193e-06	371.41	150.55	140.48	69.602	6.2112e-06	77.254	0.0006111	0.00069514	0.00018023	920.14	6.6829e-06	7.6359e-06	834.67	377.59	6.8198e-06	7.5419e-06	373.33	150.8	141.41	69.787	6.85e-06	77.264	16.289	-19.061	15.027	-83.593	-2.716	-4.242	-85.861	-79.528	43.777	22.970	-82.252	-78.742	-75.124	-70.773	3.123	-75.078	-8191	255	
2278.722	1	1	0	0	0.2078	0.10469	0.045146	0.29462	0.12248	0.19215	0.19129	0.36639	0.097902	0.10592	0.14358	0.13425	0.0406	0.17428	0.10018	0.11994	-3.525	-3.6729	-4.5062	-3.5396	-4.0854	-4.15	-3.2938	-4.3	-3.7583	-3.425	-4.6312	-3.3312	-4.1188	-4.5958	-3.4	-4.625	123.996	181.913	-58.732	232.852	-47.680	51.931	230.728	-91.216	108.142	62.888	200.205	245.453	26.922	231.319	223.769	241.848	0.0011557	0.0017035	9.5423e-05	920.64	1.2722e-05	7.4722e-06	833.91	379.59	7.4279e-07	7.8464e-06	373.01	151.05	140.18	69.57	1.1736e-05	77.611	0.0006422	0.00068579	0.00017338	920.52	7.1065e-06	7.4206e-06	839.92	378.99	7.197e-06	7.4447e-06	374.17	151.42	141.44	69.757	6.7641e-06	77.618	16.759	-48.175	133.020	-83.423	-5.846	51.682	-85.964	-79.380	38.935	-10.507	-82.206	-78.781	-75.073	-70.949	31.810	-75.208	-8191	255	
2278.841	1	1	0	0	0.12351	0.054303	0.015752	0.24023	0.19418	0.032241	0.23314	0.08786	0.17819	0.13339	0.15938	0.13215	0.12958	0.17275	0.20012	0.12499	-3.525	-3.3812	-4.4833	-3.4979	-3.7938	-4.2542	-3.2375	-4.3812	-4.0021	-3.425	-4.6521	-3.7667	-3.6375	-4.6542	-3.1792	-4.1583	207.015	101.828	136.982	-92.390	33.365	-40.255	174.488	208.046	57.322	-85.637	123.085	192.404	226.076	-63.175	-42.479	-66.293	0.0010416	0.00028489	0.00022358	915.56	2.5202e-06	4.7448e-06	832.86	378.12	2.9456e-06	5.8101e-06	367.96	149.92	140.09	69.122	5.7381e-06	76.48	0.00067932	0.00066052	0.0001683	917.94	7.4938e-06	7.0983e-06	835.25	377.58	7.4103e-06	7.0799e-06	371.57	150.71	141.58	69.472	6.4892e-06	76.765	25.078	224.834	-37.913	-83.753	6.642	50.242	-85.677	-79.282	-6.496	18.270	-82.353	-78.780	-75.196	-70.910	-35.200	-74.967	-8191	255	
2278.937	1	1	0	0	0.38514	0.12744	0.12675	0.022425	0.20538	0.14981	0.30766	0.21048	0.17805	0.01521	0.15569	0.17401	0.17685	0.066046	0.063668	0.14871	-3.7375	-3.2271	-4.1958	-3.7042	-3.6375	-4.2937	-3.1542	-4.1833	-4.1604	-3.2562	-4.3688	-3.9042	-3.5875	-4.6813	-3.3708	-4.1875	-41.172	-0.767	-38.842	-72.986	-90.613	-4.116	233.234	240.154	253.257	45.661	238.150	253.537	-49.953	186.741	114.077	-84.701	0.00092804	0.00066241	0.00027013	908.75	5.1534e-06	9.1229e-06	825.69	376.56	1.1491e-05	1.0237e-06	369.21	149.75	140.47	69.254	5.3883e-06	76.341	0.0006791	0.00063566	0.00016198	914.08	7.4909e-06	6.7904e-06	828.76	377.02	7.4656e-06	6.7827e-06	369.84	150.48	141.2	69.411	6.3123e-06	76.652	16.901	-37.560	23.944	-83.713	59.470	56.776	-85.967	-79.407	17.839	81.279	-82.640	-78.987	-75.117	-70.934	23.466	-75.132	-8191	255	
2279.033	1	1	0	0	0.17874	0.18201	0.043141	0.2206	0.26668	0.11873	0.12179	0.19545	0.058272	0.11163	0.17982	0.25512	0.060874	0.15148	0.1224	0.20279	-3.7812	-3.1208	-4.3	-3.9208	-3.4896	-4.3125	-3.3458	-3.8563	-4.2625	-3.1958	-4.3125	-3.9896	-3.5646	-4.7146	-3.5958	-3.8667	13.090	129.293	74.525	203.443	60.291	-43.133	-7.468	146.805	176.847	193.476	-96.603	183.715	259.313	-68.944	77.335	257.858	0.0007815	0.00057258	0.00027438	914.51	7.1815e-06	2.6612e-06	826.03	377.48	3.5788e-06	6.1311e-06	371.41	150.5	140.17	68.927	2.2815e-06	76.758	0.00067059	0.00061348	0.00016164	919.57	7.2512e-06	6.6073e-06	829.21	378.11	7.1515e-06	6.657e-06	370.84	150.79	140.85	69.159	6.5017e-06	76.931	35.235	-61.531	8.938	-83.663	15.324	69.409	-86.119	-79.346	69.115	41.003	-82.281	-78.938	-75.023	-70.922	70.463	-75.095	-8191	255	
2279.129	1	1	0	0	0.10149	0.27742	0.11173	0.092046	0.23727	0.13073	0.1576	0.091551	0.19435	0.23699	0.070725	0.37566	0.15408	0.37783	0.1722	0.31429	-4.1125	-3.1667	-4.0687	-4.0708	-3.5604	-4.7042	-3.7833	-3.6958	-4.275	-3.1708	-3.8854	-3.9333	-3.2125	-4.4979	-3.5563	-3.7146	-18.607	37.427	-85.965	112.036	184.396	181.609	68.438	212.007	81.180	52.482	176.004	174.101	194.328	162.516	195.306	200.540	0.00080988	0.0010332	0.00012639	916.19	9.7558e-06	6.3762e-06	831.86	379.42	7.5498e-06	5.446e-06	371.92	150.68	139.35	69.005	8.9785e-06	76.9	0.00065646	0.00060458	0.00016708	923.46	7.0081e-06	6.5277e-06	836	380.21	6.9288e-06	6.5244e-06	373.73	151.31	140.6	69.151	6.9455e-06	77.156	38.881	-41.965	-37.330	-83.666	-12.941	53.203	-85.894	-79.364	40.483	25.690	-82.679	-78.739	-75.361	-70.926	72.929	-75.116	-8191	255	
2279.226	1	1	0	0	0.13209	0.20561	0.19306	0.22184	0.12363	0.10304	0.12596	0.11762	0.11965	0.24626	0.1068	0.12586	0.013783	0.12696	0.29368	0.12994	-3.9958	-3.175	-3.8812	-4.2667	-3.3708	-4.5208	-3.8292	-3.6958	-4.3042	-3.3708	-3.9792	-4.1375	-3.0646	-4.4271	-3.8729	-3.8396	-65.085	21.377	109.788	162.467	130.878	99.588	226.785	129.283	10.613	240.720	115.574	226.453	97.525	190.909	219.992	195.742	0.00089771	0.00050265	0.00019522	917.38	9.1838e-06	1.0921e-05	831.66	382.45	1.5746e-06	5.2774e-06	373.08	150.55	140.88	69.014	5.2885e-06	76.27	0.00064047	0.00059543	0.00018076	924.49	6.8706e-06	6.395e-06	838.3	381.68	6.6941e-06	6.4623e-06	374.96	151.37	140.99	69.03	7.3634e-06	76.491	25.348	31.886	84.671	-83.523	39.770	15.175	-86.037	-79.171	-56.354	64.216	-82.407	-78.803	-75.062	-71.004	73.881	-74.979	-8191	255	
2279.322	1	1	0	0	0.29151	0.065815	0.12217	0.32	0.17007	0.032925	0.057462	0.18735	0.1156	0.23133	0.061992	0.2378	0.04017	0.11319	0.13749	0.215	-4.2	-3.6333	-3.9917	-4.3354	-3.1458	-4.0729	-3.7875	-3.6229	-4.5333	-3.4771	-3.8833	-4.4688	-3.2979	-4.1917	-3.9375	-3.4083	-64.306	166.557	-73.075	164.841	-9.112	194.804	11.746	141.268	-9.899	123.337	116.429	217.372	2.184	240.240	51.655	137.340	0.00088726	0.00056825	0.00013132	909.56	1.1832e-05	1.2836e-06	822.87	377.82	5.6481e-06	8.0852e-06	369.82	149.14	140.34	68.521	1.6489e-06	76.054	0.00061777	0.00058993	0.0001894	918.64	6.6432e-06	6.4938e-06	831.17	377.97	6.5353e-06	6.537e-06	372.13	149.95	140.08	68.917	7.5468e-06	76.19	15.146	-7.608	41.492	-83.768	9.256	-92.000	-85.683	-79.496	0.260	1.848	-82.558	-78.966	-75.282	-70.816	-5.225	-75.056	-8191	255	
2279.418	1	1	0	0	0.05866	0.3357	0.29138	0.21445	0.20458	0.060279	0.33733	0.31695	0.16707	0.28218	0.1196	0.11556	0.10596	0.12952	0.14913	0.21721	-3.7667	-3.475	-3.525	-4.4646	-3.2708	-4.0125	-4.225	-3.4938	-4.4333	-3.6813	-3.7792	-4.7479	-3.3417	-4.2125	-4.2167	-3.4521	-58.224	127.141	224.880	221.140	243.343	-59.338	144.048	236.760	100.056	110.458	-65.126	135.010	161.165	-91.494	118.720	-58.666	0.0010065	0.00051266	0.00017276	916.89	1.2747e-05	8.9073e-06	825.14	378.45	2.635e-06	6.6408e-06	368.23	149.84	139.67	68.667	4.2386e-06	76.308	0.00059982	0.00061374	0.00019261	919.03	6.4935e-06	6.8277e-06	833.58	378.26	6.4517e-06	6.9745e-06	372.83	150.34	139.91	69.034	7.444e-06	76.391	20.122	-22.710	1.201	-83.679	23.248	33.980	-85.854	-79.343	70.424	-1.757	-82.228	-78.886	-75.115	-70.953	49.471	-75.076	-8191	255	
2279.539	1	1	0	0	0.046132	0.084756	0.22869	0.11535	0.049223	0.21771	0.051972	0.065776	0.13347	0.12704	0.028141	0.14347	0.19112	0.46634	0.30994	0.18797	-4.0875	-3.7687	-3.4271	-4.475	-3.4875	-3.9167	-4.3479	-3.325	-4.0271	-3.7687	-3.6208	-4.6667	-3.7083	-4.0542	-4.4292	-3.3417	207.840	130.055	163.141	239.326	161.105	226.983	-87.808	65.528	-91.175	-41.788	-14.647	20.700	-42.994	-89.605	0.309	252.431	0.00084581	0.00076242	0.00019908	917.57	1.1012e-05	5.1156e-06	830.73	378.03	9.6763e-06	9.5473e-06	371.68	149.93	140.28	68.76	5.8445e-06	76.307	0.00059758	0.00065878	0.00019306	920.56	6.4589e-06	7.3604e-06	838.6	378.51	6.4335e-06	7.4432e-06	374.86	150.57	140.45	69.048	7.2632e-06	76.561	29.624	-57.895	-33.282	-83.483	37.514	110.506	-85.965	-79.440	66.405	38.314	-82.342	-78.663	-75.193	-70.753	18.044	-75.062	-8191	255	
2279.633	1	1	0	0	0.33962	0.36224	0.11073	0.076651	0.059915	0.057011	0.087556	0.24546	0.20257	0.010242	0.10414	0.13525	0.17026	0.16337	0.12968	0.25629	-3.8271	-3.7417	-3.0458	-4.4458	-3.6792	-3.7167	-4.5667	-3.3833	-4.0104	-4.1292	-3.3917	-4.4938	-3.325	-3.7396	-4.2167	-3.3438	153.992	226.974	112.053	250.007	127.408	1.649	70.688	192.735	230.716	180.684	161.407	-77.648	181.239	245.792	-39.758	163.988	0.001013	0.00082163	7.7847e-05	923.94	6.1714e-06	2.8277e-06	834.64	379.68	1.0473e-05	1.1248e-05	371.72	150.3	141.17	68.372	3.4277e-06	76.104	0.0006149	0.00070827	0.00018701	928	6.8019e-06	7.7507e-06	841.49	379.9	6.8246e-06	7.7051e-06	375.01	150.54	141.28	68.94	6.9801e-06	76.023	0.985	-23.357	-7.717	-83.653	61.872	94.122	-85.718	-79.488	141.414	33.198	-82.191	-78.902	-75.181	-70.702	80.091	-75.003	-8191	255	
2279.729	1	1	0	0	0.14489	0.19619	0.046199	0.2028	0.090512	0.094574	0.20521	0.23184	0.098341	0.065904	0.2068	0.25038	0.11261	0.24771	0.25185	0.01374	-3.7958	-3.9833	-3.2146	-4.4167	-3.6333	-3.6083	-4.6292	-3.4479	-3.9979	-4.1333	-3.1354	-4.3167	-3.6542	-3.4	-4.2375	-3.2917	202.338	136.354	205.374	223.046	-60.926	-23.921	137.753	164.272	183.859	89.872	-4.568	260.586	75.583	199.233	65.346	200.014	0.0010418	0.00088571	0.00024404	925.95	4.8366e-06	8.0813e-06	829.53	378.88	1.9929e-06	1.2399e-05	366.43	148.86	140.61	68.226	4.9731e-06	75.328	0.00065409	0.00071259	0.00018133	929.61	7.2684e-06	7.7348e-06	832.17	378.79	7.3074e-06	7.6502e-06	369.64	149.17	141.29	68.602	6.9341e-06	75.396	23.120	-29.199	-1.544	-83.838	19.174	35.469	-85.813	-79.434	-12.792	43.816	-82.530	-78.935	-75.210	-70.857	102.498	-75.043	-8191	255	
2279.825	1	1	0	0	0.11117	0.040371	0.20891	0.12969	0.35731	0.02767	0.022486	0.16573	0.10153	0.050179	0.19096	0.1155	0.23132	0.19227	0.23	0.23386	-3.5083	-4.1813	-3.1437	-4.0271	-3.7667	-3.2833	-4.5208	-3.7125	-3.8771	-4.3438	-3.4062	-4.1708	-3.9167	-3.3396	-4.375	-3.4708	120.540	-70.686	-82.409	228.454	56.240	106.681	84.569	221.971	-11.605	74.001	-85.340	220.120	64.476	-95.234	10.093	203.715	0.00087526	0.00060002	0.00025072	921.76	6.0773e-06	8.167e-06	825.84	379.24	1.2193e-05	8.0622e-06	370.11	149.81	139.75	68.221	1.0891e-05	75.489	0.00069273	0.00069258	0.00017726	929.07	7.6541e-06	7.5619e-06	832.07	379.75	7.7542e-06	7.3625e-06	371.67	149.92	142.06	68.594	6.8287e-06	75.739	8.925	173.503	7.844	-83.633	-8.659	40.626	-85.855	-79.394	-55.982	75.773	-82.359	-78.835	-75.013	-70.930	18.133	-74.906	-8191	255	
2279.921	1	1	0	0	0.30193	0.11191	0.1657	0.24422	0.30743	0.27264	0.35233	0.049559	0.16334	0.15675	0.49733	0.13356	0.17143	0.29331	0.11235	0.096879	-3.3417	-4.2937	-3.2771	-4.2667	-4.25	-3.2062	-4.4104	-3.8292	-3.8146	-4.4333	-3.6104	-3.9854	-4.0667	-3.3125	-4.1208	-3.8688	159.249	26.931	76.435	248.289	41.135	118.630	111.218	-25.531	2.915	1.221	188.032	-18.403	179.728	242.455	57.218	198.115	0.00090972	0.0014871	0.00026024	929.17	6.0997e-06	7.0473e-06	832.83	380.73	8.5238e-06	9.2489e-06	371.24	150.31	140.81	68.549	7.5464e-06	76.124	0.00073073	0.00066833	0.00017459	933.42	7.8331e-06	7.3037e-06	836.93	380.84	7.8174e-06	7.1573e-06	372.39	150.78	142.38	68.799	6.7177e-06	76.293	6.484	-39.321	-4.323	-83.458	39.475	44.819	-85.594	-79.251	66.507	21.239	-82.370	-79.126	-74.795	-70.896	-14.153	-74.975	-8191	255	
2280.018	1	1	0	0	0.18046	0.1549	0.14965	0.15449	0.065042	0.1333	0.19284	0.13919	0.056174	0.10584	0.13655	0.23357	0.20648	0.33184	0.066583	0.387	-3.1167	-4.5062	-3.4188	-4.0479	-4.2708	-3.2104	-4.3646	-3.8479	-3.4104	-4.5	-3.4688	-4.0729	-4.3708	-3.5271	-4.1917	-3.875	94.366	3.933	97.297	114.103	38.432	238.980	152.046	-62.538	44.603	254.994	167.021	261.410	-19.974	204.001	-89.831	226.998	0.0010722	0.0004792	0.0001318	929.3	9.8391e-06	1.0031e-05	833.31	381.95	1.1786e-05	1.0227e-05	371.57	150.16	141.6	67.987	2.6367e-06	75.773	0.00072448	0.0006547	0.00017294	938.15	7.7813e-06	7.2242e-06	839.47	382.73	7.7457e-06	7.0845e-06	373.1	151.14	142.49	68.561	6.8936e-06	76.067	40.359	-16.570	-45.881	-83.766	44.749	62.608	-85.734	-79.376	72.598	77.649	-82.037	-78.800	-74.912	-70.587	1.358	-74.886	-8191	255	
2280.138	1	1	0	0	0.19723	0.21279	0.077539	0.044111	0.022807	0.11401	0.19908	0.15244	0.080898	0.23877	0.18651	0.10623	0.17633	0.16624	0.044848	0.1546	-2.8792	-4.5396	-3.575	-3.9021	-4.35	-3.2687	-4.3979	-4.1771	-3.1979	-4.3396	-3.5354	-3.7979	-4.5271	-3.4479	-4.1583	-4.2354	82.607	-16.020	107.240	173.937	65.176	243.351	184.273	172.023	110.105	224.094	127.177	44.446	199.856	193.452	225.846	135.584	0.00077461	0.0012946	8.9995e-05	937.38	9.9897e-06	3.5047e-06	829.91	380.44	1.4023e-05	1.0596e-05	364.22	148.51	139.67	67.695	1.8789e-06	74.37	0.00070385	0.00064625	0.00017737	946.08	7.5261e-06	7.0745e-06	835.16	382.34	7.5482e-06	6.9754e-06	368.16	149.22	140.89	67.823	7.224e-06	74.957	24.642	-48.203	-28.875	-83.561	14.738	108.491	-85.765	-79.423	56.862	28.834	-82.384	-78.710	-75.093	-70.652	119.902	-74.934	-8191	255	
2280.234	1	1	0	0	0.24892	0.095683	0.20164	0.028229	0.23743	0.095777	0.31861	0.23038	0.070002	0.042569	0.18355	0.1871	0.123	0.15502	0.11878	0.1243	-2.9271	-4.3167	-3.4458	-3.5896	-4.4833	-3.3021	-4.4625	-4.3917	-3.2854	-4.3604	-4.0333	-3.7583	-4.4896	-3.4167	-4.075	-4.5	219.936	102.562	-60.362	72.639	47.838	34.192	239.276	226.007	-76.132	109.333	167.652	205.517	-38.704	208.433	232.712	252.080	0.0008386	0.00051709	6.7205e-05	938.1	9.1571e-06	5.832e-06	829.26	379.72	1.8823e-05	7.0154e-06	363.44	147.37	139.6	67.465	3.7246e-06	74.456	0.00068373	0.00062699	0.00019098	947.75	7.3927e-06	6.9357e-06	833.62	381.01	7.3615e-06	6.8435e-06	367.93	148.46	140.75	67.857	7.8018e-06	74.946	22.063	-27.341	154.701	-83.592	-22.287	80.054	-85.559	-79.308	80.640	92.137	-82.276	-78.598	-74.960	-70.686	125.086	-74.692	-8191	255	
2280.330	1	1	0	0	0.095713	0.19455	0.3014	0.15737	0.022194	0.26335	0.18356	0.22063	0.074558	0.091956	0.12011	0.039902	0.087774	0.11953	0.13311	0.032183	-2.9583	-4.2896	-3.7854	-3.5375	-4.3812	-3.4646	-3.9958	-4.2917	-3.3354	-4.2438	-4.0521	-3.4854	-4.4708	-3.5958	-3.7812	-4.3917	219.529	67.911	101.386	-86.231	109.120	-51.724	211.176	134.884	196.529	128.923	-9.360	134.549	237.224	220.328	88.153	55.927	0.00087684	0.0005107	1.5358e-05	936.67	3.3161e-06	1.8825e-06	825.02	378.39	1.2873e-06	4.8368e-06	364.47	148.53	140.14	67.909	4.7604e-06	75.44	0.0006729	0.00063268	0.00020243	944.61	7.2262e-06	6.9864e-06	836.73	379.85	7.2485e-06	6.9638e-06	370.56	149.56	140.86	68.248	8.1755e-06	75.751	14.919	44.139	-19.924	-83.799	-21.010	136.924	-85.549	-79.286	-53.071	-6.039	-82.272	-78.728	-75.119	-70.797	-13.286	-74.716	-8191	255	
2280.427	1	1	0	0	0.29677	0.032158	0.19111	0.19505	0.29604	0.076821	0.21391	0.051879	0.17778	0.26175	0.087277	0.31087	0.28635	0.026608	0.14258	0.20394	-2.7042	-4.1083	-3.7917	-3.3208	-4.3771	-3.7917	-3.8042	-4.6167	-3.5125	-3.9729	-3.9	-3.2438	-4.3979	-3.7396	-3.5417	-4.4104	191.839	175.653	-63.555	251.081	242.154	223.845	-84.937	15.293	221.255	-77.244	248.738	156.157	-60.933	254.925	190.316	175.986	0.0010575	0.00085342	0.00015413	936.34	2.52e-06	8.3682e-07	832.52	379.31	1.0173e-05	3.9561e-06	369.39	149.59	140.14	68.205	3.8082e-06	75.295	0.00065564	0.00065885	0.00020884	942.71	7.1066e-06	7.4071e-06	843.03	379.83	7.129e-06	7.4637e-06	374.09	150.39	141.13	68.614	8.1567e-06	75.855	25.741	1.338	-30.469	-83.727	20.684	171.445	-85.428	-79.252	162.227	20.670	-82.483	-78.675	-74.703	-70.677	20.645	-74.871	-8191	255	
2280.523	1	1	0	0	0.23238	0.18048	0.26543	0.10243	0.071306	0.1996	0.24572	0.21165	0.10715	0.14655	0.060517	0.20214	0.28397	0.098967	0.15067	0.2404	-2.875	-3.9729	-3.9542	-3.3896	-4.3583	-3.8146	-3.8937	-4.5771	-3.175	-3.8271	-4.2229	-3.1917	-4.1438	-4.0437	-3.3563	-4.5604	-27.067	-29.349	93.169	-67.490	29.598	-15.728	157.504	143.686	-9.533	198.557	-86.536	237.328	194.082	196.844	-67.899	170.897	0.00086178	0.00025858	0.00017497	939.64	1.0568e-05	4.0466e-06	831.32	381.92	3.2538e-06	6.1496e-06	365.61	148.65	140.99	67.484	5.5362e-06	74.42	0.00064816	0.00070167	0.00020654	944.51	6.9196e-06	7.8249e-06	838.26	382.26	6.9582e-06	7.8749e-06	370.15	149.69	142.06	68.129	7.8281e-06	74.683	15.710	22.600	34.853	-83.508	23.009	-90.263	-85.866	-79.112	8.505	40.552	-82.479	-78.595	-74.803	-70.611	33.713	-74.796	-8191	255	
#DATA ENDS
