BOXY.EXE: ISS Imagent and Oximeter Data Acquisition Program Version 0.80
Ascii Record File

#ACQ INFORMATION
2  Detector Channels 
16  External MUX Channels 
1  Auxiliary Channels 
5000  Waveform (CCF) Frequency (Hz)
1  Waveforms Skipped 
30  Waveforms Averaged 
1  Cycles Averaged 
16  Acquisitions per Waveform 
10.0806  Updata Rate (Hz) 

#FILE INFORMATION
TRUE -- External MUX Channel results are PARSED.
FALSE -- AC DC and Phase are NOT grouped.
TRUE -- Companion Program Settings File CREATED.
FALSE -- AC data not excluded
FALSE -- DC data not excluded
FALSE -- Phase data not excluded
FALSE -- Auxillary Chn. data not excluded
Tab delimiters

#CALIBRATION STATE
TRUE -- Waveform Calibration Values APPLIED.


#AUX CALIBRATION VALUES
Val Type	aux-1	

Term	1.0000e+00	
Factor	0.0000e+00	


#WF CALIBRATION VALUES
A = Detector Channel
Val Type	A-AC1	A-AC2	A-AC3	A-AC4	A-AC5	A-AC6	A-AC7	A-AC8	A-AC9	A-AC10	A-AC11	A-AC12	A-AC13	A-AC14	A-AC15	A-AC16	A-DC1	A-DC2	A-DC3	A-DC4	A-DC5	A-DC6	A-DC7	A-DC8	A-DC9	A-DC10	A-DC11	A-DC12	A-DC13	A-DC14	A-DC15	A-DC16	A-Ph1	A-Ph2	A-Ph3	A-Ph4	A-Ph5	A-Ph6	A-Ph7	A-Ph8	A-Ph9	A-Ph10	A-Ph11	A-Ph12	A-Ph13	A-Ph14	A-Ph15	A-Ph16	

Term	0.00000e+00	0.00000e+00	0.00000e+00	0.00000e+00	0.00000e+00	0.00000e+00	0.00000e+00	0.00000e+00	0.00000e+00	0.00000e+00	0.00000e+00	0.00000e+00	0.00000e+00	0.00000e+00	0.00000e+00	0.00000e+00	0.00000e+00	0.00000e+00	0.00000e+00	0.00000e+00	0.00000e+00	0.00000e+00	0.00000e+00	0.00000e+00	0.00000e+00	0.00000e+00	0.00000e+00	0.00000e+00	0.00000e+00	0.00000e+00	0.00000e+00	0.00000e+00	0.00000e+00	0.00000e+00	0.00000e+00	0.00000e+00	0.00000e+00	0.00000e+00	0.00000e+00	0.00000e+00	0.00000e+00	0.00000e+00	0.00000e+00	0.00000e+00	0.00000e+00	0.00000e+00	0.00000e+00	0.00000e+00	
Factor	1.00000e+00	1.00000e+00	1.00000e+00	1.00000e+00	1.00000e+00	1.00000e+00	1.00000e+00	1.00000e+00	1.00000e+00	1.00000e+00	1.00000e+00	1.00000e+00	1.00000e+00	1.00000e+00	1.00000e+00	1.00000e+00	1.00000e+00	1.00000e+00	1.00000e+00	1.00000e+00	1.00000e+00	1.00000e+00	1.00000e+00	1.00000e+00	1.00000e+00	1.00000e+00	1.00000e+00	1.00000e+00	1.00000e+00	1.00000e+00	1.00000e+00	1.00000e+00	X	X	X	X	X	X	X	X	X	X	X	X	X	X	X	X	

B = Detector Channel
Val Type	B-AC1	B-AC2	B-AC3	B-AC4	B-AC5	B-AC6	B-AC7	B-AC8	B-AC9	B-AC10	B-AC11	B-AC12	B-AC13	B-AC14	B-AC15	B-AC16	B-DC1	B-DC2	B-DC3	B-DC4	B-DC5	B-DC6	B-DC7	B-DC8	B-DC9	B-DC10	B-DC11	B-DC12	B-DC13	B-DC14	B-DC15	B-DC16	B-Ph1	B-Ph2	B-Ph3	B-Ph4	B-Ph5	B-Ph6	B-Ph7	B-Ph8	B-Ph9	B-Ph10	B-Ph11	B-Ph12	B-Ph13	B-Ph14	B-Ph15	B-Ph16	

Term	0.00000e+00	0.00000e+00	0.00000e+00	0.00000e+00	0.00000e+00	0.00000e+00	0.00000e+00	0.00000e+00	0.00000e+00	0.00000e+00	0.00000e+00	0.00000e+00	0.00000e+00	0.00000e+00	0.00000e+00	0.00000e+00	0.00000e+00	0.00000e+00	0.00000e+00	0.00000e+00	0.00000e+00	0.00000e+00	0.00000e+00	0.00000e+00	0.00000e+00	0.00000e+00	0.00000e+00	0.00000e+00	0.00000e+00	0.00000e+00	0.00000e+00	0.00000e+00	-4.91106e+01	-1.29134e+02	-1.27521e+02	-1.82803e+02	-4.69321e+01	-6.59653e+01	-1.55300e+02	-1.62015e+02	-3.08113e+01	-5.60136e+01	-1.72433e+02	-1.69655e+02	-1.79183e+02	-1.77693e+02	-4.59966e+01	-1.49676e+02	
Factor	2.21910e-05	1.68420e-04	4.73740e-05	1.71963e-01	2.02722e-06	1.93536e-06	1.62812e-01	5.14453e-02	1.28848e-06	1.77628e-06	9.95207e-02	3.07250e-02	2.96854e-02	1.01395e-02	1.68739e-06	1.45673e-02	8.04080e-06	1.07497e-05	2.97371e-06	8.54535e-02	1.12668e-07	1.18595e-07	7.62481e-02	2.57182e-02	1.11776e-07	1.19426e-07	4.83138e-02	1.49934e-02	1.50207e-02	5.11324e-03	1.16012e-07	7.12113e-03	X	X	X	X	X	X	X	X	X	X	X	X	X	X	X	X	



#DISTANCE SETTINGS
A = Detector Channel
A-1	A-2	A-3	A-4	A-5	A-6	A-7	A-8	A-9	A-10	A-11	A-12	A-13	A-14	A-15	A-16	

2.5000e+00	3.0000e+00	2.5000e+00	3.0000e+00	2.0000e+00	3.0000e+00	1.5000e+00	3.0000e+00	3.0000e+00	3.0000e+00	3.0000e+00	3.0000e+00	3.0000e+00	3.0000e+00	1.5000e+00	3.0000e+00	

B = Detector Channel
B-1	B-2	B-3	B-4	B-5	B-6	B-7	B-8	B-9	B-10	B-11	B-12	B-13	B-14	B-15	B-16	

1.0000e+01	1.0000e+01	1.0000e+01	1.4400e+00	1.0000e+01	1.0000e+01	1.5100e+00	1.9400e+00	1.0000e+01	1.0000e+01	1.9900e+00	2.4900e+00	2.4100e+00	2.9000e+00	1.0000e+01	2.9800e+00	




#DATA BEGINS
time	group	step	mark	flag	A-AC1	A-AC2	A-AC3	A-AC4	A-AC5	A-AC6	A-AC7	A-AC8	A-AC9	A-AC10	A-AC11	A-AC12	A-AC13	A-AC14	A-AC15	A-AC16	A-DC1	A-DC2	A-DC3	A-DC4	A-DC5	A-DC6	A-DC7	A-DC8	A-DC9	A-DC10	A-DC11	A-DC12	A-DC13	A-DC14	A-DC15	A-DC16	A-Ph1	A-Ph2	A-Ph3	A-Ph4	A-Ph5	A-Ph6	A-Ph7	A-Ph8	A-Ph9	A-Ph10	A-Ph11	A-Ph12	A-Ph13	A-Ph14	A-Ph15	A-Ph16	B-AC1	B-AC2	B-AC3	B-AC4	B-AC5	B-AC6	B-AC7	B-AC8	B-AC9	B-AC10	B-AC11	B-AC12	B-AC13	B-AC14	B-AC15	B-AC16	B-DC1	B-DC2	B-DC3	B-DC4	B-DC5	B-DC6	B-DC7	B-DC8	B-DC9	B-DC10	B-DC11	B-DC12	B-DC13	B-DC14	B-DC15	B-DC16	B-Ph1	B-Ph2	B-Ph3	B-Ph4	B-Ph5	B-Ph6	B-Ph7	B-Ph8	B-Ph9	B-Ph10	B-Ph11	B-Ph12	B-Ph13	B-Ph14	B-Ph15	B-Ph16	aux-1	digaux	

41165.738	1	1	0	768	0.092971	0.12822	0.13595	0.20785	0.22838	0.31629	0.099638	0.21089	0.20011	0.3096	0.094241	0.0094511	0.1789	0.23749	0.10628	0.12284	-2.6229	-2.9583	-2.85	-3.1833	-2.8104	-2.9833	-3.3187	-3	-3.2542	-2.9167	-2.9854	-3.1188	-2.9333	-3.0979	-3.0625	-2.8479	409.791	184.741	358.055	442.887	215.808	289.108	443.335	419.988	327.189	188.774	413.697	232.450	383.733	436.451	456.901	325.802	0.0006086	0.00065699	0.00012025	1352.6	4.7233e-06	3.8996e-06	1357.4	367.44	6.3638e-06	4.9599e-06	415	140.31	121.8	41.506	2.9139e-06	51.52	0.0005742	0.00054559	0.00014916	1378.2	6.0073e-06	5.9357e-06	1377	374.12	5.8675e-06	5.9725e-06	425.81	143.37	124.53	42.827	5.8025e-06	53.069	269.918	209.966	254.101	155.660	302.822	329.368	155.655	160.375	314.552	318.183	159.771	164.202	164.796	169.570	330.057	168.177	-8191	255	
41165.832	1	1	0	0	0.3098	0.036293	0.14242	0.24541	0.16347	0.21579	0.22168	0.36509	0.077188	0.25585	0.073882	0.17171	0.1224	0.20265	0.10107	0.31681	-2.7292	-3.0271	-2.875	-3.1958	-2.7792	-2.9208	-3.1958	-3.0208	-3.1312	-3.1771	-2.925	-3.2271	-3.1083	-3.0375	-3.3167	-2.8833	501.655	324.856	223.992	425.113	318.898	425.569	411.104	460.953	409.039	333.103	433.719	475.626	421.835	449.434	497.753	155.570	0.00063843	0.00040639	0.00014313	1352.5	5.3759e-06	4.9137e-06	1355.9	366.38	5.4595e-06	5.0254e-06	415.48	139.77	121.83	41.524	6.2556e-06	51.555	0.00058485	0.00055936	0.00014587	1377.9	5.993e-06	5.7697e-06	1376	373.5	6.0694e-06	5.936e-06	425.43	143.23	124.57	42.915	5.7762e-06	53.146	268.140	242.094	229.586	155.739	301.275	309.944	155.536	160.294	314.060	311.054	159.858	164.329	164.800	169.325	294.834	168.537	-8191	255	
41165.930	1	1	0	0	0.12483	0.2156	0.31283	0.19567	0.21769	0.029549	0.22389	0.22302	0.032824	0.18666	0.1597	0.13822	0.095072	0.12953	0.13368	0.23012	-2.5833	-3.0187	-2.7479	-3.3354	-3.0354	-2.9375	-3.3021	-2.9292	-3.0771	-3.0062	-2.9	-3.2938	-3.125	-2.8917	-3.2583	-2.8771	248.637	189.366	164.853	435.704	183.378	204.710	144.694	165.220	180.475	162.031	305.234	174.539	455.107	431.268	263.146	456.812	0.00066095	0.00059136	0.0001406	1355.6	8.1023e-06	5.9524e-06	1356.4	365.55	6.5938e-06	3.1851e-06	418.26	140.28	121.62	41.629	5.4793e-06	51.537	0.00057581	0.00053522	0.00014972	1378	6.2045e-06	5.8517e-06	1376.7	373.24	6.1924e-06	5.879e-06	426.07	143.16	124.41	42.856	6.0691e-06	53.097	267.678	246.592	224.615	155.840	287.359	294.548	155.495	160.488	323.575	316.317	159.702	164.368	164.840	169.277	317.994	168.362	-8191	255	
41166.023	1	1	0	0	0.14738	0.062512	0.15667	0.30039	0.17628	0.12138	0.38537	0.10823	0.055451	0.052817	0.10096	0.061321	0.16863	0.24761	0.2716	0.16531	-2.4813	-3.0938	-2.6021	-3.2333	-2.9521	-2.7583	-3.2896	-3.0833	-2.8438	-3.2417	-2.8042	-3.2	-3.0958	-2.8896	-3.0792	-3.0854	432.938	417.249	321.373	352.638	446.399	339.602	435.225	379.780	312.958	258.416	202.560	442.995	394.697	463.659	450.270	496.459	0.00061252	0.00060227	0.00010068	1355.7	7.2989e-06	4.8901e-06	1358.4	365.82	6.9019e-06	5.4491e-06	416.81	140.41	122.27	41.593	5.002e-06	51.789	0.00057584	0.00054246	0.00015066	1378.3	6.1707e-06	5.9495e-06	1377.2	373.23	6.2336e-06	5.9103e-06	425.63	143.14	124.64	42.882	6.1092e-06	53.189	272.706	245.491	229.746	155.753	292.456	308.758	155.439	160.612	333.518	287.205	159.813	164.342	164.811	169.235	310.571	168.139	-8191	255	
41166.121	1	1	0	0	0.076942	0.14699	0.21491	0.34678	0.1312	0.10555	0.20208	0.44583	0.05152	0.27197	0.23221	0.028625	0.15546	0.11213	0.26051	0.070143	-2.3833	-3.0979	-2.9458	-3.1979	-2.9938	-2.7417	-3.2417	-3.0042	-2.8208	-3.0104	-2.9125	-3.3521	-3.0833	-2.8979	-3.1021	-2.9875	229.042	176.762	443.559	149.648	192.015	257.995	370.046	451.356	162.291	423.071	407.311	453.319	456.948	497.433	226.592	471.354	0.0006031	0.00058916	0.00010375	1354.8	7.775e-06	3.9313e-06	1355.3	367.08	7.1354e-06	4.2541e-06	415.41	140.27	121.71	41.592	4.4001e-06	51.501	0.00057232	0.00053466	0.00015375	1378.8	6.135e-06	6.0128e-06	1376.5	373.97	5.9209e-06	5.9233e-06	425.57	143.12	124.64	42.822	6.1573e-06	53.05	267.386	248.931	216.875	155.741	309.064	275.251	155.631	160.398	312.833	304.315	159.710	164.371	164.704	169.233	306.211	168.347	-8191	255	
41166.219	1	1	0	0	0.2406	0.087577	0.15713	0.20885	0.21017	0.042111	0.14652	0.33745	0.09365	0.12216	0.27181	0.27566	0.07182	0.12507	0.25726	0.10978	-2.5333	-3.0542	-2.7146	-3.1833	-2.9875	-2.9417	-3.275	-3.0167	-2.9625	-3.0042	-2.9562	-3.0354	-3.0792	-2.8187	-3.2333	-3.0792	221.579	157.996	440.276	477.528	195.956	357.193	398.936	433.309	306.688	486.657	422.864	423.873	303.457	485.038	413.082	458.327	0.00063164	0.00047511	0.00018523	1352.9	7.6403e-06	3.99e-06	1357.7	367.36	5.1606e-06	6.0025e-06	415.39	140.64	121.81	41.465	4.8949e-06	51.566	0.00057023	0.00053643	0.00015613	1377.1	6.0102e-06	5.9846e-06	1378.1	373.96	6.0196e-06	5.8867e-06	425.2	143.23	124.42	42.834	6.3207e-06	53.122	270.096	216.528	241.108	155.494	309.636	260.641	155.441	160.520	318.462	319.820	159.918	164.425	164.808	169.246	291.111	168.363	-8191	255	
41166.336	1	1	0	0	0.071681	0.20395	0.090924	0.23483	0.10648	0.070641	0.13231	0.15263	0.074709	0.22946	0.12923	0.13253	0.089863	0.3171	0.23719	0.24465	-2.4417	-3.1021	-2.825	-3.0333	-3.0708	-2.9375	-3.3479	-3.3	-2.8333	-3.1104	-2.9833	-3.0479	-3.2896	-2.8833	-3.1875	-3.3229	235.497	360.290	360.073	442.343	425.031	208.917	437.153	498.618	315.555	428.938	452.320	462.393	364.700	413.098	301.024	472.030	0.00062022	0.00043382	9.6476e-05	1356.4	6.2711e-06	3.9028e-06	1357.3	365.5	5.6219e-06	6.1549e-06	415.84	139.64	121.55	41.699	3.0235e-06	51.429	0.00054699	0.00053771	0.00015721	1379.8	5.9252e-06	6.055e-06	1377.6	373.77	5.8785e-06	5.9905e-06	425.68	143.34	124.49	42.913	6.1336e-06	53.134	267.188	213.951	225.583	155.515	306.545	326.965	155.311	160.309	324.322	324.786	159.768	164.330	164.938	169.319	285.377	168.474	-8191	255	
41166.434	1	1	0	0	0.048854	0.029562	0.036824	0.33628	0.1613	0.044916	0.33479	0.027071	0.20779	0.13146	0.32088	0.2846	0.11832	0.18809	0.14684	0.28271	-2.3312	-3.0812	-2.8021	-3.0125	-3.3	-2.95	-3.1479	-3.0625	-2.95	-2.9958	-2.9417	-3.0792	-3.1896	-2.7854	-2.9125	-3.1625	212.117	406.301	443.480	494.345	242.102	168.211	456.352	353.134	230.666	445.444	181.812	496.588	489.122	443.286	367.583	486.909	0.00062248	0.00065876	0.00015947	1351.2	7.6999e-06	5.896e-06	1355.5	364.75	6.1051e-06	7.1274e-06	416.35	140.08	121.61	41.654	8.1138e-06	51.981	0.00055428	0.00054875	0.00015754	1375.4	5.8609e-06	6.1173e-06	1377.6	373.53	5.9591e-06	6.191e-06	426.07	143.38	124.5	42.87	6.159e-06	53.228	272.180	228.557	212.875	155.751	295.340	303.673	155.596	160.598	305.317	296.827	159.606	164.101	164.895	169.257	325.187	168.338	-8191	255	
41166.527	1	1	0	0	0.070368	0.21455	0.1037	0.11878	0.22805	0.21233	0.089932	0.37511	0.15214	0.10004	0.15914	0.28159	0.14998	0.32232	0.052359	0.39061	-2.3583	-3.1646	-2.9583	-3.0271	-3.1771	-2.9958	-3.2687	-3.2104	-2.7542	-2.9396	-3.1625	-2.85	-3.1	-2.8792	-2.875	-3.0646	292.656	237.094	467.495	501.579	480.046	189.126	492.098	433.377	249.751	214.615	387.200	435.148	494.417	188.981	424.384	387.551	0.000625	0.00077776	7.7063e-05	1353.8	5.9607e-06	3.9284e-06	1356.7	366.86	5.4298e-06	5.3691e-06	417.35	140.19	121.45	41.49	4.7416e-06	51.563	0.00057879	0.00056543	0.00015637	1378.8	5.8573e-06	6.1657e-06	1377.5	373.8	6.1763e-06	6.3415e-06	426.48	143.32	124.49	42.936	6.2598e-06	53.185	271.594	225.559	200.751	155.622	300.365	305.289	155.520	160.251	321.291	299.239	159.385	164.493	164.719	169.416	302.571	168.333	-8191	255	
41166.625	1	1	0	0	0.27398	0.29319	0.25687	0.23293	0.051742	0.09337	0.15607	0.48206	0.17748	0.20707	0.11047	0.06303	0.32729	0.13703	0.056233	0.14808	-2.3417	-3.0021	-3.0375	-3.1104	-3.1583	-3.0687	-3.1479	-3.2292	-2.8271	-3.1833	-3.1542	-2.9708	-3.1271	-3.1	-3.0062	-3.2521	276.654	432.349	309.112	441.746	157.705	277.505	491.109	452.044	404.928	163.973	465.748	498.544	426.138	157.855	176.071	489.602	0.00059859	0.00035778	0.00018974	1360.9	5.6325e-06	5.2188e-06	1358.7	366.57	5.7705e-06	2.9929e-06	415.75	140.11	121.92	41.621	4.6601e-06	51.726	0.00057969	0.00056624	0.00015696	1380.2	6.1038e-06	6.2052e-06	1377.1	373.75	5.987e-06	6.1445e-06	425.23	143.32	124.49	42.891	6.073e-06	53.183	270.392	221.310	242.297	155.628	304.901	291.962	155.533	160.242	325.604	250.582	159.447	164.335	164.696	169.145	302.245	168.430	-8191	255	
41166.723	1	1	0	0	0.026785	0.19958	0.16178	0.19393	0.1505	0.023382	0.17028	0.17295	0.071925	0.17337	0.087439	0.1077	0.053648	0.14849	0.28454	0.17833	-2.3958	-2.8417	-2.9833	-2.9729	-3.125	-2.9104	-3.0979	-3.3542	-3.0208	-3.0875	-3.1312	-2.7625	-3.1896	-2.9229	-2.7938	-3.2979	357.731	351.577	262.448	453.855	324.445	426.411	413.629	171.636	215.829	497.204	289.863	397.228	184.171	469.256	385.060	477.845	0.00061944	0.00078376	0.00011423	1352.4	5.4969e-06	3.3916e-06	1357.6	367.02	5.2763e-06	6.6919e-06	416.27	140.3	121.64	41.657	5.7426e-06	51.635	0.00056748	0.00054908	0.00014721	1377.9	6.017e-06	5.9952e-06	1377.6	374.29	6.1356e-06	6.1606e-06	425.84	143.32	124.43	42.924	5.8521e-06	53.104	269.865	234.190	257.438	155.656	280.608	306.055	155.415	160.413	306.734	312.929	159.805	164.260	164.691	169.245	311.965	168.260	-8191	255	
41166.816	1	1	0	0	0.18581	0.23531	0.38978	0.33506	0.19602	0.13861	0.11244	0.23084	0.094754	0.18485	0.13484	0.26349	0.17517	0.21378	0.017304	0.1259	-2.5625	-2.9375	-3.1229	-2.9042	-3.1229	-2.8937	-3.0604	-3.3229	-2.9042	-2.9146	-3.2438	-2.8708	-3.2354	-3.025	-2.9417	-3.275	466.563	293.803	148.969	148.554	213.993	297.423	373.476	409.685	324.565	291.915	158.579	173.592	295.179	182.815	172.000	486.071	0.00063817	0.00043711	0.00012862	1355.4	8.3842e-06	1.8372e-07	1360.1	366.51	5.087e-06	4.7726e-06	416.5	140.17	122.32	41.698	6.7053e-06	51.671	0.00058296	0.00056172	0.00014753	1378	6.2756e-06	5.9231e-06	1378.9	374.16	6.208e-06	6.2024e-06	425.85	143.28	124.78	42.932	5.8825e-06	53.114	272.313	244.722	234.016	155.592	316.306	173.429	155.527	160.474	319.259	342.266	159.820	163.998	164.923	169.319	301.847	168.075	-8191	255	
41166.938	1	1	0	0	0.023869	0.23919	0.10976	0.20503	0.20065	0.086699	0.26767	0.14943	0.16277	0.18644	0.19905	0.18849	0.14504	0.12414	0.26084	0.0624	-2.5458	-2.7729	-2.9896	-3.0271	-3.1354	-3.0812	-3.0521	-3.2458	-2.7583	-3.0646	-3.3021	-2.9188	-3.2167	-3	-2.6562	-3.3104	388.764	179.934	381.868	175.275	445.950	199.621	435.201	414.620	392.474	296.386	200.333	143.323	462.163	177.896	464.971	250.776	0.00064443	0.00045345	0.00017702	1360.8	7.4437e-06	4.4635e-06	1353.2	366.27	6.6225e-06	4.0641e-06	416.36	140.01	122.41	41.607	6.5025e-06	51.672	0.0005851	0.00054752	0.0001504	1379.8	6.1655e-06	6.0738e-06	1376.4	373.8	6.2459e-06	6.0183e-06	425.81	143.37	124.8	42.892	5.9884e-06	53.22	267.840	224.112	218.289	155.598	277.341	301.587	155.611	160.329	324.084	327.176	159.818	164.352	164.651	169.364	316.256	168.241	-8191	255	
41167.035	1	1	0	0	0.1531	0.32438	0.15684	0.24452	0.08662	0.16149	0.26525	0.35763	0.19864	0.31651	0.082288	0.21275	0.096585	0.18537	0.054868	0.11476	-2.4958	-2.8229	-2.9938	-2.8896	-2.75	-3.1458	-3.1542	-3.2729	-3.0292	-2.9146	-3.2875	-2.8312	-2.9917	-3.0729	-2.8729	-3.175	223.163	385.471	296.051	498.266	145.833	273.771	468.550	348.439	296.144	466.538	442.348	152.461	415.647	180.355	287.010	165.846	0.00061247	0.00032257	0.0001749	1353.5	1.006e-05	5.7746e-06	1354.1	367.93	3.7359e-06	5.7415e-06	418.28	140.7	121.89	41.602	4.9673e-06	51.617	0.00058934	0.00055	0.00014911	1378.2	6.1148e-06	5.7941e-06	1377.3	373.91	6.0897e-06	6.1154e-06	426.6	143.21	124.7	42.94	6.2076e-06	53.163	268.395	248.018	203.646	155.576	284.072	288.040	155.681	160.343	325.540	295.128	159.932	164.202	164.731	169.485	272.807	168.414	-8191	255	
41167.129	1	1	0	0	0.25694	0.16018	0.13034	0.25964	0.078509	0.0582	0.2812	0.17748	0.10864	0.076854	0.52587	0.14901	0.049667	0.10568	0.076341	0.16621	-2.5604	-2.6458	-3.1917	-3.1042	-3.0417	-3.0396	-3.0729	-3.0646	-3.0146	-2.7521	-3.1542	-3.0187	-2.9521	-3.25	-2.9708	-3.0875	414.232	159.107	167.504	443.460	496.108	211.580	445.192	411.735	372.499	223.330	466.595	433.494	397.317	479.345	212.966	167.376	0.00061543	0.00061821	0.00017426	1357.5	5.7112e-06	3.4056e-06	1356.7	366.68	6.0704e-06	6.5004e-06	416.92	139.99	121.12	41.517	6.0136e-06	51.613	0.00057487	0.00053153	0.00014992	1379.5	6.1221e-06	5.8075e-06	1377.5	373.94	6.1046e-06	5.8937e-06	426.67	143.17	124.58	42.929	6.3836e-06	53.097	266.366	228.923	229.123	155.713	302.621	335.293	155.461	160.520	307.455	302.814	159.656	164.427	164.686	169.126	305.914	168.375	-8191	255	
41167.227	1	1	0	0	0.31056	0.26672	0.26406	0.209	0.072705	0.086495	0.15698	0.19327	0.20951	0.2643	0.20556	0.2516	0.19104	0.46755	0.056761	0.12794	-2.5125	-2.8333	-3.1896	-3.0896	-2.8375	-3.1875	-3.0771	-3.0104	-3.0396	-2.8271	-3.2333	-2.9333	-3.0083	-3.1625	-2.9104	-3	408.785	472.982	431.376	422.779	159.079	403.746	477.331	394.687	166.652	161.311	432.037	431.026	396.432	214.481	481.139	405.135	0.00062416	0.00046905	0.00013865	1353.8	5.751e-06	7.9047e-06	1355.5	366.76	5.5729e-06	5.961e-06	417.25	140.14	121.59	41.501	4.526e-06	51.501	0.00056023	0.00054853	0.00016077	1381.1	6.1439e-06	5.996e-06	1379	374.21	5.9905e-06	6.1308e-06	426.34	143.57	124.57	42.948	6.3202e-06	53.129	271.938	214.858	225.032	155.572	300.978	284.671	155.674	160.385	325.312	283.955	159.956	164.451	164.729	169.254	304.120	168.322	-8191	255	
41167.320	1	1	0	0	0.38521	0.068626	0.18351	0.15552	0.11811	0.15139	0.26228	0.2216	0.13263	0.13607	0.18202	0.26428	0.10398	0.13642	0.16286	0.19382	-2.6188	-2.8563	-3.0875	-3.3208	-2.7479	-3.0708	-3.0042	-3.1021	-3.0042	-2.7271	-3.1333	-3.1333	-2.8667	-3.2208	-2.9	-2.9938	495.268	214.296	490.439	481.198	236.849	335.178	448.629	387.922	380.321	330.460	430.248	468.415	378.158	484.803	266.780	147.713	0.00061686	0.00047239	9.8115e-05	1357.6	9.0835e-06	5.2944e-06	1355.2	366.62	4.7397e-06	4.0091e-06	418.97	140.47	121.61	41.761	5.6687e-06	51.651	0.00057751	0.00057294	0.00016253	1380.7	6.0883e-06	6.0738e-06	1378.4	374.29	6.079e-06	6.2278e-06	426.68	143.49	124.54	42.975	6.5174e-06	53.125	267.576	245.659	236.750	155.453	305.670	313.397	155.529	160.401	321.566	300.277	159.511	164.386	164.884	168.961	313.931	168.248	-8191	255	
41167.418	1	1	0	0	0.40964	0.23084	0.13909	0.25115	0.1751	0.093855	0.21658	0.33601	0.066489	0.20224	0.25743	0.17564	0.2132	0.3159	0.25166	0.15604	-2.7167	-2.8896	-3.15	-3.1042	-2.8438	-2.9542	-3.0521	-2.9917	-3.0896	-2.8021	-2.9396	-3.0917	-2.8104	-3.1917	-3.0271	-3.0458	334.394	365.653	253.373	499.958	199.737	213.596	350.394	414.830	244.035	456.134	187.385	165.851	196.740	419.506	224.386	421.662	0.00061534	0.00046922	0.00015829	1356	6.0024e-06	4.316e-06	1356.3	366.51	5.0303e-06	4.0705e-06	417.71	140.42	122.05	41.759	4.9711e-06	51.791	0.00057036	0.00057336	0.00016299	1381.4	6.1209e-06	6.1988e-06	1377.8	374.21	6.0187e-06	6.297e-06	426.78	143.51	124.7	42.94	6.4955e-06	53.277	268.304	204.715	243.935	155.525	305.245	241.613	155.529	160.547	325.647	348.488	159.534	164.315	164.971	169.414	325.235	168.285	-8191	255	
41167.512	1	1	0	0	0.24835	0.089043	0.1551	0.28805	0.31035	0.073974	0.37833	0.11058	0.29465	0.099761	0.12259	0.37979	0.37152	0.22128	0.11851	0.041515	-2.7313	-2.8688	-2.8521	-3.4146	-2.7562	-3.1604	-3.1958	-3.125	-3.2146	-2.8063	-3.1396	-3.2417	-2.8812	-3.0979	-3.0604	-2.9542	196.856	260.274	406.701	461.836	382.129	443.721	409.189	441.073	313.737	327.750	463.802	405.078	479.958	219.202	160.371	398.794	0.00059172	0.00054978	0.00018402	1357.3	4.8542e-06	6.2981e-06	1353.8	366.48	7.0901e-06	4.4322e-06	417.85	140.33	121.82	41.403	6.2242e-06	51.8	0.00056689	0.00056996	0.00016077	1380.9	6.0975e-06	6.1897e-06	1379.3	374.4	6.044e-06	6.2612e-06	427.54	143.39	124.69	42.927	6.2557e-06	53.311	268.897	252.800	239.737	155.552	300.603	307.740	155.354	160.415	322.034	286.581	159.600	164.385	164.984	169.106	293.509	168.208	-8191	255	
41167.609	1	1	0	0	0.15076	0.26632	0.10794	0.10967	0.090752	0.21748	0.30964	0.23401	0.15809	0.1597	0.21264	0.22245	0.13903	0.3287	0.12397	0.18653	-2.6646	-2.9021	-2.8646	-3.2333	-2.8354	-3.0646	-3.2375	-2.9958	-3.2042	-2.9229	-3.1396	-3.1979	-2.8729	-3.2208	-3.1354	-2.8563	432.898	420.914	474.491	464.716	241.648	245.814	449.588	483.807	443.349	307.053	144.778	416.137	397.270	166.154	443.258	488.810	0.00063556	0.0004192	0.00021721	1357.6	9.862e-06	5.4334e-06	1358.3	366.06	5.7734e-06	5.8668e-06	416.92	140.23	121.95	41.461	4.6857e-06	51.426	0.00058029	0.00057739	0.00015863	1380.5	6.2756e-06	6.4167e-06	1380.2	374.34	6.0815e-06	6.3831e-06	427.38	143.36	124.75	42.942	6.2112e-06	53.207	268.783	232.706	235.352	155.615	299.961	307.892	155.554	160.396	309.967	303.398	159.716	164.241	164.894	169.121	311.911	168.098	-8191	255	
41167.703	1	1	0	0	0.30802	0.19705	0.20597	0.10196	0.019248	0.26284	0.24193	0.16997	0.27887	0.15739	0.14445	0.13768	0.25863	0.1199	0.018643	0.23805	-2.6792	-2.7396	-2.8542	-3.3271	-2.8688	-3.0146	-3.1937	-2.9354	-3.1188	-2.9292	-2.8854	-3.1208	-2.7354	-3.0167	-3.1042	-2.8729	234.944	348.273	201.230	206.543	173.986	501.280	461.265	399.505	161.170	366.043	153.482	490.429	346.337	375.824	357.290	460.605	0.00062567	0.00045502	0.00010421	1358.8	6.7686e-06	4.0911e-06	1357.6	367.33	5.3347e-06	5.8894e-06	416.47	140.17	122.33	41.897	5.3566e-06	51.662	0.00057916	0.00056366	0.00015108	1381.6	6.2106e-06	6.1442e-06	1379.4	374.56	6.1367e-06	6.2828e-06	426.99	143.4	124.68	42.965	6.058e-06	53.196	269.906	270.789	239.434	155.481	342.492	283.389	155.622	160.486	318.985	322.337	159.700	164.388	164.868	169.120	290.732	168.071	-8191	255	
41167.824	1	1	0	0	0.036491	0.36192	0.16435	0.1969	0.20964	0.02363	0.21514	0.30321	0.05919	0.27782	0.11509	0.14783	0.27064	0.076642	0.25875	0.19921	-2.5312	-2.8896	-2.7938	-3.4188	-3.0625	-3.0708	-3.3396	-2.8625	-3.1604	-2.8396	-2.9229	-3.2042	-3.0667	-2.9875	-3.0792	-2.8958	325.959	386.004	411.414	481.357	368.260	447.305	459.302	468.910	249.837	231.652	495.013	245.490	462.840	269.956	169.315	440.486	0.00061911	0.00032486	0.0001168	1359.1	4.6135e-06	5.1616e-06	1359.3	368	5.8641e-06	4.3867e-06	418.51	141.17	122.02	41.69	4.2982e-06	51.485	0.00059303	0.00057609	0.00015028	1382.7	6.3148e-06	6.2823e-06	1380.9	374.72	6.1772e-06	6.2689e-06	426.79	143.75	124.8	42.957	6.0029e-06	53.185	269.092	235.145	240.410	155.585	296.948	317.904	155.434	160.443	318.796	315.419	159.693	164.242	164.675	168.940	315.455	168.209	-8191	255	
41167.898	1	1	0	0	0.20003	0.065179	0.10713	0.32341	0.077531	0.26171	0.41814	0.090236	0.13699	0.16122	0.29502	0.28351	0.165	0.36699	0.15013	0.098861	-2.7042	-2.9958	-2.8021	-3.3	-3.1188	-2.8167	-3.3333	-2.9146	-3.0312	-3.0708	-2.9062	-3.0271	-3.1	-3.0146	-3.1646	-2.8375	450.769	392.832	142.505	473.236	331.428	425.923	463.220	384.007	273.031	360.333	150.695	501.837	472.006	462.311	260.947	166.932	0.00062464	0.00031887	0.00019767	1357.9	4.944e-06	7.2504e-06	1361.7	367.54	4.6399e-06	4.9673e-06	419.03	140.68	121.7	41.443	6.0986e-06	51.473	0.00057426	0.00055262	0.00014693	1382.5	6.1177e-06	6.0054e-06	1381.5	374.5	6.2119e-06	5.8671e-06	427.52	143.52	124.88	42.891	5.9521e-06	53.086	270.667	231.254	220.448	155.778	308.789	294.842	155.630	160.478	302.557	317.520	159.757	164.348	164.835	169.172	285.797	168.375	-8191	255	
41168.020	1	1	0	0	0.083407	0.11869	0.11449	0.28535	0.15047	0.23849	0.13073	0.21938	0.20708	0.16527	0.12951	0.008019	0.017285	0.34696	0.28343	0.099434	-2.5687	-3.0042	-2.5979	-2.9708	-2.8563	-2.9646	-3.3688	-2.9229	-2.9646	-3.0187	-3.0042	-3.2479	-3.0396	-2.95	-3.1292	-2.9688	344.380	430.150	286.370	448.146	273.681	351.559	223.730	412.388	416.499	446.874	486.558	360.481	146.076	463.397	400.730	214.660	0.00064933	0.00055164	0.00011724	1357.3	7.6953e-06	3.1433e-06	1359.4	367.82	4.6898e-06	4.8803e-06	417.39	140.62	121.94	41.743	7.9692e-06	51.487	0.00057962	0.0005421	0.00014908	1381.7	6.1951e-06	5.9305e-06	1382	375.04	6.059e-06	5.9437e-06	427.11	143.54	124.74	43.019	5.9855e-06	53.231	270.042	234.729	227.017	155.656	304.289	303.888	155.513	160.440	314.273	308.522	160.021	164.069	164.822	169.556	304.695	168.230	-8191	255	
41168.113	1	1	0	0	0.15929	0.11306	0.19971	0.43326	0.27161	0.13255	0.036705	0.29559	0.095996	0.13433	0.19627	0.1626	0.19718	0.11154	0.12471	0.15175	-2.5708	-3.1375	-2.9042	-3.35	-3.1	-2.8333	-3.2396	-2.8854	-2.9688	-3.1792	-2.8771	-3.0083	-3.075	-3.0229	-3.2583	-3.1292	334.519	203.467	202.024	472.132	428.464	342.443	430.846	453.435	490.178	285.891	456.290	496.778	412.604	458.801	163.689	215.017	0.00063481	0.00067548	0.00012663	1362.6	7.9827e-06	6.6902e-06	1358.3	367.22	4.6572e-06	4.1146e-06	418.51	140.38	121.88	41.722	4.5861e-06	51.691	0.00057988	0.00052839	0.00014843	1386.1	6.0289e-06	5.7373e-06	1381.2	374.98	5.9774e-06	5.8098e-06	426.93	143.49	124.84	42.968	6.0162e-06	53.306	268.557	191.191	205.327	155.532	309.378	303.819	155.505	160.528	311.152	299.941	159.791	164.317	164.719	169.540	310.500	168.362	-8191	255	
41168.211	1	1	0	0	0.010589	0.17973	0.31282	0.12023	0.16325	0.19842	0.066059	0.26655	0.43686	0.34966	0.18754	0.20987	0.2618	0.068024	0.12808	0.11424	-2.5771	-3.3333	-2.8354	-3.0542	-3.0625	-2.8479	-3.2208	-2.9521	-2.7625	-3.2188	-2.9375	-3.075	-3.1875	-2.7812	-3.0167	-3.1979	272.091	164.969	314.436	263.414	249.201	327.343	447.394	144.400	278.007	414.010	425.342	441.233	235.166	425.235	364.888	366.550	0.00066185	0.00023682	0.00011761	1354.6	5.8404e-06	7.2913e-06	1363.9	367.58	6.0332e-06	5.8314e-06	418.31	140	122.26	41.609	4.3549e-06	51.505	0.00056436	0.00051274	0.00015059	1382.4	5.9153e-06	5.765e-06	1383.5	375.12	5.8769e-06	5.7735e-06	427.16	143.12	124.85	42.929	6.0082e-06	53.122	268.327	248.006	234.816	155.639	317.447	292.105	155.651	160.297	319.996	296.497	159.720	164.295	165.028	169.586	310.947	168.441	-8191	255	
41168.309	1	1	0	0	0.19821	0.10194	0.30016	0.090767	0.23359	0.1687	0.19465	0.079725	0.057272	0.2711	0.068535	0.19591	0.088655	0.0383	0.21586	0.20216	-2.3646	-3.0604	-2.5979	-3.1042	-2.9292	-2.8771	-3.2271	-3.2188	-2.8979	-3.1437	-2.9167	-2.9104	-3.15	-2.8521	-3.0167	-2.9146	411.655	463.482	364.663	446.511	440.267	363.590	471.478	490.145	246.838	486.248	342.818	499.487	218.681	388.690	249.764	400.003	0.00058174	0.00059877	9.7809e-05	1357.2	6.7938e-06	4.7547e-06	1361.3	368.58	5.5821e-06	2.9271e-06	418.29	139.91	122.02	41.846	6.2487e-06	51.702	0.00056212	0.00051312	0.00015356	1383.8	5.8414e-06	5.7158e-06	1382.4	375.09	5.8205e-06	5.6981e-06	427.64	143.33	124.85	43.037	5.9942e-06	53.2	267.280	232.431	234.149	155.706	284.725	294.737	155.644	160.515	331.252	280.954	159.679	164.393	165.052	169.193	299.258	168.313	-8191	255	
41168.426	1	1	0	0	0.2413	0.20683	0.076878	0.24097	0.2763	0.10348	0.078324	0.33292	0.10533	0.16561	0.3366	0.2432	0.15648	0.11686	0.076253	0.34307	-2.2083	-3.2	-2.8438	-2.9875	-3.175	-2.9104	-3.1688	-2.9938	-2.8875	-3.2146	-2.9583	-3.1146	-3.1167	-3.0021	-3.0125	-3.1562	149.371	200.213	384.091	493.851	340.460	234.537	151.781	427.874	211.738	286.516	478.783	417.457	451.660	460.011	204.109	279.389	0.00062417	0.00043382	9.176e-05	1354.7	7.8983e-06	4.5743e-06	1361.8	367.6	7.1057e-06	4.8056e-06	418.94	140	121.86	41.555	6.5709e-06	51.494	0.00055138	0.00051975	0.00015058	1381.7	5.5799e-06	5.7956e-06	1382.3	374.81	5.5988e-06	5.8593e-06	427.48	143.28	124.72	42.962	5.9098e-06	53.153	271.397	237.903	248.505	155.794	294.081	276.905	155.503	160.448	307.007	323.884	159.396	164.248	164.504	169.398	315.795	168.200	-8191	255	
41168.523	1	1	0	0	0.070688	0.074865	0.048816	0.1406	0.021089	0.12602	0.063548	0.23267	0.047825	0.028533	0.028693	0.37064	0.042366	0.17099	0.12735	0.18386	-2.3312	-2.9042	-2.875	-2.8583	-3.1729	-2.8208	-3.2333	-3.2375	-2.7271	-3.0208	-3.1042	-2.9854	-3.1875	-2.9479	-2.9042	-3.0708	480.552	280.502	392.916	402.257	353.673	196.036	438.528	442.177	231.034	399.146	238.529	346.330	181.974	358.131	434.438	435.764	0.00060741	0.0006681	0.00010711	1365.6	4.1065e-06	5.9403e-06	1364.1	367.43	4.3516e-06	2.9779e-06	417.52	140.41	121.49	41.768	7.8123e-06	51.874	0.00053763	0.00053887	0.00014821	1383.9	5.6599e-06	5.716e-06	1383.6	374.25	5.7246e-06	5.8815e-06	427.16	143.37	124.77	42.965	5.8854e-06	53.249	270.390	240.677	249.616	155.666	285.289	265.882	155.352	160.346	323.828	321.953	159.706	164.613	164.689	169.129	297.789	168.116	-8191	255	
41168.617	1	1	0	0	0.086378	0.19993	0.055764	0.27607	0.18424	0.11282	0.26482	0.18945	0.024064	0.20362	0.20387	0.070649	0.068543	0.13726	0.18053	0.20188	-2.3646	-3.0292	-3.0312	-2.925	-3.0708	-2.8833	-2.9229	-3.0958	-2.7604	-2.9958	-3.1688	-2.8146	-3.0958	-3.1208	-2.8979	-3.2125	234.775	481.859	357.736	481.312	462.802	204.391	463.045	414.177	281.250	410.114	198.717	201.618	187.280	209.231	345.884	383.711	0.00066162	0.00063279	0.00013656	1360	7.6947e-06	6.5033e-06	1359.5	367.96	6.9806e-06	2.5205e-06	418.8	140.84	121.5	41.745	4.5561e-06	51.645	0.00055018	0.00054255	0.00014348	1383.6	5.7038e-06	5.9688e-06	1381.5	375.04	5.7523e-06	6.026e-06	427.91	143.61	124.63	42.981	5.8651e-06	53.178	266.119	218.465	222.060	155.606	293.820	273.026	155.463	160.366	298.420	338.028	159.720	164.271	164.937	168.999	287.471	168.435	-8191	255	
41168.715	1	1	0	0	0.10496	0.21632	0.18552	0.19152	0.11153	0.080263	0.26408	0.29839	0.048793	0.15196	0.15179	0.17676	0.28937	0.19331	0.18606	0.14263	-2.4625	-3.0958	-3.0708	-3.0229	-3.1771	-3.0083	-3.2208	-3.2313	-2.9208	-3.0146	-3.0333	-2.95	-3.2729	-3.0042	-2.8229	-3.3	166.510	307.420	413.277	476.588	228.844	498.225	388.728	445.416	248.339	383.269	185.608	446.848	358.007	413.982	223.814	468.256	0.00064979	0.00049662	0.00014514	1363.2	6.2383e-06	4.6341e-06	1363.6	367.99	5.7903e-06	3.5604e-06	418.93	139.69	121.9	41.681	2.4441e-06	51.814	0.00055145	0.00053916	0.00014488	1386.5	5.7914e-06	5.9621e-06	1386	375.22	5.8629e-06	5.8666e-06	426.98	143.13	124.77	42.931	5.6979e-06	53.133	269.774	257.031	224.653	155.814	312.075	290.736	155.512	160.457	316.701	316.396	159.596	164.223	164.675	169.127	306.199	168.343	-8191	255	
41168.809	1	1	0	0	0.17785	0.43435	0.1225	0.093967	0.10344	0.17185	0.31284	0.10138	0.17305	0.10064	0.11109	0.1765	0.18275	0.031091	0.11214	0.1595	-2.4458	-3.0604	-3.0042	-3.0917	-3.2667	-2.9479	-3.1917	-3.2438	-2.8396	-3.0229	-3.2229	-3.0187	-2.9833	-3.1542	-2.8438	-3.3208	352.405	319.348	441.320	201.817	376.689	331.621	436.084	238.898	293.765	307.537	500.884	289.658	219.949	295.798	360.006	382.716	0.00060809	0.00040417	0.0001874	1362.5	3.4328e-06	5.7322e-06	1359.3	367.07	5.2659e-06	3.0694e-06	420.24	141.1	122.45	41.537	5.4169e-06	51.37	0.00056242	0.00054241	0.00014685	1385.8	6.032e-06	6.0313e-06	1381.9	374.78	5.9788e-06	6.0178e-06	427.74	143.61	124.87	42.9	5.8356e-06	53.088	265.876	239.043	250.023	155.698	324.262	265.627	155.445	160.364	328.709	308.904	159.716	164.206	164.726	169.134	329.095	168.515	-8191	255	
41168.906	1	1	0	0	0.17444	0.22822	0.31646	0.28627	0.21804	0.047911	0.35052	0.10605	0.3522	0.047057	0.027912	0.31144	0.20043	0.13706	0.19421	0.073561	-2.4875	-2.9896	-3.1437	-3.0021	-3.0771	-3.1479	-2.9	-3.2958	-2.9583	-2.8625	-3.1896	-2.9292	-3.1646	-3.1042	-2.7667	-3.0333	160.246	285.315	223.994	439.523	210.380	199.989	447.650	471.799	424.612	183.425	359.670	476.872	223.740	357.847	256.071	400.680	0.00059706	0.00041123	0.00017239	1359.1	7.5484e-06	6.4894e-06	1363.5	368.34	4.9772e-06	3.311e-06	417.78	140.26	121.91	41.486	6.4282e-06	51.559	0.00056927	0.0005483	0.00014703	1384.9	6.1118e-06	6.0466e-06	1383.8	375.03	6.1882e-06	6.0654e-06	426.84	143.25	124.62	42.905	5.8907e-06	53.233	266.913	197.156	238.975	155.574	296.212	313.636	155.519	160.238	312.710	316.719	159.683	164.327	164.537	169.252	287.305	168.257	-8191	255	
41169.027	1	1	0	0	0.27022	0.14372	0.29582	0.23363	0.042142	0.17774	0.2694	0.17362	0.091377	0.084746	0.14688	0.26717	0.13572	0.26809	0.21722	0.38149	-2.6229	-2.8958	-3.0771	-3.0708	-3.1229	-3.0083	-2.9042	-3.2708	-2.9083	-2.7771	-3.1646	-2.9083	-2.9146	-3.1979	-2.8937	-3.1604	363.624	436.257	499.100	485.244	370.765	265.647	465.139	182.870	336.826	180.589	494.616	474.924	148.991	494.153	236.633	484.655	0.00059892	0.00030359	0.0001519	1362.6	5.2035e-06	4.9993e-06	1363.5	367.82	4.9082e-06	4.0169e-06	418.76	140.54	121.95	41.589	7.5228e-06	51.48	0.00056894	0.00053845	0.00014754	1386.1	6.009e-06	5.7894e-06	1386.1	374.96	6.0298e-06	5.7282e-06	427.93	143.36	124.76	42.849	5.8581e-06	53.098	268.898	263.016	248.145	155.669	275.315	285.171	155.428	160.284	307.022	284.730	159.978	164.298	164.722	169.319	292.752	168.315	-8191	255	
41169.121	1	1	0	0	0.28739	0.30028	0.18699	0.35348	0.11639	0.07636	0.11151	0.069424	0.038059	0.16487	0.42119	0.076736	0.089732	0.30322	0.15852	0.31703	-2.7208	-2.6396	-3.1396	-3.1979	-2.7771	-3.2313	-3.0958	-3.2854	-2.8229	-2.8063	-2.9792	-3.0042	-3.0438	-3.2854	-2.7729	-3.1396	373.591	222.933	414.110	461.339	463.383	465.857	456.474	445.854	312.402	274.989	437.915	281.807	453.047	158.250	484.017	181.762	0.00063641	0.00040666	0.00013517	1367	7.1219e-06	1.7829e-06	1367.6	367.39	5.9721e-06	5.7611e-06	418.07	140.62	122.66	41.713	6.4228e-06	51.845	0.00058192	0.00054019	0.00015072	1387.6	6.1055e-06	5.8015e-06	1386.2	375.32	6.1377e-06	6.0805e-06	427.93	143.58	125.09	42.849	6.1046e-06	53.245	270.892	235.774	245.140	155.746	307.683	289.491	155.465	160.435	313.621	286.312	159.530	164.522	164.904	169.062	305.181	168.232	-8191	255	
41169.195	1	1	0	0	0.26251	0.098119	0.22476	0.4255	0.1921	0.11321	0.43293	0.10699	0.12618	0.19023	0.075593	0.1459	0.028072	0.36544	0.2432	0.089156	-2.5479	-2.7229	-3.1729	-3.1708	-2.9458	-3.1417	-2.9271	-3.2313	-2.9458	-2.8979	-3.3229	-2.9562	-2.8375	-3.1083	-2.9104	-3.0104	384.735	167.744	382.695	453.234	460.545	172.117	464.966	264.310	430.283	419.252	480.788	410.772	146.867	239.307	304.053	187.140	0.00062262	0.00039275	0.00020038	1361.9	2.8696e-06	6.9866e-06	1362.5	367.31	5.8634e-06	3.585e-06	419.72	140.02	122.51	41.7	3.4064e-06	51.66	0.00057289	0.0005466	0.00015557	1386.1	6.1862e-06	6.0311e-06	1386.9	374.95	6.0208e-06	5.9703e-06	427.48	143.39	124.91	42.973	6.2576e-06	53.21	270.199	232.473	229.152	155.552	305.014	270.793	155.376	160.304	313.520	300.206	159.775	164.082	164.855	169.406	315.806	168.252	-8191	255	
41169.289	1	1	0	0	0.070962	0.16513	0.16744	0.30412	0.14468	0.12695	0.2289	0.000831	0.17885	0.16102	0.2342	0.12891	0.17471	0.1911	0.29302	0.13051	-2.5875	-2.6792	-2.9375	-3.0417	-2.9	-3.0479	-3.1271	-2.9771	-3.1708	-2.7833	-3.0979	-3.2	-3.0729	-3.2771	-2.9396	-3.0229	377.168	392.617	276.023	157.069	151.320	197.299	453.340	180.000	379.276	363.431	487.177	490.007	413.780	490.673	265.941	444.506	0.00062477	0.00018322	0.00013835	1364.2	6.8241e-06	1.845e-06	1362.8	366.76	6.0497e-06	7.7245e-06	419.16	140.46	121.55	41.571	3.9031e-06	51.599	0.00058726	0.00055813	0.00016101	1386.9	6.3045e-06	6.0671e-06	1383.6	374.92	6.2227e-06	6.139e-06	427	143.45	124.61	42.831	6.2808e-06	53.131	272.380	233.160	222.904	155.507	297.009	335.815	155.311	160.498	314.864	297.601	159.614	164.331	164.815	169.220	260.912	168.558	-8191	255	
41169.387	1	1	0	0	0.099607	0.11033	0.16543	0.13927	0.30141	0.18026	0.30808	0.31354	0.14519	0.22234	0.37326	0.1336	0.37917	0.37784	0.21323	0.2765	-2.8458	-2.9042	-3.1542	-3.2188	-2.7687	-3.3354	-3.1396	-3.0458	-3.1667	-3.0479	-3.0792	-3.0354	-2.8208	-3.1167	-2.9292	-2.8917	490.894	168.983	406.354	489.253	384.655	372.775	446.836	383.035	331.720	298.477	419.987	487.492	435.315	427.284	435.123	497.984	0.00064635	0.00042205	0.00014126	1359.3	6.4899e-06	9.0992e-06	1357.1	368.41	7.0252e-06	5.857e-06	416.66	140.19	122.31	41.655	5.0277e-06	51.643	0.00058043	0.00056142	0.00015949	1384.8	6.0425e-06	6.1588e-06	1382.3	375.11	6.0392e-06	6.0412e-06	427.23	143.47	124.89	42.99	6.3072e-06	53.177	270.477	229.809	239.899	155.552	304.086	302.642	155.553	160.217	313.081	297.525	159.760	164.283	164.797	169.437	311.379	168.199	-8191	255	
41169.508	1	1	0	0	0.090289	0.15722	0.13677	0.042826	0.256	0.16044	0.16516	0.27857	0.20167	0.10645	0.16457	0.062754	0.10256	0.21416	0.28151	0.15753	-2.7083	-2.725	-3.0021	-3.2062	-2.8271	-3.125	-3.1875	-3	-3.05	-2.875	-2.9542	-3.125	-2.9625	-3.3333	-2.9188	-2.9083	416.379	220.993	368.662	411.943	283.019	319.857	415.482	454.751	289.110	393.737	426.726	184.467	207.789	219.381	279.624	405.167	0.00064138	0.00039361	0.00012209	1360.4	9.0174e-06	6.62e-06	1364.9	365.5	6.1609e-06	3.7401e-06	417.53	140.15	121.56	41.336	3.2958e-06	51.825	0.00055813	0.00055372	0.00015392	1385.4	6.0174e-06	6.0572e-06	1384.3	374.11	6.0501e-06	6.2582e-06	427.02	143.23	124.54	42.955	6.2721e-06	53.346	270.747	195.137	247.952	155.628	298.642	296.116	155.506	160.451	305.307	307.610	159.730	164.355	164.767	169.394	307.321	168.427	-8191	255	
41169.602	1	1	0	0	0.2398	0.39919	0.12582	0.23469	0.051681	0.10592	0.17606	0.1006	0.29462	0.096613	0.17346	0.3377	0.14928	0.29045	0.19734	0.068542	-2.7125	-2.9958	-2.7917	-3.1937	-2.8375	-3.1021	-3.3333	-2.9521	-3.0729	-2.8521	-2.9313	-3.2208	-2.7271	-2.9833	-2.975	-2.8063	451.233	384.582	294.341	474.546	320.043	173.284	452.649	438.462	477.915	205.945	393.679	479.009	390.719	167.654	187.423	250.362	0.00060014	0.00060799	0.00012474	1359.9	7.7522e-06	3.7779e-06	1364.1	367.73	3.8308e-06	7.3853e-07	418.86	140.82	121.52	41.639	8.415e-06	51.652	0.0005621	0.00057878	0.00015966	1386.3	6.0139e-06	6.2717e-06	1384	374.93	6.1097e-06	6.2539e-06	427.3	143.63	124.48	42.969	6.2194e-06	53.164	268.232	208.509	222.606	155.672	305.001	280.346	155.306	160.557	311.940	303.877	159.673	164.481	164.682	169.278	305.688	168.401	-8191	255	
41169.699	1	1	0	0	0.076655	0.19522	0.093883	0.19064	0.064974	0.16979	0.16062	0.12969	0.17255	0.041334	0.14247	0.14286	0.27259	0.27932	0.12183	0.32303	-2.6583	-2.9854	-2.8542	-3.3417	-2.7021	-3.1104	-3.2396	-2.9104	-2.9896	-2.9354	-3.0125	-3.3812	-2.8396	-3.0042	-3.0146	-2.8125	207.487	359.783	202.792	489.847	160.520	252.414	445.814	427.898	145.951	411.387	406.015	276.493	194.297	422.561	168.015	421.533	0.00060961	0.00053508	0.00021156	1358.7	8.0165e-06	4.0686e-06	1365.8	368.26	6.1757e-06	3.1808e-06	418.74	139.89	122.06	41.693	5.9491e-06	51.501	0.00056105	0.00055921	0.00015246	1383.4	5.9916e-06	6.2497e-06	1382.8	374.85	5.9879e-06	6.194e-06	427.3	143.26	124.64	42.922	5.8296e-06	53.202	268.523	217.207	212.457	155.711	288.769	276.581	155.486	160.211	315.254	292.358	159.692	164.207	164.865	169.347	291.090	168.293	-8191	255	
41169.797	1	1	0	0	0.10506	0.15334	0.27631	0.45015	0.23503	0.15992	0.24544	0.27538	0.083999	0.03805	0.12536	0.12933	0.16677	0.15253	0.1183	0.25847	-2.7271	-3.0583	-2.7917	-3.2646	-2.8042	-2.8271	-3.3063	-2.975	-3.0125	-3.075	-2.8604	-3.0667	-2.9521	-2.9292	-3.1896	-2.8833	322.251	284.576	300.061	465.417	269.272	310.906	491.329	455.039	285.744	328.212	482.120	479.666	156.817	171.795	474.847	471.983	0.00064417	0.00052711	0.00015272	1360.9	7.6918e-06	8.8617e-06	1362.7	367.67	5.8717e-06	7.2996e-06	416.47	140.39	121.98	41.644	5.0809e-06	51.613	0.00056391	0.00054165	0.00014835	1385	6.0012e-06	6.0629e-06	1381.3	374.55	5.8643e-06	5.9636e-06	426.16	143.24	124.85	42.91	5.5524e-06	53.112	269.991	239.089	215.681	155.484	289.049	287.185	155.529	160.253	316.519	291.095	159.860	164.407	165.029	169.262	310.929	168.351	-8191	255	
41169.891	1	1	0	0	0.024873	0.23775	0.083436	0.27112	0.2934	0.19665	0.27251	0.2304	0.10932	0.057306	0.066464	0.24327	0.16194	0.47894	0.072487	0.11364	-2.5771	-2.925	-2.8521	-3.0938	-2.9062	-2.8812	-3.3333	-3.0438	-3.0625	-3.1542	-2.8167	-3.1479	-3.0479	-3.0375	-3.1646	-3.0125	157.348	144.737	275.547	451.208	304.593	174.129	386.380	464.350	239.475	440.711	461.620	413.705	187.951	469.208	484.139	149.759	0.00063348	0.00046627	9.706e-05	1361.3	8.1151e-06	4.1008e-06	1362	368.01	5.5927e-06	3.5377e-06	417.7	141.05	122.43	41.648	6.2188e-06	51.605	0.00056341	0.00053464	0.00014493	1385.6	5.9064e-06	5.759e-06	1383.6	374.51	5.7155e-06	5.7051e-06	426.88	143.49	124.99	42.952	5.3931e-06	53.133	271.682	252.116	242.113	155.601	295.659	305.191	155.498	160.288	324.567	309.663	159.857	164.420	164.656	169.446	307.646	168.472	-8191	255	
41169.988	1	1	0	0	0.10783	0.036856	0.14742	0.17031	0.13229	0.10964	0.26396	0.33615	0.18062	0.10242	0.057908	0.1664	0.27692	0.15872	0.2046	0.36422	-2.7708	-3.0646	-2.7583	-3.3833	-3.1167	-2.9292	-3.2125	-2.9667	-2.9417	-3.225	-2.9667	-3.2708	-3.0792	-2.9229	-3.2229	-2.9437	473.183	286.904	290.497	481.706	299.354	390.860	477.769	434.012	440.383	380.372	439.797	456.248	149.259	295.714	182.395	481.520	0.00060378	0.00033859	0.00018575	1361.5	6.5847e-06	3.3539e-06	1362.8	366.65	5.9384e-06	5.9002e-06	417.11	140.49	121.69	41.67	7.282e-06	51.6	0.00055026	0.00052154	0.00014227	1383.1	5.8231e-06	5.7647e-06	1383.2	374.46	5.6857e-06	5.6168e-06	426.6	143.44	124.57	42.92	5.4513e-06	53.187	269.111	216.799	245.951	155.571	295.750	323.220	155.104	160.280	297.224	300.079	159.690	164.106	164.882	169.126	307.450	168.324	-8191	255	
41170.105	1	1	0	0	0.056601	0.2283	0.2939	0.2547	0.1723	0.0842	0.11415	0.31705	0.093036	0.1456	0.41227	0.26643	0.1937	0.12272	0.21594	0.13164	-2.4792	-3.1042	-2.6417	-3.3104	-3.0021	-2.8875	-3.4042	-3.0125	-2.8229	-3.0542	-2.8	-3.0667	-2.8333	-2.7667	-3.2	-3.0021	283.797	367.634	258.316	408.243	377.378	323.200	463.998	331.305	317.878	184.348	476.535	498.570	143.739	238.082	160.640	433.332	0.00065382	0.00066848	0.00019657	1360.6	7.3628e-06	4.9707e-06	1362.1	367.12	4.0319e-06	3.1907e-06	418.31	141.01	122.06	41.638	4.6289e-06	51.466	0.00056202	0.00050835	0.00013909	1383.2	5.9372e-06	5.5295e-06	1381.1	374.78	5.8519e-06	5.4307e-06	426.18	143.74	124.66	42.878	5.5968e-06	53.185	269.029	226.939	248.439	155.816	321.828	276.342	155.458	160.395	332.677	293.008	159.943	164.233	164.840	169.111	302.515	168.370	-8191	255	
41170.203	1	1	0	0	0.13485	0.30785	0.080759	0.16265	0.18161	0.047979	0.38785	0.33397	0.13272	0.21597	0.064542	0.16113	0.04557	0.16384	0.10457	0.31171	-2.4125	-3.0833	-2.7625	-3.2188	-3.1125	-2.8167	-3.2625	-2.8854	-2.85	-3.0604	-2.9104	-3.0521	-3.1854	-2.9188	-3.075	-3.05	492.271	417.925	383.213	301.650	378.605	343.477	495.348	464.705	493.788	152.611	210.241	470.176	154.247	429.036	321.242	448.598	0.00064322	0.00048688	0.0001592	1363.1	6.9617e-06	3.5922e-06	1357.7	367.59	4.7422e-06	5.5036e-06	418.42	140.12	121.98	41.501	4.6145e-06	51.832	0.00055473	0.0005006	0.00014143	1384.5	5.7923e-06	5.4406e-06	1381	374.66	5.8154e-06	5.4635e-06	427.05	143.4	124.57	42.859	5.6319e-06	53.252	271.867	222.996	199.669	155.688	315.030	324.303	155.594	160.311	298.255	312.437	160.067	164.500	164.842	169.330	285.377	168.258	-8191	255	
41170.297	1	1	0	0	0.11935	0.14109	0.19414	0.47615	0.073928	0.18583	0.14853	0.34137	0.23418	0.053664	0.080658	0.11993	0.14118	0.28269	0.084494	0.31418	-2.3771	-3.0125	-2.8104	-3.1083	-3.125	-2.8083	-3.2562	-2.9437	-2.8625	-3.1542	-3.0687	-3.0208	-3.2208	-2.9083	-2.9646	-3.2292	323.213	239.096	349.911	464.864	266.325	411.023	384.114	459.081	448.251	353.782	348.482	172.596	440.228	147.831	324.363	148.360	0.00061276	0.000542	0.00014051	1360.6	7.3405e-06	6.0807e-06	1359.3	367.21	3.4546e-06	3.918e-06	418.26	140.45	122.14	41.544	3.5593e-06	51.511	0.00054515	0.0005088	0.00014566	1383.9	5.6111e-06	5.508e-06	1379.8	374.74	5.5792e-06	5.4854e-06	426.65	143.6	124.68	42.927	5.7779e-06	53.073	270.613	232.959	246.139	155.668	325.680	297.362	155.594	160.387	301.278	341.502	159.784	164.096	164.833	169.583	303.729	168.342	-8191	255	
41170.418	1	1	0	0	0.23047	0.3747	0.087041	0.14182	0.19885	0.10553	0.28206	0.29082	0.030844	0.19216	0.10019	0.20909	0.18337	0.1248	0.14107	0.16167	-2.4062	-3.2354	-2.9333	-3.1104	-3.2687	-2.8583	-3.2979	-3.2188	-2.8896	-3.1729	-2.9437	-2.9813	-3.3042	-2.9104	-3.0354	-3.2167	221.536	292.185	404.840	499.840	473.720	262.977	484.693	438.877	226.766	394.072	482.947	204.507	154.118	176.797	325.530	451.923	0.00062243	0.00036655	8.2049e-05	1358.2	7.9096e-06	4.8391e-06	1357.7	368.1	5.0907e-06	6.0896e-06	418.07	141.05	122.1	41.508	6.8027e-06	51.536	0.0005419	0.00050633	0.00014779	1383.6	5.5076e-06	5.5587e-06	1380.5	374.75	5.5916e-06	5.5247e-06	426.49	143.65	124.58	42.915	5.7953e-06	53.074	270.796	210.892	202.397	155.755	291.040	308.977	155.428	160.226	319.845	294.058	159.846	164.195	164.720	169.400	292.398	168.396	-8191	255	
41170.488	1	1	0	0	0.1083	0.07273	0.11504	0.20749	0.20203	0.098476	0.22714	0.25057	0.10179	0.14187	0.19122	0.1063	0.058217	0.26032	0.057149	0.29413	-2.4604	-3.1792	-2.9375	-2.9062	-3.0479	-2.9583	-3.2	-3.2125	-2.7812	-3.0917	-3.0458	-2.8396	-3.2771	-3.1271	-2.8417	-3.1437	250.771	168.912	409.061	481.541	425.203	267.672	454.545	435.579	387.882	332.992	497.521	181.013	405.040	424.793	185.314	163.744	0.00065525	0.00022511	0.00012511	1359.5	7.9006e-06	5.3583e-06	1357.2	366.07	4.7751e-06	7.5623e-06	417.86	140.13	122.65	41.528	5.9525e-06	51.683	0.00052508	0.00051061	0.00014449	1381.1	5.2978e-06	5.5327e-06	1380.2	374.3	5.351e-06	5.5458e-06	426.3	143.15	124.86	42.848	5.79e-06	53.157	271.671	229.605	209.629	155.669	305.662	305.617	155.569	160.162	301.457	307.582	159.820	164.305	164.553	169.321	323.500	168.193	-8191	255	
41170.586	1	1	0	0	0.25286	0.20261	0.067915	0.30456	0.29641	0.05785	0.13624	0.33824	0.16813	0.13627	0.14434	0.19458	0.040899	0.11358	0.21169	0.18836	-2.1021	-3.075	-2.9146	-2.9042	-3.1708	-2.9083	-3.15	-3.2604	-2.7708	-3.15	-3.1583	-2.9062	-3.1646	-3.0729	-2.8312	-3.2354	287.533	258.220	354.338	492.306	400.925	300.854	440.924	484.447	222.367	247.847	404.440	467.825	285.317	233.129	206.212	391.370	0.00062553	0.00036231	0.00017369	1361.2	8.0659e-06	8.2603e-06	1359.9	367.55	4.5834e-06	2.8664e-06	416.92	140.82	121.99	41.605	5.6244e-06	51.63	0.00053245	0.00051211	0.00014134	1384	5.3877e-06	5.3857e-06	1380.9	373.84	5.3264e-06	5.6409e-06	426.33	143.55	124.49	42.908	5.5908e-06	53.074	270.776	214.393	224.325	155.580	301.867	310.597	155.569	160.343	325.146	289.443	159.454	164.308	164.631	169.188	303.542	168.452	-8191	255	
41170.684	1	1	0	0	0.22421	0.1571	0.10556	0.31691	0.14276	0.21774	0.32516	0.35456	0.0496	0.2582	0.17414	0.12504	0.11176	0.31162	0.32428	0.16581	-2.3875	-2.8187	-3.0292	-3.0271	-3.0354	-2.9354	-3.0875	-3.0833	-2.8812	-2.8958	-3.075	-2.7042	-3.2375	-2.9292	-2.8979	-3.0896	348.588	336.802	477.700	424.907	411.839	301.920	481.421	432.369	357.614	279.280	354.262	489.415	430.892	431.840	485.485	461.497	0.00063973	0.00031209	0.00016612	1362.6	5.1046e-06	5.5191e-06	1362.1	367.21	6.7461e-06	5.1976e-06	416.33	140.25	122	41.792	5.8269e-06	51.425	0.00052852	0.00049908	0.00013771	1383	5.2527e-06	5.6256e-06	1382.3	374.54	5.4426e-06	5.6561e-06	426.26	143.47	124.46	42.91	5.6249e-06	53.1	271.544	223.724	225.879	155.727	297.240	247.656	155.498	160.309	308.638	303.266	159.873	164.421	164.859	169.230	337.599	168.654	-8191	255	
41170.805	1	1	0	0	0.17846	0.089099	0.2544	0.060349	0.25553	0.22805	0.44081	0.12206	0.10811	0.025053	0.35768	0.17266	0.15658	0.026731	0.063777	0.12951	-2.1979	-2.8125	-2.8771	-2.8063	-3.1083	-2.9667	-3.1312	-3.2625	-2.6458	-2.9479	-3.2083	-2.9792	-3.1771	-3.1792	-2.6021	-3.1688	256.564	148.306	301.023	314.003	461.877	164.374	420.314	467.248	495.019	474.550	480.212	494.583	157.583	209.544	377.988	402.968	0.00062782	0.00056632	0.00019088	1359.2	7.9388e-06	4.6918e-06	1361.1	368.19	4.9021e-06	3.6066e-06	418.54	140.27	122.09	41.569	6.405e-06	51.483	0.00053803	0.0005118	0.00014008	1382	5.505e-06	5.5463e-06	1381.3	374.77	5.5576e-06	5.5784e-06	426.78	143.2	124.67	42.851	5.3191e-06	53.063	266.456	238.462	233.284	155.709	305.640	306.598	155.497	160.277	314.488	262.322	159.767	164.263	164.755	169.244	309.133	168.316	-8191	255	
41170.898	1	1	0	0	0.076965	0.032458	0.10168	0.18697	0.29724	0.17879	0.20847	0.19675	0.37702	0.15554	0.16855	0.34058	0.3168	0.12908	0.1524	0.25616	-2.4021	-2.6833	-2.9417	-2.9562	-2.8937	-3.0187	-2.9938	-3.1583	-2.7958	-2.8375	-3.0896	-2.9042	-2.9125	-2.7938	-2.8146	-3.1792	219.377	399.912	413.451	486.814	409.727	497.006	354.919	422.554	398.238	166.188	447.049	471.587	456.477	461.045	366.386	407.517	0.00065164	0.00065571	0.00015774	1360.5	7.3412e-06	5.4983e-06	1363.4	366.42	4.6395e-06	4.5048e-06	417.81	139.76	122.22	41.481	6.9942e-06	51.519	0.00053507	0.00049578	0.00013676	1382.2	5.5196e-06	5.4163e-06	1382.8	374.58	5.5557e-06	5.3199e-06	426.64	143.01	124.88	42.86	5.2034e-06	53.099	268.717	230.122	264.969	155.669	312.065	303.002	155.378	160.355	299.400	276.504	159.722	164.610	164.941	169.404	299.353	168.220	-8191	255	
41170.996	1	1	0	0	0.2413	0.34888	0.09296	0.19456	0.1916	0.17827	0.25566	0.28105	0.22548	0.12521	0.062094	0.25632	0.26021	0.11564	0.21721	0.26199	-2.4021	-2.7396	-3.2229	-2.9146	-3.0667	-2.9813	-2.9125	-3.2958	-2.8896	-2.8937	-3.2354	-2.8771	-3.2542	-3.1771	-2.5812	-3.1667	199.686	326.621	369.067	454.594	220.573	366.386	479.679	492.178	391.941	296.804	370.519	153.394	298.728	386.560	492.764	372.530	0.0006209	0.0005401	0.00017105	1359.9	6.5289e-06	3.267e-06	1358.5	368.7	5.3916e-06	5.6564e-06	416.35	139.96	122.05	41.489	2.904e-06	51.522	0.00051999	0.00048591	0.00012563	1382.7	5.4931e-06	5.3585e-06	1381	374.99	5.5164e-06	5.4003e-06	425.99	143.15	124.78	42.888	5.0499e-06	53.034	270.593	216.444	232.303	155.749	286.333	282.373	155.346	160.483	297.397	317.845	159.778	164.332	164.993	169.514	351.493	168.499	-8191	255	
41171.066	1	1	0	0	0.24041	0.21224	0.148	0.15506	0.13327	0.233	0.35862	0.40602	0.032479	0.1866	0.27337	0.43752	0.51961	0.15394	0.20876	0.27524	-2.4875	-2.8875	-2.8688	-3.0792	-2.8833	-3.0417	-3.0146	-3.1375	-3.0208	-2.7042	-3.2833	-3.0333	-2.9479	-3.2313	-2.8167	-3.0146	455.754	279.652	456.868	441.424	446.671	264.232	407.086	446.443	455.148	213.521	489.820	456.608	160.327	447.038	428.503	265.695	0.00062675	0.00043717	0.00014999	1359.9	5.5487e-06	2.1448e-06	1358.9	367.19	6.1093e-06	5.4291e-06	417.98	141.2	121.94	41.438	5.3649e-06	51.625	0.00053195	0.00048421	0.0001309	1383	5.4999e-06	5.1656e-06	1380.7	374.63	5.5371e-06	5.3667e-06	426.42	143.58	124.76	42.856	5.3075e-06	53.095	269.480	259.668	239.604	155.671	300.681	306.148	155.441	160.501	333.027	295.632	159.899	164.490	165.001	169.289	320.002	168.252	-8191	255	
41171.188	1	1	0	0	0.038531	0.26439	0.30302	0.37735	0.11051	0.33753	0.34	0.13188	0.19051	0.18109	0.031845	0.24065	0.17142	0.1366	0.14456	0.18251	-2.7292	-2.8792	-3.0208	-3.0729	-2.8667	-3.0604	-2.8646	-3.1021	-3.0271	-2.8312	-3.2271	-2.8688	-2.9292	-3.15	-2.8542	-2.9292	362.190	313.938	435.804	457.883	194.572	176.476	392.822	432.180	171.452	279.839	322.547	248.058	192.185	214.069	317.622	393.677	0.00058928	0.00046941	0.00011785	1359.4	6.8042e-06	3.1094e-06	1359	366.81	5.8948e-06	8.0495e-06	417.94	140.36	121.83	41.529	1.8565e-06	51.493	0.00052795	0.00047267	0.00013023	1381.5	5.4931e-06	5.1846e-06	1380.5	374.53	5.5657e-06	5.316e-06	426.32	143.38	124.67	42.847	5.4122e-06	53.128	269.965	266.254	249.843	155.647	286.210	294.441	155.632	160.382	322.575	295.261	159.693	164.120	164.741	169.379	301.067	168.350	-8191	255	
41171.281	1	1	0	0	0.16298	0.20053	0.097774	0.26047	0.22076	0.32014	0.17575	0.30027	0.19005	0.29967	0.097483	0.26149	0.030258	0.10596	0.20284	0.053813	-2.6146	-2.8812	-3.1521	-3.0104	-2.6396	-2.9521	-3.0958	-3.1042	-3.0333	-2.7083	-3.0958	-3.0438	-2.8	-3.0896	-2.8958	-2.9375	445.570	352.183	320.360	432.848	185.561	388.194	471.602	486.117	325.524	501.882	457.934	479.838	291.881	471.323	240.674	207.716	0.00062157	0.00062608	9.2536e-05	1361.3	4.2737e-06	6.6083e-06	1360.6	368.53	4.1732e-06	3.0903e-06	417.17	140.24	121.79	41.438	7.2546e-06	51.532	0.00052381	0.00047343	0.00013294	1382.1	5.6132e-06	5.1236e-06	1381.4	374.45	5.4919e-06	5.2311e-06	426.48	143.3	124.46	42.822	5.418e-06	53.033	270.321	247.135	234.572	155.739	321.771	278.308	155.508	160.420	315.140	330.235	159.718	164.148	165.122	169.276	307.494	168.316	-8191	255	
41171.379	1	1	0	0	0.036175	0.21231	0.16206	0.38675	0.13038	0.27641	0.13225	0.24742	0.19939	0.30618	0.10739	0.12902	0.16203	0.16563	0.026165	0.031625	-2.5062	-2.75	-2.9604	-3.0104	-2.75	-2.9688	-3.1104	-2.9771	-2.9896	-2.775	-3.1312	-3.2062	-2.9188	-3.0729	-2.7292	-2.9479	152.777	481.831	296.312	439.467	416.948	203.025	470.059	463.383	412.592	303.757	147.217	431.552	362.209	203.493	287.877	274.156	0.00061565	0.00053606	0.00010014	1359.5	8.9798e-06	4.1347e-06	1363.3	367.49	5.5035e-06	5.0625e-06	417.2	140.14	121.99	41.72	6.8104e-06	51.385	0.00051325	0.00047852	0.00013529	1382.5	5.2654e-06	5.1527e-06	1382.3	374.37	5.2316e-06	5.1883e-06	427	143.21	124.77	42.881	5.4412e-06	53.077	267.968	245.064	231.039	155.727	306.540	284.599	155.397	160.488	321.019	310.816	159.700	164.293	164.950	169.264	305.426	168.169	-8191	255	
41171.500	1	1	0	0	0.11117	0.29098	0.10867	0.13588	0.16761	0.16298	0.20537	0.042809	0.18723	0.023687	0.22405	0.21273	0.053249	0.31192	0.17366	0.3031	-2.6875	-2.7104	-2.8792	-3.2354	-2.6979	-3.1729	-2.975	-2.8812	-2.8604	-2.7979	-3.0771	-3.1688	-2.8083	-3.2375	-2.8625	-2.6375	293.792	326.479	193.281	437.213	349.368	225.037	424.589	197.921	153.707	424.986	393.949	451.744	246.584	447.192	293.243	288.115	0.00064097	0.00054473	6.8178e-05	1358.6	5.225e-06	5.0751e-06	1363	367.36	6.7725e-06	4.9283e-06	416	140.4	121.95	41.516	4.8193e-06	51.56	0.00050748	0.00047473	0.0001387	1382.5	5.1325e-06	5.111e-06	1381	374.17	5.3394e-06	5.4389e-06	426.19	143.48	124.71	42.862	5.6292e-06	53.089	267.826	217.881	235.902	155.671	290.048	280.058	155.397	160.381	328.042	302.042	159.875	164.342	164.817	169.042	322.777	168.229	-8191	255	
41171.594	1	1	0	0	0.20627	0.16114	0.1237	0.28064	0.040882	0.20694	0.25524	0.16895	0.26387	0.27015	0.11752	0.22372	0.26466	0.23824	0.2273	0.10514	-2.7396	-2.8479	-2.8375	-3.2792	-2.9146	-3.0125	-3.3208	-2.8187	-3.0604	-2.8458	-2.9917	-3.3792	-2.7708	-3.0042	-2.9813	-2.8688	496.266	253.260	328.704	442.785	321.271	235.430	476.372	451.157	478.489	274.124	191.669	367.570	501.954	251.788	290.016	210.103	0.00061993	0.00039569	0.00012378	1357.9	9.8683e-06	6.1415e-06	1358.2	367.55	5.4005e-06	2.0182e-06	418.83	140.02	122.78	41.725	7.9825e-06	51.601	0.00052161	0.00049706	0.00013977	1382.6	5.3536e-06	5.5656e-06	1382.4	374.26	5.3305e-06	5.4894e-06	426.7	143.24	124.77	42.937	5.5335e-06	53.092	270.480	231.033	222.330	155.609	305.325	301.839	155.518	160.361	310.596	265.411	159.925	164.362	164.712	169.266	296.722	168.304	-8191	255	
41171.691	1	1	0	0	0.1321	0.19764	0.20467	0.13199	0.13329	0.13624	0.2082	0.15593	0.18735	0.045842	0.25635	0.078493	0.044793	0.27096	0.069381	0.10209	-2.8896	-2.7917	-2.7958	-3.075	-2.8333	-2.8937	-3.3312	-2.9333	-3.0104	-2.9875	-3.0563	-3.2021	-2.875	-3.1437	-3.0146	-2.9333	423.473	250.286	154.083	448.544	163.245	230.873	481.375	428.457	476.570	348.388	188.570	490.599	191.329	490.163	434.446	343.671	0.00058013	0.00045713	0.00017674	1358.8	9.2599e-06	8.0831e-06	1359.4	367.39	5.5077e-06	3.7072e-06	417.12	140.49	122.09	41.544	6.0133e-06	51.36	0.0005156	0.00051054	0.00013972	1383.5	5.4182e-06	5.4905e-06	1381.1	374.53	5.4428e-06	5.5565e-06	426.27	143.4	124.62	42.868	5.6636e-06	53.04	267.470	199.615	251.030	155.657	293.523	295.034	155.339	160.568	299.778	311.338	159.731	164.521	164.680	169.297	275.985	168.117	-8191	255	
41171.785	1	1	0	0	0.20242	0.32606	0.030696	0.1286	0.13035	0.25723	0.27616	0.19313	0.16524	0.20905	0.29885	0.26397	0.1029	0.26378	0.094646	0.054145	-2.8396	-3.0229	-2.8812	-3.1292	-2.8646	-3.1646	-3.1583	-2.8646	-3.2604	-2.8771	-2.9125	-3.2771	-3.1417	-2.9188	-3.0917	-2.9375	455.090	291.966	270.908	465.396	202.816	408.101	430.730	450.765	275.553	192.255	147.117	158.612	442.090	439.803	247.455	224.171	0.00067158	0.00042586	0.00016367	1356.7	7.4748e-06	6.7618e-06	1361.3	367.85	5.3177e-06	1.8635e-06	416.05	140.55	122.29	41.603	5.8752e-06	51.528	0.00053491	0.00051375	0.00014139	1382.7	5.563e-06	5.6039e-06	1381.1	374.87	5.5059e-06	5.714e-06	426.4	143.21	124.68	42.854	5.5649e-06	53.018	269.405	241.506	228.691	155.568	289.261	286.363	155.333	160.456	306.385	298.455	159.751	164.502	164.659	169.252	309.282	168.147	-8191	255	
41171.883	1	1	0	0	0.16565	0.098695	0.20405	0.37245	0.19979	0.057975	0.30362	0.19465	0.18504	0.099235	0.050349	0.091647	0.23868	0.076291	0.12855	0.21164	-2.6375	-2.8625	-2.8542	-3.3917	-2.9458	-2.8937	-3.2979	-2.9396	-3.0771	-2.9646	-2.9104	-3.3104	-3.0333	-3.0458	-3.1937	-2.9292	330.574	147.792	374.917	164.975	353.438	316.969	409.411	422.177	290.547	194.879	238.217	239.390	448.130	190.845	456.484	480.319	0.00060504	0.00026374	0.0001215	1361	6.5556e-06	4.1851e-06	1359.2	367.18	5.1291e-06	4.6858e-06	417.34	140.55	121.39	41.662	6.568e-06	51.372	0.00053904	0.00052557	0.00014036	1383.7	5.7048e-06	5.6444e-06	1380.4	374.4	5.6854e-06	5.6618e-06	426.24	143.29	124.54	42.906	5.5596e-06	53.011	269.094	269.371	245.585	155.601	297.477	287.504	155.471	160.291	327.394	288.294	159.806	164.096	164.956	169.549	291.338	168.413	-8191	255	
41171.980	1	1	0	0	0.049822	0.2394	0.15041	0.26423	0.33897	0.22683	0.28829	0.29274	0.25281	0.30703	0.16917	0.24681	0.23624	0.17109	0.11774	0.24548	-2.6312	-3.0917	-2.6396	-3.1208	-3.0396	-3.0583	-3.3104	-2.8979	-3.1104	-3.0062	-2.8583	-3.0083	-2.9396	-2.8458	-3.1646	-2.9229	497.648	347.973	448.629	433.810	477.551	434.624	402.250	452.061	324.573	299.112	355.961	481.788	192.177	489.636	403.636	360.229	0.000622	0.00047377	8.2972e-05	1361.5	9.3885e-06	7.5569e-06	1362.8	367.29	6.7241e-06	6.2567e-06	419.11	139.93	122.2	41.536	5.9863e-06	51.608	0.00055914	0.00053253	0.00014215	1384.3	5.8156e-06	5.7575e-06	1382	374.35	5.8147e-06	5.7409e-06	426.9	143.1	124.6	42.855	5.4936e-06	53.108	269.783	256.740	228.705	155.790	298.046	302.081	155.310	160.577	317.015	322.918	159.675	164.157	164.722	169.319	301.273	168.474	-8191	255	
41172.102	1	1	0	0	0.12494	0.044554	0.23137	0.42143	0.1854	0.15623	0.073367	0.35574	0.34382	0.27257	0.17221	0.29268	0.16619	0.17299	0.078136	0.025332	-2.4854	-2.8354	-2.6979	-3.2354	-2.9833	-2.8833	-3.1917	-3.0396	-2.8063	-3.0917	-2.7229	-3.0583	-2.9104	-2.8625	-3.0271	-3.0312	380.110	322.625	298.740	478.026	367.168	239.868	450.444	465.912	201.830	342.358	235.554	171.198	352.670	179.850	232.185	346.938	0.000648	0.00039509	0.0001099	1361.7	2.7234e-06	5.876e-06	1365.9	366.15	5.4361e-06	3.97e-06	417.41	140.31	121.95	41.604	5.9796e-06	51.652	0.00055989	0.00050844	0.00013841	1384	5.8686e-06	5.5236e-06	1381.3	374.43	5.83e-06	5.6095e-06	427.05	143.45	124.7	42.88	5.5736e-06	53.11	268.932	247.202	235.165	155.547	249.569	302.656	155.471	160.234	322.157	281.386	159.689	164.318	164.824	169.342	295.322	168.423	-8191	255	
41172.195	1	1	0	0	0.079993	0.1991	0.23083	0.31753	0.084784	0.15134	0.069167	0.15698	0.29373	0.098624	0.171	0.25982	0.078215	0.17663	0.023464	0.065732	-2.3729	-3.0458	-2.7708	-3.3146	-2.9875	-2.9292	-3.1958	-3.0396	-2.8438	-3.2375	-2.8146	-3.1188	-3.1479	-2.725	-3.0792	-3.0771	213.807	202.983	484.580	152.274	379.392	242.264	392.026	408.021	310.776	278.406	425.914	497.113	426.836	493.998	237.871	338.280	0.00066475	0.00030853	0.00012846	1357.5	6.9413e-06	7.0482e-06	1361.6	366.32	5.0044e-06	5.5783e-06	417.31	140.84	121.62	41.654	7.5031e-06	51.394	0.00055316	0.00050994	0.00014054	1382.2	5.7958e-06	5.6805e-06	1379.9	374.31	5.861e-06	5.6217e-06	426	143.44	124.44	42.884	5.6358e-06	53.019	268.229	259.715	241.922	155.457	316.813	285.526	155.447	160.477	321.731	320.221	159.886	164.182	164.861	169.436	303.382	168.172	-8191	255	
41172.289	1	1	0	0	0.22174	0.24799	0.084456	0.11914	0.11959	0.27771	0.1173	0.21975	0.25124	0.24931	0.11567	0.36504	0.18503	0.25532	0.23722	0.15352	-2.5312	-3.175	-2.7292	-3.1813	-2.9729	-2.75	-3.2208	-3.1271	-2.6604	-3.1396	-2.9667	-3.0271	-3.0563	-2.9833	-3.125	-2.8958	341.109	358.635	343.718	253.485	375.918	145.025	357.655	464.501	400.214	339.439	415.780	388.342	476.883	220.392	478.447	403.590	0.00064493	0.00059202	0.00012957	1359.4	5.3881e-06	3.8256e-06	1362.1	365.87	4.9946e-06	4.9472e-06	417.81	139.51	122.17	41.613	3.3541e-06	51.619	0.00055964	0.00049352	0.00014134	1382.5	5.752e-06	5.47e-06	1381.8	373.8	5.8692e-06	5.5043e-06	427.04	143.13	124.82	42.932	5.759e-06	53.16	268.594	213.171	209.775	155.678	300.074	256.364	155.480	160.276	340.245	335.270	159.645	164.194	164.792	169.282	275.358	168.212	-8191	255	
41172.363	1	1	0	0	0.13398	0.067442	0.13773	0.17779	0.12899	0.046259	0.2833	0.21882	0.18796	0.061769	0.11732	0.21383	0.29709	0.2367	0.15078	0.32021	-2.3563	-3.0312	-2.9458	-3.0542	-3.1583	-2.8583	-3.3688	-3.2562	-2.8896	-3.1083	-2.9667	-3.0729	-3.2271	-2.8312	-3.0208	-3.1896	247.375	269.983	436.900	417.029	382.843	403.445	396.337	482.774	149.104	298.573	424.119	363.905	476.208	464.767	482.882	154.563	0.000631	0.00045102	0.00016225	1359.9	8.4208e-06	6.7295e-06	1359	367.52	5.8473e-06	6.1789e-06	416.46	140.24	121.64	41.577	7.4759e-06	51.587	0.00055671	0.00051348	0.00014206	1383	5.6219e-06	5.5851e-06	1379.8	374.05	5.7013e-06	5.5585e-06	426.59	143.33	124.53	42.907	5.9164e-06	53.124	272.915	232.327	223.643	155.659	290.363	299.447	155.436	160.420	312.054	280.798	159.863	164.273	164.723	168.999	304.964	168.165	-8191	255	
41172.484	1	1	0	0	0.23742	0.21347	0.26248	0.12424	0.21601	0.24407	0.18798	0.12352	0.13923	0.10382	0.10721	0.17221	0.14345	0.29118	0.11013	0.12054	-2.2229	-3.1021	-2.7917	-2.9354	-3.075	-2.8187	-3.2021	-3.1042	-2.7792	-3.1229	-3.0042	-2.8146	-3.2333	-2.7854	-3.025	-3.0563	302.319	195.494	365.466	476.357	280.444	234.266	442.804	200.720	249.730	470.594	230.926	441.559	466.219	150.768	389.515	438.653	0.00064773	0.00063109	7.8929e-05	1362	5.7586e-06	5.5982e-06	1357.5	367.1	5.3306e-06	6.1756e-06	418.62	140.03	121.95	41.585	5.0466e-06	51.542	0.00054827	0.00050519	0.00014632	1382.8	5.6139e-06	5.4759e-06	1382.3	374.3	5.6079e-06	5.6267e-06	426.75	143.25	124.76	42.902	5.9374e-06	53.129	268.847	256.994	222.581	155.688	285.695	279.162	155.622	160.300	327.719	327.197	159.683	164.351	164.582	169.373	317.508	168.063	-8191	255	
41172.578	1	1	0	0	0.2014	0.085445	0.25856	0.19879	0.12561	0.15117	0.19294	0.052337	0.074366	0.17147	0.083616	0.11613	0.41333	0.33744	0.23233	0.1306	-2.4313	-3.1188	-3.0812	-2.8917	-3.0458	-2.8083	-3.0979	-3.3312	-2.6083	-3.0979	-3.1708	-2.9229	-3.0396	-2.9542	-2.925	-3.3	415.144	194.963	277.957	449.937	491.935	474.046	446.453	497.482	244.537	210.280	477.182	480.712	481.733	445.466	480.722	179.861	0.00063126	0.00048076	0.00014326	1357.8	8.0169e-06	3.193e-06	1360.5	367.45	7.3239e-06	4.1701e-06	418.26	140.92	121.84	41.503	5.1425e-06	51.469	0.0005411	0.00050499	0.00014766	1382.1	5.4808e-06	5.765e-06	1382.9	374.35	5.6088e-06	5.6862e-06	426.45	143.52	124.72	42.825	5.9052e-06	53.081	268.687	244.403	229.047	155.727	289.457	284.695	155.557	160.227	307.864	323.118	159.747	164.201	164.782	169.371	310.889	168.186	-8191	255	
41172.676	1	1	0	0	0.2208	0.081964	0.1723	0.19866	0.17708	0.11394	0.29098	0.17383	0.12234	0.18017	0.31979	0.10352	0.20233	0.10786	0.066753	0.25056	-2.3604	-2.9417	-2.8271	-2.9479	-3.1896	-2.9646	-3.0479	-3.3208	-2.9	-3.0917	-3.0292	-2.9083	-3.1792	-2.8958	-2.8458	-3.2562	268.264	424.052	203.871	498.977	290.781	465.566	433.849	459.859	253.391	344.266	161.654	259.978	439.525	220.225	385.524	308.939	0.00065425	0.00068526	0.00013303	1355.5	3.0583e-06	5.4698e-06	1361	365.88	6.2454e-06	3.9523e-06	418.77	140.13	121.81	41.625	3.6359e-06	51.422	0.00053831	0.00051473	0.00014442	1382.3	5.6015e-06	5.7425e-06	1381.1	374.06	5.5676e-06	5.774e-06	426.75	143.35	124.69	42.9	5.8526e-06	52.995	269.563	252.493	245.633	155.680	317.155	324.240	155.559	160.602	310.592	321.353	159.761	164.464	164.748	169.204	333.876	168.466	-8191	255	
41172.773	1	1	0	0	0.10169	0.26056	0.25452	0.10102	0.17188	0.15768	0.10977	0.20294	0.12601	0.26425	0.25441	0.15246	0.18353	0.044687	0.19928	0.24637	-2.2896	-2.8854	-3.0375	-2.9083	-3.1896	-2.9646	-3.0812	-3.2562	-2.8542	-2.8208	-3.2479	-2.8021	-3.1979	-2.9437	-2.8667	-3.1937	395.092	349.117	331.564	152.353	287.231	344.970	501.030	317.573	398.502	448.317	485.160	486.762	401.266	151.342	327.355	438.449	0.00060989	0.00062952	0.0001372	1358.8	1.0212e-05	4.4872e-06	1360.4	367.72	5.1332e-06	5.8868e-06	417.53	140.44	121.34	41.508	4.9843e-06	51.609	0.00054247	0.00052409	0.00014302	1381.3	5.5276e-06	5.7042e-06	1380.7	374.55	5.5776e-06	5.7081e-06	426.25	143.27	124.46	42.904	5.4564e-06	53.104	269.310	228.047	235.720	155.616	299.965	294.039	155.459	160.503	308.287	309.381	159.609	164.299	164.782	169.399	310.781	168.467	-8191	255	
41172.867	1	1	0	0	0.13546	0.248	0.10553	0.10176	0.10626	0.10976	0.22419	0.40953	0.48452	0.080245	0.13533	0.18251	0.12764	0.13621	0.34286	0.096076	-2.3854	-2.9083	-3.1104	-2.9229	-3.0687	-3.0083	-2.8771	-3.25	-2.675	-2.7896	-3.2417	-2.8417	-2.9458	-3.0083	-2.6396	-3.1021	303.465	182.246	430.502	463.048	415.842	334.228	463.366	467.887	358.937	269.310	410.800	246.160	432.272	167.972	316.795	412.586	0.00065709	0.00048497	0.00017029	1361.6	6.2172e-06	3.0527e-06	1359	367.02	4.5573e-06	4.9107e-06	417.99	140.7	121.54	41.549	7.0885e-06	51.517	0.00054842	0.00051106	0.00013911	1384.6	5.6571e-06	5.4435e-06	1382.3	374.69	5.4542e-06	5.4222e-06	426.62	143.47	124.56	42.948	5.3624e-06	53.058	267.976	233.114	211.649	155.590	281.589	272.932	155.507	160.471	328.896	312.109	159.658	164.208	164.573	169.184	309.713	168.421	-8191	255	
41172.965	1	1	0	0	0.03764	0.17144	0.2916	0.37926	0.42444	0.086162	0.164	0.23719	0.16599	0.24427	0.090656	0.31402	0.2664	0.091305	0.13546	0.081535	-2.4188	-2.5896	-3.1271	-2.9458	-2.95	-3.1208	-2.9083	-3.1188	-2.8417	-2.8667	-3.0479	-2.8104	-2.9208	-3.0625	-2.7667	-3.2375	303.431	308.321	376.469	428.692	318.565	423.230	439.246	160.690	497.599	272.474	485.660	464.293	453.130	153.280	435.709	197.857	0.00062635	0.0004935	0.00013693	1362.6	4.278e-06	1.6517e-06	1360.1	367.99	6.1586e-06	6.1207e-06	418.53	141.03	122.1	41.693	5.4762e-06	51.605	0.00052982	0.00048636	0.00012781	1383.3	5.4794e-06	5.3825e-06	1382	374.73	5.5336e-06	5.5969e-06	426.68	143.41	124.67	42.893	5.3762e-06	53.189	268.542	226.905	214.981	155.616	314.230	274.853	155.565	160.265	317.220	314.342	159.775	164.273	164.870	169.271	282.368	168.226	-8191	255	
41173.059	1	1	0	0	0.13431	0.1452	0.12311	0.094956	0.076135	0.28089	0.16261	0.11554	0.20964	0.29328	0.14827	0.23283	0.18019	0.1098	0.13808	0.24536	-2.3708	-2.6937	-2.9917	-3.0125	-2.9375	-3.2042	-2.7542	-3.1917	-2.8583	-2.7125	-3.1792	-2.7917	-3.0187	-3.1562	-2.9396	-3.1312	212.120	491.006	368.015	480.598	267.801	273.914	452.940	444.714	258.669	355.162	238.521	494.095	157.640	448.591	481.917	419.641	0.00065841	0.00052705	7.8906e-05	1357.1	6.3707e-06	5.9069e-06	1360.5	367.26	5.3509e-06	4.3023e-06	420.01	140.87	122.01	41.69	5.9202e-06	51.573	0.00052696	0.00048264	0.00013117	1382.6	5.6867e-06	5.4237e-06	1382.2	374.71	5.409e-06	5.4364e-06	427.45	143.54	124.77	42.912	5.2157e-06	53.07	268.352	250.060	217.424	155.803	306.432	303.881	155.316	160.420	327.483	296.398	159.919	164.197	165.137	169.377	283.077	168.396	-8191	255	
41173.180	1	1	0	0	0.16099	0.17945	0.1041	0.12337	0.48735	0.20663	0.24048	0.20668	0.1716	0.06524	0.22607	0.25121	0.1572	0.22141	0.19446	0.14483	-2.6292	-2.8271	-2.9979	-3.1729	-2.8542	-3.0521	-3.1063	-3.3021	-2.9437	-2.6708	-3.1813	-3.0125	-2.9188	-3.1521	-2.9188	-3.0167	369.089	148.360	492.803	488.843	367.337	292.805	354.482	484.388	391.261	485.152	467.791	385.629	457.778	432.725	161.853	449.018	0.00066296	0.00059896	0.00010055	1362.9	9.1275e-06	6.1324e-06	1359.6	367.49	5.069e-06	5.8609e-06	418	140.6	122.29	41.595	2.9032e-06	51.523	0.00053914	0.00047832	0.00013125	1383.8	5.456e-06	5.1406e-06	1381.3	374.87	5.3739e-06	5.3418e-06	426.74	143.44	124.86	42.859	5.2689e-06	53.128	268.605	226.423	229.774	155.563	309.047	300.591	155.391	160.572	320.799	289.315	159.884	164.208	164.885	169.117	308.099	168.505	-8191	255	
41173.277	1	1	0	0	0.11944	0.20354	0.11148	0.43095	0.1372	0.16905	0.089979	0.26337	0.19135	0.22624	0.21031	0.080964	0.24993	0.14482	0.2203	0.20515	-2.6375	-2.8458	-2.9062	-2.975	-2.7917	-3.2354	-2.9021	-3.2271	-2.9979	-2.7208	-3.175	-3.0021	-2.7333	-3.1125	-2.8333	-2.9479	158.653	375.830	164.251	492.597	501.080	310.831	178.994	439.161	366.842	499.679	427.114	214.097	315.527	148.228	493.099	420.435	0.00064365	0.00064737	0.00014513	1359.3	3.9195e-06	5.7776e-06	1361.9	365.78	4.841e-06	4.6165e-06	418.41	140.68	122.33	41.598	5.5558e-06	51.815	0.00053602	0.0004853	0.00013245	1382.7	5.3722e-06	5.2451e-06	1383	374.18	5.446e-06	5.1933e-06	427	143.39	124.91	42.91	5.4223e-06	53.193	270.833	246.044	216.358	155.753	309.083	284.674	155.490	160.315	318.682	296.804	159.576	164.169	164.674	169.334	333.458	168.272	-8191	255	
41173.371	1	1	0	0	0.25688	0.1656	0.22449	0.18116	0.19106	0.12841	0.36068	0.36679	0.12299	0.16221	0.18259	0.14181	0.16354	0.22209	0.12929	0.17807	-2.6125	-2.6771	-2.8875	-3.0479	-2.7854	-3.0667	-3.1437	-3.0312	-3.0812	-2.775	-3.1396	-3.1792	-2.7438	-3.2771	-2.825	-3.15	160.716	364.813	389.513	152.160	349.133	332.669	428.458	446.332	485.871	169.845	185.412	470.911	145.211	372.746	360.376	420.749	0.00065865	0.00076516	0.00014953	1362.4	8.9998e-06	4.8189e-06	1362.2	367.36	6.2555e-06	3.5408e-06	417.04	140.73	121.83	41.72	6.329e-06	51.587	0.00052627	0.00047605	0.00013566	1385	5.3806e-06	5.1238e-06	1381.6	374.23	5.3687e-06	5.2928e-06	426.78	143.29	124.67	42.897	5.5168e-06	53.145	271.939	236.792	246.619	155.668	319.199	291.277	155.394	160.473	308.957	311.118	159.800	164.212	164.910	169.383	311.166	168.388	-8191	255	
41173.469	1	1	0	0	0.29432	0.15702	0.22106	0.35265	0.14069	0.089825	0.12298	0.045941	0.15335	0.21827	0.19297	0.19132	0.14702	0.49111	0.33998	0.18207	-2.7021	-2.7375	-2.9771	-3.1063	-2.9625	-3.1562	-2.9542	-2.9979	-3.1896	-2.6958	-3.0938	-2.9521	-2.6875	-3.1813	-2.875	-3.05	161.326	377.035	176.457	477.785	354.008	377.143	423.771	419.342	437.820	275.920	492.802	476.047	376.453	484.231	434.956	378.210	0.00063817	0.00071789	0.00013462	1366.5	8.9284e-06	5.8881e-06	1363	367.35	5.3856e-06	5.276e-06	418.01	140.32	121.54	41.492	5.5688e-06	51.4	0.00052677	0.00048817	0.00013623	1384.4	5.3738e-06	5.2068e-06	1381.8	374.8	5.2975e-06	5.2592e-06	426.97	143.5	124.57	42.856	5.6732e-06	53.2	270.957	257.697	231.768	155.472	292.977	306.868	155.668	160.343	321.267	286.789	159.735	164.341	164.745	169.270	310.908	168.472	-8191	255	
41173.590	1	1	0	0	0.11065	0.25278	0.24492	0.33643	0.18186	0.25703	0.27769	0.53712	0.13157	0.17884	0.341	0.24932	0.24063	0.077099	0.39296	0.050296	-2.7396	-2.8083	-2.8146	-3.1375	-2.6542	-3.0021	-3.3354	-2.9604	-3.2396	-2.8688	-2.9833	-3.1229	-2.8396	-3.1792	-2.9583	-2.8375	216.039	275.632	190.826	486.456	343.579	287.516	464.839	455.723	200.850	235.716	419.306	476.494	489.283	501.862	218.731	383.007	0.00064752	0.00054674	0.00018372	1361.4	2.9334e-06	6.0743e-06	1360.4	367.92	5.9336e-06	4.675e-06	419.22	139.94	121.56	41.574	5.5683e-06	51.4	0.00052749	0.00048434	0.00013934	1383.5	5.2757e-06	5.1043e-06	1381	374.45	5.1398e-06	5.2256e-06	426.94	143.05	124.44	42.848	5.4436e-06	53.027	268.052	235.993	259.916	155.542	290.761	277.078	155.341	160.209	332.713	276.223	159.514	164.231	164.873	169.406	296.086	167.990	-8191	255	
41173.660	1	1	0	0	0.10185	0.098417	0.25283	0.12672	0.11424	0.096544	0.049234	0.15535	0.2096	0.2284	0.27282	0.30612	0.16636	0.27685	0.29269	0.11289	-2.7354	-3	-2.85	-3.3688	-2.6604	-3.0854	-3.1958	-2.9729	-3.0625	-2.9104	-2.9042	-3.2292	-2.9667	-3.1104	-3.075	-2.8271	254.728	144.217	461.782	479.589	465.775	418.386	380.795	397.049	147.197	455.801	449.715	423.028	478.242	247.158	339.401	151.943	0.00065761	0.00038458	0.00021572	1357.1	7.8882e-06	5.7511e-06	1358.9	367.83	3.913e-06	4.0384e-06	419.3	140.67	122.27	41.567	5.6621e-06	51.572	0.00050737	0.00048629	0.0001387	1380.4	5.2184e-06	5.2913e-06	1381.2	374.46	5.2337e-06	5.2975e-06	426.84	143.33	124.67	42.896	5.4775e-06	53.19	267.466	218.489	226.977	155.525	302.850	283.930	155.618	160.443	332.931	281.078	159.778	164.165	164.846	169.051	292.873	168.564	-8191	255	
41173.781	1	1	0	0	0.062721	0.14718	0.27716	0.22486	0.10046	0.075424	0.21937	0.18337	0.20214	0.11005	0.046439	0.24143	0.14526	0.2412	0.14186	0.032727	-2.6708	-2.8417	-2.8979	-3.4417	-2.9375	-3.0708	-3.3583	-2.975	-3.2125	-2.8604	-2.9688	-3.2812	-2.8542	-2.9396	-3.3146	-2.75	373.912	416.356	429.313	364.451	427.132	497.056	160.837	437.592	253.062	371.059	253.369	446.598	469.364	445.202	270.814	391.643	0.00062292	0.00051373	0.00012011	1360.6	8.7041e-06	4.562e-06	1358.6	366.93	4.6178e-06	3.6715e-06	417.45	140.37	121.83	41.66	4.0216e-06	51.45	0.00051394	0.0004905	0.00013467	1384.3	5.232e-06	5.4924e-06	1380.7	374.45	5.1871e-06	5.3916e-06	427.06	143.21	124.55	42.864	5.3967e-06	53.072	267.876	228.384	254.156	155.418	305.658	273.215	155.436	160.593	310.630	300.082	159.780	164.362	164.659	169.245	296.764	168.109	-8191	255	
41173.879	1	1	0	0	0.22172	0.066165	0.20863	0.3249	0.10323	0.25477	0.18409	0.14088	0.049901	0.035788	0.24369	0.26051	0.16027	0.060717	0.19604	0.21748	-2.6479	-3.0729	-2.8542	-3.2958	-2.8063	-2.9229	-3.4417	-3.0687	-3	-3.1063	-2.8792	-3.1729	-2.9021	-2.9896	-3.0812	-2.7583	301.176	313.496	341.653	451.302	256.927	376.748	424.021	185.763	361.325	394.986	404.187	456.334	465.742	486.750	305.765	466.205	0.00062107	0.00059663	8.0627e-05	1356.3	4.9397e-06	6.8292e-06	1355.8	367.8	4.3867e-06	5.7432e-06	418.02	140.48	121.43	41.63	6.071e-06	51.546	0.00050546	0.00049478	0.00013507	1381.7	5.4137e-06	5.4344e-06	1379.8	374.49	5.4116e-06	5.5404e-06	427.1	143.3	124.35	42.833	5.2089e-06	53.062	270.262	240.880	239.502	155.557	313.809	311.827	155.394	160.482	303.478	303.944	159.710	164.488	164.930	169.313	321.190	168.069	-8191	255	
41173.973	1	1	0	0	0.044799	0.22424	0.14226	0.26815	0.11599	0.13158	0.14604	0.21566	0.21507	0.22603	0.13095	0.10323	0.13889	0.19494	0.048367	0.21674	-2.6958	-2.9062	-2.7062	-3.2438	-3.0979	-2.8729	-3.4771	-2.9417	-3.0333	-3.2083	-2.8312	-3.1896	-2.8375	-2.8438	-3.3063	-2.9875	296.718	213.956	396.276	436.058	257.233	318.057	459.309	335.805	477.718	396.743	186.918	172.030	467.714	379.456	491.099	406.654	0.00064086	0.00061665	9.3226e-05	1363.3	6.7884e-06	6.3585e-06	1360.8	366.67	6.2845e-06	4.1789e-06	417.6	139.68	121.63	41.609	4.7483e-06	51.762	0.00051957	0.00048954	0.00013291	1383.6	5.3557e-06	5.4754e-06	1381.1	374.18	5.3825e-06	5.3254e-06	426.68	143.06	124.51	42.906	5.2416e-06	53.071	268.158	245.470	227.663	155.776	290.387	314.542	155.576	160.147	331.693	298.508	159.576	164.338	164.664	169.153	316.767	168.269	-8191	255	
41174.070	1	1	0	0	0.15898	0.17222	0.087183	0.078262	0.041984	0.12499	0.14671	0.069731	0.15849	0.2978	0.15837	0.039015	0.13068	0.14529	0.21923	0.119	-2.4333	-3.1146	-2.7771	-3.4125	-2.9604	-2.8854	-3.4896	-2.8958	-2.9042	-3.25	-2.9479	-3.1396	-2.9917	-2.8854	-3.1792	-2.9938	428.433	282.311	343.715	462.170	364.690	212.863	424.996	275.942	186.351	284.084	221.883	444.587	157.765	486.005	381.514	441.088	0.00059117	0.00053985	9.9235e-05	1359.5	6.2027e-06	4.7791e-06	1360.1	366.84	5.3911e-06	3.809e-06	416.41	140.58	122.02	41.678	5.0825e-06	51.491	0.00051707	0.00048114	0.00012876	1382.5	5.4715e-06	5.3884e-06	1381.1	373.88	5.3566e-06	5.2635e-06	426.19	143.17	124.63	42.9	5.1166e-06	53.031	268.150	216.678	249.604	155.789	299.604	303.517	155.384	160.380	312.254	293.980	159.716	164.363	164.732	169.300	297.247	168.193	-8191	255	
41174.164	1	1	0	0	0.013876	0.053853	0.17406	0.42485	0.11557	0.28343	0.25959	0.31639	0.14031	0.044359	0.1374	0.13818	0.11592	0.18828	0.084369	0.19037	-2.5438	-3.1604	-2.7771	-3.1333	-2.9792	-2.8375	-3.2354	-3.0125	-2.8792	-3.1042	-2.9167	-3.0583	-3.2667	-2.8958	-3.1271	-2.9417	152.194	373.085	208.150	474.383	320.306	241.986	429.094	146.764	476.514	308.736	432.905	475.749	287.608	427.124	336.889	413.096	0.00062444	0.00050859	0.00015146	1361.3	9.3771e-06	4.4943e-06	1356.6	366.49	5.8701e-06	5.7417e-06	416.74	140.43	121.73	41.542	3.7577e-06	51.478	0.00053691	0.00046607	0.00013025	1381.3	5.436e-06	5.2325e-06	1379.5	373.97	5.3559e-06	5.1667e-06	425.81	143.03	124.54	42.884	5.1507e-06	53.121	269.442	221.870	242.715	155.627	282.083	286.193	155.462	160.238	320.880	288.774	159.726	164.241	164.830	169.350	303.748	168.249	-8191	255	
41174.258	1	1	0	0	0.16699	0.17631	0.17555	0.33871	0.1805	0.13692	0.30316	0.11835	0.12244	0.28106	0.25774	0.26324	0.13768	0.34075	0.11252	0.23098	-2.475	-3.0667	-2.7854	-3.1937	-3.1271	-2.7458	-3.3937	-3.1229	-2.8854	-3.2667	-2.8625	-3.0354	-3.0583	-2.8479	-3.025	-3.0917	497.511	326.726	439.573	154.806	385.683	256.611	413.409	193.915	283.729	498.274	408.289	179.638	378.090	414.845	280.765	433.220	0.0005911	0.00034871	0.00018302	1361.3	7.9625e-06	5.7296e-06	1362.7	367.68	4.3184e-06	3.2733e-06	417.34	140.82	121.88	41.554	6.8324e-06	51.482	0.00052037	0.00047467	0.00012552	1383.4	5.2893e-06	5.0606e-06	1382.2	374.38	5.2886e-06	4.9631e-06	426.81	143.58	124.7	42.853	5.0431e-06	53.129	271.580	220.937	236.243	155.588	314.487	327.822	155.389	160.473	318.907	287.655	159.682	164.176	164.707	169.321	298.891	168.246	-8191	255	
41174.355	1	1	0	0	0.17161	0.14573	0.11414	0.33197	0.05427	0.22262	0.27305	0.093434	0.20382	0.23942	0.070493	0.097102	0.25411	0.24591	0.16796	0.21092	-2.4188	-3.2792	-2.9313	-3.1688	-3.0938	-2.8438	-3.1958	-3.0521	-2.8292	-3.0708	-3.0687	-3.1333	-3.025	-2.8375	-2.925	-3.1875	430.747	412.725	415.929	438.722	386.510	243.571	399.839	153.042	326.705	196.884	152.553	407.127	191.603	467.857	303.446	411.780	0.00062066	0.00042148	0.0001877	1359.8	6.9929e-06	7.5132e-06	1358.7	366.61	5.2828e-06	4.8034e-06	416.23	139.76	122.12	41.598	2.7061e-06	51.573	0.00051212	0.00045274	0.00013002	1382.6	5.1703e-06	4.9247e-06	1380.6	374.08	5.1452e-06	4.9738e-06	425.55	143.32	124.44	42.844	5.1649e-06	53.062	269.930	245.628	235.729	155.685	311.872	300.539	155.375	160.357	322.335	315.614	159.599	164.473	164.675	169.061	290.982	168.272	-8191	255	
41174.453	1	1	0	0	0.19262	0.08271	0.14314	0.26509	0.086845	0.19659	0.15032	0.32224	0.15442	0.2495	0.32213	0.28909	0.24185	0.13805	0.20716	0.11598	-2.3125	-2.9583	-2.8667	-2.9479	-3.0625	-2.7687	-3.0812	-3.1146	-2.7687	-3.1229	-3.0312	-3.0542	-3.3521	-2.9646	-3.0646	-3.1375	295.189	376.521	180.350	413.419	203.499	172.237	390.195	420.126	208.061	434.070	168.463	197.261	371.049	395.959	219.364	367.999	0.00058701	0.00059193	0.00012059	1354.5	6.0318e-06	5.4203e-06	1360.7	366.86	3.9541e-06	5.5849e-06	416.58	140.67	122.06	41.604	6.8002e-06	51.581	0.00050064	0.00044978	0.00012781	1381.3	5.0781e-06	4.8308e-06	1381.5	374.19	5.0439e-06	5.1336e-06	426.44	143.25	124.6	42.949	5.2829e-06	53.068	268.909	217.849	208.243	155.767	295.963	261.181	155.539	160.318	320.377	294.770	159.752	164.375	164.976	169.264	311.445	168.391	-8191	255	
41174.551	1	1	0	0	0.077552	0.12673	0.3108	0.030916	0.13724	0.27191	0.10213	0.33937	0.22351	0.13274	0.06473	0.19886	0.026737	0.22377	0.15302	0.27307	-2.4771	-3.0125	-2.7979	-2.9729	-3.15	-2.8646	-3.2833	-3.1729	-2.8125	-3.0042	-2.9583	-3.0208	-3.1854	-2.8438	-2.8479	-3.1375	158.389	407.240	331.144	380.233	183.154	440.503	278.365	462.265	164.354	201.635	438.216	157.034	396.479	243.845	262.662	459.658	0.00063408	0.00055719	9.6199e-05	1362.1	7.3927e-06	6.1596e-06	1360.5	367.06	3.7472e-06	3.8676e-06	417.53	140.05	122.3	41.463	6.2645e-06	51.627	0.00050272	0.00043845	0.00012997	1383.4	5.0431e-06	5.0203e-06	1381.6	374.12	4.9365e-06	4.9587e-06	426.68	143.22	124.47	42.775	5.0796e-06	53.211	268.370	243.759	231.100	155.558	321.816	303.292	155.557	160.287	305.555	292.709	159.792	164.277	164.933	169.080	284.009	168.175	-8191	255	
41174.668	1	1	0	0	0.055349	0.097265	0.16056	0.15055	0.14081	0.084151	0.29928	0.21608	0.11644	0.19132	0.20833	0.21544	0.15362	0.39387	0.17284	0.13979	-2.4833	-3.2396	-2.975	-2.8708	-3.0375	-2.9208	-3.0833	-3.2958	-2.6833	-3.0375	-3.2521	-2.9271	-3.2208	-2.9938	-2.7562	-3.2375	188.078	294.733	393.038	420.641	197.016	397.180	492.500	400.056	450.536	277.459	483.328	499.066	444.037	448.208	208.758	428.701	0.00062517	0.00047277	0.00018178	1363.3	7.9357e-06	3.7914e-06	1363.3	367.38	6.7302e-06	7.5801e-06	416.69	140.35	121.97	41.578	6.6311e-06	51.585	0.00048417	0.00044981	0.00012637	1384.1	4.7659e-06	4.9973e-06	1383.1	374.41	4.9165e-06	5.0263e-06	426.44	143.28	124.54	42.877	4.9912e-06	53.056	268.496	230.147	235.100	155.695	290.989	295.908	155.537	160.263	314.603	322.636	159.739	164.281	164.780	169.507	309.861	168.418	-8191	255	
41174.766	1	1	0	0	0.091738	0.26545	0.1596	0.47093	0.22894	0.14453	0.20811	0.077592	0.14178	0.13377	0.15369	0.28535	0.26511	0.19556	0.16569	0.27045	-2.2979	-2.9792	-3.0042	-2.8688	-3.2167	-3.1208	-3.0854	-3.325	-2.9042	-2.9958	-2.9333	-2.9979	-3.2375	-2.9146	-2.7333	-3.3438	205.132	422.958	410.987	452.497	275.480	418.584	476.013	333.920	338.637	266.857	429.344	447.297	255.389	214.119	406.638	416.120	0.00062855	0.00047991	0.00012942	1358.8	6.2286e-06	5.9531e-06	1361.4	368.21	5.8961e-06	3.9984e-06	417.43	139.8	122.04	41.658	5.8063e-06	51.817	0.0004918	0.00046351	0.00012368	1383.3	4.8497e-06	5.153e-06	1381.3	374.58	4.9794e-06	4.9721e-06	426.9	143.07	124.78	42.951	5.0436e-06	53.207	266.986	209.317	222.960	155.740	293.108	322.612	155.529	160.409	305.744	284.777	159.785	164.126	164.723	169.392	320.974	168.110	-8191	255	
41174.859	1	1	0	0	0.33708	0.11273	0.19992	0.20293	0.06258	0.044328	0.053294	0.13613	0.28459	0.099239	0.15708	0.096457	0.1227	0.08726	0.13282	0.3397	-2.5229	-3	-3.1125	-2.95	-3.0208	-2.9292	-2.9313	-3.0875	-2.95	-2.9146	-3.0771	-2.8	-2.9792	-3.0667	-2.775	-3.2104	431.225	280.179	494.663	383.303	347.362	278.891	494.247	492.206	170.421	265.872	170.268	437.270	446.038	490.213	308.967	478.745	0.00062143	0.00036408	9.5871e-05	1358.1	7.9687e-06	6.0898e-06	1358.1	367.23	5.7464e-06	4.9414e-06	418.49	140.25	121.86	41.763	4.7601e-06	51.774	0.00049216	0.00046394	0.00012899	1381.7	5.0511e-06	5.0892e-06	1380.6	374.22	4.9689e-06	5.0885e-06	426.27	143.2	124.55	42.98	4.9704e-06	53.121	268.649	233.089	244.071	155.611	296.472	288.642	155.474	160.254	310.363	293.438	159.363	164.640	164.655	169.197	311.739	168.132	-8191	255	
41174.957	1	1	0	0	0.21648	0.27992	0.20947	0.21686	0.1199	0.18217	0.14068	0.38071	0.27889	0.029666	0.18476	0.32767	0.15161	0.20878	0.25588	0.055194	-2.4125	-2.7771	-3.2646	-2.9562	-3.0542	-2.8917	-2.9521	-3.1708	-2.6167	-2.9625	-3.2229	-2.8438	-2.9292	-2.8812	-2.7479	-3.0646	296.225	327.524	189.547	474.814	156.040	179.941	210.508	446.952	472.832	158.247	398.368	442.163	310.066	424.502	444.979	282.528	0.00063133	0.00066589	0.00017269	1358.4	6.3505e-06	2.5147e-06	1358.5	367.51	5.9907e-06	6.1572e-06	418.58	140.76	121.88	41.542	5.0965e-06	51.574	0.00050056	0.00047281	0.00012322	1382.1	5.1553e-06	4.962e-06	1379.7	374.43	5.2681e-06	5.0846e-06	426.54	143.3	124.47	42.906	4.8556e-06	53.11	269.603	232.414	232.543	155.502	292.432	294.942	155.630	160.468	316.436	275.968	159.572	164.158	164.551	169.188	306.737	168.267	-8191	255	
41175.055	1	1	0	0	0.10845	0.093742	0.13755	0.18237	0.11346	0.046451	0.322	0.1953	0.26583	0.10694	0.068175	0.1402	0.12312	0.30554	0.088849	0.29136	-2.5104	-2.7354	-3.0938	-2.9833	-2.9521	-3.0875	-3.0646	-3.1917	-2.9792	-2.6583	-3.2771	-2.7875	-2.9021	-3.2167	-2.6292	-3.125	380.489	227.881	358.266	395.930	467.700	464.620	441.373	445.508	468.418	335.984	487.034	405.474	428.882	446.636	175.319	154.123	0.00062818	0.00046872	0.00012643	1359.4	5.9153e-06	8.0241e-06	1356.3	368.21	5.3196e-06	4.3626e-06	417.02	140.32	122.17	41.696	6.7257e-06	51.577	0.00049982	0.00045646	0.00012209	1382.3	5.0588e-06	4.9049e-06	1380	374.58	4.9663e-06	4.9634e-06	426.23	143.36	124.73	42.961	4.8759e-06	53.081	272.462	227.318	209.156	155.710	300.313	286.285	155.636	160.356	333.628	277.673	160.028	164.144	164.676	169.252	298.672	168.424	-8191	255	
41175.148	1	1	0	0	0.10193	0.08156	0.28011	0.27206	0.18181	0.24165	0.33923	0.13358	0.24141	0.12596	0.18864	0.080932	0.11489	0.21793	0.044024	0.17898	-2.4938	-2.7313	-3.0021	-3.1458	-2.9771	-3.1562	-3.0354	-3.2292	-3.0354	-2.7354	-3.1104	-3.0312	-2.9771	-3.1458	-2.8229	-3.0646	381.555	388.506	278.199	411.979	402.831	384.810	389.017	490.716	251.669	422.772	376.176	319.436	264.832	170.162	386.164	336.954	0.00063768	0.0005576	0.00011489	1362.9	8.3538e-06	5.9343e-06	1358	366.35	4.5171e-06	4.9645e-06	417.29	140.55	122.38	41.563	5.7583e-06	51.639	0.00049761	0.00045567	0.00012	1382.6	4.9429e-06	4.9575e-06	1381.4	374.34	5.0797e-06	4.9992e-06	426.43	143.22	124.8	42.851	4.7125e-06	53.24	269.139	246.231	232.481	155.606	297.729	314.714	155.473	160.425	324.787	303.893	159.665	164.162	164.925	169.346	310.400	168.304	-8191	255	
41175.270	1	1	0	0	0.13464	0.21536	0.19182	0.30653	0.25848	0.23429	0.14845	0.16382	0.227	0.18529	0.15824	0.45861	0.24051	0.11915	0.22757	0.25065	-2.6208	-2.8708	-3.0021	-3.125	-2.7833	-3.1708	-2.9896	-2.9688	-2.9396	-2.8833	-3.2188	-3.0042	-2.9125	-3.25	-2.7812	-2.9062	382.426	433.312	333.134	447.276	377.960	417.270	347.712	397.309	428.089	298.505	167.401	419.895	437.592	490.060	473.231	458.364	0.00063694	0.00048133	0.00016095	1358.6	6.3393e-06	3.0173e-06	1357.5	367.15	4.6308e-06	4.9407e-06	417.4	139.53	121.82	41.563	6.2734e-06	51.617	0.00050071	0.00044166	0.00011664	1381.8	5.0663e-06	4.6432e-06	1380.3	374.53	4.8741e-06	4.6743e-06	426.32	142.83	124.46	42.842	4.7449e-06	53.101	268.462	210.444	249.412	155.655	286.263	305.770	155.538	160.519	310.797	314.685	159.682	164.413	164.596	169.263	312.494	168.565	-8191	255	
41175.363	1	1	0	0	0.22881	0.10924	0.21099	0.35281	0.14449	0.055244	0.34498	0.31973	0.080562	0.27282	0.19128	0.17024	0.22571	0.14936	0.12073	0.31957	-2.7417	-2.7521	-2.9437	-3.125	-2.9083	-3.2062	-3.1854	-2.9521	-3.0792	-2.7271	-3.0083	-3.0687	-2.7333	-3.3396	-2.7021	-3.0417	273.019	315.709	225.086	441.264	476.673	210.604	443.398	441.758	383.109	142.661	152.525	443.745	429.181	177.715	303.983	481.515	0.00059276	0.00041977	0.0001488	1357.9	4.8845e-06	6.1353e-06	1361.9	365.27	4.7806e-06	3.4452e-06	416.8	140.25	121.72	41.561	3.0097e-06	51.504	0.00048652	0.00042107	0.00012058	1381.7	4.9504e-06	4.6788e-06	1379.1	373.81	4.7894e-06	4.682e-06	426.19	143.12	124.51	42.833	4.8283e-06	53.1	273.526	251.404	241.562	155.682	299.213	296.939	155.471	160.436	305.638	292.771	159.528	164.291	164.808	169.420	292.870	168.330	-8191	255	
41175.461	1	1	0	0	0.062092	0.33805	0.19848	0.13023	0.13538	0.24682	0.16195	0.27472	0.057286	0.07384	0.34131	0.18246	0.35069	0.23978	0.11371	0.24719	-2.6583	-2.8063	-2.9437	-3.1917	-2.8896	-3.1729	-3.1562	-3.0458	-3.1958	-2.775	-3.1354	-2.9688	-2.7104	-3.0271	-2.9396	-3	364.091	158.727	162.791	470.186	396.918	398.180	459.999	481.171	417.979	255.402	456.341	450.862	206.151	215.808	349.627	287.848	0.0006521	0.00051135	0.00018654	1354.5	7.292e-06	4.2903e-06	1362.2	368	3.3877e-06	5.7253e-06	417.64	140.2	121.33	41.47	5.3049e-06	51.544	0.00049396	0.00042755	0.00012131	1381.8	4.8135e-06	4.5212e-06	1378.9	374.51	4.6352e-06	4.6442e-06	426.51	143.15	124.36	42.79	4.8317e-06	52.986	268.522	217.221	244.611	155.742	307.843	290.712	155.455	160.537	318.887	291.534	159.828	164.396	164.902	169.379	298.020	168.707	-8191	255	
41175.559	1	1	0	0	0.20301	0.39579	0.33378	0.21349	0.22006	0.17229	0.52083	0.096181	0.17717	0.091488	0.11286	0.14533	0.19043	0.28728	0.1271	0.13412	-2.5542	-2.7625	-2.8563	-3.4	-2.7562	-2.9792	-3.3479	-2.9875	-3.1354	-3.0833	-2.9792	-3.1521	-2.9583	-2.9729	-2.9813	-2.875	162.484	403.712	502.428	501.264	382.901	275.405	447.548	142.837	351.743	405.204	488.428	456.888	276.944	148.646	256.109	158.086	0.0006418	0.00066622	0.00019158	1360	7.8486e-06	4.2494e-06	1362.4	366.71	5.5593e-06	4.4189e-06	417.61	139.78	121.44	41.565	4.9922e-06	51.352	0.00046578	0.00041601	0.00012037	1382.8	4.7633e-06	4.577e-06	1380.8	374.22	4.5297e-06	4.5989e-06	426.27	142.99	124.22	42.855	4.7734e-06	53.096	268.611	219.765	249.605	155.618	290.682	261.715	155.587	160.460	318.028	302.816	159.746	164.278	164.856	169.206	317.565	168.453	-8191	255	
#DATA ENDS
