BOXY.EXE: ISS Imagent and Oximeter Data Acquisition Program Version 0.80
Ascii Record File

#ACQ INFORMATION
2  Detector Channels 
16  External MUX Channels 
1  Auxiliary Channels 
5000  Waveform (CCF) Frequency (Hz)
1  Waveforms Skipped 
30  Waveforms Averaged 
1  Cycles Averaged 
16  Acquisitions per Waveform 
10.0806  Updata Rate (Hz) 

#FILE INFORMATION
TRUE -- External MUX Channel results are PARSED.
FALSE -- AC DC and Phase are NOT grouped.
TRUE -- Companion Program Settings File CREATED.
FALSE -- AC data not excluded
FALSE -- DC data not excluded
FALSE -- Phase data not excluded
FALSE -- Auxillary Chn. data not excluded
Tab delimiters

#CALIBRATION STATE
TRUE -- Waveform Calibration Values APPLIED.


#AUX CALIBRATION VALUES
Val Type	aux-1	

Term	1.0000e+00	
Factor	0.0000e+00	


#WF CALIBRATION VALUES
A = Detector Channel
Val Type	A-AC1	A-AC2	A-AC3	A-AC4	A-AC5	A-AC6	A-AC7	A-AC8	A-AC9	A-AC10	A-AC11	A-AC12	A-AC13	A-AC14	A-AC15	A-AC16	A-DC1	A-DC2	A-DC3	A-DC4	A-DC5	A-DC6	A-DC7	A-DC8	A-DC9	A-DC10	A-DC11	A-DC12	A-DC13	A-DC14	A-DC15	A-DC16	A-Ph1	A-Ph2	A-Ph3	A-Ph4	A-Ph5	A-Ph6	A-Ph7	A-Ph8	A-Ph9	A-Ph10	A-Ph11	A-Ph12	A-Ph13	A-Ph14	A-Ph15	A-Ph16	

Term	0.00000e+00	0.00000e+00	0.00000e+00	0.00000e+00	0.00000e+00	0.00000e+00	0.00000e+00	0.00000e+00	0.00000e+00	0.00000e+00	0.00000e+00	0.00000e+00	0.00000e+00	0.00000e+00	0.00000e+00	0.00000e+00	0.00000e+00	0.00000e+00	0.00000e+00	0.00000e+00	0.00000e+00	0.00000e+00	0.00000e+00	0.00000e+00	0.00000e+00	0.00000e+00	0.00000e+00	0.00000e+00	0.00000e+00	0.00000e+00	0.00000e+00	0.00000e+00	0.00000e+00	0.00000e+00	0.00000e+00	0.00000e+00	0.00000e+00	0.00000e+00	0.00000e+00	0.00000e+00	0.00000e+00	0.00000e+00	0.00000e+00	0.00000e+00	0.00000e+00	0.00000e+00	0.00000e+00	0.00000e+00	
Factor	1.00000e+00	1.00000e+00	1.00000e+00	1.00000e+00	1.00000e+00	1.00000e+00	1.00000e+00	1.00000e+00	1.00000e+00	1.00000e+00	1.00000e+00	1.00000e+00	1.00000e+00	1.00000e+00	1.00000e+00	1.00000e+00	1.00000e+00	1.00000e+00	1.00000e+00	1.00000e+00	1.00000e+00	1.00000e+00	1.00000e+00	1.00000e+00	1.00000e+00	1.00000e+00	1.00000e+00	1.00000e+00	1.00000e+00	1.00000e+00	1.00000e+00	1.00000e+00	X	X	X	X	X	X	X	X	X	X	X	X	X	X	X	X	

B = Detector Channel
Val Type	B-AC1	B-AC2	B-AC3	B-AC4	B-AC5	B-AC6	B-AC7	B-AC8	B-AC9	B-AC10	B-AC11	B-AC12	B-AC13	B-AC14	B-AC15	B-AC16	B-DC1	B-DC2	B-DC3	B-DC4	B-DC5	B-DC6	B-DC7	B-DC8	B-DC9	B-DC10	B-DC11	B-DC12	B-DC13	B-DC14	B-DC15	B-DC16	B-Ph1	B-Ph2	B-Ph3	B-Ph4	B-Ph5	B-Ph6	B-Ph7	B-Ph8	B-Ph9	B-Ph10	B-Ph11	B-Ph12	B-Ph13	B-Ph14	B-Ph15	B-Ph16	

Term	0.00000e+00	0.00000e+00	0.00000e+00	0.00000e+00	0.00000e+00	0.00000e+00	0.00000e+00	0.00000e+00	0.00000e+00	0.00000e+00	0.00000e+00	0.00000e+00	0.00000e+00	0.00000e+00	0.00000e+00	0.00000e+00	0.00000e+00	0.00000e+00	0.00000e+00	0.00000e+00	0.00000e+00	0.00000e+00	0.00000e+00	0.00000e+00	0.00000e+00	0.00000e+00	0.00000e+00	0.00000e+00	0.00000e+00	0.00000e+00	0.00000e+00	0.00000e+00	-1.62186e+02	-1.31730e+02	-1.27311e+02	-1.82839e+02	-7.22027e+01	-7.27005e+01	-1.55569e+02	-1.62015e+02	-8.76372e+01	-5.40435e+01	-1.72178e+02	-1.69985e+02	-1.81095e+02	-1.77169e+02	-7.66771e+01	-1.49038e+02	
Factor	2.42245e-05	1.56023e-04	3.81428e-05	1.75312e-01	1.40971e-06	1.64037e-06	1.54563e-01	4.71353e-02	1.24050e-06	1.69146e-06	8.91026e-02	2.75073e-02	2.74061e-02	8.82892e-03	1.31004e-06	1.28598e-02	5.15665e-06	6.04778e-06	1.70279e-06	8.69371e-02	6.52167e-08	6.74084e-08	7.23543e-02	2.35215e-02	6.47762e-08	6.74149e-08	4.30885e-02	1.33832e-02	1.37951e-02	4.43508e-03	6.56277e-08	6.27281e-03	X	X	X	X	X	X	X	X	X	X	X	X	X	X	X	X	



#DISTANCE SETTINGS
A = Detector Channel
A-1	A-2	A-3	A-4	A-5	A-6	A-7	A-8	A-9	A-10	A-11	A-12	A-13	A-14	A-15	A-16	

2.5000e+00	3.0000e+00	2.5000e+00	3.0000e+00	2.0000e+00	3.0000e+00	1.5000e+00	3.0000e+00	3.0000e+00	3.0000e+00	3.0000e+00	3.0000e+00	3.0000e+00	3.0000e+00	1.5000e+00	3.0000e+00	

B = Detector Channel
B-1	B-2	B-3	B-4	B-5	B-6	B-7	B-8	B-9	B-10	B-11	B-12	B-13	B-14	B-15	B-16	

1.0000e+01	1.0000e+01	1.0000e+01	1.4400e+00	1.0000e+01	1.0000e+01	1.5100e+00	1.9400e+00	1.0000e+01	1.0000e+01	1.9900e+00	2.4900e+00	2.4100e+00	2.9000e+00	1.0000e+01	2.9800e+00	




#DATA BEGINS
time	group	step	mark	flag	A-AC1	A-AC2	A-AC3	A-AC4	A-AC5	A-AC6	A-AC7	A-AC8	A-AC9	A-AC10	A-AC11	A-AC12	A-AC13	A-AC14	A-AC15	A-AC16	A-DC1	A-DC2	A-DC3	A-DC4	A-DC5	A-DC6	A-DC7	A-DC8	A-DC9	A-DC10	A-DC11	A-DC12	A-DC13	A-DC14	A-DC15	A-DC16	A-Ph1	A-Ph2	A-Ph3	A-Ph4	A-Ph5	A-Ph6	A-Ph7	A-Ph8	A-Ph9	A-Ph10	A-Ph11	A-Ph12	A-Ph13	A-Ph14	A-Ph15	A-Ph16	B-AC1	B-AC2	B-AC3	B-AC4	B-AC5	B-AC6	B-AC7	B-AC8	B-AC9	B-AC10	B-AC11	B-AC12	B-AC13	B-AC14	B-AC15	B-AC16	B-DC1	B-DC2	B-DC3	B-DC4	B-DC5	B-DC6	B-DC7	B-DC8	B-DC9	B-DC10	B-DC11	B-DC12	B-DC13	B-DC14	B-DC15	B-DC16	B-Ph1	B-Ph2	B-Ph3	B-Ph4	B-Ph5	B-Ph6	B-Ph7	B-Ph8	B-Ph9	B-Ph10	B-Ph11	B-Ph12	B-Ph13	B-Ph14	B-Ph15	B-Ph16	aux-1	digaux	

2308.518	1	1	0	256	0.27896	0.11175	0.14728	0.1982	0.21228	0.091671	0.05309	0.075807	0.41333	0.16152	0.26991	0.024992	0.12143	0.25619	0.11396	0.084646	-2.9188	-3.1813	-3.0958	-3.3563	-3.075	-3.4854	-3.3937	-3.0104	-3.3104	-3.2062	-3.1479	-3.4333	-3.4375	-3.4354	-3.475	-3.0854	-31.430	-33.220	33.892	117.083	120.460	143.948	180.078	35.980	50.175	-67.349	-32.362	175.438	-43.122	118.458	114.564	113.292	0.00039601	0.00020565	0.00018497	546.79	4.2874e-06	2.3506e-06	476.98	147.79	3.5702e-06	3.5882e-06	148.57	69.443	63.452	27.003	2.7686e-06	31.243	0.00084179	0.00092859	0.00025846	544.01	9.9048e-06	1.0258e-05	476.33	147.54	9.8477e-06	1.0152e-05	150.35	69.881	63.907	27.221	9.7129e-06	31.793	171.376	-81.816	-159.921	-160.206	-41.325	-58.776	-161.810	-155.480	-92.198	-36.356	-158.212	-154.432	-152.046	-146.806	-28.865	-150.162	-8191	255	
2308.614	1	1	0	0	0.19437	0.11646	0.080559	0.040665	0.12529	0.17074	0.15053	0.19087	0.14942	0.20863	0.25127	0.15872	0.1874	0.12616	0.052025	0.20744	-3.0333	-3.1917	-3.0563	-3.6229	-3.0896	-3.4479	-3.4708	-3.2104	-3.4604	-3.3646	-3.4833	-3.5583	-3.35	-3.2917	-3.3542	-3.1917	-112.331	152.611	60.913	-22.202	178.560	5.008	62.210	-32.554	-21.473	-121.558	-105.775	-148.762	154.779	-123.062	151.945	18.212	0.00037723	0.00014229	5.9041e-05	546.71	1.9689e-06	2.7205e-06	477.82	146.13	3.0736e-06	2.7633e-06	148.22	69.238	63.245	26.967	2.0635e-06	31.649	0.00083432	0.00090965	0.0002567	542.03	9.7667e-06	9.9826e-06	474.6	146.31	9.7634e-06	1.0145e-05	149.86	69.433	63.499	27.154	9.838e-06	31.875	162.366	127.202	-51.852	-160.658	-80.125	18.291	-161.441	-155.746	-61.762	-20.057	-158.379	-154.743	-152.831	-147.098	23.806	-150.069	-8191	255	
2308.710	1	1	0	0	0.11272	0.1692	0.19295	0.11075	0.1587	0.22061	0.14437	0.2291	0.095326	0.21524	0.088597	0.36577	0.18075	0.17562	0.078882	0.19924	-2.975	-3.5062	-3.1	-3.5208	-3.1208	-3.3875	-3.6083	-3.2062	-3.3771	-3.3708	-3.2333	-3.4771	-3.4646	-3.5187	-3.3604	-3.3354	-13.835	-113.572	80.694	19.838	74.125	-56.481	87.763	123.392	134.968	174.638	-22.459	-1.864	108.108	-121.636	-63.920	85.874	0.00042512	0.00021689	0.00023261	548	4.4371e-06	2.1427e-06	475.03	146.34	2.5476e-06	4.9092e-06	148.71	69.324	63.204	27.003	2.119e-06	31.791	0.00082207	0.0009047	0.00025512	544.36	9.8508e-06	1.0153e-05	475.54	146.74	9.8355e-06	9.9715e-06	150.63	70.004	63.695	27.26	9.873e-06	32.038	163.953	77.316	-91.929	-160.287	-98.145	-123.553	-161.446	-155.854	-93.171	6.921	-158.209	-154.693	-152.368	-146.395	-110.775	-149.926	-8191	255	
2308.805	1	1	0	0	0.17823	0.2201	0.07288	0.15637	0.10365	0.07306	0.04356	0.276	0.11042	0.1009	0.061226	0.065038	0.19631	0.24283	0.28808	0.20687	-2.8187	-3.4	-3.1375	-3.3688	-3.3021	-3.3187	-3.6813	-3.275	-3.2396	-3.6083	-3.2438	-3.4188	-3.2667	-3.2354	-3.5667	-3.3104	54.748	49.439	-73.292	106.066	-168.565	-49.915	-71.143	68.931	1.525	-49.971	13.184	15.262	180.864	46.353	79.372	147.463	0.00037557	0.00030716	8.5293e-05	545.92	3.2806e-06	1.9666e-06	478.62	147.92	4.2787e-06	4.5129e-06	148.74	69.783	63.565	27.052	3.226e-06	31.665	0.00083218	0.00090411	0.00025712	543.74	9.9363e-06	1.0161e-05	475.91	147.57	9.831e-06	9.9782e-06	151.41	70.331	63.972	27.358	9.7521e-06	32.127	163.140	-116.505	-81.810	-160.872	-7.598	-158.540	-161.566	-155.985	-15.151	-13.864	-158.034	-154.874	-152.614	-146.980	-36.455	-149.902	-8191	255	
2308.901	1	1	0	0	0.26916	0.05119	0.13977	0.081216	0.30779	0.29669	0.14474	0.17193	0.11969	0.12777	0.24486	0.059828	0.22229	0.21999	0.20994	0.1635	-3.0563	-3.3438	-3.1917	-3.3458	-3.1646	-3.1479	-3.6292	-3.3312	-3.2604	-3.525	-3.3333	-3.4625	-3.3208	-3.3	-3.4333	-3.1708	-1.996	-52.522	31.257	168.280	65.055	-130.297	83.230	-151.569	15.459	-91.072	59.346	-155.771	122.817	103.406	-90.835	151.808	0.00037543	0.00032728	9.9883e-05	545.86	2.0021e-06	1.6809e-06	479.75	146.72	4.7446e-06	2.1242e-06	147.84	69.194	62.629	26.998	2.7343e-06	31.389	0.0008336	0.00091241	0.00025231	541.8	9.7037e-06	1.0084e-05	474.69	146.44	9.7191e-06	1.0098e-05	149.75	69.692	63.398	27.153	9.9869e-06	31.771	166.319	-76.325	-104.941	-160.469	-69.852	-102.686	-161.645	-155.878	-56.510	21.070	-157.990	-155.014	-152.411	-146.798	-72.194	-149.765	-8191	255	
2308.997	1	1	0	0	0.15399	0.28532	0.083604	0.2261	0.036811	0.027925	0.096612	0.05804	0.076344	0.1465	0.1036	0.22426	0.21303	0.066335	0.18461	0.32812	-2.8187	-3.4292	-3.1417	-3.3583	-3.3396	-3.1583	-3.5458	-3.4146	-3.3417	-3.4833	-3.1958	-3.4833	-3.3896	-3.15	-3.4104	-3.3521	13.870	53.313	-56.018	181.720	-128.375	63.570	-173.011	170.406	178.931	79.349	27.334	-169.739	25.933	-167.941	-36.704	111.574	0.00040597	0.00037079	0.00013573	541.96	4.7436e-06	1.8676e-06	473.18	146.25	3.806e-06	4.7192e-06	147.64	69.592	63.116	27.257	6.1566e-06	31.517	0.00083808	0.00090865	0.00025696	540.53	9.7873e-06	1.0183e-05	472.85	146.18	9.8526e-06	1.0303e-05	150.06	69.968	63.597	27.259	9.9699e-06	31.922	166.496	148.364	-67.141	-160.659	-30.458	-100.137	-161.351	-155.841	-133.308	-23.224	-158.269	-154.541	-152.424	-146.864	-35.941	-149.980	-8191	255	
2309.118	1	1	0	0	0.21733	0.042818	0.21283	0.21966	0.15741	0.14412	0.03604	0.18064	0.10718	0.041791	0.091396	0.069387	0.2505	0.2309	0.36166	0.031006	-2.9646	-3.4896	-3.2188	-3.4083	-3.5792	-3.1896	-3.3396	-3.4646	-3.075	-3.3021	-3.2604	-3.5021	-3.3958	-3.2687	-3.4396	-3.4958	-123.624	99.661	104.867	183.080	-171.552	-99.562	-104.953	119.020	161.707	-162.615	113.154	185.546	162.229	171.503	-111.288	89.624	0.00037064	0.0002501	6.7468e-05	544.96	2.9066e-06	4.3073e-06	476.94	147.33	2.6284e-06	2.4083e-06	150.26	70.371	63.285	27.124	4.0917e-06	31.898	0.00084098	0.00092434	0.00025949	541.44	9.9354e-06	1.0176e-05	475.79	147.04	1.0002e-05	1.0198e-05	151.94	70.487	63.93	27.263	1.0134e-05	32.135	172.230	-37.065	-119.982	-160.758	-23.515	-24.402	-161.622	-155.872	-104.595	150.784	-157.865	-155.015	-152.851	-146.510	-92.710	-149.873	-8191	255	
2309.214	1	1	0	0	0.21153	0.2673	0.26841	0.22844	0.069	0.13721	0.33747	0.1305	0.14979	0.21477	0.078891	0.14241	0.14412	0.17825	0.12368	0.032704	-2.6	-3.4417	-3.1937	-3.2708	-3.5625	-3.1937	-3.5208	-3.3896	-2.9771	-3.675	-3.1708	-3.3063	-3.5521	-3.1813	-3.2542	-3.4229	-94.859	177.771	-93.766	140.157	-91.495	97.317	147.841	-41.665	-71.926	-75.816	-49.984	-152.082	59.359	155.987	-119.997	-61.809	0.00036458	0.00047363	0.00022812	544.94	5.8662e-06	3.9704e-06	476.99	146.55	4.1523e-06	4.7795e-06	148.08	69.951	63.157	26.907	1.2364e-06	31.411	0.00084768	0.00093544	0.00026119	541.8	1.0042e-05	1.0234e-05	473.86	146.43	9.9163e-06	1.0197e-05	150.49	70.062	63.573	27.086	1.0121e-05	31.78	166.824	-94.166	-92.039	-160.628	-7.534	-41.571	-161.785	-155.849	-52.312	-34.675	-157.873	-154.715	-152.429	-147.028	-145.549	-150.153	-8191	255	
2309.286	1	1	0	0	0.091047	0.17937	0.22642	0.1386	0.092577	0.14737	0.25455	0.23068	0.19416	0.18616	0.34186	0.15306	0.14252	0.087735	0.093676	0.32546	-2.9729	-3.3854	-3.3208	-3.2333	-3.5375	-3.1271	-3.3896	-3.4437	-2.9792	-3.5521	-3.2687	-3.2875	-3.5958	-3.3792	-3.35	-3.4875	161.637	169.628	-144.084	-162.344	81.121	17.087	176.801	38.330	118.163	-27.849	115.680	76.941	-163.544	-163.869	107.266	144.495	0.00036122	0.00069672	0.00021708	542.29	2.9214e-06	3.1158e-06	474.01	146.57	3.9637e-06	2.2564e-06	149.29	69.52	63.198	26.966	3.4904e-06	31.501	0.00084472	0.00091832	0.00025965	539.11	9.8078e-06	1.0316e-05	472.1	146.42	1.0028e-05	1.0478e-05	150.87	70.148	63.644	27.104	1.0249e-05	31.84	160.264	-74.030	-100.393	-160.363	9.210	-37.597	-161.596	-156.125	-34.418	33.985	-158.306	-154.891	-152.582	-147.084	-52.656	-149.812	-8191	255	
2309.382	1	1	0	0	0.074302	0.090811	0.060081	0.074333	0.1067	0.32938	0.11517	0.094984	0.13271	0.17379	0.10943	0.01362	0.16763	0.18786	0.058699	0.0963	-2.7521	-3.3187	-3.2042	-3.2167	-3.55	-3.3042	-3.3896	-3.6	-3.0042	-3.375	-3.3812	-3.0563	-3.5271	-3.3104	-3.1521	-3.4083	107.233	184.154	-22.280	-77.390	167.253	50.963	-143.484	157.362	7.415	-69.973	95.809	50.566	157.681	-146.467	143.243	-106.432	0.00034806	0.00053361	0.00010907	546.34	4.5757e-06	1.2701e-06	473.92	147.85	2.2183e-06	4.6009e-06	150.23	70.411	63.529	27.116	3.064e-06	31.713	0.00084241	0.00092815	0.00026066	542.35	1.0097e-05	1.0352e-05	474.64	147.22	1.0059e-05	1.0536e-05	152.37	70.769	64.135	27.272	1.0243e-05	32.118	172.881	-64.210	-51.830	-160.620	-63.465	-85.602	-161.445	-155.796	-68.843	-7.346	-158.231	-154.945	-152.242	-147.075	11.619	-149.928	-8191	255	
2309.502	1	1	0	0	0.20166	0.29162	0.048501	0.21434	0.052895	0.20982	0.13562	0.09497	0.074867	0.11701	0.20312	0.077507	0.17312	0.1407	0.38715	0.12783	-2.6562	-3.4562	-3.1979	-3.2229	-3.2521	-3.1104	-3.2729	-3.4938	-3.1625	-3.4208	-3.4375	-3.2292	-3.45	-3.2125	-3.0667	-3.4708	60.186	-83.262	106.890	79.363	115.280	-154.793	131.148	127.095	-14.605	6.406	181.680	52.957	44.893	-164.370	12.884	-31.871	0.00034867	0.00039849	7.1583e-05	544.32	3.4032e-06	4.8086e-06	475.58	147.47	4.4772e-06	4.9759e-06	149.4	70.253	63.695	27.15	3.3281e-06	31.596	0.00085372	0.00095118	0.00026657	541.64	1.014e-05	1.0353e-05	476.37	147.29	9.9846e-06	1.0379e-05	151.77	70.635	64.266	27.288	1.0041e-05	31.999	169.667	-106.676	-117.842	-160.251	94.204	-34.756	-161.763	-155.711	-77.700	-70.279	-157.590	-154.745	-152.620	-146.933	-126.240	-150.008	-8191	255	
2309.599	1	1	0	0	0.082658	0.13515	0.25651	0.1649	0.18396	0.20142	0.16121	0.36701	0.28648	0.16609	0.13029	0.23463	0.32426	0.21091	0.26065	0.29679	-2.75	-3.3396	-3.4646	-3.325	-3.3104	-3.2604	-3.1417	-3.5042	-3.1271	-3.4313	-3.5104	-3.1708	-3.3958	-3.3833	-3.075	-3.4833	132.581	116.767	-29.252	-108.042	-134.769	160.789	121.005	147.469	168.091	-25.280	78.355	-157.034	106.768	176.292	141.011	72.822	0.00036804	0.00038616	3.2382e-05	542.13	3.202e-06	3.14e-06	472.69	146.96	3.4534e-06	2.7858e-06	147.51	69.416	63.423	26.954	2.4291e-06	31.398	0.0008547	0.00093021	0.00026427	539.08	1.0194e-05	1.0488e-05	471.58	146.29	9.9535e-06	1.0378e-05	150.46	70.001	63.698	27.104	1.0158e-05	31.867	160.950	-2.795	-101.222	-160.104	-49.278	-96.701	-161.826	-155.822	-132.861	-116.770	-157.820	-154.367	-152.602	-147.091	136.729	-150.230	-8191	255	
2309.695	1	1	0	0	0.26678	0.25369	0.16017	0.20427	0.12556	0.11806	0.20932	0.17732	0.12804	0.11382	0.059141	0.11038	0.020446	0.07059	0.11766	0.03786	-2.85	-3.2354	-3.5208	-2.9917	-3.4	-3.4854	-3.1562	-3.4167	-3.2687	-3.3063	-3.4229	-3.1354	-3.4188	-3.3708	-3.1521	-3.3646	36.311	-168.351	177.181	171.265	-141.528	-2.723	174.224	68.795	97.348	-145.403	-11.020	-173.292	181.441	58.253	-134.810	2.780	0.00040528	0.00021794	0.00015074	541.25	2.1037e-06	4.3696e-06	470.45	147.09	3.1849e-06	4.9807e-06	149.04	70.066	63.216	27.063	3.1746e-06	31.926	0.00086225	0.00094421	0.00026288	537.94	1.0118e-05	1.0322e-05	472.14	146.62	1.0095e-05	1.0353e-05	151.12	70.494	63.816	27.265	1.0139e-05	32.208	172.504	48.055	-56.827	-160.461	-14.420	-13.830	-161.775	-155.439	33.267	-62.689	-158.378	-154.758	-152.452	-146.884	-20.232	-149.917	-8191	255	
2309.791	1	1	0	0	0.23157	0.16146	0.064135	0.19101	0.15002	0.083623	0.11014	0.26702	0.20352	0.1783	0.076336	0.37545	0.15638	0.05414	0.29501	0.19715	-2.8	-3.0604	-3.475	-3.3208	-3.3812	-3.525	-3.1708	-3.2771	-3.3979	-2.9646	-3.3875	-3.1146	-3.3438	-3.4979	-2.9667	-3.475	-144.490	-114.101	135.518	143.446	-109.689	165.674	71.983	134.551	171.438	-137.674	149.341	-165.444	100.089	71.179	112.584	-98.991	0.00043301	0.00032986	4.3287e-05	540.31	6.4906e-06	1.2548e-06	476.1	146.67	1.3055e-06	4.8098e-06	148.65	70.358	63.956	27.327	4.8953e-06	31.98	0.000874	0.00095721	0.00026607	538.25	1.0263e-05	1.0478e-05	475.58	146.99	1.0194e-05	1.0542e-05	152.05	70.865	64.266	27.421	1.02e-05	32.378	159.223	-80.425	-40.550	-160.288	-48.080	-68.838	-161.582	-155.883	20.259	0.933	-158.371	-154.467	-151.955	-147.133	-28.283	-150.060	-8191	255	
2309.910	1	1	0	0	0.073748	0.12015	0.29893	0.20276	0.17518	0.1767	0.21915	0.16583	0.2259	0.15028	0.17783	0.07217	0.1333	0.1311	0.20267	0.31025	-3.0187	-3.1792	-3.4646	-3.2646	-3.1562	-3.5062	-3.2708	-3.4875	-3.25	-3.1854	-3.4	-3.3708	-3.3375	-3.5521	-3.0479	-3.3625	-115.987	-84.569	137.311	109.118	-116.769	-54.585	87.635	118.863	-114.311	-132.756	103.988	185.198	17.635	43.329	-66.113	164.197	0.00039189	0.0006612	0.00012404	540.01	2.0406e-06	2.2206e-06	472.06	147.07	2.2613e-06	5.4287e-06	148.48	69.653	63.414	27.066	4.932e-06	31.559	0.00086704	0.00093972	0.00026702	537.64	1.0018e-05	1.0332e-05	472.23	146.52	1.0063e-05	1.0346e-05	150.73	70.116	63.921	27.161	1.0101e-05	31.978	167.122	-64.112	-101.166	-160.269	48.375	-87.923	-161.480	-155.735	-90.133	-25.321	-157.701	-154.663	-152.384	-147.196	-110.579	-149.710	-8191	255	
2309.983	1	1	0	0	0.19369	0.16404	0.15036	0.0090277	0.27001	0.19772	0.15326	0.17139	0.065909	0.093495	0.13091	0.1524	0.10067	0.20517	0.097749	0.14949	-3.1083	-3.2125	-3.4417	-3.225	-3.3208	-3.5583	-3.2917	-3.2687	-3.5042	-3.1625	-3.4167	-3.3	-3.1333	-3.575	-3.0958	-3.4354	-21.404	153.622	95.176	77.958	154.322	173.978	117.133	83.354	-148.140	72.628	174.572	-155.703	-7.582	137.678	183.575	-162.954	0.00033835	0.00030235	8.2106e-05	536.35	4.5391e-06	5.4643e-06	470.45	145.61	4.1122e-06	6.3088e-06	147.5	69.364	63.094	26.837	9.285e-07	31.482	0.00085381	0.00093016	0.00026104	534.49	1.0121e-05	1.0306e-05	469.7	145.64	9.9831e-06	1.0465e-05	150.09	70.036	63.693	27.117	9.9591e-06	31.956	160.774	-63.825	-51.065	-160.806	-60.243	-39.288	-161.728	-155.921	61.324	-36.617	-158.232	-154.594	-152.477	-146.888	-100.184	-149.575	-8191	255	
2310.102	1	1	0	0	0.16378	0.21458	0.041944	0.29099	0.17505	0.12352	0.24025	0.15083	0.082437	0.14478	0.12619	0.046099	0.1403	0.26545	0.04502	0.15775	-2.8104	-3.2146	-3.3979	-3.3583	-3.1729	-3.5187	-3.275	-3.3083	-3.3292	-3.3146	-3.4479	-3.3937	-3.3187	-3.6021	-3.1792	-3.35	18.150	16.274	-75.333	20.768	-126.185	6.567	101.055	-119.584	51.144	178.164	-31.130	76.793	146.372	124.604	4.090	111.620	0.00043026	0.00066748	0.00011508	537.12	3.5619e-06	4.5133e-06	469.64	145.51	1.5647e-06	2.4469e-06	149	69.74	62.9	26.932	4.8045e-06	31.503	0.00085304	0.00092159	0.00026027	534.4	1.0069e-05	1.0248e-05	469.92	145.79	1.0011e-05	1.0407e-05	150.65	70.212	63.634	27.089	1.0099e-05	32.109	171.099	-11.784	-18.137	-160.582	-62.242	-103.140	-161.401	-155.635	-87.112	14.049	-158.171	-154.989	-152.475	-146.994	-24.515	-150.203	-8191	255	
2310.198	1	1	0	0	0.095788	0.19678	0.18406	0.18883	0.10358	0.013874	0.26658	0.19064	0.084488	0.11868	0.078406	0.17079	0.14306	0.11655	0.052423	0.3541	-3.1833	-3.125	-3.2833	-3.3667	-3.1292	-3.5417	-3.4604	-3.1417	-3.4875	-3.1521	-3.4167	-3.2854	-3.0396	-3.5875	-3.2812	-3.2854	-125.158	74.188	87.491	35.824	-152.215	10.763	90.383	-121.572	-136.325	134.081	-52.720	-104.207	48.640	-114.625	134.738	-3.363	0.00040613	0.00021651	8.9303e-05	533.79	2.334e-06	7.989e-06	472.79	146.23	1.6748e-06	5.0481e-06	146.8	69.985	62.628	26.795	4.3928e-06	31.409	0.00085221	0.00093004	0.00026419	533.54	1.0013e-05	1.0433e-05	470.86	145.41	9.6977e-06	1.0297e-05	149.61	70.117	63.275	26.971	1.0066e-05	31.761	166.331	-64.199	176.402	-160.825	-94.760	-43.645	-161.909	-155.932	48.987	79.551	-158.920	-154.771	-152.609	-147.178	-64.326	-150.148	-8191	255	
2310.294	1	1	0	0	0.37239	0.062285	0.19875	0.19628	0.14351	0.21935	0.1253	0.076485	0.16796	0.06382	0.17956	0.08673	0.090704	0.12804	0.14779	0.21603	-3.0396	-3.0979	-3.3063	-3.3646	-3.0625	-3.6021	-3.0958	-3.275	-3.525	-3.4688	-3.3771	-3.3812	-3.2	-3.4958	-3.4479	-3.1604	0.449	127.893	-36.384	155.765	-113.739	-94.661	20.542	-90.494	-158.150	48.805	184.612	-166.069	22.953	-76.342	17.335	-1.106	0.00041741	0.00020557	0.00020524	534.11	4.6728e-06	4.6982e-06	467.1	145.37	4.5501e-06	8.5191e-07	145.89	68.995	62.91	26.626	5.4504e-06	31.223	0.00084062	0.00093064	0.00026032	531.05	9.9682e-06	1.0298e-05	466.11	144.73	9.9522e-06	1.0086e-05	149.22	69.587	63.188	26.887	9.9839e-06	31.671	166.048	-16.885	-32.452	-160.182	-110.492	-38.228	-161.718	-155.814	-94.940	-165.731	-157.924	-154.807	-152.674	-147.257	-45.303	-150.159	-8191	255	
2310.390	1	1	0	0	0.071089	0.085025	0.33767	0.069133	0.18987	0.25827	0.0684	0.068427	0.28605	0.21661	0.22868	0.11063	0.29238	0.21347	0.3256	0.10883	-3.0479	-3.1667	-3.1813	-3.5187	-3.1771	-3.4104	-3.4458	-3.1875	-3.5312	-3.2833	-3.3792	-3.4938	-3.1104	-3.2729	-3.4188	-3.2021	-148.885	-73.199	-169.997	56.438	21.336	-23.983	19.694	-96.390	134.137	90.227	120.401	84.179	83.849	-39.669	46.684	1.904	0.00037951	0.0002046	2.9845e-05	530.92	2.097e-06	6.9493e-06	466.6	144.78	3.059e-06	2.1287e-06	146.85	69.51	62.881	26.764	2.9353e-06	31.437	0.00084517	0.00090046	0.00025982	530.46	9.9325e-06	1.0354e-05	465.82	144.83	9.9708e-06	1.0323e-05	150.1	69.985	63.492	26.949	1.0123e-05	31.922	163.432	-76.239	-143.079	-160.421	-19.228	16.519	-161.644	-155.649	-94.184	71.156	-158.208	-154.558	-152.356	-147.027	-9.735	-149.656	-8191	255	
2310.511	1	1	0	0	0.12366	0.15436	0.11785	0.22847	0.082295	0.23522	0.13246	0.18147	0.14994	0.20027	0.16896	0.078804	0.17641	0.27659	0.11786	0.067684	-3.0333	-3.1896	-3.3333	-3.4292	-3.2333	-3.3542	-3.5333	-3.1708	-3.4333	-3.3229	-3.3063	-3.4188	-3.1458	-3.4792	-3.3937	-3.0667	143.364	159.668	-64.619	-127.311	-161.497	-114.530	59.093	-167.934	-143.318	-19.745	-58.117	147.159	164.798	102.260	108.223	109.233	0.00039024	0.00056344	8.3776e-05	532.01	2.244e-06	2.688e-06	467.44	144.51	2.3101e-06	6.4746e-06	148.92	70.463	63.6	26.977	4.514e-06	31.665	0.0008454	0.0009244	0.0002656	531.4	1.0061e-05	1.0318e-05	469.13	145.5	1.0039e-05	1.0493e-05	151.16	70.686	63.926	27.135	1.0149e-05	32.101	154.543	-64.045	-138.152	-160.533	-6.899	37.269	-161.633	-156.088	-163.922	66.335	-157.880	-155.108	-152.693	-146.776	-104.963	-149.922	-8191	255	
2310.583	1	1	0	0	0.064379	0.084	0.10203	0.23398	0.18834	0.14045	0.10626	0.20726	0.10319	0.12474	0.046774	0.084775	0.24395	0.05796	0.033908	0.32363	-2.9958	-3.2146	-3.1042	-3.3354	-3.4125	-3.3125	-3.4354	-3.3312	-3.5146	-3.3125	-3.0187	-3.4938	-3.2875	-3.1875	-3.3563	-3.0438	-50.587	176.335	-78.473	138.547	-124.196	7.831	133.646	97.732	150.639	50.955	107.184	-171.535	-134.936	-74.309	-68.454	93.870	0.00039353	0.00055912	8.031e-05	534.57	4.3127e-06	4.7179e-06	470.71	145.43	7.0211e-07	4.6341e-06	148.39	69.633	63.286	26.933	4.6679e-06	31.537	0.00085575	0.00092416	0.0002623	532.32	1.0015e-05	1.0291e-05	469.05	145.68	9.9724e-06	1.0285e-05	150.61	70.193	63.737	27.059	1.0206e-05	31.896	166.759	-57.292	-59.725	-160.157	-67.869	3.631	-161.602	-155.622	52.371	-3.812	-158.314	-154.458	-152.667	-147.238	65.676	-150.131	-8191	255	
2310.679	1	1	0	0	0.069976	0.11495	0.13198	0.10088	0.14278	0.11851	0.34858	0.13929	0.12583	0.12751	0.065005	0.07267	0.21991	0.039618	0.099653	0.17081	-2.9313	-3.2917	-3.0521	-3.3979	-3.2104	-3.4396	-3.6771	-2.9729	-3.3312	-3.4542	-3.1625	-3.5542	-3.2938	-3.2458	-3.4083	-3.3563	-153.030	-122.197	64.212	100.496	-137.693	-17.191	175.326	65.734	84.677	-129.273	-153.974	-167.830	105.247	126.679	55.158	-9.331	0.00029238	0.00034172	0.00018889	536.32	5.2294e-06	2.1914e-06	471.25	146.54	3.3485e-06	8.5735e-06	149.79	70.57	63.691	27.046	8.6272e-07	31.709	0.0008668	0.00093267	0.00026245	532.41	1.0283e-05	1.04e-05	470.43	146.29	1.0275e-05	1.0412e-05	151.71	71.004	64.372	27.252	1.0146e-05	32.19	164.834	-138.659	-86.749	-160.240	-28.484	0.859	-161.649	-155.626	-35.746	-35.948	-158.092	-155.200	-152.094	-147.285	-6.913	-149.775	-8191	255	
2310.800	1	1	0	0	0.28548	0.26016	0.17896	0.22674	0.11047	0.16284	0.12743	0.16518	0.21858	0.3508	0.2382	0.14411	0.26077	0.1898	0.21354	0.12937	-2.9729	-3.3937	-3.2	-3.4479	-3.3229	-3.2792	-3.4167	-3.2562	-3.3208	-3.3417	-3.1146	-3.6	-3.3125	-3.0146	-3.4625	-3.2438	69.353	-24.831	88.364	135.521	14.050	-101.006	143.338	139.304	108.153	-114.067	49.135	156.213	159.529	-125.280	-33.999	62.636	0.00038914	0.00028316	3.8265e-05	535.79	5.8148e-06	2.2517e-06	473.44	146.96	6.9049e-06	6.664e-06	152.24	70.679	63.933	27.13	5.7529e-06	32.078	0.00085891	0.00094754	0.00027028	534.83	1.0293e-05	1.0548e-05	472.4	146.95	1.0376e-05	1.0703e-05	153.38	71.151	64.388	27.38	1.0309e-05	32.513	169.568	154.675	-58.602	-160.577	-58.393	174.247	-161.380	-155.803	-67.795	-34.687	-157.851	-155.220	-152.273	-147.090	-37.435	-149.889	-8191	255	
2310.894	1	1	0	0	0.09108	0.26972	0.15257	0.086145	0.17282	0.28515	0.04068	0.096286	0.15976	0.39345	0.088812	0.20652	0.24435	0.23014	0.14341	0.17651	-2.7354	-3.475	-3.0792	-3.3875	-3.4	-3.2083	-3.4917	-3.4167	-3.1292	-3.4542	-3.2958	-3.3812	-3.4146	-3.2292	-3.5667	-3.2875	138.822	-145.854	-120.369	140.310	-32.688	142.835	140.117	181.595	41.972	108.067	37.199	55.684	-4.029	123.193	-42.065	-160.293	0.00039757	0.00010747	0.0001528	536.87	4.3673e-06	2.9327e-06	475.66	147.48	2.7146e-06	7.0958e-06	150.57	70.652	63.782	27.214	1.754e-06	31.696	0.00088153	0.00095841	0.0002702	535.69	1.0347e-05	1.0548e-05	473.47	147.1	1.0301e-05	1.046e-05	152.56	70.963	64.296	27.287	1.0381e-05	32.075	154.430	176.647	-79.984	-160.678	-65.509	-39.328	-161.644	-155.851	-161.978	-21.333	-158.011	-154.991	-152.440	-147.234	-37.471	-149.596	-8191	255	
2310.990	1	1	0	0	0.28338	0.083917	0.15798	0.13017	0.1579	0.092112	0.068737	0.19841	0.067577	0.14218	0.10151	0.20545	0.20011	0.24504	0.13361	0.16575	-2.9979	-3.375	-2.9458	-3.5042	-3.4104	-3.3708	-3.5187	-3.2604	-3.3208	-3.5	-3.2229	-3.3229	-3.3375	-3.1104	-3.4479	-3.2083	72.695	-84.662	175.599	-3.814	62.204	145.789	170.531	173.983	-51.752	-65.070	-120.132	173.816	107.086	-32.811	84.400	135.073	0.00042043	0.00039321	6.9165e-05	539.94	5.9648e-06	1.6309e-06	471.84	146.78	4.3687e-06	4.9581e-06	148.9	70.415	63.648	26.979	3.4042e-06	31.435	0.00086391	0.00094589	0.0002655	534.41	1.0209e-05	1.0477e-05	471.01	146.43	1.0204e-05	1.0468e-05	151.74	70.865	64.31	27.133	1.033e-05	32.084	169.186	153.911	-106.240	-160.538	-9.920	-147.469	-161.430	-155.992	-81.098	5.384	-158.044	-154.515	-152.583	-146.808	-89.774	-150.343	-8191	255	
2311.086	1	1	0	0	0.099818	0.12435	0.14253	0.12338	0.11728	0.16372	0.33881	0.42247	0.05561	0.020048	0.32652	0.29414	0.12595	0.14442	0.27325	0.11712	-2.6875	-3.3812	-3.0146	-3.2667	-3.35	-3.2854	-3.4583	-3.3354	-3.0854	-3.4771	-3.0563	-3.3646	-3.5062	-3.1458	-3.5896	-3.4146	155.666	82.141	4.327	-133.095	162.502	180.088	185.181	87.127	-42.775	-108.875	63.403	143.161	-161.979	-119.155	67.878	26.672	0.0003353	0.00030533	8.8102e-05	537.24	6.3593e-06	3.9948e-06	475.06	146.85	2.3274e-06	1.5865e-06	150.62	71.124	63.995	27.154	4.8042e-06	32.096	0.00086151	0.00095197	0.00027053	535.33	1.035e-05	1.0658e-05	472.84	146.88	1.0205e-05	1.075e-05	152.92	71.323	64.427	27.399	1.0401e-05	32.368	168.667	-97.119	50.714	-160.491	-75.007	-129.907	-161.637	-155.866	-96.837	-30.349	-157.446	-154.824	-152.550	-146.786	-56.136	-149.918	-8191	255	
2311.182	1	1	0	0	0.12357	0.026223	0.139	0.27355	0.18363	0.18182	0.30931	0.21697	0.32469	0.17661	0.16238	0.19863	0.066021	0.0482	0.067314	0.30352	-2.9146	-3.5083	-3.3604	-3.3708	-3.5292	-3.2208	-3.4979	-3.4708	-3.0271	-3.4979	-3.3396	-3.2083	-3.5125	-3.2646	-3.3187	-3.2083	-37.285	-18.100	-68.640	159.820	7.840	-117.751	54.173	76.378	-88.056	56.417	132.539	52.495	44.118	-25.001	104.889	131.761	0.00039631	0.00043177	0.00010472	535.87	5.9922e-06	6.8145e-06	480.32	146.98	5.5727e-06	7.902e-06	151.18	71.175	63.921	27.075	2.3978e-06	31.936	0.00087737	0.00095537	0.00027108	535.81	1.0305e-05	1.0777e-05	475.93	147.5	1.0364e-05	1.0641e-05	153.08	71.539	64.652	27.36	1.0425e-05	32.348	162.661	-41.902	47.676	-160.271	-96.499	-40.821	-161.438	-155.716	-7.639	-24.272	-158.390	-154.462	-152.225	-146.967	12.299	-149.687	-8191	255	
2311.279	1	1	0	0	0.14375	0.24429	0.39988	0.15173	0.049294	0.36651	0.16318	0.070162	0.15133	0.16255	0.05484	0.10876	0.18426	0.28489	0.15425	0.15413	-2.8042	-3.2521	-3.3146	-3.2833	-3.6937	-3.2583	-3.3979	-3.5062	-3.0229	-3.4	-3.2687	-3.2125	-3.6854	-3.1875	-3.2833	-3.3688	176.562	63.264	37.391	155.484	-171.993	89.378	-170.669	-164.843	-129.597	17.154	35.389	184.149	75.393	22.516	-109.133	-19.878	0.00042459	0.00073824	0.00012679	537.28	1.0794e-06	4.0199e-06	473.36	146.73	3.2251e-06	4.615e-06	148.78	70.424	63.581	26.969	3.1944e-06	31.708	0.0008625	0.00094781	0.00026491	535.3	1.0282e-05	1.0463e-05	472.26	146.55	1.0266e-05	1.0569e-05	151.44	70.941	64.207	27.161	1.0411e-05	32.044	166.328	-51.891	-96.289	-160.582	-6.965	-39.503	-161.308	-156.250	-69.862	-136.663	-158.160	-154.287	-152.502	-146.972	-77.456	-150.285	-8191	255	
2311.373	1	1	0	0	0.045706	0.19266	0.03883	0.15807	0.24694	0.1348	0.1761	0.16669	0.15608	0.12886	0.16645	0.16065	0.040306	0.18923	0.21048	0.26135	-2.7208	-3.3875	-3.2833	-3.0417	-3.4979	-3.2562	-3.2292	-3.3833	-3.0563	-3.3229	-3.3771	-3.2479	-3.6167	-3.2188	-3.1	-3.5458	86.024	-65.479	140.669	138.687	148.148	-115.139	14.582	165.694	-54.221	-101.265	-138.478	134.630	46.218	-24.173	107.024	-164.304	0.00043421	0.00021675	3.2741e-05	538.63	6.1313e-06	5.1005e-06	472.42	146.62	1.6592e-06	6.7994e-06	150.03	70.831	63.742	26.947	2.1596e-06	31.956	0.00087205	0.0009667	0.00026764	535.54	1.0241e-05	1.0553e-05	471.84	146.81	1.0287e-05	1.0611e-05	152.35	71.278	64.494	27.265	1.0474e-05	32.313	162.398	-85.458	97.728	-160.449	-12.483	-74.736	-161.399	-155.588	-118.300	-31.105	-158.043	-154.696	-152.530	-146.811	-47.509	-149.910	-8191	255	
2311.471	1	1	0	0	0.10034	0.24516	0.17884	0.090995	0.282	0.21517	0.24167	0.19705	0.18348	0.25218	0.030812	0.30984	0.03892	0.22084	0.13533	0.32587	-2.7375	-3.3208	-3.2875	-3.3042	-3.4604	-3.3937	-3.3396	-3.55	-3.2229	-3.2792	-3.4854	-3.2604	-3.5583	-3.2938	-3.2021	-3.6188	28.950	73.980	-7.367	115.821	-56.224	95.565	121.200	-91.305	108.894	112.134	-142.312	71.448	69.887	180.764	-167.931	55.328	0.00039194	0.00049429	7.9551e-05	536.55	1.3267e-06	7.2935e-06	475.68	146.83	3.7065e-06	5.2686e-06	151.7	70.72	64.285	27.197	2.0052e-06	32.075	0.00087185	0.00096526	0.00026936	535.04	1.0479e-05	1.0534e-05	474.31	146.95	1.0187e-05	1.0721e-05	153.56	71.475	64.72	27.45	1.0368e-05	32.502	163.060	-68.977	-74.054	-160.457	-51.914	27.500	-161.506	-155.876	-136.850	-123.684	-157.896	-154.460	-152.810	-147.198	-55.047	-150.345	-8191	255	
2311.590	1	1	0	0	0.32352	0.0622	0.21168	0.31448	0.29752	0.17509	0.15052	0.16981	0.11123	0.12337	0.27093	0.26892	0.059287	0.25716	0.13134	0.13329	-2.8333	-3.2604	-3.3333	-3.2167	-3.4958	-3.2938	-3.3604	-3.5396	-3.1813	-3.3208	-3.4292	-3.1021	-3.3375	-3.2729	-2.9896	-3.5812	-67.488	-28.944	-122.367	121.260	-164.714	-139.771	31.005	-172.202	-41.514	-128.971	159.845	-168.635	89.899	112.759	-119.943	-110.832	0.00045526	0.00079369	0.00016931	538.4	5.1798e-06	4.3273e-06	472.48	147.58	3.3165e-06	5.2776e-06	150.12	70.517	64.136	27.061	2.9604e-06	31.76	0.00088568	0.00096364	0.00026446	535	1.0471e-05	1.0542e-05	472.57	147.11	1.0247e-05	1.0463e-05	152.81	71.2	64.596	27.232	1.0356e-05	32.121	174.021	-87.133	-32.969	-160.470	-90.065	128.543	-161.550	-155.863	-139.539	16.918	-158.090	-154.595	-152.566	-146.788	183.131	-149.908	-8191	255	
2311.686	1	1	0	0	0.08232	0.13895	0.13475	0.14291	0.15633	0.20117	0.11916	0.26947	0.076197	0.096486	0.06712	0.22701	0.18976	0.12533	0.10041	0.062169	-2.7979	-3.3375	-3.3563	-3.3375	-3.3688	-3.4875	-3.275	-3.6146	-3.2583	-3.1854	-3.3417	-3.3417	-3.5646	-3.4479	-3.1833	-3.5	-60.026	167.130	-96.703	184.993	115.867	-110.055	53.620	154.266	15.073	42.976	15.042	38.360	19.217	-90.299	41.269	-165.214	0.00033198	0.00021349	0.00014599	536.21	3.849e-06	2.1654e-06	471.42	146.22	2.3685e-06	2.2546e-06	149.64	70.772	63.913	26.916	2.3975e-06	31.686	0.00088568	0.00094305	0.00026746	534.05	1.0261e-05	1.0588e-05	471.05	146.69	1.0213e-05	1.0648e-05	152.45	71.073	64.585	27.197	1.0321e-05	32.241	172.909	-78.702	-60.325	-160.346	-26.761	57.924	-161.630	-155.578	-114.453	-6.718	-157.909	-154.931	-152.783	-146.796	-65.780	-150.299	-8191	255	
2311.782	1	1	0	0	0.034274	0.13136	0.16511	0.10617	0.012744	0.19719	0.047027	0.18256	0.16412	0.15586	0.2445	0.17633	0.13868	0.16116	0.063883	0.065444	-2.8688	-3.0958	-3.6063	-3.0958	-3.3854	-3.3521	-3.0854	-3.6021	-3.2854	-3.2042	-3.525	-3.0812	-3.3667	-3.4896	-3.3208	-3.45	31.796	-104.669	176.951	169.339	8.169	-93.729	-6.093	158.941	170.868	-75.325	102.671	-135.629	76.747	-10.516	140.893	55.817	0.00036272	0.00025889	0.0001077	538.33	4.348e-06	3.8757e-06	471.99	146.75	8.8721e-07	6.0467e-06	151.5	71.406	64.352	27.227	5.237e-06	32.144	0.00088261	0.00093746	0.0002651	536.02	1.035e-05	1.0626e-05	473.23	147.43	1.0283e-05	1.0659e-05	153.36	71.626	64.924	27.407	1.0408e-05	32.537	175.789	156.351	-153.730	-160.683	-14.132	-64.083	-161.534	-155.950	28.772	9.770	-158.079	-154.637	-152.831	-146.924	-83.457	-150.091	-8191	255	
2311.878	1	1	0	0	0.03835	0.095249	0.12004	0.084403	0.30372	0.20949	0.03817	0.13327	0.097341	0.081225	0.24925	0.15826	0.24368	0.039763	0.24486	0.17935	-2.9667	-3.2479	-3.5146	-3.2062	-3.425	-3.3792	-3.2479	-3.5646	-3.3271	-3.1688	-3.3563	-3.225	-3.4167	-3.5438	-3.2104	-3.4417	-78.012	-8.521	-8.809	-94.034	142.007	-39.480	-163.100	58.415	94.996	149.789	164.213	125.475	-165.218	-143.805	-49.758	-159.690	0.00039467	0.00060408	3.1229e-05	539.48	2.9441e-06	2.3204e-06	474.48	148.06	6.0454e-06	3.4465e-06	151.56	71.374	64.117	27.239	2.9644e-06	31.773	0.0008777	0.00095811	0.00026592	536.14	1.025e-05	1.0554e-05	475.32	147.8	1.0345e-05	1.0598e-05	154.02	71.858	64.877	27.42	1.0314e-05	32.304	160.762	-57.547	-25.150	-160.231	-7.190	-78.841	-161.755	-155.806	-5.649	-2.422	-158.274	-154.904	-152.548	-147.246	-84.314	-149.736	-8191	255	
2311.974	1	1	0	0	0.22129	0.24839	0.15192	0.24316	0.20693	0.095841	0.054087	0.19115	0.22742	0.286	0.25808	0.11925	0.082185	0.15464	0.12506	0.22194	-2.8146	-2.9521	-3.4333	-3.2604	-3.3021	-3.4271	-3.1688	-3.3438	-3.5208	-3.0104	-3.6167	-3.3354	-3.1542	-3.4667	-3.3083	-3.3958	-69.911	-37.665	-150.564	-118.604	158.104	-99.486	-136.146	105.291	29.874	150.640	-108.474	-131.280	-51.395	170.062	-86.659	117.951	0.00034081	0.00058516	4.6154e-05	537.54	3.1736e-06	3.6545e-06	475.12	147.9	5.7765e-06	4.3987e-06	149.82	71.2	64.141	27.093	2.9736e-06	31.841	0.00086752	0.00094731	0.00026625	535.59	1.0159e-05	1.0353e-05	472.17	147.59	1.0074e-05	1.0446e-05	152.08	71.34	64.769	27.357	1.0457e-05	32.155	168.298	-83.222	-72.543	-160.453	-71.768	-31.178	-161.673	-155.785	-54.762	-69.346	-158.225	-155.008	-152.982	-147.099	-127.644	-150.192	-8191	255	
2312.071	1	1	0	0	0.22815	0.22093	0.27978	0.19642	0.26845	0.17617	0.094186	0.2638	0.19162	0.28741	0.12918	0.12074	0.12071	0.2523	0.06835	0.2258	-2.8729	-3.0229	-3.2354	-3.3438	-3.2521	-3.5604	-3.2792	-3.4229	-3.3688	-3.1458	-3.5646	-3.3583	-3.2062	-3.4042	-3.3063	-3.2417	58.986	-14.145	157.512	-120.855	-9.182	134.262	128.648	-161.338	-9.663	-68.958	79.751	-136.117	45.966	-147.943	175.426	107.178	0.00041183	0.0006775	7.087e-05	535.08	5.1742e-06	3.0389e-06	473.08	148.32	1.4661e-06	4.4141e-06	150.83	71.625	64.672	27.1	2.9182e-06	31.841	0.00086349	0.00094807	0.00026984	533.54	1.0192e-05	1.0569e-05	472.82	148.07	1.0205e-05	1.0527e-05	153.6	71.879	64.967	27.36	1.0488e-05	32.386	163.218	-105.065	-5.522	-160.325	-25.301	13.927	-161.313	-155.384	-156.384	-42.228	-158.559	-154.889	-152.621	-147.134	-13.959	-149.906	-8191	255	
2312.191	1	1	0	0	0.23773	0.21534	0.019205	0.27411	0.22856	0.39279	0.14616	0.24828	0.052295	0.07936	0.096862	0.12874	0.16829	0.22696	0.14714	0.17272	-2.9375	-3.2292	-3.3854	-3.3812	-3.0563	-3.5646	-3.2979	-3.1312	-3.5083	-3.2167	-3.4437	-3.2875	-3.2583	-3.5625	-3.2417	-3.2979	166.050	65.591	66.733	157.740	14.775	108.653	98.308	149.065	-160.409	100.225	-89.381	-147.954	-115.049	-118.729	106.156	107.299	0.00042661	0.00060676	2.7868e-05	540.48	3.0866e-06	1.0803e-06	475.32	148.16	2.9055e-06	2.0292e-06	151.9	71.747	64.632	27.497	4.2298e-06	32.249	0.0008753	0.00095237	0.00026808	538.19	1.0487e-05	1.0697e-05	474.26	147.94	1.0343e-05	1.0596e-05	154.17	72.03	65.192	27.56	1.0402e-05	32.597	160.693	-105.505	-70.022	-160.745	-68.543	97.909	-161.471	-155.671	159.093	-38.277	-158.145	-154.629	-152.625	-147.061	-67.653	-149.511	-8191	255	
2312.286	1	1	0	0	0.17694	0.2019	0.17443	0.12887	0.10381	0.02035	0.39269	0.14238	0.12232	0.1279	0.074897	0.13565	0.066311	0.14251	0.1165	0.30005	-3.0583	-3.0771	-3.4021	-3.525	-3.1417	-3.4854	-3.4042	-3.2771	-3.3042	-3.2333	-3.3146	-3.4292	-3.0917	-3.4583	-3.3167	-3.3083	-54.271	-67.640	167.413	50.765	-119.931	165.089	121.998	81.047	149.590	84.035	-34.809	-115.383	125.569	143.272	143.544	165.700	0.00032248	0.00051643	0.00015581	539.95	2.1279e-06	1.8121e-06	471.83	147.68	1.1067e-06	8.7926e-06	150.41	71.039	64.029	27.092	2.3753e-06	31.783	0.0008746	0.00095231	0.0002666	537.14	1.0311e-05	1.066e-05	471.68	147.59	1.0131e-05	1.0606e-05	153.2	71.432	64.747	27.297	1.0396e-05	32.154	153.286	-87.161	-11.190	-159.867	-95.209	-53.697	-161.792	-155.874	-31.099	-19.418	-158.133	-154.791	-152.600	-146.726	-122.345	-149.816	-8191	255	
2312.382	1	1	0	0	0.2283	0.10865	0.041085	0.067911	0.10136	0.12386	0.15707	0.13971	0.0336	0.14296	0.058747	0.21718	0.17255	0.13408	0.078773	0.1317	-3.1083	-3.1604	-3.3208	-3.5542	-3.2104	-3.3896	-3.4042	-3.2188	-3.4562	-3.1875	-3.2896	-3.3979	-3.0938	-3.5667	-3.2917	-3.2167	31.288	87.139	-153.790	72.463	-1.886	35.296	112.408	151.463	-162.226	135.773	24.306	-47.272	110.261	51.096	-108.011	51.377	0.00040654	0.00019225	9.5335e-05	537.21	6.2574e-06	4.1621e-06	471.57	147.04	1.724e-06	6.3104e-06	149.79	71.207	64.333	27.126	3.981e-06	31.733	0.00087218	0.0009583	0.00026587	533.59	1.0369e-05	1.0464e-05	472.12	147.24	1.0087e-05	1.0714e-05	152.98	71.435	64.922	27.322	1.034e-05	32.251	165.517	-125.177	-80.831	-160.360	-91.393	-23.683	-161.152	-155.736	-17.360	16.736	-157.887	-154.829	-152.471	-146.965	-62.466	-149.951	-8191	255	
2312.453	1	1	0	0	0.10937	0.09847	0.21445	0.13982	0.23794	0.043536	0.17385	0.15261	0.1624	0.19414	0.16605	0.48933	0.13687	0.17012	0.16411	0.074386	-3.1125	-2.9958	-3.0625	-3.2812	-3.2229	-3.3167	-3.4479	-3.1375	-3.5521	-3.3021	-3.2062	-3.5083	-3.1479	-3.1583	-3.5354	-3.0479	-167.763	181.435	123.411	-117.631	-11.956	69.481	47.070	84.254	-53.548	18.520	173.172	111.672	-122.351	25.006	-37.175	11.139	0.00043019	0.00035801	0.00012602	540.28	1.2105e-06	3.8164e-06	473.72	148.36	2.3873e-06	7.7296e-07	150.86	71.102	64.422	27.232	1.5745e-06	32.176	0.00087334	0.0009581	0.00027083	536.5	1.0277e-05	1.0597e-05	473.98	148.1	1.0297e-05	1.0659e-05	153.93	71.717	65.037	27.534	1.0356e-05	32.564	156.603	-130.651	-77.028	-160.352	-153.492	-54.588	-161.359	-155.667	-86.918	-73.068	-157.961	-154.796	-152.632	-146.904	48.139	-150.066	-8191	255	
2312.574	1	1	0	0	0.044381	0.011454	0.048348	0.14633	0.20061	0.21017	0.1453	0.15624	0.12435	0.037786	0.0088368	0.26746	0.14748	0.24328	0.25562	0.23832	-3.2188	-3.2333	-3.0812	-3.4813	-3.2562	-3.3542	-3.4729	-3.2958	-3.4125	-3.4792	-3.2208	-3.575	-3.3125	-3.3375	-3.4479	-3.225	-52.139	98.380	-27.937	83.854	20.524	156.988	171.120	160.185	161.455	103.475	-5.809	83.182	-101.912	158.240	179.244	168.047	0.00037192	0.00034967	5.0793e-05	541.79	4.4849e-06	2.7016e-06	474.98	147.41	6.8135e-06	1.8272e-06	150.36	71.421	64.461	27.429	1.7419e-06	31.792	0.00087992	0.00095598	0.00027085	536.68	1.0421e-05	1.0508e-05	474.69	148.09	1.0191e-05	1.0504e-05	153.62	71.736	64.965	27.477	1.0315e-05	32.239	163.420	-35.915	25.989	-160.084	-77.838	-102.027	-161.958	-155.852	14.610	74.446	-158.344	-154.883	-152.481	-146.880	24.700	-150.032	-8191	255	
2312.670	1	1	0	0	0.28844	0.018822	0.12274	0.25365	0.32501	0.17591	0.098996	0.070611	0.12762	0.085396	0.022148	0.13591	0.049671	0.16732	0.12682	0.1186	-3.0146	-3.3333	-3.0771	-3.5125	-3.075	-3.4125	-3.6271	-3.2875	-3.4542	-3.2729	-3.3146	-3.5479	-3.2521	-3.3042	-3.6292	-3.2188	-117.303	165.009	69.366	101.370	-63.645	71.745	146.305	121.847	-80.264	176.788	185.687	172.694	21.858	169.318	176.899	181.119	0.00036755	0.00030527	0.00015078	540.39	2.4493e-06	4.4801e-06	472.38	147.24	2.6866e-06	6.5761e-06	151.67	70.731	64.078	27.084	2.2061e-06	31.779	0.00086544	0.00094255	0.00026272	534.6	1.0141e-05	1.0608e-05	470.86	147.19	1.0149e-05	1.0555e-05	153.2	71.171	64.54	27.267	1.0164e-05	32.186	164.023	-50.451	-59.678	-160.218	-57.339	-35.102	-161.618	-155.897	-170.456	4.630	-158.301	-154.740	-152.409	-146.951	-78.041	-149.774	-8191	255	
2312.766	1	1	0	0	0.23145	0.22712	0.14077	0.064788	0.16837	0.081065	0.15928	0.14513	0.078351	0.091241	0.034033	0.073032	0.085164	0.1826	0.16129	0.18453	-2.8583	-3.4729	-3.125	-3.5312	-3.3583	-3.2188	-3.4667	-2.975	-3.2875	-3.4562	-3.2625	-3.5604	-3.3625	-3.2104	-3.4917	-3.4042	30.507	-112.895	-87.536	22.672	173.234	125.215	142.975	110.391	122.234	107.892	-136.529	35.134	-94.626	107.595	-130.767	158.370	0.00038922	0.00092004	9.2584e-05	538.42	3.5086e-06	3.6603e-06	475.35	147.81	2.9641e-06	7.0702e-06	151.1	70.848	64.58	27.432	8.126e-06	31.915	0.00086576	0.0009415	0.00026696	535.11	1.0256e-05	1.0496e-05	473.46	147.94	1.028e-05	1.0519e-05	153.44	71.483	65.049	27.513	1.0285e-05	32.372	157.870	-81.954	-48.399	-160.291	-57.697	163.397	-161.703	-155.661	-12.153	-2.183	-158.339	-154.915	-152.691	-147.014	160.266	-150.023	-8191	255	
2312.862	1	1	0	0	0.1108	0.19776	0.13205	0.14981	0.15045	0.08423	0.090704	0.19679	0.10458	0.020688	0.15792	0.12339	0.15511	0.28237	0.27707	0.22892	-2.9458	-3.4854	-3.1792	-3.2979	-3.4083	-3.2146	-3.5125	-3.0896	-3.1979	-3.4333	-3.2438	-3.325	-3.4958	-3.1583	-3.4458	-3.2917	11.178	95.448	-158.826	-17.496	41.283	-68.055	92.459	-151.052	118.373	75.544	62.344	-94.245	-164.973	142.543	-54.137	68.356	0.00040373	5.2017e-05	0.00017577	538.77	5.1633e-06	1.5908e-06	476.52	148.18	2.0496e-06	5.5525e-06	151.44	71.29	64.81	27.222	4.0811e-06	31.718	0.00086862	0.00094872	0.00026884	536.92	1.0206e-05	1.0564e-05	474.78	148.15	1.0069e-05	1.0364e-05	153.74	71.764	65.065	27.442	1.0223e-05	32.287	170.040	-40.159	-77.616	-160.470	-82.658	-156.918	-161.760	-155.734	-75.631	-137.378	-158.045	-154.943	-152.809	-147.123	-111.818	-149.976	-8191	255	
2312.983	1	1	0	0	0.1463	0.050362	0.20315	0.11966	0.27274	0.067937	0.21156	0.27885	0.093791	0.15727	0.1397	0.09943	0.082379	0.15875	0.31134	0.25184	-2.8583	-3.4979	-3.2604	-3.275	-3.3063	-3.1542	-3.65	-3.2854	-3.2146	-3.6354	-3.1833	-3.3771	-3.4479	-3.2417	-3.3	-3.2812	124.974	92.057	-124.398	-146.801	127.576	-121.947	82.728	-171.833	11.671	-158.697	25.002	-173.370	-106.726	167.767	173.532	-27.519	0.00039951	0.0005173	4.4066e-05	539.96	2.2553e-06	8.1878e-07	470.73	146.97	3.1836e-06	2.9453e-06	149.71	70.431	63.547	26.826	3.2016e-06	31.384	0.00086203	0.00092452	0.00026132	535.94	1.009e-05	1.0362e-05	469.44	146.7	1.0026e-05	1.0255e-05	151.84	70.794	64.11	27.104	1.0056e-05	31.728	163.973	-118.251	-25.788	-160.451	-78.822	47.123	-161.366	-155.753	-34.557	42.622	-158.068	-154.928	-152.511	-147.072	-34.819	-150.356	-8191	255	
2313.079	1	1	0	0	0.17909	0.090958	0.19094	0.31379	0.065871	0.11689	0.019893	0.24677	0.067323	0.11837	0.063762	0.17208	0.28978	0.06973	0.080738	0.45297	-2.8729	-3.2583	-3.0812	-3.2542	-3.4188	-3.1146	-3.3563	-3.4104	-3.1479	-3.5167	-3.3833	-3.5667	-3.5312	-3.2979	-3.5125	-3.3063	159.613	-98.002	-84.883	119.831	66.470	75.400	24.551	182.967	-83.050	53.593	-0.884	139.909	168.122	148.941	-71.917	106.880	0.00042929	0.00027341	8.7376e-05	531.45	3.937e-06	3.7432e-06	468.2	145.51	5.1484e-06	2.2717e-06	148.58	70.172	63.502	26.827	8.6036e-07	31.347	0.0008537	0.00092599	0.00026108	530.9	9.8836e-06	1.0412e-05	467.58	145.5	9.901e-06	1.0262e-05	150.47	70.399	63.844	27.001	1.0208e-05	31.781	159.172	-89.757	77.449	-160.674	-43.794	50.273	-161.706	-156.100	-59.001	-8.483	-157.962	-154.574	-152.365	-147.348	-21.366	-149.950	-8191	255	
2313.151	1	1	0	0	0.13729	0.29928	0.087496	0.043426	0.21597	0.23939	0.13049	0.2467	0.030043	0.12125	0.033834	0.14739	0.15466	0.19984	0.12731	0.10247	-2.7521	-3.3583	-3.1646	-3.4437	-3.4646	-3.1333	-3.4813	-3.3042	-3.3063	-3.4708	-3.4125	-3.2	-3.5271	-3.2042	-3.4271	-3.3937	-73.118	-84.073	-109.522	-115.747	125.003	-88.158	126.142	142.488	117.462	-0.534	-118.416	-88.578	156.827	153.342	59.099	122.580	0.00039572	0.00065721	9.4714e-05	532.28	1.3886e-06	5.3298e-06	467.64	146.23	3.36e-06	4.2136e-06	148.85	70.32	63.514	26.777	3.4334e-06	31.363	0.00083764	0.00091614	0.00026049	530.57	9.9397e-06	1.0435e-05	467.47	146.15	1.0057e-05	1.0172e-05	151.23	70.707	64.016	26.993	1.0145e-05	31.906	161.671	-15.670	173.691	-160.337	44.789	-30.073	-161.553	-155.495	-67.622	5.943	-158.344	-154.887	-152.605	-146.980	-107.406	-150.041	-8191	255	
2313.272	1	1	0	0	0.029312	0.29141	0.26478	0.20133	0.041983	0.28042	0.13328	0.08941	0.13718	0.10495	0.24683	0.19093	0.2722	0.30165	0.23161	0.26951	-2.8208	-3.4208	-3.1625	-3.2771	-3.5875	-3.2875	-3.3292	-3.4458	-3.1208	-3.5312	-3.2979	-3.3042	-3.3521	-3.3229	-3.3688	-3.5521	94.732	160.321	-50.743	86.224	-0.746	181.499	75.282	159.046	144.709	-140.175	-132.145	-148.174	92.151	137.271	5.024	125.333	0.0003641	0.00049289	8.4878e-05	534.39	3.8497e-06	3.131e-06	467.73	145.23	4.3252e-06	3.962e-06	146.96	69.549	62.695	26.568	2.982e-06	31.024	0.00086754	0.0009361	0.00026692	532	1.0158e-05	1.0511e-05	466.78	144.96	1.025e-05	1.0572e-05	149.83	69.895	63.291	26.821	1.0529e-05	31.441	176.885	-132.754	-159.177	-160.465	-15.837	-46.848	-161.495	-156.272	-47.106	7.857	-158.679	-154.355	-152.281	-146.974	-24.062	-149.955	-8191	255	
2313.366	1	1	0	0	0.30166	0.073552	0.046711	0.10981	0.21293	0.11132	0.1456	0.075179	0.063121	0.13209	0.067403	0.29512	0.10253	0.03242	0.031603	0.26822	-2.6729	-3.2625	-3.1583	-3.2104	-3.5083	-3.1521	-3.4604	-3.4604	-2.9562	-3.3875	-3.2667	-3.15	-3.4688	-3.4208	-3.2687	-3.5208	-164.778	-44.771	-163.832	-141.837	-66.716	-14.729	-132.686	94.809	-81.264	-55.606	-81.650	-32.079	-26.225	-8.071	100.814	179.798	0.00032735	0.00022924	0.00012092	531.44	1.5983e-06	5.3109e-06	464.42	143.84	1.9619e-06	6.7344e-06	145.68	68.797	62.428	26.282	2.5252e-06	30.896	0.00088677	0.00098016	0.00027482	530.11	1.0682e-05	1.1029e-05	464.3	144.25	1.0693e-05	1.1023e-05	149.13	69.529	63.133	26.645	1.0881e-05	31.466	171.420	-50.574	-72.929	-160.336	144.535	-56.394	-161.556	-155.558	-110.302	-42.899	-158.248	-155.194	-152.491	-146.874	-55.773	-149.600	-8191	255	
2313.464	1	1	0	0	0.099776	0.098537	0.11236	0.13814	0.19952	0.32828	0.1871	0.21879	0.15758	0.039861	0.1706	0.34218	0.17543	0.23036	0.073814	0.30178	-2.6417	-3.4146	-3.4708	-3.2146	-3.55	-3.2354	-3.1104	-3.5896	-3.1583	-3.4083	-3.5271	-2.9771	-3.4583	-3.275	-3.1667	-3.5896	165.164	126.179	152.088	130.460	-166.917	47.861	59.872	183.247	89.332	-117.532	-104.636	-123.466	6.606	163.539	119.029	137.763	0.00038765	0.00012625	0.00012966	532.15	6.3291e-07	2.7283e-06	466.94	144.66	4.8552e-06	8.4441e-07	149.43	69.834	62.507	26.597	1.2869e-06	31.583	0.00090752	0.0010104	0.0002803	530.43	1.0951e-05	1.1157e-05	467.11	145.02	1.077e-05	1.1161e-05	151.36	70.345	63.637	26.856	1.1043e-05	31.879	159.510	81.681	-55.061	-160.076	50.872	-113.949	-161.287	-155.712	-73.897	38.433	-157.857	-155.321	-152.232	-146.723	29.609	-149.763	-8191	255	
2313.583	1	1	0	0	0.096149	0.19287	0.020889	0.10562	0.20108	0.044675	0.15381	0.08458	0.30095	0.13539	0.018418	0.36626	0.27774	0.13026	0.20392	0.022911	-2.7708	-3.3521	-3.4729	-3.3083	-3.4458	-3.2979	-3.1646	-3.6292	-3.2104	-3.3688	-3.2438	-3.1104	-3.5104	-3.3542	-3.2188	-3.4104	117.399	114.653	138.034	101.843	147.486	26.107	-79.563	163.995	-14.584	-168.271	102.185	76.449	4.439	-47.398	-37.428	8.722	0.0003578	0.00033093	5.2295e-05	535.06	1.4498e-06	2.4836e-06	475.66	146.36	4.209e-06	1.4553e-06	148.17	70.272	63.875	26.798	1.2745e-06	31.292	0.00092306	0.0010047	0.00028595	533.24	1.0833e-05	1.1159e-05	471.47	146.45	1.0874e-05	1.115e-05	151.67	70.904	64.192	27.047	1.0865e-05	31.772	175.333	25.398	-82.336	-160.393	-37.311	-50.794	-161.470	-155.718	-133.069	16.582	-158.035	-154.510	-152.585	-146.942	-61.003	-150.261	-8191	255	
2313.679	1	1	0	0	0.1245	0.11546	0.094435	0.19024	0.12819	0.28716	0.055795	0.15474	0.30785	0.31361	0.17714	0.18947	0.17046	0.17272	0.11374	0.19114	-2.9104	-3.1729	-3.4625	-3.0312	-3.6521	-3.3979	-3.15	-3.4021	-3.2229	-3.3354	-3.4792	-3.2375	-3.4208	-3.4396	-3.0875	-3.4437	125.860	151.171	173.586	94.111	-137.057	-164.777	57.723	136.314	70.648	19.158	102.700	148.583	178.213	-146.587	-48.685	92.746	0.00039821	0.00012652	0.0001369	527.81	1.4476e-06	2.6205e-06	466.75	145.29	1.91e-06	7.9808e-06	148.16	69.512	62.946	26.616	2.9019e-06	31.345	0.00092256	0.0010056	0.00028058	530.09	1.0837e-05	1.1194e-05	467.23	145.6	1.0956e-05	1.0985e-05	150.86	70.303	63.93	26.912	1.0885e-05	31.661	167.299	157.500	-63.992	-160.508	-28.682	48.130	-161.713	-156.089	60.845	6.565	-158.174	-154.945	-152.507	-147.105	50.362	-150.027	-8191	255	
2313.751	1	1	0	0	0.041126	0.10252	0.26643	0.10838	0.12879	0.2901	0.22763	0.096024	0.17634	0.16031	0.36984	0.13629	0.31409	0.19281	0.14016	0.22102	-2.8417	-3.3063	-3.4271	-3.225	-3.4042	-3.4958	-3.2521	-3.4458	-3.2833	-3.1583	-3.475	-3.325	-3.4437	-3.3979	-3.1521	-3.5271	-145.525	-162.448	56.632	-111.196	120.912	-57.046	12.063	-155.515	-84.344	-76.711	-163.525	176.972	-78.146	-74.259	-10.440	122.500	0.00039173	0.00019258	7.919e-05	531.55	2.6586e-06	2.5728e-06	468.13	145.85	3.6278e-06	7.4271e-06	149.88	70.92	63.344	26.83	2.0599e-06	31.427	0.00091877	0.0010135	0.00028246	529.87	1.1048e-05	1.142e-05	468.54	146.16	1.0879e-05	1.1209e-05	151.9	70.916	64.246	27.096	1.1167e-05	31.932	149.913	37.639	-40.969	-160.308	-43.806	-6.917	-161.617	-155.770	-107.260	-93.057	-158.289	-154.736	-152.498	-146.961	-44.348	-149.825	-8191	255	
2313.871	1	1	0	0	0.21106	0.15336	0.12569	0.18365	0.067354	0.22068	0.19286	0.12791	0.023764	0.28646	0.26412	0.15985	0.29473	0.20083	0.16049	0.24304	-2.9167	-3.2562	-3.4958	-3.0938	-3.3792	-3.5354	-3.1083	-3.4896	-3.3937	-3.3	-3.6292	-3.4313	-3.275	-3.4813	-3.1937	-3.55	-55.791	-123.884	19.989	127.236	34.100	-32.671	24.883	152.804	48.548	148.687	-159.589	79.807	67.908	-116.444	124.073	156.742	0.00037839	0.00066694	0.00013464	532.76	1.3532e-06	4.7548e-06	472.1	146.98	2.3466e-06	5.8358e-06	150.23	70.674	63.812	26.975	1.7669e-06	31.634	0.0009268	0.0010165	0.00028625	532.57	1.1158e-05	1.1438e-05	470.63	147.04	1.1003e-05	1.1357e-05	152.82	71.304	64.508	27.204	1.1241e-05	32.138	163.768	-121.658	-42.889	-160.534	98.922	-34.245	-161.476	-155.864	-56.411	-34.317	-158.263	-154.946	-152.656	-146.877	-119.003	-150.031	-8191	255	
2313.967	1	1	0	0	0.054156	0.29191	0.20053	0.10806	0.15574	0.2135	0.31868	0.19798	0.16806	0.092777	0.17625	0.10093	0.18843	0.14848	0.044722	0.03387	-2.6583	-3.2292	-3.425	-3.0792	-3.2542	-3.5875	-3.0604	-3.3917	-3.3792	-3.0208	-3.4938	-3.1854	-3.2313	-3.3708	-3.1937	-3.3875	28.195	92.063	142.400	98.845	115.538	-168.101	-151.829	93.430	128.348	-86.788	-100.019	75.908	58.250	69.464	-63.666	86.640	0.00040371	0.00027474	0.0001268	532.2	4.5699e-06	3.2711e-06	469.8	145.84	7.2827e-07	3.8e-06	148.53	70.626	63.609	26.774	6.0975e-06	31.359	0.00093394	0.0010211	0.00028443	532.2	1.1117e-05	1.1213e-05	470.63	146.52	1.0862e-05	1.1302e-05	151.97	70.771	64.119	27.033	1.0999e-05	31.734	159.695	-92.376	76.505	-160.260	3.424	102.319	-161.497	-155.972	-64.044	13.849	-158.171	-154.834	-152.599	-146.752	-47.223	-150.260	-8191	255	
2314.063	1	1	0	0	0.11673	0.17429	0.086053	0.21428	0.03632	0.11144	0.10032	0.11685	0.19989	0.063627	0.18629	0.1772	0.19251	0.21523	0.1228	0.29423	-3.0604	-3.0729	-3.2167	-3.3167	-3.3708	-3.6042	-3.2062	-3.4292	-3.4375	-3.1146	-3.5479	-3.3167	-3.2521	-3.4083	-3.2354	-3.4708	127.000	148.288	-97.712	182.055	143.485	7.687	-23.776	-84.558	-124.730	-144.924	114.713	-170.913	-83.997	163.374	-156.298	88.430	0.00041708	0.00013925	0.00012801	535.2	1.5985e-06	3.3575e-06	471.53	146.24	4.5391e-06	4.9247e-06	150.33	69.943	63.238	26.658	4.3967e-06	31.407	0.00091735	0.0010048	0.00028793	531.25	1.0957e-05	1.1208e-05	469.16	146.06	1.1058e-05	1.1249e-05	151.83	70.498	64.106	26.99	1.1089e-05	31.879	166.599	-40.587	-46.205	-160.309	183.365	131.768	-161.486	-155.568	-71.888	-138.526	-157.858	-154.758	-152.492	-146.883	-29.383	-149.770	-8191	255	
2314.160	1	1	0	0	0.1175	0.063046	0.15338	0.087846	0.18347	0.30209	0.16282	0.02405	0.15882	0.11868	0.10756	0.1979	0.2161	0.037947	0.10843	0.17598	-3.1167	-2.9958	-3.4188	-3.4313	-3.1979	-3.7042	-3.3208	-3.2	-3.5	-3.3104	-3.4667	-3.4062	-3.1437	-3.5208	-3.1458	-3.275	-147.382	-158.598	177.520	59.011	26.149	114.052	96.521	-1.801	-60.999	5.597	15.092	-15.462	162.343	23.897	-124.278	47.488	0.00040091	9.8331e-05	0.00010866	530.49	8.9758e-06	2.1752e-06	470.55	146.1	1.7213e-06	4.601e-06	149.87	70.347	64.179	27.057	2.4417e-06	31.644	0.00092366	0.0010109	0.00028805	531.73	1.1077e-05	1.1474e-05	470.24	146.86	1.0956e-05	1.1242e-05	152.47	71.224	64.674	27.196	1.1172e-05	32.156	160.896	30.750	49.922	-160.209	-94.729	-104.907	-161.427	-156.007	39.393	23.279	-157.833	-155.111	-152.491	-147.039	44.351	-150.690	-8191	255	
2314.278	1	1	0	0	0.26615	0.12288	0.1505	0.32588	0.21059	0.2521	0.10719	0.19947	0.13647	0.18354	0.073191	0.26883	0.16771	0.1701	0.083129	0.065365	-3.1208	-3.0687	-3.4021	-3.1979	-3.0917	-3.4458	-3.3458	-3.2646	-3.4313	-3.1396	-3.2625	-3.5146	-3.275	-3.2833	-3.35	-3.2375	-76.540	118.582	14.035	176.351	25.424	40.313	103.332	100.349	49.835	-128.246	96.711	164.906	144.423	-42.586	119.565	137.274	0.00032394	0.00019463	0.00017881	535.02	4.6593e-06	2.689e-06	472.08	147.36	1.032e-06	1.4382e-06	149.52	71.069	63.883	27.041	3.6075e-06	31.292	0.00093113	0.0010181	0.00028662	533	1.0992e-05	1.1476e-05	472.45	147.59	1.0912e-05	1.1332e-05	153.02	71.516	64.534	27.245	1.1205e-05	31.991	166.118	-117.904	-52.887	-160.350	15.120	-58.504	-161.744	-155.796	122.071	-46.596	-157.949	-154.740	-152.216	-146.716	-82.651	-149.873	-8191	255	
2314.375	1	1	0	0	0.07788	0.092519	0.10663	0.13894	0.16454	0.27837	0.089473	0.14524	0.23774	0.24305	0.1669	0.18755	0.1602	0.33452	0.21835	0.27596	-3.0771	-2.9646	-3.1875	-3.4958	-3.1208	-3.4958	-3.2979	-3.3417	-3.3021	-3.1229	-3.2021	-3.5	-3.1646	-3.4417	-3.4562	-3.2313	163.547	47.229	121.934	60.682	168.614	-4.265	41.226	112.012	-49.270	106.007	153.732	137.607	46.595	93.721	-170.032	141.022	0.00039122	0.000122	2.2279e-05	529.81	2.9686e-06	4.454e-06	469.34	146.08	2.5634e-06	1.5063e-06	148.7	70.373	63.443	26.884	3.8296e-06	31.368	0.00091385	0.0010152	0.00028603	531.5	1.1123e-05	1.1244e-05	469.1	146.54	1.0878e-05	1.117e-05	151.92	70.758	64.219	27.107	1.1241e-05	31.83	164.298	-103.479	-3.336	-160.316	43.678	-54.412	-161.224	-155.833	-87.513	108.302	-158.106	-154.770	-152.701	-147.002	-118.547	-150.020	-8191	255	
2314.446	1	1	0	0	0.18465	0.11532	0.25551	0.17081	0.12723	0.18253	0.10794	0.10848	0.21846	0.046714	0.073804	0.10911	0.10494	0.05906	0.12715	0.050936	-3.1937	-3.1979	-3.225	-3.4813	-3.2562	-3.2604	-3.5146	-3.1917	-3.4771	-3.2792	-3.1937	-3.4708	-3.1979	-3.4146	-3.4146	-3.1813	152.734	115.705	6.036	-121.344	-133.643	-35.406	112.791	-159.339	-124.289	59.884	76.674	-18.850	95.978	-54.681	-35.140	-44.838	0.00039843	0.00017088	9.1872e-05	534.65	6.3798e-06	5.9572e-06	468.82	146.87	5.199e-06	4.9964e-06	151.4	71.033	63.654	27.002	4.5191e-06	31.449	0.00092495	0.0010183	0.00028633	531.46	1.123e-05	1.1453e-05	470.34	146.65	1.0947e-05	1.1252e-05	153.5	71.199	64.494	27.24	1.0923e-05	31.977	161.469	-52.713	-43.863	-160.576	-68.319	-4.603	-161.728	-155.506	-58.142	51.594	-157.900	-154.712	-152.209	-146.789	-119.970	-149.998	-8191	255	
2314.544	1	1	0	0	0.22265	0.12982	0.079298	0.013399	0.054898	0.34892	0.1519	0.26809	0.2449	0.23866	0.32686	0.13311	0.31939	0.15301	0.14405	0.08907	-2.8937	-3.2208	-3.1792	-3.5354	-3.3312	-3.525	-3.5667	-3.2333	-3.5896	-3.2333	-3.2833	-3.5042	-3.2	-3.2146	-3.5354	-3.1854	-9.331	-3.097	70.409	-99.180	-67.627	101.040	93.928	181.218	77.874	78.464	-143.552	-57.430	122.144	103.472	161.854	73.614	0.00043709	0.00050332	6.8599e-05	535.89	2.47e-06	4.8143e-06	472.98	147.41	3.3712e-06	2.9008e-06	150.86	70.65	63.588	26.927	1.2583e-06	31.594	0.0009378	0.0010267	0.00028735	532.22	1.0925e-05	1.135e-05	471.67	147.48	1.0848e-05	1.1418e-05	153.71	71.585	64.593	27.31	1.1107e-05	32.215	162.916	-56.038	-76.342	-160.300	133.906	51.621	-161.506	-155.636	-41.344	-27.369	-157.778	-154.683	-152.409	-146.934	147.701	-149.913	-8191	255	
2314.663	1	1	0	0	0.30335	0.28728	0.12658	0.11314	0.11991	0.050133	0.17103	0.41952	0.070379	0.22306	0.2126	0.15123	0.15805	0.20145	0.36926	0.22728	-2.9021	-3.4458	-3.1708	-3.4562	-3.2646	-3.3646	-3.3396	-3.0187	-3.2938	-3.4146	-3.0958	-3.5417	-3.3542	-3.4542	-3.4771	-3.1083	-80.808	89.519	-94.562	65.569	-161.102	81.097	-171.738	154.914	-76.737	-39.173	-52.909	96.539	160.546	154.634	179.565	92.774	0.00044388	0.00064323	7.2248e-05	533.41	4.4203e-06	4.4646e-06	471.51	145.38	3.3663e-06	7.7619e-06	149.95	70.455	63.676	26.735	2.7062e-06	31.332	0.00093118	0.001009	0.00028859	531.79	1.0893e-05	1.1263e-05	469.53	146.54	1.0932e-05	1.1238e-05	152.63	71.185	64.269	27.103	1.1033e-05	31.824	165.210	-134.856	-125.693	-160.474	-0.270	-22.941	-161.742	-155.693	-117.453	-15.068	-158.056	-154.712	-152.549	-147.056	-86.162	-150.012	-8191	255	
2314.759	1	1	0	0	0.068572	0.083305	0.32059	0.099831	0.10143	0.047317	0.16595	0.017812	0.13732	0.19748	0.098482	0.20472	0.2276	0.13946	0.20936	0.25038	-2.9354	-3.3312	-3.075	-3.3729	-3.2604	-3.2833	-3.4979	-3.2458	-3.2938	-3.5187	-3.2062	-3.4354	-3.2104	-3.0875	-3.5229	-3.1333	78.124	-57.645	109.279	123.370	-84.185	-136.773	109.600	62.402	0.351	-132.611	42.390	64.645	27.444	74.798	-100.380	139.114	0.00030546	0.0004492	0.00013205	530.84	1.8485e-06	3.7408e-06	466.66	146.19	4.384e-06	4.4345e-06	149.99	70.749	63.745	27.091	3.8196e-06	31.423	0.00091452	0.00099981	0.000285	529.76	1.0973e-05	1.1063e-05	466.98	146.62	1.0751e-05	1.1188e-05	153.08	71.141	64.557	27.196	1.0828e-05	32.009	165.494	-69.019	-26.892	-160.404	-21.710	-63.868	-161.624	-155.937	-78.142	-20.688	-157.851	-154.779	-152.328	-146.614	11.469	-149.908	-8191	255	
2314.855	1	1	0	0	0.069265	0.090835	0.18305	0.13099	0.07434	0.37197	0.15068	0.067889	0.14094	0.039972	0.12053	0.20252	0.094634	0.17256	0.27651	0.25533	-3	-3.3271	-3.1	-3.4042	-3.2042	-3.2229	-3.5125	-3.0792	-3.4083	-3.5125	-3.0938	-3.4146	-3.2833	-3.2354	-3.4813	-3.2292	25.533	162.375	-90.300	-129.662	69.984	183.318	123.470	-147.451	-164.799	158.014	124.308	-172.406	-124.950	1.976	80.592	151.289	0.00036338	0.00048252	0.00012524	530.89	1.2961e-06	1.4302e-06	467.74	147.85	1.3168e-06	1.8597e-06	151.11	71.325	64.102	27.18	3.079e-06	31.553	0.0009132	0.0010045	0.00028174	528.87	1.0813e-05	1.1129e-05	469.79	147.68	1.0906e-05	1.1206e-05	153.75	71.812	64.898	27.321	1.1206e-05	32.067	160.195	-137.239	-76.077	-160.363	-73.343	-38.621	-161.303	-156.037	-7.629	146.816	-157.980	-155.243	-152.612	-146.957	-30.775	-150.192	-8191	255	
2314.952	1	1	0	0	0.080739	0.06617	0.021515	0.2094	0.14734	0.057126	0.075483	0.11538	0.036353	0.24298	0.19831	0.186	0.095884	0.13962	0.11298	0.050648	-2.85	-3.4729	-3.1437	-3.3708	-3.2646	-3.0375	-3.5979	-3.35	-3.3063	-3.4479	-3.1479	-3.3833	-3.3646	-3.0083	-3.4292	-3.2896	-141.580	19.261	122.793	181.498	18.725	112.802	174.768	-116.873	140.819	127.932	8.019	42.291	146.049	-97.712	120.486	-32.703	0.00043621	0.00042728	8.3543e-05	530.96	3.8046e-06	4.5105e-06	470.6	146.64	4.6659e-06	1.6152e-06	150.64	71.341	63.833	26.933	3.353e-06	31.396	0.00091886	0.0010045	0.00028495	530.43	1.0918e-05	1.1231e-05	471.01	147.8	1.0909e-05	1.1095e-05	153.87	71.481	64.612	27.228	1.084e-05	31.973	170.006	-96.101	-64.597	-160.434	-88.660	-62.809	-161.477	-155.770	-20.556	113.963	-158.264	-154.748	-152.750	-147.371	-0.029	-149.893	-8191	255	
2315.048	1	1	0	0	0.12271	0.17338	0.12636	0.20285	0.22547	0.076052	0.083052	0.089966	0.082841	0.17674	0.17309	0.1834	0.035759	0.13447	0.18861	0.17019	-2.7979	-3.2438	-3.1667	-3.4146	-3.4333	-2.9188	-3.4979	-3.1542	-3.2188	-3.3917	-3.1792	-3.275	-3.375	-3.2833	-3.2938	-3.4354	8.542	-100.739	-58.993	-164.249	33.128	43.712	126.419	-35.335	-77.486	176.561	-119.187	164.349	-110.854	133.632	-161.345	83.047	0.0004636	0.00028868	0.00014518	527.08	5.0463e-07	3.5314e-06	469.15	146.76	2.1152e-06	4.2207e-06	149.2	70.393	64.255	26.885	2.1074e-06	31.307	0.00090563	0.00098671	0.00027711	528.45	1.0848e-05	1.1037e-05	468.2	146.77	1.0767e-05	1.111e-05	152.73	71.056	64.52	27.161	1.0876e-05	31.924	168.484	-99.999	-117.185	-160.425	-100.308	-43.172	-161.449	-155.641	-116.966	-90.064	-157.746	-154.662	-152.417	-146.665	-59.260	-149.724	-8191	255	
2315.144	1	1	0	0	0.15774	0.047382	0.060754	0.17128	0.035719	0.14255	0.033563	0.17984	0.021658	0.1772	0.26948	0.24545	0.30123	0.11761	0.062181	0.16058	-2.7146	-3.4083	-3.0833	-3.1833	-3.4208	-3.2292	-3.4688	-3.3875	-3.2292	-3.5	-3.2896	-3.3021	-3.475	-3.1458	-3.4125	-3.4333	122.679	17.606	142.577	159.956	-126.387	-44.255	-81.436	126.004	138.946	-15.742	131.134	183.826	108.112	14.832	148.450	76.583	0.0003932	0.00022748	4.3432e-05	533.87	2.7976e-06	8.2093e-06	470.75	147.47	3.6766e-06	4.2581e-06	151.29	71.326	63.775	27.11	2.7921e-06	31.538	0.00091242	0.0010014	0.00028188	531.04	1.0752e-05	1.1161e-05	469.91	147.45	1.0876e-05	1.1049e-05	153.72	71.468	64.79	27.29	1.1174e-05	32.132	160.539	-96.743	-69.699	-160.361	15.592	-11.049	-161.663	-155.718	-33.334	-103.901	-157.963	-154.878	-152.686	-146.563	18.844	-150.206	-8191	255	
2315.264	1	1	0	0	0.23924	0.081292	0.20447	0.12534	0.089936	0.20625	0.20473	0.10093	0.36937	0.15378	0.22429	0.070972	0.15264	0.30983	0.32348	0.078628	-2.6188	-3.4771	-3.1417	-3.1396	-3.5042	-3.0812	-3.3812	-3.4188	-3.1354	-3.5771	-3.1604	-3.2771	-3.5167	-3.25	-3.3083	-3.2708	131.054	-169.767	-6.607	-105.503	27.828	179.050	-121.308	30.408	109.046	11.685	132.372	40.640	115.444	120.808	158.816	101.334	0.00042673	0.00028515	6.7976e-05	531.43	4.7569e-06	6.2565e-06	469.95	147.78	2.8633e-06	4.5829e-06	152.14	71.011	64.353	27.086	3.2726e-06	31.708	0.00092272	0.0010216	0.00028664	530.55	1.0981e-05	1.1278e-05	470.78	148.21	1.1023e-05	1.1317e-05	154.57	71.728	64.971	27.358	1.0979e-05	32.279	166.940	-109.799	-44.445	-160.252	-91.407	-24.679	-161.905	-155.426	54.804	25.936	-158.159	-154.412	-152.208	-146.971	-12.608	-149.858	-8191	255	
2315.359	1	1	0	0	0.10128	0.18638	0.10899	0.23875	0.24782	0.16757	0.16593	0.20909	0.27343	0.17476	0.042452	0.099422	0.089238	0.068004	0.081778	0.23338	-2.8187	-3.4021	-3.1896	-3.0604	-3.2687	-3.2542	-3.1688	-3.4292	-3.0792	-3.5271	-3.3042	-3.25	-3.4813	-3.2708	-3.3583	-3.4479	-70.029	165.457	-158.331	150.491	8.990	-7.705	-172.256	-131.533	-65.249	-160.690	104.169	97.461	-170.324	-128.848	-63.288	-127.863	0.00048664	0.00036403	0.00010926	531.73	1.0947e-06	3.0481e-06	469.69	146.29	3.4058e-06	5.5434e-06	150.42	70.279	63.969	26.926	2.273e-06	31.27	0.00091376	0.00099346	0.00028084	530.7	1.0877e-05	1.114e-05	468.87	147.03	1.0806e-05	1.1149e-05	153.13	71.078	64.631	27.196	1.0926e-05	31.891	166.527	-40.327	-58.347	-160.348	0.939	80.577	-161.282	-155.479	12.844	20.027	-158.076	-154.773	-152.519	-147.125	-42.993	-150.032	-8191	255	
2315.455	1	1	0	0	0.17775	0.30019	0.023597	0.19557	0.14935	0.062841	0.17271	0.15203	0.13369	0.13614	0.27829	0.30295	0.090577	0.069254	0.36092	0.10231	-2.6833	-3.4396	-3.3229	-3.1479	-3.3375	-3.225	-3.4	-3.6042	-3.0958	-3.4625	-3.2604	-3.1542	-3.5083	-3.3583	-3.1646	-3.525	27.764	30.617	183.393	146.394	17.276	170.597	-165.807	120.492	168.723	-86.645	-153.276	-1.341	97.242	91.131	-58.174	116.392	0.00039723	0.00041432	9.1931e-05	530	5.267e-06	4.3979e-06	469.04	147.73	5.4627e-06	5.9899e-06	151.75	71.171	64.238	27.156	4.2646e-06	31.798	0.00091148	0.00099574	0.00028252	529.16	1.0752e-05	1.1095e-05	468.71	147.44	1.072e-05	1.1215e-05	153.61	71.542	64.785	27.293	1.094e-05	32.162	169.707	-19.984	-96.396	-160.364	-6.827	19.059	-161.688	-155.900	-94.505	-26.972	-157.881	-154.723	-152.592	-146.611	-154.995	-149.985	-8191	255	
2315.551	1	1	0	0	0.16343	0.042285	0.16641	0.062825	0.080638	0.079246	0.27924	0.056977	0.091636	0.1431	0.080016	0.27828	0.24848	0.37759	0.085868	0.062764	-2.8417	-3.3042	-3.4333	-3.1042	-3.2583	-3.2896	-3.3438	-3.5458	-3.1813	-3.3792	-3.4125	-3.2167	-3.6521	-3.4354	-3.2562	-3.5396	87.261	183.561	-6.249	-81.000	74.835	-135.655	82.437	39.532	-43.529	-169.859	-92.014	115.759	24.051	159.230	-105.332	-150.366	0.0004305	0.00032677	6.6203e-05	535.47	6.0131e-06	7.5529e-06	471.18	148.27	3.2468e-06	1.7487e-06	151.59	71.592	64.897	27.253	3.3888e-06	32.039	0.0009224	0.001003	0.00028241	531.55	1.0971e-05	1.1233e-05	471.13	148.26	1.0949e-05	1.1291e-05	154.52	71.906	65.279	27.461	1.1042e-05	32.445	167.711	17.169	-34.100	-160.396	-18.519	-45.493	-161.467	-155.500	-61.376	-25.007	-158.041	-154.821	-152.620	-147.039	-67.454	-149.932	-8191	255	
2315.647	1	1	0	0	0.10823	0.13629	0.12554	0.13107	0.092375	0.14017	0.059352	0.17548	0.10261	0.26935	0.054374	0.087098	0.21012	0.13731	0.11159	0.073058	-2.8812	-3.0771	-3.2646	-3.1813	-3.4229	-3.2708	-3.2979	-3.5646	-3.2771	-3.2896	-3.3792	-3.2042	-3.5083	-3.3563	-3.2313	-3.5396	-122.323	151.926	-21.637	155.457	40.816	101.743	-19.746	-127.824	25.373	129.827	-97.502	96.260	156.442	29.876	48.318	102.801	0.00037321	0.00026747	7.2452e-05	532.57	2.3516e-06	1.8696e-06	473.49	147.79	1.3311e-06	3.7876e-06	151.51	71.538	64.525	26.931	5.6867e-06	31.705	0.0009083	0.0010207	0.00028471	531.22	1.0824e-05	1.1004e-05	472.29	148	1.0769e-05	1.1134e-05	153.65	71.733	65.075	27.337	1.0701e-05	32.106	166.168	184.107	-95.483	-160.477	-51.243	-34.239	-161.931	-155.719	68.579	42.225	-157.980	-154.730	-152.365	-146.941	-48.274	-149.936	-8191	255	
2315.743	1	1	0	0	0.031504	0.10894	0.083793	0.2179	0.14052	0.15843	0.40134	0.095888	0.10703	0.097933	0.10532	0.08828	0.1178	0.13088	0.14853	0.26455	-2.9042	-3.1583	-3.4917	-3.2833	-3.4292	-3.4958	-3.0312	-3.5	-3.3146	-3.1292	-3.4688	-3.2438	-3.5625	-3.5729	-3.2292	-3.625	114.171	18.030	132.596	120.412	108.675	-0.867	138.971	-111.996	133.552	93.734	-54.995	125.090	117.094	158.469	138.720	31.662	0.00042828	3.3077e-05	6.3522e-05	530.39	1.963e-06	4.2668e-06	464.94	147.67	2.7397e-06	2.0636e-06	150.87	70.593	64.025	27.029	3.1228e-06	31.588	0.00090852	0.0010018	0.00027976	529.44	1.099e-05	1.0973e-05	468.11	147.3	1.0804e-05	1.1242e-05	153.01	71.271	64.793	27.286	1.0973e-05	32.055	164.177	49.314	-128.837	-160.730	-142.098	-98.210	-161.911	-155.525	-100.346	47.111	-158.384	-154.603	-152.429	-147.036	-0.419	-149.911	-8191	255	
2315.840	1	1	0	0	0.15386	0.32548	0.040191	0.075644	0.24169	0.060661	0.10138	0.17225	0.16164	0.081	0.049746	0.021888	0.018571	0.19828	0.057659	0.22077	-2.8771	-3.1729	-3.4792	-3.2875	-3.3667	-3.4125	-3.2417	-3.4167	-3.2833	-3.1708	-3.4958	-2.925	-3.3979	-3.525	-2.9854	-3.3792	18.718	-162.248	-64.223	-165.313	98.435	-107.438	-39.181	-161.592	177.096	-161.390	-93.532	146.576	104.499	162.553	-160.104	178.114	0.00040326	0.00016432	0.00012042	528.23	1.1307e-06	6.5883e-06	469.32	147.34	2.0195e-06	3.7125e-06	151.5	71.428	64.28	27.068	5.2969e-06	31.973	0.00089331	0.00098797	0.00028141	527.73	1.0834e-05	1.1186e-05	470.01	147.96	1.0708e-05	1.0888e-05	153.8	71.778	65.043	27.368	1.0827e-05	32.266	173.668	-34.263	-52.789	-160.338	31.208	-34.689	-161.753	-155.613	-113.930	-47.811	-158.079	-154.669	-152.369	-146.685	-42.841	-150.222	-8191	255	
2315.960	1	1	0	0	0.068811	0.15143	0.080235	0.072015	0.20236	0.089063	0.12486	0.24345	0.073732	0.29614	0.25516	0.17318	0.10021	0.17992	0.17015	0.1673	-2.9146	-2.8604	-3.3042	-3.1562	-3.0354	-3.6292	-3.2458	-3.3667	-3.2875	-3.1333	-3.3667	-3.3667	-3.2646	-3.5875	-3.2313	-3.5021	167.765	164.371	-110.550	167.329	100.627	-138.722	-123.826	-134.918	104.423	147.449	-80.329	-100.127	19.831	-143.434	7.551	129.892	0.00040577	0.00049295	5.23e-05	533.66	4.3156e-06	1.7192e-06	470.39	147.71	2.057e-06	5.1918e-06	150.75	70.687	64.111	27.086	7.361e-07	31.692	0.00090338	0.00098551	0.0002765	530.77	1.0696e-05	1.0928e-05	469.67	147.71	1.071e-05	1.1024e-05	153.6	71.445	64.802	27.377	1.0862e-05	32.098	173.931	-13.428	-98.340	-160.274	-100.993	-13.336	-161.467	-155.601	-156.147	-87.260	-158.165	-154.932	-152.390	-147.048	118.111	-149.972	-8191	255	
2316.056	1	1	0	0	0.076363	0.26338	0.15538	0.19779	0.29258	0.26473	0.18931	0.16371	0.23499	0.10268	0.13242	0.093884	0.12684	0.064193	0.070352	0.19462	-2.8146	-3.1729	-3.6437	-3.2542	-3.2167	-3.65	-3.2708	-3.4188	-3.3792	-3.2979	-3.4604	-3.3375	-3.2313	-3.425	-3.15	-3.3271	184.783	-82.375	148.259	157.088	69.564	65.300	-149.709	169.771	-113.575	-113.353	44.848	74.091	8.147	-167.855	2.695	120.462	0.00035226	0.00039619	0.00011698	528.3	1.9624e-06	6.4197e-06	465.23	146.26	1.7706e-06	4.7833e-06	148.01	70.004	63.542	26.574	4.1442e-06	31.274	0.00089158	0.00097263	0.00027642	527.35	1.0563e-05	1.0635e-05	464.81	146.44	1.0469e-05	1.0832e-05	151.4	70.433	64.185	26.996	1.0625e-05	31.707	163.930	-39.980	-43.781	-160.363	-76.473	15.842	-161.101	-155.856	-129.966	11.415	-158.080	-154.649	-152.443	-146.644	-117.802	-150.052	-8191	255	
2316.153	1	1	0	0	0.2363	0.15141	0.12264	0.31138	0.19245	0.26502	0.15644	0.1986	0.08619	0.17129	0.10385	0.27518	0.12551	0.17181	0.25647	0.13835	-2.9792	-3.0375	-3.4521	-3.1396	-3.1646	-3.5396	-3.2875	-3.2729	-3.6083	-3.0729	-3.4625	-3.4062	-3.1229	-3.3583	-3.1854	-3.2667	78.264	174.543	-130.911	142.158	-3.683	-71.527	54.968	54.177	110.379	-82.229	-51.170	-133.865	161.558	130.289	-136.278	105.315	0.00041946	0.0007387	0.00011649	525.27	3.7746e-06	1.6064e-06	462.08	145.99	1.2348e-06	7.2527e-06	147.68	70.39	63.471	26.646	3.3695e-06	31.289	0.00089085	0.00096189	0.00027158	525.08	1.0476e-05	1.0566e-05	463.71	146.19	1.0369e-05	1.0577e-05	150.65	70.716	64.197	26.985	1.0436e-05	31.751	157.808	184.000	-40.843	-160.229	-47.874	-54.245	-161.619	-155.931	95.775	17.572	-158.094	-155.015	-152.416	-146.749	-95.797	-150.201	-8191	255	
2316.247	1	1	0	0	0.055447	0.19086	0.10634	0.11272	0.14483	0.057178	0.053079	0.14599	0.041581	0.068912	0.070852	0.1517	0.025496	0.12395	0.15842	0.1281	-3.0146	-2.9708	-3.3458	-3.5146	-3.0354	-3.65	-3.1604	-3.3167	-3.3896	-3.1458	-3.2313	-3.325	-3.1979	-3.3792	-3.175	-3.0646	-37.213	94.608	138.308	3.861	-39.485	-22.788	-173.390	-58.378	110.363	8.229	-120.199	163.476	34.612	-78.065	-91.844	-11.986	0.00035241	0.00075047	6.3642e-05	528.2	5.4966e-06	5.6932e-06	465.01	146.7	3.4813e-06	4.8508e-06	149.43	69.704	63.535	26.742	6.2567e-06	31.592	0.00087942	0.00095791	0.00027307	525.8	1.0493e-05	1.0725e-05	465.6	146.94	1.039e-05	1.083e-05	151.99	70.676	64.043	27.048	1.0583e-05	31.949	160.200	-133.285	-6.258	-160.414	-71.775	-76.844	-161.367	-155.531	-98.324	44.233	-158.253	-155.079	-152.398	-146.458	-28.587	-150.065	-8191	255	
2316.345	1	1	0	0	0.24797	0.12609	0.16202	0.16991	0.19782	0.16893	0.14752	0.16353	0.39164	0.12126	0.090324	0.079689	0.14445	0.091671	0.17079	0.13359	-3.1771	-3.0896	-3.2917	-3.3438	-3.0229	-3.4188	-3.1521	-3.0042	-3.5438	-3.2708	-3.2042	-3.4437	-3.0604	-3.4313	-3.2208	-3.3354	129.500	134.363	-55.093	12.855	-102.046	-141.180	159.959	-17.970	65.557	58.117	-31.851	-141.461	169.968	75.277	-170.915	60.477	0.00024893	0.00024054	7.6326e-05	525.84	1.441e-06	4.0323e-06	466.24	146.55	4.4193e-06	5.6599e-06	148.97	70.177	63.288	26.688	2.0471e-06	31.064	0.00089019	0.00096785	0.00027386	526.35	1.0528e-05	1.0756e-05	464.83	146.18	1.0472e-05	1.085e-05	150.98	70.408	64.013	26.883	1.0349e-05	31.543	154.163	-69.701	16.418	-160.255	93.414	-23.588	-161.582	-155.780	-156.109	-29.260	-158.226	-154.795	-152.352	-146.854	-6.232	-150.064	-8191	255	
2316.439	1	1	0	0	0.073784	0.1183	0.1422	0.037896	0.18045	0.054141	0.043926	0.23263	0.16821	0.058616	0.13112	0.075968	0.1599	0.18176	0.19165	0.20365	-2.9729	-3.225	-3.2208	-3.5229	-3.1958	-3.4896	-3.5125	-3.2792	-3.6083	-3.2354	-3.1646	-3.3708	-3.1375	-3.3354	-3.1604	-3.1188	99.198	-70.142	-133.386	71.222	-43.374	176.833	84.837	118.989	45.863	46.723	-61.854	77.940	159.899	166.697	-79.853	-157.785	0.00035868	0.00044816	5.3319e-05	523.91	1.371e-06	2.8864e-06	462.59	145.94	3.1416e-06	4.5263e-06	147.71	69.873	63.011	26.702	1.518e-06	31.184	0.00088199	0.00096015	0.0002711	522.32	1.049e-05	1.0752e-05	462.17	145.54	1.0406e-05	1.0711e-05	151	70.491	63.854	26.984	1.0694e-05	31.666	172.736	-45.382	-97.128	-160.463	173.107	-45.815	-161.405	-155.437	-76.984	-18.723	-158.448	-154.616	-152.230	-146.795	-119.523	-150.072	-8191	255	
2316.535	1	1	0	0	0.070539	0.17645	0.26044	0.15855	0.239	0.14289	0.20829	0.21203	0.044633	0.063243	0.10219	0.14428	0.21974	0.057962	0.13601	0.40603	-3.1813	-3.3042	-3.0104	-3.4708	-3.1146	-3.3812	-3.4167	-3.1458	-3.475	-3.3187	-3.1271	-3.4604	-3.1708	-3.2812	-3.4958	-3.0312	-164.806	155.306	-21.575	102.545	-74.298	178.819	67.727	168.889	-70.110	182.640	97.874	-1.328	-155.750	-162.109	97.929	-145.811	0.00032184	0.0007279	0.00011179	528	4.7619e-06	1.1278e-06	462.8	146.62	6.7943e-06	3.6477e-06	150.62	70.568	63.617	26.924	3.3121e-06	31.617	0.00088249	0.00098051	0.00027566	525.3	1.049e-05	1.1066e-05	463.8	146.61	1.0659e-05	1.084e-05	152.65	71.028	64.453	27.17	1.077e-05	32.022	167.231	-26.021	-135.400	-160.244	-40.660	76.103	-161.629	-155.547	-45.973	-27.423	-158.134	-154.703	-152.493	-146.997	-41.215	-150.329	-8191	255	
2316.632	1	1	0	0	0.19204	0.27407	0.12157	0.16258	0.12977	0.013285	0.068486	0.14584	0.11914	0.047117	0.12842	0.13731	0.16365	0.061513	0.14021	0.36631	-2.8438	-3.3896	-3.0687	-3.5354	-3.1437	-3.4125	-3.3958	-3.1354	-3.4146	-3.5333	-3.1	-3.6188	-3.4188	-3.3937	-3.5146	-3.2417	77.764	-32.991	-76.627	-106.146	-128.091	183.862	114.349	51.207	-15.330	-16.200	-153.257	88.337	-73.976	-137.594	24.914	134.205	0.00033886	0.00037326	0.00013058	527.82	6.9102e-06	1.4027e-06	467.39	147.57	2.0844e-06	1.108e-06	150.16	71.327	64.219	27.062	3.6363e-06	31.765	0.00089957	0.00098127	0.00028303	526.89	1.0686e-05	1.1021e-05	467.26	147.61	1.0607e-05	1.0966e-05	153.43	71.552	64.801	27.295	1.073e-05	32.072	173.871	-121.919	-101.411	-160.480	-68.098	-87.255	-161.338	-155.917	-85.895	102.909	-158.137	-154.862	-152.164	-146.781	-32.826	-149.776	-8191	255	
2316.752	1	1	0	0	0.16101	0.13826	0.06284	0.12056	0.15967	0.20644	0.052506	0.14096	0.18547	0.074652	0.093154	0.013542	0.090098	0.23251	0.28175	0.075072	-3.2104	-3.4104	-3.0458	-3.4521	-3.2042	-3.3458	-3.5583	-3.3167	-3.4542	-3.3833	-3.2792	-3.5833	-3.3646	-3.1917	-3.5312	-3.1604	69.862	102.128	122.699	-148.971	161.196	20.256	68.578	91.690	-114.221	-171.530	50.594	-54.772	-128.087	37.669	-126.863	-82.771	0.00035731	0.0004401	0.00015819	528.66	5.4903e-06	4.5436e-06	465.12	147.4	1.8945e-06	4.4779e-06	149.37	70.105	63.887	27.13	4.3924e-06	31.501	0.00090139	0.000982	0.00027876	526.81	1.08e-05	1.0962e-05	466.2	147.1	1.0728e-05	1.1057e-05	152.25	70.982	64.636	27.245	1.0747e-05	31.953	164.580	-62.385	-89.975	-160.461	-45.404	-122.905	-161.642	-155.781	-46.233	35.510	-158.215	-155.028	-152.234	-146.841	-23.368	-150.095	-8191	255	
2316.848	1	1	0	0	0.094862	0.29592	0.26254	0.24107	0.27905	0.18099	0.10899	0.037382	0.21399	0.13444	0.16646	0.10393	0.046974	0.30244	0.19324	0.080331	-2.8542	-3.4729	-3.0333	-3.4792	-3.3937	-3.2604	-3.4875	-3.1792	-3.3542	-3.5708	-3.1896	-3.5125	-3.3542	-3.1958	-3.5354	-3.2375	12.647	-127.735	150.795	-109.310	-91.823	141.900	67.032	8.886	-62.735	44.888	148.024	134.606	41.720	-163.186	-63.189	-0.533	0.00042826	0.00071676	0.00017985	532.25	3.5097e-06	3.3491e-06	464.55	147.76	3.2688e-06	3.8485e-06	151.06	70.728	64.718	27.123	3.3042e-06	31.694	0.00090077	0.00099805	0.00027905	528.27	1.0949e-05	1.1146e-05	466.85	147.98	1.0902e-05	1.1137e-05	153.59	71.489	65.085	27.394	1.0971e-05	32.113	160.576	-105.337	-17.202	-160.181	151.473	-20.992	-161.731	-155.663	-10.222	68.474	-158.020	-154.853	-152.604	-147.010	-159.723	-149.859	-8191	255	
2316.944	1	1	0	0	0.1861	0.040145	0.14312	0.16485	0.15675	0.2931	0.23579	0.12414	0.34132	0.048533	0.15055	0.18625	0.24178	0.10648	0.089747	0.17763	-2.8625	-3.4813	-3.0521	-3.425	-3.1667	-3.1771	-3.5646	-3.2208	-3.4708	-3.4771	-3.0375	-3.3896	-3.4208	-3.1458	-3.6083	-3.3792	-152.210	0.174	183.148	-43.536	-129.798	-119.459	62.779	79.456	-59.151	-68.684	4.390	164.347	184.174	-138.049	57.960	76.750	0.00042725	0.00039768	0.00010195	533.23	3.1633e-06	2.9296e-06	472.89	147.11	6.4023e-06	5.1023e-06	150.89	71.398	64.463	27.286	5.9462e-06	31.729	0.0009275	0.0010151	0.00028692	530.93	1.0915e-05	1.1268e-05	471.28	148.03	1.0945e-05	1.1007e-05	154.24	72.064	65.261	27.515	1.1016e-05	32.34	156.723	-110.691	-150.694	-160.252	-30.479	-38.380	-161.415	-155.599	-50.893	-97.791	-158.371	-154.321	-152.573	-146.807	-57.573	-150.107	-8191	255	
2317.041	1	1	0	0	0.20308	0.1335	0.24142	0.24846	0.10842	0.22888	0.21948	0.2811	0.16683	0.26162	0.072916	0.19897	0.12668	0.21169	0.16007	0.11175	-2.6875	-3.5229	-3.0375	-3.3542	-3.3667	-3.0729	-3.5438	-3.2708	-3.2833	-3.3604	-3.1729	-3.2812	-3.4417	-3.05	-3.4083	-3.3875	171.649	137.439	-155.203	-31.916	-158.927	-107.047	55.743	119.397	26.788	-43.678	8.380	-158.854	125.015	103.907	185.029	172.525	0.00038861	0.00068013	8.2748e-05	529.79	1.764e-06	3.88e-06	470.56	147.05	2.4897e-06	1.9789e-06	149.08	70.974	64.674	27.039	5.9066e-06	31.448	0.00092071	0.0010084	0.00028053	528.76	1.0925e-05	1.0983e-05	468.14	147.57	1.0639e-05	1.1257e-05	152.61	71.498	64.894	27.249	1.0896e-05	31.941	165.644	-67.681	-114.139	-160.420	-64.512	41.826	-161.657	-155.325	-68.319	70.899	-158.324	-154.423	-152.473	-147.111	-42.009	-149.907	-8191	255	
2317.137	1	1	0	0	0.21791	0.13355	0.10861	0.24314	0.20031	0.22491	0.16274	0.29205	0.18177	0.065692	0.12924	0.19939	0.2317	0.11837	0.15317	0.21312	-2.6937	-3.2917	-3.0375	-3.3979	-3.3833	-3.125	-3.4562	-3.3396	-3.1833	-3.4292	-3.0771	-3.2167	-3.5333	-3.2208	-3.4375	-3.2687	70.782	-163.855	22.995	126.566	-134.483	106.357	153.138	112.866	-81.768	103.229	86.592	182.771	125.240	147.853	32.773	137.475	0.00035257	0.00022494	5.2137e-05	529.28	4.8535e-06	1.6202e-06	466.54	146.97	3.014e-06	2.7849e-06	150.63	71.117	64.187	27.149	2.1544e-06	31.573	0.00090008	0.0010105	0.00028074	527.05	1.0599e-05	1.1144e-05	466.56	147.46	1.0862e-05	1.1162e-05	153.37	71.67	64.946	27.386	1.0824e-05	32.041	154.779	181.965	-24.253	-160.585	34.302	-133.288	-161.527	-156.105	-124.246	37.026	-158.319	-154.708	-152.308	-146.614	-90.248	-149.732	-8191	255	
2317.233	1	1	0	0	0.097887	0.062384	0.026801	0.26993	0.12381	0.15554	0.21825	0.32364	0.078281	0.12397	0.045962	0.12474	0.21488	0.2504	0.14753	0.20119	-2.6333	-3.4938	-3.0375	-3.1937	-3.3896	-3.1271	-3.3125	-3.4688	-3.1312	-3.4875	-3.2438	-3.3708	-3.5042	-3.1688	-3.3833	-3.3667	-74.843	115.444	109.995	-166.440	-71.924	-169.963	119.167	59.815	131.186	63.567	83.596	108.391	-80.315	127.601	-48.895	-132.355	0.00050719	0.00054235	3.2423e-05	527.18	5.3561e-06	2.9927e-06	467.91	148.16	3.2159e-06	6.959e-06	152.71	70.877	64.219	27.1	2.8035e-06	31.861	0.00090955	0.0010137	0.00028178	527.96	1.0872e-05	1.1109e-05	467.77	148.42	1.0922e-05	1.1242e-05	154.3	71.959	65.221	27.411	1.1064e-05	32.318	164.409	-108.323	-157.706	-159.911	-52.403	17.387	-161.795	-155.644	-28.584	-74.026	-158.276	-154.781	-152.617	-147.078	158.154	-149.828	-8191	255	
2317.352	1	1	0	0	0.12827	0.1162	0.20972	0.1137	0.18529	0.18192	0.151	0.054075	0.082001	0.22978	0.23413	0.04649	0.063171	0.20221	0.30582	0.18727	-2.5833	-3.5354	-3.275	-3.2313	-3.4667	-3.3771	-3.4479	-3.2917	-3.15	-3.2875	-3.1833	-3.2125	-3.4917	-3.2583	-3.2583	-3.4271	64.083	-130.670	166.083	95.637	36.985	133.226	-151.687	-170.916	-35.146	27.832	-21.420	-4.789	-101.911	-128.237	119.854	135.182	0.00044469	0.0005686	8.2625e-05	529.28	6.9658e-06	2.7555e-06	469.86	148.51	2.4399e-06	3.2193e-06	152.13	71.374	64.364	27.091	4.4351e-06	31.596	0.00091915	0.0010018	0.00028077	528.65	1.0892e-05	1.1245e-05	470.1	148.43	1.0791e-05	1.1191e-05	154.44	71.923	65.051	27.345	1.0899e-05	32.002	162.414	-50.107	-43.386	-160.234	13.845	-31.886	-161.443	-155.821	-95.939	41.710	-158.387	-154.971	-152.456	-146.894	-41.211	-149.934	-8191	255	
2317.448	1	1	0	0	0.24288	0.32894	0.072509	0.099864	0.1341	0.2046	0.253	0.066753	0.078541	0.12584	0.18376	0.065447	0.16321	0.053687	0.16257	0.16608	-2.825	-3.4479	-3.1979	-3.0125	-3.3312	-3.2875	-3.2292	-3.425	-3.1604	-3.3792	-3.3625	-3.1542	-3.4979	-3.3042	-3.1854	-3.4604	-34.818	-117.038	15.404	22.215	113.404	118.007	-19.048	-31.442	165.797	-173.747	-68.244	-4.439	11.437	-69.924	142.565	-169.349	0.00034632	0.00075205	0.00010954	528.18	2.965e-06	4.72e-06	465.88	147.11	3.3873e-06	7.9134e-06	150.92	71.001	64.247	26.931	2.2943e-06	31.434	0.00090908	0.00099791	0.00028271	527.15	1.0873e-05	1.0995e-05	465.38	147.3	1.0883e-05	1.1212e-05	153.2	71.384	64.8	27.249	1.0823e-05	31.93	171.957	-106.854	-52.694	-160.394	55.154	-112.928	-161.680	-155.809	32.854	-0.820	-158.581	-155.064	-152.330	-146.609	-88.795	-149.414	-8191	255	
2317.544	1	1	0	0	0.16613	0.058462	0.18166	0.10135	0.26517	0.19547	0.16152	0.26336	0.10693	0.11502	0.16258	0.23586	0.11406	0.18604	0.14167	0.07819	-2.7292	-3.3042	-3.4229	-3.1562	-3.5271	-3.35	-3.3375	-3.5854	-3.1896	-3.2833	-3.3917	-3.3354	-3.375	-3.3521	-3.4062	-3.5083	71.224	25.709	-39.180	-7.660	177.809	-89.600	59.734	140.411	-83.918	83.751	-67.758	104.629	179.619	71.332	26.414	-122.788	0.00038481	0.00052418	4.8826e-05	525.37	2.7263e-06	5.7633e-06	466.06	147.46	2.4393e-06	7.5288e-06	151.4	71.347	63.887	26.973	3.1292e-06	31.795	0.00090924	0.00099065	0.00028071	526.35	1.0851e-05	1.115e-05	466.78	147.83	1.0747e-05	1.1231e-05	153.99	71.851	65.059	27.404	1.1024e-05	32.204	162.911	-86.637	-148.329	-160.160	61.686	-73.339	-161.581	-155.667	-95.247	-55.902	-157.941	-155.046	-152.597	-146.781	8.589	-149.931	-8191	255	
2317.640	1	1	0	0	0.24762	0.10305	0.23438	0.063754	0.17189	0.19207	0.11424	0.22069	0.11173	0.23074	0.15755	0.31416	0.14954	0.10413	0.03462	0.086731	-2.8208	-3.3563	-3.4021	-3.2417	-3.4708	-3.425	-3.1375	-3.6521	-3.0521	-3.2062	-3.5375	-3.1604	-3.4854	-3.3542	-3.1854	-3.5625	134.204	-135.723	139.871	103.715	166.841	-169.854	-5.613	-172.363	-137.541	-54.827	-172.466	-44.115	175.747	-79.852	81.245	122.841	0.00041164	0.00021312	6.8099e-05	527.96	3.5276e-06	6.3009e-06	470.69	148.62	9.7907e-07	6.962e-06	152.18	71.589	64.555	27.16	2.2903e-06	31.761	0.00091207	0.0010083	0.00028436	528.3	1.0977e-05	1.1347e-05	470.97	148.47	1.0851e-05	1.1269e-05	155.12	72.222	65.349	27.417	1.0976e-05	32.229	157.625	-119.399	-90.537	-160.391	19.101	-116.951	-161.681	-155.805	-82.387	-47.875	-157.858	-154.832	-152.683	-146.657	-44.338	-150.027	-8191	255	
2317.736	1	1	0	0	0.10977	0.17015	0.18837	0.22742	0.23791	0.32634	0.28748	0.16785	0.071816	0.074203	0.11673	0.10499	0.1483	0.21385	0.21664	0.13578	-2.8396	-3.0812	-3.3979	-3.4167	-3.4333	-3.3187	-3.3333	-3.4771	-3.1646	-3.3625	-3.5083	-3.3333	-3.5083	-3.3979	-3.2854	-3.4583	55.993	-74.821	124.781	157.443	70.625	21.996	107.417	90.215	114.710	44.291	-158.839	130.579	185.276	-4.165	-91.407	-159.117	0.00042631	0.00035523	4.827e-05	525.98	1.3546e-06	2.2216e-06	468.08	146.81	3.2956e-06	2.9849e-06	150.68	70.404	64.084	27.049	3.8044e-06	31.409	0.00092011	0.0010065	0.00028237	525.78	1.0882e-05	1.0951e-05	468.15	147.6	1.0698e-05	1.0992e-05	153.42	71.261	64.742	27.263	1.0858e-05	31.912	173.129	-98.357	-75.990	-160.379	-62.222	-25.384	-161.573	-155.661	-31.564	23.143	-157.934	-155.182	-152.692	-146.675	-76.196	-149.563	-8191	255	
2317.833	1	1	0	0	0.17153	0.1886	0.18823	0.11562	0.23138	0.12608	0.23337	0.17576	0.1411	0.25127	0.10838	0.099475	0.15661	0.20988	0.1308	0.060007	-2.8937	-3.2687	-3.5958	-3.0979	-3.3937	-3.3375	-3.2875	-3.5333	-3.325	-3.2021	-3.475	-3.0646	-3.2208	-3.5563	-3.3	-3.4875	-8.495	-168.557	85.939	86.405	140.481	68.450	123.153	122.866	176.159	33.410	46.075	125.734	150.275	174.961	-36.368	89.102	0.00044056	0.00072293	0.00015973	527.69	2.916e-06	2.9638e-06	470.01	146.84	6.5663e-06	7.5529e-06	150.66	71.061	64.205	27.126	1.916e-06	31.594	0.00090766	0.0010032	0.00027924	526.01	1.0822e-05	1.116e-05	466.65	147.39	1.0802e-05	1.1185e-05	153.54	71.566	64.91	27.397	1.0976e-05	32.172	158.259	-77.088	-75.870	-160.406	-99.478	-10.422	-161.698	-155.759	-80.547	-72.916	-158.328	-155.041	-152.162	-146.603	-155.184	-149.864	-8191	255	
2317.929	1	1	0	0	0.15362	0.17762	0.16641	0.11453	0.054808	0.11198	0.037124	0.13713	0.11584	0.10691	0.24808	0.15231	0.061758	0.075585	0.35529	0.15811	-3.0271	-3.1458	-3.6604	-3.25	-3.2188	-3.55	-3.1104	-3.4458	-3.3354	-3.1104	-3.4667	-3.2979	-3.1979	-3.4521	-3.375	-3.4583	-64.761	37.875	101.823	-120.527	158.031	-82.800	-162.043	159.688	-63.590	-108.055	88.304	80.800	150.445	-151.349	20.267	145.754	0.00040197	0.0004077	0.00010556	528.91	4.8954e-06	3.8431e-06	468.14	146.81	2.9076e-06	2.9373e-06	151.53	71.338	65.078	27.249	3.3149e-06	31.905	0.00092434	0.0010132	0.00028353	527.03	1.0873e-05	1.1322e-05	469.32	147.85	1.0826e-05	1.1248e-05	154.45	72.083	65.45	27.529	1.1116e-05	32.332	166.558	-66.237	-85.171	-160.085	-70.225	-58.172	-161.484	-155.974	-119.251	-80.837	-158.110	-154.929	-152.433	-146.758	-56.419	-149.901	-8191	255	
2318.025	1	1	0	0	0.094129	0.32531	0.20727	0.12069	0.061085	0.15775	0.067679	0.11929	0.25674	0.067767	0.11737	0.21437	0.15864	0.21869	0.14102	0.229	-3.1312	-3.0917	-3.3458	-3.3354	-3.3688	-3.6333	-3.3042	-3.3937	-3.3958	-3.1937	-3.4646	-3.1125	-3.1792	-3.6437	-3.2	-3.4208	-59.714	-82.595	-67.201	-152.429	98.449	5.308	80.262	-12.819	167.424	56.630	114.125	-104.783	179.504	82.042	42.569	-156.844	0.00040384	0.00032596	9.0697e-05	527.41	3.2585e-06	2.1791e-06	469.16	148.13	2.6319e-06	3.4365e-06	152.14	70.891	64.461	27.032	3.941e-06	31.746	0.00092173	0.0010139	0.00028591	527.27	1.0839e-05	1.1089e-05	469.97	148.16	1.0941e-05	1.1302e-05	153.92	71.652	65.192	27.374	1.0963e-05	32.015	163.862	-97.571	-112.090	-160.500	-144.629	-115.243	-161.732	-155.759	-22.610	-78.212	-157.814	-154.609	-152.296	-146.793	-82.943	-150.123	-8191	255	
2318.145	1	1	0	0	0.091314	0.12814	0.21637	0.1866	0.11758	0.30508	0.20358	0.20919	0.056697	0.027205	0.051162	0.13421	0.25452	0.12499	0.19964	0.071256	-3.0729	-3.225	-3.3812	-3.3771	-3.2896	-3.4375	-3.2687	-3.1667	-3.3417	-3.1562	-3.3625	-3.3375	-3.1583	-3.6042	-3.2333	-3.3292	65.566	143.708	-151.003	128.611	163.413	-41.272	148.673	68.973	88.082	83.712	-84.866	-96.658	-126.223	175.483	144.233	180.677	0.00041381	0.00018795	6.5075e-05	527.73	3.1649e-06	5.616e-06	467.08	147.62	3.9377e-06	4.5463e-06	149.25	71.158	64.617	27.13	3.9075e-06	31.279	0.00090569	0.00099421	0.0002821	526.44	1.0957e-05	1.108e-05	466.01	147.64	1.0811e-05	1.1079e-05	153.03	71.415	65.043	27.316	1.0884e-05	31.956	172.032	-93.959	137.065	-160.433	-28.876	-101.910	-161.488	-155.730	-66.836	-53.767	-158.295	-154.917	-152.357	-146.792	-76.503	-150.244	-8191	255	
2318.217	1	1	0	0	0.059826	0.098552	0.15456	0.091604	0.19333	0.16641	0.09853	0.1531	0.19665	0.038223	0.16001	0.18783	0.14324	0.1019	0.019996	0.09247	-3.1021	-3.1458	-3.4417	-3.3563	-3.3083	-3.6271	-3.25	-3.2958	-3.6083	-3.3292	-3.25	-3.4375	-3.2625	-3.4208	-3.1458	-3.3312	-81.207	-39.863	72.671	-111.053	-73.728	0.415	-143.141	-169.811	109.344	13.296	-117.129	-140.824	62.818	-30.998	-25.534	-71.865	0.00043854	0.00066011	0.00012683	527.83	5.7719e-06	4.5924e-06	466.89	148	2.2051e-06	2.5154e-06	150.28	71.299	64.866	27.245	3.0152e-06	31.823	0.00091835	0.0010024	0.00028133	526.42	1.0819e-05	1.1332e-05	467.36	148.03	1.0909e-05	1.1215e-05	154.1	71.814	65.464	27.463	1.0991e-05	32.267	171.919	-107.824	-48.718	-160.280	-102.200	51.604	-161.531	-155.469	-55.455	31.265	-157.985	-154.825	-152.508	-147.106	3.196	-149.678	-8191	255	
2318.313	1	1	0	0	0.13931	0.22846	0.20086	0.087307	0.021864	0.18588	0.33381	0.19574	0.29354	0.23633	0.090644	0.14838	0.15248	0.09929	0.23478	0.22419	-3.1042	-3.1417	-3.2208	-3.3958	-3.1021	-3.4458	-3.3438	-3.3333	-3.4458	-3.175	-3.4	-3.4625	-3.1771	-3.4542	-3.2208	-3.2271	144.565	180.709	10.040	149.104	-106.425	-97.723	170.110	-51.621	-3.873	156.751	-23.000	80.173	140.830	166.646	-149.157	69.580	0.00041074	0.00067778	8.1877e-05	528.82	5.7532e-06	6.8848e-06	469.74	148.57	1.9719e-06	3.9564e-06	151.72	71.632	64.973	27.219	1.9363e-06	31.671	0.0009139	0.0010168	0.00028587	526.81	1.0865e-05	1.1254e-05	469.85	148.62	1.0828e-05	1.1255e-05	154.92	72.266	65.421	27.449	1.087e-05	32.147	169.663	-72.863	-149.507	-160.418	-31.846	-7.294	-161.371	-155.504	-25.996	-69.068	-158.128	-154.930	-152.595	-146.825	-62.168	-149.591	-8191	255	
#DATA ENDS
