BOXY.EXE: ISS Imagent and Oximeter Data Acquisition Program Version 0.80
Ascii Record File

#ACQ INFORMATION
2  Detector Channels 
16  External MUX Channels 
1  Auxiliary Channels 
5000  Waveform (CCF) Frequency (Hz)
1  Waveforms Skipped 
30  Waveforms Averaged 
1  Cycles Averaged 
16  Acquisitions per Waveform 
10.0806  Updata Rate (Hz) 

#FILE INFORMATION
TRUE -- External MUX Channel results are PARSED.
FALSE -- AC DC and Phase are NOT grouped.
TRUE -- Companion Program Settings File CREATED.
FALSE -- AC data not excluded
FALSE -- DC data not excluded
FALSE -- Phase data not excluded
FALSE -- Auxillary Chn. data not excluded
Tab delimiters

#CALIBRATION STATE
TRUE -- Waveform Calibration Values APPLIED.


#AUX CALIBRATION VALUES
Val Type	aux-1	

Term	1.0000e+00	
Factor	0.0000e+00	


#WF CALIBRATION VALUES
A = Detector Channel
Val Type	A-AC1	A-AC2	A-AC3	A-AC4	A-AC5	A-AC6	A-AC7	A-AC8	A-AC9	A-AC10	A-AC11	A-AC12	A-AC13	A-AC14	A-AC15	A-AC16	A-DC1	A-DC2	A-DC3	A-DC4	A-DC5	A-DC6	A-DC7	A-DC8	A-DC9	A-DC10	A-DC11	A-DC12	A-DC13	A-DC14	A-DC15	A-DC16	A-Ph1	A-Ph2	A-Ph3	A-Ph4	A-Ph5	A-Ph6	A-Ph7	A-Ph8	A-Ph9	A-Ph10	A-Ph11	A-Ph12	A-Ph13	A-Ph14	A-Ph15	A-Ph16	

Term	0.00000e+00	0.00000e+00	0.00000e+00	0.00000e+00	0.00000e+00	0.00000e+00	0.00000e+00	0.00000e+00	0.00000e+00	0.00000e+00	0.00000e+00	0.00000e+00	0.00000e+00	0.00000e+00	0.00000e+00	0.00000e+00	0.00000e+00	0.00000e+00	0.00000e+00	0.00000e+00	0.00000e+00	0.00000e+00	0.00000e+00	0.00000e+00	0.00000e+00	0.00000e+00	0.00000e+00	0.00000e+00	0.00000e+00	0.00000e+00	0.00000e+00	0.00000e+00	0.00000e+00	0.00000e+00	0.00000e+00	0.00000e+00	0.00000e+00	0.00000e+00	0.00000e+00	0.00000e+00	0.00000e+00	0.00000e+00	0.00000e+00	0.00000e+00	0.00000e+00	0.00000e+00	0.00000e+00	0.00000e+00	
Factor	1.00000e+00	1.00000e+00	1.00000e+00	1.00000e+00	1.00000e+00	1.00000e+00	1.00000e+00	1.00000e+00	1.00000e+00	1.00000e+00	1.00000e+00	1.00000e+00	1.00000e+00	1.00000e+00	1.00000e+00	1.00000e+00	1.00000e+00	1.00000e+00	1.00000e+00	1.00000e+00	1.00000e+00	1.00000e+00	1.00000e+00	1.00000e+00	1.00000e+00	1.00000e+00	1.00000e+00	1.00000e+00	1.00000e+00	1.00000e+00	1.00000e+00	1.00000e+00	X	X	X	X	X	X	X	X	X	X	X	X	X	X	X	X	

B = Detector Channel
Val Type	B-AC1	B-AC2	B-AC3	B-AC4	B-AC5	B-AC6	B-AC7	B-AC8	B-AC9	B-AC10	B-AC11	B-AC12	B-AC13	B-AC14	B-AC15	B-AC16	B-DC1	B-DC2	B-DC3	B-DC4	B-DC5	B-DC6	B-DC7	B-DC8	B-DC9	B-DC10	B-DC11	B-DC12	B-DC13	B-DC14	B-DC15	B-DC16	B-Ph1	B-Ph2	B-Ph3	B-Ph4	B-Ph5	B-Ph6	B-Ph7	B-Ph8	B-Ph9	B-Ph10	B-Ph11	B-Ph12	B-Ph13	B-Ph14	B-Ph15	B-Ph16	

Term	0.00000e+00	0.00000e+00	0.00000e+00	0.00000e+00	0.00000e+00	0.00000e+00	0.00000e+00	0.00000e+00	0.00000e+00	0.00000e+00	0.00000e+00	0.00000e+00	0.00000e+00	0.00000e+00	0.00000e+00	0.00000e+00	0.00000e+00	0.00000e+00	0.00000e+00	0.00000e+00	0.00000e+00	0.00000e+00	0.00000e+00	0.00000e+00	0.00000e+00	0.00000e+00	0.00000e+00	0.00000e+00	0.00000e+00	0.00000e+00	0.00000e+00	0.00000e+00	5.86631e+01	-1.56400e+02	-1.26551e+02	-1.83880e+02	-1.09246e+02	-7.56946e+01	-1.56632e+02	-1.62015e+02	-4.97451e+01	-9.07007e+01	-1.74091e+02	-1.74047e+02	-1.85978e+02	-1.78374e+02	-8.62442e+01	-1.51155e+02	
Factor	5.26311e-05	1.61735e-04	4.04003e-05	1.79766e-01	1.77941e-06	1.50208e-06	1.73528e-01	5.90053e-02	1.98371e-06	1.52351e-06	1.02683e-01	2.97751e-02	5.44086e-02	8.92468e-03	1.82445e-06	1.29180e-02	1.91554e-06	2.01426e-06	5.61593e-07	8.71805e-02	2.19587e-08	2.21199e-08	7.97260e-02	2.86352e-02	2.18545e-08	2.20121e-08	4.81154e-02	1.39628e-02	2.54592e-02	4.34647e-03	2.18729e-08	6.10577e-03	X	X	X	X	X	X	X	X	X	X	X	X	X	X	X	X	



#DISTANCE SETTINGS
A = Detector Channel
A-1	A-2	A-3	A-4	A-5	A-6	A-7	A-8	A-9	A-10	A-11	A-12	A-13	A-14	A-15	A-16	

2.5000e+00	3.0000e+00	2.5000e+00	3.0000e+00	2.0000e+00	3.0000e+00	1.5000e+00	3.0000e+00	3.0000e+00	3.0000e+00	3.0000e+00	3.0000e+00	3.0000e+00	3.0000e+00	1.5000e+00	3.0000e+00	

B = Detector Channel
B-1	B-2	B-3	B-4	B-5	B-6	B-7	B-8	B-9	B-10	B-11	B-12	B-13	B-14	B-15	B-16	

1.0000e+01	1.0000e+01	1.0000e+01	1.4400e+00	1.0000e+01	1.0000e+01	1.5100e+00	1.9400e+00	1.0000e+01	1.0000e+01	1.9900e+00	2.4900e+00	2.4100e+00	2.9000e+00	1.0000e+01	2.9800e+00	




#DATA BEGINS
time	group	step	mark	flag	A-AC1	A-AC2	A-AC3	A-AC4	A-AC5	A-AC6	A-AC7	A-AC8	A-AC9	A-AC10	A-AC11	A-AC12	A-AC13	A-AC14	A-AC15	A-AC16	A-DC1	A-DC2	A-DC3	A-DC4	A-DC5	A-DC6	A-DC7	A-DC8	A-DC9	A-DC10	A-DC11	A-DC12	A-DC13	A-DC14	A-DC15	A-DC16	A-Ph1	A-Ph2	A-Ph3	A-Ph4	A-Ph5	A-Ph6	A-Ph7	A-Ph8	A-Ph9	A-Ph10	A-Ph11	A-Ph12	A-Ph13	A-Ph14	A-Ph15	A-Ph16	B-AC1	B-AC2	B-AC3	B-AC4	B-AC5	B-AC6	B-AC7	B-AC8	B-AC9	B-AC10	B-AC11	B-AC12	B-AC13	B-AC14	B-AC15	B-AC16	B-DC1	B-DC2	B-DC3	B-DC4	B-DC5	B-DC6	B-DC7	B-DC8	B-DC9	B-DC10	B-DC11	B-DC12	B-DC13	B-DC14	B-DC15	B-DC16	B-Ph1	B-Ph2	B-Ph3	B-Ph4	B-Ph5	B-Ph6	B-Ph7	B-Ph8	B-Ph9	B-Ph10	B-Ph11	B-Ph12	B-Ph13	B-Ph14	B-Ph15	B-Ph16	aux-1	digaux	

496.446	1	1	0	256	0.095986	0.027192	0.29445	0.13403	0.054074	0.19667	0.077138	0.31964	0.10101	0.20573	0.28351	0.08528	0.10512	0.16879	0.10073	0.26027	-3.5667	-3.4562	-3.7479	-3.975	-3.4854	-3.9542	-3.9604	-3.4729	-3.9667	-3.5771	-3.7271	-4.0021	-3.4917	-3.9625	-3.8354	-3.6562	188.760	173.274	-52.817	171.249	230.129	-68.489	167.477	193.913	26.224	41.971	181.416	-96.718	76.721	195.771	-34.357	93.350	0.00082106	0.0009879	0.00012334	1347.8	7.1681e-06	5.5093e-06	1354.8	364.77	7.4542e-06	5.5153e-06	415.2	136.6	116.83	40.669	1.8473e-06	50.492	0.00061077	0.0005519	0.00014382	1371.2	6.6088e-06	6.0079e-06	1375.1	372.63	6.5995e-06	5.9525e-06	423.59	140.34	119.6	41.844	5.6905e-06	52.193	34.418	-15.823	16.104	-105.667	57.401	23.571	-106.122	-101.323	37.576	15.818	-101.653	-97.352	-97.398	-92.089	-19.072	-93.038	-8191	255	
496.543	1	1	0	0	0.13591	0.23453	0.12835	0.16847	0.093598	0.062935	0.16081	0.17053	0.20441	0.059222	0.13153	0.24386	0.14776	0.18403	0.16304	0.14965	-3.5521	-3.5687	-3.6312	-3.9062	-3.5521	-3.8833	-3.9021	-3.6688	-3.7896	-3.6271	-3.8125	-3.9917	-3.5771	-3.775	-3.8917	-3.3896	-39.728	-46.722	-101.670	192.178	85.016	79.567	196.942	167.606	234.115	148.248	176.902	235.686	210.068	196.060	-103.923	185.529	0.00070759	0.001235	6.8071e-05	1349.7	4.9534e-06	6.3076e-06	1355.5	365.38	7.8552e-06	7.1943e-06	415.51	136.52	116.35	40.665	4.5158e-06	50.555	0.00057809	0.00053288	0.00014632	1372	6.2702e-06	5.833e-06	1376.2	373.17	6.2092e-06	5.7334e-06	423.98	140.41	119.33	41.756	5.8709e-06	52.227	36.320	-80.439	-97.778	-105.755	42.232	16.299	-106.123	-101.287	19.245	-21.594	-101.650	-97.374	-97.347	-92.141	83.044	-93.178	-8191	255	
496.639	1	1	0	0	0.099923	0.047334	0.14202	0.20003	0.11894	0.20609	0.091813	0.23046	0.042562	0.18682	0.15672	0.1653	0.072623	0.17702	0.12513	0.19186	-3.5125	-3.6104	-3.5958	-4.1083	-3.5292	-3.5708	-3.8958	-3.5979	-3.8375	-3.6104	-3.5	-3.925	-3.4396	-3.7812	-3.8937	-3.4833	95.243	52.168	-103.219	1.671	93.059	178.152	185.363	193.482	-110.303	-2.419	211.181	153.676	19.173	216.983	226.119	-48.867	0.00087564	0.00095555	5.0493e-05	1349.7	7.4082e-06	9.4801e-06	1357.6	365.83	4.8452e-06	5.4152e-06	416.74	136.8	116.04	40.777	2.3309e-07	50.293	0.00055769	0.00051449	0.00015322	1372.4	6.0267e-06	5.6736e-06	1376.2	373.49	5.9906e-06	5.6349e-06	424.49	140.24	119.17	41.81	6.2884e-06	52.221	26.516	-71.172	18.516	-105.752	-76.381	24.909	-106.099	-101.366	63.388	-5.623	-101.760	-97.241	-97.190	-92.446	-10.353	-92.972	-8191	255	
496.758	1	1	0	0	0.24055	0.070292	0.20658	0.25893	0.10535	0.22694	0.020778	0.15781	0.084824	0.21023	0.10475	0.12073	0.21732	0.29212	0.11099	0.062975	-3.3542	-3.7562	-3.5417	-4.1604	-3.6375	-3.475	-4.0521	-3.5938	-3.6875	-3.7542	-3.7854	-4.1146	-3.7438	-3.8187	-3.9354	-3.6188	101.731	-112.374	3.086	222.395	42.197	-7.848	24.252	194.577	184.570	-61.864	-85.734	-114.077	193.562	-108.610	-52.601	181.290	0.00089169	0.0009987	0.00028104	1352.5	9.4408e-06	1.4151e-06	1349.8	364.93	5.2367e-06	1.5282e-06	416.88	136.86	116.43	40.556	7.094e-06	50.319	0.00054518	0.00051537	0.00016474	1370.9	5.9213e-06	5.6626e-06	1374.3	372.62	5.8525e-06	5.595e-06	425.96	140.01	118.76	41.768	6.4876e-06	52.011	26.769	27.480	4.312	-105.710	-17.527	104.955	-106.059	-101.037	6.174	91.255	-101.883	-97.373	-96.939	-92.254	12.400	-92.931	-8191	255	
496.829	1	1	0	0	0.07621	0.23569	0.13777	0.31337	0.14525	0.21141	0.3666	0.28077	0.02017	0.088528	0.15799	0.082699	0.073168	0.062727	0.23878	0.24821	-3.3583	-3.7708	-3.4313	-4.1104	-3.7188	-3.625	-4.0125	-3.6604	-3.5646	-3.9437	-3.6625	-3.9792	-3.6604	-3.75	-3.9542	-3.5479	0.262	-101.322	124.835	229.623	133.968	46.088	-106.111	141.403	217.061	14.387	225.774	160.389	184.411	-72.457	-107.925	140.047	0.00083955	0.00039925	5.4852e-05	1351.2	2.3816e-06	1.8318e-06	1350.6	364.5	6.5982e-06	2.5379e-06	415.01	136.21	116.58	40.652	2.7991e-06	50.584	0.00053046	0.00052397	0.00016897	1370.2	5.6851e-06	5.8465e-06	1375.9	371.85	5.5997e-06	5.8263e-06	424.84	139.72	118.57	41.784	6.3733e-06	52.023	24.759	5.272	6.884	-105.746	-29.065	29.670	-106.199	-101.269	-18.113	44.889	-101.714	-97.477	-96.913	-92.357	55.295	-92.963	-8191	255	
496.925	1	1	0	0	0.062307	0.078609	0.12988	0.26186	0.12571	0.24875	0.15847	0.018792	0.094753	0.12438	0.078063	0.1912	0.12907	0.11853	0.15927	0.11243	-3.2188	-3.9042	-3.4792	-3.9188	-3.8083	-3.6125	-4.1167	-3.6813	-3.6604	-3.9729	-3.4104	-3.8375	-3.8812	-3.7146	-3.8167	-3.7812	38.553	114.637	51.898	228.704	96.203	57.324	125.556	-100.075	178.188	115.636	221.500	196.681	-61.886	86.780	175.732	127.040	0.00084985	0.00061918	0.0001265	1349.5	1.7849e-06	2.8431e-06	1352.8	365.51	4.8918e-06	1.1885e-06	416.92	136.89	115.99	40.586	1.4522e-05	50.545	0.00050534	0.00055132	0.00016204	1367.2	5.4324e-06	6.0653e-06	1378.4	372.19	5.4878e-06	6.1614e-06	425.1	139.81	118.39	41.864	6.235e-06	52.016	21.380	-49.332	-82.879	-105.666	-79.750	110.929	-106.005	-101.225	-82.420	30.674	-101.623	-97.452	-97.195	-92.393	-4.698	-92.985	-8191	255	
497.022	1	1	0	0	0.033402	0.047049	0.26936	0.10966	0.098644	0.03666	0.22781	0.12256	0.16426	0.03491	0.17078	0.062103	0.12342	0.18495	0.31728	0.12578	-3.1875	-3.8979	-3.4167	-3.8625	-3.8708	-3.5	-4.0813	-3.7229	-3.6417	-4.0333	-3.5875	-3.8021	-3.7583	-3.5125	-3.9792	-3.7479	236.366	186.229	46.039	199.234	-51.365	149.637	153.840	98.127	153.874	-50.256	-61.544	10.616	-93.049	125.742	224.814	-86.860	0.00081052	0.00062223	0.00018849	1354.1	6.1914e-06	2.0969e-06	1358	365.57	5.1132e-06	3.9994e-06	416.37	136.64	117.11	40.756	1.883e-06	50.768	0.00051392	0.00058787	0.00015794	1370.1	5.6286e-06	6.5321e-06	1379	371.93	5.6828e-06	6.5503e-06	425.22	139.86	119.09	41.977	6.0464e-06	52.04	18.387	20.732	-27.847	-105.855	1.354	-62.948	-105.961	-101.388	33.047	41.577	-101.859	-97.551	-97.087	-92.283	7.218	-93.047	-8191	255	
497.142	1	1	0	0	0.15026	0.16087	0.14187	0.3247	0.13267	0.19955	0.21659	0.30674	0.22923	0.32408	0.26529	0.039543	0.29828	0.32362	0.12695	0.1244	-3.1771	-3.8625	-3.6667	-3.8292	-4.0083	-3.6125	-4.0917	-3.7771	-3.5458	-4.0062	-3.6896	-3.6542	-3.9896	-3.4771	-3.8167	-3.8563	-76.835	-34.517	-6.688	-97.992	133.679	2.713	129.533	-104.709	133.591	208.907	179.073	183.823	240.395	-73.760	195.964	195.687	0.00092727	0.00039523	0.00017467	1355.1	6.9653e-06	2.8142e-06	1356.5	365.77	9.7008e-06	6.0296e-06	416.54	136.64	115.84	40.785	3.3156e-06	50.387	0.00054859	0.00061183	0.00015418	1371.3	6.0565e-06	6.6856e-06	1378.4	372.37	6.1483e-06	6.573e-06	424.96	139.78	119.28	41.955	5.8618e-06	51.927	24.662	-90.955	-31.780	-105.697	233.417	50.082	-106.223	-101.192	-22.466	41.583	-101.805	-97.211	-97.161	-92.160	47.427	-93.000	-8191	255	
497.238	1	1	0	0	0.15675	0.13252	0.020592	0.1076	0.30227	0.13501	0.095779	0.23196	0.12733	0.15106	0.10404	0.21011	0.13137	0.3149	0.1004	0.19149	-2.9125	-3.7687	-3.3792	-3.6688	-3.8917	-3.4688	-3.7479	-3.8896	-3.5083	-3.9167	-3.7083	-3.5625	-4.1396	-3.6167	-3.7083	-3.8375	-41.174	65.374	-8.140	197.875	182.164	60.454	191.586	239.709	-89.996	83.444	137.087	213.868	52.938	235.057	162.113	197.707	0.00072176	0.00082419	0.00020292	1347.2	8.962e-08	5.6569e-06	1356.9	364.63	1.0021e-05	2.4545e-06	415.69	136.91	116.9	40.629	9.4191e-06	50.575	0.00057723	0.00059125	0.00014866	1367.6	6.3359e-06	6.3479e-06	1374.9	371.75	6.3163e-06	6.1726e-06	423.71	139.63	119.73	41.825	5.6914e-06	51.928	26.181	-42.768	-64.332	-105.678	64.398	32.404	-106.289	-101.100	-68.522	-61.365	-101.647	-97.595	-96.732	-92.072	-4.373	-92.828	-8191	255	
497.334	1	1	0	0	0.20692	0.093224	0.040699	0.15321	0.071145	0.13046	0.10803	0.14083	0.1569	0.10434	0.44808	0.12378	0.21374	0.074324	0.17125	0.13219	-3.1292	-3.7417	-3.5625	-3.6896	-3.7771	-3.5542	-3.7917	-3.9979	-3.5729	-3.925	-3.7708	-3.8688	-3.8271	-3.7562	-3.6875	-3.9625	87.633	-2.905	-1.705	-110.274	234.233	107.780	-115.039	-101.562	124.326	109.529	191.393	-116.422	160.394	39.968	40.115	19.659	0.00078423	0.00066547	0.00023212	1351.1	5.1523e-06	5.5088e-06	1353.5	366.69	1.0367e-05	3.7588e-06	417.44	137.48	116.21	40.733	5.3016e-06	50.557	0.00060247	0.00056196	0.00014741	1372.4	6.6505e-06	6.1994e-06	1377.2	373.3	6.6808e-06	6.1559e-06	424.24	140.54	120.3	41.964	5.7804e-06	52.155	22.969	-33.157	-15.748	-105.666	-24.185	-5.050	-106.159	-101.279	-24.505	5.052	-101.677	-97.589	-96.884	-91.945	35.866	-92.766	-8191	255	
497.431	1	1	0	0	0.11853	0.13183	0.15221	0.24494	0.12684	0.080917	0.12308	0.21057	0.32252	0.15093	0.19848	0.2614	0.05436	0.060591	0.32856	0.32217	-3.1229	-3.6896	-3.6875	-3.7854	-3.7854	-3.65	-3.6833	-3.9646	-3.4292	-3.9479	-3.8479	-3.6979	-3.9708	-3.5917	-3.5854	-3.9708	-71.298	229.715	83.814	231.090	-36.061	-97.544	115.179	-113.344	-20.086	-104.417	-10.449	155.353	183.541	-110.562	-15.127	173.903	0.00080294	0.0006724	0.00012332	1357.6	2.6073e-06	4.6282e-06	1357.6	366.65	1.0188e-05	5.8801e-06	417.85	137.11	116.47	40.755	6.4968e-06	50.547	0.00062229	0.00056666	0.00014868	1376.2	6.7442e-06	6.1301e-06	1376.9	374.02	6.6299e-06	6.0587e-06	425.43	140.6	120.09	41.883	5.7528e-06	52.254	30.408	-43.321	38.363	-105.870	-86.008	32.967	-106.114	-101.353	129.862	38.433	-101.771	-97.513	-97.242	-91.988	-3.868	-92.973	-8191	255	
497.527	1	1	0	0	0.2065	0.032897	0.13644	0.24904	0.21651	0.16674	0.060914	0.19874	0.11931	0.19592	0.12995	0.11379	0.20336	0.12119	0.2564	0.22745	-3.175	-3.7938	-3.7125	-3.675	-3.8917	-3.6479	-3.9083	-3.9542	-3.6167	-3.8646	-4.0354	-3.8583	-3.7438	-3.7271	-3.5833	-3.9521	-87.893	133.571	185.081	227.077	143.225	-27.671	95.831	201.193	49.518	180.922	173.801	-87.628	226.815	-84.295	-80.275	196.851	0.00073372	0.00095546	2.8919e-05	1352.9	2.3862e-06	6.7214e-06	1359.2	366.37	6.8917e-06	7.2334e-06	418.78	137.38	116.95	40.71	4.9625e-06	50.729	0.00061091	0.00055465	0.0001496	1377.6	6.5632e-06	6.0648e-06	1380.5	374.18	6.4624e-06	6.0313e-06	426.05	140.95	120.05	41.936	6.0007e-06	52.43	29.019	-63.943	33.831	-105.795	-117.439	-28.436	-106.054	-101.003	44.395	25.779	-101.655	-97.295	-97.119	-92.207	-62.124	-92.884	-8191	255	
497.623	1	1	0	0	0.13019	0.16336	0.12379	0.078029	0.081545	0.080749	0.19509	0.061355	0.031974	0.28782	0.15631	0.18204	0.21973	0.2697	0.28585	0.054744	-3.2646	-3.7062	-3.7687	-3.8271	-3.8792	-3.7812	-3.7021	-4.0417	-3.5208	-3.5958	-4.0312	-3.7417	-3.9229	-3.8646	-3.6583	-4.0625	14.340	99.274	108.584	6.093	236.773	10.833	127.239	148.266	-1.964	216.865	-101.971	-108.858	-105.559	190.827	-16.560	218.131	0.00064017	0.00038236	0.00017848	1358.4	9.654e-06	4.929e-06	1355.2	365.81	7.2466e-06	1.0059e-05	416.17	137.13	116.27	40.725	6.8007e-06	50.837	0.00058251	0.00053761	0.00015399	1379.6	6.2099e-06	5.7365e-06	1380.5	374.05	6.1561e-06	5.743e-06	426.41	140.77	119.75	41.859	6.438e-06	52.325	21.942	-65.071	-5.321	-105.914	-35.113	23.868	-105.959	-101.067	-24.555	9.043	-101.408	-97.463	-96.907	-92.075	-114.489	-93.016	-8191	255	
497.744	1	1	0	0	0.10635	0.070061	0.14416	0.33907	0.06984	0.16284	0.062857	0.15972	0.079461	0.181	0.12618	0.037824	0.13582	0.24273	0.0026789	0.026103	-3.2896	-3.7208	-3.7833	-3.6604	-3.8896	-3.7354	-3.725	-3.8812	-3.5312	-3.6792	-4.0792	-3.4417	-3.8104	-3.9458	-3.6542	-4.0479	203.680	18.947	224.927	219.250	-101.405	176.828	79.572	208.062	9.010	-93.949	144.772	226.196	137.351	-113.916	91.151	145.541	0.00062642	0.0012735	4.4666e-05	1357.6	6.825e-06	3.7979e-06	1358.6	366.89	4.3435e-06	3.5895e-06	417.66	136.66	116.38	40.742	7.055e-06	50.561	0.00057301	0.00053938	0.00016962	1381	6.2244e-06	5.8514e-06	1383.5	374.28	6.0596e-06	5.8296e-06	427.13	140.46	119.63	41.867	6.6131e-06	52.264	19.982	-66.154	-111.148	-105.779	-22.663	-41.993	-106.228	-101.072	74.316	60.501	-101.674	-97.568	-97.222	-92.236	42.493	-93.036	-8191	255	
497.840	1	1	0	0	0.16038	0.17862	0.04014	0.17338	0.3014	0.19472	0.19408	0.29529	0.23006	0.079763	0.10679	0.27412	0.28525	0.18739	0.12819	0.18611	-3.2396	-3.5958	-3.725	-3.7104	-3.6896	-3.8646	-3.6833	-3.8771	-3.7479	-3.575	-3.9313	-3.6083	-3.8063	-4.0792	-3.6562	-4.0125	131.564	-34.220	59.920	207.653	158.672	76.205	202.503	195.753	-53.996	55.089	170.558	167.017	141.526	-102.038	183.485	145.546	0.00074478	0.00074396	2.1532e-05	1361.3	7.718e-06	1.492e-06	1357.6	366.26	5.0257e-06	2.6657e-06	417.99	136.99	116.71	40.736	1.5876e-06	50.583	0.00054778	0.00053527	0.00017033	1376.4	5.9352e-06	5.8781e-06	1382.6	373.47	5.7944e-06	5.9604e-06	427.84	140.17	118.98	41.886	6.5841e-06	52.159	31.318	-84.825	-82.396	-105.837	-22.230	37.873	-106.042	-101.003	-26.729	-43.942	-101.547	-97.521	-96.954	-92.220	129.930	-92.853	-8191	255	
497.934	1	1	0	0	0.19021	0.1532	0.20622	0.14748	0.093138	0.11988	0.14262	0.011779	0.06742	0.16498	0.23872	0.3445	0.17352	0.22343	0.15307	0.078817	-3.35	-3.5417	-3.8292	-3.7354	-3.6583	-3.8583	-3.6625	-4.1667	-3.8396	-3.7792	-4.1583	-3.7146	-3.9229	-4.0583	-3.3875	-3.8625	43.535	183.507	-76.532	149.475	187.114	54.172	-109.668	30.532	-42.866	98.081	147.207	207.166	239.107	211.603	223.196	16.775	0.00085748	0.00093035	8.3164e-05	1358.1	7.0549e-06	7.7336e-07	1361.7	366.48	2.6826e-06	3.5234e-06	417.57	137.42	116.69	40.728	2.9443e-06	50.612	0.00052546	0.00055822	0.00016814	1374.8	5.6768e-06	6.1486e-06	1383.6	373.21	5.6604e-06	6.298e-06	427.39	140.55	119.26	41.98	6.5034e-06	52.166	32.168	-74.452	-8.071	-105.697	96.493	6.424	-106.177	-101.227	92.244	-1.379	-101.356	-97.742	-97.305	-92.188	-57.565	-92.911	-8191	255	
498.030	1	1	0	0	0.036631	0.12629	0.18326	0.16562	0.12457	0.18425	0.15754	0.22715	0.15405	0.11732	0.16339	0.048233	0.20049	0.099052	0.14098	0.18449	-3.3438	-3.4958	-3.7604	-3.7771	-3.6792	-3.85	-3.5708	-3.8917	-3.775	-3.5917	-3.825	-3.7146	-3.5312	-3.9771	-3.5396	-3.9083	-37.900	239.164	-89.520	156.400	197.161	145.620	213.795	197.318	66.714	136.478	148.882	-107.106	59.964	-65.809	178.721	-111.027	0.00087485	0.00037707	8.0799e-05	1361	1.8264e-06	2.7217e-06	1361.4	366.89	4.1219e-06	2.1906e-06	418.03	137.24	116.67	40.825	2.3704e-06	50.677	0.00052199	0.00059252	0.00016489	1377.5	5.6301e-06	6.555e-06	1384	373.34	5.7588e-06	6.6026e-06	426.51	140.32	119.38	42.101	6.2748e-06	52.157	25.369	-67.038	-77.105	-105.844	-5.167	49.929	-106.028	-101.107	-95.815	-42.144	-101.546	-97.401	-97.397	-92.190	-78.123	-93.080	-8191	255	
498.126	1	1	0	0	0.07287	0.15161	0.14495	0.11635	0.281	0.16426	0.17463	0.29239	0.10475	0.12188	0.14202	0.20097	0.0056343	0.14862	0.20666	0.14151	-3.6042	-3.3479	-3.7021	-3.9229	-3.5833	-3.9125	-3.7583	-3.7146	-4.0042	-3.5354	-3.9813	-3.7958	-3.6521	-4.2208	-3.4875	-3.9771	20.024	69.252	-92.672	-82.161	157.391	201.952	183.414	137.827	105.453	-110.787	227.669	-115.152	169.798	132.220	-96.462	-103.637	0.00076853	0.00024078	0.00014518	1356.5	3.1143e-06	8.7683e-06	1355.7	368.22	5.9076e-06	1.1023e-05	417.87	137.39	116.65	40.731	8.9607e-06	50.508	0.00054452	0.00061704	0.00015901	1375.3	6.0059e-06	6.7697e-06	1380.7	373.32	6.0415e-06	6.746e-06	425.76	140.18	119.77	42.05	6.1162e-06	52.094	25.329	-97.530	-32.099	-105.807	39.487	3.866	-106.166	-101.286	-46.200	35.703	-101.774	-97.337	-97.224	-92.225	0.026	-92.977	-8191	255	
498.223	1	1	0	0	0.13635	0.057352	0.26755	0.2541	0.080642	0.26659	0.30301	0.22862	0.27675	0.047531	0.18915	0.086118	0.014848	0.16127	0.12309	0.12222	-3.35	-3.4729	-3.6833	-3.9437	-3.5187	-3.9354	-3.8063	-3.8354	-3.7896	-3.5208	-3.9813	-3.8438	-3.5542	-3.9354	-3.5646	-3.7771	142.498	208.819	171.769	218.062	-46.285	27.262	171.867	186.447	43.748	122.317	166.600	46.117	63.123	-84.154	96.524	113.224	0.00091716	0.00022309	9.4483e-05	1360	2.6679e-06	4.4963e-06	1362.3	367.11	3.7745e-06	7.1604e-06	418.39	137.04	116.81	40.869	9.0529e-06	50.487	0.00058194	0.00061714	0.00015688	1377	6.4473e-06	6.6477e-06	1382.3	373.25	6.5613e-06	6.6202e-06	426.04	140.26	120.38	42.106	6.0115e-06	52.085	27.589	-72.934	11.287	-105.691	149.841	-63.774	-106.100	-101.393	-62.405	57.767	-101.858	-97.604	-97.580	-92.171	16.036	-92.987	-8191	255	
498.319	1	1	0	0	0.090527	0.023866	0.20377	0.13673	0.030569	0.047835	0.2673	0.20091	0.17654	0.16995	0.16534	0.072931	0.11983	0.44987	0.045776	0.11543	-3.5417	-3.4896	-3.8187	-3.8354	-3.5417	-4.15	-3.7875	-3.7938	-4.0146	-3.7625	-3.9292	-3.7812	-3.6792	-4.0896	-3.8104	-3.6083	39.069	57.312	-91.966	-95.765	58.056	200.065	177.432	143.749	-28.185	7.895	-53.373	83.995	150.030	202.155	-30.468	135.900	0.0007413	0.00082779	0.00026441	1354.2	3.0021e-06	5.3808e-06	1360.2	366.99	8.0346e-06	2.4452e-06	418.43	137.21	116.12	40.648	5.3663e-06	50.496	0.00061169	0.00059456	0.00015212	1376.3	6.8227e-06	6.4632e-06	1382.5	373.64	6.781e-06	6.2456e-06	426.23	140.57	120.32	42.027	5.8182e-06	52.195	14.102	-83.756	-15.963	-105.856	-27.282	58.227	-106.178	-101.245	-50.790	0.372	-101.791	-97.541	-97.066	-92.035	15.168	-92.860	-8191	255	
498.439	1	1	0	0	0.14689	0.12087	0.16812	0.26049	0.05154	0.07026	0.12538	0.13032	0.15698	0.078259	0.047401	0.058052	0.20886	0.24335	0.098227	0.10796	-3.4708	-3.4729	-3.6979	-4.1021	-3.4854	-3.9	-3.8042	-3.7208	-3.8063	-3.6021	-3.8458	-3.925	-3.4229	-3.7521	-3.7313	-3.6188	222.455	201.098	115.584	229.716	-46.842	30.364	123.392	139.826	-4.700	70.246	185.840	44.679	117.226	218.987	-49.429	-98.485	0.0005866	0.00090567	7.0988e-05	1355.4	4.1656e-06	3.8708e-06	1362.8	366.03	1.4718e-05	9.8167e-06	418.68	137.1	116	41.027	4.09e-06	50.595	0.00062672	0.00056732	0.00014918	1378.4	6.8258e-06	6.2476e-06	1381.7	374.37	6.8365e-06	6.2542e-06	425.87	140.89	120.31	41.99	5.89e-06	52.317	18.643	-53.364	-44.156	-105.633	-64.921	15.377	-106.070	-101.281	28.759	32.280	-101.948	-97.535	-96.930	-92.020	-6.085	-93.092	-8191	255	
498.535	1	1	0	0	0.079198	0.27221	0.12253	0.37324	0.031261	0.14443	0.14267	0.16098	0.092911	0.17313	0.15513	0.12049	0.035011	0.094712	0.26908	0.27148	-3.6437	-3.5125	-3.7625	-3.9729	-3.5583	-3.9458	-4.0312	-3.7208	-3.9917	-3.6333	-3.7542	-4.0521	-3.6521	-3.8125	-3.8729	-3.7333	-47.542	209.981	-5.262	185.360	126.090	-88.074	205.013	201.719	6.882	174.236	116.687	209.003	179.952	108.612	153.366	119.874	0.00082303	0.00049651	9.5707e-05	1362.1	7.6324e-06	5.3865e-06	1359.3	367.28	4.2699e-06	2.2645e-06	418.92	137.12	116.54	40.875	2.6114e-06	50.618	0.00061052	0.00056155	0.00014813	1382.8	6.6891e-06	6.1469e-06	1383	375.51	6.5546e-06	6.096e-06	426.13	141	120.06	41.988	6.0113e-06	52.476	37.633	-10.478	37.327	-105.689	-62.429	-14.386	-106.142	-101.317	-58.584	-18.550	-101.703	-97.375	-97.265	-92.205	19.379	-93.187	-8191	255	
498.630	1	1	0	0	0.092705	0.2072	0.13782	0.17876	0.074272	0.09581	0.035979	0.30668	0.048881	0.11598	0.048826	0.14972	0.065294	0.14085	0.18817	0.20965	-3.5812	-3.7417	-3.8312	-4.1979	-3.6125	-3.925	-4.0229	-3.6917	-3.9771	-3.7396	-3.6958	-4.0958	-3.6562	-3.8479	-3.8812	-3.4979	-87.685	62.502	-52.232	-70.006	-18.451	-63.243	70.800	205.835	89.369	224.363	31.119	116.852	41.082	53.010	-89.462	152.824	0.00083066	0.00082982	0.00016013	1357.9	7.8277e-06	2.5273e-06	1361.4	367.55	9.4556e-06	6.4738e-06	418.89	137.28	116.97	40.949	2.4108e-06	50.707	0.00059711	0.00055894	0.00015593	1385.1	6.4387e-06	6.0566e-06	1384.8	375.47	6.3653e-06	5.9415e-06	428.05	141.25	120.16	41.983	6.3132e-06	52.45	27.147	-84.966	5.621	-105.786	-50.878	48.290	-106.111	-101.249	28.802	36.351	-101.577	-97.478	-97.088	-92.298	190.935	-93.284	-8191	255	
498.703	1	1	0	0	0.28659	0.097161	0.18146	0.23313	0.22051	0.10982	0.36949	0.2868	0.097048	0.18608	0.15669	0.2041	0.15918	0.19757	0.087804	0.23209	-3.3667	-3.6667	-3.4833	-3.9938	-3.7104	-3.7729	-4.1354	-3.5771	-3.7854	-3.8688	-3.6021	-4.1	-3.7458	-3.6688	-4.0375	-3.6875	114.440	96.066	39.204	212.220	149.666	-91.754	180.807	168.055	175.381	-21.897	-62.113	-110.051	127.072	120.555	122.736	-83.680	0.00065958	0.00049264	0.00020205	1359.3	1.3463e-06	5.9041e-06	1364.5	367.6	1.0326e-05	3.9996e-06	417.44	137.44	116.68	40.703	2.2259e-06	50.693	0.00057012	0.00053768	0.00016399	1382	6.2987e-06	5.8698e-06	1387.3	375.59	6.2561e-06	5.8437e-06	428.26	141.21	120.04	41.959	6.8147e-06	52.448	31.684	-84.654	238.746	-105.836	237.085	40.951	-106.002	-101.220	9.289	8.994	-102.014	-97.525	-97.033	-92.098	-40.485	-92.980	-8191	255	
498.822	1	1	0	0	0.18185	0.01601	0.14552	0.10108	0.1161	0.13145	0.18613	0.1732	0.34433	0.14541	0.1384	0.39553	0.053795	0.054712	0.11678	0.18182	-3.35	-3.9271	-3.3833	-4.2292	-3.65	-3.7333	-4.0833	-3.6396	-3.9062	-3.8688	-3.725	-3.8979	-3.675	-3.7792	-3.8312	-3.7979	-110.981	-45.666	123.652	-8.860	84.173	166.728	173.920	146.948	-5.412	147.873	129.737	134.017	187.442	-83.688	96.591	89.587	0.00069395	0.0004153	0.00011113	1367.3	4.6184e-06	6.3094e-06	1364.9	368.11	1.3023e-05	1.8949e-06	420.23	137.89	116.4	40.802	3.7266e-06	50.645	0.00056863	0.00055126	0.00017521	1385.5	6.1706e-06	5.9924e-06	1391.2	375.22	6.0974e-06	6.0334e-06	429.67	141.19	119.74	41.999	6.9678e-06	52.389	11.412	-91.826	152.983	-105.854	-64.771	4.356	-105.830	-101.369	-58.462	182.530	-101.736	-97.496	-96.887	-92.138	-81.274	-92.955	-8191	255	
498.918	1	1	0	0	0.15269	0.11731	0.012103	0.076796	0.16482	0.23069	0.20016	0.24854	0.15318	0.16146	0.058724	0.23332	0.14292	0.18651	0.13828	0.089885	-3.4292	-3.9375	-3.5333	-4.15	-3.8042	-3.6542	-4.2292	-3.675	-3.7146	-3.7938	-3.6042	-3.9146	-3.6667	-3.7146	-4.1667	-3.7354	167.274	-102.816	98.872	47.905	-89.927	102.679	147.209	-60.308	-9.149	47.739	-42.876	221.151	36.095	238.698	-116.328	-112.323	0.00067641	0.00051323	0.00021607	1364.3	5.9072e-06	4.0475e-06	1363.1	368.14	5.032e-06	3.2776e-06	418.05	137.31	117.47	40.733	4.2122e-06	50.651	0.0005536	0.00057318	0.00017865	1383	6.0018e-06	6.4033e-06	1390.4	375.31	5.943e-06	6.5253e-06	429.37	140.92	119.86	42.11	6.9214e-06	52.303	23.817	198.973	-5.492	-105.733	39.768	126.111	-106.048	-101.052	12.017	1.147	-101.804	-97.443	-97.292	-92.405	20.294	-92.819	-8191	255	
499.014	1	1	0	0	0.080373	0.12063	0.087984	0.4484	0.0645	0.1311	0.05205	0.0089693	0.28384	0.075586	0.15505	0.12768	0.055493	0.22569	0.21519	0.2453	-3.4708	-3.9167	-3.525	-3.9771	-3.8354	-3.7062	-4.2042	-3.6396	-3.7188	-3.9583	-3.6021	-3.9354	-3.9875	-3.5979	-3.8688	-3.8604	1.646	183.135	171.340	236.439	206.375	196.596	-90.305	134.555	200.556	-107.124	140.263	167.687	104.610	228.813	120.033	-26.952	0.0008624	0.00081178	0.00029288	1363.6	8.9373e-06	3.1296e-06	1365.5	367.51	2.9275e-06	3.4818e-06	417.09	137.53	117.36	40.968	3.5303e-06	50.769	0.00054377	0.0006047	0.00017072	1382.5	5.8916e-06	6.7267e-06	1389.6	374.95	5.95e-06	6.7307e-06	428.58	140.83	119.89	42.192	6.546e-06	52.28	20.612	10.261	-25.418	-105.902	-84.390	29.299	-106.190	-101.091	26.263	-29.065	-101.728	-97.639	-97.075	-92.328	-100.145	-92.790	-8191	255	
499.111	1	1	0	0	0.045319	0.17997	0.041002	0.053686	0.088238	0.033178	0.17402	0.10165	0.10603	0.25768	0.21793	0.24207	0.18703	0.15128	0.076326	0.14967	-3.3792	-4.0667	-3.5333	-3.975	-3.8271	-3.4917	-4.1354	-3.7708	-3.6833	-4.0604	-3.7167	-3.9542	-3.9875	-3.5687	-3.9313	-3.8667	101.868	25.569	-92.354	206.787	167.268	154.517	209.949	-65.167	23.434	94.000	173.042	-67.486	-84.911	167.128	212.149	126.058	0.00083009	0.00061377	7.0783e-05	1357.6	2.2908e-06	5.0097e-06	1364.6	367.58	3.7137e-06	5.6133e-06	419.68	137.3	117.01	40.92	7.0913e-06	50.817	0.0005586	0.00063915	0.00016737	1380.9	6.1536e-06	7.0589e-06	1388.5	374.05	6.1639e-06	6.953e-06	427.81	140.51	120.09	42.207	6.3474e-06	52.206	14.276	-74.096	-3.424	-105.789	-3.186	48.651	-106.084	-101.231	-37.814	48.296	-101.677	-97.547	-97.158	-91.998	14.860	-93.010	-8191	255	
499.231	1	1	0	0	0.11286	0.099351	0.018248	0.32906	0.13288	0.050155	0.067476	0.099672	0.15987	0.22411	0.064367	0.1053	0.10094	0.064872	0.19771	0.10573	-3.3375	-3.9	-3.7083	-3.8292	-3.7875	-3.6375	-4.0542	-3.9188	-3.4583	-3.9688	-3.8521	-3.9292	-3.9375	-3.5958	-3.8271	-3.9375	16.172	189.401	-47.472	230.192	148.134	92.068	105.390	202.678	-31.459	-92.608	111.905	148.131	67.329	107.371	35.271	132.603	0.00092033	0.00085349	0.00014621	1360.8	1.3496e-06	7.8569e-06	1363.5	367.92	5.7897e-06	3.8876e-06	418.69	137.13	116.61	40.924	2.7065e-06	50.784	0.0005881	0.00063297	0.00016088	1380.4	6.608e-06	6.9969e-06	1386.9	374.99	6.7126e-06	6.9596e-06	427.69	140.76	120.44	42.191	6.3134e-06	52.269	10.079	-26.768	33.207	-105.764	170.535	26.343	-105.978	-100.954	-42.818	31.252	-101.713	-97.580	-97.054	-92.113	81.237	-93.000	-8191	255	
499.303	1	1	0	0	0.21363	0.19239	0.2437	0.2268	0.1928	0.18184	0.15456	0.12598	0.20331	0.26734	0.21198	0.14091	0.23204	0.19503	0.2718	0.11249	-3.2625	-3.8125	-3.5792	-3.5479	-3.9396	-3.5208	-3.9958	-3.9104	-3.5792	-4.0667	-3.6583	-3.8146	-3.9146	-3.5229	-3.8063	-3.9771	-115.372	-21.401	173.752	210.634	23.824	-38.960	-108.262	151.345	208.156	105.514	216.557	235.718	148.094	226.861	233.737	-45.177	0.00098567	0.00064906	0.00017008	1359.8	3.7735e-06	8.824e-06	1363.1	367.48	8.1034e-06	3.6743e-06	418.17	137.54	116.41	40.833	1.1026e-05	50.635	0.00063011	0.00061802	0.00015716	1379.4	6.8872e-06	6.6665e-06	1385.3	374.66	6.9206e-06	6.501e-06	426.25	140.66	120.52	42.092	5.9632e-06	52.202	19.134	-72.226	-64.749	-105.983	13.738	43.881	-106.097	-101.024	-0.280	-38.629	-101.852	-97.547	-96.943	-92.149	-39.970	-92.688	-8191	255	
499.424	1	1	0	0	0.14993	0.095773	0.10953	0.24874	0.2278	0.14389	0.43897	0.16004	0.10186	0.20098	0.057956	0.14756	0.13661	0.11115	0.082064	0.1369	-3.2458	-3.975	-3.6063	-3.7812	-3.925	-3.6104	-3.9667	-4.075	-3.6979	-4.1104	-3.8812	-3.6312	-4.0083	-3.6146	-3.7458	-3.9458	77.564	185.653	-27.253	204.263	103.747	93.858	143.034	7.889	96.129	69.804	-12.376	55.077	39.804	201.477	50.998	122.459	0.00079329	0.00065911	0.00019033	1355.1	2.3264e-06	6.1452e-06	1365.6	367.54	1.1108e-05	8.041e-06	419.4	137.28	117.27	40.866	4.5777e-06	50.663	0.0006362	0.00058337	0.00015114	1377.5	6.8847e-06	6.305e-06	1383.1	374.93	6.9876e-06	6.3232e-06	426.69	140.81	120.96	42.04	5.9678e-06	52.361	27.285	-22.548	24.082	-105.788	-66.729	20.933	-106.202	-101.308	-2.401	-1.530	-101.803	-97.311	-96.969	-92.226	-74.943	-92.945	-8191	255	
499.520	1	1	0	0	0.11823	0.13263	0.059274	0.15478	0.056251	0.29494	0.13335	0.14156	0.11003	0.078014	0.26649	0.088584	0.13235	0.15774	0.1889	0.08738	-3.1021	-3.8167	-3.8229	-3.7583	-4.1021	-3.7125	-3.8979	-3.9729	-3.5292	-3.8375	-3.9313	-3.5542	-3.8875	-3.5708	-3.625	-4.0625	107.369	120.413	42.575	212.577	133.043	192.620	135.549	-1.791	-48.333	-22.153	139.555	37.360	181.080	28.747	217.526	-76.317	0.00069508	0.00080499	8.2182e-05	1361.9	3.3585e-06	5.2522e-06	1366.5	367.54	3.6653e-06	6.7635e-06	419.52	137.22	117.11	40.806	3.8575e-06	50.687	0.00064458	0.00059066	0.00015276	1386	6.9434e-06	6.3974e-06	1387.3	376.17	6.919e-06	6.3403e-06	426.93	141.12	120.61	42.053	5.9874e-06	52.454	44.752	-24.628	-8.172	-105.778	-74.219	14.355	-106.104	-101.103	109.339	34.577	-101.894	-97.590	-97.202	-92.213	4.010	-93.029	-8191	255	
499.616	1	1	0	0	0.16807	0.077586	0.15577	0.32721	0.046188	0.29192	0.18258	0.18146	0.068458	0.2316	0.043389	0.035694	0.15001	0.21527	0.16839	0.23457	-3.0979	-3.675	-3.7562	-3.7646	-3.8125	-3.7229	-3.975	-4.0958	-3.4771	-3.8958	-3.925	-3.6312	-3.8396	-3.8937	-3.675	-4.1271	167.791	-68.114	212.078	146.839	79.039	98.467	200.968	164.445	29.293	-103.143	7.937	16.212	200.222	173.337	139.029	207.458	0.00074391	0.00097193	0.00012013	1361	9.3898e-06	2.5449e-06	1365.2	367.8	2.4473e-06	9.6051e-06	419.02	137.41	116.22	40.947	2.3973e-06	50.969	0.00060583	0.00056207	0.00015313	1385.8	6.5609e-06	6.0683e-06	1387.2	376.04	6.5059e-06	6.0298e-06	427.35	141.25	119.92	42.075	6.1773e-06	52.516	30.936	-42.064	-92.851	-105.769	-22.742	59.143	-106.149	-101.172	44.995	-10.135	-101.776	-97.194	-97.220	-92.067	118.016	-93.087	-8191	255	
499.712	1	1	0	0	0.18127	0.01005	0.20419	0.060448	0.2506	0.15756	0.12589	0.28339	0.18495	0.10871	0.12683	0.2919	0.24092	0.11959	0.1104	0.032489	-3.2479	-3.6729	-3.9	-3.6813	-3.8354	-3.7917	-3.7875	-4.25	-3.5271	-3.7458	-4.0833	-3.6813	-3.8646	-3.9125	-3.4271	-4.1458	219.220	-12.081	202.520	119.464	66.636	-44.849	-108.119	103.330	27.167	-106.069	138.754	-46.646	92.761	213.108	85.941	50.973	0.00078221	0.00081958	4.0422e-05	1362.2	5.0566e-06	4.8807e-06	1363.1	369.21	4.8463e-06	3.4495e-06	418.29	137.76	116.94	40.862	5.297e-06	50.458	0.00057692	0.00053187	0.00015901	1385.2	6.1977e-06	5.7729e-06	1385.5	376.08	6.1455e-06	5.798e-06	427.73	140.96	119.72	41.971	6.5575e-06	52.385	34.217	-48.180	110.131	-105.846	1.261	34.152	-106.070	-101.279	100.933	-18.516	-101.526	-97.535	-97.256	-92.169	77.145	-93.178	-8191	255	
499.831	1	1	0	0	0.05785	0.14102	0.11024	0.28287	0.24776	0.31156	0.21249	0.10559	0.12941	0.34938	0.22146	0.44045	0.21803	0.17179	0.036004	0.20261	-3.1875	-3.6708	-3.8979	-3.5292	-4.0271	-3.8833	-3.7542	-4.1271	-3.5792	-3.6917	-3.8021	-3.6792	-3.725	-3.8729	-3.5771	-4.1604	-46.836	211.912	140.619	160.499	-94.861	-34.246	229.100	202.000	-78.303	-109.152	185.941	229.673	164.888	-76.012	226.074	162.720	0.00070517	0.00049611	0.00019287	1365.5	9.7287e-06	8.8522e-06	1361.9	366.28	8.2115e-06	4.3062e-06	417.65	137.49	116.44	40.725	6.5433e-06	50.819	0.00055888	0.00052572	0.00016904	1385	5.9782e-06	5.7979e-06	1386.1	374.24	5.981e-06	5.7884e-06	428.08	140.76	119.61	41.961	6.85e-06	52.364	18.451	-78.394	-19.313	-105.823	-0.301	-10.080	-106.208	-101.394	-32.264	13.414	-101.589	-97.360	-97.341	-92.148	4.889	-93.072	-8191	255	
499.927	1	1	0	0	0.12423	0.1928	0.055608	0.2969	0.11134	0.11045	0.15951	0.24453	0.13683	0.042086	0.092075	0.15896	0.065518	0.040425	0.076827	0.22715	-3.5896	-3.3979	-3.9479	-3.6896	-3.6229	-3.9292	-3.7396	-3.975	-3.7729	-3.6792	-4.1896	-3.8792	-3.7812	-4.0229	-3.5792	-4.1438	130.806	26.366	29.736	148.042	147.673	219.203	209.793	201.031	143.915	101.947	113.799	232.477	87.221	60.476	-21.742	162.228	0.0007735	0.00030783	0.00015867	1364.8	6.1202e-06	5.3337e-06	1361.8	368.79	3.0935e-06	2.6441e-06	417.36	137.57	116.2	41.071	4.3322e-06	50.611	0.00055239	0.00055359	0.00017607	1383.1	5.9075e-06	6.1133e-06	1389.1	375.2	5.8523e-06	6.1565e-06	427.81	140.67	119.18	42.058	6.6437e-06	52.219	25.152	-19.677	15.858	-105.700	-36.527	50.592	-106.070	-100.967	120.555	142.053	-101.614	-97.608	-96.867	-92.106	48.098	-92.992	-8191	255	
499.999	1	1	0	0	0.062085	0.0914	0.15498	0.080803	0.07212	0.14559	0.28316	0.27303	0.18088	0.10409	0.21568	0.20108	0.17461	0.34915	0.13828	0.10841	-3.2521	-3.5729	-3.8646	-3.6312	-3.7042	-4.0021	-3.7562	-3.7333	-3.8521	-3.6271	-3.8917	-3.8104	-3.7125	-3.9958	-3.5104	-4.0292	25.217	199.763	113.539	-27.655	221.675	74.651	190.266	208.299	-60.041	-101.955	224.933	203.613	-62.849	-115.378	203.296	134.346	0.00077408	0.00089371	0.0001498	1360.1	6.6974e-06	2.7814e-06	1359.1	367.99	9.0991e-06	2.2274e-06	419.2	137.69	116.88	40.717	6.4165e-06	50.676	0.00052571	0.00057814	0.0001673	1379.6	5.7104e-06	6.3705e-06	1385.7	374.54	5.6175e-06	6.4532e-06	427.9	140.59	119.16	42.073	6.4574e-06	52.276	13.144	-38.710	-70.876	-105.720	-40.562	-73.120	-105.987	-101.067	-3.012	-78.172	-101.456	-97.523	-97.051	-92.175	-36.762	-93.064	-8191	255	
500.119	1	1	0	0	0.17813	0.26124	0.07367	0.29855	0.072851	0.096001	0.33105	0.1144	0.15196	0.1138	0.25848	0.092836	0.23052	0.21347	0.096313	0.13282	-3.4708	-3.5792	-3.7917	-3.7917	-3.5458	-4.025	-3.8063	-3.8146	-3.8458	-3.5646	-4.15	-3.8917	-3.6063	-4.0813	-3.6979	-3.9125	-59.005	157.785	13.404	-117.874	93.945	-10.333	182.340	72.735	202.116	97.783	214.711	101.148	-25.478	91.407	214.191	176.861	0.00067397	0.00046606	0.00019527	1360.2	4.1251e-06	3.4598e-06	1366.2	367.92	6.451e-06	2.6852e-06	416.58	136.74	116.7	40.876	3.9758e-06	50.68	0.0005388	0.00061505	0.00016609	1380.6	5.9518e-06	6.8516e-06	1389.1	374.87	6.0798e-06	6.9914e-06	427.36	140.48	120.2	42.205	6.4145e-06	52.188	20.014	179.277	-27.200	-105.858	-94.037	-16.377	-106.001	-101.529	-61.545	-66.095	-101.684	-97.284	-97.240	-92.253	-11.921	-92.809	-8191	255	
500.215	1	1	0	0	0.12901	0.2524	0.29699	0.11011	0.059695	0.21134	0.30692	0.23917	0.17468	0.19736	0.1558	0.2654	0.092668	0.17115	0.1446	0.22419	-3.55	-3.6125	-3.6958	-3.8354	-3.6479	-3.8708	-3.7438	-3.8354	-3.9792	-3.5833	-3.9021	-3.9833	-3.65	-4.1062	-3.6625	-3.7271	38.177	-114.429	-46.978	-95.832	108.075	52.843	164.193	-117.686	113.416	208.462	213.644	239.262	64.720	195.011	65.135	181.750	0.00082371	0.00044976	5.8349e-05	1368.4	2.3242e-06	2.6504e-06	1367.1	368.17	4.4407e-06	2.2776e-06	421.29	137.14	117.15	40.886	5.8328e-06	50.835	0.00058192	0.00064353	0.00016275	1383.3	6.294e-06	6.8598e-06	1388.9	374.87	6.201e-06	6.5906e-06	427.25	140.19	119.77	42.119	5.6453e-06	52.083	13.000	-94.404	-6.190	-105.809	186.606	28.863	-106.101	-101.132	-37.250	145.835	-102.009	-97.659	-97.291	-92.145	-36.415	-92.813	-8191	255	
500.312	1	1	0	0	0.22174	0.13606	0.17082	0.2112	0.080216	0.076213	0.089827	0.22613	0.077942	0.065558	0.069988	0.12774	0.17246	0.25041	0.027826	0.22511	-3.6292	-3.65	-3.9	-3.9167	-3.5292	-4.0563	-3.6854	-3.7812	-4.0271	-3.4917	-3.9083	-3.8104	-3.5438	-3.9437	-3.8312	-3.7417	-63.340	-24.530	152.831	176.837	27.135	57.959	164.942	147.028	203.138	137.573	187.393	-31.015	211.201	-34.116	-14.000	139.141	0.00088287	0.00050926	9.4205e-05	1360.5	4.4387e-06	3.9519e-06	1357.2	365.3	6.0296e-06	6.0513e-06	418.04	137.22	116.74	40.837	3.7716e-06	50.936	0.00055215	0.00055324	0.00014018	1375.4	5.9965e-06	6.0168e-06	1380	372.11	6.0353e-06	5.8886e-06	424.69	140.12	119.85	41.995	5.4643e-06	52.195	28.913	-98.944	206.286	-105.800	101.090	45.197	-105.962	-101.259	-61.384	25.951	-101.686	-97.524	-96.865	-92.243	-12.101	-92.835	-8191	255	
500.408	1	1	0	0	0.17963	0.087238	0.035385	0.25505	0.050467	0.037825	0.13014	0.28671	0.023837	0.19573	0.020835	0.067726	0.17971	0.13681	0.16495	0.13759	-3.6813	-3.5458	-3.6958	-3.9708	-3.5438	-4.0417	-3.8354	-3.7125	-4.0854	-3.5833	-3.9583	-3.9229	-3.6542	-4.1375	-3.7	-3.6562	202.680	220.062	-96.707	141.615	-77.077	123.710	107.379	223.784	-105.976	-31.227	37.589	215.473	235.645	135.476	-13.700	213.989	0.00071794	0.00059861	0.00018518	1359.9	5.795e-06	5.9968e-06	1365.4	366.03	3.6694e-06	5.5385e-06	417.16	137.25	116.67	40.941	2.1004e-06	50.808	0.000574	0.00054144	0.00014025	1377.8	6.2866e-06	5.863e-06	1382.1	373.45	6.3074e-06	5.6978e-06	424.76	140.19	119.94	41.949	5.3373e-06	52.196	15.349	-95.037	25.153	-105.981	-51.420	24.646	-106.001	-101.147	-25.719	20.573	-101.615	-97.361	-97.097	-92.241	52.969	-92.845	-8191	255	
500.504	1	1	0	0	0.12152	0.03889	0.18049	0.33543	0.15055	0.051787	0.18399	0.26631	0.14572	0.15739	0.15856	0.24353	0.12348	0.41955	0.07241	0.31477	-3.5979	-3.5979	-3.8604	-3.8896	-3.4188	-3.8063	-3.925	-3.65	-3.8375	-3.7083	-3.6521	-3.9813	-3.4813	-3.7896	-3.8542	-3.7438	86.970	75.476	12.199	217.086	-94.770	-30.385	236.665	164.927	17.862	-115.718	-6.234	-108.664	-0.409	190.607	99.455	212.359	0.00070234	0.00044475	0.0002239	1358.8	7.5621e-06	5.8256e-06	1363.2	367.37	6.378e-07	1.668e-06	418.47	137.32	117	40.935	6.2666e-06	50.529	0.00057981	0.0005262	0.00013807	1379	6.3281e-06	5.7465e-06	1383.7	374.68	6.2538e-06	5.7643e-06	425.53	140.69	119.9	42.058	5.4951e-06	52.294	28.510	-79.018	-12.141	-105.773	-42.686	25.076	-105.903	-101.286	-42.196	165.261	-101.841	-97.454	-97.204	-92.142	26.557	-92.700	-8191	255	
500.600	1	1	0	0	0.20774	0.19343	0.064207	0.13206	0.17178	0.2281	0.24344	0.23857	0.11908	0.17918	0.19431	0.28306	0.18516	0.11877	0.044353	0.19435	-3.6188	-3.6333	-3.8146	-4.0083	-3.5625	-4.0104	-4.0667	-3.7313	-3.7792	-3.6875	-3.6979	-4.1333	-3.5167	-3.8812	-3.9292	-3.6896	-14.947	197.779	56.871	-115.599	191.301	58.516	147.502	193.734	70.372	-22.672	-84.906	234.281	-112.664	-69.611	49.550	-72.209	0.00081226	0.00089892	0.00013299	1365.8	6.7024e-06	3.6323e-06	1367.8	366.49	4.8654e-06	8.1492e-06	418.83	136.92	117.33	40.876	4.7197e-06	50.468	0.00056949	0.00053112	0.00014301	1385.6	6.2877e-06	5.8152e-06	1386.2	374.96	6.1861e-06	5.6867e-06	426.9	141.04	120.14	41.995	5.9e-06	52.445	41.612	-72.233	-21.262	-105.716	-10.018	26.852	-106.231	-101.308	65.969	-14.534	-101.779	-97.543	-97.040	-92.346	-78.382	-93.326	-8191	255	
500.696	1	1	0	0	0.31831	0.10623	0.12803	0.23941	0.17826	0.13384	0.16646	0.18299	0.19845	0.15092	0.12228	0.28618	0.067675	0.22762	0.082668	0.21096	-3.5854	-3.6625	-3.5583	-4	-3.7042	-3.6562	-4.0229	-3.8104	-3.9208	-3.8083	-3.6458	-4.0021	-3.5083	-3.8792	-3.8812	-3.7042	-44.835	9.574	49.865	212.626	184.248	-116.578	-113.457	199.182	184.446	201.832	224.043	173.220	160.170	223.599	-49.692	219.897	0.00077205	0.00042663	8.3308e-05	1368.7	1.3896e-06	5.3614e-06	1369.6	368.06	4.5733e-06	4.5841e-06	422.68	138.13	117.44	40.936	4.3735e-06	51.003	0.00057251	0.00053651	0.00015677	1391.2	6.2345e-06	5.9137e-06	1392.7	376.62	6.4452e-06	6.1003e-06	430.14	141.74	120.91	42.167	6.8355e-06	52.811	27.948	229.048	-21.732	-105.767	57.573	56.802	-106.118	-101.048	37.363	-27.854	-101.676	-97.639	-97.650	-92.291	-38.577	-92.922	-8191	255	
500.792	1	1	0	0	0.11847	0.1423	0.23138	0.13205	0.19046	0.10787	0.059834	0.26375	0.26735	0.2055	0.12774	0.1732	0.12004	0.079914	0.048817	0.076984	-3.3979	-3.7146	-3.5042	-4.1813	-3.6	-3.6562	-4.0646	-3.6875	-3.6917	-3.6396	-3.8021	-4.0437	-3.6271	-3.7646	-3.9208	-3.5458	-85.770	192.510	19.045	193.261	17.894	-48.198	161.438	200.189	-106.841	238.303	181.969	231.909	175.974	194.948	-102.116	174.429	0.00086519	0.00033952	0.00014246	1378.8	5.955e-06	4.2036e-06	1375.8	368.65	9.0091e-06	6.1412e-06	421.79	138.03	117.5	41.01	5.0611e-06	50.961	0.00060148	0.0005611	0.00017988	1400.5	6.5499e-06	6.2488e-06	1401.4	377.65	6.4599e-06	6.158e-06	431.92	141.68	120.61	42.23	7.2036e-06	52.782	33.004	-66.031	30.831	-105.772	7.308	-18.543	-105.998	-101.136	77.512	-23.142	-101.782	-97.646	-97.010	-92.272	-59.891	-93.115	-8191	255	
500.911	1	1	0	0	0.07966	0.12063	0.12292	0.28617	0.016527	0.073383	0.18105	0.31586	0.38369	0.08127	0.11579	0.26411	0.17624	0.27726	0.19108	0.1174	-3.425	-3.775	-3.4521	-3.9479	-3.5438	-3.7979	-4.0083	-3.6833	-3.7938	-3.8208	-3.7354	-3.9938	-3.6979	-3.6917	-3.9708	-3.6542	-41.309	126.278	122.398	213.098	-102.218	228.389	135.319	192.626	82.606	-44.051	-38.021	169.649	-86.327	-114.321	89.244	157.403	0.0005899	0.00034525	0.0002773	1373.7	2.4919e-06	1.6286e-06	1374.9	370.79	6.9e-06	4.2419e-06	421.4	137.79	117.8	41.053	6.3471e-06	51.057	0.00059469	0.00058239	0.00018735	1398.1	6.3848e-06	6.4063e-06	1404.4	378.33	6.2177e-06	6.4207e-06	431.83	141.6	120.73	42.323	7.1517e-06	52.699	29.062	159.944	-13.646	-105.745	-34.924	177.802	-106.228	-101.168	-11.742	116.989	-102.030	-97.383	-97.364	-92.224	-41.145	-92.793	-8191	255	
501.007	1	1	0	0	0.12375	0.12106	0.072628	0.19906	0.22344	0.081377	0.20005	0.30078	0.029725	0.022656	0.21294	0.10785	0.14705	0.33147	0.062737	0.22297	-3.2417	-4.0708	-3.4646	-4.0542	-3.8729	-3.7792	-4.1229	-3.6667	-3.8	-3.9833	-3.5958	-3.8833	-3.7271	-3.7042	-3.9313	-3.6604	3.004	-13.367	38.666	220.022	-89.963	41.975	198.068	193.778	-52.150	-110.933	150.854	222.726	-1.864	-108.649	20.095	-55.327	0.00095878	0.0002937	0.00016573	1376.8	5.362e-06	1.9702e-06	1376.9	369.66	5.5752e-06	3.5538e-06	422.25	137.67	117.66	40.941	4.1055e-06	50.752	0.00056237	0.00060854	0.00018072	1396.7	6.1447e-06	6.6911e-06	1403.1	377.26	6.0459e-06	6.8032e-06	431.76	141.55	120.72	42.413	6.8842e-06	52.594	17.809	219.809	-7.268	-105.922	0.954	125.688	-106.120	-101.069	92.844	-38.062	-101.703	-97.429	-97.206	-92.499	17.274	-92.938	-8191	255	
501.104	1	1	0	0	0.096993	0.25485	0.2885	0.18701	0.021877	0.21549	0.089997	0.17392	0.27864	0.13159	0.19616	0.064915	0.14529	0.0068715	0.232	0.096529	-3.2542	-3.7729	-3.5667	-4.0125	-3.8	-3.6708	-4.0333	-3.6854	-3.6688	-4.1104	-3.7333	-3.7771	-3.9813	-3.6917	-3.9875	-3.6	154.994	-24.171	-57.883	199.065	-116.513	-101.009	-80.298	117.432	-96.477	220.491	234.329	45.839	-101.748	143.151	146.592	-22.986	0.00085383	0.00029925	0.00018764	1376.7	5.3877e-06	4.953e-06	1374.6	370.83	7.0631e-06	1.6166e-06	422.45	138.25	117.59	40.941	1.1122e-05	51.078	0.00056628	0.00063972	0.00017516	1395.8	6.1574e-06	7.1562e-06	1401.2	377.24	6.1373e-06	7.0578e-06	431.05	141.5	120.57	42.393	6.612e-06	52.568	21.795	-17.650	-23.006	-105.675	2.877	82.856	-105.894	-101.231	22.431	16.965	-101.538	-97.368	-97.104	-92.036	-19.029	-92.975	-8191	255	
501.200	1	1	0	0	0.10361	0.070722	0.25001	0.28982	0.14233	0.21172	0.43892	0.17542	0.14155	0.04521	0.12617	0.29715	0.092117	0.23963	0.033757	0.23674	-3.1354	-3.8417	-3.4188	-3.8542	-3.9292	-3.3979	-4.2146	-3.8833	-3.7271	-3.9833	-3.5687	-3.8542	-3.7729	-3.5083	-3.9125	-3.7938	175.373	-52.059	20.636	220.644	174.583	181.132	203.813	142.116	-30.051	-67.244	149.475	-44.231	-105.835	220.326	-43.860	113.274	0.00079373	0.00047339	0.00016334	1373.4	2.9882e-06	5.3939e-06	1370.5	370.62	5.5877e-06	2.3471e-06	421.07	137.9	117.31	41.047	8.4394e-06	51.027	0.00057542	0.00065407	0.00016675	1394.1	6.4477e-06	7.1962e-06	1399.1	377.24	6.5459e-06	7.1346e-06	430.12	141.42	121.35	42.417	6.5009e-06	52.491	20.817	-35.624	-62.698	-105.775	230.597	33.799	-106.277	-101.207	-35.511	-41.431	-101.925	-97.193	-97.188	-91.973	-17.259	-92.980	-8191	255	
501.296	1	1	0	0	0.17295	0.11052	0.12534	0.02986	0.07915	0.20813	0.065926	0.40897	0.21284	0.040283	0.10239	0.17779	0.071749	0.31268	0.10857	0.10714	-3.1896	-3.8417	-3.45	-3.8083	-3.8646	-3.4958	-3.9813	-3.8729	-3.6167	-3.9208	-3.7833	-3.7896	-3.8812	-3.6229	-3.8083	-3.7792	20.365	113.806	-14.280	-61.230	237.580	91.239	163.258	167.420	-88.123	163.515	-43.649	205.557	-108.448	232.707	91.861	98.992	0.00089116	0.0005075	9.2434e-05	1375	9.0592e-06	5.3344e-06	1381.1	370.26	1.4311e-05	2.9181e-06	421.17	137.75	117.63	41.028	3.545e-06	50.97	0.00062512	0.00065422	0.00016621	1395.3	6.936e-06	7.1402e-06	1400.7	377.29	7.0245e-06	7.0004e-06	429.97	141.48	121.82	42.393	6.4477e-06	52.616	22.301	-72.427	-26.157	-105.891	-57.922	4.272	-106.233	-101.366	29.914	-85.034	-101.779	-97.326	-97.097	-92.026	-98.225	-93.103	-8191	255	
501.392	1	1	0	0	0.2841	0.11714	0.37223	0.18975	0.17428	0.083945	0.12366	0.2425	0.094629	0.072423	0.15715	0.26905	0.12675	0.087734	0.17128	0.073786	-3.0896	-3.9292	-3.4562	-3.8396	-3.9458	-3.7729	-4.025	-3.9042	-3.4917	-3.9083	-3.7167	-3.7313	-3.9458	-3.7188	-3.6562	-3.95	-101.144	-14.405	91.524	-109.403	167.682	-111.212	144.223	172.565	-96.809	-52.987	-14.523	157.539	189.974	150.779	112.421	214.315	0.00085252	0.00043827	0.00020014	1372.4	5.6402e-06	9.7917e-06	1384.2	369.61	4.7376e-06	2.8562e-06	422.72	138.2	117.66	41.112	7.2601e-07	51.136	0.00066021	0.00063476	0.00016461	1395.8	7.2946e-06	6.8862e-06	1404.6	377.45	7.4267e-06	6.8516e-06	431	141.65	122.15	42.415	6.3767e-06	52.78	20.601	-30.615	9.188	-105.589	-78.451	51.704	-106.187	-101.154	-16.526	-76.554	-101.820	-97.462	-97.155	-92.342	164.011	-92.863	-8191	255	
501.513	1	1	0	0	0.18702	0.25205	0.18586	0.18513	0.046996	0.22097	0.20792	0.049659	0.20439	0.017371	0.17381	0.23311	0.10911	0.12249	0.20814	0.11544	-3.0563	-3.8708	-3.7333	-3.8125	-4.0271	-3.4979	-3.8583	-4.0292	-3.4562	-3.7875	-3.8833	-3.5958	-4.0854	-3.6875	-3.5854	-3.9292	-77.191	-94.076	41.784	239.912	-107.850	73.948	167.116	62.403	-60.867	182.700	184.502	196.133	185.139	-68.801	161.195	229.363	0.00076157	0.00065942	6.2373e-05	1375.8	6.2683e-06	4.0326e-06	1378.3	370.18	7.4087e-06	8.8808e-06	421.82	137.99	118.11	41.082	3.6978e-06	50.973	0.00067634	0.00062468	0.00016129	1399.2	7.3972e-06	6.6641e-06	1400.7	378.04	7.2569e-06	6.5849e-06	429.85	141.93	122.2	42.347	6.145e-06	52.81	32.605	-62.114	-74.031	-105.722	-46.932	127.045	-106.321	-101.198	-18.490	6.286	-101.697	-97.539	-97.230	-92.330	-68.537	-92.926	-8191	255	
501.607	1	1	0	0	0.11841	0.060157	0.22067	0.11268	0.13774	0.031519	0.37156	0.29162	0.1493	0.18207	0.033849	0.18711	0.13607	0.17761	0.19899	0.34893	-3.1292	-3.85	-3.8083	-3.6646	-3.8583	-3.4875	-3.7479	-4.1188	-3.525	-3.9313	-3.8917	-3.8042	-3.9958	-3.6063	-3.6917	-4.0021	141.919	-30.178	140.255	202.051	-76.934	-107.838	130.260	150.364	34.232	193.658	200.708	146.636	-92.681	-100.420	45.847	117.875	0.00080335	0.00082259	0.00012995	1376.7	1.8842e-06	6.7546e-06	1376.9	369.52	7.5649e-06	5.6333e-06	421.61	138.48	117.93	41.031	1.8473e-06	51.092	0.00065142	0.00059786	0.00015876	1399.7	7.0876e-06	6.5317e-06	1399.5	378.5	7.0456e-06	6.4979e-06	430.53	142.23	121.7	42.305	6.4974e-06	52.977	35.203	-112.465	-50.193	-105.820	7.051	29.543	-106.213	-101.208	-1.696	49.642	-101.433	-97.516	-97.212	-92.199	-73.449	-93.097	-8191	255	
501.703	1	1	0	0	0.13854	0.065986	0.21407	0.17895	0.039395	0.11955	0.23594	0.27043	0.31738	0.089544	0.20232	0.2714	0.23022	0.20011	0.064879	0.033482	-3.1375	-3.7938	-3.7417	-3.7646	-3.85	-3.575	-3.8333	-4.125	-3.3833	-3.6417	-3.9208	-3.5646	-3.825	-3.8542	-3.4896	-4.1292	222.151	-23.169	115.330	216.663	141.300	82.807	164.914	200.806	136.767	105.862	-116.640	-9.585	209.898	199.171	184.744	225.618	0.0006735	0.00031759	7.3428e-05	1379	2.4536e-06	9.1513e-06	1380.6	370.83	9.2715e-06	7.0924e-06	422.81	137.97	117.25	41.211	6.9434e-06	50.838	0.00063254	0.0005907	0.00016838	1404.1	6.9005e-06	6.3884e-06	1402.8	379.46	6.7449e-06	6.2934e-06	431.25	142.36	121.25	42.263	6.8696e-06	52.835	8.852	-118.474	-3.063	-105.811	-26.988	58.654	-106.209	-101.163	79.547	22.511	-101.529	-97.624	-96.910	-91.966	-106.111	-93.001	-8191	255	
501.824	1	1	0	0	0.09301	0.093248	0.024063	0.41331	0.11292	0.2455	0.19685	0.23773	0.24461	0.26995	0.082638	0.25201	0.16307	0.053652	0.031412	0.064398	-3.1625	-3.4313	-3.8875	-3.6917	-3.7646	-3.85	-3.5833	-3.7271	-3.5542	-3.6667	-4.0167	-3.5729	-3.8229	-4.0333	-3.7354	-3.8646	60.171	70.241	130.733	-91.063	154.748	111.241	145.092	-95.468	39.663	33.873	-118.177	-102.418	-54.277	-89.047	-56.232	239.231	0.00065816	0.00061648	0.0001819	1379.6	3.5809e-06	1.3056e-06	1380.1	370.71	6.7541e-06	6.3995e-06	420.31	137.9	117.76	41.136	6.0874e-06	50.988	0.0006127	0.00057385	0.00017735	1402.3	6.6288e-06	6.2754e-06	1404.9	379.26	6.5694e-06	6.257e-06	431.85	142.08	121.54	42.238	7.206e-06	52.848	24.263	-15.938	-22.595	-105.751	-52.742	36.027	-106.050	-101.248	-12.265	-5.658	-101.654	-97.485	-97.179	-92.257	38.134	-93.112	-8191	255	
501.895	1	1	0	0	0.14658	0.032062	0.060166	0.18555	0.15835	0.10365	0.17207	0.24613	0.13158	0.36795	0.12134	0.13736	0.079176	0.062296	0.15141	0.019353	-3.3125	-3.6875	-3.8958	-3.7104	-3.8688	-3.8104	-3.7667	-3.9	-3.5667	-3.7104	-4.0896	-3.5687	-3.7188	-3.8958	-3.4938	-4.0292	49.983	155.803	34.370	228.778	205.729	-51.817	180.057	227.102	-94.220	51.170	104.425	-73.344	12.506	232.205	84.236	210.993	0.00081345	0.00029351	5.1901e-05	1377.1	1.8073e-06	3.7169e-06	1378.5	369.56	8.9956e-06	3.443e-06	420.87	137.99	117.53	41.028	4.8471e-06	51.052	0.00059616	0.00057131	0.00018488	1400.2	6.4386e-06	6.2981e-06	1403.9	378.31	6.3339e-06	6.4238e-06	432.22	141.45	120.55	42.315	7.3445e-06	52.788	31.331	-38.822	-47.611	-105.701	-14.863	-90.021	-106.180	-101.142	34.074	229.472	-101.714	-97.451	-97.143	-92.187	18.041	-93.077	-8191	255	
501.992	1	1	0	0	0.10268	0.19216	0.14105	0.36065	0.24475	0.23005	0.18432	0.044997	0.30381	0.040639	0.104	0.096434	0.30759	0.28299	0.092997	0.13997	-3.3854	-3.5042	-3.8875	-3.8333	-3.7792	-3.9458	-3.6896	-3.9562	-3.6813	-3.4396	-4.1021	-3.7083	-3.75	-3.9979	-3.3688	-3.925	115.670	9.948	-27.099	184.617	166.494	68.423	172.997	47.209	-20.261	85.887	-0.114	102.714	152.237	-52.365	-41.519	-100.810	0.00079081	0.00062685	0.00015656	1374.3	4.4698e-06	4.9712e-06	1378.8	369.8	6.7534e-06	5.1227e-06	419.47	138.29	116.98	41.123	4.3406e-06	51.071	0.00057071	0.00060393	0.00018542	1398.2	6.2236e-06	6.7826e-06	1406.3	377.92	6.2057e-06	6.7825e-06	431.75	141.66	120.06	42.367	7.1063e-06	52.76	21.534	-104.268	-11.438	-105.663	-31.933	-55.898	-106.217	-101.180	-63.685	-96.000	-101.848	-97.511	-96.973	-92.230	1.814	-93.130	-8191	255	
502.088	1	1	0	0	0.12573	0.23367	0.30007	0.14316	0.16268	0.31696	0.32932	0.17808	0.088033	0.12581	0.12184	0.11465	0.25502	0.15765	0.15075	0.25775	-3.4938	-3.6229	-3.8729	-3.7771	-3.6833	-3.85	-3.6604	-3.8812	-3.7292	-3.5125	-3.9708	-3.5625	-3.7458	-3.9667	-3.6104	-3.7792	-45.356	199.450	-115.595	200.066	138.290	11.869	180.000	-84.705	72.616	79.088	170.222	124.956	151.259	128.801	91.231	200.807	0.00076911	0.00084011	0.00021247	1378.1	2.5539e-06	5.3739e-06	1380.7	372.48	1.4092e-06	3.434e-06	423.24	138.31	118.03	41.209	3.3429e-06	51.079	0.00056847	0.00064472	0.00018268	1401.2	6.2426e-06	7.3015e-06	1409	378.33	6.4538e-06	7.4475e-06	432.34	141.94	121.03	42.632	7.1388e-06	52.754	33.398	-56.981	-2.210	-105.738	-63.889	-53.365	-106.111	-101.329	-83.423	69.876	-101.823	-97.472	-97.192	-92.166	-12.937	-93.030	-8191	255	
502.184	1	1	0	0	0.13884	0.088791	0.026348	0.27272	0.2269	0.22789	0.35396	0.28221	0.19061	0.1832	0.38281	0.27702	0.19765	0.072936	0.065605	0.19312	-3.3646	-3.4542	-3.7146	-3.6146	-3.7188	-3.825	-3.7292	-3.8521	-3.6833	-3.5	-3.7812	-3.8458	-3.6	-4.0146	-3.5583	-3.7938	145.110	176.817	9.081	158.160	-84.888	209.306	149.370	236.341	10.546	36.172	-116.130	183.517	194.923	168.043	28.047	190.627	0.00072764	0.00013941	0.00024347	1376.6	2.0736e-06	6.7281e-06	1382.4	371.64	4.8627e-06	6.4997e-06	422.89	138.27	117.36	41.254	6.7742e-06	50.972	0.00060911	0.00069705	0.00018212	1399.8	6.6806e-06	7.6256e-06	1407.2	378.66	6.6796e-06	7.4765e-06	431.51	141.6	121.25	42.607	6.683e-06	52.582	20.624	-110.359	-39.453	-105.861	-9.940	75.694	-106.187	-101.182	-66.256	-12.734	-101.542	-97.392	-97.045	-92.273	0.451	-92.966	-8191	255	
502.303	1	1	0	0	0.085001	0.12811	0.10773	0.19693	0.11555	0.12932	0.15503	0.088832	0.23199	0.024036	0.13645	0.091299	0.12857	0.17509	0.25999	0.06453	-3.5729	-3.4208	-3.6437	-3.7458	-3.65	-3.9188	-3.8229	-3.8417	-3.9042	-3.3917	-3.75	-3.7229	-3.725	-4.0854	-3.525	-3.7396	-116.465	1.717	151.826	182.751	6.858	-115.736	-80.423	136.158	63.152	34.197	194.670	-62.437	211.909	150.431	87.624	143.233	0.0010166	0.00028192	0.00013482	1373.2	4.2903e-06	3.6205e-06	1378.2	369.08	6.1782e-06	4.3041e-06	422.11	138.28	117.47	41.337	5.027e-06	51.107	0.00062633	0.00066484	0.00016783	1397.7	6.9047e-06	7.2597e-06	1404	377.38	7.0255e-06	7.2423e-06	431.37	141.68	121.87	42.556	6.6182e-06	52.682	18.524	230.097	-1.167	-105.786	58.116	-20.128	-106.045	-101.281	-11.258	6.198	-101.884	-97.612	-97.046	-92.053	-24.156	-93.252	-8191	255	
502.399	1	1	0	0	0.14655	0.18201	0.068433	0.12247	0.19509	0.12744	0.074908	0.022468	0.11604	0.22256	0.11627	0.17572	0.10052	0.20118	0.13521	0.29891	-3.5292	-3.4958	-3.6979	-3.8875	-3.5104	-3.8708	-3.6083	-3.8146	-3.9167	-3.5687	-3.9	-3.9458	-3.6562	-3.9062	-3.6729	-3.5042	-110.608	121.924	236.579	139.803	-52.213	-85.171	188.694	82.680	14.569	-72.485	-95.512	213.860	163.252	211.108	111.415	121.123	0.00089287	0.00065775	0.00014357	1377.8	2.7049e-06	4.1562e-06	1383.1	370.97	5.2996e-06	2.3968e-06	421.07	138.41	117.96	41.203	1.8379e-06	51.264	0.00066391	0.00065207	0.00016703	1400.7	7.3907e-06	7.0852e-06	1406.8	378.08	7.5056e-06	7.0399e-06	430.71	142.21	122.27	42.477	6.4886e-06	52.874	12.584	-72.670	-37.453	-105.912	-15.764	-33.408	-106.004	-101.300	-11.987	21.573	-101.978	-97.359	-96.881	-92.117	117.148	-93.266	-8191	255	
502.472	1	1	0	0	0.08765	0.056039	0.18099	0.12049	0.08192	0.13736	0.24028	0.24294	0.27125	0.077184	0.06698	0.062012	0.1916	0.27099	0.24311	0.056976	-3.5479	-3.4604	-3.7458	-3.8667	-3.6229	-3.9458	-3.7917	-3.7771	-3.9229	-3.3292	-3.8396	-3.85	-3.5833	-3.9229	-3.6458	-3.7292	32.441	9.246	47.263	129.241	89.626	-86.820	147.735	195.995	143.474	235.079	119.156	195.212	9.569	-99.342	125.565	-23.043	0.00098572	0.00072405	0.0001351	1378.6	6.0727e-06	6.1504e-06	1379	370.31	3.2402e-06	1.0439e-05	422.01	138.49	117.69	41.048	9.4201e-06	51.06	0.00069151	0.00064063	0.0001657	1402.7	7.6095e-06	6.8897e-06	1405	378.63	7.4962e-06	6.8992e-06	430.63	142.28	122.49	42.38	6.2757e-06	52.838	24.060	-59.082	26.445	-105.945	-10.707	27.083	-106.186	-101.210	-38.354	18.012	-101.928	-97.497	-97.146	-92.132	44.836	-93.108	-8191	255	
502.591	1	1	0	0	0.038248	0.079501	0.17648	0.33975	0.17734	0.19116	0.36992	0.32372	0.14156	0.14974	0.1911	0.2006	0.29181	0.27866	0.14664	0.20862	-3.5729	-3.4271	-3.775	-3.9833	-3.5521	-3.9583	-3.9167	-3.6312	-3.9917	-3.6312	-3.8417	-4.0708	-3.4354	-3.6667	-3.7771	-3.5875	-31.232	-62.465	-80.535	207.027	-81.501	170.661	193.145	196.577	-33.785	33.154	98.880	169.465	-78.357	164.858	-19.075	134.820	0.0010279	0.00045448	0.00016397	1380.6	5.601e-06	6.5841e-06	1378.5	370.2	1.2104e-05	5.3037e-06	421.08	137.93	117.39	41.184	5.4835e-06	50.999	0.00066551	0.00060851	0.00016038	1404.9	7.1766e-06	6.578e-06	1402.6	378.96	7.0234e-06	6.3817e-06	429.94	142.02	121.47	42.275	6.1266e-06	52.816	29.497	-49.178	-3.703	-105.622	-29.208	-0.212	-106.311	-101.175	-6.338	1.165	-101.583	-97.342	-97.450	-92.305	-60.550	-93.132	-8191	255	
502.687	1	1	0	0	0.17407	0.19075	0.22844	0.13938	0.1057	0.28609	0.26337	0.1855	0.12455	0.14221	0.18234	0.1348	0.14669	0.11482	0.077156	0.26881	-3.65	-3.6063	-3.6479	-4.0062	-3.5875	-3.6813	-3.8896	-3.5646	-3.8333	-3.7687	-3.5479	-3.9938	-3.4667	-3.5771	-3.6521	-3.6375	167.819	53.863	166.083	-92.338	144.548	129.646	191.992	-108.455	32.804	-65.428	-99.434	131.008	-67.811	193.743	-41.832	182.605	0.00077631	0.00028174	4.1473e-05	1379.3	5.5472e-06	5.9022e-06	1379.8	369.63	3.9319e-06	6.0932e-06	421.51	138.62	118.15	41.174	7.8666e-07	50.913	0.00061271	0.00056862	0.00015736	1401.7	6.5968e-06	6.2191e-06	1400.3	378.47	6.5867e-06	6.1552e-06	429.95	142.16	120.98	42.233	6.5296e-06	52.812	39.734	-91.186	-79.055	-105.663	-48.453	-23.331	-106.144	-101.154	-68.454	9.714	-101.568	-97.346	-96.820	-92.198	-46.690	-93.022	-8191	255	
502.784	1	1	0	0	0.11884	0.02632	0.12506	0.15685	0.12887	0.16249	0.27957	0.43086	0.096847	0.10837	0.20193	0.19023	0.16734	0.24905	0.17865	0.17055	-3.35	-3.6875	-3.6958	-4.0479	-3.4354	-3.7375	-4.0563	-3.6437	-3.9292	-3.825	-3.7583	-3.9646	-3.5854	-3.9021	-3.9667	-3.6396	151.767	-69.435	-115.459	214.976	186.888	2.407	195.061	170.453	66.792	165.630	154.890	221.230	-81.299	0.538	114.308	172.512	0.00089737	0.00020829	9.2401e-05	1374.3	2.3576e-06	4.2089e-06	1378	371.21	5.4268e-06	5.5693e-06	422.75	138.62	117.87	41.118	3.9739e-06	51.137	0.00060814	0.00056094	0.00016952	1401.5	6.5927e-06	6.2159e-06	1405.9	378.58	6.6259e-06	6.2215e-06	431.9	142.27	121.2	42.215	6.9691e-06	52.813	25.267	-79.650	104.838	-105.945	-90.858	14.245	-106.046	-101.239	104.870	34.990	-101.641	-97.177	-97.043	-92.431	-52.001	-93.044	-8191	255	
502.904	1	1	0	0	0.17253	0.064459	0.086714	0.14828	0.22163	0.11726	0.10282	0.23438	0.34029	0.17063	0.23035	0.15714	0.10653	0.142	0.090269	0.10068	-3.4729	-3.7562	-3.6292	-4.1208	-3.6625	-3.6479	-4.0292	-3.6042	-3.7479	-3.8333	-3.4625	-4.0604	-3.7521	-3.5292	-3.8604	-3.4875	210.991	213.644	217.260	4.704	-50.965	23.291	191.957	159.912	-19.387	161.128	159.518	223.362	226.688	209.037	203.145	140.251	0.00096028	0.00055852	2.0971e-05	1382.7	9.1924e-06	1.3506e-06	1380.8	369.51	5.6832e-06	4.9751e-06	423.3	137.94	118.01	41.218	7.3671e-06	50.886	0.00058758	0.00055558	0.00017768	1402.2	6.4078e-06	6.1377e-06	1405.8	378.45	6.392e-06	6.2366e-06	433	141.74	120.95	42.309	7.1605e-06	52.746	30.699	-11.701	240.778	-105.585	-57.020	99.602	-106.155	-101.115	-33.019	-34.245	-101.680	-97.522	-97.034	-92.154	-53.046	-92.962	-8191	255	
503.000	1	1	0	0	0.13121	0.16431	0.12054	0.25982	0.17123	0.02353	0.19357	0.14196	0.057976	0.12131	0.16047	0.11729	0.13427	0.22444	0.27575	0.1368	-3.4083	-3.9458	-3.4833	-4.0146	-3.7292	-3.6104	-4.1354	-3.5708	-3.8771	-3.8042	-3.6729	-3.9521	-3.8125	-3.8083	-3.9604	-3.55	44.125	-16.809	79.318	-100.178	107.703	141.522	170.582	184.021	-3.384	-34.220	-117.825	151.273	122.890	68.579	222.748	202.530	0.0007773	0.00047151	0.00013242	1375.4	3.3586e-06	9.0248e-07	1375.5	370.24	4.1866e-06	1.8011e-06	420.92	137.86	118.51	41.065	9.9431e-06	50.877	0.00057206	0.00058372	0.00018422	1400.3	6.2905e-06	6.5762e-06	1403.7	377.87	6.1697e-06	6.577e-06	431.08	141.58	121.02	42.339	7.0655e-06	52.625	37.675	-18.872	-36.075	-105.877	-0.074	39.844	-106.207	-101.290	-76.621	-27.194	-101.766	-97.479	-97.467	-91.991	34.692	-93.194	-8191	255	
503.095	1	1	0	0	0.28899	0.239	0.17376	0.27839	0.13583	0.31973	0.23699	0.15829	0.11413	0.058676	0.15563	0.18389	0.22173	0.15798	0.13246	0.056336	-3.2604	-3.85	-3.4146	-3.9562	-3.7354	-3.7083	-4.1917	-3.6354	-3.7979	-4.0271	-3.6208	-3.8646	-3.8792	-3.6646	-3.8375	-3.6771	146.445	63.808	61.147	203.093	-115.908	153.884	222.305	204.488	138.034	-32.725	-115.635	163.294	-90.580	200.963	240.463	123.130	0.00072637	0.00012526	0.00023776	1377.5	5.5836e-06	9.8928e-06	1380.5	369.08	9.9206e-06	2.0882e-06	420.24	138.22	117.37	41.029	6.5421e-06	50.906	0.00056205	0.00062355	0.00017999	1400.2	6.1286e-06	6.9434e-06	1404.1	377.34	6.0279e-06	6.8833e-06	430.83	141.48	120.42	42.381	6.6472e-06	52.602	25.563	24.851	5.178	-105.803	-26.117	50.638	-106.094	-101.007	-12.415	-42.287	-101.758	-97.359	-96.887	-92.091	30.550	-92.866	-8191	255	
503.193	1	1	0	0	0.23524	0.057408	0.16777	0.16141	0.10046	0.099808	0.12804	0.18692	0.21745	0.15872	0.093422	0.083236	0.2821	0.085841	0.13892	0.17866	-3.3521	-3.8958	-3.4708	-3.9813	-3.875	-3.4583	-4.125	-3.7396	-3.7229	-3.925	-3.6292	-3.725	-3.8708	-3.4021	-3.8667	-3.8375	-90.274	73.526	-2.053	-103.903	50.984	19.386	163.912	116.598	31.458	-33.425	3.681	182.514	138.453	191.627	125.006	231.239	0.0009347	0.00051549	0.00028547	1379.1	1.4235e-06	6.319e-06	1373.9	370.15	8.5083e-06	1.6888e-06	420.42	137.94	117.59	41.125	4.4919e-06	50.993	0.00055009	0.00063177	0.00016678	1395.7	6.0239e-06	6.9168e-06	1398.9	376.72	6.0976e-06	6.9339e-06	429.56	140.94	120.49	42.448	6.4069e-06	52.461	13.150	-107.730	-46.487	-105.645	-27.196	0.372	-105.974	-101.147	-44.824	63.497	-101.781	-97.526	-97.153	-91.900	-53.412	-92.946	-8191	255	
503.287	1	1	0	0	0.29935	0.30939	0.12326	0.13665	0.16168	0.10118	0.074951	0.20463	0.21324	0.24705	0.14839	0.1663	0.045674	0.1881	0.096661	0.035836	-3.1792	-3.9854	-3.575	-3.7792	-3.7875	-3.5042	-3.9271	-4	-3.4729	-3.9875	-3.6604	-3.8375	-3.9458	-3.4875	-3.8187	-3.7021	-36.242	192.161	-116.419	237.644	113.315	169.232	218.380	72.609	-103.908	93.689	221.853	-89.354	173.338	225.226	39.268	-113.449	0.00099506	0.00069549	0.00027939	1375.1	4.7814e-06	6.3227e-06	1378.6	370.24	1.5545e-06	9.4529e-06	421.88	138.05	117.74	41.223	1.1077e-05	50.855	0.00058782	0.00064325	0.00016441	1393.3	6.5351e-06	6.9795e-06	1398.6	376.81	6.564e-06	6.9243e-06	429.66	141.08	121.35	42.379	6.2969e-06	52.413	11.750	-35.283	-16.418	-105.565	-23.731	28.598	-106.231	-101.333	112.548	9.702	-101.992	-97.345	-97.208	-92.190	23.933	-92.914	-8191	255	
503.383	1	1	0	0	0.16058	0.18818	0.05666	0.13365	0.26385	0.23924	0.16003	0.29831	0.10967	0.18528	0.31196	0.13197	0.1578	0.19212	0.2161	0.38153	-3.0333	-4	-3.5333	-3.7125	-3.8896	-3.4958	-3.9813	-3.9771	-3.3896	-3.9042	-3.6437	-3.7479	-3.9833	-3.6917	-3.725	-3.9188	11.446	222.418	35.329	-102.396	-23.439	198.897	189.148	177.739	-81.409	210.133	143.730	103.258	-109.809	-98.489	190.227	202.013	0.00082989	0.00073734	6.1567e-05	1376.4	3.9598e-06	7.76e-06	1375.6	369.64	3.1415e-06	5.0869e-06	421.29	137.66	117.32	40.95	4.2606e-06	50.99	0.00061864	0.00061863	0.00015671	1394.1	6.8001e-06	6.7039e-06	1397.2	376.13	6.8473e-06	6.5948e-06	429.39	141.03	121.29	42.27	5.9927e-06	52.463	22.016	-90.512	-24.554	-105.610	222.777	44.328	-106.036	-101.073	-54.341	-40.683	-101.852	-97.676	-97.278	-92.152	-54.456	-93.064	-8191	255	
503.479	1	1	0	0	0.13998	0.13879	0.16498	0.21395	0.061795	0.11982	0.37685	0.22361	0.21547	0.21081	0.1474	0.15409	0.019055	0.18905	0.10785	0.036326	-3.1083	-3.8521	-3.6604	-3.6854	-3.8833	-3.4854	-3.8521	-3.9854	-3.5812	-3.9521	-3.7292	-3.7292	-4.0667	-3.7333	-3.875	-4.0604	155.398	-56.099	-43.348	201.342	-8.608	158.020	174.033	236.545	-24.911	181.273	186.378	160.048	156.395	176.910	58.687	216.392	0.00076661	0.0011091	5.7929e-05	1374.1	5.785e-06	8.6831e-06	1374.8	369.26	8.3848e-06	4.2136e-06	419.97	137.65	118.3	41.103	1.9359e-06	51.11	0.00064219	0.00059784	0.00015473	1395.1	7.082e-06	6.4853e-06	1397.3	376.66	7.0173e-06	6.3932e-06	428.14	141.26	121.61	42.228	5.898e-06	52.559	36.041	-44.789	237.289	-105.949	-75.269	36.043	-106.105	-101.223	18.597	-36.222	-101.687	-97.617	-96.993	-91.969	-29.724	-92.754	-8191	255	
503.600	1	1	0	0	0.055331	0.1428	0.011561	0.12036	0.19442	0.081657	0.47852	0.33751	0.14505	0.1758	0.18575	0.079525	0.056091	0.065708	0.32648	0.27229	-3.1771	-3.7271	-3.7417	-3.6375	-3.8104	-3.5896	-3.7583	-4.0938	-3.5854	-3.9229	-3.7625	-3.5396	-4.1417	-3.7771	-3.6813	-3.9708	-106.267	-31.933	62.459	201.454	111.795	-117.214	193.955	128.475	128.015	238.060	220.504	91.928	-43.711	-41.831	-91.777	-79.129	0.00090188	0.00040198	9.6738e-05	1369.6	9.501e-06	3.3189e-06	1376.7	369.97	7.2881e-06	6.4673e-06	423.5	138.4	118.33	41.022	5.2686e-06	51.014	0.00063015	0.00057254	0.00015133	1395	6.9622e-06	6.4025e-06	1398.2	378.4	7.1624e-06	6.6127e-06	431.21	142.32	122.2	42.384	6.447e-06	53.003	23.374	-51.079	-32.717	-105.882	-45.082	0.856	-106.096	-101.114	-2.096	-24.708	-101.692	-97.240	-96.976	-92.056	6.117	-93.156	-8191	255	
503.696	1	1	0	0	0.11272	0.11195	0.082479	0.46752	0.057052	0.090029	0.094148	0.1475	0.22636	0.091265	0.15565	0.27241	0.080593	0.19888	0.17705	0.22503	-2.9896	-3.8	-3.8396	-3.6958	-3.9917	-3.5771	-3.8937	-3.9646	-3.575	-3.6542	-3.8958	-3.4979	-3.9083	-3.8521	-3.6188	-4.075	90.485	-52.051	17.599	189.466	-7.494	-6.615	164.119	121.108	172.388	0.496	80.309	179.690	172.453	223.732	40.572	207.574	0.00085085	0.0003447	2.4364e-05	1378.8	3.9409e-06	3.6483e-06	1380.3	370.05	3.3544e-06	6.0882e-06	423.94	138.67	117.08	40.988	5.3231e-06	51.05	0.00066828	0.00061916	0.00016792	1406.3	7.1088e-06	6.5957e-06	1403.8	379.66	6.9541e-06	6.4061e-06	431.83	142.56	121.22	42.323	6.5624e-06	52.879	40.928	-96.010	-97.914	-105.749	-29.564	50.578	-106.062	-101.072	3.510	21.278	-101.600	-97.481	-97.232	-91.963	78.704	-92.817	-8191	255	
503.768	1	1	0	0	0.30851	0.17666	0.30377	0.25306	0.090792	0.27011	0.14207	0.25589	0.16375	0.15136	0.038888	0.1044	0.17487	0.19864	0.16012	0.20013	-3.15	-3.4688	-3.9458	-3.425	-3.8396	-3.7583	-3.8458	-4.0875	-3.6375	-3.6437	-3.9	-3.4833	-3.7646	-3.8979	-3.4562	-3.9792	116.124	147.114	53.696	167.798	68.388	-53.792	87.619	160.884	150.475	7.083	-78.368	194.237	-94.693	-62.874	170.898	155.711	0.00070088	0.00073845	3.9278e-05	1378.8	3.6206e-06	1.9488e-06	1377.5	371.67	1.0026e-05	7.079e-06	421.19	138.56	117.96	41.039	7.5298e-06	50.917	0.00062014	0.00057678	0.00016707	1404.1	6.6167e-06	6.2173e-06	1403.3	379.53	6.5777e-06	6.2343e-06	431.66	142.48	121.35	42.309	7.0721e-06	52.88	23.812	-12.930	224.726	-105.964	-34.716	35.064	-106.046	-101.137	23.135	-78.632	-101.766	-97.381	-96.611	-92.122	232.179	-93.042	-8191	255	
503.864	1	1	0	0	0.13769	0.15013	0.046365	0.18748	0.059008	0.12147	0.19862	0.22061	0.11659	0.053204	0.081754	0.22986	0.28523	0.046899	0.073025	0.17854	-3.2542	-3.825	-3.9146	-3.7438	-3.8708	-3.7313	-3.7792	-4	-3.6625	-3.5896	-4.0458	-3.5708	-3.8958	-3.9625	-3.4833	-3.9979	27.996	72.911	-57.237	-96.349	199.600	111.587	163.212	233.878	89.474	76.769	220.109	-93.341	-76.983	155.778	157.528	-102.982	0.0009278	0.00053987	9.5835e-05	1382	9.1419e-06	4.2344e-06	1382	370.55	3.8999e-06	6.8498e-06	421.61	138.01	118.62	40.94	4.4042e-06	50.926	0.0006129	0.00058173	0.00018419	1406.7	6.6892e-06	6.4634e-06	1408.9	379.49	6.6485e-06	6.3767e-06	434.07	142.26	121.47	42.252	7.4079e-06	52.796	33.115	-62.039	-47.779	-105.742	-20.919	-46.993	-106.148	-101.169	18.584	-58.149	-101.717	-97.378	-97.224	-92.174	-22.308	-93.030	-8191	255	
503.985	1	1	0	0	0.15376	0.022646	0.10907	0.31022	0.12054	0.032929	0.18824	0.18314	0.046769	0.09663	0.0983	0.15353	0.19562	0.059797	0.13629	0.25812	-3.2167	-3.4625	-3.825	-3.6854	-3.6937	-3.8396	-3.6625	-3.9521	-3.8833	-3.5667	-4.0646	-3.6479	-3.775	-3.9333	-3.5292	-3.8187	-17.489	232.824	-112.332	206.428	219.982	168.616	118.037	-54.944	-113.712	210.123	111.100	178.236	179.653	166.478	174.777	203.258	0.00091647	0.00074521	0.00014184	1382.8	3.4168e-06	2.9416e-06	1380.5	369.61	1.0275e-05	4.7666e-07	421.01	137.98	118.01	41.024	1.0691e-05	50.871	0.00060075	0.00059669	0.00019017	1404.1	6.4683e-06	6.62e-06	1407	378	6.4124e-06	6.6158e-06	433.1	141.81	120.66	42.274	7.3079e-06	52.714	35.342	-26.503	-49.869	-105.972	24.848	-87.352	-106.155	-101.180	16.914	167.408	-101.636	-97.469	-97.101	-92.228	-5.138	-92.835	-8191	255	
504.081	1	1	0	0	0.1006	0.070404	0.24736	0.15427	0.10949	0.13154	0.20784	0.29967	0.24239	0.26705	0.31407	0.16824	0.40728	0.29145	0.18323	0.2297	-3.3396	-3.4167	-3.9	-3.8063	-3.7938	-3.8563	-3.7417	-3.9979	-3.8875	-3.5812	-3.9979	-3.4771	-3.675	-3.9562	-3.3688	-3.7604	-70.976	-28.701	91.893	178.832	16.683	211.169	177.922	174.679	103.180	207.505	173.563	79.789	181.330	-109.390	157.722	230.814	0.00075574	8.7711e-05	8.9596e-05	1373.8	7.7081e-06	2.0221e-06	1380.9	370.46	3.7515e-06	3.5679e-06	423.09	138.36	117.8	40.855	3.9478e-06	50.994	0.00057186	0.00061217	0.00018418	1396.8	6.2498e-06	6.829e-06	1404.5	378.14	6.0645e-06	6.9177e-06	432	141.39	120.57	42.39	7.0229e-06	52.659	20.553	93.278	-93.035	-105.917	28.643	-29.448	-106.095	-101.234	-43.445	16.890	-101.818	-97.405	-97.126	-92.279	238.768	-92.954	-8191	255	
504.175	1	1	0	0	0.22312	0.031166	0.19048	0.15473	0.1888	0.05813	0.21367	0.19698	0.36246	0.2792	0.22149	0.084363	0.1311	0.27055	0.15433	0.31729	-3.3708	-3.4188	-3.8312	-3.7625	-3.675	-3.7771	-3.6354	-3.8167	-3.7521	-3.4938	-3.975	-3.7188	-3.5604	-3.8792	-3.575	-3.6521	-103.464	187.361	160.266	239.100	-5.615	140.918	80.482	108.459	146.803	-12.673	-106.203	131.025	-81.975	183.694	128.638	219.562	0.00085678	0.00079722	9.9965e-05	1387.4	7.0883e-06	5.0188e-06	1378.9	370.07	4.0604e-06	8.369e-06	421.84	138.22	117.44	41.256	6.6991e-06	51.121	0.00057216	0.00065758	0.00017754	1400.9	6.3195e-06	7.2912e-06	1404.8	377.65	6.3816e-06	7.3131e-06	432.01	141.68	120.8	42.524	6.7373e-06	52.569	14.820	-11.962	-29.171	-105.660	-64.934	35.936	-106.137	-101.060	48.502	58.711	-101.795	-97.453	-97.187	-92.334	18.898	-92.908	-8191	255	
504.273	1	1	0	0	0.14036	0.14585	0.1213	0.24538	0.030142	0.14729	0.32548	0.25062	0.096139	0.21057	0.013207	0.050588	0.12944	0.21046	0.1208	0.033454	-3.5687	-3.575	-3.9062	-3.8167	-3.6167	-3.8833	-3.7979	-3.9	-3.8479	-3.3812	-3.9437	-3.8354	-3.7771	-3.9833	-3.5792	-3.9917	77.387	224.892	5.747	210.291	-111.620	-4.383	196.615	206.591	146.393	-117.970	-86.100	-90.723	-83.141	208.280	-68.225	160.695	0.00090395	0.00014713	0.00023875	1380.6	5.1293e-06	6.9099e-06	1379.1	371.3	8.247e-06	2.5694e-06	422.91	138.03	117.3	41.053	9.0644e-06	51.142	0.00059086	0.00066411	0.00016917	1398.9	6.5452e-06	7.2345e-06	1402.8	378.05	6.6021e-06	7.0916e-06	430.71	141.37	121.26	42.422	6.4038e-06	52.503	21.027	-79.402	-8.954	-105.716	-63.786	71.816	-105.974	-101.169	-65.654	58.948	-101.554	-97.478	-97.129	-92.237	12.233	-92.941	-8191	255	
504.367	1	1	0	0	0.080477	0.094461	0.16593	0.15974	0.1918	0.18589	0.16783	0.1182	0.2302	0.069183	0.32452	0.27946	0.08087	0.073198	0.23416	0.13719	-3.5667	-3.4833	-3.8396	-3.7208	-3.5333	-3.9062	-3.7104	-3.9062	-3.7917	-3.3229	-3.8125	-3.7979	-3.5667	-4.0354	-3.6479	-3.8375	-19.137	139.548	-77.464	-65.089	98.316	-77.260	-113.919	142.566	182.779	154.639	223.168	207.426	194.266	72.516	93.991	238.343	0.0008673	0.00048919	0.00018714	1375	4.7979e-06	4.2622e-06	1377.1	372.14	1.3195e-05	4.5082e-06	419.72	137.7	117.15	41.121	1.1679e-05	51.087	0.00062318	0.00064893	0.00016522	1397.7	6.9782e-06	6.9178e-06	1402.9	377.41	6.916e-06	6.6728e-06	429.02	140.91	121.22	42.311	6.0741e-06	52.481	25.757	-3.344	-29.952	-105.805	44.101	117.141	-106.116	-101.336	-26.143	38.353	-101.689	-97.527	-96.998	-92.105	-30.607	-93.026	-8191	255	
504.465	1	1	0	0	0.20421	0.056678	0.02933	0.025648	0.065178	0.12607	0.17899	0.21341	0.15363	0.052806	0.28106	0.092504	0.10197	0.18719	0.39873	0.087663	-3.3458	-3.4708	-3.7833	-3.9313	-3.5	-3.8375	-3.9333	-3.875	-3.85	-3.5146	-3.7958	-3.8521	-3.5042	-4.1188	-3.8604	-3.7396	178.435	160.349	-91.235	231.777	158.153	-109.032	57.581	177.654	-117.565	202.731	220.633	122.415	-12.876	229.697	26.299	-50.733	0.00086024	0.00031221	0.0001295	1376.4	3.6747e-06	4.056e-06	1377	370.45	7.0778e-06	9.1864e-06	421.06	138.08	117.65	41.017	6.3658e-06	51.035	0.00062924	0.00059465	0.00015388	1395	6.9506e-06	6.4675e-06	1399.3	376.9	7.0069e-06	6.4082e-06	428.71	141.44	121.54	42.249	5.9777e-06	52.582	26.850	-25.733	53.174	-105.609	-80.812	-6.040	-106.022	-101.060	-4.436	-34.388	-101.508	-97.200	-97.120	-91.975	-77.991	-92.880	-8191	255	
504.584	1	1	0	0	0.22586	0.18232	0.055213	0.20216	0.2054	0.041809	0.18301	0.074459	0.035124	0.085489	0.23819	0.0097857	0.089957	0.018969	0.20438	0.13074	-3.4104	-3.4979	-3.5563	-3.9875	-3.4792	-3.8104	-3.9292	-3.4708	-3.9958	-3.5125	-3.5896	-3.9979	-3.7667	-3.8104	-3.5896	-3.7125	78.930	-112.431	-111.661	228.862	185.578	181.577	225.357	-92.733	143.590	-33.105	-101.140	97.375	46.891	56.661	82.485	-97.596	0.00076251	0.000342	0.00014579	1375.3	4.8185e-06	9.517e-06	1375.3	370.67	7.3198e-06	6.8782e-06	419.05	138.04	117.66	41.152	4.6828e-06	50.824	0.00063646	0.0005812	0.00015174	1398.9	6.9348e-06	6.295e-06	1395.2	377.48	6.8034e-06	6.1155e-06	428.05	141.54	121	42.204	5.7419e-06	52.604	20.197	-78.399	3.095	-105.853	-100.102	61.154	-105.957	-101.239	4.788	-8.514	-101.739	-97.623	-97.145	-92.185	14.341	-93.085	-8191	255	
504.680	1	1	0	0	0.10741	0.14665	0.1763	0.19725	0.2175	0.037878	0.085324	0.31275	0.13223	0.15842	0.17084	0.13681	0.11632	0.12138	0.073183	0.028956	-3.4896	-3.6729	-3.6	-4.0333	-3.7396	-3.7417	-4.0521	-3.7542	-3.9313	-3.7687	-3.85	-4.0062	-3.7896	-3.8063	-3.8875	-3.6583	112.040	139.412	-108.534	179.074	-37.858	95.478	66.361	-111.074	84.153	171.057	222.656	96.605	-59.403	162.624	208.174	194.432	0.00072439	0.00072171	0.00018754	1374.1	3.0615e-06	3.4346e-06	1374.7	369.15	6.3452e-06	9.5525e-06	420.16	138.05	117.54	41.015	3.6656e-06	51.08	0.00060258	0.00054855	0.00014596	1397.8	6.5379e-06	6.0349e-06	1396.8	377.2	6.4995e-06	6.0778e-06	429.13	141.89	120.77	42.132	6.0867e-06	52.826	25.594	-35.080	-0.029	-105.740	1.951	-3.482	-105.873	-101.462	-25.580	24.816	-101.612	-97.449	-96.689	-92.346	-103.835	-92.974	-8191	255	
504.776	1	1	0	0	0.2876	0.13105	0.24407	0.18414	0.14048	0.049885	0.12413	0.22043	0.18153	0.29857	0.23965	0.31273	0.10235	0.35011	0.067854	0.018956	-3.5021	-3.725	-3.775	-4.1958	-3.6063	-3.825	-4.0625	-3.8896	-4.0458	-3.7646	-3.5708	-4.1479	-3.7562	-3.8438	-3.9042	-3.6521	169.241	164.086	-26.087	74.672	171.370	116.261	161.042	205.008	-117.879	-53.915	79.979	187.374	133.449	174.777	86.701	208.551	0.00077657	0.00083966	0.00014474	1373.9	9.2386e-06	5.1424e-06	1376.9	369.33	1.0151e-05	7.0481e-06	418.74	138.93	117.58	41.043	6.3315e-06	50.917	0.00059207	0.00055049	0.00015713	1399.9	6.2886e-06	5.8904e-06	1399.5	377.72	6.1716e-06	5.7684e-06	429.76	142.04	120.63	42.06	6.393e-06	52.743	18.008	234.368	43.319	-105.684	-70.324	-30.637	-106.013	-101.190	-57.182	24.225	-101.831	-97.607	-97.194	-92.181	-43.731	-92.913	-8191	255	
504.873	1	1	0	0	0.22548	0.13985	0.16044	0.28148	0.25383	0.07306	0.2766	0.17934	0.075645	0.12456	0.23398	0.16223	0.069069	0.12951	0.13982	0.22364	-3.5021	-3.7833	-3.5833	-4.0375	-3.5042	-3.7812	-4.0479	-3.5042	-3.7792	-3.7188	-3.5417	-4.0938	-3.825	-3.8792	-3.9458	-3.5187	214.345	34.228	11.715	175.647	71.804	-63.745	158.533	180.404	103.780	-100.470	232.139	-41.692	224.285	101.784	124.272	119.026	0.00075277	0.00012228	0.00020057	1373	7.0701e-06	5.3745e-06	1377.4	370.63	1.0861e-05	4.948e-06	420.5	137.95	117.69	41.123	1.7746e-06	50.944	0.00056409	0.00052426	0.00016484	1397.9	6.0769e-06	5.695e-06	1400.9	377.28	6.0542e-06	5.7104e-06	430	141.45	120.25	42.14	6.6911e-06	52.658	26.682	-118.044	143.762	-105.682	-31.180	51.601	-106.064	-101.335	6.407	13.509	-101.694	-97.438	-97.142	-92.078	149.760	-93.022	-8191	255	
504.993	1	1	0	0	0.24048	0.21865	0.15539	0.20872	0.29073	0.31213	0.33143	0.27025	0.19264	0.15632	0.10496	0.064204	0.15557	0.143	0.09605	0.037554	-3.3333	-3.8667	-3.5771	-4.1521	-3.7208	-3.7	-4.0167	-3.6896	-3.8125	-3.8479	-3.75	-4.0396	-3.825	-3.7167	-4.0354	-3.6104	-65.820	77.536	190.677	-89.935	152.283	128.905	240.530	155.753	-14.477	165.710	-0.667	91.608	-14.439	-33.589	69.066	146.721	0.0008452	0.0007259	0.00018804	1376.5	8.9396e-07	2.0108e-06	1374.3	370.1	6.3642e-06	4.5436e-06	422.23	137.45	117.11	40.955	8.1392e-06	51.06	0.00054836	0.0005371	0.00017325	1397.3	5.9574e-06	5.9779e-06	1400.8	377.58	5.8462e-06	5.9137e-06	431.04	141.23	120.18	42.133	6.7297e-06	52.683	24.467	-100.694	-55.530	-105.679	84.628	-90.563	-106.056	-101.192	70.556	21.000	-101.568	-97.592	-97.040	-92.107	-33.877	-92.913	-8191	255	
505.065	1	1	0	0	0.27348	0.11878	0.040654	0.25685	0.22571	0.13744	0.12911	0.1477	0.14148	0.04975	0.26392	0.030073	0.19249	0.19814	0.040407	0.09907	-3.4	-3.7542	-3.5312	-4.0875	-3.8063	-3.6354	-4.1396	-3.6667	-3.7854	-3.8542	-3.7917	-3.9521	-3.8729	-3.65	-4.075	-3.7896	-41.149	-56.648	20.307	-115.467	-101.574	-114.115	102.225	173.764	-44.898	-40.519	147.074	-97.127	224.742	191.867	25.322	160.488	0.00085832	0.00042335	0.00018445	1377.3	1.2978e-06	3.4935e-06	1377.2	370.15	7.3934e-06	3.3345e-06	421.84	137.72	117.42	40.952	1.1241e-05	50.936	0.00053731	0.00056302	0.00017182	1395.9	5.7469e-06	6.3062e-06	1401.4	376.7	5.6781e-06	6.3379e-06	430.67	141.18	120.16	42.236	6.5318e-06	52.517	31.452	-45.008	-25.534	-105.929	126.601	232.821	-106.110	-100.972	-55.408	136.666	-101.746	-97.349	-96.610	-92.095	7.478	-92.890	-8191	255	
505.161	1	1	0	0	0.10962	0.24118	0.18118	0.15951	0.12145	0.12628	0.25684	0.15939	0.28014	0.33896	0.20816	0.20234	0.08207	0.13905	0.092396	0.11904	-3.3812	-3.925	-3.5187	-4.0167	-3.8646	-3.6813	-4.0854	-3.8854	-3.7646	-4.0021	-3.5958	-3.8667	-3.8292	-3.6979	-4.0813	-3.9396	107.960	98.625	195.674	233.578	-49.140	88.191	193.751	-73.686	214.476	-79.975	176.886	240.016	174.933	-89.843	145.081	150.886	0.00071589	0.00044419	8.6021e-05	1372.2	3.2158e-06	1.6187e-06	1374.4	369.61	6.2584e-06	4.3751e-06	421.39	137.7	117.6	41.103	6.5776e-06	50.932	0.0005309	0.00059744	0.00016652	1395.1	5.8058e-06	6.6264e-06	1400.7	376.41	5.7487e-06	6.618e-06	429.75	141.09	120.32	42.311	6.2665e-06	52.486	18.271	-7.663	-65.723	-105.782	85.434	48.875	-106.029	-101.052	-32.937	-30.101	-101.622	-97.565	-97.062	-91.947	-9.962	-93.216	-8191	255	
505.280	1	1	0	0	0.37184	0.094754	0.19085	0.18021	0.079894	0.15351	0.14447	0.31488	0.074483	0.14672	0.16818	0.086654	0.11283	0.18685	0.19211	0.22903	-3.5229	-3.9625	-3.8083	-3.8979	-3.8229	-3.4854	-4.1646	-3.9688	-3.6312	-4.0708	-3.6937	-3.8271	-3.9313	-3.6083	-4.0021	-3.8333	75.786	132.892	46.988	222.800	194.233	221.540	225.252	194.515	27.983	3.373	238.366	-105.525	22.575	214.495	-55.550	174.215	0.00081667	0.00027733	0.00018393	1376.2	3.384e-06	5.5171e-06	1380.6	370.23	6.3336e-06	4.5131e-06	420.17	137.43	116.86	40.941	5.5141e-06	51.124	0.00055171	0.00062285	0.00016105	1395.5	6.0378e-06	6.86e-06	1400.3	377	6.1837e-06	6.7914e-06	429.45	140.88	120.63	42.264	6.1373e-06	52.497	31.866	166.308	-49.824	-105.658	147.672	0.525	-106.154	-100.952	1.773	0.899	-101.829	-97.363	-96.990	-92.270	-48.971	-92.835	-8191	255	
505.376	1	1	0	0	0.067246	0.12312	0.13882	0.51433	0.12346	0.074274	0.25259	0.22296	0.14747	0.10956	0.22896	0.073859	0.38197	0.16305	0.10023	0.26422	-3.2208	-4.0646	-3.6208	-3.9771	-4.0479	-3.5563	-3.9604	-3.9208	-3.6458	-4.0125	-3.8937	-3.7667	-3.8958	-3.7042	-3.7062	-3.8625	178.369	-33.226	131.566	239.436	-33.555	238.134	166.602	-115.188	-72.123	145.305	186.378	-118.098	-69.366	201.339	197.498	179.793	0.0008241	0.00084461	2.5034e-05	1375.2	2.2321e-06	2.5356e-06	1375.1	368.84	7.0312e-06	6.7224e-06	421.49	138.28	117.71	41.082	2.3086e-06	50.913	0.00058077	0.00062501	0.00015595	1393.8	6.472e-06	6.7853e-06	1398.4	376.42	6.6325e-06	6.6003e-06	429.75	141.31	121.32	42.333	6.0951e-06	52.462	31.673	-38.780	39.675	-105.740	-91.588	24.306	-106.022	-101.130	-19.364	-26.954	-101.605	-97.368	-97.050	-92.319	-84.814	-92.964	-8191	255	
505.472	1	1	0	0	0.14285	0.043429	0.11109	0.21233	0.12703	0.17376	0.27403	0.062266	0.12465	0.043749	0.19369	0.091041	0.13697	0.12722	0.11325	0.249	-3.1167	-3.9479	-3.6833	-4.0458	-4.0563	-3.7687	-3.9083	-4.0083	-3.6958	-3.9729	-3.8021	-3.6333	-4.0542	-3.5979	-3.8729	-4.0896	-54.955	-65.008	41.176	134.034	180.349	-110.173	147.521	226.693	-18.169	179.037	-88.107	187.828	219.763	-45.527	138.372	208.273	0.00088533	0.00058889	0.00018805	1375.2	5.0303e-06	5.4146e-06	1379.7	370.51	4.9405e-06	1.0073e-05	420.63	138.22	117.81	40.845	8.838e-06	51.052	0.00062001	0.00060645	0.00015523	1394.9	6.8828e-06	6.5411e-06	1399.7	376.78	7.0157e-06	6.513e-06	429.36	141.64	121.79	42.196	6.011e-06	52.678	9.941	-67.561	-28.226	-105.740	229.356	21.695	-105.981	-101.262	136.335	26.585	-101.685	-97.328	-97.074	-92.303	16.799	-92.877	-8191	255	
505.568	1	1	0	0	0.1891	0.12309	0.2571	0.25479	0.17782	0.19155	0.18999	0.093622	0.15096	0.017495	0.11127	0.051514	0.087524	0.070791	0.10108	0.11074	-3.1896	-3.9583	-3.8438	-3.7708	-4.0521	-3.6125	-3.9917	-4.0854	-3.4875	-3.9771	-4.0354	-3.8021	-4.025	-3.6792	-3.6979	-4.0708	153.175	-93.470	124.815	167.180	225.556	126.106	176.828	54.236	233.408	-97.157	122.906	-20.126	141.771	146.417	45.668	223.102	0.00071798	0.00059301	4.5119e-05	1381.2	7.8718e-06	1.0598e-06	1376.6	370.56	6.9322e-06	4.5548e-06	420.31	138.06	118.15	41.034	1.2545e-06	51.058	0.00064399	0.00058554	0.00015167	1399.3	6.907e-06	6.3027e-06	1399.8	377.8	6.9076e-06	6.2646e-06	428.84	141.65	121.45	42.237	5.8195e-06	52.737	22.164	-34.877	-45.315	-105.889	-15.578	71.249	-106.071	-101.167	12.638	-6.333	-101.819	-97.278	-96.904	-92.187	32.653	-92.953	-8191	255	
505.665	1	1	0	0	0.1894	0.083927	0.33267	0.36485	0.20259	0.071277	0.22701	0.12897	0.14393	0.050494	0.023647	0.032501	0.15783	0.17083	0.1774	0.090753	-3.1396	-3.8292	-3.7625	-3.8625	-4.0042	-3.6229	-3.9042	-4.075	-3.4396	-3.8458	-3.9417	-3.6646	-3.8438	-3.6875	-3.7687	-4.1458	-4.194	221.163	-9.201	-117.955	83.555	173.085	185.428	196.985	-52.944	217.188	144.479	-90.306	108.555	-77.457	72.259	185.883	0.00073528	0.00045117	6.386e-05	1374.3	1.0127e-05	5.3056e-06	1378.9	369.67	8.114e-06	1.3308e-06	422.47	138.04	117.66	40.854	3.3324e-06	51.082	0.000622	0.00056807	0.00015005	1399.4	6.7782e-06	6.1635e-06	1400.4	378.47	6.6426e-06	6.0993e-06	429.9	141.64	121.12	42.145	5.9336e-06	52.869	43.049	-77.704	-16.456	-105.802	39.156	38.819	-106.113	-101.136	-3.821	16.893	-101.800	-97.424	-97.254	-92.103	214.555	-92.748	-8191	255	
505.761	1	1	0	0	0.32008	0.26895	0.19478	0.22815	0.10674	0.1622	0.42049	0.2415	0.14892	0.078029	0.1122	0.34629	0.14214	0.14492	0.15629	0.18921	-3.0833	-3.8625	-3.7875	-3.65	-3.9917	-3.8521	-3.6396	-4.2375	-3.7958	-3.7667	-4.0687	-3.6292	-3.775	-3.9062	-3.6792	-4.0021	146.164	154.845	240.666	220.638	-31.485	154.425	146.181	208.239	85.580	204.718	174.934	171.758	-46.544	-118.324	-75.575	18.509	0.0010266	0.00051082	0.000209	1375.5	3.1923e-06	3.8269e-06	1381.7	371.69	1.8432e-06	5.8787e-06	421.25	138.05	118.07	41.196	5.5108e-07	51.029	0.00059541	0.00055366	0.00015384	1400.2	6.4248e-06	5.9907e-06	1403.5	379.28	6.4993e-06	6.0843e-06	430.65	141.99	120.87	42.203	6.5093e-06	52.913	21.823	-4.588	-66.434	-105.714	-97.814	41.974	-105.978	-101.017	19.630	-24.398	-101.772	-97.372	-96.938	-92.268	211.326	-93.120	-8191	255	
505.857	1	1	0	0	0.068232	0.12363	0.10001	0.18421	0.086291	0.17526	0.19413	0.12169	0.14004	0.13921	0.088804	0.068039	0.14759	0.23513	0.12267	0.068404	-3.2438	-3.6833	-4.0125	-3.5521	-3.9062	-3.8229	-3.6979	-4.0375	-3.5583	-3.7292	-4	-3.7396	-3.9271	-3.9146	-3.6063	-3.9167	-23.994	37.536	-110.667	-102.137	78.642	116.662	188.121	240.634	-117.152	139.752	81.068	160.831	-12.972	145.966	97.691	177.700	0.0006766	0.00056818	6.4038e-05	1382.5	3.0857e-06	5.6752e-06	1379.8	370.95	2.9756e-06	4.7203e-06	421.56	138.46	117.77	41.059	4.2151e-06	50.996	0.00059423	0.00055337	0.00016937	1403.6	6.4137e-06	6.0271e-06	1405.6	378.39	6.3679e-06	5.9886e-06	431.75	141.98	120.73	42.193	6.7372e-06	52.79	23.051	-37.088	68.931	-105.817	-13.370	21.308	-106.204	-101.129	30.702	-8.736	-101.624	-97.514	-96.965	-91.928	224.073	-92.745	-8191	255	
505.953	1	1	0	0	0.23237	0.13365	0.27617	0.30284	0.19514	0.057108	0.16082	0.13095	0.28849	0.15382	0.16383	0.37808	0.11463	0.22002	0.044366	0.27971	-3.3208	-3.6042	-3.9021	-3.6771	-3.575	-3.875	-3.7188	-4.0875	-3.675	-3.7625	-3.975	-3.5583	-3.7375	-4.0125	-3.5375	-4.0208	110.609	-61.653	-87.765	196.377	65.068	-67.016	192.813	-39.600	-96.427	99.163	212.458	199.380	-24.868	-82.538	187.593	126.199	0.00087366	0.00025964	8.9576e-05	1376.1	1.2205e-06	4.9252e-06	1377.1	370.48	7.8327e-06	2.4656e-06	420.64	138.38	117.33	40.906	7.3903e-06	51.109	0.00057418	0.00054587	0.00017769	1400.3	6.1835e-06	6.064e-06	1404.5	377.86	6.2025e-06	6.0946e-06	431.71	141.57	120.38	42.159	7.0148e-06	52.677	19.117	-7.181	-45.622	-105.878	45.637	80.550	-106.212	-101.190	19.502	222.906	-101.486	-97.524	-97.234	-92.056	19.105	-93.086	-8191	255	
506.074	1	1	0	0	0.31285	0.23094	0.036064	0.36217	0.20433	0.15678	0.25185	0.20768	0.09151	0.08807	0.26883	0.14003	0.2793	0.27866	0.10308	0.028558	-3.1729	-3.4542	-4.0125	-3.5854	-3.6437	-3.9396	-3.7333	-4.15	-3.6292	-3.5938	-3.9708	-3.7875	-3.8125	-4.1667	-3.5875	-4.0125	-100.408	-90.214	17.608	-104.754	-8.830	109.383	197.883	128.813	20.312	176.226	198.265	189.368	171.201	223.498	211.521	81.342	0.00078848	0.00054146	0.00019194	1380.6	1.0609e-05	4.7488e-06	1375	369.78	2.9524e-06	4.0053e-06	421.62	138.18	118.22	40.945	6.005e-06	51.112	0.00055354	0.00056822	0.000178	1399.5	6.0356e-06	6.3382e-06	1402.3	377.41	6.0003e-06	6.5003e-06	430.95	141.34	120.46	42.269	6.8549e-06	52.612	17.203	-46.821	24.724	-105.693	6.180	-27.913	-106.100	-101.261	34.415	-47.025	-101.925	-97.519	-96.769	-92.127	0.783	-92.896	-8191	255	
506.168	1	1	0	0	0.076607	0.20114	0.24398	0.36572	0.21606	0.039639	0.12511	0.21453	0.28928	0.11002	0.23477	0.25204	0.073538	0.17682	0.14426	0.12013	-3.4333	-3.5542	-4.0708	-3.7083	-3.6854	-3.9542	-3.8729	-3.8875	-3.7958	-3.5521	-4.1083	-3.5938	-3.6667	-4.0646	-3.5979	-3.8271	167.422	234.293	167.334	194.080	147.927	103.818	213.124	141.425	17.197	-110.921	232.092	161.131	151.729	-66.388	-15.210	94.588	0.000774	0.00073488	0.00021254	1375.1	3.2543e-06	8.7968e-07	1373.1	370.34	3.8953e-06	2.1323e-06	419.06	137.92	116.73	41.014	4.1814e-06	51.042	0.00054486	0.00061611	0.00017189	1398	5.8922e-06	6.7358e-06	1401.3	377.52	5.9388e-06	6.8106e-06	430.74	141.53	120.26	42.361	6.5372e-06	52.592	38.280	-32.828	-36.090	-105.605	-82.153	62.468	-106.088	-101.121	-0.856	-44.446	-101.607	-97.456	-97.013	-91.938	10.009	-93.015	-8191	255	
506.266	1	1	0	0	0.071243	0.19655	0.19315	0.10369	0.035212	0.07453	0.065577	0.29773	0.25441	0.074108	0.13759	0.10565	0.20578	0.14884	0.091123	0.18306	-3.5563	-3.4667	-3.8667	-3.8375	-3.5458	-4.05	-3.875	-3.8771	-3.8042	-3.6083	-3.9562	-3.9292	-3.6437	-3.9354	-3.5875	-3.9583	61.976	73.341	187.555	130.162	230.998	-13.722	109.591	135.806	64.157	195.574	208.319	74.423	-51.348	6.136	-115.486	72.689	0.00087422	0.00037025	0.00012588	1379.6	3.3446e-06	6.0184e-06	1382	369.87	7.4876e-06	4.1396e-06	420.6	137.95	117.6	40.982	5.6536e-06	51.012	0.00055699	0.00064105	0.00016675	1396.3	6.133e-06	7.0018e-06	1402.6	376.81	6.1825e-06	7.0014e-06	430.1	141.23	120.62	42.393	6.3525e-06	52.511	18.009	-63.107	-51.391	-105.706	220.152	20.944	-106.095	-101.116	-26.349	34.776	-101.709	-97.396	-97.157	-92.109	118.639	-92.716	-8191	255	
#DATA ENDS
