BOXY.EXE: ISS Imagent and Oximeter Data Acquisition Program Version 0.80
Ascii Record File

#ACQ INFORMATION
2  Detector Channels 
16  External MUX Channels 
1  Auxiliary Channels 
5000  Waveform (CCF) Frequency (Hz)
1  Waveforms Skipped 
30  Waveforms Averaged 
1  Cycles Averaged 
16  Acquisitions per Waveform 
10.0806  Updata Rate (Hz) 

#FILE INFORMATION
TRUE -- External MUX Channel results are PARSED.
FALSE -- AC DC and Phase are NOT grouped.
TRUE -- Companion Program Settings File CREATED.
FALSE -- AC data not excluded
FALSE -- DC data not excluded
FALSE -- Phase data not excluded
FALSE -- Auxillary Chn. data not excluded
Tab delimiters

#CALIBRATION STATE
TRUE -- Waveform Calibration Values APPLIED.


#AUX CALIBRATION VALUES
Val Type	aux-1	

Term	1.0000e+00	
Factor	0.0000e+00	


#WF CALIBRATION VALUES
A = Detector Channel
Val Type	A-AC1	A-AC2	A-AC3	A-AC4	A-AC5	A-AC6	A-AC7	A-AC8	A-AC9	A-AC10	A-AC11	A-AC12	A-AC13	A-AC14	A-AC15	A-AC16	A-DC1	A-DC2	A-DC3	A-DC4	A-DC5	A-DC6	A-DC7	A-DC8	A-DC9	A-DC10	A-DC11	A-DC12	A-DC13	A-DC14	A-DC15	A-DC16	A-Ph1	A-Ph2	A-Ph3	A-Ph4	A-Ph5	A-Ph6	A-Ph7	A-Ph8	A-Ph9	A-Ph10	A-Ph11	A-Ph12	A-Ph13	A-Ph14	A-Ph15	A-Ph16	

Term	0.00000e+00	0.00000e+00	0.00000e+00	0.00000e+00	0.00000e+00	0.00000e+00	0.00000e+00	0.00000e+00	0.00000e+00	0.00000e+00	0.00000e+00	0.00000e+00	0.00000e+00	0.00000e+00	0.00000e+00	0.00000e+00	0.00000e+00	0.00000e+00	0.00000e+00	0.00000e+00	0.00000e+00	0.00000e+00	0.00000e+00	0.00000e+00	0.00000e+00	0.00000e+00	0.00000e+00	0.00000e+00	0.00000e+00	0.00000e+00	0.00000e+00	0.00000e+00	0.00000e+00	0.00000e+00	0.00000e+00	0.00000e+00	0.00000e+00	0.00000e+00	0.00000e+00	0.00000e+00	0.00000e+00	0.00000e+00	0.00000e+00	0.00000e+00	0.00000e+00	0.00000e+00	0.00000e+00	0.00000e+00	
Factor	1.00000e+00	1.00000e+00	1.00000e+00	1.00000e+00	1.00000e+00	1.00000e+00	1.00000e+00	1.00000e+00	1.00000e+00	1.00000e+00	1.00000e+00	1.00000e+00	1.00000e+00	1.00000e+00	1.00000e+00	1.00000e+00	1.00000e+00	1.00000e+00	1.00000e+00	1.00000e+00	1.00000e+00	1.00000e+00	1.00000e+00	1.00000e+00	1.00000e+00	1.00000e+00	1.00000e+00	1.00000e+00	1.00000e+00	1.00000e+00	1.00000e+00	1.00000e+00	X	X	X	X	X	X	X	X	X	X	X	X	X	X	X	X	

B = Detector Channel
Val Type	B-AC1	B-AC2	B-AC3	B-AC4	B-AC5	B-AC6	B-AC7	B-AC8	B-AC9	B-AC10	B-AC11	B-AC12	B-AC13	B-AC14	B-AC15	B-AC16	B-DC1	B-DC2	B-DC3	B-DC4	B-DC5	B-DC6	B-DC7	B-DC8	B-DC9	B-DC10	B-DC11	B-DC12	B-DC13	B-DC14	B-DC15	B-DC16	B-Ph1	B-Ph2	B-Ph3	B-Ph4	B-Ph5	B-Ph6	B-Ph7	B-Ph8	B-Ph9	B-Ph10	B-Ph11	B-Ph12	B-Ph13	B-Ph14	B-Ph15	B-Ph16	

Term	0.00000e+00	0.00000e+00	0.00000e+00	0.00000e+00	0.00000e+00	0.00000e+00	0.00000e+00	0.00000e+00	0.00000e+00	0.00000e+00	0.00000e+00	0.00000e+00	0.00000e+00	0.00000e+00	0.00000e+00	0.00000e+00	0.00000e+00	0.00000e+00	0.00000e+00	0.00000e+00	0.00000e+00	0.00000e+00	0.00000e+00	0.00000e+00	0.00000e+00	0.00000e+00	0.00000e+00	0.00000e+00	0.00000e+00	0.00000e+00	0.00000e+00	0.00000e+00	-1.83054e+02	-1.28695e+02	-1.24060e+02	-1.82730e+02	-8.03315e+01	-6.64456e+01	-1.55606e+02	-1.62015e+02	-9.22986e+01	-6.89241e+01	-1.72279e+02	-1.70080e+02	-1.79579e+02	-1.77215e+02	-7.89233e+01	-1.49329e+02	
Factor	2.99331e-05	1.55479e-04	4.19442e-05	1.61934e-01	1.57654e-06	1.69154e-06	1.52548e-01	4.60961e-02	1.71663e-06	1.67939e-06	8.77263e-02	2.69812e-02	2.54748e-02	8.56556e-03	1.66169e-06	1.23162e-02	1.73125e-05	3.46895e-05	9.63778e-06	8.07384e-02	3.25976e-07	3.93007e-07	7.18427e-02	2.31086e-02	3.21270e-07	3.94494e-07	4.28785e-02	1.32135e-02	1.29370e-02	4.33807e-03	3.46650e-07	6.07619e-03	X	X	X	X	X	X	X	X	X	X	X	X	X	X	X	X	



#DISTANCE SETTINGS
A = Detector Channel
A-1	A-2	A-3	A-4	A-5	A-6	A-7	A-8	A-9	A-10	A-11	A-12	A-13	A-14	A-15	A-16	

2.5000e+00	3.0000e+00	2.5000e+00	3.0000e+00	2.0000e+00	3.0000e+00	1.5000e+00	3.0000e+00	3.0000e+00	3.0000e+00	3.0000e+00	3.0000e+00	3.0000e+00	3.0000e+00	1.5000e+00	3.0000e+00	

B = Detector Channel
B-1	B-2	B-3	B-4	B-5	B-6	B-7	B-8	B-9	B-10	B-11	B-12	B-13	B-14	B-15	B-16	

1.0000e+01	1.0000e+01	1.0000e+01	1.4400e+00	1.0000e+01	1.0000e+01	1.5100e+00	1.9400e+00	1.0000e+01	1.0000e+01	1.9900e+00	2.4900e+00	2.4100e+00	2.9000e+00	1.0000e+01	2.9800e+00	




#DATA BEGINS
time	group	step	mark	flag	A-AC1	A-AC2	A-AC3	A-AC4	A-AC5	A-AC6	A-AC7	A-AC8	A-AC9	A-AC10	A-AC11	A-AC12	A-AC13	A-AC14	A-AC15	A-AC16	A-DC1	A-DC2	A-DC3	A-DC4	A-DC5	A-DC6	A-DC7	A-DC8	A-DC9	A-DC10	A-DC11	A-DC12	A-DC13	A-DC14	A-DC15	A-DC16	A-Ph1	A-Ph2	A-Ph3	A-Ph4	A-Ph5	A-Ph6	A-Ph7	A-Ph8	A-Ph9	A-Ph10	A-Ph11	A-Ph12	A-Ph13	A-Ph14	A-Ph15	A-Ph16	B-AC1	B-AC2	B-AC3	B-AC4	B-AC5	B-AC6	B-AC7	B-AC8	B-AC9	B-AC10	B-AC11	B-AC12	B-AC13	B-AC14	B-AC15	B-AC16	B-DC1	B-DC2	B-DC3	B-DC4	B-DC5	B-DC6	B-DC7	B-DC8	B-DC9	B-DC10	B-DC11	B-DC12	B-DC13	B-DC14	B-DC15	B-DC16	B-Ph1	B-Ph2	B-Ph3	B-Ph4	B-Ph5	B-Ph6	B-Ph7	B-Ph8	B-Ph9	B-Ph10	B-Ph11	B-Ph12	B-Ph13	B-Ph14	B-Ph15	B-Ph16	aux-1	digaux	

39970.320	1	1	0	256	0.14762	0.13016	0.21589	0.37998	0.21482	0.06092	0.30028	0.17015	0.16067	0.25881	0.26536	0.10248	0.15179	0.27503	0.20582	0.27292	-2.525	-3.1604	-2.775	-3.2188	-3.0604	-2.9688	-3.4354	-3.0771	-2.8146	-3.2667	-3.0812	-3.0604	-3.3208	-2.8354	-3.0208	-3.0062	420.532	212.889	333.361	509.514	187.875	400.187	452.587	192.060	203.919	487.219	409.935	491.956	467.045	494.970	438.696	331.918	0.00049995	0.00015502	0.00010046	1185.3	3.6755e-06	2.5017e-06	1254.8	247.2	3.786e-06	3.5717e-06	307.07	86.622	67.922	19.582	4.2188e-06	27.213	0.00043718	0.00047828	0.00013545	1174.7	4.9895e-06	5.2851e-06	1239.5	245.22	4.9188e-06	5.135e-06	306.45	86.661	67.826	19.681	4.8134e-06	27.734	501.597	259.431	266.781	172.768	284.850	285.136	172.592	179.845	267.824	302.960	179.396	185.860	186.068	193.475	296.919	193.024	-8191	255	
39970.441	1	1	0	0	0.2335	0.048071	0.14831	0.28037	0.2391	0.07051	0.40411	0.18504	0.17398	0.093345	0.19579	0.22242	0.21056	0.22745	0.005956	0.15578	-2.3979	-3.2583	-2.8458	-2.9792	-3.3896	-2.9104	-3.2875	-3.3083	-2.9417	-3.2125	-2.9271	-2.9688	-3.3479	-2.8542	-3.2458	-3.1771	397.129	443.103	486.857	457.526	183.463	439.782	440.615	435.169	184.325	502.444	400.391	421.574	455.232	345.646	516.008	429.904	0.00050323	0.00025527	0.00010969	1181.4	4.5063e-06	2.9402e-06	1245.1	246.58	5.6246e-06	3.9053e-06	306.41	85.774	67.81	19.413	3.8757e-06	27.327	0.00042271	0.00045703	0.00012491	1167.7	4.6879e-06	5.3375e-06	1233.6	244.63	4.8619e-06	4.8991e-06	305.44	86.285	67.746	19.662	4.731e-06	27.743	502.898	259.395	257.655	172.906	270.790	285.465	172.530	179.539	257.069	294.686	179.271	185.709	185.855	193.967	292.051	192.919	-8191	255	
39970.535	1	1	0	0	0.075702	0.14483	0.39991	0.075544	0.359	0.19426	0.14398	0.28821	0.1174	0.30997	0.26749	0.22359	0.20196	0.070623	0.17887	0.06191	-2.55	-3.1583	-2.8063	-3.2	-3.3812	-2.9792	-3.2958	-3.2812	-2.8354	-3.15	-2.9729	-3.0438	-3.1125	-2.9958	-3.0917	-3.2167	214.604	343.045	300.726	516.234	516.630	311.954	501.767	513.124	188.072	488.253	424.069	456.129	439.878	377.839	486.778	227.502	0.00047147	0.00028483	6.9808e-05	1185.9	2.9271e-06	2.2696e-06	1241	247.48	5.7568e-06	3.1721e-06	306.98	86.074	68.023	19.39	5.1545e-06	27.283	0.00040818	0.00046881	0.00012101	1169.4	4.6411e-06	5.3875e-06	1233.4	245.38	5.0419e-06	4.9813e-06	306.08	86.5	68.003	19.701	4.7238e-06	27.788	499.428	261.662	280.434	172.960	284.406	302.388	172.644	179.710	267.997	315.246	179.581	185.927	185.923	193.122	296.570	192.637	-8191	255	
39970.633	1	1	0	0	0.14151	0.03876	0.10053	0.10211	0.098749	0.24094	0.1844	0.12313	0.038125	0.1414	0.08695	0.036174	0.18522	0.10923	0.2265	0.15178	-2.3042	-3.1125	-3.0042	-3.0875	-3.4021	-2.9604	-3.3479	-3.4396	-2.7854	-3.2146	-3.2854	-3.0187	-3.0417	-3.0687	-2.9896	-3.1354	175.916	380.905	386.336	433.025	200.828	501.085	468.478	280.156	269.816	379.781	501.544	180.142	494.621	393.944	335.492	499.574	0.00055569	0.0003565	0.00012371	1188.8	3.9791e-06	3.9419e-06	1250	246.12	5.143e-06	4.6404e-06	308.1	86.626	67.684	19.511	2.188e-06	27.377	0.00044147	0.00047192	0.00012836	1171.8	5.1008e-06	5.1631e-06	1236.6	245.01	4.9911e-06	4.9632e-06	306.78	86.74	67.966	19.7	4.5007e-06	27.872	501.666	256.192	218.412	172.823	271.143	319.287	172.378	179.488	255.607	319.130	179.456	185.407	186.399	193.207	306.771	192.766	-8191	255	
39970.730	1	1	0	0	0.056916	0.14573	0.16522	0.37892	0.048314	0.06683	0.33228	0.2491	0.1621	0.18936	0.10534	0.1949	0.22556	0.20081	0.1272	0.0738	-2.2792	-3.1833	-2.8708	-2.9833	-3.1562	-2.8042	-3.2208	-3.4938	-2.9	-3.2292	-3.1583	-2.9729	-3.2979	-2.9833	-3.0354	-3.2583	485.145	176.209	260.533	474.835	465.265	419.863	429.443	452.348	407.402	280.581	256.743	500.311	402.844	359.002	297.237	406.948	0.00049236	0.00028626	6.2814e-05	1189.1	4.6313e-06	1.691e-06	1255	246.76	4.7902e-06	3.4727e-06	307.53	87.171	68.338	19.509	4.4378e-06	27.446	0.00044782	0.00044583	0.00011507	1173.8	5.0431e-06	4.9052e-06	1240.6	245.8	4.9937e-06	4.9641e-06	307.67	87.108	68.278	19.842	4.349e-06	27.905	499.579	242.361	263.921	172.840	272.025	307.509	172.717	179.872	256.531	286.854	179.754	185.808	185.743	193.565	285.463	192.517	-8191	255	
39970.824	1	1	0	0	0.23983	0.089565	0.17641	0.16074	0.22035	0.25868	0.21641	0.37506	0.10218	0.11669	0.031767	0.15304	0.1709	0.10896	0.08106	0.11808	-2.6	-3.2625	-3.0458	-2.9271	-3.1521	-2.9437	-3.2188	-3.2479	-2.9813	-3.2708	-3.2625	-2.8833	-3.1292	-2.9979	-3.0479	-3.3917	374.396	369.834	305.390	514.864	385.749	261.936	480.501	493.281	403.377	209.036	324.742	172.742	212.949	434.996	495.178	336.030	0.00052651	0.00039684	6.3734e-05	1187.4	2.5452e-06	4.1462e-06	1251	247.33	5.4757e-06	3.0851e-06	307.68	87.134	68.766	19.637	2.3057e-06	27.523	0.00044435	0.00041591	0.00011557	1175	4.9277e-06	4.8659e-06	1239.6	246.07	4.9348e-06	4.9394e-06	307.57	87.122	68.453	19.824	4.7419e-06	28.036	499.271	257.264	253.912	172.759	290.053	327.893	172.553	179.716	274.466	285.750	179.556	185.548	185.668	193.492	280.586	192.515	-8191	255	
39970.922	1	1	0	0	0.23327	0.15951	0.26645	0.10721	0.11468	0.13838	0.16786	0.1582	0.14569	0.13523	0.19328	0.16532	0.10905	0.055358	0.093307	0.053153	-2.5042	-3.1104	-3.0375	-3.0979	-3.3083	-3.0729	-3.0125	-3.3167	-2.9542	-3.0333	-3.2875	-2.9604	-3.2667	-3.0104	-2.875	-3.1354	437.147	226.634	236.956	468.777	208.047	172.250	200.076	389.761	168.020	442.523	459.578	185.724	487.005	422.796	517.023	288.961	0.00051671	0.00034306	7.6381e-05	1192.2	5.202e-06	3.2213e-06	1259.3	248.16	5.0477e-06	3.4141e-06	307.88	87.031	68.446	19.733	5.4735e-06	27.526	0.00044886	0.00041418	0.0001215	1177.1	5.3277e-06	4.8602e-06	1243.8	246.7	5.3779e-06	4.8794e-06	308.11	87.387	68.437	19.904	4.9506e-06	27.991	503.558	237.716	260.553	172.937	284.227	317.399	172.670	179.764	260.282	332.981	179.701	185.451	186.369	193.249	291.385	192.659	-8191	255	
39971.020	1	1	0	0	0.2274	0.25718	0.22784	0.23607	0.10568	0.26749	0.37883	0.13441	0.19837	0.068509	0.10671	0.073667	0.33022	0.11858	0.19679	0.27913	-2.5021	-2.8583	-3.1688	-3.0396	-3.1833	-3.1646	-3.2292	-3.3958	-3.0875	-2.9042	-3.225	-3.0354	-3.2583	-3.0417	-2.8458	-3.1833	325.668	325.879	273.875	415.683	278.895	448.274	465.653	402.831	407.445	301.075	459.899	175.344	505.232	416.059	347.959	511.905	0.00048408	0.00036609	9.6181e-05	1196.7	2.352e-06	2.6966e-06	1263.3	249.66	5.3504e-06	3.0839e-06	309.13	87.624	69.073	19.764	3.8932e-06	27.692	0.00044111	0.00044106	0.00013216	1181.8	5.1769e-06	4.9568e-06	1246.9	247.89	5.139e-06	5.1186e-06	309.47	87.406	68.711	19.917	5.2171e-06	28.077	501.998	251.107	255.554	172.955	290.529	307.178	172.496	179.818	279.046	321.307	179.735	185.323	186.131	192.861	298.910	192.839	-8191	255	
39971.137	1	1	0	0	0.26183	0.065	0.12052	0.23714	0.18623	0.046133	0.050556	0.072073	0.13602	0.2495	0.13118	0.3576	0.16233	0.088382	0.16934	0.21287	-2.6979	-2.9729	-3.2438	-3.0229	-3.0958	-3.2208	-3.0583	-3.1542	-2.9938	-2.9583	-3.3354	-3.0979	-3.0396	-3.1208	-2.6792	-3.3937	246.262	179.510	436.525	188.645	471.731	251.995	447.912	510.624	471.241	489.996	453.059	501.117	461.641	521.011	179.300	211.261	0.00055541	0.00037481	7.8595e-05	1197.2	5.1968e-06	4.0202e-06	1258.6	250.05	3.993e-06	4.1251e-06	308.61	87.507	68.611	19.69	3.2417e-06	27.701	0.00042856	0.00047199	0.0001316	1183.9	5.0404e-06	4.9855e-06	1249.7	248.34	5.052e-06	5.2106e-06	309.5	87.423	68.627	19.943	5.0344e-06	28.097	503.148	262.120	262.467	172.803	279.146	304.263	172.630	179.796	278.431	317.032	179.602	185.165	185.818	193.269	308.259	192.621	-8191	255	
39971.234	1	1	0	0	0.18564	0.311	0.2705	0.077877	0.28741	0.2995	0.138	0.23274	0.070497	0.27499	0.18091	0.065923	0.12982	0.1475	0.015354	0.15203	-2.8063	-2.6792	-3.2042	-3.0687	-3.025	-3.2687	-3.05	-3.1958	-3.1583	-2.8729	-3.2979	-3.1	-2.9458	-3.0792	-2.9208	-3.1479	332.595	435.064	331.980	444.582	379.747	190.108	508.336	500.399	273.662	202.041	482.015	414.984	438.811	217.806	495.924	239.778	0.00051989	0.00037792	8.0873e-05	1194.9	4.2632e-06	3.3285e-06	1254.8	249.17	6.086e-06	2.2598e-06	308.63	86.746	68.486	19.675	3.259e-06	27.705	0.00042791	0.00046881	0.00013089	1181.2	4.8109e-06	4.8323e-06	1245.3	247.39	4.7253e-06	4.8449e-06	309.02	87.322	68.446	19.836	4.9268e-06	28.029	500.796	257.059	288.506	172.843	279.501	306.877	172.413	179.739	265.070	341.423	179.664	185.482	185.972	193.824	277.576	192.807	-8191	255	
39971.328	1	1	0	0	0.15614	0.17863	0.17654	0.16693	0.14801	0.23562	0.25199	0.1366	0.079829	0.17294	0.070771	0.19266	0.028042	0.062544	0.16007	0.13626	-2.5062	-2.7583	-3.1917	-3.0042	-3.0438	-3.175	-3.1604	-3.3375	-3.1458	-2.8417	-3.3646	-2.9667	-3.1083	-3.4	-2.9167	-3.1729	243.421	410.822	518.135	489.019	226.703	440.744	445.802	418.767	260.267	516.826	249.602	480.598	210.391	274.042	176.785	413.339	0.00048742	0.00033837	0.00011134	1196.3	3.4817e-06	3.8835e-06	1254.2	248.13	5.2105e-06	3.6671e-06	310.82	87.499	68.157	19.408	3.8292e-06	27.446	0.00041233	0.00046152	0.00012658	1179.3	5.0003e-06	5.0894e-06	1243.1	247.14	4.8706e-06	5.3372e-06	308.71	87.037	68.195	19.723	5.0329e-06	27.944	503.434	239.919	241.438	172.669	295.232	300.799	172.610	179.736	253.978	314.485	179.476	185.234	186.118	193.244	311.188	192.554	-8191	255	
39971.426	1	1	0	0	0.15636	0.2931	0.09087	0.35334	0.32052	0.19894	0.22218	0.2984	0.11024	0.11097	0.28245	0.24868	0.081147	0.36082	0.085602	0.27395	-2.7333	-2.9958	-3.1833	-3.2313	-2.8875	-3.2208	-3.0438	-3.2333	-3.1188	-2.975	-3.2979	-3.225	-2.7854	-3.0979	-3.1042	-3.0938	361.198	180.589	369.683	435.950	245.740	187.698	449.399	477.640	518.697	202.451	383.211	384.098	192.371	175.822	451.606	304.421	0.00046367	0.00030287	8.7107e-05	1196.9	3.9427e-06	3.9756e-06	1255.2	248.53	5.0018e-06	3.6367e-06	307.82	86.98	68.251	19.491	4.0849e-06	27.367	0.0004243	0.00050806	0.00012993	1179.4	4.91e-06	5.0935e-06	1243.7	247	4.9e-06	5.2353e-06	307.66	87.036	68.208	19.757	4.9961e-06	27.91	501.854	243.190	276.071	172.860	275.213	291.119	172.506	179.883	257.666	291.932	179.748	185.424	186.042	193.504	283.196	192.682	-8191	255	
39971.520	1	1	0	0	0.27848	0.19884	0.10382	0.2447	0.15447	0.12416	0.30267	0.22752	0.18239	0.15645	0.24245	0.1029	0.064222	0.092062	0.097248	0.062438	-2.8125	-2.8167	-3.2479	-3.2104	-2.7562	-3.1542	-3.0312	-3.1708	-3.3563	-2.9875	-3.25	-3.1312	-2.9979	-3.05	-3.1083	-3.1208	418.882	227.025	229.985	471.464	417.898	162.651	431.496	488.709	300.199	347.531	509.751	408.480	316.756	206.733	502.112	487.820	0.00050167	0.00030161	7.8155e-05	1190.7	3.394e-06	3.0838e-06	1252.7	248.16	4.6477e-06	4.6193e-06	307.62	86.872	67.979	19.527	4.4893e-06	27.255	0.0004168	0.00046477	0.00012445	1176	5.2455e-06	5.2254e-06	1240.8	246.45	4.5614e-06	5.5895e-06	307.38	86.989	68.102	19.681	4.5844e-06	27.788	499.026	245.326	258.511	172.848	288.239	307.231	172.767	179.692	267.202	306.244	179.638	185.301	186.216	193.570	314.637	192.909	-8191	255	
39971.617	1	1	0	0	0.098886	0.10392	0.16063	0.15895	0.058989	0.11258	0.32571	0.18428	0.13967	0.19082	0.20299	0.18926	0.13545	0.098746	0.17775	0.12154	-2.5354	-2.8688	-2.9813	-3.1188	-2.8875	-3.2979	-3.1458	-3.1958	-3.1229	-2.8167	-3.275	-3.2958	-2.8521	-3.2708	-3.0187	-2.9062	444.140	236.919	413.593	480.446	457.054	385.084	407.879	481.692	285.760	277.239	269.409	310.479	230.633	207.399	508.211	509.559	0.00049267	0.00041059	6.2742e-05	1187.3	4.0523e-06	3.7011e-06	1246.5	247.28	5.4038e-06	2.8703e-06	308.71	86.223	67.95	19.35	4.416e-06	26.98	0.00043736	0.0004626	0.00012387	1171.9	5.2706e-06	4.9887e-06	1236.4	245.52	4.9864e-06	5.1235e-06	307.04	86.363	67.764	19.559	4.4588e-06	27.461	505.500	233.420	285.944	172.853	295.818	296.122	172.569	179.706	256.212	332.259	179.895	185.399	186.064	193.618	292.702	193.186	-8191	255	
39971.738	1	1	0	0	0.19762	0.09965	0.18358	0.091225	0.22889	0.38415	0.24964	0.27503	0.23654	0.069609	0.31897	0.24061	0.059763	0.16365	0.13197	0.1199	-2.7812	-2.9333	-3.0271	-3.2313	-2.9792	-3.1417	-3.2	-3.0646	-3.2687	-2.9104	-3.0396	-3.2313	-2.8937	-3.0438	-3.2229	-3.1104	177.499	414.368	495.710	393.613	309.992	464.179	501.103	482.088	433.039	489.841	169.524	231.197	182.331	261.133	424.590	377.770	0.00048873	0.00034086	0.00015208	1179.5	4.1806e-06	3.5118e-06	1243.9	244.83	5.3289e-06	2.0624e-06	304.91	85.623	67.43	18.949	4.2419e-06	26.909	0.00042809	0.00047655	0.0001163	1165.4	4.9929e-06	4.9674e-06	1230.4	243.4	4.9743e-06	4.8309e-06	304.4	85.791	67.248	19.356	4.4891e-06	27.435	502.380	239.851	262.164	172.818	296.216	323.209	172.518	180.130	274.011	331.782	179.834	185.738	185.858	193.786	278.162	193.120	-8191	255	
39971.832	1	1	0	0	0.097762	0.19982	0.32381	0.12059	0.22078	0.12367	0.34476	0.15297	0.21977	0.10574	0.084298	0.1075	0.12812	0.1622	0.11326	0.20243	-2.7729	-2.7229	-3.0771	-3.2438	-2.8479	-3.0667	-3.1562	-2.8417	-3.1792	-3.0979	-3.1979	-3.1667	-2.8438	-3.075	-3.0917	-2.7979	187.807	345.366	510.484	191.160	204.302	220.806	466.406	381.707	249.537	275.325	467.954	393.557	454.034	337.593	224.435	434.218	0.00047586	0.00017377	0.00010931	1169.8	4.3561e-06	2.0579e-06	1232.3	242.78	4.7919e-06	2.9203e-06	301.12	85.244	66.937	18.976	3.5396e-06	26.605	0.00042509	0.00042177	0.00011242	1155.9	5.0024e-06	4.513e-06	1219.2	240.47	4.8666e-06	4.6148e-06	301.48	85.206	66.635	19.163	4.2761e-06	27.115	502.282	251.001	282.927	173.147	278.970	330.659	172.516	179.849	281.488	343.171	179.662	185.817	186.328	193.723	301.123	193.092	-8191	255	
39971.930	1	1	0	0	0.12749	0.25674	0.066515	0.19826	0.18258	0.30843	0.21934	0.21379	0.04136	0.20714	0.26171	0.10977	0.10887	0.12676	0.12575	0.050356	-2.625	-2.8771	-2.9313	-3.3688	-2.7271	-2.9083	-3.2188	-3.0104	-3.2562	-3.0083	-3.1375	-3.2854	-2.8708	-3.1562	-3.1646	-2.9375	432.545	517.244	482.074	477.608	266.010	173.341	399.020	185.882	408.513	178.134	488.602	498.159	357.478	334.707	273.045	459.751	0.00045401	0.00023549	8.4683e-05	1155	4.7158e-06	3.8267e-06	1219.5	239.8	5.1061e-06	2.8082e-06	298.66	84.414	66.282	18.621	4.6608e-06	26.315	0.00040133	0.00040905	0.00010549	1143.7	4.7932e-06	4.3026e-06	1206.8	237.83	4.5413e-06	4.2753e-06	297.79	84.346	66.075	18.97	4.024e-06	26.838	500.819	265.611	273.400	172.959	282.136	329.263	172.823	180.109	255.473	342.930	179.751	185.965	186.267	193.662	293.903	193.216	-8191	255	
39972.000	1	1	0	0	0.21309	0.10874	0.36113	0.18865	0.019321	0.31598	0.090104	0.15786	0.16096	0.015223	0.1163	0.13636	0.21686	0.046343	0.057718	0.33385	-2.7604	-2.8146	-2.9771	-3.4333	-3.1229	-3.1937	-3.3375	-3.0333	-3.1979	-3.15	-2.8438	-3.3104	-2.8208	-3.0729	-3.1583	-2.9938	315.932	398.656	514.318	505.910	463.368	347.016	436.507	238.478	207.048	511.449	269.080	482.467	433.942	355.068	217.268	397.995	0.0004726	0.00034599	6.7384e-05	1146.4	4.1667e-06	2.438e-06	1205.5	237.83	4.6021e-06	3.17e-06	296.94	83.579	65.746	18.594	2.6227e-06	26.232	0.00039162	0.00038679	0.00010557	1133	4.4754e-06	3.8965e-06	1196	235.76	4.4355e-06	4.1479e-06	296.03	83.75	65.632	18.886	4.2118e-06	26.727	502.936	281.392	252.961	173.147	272.111	324.656	172.665	180.152	265.302	321.380	180.079	185.875	186.260	193.822	284.401	193.288	-8191	255	
39972.121	1	1	0	0	0.17116	0.24556	0.12136	0.27381	0.063985	0.031943	0.40757	0.17322	0.062739	0.1082	0.15361	0.24706	0.086016	0.31942	0.21032	0.023607	-2.6437	-3.1583	-2.8479	-3.325	-2.8521	-3.1646	-3.4958	-3.1333	-3.2542	-3.1542	-2.9667	-3.2042	-3.0104	-3.2208	-3.0583	-2.8667	395.508	365.996	249.907	430.272	375.835	194.088	462.608	515.312	334.033	221.558	183.822	207.250	479.462	499.190	180.642	389.677	0.00048146	0.00017271	7.2589e-05	1145.8	5.1569e-06	3.1777e-06	1209.4	238.32	3.9851e-06	3.1983e-06	294.41	83.952	65.419	18.768	3.6372e-06	26.252	0.0003922	0.00038281	0.0001135	1132.8	4.6092e-06	4.3288e-06	1198.1	235.65	4.4375e-06	4.2959e-06	296.13	83.697	65.553	18.902	4.3346e-06	26.733	504.368	223.856	251.144	173.222	267.987	336.413	172.837	180.236	281.711	290.653	180.116	185.749	186.176	193.541	300.415	193.182	-8191	255	
39972.219	1	1	0	0	0.24741	0.073891	0.13904	0.11077	0.12314	0.14602	0.33695	0.091921	0.10097	0.28457	0.23073	0.16006	0.2016	0.17821	0.10095	0.072426	-2.6792	-3.1042	-2.9396	-3.2	-2.9792	-2.925	-3.3354	-2.9458	-3.1146	-3.0917	-2.8438	-3.1896	-3.0729	-2.8896	-3.1854	-3.0021	194.679	457.463	322.827	271.052	232.526	473.855	444.569	507.427	295.229	520.317	444.732	341.235	215.878	166.194	186.322	441.649	0.00047184	0.00031975	5.5508e-05	1147.1	3.0973e-06	3.5891e-06	1213.8	236.62	4.94e-06	2.665e-06	297.69	83.596	65.652	18.647	3.8021e-06	26.21	0.0003957	0.00041252	0.00012061	1134.2	4.453e-06	4.5327e-06	1200.2	235.5	4.6531e-06	4.6197e-06	296.4	83.814	65.661	18.906	4.3808e-06	26.726	502.269	242.867	267.818	173.051	273.957	317.552	173.011	180.080	281.050	304.423	179.773	185.844	186.016	193.558	288.468	192.881	-8191	255	
39972.312	1	1	0	0	0.098642	0.16048	0.10171	0.069884	0.15165	0.064768	0.31337	0.071317	0.17632	0.1731	0.24047	0.24837	0.14476	0.14765	0.10633	0.053413	-2.775	-3.0979	-2.8375	-3.1875	-3.0417	-2.7396	-3.4396	-3.1042	-3.0625	-3.1646	-3.0125	-3.1896	-3.0812	-2.9437	-3.1979	-3.0479	458.821	341.809	168.737	363.744	503.401	386.959	441.621	262.717	324.448	308.245	202.997	176.264	492.210	299.399	180.932	265.385	0.0004865	0.00020899	7.9459e-05	1151.4	4.5273e-06	2.3761e-06	1211.9	237.15	4.8801e-06	3.2198e-06	297.49	83.744	65.757	18.766	3.0155e-06	26.272	0.00039007	0.00040536	0.00011923	1137.9	4.6221e-06	4.6399e-06	1200.2	235.83	4.5045e-06	4.5679e-06	296.4	83.875	65.781	18.931	4.5303e-06	26.744	502.459	254.234	267.350	173.035	270.581	328.068	172.694	179.904	268.513	316.740	179.315	185.790	186.418	193.850	327.061	192.682	-8191	255	
39972.410	1	1	0	0	0.16244	0.096376	0.13332	0.19342	0.15054	0.29216	0.029577	0.12649	0.091538	0.25378	0.14038	0.21295	0.090881	0.12521	0.13237	0.27659	-2.575	-3.0896	-2.9313	-3.0875	-3.0375	-2.8312	-3.5146	-3.2062	-3.2229	-3.0208	-2.9771	-3.3083	-3.1083	-2.9979	-3.2854	-2.9354	173.192	250.025	286.384	425.127	185.375	291.762	315.191	377.697	433.356	331.552	273.451	394.547	241.804	217.571	266.913	474.160	0.00050071	0.00042383	5.3723e-05	1146.4	2.7342e-06	2.2159e-06	1215.3	238.44	5.6421e-06	3.0142e-06	297.22	84.277	65.805	18.787	3.1271e-06	26.338	0.00041384	0.00043535	0.00011987	1135.9	4.4244e-06	4.6833e-06	1202	236.26	4.8124e-06	5.2427e-06	296.74	84.223	65.865	18.992	4.8423e-06	26.766	505.523	269.559	280.848	173.156	272.113	327.477	172.572	179.797	260.060	332.319	179.882	185.769	186.290	193.753	307.498	193.426	-8191	255	
39972.531	1	1	0	0	0.18203	0.18315	0.095505	0.17854	0.10627	0.23163	0.17241	0.13153	0.090713	0.14731	0.13013	0.27412	0.13575	0.19626	0.12528	0.10513	-2.5687	-3.225	-2.9625	-3.3292	-3.1396	-2.9813	-3.3167	-3.0187	-2.8396	-3.2167	-2.95	-3.1646	-3.2104	-2.9583	-3.2521	-3.1396	293.938	197.648	301.891	162.689	300.038	173.906	446.339	454.985	231.477	264.283	181.279	462.007	467.694	465.435	443.264	463.179	0.00050878	0.00037234	0.00011703	1151.6	3.5439e-06	3.7118e-06	1212.7	239.74	6.2526e-06	4.285e-06	297.24	83.885	66.256	18.681	3.4927e-06	26.227	0.00042149	0.00044186	0.00012788	1138.8	4.8903e-06	5.0141e-06	1204.2	236.73	4.6584e-06	4.9378e-06	296.97	84.133	65.85	18.982	4.4754e-06	26.771	500.601	246.561	239.274	173.138	276.439	323.833	172.711	180.003	267.897	313.017	179.774	185.877	186.334	193.637	289.032	193.133	-8191	255	
39972.602	1	1	0	0	0.088714	0.1382	0.13119	0.22458	0.2496	0.14984	0.14192	0.21198	0.12374	0.062783	0.17272	0.2925	0.021545	0.23745	0.24707	0.28577	-2.3833	-3.1937	-2.8917	-3.1729	-3.2313	-2.9562	-3.35	-3.0958	-2.8979	-3.1604	-2.925	-3.1271	-3.2313	-3.0146	-3.2458	-3.1083	459.465	300.853	314.253	495.480	320.483	278.931	459.959	460.982	354.900	171.885	496.073	454.078	304.633	423.045	392.229	515.443	0.00047617	0.00039535	0.00010306	1155.6	3.5227e-06	1.8765e-06	1219.1	238.19	3.7135e-06	2.8986e-06	298.9	83.998	66.093	18.78	4.2963e-06	26.179	0.00041622	0.00047221	0.00011913	1140.9	4.9066e-06	4.9634e-06	1206.3	236.75	4.9529e-06	5.0101e-06	297.52	84.004	66.076	19.005	4.3078e-06	26.831	502.951	260.814	264.748	173.013	284.304	331.355	172.778	179.773	254.234	299.392	179.803	185.733	186.425	193.406	292.609	192.697	-8191	255	
39972.699	1	1	0	0	0.21761	0.35189	0.10488	0.3454	0.094039	0.10537	0.23622	0.21402	0.10807	0.15077	0.18474	0.045168	0.32341	0.062583	0.2003	0.21399	-2.5458	-3.2125	-2.9333	-3.0042	-3.2188	-2.7792	-3.4042	-3.0563	-2.8479	-3.1979	-3.175	-2.9521	-3.2542	-2.9708	-3.2042	-3.1104	223.700	513.026	233.848	179.509	272.868	330.186	461.272	469.453	232.665	497.727	297.757	456.508	430.440	401.950	179.163	393.092	0.00049573	0.00025584	8.1689e-05	1150.3	4.5846e-06	2.5416e-06	1218.5	238.93	5.0144e-06	3.0887e-06	295.79	83.81	66.28	18.784	5.0583e-06	26.06	0.00040847	0.00042466	0.00011704	1138	4.5725e-06	4.8602e-06	1204.5	236.75	4.8177e-06	4.7224e-06	297.28	84.114	65.947	18.961	4.2573e-06	26.807	504.574	253.118	257.805	172.935	268.662	340.279	172.938	179.800	263.176	305.166	179.597	185.685	185.952	193.717	287.011	193.131	-8191	255	
39972.820	1	1	0	0	0.28363	0.040539	0.27247	0.18522	0.22261	0.19903	0.082029	0.095036	0.025269	0.079726	0.22272	0.3117	0.12598	0.16807	0.16209	0.093946	-2.3875	-3.1437	-2.8896	-3.075	-3.1	-2.7896	-3.2062	-3.2708	-2.8083	-3.1417	-2.8625	-2.8396	-3.1854	-2.9646	-3.1833	-3.3229	198.578	356.443	305.333	452.458	267.165	191.822	416.885	464.064	292.678	485.782	362.310	515.102	188.944	173.781	275.429	395.511	0.00046893	0.00028033	4.9712e-05	1153.5	4.6901e-06	2.8068e-06	1214.5	238.41	5.2965e-06	2.4052e-06	300.05	84.95	66.276	18.858	2.5093e-06	26.396	0.0004278	0.00043651	0.00010919	1143.3	5.2244e-06	5.2196e-06	1208.3	236.91	5.2822e-06	4.9936e-06	298.75	84.63	66.425	19.07	4.3151e-06	26.941	499.480	265.241	261.470	172.963	287.158	306.750	172.501	179.975	258.909	328.202	179.726	185.608	185.991	193.551	280.312	193.067	-8191	255	
39972.914	1	1	0	0	0.095269	0.18204	0.15498	0.27164	0.083259	0.19775	0.21595	0.12856	0.19959	0.17521	0.1187	0.21655	0.15789	0.21559	0.18182	0.073845	-2.4479	-3.2667	-2.9521	-2.9104	-3.2812	-2.8146	-3.2687	-3.2292	-2.8833	-3.1312	-3.2104	-2.9083	-3.0083	-2.9896	-3.1312	-3.0771	500.382	189.479	372.267	516.518	187.398	328.351	462.564	422.589	322.247	240.902	223.132	163.382	426.197	369.212	162.554	214.046	0.00048399	0.00024921	5.9931e-05	1162.4	4.341e-06	2.9048e-06	1222.3	238.71	4.9239e-06	4.068e-06	299.21	84.69	66.31	18.817	3.4814e-06	26.516	0.00043444	0.0004454	0.00012216	1147.6	5.1857e-06	4.834e-06	1210	237.61	5.0493e-06	4.8317e-06	298.51	84.498	66.352	19.024	4.6928e-06	26.881	505.134	252.652	280.152	173.090	287.862	324.628	172.615	180.033	259.342	294.512	179.685	185.699	186.378	193.704	311.426	193.218	-8191	255	
39973.012	1	1	0	0	0.23236	0.11519	0.20698	0.35563	0.04073	0.13807	0.17648	0.3127	0.15329	0.10262	0.028197	0.32408	0.16636	0.16348	0.1541	0.047564	-2.5667	-3.2333	-3.025	-3.1896	-3.125	-3.0229	-3.2604	-3.3417	-2.8229	-3.1375	-3.25	-2.7958	-3.225	-3.1083	-3.0479	-3.3312	303.464	218.471	328.767	475.261	425.960	415.337	407.466	399.501	240.413	306.572	192.516	443.461	417.483	433.521	510.921	451.605	0.00048942	0.00028086	5.8704e-05	1159.8	3.9418e-06	2.9949e-06	1229.5	240.14	4.1552e-06	2.6882e-06	298.87	84.565	66.207	18.949	2.9739e-06	26.601	0.00042441	0.00041526	0.00012148	1145	5.2896e-06	4.7505e-06	1214.3	237.84	5.2956e-06	4.6879e-06	299.43	84.702	66.337	19.064	4.6957e-06	26.974	502.054	233.389	264.398	173.028	278.879	311.383	172.613	179.824	265.541	301.121	179.890	185.676	186.196	193.872	289.659	192.722	-8191	255	
39973.129	1	1	0	0	0.099885	0.15608	0.2565	0.45811	0.096271	0.089066	0.27924	0.14645	0.12694	0.12696	0.1437	0.12987	0.27409	0.10052	0.11937	0.32106	-2.5042	-3.2771	-3.1125	-3.1146	-3.2208	-3.0479	-3.1021	-3.3583	-2.975	-3.0958	-2.9896	-2.9271	-3.1937	-3.1958	-2.8042	-3.3229	510.490	481.668	290.042	467.511	196.855	321.134	174.813	200.220	484.051	308.844	255.675	179.764	515.550	518.004	332.444	285.071	0.00047157	0.00043347	8.1958e-05	1167.3	3.5489e-06	2.2905e-06	1235.8	241.43	4.6145e-06	2.6919e-06	300.7	84.974	66.808	18.966	2.7588e-06	26.714	0.00043314	0.00043051	0.00012885	1152.6	5.1205e-06	5.0903e-06	1222.4	239.6	5.1363e-06	5.0906e-06	301.01	85.148	66.718	19.196	5.038e-06	27.088	500.381	276.886	247.505	172.876	281.374	304.741	172.531	179.865	254.642	296.857	179.712	185.462	186.261	193.510	307.107	192.825	-8191	255	
39973.227	1	1	0	0	0.17506	0.20971	0.13869	0.49148	0.026627	0.23311	0.15847	0.071099	0.14948	0.18498	0.21929	0.13023	0.094112	0.17653	0.075556	0.097655	-2.7438	-2.9042	-3.1375	-2.9479	-3.2687	-3.0646	-3.15	-3.4188	-2.9042	-3.1333	-3.2167	-2.8375	-3.1833	-3.2083	-2.8	-3.2583	308.557	473.279	306.052	469.927	234.548	179.799	481.284	351.822	290.911	492.951	197.957	286.112	295.783	468.247	286.676	518.680	0.00053207	0.00022738	8.5792e-05	1178.5	3.5688e-06	3.9818e-06	1243.5	242.97	4.3269e-06	1.9338e-06	302.56	85.014	67.102	18.936	3.5162e-06	26.389	0.00044569	0.00045725	0.0001328	1163.2	5.1559e-06	4.9322e-06	1226.5	241.13	4.8826e-06	5.1071e-06	301.1	85.299	66.965	19.22	4.9607e-06	27.098	499.336	261.863	253.101	172.834	269.931	356.655	172.729	179.832	270.286	323.323	179.949	185.891	186.189	193.406	283.906	193.176	-8191	255	
39973.297	1	1	0	0	0.18961	0.1356	0.21334	0.09738	0.27942	0.07786	0.10114	0.36925	0.15703	0.163	0.051514	0.20973	0.22548	0.19515	0.048735	0.09905	-2.5375	-2.9313	-3.1813	-2.9938	-3.1458	-3.1146	-3.025	-3.2292	-2.9583	-2.9208	-3.3063	-2.9229	-3.0771	-3.0104	-2.7438	-3.1437	424.038	323.005	181.034	428.227	175.042	255.801	219.132	477.121	403.502	354.637	270.122	425.703	163.397	220.751	320.331	209.750	0.00046798	0.00031464	9.9618e-05	1179.2	4.0151e-06	3.0722e-06	1240.1	242.61	7.3003e-06	2.6937e-06	302.04	85.252	67.289	18.943	4.031e-06	26.709	0.00042329	0.00048153	0.00013798	1162.3	5.2238e-06	5.0133e-06	1228.3	240.79	4.9255e-06	5.4227e-06	302.1	85.361	67.148	19.258	5.4886e-06	27.198	505.466	256.071	262.198	173.018	296.505	318.316	172.590	179.905	267.541	339.504	179.599	185.615	186.385	193.426	286.447	193.052	-8191	255	
39973.418	1	1	0	0	0.27772	0.19696	0.25281	0.28772	0.25089	0.21149	0.14308	0.14149	0.20456	0.15617	0.22851	0.094486	0.14134	0.30172	0.12226	0.0081927	-2.5583	-2.8292	-3.225	-2.9958	-2.9	-3.2854	-2.8771	-3.2646	-2.9458	-2.8542	-3.3417	-3.1562	-3.1708	-3.15	-2.9854	-3.2542	517.246	348.725	473.558	506.301	353.444	382.993	454.015	467.495	240.091	316.923	467.107	367.899	417.429	517.440	311.895	234.907	0.00049246	0.00032358	9.5917e-05	1181.7	3.4952e-06	3.7298e-06	1242.8	243	4.7289e-06	3.5522e-06	302.37	85.201	67.258	19.082	2.2843e-06	26.653	0.00042747	0.00050004	0.00013268	1168.8	5.1015e-06	5.0886e-06	1233	241.88	4.9556e-06	5.3306e-06	302.75	85.46	67.22	19.313	5.2041e-06	27.154	502.150	261.794	248.380	172.863	296.809	308.898	172.733	179.849	268.604	308.848	179.730	185.171	186.133	193.552	286.560	193.011	-8191	255	
39973.516	1	1	0	0	0.11567	0.042919	0.14739	0.19721	0.18678	0.32758	0.03357	0.25529	0.038552	0.24235	0.14523	0.11651	0.026358	0.15541	0.090278	0.25259	-2.7625	-2.7583	-3.1729	-3.175	-2.9771	-3.0979	-2.8917	-3.0708	-3.1583	-2.8479	-3.4875	-2.9021	-3.1083	-3.0729	-2.8271	-3.1813	480.868	294.021	381.465	519.303	379.040	358.824	243.546	464.405	220.621	420.516	222.400	421.434	424.417	425.883	263.176	479.111	0.0004845	0.00039075	6.5368e-05	1179.5	3.8568e-06	3.5807e-06	1243	244.91	4.7198e-06	4.1396e-06	304.15	85.547	67.359	18.979	4.1132e-06	26.708	0.0004265	0.0005142	0.00013684	1165	4.9881e-06	5.2769e-06	1229.6	242.11	4.979e-06	5.2747e-06	302.68	85.423	67.101	19.238	4.9499e-06	27.111	507.265	240.468	263.884	172.731	280.283	311.274	172.666	179.644	265.453	312.026	179.601	185.804	186.027	193.510	292.420	192.799	-8191	255	
39973.609	1	1	0	0	0.044833	0.060775	0.027347	0.36627	0.2154	0.014707	0.090351	0.23817	0.19347	0.15912	0.057394	0.086677	0.068662	0.20568	0.06752	0.29119	-2.7104	-2.6188	-3.1042	-3.1104	-3.1583	-3.2292	-3.0583	-3.0583	-3.0687	-2.8271	-3.1188	-3.2146	-3.0021	-3.1833	-2.75	-3.175	378.026	284.631	448.676	457.582	516.399	370.708	416.896	484.613	360.744	429.282	169.120	461.647	449.833	477.774	492.505	435.459	0.00048531	0.00028561	8.3401e-05	1177.4	3.6558e-06	3.2497e-06	1236.2	243.15	4.4358e-06	2.6199e-06	301.68	84.762	66.432	19.009	4.1284e-06	26.481	0.00041936	0.00049642	0.00012517	1161.4	4.9059e-06	5.182e-06	1224.2	241.23	5.0406e-06	5.0988e-06	301.58	85.035	66.719	19.226	4.8192e-06	27.017	498.252	227.307	249.025	172.933	280.747	317.022	172.779	180.055	272.768	301.533	179.640	185.609	186.029	193.425	301.417	192.971	-8191	255	
39973.707	1	1	0	0	0.084206	0.31043	0.21756	0.19597	0.19191	0.12771	0.33962	0.14791	0.32763	0.14889	0.15302	0.10968	0.15296	0.0075266	0.11002	0.21525	-2.7875	-2.7729	-3.1021	-3.1104	-3.0312	-3.1063	-3.0021	-3.0583	-3.0604	-3.1167	-3.2229	-3.2146	-2.9021	-3.2562	-2.9333	-3.1125	498.091	459.676	238.346	433.639	377.098	476.529	445.874	221.537	431.645	494.811	362.065	198.290	210.559	255.284	261.452	448.788	0.00049735	0.00024742	9.0886e-05	1168	4.0036e-06	2.3575e-06	1230.1	242.43	5.177e-06	2.7259e-06	301.91	85.009	67.072	18.935	3.9311e-06	26.477	0.00042026	0.00046303	0.00011095	1154.5	5.1144e-06	4.9421e-06	1219.2	240.87	5.068e-06	4.9887e-06	301.1	85.009	66.858	19.173	4.323e-06	27.009	501.240	239.587	244.702	172.850	277.037	306.595	172.812	179.737	269.788	313.879	179.425	185.729	186.390	193.554	275.800	192.804	-8191	255	
39973.824	1	1	0	0	0.17904	0.12921	0.082615	0.1409	0.21774	0.22545	0.22483	0.21061	0.053546	0.060672	0.22488	0.23623	0.12208	0.10231	0.17699	0.23563	-2.7042	-2.8479	-3.0875	-3.1562	-2.9583	-3.0896	-3.1896	-3.0479	-3.2771	-2.7687	-3.1417	-3.125	-2.9229	-3.0292	-2.9	-3.0875	472.406	181.434	399.178	404.353	354.749	300.774	454.030	490.249	268.805	408.046	486.385	459.766	466.100	290.494	314.303	446.635	0.00050489	0.00031385	8.2423e-05	1166.7	4.0403e-06	2.6134e-06	1233	243.65	4.6537e-06	2.6158e-06	301.85	84.564	66.648	18.881	2.2205e-06	26.528	0.00042527	0.00047807	0.00011182	1154.9	5.0309e-06	4.8495e-06	1220.9	240.86	5.2688e-06	4.9509e-06	302.03	85.015	66.786	19.13	4.2855e-06	27.058	502.621	262.515	249.836	173.153	279.037	309.992	172.674	179.801	281.854	294.772	179.774	185.621	185.895	193.436	306.166	192.949	-8191	255	
39973.898	1	1	0	0	0.13347	0.15477	0.1999	0.04144	0.16182	0.023644	0.092701	0.1398	0.20274	0.075262	0.18949	0.2598	0.18258	0.20814	0.15538	0.31236	-2.8854	-2.8625	-3.0292	-3.2771	-2.8708	-3.2667	-3.2188	-3.0583	-3.2771	-2.8479	-3.1646	-3.2396	-2.9958	-3.2021	-3.1958	-3.1	466.060	234.325	469.970	240.598	231.835	500.353	217.112	468.741	173.432	354.509	517.416	411.499	298.877	511.522	199.111	392.571	0.00048333	0.00021956	9.2013e-05	1171	3.4869e-06	2.9537e-06	1236.7	240.71	5.4181e-06	2.1091e-06	300.99	85.56	66.869	18.886	3.2805e-06	26.718	0.00043858	0.00044648	0.00011489	1157.9	5.2353e-06	4.8012e-06	1223	240.69	4.8117e-06	4.9049e-06	301.63	85.268	66.967	19.181	4.5202e-06	27.081	503.132	263.410	271.331	172.900	314.191	321.627	172.686	179.909	252.936	328.452	179.566	185.450	186.210	193.656	297.970	192.683	-8191	255	
39973.992	1	1	0	0	0.35842	0.06656	0.064844	0.21303	0.092249	0.083844	0.16377	0.089093	0.11894	0.11892	0.14877	0.25144	0.13461	0.17795	0.13471	0.156	-2.7896	-2.8542	-3.0396	-3.2729	-2.8771	-3.1146	-3.1917	-3.0354	-3.1542	-2.9104	-2.9917	-3.3187	-2.9333	-3.1208	-3.1583	-2.8438	170.487	247.434	196.249	394.662	354.567	237.428	470.196	418.024	234.297	503.067	183.983	434.030	434.230	180.983	453.101	509.085	0.0004752	0.00037175	6.3603e-05	1171.7	3.9168e-06	2.9849e-06	1229.6	242.94	4.8856e-06	4.6051e-06	303.57	85.363	67.098	19.011	3.8671e-06	26.606	0.00042318	0.00042943	0.00011547	1158.3	5.1457e-06	4.5695e-06	1222.3	240.79	4.9924e-06	4.572e-06	302.12	85.263	67.005	19.23	4.2927e-06	27.047	498.936	239.838	278.830	173.069	270.462	326.505	172.511	180.032	243.419	299.850	179.904	185.337	185.953	193.324	294.860	193.112	-8191	255	
39974.090	1	1	0	0	0.13612	0.22431	0.092389	0.3777	0.060346	0.096525	0.30905	0.30123	0.093329	0.078514	0.17223	0.29767	0.064681	0.107	0.16474	0.058079	-2.7833	-2.9188	-2.8479	-3.2875	-3.0167	-3.2938	-3.3479	-2.9771	-3.0583	-3.0458	-3.0333	-3.4292	-2.8354	-3.1208	-3.2	-2.8708	351.171	457.609	458.168	471.659	327.134	363.731	482.269	190.309	408.662	229.551	521.863	495.701	166.215	411.747	452.909	323.871	0.00047961	0.00030927	9.2838e-05	1173	3.9323e-06	4.2768e-06	1236.2	242.48	5.9604e-06	4.5864e-06	303.11	84.913	66.843	18.895	4.4422e-06	26.52	0.0004247	0.00041996	0.00012027	1157.1	4.8822e-06	4.4418e-06	1223.9	240.71	4.7066e-06	4.3764e-06	301.93	85.01	66.835	19.135	4.3743e-06	27.035	502.882	262.024	262.176	173.019	284.407	313.419	172.767	179.932	252.899	297.427	179.732	185.632	186.115	193.524	291.807	193.029	-8191	255	
39974.211	1	1	0	0	0.052522	0.28833	0.089685	0.14244	0.055813	0.11885	0.40324	0.14755	0.11249	0.15898	0.2303	0.17559	0.11884	0.17568	0.15893	0.25017	-2.7458	-3.0521	-2.9437	-3.3292	-2.8583	-3.0854	-3.3604	-3.0229	-3.1625	-3.0812	-3.1708	-3.1688	-3.0146	-3.0917	-3.225	-2.9354	468.000	203.285	234.227	418.598	227.290	440.741	459.863	463.583	278.388	313.326	408.846	258.790	482.268	378.932	426.594	399.222	0.00047155	0.00038432	0.00010539	1171.3	3.6104e-06	3.5989e-06	1229.2	241.66	3.4836e-06	2.7022e-06	300.53	85.205	66.63	18.99	2.5992e-06	26.521	0.0004137	0.00043774	0.00012583	1155.7	4.6187e-06	4.3812e-06	1219.7	240.31	4.6658e-06	4.5581e-06	300.83	85.034	66.67	19.169	4.5498e-06	26.979	499.616	248.102	242.979	173.029	285.712	286.825	172.610	179.913	266.892	294.308	179.914	185.532	186.140	193.375	275.280	193.343	-8191	255	
39974.305	1	1	0	0	0.13359	0.21628	0.20547	0.085469	0.068127	0.28015	0.38491	0.39874	0.27587	0.22138	0.3011	0.14206	0.11546	0.16949	0.082224	0.06639	-2.7896	-2.9437	-2.9604	-3.3521	-2.9313	-2.9562	-3.2938	-2.8833	-3.2542	-2.9625	-3.0646	-3.3833	-3.0917	-2.9104	-3.0979	-2.8208	227.974	443.407	215.781	369.046	233.465	295.962	446.467	460.686	239.097	166.984	475.671	305.169	519.847	261.354	189.943	226.611	0.00050214	0.00031258	4.9042e-05	1164.3	4.0924e-06	3.1888e-06	1223.5	242.23	5.1362e-06	4.0054e-06	300.38	85.413	66.967	18.855	2.9164e-06	26.315	0.00040663	0.00040673	0.0001225	1154.5	4.5576e-06	4.5728e-06	1216.4	240.5	4.6142e-06	4.7989e-06	300.54	85.25	66.64	19.106	4.6162e-06	27.02	504.644	240.641	245.312	172.886	291.441	289.443	172.539	179.797	277.599	281.730	179.963	185.507	185.979	193.474	291.248	193.241	-8191	255	
39974.402	1	1	0	0	0.083099	0.053972	0.32322	0.23619	0.049561	0.10502	0.41921	0.24413	0.2379	0.1294	0.2141	0.071652	0.099912	0.14018	0.39438	0.17224	-2.6979	-2.9938	-2.9292	-3.3625	-3.0354	-2.9792	-3.2042	-2.95	-3.1	-3.1917	-3.0312	-3.3229	-2.9688	-3.0187	-3.0667	-2.9958	228.046	481.763	345.888	389.408	442.186	233.431	445.098	488.886	226.148	192.956	474.375	400.460	365.492	189.519	521.966	215.892	0.00048901	0.00029548	6.9047e-05	1165.3	3.492e-06	3.5507e-06	1231.1	241.92	4.9031e-06	2.389e-06	300.36	85.032	66.131	18.874	4.0678e-06	26.429	0.00040017	0.00041743	0.00012726	1153.6	4.6017e-06	4.6784e-06	1218.8	239.91	4.4034e-06	4.775e-06	299.89	84.737	66.371	19.093	4.6466e-06	26.949	501.940	245.039	280.347	172.775	279.483	306.374	172.645	180.030	247.285	286.126	179.459	185.566	186.006	193.272	304.178	193.380	-8191	255	
39974.500	1	1	0	0	0.12336	0.11212	0.22535	0.22019	0.17425	0.065063	0.15343	0.28422	0.17363	0.099157	0.028065	0.12417	0.1564	0.29976	0.15836	0.072465	-2.5958	-3.0271	-2.9104	-3.1354	-3.1813	-2.9104	-3.5167	-2.8438	-3.1292	-3.0917	-2.9875	-3.2062	-3.1104	-2.9833	-3.1708	-2.8708	266.931	329.721	332.944	475.610	392.417	331.499	507.674	416.860	180.001	318.591	217.934	300.149	221.267	490.226	460.373	178.133	0.0004794	0.00038175	8.8247e-05	1159.8	3.424e-06	1.875e-06	1232	240.69	6.4645e-06	3.3838e-06	299.27	84.522	66.617	18.876	3.3813e-06	26.32	0.00039794	0.00041353	0.00011593	1148.4	4.726e-06	4.423e-06	1215.2	239.62	4.3833e-06	4.7356e-06	299.99	84.797	66.478	19.13	4.5678e-06	26.83	502.012	221.289	266.775	172.989	262.576	294.078	172.687	180.036	264.650	327.478	179.825	185.744	186.002	193.814	297.141	192.627	-8191	255	
39974.594	1	1	0	0	0.11418	0.23911	0.12339	0.22307	0.20626	0.17466	0.31311	0.13076	0.2746	0.10083	0.28287	0.059688	0.25534	0.11	0.0965	0.23312	-2.5542	-3.1729	-2.8688	-3.3958	-3.1896	-2.9042	-3.275	-2.8604	-2.9396	-3.0958	-2.9417	-3.1146	-3.0729	-2.7958	-3.0187	-2.8937	277.085	392.451	201.568	492.336	165.459	464.576	481.357	405.207	380.298	326.971	452.177	480.925	521.637	468.930	200.793	300.254	0.00049154	0.00037531	0.00010191	1162.2	4.4645e-06	2.9858e-06	1226.4	242.09	4.8323e-06	2.6024e-06	298.46	84.782	66.578	18.855	5.2575e-06	26.492	0.00040533	0.0004368	0.00011889	1147.6	4.6404e-06	4.9961e-06	1212.7	239.34	4.5386e-06	4.6443e-06	299.31	84.829	66.567	19.1	4.4097e-06	26.928	503.109	240.202	255.799	172.885	291.209	301.662	172.567	180.051	274.389	318.317	179.751	185.497	186.114	193.725	281.643	193.253	-8191	255	
39974.691	1	1	0	0	0.24306	0.063344	0.1526	0.031275	0.16274	0.085204	0.23311	0.2502	0.068306	0.18632	0.20137	0.13181	0.092774	0.23638	0.26365	0.072138	-2.4229	-3.0812	-2.9688	-3.0875	-3.1542	-2.8354	-3.3646	-3.0479	-3.1229	-3.4167	-3.075	-3.1063	-3.2021	-2.7854	-3.225	-3.0958	167.731	353.731	443.600	322.575	254.289	285.452	505.759	286.730	406.481	444.458	517.834	474.665	476.346	450.567	288.510	493.671	0.00047679	0.00041348	6.9787e-05	1166.8	3.6076e-06	1.8811e-06	1223.2	241	4.2184e-06	3.4012e-06	299.95	84.599	66.43	18.892	2.9356e-06	26.397	0.00041114	0.0004261	0.00011674	1149.3	4.6764e-06	4.7488e-06	1213.4	238.89	4.7207e-06	4.5893e-06	299.75	84.628	66.447	19.093	3.9843e-06	26.9	502.678	284.643	253.552	172.882	273.916	380.762	172.559	179.898	263.377	312.217	179.566	185.687	186.473	193.712	278.123	193.061	-8191	255	
39974.812	1	1	0	0	0.092384	0.084926	0.17454	0.20098	0.18578	0.16954	0.16265	0.1349	0.25475	0.070981	0.041728	0.12047	0.097626	0.087772	0.14551	0.1743	-2.525	-3.1771	-2.9375	-3.1042	-3.0146	-2.8604	-3.3333	-3.1958	-2.8167	-3.2271	-3.0792	-3.1083	-3.2083	-3.0187	-3.1833	-3.2854	282.049	472.930	488.644	430.362	456.790	433.170	380.754	463.982	511.620	209.960	509.903	462.162	188.885	244.772	216.972	356.267	0.00045089	0.00027115	6.7394e-05	1158.8	3.1086e-06	3.1759e-06	1223.8	240.77	3.8522e-06	2.9784e-06	298.79	84.422	66.547	18.85	3.4981e-06	26.445	0.00040309	0.00040543	0.00010851	1146.2	4.6513e-06	4.608e-06	1209.4	238.78	4.6959e-06	4.452e-06	299.14	84.631	66.235	19.037	3.9403e-06	26.91	504.127	258.601	265.246	173.146	293.247	311.114	172.776	180.115	271.216	336.681	179.904	185.549	186.380	193.887	288.842	193.141	-8191	255	
39974.906	1	1	0	0	0.13291	0.067662	0.12303	0.26746	0.085447	0.066656	0.29416	0.24199	0.13935	0.18007	0.29502	0.25668	0.090802	0.16322	0.27998	0.29323	-2.5083	-3.1333	-2.7729	-3.1292	-3.0917	-2.9	-3.2333	-3.3312	-2.9958	-3.2313	-3.0354	-3.1	-3.2833	-3.05	-3.1979	-3.0708	203.218	371.890	259.660	470.476	494.411	273.519	172.415	493.969	340.034	175.130	479.295	411.303	223.279	447.364	221.389	514.993	0.00047824	0.00044263	9.1446e-05	1148.9	3.6029e-06	2.3002e-06	1220.8	239.64	5.7066e-06	3.1567e-06	299.11	84.783	66.12	18.89	4.0899e-06	26.327	0.00040728	0.00040384	0.0001078	1137.6	4.618e-06	4.5179e-06	1203.4	237.8	4.6852e-06	4.0386e-06	298.19	84.595	66.064	19.041	4.0247e-06	26.85	500.348	278.521	279.983	173.036	270.725	291.873	172.648	179.684	275.868	313.100	179.509	185.932	186.276	193.636	295.160	193.100	-8191	255	
39975.004	1	1	0	0	0.36541	0.23513	0.20971	0.12041	0.15112	0.16442	0.2294	0.085778	0.083324	0.12928	0.13283	0.016004	0.18199	0.073517	0.16624	0.30799	-2.4208	-3.2229	-3.0104	-2.9229	-3.1896	-2.9688	-3.3083	-3.1958	-2.8667	-3.3771	-2.9396	-3.0021	-3.2604	-2.8729	-3.0875	-3.275	467.482	336.326	357.336	212.393	319.733	380.093	490.066	434.099	432.816	443.922	166.583	169.760	476.215	322.232	204.537	476.728	0.0004827	0.00035971	0.00012333	1147.3	3.8031e-06	2.4027e-06	1220.3	239.23	5.9265e-06	2.9053e-06	299.21	84.73	65.942	18.756	3.2147e-06	26.344	0.00040403	0.00036915	0.00010359	1136.8	4.5284e-06	4.0865e-06	1204.9	237.26	4.8144e-06	4.1093e-06	297.95	84.414	65.996	18.966	4.006e-06	26.808	504.411	256.141	267.099	173.093	269.224	316.172	172.610	180.088	275.938	329.648	179.721	185.630	186.234	193.682	293.202	192.882	-8191	255	
39975.121	1	1	0	0	0.13328	0.21216	0.12451	0.14356	0.23739	0.11136	0.40438	0.14788	0.11226	0.21271	0.14008	0.029949	0.044851	0.071501	0.13775	0.14176	-2.4688	-3.0729	-2.9604	-3.1188	-3.1937	-2.9125	-3.0458	-3.3208	-2.6583	-3.3042	-3.0146	-2.9188	-3.3438	-2.8667	-3.0729	-3.1729	280.346	372.347	172.508	509.189	443.832	162.813	428.716	463.069	390.098	267.277	353.492	299.700	392.005	197.674	367.549	475.596	0.00048608	0.00025667	8.9781e-05	1149.6	4.8321e-06	3.7697e-06	1215.2	239.19	4.5838e-06	2.756e-06	298.19	84.451	66.36	18.765	2.3958e-06	26.331	0.00041442	0.00038823	0.00010847	1137.2	4.6975e-06	4.2338e-06	1204	237.7	4.6249e-06	3.9786e-06	298.63	84.282	66.086	18.985	4.2992e-06	26.825	501.640	273.054	241.082	173.212	276.210	314.038	172.800	180.009	282.244	301.631	179.836	185.738	186.268	193.627	292.930	193.259	-8191	255	
39975.195	1	1	0	0	0.043744	0.10899	0.30345	0.25296	0.051076	0.31015	0.37141	0.34076	0.25599	0.14177	0.16608	0.11988	0.080437	0.14642	0.0512	0.28885	-2.3271	-3.1917	-3.0917	-3	-3.3375	-3.1229	-2.9875	-3.2812	-2.8771	-3.1937	-3.2313	-2.9	-3.2229	-3.1125	-2.9208	-3.1375	341.335	506.358	189.216	468.657	354.757	482.557	421.051	481.954	349.543	308.075	350.296	187.519	377.732	448.317	368.173	171.373	0.00051813	0.00032328	6.9608e-05	1152	4.5851e-06	3.6035e-06	1217.2	240.01	5.476e-06	3.2653e-06	297.64	84.298	65.74	18.903	3.6474e-06	26.14	0.00040692	0.00036265	0.00010672	1137.1	4.5474e-06	4.1012e-06	1202.5	237.35	4.382e-06	4.18e-06	297.98	84.611	66.016	19.051	4.5707e-06	26.793	505.445	270.990	259.557	172.937	276.631	332.808	172.745	179.946	247.190	287.254	179.642	185.506	186.097	193.847	288.971	192.811	-8191	255	
39975.289	1	1	0	0	0.36144	0.097932	0.14285	0.25843	0.11619	0.090087	0.26859	0.25904	0.1365	0.0099911	0.18568	0.18521	0.098869	0.13101	0.061868	0.23679	-2.5375	-2.9896	-3.1208	-3.1104	-3.2021	-3.0812	-3.2229	-3.2313	-2.9729	-3.1125	-3.2896	-2.9583	-3.2979	-3.0271	-3.0292	-3.3542	261.476	303.815	464.573	169.039	503.539	421.588	467.942	165.850	251.368	484.173	461.370	359.606	469.888	516.410	367.092	171.115	0.00051146	0.0002714	0.000129	1150	3.4938e-06	2.9546e-06	1214.6	238.93	4.5385e-06	3.2622e-06	298.48	84.091	65.805	18.861	3.2287e-06	26.299	0.00040623	0.00038701	0.00010993	1136.8	4.4985e-06	4.215e-06	1202.8	237.27	4.2173e-06	4.3493e-06	298.05	84.222	66.026	19.053	4.6271e-06	26.853	503.399	249.788	253.130	173.090	274.920	313.034	172.669	180.079	267.689	304.825	180.104	185.615	186.380	193.625	277.542	193.068	-8191	255	
39975.387	1	1	0	0	0.29408	0.086569	0.36007	0.16506	0.12089	0.19998	0.01641	0.17811	0.2129	0.048382	0.13009	0.22629	0.25653	0.13803	0.1743	0.27296	-2.5187	-3.0771	-3.1625	-2.9792	-3.1833	-3.1104	-3.1354	-3.3625	-2.9938	-3.0208	-3.175	-2.9521	-3.1562	-3.2021	-2.8958	-3.2229	247.218	439.507	343.710	481.990	275.559	200.604	406.878	503.430	494.577	273.771	505.723	492.352	407.552	457.775	187.702	358.865	0.00049142	0.00014643	7.672e-05	1153.2	3.5948e-06	2.253e-06	1214.3	239.32	5.5379e-06	2.7014e-06	297.03	83.785	66.206	18.822	1.8671e-06	26.201	0.00039339	0.00038549	0.00010917	1136.4	4.1073e-06	4.2428e-06	1200.8	237.17	4.2488e-06	4.1973e-06	297.29	83.891	65.845	18.947	4.3931e-06	26.699	502.262	265.804	243.894	173.271	295.761	263.253	172.598	179.986	266.372	317.495	179.873	185.625	186.223	193.538	271.864	192.543	-8191	255	
39975.508	1	1	0	0	0.10556	0.17775	0.28571	0.366	0.166	0.049069	0.12163	0.056044	0.13429	0.029466	0.24672	0.24939	0.13464	0.090771	0.13536	0.1187	-2.4646	-2.9958	-3.2083	-3.0042	-3.0146	-2.9396	-2.9979	-3.2146	-2.9062	-2.9125	-3.2625	-2.9021	-3.1292	-3.0792	-2.8771	-3.1083	271.330	215.233	246.253	448.066	306.962	378.958	417.202	368.986	197.018	507.439	457.865	509.620	322.409	279.625	239.411	278.116	0.00047212	0.00032047	9.6603e-05	1143.5	3.1707e-06	1.4391e-06	1200.2	239.38	5.5852e-06	2.4026e-06	295.4	83.813	65.805	18.701	2.4036e-06	26.177	0.00038344	0.00037002	0.00010501	1129.2	4.0285e-06	4.0774e-06	1192.8	236.92	4.058e-06	4.0641e-06	296.38	84.152	65.796	18.971	4.2154e-06	26.761	503.918	237.905	261.782	173.020	290.307	310.483	172.686	179.797	251.061	338.398	179.746	185.779	186.033	193.966	301.021	192.897	-8191	255	
39975.602	1	1	0	0	0.2279	0.18829	0.16801	0.47941	0.15358	0.15461	0.3063	0.39864	0.096432	0.068067	0.21799	0.13683	0.074059	0.11606	0.13161	0.16375	-2.5646	-2.9271	-3.1958	-2.9437	-3.0396	-3.0583	-2.8875	-3.1583	-3.1937	-2.8	-3.2812	-2.9854	-2.9604	-3.0563	-2.7313	-3.2146	323.022	287.889	254.047	179.740	475.410	393.018	455.795	480.619	189.687	331.362	373.900	172.118	347.775	502.341	337.647	413.304	0.00051289	0.00034955	6.8907e-05	1147.6	4.7735e-06	2.681e-06	1204.6	237.56	4.513e-06	4.255e-06	297.49	83.943	65.612	18.778	3.6458e-06	26.296	0.00039422	0.00040948	0.00011019	1131.2	4.2981e-06	4.3747e-06	1194.4	236.19	4.2642e-06	4.6575e-06	297.15	84.103	65.779	19.001	4.2197e-06	26.819	503.149	229.949	257.955	172.931	278.392	314.959	172.835	179.977	258.145	313.712	179.881	185.983	186.320	193.458	280.302	193.302	-8191	255	
39975.699	1	1	0	0	0.15508	0.1389	0.2009	0.052566	0.11532	0.239	0.20973	0.21399	0.18749	0.079526	0.19612	0.11753	0.13282	0.24579	0.011114	0.23049	-2.5667	-2.8958	-3.1833	-3.1896	-3.1396	-3.0896	-3.1771	-3.3729	-3.1458	-2.8667	-3.3104	-2.9729	-2.9562	-3.1604	-3.0083	-3.2062	217.796	254.455	227.476	519.705	393.166	163.908	459.961	386.061	519.332	415.648	431.243	408.138	514.545	454.591	510.705	458.780	0.00048844	0.00030484	8.9741e-05	1143.9	4.4697e-06	2.5642e-06	1206.9	237.41	5.0911e-06	1.5686e-06	297.18	83.89	66.071	18.745	3.8899e-06	26.452	0.00038762	0.00041216	0.00010698	1129.6	4.3497e-06	4.3133e-06	1194.4	235.95	4.4643e-06	4.3444e-06	296.14	84.037	65.695	18.959	4.0255e-06	26.78	501.451	258.148	245.479	172.903	273.190	326.762	172.750	179.963	269.458	289.974	179.587	185.833	186.450	193.577	288.312	192.922	-8191	255	
39975.770	1	1	0	0	0.2756	0.07189	0.16172	0.26168	0.24493	0.33278	0.21653	0.2208	0.13602	0.10241	0.26388	0.28761	0.078178	0.14749	0.1165	0.15296	-2.7229	-2.9375	-3.1937	-3.1813	-2.9188	-3.1	-2.9479	-3.2875	-3.1771	-2.8729	-3.0854	-3.0625	-2.9833	-3.2396	-2.8167	-3.0042	162.898	248.873	423.885	518.959	264.709	208.837	411.848	438.841	364.235	403.147	475.683	503.259	208.726	467.345	368.081	449.164	0.00045178	0.00032025	6.9519e-05	1142.2	3.8338e-06	3.4555e-06	1207.9	238.47	5.0054e-06	2.4969e-06	294.76	84.541	66.069	18.85	3.1603e-06	26.515	0.00038473	0.00041403	9.4812e-05	1127.1	4.6323e-06	4.2592e-06	1194.1	236.29	4.4496e-06	4.6304e-06	296.3	84.204	66.036	19.027	3.9951e-06	26.873	500.950	245.745	254.905	173.072	287.484	311.064	172.794	180.160	277.223	312.270	179.548	185.488	185.752	193.537	284.007	192.703	-8191	255	
39975.891	1	1	0	0	0.24303	0.26784	0.050936	0.25825	0.18768	0.32938	0.22471	0.26836	0.1504	0.27279	0.11141	0.20746	0.21231	0.1835	0.096105	0.19055	-2.5875	-2.7917	-3.2521	-3.125	-2.925	-3.3	-3.2021	-3.1562	-3.1521	-2.825	-3.3396	-3.0833	-3.0583	-3.1792	-2.9667	-2.9979	290.195	325.264	412.037	511.777	198.981	414.890	439.027	174.456	471.603	475.132	171.946	238.284	500.437	363.844	292.146	182.740	0.00046452	0.00028563	8.9339e-05	1139.9	3.0467e-06	2.7781e-06	1207.1	237.54	4.0323e-06	3.1414e-06	297.55	84.336	65.842	18.714	3.8732e-06	26.503	0.00039656	0.00038635	9.8024e-05	1127	4.3212e-06	4.3173e-06	1194	236.33	4.382e-06	4.4907e-06	296.65	84.079	65.766	18.99	3.9713e-06	26.928	501.873	269.017	237.201	173.054	268.128	324.255	172.929	179.994	261.824	292.218	179.897	185.617	185.851	193.847	269.281	193.024	-8191	255	
39975.984	1	1	0	0	0.097839	0.13132	0.2702	0.22216	0.1749	0.27073	0.11979	0.051202	0.17655	0.11534	0.14513	0.25342	0.23964	0.25664	0.31944	0.15111	-2.8375	-2.8271	-3.0896	-3.1396	-2.8854	-3.1521	-3.1167	-3.1604	-3.3458	-2.8333	-3.2729	-3.2313	-2.9562	-3.3521	-2.9521	-3.1667	289.417	399.050	296.396	497.659	185.651	205.141	346.876	503.140	519.295	209.681	172.092	299.184	198.621	173.783	485.398	167.717	0.00050155	0.00034778	7.8313e-05	1142	3.0986e-06	3.8859e-06	1203.8	239.1	4.5189e-06	3.5805e-06	296.68	84.541	66.198	18.949	3.2923e-06	26.441	0.00039379	0.00040449	9.8667e-05	1127.1	4.5358e-06	4.2551e-06	1193	236.84	4.5071e-06	4.6698e-06	297.15	84.438	66.097	19.091	4.0702e-06	26.984	503.803	230.724	246.004	172.921	282.026	317.592	172.841	180.216	267.949	321.745	179.742	185.749	186.033	193.397	315.070	193.193	-8191	255	
39976.082	1	1	0	0	0.071954	0.28642	0.11401	0.10551	0.10655	0.12087	0.19161	0.049735	0.20146	0.17108	0.16112	0.12289	0.18897	0.094114	0.094643	0.097291	-2.85	-2.9792	-2.9729	-3.1271	-2.8729	-3.2958	-3.2583	-3.1312	-3.1542	-3.0687	-3.2292	-3.0875	-2.8417	-3.0917	-3.0875	-2.9771	509.900	228.929	267.630	251.338	432.692	503.169	451.852	194.855	302.641	514.706	433.400	366.375	190.293	442.152	454.580	187.579	0.00049813	0.00041376	8.9791e-05	1149.6	4.4716e-06	3.6707e-06	1212.8	240.03	5.8573e-06	2.24e-06	299.07	84.761	66.459	18.905	3.6485e-06	26.634	0.0004203	0.00041808	0.00011043	1134.7	4.7973e-06	4.4189e-06	1201.5	238.4	4.6557e-06	4.4405e-06	298.85	84.715	66.371	19.174	4.453e-06	27.086	499.179	263.744	252.083	173.148	274.410	317.385	172.589	179.816	259.767	306.765	179.633	185.548	186.055	193.547	286.044	192.820	-8191	255	
39976.203	1	1	0	0	0.15248	0.31649	0.056642	0.27029	0.080355	0.18514	0.18524	0.12285	0.15662	0.24606	0.26124	0.23879	0.019524	0.28037	0.045819	0.04178	-2.8458	-3.05	-3.1083	-3.3312	-2.8167	-3.2979	-3.25	-3.0667	-3.2938	-2.9729	-3.2167	-3.1396	-2.9146	-3.1208	-3.025	-2.9562	386.701	433.546	439.657	457.470	204.786	488.286	353.503	406.746	403.727	238.410	430.051	164.755	196.899	458.731	232.535	342.839	0.00051695	0.00033581	8.4791e-05	1149.2	4.0383e-06	3.0804e-06	1211.8	240.02	3.4303e-06	3.1973e-06	300.42	84.66	66.22	18.945	4.2178e-06	26.787	0.00041756	0.00040175	0.00011393	1135.9	4.5902e-06	4.5073e-06	1201.8	238.98	4.471e-06	4.2515e-06	298.91	84.672	66.299	19.197	4.3822e-06	27.131	500.883	245.124	278.929	173.101	289.660	314.757	172.847	179.961	272.407	323.262	179.558	185.470	186.043	193.526	291.642	192.593	-8191	255	
39976.301	1	1	0	0	0.18424	0.35473	0.16696	0.076831	0.091548	0.076897	0.21445	0.32126	0.092176	0.12342	0.35024	0.017855	0.099521	0.10805	0.16444	0.068374	-2.7375	-2.8125	-2.9188	-3.4646	-2.8375	-3.1146	-3.2167	-2.9271	-3.2625	-3.1333	-3.1437	-3.2333	-2.9479	-3.1542	-2.9917	-3.1354	326.757	422.301	513.533	450.357	433.892	405.025	496.197	444.289	251.694	223.209	506.085	268.139	283.287	405.349	487.140	294.259	0.00050626	0.00022548	8.804e-05	1150.9	4.0395e-06	3.462e-06	1210.3	239.73	5.0975e-06	2.6451e-06	300.93	84.985	66.662	18.981	2.5908e-06	26.731	0.00041781	0.00042748	0.00012087	1137.7	4.9019e-06	4.5499e-06	1203.5	238.72	4.5527e-06	4.4011e-06	300.17	84.913	66.585	19.229	4.5469e-06	27.213	504.024	263.781	244.595	173.028	267.200	289.858	172.562	179.949	263.100	315.175	179.748	185.490	186.130	193.393	291.952	193.153	-8191	255	
39976.395	1	1	0	0	0.025798	0.091116	0.16959	0.23012	0.13032	0.11972	0.19235	0.22487	0.18098	0.16458	0.1322	0.1433	0.20294	0.02437	0.093515	0.11053	-2.6917	-2.9833	-2.825	-3.4521	-2.9229	-3.3292	-3.2083	-3.0604	-3.1562	-3.0812	-3.0208	-3.2812	-3.0292	-3.2104	-3.1937	-2.9146	275.245	204.646	347.834	505.309	460.219	379.041	443.760	433.086	421.176	396.061	168.403	488.557	314.548	268.691	208.397	319.445	0.00048929	0.00032045	7.3602e-05	1156.6	4.0031e-06	2.0697e-06	1222.5	242.82	4.2506e-06	1.5526e-06	299.64	84.907	67.135	19.125	3.9828e-06	26.65	0.00041045	0.00043109	0.00013314	1142.3	4.857e-06	4.9404e-06	1210.5	240.39	4.4924e-06	4.8432e-06	300.37	85.098	66.829	19.349	4.713e-06	27.195	497.913	251.073	256.624	173.011	279.741	306.782	172.539	179.875	254.363	292.848	179.500	185.508	186.096	193.330	292.574	192.785	-8191	255	
39976.488	1	1	0	0	0.13807	0.041991	0.14214	0.12185	0.05703	0.076932	0.26826	0.16839	0.1326	0.258	0.042204	0.24659	0.31216	0.12171	0.21806	0.32464	-2.7583	-3.0167	-2.9667	-3.5021	-2.9167	-3.0396	-3.4271	-2.9625	-3.1167	-3.1542	-2.75	-3.3021	-2.8958	-2.9917	-3.1021	-2.9521	281.110	299.293	245.372	477.318	246.902	341.115	473.534	395.042	442.415	364.138	287.490	411.319	171.966	213.105	468.190	454.862	0.000483	0.00057235	8.331e-05	1165.3	2.8396e-06	2.5203e-06	1222	243.56	3.5867e-06	3.5671e-06	302.3	84.923	67.089	19.146	2.9778e-06	26.736	0.00041611	0.00048428	0.0001338	1148.7	4.7871e-06	5.0976e-06	1213.1	241.09	4.7722e-06	5.0569e-06	301.76	85.128	66.927	19.313	4.9347e-06	27.241	498.623	271.110	245.564	172.733	306.288	339.816	172.699	179.739	253.216	313.268	179.624	185.679	186.168	193.166	288.723	192.703	-8191	255	
39976.586	1	1	0	0	0.18813	0.12193	0.10839	0.061065	0.11208	0.19018	0.075728	0.13805	0.15532	0.24712	0.27319	0.21381	0.063761	0.24304	0.14901	0.11162	-2.6771	-3.0583	-2.8125	-3.2562	-3.0042	-3.0208	-3.2792	-2.9771	-3.1125	-2.9208	-2.8688	-3.3333	-3.05	-3.025	-3.2146	-3.0792	301.076	403.388	251.159	223.204	399.778	319.431	418.159	489.479	359.164	252.209	430.761	183.256	187.589	395.284	475.423	274.727	0.0004546	0.00023823	0.00011152	1163.1	4.4007e-06	4.5937e-06	1230.9	243.65	3.8744e-06	3.226e-06	301.5	85.439	67.006	19.231	2.3891e-06	26.65	0.00041619	0.00046889	0.00012989	1151.6	4.8747e-06	5.2622e-06	1217.1	241.31	4.7427e-06	4.9345e-06	301.94	85.516	67.025	19.388	4.9239e-06	27.285	500.713	248.983	249.257	172.867	276.186	320.069	172.453	179.933	251.282	328.200	180.079	185.793	185.927	193.523	304.479	193.175	-8191	255	
39976.684	1	1	0	0	0.039216	0.30542	0.091607	0.093695	0.087921	0.22338	0.16594	0.31981	0.088772	0.046823	0.056097	0.14215	0.31902	0.08378	0.11323	0.25953	-2.7062	-3.0896	-2.8417	-3.4125	-3.0854	-2.85	-3.3583	-2.8937	-3.1125	-3.075	-2.6917	-3.1604	-3.1562	-2.8812	-3.2062	-3	501.748	272.489	374.264	497.155	430.306	290.880	422.662	453.181	500.574	291.285	447.965	419.893	516.774	257.694	374.034	506.491	0.00049343	0.00033622	6.6378e-05	1166.3	3.4754e-06	3.0579e-06	1230.9	243.2	4.6478e-06	2.8563e-06	303.95	85.781	67.201	19.194	3.3726e-06	26.784	0.00042517	0.00049057	0.00012967	1152.7	5.0513e-06	5.4292e-06	1218.5	241.6	4.7481e-06	4.8358e-06	302.49	85.651	67.012	19.41	4.4458e-06	27.272	501.148	256.412	287.812	172.822	280.603	316.840	172.592	179.827	265.944	311.695	179.637	185.448	186.040	193.268	287.533	193.231	-8191	255	
39976.805	1	1	0	0	0.11605	0.33212	0.12346	0.096547	0.20012	0.16846	0.14033	0.24026	0.11989	0.24601	0.15607	0.14995	0.062682	0.17364	0.035703	0.36588	-2.6917	-2.9146	-2.8854	-3.3208	-2.9333	-2.9083	-3.2125	-2.8312	-3.0021	-3.0146	-2.9854	-3.2417	-3.1271	-2.9354	-3.2562	-2.9604	487.243	168.982	359.484	440.030	470.634	404.288	400.622	485.257	327.917	233.197	500.073	177.690	175.238	328.891	179.017	443.226	0.00047013	0.00024695	7.8164e-05	1165.2	2.5553e-06	2.3697e-06	1231.1	243.52	6.0682e-06	3.4385e-06	301.65	85.634	67.226	19.104	3.0087e-06	26.75	0.00042939	0.00045913	0.00012091	1150.8	4.9046e-06	5.2213e-06	1216.7	241.29	5.07e-06	5.278e-06	301.77	85.397	67.075	19.333	4.6957e-06	27.228	499.187	250.073	265.543	172.940	272.168	300.406	172.659	179.961	266.923	310.622	179.957	185.704	186.101	193.733	319.442	192.779	-8191	255	
39976.898	1	1	0	0	0.042285	0.13919	0.26838	0.18319	0.090288	0.075278	0.24174	0.034715	0.24362	0.10768	0.099113	0.16881	0.089934	0.10352	0.042976	0.11728	-2.5021	-3.0729	-2.8729	-3.1813	-2.9896	-2.9208	-3.3646	-3.1292	-3.0854	-3.1521	-3.0521	-3.0187	-3.2812	-3.0625	-3.2396	-2.9708	433.611	408.676	171.598	508.641	297.905	212.780	490.924	275.148	245.797	269.766	329.090	469.016	419.695	243.133	251.609	371.804	0.00049461	0.00028766	6.7915e-05	1163.2	4.0772e-06	2.8048e-06	1226.4	243	5.6985e-06	2.8022e-06	301.96	85	67.165	19.107	3.6162e-06	26.624	0.00043573	0.00045176	0.00011846	1149	5.1008e-06	5.525e-06	1214.1	241.57	5.3873e-06	5.2073e-06	302.24	85.263	67.035	19.325	4.4097e-06	27.212	501.750	270.534	253.674	173.017	277.972	311.784	172.494	179.822	270.310	312.719	179.336	185.707	186.175	193.358	312.228	192.936	-8191	255	
39976.996	1	1	0	0	0.25079	0.10352	0.076973	0.19815	0.042315	0.22682	0.2533	0.30394	0.22918	0.18524	0.14131	0.026574	0.10986	0.11847	0.1141	0.20397	-2.5312	-3.1229	-2.9354	-3.2	-3.3167	-2.875	-3.3917	-3.3042	-2.8521	-3.2167	-3.0062	-3.2333	-3.3271	-2.7896	-3.2521	-2.9646	404.014	189.871	163.428	450.882	369.986	401.520	443.437	425.123	506.027	310.074	492.385	316.825	458.945	443.935	211.847	206.644	0.00050713	0.00034145	9.9247e-05	1167.1	3.2649e-06	4.2765e-06	1224.7	242.68	5.6956e-06	3.3512e-06	302.27	84.958	67.056	19.033	3.4265e-06	26.753	0.00044414	0.00046585	0.00011491	1151.9	5.0601e-06	5.0837e-06	1214.5	241.38	5.2695e-06	5.1679e-06	302.18	85.097	66.9	19.263	4.4277e-06	27.177	501.313	257.888	271.614	173.044	275.181	337.850	172.828	179.631	257.808	293.918	179.742	185.770	185.927	193.455	279.195	193.064	-8191	255	
39977.066	1	1	0	0	0.24327	0.11481	0.14449	0.23607	0.15177	0.36045	0.16655	0.13042	0.26516	0.14339	0.17649	0.1369	0.11905	0.045886	0.32324	0.21475	-2.4458	-3.3542	-2.6917	-3.0708	-3.2979	-2.8708	-3.4688	-3.2083	-3.0583	-3.2896	-2.9667	-3.0563	-3.3208	-2.7417	-3.1188	-3.1771	269.335	253.747	503.776	432.083	189.109	225.367	470.946	456.293	274.774	291.674	390.165	177.829	179.947	173.803	336.040	298.873	0.00050001	0.00032744	7.5336e-05	1166.7	3.4631e-06	2.611e-06	1224.8	243.9	3.8462e-06	2.0042e-06	302.2	85.949	67.182	18.923	4.1592e-06	26.673	0.00045759	0.00046361	0.0001219	1152.3	5.274e-06	5.182e-06	1216.9	242.04	5.3023e-06	4.9583e-06	301.94	85.352	66.988	19.222	4.7975e-06	27.121	500.146	231.075	238.091	172.908	287.088	300.907	172.727	179.775	272.043	310.769	179.625	185.083	185.863	193.724	302.622	192.985	-8191	255	
39977.164	1	1	0	0	0.14857	0.094881	0.076992	0.10412	0.16917	0.18041	0.307	0.075773	0.10667	0.23013	0.030384	0.12862	0.0050771	0.33153	0.17994	0.021337	-2.6396	-3.225	-2.7979	-3.1042	-3.2646	-2.9542	-3.2229	-3.0854	-2.8	-3.1937	-3.0479	-2.8937	-3.2208	-3.0938	-3.1229	-3.2313	363.671	323.676	346.047	455.164	267.391	453.671	426.109	500.834	254.560	408.377	479.363	165.030	297.175	501.948	334.354	376.512	0.00048186	0.00027714	8.6823e-05	1163.7	3.9064e-06	3.4971e-06	1232.9	244.07	4.7322e-06	4.3943e-06	302.6	85.586	66.697	18.884	4.751e-06	26.628	0.00045218	0.00044251	0.00012764	1152.4	5.4119e-06	4.8471e-06	1217.5	242	5.4522e-06	5.1391e-06	302.55	85.504	66.851	19.188	5.0813e-06	27.117	501.885	267.996	242.191	172.927	282.619	320.737	172.581	179.914	255.941	311.946	179.450	185.823	186.648	193.437	299.915	193.145	-8191	255	
39977.281	1	1	0	0	0.16912	0.14541	0.13207	0.27928	0.098253	0.17505	0.18066	0.26361	0.0897	0.055244	0.1639	0.18444	0.062488	0.054682	0.056331	0.19832	-2.5563	-3.1667	-2.9604	-3.075	-3.3604	-2.8667	-3.2375	-3.3354	-2.9479	-3.0917	-3.0917	-2.8354	-3.3333	-2.9229	-3.175	-3.2833	257.124	171.293	497.948	507.302	441.725	469.202	507.053	425.585	491.868	268.364	457.778	487.557	203.929	181.974	454.206	433.761	0.00047829	0.00036747	7.2581e-05	1168.4	3.5979e-06	2.7915e-06	1231.4	243.55	4.6973e-06	2.0539e-06	303.76	85.066	67.13	19.073	2.5179e-06	26.624	0.00043974	0.00045544	0.00012563	1153.9	4.9759e-06	4.8921e-06	1217.8	241.87	5.1825e-06	5.1021e-06	302.22	85.106	67.001	19.269	5.0625e-06	27.115	499.608	239.733	240.819	172.890	274.343	315.281	172.708	179.842	265.426	296.505	179.356	185.721	186.183	193.607	264.918	193.180	-8191	255	
39977.379	1	1	0	0	0.1827	0.3826	0.15969	0.30543	0.078666	0.1953	0.19644	0.21828	0.084103	0.12799	0.10039	0.10386	0.093253	0.1938	0.35561	0.17112	-2.6208	-3.2021	-2.95	-3.2021	-3.1667	-2.9458	-3.1792	-3.2979	-2.8083	-3.0563	-3.0938	-2.9875	-3.4604	-2.8125	-2.9688	-3.3146	214.135	392.622	186.270	498.277	168.039	316.676	470.851	453.485	363.897	220.043	409.920	439.656	350.865	479.559	336.670	279.870	0.00049367	0.00042385	8.6908e-05	1170.4	4.7861e-06	2.8231e-06	1227.5	243.46	5.8122e-06	2.0074e-06	303.27	85.065	66.451	18.93	2.9101e-06	26.713	0.00043909	0.00047221	0.00013105	1154.8	5.0173e-06	4.9445e-06	1217.7	241.71	5.2528e-06	5.389e-06	302.33	85.33	66.811	19.21	5.3839e-06	27.141	500.384	253.425	247.912	173.043	260.668	319.771	172.644	180.037	253.939	311.003	179.715	185.489	186.160	193.931	287.274	192.475	-8191	255	
39977.473	1	1	0	0	0.11333	0.013887	0.090122	0.19496	0.087015	0.10234	0.23916	0.089077	0.34123	0.15714	0.037699	0.13214	0.022286	0.19381	0.14038	0.19464	-2.6104	-2.9792	-3.0833	-3.0229	-3.2229	-3.0625	-3.2354	-3.2146	-2.8729	-3.0479	-3.2875	-2.8208	-3.3292	-3.0083	-2.8958	-3.4167	407.813	494.710	356.561	508.580	501.049	402.087	451.087	446.263	246.466	356.593	223.944	254.790	282.440	517.288	376.434	339.288	0.00050409	0.00024114	0.00011867	1167.2	2.9488e-06	2.7285e-06	1233.3	245.38	6.2588e-06	3.8021e-06	301.56	85.813	67.068	19.186	2.8552e-06	26.568	0.000445	0.00050293	0.00015049	1155.9	5.1912e-06	5.3031e-06	1221.3	242.53	5.0004e-06	5.7695e-06	302.17	85.483	66.984	19.289	5.5558e-06	27.102	501.863	241.294	247.995	173.063	278.126	297.784	172.622	180.151	255.416	295.197	179.571	185.483	186.042	193.512	325.400	192.748	-8191	255	
39977.570	1	1	0	0	0.19205	0.080833	0.16814	0.2594	0.1021	0.070641	0.27754	0.35485	0.22843	0.20578	0.31664	0.16267	0.081361	0.094177	0.075553	0.29366	-2.3708	-2.9729	-3.1917	-3.0729	-3.1625	-3.1521	-3.0833	-3.2792	-2.8229	-3.25	-3.3771	-2.925	-3.2771	-3.1937	-3.0146	-3.4083	235.617	350.228	449.916	410.259	360.721	512.163	450.066	476.185	384.456	494.451	496.027	199.826	387.622	417.557	180.286	254.202	0.00054093	0.00045207	0.00011205	1171.9	2.9695e-06	3.7726e-06	1239	244.2	3.5176e-06	4.4471e-06	303.78	85.49	67.263	19.021	4.4617e-06	26.64	0.00045196	0.00052743	0.000148	1158.3	5.2801e-06	5.7854e-06	1224.9	243.02	5.2119e-06	6.256e-06	303.84	85.436	67.29	19.323	5.8367e-06	27.196	502.550	231.972	224.890	172.777	280.829	297.073	172.600	179.915	263.977	289.742	179.583	185.701	185.890	193.496	296.964	192.875	-8191	255	
39977.664	1	1	0	0	0.05373	0.01086	0.12816	0.35024	0.1431	0.14348	0.087958	0.23326	0.13837	0.09763	0.26506	0.08419	0.13605	0.13681	0.20315	0.18739	-2.4604	-3.0938	-3.1104	-3.1	-3.1042	-3.1917	-2.9875	-3.2896	-3.0687	-3.0667	-3.1729	-3.1229	-3.1604	-3.1896	-2.8229	-3.2396	309.333	324.962	271.477	508.427	263.070	298.381	482.847	234.003	202.318	496.542	484.803	299.572	397.100	382.954	367.131	447.081	0.0004789	0.00031758	0.00011862	1175.1	3.9143e-06	3.3191e-06	1241.2	245.03	6.1868e-06	1.4594e-06	305.12	85.743	67.084	19.072	2.7345e-06	26.58	0.00044421	0.00052909	0.00014653	1160.9	5.5362e-06	5.9557e-06	1227.5	243.43	5.4127e-06	5.8319e-06	304.77	85.586	67.207	19.279	5.1802e-06	27.162	503.897	263.782	265.733	172.764	276.234	310.066	172.505	179.745	270.088	324.507	179.616	185.559	186.054	193.773	275.886	192.928	-8191	255	
39977.762	1	1	0	0	0.096512	0.058159	0.058832	0.30903	0.10166	0.14303	0.23952	0.1048	0.15713	0.1135	0.18477	0.08078	0.004846	0.27971	0.033543	0.35625	-2.5771	-3.05	-3.1979	-3.0792	-3.0417	-3.0542	-2.9646	-3.1708	-2.9271	-2.8438	-3.3833	-2.9313	-2.9917	-3.0563	-2.9229	-3.2104	410.012	343.391	185.700	444.273	214.507	390.467	452.630	492.339	342.951	497.070	280.188	202.868	224.363	411.005	293.396	229.407	0.0004871	0.00040894	7.4684e-05	1175.3	2.6818e-06	3.3936e-06	1235.2	245.16	5.5175e-06	2.9272e-06	304.55	85.503	67.149	18.971	2.9181e-06	26.592	0.00043992	0.00051413	0.00013166	1161.6	4.948e-06	5.4595e-06	1224.5	242.97	5.7936e-06	5.864e-06	303.69	85.521	67.139	19.282	5.2048e-06	27.044	504.135	263.721	247.950	172.744	260.581	290.875	172.750	179.721	246.423	314.384	179.791	185.909	185.891	193.781	276.346	192.743	-8191	255	
39977.883	1	1	0	0	0.165	0.21057	0.074634	0.23456	0.13118	0.13139	0.26075	0.045367	0.1719	0.1687	0.043708	0.14454	0.21793	0.13626	0.12764	0.079602	-2.5271	-2.9417	-3.1333	-3.175	-3.2042	-3.2146	-3	-3.0875	-2.975	-2.8833	-3.4062	-3.0396	-3.1312	-3.2125	-3.0458	-3.3229	434.103	272.915	295.283	367.466	378.995	478.809	517.973	507.181	194.984	213.780	502.621	496.514	437.723	446.539	260.583	476.369	0.00047617	0.00030476	0.00010379	1175.1	3.2775e-06	3.8876e-06	1234.2	244.82	4.8544e-06	2.9899e-06	303.12	85.817	67.35	19.137	6.1187e-07	26.626	0.00043591	0.00053104	0.00013575	1161.2	5.3664e-06	5.733e-06	1225	243.01	5.3605e-06	5.7991e-06	303.6	85.671	67.215	19.299	5.2149e-06	27.151	502.832	255.089	260.154	172.887	270.595	319.293	172.672	180.024	263.326	310.441	179.783	185.591	185.817	193.408	340.555	192.527	-8191	255	
39977.980	1	1	0	0	0.035345	0.15831	0.053807	0.19551	0.30449	0.22579	0.13411	0.29114	0.19203	0.14169	0.094862	0.07049	0.095235	0.17592	0.11759	0.17997	-2.7083	-2.8937	-3.2062	-3.2875	-2.9917	-3.1708	-3.1042	-3.1479	-3.1333	-2.9521	-3.4229	-3.1667	-2.9521	-3.3354	-3.1625	-3.0687	364.999	212.332	399.154	181.630	346.673	275.664	222.032	416.769	177.166	205.836	381.272	502.940	453.635	206.882	177.943	255.707	0.00044818	0.00023338	7.4427e-05	1174.7	3.4914e-06	3.4426e-06	1241.5	244.44	5.0297e-06	1.8628e-06	302.27	85.756	66.95	19.058	2.6696e-06	26.655	0.00043581	0.00051514	0.00012593	1159.4	5.7134e-06	5.331e-06	1225.6	242.61	5.2996e-06	5.4679e-06	302.5	85.686	67.017	19.27	5.1824e-06	27.16	502.865	276.230	264.804	172.826	279.206	335.974	172.502	179.936	273.116	303.381	179.866	185.516	185.546	192.825	276.069	193.368	-8191	255	
39978.074	1	1	0	0	0.31186	0.066999	0.054617	0.21468	0.061543	0.12961	0.14684	0.16904	0.30741	0.058134	0.2653	0.077336	0.17397	0.24942	0.16136	0.23924	-2.7208	-2.8563	-3.2271	-3.1375	-3.0833	-3.2708	-3.1229	-3.3146	-3.2271	-2.9729	-3.0271	-3.1667	-3.0604	-3.1792	-2.9854	-2.9938	348.192	351.028	335.535	171.281	458.359	187.898	247.455	417.265	370.027	407.481	467.103	403.654	272.467	488.174	300.858	244.125	0.00045325	0.00030686	8.9938e-05	1175	4.9842e-06	3.2751e-06	1234	243.77	4.6317e-06	2.6925e-06	302.97	85.326	67.233	18.946	2.8833e-06	26.506	0.00044659	0.00050054	0.00013324	1158.8	5.5742e-06	5.2663e-06	1223.5	242.41	5.3137e-06	5.5492e-06	303.08	85.529	67.116	19.193	4.6949e-06	27.076	501.722	260.717	256.570	172.681	280.755	332.916	172.657	179.972	258.715	333.442	179.823	185.768	186.087	193.178	300.674	193.105	-8191	255	
39978.172	1	1	0	0	0.072072	0.17875	0.14537	0.24858	0.18111	0.10846	0.18044	0.19953	0.15547	0.16511	0.046671	0.18826	0.15777	0.10765	0.25341	0.26269	-2.8396	-2.9521	-3.1813	-3.1208	-2.9208	-3.2271	-3.15	-3.2833	-3.2521	-2.9	-3.2	-3.0563	-2.8292	-3.3208	-3.075	-3.0187	277.046	314.738	344.387	492.551	212.312	253.914	461.896	518.645	433.606	400.762	508.244	180.390	495.645	517.677	285.811	220.511	0.00050912	0.00030458	6.1196e-05	1170.8	3.7105e-06	3.5343e-06	1232.9	243.59	5.0307e-06	2.2432e-06	302.79	85.244	66.757	19.004	2.8692e-06	26.616	0.00046015	0.00047185	0.0001215	1157.2	5.7127e-06	5.1451e-06	1221.8	241.81	5.6068e-06	5.1112e-06	302.57	85.184	66.824	19.203	4.8452e-06	27.092	501.835	263.112	261.791	172.974	276.975	306.123	172.641	180.004	269.396	303.881	179.571	185.842	186.225	193.532	282.790	193.015	-8191	255	
39978.289	1	1	0	0	0.0926	0.34428	0.13692	0.18837	0.068058	0.10826	0.31481	0.2262	0.11931	0.17467	0.13007	0.26644	0.21866	0.22197	0.10653	0.18666	-2.7313	-2.8083	-3.3125	-3.275	-2.9646	-3.3021	-3.1271	-3.0917	-3.1896	-3.0187	-3.2333	-3.2083	-2.9125	-3.3187	-2.95	-3.0292	500.883	313.987	335.502	449.041	252.601	208.503	486.983	325.716	230.873	430.018	518.425	353.871	195.306	163.212	357.293	396.282	0.00053521	0.00042485	0.00011354	1171.6	4.6956e-06	3.7428e-06	1235	243.02	7.0676e-06	3.3891e-06	303.96	84.849	66.84	18.92	3.1128e-06	26.61	0.0004489	0.00047546	0.00013019	1157.5	5.4757e-06	5.1926e-06	1222.9	241.59	5.2447e-06	5.0734e-06	302.85	85.28	66.936	19.179	4.9759e-06	27.046	501.009	260.138	237.143	172.795	276.594	322.096	172.588	179.730	276.738	304.661	179.762	185.447	185.734	193.607	320.673	193.060	-8191	255	
39978.363	1	1	0	0	0.21707	0.16298	0.053028	0.42711	0.076123	0.13946	0.094949	0.068187	0.12762	0.098728	0.24366	0.15906	0.18875	0.18874	0.23347	0.14034	-2.8542	-2.9813	-2.9833	-3.3375	-2.7625	-3.1312	-3.1271	-2.8583	-3.3292	-3.175	-3.1125	-3.3333	-2.9917	-3.1833	-3.0812	-2.9833	436.422	499.153	466.647	494.411	221.129	475.743	399.010	287.367	433.446	420.711	454.177	475.021	467.779	431.770	306.339	495.454	0.00045536	0.00024147	0.00011006	1174.5	2.8032e-06	2.1438e-06	1233.4	242.12	4.9497e-06	3.5887e-06	301.46	85.358	67.364	18.91	5.1875e-06	26.452	0.00041647	0.00046441	0.0001375	1158.9	5.2992e-06	4.7087e-06	1220.6	241.62	5.0339e-06	5.1046e-06	302.25	85.197	67.15	19.167	5.3702e-06	27.016	502.366	222.533	238.965	172.925	273.476	325.644	172.657	179.850	252.355	309.425	179.719	185.695	186.007	194.027	291.117	192.731	-8191	255	
39978.484	1	1	0	0	0.11769	0.12975	0.10893	0.28423	0.12756	0.14483	0.54406	0.13759	0.22545	0.12681	0.20211	0.076767	0.1667	0.18312	0.12349	0.21753	-2.7125	-2.8854	-3.1771	-3.3187	-2.9583	-3.1167	-3.1708	-3.0229	-3.3292	-2.975	-3.0958	-3.2313	-2.8708	-3.2104	-3.1562	-2.9708	445.796	423.218	461.139	508.311	351.663	448.826	444.559	287.813	337.341	180.220	499.857	444.122	466.567	311.464	462.217	432.597	0.00048041	0.00027554	8.3665e-05	1170	3.7639e-06	3.0445e-06	1231.1	244.28	3.1121e-06	2.3834e-06	303.92	85.315	67.001	19.039	2.646e-06	26.716	0.00043209	0.00047445	0.00014406	1158.4	5.1932e-06	5.2319e-06	1222.4	241.86	4.8947e-06	5.4448e-06	302.77	85.136	67.091	19.247	5.2554e-06	27.133	504.060	253.288	257.987	172.943	284.500	317.718	172.541	179.776	284.853	295.912	179.629	185.709	186.090	193.678	285.043	192.628	-8191	255	
39978.578	1	1	0	0	0.36634	0.11208	0.27926	0.36385	0.23646	0.14722	0.31069	0.23059	0.022871	0.10773	0.23474	0.22808	0.13933	0.29954	0.10178	0.11189	-2.8333	-2.8833	-3.0208	-3.4313	-2.9542	-3.0854	-3.4229	-2.7896	-3.2771	-3.0708	-3.05	-3.3312	-2.9938	-3.1833	-3.1875	-2.9979	417.783	277.832	243.841	507.762	252.236	307.319	442.656	165.417	415.493	387.660	339.947	289.765	493.685	451.144	306.648	259.944	0.00046593	0.00025778	7.45e-05	1172.5	4.1675e-06	3.5949e-06	1230	243.11	4.4753e-06	2.0014e-06	303.26	84.975	66.828	18.922	2.9218e-06	26.584	0.00043087	0.00050885	0.00014455	1159.6	5.1871e-06	5.5258e-06	1221.8	241.63	4.8927e-06	5.661e-06	302.6	85.127	66.926	19.203	5.3933e-06	27.021	501.064	270.848	270.809	172.766	285.468	316.372	172.742	179.748	265.979	300.787	179.415	185.533	186.217	193.604	278.907	193.027	-8191	255	
39978.676	1	1	0	0	0.058169	0.23521	0.12469	0.13965	0.20361	0.15307	0.14052	0.27653	0.1419	0.17499	0.020734	0.14938	0.09044	0.20417	0.18133	0.26462	-2.9229	-2.9375	-2.8646	-3.3125	-2.9396	-3.0625	-3.3271	-2.9604	-3.2083	-3.0479	-2.8292	-3.425	-3.0375	-3.0938	-3.1604	-2.9771	504.266	301.776	357.365	467.375	202.595	468.197	500.081	366.251	450.353	197.754	299.606	396.750	268.823	279.227	162.427	428.710	0.00047655	0.00037646	7.2816e-05	1170.8	3.6727e-06	4.2287e-06	1235.5	243.9	5.3916e-06	2.5631e-06	301.96	84.701	67.349	18.943	2.4246e-06	26.713	0.00043418	0.00048826	0.00014151	1157.1	5.2115e-06	5.3907e-06	1222	241.77	5.1343e-06	5.4383e-06	302.32	85.194	66.94	19.184	5.1875e-06	27.02	500.699	276.575	260.476	172.868	257.334	317.221	172.740	179.711	256.674	308.850	179.831	185.272	186.259	193.366	291.047	192.678	-8191	255	
39978.770	1	1	0	0	0.13348	0.1899	0.1132	0.076827	0.13309	0.10122	0.29775	0.21403	0.25243	0.036457	0.35773	0.14963	0.19412	0.22297	0.20999	0.27031	-2.8625	-3.1021	-2.725	-3.4875	-2.9083	-3.0521	-3.3958	-3.0542	-3.0208	-3.1083	-2.8958	-3.1292	-3.1458	-3.0042	-3.1479	-2.8312	466.023	316.837	397.661	397.318	296.385	490.887	409.873	374.409	175.766	296.793	449.572	388.065	184.222	393.664	505.488	512.251	0.0004887	0.00037412	6.8088e-05	1170.4	3.4632e-06	1.8009e-06	1230.3	244.17	5.5852e-06	2.4109e-06	303.17	85.611	67.192	18.997	2.6669e-06	26.41	0.00043927	0.00049476	0.00014172	1157.6	5.4445e-06	5.6175e-06	1221.1	241.93	5.398e-06	5.6199e-06	302.7	85.274	66.973	19.162	4.8423e-06	26.99	499.809	246.513	234.598	173.002	286.047	312.666	172.693	179.914	254.610	325.450	179.667	185.601	185.933	193.238	312.034	193.093	-8191	255	
39978.867	1	1	0	0	0.15677	0.23989	0.20776	0.055515	0.12679	0.081591	0.24406	0.15287	0.096753	0.2572	0.22439	0.21116	0.27278	0.058494	0.01836	0.023876	-2.7687	-3.0396	-2.7417	-3.2771	-2.8354	-2.9646	-3.4042	-2.9125	-3.1833	-3.1792	-3.0687	-3.2875	-3.1229	-3.1083	-3.1688	-3.0687	220.765	163.418	171.074	443.767	342.633	296.249	483.293	218.532	314.581	286.975	483.710	166.257	508.271	435.869	415.799	306.007	0.00048904	0.00037572	7.5975e-05	1174	2.6619e-06	1.7478e-06	1231.9	244.31	5.2318e-06	2.6504e-06	304.48	85.071	67.036	18.9	2.4374e-06	26.519	0.000452	0.00050755	0.00014168	1158.3	5.2394e-06	5.6094e-06	1220.3	241.7	5.3967e-06	5.5813e-06	302.35	85.254	66.901	19.183	4.6863e-06	27.032	497.994	264.369	234.916	172.911	269.945	309.157	172.684	179.690	266.931	319.632	179.362	185.548	185.932	193.824	304.446	192.881	-8191	255	
39978.965	1	1	0	0	0.042487	0.26747	0.091669	0.16939	0.30916	0.22908	0.29144	0.26689	0.082348	0.10418	0.11628	0.19531	0.18761	0.10751	0.058906	0.18919	-2.7521	-3.1375	-2.8521	-3.4188	-3.0417	-2.8917	-3.1208	-2.9479	-3.0042	-3.1937	-3.0042	-3.3104	-3.0875	-2.8187	-3.2125	-3.0563	339.894	270.337	239.059	495.245	187.668	431.099	434.062	515.730	280.404	203.429	170.219	187.564	178.240	507.430	225.458	487.091	0.00051873	0.00029479	9.4807e-05	1170.1	2.8531e-06	2.8616e-06	1236.1	243.09	4.0372e-06	2.9082e-06	301.53	85.113	66.655	18.887	3.8425e-06	26.367	0.00045308	0.00049686	0.00012856	1155.7	5.4696e-06	5.5701e-06	1219.9	241.28	5.3023e-06	5.6413e-06	301.51	85.043	66.81	19.209	4.6884e-06	26.953	502.237	238.300	276.146	172.996	269.333	314.656	172.530	179.993	263.978	315.146	179.733	185.663	186.033	193.781	302.613	192.871	-8191	255	
39979.059	1	1	0	0	0.23421	0.27431	0.19621	0.066671	0.036797	0.13987	0.19335	0.15946	0.10104	0.13466	0.14226	0.14155	0.092314	0.13418	0.13574	0.18206	-2.5646	-3.1417	-2.7896	-3.3646	-3.1354	-2.9083	-3.3521	-3.0896	-2.8146	-3.2812	-2.8979	-3.3	-3.1604	-3.0375	-3.3146	-3.0083	228.072	321.252	218.569	498.526	173.980	448.395	517.726	519.219	451.654	168.449	443.147	198.382	480.974	448.871	448.989	364.787	0.00047832	0.0004063	0.00012822	1170.5	4.6559e-06	2.1201e-06	1230.3	243.7	4.7599e-06	2.7353e-06	302.9	85.867	67.196	18.974	4.1862e-06	26.324	0.00044821	0.00050806	0.00013164	1156.9	5.5559e-06	5.3719e-06	1220.9	241.68	5.4495e-06	5.55e-06	302.23	85.319	66.965	19.174	4.7484e-06	26.98	502.148	249.880	254.493	172.926	277.325	323.628	172.576	179.894	251.880	316.965	179.692	185.716	186.099	193.870	286.470	192.844	-8191	255	
39979.156	1	1	0	0	0.13753	0.24073	0.27056	0.07161	0.13082	0.17677	0.16376	0.29762	0.29456	0.17012	0.19034	0.099722	0.20316	0.073187	0.28105	0.072354	-2.3854	-3.2521	-2.8063	-3.2208	-2.9771	-2.8	-3.3312	-3.125	-2.8458	-3.1625	-2.9688	-3.0354	-3.1188	-2.9229	-3.1813	-3.1437	488.062	467.269	395.873	377.598	181.769	176.190	421.381	186.885	205.803	509.747	518.030	387.267	455.943	455.224	280.651	376.193	0.00049225	0.00033187	9.1154e-05	1167.9	3.4903e-06	3.1698e-06	1230.7	244.06	5.3627e-06	2.2033e-06	302.14	85.306	66.87	18.834	3.8569e-06	26.478	0.00046412	0.00045306	0.00012676	1156.1	5.4608e-06	5.444e-06	1221	242.12	5.5091e-06	5.1325e-06	302.12	85.212	66.908	19.137	5.0257e-06	27.049	502.412	264.374	252.177	172.864	284.311	311.644	172.673	179.976	279.900	308.929	179.723	185.996	186.360	193.550	304.880	193.043	-8191	255	
39979.254	1	1	0	0	0.24815	0.077383	0.049962	0.093753	0.23247	0.19289	0.28437	0.2446	0.15688	0.14476	0.12906	0.34445	0.1444	0.1875	0.018224	0.25123	-2.5062	-3.1396	-2.7458	-3.0958	-3.1833	-2.9292	-3.4479	-3.1875	-2.7333	-3.4667	-2.9437	-3.1167	-3.2208	-2.975	-3.3563	-3.2208	344.456	505.926	442.782	452.251	322.945	294.138	460.965	468.012	334.189	401.483	488.602	453.219	479.259	461.817	297.769	386.828	0.00048297	0.00027576	5.8752e-05	1172.9	5.2087e-06	3.0657e-06	1231.8	243.84	3.6327e-06	3.47e-06	302.12	85.306	67.135	18.861	3.7926e-06	26.59	0.00045608	0.00046282	0.00012812	1157.8	5.3562e-06	5.0853e-06	1222.7	241.87	5.1316e-06	5.1416e-06	302.97	85.217	67.05	19.172	4.8697e-06	27.018	501.292	280.639	278.623	173.108	279.893	306.159	172.529	179.677	255.817	304.959	179.844	185.629	186.039	193.537	290.850	192.742	-8191	255	
39979.371	1	1	0	0	0.087985	0.057036	0.17398	0.21321	0.041334	0.049228	0.22911	0.17644	0.20875	0.11204	0.10006	0.17357	0.17074	0.20363	0.094726	0.25233	-2.3875	-3.2083	-2.9042	-3.1604	-3.3187	-2.8937	-3.3958	-3.1021	-2.8187	-3.2354	-3.1312	-2.8708	-3.2896	-3.0854	-3.1083	-3.0312	361.313	294.234	288.428	475.921	483.320	446.488	492.652	456.421	414.109	493.920	518.490	444.897	215.694	165.407	233.733	422.213	0.00047058	0.00046533	8.3794e-05	1172.8	2.7242e-06	2.5731e-06	1231.1	244.07	4.0485e-06	3.7612e-06	302.54	85.273	67.176	18.911	4.1243e-06	26.607	0.00042924	0.00047452	0.00012893	1158.9	5.3385e-06	4.9634e-06	1222.4	242.08	5.3659e-06	5.3783e-06	302.74	85.242	66.989	19.189	5.0308e-06	27.045	504.359	275.236	258.344	172.801	289.503	311.246	172.784	179.805	253.826	313.359	179.785	185.528	185.764	193.256	304.014	192.831	-8191	255	
39979.469	1	1	0	0	0.21232	0.061255	0.17983	0.15404	0.1018	0.43977	0.31154	0.093426	0.063693	0.15302	0.37989	0.30991	0.14921	0.12416	0.14845	0.21778	-2.4229	-3.1625	-3.0271	-3.1979	-3.275	-3.0479	-3.3396	-3.3354	-2.8458	-3.3	-3.1042	-3.0521	-3.3792	-2.9604	-2.9604	-3.3167	236.254	491.062	335.875	407.214	410.493	481.529	436.279	328.199	193.701	415.193	448.345	479.698	349.032	371.595	260.223	279.830	0.00050126	0.00032438	6.387e-05	1172.5	2.7877e-06	3.1937e-06	1230.8	243.12	7.0787e-06	3.5952e-06	303.16	85.331	67.141	18.898	3.8435e-06	26.499	0.00044306	0.00045248	0.00012891	1158.2	5.1083e-06	5.2229e-06	1222	241.75	5.3043e-06	5.0898e-06	302.18	85.232	66.919	19.137	5.4771e-06	27.073	500.767	252.428	270.016	173.158	269.650	339.809	172.652	179.946	262.792	331.648	179.795	185.569	185.975	193.673	309.186	192.921	-8191	255	
39979.562	1	1	0	0	0.075082	0.059951	0.21904	0.4168	0.22178	0.069658	0.27212	0.081442	0.32932	0.2354	0.058634	0.09606	0.097595	0.080727	0.23194	0.17789	-2.4396	-3.0542	-2.925	-3.1271	-3.0438	-2.9646	-3.0958	-3.5062	-2.8646	-3.3063	-3.1958	-3.0312	-3.2938	-2.9417	-3.0271	-3.4813	422.645	322.689	464.020	497.439	317.223	363.549	479.907	361.401	422.148	297.839	428.097	335.418	432.939	450.862	390.786	173.826	0.00047927	0.00032285	8.3315e-05	1169.5	4.9823e-06	3.3871e-06	1232.9	243.9	5.1445e-06	2.0579e-06	302.66	85.63	67.246	19	3.0391e-06	26.496	0.00043894	0.00048544	0.0001383	1157.2	5.1321e-06	5.5504e-06	1222	241.84	4.967e-06	5.0462e-06	302.41	85.253	67.011	19.216	4.965e-06	26.959	504.614	233.950	268.362	173.009	307.636	323.539	172.638	180.010	259.987	306.954	179.618	185.537	186.125	193.304	311.795	192.849	-8191	255	
39979.660	1	1	0	0	0.20123	0.21987	0.26432	0.21455	0.14961	0.069099	0.19376	0.039254	0.14867	0.060899	0.17273	0.23503	0.16262	0.057421	0.12001	0.17031	-2.3958	-3.1813	-2.9833	-3.0271	-3.3396	-3.0333	-3.2188	-3.4542	-2.9458	-3.2104	-3.0708	-2.8854	-3.3292	-3.0146	-3.0125	-3.2208	261.145	451.036	395.453	485.201	344.819	171.024	317.772	339.567	252.620	356.766	342.933	505.057	441.783	209.246	299.576	166.150	0.00048346	0.0002982	6.4143e-05	1172.2	3.9392e-06	2.8062e-06	1233.7	244.16	4.1897e-06	1.8256e-06	301.55	85.432	66.922	19.072	4.725e-06	26.408	0.00042665	0.00049888	0.00013762	1159.5	4.9935e-06	5.4423e-06	1223.2	241.77	4.9937e-06	5.652e-06	302.19	85.302	66.979	19.262	5.1788e-06	26.989	499.572	263.445	238.004	173.114	279.599	305.193	172.677	179.842	269.984	308.841	179.477	185.331	186.289	193.746	277.177	193.147	-8191	255	
39979.754	1	1	0	0	0.091801	0.072112	0.25646	0.065569	0.048971	0.2398	0.14596	0.21872	0.05368	0.067454	0.19759	0.22819	0.11437	0.050948	0.25176	0.14272	-2.5917	-3.1146	-3.1833	-3.0187	-3.2167	-3.0354	-3.1896	-3.2188	-3.0062	-2.9542	-3.2625	-2.8083	-3.3688	-3.0833	-2.9188	-3.2938	243.856	496.339	517.405	263.974	191.335	307.289	417.753	463.718	379.594	471.117	416.967	175.344	461.631	377.926	374.444	413.745	0.00050538	0.00045721	0.0001105	1172.4	4.4854e-06	3.4875e-06	1237.5	243.89	4.896e-06	1.8407e-06	303.96	85.055	66.767	19.031	3.9352e-06	26.601	0.00042639	0.00051434	0.00013945	1158.9	5.255e-06	5.8116e-06	1223.7	242.19	5.319e-06	5.4679e-06	302.35	85.234	67.013	19.253	5.2207e-06	27.068	500.151	246.998	266.454	173.069	275.804	331.173	172.659	179.877	264.257	309.510	179.734	185.434	185.797	193.581	287.457	192.706	-8191	255	
39979.852	1	1	0	0	0.20316	0.11861	0.029045	0.26152	0.076501	0.048111	0.24014	0.056753	0.088669	0.093136	0.29017	0.26075	0.14139	0.13493	0.090422	0.14489	-2.425	-3.0271	-3.3333	-3.1	-3.1729	-3.0312	-3.1063	-3.2729	-2.8146	-3.0146	-3.2146	-2.7479	-3.275	-3.2542	-2.9167	-3.2417	486.802	485.529	341.761	485.469	299.298	358.212	471.449	397.798	478.538	169.826	437.452	187.638	411.447	275.152	492.706	370.106	0.00047185	0.00038032	0.00012363	1172.4	4.1454e-06	2.5638e-06	1234.5	243.96	5.4828e-06	3.1633e-06	302.73	84.794	67.207	18.966	3.2794e-06	26.494	0.00043516	0.00051521	0.00013069	1158.3	5.4662e-06	5.638e-06	1223.6	242.08	5.572e-06	5.6569e-06	302.81	85.214	67.032	19.228	4.7643e-06	26.984	503.795	264.539	260.518	172.810	268.384	319.593	172.660	180.016	271.749	318.805	179.610	185.640	186.035	193.226	283.096	193.042	-8191	255	
39979.973	1	1	0	0	0.28748	0.15431	0.25968	0.30456	0.25182	0.068268	0.27146	0.16363	0.12849	0.3161	0.25442	0.18564	0.22168	0.17545	0.28065	0.098705	-2.575	-2.9583	-3.4021	-3.025	-3.0729	-3.1167	-3	-3.1625	-3.0708	-3.025	-3.3063	-3.0417	-3.1	-3.1042	-2.9625	-3.3396	360.672	329.076	444.553	479.932	466.982	170.619	481.999	519.447	488.665	239.813	180.961	448.165	435.730	313.115	301.869	315.497	0.00047759	0.0003223	9.4535e-05	1175.9	3.8213e-06	2.8588e-06	1240	244.2	5.0073e-06	2.0118e-06	301.74	84.859	66.98	19.002	3.5806e-06	26.527	0.00045543	0.00050827	0.00013156	1161	5.454e-06	5.4726e-06	1225.9	241.96	5.5573e-06	5.8073e-06	302.39	85.426	67.07	19.203	4.8502e-06	26.991	505.264	258.569	246.544	173.045	263.116	279.469	172.644	179.815	271.436	318.191	179.325	185.705	186.055	193.194	305.523	193.001	-8191	255	
39980.066	1	1	0	0	0.15926	0.18754	0.23036	0.3922	0.03093	0.25863	0.18021	0.26592	0.10415	0.072129	0.11139	0.17944	0.11958	0.023182	0.15749	0.17823	-2.7854	-2.7896	-2.9562	-2.9604	-2.9813	-3.2188	-3.0021	-3.25	-3.0875	-3.0771	-3.3917	-3.0187	-3.0583	-3.1125	-2.9208	-3.2292	260.621	418.385	297.857	487.437	348.807	345.147	436.861	474.898	381.588	217.974	334.523	441.551	439.853	416.084	177.693	303.460	0.00050419	0.00038978	9.6696e-05	1173.2	4.635e-06	1.9432e-06	1235.4	243.34	5.1309e-06	4.7959e-06	303.6	85.852	66.806	18.882	2.6666e-06	26.468	0.00045045	0.00049657	0.00013027	1158.7	5.729e-06	5.322e-06	1222.3	241.55	5.3712e-06	5.7761e-06	303.26	85.49	67.151	19.193	4.8654e-06	26.962	501.101	255.726	268.776	172.904	301.314	316.008	172.549	180.060	268.756	313.966	179.372	185.943	186.158	193.466	272.181	193.231	-8191	255	
39980.164	1	1	0	0	0.046816	0.1875	0.20804	0.1157	0.16641	0.19579	0.34191	0.22464	0.12367	0.13031	0.33222	0.069179	0.19934	0.032008	0.095462	0.19143	-2.4854	-2.7979	-3.1229	-2.9375	-3.1229	-3.2188	-3.0417	-3.3625	-3.3625	-3.0708	-3.2625	-2.9688	-3.075	-3.1521	-2.925	-3.0812	447.275	463.998	510.217	162.527	202.449	314.923	486.229	474.794	430.359	242.800	509.869	440.442	204.651	456.366	425.370	366.473	0.00048629	0.00031556	8.1095e-05	1172.5	2.9015e-06	2.3114e-06	1232.3	243.47	5.7288e-06	4.1322e-06	303.48	85.226	66.891	19.018	3.8771e-06	26.401	0.0004467	0.000485	0.00012344	1159.1	5.6299e-06	5.0223e-06	1221.5	241.87	5.2983e-06	5.204e-06	302.83	85.084	66.875	19.201	4.4299e-06	26.899	504.948	261.965	256.955	173.018	270.436	340.678	172.741	179.671	265.529	291.510	179.827	185.601	186.223	193.129	281.810	192.775	-8191	255	
#DATA ENDS
