BOXY.EXE: ISS Imagent and Oximeter Data Acquisition Program Version 0.80
Ascii Record File

#ACQ INFORMATION
2  Detector Channels 
16  External MUX Channels 
1  Auxiliary Channels 
5000  Waveform (CCF) Frequency (Hz)
1  Waveforms Skipped 
30  Waveforms Averaged 
1  Cycles Averaged 
16  Acquisitions per Waveform 
10.0806  Updata Rate (Hz) 

#FILE INFORMATION
TRUE -- External MUX Channel results are PARSED.
FALSE -- AC DC and Phase are NOT grouped.
TRUE -- Companion Program Settings File CREATED.
FALSE -- AC data not excluded
FALSE -- DC data not excluded
FALSE -- Phase data not excluded
FALSE -- Auxillary Chn. data not excluded
Tab delimiters

#CALIBRATION STATE
TRUE -- Waveform Calibration Values APPLIED.


#AUX CALIBRATION VALUES
Val Type	aux-1	

Term	1.0000e+00	
Factor	0.0000e+00	


#WF CALIBRATION VALUES
A = Detector Channel
Val Type	A-AC1	A-AC2	A-AC3	A-AC4	A-AC5	A-AC6	A-AC7	A-AC8	A-AC9	A-AC10	A-AC11	A-AC12	A-AC13	A-AC14	A-AC15	A-AC16	A-DC1	A-DC2	A-DC3	A-DC4	A-DC5	A-DC6	A-DC7	A-DC8	A-DC9	A-DC10	A-DC11	A-DC12	A-DC13	A-DC14	A-DC15	A-DC16	A-Ph1	A-Ph2	A-Ph3	A-Ph4	A-Ph5	A-Ph6	A-Ph7	A-Ph8	A-Ph9	A-Ph10	A-Ph11	A-Ph12	A-Ph13	A-Ph14	A-Ph15	A-Ph16	

Term	0.00000e+00	0.00000e+00	0.00000e+00	0.00000e+00	0.00000e+00	0.00000e+00	0.00000e+00	0.00000e+00	0.00000e+00	0.00000e+00	0.00000e+00	0.00000e+00	0.00000e+00	0.00000e+00	0.00000e+00	0.00000e+00	0.00000e+00	0.00000e+00	0.00000e+00	0.00000e+00	0.00000e+00	0.00000e+00	0.00000e+00	0.00000e+00	0.00000e+00	0.00000e+00	0.00000e+00	0.00000e+00	0.00000e+00	0.00000e+00	0.00000e+00	0.00000e+00	0.00000e+00	0.00000e+00	0.00000e+00	0.00000e+00	0.00000e+00	0.00000e+00	0.00000e+00	0.00000e+00	0.00000e+00	0.00000e+00	0.00000e+00	0.00000e+00	0.00000e+00	0.00000e+00	0.00000e+00	0.00000e+00	
Factor	1.00000e+00	1.00000e+00	1.00000e+00	1.00000e+00	1.00000e+00	1.00000e+00	1.00000e+00	1.00000e+00	1.00000e+00	1.00000e+00	1.00000e+00	1.00000e+00	1.00000e+00	1.00000e+00	1.00000e+00	1.00000e+00	1.00000e+00	1.00000e+00	1.00000e+00	1.00000e+00	1.00000e+00	1.00000e+00	1.00000e+00	1.00000e+00	1.00000e+00	1.00000e+00	1.00000e+00	1.00000e+00	1.00000e+00	1.00000e+00	1.00000e+00	1.00000e+00	X	X	X	X	X	X	X	X	X	X	X	X	X	X	X	X	

B = Detector Channel
Val Type	B-AC1	B-AC2	B-AC3	B-AC4	B-AC5	B-AC6	B-AC7	B-AC8	B-AC9	B-AC10	B-AC11	B-AC12	B-AC13	B-AC14	B-AC15	B-AC16	B-DC1	B-DC2	B-DC3	B-DC4	B-DC5	B-DC6	B-DC7	B-DC8	B-DC9	B-DC10	B-DC11	B-DC12	B-DC13	B-DC14	B-DC15	B-DC16	B-Ph1	B-Ph2	B-Ph3	B-Ph4	B-Ph5	B-Ph6	B-Ph7	B-Ph8	B-Ph9	B-Ph10	B-Ph11	B-Ph12	B-Ph13	B-Ph14	B-Ph15	B-Ph16	

Term	0.00000e+00	0.00000e+00	0.00000e+00	0.00000e+00	0.00000e+00	0.00000e+00	0.00000e+00	0.00000e+00	0.00000e+00	0.00000e+00	0.00000e+00	0.00000e+00	0.00000e+00	0.00000e+00	0.00000e+00	0.00000e+00	0.00000e+00	0.00000e+00	0.00000e+00	0.00000e+00	0.00000e+00	0.00000e+00	0.00000e+00	0.00000e+00	0.00000e+00	0.00000e+00	0.00000e+00	0.00000e+00	0.00000e+00	0.00000e+00	0.00000e+00	0.00000e+00	3.11442e+01	-1.32585e+02	-1.25137e+02	-1.82803e+02	-6.99753e+01	-6.57492e+01	-1.55363e+02	-1.62015e+02	-5.19944e+01	-6.84061e+01	-1.72002e+02	-1.69539e+02	-1.79829e+02	-1.77289e+02	-5.95372e+01	-1.49288e+02	
Factor	4.46143e-05	1.55393e-04	3.79425e-05	1.69166e-01	1.65811e-06	1.54395e-06	1.50608e-01	4.38241e-02	2.52180e-06	1.64082e-06	8.20883e-02	2.44333e-02	2.46613e-02	7.74829e-03	1.75397e-06	1.09675e-02	1.31998e-05	1.98917e-05	5.63019e-06	8.76786e-02	2.03302e-07	2.24248e-07	7.35378e-02	2.28266e-02	1.97474e-07	2.25893e-07	4.16175e-02	1.24053e-02	1.29592e-02	4.07900e-03	2.08931e-07	5.61216e-03	X	X	X	X	X	X	X	X	X	X	X	X	X	X	X	X	



#DISTANCE SETTINGS
A = Detector Channel
A-1	A-2	A-3	A-4	A-5	A-6	A-7	A-8	A-9	A-10	A-11	A-12	A-13	A-14	A-15	A-16	

2.5000e+00	3.0000e+00	2.5000e+00	3.0000e+00	2.0000e+00	3.0000e+00	1.5000e+00	3.0000e+00	3.0000e+00	3.0000e+00	3.0000e+00	3.0000e+00	3.0000e+00	3.0000e+00	1.5000e+00	3.0000e+00	

B = Detector Channel
B-1	B-2	B-3	B-4	B-5	B-6	B-7	B-8	B-9	B-10	B-11	B-12	B-13	B-14	B-15	B-16	

1.0000e+01	1.0000e+01	1.0000e+01	1.4400e+00	1.0000e+01	1.0000e+01	1.5100e+00	1.9400e+00	1.0000e+01	1.0000e+01	1.9900e+00	2.4900e+00	2.4100e+00	2.9000e+00	1.0000e+01	2.9800e+00	




#DATA BEGINS
time	group	step	mark	flag	A-AC1	A-AC2	A-AC3	A-AC4	A-AC5	A-AC6	A-AC7	A-AC8	A-AC9	A-AC10	A-AC11	A-AC12	A-AC13	A-AC14	A-AC15	A-AC16	A-DC1	A-DC2	A-DC3	A-DC4	A-DC5	A-DC6	A-DC7	A-DC8	A-DC9	A-DC10	A-DC11	A-DC12	A-DC13	A-DC14	A-DC15	A-DC16	A-Ph1	A-Ph2	A-Ph3	A-Ph4	A-Ph5	A-Ph6	A-Ph7	A-Ph8	A-Ph9	A-Ph10	A-Ph11	A-Ph12	A-Ph13	A-Ph14	A-Ph15	A-Ph16	B-AC1	B-AC2	B-AC3	B-AC4	B-AC5	B-AC6	B-AC7	B-AC8	B-AC9	B-AC10	B-AC11	B-AC12	B-AC13	B-AC14	B-AC15	B-AC16	B-DC1	B-DC2	B-DC3	B-DC4	B-DC5	B-DC6	B-DC7	B-DC8	B-DC9	B-DC10	B-DC11	B-DC12	B-DC13	B-DC14	B-DC15	B-DC16	B-Ph1	B-Ph2	B-Ph3	B-Ph4	B-Ph5	B-Ph6	B-Ph7	B-Ph8	B-Ph9	B-Ph10	B-Ph11	B-Ph12	B-Ph13	B-Ph14	B-Ph15	B-Ph16	aux-1	digaux	

18452.389	1	1	0	256	0.11369	0.25452	0.17479	0.26637	0.12459	0.079371	0.24811	0.22279	0.31054	0.26802	0.36893	0.17011	0.2368	0.1765	0.14978	0.14222	-2.5187	-2.7313	-2.9292	-3.0146	-2.975	-2.9708	-2.8958	-3.1667	-2.7833	-2.8521	-3.1354	-2.7083	-3.0083	-2.9708	-2.6813	-3.1042	466.907	225.810	168.783	484.585	260.336	230.576	446.258	171.412	267.080	302.646	509.290	473.259	454.470	469.868	476.530	468.915	0.0011905	0.00097666	0.00024668	1019.4	1.129e-05	4.7933e-06	1293.4	296.85	9.2933e-06	5.8501e-06	420.75	120.2	80.873	26.752	8.3429e-06	41.71	0.00071001	0.00075294	0.00018773	787.25	1.0365e-05	7.7127e-06	1004.6	229.68	7.7077e-06	1.0681e-05	327.76	93.208	62.822	21.044	7.7291e-06	32.967	353.531	265.814	278.935	178.122	324.716	348.082	176.864	182.584	324.929	276.938	180.790	185.883	187.656	193.415	337.197	189.627	-8191	255	
18452.484	1	1	0	0	0.019651	0.14231	0.28107	0.093178	0.2861	0.17209	0.41774	0.26315	0.069537	0.097966	0.11309	0.21235	0.3708	0.19082	0.32662	0.28237	-2.4479	-2.8	-3.0417	-2.9562	-2.7729	-3.0146	-2.9083	-2.7854	-2.8375	-2.7188	-3.1708	-2.7708	-2.9271	-3.0396	-2.6875	-3.1583	264.075	319.652	406.670	495.797	504.942	246.465	460.125	475.145	393.847	422.309	260.102	482.991	443.790	247.522	175.503	350.387	0.001032	0.00026826	0.00023952	1016.1	5.573e-06	2.6595e-06	1303.6	294.44	1.4945e-05	3.8661e-06	420.29	118.94	80.434	26.829	5.9526e-06	42.211	0.00070198	0.00073085	0.000197	788.11	1.0616e-05	8.37e-06	1006.7	228.96	7.8294e-06	8.3632e-06	327.94	92.766	62.74	21.061	8.6719e-06	33.172	363.659	312.112	222.032	178.738	336.800	300.440	177.063	183.575	344.340	312.747	180.733	185.649	187.561	193.537	338.876	189.379	-8191	255	
18452.605	1	1	0	0	0.3951	0.11054	0.23868	0.33039	0.16907	0.22759	0.16951	0.19676	0.3604	0.21267	0.057199	0.23676	0.10124	0.2512	0.15292	0.16094	-2.2812	-2.7396	-3.0104	-2.8417	-2.7792	-2.7875	-2.9417	-3.0208	-2.85	-2.5979	-2.9146	-2.7917	-2.8667	-3.0958	-2.7062	-2.8604	230.206	366.710	327.255	489.769	299.800	475.809	484.186	392.985	281.786	301.444	264.458	511.699	268.347	391.044	391.694	216.129	0.0010678	0.00071386	0.00018412	1013.8	1.2472e-05	7.6164e-06	1306.4	298.02	9.6296e-06	1.1995e-05	421.84	119.32	81.637	27.053	7.0053e-06	42.521	0.00070856	0.00077909	0.00023074	791.46	1.1213e-05	9.0928e-06	1015.7	230.72	8.3244e-06	9.4188e-06	331.71	93.739	63.355	21.213	8.4277e-06	33.436	360.714	265.993	236.052	178.218	307.555	328.790	177.181	182.946	308.477	302.393	180.724	185.707	187.628	192.984	318.010	189.676	-8191	255	
18452.701	1	1	0	0	0.031774	0.32841	0.14991	0.082657	0.14171	0.18048	0.33918	0.033747	0.12192	0.24954	0.21497	0.30913	0.17135	0.15003	0.17837	0.32828	-2.5271	-2.6813	-2.9542	-2.8667	-2.7687	-2.8563	-2.9083	-2.8937	-2.8708	-2.6208	-3.025	-2.7875	-2.9875	-2.9479	-2.6083	-2.9979	314.513	348.417	191.321	194.350	302.029	476.861	449.365	316.240	238.487	389.175	466.381	494.769	170.861	415.527	377.516	475.774	0.0008548	0.00052547	0.00018915	1020.5	6.6401e-06	3.5622e-06	1308.3	295.57	1.3171e-05	4.9912e-06	426.59	121.31	81.029	26.919	2.725e-06	41.675	0.00076663	0.00080176	0.00022666	792.63	1.0659e-05	1.0403e-05	1016.6	230.99	7.9187e-06	9.7063e-06	331.91	94.069	63.347	21.257	8.325e-06	33.215	366.280	297.953	243.161	177.914	325.867	306.040	176.978	182.872	284.829	303.081	180.881	185.424	188.163	193.620	228.604	189.385	-8191	255	
18452.773	1	1	0	0	0.1944	0.075641	0.2248	0.14052	0.075829	0.090872	0.049371	0.41204	0.078696	0.22024	0.2755	0.23245	0.11339	0.28914	0.23179	0.060444	-2.3292	-2.55	-2.9708	-2.8604	-2.6063	-3.0479	-2.9854	-2.9292	-2.725	-2.6688	-2.9667	-2.8729	-2.7021	-3.0646	-2.7708	-3.025	446.148	329.761	473.823	241.575	515.218	461.434	474.419	507.672	213.415	440.779	203.849	481.003	426.017	464.051	452.149	426.122	0.0011517	0.00091685	0.00016508	1011.6	4.356e-06	2.43e-06	1291.6	295.19	1.1419e-05	3.5966e-06	420.29	121.17	81.759	26.911	4.1684e-06	42.666	0.00071458	0.00084063	0.00022077	786.36	8.5781e-06	1.2547e-05	1005.2	230.92	8.1232e-06	8.5086e-06	330.15	93.846	63.386	21.276	8.6684e-06	33.455	357.385	248.286	213.435	178.152	284.324	373.289	176.975	183.469	326.818	362.426	180.910	185.242	187.579	193.787	377.186	189.117	-8191	255	
18452.869	1	1	0	0	0.27099	0.1223	0.23657	0.10497	0.23389	0.10413	0.14545	0.16325	0.063051	0.1407	0.15112	0.071407	0.27215	0.2285	0.1899	0.22038	-2.5812	-2.7188	-2.9375	-3.1021	-2.6646	-3.1125	-3.0229	-2.9729	-2.9104	-2.6292	-3.1875	-2.8104	-2.6937	-3.025	-2.7917	-2.9	189.887	323.830	272.859	195.369	433.817	174.980	438.610	520.355	306.905	177.709	194.282	397.946	170.677	372.225	220.322	429.391	0.0011223	0.00083959	0.00017754	1021.9	4.0853e-06	1.2664e-05	1303.5	297.06	7.5354e-06	5.4257e-06	424.89	121.71	82.961	27.433	7.6722e-06	42.405	0.0007437	0.00081084	0.00022255	789.77	8.9555e-06	1.2668e-05	1009.6	231.59	8.1952e-06	9.4772e-06	330.95	94.626	64.23	21.542	8.5148e-06	33.595	353.846	265.179	273.307	177.826	328.017	340.590	177.003	183.292	296.853	309.433	181.056	185.337	187.597	192.986	340.495	189.529	-8191	255	
18452.990	1	1	0	0	0.075507	0.15266	0.18666	0.30765	0.1258	0.11362	0.31703	0.30894	0.10402	0.30966	0.13379	0.13209	0.27117	0.09236	0.28241	0.18394	-2.5646	-2.6646	-3.0208	-2.95	-2.7562	-3.1146	-2.9562	-2.9771	-2.9104	-2.5917	-3.0563	-3.0438	-2.7062	-3.0979	-2.8292	-2.8604	180.632	303.823	475.979	481.044	278.709	427.572	499.086	390.669	418.608	510.959	461.294	522.859	218.358	467.761	344.320	408.116	0.0012775	0.0002339	0.00012608	1029.7	5.1928e-06	3.9536e-06	1311.6	299.96	1.1156e-05	8.4677e-06	433.18	122.47	81.982	27.157	1.1702e-05	42.896	0.00089085	0.00079762	0.00024761	796.61	9.6048e-06	1.3075e-05	1015.4	233.05	8.9439e-06	9.1378e-06	335.85	94.87	63.887	21.463	9.3631e-06	33.749	361.735	345.086	284.522	178.404	329.654	249.862	177.065	182.920	311.007	318.296	181.121	185.493	187.654	193.267	268.945	189.404	-8191	255	
18453.088	1	1	0	0	0.1451	0.11561	0.052354	0.12298	0.18938	0.059531	0.33726	0.1744	0.083981	0.17106	0.23652	0.011764	0.021837	0.35737	0.13133	0.14818	-2.5563	-2.4958	-2.8729	-2.8583	-2.6562	-3.0354	-2.8917	-2.5292	-3.0229	-2.8375	-3.0167	-3.1104	-2.7646	-3.075	-2.8979	-2.8125	333.161	295.106	490.466	524.134	447.601	196.031	381.502	512.881	452.207	189.663	387.278	320.736	472.443	501.566	502.101	520.360	0.0009917	0.00068535	0.00017311	1023.5	4.7086e-06	6.6802e-06	1321.8	299.31	6.6708e-06	7.7093e-06	429.98	123	83.618	27.591	3.6129e-06	43.001	0.00097739	0.00087988	0.00025396	796.33	9.2642e-06	1.3476e-05	1020	233.35	8.7592e-06	9.4475e-06	335.24	95.702	64.514	21.762	9.4968e-06	33.779	351.646	221.785	249.959	177.998	259.811	313.283	177.256	183.033	381.917	296.598	181.050	185.813	187.907	193.425	350.161	190.031	-8191	255	
18453.184	1	1	0	0	0.26331	0.020998	0.23461	0.24621	0.42254	0.051586	0.32134	0.15229	0.19396	0.16335	0.23051	0.17163	0.12591	0.22064	0.15993	0.31793	-2.4313	-2.7313	-2.7479	-3.1146	-2.6375	-2.8937	-2.9917	-2.8083	-3.0687	-2.8333	-2.8729	-2.9167	-2.6688	-2.8375	-3.0187	-2.6521	365.242	385.844	481.763	165.648	300.259	222.232	518.884	441.828	421.560	449.459	407.749	517.427	462.622	420.364	487.973	438.989	0.0011035	0.00051321	0.00020452	1024.2	9.5383e-06	5.593e-06	1311.4	301.23	6.9078e-06	5.4078e-06	427.3	120.68	82.824	27.359	8.3119e-06	42.314	0.00098011	0.0009207	0.00024584	795.15	9.3667e-06	1.3663e-05	1014	232.71	9.5039e-06	1.0005e-05	331.11	94.343	64.12	21.637	9.1137e-06	33.613	371.844	281.776	257.520	178.088	263.892	331.552	177.147	182.706	266.568	412.007	180.598	185.547	187.078	194.113	261.054	189.627	-8191	255	
18453.279	1	1	0	0	0.098748	0.20092	0.17905	0.23928	0.15751	0.13038	0.13933	0.13745	0.16814	0.12676	0.18336	0.25589	0.27169	0.4439	0.081574	0.15903	-2.5062	-2.6479	-2.9604	-3.1042	-2.8625	-2.8438	-3.0833	-2.8208	-3.0792	-2.8375	-2.9188	-3.0521	-2.8208	-2.9167	-3.0542	-2.6521	253.004	261.272	358.746	425.061	408.624	386.583	472.460	468.987	434.073	391.697	497.139	482.398	191.719	522.310	484.197	170.284	0.0013477	0.00012182	0.00017558	1026.4	4.5442e-06	6.4321e-06	1308.2	295.32	1.1711e-05	7.3662e-06	424.92	122.53	82.094	27.212	4.5801e-06	42.629	0.001041	0.00093831	0.00026345	795.02	9.0639e-06	1.2888e-05	1014.3	230.9	9.1838e-06	1.0445e-05	332.21	95.715	64.29	21.584	1.0129e-05	33.747	354.734	260.172	193.456	177.831	293.368	310.591	176.662	183.038	279.685	323.752	180.594	185.994	187.518	193.314	253.482	189.858	-8191	255	
18453.375	1	1	0	0	0.080505	0.077097	0.29235	0.27584	0.27571	0.22293	0.15208	0.21639	0.12736	0.071565	0.072238	0.13348	0.33117	0.16136	0.14306	0.039275	-2.6208	-2.8167	-2.6542	-3.1042	-2.6875	-2.725	-3.0833	-2.7896	-3.0167	-2.7104	-2.8187	-3.1104	-2.7729	-2.9708	-2.9813	-2.6604	400.917	463.773	231.008	511.868	360.378	420.951	193.125	170.103	200.543	188.030	418.949	431.332	491.541	512.695	182.985	218.012	0.0012163	0.00046887	0.00017934	1031	7.1159e-06	7.8002e-06	1308.3	298.57	5.5926e-06	2.7944e-06	428.42	121.96	82.819	27.615	6.4912e-06	42.425	0.0010595	0.00092671	0.00027152	799.92	9.501e-06	1.4528e-05	1016.3	233.01	1.033e-05	1.1174e-05	334.07	95.513	64.228	21.75	9.3901e-06	33.787	361.048	257.310	284.056	178.408	282.457	352.223	176.739	183.122	307.573	225.008	181.253	185.859	188.065	192.697	297.983	189.599	-8191	255	
18453.469	1	1	0	0	0.057656	0.1957	0.15235	0.16851	0.15302	0.19112	0.21459	0.33718	0.13808	0.14138	0.23985	0.36359	0.45396	0.071426	0.13276	0.28339	-2.4938	-2.8021	-2.8146	-3.1063	-2.6979	-2.9042	-3.1396	-2.7938	-2.9021	-3.0229	-2.6292	-3.0958	-2.6896	-2.9917	-3.1083	-2.6437	437.898	253.481	215.157	234.526	365.962	204.848	522.933	495.721	340.366	329.788	512.110	502.181	448.764	323.935	191.332	475.426	0.0011565	0.0010545	0.00011857	1026.4	9.2135e-06	1.031e-05	1300.2	299.2	3.9131e-06	5.3954e-06	429.61	122.93	82.175	27.419	6.2924e-06	42.128	0.0010302	0.00092107	0.00024305	793.9	9.4642e-06	1.1915e-05	1011.8	232.73	9.6771e-06	1.0552e-05	334.66	95.561	63.97	21.601	9.8184e-06	33.468	361.283	240.182	254.875	178.056	304.865	360.463	176.886	182.941	334.680	384.538	180.833	185.940	187.703	192.713	274.372	188.816	-8191	255	
18453.590	1	1	0	0	0.099349	0.14856	0.072729	0.17132	0.18298	0.15944	0.076634	0.17689	0.068055	0.13377	0.20024	0.19856	0.13065	0.090547	0.25009	0.25333	-2.5729	-2.7938	-2.6521	-2.8729	-2.7167	-2.8688	-3.2604	-2.8563	-3.0292	-2.8708	-2.7771	-3.1167	-2.6917	-2.8312	-2.8854	-2.7542	498.430	389.723	349.057	377.682	321.827	397.388	427.746	481.819	250.550	508.319	190.464	172.807	301.604	300.033	272.546	331.323	0.001251	0.0002065	9.2234e-05	1026.8	5.4418e-06	5.5855e-06	1291.7	298.8	6.4066e-06	3.7526e-06	426.68	120.78	81.525	27.368	1.0303e-05	42.166	0.0010218	0.00089409	0.00026219	793.66	9.6619e-06	9.98e-06	1004.7	231.89	9.9963e-06	1.0379e-05	331.02	94.334	63.629	21.573	9.7292e-06	33.151	359.111	236.347	242.363	177.964	310.977	310.085	176.681	183.054	335.988	307.222	180.955	185.622	187.630	192.852	314.849	189.486	-8191	255	
18453.686	1	1	0	0	0.12875	0.218	0.080475	0.3576	0.1024	0.13644	0.35309	0.11089	0.025392	0.14763	0.095758	0.28133	0.23384	0.07056	0.13259	0.27415	-2.5375	-2.8396	-2.7354	-2.9875	-2.7687	-2.8417	-3.1396	-2.7333	-2.9354	-3.0125	-2.8917	-2.9562	-2.7271	-2.8125	-3.0625	-2.7833	243.170	303.484	287.531	448.336	229.702	380.910	449.684	501.747	188.149	405.954	175.873	445.815	179.531	326.134	381.771	359.633	0.0010474	0.00050937	0.00015522	1018.1	7.7456e-06	2.5098e-06	1300.3	297.57	8.349e-06	6.499e-06	423.05	120.5	81.765	27.243	1.3554e-05	42.448	0.0010145	0.00088182	0.00026085	789.13	9.1113e-06	1.0255e-05	1011.2	231.17	9.6857e-06	1.0436e-05	331.15	94.196	63.5	21.516	1.0118e-05	33.436	363.537	188.710	292.321	178.121	294.979	280.468	176.881	182.961	295.933	244.679	180.683	185.084	187.586	193.131	323.195	189.473	-8191	255	
18453.781	1	1	0	0	0.097949	0.21446	0.32409	0.23609	0.37561	0.1728	0.2141	0.35381	0.099987	0.26244	0.13451	0.25045	0.12843	0.10315	0.03393	0.35642	-2.4688	-3.0083	-2.5812	-3	-3.0917	-2.7542	-3.1208	-2.7562	-2.7646	-3.0146	-2.9062	-3.0292	-2.8333	-2.7854	-3.0396	-2.7479	189.947	220.430	304.443	492.991	440.593	168.213	409.198	427.318	513.400	513.679	179.243	396.272	192.561	514.640	325.457	447.654	0.001171	0.00092884	0.00023117	1019.6	4.2297e-07	7.4914e-06	1310.1	295.88	1.6021e-05	4.2475e-06	426.14	120.99	82.407	27.478	9.1623e-06	42.564	0.00088934	0.0010935	0.00026232	790.17	9.2575e-06	1.0484e-05	1014.2	230.71	9.1591e-06	1.0067e-05	331.62	94.807	64.145	21.509	9.3322e-06	33.764	357.197	195.855	248.754	178.038	225.269	338.692	176.789	183.423	331.799	318.826	180.487	185.595	188.036	193.370	316.702	189.435	-8191	255	
18453.879	1	1	0	0	0.088791	0.21122	0.099745	0.14283	0.15797	0.17472	0.31561	0.11255	0.16266	0.18274	0.33232	0.035249	0.15523	0.046439	0.11053	0.13227	-2.4729	-3.0104	-2.7479	-3.0729	-3.0292	-2.4958	-3.1146	-2.8917	-2.7604	-2.9917	-2.9542	-3.0667	-2.7938	-2.7479	-2.9708	-2.9104	193.970	335.067	415.541	479.074	338.774	510.698	483.934	395.818	220.517	201.794	465.546	197.594	417.258	175.182	235.834	306.306	0.0012268	0.00059866	9.012e-05	1022.2	1.3294e-05	4.5086e-06	1302	296.94	2.601e-06	4.0819e-06	423.89	122.52	81.172	27.204	4.0837e-06	42.976	0.00082691	0.0011934	0.00025343	792.14	9.5738e-06	1.0486e-05	1012	230.78	9.0772e-06	1.0004e-05	330.76	95.153	63.424	21.594	9.7479e-06	33.841	358.227	241.291	193.783	177.729	259.358	515.744	176.725	182.986	520.025	261.745	180.652	185.444	187.127	193.769	239.755	189.880	-8191	255	
18453.998	1	1	0	0	0.16329	0.17315	0.24222	0.11562	0.19654	0.14979	0.087785	0.16216	0.10749	0.13366	0.14979	0.23089	0.014981	0.1985	0.21248	0.2651	-2.2833	-2.9271	-2.6854	-2.975	-2.7188	-2.6875	-3.0812	-2.9958	-2.8104	-3.0833	-2.8521	-2.7812	-2.9292	-2.7083	-3.1208	-2.9854	262.407	376.477	311.888	404.580	276.066	217.355	179.140	295.282	370.703	215.224	283.827	414.132	450.729	482.748	390.818	497.210	0.0010943	0.0015477	0.00020667	1017.7	7.0072e-06	2.0646e-06	1295.8	295.68	7.056e-06	7.8937e-06	418.69	120.54	81.814	27.176	3.4464e-06	42.232	0.00080348	0.0012035	0.00025543	788.24	9.7937e-06	1.0059e-05	1006.2	229.98	9.294e-06	1.054e-05	327.47	93.958	63.478	21.438	1.0153e-05	33.287	368.787	206.908	212.934	177.839	290.554	290.311	177.222	183.121	329.864	305.761	181.140	185.572	187.893	193.179	327.994	189.670	-8191	255	
18454.070	1	1	0	0	0.26836	0.070453	0.026392	0.18093	0.14607	0.015886	0.31548	0.38511	0.22997	0.095582	0.098634	0.27381	0.12666	0.12152	0.080539	0.12484	-2.1646	-3.0208	-2.8333	-3.0438	-2.9396	-2.6979	-3.2292	-2.875	-2.5438	-3.1417	-2.9104	-2.9208	-3.1688	-2.5479	-2.9958	-2.9938	190.428	263.353	445.133	455.426	486.623	450.628	444.654	472.313	416.092	305.898	508.563	433.949	265.842	363.582	402.738	343.910	0.0011877	0.00058251	0.00014378	1017.3	3.1105e-06	4.3591e-06	1292.5	295.74	1.4572e-05	3.0966e-06	418.82	118.75	80.524	26.836	3.3359e-06	42.382	0.00081778	0.0012327	0.00025569	788.43	9.825e-06	1.0291e-05	1001.5	229.34	9.3891e-06	1.069e-05	326.79	92.798	63.06	21.245	9.4715e-06	33.331	367.497	230.559	266.510	177.928	351.334	330.733	177.122	183.022	355.550	241.875	180.981	186.138	187.685	192.676	267.341	189.857	-8191	255	
18454.168	1	1	0	0	0.17277	0.066248	0.27476	0.21406	0.11851	0.070572	0.055974	0.14415	0.18474	0.10107	0.1052	0.047555	0.20786	0.20123	0.05787	0.20475	-2.3187	-2.9792	-2.6813	-2.8583	-3.075	-2.8396	-3.0646	-3.0458	-2.8688	-2.8104	-2.7271	-2.6375	-2.9771	-2.5563	-2.8063	-3.0542	504.226	500.825	201.463	515.377	260.640	374.417	500.708	172.054	403.362	299.597	505.202	449.199	484.929	498.448	263.690	426.555	0.0011521	0.00081755	7.5834e-05	1015.4	2.7606e-06	8.8718e-06	1294.9	292.55	1.3547e-05	8.0592e-07	416.55	119.89	80.767	27.114	4.638e-06	42.461	0.00083629	0.0011693	0.00025331	785.39	1.0133e-05	1.0841e-05	1004.4	228.01	9.4677e-06	1.0282e-05	326.14	93.493	63.216	21.373	1.0006e-05	33.365	354.966	269.873	216.782	178.463	271.764	327.689	176.851	183.454	313.321	316.285	181.349	185.625	187.883	193.078	245.567	189.224	-8191	255	
18454.264	1	1	0	0	0.17182	0.12357	0.29486	0.1382	0.12663	0.14499	0.1563	0.22477	0.19528	0.029338	0.097533	0.25462	0.087081	0.11493	0.088139	0.16837	-2.0938	-3.0854	-2.7479	-2.8958	-2.7896	-2.7062	-2.8812	-2.9292	-2.5833	-2.7812	-2.8583	-2.7479	-2.9813	-2.6521	-2.625	-3.025	182.679	462.394	477.191	434.931	482.519	351.094	494.065	467.631	400.517	425.164	309.159	202.098	419.070	197.023	389.398	467.465	0.00097624	0.0010529	0.00012072	1021.8	6.0982e-06	3.6689e-06	1295.1	297.08	1.7111e-05	9.8777e-06	419.31	121.39	81.111	26.984	2.4782e-06	42.529	0.00080992	0.0012777	0.00027903	790.14	9.2028e-06	1.1277e-05	1004.9	230.5	1.0084e-05	1.0479e-05	328.62	94.075	63.572	21.397	1.0187e-05	33.422	366.769	207.148	204.955	177.827	274.976	282.679	177.243	183.327	337.158	311.091	180.870	185.768	188.006	193.439	294.076	189.887	-8191	255	
18454.383	1	1	0	0	0.20042	0.15038	0.097287	0.12473	0.24697	0.097977	0.3267	0.059382	0.096714	0.13573	0.33525	0.29483	0.091778	0.1084	0.29235	0.011431	-2.1375	-2.8896	-2.7521	-2.8521	-2.9562	-2.7271	-3.0125	-3.0854	-2.7521	-2.9375	-2.9333	-2.7229	-3.0167	-2.9021	-2.8708	-3.1021	291.963	326.730	480.244	460.082	362.132	225.974	415.061	195.756	233.495	474.353	458.379	434.639	399.102	462.599	466.893	200.750	0.0011603	0.00041914	0.00012346	1012.8	9.9423e-06	5.3052e-06	1296.4	292.36	1.0002e-05	3.6776e-06	418.43	119.11	81.043	26.859	5.0072e-06	42.203	0.00083544	0.0012254	0.00024501	787.37	9.8038e-06	1.0869e-05	1002.3	228.29	1.0163e-05	1.0027e-05	326.11	92.959	63.63	21.269	9.4759e-06	33.167	357.683	237.009	290.857	178.217	283.385	296.828	177.260	182.881	277.320	290.778	180.486	185.250	187.659	193.543	343.851	189.599	-8191	255	
18454.479	1	1	0	0	0.075604	0.087232	0.10207	0.36142	0.071534	0.27111	0.17386	0.067466	0.19089	0.084371	0.25074	0.12652	0.28878	0.308	0.1722	0.16684	-2.5125	-2.9479	-2.9854	-2.7542	-3.0896	-2.8229	-2.7729	-3.0896	-2.8208	-2.925	-3.0396	-2.8104	-2.9229	-2.7562	-2.8229	-3.0708	355.429	493.967	472.458	492.019	433.328	326.624	444.013	484.056	456.148	458.995	445.570	188.462	487.990	451.516	291.905	482.162	0.0010705	0.00042566	6.5968e-05	1008.9	4.3437e-06	3.3492e-06	1283.1	292.41	1.2873e-05	4.9887e-06	417.89	119.87	80.678	27.134	6.2445e-06	42.023	0.00078968	0.0011611	0.00026539	779.06	9.4426e-06	1.0071e-05	993.96	228.14	9.998e-06	1.0218e-05	325.39	92.969	63.183	21.395	9.6591e-06	33.353	362.106	172.022	258.982	177.934	272.043	409.144	176.518	183.393	246.283	286.135	180.943	185.376	187.810	192.761	345.594	189.682	-8191	255	
18454.574	1	1	0	0	0.25424	0.12742	0.11482	0.2854	0.099567	0.22866	0.26521	0.046229	0.18272	0.089344	0.23751	0.34248	0.17536	0.081623	0.42481	0.076864	-2.2708	-2.7979	-3.0438	-2.6562	-2.8896	-2.775	-2.8875	-3.1667	-2.8104	-2.9562	-2.9979	-2.7562	-3.0563	-2.8604	-2.6771	-3.1542	378.171	423.085	325.647	423.440	372.690	223.835	485.600	476.350	458.157	438.225	467.129	289.546	476.983	419.085	451.285	503.499	0.0011799	0.00073786	0.00024866	1008.2	9.5517e-06	6.5959e-06	1296.1	292.39	4.8035e-06	6.2902e-06	418.73	120.27	80.516	27.442	8.547e-06	42.852	0.00078305	0.0010012	0.00030048	780.63	9.3214e-06	1.0107e-05	1002.5	227.9	9.0303e-06	1.0296e-05	327.62	94.027	63.12	21.595	9.2565e-06	33.623	359.254	235.270	226.703	178.291	286.359	268.535	176.939	183.424	328.185	365.191	180.566	185.307	188.094	193.303	347.021	189.492	-8191	255	
18454.670	1	1	0	0	0.11109	0.15487	0.053873	0.098847	0.15706	0.047894	0.25883	0.4168	0.22193	0.037452	0.075106	0.21386	0.091267	0.11773	0.2606	0.34192	-2.5021	-2.9458	-2.9333	-2.7667	-2.8458	-2.825	-2.7729	-3.0146	-2.7583	-2.8208	-3.0333	-2.7625	-2.8812	-2.9771	-2.5625	-2.9979	444.533	388.971	519.744	423.557	378.798	279.054	417.621	488.753	396.381	288.224	171.750	514.436	241.277	424.738	458.061	419.457	0.0010149	0.00081947	0.00026634	1017.6	5.5208e-06	1.1092e-05	1306.3	293.81	6.5993e-06	1.9785e-06	424.4	121.77	82.073	27.362	2.3455e-06	42.906	0.00081677	0.00088058	0.00035233	787.59	9.3337e-06	1.0375e-05	1014.1	230.4	8.7391e-06	9.5115e-06	331.12	95.063	64.099	21.715	9.6134e-06	33.952	365.059	256.364	222.194	178.252	297.733	362.405	176.934	183.105	380.814	368.344	181.203	185.683	188.014	192.788	357.725	189.553	-8191	255	
18454.768	1	1	0	0	0.21239	0.17447	0.11114	0.27394	0.15333	0.11663	0.18254	0.20532	0.10934	0.14792	0.14949	0.28825	0.20462	0.18448	0.10481	0.33901	-2.3104	-2.7875	-3.0667	-2.8208	-2.9083	-2.8833	-2.7896	-3.1104	-2.8146	-2.8292	-3.2229	-2.9396	-2.8104	-3.1146	-2.7458	-3.1437	214.186	191.776	330.625	177.285	288.351	319.437	342.235	461.059	516.255	191.256	414.369	495.964	332.441	442.991	471.026	186.111	0.0011636	0.00085182	0.00010358	1013.4	9.7664e-06	6.4736e-06	1303	295.76	1.2438e-05	4.9489e-06	423.93	120.94	81.083	27.63	1.0166e-05	43.553	0.00078451	0.00093537	0.00033966	788.84	9.4421e-06	1.0094e-05	1012	230.62	8.8839e-06	1.046e-05	330.67	94.38	63.691	21.727	9.5742e-06	34.071	362.101	262.078	261.164	178.054	334.396	313.353	177.010	183.294	364.755	320.474	180.847	185.316	188.408	192.594	329.565	190.070	-8191	255	
18454.863	1	1	0	0	0.2203	0.20361	0.31552	0.21037	0.067654	0.12224	0.16111	0.358	0.093781	0.030888	0.16767	0.14852	0.22864	0.069552	0.23392	0.10931	-2.4292	-2.9	-3.0458	-2.9208	-2.8937	-3.0938	-2.8583	-3.1729	-2.8104	-2.8708	-3.1771	-2.8875	-2.9625	-3.0229	-2.6063	-2.9917	476.752	172.734	431.320	521.251	402.720	426.095	498.636	470.789	520.923	498.696	502.290	170.211	271.616	435.302	190.491	474.935	0.0011947	0.00067524	0.00024348	1019.1	6.354e-06	4.3026e-06	1289	295.44	1.2456e-05	5.0403e-06	420.31	120.76	81.838	27.46	9.6008e-06	42.818	0.00084358	0.00092745	0.00033433	789.62	8.9224e-06	9.8155e-06	1000.3	230.55	9.2685e-06	1.007e-05	328.37	93.76	63.717	21.66	9.2226e-06	33.81	362.323	212.871	282.614	177.788	338.708	346.897	176.643	183.197	268.095	329.258	181.003	185.807	187.708	193.561	324.301	189.370	-8191	255	
18454.959	1	1	0	0	0.059154	0.30058	0.19329	0.23306	0.19584	0.035795	0.26112	0.26827	0.44077	0.20231	0.14619	0.20423	0.21825	0.11733	0.11556	0.088969	-2.5042	-2.6167	-3.1833	-2.7438	-2.8208	-3.2188	-2.9729	-2.9625	-2.9604	-2.7542	-3.1833	-2.8146	-2.9688	-3.1917	-2.6896	-2.9646	500.766	360.056	362.599	427.186	176.875	487.246	412.983	421.107	411.715	322.390	216.981	271.068	499.383	366.505	429.575	368.336	0.0012865	0.00062239	6.2761e-05	1022.7	3.7567e-06	6.0703e-06	1294.4	298.02	1.7558e-05	5.8583e-06	424.69	120.49	81.652	27.129	6.4455e-06	42.818	0.00082194	0.00089426	0.0003274	788.79	9.5594e-06	9.837e-06	1009.2	230.81	9.7791e-06	1.012e-05	329.23	93.941	63.316	21.56	9.3031e-06	33.868	358.787	255.381	239.655	178.065	349.804	192.896	176.933	183.595	275.075	378.254	180.713	185.167	187.769	192.945	240.687	189.520	-8191	255	
18455.080	1	1	0	0	0.2533	0.3512	0.08287	0.070192	0.054074	0.32559	0.23526	0.14053	0.22286	0.069033	0.0719	0.15656	0.1448	0.11604	0.23661	0.0475	-2.5312	-2.5833	-2.8604	-2.8312	-2.7917	-2.9979	-2.9479	-2.9792	-2.8333	-2.8167	-3.0896	-2.8729	-2.8208	-2.9479	-2.625	-2.8771	466.551	489.872	449.955	509.284	358.729	321.298	509.971	425.707	481.755	389.234	254.254	165.472	191.420	210.699	324.378	232.033	0.0011482	0.00081433	0.00026699	1023.2	1.6491e-06	2.9367e-06	1304.4	296.98	4.2332e-06	1.1132e-05	427.67	121.19	81.343	27.195	6.5148e-06	43.187	0.00079823	0.00095609	0.00033209	794.41	9.3799e-06	1.0174e-05	1013.7	231.57	1.1412e-05	9.8819e-06	331.22	94.542	63.539	21.582	9.1882e-06	33.989	358.880	303.169	261.659	177.829	488.557	378.507	176.580	183.017	300.498	327.851	180.818	185.350	187.476	193.574	326.962	189.560	-8191	255	
18455.176	1	1	0	0	0.093518	0.22837	0.10056	0.16154	0.079898	0.0291	0.19113	0.10738	0.2152	0.12914	0.28757	0.065612	0.14291	0.31326	0.2965	0.052363	-2.4625	-2.6667	-2.9167	-2.9271	-2.8021	-3.1437	-2.8583	-2.9688	-2.9437	-2.8229	-2.9313	-3.0375	-2.8333	-3.1417	-2.9188	-2.9854	511.515	258.509	406.369	176.676	333.219	177.594	177.875	518.094	281.794	353.960	252.281	502.368	442.349	508.986	293.461	424.490	0.0011612	0.00040184	0.00022411	1029.8	1.1586e-05	5.8724e-06	1305.3	296.48	5.3362e-06	3.7189e-06	425.11	120.08	82.364	27.234	8.7292e-06	42.993	0.00080329	0.00086276	0.00032869	795.69	9.7136e-06	1.0197e-05	1013.1	230.44	1.2839e-05	1.032e-05	329.14	93.947	63.842	21.562	8.9657e-06	33.625	357.014	191.372	273.013	178.263	315.742	331.700	177.025	183.040	521.296	249.066	180.649	185.543	187.860	193.665	340.684	190.099	-8191	255	
18455.271	1	1	0	0	0.11137	0.10032	0.16881	0.25118	0.004169	0.29761	0.17871	0.20989	0.14067	0.13897	0.077423	0.26983	0.21339	0.082818	0.025153	0.20293	-2.5229	-2.7021	-3.0583	-2.9271	-2.5979	-2.9792	-2.9896	-2.8208	-2.9958	-2.7333	-3.1604	-3.1042	-2.8604	-3.0958	-2.9896	-2.8563	459.459	478.428	401.903	513.469	300.334	171.703	448.345	446.499	239.639	181.826	282.997	399.516	513.156	175.001	466.629	440.595	0.0011989	0.00087808	7.0501e-05	1019.1	4.1374e-06	3.7968e-06	1289.3	294.17	7.0692e-06	1.9128e-06	420.69	118.9	81.57	26.906	8.2874e-06	42.38	0.00082631	0.00090511	0.00031379	788.61	9.401e-06	9.8132e-06	1001.5	228.86	1.2238e-05	9.9967e-06	326.49	93.093	63.24	21.335	9.5181e-06	33.314	360.085	227.848	272.274	178.205	511.471	329.471	176.832	183.056	310.046	250.397	180.680	185.392	187.885	193.104	282.711	189.276	-8191	255	
18455.367	1	1	0	0	0.32189	0.051781	0.10634	0.11909	0.26703	0.061742	0.22773	0.032373	0.29736	0.31252	0.17845	0.304	0.064972	0.054497	0.092219	0.21374	-2.6229	-2.7542	-3.0333	-3.2167	-2.7271	-2.9	-2.9979	-2.8604	-3.0604	-2.8708	-3.0667	-2.9688	-2.8438	-3.0479	-2.9896	-2.7188	509.992	378.461	391.701	429.831	223.230	220.321	490.991	165.739	435.079	232.761	481.855	480.811	511.412	416.241	481.599	198.142	0.0012077	0.0012354	0.00017616	1018.3	5.0521e-06	3.9429e-06	1296.5	294.4	7.3917e-06	3.837e-06	421.19	119.91	81.272	27.034	2.8481e-06	42.171	0.00079523	0.00095124	0.00029456	787.81	8.8115e-06	1.0056e-05	1005.4	228.94	1.2556e-05	1.0109e-05	327.2	93.657	63.565	21.508	9.667e-06	33.389	367.327	261.470	287.372	178.246	215.888	404.126	176.699	182.894	297.464	454.529	180.565	185.859	187.254	192.959	400.458	189.542	-8191	255	
18455.463	1	1	0	0	0.17662	0.1419	0.097889	0.019034	0.14235	0.12189	0.34067	0.21516	0.071263	0.096082	0.2298	0.25271	0.15426	0.14416	0.26787	0.091514	-2.5062	-2.675	-2.8792	-3.1646	-2.6979	-2.9188	-3.2562	-2.8688	-2.9958	-2.8271	-2.9667	-3.0812	-2.7646	-3.0021	-3.0708	-2.6917	434.606	304.217	386.818	182.457	478.045	321.430	444.114	461.884	275.970	189.531	188.574	459.994	212.300	477.093	494.882	401.527	0.0011409	0.0006473	0.00027392	1018	2.9834e-06	4.9755e-06	1295.2	294.44	1.3688e-05	2.8197e-06	419.68	120.73	81.308	27.594	6.2307e-06	43.283	0.00081393	0.00097138	0.00027998	789.67	9.8047e-06	1.0287e-05	1002.5	229.11	1.2606e-05	1.0798e-05	327.15	93.924	63.519	21.707	1.0798e-05	33.799	359.543	280.885	270.504	177.850	307.078	365.870	177.023	183.099	291.506	275.427	180.696	185.373	187.295	192.761	279.838	189.634	-8191	255	
18455.559	1	1	0	0	0.061751	0.12464	0.2896	0.18864	0.15742	0.075509	0.034582	0.22894	0.18463	0.11627	0.11581	0.26492	0.11074	0.14158	0.19753	0.13806	-2.6479	-2.7583	-2.8125	-2.9938	-2.6104	-3.0542	-2.9354	-2.7708	-3.1083	-2.8771	-2.8979	-3.1625	-2.825	-2.9042	-2.9958	-2.9792	446.845	356.188	204.344	488.053	463.891	215.005	388.493	469.912	185.189	344.227	375.109	166.320	460.623	508.957	422.978	497.136	0.0011305	0.00040645	0.00020631	1013.4	3.5162e-06	3.6573e-06	1290.7	297.29	5.5196e-06	5.1121e-06	424.35	120.72	81.351	27.592	7.4622e-06	42.832	0.00085224	0.00095269	0.00027047	789.22	1.0381e-05	1.085e-05	1004.5	230.22	1.3117e-05	1.1288e-05	328.98	94.709	63.841	21.776	1.2855e-05	33.924	360.639	251.415	268.961	177.833	260.045	278.224	176.591	182.994	259.146	291.499	180.816	185.295	187.831	193.152	287.878	189.591	-8191	255	
18455.680	1	1	0	0	0.13971	0.13878	0.21023	0.14489	0.06606	0.1788	0.3048	0.14563	0.037767	0.20218	0.27444	0.24008	0.1598	0.06006	0.024732	0.26331	-2.7625	-2.8917	-2.7625	-3.2562	-2.7104	-2.9125	-3.2125	-2.7562	-3.0729	-2.95	-2.9604	-3.1542	-2.8333	-2.9729	-3.0812	-2.9729	413.633	202.124	302.522	430.905	218.073	399.047	502.720	414.585	504.870	478.691	482.142	435.472	308.658	460.724	166.417	441.231	0.0013165	0.00041719	0.00024755	1022.6	7.3058e-06	3.6144e-06	1294.8	299.14	1.0747e-05	5.4509e-06	417.92	120.19	82.313	27.775	5.5358e-06	42.965	0.00089847	0.0010269	0.0002771	794.08	9.8712e-06	1.0966e-05	1003.4	231.96	1.411e-05	1.1687e-05	325.97	93.833	64.114	21.791	1.5057e-05	33.831	364.271	246.523	297.489	178.096	294.220	357.241	176.751	183.195	285.909	315.792	180.824	185.832	187.429	193.201	355.191	189.375	-8191	255	
18455.775	1	1	0	0	0.090655	0.21615	0.13522	0.052495	0.11791	0.26339	0.22903	0.24269	0.16372	0.057949	0.1794	0.17135	0.066615	0.13405	0.16728	0.18524	-2.8167	-2.7687	-2.7313	-3.1354	-2.9208	-2.7375	-3.225	-2.9979	-3.1542	-2.95	-2.8521	-3.2521	-3.0667	-2.9021	-2.9125	-2.9458	336.471	362.541	254.263	196.083	498.646	186.148	467.416	518.750	378.063	305.316	418.551	409.065	240.607	509.742	274.993	479.043	0.0010806	0.00048602	9.1501e-05	1024.5	7.8227e-06	3.1519e-06	1297.9	295.56	5.3279e-06	5.3775e-06	423.74	121.08	82.208	27.709	1.2571e-05	43.07	0.00090331	0.00099541	0.0002775	790.92	1.0232e-05	1.0577e-05	1001.9	230.07	1.3473e-05	1.1929e-05	327.58	94.204	63.749	21.746	1.4606e-05	33.798	368.951	257.413	273.636	177.862	315.111	290.300	176.777	183.152	344.612	289.983	180.649	185.655	187.562	192.806	340.240	189.616	-8191	255	
18455.871	1	1	0	0	0.10742	0.10663	0.21084	0.18928	0.27695	0.22471	0.33342	0.32181	0.23473	0.028671	0.16846	0.049121	0.032109	0.25019	0.26492	0.33449	-2.6125	-2.95	-2.6458	-3.125	-2.8854	-2.8979	-3.3104	-2.8792	-2.9688	-3.0667	-2.9271	-3.05	-2.9521	-2.7958	-3.0938	-2.9646	516.880	306.913	334.348	502.738	370.248	488.109	434.655	419.338	332.761	358.323	488.365	418.766	271.900	494.283	167.809	484.528	0.0011822	0.00053097	0.00019431	1013.6	7.478e-06	1.5885e-06	1298.6	295.79	5.8793e-06	2.6351e-06	420.41	120.6	81.436	27.522	1.0931e-05	43.184	0.00086321	0.00098029	0.00025863	790.93	1.0291e-05	1.0865e-05	1003.2	229.56	1.0002e-05	1.5652e-05	327.07	93.831	63.406	21.759	1.5566e-05	34.08	356.966	250.169	208.713	178.197	235.556	378.299	177.178	183.213	293.079	420.146	180.625	185.507	188.037	192.766	301.822	189.784	-8191	255	
18455.943	1	1	0	0	0.10431	0.13783	0.14854	0.36718	0.1522	0.081476	0.28823	0.26229	0.23274	0.21269	0.30067	0.19761	0.41045	0.13411	0.13917	0.23825	-2.7042	-2.7521	-2.7042	-3.0542	-2.7521	-2.675	-3.0896	-3.0021	-2.9271	-3.0271	-2.7042	-3.0104	-3.0396	-2.7979	-3.1792	-2.6896	296.297	316.863	403.550	486.218	513.023	218.463	420.149	497.704	324.682	306.495	209.244	495.404	502.723	181.986	298.667	435.626	0.0011218	0.00037425	0.00031489	1008.5	5.9898e-06	1.6763e-06	1288.7	296.51	6.6744e-06	5.9534e-06	423.6	120.77	82.132	27.597	1.6088e-05	43.667	0.00085406	0.00099285	0.00028431	784.32	9.67e-06	1.0943e-05	1000.7	230.03	9.3743e-06	1.6942e-05	329.48	94.238	64.013	21.833	1.5008e-05	34.145	359.017	309.886	219.852	177.700	297.184	182.547	176.731	183.031	233.048	320.388	180.914	185.371	188.026	193.692	279.778	189.494	-8191	255	
18456.064	1	1	0	0	0.19173	0.16302	0.083734	0.37568	0.17203	0.10793	0.090992	0.062287	0.12605	0.17903	0.20231	0.090089	0.12072	0.23225	0.28947	0.24395	-2.6625	-3.1	-2.6688	-3.0792	-2.7729	-2.7542	-3.225	-2.8979	-2.7958	-3.0771	-2.8812	-3.0896	-3.025	-2.625	-2.9667	-2.8812	326.710	474.644	392.933	483.315	433.976	351.706	231.620	514.722	313.157	493.747	512.045	463.313	478.192	439.234	429.385	472.195	0.0012381	0.0009063	0.00016092	1014.4	4.4321e-06	5.5094e-06	1280.8	293.42	1.581e-05	9.4494e-06	416.63	120.72	81.037	27.754	1.3687e-05	42.507	0.00081635	0.00095066	0.00028131	787.92	1.1203e-05	1.057e-05	993.62	228.46	9.7791e-06	1.6411e-05	324.09	93.606	63.169	21.797	1.5225e-05	33.378	359.522	254.067	210.947	178.308	227.265	363.637	176.999	183.130	300.164	189.039	180.436	185.442	187.934	193.041	351.250	189.390	-8191	255	
18456.160	1	1	0	0	0.13085	0.26268	0.21848	0.20175	0.34968	0.20895	0.33751	0.20739	0.16949	0.22305	0.19554	0.26732	0.24972	0.2448	0.19082	0.36842	-2.4271	-3.025	-2.7375	-2.8542	-2.7479	-2.8312	-3.1104	-2.9083	-2.7417	-3.0292	-2.8979	-3.0167	-2.9604	-2.7333	-3.0271	-2.8417	510.742	317.408	475.523	351.343	390.346	362.769	462.766	453.186	168.734	210.127	434.519	434.977	487.715	523.658	418.956	459.492	0.0013119	0.00044535	0.00018626	1011.1	4.3406e-06	3.5801e-06	1277.1	293.1	5.2703e-06	9.9091e-06	414.11	119.45	79.967	26.913	1.0477e-05	41.983	0.00088414	0.00092273	0.00027297	780.14	1.3609e-05	9.8291e-06	989.36	227.19	9.6232e-06	1.5665e-05	324.03	92.711	62.686	21.422	1.4979e-05	33.3	357.260	226.918	281.703	177.525	425.449	336.112	176.784	182.959	367.707	271.750	180.536	186.107	187.283	193.509	314.823	189.679	-8191	255	
18456.256	1	1	0	0	0.17767	0.10353	0.16449	0.36432	0.15527	0.21272	0.18504	0.26649	0.0199	0.3855	0.1314	0.11311	0.21395	0.086762	0.053028	0.31497	-2.3812	-2.9229	-2.6792	-3.0833	-2.9542	-2.8208	-3.2396	-2.9875	-2.6354	-3.1229	-2.8917	-2.9625	-3.0021	-2.875	-3.0854	-2.9833	249.047	190.342	367.164	172.999	415.214	468.831	416.283	422.300	318.010	506.189	474.971	427.840	443.256	450.839	354.061	440.556	0.001062	0.00042502	0.00011195	998.09	5.826e-06	3.8511e-06	1277.2	292.69	5.3033e-06	1.8286e-06	415.9	118.89	80.557	27.539	4.2054e-06	42.442	0.00083332	0.0008996	0.00025037	775.75	1.4949e-05	1.0265e-05	991.25	227.55	9.0283e-06	1.5425e-05	324.28	93.139	63.151	21.543	1.219e-05	33.581	355.640	244.160	257.407	177.627	209.504	350.489	176.889	183.009	179.643	378.179	181.010	185.167	187.738	192.737	403.464	189.046	-8191	255	
18456.352	1	1	0	0	0.15207	0.098153	0.15775	0.32158	0.089833	0.1235	0.33361	0.20715	0.12011	0.087955	0.11345	0.13667	0.076084	0.059069	0.040269	0.037347	-2.3146	-2.9292	-2.8458	-2.7417	-3.0563	-2.5292	-3.0958	-2.9083	-2.8229	-3.0521	-2.8917	-2.8604	-3.2458	-2.7792	-2.9958	-3.1583	296.301	462.046	426.536	467.062	429.256	327.037	443.371	171.800	198.696	344.893	378.909	192.681	299.320	469.185	383.426	260.518	0.0011644	0.00099752	0.0001789	1001.5	4.4519e-06	5.6129e-06	1292.5	294.65	7.1732e-06	4.2221e-06	417.67	119.57	81.913	27.267	3.4105e-06	42.723	0.00078737	0.00088647	0.00025341	778.6	1.424e-05	1.0618e-05	1000.2	229.18	9.3105e-06	1.6098e-05	326.87	93.639	63.502	21.56	9.7727e-06	33.761	357.542	273.957	182.328	178.268	286.332	295.502	177.206	183.138	400.594	288.440	180.960	185.633	187.963	192.928	457.316	190.069	-8191	255	
18456.471	1	1	0	0	0.038294	0.11449	0.41584	0.37346	0.38258	0.14389	0.18893	0.31694	0.057714	0.12493	0.19706	0.056603	0.19158	0.14243	0.085397	0.27759	-2.3125	-3.0583	-2.7021	-2.8563	-2.9729	-2.8729	-3.0271	-3.1125	-2.7396	-3.1604	-2.925	-2.7771	-3.1937	-2.7083	-2.9583	-3.0438	314.409	479.559	513.111	479.102	517.604	211.639	479.843	484.070	291.556	354.127	506.381	178.767	183.935	495.378	371.035	433.238	0.001044	0.00053641	0.00032905	1017.2	6.7909e-06	1.8021e-06	1297.9	296.6	1.4264e-05	5.8953e-06	420.36	119.9	81.113	27.362	1.2216e-05	42.74	0.00079952	0.00094598	0.00027512	788.81	1.4692e-05	1.0019e-05	1006.4	230.4	9.7207e-06	1.5576e-05	328.47	93.903	63.746	21.622	9.8946e-06	33.901	365.855	198.962	278.092	177.932	383.502	268.882	176.806	183.154	341.419	241.574	180.701	185.620	187.704	192.701	306.656	189.388	-8191	255	
18456.543	1	1	0	0	0.096345	0.1516	0.081944	0.1253	0.092673	0.14832	0.077394	0.26614	0.23951	0.28322	0.22434	0.12264	0.036351	0.28584	0.14192	0.13578	-2.1917	-2.8688	-2.7458	-2.8396	-3.0542	-2.8667	-3.1083	-3.2583	-2.6833	-3.0146	-3.0021	-3.0083	-3.0146	-2.6979	-2.8187	-3.125	304.665	298.390	366.046	439.850	487.016	407.320	452.469	499.887	208.368	353.898	480.386	430.820	292.284	204.790	271.913	420.665	0.0011539	0.00034673	0.0002207	1008.6	2.0863e-06	1.5334e-06	1288	298.37	1.1873e-05	4.7089e-06	416.43	120.94	81.589	27.354	7.454e-06	42.842	0.00084251	0.00090313	0.00025109	786.17	1.414e-05	1.0628e-05	998.39	230.92	9.6841e-06	1.3059e-05	327.28	93.824	63.576	21.572	9.677e-06	33.637	359.830	226.532	274.676	178.474	174.690	444.561	176.897	182.767	270.075	451.231	181.156	185.464	188.071	192.873	335.629	189.260	-8191	255	
18456.641	1	1	0	0	0.2348	0.16595	0.13172	0.21241	0.14279	0.18293	0.13751	0.3202	0.14562	0.29618	0.30077	0.062442	0.13091	0.14168	0.32512	0.083784	-2.1875	-2.8417	-2.8042	-2.8271	-2.9062	-2.7667	-2.8875	-3.1	-2.4979	-3.15	-2.9479	-2.6562	-3.0271	-2.9792	-2.8792	-3.0646	479.356	305.758	397.024	433.210	266.519	436.397	399.938	448.359	322.332	189.205	483.547	298.318	427.174	487.393	268.401	351.082	0.0010205	0.0003484	0.00013152	1018.3	3.1799e-06	9.4031e-06	1282.3	295.66	3.1443e-06	5.7408e-06	419.12	120.41	82.551	27.583	2.9182e-06	42.837	0.00082293	0.0008977	0.00024751	789.33	1.496e-05	1.0134e-05	1001	230.04	9.991e-06	1.0254e-05	328.85	94.106	64.146	21.735	9.8228e-06	33.989	355.845	216.896	197.048	177.972	311.464	316.993	176.988	183.115	373.526	314.222	180.720	185.667	187.598	193.059	258.958	188.608	-8191	255	
18456.760	1	1	0	0	0.16824	0.098543	0.30762	0.40771	0.24107	0.060641	0.16706	0.27146	0.23021	0.046124	0.082952	0.2065	0.16702	0.19726	0.27828	0.10091	-2.4583	-3.0604	-2.9042	-2.7833	-3.225	-2.7625	-2.6937	-2.9917	-2.8896	-2.7271	-2.9917	-2.8271	-3.0104	-2.9042	-2.7146	-3.0687	413.512	262.758	282.802	491.153	442.524	270.026	513.661	475.087	466.964	294.993	470.986	466.694	431.348	428.750	504.000	491.448	0.0010371	0.00032488	0.00020541	1011.4	6.4257e-07	4.2551e-06	1289.7	296.52	1.3093e-05	2.2167e-06	421.58	121.72	82.518	27.537	6.3017e-06	42.693	0.00081858	0.00091133	0.0002621	790.29	1.3835e-05	1.0512e-05	1002.5	230.02	9.4771e-06	1.0274e-05	329.8	94.762	64.3	21.791	9.0167e-06	33.935	364.016	216.543	241.182	178.084	200.529	353.411	176.790	183.416	342.736	341.603	180.960	185.457	187.791	192.818	266.985	190.205	-8191	255	
18456.855	1	1	0	0	0.10215	0.21273	0.16436	0.26653	0.075809	0.07681	0.24713	0.12682	0.098739	0.23341	0.21086	0.088574	0.095043	0.10922	0.25509	0.23447	-2.3937	-2.7208	-2.8208	-2.8042	-3.0875	-3.0125	-2.9062	-3.0312	-2.8375	-3.0708	-3.15	-2.7521	-3.0167	-2.9333	-2.8979	-3.0646	469.265	411.130	338.287	409.067	417.699	170.550	389.215	447.018	247.432	315.356	402.278	168.432	398.838	459.319	242.757	512.017	0.0011599	0.00046273	0.00015636	1022.5	8.5371e-06	9.9808e-06	1296.5	294.74	8.3352e-06	4.9499e-06	424.87	119.97	82.102	27.482	1.1267e-05	43.181	0.00084361	0.00087495	0.00025117	793.83	1.1903e-05	1.2552e-05	1008.5	230.35	9.5717e-06	1.0307e-05	330.7	94.064	63.919	21.756	9.5756e-06	34.072	359.479	364.089	297.596	178.185	342.541	298.514	177.044	183.138	282.777	326.183	180.821	185.282	187.521	192.477	332.475	189.985	-8191	255	
18456.951	1	1	0	0	0.17592	0.12996	0.082694	0.19377	0.11272	0.064263	0.093909	0.37129	0.078682	0.17145	0.37187	0.13061	0.10265	0.1342	0.18122	0.017754	-2.4208	-2.8417	-2.9542	-2.8021	-2.9604	-3.1125	-2.8042	-3.0729	-2.8458	-2.8187	-3.1479	-2.7396	-3.025	-2.8667	-2.6604	-3.1625	423.473	488.382	311.016	444.872	491.598	459.913	430.976	174.515	371.289	344.963	490.436	465.646	476.527	521.830	361.260	323.225	0.0011367	0.00067865	0.00017649	1019.7	2.8465e-06	5.9075e-06	1287	296.53	1.1347e-05	7.5157e-06	419.99	119.98	82.033	27.653	1.0732e-05	42.156	0.00083362	0.00096056	0.00027244	791.78	9.5273e-06	1.6236e-05	999.12	230.89	9.733e-06	1.026e-05	328.29	93.639	63.878	21.696	9.7854e-06	33.61	365.399	213.771	290.323	177.677	285.337	280.242	176.621	183.302	270.838	287.632	180.536	185.444	187.565	193.075	317.100	189.799	-8191	255	
18457.072	1	1	0	0	0.22033	0.29075	0.28489	0.051435	0.15158	0.096956	0.26743	0.19078	0.073621	0.076811	0.10811	0.25245	0.19532	0.12219	0.2652	0.12877	-2.2917	-2.8229	-3.1354	-2.7687	-2.8208	-3.0062	-2.8896	-3.05	-2.8937	-2.8771	-3.0458	-2.9583	-2.8187	-2.9333	-2.5917	-3.2021	299.864	519.947	496.422	461.627	413.988	507.698	468.347	487.583	365.647	441.397	510.489	167.002	453.868	430.558	272.733	188.016	0.0010072	0.00056327	0.00020349	1016.3	7.5164e-06	2.7955e-06	1281.2	294.58	6.7513e-06	1.0006e-05	415.19	119.98	80.767	27.942	2.535e-06	42.962	0.00083714	0.00091858	0.00026801	788.61	9.3189e-06	1.6023e-05	994.46	229	9.5174e-06	1.0489e-05	325.23	93.259	63.312	21.871	9.6718e-06	33.799	371.140	202.286	279.363	178.010	327.572	279.065	177.015	182.939	400.676	281.782	180.868	185.445	188.235	193.069	328.373	189.862	-8191	255	
18457.170	1	1	0	0	0.27638	0.17757	0.039308	0.18043	0.3359	0.13995	0.15576	0.32964	0.22175	0.30676	0.22392	0.017953	0.22791	0.152	0.36203	0.074932	-2.4688	-2.7812	-3.0875	-2.9458	-2.8479	-3.1167	-2.625	-3.0021	-3.0083	-2.7375	-3.2021	-2.9	-2.9917	-3.0667	-2.8271	-2.9167	366.709	414.350	223.119	473.244	232.478	402.507	175.188	464.972	372.032	306.285	445.858	420.790	495.921	285.252	432.241	519.044	0.0011232	0.00028774	5.4464e-05	1009.6	6.6091e-06	4.4187e-06	1282.1	296.6	2.193e-05	4.0169e-06	415.56	120.58	81.021	27.727	3.7839e-06	42.859	0.00094975	0.00089455	0.00025309	782.69	9.3951e-06	1.4706e-05	998.01	229.62	9.4775e-06	1.036e-05	326.26	93.985	63.535	21.818	9.2504e-06	33.736	358.442	263.624	243.452	178.098	306.363	347.569	177.109	183.207	308.429	292.364	180.552	185.938	188.233	193.151	361.316	189.435	-8191	255	
18457.240	1	1	0	0	0.23426	0.19907	0.17388	0.14375	0.12838	0.27187	0.18286	0.138	0.096679	0.021963	0.02524	0.27745	0.29454	0.13033	0.34571	0.24765	-2.4479	-2.6458	-2.9313	-2.9479	-2.8292	-3.1604	-2.9062	-3.0062	-3.0812	-2.8604	-3.0687	-2.7708	-2.7313	-3.0625	-2.9458	-3.0854	318.616	340.951	300.492	505.485	275.777	465.100	420.117	484.414	495.612	219.053	522.167	181.313	436.944	457.103	246.072	431.197	0.00096439	0.00053647	0.00012548	1021.2	5.2144e-06	9.1081e-06	1294.1	296.7	1.0402e-05	5.3272e-06	420.49	119.98	80.98	27.187	8.2613e-06	42.727	0.0011425	0.00089388	0.0002527	791	9.7119e-06	1.6353e-05	999.88	230.68	9.3891e-06	1.086e-05	328.01	93.671	63.386	21.647	1.0092e-05	33.619	363.926	272.471	214.239	178.126	300.181	314.568	176.708	183.286	301.029	233.356	181.400	185.830	187.571	192.824	327.058	189.979	-8191	255	
18457.361	1	1	0	0	0.12881	0.3121	0.1733	0.20145	0.081116	0.26698	0.27916	0.080895	0.21867	0.19045	0.13783	0.028831	0.11982	0.34718	0.30024	0.035784	-2.5604	-2.7167	-2.9146	-2.8542	-2.8146	-3.2167	-2.9042	-2.9833	-3.0083	-2.8688	-3.1063	-2.9062	-2.8917	-3.0083	-2.8083	-2.9938	215.133	312.877	415.391	502.057	351.120	258.728	511.396	168.111	327.415	458.236	431.922	514.753	524.639	461.261	204.230	457.944	0.0011056	0.00073066	0.00011691	1017.6	7.6966e-06	6.0665e-06	1297.3	294.35	1.3084e-05	5.9773e-06	415.85	119.23	81.207	27.69	7.4931e-06	42.255	0.001169	0.00097718	0.00027526	789.95	1.0424e-05	1.5106e-05	999.55	229.72	9.9256e-06	1.0797e-05	325.63	93.139	63.355	21.632	1.0423e-05	33.24	362.615	258.329	293.266	178.103	345.134	256.192	176.825	183.310	291.821	295.792	181.217	185.546	187.561	193.069	284.736	189.208	-8191	255	
18457.455	1	1	0	0	0.10359	0.14783	0.087567	0.34579	0.20721	0.11808	0.38654	0.33596	0.13934	0.22314	0.28594	0.10689	0.39659	0.028946	0.049631	0.14495	-2.5563	-2.6167	-2.925	-3.0542	-2.8146	-3.0708	-2.7417	-3.0396	-2.9625	-2.6875	-2.8854	-2.9542	-2.6937	-3.0292	-2.7396	-2.6417	455.781	490.590	213.255	485.547	301.873	260.673	452.479	501.242	504.396	425.436	461.409	246.495	175.783	209.917	506.678	487.808	0.00088239	0.0007188	0.0001453	1020.9	8.1607e-06	3.4972e-06	1287.1	296.11	7.037e-06	4.3272e-06	419.52	119.4	82.731	27.676	7.177e-06	42.738	0.0011332	0.00098083	0.00026434	794.4	9.7772e-06	1.6913e-05	1002.2	230.72	9.7042e-06	1.1244e-05	327.47	93.609	64.295	21.815	1.0285e-05	33.798	366.457	261.335	278.917	178.056	295.042	236.499	176.825	183.437	288.089	230.765	180.877	185.607	187.441	193.595	331.223	189.501	-8191	255	
18457.551	1	1	0	0	0.093059	0.18949	0.16684	0.12209	0.11005	0.22252	0.098594	0.23497	0.06716	0.18319	0.15807	0.17967	0.22425	0.15413	0.077127	0.23792	-2.6458	-2.6813	-2.7896	-3.0021	-2.7958	-3.0729	-2.8167	-2.9437	-2.9021	-2.7687	-3.2188	-3.0771	-2.7646	-2.9833	-2.8063	-2.7812	523.872	439.948	248.943	191.267	360.636	316.658	458.146	231.882	194.006	400.788	173.163	174.419	188.646	433.005	175.123	364.006	0.001149	0.00043267	0.00025824	1040.9	9.5021e-06	5.7529e-06	1301.9	302.35	6.2234e-06	6.495e-06	423.12	122.12	83.134	28.034	1.0626e-05	43.751	0.001175	0.0010154	0.00029068	807.98	1.082e-05	1.6017e-05	1016.2	235.05	1.1211e-05	1.1543e-05	330.66	95.902	64.805	22.182	1.0761e-05	34.523	360.916	251.045	250.141	178.231	319.508	309.132	176.582	183.235	314.671	349.267	181.108	185.333	187.891	193.260	313.533	189.366	-8191	255	
18457.648	1	1	0	0	0.11312	0.22292	0.23656	0.31064	0.29294	0.42024	0.17984	0.2126	0.093596	0.1734	0.27282	0.25127	0.15829	0.25319	0.18678	0.18071	-2.6063	-2.6896	-2.9125	-2.9667	-2.7771	-2.9938	-2.9938	-2.7438	-2.8792	-2.8312	-2.8875	-3.1333	-2.8146	-2.8375	-2.9521	-2.8167	502.821	462.827	331.291	430.617	253.497	229.485	482.781	454.737	361.483	400.884	179.194	485.305	449.540	425.105	345.964	496.065	0.00103	0.00084094	0.00016086	1043.1	3.0551e-06	3.1409e-06	1323.3	304.84	9.8576e-06	8.7577e-06	427.15	123.84	83.702	28.396	1.8941e-06	43.86	0.0011846	0.00098145	0.0002912	813.33	1.0579e-05	1.2944e-05	1028.1	236.98	1.0388e-05	1.1503e-05	334.98	96.332	65.432	22.338	1.068e-05	34.6	370.994	246.762	274.221	177.606	382.984	368.378	176.726	182.978	298.361	294.537	181.145	185.703	187.300	193.627	380.290	189.565	-8191	255	
18457.744	1	1	0	0	0.10724	0.17683	0.14817	0.29316	0.12163	0.15946	0.16265	0.29517	0.098365	0.24351	0.35927	0.37192	0.1787	0.32337	0.12197	0.19765	-2.6146	-2.8583	-2.8042	-2.9333	-2.6375	-2.8396	-3.1042	-2.8271	-3.0062	-2.6771	-2.9292	-3.15	-2.8042	-2.8375	-2.8521	-2.5958	426.248	215.745	452.668	495.159	204.802	515.206	455.117	514.129	396.698	257.585	482.951	440.575	387.504	433.225	475.159	391.141	0.001062	0.000156	0.00024268	1058.7	6.0748e-06	1.252e-06	1313.7	303.36	5.2546e-06	1.0837e-05	426.21	122.12	84.841	28.386	6.5148e-06	43.429	0.001245	0.0010372	0.00032763	815.39	1.1407e-05	1.2521e-05	1029.3	237.01	1.0699e-05	1.3571e-05	334.39	95.792	65.865	22.345	1.2101e-05	34.367	353.708	200.160	284.608	178.221	345.609	269.323	176.853	182.876	304.247	328.629	180.935	185.140	188.196	193.310	301.605	189.973	-8191	255	
18457.840	1	1	0	0	0.25532	0.17563	0.18979	0.28489	0.2458	0.24076	0.40793	0.1319	0.10896	0.091119	0.32622	0.25471	0.090543	0.17928	0.11981	0.24478	-2.5771	-2.7042	-2.8792	-2.9083	-2.7854	-2.8375	-3.2479	-2.9333	-2.8667	-2.8146	-2.9417	-3.175	-2.9	-2.8854	-3.1	-2.675	418.177	486.993	429.803	177.888	487.679	181.994	434.381	478.502	299.768	228.284	165.160	492.712	249.782	419.226	478.914	377.674	0.0010862	0.00099347	0.00016002	1053.4	7.1177e-06	6.4706e-06	1326.1	306.58	1.0079e-05	5.7148e-06	428.23	122.23	84.15	28.064	3.3288e-06	42.975	0.0012315	0.0011098	0.00031686	819.41	1.2133e-05	1.2524e-05	1031.4	237.48	1.1978e-05	1.2473e-05	334.36	95.988	65.529	22.299	1.1675e-05	34.339	366.901	212.127	242.642	177.879	292.055	335.780	176.985	182.942	365.825	315.872	180.743	185.374	187.789	192.947	425.096	189.332	-8191	255	
18457.936	1	1	0	0	0.19506	0.19656	0.22605	0.27325	0.21885	0.21923	0.1379	0.087973	0.19059	0.25564	0.046396	0.30753	0.017413	0.18937	0.40885	0.30289	-2.5375	-2.7062	-2.75	-3.2042	-2.6625	-2.7708	-3.1792	-2.9313	-2.9542	-2.9146	-2.7646	-2.875	-2.9792	-2.8479	-3.1146	-2.6208	382.749	229.184	377.461	504.014	339.665	461.713	455.177	491.649	180.568	405.511	421.098	409.780	349.701	504.081	404.857	190.319	0.0011189	0.00048097	0.00033869	1041.2	5.0071e-06	3.4654e-06	1328.5	307.29	6.1193e-06	8.2414e-06	431.91	124.25	83.976	28.331	6.2615e-06	43.844	0.0010266	0.0014363	0.00033144	816.01	1.2167e-05	1.181e-05	1033.1	238.48	1.1556e-05	1.2536e-05	336.09	97.138	65.884	22.378	1.2238e-05	34.649	364.194	294.574	262.921	177.904	247.223	349.921	177.344	183.016	298.150	355.890	180.655	185.386	187.397	192.905	315.878	189.259	-8191	255	
18458.031	1	1	0	0	0.24995	0.19592	0.087071	0.1855	0.076388	0.12145	0.081815	0.15534	0.077802	0.1346	0.19868	0.19521	0.21982	0.1714	0.18891	0.23402	-2.4208	-2.8729	-2.7458	-3.1271	-2.7333	-2.8375	-3.1396	-2.8917	-2.9542	-2.9188	-2.6917	-3.0417	-2.7729	-2.8542	-3.1875	-2.6771	507.576	473.852	241.058	500.883	340.746	234.531	172.121	459.568	376.058	276.700	173.746	493.700	284.778	388.277	217.128	393.827	0.0011972	0.00096981	0.00011588	1065.3	6.628e-06	9.9174e-06	1326.7	304.55	1.3135e-05	1.8217e-06	431.36	122.99	85.019	27.993	4.5481e-06	44.239	0.0009857	0.0015139	0.00033352	822.43	1.1573e-05	1.3296e-05	1035.5	238.5	1.2301e-05	1.3169e-05	337.12	96.753	66.261	22.237	1.2189e-05	34.868	358.155	229.405	202.328	177.736	309.843	346.653	176.926	182.998	363.591	262.746	180.426	185.908	187.929	193.466	288.471	189.433	-8191	255	
18458.152	1	1	0	0	0.082926	0.042323	0.099619	0.29126	0.17417	0.14785	0.22407	0.20781	0.20898	0.26539	0.19443	0.13165	0.26289	0.14904	0.091085	0.26643	-2.4938	-2.9938	-2.6854	-3.025	-2.7938	-2.7667	-3.1625	-2.8479	-3.0479	-2.8063	-2.8438	-3.3521	-2.8312	-2.6771	-3.0104	-2.8042	409.996	512.391	433.365	469.215	355.330	207.786	449.835	493.628	484.090	441.755	462.267	429.955	463.625	191.953	358.202	479.228	0.0011725	0.00082988	2.1473e-05	1057.1	6.302e-06	7.4149e-06	1322.3	306.53	6.2371e-06	4.3664e-06	425.15	122.87	85.084	28.165	8.8138e-06	43.354	0.001045	0.0016994	0.00034126	821.69	1.1713e-05	1.2784e-05	1032.4	237.68	1.1558e-05	1.2324e-05	334.02	95.878	66.252	22.178	1.2061e-05	34.171	358.403	356.211	253.187	178.048	275.617	330.229	176.841	183.785	268.341	284.583	180.701	185.509	188.142	193.473	336.539	189.304	-8191	255	
18458.248	1	1	0	0	0.19787	0.28761	0.01596	0.32177	0.12424	0.22481	0.3589	0.15795	0.10246	0.12579	0.20387	0.18437	0.10335	0.1499	0.27154	0.24387	-2.2958	-2.9708	-2.6	-3.1188	-2.8292	-2.8063	-3.225	-2.9417	-3.0021	-3.0083	-2.9917	-3.2417	-2.9771	-2.7708	-2.9396	-2.8479	235.832	226.329	207.063	490.142	446.070	173.553	465.004	436.513	228.127	505.584	306.180	190.565	452.512	356.636	188.750	469.229	0.0010066	0.00046915	0.00011205	1045.9	8.1625e-06	9.4341e-06	1325	304.84	2.738e-06	6.9124e-06	424.88	120.67	84.131	27.463	6.7297e-06	42.971	0.00095135	0.0016328	0.00032545	813.13	1.1823e-05	1.2671e-05	1027.1	236.73	1.1423e-05	1.1801e-05	331.59	94.457	65.497	21.826	1.1619e-05	33.866	359.724	280.690	226.047	178.041	303.033	361.606	177.011	183.009	345.766	291.534	180.825	185.897	187.770	193.491	341.188	189.772	-8191	255	
18458.346	1	1	0	0	0.14718	0.2317	0.29385	0.17956	0.25563	0.1652	0.29487	0.46605	0.16673	0.15587	0.14977	0.27752	0.27668	0.3695	0.17539	0.1783	-2.375	-2.9458	-2.675	-2.9313	-2.8438	-2.7417	-3.1625	-2.9083	-2.925	-3.2104	-2.9417	-3.0917	-2.8354	-2.6542	-3.1771	-2.9083	350.677	328.490	209.908	458.005	251.467	455.023	471.517	473.043	234.769	211.926	352.740	439.936	454.406	508.456	327.824	289.735	0.0011806	0.00050375	0.00014728	1053.5	1.1156e-05	9.3922e-06	1319	303.21	3.4759e-06	3.0917e-06	425.85	121.93	83.934	28.006	5.4205e-06	42.597	0.00097299	0.0016125	0.00030578	813.28	1.0878e-05	1.2479e-05	1026.8	235.44	1.0585e-05	1.1748e-05	329.8	95.15	65.394	22.002	1.1693e-05	33.722	353.239	237.639	340.962	177.891	251.804	324.103	176.740	182.923	246.750	298.462	180.835	185.820	187.602	193.219	316.568	190.208	-8191	255	
18458.441	1	1	0	0	0.13906	0.097783	0.035438	0.10091	0.1548	0.095556	0.26737	0.48426	0.1713	0.10971	0.23153	0.11043	0.17787	0.26688	0.24715	0.30136	-2.4521	-3.0896	-2.6813	-2.8979	-3.0521	-2.6063	-3.1375	-2.9667	-2.7875	-2.9458	-2.8667	-2.8854	-2.8417	-2.625	-2.8875	-2.8667	487.269	315.885	199.817	429.322	169.775	352.787	427.223	498.409	239.764	234.346	429.231	413.532	195.822	481.253	290.191	479.697	0.0011186	0.0011755	4.1385e-05	1045.8	7.504e-06	1.5264e-06	1324.5	299.59	1.5328e-05	2.3828e-06	422.99	121.53	83.797	27.88	8.2519e-06	42.93	0.00090864	0.0014596	0.00030195	811.74	1.1386e-05	1.1917e-05	1025.2	235.47	1.0882e-05	1.202e-05	330.37	95.064	65.326	21.908	1.0877e-05	33.778	363.319	268.765	266.851	178.007	241.487	416.863	176.681	183.537	283.644	313.118	181.012	185.252	188.242	193.639	352.688	189.262	-8191	255	
18458.535	1	1	0	0	0.3008	0.073408	0.13639	0.073087	0.10771	0.053279	0.32274	0.18697	0.093624	0.1963	0.23522	0.18915	0.38756	0.14691	0.21538	0.18108	-2.2708	-2.9083	-2.6396	-2.9354	-2.7958	-2.8104	-3.1354	-2.95	-2.6437	-3.125	-2.7104	-2.8563	-2.875	-2.7562	-2.8271	-2.9813	183.611	188.806	431.296	359.758	210.287	382.288	450.527	378.226	196.452	290.464	479.349	192.504	501.672	373.203	338.957	471.314	0.0011747	0.00052534	0.00010038	1048.8	1.1594e-05	4.7935e-06	1314.8	301.15	1.6104e-05	4.6362e-06	423.21	121.39	83.375	27.591	9.3733e-06	42.451	0.0009093	0.0014738	0.00029838	813.05	1.1064e-05	1.1705e-05	1021.8	235.24	1.0791e-05	1.1507e-05	330	94.454	64.873	21.796	1.1681e-05	33.644	368.556	397.588	243.407	177.655	301.096	346.764	176.673	182.888	318.679	356.095	180.940	185.394	187.218	193.378	297.900	189.425	-8191	255	
18458.635	1	1	0	0	0.16508	0.16936	0.051014	0.29169	0.11009	0.10674	0.31817	0.13844	0.15849	0.23706	0.39659	0.095872	0.18049	0.081914	0.13207	0.12145	-2.2438	-3.0458	-2.5604	-2.8854	-2.9646	-2.6979	-3.0417	-3.1417	-2.6979	-2.9625	-2.6417	-2.8	-2.9917	-2.8146	-3.1292	-3.1292	413.467	383.812	401.352	477.656	524.292	378.041	503.841	516.431	477.669	211.867	420.185	448.538	483.598	226.460	447.317	347.796	0.0011251	0.00030684	0.00016568	1039.1	3.0757e-06	9.1542e-06	1295.9	299.21	2.8058e-06	3.1947e-06	420.03	118.76	82.161	27.445	1.2955e-06	42.286	0.000931	0.0012584	0.00030993	804.25	1.1073e-05	1.1055e-05	1006	232.77	1.0859e-05	1.1924e-05	327.18	93.089	64.321	21.652	1.0615e-05	33.326	367.582	227.713	303.361	177.732	255.685	357.581	176.873	182.878	340.283	476.775	181.018	185.657	187.662	193.081	204.860	188.772	-8191	255	
18458.752	1	1	0	0	0.26984	0.10545	0.21125	0.12733	0.21846	0.2405	0.16812	0.34677	0.085413	0.22587	0.24429	0.1905	0.16144	0.21157	0.17701	0.18418	-2.2562	-3.0187	-2.7521	-2.7333	-3.0979	-2.7708	-3.0625	-3.1375	-2.6583	-2.8625	-3.1521	-3.0229	-3.1771	-2.7125	-2.8896	-3.1479	472.658	437.833	437.547	509.789	403.379	431.405	469.501	511.226	456.200	264.242	489.055	416.929	312.402	219.862	312.168	166.420	0.0011541	0.00046412	0.00019592	1034.5	7.9633e-06	1.1677e-05	1297.1	297.65	1.243e-05	8.9048e-06	419.28	120.21	82.067	27.607	8.1282e-06	42.048	0.00089608	0.0011086	0.00038016	803.05	1.1808e-05	1.1792e-05	1008.6	232.14	1.0654e-05	1.1788e-05	326.65	93.674	64.337	21.638	1.1017e-05	33.2	362.802	515.942	216.619	178.207	267.374	321.243	176.630	183.076	282.540	269.877	181.134	185.502	187.466	193.085	321.378	189.400	-8191	255	
18458.850	1	1	0	0	0.094463	0.1866	0.045965	0.26839	0.11331	0.08665	0.11857	0.065045	0.13173	0.27778	0.23233	0.22393	0.28197	0.073664	0.16301	0.11522	-2.3396	-2.9521	-2.8812	-2.8646	-2.9875	-2.8063	-3.2375	-3.1979	-2.6583	-2.9458	-2.9833	-2.7875	-3.1208	-2.8104	-2.9646	-3.1479	451.274	395.698	186.606	492.711	315.494	193.188	455.222	458.253	496.146	256.569	460.376	166.467	523.472	491.323	365.607	295.436	0.0011216	0.00045168	0.00025825	1037.7	9.1315e-06	4.9048e-06	1312.3	303.6	1.4618e-05	1.0164e-05	428.57	123.23	82.393	27.406	7.678e-06	42.814	0.00088928	0.0010776	0.00039067	807.99	1.0969e-05	1.159e-05	1019	236.26	1.0404e-05	1.2085e-05	329.88	95.151	64.872	21.777	1.1125e-05	33.806	360.009	433.257	222.276	177.803	289.029	325.352	176.850	183.151	335.821	314.349	181.112	185.186	187.440	192.883	308.410	189.506	-8191	255	
18458.945	1	1	0	0	0.24511	0.3333	0.19906	0.21073	0.11194	0.28868	0.27757	0.36661	0.14977	0.17779	0.10792	0.28732	0.2529	0.26189	0.18588	0.10456	-2.4479	-2.8958	-2.9458	-2.6083	-3.025	-2.8854	-2.9562	-3.2292	-2.6708	-2.9833	-2.8479	-2.7708	-2.9854	-2.9271	-2.7562	-3.0875	412.426	215.387	381.053	457.048	427.150	355.188	432.274	522.578	399.577	185.455	199.802	171.326	183.453	225.688	369.679	372.562	0.0012266	0.00082448	0.00013286	1045.2	5.7435e-06	8.5402e-06	1316.4	305.54	8.1926e-06	4.9517e-06	421.78	122.42	83.425	27.819	5.0624e-06	42.789	0.00088838	0.0010583	0.00038475	810.75	1.0803e-05	1.2433e-05	1018.6	236.92	1.1182e-05	1.2333e-05	331.02	95.21	65.006	21.958	1.101e-05	33.762	361.617	239.338	244.533	177.900	329.350	299.494	177.191	182.804	283.171	313.258	180.996	185.487	187.667	192.533	260.958	189.439	-8191	255	
18459.041	1	1	0	0	0.14155	0.23876	0.067798	0.2204	0.16986	0.1619	0.44996	0.18771	0.069526	0.11037	0.082302	0.14428	0.22893	0.1126	0.071077	0.29143	-2.3042	-2.9021	-2.9208	-2.6854	-3.0792	-2.6458	-2.9542	-3.1333	-2.6396	-2.675	-3.1979	-2.7854	-2.9562	-2.9896	-2.6708	-3.1917	437.952	230.402	485.069	479.533	509.211	233.322	461.980	460.360	419.175	494.770	217.959	246.799	487.767	181.855	180.979	169.524	0.0011687	0.00046989	8.2155e-05	1049.3	8.5844e-06	1.2376e-05	1301.6	303.21	2.4524e-06	5.7024e-06	423.33	120.33	82.784	27.57	6.9393e-06	42.777	0.00092707	0.0010886	0.00037833	811.13	1.0682e-05	1.1751e-05	1016.7	235.92	1.0426e-05	1.2187e-05	328.49	94.125	64.792	21.944	1.0445e-05	33.662	365.100	187.150	501.727	178.012	235.016	319.743	176.714	183.278	205.514	296.985	180.890	185.311	187.932	192.930	328.800	189.431	-8191	255	
18459.137	1	1	0	0	0.081102	0.17291	0.30124	0.19196	0.29269	0.1388	0.18861	0.23216	0.036899	0.076506	0.15837	0.10195	0.032763	0.16886	0.060801	0.36595	-2.3292	-2.7854	-2.9813	-2.9333	-2.7687	-2.9333	-2.7229	-3.0708	-2.7542	-2.8583	-3.0896	-2.7625	-2.8771	-2.9583	-2.6542	-3.0479	179.044	372.681	447.858	521.833	379.572	464.358	462.277	171.712	516.534	386.659	479.614	466.441	398.920	173.271	434.266	395.149	0.00097058	0.00039796	0.00011015	1041.5	4.4252e-06	5.5666e-06	1303.5	302.09	1.1979e-05	5.1223e-06	420.14	119.66	83.885	27.534	7.8053e-06	42.889	0.0009203	0.0010235	0.00040847	807.06	1.0977e-05	1.1741e-05	1013.6	235.24	1.1859e-05	1.1369e-05	328.76	94.059	65.156	21.959	1.0737e-05	33.679	354.587	187.302	283.994	177.928	270.714	259.502	176.773	183.329	400.045	348.973	180.251	185.683	188.026	192.925	295.984	189.475	-8191	255	
18459.232	1	1	0	0	0.16458	0.12632	0.091554	0.17612	0.18581	0.10143	0.24095	0.31985	0.12949	0.06576	0.26435	0.43924	0.25398	0.24667	0.12696	0.073024	-2.2167	-2.8688	-2.9833	-2.7417	-2.9333	-2.7729	-3.0312	-3.1562	-3.1	-2.9479	-3.3042	-2.6292	-3.0583	-2.9771	-2.7771	-3.225	191.999	438.760	496.796	487.202	411.405	498.142	456.666	468.375	444.460	460.938	498.518	511.409	481.910	467.802	408.895	454.937	0.0010861	0.00063826	0.00013952	1040.8	6.8942e-06	4.0208e-06	1308.3	302.92	1.4486e-05	1.9095e-06	425.29	122.32	84.197	27.816	5.4842e-06	42.994	0.00088532	0.0010535	0.0003681	807.64	1.1049e-05	1.1226e-05	1017.3	236.07	1.3806e-05	1.1603e-05	330.41	95.376	65.377	22.103	1.0902e-05	33.952	357.810	254.333	231.273	178.058	358.176	396.536	176.999	183.329	312.411	358.545	180.882	185.215	187.617	192.858	393.297	189.701	-8191	255	
18459.328	1	1	0	0	0.10203	0.21089	0.26997	0.0067281	0.090513	0.17223	0.30925	0.30446	0.40571	0.019714	0.23838	0.10314	0.14292	0.38037	0.015755	0.18062	-2.4354	-2.8521	-2.8625	-2.8875	-2.8688	-3.0021	-2.8167	-3.175	-2.7583	-2.6792	-3.2375	-2.9188	-2.9437	-2.8729	-2.6583	-3.0229	425.694	207.532	319.931	371.347	427.635	362.262	461.504	518.149	514.164	320.434	480.849	469.965	186.728	514.251	513.893	249.951	0.001162	0.00053273	0.00014068	1033.5	5.6071e-06	6.5263e-06	1302.4	302.73	1.7426e-05	1.2552e-05	425.09	122.49	83.487	27.876	5.7321e-06	42.26	0.00091807	0.00098713	0.00041716	802.37	1.1082e-05	1.2194e-05	1017	236.09	1.3895e-05	1.1876e-05	332.24	95.314	65.247	22.125	1.1084e-05	33.591	366.875	261.299	327.141	177.966	239.577	300.628	176.920	182.765	311.663	292.459	180.908	185.359	187.708	193.137	354.424	189.501	-8191	255	
18459.426	1	1	0	0	0.1764	0.076052	0.22614	0.15849	0.089253	0.040622	0.12434	0.19294	0.29239	0.18556	0.19592	0.028564	0.079541	0.24475	0.16033	0.14164	-2.4062	-2.7875	-3.1562	-2.6688	-2.8167	-2.9688	-2.7521	-3.0771	-2.7938	-2.7604	-3.0271	-2.7938	-2.9542	-3.1917	-2.6208	-3.0417	370.919	214.615	324.777	493.223	497.588	374.906	432.618	252.546	290.385	172.156	425.538	524.734	411.208	503.629	263.998	414.963	0.00093149	0.00047292	6.9913e-05	1061	3.5005e-06	4.5902e-06	1309.6	303.81	1.131e-05	4.4703e-06	423.99	121.47	83.856	28.004	3.6928e-06	43.019	0.00090625	0.0010111	0.00036268	815.79	1.0964e-05	1.1814e-05	1013.7	235.67	1.3492e-05	1.256e-05	330.4	95.254	65.294	22.082	1.131e-05	33.744	355.346	227.850	341.102	177.685	293.855	347.413	176.505	183.252	309.486	303.686	180.909	185.307	187.870	192.955	347.401	189.253	-8191	255	
18459.545	1	1	0	0	0.027999	0.21032	0.2736	0.24107	0.029021	0.27215	0.4404	0.1938	0.24072	0.17598	0.10822	0.36939	0.16672	0.2046	0.13705	0.13921	-2.3021	-2.5292	-2.8521	-2.8146	-2.8375	-3.2042	-2.9042	-3.0875	-3.0396	-2.6479	-3.1375	-3.0167	-2.7729	-3.0792	-2.8542	-3.175	364.103	174.664	386.281	403.578	264.441	191.081	505.005	468.760	195.834	346.490	168.405	168.221	521.862	512.187	202.771	235.936	0.0011544	0.00029363	0.00026076	1038.6	6.809e-06	5.2097e-06	1310.4	301.56	5.6031e-06	3.4529e-06	421.68	119.99	83.606	27.951	4.4206e-06	42.115	0.00090394	0.0010681	0.00031108	806.57	1.0694e-05	1.1599e-05	1014.4	234.77	1.4178e-05	1.212e-05	329.17	94.448	65.105	22.08	1.1387e-05	33.385	358.285	500.858	250.090	177.754	288.826	330.119	176.962	183.406	302.138	165.680	180.869	185.477	187.210	193.050	218.971	188.812	-8191	255	
18459.641	1	1	0	0	0.033805	0.30793	0.092059	0.25716	0.1198	0.044932	0.18118	0.14229	0.18194	0.18006	0.16377	0.20697	0.20642	0.016529	0.22439	0.29494	-2.5375	-2.6458	-2.8563	-2.9396	-2.7667	-2.9542	-2.8063	-3.1021	-3.0792	-2.7021	-3.0812	-2.9562	-2.8958	-2.9833	-2.7083	-2.8458	183.015	422.836	306.853	471.160	239.002	266.060	444.701	189.897	490.469	246.906	487.065	507.959	489.056	515.140	468.375	221.827	0.0011257	0.00094613	0.00028506	1043.9	8.2486e-06	6.1413e-06	1300.6	302.01	1.8355e-05	1.1484e-05	423.17	121.75	83.89	27.729	7.519e-06	42.661	0.00092993	0.0010493	0.00029841	807.22	1.1098e-05	1.2252e-05	1012.6	235.43	1.4096e-05	1.2372e-05	330.13	94.718	65.394	22.02	1.2229e-05	33.728	360.219	251.162	255.392	177.750	267.944	316.486	177.137	182.835	297.894	328.273	181.095	185.143	187.433	193.274	368.605	189.304	-8191	255	
18459.715	1	1	0	0	0.2078	0.19548	0.15553	0.16932	0.17149	0.14458	0.26357	0.12268	0.034759	0.042751	0.24759	0.31584	0.094485	0.165	0.076041	0.21338	-2.4437	-2.7667	-3.025	-2.925	-2.5938	-2.9854	-3.075	-2.8667	-3.0062	-2.8229	-3.0187	-2.8958	-2.8667	-3.0208	-2.7042	-2.9292	230.880	302.332	345.277	190.575	337.876	469.979	505.535	174.334	499.925	241.655	217.523	265.125	211.994	462.217	246.593	499.167	0.0012896	0.0010487	0.00018414	1047.5	9.6487e-06	1.0581e-05	1312.1	300.05	2.6458e-05	2.7882e-06	423.49	123.07	83.864	27.935	8.5805e-06	42.914	0.00090955	0.0011121	0.00029779	808.63	1.1166e-05	1.2527e-05	1013.7	234.04	1.3589e-05	1.2999e-05	329.92	95.39	65.141	22.098	1.4615e-05	33.762	365.872	253.019	270.462	177.869	289.850	318.579	176.803	182.926	282.799	370.414	180.911	185.547	187.207	193.313	324.398	189.680	-8191	255	
18459.832	1	1	0	0	0.28303	0.20424	0.26649	0.18672	0.020881	0.076005	0.37279	0.14936	0.058435	0.093441	0.1087	0.19866	0.13656	0.28175	0.03923	0.13632	-2.5646	-2.6125	-3.1292	-2.9625	-2.5979	-3.075	-2.8958	-2.7896	-3.1125	-2.7521	-2.9667	-2.8542	-2.8375	-3.0146	-2.8542	-2.8875	448.851	247.157	264.460	403.846	450.555	456.898	480.200	489.372	468.019	325.880	167.384	410.443	398.338	331.665	199.444	521.622	0.001081	0.00017016	0.00020105	1044.7	9.5763e-06	7.7722e-06	1309	302.78	2.4719e-05	5.9299e-06	419.03	120.73	82.646	27.741	5.8284e-06	41.8	0.00094907	0.0011022	0.00030688	809.09	1.1518e-05	1.215e-05	1011	234.96	1.5207e-05	1.2161e-05	326.59	93.832	64.611	21.934	1.4248e-05	33.159	360.878	419.566	235.187	177.970	278.061	286.669	176.887	183.695	292.993	288.366	180.621	185.542	187.664	193.544	307.702	189.663	-8191	255	
18459.930	1	1	0	0	0.098314	0.035678	0.22086	0.2248	0.068978	0.049879	0.35763	0.23776	0.10111	0.12742	0.2364	0.15283	0.12057	0.2524	0.15971	0.37924	-2.6521	-2.6333	-2.8021	-2.9188	-2.6542	-3.075	-2.9979	-2.7062	-2.9813	-2.6188	-2.8771	-3.1312	-2.7229	-3.1104	-2.8896	-2.6771	205.338	370.368	430.073	176.269	278.388	340.912	496.588	187.599	351.420	283.818	176.812	169.163	458.253	519.499	165.253	390.406	0.0010939	0.00057659	0.00016729	1041	1.2251e-05	1.1115e-05	1295.5	300.55	7.3489e-06	8.297e-06	418.43	119.42	81.254	27.298	1.2135e-05	41.627	0.00095641	0.0011132	0.00028464	805.16	1.1476e-05	1.2349e-05	1003.6	233.2	1.2738e-05	1.4096e-05	325.66	93.344	64.061	21.725	1.4837e-05	33.01	348.341	252.374	287.452	178.106	336.358	285.000	176.922	182.881	338.955	270.816	181.091	185.196	187.568	193.234	389.568	189.739	-8191	255	
18460.025	1	1	0	0	0.2511	0.086843	0.075308	0.14843	0.21549	0.10619	0.5559	0.21104	0.19205	0.24026	0.12786	0.23803	0.24763	0.055978	0.19371	0.21829	-2.5521	-2.4813	-2.7771	-2.9604	-2.7208	-2.8396	-2.9167	-2.6354	-3.0438	-2.7792	-2.8688	-3.1021	-2.6625	-2.9479	-2.8792	-2.8187	431.492	357.089	265.808	475.292	202.967	429.770	510.238	465.292	198.956	515.380	483.877	488.930	513.906	202.266	369.112	468.350	0.00087219	0.0014431	0.00025333	1035	6.457e-06	3.6076e-06	1284.8	298.12	1.4505e-05	5.8742e-06	419.29	119.69	81.991	27.725	4.0437e-06	41.973	0.00093031	0.0010543	0.00029764	800.45	1.1007e-05	1.2519e-05	998.72	231.65	1.0506e-05	1.6412e-05	326.61	93.584	64.354	21.868	1.407e-05	33.252	369.937	217.022	270.373	177.499	346.032	323.045	177.020	182.931	283.325	324.018	180.894	185.683	187.216	192.952	340.474	189.621	-8191	255	
18460.121	1	1	0	0	0.13021	0.077913	0.2115	0.18406	0.20452	0.18107	0.26352	0.25125	0.16476	0.27376	0.28282	0.1604	0.20808	0.12234	0.11353	0.29601	-2.5958	-2.6021	-2.8646	-3.0625	-2.7604	-2.7917	-3.0875	-2.8458	-3.1146	-2.9813	-2.8854	-3.1708	-2.7792	-2.9042	-3.0292	-2.7917	177.053	202.228	503.399	516.005	280.647	477.151	481.995	511.660	252.053	475.978	457.219	506.872	214.437	185.702	203.527	512.522	0.0010608	0.00086527	0.00021822	1034	4.1246e-06	4.0799e-06	1304.9	301.11	7.1706e-06	1.5998e-05	416.32	121.05	81.768	27.463	2.1094e-06	42.281	0.00092586	0.0011149	0.00030466	801.81	1.1119e-05	1.1427e-05	1005.9	233.98	1.1422e-05	1.6005e-05	326.33	94.089	64.244	21.854	1.5449e-05	33.389	369.288	316.666	256.240	178.209	341.039	196.962	177.009	182.863	320.164	340.958	180.781	185.257	187.720	193.177	409.854	188.943	-8191	255	
18460.242	1	1	0	0	0.12889	0.18814	0.15687	0.099363	0.082793	0.15728	0.32751	0.16836	0.18217	0.042151	0.33668	0.22376	0.11943	0.19455	0.12777	0.13794	-2.6458	-2.6854	-2.5667	-3.175	-2.8021	-2.9188	-3.1125	-2.9375	-2.9729	-3.0208	-2.7938	-3.0979	-2.7438	-2.7729	-3.1146	-2.8917	485.712	375.717	500.835	417.102	514.996	318.771	458.122	458.166	501.410	335.800	409.321	319.765	375.307	202.719	303.363	426.192	0.0011426	0.0010995	0.00022061	1042.1	1.0647e-05	8.5051e-06	1293.9	301.1	1.2052e-05	4.0098e-06	420.28	120.18	81.811	27.993	6.1029e-06	42.25	0.00090595	0.0010752	0.0003021	804.43	1.2789e-05	1.2339e-05	1004.2	234.24	1.1225e-05	1.6199e-05	328.42	93.684	64.302	21.952	1.4072e-05	33.381	358.027	273.585	314.947	177.983	302.609	322.473	176.697	182.995	287.521	275.659	180.240	185.461	187.371	193.158	401.936	189.529	-8191	255	
18460.336	1	1	0	0	0.094989	0.26838	0.27828	0.088347	0.22217	0.18602	0.094491	0.11538	0.13812	0.10764	0.2082	0.38572	0.18361	0.33905	0.11776	0.18941	-2.4771	-2.9354	-2.6688	-3.1	-2.8271	-2.7188	-3.1667	-2.7729	-2.9708	-3.0667	-2.7771	-2.8542	-2.925	-2.7583	-2.9437	-2.9437	288.887	451.782	207.856	200.002	432.074	275.669	323.881	191.035	398.408	408.265	495.582	408.886	459.417	497.582	201.320	501.246	0.0010325	0.00096617	0.00011476	1042	1.2826e-05	4.2864e-06	1292.3	300.66	4.7332e-06	1.1156e-05	424.13	119.74	82.467	27.713	8.8188e-06	41.96	0.00093793	0.0011124	0.00029841	805.18	1.5554e-05	1.2595e-05	1003	234.35	1.1183e-05	1.5653e-05	327.84	93.618	64.817	21.904	1.4677e-05	33.327	367.122	302.687	222.411	178.207	270.953	337.138	176.519	183.411	302.031	305.441	180.805	185.125	187.987	193.136	295.768	189.578	-8191	255	
18460.434	1	1	0	0	0.10485	0.17479	0.14742	0.21519	0.11839	0.16513	0.1057	0.36645	0.13073	0.04386	0.12044	0.23639	0.17856	0.053591	0.014263	0.091662	-2.5687	-2.9	-2.7313	-3.0479	-2.7687	-2.8	-3.0812	-2.8458	-2.9375	-2.9771	-2.8271	-3.0479	-2.8229	-2.8688	-3.1063	-2.7188	354.696	431.390	185.157	405.635	213.161	375.453	349.122	428.739	505.433	399.861	450.563	508.549	513.135	439.503	362.646	217.655	0.0010115	0.00087504	0.00029675	1035.2	5.7862e-06	8.7416e-06	1297.7	302.55	4.8258e-06	4.7457e-06	418.73	120.87	83.493	28.025	2.0313e-06	43.31	0.00094189	0.0010779	0.00031255	803.95	1.4163e-05	1.2809e-05	1006.2	235.24	1.1368e-05	1.6471e-05	327.69	94.376	65.117	22.193	1.3114e-05	33.825	361.697	242.488	249.095	178.346	185.183	307.055	176.840	183.193	352.548	285.707	180.524	185.991	187.540	192.321	300.302	189.191	-8191	255	
18460.529	1	1	0	0	0.15597	0.043017	0.17691	0.11366	0.13767	0.12909	0.14843	0.28246	0.18521	0.079399	0.093284	0.078024	0.051233	0.21114	0.055949	0.21284	-2.4646	-2.9792	-2.6958	-3.0479	-2.6917	-2.7313	-3.0938	-2.8083	-2.8458	-3.0792	-2.775	-3.0229	-2.9146	-2.7917	-2.9917	-2.8688	296.990	506.921	347.505	461.456	439.158	358.142	487.248	493.025	508.093	208.559	295.120	196.084	476.773	524.447	452.384	424.493	0.0011882	0.00072689	9.9711e-05	1042.5	1.1088e-05	5.5909e-06	1304	303.65	6.6566e-06	1.2562e-05	424.2	122.42	83.291	28.536	4.138e-06	42.885	0.00090661	0.0010826	0.00031805	807.8	1.4913e-05	1.1674e-05	1011.9	236.79	1.1362e-05	1.5567e-05	331	94.742	65.329	22.336	1.1813e-05	33.986	367.340	227.427	291.396	178.061	292.363	295.221	177.234	182.956	311.493	319.922	180.856	185.540	187.657	193.560	325.144	188.741	-8191	255	
18460.625	1	1	0	0	0.2652	0.11834	0.16742	0.080579	0.25137	0.14457	0.17629	0.1781	0.17355	0.19782	0.47322	0.20735	0.17605	0.30565	0.2253	0.04254	-2.4625	-3.0208	-2.5833	-2.9708	-2.8438	-2.6688	-3.2771	-3.0521	-2.8771	-3.0875	-2.8417	-3.0125	-3.2417	-2.7667	-3.0708	-2.9979	481.623	465.603	478.376	181.269	192.255	423.059	460.025	501.577	487.304	502.962	380.790	484.536	477.197	194.461	459.573	443.891	0.0011369	0.00067358	0.00014737	1046.9	1.1289e-05	3.6044e-06	1303.4	300.71	9.8659e-06	5.2736e-06	421.48	119.38	83.98	27.9	1.1926e-06	42.536	0.00096856	0.0011292	0.00033218	810.88	1.4683e-05	1.199e-05	1011.7	234.92	1.1501e-05	1.623e-05	329.36	93.843	65.019	22.043	1.2541e-05	33.657	357.920	276.122	295.230	178.360	305.624	290.143	177.238	183.124	348.658	318.421	181.075	184.925	188.028	193.026	333.264	189.672	-8191	255	
18460.721	1	1	0	0	0.16407	0.1819	0.13112	0.12547	0.18246	0.15217	0.28556	0.11104	0.14985	0.3314	0.22208	0.17044	0.29118	0.27294	0.21566	0.26795	-2.4604	-3.0417	-2.5104	-3.1875	-2.9229	-2.7292	-3.3229	-3.1604	-2.8875	-3.1	-2.9083	-2.8937	-2.8354	-2.6813	-3.0146	-2.8458	305.307	311.934	362.810	521.599	420.805	463.189	508.348	487.356	335.574	277.576	385.484	205.856	487.014	174.295	185.245	441.251	0.00074431	0.00061713	0.0002402	1026	1.4381e-05	1.1901e-06	1278.2	298.58	1.4686e-05	6.5703e-06	415.27	119.06	81.745	27.479	3.3602e-06	41.82	0.00093842	0.0010869	0.00031911	797.07	1.499e-05	1.2101e-05	993.65	231.57	1.1425e-05	1.2533e-05	324.2	92.554	64.071	21.741	1.1726e-05	33.128	356.743	297.327	214.126	177.711	336.434	265.383	176.704	183.124	318.596	265.634	180.530	184.685	188.317	193.249	347.509	189.354	-8191	255	
18460.842	1	1	0	0	0.036149	0.072433	0.083419	0.17833	0.23921	0.37313	0.1308	0.34803	0.063983	0.12277	0.19845	0.10988	0.16105	0.23911	0.064438	0.14912	-2.4333	-2.9042	-2.9875	-3.0396	-3.0583	-2.6042	-3.2979	-3.0438	-2.7771	-2.9583	-2.9521	-2.975	-3.1729	-2.6937	-3.075	-3.0104	206.749	462.519	488.977	522.409	318.030	319.585	515.307	501.973	336.224	216.989	441.639	216.496	333.016	497.126	240.253	488.172	0.0011339	0.00055976	0.00023551	1024.6	4.1074e-06	5.4273e-06	1274.5	296.27	1.0616e-05	4.8949e-06	414.9	118.51	82.214	27.156	1.3099e-05	41.669	0.00092091	0.0010746	0.00032308	795.91	1.3977e-05	1.2164e-05	987.86	230.68	1.0649e-05	1.1786e-05	324.01	92.3	63.941	21.473	1.0485e-05	32.99	363.810	269.596	286.535	178.020	324.195	290.723	176.641	183.166	368.575	332.488	181.187	185.127	188.434	193.527	326.221	189.360	-8191	255	
18460.938	1	1	0	0	0.31726	0.08599	0.27059	0.087254	0.17914	0.14223	0.1268	0.12602	0.095105	0.20655	0.1986	0.053733	0.28276	0.13842	0.11334	0.077146	-2.2729	-2.9896	-2.9208	-3.0021	-3.0146	-2.7333	-2.8396	-3.0104	-2.9042	-2.9521	-2.8333	-2.7042	-3.2979	-2.8042	-2.9104	-2.9958	258.003	378.485	280.882	409.125	181.481	386.523	521.472	455.975	519.104	412.008	443.675	429.823	469.976	422.380	509.913	290.737	0.0010868	0.0006377	0.00016179	1019.5	2.8308e-06	1.8675e-06	1266	295.06	7.2331e-06	7.2051e-06	412.27	118.88	81.466	27.436	8.744e-06	41.883	0.0008232	0.00094295	0.00026861	787.65	1.3268e-05	1.0299e-05	983.48	229.47	8.9258e-06	9.472e-06	322.84	92.224	63.419	21.593	9.9129e-06	33.089	353.127	278.452	270.409	178.156	276.618	332.156	176.696	182.970	342.792	424.677	180.692	185.929	187.688	193.076	319.781	189.140	-8191	255	
18461.010	1	1	0	0	0.16433	0.15238	0.24332	0.25777	0.063138	0.085024	0.21518	0.15508	0.26241	0.1718	0.066884	0.23301	0.1282	0.28162	0.091263	0.1325	-2.4646	-3.0104	-2.7521	-2.8417	-3.0125	-2.6562	-2.8771	-2.8917	-2.6396	-3.0021	-2.9271	-2.8708	-3.0479	-2.75	-3.0583	-3.0167	269.116	322.773	392.763	178.587	444.961	481.879	443.342	308.950	294.316	451.073	311.271	483.957	463.203	416.699	253.937	500.466	0.0010371	0.00041353	9.5954e-05	1011.1	1.2138e-05	1.4203e-05	1274.3	296.88	3.8582e-06	8.418e-06	415.65	119.93	81.003	27.252	9.9728e-06	41.544	0.00077409	0.00092426	0.0002521	786.24	1.0714e-05	1.212e-05	989.44	229.39	9.803e-06	9.5383e-06	324.52	92.489	63.23	21.554	1.0331e-05	32.868	350.425	272.343	288.220	178.283	300.621	283.192	176.956	183.576	417.743	338.669	180.815	185.360	187.542	192.536	334.005	189.063	-8191	255	
18461.105	1	1	0	0	0.035745	0.09931	0.126	0.2721	0.090124	0.2012	0.1769	0.57363	0.16959	0.1334	0.23266	0.21201	0.049312	0.34179	0.28974	0.096569	-2.3854	-2.9333	-2.7729	-3.0125	-2.9229	-2.9042	-3.0187	-3.1292	-2.5833	-3.0354	-3.0479	-2.8625	-3.1458	-2.7896	-2.925	-3.1958	500.139	239.369	211.113	501.529	309.502	462.417	498.349	463.839	199.399	207.118	505.617	451.844	393.175	172.133	407.210	353.787	0.0011123	0.0004159	0.00017033	1019	3.9818e-06	6.2002e-06	1270.6	294.21	1.7171e-06	3.7086e-06	413.54	117.34	81.027	27.351	7.3026e-06	41.571	0.00083783	0.00098816	0.00028254	787.48	9.9733e-06	1.4763e-05	983.79	228.95	1.0016e-05	1.115e-05	320.95	92.009	63.368	21.426	1.0703e-05	32.851	352.921	500.833	252.470	177.623	386.199	271.513	176.497	182.977	270.972	343.408	180.193	185.346	188.035	193.421	292.523	188.489	-8191	255	
18461.227	1	1	0	0	0.067618	0.031306	0.24639	0.18606	0.14322	0.18866	0.40846	0.32573	0.05021	0.31943	0.29283	0.22894	0.22995	0.19158	0.021711	0.16065	-2.2979	-2.9792	-2.8625	-2.6042	-3.1229	-3.0042	-2.8812	-2.9542	-2.8146	-2.8354	-2.8458	-2.7146	-3	-2.8	-2.8792	-3.0354	194.163	482.429	513.604	167.822	338.793	264.062	446.644	474.887	459.130	391.881	461.931	189.199	491.047	499.520	268.516	434.408	0.00093785	0.0010413	2.7967e-05	1009.8	5.2286e-06	6.1555e-06	1260.8	295.13	6.7537e-06	7.6173e-06	410.3	118.15	80.846	27.324	1.146e-05	41.688	0.00087977	0.00097324	0.00028185	786.23	9.8551e-06	1.4823e-05	979.07	229.65	9.6964e-06	1.0959e-05	322.13	91.812	63.287	21.573	1.0015e-05	32.774	346.495	296.110	428.328	177.960	316.364	354.416	176.416	182.812	288.678	259.641	180.406	185.807	188.534	193.684	288.064	189.047	-8191	255	
18461.322	1	1	0	0	0.12916	0.14101	0.072449	0.11338	0.1676	0.15536	0.34512	0.16074	0.28973	0.39285	0.17325	0.18009	0.30236	0.15811	0.079001	0.088806	-2.2729	-2.7687	-2.9125	-2.7646	-3.0458	-2.95	-2.9167	-3.1458	-2.7667	-3.0521	-3.0687	-2.7333	-2.9958	-2.7958	-2.7833	-3.1271	372.181	339.591	175.941	435.542	524.599	495.215	480.470	461.162	362.112	246.770	199.882	512.757	490.414	406.708	324.860	379.323	0.00099514	0.0005507	0.00012239	1015	9.761e-06	4.4527e-06	1277.1	295.85	9.943e-06	2.3469e-06	412.02	118.32	82.771	27.631	2.0946e-06	41.35	0.00093639	0.00089198	0.00025155	786.28	9.6624e-06	1.4098e-05	987.16	229.38	9.4891e-06	9.8136e-06	322.21	92.299	64.061	21.813	9.9303e-06	32.936	352.601	279.457	278.084	177.731	298.574	374.717	177.269	183.166	307.309	435.743	180.991	185.171	188.158	192.775	187.324	189.070	-8191	255	
18461.418	1	1	0	0	0.21533	0.19697	0.24075	0.082809	0.13655	0.07957	0.14744	0.11569	0.1779	0.11991	0.061202	0.30942	0.10563	0.14074	0.22843	0.18028	-2.3604	-2.8583	-2.8937	-2.8208	-3.0708	-2.9083	-2.9188	-3.0333	-2.75	-2.9188	-3.2896	-2.8625	-2.9417	-2.9458	-2.7812	-3.1271	483.112	255.685	511.101	351.329	259.782	346.888	430.811	439.420	407.595	188.950	209.154	486.882	488.803	280.551	240.015	211.532	0.0013579	0.00062332	8.1552e-05	1017.3	3.8668e-06	6.5768e-06	1272	298.83	1.0998e-05	7.3113e-06	416.52	118.46	81.812	27.428	5.0403e-06	42.395	0.0010067	0.00094341	0.00025416	788.95	9.4273e-06	1.3217e-05	987.79	230.8	9.7733e-06	1.0479e-05	324.47	92.995	64.062	21.835	9.6008e-06	33.376	365.293	212.581	211.410	177.781	335.672	297.992	177.051	182.539	338.320	285.661	181.097	185.696	188.015	192.849	357.844	189.444	-8191	255	
18461.516	1	1	0	0	0.22352	0.10887	0.18805	0.17657	0.16809	0.28742	0.24631	0.17441	0.10954	0.21596	0.55839	0.54812	0.1806	0.21461	0.17307	0.30137	-2.5062	-2.7646	-3.0438	-2.9208	-2.9437	-3.1188	-2.8167	-3.3312	-2.8937	-2.7667	-3.0208	-3.0208	-2.9083	-2.95	-2.7896	-3.1188	276.109	499.202	342.978	194.312	233.894	212.472	524.092	481.716	501.325	519.500	471.680	482.540	447.939	478.358	276.162	390.905	0.0011226	0.00073566	0.00022232	1017	6.5959e-06	1.2853e-05	1273.6	298.73	1.7023e-05	7.925e-06	416.7	117.71	82.288	27.346	6.3191e-06	41.787	0.0010392	0.00094088	0.0002583	788.56	9.7572e-06	1.4213e-05	986.73	231.1	1.0153e-05	1.0493e-05	323.12	92.304	64.028	21.644	1.0074e-05	32.996	354.425	252.176	271.418	178.369	276.853	359.233	176.693	183.237	301.204	278.443	181.022	185.352	187.626	193.660	360.009	189.506	-8191	255	
18461.611	1	1	0	0	0.15032	0.22568	0.18165	0.096642	0.27348	0.10225	0.11456	0.090348	0.22781	0.3653	0.1725	0.25464	0.12564	0.12195	0.29469	0.26741	-2.4708	-2.7333	-3.1063	-2.9437	-2.7958	-2.9021	-2.8937	-3.1125	-2.9271	-2.7396	-3.075	-2.875	-3.0312	-2.8667	-2.8937	-3.0167	433.177	237.116	382.708	482.306	277.896	347.814	421.505	311.805	409.760	263.411	179.208	469.719	170.376	269.915	215.144	510.825	0.001023	0.00069045	0.00010806	1010	3.9867e-06	3.7464e-06	1265.4	293.97	1.6453e-05	6.2228e-06	415.1	118.48	81.701	27.703	1.5554e-06	41.768	0.00099499	0.00096881	0.0002746	785.33	9.6649e-06	1.3645e-05	981.75	229.09	9.1928e-06	1.0706e-05	321.89	92.146	63.434	21.688	9.2347e-06	32.701	359.587	190.567	247.189	177.874	347.201	453.486	176.884	183.372	340.102	300.909	181.464	185.588	187.921	193.466	395.744	189.484	-8191	255	
18461.705	1	1	0	0	0.10559	0.037892	0.11337	0.38082	0.20781	0.14837	0.48391	0.26011	0.043687	0.14931	0.12067	0.37771	0.099959	0.1309	0.031952	0.14982	-2.4021	-2.775	-2.9125	-2.8563	-2.8958	-2.8958	-2.6771	-2.9896	-2.9229	-2.8354	-3	-2.8667	-2.8958	-3.0687	-2.6167	-3.1479	374.666	225.252	426.318	484.616	304.091	465.955	493.982	444.019	341.373	301.654	391.567	183.633	425.431	480.386	278.034	426.143	0.0010658	0.00021711	0.0001839	1009.9	2.0886e-06	1.0607e-05	1257	292.84	1.245e-05	4.8849e-06	411.51	118.83	82.01	27.331	6.4125e-06	41.912	0.00094601	0.00086657	0.00024636	781.47	9.3761e-06	1.2533e-05	978.55	227.97	9.227e-06	9.896e-06	320.29	92.351	63.557	21.653	9.0985e-06	32.985	356.386	277.293	214.388	177.828	326.718	348.819	177.015	183.730	306.277	369.175	180.615	185.623	187.843	192.995	319.029	189.359	-8191	255	
18461.801	1	1	0	0	0.16097	0.05254	0.084022	0.24067	0.062785	0.027623	0.2626	0.13527	0.17473	0.20099	0.19634	0.19714	0.14139	0.18788	0.20241	0.10528	-2.7417	-2.8542	-2.9083	-2.7167	-2.8854	-3.0667	-2.9688	-3.1042	-3.1312	-2.7708	-3.2375	-2.9917	-2.8583	-3.1937	-2.7812	-2.825	218.187	437.359	266.337	450.902	337.313	445.662	475.878	494.983	518.020	430.634	413.429	450.549	439.499	471.161	476.451	425.329	0.0011103	0.00074518	0.00021942	1006.5	3.2351e-06	5.9334e-06	1271.6	295.65	5.2019e-06	7.3578e-06	415.15	119.37	80.548	27.627	8.1552e-06	41.838	0.00094227	0.00091042	0.00023562	784.52	9.4383e-06	1.0432e-05	989.28	229.83	9.2998e-06	1.0335e-05	323.06	93.273	63.431	21.615	9.9677e-06	32.895	362.703	253.725	295.773	178.181	402.146	332.427	176.412	183.238	300.711	258.650	180.852	185.783	187.774	193.110	346.036	189.600	-8191	255	
18461.922	1	1	0	0	0.15803	0.20087	0.2135	0.232	0.16961	0.24256	0.12699	0.031314	0.28514	0.14048	0.33903	0.12822	0.13277	0.072973	0.10734	0.22757	-2.3917	-2.75	-2.8792	-3.0542	-2.9042	-2.9625	-2.9292	-3.0292	-3.0521	-2.7208	-2.9896	-2.8812	-2.6542	-3.0396	-2.85	-2.875	402.245	177.590	213.580	165.414	282.367	337.497	492.926	502.345	454.762	404.994	189.415	417.473	473.879	402.352	324.207	437.013	0.0010417	0.00056363	0.00010639	1019.7	9.7809e-06	4.2179e-06	1276.5	296.02	6.2524e-06	7.3884e-06	414.24	118.58	82.666	26.905	5.4362e-06	41.08	0.0010521	0.0010037	0.00028185	793.3	1.0216e-05	1.1741e-05	997.3	230.76	1.0495e-05	1.225e-05	323.61	92.796	64.264	21.42	1.1005e-05	32.428	360.188	275.770	261.041	177.971	241.351	233.723	176.481	183.101	327.279	276.571	180.856	185.089	187.284	193.824	336.148	189.213	-8191	255	
18462.018	1	1	0	0	0.29633	0.084759	0.20032	0.30844	0.098128	0.078906	0.30132	0.27267	0.21407	0.16021	0.14473	0.1976	0.14932	0.064156	0.20014	0.16256	-2.5896	-2.6375	-2.7917	-2.8833	-2.8937	-2.8979	-3.0292	-2.9521	-3.1146	-2.6271	-3.1479	-3.0042	-2.7042	-3	-2.7812	-2.9417	186.409	255.938	304.248	195.374	193.611	266.680	437.405	457.897	474.673	298.962	479.213	490.727	423.790	449.277	430.359	165.368	0.00090311	0.00053844	0.00015744	1014.6	2.0886e-06	4.578e-06	1273.2	298.18	6.7188e-06	8.6412e-06	416.44	118.16	83.221	27.036	4.2711e-06	41.071	0.0010721	0.0010305	0.0002822	789.46	1.0496e-05	1.1603e-05	992.85	231.26	1.1426e-05	1.1601e-05	323.76	92.336	64.34	21.434	1.0538e-05	32.516	353.948	186.321	280.176	177.806	377.084	170.307	176.666	183.048	367.166	310.170	180.783	185.748	187.650	194.134	250.409	189.042	-8191	255	
18462.113	1	1	0	0	0.25118	0.11254	0.11215	0.19839	0.23325	0.16391	0.30998	0.20073	0.19906	0.086035	0.2973	0.21421	0.066344	0.10979	0.14102	0.10986	-2.5542	-2.6875	-2.8417	-2.8833	-2.6896	-2.9125	-2.8937	-2.8812	-3.2812	-2.8792	-3.0312	-3.0208	-2.8958	-3.025	-2.8187	-2.8375	470.782	303.732	454.952	422.111	477.926	425.888	444.752	424.915	211.883	287.787	459.974	472.171	242.164	429.705	429.001	503.343	0.00097541	0.00073118	0.00022447	1028.3	2.3136e-06	4.78e-06	1287.4	297.96	1.1216e-05	5.7965e-06	415.22	119.24	83.087	27.181	2.0861e-06	41.687	0.00091046	0.0012145	0.00029404	796.31	1.0912e-05	1.1082e-05	1000.6	231.38	9.9079e-06	1.1341e-05	325.74	93.277	64.497	21.533	1.063e-05	32.866	362.154	283.181	286.876	177.724	306.344	359.647	177.248	183.116	333.926	261.126	180.916	184.761	188.103	193.010	252.237	189.583	-8191	255	
18462.234	1	1	0	0	0.12811	0.088489	0.23377	0.10739	0.19947	0.13048	0.37161	0.22678	0.17609	0.085363	0.19477	0.071991	0.18568	0.23909	0.16364	0.2685	-2.5542	-2.8417	-2.9125	-3.0917	-2.7417	-3.1458	-3.0604	-2.7458	-3.2271	-2.8375	-2.9542	-3.0229	-2.7062	-2.9646	-2.8167	-2.6937	349.479	394.984	294.252	319.644	394.934	245.858	485.860	472.631	367.760	261.588	524.592	498.368	291.456	481.779	403.428	489.066	0.0011007	0.0012738	0.00025108	1025.6	9.1893e-06	6.4887e-06	1294.1	300.84	1.5117e-05	6.9365e-06	421.81	120.66	82.549	27.685	7.7876e-06	41.877	0.00082562	0.0013126	0.0002743	795.23	1.1371e-05	1.1054e-05	1004.3	233.28	1.0766e-05	1.136e-05	327.21	94.33	64.643	21.716	1.0512e-05	33.052	365.069	208.394	254.728	178.020	338.292	360.461	177.020	182.794	325.681	284.758	180.725	185.129	187.776	193.068	279.214	189.673	-8191	255	
#DATA ENDS
