BOXY.EXE: ISS Imagent and Oximeter Data Acquisition Program Version 0.80
Ascii Record File

#ACQ INFORMATION
2  Detector Channels 
16  External MUX Channels 
1  Auxiliary Channels 
5000  Waveform (CCF) Frequency (Hz)
1  Waveforms Skipped 
30  Waveforms Averaged 
1  Cycles Averaged 
16  Acquisitions per Waveform 
10.0806  Updata Rate (Hz) 

#FILE INFORMATION
TRUE -- External MUX Channel results are PARSED.
FALSE -- AC DC and Phase are NOT grouped.
TRUE -- Companion Program Settings File CREATED.
FALSE -- AC data not excluded
FALSE -- DC data not excluded
FALSE -- Phase data not excluded
FALSE -- Auxillary Chn. data not excluded
Tab delimiters

#CALIBRATION STATE
TRUE -- Waveform Calibration Values APPLIED.


#AUX CALIBRATION VALUES
Val Type	aux-1	

Term	1.0000e+00	
Factor	0.0000e+00	


#WF CALIBRATION VALUES
A = Detector Channel
Val Type	A-AC1	A-AC2	A-AC3	A-AC4	A-AC5	A-AC6	A-AC7	A-AC8	A-AC9	A-AC10	A-AC11	A-AC12	A-AC13	A-AC14	A-AC15	A-AC16	A-DC1	A-DC2	A-DC3	A-DC4	A-DC5	A-DC6	A-DC7	A-DC8	A-DC9	A-DC10	A-DC11	A-DC12	A-DC13	A-DC14	A-DC15	A-DC16	A-Ph1	A-Ph2	A-Ph3	A-Ph4	A-Ph5	A-Ph6	A-Ph7	A-Ph8	A-Ph9	A-Ph10	A-Ph11	A-Ph12	A-Ph13	A-Ph14	A-Ph15	A-Ph16	

Term	0.00000e+00	0.00000e+00	0.00000e+00	0.00000e+00	0.00000e+00	0.00000e+00	0.00000e+00	0.00000e+00	0.00000e+00	0.00000e+00	0.00000e+00	0.00000e+00	0.00000e+00	0.00000e+00	0.00000e+00	0.00000e+00	0.00000e+00	0.00000e+00	0.00000e+00	0.00000e+00	0.00000e+00	0.00000e+00	0.00000e+00	0.00000e+00	0.00000e+00	0.00000e+00	0.00000e+00	0.00000e+00	0.00000e+00	0.00000e+00	0.00000e+00	0.00000e+00	0.00000e+00	0.00000e+00	0.00000e+00	0.00000e+00	0.00000e+00	0.00000e+00	0.00000e+00	0.00000e+00	0.00000e+00	0.00000e+00	0.00000e+00	0.00000e+00	0.00000e+00	0.00000e+00	0.00000e+00	0.00000e+00	
Factor	1.00000e+00	1.00000e+00	1.00000e+00	1.00000e+00	1.00000e+00	1.00000e+00	1.00000e+00	1.00000e+00	1.00000e+00	1.00000e+00	1.00000e+00	1.00000e+00	1.00000e+00	1.00000e+00	1.00000e+00	1.00000e+00	1.00000e+00	1.00000e+00	1.00000e+00	1.00000e+00	1.00000e+00	1.00000e+00	1.00000e+00	1.00000e+00	1.00000e+00	1.00000e+00	1.00000e+00	1.00000e+00	1.00000e+00	1.00000e+00	1.00000e+00	1.00000e+00	X	X	X	X	X	X	X	X	X	X	X	X	X	X	X	X	

B = Detector Channel
Val Type	B-AC1	B-AC2	B-AC3	B-AC4	B-AC5	B-AC6	B-AC7	B-AC8	B-AC9	B-AC10	B-AC11	B-AC12	B-AC13	B-AC14	B-AC15	B-AC16	B-DC1	B-DC2	B-DC3	B-DC4	B-DC5	B-DC6	B-DC7	B-DC8	B-DC9	B-DC10	B-DC11	B-DC12	B-DC13	B-DC14	B-DC15	B-DC16	B-Ph1	B-Ph2	B-Ph3	B-Ph4	B-Ph5	B-Ph6	B-Ph7	B-Ph8	B-Ph9	B-Ph10	B-Ph11	B-Ph12	B-Ph13	B-Ph14	B-Ph15	B-Ph16	

Term	0.00000e+00	0.00000e+00	0.00000e+00	0.00000e+00	0.00000e+00	0.00000e+00	0.00000e+00	0.00000e+00	0.00000e+00	0.00000e+00	0.00000e+00	0.00000e+00	0.00000e+00	0.00000e+00	0.00000e+00	0.00000e+00	0.00000e+00	0.00000e+00	0.00000e+00	0.00000e+00	0.00000e+00	0.00000e+00	0.00000e+00	0.00000e+00	0.00000e+00	0.00000e+00	0.00000e+00	0.00000e+00	0.00000e+00	0.00000e+00	0.00000e+00	0.00000e+00	-1.62186e+02	-1.31730e+02	-1.27311e+02	-1.82839e+02	-7.22027e+01	-7.27005e+01	-1.55569e+02	-1.62015e+02	-8.76372e+01	-5.40435e+01	-1.72178e+02	-1.69985e+02	-1.81095e+02	-1.77169e+02	-7.66771e+01	-1.49038e+02	
Factor	2.42245e-05	1.56023e-04	3.81428e-05	1.75312e-01	1.40971e-06	1.64037e-06	1.54563e-01	4.71353e-02	1.24050e-06	1.69146e-06	8.91026e-02	2.75073e-02	2.74061e-02	8.82892e-03	1.31004e-06	1.28598e-02	5.15665e-06	6.04778e-06	1.70279e-06	8.69371e-02	6.52167e-08	6.74084e-08	7.23543e-02	2.35215e-02	6.47762e-08	6.74149e-08	4.30885e-02	1.33832e-02	1.37951e-02	4.43508e-03	6.56277e-08	6.27281e-03	X	X	X	X	X	X	X	X	X	X	X	X	X	X	X	X	



#DISTANCE SETTINGS
A = Detector Channel
A-1	A-2	A-3	A-4	A-5	A-6	A-7	A-8	A-9	A-10	A-11	A-12	A-13	A-14	A-15	A-16	

2.5000e+00	3.0000e+00	2.5000e+00	3.0000e+00	2.0000e+00	3.0000e+00	1.5000e+00	3.0000e+00	3.0000e+00	3.0000e+00	3.0000e+00	3.0000e+00	3.0000e+00	3.0000e+00	1.5000e+00	3.0000e+00	

B = Detector Channel
B-1	B-2	B-3	B-4	B-5	B-6	B-7	B-8	B-9	B-10	B-11	B-12	B-13	B-14	B-15	B-16	

1.0000e+01	1.0000e+01	1.0000e+01	1.4400e+00	1.0000e+01	1.0000e+01	1.5100e+00	1.9400e+00	1.0000e+01	1.0000e+01	1.9900e+00	2.4900e+00	2.4100e+00	2.9000e+00	1.0000e+01	2.9800e+00	




#DATA BEGINS
time	group	step	mark	flag	A-AC1	A-AC2	A-AC3	A-AC4	A-AC5	A-AC6	A-AC7	A-AC8	A-AC9	A-AC10	A-AC11	A-AC12	A-AC13	A-AC14	A-AC15	A-AC16	A-DC1	A-DC2	A-DC3	A-DC4	A-DC5	A-DC6	A-DC7	A-DC8	A-DC9	A-DC10	A-DC11	A-DC12	A-DC13	A-DC14	A-DC15	A-DC16	A-Ph1	A-Ph2	A-Ph3	A-Ph4	A-Ph5	A-Ph6	A-Ph7	A-Ph8	A-Ph9	A-Ph10	A-Ph11	A-Ph12	A-Ph13	A-Ph14	A-Ph15	A-Ph16	B-AC1	B-AC2	B-AC3	B-AC4	B-AC5	B-AC6	B-AC7	B-AC8	B-AC9	B-AC10	B-AC11	B-AC12	B-AC13	B-AC14	B-AC15	B-AC16	B-DC1	B-DC2	B-DC3	B-DC4	B-DC5	B-DC6	B-DC7	B-DC8	B-DC9	B-DC10	B-DC11	B-DC12	B-DC13	B-DC14	B-DC15	B-DC16	B-Ph1	B-Ph2	B-Ph3	B-Ph4	B-Ph5	B-Ph6	B-Ph7	B-Ph8	B-Ph9	B-Ph10	B-Ph11	B-Ph12	B-Ph13	B-Ph14	B-Ph15	B-Ph16	aux-1	digaux	

1596.639	1	1	0	256	0.11853	0.29986	0.1203	0.2701	0.22784	0.18027	0.27374	0.26778	0.038437	0.11945	0.38814	0.21933	0.13653	0.077725	0.1702	0.087164	-2.7729	-3.4396	-3.225	-3.3229	-3.4313	-3.1063	-3.4813	-3.5	-3.2562	-3.4125	-3.3333	-3.1979	-3.4667	-3.4229	-3.3458	-3.4729	43.254	183.931	112.533	286.540	252.027	300.636	284.400	66.071	273.451	79.944	323.195	389.664	322.170	104.032	162.183	363.176	0.00032738	0.00044429	6.2604e-05	1224.2	3.6373e-06	2.8971e-06	1298.9	253.46	1.4467e-06	2.0631e-06	320.2	88.044	69.617	20.045	3.1755e-06	28.856	0.00014486	0.00011342	3.1959e-05	1197.5	1.3185e-06	1.2205e-06	1272.2	250.36	1.2927e-06	1.2069e-06	315.41	88.201	69.243	20.131	1.1903e-06	28.827	122.665	130.474	120.339	44.997	212.217	158.432	44.751	51.944	202.756	227.800	51.509	58.197	58.332	65.468	182.301	64.983	-8191	255	
1596.737	1	1	0	0	0.18031	0.012482	0.15826	0.36211	0.18033	0.15484	0.2161	0.12679	0.092036	0.21935	0.32922	0.29871	0.3496	0.32093	0.061594	0.10655	-2.6167	-3.4625	-3.2896	-3.3208	-3.4417	-3.15	-3.5438	-3.6146	-3.1875	-3.4792	-3.3021	-3.2667	-3.5938	-3.2687	-3.3021	-3.5271	330.697	283.915	304.445	368.020	194.395	66.276	374.429	324.891	293.550	169.321	71.282	284.998	369.352	378.314	301.745	100.212	0.00028174	0.00042225	9.8585e-05	1224.1	3.8127e-06	3.6015e-06	1295.9	253.77	3.3115e-06	3.0288e-06	318.22	88.601	69.477	20.218	2.9458e-06	28.587	0.000142	0.00011424	3.065e-05	1200.4	1.3115e-06	1.2108e-06	1272.1	250.57	1.3191e-06	1.1309e-06	314.28	88.209	69.064	20.167	1.2123e-06	28.783	120.552	129.496	129.535	44.577	179.690	179.567	44.752	52.137	173.785	200.921	51.312	58.278	58.789	65.788	186.714	64.909	-8191	255	
1596.856	1	1	0	0	0.2587	0.24682	0.16577	0.27346	0.053276	0.098565	0.065218	0.10825	0.18891	0.088615	0.24482	0.19063	0.15807	0.11682	0.10285	0.29753	-2.9271	-3.4396	-3.35	-3.3833	-3.4688	-3.225	-3.5812	-3.5625	-3.2625	-3.3563	-3.4271	-3.1896	-3.5083	-3.5542	-3.2104	-3.6583	75.300	137.172	127.378	330.585	347.628	62.509	310.872	329.422	204.897	186.814	357.489	296.416	50.578	208.043	324.876	38.144	0.00028742	0.000309	9.496e-05	1225.7	3.871e-06	1.8176e-06	1294.6	253.21	2.325e-06	3.2079e-06	319.26	89.043	70.118	20.118	2.5534e-06	28.843	0.0001434	0.00012164	3.0388e-05	1200.2	1.3384e-06	1.2451e-06	1270.5	250.86	1.3812e-06	1.2319e-06	314.84	88.306	69.58	20.201	1.2953e-06	28.807	120.878	139.476	145.102	44.726	216.540	215.404	44.755	52.024	156.818	203.268	51.679	58.179	58.352	65.990	162.186	64.985	-8191	255	
1596.952	1	1	0	0	0.23721	0.26703	0.11918	0.17691	0.16353	0.19192	0.06343	0.07297	0.28142	0.079428	0.065846	0.18422	0.23751	0.15361	0.18814	0.17901	-2.7313	-3.3479	-3.4292	-3.325	-3.475	-3.2375	-3.3875	-3.75	-3.2167	-3.2604	-3.6333	-3.1583	-3.4188	-3.3583	-3.0479	-3.4604	350.581	78.267	337.351	189.505	85.848	285.243	179.087	230.484	157.101	111.050	389.731	118.325	51.940	81.806	379.554	382.719	0.00029055	0.00035472	9.3124e-05	1236.8	3.7271e-06	3.2968e-06	1302.5	255.17	4.0795e-06	3.9754e-06	321.15	89.237	70.387	20.14	2.3587e-06	28.557	0.00015415	0.00013022	3.4414e-05	1206.3	1.5206e-06	1.3682e-06	1277.3	251.92	1.4541e-06	1.3281e-06	316.54	88.626	69.651	20.182	1.2815e-06	28.785	120.291	136.013	118.115	44.866	176.783	186.785	44.994	51.835	179.299	182.680	51.672	58.098	58.836	65.436	188.113	65.079	-8191	255	
1597.048	1	1	0	0	0.18542	0.15814	0.096305	0.18594	0.18712	0.013736	0.32019	0.055825	0.26814	0.13395	0.18495	0.29948	0.24937	0.14322	0.071007	0.085425	-2.7167	-3.1937	-3.6542	-3.3646	-3.4688	-3.4271	-3.3458	-3.6063	-3.3542	-3.1875	-3.5354	-3.2	-3.5021	-3.2479	-3.1063	-3.5729	127.815	41.057	149.825	335.253	302.336	190.563	267.776	148.117	75.527	62.218	363.408	284.821	271.197	165.307	174.782	94.107	0.00030039	0.00040345	5.8962e-05	1230.8	3.6752e-06	2.6754e-06	1299.7	255.52	2.749e-06	3.3351e-06	320.47	88.953	70	20.227	4.2091e-06	28.829	0.0001533	0.00012017	3.0884e-05	1206.1	1.3705e-06	1.3194e-06	1276	251.82	1.4028e-06	1.2084e-06	316.22	88.602	69.732	20.275	1.3395e-06	28.852	121.272	131.032	121.997	44.672	186.928	147.532	44.862	52.053	179.550	228.929	51.454	57.978	58.462	65.853	211.342	64.829	-8191	255	
1597.145	1	1	0	0	0.094369	0.13659	0.20588	0.071583	0.40358	0.12436	0.046305	0.25973	0.12624	0.2613	0.24858	0.23917	0.21713	0.27435	0.33786	0.10959	-2.7375	-3.0958	-3.4458	-3.2646	-3.3063	-3.1875	-3.4354	-3.4646	-3.1937	-3.3438	-3.7708	-3.3354	-3.4	-3.5271	-3.1521	-3.6667	338.540	264.667	105.152	198.259	68.937	148.948	41.272	339.821	85.246	389.017	378.428	392.133	159.744	306.049	117.503	204.806	0.00029772	0.00034671	7.9814e-05	1233.1	4.5007e-06	3.3523e-06	1303.1	256.89	2.8599e-06	3.919e-06	322.74	88.941	70.425	20.278	3.3152e-06	28.885	0.00015065	0.00012091	3.1895e-05	1206.3	1.4545e-06	1.3389e-06	1278.9	252.84	1.5894e-06	1.3635e-06	317.58	89.031	70	20.347	1.466e-06	29.017	121.241	140.353	136.230	44.823	204.669	186.106	44.766	52.161	155.021	179.813	51.511	58.206	58.528	65.455	186.943	64.657	-8191	255	
1597.241	1	1	0	0	0.061915	0.15278	0.023501	0.084056	0.20663	0.17639	0.17265	0.10824	0.07739	0.14488	0.26825	0.2203	0.14672	0.14197	0.086261	0.098976	-3.0458	-3.2458	-3.6021	-3.4833	-3.4	-3.3833	-3.3729	-3.6479	-3.4479	-3.3625	-3.525	-3.2167	-3.3979	-3.4729	-3.0604	-3.5312	391.841	375.152	80.791	299.984	254.222	242.950	358.785	110.927	151.693	184.429	75.165	77.072	303.790	288.148	195.348	135.983	0.00031232	0.00052687	7.6101e-05	1236.8	4.3543e-06	4.979e-06	1310.3	258.32	1.9766e-06	2.9205e-06	322.96	90.302	70.52	20.347	3.0775e-06	28.752	0.00016101	0.00013717	3.5571e-05	1211.6	1.5368e-06	1.5734e-06	1285.8	254.29	1.4564e-06	1.3746e-06	318.88	89.377	70.238	20.395	1.4081e-06	29.037	118.885	141.728	136.304	44.722	186.511	339.312	44.792	52.172	167.227	205.753	51.099	57.912	58.436	65.378	165.723	65.161	-8191	255	
1597.337	1	1	0	0	0.071271	0.20729	0.067359	0.28085	0.1748	0.15538	0.21611	0.06202	0.20508	0.23969	0.20165	0.22616	0.27098	0.16774	0.25223	0.26803	-2.9667	-3.1167	-3.3854	-3.3937	-3.4708	-3.5396	-3.4521	-3.5417	-3.5542	-3.275	-3.6437	-3.3021	-3.3208	-3.6375	-3.0104	-3.5187	236.392	72.962	269.665	297.990	321.355	357.218	37.156	332.060	180.513	204.033	175.609	36.132	57.411	82.755	247.486	334.335	0.00032076	0.00040859	8.796e-05	1235.9	2.3799e-06	5.4233e-06	1309.4	256.38	2.6991e-06	4.6753e-06	324.04	89.252	70.715	20.45	4.4293e-06	28.91	0.00015495	0.00012233	3.3843e-05	1214.1	1.383e-06	1.2103e-06	1287.2	253.89	1.3318e-06	1.1993e-06	318.45	89.069	70.129	20.346	1.2281e-06	28.981	117.091	134.081	134.848	44.856	192.469	175.697	44.662	51.938	179.162	210.586	51.552	58.235	58.808	65.537	180.750	64.919	-8191	255	
1597.456	1	1	0	0	0.085474	0.31441	0.25885	0.1592	0.21849	0.15298	0.28197	0.12373	0.11859	0.27095	0.2153	0.1687	0.23886	0.18029	0.062818	0.16669	-3.0979	-3.2062	-3.3792	-3.4146	-3.1479	-3.5396	-3.2687	-3.3896	-3.4604	-3.2208	-3.5062	-3.4271	-3.2562	-3.3896	-3.1917	-3.2354	383.080	291.943	182.121	384.950	386.165	104.735	335.971	363.103	113.043	147.366	37.603	382.566	328.939	39.927	145.825	52.782	0.00031239	0.00030748	0.00012516	1238.9	4.0684e-06	3.1222e-06	1311.7	256.62	2.0088e-06	4.2818e-06	321.76	89.256	70.639	20.335	2.7736e-06	29.033	0.00014267	0.00011124	2.9735e-05	1213.7	1.2379e-06	1.11e-06	1286.3	253.91	1.1688e-06	1.0552e-06	318.02	89.119	69.997	20.369	1.1289e-06	28.862	122.526	132.638	117.803	44.802	166.021	175.652	44.731	51.911	173.525	212.652	51.778	58.492	58.557	65.478	180.339	64.971	-8191	255	
1597.552	1	1	0	0	0.064429	0.12689	0.10652	0.22115	0.016531	0.11154	0.10372	0.24745	0.15036	0.12871	0.31016	0.17051	0.24627	0.14497	0.066253	0.31351	-3.0563	-3.1104	-3.4188	-3.5583	-3.1708	-3.5625	-3.4729	-3.3937	-3.4833	-2.9375	-3.5625	-3.3042	-3.3542	-3.4479	-3.275	-3.3604	142.850	123.595	126.455	384.507	66.671	361.765	305.798	320.898	221.044	341.757	355.521	371.537	278.297	336.025	193.200	298.005	0.00027503	0.00029834	8.7298e-05	1235.9	3.6976e-06	3.5787e-06	1301.2	255.04	3.2394e-06	2.6649e-06	320.81	88.741	70.435	20.25	3.5528e-06	28.642	0.0001277	0.00010377	2.788e-05	1209.2	1.1769e-06	1.0629e-06	1279.2	252.18	1.1345e-06	1.0505e-06	316.33	88.726	69.792	20.237	1.1291e-06	28.828	118.776	135.101	129.985	44.915	193.486	198.216	44.903	52.067	179.553	232.027	51.704	58.070	58.349	65.425	164.426	64.937	-8191	255	
1597.648	1	1	0	0	0.18954	0.066615	0.21416	0.1426	0.034825	0.10453	0.094903	0.16392	0.10324	0.14195	0.084601	0.13131	0.065959	0.36907	0.068864	0.29158	-3.1583	-3.1604	-3.4062	-3.4313	-3.2979	-3.5229	-3.4604	-3.3042	-3.5333	-3.1896	-3.5333	-3.2833	-3.1208	-3.425	-3.3854	-3.4313	339.336	329.909	195.584	343.167	41.452	192.467	389.915	334.286	225.942	95.657	77.533	264.418	71.252	36.424	55.327	364.285	0.00034433	0.00045881	7.7699e-05	1232.6	3.6798e-06	4.5036e-06	1303.5	255.13	2.8152e-06	3.2321e-06	322.18	88.752	69.932	20.214	2.4134e-06	28.695	0.00013693	0.00010604	2.6989e-05	1205.8	1.1999e-06	1.0837e-06	1277.7	252.59	1.1579e-06	1.0984e-06	317.12	88.788	69.733	20.266	1.0886e-06	28.924	121.613	141.269	145.379	44.935	196.939	190.975	44.626	51.892	196.065	220.645	51.680	57.956	58.399	66.056	175.684	64.584	-8191	255	
1597.744	1	1	0	0	0.095623	0.092659	0.11603	0.25564	0.16966	0.15426	0.23393	0.085298	0.17061	0.074245	0.14973	0.44322	0.23893	0.16638	0.36919	0.17217	-3.3063	-3.1688	-3.3229	-3.6896	-3.3563	-3.5104	-3.4354	-3.4813	-3.7313	-3.3063	-3.5042	-3.5333	-3.2125	-3.5271	-3.2792	-3.2771	187.414	159.195	308.287	343.906	339.388	68.329	392.481	393.495	210.653	66.633	365.862	362.074	51.347	378.868	272.319	95.604	0.00030514	0.00034469	5.6111e-05	1234.2	4.5309e-06	2.9872e-06	1297	256.33	2.8241e-06	3.1418e-06	323.77	88.926	70.295	20.225	2.0236e-06	28.741	0.00012966	0.00010561	2.7933e-05	1207.7	1.1958e-06	1.0576e-06	1278	252.92	1.1368e-06	1.0569e-06	317.78	88.789	69.766	20.254	1.0656e-06	28.848	119.529	133.447	132.604	44.911	190.106	197.475	44.789	52.168	169.544	183.508	51.499	57.986	58.171	65.778	161.505	65.208	-8191	255	
1597.816	1	1	0	0	0.17517	0.20002	0.26217	0.27569	0.11416	0.094225	0.044051	0.078984	0.31189	0.074228	0.10622	0.14094	0.13946	0.12504	0.12382	0.020472	-3.0708	-3.2146	-3.2708	-3.7104	-3.1167	-3.6375	-3.5396	-3.3646	-3.5542	-3.325	-3.4542	-3.5938	-3.2313	-3.5833	-3.5062	-3.1312	348.738	253.980	180.505	372.664	91.691	167.810	115.536	318.868	268.871	79.973	360.772	288.718	284.811	57.543	261.295	89.484	0.00026934	0.00039904	0.0001155	1232.9	2.8498e-06	3.2164e-06	1303.3	256.56	4.2289e-06	3.9104e-06	323.98	89.805	70.128	20.294	2.1027e-06	28.834	0.00012937	0.00010579	2.6791e-05	1208.3	1.2227e-06	1.1139e-06	1279.8	252.8	1.2245e-06	1.0925e-06	318.32	89.19	69.853	20.323	1.1553e-06	28.991	118.416	133.203	151.806	44.864	189.927	162.131	44.910	51.967	172.932	195.608	51.596	57.973	58.598	65.592	174.951	64.907	-8191	255	
1597.936	1	1	0	0	0.1985	0.088546	0.098576	0.24446	0.28187	0.20049	0.14074	0.27303	0.19364	0.10304	0.066996	0.19071	0.071565	0.099869	0.036053	0.10288	-3.2333	-3.1875	-3.1854	-3.6479	-3.1208	-3.4604	-3.6083	-3.275	-3.3292	-3.3854	-3.4479	-3.4688	-3.2062	-3.4229	-3.4667	-3.2042	230.830	93.717	82.451	339.814	195.247	127.604	311.556	372.241	241.599	160.393	373.469	82.017	144.560	83.670	254.361	281.865	0.00034266	0.00024591	0.00010143	1238.2	2.7895e-06	2.7104e-06	1308.1	256.63	3.45e-06	3.2976e-06	323.19	89.472	71.131	20.221	3.6101e-06	28.66	0.00014736	0.00011763	2.8433e-05	1214.7	1.3489e-06	1.1611e-06	1286.1	253.75	1.2584e-06	1.1152e-06	318.48	89.245	70.102	20.35	1.1295e-06	28.9	118.339	127.165	160.573	45.051	197.805	186.969	44.814	51.980	187.031	210.779	51.385	58.158	58.391	65.638	177.247	64.791	-8191	255	
1598.033	1	1	0	0	0.19561	0.12332	0.11896	0.20495	0.18121	0.092916	0.19682	0.2163	0.22499	0.04197	0.23362	0.2487	0.1466	0.12909	0.14796	0.26332	-3.0938	-3.1458	-3.0521	-3.6729	-3.1521	-3.2771	-3.6312	-3.1417	-3.4042	-3.2958	-3.3708	-3.3833	-3.3792	-3.4417	-3.3229	-3.0625	384.421	340.134	87.521	101.146	67.627	149.867	351.229	353.129	146.147	126.330	344.780	256.067	72.914	50.804	317.617	73.896	0.00029526	0.00046185	9.8365e-05	1233	4.0955e-06	1.8769e-06	1299	256.52	2.2422e-06	3.0103e-06	320.32	89.362	69.912	20.179	3.4658e-06	28.838	0.00013839	0.00010463	2.6372e-05	1207.5	1.1891e-06	1.0537e-06	1277.8	252.79	1.1791e-06	1.0711e-06	316.75	88.71	69.59	20.227	1.1299e-06	28.85	122.437	125.999	112.921	44.835	192.610	212.790	44.650	52.168	186.244	183.879	51.750	58.458	58.452	65.638	176.475	64.816	-8191	255	
1598.129	1	1	0	0	0.065757	0.11884	0.19957	0.45674	0.063829	0.16867	0.3421	0.064746	0.08538	0.078145	0.25382	0.079023	0.21672	0.07961	0.084867	0.089659	-3.1792	-3.2917	-3.0167	-3.6708	-3.2021	-3.3479	-3.6396	-3.0667	-3.3375	-3.3208	-3.2271	-3.5167	-3.1688	-3.2333	-3.6875	-3.2146	254.317	305.706	181.947	391.385	291.185	95.318	294.994	179.486	49.500	393.182	269.077	255.884	57.849	156.665	349.411	269.166	0.00031993	0.00046343	7.1807e-05	1227.4	3.2098e-06	3.1764e-06	1297.7	255.34	3.7968e-06	4.0322e-06	318.19	89.301	70.278	20.236	1.4305e-06	28.692	0.00013951	0.00011026	2.8774e-05	1201.4	1.231e-06	1.1124e-06	1274.2	252.33	1.2554e-06	1.0913e-06	316.15	88.867	69.544	20.247	1.0942e-06	28.815	118.244	143.633	133.331	44.919	183.007	161.272	44.686	52.114	174.419	208.026	51.700	58.032	58.700	65.725	189.637	64.813	-8191	255	
1598.225	1	1	0	0	0.1096	0.060091	0.13587	0.1765	0.09814	0.1567	0.20484	0.056044	0.094063	0.19185	0.17544	0.13243	0.29509	0.12557	0.29641	0.34925	-2.9625	-3.2062	-3.1083	-3.7021	-3.3479	-3.075	-3.7104	-3.2479	-3.1562	-3.4229	-3.1792	-3.3354	-3.2125	-3.1521	-3.5896	-3.2438	167.099	233.894	297.302	360.074	70.854	55.095	352.923	104.389	35.851	391.637	345.218	197.919	347.193	227.492	319.159	232.954	0.00028997	0.00041408	8.3871e-05	1227.5	3.1937e-06	3.5617e-06	1304.7	256.47	2.6253e-06	3.9237e-06	322.08	89.589	70.685	20.276	2.8581e-06	28.832	0.00013354	0.00010625	2.7667e-05	1207.3	1.1933e-06	1.066e-06	1279.5	253.16	1.1926e-06	1.0647e-06	317.52	89.035	70.032	20.287	1.1389e-06	28.933	122.037	116.226	139.825	44.887	183.563	197.950	44.852	52.175	171.247	182.990	51.527	58.315	58.959	65.751	177.912	64.903	-8191	255	
1598.344	1	1	0	0	0.20961	0.11451	0.17547	0.20103	0.083731	0.26157	0.30579	0.22339	0.080282	0.22448	0.12085	0.0040162	0.044117	0.45799	0.17628	0.23195	-2.8458	-3.2188	-3.2104	-3.5938	-3.2646	-3.1354	-3.6021	-3.375	-3.1875	-3.3833	-3.1292	-3.3625	-3.3208	-2.975	-3.5458	-3.2042	165.314	195.100	148.535	347.301	203.636	193.340	327.704	355.183	360.001	371.327	50.010	327.498	342.402	293.185	91.710	194.287	0.000303	0.00020257	7.5477e-05	1232.5	4.5679e-06	1.8161e-06	1302.5	257.25	2.0604e-06	3.8361e-06	320.39	88.768	70.416	20.265	1.8318e-06	28.758	0.00014097	0.00010261	3.059e-05	1206.7	1.3246e-06	1.1593e-06	1278.2	253.27	1.29e-06	1.1435e-06	317.3	88.843	69.727	20.333	1.1768e-06	28.896	126.041	121.053	116.661	44.841	200.389	200.210	44.684	52.046	171.472	199.101	51.458	57.968	58.336	65.640	197.433	64.650	-8191	255	
1598.417	1	1	0	0	0.24594	0.27782	0.12404	0.22076	0.15413	0.07644	0.033462	0.19845	0.35347	0.31426	0.014119	0.19567	0.2157	0.23839	0.18062	0.18003	-2.9062	-3.4313	-3.0542	-3.6562	-3.4042	-3.1979	-3.7438	-3.4042	-3.2375	-3.4313	-3.1396	-3.4583	-3.4562	-3.2042	-3.3438	-3.3854	60.627	162.149	214.344	331.205	47.613	115.747	330.616	377.125	43.005	188.637	325.726	332.913	132.347	305.779	330.935	65.642	0.00030193	0.00040568	5.6781e-05	1236.3	2.0849e-06	3.8979e-06	1307	256.31	2.9566e-06	3.3774e-06	323.8	89.503	70.525	20.257	2.076e-06	28.851	0.00014282	0.00010739	3.0242e-05	1210.1	1.2504e-06	1.1771e-06	1284.1	253.54	1.355e-06	1.1612e-06	318.93	89.312	70.07	20.415	1.315e-06	28.99	123.029	146.031	132.496	44.771	183.551	169.942	44.857	51.941	167.664	165.513	51.517	57.902	58.550	65.584	188.439	64.958	-8191	255	
1598.536	1	1	0	0	0.11552	0.13222	0.27563	0.25862	0.23105	0.17761	0.38184	0.30889	0.19357	0.17218	0.080711	0.20194	0.12256	0.10145	0.23295	0.05937	-2.8375	-3.4188	-3.2729	-3.4104	-3.3292	-3.2438	-3.6917	-3.3812	-3.375	-3.5187	-3.3271	-3.4792	-3.5312	-3.1021	-3.3042	-3.3	220.227	367.118	278.130	309.834	120.700	80.562	338.413	312.089	139.072	332.930	214.579	320.970	382.501	161.008	114.499	111.337	0.0003122	0.00047457	7.7982e-05	1239.4	2.8081e-06	2.6004e-06	1312.3	257.64	2.7184e-06	2.7051e-06	325.52	89.551	70.706	20.435	2.899e-06	29.002	0.00014962	0.00012363	3.3336e-05	1213.8	1.431e-06	1.3426e-06	1286.1	254.37	1.4291e-06	1.3307e-06	319.81	89.22	69.976	20.407	1.3266e-06	29	120.566	135.564	134.047	44.682	219.719	175.385	44.844	51.760	181.563	227.852	51.386	58.498	58.602	65.554	167.538	65.327	-8191	255	
1598.632	1	1	0	0	0.20167	0.091341	0.092312	0.34507	0.12293	0.12127	0.33461	0.10531	0.45394	0.17026	0.25483	0.10652	0.078723	0.18339	0.33695	0.31708	-2.7521	-3.6125	-3.1562	-3.3667	-3.4229	-3.2292	-3.5479	-3.5438	-3.0938	-3.5521	-3.2292	-3.3417	-3.4667	-3.2083	-3.4021	-3.4979	293.778	92.675	157.232	333.391	388.340	390.819	344.406	154.682	295.501	265.738	46.260	142.732	280.967	48.648	227.933	80.365	0.00028779	0.00031829	6.8403e-05	1242	4.0807e-06	2.1188e-06	1305.6	258.49	3.2943e-06	2.8013e-06	321.61	89.76	70.255	20.291	3.0022e-06	28.683	0.00015051	0.00011605	3.1402e-05	1216.7	1.3451e-06	1.2155e-06	1284.7	254.71	1.2455e-06	1.101e-06	317.89	89.232	69.952	20.395	1.1611e-06	28.863	123.209	153.736	124.048	44.912	177.077	218.441	44.776	52.073	172.947	214.163	51.337	58.284	58.482	65.396	167.788	64.724	-8191	255	
1598.728	1	1	0	0	0.10052	0.068322	0.17982	0.39695	0.1702	0.33083	0.19063	0.037833	0.07863	0.13194	0.11564	0.089808	0.14191	0.18627	0.16413	0.11406	-2.6437	-3.5021	-3.0854	-3.4292	-3.5875	-3.3479	-3.5354	-3.3979	-3.275	-3.5938	-3.3479	-3.4458	-3.5229	-3.1833	-3.4875	-3.4958	374.767	294.261	186.428	359.479	245.262	301.338	316.159	231.250	318.538	116.318	190.122	38.779	322.809	384.316	333.986	172.173	0.00030525	0.00034731	9.7839e-05	1237.9	2.7342e-06	2.362e-06	1311.8	256.78	2.5091e-06	1.9952e-06	322.36	89.373	70.626	20.179	3.1006e-06	28.757	0.00013995	0.00010425	2.893e-05	1212.7	1.2168e-06	1.0929e-06	1283.9	253.52	1.1702e-06	1.038e-06	317.52	88.904	69.779	20.249	1.0122e-06	28.75	119.993	127.016	126.046	44.994	190.991	183.154	44.864	52.219	197.306	221.852	51.512	58.539	58.691	65.249	156.101	65.088	-8191	255	
1598.825	1	1	0	0	0.013393	0.29276	0.17318	0.15534	0.38498	0.26945	0.20165	0.04151	0.16511	0.14198	0.32728	0.16181	0.16981	0.16897	0.11375	0.26415	-2.75	-3.3979	-3.1875	-3.375	-3.3312	-3.2417	-3.5	-3.6021	-3.0875	-3.2958	-3.3979	-3.2396	-3.5667	-3.2188	-3.3229	-3.5167	252.352	370.221	382.377	303.654	310.734	145.489	373.589	245.821	185.287	237.893	390.577	328.809	80.639	74.176	370.702	361.517	0.00028778	0.00043934	6.9453e-05	1229.2	3.4959e-06	3.6501e-06	1297.8	255.09	3.3178e-06	3.8356e-06	320.18	89.079	70.117	20.146	2.0008e-06	28.414	0.00012851	9.3552e-05	2.5744e-05	1204.3	1.0708e-06	9.7279e-07	1274.4	252.34	1.0332e-06	9.2976e-07	315.35	88.537	69.491	20.167	9.0539e-07	28.704	115.320	137.997	114.504	44.883	198.935	156.830	45.005	52.024	175.988	198.504	51.415	58.073	58.450	65.881	190.086	64.916	-8191	255	
1598.945	1	1	0	0	0.19087	0.065968	0.08975	0.083011	0.21499	0.18798	0.2608	0.23189	0.31128	0.22517	0.12397	0.0091059	0.26368	0.053004	0.16645	0.10435	-2.9333	-3.5604	-3.3625	-3.3979	-3.5354	-3.1417	-3.5604	-3.6396	-3.0521	-3.3521	-3.5042	-3.3021	-3.6042	-3.3083	-3.3875	-3.6417	183.625	210.248	235.315	55.192	195.491	366.867	349.506	344.162	248.347	386.665	152.109	206.229	392.210	258.747	320.111	183.520	0.00029556	0.00044588	7.9062e-05	1222.1	2.246e-06	2.8647e-06	1289.8	252.5	2.6963e-06	3.2702e-06	317.8	88.295	69.533	20.021	2.5379e-06	28.532	0.00012061	8.5009e-05	2.226e-05	1195.5	9.6371e-07	8.0988e-07	1265.2	249.18	9.4938e-07	8.1221e-07	313.34	87.891	68.904	20.1	8.7695e-07	28.644	120.773	133.262	123.841	44.718	191.647	197.556	44.872	52.196	206.242	185.789	51.587	58.311	58.233	65.565	153.498	65.149	-8191	255	
1599.041	1	1	0	0	0.1825	0.22711	0.05335	0.25044	0.13941	0.074301	0.1345	0.16649	0.21019	0.25365	0.087494	0.089999	0.19382	0.055785	0.13334	0.28601	-2.6	-3.4042	-3.45	-3.3521	-3.4604	-3.2979	-3.5667	-3.4125	-3.1667	-3.5354	-3.5333	-3.375	-3.5833	-3.2458	-3.2083	-3.5167	338.075	371.336	42.821	318.946	303.665	89.868	279.934	373.971	376.642	180.941	341.418	377.414	363.969	169.342	305.553	330.059	0.00031843	0.00033793	8.4914e-05	1212.2	2.6737e-06	3.0805e-06	1278	252.12	3.0806e-06	2.4093e-06	318.68	88.272	69.288	19.905	1.9949e-06	28.456	0.00011739	8.385e-05	1.9987e-05	1186.7	9.6738e-07	8.4668e-07	1257.9	249.17	9.2481e-07	7.7176e-07	312.99	87.771	68.834	19.999	8.2035e-07	28.585	116.569	128.163	128.310	44.920	200.576	163.163	44.905	52.147	206.486	208.369	51.724	58.162	58.783	65.668	188.272	64.968	-8191	255	
1599.137	1	1	0	0	0.1422	0.22338	0.15165	0.10363	0.21923	0.069011	0.24596	0.19778	0.14679	0.082563	0.13467	0.1033	0.16692	0.18988	0.054288	0.12329	-2.6771	-3.2646	-3.3229	-3.3125	-3.4875	-3.4021	-3.4042	-3.6292	-3.2438	-3.3771	-3.4292	-3.2417	-3.4979	-3.3583	-3.1708	-3.5062	308.252	313.210	109.357	369.234	182.442	389.720	315.985	384.814	154.345	131.004	111.608	323.074	64.590	289.583	72.293	326.148	0.0003081	0.00044171	6.143e-05	1213.7	4.0285e-06	2.4549e-06	1277.9	251.28	3.7962e-06	3.276e-06	316.31	87.834	69.412	19.789	2.9549e-06	28.334	0.00011629	8.201e-05	2.0387e-05	1187.1	9.6534e-07	7.7815e-07	1256.8	248.37	8.9944e-07	7.8482e-07	311.25	87.355	68.355	19.94	7.3831e-07	28.444	120.885	122.833	111.069	44.908	182.792	177.655	44.977	52.147	190.044	189.827	51.434	58.482	58.926	65.822	183.022	65.179	-8191	255	
1599.234	1	1	0	0	0.11931	0.18646	0.079113	0.28109	0.043557	0.14319	0.22487	0.1545	0.20909	0.23591	0.07315	0.2235	0.14857	0.27969	0.084427	0.26945	-2.8792	-3.3396	-3.4375	-3.2792	-3.6417	-3.3542	-3.2958	-3.6542	-3.1771	-3.2875	-3.5438	-3.3104	-3.5604	-3.4562	-3.1708	-3.4792	126.083	189.638	293.952	315.276	151.130	254.484	336.463	324.416	326.828	53.317	45.953	369.187	57.262	311.037	219.181	34.335	0.00030105	0.00039442	7.3515e-05	1196.8	4.1166e-06	3.4706e-06	1266.4	249.64	2.894e-06	3.3455e-06	313.56	87.561	68.409	19.741	3.5526e-06	28.059	0.00010603	7.2649e-05	1.7372e-05	1171.3	8.5149e-07	6.9992e-07	1242.9	246.03	8.0161e-07	6.83e-07	308.67	86.614	67.847	19.803	7.2231e-07	28.246	119.099	135.480	117.980	44.962	180.502	180.948	44.925	52.214	158.216	207.787	51.571	58.437	58.767	65.998	199.198	65.447	-8191	255	
1599.330	1	1	0	0	0.22151	0.22294	0.19563	0.09556	0.094018	0.17263	0.19717	0.25445	0.18248	0.071057	0.12029	0.11304	0.093134	0.10922	0.38198	0.24663	-2.8812	-3.2438	-3.4208	-3.1729	-3.4146	-3.4437	-3.3312	-3.5042	-3.2542	-3.4229	-3.5396	-3.225	-3.3771	-3.5646	-3.075	-3.4313	94.141	79.673	280.757	340.028	135.756	73.295	315.232	359.067	317.923	173.829	246.147	89.661	181.884	279.906	48.096	332.992	0.0003041	0.00035858	6.8682e-05	1180.9	2.7199e-06	1.9653e-06	1262.8	248.11	3.3042e-06	2.2929e-06	311.6	87.176	68.313	19.805	2.8075e-06	28.135	0.00010311	6.8101e-05	1.6659e-05	1163	8.0366e-07	6.0864e-07	1236.6	244.77	7.9189e-07	6.5589e-07	308.06	86.759	67.756	19.787	7.4487e-07	28.271	121.037	137.457	119.993	45.114	184.759	180.282	45.137	52.032	181.678	201.449	51.816	58.364	58.765	66.016	194.283	65.404	-8191	255	
1599.424	1	1	0	0	0.39147	0.044039	0.089659	0.16637	0.055835	0.23544	0.24083	0.41685	0.14329	0.20637	0.15158	0.18397	0.075376	0.16563	0.17403	0.03047	-3.0875	-3.2	-3.4979	-3.5604	-3.2604	-3.3896	-3.3979	-3.4542	-3.225	-3.4	-3.6	-3.15	-3.2062	-3.3792	-3.1229	-3.4729	86.298	272.067	255.310	55.947	97.343	302.377	318.884	331.334	144.729	175.095	345.081	263.237	129.895	58.986	342.170	128.130	0.00026308	0.00034807	6.4168e-05	1188.7	2.7868e-06	3.5616e-06	1255.2	249.08	3.046e-06	2.0259e-06	312.36	86.884	68.706	19.716	3.0516e-06	28.179	0.00010107	6.5228e-05	1.7663e-05	1163.8	8.5081e-07	6.7802e-07	1235.2	244.81	8.1726e-07	6.6713e-07	308.01	86.573	67.669	19.748	7.7386e-07	28.261	122.821	127.393	125.092	44.853	187.530	174.835	45.197	52.230	191.623	215.619	51.898	58.537	58.538	65.559	185.508	65.251	-8191	255	
1599.520	1	1	0	0	0.28056	0.067678	0.20813	0.10634	0.1164	0.18594	0.31169	0.22987	0.12865	0.23825	0.26002	0.093843	0.23315	0.36786	0.38753	0.13748	-2.9292	-3.0354	-3.4854	-3.3229	-3.3208	-3.5312	-3.3208	-3.3396	-3.3021	-3.0687	-3.4479	-3.3521	-3.2771	-3.4292	-3.2396	-3.5021	131.624	256.550	304.465	385.389	190.892	62.151	342.128	354.241	266.489	269.131	324.867	128.698	108.784	316.285	85.413	388.021	0.00031796	0.00040116	9.4217e-05	1191.9	2.7621e-06	3.6837e-06	1258.7	247.65	2.7752e-06	3.9194e-06	311.16	87.105	68.779	19.82	1.6094e-06	28.25	0.00010364	7.0016e-05	1.6925e-05	1164.4	7.9605e-07	7.1383e-07	1234.8	244.47	8.0525e-07	6.4508e-07	307.75	86.64	67.808	19.797	7.364e-07	28.387	119.656	138.668	128.753	45.031	187.473	158.892	45.029	52.040	171.778	195.254	51.632	58.268	58.946	65.592	170.443	65.203	-8191	255	
1599.641	1	1	0	0	0.14668	0.13551	0.13578	0.2388	0.13649	0.2676	0.17374	0.069003	0.12274	0.14784	0.10899	0.15539	0.10212	0.14782	0.054561	0.090883	-3.1063	-3.0917	-3.3771	-3.4708	-3.0312	-3.5417	-3.4167	-3.4688	-3.4104	-3.1292	-3.7292	-3.4437	-3.2646	-3.3833	-3.1833	-3.2396	80.900	285.987	283.108	311.215	319.689	307.226	298.407	256.449	391.273	263.850	308.155	197.525	98.933	385.268	170.936	296.306	0.00027888	0.00047495	6.0414e-05	1189.5	4.313e-06	2.5079e-06	1260.2	248.24	2.6441e-06	3.9274e-06	312.39	87.315	68.581	19.859	3.0938e-06	28.536	9.9362e-05	6.9209e-05	1.7397e-05	1165.7	8.5257e-07	6.5934e-07	1237.1	245.14	7.8447e-07	6.7485e-07	308.45	86.662	67.97	19.88	7.6976e-07	28.397	123.225	120.323	108.493	45.037	173.056	206.865	45.124	52.027	182.808	205.263	51.477	58.135	59.019	65.409	160.519	64.925	-8191	255	
1599.713	1	1	0	0	0.079014	0.068677	0.18606	0.29689	0.08207	0.041471	0.30389	0.38554	0.097754	0.20254	0.18447	0.17748	0.12169	0.064436	0.24132	0.19068	-3.0438	-3.25	-3.3833	-3.5062	-3.0292	-3.6583	-3.4062	-3.3438	-3.5333	-3.2042	-3.5187	-3.3396	-2.9229	-3.55	-3.3208	-3.1771	215.660	121.588	365.986	384.824	235.336	153.027	293.999	363.110	181.569	211.195	292.788	107.487	351.078	188.348	80.636	276.188	0.0002834	0.00040185	0.00010765	1198.6	4.0086e-06	4.089e-06	1260.7	248.97	2.4029e-06	2.9962e-06	313.93	87.377	68.175	19.821	3.1469e-06	28.226	0.00010276	6.737e-05	1.756e-05	1169.8	8.1983e-07	6.6229e-07	1239.2	245.15	8.0673e-07	6.6797e-07	308.82	86.985	68.025	19.864	7.3612e-07	28.337	118.816	123.600	105.143	45.091	185.729	153.830	45.120	52.150	191.452	197.409	51.872	58.773	58.507	65.667	181.470	65.480	-8191	255	
1599.809	1	1	0	0	0.13556	0.20352	0.030525	0.29876	0.15025	0.1223	0.051767	0.069147	0.25993	0.1618	0.12936	0.26292	0.21865	0.1824	0.15345	0.038862	-3.1	-3.1	-3.4479	-3.3438	-3.2583	-3.5479	-3.4854	-3.4354	-3.525	-3.3271	-3.3542	-3.3479	-3.2833	-3.5583	-3.3312	-3.3521	296.022	378.181	323.359	377.179	250.801	153.084	187.824	257.536	314.192	356.467	49.429	61.774	38.788	99.142	150.111	213.368	0.00029932	0.00038825	7.3656e-05	1195.9	2.9518e-06	2.493e-06	1264.4	249.74	2.5865e-06	3.7845e-06	313.92	87.235	68.821	19.82	2.5336e-06	28.349	0.00010665	7.401e-05	1.85e-05	1172.5	8.2418e-07	7.1748e-07	1244.2	246.33	7.8649e-07	7.3159e-07	309	87.076	68.194	19.933	7.5841e-07	28.408	117.441	129.083	119.205	44.941	165.183	189.937	44.734	51.913	183.487	218.232	51.530	57.908	58.750	65.562	181.559	65.251	-8191	255	
1599.905	1	1	0	0	0.23726	0.21883	0.059167	0.21491	0.23013	0.09553	0.11873	0.048342	0.31071	0.19028	0.031502	0.066186	0.095723	0.18049	0.26435	0.17224	-3.0104	-3.2875	-3.2354	-3.5604	-3.1958	-3.5667	-3.4417	-3.3729	-3.425	-3.2792	-3.3542	-3.4979	-3.1292	-3.5333	-3.3354	-3.3958	365.473	307.600	165.004	363.964	150.022	179.303	49.667	142.286	155.595	40.772	128.383	84.523	123.594	388.838	229.480	297.729	0.00029366	0.00040408	5.7411e-05	1198.9	2.3971e-06	3.0767e-06	1269.4	249.62	2.4842e-06	2.4253e-06	314.35	87.828	68.788	19.926	3.7214e-06	28.58	0.00010386	7.1528e-05	1.7862e-05	1173.7	8.6521e-07	6.7759e-07	1244.1	245.94	8.0174e-07	6.9592e-07	309.97	87.314	68.15	19.961	7.2327e-07	28.527	123.525	140.764	134.959	45.010	168.615	191.314	44.977	52.311	171.605	201.440	51.646	58.439	58.227	65.429	183.361	65.184	-8191	255	
1600.026	1	1	0	0	0.086552	0.039948	0.15251	0.1429	0.27288	0.11101	0.1146	0.21882	0.20507	0.079871	0.30771	0.17294	0.13122	0.25164	0.068147	0.1269	-3.05	-3.1208	-3.4313	-3.6521	-3.3104	-3.4896	-3.675	-3.2438	-3.5208	-3.2708	-3.4167	-3.6813	-3.3646	-3.4938	-3.5125	-3.2313	242.458	211.709	186.376	50.156	160.851	247.933	321.052	315.716	104.787	142.491	131.978	273.033	307.912	362.053	97.946	227.371	0.00028256	0.00042457	7.4582e-05	1199.1	3.227e-06	2.2256e-06	1272.9	249.51	3.7753e-06	3.5186e-06	314.43	87.785	68.917	19.875	2.0629e-06	28.594	0.00010381	7.2548e-05	1.7102e-05	1173.8	8.4333e-07	6.6566e-07	1247.2	246.35	7.8433e-07	6.9269e-07	309.99	87.222	68.187	19.947	6.9716e-07	28.475	121.227	132.214	127.480	45.016	194.526	159.769	45.105	52.113	175.031	208.925	51.567	58.100	58.818	65.699	184.946	65.563	-8191	255	
1600.122	1	1	0	0	0.12304	0.054148	0.081239	0.27834	0.072526	0.19533	0.2428	0.26435	0.037842	0.094375	0.26748	0.1418	0.049765	0.043036	0.12584	0.065823	-3.2333	-3.2729	-3.1771	-3.8042	-3.2646	-3.4667	-3.4854	-3.2208	-3.6021	-3.3438	-3.4333	-3.5542	-2.9896	-3.4313	-3.4583	-3.2396	246.466	332.951	67.425	48.207	74.028	286.166	352.386	323.584	218.772	200.372	63.308	379.300	365.129	326.050	298.456	316.624	0.00028034	0.00043881	7.9867e-05	1196.5	3.2766e-06	2.3543e-06	1266.9	250.66	2.5444e-06	4.56e-06	314.65	87.667	69.227	20.02	3.2241e-06	28.589	0.00010407	7.188e-05	1.7638e-05	1172.7	8.5393e-07	6.8813e-07	1243.2	246.83	8.0228e-07	6.7246e-07	309.94	87.292	68.366	19.974	7.23e-07	28.537	118.167	146.589	152.496	44.985	189.376	157.486	44.924	52.126	208.219	210.026	51.779	58.132	58.550	65.866	179.039	65.125	-8191	255	
1600.218	1	1	0	0	0.1681	0.089673	0.29387	0.27995	0.056169	0.06174	0.21614	0.2541	0.22348	0.16064	0.078953	0.061221	0.065542	0.30092	0.044717	0.23861	-3.0854	-3.4583	-3.0271	-3.625	-3.2354	-3.4062	-3.6125	-3.4437	-3.4833	-3.4104	-3.2562	-3.5833	-3.2083	-3.375	-3.4125	-3.3229	47.152	181.276	189.539	362.860	320.244	178.618	305.826	69.864	323.330	254.596	199.180	314.245	113.961	354.369	239.642	302.030	0.00028984	0.00029953	9.9824e-05	1199.7	3.1484e-06	2.914e-06	1265.7	248.64	3.0824e-06	3.06e-06	313.4	87.749	68.704	19.835	2.6679e-06	28.38	0.00010284	6.8201e-05	1.7915e-05	1172.6	8.2975e-07	6.5751e-07	1243.4	245.93	8.0943e-07	6.5659e-07	308.97	87.221	67.877	19.938	6.8362e-07	28.489	119.042	129.314	128.551	45.028	205.482	174.286	44.961	51.941	168.877	189.992	51.485	58.371	58.775	65.484	188.593	65.276	-8191	255	
1600.338	1	1	0	0	0.12438	0.13548	0.10627	0.2603	0.19149	0.11781	0.1218	0.19428	0.16635	0.16934	0.037063	0.098067	0.078284	0.035938	0.28918	0.19323	-3.1417	-3.2729	-3.2792	-3.6917	-3.2021	-3.2479	-3.7167	-3.2979	-3.5417	-3.2188	-3.1167	-3.5187	-3.25	-3.2667	-3.5854	-3.425	198.555	93.321	268.398	327.080	56.535	191.290	361.092	346.444	206.448	103.892	273.355	52.825	83.557	381.949	368.260	311.415	0.00031617	0.00039288	5.4761e-05	1194.8	1.3702e-06	2.454e-06	1264.5	248.8	3.3128e-06	3.3902e-06	314.63	87.111	68.78	20.018	1.8056e-06	28.38	0.00010561	6.5782e-05	1.6648e-05	1168.5	7.7907e-07	6.2142e-07	1241.7	245.57	8.1416e-07	6.4339e-07	309.25	86.978	67.957	19.985	6.828e-07	28.493	118.264	126.752	107.292	44.950	199.793	176.955	45.163	52.272	159.006	194.188	51.627	58.246	58.620	65.726	154.713	65.245	-8191	255	
1600.410	1	1	0	0	0.041706	0.21891	0.14929	0.13668	0.3348	0.1818	0.076176	0.12093	0.13158	0.13828	0.10099	0.20461	0.12749	0.23307	0.08992	0.12744	-2.9146	-3.3667	-3.2083	-3.7229	-3.2229	-3.3708	-3.7729	-3.3063	-3.4	-3.4667	-3.3187	-3.5438	-3.1625	-3.2583	-3.6042	-3.1146	136.612	378.846	374.948	252.369	317.058	78.985	35.278	326.873	134.197	342.213	370.365	40.896	96.526	348.969	98.876	255.397	0.00028432	0.00033899	8.5342e-05	1188.5	2.0274e-06	3.1455e-06	1261.2	248.89	3.4369e-06	4.3153e-06	312.42	86.971	68.547	19.951	2.9003e-06	28.389	9.9287e-05	6.3552e-05	1.6929e-05	1166.2	7.7064e-07	6.4249e-07	1239.6	245.46	7.8973e-07	6.3735e-07	308.35	86.88	67.994	19.882	6.6516e-07	28.449	121.966	143.638	133.561	45.003	163.838	167.270	44.994	51.991	169.447	204.538	51.799	58.277	58.779	65.865	179.787	65.488	-8191	255	
1600.506	1	1	0	0	0.033779	0.015225	0.14196	0.20727	0.20456	0.25655	0.10756	0.11097	0.17815	0.095939	0.38164	0.28057	0.072613	0.15437	0.25621	0.069505	-2.9729	-3.1854	-3.1583	-3.5708	-3.3854	-3.3042	-3.6562	-3.3479	-3.3667	-3.3563	-3.2375	-3.4521	-3.4021	-3.275	-3.5604	-3.3354	255.621	269.812	103.310	347.726	40.321	351.154	80.249	335.140	258.278	191.129	350.570	89.065	168.941	392.947	344.364	164.387	0.00029219	0.00036138	7.8282e-05	1184.6	2.7469e-06	2.7603e-06	1260.7	248.63	2.1851e-06	4.3067e-06	313.16	87.194	68.005	19.932	1.6735e-06	28.067	9.7923e-05	6.2103e-05	1.6772e-05	1161.5	7.9089e-07	6.7184e-07	1235.9	244.91	7.3278e-07	6.1053e-07	308.32	86.799	67.571	19.922	6.3194e-07	28.304	117.626	143.184	135.731	44.928	186.646	170.036	44.983	52.281	190.308	199.217	51.745	58.458	58.686	65.760	169.461	65.310	-8191	255	
1600.625	1	1	0	0	0.053948	0.11153	0.17342	0.093766	0.15252	0.030931	0.25018	0.38092	0.16193	0.25788	0.15577	0.088464	0.055718	0.070609	0.13224	0.093424	-2.9375	-3.4146	-3.3104	-3.6125	-3.4958	-3.1167	-3.9688	-3.3229	-3.3792	-3.4313	-3.4042	-3.5583	-3.7188	-3.1271	-3.575	-3.3833	119.719	347.315	42.131	347.995	41.999	386.427	260.132	312.370	217.682	290.992	40.524	84.116	344.864	249.614	163.203	261.270	0.0003103	0.00045567	9.033e-05	1185.8	3.9574e-06	3.2152e-06	1251	247.21	2.8687e-06	2.7488e-06	311.24	87.638	68.3	19.86	2.6817e-06	28.253	0.00010003	5.889e-05	1.5694e-05	1159	7.5325e-07	6.1721e-07	1229.5	243.84	7.371e-07	5.41e-07	307.28	86.75	67.709	19.835	6.1827e-07	28.299	118.975	145.153	120.454	45.034	203.167	161.781	44.934	52.198	177.519	186.044	51.721	58.421	59.000	65.376	187.072	64.773	-8191	255	
1600.721	1	1	0	0	0.19089	0.28859	0.062586	0.40769	0.062022	0.058862	0.46265	0.11761	0.13465	0.14829	0.21502	0.037644	0.17387	0.11858	0.23476	0.18148	-2.8312	-3.4938	-3.1667	-3.4479	-3.4313	-3.1063	-3.5646	-3.5604	-3.3208	-3.5104	-3.3396	-3.3688	-3.5604	-3.2583	-3.4354	-3.3167	307.233	299.160	281.196	46.487	365.710	342.342	332.288	75.528	293.142	38.036	363.147	235.119	223.632	99.440	55.174	334.956	0.00030063	0.00043394	0.00012888	1185.2	3.7541e-06	1.9102e-06	1253.7	247.46	3.8656e-06	2.9708e-06	310.89	87.078	68.137	19.88	3.2089e-06	28.169	0.00010181	5.8185e-05	1.6726e-05	1157.6	7.8437e-07	6.5302e-07	1229.8	244.49	7.6314e-07	6.035e-07	307.54	86.665	67.668	19.863	6.6024e-07	28.308	118.831	141.777	126.542	45.088	189.119	190.156	45.091	52.205	181.615	194.148	51.672	58.419	58.462	65.251	178.337	65.202	-8191	255	
1600.817	1	1	0	0	0.24861	0.17698	0.19979	0.068868	0.25731	0.029185	0.18983	0.21223	0.24841	0.29034	0.19153	0.077836	0.24372	0.29933	0.15145	0.040557	-2.8542	-3.4417	-3.1312	-3.4542	-3.4896	-3.1667	-3.7396	-3.5021	-3.0542	-3.5667	-3.3146	-3.4104	-3.6167	-3.1125	-3.3646	-3.4833	85.386	314.034	77.153	274.726	194.287	127.038	344.231	322.679	69.866	183.202	353.959	206.152	253.445	384.816	204.868	347.508	0.00028803	0.00046138	5.104e-05	1181.3	4.3606e-06	3.0558e-06	1249.5	248.25	2.6748e-06	4.1898e-06	311.76	87.203	67.926	19.857	2.0305e-06	28.468	9.8266e-05	6.3829e-05	1.6843e-05	1157.4	7.6453e-07	6.2353e-07	1229.3	244.33	7.5181e-07	6.0238e-07	307.36	86.786	67.616	19.882	6.4247e-07	28.366	120.599	124.275	140.393	44.975	183.195	144.062	44.935	52.238	177.302	225.076	51.648	58.521	58.931	66.004	190.949	65.026	-8191	255	
1600.938	1	1	0	0	0.13896	0.048476	0.20404	0.23435	0.1042	0.071577	0.25935	0.16623	0.19405	0.28006	0.087719	0.35286	0.2632	0.17103	0.070406	0.072645	-2.8208	-3.3292	-3.2667	-3.475	-3.6125	-3.2812	-3.7	-3.5438	-3.0583	-3.4979	-3.3438	-3.3146	-3.6896	-3.2875	-3.4271	-3.3792	54.444	246.919	88.743	363.473	62.898	92.871	323.056	290.323	34.731	345.835	340.851	341.113	275.557	138.375	183.591	172.941	0.0003006	0.00037901	8.1184e-05	1179.1	3.5568e-06	3.0002e-06	1253.5	246.83	2.427e-06	1.6246e-06	310.41	86.435	68.198	19.766	2.4904e-06	28.124	9.9115e-05	6.1473e-05	1.6031e-05	1154.6	7.2499e-07	5.9853e-07	1227.9	243.69	7.0943e-07	5.4494e-07	306.64	86.34	67.498	19.796	6.5587e-07	28.206	120.376	125.642	141.296	44.986	187.494	176.376	45.220	52.355	186.002	165.550	52.066	58.671	58.583	65.409	180.276	65.327	-8191	255	
1601.010	1	1	0	0	0.16773	0.052582	0.090938	0.40666	0.1567	0.17252	0.1179	0.21836	0.16635	0.14542	0.14534	0.22611	0.20381	0.075358	0.16835	0.044355	-2.8229	-3.3542	-3.3458	-3.4	-3.4292	-3.1875	-3.5396	-3.5312	-3.0167	-3.3979	-3.3521	-3.3563	-3.4958	-3.2396	-3.3312	-3.4646	81.277	366.756	210.436	365.511	166.882	152.787	257.649	349.048	131.734	169.982	75.240	389.407	303.957	172.134	79.560	104.904	0.00025478	0.00032935	6.3656e-05	1181.4	3.658e-06	3.0499e-06	1254.1	246.21	3.4749e-06	2.8819e-06	311.08	86.872	68.617	19.783	1.1037e-06	28.327	9.7224e-05	6.01e-05	1.5091e-05	1155.4	7.3396e-07	6.599e-07	1230.1	243.92	7.8312e-07	5.8496e-07	307.24	86.711	67.765	19.831	5.9817e-07	28.36	116.987	124.229	119.036	45.159	192.072	170.253	45.063	52.354	187.517	205.746	51.552	58.459	58.597	66.066	168.905	64.961	-8191	255	
1601.106	1	1	0	0	0.22783	0.031579	0.23617	0.21353	0.12553	0.057372	0.26074	0.23861	0.017451	0.15748	0.02934	0.14533	0.19238	0.079274	0.22543	0.23312	-2.9333	-3.3292	-3.3438	-3.2833	-3.3729	-3.1646	-3.4083	-3.6021	-3.1792	-3.4542	-3.5729	-3.3312	-3.5812	-3.2375	-3.3292	-3.5604	143.778	87.543	393.999	352.710	58.396	187.098	342.941	315.277	324.865	39.885	110.436	383.590	360.834	169.827	55.589	274.422	0.00029069	0.00041751	7.2164e-05	1182.2	2.3765e-06	3.8704e-06	1251.8	248.69	3.2209e-06	4.4485e-06	312.33	87.125	68.648	19.706	3.0875e-06	28.163	9.8041e-05	5.9482e-05	1.4853e-05	1157.3	7.5556e-07	6.3855e-07	1229.4	244.72	7.0255e-07	5.5435e-07	307.24	86.91	67.707	19.803	6.3905e-07	28.314	122.883	141.819	126.898	44.973	212.189	191.235	45.058	52.074	189.174	202.418	51.621	58.453	58.945	65.597	183.493	65.201	-8191	255	
1601.202	1	1	0	0	0.11879	0.19997	0.056739	0.15528	0.24559	0.10118	0.31055	0.11939	0.024836	0.044527	0.056716	0.24965	0.17972	0.11729	0.065585	0.07418	-2.575	-3.3875	-3.4229	-3.3563	-3.4521	-3.2625	-3.5417	-3.6729	-3.0729	-3.475	-3.3917	-3.3292	-3.5438	-3.45	-3.2438	-3.5563	351.829	131.681	115.327	43.635	347.683	292.384	351.677	290.796	250.200	343.841	209.620	316.337	199.667	263.431	349.375	42.486	0.00029451	0.00033856	7.2701e-05	1178.9	3.7219e-06	3.8144e-06	1253.7	248.23	2.2944e-06	3.4538e-06	312.81	86.971	68.748	19.914	2.2807e-06	28.179	0.00010015	6.2708e-05	1.5864e-05	1154.9	7.8015e-07	6.3813e-07	1230	244.97	7.2981e-07	6.2134e-07	308.56	86.928	68.014	19.861	6.504e-07	28.354	119.484	122.402	118.388	44.953	180.679	175.642	44.967	52.383	190.054	202.205	51.812	58.027	58.726	65.514	203.387	65.359	-8191	255	
1601.321	1	1	0	0	0.19476	0.19677	0.10425	0.17412	0.27736	0.11698	0.17237	0.16479	0.084374	0.12295	0.19944	0.1579	0.19283	0.037898	0.18943	0.12686	-2.8146	-3.3729	-3.3083	-3.3021	-3.6604	-3.3396	-3.3104	-3.7188	-3.2854	-3.3604	-3.5583	-3.2375	-3.575	-3.3083	-3.2812	-3.6521	208.786	109.091	146.213	80.256	385.032	285.775	318.722	335.201	53.873	89.919	274.092	118.215	64.560	45.798	146.648	133.931	0.00028382	0.00042294	5.961e-05	1177.8	3.4706e-06	3.3371e-06	1248.2	247.24	2.5507e-06	3.5475e-06	310.87	86.84	68.13	19.701	3.364e-06	27.982	9.9351e-05	5.8651e-05	1.5531e-05	1154.1	7.6385e-07	6.1524e-07	1227.2	244.16	8.0525e-07	5.9676e-07	306.89	86.225	67.255	19.661	7.5294e-07	28.045	120.782	126.102	130.700	45.046	188.443	179.308	45.186	52.259	175.427	172.616	51.444	58.118	58.567	65.971	169.008	65.351	-8191	255	
1601.417	1	1	0	0	0.072392	0.11335	0.20783	0.13906	0.24359	0.31882	0.42781	0.083176	0.27138	0.34924	0.22065	0.27601	0.083447	0.078621	0.21333	0.075895	-3.0625	-3.4146	-3.4313	-3.3104	-3.4146	-3.5375	-3.4	-3.4583	-3.3333	-3.3833	-3.5563	-3.15	-3.4771	-3.4313	-3.0438	-3.4458	275.997	278.319	125.404	368.174	136.154	121.513	311.032	258.235	294.249	107.044	350.060	362.785	153.713	309.185	237.166	340.356	0.00030966	0.00040511	6.2957e-05	1178.7	2.5893e-06	2.1736e-06	1249.3	247	2.3164e-06	2.0618e-06	309.94	86.769	67.988	19.591	2.4246e-06	28.21	0.00010664	7.3922e-05	1.7624e-05	1153.7	8.2159e-07	6.9796e-07	1226.3	243.55	8.3345e-07	7.08e-07	306.45	86.155	67.439	19.674	7.3079e-07	28.22	120.398	138.373	124.735	45.059	175.620	193.709	45.215	52.010	174.337	178.240	51.648	58.395	58.721	65.437	172.260	65.182	-8191	255	
1601.513	1	1	0	0	0.34043	0.26654	0.14289	0.2374	0.019763	0.27052	0.33752	0.32962	0.21375	0.04453	0.032734	0.15136	0.071951	0.30794	0.09907	0.033543	-2.9104	-3.175	-3.425	-3.1833	-3.3438	-3.3563	-3.275	-3.5	-3.2542	-3.1667	-3.7479	-3.3438	-3.3667	-3.5104	-3.3104	-3.4729	201.599	90.954	308.369	315.071	291.876	324.188	44.041	335.818	231.205	112.834	230.516	333.025	73.375	342.606	336.264	204.269	0.00027436	0.00038288	9.1713e-05	1176.6	1.9465e-06	3.3973e-06	1248.8	246.45	2.4226e-06	4.1377e-06	311.49	86.821	68.114	19.681	2.3861e-06	28.101	0.000102	7.188e-05	1.7727e-05	1152.3	8.0325e-07	6.8307e-07	1228.2	243.67	7.8204e-07	7.1488e-07	307.05	86.095	67.531	19.737	7.1138e-07	28.195	122.889	126.145	130.094	45.067	187.730	173.728	44.841	52.267	200.680	209.555	51.695	58.117	58.700	65.684	194.215	65.457	-8191	255	
1601.587	1	1	0	0	0.08572	0.13597	0.27237	0.23824	0.20366	0.23192	0.16029	0.17622	0.24772	0.16526	0.063204	0.1381	0.066971	0.082423	0.28159	0.17704	-2.8042	-3.0979	-3.4729	-3.3937	-3.2771	-3.4417	-3.3688	-3.6917	-3.3146	-3.2458	-3.5062	-3.1937	-3.2812	-3.5396	-3.2417	-3.375	328.192	243.613	209.808	365.490	298.334	242.783	308.172	296.605	349.838	235.751	358.728	382.871	356.194	356.749	118.399	63.385	0.0002757	0.00047053	0.0001181	1180.8	2.8996e-06	2.2892e-06	1246.6	246.32	3.6752e-06	3.8816e-06	309.26	86.026	68.379	19.617	2.2757e-06	28.058	9.9695e-05	6.8756e-05	1.6982e-05	1154.1	7.538e-07	6.0471e-07	1224.9	242.99	7.8582e-07	6.8159e-07	305.67	85.976	67.516	19.639	7.4898e-07	28.072	119.545	123.220	116.898	45.053	160.698	171.676	44.990	52.271	165.213	201.886	51.901	58.196	58.695	66.125	170.370	65.141	-8191	255	
1601.706	1	1	0	0	0.18226	0.18261	0.064921	0.2072	0.17179	0.12569	0.22447	0.2104	0.20587	0.24422	0.13225	0.15611	0.098787	0.075081	0.12686	0.1182	-3.0604	-2.9854	-3.4521	-3.3271	-3.3187	-3.4688	-3.4042	-3.4896	-3.4146	-3.1625	-3.6375	-3.2	-3.1583	-3.5958	-3.3542	-3.35	324.816	330.809	65.306	79.876	347.074	82.212	293.617	389.872	146.751	266.432	354.505	38.097	234.723	240.295	182.292	115.065	0.00029	0.00036219	6.081e-05	1175.7	2.3131e-06	4.4242e-06	1249.1	246.48	2.9104e-06	2.8444e-06	310.7	86.22	67.736	19.622	2.5301e-06	28.103	0.00010289	7.2019e-05	1.7454e-05	1150.3	8.3966e-07	6.9206e-07	1223.3	243.28	7.9985e-07	7.5519e-07	306.21	86.082	67.267	19.716	7.6046e-07	28.177	119.716	151.351	105.355	45.024	183.964	175.952	44.784	52.309	161.215	209.548	51.973	58.131	58.731	65.850	181.368	65.336	-8191	255	
1601.802	1	1	0	0	0.12134	0.1166	0.12515	0.17794	0.22007	0.12913	0.16822	0.27758	0.2383	0.1968	0.16309	0.22219	0.16271	0.17518	0.024693	0.050396	-2.9521	-3.225	-3.4146	-3.4396	-3.2042	-3.4938	-3.375	-3.4813	-3.5229	-3.1229	-3.5	-3.4167	-3.2021	-3.3854	-3.1813	-3.5354	83.459	201.509	327.074	300.072	152.717	190.209	340.374	386.970	345.235	345.251	332.074	53.301	276.488	365.300	337.221	43.744	0.00030536	0.00035582	4.9764e-05	1178	3.0403e-06	3.1899e-06	1246.9	245.8	3.4297e-06	3.334e-06	309.57	86.589	68.463	19.714	2.6813e-06	28.08	9.8965e-05	6.805e-05	1.6531e-05	1152.9	8.2268e-07	6.8672e-07	1225.3	242.94	7.8366e-07	6.726e-07	305.68	86.069	67.549	19.744	7.1589e-07	28.203	117.768	129.440	102.072	44.970	189.541	178.645	45.184	52.134	169.900	219.490	51.503	58.383	58.649	65.617	189.464	65.131	-8191	255	
1601.898	1	1	0	0	0.086421	0.14171	0.070149	0.09379	0.046633	0.26987	0.21925	0.10897	0.14555	0.17045	0.14078	0.42099	0.11379	0.22727	0.19839	0.12467	-2.8979	-3.1229	-3.5812	-3.6479	-3.4	-3.5167	-3.4958	-3.3896	-3.5229	-3.1104	-3.525	-3.3583	-3.1375	-3.5271	-3.2521	-3.3292	100.335	75.307	333.350	157.920	131.673	149.240	256.129	353.043	366.164	223.043	319.262	91.108	392.991	375.626	123.312	343.971	0.00028991	0.0004536	8.3012e-05	1174.4	3.834e-06	2.2055e-06	1249.6	245.66	2.4694e-06	3.3753e-06	310.49	86.828	68.135	19.713	1.8094e-06	28.203	0.00010296	6.931e-05	1.7085e-05	1151.5	8.3043e-07	7.1621e-07	1223.8	243.16	8.1038e-07	7.3777e-07	306.32	86.315	67.308	19.746	7.4542e-07	28.225	116.705	121.630	125.383	44.697	213.671	164.336	45.031	52.457	178.249	202.670	51.822	58.364	58.704	65.471	160.911	65.237	-8191	255	
1602.018	1	1	0	0	0.06126	0.22695	0.1847	0.19548	0.026375	0.072852	0.19961	0.058412	0.12663	0.20093	0.2064	0.31557	0.072107	0.038165	0.073212	0.016922	-3.1167	-3.1729	-3.5	-3.4938	-3.1562	-3.6208	-3.525	-3.2208	-3.4917	-3.2562	-3.6583	-3.4625	-3.1937	-3.5833	-3.2958	-3.3417	389.176	268.602	238.071	313.046	201.109	387.501	328.146	304.177	185.948	192.639	100.731	350.662	283.544	304.518	99.125	292.430	0.00030372	0.00032039	5.7735e-05	1177.6	2.2753e-06	2.3755e-06	1250.8	247.17	2.0184e-06	2.5074e-06	309.78	86.945	67.901	19.76	2.7665e-06	28.047	0.000105	7.3014e-05	1.8131e-05	1154.2	8.6874e-07	7.37e-07	1229.3	243.98	8.4843e-07	7.0772e-07	306.02	86.251	67.349	19.757	7.286e-07	28.283	117.183	127.609	127.884	45.107	196.417	169.660	45.026	52.221	172.701	195.828	51.851	58.470	58.548	66.155	212.363	65.116	-8191	255	
1602.115	1	1	0	0	0.20843	0.092181	0.13641	0.22709	0.16014	0.20703	0.41839	0.17274	0.18993	0.075222	0.16848	0.11705	0.27866	0.077285	0.22389	0.19924	-3.0687	-3.0333	-3.3729	-3.5938	-3.0187	-3.4917	-3.5833	-3.4583	-3.4792	-3.2417	-3.4729	-3.575	-3.075	-3.4688	-3.3875	-3.25	274.233	300.348	40.081	39.110	349.892	285.378	291.696	101.331	155.664	263.240	161.648	301.976	281.720	57.356	373.978	384.589	0.00030854	0.0004725	6.8933e-05	1175.9	3.3288e-06	2.3253e-06	1251.4	247.65	2.5572e-06	3.8586e-06	310.3	86.731	67.613	19.736	2.3444e-06	28.117	0.0001081	7.2788e-05	1.8085e-05	1153	8.7744e-07	7.1425e-07	1224.7	243.58	8.4074e-07	7.0111e-07	305.71	86.232	67.257	19.652	7.3189e-07	28.153	119.275	134.268	136.508	44.754	169.716	166.321	44.988	52.393	166.968	205.129	51.712	58.508	58.790	66.028	164.790	65.133	-8191	255	
1602.211	1	1	0	0	0.17294	0.070604	0.25855	0.15754	0.16476	0.039591	0.29052	0.21806	0.12847	0.091079	0.20317	0.14219	0.20103	0.11325	0.13834	0.29386	-2.9854	-3.0354	-3.3312	-3.5042	-3.1333	-3.4125	-3.4938	-3.2896	-3.675	-3.2146	-3.3729	-3.5812	-3.1437	-3.3229	-3.5479	-3.2	324.146	126.864	58.391	346.190	123.187	64.559	308.526	313.613	89.668	196.836	345.420	88.630	304.389	298.880	114.833	357.813	0.0002979	0.00039139	9.5525e-05	1173.2	3.373e-06	3.3363e-06	1245	246.38	2.9483e-06	3.7804e-06	310.04	86.537	67.493	19.711	2.2747e-06	27.849	0.00010434	7.2775e-05	1.8759e-05	1149.1	8.811e-07	7.5792e-07	1219.7	242.31	8.3629e-07	7.3033e-07	305.55	85.905	67.011	19.659	7.5978e-07	28.064	118.562	110.853	124.399	45.004	190.563	163.486	45.011	52.373	181.122	181.032	51.560	58.043	59.106	65.630	186.898	65.271	-8191	255	
1602.307	1	1	0	0	0.15897	0.093571	0.2841	0.086957	0.37217	0.21804	0.23042	0.20354	0.11243	0.12455	0.19685	0.23697	0.19085	0.25893	0.17777	0.17574	-3.1437	-3.0396	-3.0583	-3.4917	-3.2604	-3.2479	-3.5292	-3.3271	-3.5146	-3.3875	-3.3042	-3.6396	-3.1375	-3.3563	-3.45	-3.2271	208.614	221.803	375.511	294.958	351.454	106.852	388.841	373.158	102.155	219.386	180.993	302.023	126.404	387.248	351.483	369.440	0.00029033	0.00018964	9.2795e-05	1167.8	3.7418e-06	3.3265e-06	1236.2	244.65	3.4758e-06	3.7255e-06	307.76	85.71	67.3	19.639	3.1725e-06	27.848	0.00010499	7.2485e-05	1.9295e-05	1144.7	8.5746e-07	7.0723e-07	1215.2	241.75	8.2401e-07	6.9606e-07	304.26	85.4	67.015	19.66	8.1939e-07	28.107	117.250	96.410	119.972	45.141	188.673	179.262	44.999	52.381	171.962	194.050	51.710	58.530	58.624	65.710	186.341	65.362	-8191	255	
1602.401	1	1	0	0	0.069085	0.25705	0.25809	0.22877	0.10813	0.052664	0.066892	0.34508	0.1273	0.21637	0.11663	0.19854	0.14116	0.10319	0.23629	0.19178	-3.1542	-3.2667	-3.1521	-3.4917	-3.2146	-3.5062	-3.7	-3.15	-3.4396	-3.2625	-3.2271	-3.4667	-3.3833	-3.2625	-3.5833	-3.2792	178.081	277.109	334.184	349.847	330.168	224.509	346.507	371.145	49.641	284.428	194.259	73.869	95.745	314.960	64.083	40.575	0.00029423	0.00030005	8.1024e-05	1171.8	3.2931e-06	2.832e-06	1244.4	245.27	3.3327e-06	3.407e-06	308.02	85.729	67.45	19.488	2.6659e-06	28.012	0.00011175	7.304e-05	1.9348e-05	1145.2	9.3083e-07	7.2998e-07	1220	242.05	8.8986e-07	7.2878e-07	304.78	85.71	67.051	19.632	7.3968e-07	28.131	117.052	139.437	135.386	45.059	200.143	156.671	44.855	52.044	173.882	220.074	51.750	58.258	58.911	65.377	188.547	65.470	-8191	255	
1602.498	1	1	0	0	0.30092	0.16726	0.041826	0.30987	0.071233	0.032342	0.026265	0.21467	0.28119	0.046937	0.25651	0.066018	0.26324	0.060032	0.13413	0.14612	-3.2042	-3.1646	-3.1083	-3.4938	-3.2167	-3.4792	-3.6542	-3.1333	-3.3812	-3.4396	-3.2458	-3.6542	-3.2979	-3.3917	-3.475	-3.15	241.033	308.311	188.635	363.369	69.425	216.033	185.567	37.557	268.704	287.428	137.146	148.187	128.610	286.070	182.927	328.081	0.000286	0.00039689	6.0801e-05	1172.2	4.7641e-06	1.6144e-06	1244.9	245.31	2.5349e-06	2.5931e-06	311.3	86.943	67.696	19.703	2.8832e-06	28.085	0.0001071	7.5686e-05	1.8653e-05	1146.9	8.6263e-07	7.8194e-07	1222	242.59	8.7556e-07	7.6333e-07	305.95	86.262	67.233	19.772	7.9642e-07	28.292	122.195	138.081	135.579	45.163	199.618	213.643	44.876	52.145	173.891	192.012	51.526	58.508	58.857	65.706	196.996	65.218	-8191	255	
1602.618	1	1	0	0	0.29471	0.19929	0.012705	0.13043	0.081068	0.14183	0.19539	0.1469	0.25031	0.083704	0.13272	0.15433	0.16118	0.21581	0.047038	0.12515	-2.9146	-3.4688	-3.3438	-3.6625	-3.25	-3.2604	-3.6417	-3.3375	-3.3646	-3.6688	-3.1979	-3.5792	-3.3229	-3.3083	-3.5479	-3.1875	207.617	42.942	333.261	339.864	109.769	361.521	63.700	277.474	289.936	106.553	333.700	125.078	276.237	291.201	312.300	304.645	0.00027154	0.00036633	6.2264e-05	1180.1	2.7603e-06	1.4856e-06	1247.8	246	4.4093e-06	2.4576e-06	310.33	86.347	68.391	19.603	2.9838e-06	28.263	0.00010944	8.0587e-05	2.06e-05	1152.9	9.9388e-07	8.8277e-07	1224.1	242.84	1.0483e-06	8.5926e-07	306.23	86.1	67.496	19.758	9.8442e-07	28.294	123.001	128.725	102.792	45.072	179.296	163.461	44.986	52.270	176.072	208.195	51.606	58.198	58.575	65.510	188.913	65.153	-8191	255	
1602.714	1	1	0	0	0.17037	0.11752	0.074635	0.16121	0.22245	0.10677	0.41915	0.33352	0.21113	0.083148	0.14397	0.015571	0.15837	0.22312	0.10637	0.044873	-2.8688	-3.2333	-3.05	-3.6521	-3.3	-3.3	-3.5896	-3.4583	-3.3125	-3.5375	-2.9354	-3.5604	-3.3646	-3.2354	-3.5167	-3.3937	389.163	66.033	111.253	351.113	319.736	283.870	361.515	328.555	228.758	351.188	268.158	294.584	337.667	384.293	363.099	374.248	0.00028202	0.00031657	6.4254e-05	1178.8	3.7256e-06	2.2664e-06	1252.7	248.21	3.2604e-06	2.3431e-06	311.89	87.183	68.324	19.71	2.5427e-06	28.027	0.00012649	9.8213e-05	2.7191e-05	1156	1.1812e-06	1.1235e-06	1230	244.52	1.2533e-06	1.1174e-06	307.25	86.476	67.784	19.781	1.1488e-06	28.272	120.782	139.952	117.999	45.095	201.981	176.037	44.964	52.361	194.354	197.627	51.665	58.303	58.584	66.024	175.423	65.198	-8191	255	
1602.810	1	1	0	0	0.14739	0.10319	0.21131	0.10884	0.28076	0.11245	0.11967	0.30172	0.037794	0.1439	0.16225	0.11374	0.12302	0.025836	0.08676	0.15551	-2.7896	-3.4896	-3.2125	-3.5938	-3.3521	-3.2271	-3.7625	-3.3854	-3.4083	-3.5187	-3.375	-3.4729	-3.4958	-3.3312	-3.6437	-3.3354	81.674	260.724	81.431	326.068	94.165	115.639	106.331	392.722	168.752	160.298	124.554	85.362	61.984	386.380	200.488	40.673	0.0003064	0.00041769	6.2351e-05	1183.3	3.5828e-06	3.0272e-06	1254.1	247.98	2.8196e-06	3.1574e-06	313.84	86.743	68.253	19.707	1.9205e-06	28.295	0.00014076	0.00011178	2.9338e-05	1159.8	1.269e-06	1.2014e-06	1231.8	244.64	1.3024e-06	1.1615e-06	308.76	86.655	67.816	19.871	1.208e-06	28.36	120.374	148.845	157.474	45.174	172.617	160.834	44.844	52.338	189.959	199.832	51.503	58.346	58.355	65.632	189.646	65.344	-8191	255	
1602.882	1	1	0	0	0.11182	0.23231	0.16209	0.23807	0.2346	0.073639	0.38782	0.078644	0.21725	0.1554	0.12328	0.028391	0.16522	0.08835	0.048494	0.23626	-2.875	-3.55	-2.9896	-3.6583	-3.4188	-3.0125	-3.5458	-3.3646	-3.2021	-3.6729	-3.2	-3.4396	-3.3917	-3.1146	-3.3979	-3.4875	349.387	293.632	393.716	50.404	292.114	251.520	294.326	363.088	129.871	226.116	295.473	344.136	311.657	356.791	232.232	57.642	0.00032094	0.00045232	9.0338e-05	1185.4	3.8891e-06	4.6307e-06	1259.9	246.63	3.4477e-06	2.0153e-06	311.91	86.646	68.647	19.909	2.2611e-06	28.317	0.0001449	0.00011381	3.1299e-05	1160	1.3068e-06	1.2442e-06	1233.6	244.86	1.3683e-06	1.2451e-06	308.62	86.715	68.004	19.922	1.2663e-06	28.306	119.521	125.070	132.250	45.205	179.804	152.038	45.063	52.102	180.996	199.356	52.011	58.273	58.554	65.605	188.934	65.202	-8191	255	
1603.003	1	1	0	0	0.04013	0.25912	0.24912	0.26758	0.22357	0.2294	0.26811	0.43231	0.11199	0.067287	0.298	0.25393	0.19301	0.086351	0.41554	0.15764	-2.6813	-3.3875	-3.1604	-3.4313	-3.3771	-3.2521	-3.5417	-3.2667	-3.0292	-3.625	-3.3146	-3.2354	-3.2875	-3.2958	-3.3146	-3.1833	96.433	134.775	195.801	309.208	140.933	383.005	324.286	331.324	85.574	117.215	312.314	324.494	389.601	365.401	171.486	99.604	0.0003002	0.00024888	8.4894e-05	1188.6	3.4663e-06	2.0919e-06	1255.5	248.88	1.7133e-06	3.8362e-06	313.98	86.998	68.298	19.925	2.7404e-06	28.125	0.0001446	0.00011299	2.9653e-05	1164	1.2804e-06	1.1875e-06	1233.9	245.57	1.2904e-06	1.1434e-06	308.97	86.887	67.915	19.849	1.1802e-06	28.171	122.077	153.277	131.759	44.992	187.745	217.213	45.010	51.904	187.547	197.609	51.638	58.159	58.733	65.708	166.060	64.797	-8191	255	
1603.099	1	1	0	0	0.19994	0.13378	0.17449	0.13511	0.11698	0.10009	0.12069	0.10066	0.2873	0.27429	0.14491	0.20872	0.10462	0.075417	0.016728	0.27429	-2.6417	-3.3729	-3.0958	-3.1833	-3.2979	-3.2562	-3.5646	-3.3812	-3.0292	-3.5583	-3.2354	-3.2333	-3.5083	-3.0479	-3.2167	-3.275	235.540	71.976	91.413	343.076	376.329	322.391	391.467	356.612	47.539	174.817	383.637	373.980	302.115	354.375	170.610	40.105	0.00031361	0.00032661	9.3949e-05	1190	3.5168e-06	2.2329e-06	1256.1	248.65	3.1723e-06	4.0369e-06	313.68	86.971	68.077	19.671	1.818e-06	28.312	0.00014673	0.00011331	2.9987e-05	1163.3	1.3104e-06	1.1775e-06	1233.7	245.09	1.2432e-06	1.1264e-06	308.96	86.584	67.751	19.816	1.1299e-06	28.314	115.470	116.201	122.807	44.795	191.112	136.206	44.929	52.177	176.910	214.874	51.362	58.425	58.695	65.273	161.115	65.018	-8191	255	
1603.195	1	1	0	0	0.20067	0.16387	0.12566	0.30571	0.18082	0.26227	0.14571	0.083188	0.10667	0.22801	0.32975	0.066961	0.10631	0.1332	0.19304	0.13525	-2.7958	-3.4688	-3.2375	-3.2729	-3.3458	-3.1667	-3.5563	-3.4604	-3.0354	-3.3458	-3.2208	-3.2	-3.5646	-3.2	-3.2729	-3.4292	167.964	133.340	151.192	381.265	172.894	56.757	262.399	133.423	277.478	88.887	364.580	113.400	251.819	285.983	115.883	316.272	0.00030252	0.00047418	6.0554e-05	1188	2.7522e-06	2.9702e-06	1258.2	248.76	1.977e-06	1.4164e-06	312.69	87.026	68.332	19.801	3.563e-06	28.104	0.00013601	0.00010532	2.7014e-05	1163	1.2353e-06	1.1698e-06	1234.3	245.51	1.319e-06	1.0754e-06	308.88	86.719	67.835	19.846	1.089e-06	28.277	117.078	122.283	147.406	44.990	182.305	149.295	45.055	52.271	182.353	167.620	51.481	58.221	58.905	65.459	183.581	65.252	-8191	255	
1603.291	1	1	0	0	0.30015	0.1975	0.24026	0.14493	0.20657	0.28677	0.18959	0.085643	0.18619	0.11737	0.063061	0.20778	0.19025	0.20941	0.13827	0.17791	-2.6854	-3.5396	-3.25	-3.2708	-3.4146	-3.2229	-3.3458	-3.5938	-3.2417	-3.3792	-3.4542	-3.2438	-3.3979	-3.2208	-3.1396	-3.4562	120.405	74.025	182.018	52.974	109.472	321.499	334.549	285.288	218.081	370.216	374.906	359.154	331.026	344.038	68.665	348.861	0.00027871	0.0002414	6.9147e-05	1189.1	2.9832e-06	1.8765e-06	1251.4	247.96	3.4763e-06	3.789e-06	312.93	86.693	68.514	19.843	1.8962e-06	28.221	0.00013719	0.00010566	2.6056e-05	1161.7	1.1914e-06	1.1361e-06	1233.5	244.94	1.2545e-06	1.0524e-06	308.31	86.501	67.792	19.782	1.1103e-06	28.297	122.437	116.639	128.535	45.209	218.750	136.026	44.993	52.113	179.908	203.936	51.816	58.106	58.675	65.644	189.042	65.376	-8191	255	
1603.410	1	1	0	0	0.02915	0.24586	0.094408	0.24456	0.08156	0.15591	0.45384	0.085969	0.24034	0.084588	0.06068	0.27656	0.046	0.11748	0.22146	0.10578	-2.6146	-3.4125	-3.3083	-3.2604	-3.3104	-3.325	-3.2917	-3.5333	-3.0646	-3.4271	-3.3521	-3.2583	-3.3896	-3.2521	-3.1396	-3.3292	162.618	383.010	61.917	382.933	378.295	235.834	298.778	300.219	201.794	338.511	363.404	337.249	152.574	219.028	43.908	106.489	0.00029008	0.00047359	9.5566e-05	1185.6	2.761e-06	3.5309e-06	1254.6	248.45	3.2223e-06	2.8489e-06	311.6	86.483	68.456	19.619	1.9241e-06	28.25	0.00012829	0.00010659	2.59e-05	1160.5	1.2022e-06	1.0746e-06	1230.8	245.12	1.1436e-06	1.0373e-06	308.05	86.314	67.725	19.743	1.0658e-06	28.242	119.067	136.944	147.331	44.908	210.948	199.348	45.082	52.266	186.113	197.444	51.698	58.273	58.623	65.661	185.991	65.064	-8191	255	
1603.506	1	1	0	0	0.035901	0.15256	0.15264	0.22986	0.30064	0.015119	0.31676	0.14378	0.10064	0.15415	0.11161	0.11365	0.23909	0.12638	0.24744	0.13352	-2.6125	-3.1937	-3.5563	-3.0938	-3.4188	-3.2188	-3.35	-3.5646	-3.2583	-3.2188	-3.4792	-3.1188	-3.5062	-3.2729	-3.1229	-3.4271	233.452	323.410	102.606	86.045	226.565	356.955	349.629	238.990	150.251	272.767	334.478	333.656	57.345	249.750	89.825	344.532	0.00032086	0.00035493	0.00010061	1184.7	5.3143e-06	3.3524e-06	1255.2	246.54	3.8028e-06	3.1373e-06	312.04	86.729	68.132	19.627	2.4136e-06	28.112	0.00013209	0.00010211	2.6212e-05	1161.3	1.1609e-06	9.5369e-07	1230.5	244.29	1.0761e-06	9.7934e-07	308.14	86.372	67.602	19.726	1.035e-06	28.205	123.722	146.195	124.620	45.096	191.289	162.260	45.004	52.309	199.175	192.889	51.717	58.532	58.821	65.919	170.550	65.382	-8191	255	
1603.580	1	1	0	0	0.23064	0.19342	0.13383	0.13501	0.16851	0.24307	0.39065	0.35339	0.059239	0.17178	0.20728	0.14395	0.18578	0.1245	0.21191	0.34824	-2.8708	-3.1646	-3.4562	-3.0958	-3.4437	-3.1396	-3.275	-3.4479	-3.0583	-3.2417	-3.4583	-3.3187	-3.3604	-3.4042	-3.1771	-3.5271	270.839	341.135	253.963	68.398	62.045	163.057	319.772	237.895	109.344	323.112	387.870	311.748	193.360	366.492	223.903	255.894	0.00030159	0.0003922	8.2252e-05	1183.1	2.5976e-06	3.5247e-06	1252.7	247.64	3.6941e-06	2.5994e-06	312.09	86.501	67.682	19.649	1.4136e-06	27.83	0.00012315	9.8276e-05	2.4527e-05	1159.6	1.1152e-06	9.6563e-07	1229.4	244.29	1.0838e-06	9.5167e-07	307.4	86.285	67.353	19.728	1.0578e-06	28.093	121.182	130.650	123.892	44.987	195.012	183.565	45.117	52.171	172.738	230.978	51.556	58.262	59.173	65.643	176.558	65.021	-8191	255	
1603.699	1	1	0	0	0.12821	0.31141	0.228	0.042737	0.21997	0.14997	0.083566	0.15824	0.10281	0.11997	0.18633	0.10587	0.044148	0.11189	0.18123	0.084823	-2.7562	-3.1063	-3.5312	-3.2917	-3.3208	-3.3563	-3.1833	-3.4521	-3.1708	-3.2104	-3.5479	-3.0625	-3.3542	-3.3271	-3.0833	-3.5125	144.358	93.762	301.915	209.978	297.497	211.792	259.790	363.902	171.977	213.699	265.265	248.224	67.110	391.435	79.808	266.594	0.00030012	0.0004495	8.439e-05	1186.2	3.1069e-06	3.3032e-06	1252.6	248.05	2.5629e-06	3.4142e-06	311.99	86.216	68.63	19.641	2.994e-06	27.96	0.00012719	9.364e-05	2.4325e-05	1159.5	1.021e-06	9.3993e-07	1231	244.3	1.046e-06	9.5771e-07	307.33	86.194	67.608	19.721	1.0042e-06	28.134	119.086	123.110	120.366	44.881	196.993	178.682	45.078	52.101	181.204	194.344	51.559	58.695	58.639	65.734	176.990	65.370	-8191	255	
1603.795	1	1	0	0	0.067114	0.059387	0.28881	0.3029	0.14652	0.098299	0.048232	0.10773	0.18818	0.18379	0.055039	0.12279	0.089036	0.25791	0.12321	0.099698	-2.7521	-3.1854	-3.3396	-3.3521	-3.3563	-3.4	-3.3125	-3.5062	-3.3042	-3.1729	-3.5354	-3.1937	-3.2458	-3.5833	-3.0021	-3.5042	74.633	357.195	313.222	43.452	72.057	230.827	62.927	56.630	262.371	238.666	148.789	107.367	45.702	359.947	263.546	221.208	0.00029281	0.00040101	9.2972e-05	1184.4	2.1991e-06	2.9361e-06	1256.1	247.05	3.0428e-06	3.5188e-06	312.64	86.994	68.926	19.577	5.6323e-07	28.031	0.00012248	9.2808e-05	2.4407e-05	1160.7	1.0742e-06	9.9161e-07	1232.3	244.2	1.1815e-06	1.0435e-06	308.03	86.568	67.876	19.746	1.1518e-06	28.249	117.277	140.301	150.942	44.793	196.127	166.617	44.944	52.346	177.965	216.144	51.610	58.350	58.803	66.011	215.454	65.173	-8191	255	
1603.891	1	1	0	0	0.064861	0.077688	0.090825	0.18875	0.044962	0.069681	0.27831	0.088567	0.19955	0.04074	0.16935	0.13899	0.23825	0.17377	0.091507	0.082761	-2.9479	-3.0021	-3.3187	-3.2646	-3.1562	-3.3563	-3.2479	-3.4104	-3.2875	-3.1125	-3.5646	-3.1896	-3.1667	-3.3833	-3.2167	-3.3354	319.200	360.380	331.913	378.197	264.314	266.624	255.858	289.588	297.471	278.884	47.178	287.779	237.969	38.746	65.935	382.246	0.00028872	0.00041761	0.00010197	1194.7	1.176e-05	3.7276e-06	1270.9	250.09	2.255e-06	2.5047e-06	317.83	87.622	69.037	19.967	4.0446e-06	28.33	0.00014085	0.00011574	3.0342e-05	1171.6	1.6322e-06	1.281e-06	1247	247.19	1.4915e-06	1.3793e-06	312.27	87.637	68.555	20.01	1.4852e-06	28.563	123.667	136.642	121.397	45.032	221.723	177.172	45.006	51.957	162.335	213.591	51.603	57.929	58.790	65.716	167.524	65.144	-8191	255	
1603.987	1	1	0	0	0.25106	0.10417	0.056739	0.11546	0.14013	0.1057	0.28734	0.24578	0.31012	0.086154	0.23251	0.18452	0.17843	0.17121	0.19106	0.21341	-2.9146	-3.0146	-3.2625	-3.1896	-3.0042	-3.5958	-3.3958	-3.2938	-3.5146	-3.0938	-3.4729	-3.3375	-3.0646	-3.4396	-3.0563	-3.2208	151.135	231.294	188.927	60.566	41.668	49.738	352.908	358.926	306.179	53.185	348.843	375.719	45.989	255.605	69.252	248.786	0.0003185	0.0004063	7.4745e-05	1208.6	2.2592e-06	2.0343e-06	1278.2	252.54	2.3908e-06	2.9788e-06	318.74	88.063	69.559	19.871	2.5677e-06	28.396	0.00016157	0.00013722	3.5723e-05	1186.6	1.5467e-06	1.4559e-06	1260.9	249.77	1.5074e-06	1.4247e-06	314.13	87.927	69.136	20.058	1.4262e-06	28.541	119.813	136.669	141.376	44.837	190.042	219.385	44.965	52.068	178.574	198.247	51.581	58.245	58.476	65.765	197.465	65.122	-8191	255	
1604.108	1	1	0	0	0.22174	0.096703	0.12487	0.12248	0.18865	0.27786	0.20919	0.24557	0.13457	0.29094	0.30752	0.043689	0.20921	0.21996	0.1493	0.21615	-2.8979	-3.0812	-3.1896	-3.4979	-3.1792	-3.5917	-3.2938	-3.3083	-3.5833	-3.1292	-3.4208	-3.5208	-2.9729	-3.4958	-3.0792	-3.2792	371.111	150.381	218.092	282.438	247.236	82.493	338.532	379.543	66.533	73.318	310.686	390.290	372.531	353.442	71.063	41.228	0.00031398	0.00048544	0.00010292	1219.1	2.9156e-06	3.1529e-06	1284.2	254.08	2.5396e-06	1.6703e-06	317.87	88.377	69.674	20.087	1.1219e-06	28.513	0.00016634	0.00013791	3.5791e-05	1194.3	1.5788e-06	1.4389e-06	1264.1	250.6	1.5629e-06	1.4671e-06	314.38	88.138	69.172	20.194	1.4381e-06	28.675	118.781	124.423	138.708	45.205	181.145	150.165	44.830	52.144	213.097	191.725	51.434	58.366	58.393	65.489	172.236	64.773	-8191	255	
1604.179	1	1	0	0	0.14413	0.24431	0.26023	0.09798	0.13202	0.074925	0.27417	0.15812	0.082539	0.13655	0.19388	0.14482	0.15664	0.28938	0.30232	0.13797	-3.1167	-3.0062	-3.2854	-3.5312	-3.1646	-3.5292	-3.4	-3.3187	-3.4625	-3.1083	-3.4896	-3.4583	-3.1188	-3.4021	-3.3312	-3.3063	61.516	74.064	59.004	330.039	301.889	347.860	308.170	322.089	256.960	302.567	280.363	49.069	360.440	41.433	368.912	136.345	0.00028534	0.00030279	6.9671e-05	1215.3	4.3325e-06	1.366e-06	1285.9	253.72	4.1362e-06	3.8485e-06	318.8	88.291	69.797	20.042	3.0706e-06	28.419	0.00016183	0.00013917	3.5358e-05	1194.4	1.5652e-06	1.4914e-06	1267.6	250.8	1.582e-06	1.418e-06	315.53	88.206	69.211	20.133	1.4039e-06	28.646	118.207	134.459	99.808	44.918	205.560	114.015	44.716	52.118	164.159	187.314	51.455	57.824	58.472	65.948	163.592	64.883	-8191	255	
1604.300	1	1	0	0	0.15416	0.1104	0.11984	0.29684	0.18357	0.1898	0.26296	0.13059	0.090872	0.060644	0.068098	0.34169	0.23223	0.15834	0.15391	0.18473	-3.0479	-2.9708	-3.3271	-3.5354	-3.15	-3.4021	-3.4021	-3.2354	-3.4062	-3.1688	-3.2458	-3.2375	-3.0438	-3.3292	-3.1312	-3.0375	54.312	234.612	383.892	308.437	325.969	139.373	325.528	317.278	128.393	125.849	43.446	42.506	236.939	101.804	191.022	264.997	0.00026799	0.00047358	0.00012985	1225.1	2.0879e-06	1.4109e-06	1294	253.07	2.8288e-06	2.9885e-06	318.9	88.273	69.601	20.139	2.7701e-06	28.426	0.00015978	0.00014232	3.7309e-05	1199.1	1.6416e-06	1.4786e-06	1269.5	251.08	1.5321e-06	1.5094e-06	315.09	88.188	69.246	20.144	1.4691e-06	28.595	116.528	116.379	129.306	44.822	186.137	165.229	44.915	51.936	198.577	181.171	51.680	57.989	58.613	65.876	174.879	65.126	-8191	255	
1604.396	1	1	0	0	0.026421	0.1682	0.10655	0.44506	0.14067	0.049206	0.31057	0.29679	0.28035	0.1716	0.23939	0.11623	0.32315	0.13524	0.11088	0.37745	-3.1208	-3.1437	-3.2333	-3.5042	-3.1146	-3.3187	-3.3958	-3.0312	-3.3812	-3.0292	-3.2417	-3.4229	-3.1521	-3.2208	-3.4437	-3.225	129.236	314.572	90.811	40.918	210.494	339.915	375.199	376.647	277.035	130.591	305.926	222.147	374.593	39.548	121.327	362.714	0.00029434	0.000431	5.8187e-05	1221.7	2.8134e-06	2.4259e-06	1296.2	255.85	1.4539e-06	2.6959e-06	320.04	89.106	69.88	20.084	3.3412e-06	28.418	0.00016165	0.00014072	3.7032e-05	1199.9	1.6354e-06	1.4138e-06	1270	252.05	1.5145e-06	1.3765e-06	315.52	88.416	69.365	20.125	1.4422e-06	28.619	116.901	128.709	101.503	44.667	204.027	181.746	45.038	52.067	186.728	215.925	51.555	57.985	58.604	65.306	185.798	64.854	-8191	255	
1604.490	1	1	0	0	0.041532	0.073651	0.19934	0.1316	0.21938	0.080907	0.17243	0.18077	0.14692	0.053132	0.42426	0.23813	0.15893	0.098557	0.080279	0.26917	-3.0979	-3.0312	-3.0583	-3.6458	-3.0187	-3.4667	-3.4458	-3.2292	-3.4313	-3.2917	-3.2958	-3.5979	-3.125	-3.3625	-3.3208	-3.125	235.842	279.426	212.982	305.458	93.172	59.286	315.352	379.326	36.595	222.762	363.111	46.049	125.817	46.886	371.010	234.995	0.00028624	0.00045922	3.2094e-05	1224.8	3.1137e-06	4.5987e-07	1294	253.51	2.2169e-06	2.9032e-06	319.81	88.596	69.541	19.99	4.0982e-06	28.408	0.00016138	0.00013645	3.578e-05	1200.9	1.5251e-06	1.3351e-06	1269.8	251.12	1.4491e-06	1.2938e-06	315.47	88.123	69.155	20.103	1.3134e-06	28.623	126.473	146.055	115.681	44.976	193.580	276.585	44.812	52.205	180.289	190.278	51.733	58.001	58.604	65.879	191.456	64.948	-8191	255	
1604.587	1	1	0	0	0.10368	0.051824	0.19161	0.36013	0.15222	0.21845	0.18003	0.23848	0.09448	0.1131	0.055052	0.166	0.3222	0.15871	0.14222	0.17252	-3.0542	-3.0375	-2.9104	-3.5854	-3.1792	-3.3542	-3.6417	-3.2333	-3.4062	-3.3542	-3.2208	-3.4333	-3.0708	-3.3396	-3.4208	-3.0854	61.334	391.417	292.097	303.454	353.138	242.618	392.559	309.900	64.573	173.515	344.882	61.415	94.246	348.391	227.127	389.470	0.00028325	0.00032544	0.00011557	1223	4.0006e-06	3.5913e-06	1286.7	253.76	4.423e-06	4.5192e-06	319.39	88.31	69.47	20.007	3.2942e-06	28.339	0.00015493	0.00012961	3.5312e-05	1198.6	1.4277e-06	1.3204e-06	1266.2	250.65	1.4006e-06	1.3086e-06	314.86	88.042	69.027	20.087	1.2961e-06	28.538	119.402	127.095	112.813	44.854	205.394	183.111	44.933	52.146	187.262	189.483	51.653	58.171	58.529	65.904	172.601	64.840	-8191	255	
1604.683	1	1	0	0	0.020193	0.16473	0.068075	0.1849	0.16942	0.074661	0.13681	0.29208	0.064272	0.056105	0.21839	0.15423	0.28756	0.14902	0.078311	0.18142	-2.8604	-3.1375	-3.1021	-3.6479	-3.1312	-3.0938	-3.4917	-3.15	-3.3083	-3.3271	-3.0375	-3.4875	-3.2562	-3.2458	-3.4854	-3.2396	248.562	371.877	247.204	300.558	144.169	35.911	383.591	307.664	120.298	34.516	296.323	51.270	111.240	227.985	273.175	333.426	0.00030295	0.00031629	7.3985e-05	1220.2	1.6451e-06	1.6749e-06	1287.5	253.8	3.6209e-06	3.7164e-06	319.42	88.574	69.042	19.973	2.2161e-06	28.355	0.00014671	0.00012484	3.3506e-05	1196	1.4296e-06	1.2702e-06	1263.7	250.62	1.3114e-06	1.217e-06	314.84	87.742	68.854	20.042	1.2229e-06	28.517	122.200	135.622	163.642	45.148	188.859	191.095	45.012	52.122	179.728	219.624	51.642	58.343	58.696	65.469	176.769	65.272	-8191	255	
1604.779	1	1	0	0	0.3198	0.086998	0.074871	0.16134	0.30079	0.23565	0.22677	0.29852	0.039351	0.17717	0.04036	0.19447	0.14763	0.10359	0.21299	0.16227	-2.9188	-3.3083	-2.9917	-3.5062	-3.2583	-3.0958	-3.6021	-3.25	-3.2687	-3.3583	-3.3396	-3.5042	-3.3104	-3.1667	-3.5812	-3.1521	370.516	258.373	185.591	372.904	45.077	359.278	337.793	320.776	257.133	319.788	55.298	41.431	66.244	257.504	246.446	304.053	0.0003189	0.00048429	8.5337e-05	1215.4	3.2671e-06	3.8962e-06	1288.9	253.46	2.7538e-06	2.6366e-06	317.71	88.098	69.4	19.917	2.2008e-06	28.355	0.00014766	0.00012378	3.2782e-05	1192.5	1.3504e-06	1.2523e-06	1265.1	250.47	1.3193e-06	1.2765e-06	314.27	87.677	68.939	20.028	1.2707e-06	28.437	122.054	152.954	148.156	44.837	209.661	182.693	44.928	52.011	179.719	186.427	51.667	58.118	58.813	65.652	184.331	64.988	-8191	255	
1604.875	1	1	0	0	0.097156	0.14273	0.17634	0.10497	0.20027	0.046908	0.098359	0.23284	0.16517	0.32355	0.11317	0.35765	0.14997	0.10616	0.23268	0.23364	-3.0167	-3.4229	-3.1875	-3.7229	-3.2083	-3.2479	-3.6292	-3.2229	-3.1562	-3.4354	-3.3771	-3.4333	-3.2667	-3.2271	-3.5333	-3.2875	369.693	346.736	289.872	279.048	364.831	320.607	296.000	263.611	319.185	376.851	357.743	301.910	49.936	291.425	76.445	118.297	0.00028817	0.00037718	7.0795e-05	1213.9	2.9124e-06	3.5331e-06	1285.6	253.48	4.2279e-06	1.3149e-06	318.18	87.778	69.373	20.009	3.1084e-06	28.464	0.00014391	0.00011815	3.2247e-05	1192.9	1.3265e-06	1.2524e-06	1264.9	250.03	1.3179e-06	1.1604e-06	313.85	87.642	68.957	20.042	1.203e-06	28.524	121.714	124.203	144.619	44.974	175.294	170.370	44.825	52.105	167.581	151.868	51.483	58.560	58.589	65.864	181.385	64.932	-8191	255	
1604.971	1	1	0	0	0.20732	0.28224	0.2623	0.10626	0.20289	0.081343	0.058558	0.2141	0.12273	0.13236	0.12728	0.15976	0.09812	0.23177	0.22588	0.15613	-2.8521	-3.4062	-3.1354	-3.5396	-3.2292	-3.0979	-3.7083	-3.1646	-3.1937	-3.5312	-3.2938	-3.3875	-3.1792	-3.2	-3.6208	-3.3646	367.325	266.796	150.425	393.492	97.764	95.022	368.436	56.012	283.485	75.014	301.543	154.419	346.740	393.860	65.905	290.651	0.00030361	0.00039658	6.7578e-05	1219.1	4.3471e-06	2.4512e-06	1287.5	252.77	3.0286e-06	2.5568e-06	318.46	87.606	69.335	19.997	2.6382e-06	28.219	0.0001462	0.00012026	3.1388e-05	1195.6	1.3066e-06	1.3097e-06	1265.4	250.09	1.3753e-06	1.201e-06	313.75	87.738	68.712	20.025	1.2384e-06	28.501	123.120	124.383	133.248	45.032	196.735	187.209	44.984	52.405	181.769	186.624	51.477	58.169	58.646	65.474	174.091	65.381	-8191	255	
1605.067	1	1	0	0	0.19432	0.16153	0.23888	0.13337	0.2183	0.12408	0.21685	0.020016	0.13945	0.040371	0.11727	0.081777	0.14757	0.10965	0.090866	0.28852	-2.7729	-3.2583	-3.1125	-3.3937	-3.3542	-3.0917	-3.5312	-3.3688	-3.35	-3.4708	-3.2854	-3.5271	-3.5167	-3.0896	-3.4396	-3.3312	205.492	263.052	303.043	290.366	304.406	382.030	371.565	254.619	358.807	98.411	225.108	175.151	323.084	126.500	174.297	74.835	0.00027528	0.00046967	5.9764e-05	1216	2.9531e-06	2.5552e-06	1286.2	252.3	2.9792e-06	4.6165e-06	317.94	87.812	69.267	19.91	1.9101e-06	28.234	0.00014243	0.0001174	3.1009e-05	1191.9	1.305e-06	1.2549e-06	1263.4	249.77	1.2978e-06	1.2343e-06	313.35	87.536	68.675	19.986	1.1486e-06	28.409	122.905	106.605	123.121	44.937	187.151	158.334	44.808	52.110	172.649	197.596	51.353	58.105	58.596	65.488	179.960	64.819	-8191	255	
1605.188	1	1	0	0	0.072462	0.21446	0.1031	0.25737	0.085777	0.095226	0.22259	0.15741	0.14055	0.24549	0.15402	0.2385	0.07701	0.092866	0.19588	0.23422	-2.7083	-3.3833	-2.9167	-3.3646	-3.3875	-3	-3.6729	-3.2562	-3.1708	-3.3646	-3.2687	-3.1396	-3.4521	-3.0458	-3.3021	-3.3937	104.951	56.564	41.756	363.231	121.775	297.461	326.529	153.531	260.731	125.948	264.881	311.257	147.032	393.720	326.856	170.509	0.00029998	0.00029703	7.5522e-05	1213.3	2.4619e-06	3.4257e-06	1281.1	253.58	3.1326e-06	2.5895e-06	315.08	87.576	69.465	19.771	2.9627e-06	28.257	0.00014696	0.00011461	3.0821e-05	1188.9	1.3285e-06	1.208e-06	1257.9	249.47	1.3511e-06	1.209e-06	313.02	87.636	68.764	19.956	1.1485e-06	28.364	123.185	120.948	113.023	45.183	204.898	168.300	44.960	52.090	178.853	203.430	51.719	58.610	58.862	65.740	173.428	64.951	-8191	255	
1605.284	1	1	0	0	0.33757	0.04417	0.16919	0.34232	0.044296	0.11516	0.25911	0.16936	0.1409	0.19312	0.12011	0.2134	0.18969	0.037302	0.09475	0.024036	-2.6833	-3.2958	-3.2729	-3.15	-3.4021	-3.0438	-3.4062	-3.6042	-3.0583	-3.4917	-3.3417	-3.3625	-3.5417	-3.0187	-3.375	-3.3083	198.433	225.593	273.419	290.392	47.380	372.996	296.173	200.513	80.737	338.331	167.820	108.351	317.298	227.177	332.905	327.659	0.00028671	0.00028476	9.5759e-05	1212	4.1748e-06	2.5145e-06	1277.7	252.01	2.1749e-06	3.2501e-06	316.28	87.785	69.349	19.88	2.3126e-06	28.108	0.00014356	0.00011084	2.8837e-05	1187.6	1.2969e-06	1.199e-06	1256.2	248.99	1.3278e-06	1.1601e-06	312.28	87.422	68.587	19.949	1.1823e-06	28.39	116.999	124.384	116.881	45.004	199.170	222.745	44.907	52.047	173.426	197.877	51.597	58.350	59.050	65.545	181.563	65.027	-8191	255	
1605.380	1	1	0	0	0.10066	0.10765	0.20999	0.041444	0.13329	0.1569	0.4062	0.094825	0.12942	0.10518	0.32621	0.049862	0.18441	0.13557	0.15706	0.22754	-2.6917	-3.3958	-3.0167	-3.225	-3.6417	-3.25	-3.4604	-3.3146	-3.175	-3.3958	-3.2604	-3.1583	-3.5812	-3.25	-3.1979	-3.725	281.920	80.282	45.790	89.196	133.454	149.044	341.444	298.238	73.760	101.517	51.382	290.875	96.931	87.621	207.972	378.342	0.00028776	0.00055864	0.0001051	1215	4.1322e-06	3.096e-06	1281.6	253.2	3.144e-06	2.0942e-06	316.79	88.261	68.934	19.84	2.7805e-06	28.276	0.00014425	0.00011226	2.9313e-05	1190.4	1.3368e-06	1.1674e-06	1260.2	249.22	1.2834e-06	1.1824e-06	312.99	87.696	68.639	19.92	1.2286e-06	28.455	123.879	131.563	134.688	44.844	200.798	183.099	45.017	51.974	176.705	223.793	51.264	58.451	58.457	65.523	192.048	65.238	-8191	255	
1605.476	1	1	0	0	0.18272	0.1797	0.12649	0.21307	0.072002	0.37607	0.19489	0.28973	0.29527	0.22355	0.1242	0.10934	0.11319	0.16527	0.051283	0.14745	-2.5521	-3.4062	-3.1542	-3.1312	-3.4458	-3.0833	-3.2833	-3.5563	-2.9667	-3.4562	-3.1875	-3.0438	-3.4146	-3.2146	-3.0979	-3.3542	150.240	61.563	315.643	336.016	119.616	136.151	314.267	390.335	287.884	48.878	361.258	44.267	344.409	359.586	245.401	281.717	0.00029811	0.00037117	0.00010254	1213.7	3.9283e-06	4.1596e-06	1282.8	252.75	2.6396e-06	4.2623e-06	317.04	88.076	69.604	19.938	2.5893e-06	28.263	0.00014942	0.00011245	3.1172e-05	1190.1	1.3558e-06	1.2572e-06	1262.2	249.8	1.4092e-06	1.23e-06	313.26	87.756	68.869	20.018	1.3391e-06	28.467	121.893	123.102	139.697	45.048	210.314	180.861	44.920	52.025	146.084	199.707	51.233	58.273	58.712	65.411	175.632	64.926	-8191	255	
1605.571	1	1	0	0	0.21634	0.22131	0.22628	0.08363	0.077216	0.16361	0.12161	0.16034	0.12733	0.11209	0.24326	0.32595	0.29869	0.058212	0.12105	0.025268	-2.6542	-3.3708	-3.3	-3.1312	-3.2771	-3.1229	-3.3438	-3.5771	-3.0812	-3.4104	-3.3896	-3	-3.3792	-3.1688	-3.0792	-3.5042	222.760	237.268	101.348	190.875	382.086	385.028	350.795	374.498	236.599	264.560	342.245	292.208	251.412	101.464	280.370	310.367	0.00031655	0.00048578	0.00011967	1221.3	4.4159e-06	2.8777e-06	1286.9	252.7	3.6192e-06	3.144e-06	318.23	88.062	69.354	19.89	3.6943e-06	28.236	0.00014925	0.00012211	3.2864e-05	1193.3	1.338e-06	1.2205e-06	1262.3	249.58	1.3766e-06	1.1918e-06	313.59	87.693	68.736	19.981	1.2732e-06	28.378	121.590	150.469	134.768	44.968	187.782	151.919	44.837	52.041	178.846	199.225	51.453	58.349	58.686	65.357	180.519	65.359	-8191	255	
1605.669	1	1	0	0	0.22054	0.15112	0.12258	0.27677	0.11687	0.15477	0.19698	0.025981	0.17617	0.098244	0.18944	0.056285	0.12783	0.15492	0.26355	0.16909	-2.5917	-3.3042	-3.4625	-3.2646	-3.3979	-3.3104	-3.3333	-3.5333	-3.0792	-3.2604	-3.4875	-3.0375	-3.4042	-3.2479	-3.0542	-3.4375	50.699	80.356	61.285	355.350	368.083	335.182	357.344	165.468	199.057	264.585	41.183	363.261	43.172	119.875	307.171	39.768	0.00028813	0.00058273	9.3849e-05	1218.9	3.3805e-06	2.6573e-06	1287	252.2	4.1804e-06	4.1683e-06	316.52	87.647	69.73	19.854	2.8684e-06	28.367	0.00014623	0.0001218	3.3297e-05	1192.8	1.2985e-06	1.2635e-06	1262.8	249.7	1.355e-06	1.2274e-06	313.19	87.573	68.884	19.992	1.277e-06	28.546	121.909	131.849	163.052	44.950	194.304	189.022	44.962	52.181	179.140	172.598	51.648	58.323	58.786	65.693	195.789	64.969	-8191	255	
1605.788	1	1	0	0	0.1092	0.22636	0.17152	0.0056877	0.13988	0.32165	0.27535	0.10572	0.035107	0.23622	0.16458	0.18163	0.23133	0.10656	0.22203	0.11951	-2.775	-3.3333	-3.3583	-3.1625	-3.3333	-3.2042	-3.1875	-3.4979	-3.1271	-3.2812	-3.5167	-3.0583	-3.1896	-3.3542	-3.0167	-3.5375	229.027	327.150	180.275	324.195	298.938	93.563	317.842	65.292	144.527	216.025	47.328	271.483	365.665	284.656	282.695	125.778	0.00028922	0.00037256	8.7039e-05	1217.5	1.6213e-06	2.9242e-06	1284.1	252.3	2.6578e-06	3.4105e-06	316.73	87.858	69.463	19.883	2.5479e-06	28.426	0.00014533	0.00011982	3.1902e-05	1192.5	1.3431e-06	1.251e-06	1262.2	249.36	1.3715e-06	1.2578e-06	313.75	87.606	68.777	20.02	1.2938e-06	28.475	124.353	134.973	148.274	45.072	184.346	175.702	44.869	51.963	194.046	179.897	51.756	58.332	58.961	65.885	181.808	65.032	-8191	255	
1605.884	1	1	0	0	0.13252	0.27181	0.29687	0.18457	0.063389	0.30449	0.37171	0.1785	0.15739	0.10096	0.1002	0.16425	0.16894	0.41209	0.27631	0.1317	-2.7792	-2.9396	-3.325	-3.2271	-3.1937	-3.2354	-3.1792	-3.5125	-3.1479	-3.2125	-3.5354	-3.2271	-3.3937	-3.3208	-3.0083	-3.3854	172.959	308.567	165.397	338.772	241.638	98.246	338.637	337.600	88.380	300.189	245.319	214.174	304.532	352.713	140.953	273.594	0.00029895	0.0003771	6.9201e-05	1213.6	3.7487e-06	2.6401e-06	1281.3	252.12	2.0006e-06	5.2405e-06	317.5	87.845	69.196	19.895	2.8227e-06	28.299	0.0001508	0.00012404	3.1573e-05	1190.6	1.2825e-06	1.2576e-06	1262.2	249.86	1.3413e-06	1.2878e-06	313.33	87.487	68.724	19.975	1.2756e-06	28.422	124.238	125.088	92.187	44.950	209.388	156.610	44.915	52.275	195.303	208.494	51.489	58.149	58.665	65.187	185.278	65.211	-8191	255	
1605.980	1	1	0	0	0.23037	0.12614	0.28649	0.44712	0.1728	0.11514	0.25488	0.22823	0.0802	0.091562	0.10283	0.11624	0.054351	0.37683	0.076389	0.10846	-2.8271	-3.0604	-3.3208	-3.3271	-3.2208	-3.4208	-3.3438	-3.475	-3.3875	-3.1813	-3.5729	-3.1542	-3.3333	-3.3125	-3.1437	-3.3771	61.751	359.196	180.407	305.334	198.990	292.084	340.748	309.393	91.798	335.075	77.542	382.022	331.199	369.460	353.290	392.860	0.00029302	0.00039724	0.00010571	1218.3	2.1731e-06	3.1783e-06	1286.2	253.41	2.7726e-06	3.5792e-06	317.16	87.697	68.617	19.962	3.5924e-06	28.383	0.00014822	0.0001249	3.2083e-05	1191.2	1.3417e-06	1.2388e-06	1260.4	249.68	1.2981e-06	1.2152e-06	313.29	87.6	68.595	20.005	1.2491e-06	28.494	118.640	115.229	120.025	45.024	200.605	171.485	44.911	52.126	167.897	156.063	51.526	58.346	58.862	65.499	170.336	65.337	-8191	255	
1606.076	1	1	0	0	0.14855	0.16447	0.024115	0.29469	0.20196	0.14812	0.14139	0.20397	0.1973	0.17412	0.15732	0.27634	0.17558	0.31842	0.061429	0.13061	-2.7938	-3.0271	-3.4042	-3.2292	-3.1354	-3.4521	-3.2833	-3.4417	-3.4021	-3.075	-3.5125	-3.1792	-3.2271	-3.4521	-2.9542	-3.2979	369.352	248.043	384.763	358.586	359.361	100.212	343.160	301.276	351.789	69.630	326.518	73.452	346.966	96.545	281.686	47.899	0.00029276	0.00046198	7.6369e-05	1221.4	3.5764e-06	3.0516e-06	1282.3	252.42	2.3009e-06	2.8699e-06	316.91	88.044	69.059	20.058	2.6572e-06	28.421	0.00013964	0.00012097	2.9235e-05	1193.2	1.3638e-06	1.199e-06	1259.5	249.01	1.2901e-06	1.2084e-06	313.14	87.637	68.863	20.009	1.1954e-06	28.484	118.100	133.649	139.593	44.851	198.152	202.503	44.906	52.304	172.217	200.456	51.532	58.044	58.702	65.623	179.618	64.945	-8191	255	
1606.172	1	1	0	0	0.043306	0.075255	0.16959	0.092175	0.091818	0.22771	0.18693	0.24472	0.10042	0.14017	0.29438	0.26886	0.27923	0.056559	0.088211	0.20216	-2.8604	-3.0396	-3.5312	-3.3708	-2.9833	-3.4354	-3.3312	-3.3917	-3.3208	-3.2313	-3.3896	-3.1333	-3.1167	-3.6	-3.2	-3.1667	206.334	276.379	295.821	289.816	239.474	308.402	372.333	384.208	192.448	322.311	71.074	349.624	314.883	344.961	177.749	324.794	0.0002992	0.00046095	9.3258e-05	1218.1	2.6358e-06	4.6336e-06	1281	252.46	3.3757e-06	4.4863e-06	318.24	87.961	69.066	19.952	2.8282e-06	28.362	0.00014116	0.00012339	3.0288e-05	1191.5	1.3361e-06	1.2308e-06	1260.2	249.41	1.3081e-06	1.2133e-06	313.58	87.666	68.638	20.023	1.2008e-06	28.458	121.583	150.410	155.617	44.731	182.763	185.114	44.771	52.197	194.489	203.223	51.741	58.329	58.962	65.209	220.433	65.322	-8191	255	
1606.268	1	1	0	0	0.079589	0.078894	0.098828	0.14135	0.17004	0.25728	0.21558	0.33355	0.2144	0.16658	0.32622	0.25351	0.42004	0.098244	0.086937	0.15197	-3.1625	-3.1562	-3.3937	-3.3958	-3.0792	-3.4125	-3.2229	-3.2812	-3.3958	-3.175	-3.5042	-3.1521	-3.3396	-3.4771	-3.1937	-3.3771	355.501	210.359	224.387	86.526	74.538	198.797	389.773	349.011	245.233	383.089	366.872	362.488	344.375	51.054	313.868	303.771	0.00029405	0.00041745	8.2596e-05	1211.8	3.5949e-06	2.4114e-06	1284	252.12	3.6264e-06	3.8094e-06	317.78	87.987	69.033	19.967	3.9672e-06	28.507	0.00014069	0.00011318	2.8518e-05	1187.7	1.3202e-06	1.1395e-06	1261	248.9	1.3151e-06	1.1623e-06	312.95	87.628	68.597	20.007	1.1538e-06	28.555	118.539	133.995	120.963	45.037	205.418	145.124	44.844	52.281	158.113	258.578	51.572	58.224	58.790	65.420	185.332	65.064	-8191	255	
1606.387	1	1	0	0	0.18693	0.092902	0.3319	0.32377	0.043373	0.16168	0.12182	0.31595	0.14736	0.31927	0.088482	0.12636	0.066335	0.31467	0.1891	0.064423	-2.9292	-3.0083	-3.2417	-3.2542	-2.9813	-3.5729	-3.3479	-3.3708	-3.6167	-3.0104	-3.3771	-3.3667	-2.9458	-3.4729	-3.0771	-3.1917	171.890	314.060	129.278	53.767	268.889	269.790	216.872	322.419	247.964	272.329	138.209	391.748	210.629	83.882	148.407	189.723	0.00028709	0.00051138	9.2895e-05	1221.2	3.5437e-06	2.7901e-06	1281.2	251.49	2.1322e-06	4.9397e-06	317.48	87.961	69.157	19.952	2.4792e-06	28.225	0.00013969	0.00011095	3.0015e-05	1190.4	1.3369e-06	1.1496e-06	1260	249.03	1.277e-06	1.1298e-06	313.05	87.621	68.659	19.938	1.149e-06	28.439	118.413	145.216	139.005	44.724	196.891	151.328	45.232	52.209	179.588	197.355	51.474	58.354	58.779	65.792	167.325	65.317	-8191	255	
1606.483	1	1	0	0	0.19094	0.21964	0.10861	0.39237	0.072019	0.16872	0.38	0.2345	0.22548	0.20931	0.11909	0.17085	0.077046	0.052023	0.18681	0.38257	-3.0917	-3.1854	-3.3208	-3.475	-3.0021	-3.4333	-3.5667	-3.3458	-3.4104	-3.3521	-3.4542	-3.3396	-3.1729	-3.5229	-3.3021	-3.0771	337.560	350.813	170.325	380.154	131.046	272.350	369.138	337.017	89.949	375.819	220.925	368.295	37.267	311.821	281.307	58.076	0.00026748	0.00043918	6.7568e-05	1212.4	3.9311e-06	2.6961e-06	1284.6	252.91	2.9693e-06	2.3137e-06	315.9	87.769	69.505	19.897	3.3036e-06	28.337	0.00013861	0.00011351	2.9274e-05	1188.7	1.2676e-06	1.1201e-06	1258.8	249.4	1.2214e-06	1.1163e-06	312.69	87.424	68.694	19.968	1.1257e-06	28.477	121.745	122.919	103.130	45.158	181.985	195.550	45.020	51.983	175.824	180.872	51.427	58.372	58.789	65.288	188.069	65.370	-8191	255	
#DATA ENDS
