BOXY.EXE: ISS Imagent and Oximeter Data Acquisition Program Version 0.80
Ascii Record File

#ACQ INFORMATION
2  Detector Channels 
16  External MUX Channels 
1  Auxiliary Channels 
5000  Waveform (CCF) Frequency (Hz)
1  Waveforms Skipped 
30  Waveforms Averaged 
1  Cycles Averaged 
16  Acquisitions per Waveform 
10.0806  Updata Rate (Hz) 

#FILE INFORMATION
TRUE -- External MUX Channel results are PARSED.
FALSE -- AC DC and Phase are NOT grouped.
TRUE -- Companion Program Settings File CREATED.
FALSE -- AC data not excluded
FALSE -- DC data not excluded
FALSE -- Phase data not excluded
FALSE -- Auxillary Chn. data not excluded
Tab delimiters

#CALIBRATION STATE
TRUE -- Waveform Calibration Values APPLIED.


#AUX CALIBRATION VALUES
Val Type	aux-1	

Term	1.0000e+00	
Factor	0.0000e+00	


#WF CALIBRATION VALUES
A = Detector Channel
Val Type	A-AC1	A-AC2	A-AC3	A-AC4	A-AC5	A-AC6	A-AC7	A-AC8	A-AC9	A-AC10	A-AC11	A-AC12	A-AC13	A-AC14	A-AC15	A-AC16	A-DC1	A-DC2	A-DC3	A-DC4	A-DC5	A-DC6	A-DC7	A-DC8	A-DC9	A-DC10	A-DC11	A-DC12	A-DC13	A-DC14	A-DC15	A-DC16	A-Ph1	A-Ph2	A-Ph3	A-Ph4	A-Ph5	A-Ph6	A-Ph7	A-Ph8	A-Ph9	A-Ph10	A-Ph11	A-Ph12	A-Ph13	A-Ph14	A-Ph15	A-Ph16	

Term	0.00000e+00	0.00000e+00	0.00000e+00	0.00000e+00	0.00000e+00	0.00000e+00	0.00000e+00	0.00000e+00	0.00000e+00	0.00000e+00	0.00000e+00	0.00000e+00	0.00000e+00	0.00000e+00	0.00000e+00	0.00000e+00	0.00000e+00	0.00000e+00	0.00000e+00	0.00000e+00	0.00000e+00	0.00000e+00	0.00000e+00	0.00000e+00	0.00000e+00	0.00000e+00	0.00000e+00	0.00000e+00	0.00000e+00	0.00000e+00	0.00000e+00	0.00000e+00	0.00000e+00	0.00000e+00	0.00000e+00	0.00000e+00	0.00000e+00	0.00000e+00	0.00000e+00	0.00000e+00	0.00000e+00	0.00000e+00	0.00000e+00	0.00000e+00	0.00000e+00	0.00000e+00	0.00000e+00	0.00000e+00	
Factor	1.00000e+00	1.00000e+00	1.00000e+00	1.00000e+00	1.00000e+00	1.00000e+00	1.00000e+00	1.00000e+00	1.00000e+00	1.00000e+00	1.00000e+00	1.00000e+00	1.00000e+00	1.00000e+00	1.00000e+00	1.00000e+00	1.00000e+00	1.00000e+00	1.00000e+00	1.00000e+00	1.00000e+00	1.00000e+00	1.00000e+00	1.00000e+00	1.00000e+00	1.00000e+00	1.00000e+00	1.00000e+00	1.00000e+00	1.00000e+00	1.00000e+00	1.00000e+00	X	X	X	X	X	X	X	X	X	X	X	X	X	X	X	X	

B = Detector Channel
Val Type	B-AC1	B-AC2	B-AC3	B-AC4	B-AC5	B-AC6	B-AC7	B-AC8	B-AC9	B-AC10	B-AC11	B-AC12	B-AC13	B-AC14	B-AC15	B-AC16	B-DC1	B-DC2	B-DC3	B-DC4	B-DC5	B-DC6	B-DC7	B-DC8	B-DC9	B-DC10	B-DC11	B-DC12	B-DC13	B-DC14	B-DC15	B-DC16	B-Ph1	B-Ph2	B-Ph3	B-Ph4	B-Ph5	B-Ph6	B-Ph7	B-Ph8	B-Ph9	B-Ph10	B-Ph11	B-Ph12	B-Ph13	B-Ph14	B-Ph15	B-Ph16	

Term	0.00000e+00	0.00000e+00	0.00000e+00	0.00000e+00	0.00000e+00	0.00000e+00	0.00000e+00	0.00000e+00	0.00000e+00	0.00000e+00	0.00000e+00	0.00000e+00	0.00000e+00	0.00000e+00	0.00000e+00	0.00000e+00	0.00000e+00	0.00000e+00	0.00000e+00	0.00000e+00	0.00000e+00	0.00000e+00	0.00000e+00	0.00000e+00	0.00000e+00	0.00000e+00	0.00000e+00	0.00000e+00	0.00000e+00	0.00000e+00	0.00000e+00	0.00000e+00	-1.62352e+02	-1.41008e+02	-1.11495e+02	-1.83984e+02	-1.11418e+02	-7.45502e+01	-1.55811e+02	-1.62015e+02	-8.09347e+01	-4.80968e+01	-1.73154e+02	-1.73613e+02	-1.86815e+02	-1.78292e+02	-6.95269e+01	-1.50256e+02	
Factor	2.31503e-05	1.21955e-04	3.53977e-05	1.73479e-01	9.55770e-07	1.44040e-06	1.63553e-01	5.56841e-02	9.89360e-07	1.12439e-06	9.67085e-02	2.82450e-02	5.57543e-02	8.47876e-03	1.11573e-06	1.21845e-02	1.04864e-06	1.07952e-06	3.00291e-07	8.44363e-02	1.18273e-08	1.18528e-08	7.57509e-02	2.71375e-02	1.18471e-08	1.18386e-08	4.50717e-02	1.32853e-02	2.55029e-02	4.11310e-03	1.18525e-08	5.73167e-03	X	X	X	X	X	X	X	X	X	X	X	X	X	X	X	X	



#DISTANCE SETTINGS
A = Detector Channel
A-1	A-2	A-3	A-4	A-5	A-6	A-7	A-8	A-9	A-10	A-11	A-12	A-13	A-14	A-15	A-16	

2.5000e+00	3.0000e+00	2.5000e+00	3.0000e+00	2.0000e+00	3.0000e+00	1.5000e+00	3.0000e+00	3.0000e+00	3.0000e+00	3.0000e+00	3.0000e+00	3.0000e+00	3.0000e+00	1.5000e+00	3.0000e+00	

B = Detector Channel
B-1	B-2	B-3	B-4	B-5	B-6	B-7	B-8	B-9	B-10	B-11	B-12	B-13	B-14	B-15	B-16	

1.0000e+01	1.0000e+01	1.0000e+01	1.4400e+00	1.0000e+01	1.0000e+01	1.5100e+00	1.9400e+00	1.0000e+01	1.0000e+01	1.9900e+00	2.4900e+00	2.4100e+00	2.9000e+00	1.0000e+01	2.9800e+00	




#DATA BEGINS
time	group	step	mark	flag	A-AC1	A-AC2	A-AC3	A-AC4	A-AC5	A-AC6	A-AC7	A-AC8	A-AC9	A-AC10	A-AC11	A-AC12	A-AC13	A-AC14	A-AC15	A-AC16	A-DC1	A-DC2	A-DC3	A-DC4	A-DC5	A-DC6	A-DC7	A-DC8	A-DC9	A-DC10	A-DC11	A-DC12	A-DC13	A-DC14	A-DC15	A-DC16	A-Ph1	A-Ph2	A-Ph3	A-Ph4	A-Ph5	A-Ph6	A-Ph7	A-Ph8	A-Ph9	A-Ph10	A-Ph11	A-Ph12	A-Ph13	A-Ph14	A-Ph15	A-Ph16	B-AC1	B-AC2	B-AC3	B-AC4	B-AC5	B-AC6	B-AC7	B-AC8	B-AC9	B-AC10	B-AC11	B-AC12	B-AC13	B-AC14	B-AC15	B-AC16	B-DC1	B-DC2	B-DC3	B-DC4	B-DC5	B-DC6	B-DC7	B-DC8	B-DC9	B-DC10	B-DC11	B-DC12	B-DC13	B-DC14	B-DC15	B-DC16	B-Ph1	B-Ph2	B-Ph3	B-Ph4	B-Ph5	B-Ph6	B-Ph7	B-Ph8	B-Ph9	B-Ph10	B-Ph11	B-Ph12	B-Ph13	B-Ph14	B-Ph15	B-Ph16	aux-1	digaux	

5830.082	1	1	0	768	0.14851	0.2117	0.15046	0.17585	0.068288	0.35556	0.14705	0.1052	0.17454	0.24942	0.26704	0.35991	0.14013	0.087747	0.033464	0.38564	-2.6125	-2.9542	-3.2062	-3.0125	-3.1562	-3.1104	-3.075	-3.3312	-3.1542	-3.1188	-3.3042	-3.1375	-3.1417	-3.1146	-2.9042	-3.3083	205.791	26.720	203.645	290.292	123.866	143.968	193.794	-29.489	26.999	261.648	293.205	251.535	22.703	277.012	164.766	235.304	0.00051932	0.0015679	0.00011957	713.02	8.7424e-06	7.3798e-06	783.43	315.35	1.0397e-05	1.7551e-05	376.47	170.56	130.77	62.173	1.3275e-05	82.637	0.0030779	0.0030975	0.00082569	926.21	3.4655e-05	3.4002e-05	976.67	383.47	3.4368e-05	3.3307e-05	481.08	202.67	195.28	72.673	3.0865e-05	96.073	115.910	-12.511	6.390	-37.142	165.350	45.783	-38.478	-32.266	221.831	59.866	-34.850	-30.495	-28.699	-23.222	55.757	-26.717	-8191	255	
5830.178	1	1	0	0	0.11211	0.12843	0.1788	0.15861	0.15552	0.21196	0.31518	0.21345	0.11649	0.16342	0.19079	0.13152	0.31921	0.21037	0.10999	0.32092	-2.5896	-3.0271	-3.2042	-2.8896	-3.075	-3.3792	-3.0021	-3.2292	-3.0187	-3.0646	-3.3042	-3.1417	-3.2292	-3.3187	-2.9313	-3.3208	275.438	-18.789	199.622	200.445	20.659	268.477	283.296	103.406	301.419	9.521	268.438	-30.070	244.489	283.909	157.218	306.224	0.00033499	0.0017639	0.00030712	709.98	9.6115e-06	2.0499e-05	781.22	313.37	6.267e-06	1.138e-05	371.36	168.35	131.79	61.507	9.1869e-06	82.111	0.003022	0.0030011	0.00078463	927.71	3.3894e-05	3.3028e-05	962.46	383.74	3.3969e-05	3.2911e-05	475.75	202.89	194.88	72.288	3.0641e-05	96.079	116.972	-25.425	-31.675	-37.313	266.806	21.063	-38.389	-32.261	54.895	72.878	-35.064	-30.670	-29.089	-23.383	268.028	-26.716	-8191	255	
5830.274	1	1	0	0	0.18947	0.1957	0.12134	0.19279	0.23159	0.053326	0.29326	0.20615	0.24101	0.17078	0.030431	0.24028	0.11417	0.38249	0.099576	0.3533	-2.6146	-3.0333	-3.2854	-2.8729	-3.2208	-3.225	-3.0104	-3.2417	-2.9792	-3.0625	-3.4396	-3.1646	-3.1625	-3.4562	-2.9062	-3.3542	113.818	182.708	-34.083	41.055	103.287	273.328	303.316	278.871	237.913	126.629	-6.799	230.253	7.635	-34.692	304.133	254.872	0.00033447	0.00071158	0.00041808	707.21	1.264e-05	1.6826e-05	775.64	313.8	9.3132e-06	8.5301e-06	369.97	169.37	129.59	61.43	1.4299e-05	82.073	0.0030167	0.0029654	0.00078449	935.6	3.3696e-05	3.2488e-05	961.95	386.76	3.3639e-05	3.2324e-05	477.44	204.2	194.28	72.025	3.1538e-05	96.694	135.374	-12.723	102.653	-36.869	-2.390	0.367	-38.398	-32.258	85.274	100.151	-34.840	-30.515	-28.845	-23.127	227.164	-26.455	-8191	255	
5830.370	1	1	0	0	0.15511	0.28259	0.17135	0.3212	0.24621	0.11574	0.14754	0.19523	0.088922	0.22458	0.13238	0.17469	0.13552	0.18845	0.12829	0.13655	-2.7854	-3.0375	-3.3208	-3.0708	-3.2146	-3.3875	-2.9125	-3.3438	-3.1354	-3.0396	-3.1542	-3.2062	-3.0687	-3.5208	-3.0646	-3.3187	301.143	236.240	146.417	260.522	63.456	127.233	281.941	-30.063	155.828	285.017	80.063	214.715	292.010	296.410	265.630	217.209	0.00050158	0.0015692	0.00031157	711.4	5.8383e-06	1.1638e-05	780.55	314.18	9.897e-06	1.2233e-05	372.4	169.71	131.42	61.833	1.4315e-05	82.388	0.003008	0.0029288	0.00080611	945.64	3.3582e-05	3.1844e-05	973.68	388.13	3.3442e-05	3.144e-05	482.85	204.84	193.79	71.698	3.2716e-05	96.963	125.354	303.483	116.830	-36.941	38.838	107.331	-38.348	-32.356	164.149	76.229	-34.930	-30.715	-28.840	-23.273	211.078	-26.793	-8191	255	
5830.466	1	1	0	0	0.11987	0.043194	0.3059	0.13519	0.18116	0.36393	0.26144	0.35811	0.032574	0.15173	0.1032	0.16132	0.33613	0.20043	0.20326	0.14771	-2.6271	-3.1188	-3.2729	-2.9313	-3.0917	-3.3292	-3.1417	-3.2042	-3.2417	-3.0583	-3.2521	-3.2208	-3.0958	-3.5542	-2.9917	-3.25	185.058	-31.752	275.889	-17.642	147.201	82.843	190.734	268.452	23.268	233.100	186.938	-32.616	-9.508	285.931	15.143	214.647	0.00042135	0.0016139	0.0003374	722.22	1.9423e-06	8.4068e-06	780.76	314.7	1.0467e-05	3.7285e-06	376.17	170.4	130.97	61.49	1.0637e-05	82.615	0.002995	0.0028658	0.00084637	948.76	3.3405e-05	3.1133e-05	984.28	387.69	3.2834e-05	3.0657e-05	488.93	204.69	191.85	71.539	3.3425e-05	96.784	134.353	-27.536	149.921	-36.853	5.821	15.468	-38.152	-32.075	54.932	87.322	-34.607	-30.881	-28.566	-22.836	133.985	-26.541	-8191	255	
5830.562	1	1	0	0	0.31021	0.14051	0.15129	0.36808	0.25047	0.21395	0.31828	0.13548	0.13249	0.40724	0.15855	0.1654	0.20615	0.36255	0.070733	0.3356	-2.8083	-3.05	-3.2333	-3.2167	-2.9479	-3.325	-3.0812	-3.2938	-3.225	-3.0438	-3.2938	-3.3042	-3.0146	-3.3896	-3.0292	-3.4021	98.460	170.323	66.405	-44.392	93.270	185.023	178.120	-32.331	57.959	280.415	300.630	226.941	163.277	-32.968	309.006	244.871	0.00025238	0.00093912	0.00034724	719.31	5.355e-06	1.4243e-05	778.64	314.4	4.9879e-06	1.9882e-05	375.84	169.17	130.83	61.494	5.3497e-06	82.241	0.0028926	0.0028316	0.00085914	944.94	3.232e-05	3.1278e-05	990.31	387.17	3.2324e-05	3.162e-05	490.89	203.91	190.48	71.837	3.4505e-05	96.463	115.448	24.056	186.032	-37.013	-14.166	107.474	-38.295	-32.413	126.333	97.471	-34.586	-30.894	-28.907	-23.173	159.598	-26.691	-8191	255	
5830.683	1	1	0	0	0.24114	0.14992	0.3133	0.19514	0.17482	0.19123	0.12906	0.31364	0.21402	0.10975	0.15209	0.34266	0.044105	0.10829	0.11425	0.052355	-2.8187	-2.8271	-3.2542	-3.1625	-2.8479	-3.3708	-3.2708	-3.1958	-3.3	-3.0292	-3.2021	-3.2229	-3.0042	-3.5333	-3.0583	-3.3146	68.219	20.997	223.854	-47.438	217.910	73.602	99.690	208.942	75.205	182.470	237.077	238.639	80.025	278.101	-40.775	126.482	0.00019341	0.00037508	0.00029347	709.14	1.0338e-05	2.1617e-05	776.18	313.31	1.3808e-05	6.8517e-06	369.12	167.91	129.59	61.552	7.4277e-06	81.534	0.0028743	0.0029362	0.00087943	939.68	3.1722e-05	3.2587e-05	985.27	384.8	3.1491e-05	3.2502e-05	487.29	202.32	187.63	71.897	3.4056e-05	95.523	147.329	151.323	-10.340	-37.512	37.798	229.710	-38.232	-32.376	77.190	254.119	-34.612	-30.783	-29.317	-23.047	238.184	-26.810	-8191	255	
5830.777	1	1	0	0	0.13955	0.13675	0.19253	0.18373	0.029731	0.12018	0.081632	0.1573	0.16794	0.18497	0.14335	0.13325	0.11561	0.057582	0.11691	0.17752	-2.7542	-2.9229	-3.1771	-3.2938	-3.0458	-3.1729	-3.2125	-3.225	-3.2229	-3.0271	-3.1562	-3.1667	-2.8875	-3.3208	-3.2396	-3.2917	258.708	184.083	167.782	263.245	82.038	288.410	119.673	-14.659	-41.835	60.531	86.264	111.076	264.183	282.813	-21.568	280.286	0.0002993	0.00087133	0.00028941	716.45	8.3951e-06	5.381e-06	777.09	312.35	1.1711e-05	8.772e-06	373.32	167.65	130.01	61.298	1.3592e-05	81.875	0.0027772	0.003008	0.0008638	937.2	3.1005e-05	3.3625e-05	982.44	383.95	3.1227e-05	3.3974e-05	489.5	202.28	188.6	72.439	3.436e-05	95.541	146.921	200.907	-3.130	-36.965	-41.153	126.810	-38.343	-32.279	7.197	-14.583	-34.527	-30.503	-28.872	-23.276	66.987	-26.599	-8191	255	
5830.874	1	1	0	0	0.19914	0.065061	0.039167	0.26914	0.32308	0.15153	0.3461	0.20045	0.16112	0.25077	0.074641	0.19743	0.035187	0.21854	0.24563	0.30569	-2.7104	-3.0333	-2.8917	-3.2542	-2.8333	-3.2938	-3.1354	-2.9708	-3.4583	-3.0208	-3.3333	-3.35	-3.0583	-3.2562	-3.0917	-3.2208	246.262	238.750	-36.362	274.073	263.794	304.150	260.209	231.386	211.522	223.435	51.401	257.634	6.366	272.284	48.054	233.132	0.00048678	0.00063104	0.00012927	710.58	5.7068e-06	7.8262e-06	778.94	313.4	6.9289e-06	9.1835e-06	371.11	168.85	129.86	61.506	6.0555e-06	81.99	0.0028255	0.0031352	0.00086707	932.58	3.1695e-05	3.4616e-05	987.94	383.14	3.2302e-05	3.5032e-05	490.48	202.18	190.85	72.83	3.4178e-05	95.429	128.508	-33.543	-33.059	-37.138	-23.135	224.605	-38.321	-32.282	128.157	117.840	-34.856	-30.607	-28.735	-23.026	42.986	-26.745	-8191	255	
5830.970	1	1	0	0	0.13851	0.046133	0.29278	0.22443	0.081494	0.26086	0.097459	0.055109	0.18324	0.09835	0.020553	0.083595	0.18291	0.3954	0.14322	0.27757	-2.7479	-2.925	-3.1021	-3.35	-2.9979	-3.3187	-3.4938	-3.0104	-3.1708	-3.0438	-3.0458	-3.3167	-2.8125	-3.4313	-3.1813	-3.1208	8.196	199.317	275.658	19.787	-45.153	183.506	186.105	104.686	21.689	-24.766	177.622	-32.700	228.971	-24.500	2.475	256.306	0.00069575	0.0017348	0.00069415	714.85	1.0666e-05	1.2474e-05	784.91	314	1.0672e-05	3.1148e-06	375.53	169.93	130.24	61.692	4.9031e-06	82.364	0.0029141	0.0031819	0.00086944	929.95	3.3011e-05	3.5063e-05	992.1	382.21	3.3644e-05	3.493e-05	492.05	202.12	194.13	72.809	3.3959e-05	95.669	136.482	48.529	101.877	-37.201	164.726	95.953	-38.272	-32.421	258.758	250.466	-34.514	-30.556	-28.350	-23.376	155.720	-26.527	-8191	255	
5831.066	1	1	0	0	0.15148	0.12945	0.10092	0.17987	0.088761	0.20267	0.056633	0.17451	0.1592	0.046571	0.27154	0.31999	0.0024862	0.16884	0.019496	0.061661	-2.8417	-2.8812	-2.975	-3.4479	-3.0208	-3.2042	-3.2667	-3.0792	-3.2333	-3.2229	-3.1813	-3.3563	-2.9583	-3.4146	-3.2875	-2.9854	46.605	81.604	210.056	290.346	93.535	196.720	270.912	220.285	118.664	102.227	221.773	269.204	180.000	270.437	299.653	270.714	0.00071593	0.001468	0.00090024	712.6	1.1182e-05	1.073e-05	781.13	313.32	7.9752e-06	2.109e-05	371.95	168.29	130.69	61.386	1.2957e-05	80.845	0.0030429	0.0031835	0.00086045	928.16	3.457e-05	3.5156e-05	988.79	382.96	3.5332e-05	3.5591e-05	490.18	202.55	198.94	73.134	3.5226e-05	95.961	121.941	-7.495	38.962	-37.226	60.074	119.223	-38.526	-32.102	93.514	100.929	-34.771	-30.803	-28.477	-23.089	26.540	-26.521	-8191	255	
5831.162	1	1	0	0	0.28425	0.31573	0.17644	0.24885	0.069937	0.38772	0.059005	0.19258	0.21111	0.40504	0.017065	0.25196	0.13766	0.33416	0.070065	0.11027	-2.8875	-3.1937	-2.8354	-3.3354	-2.9833	-3.1354	-3.4375	-3	-3.2958	-3.3063	-3.2146	-3.2771	-3.1271	-3.2792	-3.2458	-3.0021	257.616	73.728	294.351	273.794	-0.216	37.424	171.592	302.673	259.989	156.501	14.291	280.836	18.196	275.114	43.892	214.840	0.00068709	0.00032353	0.00029643	710.81	4.2778e-06	9.5884e-06	773.69	309.41	9.176e-06	1.307e-05	366.49	165.51	128.38	60.873	1.7246e-05	80.293	0.0033535	0.0034304	0.00091485	955.87	3.9412e-05	3.926e-05	1001.3	391.32	4.0548e-05	3.985e-05	493.88	205.33	206.69	73.697	3.6972e-05	96.785	129.624	-45.440	39.724	-37.060	84.735	302.781	-38.292	-32.537	299.965	86.240	-34.798	-30.639	-28.858	-23.165	64.031	-26.629	-8191	255	
5831.283	1	1	0	0	0.17809	0.19804	0.11282	0.27696	0.26882	0.21103	0.088405	0.21106	0.11317	0.13989	0.2109	0.20534	0.14743	0.3007	0.34063	0.0819	-2.8208	-3.0292	-2.775	-3.3854	-2.8875	-3.0062	-3.3187	-2.8083	-3.0875	-3.1375	-3.1813	-3.3208	-2.9583	-3.1708	-3.4271	-3.0604	50.231	185.915	76.817	299.028	144.733	95.611	92.933	-39.888	87.226	304.024	288.771	282.850	271.586	246.714	306.758	244.134	0.00037337	0.00072502	0.0003012	706.58	1.0041e-05	5.889e-06	769.52	311.2	1.5063e-05	1.7381e-05	364.99	166.2	128.03	60.909	1.2177e-05	80.827	0.0035731	0.0035803	0.00092473	972.72	4.0003e-05	3.8972e-05	994.12	393.77	3.9638e-05	3.8537e-05	489.72	206.27	203.67	73.192	3.5491e-05	97.429	118.876	143.140	45.113	-37.064	147.590	53.354	-38.408	-32.082	74.412	60.559	-34.307	-30.353	-28.622	-23.201	143.096	-26.555	-8191	255	
5831.379	1	1	0	0	0.15113	0.20388	0.23008	0.19602	0.20157	0.33336	0.22142	0.1648	0.035091	0.12175	0.26003	0.34216	0.17454	0.26752	0.20793	0.23863	-2.6292	-3.1562	-2.7229	-3.1583	-2.9958	-3.0375	-3.3438	-3.1792	-2.9479	-3.3604	-3.0438	-3.2938	-3.0625	-3.0792	-3.3125	-3.15	252.473	67.385	215.057	268.252	39.292	185.758	207.839	288.098	115.455	241.559	308.683	256.049	271.728	278.273	212.309	228.003	0.00024755	0.00068864	0.00039339	709.33	1.2731e-05	1.4445e-05	775.05	309.96	4.6163e-06	1.1517e-05	369.1	167.18	129.54	61.247	8.2422e-06	81.147	0.0034423	0.0034205	0.00089427	972.3	3.8459e-05	3.7148e-05	990.16	394.05	3.8285e-05	3.6579e-05	490.33	207.2	201.44	72.714	3.5486e-05	97.915	100.631	54.844	26.665	-37.050	28.330	15.399	-38.442	-32.223	-12.063	97.558	-34.632	-30.473	-28.473	-23.267	151.493	-26.642	-8191	255	
5831.475	1	1	0	0	0.046452	0.049768	0.26005	0.36434	0.081224	0.15297	0.13714	0.24072	0.28274	0.089431	0.29527	0.29688	0.065909	0.30469	0.30086	0.056585	-2.5833	-3.0875	-3.0208	-3.2313	-3.0542	-2.9625	-3.4188	-3.0917	-2.9771	-3.2562	-3.1125	-3.25	-2.9562	-3.1312	-3.2062	-3.3063	-13.240	150.888	-10.942	282.499	-31.817	155.454	273.124	250.705	292.669	195.763	223.498	206.419	176.437	234.535	32.446	210.013	0.00036677	0.0014794	0.00056365	711.53	4.8271e-06	1.6057e-05	775.37	312.09	3.4818e-06	7.1155e-06	369.02	168.28	129.96	61.19	8.1722e-06	81.523	0.0033742	0.0032729	0.00091324	977.57	3.7934e-05	3.5546e-05	1000.9	395.53	3.7424e-05	3.5193e-05	495.1	207.65	199.86	72.179	3.5907e-05	97.701	86.642	-42.117	148.430	-37.068	106.570	142.239	-38.389	-32.100	78.666	117.397	-34.528	-30.661	-28.376	-23.012	99.977	-26.587	-8191	255	
5831.569	1	1	0	0	0.15055	0.096704	0.057361	0.081159	0.036962	0.19622	0.23199	0.30704	0.26392	0.27177	0.10973	0.11343	0.39357	0.2244	0.014554	0.35957	-2.7146	-3.1375	-2.9292	-3.2292	-2.9167	-2.8792	-3.2646	-3.1625	-2.9813	-3.1813	-2.9813	-3.2062	-3.1146	-2.9188	-3.1458	-3.1958	90.068	-37.660	64.786	202.517	-3.482	150.671	191.530	198.290	41.030	206.000	-32.183	272.505	-36.912	264.011	1.014	270.888	0.00021241	0.0010479	0.00052887	717.58	1.1458e-05	1.4485e-05	779.46	311.2	1.4996e-05	4.2059e-06	368.55	167.78	129.43	60.832	6.6544e-06	81.021	0.0032273	0.0030835	0.00091387	967.4	3.6237e-05	3.3845e-05	1002.8	392.31	3.626e-05	3.4121e-05	496.59	206.24	197.68	71.924	3.7174e-05	97.192	211.907	44.642	177.878	-37.332	280.831	119.967	-38.393	-32.088	51.735	185.088	-34.811	-30.836	-28.760	-23.282	24.194	-26.797	-8191	255	
5831.643	1	1	0	0	0.1248	0.2287	0.062616	0.1881	0.090642	0.079999	0.053091	0.31011	0.15039	0.25403	0.063027	0.1852	0.20488	0.24533	0.24444	0.25204	-2.4333	-3.2167	-2.9271	-3.0583	-3.1292	-2.8875	-3.4146	-3.0229	-2.9792	-3.0875	-3.1625	-3.2042	-3.0708	-3.2333	-3.2083	-3.2562	-5.107	48.198	57.360	240.741	45.535	223.321	246.852	210.093	157.086	188.537	-28.784	253.337	223.386	182.720	94.221	286.104	0.00043323	0.0013819	0.00052323	712.19	6.4949e-06	1.2347e-05	769.31	311.03	2.0041e-05	1.1531e-05	365.66	166.18	129.41	60.638	1.0024e-05	80.953	0.0031919	0.0031321	0.00095004	964.3	3.5771e-05	3.4778e-05	1004.1	390.87	3.5535e-05	3.5093e-05	497.68	204.65	195.23	72.08	3.7759e-05	96.677	94.685	130.743	304.261	-37.186	11.882	189.116	-38.349	-32.251	63.796	209.494	-34.715	-30.599	-28.977	-22.849	85.357	-26.855	-8191	255	
5831.762	1	1	0	0	0.079889	0.20972	0.1673	0.24414	0.17043	0.088913	0.10421	0.14051	0.10274	0.092329	0.21679	0.21707	0.28821	0.1542	0.19055	0.19033	-2.4313	-3.1979	-3.0187	-3.15	-3.3458	-2.8792	-3.3229	-3.2938	-3.0187	-3.0708	-3.2313	-3.1354	-3.35	-3.0667	-3.0563	-3.3417	294.759	225.438	-49.180	-22.785	262.838	34.940	221.442	218.162	37.018	61.827	227.578	273.824	154.288	-45.847	31.651	232.056	0.00041423	0.002566	0.0002328	709.35	8.209e-06	2.0081e-05	768.39	310.52	1.6307e-05	8.0557e-06	368.37	167.39	127.89	60.737	1.0457e-05	81.064	0.003084	0.0032096	0.00095038	957.36	3.4028e-05	3.5262e-05	998.09	387.69	3.3608e-05	3.5074e-05	494.09	203.82	190.72	72.199	3.6298e-05	96.087	159.681	74.390	167.553	-36.925	-48.531	149.708	-38.476	-32.331	51.805	272.290	-34.902	-30.779	-28.597	-23.296	45.018	-26.743	-8191	255	
5831.858	1	1	0	0	0.15959	0.10922	0.22296	0.32064	0.06881	0.26075	0.16205	0.25925	0.12241	0.40292	0.045758	0.11972	0.15471	0.053899	0.21935	0.12751	-2.4313	-3.1417	-2.9271	-2.9146	-3.2938	-3.0167	-3.3187	-3.2667	-2.8333	-3.2167	-3.0563	-3.0812	-3.1958	-3.0187	-3.1229	-3.2812	163.026	171.572	138.915	-32.920	219.946	-0.914	161.922	229.417	141.959	291.279	108.500	128.803	151.924	282.053	247.475	286.643	0.00057462	0.0034534	0.00036827	713.73	8.2045e-06	2.8296e-06	775.79	309.75	3.871e-06	1.1567e-05	368.52	167.45	127.37	60.901	1.2655e-05	81.075	0.0029212	0.0032354	0.00091704	947.31	3.294e-05	3.5698e-05	997.24	386.57	3.3301e-05	3.6204e-05	493.89	203.54	192	72.911	3.6291e-05	96.116	116.974	78.698	39.097	-37.445	108.278	-15.877	-38.104	-32.426	136.760	183.132	-34.828	-30.744	-27.951	-23.342	53.657	-26.802	-8191	255	
5831.954	1	1	0	0	0.23945	0.075064	0.15745	0.099339	0.094064	0.27649	0.25878	0.27349	0.017667	0.12007	0.20771	0.3423	0.30215	0.13425	0.19283	0.19043	-2.6104	-3.1958	-3.0771	-3.0062	-3.3312	-3.1521	-3.2188	-3.3688	-2.9333	-3.1521	-3.0542	-3.0708	-3.1896	-3.0687	-2.9875	-3.5146	46.714	180.086	26.686	282.076	110.824	61.042	211.541	254.299	293.753	110.007	271.478	255.673	277.737	202.051	118.231	212.021	0.0005649	0.00057774	0.00054163	713.18	8.6508e-06	1.0259e-05	779.98	311.44	2.8898e-06	1.7597e-06	372.18	168.57	128.67	61.161	5.7273e-06	81.704	0.0029949	0.0033575	0.00092171	944.45	3.3812e-05	3.6568e-05	999.38	384.48	3.3712e-05	3.6594e-05	494.6	203	193.9	73.098	3.5856e-05	95.982	135.432	105.096	-1.722	-37.270	182.627	286.427	-38.548	-32.265	48.027	78.699	-34.549	-30.670	-28.576	-23.128	-35.277	-26.582	-8191	255	
5832.075	1	1	0	0	0.283	0.024755	0.23811	0.079318	0.076975	0.090938	0.10933	0.13533	0.059435	0.15245	0.059502	0.14449	0.19083	0.14609	0.086205	0.14628	-2.3479	-3.275	-3.0167	-3.1208	-3.2333	-2.9417	-3.3104	-3.45	-2.9437	-3.0875	-3.3146	-3.0729	-3.1604	-3.2625	-2.8208	-3.5396	209.811	201.344	-1.075	279.533	103.316	56.382	-29.803	-19.842	227.318	204.241	272.913	258.694	285.311	229.608	291.611	252.766	0.00084319	0.00032769	0.00027633	713.17	1.0172e-05	3.8741e-06	779.92	309.91	1.4583e-05	8.2053e-06	368.16	166.98	128.73	60.83	4.5876e-06	80.701	0.0030975	0.0033653	0.00091756	940.45	3.5359e-05	3.7034e-05	996.37	382.22	3.5468e-05	3.6759e-05	491.25	201.09	196.52	72.7	3.5484e-05	94.966	114.542	102.526	47.306	-37.091	169.036	153.272	-38.322	-32.370	162.822	200.629	-34.409	-30.522	-28.270	-23.219	23.454	-26.612	-8191	255	
5832.171	1	1	0	0	0.20729	0.15839	0.11827	0.28522	0.11108	0.26151	0.082149	0.11828	0.19992	0.057834	0.24466	0.1623	0.080637	0.18287	0.2328	0.24803	-2.4708	-3.1646	-2.9854	-3.1333	-3.2146	-3.1354	-2.9667	-3.2229	-2.9875	-3.025	-3.3208	-2.975	-3.2375	-3.1875	-2.9125	-3.5062	188.399	156.245	91.466	253.915	-46.017	153.569	225.012	288.535	258.539	111.422	-2.414	214.511	109.491	257.546	4.060	263.456	0.00039375	0.00091635	0.00033466	706.27	2.6589e-06	4.2788e-06	775.88	307.43	7.4125e-06	1.2596e-05	365.31	165.18	128.41	60.72	7.6251e-06	80.487	0.0032028	0.003344	0.00090135	933.46	3.6227e-05	3.6667e-05	986.36	380.59	3.6344e-05	3.6226e-05	485.36	199.9	197.44	72.357	3.4015e-05	94.663	122.167	307.849	18.635	-37.346	180.636	-5.800	-38.338	-32.497	177.380	61.551	-34.474	-30.479	-28.637	-23.224	234.308	-26.691	-8191	255	
5832.242	1	1	0	0	0.078575	0.10697	0.22143	0.14582	0.14636	0.044058	0.23815	0.49781	0.27856	0.28155	0.10729	0.15264	0.23761	0.1164	0.1352	0.11322	-2.55	-3.0021	-3.2083	-2.9854	-3.1208	-3.2083	-3.0396	-3.3125	-2.9125	-2.9583	-3.3917	-3.0833	-3.2188	-3.2604	-2.9313	-3.5812	309.636	294.731	112.321	221.214	48.322	214.622	226.963	260.819	247.511	211.573	295.077	221.787	-37.412	-7.702	160.394	178.001	0.00039825	0.0015208	0.00024697	707.14	6.3794e-06	2.6765e-05	776.83	309.15	6.618e-06	1.676e-05	366.13	166.46	128	60.614	7.7864e-06	80.838	0.0032069	0.0032473	0.00086182	936.06	3.6244e-05	3.5617e-05	978.88	383.3	3.6523e-05	3.5774e-05	481.78	202.05	197.55	72.261	3.3174e-05	95.646	127.223	38.343	56.781	-37.045	-36.307	90.148	-38.498	-32.360	98.484	123.241	-34.839	-30.840	-28.260	-23.034	78.432	-26.350	-8191	255	
5832.363	1	1	0	0	0.14745	0.060744	0.035703	0.17734	0.11202	0.26634	0.043224	0.033426	0.0069184	0.33038	0.096885	0.14899	0.18813	0.072711	0.14323	0.19376	-2.6312	-2.8792	-3.2271	-3.1208	-3.2354	-3.225	-3.0792	-3.3625	-3.175	-3.0271	-3.3875	-3	-3.2375	-3.2229	-2.9938	-3.3458	237.824	189.060	290.340	-36.871	184.141	116.796	-28.854	240.224	192.069	58.266	192.005	-42.271	252.139	0.775	292.864	274.145	0.0005429	0.0011664	7.0606e-05	709.18	2.2147e-06	5.2734e-06	773.36	309.53	7.193e-06	7.0822e-06	368.06	167.01	128.46	60.717	4.2121e-06	81.204	0.003205	0.0032165	0.00083742	947.27	3.623e-05	3.5395e-05	975.7	386.34	3.6405e-05	3.5427e-05	482.07	204.35	198.11	72.239	3.3026e-05	96.65	145.401	-44.392	105.007	-37.092	256.904	-11.251	-38.529	-32.471	58.652	59.967	-34.616	-30.588	-28.358	-23.226	89.890	-26.745	-8191	255	
5832.459	1	1	0	0	0.20416	0.19649	0.14474	0.31222	0.18991	0.059456	0.28666	0.22475	0.22638	0.22032	0.09137	0.17174	0.2041	0.079091	0.13611	0.20942	-2.6667	-2.8146	-3.1896	-3.0604	-3.0229	-3.2458	-3.0917	-3.2833	-3.0708	-3.025	-3.4479	-3.0187	-3.1271	-3.4021	-3.0167	-3.2333	154.251	-0.879	231.898	297.916	-5.828	96.960	200.077	268.431	103.923	12.515	-47.566	-3.157	33.715	183.646	124.036	239.035	0.00029289	0.0023826	0.00034512	714.04	1.1315e-05	1.9827e-05	776.81	309.68	1.0792e-05	1.2533e-05	370.34	167.81	128.68	60.663	1.0624e-05	81.314	0.0032177	0.0031886	0.0008475	960.73	3.6417e-05	3.5272e-05	984.64	391	3.6794e-05	3.5305e-05	488.94	206.87	199.5	72.167	3.4918e-05	97.766	98.681	-27.237	68.216	-37.226	74.943	35.239	-38.158	-32.238	3.285	60.460	-34.753	-30.807	-28.237	-23.100	305.843	-26.660	-8191	255	
5832.555	1	1	0	0	0.099823	0.34489	0.093984	0.35393	0.18682	0.10683	0.25933	0.20486	0.14465	0.14625	0.15603	0.16587	0.29378	0.16903	0.12593	0.10949	-2.6312	-2.8063	-3.2083	-3.1292	-3.0104	-3.2812	-3.0625	-3.1625	-3.0354	-2.7375	-3.3563	-3.225	-3.1271	-3.3583	-2.9	-3.3333	10.858	245.610	21.684	237.896	55.125	195.421	195.633	257.912	265.022	66.011	299.830	288.184	83.595	277.484	13.370	237.239	0.00046124	0.0025076	0.0004297	712.37	9.9151e-06	1.5444e-05	774.27	310.1	1.2173e-05	1.4862e-05	366.21	165.4	128.48	60.251	1.7592e-05	80.51	0.0033068	0.003209	0.00090305	971.33	3.7155e-05	3.511e-05	994.26	391.52	3.7008e-05	3.455e-05	491.03	205.12	198.05	71.54	3.5893e-05	96.61	141.673	-24.104	80.744	-37.055	68.459	94.362	-38.572	-32.471	168.361	41.843	-34.437	-30.833	-28.450	-23.120	193.017	-26.500	-8191	255	
5832.674	1	1	0	0	0.17394	0.24132	0.2024	0.17315	0.23425	0.059791	0.2012	0.30377	0.23641	0.25131	0.25351	0.12624	0.10533	0.13891	0.14591	0.21772	-2.6979	-2.7396	-3.1604	-3.0062	-2.9688	-3.2667	-3.0438	-3.1688	-3.1521	-3.0354	-3.3646	-3.2104	-2.9917	-3.1958	-2.8812	-3.2833	91.489	288.425	199.722	301.725	267.956	191.233	186.999	261.723	37.067	-25.463	216.766	-11.725	44.859	299.325	-1.680	250.370	0.00059945	0.0014526	0.00034022	707.65	6.8181e-06	2.2863e-06	774.78	308.74	1.2051e-05	3.3089e-06	364.59	166.16	127.17	60.471	1.7883e-05	80.597	0.0032308	0.0030755	0.00091979	960.93	3.5771e-05	3.3496e-05	991.16	387.54	3.5382e-05	3.3324e-05	489.85	203.15	193.89	71.058	3.5901e-05	95.9	127.244	37.780	106.391	-37.217	17.210	43.698	-38.333	-32.169	126.865	189.622	-34.990	-30.717	-28.470	-23.154	207.262	-26.526	-8191	255	
5832.770	1	1	0	0	0.21219	0.13553	0.22028	0.25733	0.25301	0.13537	0.13507	0.29006	0.19415	0.14823	0.16881	0.085609	0.15849	0.15804	0.10422	0.27465	-2.675	-2.85	-3.05	-2.9813	-2.9729	-3.3896	-3.2292	-3.0771	-3.1562	-3.0792	-3.2292	-3.1979	-2.875	-3.5583	-3.0687	-3.0458	291.916	140.718	136.858	-47.959	-26.138	141.120	203.332	224.954	101.166	29.933	175.823	299.851	244.711	274.075	12.379	229.831	0.00034178	0.00021261	0.00027492	709.6	1.0817e-05	1.4009e-05	769.47	307.91	1.1097e-05	1.654e-05	365.02	166.01	127.99	60.464	8.6917e-06	80.412	0.0030724	0.0030033	0.0009162	951.9	3.4091e-05	3.328e-05	993.58	386.2	3.3979e-05	3.3613e-05	491.93	203.19	191.83	71.462	3.6272e-05	95.931	83.769	169.868	170.432	-37.233	-35.232	181.125	-38.155	-32.181	62.261	149.098	-34.448	-30.537	-28.189	-22.919	193.987	-26.507	-8191	255	
5832.867	1	1	0	0	0.13075	0.23884	0.062653	0.13464	0.43649	0.21157	0.24829	0.22188	0.2173	0.067133	0.12141	0.23058	0.20197	0.084215	0.17852	0.23097	-2.7833	-2.9604	-3.2146	-3.2979	-2.9125	-3.2604	-3.1625	-3.0146	-3.4229	-3.0458	-3.1771	-3.2667	-3.0104	-3.3438	-2.9625	-3.3229	123.525	34.670	17.994	307.982	167.033	160.946	-8.119	284.925	189.750	98.927	211.626	216.558	164.189	176.542	168.861	284.826	0.0001815	0.0018432	0.00039716	714.21	5.14e-06	1.5361e-05	776.28	309.54	7.3296e-06	9.6849e-06	370.41	166.95	127.76	60.592	1.0974e-05	81.381	0.0029577	0.0030994	0.00091848	950.05	3.2744e-05	3.4522e-05	996.74	385.41	3.2948e-05	3.4735e-05	494.23	203.69	190.19	72.124	3.6158e-05	96.155	124.110	98.520	45.723	-37.378	-25.740	138.556	-38.208	-32.268	35.451	181.644	-35.023	-30.701	-28.722	-22.906	119.718	-26.507	-8191	255	
5832.938	1	1	0	0	0.098491	0.039138	0.30405	0.1186	0.17245	0.14063	0.35372	0.052498	0.18014	0.041081	0.10629	0.33944	0.24783	0.22568	0.070776	0.32686	-2.7521	-2.9479	-3.1333	-3.1396	-2.8021	-3.25	-3.2167	-2.875	-3.1104	-2.9667	-3.2479	-3.35	-2.8917	-3.3604	-2.9208	-3.0458	232.010	158.147	196.252	272.933	-37.767	232.646	280.226	212.446	28.318	136.878	164.013	53.191	186.406	262.592	154.413	270.005	0.00038993	0.0011699	0.00021629	710.87	9.1589e-06	8.5987e-06	780.05	310.9	1.1927e-05	5.1925e-06	375.72	168.39	128.91	60.747	1.1746e-05	81.664	0.0029295	0.003221	0.00091324	948.83	3.2532e-05	3.5402e-05	998.81	384.5	3.2437e-05	3.5396e-05	494.05	203.07	190.32	72.415	3.5238e-05	95.712	115.333	135.769	33.950	-37.088	38.239	218.742	-38.404	-32.236	112.775	144.566	-34.453	-30.622	-28.683	-23.039	84.039	-26.582	-8191	255	
5833.059	1	1	0	0	0.056971	0.1425	0.19999	0.22803	0.13942	0.23461	0.33379	0.094549	0.21082	0.06877	0.22825	0.22137	0.16324	0.25585	0.20395	0.23403	-2.7208	-2.9104	-3.0417	-3.2021	-3.0438	-3.0979	-3.2313	-3.0229	-3.275	-2.85	-3.0812	-3.325	-2.8542	-3.2729	-3.15	-3.0438	188.956	-47.718	45.237	290.572	296.919	100.173	211.456	248.724	200.463	114.918	74.190	273.214	204.072	243.743	-35.023	207.805	0.0005483	0.0009122	0.00039784	712.48	1.0136e-05	1.3264e-05	776.74	309.65	6.467e-06	1.4068e-05	367.45	166.64	127.87	60.619	3.8791e-06	81.006	0.0029245	0.0032572	0.00089325	935.38	3.2949e-05	3.5803e-05	990.18	380.27	3.3061e-05	3.5406e-05	487.58	200.28	191.12	72.132	3.463e-05	94.432	100.371	-29.543	19.438	-37.462	117.652	197.740	-38.230	-32.549	140.309	173.274	-34.908	-30.889	-28.278	-23.100	46.048	-26.651	-8191	255	
5833.155	1	1	0	0	0.013427	0.012639	0.2042	0.36719	0.11899	0.11465	0.050015	0.2045	0.079188	0.010734	0.18525	0.11342	0.1346	0.22031	0.19311	0.10508	-2.6688	-2.9562	-2.9771	-3.2792	-2.8521	-3.2917	-3.1437	-3.0417	-3.4	-3.0292	-3.0312	-3.2167	-3.0375	-3.3667	-3.1042	-3.05	184.514	126.135	186.204	242.381	-9.735	67.074	116.027	213.853	42.509	104.729	-41.812	294.008	257.645	277.159	261.818	308.903	0.00056364	0.00095223	0.00028262	706.22	1.8768e-05	1.2621e-05	769.92	308.55	7.0706e-06	3.7814e-06	368.1	165.8	127.56	60.861	8.2741e-06	80.559	0.0030214	0.0032538	0.00088493	928.47	3.432e-05	3.6016e-05	987.37	377.89	3.4687e-05	3.5769e-05	487.28	199.39	194.56	72.26	3.4571e-05	94.228	138.205	-2.254	23.007	-37.333	128.652	101.992	-38.299	-32.301	190.034	220.730	-35.145	-30.749	-28.590	-23.298	59.492	-26.577	-8191	255	
5833.251	1	1	0	0	0.29118	0.050417	0.10561	0.13594	0.15205	0.1817	0.23182	0.26357	0.25795	0.42974	0.18833	0.23413	0.012767	0.19004	0.26229	0.36097	-2.6271	-2.8479	-2.8708	-3.2812	-2.7562	-3.2375	-3.1042	-3.0938	-3.2417	-3.0563	-3.0917	-3.3	-3.0854	-3.2104	-3.1958	-3.0271	201.489	72.803	196.038	294.964	214.926	162.334	234.669	271.275	-7.675	54.985	227.825	225.426	196.940	207.435	-10.619	207.739	0.00030063	0.0014509	0.00032373	709.73	9.3045e-06	1.3428e-05	771.31	309.27	1.2957e-05	2.4573e-05	369.02	166.07	129.59	60.727	9.1109e-06	80.669	0.0031473	0.0032361	0.00086698	927.3	3.4994e-05	3.4935e-05	979.43	378.25	3.4998e-05	3.4626e-05	481.35	199.98	195.45	71.844	3.2694e-05	94.641	121.316	33.202	-11.029	-37.255	140.393	102.231	-38.245	-32.382	226.400	112.380	-34.560	-30.702	-28.049	-23.017	66.927	-26.504	-8191	255	
5833.347	1	1	0	0	0.16163	0.15074	0.15191	0.09975	0.14676	0.29085	0.14197	0.19919	0.25018	0.21532	0.18189	0.27516	0.1424	0.17174	0.17341	0.075237	-2.8812	-2.9271	-2.8812	-3.2354	-3.0583	-2.9896	-3.4458	-2.9667	-3.1729	-3.1479	-3.0208	-3.4188	-3.0854	-3.0958	-3.3354	-3.0604	-30.685	302.271	138.259	283.826	41.462	31.459	242.102	246.312	184.268	14.693	280.501	243.690	48.553	248.450	97.921	270.709	0.00023456	0.0013603	0.00014931	707.73	1.2451e-05	6.3589e-06	778.39	308.48	1.4488e-05	6.7782e-06	370.52	167.95	129.35	60.747	6.2054e-06	81.209	0.0031289	0.0031375	0.00082468	931.57	3.4983e-05	3.4406e-05	974.74	381.4	3.5426e-05	3.484e-05	481.57	203.2	197.25	72.25	3.2671e-05	96.031	149.077	3.069	302.198	-36.942	81.643	66.200	-38.500	-32.425	28.934	209.135	-34.632	-30.630	-28.366	-23.150	80.751	-26.640	-8191	255	
5833.468	1	1	0	0	0.14884	0.17652	0.10346	0.21718	0.20533	0.26119	0.24653	0.19532	0.2361	0.095998	0.2976	0.014536	0.11246	0.26074	0.10509	0.15375	-2.6646	-3.2188	-2.8979	-3.2938	-3	-2.9104	-3.4854	-2.9062	-3.1708	-3.1583	-3.0729	-3.5042	-3.1646	-3.1937	-3.175	-3.0021	297.163	59.161	294.284	256.083	271.842	122.379	240.743	216.783	19.313	79.896	-25.104	235.910	167.447	-26.887	68.856	212.817	0.00038853	0.0011766	0.0002132	707.4	8.9979e-06	3.9101e-05	778.32	311.2	1.327e-05	4.8147e-06	373.43	169.36	128.62	60.894	1.9844e-05	81.61	0.0032265	0.003232	0.00083319	953.23	3.6307e-05	3.542e-05	982.02	388.59	3.6037e-05	3.5012e-05	483.99	205.4	197.25	72.016	3.2922e-05	96.681	125.929	301.424	-19.229	-36.875	62.673	34.399	-38.427	-32.090	67.294	51.622	-34.772	-30.586	-28.412	-23.119	168.405	-26.680	-8191	255	
5833.540	1	1	0	0	0.24355	0.10841	0.22881	0.16044	0.12004	0.057655	0.14035	0.11995	0.079981	0.081253	0.083098	0.22022	0.19361	0.18046	0.33052	0.10345	-2.7771	-3.3104	-3.0438	-3.3021	-3.0104	-2.95	-3.2521	-2.9042	-3.0021	-3.0396	-2.8917	-3.2729	-3.2313	-2.9917	-3.3063	-3.0667	219.002	-2.193	61.381	236.150	67.637	31.601	247.495	273.017	-48.331	-24.454	-8.794	251.103	276.277	78.719	206.335	226.458	0.00033093	0.00080827	0.00055244	708.46	7.309e-06	1.5997e-05	773.15	308.18	6.079e-06	2.0584e-05	369.42	166.75	127.97	60.495	1.2926e-05	80.67	0.0031902	0.0031688	0.0008436	957.49	3.6184e-05	3.4801e-05	981.95	389.6	3.6298e-05	3.4883e-05	485.39	205.46	198.16	71.786	3.4924e-05	96.841	126.057	292.291	89.762	-36.980	-49.098	23.571	-38.414	-32.033	295.381	107.443	-34.694	-30.452	-28.336	-23.132	150.147	-26.849	-8191	255	
5833.636	1	1	0	0	0.33073	0.27778	0.15597	0.038694	0.15249	0.33868	0.2649	0.30178	0.16589	0.29085	0.33144	0.069812	0.2533	0.20494	0.17472	0.17199	-2.6646	-3.2396	-2.8875	-3.3521	-3.1083	-2.9333	-3.4	-3.0938	-2.9458	-3.2958	-3.1271	-3.2167	-3.0687	-3.2042	-3.3146	-3.2333	192.694	174.650	272.431	154.611	223.563	8.400	-25.670	-3.628	-47.262	207.614	276.226	283.019	255.846	-27.957	48.344	275.190	0.00034073	0.0013571	0.00048132	709.05	6.4469e-06	1.7291e-05	770.15	307.54	4.9777e-06	1.3598e-05	364.07	166.25	127.98	60.149	1.7735e-05	80.4	0.0032997	0.0031938	0.00090887	968.81	3.7679e-05	3.5371e-05	996.56	393.33	3.8049e-05	3.5501e-05	494.49	206.35	200.09	71.632	3.718e-05	96.798	79.601	296.183	191.747	-37.410	2.188	55.684	-38.142	-32.222	117.802	118.318	-34.665	-30.701	-28.861	-23.001	221.544	-26.761	-8191	255	
5833.755	1	1	0	0	0.22404	0.088354	0.23758	0.16624	0.27881	0.11477	0.22643	0.060624	0.08944	0.077239	0.051836	0.20842	0.15457	0.25783	0.1074	0.2166	-2.65	-3.2104	-2.8667	-3.1417	-3.1688	-2.8312	-3.4833	-3.1271	-2.9958	-3.1854	-2.8896	-3.2125	-3.0438	-3.0083	-3.1792	-3.2479	12.737	140.503	33.426	6.340	118.077	91.891	291.035	202.627	60.125	221.570	-11.737	-48.465	48.324	-3.202	87.814	187.819	0.000497	0.0010491	0.00036473	706.96	6.3305e-06	2.2195e-06	770.44	309.39	5.8361e-06	9.3832e-06	366.06	165.22	127.83	60.339	4.2123e-06	80.849	0.0032854	0.0031556	0.00094764	967.56	3.7172e-05	3.5208e-05	1006.3	393.7	3.7548e-05	3.5842e-05	502.72	206.83	200.4	72.066	3.9644e-05	97.722	97.177	304.128	172.645	-37.107	25.010	-23.448	-38.541	-32.282	67.621	187.360	-34.334	-30.670	-28.753	-22.961	179.146	-26.792	-8191	255	
5833.851	1	1	0	0	0.23383	0.076634	0.17563	0.10581	0.065493	0.17998	0.12373	0.10197	0.15292	0.17717	0.19964	0.12386	0.12603	0.17551	0.24517	0.21686	-2.5042	-3.3375	-2.9125	-3.2167	-3.3104	-3.025	-3.3458	-3.3646	-2.925	-3.3937	-3.1708	-3.0458	-3.3021	-3.0771	-3.2521	-3.1188	-12.835	178.535	173.424	245.785	-19.523	276.847	102.181	24.265	160.691	14.050	-43.515	125.260	128.051	-42.588	-1.235	211.912	0.00025427	0.00033451	0.00046817	709.49	1.1967e-05	1.15e-05	773.5	307.54	5.0456e-06	4.0957e-07	367.39	166.9	127.76	60.486	1.4838e-05	81.445	0.0033424	0.003335	0.0010127	976.54	3.7369e-05	3.6915e-05	1019.1	393.78	3.6851e-05	3.686e-05	506.09	206.78	197.24	72.606	3.9074e-05	97.591	164.363	129.106	300.006	-37.144	16.429	279.136	-38.312	-32.268	-46.423	196.822	-34.458	-30.699	-28.567	-22.911	235.069	-26.623	-8191	255	
5833.947	1	1	0	0	0.22766	0.24696	0.19266	0.11334	0.12676	0.17105	0.097009	0.28092	0.0181	0.13154	0.22004	0.39857	0.15587	0.17936	0.16309	0.12672	-2.3	-3.2146	-3.1021	-3.0583	-3.275	-2.7875	-3.2438	-3.3646	-2.925	-3.3187	-3.0458	-3.1792	-3.2896	-2.9917	-3.2313	-3.3042	200.544	153.408	-0.265	94.782	175.839	48.559	-22.361	279.560	-20.208	230.170	190.091	251.367	-24.792	293.986	252.295	192.665	6.9212e-05	0.0017457	0.00013744	705.25	7.0826e-06	1.802e-05	772.41	309.55	8.1203e-06	1.0245e-05	368.04	167.17	127.89	60.486	1.0255e-05	80.863	0.0031744	0.0033656	0.000986	967.61	3.5101e-05	3.707e-05	1013.6	391.29	3.5092e-05	3.7567e-05	502.12	206.16	195.3	73.029	3.8945e-05	97.08	129.002	140.593	136.711	-37.081	15.771	229.969	-38.378	-32.356	300.010	209.504	-34.813	-30.629	-28.725	-23.116	136.558	-26.649	-8191	255	
5834.043	1	1	0	0	0.20272	0.036295	0.18124	0.043967	0.30873	0.082671	0.20833	0.20669	0.19655	0.24719	0.13473	0.15139	0.13417	0.25879	0.28367	0.2914	-2.4813	-3.1625	-3.0271	-3.2292	-3.1979	-2.95	-3.1875	-3.4104	-3.0521	-3.3104	-3.1875	-2.9583	-3.3396	-3.0708	-3.0708	-3.3583	143.607	-18.668	7.649	257.963	247.746	148.297	177.466	251.183	99.637	107.253	-49.504	294.297	62.280	222.200	25.694	219.326	0.00013272	0.0010609	0.00027541	710.92	1.3252e-05	4.6086e-06	767.34	307.45	1.3125e-05	3.1657e-06	364.83	165.21	126.39	60.471	1.7599e-06	80.374	0.0031331	0.0034992	0.00098364	961.83	3.5249e-05	3.8378e-05	1004.9	386.9	3.5126e-05	3.849e-05	497.2	202.71	194.19	72.938	3.7853e-05	95.715	153.346	-28.079	29.147	-37.332	103.137	115.470	-38.468	-32.322	82.270	101.416	-34.675	-30.666	-28.390	-23.134	228.104	-26.664	-8191	255	
5834.139	1	1	0	0	0.19046	0.30821	0.071721	0.22375	0.07594	0.095043	0.28989	0.31028	0.17755	0.054224	0.20368	0.14386	0.20773	0.13954	0.038485	0.13871	-2.5229	-3.1604	-3.1688	-2.9875	-3.3	-3.0375	-3.2042	-3.1688	-2.7833	-3.1146	-3.175	-3.2125	-3.1125	-3.125	-3.0208	-3.3792	286.479	205.460	222.049	-12.414	264.969	150.988	234.917	243.295	247.932	195.078	25.697	247.916	267.514	3.160	298.632	271.870	0.00072447	0.0014805	0.00039784	706.45	7.4374e-07	1.265e-05	769.36	307.1	1.3931e-05	1.0307e-05	364.17	164.42	127.45	60.453	2.5761e-06	80.178	0.0031525	0.0035151	0.00096137	948.57	3.5759e-05	3.8695e-05	1000.1	383.67	3.6089e-05	3.8704e-05	494.46	201.25	197.13	72.936	3.7467e-05	95.132	115.800	-0.656	65.164	-37.310	210.557	192.905	-38.254	-32.317	193.716	92.174	-34.379	-30.480	-27.962	-22.898	145.896	-26.701	-8191	255	
5834.235	1	1	0	0	0.30831	0.11171	0.21869	0.23695	0.041939	0.03212	0.11002	0.30292	0.014302	0.12262	0.042723	0.29033	0.11377	0.20926	0.2351	0.31609	-2.5458	-3.2875	-3.1417	-3.0583	-3.2333	-3.0042	-3.0646	-3.1292	-2.8438	-3.1937	-3.2229	-2.8208	-3.3354	-3.1396	-2.8896	-3.4313	278.332	307.104	-5.773	213.018	285.869	94.687	278.318	251.192	187.334	74.769	253.962	255.980	9.183	279.914	3.501	235.475	0.00062492	0.0014872	0.00048323	707.08	8.3424e-06	1.6442e-05	770.52	305.75	1.0383e-05	7.2344e-06	364.18	165.8	127.85	60.42	7.0256e-06	80.318	0.0032736	0.0035077	0.00095221	944.48	3.7193e-05	3.8497e-05	1000	382.19	3.7665e-05	3.8515e-05	495.36	201.83	200.33	72.953	3.6889e-05	95.35	155.811	-16.219	-23.606	-37.184	143.819	31.981	-38.588	-32.082	204.490	70.996	-34.851	-30.942	-28.467	-23.040	55.028	-26.776	-8191	255	
5834.356	1	1	0	0	0.039756	0.11146	0.16734	0.13499	0.25139	0.087983	0.21933	0.40515	0.18664	0.12729	0.26206	0.11068	0.21159	0.30445	0.14708	0.29193	-2.6396	-3.2	-3.0271	-2.8646	-3.0187	-3.1625	-3.0333	-3.2333	-2.8583	-3.2083	-3.275	-3.0042	-3.1833	-3.1583	-2.8271	-3.35	9.897	229.832	246.919	8.341	183.702	120.750	270.599	262.332	148.871	5.140	246.116	209.568	288.715	225.587	-42.848	268.273	0.00038376	0.00044199	0.0003518	709.38	1.8557e-05	1.1224e-05	775.53	308.49	6.2971e-06	1.235e-05	369.46	166.23	127.89	60.571	1.1608e-05	81.332	0.0033747	0.0034592	0.00092998	944.03	3.7981e-05	3.7873e-05	995.55	384.11	3.8133e-05	3.78e-05	492.46	203.25	201.66	72.929	3.5717e-05	96.518	143.551	-23.318	67.611	-36.981	138.878	78.922	-38.148	-32.581	255.734	91.698	-34.813	-30.541	-28.415	-23.064	21.465	-26.613	-8191	255	
5834.452	1	1	0	0	0.20437	0.093853	0.20058	0.14826	0.32055	0.24033	0.32907	0.22078	0.31843	0.13705	0.3138	0.34382	0.37429	0.1565	0.34934	0.066885	-2.5104	-3.1	-3.1292	-2.9458	-3.1063	-3.15	-2.9896	-3.3271	-3.0104	-3.0229	-3.1083	-2.9667	-3.2812	-3.3438	-3.0583	-3.5062	13.965	134.232	132.021	217.377	5.970	256.866	208.984	199.996	177.952	119.924	297.722	286.691	264.315	233.038	306.022	203.730	0.00059669	0.0011117	0.00026041	709.54	1.439e-05	4.9715e-06	773.2	307.91	3.8476e-06	1.5682e-05	366.43	165.96	126.88	60.466	2.2455e-06	80.376	0.0034268	0.0034646	0.00090888	957.84	3.8857e-05	3.8061e-05	992.49	388.2	3.8962e-05	3.8238e-05	489.95	205.53	203.16	72.966	3.5603e-05	97.002	139.296	40.796	70.665	-36.890	175.396	-49.051	-38.347	-32.075	120.228	63.711	-34.800	-30.593	-28.235	-23.066	74.512	-26.408	-8191	255	
5834.548	1	1	0	0	0.13365	0.177	0.22995	0.067791	0.31478	0.18421	0.049673	0.063581	0.16671	0.1689	0.17804	0.17129	0.10108	0.23463	0.15121	0.2516	-2.5875	-2.9271	-3.1854	-3.1375	-3.2042	-3.1354	-2.9479	-3.4646	-3.0062	-2.9688	-3.2333	-2.8333	-3.1604	-3.2042	-2.8667	-3.3854	159.482	240.478	187.500	96.886	172.304	257.827	69.802	172.527	152.337	297.499	256.615	282.956	302.896	278.606	28.208	273.029	0.00041721	0.0011904	0.00022395	706.65	1.2507e-05	1.8421e-05	772.15	307.39	7.6857e-06	1.4264e-05	361.13	164.76	127.46	60.128	9.5511e-06	80.493	0.0034742	0.0034762	0.00090092	969.32	3.8809e-05	3.787e-05	985.11	389.51	3.8736e-05	3.7361e-05	484.55	205.05	201.5	72.296	3.5143e-05	96.953	120.469	-42.136	50.449	-37.110	85.603	0.740	-38.309	-32.255	179.321	100.326	-34.885	-30.614	-28.830	-23.065	-27.470	-26.441	-8191	255	
5834.643	1	1	0	0	0.30464	0.28135	0.082423	0.2577	0.14055	0.17105	0.18191	0.10639	0.039743	0.20071	0.076673	0.41854	0.21743	0.19578	0.14867	0.18367	-2.575	-2.8792	-3.2292	-2.9146	-3.1333	-3.0417	-2.9417	-3.225	-2.8917	-2.9	-3.225	-3.0187	-3.0771	-3.3521	-2.6958	-3.3375	283.210	295.397	146.889	300.785	142.819	106.726	219.101	285.071	-38.456	7.491	253.037	279.909	61.601	255.538	264.081	214.771	0.00021794	0.0020186	0.00020545	707.54	8.05e-06	1.2327e-05	764.57	306.63	1.3551e-05	2.3532e-05	361.92	164.21	126.99	60.328	1.0274e-05	80.019	0.0034107	0.0033426	0.00090177	970.57	3.8192e-05	3.6584e-05	984.45	390.68	3.8098e-05	3.5982e-05	487.98	205.08	199.86	71.779	3.6103e-05	97.05	85.640	-21.309	190.255	-36.925	-12.807	70.306	-38.364	-32.185	3.452	50.182	-34.898	-30.800	-28.764	-23.300	216.151	-26.620	-8191	255	
5834.763	1	1	0	0	0.16915	0.1421	0.22981	0.057415	0.23721	0.18648	0.098852	0.23715	0.13143	0.18468	0.24136	0.10413	0.20352	0.39159	0.063771	0.19147	-2.6479	-2.9875	-3.2188	-3.0167	-2.9458	-3.0938	-3.0292	-3.2729	-3.1354	-2.9479	-3.3708	-2.9833	-3.0042	-3.3479	-3.0021	-3.3396	122.059	105.806	124.066	-36.451	153.655	160.314	1.490	303.203	175.663	234.282	202.101	309.637	-42.261	280.132	283.464	234.747	0.00050544	0.0024296	0.00047239	705.82	5.9311e-06	2.3091e-05	772.8	306.93	1.518e-05	8.741e-06	362.56	166.05	127.47	60.488	9.56e-06	80.69	0.0033657	0.0032468	0.00093008	971.78	3.7647e-05	3.5379e-05	998.08	390.29	3.7635e-05	3.4854e-05	493.83	205.92	199.07	71.505	3.708e-05	97.023	98.971	-42.090	189.753	-37.221	36.569	42.542	-38.074	-32.257	64.612	108.940	-34.827	-30.672	-28.748	-22.965	167.637	-26.744	-8191	255	
5834.835	1	1	0	0	0.080599	0.11845	0.18523	0.17147	0.14259	0.074006	0.24025	0.068861	0.028487	0.11823	0.14552	0.1923	0.077212	0.14777	0.22655	0.3013	-2.7188	-2.9979	-3.1583	-2.9958	-3.0042	-3.1604	-3.0312	-3.2021	-3.1208	-2.9896	-3.1771	-3.3937	-3.0354	-3.4	-2.9229	-3.4479	109.661	210.179	194.217	279.819	22.330	240.754	258.344	277.065	257.322	277.697	237.278	220.922	37.465	305.896	-22.500	266.148	0.00028282	0.00079979	0.00045719	707.76	1.1661e-05	3.819e-06	770.76	307.01	9.4402e-06	2.0605e-06	366.45	166.17	127.39	60.221	4.8554e-07	80.809	0.0033018	0.0031557	0.00095574	967.7	3.6662e-05	3.462e-05	1004.5	389.15	3.6435e-05	3.4475e-05	499.42	205.86	197.07	71.663	3.8279e-05	97.333	73.175	-20.226	160.691	-37.270	8.331	100.423	-38.384	-32.224	99.981	210.620	-34.233	-30.644	-28.364	-23.014	141.887	-26.550	-8191	255	
5834.931	1	1	0	0	0.17385	0.12101	0.096555	0.13927	0.27178	0.045131	0.1687	0.3137	0.046769	0.22	0.33721	0.090713	0.17821	0.13536	0.18461	0.23985	-2.5375	-2.8521	-2.9708	-3.1854	-3.0396	-3.3187	-2.9896	-3.1917	-3.2396	-2.7687	-3.3187	-3.1562	-2.95	-3.3354	-2.825	-3.2208	50.141	0.311	-12.055	288.621	284.129	-39.515	225.011	284.220	120.930	-39.944	259.020	16.830	1.333	307.087	-43.708	237.210	0.00019075	0.0028983	0.00071461	713.48	9.3892e-06	1.0435e-05	780.25	308.46	6.7667e-06	8.5634e-06	367.1	166.01	127.62	60.29	1.4724e-05	80.796	0.003244	0.0032661	0.0009863	970.38	3.5949e-05	3.603e-05	1014.5	389.53	3.5377e-05	3.5685e-05	500.87	205.08	193.81	72.106	3.8343e-05	96.87	297.922	129.923	-49.614	-37.230	2.962	31.173	-38.366	-32.488	37.078	193.601	-34.910	-30.599	-28.390	-22.970	209.932	-26.550	-8191	255	
5835.027	1	1	0	0	0.17309	0.16642	0.044962	0.18111	0.043688	0.22672	0.31042	0.24616	0.12407	0.075903	0.19661	0.15847	0.12231	0.20594	0.03247	0.021167	-2.8875	-2.8479	-3.1396	-3.2417	-2.8229	-3.1896	-3.1042	-3.1104	-3.2667	-3.0042	-3.2271	-3.2938	-3.0146	-3.2792	-2.9354	-3.1708	295.151	230.260	235.851	66.886	173.797	47.298	252.964	224.610	305.657	220.232	265.439	197.585	223.088	-27.438	267.892	42.439	0.00020547	0.0011617	0.0002938	702.24	5.6713e-06	2.4123e-05	774	305.42	2.3889e-06	1.4975e-05	362.34	165.58	126.37	59.904	1.0422e-05	80.35	0.0031474	0.00337	0.00098622	964.76	3.5122e-05	3.7597e-05	1007.1	386.31	3.4725e-05	3.7089e-05	494.96	203.39	191.14	72.099	3.7257e-05	95.571	208.479	105.358	20.972	-37.476	37.322	128.138	-38.858	-32.562	-24.527	186.520	-34.695	-30.674	-28.012	-23.011	94.009	-26.590	-8191	255	
5835.148	1	1	0	0	0.25124	0.18052	0.31516	0.23183	0.14238	0.20691	0.21233	0.17601	0.15049	0.23405	0.15665	0.25425	0.19271	0.17856	0.093799	0.34465	-2.7208	-2.9271	-3.2271	-3.2396	-2.8354	-3.2146	-3.3	-3.1854	-3.1896	-2.9313	-3.1667	-3.3979	-3.0312	-3.3917	-3.025	-2.9375	-6.138	-20.329	2.390	297.288	266.285	271.852	226.463	138.599	-9.607	116.120	268.143	284.515	263.154	290.378	273.272	178.850	0.00038316	0.00070548	0.00026459	708.54	1.059e-05	1.851e-05	772.87	306.44	6.3384e-06	1.3539e-05	364.63	164.87	127.43	60.047	1.439e-05	80.039	0.0030097	0.0033734	0.00094886	951.73	3.444e-05	3.7963e-05	1002.9	385.62	3.5257e-05	3.8754e-05	497.79	202.95	195	72.772	3.8255e-05	95.426	97.255	84.937	80.207	-37.448	91.206	152.606	-38.254	-32.451	-5.915	113.583	-34.701	-30.905	-28.132	-23.054	40.298	-26.791	-8191	255	
5835.244	1	1	0	0	0.20839	0.21606	0.09373	0.081993	0.26238	0.088562	0.23146	0.28267	0.111	0.26085	0.27083	0.40925	0.16485	0.19357	0.16061	0.19383	-2.8917	-3.0438	-3.1083	-3.3333	-2.8583	-3.1646	-3.2771	-3.1375	-3.0917	-3.0187	-3.2062	-3.3708	-2.9875	-3.3854	-3.0625	-3.0375	-7.795	283.158	57.860	74.995	21.303	255.286	21.584	275.497	219.664	23.720	-38.904	274.310	279.968	-32.825	-24.740	248.545	0.00070024	0.00064263	0.00044931	708.01	1.4502e-05	1.1028e-05	776.77	307.07	1.4533e-05	1.1478e-05	365.58	165.77	126.37	60.197	9.2065e-06	80.627	0.0031854	0.003511	0.00095462	945.78	3.5373e-05	3.7925e-05	1000.4	381.12	3.5669e-05	3.7675e-05	494.03	201.36	195.96	72.547	3.6944e-05	95.079	141.540	187.474	84.179	-37.177	165.340	129.344	-38.507	-32.239	170.603	99.228	-34.672	-30.366	-28.217	-23.090	174.463	-26.908	-8191	255	
5835.340	1	1	0	0	0.21019	0.0368	0.16001	0.098372	0.043981	0.023006	0.22938	0.32822	0.057392	0.13404	0.16131	0.36682	0.34349	0.24038	0.041909	0.059031	-2.9521	-3.0708	-2.9625	-3.3375	-2.8708	-3.1854	-3.275	-3.0812	-3.3271	-3.0312	-3.1583	-3.3854	-2.9708	-3.1375	-3.1958	-2.9729	165.732	29.005	246.583	286.875	96.295	295.725	282.526	226.797	146.628	213.475	156.586	271.115	-45.240	288.056	89.146	221.782	0.00085356	0.00090093	0.00024902	707.81	1.3629e-05	1.8384e-05	773.01	308.08	1.5058e-05	5.2178e-06	368.84	166.31	127.88	60.703	1.808e-05	81.228	0.0032285	0.003424	0.00092892	939.25	3.6447e-05	3.7518e-05	998.6	380.36	3.6808e-05	3.7526e-05	492.88	201.75	199.33	72.901	3.6253e-05	95.688	106.610	32.445	46.369	-36.919	132.597	110.314	-38.569	-32.253	139.285	147.465	-34.921	-30.737	-28.403	-23.061	61.080	-26.513	-8191	255	
5835.436	1	1	0	0	0.15189	0.10186	0.20089	0.12026	0.17538	0.26342	0.1697	0.23752	0.038121	0.31406	0.04063	0.23607	0.11722	0.099614	0.24193	0.19221	-2.7792	-2.8187	-2.9	-3.1167	-2.9188	-3.0083	-3.1	-2.9813	-3.1583	-2.8667	-2.9417	-3.3042	-3.1896	-3.1229	-3.3063	-3.0542	141.111	226.938	126.977	-43.361	98.271	226.594	192.347	291.407	-7.874	146.920	297.230	-26.029	216.392	123.532	-46.230	283.152	0.00062336	0.00093278	0.00024118	709.73	1.4229e-05	7.8808e-06	775.2	306	6.0844e-06	1.2109e-05	365.99	165.39	126.83	60.453	7.3582e-06	80.602	0.0033707	0.0034501	0.00091893	947.91	3.8141e-05	3.7868e-05	995.42	382.47	3.8241e-05	3.7928e-05	489.04	202.74	201.85	72.659	3.5789e-05	96.025	136.920	-20.697	259.801	-37.229	164.267	120.991	-38.395	-32.185	11.570	51.933	-34.691	-30.453	-28.344	-22.867	40.763	-26.710	-8191	255	
5835.533	1	1	0	0	0.1871	0.08199	0.085143	0.15183	0.15321	0.19325	0.36605	0.3235	0.14109	0.14441	0.14385	0.1425	0.043017	0.33887	0.12383	0.19194	-2.5563	-3.2604	-2.8708	-3.2792	-3.1	-2.9938	-3.3646	-2.7875	-3.1021	-3.1833	-3.1708	-3.2104	-3.0521	-3.2708	-3.2604	-3.2687	10.144	-25.973	-35.641	33.109	307.572	96.750	257.900	280.131	106.763	26.895	215.808	-45.498	229.972	246.310	275.544	195.026	0.00034713	0.0010064	0.00024026	703.46	4.6078e-06	2.7504e-06	768.05	305.77	3.0367e-07	1.2698e-05	363.04	165.64	125.78	60.209	1.3008e-05	80.136	0.003447	0.0034606	0.00090409	952.59	3.8421e-05	3.7802e-05	982.57	384.83	3.8265e-05	3.7419e-05	482.53	203.39	200.19	72.057	3.4151e-05	95.812	144.146	11.454	-43.708	-36.965	156.178	71.767	-38.154	-32.375	274.121	20.778	-34.843	-30.695	-28.876	-23.071	238.668	-26.701	-8191	255	
5835.629	1	1	0	0	0.050395	0.017447	0.20816	0.15523	0.096536	0.10726	0.1062	0.48791	0.11489	0.16909	0.15855	0.075396	0.098879	0.38764	0.054461	0.25724	-2.7146	-3.0312	-2.8833	-3.2167	-2.7938	-2.9938	-3.325	-2.9729	-3.1312	-3.1771	-3.0812	-3.4708	-3.1396	-3.1083	-3.2896	-3.0479	167.108	80.062	121.395	-38.429	85.464	9.811	242.688	218.737	228.346	55.291	217.599	65.041	274.001	289.984	217.904	-35.997	0.00045215	0.001944	0.00033859	702.21	1.4207e-05	6.5297e-06	769.28	306.14	7.9364e-06	8.9525e-06	366	165.4	127.43	60.155	8.3462e-06	80.456	0.0033136	0.0033086	0.00085687	952.87	3.6793e-05	3.5862e-05	974.34	386.96	3.6904e-05	3.6177e-05	484.2	205.32	200.07	71.973	3.5249e-05	97.135	193.172	-10.554	36.735	-37.257	109.065	47.441	-38.259	-32.463	86.324	85.214	-34.914	-30.374	-28.378	-23.254	197.914	-26.745	-8191	255	
5835.725	1	1	0	0	0.18038	0.21823	0.079224	0.04296	0.15049	0.13118	0.35466	0.11227	0.27477	0.10613	0.041139	0.013402	0.1451	0.24705	0.25484	0.37801	-2.8396	-3.1792	-2.8312	-3.4208	-3.0187	-2.9792	-3.4542	-3.1271	-3.1417	-3.1	-3.025	-3.3917	-3.1375	-3.0479	-3.1583	-3.1479	59.052	223.354	301.198	305.496	173.642	-6.953	251.119	255.081	297.470	77.062	264.928	282.363	33.239	-26.941	265.693	255.515	0.00021947	0.0016678	0.00050488	705.62	2.7343e-06	2.281e-05	769.96	308	4.6626e-06	1.4719e-05	365.22	166.07	126.21	60.154	1.4081e-05	80.996	0.0034079	0.0033592	0.00090802	972.02	3.8142e-05	3.6234e-05	991.21	391.9	3.7697e-05	3.5762e-05	490.64	206.18	199.2	71.568	3.5966e-05	97.174	144.166	294.482	189.448	-37.206	-2.249	32.601	-38.291	-32.189	135.101	93.826	-34.651	-30.651	-28.515	-23.165	148.895	-26.631	-8191	255	
5835.844	1	1	0	0	0.12125	0.32822	0.16423	0.13454	0.193	0.056082	0.18218	0.088191	0.10104	0.15899	0.22442	0.081227	0.11883	0.22517	0.13115	0.24978	-2.5271	-3.2208	-2.9188	-3.2417	-3.1792	-2.7521	-3.4188	-3.15	-3.0958	-3.5563	-2.8542	-3.3333	-3.2021	-3.2479	-3.0896	-3.1937	21.671	36.237	247.033	-26.321	6.489	11.015	269.152	216.619	88.115	231.928	306.601	15.030	303.020	281.030	118.170	261.704	0.00029753	0.0031646	0.00035289	707.3	9.0751e-06	1.0655e-05	774.43	306.96	2.2638e-06	7.5716e-06	371.31	167.5	128.39	60.166	7.5382e-06	80.751	0.0033069	0.0031695	0.00091493	964.68	3.6616e-05	3.4098e-05	997.66	389.67	3.6222e-05	3.3885e-05	495.56	205.74	196.38	70.946	3.6143e-05	96.726	87.576	21.433	34.866	-37.110	38.553	97.772	-38.125	-32.422	195.008	135.393	-34.352	-30.416	-28.881	-23.039	162.383	-26.716	-8191	255	
5835.940	1	1	0	0	0.21948	0.03686	0.15649	0.12664	0.18204	0.066053	0.25296	0.16025	0.15239	0.19618	0.32332	0.31761	0.16252	0.21899	0.05506	0.28936	-2.7229	-3.2188	-3.0187	-3.2979	-3.0917	-3.0563	-3.3438	-3.0958	-3.0708	-3.1708	-3.0812	-3.2354	-3.2938	-3.225	-3.2562	-3.1896	254.583	130.102	186.948	288.615	218.777	-44.963	237.198	259.409	287.747	101.666	272.095	288.794	-18.828	298.119	281.969	237.518	0.00035908	0.00057974	0.00028141	708.14	4.2546e-06	9.6963e-06	770.94	307.24	4.0818e-06	9.6877e-06	367.3	165.61	127.69	60.163	2.1774e-05	80.079	0.0031637	0.0030544	0.00092409	957.04	3.5426e-05	3.3658e-05	998.24	386.35	3.5072e-05	3.3767e-05	494.14	203.76	193.98	70.997	3.6827e-05	95.873	122.019	168.217	31.013	-37.256	261.663	217.226	-38.211	-32.311	292.194	181.102	-34.875	-30.928	-28.769	-23.034	209.243	-26.558	-8191	255	
5836.036	1	1	0	0	0.18988	0.11822	0.10189	0.19546	0.17853	0.24051	0.25803	0.087974	0.14586	0.28894	0.17349	0.1116	0.15905	0.16351	0.3163	0.1272	-2.5292	-3.2812	-2.95	-3.2646	-3.2271	-2.6562	-3.1292	-3.1771	-2.7625	-3.2708	-3.05	-3.2104	-3.3083	-3.0021	-3.1333	-3.2896	-10.433	58.896	-41.246	190.495	220.004	151.808	277.788	-19.511	130.471	95.441	177.014	287.030	179.410	19.020	72.460	-19.595	0.0002748	0.00084555	0.00015668	699.6	4.9834e-06	1.6633e-05	771.66	308.23	1.3902e-05	1.061e-05	365.61	165.07	126.82	59.834	6.8088e-06	80.361	0.0030804	0.0031157	0.00093725	949.42	3.4215e-05	3.4408e-05	996.57	385.44	3.3762e-05	3.4771e-05	493.07	202.96	191.11	71.429	3.7147e-05	95.9	136.820	130.628	125.691	-37.400	118.275	152.327	-38.306	-32.571	46.400	156.927	-34.583	-30.434	-28.743	-22.964	101.473	-26.813	-8191	255	
5836.132	1	1	0	0	0.15434	0.061567	0.24979	0.1701	0.072881	0.1588	0.03145	0.16381	0.24853	0.068251	0.16928	0.091579	0.080906	0.1781	0.03669	0.080239	-2.4083	-3.1146	-2.9958	-3.0333	-3.3083	-2.825	-3.3812	-3.0729	-2.8688	-3.3625	-2.8771	-3.0271	-3.3104	-2.9354	-3.2188	-3.1271	41.367	90.494	202.349	296.749	100.719	169.253	185.655	272.112	307.244	269.321	165.121	281.720	290.568	211.746	176.850	-33.897	0.00017407	0.0019203	0.00048712	704.28	7.8614e-06	1.3022e-05	770.98	305.62	1.0647e-05	1.2807e-05	365.06	165.42	127.15	59.862	6.4665e-06	80.305	0.0030351	0.0032989	0.00095185	954.63	3.4192e-05	3.6458e-05	1002	385.61	3.3778e-05	3.6527e-05	494.38	202.41	190.55	71.765	3.6924e-05	95.545	135.212	143.319	80.702	-37.007	291.632	97.871	-38.582	-32.110	275.141	227.842	-34.687	-30.818	-28.001	-22.929	105.641	-26.529	-8191	255	
5836.228	1	1	0	0	0.089405	0.2952	0.222	0.16316	0.33042	0.15459	0.10163	0.068037	0.2341	0.14084	0.096465	0.06935	0.32494	0.084131	0.086413	0.090542	-2.6271	-3.1854	-2.9229	-3.1208	-3.2833	-2.8917	-3.2854	-3.1958	-2.9542	-3.1729	-2.9667	-2.9167	-3.15	-3.1375	-3.0563	-3.3146	282.733	50.286	99.472	-7.215	21.638	3.500	165.135	72.269	155.543	264.645	-11.691	245.692	57.341	292.655	103.748	-36.292	0.00052213	0.00036723	0.00048223	715.04	1.4608e-05	6.7572e-06	771.29	307.79	2.0293e-06	4.9995e-06	367.97	166.53	126.8	60.065	1.3695e-05	80.506	0.0030141	0.0033822	0.00094411	950.1	3.4346e-05	3.7459e-05	1002.5	384.28	3.4497e-05	3.7689e-05	496.33	202.43	193.24	72.239	3.69e-05	95.385	109.196	97.641	-7.408	-37.426	129.277	180.204	-37.988	-32.299	235.094	122.777	-34.634	-30.713	-28.795	-22.968	71.250	-26.486	-8191	255	
5836.324	1	1	0	0	0.1658	0.070154	0.27216	0.1365	0.0841	0.23384	0.36457	0.18995	0.095575	0.17624	0.28217	0.083301	0.096816	0.22582	0.22038	0.19565	-2.4688	-3.1167	-3.0646	-2.9792	-3.2667	-2.9646	-3.0479	-3.1875	-2.9104	-3.2771	-3.3438	-3.0375	-3.3417	-3.1354	-3.0938	-3.2729	163.993	-2.110	272.456	56.580	130.256	215.986	255.647	277.705	-31.190	219.301	260.461	150.712	21.293	-7.607	132.110	186.423	0.00037323	0.00076011	0.00041127	707.03	6.9405e-06	8.5297e-06	779.63	308.75	2.1691e-05	9.9912e-06	368.08	165.37	126.08	59.942	1.5947e-05	80.281	0.0031292	0.003455	0.00094308	944.45	3.5704e-05	3.8094e-05	1007.3	383.46	3.6213e-05	3.8472e-05	497.73	201.51	197.45	72.395	3.7122e-05	94.793	145.816	189.736	50.189	-37.057	187.678	72.444	-38.450	-32.608	156.772	55.345	-34.854	-30.612	-28.534	-23.030	90.111	-26.674	-8191	255	
5836.421	1	1	0	0	0.15874	0.21686	0.18279	0.14239	0.23087	0.15799	0.26329	0.1894	0.042304	0.11151	0.13655	0.25418	0.21788	0.03878	0.15727	0.18062	-2.325	-3.1188	-3.0521	-2.9208	-3.2417	-3.025	-3.1042	-3.3396	-2.9625	-3.1583	-3.2458	-3.1167	-3.1417	-3.0354	-2.8458	-3.5208	31.616	57.054	-41.806	-4.008	46.768	97.427	26.249	255.668	34.230	-34.111	139.095	298.025	279.061	10.379	194.090	-22.952	0.00069627	0.0021785	0.00035132	708.92	1.6106e-05	5.7878e-06	771.36	304.7	3.2591e-06	9.5841e-06	363.07	163.8	125.54	59.875	1.1958e-05	79.299	0.0032594	0.0034347	0.0009275	937.52	3.6482e-05	3.7281e-05	991.74	378.15	3.6483e-05	3.6895e-05	487.09	199.16	197.1	71.733	3.5491e-05	93.978	126.583	53.382	59.576	-37.221	144.606	92.040	-38.450	-32.246	159.247	57.982	-34.889	-30.564	-28.613	-23.141	-40.094	-26.642	-8191	255	
5836.540	1	1	0	0	0.19006	0.11505	0.05495	0.22267	0.065894	0.21022	0.2332	0.21325	0.20526	0.12624	0.22682	0.32822	0.099741	0.2298	0.15214	0.072621	-2.5083	-3.0042	-3.1333	-2.8854	-2.9896	-3.1375	-3.0042	-3.525	-3.0208	-2.9521	-3.3063	-3.0083	-3.1813	-3.1396	-2.9125	-3.3625	232.067	229.810	84.402	-31.685	65.086	-0.819	215.499	-26.424	170.338	169.657	224.061	296.732	14.462	301.017	121.083	308.573	0.00037947	0.00027881	0.00091259	706.82	3.1716e-06	1.0601e-05	772.8	304.43	5.6979e-06	8.8796e-06	362.93	164.2	126.27	59.888	3.3991e-06	79.799	0.0032836	0.0033598	0.00089581	936.75	3.6998e-05	3.6624e-05	980.76	378.34	3.6899e-05	3.6374e-05	480.79	199.59	196.98	71.472	3.3992e-05	94.667	128.715	290.565	12.712	-37.190	-11.359	32.612	-38.326	-32.351	96.861	143.785	-34.849	-30.557	-28.336	-22.905	125.719	-26.607	-8191	255	
5836.636	1	1	0	0	0.03757	0.20405	0.11069	0.12548	0.098192	0.040506	0.086812	0.06144	0.096493	0.074143	0.033646	0.23085	0.24904	0.19463	0.14069	0.14411	-2.4542	-2.95	-3.1542	-2.8083	-3.1521	-3.0854	-3.0458	-3.425	-3.0062	-2.8667	-3.3667	-3.1854	-3.2917	-3.2229	-2.7979	-3.3146	241.433	102.166	130.955	165.746	264.745	3.216	-41.911	280.597	99.998	42.052	244.355	303.156	35.195	-14.257	54.810	218.201	0.00050964	0.0017704	0.00064653	703.84	3.1759e-06	2.7332e-05	777.91	304.86	2.5826e-06	5.3498e-06	364.12	164.99	127.31	59.808	9.7801e-06	80.039	0.0032843	0.0033095	0.00086565	943.21	3.6833e-05	3.6219e-05	976.71	382.07	3.6786e-05	3.5872e-05	478.79	201.8	196.95	71.402	3.3249e-05	95.523	115.728	7.696	-16.111	-36.975	282.314	71.282	-38.395	-32.378	-46.950	139.207	-34.526	-30.665	-28.824	-22.993	41.313	-26.477	-8191	255	
5836.709	1	1	0	0	0.22408	0.17546	0.029621	0.22265	0.14916	0.15941	0.20975	0.19285	0.057627	0.12859	0.066858	0.10403	0.15524	0.19337	0.26235	0.050458	-2.4938	-2.9271	-3.125	-2.7771	-3.1771	-3.2062	-3.0312	-3.3875	-3.0458	-3.0229	-3.3292	-2.9875	-2.9542	-3.3104	-2.8167	-3.2896	130.237	-27.955	234.246	226.296	291.037	116.438	210.634	224.441	125.259	86.000	294.754	188.448	143.068	306.854	158.672	113.124	0.00051923	0.00067817	0.00028641	708.41	7.7461e-06	5.588e-06	774.03	306	1.413e-05	1.2449e-05	364.95	165.34	126.92	59.587	1.0737e-05	80.387	0.0032626	0.0032469	0.000849	955.3	3.6703e-05	3.5681e-05	979.5	385.91	3.6682e-05	3.5242e-05	482.58	204.03	197.19	71.232	3.4054e-05	96.461	159.446	-17.649	121.630	-37.185	51.691	138.796	-38.389	-32.163	177.004	81.349	-34.454	-30.503	-28.525	-23.115	205.702	-26.351	-8191	255	
5836.805	1	1	0	0	0.15087	0.26037	0.30551	0.20685	0.13825	0.076398	0.15126	0.048303	0.04317	0.1341	0.018908	0.073248	0.17784	0.38663	0.18397	0.24173	-2.7271	-2.9042	-3.1854	-2.9521	-2.8187	-3.0687	-2.9292	-3.1667	-3.1437	-2.8646	-3.3333	-3.2687	-2.9646	-3.4771	-2.8	-3.3458	14.774	-10.329	255.797	10.594	121.551	-8.858	260.634	31.738	-35.082	-21.463	117.986	177.454	-34.661	278.982	280.469	170.006	0.00038347	0.00091145	0.00032083	712.32	3.8427e-06	2.1482e-05	774.18	305.42	5.9427e-06	1.1948e-05	365.01	164.94	126.75	59.689	1.2105e-05	79.877	0.003279	0.0032164	0.00087928	965.94	3.6869e-05	3.5096e-05	988.33	387.54	3.676e-05	3.4423e-05	485.42	203.82	196.08	70.678	3.5196e-05	95.966	79.678	-42.351	84.368	-37.332	29.770	49.904	-38.299	-32.442	38.754	50.027	-34.501	-30.545	-28.524	-23.075	253.458	-26.489	-8191	255	
5836.924	1	1	0	0	0.2837	0.18841	0.21722	0.20682	0.11998	0.16721	0.22761	0.26779	0.25369	0.20969	0.15581	0.19469	0.19531	0.12872	0.014083	0.20812	-2.6937	-2.9938	-3.1375	-3.2083	-3.0125	-3.2521	-3.1042	-3.3146	-3.0125	-2.7875	-3.1875	-3.0458	-2.975	-3.4479	-3.0917	-3.2917	84.823	82.251	191.242	280.918	177.125	241.143	-27.178	261.528	171.591	90.957	295.776	-43.226	96.476	198.932	2.916	298.390	0.00030306	0.00022089	0.00048222	708.54	9.446e-06	7.0741e-06	765.14	304.13	5.7186e-06	1.6904e-05	362.92	165.12	126.57	59.461	6.0258e-06	79.855	0.00324	0.0030876	0.0009019	960.34	3.618e-05	3.3984e-05	990.83	384.64	3.6157e-05	3.3584e-05	487.36	202.64	194.08	70.309	3.6222e-05	95.43	77.889	34.612	170.650	-37.094	7.616	-48.656	-38.367	-32.221	124.403	-10.908	-34.582	-30.713	-28.203	-23.053	133.983	-26.609	-8191	255	
5837.020	1	1	0	0	0.10557	0.1874	0.15096	0.13913	0.10439	0.15168	0.094547	0.12245	0.32469	0.10843	0.33049	0.46819	0.055182	0.15602	0.10199	0.19547	-2.6333	-2.75	-3.1979	-3.1937	-3.0312	-3.0563	-3.0792	-3.1604	-3.1854	-2.8042	-3.3125	-3.2979	-2.8979	-3.3417	-2.9104	-3.2771	247.513	278.188	-10.229	285.792	221.429	177.403	39.820	217.859	241.526	127.053	-26.621	-31.671	194.930	293.177	268.103	271.019	0.00041127	0.0010587	0.00059619	708.38	1.8063e-05	1.202e-05	771.93	304.88	7.8746e-06	1.1873e-05	363.99	164.28	126.51	59.393	9.8364e-06	79.921	0.0031655	0.0030463	0.00092559	955.03	3.4998e-05	3.3606e-05	995.64	384.52	3.51e-05	3.3746e-05	491.5	202.27	191.9	70.488	3.6932e-05	95.219	76.259	-4.967	138.591	-36.962	-20.608	201.161	-38.195	-32.118	-17.793	204.641	-34.633	-30.730	-28.815	-22.837	29.455	-26.561	-8191	255	
5837.116	1	1	0	0	0.22489	0.064837	0.067822	0.064743	0.094819	0.23544	0.21027	0.26184	0.15008	0.05283	0.20353	0.3825	0.099617	0.35538	0.2356	0.083258	-2.7562	-2.9479	-3.1562	-3.1437	-2.9833	-3.4208	-3.0812	-2.9813	-3.2042	-2.9146	-3.2313	-3.0896	-2.9062	-3.3208	-3.0958	-3.2583	197.592	245.297	-40.687	8.120	107.593	220.453	180.769	174.321	194.830	-34.250	261.239	285.534	214.979	282.835	232.689	274.253	0.00032878	0.0010912	0.00018367	708.06	1.4357e-05	3.7546e-05	776.02	305.28	5.3498e-06	9.8242e-06	366.88	164.97	126.19	59.365	1.7468e-05	79.982	0.0030674	0.0031243	0.00093825	954.87	3.4175e-05	3.4807e-05	1001.3	384.28	3.432e-05	3.5475e-05	496.05	203.06	191.45	71.339	3.7778e-05	95.887	125.136	172.389	103.576	-37.058	68.950	204.681	-38.423	-32.271	35.099	249.784	-34.933	-30.460	-28.874	-23.090	123.001	-26.708	-8191	255	
5837.237	1	1	0	0	0.44944	0.14731	0.019189	0.12547	0.099315	0.11666	0.14946	0.094523	0.099366	0.157	0.14228	0.15591	0.17508	0.28374	0.259	0.37156	-2.7812	-2.8458	-3.1792	-3.225	-2.9354	-3.4021	-3.0062	-3.125	-3.3563	-2.8667	-3.2	-3.1729	-2.7979	-3.4417	-2.8312	-3.0812	-13.661	47.734	294.686	87.462	254.384	247.525	297.774	120.293	165.490	175.694	252.878	5.977	62.100	243.170	299.893	215.625	0.00020561	0.00083719	0.00042756	714.08	3.9753e-06	1.7568e-05	775.72	307.01	8.6873e-06	1.2965e-05	370.03	165.87	126.4	59.755	1.0864e-05	80.307	0.0030537	0.0033264	0.00095869	960.31	3.4124e-05	3.6846e-05	1007.8	385.41	3.4136e-05	3.6868e-05	498.41	203.43	191.48	71.996	3.7365e-05	95.723	124.538	154.758	154.410	-37.266	-29.161	145.177	-38.453	-32.117	59.056	147.542	-34.810	-30.440	-28.256	-22.806	139.682	-26.601	-8191	255	
5837.309	1	1	0	0	0.073883	0.20449	0.17914	0.33653	0.11307	0.21382	0.076302	0.1211	0.062589	0.23807	0.26329	0.37354	0.26165	0.22415	0.16202	0.17783	-2.9604	-2.7958	-3.0521	-3.3646	-2.8937	-3.2313	-3.25	-3.0062	-3.2396	-2.9146	-3.0521	-3.325	-3.1333	-3.4146	-3.1583	-3.2188	116.848	8.034	286.910	272.315	-46.414	151.763	-16.942	-22.212	109.755	194.481	285.819	262.677	-45.845	273.451	18.847	199.571	0.0007758	0.00061187	0.00013478	703.26	4.5612e-06	9.556e-06	775.46	305.84	3.4935e-06	6.1091e-06	365.73	164.36	125.26	59.97	1.1794e-05	79.83	0.0030605	0.0034252	0.0009492	951.54	3.444e-05	3.7802e-05	1002.4	381.73	3.479e-05	3.7559e-05	490.77	200.89	192.09	71.855	3.6603e-05	94.291	143.024	113.270	251.074	-37.000	152.682	232.747	-38.172	-32.309	-48.949	274.156	-34.590	-30.588	-28.387	-23.089	105.765	-26.553	-8191	255	
5837.405	1	1	0	0	0.21827	0.017568	0.21679	0.3694	0.14882	0.32237	0.3847	0.10444	0.28407	0.24156	0.14839	0.13106	0.31836	0.15705	0.2023	0.25894	-2.7458	-2.9083	-2.8229	-3.1937	-2.7604	-3.1771	-3.1375	-2.9938	-3.2479	-2.9313	-3.1521	-3.4625	-2.9458	-3.375	-3.125	-3.0438	192.862	164.664	198.686	288.695	60.754	118.340	305.667	247.030	188.376	243.272	221.051	272.679	253.713	277.642	154.189	194.520	0.0005928	0.00091308	0.00024071	707.05	1.2422e-05	1.025e-05	771.39	303.68	2.5537e-05	1.27e-05	365.47	164.75	125.62	59.559	2.0142e-05	79.868	0.0031081	0.003423	0.00093261	939.68	3.5366e-05	3.7626e-05	993.12	376.95	3.5595e-05	3.7131e-05	487.84	199.39	194.31	71.602	3.5737e-05	93.829	117.496	-19.500	104.576	-37.276	196.987	63.098	-38.451	-32.314	192.838	47.766	-34.721	-30.789	-28.636	-23.130	53.584	-26.720	-8191	255	
5837.525	1	1	0	0	0.19327	0.07747	0.12571	0.054006	0.18827	0.060544	0.20468	0.34976	0.067519	0.050875	0.093521	0.046179	0.2609	0.17476	0.21694	0.093574	-2.8479	-2.8688	-2.9688	-3.3479	-2.9375	-3.2458	-3.1688	-3.0333	-3.2687	-2.9521	-2.9875	-3.3833	-3.0125	-3.2167	-3.1583	-3.1604	109.757	47.533	144.526	32.213	175.022	-8.890	271.676	205.493	107.180	174.874	23.736	18.180	173.564	236.666	210.914	-32.392	0.0006437	0.0018252	0.00066487	705.57	1.6229e-05	1.5002e-05	773.44	304.23	1.6136e-05	9.5379e-06	364.57	164.37	126.09	59.564	1.3159e-05	79.895	0.0031883	0.0033452	0.00090156	930.56	3.5973e-05	3.658e-05	986.8	376.22	3.6112e-05	3.6232e-05	483.73	199.07	195.98	71.464	3.4862e-05	94.245	90.023	14.013	-50.058	-37.094	148.169	-14.275	-38.433	-32.108	109.664	66.738	-34.484	-30.333	-28.432	-23.022	68.791	-26.241	-8191	255	
5837.620	1	1	0	0	0.0538	0.31974	0.12277	0.26546	0.19678	0.14374	0.062421	0.2653	0.12919	0.27825	0.21607	0.28423	0.16061	0.17001	0.14347	0.058616	-2.7646	-3.0625	-2.9896	-3.2104	-3.0083	-3.0458	-3.3646	-3.0563	-3.0563	-3.0771	-2.8708	-3.4292	-2.975	-3.2854	-3.1271	-2.9604	296.667	177.906	162.111	281.623	283.412	277.328	243.976	271.404	177.391	153.792	245.553	218.429	58.346	264.311	303.149	-19.174	0.00030083	0.0012113	0.00041924	703.84	7.6095e-06	6.3907e-06	773.57	304.62	2.3158e-06	1.6637e-05	363.27	164.83	126.9	59.909	7.5953e-06	79.988	0.0032901	0.0033554	0.00089441	941.97	3.7835e-05	3.7261e-05	991.13	380.74	3.7879e-05	3.7188e-05	483.74	200.84	198.87	71.761	3.4393e-05	95.163	121.474	-26.232	46.626	-36.971	157.757	47.711	-38.530	-32.429	233.546	136.472	-34.605	-30.628	-28.532	-23.118	91.214	-26.500	-8191	255	
5837.718	1	1	0	0	0.14812	0.29928	0.11741	0.073253	0.25529	0.20498	0.13094	0.12843	0.24967	0.15255	0.16028	0.35349	0.064098	0.22091	0.056015	0.17525	-2.7562	-3.0292	-3	-3.3312	-3.1437	-2.9458	-3.1917	-3.1021	-3.3333	-3.1792	-3.025	-3.3625	-3.0646	-3.1583	-3.2833	-3.0542	308.635	124.615	145.468	188.713	173.328	88.438	298.773	67.222	127.977	262.061	171.764	9.268	79.435	-40.426	83.400	259.599	0.00030435	0.0010815	0.00035336	704.99	1.2199e-05	1.4777e-05	774.51	304.79	8.9748e-06	2.5599e-06	365.2	164.81	126.04	59.815	1.1803e-05	79.945	0.0033337	0.0033475	0.00086676	951.83	3.7577e-05	3.6813e-05	985.67	383.99	3.7554e-05	3.6671e-05	480.37	202.77	197.94	71.65	3.384e-05	95.702	121.327	133.718	306.118	-36.768	73.859	297.102	-38.270	-32.127	136.974	198.848	-34.487	-30.543	-28.431	-22.994	249.629	-26.527	-8191	255	
5837.837	1	1	0	0	0.13164	0.2651	0.21855	0.13443	0.27569	0.26316	0.37243	0.14102	0.086579	0.093597	0.12907	0.21534	0.17553	0.12141	0.17062	0.31732	-2.5667	-3.0896	-2.7542	-3.2625	-3.1917	-3.1	-3.2833	-3.05	-3.275	-3.1521	-3.0167	-3.2646	-3.1854	-3.0458	-3.4313	-3.0812	41.303	188.230	156.789	307.240	106.666	49.476	226.117	-44.800	250.342	52.286	289.328	178.940	8.388	254.156	57.645	285.165	0.00062827	0.00032496	0.0001149	708.88	4.6922e-06	2.4106e-05	770.08	303.88	1.5972e-05	4.5571e-06	361.25	164.5	125.42	59.567	1.3164e-05	79.683	0.0032801	0.0032614	0.00085147	954.51	3.6494e-05	3.5362e-05	972.84	382.8	3.6351e-05	3.5102e-05	475.78	201.67	194.56	70.805	3.3653e-05	95.349	84.403	116.921	70.169	-36.732	236.385	74.355	-38.336	-32.354	167.200	183.086	-34.352	-30.481	-28.931	-23.074	159.427	-26.576	-8191	255	
5837.933	1	1	0	0	0.28627	0.24158	0.34991	0.043658	0.068438	0.10423	0.052953	0.31829	0.035511	0.14351	0.25525	0.060255	0.25872	0.22946	0.13028	0.092924	-2.475	-3.125	-2.7292	-3.1979	-2.9188	-2.9354	-3.3333	-2.9646	-2.8896	-3.3083	-2.7708	-3.3604	-2.9167	-3.0187	-3.3146	-3.1229	145.355	255.642	94.298	235.730	264.949	293.492	32.202	268.779	250.349	190.986	226.018	100.732	305.789	-9.773	216.026	286.383	0.000216	0.0010406	0.00040748	701.86	1.3836e-05	1.1686e-05	764.95	303.42	1.1813e-05	1.8175e-05	358.8	163.61	127.07	59.666	2.4803e-05	79.87	0.0031814	0.0031117	0.00085492	949.68	3.5378e-05	3.3375e-05	971.34	381.34	3.5087e-05	3.2946e-05	476.35	200.87	192.56	70.055	3.3956e-05	94.837	98.402	22.261	107.458	-36.947	78.520	27.420	-38.100	-32.264	235.713	81.186	-34.881	-30.433	-28.014	-22.839	173.909	-26.612	-8191	255	
5838.004	1	1	0	0	0.11918	0.080808	0.057779	0.24827	0.038677	0.082667	0.1981	0.2991	0.050304	0.20942	0.19208	0.25928	0.19639	0.14517	0.11009	0.10116	-2.4396	-3.2438	-2.8292	-3.3146	-3.0625	-3.0438	-3.2271	-3.1042	-3.1	-3.2188	-2.9729	-3.2854	-3.15	-3.2062	-3.2812	-2.9792	69.312	304.700	68.410	289.571	231.903	116.262	297.962	237.207	17.523	248.107	-4.221	230.744	-15.443	-12.585	113.765	-18.173	0.00044241	0.0010581	0.00032146	706.81	5.2239e-06	8.3913e-06	765.98	305.14	1.5502e-05	1.19e-05	362.03	164.38	126.74	59.778	1.287e-05	80.126	0.0030847	0.0029458	0.0008666	945.61	3.4141e-05	3.1816e-05	976.93	379.67	3.4034e-05	3.2018e-05	480.68	200.51	190.95	69.901	3.4795e-05	95.169	109.106	272.367	119.772	-36.953	27.849	2.818	-38.455	-31.993	29.805	84.897	-34.422	-30.531	-28.147	-23.162	182.682	-26.659	-8191	255	
5838.125	1	1	0	0	0.35918	0.22993	0.21905	0.2373	0.16049	0.28516	0.2319	0.31396	0.26082	0.07093	0.058394	0.12698	0.10187	0.10617	0.27136	0.19188	-2.5354	-3.2583	-3.0167	-3.1729	-3.1063	-2.8312	-3.4333	-3.2354	-2.925	-3.1146	-3.0938	-3.0938	-3.35	-3.0542	-3.1229	-3.2292	307.103	-1.789	-12.657	-26.383	128.760	74.727	-22.039	-26.594	-12.132	-39.422	50.238	228.461	280.061	-39.327	-44.714	296.450	0.00037577	0.001208	0.00018775	707.2	1.4332e-05	1.0859e-05	771.12	303.98	1.5549e-05	4.8367e-06	365.73	165.06	126.02	59.779	4.1786e-06	80.396	0.0029992	0.0029142	0.00088291	941.66	3.3225e-05	3.1823e-05	985.47	378.54	3.27e-05	3.2035e-05	483.7	200.3	187.59	70.226	3.5054e-05	95.035	134.340	69.220	214.468	-37.106	-41.577	201.679	-38.320	-32.035	18.229	297.152	-34.415	-30.671	-28.840	-22.682	173.902	-26.428	-8191	255	
5838.221	1	1	0	0	0.16754	0.050101	0.11216	0.37483	0.21951	0.17442	0.1734	0.096218	0.043173	0.010081	0.084645	0.1394	0.13321	0.17648	0.10404	0.12781	-2.35	-3.3167	-3.0542	-2.9854	-3.3063	-2.9333	-3.4313	-3.1729	-2.8729	-3.3042	-3.0771	-2.9979	-3.2479	-3.1104	-3.1479	-3.2438	132.088	78.620	303.149	238.417	183.813	153.276	265.586	299.373	278.764	35.547	19.787	147.997	279.628	40.331	175.526	-23.021	0.00022239	0.0011552	7.5277e-05	707.7	8.8653e-06	1.0844e-05	771.77	302.38	8.2482e-06	6.4954e-06	360.3	163.96	125.97	59.552	4.1533e-06	79.866	0.0029027	0.0030134	0.00090397	945.51	3.2807e-05	3.3528e-05	991.96	377.71	3.2319e-05	3.3719e-05	482.46	199.41	185.98	70.409	3.5131e-05	94.279	67.592	138.441	-29.948	-37.325	65.556	132.371	-38.543	-32.074	10.826	148.622	-34.617	-30.650	-28.438	-22.847	13.335	-26.515	-8191	255	
5838.317	1	1	0	0	0.17541	0.068655	0.11339	0.20381	0.20129	0.06474	0.23474	0.44267	0.21012	0.019609	0.14828	0.074315	0.16561	0.13428	0.21808	0.42597	-2.4688	-3.2417	-2.875	-3.0312	-3.2208	-2.8167	-3.3063	-3.2208	-2.8167	-3.3563	-3.1646	-2.95	-3.2958	-2.9354	-3.0125	-3.3083	56.691	72.798	41.804	159.588	198.509	117.848	240.463	255.139	169.756	-28.025	188.109	177.930	217.485	-15.993	252.358	183.082	0.00055389	0.0010544	0.00041251	705.87	6.0679e-06	2.0135e-05	769.43	302.5	1.1807e-05	1.3753e-05	358.62	163.16	124.6	59.388	8.4078e-06	79.433	0.002818	0.0031006	0.00088739	933.88	3.1528e-05	3.4117e-05	978.75	373.63	3.1205e-05	3.4059e-05	476.36	196.73	183.48	70.468	3.3565e-05	92.876	138.086	115.287	53.209	-37.353	-33.158	216.214	-38.189	-32.317	112.949	195.757	-34.559	-30.618	-28.651	-22.983	-1.802	-26.696	-8191	255	
5838.414	1	1	0	0	0.15127	0.16368	0.05456	0.16486	0.1223	0.16943	0.1887	0.18375	0.083045	0.095851	0.087203	0.26963	0.11413	0.21352	0.18783	0.1404	-2.3187	-3.0812	-2.8708	-3.0583	-3.1583	-2.9708	-3.175	-3.2167	-2.8625	-3.1854	-3.0521	-3.0042	-3.175	-3.1937	-2.975	-3.4396	46.486	28.436	261.209	279.129	290.484	79.838	22.523	-22.829	119.133	111.762	103.753	296.590	-30.135	-21.735	165.316	54.677	0.00047826	0.0012271	0.00036211	703.45	1.3781e-05	1.6709e-05	768.68	301.6	1.2171e-05	2.1438e-05	360.82	163.5	125.46	59.161	7.4727e-06	79.5	0.0027453	0.0030761	0.00084685	919.07	3.098e-05	3.3787e-05	972.42	369.41	3.1133e-05	3.3888e-05	472.94	195.09	184.21	70.281	3.2734e-05	92.373	126.646	95.844	-4.819	-37.175	86.288	0.563	-38.245	-32.301	254.977	231.145	-34.582	-30.432	-28.064	-22.931	53.062	-26.427	-8191	255	
5838.510	1	1	0	0	0.12871	0.19955	0.21821	0.22676	0.053028	0.16795	0.090353	0.16846	0.1088	0.17861	0.1125	0.14929	0.046974	0.19404	0.20444	0.27103	-2.575	-2.8771	-2.9917	-2.9146	-3.2104	-3.0417	-3.0812	-3.5083	-2.6312	-3.1312	-3.1604	-3.1167	-3.1167	-3.1188	-2.9354	-3.2646	279.504	275.969	194.532	262.557	33.399	11.679	30.728	132.530	59.141	307.984	268.180	26.948	-36.982	262.138	87.152	221.005	0.00028724	0.0004581	0.00027618	707.98	1.3261e-05	1.7102e-05	772.74	303.01	1.5772e-05	1.1422e-05	364.49	162.99	125.68	59.372	6.9266e-06	79.77	0.0028135	0.0030859	0.00083217	913.11	3.2107e-05	3.4081e-05	971.66	368.23	3.2492e-05	3.3979e-05	473.8	194.54	187.36	70.308	3.2428e-05	92.375	103.827	242.539	52.203	-37.186	165.497	8.869	-38.431	-32.147	163.857	132.873	-34.616	-30.502	-28.193	-23.098	278.333	-26.718	-8191	255	
5838.606	1	1	0	0	0.049666	0.2019	0.040668	0.16196	0.21501	0.026304	0.072074	0.24081	0.20635	0.072649	0.10003	0.115	0.068691	0.15599	0.12761	0.11601	-2.5604	-2.8688	-3.0187	-3.0062	-3.1167	-3.0542	-2.9979	-3.4604	-2.8146	-2.9625	-3.2375	-3.0563	-3.1958	-3.0542	-2.9	-3.1604	11.825	43.040	297.519	-49.166	257.324	194.221	9.079	247.253	21.963	257.131	62.510	306.862	47.542	187.081	194.289	233.297	0.00064574	0.00021062	0.00016475	704.71	4.3257e-06	1.0473e-05	775.45	302.11	1.6068e-05	1.7132e-05	361.58	163.29	125.39	59.392	1.3493e-05	79.56	0.0029236	0.0030449	0.0008207	910.12	3.3105e-05	3.3463e-05	967.06	367.78	3.3537e-05	3.3672e-05	471.77	195.22	190.59	70.404	3.2289e-05	92.896	121.448	196.208	161.848	-36.822	226.889	139.134	-38.410	-32.209	227.104	7.161	-34.654	-30.683	-28.115	-22.827	34.961	-26.631	-8191	255	
5838.702	1	1	0	0	0.13857	0.22184	0.237	0.21251	0.17717	0.28561	0.26687	0.20869	0.10483	0.33155	0.21561	0.21586	0.037072	0.41134	0.13734	0.12803	-2.3688	-3.0312	-3.25	-2.9604	-3.2271	-3.0833	-3.1604	-3.3917	-3.0521	-3.0667	-3.2042	-2.9896	-3.2083	-3.0229	-2.9229	-3.4042	136.919	270.016	-40.295	254.194	240.325	213.038	284.313	-7.074	141.275	309.002	14.956	268.801	156.252	249.946	-41.556	-15.367	0.00039869	0.0024468	0.00045398	705.96	1.504e-05	1.6434e-05	774.83	301.03	9.664e-06	1.0817e-05	358.86	161.84	124.52	58.971	1.1226e-05	78.869	0.0030402	0.0030566	0.00081043	920.69	3.4256e-05	3.3727e-05	963.39	370.8	3.4444e-05	3.3644e-05	466.15	195.93	190.4	69.972	3.1253e-05	92.911	105.492	34.221	57.185	-37.072	37.236	136.542	-38.177	-31.957	302.407	62.873	-34.709	-30.160	-28.763	-22.979	93.948	-26.670	-8191	255	
5838.798	1	1	0	0	0.1064	0.19736	0.19715	0.2313	0.087037	0.032063	0.31732	0.16628	0.070759	0.0098755	0.078679	0.14193	0.29148	0.1136	0.15306	0.31207	-2.5187	-2.9437	-3.2479	-2.9396	-3.0771	-3.2729	-3.0271	-3.3479	-2.9917	-3.0146	-3.1833	-2.9854	-3.2125	-3.2229	-2.8146	-3.0812	-42.055	55.063	185.932	206.419	253.404	52.719	-24.713	256.614	-4.547	192.750	-19.739	-3.990	298.309	40.656	31.918	238.168	0.00025156	0.00027701	0.00045055	704.84	7.047e-06	2.351e-05	769.91	301.01	9.2152e-06	2.8079e-06	359.01	162.89	125.53	59.228	1.0393e-05	79.02	0.0030584	0.0030504	0.00079292	927.72	3.4297e-05	3.3276e-05	953.31	372.15	3.4214e-05	3.3049e-05	462.23	196.97	189.68	69.707	3.0535e-05	93.327	95.270	68.924	28.538	-36.735	284.441	72.654	-38.343	-32.275	-0.605	65.774	-34.193	-30.479	-28.743	-22.786	145.540	-26.575	-8191	255	
5838.917	1	1	0	0	0.070795	0.13451	0.24352	0.20404	0.33173	0.39248	0.17174	0.21411	0.2359	0.23525	0.27404	0.30039	0.17077	0.069595	0.06874	0.43783	-2.5146	-2.9833	-3.1479	-3.0771	-3.1188	-3.1854	-2.8958	-3.2354	-3.0312	-2.9021	-3.225	-2.9917	-2.9917	-3.3125	-2.9042	-3.3604	37.832	101.249	145.286	204.508	288.690	40.353	298.909	272.691	37.027	244.036	250.305	233.371	-4.384	308.156	85.082	218.332	0.00025352	0.0013207	0.0001317	707.22	5.5745e-06	9.5949e-06	769.44	302.52	6.6812e-06	9.0456e-06	357.6	163.46	124.69	59.352	1.4882e-05	79.162	0.0029913	0.0029267	0.00077028	930.46	3.3058e-05	3.1696e-05	949.88	373.89	3.2836e-05	3.114e-05	461.99	197.18	186.37	69.11	3.0387e-05	93.442	125.745	-36.294	18.325	-37.116	289.181	15.043	-38.130	-32.081	60.317	153.580	-34.466	-30.520	-28.539	-22.723	164.192	-26.556	-8191	255	
5839.013	1	1	0	0	0.082863	0.23109	0.035184	0.11697	0.31979	0.40862	0.13454	0.10142	0.017565	0.022607	0.14762	0.17753	0.20653	0.038467	0.12393	0.24175	-2.4125	-2.8396	-3.0938	-3.0542	-2.9396	-3.1292	-3.1083	-3.3208	-3.0833	-2.9104	-3.1625	-2.8708	-2.7792	-3.3708	-2.9271	-3.3812	43.100	70.504	171.543	-27.912	299.603	200.490	219.986	3.738	241.856	1.616	251.314	233.293	254.062	13.540	69.043	171.882	0.00031059	0.0012984	0.00024002	709.06	1.2595e-05	1.2614e-05	768.48	302.38	3.7637e-06	1.9866e-05	361.8	164.38	126.02	59.506	7.3761e-06	79.979	0.0028737	0.0027688	0.00077611	929.13	3.1722e-05	2.9982e-05	956.32	372.8	3.1611e-05	2.9624e-05	466.47	197.57	184.44	68.76	3.1233e-05	93.674	93.987	67.511	125.703	-36.524	39.683	-15.483	-38.549	-32.334	305.497	67.740	-34.658	-30.503	-28.845	-22.923	190.408	-26.429	-8191	255	
5839.109	1	1	0	0	0.22386	0.25719	0.080916	0.13781	0.041147	0.10679	0.36827	0.19795	0.20235	0.18812	0.26908	0.16726	0.14396	0.3093	0.17205	0.3217	-2.5271	-2.925	-3.0812	-2.9896	-2.9125	-3.2917	-2.9813	-3.2917	-3.0458	-2.6708	-3.1937	-3.0833	-3.0521	-3.1937	-2.8104	-3.1896	-5.169	-37.851	101.528	-18.763	36.694	232.918	208.490	288.469	302.238	275.357	236.010	235.200	281.262	271.784	25.317	261.825	0.00039151	0.0019523	0.0006323	708.27	3.8908e-06	1.9739e-05	771.51	304.86	1.1876e-05	1.1581e-05	360.53	163.49	125.29	59.221	1.282e-05	79.3	0.0028066	0.0026744	0.00080368	930.33	3.1322e-05	2.9372e-05	968.2	373.81	3.1473e-05	2.9624e-05	472.91	197.46	184.49	68.834	3.3225e-05	93.376	99.775	303.518	178.346	-37.225	23.811	105.247	-38.035	-32.384	72.266	60.009	-34.305	-30.708	-28.757	-22.847	151.893	-26.467	-8191	255	
5839.206	1	1	0	0	0.13893	0.089647	0.13838	0.030651	0.34903	0.11911	0.29765	0.31137	0.12896	0.20126	0.20309	0.2245	0.097997	0.33035	0.22348	0.25022	-2.55	-2.8896	-3.0125	-3.0729	-2.9104	-3.1833	-2.8812	-3.1833	-3.125	-2.7646	-3.2562	-3.1167	-3.0146	-3.2646	-2.9938	-3.2771	115.790	187.413	196.755	300.391	285.451	112.457	267.611	271.737	149.844	70.868	157.470	268.341	-45.158	263.496	121.012	203.083	0.00017519	0.0022402	0.00050907	708.86	7.3108e-06	2.3463e-05	768.78	301.14	1.2536e-05	6.8482e-06	357.43	162.26	125.1	58.993	1.14e-05	79.104	0.0028354	0.0027822	0.00085747	932.64	3.168e-05	3.095e-05	978.64	373.14	3.1594e-05	3.1207e-05	475.38	197.08	183.64	69.174	3.4342e-05	93.294	106.624	28.803	114.358	-37.062	300.654	70.839	-38.244	-32.287	131.602	90.570	-34.560	-30.551	-28.649	-22.942	72.516	-26.610	-8191	255	
5839.302	1	1	0	0	0.19145	0.14881	0.08145	0.18784	0.064078	0.0069384	0.11904	0.15927	0.11692	0.24621	0.19262	0.1858	0.23397	0.14428	0.083651	0.24189	-2.7542	-2.6854	-3.0896	-3.1375	-2.8271	-3.2646	-3.1083	-3.0042	-3.025	-2.9625	-3.075	-3.2562	-3.0146	-3.2354	-2.7812	-3.0062	108.877	119.219	196.110	284.527	-28.226	179.534	287.189	169.271	153.452	242.494	298.935	227.041	255.508	-12.897	86.163	-49.855	0.00015876	0.0018631	0.00034461	705.76	1.733e-05	1.0218e-05	769.5	302.35	8.4819e-06	1.0204e-05	358.24	162.79	124.93	59.154	1.0865e-05	79.023	0.0028327	0.0029538	0.00088226	934.57	3.152e-05	3.3114e-05	980.43	373.8	3.155e-05	3.3151e-05	477.48	197.27	182.82	69.828	3.4278e-05	93.171	93.376	103.800	111.506	-37.143	-1.695	201.133	-38.124	-32.168	2.532	159.750	-34.598	-30.623	-28.171	-22.667	84.244	-26.548	-8191	255	
5839.398	1	1	0	0	0.14336	0.25837	0.063811	0.07903	0.12157	0.16482	0.12139	0.11536	0.24481	0.15101	0.26435	0.30718	0.12823	0.10333	0.017029	0.15514	-2.5771	-2.6708	-3.2125	-3.0625	-2.7958	-3.1417	-2.9833	-2.9854	-3.2333	-2.9354	-3.2083	-3.1021	-3.0229	-3.325	-2.9208	-3.0812	-23.683	70.470	117.206	274.411	303.462	164.198	199.311	209.682	154.959	61.519	189.619	-43.263	261.717	35.210	272.969	-10.184	0.00044142	0.00068801	0.00027857	708.27	6.7952e-06	1.2836e-05	776.85	301.99	5.6705e-06	1.4168e-05	360.41	163.87	125.17	59.146	1.5126e-05	79.35	0.0027757	0.0030643	0.00087171	932.1	3.1208e-05	3.423e-05	983.19	373.68	3.1398e-05	3.4066e-05	477.06	197.15	183.62	70.218	3.3916e-05	92.953	143.885	-28.233	237.729	-37.245	56.164	206.767	-38.145	-32.204	213.608	191.399	-34.593	-30.761	-28.099	-22.893	82.762	-26.804	-8191	255	
5839.518	1	1	0	0	0.093508	0.060591	0.10634	0.18266	0.20535	0.25551	0.13239	0.43052	0.12593	0.068985	0.19006	0.38683	0.19222	0.22345	0.1223	0.3727	-2.8563	-2.8542	-3.0042	-3.325	-2.8187	-2.9333	-3.0396	-2.8937	-3.0563	-2.9229	-3.0917	-3.2125	-2.9146	-3.4458	-3	-2.9729	-39.575	202.608	129.690	268.663	-25.432	118.674	98.898	263.317	220.622	180.232	244.581	225.445	293.015	25.391	234.700	293.105	0.00039089	0.001054	6.385e-05	710.46	7.4798e-06	1.0528e-05	775.03	302.89	1.6712e-05	6.4893e-06	361.19	163.43	125.15	59.185	1.329e-05	80.156	0.0028053	0.0031396	0.0008628	926.88	3.1805e-05	3.485e-05	983.47	372.52	3.2583e-05	3.5272e-05	478.78	196.93	186.92	70.522	3.4098e-05	93.12	123.127	96.637	186.888	-37.169	160.397	148.440	-38.141	-32.301	191.667	51.162	-34.637	-30.640	-27.811	-22.958	163.722	-26.563	-8191	255	
5839.615	1	1	0	0	0.11086	0.029503	0.29104	0.32284	0.06	0.03656	0.15204	0.12188	0.25722	0.19329	0.13189	0.25433	0.17035	0.23407	0.14399	0.24318	-2.6729	-2.7479	-2.8187	-3.2188	-2.85	-3.2042	-3.1583	-2.8396	-3.1792	-3.1083	-2.9854	-3.2812	-2.8604	-3.325	-2.9875	-3.0312	-39.927	-17.255	168.090	273.190	299.191	166.018	205.219	39.803	-49.396	295.117	285.620	256.010	-16.718	-44.545	252.290	244.771	0.00053221	0.0017997	3.0008e-05	707.02	1.2169e-05	5.1144e-06	777.81	302.62	1.4626e-05	1.6788e-05	361.36	163.37	124.78	59.201	1.1033e-05	78.738	0.002912	0.0031501	0.00085286	917.81	3.2779e-05	3.4453e-05	978	368.42	3.296e-05	3.4177e-05	473.58	194.9	187.83	70.126	3.2796e-05	91.942	125.816	12.872	80.483	-37.069	135.022	257.540	-38.832	-32.120	194.779	80.538	-35.050	-30.814	-28.452	-22.695	63.281	-26.552	-8191	255	
5839.709	1	1	0	0	0.32378	0.063153	0.040952	0.2643	0.18876	0.17967	0.10966	0.30106	0.12087	0.06863	0.29438	0.075529	0.28987	0.1343	0.26623	0.069275	-2.8083	-3.0583	-3.0021	-3.0979	-2.9938	-3.0375	-3.0833	-2.8583	-3.0729	-3.0521	-2.9979	-3.1875	-2.9208	-3.175	-2.9917	-2.975	135.258	293.348	160.609	230.137	204.572	63.723	221.647	50.847	190.525	278.913	294.041	-6.899	-24.988	286.402	208.015	-0.184	0.00044739	0.00031491	0.00023921	704.71	9.1884e-06	9.911e-06	770.92	301.11	3.0774e-06	2.8348e-06	360.39	163.11	124.24	59.214	1.7757e-05	79.127	0.0029517	0.0030571	0.00081972	909.51	3.2998e-05	3.3142e-05	960.89	366.31	3.2858e-05	3.2641e-05	465.49	193.71	187.05	69.539	3.0989e-05	91.841	128.192	109.955	74.401	-37.042	144.971	83.615	-38.206	-31.854	115.579	-2.208	-34.462	-30.401	-28.382	-22.880	-9.020	-26.392	-8191	255	
5839.805	1	1	0	0	0.12977	0.1715	0.11599	0.14006	0.2578	0.068452	0.11844	0.17699	0.24335	0.02693	0.32917	0.15436	0.017563	0.1997	0.11038	0.36339	-2.6188	-3.05	-2.9	-3.3458	-3.0646	-2.9708	-3.2958	-2.9313	-3.1854	-2.9062	-2.9437	-3.3688	-2.8625	-3.0896	-3.1896	-2.8396	185.048	222.872	67.088	286.776	97.324	259.407	228.235	280.864	200.388	67.338	301.455	262.246	61.301	-41.501	-16.444	258.685	0.00033942	0.0015736	0.00060552	701.78	5.7445e-06	3.4159e-06	772.95	301.91	4.2988e-06	7.1408e-06	362.36	163.67	125.34	59.14	1.021e-05	79.365	0.0029328	0.0029791	0.0007847	913.6	3.3268e-05	3.2775e-05	957.49	369.14	3.322e-05	3.2537e-05	463.16	195.32	186.94	69.516	2.9961e-05	92.48	124.138	-16.686	9.170	-36.908	214.103	53.546	-38.475	-31.916	31.859	281.953	-34.877	-30.305	-28.246	-23.120	79.436	-26.473	-8191	255	
5839.901	1	1	0	0	0.25786	0.3268	0.16715	0.21169	0.18548	0.067458	0.21239	0.21231	0.17341	0.16758	0.2097	0.20213	0.13207	0.24143	0.052964	0.46055	-2.7667	-3.0104	-2.8646	-3.2146	-2.8854	-3.0979	-3.3979	-2.8937	-3.0708	-3.1521	-2.9062	-3.375	-3.175	-3.0646	-3.1125	-3.1063	88.549	132.639	231.290	276.014	-42.595	155.698	239.121	223.549	106.442	15.354	-44.186	210.647	-35.834	234.009	129.822	282.424	0.00042238	0.00098342	0.00026234	703.16	5.3825e-06	8.8013e-06	773.41	301.98	7.257e-06	7.3978e-06	362.65	164.22	125.44	59.412	1.5847e-05	79.565	0.0028922	0.0029104	0.00075279	917.46	3.2447e-05	3.1743e-05	950.19	370.58	3.2275e-05	3.139e-05	459.8	196.68	185.99	69.316	2.9375e-05	93.183	104.261	76.901	307.024	-37.245	179.488	40.984	-38.339	-32.126	63.434	112.336	-34.640	-30.464	-28.445	-22.981	108.989	-26.371	-8191	255	
#DATA ENDS
