BOXY.EXE: ISS Imagent and Oximeter Data Acquisition Program Version 0.80
Ascii Record File

#ACQ INFORMATION
2  Detector Channels 
16  External MUX Channels 
1  Auxiliary Channels 
5000  Waveform (CCF) Frequency (Hz)
1  Waveforms Skipped 
30  Waveforms Averaged 
1  Cycles Averaged 
16  Acquisitions per Waveform 
10.0806  Updata Rate (Hz) 

#FILE INFORMATION
TRUE -- External MUX Channel results are PARSED.
FALSE -- AC DC and Phase are NOT grouped.
TRUE -- Companion Program Settings File CREATED.
FALSE -- AC data not excluded
FALSE -- DC data not excluded
FALSE -- Phase data not excluded
FALSE -- Auxillary Chn. data not excluded
Tab delimiters

#CALIBRATION STATE
TRUE -- Waveform Calibration Values APPLIED.


#AUX CALIBRATION VALUES
Val Type	aux-1	

Term	1.0000e+00	
Factor	0.0000e+00	


#WF CALIBRATION VALUES
A = Detector Channel
Val Type	A-AC1	A-AC2	A-AC3	A-AC4	A-AC5	A-AC6	A-AC7	A-AC8	A-AC9	A-AC10	A-AC11	A-AC12	A-AC13	A-AC14	A-AC15	A-AC16	A-DC1	A-DC2	A-DC3	A-DC4	A-DC5	A-DC6	A-DC7	A-DC8	A-DC9	A-DC10	A-DC11	A-DC12	A-DC13	A-DC14	A-DC15	A-DC16	A-Ph1	A-Ph2	A-Ph3	A-Ph4	A-Ph5	A-Ph6	A-Ph7	A-Ph8	A-Ph9	A-Ph10	A-Ph11	A-Ph12	A-Ph13	A-Ph14	A-Ph15	A-Ph16	

Term	0.00000e+00	0.00000e+00	0.00000e+00	0.00000e+00	0.00000e+00	0.00000e+00	0.00000e+00	0.00000e+00	0.00000e+00	0.00000e+00	0.00000e+00	0.00000e+00	0.00000e+00	0.00000e+00	0.00000e+00	0.00000e+00	0.00000e+00	0.00000e+00	0.00000e+00	0.00000e+00	0.00000e+00	0.00000e+00	0.00000e+00	0.00000e+00	0.00000e+00	0.00000e+00	0.00000e+00	0.00000e+00	0.00000e+00	0.00000e+00	0.00000e+00	0.00000e+00	0.00000e+00	0.00000e+00	0.00000e+00	0.00000e+00	0.00000e+00	0.00000e+00	0.00000e+00	0.00000e+00	0.00000e+00	0.00000e+00	0.00000e+00	0.00000e+00	0.00000e+00	0.00000e+00	0.00000e+00	0.00000e+00	
Factor	1.00000e+00	1.00000e+00	1.00000e+00	1.00000e+00	1.00000e+00	1.00000e+00	1.00000e+00	1.00000e+00	1.00000e+00	1.00000e+00	1.00000e+00	1.00000e+00	1.00000e+00	1.00000e+00	1.00000e+00	1.00000e+00	1.00000e+00	1.00000e+00	1.00000e+00	1.00000e+00	1.00000e+00	1.00000e+00	1.00000e+00	1.00000e+00	1.00000e+00	1.00000e+00	1.00000e+00	1.00000e+00	1.00000e+00	1.00000e+00	1.00000e+00	1.00000e+00	X	X	X	X	X	X	X	X	X	X	X	X	X	X	X	X	

B = Detector Channel
Val Type	B-AC1	B-AC2	B-AC3	B-AC4	B-AC5	B-AC6	B-AC7	B-AC8	B-AC9	B-AC10	B-AC11	B-AC12	B-AC13	B-AC14	B-AC15	B-AC16	B-DC1	B-DC2	B-DC3	B-DC4	B-DC5	B-DC6	B-DC7	B-DC8	B-DC9	B-DC10	B-DC11	B-DC12	B-DC13	B-DC14	B-DC15	B-DC16	B-Ph1	B-Ph2	B-Ph3	B-Ph4	B-Ph5	B-Ph6	B-Ph7	B-Ph8	B-Ph9	B-Ph10	B-Ph11	B-Ph12	B-Ph13	B-Ph14	B-Ph15	B-Ph16	

Term	0.00000e+00	0.00000e+00	0.00000e+00	0.00000e+00	0.00000e+00	0.00000e+00	0.00000e+00	0.00000e+00	0.00000e+00	0.00000e+00	0.00000e+00	0.00000e+00	0.00000e+00	0.00000e+00	0.00000e+00	0.00000e+00	0.00000e+00	0.00000e+00	0.00000e+00	0.00000e+00	0.00000e+00	0.00000e+00	0.00000e+00	0.00000e+00	0.00000e+00	0.00000e+00	0.00000e+00	0.00000e+00	0.00000e+00	0.00000e+00	0.00000e+00	0.00000e+00	-1.83054e+02	-1.28695e+02	-1.24060e+02	-1.82730e+02	-8.03315e+01	-6.64456e+01	-1.55606e+02	-1.62015e+02	-9.22986e+01	-6.89241e+01	-1.72279e+02	-1.70080e+02	-1.79579e+02	-1.77215e+02	-7.89233e+01	-1.49329e+02	
Factor	2.99331e-05	1.55479e-04	4.19442e-05	1.61934e-01	1.57654e-06	1.69154e-06	1.52548e-01	4.60961e-02	1.71663e-06	1.67939e-06	8.77263e-02	2.69812e-02	2.54748e-02	8.56556e-03	1.66169e-06	1.23162e-02	1.73125e-05	3.46895e-05	9.63778e-06	8.07384e-02	3.25976e-07	3.93007e-07	7.18427e-02	2.31086e-02	3.21270e-07	3.94494e-07	4.28785e-02	1.32135e-02	1.29370e-02	4.33807e-03	3.46650e-07	6.07619e-03	X	X	X	X	X	X	X	X	X	X	X	X	X	X	X	X	



#DISTANCE SETTINGS
A = Detector Channel
A-1	A-2	A-3	A-4	A-5	A-6	A-7	A-8	A-9	A-10	A-11	A-12	A-13	A-14	A-15	A-16	

2.5000e+00	3.0000e+00	2.5000e+00	3.0000e+00	2.0000e+00	3.0000e+00	1.5000e+00	3.0000e+00	3.0000e+00	3.0000e+00	3.0000e+00	3.0000e+00	3.0000e+00	3.0000e+00	1.5000e+00	3.0000e+00	

B = Detector Channel
B-1	B-2	B-3	B-4	B-5	B-6	B-7	B-8	B-9	B-10	B-11	B-12	B-13	B-14	B-15	B-16	

1.0000e+01	1.0000e+01	1.0000e+01	1.4400e+00	1.0000e+01	1.0000e+01	1.5100e+00	1.9400e+00	1.0000e+01	1.0000e+01	1.9900e+00	2.4900e+00	2.4100e+00	2.9000e+00	1.0000e+01	2.9800e+00	




#DATA BEGINS
time	group	step	mark	flag	A-AC1	A-AC2	A-AC3	A-AC4	A-AC5	A-AC6	A-AC7	A-AC8	A-AC9	A-AC10	A-AC11	A-AC12	A-AC13	A-AC14	A-AC15	A-AC16	A-DC1	A-DC2	A-DC3	A-DC4	A-DC5	A-DC6	A-DC7	A-DC8	A-DC9	A-DC10	A-DC11	A-DC12	A-DC13	A-DC14	A-DC15	A-DC16	A-Ph1	A-Ph2	A-Ph3	A-Ph4	A-Ph5	A-Ph6	A-Ph7	A-Ph8	A-Ph9	A-Ph10	A-Ph11	A-Ph12	A-Ph13	A-Ph14	A-Ph15	A-Ph16	B-AC1	B-AC2	B-AC3	B-AC4	B-AC5	B-AC6	B-AC7	B-AC8	B-AC9	B-AC10	B-AC11	B-AC12	B-AC13	B-AC14	B-AC15	B-AC16	B-DC1	B-DC2	B-DC3	B-DC4	B-DC5	B-DC6	B-DC7	B-DC8	B-DC9	B-DC10	B-DC11	B-DC12	B-DC13	B-DC14	B-DC15	B-DC16	B-Ph1	B-Ph2	B-Ph3	B-Ph4	B-Ph5	B-Ph6	B-Ph7	B-Ph8	B-Ph9	B-Ph10	B-Ph11	B-Ph12	B-Ph13	B-Ph14	B-Ph15	B-Ph16	aux-1	digaux	

41097.738	1	1	0	131840	0.40498	0.037809	0.04172	0.44482	0.38444	0.1727	0.32884	0.063622	0.060607	0.082756	0.069116	0.26293	0.13	0.086471	0.09136	0.1876	-2.925	-3.2542	-2.8812	-3.3667	-2.8937	-3.2333	-3.3812	-3.0604	-3.3375	-2.95	-3.1479	-3.3375	-2.9208	-3.15	-3.1542	-2.9729	207.016	174.725	111.776	393.633	218.595	205.704	397.357	359.375	215.440	360.078	295.323	194.947	96.256	332.580	331.919	455.824	0.00058308	0.00063779	1.1329e-05	1712	3.1321e-06	4.1491e-06	1622.1	313.81	6.5805e-06	5.2745e-06	365.94	106.75	83.55	23.726	2.5228e-06	33.352	0.004749	0.0089433	0.0024089	1655.3	8.5754e-05	0.00010027	1678.6	305.64	8.3059e-05	9.9173e-05	363.23	106.91	83.945	24.162	8.6064e-05	34.271	127.990	172.554	96.983	106.888	258.459	319.246	106.943	114.123	238.025	434.851	114.041	120.479	120.444	128.541	176.648	127.417	-8191	255	
41097.836	1	1	0	131072	0.12631	0.19382	0.17389	0.26364	0.17021	0.026189	0.42285	0.03167	0.23688	0.29529	0.2724	0.17116	0.092649	0.19606	0.14751	0.21589	-2.9396	-3.0062	-2.9354	-3.6125	-3.0625	-3.3563	-3.4437	-3.0896	-3.0812	-3.0438	-3.0854	-3.3771	-3.025	-3.0625	-3.2229	-3.0292	321.047	380.637	171.694	411.711	155.602	267.713	405.057	438.703	134.989	282.604	358.898	422.659	328.583	389.939	149.601	382.153	0.00059132	0.00055363	0.0001082	1712.7	3.5976e-06	9.9739e-06	1618	312.02	7.1738e-06	3.7418e-06	365.98	107.25	84.085	23.528	4.3106e-06	33.241	0.0046791	0.0087504	0.0024148	1655	8.4592e-05	9.9193e-05	1678.7	305.67	8.4568e-05	9.6879e-05	364.05	106.84	84.152	24.088	8.7538e-05	34.274	116.741	199.655	146.088	106.968	181.800	288.111	106.937	113.986	190.540	252.348	113.695	120.545	120.797	128.211	233.834	127.601	-8191	255	
41097.934	1	1	0	131072	0.17397	0.077571	0.051589	0.41483	0.26575	0.1132	0.21719	0.34569	0.23046	0.15344	0.18622	0.27403	0.24514	0.060634	0.15253	0.14366	-2.8688	-3.0792	-3.0271	-3.3688	-2.7646	-3.0833	-3.4875	-3.0354	-3.2854	-3.0938	-3.0542	-3.3229	-3.0583	-2.9458	-3.2146	-2.9667	346.901	328.886	145.923	409.672	233.516	415.197	407.977	170.360	320.584	221.595	135.118	368.747	438.098	439.793	419.624	425.296	0.00059503	0.0013132	0.00017325	1712.1	7.341e-06	6.0682e-06	1618.6	311.66	5.6115e-06	1.8589e-06	365.91	106.97	83.904	23.553	7.7975e-06	33.133	0.0048089	0.0086982	0.0024626	1657.6	8.6564e-05	9.5777e-05	1680	305.33	8.4047e-05	9.7341e-05	363.92	106.81	84.015	24.095	9.0245e-05	34.158	119.885	232.054	234.123	106.935	182.518	248.430	107.087	114.067	172.459	444.546	113.791	120.291	120.715	128.182	273.936	127.748	-8191	255	
41098.027	1	1	0	131072	0.02225	0.14643	0.11232	0.21743	0.11016	0.1791	0.24983	0.24323	0.1387	0.085512	0.20026	0.14225	0.10451	0.19178	0.14587	0.38288	-2.65	-3.1271	-2.9333	-3.3833	-2.9417	-3.125	-3.5417	-3.0104	-3.2521	-3.1063	-2.8312	-3.3563	-3.1229	-2.8771	-3.4917	-3.1542	313.822	106.548	188.374	434.328	446.486	392.152	391.063	410.102	235.886	372.082	421.472	445.079	361.969	438.702	420.524	100.132	0.00068499	0.00020439	8.8284e-06	1715.4	8.9726e-06	7.8852e-06	1619.5	312.7	4.0183e-06	6.4897e-06	367.07	107	84.195	23.549	7.3554e-06	33.508	0.0047016	0.0086628	0.002509	1656.7	8.4623e-05	9.7356e-05	1678.5	305.66	8.3236e-05	9.8342e-05	364.95	107.15	84.176	24.134	8.959e-05	34.367	116.691	222.658	114.755	107.102	226.006	294.342	107.092	114.164	396.026	313.795	113.929	120.635	120.589	127.823	260.872	127.629	-8191	255	
41098.125	1	1	0	131072	0.16039	0.13999	0.18614	0.14829	0.10722	0.20281	0.12948	0.22804	0.14667	0.084351	0.025135	0.29814	0.32337	0.040271	0.33963	0.076234	-2.7562	-3.0896	-2.7708	-3.3667	-3.025	-3.0854	-3.3875	-3.0792	-3.0208	-3.3312	-3.0938	-3.2708	-3.1604	-2.8542	-3.2354	-2.975	275.306	227.253	106.543	428.616	154.384	209.211	445.306	425.958	251.791	170.855	322.854	301.063	130.316	145.055	228.803	450.486	0.00062279	0.0013643	0.00014192	1709.7	1.5512e-05	1.8099e-06	1619.2	312.51	3.4905e-06	7.6348e-06	368.47	107.21	84.231	23.622	8.0815e-06	32.97	0.0045987	0.008801	0.0025161	1659.2	8.2935e-05	9.8899e-05	1679.9	305.77	7.9819e-05	9.9429e-05	365.57	106.68	83.981	24.139	8.8376e-05	34.089	119.805	230.513	186.631	106.895	241.527	174.534	106.814	114.292	174.021	273.118	113.716	120.665	120.810	128.203	195.802	127.463	-8191	255	
41098.219	1	1	0	131072	0.21289	0.090879	0.14376	0.37531	0.27672	0.21904	0.36321	0.20711	0.082573	0.16523	0.21858	0.18648	0.034693	0.073894	0.24342	0.11228	-2.5667	-3.2396	-2.7729	-3.3521	-3.0271	-3.0125	-3.4042	-3.0417	-2.9979	-3.3229	-3.0042	-3.0083	-3.1375	-2.8458	-3.4188	-3.0667	208.496	298.440	453.302	411.303	153.138	224.871	386.460	356.099	98.128	247.327	115.715	417.732	192.220	119.789	217.722	408.478	0.00057028	0.00091595	0.00018412	1706.8	3.3403e-06	5.4983e-06	1620.7	312.86	2.13e-06	4.0474e-06	366.78	107.57	83.31	23.536	1.1744e-05	33.071	0.0044953	0.0088632	0.0024889	1655	8.1857e-05	9.962e-05	1680.1	305.48	8.051e-05	0.00010032	365.09	106.86	83.766	24.136	9.0556e-05	34.09	130.884	219.824	206.541	106.998	261.749	160.211	106.901	114.165	232.562	261.094	113.998	120.393	120.807	128.186	226.333	127.674	-8191	255	
41098.340	1	1	0	131072	0.20827	0.20303	0.15549	0.22398	0.091616	0.16332	0.38094	0.33237	0.084169	0.065243	0.16522	0.1316	0.040122	0.13426	0.15616	0.12837	-2.5917	-3.15	-2.9021	-3.2625	-3.1104	-2.7771	-3.625	-3.2375	-2.925	-3.3729	-3.025	-3.2	-3.3083	-2.9437	-3.3271	-2.9979	206.437	146.409	440.992	384.381	418.121	120.573	383.468	436.373	149.693	188.872	342.082	435.419	269.964	229.035	182.811	452.232	0.00051061	0.00081749	0.00012298	1709.3	2.993e-06	1.572e-06	1619	311.92	6.4178e-06	4.0559e-06	365.71	106.71	84.055	23.533	2.0262e-06	32.88	0.0045206	0.0088847	0.002505	1654.3	8.0909e-05	0.00010147	1680.4	305.33	8.0917e-05	0.00010227	364.17	106.45	83.94	24.133	8.9678e-05	34	111.876	201.361	205.208	107.019	156.259	443.605	107.053	114.116	231.579	159.819	113.690	120.439	120.577	127.908	178.814	127.433	-8191	255	
41098.434	1	1	0	131072	0.14713	0.21003	0.070833	0.24092	0.18102	0.23385	0.35165	0.163	0.040712	0.10568	0.16343	0.12173	0.061658	0.33577	0.26595	0.31141	-2.6396	-3.275	-3.0104	-3.4083	-3.1937	-2.9646	-3.3625	-3.3542	-2.8688	-3.2667	-3.0167	-3.0354	-3.225	-2.9208	-3.3042	-3.2292	270.262	159.318	373.724	416.360	350.224	230.626	394.900	446.134	331.266	192.782	364.064	233.846	99.746	347.709	411.118	209.260	0.00060487	0.00081247	8.3939e-05	1715.7	4.6278e-06	2.6173e-06	1618.7	312.55	7.719e-06	4.6833e-06	365.6	107.07	83.847	23.478	1.0769e-05	32.855	0.0045491	0.0090291	0.0025057	1655.5	8.2534e-05	0.00010236	1678.6	305.05	8.1046e-05	0.00010222	363.87	106.46	83.87	24.1	8.7804e-05	33.995	125.310	197.355	182.787	107.043	228.525	231.222	107.064	114.166	216.244	268.540	113.998	120.239	120.460	128.102	322.245	127.650	-8191	255	
41098.531	1	1	0	131072	0.15132	0.31329	0.081701	0.16078	0.25042	0.11234	0.27259	0.27337	0.20255	0.33512	0.24554	0.13191	0.044149	0.1711	0.15776	0.30748	-2.4208	-3.0667	-3.1042	-3.1521	-3.2292	-2.9896	-3.3271	-3.2812	-2.8771	-3.2958	-3.0604	-3.1604	-3.2792	-3.2771	-3.1562	-3.1	152.367	232.452	418.254	417.877	429.558	138.952	344.640	413.237	208.792	385.423	114.706	183.275	175.806	144.210	316.526	446.487	0.00062806	0.0008895	0.00016275	1709.5	7.4624e-06	2.9645e-06	1621.9	312.27	6.6021e-06	8.8665e-06	367.03	106.93	83.788	23.414	1.1727e-05	33.437	0.0046	0.0090007	0.0024666	1651.2	8.2302e-05	0.00010016	1678.5	304.92	8.1696e-05	0.00010136	364.48	106.67	83.931	24.12	8.6926e-05	34.15	117.967	155.650	363.050	106.976	184.901	338.084	106.968	114.198	182.541	219.694	113.857	120.378	120.547	128.182	280.055	127.425	-8191	255	
41098.629	1	1	0	131072	0.11062	0.14568	0.19256	0.26187	0.074097	0.19991	0.30103	0.17636	0.1912	0.22518	0.19545	0.38587	0.14757	0.072178	0.071188	0.24496	-2.45	-3.2583	-3.1042	-3.3688	-3.15	-2.8937	-3.3333	-3.2375	-2.8458	-3.175	-3.2188	-3.1792	-3.2229	-3.1021	-3.0792	-3.2271	234.875	301.994	155.589	398.276	362.256	267.695	374.246	420.445	311.916	357.230	398.228	394.368	342.352	145.313	167.734	444.645	0.00065405	0.00020374	0.00016881	1717.8	6.0785e-06	3.2433e-06	1623.6	313.07	3.5923e-06	4.399e-06	366.69	107.98	83.072	23.721	1.1162e-05	33.098	0.004752	0.009062	0.0024078	1657	8.445e-05	0.00010112	1676.6	305.21	8.3391e-05	0.00010219	364.1	106.77	83.648	24.107	8.5712e-05	34.094	125.987	274.515	113.103	107.058	194.415	434.756	107.078	113.958	133.528	315.309	114.055	120.377	120.480	128.208	263.802	127.640	-8191	255	
41098.723	1	1	0	131072	0.27975	0.065319	0.087626	0.17344	0.24832	0.085577	0.32469	0.25108	0.25622	0.10133	0.23563	0.20593	0.096321	0.33944	0.07371	0.032891	-2.5187	-3.1875	-2.9813	-3.1292	-3.2167	-2.9104	-3.1125	-3.1917	-2.8833	-3.2958	-3.1437	-2.9375	-3.2833	-3.0229	-3.0458	-3.1875	244.135	226.473	260.184	428.242	247.856	326.457	436.465	417.707	385.750	173.422	408.407	392.163	406.025	130.647	228.107	333.336	0.00064057	0.00045632	7.186e-05	1714.7	7.7254e-06	3.1192e-06	1621.4	312.2	4.5291e-06	1.3357e-06	367.36	106.67	83.968	23.706	6.6513e-06	33.285	0.0047898	0.0089955	0.0023959	1655.5	8.6716e-05	9.9473e-05	1677.5	305.45	8.4447e-05	0.00010079	363.88	106.58	84.035	24.172	8.6013e-05	34.128	127.200	195.803	325.955	106.911	224.704	444.228	107.069	114.288	288.498	151.727	113.742	120.466	120.671	128.298	185.462	127.361	-8191	255	
41098.820	1	1	0	131072	0.37287	0.14303	0.23916	0.3304	0.19109	0.01739	0.13406	0.058173	0.042956	0.27504	0.30911	0.28765	0.20888	0.21724	0.2281	0.22916	-2.3708	-3.0146	-2.9354	-3.0375	-3.1604	-2.925	-3.4229	-3.2562	-3.0042	-2.9729	-3.0062	-2.9583	-3.1604	-2.9354	-2.8417	-3.2271	290.778	405.965	97.822	417.508	338.057	281.508	393.254	235.436	387.820	317.928	104.416	368.032	337.629	359.704	404.714	125.972	0.00047228	0.00012933	0.00013168	1711.4	2.2292e-06	3.1863e-06	1619.7	312.3	9.4563e-06	4.794e-06	364.89	107.29	83.916	23.55	5.4653e-06	33.192	0.0047749	0.0086505	0.002361	1655.9	8.4865e-05	9.7124e-05	1678.8	305.4	8.3924e-05	9.8025e-05	363.14	106.86	84.075	24.096	8.5176e-05	34.122	120.081	231.163	217.013	107.091	216.095	267.915	107.036	114.001	228.745	248.859	114.035	120.379	120.656	127.982	218.596	127.350	-8191	255	
41098.941	1	1	0	131072	0.22687	0.10676	0.077473	0.21379	0.15138	0.1429	0.081014	0.28898	0.16368	0.067333	0.15589	0.21185	0.24585	0.24887	0.13309	0.099374	-2.6604	-3.0854	-3.1417	-3.1667	-3.2938	-2.9146	-3.0812	-3.375	-2.8979	-3.1208	-3.2687	-3.0333	-3.2146	-2.9979	-3.0021	-3.3312	178.418	407.741	276.143	122.466	156.163	399.445	160.775	425.828	377.354	329.363	337.118	120.942	364.485	155.989	232.020	438.860	0.00061041	0.00068878	0.00010744	1712.8	9.5107e-07	3.5878e-06	1618.9	312.86	8.6731e-06	7.9149e-06	365.8	106.54	84.017	23.52	4.7905e-06	33.085	0.0047809	0.0086933	0.0023821	1654.9	8.5554e-05	9.8095e-05	1679.4	305.41	8.3784e-05	9.7309e-05	363.92	106.76	84.048	24.144	8.8286e-05	34.155	134.311	337.264	296.611	107.160	316.709	383.901	106.992	114.200	236.117	165.397	113.890	120.472	120.549	127.903	223.252	127.733	-8191	255	
41099.035	1	1	0	131072	0.16517	0.059109	0.022478	0.3633	0.15599	0.19722	0.28674	0.16249	0.13277	0.14059	0.27787	0.10181	0.10241	0.21115	0.14578	0.1056	-2.6021	-3.1521	-3.0458	-3.0312	-3.125	-3.1875	-3.0125	-3.2229	-2.9	-2.9917	-3.1542	-3.0438	-3.1625	-3.1771	-2.7354	-3.2646	392.261	180.994	360.657	403.529	394.874	408.178	354.812	374.528	229.845	135.584	318.420	182.930	294.190	356.593	199.008	135.231	0.00065253	0.0003988	0.00021042	1711.2	2.4289e-06	2.9097e-06	1622.9	313.03	6.4343e-06	2.7633e-06	367.14	107.02	84.123	23.681	7.2239e-06	33.187	0.0047039	0.0086864	0.0024217	1655	8.318e-05	9.6454e-05	1678.6	305.72	8.1125e-05	9.6829e-05	363.33	106.74	84.007	24.079	8.8245e-05	34.11	121.694	167.080	231.224	106.947	243.198	258.771	106.970	114.128	271.818	189.315	113.920	120.324	120.936	127.978	215.201	127.472	-8191	255	
41099.133	1	1	0	131072	0.21512	0.076027	0.21414	0.13754	0.13871	0.18544	0.38963	0.19727	0.24785	0.30293	0.059126	0.20552	0.14931	0.29258	0.18945	0.17207	-2.6167	-2.8667	-3.2333	-3.2687	-3.1917	-3.2708	-3.0521	-3.3271	-2.925	-2.7771	-3.2938	-2.95	-2.9958	-3.3458	-2.9688	-3.1917	396.742	176.275	116.846	444.750	212.358	346.366	394.723	350.844	317.449	443.379	235.258	435.813	446.396	96.408	103.770	417.275	0.00058138	0.00034898	0.00019796	1705.9	5.6917e-06	1.4554e-05	1619.2	313.16	1.4444e-06	1.0241e-05	364.77	106.78	83.571	23.537	3.6156e-06	33.222	0.0046232	0.0085467	0.0025058	1653.9	8.2761e-05	9.8671e-05	1679.4	306.06	8.1754e-05	0.00010022	363.86	106.77	84.065	24.15	9.2596e-05	34.19	113.795	191.748	191.604	106.901	197.690	188.524	106.911	114.196	106.360	236.369	114.110	120.482	120.946	127.822	175.807	127.461	-8191	255	
41099.230	1	1	0	131072	0.14547	0.088044	0.22124	0.12654	0.17632	0.099007	0.22341	0.17881	0.11714	0.15505	0.11882	0.16529	0.068095	0.10331	0.16491	0.10811	-2.4688	-2.8021	-3.075	-3.1167	-3.0125	-3.2479	-3.1792	-3.4167	-2.8375	-3.0479	-3.25	-3.1042	-3.0229	-3.2313	-3.0042	-3.1917	300.810	430.356	182.172	373.816	303.717	140.564	335.085	371.135	125.012	383.067	139.639	254.508	308.540	170.365	262.063	118.222	0.00051968	0.00099022	0.00032663	1714	2.4641e-06	1.4443e-05	1619.7	312.21	4.1998e-06	6.6089e-06	366.43	107.86	84.562	23.708	4.2042e-06	33.389	0.0046393	0.0090502	0.0025481	1658.4	8.2982e-05	0.00010061	1679.2	305.29	8.1432e-05	0.00010258	364.1	106.99	84.17	24.205	9.2441e-05	34.225	125.526	183.879	191.903	107.142	317.830	244.560	106.767	114.221	436.268	236.635	113.875	120.687	120.955	128.303	231.456	127.428	-8191	255	
41099.301	1	1	0	131072	0.22558	0.15011	0.23168	0.33582	0.15327	0.29844	0.27922	0.10184	0.038592	0.21591	0.12426	0.22455	0.14698	0.15063	0.14756	0.13258	-2.7188	-2.7188	-3.2729	-3.2	-3.0271	-3.2229	-3.1042	-3.1833	-3.0333	-2.8229	-3.3917	-3.0458	-3	-3.3	-2.9583	-3.0938	412.884	125.917	416.663	451.712	178.641	297.241	393.224	449.509	271.466	142.907	328.007	316.140	169.296	144.787	344.618	108.127	0.00055686	0.00073181	0.00014336	1713	5.8294e-06	1.32e-05	1620.2	310.49	8.3412e-06	4.4321e-06	364.89	107.33	83.523	23.493	5.1455e-06	33.004	0.0045364	0.0090506	0.0025393	1657.2	8.1292e-05	0.00010216	1680.7	305.04	8.1052e-05	0.00010247	363.22	106.7	83.778	24.191	8.9727e-05	34.072	122.444	194.560	131.817	107.054	131.395	183.863	106.990	114.069	223.369	153.546	114.122	120.571	120.980	128.017	215.214	127.506	-8191	255	
41099.422	1	1	0	131072	0.083059	0.20963	0.10502	0.33824	0.078111	0.16901	0.14983	0.21767	0.11451	0.043118	0.25082	0.30138	0.15015	0.19825	0.17763	0.079251	-2.5542	-2.8292	-3.0104	-3.1646	-2.8229	-3.2729	-3.0646	-3.1729	-3.2729	-2.9646	-3.2042	-3.1667	-2.9771	-3.1604	-2.9646	-3	155.321	362.208	419.567	404.292	450.079	283.724	122.571	99.826	161.025	215.119	345.071	397.946	284.225	430.404	413.751	440.014	0.00068353	0.00047186	7.522e-05	1712.5	1.1599e-05	4.9439e-06	1619.5	311.58	4.7814e-06	5.7224e-06	364.6	106.91	83.66	23.666	1.2289e-05	33.378	0.00452	0.0091542	0.0025569	1656.4	8.2089e-05	0.00010323	1679	304.97	8.1183e-05	0.00010335	363.89	106.67	84.017	24.163	9.0021e-05	34.193	132.350	189.752	173.639	106.949	199.652	264.979	106.931	114.373	127.718	275.185	113.923	120.691	120.387	127.983	240.822	127.471	-8191	255	
41099.516	1	1	0	131072	0.13625	0.2284	0.080304	0.45644	0.088334	0.14346	0.34338	0.26781	0.1414	0.08684	0.097632	0.29521	0.078244	0.10956	0.054276	0.16025	-2.9292	-2.9417	-3.1125	-3.3438	-2.875	-3.3292	-3.0312	-3.1375	-3.1917	-2.9167	-3.2	-3.3458	-3.1583	-3.1771	-3.15	-3.0687	357.894	357.564	222.878	400.030	271.244	167.783	415.495	100.261	389.352	292.209	209.987	379.197	355.412	423.874	118.275	432.963	0.00055922	0.00040469	9.9812e-05	1710.5	1.0326e-05	2.0273e-06	1620.8	313.52	1.1858e-05	5.0748e-06	364.36	107.52	84.183	23.683	6.6367e-06	33.141	0.0046414	0.0091084	0.0024991	1654	8.4978e-05	0.00010186	1679.7	305.44	8.296e-05	0.00010175	363.07	106.79	84.147	24.194	8.7953e-05	34.181	111.532	263.655	132.717	106.998	250.606	224.684	107.004	114.219	208.392	349.162	113.978	120.539	120.833	128.122	454.673	127.855	-8191	255	
41099.613	1	1	0	131072	0.35155	0.13892	0.13258	0.20712	0.20631	0.19796	0.063361	0.26093	0.24179	0.10734	0.11823	0.10703	0.10009	0.089829	0.26115	0.224	-2.9417	-3.1292	-3.1104	-3.4958	-2.8812	-3.1896	-3.2438	-3.0563	-3.2896	-2.9104	-3.0917	-3.1375	-2.8458	-3.3542	-3.0042	-2.9125	273.242	424.819	381.629	368.038	382.690	194.136	425.070	416.460	328.471	148.326	173.378	308.096	394.618	391.569	318.393	412.851	0.00056962	0.0004248	0.0001035	1716.7	8.3219e-06	8.55e-06	1619.1	312.21	5.2485e-06	4.2602e-06	367.62	107.68	84.151	23.721	8.9605e-06	33.223	0.0047158	0.0090548	0.0024617	1658.9	8.5476e-05	0.00010165	1681.3	305.61	8.4905e-05	0.00010109	363.6	106.94	84.164	24.176	8.66e-05	34.11	106.214	163.599	197.301	107.037	200.729	219.773	106.819	113.912	284.463	220.364	114.130	120.437	120.684	128.207	308.554	127.217	-8191	255	
41099.707	1	1	0	131072	0.31582	0.1046	0.079122	0.28031	0.10156	0.20688	0.32442	0.23283	0.14415	0.13482	0.22732	0.12914	0.085991	0.26588	0.053792	0.13607	-2.7625	-2.9354	-2.8875	-3.4	-2.8875	-3.1604	-3.4313	-3.0229	-3.1917	-3.0333	-3.0021	-3.3937	-2.9813	-3.15	-3.0458	-3.0563	291.303	285.416	173.650	449.169	207.828	325.102	402.752	411.089	100.290	403.963	387.345	441.367	210.504	449.904	159.831	311.948	0.00062588	0.0007209	0.00037618	1715.7	9.522e-06	6.0982e-06	1616.8	313.08	8.168e-06	7.0676e-06	365.98	107.41	83.635	23.464	2.691e-06	33.16	0.0047756	0.0090673	0.002395	1658.2	8.5286e-05	0.00010335	1679.4	305.58	8.5082e-05	0.00010103	362.62	106.8	84.019	24.16	8.5781e-05	34.159	115.276	163.697	173.793	107.034	180.542	230.559	106.960	114.255	237.334	236.609	114.077	120.446	120.700	128.250	181.084	127.900	-8191	255	
41099.828	1	1	0	131072	0.15867	0.069582	0.063526	0.27193	0.14545	0.13146	0.31492	0.14883	0.39781	0.25527	0.24354	0.1378	0.13965	0.20643	0.20001	0.063654	-2.6688	-2.9938	-2.9396	-3.4417	-2.8104	-3.1021	-3.4813	-3.0542	-3.3479	-3.0187	-3.0292	-3.3563	-3.1208	-3.1083	-3.1188	-3.0333	119.178	446.297	403.019	400.005	411.018	325.491	372.939	415.305	109.467	385.559	105.605	104.351	268.056	422.995	384.814	447.057	0.00062241	0.0001931	0.00010736	1716.2	9.9914e-06	4.6298e-06	1619.6	313.54	1.045e-05	1.2634e-05	365.92	106.61	84.146	23.653	1.1351e-06	33.16	0.0047841	0.0090205	0.0023923	1659.3	8.7054e-05	0.00010257	1678.9	305.95	8.6017e-05	0.00010222	363.02	106.71	84.233	24.229	8.6927e-05	34.251	116.529	219.667	281.424	106.998	215.606	214.176	106.949	114.236	248.427	256.519	114.028	120.520	120.896	128.175	128.939	127.551	-8191	255	
41099.898	1	1	0	131072	0.17302	0.2632	0.23821	0.30445	0.039116	0.19113	0.12379	0.25748	0.13696	0.29341	0.40915	0.21344	0.28145	0.28966	0.17448	0.04645	-2.7333	-2.8708	-2.875	-3.3187	-2.9271	-3.0917	-3.5208	-3.1042	-3.2792	-3.1646	-3.0979	-3.4229	-3.1271	-3.0375	-3.2667	-3.0187	252.733	202.822	285.738	404.836	312.070	258.221	397.566	445.814	315.013	273.034	124.379	396.965	404.997	124.073	310.855	216.604	0.00058537	0.00092119	0.00028387	1717.2	1.1477e-05	3.1071e-06	1619.3	312.96	7.439e-06	3.5579e-06	366.43	107.57	84.515	23.762	1.092e-05	33.244	0.0048528	0.0089005	0.0024255	1659	8.6619e-05	0.00010059	1680.4	305.93	8.5076e-05	9.9542e-05	363.63	107.21	84.306	24.171	8.8069e-05	34.235	132.369	258.263	138.167	107.225	251.966	346.836	106.750	114.148	248.608	369.023	113.796	120.605	120.518	127.942	215.284	127.822	-8191	255	
41100.020	1	1	0	131072	0.10486	0.312	0.07831	0.18384	0.1879	0.13612	0.35658	0.18551	0.1191	0.046427	0.068654	0.13334	0.13458	0.095636	0.034871	0.028706	-2.7687	-3.0771	-3.0062	-3.4417	-3.0312	-2.9104	-3.5938	-2.9729	-3.1375	-3.1458	-3.1312	-3.1833	-2.8896	-2.9938	-3.175	-2.7875	102.980	337.856	284.064	98.331	200.602	288.812	394.060	99.964	303.808	425.272	433.175	106.948	357.932	393.925	178.907	368.352	0.00058507	0.00053198	0.00020948	1712.1	2.7033e-06	2.7326e-06	1616.9	312.31	6.1602e-06	3.4353e-06	365.94	107.08	84.318	23.712	5.619e-06	33.242	0.0047976	0.0086083	0.002452	1658	8.4655e-05	9.8657e-05	1681.3	305.83	8.3655e-05	9.8604e-05	363.26	106.89	84.107	24.183	9.0192e-05	34.174	135.222	280.719	146.969	106.815	221.628	304.045	106.955	114.150	251.271	455.793	113.934	120.591	120.668	128.036	218.307	127.767	-8191	255	
41100.117	1	1	0	131072	0.21766	0.056341	0.086444	0.23179	0.15545	0.19074	0.31409	0.22894	0.16196	0.079988	0.36673	0.10246	0.068246	0.037969	0.19878	0.1823	-2.8854	-3.1271	-2.9375	-3.4292	-2.9042	-3.0625	-3.425	-2.9917	-3.0583	-3.1896	-3.0208	-3.3312	-2.9479	-2.9188	-3.1167	-2.7979	274.408	304.307	280.801	385.132	145.687	115.740	392.180	397.267	371.242	147.727	400.877	141.830	358.136	358.222	218.456	141.368	0.00056776	0.00061313	0.0001754	1720.5	6.9285e-06	3.9664e-06	1618.5	313.24	7.4464e-06	5.0074e-06	365.1	106.87	84.344	23.608	1.3006e-05	33.152	0.0046603	0.0089	0.002543	1662	8.424e-05	9.875e-05	1681.7	305.81	8.206e-05	0.00010001	363.64	107.09	84.132	24.158	9.2573e-05	34.278	117.481	181.551	169.608	106.978	220.635	371.739	107.189	113.920	247.118	257.600	113.644	120.452	120.686	127.981	218.531	127.487	-8191	255	
41100.215	1	1	0	0	0.13286	0.23037	0.12892	0.21072	0.21724	0.19613	0.21298	0.1771	0.080338	0.14357	0.11338	0.17032	0.17407	0.21992	0.048745	0.24413	-2.7438	-2.9958	-2.775	-3.3688	-3.025	-2.9062	-3.5417	-2.9917	-2.9062	-3.1646	-2.9938	-3.2375	-3.0479	-2.8167	-3.0625	-2.7938	306.404	363.762	303.228	97.930	264.677	307.223	434.647	361.123	437.057	232.371	252.154	405.750	414.552	387.533	389.934	110.368	0.00055399	0.00042201	0.00025199	1505.5	1.0459e-05	4.4155e-06	1555	272.53	6.0517e-06	7.3222e-06	317.72	93.732	73.055	20.445	2.6865e-06	29.078	0.0046435	0.0087092	0.0023306	1476.2	7.3586e-05	8.8549e-05	1525.3	271.34	7.1734e-05	8.8568e-05	322.84	94.893	74.498	21.449	8.1425e-05	30.422	136.762	233.711	241.166	108.797	244.541	267.521	108.038	115.698	220.199	234.478	115.526	121.980	121.958	129.401	206.698	128.897	-8191	255	
41100.309	1	1	0	0	0.06101	0.12328	0.15259	0.2132	0.22573	0.38609	0.1658	0.055514	0.16213	0.14696	0.26803	0.17511	0.23214	0.13788	0.10532	0.14739	-2.6917	-3.1021	-2.9604	-3.4521	-3.0083	-2.8854	-3.4229	-3.1354	-3.0792	-3.2438	-2.9604	-3.325	-3.0958	-2.9792	-3.2979	-3.0146	157.930	418.803	368.023	415.596	114.137	249.902	407.059	300.294	290.732	364.344	387.141	341.859	194.674	436.299	351.042	399.418	0.00057231	0.00025301	8.8738e-05	1495.8	5.0731e-06	3.9822e-06	1544.6	272.44	6.1281e-06	7.4069e-06	319.6	93.486	72.938	20.679	8.3444e-06	29.034	0.0040559	0.0080091	0.0022643	1469.8	7.3207e-05	9.0523e-05	1522.1	270.53	7.1342e-05	9.1505e-05	322.7	94.761	74.443	21.44	8.0664e-05	30.283	127.787	447.549	329.310	108.431	223.076	228.940	108.122	115.587	229.514	267.035	115.396	122.230	122.536	129.746	307.662	129.126	-8191	255	
41100.430	1	1	0	0	0.10896	0.18603	0.29861	0.35024	0.11088	0.069251	0.11887	0.16242	0.10997	0.12576	0.15608	0.15641	0.14991	0.36894	0.03648	0.35966	-2.5583	-3.05	-2.9771	-3.1937	-3.0854	-2.8333	-3.45	-3.0479	-2.9208	-3.15	-3.1333	-3.125	-3.1208	-2.8479	-2.9813	-2.9708	268.725	107.254	411.724	430.171	404.058	328.178	374.077	407.148	157.177	189.826	237.980	124.223	328.819	218.259	366.933	371.792	0.00052687	0.00039348	9.4056e-05	1389.7	7.1978e-06	5.5634e-06	1338.7	234.62	1.3504e-05	5.3436e-06	274.86	80.621	63.593	17.745	2.8062e-06	25.246	0.0040851	0.00791	0.0022194	1389.2	6.6038e-05	8.0161e-05	1336.8	238.14	6.4588e-05	8.1027e-05	283.49	83.327	65.638	18.901	7.1393e-05	26.687	128.717	163.736	278.416	119.181	198.778	173.884	109.668	116.850	219.993	270.332	116.866	123.390	123.372	131.193	231.151	130.169	-8191	255	
41100.523	1	1	0	0	0.13352	0.24248	0.1567	0.22408	0.12658	0.15119	0.31691	0.016792	0.04182	0.25371	0.17074	0.21049	0.22072	0.28218	0.30385	0.0757	-2.5958	-3.1375	-2.9458	-2.9542	-3.1312	-2.8042	-3.2292	-3.2021	-2.7562	-3.1958	-3.0729	-2.9188	-3.075	-2.9521	-3.0604	-3.0333	286.755	253.646	290.552	432.679	147.268	119.308	372.593	199.000	434.991	114.088	456.701	368.905	165.137	424.839	330.959	130.448	0.00051705	0.00023841	8.8179e-05	1284.7	6.874e-06	3.4084e-06	1332.9	235.25	7.0859e-06	3.3117e-06	275.86	80.998	63.585	17.877	5.3409e-06	25.187	0.0036343	0.0071759	0.0019751	1289.1	6.6101e-05	8.2663e-05	1335.9	238.45	6.5331e-05	8.303e-05	283.29	83.372	65.825	18.932	7.0359e-05	26.675	128.127	194.729	195.498	109.854	188.518	178.961	109.548	117.344	237.629	231.778	116.785	123.654	123.327	131.125	229.540	129.813	-8191	255	
41100.621	1	1	0	0	0.1306	0.060055	0.064666	0.38111	0.069826	0.27824	0.29996	0.25321	0.18612	0.24555	0.091921	0.052908	0.20846	0.10429	0.12754	0.17162	-2.4271	-3.075	-2.9625	-3.0833	-3.0542	-2.6854	-3.2875	-3.3312	-2.8375	-2.9938	-2.9833	-2.9208	-3.0875	-2.9896	-3.0583	-3.1271	346.753	402.252	175.701	343.651	186.643	106.834	424.799	353.342	142.647	393.375	216.409	222.912	409.250	242.395	302.681	401.198	0.00051137	0.00045646	0.00016544	1289.5	1.2198e-05	4.2875e-06	1149.6	203.05	7.5218e-06	4.2784e-06	235.35	68.929	54.323	15.384	6.6151e-06	21.585	0.0037339	0.0073127	0.0019253	1288.1	6.4855e-05	7.3207e-05	1166.1	208.26	5.7672e-05	7.1043e-05	247.06	72.644	57.454	16.521	6.078e-05	23.279	134.119	206.385	245.576	109.765	241.421	254.579	111.463	119.143	279.890	205.362	117.929	124.510	124.898	132.634	267.250	131.509	-8191	255	
41100.719	1	1	0	0	0.13569	0.093027	0.20825	0.13133	0.12002	0.2277	0.2764	0.12399	0.3239	0.088161	0.22762	0.22421	0.14796	0.10834	0.17888	0.080871	-2.2167	-3.0833	-2.7146	-3.1625	-3.1229	-2.9271	-3.0396	-3.2812	-2.8208	-3.2687	-3.0521	-2.7146	-3.1063	-2.9958	-2.925	-3.1583	179.009	358.641	158.247	395.515	385.138	270.821	409.175	443.166	309.960	336.867	108.225	329.143	215.747	433.648	409.591	316.332	0.00041512	0.00055689	0.00011875	1104.8	5.0402e-06	9.2226e-08	1142.9	202.31	2.7109e-06	3.8661e-06	235.95	69.225	54.235	15.292	4.0675e-06	21.493	0.0033087	0.0062805	0.0016489	1120.5	5.9854e-05	7.1921e-05	1161.9	207.56	5.8835e-05	7.0635e-05	246.6	72.825	57.434	16.509	6.043e-05	23.301	121.710	254.514	203.388	111.467	276.414	341.793	111.077	118.708	207.250	333.402	118.132	124.318	124.911	132.257	239.354	131.695	-8191	255	
41100.812	1	1	0	0	0.1314	0.23345	0.1338	0.033115	0.27232	0.1045	0.0077288	0.11617	0.19777	0.15549	0.26963	0.10547	0.21323	0.26085	0.37038	0.074046	-2.4292	-3.1354	-2.9208	-3.0146	-3.2167	-2.9083	-3.0354	-3.1708	-2.8021	-3.0563	-3.0917	-2.9125	-3.2833	-2.9396	-2.8583	-3.2458	338.082	381.476	280.667	319.061	353.485	295.622	331.295	444.614	209.973	242.575	149.172	301.185	407.479	431.716	340.415	142.896	0.00040313	5.8601e-05	8.0399e-05	1100.2	7.0731e-06	3.2065e-06	1144.6	202.63	5.3457e-06	3.4937e-06	236.76	69.298	54.685	15.28	7.8189e-06	21.589	0.0033193	0.0062711	0.0016341	1121.1	5.9531e-05	7.035e-05	1162	208.1	5.8298e-05	6.9747e-05	247.04	72.835	57.573	16.502	5.928e-05	23.316	131.111	309.516	166.857	111.287	268.204	247.472	111.154	118.671	160.024	266.994	117.882	124.842	124.709	132.382	218.846	131.569	-8191	255	
41100.910	1	1	0	0	0.28866	0.099511	0.017797	0.37968	0.048602	0.092078	0.29404	0.11487	0.015977	0.20823	0.10366	0.20591	0.13178	0.089551	0.044837	0.062613	-2.4417	-3.1042	-3.0708	-3.0208	-3.0083	-2.8771	-3.15	-3.2167	-2.8792	-3.0104	-3.0333	-2.8563	-3.2583	-3.0708	-2.9583	-3.2042	279.324	329.987	350.060	424.850	322.053	313.090	368.664	325.898	417.667	285.752	111.381	435.382	376.997	274.267	139.976	160.767	0.00037306	0.00022312	6.8766e-05	1102.3	7.1441e-06	4.0702e-06	1140.1	202.23	3.9894e-06	2.7402e-06	236.1	68.895	54.425	15.317	2.2056e-06	21.526	0.0033301	0.0061137	0.0016737	1121.1	5.9703e-05	6.9017e-05	1160.4	207.97	5.9205e-05	6.9198e-05	247.01	72.647	57.389	16.52	6.0378e-05	23.349	117.299	190.541	289.773	111.439	243.681	264.391	110.897	118.884	226.424	137.928	118.250	124.973	124.686	132.246	290.927	131.618	-8191	255	
41101.004	1	1	0	0	0.2537	0.16569	0.15866	0.27611	0.25235	0.097065	0.17356	0.33181	0.1108	0.046906	0.12378	0.18561	0.25226	0.18249	0.052327	0.21292	-2.4479	-2.8417	-3.1375	-2.8708	-3.0521	-2.9938	-3.0479	-3.2458	-2.9021	-2.8688	-3.0625	-2.8896	-3.0854	-3.1	-2.8979	-3.1625	455.336	355.945	420.728	373.145	133.041	269.580	412.230	353.657	332.336	217.616	451.327	239.377	348.694	366.872	270.325	350.956	0.00037385	0.00045357	6.9922e-05	1097.2	5.0352e-06	2.4882e-06	1139.3	201.4	5.0002e-06	4.4321e-06	236.58	69.307	54.287	15.397	7.6089e-06	21.444	0.0032954	0.0059801	0.0016962	1121.1	5.8831e-05	6.8129e-05	1160.4	208.13	5.8011e-05	6.7673e-05	247.25	72.855	57.385	16.506	6.1673e-05	23.364	131.637	236.532	245.173	111.084	295.269	299.583	110.902	118.883	186.049	206.361	117.812	124.326	124.630	132.093	247.205	132.138	-8191	255	
41101.125	1	1	0	0	0.3109	0.1575	0.12551	0.17346	0.23778	0.20578	0.21792	0.27742	0.23053	0.13936	0.21616	0.18918	0.15364	0.10477	0.19493	0.12813	-2.4958	-2.9604	-3.2521	-2.9583	-3.1188	-3.2042	-3	-3.2208	-2.9188	-2.9542	-3.2521	-2.9375	-3.1042	-3.0375	-2.9583	-3.1646	427.908	130.703	239.867	404.597	125.354	397.798	402.746	361.116	362.143	453.268	404.619	397.699	200.453	356.200	187.305	273.149	0.00047525	0.0005985	5.6521e-05	1100	6.0072e-06	1.2911e-06	1139.6	202.7	5.9057e-06	2.6521e-06	235.48	69.592	54.453	15.256	7.5664e-06	21.427	0.0032719	0.0060244	0.0017181	1122.2	5.8649e-05	6.7632e-05	1161	208.11	5.7577e-05	6.9327e-05	246.93	73.012	57.299	16.477	6.2693e-05	23.364	134.412	209.202	232.195	111.177	219.503	456.195	110.880	118.721	164.537	347.331	117.972	124.573	125.081	132.329	221.946	131.616	-8191	255	
41101.195	1	1	0	0	0.045045	0.24398	0.16078	0.18044	0.20229	0.27653	0.29148	0.12097	0.13721	0.10967	0.14768	0.28134	0.21089	0.095092	0.17006	0.48599	-2.6146	-2.8646	-3.2083	-3.0146	-2.9875	-3.1771	-3.0417	-3.3354	-2.8667	-3.0333	-3.3208	-2.8021	-3.125	-3.1417	-3.0292	-3.1729	200.841	300.274	332.908	397.881	225.032	382.061	450.684	437.423	452.053	246.044	128.081	434.637	302.045	155.826	112.475	393.547	0.00045425	0.00015608	0.0001328	1100.2	2.7851e-06	1.4276e-06	1142.5	202.49	4.0088e-06	2.4316e-06	236.59	69.226	54.521	15.382	1.3558e-06	21.65	0.0032423	0.0060381	0.001764	1123	5.8759e-05	6.868e-05	1161.5	208.37	5.7549e-05	6.8587e-05	248.07	72.809	57.251	16.491	6.3572e-05	23.364	131.591	179.137	178.129	111.228	311.500	192.556	110.811	118.907	262.718	200.533	118.203	124.740	125.112	132.262	300.985	131.751	-8191	255	
41101.293	1	1	0	0	0.185	0.053846	0.16731	0.34663	0.12502	0.16459	0.19488	0.076481	0.024577	0.14389	0.33507	0.01366	0.25438	0.21363	0.09549	0.28967	-2.7313	-2.9	-3.2	-3.1188	-2.9917	-3.0958	-3.2271	-3.0812	-3.2896	-2.7875	-3.2062	-3.0229	-2.7938	-3.2583	-2.8438	-3.0187	347.601	216.943	258.284	122.377	210.049	270.679	328.506	218.070	436.453	416.320	348.956	443.219	113.852	438.027	357.025	405.323	0.00039241	0.00026704	0.00015249	1100.3	2.3855e-06	3.5105e-06	1139.1	202.38	3.2677e-06	4.3773e-06	234.3	69.529	54.368	15.325	5.9046e-07	21.399	0.0031821	0.006109	0.0017546	1122.9	5.7109e-05	6.8938e-05	1161.1	208.25	5.6592e-05	6.9655e-05	246.51	72.813	57.221	16.518	6.3124e-05	23.299	124.985	267.959	251.105	111.245	250.443	167.744	111.041	118.722	192.328	131.241	117.801	124.689	125.040	132.282	303.990	131.602	-8191	255	
41101.391	1	1	0	0	0.063712	0.22801	0.18484	0.35989	0.20158	0.14408	0.21326	0.19833	0.10021	0.16516	0.11406	0.11333	0.062106	0.083197	0.034165	0.12001	-2.775	-3.0333	-2.9125	-3.0875	-3.0833	-3.2	-3.05	-3.1542	-3.0896	-2.8479	-3.2188	-3.0146	-2.9396	-3.2854	-2.9188	-3.0208	453.700	291.242	283.928	107.502	457.846	459.249	309.884	260.337	302.003	180.589	454.794	274.812	123.876	258.716	455.635	110.830	0.00038024	0.00019871	0.00013156	1104	5.0218e-06	2.7796e-06	1140.9	201.95	5.0808e-06	5.3688e-06	235.45	69.47	54.118	15.304	9.0926e-06	21.488	0.0031883	0.0063207	0.0017508	1122.8	5.7815e-05	7.0659e-05	1161.6	208.12	5.7179e-05	7.2063e-05	247.25	72.838	57.333	16.537	6.3173e-05	23.349	127.511	281.423	140.771	111.540	180.868	265.545	111.045	118.544	234.005	342.645	117.856	124.402	125.095	132.539	199.392	131.350	-8191	255	
41101.508	1	1	0	0	0.15783	0.35904	0.1125	0.28537	0.17081	0.30612	0.45188	0.14323	0.052574	0.13367	0.16017	0.085303	0.24854	0.1638	0.017989	0.29024	-2.85	-2.9021	-3.2708	-3.25	-3.0604	-3.1813	-3.1562	-3.1646	-3.3208	-2.9896	-3.3104	-3.1271	-2.7938	-3.1979	-3.0083	-3.0021	140.256	365.868	336.529	432.053	455.516	377.297	379.006	455.930	299.570	340.136	125.351	381.535	329.617	345.034	106.117	339.681	0.00042755	0.00038194	7.7449e-05	1102.5	3.1779e-06	2.0779e-06	1142	201.94	6.8131e-06	4.6067e-06	235.69	69.141	53.999	15.267	3.453e-06	21.458	0.0032056	0.0064644	0.0017533	1120.4	5.7819e-05	7.1993e-05	1159.9	207.79	5.7138e-05	7.2318e-05	246.57	72.747	57.437	16.531	6.39e-05	23.283	128.995	231.222	255.001	110.975	208.399	272.382	110.886	118.680	177.360	216.258	118.123	124.892	125.063	132.570	215.422	131.609	-8191	255	
41101.605	1	1	0	0	0.23961	0.23444	0.049557	0.31892	0.13733	0.10165	0.29248	0.23193	0.2308	0.16091	0.085644	0.080453	0.17667	0.050243	0.18726	0.1008	-2.7896	-2.7896	-3.3021	-3.2875	-2.9375	-3.3354	-3.3187	-2.8917	-3.45	-2.9583	-3.2979	-3.1521	-2.9021	-3.1583	-3.1479	-3.125	430.917	313.004	136.677	386.326	330.902	202.987	403.529	332.676	333.287	281.415	400.833	107.260	363.628	389.867	253.877	279.218	0.0003611	0.00023397	3.7899e-05	1103.9	6.8969e-06	2.4427e-06	1145.5	202.66	4.1482e-06	1.2505e-06	235.82	69.764	54.511	15.292	3.8706e-06	21.51	0.0032551	0.0064613	0.0017656	1122.1	5.9558e-05	7.2421e-05	1163.9	208.39	5.901e-05	7.331e-05	247.53	73.004	57.395	16.546	6.2856e-05	23.302	122.018	147.675	244.874	111.075	219.308	218.178	111.097	118.592	256.388	449.876	117.947	124.846	125.129	132.687	237.206	131.739	-8191	255	
41101.699	1	1	0	0	0.28612	0.16078	0.10761	0.20158	0.21094	0.20391	0.32318	0.091943	0.18524	0.11686	0.018605	0.27569	0.28081	0.16669	0.21046	0.07043	-3.0083	-2.9271	-3.2208	-3.2562	-2.9062	-3.2333	-3.0979	-2.9979	-3.0979	-3.1104	-3.1875	-3.2167	-2.95	-3.2854	-2.9167	-2.8833	176.624	274.068	305.135	429.982	344.863	394.909	408.663	236.086	420.091	265.299	395.053	454.821	124.243	180.236	330.087	364.385	0.00043243	0.00043843	4.952e-05	1104.4	4.0514e-06	4.0448e-06	1142	203.07	5.1087e-06	8.0379e-06	233.04	69.398	54.435	15.298	1.5022e-06	21.559	0.0033269	0.0064899	0.0017054	1122.9	5.9627e-05	7.1898e-05	1161.5	208.37	5.9414e-05	7.3216e-05	246.32	72.833	57.503	16.514	6.1748e-05	23.309	126.656	180.316	230.780	111.260	254.342	184.833	111.084	118.635	182.112	227.094	118.239	124.695	125.082	132.321	416.005	130.832	-8191	255	
41101.797	1	1	0	0	0.078997	0.13866	0.036489	0.13683	0.17707	0.16157	0.19064	0.2154	0.15392	0.068575	0.34711	0.19913	0.061852	0.067336	0.16607	0.19184	-2.7958	-2.875	-2.9354	-3.3396	-3.0104	-3.3417	-3.4146	-3.0438	-3.3	-3.1458	-2.9604	-3.3021	-2.9208	-3.1562	-2.9458	-3.0354	452.304	313.523	296.321	399.124	390.279	382.875	406.649	359.969	316.959	158.470	431.810	174.824	127.365	106.576	300.268	359.753	0.00043353	0.00036482	8.5672e-05	1098.4	4.3817e-06	4.1946e-06	1141.9	201.35	6.8077e-06	3.3167e-06	235.98	69.665	54.423	15.382	3.7459e-06	21.225	0.0033212	0.0064236	0.0016946	1121.6	6.0958e-05	7.2016e-05	1161.8	207.71	5.9865e-05	7.1963e-05	246.68	72.926	57.405	16.568	6.1585e-05	23.309	124.742	217.252	415.515	111.292	111.247	217.782	110.925	118.596	194.805	187.891	117.888	124.731	125.002	132.130	232.995	131.843	-8191	255	
41101.895	1	1	0	0	0.075545	0.16467	0.15461	0.10685	0.1524	0.13697	0.30675	0.16621	0.10885	0.32498	0.063119	0.20868	0.30977	0.010687	0.062328	0.20946	-2.8417	-2.9938	-3.1458	-3.4146	-3.1813	-3.3	-3.4333	-3.0604	-3.3229	-3.0104	-3.0917	-3.2875	-2.8958	-3.1167	-3.1229	-2.9896	447.132	245.613	361.640	401.440	107.169	219.978	390.433	104.314	393.541	431.990	276.318	415.733	354.291	315.445	380.986	292.635	0.00050819	0.00052168	8.9738e-05	1100.2	3.9151e-06	1.3014e-06	1138.3	202.32	4.8523e-06	4.1231e-06	236.13	69.079	54.081	15.265	2.9626e-06	21.499	0.0033926	0.0062616	0.0016978	1121.9	5.9941e-05	7.0139e-05	1159.2	207.99	5.9785e-05	7.1237e-05	246.58	72.844	57.307	16.482	6.0806e-05	23.291	126.397	295.303	138.852	111.346	158.593	128.841	110.944	118.616	173.430	272.813	117.980	124.848	124.898	132.689	222.919	131.542	-8191	255	
41101.988	1	1	0	0	0.06564	0.17983	0.10835	0.49365	0.14315	0.22098	0.24168	0.15278	0.16956	0.13003	0.18035	0.17714	0.24281	0.10202	0.21145	0.17996	-2.7396	-2.9729	-2.8646	-3.3854	-2.8208	-3.0417	-3.4396	-3.0271	-3.2708	-2.9917	-3.0687	-3.2958	-2.9521	-3.1458	-3.2146	-2.8729	198.746	259.466	203.423	456.953	421.871	288.875	391.995	314.552	449.436	446.495	391.890	150.467	380.395	147.791	275.459	169.361	0.00045926	0.00011967	6.1492e-05	1100.1	7.7563e-06	7.1067e-06	1140	202.31	9.2061e-06	2.9534e-06	235.72	69.212	54.525	15.33	1.9701e-06	21.549	0.0033262	0.0060614	0.0016907	1121.2	6.0411e-05	6.8603e-05	1160.4	208.05	5.9006e-05	6.7611e-05	246.83	72.801	57.447	16.471	6.0903e-05	23.31	119.958	178.963	115.379	111.331	230.918	248.924	110.962	118.730	266.731	211.342	118.287	124.542	124.852	132.451	236.991	131.491	-8191	255	
41102.109	1	1	0	0	0.25639	0.10585	0.15584	0.13674	0.25299	0.046268	0.27506	0.1226	0.17398	0.04307	0.11002	0.155	0.19132	0.12832	0.14676	0.21862	-2.8979	-2.9354	-2.875	-3.3396	-3.0208	-3.0292	-3.4938	-2.9771	-3.2521	-3.1854	-3.0354	-3.2771	-3.0563	-3.0792	-3.3292	-3.0146	300.265	347.521	217.423	150.816	191.122	237.575	391.058	168.090	435.454	106.950	125.831	449.391	446.979	173.718	215.046	339.401	0.00042072	0.00028624	0.00010465	1101.8	4.4217e-06	4.9859e-06	1143.2	201.64	2.8908e-06	4.6408e-06	237.16	69.314	54.21	15.297	6.7292e-06	21.633	0.0033517	0.005925	0.0017072	1122.2	5.8724e-05	6.7982e-05	1161.4	207.63	5.7839e-05	6.8578e-05	247.4	72.861	57.279	16.486	6.199e-05	23.373	131.155	333.999	169.526	111.520	252.190	188.119	111.036	118.527	195.208	246.319	118.007	124.806	124.546	132.532	247.770	131.327	-8191	255	
41102.207	1	1	0	0	0.13772	0.093929	0.12201	0.040879	0.10687	0.12003	0.10997	0.18424	0.16391	0.19836	0.29779	0.25096	0.21459	0.17249	0.26197	0.11254	-2.7896	-3.1771	-2.9167	-3.4938	-3.1229	-3.075	-3.5521	-3.0146	-3.0229	-3.1792	-2.975	-3.4125	-3.1167	-2.8229	-3.1875	-2.8583	257.561	129.415	122.892	293.788	104.483	364.428	369.974	344.039	218.620	440.473	245.770	123.813	427.299	342.376	209.101	450.301	0.00045944	0.00017603	0.00010083	1098.9	6.9362e-06	5.1011e-06	1138.3	202.41	3.9563e-06	4.599e-06	235.98	69.607	54.527	15.222	7.2708e-06	21.605	0.0032769	0.0060653	0.0017125	1121	5.894e-05	6.8714e-05	1161.3	208.12	5.7774e-05	6.8912e-05	247.18	72.879	57.415	16.458	6.3386e-05	23.356	121.281	447.905	205.027	111.223	264.942	311.355	111.008	118.736	267.629	228.639	118.055	124.939	124.715	132.692	273.048	131.760	-8191	255	
41102.301	1	1	0	0	0.013876	0.28779	0.16489	0.13643	0.10111	0.30489	0.18683	0.16929	0.074056	0.25661	0.088374	0.056843	0.20766	0.12375	0.19546	0.10782	-2.6896	-3.1146	-2.9729	-3.4833	-3.1229	-2.7521	-3.3708	-3.2104	-2.9813	-3.375	-3.125	-3.2208	-3.125	-2.85	-3.2812	-2.9792	210.794	264.232	236.419	329.458	358.155	169.353	439.124	417.843	283.645	288.401	286.558	234.771	387.935	434.202	254.272	221.752	0.00038373	0.00074425	6.1438e-05	1098.8	8.7669e-06	2.6342e-06	1140.4	202.76	6.2408e-06	1.8236e-06	235.94	69.546	54.413	15.34	1.5169e-06	21.513	0.0032381	0.0060715	0.001748	1121	5.8266e-05	6.9597e-05	1160.3	208.22	5.6173e-05	7.0051e-05	246.87	72.909	57.256	16.515	6.3054e-05	23.396	128.344	189.342	113.234	111.308	231.799	226.374	110.876	118.757	262.855	241.759	117.891	125.070	124.945	132.381	198.511	131.575	-8191	255	
41102.422	1	1	0	0	0.06093	0.11582	0.084023	0.16665	0.12557	0.29181	0.47313	0.15914	0.061935	0.09292	0.058392	0.073134	0.089737	0.029825	0.13905	0.22703	-2.575	-3.2812	-2.8979	-3.2375	-3.1979	-3.0125	-3.4167	-3.025	-3.025	-3.2792	-3.1042	-3.2021	-3.2542	-2.9042	-3.2625	-3.1146	162.206	406.390	237.272	447.907	216.485	404.353	429.832	114.924	146.631	178.154	355.048	281.017	131.115	148.496	228.715	198.602	0.00045886	0.00065074	4.2899e-05	1096.9	5.9484e-06	5.6412e-06	1141.9	201.68	4.1978e-06	6.4898e-06	235.39	69.265	54.222	15.431	4.3907e-06	21.475	0.0031894	0.0061836	0.001759	1119.8	5.7267e-05	7.1175e-05	1161.8	208.17	5.6939e-05	7.1025e-05	247.04	72.785	57.325	16.579	6.3862e-05	23.255	132.211	186.402	284.639	111.426	246.547	240.396	110.985	118.492	273.094	274.608	117.981	124.352	125.015	132.611	213.099	131.463	-8191	255	
41102.496	1	1	0	0	0.26507	0.040746	0.19848	0.38438	0.10268	0.091864	0.10039	0.079743	0.10658	0.082125	0.33859	0.12068	0.12196	0.14974	0.15713	0.21745	-2.6188	-3.0438	-2.9375	-3.0833	-3.15	-2.7875	-3.2896	-3.1792	-3.1063	-3.2583	-3.275	-3.1437	-3.2604	-2.975	-3.1792	-3.05	355.647	109.324	140.192	103.832	212.083	370.899	370.161	308.845	221.925	330.237	320.334	233.357	251.863	441.399	407.325	360.532	0.00047996	0.00075377	0.00013428	1103.8	4.8394e-06	8.4864e-06	1141.3	202.33	2.4378e-06	1.0012e-06	235.59	69.205	54.501	15.302	2.4049e-06	21.642	0.0032174	0.0062996	0.0017613	1122.9	5.7604e-05	7.1775e-05	1161.1	208.03	5.6883e-05	7.1191e-05	246.77	72.723	57.419	16.519	6.3674e-05	23.295	128.198	170.335	174.545	111.183	268.308	259.818	110.937	118.767	246.235	118.162	118.129	124.910	124.750	132.371	239.363	131.663	-8191	255	
41102.590	1	1	0	0	0.072201	0.071871	0.10013	0.18549	0.23884	0.059762	0.031663	0.25311	0.067726	0.21089	0.10307	0.05993	0.03254	0.13578	0.22451	0.03543	-2.4583	-3.2979	-2.9	-3.0708	-3.2562	-2.8271	-3.1792	-3.25	-2.8854	-3.15	-3.0854	-3.0958	-3.1625	-2.9396	-3.25	-3.15	407.910	316.332	366.188	404.304	389.625	376.307	416.642	352.793	341.115	123.043	373.264	226.260	408.008	150.363	135.014	304.526	0.00047901	0.0005187	0.00013755	1102.6	3.3043e-06	2.6487e-06	1144.6	202.02	2.9173e-06	4.874e-06	234.33	69.199	54.358	15.266	3.2768e-06	21.537	0.0032404	0.0064188	0.001756	1121.9	5.794e-05	7.2611e-05	1160.9	207.74	5.6351e-05	7.1766e-05	246.8	72.791	57.341	16.512	6.136e-05	23.269	126.248	246.014	213.368	111.120	233.966	284.243	110.910	118.723	187.655	240.027	117.886	124.841	124.842	132.200	313.856	131.884	-8191	255	
41102.684	1	1	0	0	0.29931	0.2078	0.087282	0.12089	0.092884	0.13489	0.38188	0.043987	0.034252	0.20741	0.081209	0.033595	0.089073	0.21575	0.081763	0.18046	-2.5375	-3.2771	-2.9604	-3.2562	-3.1896	-3.0875	-3.2042	-3.2479	-2.975	-3.1354	-3.0417	-3.0458	-3.4208	-2.9188	-3.1208	-3.1688	235.929	356.117	378.244	356.899	215.968	265.125	383.964	187.011	400.894	392.049	301.198	269.465	396.786	141.615	120.454	341.969	0.00039724	0.0005106	4.1017e-05	1099.5	3.6857e-06	2.2819e-06	1143.4	201.97	4.7098e-06	3.0816e-06	235.88	69.154	54.276	15.425	4.3689e-06	21.729	0.0032353	0.0062943	0.0016958	1121.6	5.849e-05	7.2006e-05	1163.3	208.09	5.8102e-05	7.1555e-05	246.34	72.823	57.404	16.579	6.1366e-05	23.367	132.924	227.324	204.511	111.059	236.754	183.515	110.942	118.459	255.161	228.673	117.886	124.521	124.975	132.351	200.869	131.627	-8191	255	
41102.805	1	1	0	0	0.11939	0.12693	0.13628	0.21688	0.13905	0.087062	0.22726	0.16938	0.08481	0.096057	0.29203	0.061411	0.10349	0.19547	0.072191	0.098229	-2.4	-3.2292	-3.0604	-3.1208	-3.2792	-2.9479	-3.3937	-3.1625	-2.9729	-3.2917	-3.375	-2.9146	-3.4521	-3.0792	-3.0229	-3.2333	191.030	454.072	198.478	358.117	453.874	394.241	439.060	135.557	439.961	376.465	428.423	290.839	455.536	151.836	405.104	407.179	0.00047077	0.00023477	6.1922e-05	1103.4	2.9975e-06	3.1626e-06	1139.8	202.48	3.4568e-06	2.2646e-06	235.04	69.468	54.284	15.382	7.4578e-06	21.601	0.0032948	0.0063191	0.0016856	1123.1	5.9033e-05	7.1176e-05	1160.1	208.15	5.901e-05	7.1788e-05	246.04	72.82	57.439	16.548	5.9942e-05	23.36	117.168	262.363	317.432	111.411	226.637	274.376	111.197	118.321	194.535	167.312	117.987	124.693	125.006	132.450	220.886	131.812	-8191	255	
41102.902	1	1	0	0	0.046384	0.045759	0.11313	0.089265	0.105	0.22337	0.25648	0.061691	0.22697	0.20742	0.26451	0.24202	0.34288	0.22866	0.07601	0.096625	-2.4417	-3.0354	-3.2417	-3.1208	-3.2313	-3.0083	-3.1625	-3.3312	-2.9083	-3.1292	-3.1833	-2.8833	-3.2188	-3.0312	-2.9271	-3.3229	193.943	261.834	412.620	458.618	360.759	418.698	336.454	102.400	445.499	448.026	125.863	316.073	144.980	360.886	122.032	350.186	0.00044507	9.4749e-05	6.9494e-05	1101.4	7.8882e-06	9.2984e-07	1140	201.39	5.6595e-06	2.0061e-06	235.2	69.465	54.29	15.157	3.9449e-06	21.562	0.0033417	0.0062254	0.0016678	1123.3	5.9413e-05	6.9492e-05	1161.5	207.67	5.8558e-05	6.9494e-05	246.25	72.821	57.339	16.465	5.9893e-05	23.302	125.701	108.486	196.295	111.223	208.730	155.980	110.880	118.431	223.880	322.341	117.973	124.996	124.914	132.626	244.415	131.652	-8191	255	
41102.996	1	1	0	0	0.19961	0.080868	0.26988	0.19651	0.28436	0.051316	0.15348	0.20854	0.1395	0.1857	0.33655	0.11295	0.11615	0.15373	0.15726	0.1081	-2.5354	-2.9813	-3.2583	-3.0333	-3.2313	-3.1854	-3.0187	-3.1479	-3.0021	-3.175	-3.3063	-2.9396	-3.1167	-3.0021	-2.85	-3.1813	324.110	163.018	425.797	431.198	313.919	190.329	381.851	376.999	140.239	452.665	336.235	199.455	242.160	110.299	237.301	118.738	0.00047533	0.00044077	6.1845e-05	1101	2.6503e-06	3.561e-06	1144.7	201.66	5.3777e-06	4.3602e-06	234.57	69.231	54.262	15.301	4.6495e-06	21.551	0.0033297	0.0061971	0.0016414	1123.1	6.0485e-05	6.8388e-05	1163.2	208	5.8317e-05	6.8275e-05	245.72	72.865	57.377	16.477	5.9912e-05	23.322	123.328	304.809	283.455	111.259	216.913	364.072	110.991	118.601	206.399	280.544	117.899	124.970	124.907	132.147	204.179	131.415	-8191	255	
41103.070	1	1	0	0	0.25037	0.10197	0.11197	0.12307	0.18787	0.17718	0.10483	0.042759	0.088919	0.17095	0.25947	0.19535	0.1469	0.080841	0.23931	0.25937	-2.5708	-3.0896	-3.0771	-2.8833	-3.1562	-2.9979	-3.0458	-3.2042	-2.9875	-2.9896	-3.1312	-2.9292	-3.2375	-3.1646	-3.0708	-3.1479	312.492	325.678	444.578	408.474	205.956	304.377	369.751	210.854	366.925	112.488	429.144	399.802	435.301	343.783	445.079	444.687	0.00043233	0.00044975	6.5141e-05	1100.6	3.8871e-06	2.1978e-06	1142.2	201.44	2.3468e-06	8.4869e-06	235.22	69.316	54.482	15.307	3.623e-06	21.41	0.003274	0.0060292	0.0016794	1122.5	5.8632e-05	6.7311e-05	1161.2	207.86	5.8319e-05	6.7681e-05	246.07	72.67	57.474	16.441	6.0347e-05	23.291	123.508	285.859	201.118	111.324	218.787	111.914	111.027	118.694	193.036	232.309	118.156	124.978	125.114	132.200	300.431	131.713	-8191	255	
41103.191	1	1	0	0	0.23286	0.11225	0.14563	0.084066	0.25713	0.20674	0.18319	0.31575	0.012983	0.16746	0.029811	0.27314	0.083618	0.1017	0.12817	0.10608	-2.5667	-2.8167	-3.0458	-2.8563	-3.2146	-2.9625	-2.9604	-3.4083	-3.075	-2.9833	-3.3417	-2.9917	-3.1875	-3.0229	-3.0125	-3.2771	384.835	426.501	291.082	298.427	447.309	423.586	377.910	397.008	244.020	440.642	195.431	120.708	103.536	417.752	382.430	236.981	0.00043815	0.00037916	0.00013377	1101.8	4.1117e-06	5.5265e-06	1141.5	201.48	6.0516e-06	2.6577e-06	237.06	69.684	54.641	15.164	2.8778e-06	21.549	0.0031987	0.0059351	0.0016863	1122.3	5.783e-05	6.6111e-05	1160.7	207.87	5.6602e-05	6.685e-05	247.09	72.746	57.402	16.437	6.2746e-05	23.319	127.888	166.007	126.607	111.191	201.455	258.687	111.138	118.687	212.330	254.578	118.081	124.587	124.628	132.418	344.029	131.790	-8191	255	
41103.285	1	1	0	0	0.14927	0.21999	0.13052	0.24529	0.1001	0.13842	0.50185	0.20968	0.14845	0.1141	0.22228	0.15655	0.28103	0.030987	0.020426	0.18128	-2.6625	-2.875	-3.2062	-3.2417	-3.0417	-3.2771	-3.2104	-3.3229	-2.8271	-3.0021	-3.2542	-3.075	-3.0646	-3.1917	-2.9125	-3.1813	147.498	388.260	208.072	441.187	207.123	139.701	391.280	435.693	205.808	361.088	104.125	456.496	396.238	424.012	268.001	157.538	0.00040699	0.00021799	6.5319e-05	1103.7	1.01e-05	4.8137e-06	1144.7	201.74	3.5963e-06	2.8896e-06	236.4	69.486	54.347	15.321	6.5745e-06	21.426	0.0031773	0.0059951	0.0017413	1123.2	5.6961e-05	6.8014e-05	1163.7	208.04	5.6041e-05	6.8028e-05	246.76	72.908	57.225	16.481	6.339e-05	23.241	128.102	232.477	119.997	111.164	245.282	235.505	110.933	118.551	354.485	212.622	117.863	124.364	125.023	132.545	208.444	131.905	-8191	255	
41103.383	1	1	0	0	0.087156	0.12129	0.084295	0.32373	0.056302	0.044806	0.4002	0.088731	0.10147	0.18467	0.34851	0.21305	0.45448	0.10662	0.20857	0.088396	-2.7396	-2.8708	-3.2542	-3.0312	-3.0854	-3.3271	-3.0833	-3.2313	-3.2	-3.0042	-3.5042	-3.1125	-2.8875	-3.2812	-2.9646	-3.1562	200.824	279.620	342.048	401.077	338.825	303.233	404.405	345.902	405.955	317.337	169.168	411.212	300.552	117.501	193.314	351.408	0.00042217	9.3451e-05	3.6184e-05	1101.8	8.5729e-07	1.3882e-06	1142.8	202.31	8.2284e-06	4.4732e-06	235.16	69.316	54.378	15.285	5.2812e-06	21.597	0.003129	0.0060883	0.0017437	1123.4	5.6816e-05	6.8911e-05	1161.4	208.17	5.557e-05	7.0093e-05	246.76	72.855	57.293	16.518	6.2892e-05	23.324	126.811	220.946	218.355	111.379	242.395	394.105	111.110	118.805	204.843	272.734	117.880	124.972	125.102	132.350	260.051	131.771	-8191	255	
41103.504	1	1	0	0	0.11967	0.11363	0.15731	0.4187	0.060482	0.087338	0.084382	0.069768	0.24267	0.15854	0.18244	0.33217	0.080248	0.149	0.24446	0.17034	-2.65	-2.8312	-3.1833	-3.0542	-3.0563	-3.3021	-3.3021	-3.1104	-3.1021	-2.9792	-3.275	-3.0812	-2.8146	-3.3021	-2.9583	-3.0167	243.475	355.903	453.938	389.417	167.823	274.626	420.148	152.934	171.964	447.519	383.763	440.707	401.560	217.434	413.952	217.923	0.00044562	0.00058545	0.00014057	1101.1	5.6856e-06	3.5984e-06	1139.5	202.27	9.0223e-06	1.5304e-06	235.32	69.445	54.506	15.225	6.1255e-06	21.606	0.0031498	0.0062094	0.0017543	1122.2	5.6538e-05	7.0957e-05	1161.4	208.19	5.5669e-05	7.0772e-05	246.33	72.776	57.296	16.527	6.2618e-05	23.345	121.345	189.429	136.511	111.300	237.057	295.524	110.956	118.666	287.042	297.581	118.249	124.927	124.913	132.305	258.893	131.857	-8191	255	
41103.598	1	1	0	0	0.25482	0.26065	0.13976	0.2573	0.16071	0.16679	0.18911	0.21808	0.10242	0.12042	0.12075	0.10812	0.10117	0.22278	0.14261	0.31407	-2.7771	-2.8937	-3.2104	-3.2958	-2.9	-3.2354	-3.1208	-2.9917	-3.2	-3.0167	-3.1896	-3.1208	-3.0458	-3.3688	-3.2104	-3.1042	418.152	235.545	339.953	363.811	291.794	359.241	401.431	389.654	283.553	291.438	342.459	227.820	370.733	400.781	444.617	296.508	0.00045996	0.00039186	0.00010177	1101.9	4.1292e-06	6.3541e-06	1140.4	202.32	9.3953e-06	3.0372e-06	235.09	69.393	54.319	15.434	4.7854e-06	21.478	0.0031213	0.0063219	0.0017502	1122.5	5.733e-05	7.1979e-05	1162.7	208.12	5.7098e-05	7.2055e-05	246.58	72.768	57.344	16.582	6.2375e-05	23.257	123.572	170.163	161.255	111.210	271.775	260.691	110.729	118.721	212.644	275.697	118.267	124.648	124.901	132.295	292.618	131.354	-8191	255	
41103.695	1	1	0	0	0.12725	0.22223	0.28784	0.42779	0.040911	0.083882	0.21445	0.082656	0.2958	0.023317	0.067211	0.28476	0.12921	0.11924	0.064469	0.25346	-2.9062	-2.8375	-3.0979	-3.3125	-2.8583	-3.1979	-3.1708	-3.0521	-3.1021	-2.9813	-3.2083	-3.2396	-3.0021	-3.2208	-3.1	-3.0583	220.184	159.302	302.258	107.354	348.988	246.836	383.613	326.212	114.558	108.275	187.769	453.061	453.469	361.262	112.770	364.941	0.00041172	0.00028	0.00011444	1103.2	8.7855e-06	1.5963e-06	1141.9	202.17	2.5132e-07	1.3781e-06	236.13	69.67	54.287	15.32	5.8864e-06	21.453	0.003277	0.0063543	0.0017343	1121.6	5.9432e-05	7.1855e-05	1161.7	208.01	5.7575e-05	7.1136e-05	246.83	72.806	57.516	16.545	6.0638e-05	23.277	123.355	184.851	221.786	111.138	193.573	215.501	111.000	118.452	271.407	205.491	118.399	124.461	125.082	132.666	209.570	132.001	-8191	255	
41103.789	1	1	0	0	0.33769	0.16666	0.14361	0.12146	0.12712	0.05035	0.35288	0.032022	0.29093	0.15558	0.092504	0.073886	0.16344	0.27435	0.17326	0.090127	-2.8271	-2.8833	-3.0542	-3.375	-2.8479	-3.2104	-3.3333	-2.9521	-3.3729	-3.0958	-3.1333	-3.3312	-2.9	-3.1688	-3.1104	-3	141.017	186.637	181.444	395.467	169.692	105.683	455.173	404.838	340.268	314.340	358.245	145.901	338.221	243.621	390.159	106.021	0.0004312	0.00025275	7.5756e-05	1100.2	1.6881e-06	1.0625e-06	1147.7	202.16	7.0223e-06	3.1624e-06	235.96	69.479	54.688	15.405	5.3559e-06	21.632	0.0033192	0.0063288	0.0017048	1121.7	6.052e-05	7.1085e-05	1162.9	208.32	5.9224e-05	7.1505e-05	247.07	72.934	57.683	16.568	6.0593e-05	23.334	121.506	148.631	314.866	111.223	226.456	361.306	110.832	118.707	248.126	277.980	118.163	124.696	125.121	132.762	199.143	132.067	-8191	255	
41103.887	1	1	0	0	0.14266	0.13825	0.14001	0.20017	0.14559	0.12215	0.32927	0.30183	0.18493	0.12176	0.1093	0.11215	0.13969	0.27407	0.02954	0.073673	-2.8	-3.1604	-2.8354	-3.2771	-2.9375	-3.0396	-3.2792	-2.9771	-3.0042	-3.0771	-3.0125	-3.1896	-2.9646	-3.0979	-3.2	-2.9667	149.822	256.850	283.503	100.742	267.079	393.495	373.286	347.097	185.407	207.752	136.139	292.188	179.563	399.021	299.820	447.772	0.00039502	0.00062235	8.9961e-05	1102.4	5.2089e-06	2.5248e-06	1141.2	202.55	2.4147e-06	4.6444e-06	236.1	70.098	54.179	15.322	6.7631e-06	21.655	0.0033243	0.0063488	0.0016669	1125.5	6.0326e-05	7.0704e-05	1162.9	208.48	6.0439e-05	7.0762e-05	247.03	73.166	57.447	16.583	6.0374e-05	23.418	120.704	249.202	208.240	111.074	292.992	208.424	110.943	118.716	179.997	224.245	117.856	124.608	124.595	132.166	250.804	131.287	-8191	255	
41103.980	1	1	0	0	0.082517	0.035771	0.075836	0.30881	0.17201	0.18402	0.078108	0.12162	0.13715	0.16655	0.12529	0.050678	0.21653	0.043115	0.19069	0.088882	-2.8063	-2.9354	-2.8125	-3.2583	-2.975	-3.0521	-3.4208	-3.1021	-3.1	-3.0542	-2.9875	-3.2417	-2.8271	-3.2667	-3.1792	-2.9062	394.652	445.271	127.224	408.951	359.681	191.473	448.470	201.897	185.459	167.914	359.935	181.815	156.446	266.330	216.238	211.896	0.00028598	0.00064277	0.00015372	1100.2	4.3036e-06	4.7281e-06	1143.7	202.04	3.3388e-06	2.9571e-06	236.09	69.448	54.429	15.472	2.5237e-06	21.456	0.00338	0.0062954	0.0016891	1124.9	6.1328e-05	7.0876e-05	1163	208.38	5.9919e-05	7.0861e-05	246.72	72.951	57.63	16.607	6.1468e-05	23.358	118.469	215.921	200.508	111.188	215.288	144.342	111.060	118.642	286.484	121.114	117.739	124.782	125.026	132.799	232.193	131.754	-8191	255	
41104.102	1	1	0	0	0.16621	0.15881	0.062622	0.14983	0.17437	0.32836	0.21367	0.18945	0.23923	0.19731	0.036049	0.13643	0.17608	0.16563	0.24626	0.099593	-2.7458	-2.9271	-2.7562	-3.2188	-2.975	-3.0125	-3.5583	-2.8792	-3.1271	-3.1063	-3.0646	-3.1146	-2.9958	-3.0354	-3.175	-2.9417	278.807	307.639	340.884	341.522	345.141	178.525	372.768	355.353	425.730	322.825	346.196	369.821	231.899	240.700	165.279	424.576	0.00042596	0.00037632	0.00012407	1102.6	7.4688e-06	5.2685e-06	1141.6	201.98	5.8089e-06	4.5021e-06	234.75	69.341	54.851	15.32	5.0443e-06	21.708	0.0033614	0.0062235	0.0017263	1125.8	6.0205e-05	6.8725e-05	1163.7	208.28	5.9646e-05	6.8957e-05	246.72	73.121	57.66	16.563	6.1546e-05	23.436	130.996	212.808	171.357	111.191	248.344	287.912	110.961	118.714	219.917	250.877	118.118	124.669	124.921	132.071	259.109	131.466	-8191	255	
41104.199	1	1	0	0	0.22159	0.1153	0.25601	0.22528	0.21456	0.10058	0.12766	0.24831	0.059871	0.15071	0.057414	0.35131	0.039625	0.1627	0.25735	0.074916	-2.8021	-3.2271	-2.6604	-3.2333	-3.1146	-3.2667	-3.4333	-2.9688	-3.0062	-3.2604	-2.8917	-3.1292	-2.9333	-3.0479	-3.2938	-3.1667	353.048	349.572	206.498	420.532	377.119	420.830	399.902	119.901	147.050	162.016	324.086	445.861	278.462	313.277	139.446	350.369	0.00037758	0.00030654	8.4633e-05	1105.5	7.5115e-06	3.3657e-06	1143.3	202.04	4.8157e-06	3.4461e-06	234.7	69.764	54.576	15.282	2.8757e-06	21.718	0.0033221	0.0060014	0.0017306	1125.7	5.9376e-05	6.8295e-05	1163.4	208.59	5.7521e-05	6.8419e-05	246.65	73.107	57.627	16.551	6.2591e-05	23.46	119.057	210.704	109.877	111.339	292.954	188.531	110.747	118.568	221.189	312.509	118.164	124.901	124.721	132.045	241.609	131.765	-8191	255	
41104.297	1	1	0	0	0.20544	0.17123	0.2552	0.22625	0.26334	0.096654	0.15265	0.3492	0.047112	0.17249	0.18235	0.10697	0.14992	0.15273	0.25178	0.22224	-2.6354	-3.1937	-2.7667	-3.2917	-2.9917	-2.9917	-3.3479	-3.075	-3.0208	-3.2625	-2.9917	-3.2979	-3.1937	-2.8667	-3.0271	-3.0979	151.259	142.863	452.799	366.545	370.572	324.617	454.341	439.012	415.626	331.508	411.530	178.196	164.936	116.503	186.842	384.932	0.00045539	0.00038069	3.5383e-05	1110.6	2.9282e-06	2.4588e-06	1145.5	202.85	6.3169e-06	1.8387e-06	234.67	69.535	54.417	15.458	3.2574e-06	21.625	0.003216	0.0060444	0.0017304	1126.7	5.6879e-05	6.7743e-05	1163.4	208.73	5.547e-05	6.8051e-05	245.94	73.01	57.328	16.59	6.3114e-05	23.337	126.681	159.238	456.957	111.497	243.164	198.341	111.018	118.861	159.204	260.225	118.272	124.929	125.051	132.514	286.220	132.186	-8191	255	
41104.367	1	1	0	0	0.18632	0.33102	0.28001	0.055273	0.24343	0.19655	0.13466	0.081333	0.10158	0.062047	0.11537	0.077477	0.072612	0.17991	0.35737	0.096009	-2.5458	-3.1521	-2.9062	-3.3333	-3.0271	-2.7833	-3.3479	-3.0167	-2.9958	-3.3063	-3.0292	-3.1312	-3.0542	-2.9708	-3.2979	-3.0438	386.484	329.022	128.365	387.830	152.873	345.349	379.094	432.320	200.300	380.723	265.405	217.575	270.191	326.202	364.409	307.453	0.00044854	0.00039585	6.1235e-05	1105.8	3.4774e-06	4.5238e-06	1143	201.7	1.6807e-06	1.5417e-06	233.93	69.443	54.556	15.307	3.6292e-06	21.524	0.0031383	0.0060097	0.0017529	1125.8	5.6859e-05	6.8016e-05	1163.1	207.97	5.5141e-05	6.8814e-05	245.14	72.947	57.356	16.484	6.1837e-05	23.365	117.199	238.664	157.891	111.194	244.034	259.604	110.941	118.803	216.178	156.803	118.164	124.588	124.829	132.151	266.007	131.359	-8191	255	
41104.484	1	1	0	0	0.079362	0.014991	0.10473	0.35178	0.13468	0.20414	0.30172	0.24838	0.13016	0.037233	0.12046	0.065405	0.14447	0.17648	0.056424	0.23895	-2.6479	-3.1521	-2.825	-3.225	-3.0812	-2.8229	-3.3479	-3.0458	-2.9292	-3.3354	-2.9688	-3.125	-3.0854	-2.9271	-3.1792	-2.9667	319.903	152.805	202.269	410.640	373.683	361.344	411.527	348.543	360.090	260.505	139.497	123.614	153.819	446.223	377.202	413.471	0.00047446	0.00015684	8.6728e-05	1103.2	9.3164e-06	1.7733e-06	1143.7	201.37	3.483e-06	3.8557e-06	232.53	69.27	54.023	15.329	3.596e-06	21.555	0.0031063	0.0060142	0.0017233	1123.5	5.5942e-05	6.7925e-05	1161.9	207.32	5.4691e-05	6.8294e-05	244.83	72.804	57.081	16.484	6.2073e-05	23.278	126.446	198.306	205.609	111.099	228.675	239.905	111.088	118.507	194.891	240.833	118.134	124.477	124.968	132.260	240.403	131.691	-8191	255	
41104.582	1	1	0	0	0.12134	0.11919	0.1508	0.26639	0.1005	0.042606	0.16792	0.13121	0.15091	0.14651	0.24746	0.11233	0.13599	0.14982	0.077875	0.22138	-2.4896	-3.1896	-2.8354	-3.2354	-3.0792	-2.85	-3.3229	-3.2	-3.0521	-3.0938	-2.9667	-2.975	-3.175	-2.7417	-2.9896	-3.0083	306.093	144.117	443.172	397.612	317.806	375.078	396.453	124.763	145.990	349.280	422.020	415.283	126.497	274.460	300.178	411.095	0.00042854	0.00056831	6.986e-05	1098.7	6.3351e-06	2.5301e-06	1140.7	200.9	5.1084e-06	6.4108e-06	233.52	68.983	54.141	15.274	4.355e-06	21.423	0.0031049	0.00604	0.0017067	1118.5	5.646e-05	6.8337e-05	1158	206.58	5.5703e-05	7.0061e-05	244.81	72.463	57.149	16.467	6.219e-05	23.288	117.899	179.781	190.898	111.212	214.047	235.127	111.000	118.767	226.878	187.089	118.319	124.901	124.949	132.679	205.663	131.830	-8191	255	
41104.680	1	1	0	0	0.25355	0.01487	0.16277	0.25211	0.066987	0.24576	0.15938	0.22972	0.30336	0.064873	0.21939	0.063899	0.094262	0.080677	0.17243	0.084828	-2.4208	-3.25	-2.7708	-3.1146	-3.0563	-2.9708	-3.1437	-3.2333	-2.9542	-3.125	-2.9521	-2.8937	-3.2	-2.9104	-2.9396	-3.1688	188.856	412.422	181.574	402.884	244.321	156.228	445.267	405.781	442.507	427.774	454.893	327.392	186.700	291.428	221.363	434.862	0.00053342	0.0007926	0.00020175	1095.6	5.2839e-06	3.7873e-06	1137.3	201.05	4.7178e-06	3.1261e-06	233.99	69.041	53.996	15.352	9.962e-06	21.361	0.003211	0.0062858	0.0017443	1117.9	5.7883e-05	7.1969e-05	1155.8	207.08	5.7804e-05	7.1976e-05	245.81	72.634	57.297	16.549	6.1502e-05	23.247	131.609	214.341	211.172	111.268	241.088	239.542	110.999	118.788	193.076	182.541	118.243	124.853	124.780	132.117	244.252	131.748	-8191	255	
41104.773	1	1	0	0	0.083367	0.32744	0.21313	0.058451	0.053853	0.12952	0.34736	0.11934	0.15374	0.020743	0.088022	0.26755	0.20368	0.056336	0.066663	0.29556	-2.4208	-3.1083	-2.9583	-2.9125	-3.2188	-2.8979	-3.2646	-3.3354	-2.7562	-3.175	-3.0438	-2.9646	-3.2375	-2.925	-3.0062	-3.1708	435.725	445.850	144.474	195.256	412.364	286.280	419.039	115.183	414.261	367.677	454.092	390.265	409.662	242.702	309.313	386.342	0.00039934	0.00055732	0.00017667	1097.6	2.3156e-06	4.1936e-06	1137	201.63	3.9645e-06	4.4534e-06	235.95	69.58	54.204	15.369	1.6702e-06	21.565	0.0032813	0.0063798	0.001707	1119.3	5.9905e-05	7.1901e-05	1157.4	207.39	5.8876e-05	7.2292e-05	246.17	72.968	57.292	16.553	6.0571e-05	23.314	118.440	210.936	260.606	111.380	189.092	315.654	110.994	118.820	206.035	231.310	118.453	125.057	124.816	132.601	214.615	131.313	-8191	255	
41104.871	1	1	0	0	0.16392	0.22696	0.091332	0.28666	0.18407	0.082847	0.0016934	0.19297	0.24987	0.33416	0.094923	0.14309	0.20547	0.18156	0.21892	0.21429	-2.2979	-2.975	-3.0146	-3.0438	-3.2354	-2.7562	-3.1021	-3.2896	-2.8438	-3.1562	-3.0708	-3.0604	-3.1437	-2.9458	-2.9771	-3.2604	241.804	197.311	324.969	444.554	460.535	121.609	180.000	455.890	241.124	391.814	372.776	440.080	453.951	272.833	270.190	324.249	0.00040497	0.00075227	7.5213e-05	1098	4.4199e-06	3.9836e-06	1142.7	201.25	4.3485e-06	5.172e-06	234.56	69.152	54.27	15.151	2.4322e-06	21.518	0.0032988	0.006354	0.0016679	1119.6	6.0962e-05	7.1065e-05	1159.1	207.43	5.9533e-05	7.1832e-05	245.92	72.655	57.345	16.466	5.9971e-05	23.317	116.209	179.846	183.286	111.117	208.985	193.626	110.918	118.612	208.881	275.190	118.146	124.540	124.860	132.227	203.618	131.693	-8191	255	
41104.969	1	1	0	0	0.29921	0.14054	0.25566	0.29278	0.20492	0.27657	0.15625	0.27025	0.12895	0.13995	0.12477	0.12075	0.17683	0.063877	0.09898	0.12377	-2.3625	-3.1417	-3.2479	-2.9354	-3.1958	-3.1458	-3.1146	-3.2979	-2.8458	-3.1188	-3.2438	-2.8979	-3.3187	-2.9667	-3.0167	-3.1188	409.220	364.374	227.149	127.089	445.279	283.705	388.131	396.030	242.259	455.306	336.203	341.031	171.135	298.678	210.319	303.240	0.00042336	0.00062907	7.7987e-05	1097.8	2.9533e-06	3.8389e-06	1142.1	201.89	3.3991e-06	1.7999e-06	236.09	69.645	54.407	15.251	3.0141e-06	21.456	0.0033647	0.006265	0.0016577	1120.1	5.9582e-05	7.0508e-05	1159	207.56	5.9555e-05	6.9514e-05	246.69	72.796	57.52	16.52	5.9443e-05	23.313	129.365	157.316	284.087	111.216	215.322	240.965	111.024	118.610	216.610	305.684	118.382	124.730	125.057	132.442	245.042	131.573	-8191	255	
41105.062	1	1	0	0	0.29155	0.12918	0.094686	0.19694	0.10359	0.16864	0.29331	0.17694	0.081441	0.10282	0.22828	0.20641	0.15587	0.22117	0.15676	0.093083	-2.3875	-3.0479	-3.1729	-2.8771	-3.1458	-3.0729	-2.8542	-3.2833	-2.9458	-2.8667	-3.0542	-2.875	-3.0292	-3.0875	-3.0104	-3.2854	132.746	148.161	172.671	394.949	359.444	199.713	344.142	242.245	151.563	147.181	378.046	427.158	407.527	312.282	371.368	131.585	0.00038895	0.00075606	7.0528e-05	1102.7	3.0915e-06	2.134e-06	1141.2	201.42	7.3915e-06	3.6878e-06	235.45	69.553	54.136	15.518	1.3528e-06	21.54	0.0032879	0.0062086	0.0016931	1124.2	5.978e-05	6.9123e-05	1158.9	208.03	5.9136e-05	6.8717e-05	247.11	72.935	57.321	16.586	6.2284e-05	23.364	127.145	194.969	360.405	111.528	244.995	250.422	111.125	118.908	191.422	315.968	118.270	124.406	125.217	132.447	207.148	131.767	-8191	255	
41105.184	1	1	0	0	0.099796	0.093056	0.11349	0.24811	0.20203	0.23267	0.25821	0.11314	0.18461	0.19282	0.17281	0.042334	0.078946	0.17411	0.2777	0.15907	-2.5042	-2.925	-3.1625	-3.1229	-3.1354	-2.9708	-3.1167	-3.3312	-2.925	-2.7583	-3.1521	-2.9479	-3.1396	-3.0708	-2.9	-3.1583	401.906	247.043	116.221	391.347	238.794	388.546	412.388	436.194	213.012	444.047	403.776	438.949	147.203	155.970	444.036	101.757	0.00054905	0.00030752	0.00012438	1098.3	3.3899e-06	3.0853e-06	1139.2	201.98	2.2289e-06	5.5314e-06	235.08	69.937	54.257	15.356	2.9958e-06	21.484	0.0033124	0.0060848	0.0017234	1122.3	6.041e-05	6.8427e-05	1159.5	208.07	5.9351e-05	6.8705e-05	247.75	73.212	57.337	16.526	6.3104e-05	23.358	123.146	178.759	233.326	111.176	297.232	255.113	111.198	118.583	178.471	300.182	118.188	124.922	124.856	132.702	265.911	131.768	-8191	255	
41105.281	1	1	0	0	0.14365	0.061942	0.26554	0.20193	0.1212	0.17391	0.18655	0.094133	0.059308	0.34473	0.051264	0.032723	0.36749	0.088178	0.025892	0.0027771	-2.7083	-2.9667	-3.2958	-3.0604	-3.15	-3.1458	-3.0271	-3.1854	-2.9979	-3.0438	-3.1854	-2.8521	-3.0604	-3.1583	-2.7833	-3.0667	122.715	326.991	371.117	143.090	262.710	173.600	409.201	449.013	278.609	107.035	304.983	130.983	194.825	143.757	106.333	285.196	0.00040079	0.00054379	0.00015141	1101.2	5.1154e-06	4.4911e-06	1144	202.12	2.8433e-06	3.3528e-06	236.06	69.652	54.524	15.227	8.5893e-07	21.458	0.003275	0.0060725	0.0017155	1122.5	6.0003e-05	6.7075e-05	1161.2	208.28	5.8386e-05	6.8269e-05	247.56	73.114	57.419	16.518	6.4249e-05	23.428	119.173	238.968	185.761	111.264	246.369	212.383	110.920	118.557	236.511	291.162	117.997	124.533	124.621	132.504	335.390	131.046	-8191	255	
41105.375	1	1	0	0	0.12574	0.11493	0.085551	0.28241	0.080356	0.16225	0.22779	0.03502	0.20536	0.029397	0.13712	0.19321	0.04247	0.16512	0.22482	0.1996	-2.6083	-2.9729	-3.1979	-3.1063	-3.0354	-3.0604	-2.8854	-3.1583	-2.7979	-2.8771	-3.1937	-2.8708	-3.0271	-3.275	-3	-3	302.071	400.548	380.440	442.186	157.365	110.920	393.832	384.370	391.153	398.074	311.522	334.191	350.213	134.762	329.985	118.698	0.00041468	0.00031098	0.00011409	1100.7	5.3036e-06	5.6642e-06	1139.8	201.92	3.3332e-06	6.062e-06	234.99	69.072	54.42	15.377	3.1959e-06	21.475	0.0032613	0.0061648	0.0017611	1123.3	5.8313e-05	6.8007e-05	1160.1	208.05	5.7332e-05	6.9044e-05	247.49	72.92	57.469	16.55	6.4032e-05	23.363	120.901	158.174	258.972	111.326	239.917	233.666	110.999	118.944	244.879	236.062	117.968	124.675	124.901	132.283	125.357	131.347	-8191	255	
41105.473	1	1	0	0	0.13494	0.053509	0.13083	0.11165	0.077023	0.16752	0.11616	0.26081	0.27253	0.083296	0.13622	0.24073	0.18339	0.15121	0.16085	0.26723	-2.7	-2.8021	-3.2958	-3.325	-2.9396	-3.2729	-3.1229	-3.2417	-3.0438	-2.8917	-3.3937	-2.9667	-2.9938	-3.3396	-2.8646	-3.0229	112.204	327.445	346.087	182.947	399.606	311.764	387.328	336.799	184.372	171.147	143.443	287.381	270.722	387.138	221.697	314.724	0.00039342	0.00039052	2.3161e-05	1100.5	4.3492e-06	3.6846e-06	1140.8	202.52	4.6813e-06	5.6023e-06	236.71	69.373	54.471	15.418	5.4939e-06	21.482	0.0031946	0.0061564	0.0017705	1122.3	5.757e-05	7.0998e-05	1161.2	208.04	5.6759e-05	7.0374e-05	248.03	72.908	57.465	16.594	6.249e-05	23.377	120.937	119.082	116.192	111.186	194.414	205.406	111.018	118.850	176.622	306.319	118.417	124.914	124.925	132.649	204.807	131.420	-8191	255	
41105.590	1	1	0	0	0.078149	0.24094	0.12769	0.38795	0.10144	0.10304	0.064395	0.31957	0.23295	0.089619	0.19873	0.17112	0.086815	0.073125	0.12455	0.0099322	-2.6875	-2.8979	-3.2458	-3.1625	-2.9292	-3.1604	-2.9583	-3.0854	-3.05	-2.7542	-3.2604	-3.1125	-2.9208	-3.1625	-2.8729	-3.0438	363.173	114.271	323.390	453.017	203.817	154.235	136.374	108.219	241.857	139.765	139.831	120.884	217.943	385.417	381.282	299.714	0.00038077	0.00052671	7.3329e-05	1102.9	7.0138e-06	1.0313e-06	1140.8	201.39	4.2826e-06	7.5511e-06	236.02	69.377	54.453	15.395	5.3874e-06	21.513	0.0031661	0.0062516	0.0017145	1121.8	5.6797e-05	7.0187e-05	1159.2	207.48	5.545e-05	7.0838e-05	247.41	72.909	57.383	16.569	6.2659e-05	23.323	124.926	127.800	188.966	111.162	277.070	307.338	111.039	118.472	193.200	239.008	118.512	124.689	124.699	132.437	267.002	131.581	-8191	255	
41105.660	1	1	0	0	0.22365	0.13007	0.077415	0.19995	0.12586	0.32088	0.069977	0.1956	0.23085	0.32873	0.23378	0.083192	0.15713	0.29114	0.17638	0.14344	-2.7271	-2.7083	-3.0667	-3.1896	-2.7792	-3.1854	-3.1354	-2.9125	-3.2	-2.7812	-3.0979	-2.9896	-2.8104	-3.1229	-3.0812	-3.0792	138.244	165.418	449.885	352.538	153.051	186.300	255.471	414.491	414.776	309.625	147.342	212.562	264.494	336.219	279.073	452.268	0.00033357	0.00040201	7.5082e-06	1100.7	7.4714e-06	3.9304e-06	1138.1	201.68	6.4487e-06	3.5691e-06	236.16	69.434	54.107	15.303	3.4896e-06	21.581	0.0031546	0.006262	0.0017411	1120	5.7267e-05	7.045e-05	1159.8	207.45	5.6895e-05	7.1325e-05	247.47	72.695	57.382	16.539	6.2319e-05	23.336	117.158	110.065	335.176	111.241	243.825	245.141	110.965	118.748	195.382	397.694	118.295	124.755	124.744	132.534	216.980	132.012	-8191	255	
41105.781	1	1	0	0	0.14608	0.059866	0.17505	0.20122	0.11756	0.17623	0.04756	0.18856	0.041024	0.049781	0.22998	0.063914	0.23689	0.084173	0.023094	0.14878	-2.8187	-2.7771	-3.0542	-3.1458	-2.8063	-3.25	-3.1688	-3.0312	-3.0771	-2.7458	-3.0187	-3.1042	-2.8	-3.1771	-2.9062	-2.8042	451.885	275.514	184.809	131.627	454.414	360.091	408.721	442.211	395.292	292.524	444.283	212.181	269.584	406.379	285.265	103.512	0.00047436	0.00044916	8.8567e-05	1101.2	6.9308e-06	8.4254e-06	1136.3	201.77	4.6483e-06	7.2848e-06	236.18	69.404	54.574	15.308	7.8011e-06	21.675	0.003185	0.0062461	0.0017026	1120.8	5.7549e-05	7.0923e-05	1158.5	207.53	5.6504e-05	7.0329e-05	247.27	72.631	57.348	16.549	5.9871e-05	23.3	121.675	197.875	236.608	111.215	225.571	277.385	110.795	118.635	197.149	282.354	118.317	124.570	125.151	132.361	238.330	131.285	-8191	255	
41105.879	1	1	0	0	0.038725	0.044798	0.16889	0.34034	0.049943	0.2263	0.12782	0.06399	0.17312	0.19951	0.16702	0.11769	0.052988	0.25317	0.080907	0.068776	-2.8688	-2.9125	-2.9958	-3.2438	-2.9833	-3.25	-3.4083	-2.9521	-3.2354	-2.9583	-3.0583	-3.3271	-2.8333	-3.2062	-3.0771	-2.7708	348.033	384.103	376.793	101.049	208.968	369.234	430.079	125.241	271.377	276.420	107.579	361.710	322.409	388.700	132.305	357.066	0.00041648	0.00033382	0.00011529	1101.2	9.6824e-07	3.1419e-06	1139	202.09	1.0542e-05	3.6405e-06	238.34	69.434	54.509	15.371	1.494e-06	21.375	0.0032026	0.0061328	0.0016561	1121.9	5.8738e-05	7.0697e-05	1158.4	207.7	5.7247e-05	7.0005e-05	247.85	72.686	57.326	16.541	5.9047e-05	23.268	125.783	205.343	282.838	111.097	163.741	192.609	110.783	118.881	212.252	325.519	117.957	124.451	125.222	132.306	352.556	131.398	-8191	255	
41105.977	1	1	0	0	0.226	0.11752	0.20754	0.061917	0.05507	0.37759	0.094232	0.23473	0.088209	0.10317	0.1508	0.066256	0.15932	0.15316	0.23593	0.18261	-2.7521	-2.8854	-2.8792	-3.3542	-2.675	-2.9625	-3.1437	-3.1562	-3.1854	-2.9562	-2.9521	-3.1417	-2.7833	-2.9771	-3.2271	-2.8333	115.628	178.164	382.804	430.597	387.672	296.998	387.322	356.233	307.099	388.641	115.019	175.628	240.731	277.644	266.180	331.987	0.0003946	0.00056498	6.8177e-05	1098.9	3.0722e-06	5.4354e-06	1142.8	201.09	2.6477e-06	2.7443e-06	236.49	69.125	54.524	15.508	5.8888e-06	21.725	0.0032174	0.0061619	0.0016642	1121.5	5.9875e-05	6.9837e-05	1160	207.86	5.791e-05	6.9577e-05	248.14	72.836	57.554	16.636	5.9918e-05	23.455	109.854	166.541	251.213	111.310	260.199	274.585	111.040	118.513	198.608	457.870	118.371	124.316	124.949	132.335	231.301	131.414	-8191	255	
41106.070	1	1	0	0	0.097836	0.071999	0.098767	0.19596	0.087112	0.015958	0.3392	0.25897	0.22043	0.088409	0.23424	0.27548	0.17989	0.17476	0.09693	0.25132	-2.5042	-3.0646	-3.0896	-3.0917	-2.9083	-3.2542	-3.3438	-3.0146	-3.1375	-3.0625	-3.0292	-3.3021	-2.9396	-3.0083	-3.2042	-2.8708	420.093	285.067	252.666	449.174	150.441	460.297	389.826	454.888	284.870	322.666	363.559	119.146	364.213	216.841	253.504	125.297	0.0003925	0.00050003	0.00016131	1101.9	5.9402e-06	4.15e-06	1143.4	202.24	4.7878e-06	4.3965e-06	238.27	69.66	54.727	15.259	4.3505e-06	21.593	0.003294	0.0062062	0.0016666	1123	5.9026e-05	6.8357e-05	1161.4	208.12	5.7709e-05	6.7674e-05	248.74	72.979	57.593	16.53	5.886e-05	23.387	121.810	250.611	169.364	111.353	154.244	301.597	111.110	118.589	214.986	254.421	118.002	124.806	124.555	132.588	289.604	131.504	-8191	255	
41106.168	1	1	0	0	0.065034	0.15437	0.13687	0.19122	0.12423	0.093585	0.18211	0.14435	0.27325	0.071399	0.23727	0.10619	0.40443	0.32965	0.20635	0.19869	-2.6521	-2.9375	-2.8167	-3.4146	-2.8438	-3.0667	-3.4208	-2.9167	-3.0583	-2.9979	-2.8833	-3.3667	-2.9125	-2.925	-3.1625	-2.7375	220.514	332.587	317.082	379.073	263.224	341.848	375.723	443.107	388.804	321.435	391.603	237.083	384.100	394.111	180.277	126.586	0.00045848	0.00059474	0.000171	1107.5	5.7859e-06	6.1165e-06	1138.9	202.57	3.5179e-06	3.4246e-06	236.63	69.512	54.66	15.312	7.2469e-06	21.674	0.0032414	0.0058377	0.0016513	1124.9	5.7703e-05	6.4401e-05	1159.5	208.49	5.6545e-05	6.5084e-05	247.87	72.982	57.62	16.548	5.8993e-05	23.366	120.987	247.542	191.263	111.217	249.350	262.996	110.997	118.675	160.302	239.817	118.242	125.169	125.054	132.580	302.906	131.501	-8191	255	
41106.266	1	1	0	0	0.13902	0.4262	0.16136	0.17316	0.10266	0.13884	0.22046	0.16534	0.16214	0.30501	0.14014	0.065911	0.049663	0.030312	0.23716	0.087773	-2.7062	-3.1354	-2.775	-3.1271	-2.9875	-2.8875	-3.1792	-2.9146	-3.0208	-3.1583	-2.8542	-3.2458	-3.0917	-2.8292	-3.1271	-2.7792	301.220	138.108	422.281	353.240	209.906	375.022	365.568	167.031	255.379	213.609	237.107	393.813	454.260	133.318	377.970	404.654	0.00047008	0.00055685	0.00016511	1106	6.3111e-06	7.5041e-06	1142.7	201.81	6.3038e-06	5.2184e-06	238.05	69.631	54.68	15.345	4.383e-06	21.677	0.003174	0.0057811	0.0016472	1124.6	5.7551e-05	6.5391e-05	1161.1	207.97	5.6085e-05	6.615e-05	247.92	73.141	57.457	16.593	6.041e-05	23.368	122.965	161.761	178.262	111.159	226.487	297.414	110.959	118.676	243.326	103.198	118.445	124.728	125.036	132.113	199.610	131.469	-8191	255	
41106.359	1	1	0	0	0.054077	0.077055	0.16018	0.17095	0.37475	0.14312	0.045613	0.093517	0.18254	0.2363	0.032729	0.17055	0.21788	0.25474	0.079123	0.22803	-2.7062	-2.9833	-2.7771	-3.2396	-3.0479	-2.8958	-3.2313	-2.9875	-2.8688	-3.2333	-3	-3.1083	-3.0583	-2.8	-3.25	-2.8729	373.168	272.800	435.790	371.323	368.783	169.513	379.132	346.738	427.647	290.967	342.622	405.263	432.545	182.102	457.698	255.870	0.00038463	0.00031808	4.2768e-05	1104	5.5614e-06	6.0556e-06	1141.4	202.35	6.4732e-06	4.2305e-06	236.86	69.432	54.559	15.326	4.88e-06	21.602	0.0031156	0.0058677	0.0016747	1125.1	5.6839e-05	6.675e-05	1162.2	208.05	5.4667e-05	6.7601e-05	248.14	72.832	57.555	16.577	6.078e-05	23.396	123.789	299.609	319.517	111.177	275.879	186.243	111.083	118.777	229.026	323.206	118.240	124.532	124.976	132.603	309.728	131.415	-8191	255	
41106.457	1	1	0	0	0.021247	0.038032	0.18785	0.2268	0.2649	0.25949	0.14288	0.13474	0.21368	0.18492	0.11543	0.097107	0.45537	0.15736	0.071057	0.11327	-2.3854	-3.0083	-2.6688	-3.1063	-3.0292	-2.9583	-3.4562	-3.2271	-2.9688	-3.0646	-2.9771	-3.0563	-2.9562	-2.8771	-3.2438	-2.9667	174.865	118.982	359.635	430.827	404.484	154.225	135.713	244.256	328.224	223.173	331.381	427.572	101.515	316.589	141.700	282.114	0.00044828	0.00053922	0.00012181	1107.3	3.3439e-06	6.6283e-06	1146	201.75	4.4017e-06	1.1569e-05	237.07	69.215	54.838	15.477	3.6731e-06	21.611	0.0030922	0.0059405	0.0017238	1126.7	5.6304e-05	6.7706e-05	1164.3	207.81	5.5475e-05	6.7523e-05	248.1	72.928	57.567	16.611	6.2261e-05	23.348	127.568	174.478	180.940	111.137	248.697	258.614	110.888	118.492	229.357	200.649	118.491	124.729	125.396	132.603	237.181	131.776	-8191	255	
41106.551	1	1	0	0	0.15289	0.15448	0.043425	0.1079	0.14016	0.23163	0.087904	0.061116	0.15024	0.12371	0.21316	0.23402	0.19972	0.16749	0.26534	0.15046	-2.5229	-3.1625	-2.8604	-3.2062	-3.1875	-2.8917	-3.4437	-3.1271	-2.9708	-3.1146	-2.925	-3.0354	-3.3063	-2.7938	-3.0687	-3.0187	317.333	397.818	118.528	111.934	367.911	296.636	440.614	111.317	354.433	437.768	139.980	128.647	343.402	292.616	241.947	399.476	0.00031747	0.00015348	0.0002147	1104.3	3.2264e-06	2.3442e-06	1143.9	202.38	1.9586e-06	3.8512e-06	236.41	69.61	54.693	15.397	3.3635e-06	21.697	0.0030918	0.0059665	0.0017191	1126	5.5498e-05	6.8553e-05	1164.3	208.16	5.4e-05	6.8536e-05	247.77	72.872	57.527	16.603	6.2266e-05	23.36	109.771	133.661	196.142	110.958	193.313	244.188	110.983	118.477	377.785	248.040	118.119	124.778	124.821	132.246	294.350	131.709	-8191	255	
41106.672	1	1	0	0	0.1148	0.13116	0.26529	0.10268	0.18778	0.15885	0.16162	0.20353	0.061826	0.24772	0.1237	0.27642	0.23959	0.17757	0.13935	0.19841	-2.5021	-3.2021	-2.8083	-3.2667	-3.2313	-2.7812	-3.2125	-3.1333	-2.8375	-3.2313	-3.0667	-2.95	-3.3667	-2.8792	-3.1729	-3.1146	187.698	441.636	414.006	133.293	242.337	349.168	375.819	436.744	417.878	300.900	299.808	433.368	136.720	204.753	270.161	269.880	0.00032853	0.00025354	0.00010099	1107.2	9.6096e-06	6.0111e-06	1144.3	203.05	5.0372e-06	4.0528e-06	238.3	69.938	54.84	15.461	4.9303e-06	21.672	0.0030844	0.0061974	0.0017119	1126.3	5.6138e-05	6.9883e-05	1163.8	208.36	5.5926e-05	6.9474e-05	248.47	72.894	57.582	16.671	6.1974e-05	23.341	118.777	206.959	238.337	111.217	251.005	190.161	110.890	118.600	281.932	219.953	118.332	124.815	125.100	132.738	263.923	131.143	-8191	255	
41106.766	1	1	0	0	0.10194	0.062187	0.31142	0.1173	0.029952	0.043693	0.19736	0.15141	0.11022	0.057612	0.15464	0.016834	0.13195	0.064988	0.10864	0.2674	-2.3104	-3.2562	-2.8625	-3.1021	-3.2354	-2.8229	-3.0458	-3.1937	-2.7917	-3.2417	-3.2083	-2.9375	-3.2979	-2.9042	-2.9646	-3.0104	341.783	114.518	276.470	101.211	275.501	309.926	439.347	409.539	235.699	267.328	177.350	409.509	294.169	154.418	181.222	396.311	0.0003796	0.00025066	7.3129e-05	1102.8	7.2676e-06	2.1833e-06	1145.9	202.59	3.3643e-06	3.8646e-06	236.07	69.446	54.538	15.425	8.6181e-06	21.623	0.0031756	0.0061752	0.0017282	1124.3	5.6234e-05	7.0586e-05	1164.6	208.58	5.6e-05	7.1418e-05	247.55	72.899	57.509	16.636	6.0554e-05	23.31	134.045	225.103	268.521	111.269	297.987	291.961	111.178	118.606	189.299	161.919	118.249	124.633	125.109	132.054	305.519	131.652	-8191	255	
41106.863	1	1	0	0	0.27526	0.17737	0.36469	0.2638	0.18797	0.04554	0.18616	0.24469	0.28988	0.1618	0.081462	0.050186	0.23538	0.07932	0.15823	0.24102	-2.525	-3.1833	-2.7146	-3.1125	-3.1604	-2.9708	-3.1667	-3.25	-2.9542	-3.1437	-2.925	-2.9125	-3.3292	-2.8729	-2.9792	-3.1729	321.617	448.182	126.329	417.094	295.671	130.264	435.120	319.811	150.758	150.713	352.956	324.083	208.429	186.880	431.607	449.617	0.00038812	0.00032001	5.7943e-05	1104.8	7.532e-06	5.4157e-06	1145.8	202.28	4.9943e-06	5.2304e-06	237.18	69.413	54.583	15.425	1.4987e-06	21.429	0.0031368	0.0061864	0.0016639	1126.5	5.732e-05	6.9448e-05	1164.8	208.13	5.5943e-05	6.9563e-05	247.35	72.784	57.653	16.594	5.8572e-05	23.304	117.940	169.731	235.761	111.259	244.780	250.558	110.947	118.669	192.128	159.769	118.181	124.648	124.588	132.167	224.421	131.390	-8191	255	
41106.961	1	1	0	0	0.15758	0.158	0.09618	0.31223	0.070589	0.11926	0.18101	0.17697	0.098941	0.093262	0.0629	0.049842	0.24795	0.22151	0.2446	0.073053	-2.2646	-3.1771	-2.9833	-3.0438	-3.2521	-3.0708	-3.2917	-3.45	-2.9646	-3.0917	-3.1729	-2.95	-3.1708	-2.9708	-3.0667	-3.125	170.142	212.867	168.662	397.244	310.181	147.713	402.312	342.086	457.244	316.165	105.867	137.306	247.618	283.310	147.573	221.960	0.00046568	0.000112	7.0591e-05	1106.6	3.2715e-06	2.9498e-06	1145	203.48	9.2708e-06	3.5349e-06	236.63	69.33	54.707	15.407	6.0655e-06	21.62	0.0032413	0.0061417	0.0016261	1127	5.8138e-05	6.9056e-05	1163.1	208.17	5.7978e-05	6.8993e-05	247.41	72.917	57.628	16.597	5.8171e-05	23.332	108.787	184.081	231.536	111.281	273.354	221.473	110.949	118.457	208.458	244.736	118.112	125.074	124.800	132.251	187.751	132.212	-8191	255	
41107.055	1	1	0	0	0.16789	0.10816	0.2195	0.091555	0.059479	0.16525	0.23648	0.077205	0.15257	0.11626	0.10506	0.093358	0.12921	0.10321	0.15838	0.3854	-2.3521	-3.0229	-3.0479	-2.9813	-3.1562	-2.7562	-3.1833	-3.375	-2.9979	-3.0687	-3.1479	-2.8396	-3.1208	-3.0021	-2.9292	-3.425	216.298	157.384	142.533	250.445	271.590	424.345	357.314	166.948	356.206	139.581	424.953	232.467	426.038	325.746	413.683	438.975	0.00041234	0.00016516	0.00019986	1108.5	6.4217e-06	5.7936e-07	1143.1	201.91	1.6852e-06	9.0732e-07	235.88	70.003	54.461	15.512	4.5602e-06	21.649	0.0032706	0.0060998	0.0016164	1126.8	5.8604e-05	6.7019e-05	1162.9	208.02	5.7656e-05	6.8364e-05	247.61	73.052	57.511	16.597	5.8212e-05	23.401	114.377	242.493	213.535	111.221	265.089	168.494	110.990	118.630	388.623	309.782	118.234	124.777	124.985	132.348	223.344	131.954	-8191	255	
41107.152	1	1	0	0	0.217	0.020599	0.1229	0.36525	0.075517	0.25753	0.055398	0.32488	0.11168	0.30818	0.28323	0.18548	0.069855	0.21746	0.23051	0.2409	-2.4938	-3.05	-3.1188	-2.8771	-3.1542	-2.9104	-3.0104	-3.3229	-2.9938	-2.8688	-3.2208	-2.9896	-3.1167	-3.0396	-2.8979	-3.0812	390.030	174.887	188.635	421.788	328.166	289.245	297.067	344.543	376.400	238.601	384.967	452.633	204.731	460.503	426.236	400.901	0.00045711	0.00039696	0.00023163	1106.1	4.6375e-06	5.5758e-06	1144.7	202.62	5.8476e-06	3.809e-06	235.89	69.792	54.481	15.393	4.7861e-06	21.723	0.0032798	0.0059526	0.0016036	1126.7	5.8368e-05	6.5809e-05	1162.9	208.46	5.7163e-05	6.6443e-05	247.76	73.002	57.543	16.585	5.7947e-05	23.445	127.972	214.448	141.988	111.204	246.318	341.241	110.987	118.931	184.473	296.208	118.385	124.639	124.880	132.164	186.596	131.651	-8191	255	
41107.273	1	1	0	0	0.10647	0.33544	0.051505	0.080365	0.12093	0.17222	0.091625	0.12151	0.10675	0.046694	0.2278	0.23583	0.19274	0.011022	0.035173	0.17214	-2.5938	-2.8417	-3.2687	-2.9333	-3.0917	-3.0958	-3.0542	-3.2271	-2.9313	-2.8604	-3.2562	-2.9562	-3.0917	-3.1188	-2.8229	-3.3375	221.583	211.032	114.288	231.102	150.482	265.483	189.341	163.831	102.928	110.135	401.316	137.279	412.186	208.130	398.118	159.968	0.00037527	0.00055404	0.00011212	1105.8	5.2888e-06	5.28e-06	1142.1	202.59	4.4532e-06	3.9802e-06	236.71	69.457	55.183	15.32	7.6445e-06	21.662	0.0032058	0.0058325	0.0016293	1125.3	5.8356e-05	6.5966e-05	1161.2	208.34	5.7133e-05	6.6824e-05	247.58	72.932	57.738	16.616	6.0745e-05	23.401	133.310	267.216	247.075	111.347	226.592	277.433	111.125	118.660	286.881	235.795	118.169	124.680	125.190	132.414	310.443	131.344	-8191	255	
41107.367	1	1	0	0	0.12536	0.21097	0.025937	0.10121	0.33751	0.093858	0.26359	0.20128	0.15158	0.12054	0.2329	0.14444	0.3248	0.28115	0.35584	0.037707	-2.7125	-2.7167	-3.3583	-3.05	-3.0312	-3.1042	-3.1167	-3.2062	-3.1958	-3.0271	-3.45	-2.9833	-3.0187	-3.2687	-2.9062	-3.3229	370.896	279.515	386.057	400.527	316.249	139.814	426.719	342.245	381.158	386.650	416.253	240.281	144.521	345.110	344.062	160.900	0.00042577	0.00014939	3.385e-05	1104.5	1.3541e-06	3.6427e-06	1144.7	202.1	5.7822e-06	4.1534e-06	235.47	69.747	54.638	15.414	3.2296e-06	21.586	0.0032293	0.0059495	0.001713	1125.7	5.7221e-05	6.71e-05	1163.6	208.34	5.6794e-05	6.7874e-05	247.51	73.042	57.606	16.584	6.1975e-05	23.383	135.785	243.353	413.989	111.324	222.114	269.057	110.838	118.683	232.171	310.904	118.338	124.191	124.871	132.367	189.118	131.574	-8191	255	
41107.465	1	1	0	0	0.10406	0.21015	0.071798	0.38786	0.17503	0.1249	0.33415	0.14102	0.22482	0.14079	0.024795	0.14614	0.20688	0.049758	0.087443	0.16221	-2.5438	-3.0146	-3.1729	-3.0458	-2.9625	-3.4042	-3.0292	-3.1104	-3.2042	-2.8146	-3.3708	-2.9521	-2.8708	-3.2188	-2.8146	-3.1229	112.030	312.148	108.957	407.724	193.226	104.068	416.456	380.082	269.952	344.055	322.236	427.521	144.373	338.524	247.754	375.605	0.00031636	0.00081214	4.0523e-05	1106.4	3.267e-06	2.8964e-06	1143.8	202.26	4.0873e-06	4.444e-07	237	69.242	54.841	15.405	6.1283e-06	21.648	0.0031264	0.0060026	0.0017316	1126.5	5.6735e-05	6.7333e-05	1162.7	208.5	5.5657e-05	6.835e-05	248.06	72.978	57.508	16.588	6.2424e-05	23.412	118.912	212.512	103.890	111.251	252.816	280.086	110.837	118.833	225.294	455.463	118.064	124.600	125.238	132.273	258.887	132.011	-8191	255	
41107.559	1	1	0	0	0.27294	0.1576	0.15184	0.1925	0.20632	0.088611	0.19026	0.22294	0.18244	0.058229	0.23747	0.26434	0.21345	0.15976	0.12495	0.26777	-2.6104	-2.6688	-3.0687	-3.2146	-3.0146	-3.1417	-2.9667	-3.0687	-3.0938	-3.0104	-3.3167	-3.0208	-2.9958	-3.1667	-3.0292	-3.2021	193.097	192.878	239.103	343.185	145.743	177.373	399.297	352.488	256.065	272.094	120.445	421.753	162.721	120.332	286.771	346.925	0.00048421	0.00057132	0.00011436	1103.6	2.7871e-06	2.9116e-06	1141.8	201.66	6.9947e-06	1.4253e-06	236.54	69.515	54.656	15.356	6.0066e-06	21.335	0.0030709	0.006013	0.0017111	1124.7	5.4863e-05	6.7465e-05	1161.3	208.01	5.405e-05	6.9373e-05	247.51	72.968	57.455	16.592	6.2174e-05	23.284	119.251	187.966	202.631	111.178	217.825	239.989	111.087	118.581	196.217	116.056	118.447	124.766	124.831	132.150	234.150	131.580	-8191	255	
#DATA ENDS
