BOXY.EXE: ISS Imagent and Oximeter Data Acquisition Program Version 0.80
Ascii Record File

#ACQ INFORMATION
2  Detector Channels 
16  External MUX Channels 
1  Auxiliary Channels 
5000  Waveform (CCF) Frequency (Hz)
1  Waveforms Skipped 
30  Waveforms Averaged 
1  Cycles Averaged 
16  Acquisitions per Waveform 
10.0806  Updata Rate (Hz) 

#FILE INFORMATION
TRUE -- External MUX Channel results are PARSED.
FALSE -- AC DC and Phase are NOT grouped.
TRUE -- Companion Program Settings File CREATED.
FALSE -- AC data not excluded
FALSE -- DC data not excluded
FALSE -- Phase data not excluded
FALSE -- Auxillary Chn. data not excluded
Tab delimiters

#CALIBRATION STATE
TRUE -- Waveform Calibration Values APPLIED.


#AUX CALIBRATION VALUES
Val Type	aux-1	

Term	1.0000e+00	
Factor	0.0000e+00	


#WF CALIBRATION VALUES
A = Detector Channel
Val Type	A-AC1	A-AC2	A-AC3	A-AC4	A-AC5	A-AC6	A-AC7	A-AC8	A-AC9	A-AC10	A-AC11	A-AC12	A-AC13	A-AC14	A-AC15	A-AC16	A-DC1	A-DC2	A-DC3	A-DC4	A-DC5	A-DC6	A-DC7	A-DC8	A-DC9	A-DC10	A-DC11	A-DC12	A-DC13	A-DC14	A-DC15	A-DC16	A-Ph1	A-Ph2	A-Ph3	A-Ph4	A-Ph5	A-Ph6	A-Ph7	A-Ph8	A-Ph9	A-Ph10	A-Ph11	A-Ph12	A-Ph13	A-Ph14	A-Ph15	A-Ph16	

Term	0.00000e+00	0.00000e+00	0.00000e+00	0.00000e+00	0.00000e+00	0.00000e+00	0.00000e+00	0.00000e+00	0.00000e+00	0.00000e+00	0.00000e+00	0.00000e+00	0.00000e+00	0.00000e+00	0.00000e+00	0.00000e+00	0.00000e+00	0.00000e+00	0.00000e+00	0.00000e+00	0.00000e+00	0.00000e+00	0.00000e+00	0.00000e+00	0.00000e+00	0.00000e+00	0.00000e+00	0.00000e+00	0.00000e+00	0.00000e+00	0.00000e+00	0.00000e+00	0.00000e+00	0.00000e+00	0.00000e+00	0.00000e+00	0.00000e+00	0.00000e+00	0.00000e+00	0.00000e+00	0.00000e+00	0.00000e+00	0.00000e+00	0.00000e+00	0.00000e+00	0.00000e+00	0.00000e+00	0.00000e+00	
Factor	1.00000e+00	1.00000e+00	1.00000e+00	1.00000e+00	1.00000e+00	1.00000e+00	1.00000e+00	1.00000e+00	1.00000e+00	1.00000e+00	1.00000e+00	1.00000e+00	1.00000e+00	1.00000e+00	1.00000e+00	1.00000e+00	1.00000e+00	1.00000e+00	1.00000e+00	1.00000e+00	1.00000e+00	1.00000e+00	1.00000e+00	1.00000e+00	1.00000e+00	1.00000e+00	1.00000e+00	1.00000e+00	1.00000e+00	1.00000e+00	1.00000e+00	1.00000e+00	X	X	X	X	X	X	X	X	X	X	X	X	X	X	X	X	

B = Detector Channel
Val Type	B-AC1	B-AC2	B-AC3	B-AC4	B-AC5	B-AC6	B-AC7	B-AC8	B-AC9	B-AC10	B-AC11	B-AC12	B-AC13	B-AC14	B-AC15	B-AC16	B-DC1	B-DC2	B-DC3	B-DC4	B-DC5	B-DC6	B-DC7	B-DC8	B-DC9	B-DC10	B-DC11	B-DC12	B-DC13	B-DC14	B-DC15	B-DC16	B-Ph1	B-Ph2	B-Ph3	B-Ph4	B-Ph5	B-Ph6	B-Ph7	B-Ph8	B-Ph9	B-Ph10	B-Ph11	B-Ph12	B-Ph13	B-Ph14	B-Ph15	B-Ph16	

Term	0.00000e+00	0.00000e+00	0.00000e+00	0.00000e+00	0.00000e+00	0.00000e+00	0.00000e+00	0.00000e+00	0.00000e+00	0.00000e+00	0.00000e+00	0.00000e+00	0.00000e+00	0.00000e+00	0.00000e+00	0.00000e+00	0.00000e+00	0.00000e+00	0.00000e+00	0.00000e+00	0.00000e+00	0.00000e+00	0.00000e+00	0.00000e+00	0.00000e+00	0.00000e+00	0.00000e+00	0.00000e+00	0.00000e+00	0.00000e+00	0.00000e+00	0.00000e+00	-1.56410e+02	-1.27925e+02	-1.23922e+02	-1.82673e+02	-7.57512e+01	-6.11924e+01	-1.55323e+02	-1.62015e+02	-8.33286e+01	-6.57451e+01	-1.72119e+02	-1.69838e+02	-1.79785e+02	-1.77170e+02	-7.38895e+01	-1.49034e+02	
Factor	2.27176e-05	1.55070e-04	4.33590e-05	1.76889e-01	1.36821e-06	1.78199e-06	1.63072e-01	4.85717e-02	1.34987e-06	1.70672e-06	9.20508e-02	2.79817e-02	2.79836e-02	8.82360e-03	1.44751e-06	1.26394e-02	1.41485e-05	2.59860e-05	7.31483e-06	8.80964e-02	2.56862e-07	2.96358e-07	7.67068e-02	2.43435e-02	2.54028e-07	2.93281e-07	4.48789e-02	1.37183e-02	1.41984e-02	4.46541e-03	2.69071e-07	6.22161e-03	X	X	X	X	X	X	X	X	X	X	X	X	X	X	X	X	



#DISTANCE SETTINGS
A = Detector Channel
A-1	A-2	A-3	A-4	A-5	A-6	A-7	A-8	A-9	A-10	A-11	A-12	A-13	A-14	A-15	A-16	

2.5000e+00	3.0000e+00	2.5000e+00	3.0000e+00	2.0000e+00	3.0000e+00	1.5000e+00	3.0000e+00	3.0000e+00	3.0000e+00	3.0000e+00	3.0000e+00	3.0000e+00	3.0000e+00	1.5000e+00	3.0000e+00	

B = Detector Channel
B-1	B-2	B-3	B-4	B-5	B-6	B-7	B-8	B-9	B-10	B-11	B-12	B-13	B-14	B-15	B-16	

1.0000e+01	1.0000e+01	1.0000e+01	1.4400e+00	1.0000e+01	1.0000e+01	1.5100e+00	1.9400e+00	1.0000e+01	1.0000e+01	1.9900e+00	2.4900e+00	2.4100e+00	2.9000e+00	1.0000e+01	2.9800e+00	




#DATA BEGINS
time	group	step	mark	flag	A-AC1	A-AC2	A-AC3	A-AC4	A-AC5	A-AC6	A-AC7	A-AC8	A-AC9	A-AC10	A-AC11	A-AC12	A-AC13	A-AC14	A-AC15	A-AC16	A-DC1	A-DC2	A-DC3	A-DC4	A-DC5	A-DC6	A-DC7	A-DC8	A-DC9	A-DC10	A-DC11	A-DC12	A-DC13	A-DC14	A-DC15	A-DC16	A-Ph1	A-Ph2	A-Ph3	A-Ph4	A-Ph5	A-Ph6	A-Ph7	A-Ph8	A-Ph9	A-Ph10	A-Ph11	A-Ph12	A-Ph13	A-Ph14	A-Ph15	A-Ph16	B-AC1	B-AC2	B-AC3	B-AC4	B-AC5	B-AC6	B-AC7	B-AC8	B-AC9	B-AC10	B-AC11	B-AC12	B-AC13	B-AC14	B-AC15	B-AC16	B-DC1	B-DC2	B-DC3	B-DC4	B-DC5	B-DC6	B-DC7	B-DC8	B-DC9	B-DC10	B-DC11	B-DC12	B-DC13	B-DC14	B-DC15	B-DC16	B-Ph1	B-Ph2	B-Ph3	B-Ph4	B-Ph5	B-Ph6	B-Ph7	B-Ph8	B-Ph9	B-Ph10	B-Ph11	B-Ph12	B-Ph13	B-Ph14	B-Ph15	B-Ph16	aux-1	digaux	

25369.816	1	1	0	768	0.15154	0.086673	0.097041	0.17574	0.19489	0.035802	0.37714	0.14689	0.18986	0.24731	0.22116	0.15532	0.08289	0.10254	0.27594	0.052166	-2.6604	-3.2562	-3.3937	-3.3042	-3.3771	-3.2687	-3.2313	-3.5312	-3.1792	-3.0729	-3.4458	-3.15	-3.2521	-3.3896	-3.0896	-3.5729	140.963	222.277	87.862	336.891	133.073	190.636	401.573	428.293	196.788	245.364	422.529	401.337	389.440	361.333	263.835	333.125	0.00064579	0.00046106	0.00021778	1353.4	5.5567e-06	5.0019e-06	1353.4	366.02	4.7578e-06	4.2741e-06	418.38	139.92	122.01	41.692	5.4538e-06	51.681	0.00059209	0.00051739	0.00014585	1375.6	6.3316e-06	5.5573e-06	1374.3	374.04	6.3126e-06	5.744e-06	427.32	143	124.5	42.99	6.0692e-06	53.099	144.194	175.433	171.386	96.572	225.039	255.667	96.264	101.119	206.011	225.889	100.559	105.022	105.515	110.265	222.599	109.380	-8191	255	
25369.912	1	1	0	0	0.18134	0.10579	0.11323	0.35858	0.13489	0.057458	0.21811	0.33491	0.054086	0.18181	0.19224	0.16907	0.11158	0.31973	0.066018	0.27633	-2.8896	-3.0479	-3.3354	-3.2854	-3.0104	-3.45	-3.275	-3.4188	-3.2	-3.0417	-3.5708	-3.3354	-3.2583	-3.3688	-2.9125	-3.5312	124.004	115.843	341.847	389.005	285.285	387.004	344.568	375.145	331.360	205.188	148.109	143.408	313.046	407.124	213.742	386.684	0.00064927	0.0005127	0.00015404	1353.3	4.8367e-06	4.85e-06	1353	366.67	5.623e-06	5.3567e-06	419.27	139.82	121.77	41.585	3.8622e-06	51.653	0.00058484	0.00052205	0.00014817	1375.3	6.0769e-06	5.6895e-06	1374.3	373.84	6.0924e-06	5.4563e-06	427.41	142.99	124.37	42.86	6.2083e-06	53.136	142.878	172.996	176.611	96.595	223.995	241.778	96.341	101.202	221.561	224.553	100.893	104.950	105.478	110.294	226.888	109.240	-8191	255	
25370.010	1	1	0	0	0.34006	0.11445	0.10913	0.070598	0.066741	0.037676	0.30703	0.17819	0.15698	0.26149	0.09218	0.34236	0.09742	0.24377	0.35331	0.26871	-2.8271	-3.125	-3.3854	-3.2271	-3.1312	-3.475	-3.4104	-3.4521	-3.1417	-3.1271	-3.6437	-3.1083	-3.4458	-3.5625	-3.1104	-3.4542	405.522	230.436	202.266	415.750	331.298	136.900	344.174	356.078	149.752	151.692	242.153	409.903	108.471	390.473	94.724	425.636	0.00062347	0.00054959	0.0001421	1354.1	5.8343e-06	5.2637e-06	1353.3	366.6	5.5899e-06	4.2614e-06	416.83	139.75	121.23	41.558	4.8222e-06	51.599	0.00059073	0.00051799	0.00015309	1376.1	5.8586e-06	5.9099e-06	1374.6	374.02	5.8188e-06	5.9145e-06	426.47	143.08	124.24	42.843	6.4723e-06	53.054	144.663	166.824	170.358	96.719	235.286	240.829	96.318	101.358	221.754	225.380	100.649	104.655	105.528	110.192	236.270	109.255	-8191	255	
25370.105	1	1	0	0	0.15712	0.28178	0.19083	0.26885	0.18606	0.055162	0.34052	0.41	0.1282	0.1848	0.20602	0.084858	0.040196	0.072626	0.039227	0.013697	-2.8958	-3.1896	-3.3542	-3.4021	-3.0771	-3.2583	-3.3396	-3.3229	-3.2667	-2.8375	-3.4479	-3.3625	-3.3312	-3.4917	-3.1771	-3.375	98.933	239.988	379.038	386.741	287.399	152.331	437.653	429.090	108.251	128.808	398.444	382.224	427.230	334.662	164.507	206.848	0.00063278	0.0005913	0.00014814	1352.7	6.4886e-06	4.3391e-06	1352.5	366.01	6.2693e-06	4.6241e-06	419.02	140.07	121.26	41.612	5.6677e-06	51.767	0.00057705	0.00055155	0.00015728	1374	6.0298e-06	5.8333e-06	1373.1	373.6	5.7908e-06	6.3337e-06	427.09	143.04	124.3	42.844	6.4751e-06	53.09	142.383	174.610	183.359	96.647	221.671	227.028	96.536	101.246	218.420	220.968	100.565	105.111	105.526	109.933	228.008	109.486	-8191	255	
25370.201	1	1	0	0	0.22649	0.16045	0.089038	0.22988	0.16255	0.15479	0.23946	0.27253	0.033062	0.088069	0.26137	0.14028	0.24095	0.37434	0.037504	0.20008	-3.0333	-3.0146	-3.4146	-3.3917	-3.0479	-3.6021	-3.4208	-3.375	-3.4958	-3.0479	-3.5187	-3.2583	-3.2229	-3.4771	-3.2313	-3.3896	430.040	356.738	259.719	402.931	206.851	162.737	380.827	373.913	337.856	153.207	408.895	352.241	131.113	384.525	229.319	116.314	0.00065571	0.00052881	0.00014407	1357.7	5.7188e-06	5.5401e-06	1353.4	366.87	3.8902e-06	4.5803e-06	417.14	140.08	122.52	41.537	4.9705e-06	51.472	0.00056818	0.00055978	0.00015652	1377.3	5.7307e-06	5.9883e-06	1373.4	373.96	5.7283e-06	6.3135e-06	427.07	142.86	124.47	42.872	6.4286e-06	53.103	143.220	186.212	193.896	96.447	211.855	243.028	96.268	101.230	215.318	239.368	100.629	104.806	105.539	109.853	232.695	109.156	-8191	255	
25370.297	1	1	0	0	0.30329	0.14929	0.16956	0.24566	0.12116	0.1821	0.20948	0.2238	0.11549	0.16687	0.30116	0.16589	0.35672	0.32262	0.20673	0.077929	-3.0563	-2.9917	-3.3937	-3.4521	-3.1083	-3.3708	-3.5354	-3.2	-3.3792	-3.0292	-3.3	-3.4562	-3.2562	-3.4708	-3.1896	-3.4292	86.085	342.964	84.709	85.357	167.454	373.180	371.745	366.243	358.675	330.324	218.160	403.959	127.401	408.599	230.067	84.859	0.0006507	0.0005084	0.00011214	1353.1	3.8706e-06	3.8815e-06	1351.6	366.64	6.3788e-06	4.3926e-06	416.62	140.33	122.14	41.65	4.3926e-06	51.393	0.00057534	0.00057337	0.00015872	1374.8	5.8816e-06	6.31e-06	1373.7	373.88	5.8987e-06	6.4296e-06	426.31	143.14	124.53	42.897	6.1673e-06	53.098	141.969	162.413	180.330	96.729	221.614	250.118	96.428	101.061	219.560	241.609	100.420	104.798	105.599	110.351	234.243	109.399	-8191	255	
25370.418	1	1	0	0	0.17793	0.22769	0.12821	0.2584	0.20656	0.19312	0.11986	0.22992	0.13603	0.091719	0.14827	0.077672	0.22104	0.20442	0.12023	0.26068	-3.1562	-3.1042	-3.2542	-3.6896	-2.9958	-3.525	-3.3958	-3.3917	-3.3542	-3.1542	-3.4396	-3.5583	-3.0583	-3.4667	-3.1625	-3.4188	382.422	270.147	358.464	410.187	262.491	148.295	150.845	374.642	188.502	438.476	96.838	141.860	441.392	407.480	437.160	436.996	0.00063714	0.00068926	0.00014526	1350.4	5.3599e-06	4.4112e-06	1353.1	365.95	6.2175e-06	4.6444e-06	419.06	139.99	121.79	41.792	5.9884e-06	51.679	0.00057523	0.00056552	0.00015407	1372.3	6.1037e-06	6.2896e-06	1373.1	373.45	5.957e-06	6.0685e-06	426.92	142.86	124.48	42.953	6.0435e-06	53.139	144.647	180.345	175.963	96.690	226.579	239.728	96.396	101.140	232.382	222.168	100.754	104.749	105.344	110.235	220.813	109.215	-8191	255	
25370.514	1	1	0	0	0.089935	0.33265	0.17113	0.29773	0.22096	0.16614	0.12184	0.28987	0.1117	0.28157	0.19597	0.16111	0.19894	0.074077	0.2972	0.094478	-2.9104	-3.2958	-3.2	-3.4354	-3.1937	-3.4646	-3.5083	-3.2458	-3.4167	-3.3583	-3.3083	-3.5083	-3.0583	-3.4229	-3.2896	-3.2146	336.489	160.182	147.265	423.681	392.496	414.510	354.033	410.241	96.400	173.042	107.819	417.271	430.722	435.062	430.322	315.496	0.00063029	0.00034495	0.00015165	1354.8	5.4893e-06	6.1901e-06	1353.4	367.26	5.8333e-06	4.6448e-06	418.9	140.2	121.99	41.713	5.5308e-06	51.442	0.00059943	0.00056871	0.00015235	1374.9	6.2091e-06	6.3939e-06	1375.8	374.06	6.1888e-06	6.2774e-06	427.02	143.21	124.58	42.921	5.7424e-06	53.04	141.101	195.384	173.422	96.627	237.079	245.046	96.380	101.293	228.520	225.630	100.779	105.085	105.613	110.235	217.673	109.070	-8191	255	
25370.609	1	1	0	0	0.20235	0.13937	0.084305	0.30804	0.37484	0.26085	0.13673	0.18997	0.097558	0.14338	0.23313	0.23268	0.12434	0.18779	0.31489	0.14669	-2.925	-3.1125	-3.2271	-3.5229	-3.0875	-3.3292	-3.3583	-3.3542	-3.3854	-3.1167	-3.1271	-3.4396	-3.3	-3.3604	-3.6167	-3.25	255.080	345.713	259.757	419.259	187.815	160.688	91.998	370.163	268.631	107.825	357.147	254.602	208.611	384.547	269.304	394.717	0.00062151	0.00059904	0.00012935	1355.3	3.968e-06	5.7775e-06	1353.8	366.52	5.3089e-06	3.8185e-06	418.99	139.36	121.68	41.682	5.6176e-06	51.571	0.00059901	0.0005653	0.00014358	1375.8	6.3423e-06	6.3754e-06	1373.8	373.4	6.3375e-06	6.2836e-06	427.12	143.03	124.3	42.85	5.8394e-06	53.172	144.833	177.986	170.154	96.471	214.570	249.211	96.204	101.062	235.043	238.356	100.737	105.227	105.591	110.119	230.161	109.032	-8191	255	
25370.705	1	1	0	0	0.3673	0.13641	0.21053	0.17106	0.29082	0.14042	0.14516	0.29714	0.15061	0.052482	0.25512	0.087456	0.1174	0.29597	0.27252	0.13699	-3.0979	-3.3229	-3.0667	-3.5438	-2.9604	-3.3208	-3.5208	-3.1562	-3.6688	-3.2812	-3.3104	-3.6271	-3.225	-3.2625	-3.5896	-3.3146	370.606	212.270	206.794	438.310	296.264	95.729	380.205	210.879	167.048	85.996	345.883	151.281	397.706	425.052	298.092	336.482	0.00064854	0.00047324	0.00012204	1352.1	5.0686e-06	6.7903e-06	1354.7	367.77	5.865e-06	5.2024e-06	418.68	140.14	121.42	41.761	6.4007e-06	51.391	0.0006045	0.00053515	0.00014878	1376.8	6.5061e-06	6.2704e-06	1375.1	373.97	6.4116e-06	6.1119e-06	427.63	143.19	124.31	42.899	5.6774e-06	53.035	143.501	165.916	169.794	96.454	222.719	229.308	96.299	101.155	219.129	229.111	100.671	104.953	105.412	110.026	236.132	109.505	-8191	255	
25370.803	1	1	0	0	0.065758	0.080339	0.11844	0.09241	0.22773	0.068106	0.35579	0.11271	0.24877	0.21378	0.19488	0.13419	0.31341	0.17147	0.064264	0.31346	-2.8583	-3.25	-3.1229	-3.5229	-3.3458	-3.2458	-3.6875	-3.1937	-3.2104	-3.2313	-3.1646	-3.4	-3.2833	-2.8979	-3.4375	-3.0979	417.869	400.883	329.366	171.214	265.078	323.213	389.537	358.958	355.204	280.579	436.725	439.669	439.254	209.218	232.306	393.704	0.00069676	0.00047082	0.00014767	1352.4	5.5713e-06	5.9795e-06	1352.5	366.61	5.2319e-06	8.1986e-06	418.69	140.22	121.66	41.59	4.1708e-06	51.711	0.000634	0.00054008	0.00014724	1375.6	6.2765e-06	6.0013e-06	1375	374.15	6.256e-06	5.8907e-06	427.04	143.08	124.43	42.875	5.7553e-06	53.121	142.833	170.651	177.656	96.602	224.593	232.204	96.350	101.194	212.751	237.218	100.555	104.859	105.293	110.161	218.761	109.288	-8191	255	
25370.896	1	1	0	0	0.12476	0.11033	0.079363	0.42536	0.25462	0.12478	0.18916	0.29126	0.13533	0.16603	0.067673	0.18764	0.18776	0.18745	0.1093	0.21332	-2.8063	-3.2229	-3.0396	-3.6021	-3.2042	-3.2167	-3.425	-3.0604	-3.2958	-3.25	-3.1125	-3.5042	-3.2542	-3.1771	-3.3937	-3.1583	212.109	290.390	442.511	395.987	382.894	245.396	359.341	357.313	371.899	325.525	177.266	417.860	440.021	381.233	404.870	363.628	0.00067249	0.00051434	0.0001282	1354.6	4.5454e-06	6.3565e-06	1353.5	366.34	4.7704e-06	5.3244e-06	419.5	139.48	121.92	41.663	6.782e-06	51.479	0.00060736	0.00051626	0.00015635	1377.6	6.3204e-06	5.682e-06	1378.3	373.82	6.1549e-06	5.6793e-06	427.3	142.89	124.67	42.884	6.118e-06	53.126	143.500	179.838	160.767	96.549	213.259	226.635	96.399	101.068	220.414	231.871	100.535	104.853	105.407	110.206	235.271	109.265	-8191	255	
25371.018	1	1	0	0	0.30478	0.25024	0.34425	0.10966	0.06893	0.052505	0.26489	0.31531	0.25021	0.039962	0.21053	0.15739	0.088397	0.31425	0.084818	0.061923	-2.7917	-3.3979	-3.0771	-3.4833	-3.3958	-3.1146	-3.6542	-3.2687	-3.0833	-3.4604	-3.1188	-3.4813	-3.3167	-3.25	-3.5	-3.4167	87.600	332.279	434.343	421.974	290.448	333.538	333.865	355.705	438.261	264.573	301.712	369.226	245.563	381.861	162.856	353.432	0.00067123	0.00040068	0.00012231	1355.5	5.4711e-06	6.1408e-06	1353.1	366.79	6.0104e-06	5.0474e-06	419.82	140.19	122.07	41.726	5.7308e-06	51.624	0.0006111	0.00051149	0.00016041	1375.1	5.9795e-06	6.0648e-06	1375.3	374.1	5.93e-06	5.9396e-06	427.61	143.07	124.48	42.934	6.2946e-06	53.193	142.078	156.987	176.960	96.686	236.012	237.549	96.418	101.061	233.283	217.657	100.800	105.036	105.361	110.026	236.115	109.323	-8191	255	
25371.113	1	1	0	0	0.031043	0.29618	0.097004	0.11891	0.076849	0.14537	0.18282	0.37913	0.19163	0.071154	0.37162	0.14923	0.23127	0.18825	0.029905	0.37317	-2.8375	-3.3583	-3.1437	-3.4333	-3.4021	-3.0625	-3.4688	-3.1667	-3.2417	-3.4604	-3.3104	-3.3042	-3.3708	-3.2271	-3.3812	-3.0979	117.140	143.695	230.713	408.621	328.382	428.776	362.493	389.260	300.569	286.186	340.584	365.179	386.710	366.887	86.494	360.425	0.0006393	0.00044717	0.0001275	1352.3	3.5101e-06	5.0858e-06	1354.7	367.3	6.4672e-06	5.7003e-06	417.93	140.01	121.78	41.879	4.5551e-06	51.309	0.0005838	0.00052199	0.00016501	1377.7	5.7259e-06	5.9549e-06	1377.4	374.08	5.876e-06	5.8613e-06	427.42	143.36	124.41	42.995	6.3927e-06	53.024	144.216	164.688	194.863	96.520	232.456	231.984	96.286	101.176	228.500	235.564	100.726	104.819	105.300	110.093	237.510	109.091	-8191	255	
25371.211	1	1	0	0	0.097215	0.19634	0.18624	0.15559	0.20298	0.068334	0.26057	0.41928	0.19709	0.20866	0.39891	0.20197	0.063276	0.24701	0.092655	0.25855	-2.7896	-3.4271	-3.0854	-3.4354	-3.2792	-3.1625	-3.5958	-3.3167	-3.1125	-3.3042	-3.1146	-3.3563	-3.4208	-3.1604	-3.3667	-3.4562	278.354	138.110	319.948	360.972	134.161	233.210	410.801	379.426	426.792	390.493	422.801	388.469	384.920	110.123	202.382	420.643	0.00063949	0.00046107	0.00018517	1355	4.3077e-06	5.1154e-06	1355.9	366.38	5.7286e-06	4.0279e-06	419.52	139.8	121.92	41.629	5.5481e-06	51.516	0.0005813	0.00053764	0.00016359	1376.2	5.7617e-06	6.1105e-06	1377.1	373.96	5.8691e-06	6.0587e-06	427.97	143.09	124.58	42.916	6.4067e-06	53.099	145.414	162.549	187.696	96.632	231.022	225.714	96.353	101.132	202.429	230.605	100.724	104.999	105.195	110.340	230.162	109.300	-8191	255	
25371.307	1	1	0	0	0.19622	0.086032	0.15972	0.21416	0.087656	0.024359	0.26187	0.087817	0.16704	0.099805	0.19596	0.31273	0.14358	0.20757	0.10639	0.25194	-2.6896	-3.3625	-3.0917	-3.3542	-3.3479	-3.0792	-3.6708	-3.2375	-3.1104	-3.5333	-3.1708	-3.3417	-3.25	-3.1625	-3.2354	-3.3021	127.640	255.880	373.194	414.144	215.122	341.352	387.172	304.230	425.271	244.955	373.976	387.084	293.460	402.349	101.170	100.402	0.00065895	0.00053117	0.00015145	1353.7	4.757e-06	4.637e-06	1355.6	366.56	6.5816e-06	5.2032e-06	417.49	140.49	122.13	41.574	5.0958e-06	51.734	0.00057894	0.0005574	0.000163	1377	5.7815e-06	6.4439e-06	1377.3	374.18	5.9167e-06	6.4241e-06	427.29	143.33	124.48	42.917	6.3321e-06	53.147	141.125	169.244	179.157	96.625	227.915	243.343	96.322	101.181	227.997	244.542	100.519	104.939	105.493	110.117	218.823	109.471	-8191	255	
25371.377	1	1	0	0	0.10285	0.087496	0.13434	0.12556	0.07955	0.16664	0.10252	0.24285	0.10172	0.099073	0.186	0.36592	0.21692	0.086973	0.24151	0.40426	-2.7	-3.3229	-3.1854	-3.2833	-3.2646	-3.0458	-3.5042	-3.5521	-3.0396	-3.4875	-3.2667	-3.3875	-3.5312	-3.3646	-3.1354	-3.4479	259.839	185.259	431.739	348.751	328.147	145.342	348.707	303.140	440.150	113.057	372.140	316.213	383.950	344.606	212.059	412.006	0.00067136	0.00054447	0.00018501	1356	5.119e-06	5.9843e-06	1355.9	365.62	5.6017e-06	5.372e-06	416.69	140.27	122.09	41.52	5.2772e-06	51.682	0.00059981	0.00058387	0.0001585	1378	5.9865e-06	6.6026e-06	1376.6	374.02	6.202e-06	6.4369e-06	426.37	143.08	124.68	42.947	6.0922e-06	53.09	144.560	165.179	180.834	96.537	235.738	245.236	96.257	101.160	211.007	247.958	100.475	104.778	105.615	110.094	227.638	109.091	-8191	255	
25371.498	1	1	0	0	0.21561	0.14072	0.17835	0.17811	0.15242	0.22156	0.12171	0.033278	0.14378	0.10869	0.16472	0.16416	0.15796	0.27467	0.13384	0.28981	-2.6583	-3.2521	-3.0687	-3.2125	-3.2896	-3.1	-3.6208	-3.5271	-3.1	-3.3833	-3.3542	-3.075	-3.5667	-3.0812	-3.2979	-3.4708	253.672	362.486	337.435	433.224	300.602	355.420	216.906	164.972	175.012	107.058	105.411	441.148	375.592	125.776	367.962	411.657	0.00062876	0.00044579	0.00012759	1357.1	5.8298e-06	5.4335e-06	1353	366.66	6.1997e-06	5.7354e-06	418.56	139.8	121.75	41.668	3.0423e-06	51.56	0.00060013	0.00057721	0.00015699	1377.9	6.2128e-06	6.418e-06	1375.2	373.66	6.3496e-06	6.2713e-06	426.52	143.2	124.38	42.894	5.9207e-06	53.135	143.144	170.860	171.546	96.536	236.896	245.857	96.342	101.260	220.527	226.408	100.580	104.894	105.373	110.281	253.897	109.211	-8191	255	
25371.594	1	1	0	0	0.20856	0.21327	0.14236	0.4901	0.11668	0.31222	0.19347	0.16531	0.095901	0.054998	0.19848	0.34184	0.11201	0.38148	0.10634	0.19167	-2.8042	-3.1813	-3.1083	-3.1771	-3.4396	-3.1042	-3.5292	-3.5938	-3.0625	-3.3271	-3.3354	-3.1813	-3.5083	-3.2	-3.2083	-3.4896	337.618	136.644	250.454	84.198	123.648	359.793	332.556	341.013	302.391	317.913	85.732	410.771	399.709	320.838	353.667	353.695	0.00064699	0.00043749	0.00012171	1356.8	6.4102e-06	4.6386e-06	1353.4	366.85	6.0595e-06	5.9431e-06	419.56	140.48	121.82	41.627	5.3793e-06	51.625	0.00061033	0.00056595	0.00015251	1376.5	6.2284e-06	6.4106e-06	1374.6	374.03	6.3671e-06	6.206e-06	427.18	143.31	124.59	42.907	5.9095e-06	53.031	144.285	174.146	176.406	96.621	226.920	226.085	96.273	101.094	225.454	240.025	100.417	104.910	105.441	110.137	231.647	109.467	-8191	255	
25371.689	1	1	0	0	0.13963	0.20358	0.22567	0.30215	0.2635	0.17632	0.15832	0.23865	0.18171	0.051328	0.27832	0.24555	0.25406	0.21502	0.20039	0.23814	-2.5917	-3.2896	-3.3479	-3.15	-3.3583	-3.2167	-3.2583	-3.5812	-3.2958	-3.3104	-3.425	-3.1854	-3.3396	-3.2938	-3.1042	-3.5771	238.713	419.831	257.340	439.716	322.723	170.347	339.256	376.485	257.236	258.835	365.400	362.576	432.226	132.217	401.668	127.131	0.00060774	0.00053957	0.00017407	1352.9	5.7323e-06	5.4467e-06	1358	367.3	5.5731e-06	3.4988e-06	420.18	139.89	121.41	41.402	5.3129e-06	51.394	0.00060685	0.0005855	0.00014602	1376.6	6.3311e-06	6.2235e-06	1377.5	374.34	6.6524e-06	6.1833e-06	427.1	143.07	124.38	42.817	5.854e-06	53.085	142.414	177.325	165.872	96.647	223.715	240.754	96.331	101.011	221.359	234.902	100.666	105.127	105.718	110.242	236.353	109.227	-8191	255	
25371.787	1	1	0	0	0.23441	0.16472	0.17145	0.067045	0.13001	0.09391	0.077378	0.10146	0.13263	0.19457	0.15167	0.15507	0.19609	0.18557	0.18629	0.12499	-2.4896	-3.0792	-3.2771	-3.3021	-3.2771	-3.2417	-3.2417	-3.6229	-3.1229	-3.2562	-3.3979	-3.2833	-3.3417	-3.2687	-3.1521	-3.5375	252.429	241.638	189.113	326.244	353.938	161.883	185.742	441.393	309.805	279.030	156.720	192.086	95.749	371.202	336.434	434.391	0.00062936	0.00051785	0.00015724	1354.7	5.9806e-06	3.5487e-06	1352.9	366.81	5.346e-06	3.8522e-06	418.13	140.11	121.6	41.673	5.1803e-06	51.593	0.00060214	0.00054744	0.00014873	1376.1	6.2514e-06	6.0019e-06	1374.2	373.93	6.4634e-06	5.9616e-06	426.62	143.18	124.41	42.887	5.8966e-06	53.137	141.418	170.326	171.328	96.612	207.820	240.267	96.457	101.144	222.977	240.955	100.595	105.235	105.658	110.169	241.916	109.356	-8191	255	
25371.904	1	1	0	0	0.16527	0.30172	0.1279	0.26542	0.20363	0.27833	0.22689	0.17311	0.27649	0.060194	0.24836	0.19177	0.16697	0.24254	0.1982	0.15692	-2.75	-2.9604	-3.3979	-3.2729	-3.4208	-3.3104	-3.2792	-3.5396	-3.1813	-3.15	-3.4958	-3.2438	-3.2604	-3.45	-3.0375	-3.5958	143.044	361.592	256.714	439.112	415.584	357.495	371.040	364.934	239.833	373.346	371.376	364.742	104.305	92.681	399.816	236.919	0.00065859	0.00045117	0.00010606	1354.6	6.0622e-06	5.9149e-06	1355.1	365.06	6.7155e-06	5.0636e-06	418.39	139.43	122.57	41.719	5.3408e-06	51.479	0.00062021	0.00053266	0.0001468	1376.5	6.2974e-06	5.7784e-06	1375.2	373.91	6.3597e-06	5.6689e-06	427.11	142.92	124.73	42.946	6.1068e-06	53.14	143.961	159.347	168.910	96.469	205.982	231.674	96.367	101.183	222.478	236.715	100.511	105.001	105.541	109.941	220.383	109.294	-8191	255	
25371.979	1	1	0	0	0.1308	0.13713	0.36628	0.20303	0.24849	0.15294	0.28589	0.26858	0.27503	0.3237	0.15419	0.18127	0.074398	0.20101	0.18755	0.24518	-2.8312	-3.1354	-3.2687	-3.2479	-3.4125	-3.3896	-3.3542	-3.6708	-3.3208	-3.1063	-3.4813	-3.2396	-3.3438	-3.4542	-3.0854	-3.3896	254.759	246.626	94.363	392.711	314.317	208.088	91.368	437.000	360.614	148.965	91.410	96.119	423.708	327.750	112.662	419.484	0.0006472	0.00047044	8.6106e-05	1354.4	4.4068e-06	4.6047e-06	1359.3	366.95	6.6396e-06	6.3839e-06	418.97	139.83	121.67	41.706	4.8992e-06	51.764	0.00060258	0.00053103	0.00015866	1375.4	6.0036e-06	5.7759e-06	1375.7	374.26	6.0713e-06	5.851e-06	427.21	143.13	124.4	42.925	6.3002e-06	53.137	143.787	191.816	170.949	96.466	218.960	243.977	96.281	101.292	221.494	228.947	100.716	104.859	105.635	110.162	222.865	109.327	-8191	255	
25372.098	1	1	0	0	0.19552	0.0089267	0.14748	0.39083	0.16049	0.12994	0.38638	0.095596	0.16231	0.11919	0.36784	0.21629	0.24042	0.16787	0.21237	0.13216	-2.7958	-3.2792	-3.3958	-3.2771	-3.1	-3.4167	-3.3167	-3.4313	-3.1708	-2.9854	-3.5229	-3.3312	-3.1979	-3.4458	-3.2167	-3.6417	146.263	395.991	388.947	91.650	406.289	423.933	423.196	345.007	128.910	250.173	372.714	367.293	368.811	383.387	293.943	372.398	0.00069016	0.00040804	0.00011222	1351	4.8839e-06	4.9263e-06	1356.4	366.48	5.5479e-06	5.2285e-06	420.37	139.91	121.62	41.637	5.5206e-06	51.536	0.00060538	0.00052638	0.00015901	1374.4	5.9014e-06	5.6654e-06	1376.5	373.85	5.8368e-06	5.8571e-06	427.39	143.16	124.54	42.842	6.2744e-06	53.178	142.058	167.146	188.459	96.701	213.460	219.832	96.437	101.089	223.625	227.688	100.446	104.884	105.481	110.285	234.966	109.208	-8191	255	
25372.193	1	1	0	0	0.079367	0.35405	0.23142	0.25499	0.082936	0.13627	0.21632	0.16417	0.13335	0.17412	0.27038	0.14628	0.092526	0.07593	0.13288	0.27317	-2.6708	-3.1271	-3.2188	-3.2938	-3.1042	-3.3812	-3.175	-3.4792	-3.2938	-2.9625	-3.3333	-3.2812	-3.3167	-3.4125	-3.0333	-3.3208	106.839	108.200	394.072	386.525	400.062	154.537	424.055	359.018	424.564	357.488	404.623	424.977	372.059	268.607	199.591	404.394	0.00065013	0.00040665	0.00011061	1351.1	5.065e-06	4.5829e-06	1354.7	366.94	5.1784e-06	4.7153e-06	416.55	139.96	121.53	41.684	4.6128e-06	51.668	0.00057803	0.00055718	0.00016382	1377.1	5.7574e-06	5.8667e-06	1375.8	374.08	5.6548e-06	6.1387e-06	427.38	143.11	124.29	42.935	6.4168e-06	53.18	145.490	174.559	179.796	96.485	218.545	243.078	96.301	101.123	216.300	255.796	100.540	104.671	105.467	110.099	231.839	109.256	-8191	255	
25372.289	1	1	0	0	0.13841	0.18856	0.29012	0.23262	0.083794	0.2222	0.17849	0.11516	0.19868	0.13702	0.36737	0.27424	0.22065	0.074336	0.15499	0.24567	-2.875	-3.0083	-3.3812	-3.3833	-3.0021	-3.3833	-3.2979	-3.3646	-3.3896	-3.1896	-3.4	-3.4062	-3.1229	-3.5208	-3.1646	-3.2958	435.699	322.003	242.964	386.978	118.658	409.837	356.663	93.980	344.976	97.819	348.615	404.665	442.883	378.758	365.650	362.599	0.0006715	0.00049558	0.00012047	1354.2	5.9888e-06	5.822e-06	1353.3	367.02	4.8025e-06	6.1024e-06	417.14	139.63	122.1	41.716	4.388e-06	51.475	0.00058377	0.00057407	0.00016074	1375.8	5.9817e-06	6.1951e-06	1374.7	373.82	5.7109e-06	6.3685e-06	426.24	142.97	124.32	42.93	6.2811e-06	53.098	143.296	172.756	178.401	96.607	223.029	236.252	96.184	101.199	212.660	226.490	100.912	104.852	105.443	109.815	227.387	109.199	-8191	255	
25372.387	1	1	0	0	0.36754	0.1154	0.11761	0.12235	0.19788	0.17592	0.34925	0.23981	0.12788	0.21999	0.14557	0.19185	0.2628	0.21434	0.09356	0.43525	-2.9188	-3.1	-3.3833	-3.4229	-2.9417	-3.475	-3.3417	-3.3833	-3.5062	-2.9583	-3.3667	-3.4646	-3.2521	-3.3958	-3.1854	-3.1333	167.499	185.613	288.366	426.523	317.839	265.332	355.356	376.379	235.652	337.067	397.851	87.726	95.228	334.008	111.266	360.572	0.00066117	0.00046415	0.00013667	1352.9	5.4527e-06	5.9755e-06	1351.6	365.87	6.0598e-06	6.656e-06	418.62	139.77	121.64	41.437	5.0418e-06	51.648	0.00058711	0.00058626	0.00016335	1375.2	6.1524e-06	6.2464e-06	1372.1	373.63	5.8347e-06	6.3703e-06	426.87	143.04	124.29	42.857	6.2918e-06	53.061	141.963	165.988	180.009	96.638	225.666	240.281	96.264	101.182	225.588	220.798	100.684	104.928	105.570	110.342	232.899	109.358	-8191	255	
25372.508	1	1	0	0	0.14194	0.11209	0.2738	0.29721	0.29454	0.25551	0.21235	0.27947	0.18715	0.29971	0.26628	0.10712	0.34821	0.13077	0.057554	0.089572	-2.9938	-3.1542	-3.4125	-3.5375	-3.1437	-3.4146	-3.3271	-3.25	-3.4792	-3.1188	-3.4375	-3.3104	-3.1437	-3.5	-3.1188	-3.3333	245.854	411.071	344.336	421.153	337.595	365.987	368.225	395.183	202.729	410.472	431.105	93.282	434.034	353.826	118.436	93.021	0.00065987	0.00044703	0.0001767	1349.4	5.6029e-06	4.8444e-06	1345.4	366.41	6.7961e-06	5.4289e-06	417.64	139.78	121.74	41.605	4.399e-06	51.6	0.00059683	0.00058755	0.00016027	1370.8	6.0261e-06	6.5248e-06	1371.4	373.77	6.0575e-06	6.462e-06	426.87	142.93	124.19	42.882	5.8792e-06	53.067	142.225	173.945	162.997	96.639	236.798	224.378	96.269	101.319	221.874	262.765	100.569	104.936	105.298	110.068	237.919	109.423	-8191	255	
25372.604	1	1	0	0	0.15936	0.13602	0.12625	0.32679	0.12882	0.05579	0.11907	0.17719	0.28326	0.23441	0.14462	0.21195	0.34514	0.12283	0.12014	0.29705	-2.9542	-3.15	-3.0979	-3.4417	-3.1229	-3.3208	-3.5438	-3.3396	-3.4667	-3.2438	-3.3333	-3.4	-3.0729	-3.4042	-3.2313	-3.4	247.175	371.483	159.381	360.742	234.116	437.983	373.302	431.982	274.628	300.999	387.897	293.557	385.348	435.301	168.921	378.973	0.00064687	0.00049861	0.00016842	1352.3	4.6893e-06	3.7901e-06	1351.2	366.64	6.7776e-06	5.5802e-06	417.83	140.09	121.84	41.59	5.2854e-06	51.677	0.00059542	0.0005842	0.00015293	1372.5	6.2776e-06	6.4841e-06	1370.7	373.72	6.3692e-06	6.3783e-06	427.07	142.71	124.34	42.839	5.9739e-06	53.141	143.139	177.031	179.958	96.508	222.501	247.965	96.340	101.121	218.971	245.898	100.468	104.784	105.453	110.219	223.027	109.377	-8191	255	
25372.676	1	1	0	0	0.17191	0.15434	0.27999	0.33038	0.18755	0.084753	0.056531	0.15045	0.094545	0.099046	0.26205	0.25935	0.1441	0.094473	0.12442	0.28495	-3.075	-3.275	-3.1688	-3.5312	-2.9583	-3.25	-3.4292	-3.3417	-3.4479	-3.1396	-3.3667	-3.5396	-3.2542	-3.475	-3.3187	-3.0521	279.783	230.518	121.944	414.769	239.083	356.011	285.309	375.856	370.127	403.561	294.441	383.859	96.244	389.766	226.281	135.366	0.00066528	0.00044993	0.00014718	1354	5.5962e-06	4.8282e-06	1350	367.14	6.8431e-06	5.4e-06	417.25	139.81	122.23	41.598	4.1102e-06	51.524	0.00061231	0.00058561	0.00014491	1372.8	6.4981e-06	6.0506e-06	1371.7	373.91	6.1745e-06	6.2402e-06	426.55	142.85	124.47	42.91	5.7155e-06	53.1	142.966	171.236	184.585	96.650	229.987	232.470	96.351	101.244	223.951	250.905	100.517	105.038	105.474	110.293	219.408	109.333	-8191	255	
25372.795	1	1	0	0	0.25267	0.099167	0.20474	0.15346	0.3636	0.20036	0.41637	0.42044	0.14444	0.17207	0.30883	0.26959	0.22935	0.31082	0.0084249	0.059694	-2.8792	-3.3708	-3.0771	-3.5646	-3.1063	-3.2854	-3.6167	-3.2479	-3.4875	-3.2792	-3.1562	-3.2979	-3.2313	-3.3187	-3.3708	-3.0667	205.493	272.972	418.942	100.351	195.727	156.874	353.580	368.810	274.908	338.359	436.290	350.253	336.331	112.854	163.375	322.748	0.00065956	0.0005518	0.00011515	1349.3	4.2969e-06	3.8828e-06	1351.9	366.76	6.8243e-06	3.7056e-06	418.29	140.01	121.57	41.614	5.311e-06	51.622	0.00061487	0.00056254	0.00014526	1372.1	6.1454e-06	5.9142e-06	1372.7	374.01	6.4968e-06	5.9848e-06	426.98	143.26	124.36	42.92	5.6774e-06	53.131	140.036	179.830	174.821	96.576	238.635	231.226	96.374	101.073	224.630	259.271	100.442	104.752	105.372	110.196	231.102	109.052	-8191	255	
25372.891	1	1	0	0	0.11736	0.20055	0.13214	0.21478	0.083188	0.096305	0.24463	0.38762	0.2043	0.12237	0.28589	0.14778	0.13538	0.083248	0.040577	0.20838	-2.7396	-3.1896	-3.0833	-3.4146	-3.2396	-3.2458	-3.575	-3.0167	-3.1937	-3.0979	-3.1646	-3.5229	-3.225	-3.2604	-3.3875	-3.1625	120.856	312.249	424.171	413.128	89.098	408.920	397.979	388.317	345.615	189.638	341.020	388.510	141.288	376.373	185.293	403.102	0.00065077	0.00050681	0.00011731	1349.4	6.2876e-06	3.9594e-06	1350.3	366.91	6.1075e-06	4.0714e-06	417.92	140.14	122.42	41.649	4.5122e-06	51.496	0.00060246	0.00052697	0.00014854	1374.1	6.2653e-06	5.7901e-06	1372.6	373.8	6.0231e-06	5.7783e-06	426.37	143.12	124.53	42.934	5.9465e-06	53.101	144.971	180.829	177.986	96.519	216.053	240.093	96.344	101.163	221.626	259.546	100.438	104.746	105.574	110.284	232.824	109.461	-8191	255	
25372.986	1	1	0	0	0.24043	0.19846	0.20735	0.20114	0.047357	0.3196	0.11682	0.093448	0.061926	0.079358	0.44695	0.10368	0.24105	0.19973	0.10021	0.074855	-2.8208	-3.2125	-3.1146	-3.4813	-3.3021	-3.2938	-3.5687	-3.2604	-3.3958	-3.3333	-3.1292	-3.5646	-3.2667	-3.2083	-3.3917	-3.0146	325.393	318.098	232.699	159.547	269.330	327.745	356.832	381.486	87.406	88.647	399.567	228.318	360.046	362.265	113.080	328.250	0.00067884	0.00061217	0.00013567	1355.6	6.3343e-06	6.4349e-06	1351.6	366.94	5.4718e-06	4.1837e-06	419.61	140.22	121.91	41.722	6.2131e-06	51.334	0.0006223	0.00051956	0.00015285	1374.2	6.4183e-06	5.8346e-06	1373.5	374.56	5.9061e-06	5.518e-06	427.25	143.3	124.54	43.002	6.2262e-06	53.102	143.484	175.422	177.072	96.608	235.552	223.580	96.350	101.267	216.028	226.867	100.653	104.967	105.426	110.046	246.506	109.400	-8191	255	
25373.082	1	1	0	0	0.15354	0.13883	0.053607	0.13156	0.16581	0.3593	0.33986	0.1823	0.091974	0.10775	0.070997	0.063637	0.057674	0.12941	0.10048	0.20016	-2.7667	-3.3083	-3.1292	-3.4938	-3.1625	-3.075	-3.6979	-3.3896	-3.1146	-3.3042	-3.1312	-3.3896	-3.2792	-3.2771	-3.3479	-3.3667	358.988	196.158	235.547	307.530	186.233	205.145	424.296	368.383	409.556	408.960	280.728	111.569	174.615	170.053	258.513	388.213	0.00066002	0.00052484	0.00012449	1353.9	5.2031e-06	4.973e-06	1351.6	365.34	5.9476e-06	4.4902e-06	419.73	140.09	122.21	41.645	6.6665e-06	51.439	0.00058271	0.0005064	0.00015405	1375.4	6.0229e-06	5.5901e-06	1371.1	373.91	5.8151e-06	5.5461e-06	427.88	143.1	124.56	42.968	6.2901e-06	53.159	144.896	180.647	175.632	96.612	217.832	238.806	96.398	101.176	222.886	225.185	100.682	104.871	105.415	110.125	230.317	109.055	-8191	255	
25373.203	1	1	0	0	0.048598	0.20721	0.26004	0.23486	0.16877	0.16677	0.029713	0.35997	0.24869	0.0063266	0.08609	0.087609	0.13484	0.064452	0.094499	0.22927	-2.8646	-3.4479	-3.1813	-3.6021	-3.1896	-3.1937	-3.7021	-3.3583	-3.2542	-3.4958	-3.3917	-3.3979	-3.2896	-3.2917	-3.3521	-3.1708	256.361	214.962	262.961	404.963	99.022	381.289	331.652	402.991	291.598	140.244	402.268	309.730	426.338	432.711	441.738	129.029	0.0006815	0.00042233	0.0001797	1355.6	4.9243e-06	4.769e-06	1353	366.99	5.3601e-06	5.4502e-06	419.09	140.12	122.18	41.576	3.9939e-06	51.718	0.00059462	0.00051566	0.00016083	1376.3	5.7253e-06	6.0747e-06	1373.5	374.51	5.9146e-06	5.9897e-06	427.65	143.27	124.67	42.957	6.4145e-06	53.234	143.688	174.508	191.394	96.377	220.332	234.429	96.263	100.962	226.968	227.628	100.569	104.706	105.646	109.980	239.708	109.228	-8191	255	
25373.273	1	1	0	0	0.17331	0.070144	0.03211	0.16152	0.094465	0.31126	0.3263	0.2494	0.25724	0.13549	0.055035	0.09662	0.14788	0.1391	0.19118	0.36029	-2.7833	-3.45	-3.1562	-3.4542	-3.3438	-3.1458	-3.5458	-3.2062	-3.1021	-3.4354	-3.2875	-3.3021	-3.2708	-3.075	-3.2958	-3.1021	167.172	121.758	267.739	383.137	254.559	291.295	403.603	380.679	93.340	151.765	289.293	183.982	309.615	351.620	410.189	338.773	0.00067584	0.00064603	0.00012956	1351.1	5.2308e-06	4.8196e-06	1348.1	367.76	6.2473e-06	6.2699e-06	417.97	139.55	122.04	41.698	5.4824e-06	51.552	0.00060305	0.00059378	0.00017306	1375.3	6.1352e-06	6.8761e-06	1372.5	374.23	6.3914e-06	6.7962e-06	426.49	143.02	124.5	42.998	7.0441e-06	53.122	141.250	164.481	184.611	96.643	229.775	246.052	96.455	101.130	212.659	225.319	100.319	104.728	105.298	110.068	234.404	109.205	-8191	255	
25373.369	1	1	0	0	0.041293	0.1921	0.2364	0.34466	0.2557	0.02414	0.094545	0.3044	0.12626	0.059219	0.31851	0.33809	0.30052	0.14175	0.12979	0.12096	-2.6875	-3.3729	-3.1229	-3.2687	-3.3125	-3.1604	-3.5354	-3.5104	-2.975	-3.4125	-3.1833	-3.3708	-3.4271	-3.2146	-3.2438	-3.4	137.343	130.749	148.841	421.288	168.039	389.674	420.823	412.819	360.824	398.274	413.377	442.256	436.371	422.961	363.794	135.792	0.00068223	0.00041854	0.00011346	1351	6.1215e-06	5.4769e-06	1358.9	368.05	7.0901e-06	6.0704e-06	420.25	140.28	122.63	41.808	5.385e-06	51.823	0.00063262	0.00066438	0.00018592	1376.7	6.4033e-06	7.5516e-06	1378.8	375.73	7.0313e-06	7.5746e-06	429.01	143.74	124.93	43.102	7.4819e-06	53.284	140.800	182.726	181.453	96.617	242.482	246.472	96.255	100.964	223.652	223.943	100.621	104.788	105.318	109.921	229.001	109.218	-8191	255	
25373.467	1	1	0	0	0.20636	0.1556	0.16202	0.2675	0.19663	0.12121	0.16147	0.19162	0.06111	0.27382	0.17759	0.092977	0.12448	0.19687	0.19201	0.13504	-2.7792	-3.2271	-3.0375	-3.2479	-3.4458	-3.0854	-3.6167	-3.3917	-3.0687	-3.3917	-3.1667	-3.3729	-3.4437	-3.2458	-3.3521	-3.3667	121.044	374.749	219.666	397.559	296.673	375.477	358.125	341.041	368.328	147.287	93.211	278.860	194.714	104.437	356.269	177.682	0.00065554	0.00051404	0.00013609	1364	6.3083e-06	4.9931e-06	1366.1	369.79	5.362e-06	4.7623e-06	420.31	141.04	122.7	41.956	3.774e-06	51.638	0.00064621	0.00069946	0.00020248	1386.3	7.4062e-06	8.1696e-06	1385.6	377.25	7.615e-06	7.6113e-06	429.77	143.85	125.41	43.238	7.3058e-06	53.36	145.079	175.381	173.596	96.635	218.819	230.642	96.363	101.203	219.081	229.244	100.707	104.703	105.282	109.864	235.451	109.074	-8191	255	
25373.588	1	1	0	0	0.1712	0.042197	0.066588	0.056885	0.14201	0.19229	0.19443	0.16686	0.10672	0.19716	0.061903	0.17842	0.21193	0.095959	0.15305	0.33279	-2.6479	-3.3896	-3.1333	-3.4271	-3.4625	-3.1063	-3.45	-3.4292	-3.0896	-3.3854	-3.2271	-3.3458	-3.4646	-3.35	-3.3229	-3.4375	442.774	327.362	317.135	336.805	229.999	338.179	372.217	391.824	388.914	159.381	414.949	386.307	388.889	321.075	304.564	371.512	0.00063903	0.00047792	6.4788e-05	1370.2	6.4485e-06	5.8484e-06	1364	370.88	7.2278e-06	5.3733e-06	420.45	141.22	122.51	41.927	6.3957e-06	51.989	0.00067011	0.00070936	0.00018834	1392.4	7.4169e-06	8.0097e-06	1387.5	377.6	7.8119e-06	7.8349e-06	429.94	143.9	125.3	43.146	7.2302e-06	53.388	143.193	157.459	184.886	96.558	244.480	240.404	96.102	101.019	222.161	251.244	100.693	104.706	105.469	109.855	226.649	109.038	-8191	255	
25373.684	1	1	0	0	0.17922	0.25569	0.1363	0.31875	0.077746	0.25103	0.29151	0.14881	0.15373	0.16246	0.11543	0.10842	0.1362	0.29263	0.39239	0.16907	-2.7271	-3.4042	-3.3458	-3.1417	-3.4771	-3.2104	-3.3146	-3.4604	-3	-3.2604	-3.2625	-3.2042	-3.4313	-3.1667	-3.2083	-3.5083	410.904	278.896	316.810	90.127	328.489	275.215	356.244	255.321	335.914	205.480	344.989	150.752	400.984	393.993	342.208	330.559	0.00063368	0.00069289	0.00016013	1362.9	5.2864e-06	4.9235e-06	1369.5	370.08	6.5667e-06	4.7057e-06	420.62	140.02	122.67	41.735	5.8113e-06	52.054	0.00067624	0.00068571	0.00017967	1388.1	7.6224e-06	7.6331e-06	1387.2	377.16	7.5224e-06	7.797e-06	430.51	143.63	125.35	43.109	6.9303e-06	53.443	145.880	173.318	182.988	96.558	227.111	231.086	96.214	101.090	223.409	251.176	100.347	104.854	105.472	110.317	230.111	109.121	-8191	255	
25373.779	1	1	0	0	0.2308	0.10949	0.1917	0.11427	0.12402	0.13683	0.31378	0.22231	0.14751	0.10461	0.22509	0.21094	0.097337	0.049789	0.19457	0.097579	-2.6271	-3.3083	-3.1813	-3.3854	-3.3708	-3.1417	-3.5104	-3.5417	-3.0979	-3.2542	-3.3667	-3.0375	-3.4896	-3.3208	-3.2083	-3.5521	231.760	185.211	310.118	400.713	207.608	310.586	310.630	376.802	225.583	219.124	383.734	310.763	366.803	343.490	372.719	218.678	0.00063992	0.00049908	0.00013936	1368.9	6.2981e-06	5.8459e-06	1367.7	370.26	5.6873e-06	3.8277e-06	421.54	140.85	122.6	41.888	4.6223e-06	51.774	0.00068004	0.00070953	0.00018136	1393.7	7.7016e-06	7.8992e-06	1389.5	377.87	7.6118e-06	7.4591e-06	430.32	144.12	125.51	43.195	7.0598e-06	53.5	142.356	160.788	188.268	96.426	222.539	238.290	96.380	101.252	207.625	251.630	100.587	104.667	105.437	109.974	231.045	109.214	-8191	255	
25373.877	1	1	0	0	0.18888	0.076493	0.19849	0.11439	0.18747	0.32254	0.37217	0.22	0.14537	0.22724	0.052398	0.22044	0.20791	0.15451	0.13294	0.13037	-2.55	-3.2958	-3.2146	-3.175	-3.3438	-3.3604	-3.2667	-3.5521	-3.0729	-3.1708	-3.3479	-3.1729	-3.4333	-3.4146	-3.0625	-3.4583	137.537	84.321	370.535	106.962	160.550	398.084	401.312	389.778	280.962	321.694	140.573	130.761	149.676	346.424	380.841	115.933	0.00065727	0.00037685	0.0001804	1370.9	6.1644e-06	3.9587e-06	1375.7	370.96	6.1945e-06	4.5036e-06	421.68	140.98	123.06	42.02	6.419e-06	51.755	0.00068898	0.0006837	0.00018496	1396.7	7.7428e-06	7.5164e-06	1395.9	378.37	7.9548e-06	7.5404e-06	431.41	144.29	125.72	43.274	7.4477e-06	53.495	144.779	159.721	185.271	96.490	231.943	236.201	96.264	101.054	229.453	229.994	100.477	104.769	105.544	110.180	225.713	109.103	-8191	255	
25373.971	1	1	0	0	0.14062	0.091273	0.086992	0.40277	0.081627	0.11299	0.19792	0.26304	0.13397	0.17808	0.31844	0.020799	0.26251	0.027707	0.10461	0.15814	-2.8104	-3.2229	-3.475	-3.1542	-3.1167	-3.1646	-3.2896	-3.5354	-3.1562	-3.0687	-3.3271	-3.1917	-3.3396	-3.3958	-3.0646	-3.4188	307.415	400.889	271.362	86.166	221.161	317.450	399.601	438.444	185.758	375.263	362.070	140.155	441.748	347.933	326.731	340.810	0.00064446	0.0004544	0.00013981	1377.9	5.7315e-06	6.9203e-06	1367.7	371.57	4.9628e-06	5.3556e-06	423.94	141.16	123.13	41.931	4.5957e-06	52.091	0.00069405	0.0006437	0.00018769	1399.2	7.7465e-06	7.1997e-06	1392.8	379.61	7.6743e-06	7.1927e-06	431.89	144.28	125.7	43.251	7.5547e-06	53.667	145.408	161.847	162.680	96.547	212.872	240.960	96.332	100.956	209.841	225.982	100.597	104.660	105.448	110.001	213.038	109.208	-8191	255	
25374.068	1	1	0	0	0.12812	0.13689	0.11052	0.27409	0.065248	0.19453	0.11388	0.19787	0.10872	0.15549	0.090049	0.2548	0.16461	0.18769	0.13433	0.12686	-2.725	-3.1771	-3.3417	-3.3229	-3.1542	-3.2125	-3.2146	-3.625	-3.1583	-3.0625	-3.2938	-3.2604	-3.3542	-3.5125	-2.9792	-3.6104	349.463	231.644	86.923	391.190	433.286	386.208	90.202	355.768	93.998	210.431	87.610	394.487	413.348	419.497	265.564	300.551	0.0006766	0.00045149	0.00017104	1382.3	6.2846e-06	6.4195e-06	1376.9	372.61	5.3696e-06	5.9518e-06	424.36	141.82	123.43	42.144	5.0304e-06	52.219	0.00067515	0.00063877	0.00020097	1404.2	7.4998e-06	7.1157e-06	1401.7	379.93	7.6642e-06	7.376e-06	432.93	144.81	126.14	43.396	7.9662e-06	53.739	141.996	171.406	174.769	96.537	228.711	237.389	96.325	101.001	213.096	223.253	100.426	104.952	105.479	110.055	254.540	109.058	-8191	255	
25374.188	1	1	0	0	0.11444	0.078531	0.10751	0.05141	0.17951	0.13902	0.27663	0.42837	0.054485	0.1337	0.34885	0.063621	0.22134	0.14814	0.1786	0.054635	-2.7708	-3.0833	-3.3937	-3.3208	-3.2438	-3.3771	-3.3958	-3.6104	-3.2604	-3.075	-3.3688	-3.1021	-3.2188	-3.4396	-3.0521	-3.5312	409.617	183.491	423.793	108.837	289.834	282.460	386.525	382.456	367.502	159.606	92.948	329.281	385.818	402.958	288.053	428.457	0.00066573	0.00037472	0.00015487	1385.9	5.5478e-06	4.2238e-06	1380.6	372.21	6.6176e-06	6.8255e-06	424.18	141.44	123.54	42.093	4.1611e-06	52.105	0.00067279	0.00066059	0.00020183	1408.9	7.4832e-06	7.4065e-06	1404.5	380.51	7.1451e-06	7.1567e-06	433.48	144.84	126.13	43.389	7.8429e-06	53.708	141.428	173.019	195.498	96.374	230.148	246.517	96.312	101.160	230.704	229.597	100.510	104.908	105.223	110.093	223.733	109.134	-8191	255	
25374.283	1	1	0	0	0.22101	0.12188	0.20697	0.24701	0.06122	0.12268	0.11953	0.040549	0.20674	0.2795	0.07173	0.037076	0.18126	0.1437	0.18248	0.18681	-2.7438	-3.1479	-3.2521	-3.1854	-3.1625	-3.4333	-3.2146	-3.5375	-3.3021	-3.1063	-3.3667	-3.1917	-3.2229	-3.5854	-3.0396	-3.3792	125.544	255.596	201.614	92.876	404.560	210.719	303.320	341.749	377.993	342.014	83.742	173.848	376.100	399.642	294.127	123.116	0.00066102	0.00052928	0.00013234	1385.8	5.8823e-06	5.9689e-06	1382.5	372.87	5.6164e-06	5.2491e-06	424.52	141.32	123.65	42.095	4.8583e-06	51.931	0.00065051	0.00069453	0.00020087	1409.2	7.1461e-06	7.4417e-06	1404.7	380.21	6.9201e-06	7.7133e-06	433.3	144.51	126.21	43.401	7.7319e-06	53.602	142.245	153.101	166.295	96.409	224.078	249.690	96.255	100.899	217.908	226.502	100.415	104.917	105.099	110.010	225.917	109.189	-8191	255	
25374.379	1	1	0	0	0.31487	0.085693	0.055152	0.084579	0.17833	0.031919	0.083087	0.14584	0.11993	0.29538	0.1448	0.13612	0.044577	0.1061	0.091017	0.1698	-2.7583	-2.9125	-3.3292	-3.1771	-3.0708	-3.4813	-3.3083	-3.3146	-3.4188	-3.0667	-3.4167	-3.25	-3.0646	-3.5917	-3.0896	-3.3083	417.682	360.324	431.874	141.592	92.145	375.011	83.555	340.047	100.931	209.983	95.147	398.667	412.584	184.216	182.361	372.249	0.00065651	0.00056719	0.00016253	1389.1	5.896e-06	5.4406e-06	1384.5	372.6	5.9596e-06	5.8322e-06	424.1	141.53	123.21	42.202	5.8142e-06	51.984	0.0006516	0.00069063	0.0001963	1411.3	7.1761e-06	7.7127e-06	1404.8	380.66	7.099e-06	7.764e-06	433.5	144.82	126.21	43.427	7.789e-06	53.634	142.355	160.431	171.049	96.438	223.618	222.472	96.266	101.090	223.048	252.452	100.338	104.706	105.459	110.042	232.732	109.329	-8191	255	
25374.500	1	1	0	0	0.19251	0.12835	0.34341	0.13305	0.15634	0.31527	0.45438	0.13473	0.086931	0.21519	0.13911	0.12921	0.1883	0.15663	0.36971	0.23373	-2.8979	-3.1042	-3.1125	-3.2687	-3.1042	-3.2646	-3.2958	-3.5729	-3.2667	-3.0687	-3.3854	-3.3104	-3.1896	-3.3917	-3.1958	-3.3812	155.890	374.709	197.639	387.842	255.240	439.877	424.189	424.735	207.238	169.765	87.038	343.666	413.741	88.636	241.388	366.952	0.0006535	0.00046535	0.00012783	1388	5.7587e-06	7.0441e-06	1381.5	373.21	5.5616e-06	6.0511e-06	424.55	141.58	123.52	41.923	4.6539e-06	52.326	0.00067235	0.00070936	0.00020065	1410.3	7.0418e-06	8.0134e-06	1406	380.75	7.1117e-06	7.9742e-06	433.57	144.85	126.26	43.422	7.548e-06	53.808	141.094	185.159	176.441	96.401	215.696	247.221	96.366	100.867	215.224	233.909	100.288	104.804	105.532	110.300	232.309	109.081	-8191	255	
25374.570	1	1	0	0	0.20636	0.15187	0.20226	0.012491	0.23683	0.21014	0.21126	0.36276	0.18531	0.082272	0.24516	0.23934	0.17541	0.069301	0.22193	0.076124	-2.9979	-2.9583	-3.2375	-3.4771	-3.0438	-3.3063	-3.3854	-3.4188	-3.2188	-3.0583	-3.4333	-3.3792	-3.1292	-3.5875	-3.2708	-3.3021	162.461	368.294	205.681	140.282	388.209	296.332	197.843	344.624	333.794	224.835	121.058	439.025	174.468	353.702	175.440	413.125	0.00070017	0.00063328	0.00014453	1391.7	5.4002e-06	5.1502e-06	1391.6	373.45	7.4411e-06	5.7427e-06	425.55	141.94	124.01	42.126	4.8719e-06	52.153	0.00067306	0.00071277	0.00018773	1415.5	7.3227e-06	7.7424e-06	1412	381.13	7.2371e-06	7.8337e-06	434.2	145.16	126.43	43.477	7.2408e-06	53.733	142.389	178.870	176.619	96.398	241.971	239.201	96.266	100.859	219.952	239.854	100.320	104.780	105.423	109.969	239.138	109.225	-8191	255	
25374.668	1	1	0	0	0.25379	0.2264	0.21772	0.31495	0.061882	0.16426	0.29599	0.16744	0.10855	0.40122	0.13662	0.1085	0.054028	0.057692	0.37035	0.05145	-2.9396	-3.0792	-3.4313	-3.5104	-3.0812	-3.325	-3.3875	-3.2875	-3.2521	-3.1667	-3.3521	-3.5687	-3.2917	-3.2875	-3.2167	-3.2667	96.358	211.071	104.134	390.708	399.089	364.510	380.015	409.949	147.274	137.576	248.294	244.105	215.755	406.362	332.222	404.953	0.00065354	0.00048031	0.00011735	1397.1	4.8258e-06	4.4751e-06	1387.9	374.6	6.1429e-06	5.4832e-06	425.76	142.05	124.05	42.326	6.4025e-06	52.004	0.00066646	0.00071018	0.00018624	1417.6	7.7262e-06	7.9875e-06	1411.4	381.37	7.3626e-06	8.0188e-06	434.71	145.15	126.61	43.498	7.057e-06	53.695	140.999	178.929	173.755	96.412	231.057	221.843	96.345	100.918	227.550	231.431	100.507	104.795	105.352	109.975	227.664	109.315	-8191	255	
25374.764	1	1	0	0	0.056947	0.11434	0.060427	0.1416	0.33401	0.16914	0.29681	0.2775	0.024929	0.12514	0.29948	0.13143	0.099814	0.074367	0.31623	0.17211	-2.9021	-3.0354	-3.0271	-3.5792	-3.0833	-3.4833	-3.5854	-3.3667	-3.3375	-2.9833	-3.2417	-3.5875	-3.1417	-3.45	-3.2208	-3.1542	251.670	132.041	138.487	288.628	155.722	290.119	417.755	368.680	169.116	352.604	400.734	408.483	320.119	341.574	333.760	181.155	0.00066901	0.0003555	0.00018036	1394.3	4.9504e-06	6.6878e-06	1389.9	373.84	5.6304e-06	5.6671e-06	423.44	141.35	124.44	42.166	4.7967e-06	52.218	0.00068576	0.00069166	0.0001787	1416.5	7.716e-06	7.801e-06	1413	381.06	7.3848e-06	7.4506e-06	433.65	144.97	126.51	43.436	6.7699e-06	53.686	142.260	190.952	183.839	96.428	258.553	238.713	96.296	101.077	234.452	234.665	100.638	104.931	105.209	110.040	219.628	109.547	-8191	255	
25374.883	1	1	0	0	0.15624	0.052554	0.059334	0.14096	0.13375	0.2882	0.27729	0.32961	0.17482	0.24702	0.13441	0.1221	0.046915	0.20343	0.23195	0.30741	-3.0312	-3.0833	-2.9688	-3.5542	-3.0875	-3.6125	-3.4792	-3.2021	-3.3354	-3.2792	-3.2375	-3.5062	-3.0083	-3.275	-3.3854	-3.2917	222.790	213.938	404.917	379.066	332.340	305.221	113.648	324.890	115.077	104.379	394.688	415.549	437.396	374.092	183.301	133.810	0.00066138	0.00059471	0.00016025	1386.9	5.3858e-06	5.5573e-06	1382.3	371.39	6.4362e-06	4.7195e-06	424.67	141.22	123.25	41.997	6.7809e-06	52.008	0.00067651	0.00066584	0.00017281	1412	7.449e-06	7.3559e-06	1404.1	380.13	7.4139e-06	6.988e-06	432.81	144.75	126.12	43.331	6.858e-06	53.619	146.268	189.390	196.667	96.425	211.395	248.070	96.320	101.193	223.855	234.343	100.574	104.897	105.393	110.152	211.242	109.175	-8191	255	
25374.979	1	1	0	0	0.22893	0.18144	0.12641	0.20009	0.26621	0.045774	0.29925	0.27632	0.13164	0.14423	0.30325	0.20858	0.1628	0.10147	0.10171	0.2359	-3.075	-3.2021	-3.125	-3.6667	-3.1437	-3.3667	-3.6562	-3.1167	-3.3604	-3.2292	-3.2604	-3.4354	-3.2104	-3.5021	-3.1979	-3.1042	151.053	355.955	281.925	361.932	332.179	408.743	365.757	390.100	318.169	172.610	416.309	340.935	260.530	177.409	371.560	319.800	0.00067284	0.00056396	0.00012996	1388.7	4.2075e-06	5.317e-06	1382.5	373.64	6.5386e-06	5.6751e-06	424.22	141.68	123.46	42.172	6.1209e-06	52.098	0.00068099	0.00064489	0.00017763	1411.1	7.5004e-06	6.9243e-06	1404.8	380.46	7.4954e-06	6.9489e-06	433.02	144.92	126.36	43.462	7.0996e-06	53.746	141.845	171.276	180.262	96.269	220.712	247.303	96.259	101.059	233.390	242.295	100.564	104.814	105.495	110.162	221.519	109.035	-8191	255	
25375.074	1	1	0	0	0.30196	0.13135	0.23743	0.21516	0.11439	0.084037	0.34468	0.25729	0.20917	0.23329	0.13768	0.13082	0.0074959	0.049218	0.13962	0.18842	-3.0354	-3.2938	-2.9646	-3.5542	-3.2146	-3.25	-3.6208	-3.1896	-3.2833	-3.3042	-3.0292	-3.5208	-3.2708	-3.1979	-3.2833	-3.0521	106.046	121.733	277.048	325.665	132.056	409.077	411.857	364.699	435.896	153.031	351.849	86.167	351.135	440.090	326.482	375.464	0.00064976	0.00042419	0.00016305	1391.5	5.3236e-06	5.1254e-06	1380.5	372.67	5.2768e-06	4.0747e-06	425.36	141.8	123.71	42.219	5.4076e-06	52.085	0.00067957	0.00063422	0.00019284	1412.6	7.4142e-06	7.1657e-06	1405.3	380.46	7.3409e-06	6.8836e-06	433.89	144.88	126.09	43.477	7.2941e-06	53.645	142.273	174.696	161.508	96.533	227.913	240.165	96.234	100.889	229.536	251.254	100.566	104.687	105.415	110.051	225.739	109.235	-8191	255	
25375.148	1	1	0	0	0.23403	0.16326	0.14324	0.2198	0.093746	0.15155	0.10618	0.29053	0.099963	0.19756	0.19843	0.2743	0.39805	0.24628	0.17835	0.17398	-2.8583	-3.2542	-2.9938	-3.6437	-3.2	-3.1208	-3.5167	-3.3	-3.2687	-3.2562	-3.2333	-3.4104	-3.35	-3.1729	-3.3083	-3.1937	188.691	198.962	228.901	417.324	196.883	122.806	409.315	374.532	317.513	256.429	398.309	384.478	441.654	369.425	113.684	315.168	0.00065023	0.00070159	0.00011617	1389.7	5.6907e-06	5.9335e-06	1380.1	372.54	4.0534e-06	6.3842e-06	423.75	141.02	123.44	42.185	4.4185e-06	52.119	0.00066165	0.00062832	0.00019363	1410.8	7.022e-06	6.8638e-06	1403.4	379.69	6.7878e-06	6.8585e-06	433.14	144.55	126.13	43.424	7.5525e-06	53.614	144.603	179.453	177.087	96.406	222.116	228.240	96.293	101.086	224.135	235.085	100.731	104.818	105.312	110.148	231.419	109.116	-8191	255	
25375.268	1	1	0	0	0.090965	0.19902	0.26117	0.31265	0.096206	0.093495	0.48544	0.011652	0.25364	0.18044	0.19201	0.2506	0.35253	0.23148	0.18932	0.44809	-2.8563	-3.4854	-2.8917	-3.6167	-3.3	-3.0938	-3.5312	-3.2812	-3.1562	-3.1458	-3.1875	-3.4688	-3.2729	-3.2354	-3.4562	-3.4062	88.642	330.294	326.617	424.865	270.987	244.721	396.087	116.254	232.650	360.743	416.067	436.158	168.955	380.533	329.759	313.999	0.00070381	0.00043453	0.00015187	1383.9	3.9683e-06	4.9255e-06	1379.1	373.13	7.8292e-06	5.8697e-06	424.35	141.21	123.32	42.106	5.7717e-06	52.019	0.00066395	0.00062946	0.00019596	1409.7	6.6896e-06	7.0515e-06	1404.4	380.41	6.7884e-06	7.1836e-06	433.26	144.78	126.13	43.381	7.4437e-06	53.595	145.453	187.195	153.489	96.395	219.528	237.579	96.190	101.063	217.981	239.081	100.647	104.644	105.389	110.203	221.533	109.238	-8191	255	
25375.363	1	1	0	0	0.18051	0.069334	0.067842	0.14898	0.2704	0.0881	0.15028	0.31768	0.039299	0.17758	0.14844	0.041697	0.18684	0.37014	0.35617	0.22749	-2.7938	-3.4042	-3.0312	-3.3375	-3.3	-3.0187	-3.6042	-3.2958	-3.1813	-3.5625	-3.0771	-3.3375	-3.2396	-3.0917	-3.225	-3.1896	113.452	302.839	247.948	324.155	294.915	340.022	403.791	358.909	392.181	343.139	349.052	254.789	321.110	430.038	190.396	419.717	0.00066244	0.00042743	9.9873e-05	1383.9	5.6933e-06	5.1676e-06	1382.8	371.22	5.0765e-06	4.6997e-06	423.98	141.21	123.19	42.144	4.6725e-06	52.002	0.00063601	0.00065436	0.00019633	1408.3	6.5762e-06	7.317e-06	1404.3	379.44	6.5888e-06	7.15e-06	432.7	144.75	125.79	43.353	7.3199e-06	53.568	142.271	169.967	164.229	96.317	235.733	232.208	96.312	101.202	223.476	242.440	100.417	104.947	105.391	110.232	236.082	109.571	-8191	255	
25375.459	1	1	0	0	0.19067	0.2105	0.16957	0.29995	0.10129	0.21993	0.065739	0.36083	0.1243	0.14755	0.13888	0.22514	0.090919	0.20529	0.20435	0.38266	-2.6625	-3.475	-3.1188	-3.4104	-3.2771	-3.0833	-3.5625	-3.2438	-3.1708	-3.4229	-3.1229	-3.4125	-3.1583	-3.1625	-3.4167	-3.3479	103.098	300.840	195.170	370.516	165.676	174.287	404.303	370.716	301.776	303.858	280.467	391.546	91.266	110.300	361.708	396.726	0.00068576	0.00049956	9.492e-05	1386.7	5.8445e-06	5.5576e-06	1379.5	372.13	5.0939e-06	4.9776e-06	422.63	141.32	123.84	42.051	3.1101e-06	51.772	0.00063577	0.00064862	0.00018705	1407.7	6.6169e-06	7.5361e-06	1402.3	379.17	6.8492e-06	7.2874e-06	431.94	144.64	125.98	43.349	7.3944e-06	53.481	144.337	182.776	181.348	96.317	223.555	225.871	96.209	100.884	232.209	260.574	100.511	104.850	105.363	109.999	232.896	109.181	-8191	255	
25375.580	1	1	0	0	0.29948	0.24947	0.44598	0.066272	0.097454	0.14679	0.24998	0.26146	0.33779	0.27227	0.24912	0.12744	0.24242	0.19262	0.20612	0.17686	-2.8	-3.4167	-3.0625	-3.2417	-3.3438	-3.0229	-3.5667	-3.4562	-3.1896	-3.4375	-3.3063	-3.2479	-3.3604	-3.0438	-3.2625	-3.5229	219.356	368.134	360.317	349.308	261.653	241.094	405.330	384.159	92.206	151.782	91.028	363.051	114.910	115.338	268.479	315.004	0.00068999	0.00041279	0.00012369	1383.1	5.4513e-06	5.5517e-06	1379.3	371.95	5.3046e-06	3.158e-06	423.75	141.37	123.17	42.108	4.1781e-06	51.877	0.0006437	0.00066351	0.00018804	1405.1	6.8111e-06	7.5917e-06	1402.3	379.3	6.9196e-06	7.6168e-06	432.26	144.69	125.93	43.387	7.1192e-06	53.55	144.144	181.743	172.954	96.415	229.968	258.604	96.249	101.050	214.846	217.893	100.418	104.719	105.267	109.921	228.527	108.971	-8191	255	
25375.676	1	1	0	0	0.18399	0.24262	0.058897	0.27765	0.27949	0.17539	0.031232	0.048986	0.15979	0.18323	0.12299	0.20259	0.17308	0.073901	0.21982	0.16453	-2.675	-3.2313	-3.1188	-3.2188	-3.3667	-3.1312	-3.5563	-3.2833	-2.8187	-3.3896	-3.2917	-3.1896	-3.3979	-3.2042	-3.3229	-3.35	396.536	128.996	102.980	88.729	100.880	331.700	428.362	429.673	353.112	436.290	354.349	104.638	392.382	358.886	200.249	422.220	0.00066199	0.00051852	0.00015087	1379.8	5.4402e-06	5.1289e-06	1379.5	371.53	5.1957e-06	3.8952e-06	423.42	141.34	123.63	42.105	5.0318e-06	51.775	0.00066083	0.00065025	0.00017953	1405	7.0674e-06	7.567e-06	1400.7	379.16	7.1355e-06	7.3577e-06	431.88	144.42	125.96	43.32	6.8832e-06	53.509	141.612	143.647	182.980	96.431	226.585	243.072	96.271	101.049	216.636	229.454	100.404	104.577	105.274	110.154	229.535	109.313	-8191	255	
25375.771	1	1	0	0	0.11408	0.14836	0.22059	0.31923	0.15452	0.14659	0.17525	0.26008	0.10275	0.13753	0.25829	0.13805	0.13258	0.30543	0.17401	0.047988	-2.6354	-3.375	-3.1	-3.2125	-3.2313	-3.0417	-3.4104	-3.5938	-2.8771	-3.3542	-3.1688	-3.2958	-3.5479	-3.0333	-3.2438	-3.6437	413.489	293.585	153.753	403.027	106.407	384.928	316.150	409.593	386.430	401.593	441.716	389.635	416.799	348.605	247.765	183.606	0.00068673	0.00067624	0.00016551	1382	5.2383e-06	4.8848e-06	1379	371.09	5.7025e-06	6.132e-06	422.99	141.4	123.35	42.026	5.164e-06	51.775	0.00067082	0.00064272	0.00017856	1404.4	6.9834e-06	7.0873e-06	1399.7	378.87	7.2663e-06	7.233e-06	431.34	144.45	125.79	43.294	6.6186e-06	53.495	143.955	168.638	168.712	96.456	242.825	257.615	96.068	101.123	226.844	241.908	100.475	104.859	105.487	110.013	225.745	109.355	-8191	255	
25375.869	1	1	0	0	0.1755	0.11604	0.19971	0.094037	0.14594	0.13057	0.27144	0.21966	0.082798	0.10384	0.4122	0.21575	0.042882	0.263	0.2629	0.28573	-2.6708	-3.225	-3.2125	-3.2021	-3.3021	-3.0208	-3.375	-3.3833	-3.0375	-3.4354	-3.3417	-3.0708	-3.3125	-3.0938	-3.1667	-3.5292	100.424	394.701	251.961	119.987	155.049	249.151	394.525	346.941	349.746	342.186	412.157	285.986	424.124	129.165	130.728	435.666	0.00065545	0.00052208	0.0001092	1378.6	6.4063e-06	5.4497e-06	1375.2	370.6	5.8065e-06	3.5492e-06	423.16	141.65	122.56	41.906	5.978e-06	51.8	0.00065779	0.0006477	0.00016848	1402.3	7.0862e-06	7.1188e-06	1395.1	378.35	7.1773e-06	7.0436e-06	431.45	144.5	125.44	43.236	6.3512e-06	53.427	142.077	164.321	177.350	96.383	234.022	245.054	96.281	101.012	211.139	237.365	100.557	105.005	105.199	110.040	228.684	109.223	-8191	255	
25375.963	1	1	0	0	0.083848	0.10169	0.087674	0.30731	0.10714	0.10735	0.19931	0.17704	0.054671	0.059713	0.18654	0.19682	0.082435	0.10882	0.12471	0.046805	-2.7396	-3.1562	-3.2271	-3.1562	-3.3	-3.1229	-3.4354	-3.3833	-3.0979	-3.1937	-3.3396	-3.1937	-3.3979	-3.2104	-3.05	-3.4292	198.493	238.163	289.355	425.744	286.320	201.871	381.036	381.992	83.380	394.324	432.374	108.459	350.116	346.422	139.993	101.788	0.00062916	0.0005647	0.00014376	1377.9	5.9394e-06	5.2915e-06	1370.8	370.69	6.0208e-06	4.358e-06	421.5	141.51	122.66	41.808	4.6366e-06	51.68	0.00065172	0.00061165	0.0001651	1399.1	7.0605e-06	6.6631e-06	1392.8	378.41	6.9111e-06	6.5298e-06	430.07	144.27	125.46	43.133	6.4908e-06	53.362	141.490	186.150	158.680	96.474	223.786	240.392	96.304	101.227	204.676	235.720	100.523	104.840	105.280	109.896	221.651	109.160	-8191	255	
25376.059	1	1	0	0	0.27507	0.25468	0.30647	0.18823	0.16485	0.18133	0.23467	0.12981	0.075064	0.36714	0.19674	0.11654	0.027878	0.16186	0.17145	0.21519	-2.6396	-3.1562	-3.1896	-3.1333	-3.4562	-3.2875	-3.2583	-3.3979	-2.975	-3.1542	-3.4292	-3.1396	-3.3396	-3.3021	-3.1896	-3.4521	404.899	297.167	111.585	367.338	310.220	130.877	378.867	366.557	130.976	124.819	404.646	407.002	404.273	319.482	86.723	328.731	0.00068844	0.00046935	0.00014465	1374.2	5.4707e-06	4.7121e-06	1372.2	370.01	4.336e-06	5.1155e-06	420.72	140.76	122.89	41.817	5.251e-06	51.827	0.00065422	0.00060342	0.00016766	1397.2	6.969e-06	6.4483e-06	1392.4	377.61	6.8143e-06	6.4632e-06	430.25	144.09	125.5	43.146	7.1248e-06	53.343	143.982	194.034	168.935	96.555	228.365	244.860	96.438	101.131	220.996	234.827	100.816	104.802	105.399	110.165	229.452	108.783	-8191	255	
25376.180	1	1	0	0	0.13874	0.13881	0.18517	0.33831	0.1214	0.10502	0.34086	0.069064	0.29502	0.15336	0.30187	0.10499	0.20948	0.03019	0.27625	0.11539	-2.6292	-3.0292	-3.1604	-3.1875	-3.2771	-3.3729	-3.3104	-3.5167	-3.225	-3.1437	-3.4542	-3.2833	-3.3708	-3.2479	-3.2104	-3.5958	345.049	385.884	94.916	93.762	249.504	194.841	402.905	170.169	203.617	139.997	391.790	391.600	361.151	127.067	372.003	388.022	0.00067184	0.00042545	0.00011977	1376.9	5.4035e-06	6.3703e-06	1372.9	371.09	5.5863e-06	3.5783e-06	422.08	140.51	122.44	41.775	2.9965e-06	51.714	0.00065617	0.00058425	0.00017295	1396	6.5767e-06	6.5489e-06	1391.6	377.66	6.5936e-06	6.3917e-06	430.06	143.88	125.08	43.009	6.6483e-06	53.224	142.428	180.537	172.898	96.624	235.560	238.300	96.299	101.021	208.843	244.126	100.619	104.960	105.350	110.345	215.684	109.011	-8191	255	
25376.275	1	1	0	0	0.20893	0.25547	0.17816	0.18674	0.099453	0.126	0.29148	0.39918	0.13671	0.32108	0.074121	0.2598	0.29847	0.24281	0.092086	0.10555	-2.6229	-2.8542	-3.2375	-3.3688	-3.2396	-3.3854	-3.0938	-3.4583	-3.1083	-3.0792	-3.425	-3.2	-3.2583	-3.325	-3.0375	-3.2917	126.711	379.928	151.468	319.848	296.256	146.818	387.331	401.557	98.380	308.136	192.170	128.334	287.832	408.252	300.832	110.220	0.00065079	0.00045667	0.00012201	1363.1	4.2947e-06	6.152e-06	1358.1	369.83	5.5613e-06	4.6708e-06	419.01	140.39	122.79	41.767	5.5295e-06	51.514	0.00061974	0.00057591	0.00017421	1388.4	6.4328e-06	6.4625e-06	1383.8	376.75	6.3946e-06	6.2341e-06	429.12	143.43	125	42.98	7.0984e-06	53.221	143.012	171.490	174.158	96.509	220.231	224.084	96.313	101.074	221.513	241.435	100.580	104.967	105.519	110.309	221.708	109.401	-8191	255	
25376.371	1	1	0	0	0.073695	0.33537	0.18178	0.46576	0.12374	0.1389	0.21195	0.1869	0.1729	0.11541	0.24712	0.31372	0.0898	0.22405	0.1935	0.18976	-2.9125	-3.0187	-3.4792	-3.2417	-3.3708	-3.3292	-3.2625	-3.3333	-3.1937	-3.1333	-3.5583	-3.4792	-3.2229	-3.5479	-3.1104	-3.5208	330.935	294.847	146.784	353.184	317.677	391.894	380.430	396.680	298.169	84.203	392.945	442.120	178.988	406.475	200.553	364.722	0.00062233	0.00050246	0.00015637	1365.9	5.0942e-06	5.1761e-06	1359.8	368.93	6.5358e-06	5.4925e-06	419.67	140.84	122.7	41.594	6.6049e-06	51.544	0.00060134	0.0006195	0.00018069	1386.5	6.2589e-06	6.6909e-06	1383.6	375.81	6.2835e-06	6.8567e-06	428.56	143.65	124.93	43.007	7.3479e-06	53.288	146.651	169.667	177.000	96.511	235.478	240.937	96.367	101.065	228.078	234.917	100.556	104.937	105.275	110.251	219.595	109.275	-8191	255	
25376.443	1	1	0	0	0.061192	0.29748	0.17891	0.15439	0.17388	0.066672	0.21095	0.23493	0.034105	0.041399	0.21471	0.28095	0.08961	0.23546	0.21366	0.16396	-2.7979	-3.0271	-3.4021	-3.225	-3.075	-3.4021	-3.4417	-3.4167	-3.2771	-2.9479	-3.5396	-3.2146	-3.2542	-3.475	-3.1042	-3.3479	268.811	107.990	255.030	349.502	237.306	412.885	394.327	381.965	296.398	345.201	299.766	391.247	314.637	116.197	127.693	362.065	0.00064095	0.00052351	0.00017058	1365.6	4.5614e-06	5.1197e-06	1364	368.32	6.922e-06	4.4629e-06	422.3	140.42	122.36	41.697	5.0874e-06	51.886	0.00060845	0.00064516	0.00017999	1388.5	6.3081e-06	7.0688e-06	1384.7	376.73	6.4258e-06	6.9025e-06	429.77	143.47	125.08	43.028	7.0665e-06	53.277	141.872	178.028	175.723	96.424	234.563	230.319	96.415	101.116	221.550	234.225	100.782	104.865	105.639	109.992	235.846	109.284	-8191	255	
25376.564	1	1	0	0	0.14549	0.23898	0.075419	0.29678	0.038868	0.14301	0.036475	0.14275	0.12124	0.18958	0.18009	0.070201	0.046363	0.2356	0.11291	0.2111	-2.8271	-2.9562	-3.425	-3.5042	-3.0896	-3.4208	-3.2396	-3.4167	-3.2771	-3.1708	-3.4604	-3.3917	-3.1562	-3.525	-3.2938	-3.2188	97.065	339.063	113.525	432.751	274.799	274.204	90.932	389.484	340.198	375.554	123.202	278.192	179.626	84.103	224.438	417.855	0.0006812	0.00049314	0.00012752	1363	4.8039e-06	4.1496e-06	1363.8	368.58	4.3163e-06	5.4491e-06	421.95	140.48	122.17	41.831	4.7058e-06	51.572	0.00062917	0.00064981	0.00017696	1389.8	6.6645e-06	6.9465e-06	1384.9	376.44	6.4894e-06	7.354e-06	429.54	143.59	124.96	43.033	6.6819e-06	53.167	141.458	172.051	178.310	96.452	205.755	263.751	96.378	101.214	230.485	237.238	100.597	104.921	105.437	110.100	230.831	109.065	-8191	255	
25376.660	1	1	0	0	0.14793	0.17882	0.12521	0.23391	0.17956	0.12644	0.31786	0.12587	0.21078	0.019202	0.20529	0.23077	0.16645	0.17359	0.063937	0.42267	-2.9104	-3.0021	-3.2833	-3.3542	-3.0146	-3.2917	-3.3333	-3.4313	-3.3021	-2.9062	-3.4104	-3.35	-3.25	-3.3042	-3.2375	-3.1583	174.296	401.977	156.309	94.262	344.209	230.582	366.688	427.596	123.009	172.513	392.521	415.145	188.229	406.655	268.121	439.656	0.00066474	0.00047202	0.00016208	1366	4.5874e-06	4.7432e-06	1369	370.64	6.3656e-06	5.2453e-06	419.93	140.95	122.21	41.742	4.8184e-06	51.919	0.00062646	0.00064684	0.00018197	1390.2	6.9604e-06	7.4157e-06	1387.7	377.56	6.8736e-06	7.2398e-06	429.9	143.81	125.16	43.129	6.5653e-06	53.313	140.542	171.669	165.443	96.572	229.179	233.110	96.219	100.975	224.479	237.593	100.566	104.868	105.579	110.156	234.301	109.272	-8191	255	
25376.758	1	1	0	0	0.33106	0.17045	0.25835	0.089422	0.024793	0.023867	0.041902	0.23778	0.22403	0.17669	0.17865	0.2811	0.039508	0.20163	0.043519	0.31032	-2.8125	-2.8125	-3.1	-3.4896	-3.0292	-3.4625	-3.3917	-3.2812	-3.3688	-3.0729	-3.4042	-3.2958	-2.9729	-3.4125	-2.9792	-3.2188	439.377	241.104	404.796	181.291	154.434	352.037	158.752	367.069	243.225	435.575	114.081	354.383	138.177	440.845	246.775	404.487	0.00065223	0.00043218	0.00013693	1368.9	6.2348e-06	4.6689e-06	1367	370.47	5.6853e-06	4.973e-06	420.54	140.78	122.44	41.913	6.2196e-06	51.787	0.00065484	0.00067558	0.00017426	1392.1	7.0824e-06	7.1447e-06	1388.6	377.13	7.1646e-06	7.321e-06	429.26	143.71	124.93	43.101	6.6629e-06	53.319	142.236	170.884	177.538	96.429	232.363	245.101	96.427	101.249	206.342	242.409	100.604	104.930	105.516	110.165	221.925	109.242	-8191	255	
25376.854	1	1	0	0	0.30794	0.16994	0.30004	0.060575	0.19303	0.072127	0.23986	0.13475	0.23443	0.019959	0.09929	0.24154	0.15524	0.24196	0.38444	0.15687	-2.775	-2.9833	-3.1271	-3.3708	-2.9958	-3.3187	-3.4396	-3.1833	-3.4958	-3.2667	-3.225	-3.4208	-3.0187	-3.275	-3.1146	-3.1646	401.102	271.430	109.888	355.836	396.759	155.051	84.388	406.875	163.187	211.507	88.145	420.025	141.903	394.676	333.861	308.509	0.00066933	0.00044949	0.00012114	1374.7	5.874e-06	4.7938e-06	1372.5	370.41	6.5263e-06	3.7003e-06	420.54	140.07	122.64	41.787	6.0569e-06	51.62	0.00065564	0.00065144	0.00016977	1393.3	7.442e-06	7.3768e-06	1389.5	376.95	7.125e-06	7.3302e-06	430	143.71	125.09	43.083	6.5642e-06	53.22	144.378	186.443	177.006	96.306	224.993	234.938	96.235	101.196	212.935	263.615	100.349	105.122	105.479	110.293	215.352	109.271	-8191	255	
25376.973	1	1	0	0	0.15901	0.036486	0.091961	0.2282	0.25893	0.058095	0.17186	0.20564	0.12474	0.14934	0.11335	0.25062	0.18099	0.30874	0.47493	0.16499	-2.8125	-3.0833	-3.0563	-3.5417	-2.8729	-3.2792	-3.3937	-3.1604	-3.3771	-3.1063	-3.3625	-3.3542	-3.2354	-3.4125	-3.3542	-3.0521	394.761	410.250	340.526	391.957	122.977	236.824	383.884	395.259	390.520	120.356	345.673	366.414	389.250	86.443	360.238	162.270	0.00066683	0.00043669	0.00014317	1370.7	5.2962e-06	4.4319e-06	1367.6	369.56	6.3303e-06	4.0612e-06	421.79	140.36	122.06	41.904	4.429e-06	51.459	0.00065906	0.00063861	0.00016935	1392.3	7.0514e-06	6.8872e-06	1388.5	377.5	7.0524e-06	6.8194e-06	430.37	143.66	125.21	43.154	6.4857e-06	53.224	143.703	171.988	179.535	96.599	254.180	239.533	96.306	101.138	225.120	226.797	100.612	104.740	105.310	110.049	233.348	109.301	-8191	255	
25377.043	1	1	0	0	0.066237	0.23799	0.12946	0.029206	0.043477	0.13374	0.29509	0.28045	0.08745	0.07222	0.14024	0.12782	0.17859	0.034229	0.11745	0.11014	-2.9417	-3.0458	-3.1813	-3.6625	-3.05	-3.2667	-3.4854	-3.2562	-3.2792	-3.0854	-3.1562	-3.4333	-3.1354	-3.2625	-3.2646	-3.3	438.573	236.002	268.794	317.302	328.610	93.510	360.905	437.086	395.259	264.527	375.481	126.391	91.112	319.732	164.896	438.940	0.00061799	0.00050862	0.00016124	1368	5.423e-06	4.3397e-06	1364.3	371.21	5.9184e-06	6.0322e-06	420.63	140.55	122.86	41.939	4.3232e-06	51.925	0.00065861	0.00061841	0.00016675	1393	7.16e-06	6.7625e-06	1388.4	377.64	6.7698e-06	6.6893e-06	430.21	143.97	125.31	43.117	6.5597e-06	53.337	145.714	156.212	194.359	96.558	225.617	236.473	96.206	101.065	221.372	228.059	100.460	104.930	105.404	110.065	212.942	109.304	-8191	255	
25377.141	1	1	0	0	0.039421	0.13975	0.2392	0.29945	0.1466	0.2521	0.10613	0.18008	0.19544	0.068066	0.20554	0.10207	0.19352	0.14832	0.010874	0.15005	-2.8688	-3.0958	-3.0187	-3.6188	-3.0812	-3.2708	-3.5354	-2.9688	-3.4021	-3.1688	-3.1542	-3.5833	-3.3729	-3.1979	-3.5021	-3.0583	183.514	220.682	363.943	356.846	318.172	282.016	425.305	434.229	420.780	386.197	349.980	307.609	367.830	215.360	211.921	169.626	0.00062746	0.00072525	0.00014998	1371.8	4.3779e-06	4.4952e-06	1371.1	369.73	4.8491e-06	5.3473e-06	421.54	140.72	122.28	41.744	4.7324e-06	51.565	0.00064125	0.00058068	0.00017199	1394.1	6.9931e-06	6.4137e-06	1388.2	377.21	6.5486e-06	6.311e-06	430.2	143.77	125.05	43.106	6.7105e-06	53.246	144.624	164.368	170.943	96.550	237.311	250.323	96.245	101.108	205.777	235.092	100.588	104.884	105.483	110.058	225.485	109.159	-8191	255	
25377.260	1	1	0	0	0.064561	0.19911	0.1203	0.23244	0.088801	0.13237	0.31276	0.1475	0.14827	0.087921	0.089377	0.17671	0.17886	0.22381	0.29513	0.14519	-2.8583	-3.2458	-3.1479	-3.4896	-3.175	-3.2771	-3.675	-3.4417	-3.3125	-3.375	-3.0687	-3.3583	-3.0792	-3.2208	-3.3917	-3.225	104.792	412.017	254.721	437.621	410.935	327.240	407.801	85.154	208.940	311.009	115.743	434.507	417.125	115.217	244.877	401.936	0.00067672	0.00055335	0.00018731	1370.7	5.6464e-06	4.5012e-06	1371.1	369.49	4.6244e-06	6.3249e-06	420.48	140.44	122.62	41.79	5.3586e-06	51.477	0.00064096	0.00059129	0.00018436	1392.6	6.6698e-06	6.6934e-06	1389.2	376.91	6.6518e-06	6.355e-06	429.58	143.84	125.19	43.086	6.9448e-06	53.241	143.217	188.949	181.277	96.629	238.060	233.774	96.373	101.210	234.379	234.389	100.622	104.928	105.417	109.996	229.322	109.215	-8191	255	
25377.355	1	1	0	0	0.37322	0.1751	0.057861	0.3998	0.18561	0.11704	0.4183	0.17141	0.25092	0.33483	0.27543	0.19629	0.13477	0.096322	0.16436	0.17673	-2.7458	-3.225	-2.9708	-3.4354	-3.0521	-3.1437	-3.55	-3.2667	-3.1167	-3.325	-3.1646	-3.4646	-3.4146	-3.2292	-3.4604	-3.2146	93.844	157.261	252.697	364.222	423.376	180.419	385.550	402.155	396.125	296.630	412.349	432.160	391.509	132.006	388.646	343.916	0.00064825	0.00062149	0.00013378	1372.5	6.492e-06	4.7574e-06	1370.9	369.35	6.3693e-06	4.4444e-06	421.53	141.11	122.25	41.963	5.069e-06	51.678	0.00063344	0.00061008	0.00018883	1392.7	6.6056e-06	6.6693e-06	1388.7	376.9	6.474e-06	6.6019e-06	430.39	143.97	125.02	43.139	6.9185e-06	53.334	144.812	173.468	175.969	96.381	220.327	234.815	96.422	101.045	223.044	239.280	100.417	104.951	105.391	109.992	234.421	109.018	-8191	255	
25377.451	1	1	0	0	0.11383	0.1258	0.028104	0.19357	0.2523	0.16711	0.12429	0.27392	0.25118	0.13816	0.14277	0.28677	0.29371	0.20696	0.17677	0.33529	-2.8521	-3.2938	-2.9479	-3.5417	-3.2292	-3.0417	-3.6479	-3.2562	-3.2125	-3.4583	-3.1937	-3.3396	-3.4646	-3.1063	-3.3563	-3.3167	225.807	160.118	188.362	383.215	178.647	405.441	345.479	411.444	111.703	410.585	396.811	394.514	391.087	341.167	225.107	418.103	0.00069648	0.00045994	0.00011455	1370.9	5.3891e-06	3.6424e-06	1365.3	369.58	5.6355e-06	4.551e-06	421.05	140.17	122.44	41.86	5.7413e-06	51.536	0.0006195	0.00061441	0.00018734	1393.6	6.1834e-06	7.1929e-06	1388.3	376.88	6.4052e-06	6.9355e-06	430.21	143.78	125.11	43.128	6.937e-06	53.182	142.596	173.678	178.297	96.679	222.043	227.400	96.315	101.091	198.820	226.758	100.758	104.852	105.326	110.073	234.808	109.231	-8191	255	
25377.549	1	1	0	0	0.14899	0.19523	0.051634	0.48481	0.041857	0.15425	0.30858	0.27677	0.086908	0.11959	0.18626	0.16766	0.25925	0.30574	0.21734	0.29602	-2.6667	-3.4375	-3.0125	-3.3896	-3.2833	-3.0167	-3.6708	-3.2062	-3.1521	-3.5042	-3.2708	-3.3	-3.3438	-3.0979	-3.3312	-3.3104	106.101	236.602	144.806	413.172	234.304	361.814	356.645	103.032	296.434	216.414	370.897	122.832	433.180	368.465	335.978	372.193	0.00064669	0.00045246	0.00010103	1370.6	6.0682e-06	6.1163e-06	1371.5	369.73	7.022e-06	5.5372e-06	420.53	141.1	122.38	41.968	5.58e-06	51.637	0.00061956	0.00063292	0.00018119	1392.2	6.5211e-06	7.1997e-06	1389.2	377.44	6.6915e-06	7.2153e-06	429.86	143.77	125.26	43.136	7.3249e-06	53.24	141.237	161.560	166.372	96.396	209.411	223.729	96.348	101.318	217.601	242.885	100.505	104.790	105.647	110.095	216.996	109.226	-8191	255	
25377.670	1	1	0	0	0.15644	0.15591	0.076027	0.098643	0.17285	0.20967	0.26268	0.13784	0.26948	0.097054	0.24476	0.36382	0.18212	0.20112	0.23962	0.35427	-2.5979	-3.3625	-3.1125	-3.3458	-3.3312	-3.1479	-3.5333	-3.3583	-3.0333	-3.4333	-3.3542	-3.4021	-3.3521	-3.0479	-3.3479	-3.3292	347.509	408.774	404.168	422.583	120.960	191.057	356.962	367.178	286.910	352.668	423.185	411.641	378.860	430.686	126.618	323.379	0.00065177	0.00052188	0.0001226	1368	5.1361e-06	4.6484e-06	1362.3	369.13	6.1713e-06	4.6749e-06	420.27	140.22	122.38	41.828	7.2357e-06	51.703	0.00063356	0.00065967	0.00017694	1392.8	6.5735e-06	7.404e-06	1387.5	376.79	6.8439e-06	7.0125e-06	429.39	143.76	125.22	43.128	6.6999e-06	53.246	143.259	155.067	170.484	96.632	222.130	231.926	96.378	101.102	209.314	236.213	100.647	105.033	105.428	109.943	229.438	109.118	-8191	255	
25377.740	1	1	0	0	0.2466	0.1977	0.063544	0.073202	0.060742	0.1476	0.34433	0.28981	0.22365	0.088607	0.26859	0.2268	0.20465	0.084059	0.20261	0.21257	-2.5687	-3.5771	-3.1854	-3.275	-3.3583	-3.0333	-3.5625	-3.3833	-3.0125	-3.2708	-3.3937	-3.3375	-3.525	-3.0625	-3.2792	-3.2083	175.937	167.805	149.743	128.357	205.753	162.765	412.207	93.232	145.469	130.789	416.055	419.081	359.631	361.267	251.772	384.819	0.00067914	0.00058735	0.00011858	1367.5	4.5802e-06	4.6878e-06	1368.1	369.78	6.6331e-06	4.5202e-06	421.29	141.06	122.35	41.875	4.3827e-06	51.588	0.00063975	0.0006366	0.00016983	1391.9	6.6682e-06	7.0194e-06	1387.9	376.4	6.9397e-06	7.0076e-06	430.24	144.01	125.05	43.149	6.5603e-06	53.24	143.855	169.462	191.105	96.457	221.272	247.411	96.319	101.020	211.597	227.451	100.596	104.912	105.571	110.133	219.644	109.314	-8191	255	
25377.861	1	1	0	0	0.09497	0.052426	0.20668	0.35945	0.25787	0.10842	0.050609	0.18949	0.033097	0.14391	0.3535	0.29197	0.19869	0.3406	0.1577	0.29596	-2.6813	-3.4167	-3.1958	-3.2833	-3.4646	-3.0146	-3.5604	-3.2625	-2.9583	-3.4938	-3.3021	-3.1833	-3.325	-3.1667	-3.2354	-3.4792	330.199	354.357	125.140	411.217	225.588	98.731	286.451	368.529	91.039	230.595	417.593	398.939	425.727	414.467	379.510	111.316	0.0006661	0.00046761	0.00013567	1367.3	5.9843e-06	5.1713e-06	1365.3	369.64	5.5906e-06	5.8664e-06	417.94	140.97	122.58	41.778	4.1862e-06	51.684	0.00066112	0.00064034	0.00016538	1391.3	6.9872e-06	7.1472e-06	1387.3	376.63	7.28e-06	7.139e-06	428.54	143.69	124.96	43.046	6.1539e-06	53.284	143.726	178.368	167.866	96.556	230.122	249.746	96.159	101.164	229.239	235.498	100.644	104.851	105.209	110.090	235.549	109.330	-8191	255	
25377.955	1	1	0	0	0.16723	0.098521	0.18638	0.17034	0.071531	0.082803	0.30352	0.30103	0.11865	0.13199	0.31235	0.26776	0.47332	0.20748	0.071014	0.15765	-2.7	-3.2021	-3.2625	-3.2125	-3.3104	-3.0417	-3.3208	-3.4958	-3.1542	-3.3646	-3.2396	-3.1771	-3.3958	-3.3958	-3.225	-3.3812	149.331	310.733	272.024	399.553	156.588	357.376	406.026	382.848	133.621	100.821	411.922	433.659	161.128	390.180	90.354	351.974	0.00066578	0.00036946	0.00013375	1369.7	5.1042e-06	3.664e-06	1361.9	368.69	6.3666e-06	4.7475e-06	422.59	140.9	122.76	41.799	4.3657e-06	51.797	0.00066133	0.00062107	0.00016612	1391.9	6.8352e-06	7.0768e-06	1385.7	376.68	6.9434e-06	6.9587e-06	429.61	143.75	125.22	43.053	6.2907e-06	53.31	143.158	184.468	168.964	96.409	217.633	243.847	96.226	101.247	228.439	225.146	100.532	104.698	105.512	109.680	246.900	109.339	-8191	255	
25378.053	1	1	0	0	0.14187	0.11939	0.27983	0.20642	0.15034	0.12288	0.19538	0.058021	0.1594	0.10789	0.11112	0.27484	0.1174	0.17953	0.13296	0.18784	-2.7438	-3.2167	-3.2854	-3.3708	-3.3958	-3.1479	-3.3937	-3.5104	-2.9625	-3.3521	-3.4542	-3.0812	-3.35	-3.2208	-3.0729	-3.5875	281.760	420.350	359.653	390.662	225.832	174.752	388.479	436.159	378.131	425.336	395.310	440.295	387.153	440.440	369.823	239.550	0.00064007	0.00043578	0.0001343	1365	5.6295e-06	4.8539e-06	1363.3	369.37	5.5557e-06	3.7468e-06	419.53	141.08	121.75	41.811	6.0315e-06	51.506	0.00065658	0.00058436	0.00016516	1389.1	6.8427e-06	6.7452e-06	1385.6	376.32	7.0731e-06	6.3996e-06	428.69	143.74	124.9	43.089	6.6399e-06	53.254	142.296	168.064	173.018	96.484	238.467	240.665	96.261	101.131	213.747	237.355	100.625	104.853	105.563	109.983	215.495	109.343	-8191	255	
25378.148	1	1	0	0	0.15432	0.28313	0.075385	0.16508	0.11874	0.09391	0.22319	0.29334	0.19451	0.16695	0.11173	0.11962	0.043277	0.047739	0.22357	0.19413	-2.7396	-3.2417	-3.1083	-3.1292	-3.2062	-3.2604	-3.1813	-3.6146	-2.9625	-3.2854	-3.4729	-3.0292	-3.3792	-3.225	-3.1417	-3.3688	262.232	184.803	113.778	428.817	136.402	185.305	398.693	417.326	308.299	286.401	114.878	428.140	117.395	240.448	368.609	378.149	0.00070815	0.00055476	0.00016372	1366.3	5.6423e-06	6.3558e-06	1364.3	368.88	5.787e-06	4.9693e-06	419.85	140.17	122.25	41.649	4.521e-06	51.555	0.00065864	0.00057711	0.00016873	1390.1	6.9567e-06	6.3908e-06	1387.6	376.08	6.8318e-06	6.4363e-06	429.06	143.65	125.04	43.016	6.9291e-06	53.162	143.435	178.698	167.107	96.641	220.336	231.510	96.285	100.965	208.710	222.292	100.462	104.950	105.611	110.135	220.698	109.248	-8191	255	
25378.270	1	1	0	0	0.080787	0.21983	0.16903	0.3873	0.10269	0.015159	0.22331	0.21736	0.12984	0.21217	0.23642	0.16238	0.41072	0.087584	0.24508	0.33211	-2.6417	-3.0458	-3.4625	-3.3271	-3.2875	-3.3333	-3.2771	-3.55	-3.1167	-3.1708	-3.4333	-3.2104	-3.4646	-3.3646	-3.0604	-3.4604	313.673	320.488	111.464	418.695	357.961	393.796	396.871	410.818	356.712	226.335	115.231	129.812	434.382	163.009	331.155	391.154	0.00065473	0.00053619	0.00010099	1366.7	5.1211e-06	5.8647e-06	1364.5	370.65	6.0722e-06	3.2065e-06	421.29	140.55	122.36	41.723	5.9089e-06	51.564	0.00063595	0.00059465	0.00017386	1390.4	6.771e-06	6.497e-06	1386.2	376.87	6.7915e-06	6.0361e-06	429.15	143.72	124.97	43.007	7.0216e-06	53.113	142.150	175.346	182.196	96.478	235.251	235.232	96.285	100.967	214.409	243.463	100.471	104.771	105.595	110.180	225.349	109.338	-8191	255	
25378.340	1	1	0	0	0.16108	0.12244	0.11175	0.035716	0.19848	0.14154	0.020855	0.25874	0.256	0.062014	0.38844	0.2494	0.15427	0.11088	0.08297	0.30551	-2.7479	-3.0854	-3.3854	-3.1854	-3.4229	-3.3333	-3.0167	-3.7208	-3.1729	-3.1063	-3.5521	-3.325	-3.3646	-3.5292	-2.9417	-3.4458	202.690	325.019	129.460	282.066	427.418	327.947	397.647	431.548	391.510	213.795	92.509	369.980	92.410	144.131	337.047	334.849	0.00067886	0.00061814	0.00013289	1365.8	5.8258e-06	4.063e-06	1361.2	369.33	6.1201e-06	6.9419e-06	419.65	140.71	122.38	41.856	4.4177e-06	51.494	0.00062761	0.00058701	0.00017039	1388.8	6.4274e-06	6.5594e-06	1384.6	376.51	6.42e-06	6.5597e-06	429.27	143.74	124.99	43.093	7.0003e-06	53.19	143.385	176.359	176.257	96.618	224.018	248.539	96.321	101.172	227.064	235.652	100.749	105.116	105.570	110.140	231.492	109.375	-8191	255	
25378.438	1	1	0	0	0.26023	0.15163	0.18806	0.13703	0.099932	0.18624	0.18532	0.27081	0.16681	0.19271	0.30898	0.18569	0.31421	0.34434	0.12828	0.078302	-2.6813	-2.9479	-3.3771	-3.1688	-3.1229	-3.1646	-3.2729	-3.5438	-3.125	-2.8792	-3.3958	-3.2438	-3.1667	-3.5375	-3.0125	-3.4125	130.899	198.092	397.434	345.267	305.394	353.220	435.830	378.699	173.305	429.987	403.255	387.950	374.184	442.420	403.009	190.177	0.00064074	0.00051291	0.00015831	1362.3	3.9777e-06	6.5448e-06	1365.8	368.71	5.0059e-06	4.6285e-06	418.94	140.27	122.61	41.862	6.2881e-06	51.668	0.00060441	0.00060342	0.00017403	1387.5	6.3145e-06	6.9119e-06	1384.3	376.3	6.4264e-06	6.6489e-06	428.45	143.4	124.94	43.052	6.8355e-06	53.256	140.941	162.714	181.876	96.571	225.394	231.574	96.300	101.244	208.249	240.469	100.441	104.672	105.498	110.102	230.541	109.485	-8191	255	
25378.533	1	1	0	0	0.23117	0.052269	0.33669	0.18883	0.38918	0.11659	0.29473	0.0056896	0.068745	0.072636	0.053132	0.20765	0.2461	0.087018	0.19895	0.17127	-2.7417	-3.1917	-3.2771	-3.1396	-3.1708	-3.3187	-3.3292	-3.6188	-3.2938	-2.9208	-3.3708	-3.075	-3.1604	-3.3583	-2.9271	-3.4021	329.165	306.322	430.517	418.444	212.607	87.376	414.453	406.497	105.492	170.774	380.454	416.913	409.520	397.731	339.091	382.651	0.00068035	0.0004718	0.00011675	1369.5	5.7064e-06	4.1136e-06	1363.6	367.75	7.3929e-06	5.6466e-06	419.26	139.79	122.31	41.62	5.3543e-06	51.854	0.00060862	0.00062258	0.00017668	1388.5	6.2781e-06	6.6946e-06	1383.2	375.83	6.2708e-06	7.0113e-06	428.66	143.35	124.99	43.024	6.9067e-06	53.243	139.870	173.557	190.343	96.537	223.209	244.291	96.422	101.127	221.130	233.087	100.581	104.928	105.147	109.980	243.016	109.432	-8191	255	
25378.629	1	1	0	0	0.21768	0.21189	0.012532	0.28933	0.18051	0.11072	0.2265	0.36706	0.074687	0.11759	0.17252	0.18215	0.21012	0.20781	0.0060815	0.13076	-2.8083	-3.0146	-3.2188	-3.2125	-3.1625	-3.4	-3.3	-3.2479	-3.3229	-3.075	-3.5458	-3.1146	-3.0812	-3.3854	-3.0646	-3.0958	263.609	201.873	433.819	117.126	343.714	426.353	130.928	413.895	384.080	431.509	393.340	423.592	387.578	357.485	350.787	203.495	0.00067173	0.00052389	0.00015362	1371.6	6.0094e-06	3.7071e-06	1359.8	368.8	5.4087e-06	5.5905e-06	420.8	139.95	122.04	41.865	4.7355e-06	51.794	0.00060927	0.00063417	0.00017991	1388.6	6.543e-06	7.0157e-06	1383.1	375.89	6.7466e-06	7.0473e-06	428.26	143.31	125.04	43.04	6.8198e-06	53.184	142.001	174.573	180.647	96.484	236.628	213.023	96.272	101.192	214.795	236.553	100.706	104.836	105.279	110.131	232.526	109.296	-8191	255	
25378.750	1	1	0	0	0.23123	0.13075	0.11737	0.010056	0.19467	0.090914	0.23137	0.16034	0.13698	0.17944	0.16789	0.22306	0.18231	0.097882	0.17995	0.10473	-2.9292	-3.0958	-3.2458	-3.2333	-3.1208	-3.4062	-3.3271	-3.1646	-3.3521	-2.95	-3.2938	-3.3708	-3.175	-3.3438	-3.1708	-3.35	319.896	295.773	307.082	275.965	442.035	338.103	440.453	401.724	288.329	337.831	364.047	433.684	368.032	418.625	169.455	397.820	0.00069257	0.0006406	0.00015716	1366.9	5.5113e-06	4.6318e-06	1353.7	368.62	5.8745e-06	5.1012e-06	420.74	140.28	122.78	41.735	6.1716e-06	51.739	0.00063548	0.00063563	0.00017911	1385.3	6.6056e-06	7.2497e-06	1380.4	376.06	6.8053e-06	7.1328e-06	429.14	143.41	124.96	42.998	6.3921e-06	53.164	142.902	191.194	163.888	96.308	212.213	231.321	96.315	101.193	219.086	233.812	100.663	104.980	105.605	110.111	243.676	109.310	-8191	255	
25378.844	1	1	0	0	0.19881	0.18273	0.047596	0.12192	0.11862	0.23848	0.28636	0.13027	0.10138	0.086932	0.11334	0.12495	0.0855	0.29304	0.1935	0.27038	-2.8958	-3.0667	-3.25	-3.5146	-2.9167	-3.2958	-3.3187	-3.3479	-3.2875	-2.8375	-3.2708	-3.3583	-3.1271	-3.3875	-2.9979	-3.0146	411.564	175.468	293.599	427.798	353.535	111.716	386.620	94.641	142.145	263.447	179.994	256.265	219.447	385.835	159.025	303.361	0.00069756	0.00041478	0.00015798	1360.8	3.7182e-06	4.7995e-06	1356.1	368.92	6.3474e-06	4.9702e-06	419.24	140.67	121.99	41.674	4.6545e-06	51.583	0.00065458	0.00063065	0.00016419	1385	6.8721e-06	6.849e-06	1379.8	376.1	6.6502e-06	6.8939e-06	429.09	143.46	124.83	42.994	6.3798e-06	53.145	142.894	178.125	179.373	96.621	236.873	245.037	96.444	101.037	220.281	220.800	100.607	104.721	105.628	110.256	218.588	109.528	-8191	255	
25378.941	1	1	0	0	0.10645	0.215	0.11581	0.35159	0.23259	0.1451	0.16714	0.15202	0.33765	0.24269	0.10128	0.26178	0.1219	0.098043	0.16585	0.18492	-2.8417	-2.8792	-3.3229	-3.3812	-3.025	-3.3063	-3.4583	-3.1	-3.3479	-3.0521	-3.2979	-3.3438	-3.0687	-3.35	-3.225	-3.2292	310.247	187.620	288.113	400.833	210.285	151.062	392.815	362.322	366.666	440.013	424.605	440.289	325.819	245.638	364.338	375.402	0.00066911	0.00039768	0.00015049	1359	5.7991e-06	5.8421e-06	1355.5	368.78	6.4326e-06	4.0315e-06	421	140.25	122.05	41.836	6.4571e-06	51.575	0.00065072	0.00063032	0.00015945	1382.5	6.7143e-06	6.9941e-06	1379.1	375.64	6.9064e-06	6.8597e-06	429.35	143.48	124.7	43.005	6.1707e-06	53.171	141.911	166.296	189.870	96.521	215.260	252.852	96.428	101.367	211.154	238.401	100.568	105.048	105.420	109.847	224.988	109.144	-8191	255	
25379.035	1	1	0	0	0.3134	0.208	0.18707	0.37322	0.15809	0.14283	0.41452	0.32021	0.29394	0.15129	0.31264	0.17372	0.1846	0.11252	0.1467	0.013559	-2.8479	-3.0792	-3.1437	-3.5083	-2.8458	-3.1667	-3.35	-3.0646	-3.3396	-3.0167	-3.2771	-3.3083	-3.0396	-3.1312	-3.3333	-2.9833	365.914	190.127	237.114	401.507	356.813	401.990	350.467	431.245	323.884	174.091	89.290	413.075	326.528	83.623	404.769	131.271	0.00065673	0.00056815	0.00012072	1361	6.0914e-06	5.9111e-06	1359	369.47	6.7985e-06	5.3478e-06	419.26	140.51	121.94	41.723	6.4098e-06	51.409	0.00062649	0.00061717	0.00016143	1382.5	6.9813e-06	6.7959e-06	1380.3	375.89	6.8079e-06	6.71e-06	427.79	143.33	124.73	43.028	6.2901e-06	53.088	145.005	167.847	178.555	96.529	228.520	250.426	96.200	101.119	219.084	217.798	100.608	104.847	105.276	109.917	226.776	109.060	-8191	255	
25379.133	1	1	0	0	0.092881	0.028117	0.073809	0.12653	0.14232	0.27142	0.22721	0.26949	0.064338	0.28591	0.096794	0.031331	0.094475	0.13422	0.14685	0.16669	-2.9271	-3.2375	-3.275	-3.4313	-2.9208	-3.2417	-3.4542	-3.2458	-3.3229	-3.1104	-3.0854	-3.4729	-2.9667	-3.3583	-3.2708	-3.1833	401.787	392.254	358.796	376.098	403.713	119.290	321.967	408.009	120.246	250.231	340.680	171.709	405.465	390.606	236.794	315.406	0.00068475	0.00047039	0.00013679	1362.2	6.5428e-06	4.5716e-06	1358.6	367.96	6.7239e-06	4.4605e-06	420.06	140.19	121.81	41.725	3.8164e-06	51.499	0.0006513	0.00059243	0.00016432	1383.6	6.9342e-06	6.3921e-06	1379.2	375.13	6.6698e-06	6.1222e-06	428.41	143.4	124.79	42.973	6.2789e-06	53.1	143.093	162.557	182.743	96.426	225.437	230.952	96.272	101.213	229.457	220.866	100.448	105.059	105.621	110.069	215.490	109.242	-8191	255	
25379.229	1	1	0	0	0.29215	0.086792	0.26872	0.25854	0.082065	0.16695	0.17224	0.32335	0.32103	0.12924	0.40275	0.47669	0.079091	0.22753	0.20375	0.094254	-2.9688	-3.2167	-3	-3.6229	-3.15	-3.15	-3.5646	-3.1042	-3.3521	-3.2417	-3.0979	-3.3875	-3.3083	-3.2354	-3.525	-3.1125	253.943	305.311	143.786	344.028	418.106	169.796	309.130	131.352	433.059	197.945	435.812	396.387	413.910	419.210	169.227	317.039	0.00063591	0.0005754	0.00012628	1361.6	3.682e-06	6.0016e-06	1354.5	368.06	5.5802e-06	3.8796e-06	419.03	140.23	122.33	41.751	4.4599e-06	51.678	0.00063453	0.00056617	0.00017353	1383	6.7506e-06	6.121e-06	1380	375.76	6.799e-06	6.217e-06	427.7	143.31	124.94	42.977	6.6231e-06	53.168	140.501	168.369	178.732	96.643	227.741	238.847	96.305	101.176	223.100	231.748	100.647	104.874	105.573	109.933	218.752	109.436	-8191	255	
25379.350	1	1	0	0	0.1424	0.20349	0.1136	0.18698	0.22596	0.070218	0.17432	0.23273	0.11711	0.075667	0.20372	0.11517	0.19866	0.10484	0.19612	0.21572	-2.7958	-3.1813	-2.9208	-3.3458	-3.0354	-3.2042	-3.4938	-3.1208	-3.2562	-3.2708	-3.1875	-3.4688	-3.1125	-2.9688	-3.425	-3.1021	332.670	361.237	270.207	443.046	368.737	307.344	425.371	306.919	368.654	368.988	328.408	88.530	341.077	331.525	424.764	427.766	0.00064314	0.00082289	0.00014668	1363.4	5.9815e-06	5.8034e-06	1361.1	368.7	4.9411e-06	5.1256e-06	421.06	140.02	122.08	41.579	5.1308e-06	51.729	0.00062124	0.0005796	0.00017353	1385.8	6.4205e-06	6.4618e-06	1382.3	375.61	6.3189e-06	6.1571e-06	428.95	143.28	124.77	42.976	6.7767e-06	53.185	142.958	160.068	182.024	96.586	224.415	227.197	96.420	101.246	206.862	236.607	100.373	104.834	105.438	110.122	231.321	109.309	-8191	255	
25379.445	1	1	0	0	0.16993	0.18295	0.16524	0.068058	0.079621	0.031506	0.16985	0.17614	0.30222	0.063881	0.2469	0.1372	0.30168	0.19807	0.16817	0.1699	-2.7792	-3.1729	-2.9938	-3.5229	-3.0812	-3.1333	-3.4979	-3.2458	-3.2625	-3.3875	-3.0958	-3.5	-3.3771	-3.1583	-3.4479	-3.1437	222.466	199.708	145.853	131.037	113.034	249.136	376.945	425.731	382.541	191.820	361.575	407.080	88.014	402.753	213.556	94.589	0.0006497	0.00055039	0.00010293	1364	5.3686e-06	4.6207e-06	1359.5	368.65	5.5352e-06	4.1343e-06	420.03	140.51	122.01	41.633	5.9387e-06	51.683	0.00060096	0.00059199	0.00016975	1386.3	6.3488e-06	6.4822e-06	1381.7	375.75	6.0887e-06	6.5628e-06	428.47	143.46	124.65	42.985	6.9123e-06	53.213	142.962	175.147	172.403	96.645	237.058	243.936	96.335	101.138	220.732	242.365	100.619	104.817	105.513	110.185	227.712	109.205	-8191	255	
25379.541	1	1	0	0	0.087041	0.14879	0.17754	0.24159	0.18691	0.066843	0.14165	0.31464	0.063534	0.069453	0.24148	0.14682	0.14409	0.25908	0.13098	0.0592	-2.7458	-3.2	-3.1083	-3.4521	-3.1104	-3.0125	-3.4417	-3.2667	-3.0479	-3.4708	-2.9208	-3.4458	-3.1771	-3.2583	-3.3521	-3.2896	198.667	411.354	97.241	422.397	383.896	339.180	269.443	441.374	310.276	92.843	394.253	420.154	359.230	346.927	140.075	394.696	0.00065366	0.00045215	0.00014642	1359.1	5.0159e-06	5.8134e-06	1363.3	367.69	4.6964e-06	4.6379e-06	418.97	140.78	122.44	41.675	5.0438e-06	51.774	0.00060724	0.0005757	0.00017898	1385.2	6.215e-06	6.6248e-06	1384	375.74	6.265e-06	6.5903e-06	428.49	143.47	125.09	42.975	6.8226e-06	53.279	143.783	167.123	182.037	96.713	233.500	235.290	96.200	101.140	222.486	231.879	100.510	105.010	105.574	110.088	229.040	109.374	-8191	255	
25379.639	1	1	0	0	0.19192	0.132	0.098194	0.31077	0.10412	0.077956	0.19249	0.16015	0.084458	0.14301	0.29344	0.12576	0.43727	0.28901	0.1267	0.23993	-2.7875	-3.325	-3.0396	-3.4667	-3.2438	-3.0104	-3.5896	-3.2958	-3.1042	-3.425	-3.0312	-3.2521	-3.1792	-3.1167	-3.1875	-3.0792	171.664	290.194	379.578	113.668	286.594	161.180	386.804	434.091	305.321	401.630	440.833	362.402	407.840	437.751	435.672	384.422	0.00069747	0.00051383	0.00015822	1363.5	6.6122e-06	6.0471e-06	1361.3	367.66	5.5276e-06	5.0468e-06	420.08	140.34	122.23	41.616	5.1678e-06	51.548	0.00062307	0.00060028	0.00017642	1385	6.5023e-06	7.1219e-06	1383.4	375.37	6.1888e-06	6.7895e-06	428.63	143.24	124.87	42.981	6.5721e-06	53.153	144.245	166.329	162.018	96.744	231.063	247.288	96.273	101.167	219.238	242.568	100.656	104.728	105.483	110.083	230.059	109.188	-8191	255	
#DATA ENDS
