BOXY.EXE: ISS Imagent and Oximeter Data Acquisition Program Version 0.80
Ascii Record File

#ACQ INFORMATION
2  Detector Channels 
16  External MUX Channels 
1  Auxiliary Channels 
5000  Waveform (CCF) Frequency (Hz)
1  Waveforms Skipped 
30  Waveforms Averaged 
1  Cycles Averaged 
16  Acquisitions per Waveform 
10.0806  Updata Rate (Hz) 

#FILE INFORMATION
TRUE -- External MUX Channel results are PARSED.
FALSE -- AC DC and Phase are NOT grouped.
TRUE -- Companion Program Settings File CREATED.
FALSE -- AC data not excluded
FALSE -- DC data not excluded
FALSE -- Phase data not excluded
FALSE -- Auxillary Chn. data not excluded
Tab delimiters

#CALIBRATION STATE
TRUE -- Waveform Calibration Values APPLIED.


#AUX CALIBRATION VALUES
Val Type	aux-1	

Term	1.0000e+00	
Factor	0.0000e+00	


#WF CALIBRATION VALUES
A = Detector Channel
Val Type	A-AC1	A-AC2	A-AC3	A-AC4	A-AC5	A-AC6	A-AC7	A-AC8	A-AC9	A-AC10	A-AC11	A-AC12	A-AC13	A-AC14	A-AC15	A-AC16	A-DC1	A-DC2	A-DC3	A-DC4	A-DC5	A-DC6	A-DC7	A-DC8	A-DC9	A-DC10	A-DC11	A-DC12	A-DC13	A-DC14	A-DC15	A-DC16	A-Ph1	A-Ph2	A-Ph3	A-Ph4	A-Ph5	A-Ph6	A-Ph7	A-Ph8	A-Ph9	A-Ph10	A-Ph11	A-Ph12	A-Ph13	A-Ph14	A-Ph15	A-Ph16	

Term	0.00000e+00	0.00000e+00	0.00000e+00	0.00000e+00	0.00000e+00	0.00000e+00	0.00000e+00	0.00000e+00	0.00000e+00	0.00000e+00	0.00000e+00	0.00000e+00	0.00000e+00	0.00000e+00	0.00000e+00	0.00000e+00	0.00000e+00	0.00000e+00	0.00000e+00	0.00000e+00	0.00000e+00	0.00000e+00	0.00000e+00	0.00000e+00	0.00000e+00	0.00000e+00	0.00000e+00	0.00000e+00	0.00000e+00	0.00000e+00	0.00000e+00	0.00000e+00	0.00000e+00	0.00000e+00	0.00000e+00	0.00000e+00	0.00000e+00	0.00000e+00	0.00000e+00	0.00000e+00	0.00000e+00	0.00000e+00	0.00000e+00	0.00000e+00	0.00000e+00	0.00000e+00	0.00000e+00	0.00000e+00	
Factor	1.00000e+00	1.00000e+00	1.00000e+00	1.00000e+00	1.00000e+00	1.00000e+00	1.00000e+00	1.00000e+00	1.00000e+00	1.00000e+00	1.00000e+00	1.00000e+00	1.00000e+00	1.00000e+00	1.00000e+00	1.00000e+00	1.00000e+00	1.00000e+00	1.00000e+00	1.00000e+00	1.00000e+00	1.00000e+00	1.00000e+00	1.00000e+00	1.00000e+00	1.00000e+00	1.00000e+00	1.00000e+00	1.00000e+00	1.00000e+00	1.00000e+00	1.00000e+00	X	X	X	X	X	X	X	X	X	X	X	X	X	X	X	X	

B = Detector Channel
Val Type	B-AC1	B-AC2	B-AC3	B-AC4	B-AC5	B-AC6	B-AC7	B-AC8	B-AC9	B-AC10	B-AC11	B-AC12	B-AC13	B-AC14	B-AC15	B-AC16	B-DC1	B-DC2	B-DC3	B-DC4	B-DC5	B-DC6	B-DC7	B-DC8	B-DC9	B-DC10	B-DC11	B-DC12	B-DC13	B-DC14	B-DC15	B-DC16	B-Ph1	B-Ph2	B-Ph3	B-Ph4	B-Ph5	B-Ph6	B-Ph7	B-Ph8	B-Ph9	B-Ph10	B-Ph11	B-Ph12	B-Ph13	B-Ph14	B-Ph15	B-Ph16	

Term	0.00000e+00	0.00000e+00	0.00000e+00	0.00000e+00	0.00000e+00	0.00000e+00	0.00000e+00	0.00000e+00	0.00000e+00	0.00000e+00	0.00000e+00	0.00000e+00	0.00000e+00	0.00000e+00	0.00000e+00	0.00000e+00	0.00000e+00	0.00000e+00	0.00000e+00	0.00000e+00	0.00000e+00	0.00000e+00	0.00000e+00	0.00000e+00	0.00000e+00	0.00000e+00	0.00000e+00	0.00000e+00	0.00000e+00	0.00000e+00	0.00000e+00	0.00000e+00	-4.91106e+01	-1.29134e+02	-1.27521e+02	-1.82803e+02	-4.69321e+01	-6.59653e+01	-1.55300e+02	-1.62015e+02	-3.08113e+01	-5.60136e+01	-1.72433e+02	-1.69655e+02	-1.79183e+02	-1.77693e+02	-4.59966e+01	-1.49676e+02	
Factor	2.21910e-05	1.68420e-04	4.73740e-05	1.71963e-01	2.02722e-06	1.93536e-06	1.62812e-01	5.14453e-02	1.28848e-06	1.77628e-06	9.95207e-02	3.07250e-02	2.96854e-02	1.01395e-02	1.68739e-06	1.45673e-02	8.04080e-06	1.07497e-05	2.97371e-06	8.54535e-02	1.12668e-07	1.18595e-07	7.62481e-02	2.57182e-02	1.11776e-07	1.19426e-07	4.83138e-02	1.49934e-02	1.50207e-02	5.11324e-03	1.16012e-07	7.12113e-03	X	X	X	X	X	X	X	X	X	X	X	X	X	X	X	X	



#DISTANCE SETTINGS
A = Detector Channel
A-1	A-2	A-3	A-4	A-5	A-6	A-7	A-8	A-9	A-10	A-11	A-12	A-13	A-14	A-15	A-16	

2.5000e+00	3.0000e+00	2.5000e+00	3.0000e+00	2.0000e+00	3.0000e+00	1.5000e+00	3.0000e+00	3.0000e+00	3.0000e+00	3.0000e+00	3.0000e+00	3.0000e+00	3.0000e+00	1.5000e+00	3.0000e+00	

B = Detector Channel
B-1	B-2	B-3	B-4	B-5	B-6	B-7	B-8	B-9	B-10	B-11	B-12	B-13	B-14	B-15	B-16	

1.0000e+01	1.0000e+01	1.0000e+01	1.4400e+00	1.0000e+01	1.0000e+01	1.5100e+00	1.9400e+00	1.0000e+01	1.0000e+01	1.9900e+00	2.4900e+00	2.4100e+00	2.9000e+00	1.0000e+01	2.9800e+00	




#DATA BEGINS
time	group	step	mark	flag	A-AC1	A-AC2	A-AC3	A-AC4	A-AC5	A-AC6	A-AC7	A-AC8	A-AC9	A-AC10	A-AC11	A-AC12	A-AC13	A-AC14	A-AC15	A-AC16	A-DC1	A-DC2	A-DC3	A-DC4	A-DC5	A-DC6	A-DC7	A-DC8	A-DC9	A-DC10	A-DC11	A-DC12	A-DC13	A-DC14	A-DC15	A-DC16	A-Ph1	A-Ph2	A-Ph3	A-Ph4	A-Ph5	A-Ph6	A-Ph7	A-Ph8	A-Ph9	A-Ph10	A-Ph11	A-Ph12	A-Ph13	A-Ph14	A-Ph15	A-Ph16	B-AC1	B-AC2	B-AC3	B-AC4	B-AC5	B-AC6	B-AC7	B-AC8	B-AC9	B-AC10	B-AC11	B-AC12	B-AC13	B-AC14	B-AC15	B-AC16	B-DC1	B-DC2	B-DC3	B-DC4	B-DC5	B-DC6	B-DC7	B-DC8	B-DC9	B-DC10	B-DC11	B-DC12	B-DC13	B-DC14	B-DC15	B-DC16	B-Ph1	B-Ph2	B-Ph3	B-Ph4	B-Ph5	B-Ph6	B-Ph7	B-Ph8	B-Ph9	B-Ph10	B-Ph11	B-Ph12	B-Ph13	B-Ph14	B-Ph15	B-Ph16	aux-1	digaux	

41263.164	1	1	0	256	0.24248	0.050493	0.19924	0.22184	0.25722	0.14156	0.4338	0.040884	0.11747	0.3316	0.21517	0.094081	0.10633	0.25996	0.021374	0.13757	-2.3542	-2.7521	-2.8875	-3.0375	-3.1042	-2.8292	-2.9083	-3.0792	-2.8167	-2.9813	-3.0938	-2.9833	-3.0812	-3.1271	-2.7229	-3.0687	348.815	257.270	223.161	439.721	239.921	500.965	446.364	472.759	309.732	425.500	189.133	414.625	149.091	211.009	190.137	390.180	0.0003056	0.00059623	0.00010109	1382.7	6.7228e-06	8.0617e-06	1457.9	296.28	2.9501e-06	1.6291e-06	359.03	95.48	78.407	20.811	1.9503e-06	29.16	0.0011269	0.0014116	0.00039037	1370.4	1.5002e-05	1.5859e-05	1444.8	296.06	1.5447e-05	1.6832e-05	360.44	97.582	80.017	21.748	1.7044e-05	30.248	274.587	201.984	215.350	157.267	371.482	235.028	157.091	163.800	275.106	282.932	163.631	170.270	170.258	177.748	352.965	177.020	-8191	255	
41263.285	1	1	0	0	0.28443	0.06932	0.12332	0.084936	0.16355	0.10864	0.24754	0.10317	0.11798	0.27894	0.2432	0.14252	0.11753	0.10449	0.063854	0.087555	-2.4375	-2.8125	-3.1	-3.0812	-2.9062	-2.8333	-2.8021	-3.2479	-2.6583	-2.7021	-3.1458	-2.9313	-3.1125	-3.1521	-2.7521	-2.9938	172.147	427.848	320.935	437.677	354.620	366.415	461.265	412.648	324.216	236.779	483.977	406.805	375.870	284.017	407.191	286.309	0.00036471	0.00040352	0.00011226	1382.1	5.4937e-06	6.147e-06	1452.8	295.72	5.1909e-06	5.1408e-06	356.64	95.749	78.311	20.736	4.7799e-06	28.949	0.0012792	0.0016204	0.00044466	1369.4	1.7619e-05	1.8232e-05	1442.5	295.82	1.7833e-05	1.885e-05	359.94	97.602	80.278	21.708	1.8783e-05	30.213	267.010	473.446	233.526	157.135	309.269	315.916	157.216	163.623	287.459	364.743	163.759	170.088	170.423	177.300	308.197	176.799	-8191	255	
41263.379	1	1	0	0	0.076352	0.090244	0.064543	0.13908	0.17675	0.04099	0.42222	0.30096	0.16628	0.07901	0.10692	0.18213	0.014146	0.2084	0.13202	0.10312	-2.2875	-2.8438	-3.0687	-3.1229	-2.8417	-2.9979	-2.8979	-3.1042	-2.825	-2.7812	-3.0312	-2.9688	-2.9167	-3.1063	-2.7313	-3.0917	403.885	252.872	223.464	500.161	505.619	290.594	452.277	352.428	206.665	447.196	379.563	263.732	216.887	501.700	502.164	299.795	0.00025904	0.00044679	9.8147e-05	1372.4	7.7346e-06	3.5233e-06	1449.1	294.14	7.0867e-06	3.8463e-06	356.96	94.667	77.897	20.595	3.5939e-06	28.751	0.0014202	0.0018015	0.00049224	1364.8	1.942e-05	2.04e-05	1439.2	295.13	1.9987e-05	2.1392e-05	359.86	97.054	80.134	21.762	2.1062e-05	30.266	279.615	254.812	348.894	157.032	291.374	326.262	157.200	163.785	296.939	317.826	163.818	170.521	170.332	177.371	227.638	176.877	-8191	255	
41263.477	1	1	0	0	0.23428	0.039105	0.29341	0.26064	0.3198	0.11229	0.3746	0.15874	0.12751	0.12774	0.11655	0.056619	0.25179	0.1058	0.23451	0.22796	-2.4542	-2.8937	-2.9542	-2.8937	-2.7271	-3.0438	-3.1458	-3.2021	-2.9771	-2.8729	-3.1458	-2.9396	-2.9437	-3.0896	-2.7083	-2.8937	379.168	208.510	237.328	449.105	307.621	407.015	450.339	505.904	478.335	325.167	179.789	201.633	456.499	149.406	476.180	449.721	0.00033833	0.00069825	2.812e-05	1374.3	1.4689e-05	6.0747e-06	1449.1	293.67	2.6577e-06	3.0616e-06	353.59	95.298	77.456	20.761	3.0145e-06	28.757	0.0015736	0.001963	0.00053622	1366.6	2.1107e-05	2.1372e-05	1442.1	294.87	2.0698e-05	2.1943e-05	358.82	97.295	79.707	21.834	2.1035e-05	30.308	282.545	214.612	345.492	157.298	349.595	323.864	157.070	164.050	326.060	177.949	163.571	170.074	170.490	177.294	278.524	176.741	-8191	255	
41263.574	1	1	0	0	0.11909	0.15759	0.096517	0.16589	0.15243	0.026398	0.058441	0.31478	0.09967	0.11308	0.20027	0.25697	0.25103	0.11401	0.16684	0.17811	-2.3792	-2.6708	-3.0625	-3.0021	-2.925	-3.1458	-2.9188	-3.1813	-3.1229	-2.9042	-3.0854	-2.9875	-3.0333	-3.2062	-2.7458	-2.8708	194.816	490.054	153.390	487.985	170.004	212.315	400.410	358.814	200.014	158.986	232.332	406.832	379.683	423.660	165.021	483.843	0.00037857	0.00060875	0.00015223	1373.9	4.3555e-06	1.3598e-06	1445.2	292.6	6.6641e-06	2.8661e-06	352.83	95.175	77.806	21.118	4.4098e-06	29.025	0.0015469	0.0019302	0.00053035	1365.3	2.0365e-05	2.0881e-05	1437.7	294.11	1.9411e-05	2.0492e-05	357.87	96.969	79.731	22.027	1.9e-05	30.51	274.177	235.693	226.023	157.107	304.383	285.449	157.201	163.750	306.126	367.340	163.560	170.392	170.384	177.049	386.931	176.833	-8191	255	
41263.691	1	1	0	0	0.13755	0.31738	0.062915	0.11004	0.14004	0.14605	0.39954	0.26305	0.054637	0.19905	0.12062	0.19129	0.35812	0.3207	0.15402	0.28463	-2.7687	-2.6583	-2.9	-3.0062	-2.8	-3.0583	-2.9188	-2.9458	-3	-2.7812	-3.2458	-3.0667	-2.7583	-3.1646	-3.0021	-2.9562	146.931	252.838	317.038	409.069	490.715	362.634	444.662	480.180	327.859	215.807	249.347	409.625	383.061	322.388	234.869	243.779	0.00039877	0.00033907	0.00012675	1369.7	8.048e-06	1.3229e-06	1446.3	293.07	4.4728e-06	2.5168e-06	354.21	96.106	78.434	21.31	4.7465e-06	29.678	0.0013813	0.0017126	0.00047658	1362.7	1.7888e-05	1.8412e-05	1435.4	294.08	1.7737e-05	1.8288e-05	358.28	97.5	80.323	22.282	1.715e-05	30.901	275.959	209.237	319.496	157.119	310.158	419.273	157.141	164.010	324.442	238.439	163.647	170.497	170.608	177.280	196.477	176.935	-8191	255	
41263.789	1	1	0	0	0.072494	0.20177	0.11462	0.28352	0.24345	0.15398	0.45183	0.21076	0.083807	0.060261	0.21659	0.077936	0.16931	0.11555	0.14896	0.12332	-2.6125	-2.8042	-2.9146	-3.0479	-2.4271	-3.2583	-3.0687	-2.9125	-3.0187	-2.7917	-3.0417	-2.9271	-2.8396	-3.3479	-2.8438	-2.8292	370.855	320.488	189.379	459.542	158.936	239.313	433.386	464.026	277.203	241.957	326.304	198.868	177.331	392.376	385.645	457.104	0.0003834	0.00081939	9.4273e-05	1371.4	1.4765e-06	2.8949e-06	1454.3	295.46	3.5054e-06	4.8551e-06	355.56	96.221	79.029	21.372	4.7584e-06	29.856	0.0012562	0.0015339	0.00043136	1362	1.6325e-05	1.6806e-05	1437.8	295.4	1.5545e-05	1.6093e-05	358.75	97.68	80.431	22.324	1.6299e-05	31.123	270.815	217.755	157.098	156.948	176.953	296.883	157.308	163.872	260.221	287.489	163.641	170.205	170.686	177.209	358.589	176.801	-8191	255	
41263.859	1	1	0	0	0.04208	0.047459	0.10141	0.31662	0.075017	0.089052	0.15259	0.042324	0.1591	0.17697	0.24753	0.24085	0.16037	0.04619	0.12703	0.26654	-2.6708	-2.7812	-2.8875	-3.1396	-2.8187	-3.1083	-3.2979	-2.8937	-3.1188	-2.825	-2.9896	-3.0667	-2.9208	-3.0187	-2.9125	-2.6937	452.297	304.638	279.950	468.085	344.332	369.695	479.789	438.276	451.399	399.883	446.078	380.401	445.834	408.785	382.520	185.915	0.00034225	0.00028863	0.00012201	1372.3	4.5273e-06	2.3827e-06	1452.6	296.93	4.7167e-06	4.8871e-06	356.02	97.131	79.564	21.85	8.7089e-06	30.299	0.0011932	0.0015004	0.00041706	1361.1	1.5894e-05	1.6775e-05	1437.1	297.03	1.5944e-05	1.6909e-05	360.62	98.438	81.135	22.601	1.661e-05	31.512	273.409	293.864	219.299	157.229	316.553	329.346	157.226	163.962	349.782	386.423	163.654	169.951	170.713	176.837	346.679	176.425	-8191	255	
41263.957	1	1	0	0	0.2381	0.17386	0.26849	0.13184	0.11968	0.26868	0.40016	0.18266	0.13374	0.089263	0.27029	0.19621	0.12436	0.12376	0.029904	0.22068	-2.7438	-2.8604	-2.6125	-3.3625	-2.6521	-3.1396	-3.3125	-2.8229	-3.15	-2.8792	-2.925	-3.1271	-2.9417	-2.9104	-2.9792	-2.8729	264.455	504.784	313.771	399.660	360.311	304.341	465.213	467.462	314.474	425.684	153.585	370.274	492.831	478.924	323.437	313.137	0.00038308	0.00053142	0.00013842	1369.3	6.7689e-06	3.0402e-06	1450.6	298.61	3.9886e-06	8.2908e-06	360.15	97.528	79.759	21.686	4.2034e-06	30.589	0.0012025	0.0015228	0.00043111	1361.2	1.6182e-05	1.692e-05	1437.8	299.22	1.5932e-05	1.6961e-05	362.43	99.066	81.464	22.696	1.6475e-05	31.638	276.546	248.419	309.637	157.132	304.334	285.661	157.080	163.747	334.873	291.470	163.371	169.858	170.369	177.118	317.642	176.228	-8191	255	
41264.074	1	1	0	0	0.14606	0.064979	0.18352	0.39371	0.10657	0.02808	0.09652	0.16904	0.077748	0.15604	0.14316	0.11925	0.24988	0.088272	0.13574	0.09613	-2.6854	-2.7854	-2.7854	-3.4458	-2.85	-3.075	-3.2625	-2.8104	-3.0083	-2.8625	-2.6771	-3.1396	-2.8187	-3.0604	-2.9958	-2.8292	458.822	301.350	259.969	465.232	376.968	459.542	330.129	462.115	276.475	431.231	215.113	198.537	348.024	441.490	273.516	393.621	0.00037529	0.00022694	0.00017292	1370.4	1.0497e-05	7.4909e-06	1453.3	299.41	3.5487e-06	3.9896e-06	360.26	98.426	80.792	21.87	1.7722e-06	30.672	0.0012128	0.0015424	0.00042543	1363.1	1.5718e-05	1.6491e-05	1442.1	300.13	1.5159e-05	1.6303e-05	363.45	99.571	81.709	22.808	1.5617e-05	31.766	274.702	251.593	159.338	157.024	275.127	286.084	157.381	163.748	315.284	351.620	163.523	169.848	170.204	177.354	298.030	176.356	-8191	255	
41264.172	1	1	0	0	0.16249	0.18172	0.20067	0.34946	0.16581	0.18668	0.16282	0.40561	0.14189	0.18648	0.08727	0.36875	0.071906	0.12053	0.15382	0.16863	-2.7271	-2.8833	-2.7667	-3.0958	-2.6729	-2.9021	-3.2687	-2.8708	-3.2062	-3.0458	-2.8479	-3.1604	-2.9854	-2.7896	-2.8542	-2.8688	501.010	223.088	466.141	172.958	190.872	174.707	465.774	403.630	393.864	486.984	417.390	455.660	414.470	404.567	359.550	503.830	0.00041937	0.0002215	0.00012899	1384.6	6.8379e-06	2.9622e-06	1456.7	300.74	5.5721e-06	5.9865e-06	360.8	97.625	80.395	21.882	4.4862e-06	30.214	0.0011599	0.001434	0.00040214	1370.6	1.5133e-05	1.5741e-05	1445.2	300.49	1.4619e-05	1.5466e-05	363.72	98.971	81.478	22.681	1.4936e-05	31.446	267.361	179.225	247.490	157.250	348.776	372.686	157.092	163.980	299.416	305.795	163.661	170.453	169.987	176.700	319.454	176.801	-8191	255	
41264.270	1	1	0	0	0.097471	0.20337	0.091672	0.30294	0.32757	0.029057	0.42075	0.1772	0.20392	0.30302	0.14232	0.22331	0.087444	0.23435	0.28911	0.12268	-2.5438	-3.025	-2.7375	-3.2896	-2.8917	-2.9062	-3.3875	-2.925	-3.0125	-3.0771	-2.8271	-3.1333	-2.9667	-2.8417	-3.2042	-2.8667	333.675	463.073	407.489	418.209	307.048	226.637	437.892	419.777	299.331	466.008	331.395	386.933	458.872	486.408	462.950	192.215	0.00035456	9.853e-05	6.1651e-05	1379.4	6.1002e-06	5.1554e-06	1457.4	300.39	3.6634e-06	4.5379e-06	357.14	96.895	79.454	21.541	4.1423e-06	30.059	0.001103	0.0013599	0.00037474	1368.4	1.4545e-05	1.5064e-05	1445	299.7	1.4266e-05	1.509e-05	361.21	98.459	80.81	22.375	1.4341e-05	31.131	278.189	278.873	242.648	157.192	304.466	291.300	157.119	163.762	337.673	295.741	163.739	170.200	170.474	177.124	375.684	176.756	-8191	255	
41264.391	1	1	0	0	0.13996	0.19329	0.31375	0.20678	0.20444	0.26966	0.1318	0.091931	0.22779	0.096364	0.22796	0.26582	0.082611	0.14492	0.039098	0.22349	-2.5333	-3.0042	-2.6437	-3.3333	-2.8417	-2.6958	-3.2167	-2.9021	-2.8438	-3.0021	-2.8187	-3.0896	-2.9813	-2.8833	-3.0604	-3.1208	392.049	238.398	220.318	450.737	302.899	417.357	437.482	178.215	201.180	396.659	203.125	377.149	265.477	432.138	370.205	433.610	0.0003508	0.0002924	9.093e-05	1375.9	3.3897e-06	7.5e-06	1459.4	297.55	2.7595e-06	4.7945e-06	354.86	96.026	79.043	21.52	3.6329e-06	30.017	0.0010683	0.0013112	0.00035476	1366.1	1.3862e-05	1.3889e-05	1445	297.06	1.3919e-05	1.4356e-05	358.3	97.468	80.244	22.26	1.3847e-05	31.062	261.286	210.006	218.305	157.241	262.466	242.859	157.118	163.652	349.764	290.190	163.574	170.411	170.331	177.382	268.648	176.551	-8191	255	
41264.461	1	1	0	0	0.080838	0.061534	0.11743	0.18979	0.048431	0.05921	0.27955	0.11433	0.055642	0.17101	0.16581	0.22255	0.20864	0.18525	0.13868	0.1365	-2.4833	-3.0417	-2.7771	-3.2958	-3.1958	-2.6813	-3.3771	-3.0687	-2.8438	-3.0875	-2.8542	-3.1542	-3.1188	-2.9125	-3.0208	-3.1688	393.552	351.051	337.694	443.656	173.485	230.742	423.059	322.472	244.367	380.726	342.784	474.172	262.026	157.258	471.889	304.648	0.00027084	0.00032519	8.7682e-05	1377.9	6.7398e-06	4.8678e-06	1455.8	296.49	2.8925e-06	6.9563e-06	356.41	96.797	78.906	21.531	3.1964e-06	30.006	0.001078	0.001288	0.00036109	1366.8	1.4073e-05	1.4653e-05	1444.9	296.86	1.4199e-05	1.4682e-05	359.51	97.844	80.502	22.31	1.4559e-05	31.048	278.406	171.442	269.715	156.968	309.708	269.434	157.108	163.772	279.834	347.946	163.750	169.912	170.045	177.106	260.764	177.181	-8191	255	
41264.559	1	1	0	0	0.23549	0.26339	0.23996	0.2249	0.35715	0.14246	0.20946	0.28413	0.21272	0.21201	0.31445	0.14002	0.10504	0.2306	0.067208	0.2659	-2.5208	-3.0667	-2.8854	-3.1625	-3.0208	-2.6917	-3.2313	-3.0708	-2.7958	-3.225	-2.8271	-3.0208	-2.9292	-2.9792	-2.9146	-3.0458	462.228	297.481	435.124	425.521	277.186	312.492	460.909	494.365	452.611	263.706	479.318	386.143	503.452	288.103	451.970	408.376	0.00032506	0.00035778	8.3492e-05	1378.8	6.3581e-06	5.5628e-06	1461.8	296.9	1.8982e-06	6.2063e-06	356.76	96.361	78.83	21.455	1.7001e-06	29.815	0.0011144	0.0013569	0.0003726	1370	1.462e-05	1.5255e-05	1445.5	297.11	1.4445e-05	1.5035e-05	358.97	97.659	80.117	22.234	1.4367e-05	30.982	268.563	258.672	209.321	157.189	295.444	328.157	157.246	163.662	293.340	341.841	163.743	170.326	170.292	177.126	302.766	176.456	-8191	255	
41264.676	1	1	0	0	0.051054	0.10089	0.22893	0.36979	0.1677	0.17942	0.15271	0.11282	0.37948	0.094463	0.05464	0.18291	0.21239	0.11389	0.15869	0.1789	-2.4458	-3.2417	-2.8063	-2.9458	-3.0938	-2.8063	-3.3312	-3.1688	-2.7188	-3.0417	-3.0396	-3.0208	-3.1917	-2.7771	-3.0917	-3.0458	258.040	504.819	346.041	162.281	416.353	363.975	494.824	484.460	331.533	159.634	335.201	148.347	192.592	389.143	291.127	174.918	0.00037866	0.00011185	7.3169e-05	1379.2	8.0702e-06	7.1187e-06	1461	298.81	7.2943e-06	2.9049e-06	356.33	96.453	78.616	21.467	7.0785e-06	29.949	0.0011122	0.0013251	0.000375	1371.6	1.4355e-05	1.4577e-05	1445.2	297.15	1.4001e-05	1.4225e-05	358.7	97.601	80.119	22.299	1.4016e-05	30.979	262.747	277.437	290.687	157.092	292.574	333.735	156.910	163.756	306.674	321.888	163.535	170.029	170.585	177.238	339.107	177.069	-8191	255	
41264.773	1	1	0	0	0.32633	0.1763	0.14833	0.37063	0.31701	0.10737	0.30854	0.2831	0.27494	0.24042	0.17815	0.20816	0.21025	0.22464	0.12336	0.16049	-2.3229	-2.9979	-2.8271	-2.9479	-3.1167	-2.8208	-3.2271	-2.9958	-2.8312	-3.125	-3.2521	-2.7708	-3.0958	-2.8625	-3.0979	-3.175	428.906	171.202	401.376	456.594	277.011	411.084	443.856	489.157	236.102	317.353	176.952	435.034	294.235	450.971	174.256	242.160	0.00039632	0.00071967	0.00014182	1391.3	1.2425e-06	1.2917e-06	1468.3	299.07	2.9022e-06	4.4909e-06	356.44	96.281	79.399	21.364	5.0881e-06	29.583	0.0010677	0.0012613	0.0003551	1378.5	1.3676e-05	1.3778e-05	1453.5	297.68	1.3077e-05	1.3547e-05	359.52	97.597	80.085	22.197	1.303e-05	30.664	271.839	198.241	246.746	157.162	345.091	311.415	157.057	163.783	345.166	286.651	163.479	169.969	170.448	176.970	308.503	176.554	-8191	255	
41264.867	1	1	0	0	0.10242	0.15233	0.10231	0.12358	0.12309	0.15835	0.21829	0.33628	0.13373	0.062322	0.1819	0.26049	0.084161	0.29406	0.27489	0.18687	-2.3042	-3.125	-2.8438	-2.9167	-3.1958	-2.6833	-3.0458	-3.0083	-2.7562	-2.9938	-3.0708	-2.9562	-3.0958	-2.8708	-2.9562	-3.1958	373.141	157.489	456.527	500.518	452.465	367.648	460.590	433.703	464.384	328.029	246.337	167.058	189.467	490.270	191.830	165.856	0.00029162	7.6179e-05	9.9751e-05	1392.1	5.8697e-06	3.5253e-06	1468.4	298.75	4.4128e-06	6.7648e-06	357.53	96.19	79.255	21.622	3.9535e-06	29.512	0.00097605	0.0011825	0.00033473	1382.6	1.2898e-05	1.3146e-05	1455.1	297.81	1.2703e-05	1.3433e-05	359.35	97.561	80.253	22.252	1.3518e-05	30.599	268.291	226.040	216.665	157.031	323.780	326.465	157.038	163.826	301.790	310.766	163.652	170.348	170.212	176.864	317.452	176.761	-8191	255	
41264.988	1	1	0	0	0.029264	0.044624	0.40875	0.16972	0.1034	0.090885	0.19238	0.24886	0.2605	0.12593	0.20469	0.16475	0.23631	0.21398	0.12984	0.20534	-2.3917	-3.0812	-2.9333	-3.0083	-3.2021	-2.8812	-2.9729	-3.3479	-2.9062	-3.0958	-3.2104	-2.7958	-3.1958	-2.8937	-2.8208	-3.1063	475.730	462.563	436.568	474.374	203.152	466.592	152.821	422.173	309.052	244.642	486.862	245.152	214.177	448.242	414.772	504.904	0.00030709	0.00025892	5.9649e-05	1394	1.087e-05	3.5152e-06	1471.7	299.71	3.0448e-06	4.4047e-06	354.9	96.9	79.753	21.3	1.8995e-06	29.123	0.0010105	0.0012533	0.00034714	1381.5	1.3111e-05	1.3547e-05	1456	298.63	1.2904e-05	1.3464e-05	358.34	97.738	80.197	21.986	1.3162e-05	30.155	277.738	201.602	192.007	157.015	297.679	291.320	157.078	163.715	299.332	270.514	163.592	170.431	170.514	177.274	309.248	176.879	-8191	255	
41265.059	1	1	0	0	0.14289	0.10397	0.049895	0.27508	0.088284	0.047836	0.3873	0.22983	0.067059	0.06059	0.051112	0.16963	0.073548	0.18916	0.057801	0.14111	-2.35	-2.8688	-3.0854	-3.0687	-3.1979	-2.8312	-2.9229	-3.2687	-2.7	-2.8979	-3.2375	-2.8833	-3.1917	-3.0521	-2.7604	-3.1417	394.218	249.564	161.872	161.124	370.965	375.502	449.299	422.537	360.815	281.798	503.830	243.528	451.362	225.430	436.045	266.904	0.00030683	0.00059123	0.00019783	1391.9	5.344e-06	4.8611e-06	1467.8	298.84	3.996e-06	6.283e-06	356.83	96.319	78.281	20.851	4.6447e-06	29.327	0.00098922	0.0011973	0.00033645	1381.6	1.2664e-05	1.3147e-05	1455.5	297.48	1.2727e-05	1.2991e-05	357.66	97.32	79.785	21.693	1.2408e-05	30.055	275.101	290.109	226.991	156.964	271.311	360.541	157.065	163.711	320.153	287.470	163.871	170.062	170.410	177.225	290.463	176.600	-8191	255	
41265.156	1	1	0	0	0.16185	0.045424	0.19349	0.4808	0.093667	0.20607	0.1099	0.20699	0.18633	0.20863	0.22867	0.25405	0.11539	0.091345	0.17812	0.12444	-2.2896	-2.8417	-2.8917	-3.15	-3.1125	-3.0125	-3.0146	-3.2438	-2.7729	-2.7583	-3.2313	-2.7583	-2.9833	-3.0167	-2.7396	-3.1833	388.834	498.971	205.513	457.557	245.753	423.085	418.928	145.979	148.862	418.295	497.155	428.229	166.588	424.177	299.312	435.215	0.0003271	0.00020649	0.00014356	1402.6	6.0899e-06	4.851e-06	1475.2	297.66	5.4321e-06	6.1115e-06	353.96	96.008	78.153	20.849	5.4491e-06	28.968	0.00090555	0.0011355	0.00030419	1385.6	1.1839e-05	1.1891e-05	1461.3	297.22	1.1338e-05	1.1751e-05	356.18	96.898	79.433	21.523	1.1229e-05	29.859	267.837	268.679	260.941	157.050	275.112	275.733	157.214	163.497	298.583	261.243	163.796	170.344	170.549	177.178	327.477	177.029	-8191	255	
41265.254	1	1	0	0	0.099029	0.19081	0.30676	0.30276	0.14673	0.14429	0.42811	0.21668	0.35167	0.28104	0.082712	0.18651	0.30349	0.15485	0.073973	0.23583	-2.2458	-2.8354	-2.8396	-2.9167	-3.0062	-3.075	-2.9208	-3.1583	-2.8542	-2.8208	-3.2583	-2.9313	-3.0021	-3.0479	-2.6604	-3.0271	289.774	339.532	163.895	490.377	474.474	253.707	448.662	475.577	498.366	355.863	494.924	378.400	463.828	174.716	229.226	249.955	0.00035987	0.00037727	0.00010515	1401.9	4.7036e-06	4.1731e-06	1473.1	298.67	2.6169e-06	3.5287e-06	354.87	96.265	78.391	21.039	2.9352e-06	29.195	0.00086492	0.0010336	0.00028305	1388.6	1.0813e-05	1.1379e-05	1460.8	296.77	1.0631e-05	1.1238e-05	356.53	97.139	79.448	21.525	1.0819e-05	29.888	271.983	232.817	239.970	157.203	309.239	371.465	157.131	163.578	359.862	176.293	163.422	169.992	170.363	177.443	252.122	176.995	-8191	255	
41265.371	1	1	0	0	0.080808	0.08456	0.25916	0.12926	0.052792	0.10439	0.39813	0.27048	0.12534	0.16438	0.19417	0.11392	0.35575	0.084986	0.10153	0.042505	-2.5625	-2.7375	-3.1083	-2.95	-2.7917	-2.9208	-2.9667	-3.1125	-2.9479	-2.8521	-3.1792	-2.8187	-2.7833	-2.8833	-2.8042	-2.9792	366.311	442.965	459.301	485.078	244.700	295.283	443.570	147.832	407.771	451.775	450.341	390.511	469.587	155.069	420.666	464.446	0.00037239	0.00057933	0.00010037	1401.6	9.0593e-06	2.02e-06	1475.4	296.28	4.322e-06	5.9913e-06	355.2	97.299	78.601	20.753	3.401e-06	29.146	0.00082933	0.0010037	0.00027538	1384.8	1.0707e-05	1.1019e-05	1458.4	295.7	1.0665e-05	1.1226e-05	356.27	97.228	79.349	21.442	1.074e-05	29.883	276.377	263.181	200.889	156.916	305.131	273.243	157.107	163.854	284.528	299.900	163.451	169.909	170.553	177.609	348.411	176.771	-8191	255	
41265.469	1	1	0	0	0.071546	0.044036	0.064802	0.22559	0.1185	0.14888	0.26975	0.43596	0.048861	0.081827	0.1343	0.25738	0.11057	0.081886	0.039731	0.19472	-2.3229	-2.7562	-3.1396	-2.8521	-2.7104	-3.0312	-2.9979	-3.1146	-3.1479	-2.7833	-3.3271	-3.0062	-2.8563	-2.9458	-2.8083	-2.9146	221.652	260.152	225.311	151.167	297.548	246.375	462.277	438.834	492.870	362.581	343.540	443.900	350.045	336.440	461.856	438.746	0.00037473	0.00026605	0.00013652	1395.6	4.3678e-06	4.8357e-06	1472.6	296.02	4.2837e-06	2.8313e-06	355.26	96.189	78.667	20.784	1.8853e-06	29.093	0.00083748	0.00099746	0.00027714	1382.6	1.0702e-05	1.1089e-05	1456.5	295.6	1.0666e-05	1.1102e-05	356.25	96.773	79.327	21.383	1.0673e-05	29.775	272.576	279.687	236.524	157.195	291.438	421.389	157.107	164.102	298.646	334.377	163.692	170.326	170.449	177.281	338.043	176.884	-8191	255	
41265.566	1	1	0	0	0.1659	0.03761	0.20742	0.033633	0.10237	0.069101	0.2591	0.28179	0.22507	0.039552	0.25574	0.19665	0.15972	0.051453	0.19856	0.1094	-2.5187	-2.8104	-3.05	-3.0479	-2.6063	-3.1583	-3.1396	-3.0167	-3.0917	-2.6583	-3.0187	-3.0146	-2.7188	-3.0771	-2.6458	-2.9771	472.315	409.500	389.572	306.196	357.766	454.057	462.499	484.806	465.307	300.114	497.848	464.340	391.782	420.350	454.736	407.931	0.00038064	0.00022626	8.6347e-05	1398.5	2.1228e-06	4.1301e-06	1474.5	297.41	3.7085e-06	4.4286e-06	354.88	95.859	77.976	20.755	4.783e-06	29.016	0.00083552	0.00096622	0.00026967	1384	1.0564e-05	1.0753e-05	1457.1	295.77	1.041e-05	1.1022e-05	355.98	96.634	78.998	21.365	1.0321e-05	29.803	265.839	214.557	174.008	156.988	349.197	287.982	156.978	164.062	302.590	374.313	163.290	170.275	170.280	176.925	340.499	176.880	-8191	255	
41265.660	1	1	0	0	0.011506	0.13549	0.061291	0.26283	0.13445	0.30422	0.35134	0.14843	0.040748	0.20113	0.13707	0.14802	0.07091	0.35163	0.1664	0.072045	-2.5187	-2.6167	-2.9417	-3.0854	-2.8	-2.8479	-3.1229	-2.9708	-3.1208	-2.7896	-2.9458	-3.0396	-2.6479	-3.0875	-2.9083	-2.6833	388.444	169.234	468.653	452.349	234.637	470.549	383.838	345.722	437.894	373.732	471.987	484.332	448.576	423.068	453.009	244.834	0.00032356	0.00052099	7.5198e-05	1403.3	4.652e-06	8.6136e-06	1479.7	297.02	4.0012e-06	7.2834e-06	354.99	95.66	78.325	20.858	5.9964e-06	28.832	0.00082966	0.00094976	0.00026624	1387.1	1.0246e-05	1.0498e-05	1461.9	295.72	9.8742e-06	1.0283e-05	355.92	96.628	78.97	21.354	9.8765e-06	29.679	280.110	238.687	221.201	157.100	277.666	309.610	157.090	163.693	349.039	310.312	163.447	170.301	170.573	177.323	309.643	176.990	-8191	255	
41265.758	1	1	0	0	0.26712	0.14107	0.027255	0.11518	0.21005	0.085157	0.29871	0.20765	0.22298	0.10008	0.20107	0.2703	0.17183	0.24116	0.14029	0.2166	-2.5563	-2.8125	-2.925	-3.225	-2.6688	-3.05	-2.9375	-2.8417	-3.1604	-2.775	-2.9208	-3.0396	-2.8708	-2.9479	-2.9667	-2.8083	394.893	488.224	451.497	165.139	186.365	233.417	449.706	448.705	414.667	430.905	265.208	254.138	171.665	451.850	484.654	449.679	0.00034986	0.0006858	0.00018214	1399.1	6.4301e-06	2.8431e-06	1478.7	296.67	4.1076e-06	2.3414e-06	357.65	95.718	78.085	20.84	4.8777e-06	28.867	0.00077731	0.00089563	0.00025273	1386.7	9.6949e-06	9.6991e-06	1461.7	295.52	9.4684e-06	9.8352e-06	356.01	96.532	78.851	21.369	9.8402e-06	29.645	273.624	217.134	219.424	156.992	315.094	335.547	157.225	164.076	310.848	167.840	163.652	170.439	170.327	177.584	369.376	176.971	-8191	255	
41265.855	1	1	0	0	0.27017	0.21831	0.12695	0.37889	0.14948	0.10704	0.36319	0.29303	0.19251	0.11403	0.091261	0.05259	0.11398	0.24678	0.20823	0.18184	-2.4958	-2.8688	-2.9813	-3.1792	-2.8354	-3.1917	-3.1125	-2.7396	-2.9813	-2.9562	-2.9104	-3.0667	-2.925	-2.9896	-2.9104	-2.7917	502.424	491.471	459.083	475.611	354.794	350.455	442.402	162.459	439.275	441.006	481.779	430.731	504.082	450.439	443.296	189.873	0.00039585	0.00043586	0.00016389	1401.5	8.0488e-06	5.4819e-06	1467.7	294.6	2.3785e-06	3.3973e-06	352.61	95.139	76.681	20.502	5.1571e-06	28.795	0.00075697	0.00089299	0.00025402	1385.5	9.8712e-06	9.9432e-06	1455.8	294.04	9.9299e-06	1.0461e-05	353.92	95.798	77.825	21.156	1.0494e-05	29.485	268.747	229.346	246.208	157.124	306.364	307.067	157.051	163.845	305.732	293.493	163.665	170.515	170.439	177.468	285.812	176.934	-8191	255	
41265.949	1	1	0	0	0.28665	0.061988	0.1209	0.39125	0.058301	0.18237	0.20974	0.23604	0.12225	0.38484	0.11176	0.11972	0.12852	0.42971	0.075998	0.098658	-2.7062	-2.8167	-2.7792	-3.2792	-2.6354	-3.1729	-3.2979	-2.7646	-3.025	-2.9271	-2.8063	-3.0167	-3.0187	-2.95	-3.0521	-2.9104	303.062	161.212	165.792	447.155	184.011	270.305	429.979	452.786	374.968	376.750	308.323	394.459	158.846	432.578	438.428	171.021	0.00033134	0.00031808	7.7495e-05	1390.3	6.4536e-06	6.752e-06	1465.3	293.72	3.1432e-06	4.1354e-06	351.67	95.175	77.637	20.538	4.8458e-06	28.62	0.00079366	0.00095475	0.00026279	1377.3	1.029e-05	1.0141e-05	1451.9	292.68	9.8097e-06	1.0373e-05	353.25	95.614	78.012	21.156	1.0138e-05	29.441	272.105	231.101	297.085	157.030	304.019	324.149	157.083	164.208	304.032	285.805	163.602	170.413	170.722	177.391	258.871	176.462	-8191	255	
41266.070	1	1	0	0	0.22487	0.1088	0.15717	0.12982	0.13182	0.11139	0.23806	0.41626	0.042848	0.18934	0.20141	0.1119	0.17501	0.13107	0.097123	0.15602	-2.5708	-2.8708	-2.7542	-2.8812	-2.7562	-2.9375	-3.3625	-2.8167	-2.9542	-2.9146	-2.725	-3.1854	-2.9729	-2.7938	-3.0812	-2.9208	472.352	468.400	300.388	164.276	356.911	153.946	397.169	406.182	150.579	333.047	471.987	456.949	471.709	180.509	485.759	477.971	0.00038576	0.00061766	0.00014842	1390.4	6.3622e-06	8.037e-06	1466	293.53	5.5996e-06	7.4319e-06	350.66	95.079	77.239	20.511	1.4131e-06	28.67	0.00077604	0.00094629	0.00026291	1376.9	1.0166e-05	1.0427e-05	1448.4	292.46	9.738e-06	1.0239e-05	353.25	95.527	77.978	21.19	1.0431e-05	29.492	267.139	227.556	204.417	157.214	296.634	280.732	157.149	164.037	334.857	323.294	163.707	170.543	170.607	177.310	365.835	177.011	-8191	255	
41266.164	1	1	0	0	0.30248	0.060264	0.20816	0.27531	0.23167	0.18028	0.41909	0.081966	0.13057	0.11314	0.072915	0.16708	0.39969	0.14709	0.12	0.096692	-2.5542	-2.8688	-2.6792	-3.0292	-2.9646	-3.0104	-3.1833	-2.7875	-3.2958	-3.0958	-2.8063	-3.0687	-2.8187	-3.0083	-3.0167	-2.9333	437.849	369.591	217.548	490.174	217.047	419.875	444.316	458.649	498.093	336.154	218.144	182.272	334.414	253.422	271.748	400.896	0.00032745	0.00069182	0.00020113	1385.5	5.7609e-06	2.8119e-06	1466	294.33	5.0799e-06	1.9738e-06	352.18	95.219	77.524	20.659	3.8222e-06	28.761	0.00079832	0.00095558	0.00026237	1376.6	1.0037e-05	1.0479e-05	1450.9	292.98	9.8579e-06	1.0085e-05	354.52	95.758	78.344	21.234	9.9458e-06	29.536	278.451	260.994	220.269	156.912	275.031	266.598	157.102	163.672	328.597	303.084	163.672	170.704	170.301	177.320	275.059	177.341	-8191	255	
41266.262	1	1	0	0	0.038084	0.1916	0.30948	0.31819	0.11765	0.12279	0.25709	0.10755	0.060328	0.11702	0.10558	0.063596	0.29894	0.21196	0.1434	0.23839	-2.7313	-2.8854	-2.6479	-3.2896	-2.8917	-2.7667	-3.2729	-2.8583	-2.9813	-3.0896	-2.7062	-3.2458	-2.95	-2.9396	-3.1917	-2.9688	305.263	267.389	163.774	423.225	183.194	376.054	309.476	418.652	175.044	241.443	437.633	460.190	231.027	495.292	267.909	445.886	0.00037485	0.00046315	0.00018105	1389.8	4.8393e-06	6.5929e-06	1468.2	294.45	5.5509e-06	1.5411e-06	354.03	95.446	77.889	20.701	6.4005e-06	28.577	0.00075982	0.00091036	0.00025274	1377.7	9.7691e-06	1.0013e-05	1450.6	293.22	9.8419e-06	1.0176e-05	354.74	96.065	78.367	21.283	1.0119e-05	29.548	270.981	256.806	213.574	157.250	320.567	282.238	157.022	163.598	326.994	352.712	163.734	170.337	170.294	177.302	332.188	176.715	-8191	255	
41266.355	1	1	0	0	0.29004	0.07905	0.089319	0.22345	0.21715	0.024714	0.20392	0.26645	0.14372	0.10172	0.093125	0.1914	0.25253	0.20856	0.070285	0.23748	-2.4688	-3.1813	-2.7896	-3.2188	-2.8771	-2.75	-3.3354	-2.7646	-2.7979	-3.225	-2.8979	-3.1	-3.0312	-2.9458	-3.0125	-2.9375	253.718	165.050	436.289	419.671	325.285	218.556	398.272	480.072	169.838	347.294	253.720	483.594	357.302	470.766	276.021	376.393	0.0003526	0.00059201	7.7844e-05	1390.9	3.845e-06	5.5266e-06	1466.8	295.51	2.1641e-06	2.4005e-06	353.61	95.65	78.124	20.875	8.0067e-07	28.693	0.00078845	0.00092506	0.00025166	1374.8	9.5003e-06	9.8656e-06	1449.9	294.01	9.5766e-06	9.4904e-06	354.68	96.085	78.498	21.363	9.5997e-06	29.602	272.251	215.341	254.419	157.080	280.684	307.381	157.191	163.993	298.030	360.697	163.479	170.275	170.506	177.336	285.021	177.190	-8191	255	
41266.453	1	1	0	0	0.17265	0.11571	0.41611	0.1001	0.13156	0.22047	0.13334	0.13363	0.041638	0.16215	0.22458	0.18359	0.28058	0.070155	0.18606	0.15432	-2.4479	-3.0521	-2.7958	-3.1833	-2.8812	-2.6708	-3.2583	-3.1292	-2.8958	-3.1146	-2.9333	-2.9437	-3	-2.8187	-3.1375	-2.8688	244.664	267.556	183.756	342.383	374.201	157.412	391.462	395.656	308.601	168.189	433.115	481.611	489.121	215.186	194.494	422.762	0.00031631	0.00030721	3.6602e-05	1392.7	4.5485e-06	5.1194e-06	1470.4	295.28	3.5586e-06	5.4522e-06	354.72	95.066	78.418	20.696	4.3904e-06	28.76	0.00074019	0.00085046	0.0002289	1377.7	9.1407e-06	9.1793e-06	1451.9	294.03	8.7362e-06	8.9992e-06	354.49	96.007	78.635	21.264	9.0045e-06	29.59	271.920	227.834	208.559	157.080	286.179	310.439	157.346	163.789	318.629	341.476	163.526	170.236	170.149	177.372	373.894	176.942	-8191	255	
41266.551	1	1	0	0	0.20548	0.08753	0.1648	0.24026	0.13177	0.050033	0.10511	0.24633	0.11606	0.1563	0.30175	0.24532	0.097221	0.064799	0.14295	0.071012	-2.375	-2.925	-2.6937	-3.1063	-3.1104	-2.7146	-3.2646	-3.1208	-2.9083	-3.0333	-2.9604	-2.8812	-3.1375	-2.6562	-3.1708	-2.9979	269.797	317.268	308.834	427.301	470.405	187.279	479.084	170.734	495.852	448.618	172.871	436.290	159.251	315.701	271.668	214.716	0.00039874	6.6798e-05	0.00010765	1392.5	1.1288e-05	4.2871e-06	1469.5	296.66	2.9457e-06	2.1601e-06	355.31	95.287	78.693	20.839	2.6756e-06	28.876	0.00071848	0.00084737	0.00022595	1378.6	8.8799e-06	8.9641e-06	1452.5	294.91	8.9574e-06	9.0117e-06	355.76	96.269	78.83	21.371	8.6161e-06	29.693	265.724	385.229	267.107	157.018	299.324	268.684	157.027	163.889	328.011	326.255	163.427	170.372	170.570	177.482	303.816	176.753	-8191	255	
41266.672	1	1	0	0	0.067411	0.054248	0.22695	0.32557	0.20604	0.14617	0.097277	0.40587	0.054636	0.19873	0.19199	0.11443	0.21076	0.27507	0.13709	0.17711	-2.2625	-2.9271	-2.8792	-3.1542	-2.9917	-2.9146	-3.3854	-3.0542	-2.9542	-3.2021	-3.05	-3.0896	-3.1875	-2.7875	-3.1188	-3.0604	389.937	434.986	203.253	427.531	419.080	183.911	451.560	475.358	501.301	476.727	233.461	458.857	432.846	468.220	379.724	501.827	0.00035437	0.00058932	6.2497e-05	1391.6	4.8999e-06	3.8835e-06	1475.2	295.83	3.8404e-06	1.6335e-06	356.66	95.562	78.567	20.906	1.6662e-06	28.924	0.00068809	0.00080168	0.00021555	1380	8.4058e-06	8.3829e-06	1454.7	294.46	8.0886e-06	8.0242e-06	355.41	96.147	78.609	21.32	7.6592e-06	29.498	270.991	204.154	261.786	157.108	333.099	318.129	157.275	163.759	326.175	357.247	163.345	170.351	170.741	177.586	349.513	176.911	-8191	255	
41266.766	1	1	0	0	0.11524	0.040445	0.13421	0.17941	0.046485	0.21201	0.18883	0.24652	0.28748	0.13234	0.25753	0.15072	0.10843	0.29071	0.17688	0.29745	-2.3292	-3.0604	-2.95	-2.9896	-3.0438	-2.8396	-3.2354	-3.2208	-2.5646	-3.0396	-3.0563	-2.9479	-3.0417	-2.8229	-2.8812	-3.0333	187.325	448.538	228.341	490.014	361.201	399.066	332.456	462.860	185.197	439.351	442.998	156.947	452.121	149.019	250.260	428.946	0.00036665	0.00057047	3.9428e-05	1396.1	3.1957e-06	4.5136e-06	1471.2	296.97	3.9216e-06	2.1235e-06	354.93	95.829	78.097	20.892	3.6276e-06	29.046	0.000617	0.0007076	0.00019586	1380.8	7.7638e-06	7.6664e-06	1454.7	295.11	7.5391e-06	7.6915e-06	355.02	96.232	78.553	21.345	7.6227e-06	29.637	268.973	239.296	184.672	157.024	278.929	283.739	157.131	163.631	297.042	289.069	163.102	170.271	170.714	177.133	292.176	176.909	-8191	255	
41266.859	1	1	0	0	0.21681	0.17108	0.24694	0.070214	0.060038	0.17492	0.31659	0.40376	0.090999	0.057004	0.17338	0.12478	0.11994	0.15258	0.18239	0.15616	-2.2104	-3.1396	-2.7167	-3.0292	-3.1917	-3.0438	-3.1271	-3.2125	-2.5771	-3.0854	-3.0062	-2.8187	-2.9979	-2.8979	-2.7812	-3.0792	472.242	336.819	442.960	477.785	383.988	149.500	419.212	489.734	451.824	376.581	198.368	376.075	330.307	347.600	159.282	437.932	0.00034357	0.0004402	8.2908e-05	1391.2	4.3332e-06	3.1246e-06	1467.1	296.95	4.1118e-06	3.0009e-06	355.34	96.334	78.306	20.944	4.7378e-06	28.801	0.0006243	0.00073346	0.00019674	1378.7	8.1325e-06	7.8868e-06	1452	294.89	7.7461e-06	7.9247e-06	355.27	96.34	78.486	21.314	7.6749e-06	29.638	271.201	241.759	281.421	157.198	332.211	308.281	157.220	163.632	320.957	308.281	163.613	170.343	170.325	177.633	333.017	176.913	-8191	255	
41266.957	1	1	0	0	0.17385	0.1338	0.055312	0.12045	0.14013	0.17568	0.2557	0.26501	0.047095	0.21834	0.14581	0.16257	0.073559	0.24084	0.18351	0.080876	-2.3375	-3.0125	-2.8729	-3.0896	-2.8958	-2.9583	-3.0708	-3.2604	-2.6604	-2.9521	-3.0438	-2.8042	-3.1604	-2.975	-2.6604	-3.0292	277.002	313.333	348.213	500.613	327.764	283.943	449.635	411.649	336.965	387.827	344.556	426.544	156.913	440.516	206.845	401.342	0.00037218	0.00062962	0.00013971	1389.3	3.141e-06	4.0398e-06	1467.2	296.07	5.4526e-06	2.3928e-06	353.02	95.751	77.712	20.688	2.2173e-06	28.801	0.00060023	0.00067801	0.00019105	1376.3	7.2601e-06	7.3586e-06	1449.9	294.21	7.2361e-06	7.3581e-06	354.56	96.099	78.308	21.185	7.1903e-06	29.537	271.492	227.484	257.274	157.270	295.154	283.125	157.148	163.859	329.324	245.640	163.693	170.279	170.487	177.645	368.440	176.927	-8191	255	
41267.031	1	1	0	0	0.072593	0.056135	0.12787	0.20906	0.064295	0.47118	0.21085	0.08938	0.029115	0.11774	0.24906	0.19581	0.11835	0.13547	0.054233	0.12657	-2.3458	-2.9813	-2.9521	-2.9021	-3.0042	-2.9042	-3.0438	-3.1604	-2.9292	-2.9146	-3.1125	-2.9896	-2.9917	-2.8896	-2.8583	-3.0292	312.018	177.055	248.277	490.875	425.183	240.281	459.077	435.851	493.665	355.570	474.706	289.140	257.058	147.375	349.687	293.494	0.00032945	0.00028134	7.488e-05	1395.3	3.4766e-06	3.0631e-06	1472.9	296.74	4.2077e-06	2.5386e-06	355.85	94.768	77.493	20.684	5.129e-06	28.875	0.0005785	0.0006326	0.00017874	1377.5	6.8516e-06	6.9615e-06	1451.8	293.98	6.7177e-06	6.7396e-06	353.75	95.532	77.968	21.119	6.8039e-06	29.5	269.901	209.861	230.154	157.123	358.881	319.815	157.127	163.688	338.056	302.480	163.441	170.470	170.688	177.411	347.646	176.944	-8191	255	
41267.148	1	1	0	0	0.12373	0.11184	0.046741	0.12279	0.23945	0.24878	0.27095	0.11634	0.22956	0.20878	0.11234	0.27312	0.23683	0.026179	0.14903	0.19571	-2.5354	-2.825	-2.9083	-2.9313	-3.0292	-3.025	-2.8646	-3.1896	-2.9562	-2.7687	-3.1562	-2.8354	-2.8917	-2.9229	-2.7667	-3.0521	190.946	197.122	388.370	450.248	405.624	422.241	445.627	159.217	173.213	421.676	207.039	448.072	488.812	414.736	424.989	156.506	0.00035041	0.00064868	0.00010263	1401.9	3.3142e-06	4.9166e-06	1473.2	295.69	4.4027e-06	2.124e-06	353.66	95.5	77.758	20.628	5.2535e-06	28.685	0.00054718	0.00061627	0.00017151	1378.5	6.4693e-06	6.6828e-06	1450.9	293.24	6.5487e-06	6.9999e-06	353.18	95.627	78.065	21.074	6.7862e-06	29.29	270.133	250.212	194.119	156.926	295.786	296.556	157.025	163.990	300.088	295.418	163.863	170.262	170.354	177.174	301.879	176.830	-8191	255	
41267.246	1	1	0	0	0.19669	0.039698	0.2386	0.23807	0.086112	0.10641	0.31934	0.14534	0.23975	0.33399	0.13487	0.10754	0.1184	0.060764	0.3095	0.17278	-2.3708	-2.7938	-3.1833	-2.8812	-2.8021	-3.1458	-3.0771	-3.1354	-2.9854	-2.925	-3.2667	-2.8979	-3.0771	-3.1312	-2.7979	-3.1292	473.148	330.918	337.602	482.660	349.322	301.830	484.487	494.667	305.735	373.058	451.167	492.565	160.578	325.418	435.250	463.367	0.00031291	0.00026965	0.00011871	1389.7	3.8386e-06	6.2126e-06	1466.4	294.91	3.9711e-06	3.3465e-06	353.45	95.285	78.199	20.707	4.9877e-06	28.781	0.00054706	0.00063459	0.00016967	1373.1	6.8183e-06	6.8684e-06	1448.5	292.83	6.7194e-06	6.7038e-06	353.48	95.594	78.228	21.165	6.5965e-06	29.362	271.402	243.570	271.641	157.010	297.991	324.172	157.048	163.921	344.085	311.681	163.573	170.124	170.603	177.311	325.019	177.293	-8191	255	
41267.344	1	1	0	0	0.19437	0.14455	0.24336	0.2391	0.080904	0.22437	0.27238	0.066344	0.1418	0.095511	0.15475	0.024392	0.15907	0.14075	0.20992	0.10877	-2.5229	-2.7146	-3.2104	-2.8688	-2.7958	-2.9958	-2.8625	-3.0812	-2.8833	-2.7812	-3.2583	-3.0292	-2.875	-3.2479	-2.7083	-3.2271	410.694	476.443	205.678	500.512	245.988	471.323	394.250	349.388	206.760	468.170	149.527	378.443	207.747	436.516	362.114	275.189	0.00034526	0.00021847	0.00016135	1391.9	4.4226e-06	2.6608e-06	1476.3	294.57	6.1189e-06	1.4538e-06	354.03	95.022	77.969	20.746	3.0059e-06	28.957	0.00053187	0.00058749	0.00016126	1377.1	6.4442e-06	6.4113e-06	1453.1	293.3	6.1428e-06	6.3385e-06	353.86	95.552	78.102	21.138	5.7578e-06	29.388	275.064	237.213	206.338	156.891	276.253	320.241	156.924	163.554	322.994	277.602	163.837	170.269	170.237	177.001	296.124	176.890	-8191	255	
41267.438	1	1	0	0	0.09709	0.24421	0.17061	0.11642	0.13013	0.12896	0.17451	0.12093	0.12296	0.13852	0.055738	0.19124	0.038065	0.095877	0.23928	0.20005	-2.5333	-2.7646	-3.0375	-2.9333	-2.825	-3.0458	-3.0729	-3.1813	-2.9979	-2.7687	-3.175	-2.8812	-2.8438	-3.1667	-2.8146	-2.8333	504.799	389.946	226.938	411.714	209.038	190.057	493.650	437.356	249.475	410.924	468.019	420.548	282.455	417.477	235.077	463.213	0.00035269	0.00051922	0.00011099	1393.3	7.4856e-06	1.7484e-06	1471.6	294.62	3.8928e-06	2.974e-06	353.45	95.003	77.872	20.74	3.7124e-06	28.594	0.00048176	0.00053133	0.00014329	1376.1	5.8904e-06	5.8107e-06	1452.3	292.95	5.7062e-06	5.8225e-06	353.68	95.657	78.203	21.121	5.542e-06	29.321	273.875	208.119	219.525	156.987	277.580	313.690	157.234	163.850	318.105	332.809	163.479	170.538	170.606	177.093	290.260	176.976	-8191	255	
41267.559	1	1	0	0	0.13583	0.14725	0.26346	0.49963	0.40426	0.17145	0.2552	0.23323	0.15726	0.1631	0.13274	0.23587	0.40488	0.1152	0.31162	0.017538	-2.6042	-2.7875	-3.0646	-3.0687	-2.7417	-3.075	-3.1583	-3.0271	-3.1458	-2.8438	-3.2604	-3.0438	-2.9125	-3.1854	-2.9	-2.9313	201.808	174.332	394.600	458.687	363.855	298.766	440.115	281.285	471.778	496.575	479.488	481.023	457.765	157.963	474.247	481.678	0.00036218	0.00055467	6.0234e-05	1393.1	8.0316e-06	6.5956e-06	1470.7	294.95	5.6977e-06	2.2514e-06	352.83	95.617	77.528	20.916	3.5143e-06	28.911	0.00047484	0.00051247	0.00013904	1375	5.7625e-06	5.7242e-06	1450.2	293.46	5.6337e-06	5.6675e-06	352.9	95.463	77.957	21.151	5.4105e-06	29.376	267.259	231.622	236.925	157.047	331.351	317.393	157.212	163.698	312.415	350.397	163.739	170.067	170.435	177.670	298.071	176.794	-8191	255	
41267.629	1	1	0	0	0.17428	0.10478	0.11205	0.18048	0.15398	0.10916	0.28949	0.1438	0.19771	0.24498	0.19788	0.21475	0.31571	0.071964	0.16587	0.20637	-2.7875	-2.8167	-2.8833	-3.1813	-2.6021	-3.0583	-2.9958	-2.8896	-3.2208	-2.7542	-3.2729	-3.0625	-2.775	-2.9437	-2.85	-2.8271	500.485	264.233	308.436	482.313	456.579	455.016	474.427	490.709	254.734	322.918	223.735	164.943	211.719	209.124	458.475	456.064	0.00039373	0.00041817	9.2085e-05	1389.6	6.3455e-06	4.3706e-06	1467	295.12	5.5502e-06	2.2504e-06	354	95.631	78.089	20.921	4.0616e-06	28.912	0.0004831	0.00052259	0.00014132	1375.4	5.578e-06	5.7299e-06	1447.6	292.87	5.5064e-06	5.4441e-06	353.16	95.701	78.074	21.157	5.1306e-06	29.364	270.473	246.370	218.353	157.091	330.212	276.572	157.293	164.098	320.078	298.776	163.534	170.039	170.449	177.325	332.465	177.295	-8191	255	
41267.750	1	1	0	0	0.042307	0.14841	0.13211	0.28792	0.31007	0.15269	0.41917	0.26364	0.04749	0.13077	0.10876	0.33842	0.1402	0.13722	0.18348	0.20704	-2.75	-2.6813	-3.0708	-3.275	-2.8875	-3.25	-3.0833	-3.0938	-3.1521	-2.9542	-3.0062	-3.0771	-2.9562	-3.1063	-3.0104	-2.9604	237.699	153.414	480.791	478.157	292.116	200.548	441.490	383.671	412.947	380.713	290.058	480.527	350.816	175.641	426.117	368.670	0.00034279	0.0004921	0.00011821	1390.6	6.7011e-06	2.44e-06	1467.6	294.39	3.4033e-06	1.1372e-06	351.2	95.353	78.178	20.832	3.8188e-06	28.952	0.0004428	0.00046844	0.0001232	1372.8	5.1593e-06	4.9499e-06	1446.4	292.5	5.0881e-06	5.0298e-06	351.93	95.457	78.146	21.118	4.9953e-06	29.382	274.215	225.053	212.952	157.213	287.716	318.640	157.112	164.046	307.540	382.508	163.754	170.344	170.411	177.525	306.440	177.048	-8191	255	
41267.848	1	1	0	0	0.12558	0.19479	0.22771	0.17125	0.030486	0.052809	0.26003	0.18617	0.11981	0.086305	0.015411	0.15477	0.15384	0.018392	0.3253	0.25153	-2.8042	-2.7938	-2.8833	-3.2458	-2.6208	-3.05	-3.2583	-2.9104	-3.0875	-2.8125	-2.8292	-3.3396	-2.8146	-3.1937	-3.0417	-2.7604	417.410	368.327	300.575	486.781	251.686	373.399	442.641	433.479	228.601	267.728	438.656	439.270	437.767	426.890	176.230	233.641	0.00038831	0.00022156	0.00017809	1390	2.9245e-06	1.759e-06	1461.5	294.59	4.523e-06	3.1399e-06	355.1	95.573	78.029	20.732	4.4857e-06	28.626	0.0004372	0.00047395	0.00013305	1371.7	5.2358e-06	5.0213e-06	1446.2	292.26	5.0797e-06	5.0147e-06	352.89	95.574	78.098	21.127	5.264e-06	29.353	275.952	235.857	236.758	156.880	310.095	243.365	157.197	163.676	308.656	264.726	163.699	170.278	170.268	177.279	329.781	176.877	-8191	255	
41267.941	1	1	0	0	0.09398	0.3838	0.19754	0.2292	0.16141	0.33417	0.33999	0.18594	0.22869	0.15551	0.18923	0.017008	0.042012	0.2339	0.14596	0.16892	-2.5875	-2.8167	-2.7958	-3.0854	-2.8125	-2.975	-3.1708	-2.7458	-3.25	-3.0938	-2.9771	-3.2271	-2.9583	-2.9646	-3.0625	-2.8312	254.011	312.837	274.126	474.598	224.632	249.257	415.573	452.396	480.475	244.546	225.845	505.242	351.306	456.106	232.229	488.903	0.0003766	0.00030363	0.00011588	1389.4	3.9571e-06	4.8635e-06	1467.3	294.7	2.9239e-06	1.601e-06	352.96	96.224	78.042	20.718	4.0554e-06	28.657	0.00043896	0.0004705	0.00013302	1370.3	5.3121e-06	5.0267e-06	1446.5	292.72	5.0597e-06	5.1624e-06	352.35	95.953	78.152	21.128	5.1519e-06	29.376	273.247	269.028	253.757	157.181	309.291	313.451	157.036	163.829	313.969	354.119	163.544	170.425	170.560	177.258	302.732	176.809	-8191	255	
41268.039	1	1	0	0	0.18524	0.096935	0.21406	0.25591	0.093831	0.21394	0.11125	0.05013	0.0072937	0.13738	0.15295	0.22927	0.14667	0.028002	0.10946	0.18823	-2.6083	-2.8979	-2.9062	-3.3146	-3	-2.8792	-3.3354	-2.7438	-3.075	-3.0042	-2.9104	-3.1312	-2.9521	-3.0458	-3.1521	-2.6854	197.109	267.867	476.210	463.691	152.844	179.749	366.280	429.400	357.430	350.134	461.491	409.344	437.940	456.568	345.146	287.589	0.00029956	0.00020496	9.2006e-05	1390.4	1.3941e-06	5.9422e-06	1465.7	295.4	4.3277e-06	4.8801e-06	353.7	95.7	78.553	20.779	2.6183e-06	28.91	0.00043167	0.00046611	0.00013353	1372.9	5.16e-06	4.9968e-06	1447	293.2	5.1117e-06	5.1595e-06	352.92	95.948	78.404	21.151	5.0564e-06	29.429	273.039	217.658	239.698	156.989	284.566	336.241	157.178	163.884	312.575	286.013	163.686	170.236	170.457	177.308	262.902	176.706	-8191	255	
41268.156	1	1	0	0	0.2058	0.041978	0.24623	0.30032	0.060339	0.077259	0.43255	0.20613	0.093276	0.25539	0.040184	0.10764	0.109	0.074148	0.36244	0.19909	-2.4729	-3.0146	-2.6208	-3.1417	-2.8292	-2.8896	-3.3208	-2.9562	-3.0042	-3.0396	-2.8833	-3.0354	-3.0417	-2.8521	-3.1667	-2.8792	258.707	355.757	416.901	474.446	276.647	300.109	437.806	465.488	161.330	432.583	440.760	303.909	179.940	379.620	391.857	471.100	0.00034591	0.00024772	8.7184e-05	1393.3	4.9957e-06	3.8503e-06	1470.2	294.5	4.1896e-06	3.9002e-06	354.61	96.171	78.499	20.703	4.1377e-06	28.963	0.00043492	0.00046622	0.00013035	1375.4	5.1435e-06	5.0937e-06	1448.3	292.89	5.1692e-06	5.26e-06	353.03	96.127	78.64	21.195	5.4124e-06	29.38	273.010	217.881	244.172	157.130	288.871	284.614	156.928	163.829	310.568	323.810	163.420	169.963	170.412	177.352	325.507	176.654	-8191	255	
41268.230	1	1	0	0	0.074844	0.1551	0.11954	0.17709	0.070765	0.1637	0.14979	0.17949	0.27721	0.21166	0.18556	0.21893	0.12973	0.099063	0.055612	0.15093	-2.5312	-2.9125	-2.6188	-3.3354	-2.8625	-2.9979	-3.1979	-2.8396	-2.7833	-3.1104	-2.85	-3.1083	-3.175	-2.8729	-3.0729	-2.9396	487.877	325.279	345.872	161.708	430.425	190.329	357.974	449.874	466.109	291.414	475.211	473.875	183.028	266.257	289.198	331.376	0.00032629	0.00038666	6.3564e-05	1391.6	7.0821e-06	5.4379e-06	1464.6	295.27	4.613e-06	5.0528e-06	355.31	95.954	78.212	20.888	1.3038e-06	29.051	0.00046556	0.00049334	0.00014494	1374.3	5.6973e-06	5.722e-06	1445.1	292.83	5.6833e-06	5.6859e-06	353.35	95.892	78.422	21.309	5.5166e-06	29.502	271.759	222.715	200.645	157.021	293.252	275.055	157.196	163.832	305.693	316.904	163.627	170.211	170.206	177.198	354.631	176.790	-8191	255	
41268.324	1	1	0	0	0.17873	0.16506	0.28157	0.095527	0.10705	0.41446	0.22492	0.15969	0.32242	0.23369	0.12967	0.17468	0.18771	0.051937	0.16686	0.087779	-2.4604	-3.0542	-2.5979	-3.3875	-2.9875	-2.8458	-3.2229	-2.8937	-2.8917	-2.9333	-2.9062	-3.0604	-2.8417	-2.6625	-3.0729	-2.9042	448.113	295.147	312.193	477.415	255.921	477.094	366.335	436.969	248.567	345.201	149.984	160.193	402.941	216.671	303.144	165.298	0.00036927	0.00043579	0.00011758	1392.6	5.8619e-06	2.621e-06	1461.3	295.53	4.175e-06	5.0402e-06	353.75	95.769	78.619	20.836	4.3959e-06	29.022	0.00045022	0.00050584	0.00013923	1371.9	5.4039e-06	5.4072e-06	1442	293.62	5.3336e-06	5.3831e-06	353.35	96.005	78.845	21.285	5.2075e-06	29.504	267.749	214.118	237.452	157.045	246.107	277.432	157.148	163.934	316.333	306.884	163.648	169.997	170.524	177.167	278.662	176.799	-8191	255	
41268.445	1	1	0	0	0.054641	0.26525	0.029488	0.22354	0.17675	0.1074	0.24962	0.52235	0.1588	0.17288	0.044708	0.21816	0.17681	0.17735	0.07403	0.31989	-2.3021	-2.9333	-2.6979	-3.0625	-2.9458	-2.8354	-3.2667	-2.95	-2.8542	-3.1813	-2.8563	-3.0062	-3.1271	-2.775	-3.0458	-2.9313	282.383	158.748	245.146	161.594	287.325	166.701	392.337	459.408	325.954	341.893	214.262	400.078	457.139	146.211	392.490	151.649	0.00035631	0.00038836	0.00010237	1391.3	3.1387e-06	5.5094e-06	1466.5	297.16	5.7964e-06	3.9365e-06	354.24	96.599	78.38	20.986	3.8922e-06	29.239	0.00045328	0.00048573	0.00013647	1372.1	5.371e-06	5.4284e-06	1447.5	294.06	5.4712e-06	5.3209e-06	354.02	96.598	78.911	21.383	5.1309e-06	29.617	270.263	236.711	242.159	156.999	301.706	310.947	157.022	164.078	327.271	277.207	163.939	170.268	170.497	177.108	313.210	176.707	-8191	255	
41268.543	1	1	0	0	0.28308	0.13003	0.13308	0.25347	0.014294	0.27654	0.30076	0.073734	0.096087	0.11523	0.15518	0.17246	0.20549	0.19511	0.1896	0.12279	-2.325	-3.0771	-2.8375	-3.1542	-3.0104	-2.7583	-3.2333	-3.0208	-2.6583	-3.0812	-3.05	-3.0792	-3.0875	-2.925	-2.9833	-3.0854	419.443	192.463	187.417	191.582	482.139	489.311	395.466	368.318	207.581	244.370	348.545	251.728	155.838	214.073	503.620	226.189	0.00040047	0.00021138	0.00013387	1388.6	3.8749e-06	3.903e-06	1473.6	296.89	4.4718e-06	4.1877e-06	357.24	96.497	79.005	20.963	7.4573e-07	29.218	0.0004557	0.00047205	0.00012919	1373	5.2388e-06	5.2864e-06	1449.1	294.95	5.1533e-06	5.2732e-06	355.79	96.739	79.218	21.421	5.2295e-06	29.729	269.463	229.622	211.515	157.070	255.651	322.864	157.207	163.690	310.276	327.452	163.465	169.814	170.368	177.006	274.568	176.530	-8191	255	
41268.641	1	1	0	0	0.065264	0.13951	0.096623	0.37459	0.17786	0.01897	0.11454	0.2099	0.42355	0.15476	0.21978	0.28318	0.19185	0.061916	0.27391	0.28555	-2.2354	-3.0792	-2.9271	-3.1417	-3.2771	-2.8542	-3.225	-3.1042	-2.9854	-3.1937	-3.0917	-2.8187	-3.15	-2.7625	-2.9771	-2.9604	246.589	423.843	430.196	428.708	424.969	451.256	461.967	147.386	215.779	365.500	456.405	159.131	372.949	411.133	176.398	450.526	0.00037625	0.00030097	6.1161e-05	1393	7.4107e-06	3.7889e-06	1472.8	298.75	4.479e-06	6.1548e-06	355.9	96.754	79.184	21.059	5.0472e-06	29.328	0.00045023	0.00047478	0.00012996	1375	5.4651e-06	5.2597e-06	1451.2	295.81	5.3464e-06	5.3354e-06	355.38	97.028	79.618	21.477	5.3394e-06	29.743	277.281	217.769	162.298	156.952	294.946	289.864	157.078	163.820	318.214	317.214	163.735	169.836	170.179	176.962	303.743	176.700	-8191	255	
41268.734	1	1	0	0	0.20329	0.12166	0.1741	0.232	0.20932	0.14776	0.12336	0.21629	0.17324	0.05924	0.12812	0.098455	0.21824	0.19529	0.062066	0.045217	-2.3771	-3.1208	-3.0042	-3.0333	-3.1646	-2.8875	-3.2292	-3.2062	-2.825	-3.1375	-2.9354	-2.8271	-3.1437	-2.6813	-2.9208	-3.2604	435.554	260.822	346.600	483.718	480.906	387.101	411.376	169.431	227.666	477.167	302.089	461.338	453.513	322.247	416.345	177.856	0.00032213	0.0003195	4.086e-05	1390.4	3.6795e-06	1.1848e-06	1463.4	298	3.6438e-06	3.669e-06	356.57	96.899	79.602	21.018	3.2946e-06	29.32	0.00045876	0.00048577	0.0001316	1372.6	5.4665e-06	5.4294e-06	1448.6	296.2	5.4048e-06	5.4269e-06	355.84	96.986	79.608	21.531	5.0499e-06	29.881	270.860	183.947	218.718	156.856	301.492	348.873	157.292	163.951	313.507	324.930	163.558	170.171	170.212	177.044	314.505	176.441	-8191	255	
41268.855	1	1	0	0	0.33705	0.15105	0.10751	0.21455	0.11654	0.1768	0.30119	0.23957	0.16282	0.24757	0.25182	0.2311	0.18865	0.094244	0.18038	0.17294	-2.2979	-3.0917	-2.8812	-3.0167	-3.2479	-2.9938	-3.2562	-3.05	-3.0312	-3.0896	-3.2375	-2.7812	-3.0312	-2.8417	-2.8667	-3.0854	190.690	356.656	364.763	147.840	354.573	370.498	452.143	391.986	240.553	360.353	198.001	492.404	413.896	433.929	213.599	451.003	0.00036355	0.0003054	0.00011819	1391.7	4.4253e-06	5.8126e-06	1463.9	297.67	5.0418e-06	4.1715e-06	358.41	96.793	79.874	21.265	2.9245e-06	29.301	0.0004503	0.00047249	0.0001346	1373.1	5.4583e-06	5.3311e-06	1446.7	296.52	5.6996e-06	5.4478e-06	355.89	97.188	79.946	21.594	5.6517e-06	29.906	276.683	287.096	237.001	157.059	301.130	278.844	157.203	163.907	307.501	321.986	163.502	169.964	170.072	176.363	326.079	176.941	-8191	255	
41268.926	1	1	0	0	0.27896	0.083397	0.1451	0.028643	0.097617	0.096843	0.22276	0.12233	0.094366	0.16785	0.27896	0.17134	0.14211	0.22373	0.19357	0.084286	-2.2521	-3.1229	-2.9625	-2.8542	-3.2	-2.8396	-3.0167	-3.2812	-2.8208	-3.1188	-3.1271	-2.5354	-3.025	-3.0354	-2.6063	-3.0625	180.447	296.427	231.334	501.101	418.081	311.011	446.610	171.324	149.298	294.401	472.614	343.132	459.062	504.550	427.798	401.592	0.00035291	0.00022471	0.00016654	1388	2.89e-06	3.0196e-06	1466	300.45	4.2336e-06	5.0114e-06	359.99	97.396	79.516	21.167	3.6621e-06	29.339	0.00046938	0.00050396	0.00014027	1370.6	5.3982e-06	5.2179e-06	1446.4	297.55	5.2765e-06	5.1077e-06	357.28	97.234	79.804	21.599	5.374e-06	29.875	269.771	208.207	257.601	157.012	309.695	318.728	157.256	163.661	322.463	266.708	163.480	170.304	170.625	176.848	302.732	176.960	-8191	255	
41269.023	1	1	0	0	0.25587	0.17642	0.073533	0.060339	0.18554	0.33574	0.27774	0.12229	0.13078	0.12222	0.24678	0.044112	0.074343	0.21265	0.10232	0.1628	-2.4896	-2.9188	-3.0958	-2.8521	-2.9521	-2.8729	-2.9792	-3.0167	-2.7125	-2.8229	-3.1292	-2.8854	-3.0312	-3.0438	-2.6833	-3.3021	352.043	182.130	324.144	288.663	500.710	487.693	476.096	209.139	391.188	268.300	190.550	490.682	348.346	472.601	298.660	430.782	0.00035593	0.00028896	7.0307e-05	1387	6.0113e-06	1.1835e-06	1474.4	300.57	3.7577e-06	3.8967e-06	358.52	96.949	79.991	21.172	2.4532e-06	29.388	0.00045034	0.00047518	0.00013676	1373.6	5.3299e-06	5.1594e-06	1450.8	298.1	5.2476e-06	5.1338e-06	358.16	97.399	80.092	21.582	5.1282e-06	29.959	273.997	185.792	208.829	157.265	308.803	278.555	157.236	163.709	328.426	341.598	163.565	170.003	170.486	177.330	313.663	176.860	-8191	255	
41269.121	1	1	0	0	0.10977	0.10725	0.26153	0.32087	0.073922	0.088892	0.12421	0.057664	0.10626	0.099965	0.10107	0.18778	0.084623	0.092817	0.11522	0.15965	-2.3229	-2.7917	-3.0396	-3.0125	-3.0875	-3.1208	-3.0896	-2.9208	-3.0021	-2.8542	-3.1479	-2.9562	-3.0042	-3.0563	-2.6396	-3.1604	318.277	424.125	483.015	430.177	496.697	394.744	283.683	454.206	440.197	500.787	325.820	232.231	179.345	477.316	437.503	208.356	0.0003832	0.0004184	0.00013121	1394	5.2095e-06	6.2779e-06	1472.1	299.69	2.6861e-06	2.9755e-06	359.41	97.629	79.904	21.346	3.1705e-06	29.43	0.00041737	0.00045102	0.00012768	1376	5.1252e-06	4.9326e-06	1453.2	297.99	4.8837e-06	5.1241e-06	357.8	97.579	80.276	21.663	4.9788e-06	29.886	274.191	221.916	237.625	156.921	310.161	330.039	156.980	163.754	294.373	312.039	163.490	169.892	170.105	176.830	306.509	176.376	-8191	255	
41269.238	1	1	0	0	0.17755	0.13829	0.14318	0.19858	0.20151	0.019544	0.16212	0.063437	0.20036	0.11937	0.12899	0.26953	0.24462	0.17961	0.28702	0.061068	-2.3688	-2.8667	-3.1	-2.9458	-2.8354	-2.9	-2.8625	-3.1396	-3.0208	-2.7458	-3.0083	-2.8146	-3.0687	-3.0333	-2.6312	-2.9125	152.634	244.708	311.572	490.345	403.631	232.004	433.578	226.233	258.358	281.327	395.059	410.517	452.163	494.314	414.185	165.981	0.00036393	0.00040441	3.4915e-05	1390.2	5.3384e-06	5.936e-06	1475.7	300.55	1.7004e-06	5.2698e-06	359.26	97.197	80.468	21.288	3.6854e-06	29.432	0.00042244	0.00045335	0.00012348	1373.9	4.829e-06	4.9341e-06	1452.1	298.37	4.696e-06	4.9383e-06	358.25	97.488	80.246	21.669	4.9813e-06	29.894	268.487	228.159	235.097	156.901	332.003	274.357	157.152	163.791	296.679	309.849	163.638	169.987	170.275	177.103	284.207	176.469	-8191	255	
41269.336	1	1	0	0	0.1738	0.26167	0.081956	0.064707	0.13031	0.19468	0.12709	0.25288	0.18003	0.14662	0.27535	0.30373	0.1686	0.18876	0.14954	0.095754	-2.5771	-2.5958	-2.8354	-3.0042	-3.0354	-3.0292	-2.8937	-3.0625	-3.0333	-2.9083	-3.2229	-2.9	-2.9313	-3.1208	-2.8542	-3.1229	354.004	298.811	212.900	419.543	246.275	208.248	412.075	162.509	205.380	226.185	470.519	468.619	398.937	446.788	169.506	382.890	0.00037317	9.1978e-05	0.00011956	1393.5	6.1332e-06	6.6046e-06	1475.2	300.63	4.5402e-06	5.2877e-06	361.9	97.782	80.291	21.348	4.6771e-06	29.32	0.00040596	0.00043919	0.00011807	1374.9	4.9539e-06	4.9909e-06	1449.7	298.37	4.9915e-06	5.3117e-06	359.54	97.476	80.152	21.733	5.0932e-06	29.816	270.766	188.251	201.918	157.086	287.970	281.658	157.094	163.575	328.062	300.868	163.315	169.935	170.571	177.169	277.251	176.840	-8191	255	
41269.430	1	1	0	0	0.22569	0.1894	0.13482	0.35837	0.12243	0.20996	0.3377	0.036456	0.23277	0.17349	0.051899	0.087481	0.21002	0.21378	0.15648	0.078994	-2.3958	-2.6292	-3.1604	-3.0396	-2.8458	-3.0833	-2.8396	-2.9458	-3.1	-2.7521	-3.1354	-2.9521	-3.0646	-3.1521	-2.7042	-2.9604	317.436	248.687	462.554	380.002	414.015	371.468	431.566	354.022	420.607	464.568	447.594	182.419	482.417	497.299	145.790	235.351	0.00033354	0.00045893	8.0743e-05	1394.2	3.5683e-06	3.4113e-06	1472.7	301.18	4.6759e-06	4.2772e-06	359.07	97.409	80.542	21.204	3.4498e-06	29.253	0.00043844	0.00046271	0.00012871	1375.7	5.3102e-06	5.298e-06	1448.3	298.47	5.2898e-06	5.4762e-06	357.54	97.483	80.365	21.669	4.9252e-06	29.871	267.893	208.514	227.340	157.025	295.863	313.737	157.154	163.648	320.566	283.019	163.509	170.199	170.386	177.191	311.586	176.739	-8191	255	
41269.527	1	1	0	0	0.14304	0.18006	0.32079	0.17576	0.12235	0.079238	0.070508	0.29469	0.2021	0.024546	0.23469	0.32167	0.28187	0.4351	0.2063	0.19039	-2.6604	-2.7812	-3.1271	-3.0646	-2.7313	-3.175	-3.05	-3.075	-3.0062	-2.7521	-3.2042	-2.9813	-2.7604	-3.0375	-2.7958	-2.8146	335.783	266.611	401.857	432.144	152.159	146.487	399.452	202.259	419.954	254.924	452.127	212.005	492.168	483.362	212.977	415.850	0.00034535	0.00025265	9.6027e-05	1391.3	4.8755e-06	5.3733e-06	1468	301.43	3.997e-06	2.7649e-06	359.09	97.205	80.304	21.224	2.047e-06	29.521	0.00041417	0.00046322	0.00012418	1373.8	5.1954e-06	5.104e-06	1449.2	298.78	5.0569e-06	5.0572e-06	358.48	97.548	80.287	21.674	4.8802e-06	29.92	273.961	186.189	287.143	156.875	305.592	305.930	157.157	163.799	331.014	306.099	163.686	170.286	170.572	177.106	360.717	176.487	-8191	255	
41269.621	1	1	0	0	0.20904	0.1468	0.31498	0.42469	0.15916	0.064605	0.26931	0.20786	0.20614	0.16361	0.017702	0.13723	0.17875	0.11344	0.12106	0.26419	-2.5542	-3	-3.0896	-2.9896	-2.7042	-2.8438	-3.0646	-2.8875	-3.2	-2.9375	-2.9938	-2.9958	-2.7313	-3.0875	-2.9833	-2.8333	429.628	505.394	382.107	436.808	330.228	235.742	443.493	350.025	469.439	311.859	310.490	491.732	458.146	501.057	396.260	208.607	0.0003598	0.00059363	0.00014356	1390.8	3.9679e-06	6.4744e-06	1471.3	301.82	4.2796e-06	4.5325e-06	359.61	97.492	80.26	21.359	2.939e-06	29.569	0.00041975	0.00045447	0.00012304	1375.5	5.0386e-06	4.6739e-06	1452.3	299.52	4.9703e-06	4.8927e-06	358.79	97.551	80.356	21.682	4.6426e-06	30.013	270.887	236.398	202.776	156.969	321.849	316.883	157.045	163.738	337.605	288.636	163.493	170.056	170.315	177.031	329.198	176.103	-8191	255	
41269.719	1	1	0	0	0.062195	0.26841	0.19466	0.32289	0.032993	0.12967	0.26747	0.2059	0.15569	0.068155	0.28579	0.20892	0.17545	0.12002	0.21674	0.15958	-2.6604	-2.7729	-2.8417	-3.1979	-2.8438	-3.0458	-3.0979	-2.825	-3.1708	-3.0417	-3.1042	-3.1979	-2.7917	-3.0708	-2.9437	-2.8229	497.940	350.541	203.997	419.151	368.823	464.775	491.017	454.581	505.286	147.739	469.726	386.950	409.802	438.484	478.033	277.828	0.00033449	0.00049174	8.77e-05	1396	4.2405e-06	3.7147e-06	1473.1	302.28	5.7285e-06	4.3278e-06	360.35	97.385	79.91	21.282	2.0901e-06	29.6	0.00041047	0.00041503	0.00010991	1379.2	4.6626e-06	4.4888e-06	1455	299.53	4.5393e-06	4.574e-06	359.99	97.553	80.234	21.747	4.6233e-06	29.946	269.339	245.654	225.381	157.154	300.323	321.048	157.156	163.537	307.029	290.422	163.452	170.164	170.294	177.140	317.855	176.602	-8191	255	
41269.840	1	1	0	0	0.26387	0.10679	0.31191	0.17345	0.15929	0.096556	0.2527	0.23997	0.14396	0.12829	0.0069372	0.22802	0.32236	0.092154	0.034526	0.088883	-2.6146	-2.8104	-2.9479	-3.1896	-2.6729	-2.9521	-3.3229	-2.7479	-3.1458	-2.9667	-2.9646	-3.15	-2.9083	-3.1063	-3.0417	-2.875	408.641	401.212	243.884	479.478	334.357	215.157	439.731	468.322	306.691	493.510	400.359	454.051	463.945	308.648	454.849	398.280	0.00035979	0.00023123	0.00015356	1396.1	5.9427e-06	4.7025e-06	1478	301.87	3.8118e-06	2.558e-06	359.73	97.512	80.502	21.276	8.27e-06	29.355	0.00040836	0.00042027	0.00012182	1379.1	5.0705e-06	4.893e-06	1456.7	299.7	5.128e-06	4.9821e-06	359	97.651	80.292	21.662	4.7355e-06	29.887	268.020	229.768	262.867	157.101	305.031	293.170	157.136	163.687	295.402	304.945	163.559	170.254	170.074	177.112	311.312	176.517	-8191	255	
41269.934	1	1	0	0	0.12706	0.25162	0.21217	0.22168	0.21333	0.16185	0.15274	0.31925	0.098134	0.14267	0.16234	0.45098	0.17206	0.14633	0.079696	0.042702	-2.7229	-2.8417	-2.6479	-3.2146	-2.8937	-2.8708	-3.1417	-2.8917	-3.2271	-2.9833	-3.0125	-3.0979	-2.9	-3.0042	-3.1458	-2.8958	244.691	199.214	214.138	422.068	321.609	341.167	311.758	485.913	243.541	195.459	417.600	435.054	461.693	278.545	342.358	389.721	0.00034174	0.00031946	8.3691e-05	1405	1.4936e-06	4.4714e-06	1483	302.59	4.996e-06	4.9334e-06	360.42	97.881	80.286	21.47	2.9192e-06	29.338	0.00042377	0.0004454	0.00012064	1382.1	5.0358e-06	4.7678e-06	1460.4	300.07	5.0567e-06	4.893e-06	360.1	97.786	80.372	21.753	4.8217e-06	29.841	272.399	244.932	222.574	156.965	282.934	334.229	157.248	163.770	314.783	303.318	163.381	169.971	170.286	176.957	301.006	176.663	-8191	255	
41270.031	1	1	0	0	0.072366	0.10112	0.036769	0.23047	0.20416	0.29289	0.17612	0.33003	0.22021	0.1111	0.11845	0.14292	0.1767	0.1623	0.10586	0.2929	-2.6667	-2.8979	-2.8688	-3.1958	-2.8979	-2.8563	-3.2167	-2.8625	-3.0167	-2.9354	-2.9104	-3.2354	-2.8375	-2.9208	-3.225	-3.0312	366.463	231.491	420.232	418.797	208.723	427.667	463.017	473.104	486.359	173.658	334.567	493.395	456.290	478.184	257.036	479.207	0.00037063	0.00042065	0.0001405	1396.5	6.3496e-06	3.6911e-06	1475	303.47	4.4258e-06	2.1479e-06	361.32	97.889	80.277	21.285	4.1807e-06	29.46	0.00041519	0.0004269	0.00011068	1381.1	4.6462e-06	4.4206e-06	1458.9	300.38	4.4878e-06	4.4996e-06	359.4	97.81	80.259	21.736	4.7814e-06	30.055	275.194	210.900	244.199	157.125	299.765	302.680	157.156	163.624	327.761	283.975	163.387	170.237	170.069	177.038	291.527	176.895	-8191	255	
41270.152	1	1	0	0	0.059776	0.20941	0.18828	0.12283	0.16321	0.068398	0.15649	0.19683	0.13923	0.011667	0.24918	0.079598	0.27737	0.25903	0.29125	0.15054	-2.5812	-2.8021	-2.6458	-3.3312	-2.6104	-3.0333	-3.4854	-2.8563	-2.8646	-3.0917	-2.7313	-3.0292	-2.7125	-2.8625	-3.1229	-3.0083	335.129	447.921	220.897	457.051	217.709	421.109	454.541	159.767	205.375	332.946	191.079	247.495	465.430	445.085	315.578	148.197	0.00038884	0.000516	9.5493e-05	1405.5	5.7665e-06	6.0469e-06	1479.5	303.88	3.1527e-06	1.9486e-06	360.83	98.024	80.128	21.505	3.4402e-06	29.515	0.00042472	0.00043626	0.00012595	1383.3	4.9814e-06	4.6954e-06	1459.1	300.68	4.5565e-06	4.6524e-06	360.06	97.978	80.407	21.743	4.8785e-06	30.05	270.686	241.121	175.061	156.981	288.747	299.587	157.089	163.565	298.165	317.507	163.305	170.023	170.185	177.155	317.140	176.893	-8191	255	
41270.223	1	1	0	0	0.16698	0.2866	0.24479	0.19441	0.18102	0.23048	0.20614	0.18975	0.11923	0.14243	0.07971	0.19571	0.29206	0.13227	0.068293	0.095263	-2.3729	-2.9437	-2.75	-3.2833	-3.0646	-2.8167	-3.3917	-3.0687	-2.9354	-3.1583	-2.9188	-3.1521	-2.9208	-2.7896	-3.3667	-2.8583	374.005	283.445	368.711	408.623	181.058	472.933	443.475	177.335	450.529	402.112	498.870	365.014	154.290	157.856	456.184	159.785	0.00038637	0.00054237	9.1348e-05	1398.5	4.2944e-06	4.0729e-06	1483.5	303.5	4.4422e-06	4.8563e-06	360.78	97.867	80.663	21.401	5.7083e-06	29.701	0.00041209	0.00043585	0.00012394	1382.7	4.7196e-06	4.6761e-06	1461.1	300.95	4.7647e-06	4.733e-06	360.06	98.022	80.663	21.758	4.7973e-06	30.081	269.530	250.261	245.430	156.950	317.253	316.242	156.888	163.675	293.232	313.117	163.552	169.747	170.321	176.607	328.521	176.833	-8191	255	
41270.320	1	1	0	0	0.21191	0.10196	0.25761	0.090429	0.27506	0.14297	0.20437	0.071773	0.11683	0.17099	0.23582	0.54791	0.082101	0.05521	0.070936	0.11822	-2.2896	-3.0479	-2.7604	-3.2021	-2.9604	-2.825	-3.3542	-2.9313	-2.9354	-3.0854	-3.0896	-3.1833	-3.0875	-2.7812	-3.0021	-2.9146	460.286	468.404	480.475	199.004	265.315	502.666	464.267	160.125	246.646	173.962	373.529	501.536	395.168	152.275	429.930	323.876	0.0003924	0.0003996	7.5264e-05	1405.2	6.6595e-06	5.7214e-06	1477.7	303.68	3.968e-06	2.7104e-06	363.07	97.957	80.763	21.514	3.753e-06	29.322	0.00041166	0.00041854	0.00011824	1386.6	4.5405e-06	4.5479e-06	1460.2	301.3	4.3742e-06	4.4765e-06	360.96	98.006	80.756	21.8	4.4404e-06	29.946	274.939	233.832	222.315	156.969	291.606	288.896	156.996	163.539	321.475	299.380	163.622	169.838	170.289	177.017	329.822	176.588	-8191	255	
41270.414	1	1	0	0	0.1182	0.0012966	0.14212	0.046576	0.24103	0.096508	0.34818	0.14803	0.17416	0.1511	0.12456	0.10964	0.1701	0.24452	0.093046	0.2499	-2.3354	-3.1083	-2.6875	-3.15	-2.9729	-2.8563	-3.3083	-3.0062	-2.7896	-3.2333	-2.9062	-3.1021	-3.1083	-2.7854	-2.8917	-2.8688	480.887	180.000	420.187	186.502	406.276	308.781	446.603	458.411	464.785	252.372	440.385	164.230	483.071	504.509	247.142	364.083	0.00037066	0.00059896	0.00010374	1403.8	3.5422e-06	3.5956e-06	1480.2	304.24	4.7117e-06	4.2113e-06	363.12	98.155	80.645	21.566	4.4872e-06	29.309	0.00039407	0.00041411	0.00011363	1387.3	4.391e-06	4.261e-06	1461.4	301.63	4.1415e-06	4.2386e-06	361.08	98.152	80.52	21.801	4.3678e-06	29.993	272.172	239.557	253.336	156.978	301.422	286.790	157.026	163.628	312.849	308.213	163.138	170.407	170.148	176.931	341.494	176.818	-8191	255	
41270.535	1	1	0	0	0.049988	0.14556	0.041787	0.26727	0.244	0.2048	0.55294	0.19679	0.15194	0.08547	0.19596	0.29583	0.17943	0.12594	0.33306	0.2347	-2.2271	-3.1188	-2.8833	-3.1479	-2.9958	-2.9167	-3.2458	-3.1146	-2.8354	-3.0187	-3.0375	-2.9854	-3.1396	-2.6792	-3.0312	-3.0604	268.732	148.397	336.105	398.812	349.577	482.113	450.154	435.602	417.107	223.593	161.912	417.433	492.642	454.597	450.513	216.697	0.00036485	0.00030953	9.6803e-05	1405.1	9.646e-06	3.2225e-06	1486.4	305.41	5.012e-06	4.1157e-06	363.63	98.013	81.121	21.574	4.7724e-06	29.545	0.00039041	0.0004028	0.00011192	1388.5	4.4788e-06	4.4782e-06	1464.7	302.18	4.3374e-06	4.4023e-06	362.08	97.954	80.805	21.787	4.3285e-06	29.993	269.560	238.280	242.524	157.138	294.573	279.904	156.997	163.618	318.473	306.151	163.545	170.380	170.143	177.235	311.903	176.485	-8191	255	
41270.629	1	1	0	0	0.071962	0.080702	0.025129	0.28189	0.022373	0.22057	0.1688	0.080739	0.20935	0.1054	0.1095	0.2411	0.25951	0.16333	0.024429	0.067314	-2.4458	-3.0729	-2.9042	-3.0563	-3.2	-2.8312	-3.3271	-3.0438	-2.9313	-3.0958	-2.9208	-2.7854	-3.1813	-2.9083	-3.0479	-3.0833	364.230	151.401	263.802	501.133	253.113	328.823	425.306	214.269	149.136	408.982	395.869	460.330	485.679	336.216	459.451	461.345	0.00037558	0.00013277	5.4236e-05	1412.3	4.2954e-06	4.1815e-06	1485.6	304.66	2.0343e-06	3.9783e-06	364.11	98.277	81.025	21.483	3.016e-06	29.671	0.00039822	0.00040408	0.00011288	1390.6	4.4955e-06	4.3804e-06	1464.3	301.82	4.4552e-06	4.413e-06	361.08	98.145	80.798	21.746	4.2743e-06	30.057	270.948	184.015	221.688	156.970	277.166	293.864	157.092	163.669	320.447	329.366	163.422	169.774	170.045	176.896	310.903	176.700	-8191	255	
41270.727	1	1	0	0	0.1266	0.23865	0.23362	0.17149	0.13725	0.17688	0.21714	0.14346	0.20789	0.10709	0.016229	0.11285	0.13435	0.10512	0.098494	0.153	-2.2583	-2.9417	-2.8937	-2.9896	-2.8958	-2.8896	-3.1688	-3.3417	-2.8271	-3.0896	-3.0396	-2.8625	-3.0729	-2.8354	-2.9458	-3.0729	345.535	425.525	356.279	199.718	399.010	362.771	412.839	476.867	151.529	216.329	425.424	456.789	454.234	327.578	304.125	177.438	0.00035892	0.00036936	0.00011628	1410.6	6.3133e-06	1.2618e-06	1485.8	303.88	3.4901e-06	2.5479e-06	363.64	98.548	80.889	21.394	3.0242e-06	29.387	0.00038348	0.00041245	0.00010995	1393.4	4.3929e-06	4.4169e-06	1468.2	301.7	4.5726e-06	4.5121e-06	362.13	98.332	80.852	21.748	4.4005e-06	29.992	276.890	209.427	230.230	156.778	303.310	342.065	157.089	163.761	337.809	327.921	163.676	170.042	170.384	177.199	279.515	177.098	-8191	255	
41270.797	1	1	0	0	0.25873	0.057114	0.12298	0.27049	0.23351	0.15778	0.19207	0.16386	0.22394	0.1936	0.11948	0.041297	0.05934	0.25495	0.049802	0.19404	-2.425	-3.0062	-2.9208	-2.9333	-3.0938	-2.8458	-3.1396	-3.2771	-2.7875	-3.0104	-3.0083	-2.8292	-2.9479	-2.9437	-3.0833	-3.2396	471.336	462.919	252.705	455.548	399.966	271.129	428.298	432.687	280.769	455.483	341.204	462.292	357.991	430.231	231.262	236.803	0.00033734	0.00025556	7.6222e-05	1409.4	5.7364e-06	3.382e-06	1491.4	304.88	3.5343e-06	4.009e-06	363.77	97.771	81.095	21.471	5.5336e-06	29.879	0.0003949	0.00040486	0.00011441	1392.9	4.8269e-06	4.7312e-06	1469.5	302.56	4.9053e-06	4.5539e-06	362.47	98.326	80.883	21.796	4.5141e-06	30.09	275.146	223.778	235.296	156.846	292.116	316.519	157.171	163.741	340.949	252.614	163.432	170.157	170.131	176.833	312.732	176.739	-8191	255	
41270.918	1	1	0	0	0.21959	0.083474	0.07317	0.32708	0.083577	0.20203	0.28275	0.22362	0.099518	0.12758	0.041339	0.068594	0.13798	0.28286	0.071871	0.17673	-2.3229	-3.1	-2.8833	-3.0979	-2.9625	-2.8979	-3.3063	-3.2792	-2.85	-3.0292	-3.0792	-2.775	-3.0604	-2.8875	-2.7354	-3.2042	172.267	248.517	337.782	424.857	226.510	327.834	425.640	479.248	266.475	290.815	180.661	366.177	492.723	199.189	473.734	391.596	0.0003662	0.00028988	0.0001285	1411.1	3.6678e-06	2.2391e-06	1483.8	304.02	4.2181e-06	4.0197e-06	365.9	98.735	81.109	21.337	5.904e-06	29.54	0.00041564	0.00041803	0.0001178	1390.8	4.8785e-06	4.5676e-06	1464.5	302.23	5.0222e-06	4.7601e-06	362.77	98.3	81.039	21.724	4.6463e-06	30.011	274.291	228.666	229.695	157.375	346.962	299.529	156.944	163.917	316.472	338.588	163.374	169.866	170.206	177.082	329.497	176.545	-8191	255	
41271.016	1	1	0	0	0.18482	0.1816	0.089516	0.32166	0.21581	0.24643	0.47628	0.06429	0.093384	0.073597	0.19705	0.20208	0.1398	0.10579	0.084596	0.18796	-2.2354	-2.8583	-2.8083	-2.8688	-2.9917	-3.0021	-3.0708	-3.0333	-2.925	-2.8083	-3.1	-2.8604	-3.025	-2.9938	-2.7354	-3.1604	373.051	318.718	167.460	441.273	235.821	219.746	409.145	397.075	164.225	365.744	194.499	397.085	376.088	498.405	195.084	155.300	0.00039397	0.00038815	0.00012844	1401.4	5.8761e-06	3.0658e-06	1486.3	305.14	3.0811e-06	2.2557e-06	364.17	97.539	80.882	21.421	3.3107e-06	29.783	0.00040383	0.00041232	0.00011598	1387.9	4.8161e-06	4.6862e-06	1465.2	302.16	5.0294e-06	4.7977e-06	362.82	98.369	81.03	21.801	4.8984e-06	30.153	274.536	221.049	223.160	156.751	306.245	284.865	157.104	163.777	325.369	340.329	163.473	169.869	170.322	177.030	330.460	176.644	-8191	255	
41271.109	1	1	0	0	0.32062	0.16924	0.33416	0.060758	0.20348	0.11293	0.19686	0.057008	0.18935	0.18194	0.17129	0.11028	0.18823	0.1711	0.22619	0.2716	-2.3563	-2.8542	-3.0625	-3.1063	-3.0625	-2.9875	-3.0521	-3.2313	-2.6521	-3.0021	-3.1854	-2.7521	-2.9813	-2.9813	-2.7438	-3.225	150.978	490.158	181.956	467.673	464.732	338.663	463.542	394.125	403.660	156.886	215.761	497.215	181.278	310.390	411.465	362.107	0.00039179	0.0004447	7.3125e-05	1408.2	7.1124e-06	2.1463e-06	1484.8	304.59	3.5335e-06	2.3665e-06	362.67	98.097	80.672	21.431	3.4597e-06	29.774	0.00041536	0.00042717	0.00011826	1387.4	4.718e-06	4.4849e-06	1463.3	302.29	4.6902e-06	4.7631e-06	362.61	98.394	80.994	21.801	4.6729e-06	30.092	273.908	228.080	258.230	156.925	297.696	284.249	157.111	163.865	327.553	305.978	163.232	170.131	170.260	176.892	350.014	176.805	-8191	255	
41271.230	1	1	0	0	0.09051	0.14637	0.13232	0.31284	0.019593	0.076808	0.20554	0.14917	0.095291	0.26862	0.22339	0.29157	0.094319	0.13102	0.041461	0.030962	-2.6604	-2.8125	-3.1896	-3.1604	-3.0479	-3.1813	-3.2146	-3.1188	-2.8333	-2.8229	-3.1146	-3.0875	-2.8583	-3.1354	-2.9271	-3.2062	487.862	197.763	359.283	416.078	269.260	386.468	431.276	341.673	161.181	362.806	435.383	465.605	201.333	465.919	395.069	426.921	0.00037873	0.00022306	6.9412e-05	1403.1	7.2649e-06	1.6226e-06	1484.7	305.45	4.0733e-06	3.4543e-06	364.24	98.535	80.804	21.495	4.4652e-06	29.413	0.00040169	0.00041525	0.00011774	1386.2	4.6703e-06	4.5637e-06	1462.3	302.59	4.5404e-06	4.5128e-06	362.85	98.434	80.998	21.856	4.5999e-06	30.059	272.580	246.824	235.403	156.922	283.018	205.011	157.041	163.703	309.715	290.755	163.336	170.124	170.269	176.806	303.189	176.887	-8191	255	
41271.324	1	1	0	0	0.057138	0.058055	0.36242	0.33678	0.23409	0.18824	0.18619	0.1138	0.17674	0.19526	0.10859	0.14711	0.17641	0.26458	0.1853	0.36089	-2.6188	-2.7458	-3.1771	-3.0563	-2.7958	-3.1646	-3.0167	-3.1875	-2.9792	-2.7333	-3.3	-3.0312	-2.9646	-3.1292	-2.7938	-3.0438	471.957	472.860	323.368	476.850	470.399	227.455	445.962	472.629	458.466	395.658	452.163	434.263	336.681	470.089	166.592	412.132	0.00036561	0.00042967	0.00015052	1404.5	5.5207e-06	4.3447e-06	1480.6	305.76	4.0498e-06	2.325e-06	363.81	98.402	81.334	21.479	5.1666e-06	29.456	0.0003935	0.00041171	0.00011775	1387.3	4.5225e-06	4.4965e-06	1462.4	302.6	4.6531e-06	4.8604e-06	362.72	98.63	81.333	21.894	4.844e-06	30.02	271.043	205.112	246.171	157.057	282.826	299.229	157.208	163.859	295.939	301.534	163.401	169.988	170.209	176.837	291.172	176.516	-8191	255	
41271.398	1	1	0	0	0.14051	0.036325	0.13	0.30701	0.18048	0.13761	0.20737	0.32811	0.10962	0.013924	0.025619	0.031842	0.31134	0.16058	0.32946	0.11735	-2.5792	-2.6937	-3.0479	-3.0083	-2.8396	-3.0083	-3.3042	-3.1354	-3.1479	-2.7792	-3.3063	-2.9104	-2.8771	-3.175	-2.8417	-2.8812	222.453	387.232	401.092	170.323	263.628	199.195	390.286	458.724	369.135	208.231	303.303	175.778	149.634	188.443	295.349	253.065	0.00033407	0.0003331	0.00015014	1402	2.8387e-06	4.261e-06	1479.2	305.62	5.3462e-06	5.6193e-06	363.03	98.437	81.119	21.42	2.6836e-06	29.652	0.00040827	0.00043778	0.00012219	1383.6	4.829e-06	4.6262e-06	1458.9	302.58	4.5006e-06	4.5044e-06	362.52	98.565	81.165	21.841	4.4208e-06	30.105	268.122	229.930	226.469	157.051	350.046	297.689	156.982	163.787	330.397	321.914	163.771	170.046	169.920	176.959	340.925	176.745	-8191	255	
41271.520	1	1	0	0	0.11695	0.15654	0.078507	0.17716	0.17475	0.32475	0.26676	0.14304	0.037977	0.20331	0.07373	0.058028	0.061612	0.09033	0.17276	0.039159	-2.7021	-2.7458	-2.8396	-3.3937	-2.575	-3.2375	-2.9333	-3.0521	-3.2146	-2.775	-3.0812	-3.0917	-2.8604	-3.2729	-2.8292	-2.8438	245.710	293.888	179.330	491.502	378.474	290.898	436.517	170.942	319.308	257.927	204.403	408.352	275.790	319.889	197.056	423.350	0.00034973	0.00038465	0.00010951	1405	5.7064e-06	5.9413e-06	1484.1	304.83	3.6291e-06	1.1019e-06	365.67	98.612	80.546	21.695	3.5955e-06	29.658	0.00038809	0.00043641	0.00011829	1382.5	4.7222e-06	4.6996e-06	1459.2	302.86	4.6436e-06	4.6676e-06	363.21	98.669	81.09	21.951	4.4565e-06	30.163	267.424	279.208	236.450	157.085	312.976	277.018	157.004	163.794	314.545	317.423	163.554	170.256	170.185	176.906	321.074	176.711	-8191	255	
41271.613	1	1	0	0	0.2456	0.16663	0.25781	0.14933	0.27087	0.30257	0.25919	0.12632	0.16499	0.093723	0.13123	0.28624	0.062881	0.36222	0.26813	0.14702	-2.7667	-2.7625	-2.9729	-3.2479	-2.8167	-3.0146	-3.0521	-3	-3.1708	-2.8063	-3.0917	-3.1375	-2.8479	-2.95	-3.0354	-2.8917	217.662	227.458	163.831	202.388	426.224	322.101	478.046	501.797	211.801	277.588	446.467	462.144	443.239	480.975	442.598	480.820	0.00038518	0.00045931	7.8992e-05	1400	4.038e-06	3.8182e-06	1486.2	305.63	3.0191e-06	2.9963e-06	364.91	98.241	81.129	21.682	2.8683e-06	29.619	0.00039842	0.00042204	0.00011386	1382.8	4.8823e-06	4.5417e-06	1461.8	303.18	4.4636e-06	4.2949e-06	363.34	98.519	81.198	21.898	4.0957e-06	30.114	274.654	236.605	287.002	156.823	303.999	292.288	157.153	163.663	319.747	298.498	163.477	170.150	170.404	177.215	314.110	176.385	-8191	255	
41271.711	1	1	0	0	0.10213	0.10477	0.083972	0.23822	0.1965	0.091816	0.23341	0.10565	0.27292	0.13671	0.15052	0.32174	0.12226	0.17155	0.094769	0.026831	-2.7458	-2.8292	-3.0604	-3.2687	-2.7562	-3.1833	-3.2562	-2.9604	-3.0833	-2.7208	-3.1708	-3.2521	-2.775	-3.0646	-2.9375	-2.875	396.156	449.362	339.128	152.772	479.428	441.354	455.614	432.364	326.734	314.307	471.978	426.218	408.004	406.927	473.763	271.485	0.00035553	0.00022808	0.00015749	1407.9	4.4264e-06	2.8282e-06	1484.2	306.55	4.9929e-06	4.7322e-06	365.97	98.895	81.424	21.72	2.8026e-06	29.433	0.00036865	0.00036345	9.7544e-05	1387	4.0819e-06	3.9566e-06	1461.8	303.44	4.0258e-06	3.997e-06	363.7	98.764	81.203	21.955	3.9618e-06	30.097	270.645	229.630	226.548	157.050	277.756	355.000	157.005	163.470	315.414	287.514	163.329	169.847	170.290	176.682	291.678	176.242	-8191	255	
41271.832	1	1	0	0	0.1137	0.15976	0.19823	0.043742	0.21743	0.023401	0.25095	0.1578	0.15635	0.2529	0.25901	0.061996	0.078735	0.25422	0.1297	0.13454	-2.7583	-2.7562	-2.8375	-3.2771	-2.8375	-3.0729	-3.2687	-2.8167	-3.075	-2.8479	-2.9042	-3.2042	-2.9208	-3.0667	-2.8208	-2.7458	373.099	324.947	235.332	452.472	231.467	166.978	466.920	436.852	195.678	428.462	459.217	210.537	462.640	451.887	379.864	214.746	0.00037549	0.00037547	0.00012372	1407.7	5.4016e-06	2.257e-06	1484.4	306.52	3.3424e-06	2.6222e-06	365.44	98.827	81.407	21.657	5.1448e-06	29.58	0.00036966	0.00037503	9.8374e-05	1388.2	4.2819e-06	4.0797e-06	1464.4	303.77	4.2743e-06	4.166e-06	363.83	98.764	81.319	21.951	4.1675e-06	30.191	275.353	279.167	262.621	156.949	284.272	283.883	156.986	163.647	302.800	349.295	163.333	169.982	170.262	177.108	317.408	176.840	-8191	255	
41271.926	1	1	0	0	0.097527	0.11197	0.078476	0.091085	0.10667	0.27453	0.17151	0.2275	0.017661	0.22638	0.18753	0.14254	0.19616	0.14403	0.093336	0.09069	-2.7646	-2.9729	-2.7438	-3.3187	-2.825	-3.025	-3.1604	-2.9062	-3.1458	-2.8917	-2.9333	-3.2479	-2.8	-2.9646	-2.9958	-2.7542	212.005	290.414	330.377	373.398	146.093	451.855	426.538	455.830	348.653	243.656	475.879	430.980	189.250	397.526	322.121	242.726	0.00036533	0.0003995	9.8001e-05	1415.5	6.7884e-06	2.6868e-06	1484.5	306.65	4.3177e-06	2.5532e-06	365.27	98.105	81.785	21.695	1.1081e-06	29.884	0.00038845	0.0003912	0.00011275	1393.7	4.7546e-06	4.5175e-06	1465.7	304.26	4.8937e-06	4.7964e-06	364.49	98.757	81.594	22.049	4.9339e-06	30.336	270.739	245.799	279.080	156.928	294.361	330.534	157.095	163.600	319.157	275.427	163.436	170.137	170.080	177.149	310.702	176.449	-8191	255	
41272.023	1	1	0	0	0.23378	0.077341	0.25737	0.31869	0.22713	0.063704	0.25107	0.14543	0.19461	0.33118	0.16171	0.23206	0.22125	0.14524	0.10306	0.15648	-2.6937	-2.8875	-2.725	-3.1729	-2.9313	-3.0312	-3.3854	-3.0271	-2.9208	-3.125	-2.8021	-3.1125	-3	-2.8604	-3.0187	-2.7792	296.296	243.497	436.232	492.962	331.086	468.986	393.710	302.530	425.233	251.005	477.214	157.529	448.118	207.471	350.703	303.433	0.00034509	0.00032878	6.1363e-05	1411.3	5.862e-06	2.0454e-06	1488.6	306.3	3.6745e-06	3.8136e-06	365.37	98.746	81.664	21.888	3.158e-06	29.735	0.00042412	0.000435	0.0001254	1390.4	4.9499e-06	4.8095e-06	1466.9	304	4.8383e-06	4.5554e-06	364.63	98.953	81.621	22.107	4.7333e-06	30.276	276.603	264.430	200.025	157.132	303.245	279.330	157.153	163.532	313.770	310.688	163.360	170.129	169.957	176.939	321.476	175.954	-8191	255	
41272.094	1	1	0	0	0.19839	0.20673	0.18987	0.14606	0.2496	0.1166	0.25265	0.31776	0.046615	0.12728	0.30919	0.12453	0.03707	0.079389	0.40384	0.071338	-2.4271	-2.9146	-2.8	-3.1437	-2.8563	-2.8917	-3.4062	-2.8667	-3.0042	-2.9292	-2.9292	-3.1479	-3.0458	-2.8708	-3.0792	-2.8333	282.507	361.627	317.130	448.500	211.602	268.802	369.855	450.823	240.832	262.570	454.185	239.171	281.035	436.595	403.865	182.925	0.00038509	0.00032131	9.6318e-05	1411.6	6.5545e-06	4.4754e-06	1486.5	306.39	4.4262e-06	2.114e-06	366.85	99.578	81.329	21.66	4.7537e-06	29.696	0.00040668	0.0004138	0.0001165	1389.9	4.5795e-06	4.3959e-06	1464	304.56	4.5123e-06	4.5218e-06	365.16	99.366	81.59	22.087	4.4474e-06	30.334	273.848	260.606	270.517	157.016	281.939	322.602	156.895	163.622	306.563	305.368	163.605	169.846	170.098	176.809	303.883	177.050	-8191	255	
41272.215	1	1	0	0	0.25957	0.077706	0.12691	0.082941	0.14427	0.10087	0.34168	0.24516	0.064659	0.15048	0.2258	0.43981	0.24224	0.23867	0.13061	0.19218	-2.5875	-3.0729	-2.7542	-3.1646	-2.9167	-2.7271	-3.3583	-2.9625	-3.0667	-3.2188	-2.9813	-3.0563	-2.9813	-2.8	-2.9354	-2.9958	409.376	491.151	278.211	495.477	161.187	461.330	412.051	422.641	272.434	332.058	363.256	204.481	499.046	166.386	378.978	343.868	0.00037915	0.00058409	0.00013341	1408.8	6.8057e-06	6.1225e-06	1487.2	306.06	4.0337e-06	3.7292e-06	367.91	99.358	81.848	21.835	4.3417e-06	29.682	0.0004063	0.00040732	0.000115	1388.2	4.6133e-06	4.4523e-06	1465	304.47	4.437e-06	4.3586e-06	366.21	99.1	81.86	22.192	4.4553e-06	30.295	273.086	233.002	240.777	156.985	326.361	278.998	157.133	163.631	326.060	308.043	163.237	169.780	170.280	176.638	325.781	176.409	-8191	255	
41272.312	1	1	0	0	0.24487	0.24291	0.087532	0.44964	0.14448	0.011459	0.12082	0.27581	0.26664	0.042996	0.24214	0.10937	0.1201	0.29934	0.16912	0.19009	-2.6167	-2.8667	-2.7	-3.15	-3.0438	-2.7417	-3.3625	-2.9208	-2.8875	-3.0458	-2.9542	-3.1	-2.9646	-2.7604	-3.0396	-2.8604	256.243	238.530	411.098	419.538	330.110	342.345	394.675	491.021	459.913	473.306	413.228	394.212	505.137	271.615	430.104	300.939	0.0003651	0.00031434	0.00012078	1407.6	8.0833e-06	4.6209e-06	1489.3	306.49	3.7661e-06	5.7003e-06	366.88	99.263	81.913	21.778	4.5935e-06	29.8	0.00039395	0.00040515	0.00011664	1390	4.3532e-06	4.4172e-06	1465.4	304.32	4.4091e-06	4.375e-06	365.65	99.127	81.755	22.133	4.263e-06	30.399	276.747	214.254	256.412	156.949	270.688	292.809	157.027	163.791	305.112	331.860	163.250	169.729	170.357	176.807	305.204	176.475	-8191	255	
41272.406	1	1	0	0	0.22802	0.10312	0.2273	0.030914	0.13579	0.21737	0.28012	0.13134	0.017952	0.23298	0.26722	0.25678	0.11267	0.10796	0.25188	0.16028	-2.3396	-2.8792	-2.8208	-3.0812	-2.9562	-2.8833	-3.325	-2.9958	-2.7729	-3.2292	-2.8708	-3.0479	-2.9667	-2.8312	-3.0542	-3.0146	310.946	433.411	236.732	425.111	398.952	267.423	457.598	170.670	259.140	255.214	204.235	386.720	307.744	456.380	451.136	195.747	0.0003879	0.0003802	0.00011588	1410.2	6.6994e-06	2.7673e-06	1488.4	307.82	4.9409e-06	4.6262e-06	367.23	100.16	81.998	21.928	2.3419e-06	29.942	0.00038279	0.00039068	0.00010887	1392.1	4.2471e-06	4.4135e-06	1467.5	304.84	4.3057e-06	4.3444e-06	366.22	99.551	82.006	22.214	4.4437e-06	30.437	273.869	255.934	232.261	157.179	336.704	280.139	157.051	163.827	326.840	322.401	163.232	170.112	169.914	176.677	331.785	176.804	-8191	255	
41272.504	1	1	0	0	0.14895	0.063128	0.076564	0.12876	0.17578	0.12864	0.24292	0.35677	0.15599	0.19503	0.24943	0.19812	0.11555	0.21287	0.1242	0.16404	-2.4396	-3.0667	-2.8396	-3.1458	-2.9021	-2.7917	-3.2562	-3.3146	-2.675	-3.1333	-2.8812	-2.9417	-3.0979	-2.6	-3.1208	-3.2417	207.803	177.196	307.033	474.229	481.249	434.959	431.401	381.996	344.005	385.103	495.284	428.026	468.500	477.421	296.621	420.346	0.00036272	0.00047751	0.00013824	1409.8	4.4502e-06	4.2607e-06	1481.8	307.68	3.8876e-06	3.8632e-06	372.42	99.766	81.874	21.865	5.6438e-06	30.041	0.0003905	0.00039716	0.00010996	1393.2	4.2842e-06	4.1955e-06	1467.7	305.64	4.1974e-06	4.1456e-06	367.62	99.696	82.018	22.234	4.0065e-06	30.408	271.488	229.563	250.847	157.032	275.769	299.044	157.026	163.728	323.713	308.231	163.294	169.946	170.053	176.690	321.704	176.727	-8191	255	
41272.621	1	1	0	0	0.11668	0.066567	0.26	0.1668	0.29448	0.048013	0.22563	0.25185	0.014675	0.049787	0.07711	0.099968	0.24234	0.21867	0.17188	0.17058	-2.3146	-3.2667	-2.8958	-2.9458	-3.0104	-2.8625	-3.25	-3.1667	-2.8958	-3.1333	-3.0458	-2.8229	-2.9833	-2.9	-2.9979	-3.0604	352.521	412.579	456.845	447.226	438.363	362.508	464.028	402.647	372.659	437.384	229.582	495.034	462.436	166.746	372.665	158.311	0.00034945	0.00036888	9.314e-05	1414.4	4.8763e-06	3.6577e-06	1493.7	308.54	3.3952e-06	4.1926e-06	368.12	99.835	82.338	21.8	5.2466e-06	30.166	0.00036825	0.00037207	0.00010257	1395.1	4.0981e-06	4.1049e-06	1470.3	305.31	4.0766e-06	4.0072e-06	367.04	99.636	82.022	22.185	3.8869e-06	30.448	269.698	221.920	251.092	156.905	300.563	314.897	157.198	163.657	325.877	302.163	163.256	170.124	170.001	176.777	333.876	176.341	-8191	255	
41272.695	1	1	0	0	0.32891	0.13217	0.22494	0.23752	0.12359	0.28675	0.37138	0.086684	0.23725	0.093529	0.30624	0.189	0.30638	0.33256	0.34393	0.24391	-2.2938	-3.0208	-2.9833	-2.925	-3.0563	-2.8438	-3.0938	-3.2271	-2.7104	-3.1833	-3.3646	-2.8875	-3.1979	-2.8271	-2.7333	-3.2375	269.433	375.006	199.861	163.426	401.553	351.207	448.727	439.373	392.461	422.889	491.015	295.826	351.653	467.809	499.465	469.292	0.00036128	0.00019729	7.3184e-05	1414.3	5.3589e-06	5.4153e-06	1496	308.47	4.4941e-06	9.044e-07	366.22	99.55	82.665	21.839	4.631e-06	29.884	0.00035574	0.00033266	9.1596e-05	1395.4	3.7901e-06	3.7007e-06	1473.4	306.3	3.8174e-06	3.7156e-06	366.25	99.768	82.264	22.208	3.5993e-06	30.428	272.449	230.759	282.147	156.954	301.608	295.373	157.093	163.559	303.276	306.361	163.234	169.702	169.831	176.695	310.628	176.700	-8191	255	
41272.789	1	1	0	0	0.077262	0.1517	0.066918	0.53941	0.15193	0.26892	0.24838	0.19299	0.18897	0.21811	0.015866	0.14241	0.080009	0.024541	0.072959	0.27117	-2.375	-2.9292	-2.9354	-3.2208	-3.1146	-2.8937	-3.1188	-3.3667	-2.8896	-3.0333	-3.0687	-3.0354	-3.0792	-2.7271	-2.8104	-3.0042	344.594	302.307	372.583	438.136	249.530	181.769	436.350	392.041	416.182	486.153	391.543	489.891	355.418	503.047	177.606	150.278	0.00036501	0.00034168	0.00011915	1423.6	2.9301e-06	4.4226e-06	1490.5	310.58	4.3813e-06	2.8264e-06	369.25	99.439	82.499	21.92	2.3049e-06	30.138	0.00034735	0.00032684	8.8195e-05	1398.9	3.5986e-06	3.2992e-06	1471	306.7	3.4609e-06	3.4651e-06	367.59	99.647	82.2	22.27	3.1932e-06	30.51	269.888	252.351	219.885	156.983	334.187	296.988	157.044	163.423	327.269	317.892	163.397	169.900	169.783	176.974	333.712	176.092	-8191	255	
41272.910	1	1	0	0	0.12011	0.061938	0.245	0.11168	0.46859	0.14803	0.22488	0.15528	0.036434	0.09472	0.18233	0.12482	0.12157	0.24499	0.23213	0.19224	-2.3875	-2.7833	-2.9375	-2.8521	-3.0687	-3.0083	-2.9542	-3.1833	-2.9167	-3.0187	-3.0771	-2.9708	-3.0771	-3.0187	-2.7104	-3.0146	276.901	285.752	175.063	172.286	486.761	446.274	486.976	461.260	197.898	319.646	450.856	440.024	460.919	379.741	326.509	380.665	0.00035648	0.00046554	0.00015099	1416	6.5618e-06	3.9036e-06	1491.9	309.61	4.3111e-06	3.6069e-06	369.65	100.23	82.28	21.874	4.6355e-06	30.053	0.00031275	0.00028697	8.0241e-05	1397.6	3.4735e-06	3.1494e-06	1473.1	306.69	3.5091e-06	3.2499e-06	367.71	99.921	82.15	22.265	3.2984e-06	30.453	269.993	242.789	229.234	157.004	302.304	301.440	157.159	163.799	328.148	315.422	163.334	169.619	169.652	176.490	303.629	176.288	-8191	255	
41273.008	1	1	0	0	0.040229	0.16934	0.29656	0.14457	0.29512	0.021475	0.36557	0.30342	0.026164	0.2249	0.20393	0.14997	0.14789	0.16024	0.063707	0.27743	-2.55	-2.8708	-2.9708	-3.1146	-3.1229	-2.8542	-2.9479	-3.3708	-2.9917	-3.025	-3.1729	-3.075	-2.9896	-2.9396	-2.8271	-3.2271	372.168	163.872	387.626	168.670	348.331	394.920	416.908	447.144	242.346	431.781	154.508	445.623	396.747	145.985	238.909	432.288	0.00036228	0.00013625	7.1338e-05	1417.4	7.4547e-06	3.5312e-06	1490.1	309.42	3.3759e-06	3.8053e-06	371.39	100.41	81.937	21.995	3.5555e-06	30.089	0.00031468	0.0002876	8.0606e-05	1395.9	3.4883e-06	3.142e-06	1471.4	306.46	3.5186e-06	3.2034e-06	368.23	100.14	82.374	22.252	3.5016e-06	30.524	272.907	235.274	222.640	157.024	298.109	297.444	157.162	163.800	306.654	312.481	163.158	170.014	169.953	176.257	273.166	176.605	-8191	255	
#DATA ENDS
