BOXY.EXE: ISS Imagent and Oximeter Data Acquisition Program Version 0.80
Ascii Record File

#ACQ INFORMATION
2  Detector Channels 
16  External MUX Channels 
1  Auxiliary Channels 
5000  Waveform (CCF) Frequency (Hz)
1  Waveforms Skipped 
30  Waveforms Averaged 
1  Cycles Averaged 
16  Acquisitions per Waveform 
10.0806  Updata Rate (Hz) 

#FILE INFORMATION
TRUE -- External MUX Channel results are PARSED.
FALSE -- AC DC and Phase are NOT grouped.
TRUE -- Companion Program Settings File CREATED.
FALSE -- AC data not excluded
FALSE -- DC data not excluded
FALSE -- Phase data not excluded
FALSE -- Auxillary Chn. data not excluded
Tab delimiters

#CALIBRATION STATE
TRUE -- Waveform Calibration Values APPLIED.


#AUX CALIBRATION VALUES
Val Type	aux-1	

Term	1.0000e+00	
Factor	0.0000e+00	


#WF CALIBRATION VALUES
A = Detector Channel
Val Type	A-AC1	A-AC2	A-AC3	A-AC4	A-AC5	A-AC6	A-AC7	A-AC8	A-AC9	A-AC10	A-AC11	A-AC12	A-AC13	A-AC14	A-AC15	A-AC16	A-DC1	A-DC2	A-DC3	A-DC4	A-DC5	A-DC6	A-DC7	A-DC8	A-DC9	A-DC10	A-DC11	A-DC12	A-DC13	A-DC14	A-DC15	A-DC16	A-Ph1	A-Ph2	A-Ph3	A-Ph4	A-Ph5	A-Ph6	A-Ph7	A-Ph8	A-Ph9	A-Ph10	A-Ph11	A-Ph12	A-Ph13	A-Ph14	A-Ph15	A-Ph16	

Term	0.00000e+00	0.00000e+00	0.00000e+00	0.00000e+00	0.00000e+00	0.00000e+00	0.00000e+00	0.00000e+00	0.00000e+00	0.00000e+00	0.00000e+00	0.00000e+00	0.00000e+00	0.00000e+00	0.00000e+00	0.00000e+00	0.00000e+00	0.00000e+00	0.00000e+00	0.00000e+00	0.00000e+00	0.00000e+00	0.00000e+00	0.00000e+00	0.00000e+00	0.00000e+00	0.00000e+00	0.00000e+00	0.00000e+00	0.00000e+00	0.00000e+00	0.00000e+00	0.00000e+00	0.00000e+00	0.00000e+00	0.00000e+00	0.00000e+00	0.00000e+00	0.00000e+00	0.00000e+00	0.00000e+00	0.00000e+00	0.00000e+00	0.00000e+00	0.00000e+00	0.00000e+00	0.00000e+00	0.00000e+00	
Factor	1.00000e+00	1.00000e+00	1.00000e+00	1.00000e+00	1.00000e+00	1.00000e+00	1.00000e+00	1.00000e+00	1.00000e+00	1.00000e+00	1.00000e+00	1.00000e+00	1.00000e+00	1.00000e+00	1.00000e+00	1.00000e+00	1.00000e+00	1.00000e+00	1.00000e+00	1.00000e+00	1.00000e+00	1.00000e+00	1.00000e+00	1.00000e+00	1.00000e+00	1.00000e+00	1.00000e+00	1.00000e+00	1.00000e+00	1.00000e+00	1.00000e+00	1.00000e+00	X	X	X	X	X	X	X	X	X	X	X	X	X	X	X	X	

B = Detector Channel
Val Type	B-AC1	B-AC2	B-AC3	B-AC4	B-AC5	B-AC6	B-AC7	B-AC8	B-AC9	B-AC10	B-AC11	B-AC12	B-AC13	B-AC14	B-AC15	B-AC16	B-DC1	B-DC2	B-DC3	B-DC4	B-DC5	B-DC6	B-DC7	B-DC8	B-DC9	B-DC10	B-DC11	B-DC12	B-DC13	B-DC14	B-DC15	B-DC16	B-Ph1	B-Ph2	B-Ph3	B-Ph4	B-Ph5	B-Ph6	B-Ph7	B-Ph8	B-Ph9	B-Ph10	B-Ph11	B-Ph12	B-Ph13	B-Ph14	B-Ph15	B-Ph16	

Term	0.00000e+00	0.00000e+00	0.00000e+00	0.00000e+00	0.00000e+00	0.00000e+00	0.00000e+00	0.00000e+00	0.00000e+00	0.00000e+00	0.00000e+00	0.00000e+00	0.00000e+00	0.00000e+00	0.00000e+00	0.00000e+00	0.00000e+00	0.00000e+00	0.00000e+00	0.00000e+00	0.00000e+00	0.00000e+00	0.00000e+00	0.00000e+00	0.00000e+00	0.00000e+00	0.00000e+00	0.00000e+00	0.00000e+00	0.00000e+00	0.00000e+00	0.00000e+00	-1.03364e+02	-1.28589e+02	-1.22771e+02	-1.82799e+02	-5.29327e+01	-6.36955e+01	-1.54998e+02	-1.62015e+02	-5.44320e+01	-6.23480e+01	-1.71853e+02	-1.69414e+02	-1.80018e+02	-1.77411e+02	-5.74280e+01	-1.48938e+02	
Factor	1.60856e-05	1.42380e-04	4.19562e-05	1.84207e-01	1.34200e-06	1.50499e-06	1.63323e-01	4.88771e-02	1.25689e-06	1.78350e-06	9.25773e-02	2.71365e-02	2.66344e-02	8.67124e-03	1.27850e-06	1.23973e-02	7.02452e-06	9.64614e-06	2.71299e-06	9.29001e-02	1.02271e-07	1.07808e-07	7.77924e-02	2.48455e-02	1.01700e-07	1.07589e-07	4.55974e-02	1.35142e-02	1.37367e-02	4.44083e-03	1.04084e-07	6.15744e-03	X	X	X	X	X	X	X	X	X	X	X	X	X	X	X	X	



#DISTANCE SETTINGS
A = Detector Channel
A-1	A-2	A-3	A-4	A-5	A-6	A-7	A-8	A-9	A-10	A-11	A-12	A-13	A-14	A-15	A-16	

2.5000e+00	3.0000e+00	2.5000e+00	3.0000e+00	2.0000e+00	3.0000e+00	1.5000e+00	3.0000e+00	3.0000e+00	3.0000e+00	3.0000e+00	3.0000e+00	3.0000e+00	3.0000e+00	1.5000e+00	3.0000e+00	

B = Detector Channel
B-1	B-2	B-3	B-4	B-5	B-6	B-7	B-8	B-9	B-10	B-11	B-12	B-13	B-14	B-15	B-16	

1.0000e+01	1.0000e+01	1.0000e+01	1.4400e+00	1.0000e+01	1.0000e+01	1.5100e+00	1.9400e+00	1.0000e+01	1.0000e+01	1.9900e+00	2.4900e+00	2.4100e+00	2.9000e+00	1.0000e+01	2.9800e+00	




#DATA BEGINS
time	group	step	mark	flag	A-AC1	A-AC2	A-AC3	A-AC4	A-AC5	A-AC6	A-AC7	A-AC8	A-AC9	A-AC10	A-AC11	A-AC12	A-AC13	A-AC14	A-AC15	A-AC16	A-DC1	A-DC2	A-DC3	A-DC4	A-DC5	A-DC6	A-DC7	A-DC8	A-DC9	A-DC10	A-DC11	A-DC12	A-DC13	A-DC14	A-DC15	A-DC16	A-Ph1	A-Ph2	A-Ph3	A-Ph4	A-Ph5	A-Ph6	A-Ph7	A-Ph8	A-Ph9	A-Ph10	A-Ph11	A-Ph12	A-Ph13	A-Ph14	A-Ph15	A-Ph16	B-AC1	B-AC2	B-AC3	B-AC4	B-AC5	B-AC6	B-AC7	B-AC8	B-AC9	B-AC10	B-AC11	B-AC12	B-AC13	B-AC14	B-AC15	B-AC16	B-DC1	B-DC2	B-DC3	B-DC4	B-DC5	B-DC6	B-DC7	B-DC8	B-DC9	B-DC10	B-DC11	B-DC12	B-DC13	B-DC14	B-DC15	B-DC16	B-Ph1	B-Ph2	B-Ph3	B-Ph4	B-Ph5	B-Ph6	B-Ph7	B-Ph8	B-Ph9	B-Ph10	B-Ph11	B-Ph12	B-Ph13	B-Ph14	B-Ph15	B-Ph16	aux-1	digaux	

11088.334	1	1	0	256	0.24023	0.10374	0.14982	0.22812	0.25874	0.08825	0.23848	0.31312	0.21565	0.12772	0.09792	0.05994	0.020231	0.28161	0.07187	0.18695	-2.6896	-2.9854	-3.1896	-3.1083	-3.1813	-3.2646	-3.2062	-3.3104	-3.0167	-3.1229	-3.4521	-3.0708	-3.1063	-3.2729	-2.9562	-3.3146	-108.899	88.420	88.756	214.589	211.891	150.210	220.685	195.740	154.005	39.229	11.477	-56.674	198.583	118.011	33.808	124.484	0.00030189	0.00059737	0.00017797	1437	4.2488e-06	2.7e-06	1422.7	385.98	7.4087e-06	2.6126e-06	438.79	141.36	122.76	42.394	2.8122e-06	52.799	0.0010516	0.0013553	0.00037175	1450.8	1.4141e-05	1.4676e-05	1439	393.4	1.4167e-05	1.4981e-05	446.55	145.68	126.63	43.64	1.4399e-05	54.412	229.124	-13.937	-36.712	-114.240	37.271	54.998	-114.281	-109.645	10.174	59.761	-110.105	-105.745	-105.207	-100.741	6.786	-101.327	-8191	255	
11088.430	1	1	0	0	0.086219	0.11161	0.17162	0.20437	0.1673	0.15335	0.55071	0.27269	0.079382	0.16397	0.16919	0.0089025	0.1057	0.21128	0.055401	0.35888	-2.7188	-2.8521	-3.2417	-3.1167	-3.0333	-3.2271	-3.3083	-3.3771	-3.1458	-2.8917	-3.5062	-3.0458	-3.0125	-3.4062	-2.9125	-3.3063	147.870	77.996	-9.766	-90.740	149.082	-42.109	180.722	159.245	158.766	37.310	132.902	-1.901	199.911	-93.502	114.777	141.661	0.00028174	0.00036551	0.00022972	1432.8	3.4814e-06	2.6148e-06	1415.9	385.83	3.9344e-06	6.0063e-06	439.27	140.88	123.1	42.403	2.1681e-06	52.621	0.0010618	0.0013154	0.00037144	1447.9	1.4069e-05	1.4549e-05	1436.3	392.74	1.3884e-05	1.4282e-05	445.56	145.51	126.64	43.585	1.3878e-05	54.283	-125.888	-11.339	-39.650	-114.114	50.242	29.669	-114.207	-109.679	-14.822	-2.904	-110.022	-105.719	-105.109	-100.863	21.764	-101.324	-8191	255	
11088.526	1	1	0	0	0.097048	0.27668	0.11961	0.2925	0.14185	0.074928	0.51313	0.38301	0.14687	0.1318	0.23962	0.17034	0.18825	0.26519	0.13262	0.10659	-2.8958	-2.8833	-3.1354	-3.1562	-2.9813	-3.2188	-3.0229	-3.2354	-3.1	-2.9188	-3.3063	-3.2042	-3.0167	-3.3083	-3.0271	-3.1958	60.428	-64.522	-4.695	169.071	13.662	-61.970	172.667	169.523	190.091	-40.209	-115.656	213.477	165.491	-106.700	160.071	221.214	0.00027105	0.00030692	0.00022306	1431.3	3.2135e-06	3.3919e-06	1407.6	385.52	4.9038e-06	9.2776e-06	434.84	140.89	122.28	42.475	1.1291e-06	52.727	0.0010458	0.0012888	0.00036141	1444.6	1.3922e-05	1.4466e-05	1431.7	392.3	1.3952e-05	1.4446e-05	444.6	145.17	126.27	43.607	1.3834e-05	54.291	231.254	-84.819	-25.296	-114.203	48.938	-10.022	-114.034	-109.692	23.986	24.736	-109.925	-105.761	-105.321	-100.727	11.510	-100.998	-8191	255	
11088.622	1	1	0	0	0.21061	0.11188	0.22892	0.18521	0.13997	0.058351	0.37281	0.19333	0.23549	0.29549	0.19212	0.24343	0.17678	0.30946	0.19326	0.031864	-2.825	-3.0229	-3.2021	-3.1688	-2.8396	-3.3792	-3.2646	-3.3729	-3.4813	-3.1854	-3.2792	-3.2687	-2.9667	-3.2625	-3.1292	-3.0062	170.045	15.587	153.928	-115.886	174.845	167.204	208.595	-120.500	176.006	127.623	126.395	103.999	227.063	-124.149	-16.568	150.863	0.00024762	0.00060133	0.00015139	1431.2	2.2574e-06	4.245e-06	1416	385.36	1.5156e-06	5.7657e-06	435.33	140.9	122.76	42.322	4.3374e-06	52.65	0.0010368	0.001295	0.00034976	1442.9	1.3525e-05	1.4188e-05	1432.3	392.08	1.3643e-05	1.4048e-05	443.35	144.97	126.39	43.494	1.3517e-05	54.258	-127.467	-61.212	-3.507	-114.242	175.234	53.292	-114.466	-109.663	21.443	33.338	-109.840	-105.938	-105.268	-100.929	16.596	-101.246	-8191	255	
11088.743	1	1	0	0	0.22191	0.1587	0.068284	0.28831	0.094754	0.1968	0.33649	0.3732	0.12914	0.22979	0.2337	0.28577	0.20558	0.12008	0.27016	0.2717	-2.7208	-2.7667	-3.1042	-3.2542	-3.0396	-3.2562	-3.2083	-3.2687	-3.2375	-3.0271	-3.1708	-3.2438	-2.9396	-3.3	-3.1583	-3.0104	130.712	195.680	-34.065	126.849	221.167	-88.612	112.208	147.898	-37.302	27.396	173.265	190.271	154.339	-125.544	-89.160	151.846	0.00032641	0.00041787	0.00017661	1424.3	4.0835e-06	7.8383e-06	1414.5	384.91	5.9293e-06	6.6202e-06	435.21	139.84	122.81	42.511	2.9981e-06	52.679	0.0010089	0.0012448	0.00034817	1441.2	1.3464e-05	1.3857e-05	1431.8	392.26	1.3384e-05	1.3773e-05	442.91	144.8	126.51	43.51	1.3522e-05	54.213	-123.068	-23.916	-16.628	-114.209	-35.872	3.473	-114.029	-109.759	-3.576	25.269	-110.248	-105.671	-105.329	-100.493	16.096	-100.936	-8191	255	
11088.837	1	1	0	0	0.075406	0.12073	0.12006	0.10918	0.20737	0.13259	0.32672	0.077326	0.098042	0.15832	0.063777	0.040068	0.093441	0.061052	0.18659	0.034384	-2.7833	-2.9333	-2.9896	-3.2146	-2.7917	-3.1729	-3.3646	-3.1917	-3.2917	-3.0938	-3.2042	-3.3125	-3.0187	-3.3333	-3.1521	-3.0875	19.145	-61.705	-99.306	120.006	140.450	218.674	177.599	105.153	-30.074	-108.761	-102.234	-91.062	-121.894	-62.401	228.840	-77.812	0.00030531	0.00090339	0.00012476	1424.2	4.6677e-06	3.6266e-06	1411.4	384.59	1.8366e-06	7.4996e-06	433.6	140.22	122.45	42.163	2.4755e-06	52.978	0.0010032	0.0012409	0.00034461	1440.5	1.329e-05	1.3534e-05	1432.8	391.62	1.3123e-05	1.3403e-05	443.41	144.67	126.3	43.396	1.3133e-05	54.432	229.816	-35.504	-76.399	-114.009	8.325	-0.595	-114.276	-109.564	16.741	34.360	-110.071	-106.006	-105.320	-100.608	21.159	-101.151	-8191	255	
11088.933	1	1	0	0	0.26696	0.18525	0.19796	0.22707	0.036641	0.26746	0.23464	0.15749	0.20774	0.070339	0.18278	0.14793	0.091803	0.21058	0.104	0.091297	-2.775	-2.9583	-3.2542	-3.4104	-3.0104	-3.2271	-3.35	-3.1083	-3.2188	-2.9979	-3.2833	-3.3937	-2.9896	-3.2104	-3.1458	-3.1896	-53.960	152.329	27.437	188.222	21.863	192.387	147.105	119.030	177.362	-49.211	-98.096	-53.622	-83.042	167.612	-58.720	159.479	0.00029974	0.00025908	0.00018789	1429.2	3.3609e-06	5.0996e-06	1409.9	385.43	5.283e-06	5.4388e-06	434.88	140.62	122.53	42.4	3.0517e-06	52.862	0.00098373	0.001206	0.00033224	1441.1	1.2887e-05	1.3248e-05	1430.5	391.65	1.2707e-05	1.2993e-05	442.99	144.85	126.19	43.429	1.2805e-05	54.355	231.020	-68.947	-18.955	-114.029	4.742	59.909	-114.078	-109.717	21.709	17.923	-110.059	-105.764	-105.409	-100.581	11.341	-101.205	-8191	255	
11089.029	1	1	0	0	0.24088	0.068261	0.26228	0.34918	0.20146	0.046993	0.35289	0.2026	0.17043	0.035169	0.28061	0.068234	0.051942	0.34348	0.13429	0.076204	-3.0771	-3.1208	-3.0396	-3.4229	-3.1354	-3.1333	-3.3333	-3.0708	-3.25	-3.1208	-3.1604	-3.2938	-3.1083	-3.0896	-3.1542	-2.8125	-99.758	180.777	179.996	190.509	63.419	23.656	154.597	129.080	184.249	181.722	143.479	214.659	177.434	-85.589	174.739	184.025	0.00025844	0.00036796	0.00015514	1423.8	5.8901e-06	4.5744e-06	1408.5	383.72	2.5336e-06	3.483e-06	434.12	140.54	122.35	42.279	1.6055e-06	52.504	0.00095027	0.0011573	0.00032584	1435.3	1.2466e-05	1.271e-05	1428.7	390.29	1.2406e-05	1.2646e-05	442.09	144.57	126.22	43.34	1.2392e-05	54.094	-124.939	-49.204	-59.407	-114.252	24.309	7.807	-114.199	-109.821	0.928	11.307	-110.167	-105.829	-105.342	-100.659	27.914	-101.359	-8191	255	
11089.125	1	1	0	0	0.13699	0.26825	0.17648	0.24748	0.03344	0.37106	0.19305	0.42323	0.2036	0.16847	0.15795	0.16617	0.14159	0.19903	0.35012	0.12981	-2.7208	-3.0167	-2.9562	-3.5646	-3.1875	-2.9958	-3.4646	-3.1063	-3.4146	-3.2271	-3.1	-3.55	-3.0833	-3.0167	-3.2	-2.9938	-97.674	-70.675	151.400	180.686	109.911	14.057	91.295	214.258	163.107	163.534	175.764	227.975	187.688	-91.035	40.752	117.543	0.00029821	0.00045534	0.00021296	1420.8	2.8842e-06	6.143e-06	1407.7	382.3	5.1543e-06	3.3523e-06	435.23	139.94	122.32	42.029	4.586e-06	52.523	0.0009375	0.0011473	0.00033185	1433.1	1.2437e-05	1.2908e-05	1424.4	389.43	1.226e-05	1.255e-05	441.68	144.54	126.07	43.182	1.2127e-05	54.046	-125.371	-29.389	-29.039	-114.140	22.041	33.805	-114.271	-109.627	10.882	29.039	-109.884	-105.549	-105.460	-100.603	6.926	-101.353	-8191	255	
11089.222	1	1	0	0	0.21086	0.1827	0.17168	0.14754	0.088616	0.24991	0.28928	0.26771	0.18601	0.13315	0.11355	0.014454	0.044019	0.30121	0.19405	0.063073	-2.8292	-3.1792	-2.9292	-3.4354	-2.875	-3.2458	-3.6188	-3.1708	-3.1708	-3.0896	-2.9833	-3.3604	-3.0604	-3.125	-3.3625	-3.0375	-86.222	163.145	-73.586	-85.806	-62.413	168.990	107.793	219.671	156.587	174.446	37.006	111.838	221.698	-100.681	-77.080	100.221	0.0002391	0.00060549	0.00015323	1413.1	4.6433e-06	4.2298e-06	1399.8	383.05	4.1911e-06	1.2019e-06	434.64	139.89	122.66	42.314	3.442e-06	52.703	0.00091601	0.0011256	0.00030835	1427	1.2026e-05	1.223e-05	1420.5	389.39	1.1908e-05	1.2271e-05	440.82	144.25	126.05	43.244	1.1938e-05	54.01	-125.512	-53.497	-8.953	-114.259	28.325	-11.928	-114.044	-109.572	-16.568	129.526	-109.963	-105.822	-105.300	-100.817	23.892	-101.506	-8191	255	
11089.316	1	1	0	0	0.14554	0.26759	0.20528	0.20225	0.1353	0.25723	0.26077	0.11837	0.078559	0.020766	0.13617	0.24395	0.071138	0.15601	0.23271	0.1341	-2.6813	-3.075	-3.0896	-3.225	-3.025	-2.9854	-3.5729	-3.225	-2.9708	-3.3312	-3.0312	-3.2708	-3.0042	-2.9083	-3.3937	-3.2042	219.947	33.943	207.708	-125.886	-66.836	185.509	163.863	96.728	-123.305	223.440	232.395	148.880	125.287	204.149	-125.172	177.318	0.00027224	0.00056707	0.00014471	1405.9	3.3019e-06	3.5344e-06	1400.3	382.68	2.1062e-06	3.6314e-06	432.68	140.24	121.91	42.104	3.223e-06	52.655	0.00089864	0.0010991	0.00030731	1423.5	1.1606e-05	1.2232e-05	1417.1	388.92	1.1828e-05	1.2218e-05	440.41	144.46	125.59	43.19	1.2055e-05	54.028	223.416	-54.680	-2.292	-114.273	34.355	30.501	-114.129	-109.575	20.568	15.141	-110.085	-106.054	-105.539	-100.864	17.607	-101.065	-8191	255	
11089.414	1	1	0	0	0.29522	0.044066	0.25986	0.12617	0.14037	0.032667	0.15108	0.44967	0.15248	0.16169	0.15397	0.25321	0.10187	0.18409	0.28202	0.018875	-2.6125	-3.1104	-2.8563	-3.2271	-3.05	-2.8896	-3.5021	-3.1667	-3	-3.1625	-3.1562	-3.3625	-3.2875	-2.8021	-3.1792	-2.9771	205.927	-5.715	47.344	130.471	219.291	-2.667	117.954	190.546	130.433	-72.305	33.968	166.881	-104.783	232.074	-78.767	-118.872	0.00028259	0.00061784	0.0001612	1409.9	2.4683e-06	2.2599e-06	1395.6	382.82	2.3676e-06	7.6488e-06	431.73	139.93	121.8	42.095	4.853e-06	52.487	0.00090673	0.0011216	0.00031286	1422.7	1.185e-05	1.2212e-05	1415.9	388.86	1.1811e-05	1.221e-05	439.64	144.03	125.55	43.202	1.1898e-05	53.928	227.202	-21.512	-45.701	-114.235	69.139	33.312	-114.020	-109.733	-97.169	51.712	-109.933	-105.870	-105.218	-100.586	17.029	-101.442	-8191	255	
11089.533	1	1	0	0	0.13922	0.28304	0.20699	0.47151	0.096829	0.21654	0.094618	0.30547	0.31553	0.1029	0.16566	0.17881	0.4392	0.070175	0.19871	0.2267	-2.4396	-3.1021	-3.0396	-3.3979	-3.0167	-2.9083	-3.5062	-3.1937	-2.9562	-3.2354	-3.1875	-3.3187	-3.3688	-3.0417	-3.1833	-3.15	-24.801	140.726	146.422	200.294	-101.431	163.832	199.144	143.542	90.471	53.477	-84.142	-83.539	193.954	-118.059	-27.514	139.330	0.0002484	0.00060975	0.00022905	1412.8	1.712e-06	6.0655e-06	1398.2	382.28	9.4398e-07	7.5158e-06	432.02	140.36	121.87	42.027	5.472e-06	52.565	0.00091731	0.0011034	0.0003087	1424.1	1.1929e-05	1.2331e-05	1417.2	388.49	1.1916e-05	1.2332e-05	440.23	144.07	125.43	43.165	1.2131e-05	54.012	-127.222	-14.577	-26.273	-114.198	-37.800	25.277	-114.184	-109.580	11.308	46.199	-109.972	-105.581	-105.218	-100.765	24.192	-101.258	-8191	255	
11089.629	1	1	0	0	0.044742	0.089224	0.093163	0.066429	0.24389	0.059303	0.30193	0.20058	0.14136	0.27084	0.31302	0.052244	0.14649	0.18243	0.080236	0.301	-2.4708	-3.15	-2.9208	-3.2313	-3.2583	-2.7062	-3.3354	-3.2938	-2.9688	-3.3937	-3.0667	-3.1979	-3.4604	-2.9938	-3.1312	-3.2792	56.115	-82.310	-101.992	-76.154	-59.579	67.982	159.480	128.523	-51.030	-100.712	188.447	-120.416	-63.386	-75.287	66.894	163.019	0.00030285	0.00031883	0.00012876	1406.7	4.9195e-06	2.2774e-06	1397.4	380.16	2.5113e-06	5.2783e-06	433.24	140.38	121.83	41.981	4.5841e-06	52.53	0.0009497	0.0011333	0.00031818	1422	1.1974e-05	1.2345e-05	1416.7	387.96	1.2138e-05	1.2303e-05	440.26	144.14	125.49	43.132	1.2058e-05	53.968	227.382	-34.956	-26.717	-114.155	23.343	14.636	-113.980	-109.720	20.236	46.905	-110.029	-105.693	-105.258	-100.873	17.293	-101.429	-8191	255	
11089.725	1	1	0	0	0.42567	0.12657	0.12229	0.10411	0.056785	0.093305	0.35153	0.3603	0.13461	0.038667	0.19225	0.18633	0.31993	0.10236	0.029182	0.19769	-2.4979	-3.2104	-3.0604	-3.1813	-3.3875	-2.8563	-3.3292	-3.3917	-2.9688	-3.3292	-3.2417	-3.1063	-3.4333	-3.0729	-3.2396	-3.3583	-33.956	-54.781	151.077	-80.092	39.309	6.974	204.161	156.144	15.050	63.063	-120.294	-75.985	218.829	-112.862	174.787	-116.585	0.00028045	0.00043692	0.00010108	1401.1	4.7566e-06	3.8944e-06	1395.4	382.05	6.3391e-06	1.9861e-06	432.25	140.12	122.23	41.977	3.1058e-06	52.403	0.00092908	0.0011145	0.00030614	1419.1	1.208e-05	1.22e-05	1414.6	388.05	1.2083e-05	1.2312e-05	439.47	144.18	125.67	43.061	1.1911e-05	53.887	220.473	-29.320	-28.893	-114.330	26.412	-3.025	-114.181	-109.639	-12.118	52.672	-110.168	-105.725	-104.989	-100.742	23.597	-101.102	-8191	255	
11089.821	1	1	0	0	0.23529	0.044467	0.057538	0.26627	0.26974	0.13445	0.30513	0.082748	0.12889	0.15097	0.15853	0.060242	0.16553	0.1991	0.060883	0.17094	-2.5938	-3.2208	-3.1312	-3.2	-3.0938	-2.9354	-3.3479	-3.5062	-2.9292	-3.2896	-3.3479	-3.0479	-3.3563	-3.0396	-3.1021	-3.4104	-10.643	213.576	119.714	214.141	58.971	157.326	166.605	-125.081	176.104	41.373	190.564	-111.047	151.822	-65.755	-21.493	5.957	0.00023962	0.00034281	0.00017176	1406.3	6.9012e-07	4.7094e-06	1397.5	381.32	3.8878e-06	4.1774e-06	432.28	139.9	122.43	41.968	2.2135e-06	52.328	0.00092601	0.00112	0.00030838	1420.7	1.1804e-05	1.2026e-05	1415.8	388.02	1.1964e-05	1.1994e-05	440.07	144.11	125.68	43.104	1.1931e-05	53.885	230.852	-18.621	-38.834	-114.249	8.424	57.296	-114.147	-109.663	7.356	7.692	-110.186	-105.712	-105.119	-100.729	-49.328	-101.265	-8191	255	
11089.917	1	1	0	0	0.082945	0.15529	0.1272	0.16055	0.055704	0.097044	0.3337	0.057682	0.13039	0.25314	0.051141	0.13868	0.089486	0.26225	0.24088	0.24387	-2.4625	-3.1937	-3.1958	-3.225	-3.2313	-3.1021	-3.2542	-3.5375	-3.0354	-3.05	-3.2271	-3.0354	-3.2729	-3.1292	-2.9125	-3.2625	190.293	230.229	-19.755	160.383	-89.484	215.195	119.820	-93.704	-115.071	32.020	135.430	189.185	-110.654	165.656	125.071	204.709	0.00031112	0.00024832	0.00017205	1411.3	3.711e-06	3.6458e-06	1396.2	382.3	4.5291e-06	5.8072e-06	432.33	140.06	121.47	41.899	3.399e-06	52.474	0.00089494	0.00111	0.00030982	1423.9	1.2077e-05	1.2188e-05	1415.5	388.43	1.2007e-05	1.2177e-05	440.28	143.97	125.32	43.063	1.1883e-05	53.877	225.062	-61.931	-11.358	-114.149	48.463	18.677	-114.191	-109.445	-37.626	7.821	-109.857	-105.776	-105.257	-100.628	31.681	-101.085	-8191	255	
11090.014	1	1	0	0	0.35684	0.10844	0.15307	0.38234	0.12211	0.33249	0.33074	0.12265	0.093567	0.27364	0.17678	0.13361	0.069254	0.14976	0.17734	0.25607	-2.5438	-2.8438	-3.075	-3.1708	-3.3292	-2.9917	-3.1771	-3.3167	-3.025	-2.9417	-3.2667	-3.1208	-3.3521	-3.3292	-2.7229	-3.3604	-47.030	190.985	150.767	161.019	-63.883	150.652	168.866	63.813	172.642	-41.841	159.974	183.806	215.290	-123.856	210.751	108.472	0.00027818	0.00057658	0.00017176	1406.3	4.965e-06	4.6014e-06	1396	381.52	7.1408e-06	5.1542e-06	432.04	140.61	121.84	42.115	3.4842e-06	52.616	0.00091818	0.0010792	0.00030722	1419.2	1.1829e-05	1.2115e-05	1415	388.22	1.1918e-05	1.2033e-05	439.24	144.16	125.3	43.088	1.208e-05	53.878	-127.726	-52.524	-26.746	-114.322	51.863	27.668	-114.085	-109.746	25.870	38.406	-110.031	-105.776	-105.243	-100.801	-25.856	-101.164	-8191	255	
11090.134	1	1	0	0	0.042484	0.15732	0.10328	0.12381	0.17383	0.11641	0.32192	0.1701	0.072203	0.38506	0.18274	0.12852	0.13559	0.18764	0.15017	0.082628	-2.5729	-3.1896	-3.3563	-2.9625	-3.0687	-2.9583	-3.1917	-3.4458	-3.0438	-2.8833	-3.3125	-3.1229	-3.2542	-3.3021	-2.9771	-3.2354	132.111	-88.553	64.556	191.223	80.545	-65.871	160.234	216.824	132.919	98.414	-31.000	-104.821	-119.147	220.107	224.142	107.045	0.00028716	0.00032674	0.00021652	1411.8	2.0082e-06	5.8381e-06	1397.5	380.96	5.9909e-06	7.44e-06	433.1	140.07	121.59	42.154	1.5954e-06	52.361	0.00090675	0.0010818	0.00030009	1421.6	1.1715e-05	1.2186e-05	1415	387.76	1.176e-05	1.1988e-05	440.54	144.02	125.28	43.111	1.1962e-05	53.892	223.526	-55.160	10.213	-114.256	47.618	37.636	-114.097	-109.779	-13.836	11.107	-110.195	-105.881	-105.407	-100.725	29.342	-101.251	-8191	255	
11090.229	1	1	0	0	0.11844	0.040866	0.11146	0.19581	0.11927	0.044684	0.25294	0.36009	0.10347	0.193	0.28154	0.12569	0.18605	0.15665	0.073063	0.16319	-2.6896	-2.9646	-3.0792	-3.2104	-3.2083	-3.2938	-3.1063	-3.4396	-3.175	-3.25	-3.2104	-3.0604	-3.3187	-3.3438	-2.975	-3.2708	-86.010	200.783	-92.501	182.761	63.878	94.573	172.303	192.861	162.256	201.069	201.835	-75.569	-88.284	184.520	40.587	-49.011	0.00026796	0.00099261	0.00018218	1414.1	2.8727e-06	4.3506e-06	1395.5	380.76	1.9721e-06	9.2248e-06	432.28	139.15	122.01	42.065	3.5115e-06	52.415	0.0008903	0.0010847	0.00030549	1421.9	1.1798e-05	1.2135e-05	1413.6	387.46	1.1709e-05	1.1933e-05	439.21	143.64	125.62	43.03	1.1955e-05	53.827	226.362	-26.275	-32.139	-114.269	67.602	15.440	-114.049	-109.803	-44.098	12.925	-110.324	-105.791	-105.356	-100.694	36.881	-101.353	-8191	255	
11090.325	1	1	0	0	0.094709	0.14811	0.17802	0.21407	0.18753	0.20269	0.4434	0.047987	0.19339	0.12718	0.080403	0.093099	0.042496	0.20165	0.32219	0.121	-2.55	-2.8521	-3.2021	-3.1354	-3.1125	-3.2271	-3.0958	-3.2896	-3.0729	-2.9521	-3.5583	-3.2562	-3.2333	-3.3187	-3.0042	-3.475	132.175	59.262	102.807	-109.730	-51.995	-36.329	147.218	133.463	20.526	192.012	-90.475	-69.614	-29.654	-105.562	88.015	209.083	0.00028578	0.00070814	8.4685e-05	1403.3	1.2062e-06	4.8583e-06	1393.7	381.35	1.8679e-06	6.7107e-06	431.88	139.48	122.03	41.924	3.0919e-06	52.665	0.00088308	0.0010619	0.00030388	1417.4	1.1595e-05	1.1966e-05	1411.2	387.83	1.158e-05	1.2087e-05	438.68	143.71	125.41	43.092	1.1584e-05	53.864	228.812	-7.116	-33.473	-114.181	149.820	0.286	-114.069	-109.746	16.485	-13.580	-110.036	-105.727	-105.307	-100.856	22.522	-101.219	-8191	255	
11090.398	1	1	0	0	0.095391	0.16775	0.26994	0.23888	0.12143	0.018978	0.24341	0.32003	0.32633	0.17323	0.4026	0.18107	0.41131	0.05671	0.16255	0.056295	-2.7708	-3.0229	-3.1542	-3.1104	-3.0187	-3.4083	-3.0687	-3.3396	-3.1958	-3.0021	-3.2833	-3.0646	-2.9292	-3.5083	-2.8375	-3.2271	33.295	-91.150	-102.632	-112.852	20.246	-83.254	141.859	227.732	2.382	-52.025	203.313	123.326	160.526	108.038	-48.302	187.573	0.00028414	0.00032955	0.00013511	1399.8	5.6889e-06	6.5316e-06	1387.1	380.31	4.2876e-06	5.8318e-06	431.81	139.64	121.45	41.816	3.7586e-06	52.434	0.00087536	0.0010811	0.00029832	1415.4	1.1232e-05	1.1571e-05	1410.9	386.99	1.1334e-05	1.1724e-05	439.05	143.64	125.17	43.001	1.1513e-05	53.85	-126.197	-19.554	-75.452	-114.360	41.136	19.972	-114.063	-109.475	-1.314	60.785	-110.003	-105.814	-105.426	-100.824	-0.169	-101.372	-8191	255	
11090.517	1	1	0	0	0.063412	0.12011	0.045403	0.066419	0.13001	0.18625	0.14606	0.17712	0.19844	0.12408	0.051609	0.15325	0.15904	0.16572	0.44748	0.16664	-2.7583	-2.7792	-3.1896	-3.1958	-2.8688	-3.2792	-3.0875	-3.2667	-3.4188	-3.0042	-3.2875	-3.1479	-2.9208	-3.2271	-3.0229	-3.1792	174.329	76.637	-94.405	-76.100	50.715	-57.846	209.858	131.240	-97.885	45.806	64.790	168.448	224.124	138.737	41.065	-111.061	0.00027704	0.0006813	0.0001686	1402.3	4.0865e-06	5.8732e-06	1391.9	380.3	4.3662e-06	9.287e-06	432.93	139.67	121.95	42.042	3.5635e-06	52.311	0.00085326	0.0010442	0.00029567	1415.5	1.1325e-05	1.1791e-05	1410.7	387.21	1.1526e-05	1.1835e-05	439.1	143.72	125.15	43.06	1.1352e-05	53.74	225.872	-51.054	-19.726	-114.196	25.197	20.978	-114.178	-109.563	-28.390	22.591	-109.998	-105.867	-105.277	-100.747	1.332	-101.237	-8191	255	
11090.613	1	1	0	0	0.14773	0.14907	0.19206	0.2459	0.27796	0.2196	0.12039	0.056424	0.24477	0.24245	0.12212	0.18482	0.24138	0.11605	0.16117	0.26424	-2.9813	-2.8396	-3.1562	-3.2542	-2.85	-3.2542	-3.1813	-3.2687	-3.3167	-3.0604	-3.3104	-3.3292	-3.1208	-3.3688	-3.0042	-3.1167	137.606	85.734	91.350	-68.323	196.965	213.111	103.688	132.265	77.434	210.406	-30.070	210.015	88.606	116.657	213.104	181.194	0.00027495	0.00043004	0.00017301	1402.5	4.223e-06	1.8526e-06	1389.2	381.56	4.3514e-06	6.1587e-06	431.97	139.47	121.84	41.829	2.7111e-06	52.213	0.00087866	0.001061	0.00029756	1415.6	1.156e-05	1.1846e-05	1409.7	387.41	1.1303e-05	1.1633e-05	438.84	143.61	125.38	43.058	1.1412e-05	53.676	231.647	-68.377	-53.629	-114.013	22.477	87.412	-114.194	-109.551	8.490	1.200	-110.146	-105.926	-105.272	-100.619	9.782	-101.171	-8191	255	
11090.709	1	1	0	0	0.24254	0.17335	0.16173	0.092668	0.089692	0.09214	0.22594	0.35045	0.14879	0.15075	0.1372	0.059231	0.093521	0.20373	0.099033	0.28137	-2.9104	-2.9708	-3.0979	-3.2708	-2.9875	-3.35	-3.1688	-3.2104	-3.3396	-3.15	-3.2521	-3.1875	-2.9229	-3.2417	-3.0646	-2.9458	104.641	-44.201	200.141	-126.002	48.134	205.906	182.620	188.221	-99.278	176.898	213.701	197.734	114.177	-102.277	-8.238	73.654	0.00029045	0.00055724	0.00015254	1404.4	4.5359e-06	5.7347e-06	1396.1	380.85	3.6351e-06	6.3964e-06	431.23	139.39	121.37	41.895	5.8168e-06	52.164	0.00086734	0.0010587	0.00029476	1416.2	1.1516e-05	1.207e-05	1410.4	387.25	1.153e-05	1.1992e-05	439.06	143.8	125.09	43.023	1.1426e-05	53.751	229.332	-48.528	14.951	-114.243	57.054	40.106	-114.059	-109.449	-36.694	36.798	-109.840	-105.707	-105.409	-100.360	28.085	-101.521	-8191	255	
11090.805	1	1	0	0	0.15316	0.081421	0.14836	0.32359	0.26566	0.07779	0.24478	0.36456	0.20794	0.19285	0.23969	0.2222	0.19037	0.21828	0.23615	0.24704	-2.9562	-2.9062	-3.225	-3.4208	-2.9583	-3.2604	-3.4146	-3.2521	-3.2188	-2.85	-3.0958	-3.3896	-2.95	-3.3083	-2.9688	-3.0271	77.174	-19.972	50.308	190.083	-89.107	45.414	129.988	-103.073	103.821	50.130	192.663	181.266	154.926	-126.142	166.090	181.703	0.00031963	0.0002546	0.00018093	1402.9	2.583e-06	5.3161e-06	1392.5	380.69	4.3079e-06	6.8563e-06	432.02	139.7	121.74	42.104	1.9757e-06	52.484	0.00086874	0.0010691	0.00029288	1416	1.1542e-05	1.1785e-05	1411.5	387.13	1.1228e-05	1.1645e-05	439.26	143.83	125.34	43.133	1.1129e-05	53.719	-122.946	-27.614	-27.388	-114.247	0.020	42.617	-113.991	-109.706	-26.439	29.322	-109.963	-105.738	-105.198	-100.737	56.298	-100.820	-8191	255	
11090.926	1	1	0	0	0.11092	0.067836	0.19084	0.025088	0.054362	0.18227	0.30245	0.32969	0.16269	0.1788	0.33373	0.028488	0.22862	0.092844	0.094397	0.22813	-2.8292	-2.9354	-2.9521	-3.5812	-2.7812	-3.0687	-3.3833	-3.1229	-3.2146	-3.1479	-3.1396	-3.4562	-3.1229	-3.325	-3.2917	-2.9083	58.636	-83.565	-14.286	-10.375	10.567	114.420	206.858	202.273	-31.123	26.520	188.014	-126.662	44.759	188.153	93.269	145.061	0.00030093	0.00026048	0.00024734	1403.1	2.514e-06	2.1248e-06	1394.3	380.8	1.2025e-06	5.0166e-06	429.9	139.91	122.2	41.936	1.9439e-06	52.446	0.00087259	0.0010569	0.00029685	1416.2	1.1367e-05	1.1808e-05	1411.1	387.24	1.1482e-05	1.1474e-05	438.6	143.76	125.59	43.021	1.1208e-05	53.708	228.863	-9.873	-36.363	-114.242	69.492	79.793	-114.065	-109.583	212.312	17.139	-110.078	-105.833	-105.226	-100.638	15.995	-101.258	-8191	255	
11090.998	1	1	0	0	0.12394	0.24621	0.13164	0.32886	0.14678	0.053399	0.37656	0.28216	0.34598	0.11425	0.15744	0.12889	0.15973	0.22021	0.26526	0.15231	-2.8542	-3.1521	-2.8146	-3.4896	-2.9083	-3.0521	-3.5917	-3.1208	-3.2042	-2.9917	-3.025	-3.3542	-3.0104	-3.1354	-3.2354	-3	122.204	10.865	208.513	211.407	153.453	-32.096	150.540	171.734	-10.235	62.443	-115.440	-102.548	-109.918	140.826	190.374	-16.557	0.00028104	0.00059593	0.00013965	1398.7	2.3512e-06	8.0357e-06	1390.2	380.76	2.4231e-06	2.59e-06	432.18	139.8	122.34	42.15	6.2376e-06	52.468	0.00087095	0.0010208	0.00028647	1414.4	1.1222e-05	1.142e-05	1409.9	387.42	1.1258e-05	1.1268e-05	439.17	144.06	125.47	43.128	1.1196e-05	53.664	227.273	-43.513	-47.979	-114.136	46.407	6.823	-113.991	-109.701	4.840	-103.570	-110.124	-105.916	-105.131	-100.574	-33.882	-101.336	-8191	255	
11091.094	1	1	0	0	0.21682	0.2863	0.078872	0.089519	0.042585	0.2595	0.25066	0.1501	0.14609	0.20312	0.23135	0.20705	0.021919	0.30191	0.14817	0.0047121	-2.9083	-3.0896	-2.8417	-3.4896	-3.0958	-2.9646	-3.425	-3.0625	-3.1979	-3.1229	-3.0062	-3.3937	-3.1271	-3.15	-3.3396	-3.1354	135.815	198.828	-8.244	-88.839	211.309	122.650	171.393	100.402	-73.406	223.853	114.696	-123.638	154.527	-117.550	117.699	-75.369	0.00026148	0.00057014	0.00015092	1408.2	4.4097e-06	1.7128e-06	1395.6	380.63	3.1543e-06	5.2699e-06	431.3	139.23	122.03	42.065	5.2916e-06	52.173	0.00085806	0.0010439	0.0002997	1417.7	1.1248e-05	1.1558e-05	1412.2	387.42	1.1066e-05	1.1626e-05	438.43	143.82	125.45	43.09	1.1631e-05	53.593	-124.051	-12.035	-41.721	-114.242	8.611	-29.646	-114.078	-109.633	12.905	48.318	-109.996	-105.776	-105.225	-100.655	54.382	-101.391	-8191	255	
11091.215	1	1	0	0	0.1538	0.2144	0.10806	0.29551	0.031502	0.12942	0.20978	0.031048	0.16929	0.066999	0.13837	0.18063	0.25585	0.12831	0.081656	0.19796	-2.8167	-3.1	-2.8563	-3.2417	-2.9146	-2.8375	-3.4042	-3.2208	-3.1729	-3.1271	-3.0938	-3.1646	-3.0333	-3.0375	-3.3708	-3.2896	-57.472	-66.617	224.929	204.239	-46.892	59.537	148.502	-11.769	-41.271	-1.954	211.853	196.844	216.154	168.833	225.111	-121.035	0.00024754	0.00036954	0.00019374	1398.8	4.1726e-06	5.0361e-06	1393.7	381.32	4.3539e-06	4.8982e-06	433.5	140.25	122.01	42.001	3.0941e-06	52.018	0.00086124	0.0010497	0.00030032	1414.5	1.1519e-05	1.1524e-05	1410.1	387.44	1.1191e-05	1.1464e-05	439.61	144.01	125.39	43.117	1.1413e-05	53.593	226.320	-50.481	-26.393	-114.148	24.038	38.587	-113.913	-109.446	-22.334	70.258	-110.181	-105.652	-105.283	-100.767	46.663	-101.461	-8191	255	
11091.309	1	1	0	0	0.11299	0.091082	0.049793	0.16166	0.14622	0.009871	0.19223	0.29606	0.27451	0.15807	0.40517	0.15082	0.20798	0.17438	0.23109	0.17361	-2.6167	-3.2167	-2.9708	-3.4104	-3.0542	-3.0271	-3.4396	-3.0521	-3.3042	-3.1667	-2.8854	-3.4813	-3.2188	-2.9604	-3.1063	-3.1417	101.016	225.195	-22.657	225.116	-17.213	220.735	103.632	189.563	17.745	6.317	188.521	155.381	191.823	204.058	203.004	164.282	0.00027337	0.00040517	0.00014548	1395.7	3.5205e-06	7.17e-06	1388	380.46	2.3528e-06	7.8441e-06	433.77	140.41	121.65	42.136	5.7601e-06	52.243	0.00085232	0.0010388	0.00029557	1414.6	1.1168e-05	1.1497e-05	1410.1	387.28	1.1226e-05	1.1587e-05	439.86	144.23	125.51	43.148	1.1521e-05	53.618	226.186	-9.582	-12.464	-113.998	20.754	17.175	-114.012	-109.537	38.083	51.148	-109.993	-105.961	-105.301	-100.765	-8.923	-101.169	-8191	255	
11091.405	1	1	0	0	0.10542	0.29037	0.12021	0.19603	0.14878	0.18623	0.1218	0.35461	0.080914	0.25433	0.20655	0.11849	0.11621	0.073665	0.1436	0.38206	-2.5625	-3.1833	-2.9854	-3.2417	-3.1958	-2.7646	-3.5833	-3.1937	-2.8875	-3.4042	-3.1875	-3.2771	-3.2979	-2.8083	-3.2875	-3.0354	150.185	152.345	84.975	147.131	-56.103	-31.509	164.835	192.903	75.971	-82.480	227.162	210.374	214.562	186.400	-106.135	187.688	0.00028036	0.0006112	0.0001424	1404.2	1.0291e-06	4.3308e-06	1390.7	380.9	4.2701e-06	3.0229e-06	430.43	139.8	122.05	41.816	4.5492e-06	52.548	0.00087641	0.0010407	0.0002996	1416.3	1.126e-05	1.1623e-05	1407.3	387.1	1.1548e-05	1.1697e-05	438.79	143.5	125.3	42.966	1.1828e-05	53.622	227.737	-55.965	-13.345	-114.040	2.520	23.653	-114.290	-109.523	55.497	41.196	-110.188	-105.709	-105.467	-100.655	13.687	-101.286	-8191	255	
11091.526	1	1	0	0	0.23969	0.061328	0.09403	0.10844	0.086755	0.14263	0.18333	0.13151	0.067526	0.24952	0.11452	0.17204	0.21432	0.30851	0.010647	0.20931	-2.6042	-3.2542	-2.9188	-3.2896	-3.0563	-2.8958	-3.6375	-3.2313	-3.0979	-3.2771	-3.0396	-3.1917	-3.1729	-2.9979	-3.2771	-3.1625	-33.892	-57.471	212.515	11.873	127.322	-69.532	156.636	165.717	184.855	204.104	-65.300	-121.019	-109.161	193.391	-41.461	125.065	0.0002848	0.0006077	0.00010583	1400.1	2.4968e-06	6.1738e-06	1387.2	380.03	5.1982e-06	8.3347e-06	430.74	139.36	121.06	41.962	5.8229e-06	51.987	0.00088092	0.0010642	0.00029751	1412.9	1.1387e-05	1.1861e-05	1406	386.74	1.1469e-05	1.1654e-05	438.18	143.37	124.8	43.005	1.1626e-05	53.455	224.868	-55.706	-32.848	-114.257	13.540	12.416	-114.139	-109.515	-24.930	40.519	-109.841	-105.690	-105.178	-100.586	31.809	-101.516	-8191	255	
11091.597	1	1	0	0	0.11031	0.056259	0.13931	0.067783	0.39699	0.03426	0.27503	0.14265	0.17801	0.15934	0.17132	0.23465	0.13171	0.12793	0.23942	0.073982	-2.4479	-3.1937	-2.9333	-3.2	-3.2396	-2.7479	-3.4667	-3.1688	-3.0687	-3.2146	-3.1833	-3.2687	-3.4062	-2.9313	-3.2062	-3.2042	76.185	125.416	-90.850	221.035	-111.352	119.736	169.735	223.468	223.596	221.358	162.457	159.214	81.251	-61.513	-92.311	223.262	0.00025979	0.00050787	0.00012225	1398.1	4.0354e-06	9.3425e-07	1384.1	380.35	2.4354e-06	3.6291e-06	431.53	139.04	120.94	41.941	1.7758e-06	52.041	0.00086993	0.0010631	0.00029738	1412.2	1.1509e-05	1.1965e-05	1403.8	386.47	1.1462e-05	1.1996e-05	438.29	143.34	124.77	42.976	1.1687e-05	53.358	229.956	-27.321	-49.734	-114.210	31.559	-33.011	-114.073	-109.616	-50.019	3.224	-110.008	-105.794	-105.441	-100.588	40.906	-101.230	-8191	255	
11091.694	1	1	0	0	0.10758	0.1285	0.21596	0.35202	0.23283	0.085494	0.19814	0.37112	0.19003	0.17005	0.10592	0.16721	0.1219	0.11507	0.086818	0.15936	-2.4813	-3.1063	-3.0292	-2.9479	-3.2729	-2.9667	-3.3729	-3.35	-2.7896	-3.2646	-3.1521	-3.075	-3.2583	-2.9833	-2.9771	-3.3625	141.040	15.487	-96.790	215.286	-50.823	-64.518	160.132	183.592	123.951	72.114	-108.532	179.371	48.449	189.572	202.033	136.874	0.00027402	0.00055396	0.00015942	1399.3	3.7363e-06	6.8934e-06	1389.1	379.95	3.5316e-06	5.2313e-06	431.13	139.08	121.51	41.896	7.7497e-06	52.088	0.00088569	0.0010755	0.00029894	1409.5	1.1543e-05	1.1946e-05	1404.7	386.25	1.1283e-05	1.1831e-05	438.02	143.34	124.95	43.027	1.1294e-05	53.49	-122.930	-22.029	-23.544	-114.264	58.705	52.588	-114.360	-109.545	-5.687	-1.417	-110.010	-105.968	-105.379	-100.783	23.435	-101.032	-8191	255	
11091.814	1	1	0	0	0.089813	0.14553	0.086886	0.49553	0.061942	0.23113	0.094948	0.17855	0.029997	0.17009	0.233	0.048435	0.22703	0.27599	0.21435	0.24588	-2.6021	-3.1771	-2.9604	-3.1542	-3.2667	-3.1083	-3.2167	-3.4375	-3.0062	-3.2229	-3.2354	-3.0792	-3.4354	-3.2375	-3.0229	-3.3792	111.669	173.601	195.230	196.723	68.816	212.944	-61.015	217.470	4.684	-29.078	84.646	231.450	-41.102	-119.725	208.662	105.818	0.00028648	0.00057968	0.00026194	1395.4	3.3927e-06	5.5006e-06	1382.8	380.54	1.7124e-06	6.0564e-06	431.8	139.73	120.9	41.951	2.849e-06	52.338	0.00086722	0.001037	0.00029087	1408	1.1299e-05	1.1588e-05	1402	386.14	1.128e-05	1.1527e-05	437.51	143.61	124.6	42.978	1.1341e-05	53.57	-125.543	-38.587	3.124	-114.203	10.663	37.301	-114.000	-109.539	7.287	53.733	-110.065	-105.810	-105.631	-100.913	19.965	-101.059	-8191	255	
11091.910	1	1	0	0	0.06519	0.32968	0.21816	0.34892	0.11395	0.15359	0.43032	0.26358	0.15657	0.18348	0.27111	0.20971	0.16512	0.12461	0.12865	0.19156	-2.7687	-3.0958	-3.1125	-3.1729	-3.2271	-3.0042	-3.1896	-3.5292	-2.8583	-3.3479	-3.2979	-3.225	-3.2979	-3.0708	-2.9125	-3.2854	10.014	118.458	0.229	-86.362	-72.217	206.758	160.140	113.374	-56.280	-101.793	155.040	-85.667	166.955	46.251	-59.552	215.190	0.0002698	0.00063619	4.2429e-05	1393.3	3.2133e-06	8.4489e-06	1384.4	380.06	3.4176e-06	5.2389e-06	430.79	139.53	121.92	42.043	3.2213e-06	52.006	0.00085572	0.0010563	0.00028811	1408.3	1.1325e-05	1.139e-05	1403.6	386.21	1.1242e-05	1.1372e-05	437.6	143.41	125.2	43.019	1.1274e-05	53.485	-127.002	-38.037	-48.244	-114.181	40.297	38.002	-113.932	-109.557	-0.564	26.542	-110.176	-105.776	-105.288	-100.463	39.200	-100.888	-8191	255	
11092.006	1	1	0	0	0.24947	0.15059	0.075836	0.19645	0.086997	0.25004	0.14179	0.024252	0.14689	0.27129	0.068056	0.29458	0.033088	0.091636	0.11593	0.32922	-2.5	-3.0021	-3.3646	-3.2521	-3.2875	-2.8667	-3.2708	-3.2125	-2.8521	-3.0292	-3.2333	-2.8	-3.2729	-3.1458	-2.8937	-3.3208	145.280	166.172	119.091	172.212	74.437	-26.483	182.455	28.603	205.325	-29.372	94.606	212.682	60.319	150.978	150.164	134.732	0.00026614	0.00048433	0.00016275	1394.9	3.4102e-06	7.794e-06	1382.7	380.08	6.9741e-06	3.6374e-06	430.22	139.62	121.15	41.874	3.2182e-06	52.031	0.00085733	0.0010407	0.00028888	1407.8	1.1218e-05	1.1503e-05	1403.2	386.36	1.1318e-05	1.1313e-05	437.49	143.52	125.01	42.93	1.1264e-05	53.481	222.404	-42.756	-18.087	-114.051	28.066	36.826	-114.048	-109.542	53.436	5.878	-110.019	-105.641	-105.196	-100.478	25.011	-101.097	-8191	255	
11092.103	1	1	0	0	0.12136	0.041436	0.035316	0.12852	0.036741	0.11713	0.27212	0.37072	0.030141	0.1368	0.26029	0.067128	0.22535	0.10542	0.24111	0.13207	-2.5292	-2.9479	-3.2667	-3.0646	-3.3417	-3.1792	-3.1479	-3.3521	-3.2313	-3.0833	-3.3312	-3	-3.275	-3.2375	-2.9229	-3.3312	-44.357	168.382	-124.363	-15.228	219.289	51.882	205.836	134.154	114.368	125.165	138.129	193.314	188.960	44.221	-21.759	148.560	0.0002854	0.00069864	9.3283e-05	1399.6	3.5014e-06	3.1654e-06	1387.4	381.69	1.4977e-06	7.1957e-06	431.25	139.34	121.73	41.863	4.5088e-06	52.021	0.00087629	0.0010192	0.00029133	1408.9	1.1167e-05	1.1341e-05	1405.3	386.96	1.1159e-05	1.1558e-05	438.71	143.53	125.13	43.007	1.1325e-05	53.445	229.012	-18.675	-36.582	-114.141	34.342	31.631	-114.286	-109.752	-15.850	59.070	-110.046	-105.809	-105.396	-100.836	23.826	-101.113	-8191	255	
11092.221	1	1	0	0	0.16846	0.21449	0.22524	0.16605	0.23541	0.20731	0.23881	0.32854	0.059645	0.17006	0.13975	0.26089	0.15205	0.047516	0.18163	0.11738	-2.7458	-3.0312	-3.1854	-3.0875	-3.2708	-3.1667	-2.9896	-3.3229	-3.0563	-3.0458	-3.2687	-2.9479	-3.1833	-3.2771	-3.0229	-3.2896	-20.445	-115.926	1.753	203.565	-72.407	-10.842	149.527	166.951	26.937	-124.852	191.630	174.801	96.763	70.549	-48.359	161.527	0.00025544	0.00045653	9.029e-05	1392	3.795e-06	5.6623e-06	1384.1	380.86	6.0257e-06	7.7301e-06	431.08	139.49	121.85	42.008	4.5668e-06	51.775	0.00085815	0.0010329	0.00029216	1407.3	1.1171e-05	1.1356e-05	1404.8	386.88	1.1098e-05	1.1501e-05	437.93	143.69	125.23	43.056	1.1407e-05	53.352	227.609	-47.796	-69.855	-114.085	-9.962	10.950	-113.953	-109.412	-14.272	-1.223	-109.934	-105.850	-105.181	-100.867	-13.156	-101.270	-8191	255	
11092.293	1	1	0	0	0.18454	0.03218	0.19152	0.20583	0.13121	0.050217	0.19324	0.13271	0.23211	0.21625	0.096185	0.2176	0.090121	0.095582	0.17027	0.2278	-2.6271	-2.8021	-3.375	-3.1021	-2.9854	-3.3104	-3.1396	-3.3229	-3.2542	-2.9396	-3.4104	-3.2417	-3.2062	-3.25	-2.8875	-3.275	197.522	-38.560	161.684	-33.591	74.843	159.127	114.641	217.599	-70.818	47.122	-90.892	-35.400	-11.100	180.327	60.137	-126.618	0.00021354	0.00046242	8.3313e-05	1395.1	3.0764e-06	1.0003e-06	1387	379.83	3.8151e-06	6.858e-06	430.96	139.26	121.59	42.182	5.0633e-06	52.107	0.00086235	0.0010489	0.00028896	1410.7	1.0912e-05	1.1342e-05	1403.7	386.47	1.105e-05	1.1361e-05	438.84	143.66	125.08	43.123	1.1244e-05	53.388	223.085	-46.290	13.794	-114.264	12.715	78.817	-113.826	-109.553	-17.406	33.520	-110.098	-105.932	-105.389	-100.906	18.500	-101.213	-8191	255	
11092.389	1	1	0	0	0.095172	0.04268	0.15879	0.20479	0.11151	0.10162	0.21319	0.15195	0.085358	0.094795	0.17146	0.18068	0.37757	0.32619	0.041973	0.11196	-2.8042	-2.7375	-3.2	-3.2542	-2.9604	-3.3083	-3.3167	-3.3792	-3.2438	-2.9146	-3.1729	-2.9833	-3.2229	-3.4396	-2.9979	-3.325	69.868	197.237	96.344	195.131	3.956	163.828	83.477	176.877	-25.729	64.168	-111.738	-48.328	229.550	196.874	130.260	93.862	0.00030232	0.00071306	0.00017863	1395.6	5.0419e-06	6.9912e-06	1384.3	379.71	5.1709e-06	8.011e-06	433.03	139.97	121.93	41.902	3.8078e-06	51.946	0.0008442	0.0010269	0.00028901	1408.7	1.0869e-05	1.1539e-05	1403.4	387	1.0996e-05	1.1536e-05	438.6	143.79	125.2	43.037	1.1169e-05	53.287	227.072	-36.155	-52.557	-114.045	10.086	-18.820	-114.117	-109.577	-19.291	38.022	-109.873	-105.670	-105.294	-100.580	27.949	-101.146	-8191	255	
11092.485	1	1	0	0	0.072034	0.083835	0.075497	0.37037	0.26322	0.056891	0.11158	0.32153	0.075005	0.31286	0.11948	0.13847	0.34666	0.18951	0.084328	0.059606	-2.75	-2.8875	-3.0833	-3.2354	-2.9792	-3.2792	-3.1375	-3.2583	-3.2583	-3.1708	-3.4188	-3.2958	-3.1021	-3.4292	-2.8833	-3.1896	-19.609	37.484	50.521	177.017	115.658	86.542	-110.082	185.909	10.126	231.475	34.369	87.238	163.074	206.685	64.403	110.137	0.00026518	0.00061038	0.00015967	1398.2	3.756e-06	7.1808e-06	1392	380.01	6.4232e-06	9.1306e-06	431.54	139.71	121.93	42.085	5.8696e-06	51.878	0.00085462	0.001037	0.0002945	1409.3	1.0964e-05	1.1591e-05	1404.6	386.82	1.0937e-05	1.1486e-05	437.87	143.72	125.22	43.08	1.1094e-05	53.342	228.366	-37.017	-22.539	-114.094	46.409	25.196	-114.079	-109.758	-13.031	34.996	-109.794	-105.667	-105.428	-100.983	28.545	-101.282	-8191	255	
11092.606	1	1	0	0	0.025022	0.18098	0.15542	0.17172	0.10115	0.17805	0.19603	0.25154	0.089384	0.19462	0.15186	0.2623	0.17379	0.22598	0.13461	0.029918	-2.8625	-3.0438	-3.2125	-3.1333	-2.8563	-3.3833	-3.2438	-3.1667	-3.4125	-2.9313	-3.2438	-3.3292	-3.0729	-3.3042	-3.0375	-3.1521	72.701	227.462	-37.986	169.117	-104.223	-43.777	160.167	177.656	147.716	1.671	177.492	124.969	133.782	132.424	-77.396	-27.563	0.00027783	0.00050977	0.00011393	1393.3	4.4319e-06	2.7448e-06	1383.7	380.85	3.1017e-06	5.869e-06	431.97	139.86	121.84	42.206	6.1828e-06	51.967	0.00084171	0.0010264	0.00028662	1406.2	1.1085e-05	1.1298e-05	1403	386.41	1.1066e-05	1.1328e-05	438.52	143.68	124.98	43.067	1.1163e-05	53.31	-125.753	-60.700	-67.353	-114.136	58.006	11.115	-114.170	-109.512	12.414	39.153	-110.167	-105.634	-105.334	-100.639	19.073	-101.380	-8191	255	
11092.702	1	1	0	0	0.12533	0.40018	0.081384	0.35629	0.10429	0.26371	0.19058	0.27359	0.33394	0.20774	0.36	0.24097	0.086727	0.35346	0.22586	0.3669	-2.9375	-2.9667	-3.1479	-3.2875	-2.8479	-3.2313	-3.2604	-3.0833	-3.1896	-3.1271	-3.2125	-3.3083	-3.1146	-3.1646	-3.1229	-3.1521	38.565	-81.487	-100.961	204.895	-63.995	-67.740	167.343	144.583	216.118	-33.243	94.522	-123.337	-83.067	169.361	28.000	205.457	0.00026253	0.00028111	0.00010348	1392.5	2.8225e-06	3.0893e-06	1383.3	380.39	5.4616e-06	8.6842e-06	431.27	139.29	121.7	41.949	3.9643e-06	51.929	0.00084663	0.0010311	0.00028671	1406.6	1.0961e-05	1.1427e-05	1402.8	386.65	1.099e-05	1.1236e-05	437.34	143.34	125.36	43.007	1.1282e-05	53.384	228.854	-74.462	9.720	-114.114	0.951	-43.645	-114.124	-109.399	-25.089	15.878	-110.194	-105.731	-105.470	-100.718	20.775	-101.293	-8191	255	
11092.798	1	1	0	0	0.058756	0.21974	0.11199	0.11562	0.31839	0.17469	0.33582	0.36692	0.081195	0.23115	0.079979	0.16925	0.13859	0.46878	0.10236	0.021174	-2.9479	-2.95	-2.975	-3.3458	-2.9521	-3.025	-3.2479	-3.2104	-3.2104	-3.0667	-3.1271	-3.3917	-3.2188	-3.2542	-3.0521	-2.9562	-121.175	31.540	-101.257	-63.707	-76.341	215.499	181.236	163.157	-110.099	162.980	-109.522	163.676	188.286	162.395	16.156	0.908	0.00026614	0.00055192	0.00010917	1396.7	5.1498e-06	5.1457e-06	1385.3	380.66	4.2338e-06	8.5926e-06	433.68	139.57	121.48	42.018	4.6232e-06	52.007	0.00085591	0.0010395	0.00029427	1408.8	1.1105e-05	1.1392e-05	1403.5	386.74	1.1187e-05	1.1603e-05	438.41	143.51	125.07	43.033	1.1254e-05	53.335	226.072	-16.421	-50.554	-114.257	42.061	0.045	-114.281	-109.690	5.185	37.231	-109.900	-105.728	-105.446	-100.776	34.703	-101.271	-8191	255	
11092.895	1	1	0	0	0.10604	0.15681	0.14382	0.19574	0.11032	0.031284	0.29717	0.22146	0.099725	0.068068	0.3217	0.28726	0.25739	0.13972	0.24855	0.077579	-2.9188	-2.9313	-2.9521	-3.3312	-2.8771	-3.2417	-3.3375	-3.125	-3.3458	-3.0771	-3.0375	-3.2646	-3.1667	-3.1	-3.2417	-2.9625	-27.737	169.763	115.024	-61.602	49.156	-7.857	156.102	109.922	59.666	54.391	168.761	-117.931	196.185	-89.058	26.072	158.037	0.00026805	0.00044473	0.00013545	1401.8	6.0553e-06	3.4496e-06	1388	381.15	2.1642e-06	7.5631e-06	432.33	139.59	121.65	42.033	3.8436e-06	51.868	0.00084654	0.0010225	0.0002829	1412	1.1009e-05	1.1382e-05	1405	387.59	1.1031e-05	1.1301e-05	438.18	143.65	125.15	43.049	1.1094e-05	53.36	-117.936	-30.627	-28.046	-114.081	-7.305	19.602	-114.032	-109.688	-22.078	69.884	-110.099	-105.850	-105.370	-100.580	25.100	-100.915	-8191	255	
11092.991	1	1	0	0	0.11601	0.27294	0.1799	0.25473	0.063521	0.20245	0.064144	0.29497	0.12415	0.26415	0.034439	0.20859	0.2447	0.083595	0.090135	0.26673	-2.7479	-3.0833	-2.6562	-3.3875	-2.9792	-3.2333	-3.3063	-3.0333	-3.0042	-3.1354	-3.0208	-3.3833	-3.0563	-3.1146	-3.35	-3.1125	29.500	169.457	-46.674	170.777	-13.607	57.471	122.098	199.068	77.938	147.090	17.171	223.545	-115.430	218.958	153.807	163.205	0.00029528	0.00060126	0.00013854	1400.7	3.4015e-06	3.7531e-06	1389.3	381.13	4.0108e-06	4.8388e-06	432.55	139.42	121.29	41.884	7.4266e-06	51.861	0.00086383	0.001035	0.00029073	1411.4	1.1431e-05	1.1554e-05	1404.5	387.37	1.1405e-05	1.1644e-05	439.26	143.59	124.88	42.928	1.1608e-05	53.366	227.741	-61.519	-50.509	-114.388	11.614	133.947	-114.068	-109.532	16.628	45.907	-109.956	-105.962	-105.454	-100.681	12.403	-101.357	-8191	255	
11093.087	1	1	0	0	0.30439	0.23455	0.033737	0.4143	0.068252	0.020625	0.37557	0.15054	0.087896	0.19229	0.28595	0.033128	0.21083	0.29983	0.30241	0.021216	-2.7812	-3.0917	-2.9917	-3.4083	-3.2417	-2.9729	-3.4729	-3.1333	-3.0479	-3.2396	-2.9042	-3.125	-3.0792	-3.0583	-3.2646	-2.9729	62.644	183.517	-68.673	-126.606	6.027	-57.215	151.903	-117.710	85.311	209.329	116.056	154.102	59.291	180.127	-77.983	-69.311	0.00022741	0.00039012	0.0001741	1391.6	4.2093e-06	4.0359e-06	1386.2	380.71	2.308e-06	6.6593e-06	430.45	139.02	121.52	41.975	3.7909e-06	51.712	0.0008771	0.0010547	0.00030168	1406.2	1.1779e-05	1.1717e-05	1404.1	386.41	1.1488e-05	1.1688e-05	438.03	143.51	124.98	43.021	1.1588e-05	53.27	226.621	-29.017	-34.920	-114.289	-0.743	7.932	-113.970	-109.582	-49.213	16.914	-110.114	-105.853	-105.288	-100.594	37.653	-101.296	-8191	255	
11093.207	1	1	0	0	0.14749	0.095862	0.15939	0.3084	0.10382	0.23634	0.4016	0.06073	0.28326	0.15522	0.17638	0.29335	0.32574	0.086359	0.36623	0.20645	-2.7146	-3.1229	-2.9125	-3.4271	-3.0375	-3.05	-3.4521	-3.1229	-3.2313	-3.3187	-2.8833	-3.3396	-2.9521	-3.1875	-3.2458	-3.0021	134.808	-1.948	53.169	203.200	79.272	186.408	176.980	203.591	183.085	-25.817	-58.927	192.189	205.129	189.171	131.685	221.798	0.00030154	0.00029919	0.00012726	1394.5	4.7411e-06	5.5631e-06	1381.9	381.03	4.9463e-06	6.6019e-06	431.15	139.67	121.9	41.759	3.7889e-06	52.09	0.00088663	0.0010601	0.00030042	1409.9	1.1557e-05	1.2099e-05	1403.8	386.64	1.1829e-05	1.2187e-05	438.23	143.55	124.99	42.939	1.2117e-05	53.348	226.293	-56.544	-70.124	-113.998	-1.266	27.971	-114.256	-109.659	-22.586	26.093	-110.209	-105.843	-105.144	-100.563	78.990	-101.174	-8191	255	
11093.302	1	1	0	0	0.029621	0.03312	0.16816	0.21795	0.25328	0.30629	0.10267	0.25132	0.10821	0.18723	0.3197	0.29207	0.14617	0.10198	0.079145	0.23053	-2.6521	-3.2771	-2.8625	-3.3625	-2.9042	-2.975	-3.5625	-3.3271	-3.1854	-3.1646	-2.9875	-3.1521	-3.1229	-2.8229	-3.2708	-3.2771	-24.676	81.804	25.291	153.350	231.805	154.909	-43.955	180.615	-87.175	-11.905	93.968	198.711	147.256	-84.346	23.370	177.513	0.00028515	0.00066013	0.00012785	1405.1	2.7866e-06	5.184e-06	1387.1	380.64	1.4511e-06	6.4154e-06	431.88	139.31	121.4	41.924	2.5342e-06	51.973	0.00090687	0.0011128	0.00031822	1415	1.2123e-05	1.2585e-05	1406.7	386.83	1.1908e-05	1.2492e-05	438.62	143.4	124.96	42.973	1.2181e-05	53.32	232.100	-41.048	-31.227	-114.307	89.428	-4.638	-114.221	-109.512	-67.908	52.597	-110.238	-105.869	-105.291	-100.616	-0.812	-101.111	-8191	255	
11093.398	1	1	0	0	0.012787	0.13509	0.10963	0.19635	0.01375	0.2766	0.11928	0.13927	0.18635	0.13623	0.14	0.16617	0.1102	0.089036	0.088017	0.30109	-2.4583	-3.2229	-2.9854	-3.2167	-3.1417	-3.0021	-3.3625	-3.1312	-3.1146	-3.2271	-3.0125	-3.1208	-3.3396	-3.1375	-3.225	-3.0729	139.200	-46.222	184.264	198.320	-61.640	43.739	126.061	154.405	-91.678	-24.342	-118.729	185.478	139.768	31.496	33.931	134.085	0.00023221	0.0003724	0.000123	1397.6	6.012e-06	5.9577e-06	1383.5	381.18	2.7114e-06	1.001e-05	431.52	139.43	121.25	41.962	5.189e-06	52.025	0.00089959	0.0011002	0.0003167	1411.4	1.1827e-05	1.2311e-05	1403.7	386.59	1.1789e-05	1.2322e-05	438.47	143.31	124.82	42.99	1.2382e-05	53.367	229.827	-45.844	-78.997	-114.115	36.161	5.533	-114.093	-109.594	-35.511	44.671	-109.899	-105.967	-105.519	-100.899	0.194	-101.081	-8191	255	
11093.494	1	1	0	0	0.089492	0.092816	0.030324	0.10121	0.28963	0.11283	0.22463	0.17566	0.014982	0.24542	0.049105	0.21458	0.041896	0.041528	0.24906	0.21382	-2.7125	-3.1625	-2.95	-3.1063	-3.0146	-2.8979	-3.1979	-3.25	-3.0104	-3.2375	-3.0396	-3.2333	-3.2271	-2.9083	-3.025	-3.1521	198.310	59.132	-89.742	109.045	61.264	19.901	153.014	199.049	70.022	63.418	-35.487	199.523	-112.570	-115.983	63.328	196.571	0.00029101	0.00072543	0.00013161	1402.1	4.3405e-06	3.7213e-06	1389.4	381.18	6.7781e-06	7.3925e-06	431.42	138.93	120.76	41.776	6.4639e-06	51.931	0.00091887	0.0011323	0.00031548	1411.7	1.1849e-05	1.2461e-05	1405.6	387.01	1.1999e-05	1.2582e-05	438.56	143.28	124.63	42.929	1.2143e-05	53.352	224.524	-64.129	-19.148	-114.137	-14.719	7.266	-114.263	-109.668	-9.775	15.756	-109.976	-105.564	-105.205	-100.767	-20.996	-101.214	-8191	255	
11093.590	1	1	0	0	0.22435	0.15872	0.11712	0.27894	0.11823	0.13618	0.24528	0.28428	0.088848	0.19809	0.026342	0.064326	0.11214	0.36999	0.12415	0.14776	-2.5042	-3.1958	-2.825	-3.2417	-3.1208	-2.7625	-3.2917	-3.1833	-2.8604	-3.2146	-3.0833	-3.0104	-3.3292	-3.1042	-3.0917	-3.3375	-56.578	208.138	62.185	-126.791	-122.939	-59.268	190.913	211.094	-51.614	181.606	-115.217	-4.856	182.567	-95.093	217.867	179.849	0.00029044	0.00047387	8.7661e-05	1397.3	1.1986e-06	8.052e-06	1388.7	381.14	4.8186e-06	9.7794e-06	431.85	138.93	121.28	41.9	2.3473e-06	51.926	0.00092719	0.0011282	0.00031622	1411.8	1.1977e-05	1.2519e-05	1404.4	386.95	1.2334e-05	1.2434e-05	438.55	143.16	124.81	42.925	1.2419e-05	53.383	227.101	-20.731	-2.970	-114.079	13.109	37.812	-114.284	-109.617	-32.192	-3.591	-109.957	-105.809	-105.206	-100.646	33.673	-101.467	-8191	255	
11093.686	1	1	0	0	0.32698	0.34687	0.12712	0.1784	0.16475	0.28137	0.14158	0.36654	0.15614	0.1869	0.15433	0.18328	0.078052	0.16485	0.17846	0.2542	-2.3792	-3.1979	-3.0312	-3.0667	-2.9604	-2.8937	-3.3396	-3.275	-3.1458	-3.0521	-3.1917	-3.0708	-3.5104	-3.0438	-3.0521	-3.4146	186.153	37.521	-37.395	213.225	131.792	6.535	217.446	192.343	212.244	-115.078	165.864	196.931	-46.188	125.929	-84.252	174.066	0.0002817	0.00029312	0.00017033	1395	3.6245e-06	6.5435e-06	1386.7	380.06	3.8332e-06	5.6874e-06	429.86	139.37	121.4	41.564	2.2137e-06	51.96	0.00093849	0.0011256	0.00031885	1411.2	1.21e-05	1.2716e-05	1407.1	386.89	1.2322e-05	1.2692e-05	437.99	143.28	124.95	42.842	1.2364e-05	53.388	228.073	-70.653	-49.145	-114.237	39.567	-1.985	-114.058	-109.815	6.449	49.242	-110.061	-105.822	-105.495	-100.578	21.146	-101.246	-8191	255	
11093.783	1	1	0	0	0.15316	0.11766	0.17434	0.089624	0.10775	0.24617	0.070344	0.30195	0.11124	0.17622	0.20257	0.16083	0.071376	0.22826	0.1983	0.23626	-2.6333	-3.1021	-2.9479	-2.975	-3.0708	-2.7125	-3.1708	-3.4917	-3.05	-3.1792	-3.2708	-3.0938	-3.2271	-3.0354	-3.1542	-3.4542	-76.771	56.935	-106.627	231.727	191.542	158.202	129.665	185.325	-37.942	-59.192	-121.728	187.840	180.811	202.571	-5.895	165.071	0.00024313	0.00046311	0.00016076	1397.5	3.8856e-06	9.2714e-06	1387.1	380.98	5.6946e-06	8.0993e-06	429.49	139.22	121.38	41.839	2.1838e-06	52.016	0.00094455	0.001125	0.00031716	1412.7	1.2526e-05	1.2717e-05	1406.4	387.18	1.2498e-05	1.2515e-05	438.18	143.44	124.99	42.927	1.2268e-05	53.347	229.054	-54.578	-39.995	-114.287	16.466	36.520	-114.025	-109.779	-5.266	26.280	-109.991	-105.666	-105.389	-100.587	7.573	-101.303	-8191	255	
11093.903	1	1	0	0	0.19602	0.18765	0.12824	0.1701	0.061791	0.066817	0.26034	0.34338	0.074319	0.1379	0.013522	0.19597	0.20931	0.24392	0.1251	0.48387	-2.6333	-3.2229	-3.2625	-3.1833	-3.2583	-3.0375	-3.3021	-3.3688	-2.95	-3.2167	-3.2917	-3.0875	-3.5042	-3.2979	-3.05	-3.5104	-127.564	-111.609	-104.792	79.153	10.599	43.081	178.102	196.808	178.753	67.420	204.500	200.962	46.106	-90.570	-57.550	180.000	0.0002313	0.00055942	0.00011727	1401	2.633e-06	4.9513e-06	1386.7	379.98	1.5975e-06	5.9751e-06	432.22	138.87	121.37	41.709	4.3802e-06	51.847	0.00094083	0.0011504	0.00032077	1413.9	1.2341e-05	1.2661e-05	1407.5	386.95	1.2571e-05	1.2737e-05	438.87	143.24	124.76	42.939	1.2323e-05	53.347	223.706	-17.478	-8.087	-114.237	21.583	-15.405	-114.108	-109.763	61.078	20.639	-110.105	-105.914	-105.304	-100.938	37.973	-100.950	-8191	255	
11093.999	1	1	0	0	0.13024	0.17823	0.046702	0.08057	0.048835	0.14233	0.26281	0.17878	0.14517	0.058512	0.15133	0.15078	0.4349	0.1301	0.26984	0.082598	-2.725	-3.0333	-3.2667	-3.1208	-3.4646	-3.1229	-3.3333	-3.5479	-2.9646	-3.1667	-3.4396	-2.9667	-3.2687	-3.2208	-2.7854	-3.3833	145.232	-98.257	-76.610	205.049	213.621	110.983	209.503	225.668	195.335	122.128	113.392	150.549	214.922	-80.166	98.257	95.601	0.00025261	0.00058551	0.00025235	1398.7	1.0872e-06	5.1524e-06	1390.7	380.49	4.9341e-06	6.4865e-06	431.64	138.68	120.32	42.062	3.8667e-06	51.964	0.0009315	0.0011227	0.00031891	1413.9	1.2411e-05	1.2626e-05	1408.4	387.07	1.2295e-05	1.2846e-05	438.48	143.19	124.7	43.037	1.2609e-05	53.311	223.564	-24.477	-12.993	-114.205	54.746	27.626	-114.084	-109.565	8.465	30.525	-110.153	-106.131	-105.342	-100.708	17.621	-101.126	-8191	255	
11094.094	1	1	0	0	0.34487	0.23989	0.16604	0.20424	0.16959	0.19466	0.24557	0.21485	0.18473	0.14026	0.28436	0.21248	0.075824	0.11299	0.22764	0.11683	-2.4542	-2.9729	-3.2167	-3.2188	-3.1521	-3.2354	-3.1167	-3.1625	-3.2521	-3.1479	-3.3583	-3.1	-3.3708	-3.2625	-3.075	-3.3	-68.125	-111.297	87.069	194.312	213.725	81.880	169.776	134.181	21.070	86.357	-103.031	165.079	209.917	186.631	220.690	-126.677	0.00027895	0.00067857	0.00019324	1405.5	4.4366e-06	4.5124e-06	1388.1	381.73	2.722e-06	7.5564e-06	432.1	138.61	121.79	41.78	1.3101e-06	51.93	0.00096223	0.0011406	0.00032322	1416.3	1.2501e-05	1.2744e-05	1408.1	387.56	1.2583e-05	1.2846e-05	439.27	143.17	125.14	42.906	1.2563e-05	53.371	230.042	-38.506	-25.256	-114.317	4.580	8.571	-114.407	-109.630	-38.690	5.852	-109.923	-105.801	-105.446	-100.759	3.572	-101.190	-8191	255	
11094.167	1	1	0	0	0.048684	0.3542	0.073173	0.4171	0.1167	0.063353	0.25774	0.10373	0.058647	0.10076	0.14331	0.21987	0.23114	0.1702	0.059915	0.12097	-2.4583	-2.9146	-3.2417	-3.1583	-3.0938	-3.2438	-3.1958	-3.3958	-3.2333	-2.8563	-3.225	-3.1583	-3.2188	-3.3104	-2.9208	-3.2917	-81.230	167.079	223.031	209.124	-115.068	8.736	121.728	-121.779	135.295	29.351	167.469	155.064	-77.536	193.454	96.904	176.624	0.00029848	0.00037605	0.00031211	1401.5	6.5753e-06	6.373e-06	1391	381.14	3.2174e-06	2.2871e-06	431.48	139.48	120.22	41.926	3.2332e-06	51.968	0.00094691	0.0011394	0.00032087	1413	1.2386e-05	1.2769e-05	1407.5	387.35	1.2411e-05	1.2791e-05	438.78	143.48	124.55	43.014	1.245e-05	53.326	229.938	-15.138	-15.938	-113.975	64.028	31.479	-114.103	-109.910	24.764	57.406	-109.955	-106.019	-105.466	-100.581	35.245	-101.352	-8191	255	
11094.286	1	1	0	0	0.059292	0.073059	0.085597	0.28121	0.056952	0.108	0.64558	0.22404	0.043876	0.15158	0.20487	0.16213	0.16179	0.27067	0.17961	0.24495	-2.75	-2.7542	-3.4562	-3.2438	-3.0854	-3.1333	-3.0771	-3.3042	-3.1542	-3.0479	-3.3125	-3.1229	-3.05	-3.3125	-3.0521	-3.3458	152.839	-14.678	171.500	-118.990	-49.338	139.071	175.453	210.209	115.148	-79.407	155.177	164.887	145.425	-75.914	-97.692	192.313	0.00026482	0.00083801	0.00028466	1402.8	2.0195e-06	4.8615e-06	1388.8	380.92	3.9497e-06	7.334e-06	429.7	138.24	121.02	41.699	4.8539e-06	51.996	0.00094418	0.0011526	0.00032489	1414.4	1.2472e-05	1.2667e-05	1406.9	387.48	1.2384e-05	1.2535e-05	438.75	143.17	124.86	42.892	1.2617e-05	53.436	228.080	-14.704	-20.119	-114.124	16.952	-17.657	-114.289	-109.810	-4.625	20.485	-110.209	-105.806	-105.287	-100.814	0.474	-101.169	-8191	255	
11094.382	1	1	0	0	0.18196	0.217	0.12521	0.34163	0.14066	0.10949	0.20462	0.29235	0.21563	0.054603	0.19963	0.2318	0.15964	0.15957	0.19544	0.14715	-2.5958	-2.9667	-3.3563	-3.1396	-3.1188	-3.35	-3.0833	-3.275	-3.1188	-2.9979	-3.2208	-3.1562	-3.1792	-3.4458	-2.9771	-3.2771	194.286	-24.129	-111.602	165.913	-67.552	65.234	118.287	163.980	139.700	-124.556	113.796	-108.616	71.904	148.742	216.946	116.769	0.00031259	0.00056302	0.00014943	1401.5	5.0455e-06	5.2562e-06	1389.5	381.1	2.647e-06	5.6686e-06	433	138.92	120.93	42.014	2.0303e-06	51.967	0.00096125	0.0011458	0.00032355	1415.1	1.2372e-05	1.2735e-05	1409.1	387.54	1.2492e-05	1.2976e-05	439.58	143.17	124.92	42.987	1.2856e-05	53.384	228.659	-49.266	-52.964	-114.314	17.325	2.290	-114.121	-109.714	-21.058	34.975	-110.023	-105.857	-105.339	-100.567	-23.175	-101.325	-8191	255	
11094.478	1	1	0	0	0.50364	0.089742	0.1164	0.15307	0.10964	0.18929	0.35535	0.21484	0.11495	0.13923	0.08524	0.3441	0.17689	0.039889	0.11041	0.21137	-2.8521	-2.9729	-3.1937	-3.3688	-3.0875	-3.1708	-3.2687	-2.9271	-3.1208	-2.8	-3.4688	-3.1229	-3.025	-3.4292	-3.0042	-3.1063	44.974	-14.803	93.168	186.857	-102.011	68.628	143.441	227.200	1.311	-64.760	2.591	185.977	120.261	40.580	209.782	158.175	0.00030647	0.00025738	0.00016468	1403.9	5.8487e-06	1.1495e-06	1386.4	380.59	3.5837e-06	6.4558e-06	430.14	139.43	121.09	41.912	4.823e-06	51.877	0.0009395	0.0011641	0.00032379	1416	1.233e-05	1.2631e-05	1406.6	387.19	1.2092e-05	1.2773e-05	438.81	143.24	124.84	42.954	1.2474e-05	53.383	226.787	-23.117	-43.372	-114.396	48.594	19.599	-114.182	-109.645	-5.600	37.636	-109.835	-105.927	-105.425	-100.711	-9.701	-101.202	-8191	255	
11094.575	1	1	0	0	0.067317	0.18146	0.03841	0.1767	0.17675	0.080028	0.19438	0.21606	0.097607	0.16655	0.14557	0.23743	0.19317	0.10347	0.058038	0.28911	-2.7521	-2.7625	-3.1521	-3.3354	-2.8875	-3.1896	-3.2812	-3.1958	-3.25	-3.0729	-3.3646	-3.1604	-3.0417	-3.3563	-3.1188	-3.0833	195.701	29.905	-5.770	201.966	161.615	18.045	159.652	195.201	160.012	-78.753	83.278	183.283	199.295	-22.304	99.269	100.739	0.00028136	0.00044494	0.00025098	1400	3.447e-06	5.385e-06	1388.2	379.91	4.0855e-06	6.8259e-06	432.39	139.7	121.06	41.895	3.2738e-06	51.956	0.00092563	0.0011494	0.00032214	1414.8	1.2221e-05	1.2687e-05	1405.3	386.73	1.2243e-05	1.2574e-05	438.08	143.34	124.85	42.947	1.2572e-05	53.321	231.346	-61.249	-39.148	-114.145	31.419	5.562	-114.357	-109.565	17.016	20.655	-109.942	-105.848	-105.151	-100.472	-6.173	-101.451	-8191	255	
11094.695	1	1	0	0	0.12566	0.036667	0.17805	0.31325	0.055193	0.13629	0.28379	0.12907	0.13839	0.16066	0.088647	0.1834	0.12947	0.12041	0.065514	0.072778	-2.9167	-3.0917	-3.0417	-3.2146	-3.0354	-3.2708	-3.3021	-3.1188	-3.3312	-3.0479	-3.2917	-3.4042	-3	-3.3271	-3.0812	-3.1083	-113.427	-57.727	203.396	158.935	-72.266	148.696	220.326	121.517	-43.830	-124.459	-48.867	206.719	-69.067	165.532	147.377	-91.483	0.00026349	0.00063583	0.00015128	1400.1	5.9297e-06	5.8031e-06	1386.5	381.94	4.8654e-06	5.8207e-06	431.66	139.14	120.9	41.94	4.8555e-06	52.019	0.00093733	0.0011678	0.00032781	1416	1.2469e-05	1.2986e-05	1407.9	387.52	1.2636e-05	1.3099e-05	439.35	143.55	124.78	42.999	1.2562e-05	53.371	229.657	-8.642	-20.686	-114.017	33.727	32.675	-114.137	-109.625	27.431	-5.006	-109.897	-105.775	-105.218	-100.616	8.510	-101.158	-8191	255	
11094.767	1	1	0	0	0.018524	0.13556	0.14056	0.27455	0.089623	0.1062	0.23494	0.2093	0.11772	0.0025615	0.11621	0.074135	0.18494	0.075089	0.29988	0.16501	-2.8292	-2.9437	-3.1875	-3.5563	-2.8854	-3.1479	-3.375	-3.0812	-3.2042	-3.1063	-3.2354	-3.4396	-3.0687	-3.3292	-3.2667	-3.0229	-126.138	-64.487	72.291	167.564	-26.340	189.785	147.852	114.615	113.182	6.355	-84.539	-43.639	212.815	106.582	106.791	167.482	0.0003221	0.00022476	0.00010852	1407.1	4.164e-06	6.1756e-06	1389.9	379.81	7.1865e-06	4.4642e-06	431.38	139.34	121.03	41.781	5.2219e-06	51.807	0.0009588	0.0011719	0.0003275	1417.7	1.2798e-05	1.3292e-05	1410	387.38	1.2604e-05	1.3157e-05	438.73	143.33	124.82	42.927	1.2487e-05	53.337	230.333	-44.242	-33.362	-114.279	40.110	18.324	-114.133	-109.710	-0.723	22.064	-110.017	-105.915	-105.254	-100.734	12.364	-101.317	-8191	255	
11094.887	1	1	0	0	0.075914	0.09886	0.15544	0.22122	0.087241	0.10277	0.14702	0.36407	0.19073	0.024471	0.36606	0.22475	0.23086	0.21232	0.23156	0.17564	-2.8458	-3.2396	-3.0479	-3.3458	-3.1708	-3.2375	-3.4208	-3.1396	-3.2771	-3.1854	-3.0479	-3.475	-3.1833	-3.4688	-3.1917	-3.0771	-19.661	79.797	99.768	183.440	202.093	-21.151	158.685	92.814	-111.517	74.617	199.016	164.114	161.088	170.880	190.652	155.858	0.00027019	0.00038057	8.1079e-05	1403.3	3.9606e-06	4.2302e-06	1389.7	379.23	4.5239e-06	4.2945e-06	430.29	138.86	120.59	41.734	3.9396e-06	51.797	0.00095547	0.0011802	0.0003301	1416.2	1.2709e-05	1.3147e-05	1406.5	386.61	1.2994e-05	1.3204e-05	438.22	142.96	124.56	42.867	1.2856e-05	53.294	230.468	-37.827	-13.970	-114.223	-1.613	58.497	-114.255	-109.703	1.686	32.970	-109.983	-105.725	-105.333	-100.912	-14.970	-101.170	-8191	255	
11094.984	1	1	0	0	0.11415	0.19253	0.038706	0.26817	0.13334	0.18373	0.15142	0.174	0.24323	0.15941	0.26903	0.21823	0.098947	0.073344	0.33331	0.20365	-2.9646	-3.2313	-2.9583	-3.4771	-3.2083	-3.1688	-3.525	-3.2583	-3.3021	-3.1333	-3.0312	-3.3875	-3.1063	-3.2313	-3.3375	-2.9333	159.881	15.608	76.674	-91.486	68.435	85.310	119.393	135.290	168.335	131.417	-80.849	180.052	196.776	0.824	50.580	-98.136	0.00029792	0.00037601	0.00011892	1402.8	5.86e-06	1.4216e-06	1393.1	380.46	5.1065e-06	6.4817e-06	429.95	138.63	121.35	41.707	2.8481e-06	51.989	0.0010009	0.0012413	0.0003446	1418.4	1.3521e-05	1.3906e-05	1410.7	387.64	1.3605e-05	1.3711e-05	438.73	143.02	124.89	42.874	1.3357e-05	53.378	228.529	-30.897	-16.242	-113.926	12.141	44.700	-114.198	-109.501	-12.700	47.766	-109.815	-105.802	-105.380	-100.781	57.351	-101.079	-8191	255	
11095.080	1	1	0	0	0.038354	0.11905	0.30567	0.30064	0.21307	0.16425	0.33153	0.13881	0.1851	0.33576	0.14156	0.17912	0.065279	0.33019	0.25049	0.28769	-2.8542	-3.0917	-2.9188	-3.4313	-3.0667	-3.2125	-3.5625	-3.0396	-3.2333	-3.1917	-3.0396	-3.3146	-3.1188	-3.0771	-3.1958	-3.0292	103.430	118.622	5.749	-55.084	-95.535	-124.648	144.680	169.983	162.490	101.482	39.610	-3.689	15.837	204.242	-115.526	150.958	0.00026569	0.00035194	0.00019191	1407	2.7027e-06	2.6756e-06	1392.1	380.94	2.6278e-06	7.0759e-06	430.79	139.24	121.02	41.761	1.8062e-06	51.826	0.001014	0.0012329	0.00034796	1419.4	1.3236e-05	1.4065e-05	1411.9	387.91	1.3555e-05	1.3676e-05	439.04	143.24	124.8	42.906	1.3434e-05	53.298	225.359	-3.262	-41.981	-114.050	15.733	32.377	-114.118	-109.754	33.709	21.192	-110.084	-105.994	-105.192	-100.788	37.301	-101.115	-8191	255	
11095.176	1	1	0	0	0.24266	0.32216	0.086666	0.14007	0.087921	0.13962	0.13694	0.18102	0.10479	0.13676	0.10503	0.083533	0.20659	0.12981	0.067651	0.10596	-2.7396	-3.2333	-2.8854	-3.3563	-3.1104	-3.0542	-3.5687	-2.9437	-3.2562	-3.3688	-2.9771	-3.3021	-3.2625	-3.0104	-3.2458	-3.1188	141.704	-118.240	-118.479	184.756	140.436	2.467	164.829	116.861	-122.909	150.401	114.492	181.281	187.943	143.019	-4.445	128.648	0.00026826	0.00030808	0.00014339	1410.7	8.3047e-06	6.5352e-06	1391.6	381.71	3.8636e-06	7.8874e-06	430.43	138.99	121.2	41.888	5.4185e-06	51.742	0.0010238	0.0012546	0.00035783	1424.7	1.3519e-05	1.3841e-05	1411.8	388.12	1.3394e-05	1.3536e-05	438.39	143.21	124.81	42.956	1.3186e-05	53.276	228.631	-62.394	-32.861	-114.377	19.939	46.384	-114.250	-109.705	4.582	23.165	-110.281	-105.923	-105.352	-100.748	22.827	-101.556	-8191	255	
11095.295	1	1	0	0	0.17371	0.23061	0.10912	0.28063	0.14697	0.13544	0.18728	0.3534	0.2981	0.098246	0.10803	0.13944	0.052827	0.35855	0.17641	0.08855	-2.5854	-3.2354	-2.9271	-3.2875	-3.0542	-2.9146	-3.5104	-3.0146	-2.9479	-3.2687	-3.0625	-3.2979	-3.2125	-3.0854	-3.2396	-3.0771	-116.588	133.854	-101.438	211.515	229.419	104.978	131.002	190.145	163.377	112.064	165.264	147.511	-36.070	-101.119	197.231	186.821	0.00030941	0.00083337	0.00018573	1403.9	4.7058e-06	7.763e-06	1389.5	379.2	5.8215e-06	6.7382e-06	431.82	138.95	120.99	41.377	4.9375e-06	51.758	0.00097928	0.001177	0.00033607	1420.1	1.3008e-05	1.302e-05	1409.1	386.21	1.264e-05	1.3088e-05	438.41	143.06	124.44	42.723	1.2939e-05	53.311	230.150	-28.339	-60.776	-114.328	41.071	5.640	-114.260	-109.624	-30.236	47.903	-110.067	-105.953	-105.562	-100.539	26.574	-101.120	-8191	255	
11095.391	1	1	0	0	0.13067	0.3023	0.17404	0.23361	0.18419	0.18751	0.16159	0.34605	0.17288	0.17229	0.074964	0.14255	0.23797	0.070711	0.20652	0.201	-2.5438	-3.2583	-3.0167	-3.3563	-3.2792	-2.8125	-3.5187	-3.2167	-3.0208	-3.3812	-3.0563	-3.1771	-3.2104	-2.9646	-3.1854	-3.35	-27.619	182.070	208.219	231.302	-87.556	-50.848	-104.761	178.846	182.811	57.172	191.392	210.486	56.665	121.229	79.673	135.168	0.00024645	0.0006152	0.00015175	1400.1	4.3588e-06	3.2875e-06	1394.7	379.81	3.6987e-06	3.3525e-06	431.49	139.09	120.69	41.676	2.5615e-06	51.716	0.00097571	0.0011749	0.00033867	1416.4	1.2699e-05	1.3158e-05	1412.1	386.46	1.2873e-05	1.3394e-05	438.53	143.03	124.4	42.836	1.3203e-05	53.264	231.069	-44.734	-19.850	-114.110	13.135	56.890	-114.229	-109.751	-20.131	50.700	-109.869	-105.783	-105.085	-100.678	-44.292	-101.329	-8191	255	
11095.463	1	1	0	0	0.19163	0.054005	0.3634	0.19737	0.27909	0.23342	0.21462	0.27303	0.053771	0.21635	0.20528	0.35097	0.27168	0.29366	0.17751	0.16716	-2.5646	-3.1375	-2.9396	-3.2979	-3.2208	-3.05	-3.4667	-3.2521	-2.8917	-3.3208	-3.0917	-3.3396	-3.4792	-3.0792	-3.3083	-3.4188	148.869	161.861	123.853	-121.864	84.844	119.610	199.235	168.888	-91.970	-56.962	202.847	64.282	175.030	218.813	150.616	-112.423	0.00027404	0.0006939	0.00010756	1401.7	3.0122e-06	7.6445e-06	1392.7	379.95	4.8055e-06	6.7091e-06	430.93	138.61	120.57	41.704	3.3451e-06	51.825	0.00099306	0.0012391	0.00034866	1419.3	1.3053e-05	1.377e-05	1411.3	387.32	1.3204e-05	1.3782e-05	439.52	143.05	124.62	42.881	1.3635e-05	53.307	230.964	-33.439	-37.138	-114.072	-5.745	23.656	-114.059	-109.638	5.678	-4.640	-110.269	-105.744	-105.331	-100.905	34.598	-101.252	-8191	255	
11095.583	1	1	0	0	0.080129	0.33853	0.16238	0.18682	0.084734	0.1503	0.093302	0.08269	0.21325	0.22227	0.31558	0.16324	0.14044	0.30645	0.15824	0.12991	-2.5333	-3.1667	-2.9583	-3.0979	-3.3042	-3.0979	-3.4375	-3.4208	-2.8833	-3.3354	-3.1167	-3.0521	-3.3	-2.9458	-3.0396	-3.3125	134.448	-126.068	39.742	161.287	149.181	70.023	-93.391	213.966	23.325	63.330	136.158	-112.454	231.416	230.623	173.255	166.830	0.00028848	0.00060556	0.00022673	1409.6	5.2273e-06	3.6195e-06	1390.3	381.51	4.7787e-06	1.4994e-06	431.71	138.95	120.45	41.685	5.9715e-06	51.739	0.0010057	0.0012369	0.00035206	1423.5	1.3359e-05	1.4048e-05	1412.1	387.44	1.3677e-05	1.3994e-05	439.04	142.86	124.48	42.816	1.3682e-05	53.392	230.242	-39.343	-45.159	-114.425	12.935	2.284	-114.200	-109.632	-2.055	52.375	-109.912	-105.755	-105.291	-100.793	42.385	-101.262	-8191	255	
11095.679	1	1	0	0	0.1127	0.11908	0.13411	0.11371	0.057494	0.14582	0.24525	0.17861	0.16664	0.26723	0.0678	0.15066	0.25422	0.11847	0.14509	0.13396	-2.65	-3.2313	-3.0438	-3.1917	-3.3146	-3.0396	-3.3333	-3.2771	-2.9813	-3.2	-3.1417	-3.0625	-3.2917	-3.0896	-3.1875	-3.4104	45.274	33.622	183.543	-82.231	118.785	125.608	161.199	118.994	6.285	157.411	-102.078	-55.649	230.424	-93.026	-35.080	58.320	0.00023764	0.00024846	0.00019963	1406.1	2.4826e-06	5.9836e-06	1396.2	381.01	4.8536e-06	1.4129e-06	429.77	139.12	120.58	41.722	4.156e-06	51.85	0.0010275	0.001275	0.0003569	1422.3	1.3587e-05	1.4127e-05	1413.9	387.76	1.3582e-05	1.4197e-05	438.26	142.97	124.42	42.804	1.3583e-05	53.494	231.228	-80.293	-37.984	-114.138	40.074	39.536	-114.191	-109.537	-27.056	-70.982	-109.947	-105.862	-105.517	-100.545	34.213	-101.285	-8191	255	
11095.776	1	1	0	0	0.1762	0.15141	0.0361	0.19798	0.18738	0.10928	0.027578	0.32935	0.11343	0.11565	0.1271	0.28038	0.052512	0.24865	0.14797	0.28481	-2.5979	-3.0417	-3.1021	-3.1729	-3.2375	-2.9917	-3.2583	-3.5	-2.9958	-3.2375	-3.3042	-2.8458	-3.2333	-3.0271	-3.0604	-3.3375	162.181	128.248	-123.457	215.944	28.273	-107.949	143.383	157.661	-26.072	71.163	217.325	163.584	92.155	133.995	-104.957	-96.523	0.00029828	0.00064199	0.00012762	1405.7	4.9606e-06	2.4911e-06	1397.7	380.65	1.4965e-06	7.0759e-06	430.94	138.32	120.57	41.57	6.058e-06	51.833	0.0010309	0.0012687	0.00035678	1424.3	1.3686e-05	1.4263e-05	1413.8	387.69	1.3764e-05	1.4193e-05	438.62	143.07	124.52	42.813	1.35e-05	53.38	-123.739	-27.891	-4.557	-114.472	44.998	31.159	-114.025	-109.704	22.777	1.292	-110.001	-105.539	-105.381	-101.058	29.396	-101.172	-8191	255	
11095.872	1	1	0	0	0.049717	0.14307	0.41606	0.38987	0.15829	0.25183	0.36495	0.16672	0.072318	0.088153	0.14704	0.054593	0.1541	0.092254	0.1751	0.12892	-2.6188	-3.1458	-3.1958	-3.1188	-3.2125	-3.2125	-3.2938	-3.2833	-2.9396	-3.2562	-3.1833	-3.0854	-3.3708	-3.1854	-2.9896	-3.3292	90.146	90.622	-116.844	197.550	30.773	67.481	150.625	-114.688	53.130	170.888	198.090	107.307	141.148	-63.998	70.314	223.704	0.00029626	0.00048899	0.00024298	1412.7	3.9327e-06	2.3585e-06	1395.1	381.64	5.6244e-06	1.0203e-05	429.65	139.01	120.09	41.662	5.729e-06	52.107	0.001031	0.0012702	0.0003564	1426.8	1.3655e-05	1.4256e-05	1415	387.33	1.3656e-05	1.3966e-05	438.54	143.07	124.5	42.761	1.3879e-05	53.394	225.260	-29.615	-46.587	-114.384	27.602	67.108	-114.341	-109.606	-30.279	70.824	-110.309	-105.817	-105.447	-101.099	12.630	-101.252	-8191	255	
11095.992	1	1	0	0	0.10115	0.054787	0.20939	0.10858	0.19077	0.054367	0.32626	0.093282	0.19941	0.046068	0.33582	0.17892	0.18996	0.18473	0.16282	0.14719	-2.6854	-3.0479	-3.3688	-3.2104	-3.2458	-3.0292	-3.0375	-3.4771	-2.9396	-2.9875	-3.4625	-3.1708	-3.3354	-3.0958	-2.9688	-3.3625	-109.404	-43.248	49.438	-103.226	159.524	202.883	166.272	209.256	49.902	-77.449	193.912	173.976	6.081	207.813	28.646	94.997	0.00023728	0.00036734	0.00013955	1406.6	1.3979e-06	4.0722e-06	1391.5	379.95	4.0269e-06	4.4651e-06	431.02	138.86	120.44	41.567	9.0034e-07	51.864	0.0010268	0.0012842	0.00035448	1422.5	1.3713e-05	1.3918e-05	1412.8	387.11	1.326e-05	1.3549e-05	438.56	143.32	124.53	42.813	1.3516e-05	53.441	222.890	-16.116	-51.226	-114.346	72.895	9.142	-113.994	-109.614	18.982	-9.079	-110.029	-105.657	-105.432	-100.735	-84.417	-101.222	-8191	255	
11096.064	1	1	0	0	0.089385	0.24984	0.16088	0.30141	0.091066	0.20131	0.05986	0.24065	0.076979	0.43923	0.23746	0.12635	0.15346	0.22197	0.014231	0.28735	-2.6562	-3.025	-3.2042	-3.0542	-3.25	-3.2854	-3.325	-3.4333	-3.2729	-3.1104	-3.3208	-3.0792	-3.3125	-3.4083	-3.0229	-3.2333	3.690	144.552	127.468	188.305	-66.929	33.451	203.157	201.592	-18.784	126.246	-96.378	134.471	-14.253	205.834	-94.595	214.631	0.00026584	0.00034493	0.00019382	1408.2	1.813e-06	3.5778e-06	1392.1	380.94	2.1705e-06	1.2467e-05	431.12	139.09	120.78	41.664	3.6333e-06	51.984	0.0010165	0.0012348	0.00034382	1423.7	1.322e-05	1.363e-05	1413.1	387.26	1.3128e-05	1.3621e-05	439.08	143.15	124.58	42.763	1.3311e-05	53.373	230.319	-46.350	-30.255	-114.017	-12.620	6.018	-114.261	-109.602	-49.959	35.812	-110.218	-105.931	-105.555	-100.837	41.017	-101.208	-8191	255	
11096.160	1	1	0	0	0.17993	0.28792	0.17408	0.32893	0.13522	0.25611	0.23669	0.16146	0.11975	0.10668	0.25851	0.30938	0.31408	0.32841	0.20125	0.20576	-2.625	-3.0479	-3.15	-3.0792	-3.1083	-3.2521	-3.2604	-3.4729	-3.0958	-3.0021	-3.5292	-3.2583	-3.1896	-3.3667	-2.9646	-3.4271	-17.948	228.646	182.240	-108.471	-22.844	80.401	212.295	190.961	65.679	-40.856	185.909	137.724	-57.750	168.035	104.991	125.944	0.00025365	0.00045704	0.00011917	1409	4.3895e-06	3.1513e-06	1388.7	379.8	4.0505e-06	5.8325e-06	430.04	138.74	120.57	41.453	5.6764e-06	51.674	0.0010005	0.0012142	0.0003365	1421.8	1.3173e-05	1.344e-05	1411.4	386.59	1.3333e-05	1.3684e-05	438.94	142.95	124.37	42.719	1.3511e-05	53.346	224.412	-6.448	-28.295	-114.195	15.501	-14.961	-114.164	-109.671	-7.007	22.501	-110.145	-105.725	-105.469	-100.748	47.864	-101.279	-8191	255	
11096.256	1	1	0	0	0.20593	0.12896	0.21701	0.28336	0.027469	0.20921	0.26839	0.091282	0.35299	0.11768	0.15921	0.16806	0.20274	0.29879	0.14362	0.16196	-2.8271	-2.8521	-3.3438	-3.1583	-2.9479	-3.2313	-3.2521	-3.1521	-2.9167	-2.8646	-3.5646	-3.1521	-3.1146	-3.3667	-3.0833	-3.2083	216.887	117.454	133.519	-107.362	82.637	-78.252	193.908	139.885	209.958	130.244	216.065	188.324	-111.695	189.894	231.208	124.597	0.00030641	0.00044594	0.00012209	1405.5	5.7563e-06	3.1024e-06	1395.8	381.67	3.753e-06	4.7197e-06	431.72	138.61	120.73	41.827	4.6575e-06	51.675	0.0010089	0.001234	0.00034833	1420.5	1.3362e-05	1.3568e-05	1411.6	387.44	1.3345e-05	1.3575e-05	438.74	142.95	124.49	42.842	1.3599e-05	53.331	230.751	-13.257	-32.338	-114.403	30.750	8.830	-114.220	-109.852	-2.300	16.862	-110.139	-105.903	-105.121	-100.789	5.066	-101.416	-8191	255	
11096.375	1	1	0	0	0.10408	0.23492	0.028207	0.18397	0.088259	0.24076	0.13101	0.07238	0.24042	0.078216	0.26637	0.21394	0.29101	0.10209	0.12705	0.28216	-2.7625	-2.9792	-3.1437	-3.2354	-3.0625	-3.3375	-3.0896	-3.3688	-3.2833	-2.9375	-3.4479	-3.1229	-3.0771	-3.4229	-3.0667	-3.2479	170.932	-50.809	-94.197	207.886	-85.546	132.194	95.946	164.517	-125.368	120.385	229.116	211.877	199.143	138.266	2.331	181.081	0.00030676	0.00058017	8.2298e-05	1404.8	4.4184e-06	7.8579e-06	1399.1	380.71	4.7693e-06	5.6071e-06	431.94	138.78	120.59	41.472	1.9537e-06	51.875	0.0010075	0.0012438	0.00035884	1421.6	1.3533e-05	1.3976e-05	1414.3	387.93	1.3265e-05	1.4097e-05	439	143.16	124.49	42.722	1.3608e-05	53.313	229.269	-54.390	-5.550	-114.277	-16.749	44.177	-114.156	-109.607	-29.165	-1.392	-109.926	-105.748	-105.413	-100.788	-68.448	-101.193	-8191	255	
11096.471	1	1	0	0	0.13387	0.17007	0.09652	0.31121	0.12794	0.10767	0.28062	0.18637	0.2785	0.046984	0.21168	0.17738	0.15833	0.081523	0.15564	0.046038	-2.9646	-2.7729	-3.1312	-3.2125	-3.0563	-3.1458	-3.4437	-3.4333	-3.3479	-2.9833	-3.375	-3.2729	-3.0625	-3.2562	-2.9521	-3.0396	57.452	-126.396	-60.323	170.101	108.375	-62.130	165.894	164.594	-43.740	-13.171	171.402	216.586	-51.392	226.076	94.321	109.990	0.00029823	0.00035321	0.00017398	1410.8	1.9905e-06	4.5565e-06	1396.8	381.15	4.5631e-06	9.0129e-06	432.34	138.39	120.61	41.637	3.541e-06	51.863	0.0010025	0.0012579	0.00035245	1423.8	1.3485e-05	1.4e-05	1415.1	387.69	1.3463e-05	1.3812e-05	439.44	142.84	124.28	42.718	1.375e-05	53.296	-122.328	-57.049	-31.314	-114.137	96.545	48.295	-114.069	-109.580	44.360	14.585	-110.075	-105.577	-105.397	-100.889	26.867	-101.302	-8191	255	
11096.567	1	1	0	0	0.19958	0.18915	0.088396	0.24877	0.079903	0.19563	0.42569	0.25291	0.2363	0.25981	0.146	0.28274	0.14844	0.33021	0.16302	0.05396	-2.8688	-2.9229	-3.0979	-3.2458	-2.9125	-3.2021	-3.2667	-3.1417	-3.425	-2.9896	-3.2667	-3.1646	-3.2625	-3.3063	-3.0583	-3.0625	102.816	-22.484	79.208	141.963	76.488	36.653	196.521	190.920	-14.726	169.415	207.065	124.554	81.804	229.710	73.497	183.286	0.00027235	0.00028372	0.00010063	1411.3	5.1412e-06	3.1231e-06	1391.7	379.9	1.3513e-06	8.3049e-06	431.38	138.5	120.45	41.495	2.995e-06	51.495	0.0010254	0.0012684	0.00035585	1423.8	1.3604e-05	1.4096e-05	1413.2	386.96	1.3196e-05	1.3821e-05	438.94	143.06	124.49	42.673	1.3638e-05	53.311	231.391	-88.620	-22.452	-114.287	50.323	2.881	-114.163	-109.651	-53.079	-18.233	-110.168	-105.846	-105.375	-100.817	-10.217	-101.437	-8191	255	
11096.688	1	1	0	0	0.0086026	0.079276	0.071563	0.10037	0.088709	0.17438	0.21245	0.2576	0.17912	0.16561	0.1223	0.22487	0.20564	0.27571	0.10983	0.1037	-2.8896	-3.0062	-3.1312	-3.3583	-3.15	-3.1688	-3.25	-3.0687	-3.3312	-2.8333	-3.1937	-3.5354	-3.1063	-3.3875	-3.1229	-2.9688	-42.428	-109.849	86.884	-100.736	-3.331	-32.481	120.507	159.276	37.724	215.654	-87.044	174.240	230.938	225.607	-12.373	130.530	0.00031441	0.00037025	0.0001419	1410.1	3.3127e-06	6.5108e-06	1395.2	381.82	4.3243e-06	6.136e-06	431.33	138.75	120.48	41.543	6.0345e-06	51.869	0.0010221	0.0012439	0.00035273	1422.4	1.3091e-05	1.379e-05	1413.6	387.86	1.3311e-05	1.3629e-05	438.72	143.08	124.35	42.726	1.3544e-05	53.325	-124.088	-58.344	-48.423	-114.330	-19.196	8.937	-114.314	-109.667	-1.850	-15.788	-110.023	-105.769	-105.404	-100.855	31.585	-101.314	-8191	255	
11096.760	1	1	0	0	0.21422	0.25266	0.29132	0.27928	0.11859	0.28972	0.2692	0.39389	0.13074	0.18068	0.033565	0.17831	0.29759	0.18604	0.3081	0.15459	-2.7875	-2.9375	-3.0312	-3.3417	-2.925	-3.4333	-3.3937	-3.0854	-3.2771	-3.0667	-3.0146	-3.55	-2.9562	-3.1771	-3.1521	-2.9896	-71.292	-77.950	-119.032	-92.804	30.676	29.285	200.001	171.518	-28.899	37.501	18.731	136.122	173.776	165.317	-22.045	28.419	0.00023094	0.00042564	9.986e-05	1415.8	3.2148e-06	8.9943e-06	1393.7	380.93	3.013e-06	9.4576e-06	430.45	138.6	120.61	41.607	3.1884e-06	51.897	0.0010224	0.0012451	0.00035215	1425.4	1.3453e-05	1.4066e-05	1413.1	387.15	1.327e-05	1.393e-05	438.3	142.79	124.49	42.726	1.3508e-05	53.338	224.423	-29.593	-42.751	-114.339	-3.847	23.837	-114.199	-109.700	19.703	5.431	-109.959	-105.915	-105.273	-100.760	4.193	-101.331	-8191	255	
11096.856	1	1	0	0	0.31987	0.22712	0.12742	0.064796	0.1376	0.023245	0.27021	0.32198	0.22393	0.07451	0.16503	0.10396	0.29494	0.13658	0.18974	0.25043	-2.8125	-2.9729	-2.8854	-3.5438	-3.1021	-3.1542	-3.6083	-3.0146	-3.2292	-3.1667	-3.1875	-3.5104	-3.0479	-3.3875	-3.2042	-3.075	78.576	204.342	76.726	218.156	90.506	160.068	118.670	160.440	-125.517	63.499	212.126	193.408	220.037	-89.171	115.540	150.357	0.00027812	0.00075515	0.00014002	1409.4	1.1337e-06	4.5289e-06	1393	381.63	5.6463e-06	3.7162e-06	431.35	138.86	121.03	41.618	4.1525e-07	51.848	0.0010137	0.0012566	0.000351	1422.7	1.3251e-05	1.3828e-05	1412.9	387.22	1.3527e-05	1.3718e-05	437.91	142.69	124.36	42.765	1.3645e-05	53.34	232.079	-49.699	-55.924	-114.236	19.395	20.584	-114.136	-109.464	-18.200	6.154	-110.159	-106.065	-105.552	-100.876	119.183	-101.179	-8191	255	
11096.977	1	1	0	0	0.15424	0.18696	0.2099	0.33546	0.1977	0.16856	0.16646	0.18957	0.2673	0.19537	0.22469	0.10437	0.13185	0.3274	0.19645	0.25095	-2.8958	-3.2687	-3.0438	-3.4708	-3.0792	-3.1292	-3.3708	-3.0292	-3.325	-3.0229	-2.95	-3.2625	-3.2104	-2.9958	-3.3125	-2.8563	-90.794	1.762	213.519	122.368	-67.950	-25.850	152.262	174.209	173.150	-103.734	-121.174	226.890	-123.081	223.085	182.492	170.903	0.00028808	0.00055849	0.00020276	1410.5	4.5845e-06	4.8723e-06	1389.5	379.74	5.2959e-06	5.3577e-06	431.15	138.55	120.13	41.546	3.2595e-06	51.874	0.001027	0.0012486	0.00035354	1423.2	1.3596e-05	1.3971e-05	1411.2	386.93	1.3652e-05	1.3944e-05	439.09	142.73	124.1	42.688	1.3486e-05	53.343	223.606	-44.985	-25.841	-114.333	40.496	20.329	-114.208	-109.524	-26.410	89.344	-110.057	-105.717	-105.288	-100.819	56.419	-101.077	-8191	255	
11097.073	1	1	0	0	0.1098	0.10183	0.39665	0.20511	0.11302	0.1083	0.37388	0.16651	0.15602	0.24161	0.28528	0.17646	0.12236	0.30374	0.23404	0.19974	-2.9313	-3.0729	-2.8042	-3.3229	-3.1479	-3.2	-3.4479	-3.1063	-3.2708	-3.225	-2.9792	-3.3354	-3.1958	-2.9875	-3.1354	-3.0979	-52.421	98.253	-85.843	210.575	56.084	86.634	155.418	-90.011	-80.175	-85.333	225.776	150.983	167.849	138.513	54.518	79.891	0.00026681	0.00039999	4.7315e-05	1409.4	1.4116e-06	5.2101e-06	1392.9	381.23	5.4111e-06	3.9223e-06	429.76	138.67	120.13	41.688	4.6526e-06	51.676	0.0010185	0.0012605	0.0003468	1422.7	1.3295e-05	1.4021e-05	1411.8	387.3	1.3379e-05	1.3863e-05	438.16	142.89	124.06	42.739	1.3638e-05	53.334	222.817	-44.653	-101.547	-114.161	25.857	5.791	-114.097	-109.805	-1.615	-4.736	-110.022	-105.926	-105.426	-100.836	29.439	-101.137	-8191	255	
11097.167	1	1	0	0	0.17121	0.12933	0.26457	0.20422	0.20233	0.091201	0.33701	0.12901	0.10741	0.076062	0.28544	0.19249	0.24361	0.16875	0.078147	0.14232	-2.8583	-3.2562	-2.9292	-3.4062	-2.9125	-3	-3.2167	-3.1271	-3.0938	-3.2917	-2.9521	-3.1521	-3.3771	-3.0687	-3.3625	-3.2562	69.314	201.638	146.377	207.928	-6.238	230.810	133.928	192.941	208.677	133.667	230.334	133.008	222.385	141.000	-14.861	124.859	0.00025892	0.00052968	8.9014e-05	1406.1	3.2008e-06	4.9989e-06	1397.9	380.34	6.4241e-06	1.3626e-06	431.21	138.98	120.67	41.669	5.4857e-06	51.674	0.0010177	0.0012444	0.00035096	1422.3	1.3509e-05	1.3861e-05	1413	387.04	1.3207e-05	1.3843e-05	438.27	142.93	124.39	42.744	1.3693e-05	53.237	231.262	5.512	-19.070	-114.407	114.057	55.221	-114.291	-109.592	-13.602	21.687	-110.111	-105.817	-105.233	-100.740	38.094	-101.390	-8191	255	
11097.288	1	1	0	0	0.14468	0.15578	0.22219	0.40455	0.19312	0.16237	0.16585	0.2014	0.26577	0.27693	0.24881	0.077871	0.11741	0.059557	0.38616	0.12693	-2.6875	-3.2292	-3.0458	-3.3896	-3.2313	-2.9979	-3.6042	-3.2687	-3.05	-3.3271	-3.1708	-3.3833	-3.0792	-2.9625	-3.3521	-3.3688	-71.473	91.269	143.087	190.540	177.955	181.208	163.676	-90.027	132.166	-30.216	200.892	-96.361	145.036	220.667	-46.655	171.268	0.00027083	0.00063247	0.00015706	1409.8	5.9253e-06	4.2597e-06	1393.6	379.9	3.6146e-06	9.7165e-06	430.8	138.23	119.86	41.31	4.1592e-06	51.974	0.001019	0.0012227	0.00034926	1423.3	1.3191e-05	1.3775e-05	1412.7	387.22	1.3195e-05	1.3777e-05	437.93	142.74	124.08	42.586	1.3375e-05	53.259	-126.712	-53.340	-61.636	-114.161	-23.989	45.540	-113.993	-109.609	-10.375	7.889	-110.213	-105.759	-105.697	-100.975	46.462	-101.141	-8191	255	
11097.359	1	1	0	0	0.18589	0.24577	0.14565	0.13571	0.12547	0.1793	0.39366	0.11179	0.1067	0.1986	0.065404	0.10029	0.31367	0.32754	0.25061	0.37562	-2.475	-3.4	-2.75	-3.425	-3.3854	-2.9958	-3.575	-3.2854	-3.0833	-3.2458	-3.2417	-3.4292	-3.3563	-3.0812	-3.3229	-3.1854	-75.186	-120.248	14.308	177.026	-40.511	-119.972	144.509	-68.451	-99.552	160.855	155.358	34.345	228.158	216.903	161.343	-83.128	0.00028636	0.00059777	0.00014329	1411.8	7.0848e-06	6.3834e-06	1391.1	378.49	4.6784e-06	5.2594e-06	431.08	138.25	120.63	41.483	3.8259e-06	51.728	0.00099659	0.0012348	0.00034559	1420.9	1.33e-05	1.3752e-05	1411.4	386.7	1.3341e-05	1.3808e-05	438.43	142.66	124.14	42.669	1.3545e-05	53.244	225.836	-49.307	-52.004	-114.296	47.804	2.463	-114.196	-109.696	58.285	26.713	-110.081	-105.933	-105.469	-100.793	33.989	-101.327	-8191	255	
11097.456	1	1	0	0	0.06219	0.24559	0.066808	0.24055	0.27166	0.16007	0.21285	0.13042	0.089306	0.11494	0.069505	0.33314	0.059623	0.1398	0.15162	0.28593	-2.5854	-3.1646	-3.0792	-3.3354	-3.3104	-2.9729	-3.4354	-3.4313	-3.0729	-3.4271	-3.2271	-3.1937	-3.5062	-3.3042	-3.3354	-3.2375	174.853	-98.854	-43.052	181.805	-21.827	35.964	152.791	185.346	67.390	200.431	-24.752	134.433	49.946	107.548	122.842	211.435	0.00025721	0.00061389	0.0001048	1402.7	1.0677e-06	3.541e-06	1389.4	380.23	2.4584e-06	9.2088e-06	429.83	138.4	120.61	41.531	2.7954e-06	51.834	0.001017	0.0012199	0.00035361	1421.1	1.3208e-05	1.3899e-05	1410.9	386.77	1.3418e-05	1.3858e-05	438.54	142.73	124.29	42.594	1.3341e-05	53.322	227.083	-37.432	-26.713	-114.223	-91.030	2.087	-114.191	-109.694	21.255	36.493	-110.053	-105.859	-105.423	-100.862	25.695	-101.557	-8191	255	
11097.552	1	1	0	0	0.19397	0.11161	0.15777	0.10304	0.21817	0.19159	0.021464	0.39506	0.092688	0.24538	0.060403	0.28407	0.20501	0.14483	0.14913	0.032076	-2.6125	-3.4396	-3.025	-3.1375	-3.3583	-3.0771	-3.4771	-3.2812	-2.9875	-3.3312	-3.1521	-3.1333	-3.4271	-3.1625	-3.1667	-3.1271	43.012	-67.673	-44.692	-111.788	137.828	54.207	-88.726	159.204	71.280	98.605	7.735	182.662	-114.026	216.333	154.744	207.766	0.00028745	0.00082731	0.00014276	1402.2	1.3165e-06	4.8442e-06	1395.3	380.81	3.8083e-07	4.9338e-06	430.18	138.11	120.58	41.413	3.5107e-06	51.776	0.00099447	0.0012196	0.00034426	1420.5	1.3161e-05	1.3687e-05	1412.8	387.01	1.3065e-05	1.3689e-05	438.37	142.35	124.24	42.625	1.3534e-05	53.311	228.597	-12.737	-56.751	-114.100	-96.175	40.454	-114.192	-109.488	12.018	54.579	-110.184	-105.881	-105.239	-100.721	44.752	-101.175	-8191	255	
11097.648	1	1	0	0	0.32366	0.080174	0.1949	0.11978	0.15539	0.119	0.16667	0.15669	0.13653	0.033304	0.0674	0.20186	0.18044	0.17975	0.045232	0.14556	-2.5312	-3.1813	-3.05	-3.3521	-3.0917	-3.1208	-3.3333	-3.5208	-3.0229	-3.1479	-3.0938	-3.0208	-3.3146	-3.0563	-3.0812	-3.3438	-22.639	173.002	27.639	-71.877	202.882	148.656	112.937	120.967	183.488	-18.442	219.318	106.255	205.098	-90.499	31.444	129.500	0.00030809	0.00036172	0.00022394	1408.3	1.0886e-06	2.7941e-06	1393.3	379.57	2.3167e-06	6.6584e-06	429.41	138.41	120.23	41.513	5.2354e-06	51.888	0.0010035	0.0012468	0.0003489	1421.1	1.3159e-05	1.4074e-05	1411.3	386.42	1.3201e-05	1.3606e-05	438.01	142.78	124.08	42.59	1.3375e-05	53.256	231.250	-78.028	-11.921	-114.147	-1.054	7.753	-114.123	-109.517	-27.168	41.735	-110.223	-105.763	-105.119	-100.669	29.377	-101.340	-8191	255	
11097.768	1	1	0	0	0.19373	0.088974	0.066055	0.22607	0.19248	0.17272	0.18808	0.23894	0.24197	0.079071	0.31009	0.16757	0.19131	0.20522	0.46669	0.22133	-2.2792	-3.1146	-3.1437	-3.1104	-3.2396	-3.1708	-3.2625	-3.4688	-2.8521	-3.1625	-3.3	-2.9729	-3.1917	-3.0042	-2.8958	-3.3833	104.877	-70.446	-126.204	180.442	-45.933	-101.946	215.809	163.954	150.079	204.168	216.055	134.197	179.966	173.977	-85.855	126.553	0.00028463	0.00055109	0.0001543	1401.3	1.3144e-06	2.1905e-06	1396.7	378.9	6.1173e-06	4.9715e-06	432.08	138.61	120.78	41.54	4.6184e-06	52.11	0.0010015	0.0012149	0.00034717	1419.9	1.3384e-05	1.3739e-05	1412.2	386.43	1.3056e-05	1.3579e-05	438.33	142.72	124.29	42.598	1.3268e-05	53.428	230.945	-35.314	-17.319	-114.079	31.717	60.684	-114.142	-109.592	15.919	16.231	-110.144	-105.888	-105.574	-100.673	50.483	-101.173	-8191	255	
11097.865	1	1	0	0	0.26599	0.085418	0.12214	0.13396	0.11888	0.13388	0.31965	0.20851	0.072469	0.077635	0.32305	0.21608	0.13312	0.16671	0.025616	0.27134	-2.5604	-2.9646	-3.225	-2.8583	-3.2083	-3.1063	-3.1562	-3.35	-3.1229	-3.125	-3.5021	-3.0812	-3.2208	-3.3375	-2.9667	-3.5396	39.944	64.519	111.035	201.218	98.686	60.606	214.743	212.168	175.481	54.793	119.448	-109.451	-81.241	46.766	66.200	149.100	0.00028489	0.00042007	0.00018432	1407.3	1.9532e-07	6.2201e-06	1392.8	379.71	1.2652e-06	3.6503e-06	431.33	138.01	120.51	41.475	5.9753e-06	51.741	0.00099873	0.0011907	0.00034019	1421.8	1.2991e-05	1.3654e-05	1411.6	386.44	1.311e-05	1.3658e-05	438.72	142.59	124.4	42.656	1.3045e-05	53.292	-124.577	-41.142	-33.826	-114.102	-111.117	12.185	-114.333	-109.737	69.554	23.656	-109.906	-105.682	-105.446	-100.656	47.306	-101.309	-8191	255	
11097.936	1	1	0	0	0.22518	0.33026	0.041384	0.12743	0.17043	0.07487	0.24657	0.085816	0.14864	0.085965	0.13429	0.2576	0.26925	0.21895	0.090216	0.11038	-2.5708	-3.1021	-3.2292	-3.0563	-3.0812	-3.0708	-3.0938	-3.3271	-2.9854	-3.0542	-3.5625	-3.1188	-3.1437	-3.2083	-2.9042	-3.1917	209.216	187.183	-6.274	-98.805	-27.663	9.563	118.408	231.268	74.045	31.115	133.523	16.140	210.662	230.117	1.150	89.106	0.00031137	0.00044748	0.00013775	1402.3	3.6979e-06	6.5765e-06	1388	379.88	3.9002e-06	5.4629e-06	430.49	138.32	119.81	41.509	4.2096e-06	51.723	0.00099179	0.0012123	0.00033841	1419.3	1.295e-05	1.3475e-05	1412.2	386.43	1.3003e-05	1.3723e-05	437.89	142.69	124.03	42.624	1.312e-05	53.262	229.007	-74.541	-38.892	-114.129	73.531	25.637	-114.050	-109.782	64.760	32.373	-110.128	-106.050	-105.609	-100.903	42.983	-101.038	-8191	255	
11098.057	1	1	0	0	0.15292	0.044327	0.10725	0.25393	0.074344	0.25908	0.25444	0.134	0.14958	0.16588	0.11911	0.062218	0.094898	0.23183	0.27476	0.22894	-2.4479	-2.9646	-3.2479	-3.1583	-3.0854	-3.1125	-3.1333	-3.4458	-3.1437	-2.9042	-3.45	-2.975	-3.0896	-3.2271	-2.9333	-3.3438	185.901	199.003	-62.987	217.824	44.017	19.327	196.756	164.603	59.711	-35.135	133.748	-122.689	217.669	205.289	159.726	109.904	0.00026011	0.0004947	0.00014746	1403	3.6182e-06	7.53e-06	1396.7	380.81	2.4645e-06	6.5782e-06	428.03	138.54	119.88	41.401	5.1593e-06	51.954	0.00098317	0.0012136	0.00033605	1419.6	1.3079e-05	1.3504e-05	1412.1	387.09	1.3123e-05	1.3432e-05	437.2	142.73	123.97	42.638	1.3044e-05	53.269	231.499	-37.438	-25.037	-114.239	55.688	43.794	-113.917	-109.682	-39.767	21.098	-109.925	-105.874	-105.299	-100.854	47.874	-101.000	-8191	255	
11098.153	1	1	0	0	0.07874	0.37337	0.088983	0.28905	0.17281	0.078827	0.18132	0.38652	0.20764	0.22867	0.037614	0.19167	0.12175	0.22686	0.051807	0.2166	-2.7542	-2.8896	-3.1333	-3.2542	-3.0958	-3.25	-3.1562	-3.425	-3.1958	-3.0333	-3.3438	-3.2021	-3	-3.3646	-2.8542	-3.2313	-41.364	-87.139	115.932	154.378	-124.879	62.062	71.815	198.890	-55.130	67.744	-109.913	-103.301	-10.710	175.489	220.867	48.308	0.0002726	0.00053332	9.6794e-05	1406.5	2.3508e-06	3.9885e-06	1391.2	381.53	5.1594e-06	6.0543e-06	429.66	138.7	120.79	41.591	3.8868e-06	51.714	0.00099252	0.0012144	0.00033373	1420.9	1.2936e-05	1.3364e-05	1411.4	387.49	1.2898e-05	1.3343e-05	438	142.69	124.31	42.617	1.2821e-05	53.258	231.551	-62.460	-40.700	-114.368	1.310	8.049	-114.260	-109.686	-9.922	12.927	-110.230	-105.821	-105.393	-100.850	31.148	-101.049	-8191	255	
#DATA ENDS
