BOXY.EXE: ISS Imagent and Oximeter Data Acquisition Program Version 0.80
Ascii Record File

#ACQ INFORMATION
2  Detector Channels 
16  External MUX Channels 
1  Auxiliary Channels 
5000  Waveform (CCF) Frequency (Hz)
1  Waveforms Skipped 
30  Waveforms Averaged 
1  Cycles Averaged 
16  Acquisitions per Waveform 
10.0806  Updata Rate (Hz) 

#FILE INFORMATION
TRUE -- External MUX Channel results are PARSED.
FALSE -- AC DC and Phase are NOT grouped.
TRUE -- Companion Program Settings File CREATED.
FALSE -- AC data not excluded
FALSE -- DC data not excluded
FALSE -- Phase data not excluded
FALSE -- Auxillary Chn. data not excluded
Tab delimiters

#CALIBRATION STATE
TRUE -- Waveform Calibration Values APPLIED.


#AUX CALIBRATION VALUES
Val Type	aux-1	

Term	1.0000e+00	
Factor	0.0000e+00	


#WF CALIBRATION VALUES
A = Detector Channel
Val Type	A-AC1	A-AC2	A-AC3	A-AC4	A-AC5	A-AC6	A-AC7	A-AC8	A-AC9	A-AC10	A-AC11	A-AC12	A-AC13	A-AC14	A-AC15	A-AC16	A-DC1	A-DC2	A-DC3	A-DC4	A-DC5	A-DC6	A-DC7	A-DC8	A-DC9	A-DC10	A-DC11	A-DC12	A-DC13	A-DC14	A-DC15	A-DC16	A-Ph1	A-Ph2	A-Ph3	A-Ph4	A-Ph5	A-Ph6	A-Ph7	A-Ph8	A-Ph9	A-Ph10	A-Ph11	A-Ph12	A-Ph13	A-Ph14	A-Ph15	A-Ph16	

Term	0.00000e+00	0.00000e+00	0.00000e+00	0.00000e+00	0.00000e+00	0.00000e+00	0.00000e+00	0.00000e+00	0.00000e+00	0.00000e+00	0.00000e+00	0.00000e+00	0.00000e+00	0.00000e+00	0.00000e+00	0.00000e+00	0.00000e+00	0.00000e+00	0.00000e+00	0.00000e+00	0.00000e+00	0.00000e+00	0.00000e+00	0.00000e+00	0.00000e+00	0.00000e+00	0.00000e+00	0.00000e+00	0.00000e+00	0.00000e+00	0.00000e+00	0.00000e+00	0.00000e+00	0.00000e+00	0.00000e+00	0.00000e+00	0.00000e+00	0.00000e+00	0.00000e+00	0.00000e+00	0.00000e+00	0.00000e+00	0.00000e+00	0.00000e+00	0.00000e+00	0.00000e+00	0.00000e+00	0.00000e+00	
Factor	1.00000e+00	1.00000e+00	1.00000e+00	1.00000e+00	1.00000e+00	1.00000e+00	1.00000e+00	1.00000e+00	1.00000e+00	1.00000e+00	1.00000e+00	1.00000e+00	1.00000e+00	1.00000e+00	1.00000e+00	1.00000e+00	1.00000e+00	1.00000e+00	1.00000e+00	1.00000e+00	1.00000e+00	1.00000e+00	1.00000e+00	1.00000e+00	1.00000e+00	1.00000e+00	1.00000e+00	1.00000e+00	1.00000e+00	1.00000e+00	1.00000e+00	1.00000e+00	X	X	X	X	X	X	X	X	X	X	X	X	X	X	X	X	

B = Detector Channel
Val Type	B-AC1	B-AC2	B-AC3	B-AC4	B-AC5	B-AC6	B-AC7	B-AC8	B-AC9	B-AC10	B-AC11	B-AC12	B-AC13	B-AC14	B-AC15	B-AC16	B-DC1	B-DC2	B-DC3	B-DC4	B-DC5	B-DC6	B-DC7	B-DC8	B-DC9	B-DC10	B-DC11	B-DC12	B-DC13	B-DC14	B-DC15	B-DC16	B-Ph1	B-Ph2	B-Ph3	B-Ph4	B-Ph5	B-Ph6	B-Ph7	B-Ph8	B-Ph9	B-Ph10	B-Ph11	B-Ph12	B-Ph13	B-Ph14	B-Ph15	B-Ph16	

Term	0.00000e+00	0.00000e+00	0.00000e+00	0.00000e+00	0.00000e+00	0.00000e+00	0.00000e+00	0.00000e+00	0.00000e+00	0.00000e+00	0.00000e+00	0.00000e+00	0.00000e+00	0.00000e+00	0.00000e+00	0.00000e+00	0.00000e+00	0.00000e+00	0.00000e+00	0.00000e+00	0.00000e+00	0.00000e+00	0.00000e+00	0.00000e+00	0.00000e+00	0.00000e+00	0.00000e+00	0.00000e+00	0.00000e+00	0.00000e+00	0.00000e+00	0.00000e+00	-1.62186e+02	-1.31730e+02	-1.27311e+02	-1.82839e+02	-7.22027e+01	-7.27005e+01	-1.55569e+02	-1.62015e+02	-8.76372e+01	-5.40435e+01	-1.72178e+02	-1.69985e+02	-1.81095e+02	-1.77169e+02	-7.66771e+01	-1.49038e+02	
Factor	2.42245e-05	1.56023e-04	3.81428e-05	1.75312e-01	1.40971e-06	1.64037e-06	1.54563e-01	4.71353e-02	1.24050e-06	1.69146e-06	8.91026e-02	2.75073e-02	2.74061e-02	8.82892e-03	1.31004e-06	1.28598e-02	5.15665e-06	6.04778e-06	1.70279e-06	8.69371e-02	6.52167e-08	6.74084e-08	7.23543e-02	2.35215e-02	6.47762e-08	6.74149e-08	4.30885e-02	1.33832e-02	1.37951e-02	4.43508e-03	6.56277e-08	6.27281e-03	X	X	X	X	X	X	X	X	X	X	X	X	X	X	X	X	



#DISTANCE SETTINGS
A = Detector Channel
A-1	A-2	A-3	A-4	A-5	A-6	A-7	A-8	A-9	A-10	A-11	A-12	A-13	A-14	A-15	A-16	

2.5000e+00	3.0000e+00	2.5000e+00	3.0000e+00	2.0000e+00	3.0000e+00	1.5000e+00	3.0000e+00	3.0000e+00	3.0000e+00	3.0000e+00	3.0000e+00	3.0000e+00	3.0000e+00	1.5000e+00	3.0000e+00	

B = Detector Channel
B-1	B-2	B-3	B-4	B-5	B-6	B-7	B-8	B-9	B-10	B-11	B-12	B-13	B-14	B-15	B-16	

1.0000e+01	1.0000e+01	1.0000e+01	1.4400e+00	1.0000e+01	1.0000e+01	1.5100e+00	1.9400e+00	1.0000e+01	1.0000e+01	1.9900e+00	2.4900e+00	2.4100e+00	2.9000e+00	1.0000e+01	2.9800e+00	




#DATA BEGINS
time	group	step	mark	flag	A-AC1	A-AC2	A-AC3	A-AC4	A-AC5	A-AC6	A-AC7	A-AC8	A-AC9	A-AC10	A-AC11	A-AC12	A-AC13	A-AC14	A-AC15	A-AC16	A-DC1	A-DC2	A-DC3	A-DC4	A-DC5	A-DC6	A-DC7	A-DC8	A-DC9	A-DC10	A-DC11	A-DC12	A-DC13	A-DC14	A-DC15	A-DC16	A-Ph1	A-Ph2	A-Ph3	A-Ph4	A-Ph5	A-Ph6	A-Ph7	A-Ph8	A-Ph9	A-Ph10	A-Ph11	A-Ph12	A-Ph13	A-Ph14	A-Ph15	A-Ph16	B-AC1	B-AC2	B-AC3	B-AC4	B-AC5	B-AC6	B-AC7	B-AC8	B-AC9	B-AC10	B-AC11	B-AC12	B-AC13	B-AC14	B-AC15	B-AC16	B-DC1	B-DC2	B-DC3	B-DC4	B-DC5	B-DC6	B-DC7	B-DC8	B-DC9	B-DC10	B-DC11	B-DC12	B-DC13	B-DC14	B-DC15	B-DC16	B-Ph1	B-Ph2	B-Ph3	B-Ph4	B-Ph5	B-Ph6	B-Ph7	B-Ph8	B-Ph9	B-Ph10	B-Ph11	B-Ph12	B-Ph13	B-Ph14	B-Ph15	B-Ph16	aux-1	digaux	

1995.151	1	1	0	256	0.10396	0.16177	0.08996	0.2125	0.19103	0.1699	0.15239	0.14729	0.31835	0.11059	0.15327	0.15835	0.20409	0.039737	0.080328	0.22035	-2.8208	-3.3229	-2.9958	-3.4542	-3.3917	-3.125	-3.4917	-3.175	-3.0875	-3.5563	-3.1333	-3.4479	-3.5667	-3.1958	-3.4104	-3.2625	170.583	63.802	-51.592	223.363	234.931	-44.236	194.250	199.893	93.788	165.657	226.495	217.843	248.408	53.756	115.207	216.189	0.00019461	0.00027536	0.00010089	680.03	1.9114e-06	3.7697e-06	521.4	193.7	6.5193e-06	3.3702e-06	183.83	82.255	77.862	34.054	1.1377e-06	42.509	0.0017842	0.0020222	0.00057731	688.1	2.2208e-05	2.2822e-05	528.31	196.15	2.2337e-05	2.286e-05	191.32	84.864	80.471	34.852	2.1771e-05	43.398	132.959	90.148	74.013	-46.003	73.245	174.639	-47.132	-40.677	156.919	54.914	-43.396	-39.474	-36.846	-32.284	299.437	-35.381	-8191	255	
1995.247	1	1	0	0	0.040728	0.2667	0.24357	0.29253	0.41463	0.12767	0.24666	0.099895	0.1515	0.20672	0.098619	0.05447	0.076158	0.34608	0.20056	0.23627	-2.8208	-3.3479	-3.1542	-3.4292	-3.4896	-3.0417	-3.3104	-3.3125	-3.2167	-3.6188	-3.2604	-3.2188	-3.4813	-3.0646	-3.4979	-3.375	249.264	155.967	-10.064	-54.244	124.083	221.038	164.790	222.545	263.997	16.917	165.192	276.300	-41.218	292.766	-33.005	36.080	0.00017521	0.00087626	0.00016874	692.03	6.3419e-06	4.2037e-06	527.89	196.51	1.6082e-06	7.0947e-06	187.21	82.678	79.126	34.221	2.1432e-06	41.578	0.0017304	0.0019523	0.00054739	697.15	2.0984e-05	2.1686e-05	534.93	198.79	2.1228e-05	2.1554e-05	194.63	85.288	81.316	34.822	2.0923e-05	42.728	147.382	11.284	-21.304	-45.620	76.672	60.016	-47.225	-40.538	-12.167	125.933	-43.197	-39.150	-36.982	-32.125	81.299	-35.585	-8191	255	
1995.343	1	1	0	0	0.40264	0.093104	0.12804	0.043214	0.3357	0.098808	0.099667	0.18117	0.31038	0.10963	0.15329	0.20839	0.089751	0.22392	0.094512	0.073948	-2.625	-3.3833	-3.0208	-3.3583	-3.4771	-3.0833	-3.3854	-3.4229	-3.2021	-3.525	-3.1854	-3.3917	-3.2875	-3.1437	-3.1937	-3.5083	248.696	74.692	127.432	-36.124	41.928	198.047	-41.211	236.299	56.230	294.288	138.912	272.262	-13.740	223.787	246.451	-10.071	0.00018303	0.00021984	8.6786e-05	697.43	5.2221e-06	9.343e-06	519.37	195.96	4.8207e-06	7.6666e-06	182.64	80.891	78.796	33.714	2.2666e-06	40.657	0.001681	0.0019108	0.00054124	699.54	2.0514e-05	2.1291e-05	525.74	198.06	2.0228e-05	2.0764e-05	189.28	83.134	80.723	34.269	1.9656e-05	41.719	147.865	12.571	94.786	-46.116	100.578	129.228	-47.014	-40.697	69.490	123.451	-43.187	-39.507	-36.637	-32.108	203.341	-35.604	-8191	255	
1995.464	1	1	0	0	0.20375	0.10009	0.21156	0.21021	0.18506	0.12596	0.0656	0.050277	0.24059	0.17206	0.214	0.092935	0.19119	0.093872	0.096713	0.060401	-2.5333	-3.4521	-3.0896	-3.2	-3.325	-3.2521	-3.5354	-3.5521	-3.2562	-3.5042	-3.1667	-3.2896	-3.6667	-3.2812	-3.3312	-3.3896	254.937	266.087	296.666	263.460	202.584	82.504	122.234	-41.621	163.288	154.564	37.812	237.120	252.514	132.643	91.462	240.045	0.00018358	0.00020075	0.00010491	699.71	3.8952e-06	2.2973e-06	522.18	197.05	3.5973e-06	4.612e-06	183.22	81.777	78.897	33.84	4.8835e-06	41.512	0.0015848	0.0017864	0.00051149	700.42	1.9428e-05	1.9908e-05	527.14	199.13	1.9116e-05	1.9412e-05	190.09	83.728	80.818	34.403	1.8384e-05	42.175	106.859	36.794	36.355	-45.875	111.999	69.196	-47.007	-40.897	39.036	122.799	-43.185	-39.390	-36.722	-31.942	153.814	-35.069	-8191	255	
1995.558	1	1	0	0	0.13546	0.12873	0.16433	0.16459	0.18285	0.067594	0.24567	0.1691	0.15668	0.12246	0.099081	0.15647	0.29518	0.37987	0.098814	0.33115	-2.9062	-3.6125	-3.4208	-3.0979	-3.525	-3.0354	-3.3563	-3.4917	-3.125	-3.3104	-3.1688	-3.2938	-3.5896	-3.1854	-3.3104	-3.2958	143.993	154.315	190.580	248.143	3.944	39.349	-42.526	275.902	242.467	-32.167	5.221	-14.610	-40.281	286.204	288.032	165.491	0.00021045	0.00062403	0.00018026	698.66	1.2592e-06	5.1997e-06	531.8	198.04	4.2369e-06	4.6007e-06	185.3	82.331	78.905	34.097	1.3478e-06	42.069	0.0014619	0.0016729	0.00046785	700.15	1.7848e-05	1.8384e-05	533.76	199.43	1.7598e-05	1.8298e-05	191.4	84.138	80.767	34.515	1.7556e-05	42.591	130.040	89.889	46.104	-45.694	245.518	41.067	-47.371	-40.818	181.607	128.038	-43.224	-39.229	-36.284	-31.933	44.343	-34.996	-8191	255	
1995.654	1	1	0	0	0.11263	0.22534	0.10429	0.20773	0.066191	0.1265	0.14791	0.056863	0.27346	0.086605	0.1795	0.19668	0.18507	0.17051	0.050319	0.12276	-2.8167	-3.1937	-3.3458	-3.0833	-3.4542	-3.2333	-3.2687	-3.4042	-3.0438	-3.5312	-3.4604	-3.0417	-3.3063	-3.2833	-3.1063	-3.4021	-32.168	38.829	272.757	-16.619	-27.499	128.525	255.006	157.231	251.197	72.132	146.114	118.712	-4.887	253.247	2.408	119.165	0.00013403	0.00068094	0.00016291	692.23	2.4422e-06	5.0773e-06	521.96	197.26	8.7783e-07	1.0656e-06	184.63	81.817	78.425	33.844	5.6986e-06	41.343	0.0013926	0.0015685	0.00044012	693.79	1.667e-05	1.7031e-05	524.25	197.06	1.616e-05	1.6656e-05	189.32	83.39	79.859	34.107	1.5962e-05	41.749	109.188	48.356	57.137	-45.998	88.106	237.719	-47.414	-40.720	93.750	-6.811	-43.001	-39.215	-36.713	-32.227	49.321	-35.360	-8191	255	
1995.750	1	1	0	0	0.056303	0.14675	0.15695	0.14665	0.072718	0.11468	0.083566	0.30398	0.12392	0.10136	0.089149	0.13898	0.12251	0.27236	0.053098	0.23867	-2.7354	-3.3021	-3.3208	-3.2167	-3.5229	-3.3125	-2.9437	-3.5604	-3.0458	-3.2979	-3.2667	-3.0375	-3.4062	-3.3729	-3.2708	-3.4625	63.409	173.717	-35.011	223.240	35.556	97.707	84.818	118.723	214.007	226.341	90.628	223.553	-2.719	-37.612	49.068	-9.197	0.00017736	0.00043276	0.00016689	688.7	3.1545e-06	3.5149e-06	518.07	194.97	3.8405e-06	6.18e-06	182.82	82.192	78.11	33.685	1.8766e-06	41.205	0.0012743	0.0014501	0.00040816	685.64	1.5668e-05	1.6139e-05	519.58	195.36	1.5591e-05	1.6088e-05	188.14	83.177	79.419	34.004	1.5421e-05	41.683	101.763	75.599	-47.304	-45.806	71.802	124.902	-47.135	-40.705	215.508	55.673	-42.969	-39.241	-36.650	-31.890	29.385	-35.280	-8191	255	
1995.846	1	1	0	0	0.18463	0.2695	0.20202	0.097083	0.10621	0.096507	0.39423	0.072128	0.14813	0.20065	0.089689	0.28117	0.11315	0.18744	0.12769	0.26516	-2.4979	-3.3417	-3.3937	-3.2167	-3.5146	-3.2125	-3.1458	-3.4562	-3.1792	-3.3271	-3.4896	-3.3208	-3.5083	-3.3812	-3.2021	-3.5167	121.923	132.914	-1.187	-13.227	116.778	197.928	98.811	117.575	94.766	-40.996	262.837	-49.128	-55.980	290.150	89.170	225.202	0.00015684	0.00072461	0.00021631	691.75	2.7917e-06	6.4553e-06	524.72	196.56	6.5956e-06	7.7652e-06	185.24	82.33	78.611	33.977	2.678e-06	41.604	0.0012531	0.0013876	0.00039257	690.17	1.492e-05	1.5355e-05	524.89	196.84	1.4705e-05	1.5073e-05	188.79	83.337	79.826	34.079	1.4207e-05	41.937	133.890	17.690	-3.234	-45.895	221.973	60.388	-46.763	-40.661	84.682	109.716	-43.348	-39.032	-36.791	-31.746	60.733	-35.280	-8191	255	
1995.943	1	1	0	0	0.13457	0.11565	0.13446	0.35662	0.2091	0.16502	0.1588	0.21369	0.068101	0.21351	0.092585	0.16129	0.14102	0.16962	0.13002	0.24718	-2.7646	-3.2271	-3.5333	-3.1021	-3.3167	-3.3667	-3.2854	-3.6188	-3.1271	-3.2875	-3.4083	-3.3	-3.4333	-3.625	-3.1437	-3.4917	244.824	271.064	185.874	279.390	-55.934	219.189	249.306	114.365	181.351	65.684	59.772	-47.438	265.362	267.082	148.252	250.170	0.00016172	0.00039288	0.00013273	701.57	1.4157e-06	6.0051e-06	532.2	199.52	2.1855e-06	6.6797e-06	186.63	83.448	79.039	33.736	5.2305e-06	41.29	0.0011299	0.0012714	0.00034804	694.18	1.3166e-05	1.3314e-05	532.44	198.31	1.2539e-05	1.2965e-05	189.38	83.499	79.68	33.872	1.2497e-05	41.448	121.679	-16.328	44.989	-45.525	252.899	106.891	-47.144	-40.826	-18.590	115.499	-43.338	-39.390	-36.778	-32.220	54.378	-35.629	-8191	255	
1996.063	1	1	0	0	0.21124	0.021714	0.064117	0.049039	0.2112	0.16414	0.34756	0.048997	0.073377	0.082339	0.16349	0.16186	0.12942	0.40426	0.070155	0.10196	-2.6854	-3.0938	-3.4542	-3.2	-3.2417	-3.2896	-3.2771	-3.3229	-3.2938	-3.2458	-3.6375	-3.2625	-3.2271	-3.3521	-3.2875	-3.4375	48.689	176.743	63.470	-17.354	8.797	276.920	245.991	143.935	131.986	79.087	-16.682	155.385	264.605	188.258	175.379	267.496	0.00014774	0.00066877	5.2722e-05	689.42	3.5071e-06	5.2207e-06	521.78	196.35	6.2066e-06	1.5074e-06	185.95	81.64	77.665	33.49	6.5028e-06	41.239	0.0010204	0.0011506	0.00032258	684.52	1.2279e-05	1.2622e-05	518.7	195.96	1.2289e-05	1.2543e-05	187.32	82.647	78.899	33.739	1.2602e-05	41.498	106.109	15.495	247.902	-45.578	119.538	249.256	-47.288	-41.056	104.847	76.025	-43.177	-39.565	-36.494	-32.359	85.346	-35.033	-8191	255	
1996.159	1	1	0	0	0.26886	0.075385	0.037756	0.21399	0.20748	0.080747	0.26294	0.063218	0.097125	0.13443	0.31543	0.19014	0.19805	0.098449	0.1575	0.1996	-3.0458	-3.2188	-3.3208	-3.2729	-3.2188	-3.525	-3.2292	-3.3792	-3.2708	-3.3667	-3.3958	-3.2417	-3.3104	-3.5896	-3.1188	-3.4354	272.446	266.046	77.958	-31.318	17.674	186.201	253.018	120.909	44.370	178.770	-52.956	-8.016	-46.667	290.508	-19.445	227.409	0.00024653	0.00054182	0.00021728	690.72	8.7865e-06	6.6518e-06	526.04	197.19	2.1077e-06	2.4913e-06	186.69	82.644	78.362	33.958	2.6086e-06	41.833	0.0010583	0.0012045	0.00034064	685.13	1.3025e-05	1.3282e-05	523.56	196.05	1.2929e-05	1.3336e-05	189.12	83.625	79.32	34.058	1.3068e-05	41.965	115.086	49.643	53.586	-45.769	25.062	14.131	-46.868	-40.534	89.439	149.806	-43.323	-39.274	-37.191	-31.983	115.544	-35.148	-8191	255	
1996.231	1	1	0	0	0.14586	0.033367	0.1322	0.21215	0.1258	0.27344	0.22069	0.060094	0.10036	0.14294	0.24961	0.20327	0.079431	0.21652	0.14075	0.32993	-2.925	-2.9854	-3.4583	-3.1104	-3.1667	-3.5792	-3.1312	-3.4667	-3.3396	-3.1271	-3.3708	-3.375	-3.0833	-3.3688	-3.1292	-3.3708	133.586	230.164	161.166	-19.767	-44.735	-39.924	169.298	74.514	181.998	270.295	291.767	151.323	-54.953	-14.894	75.377	-14.906	0.0001435	0.00035714	9.8453e-05	689.35	3.4528e-06	2.1994e-06	528.76	196.72	2.7308e-06	6.4808e-06	188.35	83.503	78.408	33.749	4.7551e-06	41.905	0.0010627	0.001215	0.00033895	687.31	1.2898e-05	1.3054e-05	527.88	196.5	1.2756e-05	1.3108e-05	190.97	84.099	79.486	34.033	1.2609e-05	42.043	120.223	70.525	-6.119	-45.924	255.205	73.081	-47.269	-40.609	74.199	112.782	-43.370	-39.126	-37.170	-32.037	133.104	-35.554	-8191	255	
1996.327	1	1	0	0	0.12775	0.10563	0.11446	0.34336	0.24312	0.23167	0.15766	0.13879	0.11968	0.18356	0.11876	0.19511	0.18556	0.20962	0.1783	0.051709	-2.9188	-3.0833	-3.3479	-3.5542	-3.0833	-3.4146	-3.1792	-3.2792	-3.3167	-3.1688	-3.3854	-3.3396	-3.1021	-3.5	-3.1125	-3.3292	-39.790	112.996	62.739	265.512	41.771	200.759	208.590	196.253	262.765	236.049	11.593	288.831	-48.624	270.512	-7.698	-14.736	0.00017756	0.00038001	0.00014574	691.16	1.5021e-06	3.9112e-06	519.05	196.31	2.4781e-06	4.9592e-06	185.24	82.612	78.412	33.744	9.9584e-07	41.524	0.0010248	0.0011435	0.00032216	683.43	1.2265e-05	1.2545e-05	518.83	194.9	1.1866e-05	1.205e-05	187	83.036	78.84	33.727	1.1163e-05	41.59	120.961	3.993	-16.587	-45.904	95.177	29.215	-46.822	-40.790	-5.935	96.802	-43.312	-39.670	-37.038	-32.175	150.438	-35.134	-8191	255	
1996.423	1	1	0	0	0.15701	0.19774	0.10768	0.154	0.18297	0.20908	0.37014	0.13984	0.20508	0.16651	0.16297	0.29183	0.12317	0.16244	0.13193	0.28247	-2.8833	-3.1375	-3.5687	-3.4125	-3.1083	-3.3896	-3.2792	-3.3021	-3.5	-3.0938	-3.2938	-3.2917	-2.9729	-3.4375	-3.2146	-3.35	76.387	14.810	218.297	226.563	101.672	261.957	248.213	281.905	207.158	227.749	154.521	239.035	262.516	229.412	18.411	213.112	0.0001838	0.00037987	5.0873e-05	691.17	2.2942e-06	3.2653e-06	529.76	197.52	6.1905e-06	2.5976e-06	185.59	83.329	79.688	34.421	1.7798e-06	42.303	0.000913	0.0010405	0.0002925	683.13	1.118e-05	1.1366e-05	525.66	195.57	1.088e-05	1.1146e-05	186.65	83.471	79.855	34.248	1.0957e-05	42.225	127.957	-27.299	49.857	-46.040	30.085	-31.333	-47.099	-40.697	94.009	207.363	-43.156	-39.264	-36.859	-32.019	-42.219	-35.274	-8191	255	
1996.542	1	1	0	0	0.2303	0.18645	0.062324	0.10761	0.19487	0.26106	0.14194	0.099709	0.12103	0.24269	0.18518	0.060055	0.098877	0.082627	0.28251	0.1128	-3.1458	-3.0812	-3.3312	-3.4021	-3.075	-3.4229	-3.5062	-3.3708	-3.4458	-3.1063	-3.3479	-3.4313	-3.2708	-3.6083	-3.1396	-3.1667	-26.139	-40.420	146.804	201.296	182.921	28.149	-38.945	-52.763	258.595	52.930	189.260	192.426	160.750	259.244	186.823	287.271	0.00021393	0.00043972	0.00017455	702.64	1.5957e-06	8.3004e-06	533.47	198.75	5.392e-06	3.714e-06	188.73	84.095	79.872	34.442	5.3449e-06	42.734	0.00090238	0.00099455	0.00028071	691.91	1.0573e-05	1.1116e-05	530.53	197.22	1.0696e-05	1.0981e-05	189.89	84.465	79.987	34.404	1.0886e-05	42.631	138.526	52.093	-27.984	-45.907	69.571	53.107	-47.052	-40.729	82.924	122.779	-43.080	-39.534	-36.747	-32.244	116.573	-35.347	-8191	255	
1996.638	1	1	0	0	0.043424	0.17893	0.10467	0.22589	0.26127	0.25182	0.27208	0.26498	0.10294	0.11222	0.27119	0.1383	0.13786	0.077308	0.16656	0.13943	-3.1063	-3.1167	-3.1354	-3.5396	-3.1937	-3.4313	-3.5458	-3.1792	-3.5271	-3.4875	-3.2708	-3.45	-3.1646	-3.4958	-3.5375	-3.3187	-7.856	202.441	-9.179	-57.376	112.193	96.027	284.523	177.514	262.615	175.869	214.409	296.539	281.334	-31.937	60.997	79.506	0.00011255	0.00049731	8.7885e-05	706.75	1.5163e-06	2.5924e-06	535.34	201.02	5.3994e-06	3.5971e-06	185.73	82.884	80.149	34.146	3.0355e-06	41.691	0.00088245	0.00098505	0.00027345	699.13	1.0716e-05	1.0777e-05	530.45	199.1	1.0191e-05	1.0382e-05	186.92	83.317	80.246	34.137	1.0054e-05	41.574	136.877	-13.146	52.120	-45.751	288.784	164.798	-47.070	-40.803	78.757	50.944	-43.074	-39.367	-36.844	-32.017	3.982	-35.194	-8191	255	
1996.734	1	1	0	0	0.15083	0.070222	0.047181	0.1189	0.085211	0.070659	0.30556	0.22621	0.11328	0.11625	0.13375	0.11909	0.084151	0.33727	0.15177	0.06705	-3.1021	-3.2313	-3.1063	-3.5146	-3.1125	-3.375	-3.45	-3.3625	-3.3771	-3.3896	-3.1083	-3.575	-3.0521	-3.4604	-3.3083	-3.1583	251.369	62.025	52.183	-48.330	76.127	162.132	291.549	181.391	1.553	252.773	-11.183	176.917	278.537	266.337	130.143	-17.991	0.00010337	0.00023986	6.3674e-05	706.27	4.6108e-07	1.8631e-06	530.88	199	1.2196e-06	7.6338e-06	186.92	83.02	79.854	34.263	3.2386e-06	41.836	0.00083218	0.00092429	0.0002617	693.38	1.0015e-05	1.015e-05	523.35	197.28	9.741e-06	9.9811e-06	186.56	83.142	80.097	34.214	9.6884e-06	41.556	115.688	-2.001	30.825	-46.038	119.169	33.278	-47.012	-40.895	56.032	96.446	-42.900	-39.534	-37.159	-32.180	103.011	-35.326	-8191	255	
1996.855	1	1	0	0	0.18983	0.032039	0.3228	0.11801	0.14671	0.089967	0.20928	0.24406	0.010358	0.15097	0.29993	0.19553	0.026583	0.17586	0.13817	0.20415	-3.1479	-3.45	-3	-3.4271	-3.125	-3.3708	-3.6646	-3.2	-3.4375	-3.3812	-3.3438	-3.5625	-3.2875	-3.4604	-3.4938	-3.1771	-12.438	61.731	120.512	153.033	16.600	124.270	-40.195	245.781	-22.930	226.546	-47.557	270.295	36.231	-26.865	32.228	-41.126	0.00022245	0.00043118	0.00010443	713.24	4.0674e-06	7.296e-06	536.46	200.54	3.1156e-06	2.131e-06	183.66	82.674	80.016	34.196	1.0729e-06	41.851	0.00080132	0.00089127	0.00025107	702.16	9.4621e-06	9.8496e-06	528.25	198.12	9.3819e-06	9.6715e-06	185.41	82.75	80.207	34.091	9.458e-06	41.645	120.633	14.336	12.082	-45.978	105.806	79.776	-47.009	-40.790	153.097	162.568	-42.952	-39.429	-36.926	-32.124	76.897	-35.437	-8191	255	
1996.927	1	1	0	0	0.16832	0.10785	0.19957	0.097991	0.21745	0.25154	0.26566	0.18548	0.07276	0.11214	0.17731	0.21414	0.19448	0.17479	0.1627	0.23928	-3.1042	-3.3063	-3.1833	-3.2812	-3.2708	-3.3125	-3.5438	-3.2083	-3.35	-3.3667	-3.1521	-3.5667	-3.2854	-3.1667	-3.5292	-3.125	129.482	253.229	63.866	-18.520	257.913	-2.290	233.918	194.102	5.410	144.781	176.731	-32.220	163.408	291.423	29.903	227.280	0.0001582	0.00030034	4.9076e-05	710.22	1.5954e-06	4.1488e-06	533.52	200.25	4.3858e-06	9.5835e-07	185.4	82.414	79.674	33.928	1.8469e-06	40.59	0.00080032	0.00087708	0.00024447	697.73	9.5341e-06	9.5273e-06	527.4	198.26	9.3402e-06	9.4025e-06	184.79	82.223	79.66	33.76	8.9738e-06	40.363	134.412	61.787	8.998	-46.022	44.625	30.871	-47.293	-40.935	107.825	249.407	-43.356	-39.369	-36.851	-32.253	185.132	-35.564	-8191	255	
1997.023	1	1	0	0	0.071788	0.073476	0.071056	0.18694	0.10151	0.24625	0.050208	0.089433	0.14539	0.1808	0.14891	0.2169	0.14788	0.1008	0.096765	0.17237	-2.9375	-3.2229	-3.0604	-3.6	-3.3271	-3.0958	-3.4708	-3.2583	-3.2542	-3.3604	-3.1708	-3.3042	-3.2396	-3.3146	-3.4271	-3.1583	19.757	209.857	-48.458	105.105	32.113	141.690	121.941	120.411	76.342	53.584	-43.343	252.304	-17.313	86.345	68.004	245.476	0.0001412	0.0005576	1.2849e-05	709.22	2.699e-06	3.0389e-06	520.25	198.25	2.8192e-06	4.8264e-06	179.6	80.674	78.871	33.198	4.6762e-06	40.198	0.00076227	0.00082691	0.00023409	695.1	9.156e-06	9.4007e-06	514.27	195.84	9.0417e-06	9.3697e-06	179.93	80.325	78.758	33.124	8.8835e-06	39.757	124.056	29.157	-13.692	-45.932	40.066	87.406	-47.329	-40.683	41.258	65.841	-43.065	-39.497	-36.566	-31.918	123.183	-35.332	-8191	255	
1997.144	1	1	0	0	0.16965	0.11375	0.26169	0.13217	0.094808	0.3745	0.078502	0.31291	0.21884	0.31706	0.28114	0.043819	0.04634	0.2515	0.1969	0.25241	-2.9062	-3.4062	-3.1562	-3.5729	-3.2667	-3.3021	-3.3937	-3.1458	-3.2792	-3.4583	-3.1833	-3.3792	-3.3854	-3.2771	-3.4208	-3.2354	215.464	113.290	-55.051	132.822	-52.357	185.095	255.090	148.581	160.783	161.064	294.043	61.403	296.328	288.460	-28.379	224.592	0.00020681	0.00021007	0.00014388	705.97	2.092e-06	3.6513e-06	525.06	198.79	1.3687e-06	5.0529e-06	180.76	81.627	79.007	33.505	5.247e-06	40.768	0.00072817	0.00080948	0.00022868	693.79	8.8935e-06	9.1035e-06	516.62	195.4	8.9553e-06	9.0754e-06	180.95	81.283	78.81	33.262	8.9627e-06	40.37	123.252	94.413	82.832	-45.871	121.383	-32.418	-46.942	-40.891	152.349	154.238	-43.240	-39.240	-36.782	-31.862	111.003	-35.366	-8191	255	
1997.240	1	1	0	0	0.12211	0.074904	0.11928	0.18526	0.27327	0.2193	0.23223	0.036181	0.13253	0.121	0.38781	0.032249	0.20979	0.07072	0.23641	0.38128	-2.8854	-3.5354	-3.1333	-3.4229	-3.3833	-3.0292	-3.3312	-3.1813	-3.2375	-3.6	-3.2375	-3.4021	-3.3833	-3.1604	-3.3354	-3.4083	167.873	193.188	26.514	243.508	264.717	-38.636	225.221	217.771	126.204	263.592	284.964	184.442	272.842	209.836	4.499	292.755	0.00018229	0.00057971	6.5514e-05	703.21	4.8738e-06	2.3421e-06	526.96	197.87	4.1622e-06	2.9625e-06	183.72	82.56	79.524	33.875	4.1501e-06	41.221	0.00074232	0.00081534	0.00023083	690.68	8.9e-06	9.1126e-06	520.42	195.09	8.8911e-06	8.9835e-06	183.35	82.307	79.354	33.767	9.0606e-06	41.092	153.966	-14.715	30.551	-45.815	58.956	107.256	-47.018	-40.970	131.586	23.645	-43.655	-39.607	-36.663	-31.897	134.805	-35.426	-8191	255	
1997.336	1	1	0	0	0.31842	0.18261	0.13781	0.15861	0.11688	0.063159	0.067216	0.092221	0.053581	0.11139	0.17165	0.24925	0.07036	0.25461	0.15367	0.16138	-2.7438	-3.4271	-3.0417	-3.3	-3.3729	-3.1063	-3.4667	-3.2958	-3.2771	-3.6396	-3.2792	-3.3229	-3.4562	-3.1167	-3.4333	-3.4313	12.611	23.740	142.611	-17.310	121.814	248.733	-40.682	261.751	0.875	59.655	195.863	277.673	106.921	33.974	297.664	-40.789	0.0001882	0.0001963	9.7509e-05	701.29	1.923e-06	2.0841e-06	523.41	196.78	2.4776e-06	5.6721e-06	181.61	81.096	78.737	33.661	2.194e-06	40.169	0.00074549	0.00082075	0.0002301	687.87	8.8549e-06	9.1086e-06	515.38	194.92	8.8768e-06	8.9974e-06	180.77	81.048	78.78	33.353	8.9919e-06	40.16	108.604	45.271	2.241	-45.862	69.197	85.028	-46.923	-40.758	174.727	99.627	-43.444	-39.099	-36.785	-32.264	209.860	-35.496	-8191	255	
1997.456	1	1	0	0	0.25832	0.066225	0.16538	0.030204	0.25686	0.28207	0.26554	0.35062	0.042752	0.089377	0.16735	0.033392	0.16015	0.19973	0.24197	0.18597	-2.625	-3.2354	-3.1792	-3.2729	-3.3521	-3.1833	-3.4917	-3.3729	-3.05	-3.5917	-3.3167	-3.3063	-3.6104	-3.1042	-3.3604	-3.375	138.729	-27.467	61.312	43.334	50.634	164.937	271.619	235.843	236.211	-37.515	13.364	225.129	176.425	5.075	36.500	214.107	0.00017417	0.00039107	6.461e-05	701.18	3.8316e-06	4.1883e-06	520.64	197.85	2.6217e-06	4.9176e-06	181.67	80.824	79.967	33.59	4.6394e-06	40.052	0.0007594	0.00081554	0.00023096	691.27	8.9692e-06	9.157e-06	514.89	195.99	8.7943e-06	8.9735e-06	181.46	80.757	79.9	33.563	9.0767e-06	39.964	137.611	66.382	-8.325	-45.644	91.230	63.223	-47.076	-40.546	142.447	99.250	-43.345	-39.584	-36.871	-31.893	136.730	-35.418	-8191	255	
1997.528	1	1	0	0	0.14813	0.21832	0.095311	0.1208	0.068255	0.27137	0.42158	0.11571	0.10621	0.076809	0.36119	0.12753	0.35879	0.20285	0.2524	0.17147	-2.7979	-3.4708	-3.0125	-3.2646	-3.2146	-3.225	-3.4021	-3.4729	-3.0729	-3.4833	-3.2771	-3.2875	-3.6583	-3.3	-3.3854	-3.4813	213.709	73.452	14.327	292.062	161.211	164.685	227.800	-27.167	62.444	49.240	195.133	191.686	285.371	241.222	-9.700	209.467	0.00016173	0.00032463	0.00012638	715.58	5.4735e-06	4.395e-06	528.38	201.69	2.0107e-06	3.8403e-06	183.71	82.108	80.426	33.809	2.2544e-06	40.343	0.00075068	0.00082232	0.00023544	705.77	9.0712e-06	9.316e-06	524.35	199.77	8.8673e-06	9.1497e-06	183.13	81.539	80.433	33.73	9.0673e-06	40.332	118.081	-17.861	-2.368	-45.995	-26.022	51.554	-47.135	-40.962	-22.178	93.382	-43.505	-39.357	-36.388	-32.126	56.673	-35.310	-8191	255	
1997.623	1	1	0	0	0.22123	0.1896	0.10949	0.13407	0.094722	0.085527	0.075647	0.19947	0.016918	0.15007	0.13722	0.2711	0.18455	0.2415	0.14465	0.1523	-2.5292	-3.5812	-3.2958	-3.2	-3.5104	-3.1208	-3.2979	-3.5812	-3.1646	-3.4167	-3.3	-3.1833	-3.6562	-3.2313	-3.1937	-3.5292	4.640	88.226	199.545	209.193	22.430	232.108	-36.034	63.066	214.076	203.955	262.539	252.413	205.851	-18.225	300.662	206.478	0.00014157	0.00038774	2.0205e-05	723.86	1.3784e-06	1.9045e-06	536.63	202.95	2.9164e-06	2.9371e-06	184.06	82.061	80.53	33.89	2.4987e-06	40.275	0.00075914	0.00083457	0.0002355	711.08	8.9822e-06	9.2687e-06	529.69	200.47	9.188e-06	9.4121e-06	184.18	81.735	80.467	33.725	9.2308e-06	40.161	124.787	9.875	183.320	-45.946	206.392	157.066	-46.741	-40.767	86.208	73.072	-43.518	-39.164	-36.681	-31.950	107.657	-34.912	-8191	255	
1997.719	1	1	0	0	0.1426	0.26732	0.06939	0.25027	0.17631	0.12576	0.10966	0.11187	0.040528	0.047344	0.42595	0.13683	0.081445	0.12954	0.21918	0.34823	-2.6042	-3.5312	-3.3146	-3.1813	-3.6208	-3.3	-3.4104	-3.5396	-3.1583	-3.3625	-3.3917	-3.1021	-3.4333	-3.2417	-2.9854	-3.5417	193.728	192.995	159.371	285.093	153.401	132.736	260.518	245.737	185.076	121.955	-38.551	48.910	229.278	243.528	299.746	270.125	0.00013282	0.00028716	5.5138e-05	715.98	2.1446e-06	5.499e-06	530.41	201.67	1.4968e-06	3.1823e-06	182.27	81.206	79.928	33.856	2.5161e-06	40.71	0.00077862	0.00086221	0.00023937	704.2	9.1148e-06	9.4602e-06	522.21	199.17	9.3326e-06	9.4532e-06	182.98	81.565	80.094	33.815	9.6938e-06	40.55	118.097	-32.336	56.635	-45.945	57.919	109.532	-47.273	-40.789	241.936	56.930	-43.256	-39.287	-36.945	-31.981	-10.483	-35.354	-8191	255	
1997.839	1	1	0	0	0.071948	0.21425	0.10796	0.13204	0.085212	0.14655	0.22843	0.27981	0.073247	0.24145	0.17766	0.20061	0.23862	0.3689	0.11308	0.030057	-2.7667	-3.2542	-3.4333	-3.3083	-3.3187	-3.45	-3.3833	-3.4188	-3.1104	-3.2896	-3.375	-3.2292	-3.4729	-3.4313	-3.1458	-3.5729	94.464	-44.386	154.344	266.394	57.795	92.076	49.743	102.555	37.826	157.657	-35.207	27.944	253.362	243.306	4.397	159.118	0.0002441	0.00041885	5.3495e-05	715.02	4.201e-06	4.0818e-06	533.35	201.37	2.8219e-06	4.5782e-06	186.13	83.469	79.942	34.237	1.2137e-06	41.929	0.00079791	0.00087152	0.00024953	702.98	9.6992e-06	9.9305e-06	527.42	199.56	9.5607e-06	9.9093e-06	186.92	83.273	80.229	34.222	9.9708e-06	41.779	138.408	14.388	-6.789	-45.699	138.120	114.763	-46.958	-40.827	151.843	94.244	-43.697	-39.395	-37.143	-32.427	101.028	-35.433	-8191	255	
1997.935	1	1	0	0	0.15864	0.037668	0.26985	0.28603	0.14774	0.27923	0.24991	0.07006	0.30016	0.15552	0.31368	0.21408	0.2418	0.10723	0.10418	0.17511	-2.7604	-3.3688	-3.4313	-3.0438	-3.2833	-3.3542	-3.2583	-3.4292	-3.2792	-3.2229	-3.4479	-3.1	-3.3917	-3.2917	-2.925	-3.4417	51.985	281.946	-39.468	238.234	267.103	170.002	162.994	300.207	218.741	283.635	267.588	300.693	264.254	238.640	9.399	218.093	0.00012456	0.00060105	5.2058e-05	715.41	1.9347e-06	2.7083e-06	538.52	203.48	2.976e-06	4.2836e-06	187.57	83.825	81.127	34.144	6.8563e-06	40.65	0.00082185	0.00090671	0.0002536	703.69	9.7354e-06	9.8053e-06	534.26	201.35	9.5662e-06	9.7211e-06	188.3	83.613	81.373	34.158	9.5096e-06	40.546	125.078	-4.714	72.670	-45.907	124.757	213.532	-46.993	-40.490	58.274	97.972	-42.519	-39.306	-36.817	-31.893	100.620	-35.385	-8191	255	
1998.032	1	1	0	0	0.1477	0.026587	0.16547	0.093756	0.39037	0.054868	0.18584	0.15457	0.15579	0.35875	0.063501	0.32183	0.36935	0.18029	0.23214	0.2093	-2.6333	-3.3229	-3.3271	-3.1104	-3.1708	-3.3	-3.1813	-3.4792	-3.1188	-3.2083	-3.6854	-3.2083	-3.4479	-3.3271	-3.1437	-3.4813	18.423	-56.576	87.901	5.961	299.465	140.796	206.384	260.361	6.664	225.441	-6.874	229.518	16.956	136.617	69.026	140.888	0.00015283	0.00032685	9.4069e-05	730.85	5.4107e-06	5.2986e-06	528.97	203.83	2.9757e-06	5.1077e-06	183.26	81.666	80.765	33.924	2.3941e-06	40.076	0.0007994	0.00088448	0.00024478	716.32	9.5208e-06	9.7362e-06	524.26	201.6	9.8568e-06	9.9539e-06	183.67	81.527	80.944	33.881	9.8947e-06	40.133	120.764	279.896	30.061	-45.780	131.688	73.458	-47.026	-40.716	61.048	99.359	-43.205	-39.210	-36.706	-32.238	48.684	-35.247	-8191	255	
1998.128	1	1	0	0	0.18311	0.10845	0.15892	0.238	0.24889	0.14085	0.1192	0.046985	0.26765	0.38304	0.2161	0.17807	0.43343	0.25833	0.13158	0.11931	-2.8625	-2.9625	-3.4625	-3.2917	-3.3146	-3.4146	-3.1604	-3.3937	-3.1833	-3.2042	-3.5042	-3.3208	-3.2896	-3.3521	-3.0104	-3.3479	91.091	17.232	-18.061	49.053	-23.311	-38.299	166.224	141.352	107.833	3.960	7.343	238.157	262.672	80.937	293.702	186.359	0.00013921	0.00058234	3.7936e-05	720.57	5.4208e-06	3.8612e-06	528.6	201.96	9.8551e-07	1.405e-06	183.16	82.534	80.729	34.035	4.43e-06	40.451	0.00081996	0.00091604	0.00025104	709.6	9.711e-06	1.0049e-05	523.99	200.36	9.7786e-06	1.0207e-05	184.76	82.31	80.679	33.948	1.007e-05	40.466	147.960	33.140	39.824	-45.877	51.986	74.674	-47.436	-40.696	-14.212	119.834	-43.321	-39.380	-36.507	-32.221	78.870	-35.160	-8191	255	
1998.224	1	1	0	0	0.086008	0.12126	0.22526	0.078053	0.042947	0.087115	0.094977	0.41995	0.22265	0.20057	0.12922	0.1571	0.26117	0.065852	0.037908	0.26719	-2.7979	-2.9562	-3.4062	-3.2542	-3.3	-3.3167	-3.1417	-3.3708	-3.4042	-3.1125	-3.4479	-3.1625	-3.2396	-3.3792	-3.1917	-3.4437	-47.105	73.380	62.401	130.897	157.637	269.047	235.676	172.531	266.188	-46.494	141.182	83.301	201.584	136.079	49.611	107.434	0.00013478	0.00014273	0.00016189	723.48	5.6738e-06	5.5167e-06	533.21	203.6	2.4407e-06	3.0998e-06	187.26	82.313	81.422	34.106	4.1294e-06	40.375	0.00081929	0.0009103	0.00025735	712.08	9.8143e-06	9.9148e-06	530.24	202.1	9.8072e-06	1.003e-05	186.67	82.48	81.316	34.032	1.0223e-05	40.49	127.735	266.647	48.712	-45.989	130.267	94.086	-47.215	-40.643	73.863	79.460	-43.441	-39.533	-36.945	-31.949	95.791	-35.168	-8191	255	
1998.320	1	1	0	0	0.13071	0.014729	0.15084	0.20054	0.13951	0.095663	0.24795	0.048027	0.36873	0.20788	0.12014	0.15615	0.36283	0.21221	0.23688	0.17945	-2.9313	-2.9396	-3.4188	-3.0729	-3.1708	-3.4562	-3.0938	-3.5042	-3.3021	-3.1354	-3.5208	-3.1188	-3.1417	-3.6146	-3.0792	-3.1104	202.671	172.127	-11.831	-45.092	153.620	211.950	-28.800	29.222	192.309	94.018	149.561	248.304	222.546	245.003	160.723	171.917	0.0001646	0.0006245	0.00011293	728.02	7.2735e-06	7.527e-06	529.66	204.66	1.7574e-06	7.1333e-06	183.54	81.185	80.927	33.535	6.6453e-07	39.318	0.00085049	0.00095644	0.0002629	717.58	1.0224e-05	1.0502e-05	524.41	202.93	1.0205e-05	1.0513e-05	183.63	81.465	81.436	33.619	1.0097e-05	39.272	118.508	-4.868	27.707	-45.722	78.752	80.090	-46.928	-40.677	92.290	135.595	-43.304	-39.499	-36.689	-31.964	269.212	-35.420	-8191	255	
1998.416	1	1	0	0	0.12503	0.091597	0.12751	0.093449	0.056829	0.23561	0.095009	0.11556	0.16071	0.26004	0.24208	0.24056	0.15343	0.24766	0.14659	0.053779	-3.1292	-3.1083	-3.4688	-3.0563	-3.0354	-3.5062	-3.2104	-3.4562	-3.4708	-3.1833	-3.5	-3.4062	-3.1437	-3.4167	-3.2979	-3.3667	44.327	107.542	152.651	138.986	120.654	139.587	213.968	182.457	93.101	0.565	-22.719	184.553	277.766	216.432	201.321	280.149	0.00017699	0.00071346	0.00014949	725.95	4.3368e-06	3.1037e-06	530.48	203.3	2.6609e-06	5.6094e-06	183.18	81.708	81.222	33.969	3.2677e-06	40.058	0.00081953	0.00090573	0.00025431	715.92	9.7753e-06	9.8155e-06	522.76	201.66	9.7495e-06	9.8084e-06	183.44	81.414	81.086	33.847	9.7315e-06	39.909	125.287	36.200	21.938	-46.159	297.171	5.460	-47.175	-40.583	160.984	133.050	-43.485	-39.403	-36.845	-32.234	106.091	-35.209	-8191	255	
1998.537	1	1	0	0	0.1799	0.010901	0.36107	0.02702	0.18255	0.10993	0.17406	0.18211	0.035786	0.071538	0.14451	0.25996	0.20367	0.13849	0.308	0.19752	-3.1458	-2.8833	-3.4125	-3.4833	-3.2646	-3.3521	-3.3021	-3.425	-3.3917	-3.1375	-3.4875	-3.5458	-3.1958	-3.4771	-3.1292	-3.1979	29.223	120.221	209.783	243.020	-10.127	137.064	-6.900	263.685	134.870	264.664	176.626	156.609	-21.950	260.997	97.827	-24.279	0.00013128	0.00042815	5.0288e-05	715.58	2.8789e-06	6.417e-06	531.9	201.86	3.7523e-06	1.4915e-06	186.86	83.112	81.166	34.097	4.955e-07	40.998	0.00078076	0.00085901	0.00024471	706.08	9.2066e-06	9.284e-06	525.24	200.08	9.099e-06	9.3211e-06	186.04	82.566	81.031	34.075	9.2277e-06	40.906	158.788	112.750	71.255	-45.866	101.056	53.220	-47.081	-40.492	42.150	119.588	-43.356	-39.651	-36.741	-31.979	276.829	-35.306	-8191	255	
1998.631	1	1	0	0	0.29914	0.22925	0.093089	0.099779	0.046861	0.091981	0.14608	0.073132	0.17413	0.3981	0.035661	0.24896	0.18273	0.11622	0.10269	0.10113	-3.0771	-3.2521	-3.2333	-3.5833	-3.1396	-3.4333	-3.4375	-3.3667	-3.5146	-3.2729	-3.1958	-3.5917	-3.3063	-3.4729	-3.1604	-3.2083	202.429	11.536	-34.877	248.543	148.460	143.159	145.773	18.142	-8.042	200.819	291.948	260.510	232.502	161.943	284.924	192.118	0.00018599	0.00027999	7.9276e-05	718.6	2.3227e-06	2.3312e-06	537.73	203.4	4.1005e-07	2.3497e-06	184.32	82.361	80.543	33.945	1.9678e-06	40.535	0.00076488	0.00084572	0.00023677	708.64	9.31e-06	9.306e-06	530.68	200.81	9.292e-06	9.5313e-06	184.65	82.14	80.457	33.862	9.2668e-06	40.527	154.487	-39.246	60.724	-45.946	65.943	167.831	-47.077	-40.778	103.574	54.960	-42.843	-38.944	-36.754	-32.289	141.383	-35.483	-8191	255	
1998.727	1	1	0	0	0.15275	0.22046	0.29478	0.041977	0.23362	0.17695	0.16818	0.091651	0.17607	0.23453	0.10304	0.26957	0.10794	0.16093	0.054717	0.23581	-3.0667	-3.3271	-3.2313	-3.4104	-3.0146	-3.4896	-3.4396	-3.2604	-3.6	-3.3333	-3.4375	-3.525	-3.3146	-3.4	-3.2438	-3.3771	-58.599	209.490	181.592	-50.241	158.699	-46.393	254.484	181.741	168.099	269.466	141.910	221.629	158.265	199.852	47.491	248.794	0.00015921	0.00018733	7.2628e-05	711.5	5.4512e-06	8.4714e-06	526.61	199.2	1.7156e-06	7.4183e-06	184.7	81.828	80.145	33.972	2.3008e-06	40.964	0.00077807	0.00084605	0.00023869	698.25	9.1445e-06	9.2751e-06	519.75	197.65	9.0657e-06	9.3236e-06	184.18	81.975	80.033	33.85	9.2108e-06	40.913	128.259	23.906	83.550	-45.763	105.898	91.510	-47.224	-40.626	-8.953	94.096	-42.814	-39.500	-37.088	-32.141	63.274	-35.078	-8191	255	
1998.824	1	1	0	0	0.16393	0.11509	0.24083	0.32999	0.26233	0.097012	0.20647	0.11455	0.17876	0.25368	0.1418	0.12757	0.40738	0.28377	0.19658	0.072568	-3.1292	-3.1937	-3.2292	-3.7021	-3.1375	-3.3292	-3.4813	-3.3771	-3.5146	-3.35	-3.3417	-3.3979	-3.2188	-3.4208	-3.3417	-3.2208	147.756	246.559	2.567	157.149	166.774	163.253	239.937	195.338	-17.300	-26.557	83.824	218.964	253.246	-24.810	27.169	-52.061	0.00013481	0.00020849	0.0001721	710.05	5.4047e-06	3.8982e-06	535.98	201.45	1.9284e-06	4.0423e-06	186.3	83.857	80.516	34.617	3.8061e-06	41.806	0.00076923	0.00083647	0.00023646	698.51	8.9619e-06	9.1614e-06	526.94	198.75	9.0253e-06	9.2443e-06	187.02	83.521	80.606	34.353	9.1586e-06	41.715	125.217	78.958	-4.590	-45.637	118.352	118.051	-46.828	-40.597	69.342	130.576	-43.212	-39.145	-36.776	-32.396	58.350	-34.920	-8191	255	
1998.920	1	1	0	0	0.26217	0.14159	0.22812	0.40438	0.075969	0.14108	0.24498	0.14673	0.093278	0.18437	0.1181	0.1822	0.1894	0.12753	0.13486	0.17716	-3.0396	-3.0979	-3.1625	-3.4958	-3.1312	-3.2646	-3.3854	-3.0604	-3.35	-3.4604	-3.2062	-3.5625	-3.2188	-3.2708	-3.5792	-3.1458	269.782	213.903	214.419	255.949	63.292	170.862	-27.868	300.380	255.769	-16.552	14.263	254.030	196.095	293.767	84.817	-43.070	0.00015748	0.00070535	0.00010574	709.51	4.5169e-06	4.4813e-06	539.06	200.83	5.5636e-07	4.8563e-06	190.91	84.613	80.405	34.802	5.3852e-06	42.751	0.00076096	0.00082973	0.00023795	698.55	8.9666e-06	9.2112e-06	530.49	198.72	8.9042e-06	9.3086e-06	189.85	84.558	80.45	34.601	9.1679e-06	42.467	128.465	1.687	4.906	-45.799	59.610	72.641	-47.061	-40.739	204.226	78.630	-43.384	-39.567	-36.819	-31.929	156.525	-35.273	-8191	255	
1999.016	1	1	0	0	0.061135	0.090355	0.13476	0.3141	0.26052	0.12319	0.1881	0.15556	0.32783	0.061643	0.040795	0.12022	0.098269	0.29412	0.12352	0.085132	-2.9437	-3.3104	-2.9875	-3.5521	-3.2104	-3.2958	-3.4188	-3.1063	-3.3854	-3.3479	-3.2438	-3.4792	-3.2333	-3.2562	-3.4875	-3.1833	197.604	182.267	13.651	277.865	274.875	156.995	229.718	95.628	131.896	90.455	234.004	300.641	209.173	-55.852	-4.373	24.651	0.00013761	0.00013356	0.00019395	699.4	6.042e-06	6.3065e-06	524.32	197.22	5.6712e-06	2.6145e-06	185.93	84.126	78.911	34.352	2.7933e-06	42.468	0.00075748	0.00083045	0.00023478	686.46	9.0487e-06	9.3175e-06	517.89	194.64	8.965e-06	9.0254e-06	186.43	83.878	79.195	34.297	8.9267e-06	42.227	127.246	63.173	15.751	-45.822	95.545	97.015	-47.410	-40.768	121.614	183.645	-43.401	-39.431	-36.881	-32.425	101.789	-35.635	-8191	255	
1999.136	1	1	0	0	0.0026849	0.23165	0.066066	0.078879	0.10829	0.017125	0.32254	0.091561	0.15347	0.056994	0.15263	0.087803	0.038032	0.2424	0.12258	0.1415	-2.9188	-3.1437	-3.1396	-3.3708	-3.2479	-3.3042	-3.5458	-3.1979	-3.2771	-3.4333	-3.1875	-3.5062	-3.1917	-3.2146	-3.4667	-3.1875	96.830	-55.251	127.409	-8.658	17.174	36.290	191.238	271.985	-23.447	213.333	158.983	235.839	174.417	294.490	182.908	97.348	0.00016807	0.00047789	5.1404e-05	695.29	4.2456e-06	4.6547e-06	527.97	197.44	2.0613e-06	2.4366e-06	187.41	84.044	79.265	34.379	5.2711e-06	42.311	0.0007403	0.0008269	0.00022988	684.65	8.8513e-06	9.0823e-06	519.79	195.5	8.7691e-06	9.0715e-06	186.49	83.626	79.3	34.266	8.6507e-06	42.075	118.227	-29.747	-23.867	-45.798	85.350	140.757	-47.426	-40.952	20.128	144.301	-43.502	-39.264	-36.718	-32.101	116.779	-35.604	-8191	255	
1999.233	1	1	0	0	0.14153	0.12047	0.14568	0.19627	0.1338	0.1534	0.13243	0.28552	0.16537	0.17788	0.23972	0.31756	0.21122	0.34158	0.13144	0.10928	-3.0521	-3.2625	-3.0312	-3.325	-3.2833	-3.1292	-3.4833	-3.2646	-3.3625	-3.4521	-3.2687	-3.4875	-3.3771	-3.25	-3.4625	-3.2042	103.155	91.872	7.892	277.347	-12.119	51.983	284.425	288.484	260.756	-50.432	-26.402	248.051	7.586	296.979	266.324	120.295	0.00012642	4.7574e-05	3.321e-05	701.67	2.9164e-06	3.6853e-06	532.44	197.89	1.8591e-06	3.6346e-06	189.09	84.071	80.771	34.834	4.9143e-06	42.536	0.0007349	0.00080548	0.00022671	686.86	8.8242e-06	9.1198e-06	523.58	196.44	8.8147e-06	9.0278e-06	188.57	84.3	80.747	34.705	8.8076e-06	42.308	118.777	-42.817	11.713	-45.729	92.107	85.999	-47.084	-40.571	68.685	93.307	-43.355	-39.302	-36.624	-31.908	127.216	-35.419	-8191	255	
1999.329	1	1	0	0	0.21314	0.11428	0.35319	0.10373	0.092442	0.27203	0.13244	0.20648	0.24957	0.15212	0.17591	0.26112	0.082571	0.095479	0.093645	0.25702	-2.925	-3.5563	-2.9542	-3.4125	-3.3271	-3.1604	-3.6708	-3.2854	-3.375	-3.4896	-3.0312	-3.3771	-3.4188	-3.275	-3.4958	-3.4917	218.059	179.530	228.110	37.298	-18.964	175.354	268.527	254.035	254.281	149.377	247.868	-55.774	168.124	-39.808	123.686	250.829	0.00015922	0.00055836	9.9408e-05	712.84	7.4758e-06	5.1499e-06	532.19	201.05	1.3943e-06	7.6429e-06	185.7	83.819	79.471	34.329	2.3872e-06	42.101	0.00074408	0.00080677	0.00022904	701.21	8.892e-06	8.9382e-06	524.28	197.76	8.948e-06	9.1106e-06	185.69	83.485	79.496	34.21	8.9501e-06	41.964	124.248	78.086	67.196	-45.645	92.487	72.685	-46.942	-40.799	-32.543	121.328	-43.215	-39.368	-36.994	-32.286	115.396	-35.225	-8191	255	
1999.400	1	1	0	0	0.09154	0.077754	0.11834	0.10403	0.20249	0.11779	0.37314	0.2023	0.24178	0.076945	0.14551	0.19506	0.028961	0.17783	0.10348	0.27282	-2.8125	-3.4021	-3.0687	-3.4542	-3.3271	-3.2042	-3.4292	-3.3854	-3.0625	-3.4458	-3.2188	-3.1854	-3.4479	-3.0917	-3.5333	-3.4146	109.872	-11.703	277.717	298.081	-26.823	8.393	182.573	-13.200	287.247	-38.817	179.334	184.222	198.212	233.164	119.002	146.750	0.00017924	0.00032786	0.00010754	700.13	3.637e-06	8.5151e-06	524.95	198.22	3.0316e-06	3.3e-06	187.54	83.862	80.262	34.633	1.6932e-06	42.419	0.00075693	0.00081945	0.00022882	689.2	8.8161e-06	9.1869e-06	518.01	196.96	9.1498e-06	9.2988e-06	187.01	83.902	80.043	34.616	9.1549e-06	42.325	121.902	79.303	-46.549	-45.609	293.631	88.211	-47.153	-40.747	243.913	79.473	-43.616	-39.379	-36.888	-32.251	18.968	-35.201	-8191	255	
1999.521	1	1	0	0	0.3014	0.34094	0.20766	0.098869	0.040623	0.061353	0.20348	0.22774	0.13104	0.1842	0.26634	0.098572	0.19041	0.042697	0.12725	0.24376	-2.7062	-3.2833	-3.1167	-3.4062	-3.5375	-3.2667	-3.525	-3.4313	-3.075	-3.5146	-3.2833	-3.3604	-3.4458	-3.2938	-3.4313	-3.5104	295.812	236.388	118.114	195.803	-50.043	225.425	270.947	224.755	238.013	105.393	167.619	239.145	30.682	230.055	85.937	234.824	0.00018573	0.00041908	6.0705e-05	700.76	2.2227e-06	5.3737e-06	526.52	199.34	3.7566e-06	3.9499e-06	187.45	84	79.574	34.497	2.1121e-06	42.31	0.00076737	0.00083858	0.0002337	690.84	9.0043e-06	9.2706e-06	521.45	196.77	8.9141e-06	9.0853e-06	186.49	83.561	79.821	34.295	9.0535e-06	42.101	130.321	55.892	91.931	-45.727	157.862	117.213	-47.101	-40.675	27.483	87.242	-43.059	-39.249	-37.013	-32.160	121.531	-35.502	-8191	255	
1999.615	1	1	0	0	0.16803	0.13558	0.074658	0.15025	0.15388	0.10892	0.22742	0.17032	0.18632	0.058947	0.20783	0.064277	0.16092	0.24946	0.14928	0.27448	-2.9021	-3.5417	-3.1708	-3.2167	-3.4833	-3.0854	-3.4771	-3.3729	-3.1854	-3.4333	-3.3583	-3.05	-3.5083	-3.3146	-3.1792	-3.4771	151.692	27.478	230.476	232.232	-3.954	81.809	229.597	248.170	263.367	297.738	164.157	227.635	82.615	-28.634	259.132	248.075	0.00012783	0.00060931	6.2107e-05	711.77	4.3712e-06	3.7656e-06	536.25	202.58	2.2848e-06	3.3815e-06	189.54	85.016	80.156	34.454	7.7159e-06	41.888	0.00076431	0.00081798	0.00023765	700.17	9.0873e-06	9.2945e-06	528.13	200.12	9.0361e-06	9.1127e-06	189.54	84.468	80.308	34.322	8.9571e-06	41.846	100.694	0.631	49.738	-45.981	84.023	109.776	-47.137	-40.701	-36.614	122.621	-43.434	-39.385	-37.015	-32.036	64.834	-35.272	-8191	255	
1999.712	1	1	0	0	0.15972	0.037857	0.17418	0.15983	0.20415	0.097469	0.084535	0.11274	0.11796	0.12209	0.10031	0.1921	0.13289	0.24371	0.068163	0.19163	-2.6958	-3.375	-3.2229	-3.2125	-3.425	-3.1937	-3.4917	-3.4208	-3.2021	-3.5333	-3.4125	-3.2021	-3.2896	-3.2458	-3.2958	-3.6771	39.720	15.544	-17.059	-37.371	224.198	70.062	-29.735	84.998	265.911	118.411	200.871	-55.719	202.424	279.047	208.941	-13.511	0.00019079	0.00042295	1.5285e-05	699.21	4.6686e-06	4.0486e-06	520.34	198.96	9.7038e-07	4.7476e-06	188.04	84.693	79.887	34.566	1.3904e-06	42.533	0.00074422	0.00080129	0.00022944	687.54	8.9314e-06	9.1435e-06	516.71	196.17	8.9025e-06	9.1467e-06	188.58	84.3	79.725	34.413	9.0142e-06	42.481	105.139	-13.181	160.442	-45.506	84.313	78.374	-46.942	-40.807	99.736	92.293	-43.142	-39.735	-37.040	-32.063	75.968	-35.428	-8191	255	
1999.808	1	1	0	0	0.25797	0.28262	0.19661	0.2279	0.086253	0.086416	0.29624	0.11089	0.15159	0.20723	0.16965	0.34491	0.12661	0.10194	0.041372	0.15666	-2.5229	-3.425	-3.2875	-3.1854	-3.4958	-3.2104	-3.2542	-3.725	-3.1542	-3.2812	-3.575	-3.1292	-3.5312	-3.3625	-3.1271	-3.3979	-42.599	289.332	-39.699	100.066	91.532	110.640	-20.281	72.710	136.847	-50.341	189.237	251.165	208.897	175.595	91.493	68.497	0.0001228	0.00041831	0.00011973	698.58	2.8878e-06	5.6065e-06	526.63	198.22	3.1742e-06	5.4636e-06	187.28	84.87	78.945	34.565	5.6549e-06	43.107	0.00076323	0.00083636	0.00023067	686.97	8.9165e-06	9.2459e-06	520.48	195.79	8.88e-06	9.1235e-06	187.65	84.337	78.915	34.374	9.2495e-06	43.11	125.620	298.172	-17.420	-46.143	139.090	56.666	-47.096	-40.652	32.915	96.991	-43.215	-39.441	-36.928	-32.336	73.710	-35.414	-8191	255	
1999.928	1	1	0	0	0.055921	0.047853	0.080686	0.26108	0.12506	0.18128	0.10152	0.17392	0.19121	0.045109	0.40955	0.18192	0.16203	0.14874	0.13798	0.21195	-2.5854	-3.2062	-3.2188	-3.1479	-3.3833	-3.2646	-3.45	-3.4667	-3.1146	-3.2438	-3.5771	-3.1417	-3.4667	-3.4104	-3.2125	-3.5479	12.461	227.929	151.087	234.809	137.448	-25.400	217.583	247.108	176.393	-57.083	206.085	295.385	3.338	131.596	139.458	246.730	0.00020635	0.00011115	0.00012619	694.57	4.1252e-06	6.8024e-06	529.53	199.63	2.5485e-06	4.703e-06	189.53	85.03	79.374	34.571	2.7464e-06	42.893	0.0007768	0.00085199	0.00024014	683.16	8.9616e-06	9.0226e-06	525.36	197.36	8.7065e-06	9.0288e-06	189.26	84.695	79.349	34.256	8.9314e-06	42.607	128.897	-0.068	42.917	-45.856	84.877	89.067	-46.894	-41.138	82.695	-14.280	-43.533	-39.194	-37.084	-32.077	72.509	-35.459	-8191	255	
2000.025	1	1	0	0	0.0203	0.075358	0.14968	0.16553	0.15348	0.12646	0.16633	0.11305	0.041552	0.096719	0.1598	0.07599	0.34536	0.42513	0.097113	0.11659	-2.775	-3.3229	-3.4562	-3.0438	-3.3187	-3.4479	-3.1688	-3.3896	-3.1167	-3.1771	-3.4833	-3.1708	-3.3833	-3.1562	-3.0667	-3.3	-53.821	-39.560	15.126	238.180	196.986	72.929	267.240	-46.955	-44.028	161.762	168.435	190.862	301.142	262.332	111.544	171.911	0.00018868	0.0002933	5.8246e-05	692.26	3.1085e-06	1.6495e-06	521.3	198.38	1.1868e-06	6.5407e-06	185.79	83.445	79.633	34.074	2.1384e-06	41.818	0.00075298	0.00082126	0.0002282	684.03	8.9297e-06	9.0017e-06	515.53	195.68	8.7635e-06	9.0205e-06	185.31	83.171	79.331	33.921	8.768e-06	41.568	133.854	47.213	37.847	-45.885	103.103	289.116	-46.987	-40.750	-0.769	111.259	-43.409	-39.285	-36.934	-32.105	-30.188	-35.501	-8191	255	
2000.096	1	1	0	0	0.22251	0.093908	0.21039	0.46148	0.42515	0.13452	0.036327	0.14199	0.11639	0.22342	0.17577	0.14402	0.21162	0.26501	0.23925	0.22397	-2.8563	-3.1729	-3.4708	-3.2833	-3.2979	-3.2646	-3.2021	-3.5146	-3.2125	-3.1562	-3.5271	-3.3312	-3.2875	-3.3833	-3.1229	-3.5646	196.629	279.763	179.935	262.785	63.053	250.051	220.676	256.227	288.434	-6.272	1.746	300.159	-57.425	280.480	8.302	266.781	0.00023357	6.2312e-05	8.201e-05	697.34	1.3142e-06	5.3715e-06	517.73	196.17	7.5767e-07	7.6392e-06	185.56	83.167	78.823	33.97	2.6494e-06	41.98	0.00074374	0.00080997	0.00022206	683.11	8.6674e-06	8.9708e-06	512.08	194.07	8.5622e-06	8.9573e-06	184.67	82.933	78.695	33.799	8.8175e-06	41.808	130.228	95.510	53.717	-46.051	99.236	130.418	-47.105	-40.662	14.492	56.453	-43.775	-39.375	-36.913	-32.282	62.259	-35.400	-8191	255	
2000.217	1	1	0	0	0.29853	0.22605	0.11289	0.12278	0.10653	0.16287	0.15882	0.17412	0.19723	0.20342	0.064987	0.10226	0.32594	0.22703	0.10254	0.1181	-2.8333	-3.1646	-3.4021	-3.2313	-3.3125	-3.4062	-3.0104	-3.4417	-3.2812	-3.2604	-3.3875	-3.0875	-3.0458	-3.5479	-3.0708	-3.4521	244.621	35.019	-35.895	252.791	24.656	74.001	-50.804	269.950	36.415	197.617	237.194	160.416	0.754	-25.072	-22.620	111.472	0.00016517	0.00063752	0.00013228	690.96	1.3088e-06	3.8653e-06	523.35	195.48	2.1184e-06	5.4656e-06	185.78	84.069	78.322	34.218	4.2251e-06	43.427	0.00071278	0.00079617	0.00021953	681.09	8.6085e-06	8.8177e-06	516.52	193.35	8.6884e-06	9.0023e-06	185.96	84.205	78.324	34.064	8.9673e-06	43.065	143.269	75.857	-12.730	-45.631	108.267	98.437	-47.509	-40.758	109.993	127.331	-42.896	-39.430	-37.090	-32.006	114.474	-35.200	-8191	255	
2000.313	1	1	0	0	0.047834	0.074043	0.41722	0.28007	0.055187	0.066343	0.23172	0.21991	0.11262	0.18553	0.43822	0.098106	0.23387	0.16167	0.082588	0.13282	-3.0792	-3.0729	-3.5563	-3.1875	-3.2833	-3.4854	-3.0896	-3.4979	-3.3396	-3.2396	-3.4771	-3.4521	-3.4083	-3.5875	-3.0583	-3.4458	-34.965	10.302	-57.622	253.429	25.476	225.939	170.111	31.566	264.312	-21.603	163.826	138.691	143.997	233.821	159.998	259.264	0.0001508	0.000326	6.4417e-05	683.29	3.3517e-06	3.3229e-06	520.52	193.67	4.457e-06	3.7056e-06	187.33	84.604	77.35	33.998	4.5723e-06	43.378	0.00075749	0.000815	0.00023163	672.7	8.8814e-06	9.1131e-06	517.81	191.93	8.8604e-06	9.1132e-06	186.15	84.293	77.429	33.866	9.1034e-06	43.104	136.007	259.859	34.022	-45.908	116.877	87.807	-47.070	-41.074	47.949	42.829	-43.466	-39.407	-37.252	-32.270	113.829	-35.657	-8191	255	
2000.409	1	1	0	0	0.069711	0.11813	0.22161	0.27834	0.065216	0.10161	0.14102	0.088769	0.13132	0.16336	0.13121	0.083142	0.096989	0.1993	0.1624	0.23288	-3.0396	-3.15	-3.4021	-3.425	-3.2417	-3.6583	-3.2083	-3.2667	-3.2938	-3.1896	-3.375	-3.2854	-3.2458	-3.4354	-3.0604	-3.25	-43.645	18.769	143.109	254.141	199.633	164.534	203.077	2.848	163.358	197.170	82.713	250.350	239.334	231.016	179.650	212.407	0.00013148	0.00076553	0.00010938	669.86	3.1096e-06	3.1166e-06	517.39	192.31	3.24e-06	7.9389e-06	188.29	85.204	76.633	34.151	3.4827e-06	44.094	0.00075858	0.00083204	0.00023504	660.99	9.1822e-06	9.2087e-06	510.42	190.44	9.217e-06	9.537e-06	187.51	84.783	76.873	33.954	9.4806e-06	44.015	143.639	2.196	-3.109	-45.600	157.715	94.875	-47.032	-40.504	75.650	112.808	-43.141	-39.496	-37.133	-32.481	100.447	-35.350	-8191	255	
2000.505	1	1	0	0	0.11761	0.051627	0.20647	0.14773	0.14297	0.14633	0.17549	0.45052	0.1662	0.22186	0.060523	0.308	0.34499	0.32204	0.063499	0.24039	-3.1271	-3.2417	-3.4667	-3.4229	-3.1458	-3.4813	-3.4458	-3.2042	-3.3646	-3.1542	-3.4938	-3.3271	-3.0563	-3.4229	-3.2417	-3.3354	40.220	188.968	-27.931	22.801	155.736	7.109	191.658	220.076	31.125	49.698	210.584	9.307	258.155	235.708	178.576	193.272	0.00021418	0.00062517	0.00010031	665.46	4.7021e-06	2.7533e-06	523.94	190.26	1.3035e-06	2.2485e-06	190.82	86.358	77.467	34.753	2.8769e-06	45.269	0.0008002	0.0008761	0.00024786	655.29	9.734e-06	1.0001e-05	515.08	189.04	9.5064e-06	9.9257e-06	191.18	86.374	77.756	34.629	9.9002e-06	45.109	122.607	37.645	32.672	-45.621	-5.920	143.974	-47.368	-41.093	123.651	149.435	-43.102	-39.139	-36.750	-32.545	99.703	-35.113	-8191	255	
2000.624	1	1	0	0	0.067448	0.21685	0.22513	0.2118	0.083253	0.14823	0.13329	0.17587	0.18742	0.13842	0.24109	0.10592	0.1585	0.18093	0.051295	0.18466	-3.0458	-2.9708	-3.4229	-3.3417	-3.1354	-3.5771	-3.3	-3.1458	-3.5521	-3.1229	-3.3458	-3.4604	-3.1125	-3.6396	-3.2812	-3.2125	281.390	87.926	87.027	-17.378	220.832	287.049	245.185	-23.292	59.341	30.740	241.644	101.320	294.187	244.682	-57.205	-41.074	0.000163	0.00028733	9.5785e-05	676.21	6.0157e-06	1.889e-06	532.04	195.65	1.9884e-06	1.2291e-06	194.76	88.111	79.135	35.135	2.59e-06	45.581	0.00082784	0.00089928	0.00025483	664.16	9.8449e-06	1.0041e-05	525.95	193.87	1.004e-05	1.0242e-05	195.11	88.068	79.445	35.101	1.0219e-05	45.396	135.279	14.544	42.874	-45.760	122.400	123.618	-47.075	-40.743	123.776	-22.413	-43.125	-39.608	-37.114	-32.237	32.332	-35.534	-8191	255	
2000.696	1	1	0	0	0.059615	0.17177	0.10028	0.20043	0.11311	0.054547	0.057912	0.17594	0.12812	0.039618	0.28426	0.13353	0.25144	0.23294	0.11216	0.2159	-3.0187	-3.1479	-3.4229	-3.3542	-3.0042	-3.4042	-3.2625	-3.2146	-3.5625	-3.1792	-3.2979	-3.4208	-3.1542	-3.4875	-3.3729	-3.1833	53.685	138.849	174.260	-22.821	108.078	-39.201	90.282	191.879	278.584	230.750	138.834	-28.714	276.578	299.562	289.468	276.231	0.0002337	0.00051288	0.0001366	677.82	1.496e-06	4.8064e-06	524.51	195.26	4.0496e-06	8.4533e-06	190.97	87.583	78.815	35.116	5.675e-06	45.327	0.00084821	0.00093225	0.00026336	667.53	1.0139e-05	1.0465e-05	517.65	193.7	1.0339e-05	1.0454e-05	191.85	87.365	79.056	35.007	1.0875e-05	45.302	102.285	3.818	29.511	-46.027	8.918	210.363	-47.146	-40.878	37.146	38.409	-43.058	-39.255	-36.929	-32.436	142.553	-35.470	-8191	255	
2000.816	1	1	0	0	0.28314	0.15091	0.17254	0.1595	0.20327	0.17341	0.21509	0.081921	0.12427	0.16664	0.11491	0.11138	0.088153	0.18213	0.065293	0.17025	-3.1333	-3.1063	-3.2583	-3.5625	-3.1937	-3.3896	-3.4229	-3.3146	-3.45	-3.2896	-3.1833	-3.5354	-3.2417	-3.4271	-3.5583	-3.0458	117.547	81.484	-28.800	245.412	166.794	200.780	221.149	79.335	205.134	-7.481	271.437	285.732	-7.202	207.252	-41.082	216.708	0.00022328	0.00017017	0.00015741	667.06	3.7655e-06	9.4901e-06	520.12	192.28	2.1574e-06	5.9631e-06	190.41	87.633	77.793	35.184	2.6593e-06	45.903	0.00088992	0.00098129	0.00027781	657.54	1.0583e-05	1.1012e-05	515.48	190.37	1.0466e-05	1.0939e-05	191.93	87.594	78.52	35.202	1.0903e-05	45.975	133.124	-20.357	57.112	-45.893	48.989	59.008	-47.400	-40.926	54.071	124.203	-43.492	-39.236	-37.036	-32.396	135.648	-35.767	-8191	255	
2000.913	1	1	0	0	0.41231	0.13664	0.1258	0.10456	0.077891	0.16296	0.16575	0.2475	0.077071	0.13699	0.059909	0.086449	0.13312	0.18041	0.18172	0.045504	-2.9896	-3.1521	-3.1583	-3.475	-3.125	-3.2792	-3.4333	-3.1917	-3.3646	-3.3354	-3.0625	-3.5875	-3.2979	-3.2833	-3.4729	-3.1771	255.525	103.073	264.470	178.296	121.283	-0.550	-21.302	226.932	-6.027	155.892	177.916	269.855	295.000	233.960	295.615	276.348	0.00014262	0.0003823	1.9246e-05	666.87	4.3747e-06	4.2856e-06	524.14	194.08	4.6632e-06	3.8211e-06	193.99	89.025	79.429	35.285	3.5296e-07	46.271	0.00090821	0.0010189	0.00028904	660.25	1.1054e-05	1.13e-05	520.32	192.99	1.0831e-05	1.1205e-05	194.79	88.839	79.431	35.342	1.0809e-05	46.1	134.870	134.526	64.960	-45.915	63.183	2.248	-46.906	-40.750	105.828	139.962	-43.122	-39.123	-37.018	-31.864	62.473	-35.594	-8191	255	
2001.009	1	1	0	0	0.12916	0.11865	0.12267	0.4054	0.119	0.15386	0.19664	0.13503	0.15412	0.19348	0.12776	0.20517	0.19322	0.36161	0.23466	0.15703	-3.0187	-3.1583	-3.1833	-3.3917	-3.1854	-3.1104	-3.4542	-3.1312	-3.325	-3.4375	-3.2438	-3.5917	-3.3438	-3.4833	-3.4125	-3.2438	23.278	229.041	173.003	248.206	-48.460	192.103	-53.589	208.665	273.579	65.932	203.981	95.555	221.368	-57.372	206.563	252.563	0.00019077	0.0004279	0.00018862	674.21	2.9235e-06	4.1052e-06	522.02	195.29	5.0392e-06	5.0259e-06	192.29	87.993	78.661	35.165	3.9564e-06	45.785	0.00090773	0.00099662	0.00028207	665.22	1.0652e-05	1.1076e-05	519.13	193.57	1.0857e-05	1.1178e-05	192.83	88.123	79.196	35.225	1.0982e-05	45.707	127.583	10.418	8.529	-45.668	146.416	123.958	-46.894	-40.859	110.142	96.161	-43.695	-38.987	-36.703	-32.417	128.978	-35.565	-8191	255	
2001.105	1	1	0	0	0.0029641	0.060702	0.19157	0.080869	0.036961	0.24849	0.1291	0.11401	0.12803	0.37134	0.20356	0.21385	0.17484	0.013484	0.071338	0.05186	-3.15	-3.4542	-3.2958	-3.5187	-3.1583	-3.2188	-3.6	-3.1813	-3.4437	-3.3292	-3.2417	-3.6104	-3.4292	-3.2917	-3.4958	-3.1188	215.166	91.139	288.923	195.171	157.236	297.892	122.050	258.647	182.574	248.061	-21.758	263.615	276.695	288.606	102.954	151.186	0.00014412	0.00075285	9.1861e-05	665.43	3.3105e-06	5.2989e-06	518.22	192.95	6.5293e-06	6.1412e-06	192.96	87.736	78.881	35.236	4.3215e-06	46.139	0.00090275	0.00098726	0.00028293	659.22	1.0902e-05	1.1128e-05	513.9	192.28	1.093e-05	1.1258e-05	194.41	88.331	79.12	35.294	1.1189e-05	46.137	127.740	-25.623	-14.169	-45.928	-43.154	29.832	-47.415	-40.585	54.924	47.213	-43.333	-39.958	-36.942	-32.179	64.549	-35.718	-8191	255	
2001.226	1	1	0	0	0.26721	0.28881	0.1507	0.12581	0.01215	0.1042	0.13781	0.023987	0.027506	0.20209	0.08978	0.18833	0.22558	0.30137	0.1685	0.16439	-2.9813	-3.3083	-3.1521	-3.425	-3.2667	-3.3458	-3.6562	-3.3646	-3.4062	-3.5042	-3.3021	-3.3875	-3.4646	-3.1521	-3.5146	-3.2521	220.480	247.498	232.300	281.427	218.646	296.856	293.377	11.028	-52.080	100.353	278.399	254.699	178.001	-33.499	127.663	229.170	0.00016539	0.00075134	0.00017485	672.14	3.9541e-06	3.3157e-06	525.28	196.87	5.8701e-06	3.1739e-06	196.3	88.943	80.145	35.795	5.8296e-06	46.31	0.00094529	0.0010429	0.000291	662.71	1.1112e-05	1.1527e-05	521.18	195.24	1.1084e-05	1.1325e-05	196.65	89.226	80.633	35.676	1.0948e-05	46.068	109.151	3.732	66.540	-45.877	79.216	36.099	-47.179	-40.610	104.209	23.929	-43.118	-39.506	-36.981	-32.452	39.374	-35.252	-8191	255	
2001.322	1	1	0	0	0.23391	0.10795	0.094782	0.10954	0.23149	0.025121	0.056189	0.21126	0.094916	0.15516	0.091386	0.034057	0.15866	0.075791	0.053189	0.22591	-2.9625	-3.4917	-3.1042	-3.6188	-3.5292	-3.2021	-3.5792	-3.2812	-3.2604	-3.5833	-3.1771	-3.4813	-3.4562	-3.0396	-3.6208	-3.2729	123.979	206.101	8.237	159.943	65.691	62.693	-42.360	90.583	162.079	194.609	243.477	123.356	280.252	147.870	296.506	222.332	0.00012431	0.00051824	0.00018904	691.49	1.5113e-06	5.6837e-06	532.4	201.34	1.0541e-06	8.6887e-06	198.37	89.357	80.969	35.75	2.072e-06	45.655	0.00090889	0.0010044	0.00028454	681.44	1.0921e-05	1.1339e-05	528.68	199.6	1.0993e-05	1.125e-05	198.53	89.488	81.491	35.713	1.1006e-05	45.574	116.022	5.589	81.195	-45.813	177.592	36.712	-46.794	-40.645	-48.547	102.394	-42.766	-39.346	-37.327	-32.232	173.044	-35.397	-8191	255	
2001.393	1	1	0	0	0.025392	0.14586	0.1138	0.12333	0.10491	0.11181	0.13318	0.18133	0.21128	0.16381	0.29913	0.041391	0.033246	0.18548	0.047816	0.11306	-2.9938	-3.5062	-3.2375	-3.4271	-3.5042	-3.3042	-3.525	-3.4375	-3.3833	-3.4479	-3.2667	-3.4042	-3.5396	-3.2292	-3.3333	-3.3417	-18.463	-57.861	58.541	41.490	268.427	-8.008	198.780	222.216	44.646	-11.129	287.986	227.125	15.783	204.078	142.276	172.290	0.00015651	0.00057012	0.00015441	681	2.9535e-06	4.5816e-06	522.35	198.39	1.6323e-06	6.3115e-06	194.85	88.354	80.423	35.577	4.043e-06	45.554	0.00093853	0.0010058	0.00028971	673.94	1.1145e-05	1.1672e-05	519.01	197.24	1.1083e-05	1.1312e-05	195.9	88.32	80.773	35.509	1.0805e-05	45.461	150.875	-2.862	75.694	-45.761	93.924	113.869	-47.240	-40.875	7.634	110.804	-43.423	-39.610	-36.955	-32.460	-5.534	-35.541	-8191	255	
2001.490	1	1	0	0	0.15912	0.14332	0.10944	0.38044	0.077689	0.21084	0.36311	0.095389	0.21169	0.043438	0.094905	0.20917	0.12882	0.092122	0.16748	0.034266	-2.75	-3.3917	-3.225	-3.2687	-3.5542	-3.3542	-3.4354	-3.4417	-3.2917	-3.5521	-3.225	-3.4021	-3.7062	-3.2271	-3.4375	-3.4333	96.538	227.721	290.506	-46.491	91.330	100.035	263.776	184.922	186.415	92.026	-39.665	129.208	245.581	251.370	246.745	22.535	0.00020194	0.00065615	4.9851e-05	686.78	5.7499e-06	1.937e-06	528.06	200.07	1.4218e-06	6.4131e-06	196.34	88.909	81.077	35.717	3.5009e-06	45.426	0.00089722	0.0009898	0.00028317	678.93	1.0758e-05	1.1118e-05	523.59	198.48	1.0655e-05	1.1037e-05	196.25	88.586	81.392	35.619	1.0752e-05	45.408	105.333	61.273	77.062	-45.965	31.302	101.958	-47.209	-40.652	-41.675	61.984	-43.272	-39.293	-36.975	-32.105	143.945	-35.159	-8191	255	
2001.586	1	1	0	0	0.17914	0.12848	0.19194	0.08837	0.13828	0.17631	0.25431	0.20864	0.14398	0.13342	0.11465	0.26744	0.20016	0.18226	0.11929	0.21205	-2.7479	-3.4479	-3.1958	-3.2375	-3.5938	-3.1292	-3.4125	-3.4313	-3.0417	-3.5125	-3.2917	-3.3208	-3.6167	-3.1125	-3.3979	-3.4354	2.964	173.835	256.493	-53.856	169.210	194.669	271.838	175.943	4.264	173.504	248.936	287.771	190.974	268.358	63.105	-31.435	0.0001942	0.00053659	4.7986e-05	696.74	5.0285e-07	5.012e-06	535.01	202.74	3.9335e-06	4.7208e-06	198.45	88.776	80.945	35.864	1.4641e-06	45.854	0.00090101	0.00097809	0.00028348	688.57	1.0754e-05	1.1053e-05	529.97	200.96	1.0713e-05	1.1001e-05	199.4	89.381	81.614	35.863	1.0843e-05	45.749	140.165	-46.417	-27.276	-45.664	224.538	23.230	-47.171	-40.854	187.340	83.604	-43.247	-39.210	-36.612	-32.446	144.831	-35.323	-8191	255	
2001.705	1	1	0	0	0.21265	0.27266	0.22578	0.08357	0.25097	0.22376	0.15051	0.22541	0.12868	0.27114	0.056774	0.30075	0.10563	0.13217	0.3897	0.32008	-2.5667	-3.4604	-3.2146	-3.25	-3.4833	-3.2188	-3.4042	-3.6396	-3.125	-3.625	-3.4292	-3.1417	-3.6583	-3.2417	-3.2583	-3.4813	-38.335	270.880	70.415	268.550	111.795	56.816	212.913	170.210	195.487	55.015	233.361	271.391	156.047	-16.050	-21.415	235.476	0.00016789	0.00060175	0.00021055	687.49	2.3263e-06	3.3892e-06	525.57	198.63	2.1256e-06	5.4985e-06	195.26	88.371	80.755	35.29	8.0238e-06	45.733	0.00089907	0.00098486	0.00027981	678	1.0485e-05	1.0896e-05	520.19	197.61	1.0286e-05	1.0724e-05	195.66	88.467	80.654	35.303	1.0581e-05	45.47	126.312	72.112	3.326	-45.586	-13.251	122.235	-47.073	-40.488	87.816	94.544	-43.504	-39.367	-37.139	-32.251	61.486	-35.460	-8191	255	
2001.801	1	1	0	0	0.054299	0.069029	0.11491	0.042852	0.084887	0.2218	0.10628	0.27035	0.079524	0.30036	0.29974	0.12828	0.22985	0.19057	0.15282	0.3132	-2.6333	-3.3542	-3.3479	-3.3208	-3.475	-3.2667	-3.2	-3.5021	-3.0542	-3.4854	-3.3167	-3.0292	-3.5604	-3.2729	-3.1729	-3.3563	167.439	193.744	97.048	285.018	193.921	10.721	290.131	247.089	190.755	186.674	220.305	228.969	188.052	236.216	52.248	265.477	0.00018771	0.00081341	0.00016847	681.09	2.7749e-06	2.3021e-06	521.8	197.62	4.1377e-06	4.9547e-06	193.63	88.458	78.948	35.517	1.3207e-06	46.253	0.00090479	0.0009908	0.0002843	671.4	1.0902e-05	1.1332e-05	519.88	195.89	1.0918e-05	1.1207e-05	195.25	88.576	79.597	35.433	1.1127e-05	46.271	135.451	55.385	-27.562	-46.093	130.000	77.755	-47.309	-40.722	121.506	68.463	-42.959	-39.409	-36.810	-32.120	128.778	-35.461	-8191	255	
2001.897	1	1	0	0	0.16535	0.27095	0.2096	0.16824	0.066655	0.07248	0.28322	0.10403	0.26592	0.24185	0.20633	0.026611	0.15642	0.066789	0.13663	0.16008	-2.7583	-3.3646	-3.3354	-3.0333	-3.5104	-3.0271	-3.3167	-3.5792	-3.1437	-3.2208	-3.4458	-3.1396	-3.4958	-3.4625	-3.2	-3.4813	-42.001	154.506	54.575	266.654	49.788	232.486	223.194	61.349	65.256	-24.943	159.187	-32.966	266.910	300.136	58.373	-44.492	0.00022513	0.00045305	0.0001344	663.55	7.1448e-06	5.7436e-06	524.63	192.9	6.0746e-06	1.4429e-07	195.33	89.419	79.058	35.519	3.544e-06	46.752	0.00093428	0.0010461	0.00029304	656.96	1.1548e-05	1.1809e-05	520.4	192.32	1.1402e-05	1.193e-05	196.83	89.53	79.36	35.551	1.1491e-05	46.743	123.330	31.441	31.887	-45.997	1.449	114.561	-46.516	-40.726	169.410	272.383	-42.983	-39.124	-36.716	-32.441	40.230	-35.657	-8191	255	
2001.993	1	1	0	0	0.22508	0.03658	0.22467	0.075142	0.055619	0.047222	0.095526	0.19394	0.11119	0.12623	0.36692	0.083132	0.089319	0.24954	0.14959	0.18357	-2.6583	-3.2917	-3.4979	-3.1188	-3.2917	-3.25	-3.2917	-3.3896	-3.2687	-3.2708	-3.3958	-3.1437	-3.4	-3.2833	-3.1813	-3.6521	121.965	-15.821	189.584	212.637	130.541	258.268	248.162	246.148	15.297	-3.456	236.777	120.931	-20.235	242.155	191.079	239.898	0.00017443	0.00057965	0.00011225	668.3	8.702e-07	6.7742e-06	526.67	193.65	2.7906e-06	5.8548e-06	194.42	88.753	79.136	35.305	3.9262e-06	46.257	0.00095314	0.0010423	0.00029647	660.27	1.1411e-05	1.1572e-05	520.94	192.84	1.1117e-05	1.1551e-05	195.69	89.215	79.438	35.42	1.1198e-05	46.158	139.567	116.144	-10.906	-45.800	-27.402	88.584	-46.955	-40.875	207.981	87.548	-43.034	-39.654	-36.846	-32.164	90.459	-35.700	-8191	255	
2002.089	1	1	0	0	0.21292	0.071849	0.14237	0.077186	0.074721	0.1611	0.24465	0.21609	0.16616	0.025063	0.16055	0.38543	0.11507	0.036617	0.34425	0.21378	-2.8021	-3.3604	-3.3042	-3.3292	-3.3521	-3.5083	-3.05	-3.3646	-3.2667	-3.2104	-3.3667	-3.2375	-3.2938	-3.3979	-3.1104	-3.425	290.516	209.969	231.050	240.874	72.974	169.665	208.229	-36.372	71.483	188.296	230.067	291.225	274.724	84.146	162.783	95.866	0.00019584	0.00032727	0.0001454	668.8	2.2996e-06	7.7187e-07	519.91	195.8	2.5641e-06	8.8479e-06	192.73	88.547	79.296	35.37	4.8076e-06	45.872	0.00094749	0.0010243	0.0002923	661.68	1.1161e-05	1.1556e-05	517.33	194.28	1.1012e-05	1.1484e-05	194.44	88.381	79.68	35.428	1.1205e-05	45.838	140.540	277.417	55.590	-45.786	-7.304	-31.970	-47.047	-40.785	58.994	90.353	-43.082	-39.321	-36.847	-32.356	101.865	-35.515	-8191	255	
2002.185	1	1	0	0	0.20063	0.20541	0.13158	0.2955	0.25299	0.064655	0.2721	0.060644	0.25983	0.25107	0.15184	0.1698	0.083248	0.063053	0.046366	0.25923	-2.65	-2.975	-3.3958	-3.0583	-3.3354	-3.2917	-3.1792	-3.6708	-3.1583	-3.0187	-3.5875	-3.325	-3.3979	-3.5812	-3.1937	-3.6042	283.735	-33.741	294.860	175.888	161.218	-51.486	228.887	58.902	41.160	178.585	202.146	-24.296	300.959	227.097	79.747	161.129	0.00013209	0.00067267	0.00015984	679.92	2.3527e-06	3.2633e-06	526.83	196.59	2.8076e-06	2.3553e-06	194.36	88.559	80.683	35.723	1.8808e-06	46.288	0.00093342	0.0010257	0.00029018	671.01	1.1066e-05	1.1075e-05	522.64	195.38	1.0854e-05	1.1122e-05	194.6	88.856	80.809	35.782	1.0994e-05	46.318	154.580	24.377	24.534	-45.913	181.718	207.251	-47.088	-40.925	229.783	-38.256	-43.308	-39.272	-36.875	-32.225	281.510	-35.628	-8191	255	
2002.306	1	1	0	0	0.079543	0.072241	0.14419	0.053531	0.032281	0.13421	0.070955	0.11043	0.21668	0.080997	0.20964	0.13015	0.21802	0.13009	0.13709	0.23087	-2.8521	-3.2542	-3.4688	-3.3208	-3.3208	-3.4583	-3.0667	-3.5083	-3.2313	-3.2479	-3.5229	-3.2062	-3.2292	-3.3375	-3.1937	-3.4521	-34.691	54.129	68.497	160.226	50.648	116.126	215.209	297.532	1.049	178.923	197.549	122.378	-44.426	131.435	42.443	286.565	0.00023336	0.00035464	9.5393e-05	685.2	2.6875e-06	4.8135e-06	531.77	196.52	1.4142e-06	5.086e-06	190.6	88.1	79.791	35.772	2.3307e-06	45.828	0.00091761	0.0010245	0.00028665	678.53	1.1083e-05	1.1113e-05	529.35	195.35	1.0748e-05	1.1041e-05	191.3	88.249	80.279	35.737	1.0894e-05	45.94	114.536	45.374	7.573	-46.163	99.106	4.291	-46.948	-40.865	-36.449	122.300	-43.273	-39.526	-36.463	-32.535	79.884	-35.457	-8191	255	
2002.402	1	1	0	0	0.14049	0.075344	0.1285	0.20562	0.16809	0.14293	0.25305	0.076974	0.13495	0.01993	0.15243	0.16411	0.12625	0.1054	0.17145	0.17288	-2.9562	-3.0604	-3.4396	-3.3187	-3.2979	-3.4813	-3.2375	-3.3896	-3.2562	-3.1917	-3.4958	-3.3792	-3.1104	-3.6083	-3.2958	-3.3688	294.937	171.966	63.198	162.818	295.360	54.910	277.538	292.753	2.432	91.249	250.629	204.827	23.603	65.822	33.494	187.891	0.00018616	0.00062504	0.00011076	687.1	1.2055e-06	6.7166e-06	525.57	196.01	3.8737e-06	5.7451e-06	186.5	87.541	79.771	35.512	4.0866e-07	45.794	0.00090935	0.001002	0.00028334	678.34	1.1e-05	1.1214e-05	521.75	193.99	1.1193e-05	1.1471e-05	188.75	87.385	80.044	35.551	1.1192e-05	45.59	148.360	37.325	-9.104	-46.075	-41.182	131.534	-47.145	-40.915	77.370	60.382	-43.673	-39.204	-36.767	-32.464	210.451	-35.531	-8191	255	
2002.498	1	1	0	0	0.084522	0.12927	0.22059	0.14211	0.13574	0.1189	0.14085	0.16586	0.059717	0.083927	0.096583	0.21592	0.21878	0.21404	0.13547	0.10154	-2.9479	-3.1229	-3.6562	-3.2479	-3.2771	-3.5354	-3.2917	-3.2479	-3.3417	-2.9979	-3.3979	-3.3104	-3.1875	-3.5417	-3.1271	-3.5083	42.048	183.743	148.142	191.750	222.974	208.365	275.044	-56.182	209.460	50.763	250.931	-18.458	272.368	-56.740	270.254	264.681	0.00025019	2.5848e-05	9.3326e-05	680.06	5.0968e-06	5.1227e-06	526.4	195.52	1.8642e-06	9.1703e-06	189.92	88.128	80.25	35.727	5.7827e-06	46.518	0.00093962	0.001034	0.00029184	675.51	1.1384e-05	1.1728e-05	522.44	194.07	1.1347e-05	1.1873e-05	191.54	88.294	80.432	35.694	1.1844e-05	46.162	133.739	27.923	147.355	-45.775	61.841	108.713	-47.266	-40.733	73.804	103.021	-43.082	-39.557	-36.832	-32.472	106.831	-35.371	-8191	255	
2002.594	1	1	0	0	0.067216	0.20227	0.21976	0.23064	0.10777	0.064715	0.054575	0.21692	0.17067	0.15916	0.17806	0.16145	0.30239	0.076949	0.14655	0.31216	-2.9417	-3.0833	-3.475	-3.2812	-3.0333	-3.4208	-3.1708	-3.2188	-3.3604	-3.0604	-3.3625	-3.3937	-3.1917	-3.4646	-3.2458	-3.1646	141.248	217.267	201.367	146.129	-24.434	200.506	299.422	216.707	-37.192	153.525	296.312	267.351	-57.013	197.456	124.478	-55.529	0.00021432	0.00034224	8.8973e-05	685.22	5.1524e-06	3.021e-06	528.95	196.54	5.992e-06	3.9069e-06	193.49	88.562	79.92	35.774	4.4874e-06	46.603	0.00096658	0.0011007	0.00031138	676.25	1.199e-05	1.2242e-05	528.49	195.88	1.1771e-05	1.2321e-05	195.09	89.109	80.746	35.811	1.23e-05	46.699	134.599	-5.178	-20.375	-46.090	100.132	85.323	-46.937	-40.429	118.385	61.666	-43.346	-39.720	-37.133	-32.561	101.127	-35.768	-8191	255	
2002.689	1	1	0	0	0.088556	0.2192	0.23847	0.12701	0.1081	0.18404	0.16867	0.14872	0.1596	0.14678	0.30235	0.2764	0.16567	0.24197	0.1445	0.14398	-2.9854	-3.1458	-3.2417	-3.5375	-2.8917	-3.275	-3.3271	-3.1208	-3.5625	-2.9938	-3.2875	-3.4271	-3.0979	-3.4667	-3.2625	-3.2542	-27.292	46.187	16.847	211.866	251.099	265.869	273.326	239.894	117.179	126.319	252.473	238.460	204.526	271.102	28.581	159.194	0.00017376	0.00038973	2.6999e-05	686.53	2.9083e-06	4.8955e-06	526.42	197.54	2.5242e-06	3.6727e-06	191.4	87.894	79.669	35.469	2.5661e-06	45.639	0.0010032	0.0011378	0.00032067	677.64	1.229e-05	1.248e-05	524.79	196.05	1.2237e-05	1.2842e-05	193.38	88.544	80.773	35.634	1.2547e-05	45.905	141.409	123.212	9.000	-45.772	91.040	150.277	-47.249	-40.510	120.586	98.082	-43.241	-39.396	-37.069	-32.422	85.440	-35.499	-8191	255	
2002.785	1	1	0	0	0.19316	0.052679	0.15121	0.023482	0.20907	0.1964	0.29437	0.22644	0.1785	0.42058	0.14909	0.16466	0.087412	0.067332	0.10625	0.14152	-3.0021	-3.0271	-3.3167	-3.4625	-3.1333	-3.3646	-3.3583	-3.3521	-3.5104	-3.25	-3.2875	-3.4104	-3.1312	-3.4437	-3.1813	-3.2938	174.931	123.704	61.082	82.744	163.734	179.743	219.430	16.952	293.402	1.694	271.143	300.215	279.523	299.091	-53.435	238.496	0.0001808	0.00039734	0.00010047	682.55	3.4869e-06	2.4458e-06	526.17	197.65	1.2679e-06	3.0365e-06	191.08	87.4	79.856	35.719	4.7842e-06	45.977	0.0010344	0.0011463	0.00032511	678.02	1.2396e-05	1.2971e-05	524.22	195.75	1.25e-05	1.2727e-05	192.89	88.319	80.755	35.737	1.2811e-05	46.007	139.526	-29.287	50.680	-46.014	55.270	-53.838	-46.925	-40.853	106.175	115.766	-43.725	-39.128	-37.245	-32.388	79.115	-35.280	-8191	255	
2002.881	1	1	0	0	0.17146	0.11587	0.088353	0.13468	0.21588	0.12709	0.22549	0.19347	0.032234	0.16254	0.085623	0.10029	0.11104	0.095819	0.19379	0.20344	-3.0917	-3.2542	-3.2625	-3.475	-3.0187	-3.4479	-3.4	-3.2271	-3.4688	-3.2979	-3.1146	-3.5875	-3.1625	-3.4646	-3.4313	-3.05	261.179	134.847	-32.363	-41.171	199.142	250.240	299.041	220.934	150.990	122.229	137.664	-48.682	246.998	182.225	246.111	187.400	0.00017514	0.00082535	0.00015841	688.9	3.9926e-06	5.0159e-06	528.45	197.72	6.3805e-06	2.3485e-06	190.11	88.245	80.36	35.552	1.353e-06	45.896	0.0010544	0.0011847	0.00033183	681.26	1.2832e-05	1.3004e-05	527.66	196.36	1.2916e-05	1.3251e-05	193.11	88.736	81.318	35.747	1.3018e-05	46.138	123.288	22.917	25.621	-45.901	87.550	59.364	-47.184	-40.791	68.927	144.320	-43.174	-39.405	-36.652	-32.235	155.555	-35.499	-8191	255	
2003.002	1	1	0	0	0.11478	0.16663	0.1592	0.099175	0.1381	0.17947	0.18017	0.30798	0.16517	0.30657	0.10775	0.17575	0.29768	0.1214	0.05568	0.14131	-3.1583	-3.1021	-3.1437	-3.6854	-3.425	-3.3375	-3.5354	-3.3479	-3.3896	-3.4083	-3.0938	-3.6	-3.2812	-3.2667	-3.4417	-3.1479	53.342	123.291	175.959	76.412	140.734	228.726	196.678	282.177	20.560	-18.125	220.092	297.794	231.453	-35.183	300.584	271.254	0.00023633	0.00037737	4.7583e-05	699.83	4.6966e-06	8.9799e-07	531.09	198.16	4.3488e-06	4.4563e-06	188.84	86.653	80.063	35.199	6.1899e-06	45.566	0.0010645	0.0011988	0.00033334	690.43	1.301e-05	1.3499e-05	531.59	197.4	1.2967e-05	1.3363e-05	190.07	87.664	80.973	35.412	1.2968e-05	45.449	113.761	85.699	96.959	-45.932	111.334	107.057	-47.115	-41.035	212.042	193.343	-43.091	-39.645	-37.016	-32.801	66.869	-35.543	-8191	255	
2003.098	1	1	0	0	0.26333	0.13258	0.17053	0.10442	0.13231	0.090755	0.072048	0.18781	0.19963	0.13726	0.19369	0.15112	0.079087	0.13322	0.11843	0.25428	-2.9646	-3.2188	-3.1792	-3.5187	-3.2292	-3.2687	-3.5187	-3.05	-3.5667	-3.3708	-3.1937	-3.4646	-3.3917	-3.4104	-3.5354	-3.3354	224.967	273.034	252.955	263.717	62.931	78.018	-10.778	287.185	-44.531	291.715	-15.377	-37.704	-38.226	-18.117	201.004	-52.038	0.00019939	0.0010333	4.608e-05	689.69	4.3014e-06	7.6689e-06	519.11	194.67	3.124e-07	7.0693e-06	185.33	86.09	79.374	35.035	1.8401e-06	45.473	0.0010713	0.0011944	0.00033493	683.49	1.2863e-05	1.3001e-05	520.01	194.47	1.2796e-05	1.3237e-05	187.89	87.005	80.299	35.277	1.2959e-05	45.517	119.377	247.810	81.685	-45.844	138.685	74.003	-47.044	-40.831	57.749	36.210	-43.370	-39.358	-37.064	-32.048	123.094	-35.571	-8191	255	
2003.194	1	1	0	0	0.16794	0.129	0.16995	0.17289	0.29342	0.26814	0.172	0.25506	0.17614	0.20874	0.31718	0.2059	0.15744	0.19939	0.23588	0.24393	-3.0333	-3.3667	-3.2146	-3.3208	-3.2125	-3.2896	-3.4958	-3.3979	-3.4292	-3.5542	-3.2208	-3.5354	-3.3396	-3.1917	-3.5375	-3.2604	-51.754	151.686	269.116	-52.831	115.845	102.399	235.589	-58.369	150.753	189.464	262.881	140.249	-7.182	-58.035	194.240	202.198	0.00015441	0.00037836	7.5646e-05	685.07	5.5991e-06	9.2325e-06	527.42	196.01	1.1167e-06	2.9076e-06	188.71	87.393	79.357	35.482	3.7193e-06	46.07	0.0010617	0.0011782	0.00033409	680.09	1.297e-05	1.3439e-05	524.19	194.71	1.2804e-05	1.3266e-05	190.12	87.857	80.358	35.518	1.2999e-05	46.055	140.102	107.087	4.553	-45.942	66.134	52.416	-46.939	-40.586	116.514	213.921	-43.228	-39.311	-37.186	-32.525	118.264	-35.112	-8191	255	
2003.266	1	1	0	0	0.096499	0.055049	0.23528	0.16581	0.26764	0.20402	0.27077	0.33196	0.14955	0.26193	0.14521	0.071155	0.14371	0.20216	0.1312	0.27008	-2.9979	-3.3667	-2.9625	-3.4125	-3.4062	-3.2708	-3.5833	-3.2125	-3.3937	-3.4625	-3.2375	-3.3479	-3.4625	-3.3521	-3.5646	-3.2833	194.600	-11.545	217.956	20.340	276.978	123.754	206.593	219.734	124.155	65.007	176.370	231.352	250.460	215.470	88.775	-2.112	0.00016722	0.00061767	0.00017156	693.76	3.8684e-06	3.38e-06	534.64	197.71	2.3538e-06	4.1806e-06	189.74	88.499	80.232	35.616	3.8128e-06	46.356	0.0010871	0.0012042	0.00033765	686.63	1.3046e-05	1.3258e-05	532	197.01	1.2848e-05	1.3181e-05	192.46	88.908	81.004	35.724	1.299e-05	46.217	155.292	40.642	-27.437	-46.061	81.478	35.456	-47.258	-40.736	-51.620	118.914	-43.047	-39.444	-36.865	-32.241	139.996	-35.217	-8191	255	
2003.386	1	1	0	0	0.35794	0.27924	0.089149	0.13266	0.15337	0.078125	0.071589	0.099657	0.028199	0.1233	0.056428	0.042097	0.3435	0.11909	0.10682	0.40916	-2.8125	-3.2521	-3.0812	-3.3937	-3.3729	-3.2354	-3.6521	-3.1125	-3.2271	-3.3896	-3.2146	-3.5021	-3.6021	-3.2375	-3.2792	-3.3812	-57.039	269.087	66.039	213.415	3.658	67.198	-0.418	212.666	5.913	234.253	261.307	162.987	273.249	159.879	-34.125	244.384	0.00015351	0.00014204	0.00010133	695.63	2.7874e-06	1.9992e-06	530.91	199.89	7.3094e-07	3.2229e-06	188.45	87.033	80.828	35.293	3.2786e-06	45.176	0.001069	0.0011834	0.00033038	690.7	1.2725e-05	1.3088e-05	527.76	199.05	1.2849e-05	1.3188e-05	190.76	87.775	81.709	35.49	1.2858e-05	45.316	113.673	96.989	17.020	-45.816	209.273	-1.073	-46.960	-40.697	265.927	169.382	-43.416	-39.800	-36.767	-32.130	-32.263	-35.430	-8191	255	
2003.482	1	1	0	0	0.12919	0.124	0.25481	0.1494	0.31922	0.11151	0.40838	0.14449	0.11253	0.26678	0.079252	0.22616	0.05256	0.14078	0.13731	0.085026	-2.8833	-3.3688	-3.3042	-3.4542	-3.3521	-3.2042	-3.5208	-3.3438	-3.1708	-3.5479	-3.2021	-3.4417	-3.5938	-3.2521	-3.6583	-3.3417	138.573	132.590	-9.976	280.242	139.088	130.654	96.286	-39.071	-38.823	79.732	290.588	242.764	123.710	199.642	88.823	209.496	0.00018133	0.00075175	0.00023104	701.95	5.5425e-06	5.2766e-06	534.3	200.17	4.8361e-06	3.5895e-06	191.03	88.224	81.203	35.712	6.3348e-06	46.152	0.0010728	0.001193	0.00033977	694.09	1.2955e-05	1.316e-05	531.39	199.04	1.275e-05	1.3325e-05	193.32	88.62	82.077	35.873	1.3073e-05	46.183	127.608	66.248	-13.547	-45.996	80.529	78.598	-47.115	-40.668	198.233	159.172	-43.176	-39.568	-36.975	-32.010	91.526	-35.223	-8191	255	
2003.579	1	1	0	0	0.15386	0.23137	0.11167	0.024663	0.043957	0.10709	0.13988	0.18013	0.034195	0.1099	0.11956	0.26602	0.19655	0.086954	0.2116	0.079922	-2.7146	-3.4125	-3.2417	-3.4688	-3.425	-3.1271	-3.4146	-3.4	-3.1188	-3.425	-3.3417	-3.3937	-3.4146	-3.1542	-3.5375	-3.3292	-14.588	-49.371	178.744	139.705	137.971	-27.122	256.492	251.538	99.967	270.100	1.021	196.605	226.500	-1.447	46.420	260.215	0.00016491	0.00064366	4.7241e-05	701.71	3.5792e-06	4.5005e-06	540.56	201.07	2.2788e-06	3.7677e-06	194.25	90.097	81.433	35.922	1.4032e-06	47.05	0.0010912	0.0012087	0.00034162	695.8	1.316e-05	1.3459e-05	538.29	200.62	1.3116e-05	1.3412e-05	196.91	90.302	82.182	36.151	1.35e-05	47.236	131.511	29.191	82.097	-45.993	41.984	123.876	-47.404	-40.705	77.887	107.698	-43.351	-39.287	-36.970	-32.187	298.261	-35.643	-8191	255	
2003.697	1	1	0	0	0.079914	0.059455	0.32144	0.15642	0.19704	0.03766	0.10954	0.086822	0.14643	0.15759	0.089498	0.10089	0.19904	0.094137	0.15197	0.25616	-2.7604	-3.525	-3.2125	-3.1708	-3.3438	-3.2	-3.5458	-3.625	-3.1917	-3.4979	-3.2438	-3.1229	-3.525	-3.4	-3.2896	-3.4479	232.198	226.595	8.147	258.967	241.958	292.145	128.665	267.479	232.446	84.952	232.794	287.616	263.854	224.020	29.244	187.621	0.00019235	0.0010149	7.0104e-05	699.44	3.9065e-06	4.9629e-07	537	200.31	3.8027e-06	1.192e-06	193.44	89.043	80.65	35.987	4.7691e-06	46.922	0.0011039	0.0012413	0.00035208	693.29	1.3714e-05	1.403e-05	535.88	199.54	1.3336e-05	1.3947e-05	196.29	89.884	81.869	36.038	1.37e-05	46.925	130.307	56.709	-28.509	-45.970	66.681	107.145	-47.240	-41.068	55.276	20.185	-43.472	-39.353	-37.152	-32.493	252.801	-35.518	-8191	255	
2003.794	1	1	0	0	0.2168	0.15809	0.11484	0.30003	0.17669	0.18403	0.33046	0.48498	0.21081	0.20888	0.046945	0.31131	0.20155	0.081887	0.10549	0.30253	-2.8333	-3.3375	-3.2458	-3.2188	-3.4646	-3.2521	-3.3104	-3.4417	-3.1958	-3.4437	-3.3458	-3.0521	-3.6458	-3.2979	-3.3542	-3.5771	150.723	66.341	84.350	298.898	-24.674	290.214	189.981	290.666	62.474	19.034	292.810	241.018	206.552	15.046	177.676	235.486	0.00019498	0.00023221	0.00039343	689.51	2.0058e-06	1.0205e-05	531.72	200.08	2.198e-06	3.9024e-06	194.86	90.271	80.834	36.025	5.6433e-06	47.078	0.0011212	0.0012535	0.00036061	686.36	1.3686e-05	1.4089e-05	531.89	199.32	1.3696e-05	1.4194e-05	197.91	90.536	81.862	36.118	1.3963e-05	47.272	134.301	81.684	34.302	-45.611	226.045	110.617	-47.007	-40.623	109.830	118.774	-43.651	-39.493	-36.800	-32.185	71.887	-35.439	-8191	255	
2003.867	1	1	0	0	0.23057	0.068789	0.20539	0.03356	0.18097	0.21972	0.17189	0.18273	0.16585	0.23999	0.38423	0.23779	0.30548	0.018352	0.051544	0.15194	-2.8312	-3.1958	-3.2896	-3.1854	-3.5229	-3.3625	-3.3167	-3.5187	-3.0187	-3.3042	-3.3792	-2.9875	-3.5187	-3.25	-3.3812	-3.6417	277.354	212.156	232.804	-10.147	57.950	213.322	223.581	243.377	233.718	282.677	202.080	133.924	137.453	122.239	248.604	145.029	0.0001529	0.00020425	0.00018348	691.44	2.6697e-06	3.4083e-06	540.67	201.18	1.5184e-06	4.7018e-06	197.27	90.481	81.241	36.132	5.6949e-06	47.359	0.0011348	0.0012783	0.00035868	688.09	1.3906e-05	1.416e-05	538.54	200.57	1.3546e-05	1.4099e-05	199.56	91.296	82.389	36.309	1.3887e-05	47.458	120.856	-9.198	93.592	-45.784	211.592	106.283	-47.200	-40.982	71.730	67.918	-43.627	-39.653	-36.933	-32.105	103.293	-35.403	-8191	255	
2003.986	1	1	0	0	0.17087	0.24281	0.28833	0.14045	0.11615	0.080766	0.15349	0.0090585	0.13826	0.19763	0.074162	0.087209	0.14914	0.26182	0.020464	0.13653	-2.5167	-3.4437	-3.3896	-3.1271	-3.4437	-3.3208	-3.3417	-3.6229	-3.2542	-3.2854	-3.4208	-3.0792	-3.625	-3.3375	-3.2562	-3.5208	-54.620	167.837	-28.908	212.929	-47.460	188.883	105.755	100.529	83.989	224.419	260.619	269.477	262.786	12.581	253.338	70.256	0.00020666	0.00027101	0.00021401	700.76	2.1331e-06	5.9088e-06	545.47	202	5.7775e-06	8.2427e-06	197.33	90.666	81.527	36.164	1.8483e-06	46.992	0.001156	0.0012891	0.00035866	694.59	1.3713e-05	1.4319e-05	543.78	201.72	1.3633e-05	1.4325e-05	200.15	91.375	82.598	36.32	1.3718e-05	47.096	124.384	82.810	49.168	-46.006	282.005	85.952	-46.903	-41.056	127.898	111.572	-43.095	-39.527	-37.299	-32.539	198.659	-35.648	-8191	255	
2004.082	1	1	0	0	0.10929	0.17122	0.083983	0.17689	0.18799	0.13599	0.14676	0.12642	0.15081	0.20007	0.086996	0.32949	0.093314	0.13775	0.32535	0.10607	-2.825	-3.1896	-3.3875	-3.3083	-3.5167	-3.4958	-3.4125	-3.5812	-3.0771	-3.3812	-3.5854	-3.0729	-3.4208	-3.4792	-3.2417	-3.4521	209.938	80.885	266.526	280.898	222.578	173.714	270.557	245.851	113.459	124.529	-23.310	-56.941	27.534	29.296	93.280	219.780	0.0001493	0.0010558	7.2787e-05	691.56	2.4478e-06	5.7646e-06	531.28	200.42	2.2436e-06	6.1584e-06	196.09	89.245	81.626	35.957	4.7456e-06	46.782	0.0011402	0.0012555	0.00035361	688.83	1.3605e-05	1.3772e-05	532.28	199.8	1.3407e-05	1.3788e-05	197.36	90.117	82.168	36.067	1.3467e-05	46.807	127.764	16.352	-14.489	-46.049	101.043	67.823	-47.015	-40.763	-54.713	130.473	-43.416	-39.465	-37.209	-32.718	133.333	-35.705	-8191	255	
2004.178	1	1	0	0	0.14275	0.07965	0.22744	0.10313	0.20015	0.16751	0.28454	0.19169	0.18421	0.068742	0.22584	0.39463	0.31652	0.072177	0.098349	0.21154	-2.8375	-3.1375	-3.4062	-3.1688	-3.3937	-3.3292	-3.2708	-3.2938	-3.4021	-3.1625	-3.5167	-3.0146	-3.3063	-3.45	-3.1917	-3.625	98.401	235.581	78.353	-25.668	82.249	220.805	178.005	269.875	237.183	237.138	286.531	280.526	241.898	217.389	45.871	229.244	0.00019543	0.00044225	9.397e-05	702.1	5.7941e-06	1.6771e-06	539.24	203.08	4.0996e-06	3.0786e-06	195.83	90.29	81.598	36.063	3.4816e-06	46.705	0.0011033	0.0012211	0.00033767	696.82	1.3023e-05	1.335e-05	538.11	202.58	1.3108e-05	1.3385e-05	198.44	90.807	82.924	36.297	1.2986e-05	46.865	126.106	27.175	24.371	-46.081	64.040	74.329	-47.183	-40.890	55.601	88.984	-43.141	-39.655	-37.121	-32.166	119.234	-35.624	-8191	255	
2004.299	1	1	0	0	0.18432	0.1546	0.048471	0.16404	0.16676	0.37229	0.1144	0.26047	0.24914	0.17699	0.27142	0.16249	0.099753	0.04434	0.2806	0.095635	-2.6896	-3.1729	-3.3625	-3.0938	-3.4479	-3.4083	-3.1562	-3.4437	-3.1625	-3.2875	-3.5125	-3.1354	-3.3458	-3.5167	-3.0458	-3.5583	-41.012	146.356	295.151	87.214	201.473	87.608	131.441	282.025	276.980	27.290	234.584	255.169	218.400	-33.669	163.963	129.836	0.00023384	9.9669e-05	7.2147e-05	700.9	1.4317e-06	5.9861e-06	546.69	201.57	1.561e-06	4.5647e-06	195.6	90.422	81.564	35.985	5.9132e-06	47.219	0.0010693	0.0012042	0.00033469	695.16	1.3065e-05	1.3601e-05	541.19	200.59	1.3089e-05	1.3623e-05	197.81	90.718	82.319	36.227	1.3372e-05	47.308	122.224	23.068	-21.122	-46.085	88.296	78.256	-46.880	-40.995	119.612	82.943	-43.606	-39.543	-37.019	-32.600	69.139	-35.513	-8191	255	
2004.395	1	1	0	0	0.012272	0.088791	0.073944	0.11493	0.14265	0.24682	0.18527	0.23432	0.069478	0.19185	0.15157	0.25136	0.12789	0.10223	0.17273	0.28052	-3.0958	-3.0896	-3.4958	-3.2458	-3.2292	-3.4833	-3.2146	-3.5438	-3.2438	-3.1375	-3.5062	-3.3917	-3.1625	-3.4292	-3.1354	-3.3771	64.991	239.273	48.607	-54.869	-38.257	210.735	239.578	288.541	258.600	144.792	27.899	215.172	255.083	117.671	198.323	189.917	0.00025527	0.00010201	3.8759e-05	698.51	2.6427e-06	3.1267e-06	532.12	199.77	2.8068e-06	3.2374e-06	193.1	88.892	81.061	35.794	6.5199e-06	46.24	0.0010926	0.0012248	0.00033593	691.94	1.3079e-05	1.3569e-05	531.45	199.72	1.2921e-05	1.3553e-05	195.44	89.447	81.971	35.817	1.3027e-05	46.341	126.234	171.271	32.810	-45.973	142.381	86.930	-47.229	-40.831	65.904	93.260	-43.595	-39.288	-36.950	-32.260	83.116	-35.527	-8191	255	
2004.489	1	1	0	0	0.16501	0.10527	0.1871	0.077755	0.12103	0.042246	0.3026	0.16689	0.17841	0.12045	0.10385	0.32426	0.2327	0.17941	0.11897	0.20471	-2.7875	-3.0354	-3.5021	-3.3063	-3.2354	-3.5042	-3.1646	-3.5208	-3.2062	-2.9729	-3.4188	-3.2812	-3.1333	-3.6896	-3.3312	-3.3125	66.175	-43.924	188.064	-53.322	285.939	141.774	219.388	253.559	298.849	73.128	200.039	278.824	-42.909	245.091	-53.012	270.883	0.00022266	0.00057919	8.1829e-05	687.7	3.1021e-06	3.947e-06	527.02	197.3	4.0713e-06	4.7432e-06	192.78	88.488	80.609	35.912	4.4784e-06	46.905	0.0010656	0.0011912	0.00033826	679.32	1.311e-05	1.3558e-05	528.38	196.24	1.2977e-05	1.3581e-05	195.51	89.477	81.24	35.994	1.3256e-05	47.057	135.078	79.154	113.017	-45.794	193.767	98.665	-47.144	-41.062	136.626	43.598	-43.059	-39.519	-37.268	-32.231	130.639	-35.844	-8191	255	
2004.563	1	1	0	0	0.18851	0.017269	0.27598	0.050766	0.10582	0.057702	0.13726	0.20249	0.14915	0.23426	0.11582	0.20959	0.14962	0.16265	0.10601	0.17103	-2.7667	-3.1021	-3.4083	-3.2458	-2.975	-3.4229	-3.1917	-3.1937	-3.4188	-3.3021	-3.2687	-3.275	-3.1729	-3.4354	-3.1271	-3.4292	59.731	273.373	-11.365	89.390	83.390	296.203	300.887	205.232	139.064	75.167	-28.636	258.660	-7.293	-53.127	122.813	198.830	0.00013083	0.00023378	0.00012564	680.53	5.5437e-06	5.1168e-06	537.25	196.47	3.891e-07	5.1713e-06	193.5	89.363	79.942	35.75	1.7512e-06	47.474	0.0010975	0.0012333	0.00034609	677.94	1.3446e-05	1.3609e-05	534.22	196.51	1.3036e-05	1.363e-05	195.52	90.033	80.883	35.932	1.3149e-05	47.648	113.788	-58.054	40.739	-46.137	110.729	99.141	-47.278	-40.908	0.391	106.005	-43.346	-39.403	-37.223	-32.434	133.797	-35.601	-8191	255	
2004.682	1	1	0	0	0.081808	0.21053	0.16026	0.19996	0.10263	0.24438	0.11603	0.14947	0.10968	0.056375	0.24556	0.24795	0.32844	0.18778	0.14472	0.22129	-3.0292	-3.0938	-3.4021	-3.4562	-3.0687	-3.5333	-3.3563	-3.2687	-3.4	-3.2625	-3.5375	-3.4854	-3.2687	-3.4479	-3.2667	-3.1104	203.249	141.324	182.949	248.136	133.390	146.444	137.401	250.591	123.865	187.831	-3.063	-37.825	-41.957	-13.303	-21.788	63.507	0.00022421	0.0004537	0.00016574	681.03	2.296e-06	1.8353e-06	533.79	194.37	2.873e-06	4.1282e-06	187.21	88.583	80.305	35.959	2.9195e-06	46.63	0.0010669	0.0011852	0.00033559	674.58	1.2842e-05	1.308e-05	532.87	193.64	1.2279e-05	1.2632e-05	189.07	88.804	80.992	35.97	1.2149e-05	46.72	136.840	56.565	44.165	-45.714	155.266	261.122	-47.131	-41.057	104.135	124.467	-43.526	-39.503	-36.909	-32.613	81.293	-35.751	-8191	255	
2004.778	1	1	0	0	0.24921	0.27623	0.084538	0.16672	0.16534	0.084661	0.32503	0.10444	0.2501	0.097803	0.13062	0.1912	0.20426	0.14985	0.12431	0.19798	-3.1583	-3.1646	-3.3229	-3.3458	-3.2396	-3.5917	-3.3083	-3.1437	-3.5021	-3.1104	-3.3542	-3.4979	-3.1708	-3.2687	-3.2479	-3.1354	297.274	12.055	138.372	114.050	290.303	198.839	279.228	202.204	146.082	24.051	211.169	236.092	241.654	292.267	282.580	211.198	0.0001006	0.00018673	3.9908e-05	697.5	4.4429e-06	3.0446e-06	532.39	193.66	4.708e-06	7.0752e-06	183.61	86.947	78.882	35.589	1.8509e-06	46.804	0.00097838	0.0010805	0.00030628	689.41	1.1832e-05	1.2156e-05	530.56	192.76	1.1928e-05	1.2474e-05	185.97	87.285	79.427	35.696	1.2195e-05	46.89	101.985	114.981	63.518	-46.103	123.711	-11.505	-47.015	-40.674	62.726	94.654	-43.509	-39.507	-36.951	-32.207	-2.308	-35.863	-8191	255	
2004.874	1	1	0	0	0.24921	0.40481	0.16426	0.25963	0.047345	0.025291	0.31673	0.20604	0.15423	0.14913	0.019143	0.29499	0.11019	0.074496	0.038931	0.19229	-2.9	-3.1604	-3.1292	-3.4646	-3.2667	-3.3187	-3.4188	-3.0458	-3.5271	-3.0687	-3.4313	-3.5021	-3.2271	-3.4604	-3.2354	-3.15	47.219	37.868	-33.488	217.976	207.985	27.562	299.015	201.230	235.413	47.328	144.177	204.504	217.180	284.817	189.625	183.174	0.00017766	0.0005714	8.7104e-05	692.26	5.1211e-06	6.8575e-06	540.65	195.51	2.5286e-06	6.1766e-06	187.67	87.908	80.532	35.906	2.6714e-06	46.647	0.0010015	0.0011076	0.0003155	685.91	1.2416e-05	1.2365e-05	536.72	194.96	1.1999e-05	1.2452e-05	188.98	88.304	81.217	36.033	1.2261e-05	46.843	132.583	88.248	25.514	-45.838	48.526	43.215	-47.309	-40.936	210.329	42.964	-43.448	-39.590	-36.950	-32.349	265.129	-35.344	-8191	255	
2004.970	1	1	0	0	0.18642	0.20472	0.17132	0.32095	0.094196	0.054551	0.098358	0.27489	0.10425	0.17823	0.16028	0.21285	0.24211	0.3541	0.27571	0.23101	-3.1792	-3.2188	-3.4021	-3.5312	-3.075	-3.3896	-3.5042	-3.3583	-3.4229	-3.2812	-3.2042	-3.4208	-3.15	-3.5563	-3.3625	-3.1396	19.886	107.896	237.885	280.802	77.132	216.306	-1.820	-42.363	209.744	-44.074	123.900	250.216	279.634	272.664	-21.808	195.676	0.00023292	0.00068726	5.6879e-05	701.39	7.0831e-06	4.0562e-06	540.49	199.48	1.8219e-06	4.2094e-06	190.1	88.648	81.426	35.963	1.2195e-06	46.179	0.0010108	0.0011319	0.00031143	694.65	1.2111e-05	1.2429e-05	541.27	197.99	1.2013e-05	1.2623e-05	191.09	89.066	82.03	35.98	1.2238e-05	46.385	144.557	3.545	11.255	-45.986	69.236	82.333	-46.943	-40.880	176.627	112.028	-43.302	-39.728	-37.266	-32.593	75.591	-35.838	-8191	255	
#DATA ENDS
