BOXY.EXE: ISS Imagent and Oximeter Data Acquisition Program Version 0.80
Ascii Record File

#ACQ INFORMATION
2  Detector Channels 
16  External MUX Channels 
1  Auxiliary Channels 
5000  Waveform (CCF) Frequency (Hz)
1  Waveforms Skipped 
30  Waveforms Averaged 
1  Cycles Averaged 
16  Acquisitions per Waveform 
10.0806  Updata Rate (Hz) 

#FILE INFORMATION
TRUE -- External MUX Channel results are PARSED.
FALSE -- AC DC and Phase are NOT grouped.
TRUE -- Companion Program Settings File CREATED.
FALSE -- AC data not excluded
FALSE -- DC data not excluded
FALSE -- Phase data not excluded
FALSE -- Auxillary Chn. data not excluded
Tab delimiters

#CALIBRATION STATE
TRUE -- Waveform Calibration Values APPLIED.


#AUX CALIBRATION VALUES
Val Type	aux-1	

Term	1.0000e+00	
Factor	0.0000e+00	


#WF CALIBRATION VALUES
A = Detector Channel
Val Type	A-AC1	A-AC2	A-AC3	A-AC4	A-AC5	A-AC6	A-AC7	A-AC8	A-AC9	A-AC10	A-AC11	A-AC12	A-AC13	A-AC14	A-AC15	A-AC16	A-DC1	A-DC2	A-DC3	A-DC4	A-DC5	A-DC6	A-DC7	A-DC8	A-DC9	A-DC10	A-DC11	A-DC12	A-DC13	A-DC14	A-DC15	A-DC16	A-Ph1	A-Ph2	A-Ph3	A-Ph4	A-Ph5	A-Ph6	A-Ph7	A-Ph8	A-Ph9	A-Ph10	A-Ph11	A-Ph12	A-Ph13	A-Ph14	A-Ph15	A-Ph16	

Term	0.00000e+00	0.00000e+00	0.00000e+00	0.00000e+00	0.00000e+00	0.00000e+00	0.00000e+00	0.00000e+00	0.00000e+00	0.00000e+00	0.00000e+00	0.00000e+00	0.00000e+00	0.00000e+00	0.00000e+00	0.00000e+00	0.00000e+00	0.00000e+00	0.00000e+00	0.00000e+00	0.00000e+00	0.00000e+00	0.00000e+00	0.00000e+00	0.00000e+00	0.00000e+00	0.00000e+00	0.00000e+00	0.00000e+00	0.00000e+00	0.00000e+00	0.00000e+00	0.00000e+00	0.00000e+00	0.00000e+00	0.00000e+00	0.00000e+00	0.00000e+00	0.00000e+00	0.00000e+00	0.00000e+00	0.00000e+00	0.00000e+00	0.00000e+00	0.00000e+00	0.00000e+00	0.00000e+00	0.00000e+00	
Factor	1.00000e+00	1.00000e+00	1.00000e+00	1.00000e+00	1.00000e+00	1.00000e+00	1.00000e+00	1.00000e+00	1.00000e+00	1.00000e+00	1.00000e+00	1.00000e+00	1.00000e+00	1.00000e+00	1.00000e+00	1.00000e+00	1.00000e+00	1.00000e+00	1.00000e+00	1.00000e+00	1.00000e+00	1.00000e+00	1.00000e+00	1.00000e+00	1.00000e+00	1.00000e+00	1.00000e+00	1.00000e+00	1.00000e+00	1.00000e+00	1.00000e+00	1.00000e+00	X	X	X	X	X	X	X	X	X	X	X	X	X	X	X	X	

B = Detector Channel
Val Type	B-AC1	B-AC2	B-AC3	B-AC4	B-AC5	B-AC6	B-AC7	B-AC8	B-AC9	B-AC10	B-AC11	B-AC12	B-AC13	B-AC14	B-AC15	B-AC16	B-DC1	B-DC2	B-DC3	B-DC4	B-DC5	B-DC6	B-DC7	B-DC8	B-DC9	B-DC10	B-DC11	B-DC12	B-DC13	B-DC14	B-DC15	B-DC16	B-Ph1	B-Ph2	B-Ph3	B-Ph4	B-Ph5	B-Ph6	B-Ph7	B-Ph8	B-Ph9	B-Ph10	B-Ph11	B-Ph12	B-Ph13	B-Ph14	B-Ph15	B-Ph16	

Term	0.00000e+00	0.00000e+00	0.00000e+00	0.00000e+00	0.00000e+00	0.00000e+00	0.00000e+00	0.00000e+00	0.00000e+00	0.00000e+00	0.00000e+00	0.00000e+00	0.00000e+00	0.00000e+00	0.00000e+00	0.00000e+00	0.00000e+00	0.00000e+00	0.00000e+00	0.00000e+00	0.00000e+00	0.00000e+00	0.00000e+00	0.00000e+00	0.00000e+00	0.00000e+00	0.00000e+00	0.00000e+00	0.00000e+00	0.00000e+00	0.00000e+00	0.00000e+00	5.86631e+01	-1.56400e+02	-1.26551e+02	-1.83880e+02	-1.09246e+02	-7.56946e+01	-1.56632e+02	-1.62015e+02	-4.97451e+01	-9.07007e+01	-1.74091e+02	-1.74047e+02	-1.85978e+02	-1.78374e+02	-8.62442e+01	-1.51155e+02	
Factor	5.26311e-05	1.61735e-04	4.04003e-05	1.79766e-01	1.77941e-06	1.50208e-06	1.73528e-01	5.90053e-02	1.98371e-06	1.52351e-06	1.02683e-01	2.97751e-02	5.44086e-02	8.92468e-03	1.82445e-06	1.29180e-02	1.91554e-06	2.01426e-06	5.61593e-07	8.71805e-02	2.19587e-08	2.21199e-08	7.97260e-02	2.86352e-02	2.18545e-08	2.20121e-08	4.81154e-02	1.39628e-02	2.54592e-02	4.34647e-03	2.18729e-08	6.10577e-03	X	X	X	X	X	X	X	X	X	X	X	X	X	X	X	X	



#DISTANCE SETTINGS
A = Detector Channel
A-1	A-2	A-3	A-4	A-5	A-6	A-7	A-8	A-9	A-10	A-11	A-12	A-13	A-14	A-15	A-16	

2.5000e+00	3.0000e+00	2.5000e+00	3.0000e+00	2.0000e+00	3.0000e+00	1.5000e+00	3.0000e+00	3.0000e+00	3.0000e+00	3.0000e+00	3.0000e+00	3.0000e+00	3.0000e+00	1.5000e+00	3.0000e+00	

B = Detector Channel
B-1	B-2	B-3	B-4	B-5	B-6	B-7	B-8	B-9	B-10	B-11	B-12	B-13	B-14	B-15	B-16	

1.0000e+01	1.0000e+01	1.0000e+01	1.4400e+00	1.0000e+01	1.0000e+01	1.5100e+00	1.9400e+00	1.0000e+01	1.0000e+01	1.9900e+00	2.4900e+00	2.4100e+00	2.9000e+00	1.0000e+01	2.9800e+00	




#DATA BEGINS
time	group	step	mark	flag	A-AC1	A-AC2	A-AC3	A-AC4	A-AC5	A-AC6	A-AC7	A-AC8	A-AC9	A-AC10	A-AC11	A-AC12	A-AC13	A-AC14	A-AC15	A-AC16	A-DC1	A-DC2	A-DC3	A-DC4	A-DC5	A-DC6	A-DC7	A-DC8	A-DC9	A-DC10	A-DC11	A-DC12	A-DC13	A-DC14	A-DC15	A-DC16	A-Ph1	A-Ph2	A-Ph3	A-Ph4	A-Ph5	A-Ph6	A-Ph7	A-Ph8	A-Ph9	A-Ph10	A-Ph11	A-Ph12	A-Ph13	A-Ph14	A-Ph15	A-Ph16	B-AC1	B-AC2	B-AC3	B-AC4	B-AC5	B-AC6	B-AC7	B-AC8	B-AC9	B-AC10	B-AC11	B-AC12	B-AC13	B-AC14	B-AC15	B-AC16	B-DC1	B-DC2	B-DC3	B-DC4	B-DC5	B-DC6	B-DC7	B-DC8	B-DC9	B-DC10	B-DC11	B-DC12	B-DC13	B-DC14	B-DC15	B-DC16	B-Ph1	B-Ph2	B-Ph3	B-Ph4	B-Ph5	B-Ph6	B-Ph7	B-Ph8	B-Ph9	B-Ph10	B-Ph11	B-Ph12	B-Ph13	B-Ph14	B-Ph15	B-Ph16	aux-1	digaux	

1221.262	1	1	0	768	0.1762	0.11253	0.079542	0.18148	0.15261	0.04303	0.033599	0.26266	0.14584	0.14962	0.14039	0.25744	0.11859	0.1316	0.30293	0.14216	-3.65	-3.7583	-3.8792	-3.9229	-3.5854	-4.0583	-3.8042	-3.95	-4.0604	-3.6042	-3.6792	-3.9396	-3.7687	-4.1479	-3.7521	-3.6146	274.985	78.184	61.172	298.763	15.377	229.218	174.279	330.043	88.464	310.771	305.922	21.320	82.211	265.472	117.337	336.559	0.0036931	0.0061455	0.00094714	812.36	9.0016e-05	3.925e-05	715.66	296.92	9.1938e-05	6.7045e-05	287.11	100.68	102.39	37.903	2.1518e-05	35.055	0.020328	0.02139	0.0054201	1581.1	0.00023285	0.00023026	1449.4	550.35	0.00023493	0.00022798	730.61	227.06	373.16	81.559	0.00020825	92.136	-13.792	307.537	292.311	-9.442	165.593	-17.624	-11.930	-3.507	209.834	53.328	-7.987	-2.848	2.172	5.243	305.866	1.112	-8191	255	
1221.356	1	1	0	0	0.18385	0.069324	0.1636	0.24937	0.19412	0.12174	0.10727	0.03401	0.27153	0.11209	0.2539	0.18803	0.079908	0.092534	0.1384	0.17339	-3.6521	-3.55	-3.8	-4.1188	-3.5208	-3.8646	-4.1417	-3.8187	-4.1604	-3.7104	-3.8354	-3.8146	-3.525	-3.95	-3.9021	-3.6937	314.302	287.364	101.618	289.329	44.325	318.526	144.792	191.945	287.068	6.673	328.908	254.294	54.746	314.388	86.864	135.014	0.00076515	0.0059412	0.0010381	807.66	2.2053e-05	5.6648e-05	703.33	295.23	2.7811e-05	5.6215e-05	286.35	99.351	101.11	37.877	2.0899e-05	34.746	0.021105	0.020656	0.0052874	1620.4	0.0002409	0.00022221	1417.3	565.42	0.00023775	0.00022073	713.42	235.34	373.14	80.112	0.00020272	96.552	234.631	313.276	-9.280	-8.866	226.391	42.669	-11.552	-3.521	323.094	41.237	-8.232	-1.924	0.949	5.132	97.131	1.579	-8191	255	
1221.454	1	1	0	0	0.07437	0.20303	0.078327	0.086624	0.17893	0.14631	0.27507	0.22735	0.11237	0.099808	0.02609	0.22261	0.20076	0.078136	0.14839	0.21239	-3.625	-3.4333	-3.6625	-4.1188	-3.5812	-3.8063	-3.8792	-3.6979	-4.0979	-3.7771	-3.7021	-4.1542	-3.5896	-3.9208	-3.9313	-3.7687	234.035	109.357	-13.226	116.147	258.598	308.480	310.013	324.750	66.033	177.175	333.817	195.764	-9.441	123.693	13.274	131.444	0.0012285	0.0024247	0.00058607	801.63	5.3571e-05	5.3973e-05	698	294.66	5.3049e-05	3.141e-05	283.06	99.93	102.15	37.74	3.0447e-05	35.029	0.021036	0.020267	0.005222	1699	0.00024078	0.00022077	1417.7	592.04	0.00023607	0.00021994	718.62	248.04	370.02	79.74	0.00020722	101.84	229.314	2.792	178.063	-9.136	-16.444	38.371	-11.587	-3.408	28.862	23.254	-7.680	-2.211	0.831	4.666	235.677	0.648	-8191	255	
1221.550	1	1	0	0	0.12388	0.24534	0.06158	0.28585	0.18892	0.08595	0.24116	0.17233	0.13126	0.14211	0.17559	0.18916	0.10824	0.10932	0.14087	0.24047	-3.7687	-3.6875	-3.5812	-4.1396	-3.7083	-3.7354	-4.1125	-3.6354	-4.0167	-3.9604	-3.8292	-4.0062	-3.7771	-3.7271	-3.8875	-3.6813	124.474	298.439	148.043	309.834	132.399	102.266	302.495	179.886	206.077	-20.731	88.305	271.318	36.159	313.428	-11.543	85.766	0.00097713	0.007997	0.000987	803.71	6.0315e-05	3.2736e-05	693.43	297.99	3.6923e-05	3.2329e-05	284.26	100.38	99.859	37.664	0.00015046	35.637	0.020633	0.020016	0.0053836	1753.2	0.00023367	0.00021513	1442.9	606.54	0.00022537	0.0002105	734.06	250.6	353.25	77.268	0.0002122	101.76	142.986	332.095	179.962	-9.416	39.374	332.982	-10.924	-3.670	3.198	326.011	-7.463	-3.283	0.621	4.795	179.768	0.521	-8191	255	
1221.645	1	1	0	0	0.13897	0.15478	0.14136	0.083309	0.1491	0.16103	0.1036	0.34342	0.096853	0.047419	0.16695	0.11034	0.12936	0.29383	0.02848	0.25188	-3.4396	-3.7396	-3.6292	-3.8271	-3.8896	-3.825	-4.0563	-3.6792	-4.0083	-3.8812	-3.6813	-4.0646	-3.625	-3.6979	-4.025	-3.5521	83.241	127.075	266.270	239.063	167.596	44.499	136.457	304.508	44.131	202.352	207.675	271.162	45.440	-19.124	115.167	205.309	0.000573	0.0018984	0.0021814	814.05	4.554e-05	5.3279e-05	697.78	298.97	3.6641e-05	5.0933e-05	284.75	101.76	100.59	38.223	8.9418e-05	35.977	0.01937	0.018923	0.0055836	1746.7	0.00022242	0.00020652	1498.2	605.36	0.00021892	0.00020521	771.64	248.94	346.74	76.588	0.00022619	99.896	206.519	231.678	154.845	-10.160	29.767	55.209	-10.809	-4.229	19.851	4.590	-6.070	-3.397	1.276	5.441	206.245	-0.166	-8191	255	
1221.741	1	1	0	0	0.22224	0.15325	0.24704	0.23985	0.15076	0.090138	0.24428	0.25001	0.27263	0.1652	0.26025	0.36175	0.23854	0.094622	0.11183	0.13302	-3.4625	-3.8604	-3.7854	-4.0813	-3.6833	-3.8083	-4.2208	-3.8479	-3.9	-3.9667	-3.7958	-4.0333	-3.7875	-3.7938	-4.0604	-3.4437	19.201	227.158	333.876	280.125	134.703	101.516	292.226	290.367	223.595	294.337	307.380	266.426	268.693	4.327	293.743	210.403	0.00064142	0.0012917	0.0020056	811.73	8.15e-05	3.8861e-05	699.03	299.1	3.3922e-05	2.5575e-05	288.42	100.32	100.6	38.294	8.0348e-05	35.645	0.018663	0.018443	0.0059072	1707.9	0.00021431	0.00020228	1539.1	591.31	0.00021047	0.00020465	796.8	242.53	338.16	77.11	0.00023541	96.53	206.811	182.997	166.296	-10.157	332.435	170.622	-11.081	-4.390	37.925	174.196	-7.059	-3.429	0.520	5.905	213.518	0.056	-8191	255	
1221.861	1	1	0	0	0.074177	0.16753	0.3279	0.26481	0.1867	0.13673	0.20624	0.19111	0.099708	0.14885	0.11472	0.072302	0.13337	0.078161	0.10538	0.14208	-3.3917	-3.9354	-3.5854	-4.0708	-3.675	-3.8521	-3.9625	-3.6688	-3.6458	-4.0229	-3.7771	-3.9938	-3.9375	-3.7042	-3.9313	-3.9542	191.583	185.823	295.934	295.456	-1.887	64.513	280.744	-6.024	135.834	122.447	58.147	274.081	158.022	147.007	259.413	44.081	0.0015536	0.0083065	0.0002669	808.57	6.4464e-05	8.1683e-05	703.48	297.37	4.7224e-05	9.0974e-05	284.91	100.25	101.82	37.316	7.5017e-06	35.141	0.017903	0.018715	0.0060415	1653.2	0.00020328	0.00020746	1544.5	572.42	0.00019946	0.00021192	796.9	233.62	327.66	79.113	0.00023477	93.98	186.241	103.033	49.059	-10.176	-18.976	201.511	-11.132	-4.738	24.938	201.869	-7.194	-3.900	0.369	5.887	161.880	-0.070	-8191	255	
1221.958	1	1	0	0	0.051336	0.12474	0.19784	0.022735	0.20312	0.21369	0.25118	0.096148	0.39616	0.20263	0.054321	0.10186	0.20575	0.058212	0.26982	0.3195	-3.425	-3.8438	-3.7021	-3.9104	-3.8917	-3.6083	-4.2125	-3.9042	-3.8646	-4.0354	-3.6771	-3.9042	-3.8937	-3.8458	-3.9708	-3.6896	59.094	215.349	322.890	255.967	91.801	19.392	316.824	304.160	169.507	253.576	99.729	45.537	27.441	-12.921	284.153	283.447	0.0015996	0.0096608	0.00029579	803.07	1.732e-05	9.3999e-05	710.72	296.82	2.0508e-05	9.4741e-05	290.47	99.862	101.34	37.935	6.6557e-05	35.656	0.017323	0.019994	0.0060147	1623.4	0.00019816	0.00022303	1527.7	564.66	0.00019511	0.00022602	782.97	230.22	324.24	82.074	0.00022769	92.227	152.993	144.099	21.053	-10.110	176.111	201.202	-11.618	-4.152	192.775	180.128	-7.942	-3.107	1.604	5.834	22.349	-0.439	-8191	255	
1222.054	1	1	0	0	0.11597	0.056386	0.18143	0.15987	0.1322	0.20761	0.089227	0.24738	0.15656	0.069306	0.10647	0.31108	0.21341	0.19207	0.22563	0.08022	-3.2396	-3.975	-3.6542	-3.9688	-3.6958	-3.4979	-4.0667	-3.825	-3.8021	-4.2208	-3.8063	-3.7208	-3.9896	-3.5896	-3.7938	-4.0229	1.173	88.751	216.121	310.461	148.300	139.888	311.935	307.304	37.728	77.888	255.075	256.578	308.701	14.374	12.099	243.989	0.0022102	0.0044133	0.0017071	802.44	4.8167e-05	5.1832e-05	708.26	296.51	8.1809e-05	4.2466e-05	290.71	101.12	100.13	38.191	9.8011e-05	35.502	0.017295	0.021285	0.0058304	1602.6	0.00020071	0.000237	1499.9	557.92	0.00020114	0.00023818	766.72	226.7	332.87	84.295	0.00021974	90.974	-0.299	107.046	-8.183	-10.093	143.312	206.705	-11.553	-4.287	230.175	158.536	-8.510	-3.413	2.505	5.381	-9.374	-0.252	-8191	255	
1222.150	1	1	0	0	0.13436	0.10481	0.24235	0.074694	0.15778	0.065438	0.02176	0.12401	0.23526	0.037868	0.11058	0.11619	0.016454	0.022929	0.023313	0.14526	-3.2021	-3.9917	-3.6229	-3.7833	-4.0729	-3.7521	-4.0542	-3.9167	-3.7646	-3.975	-3.7646	-3.8375	-3.9542	-3.7958	-3.9667	-3.9562	112.350	233.609	114.066	68.042	-5.892	158.138	223.091	264.503	55.595	-5.196	323.017	266.733	113.988	262.242	-18.721	226.768	0.0015211	0.0011458	0.00095319	804.36	0.00010104	1.4429e-05	710.33	295.22	0.00017653	2.8941e-05	291.39	100.72	102.19	38.074	5.2103e-05	35.664	0.018249	0.021992	0.005662	1581	0.00021355	0.00024181	1471.7	549.28	0.00021489	0.00023792	749.07	222.54	349	83.415	0.00021066	89.041	329.600	291.626	-7.199	-10.072	173.115	290.152	-11.698	-4.077	220.492	3.643	-8.254	-3.228	2.918	5.215	284.892	0.539	-8191	255	
1222.246	1	1	0	0	0.25147	0.17471	0.10893	0.28487	0.091981	0.20725	0.21985	0.12859	0.22059	0.023821	0.28003	0.071114	0.11871	0.23822	0.08394	0.10919	-3.3646	-3.9667	-3.6083	-3.6396	-3.9917	-3.6104	-3.9271	-3.9292	-3.6271	-4.0208	-3.7562	-3.8542	-3.8917	-3.7125	-3.8	-3.8958	44.681	233.981	232.473	308.321	191.825	281.222	313.044	21.707	29.707	173.861	279.889	85.290	150.515	-10.954	204.623	154.729	0.0026285	0.0061255	0.00097418	811.56	0.00012086	3.1763e-05	708.08	295.92	0.00010946	2.1641e-05	287.86	100.92	102.84	37.847	6.2627e-05	35.025	0.01925	0.021168	0.0054043	1553.7	0.00022456	0.00023157	1441.7	544.1	0.00022715	0.00022913	737.45	223.26	365.62	81.948	0.00020671	89.94	322.241	318.695	314.767	-9.711	161.746	-17.751	-11.795	-4.020	231.316	70.042	-7.850	-3.084	1.516	4.792	-2.900	1.358	-8191	255	
1222.342	1	1	0	0	0.14232	0.065862	0.23071	0.26022	0.26286	0.20375	0.23189	0.073156	0.11792	0.077554	0.034974	0.14721	0.061208	0.18821	0.16887	0.18963	-3.4167	-3.9375	-3.9479	-3.7438	-4.0083	-3.6521	-3.8021	-3.95	-3.7896	-3.9938	-4.0188	-3.6979	-3.9958	-3.6021	-3.6437	-4.1833	53.532	-11.086	40.560	283.698	57.145	130.297	287.960	60.472	241.049	328.549	61.837	29.103	31.575	296.591	165.557	270.826	0.0032313	0.0084736	0.0014233	802.4	2.9433e-05	1.2753e-05	703.85	294.81	1.0514e-05	7.6111e-05	289.76	99.407	101.68	37.735	6.1329e-06	34.738	0.020478	0.020498	0.0052746	1578.5	0.00023409	0.00022179	1409.2	552.35	0.00023298	0.00021683	714.08	226.64	365.64	78.852	0.00019499	91.539	334.847	300.662	-16.460	-8.866	194.232	18.550	-11.980	-3.529	16.838	-1.137	-8.406	-2.230	1.252	4.960	26.347	1.036	-8191	255	
1222.461	1	1	0	0	0.32483	0.26394	0.27195	0.090525	0.20107	0.19209	0.22294	0.23725	0.10102	0.074521	0.037592	0.1543	0.20208	0.11609	0.19313	0.19696	-3.3271	-3.7458	-3.875	-3.7562	-4.0396	-3.6063	-3.8021	-4.075	-3.7958	-3.7333	-3.8833	-3.7604	-3.9271	-3.7833	-3.6688	-4.1708	57.072	158.533	329.141	29.481	-21.104	4.593	223.563	334.544	52.238	329.912	46.686	223.953	12.733	70.700	144.916	307.203	0.00047996	0.0041895	0.0012507	801.99	8.9735e-05	6.9215e-06	701.28	294.54	6.4146e-05	5.1069e-05	283.69	100.54	101.97	37.995	5.1026e-06	34.793	0.020192	0.019266	0.0049815	1616.7	0.00022786	0.00020983	1372	564.81	0.00022436	0.0002058	692.95	233.83	354.2	77.257	0.00018927	94.881	218.723	321.293	333.548	-9.631	3.688	159.806	-11.990	-3.659	101.544	6.015	-7.538	-2.000	0.169	4.803	199.417	1.399	-8191	255	
1222.557	1	1	0	0	0.17087	0.13395	0.080991	0.20182	0.15566	0.14332	0.060586	0.20592	0.18831	0.027856	0.13922	0.16601	0.25447	0.059221	0.11357	0.12676	-3.4125	-3.7812	-3.9854	-3.8312	-3.9104	-3.75	-3.8625	-4.1042	-3.7021	-3.9437	-3.8792	-3.7146	-4.0417	-3.8458	-3.575	-4.0958	232.629	118.791	208.427	216.046	82.680	131.948	216.066	-21.012	206.396	325.313	-11.609	3.959	292.035	231.713	314.839	194.777	0.0010587	0.001153	0.00038962	808.93	4.5618e-05	3.3914e-05	701.81	294.12	3.571e-05	4.0034e-05	286.09	101.21	100.85	37.887	5.9826e-05	35.281	0.01946	0.018624	0.0049074	1663	0.00021798	0.00020264	1366.1	576.48	0.00021279	0.00019604	692.66	237.8	338.13	75.016	0.00019026	96.078	180.645	309.088	173.140	-9.811	-0.522	4.623	-10.893	-3.384	28.198	8.326	-6.672	-3.480	0.900	4.640	198.180	0.748	-8191	255	
1222.653	1	1	0	0	0.16104	0.18811	0.12238	0.32726	0.19198	0.038083	0.10939	0.16121	0.28047	0.13141	0.1952	0.11277	0.2472	0.31297	0.10729	0.33025	-3.3583	-3.7708	-3.7333	-3.5958	-3.8896	-3.7167	-3.5021	-4.1583	-3.6771	-3.7208	-3.9938	-3.7	-3.8479	-3.7875	-3.5646	-4.0375	16.297	281.935	61.470	-18.714	249.529	35.538	159.816	248.573	334.865	82.292	317.022	53.156	21.489	13.833	241.004	132.906	0.0015646	0.0050722	0.0013321	806.13	5.9892e-05	2.7e-05	699.16	298.23	3.9711e-05	2.0836e-05	284.86	101.96	103.14	37.883	9.9686e-05	35.585	0.018212	0.017559	0.0049823	1676	0.00020529	0.00019288	1404.2	580.61	0.0002042	0.0001892	718.24	239.73	330.06	73.886	0.0002035	95.821	207.370	279.430	175.514	-9.614	297.637	48.458	-11.002	-4.170	112.875	4.444	-6.425	-3.347	0.497	5.100	201.198	-0.494	-8191	255	
1222.750	1	1	0	0	0.20042	0.15925	0.25799	0.3758	0.21549	0.082801	0.14704	0.16601	0.079471	0.081532	0.10228	0.050704	0.1437	0.11479	0.16946	0.21305	-3.4625	-3.4979	-3.9875	-3.675	-3.8604	-3.8958	-3.5042	-4.1062	-3.7458	-3.725	-3.8458	-3.8458	-3.8042	-3.8979	-3.5896	-4.0042	324.999	121.037	26.239	285.583	101.438	90.210	318.628	284.586	135.913	-6.606	210.652	261.238	-10.273	197.326	174.932	230.557	0.00024217	0.0047737	0.0015392	813.14	6.1046e-05	2.9793e-05	700.26	297.57	2.9468e-05	8.9209e-06	288.54	102.41	100.9	37.551	8.0651e-05	35.645	0.017654	0.017045	0.0053398	1659.4	0.0001995	0.00018834	1454.9	572.16	0.00019998	0.00018689	751.49	235.65	324.15	73.622	0.00021644	93.232	280.903	16.593	165.766	-10.292	328.104	202.942	-11.335	-4.393	25.178	239.547	-7.127	-3.301	1.159	5.612	193.214	-0.014	-8191	255	
1222.821	1	1	0	0	0.10662	0.20699	0.085625	0.31482	0.050988	0.097451	0.11496	0.16577	0.066667	0.17857	0.11909	0.1395	0.021709	0.21409	0.22448	0.2439	-3.3583	-3.6792	-3.9729	-3.7417	-3.7125	-3.9021	-3.7458	-4.0104	-3.6875	-3.4604	-3.8521	-3.4875	-3.6771	-4.0229	-3.4917	-3.9417	40.668	314.637	47.021	285.410	323.297	202.473	194.164	164.317	186.607	89.830	78.504	101.320	89.990	-1.637	-7.279	291.581	0.0011609	0.0037461	0.00062103	812.16	4.3083e-05	6.8792e-05	702.07	299.56	6.2855e-05	5.2943e-05	284.09	101.2	100.81	37.714	9.3896e-06	35.535	0.01713	0.017096	0.0055872	1616.3	0.00019199	0.00019107	1484.2	558.99	0.0001923	0.00019271	763.12	228.41	314.41	75.197	0.00022138	90.373	216.704	68.728	144.087	-9.726	300.209	204.062	-11.120	-4.135	58.767	194.726	-7.226	-3.683	0.998	5.656	221.749	-0.114	-8191	255	
1222.942	1	1	0	0	0.14758	0.23073	0.15685	0.063873	0.23853	0.11172	0.094624	0.26235	0.074741	0.10715	0.21491	0.044657	0.1418	0.024206	0.043642	0.24418	-3.3771	-3.5292	-4.2188	-3.6917	-3.6896	-3.8708	-3.6542	-4.1062	-3.8063	-3.6583	-4.075	-3.7125	-3.6542	-4.0417	-3.6083	-4.0729	281.777	124.372	305.818	105.656	212.032	271.864	282.495	311.690	100.482	-6.369	266.862	24.747	85.097	110.713	191.707	226.000	0.0011717	0.0094073	0.0003943	807.26	6.0421e-05	6.5218e-05	712.16	298.53	5.5165e-05	4.306e-05	292.56	100.49	101.02	37.976	8.1469e-05	35.775	0.016487	0.018023	0.0056263	1578.3	0.00018342	0.00019954	1473.8	542.76	0.00018183	0.00020073	746.99	222.25	305.08	77.481	0.00021395	88.221	212.625	112.630	199.623	-9.713	273.809	217.385	-11.321	-4.594	42.132	178.662	-8.116	-3.389	1.096	6.175	30.024	0.674	-8191	255	
1223.038	1	1	0	0	0.16044	0.25882	0.15449	0.12807	0.063466	0.1193	0.41029	0.16375	0.16644	0.12426	0.084904	0.1013	0.14435	0.079718	0.14068	0.090957	-3.3646	-3.4479	-3.7854	-3.75	-3.6479	-3.7938	-3.5396	-4.0104	-3.7542	-3.6063	-3.9646	-3.7708	-3.7417	-4.0604	-3.7417	-3.9646	306.102	268.450	168.017	290.719	17.389	136.316	295.216	263.764	156.227	267.805	-12.539	161.443	207.094	15.070	330.289	160.268	0.00064819	0.0091135	0.0011697	814.05	3.7895e-05	4.9681e-05	719.15	297.08	4.946e-05	3.8346e-05	290.47	101.83	101.65	37.609	4.2722e-05	35.51	0.015925	0.019075	0.0054211	1554.7	0.00018023	0.0002119	1447.1	534.14	0.00018065	0.00021219	726.89	217.64	305.71	79.107	0.00020392	86.154	281.110	118.185	-21.889	-9.912	168.000	221.921	-11.365	-4.047	252.757	157.244	-8.236	-3.068	1.989	5.545	-11.968	0.260	-8191	255	
1223.134	1	1	0	0	0.18529	0.34022	0.13682	0.12916	0.19994	0.090221	0.18005	0.29918	0.10153	0.1939	0.21686	0.18944	0.036851	0.14054	0.2543	0.17382	-3.5	-3.6458	-4.0083	-3.7354	-3.6708	-4.125	-3.6813	-3.7583	-3.9271	-3.5563	-3.9333	-3.8333	-3.6667	-3.9792	-3.6396	-3.6896	6.077	-6.821	79.696	333.618	91.176	295.712	251.907	252.404	12.626	283.819	129.359	-7.871	11.767	294.303	139.754	104.141	0.0019411	0.0046655	0.0012753	810.82	7.2734e-05	7.4452e-05	714.34	297.13	8.4654e-05	1.7948e-05	294.95	100.76	100.39	38.234	5.5945e-05	35.746	0.016269	0.019952	0.0052167	1531.4	0.00018944	0.0002212	1427.9	529.24	0.00019264	0.00022092	717.4	216.08	322.82	80.309	0.00020003	85.514	-15.472	20.812	2.087	-10.341	165.848	167.756	-12.169	-4.445	229.514	65.852	-7.712	-3.929	4.237	4.888	6.074	0.016	-8191	255	
1223.255	1	1	0	0	0.17485	0.10465	0.075838	0.12696	0.07252	0.18766	0.14971	0.2081	0.16087	0.28791	0.14961	0.18587	0.21588	0.22724	0.10614	0.042634	-3.6083	-3.6417	-3.9479	-3.9292	-3.6979	-4.0208	-3.7438	-3.8438	-4.0354	-3.6833	-3.7917	-3.8396	-3.5604	-4	-3.6396	-3.6083	110.919	36.906	281.336	7.813	244.664	222.287	311.167	285.033	89.741	231.610	279.420	23.984	23.240	17.460	98.580	286.187	0.0019878	0.0029908	0.0010845	810.57	9.314e-05	2.981e-05	711.82	295.69	0.00010015	4.9935e-05	289.94	100.75	100.97	37.625	5.3461e-05	35.201	0.017606	0.020227	0.005123	1520.1	0.00020594	0.00022181	1419.2	528.34	0.00021099	0.00022195	715.12	217.61	346.5	80.338	0.00020117	86.461	320.462	311.174	4.567	-9.619	180.056	31.697	-11.683	-4.413	250.028	13.659	-8.258	-2.842	2.876	5.133	73.660	0.749	-8191	255	
1223.349	1	1	0	0	0.10333	0.14392	0.096199	0.20901	0.22371	0.17213	0.058052	0.23355	0.12854	0.07529	0.28652	0.17819	0.10081	0.077408	0.29129	0.20832	-3.4125	-3.5083	-3.8187	-3.8563	-3.6396	-3.8292	-3.6875	-3.6208	-3.9417	-3.6458	-3.8104	-3.7542	-3.6083	-3.8	-3.7854	-3.7521	48.575	49.166	123.250	-21.509	176.008	202.137	15.838	258.618	225.552	259.814	313.222	312.522	145.202	176.410	185.278	159.901	0.0026426	0.011188	8.2782e-05	811.4	7.7603e-05	8.0794e-05	711.49	294.42	6.9454e-05	6.3167e-05	289.69	99.667	101.36	37.778	2.9474e-05	34.594	0.019278	0.020114	0.0051386	1543.7	0.00022344	0.00021864	1410.6	538.16	0.00022577	0.00021716	708.59	222.1	361.68	79.193	0.00019779	89.573	325.771	303.496	235.614	-9.430	175.000	40.700	-12.150	-3.759	217.192	0.562	-7.847	-2.746	1.994	5.291	59.165	0.881	-8191	255	
1223.423	1	1	0	0	0.11468	0.053161	0.06459	0.14901	0.22091	0.10649	0.041177	0.30206	0.066767	0.22054	0.26933	0.089235	0.13071	0.2803	0.31824	0.089166	-3.5875	-3.6729	-3.5604	-4.0208	-3.575	-3.9583	-3.9833	-3.8083	-4.1958	-3.7917	-3.8021	-4.0312	-3.675	-3.925	-3.8542	-3.7375	-14.992	295.781	338.445	266.634	70.298	273.967	290.943	288.141	234.362	16.412	313.026	98.931	45.059	293.508	275.332	234.866	0.0010814	0.0028905	0.00058149	809.02	2.7748e-05	4.0679e-05	711.26	295.5	2.1555e-05	1.6054e-05	289.32	99.21	101.52	37.522	5.0874e-05	34.936	0.020154	0.019564	0.0049988	1593	0.00022906	0.00021109	1386.7	555.6	0.00022603	0.00020882	691.11	229.71	357.28	77.266	0.00019004	93.203	297.452	326.945	30.270	-9.167	244.898	0.345	-12.230	-3.302	19.784	-3.301	-8.095	-2.200	1.692	5.306	332.186	1.716	-8191	255	
1223.541	1	1	0	0	0.078737	0.069741	0.17388	0.2525	0.080802	0.055035	0.22925	0.25029	0.1824	0.090591	0.18809	0.031474	0.31662	0.26853	0.037958	0.10436	-3.6125	-3.7375	-3.7146	-4.0729	-3.5896	-3.8583	-3.8708	-3.7208	-3.9875	-3.75	-3.8917	-4.0125	-3.6312	-4.0271	-3.85	-3.5792	243.796	42.024	151.912	229.150	11.794	122.980	253.661	280.221	255.694	113.109	284.561	306.205	84.488	40.188	253.831	163.368	0.00070152	0.0052317	0.00082657	806.66	5.6059e-05	4.1654e-05	708.04	295.67	7.9683e-05	4.904e-05	291.16	101.66	102.19	37.872	2.5361e-05	35.737	0.019532	0.01882	0.0048549	1647.6	0.00022317	0.0002052	1376.4	575.61	0.00021967	0.00020411	694.19	239.58	349.36	76.353	0.00019207	97.191	286.471	301.656	118.184	-8.909	43.503	335.671	-11.669	-3.620	26.369	15.993	-7.918	-2.239	0.746	4.757	245.659	1.202	-8191	255	
1223.638	1	1	0	0	0.094006	0.24305	0.099289	0.24364	0.13379	0.13011	0.017585	0.28155	0.090494	0.067124	0.032328	0.25173	0.14926	0.061714	0.23072	0.070956	-3.6521	-3.7979	-3.5687	-3.9458	-3.7396	-3.5542	-3.85	-3.5812	-3.8521	-3.8	-3.7292	-4.1292	-3.6271	-3.8708	-3.7333	-3.725	297.387	241.401	-18.712	321.632	121.607	209.326	228.891	278.888	294.583	264.671	293.291	15.170	20.170	208.122	23.360	84.114	0.0020439	0.0054283	0.00055833	813.35	6.7475e-05	4.033e-05	702.02	296.99	3.5943e-05	5.7837e-05	284.46	102.29	101.41	38.007	7.428e-05	35.905	0.018854	0.018376	0.0049941	1694.4	0.00021534	0.00019937	1407.9	588.48	0.00021108	0.00019784	715.81	243.83	339.87	75.069	0.00020361	98.483	193.036	334.021	118.532	-9.372	332.229	5.406	-10.863	-3.602	36.598	43.504	-7.023	-3.199	0.504	4.627	208.290	0.467	-8191	255	
1223.734	1	1	0	0	0.19625	0.12295	0.2587	0.21658	0.22945	0.25476	0.062056	0.27138	0.24521	0.19239	0.15933	0.15528	0.34885	0.14036	0.069407	0.15833	-3.5479	-3.8604	-3.5812	-4.0375	-3.6312	-3.7771	-4.0292	-3.8292	-3.8833	-3.7333	-3.7208	-4.0521	-3.6021	-3.6979	-3.9208	-3.6562	180.221	74.297	319.658	277.549	49.783	307.891	191.985	-12.431	12.629	190.993	-16.791	-19.591	262.220	11.200	86.644	109.201	0.0014379	0.0052177	0.0022046	822.61	5.5533e-05	2.9764e-05	702.98	301.72	6.171e-05	2.3367e-05	286.83	101.63	100.32	37.861	2.457e-05	35.596	0.018264	0.017928	0.0053522	1704.5	0.00020975	0.00019448	1464	587.16	0.00020583	0.00019375	750.91	240.8	333.04	74.132	0.00021642	95.832	57.048	328.752	158.358	-9.825	335.110	63.383	-10.734	-4.070	-18.545	2.586	-6.920	-4.057	0.700	5.542	228.052	-0.256	-8191	255	
1223.854	1	1	0	0	0.12476	0.12869	0.10054	0.15007	0.13978	0.052678	0.26242	0.16329	0.17105	0.20612	0.16816	0.11902	0.15266	0.20809	0.18351	0.12644	-3.4	-3.7604	-3.5625	-4.0604	-3.7854	-3.6833	-4.1021	-3.7646	-3.7083	-3.9479	-3.6521	-4.075	-3.8063	-3.7562	-4.0479	-3.8063	212.396	330.448	-5.524	223.264	101.842	40.308	237.422	68.498	333.991	-6.646	0.929	324.923	335.097	288.150	129.350	280.311	0.00030986	0.0050626	0.0014447	813.16	3.9695e-05	1.3605e-05	704.74	298.28	2.6109e-05	3.5273e-05	286.04	100.82	101.48	37.743	6.4957e-05	35.679	0.017547	0.017483	0.0056498	1656.7	0.00020231	0.00019363	1505.5	575.17	0.00020068	0.00019698	779.53	235.46	328.39	75.756	0.0002285	93.969	195.613	170.228	115.126	-10.291	15.119	242.176	-11.305	-4.171	92.696	162.745	-6.663	-3.492	0.945	5.695	201.109	-0.025	-8191	255	
1223.951	1	1	0	0	0.10628	0.047007	0.18658	0.064178	0.17078	0.056521	0.11937	0.26353	0.23877	0.11697	0.18248	0.21729	0.13254	0.07323	0.21336	0.12843	-3.4562	-4.0354	-3.4958	-3.9771	-3.7771	-3.7083	-4.1208	-3.8083	-3.8146	-3.9771	-3.6854	-3.9313	-3.8458	-3.8667	-4.0042	-3.7792	175.461	51.931	228.751	278.740	289.505	105.786	271.585	253.401	186.360	29.813	268.509	249.947	0.318	79.767	25.006	281.019	0.0017484	0.0048122	0.0014805	812.72	7.4786e-05	6.8949e-05	713.19	297.29	3.3467e-05	6.9809e-05	292.12	100.37	101.18	37.828	4.6884e-05	35.982	0.017099	0.018159	0.0058251	1617.4	0.00019305	0.00020016	1514.4	559.37	0.00019058	0.00020572	778.53	229.1	319.39	78.254	0.00022735	92.643	169.036	82.422	121.758	-10.017	319.744	216.135	-11.875	-4.383	113.657	187.039	-7.495	-3.253	1.240	6.096	309.000	0.269	-8191	255	
1224.047	1	1	0	0	0.26074	0.079307	0.12484	0.24325	0.23306	0.18664	0.23899	0.19144	0.14689	0.16449	0.13373	0.17744	0.076485	0.13863	0.11692	0.23482	-3.2313	-3.7354	-3.5042	-3.975	-3.7833	-3.4771	-4.0687	-3.8896	-3.4875	-4.0646	-3.6146	-4.0542	-3.8875	-3.6208	-3.9771	-3.6458	299.239	255.349	277.821	298.322	78.987	335.767	246.972	291.739	313.017	192.574	301.832	290.605	-0.745	-1.597	213.197	-12.006	0.00086348	0.012049	0.00043795	812.75	2.3377e-05	8.8568e-05	716.99	299.02	6.746e-05	6.6765e-05	294.5	101.47	103.09	38.032	5.3708e-05	36.039	0.01682	0.019765	0.0058577	1610.1	0.00019337	0.00022098	1518.2	558.99	0.00019296	0.00022538	777.7	229.09	322.83	82.26	0.00022459	92.235	134.880	131.386	37.139	-10.170	160.845	218.686	-11.864	-3.719	218.118	203.249	-8.322	-3.438	1.579	5.478	24.418	-0.001	-8191	255	
1224.118	1	1	0	0	0.20016	0.18594	0.10414	0.10944	0.15428	0.1228	0.18202	0.19294	0.16708	0.16524	0.025705	0.12494	0.081023	0.1462	0.31695	0.042873	-3.3438	-4.0312	-3.6854	-3.8729	-3.8063	-3.6667	-4.0875	-3.7729	-3.6333	-4.0021	-3.7146	-3.7354	-3.8167	-3.7771	-3.9813	-3.825	291.654	42.843	150.180	289.093	137.160	126.282	220.110	264.473	213.128	303.430	291.748	152.798	65.233	250.171	325.248	273.796	0.0010635	0.0069894	0.0014848	815.9	1.0119e-05	4.5598e-05	718.88	299.16	8.1416e-05	5.9095e-05	290.55	101.6	101.05	38.209	5.8308e-05	35.917	0.017188	0.021164	0.0057261	1597.3	0.00019885	0.00023488	1490.6	553.36	0.00020001	0.00023557	760.04	225.04	334.15	83.752	0.00021623	90.318	3.252	139.193	336.521	-9.843	194.893	198.831	-11.751	-4.162	247.192	214.230	-8.693	-3.848	2.983	5.475	39.503	0.068	-8191	255	
1224.239	1	1	0	0	0.06638	0.023104	0.15796	0.052066	0.15577	0.15988	0.2351	0.12671	0.19006	0.15379	0.069196	0.092097	0.19535	0.1926	0.19292	0.10391	-3.2917	-3.9354	-3.6437	-3.6667	-3.9354	-3.4938	-3.8812	-3.8375	-3.5604	-4.0792	-3.5979	-3.6917	-3.925	-3.7417	-3.7313	-3.9083	278.477	215.935	316.273	243.309	170.374	119.568	248.370	258.907	99.488	111.655	304.527	116.886	86.280	314.878	126.116	197.362	0.0026324	0.0031087	0.0014013	812.55	0.00012574	2.4024e-05	709.46	295.95	0.00015015	6.6081e-05	286.91	100.36	102.5	37.901	5.8395e-05	35.489	0.018251	0.021701	0.0055445	1570.5	0.00021191	0.00023653	1458.3	543.87	0.00021485	0.00023434	744.54	221.1	351.58	83.039	0.00021085	88.871	-10.829	186.278	1.877	-10.289	161.026	43.763	-12.170	-4.420	240.840	44.247	-7.714	-3.369	3.316	4.408	21.536	0.599	-8191	255	
1224.333	1	1	0	0	0.21023	0.24733	0.14798	0.15294	0.021727	0.085921	0.40201	0.33083	0.25737	0.11284	0.059466	0.1471	0.061646	0.20595	0.19641	0.072095	-3.3604	-3.9521	-3.6688	-3.6521	-3.8917	-3.5604	-3.8583	-3.725	-3.6875	-3.8104	-3.8563	-3.9125	-4.125	-3.8292	-3.775	-3.8896	-2.027	236.424	194.913	293.246	69.870	32.248	155.496	292.169	290.831	28.511	156.405	1.982	257.014	286.960	218.864	216.901	0.004354	0.0033849	0.0011496	811.68	0.00012252	4.7581e-05	707.07	296	0.00012906	4.7717e-05	287.39	99.748	101.57	38.117	5.7929e-05	35.367	0.019582	0.021106	0.0054057	1560.8	0.00022647	0.00022988	1439.5	545.01	0.00022927	0.00022853	735.66	224.11	369.07	82.049	0.00020779	91.098	-10.271	273.214	-4.093	-9.817	170.102	41.256	-12.416	-4.036	239.523	24.208	-8.184	-2.948	1.546	4.954	3.067	1.291	-8191	255	
1224.430	1	1	0	0	0.2108	0.13678	0.16514	0.17866	0.06117	0.33489	0.15515	0.18515	0.096445	0.23246	0.075304	0.19729	0.11699	0.26717	0.040738	0.19653	-3.1229	-3.7917	-3.7687	-3.7167	-4.0854	-3.6333	-3.8438	-4.0021	-3.7625	-3.8187	-3.9042	-3.6458	-3.8625	-3.7792	-3.8208	-3.8854	72.273	41.717	89.904	218.480	-5.417	28.653	252.126	279.207	153.581	140.950	245.572	283.590	269.529	322.844	-9.829	279.765	0.0026818	0.0072124	0.001473	804.22	3.8659e-05	6.8174e-05	711.57	295.67	5.5916e-05	4.691e-05	288.49	101.16	102.65	38.029	2.0886e-05	35.079	0.020851	0.02062	0.0053167	1600.3	0.00023864	0.00022333	1422.1	559.31	0.00023769	0.00021977	724.27	233.21	374.61	80.858	0.00020302	95.67	3.736	257.592	-11.080	-9.278	107.268	31.258	-11.606	-3.560	38.791	-21.430	-7.710	-1.961	0.718	5.011	103.323	1.073	-8191	255	
1224.526	1	1	0	0	0.13025	0.056564	0.084961	0.03977	0.016529	0.10881	0.1852	0.090082	0.15328	0.15175	0.11138	0.10137	0.1326	0.34418	0.24906	0.094753	-3.0833	-3.8187	-3.7125	-3.7604	-3.8354	-3.6375	-3.6292	-4.1417	-3.7354	-3.8167	-3.8521	-3.7208	-3.8333	-3.7562	-3.6979	-3.9562	50.516	285.367	36.287	-14.833	201.372	241.521	238.111	84.267	188.757	217.486	181.960	80.477	99.582	-19.762	202.054	69.289	0.00098491	0.0054422	0.00054233	810.92	5.257e-05	4.2336e-05	712.34	296.08	6.2814e-05	6.0947e-05	287.2	101.33	100.29	37.854	4.5473e-05	35.788	0.021129	0.020191	0.0052307	1678.6	0.00023995	0.00022091	1417.4	585.9	0.00023654	0.00021708	719.21	244.71	368.55	79.835	0.00020156	100.41	101.273	330.087	328.491	-8.848	-12.778	25.516	-11.891	-3.343	25.765	5.351	-7.691	-1.872	1.080	4.671	77.451	1.258	-8191	255	
1224.646	1	1	0	0	0.13745	0.28069	0.18044	0.25624	0.094036	0.13797	0.079977	0.25176	0.058481	0.17918	0.21621	0.17372	0.060125	0.011793	0.11026	0.22471	-3.0958	-3.6833	-3.9146	-3.6667	-3.8583	-3.6875	-3.9271	-3.8833	-3.7146	-3.8958	-4.0938	-3.6125	-4.0021	-3.6688	-3.4854	-4.1854	78.589	5.261	144.114	329.488	280.554	119.005	338.031	26.704	14.029	172.676	20.655	260.410	-3.400	146.984	267.069	176.596	0.0012829	0.0031289	0.00053755	817.15	7.5383e-05	4.9196e-05	705.73	296.48	5.2946e-05	4.8129e-06	286.68	102.96	102.33	37.431	7.3225e-05	35.61	0.020544	0.019704	0.0052585	1743.8	0.00023296	0.00021721	1436.6	605.61	0.00023159	0.00021386	739.67	254.2	361.87	78.943	0.00021303	102.8	184.981	-9.779	158.748	-9.273	1.195	35.985	-11.365	-3.453	61.357	-12.347	-6.853	-3.290	0.193	5.117	184.373	0.492	-8191	255	
1224.718	1	1	0	0	0.21873	0.15954	0.092499	0.17168	0.23781	0.23605	0.23389	0.29496	0.17949	0.25486	0.13911	0.24829	0.18702	0.12472	0.15179	0.15024	-3.3646	-3.6479	-3.7625	-3.8937	-3.9042	-3.8104	-3.6958	-3.9625	-3.5625	-3.8083	-3.8458	-3.6688	-4.0021	-3.9854	-3.3875	-4.0062	182.306	74.033	240.624	287.848	115.302	253.989	302.464	204.856	276.143	250.525	182.489	311.792	185.201	94.274	118.540	-16.963	0.0021305	0.0053821	0.0023871	817.37	5.0368e-05	9.5094e-05	705.03	298	1.6897e-05	1.2382e-05	285.59	100.32	101.88	37.666	0.00015299	35.481	0.019956	0.019222	0.0055578	1766.8	0.00022401	0.0002089	1476.4	604.64	0.00022127	0.00020494	765.44	251.74	351.39	77.462	0.00022857	102.03	173.401	335.425	135.174	-9.836	21.854	35.126	-10.954	-4.226	278.972	246.170	-6.468	-3.267	0.908	4.810	199.011	-0.185	-8191	255	
1224.814	1	1	0	0	0.18805	0.12011	0.11405	0.10009	0.035485	0.162	0.18863	0.15147	0.23341	0.22491	0.14132	0.12833	0.13747	0.059556	0.1089	0.2019	-3.2562	-3.575	-3.8979	-3.8146	-3.6354	-3.7958	-3.7208	-4.1583	-3.7021	-3.6	-3.8958	-3.5708	-3.8229	-3.8479	-3.75	-3.9146	216.496	216.539	202.784	267.354	332.163	282.626	197.223	316.269	331.495	307.201	256.500	-15.085	-22.429	236.913	300.541	9.666	0.0016343	0.0015369	0.0022974	818.7	5.6698e-05	5.3884e-05	701.12	296.92	3.6015e-05	4.5789e-05	284.14	100.84	101.67	37.588	6.7558e-05	35.583	0.019636	0.019059	0.0060516	1762.6	0.0002232	0.00021091	1555.2	602.89	0.00022038	0.00020804	807.58	249.14	348.81	78.39	0.00024645	100.76	224.451	335.734	162.209	-9.647	25.772	126.987	-11.391	-4.612	82.163	214.492	-6.994	-4.243	1.060	5.462	186.001	-0.040	-8191	255	
1224.935	1	1	0	0	0.072396	0.042143	0.11538	0.233	0.099822	0.2779	0.067909	0.14911	0.25301	0.17259	0.13204	0.058376	0.25081	0.10875	0.095634	0.25883	-3.3958	-3.6833	-3.9729	-3.8	-3.7521	-3.8875	-3.7313	-3.8312	-3.8271	-3.6583	-4.0125	-3.7083	-3.65	-3.9792	-3.5729	-3.775	-9.927	169.888	45.327	330.240	298.037	133.040	264.590	109.877	188.641	67.673	215.865	128.007	-0.161	157.484	131.753	318.625	0.00088606	0.0087122	0.0016597	815.89	4.2727e-05	3.7458e-05	711.81	298.04	5.3807e-05	7.8426e-05	286.87	100.15	101.87	37.546	1.5205e-05	35.944	0.019445	0.01982	0.0064899	1747.4	0.00022084	0.00022286	1616.1	596.53	0.0002184	0.00022275	833.56	245.89	342.24	81.231	0.00025219	98.761	192.385	136.657	144.982	-10.195	45.502	183.602	-11.367	-4.692	24.848	179.049	-7.375	-3.635	1.088	5.981	334.987	-0.260	-8191	255	
1225.031	1	1	0	0	0.087027	0.11813	0.13453	0.12103	0.072432	0.14411	0.19039	0.11777	0.25674	0.0045181	0.18336	0.2512	0.090465	0.18268	0.23362	0.011238	-3.3458	-3.4813	-3.9604	-3.7042	-3.7417	-3.9146	-3.6792	-3.9437	-3.9229	-3.5125	-4.05	-3.625	-3.6583	-3.9333	-3.5542	-3.9	62.808	269.599	118.489	-11.728	234.469	106.135	28.145	273.091	22.674	255.693	273.509	292.097	183.290	194.739	142.823	252.107	0.0010914	0.0089839	0.00044192	812.08	6.0566e-05	9.1088e-05	713.35	296.62	5.9097e-05	0.00012939	284.97	100.41	102.1	38.16	5.686e-05	35.695	0.01887	0.02116	0.0065241	1713.8	0.00021576	0.00023953	1619.7	590.79	0.00021524	0.00024273	831.22	243.56	340.31	85.04	0.00024786	96.944	244.949	133.754	198.690	-10.242	0.696	188.853	-12.104	-4.005	-12.987	181.456	-8.067	-3.826	1.429	6.305	35.234	-0.108	-8191	255	
1225.127	1	1	0	0	0.16021	0.14061	0.070868	0.030761	0.22991	0.15752	0.15405	0.14442	0.054264	0.090029	0.33035	0.016321	0.25078	0.2736	0.082024	0.099507	-3.4417	-3.5625	-3.9042	-3.7833	-3.5854	-3.9833	-3.7583	-3.8375	-3.8312	-3.7479	-3.9188	-3.7792	-3.5792	-4.0479	-3.6	-3.9104	4.386	246.666	316.448	308.970	232.109	-22.066	22.292	264.333	254.010	175.304	290.722	183.803	313.669	238.284	146.699	-15.949	0.00031511	0.008258	0.00055556	810.15	3.1373e-05	7.9702e-05	705.16	292.77	5.6602e-05	6.825e-05	284.51	100.51	101.98	37.694	7.6871e-05	35.674	0.018638	0.022541	0.0062903	1677.9	0.00021332	0.00025234	1571.7	577.28	0.00021601	0.00025459	805.67	238.71	348.21	87.46	0.00024013	95.06	121.698	146.387	-13.268	-10.371	104.701	182.083	-12.101	-4.183	205.975	205.396	-8.256	-3.695	2.503	5.576	5.861	-0.321	-8191	255	
1225.223	1	1	0	0	0.079801	0.22244	0.1174	0.12987	0.1848	0.10273	0.10911	0.21746	0.14559	0.188	0.074309	0.24118	0.24205	0.12268	0.08244	0.024221	-3.4313	-3.7396	-3.7354	-4.0521	-3.4771	-4.1521	-3.7479	-3.6375	-3.8583	-3.6	-4	-3.9292	-3.5604	-3.9688	-3.5521	-3.8042	269.106	116.902	251.481	313.102	62.564	100.458	294.134	5.730	287.597	160.703	250.348	322.763	327.563	113.387	136.747	175.837	0.0035268	0.0044684	0.0016859	809.59	0.00011226	2.3218e-05	697.08	294.69	0.00014659	2.995e-05	283.48	99.208	100.47	37.853	4.4701e-05	35.239	0.019393	0.023508	0.0060595	1649.2	0.00022402	0.00025812	1530.1	565.99	0.00022768	0.00025755	785.55	233.65	365.03	87.47	0.00023379	93.961	333.236	142.613	-3.318	-10.245	157.399	156.933	-11.896	-4.533	207.498	-14.005	-7.465	-3.582	3.115	5.048	274.132	-0.010	-8191	255	
1225.319	1	1	0	0	0.10421	0.28353	0.14076	0.3266	0.16009	0.18966	0.12904	0.085417	0.18641	0.11602	0.19987	0.13	0.16284	0.075148	0.17302	0.097613	-3.4667	-3.5417	-3.7062	-3.75	-3.5333	-3.9854	-3.8208	-3.8667	-3.9	-3.6417	-3.5958	-3.7604	-3.6583	-4.0667	-4.0521	-3.7708	128.540	200.038	2.070	236.890	222.179	175.016	238.368	185.978	319.203	237.368	-20.541	28.030	315.989	141.278	326.677	229.864	0.0030731	0.0039067	0.0016833	802.62	9.6891e-05	7.912e-05	702.84	294.56	8.1905e-05	5.6741e-05	282.93	99.467	101.1	37.671	4.6971e-05	35.044	0.020918	0.023473	0.0059423	1631	0.0002417	0.00025404	1514.9	561.49	0.00024339	0.00024948	767.21	231.62	380.56	85.28	0.00022478	93.718	-13.818	7.018	-21.330	-9.604	149.558	45.238	-11.878	-3.996	222.318	11.105	-8.335	-2.870	2.912	4.755	58.580	0.421	-8191	255	
1225.414	1	1	0	0	0.061842	0.14872	0.098129	0.12748	0.075523	0.21339	0.23374	0.15961	0.04599	0.087107	0.13753	0.15897	0.2627	0.27163	0.044568	0.20003	-3.4792	-3.5542	-3.6625	-3.9146	-3.6083	-3.775	-3.7542	-3.7542	-3.9083	-3.575	-3.7333	-3.9521	-3.4875	-3.9188	-3.8271	-3.7104	252.015	114.458	321.172	-19.041	241.878	45.015	-13.417	273.017	-17.988	76.184	281.034	191.583	90.427	323.439	96.288	249.754	0.0020897	0.0031292	0.00113	811.86	7.3721e-05	5.7224e-05	705.04	291.81	3.14e-05	8.3001e-05	288.7	100.07	100.96	37.458	4.2422e-05	35.404	0.021925	0.0224	0.0057259	1644.9	0.0002537	0.00024328	1488.4	570.35	0.00025363	0.00023945	752.94	237.12	388.41	82.691	0.0002147	96.176	328.469	287.137	-6.274	-9.667	127.798	28.413	-12.071	-3.458	22.548	1.275	-7.909	-2.762	-0.051	4.597	51.372	1.213	-8191	255	
1225.534	1	1	0	0	0.24476	0.19882	0.20537	0.035978	0.020851	0.17155	0.32163	0.078959	0.14969	0.20028	0.10079	0.18958	0.15958	0.081472	0.14441	0.1451	-3.5354	-3.6146	-3.5521	-4.0521	-3.5771	-3.9813	-3.7771	-3.6729	-3.8292	-3.6437	-3.7292	-3.9708	-3.5896	-3.8771	-4.0104	-3.6688	334.309	78.708	240.206	278.600	39.165	46.868	215.557	288.897	114.605	18.136	228.893	11.250	71.628	-11.596	324.287	215.051	0.0013907	0.0044693	0.001267	809.59	4.7046e-05	4.1363e-06	709.08	293.77	3.1664e-05	2.5674e-05	291.76	100.67	102.15	37.742	2.3112e-05	34.965	0.022008	0.021228	0.0054314	1685.7	0.00025198	0.00023088	1453.3	586.69	0.00024862	0.00022952	735.12	246.33	381.58	81.088	0.0002076	99.863	247.171	296.736	301.867	-9.400	328.654	83.755	-12.127	-3.241	69.383	326.389	-7.752	-2.296	1.244	5.185	-8.362	0.919	-8191	255	
1225.631	1	1	0	0	0.18692	0.17547	0.14942	0.13288	0.071964	0.1829	0.2439	0.23264	0.18309	0.11449	0.13652	0.14783	0.14506	0.16528	0.15959	0.1705	-3.5917	-3.7083	-3.7333	-4.0312	-3.6188	-3.8563	-4.1208	-3.5896	-3.95	-3.6354	-3.7938	-3.9188	-3.6375	-3.9354	-3.8333	-3.675	-12.859	12.093	58.271	316.772	67.673	254.831	135.481	-20.291	88.386	106.120	248.548	261.770	25.855	259.882	215.621	34.194	0.00076637	0.005141	0.0013485	808.23	7.8397e-05	3.3668e-05	706.72	292.95	5.5457e-05	4.5285e-05	285.2	100.59	101.25	37.704	5.9e-05	35.086	0.021099	0.020317	0.0052378	1724.3	0.0002376	0.00021879	1425.3	597.19	0.00023319	0.00021701	723.88	250.56	365.43	78.764	0.00020838	101.85	220.438	315.064	174.888	-8.729	306.772	47.536	-11.586	-3.481	33.189	35.071	-7.263	-2.756	-0.025	4.704	205.770	0.583	-8191	255	
1225.727	1	1	0	0	0.18784	0.072383	0.15437	0.21552	0.12038	0.21589	0.028219	0.026125	0.16241	0.18769	0.034796	0.33678	0.19792	0.38317	0.12285	0.32372	-3.3937	-3.7438	-3.5125	-4.0708	-3.5208	-3.8667	-4.0437	-3.5563	-3.9437	-3.8125	-3.5958	-4.0062	-3.7229	-3.7479	-4.0104	-3.5062	301.633	74.768	35.350	161.798	207.966	263.103	59.042	129.184	266.393	133.985	107.877	330.261	317.011	-8.996	335.130	257.931	0.001324	0.0056283	0.0014309	808.63	3.7478e-05	5.4458e-05	695.44	294.82	7.3068e-05	3.1997e-05	283.01	99.924	101.48	37.489	0.00010518	35.434	0.020046	0.019496	0.0053723	1754.4	0.0002273	0.00021118	1460.7	606.89	0.00022445	0.00021086	750.8	252.9	355.16	77.172	0.00022031	101.72	163.448	306.664	154.332	-9.543	322.384	34.903	-10.936	-3.813	69.473	77.866	-6.549	-2.842	1.117	4.954	195.509	0.337	-8191	255	
1225.823	1	1	0	0	0.11272	0.29807	0.078566	0.28213	0.16783	0.15242	0.22461	0.1672	0.090178	0.11788	0.27135	0.03832	0.11405	0.17043	0.17666	0.13118	-3.2625	-3.8042	-3.4958	-3.9729	-3.6333	-3.6333	-3.8979	-3.6208	-3.7146	-3.7792	-3.7042	-3.8187	-3.5646	-3.7917	-3.8708	-3.7542	101.275	303.726	6.405	299.026	209.519	194.004	323.291	188.813	166.671	288.192	2.116	275.026	17.856	250.230	89.129	89.798	0.0015772	0.00073674	0.002568	817.6	2.1883e-05	3.3805e-05	707.61	298.12	6.1536e-05	2.9663e-05	289.45	101.64	100.22	37.489	0.00012227	36.089	0.019178	0.018679	0.0056956	1733.5	0.00021644	0.00020145	1503	596.44	0.00021494	0.00020303	783.42	248.57	349.45	77.09	0.00023844	101.22	192.321	83.789	172.511	-10.307	48.042	81.362	-10.973	-4.074	54.471	78.784	-6.214	-4.228	0.274	5.315	193.681	-1.244	-8191	255	
1225.943	1	1	0	0	0.19549	0.23007	0.21452	0.12092	0.079062	0.095998	0.13093	0.20578	0.19793	0.34086	0.10368	0.143	0.15895	0.21277	0.19341	0.20123	-3.2792	-3.7125	-3.5729	-4.0458	-3.7292	-3.6562	-3.9146	-3.6333	-3.7146	-3.8417	-3.8021	-4.0104	-3.6542	-3.8354	-3.9708	-3.4708	90.066	243.453	200.412	41.837	108.188	52.796	313.310	303.050	154.421	284.990	243.820	275.998	-9.536	301.750	-5.838	296.377	0.0001592	0.0029022	0.0024195	808.92	2.3449e-05	3.5135e-05	709.4	299.67	6.1414e-05	5.8023e-05	290.18	101.1	101.95	37.735	3.7898e-05	35.933	0.019167	0.019202	0.0062291	1728	0.00021805	0.00021108	1577.3	593.69	0.00021362	0.00021225	815.8	243.83	341.85	78.602	0.00024386	97.585	303.147	182.631	148.679	-10.188	-3.719	175.982	-11.690	-4.510	54.085	183.458	-6.895	-3.688	0.304	5.838	231.899	0.075	-8191	255	
1226.015	1	1	0	0	0.097145	0.22948	0.12045	0.19972	0.11703	0.11297	0.17064	0.31283	0.15455	0.092626	0.19031	0.14552	0.23958	0.20398	0.16696	0.15633	-3.3271	-3.7583	-3.6083	-3.8896	-3.9146	-3.6521	-4.0167	-3.7771	-3.6229	-3.8438	-3.7292	-3.7146	-3.7687	-3.7333	-3.8812	-3.6125	203.893	155.225	92.708	235.523	219.003	311.391	293.140	241.796	152.068	262.175	241.993	260.233	265.405	257.393	328.797	207.733	0.00070228	0.0064306	0.00041297	812.14	3.4825e-05	7.5383e-05	717.75	296.66	6.7579e-05	0.00011516	288.23	100.39	100.66	37.206	4.9585e-05	35.393	0.018159	0.019695	0.0062435	1669.5	0.00020578	0.0002183	1569.4	574.87	0.00020232	0.00022156	806.83	235.9	330.12	80.966	0.00023916	95.122	193.632	124.025	67.529	-9.864	319.917	202.585	-11.841	-4.153	55.797	203.953	-7.634	-3.589	1.398	5.956	-2.697	-0.185	-8191	255	
1226.111	1	1	0	0	0.1122	0.10072	0.20004	0.079471	0.28189	0.15166	0.21954	0.15707	0.12586	0.30932	0.21034	0.16007	0.10593	0.039178	0.049533	0.16477	-3.35	-3.9146	-3.5958	-3.7438	-3.9146	-3.6479	-4.0167	-3.7271	-3.625	-4.0021	-3.8	-3.8063	-3.6667	-3.9021	-3.9708	-3.7146	57.363	36.368	205.574	124.867	215.754	261.552	267.691	222.589	38.989	195.357	263.762	132.699	35.640	36.030	135.954	221.576	0.00075977	0.0082659	0.0013652	814.52	2.7902e-05	8.43e-05	717.75	294.69	7.6592e-05	4.4644e-05	286.37	99.815	100.39	37.48	1.4807e-05	35.192	0.017661	0.021043	0.0060966	1643.9	0.00020113	0.00023184	1529.2	562.46	0.00019646	0.00023096	774.3	228.18	325.28	82.603	0.00022524	92.045	272.676	98.931	280.590	-10.186	86.263	186.416	-11.913	-4.529	183.533	166.961	-8.025	-3.521	2.142	5.797	17.721	-0.048	-8191	255	
1226.207	1	1	0	0	0.059538	0.13279	0.21383	0.56789	0.15467	0.17031	0.16416	0.09624	0.19683	0.090737	0.20025	0.050248	0.11058	0.032732	0.17751	0.06358	-3.2542	-3.8583	-3.55	-3.8896	-3.9313	-3.6229	-3.9188	-3.7729	-3.6708	-3.95	-3.6042	-3.7417	-3.85	-3.4417	-3.7729	-3.7958	44.460	209.720	49.891	-12.720	171.370	235.255	315.038	52.412	150.963	191.068	296.617	19.905	185.697	253.946	312.018	330.531	0.0020539	0.0041806	0.001148	815.81	8.6e-05	3.5971e-05	719.86	297.5	5.7779e-05	2.7722e-05	290.12	101.2	100.86	37.749	5.0722e-05	35.788	0.01755	0.021684	0.0057563	1600.5	0.00020319	0.00023679	1484.1	549.76	0.00020121	0.00023424	746.98	221.82	332.9	82.646	0.00021235	89.131	315.872	172.330	307.187	-9.648	139.082	144.786	-11.962	-4.542	240.868	233.985	-7.646	-3.600	3.080	5.302	-18.492	-0.278	-8191	255	
1226.326	1	1	0	0	0.18733	0.2759	0.13458	0.096318	0.29322	0.11129	0.06236	0.057336	0.14208	0.12431	0.061977	0.069635	0.065248	0.2547	0.062263	0.22959	-3.2438	-3.8875	-3.5292	-3.7438	-3.7854	-3.6125	-3.85	-4.0229	-3.7687	-4.0563	-3.8208	-3.7583	-3.8542	-3.5521	-3.9833	-4.0042	330.750	65.397	205.694	260.658	146.941	239.928	327.028	192.471	26.588	90.797	75.796	231.653	337.092	332.319	188.028	324.961	0.0036509	0.0042487	0.001382	817.63	0.00011132	3.3792e-05	720.18	298.43	0.00015081	4.6489e-05	292.67	100.73	101.99	37.294	1.2686e-05	35.378	0.018371	0.021463	0.005476	1566.7	0.00021393	0.00023364	1455.5	540.23	0.00021368	0.00022783	732.34	218.12	347.28	80.936	0.00020283	87.491	-10.156	290.457	-8.527	-9.743	161.328	24.872	-11.852	-4.154	229.359	31.427	-7.936	-3.100	3.294	5.226	19.518	0.414	-8191	255	
1226.422	1	1	0	0	0.091528	0.14466	0.15422	0.28632	0.20735	0.21458	0.214	0.093439	0.11232	0.16447	0.20839	0.067681	0.14042	0.075262	0.13297	0.14757	-3.1729	-3.9292	-3.675	-3.6833	-3.9771	-3.7188	-3.7854	-3.8312	-3.4917	-3.9646	-3.7917	-3.6917	-3.8479	-3.6417	-3.8542	-3.8812	295.841	311.291	78.480	210.710	318.249	104.983	-17.323	-14.213	316.793	78.908	-9.960	211.563	313.704	189.937	299.645	244.221	0.0035073	0.0053958	0.0011581	822.74	2.148e-05	6.8269e-05	729.73	297.92	6.2299e-05	3.386e-05	291.79	101.15	102.09	37.256	8.8478e-05	34.889	0.019344	0.020467	0.005262	1560.2	0.00022626	0.00022519	1439.9	545.11	0.00022876	0.00022227	728.32	223.86	365.41	80.193	0.00020202	90.616	-16.590	288.441	4.385	-9.811	159.419	73.090	-11.606	-3.792	176.011	-0.620	-8.522	-2.907	2.222	5.175	326.639	0.351	-8191	255	
1226.519	1	1	0	0	0.24336	0.16378	0.14277	0.13771	0.21029	0.016334	0.18527	0.33668	0.052246	0.10243	0.11888	0.12187	0.10613	0.10901	0.15034	0.061653	-3.1104	-3.7333	-3.6437	-3.7021	-3.9479	-3.5667	-3.6854	-3.7708	-3.4958	-3.8458	-3.7417	-3.6854	-3.8958	-3.5542	-3.5417	-3.9292	161.926	2.641	195.949	296.605	54.815	159.999	322.854	278.454	169.976	338.106	15.949	305.830	160.645	123.269	142.057	264.654	0.0024017	0.0051244	0.0022167	819.31	4.7793e-05	1.5646e-05	721.26	297.8	4.6669e-05	3.6982e-05	289.79	99.323	101.1	37.169	1.3072e-05	34.514	0.020534	0.019991	0.0051774	1612.8	0.00023596	0.00022118	1430.6	569.73	0.00024198	0.0002246	734.59	239.72	383.6	81.374	0.00020848	98.352	333.528	315.944	-3.353	-8.627	125.096	4.832	-11.679	-3.644	225.480	28.130	-7.933	-2.144	0.985	4.931	274.818	1.244	-8191	255	
1226.615	1	1	0	0	0.12364	0.063785	0.030972	0.059183	0.13719	0.24228	0.11771	0.24777	0.060065	0.096797	0.33761	0.16804	0.13102	0.18075	0.14305	0.070131	-3.2917	-3.8583	-3.7646	-3.6146	-3.7854	-3.6542	-3.75	-4.05	-3.5438	-3.6333	-3.9104	-3.7167	-3.7875	-3.8417	-3.7625	-3.8875	329.398	88.365	333.660	38.167	304.800	13.286	228.298	238.406	265.767	269.599	322.394	240.494	207.297	229.836	214.431	165.255	0.00080194	0.0074729	0.0006208	828.56	7.005e-05	4.979e-05	713.97	297.69	7.3343e-05	3.1755e-05	288.19	100.05	101.01	37.319	7.9829e-05	34.884	0.021759	0.020719	0.0053605	1729.3	0.0002443	0.00022506	1436.3	596.84	0.00023922	0.00021963	725.05	247.12	367.43	78.966	0.00020267	100.35	163.855	316.953	237.841	-9.203	-5.469	28.889	-11.830	-3.477	21.807	58.317	-7.573	-2.257	0.587	4.345	192.350	0.695	-8191	255	
1226.711	1	1	0	0	0.25969	0.11105	0.23539	0.073564	0.15023	0.23001	0.16394	0.18139	0.076129	0.039425	0.17353	0.16616	0.095262	0.07782	0.19641	0.090665	-3.1937	-3.6771	-3.7229	-3.6708	-4.0437	-3.8875	-3.7687	-3.9771	-3.6208	-3.8812	-3.975	-3.7396	-3.9375	-3.7292	-3.5521	-3.9437	227.427	16.391	208.899	82.118	136.903	261.824	247.900	267.845	315.647	221.708	-4.828	181.057	155.563	208.318	104.924	-5.162	0.00058059	0.00039354	0.001227	830.99	2.0389e-05	4.8268e-05	714.88	299.77	1.5713e-05	8.8371e-06	289.35	100.27	101.88	37.308	0.00011338	35.066	0.020381	0.019583	0.0052964	1762.1	0.00023049	0.00021503	1450.8	609.02	0.00022749	0.00021182	745.29	253.34	358.02	77.83	0.00021589	102.86	94.385	7.073	125.019	-9.251	315.982	69.931	-11.246	-4.056	65.701	296.281	-6.776	-3.010	0.011	4.605	202.436	0.536	-8191	255	
1226.807	1	1	0	0	0.058946	0.20861	0.34085	0.12127	0.31623	0.17187	0.20094	0.11978	0.14244	0.038443	0.089575	0.18065	0.16673	0.24561	0.16644	0.25565	-3.2438	-3.7354	-3.8979	-3.6729	-3.8563	-3.7479	-3.7521	-4.1146	-3.6708	-3.6083	-4.0083	-3.7979	-3.8958	-3.8479	-3.4896	-3.9667	0.867	43.621	-17.436	297.785	314.238	44.526	206.903	291.861	247.045	266.988	67.313	269.696	250.821	279.684	328.455	241.544	0.00031918	0.0040453	0.0022428	830.63	2.5634e-05	4.3584e-05	712.25	302.08	2.7398e-05	4.6865e-05	287.67	100.48	101.58	37.051	9.9895e-05	35.51	0.019892	0.019215	0.0057277	1797.2	0.0002268	0.00021304	1525.3	613.85	0.00022494	0.00020912	786.76	253.48	352.69	77.091	0.00023296	101.61	8.923	323.477	148.013	-9.744	19.978	82.486	-11.023	-3.918	76.569	194.223	-6.604	-3.999	0.636	5.361	199.396	0.389	-8191	255	
1226.903	1	1	0	0	0.11851	0.082257	0.085136	0.13897	0.18847	0.054005	0.17031	0.24382	0.08168	0.032966	0.11809	0.011568	0.28402	0.08176	0.10741	0.17005	-3.2812	-3.6542	-3.9313	-3.6354	-3.8333	-3.9167	-3.7229	-4.0021	-3.6875	-3.5625	-4.1021	-3.5646	-3.6604	-3.9	-3.5833	-4.0125	200.284	214.494	13.525	195.251	125.785	184.766	200.614	328.498	130.665	45.771	85.767	132.621	52.645	125.838	207.945	204.291	0.00049986	0.0038768	0.0027178	836.15	7.9065e-05	3.8874e-05	716.17	302.47	5.9473e-05	5.3689e-05	289.91	101.75	99.801	37.125	5.8327e-05	35.174	0.019407	0.018914	0.0061092	1767.4	0.00022035	0.00021058	1585.9	606.25	0.00022087	0.00021231	823.81	249.51	348.23	78.378	0.00024735	98.878	148.488	82.060	159.684	-10.414	7.077	263.058	-11.370	-4.130	5.791	171.431	-6.937	-3.974	1.140	5.504	217.129	0.358	-8191	255	
1227.024	1	1	0	0	0.058879	0.034155	0.30914	0.044752	0.080487	0.20586	0.29723	0.16968	0.17493	0.2501	0.16744	0.18923	0.1647	0.091722	0.11761	0.17297	-3.3771	-3.5208	-4.05	-3.7417	-3.8771	-3.8063	-3.7458	-3.9896	-3.7771	-3.6479	-3.9333	-3.5687	-3.6708	-3.8688	-3.5271	-3.9104	67.978	228.573	306.463	212.794	301.152	101.977	336.690	227.221	7.164	269.752	301.622	273.549	40.079	307.970	233.444	164.906	0.0011852	0.0065984	0.00024141	834.39	5.302e-05	5.7038e-05	716.21	299.49	8.7174e-05	7.0171e-05	291.03	99.658	100.72	36.965	5.2972e-05	35.009	0.018941	0.019571	0.0063451	1722.3	0.00021251	0.00021929	1606.7	589.71	0.00021298	0.00022424	831.91	243.14	340.09	81.274	0.00025043	97.052	111.445	92.778	245.205	-10.040	334.626	207.070	-11.147	-4.445	59.041	177.244	-7.942	-3.867	-0.215	5.618	-11.250	0.288	-8191	255	
1227.120	1	1	0	0	0.1213	0.15199	0.16856	0.16351	0.14515	0.19349	0.2005	0.167	0.12281	0.099218	0.11834	0.15565	0.1227	0.29279	0.08941	0.14654	-3.2667	-3.4104	-3.9729	-3.5479	-3.6917	-3.8812	-3.6708	-3.7979	-3.7542	-3.5833	-3.9854	-3.7396	-3.7	-4.0354	-3.6646	-3.9938	137.222	302.418	320.891	-0.978	20.905	58.409	237.903	315.718	244.571	139.847	319.354	-12.223	25.281	246.032	123.966	162.696	0.00094671	0.012895	0.00073372	832.97	2.4709e-05	0.00011283	717.74	302.33	3.2805e-05	9.6677e-05	292.26	100.94	101.03	37.074	6.082e-05	35.59	0.0185	0.021203	0.0063714	1702.3	0.00020854	0.00023669	1592	581.76	0.00020764	0.00023862	814.55	238.42	335.16	84.091	0.0002409	95.239	153.752	120.821	-1.763	-10.324	-2.460	208.430	-11.890	-4.288	302.210	200.056	-8.338	-3.104	1.569	6.013	31.678	-0.105	-8191	255	
1227.216	1	1	0	0	0.21443	0.051472	0.20519	0.26099	0.044878	0.047647	0.19582	0.18374	0.16494	0.16562	0.067221	0.10316	0.25204	0.13454	0.21746	0.21183	-3.4542	-3.5771	-3.9	-3.6708	-3.6479	-3.9479	-3.6292	-3.8125	-3.7313	-3.6063	-3.9083	-3.8271	-3.7354	-4.1625	-3.4979	-3.6562	176.210	44.526	106.128	17.481	307.747	40.428	228.811	-0.041	110.028	243.075	170.821	183.445	12.386	312.024	46.046	194.507	0.0017161	0.0048001	0.0012741	833.08	9.5493e-05	8.3835e-05	729	300.56	0.00011693	4.8525e-05	291.7	100.57	101.02	37.172	5.7797e-05	35.384	0.018388	0.022453	0.0061176	1679.8	0.00020999	0.00024862	1557.9	571.51	0.00021065	0.00024727	787.91	232.58	341.47	85.026	0.00022764	92.135	287.501	133.559	3.291	-9.814	198.951	183.454	-11.441	-4.143	228.669	181.499	-8.063	-3.561	2.497	5.465	3.495	-0.486	-8191	255	
1227.312	1	1	0	0	0.076169	0.1512	0.16943	0.035174	0.15505	0.1342	0.37331	0.28044	0.18491	0.10547	0.40132	0.12971	0.22443	0.077182	0.11615	0.1458	-3.4875	-3.475	-3.925	-3.9417	-3.4854	-4.1979	-3.8625	-3.6646	-3.8854	-3.7125	-3.8958	-3.9208	-3.6896	-4.0687	-3.6479	-3.8187	309.863	267.101	159.367	202.502	317.735	132.176	307.959	318.609	65.711	162.700	307.674	36.198	219.717	309.740	166.935	330.999	0.0036526	0.0028671	0.0009373	825.68	0.00013772	3.8912e-05	733.28	302.72	0.00013553	6.2454e-05	291.64	101.27	101.29	37.228	4.1088e-05	35.35	0.018847	0.02262	0.0057706	1631.6	0.00021928	0.00024833	1523.1	559.66	0.00022341	0.00024674	769.04	228.7	360.09	84.681	0.00022307	91.127	326.114	173.230	-10.547	-9.902	168.124	-2.655	-11.427	-4.208	225.647	249.211	-7.728	-3.435	3.008	4.859	27.903	-0.663	-8191	255	
1227.407	1	1	0	0	0.22994	0.23726	0.22745	0.051155	0.17541	0.089817	0.10282	0.27336	0.14079	0.24422	0.099686	0.031878	0.14079	0.038558	0.051432	0.23105	-3.5375	-3.6104	-3.6896	-3.7562	-3.725	-3.9479	-3.7188	-3.7438	-4.2063	-3.8812	-3.9062	-4.0146	-3.6604	-3.9771	-3.8354	-3.6229	313.563	69.065	154.511	298.666	235.146	322.588	120.489	222.812	284.964	176.885	268.920	212.529	103.409	-16.539	230.101	256.400	0.0025642	0.006073	0.0002381	826.87	9.1517e-05	5.236e-05	726.83	299.65	0.00013112	8.7857e-05	290.9	99.826	101.19	37.135	4.9106e-05	34.57	0.020403	0.02235	0.0056646	1622.8	0.00023689	0.00024308	1505	560.26	0.00024137	0.00024333	764.22	231.34	381.97	83.814	0.00022134	93.019	336.563	321.084	21.933	-10.187	197.951	43.526	-11.705	-3.607	221.320	8.072	-7.577	-2.777	2.372	4.754	22.926	0.299	-8191	255	
1227.503	1	1	0	0	0.10935	0.11586	0.22575	0.31695	0.2485	0.09954	0.27826	0.12811	0.13712	0.015201	0.13014	0.25165	0.3904	0.33702	0.12937	0.088157	-3.4875	-3.475	-3.7417	-3.8812	-3.6813	-3.85	-3.8771	-3.8563	-4.0583	-3.7562	-3.7083	-4.0667	-3.5333	-3.9896	-3.7938	-3.525	283.720	46.488	322.257	-11.644	281.404	19.903	197.461	276.918	108.466	148.966	189.104	296.640	304.723	326.828	153.931	64.583	0.0031125	0.0027529	0.0010462	833.11	5.3799e-05	5.6434e-05	728.7	299.2	9.1919e-06	3.135e-05	287	99.461	103.09	36.985	6.2512e-05	34.764	0.021945	0.022012	0.0056007	1664.8	0.00025225	0.00023745	1486.5	575.45	0.00025021	0.00023359	743.77	236.9	384.79	81.262	0.0002116	95.892	-8.548	333.754	318.420	-9.408	130.571	49.788	-11.718	-3.489	315.665	32.132	-7.608	-1.812	1.806	4.619	13.366	1.357	-8191	255	
1227.623	1	1	0	0	0.062636	0.043796	0.060659	0.057582	0.16475	0.3022	0.044983	0.082889	0.16146	0.1263	0.08408	0.13791	0.20202	0.17924	0.058754	0.03546	-3.5396	-3.4375	-3.6833	-3.95	-3.5625	-3.7604	-3.9479	-3.6771	-3.9083	-3.6458	-3.7083	-4.05	-3.6729	-3.9333	-4.0375	-3.5958	164.251	45.461	299.801	211.015	42.103	120.224	152.607	326.828	-9.088	83.518	56.743	286.548	319.813	313.163	312.381	74.727	0.0010169	0.0058513	0.00073425	829.25	6.2355e-05	3.2345e-05	720.47	298.21	4.5317e-05	4.5226e-05	290.11	100.55	99.931	36.838	2.2597e-05	34.644	0.021762	0.021	0.0053683	1717.7	0.00024934	0.00022851	1461.5	596.81	0.00024682	0.00022784	737.34	249.03	381.58	80.411	0.00020942	101.08	19.189	-8.553	327.321	-8.761	34.025	50.986	-12.045	-3.460	63.912	322.604	-7.769	-2.169	0.227	5.415	37.860	1.232	-8191	255	
1227.720	1	1	0	0	0.075629	0.17066	0.10547	0.115	0.072656	0.1067	0.22164	0.38269	0.068215	0.20571	0.24078	0.16575	0.14181	0.2136	0.18544	0.22941	-3.6063	-3.5938	-3.6833	-3.9875	-3.6562	-3.8042	-3.9625	-3.6375	-3.8208	-3.8312	-3.7333	-4.0771	-3.7479	-3.8458	-3.7917	-3.5812	79.548	119.279	19.798	205.851	309.024	194.051	226.217	313.907	63.420	87.012	295.967	329.872	226.347	314.027	218.152	265.067	0.0012521	0.0054398	0.00024692	828.03	7.7282e-05	3.2438e-05	721.77	299.2	7.2556e-05	3.7704e-05	288.77	101.85	103.27	37.171	8.5726e-05	35.305	0.021207	0.020518	0.0053449	1776.1	0.00023966	0.00022007	1462.8	611.12	0.00023472	0.00021857	741.09	254.86	367.78	78.898	0.00021542	104.03	191.871	313.294	277.126	-8.948	335.338	26.059	-11.201	-3.689	-6.091	56.274	-6.510	-3.089	0.955	4.646	195.501	1.325	-8191	255	
1227.816	1	1	0	0	0.062423	0.13256	0.22523	0.29592	0.1994	0.2295	0.13581	0.29337	0.18165	0.16717	0.1832	0.029435	0.27128	0.22935	0.060357	0.23874	-3.5104	-3.6271	-3.7812	-3.925	-3.65	-3.7	-3.8542	-3.7479	-3.75	-3.6792	-3.8042	-4	-3.6979	-3.6562	-3.8708	-3.6937	202.313	313.153	297.212	9.289	216.195	260.363	267.924	290.908	101.165	117.185	-9.020	83.495	-13.066	329.380	42.600	84.837	0.0013979	0.0028242	0.0024467	835.93	6.5155e-06	4.7968e-05	719.74	300.44	6.6346e-05	1.4715e-05	287.61	100.73	100.12	37.095	0.00011826	35.608	0.020339	0.019871	0.0056142	1807	0.00023151	0.00021417	1509.5	618.33	0.00022709	0.00021332	775.96	256.02	360.17	77.682	0.00023174	103.59	114.260	281.281	163.911	-9.714	321.042	61.301	-11.152	-4.304	40.365	66.626	-6.817	-2.980	0.921	4.794	216.140	-0.082	-8191	255	
1227.887	1	1	0	0	0.13972	0.15605	0.11852	0.33146	0.09726	0.023949	0.22544	0.068834	0.2216	0.057146	0.14733	0.133	0.074921	0.090546	0.15067	0.26542	-3.4979	-3.9229	-3.5125	-3.8417	-3.7396	-3.6417	-4.0229	-3.5938	-3.7562	-3.8875	-3.6562	-4.0625	-3.9083	-3.5896	-4.0771	-3.6	230.150	81.186	260.822	324.026	318.226	113.206	-20.586	223.319	301.798	178.714	22.156	306.024	-6.983	288.606	147.295	281.771	0.00042273	0.0040468	0.0027051	824.99	3.3982e-05	3.6242e-05	704.69	298.69	3.5361e-05	1.4792e-05	283.04	98.968	100.1	37.073	8.4992e-05	35.65	0.019848	0.0194	0.0060506	1785.3	0.00022679	0.00021142	1564.5	608.82	0.0002231	0.00021158	809.17	250.26	352.95	77.797	0.00024558	101.28	191.530	268.340	141.416	-10.248	-5.164	323.452	-11.061	-4.606	20.108	312.255	-7.349	-3.469	0.760	5.560	223.844	-0.273	-8191	255	
1228.008	1	1	0	0	0.14098	0.17851	0.076213	0.089122	0.15089	0.13524	0.12151	0.24276	0.17469	0.2281	0.23011	0.062855	0.044897	0.12052	0.26441	0.26328	-3.4208	-3.7042	-3.4437	-4.1542	-3.6688	-3.6708	-4.1396	-3.65	-3.8458	-3.9729	-3.5938	-3.8625	-3.8875	-3.6562	-4.0833	-3.8521	261.166	188.295	248.172	-7.470	334.612	271.836	214.191	284.223	275.515	1.042	63.493	-2.748	-8.820	84.696	195.210	21.236	0.0019328	0.0041564	0.0018387	821.98	4.0421e-05	5.7029e-05	706.7	297.22	3.975e-05	7.8642e-05	286.86	99.124	99.796	37.264	4.0298e-05	35.673	0.019238	0.019645	0.0063953	1738.3	0.00022007	0.0002167	1600.4	594.61	0.00021569	0.00021968	829.3	244.38	345.46	80.617	0.00025364	99.368	170.827	167.001	143.797	-10.395	328.341	193.262	-11.244	-4.111	59.504	175.208	-8.119	-3.608	0.599	6.378	214.545	-0.423	-8191	255	
1228.104	1	1	0	0	0.083262	0.22851	0.13014	0.085717	0.13309	0.051843	0.34207	0.078165	0.2668	0.084241	0.043271	0.19077	0.040297	0.25746	0.21842	0.22871	-3.1917	-3.8542	-3.7104	-3.9833	-3.9333	-3.5125	-3.9979	-3.7938	-3.8	-4.0312	-3.6375	-3.9938	-3.8417	-3.5896	-3.8688	-3.8708	72.622	329.061	299.011	265.990	55.857	223.178	242.114	292.137	132.994	277.206	-2.528	306.644	71.482	293.369	54.594	257.606	0.00079912	0.0087445	0.00022976	806.18	3.4132e-05	6.9865e-05	712.32	296.66	1.8992e-05	8.756e-05	287.36	99.795	100.19	37.755	2.8706e-05	35.79	0.018821	0.021027	0.0065394	1703.1	0.00021471	0.00023256	1604.4	583.44	0.00020853	0.00023456	818.3	238.36	335.08	83.28	0.00024246	96.49	126.959	113.574	43.723	-10.072	61.104	189.412	-11.806	-4.406	257.591	188.580	-8.766	-2.937	1.421	6.203	66.105	-0.328	-8191	255	
1228.200	1	1	0	0	0.22438	0.093301	0.049668	0.022031	0.25268	0.062586	0.13526	0.36371	0.086855	0.10015	0.14405	0.21426	0.31575	0.29094	0.22047	0.22459	-3.2896	-4.0208	-3.6583	-4.0667	-4.0938	-3.7146	-4.0729	-3.8354	-3.7083	-4.0458	-3.5646	-3.8438	-3.9708	-3.6021	-3.7313	-3.8417	162.364	62.951	116.174	166.038	129.617	313.698	253.445	219.022	193.702	110.203	308.824	245.851	51.389	-18.394	159.495	21.857	0.00042091	0.0083635	0.0015172	810.88	1.1602e-05	2.98e-05	713.22	296.31	6.5847e-05	9.0016e-05	286.76	99.889	99.399	37.984	8.9138e-05	35.974	0.01802	0.021907	0.0061956	1656	0.00020755	0.00024368	1559.3	570.91	0.0002061	0.0002433	790.18	232.67	334.64	85.199	0.00022932	93.76	311.425	109.805	300.212	-9.909	165.408	189.491	-11.667	-4.062	238.283	192.905	-7.662	-3.403	2.195	5.348	25.546	-0.318	-8191	255	
1228.297	1	1	0	0	0.16061	0.15975	0.082772	0.18675	0.19167	0.17989	0.19591	0.10494	0.043643	0.12569	0.17131	0.15751	0.24716	0.11854	0.10073	0.092766	-3.275	-3.9188	-3.5417	-3.6333	-3.9583	-3.5563	-3.925	-3.9271	-3.8167	-3.9146	-3.8021	-3.675	-4.0396	-3.6771	-3.7313	-3.9896	80.109	270.211	214.739	293.298	241.185	235.647	218.883	255.928	83.566	299.879	-14.221	214.419	117.285	47.014	264.835	164.213	0.0026043	0.0028597	0.0021673	812.55	0.00012737	2.666e-05	714.75	294.87	0.00010082	1.1981e-05	287.61	100.86	100.81	37.648	4.0767e-05	35.647	0.01838	0.022536	0.0058912	1618.5	0.0002142	0.00024752	1501.9	555.92	0.00021348	0.00024202	757.84	224.22	344.74	83.999	0.0002155	90.136	-6.224	195.617	334.447	-10.060	156.132	286.565	-11.584	-4.334	243.965	31.796	-8.020	-2.971	3.191	4.974	64.210	0.410	-8191	255	
1228.415	1	1	0	0	0.073461	0.028969	0.034696	0.26303	0.14582	0.10765	0.095264	0.1031	0.020853	0.20285	0.19649	0.18816	0.17664	0.21082	0.31491	0.22034	-3.1479	-4.0062	-3.5792	-3.8375	-4.0167	-3.6312	-3.9917	-4.075	-3.7479	-4.1958	-3.8146	-3.7667	-3.7833	-3.7	-3.8688	-3.7604	56.126	59.886	190.591	53.575	227.307	265.161	169.864	263.004	299.347	327.794	97.021	25.114	56.601	287.782	337.425	191.511	0.0028117	0.0022886	0.0013862	810.66	0.00013308	4.2865e-05	713.46	294.26	7.5811e-05	1.8263e-05	288.56	100.49	99.712	37.881	2.701e-05	35.074	0.019046	0.021768	0.0055517	1568.2	0.00022276	0.00023653	1453.9	541.33	0.00022288	0.00023003	733.96	219.11	353.88	81.315	0.00020299	88.056	305.919	-0.083	4.046	-9.879	149.277	47.017	-11.640	-4.455	240.927	36.228	-7.625	-2.499	3.739	4.873	30.131	0.536	-8191	255	
1228.487	1	1	0	0	0.082719	0.074659	0.10787	0.13773	0.10496	0.23747	0.16397	0.21457	0.13234	0.10506	0.17815	0.30132	0.14318	0.1791	0.074829	0.17523	-3.4958	-3.9271	-3.6542	-3.7375	-4.0229	-3.75	-3.7396	-3.9917	-3.5333	-3.9167	-3.9042	-3.5854	-3.9104	-3.5458	-3.7562	-4.0437	268.093	136.530	92.459	-7.490	-0.713	192.250	4.630	326.193	166.499	29.927	38.045	275.059	330.111	273.023	177.859	72.890	0.0028517	0.0064579	0.00067912	802.7	3.9484e-05	7.9633e-05	713.26	293.51	2.476e-05	2.7544e-05	287.59	100.8	101.37	37.968	4.8387e-05	35.542	0.019551	0.020193	0.0051856	1542.3	0.00022622	0.0002198	1406.4	539.57	0.00022759	0.00021606	710.07	221.82	360.63	79.176	0.00019496	90.389	317.424	282.224	333.969	-9.451	145.446	28.441	-11.867	-3.598	200.523	60.776	-8.614	-1.842	2.017	4.211	47.784	1.388	-8191	255	
1228.585	1	1	0	0	0.22481	0.10587	0.24564	0.11574	0.21865	0.33031	0.28566	0.23633	0.17421	0.037131	0.098644	0.15923	0.15926	0.2082	0.03445	0.13638	-3.1562	-3.7604	-3.7146	-3.6833	-3.7292	-3.7167	-3.7479	-3.9417	-3.5646	-4.0271	-3.9354	-3.55	-4.0271	-3.6021	-3.7687	-4.1583	142.714	81.242	11.421	301.016	302.908	150.452	287.342	231.460	74.408	27.490	109.298	284.956	48.501	327.901	79.199	19.581	0.00063001	0.0019276	0.0016808	808.19	6.6921e-05	4.1563e-05	716.99	293.87	8.2443e-05	2.2459e-05	289.27	99.851	100.78	38.267	2.2969e-05	36.269	0.019977	0.019161	0.0049599	1583.3	0.00022609	0.00020887	1373.2	553.58	0.00022561	0.0002073	696.03	231.33	357.19	78.197	0.00019097	95.684	204.873	110.921	304.331	-9.014	320.137	35.179	-11.259	-3.654	72.483	336.034	-7.101	-2.183	1.286	4.919	16.365	1.046	-8191	255	
1228.704	1	1	0	0	0.26792	0.17657	0.1877	0.13642	0.31264	0.17289	0.17473	0.40706	0.39131	0.22186	0.062418	0.24765	0.14966	0.034552	0.27894	0.21912	-3.2146	-3.7562	-3.7375	-3.5375	-3.9667	-3.5771	-3.8167	-4.0917	-3.5583	-3.8187	-3.9729	-3.6688	-4.0708	-3.7854	-3.775	-4.0687	113.975	333.978	293.925	-2.968	106.136	34.290	238.164	207.465	77.213	183.771	308.024	251.249	204.579	118.387	47.512	98.668	0.0013528	0.0034494	0.00074968	801.79	7.3328e-05	6.3504e-05	707.62	294.05	6.8564e-05	3.8408e-05	285	101.04	100.13	37.81	4.619e-05	35.998	0.019928	0.019128	0.0049907	1663.2	0.0002264	0.00020962	1385.3	578.47	0.00022247	0.00020483	701.57	241.67	349.96	77.345	0.00019514	98.889	217.147	334.511	312.592	-8.737	311.281	29.141	-11.391	-3.283	72.105	56.957	-6.755	-2.624	0.068	4.765	164.213	0.908	-8191	255	
1228.800	1	1	0	0	0.29466	0.1949	0.18476	0.3147	0.21742	0.016887	0.059739	0.10644	0.12903	0.042228	0.21226	0.125	0.085175	0.22771	0.1171	0.1385	-3.25	-3.7708	-3.7208	-3.6688	-3.8625	-3.6083	-3.6667	-4.0417	-3.5958	-3.8854	-3.9354	-3.5354	-3.9708	-3.8021	-3.5	-3.975	7.634	123.765	94.973	318.582	78.652	131.023	250.809	337.491	-19.134	95.904	228.368	324.307	104.838	314.453	91.993	138.769	0.0016527	0.0061878	0.00075492	806.07	4.586e-05	2.4325e-05	699.4	296.67	9.1933e-05	2.7429e-05	287.74	100.12	100.04	37.815	0.00012457	35.869	0.019233	0.018481	0.005108	1701.7	0.00021613	0.00020156	1409.1	585.94	0.00021169	0.00019615	718.62	242.15	336.29	75.176	0.00020439	98.185	144.496	302.085	173.761	-9.441	36.631	9.788	-11.048	-3.704	58.842	8.519	-6.381	-3.294	1.184	4.969	167.128	0.698	-8191	255	
1228.896	1	1	0	0	0.17568	0.10991	0.15353	0.26742	0.13857	0.037507	0.05933	0.14385	0.16283	0.085178	0.17471	0.25504	0.33157	0.075791	0.27226	0.022579	-3.2521	-3.5333	-3.8708	-3.6542	-3.8688	-3.9021	-3.7188	-3.9354	-3.5604	-3.7125	-3.9708	-3.6354	-3.7375	-3.9271	-3.55	-3.8667	60.426	82.246	268.617	297.463	45.255	123.513	320.740	252.712	102.446	330.765	-14.317	335.725	316.012	-16.717	318.772	-9.658	0.0006263	0.0049574	0.0027343	807.13	2.9689e-05	5.7201e-05	702.44	295.67	4.163e-05	2.6329e-05	288.48	100.72	99.808	37.867	8.9255e-05	36.24	0.018313	0.017692	0.0053932	1691.7	0.00020659	0.00019359	1457.1	578.24	0.00020377	0.00018926	745.6	237.21	326.51	74.125	0.00021612	95.46	56.713	296.440	145.002	-9.693	295.322	41.550	-10.800	-4.128	70.279	162.745	-6.120	-3.309	0.936	5.696	206.092	-0.115	-8191	255	
1229.017	1	1	0	0	0.095086	0.16041	0.030764	0.23753	0.21875	0.2099	0.085418	0.11656	0.13842	0.16656	0.077918	0.025503	0.053318	0.13254	0.1424	0.1045	-3.3333	-3.5542	-3.9292	-3.5792	-3.825	-3.8146	-3.725	-4.025	-3.675	-3.8083	-4.0167	-3.5417	-3.7271	-3.9062	-3.6396	-3.8146	-22.235	320.356	111.348	21.011	257.561	112.103	285.834	293.383	171.376	191.257	272.980	255.826	307.920	141.616	52.925	14.497	0.0010706	0.0055252	0.0019213	814.51	2.4515e-05	1.2795e-05	714.86	297.39	9.2739e-05	6.5689e-05	291.69	100.82	100.17	38.246	2.5836e-05	36.422	0.017581	0.017278	0.0056378	1649.1	0.00019792	0.00019146	1496.9	562.9	0.00019426	0.00018971	762.96	230.19	315.84	74.789	0.00022135	92.524	243.713	106.819	138.594	-10.262	-14.664	300.233	-11.147	-4.295	31.829	199.673	-6.716	-3.785	0.939	5.684	181.063	-0.584	-8191	255	
1229.113	1	1	0	0	0.015561	0.21051	0.18294	0.20733	0.15825	0.26768	0.15706	0.14028	0.034955	0.083453	0.29926	0.15893	0.12858	0.1431	0.049314	0.24954	-3.3333	-3.7667	-3.8979	-3.6396	-3.7188	-3.875	-3.8292	-3.95	-3.7562	-3.5417	-3.9938	-3.5854	-3.6521	-4.0542	-3.55	-4.0792	201.022	205.962	50.646	9.328	54.932	-0.678	81.691	236.198	289.840	36.745	51.723	5.501	-19.168	13.425	-9.167	264.778	0.0010948	0.0077237	0.00074492	815.13	3.8836e-05	7.0476e-05	727.35	295.89	6.0584e-05	6.3118e-05	292.61	101.62	100.12	38.204	8.1179e-05	36.403	0.016746	0.017936	0.0057467	1609.8	0.0001907	0.0002018	1519.8	553.62	0.00018889	0.00020335	771.08	227.57	311.47	77.996	0.00022272	91.246	156.473	106.968	158.995	-9.842	5.919	178.062	-11.588	-4.293	30.982	179.756	-7.159	-3.590	0.418	6.395	44.684	-0.327	-8191	255	
1229.185	1	1	0	0	0.063887	0.22649	0.098517	0.23119	0.093852	0.2251	0.09403	0.06435	0.22571	0.049805	0.12577	0.072066	0.096104	0.11323	0.39572	0.20176	-3.3542	-3.6333	-3.7604	-3.9417	-3.7104	-4.0125	-3.7208	-3.8646	-4.0396	-3.6125	-3.9125	-3.7646	-3.55	-3.9771	-3.8208	-3.7458	-1.999	17.536	40.055	240.114	238.572	252.414	336.044	232.487	327.040	70.808	294.884	145.533	-16.448	108.823	256.598	222.994	0.00084412	0.0082307	0.00045215	823.23	1.9453e-05	7.6984e-05	731.54	296.05	3.5963e-05	6.1335e-05	290.73	101.61	100.08	37.731	3.3616e-05	35.869	0.016537	0.019503	0.00572	1602.9	0.00018839	0.00021845	1502.2	549.31	0.00018836	0.00021969	756.8	224.05	312.94	80.947	0.00021711	89.726	101.353	142.972	16.907	-9.999	255.359	184.147	-11.944	-4.546	257.863	168.828	-7.747	-3.551	1.429	5.734	10.815	0.314	-8191	255	
1229.281	1	1	0	0	0.17568	0.063287	0.19039	0.25419	0.277	0.11648	0.11643	0.075566	0.13657	0.085683	0.06131	0.064745	0.14821	0.17521	0.17127	0.13183	-3.475	-3.5958	-3.9458	-3.8042	-3.7083	-4.0188	-3.7562	-3.9646	-4.025	-3.4896	-4.0188	-3.9917	-3.6146	-3.9479	-3.7562	-3.7812	210.318	96.417	335.518	9.678	308.677	32.046	183.235	-21.707	-15.687	203.084	48.781	298.928	10.573	331.098	112.600	29.143	0.0025807	0.0071887	0.0011648	818.28	0.0001137	3.1914e-05	720.54	297.98	7.3884e-05	3.4792e-05	291.14	99.583	101.17	37.748	6.612e-05	36.003	0.01692	0.020804	0.0055495	1583.6	0.00019526	0.00023032	1474.7	542.21	0.00019748	0.00023001	741.88	220.83	327.25	82.164	0.00020945	87.833	326.222	96.459	-2.909	-10.317	157.186	176.783	-11.776	-4.421	247.140	226.765	-8.601	-3.229	2.821	5.378	15.323	-0.269	-8191	255	
1229.400	1	1	0	0	0.17141	0.2271	0.25692	0.2152	0.10165	0.038221	0.24405	0.12068	0.11161	0.12637	0.24858	0.09798	0.14017	0.19014	0.11203	0.13268	-3.5521	-3.3646	-3.7896	-3.9208	-3.6521	-3.9854	-3.8854	-3.8333	-3.8292	-3.6063	-3.7188	-3.8542	-3.4625	-3.9875	-3.6396	-3.7792	238.925	0.141	324.772	18.680	250.996	202.856	-18.051	183.275	264.240	201.096	1.038	-13.970	24.510	293.722	200.237	59.983	0.0025413	0.0065534	0.001392	816.94	0.00010943	5.5874e-05	718.48	296.42	0.00014687	4.1727e-05	287.63	100.88	100.61	37.755	4.6393e-05	35.509	0.017897	0.020927	0.0053126	1555	0.00020737	0.00022923	1447.1	535.4	0.00021243	0.00022867	731.31	218.71	346.59	81.659	0.00020661	87.585	-0.035	-15.468	15.165	-9.798	176.581	79.667	-11.595	-4.174	236.748	15.109	-7.475	-3.027	2.571	4.974	1.414	0.947	-8191	255	
1229.496	1	1	0	0	0.15638	0.12619	0.13356	0.088616	0.12125	0.11499	0.18242	0.16857	0.1633	0.32676	0.19067	0.17641	0.29577	0.099855	0.12363	0.092242	-3.5667	-3.525	-3.8583	-3.8333	-3.7062	-3.8688	-3.6292	-3.6625	-3.9771	-3.6833	-3.9208	-3.9208	-3.5708	-4.0437	-3.7792	-3.8167	168.379	20.751	125.277	192.239	297.204	249.453	298.327	256.041	66.823	222.054	256.172	245.594	212.551	1.393	187.470	36.794	0.0034699	0.0033818	0.0008467	822.04	5.9923e-05	1.5269e-05	721.23	295.67	0.00011941	2.6639e-05	290.39	100.82	99.999	38.139	6.4043e-05	35.69	0.019384	0.020646	0.0052585	1557	0.00022482	0.00022455	1438.1	539.76	0.00022729	0.00022286	722.71	222.49	362.87	80.61	0.00020342	90.717	333.319	312.959	302.803	-9.482	183.003	4.323	-12.244	-3.514	227.250	337.358	-7.894	-3.174	1.636	4.837	26.447	1.346	-8191	255	
1229.592	1	1	0	0	0.21403	0.14972	0.11017	0.11249	0.048375	0.27207	0.065081	0.055181	0.23724	0.31218	0.25085	0.030395	0.091993	0.16874	0.15489	0.18981	-3.5292	-3.6083	-3.7833	-3.8312	-3.6854	-4.0042	-3.9833	-3.5125	-4.0542	-3.6917	-3.8521	-3.9521	-3.5125	-3.8958	-3.9646	-3.65	34.086	164.008	89.106	336.140	168.385	42.390	277.827	210.947	106.231	282.885	321.898	254.231	165.475	170.480	21.021	186.957	0.0016395	0.0015865	0.001676	814.91	1.4579e-05	5.4369e-05	720.31	292	4.0547e-05	4.9653e-05	288.51	99.852	98.956	37.688	3.8163e-05	34.775	0.02064	0.02042	0.005245	1614.9	0.00023966	0.0002236	1437.3	563.55	0.00024013	0.00022274	722.49	235.07	374.33	80.262	0.00020364	96.474	-20.455	293.915	332.776	-8.981	91.876	35.642	-11.940	-4.045	84.713	68.073	-7.969	-2.436	0.652	4.904	-3.214	1.404	-8191	255	
1229.713	1	1	0	0	0.031048	0.20853	0.046747	0.21735	0.077335	0.089107	0.13309	0.19124	0.13231	0.076117	0.24604	0.098231	0.12452	0.18933	0.088728	0.17763	-3.6458	-3.6813	-3.7854	-3.9083	-3.7146	-3.9479	-3.9979	-3.8	-3.8542	-3.6458	-3.7333	-4.0167	-3.6583	-3.8229	-3.7458	-3.5042	262.894	113.963	98.256	307.854	89.957	313.523	262.098	155.414	294.511	59.672	-14.293	165.515	165.311	317.263	76.584	80.668	0.0012692	0.0040606	0.0004864	813.57	2.9642e-05	5.7387e-05	703.46	296.71	3.6142e-05	6.0262e-05	286.92	99.084	100.29	37.329	3.5756e-05	35.187	0.021162	0.020417	0.0052518	1709	0.00024425	0.00022457	1438.5	593.89	0.00024082	0.00022278	726.34	247.42	371.77	79.705	0.00020718	101.45	147.150	304.573	313.302	-9.268	-10.954	33.033	-11.528	-3.683	-2.360	30.071	-7.501	-2.266	0.206	5.022	189.242	0.968	-8191	255	
1229.784	1	1	0	0	0.11793	0.1862	0.081083	0.096399	0.011557	0.32124	0.20012	0.2271	0.031864	0.14539	0.1293	0.10778	0.14008	0.2839	0.062703	0.06707	-3.4271	-3.9896	-3.6562	-4.0646	-3.6104	-3.875	-3.95	-3.6146	-4.0167	-3.7042	-3.6979	-4.0958	-3.5333	-3.7687	-3.8771	-3.5958	87.775	317.559	19.748	320.852	175.847	247.369	195.720	258.020	287.587	166.189	59.856	140.097	81.216	308.220	281.544	234.641	0.0028395	0.0032737	0.00087819	813.17	6.5098e-05	3.0086e-05	703.99	296.15	4.4915e-05	6.6308e-05	288.79	98.919	99.519	37.56	8.9439e-05	34.933	0.020697	0.020053	0.0053382	1764.8	0.00023523	0.00021724	1454.5	607.8	0.0002307	0.00021489	743.05	253.13	359.55	78.343	0.00021715	103.89	145.004	287.599	200.752	-9.102	313.993	20.264	-10.879	-3.782	38.802	54.226	-6.485	-2.736	0.316	5.283	187.530	0.553	-8191	255	
1229.880	1	1	0	0	0.13196	0.16094	0.14489	0.12448	0.1524	0.17199	0.19005	0.3056	0.070876	0.14669	0.028036	0.021516	0.21802	0.29598	0.15077	0.16957	-3.5042	-3.7833	-3.6479	-3.9833	-3.7188	-3.7375	-3.9042	-3.65	-3.8937	-3.7562	-3.7062	-4.0875	-3.6292	-3.7125	-3.9771	-3.5854	-7.698	309.003	326.287	269.462	159.832	289.020	244.212	291.982	149.337	330.914	-2.032	333.720	266.630	278.207	190.833	7.522	0.0024483	0.00057165	0.0025982	812.77	1.1453e-05	2.7267e-05	705.8	296.92	2.2657e-05	4.7688e-05	286.98	100.02	100.94	37.655	8.1502e-05	36.431	0.020024	0.019596	0.0057354	1790.4	0.00023094	0.00021438	1530.3	616.98	0.00022913	0.00021404	795.46	256.79	359.74	78.301	0.00023836	103.88	132.011	19.609	164.631	-9.771	33.717	25.865	-11.469	-4.395	52.880	-1.483	-6.113	-3.629	0.592	4.447	211.583	0.047	-8191	255	
1229.977	1	1	0	0	0.094364	0.10402	0.047671	0.064832	0.059112	0.067297	0.19551	0.20907	0.055183	0.17701	0.28884	0.1297	0.2833	0.25565	0.01712	0.15928	-3.3917	-3.8708	-3.4167	-4.2125	-3.7938	-3.4479	-3.8792	-3.6312	-3.7208	-3.8063	-3.7438	-4.0833	-3.8167	-3.8333	-3.9688	-3.6354	36.338	30.442	75.222	225.536	141.237	336.670	56.144	263.946	12.750	32.177	259.792	217.218	11.231	221.434	67.244	95.134	0.00070039	0.0025604	0.0029605	816.79	7.3516e-05	2.8849e-05	717.6	299.22	9.8621e-05	3.4435e-05	292.9	100.57	98.597	37.632	7.4513e-05	36.107	0.019797	0.019426	0.0062125	1770.4	0.00022527	0.0002129	1592.5	606.91	0.00022137	0.00021326	824.79	250.75	350.89	78.884	0.00025083	101.22	136.340	32.440	162.326	-10.203	36.966	211.789	-10.923	-4.644	47.548	238.336	-6.909	-4.021	0.795	5.824	197.909	-1.016	-8191	255	
1230.097	1	1	0	0	0.21803	0.23163	0.18119	0.10945	0.048953	0.17292	0.19089	0.23772	0.26389	0.18062	0.049114	0.062181	0.15497	0.046048	0.3784	0.34449	-3.3917	-3.6875	-3.7021	-3.8792	-3.8812	-3.6479	-4.1146	-3.675	-3.7271	-3.8792	-3.5292	-3.9625	-3.8563	-3.6833	-3.9938	-3.6479	67.604	136.710	327.223	174.657	284.476	78.031	311.665	223.079	23.318	165.448	327.620	237.225	295.785	30.516	-10.418	20.388	0.0020499	0.0043483	0.00033693	820.07	8.1058e-05	9.6813e-05	717.48	299.14	8.4132e-05	0.00010835	291.99	99.576	99.026	37.468	1.2957e-05	35.573	0.019298	0.020062	0.0065157	1735.5	0.00021927	0.00022204	1619.4	592.45	0.0002132	0.00022246	829.21	241.44	337.05	80.662	0.00024725	96.94	183.590	138.319	66.114	-10.081	336.672	226.473	-10.851	-4.319	57.419	187.163	-7.709	-3.634	0.465	5.788	28.029	-0.037	-8191	255	
1230.193	1	1	0	0	0.14687	0.14187	0.057419	0.046659	0.15009	0.032408	0.034792	0.23672	0.048185	0.093277	0.22003	0.02645	0.18281	0.084351	0.088153	0.29887	-3.4021	-3.9542	-3.5521	-4.0021	-3.8229	-3.5479	-4.0396	-4.0646	-3.7521	-3.9375	-3.6562	-3.8125	-3.9042	-3.6729	-3.9667	-3.7479	1.589	275.933	289.783	205.575	295.218	22.188	58.564	239.656	190.027	292.182	9.822	115.254	-6.921	16.158	151.481	124.733	0.00051252	0.011418	0.0019021	811.25	4.63e-05	5.994e-05	717.51	296.07	1.3339e-05	9.2323e-05	290.28	98.623	100.15	37.414	0.00010775	35.195	0.018214	0.020945	0.0063548	1681.9	0.00020955	0.00023436	1587.8	578.49	0.00020524	0.00023608	808.81	235.2	330.34	83.195	0.00023717	94.311	177.521	128.401	267.813	-10.093	227.825	211.429	-12.213	-4.238	-14.520	205.182	-8.231	-3.486	1.686	5.901	-8.982	-0.183	-8191	255	
1230.289	1	1	0	0	0.10424	0.12671	0.098883	0.33834	0.11363	0.25997	0.12886	0.059343	0.13013	0.055187	0.13833	0.33076	0.083211	0.15028	0.13963	0.23886	-3.1583	-3.8688	-3.5792	-3.8063	-3.8625	-3.8104	-4.0792	-3.7625	-3.7562	-3.8917	-3.5687	-3.8438	-3.7125	-3.7938	-4.05	-3.8125	311.870	59.332	284.080	308.307	130.212	315.085	205.784	283.073	230.380	262.365	223.779	302.211	191.775	208.223	-6.476	278.994	0.0015618	0.0089329	0.0022862	817.2	8.0425e-05	9.1341e-05	712.59	295.94	9.4646e-05	7.9758e-05	290.08	99.425	99.129	37.396	4.5979e-05	35.364	0.017919	0.0221	0.0061145	1656.5	0.00021036	0.00024907	1555.5	572.56	0.00021213	0.00025125	796.34	233.54	344.47	86.47	0.00023269	93.888	315.796	134.934	-19.658	-10.553	176.781	226.838	-12.286	-4.221	226.509	191.700	-8.591	-3.730	2.739	5.402	26.518	-0.435	-8191	255	
1230.386	1	1	0	0	0.37352	0.070555	0.16032	0.056434	0.14139	0.14612	0.1361	0.14674	0.088475	0.034927	0.043616	0.041723	0.20792	0.17404	0.12682	0.031837	-3.1833	-3.9208	-3.4646	-3.7646	-3.8688	-3.675	-3.8812	-3.9271	-3.525	-3.9479	-3.675	-3.7542	-3.8521	-3.5646	-3.55	-3.7146	67.330	17.774	280.789	270.195	96.012	33.609	261.111	325.331	126.072	238.184	276.703	281.217	328.205	293.228	103.424	15.388	0.0035708	0.0028505	0.001146	814.46	0.0001186	1.5295e-05	726.98	296.22	0.00012496	4.3541e-05	288.68	99.712	100.21	37.938	2.9836e-05	35.55	0.01912	0.023186	0.0059618	1635.1	0.00022492	0.00025532	1532.6	564.74	0.00022762	0.00025357	782.49	230.93	364.72	86.697	0.00022699	92.726	-12.069	304.788	314.999	-10.316	153.996	35.988	-11.696	-4.026	222.741	317.874	-7.803	-4.156	3.769	5.227	-0.394	-0.033	-8191	255	
1230.480	1	1	0	0	0.064486	0.094462	0.12553	0.08812	0.27032	0.27608	0.14885	0.36091	0.17283	0.30675	0.084466	0.045808	0.035126	0.34544	0.12857	0.071841	-3.2667	-3.9771	-3.6562	-3.7583	-3.9	-3.5354	-3.9729	-3.8979	-3.6896	-3.8854	-3.7771	-3.6854	-3.8667	-3.6	-3.7562	-3.9979	106.818	-17.876	297.452	196.279	237.700	221.991	45.114	229.005	6.875	148.027	330.491	225.624	176.811	269.400	149.425	76.620	0.0035241	0.0075613	0.0013903	807.03	0.00010751	8.0861e-05	721.29	293.95	0.00010676	4.3867e-05	285.6	99.417	100.51	37.571	6.888e-05	35.144	0.020615	0.022681	0.0057592	1603.3	0.00023673	0.00024555	1492.1	555.6	0.00023953	0.00024255	761.76	228.95	377.79	84.143	0.00021833	92.628	333.411	318.627	-4.053	-9.346	183.202	70.761	-11.893	-3.896	216.296	-3.073	-8.227	-2.820	1.845	4.962	334.857	0.582	-8191	255	
1230.578	1	1	0	0	0.056571	0.19318	0.14991	0.020906	0.040492	0.27382	0.079677	0.029264	0.14576	0.061031	0.051555	0.15721	0.11358	0.032639	0.092476	0.077299	-3.2313	-3.9792	-3.7313	-3.6875	-3.9562	-3.8187	-3.9062	-4.0958	-3.75	-4.0979	-3.8125	-3.8042	-3.9583	-3.8812	-3.6646	-4.0917	-9.012	273.124	199.379	189.822	320.432	96.624	294.027	163.799	247.034	156.129	232.870	328.941	20.808	179.528	278.485	125.415	0.0030773	0.003608	0.0012943	807.31	3.9497e-05	8.9343e-05	707.89	289.01	6.2911e-05	4.506e-05	287.24	97.204	100.06	37.492	2.0567e-05	34.893	0.021544	0.021627	0.0055431	1616.1	0.00024703	0.00023466	1455.5	563.41	0.00024712	0.0002315	740.82	234.12	384.34	82.238	0.0002122	96.81	315.602	281.413	-15.516	-9.251	142.621	26.239	-11.806	-3.146	214.043	60.765	-8.237	-2.172	1.742	4.695	1.995	1.366	-8191	255	
1230.697	1	1	0	0	0.12839	0.22125	0.11718	0.062153	0.12807	0.21962	0.27372	0.18312	0.14911	0.0631	0.041656	0.094783	0.056447	0.31961	0.19301	0.10678	-3.2458	-3.9083	-4.0208	-3.7875	-3.8937	-3.7083	-3.8396	-4.1417	-3.7417	-3.8604	-3.7875	-3.5083	-3.9229	-3.8979	-3.5458	-3.975	46.610	277.501	232.855	278.012	158.214	58.339	282.073	2.880	33.724	216.655	273.359	138.941	17.841	-17.201	164.014	245.892	0.00031942	0.0033972	0.0014157	800.18	6.2764e-05	5.5535e-05	699.11	289.01	3.7262e-05	4.4511e-05	286.69	98.364	99.966	37.608	3.2037e-05	34.904	0.022137	0.021255	0.0055019	1701.3	0.00025459	0.00023522	1456	595.52	0.00025359	0.00023308	748.4	251.5	390.73	83.216	0.00021729	104.75	54.366	-16.667	-5.029	-8.775	332.248	326.732	-11.658	-3.365	78.911	47.797	-7.690	-2.019	0.950	4.785	24.700	0.699	-8191	255	
1230.793	1	1	0	0	0.11321	0.16916	0.18456	0.07701	0.1475	0.076873	0.11025	0.11701	0.24474	0.13364	0.033889	0.29926	0.086575	0.12351	0.17328	0.24623	-3.15	-3.7938	-3.9021	-3.6708	-4.1271	-3.8	-3.8542	-3.9917	-3.4729	-3.6937	-4.0208	-3.7375	-3.8833	-3.9583	-3.9	-4.1208	43.078	8.108	55.809	314.032	165.407	106.102	181.003	337.357	86.375	82.896	67.594	65.712	30.152	118.971	122.150	300.512	0.0025195	0.0068958	0.00032593	801.6	0.0001038	3.2982e-05	700.38	293.05	0.00012251	5.0271e-06	286.28	99.333	98.96	37.621	0.00012267	35.478	0.022454	0.02157	0.0056707	1802.3	0.00025409	0.00023494	1481.5	622	0.00024828	0.00022938	758.88	260.27	377.34	81.356	0.00022133	106.79	171.327	322.295	80.694	-9.159	5.500	86.255	-10.967	-3.713	75.135	25.438	-7.275	-2.313	0.475	4.487	177.408	0.832	-8191	255	
1230.889	1	1	0	0	0.16624	0.11122	0.058891	0.1538	0.20138	0.2334	0.11775	0.24522	0.18408	0.019761	0.1115	0.12126	0.148	0.18411	0.077802	0.15912	-3.2521	-3.7958	-3.8083	-3.6458	-3.8104	-3.7438	-3.7458	-4.1167	-3.5875	-3.7521	-3.9771	-3.6208	-3.7896	-3.8333	-3.6729	-3.9354	43.898	100.811	9.443	257.317	207.832	126.253	216.121	319.624	281.189	177.229	291.729	133.742	194.949	0.408	160.059	292.853	0.0029404	0.0033288	0.0020862	805.07	4.2606e-05	2.2191e-05	703.72	296.96	4.5796e-05	2.4621e-05	285.42	100.03	101.06	37.52	0.00011012	36.404	0.0212	0.020454	0.0058005	1814.4	0.00023946	0.00022311	1516.2	623.39	0.00023465	0.00021742	781.35	258.75	361.8	78.981	0.00023153	105.09	147.270	16.164	161.282	-9.253	14.076	314.946	-11.076	-3.948	72.725	17.628	-6.490	-3.254	0.938	5.453	198.078	-0.076	-8191	255	
1230.985	1	1	0	0	0.047715	0.20896	0.22696	0.20286	0.11092	0.141	0.14721	0.2614	0.15349	0.14958	0.16379	0.30581	0.075913	0.29323	0.10517	0.20391	-3.1542	-3.7021	-3.8271	-3.8	-3.8396	-3.7625	-3.7896	-4.0396	-3.6875	-3.5958	-3.8937	-3.6854	-3.8438	-3.9938	-3.6896	-4.0083	61.430	172.548	-15.133	44.777	50.363	94.875	294.458	9.263	268.222	303.206	124.376	298.531	273.250	7.810	58.953	244.565	0.00038825	0.0016062	0.0025262	816.88	4.843e-05	5.7338e-05	704.46	296.97	4.1629e-05	1.0007e-05	283.01	99.458	98.904	37.412	8.37e-05	35.732	0.020174	0.019532	0.0061187	1790.2	0.00023008	0.00021582	1570.7	611.95	0.00022775	0.00021314	815.43	253.25	353.74	78.539	0.00024508	101.29	12.733	303.074	133.158	-10.011	80.140	121.114	-11.180	-4.791	64.980	98.673	-6.565	-3.759	0.366	5.784	193.795	-0.200	-8191	255	
1231.081	1	1	0	0	0.21616	0.078895	0.12683	0.12399	0.091378	0.20555	0.14803	0.16784	0.11678	0.12754	0.35625	0.13099	0.12032	0.29427	0.12362	0.0608	-3.2646	-3.4542	-3.8812	-3.7542	-3.8354	-3.8354	-3.6979	-4.0104	-3.7479	-3.6396	-3.9875	-3.7979	-3.7542	-4.0708	-3.5917	-4.0292	219.381	-9.785	71.548	265.982	30.795	74.588	256.763	305.728	95.091	-18.045	10.350	314.546	-3.897	26.262	122.317	250.929	0.00034643	0.0053517	0.0021075	807.4	5.4153e-05	7.678e-05	706.88	295.24	7.567e-05	5.6906e-05	288.42	99.39	99.974	37.666	3.4823e-05	35.489	0.019341	0.019335	0.0063141	1726.6	0.00021658	0.00021428	1590.4	590.46	0.00021523	0.00021597	824.94	243.98	342.45	80.13	0.00025057	98.653	280.648	59.442	113.391	-9.866	15.788	198.965	-11.325	-4.363	31.514	170.007	-7.612	-3.531	0.604	5.988	139.584	0.349	-8191	255	
#DATA ENDS
