BOXY.EXE: ISS Imagent and Oximeter Data Acquisition Program Version 0.80
Ascii Record File

#ACQ INFORMATION
2  Detector Channels 
16  External MUX Channels 
1  Auxiliary Channels 
5000  Waveform (CCF) Frequency (Hz)
1  Waveforms Skipped 
30  Waveforms Averaged 
1  Cycles Averaged 
16  Acquisitions per Waveform 
10.0806  Updata Rate (Hz) 

#FILE INFORMATION
TRUE -- External MUX Channel results are PARSED.
FALSE -- AC DC and Phase are NOT grouped.
TRUE -- Companion Program Settings File CREATED.
FALSE -- AC data not excluded
FALSE -- DC data not excluded
FALSE -- Phase data not excluded
FALSE -- Auxillary Chn. data not excluded
Tab delimiters

#CALIBRATION STATE
TRUE -- Waveform Calibration Values APPLIED.


#AUX CALIBRATION VALUES
Val Type	aux-1	

Term	1.0000e+00	
Factor	0.0000e+00	


#WF CALIBRATION VALUES
A = Detector Channel
Val Type	A-AC1	A-AC2	A-AC3	A-AC4	A-AC5	A-AC6	A-AC7	A-AC8	A-AC9	A-AC10	A-AC11	A-AC12	A-AC13	A-AC14	A-AC15	A-AC16	A-DC1	A-DC2	A-DC3	A-DC4	A-DC5	A-DC6	A-DC7	A-DC8	A-DC9	A-DC10	A-DC11	A-DC12	A-DC13	A-DC14	A-DC15	A-DC16	A-Ph1	A-Ph2	A-Ph3	A-Ph4	A-Ph5	A-Ph6	A-Ph7	A-Ph8	A-Ph9	A-Ph10	A-Ph11	A-Ph12	A-Ph13	A-Ph14	A-Ph15	A-Ph16	

Term	0.00000e+00	0.00000e+00	0.00000e+00	0.00000e+00	0.00000e+00	0.00000e+00	0.00000e+00	0.00000e+00	0.00000e+00	0.00000e+00	0.00000e+00	0.00000e+00	0.00000e+00	0.00000e+00	0.00000e+00	0.00000e+00	0.00000e+00	0.00000e+00	0.00000e+00	0.00000e+00	0.00000e+00	0.00000e+00	0.00000e+00	0.00000e+00	0.00000e+00	0.00000e+00	0.00000e+00	0.00000e+00	0.00000e+00	0.00000e+00	0.00000e+00	0.00000e+00	0.00000e+00	0.00000e+00	0.00000e+00	0.00000e+00	0.00000e+00	0.00000e+00	0.00000e+00	0.00000e+00	0.00000e+00	0.00000e+00	0.00000e+00	0.00000e+00	0.00000e+00	0.00000e+00	0.00000e+00	0.00000e+00	
Factor	1.00000e+00	1.00000e+00	1.00000e+00	1.00000e+00	1.00000e+00	1.00000e+00	1.00000e+00	1.00000e+00	1.00000e+00	1.00000e+00	1.00000e+00	1.00000e+00	1.00000e+00	1.00000e+00	1.00000e+00	1.00000e+00	1.00000e+00	1.00000e+00	1.00000e+00	1.00000e+00	1.00000e+00	1.00000e+00	1.00000e+00	1.00000e+00	1.00000e+00	1.00000e+00	1.00000e+00	1.00000e+00	1.00000e+00	1.00000e+00	1.00000e+00	1.00000e+00	X	X	X	X	X	X	X	X	X	X	X	X	X	X	X	X	

B = Detector Channel
Val Type	B-AC1	B-AC2	B-AC3	B-AC4	B-AC5	B-AC6	B-AC7	B-AC8	B-AC9	B-AC10	B-AC11	B-AC12	B-AC13	B-AC14	B-AC15	B-AC16	B-DC1	B-DC2	B-DC3	B-DC4	B-DC5	B-DC6	B-DC7	B-DC8	B-DC9	B-DC10	B-DC11	B-DC12	B-DC13	B-DC14	B-DC15	B-DC16	B-Ph1	B-Ph2	B-Ph3	B-Ph4	B-Ph5	B-Ph6	B-Ph7	B-Ph8	B-Ph9	B-Ph10	B-Ph11	B-Ph12	B-Ph13	B-Ph14	B-Ph15	B-Ph16	

Term	0.00000e+00	0.00000e+00	0.00000e+00	0.00000e+00	0.00000e+00	0.00000e+00	0.00000e+00	0.00000e+00	0.00000e+00	0.00000e+00	0.00000e+00	0.00000e+00	0.00000e+00	0.00000e+00	0.00000e+00	0.00000e+00	0.00000e+00	0.00000e+00	0.00000e+00	0.00000e+00	0.00000e+00	0.00000e+00	0.00000e+00	0.00000e+00	0.00000e+00	0.00000e+00	0.00000e+00	0.00000e+00	0.00000e+00	0.00000e+00	0.00000e+00	0.00000e+00	3.11442e+01	-1.32585e+02	-1.25137e+02	-1.82803e+02	-6.99753e+01	-6.57492e+01	-1.55363e+02	-1.62015e+02	-5.19944e+01	-6.84061e+01	-1.72002e+02	-1.69539e+02	-1.79829e+02	-1.77289e+02	-5.95372e+01	-1.49288e+02	
Factor	4.46143e-05	1.55393e-04	3.79425e-05	1.69166e-01	1.65811e-06	1.54395e-06	1.50608e-01	4.38241e-02	2.52180e-06	1.64082e-06	8.20883e-02	2.44333e-02	2.46613e-02	7.74829e-03	1.75397e-06	1.09675e-02	1.31998e-05	1.98917e-05	5.63019e-06	8.76786e-02	2.03302e-07	2.24248e-07	7.35378e-02	2.28266e-02	1.97474e-07	2.25893e-07	4.16175e-02	1.24053e-02	1.29592e-02	4.07900e-03	2.08931e-07	5.61216e-03	X	X	X	X	X	X	X	X	X	X	X	X	X	X	X	X	



#DISTANCE SETTINGS
A = Detector Channel
A-1	A-2	A-3	A-4	A-5	A-6	A-7	A-8	A-9	A-10	A-11	A-12	A-13	A-14	A-15	A-16	

2.5000e+00	3.0000e+00	2.5000e+00	3.0000e+00	2.0000e+00	3.0000e+00	1.5000e+00	3.0000e+00	3.0000e+00	3.0000e+00	3.0000e+00	3.0000e+00	3.0000e+00	3.0000e+00	1.5000e+00	3.0000e+00	

B = Detector Channel
B-1	B-2	B-3	B-4	B-5	B-6	B-7	B-8	B-9	B-10	B-11	B-12	B-13	B-14	B-15	B-16	

1.0000e+01	1.0000e+01	1.0000e+01	1.4400e+00	1.0000e+01	1.0000e+01	1.5100e+00	1.9400e+00	1.0000e+01	1.0000e+01	1.9900e+00	2.4900e+00	2.4100e+00	2.9000e+00	1.0000e+01	2.9800e+00	




#DATA BEGINS
time	group	step	mark	flag	A-AC1	A-AC2	A-AC3	A-AC4	A-AC5	A-AC6	A-AC7	A-AC8	A-AC9	A-AC10	A-AC11	A-AC12	A-AC13	A-AC14	A-AC15	A-AC16	A-DC1	A-DC2	A-DC3	A-DC4	A-DC5	A-DC6	A-DC7	A-DC8	A-DC9	A-DC10	A-DC11	A-DC12	A-DC13	A-DC14	A-DC15	A-DC16	A-Ph1	A-Ph2	A-Ph3	A-Ph4	A-Ph5	A-Ph6	A-Ph7	A-Ph8	A-Ph9	A-Ph10	A-Ph11	A-Ph12	A-Ph13	A-Ph14	A-Ph15	A-Ph16	B-AC1	B-AC2	B-AC3	B-AC4	B-AC5	B-AC6	B-AC7	B-AC8	B-AC9	B-AC10	B-AC11	B-AC12	B-AC13	B-AC14	B-AC15	B-AC16	B-DC1	B-DC2	B-DC3	B-DC4	B-DC5	B-DC6	B-DC7	B-DC8	B-DC9	B-DC10	B-DC11	B-DC12	B-DC13	B-DC14	B-DC15	B-DC16	B-Ph1	B-Ph2	B-Ph3	B-Ph4	B-Ph5	B-Ph6	B-Ph7	B-Ph8	B-Ph9	B-Ph10	B-Ph11	B-Ph12	B-Ph13	B-Ph14	B-Ph15	B-Ph16	aux-1	digaux	

18005.545	1	1	0	256	0.026726	0.19625	0.10318	0.26063	0.22736	0.2014	0.011597	0.17943	0.25002	0.23627	0.21989	0.16303	0.10313	0.31187	0.31507	0.34087	-2.5229	-2.8812	-2.6104	-3.0521	-2.8542	-2.6458	-3.2146	-2.7125	-2.9062	-3.2542	-2.7208	-3.0646	-2.9292	-2.8958	-3.05	-2.8563	-130.006	64.441	1.674	-53.079	-129.898	122.583	86.739	-169.917	-5.589	24.712	152.809	96.799	42.584	133.187	-19.320	90.655	0.00065074	0.00063584	0.00011789	1041.5	2.4535e-06	4.4273e-06	1100.8	213.19	9.0289e-06	4.929e-06	268.45	75.761	59.111	16.816	4.214e-06	24.261	0.00067657	0.00084875	0.00023711	1030.7	8.7437e-06	9.4142e-06	1093.6	213.46	8.5856e-06	9.8113e-06	269.73	76.236	59.552	17.171	8.6719e-06	24.817	2.045	-62.647	-67.286	-162.917	-79.252	13.257	-162.896	-155.820	-48.208	-46.602	-156.129	-149.669	-149.087	-141.673	-34.423	-142.786	-8191	255	
18005.615	1	1	0	0	0.052067	0.093657	0.29833	0.237	0.066408	0.19782	0.26048	0.1111	0.30529	0.23977	0.18964	0.15979	0.21686	0.25058	0.11736	0.050726	-2.4	-2.8333	-2.7125	-3.0292	-2.9521	-2.6562	-3.1333	-2.9458	-2.8042	-2.9646	-2.7542	-2.8771	-2.9896	-2.6833	-2.925	-2.7458	71.247	55.462	77.548	177.606	23.875	127.117	59.658	-65.740	39.486	-49.902	-168.586	-29.661	164.587	-76.739	-116.113	-147.494	0.00056006	0.00034281	0.00012333	1039.2	3.9053e-06	3.2063e-06	1099.8	212.58	5.655e-06	2.8164e-06	268.31	75.607	59.329	16.798	1.566e-06	24.031	0.00065136	0.00082414	0.00024107	1030.7	8.5802e-06	9.1273e-06	1090.5	212.95	8.7662e-06	9.1647e-06	269.72	76.196	59.402	17.16	8.7864e-06	24.786	9.597	-40.466	-56.933	-162.954	-71.265	-10.539	-162.956	-155.789	-40.709	9.939	-155.717	-149.597	-149.099	-141.767	-43.737	-142.820	-8191	255	
18005.736	1	1	0	0	0.063314	0.18072	0.27546	0.14614	0.19214	0.12499	0.010423	0.32275	0.20118	0.27922	0.093626	0.18347	0.23195	0.1345	0.28462	0.21216	-2.4917	-3.1083	-2.7208	-3.0542	-2.9854	-2.7333	-3.1167	-2.9917	-2.7104	-2.9458	-2.7562	-2.9958	-2.8625	-2.7292	-2.9083	-2.7208	94.848	136.478	-91.056	77.560	-108.396	-74.174	168.555	170.273	165.862	-45.764	68.219	158.326	155.694	-146.985	87.838	91.772	0.00060378	0.00042052	0.00012516	1037	4.8864e-06	1.077e-06	1099.4	213.96	9.4392e-06	2.3776e-06	267.74	76.011	59.289	16.715	3.3957e-06	24.203	0.00066604	0.00086086	0.00023812	1028.7	8.6484e-06	9.553e-06	1090.6	213.35	8.8366e-06	9.8193e-06	268.97	76.339	59.558	17.124	9.0741e-06	24.803	3.878	-84.388	-88.838	-162.891	-8.539	67.342	-162.889	-155.787	-20.981	-20.468	-155.895	-149.251	-149.630	-141.469	-15.889	-142.245	-8191	255	
18005.832	1	1	0	0	0.15011	0.17408	0.14107	0.18515	0.20913	0.079493	0.21491	0.21304	0.18437	0.083858	0.17309	0.027583	0.22744	0.22757	0.10206	0.12182	-2.35	-3.0021	-2.6104	-2.8646	-3.0667	-2.6875	-3.1667	-2.9604	-2.7875	-3.0292	-2.7146	-2.9042	-3.0333	-2.6688	-2.9188	-2.9688	-43.435	23.854	35.192	141.160	99.208	65.422	81.651	101.561	69.415	104.458	125.763	-9.677	157.335	89.058	20.540	-102.726	0.00056154	0.00068212	0.00010164	1043.5	2.2412e-06	2.6385e-06	1099.9	213.71	8.4134e-06	4.3433e-06	267.21	75.702	59.667	16.843	3.4367e-06	24.061	0.00069439	0.00088696	0.00024367	1031.8	8.7115e-06	9.7202e-06	1090.7	213.38	8.5589e-06	9.7266e-06	269.09	76.342	59.669	17.186	8.934e-06	24.785	0.524	-103.465	-47.578	-162.678	-0.108	-13.486	-162.876	-155.615	-69.364	-3.403	-155.791	-149.608	-148.604	-141.869	-11.689	-142.547	-8191	255	
18005.928	1	1	0	0	0.10133	0.10012	0.20083	0.070962	0.072427	0.15999	0.36061	0.095486	0.28211	0.10485	0.18313	0.19683	0.19599	0.088436	0.15488	0.23189	-2.4146	-3.0729	-2.6625	-3.0042	-3.175	-2.7083	-3.0979	-3.1063	-2.6604	-3.1542	-2.9125	-2.7313	-3.0896	-2.8063	-2.8479	-2.9521	-101.113	-129.095	76.415	126.140	161.281	161.565	107.224	-150.368	-118.527	-85.242	-146.960	159.990	168.637	-35.110	-165.242	103.473	0.0005671	0.00040685	2.3053e-05	1037.9	2.3472e-06	4.4283e-06	1101.2	213.97	7.8237e-06	4.9871e-06	267.66	75.832	59.317	16.785	3.9407e-06	24.104	0.00072162	0.00086434	0.00023974	1028.9	9.1304e-06	9.7482e-06	1089.7	213.74	9.1229e-06	9.7492e-06	269.43	76.358	59.571	17.145	8.8613e-06	24.836	1.623	-99.620	-51.505	-162.674	-60.195	-20.543	-163.034	-155.784	-55.267	-42.113	-156.036	-149.526	-148.620	-142.106	-22.488	-143.002	-8191	255	
18006.025	1	1	0	0	0.29762	0.12726	0.24251	0.096428	0.15268	0.11007	0.3274	0.20181	0.2617	0.2317	0.094485	0.28904	0.096	0.34285	0.23372	0.29886	-2.1146	-2.8708	-2.7083	-2.8875	-3.0625	-2.7729	-3.0833	-2.8604	-2.5417	-3.2333	-3.0687	-2.7646	-2.9771	-2.6958	-2.9437	-3.0604	22.346	46.504	165.251	133.060	154.086	130.005	98.270	23.424	32.294	-147.143	165.734	-149.356	-169.746	137.604	107.799	99.932	0.00069255	0.000458	7.9423e-05	1033.6	3.8323e-06	2.8069e-06	1101	213.68	5.0817e-06	3.183e-06	268.28	75.51	59.26	16.9	6.2694e-06	24.153	0.00071183	0.00088199	0.00024253	1028.5	9.3168e-06	9.8912e-06	1092.7	213.57	9.48e-06	1.0211e-05	269.56	76.218	59.55	17.208	9.193e-06	24.813	1.374	-71.705	-147.425	-162.749	14.322	-2.106	-162.875	-155.796	-50.147	42.566	-155.865	-149.270	-149.019	-141.669	-45.873	-142.768	-8191	255	
18006.145	1	1	0	0	0.19195	0.014545	0.061339	0.1572	0.27522	0.068358	0.072164	0.069657	0.041051	0.31865	0.18667	0.08273	0.016446	0.074917	0.15007	0.15989	-2.3125	-2.9229	-2.9229	-2.5896	-2.9979	-2.8833	-2.8583	-3.1125	-2.6854	-2.7125	-2.9604	-2.6792	-2.9833	-2.8729	-2.7604	-3.0729	-83.169	148.790	-102.927	-154.107	71.250	-118.335	-170.777	-114.563	-20.111	152.651	143.466	-85.820	169.280	-63.143	63.286	-153.148	0.00065985	0.00041574	6.7345e-05	1032	5.858e-06	2.3965e-06	1096	213.44	9.1451e-06	3.5449e-06	267.23	75.654	59.107	16.671	4.1083e-06	24.016	0.00074026	0.00088025	0.00023623	1027.2	9.3955e-06	9.7721e-06	1089.7	213.17	9.4051e-06	9.9233e-06	268.74	76.237	59.477	17.109	9.0706e-06	24.761	1.116	-59.511	-76.544	-162.844	-53.473	-27.616	-162.907	-155.693	-30.416	6.350	-155.936	-149.829	-148.996	-141.708	-28.650	-142.257	-8191	255	
18006.240	1	1	0	0	0.10698	0.14822	0.23884	0.27632	0.32668	0.36155	0.31349	0.22009	0.40747	0.28597	0.33422	0.24565	0.19688	0.22075	0.41955	0.22998	-2.3625	-2.7458	-2.8521	-2.6917	-2.9437	-2.8646	-3.0417	-3.1208	-2.8187	-2.8604	-3.0187	-2.6833	-2.9542	-2.7417	-2.8396	-3.1188	183.425	-139.492	26.160	173.447	-161.905	176.024	127.442	153.949	-2.786	-89.841	105.991	103.270	-137.846	-86.065	-85.312	11.781	0.00060045	0.00024567	0.00010085	1032.5	4.2383e-06	2.2238e-06	1094.6	213.23	5.1027e-06	4.4244e-06	267.93	75.25	59.021	16.822	3.5216e-06	24.14	0.00071543	0.00088311	0.00024306	1024.8	9.1088e-06	9.6623e-06	1085.6	212.76	9.1797e-06	9.7591e-06	269.3	76.057	59.414	17.155	9.566e-06	24.681	-2.313	-45.601	-105.439	-162.805	-40.636	0.645	-162.783	-155.661	-23.272	-12.976	-156.111	-149.603	-149.134	-141.608	38.317	-142.593	-8191	255	
18006.336	1	1	0	0	0.11717	0.32778	0.24438	0.1338	0.14696	0.11594	0.23159	0.29405	0.20504	0.1674	0.20977	0.097382	0.058202	0.26413	0.3009	0.17218	-2.5208	-2.9208	-2.9479	-2.8688	-3.0312	-2.7625	-2.8729	-3.1771	-2.7417	-2.7167	-3.1667	-2.9042	-2.9708	-2.8833	-2.7812	-3.0812	79.285	-127.664	19.275	177.929	-26.379	156.075	-150.983	183.174	-31.601	110.817	98.558	-132.555	32.143	124.705	18.336	159.017	0.00066694	0.00015504	7.7164e-05	1028.4	5.0858e-06	1.1574e-06	1090.2	213.07	3.9983e-06	3.8531e-06	266.81	75.214	59.056	16.819	7.3059e-07	23.983	0.00070586	0.00084109	0.00023866	1020.4	9.0249e-06	9.2857e-06	1083.4	212.66	8.8464e-06	9.4268e-06	267.76	76.007	59.149	17.116	9.1076e-06	24.68	2.711	-67.761	-76.962	-162.822	-57.632	24.194	-162.796	-155.998	-30.922	-17.712	-156.128	-149.170	-149.003	-141.700	129.903	-142.477	-8191	255	
18006.432	1	1	0	0	0.19462	0.22169	0.21296	0.090826	0.060119	0.1681	0.35943	0.35994	0.081475	0.22784	0.31982	0.28358	0.057936	0.085447	0.087402	0.25982	-2.2396	-2.7562	-3.025	-2.6813	-2.8625	-2.9625	-2.8917	-3.0896	-2.8479	-2.8917	-3.0563	-2.8958	-3.0396	-2.9729	-2.7854	-3.1188	107.531	185.834	82.626	103.078	-129.513	91.344	112.709	83.069	108.858	73.791	126.904	15.817	102.650	63.755	14.028	-79.564	0.00061041	0.00023732	0.00016154	1024.8	2.4149e-06	2.4248e-06	1089.6	212.92	8.1016e-06	3.4709e-06	267.56	75.663	59.174	16.754	3.2366e-06	24.293	0.00069951	0.00085791	0.00024205	1019.7	8.8165e-06	9.303e-06	1082.3	212.62	8.8769e-06	9.4409e-06	268.64	76.142	59.253	17.045	9.3779e-06	24.764	5.674	-61.102	-82.922	-162.702	-54.565	4.840	-162.745	-155.667	-37.795	-38.313	-156.007	-149.467	-149.009	-141.982	-41.491	-142.474	-8191	255	
18006.527	1	1	0	0	0.26419	0.12691	0.25828	0.1961	0.22399	0.25338	0.21092	0.082871	0.058357	0.12476	0.0090402	0.25565	0.20203	0.1398	0.27511	0.30323	-2.3812	-2.7562	-3.0125	-2.7604	-2.8479	-2.7875	-2.9021	-3.1896	-2.8958	-2.7125	-3.1354	-2.8583	-2.9458	-3.1458	-2.6562	-3.0875	-105.212	-117.813	13.516	-90.310	-24.426	48.177	87.872	58.269	41.414	-20.341	-152.106	161.950	-137.524	155.494	31.717	182.562	0.00052114	0.00038879	6.0732e-05	1025.2	1.8614e-06	1.6832e-06	1087.6	212.89	2.0733e-06	2.4116e-06	266.9	75.422	58.741	16.859	3.1095e-06	23.981	0.00069093	0.00084171	0.0002394	1017.5	8.9864e-06	9.7501e-06	1079.1	212.27	8.7962e-06	9.8678e-06	268.08	76.061	59.113	17.103	9.2735e-06	24.617	3.392	-74.591	-56.907	-162.650	-31.286	-80.542	-162.879	-155.697	-77.335	24.921	-155.657	-149.101	-149.017	-142.056	-10.676	-142.974	-8191	255	
18006.623	1	1	0	0	0.3225	0.1379	0.15555	0.37161	0.049193	0.11483	0.19566	0.029319	0.049885	0.2078	0.021814	0.16565	0.25785	0.085107	0.089104	0.023319	-2.2229	-2.8229	-3.0979	-2.8958	-2.8625	-2.9	-2.8979	-2.9646	-2.7687	-2.8292	-3.2292	-2.7812	-2.8625	-2.9125	-2.7792	-3.1854	19.933	-12.900	-18.608	122.088	72.174	94.864	62.223	135.229	147.885	157.145	-96.329	145.047	-111.939	13.305	-167.064	-12.952	0.00057884	0.00023584	9.6924e-05	1020.8	3.3668e-06	2.6737e-06	1089.7	212.05	5.1007e-06	2.45e-06	268.89	75.225	58.836	16.756	2.6119e-06	24.023	0.00069236	0.00087325	0.0002358	1015.8	8.9284e-06	9.6221e-06	1079.3	211.91	8.9369e-06	9.9901e-06	268.45	75.995	59.11	17.092	9.0985e-06	24.614	14.200	-118.540	-76.695	-162.821	-87.980	-50.266	-163.152	-155.871	-68.738	-35.698	-155.759	-149.674	-149.014	-142.043	-79.382	-142.505	-8191	255	
18006.744	1	1	0	0	0.17664	0.048886	0.17205	0.1994	0.1554	0.13651	0.27549	0.18801	0.44134	0.19083	0.14521	0.28028	0.18906	0.20561	0.21591	0.077833	-2.375	-2.6458	-3.0729	-2.975	-2.6771	-2.9917	-2.9125	-2.9208	-2.8896	-2.7958	-3.1063	-2.9333	-2.6979	-3.0146	-2.7875	-3.1312	-55.500	96.860	184.860	98.028	-52.437	94.787	102.044	104.692	139.726	86.903	176.207	149.149	164.530	47.168	75.763	57.995	0.0005401	0.00032791	9.2535e-05	1027.3	4.4264e-06	3.9641e-06	1086.8	211.67	1.0245e-05	4.5983e-06	267.1	75.232	58.922	16.695	3.6213e-06	24.029	0.00069494	0.00093707	0.00024767	1017	8.9843e-06	9.6665e-06	1079.7	211.55	9.0513e-06	9.8904e-06	267.53	75.907	59.181	17.077	9.3779e-06	24.614	4.726	-103.433	-94.809	-162.627	-38.124	-32.122	-162.872	-155.406	-53.125	-0.679	-155.947	-149.359	-149.214	-141.690	-70.461	-142.808	-8191	255	
18006.840	1	1	0	0	0.14135	0.12182	0.17686	0.23671	0.077725	0.30155	0.19819	0.22984	0.085401	0.068786	0.058396	0.17828	0.25173	0.13922	0.28127	0.16101	-2.3021	-2.725	-3.0229	-3.0167	-2.7771	-3.1167	-2.8479	-3.0271	-2.8563	-2.7812	-3.025	-2.8604	-2.7354	-3.3187	-2.925	-2.9146	6.623	-78.034	106.388	168.463	-153.103	28.339	74.850	41.255	-9.984	-58.854	-98.519	148.839	165.195	-13.514	117.334	-86.456	0.000591	0.00014863	0.00010694	1021.2	1.7426e-06	4.0837e-06	1076.5	211.99	6.4834e-06	2.5707e-06	266.08	74.68	58.296	16.595	3.6256e-06	23.866	0.00069714	0.00088725	0.00024921	1012.8	9.2261e-06	9.5721e-06	1074.3	211.34	8.8637e-06	9.511e-06	267.57	75.581	58.785	16.986	8.7368e-06	24.494	6.698	-39.503	-109.642	-163.029	-25.997	-16.627	-163.030	-155.341	-34.925	3.534	-155.902	-149.769	-148.698	-141.606	-57.320	-142.518	-8191	255	
18006.912	1	1	0	0	0.076904	0.27513	0.23464	0.19786	0.10759	0.19496	0.23972	0.11068	0.073644	0.25924	0.27502	0.3215	0.065909	0.50662	0.14595	0.049661	-2.3729	-2.8292	-3.0396	-3.0146	-2.7396	-3.0104	-2.9917	-2.8771	-3.0021	-2.8917	-3.0563	-2.9333	-2.8479	-3.0542	-2.9833	-2.7875	-42.116	-139.591	79.642	157.011	-87.989	-2.276	151.822	-161.016	71.757	7.149	167.118	73.523	-48.703	143.352	0.115	124.742	0.00064534	0.00017252	6.4034e-05	1015.3	3.3037e-06	2.1868e-06	1076.5	211.47	5.3858e-06	2.3651e-06	265.64	75.057	58.502	16.643	2.6214e-06	23.653	0.00069189	0.00086202	0.00022959	1004.3	9.191e-06	9.5212e-06	1067.9	210.61	9.0196e-06	1.0008e-05	266.38	75.469	58.872	16.951	9.3135e-06	24.353	-1.384	-94.907	-58.886	-162.733	-17.760	-34.734	-162.929	-155.705	-28.648	-24.734	-155.738	-149.605	-149.073	-141.971	5.233	-142.501	-8191	255	
18007.010	1	1	0	0	0.077107	0.28988	0.19531	0.11783	0.25258	0.19881	0.095172	0.19505	0.025744	0.16152	0.18025	0.087919	0.38387	0.24318	0.21469	0.096802	-2.5833	-2.65	-2.9979	-3.0208	-2.7521	-3.05	-2.9938	-2.9813	-2.9854	-2.7229	-3.0875	-2.9729	-2.8312	-2.9688	-2.7042	-2.85	-32.588	21.173	101.234	-143.076	139.563	-20.113	118.789	153.813	177.536	-64.962	134.412	-56.480	165.068	114.555	43.139	31.149	0.00069081	0.00031384	6.5038e-05	1005.1	2.6109e-06	1.679e-06	1072.9	210.72	4.2052e-06	2.8273e-06	264.86	74.528	58.472	16.602	1.7522e-06	23.591	0.00073724	0.00093056	0.0002446	997.78	9.4218e-06	1.0357e-05	1066.9	210.83	9.3673e-06	1.0168e-05	266.78	75.493	58.71	16.943	8.7716e-06	24.22	0.437	-74.086	-89.162	-162.595	-23.928	-31.143	-162.791	-155.650	-48.641	-27.285	-155.881	-149.279	-149.107	-141.883	16.197	-142.387	-8191	255	
18007.129	1	1	0	0	0.20467	0.20067	0.10997	0.07716	0.15793	0.27239	0.26712	0.096934	0.048859	0.12916	0.14477	0.14622	0.17636	0.29241	0.2353	0.24629	-2.5333	-2.8542	-2.8708	-2.9188	-2.3563	-2.975	-2.9604	-2.8917	-2.9417	-2.7083	-2.95	-2.9771	-2.8187	-3.1021	-2.8771	-3.0667	-109.518	-57.952	144.504	95.130	29.923	163.945	115.524	108.289	-121.958	-149.393	-119.015	-147.375	34.493	156.031	-153.962	-85.982	0.00060054	0.00028674	0.0001416	1001.8	1.1129e-06	3.2949e-06	1067.3	209.78	6.6384e-06	2.2129e-06	264.15	74.789	58.091	16.502	1.7743e-06	23.757	0.00069767	0.00085207	0.00023193	993.02	8.8589e-06	9.2105e-06	1059.4	209.43	8.9641e-06	9.5289e-06	264.61	75.032	58.465	16.842	8.7098e-06	24.218	9.954	-78.085	-96.630	-162.715	-76.060	-45.218	-162.846	-155.475	-23.690	-5.590	-155.789	-149.399	-149.126	-141.787	-81.886	-143.029	-8191	255	
18007.225	1	1	0	0	0.21549	0.31723	0.060624	0.1092	0.13021	0.19296	0.15041	0.059776	0.0051952	0.13002	0.19167	0.26788	0.051099	0.26214	0.15771	0.15495	-2.5771	-2.7292	-2.6896	-3.1813	-2.7396	-3.0667	-3.0083	-2.8292	-3.1042	-2.9229	-3.0938	-2.8833	-2.8354	-3.225	-2.9667	-2.55	-57.164	56.910	165.807	24.510	164.304	-71.772	130.156	-126.830	82.360	127.519	1.079	175.584	66.186	-151.558	93.743	-92.246	0.00062892	0.00017364	6.3621e-05	994.11	5.162e-06	2.1745e-06	1063.9	209.84	7.4211e-06	3.8334e-06	262.53	74.192	57.842	16.56	5.6499e-06	23.715	0.00069618	0.0008328	0.00023053	986.75	8.8928e-06	8.9825e-06	1054.9	208.65	8.591e-06	9.16e-06	263.38	74.826	58.201	16.861	8.5514e-06	24.176	6.695	-87.859	-107.173	-162.927	-59.410	-14.545	-162.917	-155.613	-19.484	-18.364	-156.112	-149.357	-149.230	-141.749	28.832	-142.404	-8191	255	
18007.320	1	1	0	0	0.13117	0.2834	0.10607	0.21604	0.16917	0.1627	0.17947	0.22818	0.098758	0.084312	0.10657	0.26642	0.23178	0.14222	0.22012	0.19148	-2.6167	-2.8854	-2.8042	-3.0438	-2.7521	-3.0687	-3.1479	-2.8292	-2.8917	-2.8	-2.8937	-3.1521	-2.7125	-2.9104	-2.9313	-2.7958	-153.411	-155.909	85.418	126.160	-137.258	-65.827	117.502	105.738	-157.829	-4.495	-41.352	30.359	152.653	-14.369	1.709	-107.714	0.00059964	0.00020208	0.00012681	989.75	3.2679e-06	1.4381e-06	1057.7	208.3	6.0925e-06	1.4827e-06	262.32	74.037	57.914	16.565	3.2506e-06	23.699	0.00065785	0.00081278	0.00023593	983.28	8.7848e-06	9.1348e-06	1049.8	207.71	8.5568e-06	8.9096e-06	263.61	74.902	58.145	16.831	8.9383e-06	24.159	2.328	-104.674	-68.473	-162.496	-17.901	-2.290	-162.695	-155.545	-24.316	-15.608	-156.008	-149.460	-149.149	-141.381	-34.209	-142.674	-8191	255	
18007.416	1	1	0	0	0.068637	0.045563	0.12069	0.16503	0.16253	0.31212	0.17927	0.27288	0.27711	0.13672	0.1543	0.15715	0.31734	0.098227	0.18615	0.071784	-2.2583	-2.7958	-2.7313	-3.0146	-2.6917	-2.875	-3.1542	-2.8187	-2.9854	-2.8604	-2.7729	-3.1708	-2.8583	-2.9958	-2.9958	-2.9062	171.859	61.756	-56.662	-119.412	169.140	175.197	96.615	116.772	14.474	-78.564	43.016	-21.349	155.921	-50.786	67.496	39.307	0.00062912	0.00041134	8.8137e-05	993.14	4.1104e-06	1.7182e-06	1060.2	208.31	5.2059e-06	2.449e-06	262.26	74.441	58.229	16.539	4.1968e-06	23.504	0.00069813	0.00084163	0.0002364	983.77	8.9974e-06	9.6029e-06	1051.5	208.39	9.0711e-06	9.4019e-06	264.13	74.885	58.293	16.862	9.2387e-06	24.073	8.085	-73.483	-107.659	-162.505	-32.833	-41.073	-162.952	-155.706	-26.895	-7.767	-155.957	-149.324	-148.780	-141.581	-35.174	-142.514	-8191	255	
18007.512	1	1	0	0	0.10618	0.041526	0.14282	0.18038	0.19168	0.15431	0.18185	0.31019	0.033083	0.10727	0.15568	0.17305	0.21345	0.24349	0.16475	0.18236	-2.6229	-2.9333	-2.6604	-3.2333	-2.7021	-2.9125	-3.1688	-2.8333	-3.0687	-2.9479	-2.7396	-3.0333	-2.7	-2.925	-2.9917	-2.8542	-65.655	-107.482	-7.604	-172.552	90.074	19.490	-109.148	113.431	-76.286	13.372	-93.694	-120.547	160.900	108.344	-18.841	65.898	0.0005488	0.00035876	0.00011518	987.18	4.2403e-06	4.4098e-06	1059.6	208.15	6.2599e-06	3.1619e-06	263.39	74.476	58.192	16.407	6.1822e-06	23.617	0.00071202	0.00085999	0.00025155	982.2	9.2227e-06	9.9622e-06	1053.1	208.09	8.9279e-06	9.5412e-06	263.82	75.072	58.331	16.814	9.29e-06	24.107	10.690	-84.517	-92.984	-162.637	-23.110	-32.679	-162.769	-155.791	-34.005	-4.647	-155.939	-149.249	-149.025	-141.459	-6.683	-142.424	-8191	255	
18007.609	1	1	0	0	0.14376	0.02737	0.19499	0.052029	0.40992	0.21219	0.079539	0.14074	0.29553	0.19027	0.33654	0.39468	0.28596	0.05116	0.20669	0.08593	-2.5271	-2.8583	-2.6562	-3.0646	-2.7646	-2.6333	-3.2354	-2.6104	-2.9542	-2.9708	-2.7125	-3.0104	-2.7708	-2.7833	-2.9938	-2.5792	87.490	-146.934	-51.550	-155.262	65.501	93.101	-139.297	73.324	-137.386	-23.112	108.713	-60.892	153.748	75.061	-98.623	123.668	0.00056483	0.00041056	0.00011401	991.22	3.9045e-06	2.1524e-06	1061.2	208.41	7.1917e-06	2.7225e-06	261.15	74.381	57.805	16.511	7.791e-06	23.38	0.00069615	0.00087175	0.00025101	983.47	9.4231e-06	9.8048e-06	1052.9	207.89	8.9917e-06	9.6692e-06	263.56	75.01	58.055	16.86	9.4258e-06	24.072	6.439	-131.491	-91.868	-162.481	-75.612	-55.778	-162.975	-155.259	-37.426	-13.160	-155.805	-149.343	-149.085	-141.810	-12.962	-142.801	-8191	255	
18007.705	1	1	0	0	0.06486	0.15615	0.25048	0.36004	0.18635	0.38231	0.20802	0.021576	0.21218	0.048746	0.20763	0.095588	0.048825	0.20405	0.41109	0.17005	-2.4062	-2.8812	-2.6771	-3.0146	-2.9896	-2.7292	-3.0979	-2.8625	-2.8396	-3.0417	-2.7958	-2.9042	-3.0479	-2.7146	-3.1208	-2.8208	-75.241	141.385	-15.951	156.273	-144.984	-145.865	73.312	-43.571	-62.700	91.672	-128.270	-11.866	-85.959	-122.647	36.398	174.243	0.00067625	0.00039256	1.8687e-05	991.55	3.1876e-06	7.6235e-07	1055.6	209.55	3.1707e-06	2.9905e-06	260.16	73.803	57.378	16.532	4.4005e-06	23.33	0.00070993	0.00091179	0.00024677	983.57	9.1736e-06	9.9473e-06	1051.5	208.37	9.3607e-06	9.9986e-06	263.69	74.75	58.039	16.839	9.2047e-06	23.978	-3.659	-93.552	38.527	-162.607	-21.095	-97.293	-162.993	-155.588	-14.435	-28.948	-155.941	-149.170	-148.994	-141.445	-16.616	-142.353	-8191	255	
18007.824	1	1	0	0	0.07819	0.066627	0.19324	0.053116	0.10921	0.36701	0.25094	0.20301	0.22881	0.14452	0.004262	0.17506	0.18993	0.12219	0.10084	0.065452	-2.4521	-2.9479	-2.6813	-3.0563	-2.8187	-2.7917	-3.2229	-2.8937	-2.8083	-3.0375	-2.7771	-2.8917	-2.8042	-2.6063	-2.8438	-2.6896	-95.168	37.964	159.470	-59.237	81.081	131.072	132.351	185.463	-159.540	123.216	182.744	111.136	-165.649	-28.315	-56.140	63.610	0.00063187	0.00018223	4.9374e-05	992.46	2.7882e-06	3.6705e-06	1060.2	207.6	6.8263e-06	2.6453e-06	261.06	74.119	58.427	16.576	2.225e-06	23.483	0.00070432	0.00090242	0.00025092	982.93	9.4862e-06	9.9374e-06	1052.8	207.99	9.0229e-06	9.9647e-06	263.15	74.635	58.276	16.841	9.4149e-06	24.083	1.448	-51.813	-129.062	-162.745	-58.180	15.614	-162.849	-155.516	-46.545	2.818	-155.775	-149.283	-149.296	-141.972	-32.806	-142.188	-8191	255	
18007.920	1	1	0	0	0.25302	0.1237	0.21882	0.36064	0.12468	0.34371	0.058916	0.206	0.19116	0.19647	0.14601	0.16797	0.052779	0.10438	0.058432	0.1791	-2.4771	-2.8646	-2.6625	-3.0542	-2.8583	-2.6437	-3.0938	-3.0146	-2.8542	-3.0854	-2.7687	-2.9646	-3.0583	-2.8104	-3.1729	-2.9813	120.289	-63.655	42.112	168.382	125.591	-5.449	184.180	171.673	104.067	-42.109	116.473	-123.780	-29.521	-153.597	122.255	-13.540	0.00054258	0.00028272	5.9518e-05	992.27	2.4192e-06	1.572e-06	1062.1	207.27	6.9642e-06	4.5953e-06	262.98	74.064	57.306	16.599	4.0361e-06	23.33	0.00070938	0.00089542	0.00024914	983.24	9.191e-06	1.0377e-05	1055.2	207.35	9.2842e-06	9.6682e-06	263.67	74.835	57.982	16.844	9.7575e-06	23.993	-2.503	-50.062	-84.491	-162.676	-37.755	-16.243	-162.817	-155.488	-63.177	-36.954	-155.474	-149.125	-149.144	-141.480	-0.675	-141.998	-8191	255	
18008.018	1	1	0	0	0.075696	0.23942	0.16264	0.13843	0.17402	0.23018	0.25994	0.14307	0.19387	0.274	0.25722	0.19957	0.29718	0.22394	0.2484	0.17866	-2.3146	-2.8896	-2.8521	-2.8271	-2.9208	-2.6625	-3.1917	-3.0604	-2.7812	-2.9729	-2.7417	-2.975	-3.0958	-2.7062	-3.0958	-2.9458	9.885	-63.489	-76.181	145.107	-134.758	-146.951	111.166	185.069	1.527	-141.471	126.062	169.828	167.622	-83.737	118.000	170.310	0.00061223	0.00048445	8.0999e-05	990.96	4.9887e-06	3.6898e-06	1062.3	207.54	1.7493e-06	2.6158e-06	263.22	74.13	57.637	16.512	4.0382e-06	23.398	0.00072294	0.00089467	0.00024618	981.04	9.1986e-06	1.0178e-05	1053.9	207.63	9.0312e-06	1.0115e-05	262.87	74.826	57.993	16.778	9.0615e-06	23.949	4.772	-44.579	-80.827	-162.534	-97.366	7.522	-162.723	-155.559	-21.232	79.901	-155.548	-149.390	-149.078	-141.819	-19.780	-142.238	-8191	255	
18008.137	1	1	0	0	0.21073	0.10929	0.17903	0.25731	0.27145	0.12445	0.28012	0.16134	0.29898	0.22831	0.15943	0.17568	0.038413	0.020823	0.16419	0.14073	-2.3312	-3.0354	-2.7083	-3.0125	-3.0583	-2.6646	-3.0271	-2.9958	-2.6375	-3.1063	-2.7604	-2.8333	-2.9313	-2.5896	-3.0479	-2.7875	14.826	-145.357	104.706	-131.928	-60.332	-142.375	33.884	152.197	-134.918	131.877	176.393	72.372	50.776	155.728	98.619	-30.392	0.00067871	0.00045757	0.0001264	993.33	2.756e-06	3.4585e-06	1059.4	208.25	6.0627e-06	4.0558e-06	262.44	73.717	57.324	16.26	4.7895e-06	23.327	0.00070113	0.00087814	0.0002424	984.02	9.4019e-06	9.9986e-06	1052.7	208.03	9.3582e-06	9.6946e-06	263.71	74.489	58.058	16.724	9.4267e-06	24.008	-0.011	-97.235	-85.450	-162.819	-29.838	-11.417	-162.804	-155.561	-27.090	-21.280	-155.791	-149.416	-149.189	-141.626	-33.873	-142.525	-8191	255	
18008.207	1	1	0	0	0.26581	0.10424	0.30733	0.39758	0.3329	0.12986	0.038469	0.034314	0.30918	0.35367	0.10125	0.099441	0.087855	0.037912	0.20422	0.12177	-2.0771	-3.1188	-2.5958	-2.9667	-2.9458	-2.5812	-2.9854	-2.8271	-2.8021	-3.0396	-2.6333	-2.85	-3.0792	-2.6854	-3.0104	-2.9188	169.053	-172.080	101.321	104.249	-59.887	35.958	147.399	142.583	69.037	130.710	-152.403	-107.625	66.668	-35.566	175.564	166.728	0.00061811	0.00015521	0.00014131	991.53	5.226e-06	1.447e-06	1061.9	208.43	7.3396e-06	1.7876e-06	262.2	74.295	57.724	16.453	2.6635e-06	23.523	0.00071221	0.00089202	0.00024558	984.15	9.4476e-06	9.822e-06	1053.9	207.88	9.2023e-06	9.6908e-06	263.13	74.874	58.174	16.766	8.9849e-06	24.005	-1.858	-48.287	-81.600	-162.942	-50.296	24.338	-162.934	-155.584	-48.770	29.128	-155.823	-149.214	-149.285	-141.751	-57.669	-142.194	-8191	255	
18008.305	1	1	0	0	0.23641	0.17762	0.12993	0.1896	0.22256	0.067524	0.27374	0.052967	0.23353	0.095235	0.17724	0.22721	0.2126	0.30456	0.07977	0.080673	-2.0833	-2.975	-2.7979	-3.0312	-2.9875	-2.7	-3.0667	-2.9708	-2.6854	-2.9062	-2.9458	-2.7938	-3.2021	-2.6646	-2.7521	-3.0208	-121.100	-72.895	29.844	155.875	32.127	-105.415	-139.176	-168.378	174.324	-91.991	147.302	109.811	104.492	-123.495	157.010	60.654	0.00055396	0.00049184	9.5328e-05	985.71	4.2173e-06	3.8938e-06	1063.6	208.83	2.4642e-06	3.3798e-06	263.09	74.408	57.661	16.509	3.4402e-06	23.5	0.00072019	0.00087876	0.00024934	983.17	9.4209e-06	9.9617e-06	1055	208.1	9.0007e-06	9.392e-06	263.58	74.913	58.02	16.803	9.1812e-06	23.973	-8.765	-47.835	-50.057	-162.641	-6.708	-30.792	-162.968	-155.739	-35.446	-20.197	-155.902	-149.194	-149.231	-141.966	31.188	-142.424	-8191	255	
18008.426	1	1	0	0	0.21106	0.25741	0.18823	0.11621	0.10915	0.32031	0.15601	0.13593	0.06048	0.16415	0.076426	0.14848	0.068135	0.21105	0.11722	0.2773	-2.0771	-2.8396	-2.8021	-2.8063	-3.0604	-2.775	-3.1333	-3.0875	-2.6729	-3.0229	-3.1125	-2.8771	-2.9729	-2.7604	-2.8917	-2.9542	135.658	115.863	154.931	56.350	-80.335	-50.687	109.051	-32.773	-119.048	11.227	-171.793	132.623	-37.489	-168.238	-156.980	141.874	0.0006127	0.00073877	8.5507e-05	988.65	3.963e-06	4.4001e-06	1062.1	206.93	7.3773e-06	2.8467e-06	261.25	74.419	57.755	16.553	3.8494e-06	23.447	0.00070913	0.00089098	0.0002472	982.97	9.2126e-06	9.5595e-06	1052.9	207.52	9.1513e-06	9.9708e-06	263.18	74.923	58.158	16.835	9.3531e-06	23.991	5.873	-88.611	-86.710	-162.840	-25.074	-11.023	-162.658	-155.415	-37.603	-18.360	-155.703	-149.214	-148.738	-141.701	-12.570	-142.013	-8191	255	
18008.521	1	1	0	0	0.13705	0.11537	0.23973	0.1474	0.013556	0.16852	0.0751	0.20626	0.22025	0.086534	0.32346	0.14381	0.093258	0.18172	0.26223	0.22007	-2.3917	-2.8792	-2.6937	-2.9271	-3	-3.05	-2.8708	-3.2479	-2.6979	-2.9021	-3.0042	-2.8167	-2.925	-2.8604	-2.6437	-2.8937	125.390	20.536	140.708	75.145	-66.846	-104.770	82.710	167.075	154.710	28.008	113.567	-146.059	-128.345	64.752	68.420	170.754	0.00060005	0.00021662	6.1156e-05	991.94	5.0928e-06	3.4679e-06	1062.9	207.69	7.4669e-06	4.1273e-06	262.77	74.239	57.695	16.55	1.6171e-06	23.286	0.00069244	0.00087495	0.00025357	982.77	9.2697e-06	9.873e-06	1053.3	207.48	8.9349e-06	1.0164e-05	263.27	74.869	58.022	16.795	9.4415e-06	23.949	10.456	-62.432	-82.607	-162.848	-14.458	-8.592	-162.933	-155.411	-74.033	-54.586	-156.218	-149.634	-149.034	-141.791	-3.023	-142.584	-8191	255	
18008.617	1	1	0	0	0.20836	0.068271	0.07516	0.25883	0.22787	0.15527	0.2332	0.15624	0.13184	0.18561	0.13529	0.38979	0.030109	0.17642	0.059212	0.32755	-2.4167	-2.8208	-2.725	-2.8417	-2.925	-2.8563	-3.0417	-3.0458	-2.6104	-2.7854	-3.1667	-2.7125	-2.9437	-2.9583	-2.6	-2.9562	138.350	-38.642	-154.692	-135.664	-145.424	163.484	144.606	102.010	114.521	143.267	142.572	79.104	16.026	72.313	1.039	140.214	0.00063968	0.00054202	9.6473e-05	994.09	3.191e-06	5.3251e-06	1059.3	207.48	5.2358e-06	3.78e-06	262.54	74.126	57.839	16.481	2.3104e-06	23.353	0.00068686	0.00092849	0.0002539	984.28	8.925e-06	9.7945e-06	1053.9	207.78	9.1702e-06	1.0104e-05	263.25	74.851	58.119	16.792	9.4611e-06	23.947	4.366	-106.494	-101.640	-162.824	-13.826	-14.933	-162.797	-155.760	-44.440	-30.555	-155.749	-149.659	-148.976	-142.254	-88.512	-142.602	-8191	255	
18008.713	1	1	0	0	0.25929	0.12956	0.16526	0.19213	0.18156	0.12742	0.12395	0.15062	0.13988	0.28882	0.2139	0.16646	0.17551	0.21968	0.38455	0.074909	-2.3521	-2.7938	-2.9875	-2.8937	-2.8375	-2.9875	-2.8396	-2.9125	-2.5354	-2.8667	-3.1583	-2.9167	-2.9021	-2.9979	-2.7479	-3.1875	186.161	-148.554	144.981	164.569	-46.510	0.184	-98.207	-64.691	-107.914	31.822	-146.242	60.259	162.704	122.053	10.299	-147.287	0.00052137	0.00031199	8.7885e-05	991.5	1.251e-06	4.204e-06	1064	207.63	4.0759e-06	5.2486e-06	262.42	74.096	57.663	16.473	1.9609e-06	23.342	0.00070608	0.00089828	0.00025297	982.53	9.2875e-06	9.773e-06	1053.6	207.62	9.1764e-06	9.9435e-06	263.14	74.675	58.129	16.814	9.3718e-06	23.973	-1.619	-129.882	-95.660	-162.926	21.104	6.997	-162.723	-155.651	-34.950	-11.265	-155.778	-149.229	-149.159	-142.134	6.479	-142.299	-8191	255	
18008.811	1	1	0	0	0.12431	0.21044	0.079435	0.12115	0.23442	0.1315	0.21194	0.33909	0.066201	0.12354	0.011734	0.071202	0.17236	0.10035	0.11864	0.15196	-2.4583	-2.6979	-2.9813	-2.7188	-3.0146	-3.0646	-3.0687	-3.0312	-2.8167	-2.7792	-3.0333	-2.9042	-2.875	-3.1604	-2.6	-2.95	101.487	-142.301	64.151	-3.541	-53.334	68.792	132.828	-168.461	171.337	176.189	110.286	20.305	89.714	-137.652	-167.916	155.500	0.00054719	0.00021036	7.715e-05	989.61	5.6471e-06	5.4845e-06	1063	208.24	7.4176e-06	2.5157e-06	263.19	74.369	57.647	16.535	4.628e-06	23.294	0.0007008	0.00090636	0.00025719	982.37	9.1342e-06	9.8977e-06	1053.8	207.41	9.0139e-06	9.9958e-06	263.63	74.832	58.068	16.786	9.4419e-06	23.878	8.006	-64.670	-62.981	-163.048	-63.703	-3.128	-162.812	-155.634	0.246	0.257	-155.711	-149.291	-148.826	-141.494	22.875	-142.577	-8191	255	
18008.906	1	1	0	0	0.23588	0.064725	0.21417	0.23819	0.15654	0.09306	0.1897	0.12314	0.1001	0.13893	0.069698	0.12529	0.09201	0.12192	0.052592	0.33798	-2.5187	-2.7313	-2.9292	-2.7896	-2.8042	-2.8583	-3.05	-2.9479	-2.8229	-2.5438	-3.225	-2.8708	-2.7854	-3.0292	-2.6125	-3.0583	-117.808	-56.241	84.162	182.057	65.689	65.391	122.487	12.135	130.247	-46.972	158.885	145.829	41.174	176.005	162.503	95.208	0.00058361	0.00036763	9.0348e-05	986.89	2.3035e-06	3.4138e-06	1055.2	206.87	6.2668e-06	4.6552e-06	262.53	73.731	57.326	16.425	3.4137e-06	23.294	0.00070869	0.00087863	0.00023834	980.95	9.216e-06	9.8426e-06	1050.6	206.86	8.8341e-06	9.9581e-06	262.65	74.633	57.939	16.776	8.9466e-06	23.897	3.082	-112.310	-99.547	-162.830	-7.519	-50.765	-162.845	-155.645	-48.270	29.340	-155.294	-149.278	-149.045	-141.572	-96.507	-142.349	-8191	255	
18009.000	1	1	0	0	0.12303	0.095236	0.11163	0.39319	0.20009	0.095163	0.39101	0.21296	0.21547	0.17517	0.16488	0.37091	0.1654	0.16848	0.054659	0.10304	-2.3458	-2.6771	-3.0167	-2.8417	-2.85	-3.1042	-2.9354	-3.0396	-2.8875	-2.6333	-2.8396	-2.775	-2.9021	-3.0833	-2.5896	-2.9875	-165.474	173.146	121.230	56.733	-79.851	-50.984	98.113	102.846	-172.661	-173.068	133.061	129.504	84.918	119.838	162.748	174.158	0.00060056	0.00040211	8.3293e-05	985.68	3.6976e-06	1.8773e-06	1055.5	207.84	6.2592e-06	2.6304e-06	261.05	73.889	57.539	16.314	2.1277e-06	23.321	0.00070913	0.00088435	0.0002478	980.17	9.6077e-06	9.7487e-06	1051.3	207.09	9.183e-06	9.9153e-06	262.21	74.684	57.921	16.738	9.1176e-06	23.904	6.359	-46.703	-80.915	-162.450	-67.875	-48.670	-162.761	-155.729	-21.563	34.971	-156.140	-148.984	-148.760	-141.710	-1.944	-142.590	-8191	255	
18009.098	1	1	0	0	0.14431	0.082884	0.12555	0.14843	0.14725	0.19384	0.14433	0.16325	0.071642	0.18644	0.18121	0.097192	0.13793	0.080305	0.19142	0.17031	-2.5917	-2.6125	-3.0312	-2.8542	-2.7375	-2.9521	-2.9083	-3.0896	-2.8312	-2.8167	-2.9417	-2.8083	-2.6833	-3.2188	-2.7938	-2.9042	35.440	-59.335	168.632	102.329	89.394	-105.131	-165.978	125.729	35.933	42.761	170.410	185.604	-22.999	171.399	139.661	125.119	0.00064128	0.00030426	8.1079e-05	989.95	2.4531e-06	1.6833e-06	1063.1	207.41	6.3232e-06	1.7777e-06	261.87	74.322	58.006	16.315	4.3433e-07	23.313	0.00071147	0.00085514	0.00023688	981.92	9.2282e-06	9.623e-06	1052.2	207.51	9.0653e-06	9.8122e-06	262.83	74.714	58.086	16.778	9.2974e-06	23.879	3.693	-66.979	-78.976	-162.873	6.253	-22.221	-163.116	-155.633	-104.796	0.499	-155.524	-149.254	-149.328	-142.102	143.359	-142.495	-8191	255	
18009.217	1	1	0	0	0.051023	0.40885	0.20998	0.2774	0.14783	0.11988	0.35867	0.22136	0.16696	0.12754	0.23013	0.33041	0.17503	0.21529	0.11486	0.093061	-2.6521	-2.7458	-3.0125	-2.925	-2.8063	-3.1167	-2.8063	-3.0875	-3.0854	-2.7604	-3.125	-3.0042	-2.6521	-3.1021	-2.9729	-2.9188	97.002	131.354	107.827	120.505	-140.483	137.105	115.196	141.694	-111.252	16.122	-171.083	130.143	142.656	-120.529	62.663	174.589	0.0005013	0.00047866	0.00013087	983.79	3.6388e-06	4.0939e-06	1059.8	208.51	5.9606e-06	3.0189e-06	261.71	73.581	57.597	16.425	1.4863e-06	23.341	0.0007126	0.00089973	0.00024827	979.79	9.57e-06	9.8627e-06	1049.9	207.59	8.9789e-06	9.4776e-06	262.64	74.515	58.144	16.771	8.8743e-06	23.934	3.225	-53.868	-81.188	-162.939	-82.272	-34.186	-163.163	-155.285	-25.727	-45.307	-155.643	-149.565	-149.006	-141.857	-11.526	-142.389	-8191	255	
18009.312	1	1	0	0	0.16952	0.27583	0.29749	0.18179	0.18138	0.17764	0.050329	0.10862	0.12841	0.1629	0.3289	0.13917	0.17147	0.14406	0.044895	0.18066	-2.4854	-2.7896	-2.9437	-3.0875	-2.7396	-2.9896	-2.9542	-2.7875	-2.8625	-2.8167	-3.0104	-2.8708	-2.6521	-2.9729	-2.7438	-2.7146	-143.420	85.179	-77.180	151.485	24.928	-93.472	131.693	-77.653	110.485	66.710	-108.394	89.673	-155.337	-156.231	-90.199	-155.819	0.00061366	0.00020953	3.3609e-05	992.49	1.7858e-06	2.2745e-06	1058.6	206.76	6.6887e-06	2.034e-06	260.42	73.906	57.318	16.358	2.5188e-06	23.408	0.00069475	0.00083889	0.00022976	981.79	8.8127e-06	9.2605e-06	1050.7	206.89	8.3881e-06	8.951e-06	262.4	74.653	57.861	16.692	8.7807e-06	23.921	-6.402	-132.782	-85.702	-162.736	-112.801	17.497	-162.861	-155.431	-17.283	32.890	-155.539	-149.284	-149.187	-141.633	-38.558	-142.268	-8191	255	
18009.408	1	1	0	0	0.15321	0.078703	0.076108	0.21853	0.093641	0.15415	0.084369	0.19096	0.052815	0.21559	0.068406	0.093965	0.31013	0.025972	0.074338	0.033855	-2.5792	-2.6708	-2.9	-2.9875	-2.8583	-2.8729	-2.9042	-2.8187	-3.0458	-2.8792	-2.8187	-2.9167	-2.8583	-2.9896	-2.9479	-2.8625	143.153	-46.621	2.894	-119.022	-86.772	81.153	-170.639	-48.593	-72.034	30.310	80.263	-98.541	74.979	38.040	50.761	157.384	0.00057031	0.000348	9.029e-05	986.84	3.2575e-06	5.1861e-06	1060.1	207.37	2.4238e-06	5.5004e-06	261.96	74.193	57.639	16.548	1.954e-06	23.162	0.00069052	0.00085016	0.0002385	980.19	8.9627e-06	9.4955e-06	1051.8	207.19	8.7247e-06	9.1826e-06	262.16	74.727	57.964	16.782	8.9078e-06	23.904	4.733	-58.389	-88.340	-162.861	-46.959	-18.235	-163.074	-155.728	-63.550	-58.756	-156.028	-149.362	-149.409	-141.879	-67.454	-142.481	-8191	255	
18009.506	1	1	0	0	0.28241	0.37362	0.20627	0.0257	0.13907	0.23543	0.22229	0.11958	0.3416	0.025584	0.11309	0.13055	0.21504	0.038887	0.1567	0.26903	-2.4562	-2.9021	-2.7333	-3.0396	-2.7771	-3.0458	-3.125	-2.8063	-2.9604	-2.8854	-2.8	-2.9792	-2.5896	-2.9167	-2.65	-2.7771	110.470	68.742	-88.731	-97.314	-48.841	69.129	65.726	-67.814	176.942	103.152	-73.459	-170.887	59.308	146.885	-53.337	79.388	0.00057721	0.00024702	4.3436e-05	989.15	5.4382e-06	4.1878e-06	1062.4	208.16	6.6244e-06	3.0647e-06	262.06	74.531	57.365	16.409	5.1595e-06	23.277	0.00066615	0.00082575	0.0002394	981.02	8.7645e-06	9.2306e-06	1051.8	207.3	8.8946e-06	9.6118e-06	263	74.64	57.919	16.75	9.2365e-06	23.9	1.753	-106.019	-142.696	-162.457	-33.224	-8.706	-163.286	-155.587	-65.807	-24.248	-155.897	-149.097	-149.470	-141.698	-34.947	-142.460	-8191	255	
18009.602	1	1	0	0	0.27581	0.13535	0.27211	0.11709	0.23535	0.23784	0.36034	0.38195	0.13541	0.31123	0.22765	0.10623	0.070539	0.1741	0.1658	0.14069	-2.5396	-2.5812	-2.6271	-3.1896	-2.7875	-2.7854	-3.2438	-2.7896	-2.9646	-2.8167	-2.7896	-3.0375	-2.7875	-2.9833	-2.9042	-2.7042	-117.899	98.727	-140.997	-153.010	-25.546	21.611	140.342	86.111	59.763	64.343	75.601	59.852	69.049	91.501	-140.043	84.499	0.00048376	0.00033692	5.1455e-05	982.45	2.871e-06	4.5814e-06	1055.3	207.74	5.6594e-06	2.2105e-06	261.05	74.109	57.985	16.444	6.5591e-06	23.391	0.00065512	0.00085899	0.00024664	978.1	8.8941e-06	9.6011e-06	1050.6	207.27	8.5202e-06	9.4127e-06	262.74	74.739	58.082	16.797	8.974e-06	23.951	12.380	-107.076	-100.491	-162.625	-74.392	-30.561	-162.946	-155.749	-9.900	-16.683	-155.687	-149.534	-148.633	-141.223	-12.461	-142.396	-8191	255	
18009.697	1	1	0	0	0.15879	0.15022	0.19756	0.008227	0.29991	0.13471	0.19239	0.23436	0.14482	0.14738	0.048586	0.25932	0.11514	0.065865	0.11464	0.073155	-2.5458	-2.8167	-2.5729	-3.2396	-2.8083	-2.6813	-2.9688	-2.7271	-3.0271	-2.8792	-2.7396	-3.0458	-2.8146	-2.9354	-2.7854	-2.8771	-165.497	-40.714	-56.269	175.908	-7.123	61.069	92.594	140.040	135.694	16.564	-26.008	-94.517	182.443	21.659	92.923	-38.688	0.00054956	0.00050531	0.00012676	986.46	4.229e-06	2.6157e-06	1053.8	207.88	5.1058e-06	5.5673e-06	259.95	74.066	57.688	16.485	4.3095e-06	23.411	0.00066304	0.0008224	0.00023171	979.03	8.4752e-06	9.2114e-06	1051.8	206.87	8.059e-06	9.3882e-06	262.43	74.73	57.907	16.776	8.7568e-06	23.922	9.100	-60.859	-79.346	-162.656	-33.334	-30.463	-162.691	-155.271	-46.224	-55.488	-155.595	-149.447	-149.022	-141.640	-35.999	-142.346	-8191	255	
18009.818	1	1	0	0	0.12012	0.16642	0.087698	0.31756	0.15846	0.10554	0.20198	0.19783	0.021239	0.41327	0.17281	0.20714	0.33377	0.11261	0.19158	0.086265	-2.5208	-2.6729	-2.6625	-3.2458	-2.7083	-2.7479	-3.0792	-2.7792	-2.9188	-2.8	-2.8271	-3.0625	-2.8125	-2.9792	-3.0625	-2.5979	-162.331	-163.274	-119.939	179.406	119.783	183.492	132.249	165.855	-139.338	43.950	108.232	143.586	-151.734	-148.075	164.301	82.784	0.00062752	0.00041158	6.7037e-05	985.87	3.9048e-06	1.0657e-06	1058.6	207.41	4.9878e-06	1.9011e-06	261.8	74.031	57.845	16.538	4.9466e-06	23.076	0.00065983	0.00084921	0.00023937	979.11	9.0508e-06	9.2362e-06	1051.3	207.01	8.2121e-06	9.3327e-06	262.64	74.561	57.976	16.754	8.7324e-06	23.83	3.416	-81.871	-56.025	-162.823	-58.664	-99.139	-162.810	-155.619	-41.597	-72.370	-155.526	-149.157	-149.056	-141.531	-39.470	-142.079	-8191	255	
18009.914	1	1	0	0	0.07652	0.10714	0.17818	0.15182	0.11494	0.10341	0.11737	0.049514	0.082682	0.11427	0.090488	0.078104	0.13364	0.062016	0.060889	0.20094	-2.4458	-2.9938	-2.8229	-3.2438	-2.9229	-2.8042	-3.3063	-2.7854	-2.925	-2.925	-2.7625	-2.9896	-2.8896	-2.8708	-2.8917	-2.7938	-66.079	-0.811	-89.775	128.149	99.376	-43.528	-147.511	147.254	74.486	71.609	-131.996	-155.650	17.270	55.150	8.412	84.840	0.00053376	0.00039206	6.3634e-05	985.83	3.2723e-06	3.1845e-06	1057.3	206.67	6.6589e-06	5.0686e-06	261.61	74.307	57.788	16.281	2.1861e-06	23.208	0.00067052	0.00084706	0.0002346	979.06	8.9368e-06	9.801e-06	1051.3	206.6	8.6983e-06	9.5167e-06	262.02	74.713	57.897	16.687	8.9531e-06	23.884	-2.547	-105.713	-67.300	-162.710	-50.413	-135.853	-162.676	-155.699	-23.466	-22.609	-155.720	-149.007	-149.307	-141.626	-4.673	-142.319	-8191	255	
18010.010	1	1	0	0	0.26463	0.29483	0.16955	0.16707	0.17901	0.31406	0.34225	0.3146	0.19816	0.048166	0.13617	0.11255	0.16351	0.26405	0.067553	0.011495	-2.4042	-2.9854	-2.5167	-3.0083	-2.9125	-2.7313	-3.05	-2.9083	-2.9271	-2.9375	-2.7604	-3.0896	-2.8917	-2.9062	-2.9542	-2.85	186.327	108.328	-10.508	123.218	-57.098	-120.738	170.218	137.880	-134.675	43.280	-172.574	-154.800	181.778	-149.496	-74.223	-28.154	0.00060033	0.0004306	7.643e-05	987.03	3.6173e-06	4.9734e-06	1057.4	206.1	7.1898e-06	4.9073e-06	261.78	73.884	57.491	16.383	3.0537e-06	23.164	0.00069522	0.00085497	0.0002302	979.17	9.0406e-06	9.3792e-06	1049.7	206.7	8.6045e-06	9.3214e-06	262.11	74.525	57.924	16.709	8.6371e-06	23.773	7.698	-50.876	-53.838	-162.680	24.131	-38.025	-163.145	-155.405	-34.016	10.325	-155.867	-149.574	-149.351	-141.924	-19.126	-142.479	-8191	255	
18010.105	1	1	0	0	0.32368	0.26311	0.074908	0.23675	0.1228	0.26546	0.083087	0.12966	0.29155	0.12185	0.26714	0.31561	0.1927	0.197	0.076721	0.21172	-2.2438	-2.9833	-2.7458	-2.9208	-2.8667	-2.6396	-3.1458	-2.8937	-2.7979	-3.05	-2.7313	-2.9062	-2.9521	-2.6917	-3.0208	-2.8917	77.600	143.165	-134.512	148.058	185.850	51.240	139.610	168.827	-153.387	116.683	52.618	34.567	85.784	167.751	81.913	-133.393	0.00055924	0.00026353	3.4458e-05	982.19	3.4638e-06	1.7454e-06	1057.2	206.44	8.6457e-06	1.3824e-06	261.94	73.651	57.645	16.361	4.2026e-06	23.191	0.00068075	0.00083156	0.00022216	977.01	8.7899e-06	9.2997e-06	1049.8	206.88	8.8267e-06	9.2395e-06	262.38	74.477	57.9	16.704	8.557e-06	23.869	8.099	-37.891	-40.442	-162.694	-85.248	38.886	-162.932	-155.439	-23.507	35.556	-155.718	-149.146	-148.829	-141.686	-59.806	-141.936	-8191	255	
18010.201	1	1	0	0	0.077796	0.18519	0.15313	0.042697	0.25451	0.11323	0.26722	0.2497	0.12264	0.11375	0.37481	0.076625	0.038723	0.16789	0.15037	0.13437	-2.2958	-2.8479	-2.5938	-3.1229	-2.9729	-2.7229	-3.0104	-2.875	-2.7333	-2.9854	-2.7271	-2.9479	-2.8	-2.6396	-2.7229	-2.8333	126.192	-148.795	-82.592	145.511	-32.253	-55.725	52.091	165.853	-152.904	46.932	152.567	141.036	-138.797	135.206	168.377	-34.881	0.00057064	0.00038313	7.7237e-05	989.32	4.0524e-06	4.241e-06	1054.8	207.04	1.0988e-05	1.2655e-06	261.34	73.923	57.299	16.439	4.4417e-06	23.48	0.00067388	0.00078916	0.00022591	979.41	8.3388e-06	9.1862e-06	1049.6	206.41	8.5268e-06	9.143e-06	261.79	74.566	57.974	16.711	8.3672e-06	23.927	1.891	-55.171	-81.375	-162.538	-28.074	-7.272	-162.679	-155.823	-45.075	-97.508	-155.857	-149.189	-149.285	-141.829	-27.792	-142.350	-8191	255	
18010.297	1	1	0	0	0.066145	0.19935	0.11096	0.18011	0.16044	0.2322	0.15323	0.26037	0.060844	0.075834	0.2219	0.18157	0.24113	0.36133	0.35089	0.14538	-2.2812	-2.925	-2.5375	-3.0104	-2.8312	-2.5708	-3.0833	-2.9542	-2.5563	-2.9667	-2.7125	-2.7687	-3.0333	-2.6833	-2.8792	-2.9708	77.402	91.106	84.353	162.945	-108.689	-170.271	61.048	125.866	-78.065	-90.015	124.308	-89.313	85.012	121.581	48.413	-106.059	0.0005948	0.00053757	6.153e-05	987.78	1.5781e-06	5.1989e-06	1056.4	206.98	5.5718e-06	5.1555e-06	260.51	73.728	57.506	16.317	3.5645e-06	23.345	0.00068141	0.00083052	0.00022355	979	8.6772e-06	9.2241e-06	1050.1	206.51	8.7444e-06	9.1844e-06	260.89	74.403	57.94	16.665	9.092e-06	23.927	3.404	-40.455	-73.805	-162.568	-84.793	-16.647	-163.058	-155.491	3.704	-13.093	-156.056	-149.386	-149.066	-142.199	-2.930	-142.173	-8191	255	
18010.393	1	1	0	0	0.16421	0.33706	0.15819	0.12137	0.092443	0.10396	0.28222	0.19129	0.10401	0.25653	0.11804	0.18261	0.088248	0.12508	0.16918	0.14739	-2.3396	-2.9083	-2.6688	-2.9083	-2.9562	-2.5417	-2.9021	-2.8083	-2.4562	-2.9688	-2.7375	-2.7604	-2.8604	-2.7167	-2.9208	-2.85	-170.100	-14.032	75.279	173.021	-15.395	49.121	140.517	60.621	27.935	61.358	15.340	144.218	42.481	4.400	151.799	155.015	0.00052979	0.00055368	0.00010925	987.22	1.267e-06	1.0718e-06	1064.2	206.52	8.3954e-06	4.4309e-06	261.38	74.098	58.096	16.522	4.7663e-06	23.365	0.00071285	0.00088166	0.00025285	982.55	9.9161e-06	1.0251e-05	1055.2	207.33	9.8531e-06	1.0417e-05	263.01	74.85	58.271	16.795	1.0317e-05	23.984	5.115	-73.732	-53.834	-162.613	-73.421	-28.198	-162.996	-155.800	-74.569	3.674	-155.713	-149.002	-148.761	-141.894	-4.211	-141.979	-8191	255	
18010.514	1	1	0	0	0.11169	0.086826	0.167	0.10033	0.078995	0.24355	0.24811	0.21746	0.097618	0.079372	0.10864	0.18158	0.24383	0.15822	0.040151	0.16012	-2.2062	-3.0208	-2.8	-2.7938	-2.8479	-2.6333	-3.1333	-2.9792	-2.6229	-2.9292	-2.8875	-2.8396	-2.9437	-2.6688	-2.8229	-2.8812	86.900	-111.116	-19.146	-173.382	-86.596	-13.339	-147.729	141.613	60.922	142.412	22.153	75.097	-14.308	166.036	83.442	-156.394	0.00061773	0.00012031	9.9184e-05	995.83	4.4015e-06	5.94e-07	1068.5	208.81	5.6911e-06	1.7501e-06	264.16	74.535	57.869	16.568	3.9746e-06	23.387	0.0007891	0.0010049	0.00029534	990.14	1.0554e-05	1.1688e-05	1061.1	208.65	1.0518e-05	1.1416e-05	264.91	75.376	58.366	16.89	1.0554e-05	24.035	9.264	-63.221	-63.828	-162.761	-9.769	-81.921	-162.870	-155.720	-57.861	71.200	-155.712	-149.510	-149.066	-141.841	-35.682	-142.157	-8191	255	
18010.609	1	1	0	0	0.020968	0.16591	0.25784	0.23005	0.25888	0.24115	0.16527	0.039701	0.26647	0.081975	0.23485	0.043851	0.087751	0.087853	0.35858	0.19911	-2.3312	-2.8229	-2.7792	-2.8521	-3.1417	-2.6937	-2.9375	-3.0646	-2.7812	-3.1042	-2.7917	-2.625	-2.9146	-2.8667	-2.7062	-3.15	42.218	48.592	79.698	107.724	157.847	-0.926	60.614	-47.811	-11.315	-84.876	107.653	-119.314	121.332	-150.873	174.328	145.642	0.0005945	0.00065183	9.8757e-05	998.83	2.8354e-06	1.1519e-06	1075.3	209.3	7.1714e-06	3.9663e-06	264.83	74.612	58.449	16.51	2.5979e-06	23.451	0.00077348	0.00097934	0.00028503	992.28	1.0284e-05	1.1063e-05	1065.9	209.05	9.6581e-06	1.0769e-05	265.12	75.357	58.701	16.877	1.0243e-05	24.048	7.134	-57.744	-94.847	-162.717	-2.549	127.408	-162.818	-155.577	-24.744	26.776	-155.803	-149.460	-148.994	-141.689	-32.865	-142.425	-8191	255	
18010.682	1	1	0	0	0.22203	0.20303	0.1038	0.30292	0.045852	0.075619	0.27577	0.093101	0.11007	0.036262	0.11087	0.13973	0.028336	0.18397	0.31317	0.037464	-2.5167	-2.7938	-2.9708	-2.7146	-2.9792	-2.9042	-2.9333	-3.0917	-2.6125	-2.8063	-3.025	-2.6917	-3.1708	-2.7479	-2.7042	-2.9521	-134.504	43.076	-165.531	139.475	-80.085	-1.809	112.646	110.293	176.013	-50.051	152.222	133.874	53.321	60.056	-82.635	160.620	0.00062529	0.00053094	0.00010675	1003.9	4.5219e-06	2.3683e-06	1069.1	209.21	8.5909e-06	2.7123e-06	264.52	74.624	58.641	16.732	5.6533e-06	23.478	0.00075258	0.00094523	0.00027071	994.49	9.6484e-06	1.0159e-05	1065	209.06	9.5203e-06	1.0585e-05	264.96	75.377	58.635	16.931	9.7157e-06	24.088	-4.556	-62.492	-94.187	-162.779	-65.806	22.692	-162.901	-155.655	-51.733	-55.013	-156.103	-149.163	-149.089	-142.016	-55.179	-142.223	-8191	255	
18010.777	1	1	0	0	0.11347	0.049163	0.13765	0.18995	0.23995	0.10296	0.34564	0.16959	0.19422	0.19063	0.11883	0.064304	0.22724	0.20227	0.086221	0.021247	-2.2313	-2.7479	-2.95	-2.7604	-3.0417	-2.8063	-2.8187	-2.8521	-2.7667	-2.8021	-2.925	-2.7188	-3.0979	-2.6813	-2.6667	-2.9375	-92.810	171.867	108.129	55.236	-30.769	8.797	104.216	46.779	-64.260	-40.677	138.566	150.318	137.858	125.990	-41.445	66.365	0.0005965	0.00059322	9.6121e-05	1001.2	4.5062e-06	4.2558e-06	1074.5	208.94	8.6357e-06	4.5732e-06	263.54	74.648	58.153	16.4	4.1824e-06	23.518	0.0007184	0.00090773	0.00026048	993.03	9.1524e-06	1.0032e-05	1064.1	208.81	9.357e-06	1.0126e-05	264.73	75.177	58.453	16.811	9.3527e-06	24.015	5.280	-76.718	-121.599	-162.737	-84.916	-6.408	-163.070	-155.525	-20.725	24.724	-155.911	-149.800	-149.002	-141.753	-65.654	-142.537	-8191	255	
18010.896	1	1	0	0	0.32732	0.041463	0.27909	0.15413	0.19381	0.015213	0.073362	0.097222	0.138	0.099512	0.14171	0.21779	0.18662	0.19861	0.20984	0.34102	-2.2812	-2.7479	-2.8292	-2.8167	-2.7875	-2.9354	-2.7062	-2.9188	-2.8729	-2.7458	-3.0625	-2.8688	-2.8917	-2.9167	-2.825	-3.0938	-133.854	177.840	33.033	125.097	155.615	43.211	47.848	83.394	136.747	-58.029	-152.861	-45.561	90.190	-74.843	-150.980	147.841	0.00062596	0.0006329	7.0231e-05	996.58	3.7752e-06	4.514e-07	1068.2	208	6.2726e-06	2.6609e-06	262.71	74.429	57.845	16.559	5.0032e-06	23.266	0.00068565	0.00088589	0.00024237	987.77	8.8212e-06	9.588e-06	1060.6	208.24	8.6235e-06	9.4616e-06	264.22	74.975	58.404	16.817	8.9044e-06	23.983	6.656	-111.929	-92.683	-162.646	-118.495	3.711	-163.067	-155.727	-70.711	-77.571	-155.636	-149.326	-148.896	-141.689	-60.541	-142.649	-8191	255	
18010.992	1	1	0	0	0.22187	0.20288	0.15987	0.06657	0.057823	0.032574	0.13725	0.34241	0.062051	0.11509	0.28036	0.19917	0.057941	0.18002	0.2371	0.22051	-2.3729	-2.7604	-2.875	-2.8479	-2.9	-3.0938	-2.8063	-3.1583	-2.8604	-2.8104	-3.0604	-2.6229	-2.7646	-2.9688	-2.6146	-3.0125	162.868	12.562	50.437	32.153	127.201	22.359	132.420	179.364	-10.292	17.144	-90.220	166.348	151.748	31.256	-137.243	0.033	0.00056329	0.00049394	3.2142e-05	991.08	3.5529e-06	2.5334e-06	1064.3	207.89	3.814e-06	2.5383e-06	264.82	74.286	58.135	16.372	2.6123e-06	23.48	0.00070391	0.00087677	0.00023389	983.45	8.7759e-06	9.4843e-06	1058.7	207.79	8.6728e-06	9.5167e-06	263.72	74.795	58.264	16.74	8.6693e-06	24.073	-0.873	-96.720	-78.555	-162.808	-54.498	25.410	-162.761	-155.440	-12.516	-94.207	-155.837	-149.460	-148.928	-142.067	-4.814	-142.650	-8191	255	
18011.090	1	1	0	0	0.13865	0.14961	0.21317	0.13063	0.1356	0.13202	0.13046	0.20322	0.14567	0.10645	0.22136	0.21874	0.059444	0.051926	0.29872	0.15352	-2.4271	-2.7354	-2.8875	-2.9083	-2.8208	-2.9646	-2.8542	-3.1125	-2.9146	-2.7229	-3.1354	-2.8042	-2.7583	-2.8312	-2.7625	-2.9854	30.200	-13.680	-33.038	83.279	11.311	90.639	109.723	145.724	46.746	-120.550	174.922	159.990	39.703	22.072	-163.238	-97.732	0.00054392	0.00043313	8.1063e-05	992.93	4.0652e-06	4.0923e-06	1059	208.52	6.2981e-06	2.5629e-06	262.8	74.662	57.74	16.45	2.781e-06	23.442	0.00068095	0.00080586	0.00022654	984.62	8.9932e-06	9.5039e-06	1055.7	207.98	8.5905e-06	9.5049e-06	262.95	74.919	58.307	16.795	8.3986e-06	23.965	0.817	-45.835	-82.243	-162.528	-37.924	-6.236	-162.735	-155.757	-24.781	14.261	-156.120	-149.478	-149.354	-141.815	-2.333	-142.178	-8191	255	
18011.186	1	1	0	0	0.13086	0.14431	0.19635	0.20989	0.14868	0.25262	0.18699	0.13587	0.036974	0.065741	0.25088	0.17382	0.078595	0.14224	0.12427	0.066793	-2.3729	-2.6625	-2.9792	-2.6521	-2.9646	-2.8979	-2.75	-3.1583	-2.8208	-2.5771	-2.9708	-2.8146	-2.7854	-2.9646	-2.5583	-2.9521	-81.475	-155.067	-85.313	103.894	-40.396	148.458	186.325	-6.602	174.065	145.504	170.670	-35.555	-160.672	-19.814	-75.128	-87.579	0.0005709	0.00027063	8.1736e-05	993.78	5.0756e-06	2.5121e-06	1063.5	209.09	6.8025e-06	3.3198e-06	263.36	74.446	58.254	16.48	3.1924e-06	23.347	0.00068139	0.0008289	0.0002272	983.26	8.6696e-06	8.8512e-06	1055	208.15	8.5996e-06	9.1228e-06	263.43	74.907	58.251	16.75	8.4639e-06	23.946	8.031	-95.055	-99.642	-162.847	-32.137	-6.430	-162.956	-155.682	-33.804	-17.031	-155.796	-149.636	-149.018	-141.931	-10.442	-142.629	-8191	255	
18011.307	1	1	0	0	0.080204	0.1047	0.16887	0.23781	0.10856	0.10479	0.1729	0.18989	0.059881	0.20954	0.17372	0.10476	0.14401	0.42284	0.059604	0.1263	-2.4271	-2.6458	-2.9646	-2.7979	-2.9104	-3.0563	-2.9208	-2.7417	-2.9333	-2.6229	-2.9417	-2.8937	-2.7479	-2.95	-2.7479	-2.6688	-81.359	85.559	42.222	108.298	180.369	-70.383	-168.369	-73.538	-17.399	57.583	136.017	42.899	-155.343	-146.159	-162.704	11.342	0.00061279	0.00048846	0.00012165	992.04	6.6205e-06	3.4665e-06	1063.5	207.87	9.4509e-06	4.4631e-07	263.17	74.22	57.688	16.496	1.5779e-06	23.191	0.00067767	0.00082393	0.0002265	984.01	8.6946e-06	8.6228e-06	1057.8	207.78	8.3128e-06	9.0338e-06	263.18	74.746	58.135	16.857	8.2824e-06	23.969	4.445	-59.541	-93.394	-162.659	-76.883	-30.912	-162.708	-156.022	-52.708	5.833	-156.137	-149.107	-149.084	-141.283	-28.693	-142.745	-8191	255	
18011.379	1	1	0	0	0.2203	0.097597	0.1706	0.25353	0.10135	0.10552	0.15149	0.16194	0.23642	0.12047	0.049725	0.14959	0.16246	0.16812	0.074901	0.21021	-2.5583	-2.6146	-2.9542	-2.8937	-2.6271	-2.9125	-2.7812	-2.9188	-2.9917	-2.6396	-2.9938	-2.8042	-2.6625	-2.9229	-2.7188	-2.9125	118.650	95.533	-125.670	145.936	-13.599	67.912	2.105	111.460	63.030	-47.929	-155.725	-90.704	127.797	181.663	-91.769	137.676	0.00058135	0.0005063	0.00010161	995.17	4.7191e-06	1.1852e-06	1068.3	208.4	8.2825e-06	4.9671e-06	261.21	74.324	58.053	16.522	2.488e-06	23.459	0.00063312	0.00080599	0.00021694	987.83	8.6577e-06	8.4607e-06	1059.9	208.29	8.4754e-06	8.5929e-06	263.05	74.922	58.154	16.776	8.1857e-06	23.961	1.112	-75.792	-77.903	-162.635	-50.918	-70.603	-162.928	-155.675	-46.380	-11.167	-156.009	-149.423	-149.252	-141.362	-62.508	-142.412	-8191	255	
18011.498	1	1	0	0	0.22775	0.062474	0.34078	0.14216	0.17504	0.4095	0.43924	0.22292	0.060334	0.045886	0.18072	0.25956	0.27797	0.21198	0.15356	0.039256	-2.5417	-2.8688	-2.9333	-2.9542	-2.6521	-2.9437	-2.9292	-2.8208	-2.9896	-2.6437	-2.7792	-2.7604	-2.5312	-2.8542	-2.9333	-2.7375	46.568	-61.736	-72.728	-173.508	24.261	-103.481	74.436	172.319	76.536	-34.797	68.160	99.797	131.613	-120.731	122.357	39.118	0.00057452	0.00030351	5.228e-05	1000.1	2.2058e-06	2.7276e-06	1060.8	208.92	6.829e-06	3.3498e-06	261.79	74.207	57.971	16.645	5.4738e-06	23.459	0.00065257	0.00076641	0.00022808	989.44	8.634e-06	8.9919e-06	1056.9	208.28	8.2857e-06	9.0908e-06	263.26	74.935	58.201	16.84	8.6249e-06	23.98	2.532	-106.391	-13.645	-162.612	-42.895	-18.435	-162.920	-155.655	-10.047	-1.467	-156.090	-149.260	-149.380	-141.977	-11.012	-142.201	-8191	255	
18011.594	1	1	0	0	0.077183	0.17222	0.17151	0.13405	0.26952	0.16207	0.2207	0.19774	0.099351	0.26929	0.029498	0.21503	0.23503	0.09206	0.21677	0.15179	-2.6542	-2.7938	-2.9708	-2.8479	-2.4813	-2.9688	-2.9708	-2.8438	-2.9042	-2.7354	-2.7583	-2.8458	-2.8438	-2.9021	-2.8729	-2.8021	177.815	124.802	-137.397	103.402	-123.961	-101.145	-155.990	124.618	-86.132	-123.459	-93.076	107.433	135.100	99.085	-154.847	101.545	0.00055943	0.00022439	4.9808e-05	999.3	2.4169e-06	3.1014e-06	1066.2	208.18	8.7229e-06	3.8404e-06	262.38	74.492	57.399	16.438	3.3002e-06	23.466	0.00067462	0.00082708	0.0002321	988.76	8.5002e-06	8.6148e-06	1058.3	208.21	8.2972e-06	9.0042e-06	263.64	75.02	58.189	16.787	8.4073e-06	24.001	10.515	-112.220	-83.821	-162.686	-70.845	50.578	-162.692	-155.624	-51.956	15.095	-155.538	-149.543	-149.101	-142.165	-54.281	-142.558	-8191	255	
18011.691	1	1	0	0	0.12305	0.042695	0.090107	0.14527	0.19416	0.28446	0.1363	0.11594	0.13834	0.19722	0.19215	0.30278	0.15421	0.05067	0.11626	0.101	-2.3917	-2.5563	-2.9375	-3.1896	-2.5479	-3.0875	-3.1458	-2.6521	-3.0312	-2.8	-3.0563	-2.95	-2.5958	-3.025	-3.0354	-2.7771	153.966	178.997	-93.191	157.241	-11.310	-114.689	3.422	61.898	-124.912	61.947	-90.510	139.153	106.280	-90.564	-153.349	138.262	0.00053457	0.00025745	7.823e-05	991.18	2.6971e-06	3.3745e-06	1062.2	209.04	6.5739e-06	9.4793e-07	262.33	74.044	57.904	16.472	4.7245e-06	23.412	0.0006334	0.00081017	0.00022491	984.7	8.4582e-06	8.8536e-06	1057.1	207.65	7.741e-06	8.6315e-06	263.04	74.694	58.273	16.783	8.3372e-06	23.999	-2.077	-84.780	-61.501	-162.535	-19.957	-21.961	-162.984	-155.515	-71.754	-20.483	-156.102	-149.315	-149.686	-141.821	-4.581	-142.627	-8191	255	
18011.787	1	1	0	0	0.16793	0.14942	0.28038	0.051068	0.21954	0.19586	0.20524	0.15459	0.10581	0.093084	0.16126	0.25402	0.03826	0.044422	0.14737	0.18398	-2.6813	-2.8583	-2.7479	-3.1437	-2.7979	-2.9042	-3.1458	-2.7083	-2.8875	-2.8333	-2.8104	-3.2083	-3.0271	-2.8854	-2.975	-2.6271	45.144	46.180	148.833	106.942	107.037	78.094	112.839	133.911	23.090	-112.166	-94.430	50.294	171.204	152.361	-41.674	-169.684	0.00069347	0.00039675	9.0178e-05	995.15	3.7635e-06	4.5591e-06	1065	207.35	1.0029e-05	2.7387e-06	263	74.046	58.091	16.527	2.5361e-06	23.448	0.00063321	0.00078871	0.00021558	985.68	7.8746e-06	8.6943e-06	1057.6	207.71	7.9714e-06	8.7529e-06	263.47	74.79	58.281	16.777	8.1196e-06	23.994	3.291	-102.630	-105.540	-162.782	-58.843	-3.258	-162.939	-155.438	-45.603	-0.660	-155.601	-149.560	-149.475	-141.927	3.196	-142.131	-8191	255	
18011.906	1	1	0	0	0.12373	0.24986	0.17901	0.12942	0.10299	0.3646	0.14314	0.13751	0.085151	0.17707	0.072964	0.10703	0.11608	0.46087	0.32608	0.14857	-2.5167	-2.7708	-2.8063	-3.0521	-2.7625	-2.8479	-3.2188	-2.8	-3.0875	-2.9646	-2.7417	-2.9729	-2.6271	-2.9146	-2.8812	-2.8542	-86.699	-81.200	-101.411	84.573	-64.563	-76.023	47.552	89.275	-149.542	21.003	-79.556	46.669	-58.888	0.662	-74.405	-166.978	0.00059814	0.00047008	8.4587e-05	992.86	3.9597e-06	1.9111e-06	1064.6	209.17	7.1501e-06	3.2654e-06	263.02	74.409	58.232	16.505	1.182e-06	23.326	0.00061071	0.00076604	0.00021571	985.27	7.9851e-06	8.5583e-06	1056.9	207.95	7.7805e-06	8.6046e-06	263.79	74.966	58.434	16.804	8.0847e-06	23.907	-5.765	-68.064	-59.378	-162.658	-57.547	-30.420	-162.880	-155.463	-26.806	-8.393	-156.054	-149.179	-149.144	-141.886	-8.134	-142.538	-8191	255	
18011.977	1	1	0	0	0.17437	0.061702	0.15718	0.21219	0.013842	0.13363	0.089483	0.12881	0.084271	0.13971	0.3139	0.32635	0.1228	0.20568	0.097438	0.16077	-2.5	-2.8375	-2.6854	-3.2396	-2.8563	-2.9437	-3.325	-2.8021	-2.8271	-2.85	-2.7292	-3.0979	-2.8187	-2.8625	-2.9979	-2.7604	43.306	146.031	5.794	167.966	55.105	93.398	130.350	-116.893	125.709	-16.863	124.982	151.644	100.579	-135.821	93.798	-22.810	0.00056706	0.00047247	9.142e-05	996.96	2.7081e-06	3.6448e-06	1071.4	206.9	3.1439e-06	2.0789e-06	263.07	74.319	58.002	16.503	3.3066e-06	23.294	0.00063145	0.00077785	0.0002204	986.12	8.3235e-06	8.948e-06	1059	207.88	8.2203e-06	8.9515e-06	263.11	74.772	58.158	16.78	7.9446e-06	23.911	2.641	-78.462	-127.219	-162.918	-58.714	-14.558	-162.807	-155.627	-76.541	-15.724	-156.014	-149.254	-149.067	-141.754	5.544	-142.205	-8191	255	
18012.072	1	1	0	0	0.13112	0.051694	0.14895	0.063851	0.077304	0.17209	0.13112	0.18495	0.316	0.1297	0.12618	0.19473	0.10036	0.20807	0.078631	0.22738	-2.7188	-2.8083	-2.5521	-3.1646	-2.6708	-2.7417	-3.2979	-2.7687	-2.9146	-2.8812	-2.7229	-3.075	-2.8125	-2.8625	-3.0792	-2.85	86.229	85.463	-73.463	-158.133	-121.559	27.603	-156.845	155.743	-80.443	-166.749	-113.918	179.089	67.109	70.644	142.689	87.380	0.00060907	0.00038668	4.7422e-05	991.88	4.2977e-06	3.1961e-06	1060.8	206.7	5.6356e-06	4.2236e-06	263.81	74.527	57.925	16.476	8.0391e-07	23.599	0.000632	0.00080404	0.00021173	987.35	8.5425e-06	8.8143e-06	1055.7	207.62	8.0397e-06	9.008e-06	264	74.952	58.148	16.791	8.1178e-06	23.982	2.980	-98.549	-86.470	-162.642	-54.692	-25.367	-162.653	-155.448	-17.879	-13.239	-155.825	-149.413	-149.358	-141.705	-43.786	-142.432	-8191	255	
18012.193	1	1	0	0	0.23363	0.069731	0.1407	0.22831	0.15303	0.081915	0.05723	0.10079	0.27865	0.22138	0.28043	0.23487	0.2361	0.060835	0.14649	0.13298	-2.5812	-2.8958	-2.7042	-3.2354	-2.8896	-2.8042	-3.15	-2.8167	-2.8125	-2.9396	-2.7833	-2.9396	-2.975	-2.7062	-3.0729	-2.9688	-153.490	76.121	-83.724	118.777	115.587	7.178	168.079	141.180	133.736	157.809	151.679	173.030	-130.788	114.525	176.283	141.971	0.0005996	0.00025163	1.2605e-05	993.12	2.5797e-06	2.3321e-06	1060	208.5	2.0197e-06	1.2297e-06	263.93	74.26	58.009	16.449	1.598e-06	23.442	0.00064643	0.00078593	0.0002176	988.86	8.4409e-06	8.7148e-06	1057.4	208.2	7.9977e-06	8.7341e-06	263.84	75.027	58.204	16.783	7.8702e-06	23.961	1.295	-111.847	-156.727	-162.794	-53.476	-51.815	-162.790	-155.667	-42.181	-40.442	-155.945	-149.369	-149.102	-141.824	-39.572	-143.102	-8191	255	
18012.289	1	1	0	0	0.17973	0.21149	0.1699	0.030361	0.18148	0.21947	0.10211	0.13834	0.032124	0.17132	0.15559	0.096433	0.28943	0.14655	0.15609	0.24998	-2.4	-2.7875	-2.5583	-3.0187	-2.8292	-2.8208	-3.0625	-2.9083	-3.0229	-3.1104	-2.7104	-3.0563	-2.9479	-2.5229	-3.1208	-2.7167	17.672	-171.627	115.852	-101.217	54.563	141.658	118.886	168.609	129.589	-155.148	183.126	-85.856	160.832	182.415	31.875	-147.133	0.00055203	0.0003721	6.6515e-05	997.16	5.4313e-07	1.5786e-06	1061.2	208.02	7.0221e-06	6.7374e-07	261.8	74.215	58.394	16.398	3.5284e-06	23.411	0.00065246	0.00078547	0.00020985	986.56	8.246e-06	8.6139e-06	1057.7	207.95	7.9278e-06	8.2766e-06	263.35	74.92	58.313	16.797	7.9877e-06	23.979	-5.295	-65.229	-105.445	-162.858	-126.645	-23.126	-162.978	-155.503	1.338	2.203	-156.256	-149.601	-149.114	-141.269	32.344	-142.278	-8191	255	
18012.387	1	1	0	0	0.11908	0.097687	0.23307	0.31497	0.33124	0.078216	0.23383	0.40954	0.21024	0.12145	0.31443	0.14731	0.34415	0.18411	0.266	0.14978	-2.3917	-2.9708	-2.7146	-3.1312	-3.0146	-2.6688	-3.3792	-2.8208	-2.8229	-3.0062	-2.7354	-2.9229	-2.925	-2.7062	-2.9917	-2.8833	-128.001	132.182	11.478	133.416	178.298	38.815	59.819	-140.391	-157.755	181.774	128.432	-101.658	-140.551	117.095	48.939	-172.766	0.00058446	0.00029466	8.0551e-05	997.58	4.3308e-06	3.4649e-06	1062.6	209.23	6.9268e-06	3.0537e-06	263.15	74.127	57.666	16.574	4.4525e-06	23.402	0.00062872	0.00077897	0.00021699	987.14	8.2808e-06	8.4294e-06	1056.4	208.13	8.1466e-06	8.3289e-06	263.55	74.822	58.077	16.831	8.1944e-06	23.98	4.712	-54.844	-106.739	-162.660	-21.628	25.507	-162.918	-155.279	-32.495	-70.986	-155.659	-149.370	-149.522	-141.755	-77.007	-142.476	-8191	255	
18012.482	1	1	0	0	0.098737	0.28828	0.19637	0.17587	0.085894	0.14286	0.32413	0.16304	0.10906	0.28205	0.20829	0.28853	0.25422	0.043947	0.39889	0.090486	-2.4542	-3.1125	-2.5875	-2.9396	-2.9729	-2.8417	-3.0396	-3.0083	-2.7771	-3.125	-2.7583	-2.8875	-3	-2.8	-3.0812	-3.0833	80.015	-156.381	150.751	176.178	-126.400	152.923	122.729	175.293	114.533	108.032	-83.797	127.008	111.951	-39.871	125.257	77.160	0.00062389	0.00022564	6.363e-05	992.82	5.9166e-06	3.6534e-06	1066.4	207.82	2.7966e-06	3.5714e-06	262.14	74.964	57.646	16.498	7.4964e-06	23.225	0.00065026	0.00076438	0.00022016	985.09	8.2854e-06	8.4093e-06	1059.4	208.36	8.0463e-06	8.1731e-06	263.13	75.095	58.181	16.811	8.0512e-06	23.937	4.130	-26.841	-46.469	-163.001	-40.127	-33.523	-162.789	-155.480	31.201	-9.598	-155.586	-149.413	-148.955	-141.595	-39.499	-142.592	-8191	255	
18012.602	1	1	0	0	0.13485	0.10686	0.077775	0.27678	0.23164	0.19613	0.20165	0.089073	0.046889	0.13576	0.064369	0.085636	0.23215	0.35118	0.26059	0.1564	-2.2188	-2.8271	-2.7396	-3.0083	-2.8604	-2.7646	-3.2292	-3.0708	-2.4854	-3.1604	-2.7292	-2.9521	-2.9896	-2.6667	-2.9729	-2.9813	106.537	-12.114	12.181	167.322	-104.638	24.648	132.072	31.745	18.767	-41.703	-32.729	50.973	154.317	-35.741	-123.696	141.461	0.00057833	0.00035146	2.2424e-05	995.5	2.3763e-06	2.6639e-06	1067.3	208.14	8.0729e-07	2.412e-06	262.75	74.186	57.569	16.607	3.2572e-06	23.502	0.00063444	0.00073512	0.00020826	987.27	8.2448e-06	8.3196e-06	1057.9	208.07	8.0347e-06	8.0738e-06	262.61	74.848	58.061	16.8	8.1231e-06	24.013	7.908	-89.534	91.329	-162.757	-64.321	2.618	-162.982	-155.363	57.098	-5.124	-155.661	-149.214	-148.813	-141.689	-53.263	-142.593	-8191	255	
18012.674	1	1	0	0	0.033763	0.24213	0.17997	0.26359	0.19468	0.17765	0.41335	0.23421	0.045668	0.10751	0.19109	0.060124	0.21815	0.24209	0.11279	0.13679	-2.4062	-3.0104	-2.85	-2.9062	-3.2438	-2.5167	-3.1542	-3.0125	-2.6958	-3.0521	-3.0208	-2.8812	-3.0396	-2.7125	-2.875	-2.9625	103.129	-170.162	157.072	-172.808	-35.941	120.436	106.423	73.610	77.364	142.356	-145.472	-55.213	176.234	149.269	75.321	-53.104	0.00060479	0.00046365	7.9224e-05	994.32	3.9492e-06	9.1192e-07	1065.9	208	6.7881e-06	3.9483e-06	262.78	74.627	57.817	16.396	2.3745e-06	23.235	0.00062273	0.00074838	0.00021989	986.88	8.0648e-06	8.5172e-06	1058.1	207.89	8.1265e-06	8.6927e-06	263.16	75.012	58.139	16.744	8.2728e-06	23.886	1.976	-96.329	-79.472	-162.602	-52.033	-7.548	-162.723	-155.634	-20.865	22.192	-155.708	-149.385	-149.030	-141.871	25.535	-142.037	-8191	255	
18012.770	1	1	0	0	0.12682	0.19267	0.32212	0.3974	0.32788	0.064578	0.34047	0.12787	0.23576	0.28511	0.18279	0.25433	0.1671	0.19757	0.11262	0.1096	-2.3187	-2.9271	-2.7896	-2.7396	-2.7562	-2.5604	-3.0271	-3.0417	-2.7646	-3.1	-2.7271	-2.6375	-3.0563	-2.7625	-2.9208	-3.0625	84.315	-33.036	175.054	-146.093	37.985	90.647	155.977	-61.398	-55.565	153.775	156.456	95.071	143.362	170.120	-136.953	97.672	0.00055011	0.00015218	5.3512e-05	993.23	3.6104e-06	3.552e-06	1063	207.58	3.6339e-06	2.917e-06	261.81	74.604	58.281	16.481	2.5038e-06	23.13	0.00061621	0.00075651	0.00021926	984.77	7.986e-06	8.3733e-06	1056.4	207.87	7.7718e-06	8.5148e-06	263.82	74.903	58.348	16.798	8.3137e-06	23.864	3.666	-125.225	-111.553	-162.301	-59.804	-8.813	-162.909	-155.664	-33.757	-54.559	-155.902	-149.903	-149.280	-141.495	-72.775	-142.068	-8191	255	
18012.865	1	1	0	0	0.25062	0.18809	0.06772	0.10497	0.1216	0.11919	0.15024	0.36716	0.12862	0.2535	0.10504	0.1481	0.18457	0.26299	0.15956	0.15604	-2.2479	-2.9479	-2.675	-2.7396	-3.0792	-2.9313	-2.9458	-3.1521	-2.6958	-3.0292	-3.0146	-2.6562	-3.0854	-2.8042	-2.6667	-3.0458	38.313	76.615	79.191	-104.463	142.983	-40.685	47.290	132.327	61.699	81.545	108.155	-129.439	28.187	183.630	-79.331	-118.948	0.00065411	0.00021174	0.00010267	993.29	4.1636e-06	1.4151e-06	1066.3	208.59	8.8718e-06	3.7382e-06	263.31	74.418	57.872	16.436	2.8403e-06	23.568	0.00065171	0.0007914	0.00021699	985.47	8.0427e-06	8.8237e-06	1057.3	208.02	8.052e-06	8.9374e-06	263.59	74.981	58.25	16.777	8.2266e-06	24.001	1.752	-49.773	-61.501	-162.806	-21.700	102.223	-163.144	-155.506	-23.475	27.296	-155.906	-149.346	-149.352	-142.001	-71.237	-142.099	-8191	255	
18012.986	1	1	0	0	0.20151	0.20424	0.18269	0.44761	0.15568	0.21516	0.31181	0.1441	0.079082	0.22025	0.17941	0.094297	0.16434	0.18607	0.069462	0.13973	-2.2208	-2.7896	-2.8187	-2.7812	-2.8146	-2.9542	-2.9958	-3.1188	-2.8458	-2.975	-2.9813	-2.5542	-3.0458	-2.9313	-2.9146	-3.1875	91.297	-113.274	57.148	158.949	-46.753	-92.474	104.140	-127.138	130.399	59.883	157.903	110.968	-134.988	114.071	-54.846	33.772	0.0005903	0.00024919	7.5055e-05	989.12	1.9859e-06	4.1077e-06	1060.4	208.28	5.3036e-06	1.3282e-06	261.78	73.961	58.367	16.591	2.0104e-06	23.405	0.0006452	0.00080897	0.00022063	984.6	7.9885e-06	9.0685e-06	1057.4	208.17	8.1726e-06	8.7538e-06	263.41	74.695	58.437	16.821	8.3376e-06	23.993	5.691	-82.581	-68.520	-162.760	-19.968	-50.107	-162.800	-155.459	10.013	13.372	-155.930	-149.150	-149.307	-141.929	-21.935	-142.540	-8191	255	
18013.082	1	1	0	0	0.08977	0.17681	0.23419	0.12173	0.016327	0.11555	0.2818	0.085671	0.13401	0.10114	0.14871	0.050154	0.069982	0.10705	0.13047	0.15022	-2.3438	-2.7583	-2.9521	-2.9521	-2.8521	-2.8208	-3.0292	-3.2542	-2.8958	-2.8563	-2.9583	-2.5938	-3.0021	-2.8729	-2.7021	-3.0542	162.608	158.191	-92.882	-156.178	84.303	-55.727	178.989	-83.389	-168.265	-105.601	92.377	147.280	83.274	9.651	101.467	3.315	0.00055551	0.00052237	3.9786e-05	994.98	4.0224e-06	4.6194e-06	1065.7	208.83	3.8275e-06	4.0183e-06	263.49	74.344	57.642	16.483	3.6035e-06	23.418	0.00063343	0.00080358	0.0002128	986.2	8.4392e-06	8.7826e-06	1057.5	208.16	8.2618e-06	8.8917e-06	263.89	74.919	58.209	16.787	8.638e-06	23.978	1.515	-74.144	-66.178	-162.787	-18.310	-15.810	-162.963	-155.595	33.999	27.189	-155.745	-149.338	-149.278	-141.899	-59.107	-142.052	-8191	255	
18013.178	1	1	0	0	0.16306	0.32654	0.021322	0.29427	0.15579	0.19517	0.09239	0.08266	0.1263	0.33874	0.2896	0.097716	0.1149	0.053563	0.09601	0.29843	-2.5625	-2.8333	-2.9583	-2.7188	-3.1771	-2.9229	-3.0312	-3.1104	-2.8833	-2.8438	-2.9313	-2.7417	-2.9771	-2.9958	-2.7646	-3.1271	71.530	175.590	111.266	-169.142	-24.337	-164.570	135.405	-72.973	-136.484	-22.654	116.507	-110.012	-15.757	-163.470	72.173	139.196	0.00056595	0.00030907	8.5999e-05	994.07	3.872e-06	1.7961e-06	1063.5	208.05	9.6411e-06	3.5055e-06	263.15	74.106	57.753	16.485	2.9404e-06	23.4	0.000659	0.00079455	0.00021706	983.73	8.4104e-06	8.7457e-06	1055	207.55	8.5313e-06	8.7327e-06	263.23	74.779	58.214	16.774	8.2005e-06	23.959	0.620	-120.828	-95.644	-162.559	-51.809	32.328	-162.967	-155.766	-59.558	-52.245	-155.791	-149.681	-149.482	-141.765	51.303	-142.927	-8191	255	
18013.273	1	1	0	0	0.16652	0.17265	0.21249	0.046998	0.12379	0.053382	0.34335	0.12885	0.12318	0.087012	0.16076	0.23505	0.13757	0.12046	0.22592	0.058619	-2.3104	-2.7917	-2.875	-2.9417	-2.9792	-3.0833	-2.9333	-3.2104	-2.8917	-2.7042	-3.2812	-2.6688	-2.8354	-2.9938	-2.7729	-3.0979	-146.928	93.679	-58.616	175.570	-56.143	20.355	-153.973	12.050	134.884	52.872	97.964	99.640	-128.742	116.997	32.665	1.311	0.0006683	0.00025816	3.0229e-05	994.69	2.4415e-06	2.7729e-06	1063.9	209.08	5.7747e-06	1.3049e-06	261.71	74.502	58.028	16.545	1.9026e-06	23.469	0.000651	0.00078966	0.00021308	985.82	8.1804e-06	8.7284e-06	1056.5	207.99	8.1039e-06	8.9021e-06	262.9	74.905	58.103	16.815	7.9912e-06	23.99	3.318	-82.681	-65.635	-162.735	-80.526	-52.449	-162.721	-155.564	-71.751	40.831	-155.720	-149.398	-149.042	-141.322	-33.059	-142.969	-8191	255	
18013.369	1	1	0	0	0.30884	0.055194	0.098281	0.21281	0.13171	0.11986	0.047501	0.098979	0.15762	0.14463	0.23542	0.066234	0.044177	0.066911	0.1285	0.11808	-2.575	-2.7021	-3.0479	-2.6479	-2.7271	-2.9083	-2.8937	-3.2083	-2.7812	-2.6896	-3.0646	-2.7	-2.7208	-2.9042	-2.55	-2.9604	-168.657	45.056	-155.950	176.116	-86.546	2.986	135.983	30.775	-107.060	-143.769	136.429	114.096	185.557	-138.743	34.116	111.315	0.00051242	0.00034637	4.0097e-05	996.08	1.108e-06	3.4049e-06	1065.3	208.43	3.5724e-06	4.9967e-06	262.52	75.012	57.828	16.442	3.2593e-06	23.415	0.00064377	0.00078005	0.00020887	984.97	8.1914e-06	8.5093e-06	1055.6	207.99	8.0269e-06	8.6042e-06	263.19	74.941	58.145	16.759	8.3233e-06	23.906	-0.375	-79.679	-57.655	-162.818	-52.860	-21.868	-162.751	-155.462	-90.051	8.737	-155.993	-149.535	-149.057	-141.573	-5.285	-142.071	-8191	255	
18013.465	1	1	0	0	0.11154	0.19667	0.22487	0.13909	0.27611	0.18284	0.11021	0.12064	0.20891	0.17447	0.26367	0.096029	0.12528	0.057991	0.10499	0.094488	-2.5833	-2.7458	-2.8	-3.1083	-2.8646	-3.0583	-2.8792	-3.0625	-2.8875	-2.6521	-2.9938	-2.9042	-2.8	-3.0646	-2.8063	-2.8208	-0.450	-33.304	144.586	156.857	-113.658	-3.505	80.419	89.974	139.375	77.810	91.127	-154.090	51.123	100.552	13.009	153.927	0.00065786	0.00043024	7.2685e-05	991.3	4.4693e-06	2.7743e-06	1062.9	209.99	5.631e-06	1.3209e-06	262.01	74.454	57.721	16.504	4.3066e-06	23.423	0.00064723	0.00076554	0.00020972	983.79	8.4104e-06	8.1818e-06	1057.1	208.21	8.1158e-06	8.4545e-06	263	74.956	57.995	16.732	8.0956e-06	23.924	2.922	-50.967	-65.687	-162.608	-41.151	-30.211	-162.987	-155.600	-31.412	47.144	-155.654	-149.287	-149.222	-141.861	-26.529	-142.579	-8191	255	
18013.586	1	1	0	0	0.022099	0.14654	0.11819	0.32446	0.14686	0.059282	0.18768	0.21828	0.19253	0.14621	0.20792	0.14648	0.25464	0.21273	0.21906	0.16639	-2.6562	-2.5687	-2.8688	-2.8271	-2.8563	-2.9792	-3.0021	-2.8375	-2.85	-2.8042	-3.0604	-2.8604	-2.7833	-2.9	-2.6521	-2.9667	178.781	166.043	-4.839	161.662	29.544	-99.377	117.941	-167.444	-70.365	85.690	17.929	167.804	168.719	-120.535	31.853	108.637	0.00062438	0.00029313	6.925e-05	1000.1	4.3496e-06	4.1745e-06	1063.3	207.07	4.9467e-06	4.2901e-06	261.62	74.674	57.227	16.475	1.7595e-06	23.531	0.00064363	0.00074374	0.00020834	987	8.0542e-06	8.5214e-06	1055.7	207.41	7.7439e-06	8.8941e-06	263	75.013	58.108	16.766	8.3398e-06	23.964	5.070	-105.770	-49.955	-162.681	-32.194	-37.739	-162.610	-155.550	-28.849	-33.840	-155.764	-149.542	-149.095	-141.462	-8.018	-142.025	-8191	255	
18013.682	1	1	0	0	0.099064	0.2181	0.14787	0.25454	0.20545	0.13565	0.2398	0.19384	0.0097644	0.073206	0.21992	0.1971	0.1043	0.11924	0.16989	0.2487	-2.5458	-2.7125	-3.0062	-3.0625	-2.5563	-3.1646	-3.0083	-2.7333	-3.0646	-2.7604	-3.1292	-2.6833	-2.7729	-2.8583	-2.8271	-2.7958	-167.045	70.538	54.591	-163.004	-101.944	127.397	135.705	144.402	-85.043	-109.456	154.868	-130.381	137.830	-15.487	15.970	151.210	0.00065484	0.00025617	6.4647e-05	994.31	3.8632e-06	1.8266e-06	1060.9	207.94	7.631e-06	3.6451e-06	263.7	74.386	57.78	16.475	1.1639e-06	23.31	0.00062201	0.00078141	0.00022285	985.58	8.324e-06	8.897e-06	1056.4	207.75	7.8467e-06	8.6409e-06	263.8	74.841	58.184	16.754	8.3812e-06	23.91	3.164	-25.167	-92.041	-162.701	-39.693	0.145	-162.665	-155.594	-51.442	-39.294	-155.702	-149.317	-148.761	-141.973	-2.087	-142.519	-8191	255	
18013.777	1	1	0	0	0.1782	0.22383	0.24403	0.21272	0.12636	0.13663	0.11833	0.028575	0.14991	0.15567	0.3018	0.14936	0.21428	0.055708	0.071547	0.50779	-2.6542	-2.4125	-2.8937	-2.8833	-2.6479	-3.025	-2.9292	-2.9021	-2.9271	-2.7083	-3.1	-3.0354	-2.5417	-3.0583	-2.7354	-2.7167	-62.646	15.318	-153.706	119.940	75.590	22.223	140.563	-134.741	-96.534	-129.669	142.435	122.329	96.768	140.055	-100.374	-150.064	0.00064911	0.00023944	9.9137e-05	988.39	3.6891e-06	6.714e-07	1060.6	208.14	7.1255e-06	4.3407e-06	263.3	74.601	57.882	16.421	2.2592e-06	23.417	0.0006282	0.00080454	0.0002156	983.01	8.108e-06	8.7485e-06	1056.7	207.6	7.9689e-06	8.6301e-06	262.94	74.938	58.232	16.784	8.4356e-06	23.991	4.262	-53.807	-84.453	-162.912	-84.563	-102.226	-162.645	-155.575	-46.291	-15.522	-155.809	-149.601	-148.947	-141.444	-49.098	-142.393	-8191	255	
18013.850	1	1	0	0	0.20945	0.094915	0.33602	0.091446	0.087891	0.23679	0.27223	0.054532	0.22244	0.21847	0.10032	0.2389	0.28942	0.26246	0.080303	0.20908	-2.6417	-2.5958	-2.8271	-3.0333	-2.6604	-3.1146	-2.9833	-2.8125	-2.8104	-2.6354	-2.9604	-3.0646	-2.8521	-2.9854	-2.9021	-2.7167	-122.821	161.909	-74.355	-162.337	157.282	-110.135	112.185	-95.413	30.727	-43.255	111.350	-150.385	-162.861	-158.921	88.054	-123.263	0.00057937	0.00047848	0.00011422	994.09	4.1513e-06	3.0277e-06	1065.7	207.68	7.9803e-06	2.9606e-06	262.72	74.265	57.966	16.499	5.6495e-06	23.45	0.00063491	0.0007783	0.00022463	984.32	7.9817e-06	8.5625e-06	1059.5	207.75	8.1289e-06	8.8221e-06	263.49	74.895	58.257	16.746	8.275e-06	23.971	1.458	-72.450	-113.497	-162.821	-22.586	-12.793	-162.888	-155.631	-10.340	-17.998	-155.825	-149.591	-149.433	-141.866	-16.398	-142.395	-8191	255	
18013.971	1	1	0	0	0.20244	0.25665	0.075774	0.30171	0.12054	0.11639	0.11189	0.054282	0.14567	0.12364	0.13378	0.17091	0.32743	0.12388	0.22613	0.17984	-2.4646	-2.65	-2.7375	-3	-2.5958	-2.9625	-3.1896	-2.7875	-2.7292	-2.7958	-2.8708	-3.0146	-2.7604	-2.8771	-2.9792	-2.7958	169.336	131.027	-133.031	149.990	-143.063	177.206	170.813	-62.840	-44.943	156.454	31.630	-110.944	131.946	-150.182	-129.195	147.629	0.00060181	0.00038726	0.00011489	994.65	3.0366e-06	4.0369e-06	1067.7	208.04	7.5677e-06	4.1953e-06	261.45	73.913	57.744	16.378	4.8433e-06	23.322	0.00063444	0.00079231	0.00021964	985.1	8.1152e-06	8.5373e-06	1057.1	207.87	7.8336e-06	8.7567e-06	262.74	74.724	57.959	16.719	7.9859e-06	23.857	-1.461	-55.461	-78.955	-162.591	-18.488	-27.205	-162.936	-155.577	-48.750	-33.887	-155.720	-149.465	-148.941	-141.731	7.244	-142.324	-8191	255	
18014.066	1	1	0	0	0.17692	0.064227	0.1139	0.09041	0.16317	0.064328	0.22831	0.25522	0.080117	0.17834	0.19331	0.057104	0.41734	0.16373	0.047782	0.055352	-2.6396	-2.775	-2.775	-3.0771	-2.4458	-2.9375	-3.0792	-2.7604	-3.0312	-2.8521	-2.7667	-3.0521	-2.8146	-2.8375	-2.7792	-2.7292	43.997	-9.283	-107.137	103.103	78.908	90.144	184.852	62.142	-86.456	-79.817	132.043	-165.700	151.463	-144.207	-149.240	47.433	0.00058275	0.00040437	0.00012253	987.84	7.1181e-07	3.9377e-06	1066.4	207.88	9.1426e-06	2.3249e-06	263.25	74.455	58.148	16.293	4.3671e-06	23.382	0.00061093	0.00078353	0.00021188	983.65	8.119e-06	8.5878e-06	1057.2	207.17	7.9557e-06	8.2851e-06	263.36	74.795	58.084	16.681	7.9946e-06	23.887	2.428	-110.059	-80.906	-162.661	-106.721	-38.512	-162.867	-155.633	-33.914	-17.699	-155.873	-149.563	-149.139	-141.616	-46.383	-142.891	-8191	255	
18014.162	1	1	0	0	0.063097	0.02458	0.2241	0.28985	0.0073317	0.19046	0.27391	0.051853	0.39991	0.25292	0.02986	0.091577	0.098444	0.17733	0.24712	0.30641	-2.5062	-2.8937	-2.6771	-3.1188	-2.7896	-3.0438	-3.1125	-2.7271	-2.9375	-2.8167	-2.7604	-3.1	-2.8208	-2.9125	-2.9104	-2.6688	105.070	56.896	127.865	157.246	-104.130	-7.126	133.400	164.096	-167.323	11.340	-75.241	144.656	45.497	168.823	-21.594	179.043	0.00065605	0.00053893	0.00014903	995.3	4.7555e-06	2.4813e-06	1064.2	209.24	8.5601e-06	1.9666e-06	261.84	74.282	57.576	16.422	4.3084e-06	23.411	0.00062531	0.00074751	0.00020073	984.71	7.9119e-06	8.5354e-06	1057.4	207.56	7.4991e-06	8.3115e-06	262.86	74.727	58.018	16.755	7.6329e-06	23.932	3.230	-68.364	-83.688	-162.781	-87.507	-7.324	-163.089	-155.465	-51.651	22.696	-155.723	-149.438	-149.358	-141.591	-30.568	-142.108	-8191	255	
18014.260	1	1	0	0	0.030185	0.19729	0.3321	0.12897	0.093829	0.28753	0.17512	0.26961	0.064293	0.13028	0.10725	0.16285	0.073877	0.12289	0.11436	0.084919	-2.5521	-2.8833	-2.6604	-3.0896	-2.7875	-2.8479	-3.3583	-2.9375	-2.9792	-2.9521	-2.8396	-3.1312	-2.6229	-2.8458	-3.0792	-2.7771	150.204	-105.036	-115.785	67.000	156.807	-1.750	131.483	180.114	86.399	44.392	-67.568	113.307	34.438	146.992	142.149	-158.199	0.00050056	0.00027513	8.9541e-05	988.07	3.9829e-06	2.1164e-06	1062.8	208.11	9.1118e-06	4.7577e-06	263.53	74.229	57.849	16.4	3.8775e-06	23.438	0.00061651	0.00074142	0.00020712	982.13	8.0436e-06	8.4476e-06	1054.6	207.26	7.9286e-06	8.3148e-06	262.45	74.813	57.993	16.746	7.4619e-06	23.96	2.211	-70.762	-95.484	-162.466	-66.100	-50.745	-162.939	-155.763	-19.951	-38.271	-156.137	-149.130	-149.097	-142.220	-24.133	-142.501	-8191	255	
18014.379	1	1	0	0	0.23859	0.064391	0.084846	0.051417	0.07548	0.055615	0.19912	0.11213	0.16654	0.14706	0.13309	0.26078	0.17742	0.2079	0.093654	0.025801	-2.2458	-2.8208	-2.6208	-3.1542	-2.8646	-2.7229	-3.2917	-2.6021	-2.9437	-3.0625	-2.8271	-3.0812	-2.7583	-2.9583	-3.0979	-2.7917	-46.947	47.819	120.398	-159.730	-152.411	-7.691	121.953	-168.604	48.530	122.241	141.033	153.990	165.534	-171.329	-52.851	-127.913	0.00054947	0.00028414	0.00011768	991.68	7.1336e-06	4.7326e-06	1064.2	208.46	5.6842e-06	2.9131e-06	261.76	74.254	57.621	16.456	2.6366e-06	23.28	0.0006188	0.00075589	0.00020344	983.28	7.9462e-06	8.4957e-06	1055	207.66	7.971e-06	8.0272e-06	263.06	74.789	58.089	16.762	7.7026e-06	23.887	1.735	-44.321	-43.466	-162.794	-41.642	-61.197	-162.842	-155.568	-5.946	-66.358	-155.629	-149.522	-148.874	-141.423	3.311	-142.605	-8191	255	
18014.475	1	1	0	0	0.11548	0.053454	0.24101	0.14218	0.18025	0.14271	0.19288	0.23846	0.1102	0.24475	0.056734	0.11469	0.073202	0.20059	0.084554	0.26174	-2.3729	-2.8271	-2.875	-3.1229	-2.8396	-2.9313	-3.4	-2.8833	-2.7979	-3.0417	-2.7812	-3.0771	-2.8937	-2.7875	-3.0083	-2.9271	163.349	-117.381	39.677	52.317	131.384	-132.962	117.392	-102.746	-134.829	107.945	3.260	144.560	82.487	-75.950	-64.067	124.995	0.0006135	0.00050805	5.8312e-05	991.84	3.5839e-06	4.0424e-06	1063	208.6	6.654e-06	4.5975e-06	261.54	74.12	57.768	16.385	1.8464e-06	23.399	0.00064256	0.00074101	0.00020597	983.45	7.9453e-06	8.1009e-06	1056.8	207.59	8.0372e-06	7.974e-06	262.44	74.747	58.125	16.732	7.814e-06	23.9	7.043	-88.651	-74.795	-162.776	-88.517	4.311	-162.685	-155.446	-38.851	-35.625	-155.697	-148.926	-149.383	-141.936	-50.523	-142.383	-8191	255	
18014.547	1	1	0	0	0.12766	0.11512	0.092873	0.17313	0.24235	0.17813	0.31054	0.33356	0.24875	0.25839	0.2976	0.12594	0.10878	0.25803	0.16365	0.086216	-2.2958	-3.0771	-2.5771	-3.1396	-2.825	-2.7833	-3.2104	-2.8667	-2.8625	-3.1063	-2.6458	-2.8729	-2.8646	-2.7271	-2.9854	-2.8146	-30.653	-116.853	70.970	150.071	118.914	-88.031	126.036	-66.926	-9.989	-111.096	162.968	7.940	84.724	-113.998	-98.590	159.596	0.0006682	0.00039086	0.00010283	993.48	4.7912e-06	2.8026e-06	1061.6	208.71	4.3993e-06	6.3674e-06	262.97	74.257	58.08	16.47	5.2703e-06	23.208	0.00062614	0.00072468	0.00021355	982.64	8.2846e-06	8.4597e-06	1055.8	207.65	7.8965e-06	8.5308e-06	263.2	74.651	58.217	16.762	8.2924e-06	23.863	6.033	-93.605	-31.126	-162.818	-33.423	-19.694	-162.990	-155.508	-21.363	-41.496	-155.822	-149.497	-149.104	-141.912	-15.997	-142.494	-8191	255	
18014.666	1	1	0	0	0.035243	0.10567	0.037782	0.30099	0.079558	0.079884	0.074036	0.13114	0.0073419	0.20148	0.24014	0.25532	0.10009	0.20814	0.18941	0.26728	-2.4042	-3.0062	-2.8104	-3.1	-2.9354	-2.7042	-3.2042	-2.9521	-2.7438	-2.9896	-2.7375	-2.9708	-2.9979	-2.7833	-3.0438	-3.0542	162.014	116.306	-132.188	83.136	51.402	-90.663	167.021	147.354	56.974	41.711	181.715	52.477	19.271	-162.569	-48.310	-94.166	0.00054091	0.00036242	3.2956e-05	994.46	3.5715e-06	1.5227e-06	1062	208.67	7.11e-06	5.1408e-06	262.17	74.278	57.632	16.472	3.3498e-06	23.252	0.00063169	0.00076939	0.00021788	986.05	8.1109e-06	8.3948e-06	1055.8	207.6	7.8821e-06	8.159e-06	262.97	74.811	57.88	16.781	7.8932e-06	23.886	-0.795	-69.351	-105.929	-162.593	-55.685	-56.908	-162.904	-155.590	-55.552	7.320	-156.088	-149.282	-148.973	-142.042	58.475	-142.711	-8191	255	
18014.762	1	1	0	0	0.23241	0.30889	0.064322	0.076754	0.12506	0.032621	0.091885	0.11694	0.20519	0.0768	0.11234	0.20112	0.085116	0.1474	0.053731	0.12713	-2.4229	-2.9167	-2.5875	-2.9938	-2.9417	-2.7583	-3.1271	-2.9417	-2.775	-3.0333	-2.9542	-2.9021	-3.0604	-2.8563	-2.9792	-2.9771	-114.539	83.007	-135.119	-163.818	45.229	-63.579	137.667	124.700	-128.243	126.626	160.503	106.000	47.013	123.416	-17.626	41.398	0.00062066	0.00031678	7.2721e-05	995.31	5.4298e-06	1.8888e-06	1062.8	207.84	4.1779e-06	1.2969e-06	262.41	74.736	57.949	16.414	5.4207e-06	23.393	0.00062193	0.00073143	0.00021964	985.09	7.9229e-06	8.4397e-06	1055	207.41	7.7196e-06	8.3373e-06	262.31	74.993	58.167	16.771	8.3215e-06	23.882	4.026	-74.224	-57.349	-162.386	-61.841	-51.030	-162.799	-155.733	-88.064	-69.586	-156.023	-149.474	-149.263	-141.656	-45.143	-142.371	-8191	255	
18014.857	1	1	0	0	0.074591	0.13326	0.23518	0.075017	0.096288	0.12012	0.21535	0.18633	0.17786	0.088623	0.16036	0.3318	0.12167	0.14929	0.12167	0.13637	-2.4	-3.075	-2.7562	-2.7438	-3.0792	-2.7979	-3.1667	-3.125	-2.7729	-3.0563	-3.0104	-2.7729	-3.2479	-2.8083	-2.9313	-2.9604	-150.112	17.255	-40.801	184.219	93.296	79.363	123.060	130.478	157.104	22.193	23.076	51.381	-66.687	-156.994	-18.657	185.537	0.00052568	0.0004089	8.394e-05	988.86	3.1479e-06	2.1938e-06	1060.9	207.85	3.4445e-06	4.5363e-06	262.48	74.02	57.792	16.57	3.0573e-06	23.207	0.00063277	0.00078436	0.00021589	983.05	8.1253e-06	8.72e-06	1056.4	207.62	8.2273e-06	8.6338e-06	263.41	74.777	58.102	16.817	8.584e-06	23.918	4.658	-61.047	-85.816	-162.655	-43.888	-2.741	-162.774	-155.685	-64.583	-49.278	-155.788	-149.458	-149.195	-141.607	38.914	-142.160	-8191	255	
18014.979	1	1	0	0	0.22289	0.27125	0.18848	0.46388	0.038235	0.053577	0.39715	0.15772	0.15406	0.11123	0.19212	0.086868	0.12053	0.063508	0.2949	0.2753	-2.0708	-2.9625	-2.6542	-2.9437	-3.0917	-2.7229	-3.075	-3.1021	-2.5229	-3.0167	-2.8187	-2.7521	-2.9979	-2.7854	-2.8292	-3.0167	172.535	-111.019	-170.715	-173.060	-99.851	-153.968	113.807	98.189	66.021	14.598	101.315	160.821	165.227	118.624	91.604	88.335	0.00064856	0.00061684	4.9755e-05	993.64	4.288e-06	2.8668e-06	1063.5	207.92	5.2228e-06	2.8372e-06	261.71	74.446	58.257	16.537	3.3929e-06	23.356	0.00065559	0.00084295	0.00022766	986.82	8.0139e-06	9.239e-06	1055.9	207.37	8.5276e-06	9.2701e-06	262.54	74.869	58.324	16.774	8.5553e-06	23.942	3.314	-76.154	-74.436	-162.761	-62.920	-37.412	-162.922	-155.440	-94.204	-40.411	-156.061	-149.385	-148.730	-141.927	11.405	-142.494	-8191	255	
18015.074	1	1	0	0	0.37165	0.10703	0.13231	0.2214	0.14493	0.17776	0.048426	0.044468	0.32819	0.095661	0.24674	0.14667	0.23987	0.045691	0.033762	0.22126	-2.2417	-2.9604	-2.7625	-2.7729	-3.0917	-2.8021	-2.9958	-2.9688	-2.7208	-2.9542	-2.9729	-2.7833	-3.0958	-2.8125	-2.8771	-3.1083	109.807	160.253	35.356	157.184	30.650	88.561	181.696	-169.438	68.234	67.532	7.338	120.425	-147.321	98.166	-165.603	-160.914	0.00053569	0.00030165	8.1828e-05	993.76	2.4824e-06	1.3895e-06	1064.9	207.53	5.2736e-06	1.4458e-06	263.33	74.41	57.67	16.441	3.5549e-06	23.517	0.00065708	0.00083069	0.00023236	984.53	8.3532e-06	9.4422e-06	1056.3	207.39	8.6251e-06	9.2635e-06	263.77	74.964	58.21	16.745	8.4582e-06	23.961	1.074	-139.357	-120.061	-162.560	-60.195	4.635	-162.937	-155.878	-35.334	-12.882	-155.440	-149.746	-149.397	-141.719	0.870	-142.415	-8191	255	
18015.146	1	1	0	0	0.24463	0.11987	0.26069	0.069528	0.15536	0.013219	0.21717	0.19183	0.16846	0.23045	0.2053	0.015716	0.12505	0.092473	0.23428	0.3698	-2.1542	-2.6708	-2.9792	-2.8542	-3.1458	-2.7687	-2.9375	-3.1583	-2.7229	-2.8563	-2.9708	-2.7958	-2.9938	-2.9083	-2.7583	-3.1146	-144.635	-78.389	147.734	-87.482	95.856	109.532	154.919	90.982	-58.911	-51.948	179.851	77.228	89.526	79.365	176.249	-120.417	0.00056581	0.00040594	9.6948e-05	995.76	5.4048e-06	1.8589e-06	1063	208.76	6.0576e-06	1.7883e-06	262.39	74.538	57.754	16.396	5.0185e-06	23.277	0.00067616	0.0008294	0.00022676	986.32	8.6556e-06	9.3511e-06	1055.4	207.81	8.6012e-06	9.2127e-06	263.2	74.934	58.224	16.765	8.5818e-06	23.947	5.279	-83.502	-33.887	-162.765	-3.542	-0.451	-163.001	-155.657	-15.084	-113.579	-155.957	-149.691	-149.206	-141.393	-28.320	-142.204	-8191	255	
18015.268	1	1	0	0	0.10538	0.20815	0.22541	0.10186	0.15069	0.1426	0.19216	0.1536	0.050459	0.22478	0.17989	0.22455	0.15031	0.19039	0.083035	0.10798	-2.3563	-2.8104	-2.9	-2.8187	-2.7792	-2.7583	-2.8917	-3.0375	-2.8917	-2.6792	-3.0875	-2.8271	-3.0438	-2.9	-2.7938	-3.0833	-67.993	20.344	77.648	123.790	-105.302	-138.341	80.414	-144.579	-17.158	32.035	102.523	99.142	134.110	72.888	-28.435	9.401	0.00062684	0.00032638	3.4067e-05	994.31	5.0178e-06	3.5345e-06	1060.8	209.92	3.257e-06	3.8102e-06	260.37	73.802	57.911	16.412	5.6166e-06	23.394	0.0006791	0.00079791	0.00022354	986.04	8.7234e-06	9.2619e-06	1056.4	208.16	8.6206e-06	9.3421e-06	262.48	74.669	57.969	16.752	8.3472e-06	23.898	9.030	-141.385	-54.984	-162.805	-29.391	-11.264	-162.889	-155.601	8.063	-16.005	-155.865	-149.249	-148.830	-141.596	-7.826	-142.347	-8191	255	
18015.361	1	1	0	0	0.24229	0.23128	0.11841	0.116	0.17516	0.078385	0.17535	0.20894	0.24143	0.13072	0.34713	0.30452	0.23972	0.25005	0.084782	0.12354	-2.3354	-2.8104	-2.9813	-2.8333	-2.9542	-2.8146	-2.8021	-3.1542	-2.8583	-2.8208	-3.0417	-2.6479	-3.0271	-3.0896	-2.6229	-3.1188	157.433	-37.926	-60.441	172.608	171.737	38.870	131.757	120.484	-71.755	48.928	142.146	143.979	-102.633	-144.153	93.001	-70.225	0.00063101	0.00020982	0.00011745	995.38	2.597e-06	3.0272e-06	1065.9	206.95	5.7217e-06	3.4068e-06	262.65	74.204	57.954	16.401	2.1006e-06	23.435	0.0006716	0.00082169	0.00022111	985.86	8.8479e-06	9.1465e-06	1057.4	207.51	8.4589e-06	8.9473e-06	262.9	74.805	58.241	16.743	8.1209e-06	23.94	1.400	-90.444	-94.718	-162.628	-75.106	-12.117	-162.785	-155.752	-15.756	-7.736	-155.751	-149.027	-148.880	-141.962	-76.340	-142.751	-8191	255	
#DATA ENDS
