BOXY.EXE: ISS Imagent and Oximeter Data Acquisition Program Version 0.80
Ascii Record File

#ACQ INFORMATION
2  Detector Channels 
16  External MUX Channels 
1  Auxiliary Channels 
5000  Waveform (CCF) Frequency (Hz)
1  Waveforms Skipped 
30  Waveforms Averaged 
1  Cycles Averaged 
16  Acquisitions per Waveform 
10.0806  Updata Rate (Hz) 

#FILE INFORMATION
TRUE -- External MUX Channel results are PARSED.
FALSE -- AC DC and Phase are NOT grouped.
TRUE -- Companion Program Settings File CREATED.
FALSE -- AC data not excluded
FALSE -- DC data not excluded
FALSE -- Phase data not excluded
FALSE -- Auxillary Chn. data not excluded
Tab delimiters

#CALIBRATION STATE
TRUE -- Waveform Calibration Values APPLIED.


#AUX CALIBRATION VALUES
Val Type	aux-1	

Term	1.0000e+00	
Factor	0.0000e+00	


#WF CALIBRATION VALUES
A = Detector Channel
Val Type	A-AC1	A-AC2	A-AC3	A-AC4	A-AC5	A-AC6	A-AC7	A-AC8	A-AC9	A-AC10	A-AC11	A-AC12	A-AC13	A-AC14	A-AC15	A-AC16	A-DC1	A-DC2	A-DC3	A-DC4	A-DC5	A-DC6	A-DC7	A-DC8	A-DC9	A-DC10	A-DC11	A-DC12	A-DC13	A-DC14	A-DC15	A-DC16	A-Ph1	A-Ph2	A-Ph3	A-Ph4	A-Ph5	A-Ph6	A-Ph7	A-Ph8	A-Ph9	A-Ph10	A-Ph11	A-Ph12	A-Ph13	A-Ph14	A-Ph15	A-Ph16	

Term	0.00000e+00	0.00000e+00	0.00000e+00	0.00000e+00	0.00000e+00	0.00000e+00	0.00000e+00	0.00000e+00	0.00000e+00	0.00000e+00	0.00000e+00	0.00000e+00	0.00000e+00	0.00000e+00	0.00000e+00	0.00000e+00	0.00000e+00	0.00000e+00	0.00000e+00	0.00000e+00	0.00000e+00	0.00000e+00	0.00000e+00	0.00000e+00	0.00000e+00	0.00000e+00	0.00000e+00	0.00000e+00	0.00000e+00	0.00000e+00	0.00000e+00	0.00000e+00	0.00000e+00	0.00000e+00	0.00000e+00	0.00000e+00	0.00000e+00	0.00000e+00	0.00000e+00	0.00000e+00	0.00000e+00	0.00000e+00	0.00000e+00	0.00000e+00	0.00000e+00	0.00000e+00	0.00000e+00	0.00000e+00	
Factor	1.00000e+00	1.00000e+00	1.00000e+00	1.00000e+00	1.00000e+00	1.00000e+00	1.00000e+00	1.00000e+00	1.00000e+00	1.00000e+00	1.00000e+00	1.00000e+00	1.00000e+00	1.00000e+00	1.00000e+00	1.00000e+00	1.00000e+00	1.00000e+00	1.00000e+00	1.00000e+00	1.00000e+00	1.00000e+00	1.00000e+00	1.00000e+00	1.00000e+00	1.00000e+00	1.00000e+00	1.00000e+00	1.00000e+00	1.00000e+00	1.00000e+00	1.00000e+00	X	X	X	X	X	X	X	X	X	X	X	X	X	X	X	X	

B = Detector Channel
Val Type	B-AC1	B-AC2	B-AC3	B-AC4	B-AC5	B-AC6	B-AC7	B-AC8	B-AC9	B-AC10	B-AC11	B-AC12	B-AC13	B-AC14	B-AC15	B-AC16	B-DC1	B-DC2	B-DC3	B-DC4	B-DC5	B-DC6	B-DC7	B-DC8	B-DC9	B-DC10	B-DC11	B-DC12	B-DC13	B-DC14	B-DC15	B-DC16	B-Ph1	B-Ph2	B-Ph3	B-Ph4	B-Ph5	B-Ph6	B-Ph7	B-Ph8	B-Ph9	B-Ph10	B-Ph11	B-Ph12	B-Ph13	B-Ph14	B-Ph15	B-Ph16	

Term	0.00000e+00	0.00000e+00	0.00000e+00	0.00000e+00	0.00000e+00	0.00000e+00	0.00000e+00	0.00000e+00	0.00000e+00	0.00000e+00	0.00000e+00	0.00000e+00	0.00000e+00	0.00000e+00	0.00000e+00	0.00000e+00	0.00000e+00	0.00000e+00	0.00000e+00	0.00000e+00	0.00000e+00	0.00000e+00	0.00000e+00	0.00000e+00	0.00000e+00	0.00000e+00	0.00000e+00	0.00000e+00	0.00000e+00	0.00000e+00	0.00000e+00	0.00000e+00	3.11442e+01	-1.32585e+02	-1.25137e+02	-1.82803e+02	-6.99753e+01	-6.57492e+01	-1.55363e+02	-1.62015e+02	-5.19944e+01	-6.84061e+01	-1.72002e+02	-1.69539e+02	-1.79829e+02	-1.77289e+02	-5.95372e+01	-1.49288e+02	
Factor	4.46143e-05	1.55393e-04	3.79425e-05	1.69166e-01	1.65811e-06	1.54395e-06	1.50608e-01	4.38241e-02	2.52180e-06	1.64082e-06	8.20883e-02	2.44333e-02	2.46613e-02	7.74829e-03	1.75397e-06	1.09675e-02	1.31998e-05	1.98917e-05	5.63019e-06	8.76786e-02	2.03302e-07	2.24248e-07	7.35378e-02	2.28266e-02	1.97474e-07	2.25893e-07	4.16175e-02	1.24053e-02	1.29592e-02	4.07900e-03	2.08931e-07	5.61216e-03	X	X	X	X	X	X	X	X	X	X	X	X	X	X	X	X	



#DISTANCE SETTINGS
A = Detector Channel
A-1	A-2	A-3	A-4	A-5	A-6	A-7	A-8	A-9	A-10	A-11	A-12	A-13	A-14	A-15	A-16	

2.5000e+00	3.0000e+00	2.5000e+00	3.0000e+00	2.0000e+00	3.0000e+00	1.5000e+00	3.0000e+00	3.0000e+00	3.0000e+00	3.0000e+00	3.0000e+00	3.0000e+00	3.0000e+00	1.5000e+00	3.0000e+00	

B = Detector Channel
B-1	B-2	B-3	B-4	B-5	B-6	B-7	B-8	B-9	B-10	B-11	B-12	B-13	B-14	B-15	B-16	

1.0000e+01	1.0000e+01	1.0000e+01	1.4400e+00	1.0000e+01	1.0000e+01	1.5100e+00	1.9400e+00	1.0000e+01	1.0000e+01	1.9900e+00	2.4900e+00	2.4100e+00	2.9000e+00	1.0000e+01	2.9800e+00	




#DATA BEGINS
time	group	step	mark	flag	A-AC1	A-AC2	A-AC3	A-AC4	A-AC5	A-AC6	A-AC7	A-AC8	A-AC9	A-AC10	A-AC11	A-AC12	A-AC13	A-AC14	A-AC15	A-AC16	A-DC1	A-DC2	A-DC3	A-DC4	A-DC5	A-DC6	A-DC7	A-DC8	A-DC9	A-DC10	A-DC11	A-DC12	A-DC13	A-DC14	A-DC15	A-DC16	A-Ph1	A-Ph2	A-Ph3	A-Ph4	A-Ph5	A-Ph6	A-Ph7	A-Ph8	A-Ph9	A-Ph10	A-Ph11	A-Ph12	A-Ph13	A-Ph14	A-Ph15	A-Ph16	B-AC1	B-AC2	B-AC3	B-AC4	B-AC5	B-AC6	B-AC7	B-AC8	B-AC9	B-AC10	B-AC11	B-AC12	B-AC13	B-AC14	B-AC15	B-AC16	B-DC1	B-DC2	B-DC3	B-DC4	B-DC5	B-DC6	B-DC7	B-DC8	B-DC9	B-DC10	B-DC11	B-DC12	B-DC13	B-DC14	B-DC15	B-DC16	B-Ph1	B-Ph2	B-Ph3	B-Ph4	B-Ph5	B-Ph6	B-Ph7	B-Ph8	B-Ph9	B-Ph10	B-Ph11	B-Ph12	B-Ph13	B-Ph14	B-Ph15	B-Ph16	aux-1	digaux	

18429.775	1	1	0	256	0.19972	0.11259	0.049384	0.22222	0.29351	0.15562	0.55456	0.21853	0.28865	0.12433	0.30845	0.039659	0.079887	0.21846	0.25266	0.30829	-2.4625	-2.8646	-2.8812	-2.85	-2.9229	-2.925	-2.775	-3.1375	-2.8708	-2.7562	-3.1604	-2.8604	-3.0833	-2.8854	-2.7333	-3.1021	247.563	454.582	410.700	508.391	376.222	356.579	470.384	497.227	195.473	404.947	170.848	343.136	395.881	462.232	501.781	513.438	0.0011747	0.00063212	0.00032134	1064	3.0871e-06	1.1993e-05	1292.2	310.45	6.0135e-06	2.4783e-06	405.15	118.35	84.858	28.06	3.4015e-06	39.219	0.0010544	0.0014605	0.00046597	822.96	1.431e-05	1.5129e-05	997.05	240.72	1.4417e-05	1.4991e-05	316.15	92.676	66.375	22.254	1.3778e-05	30.857	358.170	293.279	267.995	178.123	210.047	353.472	176.747	183.082	268.975	293.237	180.885	185.680	188.471	193.275	306.710	189.682	-8191	255	
18429.846	1	1	0	0	0.02644	0.08211	0.1135	0.34468	0.037609	0.12527	0.35857	0.32349	0.074023	0.12943	0.075517	0.17987	0.068729	0.099013	0.12006	0.053838	-2.2375	-2.7854	-3.2062	-2.6813	-2.9875	-3.05	-2.8583	-3.1104	-2.8833	-2.8229	-3.2	-2.7104	-2.9771	-2.8083	-2.7687	-3.0417	187.870	397.850	523.311	467.162	461.896	270.564	462.272	465.618	411.222	217.292	453.098	424.007	522.361	457.745	312.327	247.391	0.00084016	0.00074607	0.00030085	1057	3.9069e-06	3.296e-06	1270.7	308.5	8.2833e-06	2.8832e-06	410.91	118	85.148	28.215	2.4597e-06	38.922	0.0010689	0.0014053	0.0004896	818.55	1.4122e-05	1.4952e-05	993.87	240.06	1.34e-05	1.5461e-05	317.42	92.041	66.385	22.396	1.391e-05	30.896	371.330	298.129	204.365	178.065	348.113	378.246	176.698	183.748	324.263	325.116	180.423	185.734	189.210	192.890	317.881	189.673	-8191	255	
18429.967	1	1	0	0	0.16512	0.0079802	0.15851	0.22169	0.26329	0.17487	0.33194	0.16632	0.16611	0.12368	0.07268	0.0031274	0.20737	0.15987	0.11276	0.25087	-2.4667	-2.6042	-2.7354	-2.7417	-2.9813	-2.9583	-2.8792	-3.2042	-2.8396	-2.7958	-3.225	-2.9083	-2.9	-2.9583	-2.8771	-3.0833	452.891	369.287	486.096	401.144	286.754	353.237	464.343	187.015	320.838	286.887	175.113	225.713	397.506	428.437	261.755	446.261	0.00096403	0.0011846	0.00031827	1053.5	3.2056e-06	9.7386e-06	1288.4	304.71	5.3875e-06	7.7534e-06	404.79	118.36	85.256	28.235	6.7633e-06	38.967	0.0010802	0.0014452	0.00044266	818.59	1.4112e-05	1.5188e-05	999.53	239.8	1.4222e-05	1.4571e-05	318.14	92.823	66.761	22.459	1.4561e-05	30.914	367.048	241.408	268.732	178.087	211.615	336.638	176.824	183.368	298.510	355.658	180.895	185.471	188.613	193.998	303.300	189.755	-8191	255	
18430.062	1	1	0	0	0.25382	0.21589	0.18508	0.090368	0.19125	0.069533	0.4332	0.30429	0.1791	0.0719	0.49551	0.17799	0.18513	0.169	0.039122	0.097646	-2.4729	-2.5458	-2.9313	-2.8417	-2.9042	-3.1813	-3	-3.0646	-2.8896	-2.7979	-3.1854	-2.9021	-2.8354	-3.1479	-2.825	-2.9667	279.521	271.903	243.158	242.635	340.738	203.127	472.600	515.369	168.943	181.270	456.205	431.515	425.320	457.560	455.442	291.886	0.0010871	0.0014695	0.00020757	1050.1	9.1864e-06	1.074e-05	1296	309.42	9.4645e-06	8.2179e-06	407.34	118.24	85.569	28.376	1.5274e-05	38.985	0.0010891	0.001399	0.00046508	817.52	1.416e-05	1.4405e-05	999.87	240.98	1.4687e-05	1.4893e-05	317.58	92.954	66.847	22.42	1.4997e-05	30.989	360.433	253.250	248.918	178.109	294.863	318.876	177.253	183.434	314.335	411.715	180.861	185.564	188.517	193.934	373.539	189.717	-8191	255	
18430.158	1	1	0	0	0.20369	0.18346	0.17666	0.15888	0.19424	0.10667	0.31774	0.25632	0.12019	0.08088	0.30238	0.11186	0.20964	0.13332	0.049182	0.13174	-2.6583	-2.5792	-2.9958	-2.9271	-2.7708	-3.0625	-2.9833	-3.0229	-2.9271	-2.6458	-3.3	-3.0208	-2.9083	-3.1625	-2.65	-2.9729	435.351	185.595	415.787	372.057	188.680	212.385	515.174	518.405	455.393	364.316	227.934	514.657	439.272	497.616	485.801	416.364	0.001003	0.00055705	0.00017081	1058.5	8.1356e-06	1.3248e-06	1283.5	307.74	1.2253e-05	1.3502e-05	402.27	118.01	84.14	28.018	8.8282e-06	38.728	0.0010755	0.0013779	0.00046263	821.07	1.4224e-05	1.5712e-05	995.84	240.06	1.6756e-05	1.5232e-05	315.46	92.357	66.231	22.268	1.4759e-05	30.675	361.621	283.971	477.898	177.998	492.635	296.180	176.576	183.080	331.997	304.634	180.713	185.777	188.832	193.782	308.601	189.282	-8191	255	
18430.256	1	1	0	0	0.013079	0.2861	0.1203	0.14672	0.053488	0.27841	0.18898	0.04545	0.04727	0.21056	0.22672	0.079332	0.071868	0.13988	0.08957	0.18419	-2.7083	-2.6771	-2.9333	-3.2104	-2.9583	-3.1333	-2.9229	-3.05	-3.0458	-2.7333	-3.0208	-2.9437	-2.7354	-3.1917	-2.7792	-3.1	376.033	241.804	524.291	229.735	293.709	436.398	472.425	310.229	307.918	443.519	483.940	424.433	316.625	166.273	509.517	285.669	0.00081365	4.8895e-05	4.9743e-05	1046.8	8.993e-06	5.149e-06	1283.6	308.43	6.938e-06	2.2159e-06	400.63	118.26	84.822	27.668	2.9016e-06	38.33	0.0010722	0.0014087	0.00048698	813.67	1.4193e-05	1.4642e-05	996.19	239.5	1.5489e-05	1.422e-05	315.11	92.101	66.341	22.13	1.4137e-05	30.536	366.519	414.769	218.033	178.179	351.461	339.441	177.148	183.613	378.345	366.970	180.976	185.157	188.140	193.356	376.712	189.908	-8191	255	
18430.373	1	1	0	0	0.072905	0.11454	0.10262	0.14256	0.2897	0.17763	0.19303	0.27903	0.21416	0.22278	0.045123	0.17567	0.13978	0.10333	0.18293	0.13831	-2.7625	-2.75	-2.9229	-3.1063	-2.6937	-3.2271	-2.8958	-2.9229	-3.1021	-2.7333	-3.1	-3.0396	-2.7875	-3.1208	-2.775	-2.8583	374.184	220.569	517.761	479.756	484.648	336.238	437.975	505.130	398.455	413.776	340.828	444.621	312.268	492.860	219.149	228.159	0.00088164	0.00096838	0.0001312	1049.8	5.6824e-06	3.3065e-06	1277.1	307.81	9.8167e-06	1.1049e-05	401.36	118.82	85.14	27.782	9.2679e-06	39.365	0.0010409	0.001366	0.0004232	818.34	1.3512e-05	1.4357e-05	993.15	240.2	1.6776e-05	1.4508e-05	315.03	92.506	66.379	22.145	1.3286e-05	30.925	356.779	271.169	178.539	178.052	275.576	306.344	176.889	183.058	286.920	277.010	180.786	185.602	188.358	193.478	398.083	189.724	-8191	255	
18430.471	1	1	0	0	0.10232	0.15421	0.31461	0.37601	0.099338	0.12449	0.32773	0.1248	0.1079	0.10805	0.18306	0.040336	0.096923	0.18258	0.038162	0.31304	-2.6	-2.6479	-2.8667	-2.9833	-2.6	-2.9875	-3.05	-2.9896	-3.05	-2.6271	-3.1271	-2.9458	-2.7833	-3.0396	-3.0042	-2.9521	246.914	207.221	177.903	495.368	305.235	363.794	442.583	456.856	407.189	374.270	421.090	418.959	242.672	487.662	291.310	168.679	0.0010677	0.0011937	0.0002324	1054.3	4.6551e-06	8.6803e-06	1282	308.08	9.5276e-06	1.7522e-06	401.76	117.76	84.291	28.232	8.2191e-06	38.815	0.001062	0.0013344	0.00036857	819.91	1.2986e-05	1.3987e-05	995.96	239.02	1.5307e-05	1.4554e-05	314.5	91.905	66.008	22.29	1.3178e-05	30.774	358.457	245.885	296.635	178.555	283.598	330.681	176.861	183.480	350.321	440.085	181.020	186.092	188.394	193.970	323.661	189.487	-8191	255	
18430.543	1	1	0	0	0.20582	0.20069	0.21642	0.080448	0.28567	0.31547	0.35353	0.48283	0.28782	0.12186	0.13045	0.27524	0.21595	0.20505	0.18898	0.15347	-2.6125	-2.8521	-2.8	-3.0458	-2.8438	-3.1354	-3.025	-2.95	-3.2042	-2.7854	-2.9229	-3.2354	-2.8417	-2.9958	-2.7167	-2.7542	247.220	338.695	485.471	411.684	523.741	345.335	406.303	474.411	271.824	428.990	166.615	512.052	462.528	440.877	462.874	464.529	0.0010229	0.0007113	0.00019837	1040.5	1.2856e-05	8.5812e-06	1267.1	305.22	1.4921e-05	2.6209e-06	402.65	118.34	84.149	27.817	5.6196e-06	38.52	0.0010244	0.0012411	0.00034863	810.76	1.2175e-05	1.3714e-05	987.98	237.32	1.5437e-05	1.3456e-05	313.76	91.653	65.813	22.127	1.3498e-05	30.567	356.395	299.137	275.426	178.685	304.192	255.993	177.032	183.495	353.652	284.897	180.775	185.624	188.002	193.419	487.641	189.049	-8191	255	
18430.641	1	1	0	0	0.15563	0.060257	0.13981	0.11389	0.13123	0.23836	0.097422	0.12859	0.17147	0.17689	0.23163	0.13497	0.18969	0.23455	0.077423	0.027248	-2.6104	-2.7479	-2.9896	-3.1042	-2.6833	-3.0938	-3.0771	-2.9604	-3.1021	-2.8479	-2.9083	-3.2438	-2.7729	-3.0896	-2.7792	-2.9542	361.807	200.114	444.882	233.881	232.474	355.388	448.104	507.154	393.564	195.439	462.913	519.052	427.381	518.685	449.668	370.656	0.00083187	0.00050239	0.00024036	1042.3	7.0334e-06	7.0128e-06	1269.5	306.15	1.098e-05	7.6209e-06	399.9	117.63	83.652	27.796	3.5841e-06	38.292	0.0010055	0.0012429	0.00033303	810.46	1.2307e-05	1.3032e-05	984.76	237.93	1.4769e-05	1.3054e-05	312.89	91.543	65.293	21.983	1.6692e-05	30.474	353.092	282.447	278.215	178.529	349.592	397.875	176.690	183.451	368.206	236.657	181.456	185.783	188.518	193.443	486.954	189.977	-8191	255	
18430.760	1	1	0	0	0.26822	0.1699	0.12212	0.20373	0.16468	0.14052	0.16127	0.20473	0.16348	0.11424	0.18583	0.22192	0.05253	0.097934	0.11588	0.16728	-2.7771	-3.0104	-2.7292	-3.1604	-2.9604	-2.9	-3.1063	-2.8583	-2.9792	-2.7938	-2.7438	-3.225	-2.9562	-2.9042	-2.8667	-2.8125	400.675	392.638	308.033	507.337	502.898	508.751	490.998	455.620	352.339	247.514	430.123	405.546	513.468	513.373	175.667	420.383	0.0009202	0.00067377	0.00023473	1047.8	8.5654e-06	7.8397e-06	1278.6	306.12	1.4572e-05	1.1849e-06	402.61	118.13	84.633	27.921	1.0123e-06	39.126	0.0010129	0.0012481	0.00035589	810.45	1.342e-05	1.4193e-05	989.8	238	1.6394e-05	1.415e-05	315.2	92.172	65.934	22.122	1.5555e-05	30.823	369.080	227.108	336.236	177.993	236.289	292.468	176.785	182.765	322.452	257.947	181.255	185.142	188.315	193.590	274.034	189.642	-8191	255	
18430.855	1	1	0	0	0.27842	0.29814	0.13996	0.28416	0.021715	0.15844	0.20043	0.13418	0.1176	0.091108	0.0048272	0.26193	0.082084	0.095099	0.15825	0.1608	-2.6021	-2.6937	-2.8042	-2.9583	-2.7729	-2.9333	-3.1354	-2.8542	-2.9833	-2.9083	-2.7062	-3.1208	-2.8208	-2.925	-2.9292	-2.5896	372.940	188.055	518.753	406.264	311.732	437.979	386.035	502.618	199.602	472.237	348.105	502.157	272.176	264.965	263.093	434.200	0.00098938	0.00081081	0.00015608	1057.5	6.1558e-06	4.5416e-06	1284.6	307.83	1.35e-05	8.022e-06	406.42	118.23	85.312	28.239	3.942e-06	39.283	0.0010298	0.0013163	0.00035122	816.87	1.2692e-05	1.4256e-05	994.36	238.82	1.4751e-05	1.5127e-05	317.54	92.147	66.302	22.338	1.6852e-05	30.902	364.002	259.261	265.944	178.152	274.710	256.770	176.564	183.617	286.639	382.079	181.178	185.923	188.454	193.426	244.037	189.526	-8191	255	
18430.951	1	1	0	0	0.044909	0.26755	0.16504	0.31476	0.091217	0.23008	0.26621	0.069217	0.12989	0.15248	0.11511	0.23919	0.22502	0.21921	0.1223	0.26859	-2.5667	-2.9083	-2.6229	-3.0083	-2.825	-2.9354	-3.1521	-2.8542	-2.9813	-2.9625	-2.8417	-3.1	-2.8354	-2.7938	-3.0479	-2.7125	301.752	284.782	424.732	514.633	491.034	270.668	414.767	422.285	453.539	285.022	421.088	470.278	499.853	235.218	172.100	438.830	0.00090342	0.00097558	6.1939e-05	1051.5	8.8131e-06	5.6491e-06	1281.1	305.78	1.499e-05	8.3799e-06	397.99	117.3	85.579	28.272	1.4931e-05	39.166	0.0010086	0.0013166	0.00035419	814.93	1.313e-05	1.4175e-05	991.3	238.41	1.3726e-05	1.8114e-05	313.28	92.027	66.068	22.273	1.6092e-05	30.773	356.058	277.139	523.579	177.953	326.405	311.929	176.944	183.414	231.996	340.868	181.189	185.995	188.489	193.148	225.053	189.479	-8191	255	
18431.072	1	1	0	0	0.27502	0.29829	0.26507	0.18347	0.03661	0.075221	0.42109	0.017935	0.11253	0.096024	0.36978	0.39535	0.15888	0.14105	0.052555	0.23815	-2.6271	-2.8875	-2.5729	-3.0625	-2.7375	-2.8542	-3.0875	-2.7729	-2.8375	-2.9854	-2.6271	-2.9938	-2.8021	-3.1667	-3.0687	-2.7667	342.156	510.027	369.679	474.544	390.567	419.025	432.299	405.233	254.293	172.048	498.108	473.889	206.859	504.960	296.204	521.223	0.00081941	0.00034988	0.00021416	1043.3	1.1494e-05	2.0322e-07	1274.3	304.12	8.9748e-06	6.8779e-06	402.26	117.06	83.583	27.71	8.9141e-06	39.114	0.0010095	0.0013119	0.00036398	812.85	1.3079e-05	1.4343e-05	988.79	237.9	1.2304e-05	1.7248e-05	313.58	91.648	65.362	21.978	1.7266e-05	30.809	360.826	295.891	280.815	178.371	275.155	305.846	176.757	183.308	258.004	389.602	180.606	185.594	188.660	192.937	286.624	189.832	-8191	255	
18431.143	1	1	0	0	0.20489	0.14263	0.16793	0.057318	0.2281	0.048044	0.31594	0.28967	0.20503	0.12906	0.2076	0.072406	0.25657	0.30021	0.08049	0.14715	-2.6083	-2.7479	-2.7479	-3.2375	-2.8083	-2.8604	-3.2896	-2.8792	-2.9875	-3.0125	-2.875	-3.0938	-2.8812	-2.775	-2.8875	-2.9667	437.596	443.587	493.472	434.719	165.962	485.279	450.644	492.105	403.363	414.840	380.014	166.709	502.444	506.153	495.090	190.939	0.0011476	0.0012054	5.4623e-05	1060.1	3.9352e-06	4.1773e-06	1276.9	305.73	1.1075e-05	6.0238e-06	404.82	118.73	85.519	27.963	1.866e-06	39.339	0.0010734	0.0012673	0.00035101	820.19	1.4191e-05	1.3993e-05	995.11	238.62	1.2729e-05	1.7519e-05	317.12	92.535	66.241	22.261	1.5961e-05	31.075	362.663	237.414	294.302	178.407	373.170	185.238	176.606	182.907	309.170	308.318	181.361	185.555	188.074	193.726	453.313	189.480	-8191	255	
18431.240	1	1	0	0	0.28003	0.14469	0.10553	0.052057	0.18728	0.16875	0.27632	0.086343	0.26739	0.077586	0.17868	0.096522	0.15118	0.093787	0.091101	0.18199	-2.4562	-3.0083	-2.6688	-3.0979	-2.7958	-2.7917	-3.2021	-2.7542	-2.8271	-2.9958	-2.875	-2.8875	-2.9354	-2.8021	-3.0771	-2.9229	174.660	221.694	461.699	402.900	476.984	357.354	431.317	418.235	521.476	250.506	207.055	383.060	450.290	337.980	247.249	427.649	0.00096557	0.00069452	7.5889e-05	1045.6	6.8089e-06	2.1116e-06	1284.6	309.07	8.5048e-06	6.4851e-06	405.5	119.6	84.107	28.322	8.2392e-06	39.607	0.0010089	0.0012522	0.00036193	815.47	1.6625e-05	1.436e-05	996.33	240.21	1.297e-05	1.7579e-05	317.89	92.822	66.087	22.368	1.7232e-05	31.105	359.883	286.599	326.048	178.128	342.541	339.382	177.137	183.461	389.444	214.467	181.475	185.821	187.255	193.691	378.098	189.281	-8191	255	
18431.359	1	1	0	0	0.32244	0.13319	0.23345	0.18387	0.12109	0.11109	0.36814	0.15372	0.1831	0.056862	0.089898	0.16214	0.18291	0.14674	0.17628	0.13738	-2.5229	-2.9	-2.625	-3.0187	-2.8812	-2.6625	-3.15	-2.8312	-2.5667	-3.0812	-2.6542	-3.0083	-3.1021	-2.8042	-3.0125	-2.8771	413.858	521.595	332.626	458.146	200.373	175.339	474.718	247.692	219.960	504.124	470.234	432.070	463.437	215.242	336.855	465.270	0.0008369	0.00052179	0.00018579	1051.9	8.6871e-06	1.0928e-05	1288.4	306.82	6.9433e-06	9.7144e-06	405.09	117.7	85.078	28.352	9.8472e-06	39.225	0.0010357	0.0012898	0.00036324	814.77	1.5505e-05	1.4198e-05	998.12	238.36	1.2308e-05	1.7713e-05	316.68	92.39	66.27	22.269	1.3611e-05	30.891	357.998	215.593	288.809	177.996	293.288	302.265	176.941	183.159	293.555	358.014	180.439	186.069	188.183	193.620	437.145	189.998	-8191	255	
18431.455	1	1	0	0	0.36833	0.38036	0.27264	0.15279	0.13425	0.10869	0.26562	0.079519	0.032215	0.0055305	0.21751	0.038556	0.14823	0.091368	0.15148	0.062046	-2.0042	-2.9333	-2.7583	-2.9229	-2.8792	-2.6396	-3.1562	-2.9104	-2.7062	-3.15	-2.9229	-2.8646	-3.0312	-2.7812	-2.875	-2.6896	400.945	206.247	483.865	484.885	327.231	362.989	475.414	471.725	244.891	473.885	509.179	174.898	353.724	382.874	343.243	516.544	0.0009632	0.00030217	0.00016341	1055.5	6.8216e-06	3.8878e-06	1275.9	306.59	7.4086e-06	7.3982e-06	400.32	117.87	84.281	28.182	9.4119e-06	39.338	0.00095407	0.0011989	0.00032554	816.74	1.5291e-05	1.2914e-05	993.12	238.25	1.1996e-05	1.6076e-05	314.68	91.893	66.093	22.331	1.2644e-05	31.018	359.496	264.976	263.264	178.331	393.307	317.360	177.067	183.495	406.390	334.133	180.980	185.408	188.277	193.379	312.625	189.153	-8191	255	
18431.551	1	1	0	0	0.15958	0.20804	0.12867	0.25231	0.18526	0.15348	0.1984	0.31303	0.21959	0.18079	0.24684	0.34468	0.17613	0.11584	0.31276	0.20168	-2.3271	-2.9104	-2.8167	-2.9396	-3.0083	-2.75	-3.025	-3.05	-2.6625	-3.0979	-2.9833	-2.8625	-2.9375	-2.8	-2.9833	-3.1021	404.118	363.137	401.398	470.796	234.066	408.058	444.084	480.519	252.411	268.808	471.869	466.436	391.553	500.024	320.717	514.007	0.001088	0.0011189	9.6351e-05	1046.9	5.6132e-06	3.198e-06	1271.3	305.47	7.9363e-06	6.7697e-06	405.35	119.16	84.214	28.151	1.3236e-05	39.602	0.0010312	0.0011334	0.00034505	811.98	1.4836e-05	1.4155e-05	990.4	238.84	1.2076e-05	1.6504e-05	315.54	92.542	66.005	22.225	1.2125e-05	31.203	348.585	238.120	525.116	178.004	287.451	210.729	176.788	183.550	333.972	342.611	180.618	186.060	188.213	193.614	365.438	189.831	-8191	255	
18431.672	1	1	0	0	0.068073	0.10032	0.21758	0.12729	0.11467	0.079538	0.27596	0.13418	0.041499	0.15027	0.13054	0.19747	0.087343	0.19999	0.10311	0.10088	-2.3	-2.9562	-2.8292	-3.0146	-2.8521	-2.6292	-3.1813	-3.1542	-2.5646	-2.9667	-2.8063	-2.8583	-2.9	-2.9271	-2.9562	-3.0292	240.966	497.484	272.562	451.930	438.360	437.931	500.592	465.617	306.124	191.412	403.638	333.070	424.841	475.588	264.766	433.765	0.0010531	0.00039317	9.849e-05	1050.3	8.6059e-06	7.7381e-06	1272.4	308.33	1.6607e-05	1.3886e-05	411.3	119.39	83.827	28.363	3.8812e-06	39.392	0.00094665	0.0012309	0.0003412	814.64	1.5911e-05	1.3267e-05	992.07	240.12	1.19e-05	1.4457e-05	318.27	92.943	65.853	22.38	1.1895e-05	31.312	364.213	258.132	301.018	177.657	316.128	261.668	176.582	183.575	313.721	336.756	181.341	185.772	188.399	193.852	320.495	189.677	-8191	255	
18431.768	1	1	0	0	0.16798	0.14697	0.14075	0.27044	0.31235	0.19563	0.35771	0.21023	0.18893	0.16963	0.39219	0.1319	0.26814	0.2815	0.24882	0.32709	-2.2	-3.2417	-2.9208	-2.6708	-3.0271	-2.7667	-2.9646	-3.1854	-2.5667	-3.0542	-2.7104	-2.8583	-2.8771	-2.8229	-2.8583	-3.0687	272.354	513.767	242.295	443.063	427.106	431.463	483.756	504.041	279.327	478.609	516.474	297.407	463.311	202.551	331.230	281.880	0.0011154	0.00070211	7.5701e-05	1048.8	8.6176e-06	4.8436e-06	1288.6	310	9.982e-06	1.0303e-05	408.22	118.36	86.036	28.223	9.5639e-06	39.173	0.00099337	0.0011348	0.00033685	816.22	1.5447e-05	1.2933e-05	999.43	240.01	1.2345e-05	1.3258e-05	318.55	92.683	66.545	22.412	1.2471e-05	31.286	354.799	313.091	179.210	178.154	329.885	386.663	176.779	183.169	308.230	301.893	181.004	185.478	188.497	193.383	324.322	190.110	-8191	255	
18431.840	1	1	0	0	0.090395	0.05455	0.1267	0.14195	0.1044	0.028103	0.12179	0.25195	0.12828	0.13074	0.17448	0.18165	0.073327	0.020568	0.14989	0.11214	-2.2458	-2.9437	-2.7583	-2.8333	-2.9958	-2.7167	-2.9375	-3.0104	-2.6208	-2.8937	-2.8604	-2.7396	-2.9771	-2.9583	-2.6646	-3.2313	393.698	269.838	374.271	474.343	488.256	417.750	402.452	204.083	465.035	458.366	510.036	170.474	201.391	166.088	488.406	229.953	0.0012325	0.00035017	3.6984e-05	1049.5	4.2919e-06	5.3623e-06	1289.1	306.53	9.9053e-06	5.4701e-06	407.29	118.42	84.574	28.036	1.2793e-06	39.35	0.0010348	0.0012678	0.00033511	814.33	1.5767e-05	1.3538e-05	996.73	238.74	1.1974e-05	1.4186e-05	318.3	92.389	66.001	22.274	1.2861e-05	31.194	364.172	226.854	266.192	178.527	316.072	295.093	176.896	183.337	288.294	268.189	180.697	186.012	188.318	193.603	285.376	189.927	-8191	255	
18431.936	1	1	0	0	0.29977	0.44286	0.23647	0.16398	0.040006	0.061058	0.39019	0.18828	0.1142	0.078601	0.26971	0.18363	0.27138	0.24065	0.083738	0.14129	-2.4479	-2.7833	-2.7125	-2.9521	-2.975	-2.7521	-2.7958	-3.2333	-2.825	-2.7313	-3	-2.8292	-2.8083	-2.8583	-2.7542	-2.95	402.083	394.470	193.744	167.153	505.809	183.070	412.970	364.835	334.981	217.446	441.234	202.342	478.127	484.890	394.468	463.369	0.0011977	0.00067783	0.00027089	1048.2	6.6429e-06	1.1741e-05	1280.6	307.07	1.4433e-05	1.1436e-05	406.9	118.38	84.126	28.044	6.1387e-06	39.501	0.00099048	0.001262	0.00037535	815.13	1.3872e-05	1.6034e-05	993.97	239.78	1.2119e-05	1.4073e-05	317.67	92.459	65.905	22.211	1.3733e-05	31.334	363.143	202.333	293.809	178.034	260.594	327.220	176.605	183.515	294.018	321.356	180.995	185.888	187.858	192.778	259.570	189.717	-8191	255	
18432.057	1	1	0	0	0.19436	0.098404	0.34552	0.16379	0.13964	0.11425	0.29817	0.15081	0.33045	0.054528	0.15331	0.13755	0.1354	0.12611	0.25618	0.094339	-2.3583	-2.8042	-2.9104	-2.6333	-2.8187	-2.8	-2.725	-3.0958	-2.6479	-2.8042	-3.0375	-2.6667	-3.0125	-2.825	-2.6771	-2.9458	464.187	405.658	490.968	205.845	485.590	167.544	423.460	452.271	194.059	442.307	510.672	467.969	166.826	194.948	431.438	377.760	0.00099941	0.00067068	0.00015775	1044.2	5.6933e-06	3.8106e-06	1284.5	307.01	9.989e-06	9.5738e-06	413.88	118.36	85.313	28.369	3.2478e-06	39.819	0.0010787	0.0013759	0.00039836	817.47	1.347e-05	1.8819e-05	999.08	239.86	1.3639e-05	1.4649e-05	321.53	92.912	66.436	22.451	1.466e-05	31.709	362.088	493.550	272.751	178.031	319.860	316.657	177.017	183.580	324.815	246.510	180.923	185.814	188.337	193.575	166.179	189.693	-8191	255	
18432.152	1	1	0	0	0.20389	0.048649	0.16967	0.24455	0.16891	0.14752	0.43118	0.17161	0.14015	0.096919	0.17264	0.20066	0.07266	0.23006	0.13748	0.18189	-2.0687	-2.9	-2.9313	-2.9167	-2.6854	-2.8937	-2.7	-3.0979	-2.9875	-2.8271	-3.2271	-2.6937	-2.9188	-3.0312	-2.65	-2.8667	291.716	276.714	374.893	172.946	349.765	370.141	416.261	463.140	365.016	246.063	459.228	182.666	376.206	496.791	260.520	365.034	0.00099775	0.0003845	0.00032749	1051.2	2.995e-06	1.1894e-05	1293.9	307.97	1.2684e-05	9.2314e-06	405.19	118.85	84.317	28.624	5.6345e-06	39.778	0.0010994	0.0013063	0.00038751	820.9	1.406e-05	1.8762e-05	1005.7	240.63	1.3726e-05	1.4932e-05	319.56	93.274	66.324	22.598	1.4122e-05	31.442	357.326	267.664	282.838	178.277	389.975	349.909	177.040	183.425	242.536	376.640	180.674	185.790	188.013	192.369	359.834	188.873	-8191	255	
18432.248	1	1	0	0	0.2056	0.17673	0.071394	0.30449	0.084025	0.048246	0.20572	0.2792	0.085186	0.1664	0.16136	0.11171	0.28053	0.38601	0.14447	0.10407	-2.5146	-2.6813	-2.9292	-2.8063	-2.7333	-3.0896	-2.775	-3.1083	-2.7583	-2.7667	-3.1167	-2.7146	-2.8812	-2.9562	-2.5938	-2.9271	430.377	170.000	478.062	475.889	320.359	324.340	486.858	454.308	465.528	370.671	432.085	228.026	493.937	471.026	401.000	229.617	0.001088	0.0008194	0.00031235	1058.3	4.6645e-06	1.3802e-05	1291.5	310.93	1.5058e-05	5.9611e-06	409.36	119.17	85.035	28.779	6.915e-06	39.549	0.0011692	0.0012684	0.00038813	822.28	1.3691e-05	1.8395e-05	1001.5	241.43	1.3509e-05	1.5018e-05	319.18	93.079	66.422	22.538	1.3714e-05	31.223	359.810	190.965	259.753	177.843	214.676	308.054	176.513	183.484	317.272	339.404	180.962	185.716	188.166	193.155	284.698	189.579	-8191	255	
18432.344	1	1	0	0	0.21808	0.10853	0.071141	0.25472	0.22865	0.07203	0.14425	0.12159	0.23156	0.27273	0.1834	0.15717	0.18762	0.10548	0.26183	0.19481	-2.2771	-2.675	-2.9417	-3	-2.9083	-3.0958	-2.8979	-3.0917	-2.8917	-2.5438	-3.1271	-2.6792	-2.8667	-3.1042	-2.6417	-2.9792	171.640	180.529	454.589	508.092	322.159	442.227	197.923	487.912	301.132	407.476	387.467	188.597	173.199	403.618	481.487	454.351	0.0011733	0.00027176	0.00029056	1064.5	3.4556e-06	8.3211e-06	1282.5	310.47	1.2983e-05	6.8067e-06	408.95	120.64	84.504	28.241	4.7106e-06	39.885	0.0012977	0.0013024	0.00037583	822.26	1.3472e-05	1.6343e-05	1002.8	242.23	1.2593e-05	1.5448e-05	322.01	93.482	66.502	22.496	1.4028e-05	31.585	375.656	174.776	238.628	178.325	441.842	406.520	177.467	183.375	347.230	322.930	181.123	185.933	188.704	193.712	297.586	189.245	-8191	255	
18432.439	1	1	0	0	0.16289	0.1337	0.077732	0.21027	0.022843	0.36561	0.24359	0.36493	0.084786	0.11295	0.097443	0.25401	0.083541	0.087925	0.10815	0.17841	-2.3583	-2.7833	-2.9271	-2.8583	-2.6458	-2.9542	-2.9833	-3.0646	-3.0292	-2.875	-3.0062	-2.9417	-2.8063	-3.1083	-2.7583	-3.0417	317.911	321.589	199.040	202.785	281.913	240.173	465.745	466.255	185.934	421.623	185.153	423.319	278.364	272.460	475.323	281.424	0.0012954	0.0011023	0.00026306	1069	9.0332e-06	1.0633e-05	1303	313.15	9.1096e-06	7.9333e-06	416.3	119.97	87.329	28.932	1.514e-05	40.405	0.0012331	0.0013694	0.00037743	829.37	1.4552e-05	1.7995e-05	1013	244.4	1.3709e-05	1.5506e-05	323.79	94.234	67.652	22.842	1.3909e-05	31.903	368.210	216.562	271.393	178.112	309.196	323.718	177.133	183.342	334.172	255.129	181.341	185.440	187.407	193.621	340.139	189.785	-8191	255	
18432.535	1	1	0	0	0.34552	0.16431	0.12653	0.3403	0.088704	0.067583	0.23755	0.42567	0.19958	0.10269	0.14971	0.016242	0.10553	0.20753	0.18909	0.18285	-2.3937	-2.7875	-2.8854	-2.8896	-2.7479	-3.0208	-2.7021	-2.8292	-2.9562	-2.825	-2.9458	-2.9771	-2.6604	-2.8396	-2.6083	-2.8521	398.936	202.979	376.926	470.367	519.016	365.194	454.930	466.477	513.555	492.997	300.624	283.969	207.825	195.838	331.280	466.227	0.0014152	0.00059225	0.00013834	1083.3	6.4363e-06	8.5271e-06	1315.6	315.07	4.4514e-06	2.9401e-06	411.05	121.45	86.63	28.622	7.2489e-06	39.924	0.0013818	0.0013354	0.000373	837.36	1.4534e-05	1.7689e-05	1019.8	245	1.3106e-05	1.5569e-05	322.03	95.209	67.579	22.728	1.4909e-05	31.636	357.050	274.815	249.039	178.148	251.937	289.173	176.881	183.197	282.744	320.921	181.235	185.538	188.002	193.764	324.731	189.102	-8191	255	
18432.631	1	1	0	0	0.40302	0.11799	0.13791	0.16038	0.31362	0.26565	0.21832	0.31747	0.1611	0.11391	0.13955	0.071284	0.26766	0.40757	0.12036	0.1183	-2.5333	-2.6083	-3.0563	-2.9271	-2.85	-2.8708	-2.9292	-2.8479	-2.9521	-2.8667	-3.0833	-3.0417	-2.9083	-3.0604	-2.6813	-2.7625	499.495	284.299	228.406	460.384	447.184	263.753	436.506	169.983	483.226	274.415	451.675	415.231	221.131	519.783	402.782	462.466	0.0013046	0.00036636	0.00023822	1075.7	4.1644e-06	8.8785e-06	1322	314.94	1.1791e-05	7.0403e-06	415.45	121.55	86.789	28.751	6.7059e-06	39.672	0.0012643	0.0012441	0.00038936	839.17	1.4265e-05	1.7999e-05	1024.7	246.09	1.3354e-05	1.491e-05	323.58	94.76	67.589	22.693	1.3335e-05	31.375	367.378	340.277	294.403	177.957	210.531	383.185	176.980	183.646	352.746	339.060	180.692	185.549	188.888	193.953	354.943	189.280	-8191	255	
18432.752	1	1	0	0	0.19392	0.19048	0.13807	0.32871	0.027456	0.10278	0.21731	0.28038	0.18667	0.072514	0.1362	0.14684	0.16401	0.078515	0.097297	0.22428	-2.6146	-2.6354	-2.8563	-2.9771	-2.6188	-2.8875	-2.9208	-2.9021	-2.9062	-2.6188	-3.0458	-3.0187	-2.7271	-2.9354	-2.8021	-2.9542	179.501	262.195	345.646	503.946	509.751	388.387	192.020	487.991	302.707	340.339	202.096	295.412	512.000	209.162	268.600	463.602	0.0010774	0.00032012	0.00013913	1070.9	3.8135e-06	2.9073e-06	1307.7	312.91	1.1135e-05	1.3417e-05	416.84	120.71	86.746	28.518	5.569e-06	40.009	0.0013876	0.0013005	0.00038793	832.61	1.4612e-05	1.5975e-05	1018.3	244.44	1.3752e-05	1.5116e-05	324.15	94.713	67.676	22.557	1.518e-05	31.538	353.876	213.408	243.684	178.504	441.204	311.345	176.684	183.463	251.789	273.369	181.231	185.505	188.709	193.360	282.798	189.165	-8191	255	
18432.846	1	1	0	0	0.20328	0.098063	0.26305	0.067881	0.11539	0.33322	0.27604	0.27837	0.18515	0.16096	0.31276	0.24405	0.051724	0.14567	0.25205	0.2421	-2.5854	-2.5312	-2.7854	-3.0563	-2.5938	-2.9625	-3.0083	-2.7562	-2.9167	-2.725	-2.8958	-2.9646	-2.7458	-2.9062	-2.6958	-2.7125	505.472	230.905	364.663	512.089	381.543	461.519	460.815	493.393	346.615	504.051	466.855	166.489	455.337	424.618	401.853	171.427	0.0012878	0.001082	0.00010435	1066.4	1.1322e-05	7.0992e-06	1309.5	316.47	1.6855e-05	1.0789e-05	416.43	122.55	87.752	28.506	6.1535e-06	39.789	0.0013317	0.0015108	0.0004128	835.08	1.4782e-05	1.6451e-05	1022.9	246.64	1.5176e-05	1.6306e-05	325.16	95.894	68.256	22.71	1.4506e-05	31.801	356.050	235.851	308.303	178.643	338.822	346.603	176.966	183.060	319.521	305.580	181.114	185.653	188.491	193.106	275.171	189.505	-8191	255	
18432.941	1	1	0	0	0.23724	0.15404	0.21341	0.24892	0.29892	0.0080926	0.11813	0.099459	0.17443	0.13763	0.033438	0.034472	0.098124	0.39936	0.074169	0.18392	-2.5271	-2.5833	-2.825	-3.1458	-2.7354	-3.0417	-3.0438	-2.6708	-3.0771	-2.8771	-2.7667	-2.9396	-2.5729	-2.7917	-2.725	-2.7542	453.760	185.481	287.890	465.761	503.254	402.783	400.275	211.718	372.858	499.856	381.819	214.590	241.134	513.486	318.927	494.020	0.0012219	0.00078921	0.00018431	1094.5	2.6334e-06	5.7447e-06	1326	318.48	2.1105e-05	2.4832e-06	419.39	122.68	87.258	28.923	1.0525e-05	40.233	0.0013084	0.0014454	0.00039379	845	1.498e-05	1.489e-05	1032.9	247.95	1.4944e-05	1.6018e-05	327.43	95.808	68.016	22.898	1.4244e-05	31.969	371.335	226.465	192.087	178.647	400.969	341.515	176.785	183.410	332.583	336.598	181.240	185.509	188.805	193.379	301.526	189.557	-8191	255	
18433.037	1	1	0	0	0.26148	0.06111	0.18265	0.25874	0.17923	0.24975	0.11293	0.30161	0.28079	0.141	0.14027	0.06158	0.13805	0.23893	0.33992	0.11133	-2.5167	-2.7208	-2.6917	-3.1042	-2.8042	-2.8125	-3.1104	-2.7646	-2.8729	-2.6854	-2.7083	-2.9729	-2.7188	-2.7792	-3.0271	-2.8167	219.502	240.374	329.701	485.433	483.034	487.829	406.180	509.156	206.445	250.401	438.959	227.731	297.876	283.802	332.773	383.463	0.0011008	0.0007441	6.5364e-05	1087.8	2.0478e-06	4.6825e-06	1329.8	320.84	9.1727e-06	6.9844e-06	417.36	122.75	88.229	29.028	3.4869e-06	40.764	0.001161	0.0015383	0.00039678	841.26	1.4695e-05	1.5028e-05	1034.5	249.2	1.4525e-05	1.6305e-05	328.3	96.147	68.714	23.017	1.4569e-05	31.948	363.576	199.183	284.533	178.432	339.872	343.404	176.935	183.642	247.015	384.635	180.783	185.554	188.077	192.948	498.145	189.270	-8191	255	
18433.135	1	1	0	0	0.21133	0.24505	0.22645	0.15446	0.18592	0.14089	0.045823	0.10792	0.051966	0.14143	0.26356	0.32035	0.10992	0.038725	0.040812	0.24106	-2.6437	-2.5083	-2.6042	-3.0958	-2.7271	-2.6917	-2.9313	-2.9354	-2.8167	-2.9	-2.8396	-3.0938	-2.7354	-2.8771	-2.975	-2.7042	297.439	416.844	417.660	483.851	183.790	243.505	462.768	208.280	467.277	323.243	468.813	201.032	307.648	382.014	487.455	431.052	0.0008971	0.00053256	0.00015217	1090.5	5.9195e-06	3.9805e-06	1333.5	320.36	1.2486e-05	5.4494e-06	413.81	122.86	87.803	29.135	5.7507e-06	40.115	0.0011065	0.0018089	0.00041107	845.84	1.5056e-05	1.5971e-05	1031.8	248.48	1.4764e-05	1.5692e-05	326.71	95.848	68.673	22.98	1.5378e-05	31.872	361.515	238.778	233.686	178.311	263.733	328.833	176.897	183.550	267.921	350.910	180.703	186.092	188.417	193.373	270.442	189.685	-8191	255	
18433.230	1	1	0	0	0.095875	0.081763	0.053282	0.1673	0.159	0.31068	0.14954	0.21518	0.25378	0.1726	0.35303	0.2688	0.08971	0.10196	0.28381	0.39344	-2.4854	-2.5875	-2.7125	-3.1854	-2.775	-2.7687	-3.175	-2.7646	-2.9667	-2.7854	-2.725	-2.9688	-2.7792	-2.7396	-2.9542	-2.6937	189.975	279.436	248.839	480.892	468.051	484.577	418.824	508.112	342.074	288.209	418.545	464.544	465.161	519.053	398.490	441.110	0.0010134	0.0010847	0.00018146	1086.1	6.3893e-06	9.5403e-06	1325.6	317.79	1.2697e-05	9.4318e-06	417.82	121.46	88.19	28.877	7.5324e-06	40.955	0.0011084	0.0016545	0.00039299	844.8	1.428e-05	1.5535e-05	1031.1	248.69	1.3952e-05	1.5845e-05	326.92	95.411	69.209	22.974	1.4477e-05	32.432	363.071	271.955	222.008	178.363	230.728	327.950	176.703	183.554	287.934	332.321	180.525	185.861	187.853	192.857	275.509	189.404	-8191	255	
18433.326	1	1	0	0	0.047036	0.17852	0.11433	0.074574	0.18842	0.21955	0.3004	0.20703	0.077985	0.1426	0.30529	0.20807	0.18858	0.084467	0.13595	0.11999	-2.3229	-2.9146	-2.4875	-3.0229	-2.9313	-2.8854	-3.25	-2.7333	-2.8812	-2.9167	-2.7	-2.9313	-2.9854	-2.5521	-3.0583	-2.7667	344.538	421.755	308.311	179.429	393.037	361.803	467.467	509.154	250.940	284.283	524.071	524.662	495.293	426.215	472.011	271.589	0.00098394	0.00083287	0.0001152	1080.8	7.5815e-06	5.5946e-06	1324.6	319.75	4.2184e-06	5.2264e-06	423.35	124.8	87.307	29.153	1.4579e-05	40.876	0.001145	0.0018082	0.00036729	842.03	1.4856e-05	1.5862e-05	1030.4	249.31	1.376e-05	1.4694e-05	329.21	96.661	68.692	23.114	1.4688e-05	32.252	361.743	192.836	279.118	178.384	311.522	265.146	177.096	183.487	268.762	332.192	180.935	185.944	187.921	193.637	345.504	189.418	-8191	255	
18433.447	1	1	0	0	0.050397	0.17974	0.1225	0.13749	0.17931	0.084141	0.29353	0.20158	0.20281	0.14873	0.13624	0.19568	0.3047	0.076694	0.081334	0.15544	-2.3521	-2.9521	-2.6354	-3.1854	-2.7042	-2.6396	-2.9771	-2.8563	-2.7271	-3.1688	-2.6375	-2.8375	-2.8583	-2.65	-2.8979	-2.8792	473.347	284.195	243.520	443.076	393.272	394.831	447.968	488.475	292.871	405.110	469.480	423.199	470.592	409.824	301.130	483.550	0.0010043	0.00074606	0.00020383	1084.5	6.6132e-06	2.3454e-07	1335.5	318.84	1.1603e-05	1.4016e-05	421.83	122.82	88.52	29.402	9.0619e-06	40.948	0.0011698	0.0016721	0.00038709	842.94	1.37e-05	1.4642e-05	1035.7	249.92	1.3813e-05	1.6029e-05	329.31	96.23	69.173	23.191	1.4198e-05	32.463	358.364	264.527	258.606	178.087	263.138	449.975	177.276	182.912	287.467	332.402	180.565	185.889	187.714	193.656	389.708	189.377	-8191	255	
18433.545	1	1	0	0	0.19888	0.069724	0.30556	0.096323	0.22942	0.2438	0.26726	0.39325	0.1994	0.25654	0.092472	0.17714	0.16391	0.2006	0.11408	0.22683	-2.3729	-2.8063	-2.5458	-3.0125	-2.8229	-2.7146	-3.1521	-2.8083	-2.8083	-2.9292	-2.6604	-3.0083	-2.825	-2.65	-3.1188	-2.7188	506.760	361.767	396.611	425.118	446.334	285.952	453.294	449.536	462.326	183.047	504.902	409.209	351.274	519.097	179.952	170.005	0.00083859	0.00031133	0.00028603	1091	1.0718e-05	1.3997e-06	1328.8	323.24	1.0585e-05	9.5322e-06	422.31	124.39	87.538	29.008	2.0991e-06	41.084	0.0010813	0.0017933	0.00040471	848.18	1.4532e-05	1.5231e-05	1033.4	251.16	1.367e-05	1.5258e-05	331.36	96.642	69.03	23.042	1.4676e-05	32.297	352.180	197.867	273.954	178.239	344.665	273.389	176.643	183.393	200.958	330.427	180.998	185.554	188.167	193.085	340.550	189.384	-8191	255	
18433.641	1	1	0	0	0.23382	0.24758	0.21535	0.2348	0.032578	0.1868	0.34025	0.23542	0.2841	0.22333	0.14568	0.41783	0.11469	0.34295	0.041112	0.081019	-2.2729	-2.8146	-2.7188	-2.8979	-2.925	-2.6979	-3.2	-2.7646	-2.8375	-2.9208	-2.925	-2.9229	-2.85	-2.7146	-2.875	-2.975	363.470	499.300	202.967	495.455	355.513	469.185	452.726	416.063	274.307	167.350	375.250	445.198	171.614	500.096	273.933	449.348	0.0010577	0.00071757	0.00019901	1092.6	1.1832e-05	8.5637e-06	1333.7	322.1	1.2402e-06	6.4514e-06	425.03	124.43	88.621	29.013	5.1864e-06	40.457	0.0011529	0.0016284	0.00040116	850.33	1.3868e-05	1.478e-05	1035	251.36	1.4089e-05	1.5156e-05	329.78	96.653	69.089	23.127	1.4166e-05	32.168	366.386	263.168	298.675	178.290	284.732	377.723	176.553	183.787	415.048	339.835	181.088	185.586	189.003	193.071	328.346	190.089	-8191	255	
18433.711	1	1	0	0	0.10959	0.26865	0.14443	0.33521	0.017689	0.11315	0.081915	0.56306	0.16037	0.063624	0.28755	0.14547	0.046655	0.22137	0.12507	0.14998	-2.3521	-3.0521	-2.7021	-2.9708	-3.025	-2.8083	-3.0146	-2.775	-2.5542	-2.9688	-2.9	-2.8646	-3.0521	-2.7146	-2.9292	-2.8438	166.593	253.030	355.006	500.161	433.856	168.977	518.767	442.129	514.994	507.817	482.278	506.010	488.811	241.439	184.860	425.260	0.00075977	0.00030831	0.00025916	1087.7	3.3426e-06	1.0811e-06	1334.6	320.8	1.003e-05	8.2658e-06	423.82	123.19	87.652	29.209	4.8992e-06	41.246	0.0010849	0.0015698	0.00040873	844.76	1.3588e-05	1.3827e-05	1035.8	251.03	1.3641e-05	1.4402e-05	330.69	96.256	68.845	23.195	1.35e-05	32.476	364.118	208.235	224.260	178.284	310.317	350.763	177.167	183.578	297.331	342.970	181.187	185.373	188.818	193.980	354.192	189.773	-8191	255	
18433.830	1	1	0	0	0.062221	0.26252	0.12011	0.21295	0.24286	0.15738	0.36562	0.3219	0.21617	0.26478	0.40612	0.30678	0.40704	0.074231	0.024668	0.27456	-2.35	-3.0771	-2.6	-2.9479	-3.0125	-2.8229	-2.9354	-3.0229	-2.8104	-3.0771	-2.7375	-2.7583	-3.0312	-2.7958	-2.9	-2.9792	197.588	394.062	455.197	485.850	413.272	400.166	447.083	500.813	517.079	488.384	472.608	488.765	240.734	369.621	173.527	482.479	0.0011768	0.00070787	0.00034219	1085.9	2.3082e-06	1.4943e-06	1322.1	320.63	1.4477e-05	7.4657e-06	421.68	123.61	88.509	29.394	8.8387e-06	41.202	0.0010469	0.0013222	0.00044015	845.45	1.3492e-05	1.4698e-05	1035.1	249.95	1.3415e-05	1.4747e-05	328.94	96.959	69.334	23.235	1.4532e-05	32.544	356.054	197.035	237.173	178.189	320.411	458.437	177.382	183.428	217.952	236.731	180.982	185.621	188.316	193.261	326.746	190.390	-8191	255	
18433.928	1	1	0	0	0.11071	0.19041	0.080228	0.28002	0.30863	0.13287	0.11159	0.30016	0.039559	0.18453	0.16303	0.19065	0.26153	0.13296	0.21773	0.10569	-2.2771	-2.9667	-2.7958	-2.8833	-2.9271	-2.7562	-3.0167	-2.9833	-2.6604	-3.0125	-2.8917	-2.6771	-3.1333	-2.7896	-2.7208	-3.0583	487.581	193.920	224.579	501.300	282.940	311.274	500.626	469.400	196.236	521.928	444.890	506.195	311.870	484.095	458.709	496.525	0.0010226	0.001098	0.00025491	1091.8	1.3872e-05	2.0467e-06	1318.3	318.85	1.9548e-05	9.2191e-06	415.26	123.71	88.046	29.523	8.1921e-06	40.822	0.0010392	0.0013344	0.0004617	844.51	1.3164e-05	1.4668e-05	1027.8	249.78	1.3957e-05	1.436e-05	327.65	96.534	68.637	23.239	1.3729e-05	32.287	355.938	245.317	233.751	178.250	301.772	324.755	177.064	183.154	314.908	367.663	180.794	185.376	188.700	193.867	306.811	189.871	-8191	255	
18434.023	1	1	0	0	0.27903	0.3003	0.066025	0.25367	0.17064	0.19346	0.2334	0.059758	0.047565	0.087033	0.37689	0.1571	0.24739	0.061067	0.17252	0.13773	-2.1896	-2.825	-2.7521	-2.6583	-2.9146	-2.7667	-2.8438	-3.0104	-2.7021	-2.9458	-3.0896	-2.6458	-3.0333	-2.625	-2.7313	-3.0438	189.879	459.822	341.379	438.451	413.567	203.019	443.488	469.159	242.070	469.089	470.910	513.007	498.796	425.064	329.533	435.539	0.00089601	0.0006646	0.00019187	1080.8	7.3617e-06	5.0186e-06	1332.2	318.33	2.0398e-05	8.9951e-06	417.75	124.22	87.024	29.21	1.2236e-05	40.788	0.0010911	0.0013802	0.00044186	844.42	1.3265e-05	1.4808e-05	1032	249.9	1.3034e-05	1.5038e-05	327.03	96.768	68.441	23.152	1.3459e-05	32.234	361.302	234.713	249.660	177.735	347.493	292.571	177.087	182.992	335.139	348.975	181.251	185.287	187.725	193.046	303.695	189.211	-8191	255	
18434.119	1	1	0	0	0.154	0.0097924	0.086344	0.17573	0.11997	0.097362	0.41844	0.15101	0.13843	0.14474	0.28716	0.10971	0.10597	0.096757	0.087266	0.053657	-2.2313	-2.9125	-2.8708	-2.6521	-3.0604	-2.7438	-2.7104	-3.025	-2.6937	-2.8563	-3.0229	-2.9271	-3.0708	-2.8375	-2.7958	-2.9292	514.200	425.110	180.791	415.138	515.698	488.351	496.758	183.553	194.250	456.029	179.460	285.080	489.233	445.021	180.450	268.134	0.0012412	0.00078399	0.00011415	1093.4	3.943e-06	3.1374e-06	1325.1	319.62	2.809e-05	7.9561e-06	423.66	125.24	87.915	29.408	4.0466e-06	41.017	0.0010736	0.0013339	0.00049704	844.54	1.3308e-05	1.4505e-05	1031.1	250.25	1.3825e-05	1.4039e-05	331.71	97.087	68.853	23.274	1.3685e-05	32.519	364.330	219.114	255.698	177.455	270.266	415.932	176.927	183.426	356.579	287.632	180.839	185.653	188.150	193.813	513.510	189.402	-8191	255	
18434.238	1	1	0	0	0.16088	0.20072	0.13383	0.20363	0.1447	0.14729	0.19339	0.27969	0.20263	0.27184	0.034558	0.31209	0.25091	0.11072	0.19155	0.18288	-2.2562	-2.6792	-2.9083	-2.8333	-3.0312	-2.625	-2.85	-2.9833	-2.7167	-2.8333	-3.2021	-2.7958	-2.9188	-2.8688	-2.7438	-2.9333	284.475	326.498	494.605	485.094	312.459	363.189	448.804	400.375	382.921	517.504	378.821	411.399	462.810	168.770	170.263	453.512	0.0010066	0.0005662	0.00024953	1087	1.0912e-05	6.5152e-06	1328.7	320.17	1.3179e-05	3.7725e-06	421.91	123.27	86.543	29.525	1.0433e-05	41.404	0.00105	0.0012748	0.00043959	844.57	1.4051e-05	1.485e-05	1033	249.66	1.4491e-05	1.4993e-05	330.57	96.654	68.198	23.325	1.4273e-05	32.648	366.494	265.445	234.139	177.744	304.882	184.421	176.782	183.784	347.486	260.441	180.861	185.104	188.638	193.499	319.599	189.673	-8191	255	
18434.311	1	1	0	0	0.17939	0.095728	0.060483	0.17669	0.096374	0.15707	0.335	0.35551	0.1196	0.32054	0.31361	0.22379	0.23268	0.090457	0.23802	0.17844	-2.2938	-2.875	-2.9	-2.5792	-2.8208	-2.75	-2.7896	-3.1583	-2.5771	-2.8167	-2.9542	-2.8625	-2.8458	-2.9229	-2.8125	-3.0083	368.363	375.977	341.996	501.787	332.925	240.034	485.483	480.789	386.038	308.422	445.268	488.521	407.545	189.927	496.254	342.859	0.0011294	0.00092658	0.00019705	1083.4	6.5435e-06	1.8574e-06	1317.7	320.99	1.1421e-05	4.6124e-06	415.29	122.67	86.978	28.562	5.837e-06	40.931	0.0011045	0.0013799	0.00046955	842.06	1.3952e-05	1.448e-05	1022.5	248.89	1.5987e-05	1.4609e-05	326.59	95.677	68.156	22.907	1.433e-05	32.242	371.693	194.746	271.454	177.801	340.507	271.924	177.031	183.124	372.304	305.298	180.765	185.816	188.436	192.729	282.977	189.618	-8191	255	
18434.432	1	1	0	0	0.29854	0.12522	0.25585	0.33305	0.1618	0.031589	0.32897	0.19879	0.33266	0.25386	0.076554	0.14204	0.031194	0.1057	0.14267	0.20217	-2.2833	-2.6583	-2.8271	-2.5271	-2.8167	-2.85	-2.8271	-2.9458	-2.9042	-2.6937	-2.9854	-2.8688	-2.9354	-2.9208	-2.6625	-2.9938	190.238	452.793	513.474	453.562	322.857	472.049	515.255	440.978	322.942	322.426	228.097	384.216	191.897	506.167	232.534	419.999	0.00083551	0.00077451	0.00036444	1081.3	2.4478e-07	1.3257e-05	1312.5	318.32	1.1257e-05	7.4241e-06	416.08	120.71	86.162	28.705	5.1613e-06	40.623	0.0010859	0.0013021	0.00043459	840.18	1.3403e-05	1.4914e-05	1019.5	246.64	1.6615e-05	1.5006e-05	324.24	94.951	67.405	22.791	1.3968e-05	32.051	359.943	306.710	205.121	178.266	403.030	392.465	176.765	183.552	449.883	326.592	180.624	185.752	188.733	193.108	246.153	189.522	-8191	255	
18434.527	1	1	0	0	0.14511	0.10605	0.17189	0.3583	0.14968	0.015389	0.26632	0.23589	0.082521	0.1153	0.036368	0.14956	0.066286	0.25018	0.093056	0.04471	-2.4604	-2.7021	-2.8604	-2.8979	-2.8667	-3.0896	-2.7708	-2.7979	-2.9083	-2.7021	-3.0396	-2.7313	-2.8792	-2.8542	-2.6396	-3.0271	337.528	214.964	267.862	490.802	222.968	436.449	489.028	423.935	471.465	336.283	384.777	430.881	417.121	522.413	412.505	387.261	0.0010208	9.626e-05	0.0002669	1067.5	9.4313e-06	4.2889e-06	1314.7	313.32	1.3693e-05	3.4374e-06	419.82	122.45	87.077	28.781	4.2678e-06	40.265	0.001081	0.001404	0.0004244	831.41	1.3308e-05	1.3828e-05	1019.6	245.3	1.6187e-05	1.4356e-05	327.12	95.367	67.637	22.868	1.4368e-05	31.874	364.512	473.888	275.118	178.127	316.478	352.368	177.057	183.238	367.641	437.110	180.741	185.700	188.208	192.239	292.827	188.804	-8191	255	
18434.623	1	1	0	0	0.20934	0.056321	0.058725	0.27152	0.035771	0.18531	0.18691	0.16523	0.21717	0.043849	0.11341	0.067706	0.28473	0.14055	0.14059	0.071065	-2.5667	-2.7333	-2.9083	-2.9521	-2.5354	-3.1396	-2.8271	-2.9604	-2.6708	-2.7167	-2.9333	-2.8042	-2.7646	-2.875	-2.8	-3.0062	311.648	445.906	353.963	515.856	454.773	289.524	485.661	171.780	225.104	465.432	406.259	244.529	188.077	462.053	499.146	415.694	0.0011602	0.0009866	0.00021606	1073.6	1.419e-06	4.7539e-06	1317.2	314.33	1.3677e-05	4.5727e-06	420.83	122.74	87.076	28.496	1.3715e-05	40.047	0.0011153	0.0013238	0.00038279	836.39	1.333e-05	1.4185e-05	1020.6	245.77	1.6422e-05	1.4256e-05	327.29	95.637	67.723	22.606	1.3031e-05	31.798	366.694	266.951	249.895	177.865	298.974	390.489	176.997	183.495	281.036	253.108	181.641	186.046	188.378	193.405	349.956	190.019	-8191	255	
18434.721	1	1	0	0	0.27166	0.24522	0.18932	0.44245	0.037268	0.23279	0.20582	0.28501	0.21007	0.10896	0.224	0.1248	0.043066	0.25357	0.19584	0.21134	-2.3354	-2.5563	-2.825	-2.8583	-2.7	-3.0062	-2.7958	-3.1271	-2.8542	-2.6583	-2.9479	-3.025	-2.7021	-3.0812	-2.5854	-2.8646	450.993	522.115	294.222	493.178	208.345	472.129	499.512	174.671	497.210	336.832	263.987	448.052	292.795	405.731	314.233	455.080	0.0011586	0.00056443	0.000157	1065.4	4.3743e-06	7.0689e-06	1307.8	314.75	2.815e-06	5.1114e-06	414.37	121.06	86.256	28.829	8.2015e-06	39.948	0.0010074	0.0012304	0.00035417	832.37	1.3188e-05	1.4327e-05	1017.4	245.71	1.5275e-05	1.4644e-05	324.28	94.673	67.283	22.674	1.475e-05	31.792	355.070	270.833	288.912	178.241	381.727	315.216	177.134	183.146	232.437	363.438	181.141	185.407	188.366	193.863	265.039	189.293	-8191	255	
18434.842	1	1	0	0	0.22229	0.10473	0.28842	0.44303	0.11684	0.18244	0.21024	0.20421	0.028933	0.15738	0.28074	0.31368	0.11081	0.16851	0.26184	0.032503	-2.675	-2.6458	-3.0604	-3.0146	-2.6854	-2.8521	-2.8438	-2.925	-3.0354	-2.8208	-3.0021	-3.0729	-2.6688	-3.0042	-2.7271	-2.8604	516.287	368.079	393.342	509.275	460.456	356.487	436.365	450.226	447.293	291.828	491.465	505.691	190.288	222.397	481.040	238.794	0.0012726	0.00018769	0.00039485	1068.2	5.3922e-06	3.3154e-06	1302.7	314.9	6.7584e-06	5.2362e-06	409.94	121.16	85.297	28.481	1.3065e-05	40.137	0.0010454	0.0013026	0.00036369	833.31	1.2877e-05	1.4618e-05	1012.1	244.7	1.677e-05	1.4309e-05	321.72	94.362	67.027	22.481	1.5805e-05	31.688	362.640	200.779	242.172	177.915	253.201	320.401	176.951	183.248	275.910	309.165	181.074	185.507	188.032	193.105	337.519	189.518	-8191	255	
18434.936	1	1	0	0	0.15846	0.079615	0.31353	0.2652	0.079239	0.093742	0.29479	0.15481	0.23806	0.12497	0.2162	0.30144	0.16438	0.048835	0.080243	0.11134	-2.3542	-2.7562	-2.8688	-2.8771	-2.5979	-3.1042	-2.9375	-2.9	-3.0146	-2.7104	-3.2146	-2.9375	-2.8021	-2.8187	-2.7812	-2.7771	271.575	248.033	383.728	439.264	405.706	356.917	431.399	476.684	232.538	322.357	453.148	439.927	167.107	464.706	471.216	517.928	0.0011472	5.0013e-05	0.00015615	1067	1.1189e-05	8.7551e-06	1314.6	312.78	6.1726e-06	7.9496e-06	415.8	121.81	85.845	28.46	1.3334e-05	40.341	0.0010549	0.00125	0.00036359	828.45	1.3482e-05	1.349e-05	1016.1	244.32	1.5985e-05	1.4016e-05	323.91	94.842	67.391	22.541	1.7296e-05	31.775	366.646	250.905	190.536	178.295	302.617	341.198	176.694	183.618	328.972	390.152	181.373	185.830	188.161	193.868	338.802	189.418	-8191	255	
18435.008	1	1	0	0	0.017961	0.18823	0.3913	0.19849	0.036213	0.073016	0.37461	0.1806	0.25756	0.17178	0.14811	0.39709	0.067066	0.1457	0.2828	0.11879	-2.7771	-2.7229	-2.6896	-2.9813	-2.5833	-2.9354	-2.85	-2.8208	-2.8104	-2.8479	-3.025	-3.0542	-2.6625	-3.0812	-2.9542	-2.7687	338.133	197.082	243.638	438.774	354.637	512.200	506.171	173.553	205.121	305.739	448.254	515.680	471.943	251.454	444.206	519.529	0.001205	0.00095145	0.00022192	1061.4	4.6662e-06	4.4135e-06	1307.5	312.72	1.1898e-05	8.271e-06	416.69	121.27	86.514	28.565	9.8836e-06	41.119	0.0010238	0.0012301	0.00034253	828.92	1.2909e-05	1.3641e-05	1013.7	244.05	1.416e-05	1.4812e-05	324.36	94.66	67.395	22.69	1.5263e-05	32.248	360.025	273.377	188.697	178.347	285.861	319.566	176.709	183.473	373.831	349.085	181.295	185.629	188.195	193.404	330.686	189.455	-8191	255	
18435.129	1	1	0	0	0.14276	0.17066	0.13984	0.1655	0.13584	0.15304	0.21572	0.33301	0.26242	0.17745	0.12751	0.20837	0.24248	0.061654	0.079646	0.20516	-2.6688	-2.7458	-2.6958	-3.1396	-2.4771	-3.0854	-2.9792	-2.7604	-3.1208	-2.8438	-2.8104	-2.8167	-2.6083	-2.8125	-2.8729	-2.8146	425.752	328.395	438.847	431.413	215.263	394.443	324.864	437.772	352.186	180.153	503.494	425.181	423.742	474.226	242.714	432.666	0.0012997	0.00058477	0.00016131	1070.3	1.196e-05	8.8097e-07	1312.4	314.75	5.5031e-06	4.6147e-06	417.9	123.03	87.677	28.808	1.6036e-05	41.115	0.0010131	0.0012731	0.00034342	835.04	1.2436e-05	1.2812e-05	1020	246.07	1.2196e-05	1.6991e-05	326.68	95.515	67.956	22.81	1.6378e-05	32.256	355.783	317.178	288.850	178.194	333.664	202.252	177.163	183.151	307.158	322.891	181.790	184.923	187.966	193.619	296.160	189.453	-8191	255	
18435.225	1	1	0	0	0.24714	0.23815	0.2848	0.24174	0.22811	0.21747	0.29542	0.26591	0.10106	0.20513	0.078258	0.34769	0.11176	0.17793	0.0506	0.29304	-2.6083	-2.6479	-2.7104	-3.0438	-2.425	-2.7979	-3.0146	-2.6729	-3.1375	-2.8417	-2.7562	-3.0563	-2.8187	-2.9792	-2.825	-2.7396	283.664	246.449	260.686	505.331	394.287	294.257	468.962	438.002	204.693	357.278	457.290	486.063	174.580	462.831	268.064	467.839	0.00091437	0.0010167	0.00021884	1069	4.1488e-06	7.0287e-06	1314.9	315.76	8.4196e-06	5.5022e-06	412.87	121.61	87.27	28.519	1.305e-05	40.329	0.0010117	0.0012052	0.0003425	833.14	1.2546e-05	1.3379e-05	1020.5	245.24	1.25e-05	1.8647e-05	325.17	95.633	67.605	22.634	1.5745e-05	31.934	363.437	308.490	240.421	178.662	346.946	241.069	176.683	182.821	310.047	355.202	181.384	185.436	188.911	193.966	333.091	189.849	-8191	255	
18435.320	1	1	0	0	0.065949	0.081261	0.072517	0.048555	0.16463	0.1447	0.23524	0.10084	0.18614	0.17759	0.2524	0.07485	0.15893	0.10209	0.13104	0.066069	-2.6792	-2.6667	-2.7229	-3.0687	-2.8583	-3.0333	-3.0146	-2.9979	-2.9188	-3.0229	-2.9	-2.8521	-2.8604	-2.8667	-2.8521	-2.7188	399.788	253.550	278.626	210.513	339.660	399.215	497.796	376.868	367.966	411.740	456.355	435.412	514.676	385.446	166.745	235.064	0.0011478	0.00025875	0.00021144	1067	9.0424e-06	3.6148e-06	1310.9	316.37	9.7256e-06	4.5148e-06	416.76	122.9	87.339	28.933	1.2902e-05	40.381	0.0010387	0.0012958	0.0003481	830.58	1.5118e-05	1.4122e-05	1020	246.01	1.2159e-05	1.7734e-05	324.95	96	68.135	22.836	1.6693e-05	32.135	361.218	449.528	330.634	177.735	332.421	351.014	176.523	183.411	226.303	169.920	181.143	185.116	187.971	193.160	293.284	189.988	-8191	255	
18435.416	1	1	0	0	0.019398	0.2028	0.040449	0.10333	0.18116	0.040084	0.18584	0.32945	0.17805	0.15077	0.11134	0.26458	0.33427	0.34019	0.14609	0.15652	-2.5583	-2.8521	-2.7375	-2.9333	-2.8167	-2.8167	-3.1792	-2.8688	-2.8104	-2.9688	-2.9125	-3.2458	-2.8792	-2.9437	-3.1958	-2.7167	288.233	232.806	229.103	253.357	487.283	358.050	467.980	491.353	307.178	223.130	426.069	512.186	491.680	200.950	355.685	399.384	0.0010723	0.0010724	8.7144e-05	1087.5	8.4086e-06	7.2535e-06	1326.7	317.73	1.505e-05	1.0249e-05	421.48	123.39	87.081	29.072	1.0467e-05	41.333	0.0010518	0.0012489	0.00036025	840.91	1.6245e-05	1.398e-05	1031	248.03	1.2902e-05	1.8206e-05	330.08	96.69	68.006	23.002	1.6229e-05	32.572	358.285	264.818	337.964	178.238	335.575	252.519	176.819	183.149	320.734	359.850	180.599	185.855	187.953	193.417	295.107	189.713	-8191	255	
18435.537	1	1	0	0	0.16149	0.19993	0.095315	0.028024	0.087634	0.076321	0.15332	0.31107	0.18721	0.20848	0.08387	0.20066	0.35046	0.12242	0.14415	0.082384	-2.4792	-2.9646	-2.5312	-2.9583	-2.8729	-2.8	-3.15	-2.7667	-2.8167	-2.8604	-2.7792	-3.0583	-2.8646	-2.8292	-3.0021	-2.7062	510.508	257.016	291.353	253.363	179.342	335.357	433.915	453.166	483.232	180.950	477.968	461.502	479.581	469.299	492.697	315.202	0.0010368	0.00059636	3.5064e-05	1084	6.1669e-06	6.0721e-06	1331.9	319.57	2.3718e-05	4.3336e-06	419	122.63	87.712	29.315	8.6456e-06	40.912	0.0010608	0.0012427	0.00036919	841.82	1.7988e-05	1.4966e-05	1033.6	248.98	1.2891e-05	1.7411e-05	328.5	96.26	68.344	23.093	1.4121e-05	32.425	368.552	516.041	378.132	178.056	266.364	399.579	176.882	183.495	293.338	265.598	181.473	185.623	187.876	194.166	308.731	189.412	-8191	255	
18435.607	1	1	0	0	0.19922	0.16888	0.24226	0.24288	0.24052	0.08865	0.095057	0.20412	0.15114	0.16162	0.25046	0.14484	0.23383	0.40212	0.21069	0.2942	-2.3146	-2.825	-2.6312	-2.9417	-2.9313	-2.8354	-3.15	-3.0125	-2.8646	-3.0187	-2.8083	-2.9792	-2.7562	-2.7812	-3.0646	-2.9125	291.208	300.195	475.560	455.542	460.011	392.191	515.352	485.439	215.733	222.628	492.606	435.944	468.947	492.923	447.386	439.303	0.0011237	0.0005528	0.00017302	1083.1	8.9153e-06	2.278e-06	1315.7	317.96	1.0864e-05	1.4399e-06	419.3	122.88	87.097	28.899	4.6845e-06	40.881	0.0010373	0.0012916	0.0003626	837.71	1.6723e-05	1.3653e-05	1024.5	247.42	1.2923e-05	1.7801e-05	327.22	95.604	67.984	22.781	1.2418e-05	32.41	367.212	229.695	228.297	178.064	302.359	409.442	177.307	183.473	315.496	383.404	180.808	185.829	188.038	193.363	301.135	189.957	-8191	255	
18435.703	1	1	0	0	0.081113	0.18164	0.037799	0.32635	0.12485	0.17694	0.17381	0.19672	0.034495	0.17549	0.028577	0.083813	0.0052493	0.23814	0.083341	0.18995	-2.575	-2.9521	-2.5646	-3.1063	-2.8812	-2.8271	-3.175	-2.8146	-2.6583	-3.1604	-2.8333	-2.9375	-2.9542	-2.6083	-3.0479	-2.9354	476.943	284.368	479.896	482.777	220.811	182.379	369.409	212.289	420.975	431.164	191.015	451.346	384.389	484.989	383.223	495.479	0.0013623	0.0006474	0.00025273	1077.9	7.649e-07	6.9572e-07	1313.9	315.43	1.2914e-05	1.3554e-06	418.94	123.06	85.797	28.648	3.5958e-06	40.562	0.0010738	0.0012298	0.00035728	832.47	1.6171e-05	1.4354e-05	1021.1	245.38	1.2852e-05	1.6208e-05	326.03	95.692	67.337	22.662	1.3426e-05	32.336	363.564	257.401	214.775	178.087	366.961	187.325	176.828	183.123	328.288	198.784	181.345	185.517	188.230	193.126	312.408	190.272	-8191	255	
18435.801	1	1	0	0	0.12492	0.17787	0.27743	0.12974	0.040092	0.27684	0.30943	0.09538	0.13036	0.045686	0.18832	0.15078	0.24681	0.16009	0.22115	0.20585	-2.1521	-3.025	-2.7042	-2.9021	-2.9146	-2.6063	-3.1375	-2.8187	-2.7917	-2.9167	-2.6813	-2.9354	-3.0312	-2.6646	-2.8854	-2.8646	378.289	238.992	212.217	504.583	282.476	456.071	496.632	344.744	403.594	201.697	454.154	493.595	185.935	496.264	312.207	332.096	0.0010262	0.00012358	0.00027145	1077.7	8.7261e-06	5.2879e-06	1309.5	312.93	1.5402e-05	1.6806e-06	420.88	123.68	87	28.811	7.2113e-06	40.341	0.0010862	0.001216	0.00034668	837.69	1.635e-05	1.3594e-05	1018.9	244.92	1.2221e-05	1.4572e-05	328.23	95.905	67.897	22.802	1.3537e-05	32.221	353.334	302.442	301.689	177.893	410.444	364.133	177.047	183.335	312.570	350.146	181.391	185.732	188.140	193.144	303.244	190.118	-8191	255	
18435.922	1	1	0	0	0.12598	0.19175	0.13552	0.12705	0.074503	0.090659	0.1635	0.2087	0.16735	0.28991	0.056921	0.17536	0.19001	0.37299	0.37265	0.20488	-2.3042	-3.0125	-2.6146	-3.1125	-2.8833	-2.6708	-3.0208	-3.0771	-2.7229	-3.1646	-2.85	-2.7938	-3.1771	-2.7583	-2.9813	-2.9667	495.369	274.647	408.204	498.119	479.850	272.877	492.822	174.248	403.893	238.691	497.325	418.697	497.130	453.962	190.567	405.049	0.00104	0.00080042	0.00020444	1070.6	2.9044e-06	9.6098e-06	1319.5	316.33	1.3191e-05	3.7496e-06	420.1	123.55	86.174	28.32	7.0065e-06	40.296	0.0010075	0.0012391	0.00036362	836.26	1.6346e-05	1.3789e-05	1025.9	246.98	1.2717e-05	1.4101e-05	327.86	95.875	67.607	22.613	1.2249e-05	32.142	360.545	183.999	233.230	178.361	345.495	270.368	176.763	183.469	272.317	240.545	180.891	185.467	188.691	193.174	391.084	190.006	-8191	255	
18436.016	1	1	0	0	0.25466	0.076821	0.088158	0.22712	0.10008	0.1129	0.38349	0.25645	0.34375	0.06918	0.25165	0.15054	0.18382	0.13032	0.24423	0.15004	-2.2833	-2.9729	-2.7438	-2.875	-3.1396	-2.6917	-3.1583	-2.9583	-2.6979	-3.2083	-2.8146	-2.775	-2.9167	-2.6646	-3	-2.9542	367.074	277.491	492.505	206.177	383.412	477.062	456.134	446.152	444.226	195.387	436.959	485.043	172.084	395.280	498.640	443.280	0.0010278	0.00078985	0.00011999	1064.8	7.0069e-06	3.8016e-06	1304.9	313.11	7.4843e-06	8.0619e-06	414.35	121.51	85.825	28.437	8.2118e-06	40.099	0.0010326	0.0012226	0.00035853	829.08	1.5127e-05	1.3667e-05	1013.9	243.75	1.2049e-05	1.2729e-05	325.15	94.952	66.875	22.461	1.2428e-05	31.798	359.491	194.333	315.406	178.031	336.610	314.722	177.461	183.276	339.297	367.221	181.077	185.493	188.140	193.638	267.187	189.173	-8191	255	
18436.111	1	1	0	0	0.32512	0.04293	0.098098	0.20941	0.23147	0.30631	0.10262	0.30801	0.088301	0.11842	0.061435	0.14166	0.17892	0.23005	0.093959	0.26398	-2.4062	-2.9625	-2.8667	-2.8021	-2.8958	-2.7146	-2.9813	-2.8771	-2.7188	-3.1063	-2.7646	-2.8167	-3.1813	-2.8333	-2.9229	-3.0458	429.967	257.019	487.257	184.366	264.586	367.643	216.666	451.522	443.312	437.549	204.752	491.304	507.262	370.303	446.610	267.790	0.0011179	0.00078402	0.00018871	1063	9.4247e-06	7.434e-06	1310.1	310.64	9.8374e-06	7.2708e-06	408	121.48	85.046	28.187	7.1975e-06	40.485	0.0010125	0.0011527	0.00034008	824.21	1.2979e-05	1.5843e-05	1009.7	242.12	1.2578e-05	1.3831e-05	321.75	94.74	66.725	22.391	1.3643e-05	31.906	355.353	190.235	232.968	178.069	390.798	266.921	177.018	183.396	323.815	347.177	180.640	185.631	188.199	192.864	216.455	189.412	-8191	255	
18436.207	1	1	0	0	0.31076	0.19165	0.31484	0.21273	0.1534	0.16188	0.28497	0.20454	0.051537	0.30139	0.22445	0.17456	0.043898	0.10649	0.092896	0.099586	-2.4562	-2.9979	-2.925	-2.8458	-2.9396	-2.7938	-3.0625	-3.0396	-2.8083	-3.1063	-2.9188	-2.8271	-3.0875	-2.8917	-2.9458	-3.1	281.781	480.118	432.509	175.758	313.504	508.323	458.235	481.674	507.383	237.356	410.877	210.891	392.106	434.632	301.912	209.473	0.00094282	7.0237e-05	0.00026333	1059.9	6.6938e-06	6.4724e-06	1306.3	313.75	1.5754e-05	1.3389e-05	413.97	121.9	86.798	28.799	7.3065e-06	40.781	0.0010151	0.0012632	0.00034568	823.89	1.3106e-05	1.6439e-05	1011.7	243.13	1.2308e-05	1.3142e-05	324.55	95.035	67.107	22.718	1.3033e-05	32.227	351.129	205.245	243.844	178.837	325.251	332.709	176.717	183.129	297.039	290.995	180.918	186.047	188.261	193.230	382.690	189.343	-8191	255	
18436.305	1	1	0	0	0.14538	0.18037	0.25362	0.25604	0.13004	0.23359	0.30313	0.32541	0.10968	0.059469	0.11426	0.22184	0.19252	0.051605	0.23216	0.30353	-2.1708	-2.8771	-2.7604	-2.7938	-3.0521	-2.8063	-3.0271	-3.2667	-2.8187	-3.0083	-2.9854	-2.6083	-3.0938	-2.9104	-2.7771	-3.2375	218.987	392.362	248.181	520.344	441.028	497.162	430.129	425.134	485.830	514.843	424.421	247.122	405.012	492.584	471.519	502.600	0.0010438	0.00081525	0.00023156	1061.5	8.0567e-06	9.9184e-06	1305.4	314.79	3.1075e-06	7.6437e-06	419.06	123.15	86.582	28.8	1.0301e-05	40.801	0.00095927	0.0012222	0.00032629	826.41	1.253e-05	1.7561e-05	1015.5	245.07	1.1557e-05	1.3242e-05	326.98	96.351	67.605	22.797	1.2795e-05	32.263	372.692	204.450	266.700	178.115	302.643	400.916	176.931	183.483	346.636	416.450	180.821	185.922	187.781	194.093	296.613	189.948	-8191	255	
18436.400	1	1	0	0	0.11066	0.084332	0.093836	0.14796	0.13985	0.23249	0.25192	0.18851	0.064658	0.090527	0.42367	0.20909	0.13685	0.13223	0.08886	0.16785	-2.1521	-2.8063	-2.9042	-2.675	-2.9188	-2.9062	-2.875	-3.075	-2.8688	-2.8896	-2.9875	-2.9521	-3.0896	-2.8104	-2.7687	-3.1375	280.746	214.296	511.801	480.882	173.127	366.338	463.975	470.461	305.392	220.300	459.118	525.597	486.068	432.022	275.217	382.942	0.001256	0.00046669	0.00022507	1076.9	4.4857e-06	1.3738e-06	1311.9	315.52	3.7632e-06	8.1551e-06	417.15	121.69	86.45	28.905	6.2155e-06	40.827	0.0011522	0.0011632	0.00033518	829.28	1.3001e-05	1.6401e-05	1013.2	245.54	1.2955e-05	1.3009e-05	325.68	95.049	67.282	22.818	1.3018e-05	32.192	353.688	330.648	284.657	177.949	377.519	519.924	177.169	183.763	273.344	269.699	180.538	185.691	188.381	193.490	308.402	189.560	-8191	255	
18436.521	1	1	0	0	0.22024	0.18635	0.16379	0.34447	0.06629	0.1634	0.19046	0.15293	0.17853	0.066725	0.1826	0.28955	0.24743	0.16023	0.095556	0.20733	-2.1542	-2.8604	-3.0042	-2.7542	-3.0625	-2.8125	-2.7833	-3.1688	-2.7687	-2.8312	-3.0938	-2.9021	-3.1312	-2.9229	-2.8146	-3.2354	502.287	460.710	386.637	219.106	381.228	504.689	486.938	477.633	201.326	476.642	429.490	480.187	464.108	515.180	222.430	506.450	0.0010781	4.5845e-05	4.4679e-05	1066	7.1744e-06	8.9708e-06	1311.3	313.21	1.3086e-05	5.1794e-06	415.66	121.1	86.356	28.87	1.5878e-06	40.864	0.0011999	0.0011879	0.00033846	828.23	1.2569e-05	1.6926e-05	1016.3	244.22	1.1644e-05	1.2925e-05	325.18	95.042	67.553	22.739	1.2971e-05	32.19	360.948	237.628	280.910	178.234	281.771	406.703	176.811	183.156	244.639	297.811	180.959	185.701	187.675	193.624	338.429	189.527	-8191	255	
18436.617	1	1	0	0	0.15784	0.031575	0.10812	0.11923	0.19049	0.072437	0.42303	0.16753	0.2536	0.14456	0.063331	0.072771	0.20268	0.22856	0.066369	0.058895	-2.2125	-2.75	-2.75	-2.7875	-3.0687	-2.975	-2.8854	-3.1479	-2.9625	-2.9542	-3.0979	-2.8438	-2.8937	-3.0604	-2.7562	-3.1333	513.573	347.669	334.750	520.998	174.036	458.515	450.974	448.352	212.167	307.713	252.693	415.093	468.411	418.421	432.703	468.995	0.001023	0.00014423	9.1624e-05	1074.2	6.6235e-06	6.0534e-06	1315.7	316.16	1.1639e-05	1.4375e-06	416.54	123.32	86.582	29.029	5.6986e-06	40.868	0.001248	0.0011993	0.00033808	831.37	1.3244e-05	1.6469e-05	1018.9	246.65	1.2198e-05	1.3445e-05	327.49	96.262	67.611	22.946	1.2831e-05	32.379	371.159	264.225	250.430	177.704	288.133	360.917	176.948	183.537	329.205	280.004	181.010	185.724	188.205	193.899	306.418	189.766	-8191	255	
18436.713	1	1	0	0	0.27024	0.10099	0.18648	0.21198	0.19825	0.031975	0.25854	0.22681	0.34727	0.20115	0.18553	0.19672	0.22763	0.37532	0.18127	0.27459	-2.4792	-2.8438	-2.9271	-2.7896	-2.6229	-2.9229	-2.6792	-2.9313	-2.7542	-2.8563	-3.1333	-2.95	-2.9854	-3.0333	-2.5833	-3.1208	406.996	399.811	404.701	509.650	416.290	442.471	516.439	496.390	343.049	365.815	166.910	495.375	436.551	486.618	501.511	488.446	0.00096534	0.0008327	3.2786e-05	1078.2	2.6661e-06	1.2526e-05	1307.6	315.23	1.4454e-05	2.3029e-06	416.87	123.92	87.002	29.137	6.4164e-06	40.827	0.0012564	0.0012027	0.00033147	837.7	1.2683e-05	1.7084e-05	1019.1	245.76	1.2118e-05	1.3635e-05	328.01	96.689	68.009	22.914	1.2428e-05	32.468	363.653	244.219	184.736	178.344	457.664	421.609	177.242	183.327	317.348	372.173	181.268	185.279	187.957	193.130	301.290	189.477	-8191	255	
18436.832	1	1	0	0	0.16755	0.12069	0.13547	0.16938	0.074928	0.074933	0.19588	0.17542	0.22851	0.087356	0.18286	0.30035	0.21449	0.071187	0.29912	0.077847	-2.4771	-2.875	-3.0708	-2.9979	-2.8187	-3.1271	-2.95	-3.0354	-2.9167	-2.9125	-3.3271	-2.8958	-2.8458	-3.1604	-2.8771	-2.8667	441.362	182.785	407.797	476.837	439.056	322.950	515.368	466.040	374.472	423.579	466.121	480.159	476.255	166.257	368.913	376.321	0.00089244	0.00066295	0.00019752	1072.6	2.8955e-06	4.0565e-06	1331.6	316.39	9.2806e-06	5.0948e-06	420.23	123.69	86.349	29.154	2.88e-06	40.582	0.0012638	0.001158	0.00034796	835.6	1.3034e-05	1.5595e-05	1025.9	247.02	1.2118e-05	1.4349e-05	327.89	96.796	67.847	22.832	1.2647e-05	32.274	369.873	196.096	246.526	178.254	239.550	362.679	176.622	183.694	325.168	421.754	180.841	185.556	188.142	192.736	306.304	189.991	-8191	255	
18436.904	1	1	0	0	0.12519	0.084772	0.10702	0.1829	0.27464	0.15511	0.22644	0.25056	0.35002	0.095981	0.30161	0.1222	0.18658	0.11259	0.10981	0.30438	-2.3979	-2.5854	-2.8125	-2.7521	-2.8979	-2.9958	-2.9875	-3.0229	-2.9646	-2.7271	-3.1292	-2.8896	-2.9125	-3.1937	-2.9021	-2.9104	379.292	373.157	263.835	509.979	512.766	474.825	466.915	467.128	284.229	225.511	452.678	378.094	192.284	172.402	438.273	252.509	0.0011391	0.0012933	0.00032109	1066.7	3.7366e-06	5.9839e-06	1306.2	314.98	8.3401e-06	6.4977e-06	412.85	122.44	86.066	28.638	1.0045e-05	40.46	0.0012233	0.0011449	0.00034332	832.83	1.2638e-05	1.3986e-05	1018.9	245.48	1.2315e-05	1.3662e-05	325.51	96.037	67.372	22.619	1.3018e-05	32.133	375.583	223.746	242.672	178.382	420.342	324.890	177.225	183.243	327.445	341.360	180.820	185.702	188.343	193.185	271.729	189.901	-8191	255	
18437.000	1	1	0	0	0.13095	0.19387	0.16687	0.17591	0.1668	0.19787	0.15783	0.29404	0.17363	0.24551	0.15442	0.23658	0.23943	0.11681	0.18972	0.34415	-2.6521	-2.8563	-2.8833	-2.9583	-2.7396	-3.1604	-3.0187	-3.1229	-3.0042	-2.7708	-3.1396	-2.9646	-2.6833	-3.2062	-2.7833	-3.0312	457.466	438.476	518.264	449.878	419.845	267.238	500.400	483.082	454.096	333.195	482.439	480.047	480.171	490.917	269.302	515.509	0.0010455	0.00058141	0.0002259	1066.4	2.5003e-06	3.0462e-06	1311	315.17	9.496e-06	8.374e-06	420.05	121.95	86.347	28.679	7.6266e-06	40.649	0.0012467	0.0012059	0.00035321	830.9	1.2916e-05	1.25e-05	1021.5	245.68	1.2169e-05	1.304e-05	325.83	95.44	67.26	22.747	1.2433e-05	32.211	363.167	290.774	259.670	178.374	453.218	509.111	176.735	183.789	311.678	370.741	181.765	185.941	188.281	193.365	321.821	189.405	-8191	255	
18437.096	1	1	0	0	0.14893	0.05227	0.11028	0.1668	0.16247	0.2274	0.19411	0.12552	0.18982	0.19363	0.20418	0.21017	0.19498	0.49284	0.23079	0.21901	-2.55	-2.8333	-2.9167	-3.0125	-2.6333	-2.9542	-2.9292	-3.1813	-3.1604	-2.7792	-2.9417	-2.9708	-2.7708	-2.9833	-2.8833	-2.8125	318.815	409.243	195.984	232.118	242.545	342.516	498.772	413.145	408.258	327.895	505.059	423.477	475.323	456.433	482.971	391.336	0.0010329	0.0009078	0.00026681	1070.2	6.0381e-06	5.192e-06	1316.5	314.99	1.0466e-05	6.4541e-06	420.46	122.06	86.631	28.515	4.4243e-06	41.148	0.0011264	0.0012107	0.00034389	832.08	1.2404e-05	1.3518e-05	1022.7	244.94	1.2377e-05	1.3766e-05	326.8	95.645	67.464	22.651	1.2452e-05	32.332	366.824	276.708	206.035	177.892	344.330	355.712	176.476	183.188	287.740	270.887	181.009	185.631	188.001	193.575	326.481	190.051	-8191	255	
18437.191	1	1	0	0	0.27019	0.14174	0.081454	0.047281	0.11038	0.12932	0.27603	0.073597	0.27501	0.15991	0.30775	0.22333	0.1785	0.25326	0.21686	0.23755	-2.5833	-2.8396	-3.0583	-3.0167	-2.6937	-3.15	-3.1521	-3.0938	-3.0563	-2.8958	-3.1417	-3.0333	-2.5854	-2.925	-2.8625	-2.8521	478.105	461.882	450.738	174.690	487.419	455.816	428.638	497.719	242.170	213.238	437.793	416.718	377.760	506.912	190.120	486.116	0.0011571	0.00044253	0.00016326	1074	2.2978e-06	7.2447e-06	1303.8	314.21	2.3558e-05	8.5502e-06	417.75	121.68	85.408	28.205	6.8576e-06	40.479	0.00099447	0.0014298	0.00035903	834.33	1.2451e-05	1.3109e-05	1017.8	244.89	1.2038e-05	1.322e-05	327.11	95.37	66.959	22.452	1.2268e-05	32.002	373.136	515.031	211.874	178.215	328.993	315.343	177.156	183.140	297.396	291.960	181.542	185.642	188.317	193.600	247.626	189.961	-8191	255	
18437.312	1	1	0	0	0.18248	0.17811	0.12626	0.1834	0.068301	0.2419	0.24817	0.25241	0.15021	0.032489	0.11105	0.12877	0.11112	0.1828	0.3103	0.093291	-2.7625	-2.7375	-2.8792	-3.0521	-2.8833	-3.0521	-3.0396	-2.9333	-3.1458	-2.7667	-2.9208	-2.9667	-2.7583	-3.0854	-3.0021	-2.9583	209.445	401.668	509.971	212.031	167.105	185.206	179.898	522.886	419.585	432.815	434.432	179.723	232.082	514.666	235.326	418.307	0.00089685	0.00061545	9.2414e-05	1055.6	8.8117e-06	9.8e-07	1296.9	311.91	8.0824e-06	5.5823e-06	413.88	121.13	85.447	28.448	5.7017e-06	39.999	0.0010179	0.0015478	0.0003561	823.74	1.2994e-05	1.3019e-05	1012.7	242.99	1.2086e-05	1.3646e-05	322.9	94.198	66.531	22.347	1.2531e-05	31.69	363.911	258.845	256.862	178.597	360.461	465.454	176.632	183.876	267.594	339.138	180.926	185.928	187.980	193.560	312.721	189.369	-8191	255	
18437.408	1	1	0	0	0.11854	0.099504	0.077443	0.34306	0.091123	0.047933	0.13565	0.12652	0.22051	0.25285	0.2276	0.18069	0.33261	0.23871	0.15421	0.077724	-2.5146	-2.8	-2.9729	-3.05	-2.6271	-3.1104	-2.8667	-2.8396	-3.15	-2.8312	-2.7229	-3.1583	-2.8667	-2.9062	-3.0875	-2.7521	266.688	255.649	209.748	517.784	377.317	261.884	341.748	455.275	224.571	477.554	468.649	495.600	515.183	413.117	217.135	477.005	0.0010646	0.00046221	0.00017083	1064.6	4.7164e-06	2.9849e-06	1300.9	311.92	1.0764e-05	3.353e-06	415	121.48	85.043	28.123	5.4807e-06	40.244	0.00099906	0.0015477	0.00036841	826.46	1.3141e-05	1.39e-05	1010.3	242.33	1.2431e-05	1.2659e-05	324.16	94.594	66.92	22.304	1.3015e-05	31.88	363.729	284.177	244.276	178.023	396.856	281.373	177.081	183.510	314.608	269.697	180.976	185.401	188.498	193.725	319.462	189.860	-8191	255	
18437.480	1	1	0	0	0.14134	0.19071	0.054878	0.097328	0.2805	0.26181	0.30408	0.26989	0.096944	0.18353	0.16386	0.16194	0.079129	0.21242	0.078742	0.20015	-2.5438	-2.7104	-2.8708	-3.05	-2.7708	-2.8563	-3.0458	-2.6792	-2.9771	-2.8417	-2.9271	-3.1875	-2.9146	-2.8458	-2.9354	-2.7375	221.061	247.160	498.329	302.169	200.743	349.593	482.301	451.286	449.004	474.921	450.564	281.585	468.955	205.989	457.973	181.114	0.0010398	0.00086014	0.00013408	1067.3	5.325e-06	8.8099e-06	1306.4	313.16	1.0215e-05	3.4684e-06	414.13	122.03	86.822	28.243	6.5838e-06	40.228	0.001027	0.0015339	0.00033826	828.58	1.2368e-05	1.3625e-05	1013	243.3	1.2238e-05	1.3765e-05	324.85	95.29	67.45	22.383	1.2778e-05	31.952	359.254	264.458	204.244	178.535	338.996	312.873	176.641	183.339	273.046	180.818	181.759	186.088	187.901	193.391	330.117	189.924	-8191	255	
18437.602	1	1	0	0	0.19393	0.13012	0.055967	0.28898	0.03184	0.1807	0.29341	0.11294	0.031279	0.099399	0.19843	0.05222	0.056673	0.28069	0.1016	0.18214	-2.5417	-2.9104	-2.7917	-2.9979	-2.8688	-2.8771	-3.0687	-2.7417	-2.9875	-2.9667	-2.8104	-3.2333	-2.8187	-2.8854	-2.9667	-2.8688	462.984	275.630	198.601	456.927	493.738	285.985	468.795	358.795	370.654	276.745	519.718	492.604	418.857	449.621	388.787	197.829	0.00093616	0.0013186	0.0002003	1068.7	7.3922e-06	5.5199e-06	1316.4	317.28	8.1993e-06	4.1705e-06	420.01	123.14	86.618	28.597	6.2449e-06	40.553	0.00097637	0.001559	0.00035081	834.59	1.1977e-05	1.3947e-05	1024.2	245.71	1.2757e-05	1.4112e-05	328.88	96.23	67.95	22.644	1.3142e-05	32.311	366.295	258.457	193.844	178.267	330.326	310.889	177.254	183.416	370.881	306.686	180.907	185.324	188.267	193.605	315.014	189.878	-8191	255	
18437.697	1	1	0	0	0.12717	0.038156	0.13754	0.27653	0.11421	0.095594	0.27057	0.34782	0.26763	0.12699	0.46397	0.094463	0.081535	0.35049	0.12148	0.12951	-2.3896	-2.9083	-2.75	-3.2438	-2.6083	-2.8104	-3.0833	-2.9271	-2.8312	-2.9625	-2.925	-2.8854	-2.8917	-2.9417	-2.9938	-2.8812	431.714	369.625	279.328	468.328	520.580	522.600	410.024	474.732	447.131	489.142	462.200	448.915	483.915	221.619	321.239	363.064	0.0012081	0.0011234	9.0041e-05	1084.8	5.4058e-06	6.3441e-06	1316.4	317.32	1.0109e-05	1.3278e-05	420.15	123.69	86.865	28.872	1.2293e-05	40.911	0.0010942	0.0015377	0.00037072	840.8	1.3493e-05	1.4267e-05	1023.7	247.91	1.3564e-05	1.3933e-05	328.73	96.81	68.041	22.831	1.3872e-05	32.411	361.027	272.167	266.412	178.366	263.080	305.031	176.982	183.271	335.363	331.112	181.098	185.788	188.452	193.463	316.099	189.726	-8191	255	
18437.793	1	1	0	0	0.26707	0.0723	0.18507	0.28395	0.051408	0.083813	0.28417	0.32674	0.083448	0.08567	0.27923	0.35833	0.15935	0.24484	0.24964	0.35094	-2.8187	-2.9688	-2.6104	-3.1	-2.8812	-2.9417	-3.0458	-2.6208	-2.7792	-2.9583	-2.7646	-3.0708	-2.9646	-2.8042	-2.975	-2.6688	349.301	327.741	193.846	495.201	284.003	172.499	447.077	455.035	231.445	422.980	489.285	420.410	329.965	189.673	200.408	520.277	0.0011723	0.00067682	8.9603e-05	1084.5	2.1599e-06	2.6081e-06	1328.4	317.08	1.8863e-05	3.2372e-06	422.71	123.66	87.97	28.964	5.4062e-06	41.236	0.0010905	0.0016976	0.00037227	842.26	1.3414e-05	1.4884e-05	1027.9	247.83	1.3129e-05	1.4008e-05	328.09	96.424	68.482	22.848	1.3618e-05	32.576	351.737	294.200	222.525	178.482	288.702	503.256	176.582	183.382	317.893	209.798	181.154	185.670	188.561	193.919	319.378	190.038	-8191	255	
18437.912	1	1	0	0	0.22772	0.12547	0.15319	0.39558	0.16213	0.24883	0.030226	0.28766	0.16134	0.088709	0.15499	0.43315	0.23728	0.22533	0.21116	0.11395	-2.3875	-3.0625	-2.5062	-2.9313	-2.7833	-2.7667	-3.3167	-2.9021	-2.7583	-3.1333	-2.7521	-3.2833	-2.9354	-2.8833	-3.1	-2.8729	232.400	242.186	448.618	439.091	199.063	331.671	205.209	496.507	238.890	505.944	298.979	171.683	468.629	185.703	461.345	441.850	0.0012256	0.0010015	9.2626e-05	1072.3	3.8081e-06	1.2151e-05	1321.4	316.46	9.763e-06	6.5922e-06	421.74	122.74	86.577	29.09	6.6565e-06	40.498	0.0010757	0.0015307	0.00038729	836.85	1.3373e-05	1.4741e-05	1028.7	247.3	1.3359e-05	1.517e-05	328.78	96.047	67.772	22.842	1.386e-05	32.276	364.167	271.417	232.984	178.002	268.575	313.944	177.035	183.107	296.273	270.937	180.717	185.155	187.909	193.761	352.776	190.127	-8191	255	
18438.010	1	1	0	0	0.12183	0.10055	0.15185	0.19847	0.12807	0.10332	0.29288	0.10564	0.33793	0.1722	0.14081	0.15509	0.14804	0.039047	0.24384	0.070852	-2.4833	-2.9875	-2.7375	-2.9479	-2.8646	-2.7604	-3.1646	-2.8979	-2.6937	-3.1458	-2.7896	-2.8417	-2.9437	-2.9	-2.9521	-2.8208	347.313	383.976	377.163	512.336	478.580	361.460	475.806	507.253	411.900	461.849	177.157	197.587	464.353	501.740	440.333	450.016	0.0011648	0.00012826	0.00012383	1082.4	5.1101e-06	7.6707e-06	1322.1	319.21	8.8766e-06	1.2908e-05	419.83	123.39	87.327	28.706	6.3514e-06	40.679	0.0010587	0.0012973	0.00045865	841	1.3464e-05	1.4326e-05	1027.6	248.47	1.2585e-05	1.4981e-05	328.97	96.313	67.986	22.562	1.3181e-05	32.308	368.733	279.836	277.031	178.136	378.996	344.677	176.780	183.609	342.284	282.173	180.862	185.843	187.759	193.343	246.455	190.043	-8191	255	
18438.105	1	1	0	0	0.12915	0.21454	0.19853	0.32898	0.18359	0.086066	0.3304	0.35143	0.12961	0.24603	0.21823	0.015011	0.27504	0.21431	0.12375	0.36709	-2.325	-3.1583	-2.7625	-3.1854	-2.7687	-2.7042	-3.0625	-3.0354	-2.8146	-3.1396	-2.9646	-2.7812	-2.8708	-2.7292	-3.0271	-2.7292	175.879	442.028	172.371	444.338	169.989	301.767	455.029	507.320	269.156	231.191	508.789	436.880	171.904	167.526	365.111	478.323	0.0011226	0.00022395	0.00013012	1075.7	5.841e-06	5.547e-06	1322.4	316.62	1.3925e-05	9.6074e-06	415.06	122.14	86.082	28.396	1.0154e-05	39.862	0.0010956	0.0013041	0.00046179	836.62	1.3216e-05	1.5327e-05	1024.1	247.19	1.3323e-05	1.5069e-05	325.59	95.387	67.532	22.412	1.3969e-05	31.703	360.055	471.673	217.851	178.280	339.345	343.512	177.053	183.785	285.010	316.799	181.268	185.936	188.336	193.071	319.026	189.543	-8191	255	
18438.201	1	1	0	0	0.074855	0.10199	0.10166	0.33664	0.2573	0.058932	0.23605	0.32544	0.17244	0.19361	0.12428	0.14856	0.038176	0.18486	0.14355	0.019292	-2.1813	-2.9667	-2.6792	-3.025	-3.0542	-2.8125	-3.0583	-2.8667	-2.6792	-2.9771	-2.8833	-2.9708	-3.0375	-2.8646	-3.0583	-3.0292	407.697	476.627	348.203	499.090	357.315	180.049	433.270	512.338	450.145	195.810	347.351	174.958	196.540	240.720	293.984	331.921	0.0012835	0.00074728	0.00028513	1082	3.7447e-06	3.8363e-06	1306.8	316.28	9.3163e-06	1.1354e-05	412.85	120.81	85.493	28.079	7.5999e-06	39.842	0.0010966	0.001283	0.00048099	838.4	1.3109e-05	1.4136e-05	1019.6	245.71	1.3214e-05	1.4978e-05	324.16	94.919	66.967	22.364	1.36e-05	31.926	350.949	220.968	249.022	178.173	211.449	210.336	176.734	183.050	357.457	287.076	181.142	185.406	187.916	193.191	304.571	190.023	-8191	255	
18438.297	1	1	0	0	0.046488	0.25506	0.083817	0.20969	0.097685	0.32795	0.25019	0.045512	0.20027	0.095347	0.29074	0.10235	0.15796	0.19429	0.1662	0.28638	-2.2875	-3.0292	-2.7771	-3.0521	-3.0292	-2.7917	-3.1521	-2.8187	-2.6979	-3.0375	-2.9229	-2.7958	-2.9167	-2.7042	-2.9688	-3.0542	261.313	293.232	451.744	490.449	307.565	335.632	482.396	518.291	337.664	456.444	469.426	206.944	267.119	510.136	376.618	513.302	0.0010594	0.00058932	0.00014227	1060.6	7.931e-06	5.193e-06	1318.1	318.8	8.5832e-06	2.6473e-06	414.1	122.48	85.486	28.128	7.3922e-06	40.595	0.0010747	0.0012819	0.00048137	829.77	1.3544e-05	1.4842e-05	1020.9	247.1	1.2845e-05	1.4685e-05	327.01	95.629	67.099	22.472	1.3881e-05	32.148	352.378	262.224	273.986	178.500	298.849	304.777	176.744	183.316	229.687	355.525	181.105	186.327	187.890	193.313	290.454	189.235	-8191	255	
18438.393	1	1	0	0	0.23537	0.19097	0.13005	0.38244	0.22605	0.12991	0.11536	0.11263	0.20266	0.24657	0.12517	0.27065	0.10149	0.26437	0.24787	0.20188	-2.1021	-3.0208	-2.7979	-2.7562	-2.9458	-2.9062	-2.9458	-3.0896	-2.5687	-2.975	-2.9875	-2.8042	-3.1188	-2.7896	-2.7229	-2.9104	435.376	401.640	388.344	363.429	497.803	479.561	434.808	291.850	291.078	287.048	486.851	518.716	237.455	314.310	492.400	399.340	0.00093596	0.0010864	5.6777e-05	1075.5	2.5551e-06	1.2434e-05	1326.9	315.05	1.3482e-05	2.7432e-06	415.92	122.43	86.57	28.048	3.3909e-06	40.678	0.0010389	0.0013468	0.00045876	834.8	1.3544e-05	1.4891e-05	1024.3	245.77	1.4662e-05	1.3969e-05	326.39	95.951	67.633	22.46	1.3533e-05	32.16	363.061	244.302	232.584	177.874	510.940	284.997	177.038	183.156	310.801	270.416	181.493	185.808	188.146	193.684	306.175	189.834	-8191	255	
18438.488	1	1	0	0	0.043084	0.32962	0.22148	0.28951	0.26034	0.15647	0.28146	0.20763	0.067748	0.275	0.17118	0.28416	0.2841	0.1778	0.18882	0.097794	-2.1271	-2.8333	-2.9062	-2.6875	-2.8604	-2.8042	-2.9437	-3.2083	-2.8438	-2.9437	-2.9208	-2.8458	-3.0417	-2.6667	-2.8438	-3.0771	242.120	258.553	311.065	507.503	252.698	254.417	415.751	173.765	215.225	327.706	482.203	498.172	478.867	266.993	266.851	518.236	0.00099793	0.00036248	0.00016734	1067.8	5.4309e-06	3.9977e-07	1315.4	315.27	1.4929e-05	8.8354e-06	418.71	123.35	85.538	28.6	8.8316e-06	40.206	0.0010788	0.0012988	0.0004559	835.61	1.3756e-05	1.4645e-05	1018.1	245.42	1.7446e-05	1.5243e-05	326.61	95.863	67.294	22.588	1.3591e-05	31.967	369.503	353.982	370.478	177.921	321.380	188.644	177.097	182.990	305.418	292.804	180.770	185.451	188.492	193.552	351.440	190.003	-8191	255	
18438.609	1	1	0	0	0.045788	0.05034	0.090005	0.091447	0.17229	0.20449	0.32341	0.076326	0.1104	0.10426	0.10326	0.28648	0.23325	0.26353	0.15755	0.13978	-2.1667	-2.7875	-2.8021	-2.7917	-3.0021	-2.7208	-2.875	-3.0708	-2.8292	-3.0542	-3.0062	-2.7188	-3.1562	-2.8292	-2.7708	-3.1146	445.589	198.306	393.805	495.484	326.950	216.721	450.913	524.969	201.843	382.375	170.924	490.226	482.617	490.761	379.511	454.472	0.00089716	0.001003	0.00020089	1081.7	1.4513e-05	8.8983e-06	1322	314.91	2.4701e-05	1.0384e-05	416.42	121.31	86.343	28.11	7.7511e-06	40.645	0.0010248	0.00132	0.00047548	835.73	1.4059e-05	1.5026e-05	1021.8	246.02	1.6611e-05	1.5244e-05	326.59	95.225	67.628	22.472	1.2915e-05	32.126	363.405	227.631	309.253	178.012	261.936	346.692	176.902	183.199	324.808	295.952	180.833	185.759	187.925	193.752	305.991	189.508	-8191	255	
18438.705	1	1	0	0	0.16048	0.29914	0.046217	0.19412	0.17461	0.2332	0.25481	0.3714	0.11371	0.063279	0.23458	0.096827	0.37474	0.24199	0.18608	0.22507	-2.2812	-3.0146	-3.0563	-2.8187	-3.0417	-2.8458	-2.8646	-3.1063	-2.9208	-2.8312	-3.0354	-2.8958	-3.0917	-3.0333	-2.8958	-3.1458	226.497	423.129	505.578	413.470	356.034	513.650	413.759	487.573	231.300	258.390	370.257	316.550	423.514	442.059	410.309	440.032	0.0010933	0.00017475	0.00011815	1078.7	1.2796e-05	2.5563e-06	1309.5	317.53	1.7827e-05	6.0555e-06	418.19	122.84	87.929	28.372	1.1013e-05	40.888	0.001028	0.001344	0.00040902	835.94	1.3854e-05	1.5496e-05	1017.6	246.41	1.6465e-05	1.4953e-05	326.34	95.907	68.221	22.632	1.4295e-05	32.292	367.312	252.325	274.611	178.020	255.245	211.592	176.887	183.348	328.617	259.563	181.042	185.795	188.150	193.300	357.253	189.434	-8191	255	
18438.777	1	1	0	0	0.26407	0.066156	0.076151	0.14073	0.1748	0.20215	0.14598	0.20414	0.15837	0.12029	0.21711	0.20918	0.12001	0.13032	0.33159	0.41466	-2.2167	-2.7604	-2.8771	-2.8812	-2.9708	-2.9417	-2.7271	-3.2271	-2.7042	-2.7896	-3.1479	-2.8458	-3.0458	-2.9562	-2.6375	-3.1667	275.886	308.496	511.586	481.757	189.708	234.144	184.927	452.999	179.223	233.342	483.439	476.451	358.048	255.192	248.119	493.799	0.0012207	0.0008937	7.2522e-05	1083.9	1.389e-06	1.7118e-06	1318.6	319.1	2.85e-06	5.3523e-06	417.73	123.42	85.936	28.772	8.1754e-06	41.06	0.001081	0.001361	0.00036446	843.34	1.4108e-05	1.4879e-05	1024	248.37	1.7278e-05	1.5574e-05	327.67	96.831	67.814	22.82	1.5065e-05	32.535	355.543	263.034	228.660	177.965	277.116	289.991	176.805	183.623	357.549	324.362	180.959	186.051	188.042	193.065	271.576	189.301	-8191	255	
18438.873	1	1	0	0	0.089945	0.20824	0.018546	0.2129	0.20776	0.10756	0.2884	0.067762	0.17151	0.31227	0.30294	0.33535	0.1225	0.099495	0.089496	0.29429	-2.3292	-2.8583	-2.9667	-2.9021	-2.8458	-3.2042	-3.0062	-3.0396	-2.8479	-2.6958	-3.3167	-2.8167	-2.925	-3.1542	-2.7104	-3.0854	230.167	196.972	242.551	437.568	232.795	293.065	480.006	449.735	513.372	403.978	484.407	506.440	166.144	480.943	322.629	453.246	0.00094425	0.0010775	0.00026666	1082.3	2.5468e-06	7.9363e-06	1324.8	319.49	2.2321e-05	5.818e-06	419.15	122.87	86.363	28.582	5.762e-06	40.661	0.0010997	0.0013942	0.00039423	842.57	1.4382e-05	1.6057e-05	1027.9	247.7	1.8521e-05	1.551e-05	328.94	96.077	67.983	22.71	1.6273e-05	32.268	359.065	250.109	229.332	178.589	404.478	337.228	177.019	183.496	339.116	401.593	180.951	185.617	187.971	193.460	193.845	189.235	-8191	255	
18438.992	1	1	0	0	0.20204	0.043699	0.1506	0.32334	0.08444	0.059067	0.047658	0.12789	0.088399	0.15928	0.22823	0.23303	0.28126	0.07847	0.055356	0.24277	-2.3625	-2.7417	-2.9479	-2.8083	-2.8479	-3	-2.75	-3.0917	-2.9958	-2.9146	-3.2208	-2.9938	-2.9208	-2.9688	-2.7771	-3.0792	508.797	435.415	378.582	486.318	325.479	270.791	204.206	499.790	345.693	211.383	491.549	503.130	212.493	485.359	315.860	497.755	0.0010777	0.00070264	8.9352e-05	1085.3	7.7559e-06	3.3472e-07	1313.8	316.15	1.6871e-05	5.4904e-06	417.09	122.74	86.44	28.094	1.1216e-05	40.006	0.0011512	0.0014717	0.00039252	844.58	1.5437e-05	1.601e-05	1021.8	246.49	1.7827e-05	1.5747e-05	326.38	95.771	67.527	22.382	1.9802e-05	31.87	356.507	235.665	504.178	178.210	293.698	225.796	177.041	182.990	307.771	327.493	181.053	185.603	187.919	193.349	311.210	189.942	-8191	255	
18439.090	1	1	0	0	0.19596	0.084669	0.23144	0.098187	0.35182	0.22217	0.18409	0.23545	0.20409	0.091912	0.20059	0.17022	0.20198	0.16031	0.2115	0.062566	-2.2938	-2.5292	-2.8729	-2.8208	-2.8167	-3.0438	-2.7938	-3.0042	-2.9542	-2.7562	-3.1229	-2.7583	-2.9333	-2.9833	-2.7479	-2.9479	285.721	386.242	509.811	283.371	420.536	432.951	439.712	371.800	504.555	367.857	514.704	392.773	428.563	441.274	237.708	225.094	0.0011827	0.00067122	8.861e-05	1077.9	8.9555e-06	4.536e-06	1310.6	317.97	3.8186e-06	7.4207e-06	417.46	122.1	85.016	28.026	6.5888e-06	40.381	0.0011496	0.0015047	0.0004018	839.25	1.4465e-05	1.6239e-05	1020.8	246.06	1.7564e-05	1.5972e-05	326.3	95.324	66.918	22.301	1.8183e-05	31.983	364.980	253.081	209.047	178.260	355.661	291.199	177.233	183.455	299.665	262.609	181.288	185.928	188.550	193.177	340.824	190.005	-8191	255	
18439.186	1	1	0	0	0.18271	0.26065	0.093227	0.40246	0.18507	0.038999	0.19049	0.41004	0.1277	0.074472	0.43341	0.27207	0.11174	0.15464	0.25279	0.20934	-2.3937	-2.6063	-2.9521	-2.9813	-2.7812	-3.1458	-2.7854	-3.0271	-3.0458	-2.725	-2.8937	-2.8167	-2.8312	-3.0167	-2.9062	-3.0917	399.756	177.713	203.747	428.542	299.618	282.752	468.854	425.401	425.138	295.069	495.810	447.456	391.167	515.448	519.809	398.436	0.0010568	0.00045946	0.0004422	1067	7.7734e-07	6.4495e-06	1318.7	315.4	1.0422e-05	3.2249e-06	415.07	123.02	85.867	28.197	6.3335e-06	40.28	0.0011415	0.001486	0.00040706	838.61	1.4991e-05	1.6311e-05	1021.4	246.22	1.5595e-05	1.7246e-05	325.77	95.914	67.209	22.281	1.9682e-05	31.908	356.321	273.099	271.860	178.387	457.496	392.161	177.475	183.277	436.336	425.010	180.714	185.635	187.508	194.106	279.197	189.482	-8191	255	
18439.281	1	1	0	0	0.047022	0.11818	0.21113	0.36397	0.12722	0.11637	0.11295	0.40326	0.06659	0.17578	0.21449	0.038896	0.24275	0.10003	0.14602	0.23753	-2.4875	-2.6729	-2.8812	-2.9562	-2.8292	-2.975	-2.9042	-2.9062	-2.9417	-2.6375	-3.1	-2.9479	-2.7771	-3.1771	-2.6458	-2.8417	428.119	247.349	214.071	186.239	312.987	384.176	469.539	487.783	327.405	515.576	484.798	428.425	432.286	184.743	471.686	482.221	0.0010807	0.0010463	0.00018337	1082.4	5.0118e-06	2.0288e-06	1315	316.98	1.8647e-06	9.1656e-06	411.73	122.12	85.855	27.996	7.6978e-06	39.687	0.0010995	0.0014627	0.00039505	838.58	1.4601e-05	1.5442e-05	1021.9	245.83	1.3511e-05	1.9285e-05	324.33	94.803	66.57	21.967	1.8019e-05	31.553	357.735	276.719	178.733	177.920	345.027	501.286	177.139	183.186	182.585	309.519	181.218	185.702	188.514	193.911	337.578	190.098	-8191	255	
18439.377	1	1	0	0	0.18483	0.04355	0.13634	0.33675	0.19293	0.35688	0.36745	0.2422	0.20002	0.22592	0.02216	0.14322	0.13265	0.11807	0.12032	0.22478	-2.6354	-2.4771	-2.8375	-3.0125	-2.7021	-3.1292	-2.9938	-2.9792	-2.9979	-2.7562	-3.1333	-2.8583	-2.725	-3.1729	-2.8354	-2.8167	312.169	196.682	220.102	465.132	343.978	432.013	427.541	475.696	414.940	436.103	301.706	443.375	444.314	384.416	250.626	448.642	0.0012234	0.00052309	0.00030187	1074.8	5.129e-06	9.1248e-06	1303.2	312.77	1.5542e-05	2.5203e-06	408.3	120.88	85.832	27.508	1.3246e-05	39.491	0.0011089	0.0013958	0.00040218	833.3	1.4126e-05	1.5316e-05	1012.4	242.86	1.3807e-05	1.9456e-05	320.73	93.92	66.23	21.746	1.826e-05	31.393	358.670	264.087	211.705	178.197	305.259	328.687	176.829	183.116	279.229	308.930	181.148	185.762	188.079	193.060	361.379	189.814	-8191	255	
18439.473	1	1	0	0	0.13339	0.22039	0.2579	0.079762	0.11331	0.20276	0.15446	0.27635	0.21535	0.13601	0.10798	0.078828	0.10762	0.093162	0.31725	0.18701	-2.6667	-2.6583	-2.9333	-3	-2.7042	-3.0042	-2.8167	-2.85	-3.0646	-2.9271	-3.0833	-2.9125	-2.6729	-2.9542	-2.8812	-2.7917	516.937	430.428	182.221	227.063	389.263	358.838	463.318	460.317	447.181	194.376	493.223	303.857	239.889	440.346	283.981	370.168	0.00095709	0.00063988	0.00018874	1069.7	5.9972e-06	6.6175e-06	1306.2	308.82	2.0378e-05	8.3742e-06	411.81	120.68	84.268	27.71	3.3995e-06	39.932	0.0010825	0.001363	0.00038691	829.06	1.5892e-05	1.5045e-05	1010.5	240.84	1.3994e-05	1.9212e-05	320.41	93.728	65.658	21.911	1.6711e-05	31.561	355.913	246.387	258.842	178.131	285.997	340.602	176.641	183.148	308.949	363.310	180.730	185.398	188.012	193.208	321.285	189.843	-8191	255	
18439.594	1	1	0	0	0.27605	0.058225	0.28664	0.36646	0.1618	0.1063	0.32608	0.2704	0.15725	0.10584	0.10169	0.36882	0.11523	0.37194	0.22117	0.2099	-2.7458	-2.8729	-2.8646	-2.9	-2.75	-3.075	-3.0333	-2.7313	-3.0438	-2.8	-2.9771	-2.9938	-2.8125	-3.0771	-2.8167	-2.9333	449.218	294.117	414.446	524.646	236.246	475.291	457.367	177.219	246.408	342.547	450.130	499.788	174.184	478.725	253.373	491.892	0.0010215	0.0010636	8.7181e-05	1064.2	6.1002e-06	3.5679e-06	1302.2	309.53	1.8767e-05	7.6596e-06	409.91	119.55	84.94	27.813	1.1692e-05	39.906	0.0010922	0.0012849	0.00036919	826.81	1.6855e-05	1.3481e-05	1010.5	241.58	1.2249e-05	1.7627e-05	321.11	93.604	65.845	21.973	1.6587e-05	31.552	351.609	216.311	200.661	178.621	361.352	330.480	176.534	183.510	320.062	328.899	180.837	185.660	188.034	193.390	368.445	190.290	-8191	255	
#DATA ENDS
