BOXY.EXE: ISS Imagent and Oximeter Data Acquisition Program Version 0.80
Ascii Record File

#ACQ INFORMATION
2  Detector Channels 
16  External MUX Channels 
1  Auxiliary Channels 
5000  Waveform (CCF) Frequency (Hz)
1  Waveforms Skipped 
30  Waveforms Averaged 
1  Cycles Averaged 
16  Acquisitions per Waveform 
10.0806  Updata Rate (Hz) 

#FILE INFORMATION
TRUE -- External MUX Channel results are PARSED.
FALSE -- AC DC and Phase are NOT grouped.
TRUE -- Companion Program Settings File CREATED.
FALSE -- AC data not excluded
FALSE -- DC data not excluded
FALSE -- Phase data not excluded
FALSE -- Auxillary Chn. data not excluded
Tab delimiters

#CALIBRATION STATE
TRUE -- Waveform Calibration Values APPLIED.


#AUX CALIBRATION VALUES
Val Type	aux-1	

Term	1.0000e+00	
Factor	0.0000e+00	


#WF CALIBRATION VALUES
A = Detector Channel
Val Type	A-AC1	A-AC2	A-AC3	A-AC4	A-AC5	A-AC6	A-AC7	A-AC8	A-AC9	A-AC10	A-AC11	A-AC12	A-AC13	A-AC14	A-AC15	A-AC16	A-DC1	A-DC2	A-DC3	A-DC4	A-DC5	A-DC6	A-DC7	A-DC8	A-DC9	A-DC10	A-DC11	A-DC12	A-DC13	A-DC14	A-DC15	A-DC16	A-Ph1	A-Ph2	A-Ph3	A-Ph4	A-Ph5	A-Ph6	A-Ph7	A-Ph8	A-Ph9	A-Ph10	A-Ph11	A-Ph12	A-Ph13	A-Ph14	A-Ph15	A-Ph16	

Term	0.00000e+00	0.00000e+00	0.00000e+00	0.00000e+00	0.00000e+00	0.00000e+00	0.00000e+00	0.00000e+00	0.00000e+00	0.00000e+00	0.00000e+00	0.00000e+00	0.00000e+00	0.00000e+00	0.00000e+00	0.00000e+00	0.00000e+00	0.00000e+00	0.00000e+00	0.00000e+00	0.00000e+00	0.00000e+00	0.00000e+00	0.00000e+00	0.00000e+00	0.00000e+00	0.00000e+00	0.00000e+00	0.00000e+00	0.00000e+00	0.00000e+00	0.00000e+00	0.00000e+00	0.00000e+00	0.00000e+00	0.00000e+00	0.00000e+00	0.00000e+00	0.00000e+00	0.00000e+00	0.00000e+00	0.00000e+00	0.00000e+00	0.00000e+00	0.00000e+00	0.00000e+00	0.00000e+00	0.00000e+00	
Factor	1.00000e+00	1.00000e+00	1.00000e+00	1.00000e+00	1.00000e+00	1.00000e+00	1.00000e+00	1.00000e+00	1.00000e+00	1.00000e+00	1.00000e+00	1.00000e+00	1.00000e+00	1.00000e+00	1.00000e+00	1.00000e+00	1.00000e+00	1.00000e+00	1.00000e+00	1.00000e+00	1.00000e+00	1.00000e+00	1.00000e+00	1.00000e+00	1.00000e+00	1.00000e+00	1.00000e+00	1.00000e+00	1.00000e+00	1.00000e+00	1.00000e+00	1.00000e+00	X	X	X	X	X	X	X	X	X	X	X	X	X	X	X	X	

B = Detector Channel
Val Type	B-AC1	B-AC2	B-AC3	B-AC4	B-AC5	B-AC6	B-AC7	B-AC8	B-AC9	B-AC10	B-AC11	B-AC12	B-AC13	B-AC14	B-AC15	B-AC16	B-DC1	B-DC2	B-DC3	B-DC4	B-DC5	B-DC6	B-DC7	B-DC8	B-DC9	B-DC10	B-DC11	B-DC12	B-DC13	B-DC14	B-DC15	B-DC16	B-Ph1	B-Ph2	B-Ph3	B-Ph4	B-Ph5	B-Ph6	B-Ph7	B-Ph8	B-Ph9	B-Ph10	B-Ph11	B-Ph12	B-Ph13	B-Ph14	B-Ph15	B-Ph16	

Term	0.00000e+00	0.00000e+00	0.00000e+00	0.00000e+00	0.00000e+00	0.00000e+00	0.00000e+00	0.00000e+00	0.00000e+00	0.00000e+00	0.00000e+00	0.00000e+00	0.00000e+00	0.00000e+00	0.00000e+00	0.00000e+00	0.00000e+00	0.00000e+00	0.00000e+00	0.00000e+00	0.00000e+00	0.00000e+00	0.00000e+00	0.00000e+00	0.00000e+00	0.00000e+00	0.00000e+00	0.00000e+00	0.00000e+00	0.00000e+00	0.00000e+00	0.00000e+00	-1.83054e+02	-1.28695e+02	-1.24060e+02	-1.82730e+02	-8.03315e+01	-6.64456e+01	-1.55606e+02	-1.62015e+02	-9.22986e+01	-6.89241e+01	-1.72279e+02	-1.70080e+02	-1.79579e+02	-1.77215e+02	-7.89233e+01	-1.49329e+02	
Factor	2.99331e-05	1.55479e-04	4.19442e-05	1.61934e-01	1.57654e-06	1.69154e-06	1.52548e-01	4.60961e-02	1.71663e-06	1.67939e-06	8.77263e-02	2.69812e-02	2.54748e-02	8.56556e-03	1.66169e-06	1.23162e-02	1.73125e-05	3.46895e-05	9.63778e-06	8.07384e-02	3.25976e-07	3.93007e-07	7.18427e-02	2.31086e-02	3.21270e-07	3.94494e-07	4.28785e-02	1.32135e-02	1.29370e-02	4.33807e-03	3.46650e-07	6.07619e-03	X	X	X	X	X	X	X	X	X	X	X	X	X	X	X	X	



#DISTANCE SETTINGS
A = Detector Channel
A-1	A-2	A-3	A-4	A-5	A-6	A-7	A-8	A-9	A-10	A-11	A-12	A-13	A-14	A-15	A-16	

2.5000e+00	3.0000e+00	2.5000e+00	3.0000e+00	2.0000e+00	3.0000e+00	1.5000e+00	3.0000e+00	3.0000e+00	3.0000e+00	3.0000e+00	3.0000e+00	3.0000e+00	3.0000e+00	1.5000e+00	3.0000e+00	

B = Detector Channel
B-1	B-2	B-3	B-4	B-5	B-6	B-7	B-8	B-9	B-10	B-11	B-12	B-13	B-14	B-15	B-16	

1.0000e+01	1.0000e+01	1.0000e+01	1.4400e+00	1.0000e+01	1.0000e+01	1.5100e+00	1.9400e+00	1.0000e+01	1.0000e+01	1.9900e+00	2.4900e+00	2.4100e+00	2.9000e+00	1.0000e+01	2.9800e+00	




#DATA BEGINS
time	group	step	mark	flag	A-AC1	A-AC2	A-AC3	A-AC4	A-AC5	A-AC6	A-AC7	A-AC8	A-AC9	A-AC10	A-AC11	A-AC12	A-AC13	A-AC14	A-AC15	A-AC16	A-DC1	A-DC2	A-DC3	A-DC4	A-DC5	A-DC6	A-DC7	A-DC8	A-DC9	A-DC10	A-DC11	A-DC12	A-DC13	A-DC14	A-DC15	A-DC16	A-Ph1	A-Ph2	A-Ph3	A-Ph4	A-Ph5	A-Ph6	A-Ph7	A-Ph8	A-Ph9	A-Ph10	A-Ph11	A-Ph12	A-Ph13	A-Ph14	A-Ph15	A-Ph16	B-AC1	B-AC2	B-AC3	B-AC4	B-AC5	B-AC6	B-AC7	B-AC8	B-AC9	B-AC10	B-AC11	B-AC12	B-AC13	B-AC14	B-AC15	B-AC16	B-DC1	B-DC2	B-DC3	B-DC4	B-DC5	B-DC6	B-DC7	B-DC8	B-DC9	B-DC10	B-DC11	B-DC12	B-DC13	B-DC14	B-DC15	B-DC16	B-Ph1	B-Ph2	B-Ph3	B-Ph4	B-Ph5	B-Ph6	B-Ph7	B-Ph8	B-Ph9	B-Ph10	B-Ph11	B-Ph12	B-Ph13	B-Ph14	B-Ph15	B-Ph16	aux-1	digaux	

40389.727	1	1	0	512	0.15634	0.24725	0.36297	0.082001	0.13344	0.086248	0.15037	0.09103	0.071504	0.1783	0.16286	0.17152	0.10309	0.10977	0.11906	0.23691	-2.4958	-3.1188	-3.1312	-2.9479	-3.125	-3.0792	-2.9146	-3.3646	-2.9521	-3.0625	-3.0542	-2.7354	-3.1083	-3.0229	-3.0896	-3.3833	-96.831	42.667	114.128	203.108	109.406	241.591	105.457	68.893	-29.405	95.228	44.877	113.532	-7.391	246.522	-29.985	-45.900	0.00029486	0.00039806	0.00010297	525.3	5.9894e-06	5.0659e-06	581.26	193.84	2.0893e-06	2.0347e-06	202.75	80.647	72.095	32.815	3.4199e-06	37.86	0.00041694	0.00049136	0.00013643	505.06	1.3631e-05	5.2294e-06	556.17	187.3	4.9415e-06	2.117e-05	194.82	78.443	70.228	31.954	5.1275e-06	36.921	153.436	4.614	-1.210	-94.443	15.457	47.512	-95.810	-89.910	6.735	149.868	-92.524	-88.821	-85.535	-80.108	16.846	-84.373	-8191	255	
40389.820	1	1	0	0	0.31075	0.31886	0.14153	0.29456	0.13543	0.24659	0.1571	0.11838	0.11881	0.23921	0.071279	0.22711	0.070766	0.055504	0.13849	0.13781	-2.4958	-3.0292	-3.2667	-2.7896	-3.2458	-3.1813	-2.9792	-3.1083	-2.8937	-3.0521	-3.1917	-2.8	-3.1771	-3.05	-2.8104	-3.1917	-33.402	-104.122	134.475	186.123	221.517	159.212	-74.695	250.088	-55.219	-50.406	157.383	190.033	-69.794	2.396	-19.573	126.251	0.00026996	0.00037602	8.3061e-05	533.04	9.4169e-06	3.9994e-06	579.06	195.77	4.0398e-06	4.6975e-06	203.28	81.41	72.733	33.178	1.1063e-06	38.001	0.00041637	0.00048002	0.00012854	510.35	1.8439e-05	4.9691e-06	558.16	188.81	4.9877e-06	1.5582e-05	196.73	78.936	70.915	32.313	5.064e-06	37.24	144.366	-18.632	-33.144	-94.092	77.363	54.594	-95.897	-89.766	-10.989	54.298	-92.500	-88.611	-85.797	-80.184	-19.804	-84.313	-8191	255	
40389.918	1	1	0	0	0.16777	0.13758	0.31116	0.25272	0.027457	0.1922	0.34296	0.12205	0.063182	0.31781	0.16683	0.087261	0.15172	0.23678	0.2455	0.028079	-2.4188	-2.8187	-3.1521	-2.8583	-3.2229	-3.2125	-2.9958	-3.3312	-2.9062	-2.9792	-3.1458	-3.0042	-3.2812	-3.2083	-2.7729	-3.1021	5.103	-16.710	9.457	139.916	140.484	128.756	213.822	163.992	-12.591	-15.151	54.013	-31.431	251.162	-102.570	139.735	-24.787	0.00029989	0.00031962	8.9514e-05	532.96	3.2861e-06	5.6313e-06	581.42	195.79	2.5275e-06	3.8959e-06	204.38	80.887	72.059	32.756	3.0292e-06	37.522	0.00040728	0.00048891	0.00012328	511.07	1.3472e-05	5.1075e-06	557.9	189.34	4.5045e-06	1.0235e-05	198.01	78.552	70.209	31.961	4.8466e-06	36.628	147.740	1.780	-6.829	-94.268	60.698	49.892	-96.175	-89.843	-29.305	42.793	-92.684	-88.903	-85.833	-80.216	35.269	-84.473	-8191	255	
40390.016	1	1	0	0	0.25652	0.16328	0.10896	0.085485	0.11131	0.078913	0.22363	0.16066	0.22682	0.12337	0.06839	0.24603	0.19051	0.26779	0.10244	0.019938	-2.5042	-2.7958	-3.1417	-3.0687	-2.975	-3.1854	-2.9375	-3.2062	-2.9125	-2.7854	-3.2917	-2.85	-3.1917	-3.2271	-2.9813	-3.0812	-87.563	13.089	-68.515	85.592	6.240	95.321	233.336	230.418	-36.803	114.603	246.939	-57.021	228.912	233.306	-68.454	84.836	0.00028522	0.00026383	0.00010704	528.73	5.7837e-06	3.773e-06	578.41	194.07	2.9683e-06	3.6394e-06	200.1	79.874	70.766	32.253	3.7649e-06	37.03	0.00040284	0.00044229	0.00012882	505.86	1.7428e-05	4.9331e-06	553.99	187.36	4.5386e-06	5.052e-06	195.29	77.274	69.081	31.414	5.0914e-06	36.16	141.154	-55.770	-21.750	-94.155	82.141	26.992	-95.931	-90.038	-2.238	28.744	-92.277	-88.783	-85.850	-80.142	41.589	-84.266	-8191	255	
40390.109	1	1	0	0	0.21099	0.087912	0.11735	0.063873	0.121	0.066796	0.19776	0.024037	0.16645	0.32403	0.17038	0.45994	0.10229	0.16369	0.087238	0.17188	-2.5146	-2.8021	-3.1354	-3.0417	-2.8104	-3.1271	-2.9146	-3.1625	-2.9021	-2.8417	-3.1417	-2.9688	-3.0187	-3.4146	-2.8292	-3.2125	41.340	212.961	182.573	53.513	-64.352	217.744	176.974	138.119	44.254	-44.359	231.206	246.960	-8.336	202.432	125.756	172.299	0.00030797	0.00035422	0.00011651	523.17	6.0359e-06	2.2068e-06	579.42	193.37	2.5298e-06	1.6764e-06	200.33	79.507	70.769	32.358	2.8708e-06	37.443	0.00039556	0.0004618	0.00012017	501.35	1.1838e-05	4.7865e-06	553.85	186.79	4.5326e-06	4.6649e-06	195.37	77.165	68.951	31.6	4.8379e-06	36.423	148.443	-35.612	-13.279	-94.093	47.103	49.459	-95.843	-90.113	-19.257	50.426	-92.413	-88.663	-85.774	-80.224	-23.713	-84.230	-8191	255	
40390.207	1	1	0	0	0.18091	0.2953	0.080308	0.17723	0.16289	0.12026	0.20551	0.14327	0.25893	0.20976	0.18177	0.083325	0.14036	0.29238	0.12964	0.18119	-2.8312	-2.6542	-3.2292	-3.1104	-2.8937	-3.2479	-3.1104	-3.1604	-3.175	-2.9125	-3.1979	-2.9604	-2.9167	-3.2396	-2.9625	-3.1833	-25.820	235.046	103.288	121.655	56.830	106.379	98.307	5.334	97.511	169.303	156.101	-31.754	-100.652	-91.366	-71.478	137.290	0.0002618	0.00038674	8.1159e-05	525.04	6.742e-06	5.7627e-06	578.46	194.42	2.8925e-06	4.0907e-06	201.77	80.038	71.391	32.489	2.5685e-06	37.606	0.00041319	0.00043781	0.0001219	502.47	7.9314e-06	1.3687e-05	554.55	187.71	4.6691e-06	5.0043e-06	196.11	77.558	69.385	31.796	4.7592e-06	36.796	144.868	-17.754	-31.501	-94.057	42.343	153.201	-96.361	-89.859	-21.591	54.487	-92.490	-88.933	-85.732	-80.240	26.275	-84.368	-8191	255	
40390.328	1	1	0	0	0.08082	0.25842	0.060495	0.07257	0.052237	0.085246	0.20591	0.13457	0.14355	0.23152	0.052149	0.28113	0.26148	0.27951	0.13317	0.13142	-2.5792	-2.7417	-2.9271	-3.0938	-2.6813	-3.1958	-2.8792	-3.0583	-3.0792	-2.9688	-3.2917	-3.0542	-2.9396	-3.1688	-2.9083	-3.0833	-48.276	-77.726	-77.604	3.953	-21.331	-53.635	-90.536	128.623	-13.646	191.264	1.407	228.065	224.514	184.386	96.545	237.307	0.00026401	0.00033431	7.1354e-05	528.55	3.184e-06	4.4685e-06	585.85	194.67	2.835e-06	3.4372e-06	202.93	80.78	71.968	32.814	3.1019e-06	37.79	0.0004142	0.00046679	0.00012226	506.63	4.5073e-06	1.5259e-05	562.35	188.38	4.7019e-06	5.2739e-06	198.61	78.393	70.025	32.099	4.9145e-06	37.155	147.623	-6.582	-16.356	-93.981	-1.559	91.241	-95.731	-89.819	1.076	35.126	-92.509	-88.904	-85.577	-79.995	28.925	-84.225	-8191	255	
40390.422	1	1	0	0	0.15864	0.015661	0.20386	0.25268	0.22223	0.15819	0.14359	0.18098	0.045596	0.24538	0.021935	0.27472	0.080151	0.37843	0.12795	0.2256	-2.6292	-2.7771	-3.2021	-2.975	-2.9021	-3.1688	-3.1104	-3.1042	-3.3229	-3.0604	-3.1542	-3.0792	-2.7646	-3.1958	-2.9604	-2.9083	105.591	54.880	69.231	-96.829	-74.280	4.945	142.921	196.582	-35.039	201.124	-29.830	173.008	68.149	-90.519	139.364	200.815	0.00028624	0.00032397	4.9452e-05	526.81	3.7288e-06	7.4817e-06	587.63	195.03	1.6478e-06	2.8938e-06	206.99	82.175	72.761	33.246	1.8472e-06	38.732	0.00040446	0.00046578	0.00012117	508.59	4.6954e-06	1.98e-05	567.47	189.63	4.6845e-06	5.4925e-06	200.9	79.371	70.716	32.523	4.9333e-06	37.65	146.672	-33.016	27.407	-93.923	28.070	98.253	-95.794	-90.041	63.550	75.894	-92.392	-88.793	-85.569	-80.183	-10.861	-84.406	-8191	255	
40390.520	1	1	0	0	0.10586	0.19152	0.14807	0.17694	0.28648	0.24197	0.20052	0.16516	0.066205	0.17737	0.048123	0.12865	0.25605	0.1877	0.20278	0.34196	-2.7896	-2.8312	-3.1667	-3.2479	-2.7438	-3.2042	-3.05	-3.0042	-3.1063	-2.85	-3.25	-3.1875	-2.6729	-3.2875	-3.1229	-2.8563	130.363	195.739	123.033	165.429	191.478	119.893	250.624	223.510	31.003	110.686	75.797	-74.943	-106.568	-105.060	140.223	203.140	0.00032412	0.00027119	0.0001001	532.96	2.5624e-06	6.5648e-06	595.47	197.6	1.2841e-06	3.8841e-06	205.77	81.718	73.42	33.485	3.0456e-06	38.707	0.00082721	0.00045812	0.00012057	512.25	4.7688e-06	1.5105e-05	572.02	190.84	4.7695e-06	4.7701e-06	201.15	79.472	71.142	32.689	4.8509e-06	37.728	143.772	-5.992	-41.980	-94.303	42.862	73.859	-96.004	-89.804	-6.783	45.723	-92.509	-88.875	-85.746	-80.243	5.773	-84.549	-8191	255	
40390.641	1	1	0	0	0.094778	0.14608	0.13687	0.13505	0.10757	0.073949	0.034972	0.11061	0.13654	0.11367	0.17178	0.12186	0.1543	0.088949	0.15614	0.13404	-2.8021	-2.8333	-2.7771	-3.1854	-2.9646	-3.1292	-3.0375	-3.0167	-3.1542	-2.9521	-2.975	-3.1458	-2.8229	-3.1188	-3.1229	-2.6896	51.397	144.427	77.866	-80.864	52.234	67.324	217.213	230.484	163.202	159.148	178.486	59.123	-72.269	-99.189	-59.070	220.944	0.00027194	0.00026136	5.7828e-05	536.05	2.5319e-06	5.3776e-06	595.76	198.24	1.0904e-06	2.5663e-06	204.98	82.513	72.362	33.222	4.8031e-06	38.734	0.0008486	0.00043521	0.00012375	513.99	4.6132e-06	1.9829e-05	570.66	190.47	4.8472e-06	4.9402e-06	199.63	79.606	70.538	32.466	4.7773e-06	37.417	161.753	-27.144	-0.031	-94.341	34.718	103.001	-95.975	-89.961	-6.707	24.912	-92.255	-89.367	-85.908	-79.962	24.130	-84.197	-8191	255	
40390.711	1	1	0	0	0.054942	0.11822	0.089056	0.30054	0.17681	0.17627	0.094653	0.11319	0.09295	0.1701	0.1235	0.056574	0.21152	0.15767	0.14377	0.30948	-2.85	-3.0479	-2.975	-3.1958	-2.7479	-3.2	-3.1958	-2.9292	-3.0417	-2.9437	-2.8396	-3.3958	-3.0375	-3.05	-3.1917	-2.9396	128.266	-30.641	98.944	201.597	42.477	125.175	54.010	227.707	-103.716	231.098	90.281	124.055	-104.031	239.042	148.432	244.627	0.00025054	0.00032556	8.2977e-05	528.25	2.7107e-06	4.6906e-06	587.66	196.04	1.2954e-06	2.7664e-06	204.89	81.376	71.78	32.87	1.9393e-06	38.029	0.001085	0.00045761	0.00012457	507.23	4.692e-06	1.5205e-05	565.93	189.06	4.803e-06	4.9583e-06	198.26	79.366	70.062	32.18	4.7614e-06	37.054	157.306	-5.735	-11.770	-94.377	33.043	91.322	-95.888	-89.712	-44.840	44.559	-92.357	-88.841	-85.853	-79.845	9.899	-84.229	-8191	255	
40390.805	1	1	0	0	0.19011	0.099086	0.082353	0.15378	0.19298	0.072817	0.24598	0.20598	0.16329	0.14635	0.13609	0.11575	0.28552	0.068721	0.11455	0.35589	-2.7146	-2.8875	-2.9292	-3.25	-2.8312	-3.0354	-3.0938	-2.9083	-3.15	-3.0458	-2.9917	-3.3604	-2.7583	-3.0833	-3.1312	-3.0042	219.293	107.031	-66.203	-98.946	225.690	201.938	112.726	116.079	215.003	-57.093	196.437	-25.355	174.492	216.280	47.996	199.420	0.00026187	0.00028331	6.0938e-05	526.45	3.6518e-06	7.3844e-06	586.48	196.1	3.0276e-06	5.0653e-06	206.32	80.99	72.124	33.109	5.0183e-06	37.874	0.00085668	0.00044316	0.00011808	505.04	4.4455e-06	2.0214e-05	563.81	188.92	4.8137e-06	4.6345e-06	197.77	78.805	69.891	32.168	4.9686e-06	37.066	166.355	-32.110	9.248	-94.057	17.734	121.402	-95.724	-90.028	-4.136	38.640	-92.448	-89.113	-85.797	-79.993	23.677	-84.100	-8191	255	
40390.902	1	1	0	0	0.22448	0.14836	0.19982	0.048559	0.15862	0.10214	0.16673	0.23294	0.11954	0.11554	0.14266	0.15476	0.033833	0.1712	0.15487	0.021893	-2.7521	-3.0896	-2.7771	-3.2167	-2.8958	-3.0292	-3.3604	-2.8187	-3.2104	-3.2479	-2.9625	-3.3333	-3.0708	-2.8563	-3.0354	-2.8229	2.362	87.339	110.011	37.072	240.337	-64.163	87.044	194.965	67.721	-26.249	-77.654	-103.232	18.061	90.474	139.421	-38.081	0.00022029	0.000368	6.237e-05	527.58	1.3625e-06	4.2854e-06	589.68	196.96	2.9529e-06	3.1969e-06	206.26	82.032	72.379	33.252	2.7335e-06	38.694	0.0010526	0.00046296	0.00012609	506.68	4.4428e-06	1.2751e-05	566.93	190.14	4.6477e-06	5.1621e-06	198.77	79.816	70.482	32.461	4.9665e-06	37.546	155.292	-10.432	0.667	-93.935	1.883	84.310	-95.805	-89.723	12.543	36.179	-92.519	-88.778	-85.296	-79.883	22.025	-83.996	-8191	255	
40391.023	1	1	0	0	0.21037	0.13985	0.16071	0.054525	0.19065	0.17064	0.2788	0.17608	0.051151	0.081125	0.035916	0.20678	0.15386	0.23753	0.12172	0.17297	-2.6083	-3.0812	-2.6021	-3.3042	-3.1104	-3.0687	-3.3292	-3.0625	-3.05	-2.9292	-2.7583	-3.0896	-3.1188	-2.9896	-3.1333	-3.0875	-4.592	224.741	-0.499	35.584	196.056	-19.923	178.176	188.809	12.212	11.653	237.191	52.341	59.695	159.943	87.259	-83.888	0.00022455	0.00035733	5.3746e-05	531.4	1.7605e-06	5.3434e-06	592.39	197.41	2.7788e-06	2.9132e-06	206.99	82.357	72.37	33.363	3.4583e-06	38.812	0.00087803	0.00045537	0.00012816	509.13	4.2404e-06	6.9251e-06	573.59	190.35	4.5199e-06	5.0084e-06	199.53	80.169	70.625	32.634	5.0214e-06	37.888	155.786	-39.791	8.246	-94.274	13.545	70.136	-96.160	-90.102	-18.912	40.944	-92.284	-88.887	-85.396	-80.189	13.774	-84.503	-8191	255	
40391.117	1	1	0	0	0.34016	0.19371	0.25684	0.097195	0.35272	0.064457	0.03551	0.15843	0.02056	0.15586	0.20204	0.068009	0.19141	0.20088	0.29936	0.11729	-2.625	-3.1479	-2.675	-3.1688	-3.1	-2.8542	-3.4479	-2.8604	-3.0438	-3.1104	-2.9542	-3.1875	-3.0167	-2.8958	-3.3	-3.0021	132.909	85.412	184.353	248.859	1.267	2.977	-40.624	214.350	168.901	15.384	241.636	105.231	-106.458	166.222	198.204	144.932	0.0002453	0.00035291	0.00010965	532.63	3.132e-06	3.4719e-06	595.85	196.74	2.2025e-06	2.1953e-06	205.87	82.401	72.883	33.755	3.7353e-06	39.379	0.0010916	0.00050517	0.00013838	510.49	4.4577e-06	5.0354e-06	575.11	189.85	4.8773e-06	4.8646e-06	199.96	80.469	70.853	33.025	4.8184e-06	38.311	145.765	-54.341	-26.065	-93.994	46.335	51.518	-95.990	-90.091	-17.828	28.171	-92.356	-88.998	-85.786	-80.439	44.847	-84.382	-8191	255	
40391.215	1	1	0	0	0.10303	0.064865	0.073045	0.29067	0.10065	0.054231	0.17151	0.28131	0.033555	0.13454	0.051123	0.12814	0.51306	0.19256	0.22878	0.099901	-2.575	-3.0292	-2.7104	-3.0687	-3.0792	-2.8708	-3.2625	-3.0333	-2.9813	-3.2792	-2.8833	-3.2625	-2.9938	-2.8104	-3.1208	-3.1146	-13.973	238.234	41.998	176.439	-27.326	133.868	167.794	198.377	28.616	-91.688	19.295	36.073	197.784	172.680	188.424	124.737	0.00024127	0.0003298	8.5211e-05	535.66	1.7861e-06	4.0097e-06	597.99	197.07	2.6092e-06	4.0112e-06	209.67	83.356	73.03	33.82	1.8689e-06	39.391	0.00074657	0.00061241	0.00012385	514.02	4.4611e-06	5.0755e-06	577.84	190.57	4.8866e-06	5.2476e-06	201.36	80.885	71.275	33.121	5.0416e-06	38.272	149.239	1.728	-13.415	-94.282	-0.392	40.909	-96.065	-89.898	-4.414	25.590	-92.353	-88.967	-85.529	-80.128	35.573	-84.238	-8191	255	
40391.285	1	1	0	0	0.27562	0.28613	0.058994	0.14972	0.20902	0.25676	0.093558	0.16251	0.18293	0.15803	0.113	0.21262	0.11378	0.094091	0.22929	0.051585	-2.3937	-3.2375	-2.6917	-3.0812	-3.0792	-2.8688	-3.2958	-3.1146	-2.9646	-3.3438	-2.8604	-3.0958	-3.2854	-2.9708	-3.1813	-3.1604	136.493	44.375	166.323	-94.158	59.525	240.732	206.656	214.969	-51.875	184.200	-82.446	155.762	176.688	26.568	72.063	69.470	0.0002258	0.00031602	7.7279e-05	532.93	3.0276e-06	3.2456e-06	599.67	196.81	1.0712e-06	4.4632e-06	209.37	82.626	72.39	33.771	4.02e-06	39.142	0.00046253	0.0014522	0.0001279	512.07	4.548e-06	5.1115e-06	576.11	189.69	4.7762e-06	5.0454e-06	200.18	80.362	70.906	32.825	4.9629e-06	37.974	163.781	47.896	0.153	-94.037	23.810	49.059	-95.931	-89.912	-27.243	45.723	-92.509	-89.103	-85.533	-80.266	3.284	-84.437	-8191	255	
40391.406	1	1	0	0	0.10002	0.29926	0.13888	0.11332	0.095016	0.071493	0.13586	0.066771	0.097531	0.26074	0.19661	0.26329	0.11279	0.22611	0.13988	0.20547	-2.5333	-3.2375	-2.7625	-2.9313	-3.3146	-3.0875	-3.3063	-3.2125	-2.8646	-3.2125	-3.125	-3.0958	-3.1875	-2.9688	-3.2458	-3.1625	239.644	187.707	68.333	93.711	35.916	40.960	158.881	141.300	37.372	-65.185	118.500	180.374	224.335	160.561	119.659	135.187	0.00029012	0.00069478	0.00011403	531.53	2.8688e-06	4.1286e-06	596.1	197.53	2.0898e-06	3.3087e-06	207.44	82.412	72.446	33.548	2.505e-06	39.156	0.00041687	0.0013582	0.0001183	509.37	4.4407e-06	4.7677e-06	575.64	190.14	4.8351e-06	5.1276e-06	200.28	80.156	70.658	32.801	4.8719e-06	38.206	139.869	17.167	-26.402	-94.239	29.052	32.604	-95.900	-90.206	-13.625	27.066	-92.646	-89.006	-85.490	-80.233	23.811	-84.380	-8191	255	
40391.504	1	1	0	0	0.050285	0.063862	0.2239	0.11225	0.2492	0.029606	0.02752	0.070998	0.083364	0.40458	0.013156	0.23203	0.045338	0.17738	0.19986	0.079684	-2.3792	-3.175	-2.8917	-3.1896	-3.1792	-2.9938	-3.1646	-3.1521	-2.8042	-3.2292	-3.0917	-2.9313	-3.2083	-3.0667	-3.0875	-3.1729	-83.802	125.385	163.504	244.240	104.617	185.791	211.809	249.503	168.121	143.516	63.941	192.728	220.627	242.159	25.508	-21.273	0.00026599	0.00074938	0.00010547	528.94	1.4803e-06	3.1202e-06	593.34	197	3.7302e-06	2.3138e-06	208.42	83.163	72.791	33.766	2.7245e-06	39.438	0.00041096	0.0017286	0.00012437	508.57	4.184e-06	4.9855e-06	574.06	190.47	4.8324e-06	4.8687e-06	200.77	80.366	71.307	32.971	4.8777e-06	38.332	144.431	10.180	-31.588	-93.979	46.130	46.259	-95.975	-90.004	-35.020	42.399	-92.446	-88.795	-85.699	-80.183	17.015	-84.045	-8191	255	
40391.602	1	1	0	0	0.22123	0.17767	0.080402	0.04345	0.095447	0.21831	0.11907	0.26464	0.11682	0.17943	0.13913	0.1444	0.15022	0.042432	0.10222	0.1953	-2.4313	-2.9708	-2.9917	-2.8042	-3.2729	-2.7354	-2.9854	-3.2146	-2.9938	-3.0604	-3.025	-2.7333	-3.2458	-2.9667	-2.9437	-3.1292	199.279	59.124	-12.355	64.315	188.650	64.088	92.445	231.938	-63.581	-82.542	179.168	211.387	172.390	234.049	203.931	166.714	0.00031755	0.00059803	7.6666e-05	531.82	2.3186e-06	2.9494e-06	594.02	197.69	2.4084e-06	4.3251e-06	206.79	82.635	73.155	33.71	3.0276e-06	39.443	0.00041687	0.0013473	0.00012272	509.84	4.5949e-06	4.8446e-06	575.37	190.28	4.7347e-06	4.8235e-06	200.4	80.089	71.245	32.889	4.9297e-06	38.277	141.986	1.034	16.042	-94.272	21.763	53.383	-95.962	-90.223	-25.470	62.321	-92.101	-88.865	-85.548	-80.079	18.811	-84.213	-8191	255	
40391.719	1	1	0	0	0.2724	0.25907	0.11901	0.071222	0.15171	0.08665	0.19062	0.50392	0.21715	0.07008	0.30864	0.18317	0.16723	0.054752	0.072664	0.14923	-2.4604	-3.0312	-2.8979	-2.7958	-3.1271	-2.9875	-3.0917	-3.4167	-2.8979	-3.2208	-3.0958	-2.8458	-3.1292	-3.0333	-2.9604	-3.3958	182.341	-45.897	63.094	-103.382	227.893	-18.110	175.352	159.158	131.376	-95.251	71.756	-99.619	248.961	161.357	-6.027	139.668	0.0002864	0.00058873	9.1478e-05	531.47	1.2634e-06	3.0842e-06	596.69	196.69	2.8408e-06	3.435e-06	208.72	82.536	72.882	33.793	2.9184e-06	39.438	0.00041784	0.0017582	0.00011441	509.06	4.4435e-06	4.7071e-06	575.16	190.12	4.5855e-06	4.7915e-06	201.42	80.412	71.492	33.036	4.8813e-06	38.404	142.523	20.630	-19.387	-94.421	-28.777	63.870	-95.909	-89.881	-4.318	13.477	-92.065	-89.028	-85.288	-80.167	4.882	-84.046	-8191	255	
40391.816	1	1	0	0	0.24562	0.21137	0.29447	0.10117	0.18183	0.28982	0.24546	0.17174	0.09785	0.23555	0.052891	0.25508	0.16909	0.17642	0.12463	0.36185	-2.4562	-2.9188	-3.0938	-2.7438	-3.1292	-2.9917	-2.8	-3.2188	-2.9729	-2.8979	-3.1583	-2.7917	-3.1396	-3.0062	-2.9062	-3.3271	-76.953	213.092	125.171	181.125	88.858	-98.165	185.444	229.608	87.831	-46.503	-38.641	221.007	197.732	19.499	12.955	208.403	0.00028321	0.00068547	0.00013254	529.36	1.1623e-06	2.514e-06	599.27	197.7	2.9302e-06	4.291e-06	209.97	83.267	73.419	33.966	3.6134e-06	39.186	0.0004063	0.0013475	0.00012882	509.47	4.4007e-06	4.5253e-06	574.71	191.63	4.4482e-06	5.1449e-06	202.15	80.54	71.424	33.072	4.986e-06	38.373	142.839	-26.449	-10.642	-94.333	34.668	49.670	-95.702	-90.120	-45.770	34.695	-92.560	-89.129	-85.491	-80.224	29.814	-83.959	-8191	255	
40391.910	1	1	0	0	0.084707	0.18414	0.063863	0.48705	0.083776	0.07047	0.29303	0.1231	0.19802	0.45434	0.15293	0.12314	0.11552	0.28064	0.18194	0.16509	-2.4583	-2.9771	-3.0771	-2.9521	-3.0958	-2.925	-2.8563	-3.2167	-2.9062	-2.9917	-3.2104	-2.9958	-3.1375	-3.1917	-2.8396	-3.1312	106.696	41.621	81.123	213.862	220.286	20.368	92.522	-77.125	97.698	2.212	5.645	180.254	93.127	224.209	181.412	202.234	0.00031814	0.00055153	5.9614e-05	534.03	2.3444e-06	4.1382e-06	599.95	197.03	1.9939e-06	2.5167e-06	209.05	83.655	72.678	34.117	2.5402e-06	39.516	0.00041615	0.001759	0.00012473	511.83	4.2845e-06	4.7554e-06	575.42	191.26	4.5453e-06	5.0783e-06	201.61	80.789	71.487	33.123	4.6581e-06	38.519	149.490	34.937	-23.922	-94.389	10.710	47.065	-95.830	-89.878	-3.316	51.902	-92.623	-89.141	-85.631	-80.423	-9.534	-84.325	-8191	255	
40392.008	1	1	0	0	0.1428	0.15672	0.19067	0.2314	0.2062	0.20545	0.24332	0.1959	0.096837	0.30863	0.14247	0.097619	0.17431	0.09112	0.15349	0.22073	-2.4917	-2.9667	-2.9792	-2.8229	-3.1208	-2.9813	-2.8729	-3.175	-2.875	-2.9667	-3.3771	-3.0146	-3.0896	-3.1521	-2.7062	-3.1479	217.872	169.628	141.594	127.650	198.083	-61.051	152.737	174.848	115.027	28.746	223.517	-64.995	-74.338	144.701	86.131	-96.883	0.00028423	0.00055341	7.0697e-05	530.99	4.659e-06	5.1704e-06	600.46	198.69	2.1507e-06	3.8501e-06	211.59	83.439	73.669	34.135	1.7306e-06	39.784	0.00040872	0.00097485	0.00019137	510.6	4.4211e-06	4.8766e-06	577.68	192.7	4.639e-06	4.5975e-06	203.03	81.377	72.067	33.378	5.1413e-06	38.792	147.123	-8.553	62.813	-94.325	39.892	49.626	-95.916	-89.831	-9.584	60.714	-92.516	-88.776	-85.879	-80.159	4.685	-84.629	-8191	255	
40392.102	1	1	0	0	0.056892	0.072524	0.16298	0.17921	0.13815	0.11102	0.12855	0.45337	0.19984	0.062828	0.14874	0.13799	0.35204	0.13296	0.090348	0.11908	-2.4979	-2.7812	-3.1667	-2.8771	-3.1	-3.1292	-2.9729	-3.0917	-3.1937	-2.7958	-3.2167	-2.9938	-3.0021	-3.3063	-2.8729	-3.3229	205.166	182.582	98.059	168.738	135.726	66.950	242.833	146.642	58.400	201.053	-68.778	26.364	191.259	174.222	171.571	196.821	0.00028816	0.00038538	5.7444e-05	532.86	3.9982e-06	3.977e-06	603.77	197.43	2.2215e-06	2.3602e-06	211.8	84.109	73.991	34.284	3.7185e-06	40.024	0.00040205	0.00044273	0.00043856	513.35	4.5759e-06	4.8921e-06	580.37	192	4.552e-06	4.9312e-06	202.67	81.232	72.299	33.389	4.6133e-06	38.908	139.977	-22.523	95.159	-94.130	29.287	53.492	-95.720	-89.962	6.129	46.069	-92.333	-88.726	-85.631	-79.878	34.567	-84.309	-8191	255	
40392.199	1	1	0	0	0.12289	0.16681	0.17059	0.12454	0.2652	0.11763	0.15811	0.25605	0.19457	0.28601	0.23164	0.027774	0.16512	0.26445	0.073193	0.03915	-2.5062	-2.8625	-3.2021	-2.9979	-2.9896	-3.1625	-3.0229	-3.3333	-3.1104	-3.0375	-3.1542	-3.0271	-3.0167	-3.3312	-2.7958	-3.1208	146.671	97.912	113.049	-74.406	120.354	236.134	227.549	185.491	119.955	99.928	187.757	85.389	-3.854	217.769	-26.905	27.581	0.00029999	0.00028176	0.00013206	538.32	3.25e-06	1.4007e-06	602.01	199.06	1.9185e-06	1.4062e-06	210.21	83.758	73.771	34.132	2.7864e-06	40.231	0.00039523	0.00045385	0.00035373	514.41	4.307e-06	4.8561e-06	579.94	192.3	4.4442e-06	4.7093e-06	202.83	81.149	72.004	33.455	5.2026e-06	39.022	143.447	-18.685	4.233	-94.258	20.546	11.069	-96.028	-89.873	-11.192	20.139	-92.334	-88.901	-85.631	-80.082	-0.569	-84.589	-8191	255	
40392.320	1	1	0	0	0.10713	0.32595	0.28272	0.12352	0.16679	0.2094	0.10057	0.23203	0.2167	0.26609	0.16329	0.081694	0.1802	0.13259	0.14	0.15787	-2.675	-2.8812	-3.0729	-3.0708	-2.8958	-3.2938	-2.8375	-3.0625	-3.1521	-2.9708	-3.1667	-2.8563	-2.9875	-3.3125	-2.8146	-2.975	43.013	112.953	106.328	-73.204	188.168	114.928	88.086	-103.076	120.132	196.764	-89.889	168.011	179.474	176.932	240.502	129.892	0.00028414	0.00021872	0.0002101	533.16	3.7839e-06	3.0398e-06	601.42	198.36	2.9593e-06	5.3496e-06	210.48	83.872	73.584	34.183	1.4648e-06	39.98	0.00041402	0.00045718	0.0004743	511.93	4.419e-06	5.0411e-06	578.37	191.71	4.5279e-06	5.1827e-06	203.03	81.343	71.78	33.61	4.7043e-06	39.09	141.501	-21.250	40.520	-94.101	0.896	54.912	-95.931	-90.299	-10.132	25.342	-92.229	-88.931	-86.110	-80.204	68.778	-84.375	-8191	255	
40392.414	1	1	0	0	0.19142	0.1877	0.14687	0.089497	0.028621	0.27858	0.15671	0.07968	0.16111	0.019168	0.12973	0.068826	0.19186	0.18555	0.29841	0.28068	-2.4833	-2.8958	-3.1	-2.9458	-2.8125	-3.3479	-2.9833	-3.125	-3.0438	-3.0271	-3.2104	-3.1312	-2.8583	-3.1813	-2.9813	-2.9604	123.664	-73.223	-86.729	-16.785	-104.832	200.203	198.330	-78.271	-81.547	-98.813	13.927	0.734	156.920	-81.807	165.614	212.713	0.00030739	0.00041244	0.00010165	535.09	2.7404e-06	3.726e-06	606.81	198.96	3.7775e-06	3.1968e-06	212.64	84.587	74.636	34.437	2.6031e-06	40.483	0.00042466	0.00044627	0.00036883	513.96	4.311e-06	5.0174e-06	581.16	192.72	4.5647e-06	4.918e-06	203.93	81.966	72.162	33.778	4.5794e-06	39.38	142.288	-30.779	43.874	-94.028	18.277	26.791	-95.801	-89.877	-1.773	25.246	-92.556	-88.639	-85.704	-80.218	10.197	-84.282	-8191	255	
40392.512	1	1	0	0	0.10719	0.12411	0.13265	0.13945	0.064368	0.10826	0.38807	0.20886	0.085694	0.045646	0.15992	0.070637	0.11684	0.15459	0.23996	0.10483	-2.7729	-2.8708	-3.0146	-3.1562	-2.8229	-3.1937	-2.9396	-3.0375	-2.9604	-2.9896	-3.0292	-3.1771	-2.9667	-3.2021	-2.7812	-2.9271	133.836	249.483	246.458	186.541	164.169	-106.263	207.863	141.198	8.261	-54.748	10.975	-41.554	-78.090	147.383	8.104	103.927	0.00029502	0.0004156	0.00013493	537.47	2.7134e-06	2.4538e-06	605.78	199.58	4.7909e-06	4.5832e-06	214.62	84.32	74.093	34.448	6.399e-07	40.126	0.00043866	0.00043391	0.00047344	515.62	4.4896e-06	4.7881e-06	582.18	192.45	7.592e-06	4.8219e-06	204.64	82.109	72.271	33.832	4.6184e-06	39.231	149.329	-14.259	45.110	-94.189	26.254	56.033	-95.583	-89.872	-53.112	31.819	-91.917	-88.714	-85.611	-79.933	54.410	-84.348	-8191	255	
40392.586	1	1	0	0	0.10225	0.053175	0.096257	0.038622	0.18253	0.13549	0.12258	0.22793	0.09377	0.25085	0.032655	0.20208	0.26898	0.1414	0.34943	0.052827	-2.8625	-2.9021	-3.0125	-3.0604	-3.0146	-3.1208	-2.8833	-2.9146	-3.15	-2.8958	-3.1188	-3.3729	-2.8917	-3.3229	-2.9375	-3.025	160.321	-23.306	-71.867	105.605	57.984	182.308	214.972	184.611	-88.352	231.318	175.598	-51.846	-57.564	161.209	211.303	211.446	0.00032278	0.00033497	4.3841e-05	533.58	2.7935e-06	4.808e-06	606.61	198.65	5.0449e-06	3.7005e-06	210.54	84.611	74.216	34.37	3.8871e-06	40.223	0.00042116	0.00044482	0.0003612	514.22	4.3864e-06	5.0903e-06	581.15	191.6	1.6173e-05	5.1038e-06	203.77	81.927	72.126	33.578	4.8271e-06	39.218	142.889	-3.744	69.903	-94.299	17.732	60.638	-95.924	-89.972	-100.541	44.151	-92.332	-88.876	-85.555	-80.233	-13.389	-84.516	-8191	255	
40392.703	1	1	0	0	0.31091	0.18743	0.34078	0.10862	0.23641	0.17194	0.25682	0.34769	0.12241	0.18836	0.20369	0.19788	0.11151	0.07958	0.095166	0.1686	-2.7271	-2.7604	-2.9292	-3.1667	-2.8583	-3.0667	-2.925	-2.9333	-3.0812	-2.9875	-2.9333	-3.1646	-3.0333	-2.9417	-2.9792	-2.9625	195.805	-96.274	69.288	188.318	228.172	-78.425	173.167	224.393	-47.032	27.888	59.168	-100.163	17.267	138.883	233.156	169.741	0.0002755	0.00038034	0.00014417	538.05	3.6398e-06	4.7836e-06	608.86	199.75	4.7744e-06	2.5764e-06	212.45	85.159	74.265	34.546	2.0681e-06	40.569	0.00042041	0.00044316	0.00048562	515.56	4.3667e-06	4.825e-06	583.19	192.34	1.2732e-05	5.0216e-06	204.52	82.34	72.35	33.832	4.7108e-06	39.471	148.558	-24.403	49.435	-94.367	15.407	39.495	-95.908	-89.919	-93.546	37.055	-92.258	-88.822	-85.881	-79.874	18.748	-84.112	-8191	255	
40392.801	1	1	0	0	0.12758	0.25567	0.19007	0.066152	0.10759	0.32853	0.05679	0.14293	0.10373	0.13135	0.11083	0.23014	0.16388	0.28034	0.23556	0.23986	-2.7771	-2.8979	-2.8917	-3.2562	-2.8646	-3	-3.2583	-2.8063	-3.0792	-3	-3.0271	-3.1958	-2.9437	-3.0312	-3.075	-2.8646	-81.842	96.413	42.186	-84.220	103.924	-70.099	150.331	173.145	53.603	102.084	43.344	-90.616	238.765	228.527	-32.351	154.866	0.00029881	0.0002078	0.00011473	534.43	2.8279e-06	2.5971e-06	606.27	198.85	9.1995e-06	3.8732e-06	211.1	84.532	73.865	34.254	4.2763e-06	40.193	0.0004221	0.00042502	0.00023149	514.47	4.4306e-06	5.0804e-06	581.84	191.7	1.6079e-05	4.9484e-06	203.05	81.908	71.814	33.497	4.7708e-06	39.024	149.691	-26.050	-4.435	-94.141	49.188	34.245	-95.934	-90.180	-64.475	40.246	-92.405	-88.553	-85.794	-79.915	8.061	-84.392	-8191	255	
40392.895	1	1	0	0	0.36547	0.024261	0.17043	0.15766	0.1637	0.077366	0.13582	0.10646	0.17654	0.10216	0.24542	0.1738	0.13598	0.23038	0.14794	0.28562	-2.575	-2.8937	-2.7771	-3.1333	-2.7083	-3.1458	-3.1604	-2.9417	-3.1146	-3.1396	-2.8333	-3.1708	-2.8563	-3.075	-3.1437	-2.8375	235.845	207.733	172.832	248.028	142.939	169.995	173.322	119.312	186.187	193.054	-73.286	150.847	207.736	238.722	211.928	102.366	0.00032832	0.00046115	0.00012624	536.07	2.9944e-06	2.4615e-06	598.36	198.28	4.5646e-06	3.4392e-06	209.64	83.951	72.937	34.178	1.9235e-06	39.769	0.00041687	0.0004454	0.00012122	515.13	4.3946e-06	5.0174e-06	577.19	190.92	1.2428e-05	4.7611e-06	202.24	81.457	71.198	33.366	4.7556e-06	38.749	143.320	-18.924	-12.067	-94.467	-9.055	16.198	-96.013	-89.997	-80.688	16.135	-92.681	-89.167	-85.658	-80.066	9.850	-84.247	-8191	255	
40392.992	1	1	0	0	0.28768	0.028817	0.11037	0.14694	0.1624	0.16038	0.15554	0.18499	0.27493	0.21988	0.13407	0.30642	0.19473	0.13366	0.15686	0.077975	-2.6208	-2.9313	-2.6437	-3.2729	-3.0104	-3.0958	-3.2438	-2.9562	-3.0167	-3.2562	-2.8312	-3.0854	-2.9771	-3.0438	-3.1396	-2.9333	198.730	-32.231	-43.479	-87.368	-43.138	63.607	184.326	-76.686	130.796	50.268	159.218	240.117	-71.221	-69.700	-44.786	120.421	0.00028894	0.00025905	0.00011167	532.88	2.9607e-06	2.6125e-06	601.1	198.38	7.2088e-06	3.663e-06	211.23	84.614	74.041	34.351	2.8052e-06	40.855	0.00041344	0.00044352	0.0001229	513.3	4.4767e-06	5.1934e-06	578.78	190.85	1.6297e-05	5.038e-06	203.47	81.999	72.038	33.671	8.8338e-06	39.635	143.598	-31.618	-18.912	-94.025	11.937	32.033	-96.045	-89.890	-67.765	15.512	-92.149	-88.638	-85.691	-79.901	52.996	-84.309	-8191	255	
40393.090	1	1	0	0	0.021914	0.016111	0.048287	0.30803	0.13755	0.46158	0.095487	0.088887	0.19135	0.16648	0.12103	0.23916	0.098289	0.074355	0.093771	0.14835	-2.4667	-2.9771	-2.7083	-3.2208	-3.0292	-2.7125	-3.2188	-2.9458	-3.0687	-3.2938	-2.9292	-3.0479	-3.1167	-2.8104	-3.0729	-3.0667	19.514	-16.553	247.863	240.084	128.030	67.333	77.355	248.029	37.430	54.125	122.883	238.755	54.943	0.133	68.762	185.304	0.00030397	0.0003514	7.1003e-05	537.87	2.7135e-06	4.5046e-06	613.56	200.15	5.2645e-06	3.4542e-06	214.91	86.175	75.145	34.648	9.9444e-06	40.875	0.00041709	0.00043362	0.00012569	520.24	4.4e-06	5.0198e-06	588.2	193.3	1.2812e-05	5.2451e-06	207.03	83.69	73.141	33.952	1.7292e-05	39.823	143.474	-32.953	-4.876	-94.094	36.681	39.909	-95.939	-89.918	-34.325	26.616	-92.184	-88.423	-85.456	-79.974	40.139	-84.374	-8191	255	
40393.184	1	1	0	0	0.26812	0.20894	0.2277	0.15401	0.011971	0.1031	0.24157	0.13519	0.099436	0.15929	0.23706	0.24695	0.31148	0.32993	0.040431	0.13292	-2.7271	-3.1937	-2.625	-3.2583	-2.9688	-2.8354	-3.2396	-2.9542	-2.6792	-3.2958	-3.1021	-3.2583	-3.0833	-2.7979	-3.1729	-2.8979	-62.024	225.046	-40.569	71.012	32.773	-39.596	139.716	196.737	243.985	242.288	209.545	-105.061	-70.145	205.290	101.646	223.429	0.00032027	0.00036057	0.00011466	540.91	1.5958e-06	3.1156e-06	609.17	200.33	6.7346e-06	2.4324e-06	212.85	85.348	74.175	34.606	4.5605e-06	40.378	0.00043393	0.00047821	0.00013204	520.62	4.4374e-06	5.4129e-06	586.49	193.26	1.5972e-05	5.3306e-06	205.44	82.607	72.391	33.704	1.4018e-05	39.514	141.925	-34.581	1.469	-94.363	33.533	26.758	-95.932	-90.020	-22.299	36.592	-92.300	-88.923	-85.481	-80.073	53.569	-84.385	-8191	255	
40393.281	1	1	0	0	0.14601	0.44511	0.10559	0.086381	0.11785	0.060473	0.073302	0.13143	0.062028	0.10052	0.07236	0.052786	0.1699	0.102	0.084436	0.11194	-2.4708	-2.9583	-2.7562	-3.1562	-2.9604	-2.7313	-3.1375	-3.1042	-2.8646	-3.2542	-2.8292	-3.1417	-3.1	-2.8063	-3.0938	-3.0667	161.283	-20.832	-26.069	-72.540	-87.913	214.553	62.124	192.060	234.657	159.577	168.930	-32.766	-72.373	101.267	120.552	226.474	0.00031102	0.00035367	8.3086e-05	539.2	3.1489e-06	2.6702e-06	607.39	198.71	5.6481e-06	4.0878e-07	212.2	85.546	74.26	34.667	7.9065e-06	40.551	0.00043112	0.00046802	0.00013127	519.3	4.7409e-06	5.2679e-06	585.25	191.93	7.7493e-06	9.7892e-06	205.18	82.881	72.526	33.775	1.7673e-05	39.656	138.344	-16.076	15.191	-94.218	23.181	22.022	-96.003	-90.069	-4.637	-18.599	-92.303	-88.696	-85.494	-80.458	62.491	-84.108	-8191	255	
40393.402	1	1	0	0	0.17987	0.1798	0.065392	0.25299	0.033702	0.33719	0.14663	0.29102	0.043985	0.20459	0.16924	0.085405	0.26693	0.18468	0.23228	0.13795	-2.3917	-3.0958	-2.9604	-3.2979	-3.1125	-2.8021	-3.3229	-3.1125	-2.8333	-3.2417	-3.0542	-3.0438	-3.1979	-3.0938	-3.0708	-2.9667	-75.712	-22.106	210.745	-85.711	-101.938	-6.753	182.871	161.621	-79.445	97.051	-60.985	-97.734	216.888	232.926	161.974	146.256	0.00028735	0.00027299	0.0001111	541.4	2.93e-06	1.6804e-06	610.09	201.01	2.2732e-06	7.0376e-06	212.81	86.278	74.831	34.569	5.3047e-06	40.876	0.00044587	0.00044157	0.00012901	521.57	4.5372e-06	5.4161e-06	586.54	193.46	4.8277e-06	1.9875e-05	206.01	83.713	72.979	33.789	1.3625e-05	39.831	143.399	-28.933	-32.031	-94.032	25.683	-3.110	-95.918	-90.212	7.635	-23.297	-92.298	-88.477	-85.357	-80.242	91.876	-83.954	-8191	255	
40393.496	1	1	0	0	0.06652	0.12909	0.17241	0.17737	0.09814	0.19184	0.34383	0.2824	0.17344	0.19739	0.22288	0.13242	0.17835	0.067712	0.29325	0.19591	-2.45	-3.1375	-2.9854	-2.9375	-3.1771	-2.7708	-3.2583	-3.2	-2.9188	-3.2604	-2.9208	-3.1312	-3.0812	-2.8396	-2.9958	-2.9917	212.855	85.957	-6.093	105.879	81.040	211.331	217.829	214.057	-57.991	121.316	225.896	-33.292	112.940	84.789	156.483	193.649	0.00031877	0.00050698	0.000104	539.71	3.5024e-06	2.2353e-06	611.02	200.48	1.1395e-06	8.492e-06	213.08	85.905	75.049	34.316	8.5513e-06	40.323	0.00043772	0.00046506	0.00013407	520.57	4.6696e-06	5.331e-06	586.66	192.79	4.8445e-06	1.4937e-05	205.37	83.057	72.522	33.529	1.7731e-05	39.344	144.708	-16.046	-0.212	-94.334	21.423	23.210	-95.884	-90.066	-38.307	18.852	-92.251	-88.803	-85.740	-80.331	82.285	-84.314	-8191	255	
40393.594	1	1	0	0	0.16696	0.15408	0.14646	0.19388	0.14229	0.13925	0.21138	0.075372	0.11524	0.24555	0.18153	0.16213	0.29128	0.14381	0.18077	0.11532	-2.2687	-3.0333	-2.9188	-2.7167	-3.2667	-2.8917	-3.1688	-3.1312	-2.9479	-3.1437	-2.8563	-3.0667	-3.2458	-3.0292	-2.9333	-3.0896	120.732	-2.793	136.941	-53.504	-6.610	104.865	226.486	229.931	-21.007	236.076	-105.626	14.356	-41.529	210.675	38.774	186.615	0.00033551	0.00034428	0.00012154	536.08	1.4957e-06	3.2744e-06	607.93	199.34	2.7077e-06	6.971e-06	211.74	85.662	74.447	34.437	6.8538e-06	40.871	0.00042257	0.0004605	0.00012256	516.55	8.8014e-06	5.236e-06	584.35	192.44	4.6698e-06	1.9427e-05	205.09	83.024	72.416	33.57	1.3888e-05	39.588	142.659	-6.723	-24.126	-94.005	251.672	66.261	-96.048	-89.789	-49.690	-21.700	-92.916	-88.618	-85.887	-80.187	59.595	-84.311	-8191	255	
40393.688	1	1	0	0	0.052985	0.033716	0.1431	0.34034	0.1198	0.060972	0.13077	0.12994	0.043029	0.17371	0.092991	0.29932	0.060302	0.078282	0.23098	0.25245	-2.4771	-3.2146	-3.1188	-2.8167	-3.1312	-2.9479	-2.9979	-3.2646	-2.8625	-3.0875	-2.9625	-2.8812	-3.1188	-3.1417	-2.8396	-3.2042	79.952	126.943	248.636	144.480	247.051	194.251	163.761	146.066	210.009	126.131	-82.786	197.065	79.534	40.752	99.211	212.053	0.00030549	0.00032863	0.00011187	541.25	3.8927e-06	3.3102e-06	615.02	200.13	3.9841e-06	3.7422e-06	216.28	86.729	75.079	34.358	5.6754e-06	40.712	0.00042484	0.00047387	0.00012866	518.32	1.6481e-05	4.9503e-06	588.59	193.5	5.2267e-06	1.491e-05	207.3	83.788	73.111	33.689	1.6997e-05	39.74	142.938	8.199	-16.931	-94.081	205.816	43.928	-95.979	-89.913	-12.708	-5.244	-92.736	-88.937	-85.657	-80.373	46.244	-84.386	-8191	255	
40393.809	1	1	0	0	0.066109	0.051632	0.26922	0.07198	0.10031	0.26663	0.06873	0.18891	0.11725	0.060403	0.20071	0.2676	0.095647	0.19188	0.17913	0.090405	-2.3958	-3.0625	-2.8688	-2.7458	-3.15	-2.9021	-2.9833	-3.1958	-2.8583	-2.9917	-3.1958	-2.8167	-3.2687	-3.0792	-2.8187	-3.1208	75.037	-1.124	2.225	-44.230	143.344	42.047	-7.915	192.997	71.795	99.164	-93.503	120.582	211.876	137.078	92.667	107.853	0.00031615	0.00041211	9.4546e-05	540.6	3.1227e-06	2.1963e-06	612.86	199.53	1.0809e-06	6.1896e-06	212.1	86.441	74.205	34.446	7.1361e-06	40.399	0.00043974	0.00043131	0.00012812	519.13	1.2943e-05	4.7112e-06	586.75	193.2	4.5788e-06	2.004e-05	206.1	83.627	72.465	33.544	7.4999e-06	39.465	143.288	5.436	-23.120	-93.836	205.632	45.676	-95.899	-89.896	-22.278	16.657	-92.217	-88.697	-85.565	-80.122	41.964	-84.349	-8191	255	
40393.879	1	1	0	0	0.38875	0.22913	0.10801	0.20391	0.15749	0.060667	0.32664	0.15386	0.13589	0.18268	0.12375	0.17799	0.083626	0.10417	0.18586	0.18453	-2.3396	-3.0167	-3.1813	-2.8688	-3.1562	-2.9958	-2.8771	-3.4667	-2.8083	-3.0938	-3.2833	-2.8667	-3.2104	-3.1125	-2.8937	-3.2396	16.387	198.546	-11.904	-106.343	-107.874	20.220	224.527	-35.250	34.812	212.006	124.756	-6.863	235.537	-106.158	208.208	245.297	0.00032573	0.00035115	8.3116e-05	537.05	1.1053e-06	3.7206e-06	603.41	199.1	2.979e-06	8.4467e-06	209.94	84.965	74.16	34.14	2.7236e-06	40.278	0.00042538	0.00046108	0.00012501	515.25	1.6135e-05	5.0763e-06	580.81	191.77	4.5714e-06	1.5215e-05	203.44	82.694	72.251	33.361	5.082e-06	39.498	145.770	-26.293	-41.453	-94.059	236.197	42.209	-95.905	-89.993	-18.847	13.851	-92.320	-88.843	-85.505	-79.895	41.395	-84.333	-8191	255	
40394.000	1	1	0	0	0.43339	0.068269	0.055792	0.054186	0.20463	0.21459	0.32325	0.074212	0.1587	0.19303	0.19976	0.16061	0.10998	0.38552	0.13582	0.20891	-2.5625	-2.8771	-3.1562	-2.8771	-3.0771	-3.0667	-2.9292	-3.1625	-3.0771	-2.9083	-3.1083	-2.8812	-3.0187	-3.0375	-2.7396	-3.0812	151.162	161.928	-40.297	174.933	-46.970	-60.965	168.248	233.395	226.072	83.850	191.479	234.582	135.553	-93.526	92.370	-81.692	0.00031035	0.00051542	0.00012154	534.54	2.6298e-06	3.4019e-06	604.15	198	3.4984e-06	8.8537e-06	212.52	85.913	74.06	34.305	2.4145e-06	40.621	0.00042408	0.0004764	0.00012302	514.12	1.3203e-05	4.9011e-06	581.27	192.03	4.8518e-06	1.7005e-05	204.56	83.311	72.304	33.523	5.1109e-06	39.68	152.460	-13.379	-15.902	-93.842	-97.499	45.096	-95.885	-89.659	-28.222	22.103	-92.247	-88.483	-85.515	-80.374	49.639	-84.132	-8191	255	
40394.098	1	1	0	0	0.18555	0.28417	0.19925	0.1994	0.21977	0.20729	0.077652	0.12494	0.19218	0.18728	0.038801	0.17201	0.31318	0.31118	0.081851	0.24506	-2.6375	-3.0354	-3.1583	-3.0208	-2.8917	-3.1833	-2.9604	-3.1625	-3.0021	-2.8896	-3.0875	-2.9396	-3.0229	-3.1979	-2.8479	-3.2542	112.094	50.137	243.795	210.686	-29.229	56.962	-45.121	139.763	136.030	-41.744	-16.946	-107.387	237.950	-35.475	-70.327	249.073	0.00033185	0.0005101	9.4251e-05	536.91	3.7469e-06	4.2504e-06	604.32	199.39	3.052e-06	7.879e-06	213.91	86.672	74.988	34.389	3.6481e-06	40.706	0.00040313	0.00047741	0.00012856	515.42	1.6634e-05	5.2385e-06	584.1	192.54	4.8063e-06	7.2316e-06	207.03	83.731	72.943	33.713	5.1889e-06	40.089	139.476	-40.029	-19.656	-94.256	240.821	51.962	-96.078	-90.083	-17.854	21.857	-92.457	-88.748	-85.892	-80.427	43.464	-84.209	-8191	255	
40394.191	1	1	0	0	0.35337	0.040092	0.30715	0.21352	0.20873	0.077743	0.27116	0.15412	0.12977	0.22415	0.076704	0.22268	0.079699	0.10708	0.17989	0.13545	-2.5125	-2.8771	-3.0542	-2.8812	-3.0854	-3.1354	-3	-3.1604	-2.9104	-2.8542	-3.2667	-3.0146	-2.9979	-3.3229	-2.975	-3.2292	221.291	36.601	59.793	146.742	-58.116	159.803	212.500	177.313	65.064	219.251	-67.265	143.430	223.965	229.355	219.350	85.253	0.00033427	0.0002612	0.000103	538.64	5.4618e-07	3.1637e-06	609.47	200.18	2.2526e-06	3.3697e-06	213.52	85.955	74.887	34.258	2.6087e-06	40.514	0.00041889	0.00046881	0.0001229	517.94	1.2879e-05	5.0714e-06	585.38	193.11	4.5567e-06	5.1021e-06	207.14	83.373	72.872	33.523	4.9297e-06	39.619	147.480	-28.833	-24.828	-94.284	13.981	53.518	-96.012	-89.805	-15.406	17.475	-92.636	-88.465	-85.559	-80.203	3.447	-84.397	-8191	255	
40394.289	1	1	0	0	0.073593	0.15937	0.1934	0.25042	0.20445	0.15042	0.13871	0.036111	0.25846	0.047648	0.1232	0.077594	0.24485	0.14427	0.05913	0.082393	-2.6458	-3.0104	-3.175	-3.0458	-2.8354	-3.25	-2.9396	-3.0646	-3.0667	-2.9708	-3.0708	-3.0854	-2.9292	-3.3792	-2.725	-3.1458	-44.386	22.928	18.153	-102.365	54.615	37.982	-33.569	54.942	-24.773	-64.387	177.017	-35.534	104.950	-88.605	240.714	-99.724	0.00032695	0.00029031	0.00012372	534.83	3.4989e-06	2.3018e-06	607.4	199.11	3.0848e-06	3.5456e-06	213.29	86.118	74.384	34.383	2.2131e-06	40.862	0.00041986	0.0004587	0.00013162	515.08	1.3956e-05	5.4874e-06	583.64	192.58	4.8679e-06	5.2295e-06	206.43	83.384	72.502	33.574	5.0026e-06	39.9	145.508	-18.853	-13.892	-94.607	-8.633	-24.337	-95.987	-89.817	-2.304	50.777	-92.462	-88.747	-85.382	-80.118	30.042	-83.979	-8191	255	
40394.410	1	1	0	0	0.084566	0.25249	0.17048	0.24197	0.16799	0.18737	0.10492	0.16256	0.32915	0.12412	0.098533	0.23626	0.066501	0.16435	0.12948	0.08714	-2.5604	-2.7625	-3.0854	-3.0354	-2.9354	-3.1688	-2.8021	-3.1104	-3.1333	-2.7479	-3.125	-3.0042	-2.9583	-3.2229	-2.9729	-2.9604	145.160	47.775	-44.301	-95.923	105.188	27.572	23.432	195.166	117.931	-57.433	-93.625	201.821	114.091	233.503	178.325	212.598	0.00030574	0.00050531	0.00010184	541.05	4.4611e-06	3.4077e-06	606.9	199.97	2.467e-06	3.6538e-06	215.46	86.218	75.142	34.541	3.6824e-06	40.876	0.00043404	0.0004819	0.00013262	518.03	6.1019e-06	1.1585e-05	585.25	192.92	4.6892e-06	5.0035e-06	208.38	83.646	73.127	33.7	5.1348e-06	40.06	142.541	-5.065	4.426	-94.200	-1.531	-53.455	-96.088	-90.023	-23.255	59.593	-92.476	-88.626	-85.941	-80.026	26.800	-84.522	-8191	255	
40394.480	1	1	0	0	0.15563	0.07588	0.1172	0.17751	0.043571	0.10681	0.04979	0.094995	0.040333	0.1625	0.065141	0.064229	0.22509	0.17881	0.15986	0.12456	-2.6875	-2.8125	-2.9562	-2.9646	-2.7229	-3.0563	-2.9271	-3.1146	-3.1583	-2.9667	-3.1	-3.1063	-2.7146	-3.175	-2.8521	-3.0896	151.105	-26.302	-10.480	-59.482	-23.988	71.537	204.079	164.322	-22.265	4.689	50.309	-25.388	-13.332	150.668	70.908	170.495	0.00034757	0.00024417	0.00010988	541.64	3.2343e-06	5.4082e-06	605.63	199.93	2.3955e-06	1.1088e-06	214.01	86.735	74.696	34.641	2.2832e-06	40.953	0.00042686	0.00046549	0.00013003	518.45	4.6479e-06	1.8969e-05	586.13	193.07	4.8204e-06	5.2484e-06	207.72	84.08	72.937	33.846	4.9152e-06	40.081	146.641	16.247	9.179	-94.444	30.772	-60.820	-96.047	-90.039	4.429	3.296	-92.702	-88.978	-86.009	-80.359	30.387	-84.187	-8191	255	
40394.578	1	1	0	0	0.1328	0.15544	0.23906	0.13262	0.061396	0.03603	0.26042	0.3525	0.02569	0.040717	0.18462	0.28901	0.19478	0.30845	0.059137	0.096098	-2.7062	-2.7271	-2.9896	-3.2625	-2.8396	-3.2313	-2.8812	-3.0187	-3.1875	-3.0021	-3.2354	-3.0062	-2.9062	-3.1667	-2.9208	-2.9062	177.857	215.422	98.295	-68.797	48.109	-70.742	207.906	213.908	209.055	226.549	-88.918	-86.322	21.862	160.634	-9.691	241.711	0.00033656	0.00047295	0.00010367	539.94	2.3882e-06	4.0715e-06	611.7	199.86	2.766e-06	3.7961e-06	214.84	86.722	75.2	34.443	3.0726e-06	41.303	0.00049521	0.00048457	0.00013059	518.94	4.4985e-06	1.4823e-05	585.59	193.52	4.8117e-06	4.8753e-06	207.83	83.957	73.185	33.786	4.6928e-06	40.099	135.018	-15.628	-18.176	-93.886	46.688	-1.697	-96.198	-90.222	-27.237	26.157	-92.599	-88.685	-85.599	-79.994	57.337	-84.153	-8191	255	
40394.672	1	1	0	0	0.23751	0.30611	0.048371	0.026456	0.30576	0.081358	0.25884	0.13821	0.11574	0.13244	0.18816	0.090647	0.18362	0.1428	0.16088	0.14815	-2.6875	-2.8	-3.0896	-3.4417	-2.8604	-3.1458	-3.0708	-2.8438	-3.1854	-2.9313	-2.8979	-3.1937	-2.9375	-3.1521	-2.9271	-2.7854	136.926	37.991	102.274	166.295	170.642	-98.628	189.657	40.279	1.290	-19.975	133.328	84.799	231.843	192.135	-86.323	122.021	0.0003797	0.00036081	8.0056e-05	540.1	2.7263e-06	5.5095e-06	610.29	199.2	3.3068e-06	2.4284e-06	213.08	86.451	75.134	34.632	2.3433e-06	41.187	0.00071908	0.00045422	0.00011963	519.03	4.4346e-06	1.9008e-05	587.94	193.2	4.9442e-06	4.8621e-06	207.71	84.019	73.239	33.831	5.0582e-06	40.144	134.454	-17.162	-11.753	-94.155	5.142	-21.929	-95.889	-90.156	-32.949	12.708	-92.341	-88.864	-85.556	-80.187	50.152	-84.369	-8191	255	
40394.770	1	1	0	0	0.012484	0.17916	0.078825	0.24827	0.19326	0.086085	0.050307	0.23773	0.16651	0.18055	0.14255	0.069141	0.34951	0.20829	0.20644	0.20312	-2.6917	-2.9042	-2.8229	-3.1729	-2.9333	-3.0042	-3.0667	-2.9917	-2.9437	-2.9729	-2.9229	-3.275	-2.8438	-3.0563	-2.7438	-3.0271	97.118	1.601	248.232	226.926	-76.426	246.600	0.421	126.379	24.504	250.486	-50.693	-18.196	-63.076	183.197	-82.301	218.901	0.00037288	0.000276	0.00010143	542.05	3.7897e-06	5.3565e-06	609.05	199.75	3.4981e-06	3.6208e-06	214.3	87.115	75.437	34.73	1.5716e-06	41.245	0.0010762	0.0004415	0.00012423	519.45	4.5983e-06	1.4822e-05	587.57	193.39	4.9964e-06	5.1777e-06	208.12	84.29	73.298	33.841	4.7462e-06	40.147	125.560	-7.685	-27.693	-94.362	23.014	9.195	-95.982	-89.916	-15.544	33.705	-92.471	-88.570	-85.466	-80.235	9.678	-84.555	-8191	255	
40394.887	1	1	0	0	0.1311	0.22824	0.072047	0.16734	0.10473	0.048766	0.25316	0.24472	0.12353	0.123	0.31436	0.30291	0.097341	0.35749	0.16177	0.35527	-2.7167	-2.8458	-2.7875	-3.2104	-3	-3.1396	-3.0917	-2.7875	-3.2188	-2.9458	-2.7792	-3.1937	-2.9667	-3.0167	-3.0542	-2.9896	60.250	191.918	73.695	222.005	105.011	25.888	103.648	232.774	-101.622	130.186	249.368	-102.290	-49.031	195.751	-69.201	152.733	0.00031346	0.00040096	0.00011796	544.56	3.3216e-06	7.1313e-06	614.09	200.2	1.611e-06	3.5352e-06	216.36	87.403	75.182	34.755	3.8698e-06	41.417	0.00084478	0.00043188	0.00012579	521.26	4.6438e-06	1.926e-05	589.85	193.58	5.0439e-06	5.1054e-06	207.71	84.661	73.437	34.001	4.9499e-06	40.35	124.186	3.220	-26.816	-94.315	46.762	-21.374	-96.181	-89.808	-49.838	29.068	-92.527	-88.540	-85.752	-80.400	32.832	-84.527	-8191	255	
40394.984	1	1	0	0	0.16123	0.10667	0.14789	0.14567	0.2081	0.31689	0.070708	0.12751	0.095711	0.10881	0.17193	0.20819	0.0341	0.2782	0.092851	0.35514	-2.6333	-2.9875	-2.8167	-3.3375	-2.9375	-3.0354	-3.0854	-2.8875	-2.9458	-3.0979	-2.95	-3.3146	-3.0979	-2.9167	-3.2167	-2.9854	43.576	108.306	170.833	12.779	-88.777	-55.573	174.500	161.664	-30.446	189.448	247.020	178.851	171.871	173.333	178.796	185.457	0.00034233	0.00030217	0.00012902	540.78	1.8641e-06	3.8762e-06	610.44	200.91	2.5477e-06	4.5236e-06	215.74	87.006	75.537	34.826	2.5279e-06	41.627	0.0010549	0.00044634	0.0001281	521.48	4.616e-06	1.4638e-05	589.89	193.97	4.6711e-06	4.8112e-06	207.64	85.175	73.611	33.978	4.843e-06	40.402	133.306	-19.330	-27.068	-94.407	26.336	-67.581	-95.984	-89.947	-14.339	40.056	-92.557	-88.525	-85.646	-80.377	7.939	-84.239	-8191	255	
40395.082	1	1	0	0	0.19633	0.069451	0.12439	0.22877	0.2537	0.099085	0.20923	0.131	0.16546	0.16824	0.10265	0.084453	0.097025	0.20546	0.083393	0.26002	-2.6729	-3.0292	-2.7313	-3.1333	-2.9146	-2.9604	-3.2354	-2.9083	-3.2167	-3.0792	-2.8271	-3.1896	-2.9521	-2.9708	-3.1583	-3.0104	165.404	212.656	57.283	116.075	221.288	249.737	182.734	-76.535	-55.726	41.883	77.643	-44.242	-80.163	-17.953	61.660	83.748	0.00035116	0.0002414	0.00012117	546.74	3.7242e-06	7.6523e-06	615.65	201.47	3.0984e-06	4.1923e-06	214.88	87.706	75.935	34.768	3.3821e-06	41.532	0.00086148	0.00048088	0.0001284	522.87	4.5813e-06	1.5295e-05	592.92	193.84	4.7535e-06	4.8523e-06	207.93	85.328	73.897	33.921	5.3312e-06	40.492	135.339	-5.894	-13.942	-94.143	-11.026	3.636	-96.325	-89.862	-3.917	24.982	-92.599	-88.810	-85.652	-80.089	25.060	-83.985	-8191	255	
40395.176	1	1	0	0	0.26415	0.21147	0.10741	0.24775	0.089538	0.089536	0.11905	0.18489	0.18229	0.18459	0.18044	0.17422	0.080273	0.09481	0.19677	0.22447	-2.6792	-3.1958	-2.65	-3.2188	-2.9729	-2.7667	-3.175	-2.8917	-3.05	-3.3458	-3.2146	-3.1937	-3.0375	-3.0896	-3.1375	-2.9708	174.171	70.912	115.445	227.105	237.532	29.184	-47.150	175.251	-4.389	206.236	-75.453	-47.421	126.983	250.125	231.667	204.944	0.00038555	0.00022694	9.1951e-05	541.95	4.2839e-06	5.531e-06	614.49	201.78	1.7311e-06	5.6896e-06	214.97	87.168	75.221	34.794	2.7291e-06	41.468	0.0010699	0.00045284	0.00012206	521.76	4.5555e-06	5.4988e-06	591	194.04	4.7494e-06	4.8753e-06	207.33	85.054	73.37	33.993	4.9946e-06	40.382	131.680	1.557	-11.166	-94.160	28.732	20.671	-96.064	-89.984	21.344	31.546	-92.736	-88.865	-86.094	-80.140	47.158	-84.316	-8191	255	
40395.273	1	1	0	0	0.10716	0.25879	0.40988	0.028159	0.11063	0.064509	0.2479	0.092878	0.25966	0.19424	0.24158	0.24179	0.30723	0.088784	0.1063	0.4868	-2.65	-3.2125	-2.9479	-3.2229	-3.0146	-2.8146	-3.1479	-2.925	-2.8833	-3.3667	-2.7	-3.1271	-3.1708	-2.7833	-3.2229	-3.0333	57.143	74.161	-27.678	-65.009	231.188	185.580	39.216	75.661	-57.335	-22.460	-101.874	205.145	-95.353	169.595	-48.800	162.888	0.00034852	0.00044553	0.00012858	545.56	3.6589e-06	4.8141e-06	613.71	199.43	2.3109e-06	4.3254e-06	214.82	87.351	75.258	34.913	2.2829e-06	41.704	0.00085232	0.00042574	0.00012286	522.43	4.3654e-06	4.9519e-06	591.3	193.35	4.5781e-06	5.0635e-06	206.01	84.79	73.189	34.089	4.986e-06	40.51	137.659	-34.046	-28.014	-94.386	27.567	48.001	-96.048	-90.165	-1.124	55.060	-92.717	-88.689	-85.700	-80.193	38.166	-84.504	-8191	255	
40395.367	1	1	0	0	0.20406	0.17651	0.18198	0.075115	0.19826	0.21868	0.020768	0.1354	0.1599	0.13278	0.10761	0.16532	0.11234	0.019615	0.2855	0.15513	-2.4604	-3.0729	-2.8875	-3.0875	-2.9896	-2.675	-3.2	-3.0792	-3.0875	-3.0875	-2.9188	-3.0146	-3.1271	-2.9	-3.1437	-3.0042	143.226	139.881	22.871	75.086	237.098	60.018	123.823	104.842	83.051	52.204	243.301	139.325	156.881	130.027	13.331	-55.014	0.00036656	0.00019071	0.00011058	544.23	2.1646e-06	3.5963e-06	612.01	199.91	2.0309e-06	3.0274e-06	214.16	87.369	74.599	34.719	2.1505e-06	41.714	0.00080817	0.00073759	0.00012485	521.64	4.6941e-06	5.0534e-06	591.43	192.81	4.6979e-06	4.9501e-06	206.52	84.924	72.962	34.084	5.1896e-06	40.551	143.570	183.600	-21.268	-94.310	-3.375	27.511	-95.846	-90.038	-29.076	42.246	-92.672	-88.838	-85.520	-80.064	39.024	-84.079	-8191	255	
40395.488	1	1	0	0	0.14034	0.1962	0.18614	0.22479	0.20227	0.05388	0.21725	0.086046	0.12671	0.081455	0.18101	0.14087	0.15839	0.049366	0.067002	0.24037	-2.5708	-3.1375	-2.8104	-3.0229	-3.0167	-2.8479	-3.3083	-3.1167	-2.95	-2.9958	-3.05	-3.1375	-3.2958	-2.8167	-3.0542	-3.0625	218.673	114.023	-65.399	225.477	-14.679	222.898	223.668	27.464	210.476	12.146	-94.799	-39.273	-6.492	142.375	24.600	192.545	0.00032451	0.00018771	0.00011361	540.84	2.1466e-06	3.8631e-06	614.35	199.79	3.9546e-06	4.6554e-06	214.07	86.813	75.283	34.921	2.4292e-06	41.607	0.00043577	0.0012027	0.0001168	520.13	4.3117e-06	5.0035e-06	592.12	192.5	4.651e-06	5.075e-06	206.48	84.637	73.095	34.041	5.0994e-06	40.536	144.169	16.907	-33.172	-94.027	-3.296	52.291	-96.196	-89.712	-21.341	45.160	-92.739	-88.896	-85.772	-80.143	-12.352	-84.568	-8191	255	
40395.586	1	1	0	0	0.085495	0.17209	0.24464	0.21502	0.45657	0.069874	0.16458	0.085196	0.087527	0.12803	0.27304	0.10406	0.1242	0.078969	0.16996	0.07403	-2.5583	-3.0625	-2.8542	-2.9979	-3.1896	-2.9479	-3.2062	-3.0583	-2.7562	-3.0208	-3.1104	-2.9646	-3.1813	-2.8563	-2.9625	-3.1229	-89.947	56.299	51.490	-43.638	149.694	136.045	-105.634	-31.452	82.588	-99.773	196.721	209.068	215.473	152.947	59.756	170.837	0.00028935	0.00020071	0.00011084	543.68	1.9903e-06	4.1754e-06	611.14	199.53	3.8394e-06	3.698e-06	211.98	86.44	74.329	34.544	2.8609e-06	41.264	0.00042401	0.0016709	0.00012615	519.88	4.2458e-06	4.9527e-06	588.68	192.51	4.6644e-06	4.9945e-06	204.71	84.149	72.571	33.74	4.7123e-06	40.158	144.655	53.312	-23.103	-94.191	-0.367	54.526	-95.975	-90.229	5.627	49.695	-92.453	-88.422	-85.686	-80.070	37.566	-84.724	-8191	255	
40395.680	1	1	0	0	0.019804	0.3568	0.18214	0.080029	0.25326	0.013633	0.064608	0.13199	0.091129	0.11944	0.064568	0.1461	0.16518	0.11041	0.11886	0.12459	-2.4146	-3.1854	-3.025	-2.9979	-3.3354	-3.0083	-3.2292	-3.0604	-2.8	-3.1688	-3.0333	-2.9104	-3.2229	-2.8896	-2.9167	-3.2208	-17.896	30.079	145.625	-107.784	-2.496	-13.246	55.234	150.235	227.608	144.756	194.111	-28.394	159.028	190.163	101.333	223.427	0.00033414	0.00024054	9.5809e-05	537.66	3.9748e-06	2.2016e-06	607.49	197.71	1.8131e-06	3.0909e-06	211.95	86.431	74.896	34.814	2.5929e-06	41.285	0.00042715	0.0012636	0.000123	516.14	4.4693e-06	4.8225e-06	588.18	191.32	4.728e-06	4.6517e-06	204.54	83.768	72.973	33.851	5.225e-06	40.234	147.878	-83.874	-34.470	-94.014	43.556	76.312	-96.142	-89.916	-21.567	49.039	-92.302	-88.664	-85.649	-80.498	19.168	-84.304	-8191	255	
40395.777	1	1	0	0	0.16706	0.060698	0.07579	0.076082	0.11808	0.12082	0.16407	0.30898	0.16228	0.21859	0.13835	0.21387	0.23992	0.010788	0.081128	0.022066	-2.4021	-3.1833	-2.9729	-2.7667	-3.2521	-2.975	-3.0458	-3.1625	-2.8125	-3.0687	-3.0917	-2.85	-3.1958	-2.7292	-2.8396	-3.1667	-87.194	239.156	228.600	24.966	-54.824	72.001	72.316	-99.266	-59.910	-56.612	13.320	-100.161	232.220	30.107	-95.015	-102.528	0.00032391	0.00012863	0.00010908	541.2	2.9664e-06	3.0814e-06	609.16	198.55	2.2148e-06	6.3534e-06	213.83	87.01	74.897	34.825	1.6318e-06	41.394	0.00041687	0.0016944	0.00011852	517.71	4.4781e-06	5.1541e-06	587.61	191.8	4.5359e-06	5.1654e-06	205.28	84.233	73.363	33.975	4.7115e-06	40.542	139.976	-87.659	-24.382	-94.123	24.949	50.292	-95.654	-90.253	-36.113	28.216	-92.113	-89.110	-85.617	-80.193	37.309	-84.453	-8191	255	
40395.871	1	1	0	0	0.15059	0.16987	0.16494	0.18509	0.18819	0.25291	0.23818	0.16195	0.10619	0.15755	0.12841	0.20196	0.066818	0.14608	0.22441	0.098767	-2.4437	-3.1063	-3	-2.6417	-3.0396	-3.1188	-2.9	-3.3542	-2.9	-2.9958	-2.9708	-2.8292	-3.05	-3.0875	-2.8896	-3.2833	94.316	-79.292	185.039	-22.239	20.903	-59.177	164.304	-73.153	209.726	40.282	186.532	148.628	-65.423	200.934	-75.576	-98.225	0.00036057	0.00039709	9.5873e-05	543.39	3.9021e-06	4.4732e-06	614.12	199.27	2.3033e-06	3.3257e-06	212.51	86.408	74.094	34.678	2.1668e-06	41.45	0.00042903	0.0013067	0.00011328	519.82	4.4761e-06	4.7144e-06	589.22	192.41	4.7494e-06	4.7216e-06	205.03	83.812	73.008	33.924	4.8394e-06	40.393	144.833	-101.548	0.352	-94.350	30.741	49.167	-95.854	-90.087	-27.953	13.901	-92.746	-89.077	-85.853	-80.244	31.629	-84.203	-8191	255	
40395.969	1	1	0	0	0.073068	0.11404	0.32114	0.09082	0.28182	0.19841	0.42956	0.18513	0.078122	0.2693	0.099032	0.099999	0.22215	0.1117	0.14657	0.22293	-2.4479	-2.7812	-2.9813	-3.0479	-3.0917	-2.9854	-2.9625	-3.3063	-2.9333	-2.8458	-3.2771	-2.9667	-3.05	-3.1292	-2.8833	-3.2333	-46.800	-89.372	134.856	194.409	-27.149	82.833	184.702	160.215	-93.465	99.341	-62.909	204.873	-70.750	-40.720	97.986	168.374	0.00031896	0.00031699	0.0001093	540.03	2.1281e-06	3.2848e-06	610.6	199.23	3.063e-06	3.1269e-06	211.63	87.059	74.585	34.958	3.348e-06	41.897	0.00042758	0.0016921	0.00011035	517.78	4.4034e-06	4.572e-06	587.16	192.62	4.378e-06	4.9525e-06	204.58	84.138	73.403	34.047	4.7347e-06	40.881	144.511	179.237	-29.832	-94.439	50.722	45.065	-95.998	-89.720	27.481	51.161	-92.145	-88.922	-85.648	-80.352	2.035	-84.187	-8191	255	
40396.066	1	1	0	0	0.18191	0.14913	0.1001	0.053514	0.3598	0.22148	0.27591	0.098802	0.23206	0.081019	0.15943	0.20607	0.14148	0.11243	0.13132	0.31359	-2.5333	-2.8708	-3.1542	-2.9646	-2.9292	-3.0062	-2.9708	-3.1833	-2.9375	-2.8396	-3.1979	-2.9188	-3.1583	-3.1521	-2.7542	-3.2167	192.346	-66.514	168.907	-94.966	119.011	26.158	188.913	-96.420	34.083	12.934	136.792	170.708	211.296	-85.930	171.756	155.991	0.00030357	5.1414e-05	0.00012697	545.71	3.5567e-06	3.1622e-06	617.29	200.71	2.5809e-06	3.588e-06	215.8	88.21	76.063	35.715	4.047e-06	42.801	0.0004159	0.0012489	0.00011453	521.8	4.3762e-06	4.9527e-06	592.98	194.43	4.3719e-06	4.6296e-06	208.1	85.438	74.504	34.775	4.8784e-06	41.757	144.976	21.168	-14.879	-94.170	44.214	28.598	-96.322	-89.913	-33.205	46.071	-92.834	-88.415	-86.040	-80.349	13.419	-84.321	-8191	255	
40396.188	1	1	0	0	0.18414	0.21588	0.1443	0.2233	0.33572	0.19563	0.14675	0.33903	0.11448	0.088354	0.3247	0.15851	0.10836	0.15174	0.19202	0.19544	-2.4542	-2.8167	-3.1583	-2.9854	-2.9646	-3.2438	-2.9771	-3.1875	-3.0958	-2.8729	-3.1229	-2.9021	-3.0062	-3.1312	-2.8125	-3.2313	177.425	93.019	-64.193	-80.643	207.092	194.932	160.161	198.212	198.910	244.464	194.915	65.744	248.839	251.748	204.468	185.913	0.00029611	0.0005665	5.439e-05	549.89	4.3034e-06	2.7167e-06	619.79	200.81	1.9262e-06	3.8893e-06	215.85	88.757	76.846	35.765	3.7548e-06	43.249	0.00041651	0.0010095	0.00024396	527.17	4.3708e-06	4.8536e-06	597.49	194.67	4.5627e-06	5.0462e-06	209.01	85.975	75.176	34.985	4.9535e-06	42.02	145.750	-65.971	-92.720	-94.247	35.892	43.140	-95.901	-89.733	2.415	41.205	-92.279	-88.676	-85.745	-80.347	39.668	-84.353	-8191	255	
40396.281	1	1	0	0	0.14703	0.20328	0.13961	0.17861	0.19729	0.31124	0.17845	0.25278	0.18983	0.12428	0.13937	0.059536	0.023596	0.09718	0.1734	0.063787	-2.5479	-2.8771	-3.1312	-2.9854	-2.8667	-3.1125	-2.8667	-3.0354	-3.1854	-2.9083	-3.35	-3.0292	-2.85	-3.3042	-2.9062	-3.1562	-58.523	87.379	251.774	152.682	39.038	-80.758	82.081	145.617	-49.670	49.655	199.476	211.030	109.503	180.448	76.848	156.741	0.00033902	0.00026429	3.4774e-05	551.26	3.902e-06	4.7131e-06	623.73	201.46	2.2191e-06	2.191e-06	216.49	88.94	76.526	35.884	1.2267e-06	43.207	0.00042131	0.00045559	0.00035073	528.67	4.4896e-06	4.9486e-06	598.06	195.52	4.4656e-06	5.0068e-06	208.81	85.868	74.886	35.04	4.8112e-06	42.117	142.903	-19.276	-65.209	-94.031	26.137	30.800	-96.037	-89.927	-6.910	62.947	-92.537	-89.251	-85.863	-80.200	6.461	-84.363	-8191	255	
40396.352	1	1	0	0	0.21126	0.093233	0.22435	0.11392	0.03588	0.17746	0.15925	0.4243	0.069665	0.11899	0.098644	0.17146	0.29011	0.13075	0.23991	0.1112	-2.7125	-2.7521	-3.2188	-3.1208	-3.0042	-3.2146	-2.9542	-3.0833	-3.1208	-2.8271	-3.2458	-3.0729	-2.7604	-3.3583	-2.7979	-2.9938	-7.549	-14.063	172.053	134.069	35.728	42.770	53.599	177.780	167.633	130.796	169.284	-77.747	-85.044	-17.825	115.071	210.617	0.000327	0.00034735	0.00017239	550.7	2.9014e-06	2.1702e-06	623.84	201.87	3.4049e-06	2.7436e-06	216.94	89.025	76.791	36.047	3.6427e-06	43.657	0.00042304	0.0004402	0.0004706	528.12	4.5188e-06	4.8152e-06	599.03	195.2	4.5466e-06	4.8794e-06	209.68	86.286	74.984	35.257	4.6726e-06	42.376	144.060	-24.021	-100.885	-94.228	15.093	31.679	-95.988	-89.727	11.039	53.667	-92.525	-89.115	-85.889	-80.182	-13.210	-84.120	-8191	255	
40396.449	1	1	0	0	0.11266	0.17157	0.14257	0.2147	0.19549	0.086312	0.21887	0.27889	0.036328	0.098108	0.046837	0.052027	0.041253	0.16453	0.12803	0.29054	-2.7604	-2.6562	-3.1646	-3.0229	-2.7708	-3.1521	-2.875	-3.0646	-3.0812	-2.7854	-3.0563	-3.0854	-2.9375	-3.2167	-2.8729	-3.0958	-20.980	-51.852	233.482	139.061	147.931	-69.274	219.635	227.984	-31.552	115.143	-88.083	197.114	239.722	124.995	52.247	239.039	0.00033591	0.00033485	5.1028e-05	550.39	3.0858e-06	4.3136e-06	621.84	201.59	2.6478e-06	1.4745e-06	217.77	89.107	77.237	35.999	1.5405e-06	43.463	0.00041936	0.00044858	0.00035702	528.25	4.5732e-06	4.6858e-06	599.43	195.14	4.6075e-06	4.8424e-06	208.51	86.253	74.94	35.29	4.887e-06	42.29	145.493	-26.933	-84.246	-94.272	36.208	55.862	-95.899	-89.795	-16.496	10.451	-92.388	-88.843	-85.792	-80.061	26.482	-84.443	-8191	255	
40396.570	1	1	0	0	0.17257	0.041534	0.038409	0.085106	0.31224	0.092459	0.096024	0.089292	0.12427	0.19669	0.11221	0.19907	0.16925	0.34952	0.20712	0.10741	-2.7646	-2.7792	-3.1125	-3.1208	-2.7417	-3.275	-3.0521	-3.0271	-3.1604	-2.8646	-3.0396	-3.1375	-2.7396	-3.3583	-2.9604	-3.0104	113.319	180.441	232.347	189.365	18.932	169.797	222.876	125.968	-100.514	92.630	-0.444	-47.222	183.811	234.738	47.798	-76.322	0.00032392	0.00033717	0.00020509	549.77	4.048e-06	2.0974e-06	619.72	201.39	3.129e-06	3.0391e-06	215.14	88.871	76.631	35.948	2.6918e-06	43.467	0.00042113	0.00045552	0.0004583	529.06	4.5121e-06	5.1435e-06	597.73	195.33	4.7033e-06	5.1128e-06	208.48	86.065	74.743	35.272	4.7823e-06	42.155	143.225	-24.901	-55.034	-94.411	1.398	31.620	-96.117	-89.900	-23.035	20.484	-92.319	-88.966	-86.082	-80.250	19.899	-84.661	-8191	255	
40396.664	1	1	0	0	0.24236	0.11447	0.16576	0.15012	0.12943	0.21043	0.25632	0.35514	0.061005	0.22844	0.089467	0.27305	0.14633	0.25741	0.11961	0.11181	-2.9604	-2.8146	-3.0604	-3.0875	-2.8042	-3.1229	-3.0125	-2.8583	-3.0771	-2.9104	-3.0062	-3.0271	-2.8063	-3.1042	-2.9146	-2.8229	-94.268	142.185	69.044	242.684	-38.100	52.208	71.049	220.737	-103.955	86.518	67.748	159.502	183.696	-89.401	165.301	220.336	0.00033708	0.00028316	0.00010219	548.4	2.4753e-06	4.1187e-06	623.42	202.05	1.1433e-06	2.6103e-06	217.3	89.151	77.005	35.956	2.9907e-06	43.18	0.00042953	0.00043485	0.00034357	527.68	4.2139e-06	4.6792e-06	599.27	195.45	9.5979e-06	4.835e-06	209.89	86.612	75.007	35.201	4.5671e-06	42.233	142.289	-33.521	-63.165	-94.444	24.113	52.804	-96.182	-90.050	30.804	48.545	-92.257	-88.319	-85.482	-80.469	16.269	-84.389	-8191	255	
40396.762	1	1	0	0	0.20589	0.28255	0.11923	0.36117	0.2977	0.34782	0.11734	0.11846	0.12415	0.18632	0.22147	0.048066	0.29324	0.1444	0.18588	0.26443	-2.7604	-2.8021	-2.8625	-3.2104	-2.8	-3.1792	-3.2521	-2.875	-3.4021	-2.9458	-2.9562	-3.1771	-2.9125	-3.1437	-3.1063	-2.8792	207.978	6.434	81.992	223.853	-63.948	154.733	137.515	-45.123	251.718	33.785	-75.758	-22.280	-99.608	170.278	-99.813	178.309	0.00037893	0.00045071	0.00014908	554.34	2.622e-06	3.0991e-06	625.25	203.57	7.132e-06	4.0045e-06	219.45	89.915	77.343	36.124	3.496e-06	43.909	0.00043281	0.00045234	0.00044029	532.05	4.4618e-06	4.9298e-06	601.93	196.06	1.1975e-05	4.6559e-06	211.49	87.367	75.646	35.415	4.8495e-06	42.492	143.643	-4.453	-78.354	-94.391	42.958	35.146	-95.836	-90.058	37.849	62.808	-92.362	-88.877	-85.905	-80.150	35.053	-84.030	-8191	255	
40396.883	1	1	0	0	0.11167	0.15363	0.33029	0.18679	0.14428	0.26365	0.31059	0.18516	0.15687	0.13128	0.098808	0.1934	0.10373	0.074532	0.010855	0.18836	-2.6896	-2.9896	-2.7979	-3.2146	-2.8917	-3.0271	-3.2104	-2.8438	-3	-3.0875	-2.8583	-3.2333	-2.9958	-3.1375	-3.2667	-2.8125	108.893	239.656	-29.357	83.909	157.950	188.058	209.226	92.641	92.001	124.543	184.422	58.459	-100.517	89.209	56.710	220.291	0.00031457	0.00032601	0.00016509	553.74	2.6739e-06	2.0741e-06	624.01	201.83	9.459e-06	2.9367e-06	215.78	88.273	76.4	35.225	2.0286e-06	42.321	0.00043862	0.00041714	0.00034943	530.87	4.3348e-06	4.7488e-06	599.9	194.28	1.5701e-05	4.5482e-06	207.63	85.645	74.244	34.528	4.8343e-06	41.356	139.627	1.199	-16.905	-94.345	-7.203	18.096	-96.133	-90.046	34.137	56.546	-92.491	-88.798	-85.891	-80.307	32.669	-84.332	-8191	255	
40396.977	1	1	0	0	0.076879	0.091326	0.24281	0.27058	0.23728	0.050503	0.2613	0.25318	0.11544	0.096259	0.31873	0.1363	0.22831	0.16583	0.23491	0.32204	-2.5687	-2.9458	-2.8083	-3.2646	-2.9729	-2.9646	-3.1708	-2.875	-3.2167	-2.9896	-2.9708	-3.1562	-2.7896	-2.9417	-2.9958	-2.7854	238.605	-19.253	74.248	194.896	-21.939	86.896	138.711	97.446	123.941	169.890	180.895	239.547	-27.864	178.910	163.666	191.914	0.00033137	0.00036013	0.00017274	548.21	4.035e-06	3.9411e-06	616.93	199.87	7.3359e-06	3.453e-06	215	88.267	75.981	35.496	2.2556e-06	42.844	0.00042899	0.00041808	0.00024398	527.03	4.383e-06	4.7988e-06	594.06	192.7	1.2142e-05	4.8613e-06	206.57	85.303	73.979	34.812	4.8314e-06	41.756	145.749	-20.158	-44.099	-94.454	33.897	2.917	-96.399	-90.133	-2.196	26.685	-92.134	-88.762	-85.838	-80.133	19.315	-84.526	-8191	255	
40397.051	1	1	0	0	0.18172	0.17029	0.13952	0.17972	0.063468	0.089991	0.13682	0.13763	0.19039	0.14962	0.070182	0.15255	0.10858	0.23794	0.094738	0.10173	-2.6625	-2.975	-2.7375	-3.55	-2.9188	-2.9167	-3.3167	-2.8667	-3.0729	-3.2792	-2.7792	-3.0563	-3.0708	-2.8688	-3.2687	-2.7604	175.060	-73.627	-40.910	115.661	136.118	15.239	181.829	160.781	-45.339	193.908	171.225	210.319	220.594	-91.684	54.568	214.963	0.00031846	0.00040607	9.6952e-05	550.8	3.4962e-06	2.6742e-06	620.9	201.38	6.5102e-06	3.5913e-06	216.55	88.943	76.709	35.588	2.3363e-06	42.861	0.00041496	0.00044142	0.00012413	529.79	4.6227e-06	4.6637e-06	596.67	193.86	1.574e-05	4.6098e-06	207.92	86.005	74.25	34.674	4.8387e-06	41.691	141.979	-28.184	-37.458	-94.569	40.789	19.677	-95.942	-89.792	64.166	40.438	-92.476	-88.523	-85.638	-80.300	-23.554	-84.853	-8191	255	
40397.172	1	1	0	0	0.061293	0.091521	0.27901	0.13187	0.2076	0.18237	0.29478	0.046151	0.25911	0.21793	0.034218	0.17668	0.077947	0.15155	0.26413	0.19733	-2.6771	-2.9625	-2.7042	-3.025	-3.1875	-2.8667	-3.3042	-2.9042	-3.0792	-3.275	-2.9104	-3.1625	-3.0917	-2.9813	-3.2417	-2.9792	34.932	-95.060	241.246	-64.064	151.191	4.873	171.510	-53.722	143.064	69.066	206.667	170.754	-83.947	-95.615	186.930	235.818	0.00032759	0.00036639	8.4887e-05	549.09	2.6814e-06	4.7068e-06	623.57	200.64	6.138e-06	3.6024e-06	215.41	88.393	76.318	35.385	4.2539e-06	42.744	0.00043981	0.00043073	0.00012316	529.38	4.1711e-06	4.5278e-06	596.05	193.42	1.2295e-05	4.6583e-06	207.49	85.748	74.016	34.556	1.1003e-05	41.624	142.105	-47.466	6.723	-94.466	39.978	46.376	-95.707	-90.007	49.996	45.526	-92.545	-88.901	-85.898	-80.591	233.048	-84.333	-8191	255	
40397.266	1	1	0	0	0.10592	0.11303	0.082944	0.25402	0.11845	0.10204	0.14811	0.321	0.1022	0.26955	0.21914	0.15576	0.091149	0.35654	0.13765	0.15384	-2.6083	-3.0417	-2.9188	-3.1542	-3.1208	-3.0812	-3.25	-2.9604	-2.9396	-3.1688	-2.8833	-3.2458	-3.1146	-2.8667	-2.9292	-2.9604	-49.715	-7.371	97.844	155.773	48.838	41.084	249.120	237.656	168.497	-36.440	185.078	166.269	-20.794	199.258	-52.962	103.120	0.00037636	0.00021828	0.00010529	549.07	3.3054e-06	3.535e-06	619.06	200.6	6.3592e-06	3.4743e-06	214.08	88.195	76.045	35.264	2.8421e-06	42.64	0.00042275	0.00045682	0.00011941	528.75	4.2092e-06	4.7554e-06	594.19	193.3	1.5555e-05	4.5548e-06	206.45	85.667	74.134	34.512	1.308e-05	41.558	146.540	-11.957	-15.771	-94.264	32.551	57.189	-96.055	-90.192	36.016	48.185	-92.233	-89.000	-85.995	-79.990	42.132	-84.142	-8191	255	
40397.363	1	1	0	0	0.13826	0.25236	0.22626	0.014346	0.22308	0.12971	0.12764	0.075492	0.17205	0.14364	0.34731	0.11664	0.14276	0.28952	0.20978	0.14072	-2.4854	-3.0917	-2.8542	-3.1979	-2.9938	-2.8979	-3.35	-3.125	-2.9188	-3.4083	-2.8792	-3.0083	-3.15	-2.8688	-3.0729	-3.0708	127.661	44.202	-11.045	221.445	163.267	105.653	250.066	10.929	26.780	137.344	143.386	114.703	201.855	184.900	240.747	122.694	0.00028265	0.00029769	7.423e-05	545.96	1.7463e-06	2.9178e-06	617.28	199.67	6.0693e-06	3.6148e-06	214.17	88.508	75.699	35.193	5.321e-07	42.525	0.00042138	0.00044641	0.00011439	527.77	4.2723e-06	4.7808e-06	592.32	192.55	1.1171e-05	4.9345e-06	206.06	85.635	73.716	34.413	1.6818e-05	41.446	141.597	0.502	-2.504	-94.127	19.402	57.363	-95.926	-90.053	5.369	30.777	-92.924	-88.788	-85.949	-80.374	-75.515	-84.739	-8191	255	
40397.484	1	1	0	0	0.16109	0.030651	0.16751	0.34167	0.094711	0.16013	0.12559	0.16815	0.10937	0.23627	0.38051	0.10938	0.28144	0.25819	0.24165	0.054105	-2.5375	-3.2708	-2.875	-3.1104	-3.0354	-2.825	-3.1354	-2.9375	-2.9104	-3.3354	-2.8604	-3.1083	-3.2083	-3.0062	-3.1833	-2.9646	156.947	113.823	242.091	-81.772	-62.448	214.184	184.086	205.873	16.244	235.020	-102.513	31.869	217.369	174.796	25.682	104.579	0.00033355	0.00030873	0.00010433	550.5	2.2583e-06	2.8809e-06	616.29	198.97	7.071e-06	3.0298e-06	214.43	88.102	75.259	35.03	2.9847e-06	42.414	0.00042899	0.00044605	0.00011844	527.1	4.2893e-06	5.0706e-06	592.71	192.04	7.5298e-06	1.2854e-05	206.44	85.396	73.537	34.206	1.3218e-05	41.348	140.992	-29.520	-22.992	-94.368	24.282	79.686	-96.158	-89.934	28.316	153.539	-92.210	-89.113	-86.031	-80.348	-74.615	-84.257	-8191	255	
40397.578	1	1	0	0	0.21675	0.17717	0.13108	0.21254	0.15296	0.22267	0.27568	0.081574	0.12206	0.11679	0.10062	0.29149	0.011527	0.058967	0.28352	0.18776	-2.2521	-3.1417	-2.9083	-3.1042	-3.1542	-2.8521	-3.1271	-3.0333	-2.7562	-3.2062	-3.0396	-2.9	-3.1771	-2.8729	-2.8917	-3.0917	23.723	-87.441	202.598	179.848	210.833	179.801	217.718	170.534	166.347	27.137	182.941	127.065	31.084	226.915	-1.600	-43.386	0.00034265	0.00044307	0.00010172	544.58	2.3692e-06	2.6997e-06	612.47	198.74	3.1029e-06	4.7535e-06	211.42	87.557	75.789	35.37	2.2168e-06	42.552	0.00042895	0.00043521	0.00012053	524.14	4.307e-06	4.843e-06	590.33	191.46	4.4262e-06	1.4098e-05	204.29	84.831	73.402	34.327	1.6652e-05	41.348	146.929	11.195	-21.803	-94.367	54.055	41.662	-95.906	-90.276	6.558	68.927	-92.759	-88.635	-85.899	-80.323	-92.823	-84.100	-8191	255	
40397.648	1	1	0	0	0.1138	0.15197	0.28788	0.28926	0.16153	0.077733	0.32311	0.23206	0.1749	0.2337	0.16633	0.2124	0.082756	0.14454	0.07846	0.03968	-2.2958	-3.2125	-2.875	-3.0646	-3.1708	-2.9	-3.0938	-3.0792	-2.8979	-3.3208	-2.7583	-2.9104	-3.0667	-2.7687	-2.9562	-3.1667	-6.252	-98.588	-70.046	-93.372	-2.521	100.104	225.271	100.695	220.582	19.242	-84.948	-96.204	152.071	170.783	5.950	104.564	0.00035842	0.00055629	0.00013861	545.18	2.7495e-06	2.4338e-06	617.36	197.79	2.539e-06	3.5258e-06	213.22	88.067	75.533	35.368	2.3774e-06	42.646	0.00041784	0.00045581	0.00011202	522.99	4.3565e-06	4.5294e-06	591.52	191.69	4.5118e-06	1.8638e-05	205.41	85.304	73.47	34.333	1.2908e-05	41.331	146.376	-24.730	-27.798	-94.086	12.129	31.071	-96.067	-90.203	-13.862	82.157	-92.767	-88.743	-85.768	-80.513	235.246	-84.508	-8191	255	
40397.746	1	1	0	0	0.06085	0.22027	0.064879	0.10594	0.089668	0.045129	0.20859	0.18478	0.3853	0.15683	0.1536	0.097258	0.092311	0.16602	0.032707	0.076435	-2.5417	-3.1875	-2.8917	-2.9833	-3.0583	-2.9521	-2.9125	-3.2271	-2.9542	-3.1896	-2.9771	-2.8333	-3.2042	-2.9667	-2.9354	-3.2021	-3.167	202.692	81.550	190.189	-78.526	-90.868	-78.307	232.692	91.198	127.155	-42.722	72.035	145.823	-63.667	63.349	92.806	0.00031069	0.00026214	5.8048e-05	544.4	3.747e-06	4.0701e-06	613.77	197.61	1.8052e-06	2.564e-06	211.88	87.579	75.407	34.831	4.6958e-06	41.954	0.00041904	0.00045667	0.00011688	521.51	1.1307e-05	4.8111e-06	589.19	191.02	4.55e-06	1.4005e-05	204.64	84.874	73.043	34.078	1.6591e-05	41.137	140.944	-17.427	-11.813	-94.333	61.306	17.628	-96.004	-90.019	-31.208	112.359	-92.493	-88.773	-85.797	-80.271	-87.905	-84.655	-8191	255	
40397.867	1	1	0	0	0.086026	0.12657	0.32725	0.10559	0.1697	0.083681	0.2024	0.35276	0.29343	0.15166	0.13287	0.09878	0.19703	0.074371	0.13587	0.13103	-2.5917	-2.9083	-2.9771	-3.0208	-3.2958	-2.8417	-3.0208	-3.3271	-2.7604	-3.0917	-3.1729	-2.8375	-3.2646	-3.0521	-2.8229	-3.2458	174.320	130.237	122.933	104.828	79.576	131.786	206.473	222.983	60.836	127.902	199.544	-15.296	143.727	240.193	108.534	37.993	0.00029368	0.00037568	9.9054e-05	543.66	2.8917e-06	5.2336e-06	613.1	197.73	3.6501e-06	5.5989e-06	210.57	88.099	75.352	35.27	2.9312e-06	42.565	0.00040652	0.00043217	0.0001182	521.25	1.2217e-05	4.8323e-06	590.69	191.03	4.5433e-06	1.8872e-05	204.43	84.934	73.122	34.463	1.103e-05	41.524	147.176	-15.197	-19.100	-94.556	-9.697	42.950	-96.038	-89.964	-10.139	89.251	-92.697	-88.841	-85.993	-80.140	-5.879	-84.188	-8191	255	
40397.961	1	1	0	0	0.16747	0.16284	0.19348	0.11119	0.18391	0.22562	0.18262	0.15292	0.39519	0.17167	0.14711	0.077661	0.2068	0.046345	0.053615	0.17961	-2.5438	-3.0312	-3.1625	-2.8375	-3.1583	-2.8875	-2.9292	-3.2958	-2.8604	-3.1063	-3.0771	-2.8208	-3.1667	-3.0917	-2.8458	-3.1417	13.756	-24.831	151.777	-23.403	219.711	11.311	117.671	177.535	-107.780	32.221	171.875	57.522	-85.869	212.618	134.958	-97.489	0.00034614	0.00051487	0.00010438	542.56	7.2629e-06	2.0863e-06	615.36	197.35	2.7054e-06	4.9539e-06	210.75	87.633	75.022	35.26	4.4337e-06	42.662	0.00041528	0.00046123	0.0001133	520.46	1.5171e-05	4.6678e-06	591.02	191.47	4.3405e-06	1.3523e-05	204.35	84.833	73.266	34.333	6.6521e-06	41.573	146.295	-21.974	-20.955	-94.307	16.195	25.652	-96.296	-89.987	-11.258	90.690	-92.331	-88.791	-85.953	-80.136	-7.695	-84.781	-8191	255	
40398.059	1	1	0	0	0.25648	0.12804	0.22026	0.11046	0.21991	0.098664	0.16147	0.16809	0.11207	0.16407	0.16089	0.073486	0.081489	0.1798	0.10739	0.21005	-2.6333	-2.8208	-3.0187	-2.775	-3.2167	-3.1063	-2.9271	-3.2417	-3.1188	-3.0896	-3.3125	-3.0646	-3.0104	-3.1312	-2.8292	-3.2062	225.469	239.144	46.021	197.668	-102.406	130.981	-96.470	193.293	-19.217	-77.468	188.754	60.538	-89.575	4.044	163.759	-97.878	0.00033044	0.00023871	8.6972e-05	545.99	4.9868e-06	2.5277e-06	614.04	199.25	2.5547e-06	5.9171e-06	212.01	87.868	75.717	35.293	3.2753e-06	42.984	0.00041564	0.00041374	0.00011148	521.25	1.2266e-05	4.5106e-06	590.22	191	4.2983e-06	1.8396e-05	205.16	85.044	73.453	34.512	4.8271e-06	41.997	145.472	-23.109	-28.309	-94.323	22.175	55.464	-96.047	-90.128	24.440	110.473	-92.249	-88.940	-85.933	-80.802	30.645	-84.568	-8191	255	
40398.152	1	1	0	0	0.23446	0.34835	0.29572	0.088259	0.10969	0.10221	0.31491	0.17638	0.20331	0.14324	0.20355	0.23209	0.071779	0.21877	0.14806	0.28435	-2.6437	-3.0312	-3.2229	-2.7146	-3.1188	-3.0563	-3	-3.2417	-3.0208	-3.0042	-3.3208	-2.8937	-2.9708	-3.4167	-2.8042	-3.1937	182.008	136.767	-40.033	167.497	88.487	-41.187	191.404	142.641	152.451	-96.096	247.734	204.573	202.214	188.009	157.380	190.300	0.00034155	0.0003975	0.00010979	544.49	1.0718e-05	3.8285e-06	619.73	197.37	3.4161e-06	4.9809e-06	214.49	88.28	75.918	35.424	2.8638e-06	43.116	0.00042968	0.00043824	0.00011895	522.37	1.5525e-05	4.658e-06	594.49	191.64	4.2762e-06	1.1523e-05	206.74	85.41	73.745	34.678	4.6025e-06	42.235	143.948	-9.144	-4.785	-94.344	15.712	47.546	-96.131	-89.912	-31.663	75.612	-92.349	-88.767	-86.157	-80.482	19.450	-84.275	-8191	255	
40398.250	1	1	0	0	0.30586	0.17963	0.090644	0.091417	0.21334	0.24433	0.20692	0.05925	0.3374	0.16269	0.098541	0.21289	0.014822	0.10834	0.12458	0.32689	-2.6208	-2.9125	-3.1917	-2.9354	-3.1125	-2.8917	-2.8396	-3.0958	-2.9521	-2.8688	-3.1646	-3.0312	-3.0896	-3.1458	-2.8583	-3.0646	162.365	63.382	233.030	160.997	4.350	160.229	148.965	194.970	-68.023	-58.916	-50.767	-92.432	-17.827	-98.218	43.830	-74.788	0.00034231	0.00033512	0.00014861	544.84	4.9745e-06	3.2578e-06	616.48	198.01	2.6257e-06	3.964e-06	210.73	87.065	75.372	35.369	2.1974e-06	43.184	0.00041954	0.00041577	0.0001212	522.36	1.2187e-05	4.3509e-06	591.03	191	4.3003e-06	6.15e-06	205.86	84.749	73.358	34.532	4.6364e-06	41.992	144.536	-20.169	-23.528	-94.018	30.704	41.796	-96.018	-90.310	-28.102	65.589	-92.257	-89.267	-85.666	-80.518	-6.123	-84.858	-8191	255	
40398.348	1	1	0	0	0.077628	0.2311	0.035674	0.06603	0.21894	0.039081	0.24071	0.27607	0.1755	0.1846	0.24137	0.055844	0.073441	0.20435	0.22279	0.15463	-2.6729	-2.8667	-3.1771	-2.8438	-3.0354	-3.2687	-2.9292	-3.3563	-3.0729	-2.8396	-3.2687	-3.0875	-2.9021	-3.1896	-2.8708	-3.1083	36.420	168.072	34.373	-100.141	170.967	127.132	150.790	169.384	190.316	8.632	250.340	-89.419	165.118	-39.830	67.504	138.008	0.00031539	0.00021364	0.00010072	542.55	8.0595e-06	1.9039e-06	617.69	198.16	1.6857e-06	2.6864e-06	212.45	87.986	75.505	35.359	2.3041e-06	43.375	0.00040551	0.00043015	0.00011832	522.24	1.5843e-05	4.5138e-06	592.44	191.21	4.3124e-06	4.8087e-06	206.07	85.14	73.374	34.674	4.6321e-06	42.434	144.315	-7.933	-22.921	-94.346	36.689	30.420	-96.073	-89.928	5.317	39.881	-92.346	-88.972	-85.845	-80.385	-49.533	-84.100	-8191	255	
40398.441	1	1	0	0	0.14793	0.20969	0.16824	0.087366	0.24599	0.22124	0.025005	0.25652	0.19932	0.15377	0.057583	0.29678	0.11713	0.35077	0.13224	0.13954	-2.4854	-2.5833	-3.1063	-2.825	-2.8625	-3.2083	-2.9417	-2.9417	-3.2354	-2.9021	-3.1625	-3.0021	-2.8479	-3.2021	-2.8021	-3.1521	32.474	154.120	-26.056	41.971	0.389	31.537	-63.752	137.403	41.793	189.488	-99.146	227.883	-47.996	213.774	96.670	170.747	0.00032776	0.00028556	0.00010165	545.18	5.7704e-06	4.6251e-06	618.18	200.2	2.4726e-06	2.7643e-06	214.38	88.457	76.279	35.835	2.7988e-06	43.416	0.00040486	0.00044092	0.00012222	523.53	9.7969e-06	6.153e-06	594.35	192.37	4.3606e-06	4.7232e-06	207.84	85.652	74.015	34.883	4.6812e-06	42.482	145.553	2.322	-26.723	-94.188	30.428	79.122	-96.134	-89.720	5.457	42.974	-92.505	-88.848	-85.899	-80.215	10.123	-84.619	-8191	255	
40398.562	1	1	0	0	0.09752	0.15426	0.22854	0.25061	0.10716	0.17029	0.2102	0.17647	0.14662	0.16357	0.0054017	0.14027	0.16296	0.13061	0.14575	0.091094	-2.4646	-2.8271	-3.0812	-2.9938	-2.9146	-3.1562	-3.1792	-3.0917	-2.9938	-2.7625	-3.1562	-3.0354	-3.0708	-3.2333	-3.0229	-3.1417	104.654	29.611	162.557	148.977	133.289	62.481	230.256	-90.512	190.107	-3.347	-20.494	112.686	192.382	-54.290	209.693	114.856	0.00034879	0.00025655	0.00013907	548.89	7.9233e-06	4.195e-06	618.76	199.43	3.5415e-06	4.6918e-06	214.18	88.594	76.183	35.758	3.1504e-06	43.627	0.00042048	0.000411	0.00011991	525.44	5.3236e-06	1.484e-05	595.03	192.47	4.6022e-06	4.3156e-06	207.7	85.72	74.085	34.818	4.6812e-06	42.501	143.654	-13.670	-9.327	-94.258	24.100	147.775	-96.291	-89.873	-8.311	46.538	-92.029	-88.862	-85.683	-80.401	35.641	-84.572	-8191	255	
40398.660	1	1	0	0	0.070702	0.047803	0.021119	0.28504	0.14457	0.20851	0.22258	0.14238	0.29829	0.10886	0.16113	0.26046	0.29786	0.27421	0.066618	0.14661	-2.8771	-2.9542	-3.0625	-3.15	-2.8521	-3.3063	-2.9313	-3.025	-3.2021	-2.9229	-3.1167	-3.1292	-2.8458	-3.1979	-3.1063	-3.0042	-70.018	251.675	62.951	205.589	67.129	14.607	162.938	-90.381	50.717	192.998	-59.862	188.769	-13.932	240.357	-50.384	-35.117	0.00032686	0.00041353	0.00014401	548.56	3.7964e-06	4.1148e-06	618.27	198.99	3.0551e-06	3.1364e-06	214.42	88.619	76.12	35.678	3.0851e-06	43.304	0.00040998	0.00045711	0.00011708	525.06	4.4679e-06	1.3635e-05	594.29	192.55	4.3887e-06	4.8556e-06	208.28	85.716	74.147	34.783	4.7245e-06	42.337	144.098	-19.976	-8.956	-94.247	31.433	36.619	-96.260	-90.302	-25.391	50.023	-92.759	-89.211	-85.874	-80.430	4.375	-84.522	-8191	255	
40398.754	1	1	0	0	0.36786	0.11774	0.19064	0.065017	0.11881	0.23711	0.34656	0.27214	0.10862	0.18729	0.15059	0.12831	0.090284	0.12353	0.052407	0.037579	-2.6521	-2.8521	-2.9896	-3.2062	-2.9646	-3.1604	-3.0375	-2.8417	-3.2958	-3.0271	-2.9604	-3.2188	-2.9646	-3.0833	-2.9458	-2.9521	116.624	144.776	146.789	-42.056	-77.355	-79.535	226.237	207.287	127.455	79.186	225.967	227.188	173.835	243.733	61.838	-37.679	0.00035457	0.00044316	8.6039e-05	547.74	3.4924e-06	6.7903e-06	619.74	199.86	2.4723e-06	4.3622e-06	214.73	88.66	76.548	35.563	3.466e-06	43.139	0.00050711	0.00042769	0.00011405	526.54	4.4761e-06	1.808e-05	595.36	192.96	4.6604e-06	4.8761e-06	208	85.858	74.111	34.75	4.6162e-06	42.011	148.021	-26.030	-12.597	-94.330	6.673	43.765	-95.972	-90.063	-2.227	26.341	-92.409	-89.158	-85.902	-80.274	6.803	-84.344	-8191	255	
40398.852	1	1	0	0	0.39577	0.15078	0.12338	0.26203	0.1312	0.061316	0.26841	0.092696	0.075763	0.080618	0.14107	0.045218	0.34989	0.16894	0.1282	0.074358	-2.8417	-2.8	-3.0875	-3.2396	-2.7583	-3.2667	-3.1896	-2.9083	-3.2042	-3.0104	-3.0062	-3.1875	-2.6937	-3.0042	-2.9583	-2.8812	-55.202	-24.228	53.246	-101.114	2.651	-75.661	211.248	238.611	25.727	-79.972	99.170	7.697	174.778	-93.182	9.102	-75.105	0.00040976	0.00031779	8.5107e-05	548.16	2.8744e-06	8.7928e-06	617.82	199.54	2.3281e-06	3.6388e-06	212.43	88.3	75.776	35.368	1.4576e-06	42.626	0.00088453	0.00042711	0.00011083	525.07	4.3756e-06	1.3894e-05	594.26	192.1	4.5694e-06	4.7035e-06	207.66	85.443	73.749	34.469	4.6039e-06	41.66	149.166	-6.800	-38.820	-94.162	47.150	28.990	-96.045	-90.057	-15.126	35.693	-92.481	-89.004	-86.050	-80.376	0.035	-84.566	-8191	255	
40398.945	1	1	0	0	0.029165	0.095996	0.045481	0.060349	0.17003	0.13635	0.17122	0.28475	0.10866	0.14661	0.25043	0.22284	0.091292	0.10779	0.11135	0.084757	-2.5854	-3.0042	-2.8667	-3.2771	-2.9479	-3.1521	-3.1729	-2.9146	-2.9271	-2.9625	-2.9771	-3.2375	-2.7833	-3.0479	-2.9646	-2.8417	-59.224	-91.005	42.300	149.195	244.777	-50.331	10.696	196.415	173.063	78.701	95.711	-58.885	143.181	112.287	37.636	240.719	0.00032752	0.00020287	0.0001027	547.04	2.4631e-06	9.6499e-06	616.75	197.86	2.9325e-06	3.2126e-06	211.77	87.672	75.225	35.113	1.6216e-06	42.869	0.00082148	0.00042921	0.00011919	522.46	4.2941e-06	1.7776e-05	590.34	190.93	4.4068e-06	4.3575e-06	204.59	84.922	73.229	34.274	4.3844e-06	41.563	158.094	7.651	-20.204	-94.025	5.725	81.128	-96.239	-89.827	7.334	28.640	-92.533	-88.819	-85.872	-80.169	23.124	-84.506	-8191	255	
40399.043	1	1	0	0	0.12609	0.073148	0.1456	0.20098	0.33661	0.18817	0.30646	0.083414	0.047487	0.36231	0.20733	0.080607	0.20661	0.076944	0.20331	0.14152	-2.4833	-2.8146	-2.9271	-3.0417	-2.9437	-3.0833	-3.1229	-2.9958	-3.0687	-3.0875	-2.9583	-3.1521	-2.8875	-2.9604	-3.0646	-2.9625	152.268	207.393	43.063	62.919	-20.557	-0.539	188.019	175.888	241.181	-11.838	135.311	-106.390	230.644	250.277	141.193	194.259	0.00037853	0.00033392	7.1881e-05	542.35	3.1469e-06	9.4132e-06	611.1	198.29	3.2443e-06	3.6315e-06	212.23	87.853	74.818	35.13	2.8924e-06	42.895	0.0010105	0.00041136	0.00011838	520.64	4.2778e-06	1.4049e-05	589.4	191.3	4.4255e-06	4.5227e-06	204.6	85.402	73.01	34.295	4.4545e-06	41.607	156.809	-28.559	-15.685	-94.182	12.539	69.451	-95.942	-89.983	-37.871	37.986	-92.563	-88.670	-85.903	-80.285	23.701	-84.550	-8191	255	
40399.164	1	1	0	0	0.17963	0.11953	0.089278	0.13018	0.23524	0.14279	0.23399	0.17295	0.12709	0.16392	0.17557	0.18138	0.065192	0.30164	0.18189	0.31092	-2.6917	-2.9917	-2.8271	-3.325	-3.0583	-2.875	-3.3875	-2.9729	-3.1292	-3.0062	-2.7833	-3.175	-3.0583	-3.0271	-3.2979	-2.9521	157.563	-4.709	-96.573	-61.056	-16.037	38.452	164.044	75.319	239.997	-83.134	201.879	5.071	122.184	223.292	-103.710	231.817	0.00031301	0.00022433	0.00012368	544.26	3.2551e-06	7.6694e-06	613.04	197.59	2.2612e-06	2.14e-06	211.43	87.219	75.143	34.935	2.8521e-06	42.747	0.00080795	0.00041837	0.00011668	521.36	4.0625e-06	1.8535e-05	589.62	190.92	4.3813e-06	4.5564e-06	204.53	85.285	73.143	34.247	4.6516e-06	41.521	159.404	-8.981	2.737	-94.242	46.068	86.692	-95.898	-90.271	-12.174	17.023	-92.405	-88.867	-85.528	-80.442	18.492	-84.420	-8191	255	
40399.258	1	1	0	0	0.091133	0.12478	0.223	0.039509	0.20618	0.11159	0.1612	0.15269	0.18684	0.32368	0.052699	0.032968	0.18014	0.1717	0.25915	0.21159	-2.4917	-3.2313	-2.7354	-3.2604	-2.8292	-2.8958	-3.2542	-2.8771	-3.0396	-3.2313	-3.0646	-3.1562	-3.1521	-2.8583	-3.2604	-3.0021	94.234	138.328	-6.082	212.847	134.863	87.150	51.093	-48.054	143.336	149.865	81.941	-99.472	109.569	-105.077	110.094	-50.268	0.00036449	0.00041853	0.00011174	543.58	3.0994e-06	7.9966e-06	614.57	197.25	2.1789e-06	4.3302e-06	210.93	87.689	75.37	34.964	3.779e-06	42.373	0.00099298	0.000405	0.00012023	521.49	3.8452e-06	9.7367e-06	589.31	190.53	4.4764e-06	4.6591e-06	203.68	85.149	73.081	34.223	4.6632e-06	41.373	156.906	-29.091	-14.746	-94.292	24.628	40.278	-96.181	-90.197	-11.758	21.510	-92.740	-88.932	-85.832	-80.324	33.986	-84.489	-8191	255	
40399.355	1	1	0	0	0.25325	0.30895	0.15638	0.15691	0.13877	0.24272	0.16291	0.40659	0.30897	0.23198	0.17323	0.14215	0.058689	0.22815	0.12195	0.19896	-2.6229	-3.1979	-2.6542	-3.2417	-3.05	-3.0208	-3.4083	-2.9521	-3.0604	-3.2354	-2.95	-3.0833	-3.0958	-3.0687	-3.3479	-3.0854	170.454	145.754	21.378	191.735	107.908	93.051	52.239	200.999	110.952	-36.095	215.227	214.949	27.194	198.613	43.130	153.899	0.00034129	0.00010659	0.00015663	540.88	3.8536e-06	3.2954e-06	613.07	196.86	2.2681e-06	4.3501e-06	211.14	87.362	74.945	34.916	2.0523e-06	42.745	0.00080593	0.00040941	0.00012491	519.9	4.2166e-06	4.5671e-06	590.46	190.45	4.3311e-06	4.5219e-06	203.64	85.096	73.161	34.255	4.7578e-06	41.716	156.611	-34.036	-20.083	-94.364	15.554	26.785	-96.095	-90.173	-18.392	41.035	-92.360	-88.847	-86.154	-80.432	44.886	-84.513	-8191	255	
40399.449	1	1	0	0	0.12317	0.020817	0.12342	0.33563	0.030005	0.15592	0.33343	0.29133	0.066748	0.13271	0.064996	0.03829	0.32698	0.14465	0.048673	0.03129	-2.7354	-3.2292	-2.9375	-3.1896	-2.9938	-2.8854	-3.1854	-2.925	-3	-3.2062	-3.0812	-3.2146	-3.3083	-2.8354	-3.1854	-3.0729	-48.596	176.694	167.273	238.408	126.001	186.137	-83.540	202.917	118.193	188.531	181.131	-78.424	161.901	67.114	92.854	-5.391	0.00036017	0.00030124	8.6064e-05	545.09	2.7962e-06	3.6063e-06	616.19	199.81	2.8183e-06	3.1184e-06	214.97	89.063	75.844	35.105	1.5925e-06	42.755	0.0010072	0.00042979	0.00012085	523.7	4.1834e-06	4.8479e-06	593.99	192.08	4.6015e-06	4.8178e-06	206.63	86.192	73.861	34.286	4.6675e-06	41.654	158.379	-19.316	-24.171	-93.947	3.323	50.931	-96.465	-90.093	5.488	32.852	-92.723	-89.039	-85.664	-80.318	16.018	-84.785	-8191	255	
40399.547	1	1	0	0	0.13376	0.041179	0.20044	0.13023	0.36578	0.3009	0.12352	0.11567	0.10274	0.079445	0.1537	0.0798	0.018354	0.088611	0.19621	0.12186	-2.3708	-3.1646	-2.8312	-2.9875	-3.1562	-2.7562	-3.1917	-3.0958	-2.8812	-3.3458	-3.1188	-3.0042	-3.3354	-2.9417	-3.1917	-3.2167	106.003	-39.447	55.328	176.445	141.378	221.354	222.377	220.346	-37.581	79.439	30.871	125.618	-67.788	147.553	-62.505	154.485	0.00032191	0.0001873	0.00011614	541.77	2.9855e-06	2.6636e-06	613.46	198.69	2.4039e-06	3.7133e-06	212.54	87.691	75.655	34.803	2.5232e-06	42.684	0.00064222	0.00068093	0.00011846	522.3	4.2744e-06	4.6686e-06	592.53	191.26	4.2936e-06	4.7224e-06	204.29	85.219	73.24	34.124	4.635e-06	41.551	148.722	-36.210	-11.737	-94.218	40.113	34.948	-96.153	-90.058	-7.934	44.728	-92.387	-88.634	-85.851	-80.473	25.363	-84.592	-8191	255	
#DATA ENDS
