BOXY.EXE: ISS Imagent and Oximeter Data Acquisition Program Version 0.80
Ascii Record File

#ACQ INFORMATION
2  Detector Channels 
16  External MUX Channels 
1  Auxiliary Channels 
5000  Waveform (CCF) Frequency (Hz)
1  Waveforms Skipped 
30  Waveforms Averaged 
1  Cycles Averaged 
16  Acquisitions per Waveform 
10.0806  Updata Rate (Hz) 

#FILE INFORMATION
TRUE -- External MUX Channel results are PARSED.
FALSE -- AC DC and Phase are NOT grouped.
TRUE -- Companion Program Settings File CREATED.
FALSE -- AC data not excluded
FALSE -- DC data not excluded
FALSE -- Phase data not excluded
FALSE -- Auxillary Chn. data not excluded
Tab delimiters

#CALIBRATION STATE
TRUE -- Waveform Calibration Values APPLIED.


#AUX CALIBRATION VALUES
Val Type	aux-1	

Term	1.0000e+00	
Factor	0.0000e+00	


#WF CALIBRATION VALUES
A = Detector Channel
Val Type	A-AC1	A-AC2	A-AC3	A-AC4	A-AC5	A-AC6	A-AC7	A-AC8	A-AC9	A-AC10	A-AC11	A-AC12	A-AC13	A-AC14	A-AC15	A-AC16	A-DC1	A-DC2	A-DC3	A-DC4	A-DC5	A-DC6	A-DC7	A-DC8	A-DC9	A-DC10	A-DC11	A-DC12	A-DC13	A-DC14	A-DC15	A-DC16	A-Ph1	A-Ph2	A-Ph3	A-Ph4	A-Ph5	A-Ph6	A-Ph7	A-Ph8	A-Ph9	A-Ph10	A-Ph11	A-Ph12	A-Ph13	A-Ph14	A-Ph15	A-Ph16	

Term	0.00000e+00	0.00000e+00	0.00000e+00	0.00000e+00	0.00000e+00	0.00000e+00	0.00000e+00	0.00000e+00	0.00000e+00	0.00000e+00	0.00000e+00	0.00000e+00	0.00000e+00	0.00000e+00	0.00000e+00	0.00000e+00	0.00000e+00	0.00000e+00	0.00000e+00	0.00000e+00	0.00000e+00	0.00000e+00	0.00000e+00	0.00000e+00	0.00000e+00	0.00000e+00	0.00000e+00	0.00000e+00	0.00000e+00	0.00000e+00	0.00000e+00	0.00000e+00	0.00000e+00	0.00000e+00	0.00000e+00	0.00000e+00	0.00000e+00	0.00000e+00	0.00000e+00	0.00000e+00	0.00000e+00	0.00000e+00	0.00000e+00	0.00000e+00	0.00000e+00	0.00000e+00	0.00000e+00	0.00000e+00	
Factor	1.00000e+00	1.00000e+00	1.00000e+00	1.00000e+00	1.00000e+00	1.00000e+00	1.00000e+00	1.00000e+00	1.00000e+00	1.00000e+00	1.00000e+00	1.00000e+00	1.00000e+00	1.00000e+00	1.00000e+00	1.00000e+00	1.00000e+00	1.00000e+00	1.00000e+00	1.00000e+00	1.00000e+00	1.00000e+00	1.00000e+00	1.00000e+00	1.00000e+00	1.00000e+00	1.00000e+00	1.00000e+00	1.00000e+00	1.00000e+00	1.00000e+00	1.00000e+00	X	X	X	X	X	X	X	X	X	X	X	X	X	X	X	X	

B = Detector Channel
Val Type	B-AC1	B-AC2	B-AC3	B-AC4	B-AC5	B-AC6	B-AC7	B-AC8	B-AC9	B-AC10	B-AC11	B-AC12	B-AC13	B-AC14	B-AC15	B-AC16	B-DC1	B-DC2	B-DC3	B-DC4	B-DC5	B-DC6	B-DC7	B-DC8	B-DC9	B-DC10	B-DC11	B-DC12	B-DC13	B-DC14	B-DC15	B-DC16	B-Ph1	B-Ph2	B-Ph3	B-Ph4	B-Ph5	B-Ph6	B-Ph7	B-Ph8	B-Ph9	B-Ph10	B-Ph11	B-Ph12	B-Ph13	B-Ph14	B-Ph15	B-Ph16	

Term	0.00000e+00	0.00000e+00	0.00000e+00	0.00000e+00	0.00000e+00	0.00000e+00	0.00000e+00	0.00000e+00	0.00000e+00	0.00000e+00	0.00000e+00	0.00000e+00	0.00000e+00	0.00000e+00	0.00000e+00	0.00000e+00	0.00000e+00	0.00000e+00	0.00000e+00	0.00000e+00	0.00000e+00	0.00000e+00	0.00000e+00	0.00000e+00	0.00000e+00	0.00000e+00	0.00000e+00	0.00000e+00	0.00000e+00	0.00000e+00	0.00000e+00	0.00000e+00	-1.03364e+02	-1.28589e+02	-1.22771e+02	-1.82799e+02	-5.29327e+01	-6.36955e+01	-1.54998e+02	-1.62015e+02	-5.44320e+01	-6.23480e+01	-1.71853e+02	-1.69414e+02	-1.80018e+02	-1.77411e+02	-5.74280e+01	-1.48938e+02	
Factor	1.60856e-05	1.42380e-04	4.19562e-05	1.84207e-01	1.34200e-06	1.50499e-06	1.63323e-01	4.88771e-02	1.25689e-06	1.78350e-06	9.25773e-02	2.71365e-02	2.66344e-02	8.67124e-03	1.27850e-06	1.23973e-02	7.02452e-06	9.64614e-06	2.71299e-06	9.29001e-02	1.02271e-07	1.07808e-07	7.77924e-02	2.48455e-02	1.01700e-07	1.07589e-07	4.55974e-02	1.35142e-02	1.37367e-02	4.44083e-03	1.04084e-07	6.15744e-03	X	X	X	X	X	X	X	X	X	X	X	X	X	X	X	X	



#DISTANCE SETTINGS
A = Detector Channel
A-1	A-2	A-3	A-4	A-5	A-6	A-7	A-8	A-9	A-10	A-11	A-12	A-13	A-14	A-15	A-16	

2.5000e+00	3.0000e+00	2.5000e+00	3.0000e+00	2.0000e+00	3.0000e+00	1.5000e+00	3.0000e+00	3.0000e+00	3.0000e+00	3.0000e+00	3.0000e+00	3.0000e+00	3.0000e+00	1.5000e+00	3.0000e+00	

B = Detector Channel
B-1	B-2	B-3	B-4	B-5	B-6	B-7	B-8	B-9	B-10	B-11	B-12	B-13	B-14	B-15	B-16	

1.0000e+01	1.0000e+01	1.0000e+01	1.4400e+00	1.0000e+01	1.0000e+01	1.5100e+00	1.9400e+00	1.0000e+01	1.0000e+01	1.9900e+00	2.4900e+00	2.4100e+00	2.9000e+00	1.0000e+01	2.9800e+00	




#DATA BEGINS
time	group	step	mark	flag	A-AC1	A-AC2	A-AC3	A-AC4	A-AC5	A-AC6	A-AC7	A-AC8	A-AC9	A-AC10	A-AC11	A-AC12	A-AC13	A-AC14	A-AC15	A-AC16	A-DC1	A-DC2	A-DC3	A-DC4	A-DC5	A-DC6	A-DC7	A-DC8	A-DC9	A-DC10	A-DC11	A-DC12	A-DC13	A-DC14	A-DC15	A-DC16	A-Ph1	A-Ph2	A-Ph3	A-Ph4	A-Ph5	A-Ph6	A-Ph7	A-Ph8	A-Ph9	A-Ph10	A-Ph11	A-Ph12	A-Ph13	A-Ph14	A-Ph15	A-Ph16	B-AC1	B-AC2	B-AC3	B-AC4	B-AC5	B-AC6	B-AC7	B-AC8	B-AC9	B-AC10	B-AC11	B-AC12	B-AC13	B-AC14	B-AC15	B-AC16	B-DC1	B-DC2	B-DC3	B-DC4	B-DC5	B-DC6	B-DC7	B-DC8	B-DC9	B-DC10	B-DC11	B-DC12	B-DC13	B-DC14	B-DC15	B-DC16	B-Ph1	B-Ph2	B-Ph3	B-Ph4	B-Ph5	B-Ph6	B-Ph7	B-Ph8	B-Ph9	B-Ph10	B-Ph11	B-Ph12	B-Ph13	B-Ph14	B-Ph15	B-Ph16	aux-1	digaux	

11050.136	1	1	0	256	0.21522	0.19878	0.14672	0.26565	0.11197	0.081831	0.30017	0.32555	0.0090443	0.12176	0.12871	0.18728	0.2599	0.07867	0.059514	0.22297	-2.4854	-3.1937	-3.1937	-3.1292	-3.1667	-3.1125	-3.1167	-3.4437	-2.9104	-2.9542	-3.2667	-2.9146	-3.2396	-3.2333	-3.0604	-3.4854	113.536	-105.465	6.826	150.500	55.513	148.599	129.399	165.023	97.830	83.682	-107.028	182.900	171.157	-72.129	101.055	179.198	0.00025377	0.0006108	0.0002575	1426.8	4.0601e-06	3.4702e-06	1406.7	384.04	3.4207e-06	6.2775e-06	436.31	141.41	123.64	42.366	3.5855e-06	52.346	0.0013877	0.0017722	0.00049285	1444.2	1.8767e-05	1.9609e-05	1430.8	393.07	1.8724e-05	1.9442e-05	447.1	146.47	128.35	43.852	1.8866e-05	54.148	-126.302	-63.510	-19.352	-114.160	-11.911	15.091	-114.322	-109.781	59.561	20.886	-110.123	-105.886	-105.102	-100.889	26.256	-101.179	-8191	255	
11050.232	1	1	0	0	0.048226	0.018193	0.20298	0.27669	0.24883	0.1697	0.382	0.11473	0.087221	0.095095	0.22787	0.31966	0.28843	0.054511	0.11825	0.16362	-2.5771	-2.8917	-3.2229	-3.1688	-3.0167	-3.1437	-3.1021	-3.2229	-3.0354	-2.9188	-3.3458	-3.0667	-3.1979	-3.3979	-2.8854	-3.1833	-55.697	-70.600	-54.510	184.670	92.529	224.415	231.606	189.625	-38.939	41.456	129.983	192.761	139.928	72.444	32.806	-63.447	0.00027269	0.00078065	9.7525e-05	1424.6	6.3348e-06	5.5014e-06	1409.2	385.79	4.0897e-06	9.4317e-06	436.25	141.3	123.65	42.442	2.3613e-06	52.267	0.0013997	0.0017706	0.00048859	1443.5	1.8864e-05	1.9759e-05	1433.8	393.96	1.8709e-05	1.9309e-05	446.91	146.51	128.22	43.84	1.8469e-05	54.075	-120.796	-41.867	-44.458	-114.265	16.001	15.456	-114.211	-109.637	-17.579	50.948	-109.997	-105.842	-105.453	-100.946	155.145	-101.304	-8191	255	
11050.328	1	1	0	0	0.15327	0.13904	0.22205	0.28757	0.19436	0.19066	0.32694	0.46093	0.20051	0.15419	0.049716	0.23599	0.17127	0.30418	0.095241	0.39724	-2.5875	-2.9542	-3.1104	-3.1312	-3.0312	-3.1937	-2.9271	-3.2583	-3.0792	-2.8583	-3.1937	-3.3	-3.1396	-3.3917	-2.9688	-3.2313	86.289	-117.880	-91.480	203.630	-91.128	-6.501	180.956	185.509	-100.122	224.704	208.521	213.457	-43.239	202.417	79.076	213.220	0.00027959	0.00043292	0.00013523	1419.4	4.2591e-06	6.0167e-06	1405.2	385.26	3.0302e-06	4.108e-06	435.05	141.52	123.9	42.566	4.6377e-06	52.128	0.0013564	0.0017129	0.00047974	1440.1	1.839e-05	1.8931e-05	1428.8	393.46	1.8554e-05	1.8999e-05	445.99	146.4	128.14	43.87	1.8667e-05	54.114	227.903	-50.602	-45.891	-114.134	-21.596	9.221	-114.083	-109.591	7.538	71.914	-110.160	-105.944	-105.296	-100.880	54.768	-101.337	-8191	255	
11050.424	1	1	0	0	0.26117	0.10055	0.045653	0.38775	0.13024	0.056754	0.20455	0.28136	0.11763	0.076912	0.14309	0.11812	0.13097	0.15816	0.089388	0.30769	-2.6813	-2.7646	-3.3771	-3.225	-3.0125	-3.2958	-3.1458	-3.3708	-3.0875	-2.8604	-3.2021	-3.2396	-3.0104	-3.3708	-2.8563	-3.2229	42.436	171.762	193.297	183.866	16.092	95.171	225.746	208.779	181.811	128.452	200.306	171.786	204.876	-109.141	-59.892	199.585	0.0002908	0.00052372	0.00014211	1420.2	3.2456e-06	2.7612e-06	1402.2	385.99	1.9054e-06	3.4903e-06	435.88	141.69	123.71	42.476	5.1649e-06	52.286	0.0013526	0.0017046	0.00047387	1441.6	1.8376e-05	1.8779e-05	1427.2	393.05	1.8003e-05	1.847e-05	446.64	146.26	128.12	43.787	1.7937e-05	54.071	231.811	-38.885	-41.579	-114.238	-7.621	29.415	-114.291	-109.825	-3.597	15.815	-109.976	-106.053	-105.309	-100.940	19.355	-101.170	-8191	255	
11050.520	1	1	0	0	0.14231	0.12063	0.071758	0.24804	0.1244	0.25293	0.22405	0.21435	0.035829	0.1337	0.035618	0.33587	0.039721	0.3007	0.17274	0.045276	-2.5438	-2.8917	-3.2396	-3.1229	-2.8917	-3.1917	-3.2229	-3.0875	-3.2417	-2.8542	-3.1813	-3.1083	-2.9542	-3.2604	-2.9854	-3.2438	104.224	-29.966	200.021	189.381	78.497	173.627	160.798	161.744	157.986	-92.885	168.800	-107.818	187.751	199.462	-92.857	10.538	0.00025485	0.00053686	0.00013616	1418.1	3.9506e-06	4.5851e-06	1403.5	383.58	1.8594e-06	6.79e-06	435.15	141.4	123.65	42.291	3.7783e-06	52.289	0.0013147	0.0016553	0.00047116	1437.1	1.7741e-05	1.8139e-05	1425.2	391.66	1.7596e-05	1.8122e-05	444.85	146.21	128.04	43.714	1.8113e-05	54.085	225.042	-31.437	-29.773	-114.096	116.298	28.030	-113.971	-109.761	99.039	22.911	-110.057	-106.048	-105.255	-101.070	20.013	-101.501	-8191	255	
11050.641	1	1	0	0	0.074299	0.22903	0.20956	0.29057	0.21098	0.15561	0.15727	0.32876	0.033631	0.12752	0.22126	0.28924	0.11492	0.23073	0.084807	0.14709	-2.8417	-2.8875	-3.0833	-3.1875	-2.9417	-3.3667	-3.1146	-3.2729	-3.2917	-2.9521	-3.2479	-3.1646	-2.8375	-3.2042	-3.0833	-2.9667	159.516	213.658	162.718	178.833	-120.754	-74.708	196.072	217.460	-27.076	19.462	-91.349	168.166	-120.270	223.036	18.280	-33.478	0.00023016	0.0006043	5.61e-05	1416.2	3.6592e-06	7.4528e-06	1403.2	383.45	6.031e-06	1.8742e-07	435.83	140.95	123.2	42.57	4.5227e-06	52.344	0.0013141	0.0016607	0.0004649	1434.4	1.7684e-05	1.849e-05	1425.1	391.95	1.7705e-05	1.8541e-05	445.49	146.15	127.89	43.858	1.809e-05	54.058	231.357	-34.186	-89.081	-114.114	46.646	34.846	-114.358	-109.683	24.892	11.447	-109.943	-105.915	-105.467	-100.830	31.397	-101.201	-8191	255	
11050.737	1	1	0	0	0.22197	0.047333	0.18711	0.067739	0.10338	0.14105	0.27172	0.46655	0.21662	0.19128	0.369	0.20636	0.15506	0.37034	0.060226	0.18389	-2.7271	-2.9417	-2.9479	-3.2188	-2.7875	-3.2896	-3.2167	-3.1771	-3.1625	-2.9979	-3.1542	-3.2375	-3.0354	-3.2458	-3.1271	-3.0375	-94.267	-100.901	166.705	223.079	126.263	-72.312	93.693	171.491	-117.316	49.330	209.529	115.865	214.237	184.968	210.239	-126.543	0.000278	0.00054063	0.00019827	1416.8	2.85e-06	4.151e-06	1405.1	382.96	5.3722e-06	4.3016e-06	432.49	140.75	123.39	42.473	3.092e-06	52.237	0.0013225	0.0016686	0.00047371	1434.2	1.779e-05	1.8336e-05	1425.1	391.87	1.7659e-05	1.8393e-05	444.84	146.07	127.96	43.747	1.8252e-05	54.054	-126.848	-43.872	-14.007	-114.216	70.632	62.669	-114.093	-109.968	-23.640	9.414	-109.913	-105.807	-105.215	-100.747	-17.410	-101.373	-8191	255	
11050.831	1	1	0	0	0.32682	0.1783	0.18068	0.15752	0.10518	0.085329	0.16171	0.39004	0.096252	0.16381	0.13856	0.13107	0.27622	0.19893	0.13858	0.18968	-2.8146	-2.6625	-3.0729	-3.4208	-2.7812	-3.0875	-3.2729	-3.1771	-3.2854	-2.9813	-3.2188	-3.2313	-3.0208	-3.1729	-3.175	-2.9062	155.030	141.435	51.245	147.516	40.563	138.115	119.085	141.746	8.492	-81.784	-75.224	164.056	171.355	-117.610	165.353	221.251	0.00033904	0.00063515	0.00010955	1419.1	3.4993e-06	4.8543e-06	1404.2	384.2	3.5789e-06	6.8683e-06	435.16	141.41	123.24	42.456	6.2537e-07	52.292	0.0013219	0.0017017	0.00047013	1436.3	1.8233e-05	1.8954e-05	1428	392.35	1.8059e-05	1.8903e-05	445.73	146.07	128.02	43.845	1.8516e-05	54.03	226.818	-47.301	-36.008	-114.063	8.137	-11.557	-113.851	-109.778	6.509	69.477	-110.149	-105.839	-105.224	-100.724	49.397	-101.260	-8191	255	
11050.928	1	1	0	0	0.066335	0.12691	0.085955	0.21083	0.14801	0.1678	0.20358	0.020077	0.082634	0.036774	0.35431	0.12439	0.10896	0.15077	0.16956	0.083816	-2.8479	-3	-3.1063	-3.3458	-2.8688	-3.1479	-3.2812	-3.1521	-3.3729	-3.0729	-3.0292	-3.3563	-3.0542	-3.3063	-3.0021	-2.9437	-108.534	202.128	52.380	-109.715	70.264	230.359	151.450	15.258	220.580	186.173	161.240	-77.613	156.677	-108.196	147.269	199.494	0.00026452	0.00059111	8.8274e-05	1418.1	2.3098e-06	6.6478e-06	1402.5	383.16	2.7861e-06	2.1002e-06	438.19	141.09	123.9	42.419	6.4196e-06	51.989	0.001327	0.0017033	0.00048107	1436.4	1.7977e-05	1.8893e-05	1425.4	392.08	1.7917e-05	1.8762e-05	445.89	146.27	128.02	43.848	1.8557e-05	53.998	-124.574	-54.235	-75.842	-114.239	29.680	42.157	-114.140	-109.500	-53.075	-35.679	-109.797	-105.833	-105.509	-100.679	4.687	-101.257	-8191	255	
11051.001	1	1	0	0	0.060997	0.29424	0.14392	0.28282	0.16054	0.25571	0.19918	0.26155	0.23353	0.18149	0.13329	0.20379	0.22933	0.11396	0.039993	0.063145	-2.7438	-3.0187	-3.0708	-3.3729	-2.8083	-3.0938	-3.5542	-3.0563	-3.2375	-2.9396	-3.2188	-3.3604	-3.0187	-3.1229	-3.1979	-3.0896	11.777	95.964	198.842	207.046	123.543	192.339	199.988	180.566	38.802	150.788	-52.133	195.780	-125.809	-69.444	40.805	0.348	0.00025195	0.00036894	0.000183	1420	5.1652e-06	3.0173e-06	1402.9	384.06	5.0336e-06	7.4586e-06	435.25	141.02	123.52	42.466	3.6766e-06	52.277	0.0013294	0.0017204	0.00047333	1436.6	1.8108e-05	1.8969e-05	1425.3	391.88	1.8097e-05	1.8776e-05	445.77	145.96	127.91	43.826	1.8647e-05	54.098	218.930	-62.215	-45.723	-114.166	8.595	-54.693	-114.068	-109.631	-35.972	16.200	-110.173	-105.738	-105.668	-100.915	48.014	-101.375	-8191	255	
11051.120	1	1	0	0	0.080573	0.11397	0.079341	0.30671	0.068006	0.12425	0.11336	0.18619	0.22803	0.026806	0.066369	0.17277	0.10217	0.16253	0.13049	0.1835	-2.8604	-3	-2.8583	-3.3771	-3.0271	-2.9667	-3.4313	-2.9979	-3.1604	-3.1542	-3.0083	-3.1958	-3.1854	-3.1146	-3.1708	-3.025	5.561	152.422	-38.467	176.731	205.395	106.080	-54.655	183.328	-66.626	130.950	213.460	209.237	12.157	228.135	-55.305	55.542	0.00029691	0.00036657	9.0624e-05	1420.8	1.4684e-06	8.2164e-06	1397	384.01	3.9188e-06	9.1582e-06	434.92	140.92	123.2	42.384	4.6676e-06	52.233	0.0013658	0.0017081	0.00047503	1435.8	1.8467e-05	1.9305e-05	1424.4	392	1.838e-05	1.9419e-05	445.53	146.13	128.06	43.828	1.8553e-05	54.07	221.380	-88.172	-56.726	-114.219	225.993	25.223	-114.243	-109.575	-48.825	39.381	-110.047	-105.709	-105.326	-100.607	38.480	-101.091	-8191	255	
11051.216	1	1	0	0	0.071213	0.076461	0.086004	0.24145	0.080209	0.32556	0.25414	0.098016	0.32484	0.097389	0.20549	0.16144	0.14559	0.2067	0.048333	0.0777	-2.5542	-2.975	-2.9167	-3.3438	-2.9729	-2.9958	-3.3917	-3.1667	-3.225	-3.15	-3.1188	-3.275	-3.0146	-2.9562	-2.9729	-3.0375	-6.439	-10.322	159.407	211.547	-67.474	28.340	198.259	132.410	125.356	231.706	-39.882	112.061	172.240	-123.773	67.128	30.985	0.00025484	0.00042125	0.00025479	1421.8	3.1871e-06	7.0554e-06	1402.7	383.13	5.8712e-06	7.2781e-06	434.37	140.98	123.44	42.345	2.7898e-06	51.997	0.0013546	0.0017196	0.00048179	1437.2	1.8352e-05	1.9183e-05	1426.5	391.87	1.8622e-05	1.93e-05	445.23	146.22	128.01	43.789	1.8903e-05	53.971	232.341	-8.935	-51.604	-114.316	-9.011	7.486	-114.064	-109.409	9.741	27.967	-110.048	-105.957	-105.381	-100.613	30.986	-101.320	-8191	255	
11051.312	1	1	0	0	0.12886	0.087233	0.23599	0.078763	0.29246	0.26294	0.17085	0.16916	0.26683	0.27721	0.092646	0.14996	0.092266	0.166	0.099029	0.10858	-2.6146	-3.1	-2.9437	-3.3458	-3.1479	-2.9437	-3.5896	-3.0542	-3.2417	-3.2417	-2.8083	-3.2583	-3.1104	-2.9542	-3.2812	-3.0938	226.643	173.234	-76.770	219.225	123.689	159.549	172.304	191.613	49.654	120.384	169.171	-91.998	173.817	201.639	-72.377	-44.920	0.00029518	0.00067707	0.00015325	1415.2	2.2517e-06	6.4974e-06	1402.7	383.66	4.8775e-06	1.6903e-06	436.21	140.69	123.65	42.458	2.8005e-06	51.924	0.0013897	0.0017371	0.00048284	1435.9	1.8669e-05	1.9264e-05	1427.6	392.16	1.8836e-05	1.9489e-05	445.27	146.14	128.09	43.803	1.8751e-05	53.972	-126.123	-39.434	-6.949	-114.287	68.415	40.727	-114.266	-109.513	-15.027	-19.447	-110.028	-105.901	-105.340	-100.933	75.965	-101.256	-8191	255	
11051.408	1	1	0	0	0.097471	0.079476	0.23217	0.15935	0.18521	0.098187	0.15401	0.11607	0.064275	0.051655	0.13419	0.3691	0.16645	0.23838	0.12378	0.20765	-2.6479	-3.0708	-2.8771	-3.4104	-3.0875	-2.7479	-3.3958	-3.2792	-2.9562	-3.2708	-3.1146	-3.25	-3.275	-3.1063	-3.2938	-3.1042	204.085	172.150	-107.583	158.656	210.771	183.373	178.020	-112.919	113.987	0.670	142.031	189.605	186.666	130.614	-1.747	122.706	0.00028627	0.00089325	0.00015074	1416.6	1.1119e-06	3.3567e-06	1405.7	383.26	3.0581e-06	8.9111e-06	434.87	140.9	124.14	42.261	4.3576e-06	52.065	0.0013798	0.0017372	0.00048898	1438.3	1.9064e-05	1.9633e-05	1427.1	391.76	1.9246e-05	1.9949e-05	445.36	146.18	128.44	43.809	1.9229e-05	54.075	-126.762	-56.079	-72.863	-114.112	23.009	28.191	-114.248	-109.546	-62.005	27.771	-110.221	-105.692	-105.407	-101.000	24.671	-101.032	-8191	255	
11051.529	1	1	0	0	0.034576	0.044036	0.1196	0.39199	0.3041	0.29043	0.37578	0.090128	0.11695	0.17278	0.20023	0.050511	0.20415	0.19478	0.28912	0.25365	-2.5021	-3.3708	-2.8083	-3.3229	-3.0938	-2.8292	-3.3333	-3.2188	-2.9062	-3.1479	-2.9771	-3.15	-3.3292	-2.9667	-3.0146	-3.2708	-2.717	184.237	-100.624	204.139	189.449	137.264	110.937	103.430	61.572	223.649	221.242	45.737	212.498	146.128	85.482	159.393	0.00026005	0.00060803	0.00011344	1420.7	3.567e-06	4.9144e-06	1403.3	384.14	2.517e-06	4.1472e-06	434.66	140.82	123.37	42.352	6.3065e-06	52.176	0.0014168	0.0017744	0.00050159	1438.9	1.9169e-05	1.9908e-05	1425.5	392.21	1.9031e-05	2e-05	445.64	146.05	127.83	43.748	1.96e-05	54.056	-121.274	-71.825	-72.425	-114.174	12.308	28.219	-113.940	-109.619	-7.066	-11.485	-110.145	-105.581	-105.474	-100.431	36.014	-101.457	-8191	255	
11051.601	1	1	0	0	0.073072	0.064378	0.22059	0.12555	0.17348	0.14145	0.23003	0.30755	0.12466	0.13598	0.22202	0.26722	0.24895	0.26691	0.17376	0.10633	-2.6	-3.1312	-2.9042	-3.125	-3.2333	-2.725	-3.2333	-3.3708	-2.7396	-3.2229	-2.9479	-2.9792	-3.4208	-2.8625	-3.0833	-3.2062	28.802	-14.773	120.848	195.486	30.651	67.973	110.269	141.114	-121.932	-124.794	42.673	217.751	108.285	188.662	65.770	111.759	0.00027905	0.00058245	8.95e-05	1423.1	3.8234e-06	7.9154e-06	1410.4	384.32	5.6415e-06	5.789e-06	436.25	140.48	123.14	42.318	2.3365e-06	52.008	0.0014332	0.0017947	0.00051221	1442.2	1.964e-05	2.0272e-05	1431.3	392.62	1.9692e-05	2.0218e-05	446.12	146.12	128.25	43.805	2.0145e-05	54.04	-124.384	-34.779	-50.715	-114.112	61.216	14.060	-114.252	-109.569	16.925	23.841	-110.090	-105.773	-105.378	-100.832	172.333	-101.161	-8191	255	
11051.721	1	1	0	0	0.16518	0.26055	0.13739	0.43148	0.080826	0.20251	0.18794	0.23105	0.36836	0.19492	0.11459	0.22572	0.21484	0.1775	0.1676	0.076212	-2.4708	-3.1146	-2.8896	-3.35	-3.0521	-2.8417	-3.2542	-3.2	-2.85	-3.1	-3.1625	-3.2083	-3.1562	-3.0083	-3.1021	-3.3604	152.413	-15.919	134.694	190.784	208.393	-46.538	123.164	96.822	-22.855	145.928	25.686	-87.625	222.514	151.026	115.298	193.118	0.00028926	0.00040887	8.4977e-05	1422.8	3.4313e-06	4.9837e-06	1404.4	384.75	5.8126e-06	8.5556e-06	434.59	141.04	123.42	42.38	4.5909e-06	52.278	0.0014543	0.0018445	0.00053104	1441.7	1.9927e-05	2.1101e-05	1428.5	392.7	2.0294e-05	2.098e-05	446.97	146.05	128.05	43.775	2.0597e-05	54.107	227.165	-35.044	-17.365	-114.137	1.554	24.278	-114.131	-109.500	-21.573	11.775	-110.079	-105.859	-105.473	-100.905	33.838	-101.482	-8191	255	
11051.817	1	1	0	0	0.1876	0.17062	0.12207	0.24922	0.061129	0.10607	0.21237	0.18248	0.11557	0.15117	0.34738	0.072169	0.37823	0.13424	0.16563	0.29086	-2.3979	-3.2042	-3.0563	-3.0167	-3.1771	-2.9729	-3.3292	-3.4875	-2.9333	-3.0958	-3.35	-2.8229	-3.2333	-2.8937	-3.0687	-3.2938	15.539	-1.959	-104.711	188.131	-45.281	2.731	208.670	-124.655	66.221	-38.917	117.125	124.029	215.678	53.788	-57.070	157.885	0.00027296	0.00070361	0.00015294	1420	7.7917e-06	6.5173e-06	1408.2	385.07	5.0941e-06	3.5439e-06	436.55	140.54	123.49	42.332	5.3398e-06	52.078	0.0014826	0.0019279	0.00054245	1443.1	2.0359e-05	2.1607e-05	1434.1	393.67	2.0659e-05	2.1633e-05	447.15	146.08	128.19	43.822	2.1203e-05	54.025	219.205	-15.028	-36.764	-113.976	25.058	13.928	-114.392	-109.553	-89.735	75.149	-110.144	-105.953	-105.328	-100.901	48.939	-101.129	-8191	255	
11051.912	1	1	0	0	0.16928	0.2156	0.081376	0.14026	0.10118	0.09852	0.10835	0.37553	0.17906	0.1565	0.34428	0.21685	0.30772	0.09443	0.14447	0.16339	-2.4979	-3.0771	-3.0375	-3.2104	-3.3187	-2.8833	-3.1083	-3.3104	-2.9	-3.2125	-3.2542	-2.9458	-3.3292	-3.0771	-3	-3.4625	207.246	156.291	-34.357	168.219	187.501	103.925	83.431	-95.576	-88.186	194.786	148.722	159.418	173.582	78.304	210.302	-71.120	0.00019888	0.00062649	0.00014766	1428.3	7.0055e-07	4.6712e-06	1408.8	384.87	4.906e-06	8.5969e-06	437.24	140.92	123.65	42.18	2.6954e-06	52.166	0.0015294	0.0019743	0.00055994	1444.9	2.1015e-05	2.2218e-05	1433.4	393.3	2.117e-05	2.2301e-05	447.06	146.2	128.09	43.739	2.1656e-05	54.124	-121.263	-19.084	-23.896	-114.202	-124.775	28.624	-114.080	-109.718	-15.605	15.593	-110.100	-105.950	-105.434	-100.756	36.602	-101.562	-8191	255	
11052.008	1	1	0	0	0.31774	0.048601	0.14235	0.36403	0.10737	0.29188	0.52974	0.15422	0.33203	0.033105	0.083996	0.13056	0.19177	0.41779	0.16353	0.057895	-2.2188	-2.9479	-2.9	-2.9875	-3.1521	-3.0333	-3.0167	-3.2208	-2.9688	-2.9667	-3.2667	-2.9583	-3.2583	-3.1083	-3.1625	-3.4375	86.271	-7.400	-117.248	222.960	-117.334	-70.187	203.116	138.287	-92.413	167.484	90.278	-81.007	202.114	-32.032	19.575	-78.400	0.0002789	0.00031996	0.00020578	1426.5	4.4567e-06	3.3295e-06	1408.4	384.3	3.0591e-06	1.1228e-05	434.89	140.71	123.21	42.211	6.1758e-06	51.993	0.0015518	0.0020081	0.00056207	1445.8	2.1363e-05	2.2595e-05	1433.7	393.23	2.1659e-05	2.2547e-05	446.89	146.02	128.16	43.785	2.2001e-05	54.027	-122.511	8.901	-36.240	-114.074	-5.762	29.716	-114.330	-109.621	24.154	32.598	-110.063	-105.899	-105.441	-100.973	-5.409	-101.447	-8191	255	
11052.129	1	1	0	0	0.1062	0.20214	0.12127	0.25943	0.1253	0.080873	0.12865	0.35526	0.17895	0.093971	0.1307	0.17797	0.14673	0.05315	0.09883	0.1	-2.4688	-2.8187	-3.2583	-3.0208	-3.2729	-3.0875	-3.1167	-3.3688	-2.7562	-3.0479	-3.2333	-3.0125	-3.3625	-3.075	-2.8812	-3.2625	76.867	71.401	27.264	210.794	63.855	68.224	-69.834	-127.613	-77.160	217.946	183.431	214.409	-84.784	65.853	232.143	39.042	0.00027882	0.00044749	0.00018739	1424.8	4.5816e-06	4.3994e-06	1407.7	383.9	5.6772e-06	5.674e-06	435.04	140.12	123.56	42.176	2.7312e-06	52.08	0.0015776	0.0020706	0.00057589	1446.8	2.2107e-05	2.312e-05	1434.2	393.5	2.1828e-05	2.314e-05	446.82	146.2	128.28	43.749	2.2528e-05	54.127	223.906	-64.736	-38.327	-114.257	75.450	-47.369	-114.525	-109.755	14.007	10.587	-110.027	-105.871	-105.439	-100.814	65.336	-101.191	-8191	255	
11052.225	1	1	0	0	0.21811	0.19986	0.10642	0.31526	0.19552	0.12591	0.26663	0.1927	0.14734	0.14653	0.11001	0.017455	0.23723	0.10187	0.074187	0.11023	-2.5417	-3.0292	-3.2812	-2.9229	-3.2979	-3.1562	-3.1979	-3.3625	-2.9813	-3.0458	-3.3104	-3.0687	-3.1521	-3.2958	-2.8271	-3.1833	-87.687	227.143	29.170	-69.712	-83.957	113.461	182.276	197.557	17.384	225.432	182.486	-112.615	221.961	176.840	-67.657	212.241	0.0003649	0.00060892	0.00015954	1424.6	3.3253e-06	4.8437e-06	1407.2	383.88	2.4659e-06	9.2659e-06	435.05	141.08	123.16	42.123	4.4053e-06	51.778	0.0016332	0.0021052	0.00058422	1447.7	2.2315e-05	2.3296e-05	1434.9	393.41	2.2563e-05	2.3269e-05	447.44	146.29	128.31	43.741	2.2653e-05	54.039	227.766	-41.651	-21.277	-114.212	154.965	38.037	-114.268	-109.724	8.938	37.683	-110.124	-106.184	-105.402	-100.941	47.746	-101.408	-8191	255	
11052.321	1	1	0	0	0.08804	0.073131	0.22875	0.079826	0.20391	0.079428	0.25668	0.18242	0.34688	0.026291	0.2	0.17991	0.32315	0.12746	0.24057	0.32608	-2.7375	-2.7812	-3.3229	-3.0146	-3.1021	-3.2188	-3.1271	-3.4625	-3.1792	-2.9792	-3.4625	-3.1021	-3.0646	-3.3021	-2.9396	-3.1937	64.614	25.136	202.748	217.439	178.315	72.847	223.489	212.387	155.698	-52.363	165.857	159.569	171.018	-97.727	118.796	160.725	0.00027235	0.00077908	0.00020809	1425	3.3764e-06	1.7853e-06	1411.6	385.68	3.9768e-06	9.9082e-06	434.07	140.4	123.17	42.365	4.8348e-06	52.237	0.001636	0.0021238	0.00058434	1449.3	2.2797e-05	2.3335e-05	1435.6	394.08	2.2652e-05	2.3504e-05	447.2	146.14	128.19	43.81	2.2766e-05	54.14	229.323	-32.491	-4.968	-114.248	-57.936	-7.646	-114.185	-109.701	8.303	-0.278	-110.052	-106.005	-105.352	-100.736	-6.674	-101.136	-8191	255	
11052.417	1	1	0	0	0.12439	0.20962	0.18062	0.15688	0.21578	0.1213	0.13053	0.22679	0.11128	0.11197	0.23172	0.25279	0.19862	0.26281	0.12373	0.31465	-2.6458	-2.8187	-3.2354	-3.0938	-2.8979	-3.2833	-3.1458	-3.1063	-3.0312	-2.9479	-3.3438	-2.9146	-2.9896	-3.2333	-2.9354	-3.2708	-27.832	10.416	154.367	207.110	226.103	215.641	181.261	-98.301	106.714	-82.367	182.850	172.665	198.090	-119.478	3.866	231.445	0.00026289	0.00072939	0.00026791	1425.5	3.5492e-06	3.6644e-06	1410.9	383.86	2.7713e-06	3.324e-06	436.28	141.33	122.68	42.251	2.7541e-06	51.925	0.0016328	0.0021196	0.00059757	1449.7	2.2762e-05	2.3669e-05	1435.9	394.1	2.2809e-05	2.3946e-05	447.14	146.4	128.16	43.745	2.3073e-05	54.036	226.142	-12.911	-29.074	-114.253	-0.590	-18.882	-114.232	-109.678	58.738	-54.837	-110.373	-105.916	-105.423	-100.877	19.326	-101.443	-8191	255	
11052.513	1	1	0	0	0.28284	0.071927	0.10285	0.10147	0.19434	0.076832	0.22371	0.16198	0.18504	0.087669	0.35072	0.081941	0.032378	0.085285	0.12001	0.093155	-2.5938	-2.8958	-3.2917	-3.2583	-2.9958	-3.3271	-3.1396	-3.3937	-3.2	-2.8	-3.4104	-3.1021	-3.15	-3.3667	-2.9604	-3.2833	-86.543	-63.665	-116.917	91.995	206.315	161.852	123.822	-91.574	35.496	59.221	169.920	172.313	63.006	203.835	3.510	149.184	0.00026981	0.00014601	9.5917e-05	1426.7	2.8311e-06	6.3342e-06	1411.6	385.12	5.6079e-06	1.4067e-06	433.38	140.32	122.79	42.093	2.7314e-06	52.13	0.0016794	0.0021295	0.00059655	1450.1	2.3246e-05	2.3933e-05	1437	394.11	2.3519e-05	2.413e-05	447.62	146.38	128.22	43.768	2.3334e-05	54.115	232.202	-47.511	-57.682	-114.356	36.405	9.715	-114.213	-109.677	36.382	95.008	-110.195	-105.994	-105.472	-100.991	68.047	-101.186	-8191	255	
11052.609	1	1	0	0	0.1489	0.014851	0.076054	0.25248	0.12088	0.17303	0.36522	0.19569	0.28548	0.048087	0.22935	0.12425	0.23074	0.070715	0.16275	0.35507	-2.6917	-2.8375	-3.1479	-3.2687	-2.8333	-3.1625	-3.2042	-3.1688	-3.3	-3.0396	-3.2125	-3.1167	-2.9021	-3.4313	-3.2	-3.1146	-4.093	173.264	88.518	192.476	-12.283	102.979	156.003	144.231	120.246	-125.976	170.968	-94.714	-121.590	-89.736	61.317	154.727	0.00029295	0.00028795	0.00022345	1428.9	5.7542e-06	5.8248e-06	1415.2	385.33	2.8494e-06	5.4712e-06	435.88	140.83	122.77	42.171	5.7172e-06	52.183	0.0016717	0.0021533	0.0006122	1453.1	2.34e-05	2.4249e-05	1437.9	394.48	2.3137e-05	2.4031e-05	447.83	146.38	128.2	43.774	2.355e-05	54.06	228.594	-29.388	-51.668	-114.276	10.109	34.514	-114.233	-109.446	13.991	43.297	-109.941	-105.829	-105.501	-100.859	-25.701	-101.520	-8191	255	
11052.704	1	1	0	0	0.20273	0.058484	0.21316	0.44625	0.11143	0.10006	0.18128	0.37384	0.13345	0.080147	0.15736	0.10319	0.05528	0.20491	0.037594	0.020384	-2.7792	-2.8729	-3.1583	-3.1958	-2.6708	-3.275	-3.2104	-3.1854	-3.2979	-2.9208	-3.2458	-3.0812	-2.8958	-3.2958	-3.0167	-2.9562	-83.998	-118.550	141.877	186.044	142.073	-92.417	179.927	139.797	-113.440	37.426	-89.419	167.360	13.362	205.053	-123.181	12.068	0.00032634	0.00074	5.8487e-05	1430.9	4.229e-06	4.9145e-06	1409.6	384.83	5.1227e-06	4.8237e-06	434.12	140.69	123.38	42.045	2.8698e-06	51.943	0.0016869	0.0021832	0.00061682	1454	2.3257e-05	2.3867e-05	1436.6	394.11	2.334e-05	2.4195e-05	448.08	146.33	128.23	43.691	2.3577e-05	54.059	-126.103	-37.976	-83.111	-114.370	11.900	5.521	-114.295	-109.717	-24.513	61.260	-110.030	-105.809	-105.391	-100.740	88.269	-101.273	-8191	255	
11052.824	1	1	0	0	0.071804	0.12633	0.15236	0.12405	0.12303	0.26967	0.28366	0.29127	0.19698	0.083707	0.049794	0.10629	0.088196	0.080323	0.060433	0.069214	-2.7188	-2.9875	-3.1479	-3.2687	-2.9979	-3.0417	-3.3271	-3.1417	-3.3208	-3.0187	-3.0604	-3.3021	-2.9521	-3.1729	-3.0292	-3.0229	201.796	-100.645	-71.902	217.272	-88.698	170.281	174.126	190.329	-97.000	-23.934	-66.136	118.057	-18.913	174.868	222.664	158.492	0.00030581	0.00080739	0.00020978	1426.4	7.0745e-06	2.7991e-06	1412.9	384.91	6.4862e-06	1.5188e-06	436.41	140.14	122.7	42.057	6.6194e-06	51.89	0.001672	0.0021435	0.00060906	1449.5	2.3132e-05	2.4054e-05	1437.2	393.96	2.2407e-05	2.3845e-05	447.64	146.16	128.08	43.655	2.2758e-05	53.967	225.923	-31.178	-24.857	-114.152	7.583	27.940	-114.205	-109.676	-0.158	137.550	-110.254	-105.898	-105.088	-100.794	38.646	-101.327	-8191	255	
11052.896	1	1	0	0	0.17854	0.097589	0.043117	0.21835	0.035879	0.0095675	0.32606	0.20692	0.22127	0.34406	0.214	0.24383	0.27883	0.23088	0.24788	0.22633	-2.8167	-2.925	-2.9688	-3.2917	-2.7854	-3.2458	-3.1646	-3.1437	-3.2146	-2.8063	-3.1437	-3.2833	-2.8187	-3.25	-2.9958	-2.8708	100.099	-92.787	83.113	151.966	45.289	-33.790	167.690	147.343	-110.119	-79.684	196.491	168.793	-99.212	-75.519	-83.562	75.315	0.00027417	0.00066173	0.00031848	1425.9	4.5618e-06	2.9744e-06	1404.9	384.43	4.4531e-06	4.7556e-06	436.28	140.78	122.67	42.188	3.1445e-06	51.864	0.0016488	0.0020627	0.00058853	1450.9	2.2162e-05	2.3419e-05	1435.4	393.63	2.2106e-05	2.3584e-05	447.58	146.26	128.14	43.716	2.3266e-05	54.029	227.836	-23.547	-28.527	-114.135	90.395	-14.760	-114.335	-109.688	32.811	15.057	-109.964	-106.093	-105.193	-100.591	44.132	-101.582	-8191	255	
11052.992	1	1	0	0	0.17343	0.13542	0.15342	0.22569	0.1333	0.2429	0.2862	0.067571	0.025065	0.11101	0.094748	0.12751	0.25019	0.2607	0.16995	0.03334	-2.9083	-2.8771	-2.9583	-3.4646	-2.8063	-3.4042	-3.2687	-3.1854	-3.1167	-3.0187	-3.0687	-3.3292	-3.0333	-3.2875	-3.1188	-2.9625	-2.679	35.964	-43.204	163.610	67.936	-4.567	155.989	197.647	77.503	179.766	186.743	-93.488	224.431	224.201	-33.627	24.320	0.0002925	0.00088441	0.00020527	1422	6.3492e-06	2.8041e-06	1407.3	384.38	4.4622e-06	8.3893e-06	434.45	140.5	122.6	42.132	7.0743e-06	52.002	0.0016287	0.0021434	0.00060131	1448.7	2.2596e-05	2.3716e-05	1435.2	393.96	2.2457e-05	2.3391e-05	447.31	145.97	128.12	43.759	2.2884e-05	53.952	-122.559	-46.443	27.740	-114.356	50.622	-6.224	-114.261	-109.646	22.267	26.121	-110.236	-106.020	-105.302	-100.735	29.887	-101.356	-8191	255	
11053.088	1	1	0	0	0.16001	0.14155	0.11585	0.1167	0.069341	0.13753	0.20728	0.065597	0.27428	0.29204	0.099767	0.25738	0.033078	0.11067	0.11857	0.20678	-2.7083	-2.9313	-2.8125	-3.3104	-2.9375	-3.1083	-3.425	-2.9729	-3.1562	-2.9188	-2.9646	-3.2792	-3.1958	-3.1562	-3.2104	-2.9917	211.052	67.559	214.835	231.042	-75.491	35.384	133.542	-52.413	51.880	183.569	59.398	-95.895	163.730	-91.893	-79.063	165.717	0.00026396	0.00055288	0.00014491	1427.2	2.0541e-06	3.4239e-06	1411.2	384.66	1.6742e-06	2.1444e-06	438.67	140.51	122.64	42.096	8.7188e-07	51.97	0.0016462	0.0021461	0.00059044	1449.3	2.2475e-05	2.3584e-05	1435.3	393.81	2.2195e-05	2.3548e-05	448.61	146.26	127.98	43.683	2.2686e-05	53.932	-121.702	-26.790	-74.679	-114.075	23.055	51.323	-114.152	-109.782	20.597	19.795	-110.067	-105.806	-105.412	-100.974	3.529	-101.502	-8191	255	
11053.209	1	1	0	0	0.10332	0.019513	0.065198	0.21422	0.052624	0.10612	0.1283	0.31239	0.18636	0.16267	0.1559	0.066432	0.32072	0.055283	0.06584	0.2529	-2.8917	-3.0187	-2.9813	-3.4292	-2.8708	-2.9396	-3.5917	-3.0312	-3.0187	-3.0208	-3.05	-3.2625	-3.0021	-3.0125	-3.3708	-2.9958	-4.345	33.894	192.742	222.271	90.885	176.111	118.503	176.732	138.671	49.907	164.784	-106.231	188.602	-74.964	49.887	162.471	0.00024297	0.00028084	0.00015481	1422.7	7.8825e-06	7.5025e-06	1409.1	383.85	1.7425e-06	2.2704e-06	434.57	140	122.86	42.107	3.9646e-06	51.737	0.0016464	0.0021226	0.00059604	1449	2.2471e-05	2.3513e-05	1436.1	393.59	2.2579e-05	2.3894e-05	447.09	145.86	128.1	43.781	2.341e-05	53.916	227.985	19.177	-28.226	-114.261	47.603	39.410	-114.261	-109.728	-59.164	35.825	-110.137	-106.046	-105.156	-100.722	19.787	-101.110	-8191	255	
11053.305	1	1	0	0	0.21572	0.18746	0.23821	0.37338	0.09578	0.14002	0.17914	0.29931	0.061736	0.19711	0.2076	0.26892	0.19695	0.1798	0.21338	0.071044	-2.4479	-3.1354	-2.5917	-3.275	-2.9729	-2.9521	-3.4667	-3.1562	-2.8021	-3.1437	-2.725	-3.4542	-3.0583	-3.0146	-3.3146	-3.0104	100.544	14.559	9.625	200.253	118.394	62.181	228.399	171.721	-60.750	173.429	-117.322	-21.643	205.267	176.353	122.309	116.648	0.00032035	0.00054596	0.00016378	1428.1	3.5772e-06	5.3506e-06	1409.4	385.06	5.1029e-06	7.8655e-06	435.32	141.13	122.77	42.138	4.1299e-06	51.62	0.0016807	0.0021666	0.00060606	1451.9	2.3096e-05	2.3952e-05	1437.1	393.76	2.2859e-05	2.3465e-05	446.99	146.08	127.83	43.741	2.2503e-05	53.876	222.339	-51.798	-19.560	-114.320	65.079	-0.370	-114.219	-109.898	23.875	63.933	-110.244	-105.816	-105.130	-100.799	-1.615	-101.377	-8191	255	
11053.401	1	1	0	0	0.22516	0.037022	0.10808	0.24359	0.14565	0.032708	0.096589	0.29037	0.16468	0.1768	0.19176	0.095657	0.092842	0.085435	0.33834	0.26863	-2.6688	-3.0021	-2.6937	-3.3292	-3.0083	-2.9479	-3.4104	-2.9833	-2.9854	-3.3458	-2.9979	-3.2729	-3.1375	-3.025	-3.2354	-3.0062	156.642	210.650	-113.413	-95.190	-22.854	117.939	158.250	124.397	141.000	-94.694	-9.996	145.442	-19.088	46.151	223.681	90.567	0.00025144	0.00067831	0.00010779	1429.1	1.9473e-06	3.7724e-06	1411.7	384.93	2.2482e-06	1.2611e-05	435.12	140.75	122.88	42.129	1.0279e-05	51.969	0.001647	0.0021316	0.00059013	1449.8	2.2432e-05	2.3646e-05	1436.1	393.66	2.235e-05	2.33e-05	447.25	146.07	128.07	43.656	2.2641e-05	54.016	214.487	-20.341	-92.644	-114.086	0.384	79.112	-114.268	-109.566	58.005	-2.993	-110.154	-106.164	-105.660	-101.131	31.604	-101.432	-8191	255	
11053.497	1	1	0	0	0.17945	0.2865	0.25448	0.58519	0.46244	0.20929	0.13058	0.41335	0.083654	0.1264	0.10365	0.29177	0.20067	0.14101	0.24418	0.33919	-2.4354	-3.0042	-2.9313	-3.2042	-3.1083	-2.7812	-3.25	-3.1875	-2.8958	-3.3104	-2.9667	-3.2708	-3.1521	-2.8229	-3.2625	-3.0187	83.195	-92.375	79.143	182.910	108.536	-29.077	202.259	182.425	51.403	-10.426	-5.545	-117.514	195.753	192.890	175.143	228.772	0.00030689	0.0003003	0.0002347	1424.2	2.8338e-06	9.2617e-06	1404.2	384.82	2.6349e-06	6.0328e-06	434.35	140.76	122.92	42.041	2.249e-06	51.808	0.0016664	0.0021218	0.00058553	1450.3	2.222e-05	2.3326e-05	1434.2	393.95	2.2569e-05	2.3411e-05	446.52	145.97	127.86	43.623	2.3107e-05	53.924	230.546	-48.487	-44.086	-114.249	73.694	21.370	-114.306	-109.752	-48.260	60.777	-110.068	-106.005	-105.151	-100.713	35.892	-101.235	-8191	255	
11053.594	1	1	0	0	0.024289	0.18949	0.12529	0.039065	0.079701	0.18475	0.13401	0.2432	0.12598	0.25843	0.18305	0.28953	0.12995	0.19742	0.071531	0.23031	-2.5375	-3.1167	-2.7229	-3.0979	-2.9771	-2.6271	-3.2812	-3.0938	-2.8417	-3.2	-3.0771	-3.0333	-3.2896	-2.9646	-3.1542	-2.9271	184.526	189.944	183.464	99.065	116.286	126.590	167.447	158.776	-62.680	119.530	196.297	165.487	-41.924	-106.440	160.710	197.488	0.00027987	0.00032617	0.00016013	1425.1	6.9794e-06	5.7624e-06	1409.2	384.54	2.25e-06	7.7655e-06	434.46	140.38	123.17	42.123	1.5508e-06	51.976	0.0016541	0.0020767	0.00059754	1449.4	2.2551e-05	2.3208e-05	1436.1	393.6	2.27e-05	2.3463e-05	447.23	146.08	128.09	43.681	2.2676e-05	53.922	230.480	-15.016	-86.431	-114.037	47.434	44.777	-114.196	-109.796	-39.069	32.438	-109.968	-105.975	-105.349	-100.893	-16.018	-101.342	-8191	255	
11053.690	1	1	0	0	0.042555	0.20201	0.24428	0.19098	0.073159	0.25873	0.15281	0.12982	0.088578	0.15496	0.2861	0.19311	0.21432	0.29682	0.14408	0.17738	-2.4542	-3.1104	-2.8292	-3.1375	-3.0542	-2.8563	-3.2271	-3.1146	-2.7458	-2.95	-3.0646	-3.1396	-3.2521	-2.9333	-2.8792	-3.1188	-23.792	193.848	227.326	202.059	-1.001	-39.911	154.732	-117.386	138.197	169.277	198.113	-114.566	-127.497	111.131	-41.920	96.998	0.00028121	0.00035159	7.9908e-05	1423	5.3085e-06	2.2746e-06	1405.7	384.36	6.7575e-06	6.4974e-06	433.53	140.2	122.52	42.128	4.5244e-06	51.98	0.001638	0.0021026	0.00059236	1447.8	2.2313e-05	2.3327e-05	1435.2	393.42	2.2936e-05	2.3521e-05	447.16	146.02	127.96	43.694	2.2826e-05	53.949	-122.136	-57.649	40.317	-114.141	-23.208	112.968	-114.158	-109.546	19.357	-8.321	-110.043	-105.715	-105.309	-100.955	27.456	-101.051	-8191	255	
11053.809	1	1	0	0	0.05405	0.049818	0.1338	0.32222	0.25537	0.17784	0.10749	0.29991	0.15439	0.067036	0.11691	0.066471	0.13781	0.16314	0.22342	0.053673	-2.3854	-3.125	-2.8542	-3.075	-2.9667	-2.8187	-3.2208	-3.2812	-2.5938	-3.2458	-3.1146	-3.0604	-3.2729	-2.9292	-2.9771	-3.35	205.092	206.074	209.486	215.100	159.891	-31.045	155.722	148.484	35.213	17.137	7.690	-60.756	94.222	-75.803	11.180	-3.269	0.00028012	0.00039169	6.8199e-05	1420.9	3.6032e-06	6.9252e-06	1409.5	384.81	3.1766e-06	6.4059e-06	434.66	141.4	122.87	42.009	1.8546e-06	51.816	0.001641	0.0020878	0.00058536	1450	2.2183e-05	2.3313e-05	1433	393.3	2.2129e-05	2.3036e-05	446.84	146.14	127.85	43.659	2.3401e-05	54.001	-123.360	-45.346	-68.199	-114.312	58.669	70.645	-114.161	-109.662	36.402	55.661	-110.412	-105.750	-105.226	-100.780	11.548	-101.406	-8191	255	
11053.905	1	1	0	0	0.23087	0.10902	0.1537	0.20981	0.13449	0.10487	0.2856	0.21439	0.13454	0.12689	0.071803	0.16811	0.29179	0.12648	0.30806	0.1973	-2.2833	-2.9562	-2.9333	-2.9604	-3.1604	-2.9104	-3.2229	-3.3563	-2.9125	-3.2583	-3.1875	-3.0125	-3.1729	-3.0563	-3.0208	-3.3521	70.231	-123.509	-89.414	204.814	109.148	141.872	171.105	119.435	-16.161	-127.541	69.183	138.365	-104.445	-109.967	-71.797	160.183	0.00030834	0.00073482	0.00022796	1429	5.7464e-06	4.176e-06	1408	383.49	2.6513e-06	4.3234e-06	434.64	140.06	122.92	42.221	4.5942e-06	52.171	0.0016362	0.0021098	0.0006038	1449.5	2.2138e-05	2.3571e-05	1436.7	393.52	2.2412e-05	2.3344e-05	447.32	145.81	128.14	43.677	2.2716e-05	53.978	228.179	8.164	-55.834	-114.292	29.966	26.861	-114.034	-109.650	6.692	36.188	-110.040	-106.099	-105.391	-100.809	60.185	-101.627	-8191	255	
11054.001	1	1	0	0	0.13284	0.42904	0.11682	0.1898	0.17439	0.047516	0.15167	0.059836	0.13751	0.24616	0.10376	0.21661	0.26275	0.17594	0.13404	0.086586	-2.5271	-3.0208	-3.1896	-3.1375	-3.1813	-2.9479	-3.2146	-3.4083	-2.85	-3.0312	-3.2667	-3.0521	-3.2667	-3.0792	-3.0979	-3.2854	182.664	-84.319	159.592	196.723	44.670	-42.555	229.424	-86.347	3.796	123.236	182.686	-2.011	-112.614	167.371	-84.533	205.183	0.00026029	0.00056288	8.6821e-05	1421.2	5.7695e-06	7.0623e-06	1408.8	384.45	4.4272e-06	8.1362e-06	433.65	140.02	122.8	42.102	3.874e-06	51.879	0.001631	0.0021033	0.00059649	1448.3	2.2444e-05	2.39e-05	1435.2	393.43	2.247e-05	2.3817e-05	446.73	145.75	127.92	43.618	2.3265e-05	53.923	-123.491	-23.958	24.383	-114.214	-9.595	38.514	-114.261	-109.727	-21.006	-5.025	-110.120	-106.067	-105.270	-101.017	-23.994	-101.348	-8191	255	
11054.120	1	1	0	0	0.11963	0.15978	0.015324	0.39782	0.062041	0.073058	0.11659	0.2845	0.098173	0.1137	0.18798	0.1882	0.19065	0.099291	0.14082	0.27097	-2.5771	-3.1312	-3.0833	-2.9104	-3.1458	-3.1083	-3.075	-3.3167	-2.9396	-3.1875	-3.1625	-2.9417	-3.1396	-3.1979	-2.8917	-3.3542	227.137	89.767	42.968	227.174	-42.812	25.694	207.114	147.153	-124.778	204.315	163.447	104.161	39.953	109.724	53.799	-122.602	0.00024899	0.00026778	0.00022332	1427.9	4.1775e-06	1.0054e-05	1409.6	382.9	4.034e-06	1.1683e-05	434.36	140.58	123.3	42.074	1.3932e-07	51.992	0.0016628	0.0021732	0.00061289	1451.3	2.34e-05	2.5131e-05	1437.3	393.03	2.3537e-05	2.4906e-05	447.75	146.33	128.41	43.772	2.386e-05	54.012	226.913	-3.906	-47.911	-114.306	25.720	32.159	-113.925	-109.722	-35.993	14.788	-110.175	-106.013	-105.511	-100.743	94.639	-101.602	-8191	255	
11054.191	1	1	0	0	0.028311	0.11915	0.23646	0.18837	0.088509	0.10807	0.28139	0.15183	0.16823	0.14592	0.067329	0.1544	0.20376	0.20523	0.11025	0.11206	-2.575	-3.0396	-3.1354	-2.9708	-3.1333	-3.0563	-3.2083	-3.2542	-2.7667	-2.9771	-3.2896	-3.0229	-3.0938	-3.2438	-2.7104	-3.2687	36.054	-102.856	189.538	206.835	77.125	32.601	214.964	112.816	214.337	93.098	-63.273	194.577	198.514	207.884	151.286	83.376	0.00024097	0.00054378	0.00010547	1428.1	2.6414e-06	2.8861e-06	1412.1	384.9	3.1586e-06	3.8499e-06	435.09	140.51	122.47	42.062	4.9386e-06	51.686	0.0017269	0.0021909	0.00061444	1453.9	2.3353e-05	2.4486e-05	1438.5	394.04	2.3191e-05	2.3881e-05	447.72	146.13	128.03	43.672	2.2484e-05	53.84	228.669	-70.717	-26.545	-114.133	12.839	36.051	-114.204	-109.792	50.377	38.124	-110.247	-105.785	-105.368	-100.625	25.592	-101.271	-8191	255	
11054.288	1	1	0	0	0.14904	0.051876	0.029416	0.42234	0.20269	0.04862	0.39925	0.22408	0.051453	0.077543	0.076991	0.048492	0.33086	0.081039	0.19913	0.16858	-2.4917	-2.9271	-3.1437	-3.0917	-3.0042	-3.0938	-3.0521	-3.3688	-3.0396	-2.9229	-3.1792	-3.0729	-3.1479	-3.4313	-2.9479	-3.2708	158.786	66.990	150.407	191.396	-86.482	12.938	187.675	134.817	206.449	96.050	159.087	-73.332	132.413	-90.952	206.931	120.213	0.00025469	0.00060914	0.00021557	1423.5	6.0889e-06	5.9404e-06	1407.7	384.03	5.4378e-06	6.0346e-06	434.74	140.79	122.88	42.068	3.5978e-06	51.906	0.0016091	0.00203	0.00056547	1445.8	2.1466e-05	2.2467e-05	1431.2	392.93	2.1503e-05	2.2309e-05	446.08	145.99	127.81	43.646	2.1674e-05	53.884	226.006	-38.118	-47.190	-114.110	19.481	3.207	-114.171	-109.770	45.556	7.997	-110.112	-105.844	-105.293	-100.754	22.510	-101.489	-8191	255	
11054.384	1	1	0	0	0.32752	0.18657	0.070488	0.42833	0.11543	0.082967	0.16198	0.23673	0.0080487	0.094054	0.17648	0.2434	0.25832	0.28952	0.087265	0.085494	-2.5271	-2.9104	-3.1854	-3.2313	-3.0229	-3.2604	-3.2271	-3.3104	-3.0729	-2.9813	-3.4375	-3.2021	-3.2396	-3.1708	-2.9042	-3.3417	46.985	91.449	20.897	219.099	52.088	114.142	208.634	-95.616	-81.435	185.149	101.857	189.431	123.723	208.450	143.655	148.862	0.0002344	0.00052434	7.8718e-05	1420.7	2.1276e-06	5.332e-06	1404.2	384.91	3.3864e-06	6.9858e-06	434.52	140.45	123.36	42.194	3.3335e-06	52.018	0.0015876	0.0020444	0.00056626	1445.5	2.1483e-05	2.2412e-05	1430.5	392.74	2.1196e-05	2.2098e-05	445.73	145.77	127.81	43.575	2.1393e-05	53.821	232.244	-48.594	4.714	-114.344	-69.583	8.777	-114.234	-109.617	23.768	45.904	-109.776	-106.135	-105.423	-100.756	9.158	-101.451	-8191	255	
11054.504	1	1	0	0	0.13896	0.11849	0.12801	0.19222	0.17143	0.067698	0.22623	0.19407	0.052339	0.14571	0.075854	0.25187	0.26924	0.20727	0.17635	0.092762	-2.725	-2.8146	-3.3042	-2.9688	-3.0146	-3.0792	-3.05	-3.2375	-2.9729	-2.7562	-3.3375	-3.0938	-2.9167	-3.3542	-2.9958	-3.0667	155.763	-49.584	137.347	-114.906	73.318	126.819	-109.011	158.543	83.438	-62.720	226.783	182.380	183.176	-124.019	143.619	105.481	0.00029044	0.00079182	0.00018061	1424.7	4.439e-06	5.7222e-06	1400.1	384.98	5.55e-06	1.0902e-05	433.76	139.93	122.81	41.992	5.4644e-06	51.924	0.001521	0.0019452	0.00053643	1441.5	2.0755e-05	2.1622e-05	1426.3	392.87	2.0527e-05	2.1058e-05	444.56	145.45	127.53	43.519	2.0703e-05	53.807	232.184	-92.821	-22.079	-114.418	77.111	-13.129	-114.098	-109.596	-41.845	22.532	-109.983	-105.987	-105.255	-100.605	-20.183	-101.044	-8191	255	
11054.601	1	1	0	0	0.23209	0.12642	0.17842	0.1938	0.094494	0.090557	0.20508	0.15932	0.1224	0.097436	0.16411	0.20713	0.24815	0.18562	0.2698	0.042098	-2.5896	-2.8583	-3.0687	-3.2833	-2.9062	-3.3042	-3.1562	-3.2167	-3.1312	-2.9292	-3.1833	-3.1354	-2.8792	-3.3417	-2.9938	-3.1792	145.611	-33.731	192.652	219.989	-57.003	87.658	127.270	181.376	126.782	225.690	125.999	-27.818	-91.319	190.868	106.966	30.108	0.00025984	0.00035348	0.00011367	1421	7.1543e-06	5.0715e-06	1403.1	383.72	3.9428e-06	2.4664e-06	435.72	140.05	122.54	42.03	1.6588e-06	52.019	0.0015165	0.0018995	0.00054041	1439.6	2.0667e-05	2.1571e-05	1426.9	392.05	2.0903e-05	2.166e-05	445.85	145.52	127.48	43.526	2.1392e-05	53.919	-124.119	-33.179	-51.852	-114.018	8.572	16.108	-114.281	-109.661	60.186	-43.142	-110.424	-105.850	-105.318	-100.632	-24.858	-101.332	-8191	255	
11054.697	1	1	0	0	0.12309	0.2141	0.01488	0.17898	0.14394	0.12237	0.32616	0.3626	0.071167	0.079149	0.06783	0.12882	0.097484	0.33625	0.13467	0.15644	-2.7562	-2.7687	-3.0896	-3.1708	-2.9333	-3.3	-3.0125	-3.1604	-3.1667	-2.8979	-3.1083	-3.1083	-2.9708	-3.3271	-2.8875	-3.0938	-102.337	128.790	-24.125	-77.168	-109.850	-79.258	140.746	210.868	54.986	-80.265	-37.999	18.032	80.838	145.665	230.135	192.253	0.00028811	0.00029689	6.0863e-05	1422.2	1.327e-06	5.5144e-06	1401	382.46	5.9656e-06	1.0425e-05	431.98	140.29	122.28	42.003	4.8004e-06	51.949	0.0015169	0.0019387	0.00054636	1441.2	2.0796e-05	2.0983e-05	1427.3	391.38	2.0128e-05	2.0944e-05	444.37	145.45	127.31	43.49	2.0663e-05	53.713	-125.549	-49.556	11.734	-114.105	31.797	66.004	-114.348	-109.603	10.964	23.011	-110.120	-105.801	-105.361	-100.848	33.316	-101.146	-8191	255	
11054.768	1	1	0	0	0.05585	0.10894	0.17947	0.4019	0.074689	0.24976	0.21991	0.15761	0.28062	0.069893	0.13673	0.14315	0.1843	0.2484	0.078922	0.11352	-2.6625	-2.7896	-3.0667	-3.2979	-2.8458	-3.0375	-3.0125	-3.0521	-3.2687	-2.7271	-3.2646	-3.2729	-2.8521	-3.3833	-2.8708	-3.0979	176.473	-56.760	-90.589	193.421	215.483	125.967	120.855	55.736	-118.760	96.525	-109.827	149.804	160.976	175.873	229.747	181.330	0.00023763	0.00020816	0.00018624	1419.5	5.673e-06	8.5158e-06	1402.9	383.07	6.0129e-06	3.5576e-06	435.04	140.88	122.7	42.141	6.2959e-06	51.533	0.0015061	0.0019242	0.00054529	1440.6	2.0806e-05	2.1755e-05	1427.9	391.58	2.1563e-05	2.2368e-05	446.15	145.83	127.53	43.48	2.2e-05	53.743	227.344	-11.725	-30.385	-114.130	1.948	27.329	-114.039	-109.711	-0.538	9.638	-110.215	-105.962	-105.436	-100.748	48.731	-100.988	-8191	255	
11054.889	1	1	0	0	0.091446	0.17193	0.073978	0.31157	0.1562	0.23506	0.14252	0.24227	0.22247	0.11534	0.15265	0.073061	0.28403	0.12802	0.08525	0.2426	-2.6958	-2.9229	-2.7854	-3.1542	-2.7979	-3.0458	-3.1604	-3.0062	-3.0417	-2.8521	-2.8688	-3.1479	-2.9188	-3.0646	-3.1271	-2.7792	-20.655	146.371	53.580	169.877	-9.725	-110.348	195.463	206.777	34.861	186.818	176.967	157.321	58.179	-11.559	194.477	214.121	0.00025416	0.0001211	1.9543e-05	1423.4	5.402e-06	1.3111e-06	1407.9	382.53	5.3712e-06	6.5035e-06	436.4	140.45	122.42	42.065	6.4109e-06	51.918	0.0015642	0.0020094	0.0005687	1443.3	2.1017e-05	2.1951e-05	1430.1	392.08	2.103e-05	2.2173e-05	445.7	145.47	127.43	43.551	2.1376e-05	53.758	225.638	-32.471	56.327	-114.346	52.140	19.757	-114.243	-109.769	17.372	26.992	-110.054	-105.830	-105.651	-100.720	51.245	-101.326	-8191	255	
11054.985	1	1	0	0	0.21556	0.080005	0.21537	0.18611	0.29588	0.22504	0.26829	0.19857	0.30193	0.31932	0.35993	0.21789	0.16798	0.29661	0.1784	0.17683	-2.6604	-2.725	-2.8208	-3.3812	-2.85	-3.1271	-3.2229	-2.8708	-3.2646	-2.9521	-3.325	-3.1625	-2.7833	-3.1562	-3.0917	-3.0187	184.211	-17.602	39.381	189.258	-114.598	181.404	157.503	135.701	-81.116	178.634	179.681	69.272	-84.996	-109.416	-30.221	223.773	0.00022322	0.00025473	0.00017279	1420.6	2.7826e-06	1.787e-06	1405.1	382.79	5.4756e-06	6.1557e-06	435.13	140.17	122.35	42.069	5.9065e-06	51.557	0.0015269	0.0019832	0.00056161	1440.7	2.124e-05	2.2161e-05	1429.7	392.06	2.1304e-05	2.2547e-05	446.51	145.31	127.51	43.568	2.213e-05	53.661	226.399	-83.717	-0.732	-114.173	11.388	104.935	-114.096	-109.636	32.965	44.696	-109.816	-105.777	-105.417	-100.630	0.609	-101.161	-8191	255	
11055.081	1	1	0	0	0.13939	0.24843	0.41682	0.11938	0.083458	0.025465	0.20552	0.14458	0.21426	0.052275	0.29126	0.36799	0.13587	0.091036	0.085661	0.14788	-2.7521	-2.8563	-2.9979	-3.3167	-2.8958	-3.175	-3.2208	-3.0354	-3.1937	-3.0542	-3.1854	-3.3688	-3.0229	-3.0167	-2.9208	-2.9062	13.634	19.479	-100.357	90.118	209.577	210.856	143.684	166.174	83.175	9.569	182.318	161.226	217.018	213.549	168.309	118.377	0.00031085	0.0002407	8.569e-05	1424.2	4.0773e-06	6.7623e-06	1402	383.25	8.2872e-07	5.4717e-06	434.26	140.06	122.29	42.156	6.4761e-06	51.794	0.0015644	0.0020446	0.00057364	1443.2	2.1715e-05	2.2688e-05	1429.6	392.19	2.1569e-05	2.2573e-05	445.27	145.47	127.47	43.611	2.1799e-05	53.766	-126.732	-47.079	-65.069	-114.194	67.544	2.350	-114.182	-109.705	-21.475	29.056	-110.011	-105.873	-105.478	-100.829	19.083	-101.304	-8191	255	
11055.200	1	1	0	0	0.060507	0.11418	0.209	0.55698	0.067242	0.037633	0.26313	0.11317	0.18313	0.12008	0.35894	0.21998	0.17975	0.26996	0.29601	0.37648	-2.6917	-2.9896	-2.7583	-3.4333	-2.9917	-3.0479	-3.4104	-3.1063	-3.3521	-3.0979	-2.8917	-3.3	-3.0604	-3.1208	-3.15	-2.9583	-4.722	-15.403	134.531	227.657	-69.383	51.930	126.406	183.758	35.279	-77.463	149.299	-91.435	231.262	230.837	167.483	4.333	0.00024539	0.00040173	0.00021555	1423	2.1569e-06	7.2087e-06	1404	383.89	4.4838e-06	9.1034e-06	432.79	140.28	122.93	42.057	5.5774e-06	51.675	0.0015473	0.0020239	0.00056197	1442	2.1258e-05	2.2491e-05	1427.5	392.02	2.1334e-05	2.2485e-05	445.24	145.77	127.71	43.555	2.204e-05	53.829	222.650	-91.562	-93.017	-114.256	14.683	2.655	-114.148	-109.628	-67.595	-9.986	-110.200	-105.885	-105.384	-100.802	78.148	-101.440	-8191	255	
11055.296	1	1	0	0	0.12509	0.17707	0.1216	0.24886	0.1136	0.19229	0.27127	0.22367	0.22601	0.12339	0.16507	0.064688	0.067411	0.3084	0.074935	0.12029	-2.7167	-2.9521	-2.7604	-3.3292	-2.8979	-2.8771	-3.575	-3.0396	-3.1833	-3.1708	-2.8646	-3.2771	-2.9125	-3.0583	-3.4354	-3.1562	3.928	75.396	61.622	230.187	51.936	160.958	152.956	228.048	-4.839	-118.296	-81.326	-68.245	78.973	-93.217	35.203	227.469	0.00026965	0.0007445	9.9586e-05	1418.7	7.2589e-06	2.0047e-06	1408.8	384.16	7.9608e-06	7.8029e-06	432.41	140.25	122.55	42.01	5.0995e-06	51.931	0.0015853	0.0020279	0.00056662	1443.2	2.1423e-05	2.239e-05	1430.6	392.09	2.1441e-05	2.2572e-05	445.24	145.6	127.68	43.555	2.1586e-05	53.785	-126.165	-40.524	-21.573	-114.082	20.287	63.828	-114.180	-109.757	-66.372	31.754	-110.278	-105.872	-105.498	-100.842	31.636	-101.581	-8191	255	
11055.392	1	1	0	0	0.19776	0.16602	0.026864	0.17049	0.21908	0.17392	0.1519	0.28278	0.13315	0.19605	0.14047	0.26856	0.19155	0.17577	0.27128	0.30919	-2.6896	-2.9646	-2.8937	-3.2146	-2.975	-2.9146	-3.3563	-3.1792	-2.9354	-3.2604	-2.925	-3.3167	-3.1312	-3	-3.0792	-3.2042	150.665	149.830	223.550	191.398	90.005	20.339	163.286	172.318	50.585	0.677	129.854	-110.056	-111.523	-32.047	138.946	219.150	0.00032763	0.00062427	0.00016476	1419	5.7074e-06	3.2963e-06	1402.1	383.33	4.4272e-06	1.109e-05	433.49	139.69	123.1	41.884	3.503e-06	51.933	0.0015637	0.00199	0.00055941	1442.6	2.1494e-05	2.2671e-05	1428.8	392.01	2.1444e-05	2.2589e-05	445.1	145.51	127.89	43.536	2.1955e-05	53.783	-126.798	-50.874	-4.132	-114.243	54.396	6.581	-114.082	-109.715	-29.086	29.547	-109.991	-105.946	-105.376	-100.803	90.205	-101.193	-8191	255	
11055.489	1	1	0	0	0.23933	0.31534	0.288	0.085004	0.15003	0.24975	0.16387	0.1665	0.18789	0.24549	0.01759	0.1044	0.082654	0.13077	0.044018	0.06352	-2.6083	-2.9896	-2.9146	-3.3167	-3.0687	-2.8375	-3.4104	-3.0354	-3.1688	-3.1917	-3.0208	-3.1646	-3.1354	-2.9813	-3.3187	-3.175	125.400	61.254	209.006	-100.837	-89.453	207.543	140.262	172.894	-60.515	227.809	102.519	217.911	-63.580	205.181	205.988	44.332	0.00025316	0.00045693	0.00017632	1416.1	4.2424e-06	6.2294e-06	1400.5	382.11	8.3421e-07	6.4797e-06	433.11	140.55	122.4	42.069	3.4818e-06	51.863	0.0015858	0.002072	0.00057194	1441.8	2.1987e-05	2.3015e-05	1429.7	391.87	2.2235e-05	2.2432e-05	445.6	145.72	127.58	43.545	2.1923e-05	53.745	228.754	-25.576	-65.324	-114.113	65.062	56.979	-114.293	-109.809	74.665	29.761	-109.944	-105.821	-105.477	-100.808	-0.840	-101.533	-8191	255	
11055.585	1	1	0	0	0.15653	0.14683	0.076354	0.11077	0.12771	0.14531	0.26459	0.26377	0.19374	0.086716	0.3593	0.22289	0.25757	0.17926	0.056937	0.028655	-2.6458	-3.2229	-2.8312	-3.2354	-3.1937	-2.9313	-3.4708	-3.3417	-2.9583	-3.4229	-3.1375	-3.3438	-3.1792	-2.9229	-3.2979	-3.0667	69.458	-116.615	93.583	52.487	3.025	121.477	146.609	153.760	213.742	-67.436	-89.234	-103.289	210.339	52.967	40.006	179.493	0.00029312	0.00068195	7.4093e-05	1421.3	4.5378e-06	3.6297e-06	1399.2	383.58	4.4723e-06	1.0842e-06	434	139.93	122.83	42.099	3.5877e-06	51.859	0.0015807	0.002043	0.00056053	1442	2.1926e-05	2.2547e-05	1428.3	392.04	2.1941e-05	2.2521e-05	444.89	145.6	127.61	43.604	2.1997e-05	53.824	-120.770	-61.823	-22.189	-114.161	16.466	43.021	-114.202	-109.700	-11.089	114.470	-109.811	-105.887	-105.477	-100.738	6.366	-101.045	-8191	255	
11055.681	1	1	0	0	0.203	0.19593	0.29082	0.075081	0.23931	0.080824	0.06583	0.41483	0.085834	0.12325	0.1402	0.31037	0.070893	0.25479	0.12785	0.052302	-2.5604	-3.1792	-2.8729	-3.2562	-3.3396	-2.9333	-3.4646	-3.3979	-2.9083	-3.3208	-2.975	-3.2875	-3.1917	-3.2083	-3.0563	-3.0292	-68.941	9.214	-109.840	158.658	229.115	226.772	-102.792	196.150	-64.797	-24.571	121.844	124.205	-119.515	186.392	153.326	115.659	0.00025131	0.00043145	0.00013092	1416	3.1224e-06	4.2307e-06	1402.3	383.08	4.5208e-06	7.8101e-06	434.66	139.74	122.14	42.037	1.5977e-06	51.895	0.0016055	0.0020466	0.00057374	1441.6	2.1813e-05	2.2797e-05	1428.5	392.36	2.1883e-05	2.276e-05	445.87	145.67	127.59	43.536	2.1888e-05	53.812	-124.302	1.265	33.514	-114.099	113.389	39.280	-114.391	-109.564	-55.386	-0.829	-110.057	-105.945	-105.551	-100.817	-43.801	-101.298	-8191	255	
11055.802	1	1	0	0	0.0086741	0.035466	0.25839	0.23568	0.049524	0.14219	0.41705	0.32248	0.1429	0.1473	0.18916	0.24265	0.16816	0.11631	0.14748	0.10677	-2.5208	-3.3292	-2.9083	-3.1708	-3.3708	-2.9354	-3.4188	-3.1479	-2.8958	-3.0417	-3.1917	-2.9792	-3.2979	-2.9437	-3.1146	-2.9979	52.110	-52.309	202.645	158.334	0.103	124.655	167.792	177.759	-56.537	40.775	-12.092	136.922	181.875	36.777	75.689	-84.673	0.00027395	0.00041197	0.00010743	1421.1	3.5268e-06	3.1013e-06	1400.5	384.06	6.4642e-06	2.386e-06	434.89	139.27	122.17	42.119	4.9925e-06	51.847	0.0015958	0.0019957	0.00056985	1442.8	2.1724e-05	2.2569e-05	1427.4	392.87	2.1634e-05	2.2458e-05	445.77	145.27	127.48	43.635	2.229e-05	53.833	-124.704	-54.033	-19.415	-114.250	-34.761	6.733	-114.232	-109.572	46.401	52.657	-110.077	-106.044	-105.282	-100.699	7.971	-101.293	-8191	255	
11055.898	1	1	0	0	0.2051	0.13704	0.27413	0.42608	0.09135	0.21725	0.13238	0.23472	0.14737	0.081917	0.24621	0.21279	0.10727	0.35447	0.05604	0.21479	-2.4146	-3.0208	-2.8979	-3.1542	-3.25	-2.9458	-3.3792	-3.2938	-2.5563	-3.2229	-3.1417	-3.0604	-3.3937	-3.25	-3.225	-3.1896	119.085	31.433	-2.151	216.280	102.059	181.216	24.284	184.738	35.159	-77.865	172.894	192.624	97.139	130.641	92.820	144.467	0.00025379	0.00025035	4.4949e-05	1421.2	3.2281e-06	4.2244e-06	1403	383.81	8.0365e-06	5.7966e-06	435.95	140.08	123.15	41.952	2.9867e-06	52.17	0.0015772	0.0020376	0.00057588	1443.8	2.1379e-05	2.2312e-05	1429.1	392.68	2.1008e-05	2.2088e-05	446.42	145.54	127.93	43.528	2.1924e-05	53.873	232.216	-12.070	25.345	-114.103	-6.526	42.384	-114.468	-109.761	32.052	15.146	-110.242	-105.944	-105.139	-100.798	-7.773	-101.308	-8191	255	
11055.994	1	1	0	0	0.10278	0.1344	0.13285	0.31462	0.19257	0.13417	0.30024	0.4051	0.13808	0.29949	0.049829	0.2001	0.14349	0.26249	0.10676	0.082741	-2.2146	-3.0687	-2.8542	-3.1771	-3.1292	-3.0854	-3.2479	-3.3	-2.9125	-3.2687	-3.1771	-2.9292	-3.2667	-3.1958	-2.9125	-3.3542	82.614	231.153	111.995	135.547	11.270	24.352	183.998	168.393	200.897	39.671	-119.700	-113.495	-114.319	156.968	195.234	-30.035	0.00027711	0.00040281	0.00020696	1422.9	5.1661e-06	2.1997e-06	1402.9	383.77	5.7378e-06	9.2999e-06	433.6	140.62	122.58	42.072	9.3864e-06	51.736	0.0015622	0.0020075	0.00057481	1442	2.1573e-05	2.2613e-05	1430	392.48	2.1682e-05	2.2787e-05	446.57	145.75	127.79	43.587	2.2516e-05	53.755	228.081	31.925	-26.992	-114.017	28.100	78.273	-114.226	-109.619	-48.463	25.964	-110.083	-105.886	-105.423	-100.824	3.850	-101.117	-8191	255	
11056.066	1	1	0	0	0.31683	0.11064	0.15529	0.24517	0.17445	0.097129	0.086512	0.32954	0.33608	0.095634	0.13677	0.29025	0.2522	0.12802	0.22814	0.23318	-2.4875	-3.15	-3.1542	-2.8708	-3.1396	-2.8875	-3.0417	-3.3146	-2.8917	-3.1188	-3.2625	-2.9854	-3.1979	-3.2	-2.9375	-3.2188	-40.942	165.758	169.909	212.571	226.493	107.196	203.022	185.057	-97.902	73.169	-115.677	-115.932	75.774	196.987	118.070	122.097	0.00028609	0.00064587	0.00026115	1417.5	5.7034e-06	7.2702e-07	1406	382.77	3.0545e-06	2.9827e-06	436.32	140.49	123.07	41.978	2.8485e-06	52.051	0.0015913	0.0020533	0.00057679	1443.3	2.1969e-05	2.3018e-05	1431.4	392.01	2.2123e-05	2.3052e-05	447.04	145.82	127.88	43.602	2.2267e-05	53.928	223.722	-32.768	-43.958	-114.217	47.313	12.570	-114.071	-109.812	14.831	117.253	-110.158	-105.955	-105.473	-100.827	69.308	-101.442	-8191	255	
11056.184	1	1	0	0	0.097024	0.31541	0.16603	0.18751	0.023869	0.3026	0.44282	0.3426	0.23685	0.2074	0.052527	0.21778	0.19833	0.17756	0.18736	0.26989	-2.6875	-3	-3.1354	-3.1479	-3.0958	-3.05	-3.1708	-3.2479	-2.8063	-3.0417	-3.3563	-3.0438	-3.3021	-3.2125	-2.9167	-3.4313	111.712	-37.253	-126.395	157.375	58.613	-113.919	198.322	179.239	83.468	107.726	-83.364	210.755	123.517	220.647	-101.690	171.231	0.00026532	0.00025339	0.00016527	1421.9	7.1028e-06	3.6159e-06	1403.4	382.55	1.8612e-06	1.3405e-05	434.64	140.22	122.52	42.092	2.0559e-06	51.942	0.0016111	0.0020697	0.00058285	1443.9	2.1993e-05	2.2964e-05	1430.6	392.65	2.2079e-05	2.3208e-05	446.29	145.65	127.74	43.616	2.2412e-05	53.796	228.309	-31.990	-58.725	-114.402	41.086	-11.082	-114.147	-109.526	-34.308	57.497	-110.070	-105.850	-105.554	-100.763	26.089	-101.029	-8191	255	
11056.281	1	1	0	0	0.32958	0.13533	0.10739	0.20567	0.22281	0.12874	0.45226	0.35383	0.14202	0.34758	0.17961	0.13442	0.1582	0.25258	0.26814	0.25914	-2.4437	-2.9562	-3.1021	-3.025	-3.0979	-3.2958	-3.1729	-3.3667	-3.0792	-2.8646	-3.3271	-2.9813	-3.2	-3.2917	-2.7583	-3.2875	-38.580	3.516	182.980	184.161	97.723	197.303	159.497	179.012	10.202	188.082	146.902	212.665	227.872	-125.021	-85.956	163.216	0.00028153	0.00089627	0.00020007	1418.4	3.0523e-06	4.3998e-06	1406.6	384.18	5.4133e-06	5.9181e-06	433.66	141.18	122.53	42.109	5.9681e-06	51.755	0.0015997	0.0020814	0.000579	1443.8	2.2107e-05	2.3213e-05	1432.1	392.69	2.2312e-05	2.318e-05	445.68	146.27	127.71	43.62	2.2311e-05	53.86	-125.266	-23.188	-28.394	-114.154	13.656	0.776	-114.138	-109.739	-4.081	20.575	-110.185	-105.925	-105.418	-100.824	61.390	-101.201	-8191	255	
11056.377	1	1	0	0	0.10726	0.12649	0.39014	0.3469	0.17712	0.039026	0.17786	0.28557	0.26315	0.031065	0.13008	0.095657	0.22174	0.11328	0.13639	0.26061	-2.625	-2.9542	-3.1271	-3.0896	-3.1208	-3.2333	-2.9417	-3.3271	-3.0187	-2.8521	-3.2958	-3.0667	-2.9167	-3.2667	-2.7521	-3.0604	229.510	229.244	210.351	165.665	208.252	176.614	182.122	174.401	162.955	-95.434	206.111	165.119	174.297	150.082	7.717	167.615	0.0002617	0.00020504	0.00018985	1423.9	6.964e-06	3.9314e-06	1403.6	383.64	2.8559e-06	3.3698e-06	434.78	140.43	122.88	42.096	3.6982e-06	52.004	0.0016247	0.0020833	0.00058076	1446.6	2.2516e-05	2.3376e-05	1429.9	392.99	2.2215e-05	2.3407e-05	446.48	145.74	127.97	43.681	2.2204e-05	53.899	-127.339	-63.536	-1.108	-114.431	21.961	-31.474	-114.286	-109.596	-15.598	-99.080	-110.333	-105.972	-105.221	-100.934	47.858	-101.098	-8191	255	
11056.473	1	1	0	0	0.060093	0.078596	0.083785	0.33494	0.20628	0.21807	0.36106	0.13591	0.23167	0.038666	0.27361	0.12133	0.26447	0.17076	0.027669	0.084857	-2.425	-2.6333	-3.15	-2.975	-2.7042	-3.0979	-3.1958	-3.2167	-3.0583	-2.6667	-3.3417	-3.1312	-2.8958	-3.2313	-3.1167	-3.1521	188.222	-77.692	171.127	-125.867	-119.602	200.177	133.684	131.963	140.868	113.007	69.350	185.003	-124.101	-40.201	-51.631	199.113	0.00024017	0.00077108	0.00021286	1423.3	7.4237e-07	5.1204e-06	1408.9	384.17	5.1281e-06	4.0198e-06	434.3	140.96	122.77	42.094	4.9884e-06	51.764	0.0016216	0.0020648	0.000575	1445.3	2.223e-05	2.2834e-05	1431.3	393.01	2.2452e-05	2.2941e-05	446.02	146.02	128	43.678	2.209e-05	53.806	213.334	-71.450	5.284	-114.243	129.981	53.326	-114.159	-109.532	-46.466	-23.760	-110.058	-106.034	-105.317	-100.730	22.486	-101.036	-8191	255	
11056.569	1	1	0	0	0.055976	0.21498	0.01753	0.2346	0.11267	0.19701	0.15515	0.19332	0.12056	0.16055	0.19301	0.085802	0.044387	0.15528	0.044445	0.26027	-2.6479	-2.7375	-3.1667	-3.1854	-2.9583	-3.1958	-3.2042	-3.2208	-3.125	-2.8896	-3.2083	-3.1813	-3	-3.2	-2.9	-3.0729	-14.030	1.796	170.920	132.999	-86.231	148.705	190.091	112.537	59.640	76.587	226.962	87.453	51.759	-84.657	36.392	95.075	0.00027964	0.00045444	8.6823e-05	1421.9	2.8888e-06	6.6502e-06	1406.8	383.62	2.785e-06	1.2897e-05	434.47	140.53	123.33	42.101	3.9931e-06	51.656	0.0016021	0.0020305	0.00057002	1444.3	2.2073e-05	2.2862e-05	1432	392.78	2.1918e-05	2.2759e-05	446.48	145.87	127.86	43.676	2.2009e-05	53.841	-127.441	-55.514	-54.513	-114.046	-44.403	-1.948	-114.154	-109.786	14.859	34.781	-110.284	-106.066	-105.557	-100.724	35.246	-101.519	-8191	255	
11056.665	1	1	0	0	0.19825	0.13079	0.026577	0.36532	0.11205	0.14226	0.1394	0.070854	0.074491	0.074624	0.22705	0.12576	0.34628	0.13768	0.11614	0.19621	-2.8417	-2.8271	-3.1146	-3.0854	-2.9958	-3.1854	-3.225	-3.3458	-3.3	-2.9146	-3.3125	-3.05	-2.9958	-3.1896	-2.9333	-3.2208	109.674	63.165	230.420	146.734	203.506	10.940	202.080	205.514	-30.311	113.469	132.534	232.215	-53.959	170.505	16.444	131.668	0.00025966	0.00037024	0.00018259	1422.7	4.6223e-06	6.4191e-06	1403.5	383.36	3.8065e-06	5.3068e-06	434.95	140.56	122.91	42.125	7.4923e-06	51.845	0.0015979	0.0020492	0.00057076	1444.5	2.1965e-05	2.2621e-05	1432.1	392.69	2.2161e-05	2.2524e-05	446.93	145.81	127.73	43.685	2.1942e-05	53.846	-127.444	-3.304	-37.127	-114.329	9.090	78.639	-114.151	-109.705	65.759	-46.460	-110.187	-106.096	-105.418	-101.086	59.712	-101.510	-8191	255	
11056.761	1	1	0	0	0.33831	0.25842	0.11302	0.10216	0.22484	0.15638	0.35766	0.23044	0.083964	0.32508	0.073864	0.14226	0.025239	0.28065	0.12306	0.040865	-2.6167	-2.6667	-3.15	-3.1604	-2.8833	-3.2062	-3.2958	-3.0625	-3.3979	-2.675	-3.1104	-3.1875	-3.0062	-3.2146	-3.0479	-2.9708	197.509	174.974	2.085	89.070	221.790	52.554	181.189	153.420	-51.850	203.333	16.116	121.748	65.934	194.023	133.008	-77.281	0.00030289	0.00066457	0.00019133	1424.7	2.4132e-06	6.5187e-06	1399.2	384.45	2.7128e-06	3.27e-06	434.22	140.46	123.04	42.058	5.2039e-06	51.717	0.0015962	0.0020611	0.00057484	1446.2	2.196e-05	2.258e-05	1427.3	392.89	2.144e-05	2.2324e-05	446.44	145.89	127.83	43.618	2.2056e-05	53.833	229.029	-54.721	-66.489	-114.152	33.905	32.258	-114.315	-109.761	-16.105	17.371	-109.842	-106.083	-105.339	-100.780	8.807	-101.413	-8191	255	
11056.882	1	1	0	0	0.21579	0.12291	0.094857	0.10117	0.21548	0.12135	0.29915	0.38095	0.15591	0.21158	0.11293	0.27876	0.039148	0.12204	0.059668	0.33266	-2.5396	-2.7667	-2.8375	-3.2167	-2.7917	-3.0958	-3.2417	-2.975	-3.0604	-2.8542	-3.1813	-3.3833	-2.8708	-3.3042	-3.1562	-2.9146	-47.746	166.474	228.315	-47.960	-38.959	-74.131	199.626	180.469	126.533	-118.380	132.143	-109.528	172.781	199.136	-79.638	198.697	0.00028486	0.00088475	0.00028454	1424.8	5.0647e-06	3.7138e-06	1402.3	383.16	3.7762e-06	6.9366e-06	435.65	140.05	122.67	42.207	3.1306e-06	51.893	0.0015614	0.002011	0.000565	1445.8	2.1224e-05	2.2276e-05	1428.3	392.39	2.1131e-05	2.2561e-05	446.02	145.61	127.84	43.645	2.2182e-05	53.866	-123.073	-45.684	-39.687	-114.369	44.964	-8.340	-114.187	-109.582	46.413	43.132	-110.326	-105.901	-105.463	-101.041	13.278	-101.424	-8191	255	
11056.978	1	1	0	0	0.20156	0.27949	0.13822	0.22054	0.1582	0.1512	0.18282	0.026733	0.18646	0.098302	0.3716	0.11823	0.13424	0.29787	0.099847	0.14054	-2.7917	-2.7833	-2.9313	-3.1875	-2.8625	-3.0667	-3.1	-3.0396	-3.0187	-2.8917	-2.9625	-3.2104	-3.0458	-3.1792	-3.0604	-2.9479	129.211	47.743	131.728	-127.426	21.948	93.979	126.142	55.821	-94.603	-67.234	160.895	143.557	222.897	-122.883	173.447	-127.345	0.00029933	0.00054265	0.00013617	1421	3.307e-06	4.6104e-06	1404.6	383.62	3.4057e-06	5.6291e-06	435.96	140.17	122.62	42.149	1.9863e-06	51.958	0.0015586	0.0020253	0.00057206	1444.5	2.1478e-05	2.2586e-05	1430.6	392.74	2.1306e-05	2.2303e-05	447.16	145.7	127.64	43.651	2.181e-05	53.872	228.249	-5.884	-73.512	-114.241	82.702	34.971	-114.205	-109.583	-17.799	-6.943	-109.926	-105.692	-105.290	-100.682	59.562	-101.186	-8191	255	
11057.074	1	1	0	0	0.14958	0.21712	0.080616	0.14862	0.12733	0.31425	0.36531	0.31524	0.12612	0.2231	0.22895	0.12994	0.086763	0.079727	0.10138	0.22298	-2.6792	-2.7271	-2.9625	-3.3896	-2.7104	-3.2458	-3.2792	-3.0125	-3.2	-3.0292	-2.9458	-3.1583	-2.9271	-3.2229	-3.0521	-2.7854	23.087	212.777	-59.136	178.239	164.187	-94.093	165.423	83.573	114.228	69.152	187.761	175.524	75.362	220.050	-36.379	191.098	0.0002578	0.00024266	0.00020292	1418.8	4.9874e-06	3.9167e-06	1405.3	384.18	2.1075e-06	5.9953e-06	434.48	140.05	122.59	41.991	2.03e-06	51.833	0.0015531	0.0020158	0.00057388	1445.4	2.1519e-05	2.2871e-05	1429.3	392.71	2.1623e-05	2.3069e-05	446.02	145.57	127.64	43.54	2.2354e-05	53.836	222.324	-39.406	-53.158	-114.330	1.255	-0.768	-114.066	-109.894	146.253	8.527	-110.010	-105.876	-105.223	-100.830	122.374	-101.104	-8191	255	
11057.170	1	1	0	0	0.12882	0.18807	0.21551	0.13723	0.09578	0.30111	0.22724	0.19118	0.13694	0.29096	0.26456	0.22586	0.13019	0.12414	0.20202	0.20705	-2.8771	-2.9333	-2.7833	-3.5	-2.8458	-2.9625	-3.4479	-3.0312	-3.1771	-2.8937	-2.9583	-3.3354	-2.9167	-3.05	-3.1333	-2.8083	87.180	129.282	142.247	-66.614	219.923	64.927	141.231	206.155	-63.502	-83.097	197.302	85.574	194.740	185.677	87.163	204.792	0.00030943	0.00061165	0.00011915	1415.7	5.6916e-06	3.4785e-06	1403.1	384.18	2.6374e-06	7.065e-06	434.37	139.75	122.73	42.069	1.4642e-06	51.935	0.0015769	0.0020703	0.00058037	1442.1	2.1599e-05	2.3124e-05	1429.9	392.6	2.1513e-05	2.2685e-05	446.1	145.31	127.76	43.601	2.1628e-05	53.785	226.956	-28.098	-32.241	-114.168	103.712	79.136	-114.037	-109.766	-34.058	54.219	-110.039	-105.829	-105.382	-100.800	138.243	-101.550	-8191	255	
11057.289	1	1	0	0	0.11696	0.17561	0.25045	0.19374	0.10403	0.036936	0.081672	0.14761	0.12187	0.20553	0.10598	0.06419	0.088249	0.22507	0.090782	0.068752	-2.7167	-3.0083	-2.7104	-3.1833	-2.975	-3.0833	-3.4458	-3.0271	-3.0229	-2.9792	-2.8896	-3.2458	-3	-3.1813	-2.9917	-3.0187	-119.233	154.493	176.694	185.633	16.693	-57.345	187.237	-59.093	36.968	145.006	-38.248	79.520	231.587	99.137	14.836	136.660	0.00028186	0.00053884	0.00019446	1420	1.3532e-06	6.5211e-06	1401.5	383.5	4.6605e-06	6.4839e-06	433.72	140.31	122.38	41.942	6.0827e-06	51.444	0.00157	0.002025	0.00056698	1443	2.1357e-05	2.2492e-05	1426.8	391.95	2.1333e-05	2.2273e-05	445.29	145.43	127.4	43.496	2.1564e-05	53.658	-113.006	-9.292	-35.558	-114.240	209.352	-2.491	-114.150	-109.648	-37.399	23.652	-110.295	-105.747	-105.244	-100.857	20.436	-101.187	-8191	255	
11057.361	1	1	0	0	0.30072	0.15287	0.16827	0.31623	0.076911	0.084836	0.37784	0.2173	0.094775	0.13957	0.16359	0.2035	0.13214	0.33286	0.10158	0.17675	-2.7625	-3.0583	-2.7687	-3.325	-2.8438	-2.8104	-3.4792	-3.1125	-3.0125	-3.05	-3	-3.3458	-3.0396	-2.9667	-3.2625	-3.05	-36.210	184.127	-37.606	-91.424	-21.691	-8.534	173.707	144.393	128.182	225.550	208.510	207.291	203.374	-103.829	173.033	158.378	0.00028991	0.0006733	0.00018274	1417.4	4.2958e-06	4.8943e-06	1401.1	383.16	5.7805e-06	1.0963e-05	434.27	139.6	122.61	41.953	2.2749e-06	51.77	0.0015355	0.001965	0.00055781	1438.6	2.1289e-05	2.2388e-05	1425.9	391.55	2.1551e-05	2.2388e-05	445.56	145.43	127.78	43.561	2.2062e-05	53.796	225.743	-46.783	-22.287	-114.314	24.247	1.585	-114.271	-109.832	30.348	23.950	-110.108	-105.788	-105.449	-100.627	46.888	-101.454	-8191	255	
11057.482	1	1	0	0	0.082112	0.078956	0.10304	0.24705	0.071945	0.25376	0.18512	0.30919	0.26847	0.023973	0.18189	0.23153	0.15476	0.22566	0.32061	0.14961	-2.5458	-2.9521	-2.7812	-3.375	-2.9292	-2.8875	-3.4792	-2.9875	-2.8375	-3.1333	-2.9292	-3.225	-3.1854	-2.9813	-3.1729	-3.0062	185.459	-96.502	40.399	167.245	106.137	6.742	225.680	142.288	186.418	-29.657	71.455	199.484	142.352	225.852	-105.195	129.915	0.0002804	0.00048955	9.0741e-05	1419.9	1.6696e-06	5.0042e-06	1404.3	382.57	8.9159e-06	1.0492e-05	433.4	140.23	122.43	42.243	1.5192e-06	51.64	0.0016025	0.0020528	0.00057261	1442.2	2.2014e-05	2.2807e-05	1429.6	392.15	2.1799e-05	2.2578e-05	445.02	145.55	127.57	43.611	2.1517e-05	53.698	-121.217	1.175	-33.825	-114.113	-15.335	33.633	-114.093	-109.784	38.018	65.346	-110.118	-105.864	-105.512	-100.746	41.541	-101.319	-8191	255	
11057.578	1	1	0	0	0.15093	0.15629	0.14872	0.16879	0.079412	0.015577	0.30503	0.38334	0.097746	0.09463	0.19011	0.20669	0.13339	0.13069	0.024719	0.11255	-2.3812	-2.9896	-2.7271	-3.2479	-2.9813	-2.7646	-3.1208	-3.0104	-2.8854	-3.175	-3.1271	-3.1375	-3.1688	-2.9042	-3.225	-2.9917	25.890	-105.010	179.241	190.597	126.504	146.254	165.878	189.569	159.652	9.811	201.621	171.158	173.514	-25.266	-78.793	91.515	0.00030432	0.00045728	0.00016678	1420.5	6.3139e-06	3.3665e-06	1399.6	383.89	5.1813e-06	5.5984e-06	433.78	139.76	122.82	42.204	3.8464e-06	51.637	0.0015634	0.0019786	0.00055019	1440.1	2.1181e-05	2.175e-05	1426.1	391.85	2.0306e-05	2.1068e-05	444.25	145.34	127.55	43.612	2.0908e-05	53.653	231.719	-22.374	-36.191	-114.212	60.029	50.245	-114.086	-109.549	47.371	73.972	-109.767	-105.778	-105.466	-100.718	2.669	-101.062	-8191	255	
11057.674	1	1	0	0	0.18733	0.091236	0.13775	0.19254	0.12891	0.12358	0.46738	0.21954	0.18894	0.18824	0.10622	0.13299	0.13001	0.28847	0.15858	0.33061	-2.4583	-2.9396	-2.7646	-3.2396	-3.0167	-2.8333	-3.3542	-2.8104	-2.6729	-3.2188	-2.9229	-3.0083	-3.1042	-2.9562	-3.0812	-3.2125	95.960	121.758	-3.202	160.837	178.058	80.106	179.369	136.239	-33.230	15.483	45.761	-115.288	170.935	200.731	-17.012	-114.396	0.00030981	0.00020684	0.00017368	1414.2	1.9229e-06	4.3207e-06	1398.6	382.03	7.0897e-06	5.6909e-06	434.71	140.22	122.41	42.062	3.3527e-06	51.961	0.0015399	0.0019792	0.00054642	1439.2	2.1104e-05	2.2018e-05	1425.8	391.76	2.124e-05	2.1852e-05	445.16	145.63	127.45	43.563	2.114e-05	53.829	225.501	-39.462	-25.697	-114.220	41.650	5.748	-114.308	-109.579	-4.867	17.299	-110.134	-105.878	-105.215	-100.792	1.869	-101.370	-8191	255	
11057.770	1	1	0	0	0.26582	0.062642	0.15873	0.079157	0.21853	0.30601	0.29787	0.12586	0.17034	0.17879	0.13721	0.28193	0.23459	0.23918	0.26891	0.3118	-2.5708	-3.0979	-2.9854	-3.025	-3.0687	-2.9854	-3.3063	-3.1167	-2.8875	-3.0896	-2.9292	-3.0646	-3.1417	-3.0042	-3.1146	-3.1188	-52.057	93.467	211.620	143.876	-43.333	126.714	138.249	-109.974	0.744	193.438	188.131	-97.956	-87.431	-78.093	72.834	182.895	0.00030233	0.00053321	9.2298e-05	1420.8	7.6841e-06	6.9247e-06	1397.7	383.46	3.3308e-06	4.4912e-06	434.26	139.66	122.52	42.04	3.8825e-06	51.862	0.0015244	0.0019547	0.00054012	1440.5	2.099e-05	2.1371e-05	1425.1	392.07	2.0726e-05	2.1879e-05	445.14	145.36	127.65	43.509	2.1334e-05	53.815	221.801	-31.565	-49.953	-114.300	27.743	34.546	-114.036	-109.692	8.467	37.445	-110.132	-106.064	-105.301	-100.762	40.217	-101.493	-8191	255	
11057.866	1	1	0	0	0.10525	0.15255	0.12473	0.27799	0.075483	0.066751	0.30963	0.18143	0.27331	0.18704	0.025997	0.39239	0.21482	0.063728	0.1829	0.25955	-2.5042	-2.9708	-2.8646	-3.2542	-3.2938	-2.8979	-3.2271	-3.1792	-2.9	-3.2438	-3.0292	-2.8604	-3.1896	-2.8458	-2.8542	-3.0021	120.190	-42.210	-7.956	156.480	-124.297	5.458	160.837	211.811	227.134	153.008	42.184	130.619	149.836	199.651	193.843	132.728	0.0002389	0.00098404	0.00019632	1418.1	9.2303e-06	5.0291e-06	1398.1	382.02	3.8076e-06	2.1516e-06	434.31	140.13	122.2	41.85	2.7964e-06	51.855	0.001526	0.001925	0.00055063	1440.4	2.0718e-05	2.18e-05	1425.3	392.04	2.0787e-05	2.1789e-05	445.46	145.59	127.4	43.507	2.1754e-05	53.791	230.028	-50.989	-5.418	-114.152	11.357	13.484	-114.045	-109.714	-13.617	25.684	-110.183	-105.835	-105.295	-100.696	-68.750	-101.313	-8191	255	
11057.962	1	1	0	0	0.13584	0.21387	0.056126	0.12658	0.21672	0.018461	0.2269	0.19564	0.13247	0.29012	0.047415	0.1392	0.1357	0.23567	0.15467	0.079663	-2.3917	-3.025	-2.9667	-2.875	-3.1667	-2.8354	-3.2458	-3.1792	-2.9938	-3.1958	-2.8979	-3.0917	-3.2979	-3.1729	-2.9021	-3.2333	179.789	-25.732	-76.964	148.887	-19.338	97.701	183.394	157.803	180.961	-53.574	159.881	24.112	-83.618	162.188	165.605	153.522	0.00028738	0.00071764	0.00017925	1418.7	3.037e-06	2.7501e-06	1402.2	384.55	5.85e-06	6.9376e-06	436.11	140.27	122.04	41.842	2.9483e-06	51.638	0.0015395	0.001982	0.00055691	1442.2	2.115e-05	2.2049e-05	1426.7	391.89	2.1221e-05	2.2129e-05	445.92	145.51	127.51	43.476	2.1481e-05	53.714	-127.225	-64.469	-39.239	-114.308	8.816	52.967	-114.074	-109.903	-12.868	12.387	-110.107	-105.932	-105.228	-100.899	73.255	-101.255	-8191	255	
11058.058	1	1	0	0	0.20266	0.16243	0.095611	0.081542	0.18878	0.2173	0.12578	0.11915	0.20882	0.20245	0.39349	0.13422	0.10739	0.062684	0.23346	0.19897	-2.5312	-2.9646	-2.9813	-2.9	-3.3083	-3.0708	-3.1417	-3.1917	-2.9062	-3.15	-3.1271	-2.8646	-3.1375	-3.0667	-2.9125	-3.2542	129.138	41.367	25.470	208.461	161.530	114.312	167.656	123.191	22.875	199.368	229.809	161.053	106.898	40.404	-15.579	180.149	0.00025635	0.00052938	0.00015344	1420.7	6.6965e-06	4.7528e-06	1407	383.96	3.3328e-06	4.6202e-06	433.57	139.87	122.05	42.192	3.1414e-06	51.986	0.0015365	0.0019743	0.00056474	1442.1	2.0937e-05	2.2126e-05	1428.3	392.15	2.0966e-05	2.2075e-05	444.93	145.52	127.41	43.58	2.1508e-05	53.801	230.165	-34.042	-18.222	-114.045	17.820	102.640	-114.317	-109.618	61.014	45.927	-110.255	-105.887	-105.658	-100.715	0.179	-101.363	-8191	255	
11058.155	1	1	0	0	0.013058	0.074369	0.10254	0.20676	0.19893	0.080362	0.34094	0.29066	0.14948	0.089301	0.16763	0.13661	0.28137	0.0055484	0.20453	0.098043	-2.2687	-3.125	-3.0812	-3.0104	-3.2354	-3.0208	-3.025	-3.3083	-2.7875	-3.1479	-3.2521	-2.7542	-3.2021	-3.0458	-2.8833	-3.4021	87.744	-79.010	-4.994	170.441	-21.670	130.456	184.043	115.499	-99.713	100.508	229.506	228.046	-110.724	169.743	120.103	-9.486	0.00028037	0.00071712	0.00038742	1419.7	3.0691e-06	4.1887e-06	1400	384.15	2.1642e-06	9.9689e-06	434.99	140.51	123.19	42.129	2.7307e-06	51.94	0.0015243	0.0020039	0.00054872	1440.8	2.108e-05	2.21e-05	1427.8	392.55	2.0935e-05	2.2283e-05	445.7	145.52	127.66	43.603	2.1637e-05	53.699	222.894	-48.555	-20.279	-114.160	55.104	23.540	-114.295	-109.648	38.851	29.358	-109.832	-105.877	-105.269	-100.953	62.433	-101.416	-8191	255	
11058.251	1	1	0	0	0.22539	0.064088	0.21895	0.10013	0.10807	0.20916	0.36177	0.30793	0.046879	0.11698	0.17078	0.060614	0.2345	0.1872	0.11249	0.023023	-2.4896	-3.0687	-3.0083	-2.9188	-3.3083	-3.1375	-3.1646	-3.3063	-2.9667	-3.2646	-3.3146	-3.0125	-3.0729	-3.0312	-2.7479	-3.2188	97.514	32.099	116.495	184.116	11.728	212.326	200.918	153.781	211.153	-46.546	136.729	6.811	223.772	22.141	55.841	207.965	0.00023119	0.00089609	7.5392e-05	1417.1	6.3268e-06	4.4513e-06	1400.6	382.5	6.318e-06	9.9404e-06	434.8	140.55	123.04	42.175	1.174e-06	51.745	0.0015498	0.0019888	0.00055416	1440.4	2.1117e-05	2.2065e-05	1426.6	391.75	2.1178e-05	2.1846e-05	445.73	145.65	127.75	43.616	2.1228e-05	53.731	219.011	-63.247	9.708	-114.161	49.147	-13.967	-114.210	-109.891	-32.451	81.745	-109.967	-105.934	-105.317	-100.826	-95.195	-101.054	-8191	255	
11058.370	1	1	0	0	0.26407	0.13378	0.055139	0.31945	0.21525	0.20344	0.17502	0.1162	0.12897	0.020506	0.26637	0.10145	0.13749	0.11182	0.29363	0.13228	-2.4229	-3.0021	-2.9875	-2.9354	-3.0146	-3.0563	-2.975	-3.2396	-2.9	-2.975	-3.2687	-3.0729	-3.0917	-3.1021	-3.0167	-3.2167	221.756	226.986	35.420	-117.499	131.188	162.691	165.670	207.497	218.770	94.572	-122.315	14.434	205.677	188.619	192.351	156.891	0.00027976	0.00058035	0.00012621	1422.8	6.1902e-06	3.1504e-06	1401.3	383.79	2.7141e-06	4.5934e-06	434.4	140.26	123.07	42.058	2.0405e-06	51.537	0.001531	0.0019486	0.00055104	1443.1	2.0921e-05	2.1694e-05	1425.4	392.19	2.0888e-05	2.1726e-05	445.55	145.49	127.7	43.56	2.1049e-05	53.636	-122.648	-9.281	-3.320	-114.152	32.527	-13.543	-114.226	-109.590	29.910	1.181	-110.157	-106.065	-105.291	-100.653	202.149	-101.402	-8191	255	
11058.466	1	1	0	0	0.19948	0.047043	0.01479	0.15889	0.12599	0.12994	0.32566	0.2103	0.24788	0.045502	0.13293	0.088332	0.22739	0.10312	0.12808	0.28001	-2.6188	-2.7	-3.0354	-2.8917	-2.9313	-3.0687	-3.0458	-3.4708	-3.0542	-2.925	-3.2396	-3.1125	-3.1208	-3.3083	-2.7583	-3.1063	-111.746	65.753	149.878	185.741	-67.096	-55.995	169.719	198.444	54.243	64.502	82.671	198.640	158.183	227.991	102.832	126.743	0.00024477	0.00082907	0.0001962	1423.9	1.3939e-06	6.8169e-06	1398.4	385.46	3.9301e-06	1.0538e-05	435.01	139.92	123.02	41.869	3.0292e-06	52.032	0.0015321	0.0019702	0.000549	1443.4	2.1313e-05	2.1972e-05	1427.1	392.64	2.0786e-05	2.1996e-05	445.2	145.55	127.65	43.568	2.0893e-05	53.86	232.378	-35.802	-39.546	-114.125	-53.143	-8.492	-114.167	-109.614	-29.729	6.679	-110.195	-105.819	-105.381	-100.852	66.503	-101.558	-8191	255	
11058.562	1	1	0	0	0.057622	0.055233	0.19417	0.12236	0.070703	0.17283	0.21186	0.2084	0.22241	0.22012	0.27244	0.057089	0.35755	0.16802	0.10516	0.12091	-2.4958	-2.8	-3.0604	-3.0896	-2.9375	-3.2313	-2.8917	-3.1375	-3.0333	-2.8708	-3.3146	-2.9938	-2.9458	-3.2021	-2.8167	-3.0604	-105.969	94.946	-65.877	193.570	199.567	145.756	148.617	-120.475	-109.520	5.565	206.615	160.552	186.144	228.429	-122.269	-57.516	0.00035295	0.00071856	0.00017843	1414.6	6.5638e-06	7.4374e-06	1400.8	383.48	2.8626e-06	4.4188e-06	432.94	140.52	122.22	42.1	4.9218e-06	51.624	0.0015485	0.0019654	0.00054138	1439.5	2.116e-05	2.2048e-05	1424.3	392.1	2.1266e-05	2.2206e-05	445.27	145.64	127.72	43.678	2.1584e-05	53.698	231.847	-51.612	-7.057	-114.317	51.550	34.579	-114.441	-109.658	-57.038	87.726	-109.963	-105.920	-105.185	-100.726	30.197	-101.422	-8191	255	
11058.658	1	1	0	0	0.099635	0.33619	0.19993	0.43885	0.28173	0.22497	0.3917	0.11678	0.3305	0.03739	0.19717	0.19661	0.1187	0.47834	0.19198	0.17908	-2.6437	-2.825	-3.0438	-3.2229	-2.9604	-3.1375	-3.0604	-3.1146	-3.0438	-2.8063	-3.2146	-3.0812	-3.0583	-3.2208	-2.8563	-3.0646	106.485	143.138	-54.675	226.016	-77.199	-28.947	143.774	178.292	3.275	26.681	-126.238	230.100	95.562	-43.215	102.514	127.547	0.00029025	0.001107	0.00011877	1418.4	6.8593e-06	5.3255e-06	1398	384.76	7.754e-06	8.7895e-06	431.69	139.99	122.55	42.131	5.343e-06	51.915	0.0015631	0.0019572	0.00055277	1441.2	2.1188e-05	2.1784e-05	1426.7	392.8	2.1226e-05	2.1677e-05	444.99	145.46	127.62	43.557	2.122e-05	53.869	-127.340	-29.985	-32.693	-114.214	16.724	17.494	-114.229	-109.535	-10.428	46.474	-110.101	-106.040	-105.223	-100.810	-2.943	-101.332	-8191	255	
11058.754	1	1	0	0	0.17457	0.10792	0.044136	0.20202	0.074713	0.23484	0.38411	0.37733	0.072387	0.31209	0.16062	0.44982	0.16475	0.12938	0.14506	0.12049	-2.8688	-2.7979	-3.1229	-3.3896	-2.7833	-3.3063	-3.1792	-3.1104	-3.1833	-2.7583	-3.2146	-3.0833	-2.8104	-3.2896	-2.9	-3.0042	114.413	-43.753	-16.822	194.262	188.206	-4.433	164.585	207.665	214.508	184.998	-78.495	-97.052	191.359	176.448	-99.444	95.012	0.0002509	0.00046977	0.00016279	1416.8	5.9008e-06	4.3293e-06	1398.2	383.55	5.1412e-06	3.6468e-06	437	139.9	122.76	42.079	3.8715e-06	51.773	0.0015395	0.0019591	0.00055724	1441.3	2.1036e-05	2.16e-05	1426.7	391.91	2.0994e-05	2.2011e-05	445.98	145.5	127.55	43.544	2.1047e-05	53.798	-121.528	-39.287	-81.700	-114.337	26.327	48.764	-114.071	-109.672	-22.645	109.770	-110.165	-105.769	-105.286	-100.790	36.137	-101.474	-8191	255	
11058.850	1	1	0	0	0.19829	0.10266	0.13209	0.39126	0.19723	0.12414	0.45339	0.31673	0.18147	0.13027	0.131	0.16784	0.030249	0.12483	0.11665	0.40022	-2.6688	-2.7208	-2.9958	-3.3104	-2.9104	-3.1292	-3.2042	-2.975	-3.1917	-3.0396	-3.1562	-3.1396	-2.7729	-3.1063	-3.0729	-3.0958	-85.510	123.306	168.822	136.531	34.319	11.521	180.703	126.198	-84.976	212.248	216.309	200.339	152.891	-53.273	102.528	169.745	0.00029301	0.0003064	5.568e-05	1412.6	4.0541e-06	2.1111e-06	1400	383.51	2.8643e-06	7.1184e-06	433.24	140.26	122.65	42.033	7.0079e-06	51.873	0.0014968	0.0019115	0.00053002	1437.8	2.0246e-05	2.0981e-05	1424.2	391.59	2.0609e-05	2.1268e-05	444.96	145.56	127.49	43.533	2.0872e-05	53.723	227.040	-40.292	-82.288	-114.366	0.211	-9.738	-114.203	-109.802	-15.955	41.781	-110.275	-105.846	-105.470	-100.732	11.402	-101.244	-8191	255	
11058.971	1	1	0	0	0.15293	0.09984	0.18898	0.32968	0.072178	0.227	0.20984	0.055486	0.24445	0.2289	0.15168	0.12178	0.20045	0.23445	0.066072	0.29597	-2.7479	-2.7812	-3.0146	-3.2917	-2.7104	-3.1562	-3.1458	-3.0375	-3.2188	-3.1021	-3.1188	-3.1396	-3.0125	-3.2375	-2.8646	-2.9958	82.179	139.321	-14.542	195.344	-28.890	21.686	-121.466	-111.707	136.061	172.307	-35.717	210.058	167.409	162.826	-124.081	163.335	0.00025963	0.00079274	0.00011195	1414.3	8.1268e-06	6.329e-06	1399.4	383.05	3.9791e-06	4.7764e-06	434.63	139.93	122.69	41.913	1.6383e-06	51.756	0.0014748	0.0019062	0.00054151	1438.2	2.0475e-05	2.1285e-05	1423.8	391.72	2.0614e-05	2.1409e-05	444.91	145.34	127.37	43.523	2.093e-05	53.791	231.169	-29.980	-71.440	-114.052	40.908	48.964	-114.011	-109.632	26.775	10.887	-109.841	-105.800	-105.460	-100.803	14.869	-101.371	-8191	255	
11059.067	1	1	0	0	0.14703	0.20702	0.23225	0.16097	0.12908	0.07315	0.27904	0.40753	0.22131	0.20942	0.22072	0.12257	0.13801	0.35384	0.22251	0.24677	-2.7396	-2.9229	-3.0458	-3.3458	-2.8063	-3.2333	-3.1583	-3.0271	-3.2375	-2.8542	-2.9958	-3.3542	-2.9104	-3.075	-3.0729	-3.0208	78.677	184.906	38.139	-90.443	-75.257	48.351	171.819	182.053	200.673	-57.727	198.499	78.968	182.026	230.038	-106.736	136.738	0.00026467	0.00036895	0.00021866	1414.7	8.5894e-06	4.9211e-06	1397.2	382.14	7.0143e-06	7.7484e-06	432.78	140.46	122.52	42.021	1.5699e-06	51.77	0.0014911	0.001925	0.0005418	1437.6	2.0323e-05	2.1569e-05	1423	391.25	2.0521e-05	2.184e-05	444.8	145.49	127.29	43.555	2.1695e-05	53.655	-123.870	-48.591	-22.575	-114.131	30.956	50.209	-114.119	-109.533	19.776	49.443	-110.249	-106.113	-105.359	-100.882	52.874	-101.221	-8191	255	
11059.162	1	1	0	0	0.2786	0.22607	0.39506	0.36026	0.10219	0.016665	0.15916	0.1269	0.14631	0.16093	0.46188	0.1797	0.090042	0.11496	0.19332	0.083027	-2.8146	-3.0563	-2.8479	-3.3833	-2.9688	-3.0042	-3.4104	-2.9562	-3.2771	-3.0396	-3.0729	-3.225	-2.8854	-3.1354	-2.9708	-2.8271	155.442	-113.038	37.608	-112.863	-24.987	226.402	159.573	73.441	129.808	-12.765	199.803	195.371	54.728	-94.230	-33.303	-90.564	0.00032243	0.00052216	0.00010639	1419.3	7.2945e-06	2.7553e-06	1400.4	383.16	3.6484e-06	1.0628e-05	432.09	140.3	122.69	41.934	5.6109e-06	51.898	0.001557	0.0020167	0.00057026	1442.4	2.216e-05	2.295e-05	1428.6	392.51	2.2448e-05	2.3536e-05	445.63	145.85	127.79	43.591	2.3267e-05	53.893	-126.858	-86.923	-58.638	-114.366	6.661	-71.616	-114.209	-109.566	16.417	60.673	-110.305	-105.831	-105.313	-100.699	2.285	-101.406	-8191	255	
11059.258	1	1	0	0	0.059548	0.23062	0.24195	0.35972	0.10894	0.028321	0.37939	0.20957	0.13384	0.15477	0.067617	0.1615	0.18487	0.26005	0.12496	0.11036	-2.7667	-2.9146	-2.7104	-3.475	-2.9229	-2.9583	-3.3979	-3.0958	-2.9688	-3.0208	-2.9313	-3.2104	-3.0521	-3.1292	-3.2188	-2.9708	-105.221	66.399	-23.818	231.294	147.813	-95.381	173.688	199.789	208.269	191.272	132.628	-82.369	-107.661	216.554	115.632	80.202	0.00024319	0.00075411	0.00014037	1422.2	7.6202e-06	5.5686e-06	1403.6	384.12	4.7941e-06	5.8528e-06	431.3	140.26	123.02	41.947	2.045e-06	51.727	0.0016554	0.0021544	0.000607	1445.8	2.3008e-05	2.4467e-05	1431.1	393.57	2.2972e-05	2.4086e-05	446	145.9	128.09	43.608	2.3678e-05	53.906	-118.656	-51.426	-21.648	-114.250	1.138	19.757	-114.444	-109.606	27.754	12.660	-110.311	-105.642	-105.216	-100.738	31.761	-101.400	-8191	255	
11059.354	1	1	0	0	0.29308	0.083914	0.26325	0.36077	0.22033	0.12148	0.38135	0.21336	0.12318	0.12789	0.2211	0.23852	0.36469	0.073649	0.1338	0.44895	-2.5771	-3.0125	-2.8083	-3.1583	-2.8292	-2.9813	-3.3833	-2.9813	-3.1354	-3.2438	-2.7812	-3.2354	-3.1521	-2.9958	-3.1104	-3.1083	39.937	9.820	-64.057	197.086	173.684	87.850	158.625	136.135	38.861	177.250	194.431	217.976	207.120	-105.798	199.588	130.312	0.00030789	0.0004099	0.00018392	1427.1	3.152e-07	5.0707e-06	1402.5	384.33	4.0487e-06	6.1057e-07	436.6	140.15	122.32	42.176	5.0844e-06	51.714	0.0016929	0.0021989	0.00061557	1449.9	2.3144e-05	2.4381e-05	1434.4	393.27	2.3012e-05	2.4341e-05	447.02	145.82	127.68	43.705	2.3534e-05	53.902	223.592	-16.716	-36.030	-114.431	-26.864	-12.551	-114.060	-109.725	-54.429	-75.086	-110.122	-105.984	-105.603	-100.984	-41.961	-101.338	-8191	255	
11059.450	1	1	0	0	0.19319	0.04231	0.030252	0.24845	0.17089	0.058888	0.29067	0.36442	0.058004	0.11404	0.12688	0.2268	0.13052	0.071375	0.22876	0.19498	-2.6604	-2.9958	-2.9062	-3.4354	-3.1729	-2.9938	-3.3	-3.0208	-2.9938	-2.9354	-2.8812	-3.3958	-3.0604	-2.9854	-3.1375	-3.1042	161.438	-111.045	-29.077	150.456	-111.979	218.103	188.099	180.542	167.670	168.824	198.448	-108.412	146.808	162.235	-27.207	36.098	0.00028402	0.00053303	0.00033515	1423.8	8.5849e-06	4.5304e-06	1402.1	383.01	3.0649e-06	9.2788e-06	432.17	140.45	123.52	42.172	3.1853e-06	51.953	0.0016783	0.0021844	0.00061363	1449	2.3152e-05	2.4058e-05	1433.3	393.23	2.2858e-05	2.3791e-05	446.11	145.83	128.29	43.693	2.2962e-05	53.83	225.319	-31.320	-5.660	-114.348	23.820	-15.758	-114.070	-109.533	-14.116	0.930	-110.264	-105.811	-105.372	-100.780	35.083	-101.418	-8191	255	
11059.546	1	1	0	0	0.18996	0.053268	0.27929	0.21114	0.099088	0.10264	0.37356	0.14944	0.11961	0.20055	0.27922	0.19089	0.082894	0.15126	0.19613	0.0797	-2.5125	-3.1167	-2.95	-3.1896	-3.0042	-2.7062	-3.4938	-3.2979	-2.9188	-3.1833	-2.9146	-3.1021	-3.0438	-2.8438	-3.0812	-3.0354	212.549	135.137	103.720	147.848	20.541	75.733	218.254	121.653	227.818	28.906	-105.927	135.035	219.440	-126.346	157.521	-6.191	0.0002759	0.00047469	0.00018532	1428.5	4.753e-06	2.1586e-06	1407.3	383.81	7.6887e-07	8.2035e-06	436.18	140.59	122.36	42.141	6.165e-06	51.991	0.0016841	0.0021668	0.00060129	1449.6	2.3088e-05	2.4162e-05	1433.5	393.32	2.2856e-05	2.384e-05	447.35	145.72	127.92	43.647	2.2966e-05	53.942	230.125	-23.750	-15.293	-114.284	36.286	189.883	-114.069	-109.774	-7.296	9.176	-109.787	-105.809	-105.359	-100.893	66.663	-101.557	-8191	255	
11059.667	1	1	0	0	0.21571	0.024438	0.10823	0.16613	0.19822	0.33628	0.25023	0.21501	0.026154	0.18473	0.18992	0.15255	0.11124	0.23775	0.089005	0.066238	-2.5479	-3.1917	-2.7313	-3.2167	-3.1771	-2.8917	-3.4125	-3.0396	-2.8479	-3.2021	-2.9021	-3.2271	-3.0875	-2.7812	-3	-3.0542	192.866	-71.468	43.490	-108.556	100.593	14.024	148.762	117.606	176.916	157.393	142.969	169.414	-111.729	135.811	71.034	226.329	0.00031101	0.00027696	0.00017692	1423.9	1.8252e-06	1.1432e-05	1404.8	384.52	7.6207e-06	1.0528e-05	433.45	140.22	123.03	41.945	6.0654e-06	51.687	0.0016627	0.0021296	0.0005828	1448.6	2.284e-05	2.354e-05	1432.3	393.28	2.2383e-05	2.3418e-05	445.69	145.85	127.94	43.711	2.2958e-05	53.819	228.872	-59.803	-2.645	-114.226	114.173	6.179	-114.270	-109.675	3.249	13.352	-109.949	-105.942	-105.489	-100.801	53.949	-101.207	-8191	255	
11059.763	1	1	0	0	0.29155	0.035096	0.14713	0.09755	0.15026	0.24104	0.20911	0.21255	0.10326	0.088407	0.2671	0.10075	0.23669	0.30753	0.15431	0.18511	-2.525	-3	-2.8021	-3.1875	-3.0042	-2.5958	-3.3812	-3.0792	-2.8812	-3.1854	-2.8708	-3.0271	-3.1771	-2.9437	-3.2229	-3.2104	50.447	-25.432	-52.915	116.481	218.003	176.625	129.813	198.832	-108.597	-121.347	225.608	179.269	-127.458	188.291	-41.999	199.056	0.0002229	0.00032724	0.00012717	1421.2	2.7981e-06	5.3046e-06	1406.3	384.45	7.0711e-06	1.9288e-06	435.98	140.74	123.24	42.062	3.6382e-06	52.138	0.0016591	0.0020965	0.00058774	1448.3	2.2818e-05	2.3763e-05	1435	393.13	2.3011e-05	2.3886e-05	447.45	146.09	128.24	43.619	2.308e-05	53.868	222.838	-23.654	6.631	-114.156	18.630	85.102	-114.274	-109.582	14.462	209.970	-109.904	-105.839	-105.621	-100.797	65.169	-101.222	-8191	255	
11059.835	1	1	0	0	0.12868	0.074505	0.14765	0.21181	0.17304	0.14021	0.07992	0.30913	0.19061	0.087493	0.39993	0.11549	0.10746	0.13544	0.044351	0.50245	-2.2646	-3.1167	-3.025	-2.9958	-3.2271	-2.6896	-3.2625	-3.1208	-2.7438	-3.1979	-2.9813	-2.8042	-3.1208	-2.9833	-3.0625	-3.2375	227.888	17.330	10.100	203.108	-12.654	-0.589	175.958	175.471	61.047	228.061	179.690	228.132	3.053	50.307	45.753	180.800	0.00025724	0.00075663	0.00022133	1422.5	1.981e-06	6.4979e-06	1406	384.31	3.5565e-06	1.4944e-05	435.26	139.77	123.32	42.192	2.4969e-06	51.692	0.0016559	0.0021059	0.00058958	1446.3	2.274e-05	2.3496e-05	1433.3	393.44	2.2974e-05	2.3544e-05	446.99	145.82	127.99	43.757	2.305e-05	53.805	-125.593	7.596	-12.141	-114.377	89.681	14.132	-114.268	-109.869	-17.820	0.814	-110.212	-105.803	-105.459	-100.909	94.532	-101.553	-8191	255	
11059.931	1	1	0	0	0.066187	0.29055	0.12791	0.24217	0.22643	0.06243	0.28217	0.25029	0.13156	0.040763	0.28152	0.17427	0.4098	0.30031	0.107	0.19432	-2.3729	-3.2646	-2.8958	-3.1854	-3.1021	-2.9896	-3.3396	-3.1021	-2.8229	-3.2229	-3.0208	-3.0646	-3.2042	-2.9667	-2.7979	-3.1063	184.732	154.043	160.615	166.131	21.695	191.001	128.607	174.614	-77.392	-6.182	226.330	90.243	204.878	30.598	137.304	231.306	0.00030355	0.00023966	7.6803e-05	1423.6	3.694e-06	7.5415e-06	1402.9	382.88	5.4902e-07	1.0302e-05	434.82	140.31	123.15	42.021	4.9836e-06	51.982	0.0016716	0.0021313	0.0006066	1448.8	2.3109e-05	2.3758e-05	1431.9	392.58	2.3086e-05	2.3782e-05	446.94	145.82	128.05	43.642	2.3074e-05	53.945	-127.236	-1.789	-113.368	-114.181	190.541	44.122	-114.184	-109.618	3.466	7.788	-110.159	-105.823	-105.417	-101.113	21.621	-101.348	-8191	255	
#DATA ENDS
