BOXY.EXE: ISS Imagent and Oximeter Data Acquisition Program Version 0.80
Ascii Record File

#ACQ INFORMATION
2  Detector Channels 
16  External MUX Channels 
1  Auxiliary Channels 
5000  Waveform (CCF) Frequency (Hz)
1  Waveforms Skipped 
30  Waveforms Averaged 
1  Cycles Averaged 
16  Acquisitions per Waveform 
10.0806  Updata Rate (Hz) 

#FILE INFORMATION
TRUE -- External MUX Channel results are PARSED.
FALSE -- AC DC and Phase are NOT grouped.
TRUE -- Companion Program Settings File CREATED.
FALSE -- AC data not excluded
FALSE -- DC data not excluded
FALSE -- Phase data not excluded
FALSE -- Auxillary Chn. data not excluded
Tab delimiters

#CALIBRATION STATE
TRUE -- Waveform Calibration Values APPLIED.


#AUX CALIBRATION VALUES
Val Type	aux-1	

Term	1.0000e+00	
Factor	0.0000e+00	


#WF CALIBRATION VALUES
A = Detector Channel
Val Type	A-AC1	A-AC2	A-AC3	A-AC4	A-AC5	A-AC6	A-AC7	A-AC8	A-AC9	A-AC10	A-AC11	A-AC12	A-AC13	A-AC14	A-AC15	A-AC16	A-DC1	A-DC2	A-DC3	A-DC4	A-DC5	A-DC6	A-DC7	A-DC8	A-DC9	A-DC10	A-DC11	A-DC12	A-DC13	A-DC14	A-DC15	A-DC16	A-Ph1	A-Ph2	A-Ph3	A-Ph4	A-Ph5	A-Ph6	A-Ph7	A-Ph8	A-Ph9	A-Ph10	A-Ph11	A-Ph12	A-Ph13	A-Ph14	A-Ph15	A-Ph16	

Term	0.00000e+00	0.00000e+00	0.00000e+00	0.00000e+00	0.00000e+00	0.00000e+00	0.00000e+00	0.00000e+00	0.00000e+00	0.00000e+00	0.00000e+00	0.00000e+00	0.00000e+00	0.00000e+00	0.00000e+00	0.00000e+00	0.00000e+00	0.00000e+00	0.00000e+00	0.00000e+00	0.00000e+00	0.00000e+00	0.00000e+00	0.00000e+00	0.00000e+00	0.00000e+00	0.00000e+00	0.00000e+00	0.00000e+00	0.00000e+00	0.00000e+00	0.00000e+00	0.00000e+00	0.00000e+00	0.00000e+00	0.00000e+00	0.00000e+00	0.00000e+00	0.00000e+00	0.00000e+00	0.00000e+00	0.00000e+00	0.00000e+00	0.00000e+00	0.00000e+00	0.00000e+00	0.00000e+00	0.00000e+00	
Factor	1.00000e+00	1.00000e+00	1.00000e+00	1.00000e+00	1.00000e+00	1.00000e+00	1.00000e+00	1.00000e+00	1.00000e+00	1.00000e+00	1.00000e+00	1.00000e+00	1.00000e+00	1.00000e+00	1.00000e+00	1.00000e+00	1.00000e+00	1.00000e+00	1.00000e+00	1.00000e+00	1.00000e+00	1.00000e+00	1.00000e+00	1.00000e+00	1.00000e+00	1.00000e+00	1.00000e+00	1.00000e+00	1.00000e+00	1.00000e+00	1.00000e+00	1.00000e+00	X	X	X	X	X	X	X	X	X	X	X	X	X	X	X	X	

B = Detector Channel
Val Type	B-AC1	B-AC2	B-AC3	B-AC4	B-AC5	B-AC6	B-AC7	B-AC8	B-AC9	B-AC10	B-AC11	B-AC12	B-AC13	B-AC14	B-AC15	B-AC16	B-DC1	B-DC2	B-DC3	B-DC4	B-DC5	B-DC6	B-DC7	B-DC8	B-DC9	B-DC10	B-DC11	B-DC12	B-DC13	B-DC14	B-DC15	B-DC16	B-Ph1	B-Ph2	B-Ph3	B-Ph4	B-Ph5	B-Ph6	B-Ph7	B-Ph8	B-Ph9	B-Ph10	B-Ph11	B-Ph12	B-Ph13	B-Ph14	B-Ph15	B-Ph16	

Term	0.00000e+00	0.00000e+00	0.00000e+00	0.00000e+00	0.00000e+00	0.00000e+00	0.00000e+00	0.00000e+00	0.00000e+00	0.00000e+00	0.00000e+00	0.00000e+00	0.00000e+00	0.00000e+00	0.00000e+00	0.00000e+00	0.00000e+00	0.00000e+00	0.00000e+00	0.00000e+00	0.00000e+00	0.00000e+00	0.00000e+00	0.00000e+00	0.00000e+00	0.00000e+00	0.00000e+00	0.00000e+00	0.00000e+00	0.00000e+00	0.00000e+00	0.00000e+00	-1.56410e+02	-1.27925e+02	-1.23922e+02	-1.82673e+02	-7.57512e+01	-6.11924e+01	-1.55323e+02	-1.62015e+02	-8.33286e+01	-6.57451e+01	-1.72119e+02	-1.69838e+02	-1.79785e+02	-1.77170e+02	-7.38895e+01	-1.49034e+02	
Factor	2.27176e-05	1.55070e-04	4.33590e-05	1.76889e-01	1.36821e-06	1.78199e-06	1.63072e-01	4.85717e-02	1.34987e-06	1.70672e-06	9.20508e-02	2.79817e-02	2.79836e-02	8.82360e-03	1.44751e-06	1.26394e-02	1.41485e-05	2.59860e-05	7.31483e-06	8.80964e-02	2.56862e-07	2.96358e-07	7.67068e-02	2.43435e-02	2.54028e-07	2.93281e-07	4.48789e-02	1.37183e-02	1.41984e-02	4.46541e-03	2.69071e-07	6.22161e-03	X	X	X	X	X	X	X	X	X	X	X	X	X	X	X	X	



#DISTANCE SETTINGS
A = Detector Channel
A-1	A-2	A-3	A-4	A-5	A-6	A-7	A-8	A-9	A-10	A-11	A-12	A-13	A-14	A-15	A-16	

2.5000e+00	3.0000e+00	2.5000e+00	3.0000e+00	2.0000e+00	3.0000e+00	1.5000e+00	3.0000e+00	3.0000e+00	3.0000e+00	3.0000e+00	3.0000e+00	3.0000e+00	3.0000e+00	1.5000e+00	3.0000e+00	

B = Detector Channel
B-1	B-2	B-3	B-4	B-5	B-6	B-7	B-8	B-9	B-10	B-11	B-12	B-13	B-14	B-15	B-16	

1.0000e+01	1.0000e+01	1.0000e+01	1.4400e+00	1.0000e+01	1.0000e+01	1.5100e+00	1.9400e+00	1.0000e+01	1.0000e+01	1.9900e+00	2.4900e+00	2.4100e+00	2.9000e+00	1.0000e+01	2.9800e+00	




#DATA BEGINS
time	group	step	mark	flag	A-AC1	A-AC2	A-AC3	A-AC4	A-AC5	A-AC6	A-AC7	A-AC8	A-AC9	A-AC10	A-AC11	A-AC12	A-AC13	A-AC14	A-AC15	A-AC16	A-DC1	A-DC2	A-DC3	A-DC4	A-DC5	A-DC6	A-DC7	A-DC8	A-DC9	A-DC10	A-DC11	A-DC12	A-DC13	A-DC14	A-DC15	A-DC16	A-Ph1	A-Ph2	A-Ph3	A-Ph4	A-Ph5	A-Ph6	A-Ph7	A-Ph8	A-Ph9	A-Ph10	A-Ph11	A-Ph12	A-Ph13	A-Ph14	A-Ph15	A-Ph16	B-AC1	B-AC2	B-AC3	B-AC4	B-AC5	B-AC6	B-AC7	B-AC8	B-AC9	B-AC10	B-AC11	B-AC12	B-AC13	B-AC14	B-AC15	B-AC16	B-DC1	B-DC2	B-DC3	B-DC4	B-DC5	B-DC6	B-DC7	B-DC8	B-DC9	B-DC10	B-DC11	B-DC12	B-DC13	B-DC14	B-DC15	B-DC16	B-Ph1	B-Ph2	B-Ph3	B-Ph4	B-Ph5	B-Ph6	B-Ph7	B-Ph8	B-Ph9	B-Ph10	B-Ph11	B-Ph12	B-Ph13	B-Ph14	B-Ph15	B-Ph16	aux-1	digaux	

25495.633	1	1	0	256	0.14245	0.043291	0.078259	0.45244	0.058249	0.11757	0.071223	0.28286	0.12059	0.15248	0.19878	0.16988	0.12644	0.2895	0.21001	0.04437	-2.6688	-3.0687	-3.1562	-3.2271	-3.2542	-3.2729	-3.1792	-3.5854	-3.1437	-3.1792	-3.4625	-3.25	-3.3167	-3.3438	-3.0667	-3.5812	0.523	261.185	262.323	263.802	143.307	33.602	188.426	186.161	256.703	191.794	-23.323	-54.642	-33.012	21.834	101.362	-39.938	0.00018597	0.00039157	0.00011365	1297.1	3.0363e-06	4.1824e-06	1302.6	351.21	2.3258e-06	3.759e-06	402.01	134.72	116.95	40.165	3.0452e-06	50.089	0.00031616	0.00027681	7.6669e-05	1310.9	3.1048e-06	3.0556e-06	1315.1	355.38	3.3272e-06	3.0587e-06	407	137.86	119.67	41.056	3.3466e-06	51.114	130.275	27.339	34.560	-48.183	93.695	104.482	-48.191	-43.671	85.049	73.959	-44.072	-39.896	-39.192	-34.523	86.656	-35.102	-8191	255	
25495.754	1	1	0	0	0.10761	0.1471	0.16557	0.27031	0.23604	0.13637	0.24227	0.20558	0.13018	0.083539	0.19582	0.096738	0.11538	0.29855	0.15868	0.14807	-2.6458	-2.9229	-3.2812	-2.9938	-3.1229	-3.4042	-3.2167	-3.3583	-3.2604	-2.975	-3.3354	-3.1042	-3.3896	-3.3542	-2.9354	-3.2729	42.443	36.851	137.759	203.805	76.619	291.805	190.525	191.811	99.482	279.683	269.229	232.010	81.669	-9.488	178.035	266.044	0.00017596	0.00043131	0.0001316	1302.5	2.0853e-06	4.3358e-06	1301.2	350.69	1.5602e-06	4.7018e-06	402.3	135.34	117.31	40.328	3.0873e-06	49.947	0.00031074	0.00029202	7.6288e-05	1313.2	3.0663e-06	3.0019e-06	1314.4	355.37	3.3082e-06	2.9982e-06	406.81	138.03	119.79	41.197	3.235e-06	51.061	132.695	37.485	29.034	-48.107	104.896	107.776	-48.212	-43.437	68.704	101.023	-43.767	-39.891	-39.071	-34.510	97.311	-35.197	-8191	255	
25495.850	1	1	0	0	0.13102	0.13881	0.11196	0.1931	0.096271	0.14825	0.21564	0.2249	0.13891	0.01938	0.091248	0.16256	0.12394	0.22548	0.072112	0.050684	-2.7875	-2.8563	-3.4688	-3.2188	-3.1271	-3.3271	-3.2521	-3.2396	-3.1417	-3.2042	-3.3312	-3.1896	-3.2313	-3.3875	-3.0958	-3.2833	103.543	165.959	177.300	241.858	136.016	249.113	264.356	232.480	-53.468	-53.376	84.444	240.275	93.245	173.605	253.859	242.002	0.00018793	0.00044954	0.00013032	1300.9	3.0823e-06	4.4462e-06	1305.3	351.39	1.8862e-06	4.32e-06	401.89	135	117.2	40.419	3.2203e-06	49.965	0.00031601	0.0002761	7.3743e-05	1309.6	3.2359e-06	2.9265e-06	1316.6	355.66	3.2653e-06	3.0605e-06	407.27	138.15	119.8	41.144	3.0444e-06	51.156	131.089	24.806	37.527	-48.134	102.702	82.510	-48.248	-43.553	94.699	81.501	-44.141	-39.606	-39.330	-34.505	71.953	-35.417	-8191	255	
25495.945	1	1	0	0	0.15392	0.35176	0.07835	0.39575	0.19579	0.18772	0.097199	0.13315	0.17448	0.22775	0.072111	0.036635	0.086614	0.16016	0.2034	0.094494	-2.9917	-2.8479	-3.2979	-3.3646	-3.1188	-3.4375	-3.2167	-3.3479	-3.2021	-2.9792	-3.2708	-3.1958	-3.1083	-3.4521	-3.0021	-3.25	17.818	198.498	149.323	262.914	87.575	61.922	-46.828	245.412	190.708	-17.086	-32.730	40.679	136.671	217.794	239.489	52.955	0.00016761	0.00051182	0.00014225	1302	3.052e-06	4.8216e-06	1302.8	351.23	1.1169e-06	4.6257e-06	403.49	135.53	117.38	40.245	3.3046e-06	49.934	0.00031445	0.00028498	7.548e-05	1311.3	3.2696e-06	2.8907e-06	1315.9	355.58	3.2981e-06	2.8674e-06	407.63	138.36	119.98	41.157	2.9732e-06	51.19	133.465	23.066	19.481	-48.012	107.731	105.769	-48.298	-43.506	78.721	97.920	-43.933	-39.920	-39.332	-34.557	102.519	-35.237	-8191	255	
25496.018	1	1	0	0	0.098936	0.31983	0.24988	0.18476	0.30641	0.10347	0.22574	0.16128	0.21247	0.11455	0.080168	0.13297	0.28992	0.30251	0.051918	0.17428	-2.7812	-2.9271	-3.2833	-3.3208	-2.9979	-3.2979	-3.0958	-3.3833	-3.4375	-3.0583	-3.3417	-3.2458	-3.1437	-3.6042	-3.0833	-3.2542	211.742	282.235	61.004	89.844	111.721	266.647	294.330	295.474	32.409	195.435	157.211	-42.671	234.254	260.387	-4.230	-47.752	0.00018645	0.00044739	0.00015397	1303.7	2.6465e-06	4.5218e-06	1303.1	351.51	2.1056e-06	3.4076e-06	403.85	135.2	117.76	40.259	3.9643e-06	50.191	0.00032023	0.00027464	7.0405e-05	1313.1	3.3777e-06	2.8197e-06	1318.5	356.05	3.223e-06	2.8833e-06	408.24	138.21	120.04	41.198	2.98e-06	51.194	125.922	22.147	26.829	-48.019	91.293	109.062	-48.301	-43.494	91.114	86.357	-44.085	-39.646	-38.883	-34.351	85.211	-35.227	-8191	255	
25496.139	1	1	0	0	0.032224	0.41295	0.30157	0.24372	0.19596	0.24954	0.28487	0.2338	0.23794	0.18606	0.21718	0.39902	0.22648	0.20522	0.30609	0.076485	-3.0208	-2.9333	-3.3937	-3.4271	-3.05	-3.3292	-3.2062	-3.3312	-3.4729	-3.0771	-3.3625	-3.1979	-3.0104	-3.3417	-3.1667	-3.1396	231.343	94.977	10.379	229.960	148.855	218.435	275.205	-18.694	210.247	-57.143	193.819	214.823	-32.668	0.546	88.965	156.875	0.00016804	0.00046173	0.0001465	1302.5	3.2019e-06	4.8001e-06	1301.9	350.95	2.3461e-06	4.0131e-06	402.57	134.99	117.11	40.233	3.6616e-06	50.017	0.00031613	0.00027177	7.2203e-05	1312.9	3.4553e-06	2.8024e-06	1316.3	355.77	3.2447e-06	2.8002e-06	407.32	138.05	119.54	41.097	2.8729e-06	51.058	132.004	38.121	34.506	-48.113	92.607	97.648	-48.179	-43.434	89.850	102.497	-44.147	-39.719	-39.205	-34.454	81.096	-35.069	-8191	255	
25496.234	1	1	0	0	0.23598	0.23194	0.12923	0.084284	0.28022	0.077967	0.28746	0.13644	0.074801	0.099181	0.26723	0.12689	0.1573	0.34297	0.22224	0.38578	-2.7812	-2.9146	-3.2354	-3.1708	-2.875	-3.3792	-3.2771	-3.3458	-3.4667	-2.8833	-3.3229	-3.4479	-3.0958	-3.3333	-3.1667	-3.0896	188.419	215.733	-49.439	285.890	258.608	71.700	178.040	272.114	123.099	112.546	146.869	293.216	-52.327	256.820	127.984	157.530	0.00018052	0.00043452	0.0001444	1302	3.0753e-06	5.2091e-06	1309.3	351.67	1.5972e-06	5.5985e-06	402.46	134.64	117.2	40.368	2.869e-06	49.836	0.00032453	0.00027464	7.3986e-05	1313.4	3.5179e-06	2.9234e-06	1318.8	355.79	3.2463e-06	2.9713e-06	407.64	137.82	119.65	41.036	3.0601e-06	51.071	134.664	20.271	29.146	-48.079	83.130	96.688	-48.118	-43.473	79.085	81.889	-43.927	-39.830	-38.919	-34.645	97.343	-35.249	-8191	255	
25496.330	1	1	0	0	0.19257	0.20947	0.29297	0.19278	0.11253	0.15539	0.20561	0.01285	0.051614	0.1677	0.24958	0.21185	0.1688	0.26791	0.37409	0.069091	-3.05	-3.1125	-3.225	-3.4625	-2.9854	-3.2833	-3.3021	-3.1333	-3.2646	-3.1604	-3.2021	-3.1688	-3.0479	-3.4604	-3.1417	-3.1771	123.303	53.802	214.833	285.803	27.101	69.998	216.906	289.210	234.727	221.636	265.921	195.032	264.171	273.825	135.212	255.706	0.00018696	0.00056772	0.00016108	1305.3	3.299e-06	5.527e-06	1305.2	349.41	1.5527e-06	3.7112e-06	402.04	134.03	116.53	39.996	3.9349e-06	49.87	0.00032256	0.00026235	7.7446e-05	1312.5	3.291e-06	2.7376e-06	1317.8	354.36	3.3267e-06	2.6731e-06	406.28	137.06	119.07	40.819	3.364e-06	50.893	127.283	37.375	38.542	-48.136	99.179	102.914	-48.220	-43.459	67.677	94.672	-43.685	-39.926	-39.259	-34.592	91.682	-35.246	-8191	255	
25496.428	1	1	0	0	0.44922	0.29535	0.023302	0.16926	0.12227	0.19964	0.37295	0.28825	0.17431	0.17471	0.23102	0.12916	0.10948	0.066648	0.10927	0.29255	-2.9938	-3.0125	-3.2458	-3.5438	-3.0812	-3.1292	-3.4458	-3.2333	-3.4146	-3.1833	-3.1979	-3.6375	-2.9708	-3.3396	-3.2562	-3.1562	170.024	248.542	177.196	193.429	140.477	113.740	230.465	295.834	29.899	136.534	231.970	173.606	66.183	155.060	170.946	164.288	0.00020347	0.00039219	0.00015087	1305.6	3.2972e-06	4.3965e-06	1303.2	349.32	2.566e-06	4.8695e-06	401.45	134.05	116.97	39.915	3.2449e-06	49.64	0.00031875	0.00027356	8.2947e-05	1312.1	3.2605e-06	2.9012e-06	1317	353.92	3.3643e-06	2.774e-06	406.11	137.19	119.05	40.818	3.4021e-06	50.776	133.387	41.306	29.654	-48.367	107.498	104.627	-48.332	-43.475	78.821	85.080	-43.928	-39.899	-39.238	-34.462	86.591	-35.114	-8191	255	
25496.547	1	1	0	0	0.10214	0.22872	0.1984	0.13792	0.19518	0.087448	0.053932	0.24277	0.17137	0.24299	0.094201	0.02812	0.0904	0.21899	0.30836	0.085101	-2.8438	-3.0292	-3.2438	-3.5333	-3.0062	-3.2687	-3.6208	-3.0896	-3.3063	-3.0896	-3.2229	-3.6146	-3.2687	-3.25	-3.3333	-3.0667	87.571	221.512	-4.068	-40.262	52.171	-19.822	240.618	223.755	148.867	-11.752	69.420	287.345	185.845	98.718	84.017	256.302	0.00018765	0.00043793	0.00015782	1301	4.2148e-06	5.1093e-06	1305.4	348.35	2.6849e-06	6.0827e-06	399.91	134.27	116.26	39.886	3.6311e-06	49.888	0.00031419	0.00027177	8.4471e-05	1312.9	3.2787e-06	3.0185e-06	1318.9	353.41	3.3997e-06	3.0177e-06	406.06	137.21	119	40.811	3.2283e-06	50.937	133.264	25.239	33.357	-48.112	93.475	94.959	-48.141	-43.461	94.338	83.364	-44.137	-39.944	-39.239	-34.360	104.664	-35.308	-8191	255	
25496.619	1	1	0	0	0.23516	0.13999	0.32049	0.26283	0.23163	0.12845	0.40928	0.15062	0.21521	0.089135	0.18122	0.12525	0.16711	0.24665	0.11163	0.061062	-2.8312	-3.0833	-2.9813	-3.5667	-2.9417	-3.0854	-3.4479	-3.1833	-3.2979	-3.2208	-3.0812	-3.4146	-3.2604	-3.2375	-3.3417	-3.075	216.166	189.222	-43.356	262.484	111.897	203.289	208.566	129.880	31.098	108.866	291.506	205.401	294.946	18.436	76.701	108.815	0.00020548	0.00050556	0.00014497	1307.1	3.4142e-06	5.5408e-06	1308.2	347.89	3.2643e-06	4.6722e-06	401.01	134.66	116.77	40.028	2.5653e-06	49.832	0.00030357	0.00028444	8.4654e-05	1317	3.1936e-06	3.013e-06	1318.8	353.75	3.286e-06	3.1088e-06	406.02	137.27	119.1	40.86	3.2855e-06	50.892	131.853	32.175	24.521	-47.980	93.553	95.970	-48.308	-43.485	97.610	94.389	-44.023	-39.878	-39.012	-34.413	91.519	-35.093	-8191	255	
25496.738	1	1	0	0	0.21696	0.23712	0.35593	0.45388	0.16861	0.053395	0.25624	0.13962	0.12279	0.17272	0.073181	0.22523	0.12537	0.16025	0.19052	0.087293	-2.7458	-3.1437	-2.8708	-3.6063	-3.2208	-3.175	-3.4854	-3.0708	-3.0646	-3.1896	-3.1354	-3.3625	-3.3021	-3.2979	-3.3104	-3.2333	245.788	25.557	61.328	286.419	113.516	179.028	282.989	185.914	94.260	154.533	197.490	281.399	-44.303	167.934	134.182	1.227	0.00019562	0.00061296	0.00010456	1309.6	1.635e-06	5.6086e-06	1309.5	350.42	2.5179e-06	4.495e-06	402.25	134.24	117.13	39.818	3.2395e-06	49.786	0.00032397	0.00028541	8.0311e-05	1318.5	3.3504e-06	3.3297e-06	1323.2	354.83	3.2553e-06	2.9719e-06	406.87	137.34	119.43	40.904	3.3864e-06	50.861	130.969	37.403	28.734	-48.018	88.487	97.487	-48.063	-43.465	78.243	92.880	-43.924	-39.956	-39.120	-34.572	98.606	-35.162	-8191	255	
25496.834	1	1	0	0	0.21026	0.11695	0.28199	0.19971	0.38504	0.15246	0.32353	0.060134	0.13703	0.13086	0.12457	0.14974	0.24344	0.28152	0.075487	0.024895	-2.9104	-3.2271	-3.0479	-3.4229	-3.1625	-2.9021	-3.4708	-3.2875	-3.0375	-3.3208	-3.1875	-3.35	-3.075	-3.2354	-3.5604	-3.1083	108.312	-8.637	27.099	267.652	139.032	155.365	294.044	-44.989	166.925	195.372	-58.549	7.868	228.154	280.214	234.486	-4.872	0.00019625	0.00047189	0.0001499	1307.6	2.9132e-06	5.9006e-06	1309.4	350.7	2.3932e-06	4.548e-06	402.34	134.27	116.59	39.992	2.5732e-06	49.915	0.00032692	0.00029175	8.441e-05	1319.6	3.2086e-06	3.2044e-06	1320.7	355.03	3.4733e-06	3.0911e-06	406.13	137.13	119.08	40.879	3.161e-06	50.834	128.812	24.399	23.934	-47.884	94.119	99.634	-48.187	-43.607	97.164	92.583	-44.136	-39.761	-39.164	-34.595	78.624	-35.192	-8191	255	
25496.930	1	1	0	0	0.16269	0.15887	0.13074	0.20452	0.29953	0.12302	0.093636	0.14647	0.12356	0.12918	0.15385	0.36973	0.085445	0.29784	0.26106	0.07159	-2.8479	-3.3042	-2.9688	-3.4854	-3.2417	-2.9729	-3.5563	-3.1417	-3.3729	-3.4896	-3.1708	-3.3292	-3.2542	-3.0958	-3.4083	-3.1729	222.363	189.161	35.603	268.375	240.163	209.871	229.854	185.717	12.432	101.103	267.717	-5.986	251.938	211.431	144.126	-61.341	0.00019416	0.00042686	0.00015497	1304.4	2.4633e-06	4.0786e-06	1306.3	349.3	2.9489e-06	4.1061e-06	400.51	134.61	116.79	40.1	3.4996e-06	49.68	0.000324	0.00029424	8.2002e-05	1316.6	3.3713e-06	3.1346e-06	1322.1	354.29	3.5093e-06	3.0611e-06	405.85	137.41	119.07	40.87	3.091e-06	50.857	135.321	26.864	28.458	-48.261	82.428	115.956	-48.203	-43.523	77.436	84.387	-44.051	-39.949	-39.252	-34.528	76.673	-35.287	-8191	255	
25497.027	1	1	0	0	0.10177	0.25069	0.38896	0.18149	0.12057	0.057256	0.16352	0.12316	0.22207	0.094067	0.28261	0.022225	0.14242	0.088522	0.019467	0.17693	-2.6354	-3.2875	-3.0729	-3.4562	-3.2875	-2.9792	-3.5917	-3.1979	-3.2083	-3.3438	-3.2333	-3.4042	-3.4542	-3.0938	-3.3708	-3.2958	46.835	22.744	142.604	-45.377	-58.585	100.838	281.855	170.329	-49.535	-49.704	58.287	139.502	-27.277	165.981	100.733	260.182	0.0001843	0.00050864	0.00012188	1314.4	3.1469e-06	4.8058e-06	1311	348.77	2.8003e-06	4.5551e-06	402.02	134.06	117.34	39.929	2.2031e-06	49.793	0.00033665	0.00027702	7.6623e-05	1319.1	3.4002e-06	3.2711e-06	1323	354.21	3.4839e-06	3.1143e-06	406.82	137.11	119.38	40.927	2.9138e-06	50.861	126.133	26.566	22.780	-48.139	77.427	98.629	-48.205	-43.466	80.331	110.392	-44.122	-39.729	-39.303	-34.680	94.485	-35.119	-8191	255	
25497.146	1	1	0	0	0.099131	0.13643	0.075585	0.10787	0.12267	0.16659	0.049369	0.21364	0.24387	0.099034	0.22396	0.3233	0.37307	0.014515	0.14627	0.14333	-2.8563	-3.3667	-3.025	-3.2667	-3.0917	-2.8375	-3.4125	-3.2	-3	-3.3167	-3.225	-3.2479	-3.2583	-3.2938	-3.1688	-3.3479	64.538	88.764	-52.522	-4.240	-31.218	187.293	260.357	266.857	18.191	150.796	-60.446	221.087	-12.818	-39.332	241.395	262.182	0.00019278	0.00044346	0.00016926	1306.8	3.0466e-06	5.1663e-06	1310.3	348.9	1.4401e-06	5.7188e-06	400.69	134.93	116.03	40.051	3.6226e-06	49.732	0.0003299	0.00027913	7.5876e-05	1319	3.3879e-06	3.15e-06	1322.1	354.17	3.5892e-06	2.9078e-06	405.8	137.31	118.99	40.866	3.0781e-06	50.748	131.318	19.199	32.198	-48.003	100.002	96.712	-48.295	-43.246	124.835	92.077	-43.958	-39.777	-39.198	-34.560	92.098	-35.301	-8191	255	
25497.219	1	1	0	0	0.093606	0.13117	0.11397	0.010689	0.069244	0.15696	0.31726	0.25187	0.10829	0.049232	0.23202	0.39774	0.20063	0.15415	0.30697	0.03656	-2.4958	-3.3688	-3.0938	-3.4188	-3.4771	-3.1542	-3.4688	-3.3792	-3.0042	-3.35	-3.1937	-3.2021	-3.5771	-3.0979	-3.4437	-3.325	144.526	7.921	73.232	181.811	160.599	130.353	241.289	249.559	287.078	210.194	-56.492	282.764	240.806	193.025	39.749	247.852	0.00019974	0.00054109	0.00013449	1304	2.318e-06	4.3114e-06	1304.5	349.54	1.7367e-06	3.7881e-06	402.27	134.1	116.65	39.919	3.4365e-06	49.771	0.00032898	0.00026782	7.2295e-05	1316.1	3.3183e-06	2.9574e-06	1320.6	354.16	3.5305e-06	2.8656e-06	406.39	137.1	118.83	40.833	3.1683e-06	50.823	132.172	27.394	34.034	-48.253	86.535	104.955	-48.270	-43.523	89.214	90.006	-43.942	-39.773	-39.420	-34.363	91.829	-35.305	-8191	255	
25497.314	1	1	0	0	0.1665	0.23462	0.068313	0.18035	0.19267	0.20017	0.21192	0.098539	0.36185	0.16546	0.15598	0.32757	0.062394	0.20743	0.14429	0.16304	-2.6729	-3.3354	-3.0729	-3.1917	-3.2646	-3.0271	-3.55	-3.2458	-2.8458	-3.2708	-3.2062	-3.1583	-3.35	-3.1813	-3.3354	-3.3937	258.893	255.000	150.666	265.110	51.914	-0.036	246.526	247.570	83.305	152.273	236.834	181.492	251.745	-6.347	23.002	122.195	0.0002009	0.00048362	0.00015367	1305.4	3.1048e-06	4.3773e-06	1309.3	349.82	1.5084e-06	5.7826e-06	401.15	134.39	116.57	40.074	3.8586e-06	49.618	0.00032698	0.00026235	7.7552e-05	1316.1	3.2359e-06	3e-06	1320.3	354.9	3.5268e-06	2.8601e-06	406.87	137.31	118.95	40.884	3.286e-06	50.888	130.095	29.751	35.295	-48.052	77.598	93.979	-48.115	-43.329	69.376	86.070	-43.913	-39.917	-39.167	-34.543	84.211	-35.215	-8191	255	
25497.410	1	1	0	0	0.20584	0.062191	0.18223	0.17751	0.2165	0.23123	0.13044	0.24983	0.12599	0.31911	0.076327	0.12062	0.17478	0.20106	0.062932	0.073309	-2.5271	-3.1417	-3.0875	-3.2146	-3.4083	-2.9021	-3.2938	-3.4062	-2.8271	-3.1833	-3.2812	-3.1083	-3.2687	-3.0771	-2.9458	-3.2958	106.333	102.171	-48.760	242.125	27.889	227.763	-53.808	148.261	71.218	268.485	5.891	240.485	204.019	220.570	191.953	103.365	0.00018572	0.00056026	0.0001416	1305.8	4.3118e-06	4.5979e-06	1304.7	349.07	2.5758e-06	4.8342e-06	402.16	134.75	116.5	40.181	2.7238e-06	50.014	0.00031728	0.00026896	7.6806e-05	1319.2	3.3467e-06	2.9352e-06	1323.2	354.67	3.4167e-06	2.7287e-06	407.24	137.62	119.14	40.944	3.2137e-06	50.91	133.446	22.413	26.020	-48.205	73.209	93.122	-48.083	-43.688	88.732	87.917	-43.932	-39.689	-39.283	-34.600	82.653	-35.079	-8191	255	
25497.529	1	1	0	0	0.069869	0.06805	0.081125	0.13884	0.07608	0.15734	0.24757	0.29172	0.047735	0.4381	0.18839	0.27559	0.13134	0.15101	0.075836	0.13103	-2.575	-3.1583	-2.9875	-3.1063	-3.4417	-3.1521	-3.3458	-3.4167	-2.8875	-3.2854	-3.2958	-3.0542	-3.3958	-3.1292	-3.1021	-3.3979	148.605	118.266	126.261	260.943	268.762	24.960	193.641	234.093	226.290	83.929	229.881	280.076	91.046	245.341	222.657	225.817	0.00017901	0.00037676	0.00012995	1312.1	2.7971e-06	5.0304e-06	1308.7	349.12	1.9058e-06	4.8659e-06	402.71	133.97	115.82	39.918	3.6613e-06	49.463	0.00031808	0.00025396	7.4215e-05	1317.8	3.1674e-06	2.8049e-06	1321.1	354.33	3.3346e-06	2.8723e-06	406.41	137.16	118.86	40.814	3.3337e-06	50.737	130.674	18.591	25.015	-48.280	94.527	89.580	-48.122	-43.337	89.808	90.010	-43.893	-39.869	-39.191	-34.513	93.028	-35.102	-8191	255	
25497.627	1	1	0	0	0.125	0.22098	0.2446	0.16003	0.041734	0.044507	0.43056	0.52677	0.14801	0.084391	0.028684	0.22651	0.25355	0.19177	0.034122	0.14491	-2.5125	-3.0604	-3.2687	-3.2167	-3.3333	-3.075	-3.3958	-3.4458	-3.0458	-3.1542	-3.3125	-3.1104	-3.2812	-3.0917	-2.9437	-3.5333	294.273	30.656	59.771	146.720	75.983	292.816	274.055	-30.729	-16.371	284.713	277.555	-27.250	281.274	191.750	222.849	263.056	0.00018077	0.00051507	0.00011942	1306.5	2.4203e-06	4.9891e-06	1306.2	349.68	1.438e-06	4.205e-06	402.37	133.9	116.58	39.968	3.3771e-06	49.522	0.00031147	0.00026024	7.8726e-05	1317.4	3.146e-06	3.1179e-06	1319.8	354.3	3.2955e-06	3.0355e-06	406.31	137.1	119.11	40.813	3.3034e-06	50.767	127.268	30.373	28.149	-48.031	96.852	102.335	-48.209	-43.391	122.430	88.354	-43.875	-39.629	-39.307	-34.367	96.162	-35.421	-8191	255	
25497.723	1	1	0	0	0.09765	0.10729	0.10533	0.18899	0.17677	0.16488	0.12215	0.18429	0.070576	0.039714	0.40881	0.093031	0.11231	0.19596	0.12913	0.26698	-2.625	-3.1083	-3.0958	-3.1437	-3.2604	-3.0604	-3.2042	-3.3604	-3.0021	-3.2083	-3.5062	-3.1917	-3.1583	-3.2229	-3.1854	-3.4125	-24.823	-9.635	17.655	214.537	219.417	55.253	-37.491	260.123	209.325	51.701	232.868	-53.993	220.041	111.914	43.722	249.368	0.00020311	0.00054252	0.00014686	1304.7	4.795e-06	5.3008e-06	1305.6	349.22	2.5668e-06	3.8897e-06	399.16	134	116.87	39.943	1.9981e-06	49.713	0.00031793	0.00029245	8.0402e-05	1315.9	3.1674e-06	3.2352e-06	1319.3	353.9	3.3018e-06	2.8772e-06	405.4	137.08	119.31	40.82	3.3023e-06	50.803	131.287	27.581	45.221	-47.958	95.839	105.464	-48.297	-43.369	81.727	84.503	-44.089	-39.882	-39.187	-34.550	78.820	-35.180	-8191	255	
25497.818	1	1	0	0	0.18057	0.093932	0.24797	0.23741	0.24538	0.15061	0.045252	0.19701	0.16272	0.11237	0.17646	0.22963	0.18357	0.1614	0.18191	0.071112	-2.3833	-3.0333	-3.2229	-3.1417	-3.1521	-3.2562	-3.1729	-3.4104	-3.1542	-3.0667	-3.3125	-3.0833	-3.2708	-3.4688	-2.875	-3.4167	27.016	50.661	98.493	-54.293	71.217	170.598	148.202	235.934	70.131	219.703	171.769	291.390	237.111	43.613	72.400	-45.212	0.00018541	0.00048475	0.00014662	1305.5	3.4544e-06	4.5296e-06	1304.1	348.83	2.2808e-06	3.8329e-06	400.67	134.39	116.62	40.004	3.2287e-06	49.871	0.00032521	0.00030279	7.7202e-05	1316.5	3.1926e-06	2.9302e-06	1319.5	353.96	3.4262e-06	3.3031e-06	406.17	137.14	119.15	40.865	3.3354e-06	50.866	126.932	30.337	30.241	-47.964	78.362	94.678	-48.168	-43.507	74.485	85.219	-44.007	-39.756	-39.138	-34.248	93.817	-35.026	-8191	255	
25497.914	1	1	0	0	0.034373	0.052417	0.074303	0.21424	0.13923	0.065163	0.21573	0.076498	0.37268	0.052654	0.072614	0.19033	0.2049	0.30814	0.18533	0.24983	-2.6396	-3.1521	-3.2271	-3.1562	-3.0146	-3.1583	-3.1458	-3.3333	-3.1437	-2.9688	-3.6083	-3.2521	-3.125	-3.4042	-2.9813	-3.3167	245.588	123.741	208.811	238.467	285.184	-39.338	-57.283	226.455	87.928	186.461	183.331	-57.154	143.708	265.956	-17.203	260.534	0.00017875	0.00055016	0.00013641	1307.7	2.7761e-06	4.7821e-06	1309.1	349.79	1.4137e-06	3.2745e-06	401.59	134.16	116.49	39.918	3.2324e-06	50.142	0.00032772	0.0002813	7.7263e-05	1316.6	3.3178e-06	3.1729e-06	1320.4	354.58	3.251e-06	3.0135e-06	406.46	137.2	119.07	40.85	3.3398e-06	50.866	131.374	28.098	36.503	-47.970	88.930	76.749	-48.159	-43.558	93.330	79.648	-43.779	-39.675	-39.234	-34.415	86.512	-35.249	-8191	255	
25498.012	1	1	0	0	0.14559	0.18931	0.25058	0.18762	0.3398	0.028121	0.19799	0.024832	0.17729	0.27996	0.1405	0.20988	0.22261	0.20773	0.10242	0.044626	-2.6667	-3.0354	-3.4333	-3.2313	-3.1083	-3.3146	-3.1583	-3.4667	-3.0438	-2.9875	-3.3271	-3.3042	-3.2188	-3.4375	-3.1063	-3.2292	121.531	235.146	288.731	212.924	201.362	20.537	-28.098	169.258	124.008	133.854	77.161	-7.337	229.953	234.807	192.404	39.562	0.00020697	0.00054804	0.00014717	1306.4	2.9046e-06	5.1473e-06	1302.2	348.89	2.087e-06	4.7321e-06	401.77	133.85	116.65	39.977	2.6296e-06	49.853	0.0003276	0.00028487	7.7842e-05	1316.3	3.4617e-06	3.0506e-06	1319.1	353.81	3.4516e-06	3.0691e-06	405.47	137.06	118.88	40.796	3.3101e-06	50.832	127.193	32.629	40.865	-48.195	94.708	90.092	-48.168	-43.610	82.131	99.905	-43.877	-39.774	-39.153	-34.514	90.567	-35.119	-8191	255	
25498.107	1	1	0	0	0.056746	0.19146	0.068313	0.29446	0.070064	0.18373	0.022212	0.16134	0.11794	0.17713	0.11668	0.24155	0.24152	0.12925	0.21496	0.19723	-2.8958	-2.9083	-3.2333	-3.2354	-3.0667	-3.4042	-3.1437	-3.4167	-3.2708	-3.0312	-3.3771	-3.1437	-3.2854	-3.2542	-3.0417	-3.2646	51.775	204.150	116.216	260.622	149.611	166.259	97.987	19.959	139.196	37.839	260.318	-35.862	-2.386	176.930	63.930	241.607	0.00019573	0.0005151	0.00010473	1306.1	2.7442e-06	5.3104e-06	1299.2	348.18	2.1076e-06	5.1985e-06	399.04	134	116.4	39.918	3.4626e-06	49.604	0.0003345	0.00029613	7.5129e-05	1315.5	3.3911e-06	3.268e-06	1317.2	353.66	3.5453e-06	3.286e-06	405.36	137.07	118.81	40.777	3.0882e-06	50.711	132.457	33.763	27.106	-48.072	80.807	97.681	-48.250	-43.728	77.669	94.732	-44.097	-40.068	-39.169	-34.402	101.568	-35.170	-8191	255	
25498.229	1	1	0	0	0.20441	0.079571	0.15499	0.21294	0.082531	0.1659	0.43372	0.092133	0.126	0.049629	0.26551	0.11368	0.10846	0.22481	0.28162	0.14506	-2.9813	-2.9979	-3.1542	-3.2812	-3.1354	-3.4708	-3.2729	-3.45	-3.2687	-3	-3.3646	-3.15	-3.1417	-3.5146	-3.0062	-3.1771	52.107	-41.153	113.624	-45.471	-21.240	237.573	230.952	291.555	-33.677	280.372	285.941	-21.624	-41.808	278.825	61.228	-37.128	0.0001915	0.00053659	0.00010804	1303	2.5841e-06	4.8423e-06	1308.2	348.63	2.5988e-06	4.4417e-06	399.7	134.04	116.48	39.786	3.8029e-06	49.648	0.00032459	0.00029575	7.4505e-05	1314.7	3.5254e-06	2.9469e-06	1319.7	353.97	3.44e-06	3.0911e-06	405.53	137.14	118.88	40.715	3.1868e-06	50.764	127.856	28.712	32.267	-48.099	74.303	97.325	-48.253	-43.325	93.796	82.503	-44.064	-39.869	-39.422	-34.448	90.073	-35.107	-8191	255	
25498.324	1	1	0	0	0.070575	0.053978	0.11998	0.16693	0.11417	0.0077822	0.10552	0.29863	0.19462	0.087101	0.20391	0.162	0.12223	0.38003	0.132	0.13778	-2.9479	-2.9396	-3.2021	-3.2917	-2.8833	-3.3208	-3.3583	-3.1875	-3.275	-3.2062	-3.2708	-3.2646	-3.1312	-3.4229	-3.0083	-3.1667	212.756	207.462	74.415	271.007	107.272	187.807	190.053	233.345	58.627	-43.779	285.859	-53.711	298.193	253.994	285.788	216.149	0.00017654	0.00052117	0.00013506	1305.2	3.5598e-06	5.3562e-06	1307.2	348.65	2.1245e-06	4.4423e-06	401.58	133.9	116.69	40.021	3.8008e-06	49.704	0.00032347	0.00029424	7.6135e-05	1316	3.5495e-06	2.8148e-06	1321.6	354.08	3.4622e-06	2.9615e-06	406.03	137.1	119.14	40.848	3.1891e-06	50.817	124.746	16.070	27.259	-48.173	90.520	103.572	-48.102	-43.575	70.339	97.698	-44.010	-39.772	-38.953	-34.338	70.098	-35.167	-8191	255	
25498.420	1	1	0	0	0.21771	0.20357	0.34478	0.2477	0.17183	0.10889	0.23913	0.26344	0.046932	0.033071	0.10793	0.09187	0.023119	0.057431	0.04598	0.15395	-2.8792	-3.1208	-3.0646	-3.1979	-3.0083	-3.3396	-3.3104	-3.1458	-3.3292	-2.9833	-3.2979	-3.3375	-3.1208	-3.2333	-3.2562	-3.0917	26.752	192.525	188.492	269.573	6.644	166.122	207.030	206.996	3.606	297.035	19.884	77.756	122.301	232.321	57.545	-58.223	0.00020839	0.0006051	0.00015919	1312.3	2.8131e-06	4.8919e-06	1308.6	348.35	2.0199e-06	5.7643e-06	401.21	134.93	116.99	40.033	3.0142e-06	49.805	0.00033087	0.00027534	8.1484e-05	1320.8	3.4815e-06	2.8197e-06	1322.4	354.33	3.314e-06	2.8931e-06	406.67	137.47	119.3	40.88	3.1509e-06	50.916	138.377	15.010	39.363	-48.099	100.735	98.618	-48.278	-43.451	69.487	96.091	-44.085	-40.130	-39.187	-34.614	107.445	-35.185	-8191	255	
25498.516	1	1	0	0	0.047706	0.26443	0.07505	0.36271	0.50722	0.24317	0.23045	0.15952	0.17595	0.22309	0.078576	0.21321	0.20447	0.3928	0.27483	0.14279	-2.7667	-2.8937	-3.0833	-3.4938	-2.8021	-3.375	-3.2458	-3.1208	-3.3688	-3.1375	-3.2729	-3.2687	-3.1083	-3.2354	-3.1125	-3.15	201.495	124.449	214.453	234.802	219.589	134.659	221.933	254.077	252.583	202.294	297.415	250.479	270.252	272.078	209.336	255.490	0.00019296	0.00044391	0.00014164	1309.8	2.2466e-06	3.7047e-06	1308.5	350.22	2.7787e-06	5.1362e-06	402.86	133.86	116.71	39.852	3.6773e-06	49.64	0.00032518	0.00027069	7.7583e-05	1320.4	3.3205e-06	2.7345e-06	1322.1	354.48	3.3817e-06	2.8705e-06	407.05	137.05	119.2	40.821	3.2782e-06	50.734	129.801	33.616	29.622	-48.102	107.918	97.206	-48.056	-43.361	86.514	97.913	-43.788	-39.803	-39.299	-34.436	81.998	-34.971	-8191	255	
25498.609	1	1	0	0	0.13852	0.14838	0.09367	0.24975	0.13262	0.19062	0.26153	0.086846	0.16351	0.05373	0.24557	0.13718	0.28045	0.21787	0.071402	0.16296	-2.75	-2.9021	-3.1271	-3.1375	-2.8937	-3.1188	-3.3958	-3.1583	-3.4125	-3.1083	-2.9396	-3.4	-3.1188	-3.2938	-3.2625	-3.025	41.612	265.444	43.330	-60.255	258.490	194.856	257.897	-35.818	-13.473	14.846	249.480	155.560	14.294	206.290	287.590	270.012	0.0001881	0.00052658	0.00011867	1305	3.8971e-06	5.1523e-06	1306.5	349.8	1.3366e-06	4.7479e-06	402.44	134.39	116.19	40.069	2.7648e-06	49.642	0.00031383	0.00026116	8.3968e-05	1318.8	3.3981e-06	2.9617e-06	1321.6	354.25	3.2823e-06	2.9744e-06	407.06	137.08	118.95	40.863	3.2238e-06	50.853	129.842	35.973	27.665	-47.953	94.085	91.096	-48.192	-43.548	58.410	86.153	-43.993	-39.792	-39.333	-34.602	87.943	-35.159	-8191	255	
25498.707	1	1	0	0	0.20573	0.26004	0.12457	0.25388	0.21113	0.21069	0.17241	0.22082	0.2787	0.15283	0.13	0.075324	0.066989	0.20052	0.19359	0.061023	-2.875	-2.8833	-3.1312	-3.3958	-2.9604	-3.2396	-3.2667	-2.9458	-3.2708	-3.175	-3.1396	-3.4938	-3.1479	-3.3667	-3.2396	-3.0979	-23.561	114.297	35.067	284.197	214.058	239.886	235.523	205.641	204.591	-34.810	283.650	-16.433	201.552	-16.414	127.026	258.559	0.00019633	0.00064304	0.00010932	1305.8	2.9551e-06	4.1905e-06	1306.7	349.97	1.4341e-06	4.3099e-06	400.49	134.46	116.64	40.059	3.8219e-06	49.667	0.0003141	0.00028909	7.9076e-05	1318.4	3.268e-06	2.9148e-06	1325.9	354.94	3.0785e-06	3.0263e-06	406.31	137.32	119.12	40.944	3.3881e-06	50.835	133.526	22.867	32.996	-48.250	80.237	99.127	-47.995	-43.525	64.832	95.015	-44.129	-39.889	-39.420	-34.416	82.216	-35.128	-8191	255	
25498.826	1	1	0	0	0.10742	0.33512	0.26839	0.057836	0.025457	0.081064	0.39225	0.15375	0.083757	0.12477	0.10757	0.11532	0.13878	0.21568	0.12893	0.12789	-2.7271	-3.0938	-2.8729	-3.3729	-2.9688	-3.1917	-3.2896	-3.1979	-3.3292	-3.0646	-2.9667	-3.4208	-3.1	-3.2	-3.2438	-3	271.302	52.015	265.586	267.079	121.249	117.523	268.121	211.977	244.084	15.895	38.115	-42.408	221.007	-41.098	122.269	269.456	0.0001841	0.00061388	0.00010777	1313.3	2.5902e-06	5.0146e-06	1309.7	349.32	2.0733e-06	4.4352e-06	402.41	134.88	117.13	39.941	3.6024e-06	49.88	0.00030971	0.00029148	8.2688e-05	1321.4	3.1712e-06	3.0611e-06	1324.2	354.21	3.224e-06	3.052e-06	407.3	137.53	119.23	40.871	3.2659e-06	50.9	134.183	14.990	36.731	-48.053	84.782	87.692	-48.256	-43.578	94.624	87.122	-43.869	-39.977	-39.413	-34.523	75.149	-35.405	-8191	255	
25498.924	1	1	0	0	0.039284	0.05811	0.095204	0.14008	0.13971	0.17241	0.2304	0.29201	0.16091	0.063467	0.067078	0.25958	0.19639	0.12636	0.10369	0.25141	-2.6625	-3.1458	-2.8438	-3.3729	-3.0771	-3.0229	-3.3771	-2.975	-3.1583	-3.0979	-3.1979	-3.2708	-3.2438	-3.1854	-3.2125	-3.1354	244.392	32.252	-44.769	235.827	220.788	270.967	295.135	249.467	277.187	76.923	20.765	257.096	-60.025	255.422	289.630	187.782	0.00017172	0.00046493	0.00013354	1310.5	2.4941e-06	4.5249e-06	1309.5	350.41	2.0208e-06	5.1152e-06	402.85	134.33	116.55	39.951	1.7819e-06	49.709	0.00031737	0.00028401	8.188e-05	1319.8	3.3563e-06	3.1537e-06	1323.6	354.58	3.3918e-06	3.0452e-06	406.8	137.45	119.17	40.919	3.2793e-06	50.871	128.110	28.655	32.506	-47.998	87.272	93.334	-48.329	-43.474	93.176	101.445	-43.943	-40.026	-39.103	-34.640	107.348	-35.206	-8191	255	
25499.020	1	1	0	0	0.066416	0.28211	0.26381	0.0045055	0.2993	0.12736	0.16204	0.18758	0.16611	0.16145	0.10166	0.061116	0.39595	0.13115	0.32449	0.067	-2.85	-3.4146	-2.9938	-3.4167	-2.9875	-3.0833	-3.3667	-2.9792	-3.3167	-3.2729	-3.0979	-3.4104	-3.1729	-3.1813	-3.275	-3.1708	91.872	38.299	144.796	252.643	-61.172	285.483	248.256	-55.446	219.538	129.293	59.498	-50.672	277.530	213.062	-19.159	116.778	0.00020076	0.00045109	0.00015113	1311.4	3.5312e-06	5.0919e-06	1314.3	349.04	1.4904e-06	4.2866e-06	402.38	134.73	116.41	40.067	3.3911e-06	49.678	0.00032483	0.00027778	7.9686e-05	1320.3	3.2691e-06	3.1525e-06	1324.8	354.5	3.4299e-06	3.1192e-06	407.36	137.43	119.23	40.943	3.1392e-06	50.861	126.298	15.346	28.789	-48.016	117.537	104.077	-48.260	-43.607	63.126	87.213	-43.981	-39.720	-39.214	-34.580	80.946	-35.338	-8191	255	
25499.115	1	1	0	0	0.28736	0.12009	0.21822	0.16176	0.20794	0.079796	0.18834	0.057579	0.22288	0.072456	0.17649	0.16084	0.16366	0.17895	0.040745	0.20775	-2.7417	-3.1667	-2.8375	-3.2708	-3.225	-2.9375	-3.5458	-3.3	-3.375	-3.2417	-3.1646	-3.4854	-3.2833	-3.1896	-3.2729	-3.4188	260.511	269.401	227.188	276.245	159.701	-9.926	238.597	82.246	51.204	206.593	202.756	287.959	180.325	-23.545	134.301	248.709	0.00020161	0.00049233	0.00013007	1309.7	2.5123e-06	4.8249e-06	1307.9	350.85	2.4474e-06	4.9411e-06	400.81	134.95	116.87	40.005	3.2089e-06	49.968	0.00033252	0.00028725	7.3133e-05	1320.8	3.4275e-06	3.1482e-06	1323.7	354.88	3.4998e-06	3.0513e-06	406.37	137.53	119.45	40.886	2.9015e-06	50.986	125.588	32.889	19.286	-48.055	112.952	103.093	-48.157	-43.439	77.384	88.723	-43.961	-39.718	-39.119	-34.340	80.709	-35.177	-8191	255	
25499.188	1	1	0	0	0.3406	0.31948	0.20896	0.2977	0.11853	0.26901	0.2552	0.073598	0.12264	0.069831	0.12414	0.073854	0.29158	0.12201	0.18565	0.11654	-2.7583	-3.075	-3.0375	-3.2729	-3.3771	-3.0312	-3.4729	-3.3542	-3.0125	-3.4188	-3.1229	-3.4417	-3.4188	-3.0062	-3.35	-3.1792	-48.303	-52.881	3.695	257.471	23.174	79.976	273.794	233.939	103.108	79.254	-21.492	189.794	-41.533	269.188	-37.968	240.395	0.00019515	0.00060099	0.00013815	1312.1	3.634e-06	5.1875e-06	1309.1	350.55	1.5614e-06	5.7196e-06	400.57	134.65	116.87	40.109	3.8473e-06	50.024	0.00033447	0.0002846	7.2569e-05	1323.1	3.4398e-06	3.1599e-06	1324.9	355.01	3.4241e-06	2.9261e-06	406.51	137.61	119.42	40.963	2.9581e-06	51.045	126.278	13.372	24.510	-48.057	79.157	97.136	-48.057	-43.417	99.548	91.782	-44.123	-39.804	-39.218	-34.398	80.640	-35.339	-8191	255	
25499.309	1	1	0	0	0.01636	0.27102	0.22884	0.24685	0.16336	0.17074	0.2097	0.45052	0.11231	0.087706	0.057048	0.16313	0.27486	0.16217	0.10218	0.057703	-2.6667	-3.4271	-2.8542	-3.4479	-3.3833	-3.0833	-3.5083	-3.3792	-3.2833	-3.5729	-3.4292	-3.3708	-3.3854	-3.1458	-3.2562	-3.3667	70.722	55.960	240.968	286.782	27.650	2.198	221.979	268.919	108.687	-27.981	-2.658	164.363	164.042	24.272	-4.608	61.466	0.00017122	0.00054804	0.00016228	1311.9	1.9861e-06	4.1296e-06	1314.7	349.85	2.1471e-06	6.2245e-06	404.33	134.15	116.93	40.208	3.5292e-06	49.945	0.00032329	0.00026966	7.6044e-05	1323.1	3.2081e-06	2.7691e-06	1327	355.44	3.5585e-06	2.8069e-06	407.87	137.67	119.54	40.959	2.9648e-06	50.994	125.578	26.472	30.112	-48.011	91.737	89.096	-48.311	-43.236	91.275	101.998	-43.910	-39.660	-39.134	-34.350	82.464	-35.277	-8191	255	
25499.404	1	1	0	0	0.21345	0.2324	0.14956	0.2521	0.13535	0.26625	0.16694	0.3672	0.06558	0.15406	0.21541	0.37817	0.11327	0.084743	0.096378	0.2428	-2.7542	-3.5979	-3.1042	-3.4437	-3.4938	-3.1333	-3.6208	-3.3729	-3.1417	-3.5438	-3.275	-3.4542	-3.5583	-3.2667	-3.3125	-3.3187	289.366	100.439	222.676	244.969	-2.681	163.564	224.444	212.580	199.106	133.415	-45.344	276.590	219.151	296.978	250.929	181.549	0.00018313	0.00042362	0.00012297	1311.8	2.3098e-06	3.9759e-06	1311.8	351.01	2.623e-06	5.0569e-06	402.79	134.86	117.16	40.156	3.7905e-06	50.088	0.00032562	0.000263	7.8711e-05	1323.5	3.1348e-06	2.8154e-06	1326.2	355.2	3.4246e-06	2.7165e-06	407.63	137.75	119.51	41.024	3.0052e-06	51.07	132.174	21.380	29.427	-47.964	91.341	97.495	-48.325	-43.563	81.646	85.376	-44.021	-39.781	-39.459	-34.492	99.575	-35.093	-8191	255	
25499.500	1	1	0	0	0.11678	0.15456	0.10599	0.29218	0.38764	0.21628	0.25302	0.42422	0.072712	0.087255	0.32926	0.15657	0.23042	0.24703	0.18998	0.070126	-2.7583	-3.3542	-3.2208	-3.2979	-3.3917	-3.1083	-3.3896	-3.2896	-3.0417	-3.2833	-3.2979	-3.3417	-3.3458	-3.3125	-3.1729	-3.3458	271.965	-49.250	68.650	288.296	251.090	231.340	207.162	270.676	264.377	59.266	242.652	199.261	-47.203	264.760	-33.089	130.975	0.0001935	0.00045767	0.00012779	1315	3.5086e-06	5.1012e-06	1316.5	350.69	1.5391e-06	5.7455e-06	403.62	135.01	116.46	40.326	3.532e-06	50.072	0.00032256	0.00025363	7.4154e-05	1325.7	3.1054e-06	2.6191e-06	1328.4	355.27	3.3892e-06	2.6976e-06	407.8	137.97	119.24	41.045	3.3286e-06	51.056	131.904	36.976	31.515	-48.169	74.838	105.811	-48.131	-43.559	119.973	93.677	-44.130	-39.923	-39.272	-34.601	76.704	-35.178	-8191	255	
25499.619	1	1	0	0	0.11714	0.11012	0.19931	0.11736	0.13735	0.10543	0.21376	0.032341	0.10856	0.016009	0.14356	0.15063	0.20175	0.2525	0.12599	0.080319	-2.6917	-3.4729	-3.2604	-3.1917	-3.3812	-3.2458	-3.4604	-3.2396	-3.0146	-3.3667	-3.3271	-3.325	-3.4167	-3.2	-3.0146	-3.4979	1.270	209.212	-48.254	220.408	96.145	-49.253	222.316	-57.635	151.279	160.423	181.885	296.544	264.668	297.136	277.925	221.270	0.00017029	0.00054562	0.00014636	1318.6	3.0495e-06	4.8031e-06	1311.1	350.74	1.9492e-06	4.7705e-06	401.58	134.96	117.45	40.102	3.2688e-06	49.899	0.00031374	0.00024936	7.8116e-05	1325	3.1658e-06	2.8401e-06	1326.2	355.46	3.2928e-06	2.9004e-06	407.57	137.72	119.53	40.966	3.3808e-06	50.987	130.680	24.369	37.423	-47.943	85.610	88.408	-48.306	-43.393	76.196	76.380	-43.801	-39.973	-39.221	-34.592	105.176	-35.174	-8191	255	
25499.715	1	1	0	0	0.089523	0.097218	0.1201	0.07384	0.13426	0.28123	0.4783	0.27029	0.15721	0.19345	0.22617	0.0073932	0.077954	0.084363	0.055054	0.073432	-2.8229	-3.4062	-3.3063	-3.1729	-3.3646	-3.0667	-3.4313	-3.5875	-2.8167	-3.1396	-3.3937	-3.15	-3.3771	-3.3729	-3.2042	-3.4604	129.969	90.563	59.138	252.179	260.498	57.783	228.705	233.976	118.299	16.801	266.936	-17.531	148.644	62.251	273.598	285.545	0.00018704	0.00044495	0.00012725	1308.9	3.1965e-06	4.3975e-06	1310.5	350.73	2.4271e-06	3.676e-06	403.1	135.12	116.92	40.208	2.2658e-06	49.827	0.00031439	0.00026549	7.9488e-05	1320.9	3.2129e-06	2.7302e-06	1325.7	355.6	3.2346e-06	3.0251e-06	407.48	138.08	119.37	41.06	3.2978e-06	50.946	135.059	24.744	29.688	-48.112	79.541	92.859	-48.344	-43.509	80.052	93.610	-44.141	-39.863	-39.233	-34.423	80.629	-35.162	-8191	255	
25499.789	1	1	0	0	0.079151	0.10013	0.11896	0.10765	0.1019	0.10421	0.15481	0.43655	0.1546	0.16453	0.17857	0.042831	0.36207	0.084226	0.16275	0.14355	-2.6625	-3.0271	-3.2833	-3.1	-3.3167	-3.1646	-3.3958	-3.4333	-3.0229	-3.3729	-3.3854	-3.2521	-3.2917	-3.4	-3.0104	-3.5458	-44.184	-18.060	-61.186	268.003	-8.884	77.705	-38.074	237.389	257.613	153.304	-51.965	202.223	249.635	37.816	102.125	255.894	0.00018522	0.0005316	0.00014397	1312.5	2.5253e-06	4.1631e-06	1313.6	350.87	2.3524e-06	4.3048e-06	402.58	134.89	116.99	40.081	3.5698e-06	50.094	0.00031035	0.00026971	7.5693e-05	1323.7	2.9496e-06	3.0266e-06	1327.1	355.73	3.268e-06	2.9218e-06	407.36	137.87	119.46	40.982	3.2429e-06	50.962	130.832	28.622	37.908	-48.037	92.554	94.166	-48.243	-43.401	75.490	92.647	-43.992	-39.527	-39.404	-34.315	90.899	-35.058	-8191	255	
25499.908	1	1	0	0	0.25052	0.22892	0.19362	0.27131	0.079799	0.17835	0.38346	0.33522	0.081795	0.19758	0.18052	0.12496	0.18007	0.15023	0.25157	0.30623	-2.5375	-3.1937	-3.0833	-3.0979	-3.3271	-3.3292	-3.3271	-3.4083	-3.0021	-3.1604	-3.4229	-3.1104	-3.4125	-3.2104	-2.9208	-3.5771	277.258	293.213	279.824	240.180	-33.832	265.611	259.636	248.463	10.569	-35.144	227.462	277.619	238.297	261.261	261.826	220.120	0.0001813	0.0004678	0.00014724	1311.2	3.5488e-06	4.4732e-06	1316.8	350.32	1.7381e-06	5.0686e-06	402.04	134.47	116.73	40.212	3.4864e-06	49.755	0.00031772	0.00027551	7.5693e-05	1321.4	3.1198e-06	2.9994e-06	1327	355.03	3.3135e-06	3.0025e-06	406.86	137.51	119.39	41.028	3.249e-06	50.984	126.339	33.318	26.223	-48.133	91.709	88.156	-48.169	-43.520	63.902	81.586	-44.068	-39.758	-39.250	-34.543	87.995	-35.240	-8191	255	
25500.004	1	1	0	0	0.055975	0.07113	0.08877	0.18459	0.02422	0.15381	0.23494	0.093355	0.29728	0.090832	0.090789	0.31897	0.083482	0.12398	0.29603	0.21628	-2.9042	-3.05	-3.2333	-3.2479	-3.2479	-3.3583	-3.3854	-3.55	-3.1083	-3.1437	-3.4083	-3.2833	-3.3229	-3.2938	-2.9875	-3.5271	260.915	37.117	112.757	-6.288	156.608	249.963	240.398	214.157	260.681	6.898	37.169	-43.446	263.697	35.241	-53.449	237.703	0.00019737	0.00047526	0.00013738	1308	3.8429e-06	5.0913e-06	1316.3	350.12	2.7277e-06	5.1015e-06	403.72	134.96	117.3	39.953	2.9974e-06	49.616	0.00033249	0.00027984	7.6074e-05	1320	3.2852e-06	2.9951e-06	1327.6	354.88	3.2955e-06	3.1131e-06	408.13	137.75	119.43	40.918	3.0029e-06	50.849	130.022	29.611	35.324	-48.275	97.049	90.369	-48.181	-43.537	88.806	94.332	-44.097	-39.728	-39.172	-34.335	87.191	-35.251	-8191	255	
25500.100	1	1	0	0	0.10434	0.088913	0.1217	0.28547	0.06161	0.060347	0.24679	0.057436	0.09536	0.15759	0.28136	0.047612	0.12068	0.19682	0.22597	0.12368	-2.6208	-3.1104	-3.2729	-3.2188	-3.175	-3.2542	-3.1229	-3.5729	-3.1354	-3.2	-3.5438	-3.2	-3.3125	-3.3083	-2.9292	-3.425	219.207	44.964	191.847	282.309	165.840	158.331	215.215	276.068	295.903	248.511	253.848	74.610	-0.403	-57.217	189.873	34.563	0.00019516	0.0005673	0.00014643	1312.9	2.727e-06	4.8281e-06	1311.1	350.14	1.4724e-06	4.6109e-06	399.67	134.75	116.39	40.016	3.7589e-06	49.916	0.00031298	0.00028281	7.5084e-05	1321.2	3.3933e-06	2.9414e-06	1325.4	355.46	3.5527e-06	3.0501e-06	406.78	137.76	119.3	40.883	3.0018e-06	50.953	132.199	21.090	37.933	-47.978	113.146	89.340	-48.082	-43.504	98.696	65.891	-43.862	-39.754	-39.087	-34.491	78.567	-35.180	-8191	255	
25500.221	1	1	0	0	0.20831	0.10356	0.099996	0.11337	0.21181	0.12912	0.26003	0.13842	0.16542	0.19035	0.27072	0.094969	0.0075041	0.26983	0.092972	0.29327	-2.7042	-3.0229	-3.2271	-3.1792	-3.2458	-3.1083	-3.2125	-3.4042	-3.1542	-3.1312	-3.3979	-3.1042	-3.4062	-3.5354	-3.2958	-3.3063	-36.950	-52.088	276.824	221.162	-16.163	136.264	193.147	133.876	78.605	240.357	169.202	245.626	-4.811	27.423	282.803	199.793	0.00017587	0.00052425	0.00013661	1311.9	3.2947e-06	3.8726e-06	1313.9	350.65	2.7555e-06	4.5087e-06	403.08	134.93	117.09	40.173	4.0069e-06	49.631	0.00032105	0.00027063	7.1899e-05	1321.4	3.3237e-06	2.8376e-06	1326.6	355.57	3.2733e-06	2.8326e-06	407.69	137.82	119.53	41.007	2.8331e-06	50.858	132.308	26.231	36.961	-48.046	90.728	96.876	-48.292	-43.454	82.029	86.858	-44.326	-39.622	-39.303	-34.484	112.297	-34.818	-8191	255	
25500.316	1	1	0	0	0.15319	0.2163	0.10933	0.22171	0.10979	0.14429	0.28895	0.31505	0.24394	0.024038	0.088782	0.16866	0.14978	0.10397	0.2374	0.1235	-2.8312	-3.0438	-3.3688	-3.3417	-3.1917	-3.6021	-3.2042	-3.6188	-3.2854	-3.1063	-3.4396	-3.2812	-3.1542	-3.5187	-2.9875	-3.4917	296.230	284.497	230.450	275.394	39.816	-20.728	-30.558	188.907	101.569	62.547	281.820	210.255	286.386	-2.809	40.992	-58.225	0.00018073	0.00058766	0.00012984	1311	3.2697e-06	5.135e-06	1312.4	349.39	2.1374e-06	4.8494e-06	403.08	134.64	116.65	39.886	3.2366e-06	49.81	0.00031855	0.00027865	7.042e-05	1321.8	3.3644e-06	2.7882e-06	1325.9	354.73	3.368e-06	2.7959e-06	407.47	137.57	119.1	40.878	2.9615e-06	50.833	131.390	30.694	26.095	-47.932	81.741	106.078	-48.187	-43.552	81.841	89.325	-43.855	-40.047	-39.298	-34.703	87.303	-35.331	-8191	255	
25500.389	1	1	0	0	0.50222	0.15587	0.12827	0.20067	0.16228	0.097741	0.23828	0.13378	0.1773	0.25171	0.16827	0.20135	0.40733	0.18792	0.075153	0.27802	-2.7438	-3.0083	-3.4062	-3.3271	-3.1917	-3.3438	-3.425	-3.5917	-3.3896	-2.9583	-3.5208	-3.2542	-3.1833	-3.475	-3.1604	-3.3979	219.351	226.102	-59.199	253.672	136.275	12.473	223.637	155.730	293.246	232.199	245.072	275.915	291.125	-20.381	102.186	273.280	0.00018587	0.00052613	0.0001018	1313.3	3.5604e-06	4.294e-06	1315.6	350.22	2.0272e-06	3.3764e-06	402.94	134.53	116.92	39.917	3.4924e-06	49.882	0.00031566	0.00026576	7.1716e-05	1321.9	3.3403e-06	2.6598e-06	1326.1	354.84	3.3923e-06	2.7935e-06	407.11	137.48	119.33	40.905	3.0057e-06	50.907	127.777	35.159	29.701	-48.155	87.385	106.292	-48.197	-43.508	83.982	94.147	-44.065	-39.899	-39.129	-34.643	78.606	-35.025	-8191	255	
25500.510	1	1	0	0	0.18058	0.27821	0.14162	0.18087	0.11819	0.1876	0.16387	0.45278	0.078752	0.13717	0.37339	0.32346	0.11176	0.28323	0.10781	0.026819	-2.7583	-3.0646	-3.2125	-3.3708	-3.2083	-3.5687	-3.3542	-3.2958	-3.2979	-3.0771	-3.5104	-3.2979	-3.2792	-3.6208	-3.1021	-3.2896	213.808	156.114	29.361	252.285	208.665	121.970	-31.573	254.369	124.506	244.338	225.627	-45.547	239.236	291.277	190.191	291.106	0.00018123	0.0005	0.00012662	1313	3.6605e-06	4.3139e-06	1307.4	351.06	1.6877e-06	3.7195e-06	403.06	134.68	116.97	39.974	1.9724e-06	49.659	0.00031843	0.00025672	7.3362e-05	1321.1	3.4489e-06	2.6592e-06	1323.7	355.11	3.3151e-06	2.7342e-06	407.21	137.57	119.36	40.861	3.2143e-06	50.758	132.417	24.397	28.920	-48.201	90.948	104.100	-48.249	-43.370	69.047	84.840	-43.918	-40.006	-39.067	-34.597	79.140	-35.056	-8191	255	
25500.604	1	1	0	0	0.1679	0.30061	0.074196	0.20024	0.14531	0.05181	0.064492	0.22032	0.29224	0.29796	0.22764	0.21242	0.081591	0.1355	0.06817	0.18796	-2.9042	-2.9958	-3.2458	-3.3417	-2.9729	-3.3396	-3.4771	-3.4354	-3.4875	-3.0875	-3.2896	-3.2417	-2.9833	-3.3417	-3.2333	-3.3542	28.891	177.694	268.652	249.130	178.165	163.680	228.676	276.584	168.533	211.851	203.481	-12.752	106.877	84.163	166.966	265.180	0.00017367	0.0004961	0.00013609	1302.3	2.456e-06	4.6965e-06	1315.9	349.87	1.4666e-06	4.4157e-06	400.87	134.39	116.67	40.032	3.245e-06	49.623	0.00031707	0.00026349	7.6288e-05	1320.3	3.1674e-06	2.8031e-06	1325.7	354.37	3.1256e-06	2.7562e-06	406.77	137.41	119.19	40.871	3.2911e-06	50.754	132.777	32.317	38.884	-48.022	103.643	95.372	-48.358	-43.627	66.512	88.652	-44.107	-39.675	-39.244	-34.426	81.520	-35.091	-8191	255	
25500.699	1	1	0	0	0.14289	0.17953	0.18628	0.039112	0.11136	0.16312	0.15668	0.19026	0.053453	0.049104	0.18304	0.11352	0.11428	0.13732	0.24279	0.074328	-2.9979	-2.7917	-3.2562	-3.3854	-2.9208	-3.1896	-3.2792	-3.1813	-3.3354	-3.0146	-3.2833	-3.4271	-2.9729	-3.2812	-3.0896	-3.225	155.208	-37.502	9.528	-26.925	22.571	-36.430	165.148	238.828	-35.246	11.188	289.496	215.983	181.613	-60.058	265.274	33.979	0.00016472	0.00051033	0.00016281	1305.6	3.7694e-06	5.1733e-06	1308.6	349	2.0588e-06	3.8201e-06	401.75	134.73	116.18	39.968	3.568e-06	49.804	0.00030478	0.00025098	7.6897e-05	1318.2	3.2204e-06	2.8358e-06	1321.7	354.43	3.0954e-06	2.9072e-06	406.45	137.46	118.94	40.862	3.3516e-06	50.865	133.324	25.470	34.848	-48.404	100.750	116.913	-48.166	-43.585	90.705	94.228	-43.768	-39.899	-39.289	-34.444	73.794	-35.232	-8191	255	
25500.797	1	1	0	0	0.080904	0.13905	0.12729	0.18957	0.037094	0.076687	0.29262	0.087813	0.13581	0.22713	0.19352	0.33209	0.086338	0.089544	0.11398	0.14387	-2.7208	-2.875	-3.0229	-3.4229	-2.7896	-3.2062	-3.3146	-2.9375	-3.2333	-2.9313	-3.1083	-3.4604	-3.1771	-3.3667	-3.3125	-3.0938	238.382	289.261	294.686	208.978	178.474	156.005	-47.771	229.758	107.083	51.321	-28.381	284.524	62.821	289.363	106.653	-50.163	0.00018234	0.00042731	0.00015606	1307	2.8271e-06	4.1892e-06	1308.5	350.27	3.1318e-06	5.2427e-06	402.26	135.24	117.46	39.927	3.5204e-06	49.836	0.000308	0.00027069	7.647e-05	1319.1	3.1722e-06	2.9167e-06	1322.9	354.9	3.1748e-06	2.8717e-06	407.05	137.5	119.39	40.867	3.17e-06	50.823	132.878	19.576	28.738	-47.934	81.382	102.533	-48.383	-43.438	69.049	95.764	-44.088	-39.701	-39.100	-34.377	77.503	-35.193	-8191	255	
25500.893	1	1	0	0	0.066064	0.36774	0.090403	0.072154	0.17031	0.02154	0.29046	0.12836	0.12091	0.11029	0.1504	0.2405	0.24611	0.28748	0.1886	0.17753	-2.9333	-3.0979	-3.0229	-3.4667	-2.9854	-3.2875	-3.3479	-3.2812	-3.4146	-3.1375	-3.1042	-3.4375	-2.9521	-3.1542	-3.3208	-3.05	212.743	198.990	185.228	-23.238	50.868	-38.248	249.091	224.789	205.314	-36.145	18.824	288.284	269.770	290.440	181.155	142.025	0.00019434	0.00050992	0.00014088	1306.8	2.7434e-06	4.5901e-06	1309.1	349.03	2.157e-06	4.4376e-06	401.32	134.24	117.03	39.833	3.8906e-06	49.476	0.00030974	0.00027875	7.6089e-05	1318.9	3.0786e-06	3.0154e-06	1322.4	354.64	3.1526e-06	2.8595e-06	406.58	137.32	119.25	40.852	3.0943e-06	50.857	134.070	16.850	31.197	-48.116	94.428	102.731	-48.233	-43.673	56.692	89.562	-43.978	-39.765	-39.347	-34.520	100.318	-35.126	-8191	255	
25501.012	1	1	0	0	0.043634	0.16976	0.27739	0.25408	0.10634	0.29409	0.31206	0.15269	0.072064	0.14849	0.11089	0.23419	0.21615	0.12494	0.12997	0.22224	-2.8521	-3.1208	-3.0792	-3.4479	-3.1583	-3.175	-3.4021	-3.0771	-3.2167	-3.1375	-3.1604	-3.4313	-2.9583	-3.0979	-3.2042	-2.9583	104.076	166.130	281.786	-57.374	249.623	112.155	263.333	219.926	277.748	270.025	181.006	171.134	-48.513	219.808	251.067	231.083	0.00018988	0.00049511	0.0001	1308.6	2.3721e-06	5.2874e-06	1308.4	349.95	2.6396e-06	4.2636e-06	403.26	135.12	117.13	39.969	3.898e-06	49.813	0.00030915	0.000282	7.6196e-05	1319	3.1385e-06	3.0976e-06	1324.1	354.64	3.259e-06	2.9316e-06	407.42	137.68	119.27	40.837	3.1375e-06	50.934	130.138	26.196	38.863	-48.196	94.114	94.641	-48.246	-43.437	70.781	85.632	-44.065	-39.599	-39.098	-34.402	102.113	-34.983	-8191	255	
25501.084	1	1	0	0	0.20008	0.17166	0.13712	0.17799	0.04116	0.26331	0.30444	0.49177	0.13492	0.15686	0.19521	0.19555	0.1117	0.30729	0.10901	0.27711	-2.8563	-3.0583	-3.0542	-3.4958	-3.1521	-3.0896	-3.4708	-3.0542	-3.2542	-3.2333	-3.1104	-3.3333	-3.175	-3.1896	-3.3417	-3.1708	295.850	127.076	168.155	187.853	231.903	138.913	196.084	217.606	13.389	176.955	236.755	289.223	-59.927	-54.466	252.848	252.560	0.00018445	0.00032909	0.00014075	1309.7	3.9644e-06	5.0862e-06	1310.3	349.45	2.0161e-06	4.4242e-06	402.72	134.99	116.79	40.131	3.9234e-06	49.634	0.00031245	0.00027394	7.8055e-05	1320.6	3.2905e-06	3.0253e-06	1323	354.63	3.369e-06	2.8222e-06	406.82	137.52	119.36	40.934	2.976e-06	50.814	128.986	14.337	22.272	-48.131	86.871	96.173	-48.201	-43.435	114.803	78.503	-44.076	-39.916	-38.936	-34.626	73.800	-35.156	-8191	255	
25501.180	1	1	0	0	0.081167	0.046427	0.026772	0.073128	0.058194	0.10624	0.38249	0.32652	0.30127	0.063585	0.41914	0.12268	0.20654	0.063639	0.2549	0.26946	-2.8417	-3.2396	-2.9104	-3.4521	-3.0979	-3.0979	-3.4042	-3.025	-3.2333	-3.1917	-3.0479	-3.4354	-3.1646	-3.3146	-3.4146	-3.2062	122.158	219.751	6.212	293.691	209.634	260.256	271.060	184.793	58.261	8.049	267.548	108.530	268.698	288.838	-33.637	214.139	0.00019962	0.00049114	0.0001329	1302.5	2.9888e-06	4.6647e-06	1310.9	349.38	1.0973e-06	4.073e-06	401.92	134.96	117.33	40.22	3.7484e-06	49.876	0.00032456	0.00026565	7.5419e-05	1318.4	3.3253e-06	3.0025e-06	1323.9	354.64	3.3765e-06	2.8509e-06	407.68	137.51	119.56	40.963	2.8566e-06	50.938	127.392	33.867	37.382	-48.165	84.163	101.026	-48.229	-43.556	75.414	85.771	-44.073	-39.825	-39.322	-34.307	80.297	-35.248	-8191	255	
25501.301	1	1	0	0	0.15593	0.11709	0.12823	0.40479	0.16439	0.2674	0.27744	0.19062	0.099272	0.056876	0.23921	0.23553	0.29178	0.056842	0.14795	0.18976	-2.8042	-3.2292	-2.9375	-3.4208	-3.2729	-3.2146	-3.5896	-3.2042	-3.125	-3.2104	-3.1833	-3.2979	-3.2521	-3.0229	-3.2583	-3.1833	149.620	93.398	66.580	-60.250	187.369	70.110	264.249	214.603	86.335	254.268	263.910	293.379	144.294	10.036	264.068	291.860	0.00017077	0.0003888	0.00012541	1310.1	2.973e-06	4.6962e-06	1314.2	349.28	1.7519e-06	3.7199e-06	401.67	134.51	116.61	39.952	3.9753e-06	49.819	0.00032704	0.0002525	6.8988e-05	1319.4	3.2295e-06	2.9025e-06	1323.9	355.06	3.4701e-06	2.6524e-06	407	137.65	119.07	40.883	2.9514e-06	50.865	124.596	25.494	38.502	-48.072	104.458	98.912	-48.243	-43.519	53.334	80.377	-43.979	-39.734	-39.278	-34.432	93.578	-35.488	-8191	255	
25501.396	1	1	0	0	0.12934	0.19413	0.099843	0.22998	0.28682	0.11452	0.2351	0.18724	0.18749	0.068547	0.15007	0.16097	0.16414	0.17497	0.093611	0.29475	-2.7521	-3.3063	-2.9521	-3.2292	-3.2292	-3.0583	-3.4229	-3.2188	-3.2021	-3.2979	-3.0667	-3.25	-3.2333	-3.0604	-3.1646	-2.9062	-36.535	201.768	69.008	-58.932	261.902	105.780	198.490	202.388	215.590	96.747	-14.674	245.116	176.274	201.618	-46.303	-61.026	0.00017856	0.00041448	0.00016048	1310.6	2.5539e-06	4.6941e-06	1309.2	350.45	2.6627e-06	4.4574e-06	401.56	134.23	117.02	40.013	3.096e-06	49.634	0.00032468	0.00024855	7.1579e-05	1321.9	3.2022e-06	2.8839e-06	1324.1	354.98	3.4257e-06	2.5833e-06	406.46	137.58	119.51	40.915	3.0769e-06	50.84	130.128	27.816	28.113	-48.174	77.329	97.311	-48.226	-43.619	88.387	80.320	-44.123	-39.989	-39.278	-34.218	66.706	-35.122	-8191	255	
25501.492	1	1	0	0	0.37923	0.068608	0.10164	0.16254	0.19198	0.1602	0.14541	0.32582	0.21231	0.058816	0.15483	0.13235	0.251	0.26312	0.043926	0.17403	-2.5938	-3.2708	-2.9188	-3.4271	-3.0854	-2.8917	-3.4396	-3.2104	-3.0854	-3.1667	-3.0354	-3.2375	-3.3396	-3.2479	-3.2458	-3.2333	218.527	56.222	182.209	-46.508	136.369	223.276	-52.324	257.407	-36.915	175.183	258.749	268.451	-47.604	284.465	-59.996	-52.345	0.00019712	0.00047875	0.00013752	1311.1	2.6195e-06	4.5665e-06	1307.1	350	2.4883e-06	4.2789e-06	403.3	134.5	116.96	40.091	3.316e-06	49.742	0.00032948	0.00025353	7.6547e-05	1321.1	3.1605e-06	2.6882e-06	1323.5	354.86	3.4019e-06	2.4868e-06	406.85	137.8	119.54	40.973	3.0198e-06	50.928	125.977	32.705	27.943	-48.184	97.962	90.624	-48.424	-43.425	89.068	85.495	-43.842	-39.747	-39.274	-34.474	86.995	-35.116	-8191	255	
25501.590	1	1	0	0	0.12572	0.11841	0.15868	0.21198	0.1839	0.10628	0.039022	0.19219	0.15435	0.092722	0.3035	0.059872	0.18132	0.19946	0.053645	0.077968	-2.6292	-3.1917	-2.925	-3.3792	-3.1937	-3.1188	-3.4604	-3.3667	-2.9625	-3.2833	-3.0354	-3.2062	-3.3521	-3.1021	-3.0896	-3.3146	-56.225	60.414	159.411	-37.975	146.989	-54.299	190.204	211.388	72.531	287.493	225.509	177.429	-22.599	279.067	79.982	69.182	0.00019001	0.00050278	0.00015558	1309.8	2.3599e-06	4.8881e-06	1310.3	350.78	1.5895e-06	4.2444e-06	403.28	135.03	116.51	40.217	3.797e-06	49.863	0.00031669	0.00024887	7.5206e-05	1320.7	3.0957e-06	2.7821e-06	1323.9	355.36	3.2309e-06	2.733e-06	408.06	137.66	119.51	40.974	3.0926e-06	50.903	131.698	33.894	33.154	-48.286	94.674	89.897	-48.253	-43.641	112.143	94.325	-43.902	-39.721	-39.232	-34.390	87.601	-34.851	-8191	255	
25501.684	1	1	0	0	0.032171	0.19511	0.19522	0.3622	0.20787	0.18992	0.23625	0.34601	0.22284	0.025081	0.072352	0.283	0.18671	0.033734	0.11904	0.035844	-2.6229	-3.2583	-3.0312	-3.425	-3.3229	-3.1146	-3.4979	-3.2375	-3.1083	-3.3333	-3.1771	-3.2479	-3.4	-3.0875	-3.2104	-3.3125	262.319	-34.637	116.839	223.953	-9.792	-43.166	220.357	234.160	67.409	19.743	180.649	144.385	29.319	171.208	250.116	209.964	0.0001996	0.00040337	0.00013572	1311.8	2.8851e-06	4.8931e-06	1311.8	350.22	2.0719e-06	4.972e-06	403.35	135.11	116.9	39.921	2.3201e-06	49.921	0.00031422	0.00025347	7.8878e-05	1321.6	3.0925e-06	2.7895e-06	1325.2	355.25	3.2643e-06	2.6554e-06	407.98	137.91	119.52	40.95	3.1885e-06	51.018	131.980	34.795	24.413	-48.024	83.340	107.253	-48.135	-43.422	83.899	88.783	-44.012	-39.899	-39.267	-34.477	83.138	-35.402	-8191	255	
25501.781	1	1	0	0	0.19677	0.12378	0.24602	0.15998	0.13806	0.11727	0.25614	0.23123	0.12659	0.044354	0.231	0.21183	0.046465	0.35185	0.29172	0.23798	-2.4333	-3.2833	-3.1542	-3.2062	-3.2104	-2.8833	-3.3396	-3.4292	-2.9521	-3.1437	-3.3208	-3.175	-3.2729	-3.1833	-3.0687	-3.3187	9.219	242.523	-52.356	246.296	135.735	249.944	220.959	-44.955	85.039	161.824	-54.885	159.960	165.281	-13.342	-18.250	252.629	0.00019981	0.00050598	0.0001358	1313.1	3.2208e-06	5.0716e-06	1313.8	350.44	1.7739e-06	5.5793e-06	404.13	135.41	116.93	40.107	4.3664e-06	49.768	0.00031144	0.00024827	7.6242e-05	1323.1	2.8571e-06	2.85e-06	1326.8	355.74	3.1722e-06	2.7006e-06	408.54	138.04	119.59	41.036	3.2911e-06	50.965	135.224	27.308	28.454	-48.031	92.529	96.807	-48.245	-43.477	77.036	103.383	-44.189	-39.550	-39.382	-34.330	85.406	-35.178	-8191	255	
25501.900	1	1	0	0	0.043674	0.27607	0.078084	0.13147	0.048101	0.20156	0.32998	0.26938	0.077318	0.16759	0.23494	0.17224	0.15288	0.079107	0.13976	0.21221	-2.6604	-3.2687	-3.0021	-3.075	-3.3146	-2.8688	-3.3146	-3.4313	-2.9958	-3.3	-3.2625	-3.1021	-3.25	-3.2125	-3.1292	-3.5542	248.708	231.731	102.041	255.765	-19.328	-55.589	157.421	286.607	93.401	104.704	20.951	12.680	-54.530	260.704	62.438	243.699	0.00018496	0.00040514	0.00012395	1316.2	2.7708e-06	4.7311e-06	1315.5	350.53	1.7384e-06	4.1911e-06	401.2	134.61	117.13	40.252	3.9875e-06	49.918	0.00031277	0.00025656	7.676e-05	1325	3.0219e-06	2.7734e-06	1327.8	355.82	3.259e-06	2.7825e-06	407.16	137.79	119.6	41.043	3.1907e-06	50.881	135.629	33.482	29.762	-47.848	89.825	93.692	-48.146	-43.365	79.218	87.043	-44.061	-39.973	-39.304	-34.353	86.051	-35.437	-8191	255	
25501.996	1	1	0	0	0.16179	0.038643	0.24308	0.25999	0.16862	0.38529	0.16121	0.24377	0.24408	0.18843	0.11099	0.12614	0.11433	0.22768	0.16428	0.063529	-2.3729	-3.1896	-3.2333	-3.2083	-3.2604	-3.1333	-3.2917	-3.3958	-2.8812	-3.1896	-3.1937	-3.0625	-3.2729	-3.2208	-2.9771	-3.5417	133.888	-1.295	-15.922	291.158	215.092	138.885	282.662	189.525	132.792	49.396	267.028	241.646	182.306	48.987	-32.969	106.075	0.00019293	0.00048938	0.00010611	1313.7	3.0039e-06	4.5694e-06	1311.3	350.72	2.3442e-06	4.9723e-06	405.15	135.01	116.96	40.25	3.3818e-06	49.809	0.00031932	0.00026522	7.6333e-05	1324	3.1284e-06	3.0031e-06	1327.2	355.48	3.1648e-06	2.8931e-06	408.31	137.94	119.65	41.012	3.1795e-06	50.923	127.208	30.643	20.973	-48.148	88.525	98.300	-48.206	-43.576	91.889	86.264	-43.959	-39.566	-39.130	-34.617	85.035	-35.341	-8191	255	
25502.094	1	1	0	0	0.34591	0.2196	0.081263	0.074536	0.19189	0.2066	0.24468	0.2711	0.27587	0.062109	0.10829	0.16263	0.16388	0.28822	0.16231	0.077725	-2.625	-3.0438	-3.125	-3.1896	-3.1646	-2.9354	-3.3937	-3.4833	-2.9229	-3.25	-3.4625	-3.1021	-3.3771	-3.1813	-2.9667	-3.3146	216.956	-45.637	54.661	270.092	161.125	-31.882	239.868	283.919	-16.645	165.120	253.327	224.691	234.056	195.794	249.717	5.265	0.00018018	0.00045583	0.00012922	1312	3.1341e-06	5.1211e-06	1313.6	350.24	2.254e-06	5.1755e-06	402.2	135.34	117.38	40.111	3.8685e-06	50.148	0.00031861	0.00027578	7.3087e-05	1324.4	3.199e-06	2.9426e-06	1327.2	355.49	3.2584e-06	2.9695e-06	407.51	138.03	119.83	40.969	2.9418e-06	51.033	128.796	24.317	25.935	-47.958	94.371	91.728	-48.158	-43.358	72.170	89.304	-44.090	-39.923	-39.058	-34.399	88.353	-35.171	-8191	255	
25502.189	1	1	0	0	0.33481	0.23938	0.084152	0.16473	0.12508	0.23358	0.31533	0.18219	0.089272	0.23729	0.12262	0.10755	0.087858	0.22483	0.041011	0.17303	-2.5875	-3.2458	-3.0917	-3.0854	-3.275	-3.4229	-3.2771	-3.3042	-3.0104	-3.1542	-3.325	-3.1188	-3.2875	-3.1917	-3.0938	-3.4854	211.519	193.992	-0.554	264.949	94.837	35.871	218.139	292.152	111.526	269.601	-50.423	1.299	75.138	285.697	50.580	207.465	0.00017476	0.0004202	0.00013134	1310.3	3.5539e-06	5.3253e-06	1310.5	352.15	2.2485e-06	4.259e-06	401	134.33	116.7	40.266	2.4703e-06	49.785	0.00032061	0.00026988	7.1228e-05	1324.7	3.1455e-06	2.9333e-06	1327.5	356.13	3.3918e-06	3.008e-06	406.85	137.86	119.42	40.97	2.9659e-06	50.953	134.940	25.709	33.310	-48.199	98.572	91.050	-48.208	-43.346	55.909	113.003	-43.980	-39.839	-39.090	-34.418	85.910	-34.874	-8191	255	
25502.311	1	1	0	0	0.18587	0.19616	0.25205	0.070991	0.030488	0.22448	0.16555	0.17763	0.11505	0.20381	0.19159	0.33009	0.22347	0.10716	0.15052	0.17809	-2.7313	-3.1292	-3.2375	-3.2125	-3.25	-3.1688	-3.1917	-3.3625	-3.1833	-3.0833	-3.4292	-2.9021	-3.2479	-3.1583	-3.0271	-3.2521	284.091	218.991	184.591	89.041	-34.826	240.659	170.528	290.826	234.130	251.210	-48.971	235.072	-17.767	235.089	202.558	198.603	0.00020466	0.00055307	0.00014426	1312.8	2.5899e-06	5.0387e-06	1312	350.59	2.1881e-06	3.9865e-06	403.44	135.42	116.62	40.03	3.6219e-06	49.799	0.00031702	0.00027881	6.8744e-05	1323.6	3.1471e-06	2.8352e-06	1327.1	355.63	3.2383e-06	2.9524e-06	407.99	137.96	119.34	40.932	2.8931e-06	50.872	133.660	37.465	38.524	-47.940	87.173	97.329	-48.218	-43.573	69.385	93.708	-44.032	-39.609	-39.313	-34.366	75.352	-34.750	-8191	255	
25502.381	1	1	0	0	0.11827	0.11431	0.1851	0.17371	0.1121	0.24289	0.32661	0.1783	0.26635	0.31244	0.11549	0.25166	0.22878	0.088215	0.14883	0.32369	-2.6542	-3.1458	-3.4104	-3.1792	-3	-3.3354	-3.1667	-3.4542	-3.1604	-3.0604	-3.4	-3.0458	-3.1813	-3.2625	-3.0625	-3.3187	13.706	-52.385	187.565	156.462	266.067	278.023	251.820	281.131	190.771	7.640	0.309	32.587	259.231	217.165	244.522	225.918	0.00019332	0.00038437	0.00012408	1312.5	3.5972e-06	3.6398e-06	1312.3	350.15	1.4539e-06	4.0461e-06	401.59	134.35	117.39	40.121	3.8312e-06	49.838	0.00032415	0.00026863	7.0253e-05	1321.9	3.3173e-06	2.6969e-06	1326	355.19	3.2976e-06	2.8045e-06	407.31	137.56	119.76	40.902	3.0203e-06	50.938	131.558	25.683	31.106	-48.182	81.462	101.196	-48.083	-43.411	69.400	82.834	-44.247	-39.812	-39.285	-34.459	96.286	-34.945	-8191	255	
25502.477	1	1	0	0	0.066155	0.35692	0.29256	0.3292	0.41539	0.097079	0.36657	0.12392	0.066565	0.018199	0.13055	0.27039	0.10525	0.052169	0.16194	0.33947	-2.7458	-2.9667	-3.4083	-3.1083	-3.1229	-3.3792	-3.0479	-3.4813	-3.1937	-3.0917	-3.3708	-2.9833	-3.1104	-3.4354	-3.0938	-3.3125	235.017	-48.125	122.862	262.644	15.786	267.298	247.187	212.172	168.405	119.354	243.777	205.455	283.946	44.777	32.534	219.921	0.0001858	0.00054304	0.00013481	1310.4	2.8543e-06	3.5941e-06	1310	350.56	1.0842e-06	4.4653e-06	403.29	134.55	116.38	40.067	3.0333e-06	49.835	0.00032406	0.00025006	6.6763e-05	1320.9	3.161e-06	2.5067e-06	1325.1	355.7	3.2357e-06	2.6505e-06	407.69	137.61	119.22	40.919	3.1111e-06	50.892	131.974	31.907	38.059	-48.176	89.398	91.228	-48.081	-43.476	60.015	86.579	-44.001	-39.707	-39.070	-34.342	97.753	-35.214	-8191	255	
25502.574	1	1	0	0	0.41837	0.38499	0.071285	0.076621	0.2945	0.081237	0.17881	0.26691	0.1603	0.1066	0.16721	0.24266	0.17965	0.12265	0.19838	0.13542	-2.8729	-3.1625	-3.2	-3.2687	-3.1542	-3.4437	-3.1042	-3.3604	-3.3563	-3.0438	-3.4917	-3.2375	-3.1375	-3.4854	-3.0458	-3.3208	107.303	-23.455	75.448	276.062	173.394	34.999	144.011	252.583	148.683	46.120	262.245	241.978	262.297	236.795	3.189	-48.163	0.00019363	0.00055518	0.00012166	1312	3.7165e-06	5.0484e-06	1311.6	350.43	1.7101e-06	4.2916e-06	403.21	134.3	116.99	39.983	3.3323e-06	49.846	0.00031755	0.00026148	7.2036e-05	1321.3	3.2193e-06	2.7475e-06	1323.6	354.82	3.1986e-06	2.6511e-06	407.84	137.44	119.33	40.876	3.235e-06	50.943	125.805	32.929	33.339	-48.043	88.074	79.796	-48.223	-43.321	91.403	84.584	-44.071	-39.507	-39.271	-34.376	83.210	-35.095	-8191	255	
25502.691	1	1	0	0	0.11035	0.18759	0.085485	0.28357	0.1671	0.098528	0.046656	0.32021	0.26272	0.16026	0.036691	0.099363	0.12728	0.07742	0.17516	0.20258	-2.8292	-3.1271	-3.1979	-3.3167	-3.0542	-3.3292	-3.25	-3.4521	-3.1729	-2.9583	-3.4292	-3.3021	-3.0917	-3.425	-3.1979	-3.2812	21.457	59.746	86.258	229.942	93.994	95.125	41.885	219.539	162.591	46.967	168.290	203.414	236.759	79.366	14.426	-15.473	0.00018824	0.0005448	0.00014431	1313.3	3.0152e-06	5.8199e-06	1309.6	349.47	1.7687e-06	4.4115e-06	403.87	134.82	116.56	40.068	3.4901e-06	49.876	0.00032206	0.00024882	7.644e-05	1319.9	3.1899e-06	2.6555e-06	1323.3	354.9	3.1134e-06	2.7074e-06	406.91	137.62	119.28	40.933	3.1863e-06	50.945	130.717	19.729	30.821	-48.118	85.672	99.792	-48.072	-43.543	110.506	96.132	-44.249	-39.768	-39.389	-34.464	100.883	-35.086	-8191	255	
25502.789	1	1	0	0	0.12486	0.28528	0.19744	0.17809	0.0079802	0.1083	0.21071	0.095845	0.073531	0.063656	0.27423	0.11685	0.26339	0.21128	0.23061	0.21877	-2.7625	-2.7854	-3.0042	-3.225	-2.9104	-3.2375	-3.2021	-3.2625	-3.3604	-2.9437	-3.3146	-3.3229	-3.0479	-3.3187	-2.9771	-3.15	213.484	111.473	155.488	-17.563	-2.710	194.304	213.783	153.881	140.876	84.255	259.989	274.709	10.254	266.485	137.569	220.665	0.00017906	0.00046584	0.00010966	1311.4	3.3551e-06	3.7843e-06	1306.9	349.09	2.308e-06	4.8526e-06	401.39	134.46	116.93	40.143	4.4388e-06	49.758	0.00031248	0.00025515	7.8421e-05	1321.7	3.108e-06	2.7555e-06	1322.8	354.75	3.0034e-06	2.9108e-06	407.74	137.38	119.24	40.953	3.1599e-06	50.909	129.492	30.574	22.408	-48.191	92.861	100.483	-48.143	-43.484	91.510	97.613	-44.002	-39.654	-39.181	-34.326	78.454	-35.045	-8191	255	
25502.885	1	1	0	0	0.3589	0.044602	0.2565	0.44684	0.092062	0.19514	0.35891	0.15425	0.2034	0.15706	0.26064	0.30114	0.23737	0.19712	0.2878	0.10704	-2.8854	-2.8729	-3.0458	-3.2917	-2.8271	-3.3667	-3.1729	-3.3208	-3.2812	-3.0563	-3.2917	-3.3812	-3.1167	-3.3021	-3.2938	-3.225	293.529	255.342	129.556	271.894	17.753	290.455	282.426	239.404	-39.608	271.142	185.146	172.130	-38.791	247.556	24.695	106.914	0.00020321	0.00051502	0.000166	1312	2.8763e-06	5.3488e-06	1315.3	349.97	2.7434e-06	4.6501e-06	404.35	134.45	116.76	40.198	3.6314e-06	50.059	0.00030629	0.00025894	7.8802e-05	1321.9	3.2209e-06	2.8333e-06	1327.2	355.16	3.1425e-06	2.9188e-06	407.73	137.56	119.45	40.967	3.0276e-06	50.968	139.136	32.858	18.056	-48.073	75.802	95.411	-48.213	-43.637	89.654	87.191	-44.151	-39.758	-39.124	-34.520	92.413	-35.185	-8191	255	
25502.980	1	1	0	0	0.19659	0.25869	0.19069	0.058913	0.1563	0.19271	0.41269	0.23858	0.12458	0.21244	0.031518	0.25666	0.082155	0.1136	0.1323	0.26225	-2.9646	-3.0792	-3.1708	-3.3854	-3.0354	-3.1917	-3.3104	-3.1479	-3.5438	-3.1917	-3.2479	-3.3875	-3.0812	-3.3438	-3.0708	-3.2	74.850	-14.668	222.911	273.846	158.726	43.875	208.392	238.567	241.493	168.733	33.629	238.631	234.673	277.506	166.814	224.658	0.00017954	0.00039754	0.00011633	1310	3.5273e-06	3.7785e-06	1305.4	349.7	1.8295e-06	5.657e-06	403.92	134.75	116.52	39.952	3.1389e-06	49.607	0.00030732	0.00026549	7.961e-05	1321.9	3.0759e-06	2.9327e-06	1322.3	355.05	3.2706e-06	3.0483e-06	407.29	137.45	119.25	40.854	3.0057e-06	50.784	126.235	17.375	27.488	-48.173	91.702	105.894	-48.314	-43.438	83.311	83.078	-44.172	-39.840	-39.229	-34.368	88.673	-35.286	-8191	255	
25503.076	1	1	0	0	0.20422	0.056194	0.097023	0.19532	0.095787	0.23562	0.11121	0.089279	0.096433	0.063968	0.27508	0.38548	0.2235	0.029375	0.08158	0.38778	-2.9479	-3.0167	-2.9667	-3.4875	-2.9667	-3.3229	-3.4396	-3.1292	-3.2583	-3.0521	-3.0521	-3.4146	-3.0896	-3.1875	-3.3229	-3.0875	259.857	288.164	-31.916	231.139	186.501	179.898	21.072	93.193	80.238	-23.299	297.807	232.875	131.387	-55.390	208.101	222.754	0.00018896	0.00048335	0.00010773	1309.7	3.0585e-06	4.5004e-06	1306.8	349.9	1.5035e-06	4.4479e-06	399.89	134.18	116.54	39.858	2.0736e-06	49.556	0.00031572	0.00027892	7.6089e-05	1318.6	3.275e-06	3.1544e-06	1322.9	354.94	3.1404e-06	2.8931e-06	406.61	137.18	119.04	40.789	3.059e-06	50.662	128.518	29.699	28.217	-48.101	90.148	102.732	-48.297	-43.575	94.692	99.290	-44.012	-39.777	-39.134	-34.626	96.592	-35.316	-8191	255	
25503.174	1	1	0	0	0.13509	0.16578	0.11346	0.23261	0.18369	0.10391	0.032667	0.27106	0.1003	0.30303	0.13816	0.16095	0.10062	0.10831	0.060828	0.25164	-2.8438	-3	-3.0062	-3.5458	-3.1479	-3.3729	-3.4167	-3.1	-3.1292	-3.0771	-3.2604	-3.4667	-2.9708	-3.2479	-3.0708	-2.9896	167.637	8.355	-31.572	272.468	151.288	241.094	-31.046	263.896	59.778	98.054	202.484	286.349	91.199	279.395	280.021	224.988	0.00019475	0.00047512	0.00011676	1308.2	2.7771e-06	4.7115e-06	1305.7	349.48	1.6309e-06	4.5911e-06	403.51	134.2	116.44	39.956	2.9589e-06	49.724	0.00032153	0.00027524	7.2569e-05	1319.4	3.344e-06	2.8907e-06	1321.2	354.63	3.4214e-06	2.8283e-06	406.68	137.27	119.12	40.789	3.1336e-06	50.731	129.818	27.370	49.772	-48.283	87.927	93.784	-48.052	-43.513	75.096	79.079	-44.134	-40.067	-39.379	-34.431	86.096	-35.220	-8191	255	
25503.270	1	1	0	0	0.19329	0.070863	0.092339	0.10905	0.35689	0.11183	0.13847	0.10824	0.18143	0.19927	0.05513	0.14605	0.060329	0.19568	0.24551	0.15683	-2.9979	-3.1312	-3.0708	-3.4667	-2.9979	-3.125	-3.4583	-3.325	-3.3979	-3.0292	-3.1021	-3.4042	-3.1708	-3.1813	-3.3042	-3.1417	-57.469	-27.712	226.323	258.746	198.954	157.932	174.811	291.655	-6.195	99.682	272.798	298.268	-61.162	227.358	107.626	234.319	0.00017644	0.00053047	0.00013529	1308.6	3.1291e-06	4.2076e-06	1309	349.15	2.0913e-06	3.383e-06	402.03	134.55	117.13	39.96	3.2806e-06	49.84	0.00032604	0.00029933	7.7141e-05	1321.1	3.3408e-06	2.8345e-06	1324.3	354.61	3.2849e-06	2.9964e-06	406.68	137.47	119.23	40.832	2.7501e-06	50.896	132.867	28.652	37.993	-47.906	100.172	86.509	-48.238	-43.546	79.404	85.303	-43.881	-39.717	-39.207	-34.335	99.645	-35.276	-8191	255	
25503.391	1	1	0	0	0.21626	0.14508	0.11601	0.36332	0.16548	0.12259	0.2263	0.23138	0.15823	0.14603	0.22369	0.11625	0.3596	0.078328	0.065147	0.41314	-2.7896	-3.0896	-3.0833	-3.4167	-2.9104	-2.9646	-3.4667	-3.2333	-3.4667	-3.3937	-3.0854	-3.425	-3.1917	-3.1542	-3.4396	-3.3	-3.192	291.329	19.427	259.815	110.168	130.016	205.311	266.233	254.695	177.020	235.133	-29.561	199.270	-41.303	-17.359	214.253	0.00018309	0.00037673	0.00013146	1314.5	2.6115e-06	5.0299e-06	1312.2	350.62	2.1297e-06	5.3911e-06	404.01	134.04	116.73	40.111	3.5778e-06	49.809	0.00032321	0.00026295	7.3224e-05	1323.5	3.4302e-06	2.8722e-06	1327.2	355.5	3.4463e-06	2.8876e-06	407.09	137.39	119.22	40.886	2.9228e-06	50.825	130.501	41.914	46.480	-48.145	85.415	101.100	-48.314	-43.592	88.282	92.150	-43.818	-39.574	-39.412	-34.480	84.777	-35.105	-8191	255	
25503.484	1	1	0	0	0.11504	0.16152	0.19499	0.34886	0.10551	0.17529	0.20705	0.062237	0.21141	0.10441	0.24162	0.13655	0.18584	0.049389	0.20849	0.25947	-2.7583	-3.2583	-3.0187	-3.5167	-3.0687	-2.9625	-3.5271	-3.1875	-3.1417	-3.2771	-2.9979	-3.2375	-3.2708	-3.0812	-3.1021	-3.2854	49.648	4.325	106.230	141.236	-4.179	294.010	199.993	227.925	-53.618	214.330	182.832	230.629	-11.664	223.001	255.113	212.661	0.00019789	0.00049417	0.00011493	1309.3	2.6065e-06	4.9638e-06	1315.1	350.91	2.1632e-06	4.4141e-06	399.67	134.53	116.76	40.011	3.6749e-06	49.887	0.00032026	0.00024871	7.292e-05	1321	3.351e-06	2.8166e-06	1326.5	354.88	3.3685e-06	2.7556e-06	405.82	137.32	119.11	40.891	3.1055e-06	50.835	131.923	30.099	32.955	-48.142	86.154	94.564	-48.194	-43.367	54.153	77.890	-44.038	-39.648	-39.289	-34.252	88.795	-35.132	-8191	255	
25503.582	1	1	0	0	0.11161	0.23981	0.24558	0.40976	0.20901	0.12034	0.32337	0.27884	0.044127	0.20839	0.19992	0.14872	0.43257	0.14388	0.10969	0.20151	-2.6437	-3.2604	-2.875	-3.3583	-3.2833	-3.0521	-3.5563	-3.3354	-3.1	-3.3604	-3.2458	-3.3271	-3.3292	-2.9521	-3.3521	-3.3917	188.679	287.846	127.630	269.799	268.133	-17.907	252.124	286.181	38.235	102.463	261.042	187.530	224.095	261.133	-1.063	252.768	0.00017473	0.00048752	0.00017722	1312.1	2.9203e-06	3.7539e-06	1315.8	349.56	2.4219e-06	5.3422e-06	402.07	134.41	117.23	40.041	4.2767e-06	49.499	0.00032123	0.00025169	8.2399e-05	1323.9	3.2493e-06	2.6759e-06	1328	355.03	3.3256e-06	2.7067e-06	407.67	137.33	119.31	40.895	3.0825e-06	50.811	135.414	22.622	35.915	-48.125	103.634	98.930	-48.197	-43.595	86.824	91.045	-44.076	-39.603	-39.315	-34.339	100.420	-35.066	-8191	255	
25503.678	1	1	0	0	0.074878	0.11432	0.15248	0.36453	0.15082	0.23297	0.13809	0.31834	0.18064	0.27895	0.18007	0.36809	0.16684	0.16382	0.24122	0.045415	-2.8125	-3.3729	-3.0479	-3.3146	-3.3063	-2.8854	-3.6896	-3.3479	-2.9917	-3.425	-3.2417	-3.25	-3.4375	-3.0729	-3.2083	-3.325	33.292	54.301	-26.614	264.275	170.253	207.163	184.401	277.935	230.860	162.171	47.706	-59.378	217.353	-12.148	-9.518	13.651	0.00018609	0.00053426	0.00012343	1316.1	3.0726e-06	5.6977e-06	1311.9	350.15	1.9968e-06	6.0249e-06	402.64	134.64	116.65	39.88	3.7759e-06	49.814	0.00032288	0.00025201	7.74e-05	1324.6	3.1059e-06	2.8673e-06	1327	355.02	3.4696e-06	2.634e-06	407.34	137.41	119.27	40.822	3.2232e-06	50.84	134.225	31.558	43.404	-48.176	96.434	93.486	-48.288	-43.561	75.616	84.762	-43.974	-40.035	-39.263	-34.385	88.556	-34.855	-8191	255	
25503.773	1	1	0	0	0.17449	0.32541	0.23256	0.28959	0.11773	0.18286	0.27965	0.16011	0.19328	0.058554	0.29318	0.34956	0.13708	0.14237	0.10586	0.22878	-2.7667	-3.2542	-3.0375	-3.4062	-3.1479	-3.2125	-3.2958	-3.4729	-2.9083	-3.3833	-2.975	-3.2	-3.3563	-3.0917	-3.3333	-3.2104	141.463	259.365	289.246	-35.060	-11.874	131.132	204.857	297.835	102.602	-40.749	241.768	-55.384	261.362	-37.129	11.880	151.733	0.00018499	0.00045627	9.1082e-05	1312.1	3.6124e-06	4.9711e-06	1316.3	349.56	1.7536e-06	4.6372e-06	402.32	134.31	116.85	40.006	4.8212e-06	49.625	0.00031209	0.00025109	7.6196e-05	1322.8	3.3135e-06	2.7327e-06	1326.9	354.65	3.2648e-06	2.5919e-06	407.06	137.57	119.24	40.881	3.2445e-06	50.927	128.700	30.844	27.082	-48.186	95.693	100.663	-48.262	-43.517	63.724	94.037	-43.989	-39.746	-39.314	-34.460	83.515	-35.142	-8191	255	
25503.869	1	1	0	0	0.01492	0.35903	0.15053	0.28235	0.025547	0.15051	0.14614	0.096219	0.24565	0.10049	0.20406	0.07647	0.043949	0.31959	0.27109	0.073866	-2.6583	-3.3	-2.9896	-3.1542	-3.3646	-2.9958	-3.5896	-3.2667	-2.9646	-3.4229	-3.2896	-3.2875	-3.4833	-3.2062	-3.1896	-3.2729	234.202	197.869	31.731	241.702	18.069	135.349	276.348	158.913	271.378	73.246	-24.933	235.782	269.047	207.303	80.548	183.320	0.00018412	0.0004856	0.0001255	1313.6	3.2971e-06	4.7731e-06	1313.3	351.38	1.4075e-06	2.9746e-06	401.53	135.09	116.75	39.898	3.7927e-06	49.78	0.00031478	0.00025618	7.7598e-05	1324	3.0122e-06	2.7654e-06	1326.9	355.65	3.223e-06	2.6194e-06	407.48	137.72	119.37	40.869	3.1745e-06	50.791	133.346	25.895	35.342	-48.147	89.731	86.133	-48.231	-43.456	98.012	79.529	-43.916	-39.824	-39.398	-34.472	106.341	-35.342	-8191	255	
25503.990	1	1	0	0	0.016212	0.22573	0.11418	0.101	0.1491	0.061189	0.32347	0.25754	0.17981	0.17393	0.08129	0.35432	0.32104	0.094731	0.077792	0.18505	-2.4042	-3.2708	-3.0292	-3.2687	-3.2188	-2.9979	-3.4375	-3.3042	-2.9688	-3.3312	-3.1583	-3.0563	-3.4688	-3.1042	-3.0938	-3.2562	25.230	263.304	-8.841	190.445	154.028	-45.190	211.481	234.896	194.275	219.946	207.494	270.872	234.646	-3.962	240.461	234.032	0.00019818	0.00053778	0.00012272	1311.6	3.0448e-06	4.9481e-06	1313.2	349.09	1.893e-06	3.7221e-06	401.69	134.7	116.21	39.999	3.1586e-06	49.534	0.0003166	0.0002715	7.737e-05	1323	2.9908e-06	2.9759e-06	1326.3	354.72	3.2611e-06	2.9414e-06	407	137.38	119.07	40.892	3.1347e-06	50.791	130.202	27.679	34.678	-48.037	91.205	87.891	-48.338	-43.518	84.377	93.558	-44.055	-39.567	-39.353	-34.576	79.654	-35.341	-8191	255	
25504.086	1	1	0	0	0.1605	0.064195	0.086937	0.16758	0.050817	0.09494	0.32445	0.33257	0.041576	0.081113	0.1295	0.33471	0.05887	0.051756	0.14221	0.10687	-2.5812	-3.2729	-3.0458	-3.1312	-3.5333	-2.9854	-3.2625	-3.3729	-3.0625	-3.2042	-3.2979	-3.1063	-3.3688	-3.0667	-3.0021	-3.4313	134.481	166.086	73.656	-14.429	71.266	93.418	231.469	205.915	3.864	39.369	205.667	265.577	38.083	-19.913	-9.111	274.225	0.00017232	0.00052644	0.00012915	1311.9	2.7369e-06	5.0105e-06	1309.3	349.17	2.4178e-06	5.5205e-06	402.16	134.33	116.87	39.996	2.4259e-06	49.754	0.00031065	0.0002748	7.7278e-05	1322.8	3.1209e-06	3.1414e-06	1325.1	354.62	3.3077e-06	2.978e-06	407.22	137.45	119.1	40.863	3.1728e-06	50.815	130.374	35.281	36.186	-48.293	92.250	87.659	-48.195	-43.578	81.950	86.767	-44.244	-39.757	-39.147	-34.353	79.218	-35.264	-8191	255	
25504.182	1	1	0	0	0.14669	0.035766	0.1206	0.11293	0.203	0.17623	0.091951	0.072932	0.19298	0.20366	0.1198	0.16975	0.23467	0.17828	0.12675	0.19713	-2.6375	-3.2104	-3.0396	-3.275	-3.2479	-3.05	-3.2104	-3.5042	-2.9833	-3.225	-3.0625	-3.2292	-3.5479	-3.0375	-3.2208	-3.3958	156.176	129.071	11.474	212.573	-50.510	79.182	-52.052	237.274	-56.116	88.086	64.883	-60.070	279.960	235.039	277.303	-24.289	0.00019931	0.00050244	0.00010903	1313.9	3.2354e-06	5.0646e-06	1310.4	349.02	1.2776e-06	4.8047e-06	401.52	134.09	116.99	39.87	2.5869e-06	49.598	0.0003136	0.00027984	7.4108e-05	1322.1	3.253e-06	2.9994e-06	1325.4	354.59	3.3272e-06	2.8601e-06	406.68	137.27	119.11	40.808	3.059e-06	50.773	130.588	24.605	32.215	-48.203	101.592	99.718	-48.220	-43.452	116.480	84.548	-44.221	-39.793	-39.032	-34.347	95.819	-35.155	-8191	255	
25504.254	1	1	0	0	0.11961	0.25051	0.010658	0.22222	0.15447	0.21185	0.038981	0.38271	0.077589	0.12278	0.086127	0.094948	0.08573	0.15615	0.13777	0.41872	-2.7021	-3.1167	-3.2667	-3.2062	-3.425	-3.0563	-3.325	-3.3792	-3.0583	-3.225	-3.35	-3.1542	-3.2583	-3.1813	-3.075	-3.4313	186.300	-25.507	13.190	252.443	98.092	42.933	231.569	228.464	254.119	45.407	-20.691	-26.588	-46.780	-33.870	22.851	238.523	0.00017279	0.00050365	0.00013175	1311.8	3.1589e-06	5.1784e-06	1311.9	350.28	2.0747e-06	4.9559e-06	402.85	134.99	116.6	39.89	4.007e-06	49.902	0.00032654	0.00026219	7.1274e-05	1321	3.1894e-06	2.9889e-06	1325.6	354.88	3.5892e-06	2.978e-06	407.15	137.62	119.22	40.843	3.1128e-06	50.938	129.644	20.688	39.223	-48.016	103.515	87.707	-48.199	-43.496	89.138	89.587	-44.021	-39.671	-39.075	-34.494	83.377	-35.226	-8191	255	
25504.373	1	1	0	0	0.24578	0.28534	0.086228	0.12792	0.19121	0.11865	0.17397	0.18722	0.30377	0.29842	0.20796	0.34424	0.29406	0.20868	0.1044	0.16918	-2.6896	-3.0292	-3.3333	-3.1437	-3.3833	-3.2792	-3.3375	-3.5	-3.275	-2.9875	-3.2792	-3.0167	-3.2	-3.2604	-3.0146	-3.3458	-54.918	14.926	245.236	288.975	1.957	108.833	283.181	-43.232	219.468	103.015	252.477	159.877	289.896	197.731	9.822	251.259	0.00019649	0.00046517	0.00014859	1308.6	3.6286e-06	4.7071e-06	1313.3	350.31	2.1601e-06	4.3626e-06	402.38	134.61	116.72	39.871	3.2684e-06	49.689	0.00032889	0.0002702	6.8958e-05	1321.6	3.3472e-06	2.8796e-06	1326.2	354.94	3.4775e-06	2.7721e-06	407.52	137.63	119.22	40.862	2.9929e-06	50.931	130.320	24.810	22.089	-48.291	89.160	105.625	-48.228	-43.376	84.691	89.557	-44.015	-39.802	-39.292	-34.611	76.300	-35.073	-8191	255	
25504.471	1	1	0	0	0.24591	0.11811	0.16829	0.24015	0.22432	0.16949	0.026988	0.15195	0.18326	0.27261	0.18865	0.12972	0.13303	0.14192	0.098322	0.04709	-2.7104	-3.0979	-3.1729	-3.3	-3.2917	-3.2708	-3.1271	-3.5792	-3.0521	-3.1021	-3.4458	-3.1479	-3.2854	-3.175	-3.0542	-3.3979	71.990	25.852	-3.770	246.583	61.287	-0.572	-9.304	298.256	67.471	133.117	295.384	-36.473	239.650	32.831	196.964	287.646	0.00018591	0.00043064	0.00014537	1315.7	2.987e-06	3.8869e-06	1314.3	349.69	1.8017e-06	5.3732e-06	403.99	134.28	116.67	40.053	4.4093e-06	49.779	0.00032023	0.00026971	6.7098e-05	1323.8	3.1375e-06	2.8771e-06	1327.1	354.86	3.3923e-06	2.8118e-06	407.72	137.52	119.3	40.87	3.0147e-06	50.815	135.576	30.601	30.615	-48.015	92.477	75.015	-48.181	-43.614	84.540	89.374	-44.109	-39.748	-39.190	-34.446	94.750	-35.128	-8191	255	
25504.566	1	1	0	0	0.072895	0.044212	0.16593	0.24905	0.094504	0.12437	0.072255	0.14641	0.2574	0.17408	0.16956	0.10358	0.10878	0.068549	0.10728	0.045399	-2.8229	-2.9396	-3.1042	-3.1125	-3.1229	-3.2458	-3.2458	-3.6604	-3.1354	-2.9313	-3.5354	-2.9292	-3.3688	-3.3875	-3.0292	-3.4083	275.020	194.329	92.928	264.830	195.960	-2.803	223.335	-50.538	58.744	102.607	201.307	287.630	-20.490	223.646	-47.896	-50.286	0.00019293	0.0004849	0.00015869	1307.3	2.7412e-06	4.37e-06	1309.5	350.13	2.4129e-06	4.3089e-06	400.94	134.72	116.71	40.074	3.7045e-06	49.668	0.00031651	0.0002467	7.3011e-05	1322.1	3.3092e-06	2.7475e-06	1324.4	354.88	3.3214e-06	2.7623e-06	406.61	137.54	119.28	40.912	2.9721e-06	50.861	133.887	35.289	37.990	-48.109	70.615	99.430	-48.306	-43.438	70.895	103.258	-44.199	-39.715	-39.291	-34.560	109.248	-35.134	-8191	255	
25504.662	1	1	0	0	0.26727	0.1824	0.16354	0.036119	0.15764	0.15112	0.35887	0.29732	0.10808	0.24187	0.10842	0.20194	0.20581	0.42572	0.079243	0.15126	-2.8896	-3.0708	-3.2167	-3.2458	-3.2083	-3.2812	-3.1063	-3.3625	-3.1396	-2.9792	-3.3563	-3.1875	-3.0833	-3.35	-3.0042	-3.2375	46.487	1.465	244.916	76.089	278.530	-59.226	190.543	267.223	281.832	190.163	73.254	-51.324	268.841	209.433	-57.678	121.364	0.00019563	0.0005365	0.00013774	1311.9	2.3323e-06	4.9679e-06	1311.3	350.88	1.4413e-06	4.8834e-06	400.58	133.91	116.63	39.96	2.7166e-06	49.771	0.00032203	0.00024909	7.0283e-05	1320.4	3.1498e-06	2.6691e-06	1325.3	355.01	3.2637e-06	2.7245e-06	406.72	137.3	119.26	40.893	3.2047e-06	50.844	128.424	27.903	30.367	-48.116	90.375	101.512	-48.092	-43.354	105.046	95.784	-44.089	-39.858	-39.148	-34.465	77.438	-35.132	-8191	255	
25504.781	1	1	0	0	0.17745	0.046396	0.11167	0.2644	0.13994	0.13709	0.31139	0.034143	0.13612	0.23174	0.060294	0.11472	0.082014	0.0087733	0.13871	0.1335	-2.7938	-2.9292	-3.2396	-2.9729	-2.9021	-3.2542	-3.2021	-3.3542	-3.3208	-2.7125	-3.2354	-3.1667	-3.1396	-3.3688	-2.9667	-3.1458	11.981	199.609	53.036	294.131	-9.551	201.156	256.739	156.438	153.288	2.116	3.548	-32.158	-31.662	288.262	151.308	191.040	0.00018399	0.0004266	0.00014344	1310	3.3578e-06	4.826e-06	1312.4	349.85	1.6273e-06	3.6668e-06	401.51	134.14	116.42	39.952	3.1143e-06	49.669	0.00031572	0.00024248	7.7949e-05	1320.7	3.1562e-06	2.6715e-06	1325.2	354.55	3.1304e-06	2.7746e-06	406.37	137.4	119.04	40.841	3.1352e-06	50.835	129.054	14.878	24.361	-48.079	85.106	87.089	-48.263	-43.515	65.245	83.722	-43.786	-39.998	-39.368	-34.441	104.791	-35.052	-8191	255	
25504.854	1	1	0	0	0.043781	0.12512	0.25847	0.27947	0.18937	0.19054	0.21229	0.11682	0.10561	0.12756	0.19419	0.12756	0.21283	0.17403	0.21687	0.26166	-2.7333	-2.8854	-3.1958	-3.2625	-3.2417	-3.3604	-3.1479	-3.3646	-3.3542	-2.9729	-3.4354	-3.3375	-3.0083	-3.3854	-3.025	-3.375	215.825	-4.526	275.096	293.671	-23.656	165.100	241.425	280.429	88.890	99.665	65.502	290.572	6.368	239.364	-14.643	200.871	0.00020246	0.0004627	0.00012591	1306	3.0594e-06	5.6747e-06	1310.5	350.57	2.5122e-06	4.8737e-06	402.01	134.19	117	39.861	2.786e-06	49.905	0.0003156	0.00025656	7.9366e-05	1319.5	2.9962e-06	2.7907e-06	1323.7	355.13	3.1695e-06	2.8442e-06	406.93	137.29	119.09	40.853	3.193e-06	50.779	130.613	28.952	45.872	-48.040	89.576	92.903	-48.161	-43.415	89.637	90.699	-43.738	-39.952	-39.150	-34.345	95.763	-35.229	-8191	255	
25504.949	1	1	0	0	0.24482	0.12973	0.16204	0.35706	0.015203	0.18434	0.080624	0.10272	0.13545	0.43065	0.11245	0.44759	0.088242	0.16098	0.069617	0.41118	-2.6604	-2.9104	-3.2104	-3.0938	-2.8625	-3.35	-3.3688	-3.2438	-3.325	-3.175	-3.2854	-3.2896	-3.2125	-3.4792	-3.0312	-3.1396	132.186	-34.927	66.557	-46.515	-20.683	161.546	43.762	-40.330	202.769	173.549	214.653	245.185	293.639	135.288	137.967	149.924	0.00016935	0.00040792	0.00011444	1306.7	2.245e-06	4.9408e-06	1308.8	348.98	2.6751e-06	4.4937e-06	400.25	134.05	116.76	39.948	3.5144e-06	49.45	0.00029904	0.00027042	7.6364e-05	1319.9	3.1444e-06	2.8629e-06	1322.5	354.04	3.1018e-06	2.9047e-06	406.41	137.19	119.22	40.795	3.2541e-06	50.715	131.699	18.133	35.729	-47.940	99.582	81.863	-48.224	-43.518	81.031	91.798	-43.972	-39.649	-39.449	-34.431	105.079	-34.933	-8191	255	
25505.070	1	1	0	0	0.045297	0.1394	0.10859	0.21971	0.10376	0.12464	0.32423	0.057132	0.21608	0.057157	0.3195	0.13161	0.057463	0.22102	0.19042	0.045923	-2.9604	-3.1292	-3.0396	-3.3958	-2.9854	-3.475	-3.2292	-3.1354	-3.4062	-3.0875	-3.3187	-3.3583	-3.075	-3.4313	-3.1667	-3.0521	288.714	-35.738	202.004	256.407	163.706	62.089	211.396	109.045	68.561	168.256	225.113	255.233	7.904	-43.133	115.148	219.974	0.00018788	0.0005089	0.00012302	1304.8	2.8247e-06	5.0047e-06	1309.3	348.1	2.1897e-06	5.1564e-06	402.6	133.92	116.74	39.757	3.2592e-06	49.623	0.00030546	0.00027524	7.7933e-05	1315.2	3.1738e-06	2.916e-06	1321.2	353.92	3.0473e-06	3.1228e-06	406.43	137.13	119.01	40.696	3.2468e-06	50.649	130.135	22.445	28.154	-48.049	97.208	108.740	-48.228	-43.383	121.705	105.355	-43.918	-39.813	-39.139	-34.443	72.086	-35.163	-8191	255	
25505.166	1	1	0	0	0.027719	0.39686	0.19178	0.20413	0.12685	0.12724	0.059728	0.37348	0.079156	0.25611	0.043414	0.22481	0.1349	0.25447	0.31103	0.11268	-2.7625	-3.0687	-3.1542	-3.2958	-3.0625	-3.3937	-3.275	-3.2667	-3.3521	-3.0396	-3.3354	-3.4104	-3.0333	-3.2875	-3.2667	-3.1479	116.135	117.650	-4.247	246.679	177.791	50.982	199.387	188.067	-58.767	283.162	10.047	169.543	264.551	193.878	59.874	188.429	0.00018538	0.00044235	8.4738e-05	1304.3	3.5926e-06	4.3757e-06	1304.1	348.75	2.4158e-06	4.5753e-06	399.34	133.97	116.45	39.827	3.4617e-06	49.558	0.00031177	0.00028314	7.5343e-05	1313.6	3.2584e-06	2.8376e-06	1317.3	353.63	3.2172e-06	3.0135e-06	405.39	136.94	118.71	40.702	3.1089e-06	50.663	129.804	24.240	25.032	-48.324	79.983	94.775	-47.952	-43.359	84.527	81.076	-43.818	-39.995	-39.267	-34.321	82.916	-35.210	-8191	255	
25505.262	1	1	0	0	0.1318	0.10099	0.10668	0.082656	0.087014	0.13803	0.34098	0.42098	0.16219	0.14933	0.11252	0.21019	0.13817	0.15496	0.089164	0.19581	-2.7833	-3.1042	-3.0187	-3.5438	-3.0542	-3.2667	-3.3396	-3.1	-3.3292	-3.1354	-3.0708	-3.325	-3.2125	-3.3896	-3.2271	-3.0104	153.848	76.102	161.325	187.765	109.013	231.114	214.469	296.156	14.889	-32.551	-8.846	195.155	241.127	199.050	145.619	-50.382	0.00017989	0.00039125	0.00011288	1299.6	2.76e-06	3.953e-06	1304.6	348.75	2.1692e-06	4.9467e-06	400.54	134	115.86	39.758	3.0508e-06	49.59	0.00032023	0.00027886	7.0939e-05	1313.2	3.3702e-06	3.013e-06	1317.8	353.37	3.2764e-06	2.9212e-06	405.26	136.9	118.71	40.687	2.9172e-06	50.624	136.828	24.101	19.857	-47.912	73.908	89.066	-48.082	-43.544	80.712	78.842	-43.876	-39.892	-39.124	-34.374	101.532	-34.987	-8191	255	
25505.383	1	1	0	0	0.061611	0.04998	0.13759	0.53153	0.14049	0.2459	0.20669	0.15837	0.09491	0.0798	0.037342	0.18493	0.33832	0.29182	0.10395	0.12737	-2.8812	-3.1146	-2.9729	-3.2458	-3.0333	-3.1229	-3.3083	-3.2167	-3.4479	-3.2146	-3.0979	-3.3958	-3.1042	-3.3812	-3.2333	-3.1229	223.310	0.835	-13.828	-45.765	288.293	70.964	250.444	262.681	31.697	164.047	191.637	213.310	-53.479	-7.934	64.747	112.327	0.00019215	0.00031246	0.00013433	1299.4	2.7595e-06	4.8619e-06	1304.4	347.49	2.5859e-06	4.7861e-06	398.57	133.22	116.21	40.018	3.3107e-06	49.446	0.00031519	0.00027973	7.3986e-05	1310.9	3.4248e-06	3.076e-06	1316.1	352.84	3.5342e-06	2.9163e-06	404.52	136.38	118.73	40.608	2.9105e-06	50.526	131.084	31.361	30.713	-48.258	87.011	83.290	-48.274	-43.476	80.477	76.043	-44.161	-39.845	-39.209	-34.519	93.466	-35.004	-8191	255	
25505.479	1	1	0	0	0.071132	0.084496	0.10883	0.29921	0.13992	0.17482	0.14216	0.21827	0.18603	0.068908	0.16756	0.071472	0.14633	0.35968	0.063212	0.064788	-2.7	-3.1042	-2.9875	-3.4354	-2.8833	-3.0958	-3.4646	-3.225	-3.3146	-3.2021	-3.1625	-3.2687	-3.05	-3.1021	-3.3708	-3.0521	46.720	173.351	-0.997	-53.772	262.114	62.113	9.234	261.298	-9.518	139.688	268.334	-37.234	119.420	-56.745	112.274	195.221	0.00017951	0.00052873	0.0001311	1297.6	2.8396e-06	5.2973e-06	1303.4	347.77	1.9425e-06	5.2814e-06	400.77	133.62	115.73	39.76	3.5245e-06	49.534	0.00031654	0.00028704	7.6836e-05	1310.6	3.3633e-06	3.0142e-06	1315.1	352.84	3.3907e-06	2.9017e-06	405.12	136.69	118.38	40.614	3.0041e-06	50.546	133.511	25.987	31.272	-48.082	99.243	101.519	-48.253	-43.428	84.567	91.762	-44.102	-39.833	-39.285	-34.550	90.598	-35.073	-8191	255	
#DATA ENDS
