BOXY.EXE: ISS Imagent and Oximeter Data Acquisition Program Version 0.80
Ascii Record File

#ACQ INFORMATION
2  Detector Channels 
16  External MUX Channels 
1  Auxiliary Channels 
5000  Waveform (CCF) Frequency (Hz)
1  Waveforms Skipped 
30  Waveforms Averaged 
1  Cycles Averaged 
16  Acquisitions per Waveform 
10.0806  Updata Rate (Hz) 

#FILE INFORMATION
TRUE -- External MUX Channel results are PARSED.
FALSE -- AC DC and Phase are NOT grouped.
TRUE -- Companion Program Settings File CREATED.
FALSE -- AC data not excluded
FALSE -- DC data not excluded
FALSE -- Phase data not excluded
FALSE -- Auxillary Chn. data not excluded
Tab delimiters

#CALIBRATION STATE
TRUE -- Waveform Calibration Values APPLIED.


#AUX CALIBRATION VALUES
Val Type	aux-1	

Term	1.0000e+00	
Factor	0.0000e+00	


#WF CALIBRATION VALUES
A = Detector Channel
Val Type	A-AC1	A-AC2	A-AC3	A-AC4	A-AC5	A-AC6	A-AC7	A-AC8	A-AC9	A-AC10	A-AC11	A-AC12	A-AC13	A-AC14	A-AC15	A-AC16	A-DC1	A-DC2	A-DC3	A-DC4	A-DC5	A-DC6	A-DC7	A-DC8	A-DC9	A-DC10	A-DC11	A-DC12	A-DC13	A-DC14	A-DC15	A-DC16	A-Ph1	A-Ph2	A-Ph3	A-Ph4	A-Ph5	A-Ph6	A-Ph7	A-Ph8	A-Ph9	A-Ph10	A-Ph11	A-Ph12	A-Ph13	A-Ph14	A-Ph15	A-Ph16	

Term	0.00000e+00	0.00000e+00	0.00000e+00	0.00000e+00	0.00000e+00	0.00000e+00	0.00000e+00	0.00000e+00	0.00000e+00	0.00000e+00	0.00000e+00	0.00000e+00	0.00000e+00	0.00000e+00	0.00000e+00	0.00000e+00	0.00000e+00	0.00000e+00	0.00000e+00	0.00000e+00	0.00000e+00	0.00000e+00	0.00000e+00	0.00000e+00	0.00000e+00	0.00000e+00	0.00000e+00	0.00000e+00	0.00000e+00	0.00000e+00	0.00000e+00	0.00000e+00	0.00000e+00	0.00000e+00	0.00000e+00	0.00000e+00	0.00000e+00	0.00000e+00	0.00000e+00	0.00000e+00	0.00000e+00	0.00000e+00	0.00000e+00	0.00000e+00	0.00000e+00	0.00000e+00	0.00000e+00	0.00000e+00	
Factor	1.00000e+00	1.00000e+00	1.00000e+00	1.00000e+00	1.00000e+00	1.00000e+00	1.00000e+00	1.00000e+00	1.00000e+00	1.00000e+00	1.00000e+00	1.00000e+00	1.00000e+00	1.00000e+00	1.00000e+00	1.00000e+00	1.00000e+00	1.00000e+00	1.00000e+00	1.00000e+00	1.00000e+00	1.00000e+00	1.00000e+00	1.00000e+00	1.00000e+00	1.00000e+00	1.00000e+00	1.00000e+00	1.00000e+00	1.00000e+00	1.00000e+00	1.00000e+00	X	X	X	X	X	X	X	X	X	X	X	X	X	X	X	X	

B = Detector Channel
Val Type	B-AC1	B-AC2	B-AC3	B-AC4	B-AC5	B-AC6	B-AC7	B-AC8	B-AC9	B-AC10	B-AC11	B-AC12	B-AC13	B-AC14	B-AC15	B-AC16	B-DC1	B-DC2	B-DC3	B-DC4	B-DC5	B-DC6	B-DC7	B-DC8	B-DC9	B-DC10	B-DC11	B-DC12	B-DC13	B-DC14	B-DC15	B-DC16	B-Ph1	B-Ph2	B-Ph3	B-Ph4	B-Ph5	B-Ph6	B-Ph7	B-Ph8	B-Ph9	B-Ph10	B-Ph11	B-Ph12	B-Ph13	B-Ph14	B-Ph15	B-Ph16	

Term	0.00000e+00	0.00000e+00	0.00000e+00	0.00000e+00	0.00000e+00	0.00000e+00	0.00000e+00	0.00000e+00	0.00000e+00	0.00000e+00	0.00000e+00	0.00000e+00	0.00000e+00	0.00000e+00	0.00000e+00	0.00000e+00	0.00000e+00	0.00000e+00	0.00000e+00	0.00000e+00	0.00000e+00	0.00000e+00	0.00000e+00	0.00000e+00	0.00000e+00	0.00000e+00	0.00000e+00	0.00000e+00	0.00000e+00	0.00000e+00	0.00000e+00	0.00000e+00	-1.03364e+02	-1.28589e+02	-1.22771e+02	-1.82799e+02	-5.29327e+01	-6.36955e+01	-1.54998e+02	-1.62015e+02	-5.44320e+01	-6.23480e+01	-1.71853e+02	-1.69414e+02	-1.80018e+02	-1.77411e+02	-5.74280e+01	-1.48938e+02	
Factor	1.60856e-05	1.42380e-04	4.19562e-05	1.84207e-01	1.34200e-06	1.50499e-06	1.63323e-01	4.88771e-02	1.25689e-06	1.78350e-06	9.25773e-02	2.71365e-02	2.66344e-02	8.67124e-03	1.27850e-06	1.23973e-02	7.02452e-06	9.64614e-06	2.71299e-06	9.29001e-02	1.02271e-07	1.07808e-07	7.77924e-02	2.48455e-02	1.01700e-07	1.07589e-07	4.55974e-02	1.35142e-02	1.37367e-02	4.44083e-03	1.04084e-07	6.15744e-03	X	X	X	X	X	X	X	X	X	X	X	X	X	X	X	X	



#DISTANCE SETTINGS
A = Detector Channel
A-1	A-2	A-3	A-4	A-5	A-6	A-7	A-8	A-9	A-10	A-11	A-12	A-13	A-14	A-15	A-16	

2.5000e+00	3.0000e+00	2.5000e+00	3.0000e+00	2.0000e+00	3.0000e+00	1.5000e+00	3.0000e+00	3.0000e+00	3.0000e+00	3.0000e+00	3.0000e+00	3.0000e+00	3.0000e+00	1.5000e+00	3.0000e+00	

B = Detector Channel
B-1	B-2	B-3	B-4	B-5	B-6	B-7	B-8	B-9	B-10	B-11	B-12	B-13	B-14	B-15	B-16	

1.0000e+01	1.0000e+01	1.0000e+01	1.4400e+00	1.0000e+01	1.0000e+01	1.5100e+00	1.9400e+00	1.0000e+01	1.0000e+01	1.9900e+00	2.4900e+00	2.4100e+00	2.9000e+00	1.0000e+01	2.9800e+00	




#DATA BEGINS
time	group	step	mark	flag	A-AC1	A-AC2	A-AC3	A-AC4	A-AC5	A-AC6	A-AC7	A-AC8	A-AC9	A-AC10	A-AC11	A-AC12	A-AC13	A-AC14	A-AC15	A-AC16	A-DC1	A-DC2	A-DC3	A-DC4	A-DC5	A-DC6	A-DC7	A-DC8	A-DC9	A-DC10	A-DC11	A-DC12	A-DC13	A-DC14	A-DC15	A-DC16	A-Ph1	A-Ph2	A-Ph3	A-Ph4	A-Ph5	A-Ph6	A-Ph7	A-Ph8	A-Ph9	A-Ph10	A-Ph11	A-Ph12	A-Ph13	A-Ph14	A-Ph15	A-Ph16	B-AC1	B-AC2	B-AC3	B-AC4	B-AC5	B-AC6	B-AC7	B-AC8	B-AC9	B-AC10	B-AC11	B-AC12	B-AC13	B-AC14	B-AC15	B-AC16	B-DC1	B-DC2	B-DC3	B-DC4	B-DC5	B-DC6	B-DC7	B-DC8	B-DC9	B-DC10	B-DC11	B-DC12	B-DC13	B-DC14	B-DC15	B-DC16	B-Ph1	B-Ph2	B-Ph3	B-Ph4	B-Ph5	B-Ph6	B-Ph7	B-Ph8	B-Ph9	B-Ph10	B-Ph11	B-Ph12	B-Ph13	B-Ph14	B-Ph15	B-Ph16	aux-1	digaux	

16181.978	1	1	0	768	0.21098	0.156	0.031426	0.17947	0.049083	0.064655	0.08645	0.10632	0.19494	0.19182	0.16522	0.31168	0.044007	0.042144	0.15711	0.118	-2.8625	-2.9146	-3.2083	-3.1229	-2.9708	-3.2458	-3.1688	-2.8354	-3.3771	-2.9938	-3.1833	-3.1333	-3.0167	-3.1896	-3.1396	-2.9583	129.168	-31.398	182.982	17.119	278.336	149.637	-21.892	308.344	304.946	281.904	43.378	89.899	-5.581	95.066	296.442	245.977	3.5391e-05	0.00018839	6.9343e-05	0.44781	1.2748e-06	2.7291e-06	0.30125	0.014905	7.647e-07	4.2841e-06	0.097726	0.0069369	0.08555	0.034294	4.2839e-06	0.035829	0.0010812	0.0013958	0.00038755	13.217	1.4875e-05	1.5498e-05	11.746	3.5826	1.4774e-05	1.5683e-05	6.6232	2.0884	2.0198	0.66102	1.5168e-05	0.88684	203.140	56.255	133.325	260.434	138.851	64.029	254.251	-15.878	11.840	157.987	224.321	56.263	270.038	-21.155	56.741	94.012	-8191	255	
16182.074	1	1	0	0	0.22927	0.11261	0.15419	0.14404	0.20051	0.11701	0.091468	0.20409	0.025039	0.18282	0.10626	0.10901	0.19292	0.099882	0.15978	0.33638	-2.6063	-3.1125	-3.2687	-3.2021	-3.0062	-3.3354	-3.2417	-3.0271	-3.3729	-3.0917	-3.1937	-3.2562	-2.9479	-3.4958	-3.3187	-3	-2.577	209.991	-5.436	252.705	82.451	42.708	256.114	149.371	126.985	112.543	134.231	107.918	233.935	281.298	132.690	148.981	3.442e-05	0.00092502	3.0615e-05	0.34292	2.6265e-06	1.5312e-06	0.31046	0.15357	2.6157e-06	5.7288e-06	0.33957	0.075774	0.015318	0.017453	4.5683e-06	0.033352	0.001078	0.0014435	0.00040143	13.785	1.5677e-05	1.6629e-05	12.93	3.9347	1.6419e-05	1.7401e-05	7.3262	2.2231	2.2025	0.7096	1.6343e-05	0.98197	322.500	225.500	35.114	283.547	106.283	83.813	89.482	-5.083	87.912	16.082	203.795	2.728	-21.238	264.608	34.803	228.176	-8191	255	
16182.170	1	1	0	0	0.26457	0.12829	0.21868	0.06435	0.065841	0.09741	0.048074	0.039931	0.11286	0.15282	0.10442	0.17423	0.12267	0.14772	0.10206	0.33498	-2.8771	-3.1333	-3.1542	-3.3	-3.1417	-3.1667	-3.3208	-3.0646	-3.3229	-3.0521	-3.2104	-3.3104	-3.125	-3.2771	-3.2812	-2.9771	131.055	259.832	87.285	-68.487	276.084	-28.578	29.594	29.327	258.275	234.241	230.700	-17.910	-77.599	154.656	118.942	233.434	7.4182e-05	0.00045533	0.00016982	0.15469	1.8909e-06	3.3496e-06	0.61066	0.21584	6.3732e-06	1.3896e-06	0.056197	0.051345	0.10163	0.013215	1.2796e-06	0.035712	0.0011318	0.0015739	0.0004169	14.601	1.5625e-05	1.6262e-05	11.846	3.7011	1.533e-05	1.6e-05	6.5296	2.0998	1.9959	0.62977	1.4713e-05	0.87288	-26.933	-1.789	-43.634	269.466	199.478	69.832	-22.710	-60.105	56.244	103.556	101.200	23.946	-72.686	279.398	39.164	217.209	-8191	255	
16182.266	1	1	0	0	0.19731	0.1279	0.15007	0.17925	0.2848	0.27149	0.12862	0.15952	0.14976	0.15272	0.23341	0.25045	0.027188	0.12932	0.168	0.16362	-2.9354	-3.0312	-2.9042	-3.25	-3.1083	-3.2333	-3.2188	-2.8083	-3.3708	-3.2083	-2.9896	-3.2479	-3.2146	-3.1396	-3.4542	-2.9854	220.164	372.903	324.219	193.761	333.150	351.762	140.137	45.440	124.774	251.521	342.059	257.059	351.837	329.977	182.172	277.669	5.3879e-05	0.00024832	0.00011998	0.52552	6.0126e-06	4.0041e-06	0.42644	0.077434	2.0078e-06	3.6143e-06	0.23456	0.034054	0.036626	0.011037	1.9228e-06	0.015376	0.0010022	0.0014257	0.00038253	12.935	1.4703e-05	1.5074e-05	11.932	3.586	1.4515e-05	1.5384e-05	6.5095	1.9645	1.9482	0.62911	1.4675e-05	0.88485	314.983	130.232	338.080	336.312	27.627	44.222	164.014	33.536	51.654	45.006	334.685	313.043	25.688	218.154	149.655	229.520	-8191	255	
16182.362	1	1	0	0	0.21475	0.22216	0.16792	0.055516	0.18482	0.22276	0.24887	0.15365	0.23653	0.087158	0.057686	0.17781	0.05551	0.1701	0.14643	0.079228	-2.8583	-3.0604	-3.0875	-3.3896	-3.1646	-2.9667	-3.175	-3.0146	-3.2875	-3.1375	-2.9333	-3.2083	-3.0062	-3.0458	-3.2562	-2.8729	520.716	298.350	450.356	181.890	300.078	252.916	196.597	240.461	233.420	363.538	503.937	355.037	345.340	285.873	354.692	341.129	2.6037e-05	0.00031046	0.00012516	0.30895	4.8172e-06	3.2793e-06	0.48731	0.079872	3.5213e-06	1.9507e-06	0.18277	0.011725	0.018622	0.0071112	1.8877e-06	0.043063	0.00099018	0.0014148	0.00037296	12.992	1.4e-05	1.4415e-05	10.621	3.2196	1.3131e-05	1.3401e-05	5.6287	1.6822	1.7769	0.5304	1.265e-05	0.73918	487.162	466.435	307.851	364.468	384.692	362.635	323.903	186.748	395.433	181.471	241.392	200.430	390.653	399.328	397.402	239.050	-8191	255	
16182.459	1	1	0	0	0.16927	0.17404	0.31308	0.25549	0.20996	0.13284	0.097918	0.089431	0.12212	0.036233	0.14945	0.15449	0.065724	0.10365	0.11049	0.047038	-2.7875	-3.0187	-3.0771	-3.1771	-3.1083	-3.1063	-3.1854	-3.0062	-3.3729	-3.2792	-3.0042	-3.1	-3.0458	-3.0438	-3.1396	-3.0354	180.300	100.947	-117.349	190.001	-38.621	10.691	84.716	182.863	-137.168	117.182	-108.137	162.278	28.150	70.193	-129.224	53.997	2.9375e-05	0.0005492	3.1698e-05	0.51013	3.4729e-06	2.7274e-06	0.51614	0.1132	5.8216e-07	4.0785e-06	0.32557	0.045044	0.031546	0.020601	6.3014e-06	0.04443	0.00085439	0.0011971	0.00032006	11.248	1.2115e-05	1.2643e-05	10.016	3.0755	1.2065e-05	1.2893e-05	5.5453	1.6298	1.7347	0.51778	1.2182e-05	0.70585	204.243	-80.667	113.113	-0.166	-41.474	-92.626	-65.119	-127.056	-38.065	112.720	-71.422	22.446	-28.168	-96.458	40.882	142.859	-8191	255	
16182.579	1	1	0	0	0.15713	0.09244	0.27581	0.15304	0.23145	0.13558	0.084091	0.11329	0.22702	0.37557	0.055103	0.1495	0.07497	0.05477	0.098656	0.22303	-2.6083	-3.225	-3.1063	-3.1583	-3.2062	-3.0979	-3.1833	-3.1729	-3.1042	-3.3187	-3.0875	-3.2708	-3.2271	-2.9229	-3.1875	-3.1833	216.341	313.589	42.850	245.669	267.618	128.868	134.647	194.712	22.013	289.290	291.061	48.670	290.874	298.561	317.890	160.564	2.0706e-05	0.00023696	0.00011794	0.41798	8.2821e-06	2.458e-06	0.76033	0.088501	1.6459e-06	1.1618e-06	0.23268	0.047852	0.08245	0.014518	6.6645e-06	0.017692	0.00078457	0.001214	0.00031087	10.715	1.1756e-05	1.2182e-05	9.3053	2.8487	1.1483e-05	1.1896e-05	5.0569	1.4997	1.6575	0.48663	1.159e-05	0.69137	346.196	330.980	311.688	224.410	25.703	21.505	281.688	16.493	7.991	169.784	308.760	266.444	255.907	236.758	344.795	44.900	-8191	255	
16182.674	1	1	0	0	0.051663	0.035239	0.20258	0.26076	0.1532	0.13671	0.18907	0.089833	0.10636	0.051626	0.14502	0.21976	0.24451	0.17076	0.10925	0.1191	-2.6688	-3.5021	-3.0167	-3.2354	-3.15	-2.9604	-3.35	-3.0687	-3.0833	-3.475	-2.9146	-2.9396	-3.25	-2.9167	-3.3479	-3.1792	209.036	190.885	32.313	278.932	134.157	213.058	333.606	93.866	13.347	344.734	49.628	16.854	51.244	267.061	18.775	263.999	1.7887e-05	0.00021924	9.5353e-05	0.11797	5.1129e-06	1.353e-06	0.06845	0.039127	5.4339e-06	4.2155e-06	0.25556	0.07579	0.051602	0.020703	3.1077e-06	0.023649	0.00077238	0.0011545	0.00030385	10.555	1.1301e-05	1.2279e-05	8.8892	2.9818	1.1393e-05	1.201e-05	5.0638	1.4821	1.6141	0.48713	1.1524e-05	0.66262	295.502	316.324	227.615	289.341	340.891	320.623	257.262	14.772	80.163	119.908	271.553	299.513	287.235	262.401	19.602	32.417	-8191	255	
16182.770	1	1	0	0	0.044781	0.25129	0.061408	0.094583	0.22527	0.2313	0.070176	0.17996	0.13554	0.078129	0.092694	0.082347	0.24097	0.15631	0.3628	0.22657	-2.7125	-3.3438	-3.0542	-3.2854	-3.2708	-2.975	-3.2542	-3.2375	-2.9646	-3.1771	-2.8417	-3.2125	-3.3875	-2.9917	-3.3167	-3.175	362.117	265.550	303.707	316.595	256.454	461.105	294.338	185.300	212.912	311.600	429.577	382.531	407.937	203.277	229.858	341.009	2.4206e-05	0.00060413	1.9057e-05	0.15569	2.6483e-06	2.4175e-06	0.084756	0.063659	1.1739e-06	5.7854e-06	0.2546	0.062776	0.047639	0.016901	3.1813e-06	0.0054538	0.00077997	0.0011602	0.0002994	10.252	1.1227e-05	1.2039e-05	8.67	2.8868	1.1299e-05	1.2131e-05	5.1264	1.4844	1.6775	0.50714	1.185e-05	0.70156	483.008	309.863	437.163	337.680	361.014	339.739	330.294	182.059	367.447	363.532	265.396	286.423	437.957	380.265	395.116	310.284	-8191	255	
16182.866	1	1	0	0	0.17565	0.21705	0.040594	0.018529	0.21265	0.062773	0.02002	0.036266	0.11849	0.14166	0.073118	0.059391	0.2874	0.17199	0.12258	0.07709	-2.7167	-3.3208	-3.1271	-3.1437	-3.3771	-3.0583	-3.4271	-3.1271	-3.0625	-3.25	-3.2521	-3.0812	-3.2229	-2.9896	-3.0687	-3.3083	99.930	90.526	9.977	145.077	61.549	100.477	118.404	204.381	233.795	-18.960	-62.161	59.519	-21.171	18.283	211.389	139.000	4.8502e-05	0.00047404	7.7777e-05	0.31656	3.82e-06	3.8183e-06	0.37976	0.23756	3.0116e-06	5.786e-06	0.16537	0.097303	0.075408	0.014125	7.2554e-07	0.033414	0.00080729	0.0011715	0.00032507	10.677	1.1953e-05	1.2677e-05	9.3573	3.2472	1.201e-05	1.2881e-05	5.5342	1.6438	1.7554	0.54034	1.2638e-05	0.7372	130.337	16.093	240.641	56.871	41.523	151.675	-23.302	-45.388	42.051	15.145	196.638	248.487	-60.591	268.946	-1.057	202.596	-8191	255	
16182.962	1	1	0	0	0.34325	0.14594	0.12327	0.080222	0.11757	0.23243	0.05146	0.027518	0.12794	0.10117	0.073021	0.17593	0.054721	0.08577	0.10669	0.15798	-2.5521	-3.3104	-3.0229	-3.0792	-3.3292	-3.0292	-3.1458	-3.2313	-3.025	-3.25	-3.2146	-3.0792	-3.3104	-3.0812	-3.2646	-3.3042	111.967	43.905	232.709	-45.039	37.592	77.657	213.502	116.294	-12.615	150.346	202.518	-27.901	46.025	66.313	198.112	73.416	1.76e-05	0.0003157	9.6449e-05	0.39474	4.2138e-06	4.231e-06	0.61041	0.093033	3.6361e-07	3.6639e-06	0.25818	0.024414	0.044315	0.018704	3.4911e-06	0.024127	0.00085791	0.0012149	0.00035584	11.499	1.2789e-05	1.3638e-05	9.6845	3.3118	1.27e-05	1.356e-05	5.8289	1.7185	1.9335	0.57767	1.3655e-05	0.79518	26.979	206.579	-56.664	5.148	57.567	62.952	-43.056	-60.462	75.677	97.868	68.158	280.165	-58.854	-40.700	65.346	-77.866	-8191	255	
16183.058	1	1	0	0	0.23642	0.065039	0.099074	0.21143	0.15455	0.13837	0.0069021	0.14882	0.12469	0.16309	0.16158	0.096277	0.14443	0.048295	0.15942	0.14395	-2.7542	-3.2271	-3.2271	-3.0062	-3.2646	-3.1583	-3.1604	-3.2833	-3.1521	-3.2208	-3.3792	-3.0021	-3.2042	-3.1458	-3.05	-3.3479	75.412	27.094	68.963	35.333	72.962	107.098	-74.037	21.816	-117.444	155.633	3.402	-136.793	197.604	14.424	86.357	-135.514	3.3009e-05	0.00019931	4.2097e-05	0.38394	3.1866e-06	7.6269e-06	0.64921	0.14486	2.1769e-06	3.7297e-06	0.16099	0.034556	0.039453	0.023258	1.379e-06	0.025168	0.00094557	0.0012895	0.00037888	12.696	1.3846e-05	1.524e-05	10.795	3.6376	1.4096e-05	1.4626e-05	6.2103	1.841	1.8968	0.58645	1.3669e-05	0.80927	100.376	-129.932	111.123	46.368	-60.320	13.867	-122.859	-133.991	105.589	91.335	170.595	6.094	26.563	187.028	-102.015	-68.244	-8191	255	
16183.154	1	1	0	0	0.15329	0.15718	0.10295	0.31005	0.10094	0.22364	0.062242	0.15394	0.14764	0.093973	0.21613	0.20269	0.13537	0.12375	0.17971	0.14928	-2.6167	-3.225	-3.3333	-2.9396	-3.3458	-3.2542	-3.0229	-3.3875	-3.0208	-3.1937	-3.1688	-3.1208	-3.3063	-3.1292	-3.1396	-3.3771	90.658	267.935	185.524	191.807	150.576	202.695	364.988	104.518	239.071	156.378	180.114	17.114	104.137	110.666	188.940	14.423	6.7703e-05	0.00019317	9.9277e-05	0.32818	3.7304e-06	2.6372e-06	0.30831	0.055841	2.2312e-06	4.0626e-06	0.33019	0.035	0.0088816	0.0074949	1.2471e-06	0.028311	0.00091889	0.0012438	0.00037553	11.841	1.3041e-05	1.3323e-05	9.5918	3.1961	1.2366e-05	1.323e-05	5.3853	1.6336	1.6437	0.56792	1.1905e-05	0.71387	65.768	295.143	246.337	324.146	69.734	5.983	231.290	23.961	91.868	33.347	229.708	303.063	40.120	33.241	9.623	19.842	-8191	255	
16183.275	1	1	0	0	0.078504	0.18701	0.1602	0.10876	0.13751	0.18454	0.17436	0.20201	0.027314	0.2885	0.073481	0.097263	0.29966	0.14674	0.088828	0.17341	-2.6063	-3.1521	-3.2333	-3.1333	-3.2646	-3.2167	-3.0458	-3.5354	-3.0208	-3.1479	-3.3083	-2.8854	-3.275	-3.1542	-3.0104	-3.3792	203.927	132.503	166.275	137.615	52.639	239.077	163.471	229.313	89.467	31.897	239.782	112.271	213.797	-79.232	-87.215	121.180	1.7991e-05	0.00036619	0.00019861	677.13	5.276e-06	1.4486e-06	385.22	164.14	4.5432e-07	4.3531e-06	100.81	28.982	45.236	17.661	1.4724e-06	14.798	0.00081897	0.0011039	0.00032614	653.91	1.159e-05	1.1885e-05	376.44	159.63	1.1146e-05	1.153e-05	99.885	29.474	45.093	17.453	1.0627e-05	14.904	-9.358	-114.819	-84.886	-107.167	-2.211	-1.471	-108.338	-101.952	-47.977	-55.775	-103.730	-99.921	-97.515	-92.729	43.074	-95.709	-8191	255	
16183.371	1	1	0	0	0.087621	0.065433	0.12056	0.1993	0.39027	0.33849	0.13142	0.042734	0.098175	0.27088	0.1449	0.31254	0.13233	0.087913	0.026547	0.052589	-2.6646	-3.2104	-3.4062	-3.2313	-3.5354	-3.1042	-3.2083	-3.5042	-3.125	-3.0958	-3.2292	-3.0417	-3.2854	-3.1979	-2.9104	-3.3625	238.616	175.158	115.544	200.563	-69.723	21.843	192.689	212.026	7.223	39.242	74.858	205.756	42.321	108.565	33.541	182.482	8.1321e-05	0.00020451	0.00015773	678.34	2.3723e-06	7.9388e-07	388.54	165.99	1.7849e-06	2.974e-06	100.55	28.413	45.746	17.309	1.5904e-06	14.224	0.00075537	0.00099008	0.00029981	657.21	1.0103e-05	1.022e-05	378.61	160.83	9.6123e-06	9.4488e-06	99.969	28.611	45.128	16.924	8.1927e-06	14.072	227.237	162.037	-48.294	-107.256	65.101	-66.822	-108.249	-101.978	-52.185	92.706	-104.384	-99.899	-97.754	-92.975	-14.684	-96.299	-8191	255	
16183.467	1	1	0	0	0.053908	0.092089	0.11458	0.37917	0.094797	0.16574	0.22899	0.13399	0.12793	0.20353	0.15527	0.086284	0.10434	0.050356	0.20227	0.18372	-2.7292	-3.0875	-3.2313	-3.1083	-3.1813	-3.2667	-3.0438	-3.4062	-3.35	-3.0229	-3.3604	-3.1271	-3.3521	-3.4979	-3.1167	-3.3167	194.186	-3.592	-71.266	-110.251	42.961	119.881	198.169	165.601	26.365	-80.474	24.148	-41.655	154.919	137.086	-96.317	228.761	4.6451e-05	0.00031731	2.3256e-05	703.23	6.4352e-07	2.3464e-06	401.57	170.59	1.3056e-06	4.6727e-06	103.34	29.197	47.435	16.97	6.2291e-07	13.645	0.00055148	0.00070521	0.00020819	676.97	7.1997e-06	7.2099e-06	388.21	164.68	7.5364e-06	6.8297e-06	101.02	28.729	46.719	16.667	6.34e-06	13.395	-82.594	-76.396	-7.406	-107.298	12.189	45.585	-108.616	-102.371	-80.860	93.579	-104.383	-100.181	-98.018	-92.458	-59.201	-96.653	-8191	255	
16183.539	1	1	0	0	0.036573	0.16181	0.1706	0.19283	0.035636	0.19553	0.10838	0.30433	0.029794	0.090001	0.14054	0.081321	0.19454	0.16242	0.22062	0.16862	-2.7313	-3.025	-3.4208	-3.1417	-3.1125	-3.2812	-3.0292	-3.2812	-3.1312	-3.0771	-3.3604	-3.0458	-3.2042	-3.3812	-2.9646	-3.4292	77.136	-48.731	-32.608	236.277	117.861	230.103	-65.885	156.079	100.856	13.714	158.998	225.015	113.046	167.627	122.497	219.667	8.1508e-05	0.00029187	2.2565e-05	727.3	2.5199e-06	3.517e-06	414.74	176.01	2.6797e-06	1.7158e-06	105.56	29.74	49.56	17.376	1.2869e-06	13.616	0.00045232	0.00058313	0.00018368	697.85	5.9859e-06	6.15e-06	398.86	170.34	6.1105e-06	5.4996e-06	102.21	29.17	48.517	16.889	4.7987e-06	13.349	-117.979	220.777	-49.569	-107.359	19.892	6.913	-108.559	-102.138	14.349	17.650	-105.197	-100.249	-98.338	-93.508	127.340	-96.120	-8191	255	
16183.660	1	1	0	0	0.091802	0.24395	0.18661	0.12314	0.13464	0.1726	0.26904	0.10767	0.29995	0.10671	0.18613	0.27674	0.28511	0.20238	0.21474	0.22132	-2.7562	-3.0125	-3.4771	-3.2604	-3.125	-3.3542	-2.9021	-3.2562	-3.1104	-3.2062	-3.2188	-3.0792	-3.1625	-3.4396	-3.1521	-3.2375	27.576	-25.195	7.487	68.917	70.388	164.627	202.811	-108.162	-19.207	-39.297	-30.714	129.686	-72.317	12.160	-101.147	92.020	8.5447e-05	0.0001514	9.5499e-05	731.64	2.5911e-07	2.8182e-06	412.1	176.42	9.394e-07	1.0421e-06	105.93	30.442	50.06	18.063	1.8589e-06	14.811	0.00034224	0.00043458	0.00013361	700.2	4.6395e-06	4.7521e-06	397.31	169.33	5.616e-06	4.961e-06	102.35	29.85	48.825	17.637	4.7376e-06	14.348	239.598	0.176	-24.891	-107.122	171.839	47.360	-108.692	-102.371	99.889	47.903	-104.986	-100.538	-98.208	-93.007	73.510	-96.337	-8191	255	
16183.754	1	1	0	0	0.15169	0.22539	0.060255	0.20992	0.20007	0.20899	0.066907	0.088844	0.12784	0.050004	0.1676	0.086166	0.11004	0.094174	0.23037	0.36634	-2.7792	-2.8542	-3.275	-3.225	-3.1667	-3.5417	-3.0687	-3.2604	-3.2979	-3.0708	-3.1708	-3.1125	-3	-3.3521	-3.0792	-3.1229	-33.398	48.081	-26.507	140.564	-30.306	-117.099	129.505	64.088	11.041	164.470	-26.916	151.543	-119.206	-71.784	-11.152	-10.130	5.2113e-05	0.00023627	0.00011173	721.87	2.3336e-06	1.2581e-06	410.03	176.1	7.8765e-07	2.3405e-06	106.76	30.809	50.471	18.037	1.8179e-06	14.513	0.00033836	0.00044151	0.00012269	689.32	4.4948e-06	4.7584e-06	395.43	169.09	5.2503e-06	4.7167e-06	102.89	30.108	49.09	17.635	4.5997e-06	14.121	-104.355	33.575	-32.101	-107.283	-59.975	61.987	-108.494	-102.086	223.414	118.828	-105.112	-100.141	-98.122	-93.165	77.725	-96.495	-8191	255	
16183.850	1	1	0	0	0.031214	0.058425	0.096657	0.15021	0.088168	0.046396	0.13054	0.20387	0.16195	0.09684	0.19344	0.14294	0.11987	0.065077	0.18459	0.17214	-2.9146	-2.8042	-3.2417	-3.1292	-3.0187	-3.4542	-3.2167	-3.1458	-3.2562	-3.1729	-3.3125	-3.2271	-2.9208	-3.2854	-3.1958	-3.0438	169.150	-73.164	203.626	-48.518	138.291	34.229	-7.632	10.796	32.314	119.081	167.194	66.380	109.643	88.756	-6.183	108.651	4.3743e-05	0.00023254	7.784e-05	726.7	4.056e-06	2.2616e-06	416.1	176.02	2.3453e-06	5.0258e-07	106.81	31.003	51.647	17.749	2.0218e-06	14.303	0.00032288	0.00041251	0.00011587	696.1	4.3342e-06	4.3092e-06	400.63	170.46	5.1414e-06	4.2888e-06	103.18	30.342	50.052	17.384	4.3238e-06	13.844	203.269	-9.257	-14.742	-106.926	2.993	15.656	-108.314	-102.015	146.133	-15.940	-104.845	-100.593	-98.313	-92.957	133.606	-96.331	-8191	255	
16183.948	1	1	0	0	0.067069	0.10937	0.10919	0.31292	0.19984	0.2225	0.11965	0.30095	0.06549	0.05289	0.28241	0.03921	0.13712	0.24726	0.19774	0.027631	-2.7687	-3.0833	-3.1417	-3.3229	-3.1	-3.2062	-3.15	-3.3125	-3.4188	-3.0979	-3.3542	-3.3167	-2.8125	-3.4958	-3.2458	-3.0125	185.249	60.116	-118.997	208.055	161.185	200.768	218.995	206.107	-50.562	-102.048	-80.781	166.744	46.922	102.059	165.230	-69.085	6.6327e-05	0.00021276	6.7556e-05	734.85	4.995e-07	1.4577e-06	418.03	180.63	1.5503e-06	2.9608e-06	105.88	31.051	52.174	17.907	1.6119e-06	14.037	0.00029832	0.00037467	0.00010626	703.1	4.0389e-06	4.1803e-06	402.34	172.85	4.7331e-06	4.3914e-06	102.79	30.451	50.694	17.423	5.351e-06	13.675	214.457	40.098	-10.961	-107.134	-19.382	137.527	-108.948	-102.392	-70.399	103.472	-105.083	-100.988	-98.138	-93.298	-106.147	-96.707	-8191	255	
16184.067	1	1	0	0	0.028209	0.081746	0.068362	0.16802	0.056258	0.19975	0.26802	0.064848	0.12459	0.12598	0.069481	0.034215	0.041165	0.20504	0.033939	0.13481	-2.9667	-2.8792	-3.0271	-3.275	-3.0229	-3.2375	-3.2917	-2.9417	-3.2833	-3.2854	-3.2375	-3.4167	-3.1896	-3.3354	-3.5438	-2.9625	97.844	-93.760	-90.901	196.862	190.126	151.395	169.472	152.574	118.875	83.046	-97.786	227.040	221.130	61.953	110.445	171.033	9.5462e-05	7.9137e-05	4.4261e-05	743.02	1.6986e-06	9.279e-07	420.27	179.93	3.2685e-06	5.4772e-06	106.95	31.946	54.582	18.047	2.2795e-06	13.701	0.00031915	0.00040978	0.00010923	708.68	4.253e-06	4.3379e-06	404.57	173.4	5.1672e-06	4.1736e-06	103.79	31.267	52.916	17.484	4.7211e-06	13.322	226.317	16.465	-41.243	-107.208	13.367	-39.532	-108.782	-102.136	230.001	44.424	-105.260	-100.522	-98.395	-93.481	-45.385	-96.833	-8191	255	
16184.139	1	1	0	0	0.088277	0.33428	0.22678	0.23316	0.1074	0.046683	0.26596	0.10871	0.15528	0.13007	0.018541	0.090489	0.10801	0.18253	0.033853	0.22656	-3.1167	-2.9417	-3.2396	-3.3167	-3.0292	-3.2396	-3.1312	-3.1229	-3.2917	-3.2167	-3.0187	-3.2417	-3.1854	-3.3021	-3.2167	-2.8417	200.358	-96.899	171.359	107.859	52.384	110.907	-10.587	206.840	71.570	-36.648	183.683	-7.023	97.236	86.767	145.632	12.500	7.6061e-05	0.00033301	9.0263e-05	758.11	2.3425e-06	3.1652e-06	429.5	186.78	1.0357e-06	2.3894e-06	110.21	34.325	59.226	18.964	1.7671e-06	14.088	0.00030232	0.00038647	0.00010139	722.51	4.1196e-06	4.0911e-06	412.64	179.99	4.2809e-06	4.3415e-06	106.86	33.58	57.266	18.46	5.0015e-06	13.674	-115.835	19.097	-11.461	-107.410	-87.644	0.633	-108.970	-102.391	1.262	-56.914	-104.245	-101.253	-98.558	-94.028	14.910	-97.058	-8191	255	
16184.259	1	1	0	0	0.079347	0.18853	0.30306	0.15206	0.15983	0.18223	0.32489	0.064526	0.055894	0.109	0.033577	0.054587	0.34202	0.12783	0.23061	0.22247	-2.8271	-3.1792	-3.125	-3.4167	-2.9875	-3.4021	-3.3833	-2.9708	-3.3187	-3.1312	-2.9917	-3.4354	-3.0458	-3.0125	-3.1708	-2.9771	177.107	-75.369	13.471	194.233	33.659	28.620	203.560	33.932	31.819	-72.192	76.351	-25.529	-96.031	-17.539	43.817	70.665	0.00010533	0.00024354	8.3577e-05	767.61	3.8164e-06	2.7959e-06	439.28	190.05	1.6485e-06	4.6301e-06	112.53	35.222	60.39	19.6	1.7226e-07	14.407	0.00029089	0.00035385	9.9533e-05	732.99	3.934e-06	4.1776e-06	419.68	183.65	3.971e-06	5.1011e-06	109.05	34.254	58.411	19.068	4.3455e-06	14.08	234.061	-42.327	19.750	-107.336	22.855	31.503	-109.068	-102.193	-36.522	75.592	-104.358	-100.997	-98.656	-94.143	60.169	-96.864	-8191	255	
16184.355	1	1	0	0	0.12697	0.28386	0.074394	0.23592	0.10426	0.184	0.17986	0.18975	0.15904	0.092597	0.24796	0.23577	0.14107	0.1749	0.17434	0.17538	-2.8521	-3.1396	-3.0833	-3.25	-3.1083	-3.0792	-3.2812	-2.9437	-3.1854	-3.0458	-2.8646	-3.2708	-3.1979	-3.2438	-3.3708	-3.0062	203.842	163.626	165.336	132.938	-0.482	-79.796	143.038	-91.908	-105.988	108.088	-91.789	64.659	111.727	88.464	206.450	-57.711	9.597e-05	0.00021274	7.9382e-05	777.58	3.2495e-06	2.5479e-06	441.07	197.72	2.3871e-06	9.5254e-07	115.54	36.818	63.876	20.495	2.451e-06	14.658	0.00028862	0.00034407	9.4695e-05	742.83	3.6997e-06	3.8526e-06	423.78	189.34	3.6796e-06	4.3222e-06	111.28	35.935	61.841	19.94	4.6563e-06	14.237	219.788	-51.966	-67.637	-107.411	19.088	-45.670	-108.821	-102.369	-61.745	68.725	-105.703	-101.308	-98.757	-93.846	-12.384	-97.606	-8191	255	
16184.452	1	1	0	0	0.21258	0.064109	0.17474	0.12159	0.062597	0.16941	0.24974	0.17101	0.10186	0.15781	0.18766	0.089623	0.20953	0.12453	0.23428	0.091845	-2.9583	-3.1729	-3.1875	-3.2833	-3.0292	-3.0896	-3.2708	-2.9125	-3.1417	-3.4062	-3.0229	-3.2875	-3.0979	-3.1958	-3.35	-3.1604	93.473	137.822	119.836	121.665	-13.025	100.954	17.400	177.711	128.921	107.022	195.969	198.946	220.231	-35.965	-66.270	34.773	5.4154e-05	0.00012252	8.2332e-05	786.62	1.1146e-06	1.946e-06	441.14	200.04	1.0143e-06	1.367e-06	118.24	39.247	68.053	21.843	2.529e-06	15.235	0.00027627	0.00033287	9.1535e-05	748.09	3.9498e-06	3.5961e-06	422.62	191.54	3.6133e-06	4.8366e-06	113.71	38.206	65.689	21.141	4.4771e-06	14.907	221.182	92.581	-24.077	-107.450	-42.543	50.339	-108.479	-102.781	-1.918	76.061	-105.248	-101.035	-99.300	-94.732	43.903	-97.864	-8191	255	
16184.548	1	1	0	0	0.047239	0.13272	0.15443	0.12043	0.13001	0.31442	0.10309	0.16439	0.05937	0.12271	0.16483	0.084652	0.2296	0.14352	0.23333	0.21656	-3.025	-3.2438	-2.9375	-3.45	-3.2562	-3.1021	-3.3375	-3.1188	-3.2167	-3.3688	-3.0104	-3.3229	-3.1792	-3.1729	-3.3417	-3.0938	118.711	25.571	54.893	186.732	-26.701	159.756	123.552	184.861	-104.675	12.340	167.121	127.330	142.905	99.462	38.303	-74.967	5.6087e-05	0.00028219	5.5207e-05	800.7	3.0709e-07	1.8602e-06	448.4	204.87	9.9378e-07	6.6847e-07	122.93	40.822	69.816	22.961	2.319e-06	15.816	0.00029857	0.0003681	0.00010678	761.69	5.1837e-06	4.3045e-06	433.2	197.72	4.4439e-06	5.1219e-06	118.24	40.032	67.737	22.313	5.6858e-06	15.502	213.406	-30.595	35.253	-107.290	-82.763	29.314	-108.985	-102.548	31.181	-116.459	-105.178	-101.733	-99.153	-94.736	-12.665	-97.453	-8191	255	
16184.668	1	1	0	0	0.13817	0.20821	0.125	0.11235	0.13578	0.24812	0.16019	0.19204	0.23386	0.20988	0.044534	0.13939	0.12237	0.082103	0.15711	0.029267	-2.6083	-3.2521	-2.9188	-3.2104	-3.2292	-3.1958	-3.3333	-3.1167	-3.2667	-3.4458	-2.7875	-3.1542	-3.0646	-2.9646	-3.3354	-3.1771	135.007	53.825	155.600	222.216	137.114	183.470	228.186	147.420	8.621	-6.697	12.357	-87.008	-12.125	117.743	162.132	81.953	9.5138e-05	0.00013646	0.0001096	795.88	2.8642e-06	1.3118e-06	450.85	201.79	2.2723e-06	1.8496e-06	120.49	38.726	64.567	21.572	3.0015e-06	15.377	0.00034489	0.00043484	0.00012343	761.94	5.6961e-06	4.9145e-06	434.46	194.06	4.8481e-06	6.1371e-06	116.28	37.71	62.912	20.983	5.4124e-06	15.052	232.997	14.133	-29.189	-107.396	62.840	-97.538	-108.937	-102.812	-17.284	32.590	-105.195	-101.281	-99.058	-94.324	-5.684	-97.102	-8191	255	
16184.763	1	1	0	0	0.25178	0.034603	0.15706	0.025482	0.16904	0.31248	0.26783	0.14344	0.24722	0.14759	0.081131	0.025318	0.10595	0.23695	0.028398	0.25543	-2.6604	-3.3417	-2.8771	-3.1312	-3.3042	-3.075	-3.2438	-3.0792	-2.9729	-3.4167	-3.0375	-3.0563	-3.3458	-3.1208	-3.2208	-3.1479	101.178	96.416	89.447	-107.038	-27.295	139.798	84.365	188.945	182.095	177.965	19.407	24.671	80.504	236.072	158.746	66.000	5.5864e-05	0.00029407	8.9484e-05	786.08	2.6033e-06	1.5065e-06	448.21	198.06	3.0036e-06	2.8541e-06	117.99	38.031	63.161	21.586	3.5729e-06	15.407	0.00036659	0.00047493	0.00013546	753.33	6.2183e-06	5.476e-06	430.58	190.99	5.0907e-06	5.7831e-06	114.23	36.911	61.478	20.864	5.0962e-06	15.101	222.129	-63.517	58.585	-107.058	114.923	-40.107	-108.727	-102.361	-20.070	-0.612	-105.283	-102.137	-98.846	-94.097	83.001	-96.835	-8191	255	
16184.834	1	1	0	0	0.080478	0.18307	0.15608	0.064743	0.15482	0.058951	0.21451	0.2064	0.029576	0.16197	0.17686	0.091352	0.11772	0.15147	0.34957	0.039881	-2.5375	-3.2771	-3.0021	-3.275	-3.3271	-2.9146	-3.2542	-3.1667	-2.8312	-3.4167	-3.05	-3.1396	-3.4333	-2.9854	-3.2396	-3.1417	-80.182	78.763	37.562	35.517	-117.956	108.508	98.931	97.641	156.195	-114.804	-60.666	208.418	172.062	32.700	98.020	-40.095	7.6861e-05	0.00017194	6.8094e-05	764.39	2.3279e-06	8.8495e-07	435.19	189.24	1.6787e-06	2.4794e-06	114.72	37.105	61.729	21.337	1.5277e-06	15.845	0.00037125	0.00048665	0.00013696	730.08	5.9345e-06	5.3646e-06	416.49	182.71	5.1214e-06	6.4688e-06	110.86	36.36	60.207	20.824	5.371e-06	15.496	228.207	11.757	-41.825	-107.264	89.586	-25.991	-108.824	-102.469	-41.457	12.929	-105.184	-101.862	-99.030	-93.823	-39.262	-97.177	-8191	255	
16184.955	1	1	0	0	0.086318	0.19093	0.16874	0.22339	0.15522	0.19096	0.034356	0.37424	0.28494	0.049012	0.17548	0.18597	0.21508	0.10027	0.23361	0.068617	-2.5375	-3.2562	-3.0187	-2.8812	-3.1937	-2.9458	-3.2188	-3.0458	-2.9896	-3.4292	-3.0833	-2.9854	-3.3208	-3.0354	-3.3125	-3.3396	37.442	25.803	-33.760	225.348	-71.534	-115.168	120.202	145.609	83.924	170.451	127.100	237.227	-85.917	206.644	228.754	72.019	9.1868e-05	0.0002851	9.8427e-05	761.83	3.9078e-07	3.7604e-06	434.7	189.85	1.8561e-06	3.362e-06	115.11	38.28	61.528	21.328	2.1113e-06	15.565	0.00039516	0.00052463	0.00014561	725.35	6.7989e-06	6.1076e-06	419.48	182.56	5.6797e-06	6.1525e-06	112.28	37.465	60.223	20.716	5.9682e-06	15.288	221.100	-29.541	-48.389	-107.075	116.108	-37.266	-109.124	-102.558	45.491	5.676	-105.301	-101.096	-99.027	-94.007	-7.604	-96.845	-8191	255	
16185.051	1	1	0	0	0.18233	0.11731	0.1046	0.029268	0.020139	0.2404	0.1349	0.16175	0.078395	0.17318	0.035949	0.060115	0.22176	0.15089	0.13372	0.13973	-2.5771	-3.3917	-3.05	-2.9062	-3.275	-3.2292	-3.2333	-3.2542	-3.0062	-3.3104	-3.2104	-2.9688	-3.3563	-3.1375	-2.9562	-3.3479	161.823	46.351	3.080	-53.733	-87.880	36.637	182.232	222.560	180.932	-31.483	-2.538	77.545	-38.075	238.857	50.004	-78.156	7.7597e-05	0.00016899	8.5321e-05	735.27	1.2725e-06	2.1834e-06	424.96	181.89	2.0074e-06	1.528e-06	113.07	36.715	58.49	20.673	3.6624e-06	16.162	0.00043611	0.00056866	0.00016009	701.16	6.8963e-06	6.8925e-06	412.37	175.76	7.0258e-06	7.8231e-06	111.45	36.396	57.443	20.362	9.1603e-06	16.022	233.214	-2.689	-8.513	-106.855	40.591	43.333	-108.710	-102.315	51.964	-9.000	-105.066	-101.131	-98.806	-93.879	-84.131	-97.076	-8191	255	
16185.147	1	1	0	0	0.14619	0.078232	0.32941	0.099258	0.12922	0.12693	0.046811	0.06875	0.17892	0.27796	0.16805	0.35088	0.07437	0.06049	0.14155	0.10758	-2.6312	-3.0792	-3.0187	-2.9396	-3.4167	-3.1229	-3.15	-3.325	-3.1167	-3.2083	-3.2708	-3.0083	-3.3021	-3.1521	-3.1708	-3.2521	229.411	61.953	129.575	17.403	7.143	138.628	-87.548	-6.337	12.447	132.225	118.076	145.542	183.007	71.626	122.568	232.377	0.00010218	0.0002007	8.3897e-05	729.41	2.2582e-06	3.4139e-06	435.96	181.69	2.4673e-06	6.7076e-06	115.25	37.143	57.533	21.199	3.9252e-06	16.795	0.00072175	0.0010035	0.0002989	703.25	1.3645e-05	1.4506e-05	426.46	178.05	1.6063e-05	1.7748e-05	118.33	38.358	58.311	21.348	2.038e-05	17.37	-107.592	143.803	-87.696	-107.055	194.639	-38.728	-108.891	-102.498	-77.290	57.236	-105.475	-101.246	-98.743	-93.614	122.432	-96.561	-8191	255	
16185.243	1	1	0	0	0.13128	0.079306	0.047791	0.15633	0.15522	0.33622	0.16763	0.29203	0.18076	0.10382	0.13202	0.11674	0.089755	0.17247	0.10268	0.28406	-2.5938	-3.0625	-3.1625	-3.0938	-3.1708	-3.2271	-3.0312	-3.2792	-3.0729	-3.3083	-3.0396	-3.0104	-3.2167	-3.2313	-3.0979	-3.2354	156.446	-26.031	-49.836	-111.013	69.851	35.422	28.041	-104.842	236.629	232.015	230.515	212.532	208.140	-110.191	-95.183	-62.571	4.466e-05	0.00014074	0.00014402	732.34	1.441e-06	5.3854e-06	438.5	179.69	1.798e-06	2.7056e-06	112.19	35.567	55.224	20.687	5.2363e-06	16.527	0.0014567	0.002002	0.0005565	716.34	2.2073e-05	2.3203e-05	432.87	176.85	2.1992e-05	2.2511e-05	117.31	37.291	56.314	20.979	2.1752e-05	17.132	182.627	-46.748	50.225	-107.164	0.636	109.210	-109.074	-102.389	178.240	62.756	-105.105	-101.008	-97.644	-93.052	11.633	-96.559	-8191	255	
16185.364	1	1	0	0	0.06961	0.15916	0.054973	0.038282	0.14831	0.22737	0.10844	0.29791	0.27636	0.15219	0.14527	0.14408	0.23397	0.12898	0.17312	0.21342	-2.6979	-3.0563	-3.2708	-3.0583	-3.2396	-3.2104	-3.0792	-3.4458	-2.9104	-3.1542	-3.2979	-3.0667	-3.3187	-3.3021	-2.9208	-3.4896	-2.690	14.123	115.797	-36.683	91.250	171.845	220.535	-119.814	128.865	143.642	187.847	113.490	149.522	203.152	227.737	39.306	8.7893e-05	7.3517e-05	0.00028592	734.01	2.4185e-06	1.8439e-06	431.51	177.07	1.8763e-06	2.0781e-06	113.15	35.291	55.245	20.889	3.86e-06	16.602	0.0015377	0.0020516	0.00058232	713.86	2.2303e-05	2.5155e-05	431.02	176.21	2.3772e-05	2.512e-05	118.39	37.371	56.55	21.192	2.5053e-05	17.537	-117.927	224.658	-56.296	-107.041	174.254	225.239	-108.410	-102.134	70.537	-107.304	-105.237	-100.863	-98.109	-93.288	1.388	-96.182	-8191	255	
16185.436	1	1	0	0	0.10324	0.18874	0.08085	0.14567	0.088255	0.1483	0.18522	0.19438	0.041789	0.26651	0.11414	0.091342	0.1193	0.10408	0.1442	0.14018	-2.7479	-3.1458	-3.1271	-3.1854	-3.0354	-3.2896	-2.975	-3.2833	-3.2979	-3.1042	-3.2354	-2.9875	-3.1604	-3.3083	-2.9646	-3.2417	96.508	-8.146	172.509	210.743	78.998	100.448	183.569	135.784	231.019	-100.235	-63.878	13.940	0.306	24.168	-43.911	103.183	5.4804e-05	0.00012914	0.00015547	741.49	1.2589e-06	5.68e-07	444.07	179.7	3.0197e-06	3.2915e-06	117.08	37.122	56.209	22.088	7.8044e-06	18.677	0.0017978	0.0024456	0.00071213	730.02	2.8372e-05	3.134e-05	446.42	180.6	3.2771e-05	3.4902e-05	127.19	40.552	59.269	22.978	4.0578e-05	20.316	203.377	173.526	-46.171	-107.226	-15.630	49.669	-109.016	-101.944	166.585	43.922	-105.220	-100.649	-98.055	-93.072	84.670	-96.669	-8191	255	
16185.532	1	1	0	0	0.049633	0.20889	0.3082	0.12525	0.13999	0.17146	0.25474	0.25907	0.12365	0.047278	0.044114	0.10812	0.21139	0.046353	0.090661	0.11065	-2.5958	-3.1042	-3.3396	-3.15	-3.1667	-3.2625	-2.9375	-3.3208	-3.3146	-3.075	-3.4417	-2.9646	-3.1083	-3.225	-3.0417	-3.3854	131.980	-80.701	175.622	-114.743	-106.646	-91.682	-82.669	-103.050	108.064	73.461	48.415	209.148	-84.777	182.587	31.514	-4.970	6.1275e-05	0.0004369	0.00025304	768.12	4.7567e-06	9.6253e-06	473.65	188.87	4.5368e-06	1.4302e-05	122.97	40.211	58.704	24.329	8.3208e-06	21.142	0.0030878	0.0042998	0.0012807	779.71	5.3245e-05	5.9e-05	497.21	195.49	6.0318e-05	6.5307e-05	147.97	47.59	65.5	26.261	6.9379e-05	24.508	184.082	-22.684	-118.470	-107.527	130.757	66.843	-109.769	-102.240	-50.945	-21.343	-105.646	-100.782	-98.337	-93.566	153.909	-96.276	-8191	255	
16185.628	1	1	0	0	0.26641	0.2692	0.22296	0.21993	0.19973	0.1244	0.092197	0.26151	0.20475	0.29504	0.26813	0.11157	0.17439	0.073342	0.1348	0.20821	-2.7083	-2.8937	-3.1833	-3.1292	-3.0833	-3.35	-3.1333	-3.3542	-3.1708	-3.0125	-3.325	-3.0708	-2.9813	-3.3958	-3.0021	-3.2271	229.196	222.535	9.123	223.740	147.017	-102.645	43.187	239.568	133.193	-71.470	-106.619	204.377	125.864	200.518	53.481	209.165	6.0684e-05	0.0010081	6.683e-05	759.25	9.7065e-06	4.5244e-06	459.5	184	1.0837e-05	8.7089e-06	124.15	41.098	58.71	25.372	5.6835e-06	22.982	0.0048717	0.0065943	0.0018683	788.04	7.0954e-05	7.5783e-05	495.47	195.3	7.3143e-05	7.814e-05	152.1	49.917	66.64	27.898	7.8658e-05	26.621	196.148	-14.070	134.556	-107.912	52.004	-20.887	-109.270	-102.217	79.757	-4.291	-105.076	-100.933	-98.488	-93.242	-10.113	-97.050	-8191	255	
16185.747	1	1	0	0	0.21276	0.055975	0.063272	0.34507	0.24087	0.12408	0.11109	0.057915	0.11949	0.081466	0.20326	0.12838	0.16453	0.041316	0.036682	0.20957	-2.8	-2.975	-3.1229	-3.1437	-3.0917	-3.3771	-2.9625	-3.2833	-3.3792	-3.1146	-3.35	-3.2458	-3.0625	-3.3208	-3.0542	-3.0896	115.623	143.594	100.495	-92.049	-64.702	-100.204	114.162	-10.410	177.334	15.704	118.860	121.174	-95.684	199.475	62.080	179.005	7.0646e-05	0.00030709	0.00032289	731.83	6.6597e-06	1.2635e-05	453.96	183.44	7.1392e-06	1.0304e-05	123.84	41.679	58.08	25.706	7.2096e-07	23.327	0.0053686	0.0072088	0.0020601	770.49	7.5893e-05	8.1831e-05	491.26	194.42	7.2892e-05	7.699e-05	151.26	50.233	65.962	28.069	7.3726e-05	26.807	-69.867	-10.654	-99.340	-107.266	202.787	58.980	-109.014	-102.069	-51.018	63.625	-105.611	-100.165	-98.142	-93.704	22.686	-97.184	-8191	255	
16185.843	1	1	0	0	0.21124	0.14675	0.15334	0.089482	0.26633	0.16701	0.16637	0.129	0.058453	0.057856	0.1109	0.18988	0.14693	0.11014	0.0069968	0.19055	-2.8604	-2.8646	-3.2396	-3.2938	-2.925	-3.2208	-2.9146	-3.1979	-3.3438	-3.2812	-3.3521	-3.1688	-3.0146	-3.3771	-3.1583	-3.1271	7.153	-68.328	33.431	209.594	152.864	201.925	174.368	79.630	155.630	98.174	-44.877	169.470	-86.339	194.874	126.412	62.579	0.0002016	0.00052724	0.00028297	741.33	4.6131e-06	5.9238e-06	456.06	184.77	9.2036e-06	8.2267e-06	126.31	42.261	58.874	25.723	1.6149e-06	23.195	0.0050697	0.0067727	0.0019215	769.32	7.1352e-05	7.6596e-05	490.17	194.28	6.9613e-05	7.3782e-05	151.14	50.052	65.833	27.871	7.1654e-05	26.602	-118.681	118.586	26.671	-107.624	-63.125	168.254	-108.756	-102.466	-67.372	207.874	-104.783	-100.566	-97.903	-93.349	104.051	-96.706	-8191	255	
16185.939	1	1	0	0	0.19442	0.094993	0.1884	0.1438	0.30324	0.0052803	0.35864	0.13428	0.055337	0.087191	0.10801	0.049118	0.21527	0.051504	0.044034	0.16411	-2.9604	-3.1167	-3.0354	-3.3104	-2.9854	-3.2562	-3.2625	-3.2354	-3.4521	-3.0521	-3.4313	-3.3521	-3.0521	-3.4	-3.2021	-3.1021	213.580	166.028	-62.616	-103.522	191.537	-42.902	138.757	73.647	19.032	232.010	19.497	203.164	149.540	-13.740	160.847	116.775	0.00012327	0.0002759	8.9786e-05	738.07	3.1448e-06	1.058e-05	454.21	184.99	1.3613e-06	1.1308e-05	124.51	41.982	58.239	25.804	5.4593e-06	23.302	0.0049632	0.0066316	0.0018824	765.04	7.0675e-05	7.6378e-05	488.66	194.05	6.8845e-05	7.3915e-05	151.02	49.955	65.555	27.997	7.1994e-05	26.745	164.249	128.987	120.124	-107.405	202.714	-33.640	-108.864	-102.362	205.950	-118.251	-104.639	-101.173	-98.211	-92.883	-33.345	-96.620	-8191	255	
16186.035	1	1	0	0	0.085134	0.13745	0.15431	0.12055	0.082572	0.071342	0.12037	0.046164	0.14151	0.10073	0.10748	0.17611	0.19785	0.1837	0.24335	0.03541	-2.875	-3.0958	-3.1917	-3.1417	-3.0354	-3.3438	-3.3	-3.1125	-3.2938	-3.1979	-3.3625	-3.3417	-2.9667	-3.3708	-3.2396	-3.0229	155.203	125.951	-76.488	18.200	17.022	191.779	-74.872	120.141	60.978	103.537	124.935	184.101	133.857	238.800	83.102	22.626	0.00014932	0.00036748	0.00013145	727.12	9.9726e-06	2.833e-06	448.29	182.74	6.0826e-06	9.4764e-06	123.37	41.341	57.776	25.142	5.5322e-06	22.777	0.0049457	0.0066091	0.0018492	753.31	6.7891e-05	7.2268e-05	479.02	191.97	6.591e-05	7.0214e-05	146.87	48.776	64.287	27.081	6.395e-05	25.58	-82.902	-0.889	2.564	-107.531	27.721	-108.921	-108.705	-101.856	124.697	-30.023	-105.248	-100.440	-97.666	-93.194	175.259	-96.468	-8191	255	
16186.132	1	1	0	0	0.09392	0.29645	0.022169	0.16528	0.045822	0.28014	0.28082	0.22862	0.12671	0.03267	0.20225	0.38452	0.36669	0.11693	0.080887	0.21479	-2.7875	-2.9667	-3.0542	-3.3229	-3.0187	-3.3396	-3.1917	-3.1063	-3.3146	-3.0896	-3.2188	-3.2938	-2.9354	-3.5354	-3.375	-2.9625	193.030	65.509	-78.460	128.800	100.345	46.709	71.547	229.077	-85.189	213.552	-78.256	-53.044	-119.580	-76.264	11.272	159.324	0.00013122	0.000946	0.00018804	728.91	9.7108e-06	1.0651e-05	440.66	183.37	4.685e-06	8.9009e-06	123.2	41.504	57.666	25.4	5.7616e-06	23.717	0.0043474	0.0057997	0.0015838	750.1	6.018e-05	6.4019e-05	472.02	190.11	6.1529e-05	6.5962e-05	145.46	48.856	64.361	27.411	6.6863e-05	26.624	-108.867	-45.241	75.623	-107.684	34.180	-93.775	-108.673	-102.013	19.377	77.413	-104.756	-100.586	-97.777	-92.892	231.387	-96.863	-8191	255	
16186.228	1	1	0	0	0.24088	0.16038	0.074109	0.027074	0.12041	0.093262	0.43619	0.26573	0.21084	0.12341	0.082372	0.17256	0.26923	0.071639	0.17062	0.2312	-2.7771	-3.1229	-3.0583	-3.3333	-3.1021	-3.2021	-3.2896	-2.9354	-3.2062	-3.0625	-3.0604	-3.3104	-2.9542	-3.2083	-3.3292	-3.0917	233.643	35.696	233.267	131.533	234.137	71.047	-110.773	167.800	-85.141	-73.123	93.616	174.050	210.841	58.345	109.824	-102.340	0.00017513	7.4164e-05	0.00047176	720.67	7.9832e-06	1.1299e-05	439.97	182.46	4.0028e-06	3.3553e-06	123.3	41.652	57.172	25.324	2.3568e-06	23.159	0.004649	0.0062262	0.0016895	741.28	6.3022e-05	6.4918e-05	467.44	189.12	5.6558e-05	5.8544e-05	141.56	47.662	62.911	26.782	5.4347e-05	25.562	-102.932	-30.046	15.533	-107.671	152.333	2.077	-108.986	-101.668	-4.781	35.457	-104.555	-100.880	-97.726	-93.018	136.715	-95.877	-8191	255	
16186.348	1	1	0	0	0.33401	0.27868	0.19882	0.18405	0.20199	0.047944	0.21789	0.28771	0.22203	0.16623	0.25127	0.098371	0.02274	0.089493	0.13951	0.14981	-2.7375	-3.1354	-3.0479	-3.3396	-3.0563	-3.1396	-3.2958	-2.9708	-3.1937	-3.1146	-3.1083	-3.3438	-3.0458	-3.1229	-3.2208	-3.1167	164.468	191.844	156.569	-18.379	85.242	-75.178	-80.061	-22.182	145.780	82.885	175.848	192.452	142.348	136.158	206.384	102.810	0.00016231	0.00038287	0.00026149	715.43	3.2348e-06	3.4235e-06	443.74	182.07	8.7469e-06	1.6549e-05	126.24	42.48	58.373	25.73	1.0596e-05	23.722	0.003826	0.0051938	0.0014351	733.84	5.6192e-05	5.9754e-05	466.29	188.92	5.7034e-05	6.0666e-05	144.52	48.517	64.009	27.46	5.9731e-05	26.44	215.382	-53.654	-95.985	-107.551	108.286	-70.883	-108.682	-102.420	239.246	13.265	-105.130	-100.692	-97.842	-92.972	24.025	-96.410	-8191	255	
16186.444	1	1	0	0	0.04964	0.081574	0.17814	0.022394	0.14666	0.02241	0.16865	0.14302	0.12123	0.044337	0.1747	0.22716	0.11478	0.28411	0.12333	0.085226	-2.7604	-3.1083	-3.1188	-3.4354	-3.0771	-3.0979	-3.275	-3.0396	-3.1667	-3.2479	-3.0271	-3.5042	-3.1021	-3.2521	-3.4292	-3.1	-118.718	104.623	-11.206	-99.902	116.959	72.353	-64.136	119.844	-35.857	82.206	-48.303	189.328	-83.763	-108.866	1.198	122.034	0.00020799	0.0012507	0.00035276	720.84	8.1546e-06	2.4497e-06	441.89	183.02	6.1283e-06	7.1921e-06	123.99	42.165	57.86	25.739	1.6787e-06	23.724	0.0042285	0.0058897	0.0016185	744.24	6.2824e-05	6.512e-05	471.44	190.26	6.2599e-05	6.5398e-05	146.46	49.303	64.647	27.638	6.6285e-05	26.784	-103.130	23.360	19.683	-107.676	51.378	-48.262	-108.768	-101.929	-35.194	143.875	-104.720	-101.136	-97.808	-93.123	-8.404	-96.504	-8191	255	
16186.541	1	1	0	0	0.24432	0.24705	0.1433	0.10743	0.10249	0.1787	0.18255	0.11666	0.10481	0.21563	0.31375	0.10912	0.24734	0.17102	0.1948	0.25613	-2.8229	-3.1937	-2.8729	-3.4	-3.0479	-3.1792	-3.4292	-3.1437	-3.2438	-3.2583	-3.175	-3.1896	-3.25	-3.1312	-3.3604	-3.2292	77.821	17.636	21.252	25.615	12.484	126.178	199.330	18.786	195.808	-17.786	-38.459	69.927	-10.935	-86.996	173.536	-104.894	0.00022969	0.00026661	6.8996e-05	721.3	8.3736e-06	7.8912e-06	445.55	181.63	6.078e-06	9.4027e-06	123.93	42.128	57.961	25.602	7.2076e-06	23.894	0.0045486	0.0062313	0.0017363	746.66	6.5753e-05	6.8564e-05	476.29	190.81	6.5605e-05	6.8969e-05	147.56	49.613	64.88	27.795	6.8585e-05	26.986	224.599	13.961	45.523	-107.438	44.742	-41.121	-109.218	-102.036	222.840	-16.895	-104.618	-100.556	-98.147	-93.172	-22.699	-96.712	-8191	255	
16186.660	1	1	0	0	0.12038	0.10149	0.15776	0.20744	0.07049	0.098936	0.038673	0.12301	0.099138	0.12368	0.30913	0.18538	0.31818	0.25395	0.10814	0.16087	-2.9104	-3.2521	-2.8917	-3.1708	-3.1646	-3.1958	-3.3521	-3.2521	-3.2229	-3.4188	-3.0333	-3.225	-3.2188	-3.0896	-3.3542	-3.1833	-18.903	-114.369	31.044	202.193	11.987	57.846	194.455	236.870	-69.644	134.309	-1.440	-52.715	175.446	-114.953	-81.100	92.458	8.0532e-05	0.00071529	0.0001278	724.1	6.135e-06	5.6584e-06	445.8	182.52	4.9491e-06	3.846e-06	125.1	42.766	57.631	25.804	6.6652e-06	24.095	0.0046592	0.0064364	0.0018032	750.27	6.7992e-05	7.1629e-05	479.91	191.92	6.801e-05	7.1051e-05	150.01	50.282	65.099	27.894	6.9465e-05	27.294	-119.597	-58.951	160.423	-107.682	-25.538	81.832	-108.747	-101.707	192.891	-97.695	-105.062	-100.874	-98.195	-93.129	-66.226	-96.666	-8191	255	
16186.731	1	1	0	0	0.15968	0.22672	0.23846	0.17189	0.12423	0.14565	0.18167	0.11361	0.14053	0.25582	0.12454	0.30187	0.23317	0.099226	0.16102	0.11598	-2.8688	-3.3271	-3.0125	-3.2812	-3.1833	-2.8375	-3.3937	-3.1312	-3.0875	-3.25	-3.2292	-3.2521	-3.2479	-3.0208	-3.3104	-3.2583	-91.891	88.550	186.582	235.968	198.150	-13.474	2.204	-110.253	17.767	76.665	93.161	154.147	-11.171	-51.120	-119.546	45.908	6.7956e-05	0.00030825	0.00014222	718.85	8.817e-06	2.7652e-06	443.38	182.91	1.1958e-05	9.695e-06	125.37	42.818	57.88	25.87	2.1572e-06	24.095	0.0047135	0.006569	0.0018214	746.96	6.7475e-05	7.0979e-05	479.13	191.54	6.6589e-05	7.07e-05	150.06	50.163	65.128	27.975	6.9233e-05	27.298	181.154	35.469	58.156	-107.224	141.803	224.951	-108.846	-102.505	-14.111	85.798	-104.590	-100.537	-98.013	-93.363	31.439	-96.795	-8191	255	
16186.827	1	1	0	0	0.10195	0.068435	0.15334	0.12757	0.12825	0.18756	0.22449	0.19801	0.12087	0.23433	0.29992	0.11722	0.15173	0.29173	0.27405	0.16829	-2.7958	-3.3125	-3.0896	-3.2917	-3.3396	-3.1958	-3.4104	-3.1042	-3.2021	-3.4271	-2.9146	-2.9667	-3.2333	-2.9313	-3.0979	-3.3583	-110.936	7.990	143.279	-106.001	-91.577	154.511	63.489	82.361	150.977	-17.775	17.950	-108.442	-75.678	-116.647	-83.406	-106.866	0.00011786	0.00038541	0.00016053	723.19	4.8573e-06	7.9197e-06	445.61	182.54	1.0764e-05	8.202e-06	123.99	42.22	57.534	25.734	8.4526e-06	23.805	0.0046016	0.0065569	0.0017931	747.83	6.6624e-05	7.0679e-05	476.45	191.58	6.5836e-05	7.0253e-05	148.44	49.733	65.041	27.852	6.9962e-05	26.956	224.632	149.573	-11.791	-107.447	-45.447	91.860	-109.120	-102.191	36.132	115.790	-104.751	-100.181	-97.923	-93.199	-22.875	-96.869	-8191	255	
16186.923	1	1	0	0	0.14059	0.040017	0.086384	0.085515	0.20817	0.12685	0.14841	0.16228	0.1081	0.20241	0.025665	0.10628	0.14163	0.37615	0.20368	0.16657	-2.5229	-3.3125	-3.1396	-3.2292	-3.2354	-3.1021	-3.4229	-3.3417	-3.05	-3.3312	-3.1771	-2.9917	-3.4708	-3.0375	-3.2938	-3.2583	-105.513	16.169	28.839	17.773	198.493	-4.555	-61.952	-97.100	85.154	114.479	100.927	-14.355	-98.392	173.516	-31.578	-29.927	0.00012351	0.00014004	0.00016025	722.72	8.1737e-06	9.8649e-06	446.51	181.05	3.5339e-06	1.6525e-06	123.68	42.209	57.871	25.851	1.0904e-05	23.852	0.0046714	0.0065845	0.001822	747.53	6.7287e-05	7.1497e-05	478.37	191.27	6.7014e-05	7.2113e-05	149.22	49.912	65.084	27.917	6.9225e-05	27.161	191.044	31.696	112.875	-107.296	21.179	90.816	-108.943	-102.187	70.559	6.088	-104.974	-100.760	-97.929	-93.385	46.463	-96.510	-8191	255	
16187.044	1	1	0	0	0.25537	0.14167	0.15522	0.242	0.1529	0.39113	0.10077	0.34719	0.038665	0.17043	0.2591	0.23152	0.088054	0.1599	0.19488	0.18022	-2.6042	-3.4708	-2.9646	-2.9771	-3.4208	-2.9771	-3.1937	-3.3042	-3.2354	-3.3688	-3.0708	-2.975	-3.3812	-3.0563	-3.1375	-3.2271	-5.852	-111.951	52.043	-67.294	83.707	52.693	123.089	131.515	-38.165	184.588	-32.060	138.485	178.154	-5.042	-44.532	218.845	0.00010425	0.00039054	0.00014732	722.09	2.5331e-06	9.8759e-06	443.74	182.5	5.6409e-06	4.9278e-06	124.75	42.993	57.868	25.861	8.2586e-06	24.172	0.004717	0.0065549	0.0018418	747.76	6.7904e-05	7.2769e-05	479.19	192.21	6.8276e-05	7.2255e-05	150.49	50.359	65.46	28.049	7.0222e-05	27.217	-77.821	-49.616	4.386	-107.438	223.781	-54.200	-108.963	-102.365	49.165	54.819	-105.321	-100.409	-97.915	-93.045	94.895	-96.854	-8191	255	
16187.140	1	1	0	0	0.31954	0.13644	0.11641	0.12391	0.093552	0.19342	0.23675	0.14154	0.053387	0.11832	0.17123	0.15925	0.1171	0.19473	0.19528	0.16852	-2.5125	-3.3625	-3.3396	-3.1146	-3.1625	-3.1021	-3.2083	-3.4833	-3.0708	-3.2938	-3.2729	-3.0479	-3.2188	-3.0167	-2.9938	-3.3958	-95.935	-80.618	200.800	239.040	191.012	207.858	92.770	-26.106	93.424	-25.782	174.570	-92.077	79.827	-118.827	-105.038	-59.134	0.00010354	0.0010428	0.00025149	725.59	5.4591e-06	3.0283e-06	449.73	182.25	5.27e-06	1.5972e-05	125.82	42.799	58.157	25.981	2.7422e-06	23.908	0.0047323	0.00653	0.001825	752.03	6.8219e-05	7.157e-05	480.19	192.2	6.6689e-05	7.0263e-05	149.38	49.953	65.059	27.925	6.6681e-05	27.003	221.546	181.430	18.955	-107.777	56.457	12.831	-109.082	-102.300	181.613	27.206	-104.523	-100.117	-98.223	-93.235	118.659	-96.594	-8191	255	
16187.236	1	1	0	0	0.20692	0.25083	0.0361	0.28176	0.11926	0.17451	0.16165	0.12932	0.31418	0.12216	0.057454	0.14351	0.088436	0.12399	0.032602	0.10947	-2.4208	-3.2208	-3.1979	-3.0375	-3.2042	-3.0854	-3.1146	-3.3292	-2.9375	-3.2208	-3.2271	-3.1521	-3.1917	-3.1729	-3.0479	-3.3271	-45.303	15.691	-65.827	206.554	155.459	169.128	212.831	149.999	83.078	64.166	-100.327	210.007	67.962	181.435	128.576	-86.666	0.00016404	0.00094624	0.00040367	720.28	3.7507e-06	6.9462e-06	444.54	182.59	3.241e-06	5.7716e-06	124.66	42.409	57.573	25.657	5.2842e-06	23.826	0.0045573	0.0062258	0.0017688	744.54	6.5235e-05	6.9127e-05	473.51	190.93	6.4786e-05	6.8373e-05	146.29	49.318	64.499	27.685	6.498e-05	26.741	226.241	14.292	38.178	-107.333	82.213	-83.546	-108.958	-102.354	100.172	-2.483	-104.769	-101.128	-98.139	-93.274	28.330	-96.971	-8191	255	
16187.308	1	1	0	0	0.1746	0.10809	0.15606	0.2587	0.27158	0.10226	0.39643	0.25633	0.32074	0.17265	0.11231	0.12265	0.075344	0.13493	0.11943	0.15067	-2.5354	-3.1583	-3.1167	-2.9938	-3.4562	-3.2125	-3.1833	-3.35	-2.9396	-3.2333	-3.3854	-3.0583	-3.2792	-3.2604	-3.1521	-3.475	-93.079	68.550	4.850	161.261	11.879	171.036	215.634	174.381	88.319	2.934	126.094	-97.849	-112.340	73.856	-66.319	-21.264	0.00011443	0.0017417	0.0001198	713.13	1.5068e-05	7.0788e-06	441.73	180.41	8.9588e-06	4.922e-06	124.5	42.19	57.752	25.718	4.2536e-06	23.622	0.004522	0.0060895	0.0017268	739.5	6.4975e-05	6.7996e-05	471.35	189.41	6.4937e-05	6.7513e-05	146.61	49.283	64.441	27.698	6.4554e-05	26.727	146.246	11.270	0.154	-107.471	-59.684	-62.726	-108.774	-102.380	-91.455	168.126	-105.123	-100.359	-98.267	-92.905	48.011	-96.793	-8191	255	
16187.429	1	1	0	0	0.18887	0.18228	0.11063	0.32919	0.098667	0.059208	0.065241	0.07904	0.22232	0.084958	0.18847	0.16872	0.095143	0.21406	0.12022	0.12652	-2.6958	-3.0542	-3.3479	-3.1458	-3.1854	-3.3833	-3.1312	-3.4708	-3.2	-3.1021	-3.2833	-3.1083	-3.3479	-3.2667	-2.9396	-3.2854	-59.296	-103.717	102.220	198.533	129.386	61.984	130.223	63.678	-69.631	168.703	13.431	-33.517	107.611	-111.618	231.546	189.956	0.00012435	0.00047286	4.5595e-05	720.04	1.0998e-05	1.7812e-05	443.71	180.78	9.8465e-06	8.8723e-06	123.6	42.799	57.234	25.687	2.391e-06	23.766	0.0044699	0.0059939	0.0017233	742.35	6.4471e-05	6.6661e-05	471.93	190.15	6.3125e-05	6.5797e-05	146.45	49.396	64.264	27.62	6.3161e-05	26.654	231.756	-13.631	10.902	-107.412	106.665	-34.437	-108.886	-101.993	-76.477	-30.615	-104.497	-100.283	-98.660	-93.105	106.713	-96.496	-8191	255	
16187.525	1	1	0	0	0.32275	0.22114	0.10069	0.1005	0.14786	0.053092	0.10498	0.099888	0.093253	0.16884	0.15172	0.21222	0.047764	0.36491	0.15934	0.15354	-2.7062	-3.1396	-3.2958	-3.0083	-3.3146	-3.175	-2.9604	-3.2938	-2.9521	-3.0479	-3.1854	-3.025	-3.1146	-3.325	-3.0563	-3.2979	83.306	202.089	-46.563	208.677	-1.756	-60.261	57.005	176.751	180.110	-31.559	27.600	183.363	161.029	201.564	117.687	-17.994	8.4113e-05	0.00021043	8.4375e-05	717.32	8.154e-06	1.0986e-05	445.23	182.66	7.1101e-06	1.1976e-05	126.03	42.328	58.385	25.789	2.7721e-06	23.702	0.0043452	0.0057911	0.0016567	740.69	6.1898e-05	6.4172e-05	473.37	190.63	6.229e-05	6.4539e-05	147.35	49.207	64.286	27.535	6.3127e-05	26.669	-86.797	230.339	-90.398	-107.705	27.644	121.859	-108.689	-102.112	57.120	58.567	-104.662	-100.255	-98.134	-93.124	23.117	-96.587	-8191	255	
16187.621	1	1	0	0	0.30006	0.271	0.19559	0.19034	0.12049	0.19192	0.11843	0.094998	0.066761	0.27547	0.24508	0.18058	0.30945	0.13624	0.19054	0.060403	-2.7104	-3.0146	-3.3729	-3.1437	-2.9958	-3.2687	-3.1437	-3.1479	-3.2313	-3.0167	-3.4396	-3.0604	-3.0229	-3.3438	-3.025	-3.25	-106.414	120.486	222.403	74.827	-108.032	42.809	193.104	223.267	22.688	18.930	-17.445	202.351	-72.795	196.394	-80.050	209.220	7.5428e-05	0.0002282	9.5964e-05	722.11	2.7092e-06	7.3808e-06	446.93	183.33	6.8168e-06	9.8822e-06	122.16	42.2	57.912	25.628	3.1649e-06	23.495	0.0043347	0.0058388	0.0016923	745.65	6.2689e-05	6.5639e-05	474.41	190.74	6.3768e-05	6.5842e-05	146.17	49.154	64.488	27.635	6.5131e-05	26.665	233.933	-89.535	70.701	-107.597	81.531	-5.298	-109.148	-102.585	219.798	54.606	-104.943	-100.554	-98.015	-93.377	28.084	-96.627	-8191	255	
16187.740	1	1	0	0	0.13714	0.1509	0.101	0.10518	0.22073	0.14414	0.16781	0.028608	0.21106	0.17663	0.036951	0.071634	0.21132	0.15794	0.083391	0.092247	-2.875	-2.8646	-3.4354	-3.1437	-2.9708	-3.2562	-2.9354	-3.1542	-3.1833	-2.9958	-3.35	-3.1979	-2.9667	-3.2812	-3.1625	-3.0521	-55.586	-70.233	3.784	-87.914	-39.277	85.946	-28.838	92.178	-77.818	147.784	-59.849	3.092	183.770	184.346	136.053	-66.402	0.00016015	0.00086394	0.00018763	719.42	4.231e-06	1.022e-05	446.24	181.39	4.7325e-06	6.3424e-06	125.29	42.076	57.814	25.643	8.2618e-06	23.74	0.0044449	0.005991	0.0017484	745.84	6.4654e-05	6.775e-05	475.14	190.43	6.5961e-05	6.8159e-05	148.02	49.409	64.488	27.674	6.6832e-05	26.786	-113.590	11.423	215.951	-107.635	22.823	28.901	-109.372	-102.151	-31.522	49.637	-105.565	-100.956	-97.886	-93.196	158.865	-96.940	-8191	255	
16187.836	1	1	0	0	0.027625	0.18546	0.17769	0.33264	0.23219	0.099237	0.12701	0.26166	0.13259	0.067866	0.21621	0.27597	0.17809	0.22065	0.11615	0.11943	-2.8792	-2.9583	-3.35	-3.2542	-3.1104	-3.4417	-2.9854	-3.1125	-3.4646	-3.0438	-3.2812	-3.1	-3.0625	-3.4771	-3.1271	-3.1771	148.702	-85.255	223.277	150.369	202.969	-85.244	-75.413	223.305	-2.448	25.331	160.023	-54.065	206.225	-103.970	163.178	226.255	0.00015646	0.0010784	0.00021578	723.3	4.1267e-06	8.5151e-06	444.94	181.92	2.7766e-06	1.4397e-05	123.05	41.603	57.643	25.62	2.7705e-06	23.722	0.0045375	0.0061773	0.0017819	747.36	6.4736e-05	6.8684e-05	475.67	190.09	6.552e-05	6.8376e-05	147.84	49.344	64.342	27.685	6.7625e-05	26.777	-113.394	-8.848	143.193	-107.324	-36.904	72.782	-109.064	-102.101	136.140	114.401	-105.025	-100.977	-97.833	-93.477	83.064	-96.797	-8191	255	
16187.932	1	1	0	0	0.11974	0.14162	0.28234	0.057859	0.29853	0.10178	0.083485	0.17656	0.055135	0.27162	0.16738	0.21943	0.18077	0.096837	0.13669	0.058344	-2.9729	-3.0625	-3.3292	-3.1875	-2.9917	-3.2396	-3.1146	-3.3292	-3.2625	-3.0542	-3.2604	-3.2188	-2.9062	-3.2708	-3.0854	-3.1646	-78.361	135.041	217.508	185.671	194.315	149.540	58.861	-80.359	-64.562	167.694	224.874	43.842	-50.685	-86.058	22.570	30.314	0.00016948	0.00043119	2.2913e-05	720.93	1.0149e-05	4.8131e-06	449.42	181.59	9.5669e-06	8.3023e-06	125.23	42.401	57.606	25.795	5.6578e-06	24.067	0.0045067	0.0062157	0.0017747	748.05	6.5238e-05	6.9484e-05	478.79	190.59	6.6583e-05	6.9581e-05	149.18	49.661	64.62	27.759	6.8104e-05	27.015	214.517	32.508	-23.393	-107.495	-64.036	145.196	-108.945	-102.406	-55.331	-20.193	-105.159	-100.591	-98.141	-93.033	-89.477	-96.732	-8191	255	
16188.028	1	1	0	0	0.14081	0.045465	0.18694	0.26585	0.21241	0.24395	0.18337	0.074085	0.17051	0.10102	0.15097	0.14515	0.27451	0.15413	0.19722	0.14908	-3.0729	-3.1104	-3.05	-3.2354	-3.2271	-3.1646	-3.1562	-2.9667	-3.4375	-3.0021	-3.3187	-3.2521	-3.125	-3.1375	-3.2667	-2.9979	194.564	141.302	-62.406	-50.201	-70.830	80.342	177.021	-106.089	-72.723	-15.333	3.847	160.739	142.636	220.816	-65.436	131.760	0.00016692	0.00066752	0.00023065	713.9	4.1622e-06	9.1378e-06	448.25	181.63	1.1907e-05	1.381e-05	123.19	42.119	57.155	25.878	2.6744e-06	23.741	0.00459	0.0063236	0.0017826	747.26	6.6977e-05	7.1581e-05	478.55	190.67	6.8076e-05	7.217e-05	148.41	49.724	64.649	27.881	7.0093e-05	26.945	225.977	-54.931	77.155	-107.484	62.571	59.201	-109.007	-102.393	-32.250	21.586	-104.999	-100.126	-98.195	-92.898	229.994	-96.514	-8191	255	
16188.124	1	1	0	0	0.16085	0.13057	0.14287	0.26082	0.23207	0.099932	0.22101	0.083508	0.10639	0.33382	0.057548	0.047795	0.040296	0.18675	0.16009	0.060425	-2.8854	-3.0792	-3.0979	-3.2938	-3.0208	-3.2354	-3.2333	-3.0938	-3.3646	-3.075	-3.1917	-3.2562	-3.05	-3.3063	-3.1396	-2.9979	202.314	186.672	181.238	175.393	-22.853	32.510	-79.286	-13.133	-58.438	82.684	-94.635	-83.920	133.025	59.375	169.892	235.595	5.4737e-05	0.00060652	0.00014269	715.67	4.6357e-06	2.5006e-06	445.48	180.73	4.0467e-06	4.5835e-06	125.37	42.741	57.33	25.731	7.9321e-07	23.744	0.0047236	0.006492	0.0018136	745.9	6.8135e-05	7.2751e-05	477.73	190.16	7.0266e-05	7.3261e-05	148.97	49.948	64.88	27.808	7.0612e-05	26.988	-108.467	9.952	232.302	-107.810	71.280	182.299	-109.231	-102.290	82.321	191.258	-104.804	-100.578	-98.194	-93.356	-72.604	-97.463	-8191	255	
16188.221	1	1	0	0	0.10199	0.074682	0.15853	0.26583	0.25122	0.13075	0.088359	0.17524	0.20519	0.12385	0.054791	0.24272	0.04263	0.13182	0.085866	0.36429	-2.7812	-3.2188	-2.9625	-3.2146	-3.0292	-3.2812	-3.2833	-2.9292	-3.0854	-3.1875	-3.2042	-3.3563	-2.8896	-3.2458	-3.2792	-3.0438	-12.400	19.697	104.607	192.644	143.300	227.356	27.942	131.403	-12.403	111.551	-102.332	196.923	109.114	235.100	-57.538	51.832	0.00018609	0.00048355	0.00022058	724.89	2.607e-06	3.4519e-06	449.16	181.61	4.1196e-06	1.08e-05	124.15	42.343	57.062	25.716	1.1557e-05	23.963	0.00482	0.006499	0.0018274	754.34	6.8335e-05	7.2424e-05	481.03	190.99	6.9514e-05	7.2232e-05	148.82	49.773	64.815	27.713	7.0767e-05	26.973	220.700	49.434	135.566	-107.403	8.324	-35.680	-109.249	-102.481	-62.822	128.472	-105.109	-100.405	-97.896	-93.569	152.315	-97.070	-8191	255	
16188.341	1	1	0	0	0.18425	0.13518	0.052072	0.10412	0.10944	0.18018	0.11204	0.15097	0.25097	0.075063	0.02578	0.086044	0.36625	0.24818	0.17201	0.2312	-2.8229	-3.1625	-3.0292	-3.6562	-3.0187	-3.3125	-3.3854	-3.0812	-3.4188	-3.1063	-3.1083	-3.2792	-3.2833	-2.9479	-3.2333	-3.0354	74.838	212.010	96.293	-107.370	186.821	219.326	74.953	158.409	133.343	30.450	169.038	-42.672	-84.076	-115.472	90.499	31.174	0.00017596	0.00021451	0.0003185	724.57	5.9769e-06	4.4548e-06	446.95	181.81	7.4616e-06	5.2181e-06	124.08	42.492	57.728	25.715	4.0273e-06	23.953	0.0047127	0.0064635	0.0017923	750.89	6.8236e-05	7.225e-05	479.64	190.96	6.9334e-05	7.2764e-05	148.7	50.324	65.154	27.887	7.0701e-05	27.285	-88.905	27.341	-37.956	-107.522	238.968	-16.946	-109.722	-102.488	86.569	222.742	-104.868	-100.784	-98.401	-93.053	38.373	-96.905	-8191	255	
16188.437	1	1	0	0	0.15461	0.12874	0.061441	0.1235	0.13424	0.06503	0.19675	0.18886	0.064805	0.25045	0.080593	0.017902	0.15682	0.079607	0.10536	0.22257	-2.9167	-3.1063	-3.0354	-3.4417	-3.2146	-3.0458	-3.3312	-3.1917	-3.1562	-3.2917	-2.8229	-3.1917	-3.2313	-3.1375	-3.3688	-3.0146	-69.034	-70.244	6.353	165.855	-93.396	59.686	-119.252	233.220	156.967	175.952	88.569	114.469	-86.418	-42.072	98.987	144.610	6.5233e-05	0.00070456	0.00028525	723.62	5.7801e-06	5.2389e-06	447.62	182.98	1.2747e-05	1.171e-05	124.31	42.628	57.498	25.765	5.8292e-06	23.911	0.004881	0.0065565	0.0018257	753.42	6.9776e-05	7.3297e-05	482.73	192.69	7.0805e-05	7.5592e-05	149.84	50.635	65.563	27.997	7.3949e-05	27.367	226.033	70.216	-50.194	-107.682	18.180	79.177	-109.143	-102.340	51.903	50.252	-105.312	-100.230	-98.079	-93.646	187.582	-96.798	-8191	255	
16188.534	1	1	0	0	0.25706	0.053006	0.22951	0.18082	0.20117	0.25169	0.20943	0.20538	0.074339	0.14609	0.042774	0.23393	0.12682	0.25941	0.17353	0.13963	-2.7667	-3.1083	-3.1083	-3.4062	-3.2854	-3.1937	-3.4792	-2.9396	-3.3812	-3.3417	-3.1063	-3.2521	-3.1792	-3.0146	-3.2104	-2.9542	-17.610	-49.408	164.016	-36.588	194.187	22.148	32.333	-36.452	-103.913	73.705	11.116	169.006	158.506	194.055	74.865	152.156	0.00022024	0.0010944	0.00021159	722.62	9.5344e-06	9.0657e-06	450.56	182.49	3.7316e-06	7.7458e-06	125.09	42.911	57.248	25.562	5.5438e-06	23.996	0.0049756	0.0067484	0.0018942	758.43	7.2453e-05	7.5519e-05	485.66	192.67	7.1914e-05	7.6876e-05	150.46	50.632	65.598	27.903	7.4148e-05	27.365	202.440	30.147	-8.156	-107.644	95.291	44.299	-109.098	-102.128	-116.845	-54.870	-105.666	-100.549	-97.881	-93.253	-32.956	-96.744	-8191	255	
16188.605	1	1	0	0	0.16961	0.022877	0.20242	0.20431	0.16529	0.072616	0.033758	0.054084	0.12301	0.19264	0.23392	0.12283	0.13562	0.20953	0.03855	0.10035	-2.8458	-3.4583	-3.0458	-3.325	-3.1188	-3.1937	-3.3146	-3.1771	-3.2188	-3.3542	-3.1	-3.3812	-3.2667	-3.0312	-3.2354	-3.075	34.513	36.686	79.587	168.521	207.546	239.172	133.750	20.524	74.734	1.346	138.440	-76.706	-9.302	-55.560	12.192	157.786	0.00017212	0.0006562	0.00011374	724.64	1.8898e-06	6.7166e-06	451.1	183.42	3.0233e-06	8.8388e-06	124.96	42.182	57.459	25.718	4.5304e-06	23.978	0.004981	0.0067137	0.0018918	758.58	7.2161e-05	7.4173e-05	485.71	192.39	7.041e-05	7.5076e-05	150.85	50.389	65.147	27.884	7.3968e-05	27.377	187.839	-119.645	-71.940	-107.725	160.085	-78.212	-109.008	-102.083	-17.971	74.168	-104.706	-100.492	-98.007	-93.405	7.144	-96.697	-8191	255	
16188.701	1	1	0	0	0.037074	0.12239	0.3733	0.12162	0.22146	0.17766	0.15222	0.082382	0.25578	0.1413	0.24294	0.094061	0.1494	0.12397	0.14175	0.058595	-2.7521	-3.3229	-2.9229	-3.4	-3.1312	-3.1312	-3.2771	-3.1667	-3.075	-3.1708	-3.0667	-3.375	-3.35	-3.1188	-3.2917	-3.1188	-32.848	37.063	16.186	113.798	184.642	59.524	202.369	190.868	-38.323	-32.048	159.437	-59.087	157.966	211.435	170.693	-85.054	7.7518e-05	0.0012658	0.00032699	726.51	6.8433e-06	1.003e-05	450.67	182.53	2.1008e-06	9.2862e-06	125.34	42.705	57.838	25.917	3.4089e-06	24.13	0.0049057	0.0066136	0.0018935	756.17	7.1578e-05	7.503e-05	486.95	193.02	7.0689e-05	7.7097e-05	152.09	50.894	65.611	28.071	7.4874e-05	27.562	221.236	18.403	-56.921	-108.007	-58.552	98.818	-109.180	-102.629	-92.537	76.016	-105.381	-100.304	-98.109	-93.536	-40.261	-96.428	-8191	255	
16188.820	1	1	0	0	0.15348	0.15789	0.072881	0.044865	0.06288	0.069991	0.17153	0.11485	0.36312	0.16955	0.082643	0.28246	0.30605	0.15839	0.1586	0.12917	-2.725	-3.35	-3.1167	-3.3708	-3.2396	-2.9708	-3.2167	-3.1646	-3.0625	-3.2292	-3.0104	-3.1104	-3.2771	-2.9125	-3.2729	-3.1	-80.633	78.495	130.170	150.267	25.622	142.837	28.378	-24.293	-92.856	43.234	-74.619	-114.857	214.649	-57.833	138.621	158.391	0.00013869	0.0011822	0.00016605	729.71	6.6402e-06	9.0261e-06	452.99	182.16	7.5231e-06	1.0664e-05	126.11	42.338	57.523	25.741	1.372e-05	24.248	0.0049896	0.0067637	0.0019072	760.25	7.2984e-05	7.5446e-05	487.22	192.6	7.0992e-05	7.6088e-05	152.23	50.867	65.269	28.041	7.4074e-05	27.517	-96.036	217.882	73.175	-107.777	-47.766	14.982	-108.856	-102.248	-106.319	6.550	-105.405	-100.610	-97.924	-92.991	17.802	-97.006	-8191	255	
16188.916	1	1	0	0	0.17042	0.16413	0.0082498	0.11323	0.35474	0.25209	0.13715	0.12869	0.22622	0.10882	0.05083	0.18095	0.080157	0.20673	0.10968	0.1234	-2.7583	-3.1521	-2.8333	-3.1229	-3.2292	-3.1354	-3.3104	-3.1979	-2.9875	-3.2229	-3.0417	-3.1021	-3.1042	-3.0146	-3.275	-3.1896	134.238	58.196	208.415	239.051	232.667	80.433	218.876	78.356	-74.078	41.194	-47.143	-6.563	-78.151	215.431	-51.537	162.664	0.00015815	0.00039596	0.00018857	720.73	6.9861e-06	1.0092e-05	445.35	181.41	8.1911e-06	9.8679e-06	124.45	42.619	57.787	25.835	8.0317e-06	24.099	0.0049455	0.0068405	0.0019367	753.22	7.383e-05	7.705e-05	483.56	191.48	7.1748e-05	7.8811e-05	151.9	50.721	65.239	28.123	7.4544e-05	27.782	-99.614	-85.628	-94.185	-107.684	46.148	63.689	-109.429	-102.351	136.237	56.226	-104.806	-99.893	-98.360	-93.176	54.826	-96.872	-8191	255	
16189.013	1	1	0	0	0.078709	0.143	0.090482	0.20278	0.058606	0.086773	0.07702	0.090849	0.088161	0.046674	0.098246	0.26839	0.18353	0.083434	0.085684	0.067636	-2.6437	-3.2625	-2.9688	-3.1354	-3.3167	-3.0917	-3.3438	-3.2083	-2.8812	-3.3312	-3.2396	-3.1917	-3.2625	-2.925	-3.1479	-3.2	-57.973	-11.182	220.877	70.704	-28.020	204.057	47.139	204.960	-57.066	141.732	65.523	192.735	126.899	105.615	101.404	-14.412	7.9718e-05	0.00054067	0.00012321	723.34	2.6014e-06	7.0028e-06	445.64	181.01	6.8356e-06	7.9112e-06	125.38	42.323	57.378	26.026	3.5915e-06	24.291	0.0049657	0.0068808	0.0019364	752.97	7.3973e-05	7.7629e-05	484.32	190.78	7.1849e-05	7.7584e-05	151.91	50.65	65.204	28.279	7.362e-05	27.879	205.503	193.519	-30.171	-107.601	59.528	179.427	-109.216	-102.472	79.075	10.123	-104.514	-100.831	-97.971	-93.311	26.271	-97.063	-8191	255	
16189.109	1	1	0	0	0.21351	0.15919	0.12539	0.21378	0.093916	0.24393	0.17702	0.18217	0.07402	0.049062	0.11432	0.14978	0.10071	0.27163	0.18664	0.21479	-2.7104	-3.2313	-3.0833	-3.0563	-3.2917	-3.1562	-3.3208	-3.4167	-3.0396	-3.2062	-3.2687	-3.0167	-3.3563	-3.0687	-3.2021	-3.3125	2.489	215.305	-113.454	140.014	-105.027	-27.760	-68.275	155.651	-52.895	-100.836	218.418	180.718	-80.812	-91.949	-16.809	164.674	0.00014083	0.00074102	0.00013485	718.6	4.3871e-06	1.2207e-05	449.77	181.93	4.8914e-06	1.5718e-05	127.04	43.015	57.705	25.955	9.3624e-06	24.6	0.0050314	0.0069968	0.0019422	750.43	7.405e-05	7.7893e-05	485.67	192.2	7.2401e-05	7.7495e-05	153.51	51.289	65.429	28.32	7.4975e-05	28.135	235.759	108.527	50.914	-107.781	222.096	16.329	-109.231	-102.430	212.570	25.993	-105.549	-100.672	-98.227	-93.180	-34.523	-96.900	-8191	255	
16189.205	1	1	0	0	0.045362	0.21536	0.34855	0.15261	0.27205	0.020144	0.057628	0.23994	0.042586	0.12768	0.21884	0.2143	0.12168	0.056425	0.12884	0.061443	-2.5896	-3.2292	-3.2208	-2.8542	-3.3667	-3.0187	-3.0417	-3.4062	-3.0333	-3.3042	-3.1312	-2.9375	-3.2625	-3.2938	-3.1312	-3.2208	-88.416	99.570	-48.808	-15.542	-111.718	-66.978	150.387	120.127	-76.988	-101.926	-44.861	163.249	92.232	-94.458	136.872	115.860	0.00017156	0.0010965	0.00030526	720	2.0727e-06	3.8564e-06	452.5	182.41	2.4932e-06	3.3409e-06	128.01	43.289	57.767	26.098	3.2957e-06	24.516	0.0051069	0.0069887	0.0019392	754.89	7.6217e-05	7.8441e-05	488.37	192.91	7.4399e-05	7.8698e-05	154.22	51.63	66.043	28.469	7.4602e-05	28.176	239.719	19.570	52.383	-107.857	-74.709	-72.512	-108.931	-102.239	-5.190	7.149	-105.381	-100.350	-98.312	-93.722	97.777	-97.427	-8191	255	
16189.301	1	1	0	0	0.18417	0.23557	0.24923	0.045733	0.24622	0.11357	0.14669	0.21202	0.12192	0.24774	0.12224	0.12615	0.09406	0.12368	0.23308	0.074861	-2.5958	-2.9917	-3.3354	-2.85	-3.5312	-3.2917	-3.0333	-3.3375	-2.9729	-3.1542	-3.2354	-3.0167	-3.2812	-3.3604	-3.1562	-3.45	25.661	13.103	69.961	172.686	82.994	197.066	197.614	201.577	220.925	135.276	58.716	141.260	235.329	164.779	13.436	-67.262	4.7627e-05	0.0006969	0.00032519	721.38	5.2462e-06	6.284e-06	450.64	181.62	3.8845e-06	1.0613e-05	126.17	43.052	57.406	26.133	2.8985e-06	24.777	0.0051631	0.0070262	0.0019437	755.18	7.6292e-05	7.8842e-05	487.35	192.26	7.4661e-05	7.9146e-05	153.6	51.336	65.823	28.447	7.543e-05	28.32	112.899	0.591	-13.408	-107.794	7.371	159.456	-109.616	-102.138	-57.890	-49.709	-105.315	-100.899	-98.806	-93.538	-99.410	-97.108	-8191	255	
16189.422	1	1	0	0	0.17421	0.13209	0.046406	0.13022	0.086025	0.16576	0.19473	0.1262	0.13592	0.13704	0.1546	0.19615	0.13188	0.25752	0.22269	0.15819	-2.625	-3.0542	-3.2208	-3.0083	-3.1521	-3.1521	-3.0333	-3.4375	-3.1854	-3.3354	-3.4313	-2.8771	-3.1063	-3.2812	-3.0792	-3.3563	217.474	10.278	101.151	102.506	6.352	134.612	-100.271	138.746	-79.143	172.717	89.866	77.090	-72.374	43.879	100.023	128.591	0.00019267	0.0010713	0.00013652	720.74	9.5817e-06	1.9666e-05	452.01	182.5	6.3625e-06	1.0564e-05	125.24	43.218	57.763	26.34	7.8572e-06	24.808	0.0052462	0.0070855	0.0019628	754.46	7.6114e-05	8.065e-05	488.58	193.22	7.5509e-05	7.9131e-05	154.15	51.88	66.175	28.609	7.6765e-05	28.5	-111.815	29.442	165.980	-107.928	13.645	76.455	-109.268	-102.562	-95.404	12.420	-104.590	-100.422	-98.181	-93.402	-117.652	-97.082	-8191	255	
16189.518	1	1	0	0	0.26747	0.1246	0.075861	0.23713	0.26089	0.14693	0.042901	0.072795	0.157	0.074411	0.31093	0.10702	0.21431	0.23216	0.12294	0.11669	-2.7229	-3.1208	-3.3625	-3.0604	-3.2521	-3.2021	-3.0167	-3.2792	-3.1562	-3.1188	-3.2188	-2.9729	-3.0833	-3.2938	-3.0667	-3.3021	85.650	-2.163	-75.257	189.248	127.104	128.333	237.627	-57.969	218.501	34.834	-60.249	-106.684	-78.032	184.384	-53.977	108.604	0.00026083	0.00048241	0.0002318	716.58	1.1448e-06	2.0934e-06	452.48	181.98	7.7806e-06	2.6698e-06	126.01	43.227	58.057	26.359	4.89e-06	24.96	0.0052629	0.0070666	0.0019962	756.29	7.5583e-05	8.0127e-05	488.8	193.27	7.5186e-05	7.8642e-05	154.86	52.077	66.063	28.659	7.6288e-05	28.55	-107.258	73.510	61.793	-107.689	154.366	22.178	-109.432	-102.400	-20.364	-23.172	-105.139	-100.887	-98.840	-93.315	61.162	-97.151	-8191	255	
16189.614	1	1	0	0	0.29154	0.11099	0.054785	0.080454	0.10251	0.26055	0.18697	0.19277	0.23673	0.14832	0.13098	0.1657	0.13307	0.10671	0.015941	0.18224	-2.5667	-3.1354	-3.2938	-3.2333	-3.2417	-3.3583	-3.0729	-3.3312	-3.3	-3.1042	-3.1708	-3.0021	-3.2917	-3.3521	-3.0229	-3.2708	168.182	-3.309	112.794	27.700	-97.450	39.352	107.456	-76.991	-8.982	153.469	171.506	-8.160	47.445	208.268	122.443	218.508	0.0002305	0.00051873	0.00027388	721.18	5.4669e-06	1.9164e-06	451.24	181.7	1.9696e-06	1.2502e-05	124.69	43.144	57.634	26.114	3.3451e-06	24.83	0.0052202	0.006963	0.0019527	753.52	7.4307e-05	7.8841e-05	487.03	192.26	7.2157e-05	7.5356e-05	152.85	51.686	65.27	28.258	7.2652e-05	28.09	228.555	103.824	97.545	-107.796	31.539	-77.602	-109.290	-102.043	-78.891	155.875	-104.880	-100.535	-97.668	-93.238	23.271	-96.721	-8191	255	
16189.710	1	1	0	0	0.091352	0.11801	0.23989	0.06003	0.060104	0.13394	0.37645	0.1522	0.24007	0.20166	0.15225	0.15063	0.21886	0.20308	0.078399	0.2192	-2.8104	-2.8646	-3.3729	-3.1063	-3.2542	-3.2729	-2.9333	-3.2167	-3.2313	-2.9604	-3.2854	-3.0146	-2.9625	-3.4708	-3.2021	-3.2292	134.173	134.871	239.765	-101.696	-59.297	-26.043	132.234	17.733	154.001	183.613	221.493	18.204	200.717	118.304	65.835	-1.345	0.000111	0.00044425	9.9209e-05	717.34	9.4843e-06	2.3743e-06	444.27	181.1	2.8965e-06	4.5883e-06	125.11	42.98	57.013	25.969	4.8993e-06	24.634	0.0050207	0.006647	0.0018818	747.77	7.1634e-05	7.6106e-05	482.35	191.2	7.0721e-05	7.5239e-05	152.29	51.138	65.053	28.237	7.2959e-05	27.95	-62.621	70.355	-82.897	-107.855	172.476	-73.197	-109.238	-101.964	135.196	197.586	-105.314	-100.872	-98.314	-93.524	-78.374	-96.979	-8191	255	
16189.829	1	1	0	0	0.23722	0.22262	0.12468	0.13045	0.17392	0.069635	0.057991	0.18107	0.18789	0.30494	0.098832	0.26656	0.075795	0.080776	0.26589	0.21335	-2.7833	-2.9917	-3.2729	-3.2771	-3	-3.3854	-3.075	-3.2979	-3.1979	-2.9979	-3.2229	-3.0604	-3.0396	-3.3438	-3.2042	-3.1167	222.197	104.608	-93.540	-119.156	-102.654	98.523	148.044	-106.818	188.009	27.291	173.716	194.665	-58.954	7.100	96.236	152.031	0.00013886	0.00051668	0.00021504	718.1	6.2528e-06	3.9926e-06	448.9	180.41	8.9386e-06	1.8208e-05	127.51	43.319	57.422	26.162	4.5392e-06	24.877	0.0049681	0.006686	0.001904	748.84	7.0486e-05	7.6377e-05	483.19	191.24	7.1141e-05	7.4761e-05	153.09	51.413	65.172	28.308	7.3717e-05	28.163	197.658	163.934	160.512	-107.669	-71.830	222.218	-109.225	-102.232	46.544	-28.399	-105.367	-100.298	-98.133	-93.200	37.637	-97.577	-8191	255	
16189.901	1	1	0	0	0.25876	0.16717	0.26794	0.19472	0.107	0.18864	0.14666	0.1217	0.088088	0.028081	0.15105	0.10572	0.090451	0.018028	0.12246	0.16415	-2.9938	-3.0354	-3.175	-3.3021	-3.1021	-3.3937	-3.2562	-3.1958	-3.3083	-3.1562	-3.3354	-3.2479	-3.0771	-3.3688	-2.9688	-3.2188	2.320	22.410	62.365	132.503	-4.781	89.106	14.954	-82.481	50.707	52.667	-73.719	-40.871	163.893	207.577	75.040	191.153	3.7947e-06	0.0010698	0.00039367	719.69	7.0929e-06	1.2794e-05	452.15	183.08	7.4139e-06	4.578e-06	128.26	43.853	58.15	26.314	8.3704e-06	25.207	0.0050452	0.0067715	0.0019239	751.47	7.1757e-05	7.6736e-05	486.56	192.77	7.1396e-05	7.6738e-05	154.27	52.299	65.749	28.603	7.4205e-05	28.469	216.145	57.261	78.908	-107.582	2.824	37.124	-109.460	-102.463	161.544	231.610	-105.297	-100.558	-98.275	-93.131	23.494	-96.914	-8191	255	
16189.997	1	1	0	0	0.17216	0.11598	0.063719	0.27662	0.25124	0.35695	0.16392	0.17192	0.074209	0.13125	0.12738	0.1877	0.13027	0.15276	0.11694	0.19563	-2.7125	-3.1271	-3.1729	-3.1729	-2.8792	-3.3792	-3.1083	-3.1646	-3.3375	-2.9542	-3.2792	-3.2167	-3.1396	-3.3854	-2.9396	-3.0062	-87.911	136.049	-28.657	-99.562	74.313	183.053	-100.941	-93.633	-61.318	158.960	156.587	-105.047	64.339	233.629	102.289	110.071	0.00010974	0.00071685	0.00036217	716.98	4.654e-06	1.7723e-06	451.34	181.43	1.4657e-06	1.0823e-05	126.94	43.789	57.235	26.229	1.4585e-05	25.3	0.0050337	0.0067859	0.0019133	749.54	7.1204e-05	7.7004e-05	483.66	190.84	6.9105e-05	7.4067e-05	151.43	51.388	64.583	28.378	7.0279e-05	28.34	222.820	-57.838	-7.782	-107.578	103.879	-20.579	-109.303	-102.414	-79.031	24.420	-105.049	-100.788	-98.307	-92.991	102.428	-96.867	-8191	255	
16190.117	1	1	0	0	0.11087	0.2636	0.11575	0.24245	0.30753	0.10754	0.25186	0.26641	0.028911	0.12474	0.061688	0.061305	0.15225	0.063804	0.14614	0.19285	-2.9917	-3.0917	-3.2271	-3.1854	-2.9729	-3.2917	-3.2292	-3.1208	-3.4729	-3.1479	-3.1271	-3.35	-3.075	-3.3875	-3.1854	-3.1083	193.410	164.029	133.734	151.684	121.174	39.106	46.795	-93.699	74.423	185.269	83.764	130.764	121.421	213.362	228.609	106.948	4.7623e-05	0.00040379	0.00013952	690.52	5.6088e-06	5.1874e-06	435.29	174.88	1.8765e-06	2.9627e-06	121.65	42.961	55.823	26.542	1.5314e-06	25.557	0.0048148	0.0064132	0.001791	719.01	6.6396e-05	7.1404e-05	466.03	183.75	6.4978e-05	6.9173e-05	145.41	50.457	62.77	28.507	6.9278e-05	28.846	190.966	84.199	150.285	-107.764	-96.101	222.463	-109.104	-102.399	-3.234	36.604	-104.985	-100.336	-98.332	-93.640	14.822	-97.013	-8191	255	
16190.214	1	1	0	0	0.25116	0.18195	0.12352	0.11054	0.090389	0.10098	0.19048	0.252	0.27805	0.07867	0.036921	0.13247	0.18261	0.21423	0.26081	0.13964	-2.9146	-3.1292	-3.0146	-3.3146	-3.1667	-3.2062	-3.3229	-3.05	-3.3854	-3.1125	-3.1063	-3.1479	-3.0833	-3.2812	-3.175	-3.0208	201.541	155.524	47.759	209.917	8.360	-114.490	-15.463	173.418	203.085	45.270	-27.581	176.673	16.641	140.241	216.147	-107.630	6.5789e-05	0.00047031	0.00016223	682.38	2.8729e-06	6.6326e-06	436.94	171.94	1.9723e-06	1.5841e-05	122.05	42.97	55.197	26.694	4.3006e-06	26.065	0.0049799	0.0068835	0.001953	718.56	7.6854e-05	8.3208e-05	478.6	185.09	8.3605e-05	9.0831e-05	155.8	53.422	66.281	29.97	0.0001042	31.532	186.218	-64.292	170.098	-107.609	173.477	58.256	-108.986	-102.058	66.624	49.130	-105.609	-101.628	-98.785	-93.798	167.776	-97.314	-8191	255	
16190.310	1	1	0	0	0.19213	0.24369	0.17584	0.038819	0.22518	0.038148	0.044906	0.057665	0.14669	0.12047	0.20846	0.074339	0.21809	0.033609	0.24157	0.069498	-2.95	-2.9771	-2.8958	-3.3854	-2.9375	-3.3229	-3.3479	-3.0917	-3.3104	-3.0521	-3.0083	-3.1937	-2.925	-3.4583	-3.3604	-3.1958	174.785	238.571	197.260	-73.801	196.501	39.119	120.018	-55.819	92.779	16.384	79.328	-29.735	-89.580	-68.132	132.844	197.309	0.00020092	0.00019112	0.00010094	670.8	1.2538e-05	1.4746e-05	445.97	169.6	9.3613e-06	2.0677e-05	124.8	44.745	57.535	27.043	1.2424e-05	26.742	0.0080756	0.011301	0.0033065	762.55	0.00013936	0.0001543	544.01	202.99	0.00017591	0.0001975	207.78	70.861	86.21	36.48	0.00025031	41.544	218.734	96.594	-14.007	-107.767	75.519	102.104	-109.693	-103.082	143.928	-19.973	-105.947	-102.032	-99.732	-95.397	195.939	-98.782	-8191	255	
16190.406	1	1	0	0	0.30187	0.15494	0.14808	0.21726	0.29014	0.13703	0.1863	0.17954	0.34318	0.18188	0.3221	0.23229	0.1371	0.09364	0.04411	0.1019	-2.9542	-3.1063	-2.9896	-3.3229	-3.075	-3.2687	-3.3521	-3.2229	-3.3312	-3.2188	-3.0792	-3.4854	-3.25	-3.3375	-3.2833	-3.4042	-62.848	12.576	-68.326	205.316	-27.605	-60.269	25.190	170.200	44.879	2.205	-44.038	225.251	-23.417	18.466	186.520	-107.173	7.8921e-05	0.00051404	0.00030996	752.29	2.7418e-05	2.2698e-05	533.47	199.42	5.9214e-06	2.5291e-05	154.75	61.826	77.755	31.962	1.6789e-05	30.76	0.018736	0.026449	0.0075353	986.99	0.0003048	0.00032749	749.64	271.48	0.0003259	0.00034535	296.66	104.87	122.29	46.085	0.00034176	50.302	-15.646	15.424	185.613	-108.953	-54.468	1.069	-110.258	-105.019	11.502	25.601	-107.741	-105.256	-103.343	-98.161	-41.932	-100.509	-8191	255	
16190.502	1	1	0	0	0.15135	0.01969	0.12395	0.055564	0.08815	0.17206	0.27317	0.21012	0.07085	0.1058	0.22454	0.10452	0.11988	0.15669	0.17206	0.16863	-2.9	-3.3396	-2.975	-3.4688	-3.0292	-3.1063	-3.5354	-2.9625	-3.1667	-3.475	-2.9729	-3.2958	-3.1521	-3.3146	-3.2979	-3.1375	173.928	225.548	-107.024	-94.926	-56.915	80.466	81.439	144.895	152.959	-71.967	-29.777	161.204	179.754	84.204	122.559	119.587	0.0004311	0.0013	0.00061226	821.64	1.839e-05	3.3497e-05	559.81	207.99	1.8823e-05	2.9346e-05	158.84	60.54	75.957	31.392	8.8285e-06	30.236	0.023394	0.03187	0.0087879	1088.6	0.00033568	0.00034981	793.34	283.77	0.00033303	0.00034853	299.28	103.45	120.13	45.422	0.00034154	49.943	200.668	99.675	157.746	-109.970	-68.462	105.714	-111.314	-105.314	71.854	92.549	-108.176	-105.205	-103.166	-97.539	32.433	-100.263	-8191	255	
16190.598	1	1	0	0	0.1208	0.082358	0.11049	0.23109	0.21826	0.14587	0.28935	0.11633	0.15644	0.063066	0.097213	0.0072834	0.29038	0.21151	0.24904	0.12438	-2.8312	-3.2958	-2.9167	-3.4708	-3.2896	-3.1688	-3.2875	-3.1417	-3.2812	-3.1521	-3.0062	-3.1729	-3.3104	-3.2396	-3.4167	-2.9875	-14.590	89.742	61.596	-115.025	200.927	180.072	78.747	211.401	181.946	-41.810	53.231	-82.620	191.603	135.131	78.590	146.105	0.00028739	0.0016793	0.00032323	846	8.634e-06	6.8229e-06	569.51	209.98	2.062e-05	3.6657e-05	153.52	53.562	69.219	29.111	2.0521e-05	27.527	0.023702	0.032262	0.0090245	1124	0.00034351	0.0003561	806.87	284.4	0.00033117	0.00034209	291.52	95.549	110.19	41.68	0.00031361	45.27	142.544	146.438	219.925	-110.101	115.669	-40.404	-111.142	-105.531	83.776	-110.208	-107.672	-104.323	-101.679	-96.355	-3.824	-99.178	-8191	255	
16190.694	1	1	0	0	0.10407	0.051431	0.1162	0.079534	0.086174	0.094823	0.25849	0.11126	0.15623	0.22537	0.10611	0.10253	0.22436	0.26256	0.10229	0.15633	-2.7125	-3.1625	-3.0687	-3.2687	-3.1958	-3.1042	-3.4333	-3.1021	-3.05	-3.4313	-3.0104	-3.1375	-3.3	-3.0625	-3.0771	-3.1354	-91.835	99.448	3.185	-74.760	27.264	67.680	90.259	121.743	24.856	142.993	194.049	-59.890	197.968	231.657	-101.915	-37.241	9.6238e-05	0.0019922	0.00031807	789.62	2.0702e-05	8.2922e-06	526.1	192.39	1.2594e-05	9.7331e-06	137.8	47.174	61.647	27.47	2.7094e-05	27.139	0.020916	0.028337	0.0078763	1030	0.00029576	0.00030543	728.09	255.65	0.00028531	0.00029882	261.44	84.127	98.173	38.966	0.00029103	43.564	-122.048	28.748	1.109	-109.711	100.554	31.513	-110.479	-104.595	-110.051	106.555	-107.337	-103.078	-101.569	-95.444	-34.415	-98.641	-8191	255	
16190.790	1	1	0	0	0.024757	0.12764	0.073894	0.22787	0.12889	0.12226	0.054019	0.27215	0.14217	0.19931	0.020119	0.15602	0.10245	0.17198	0.13358	0.1089	-2.8125	-3.325	-3.0229	-3.4021	-3.1917	-2.975	-3.3187	-3.2875	-3.1167	-3.3563	-3.2812	-3.2542	-3.3312	-3.0563	-3.2542	-3.3104	148.223	138.904	209.553	155.375	158.209	188.760	-116.022	207.476	221.778	112.788	-60.463	218.598	-14.184	103.451	142.676	193.893	6.7606e-05	0.00084298	0.00024565	752.54	1.9537e-05	2.3162e-05	505.59	187.16	1.4141e-05	2.6935e-05	143.49	49.864	63.743	28.036	1.5851e-05	28.06	0.019676	0.027145	0.0076837	985.04	0.00028944	0.00030569	714.98	253.84	0.00029082	0.00031007	269.58	88.056	101.95	40.192	0.0003023	45.017	166.233	76.272	179.542	-108.956	-57.756	10.539	-110.901	-104.743	86.409	145.413	-107.042	-104.192	-101.054	-96.105	181.875	-98.990	-8191	255	
16190.909	1	1	0	0	0.1851	0.2569	0.077174	0.18657	0.14452	0.14645	0.20195	0.070315	0.27382	0.091193	0.092821	0.30427	0.16975	0.14499	0.33947	0.16286	-2.7854	-3.2104	-3.0375	-3.3063	-3.3438	-3.0896	-3.2583	-3.3208	-3.2604	-3.2646	-3.2146	-3.1479	-3.4292	-3.125	-3.2271	-3.3438	129.897	11.905	-115.348	203.123	159.304	-89.441	122.481	-75.737	1.399	-37.323	214.092	187.819	3.163	219.899	-17.581	140.038	0.0001082	0.0022537	0.00035661	762.96	9.8897e-06	2.767e-05	516.75	188.09	4.4071e-06	2.902e-05	140.03	49.604	62.445	28.338	1.2406e-06	28.796	0.020157	0.027877	0.0078199	997.48	0.00028687	0.00030131	716.42	248.83	0.00027222	0.00028833	257.47	84.058	96.996	39.063	0.00027224	44.008	178.821	-113.632	171.051	-109.427	-72.558	124.109	-110.222	-104.599	-77.067	207.654	-106.795	-103.780	-101.734	-95.973	125.808	-99.768	-8191	255	
16191.005	1	1	0	0	0.14275	0.33087	0.06392	0.22094	0.19314	0.10156	0.080769	0.090521	0.069353	0.15847	0.12548	0.11711	0.091863	0.31987	0.077232	0.098645	-2.7104	-3.3333	-3.2792	-3.2521	-3.4292	-3.1292	-3.0958	-3.1708	-3.0542	-3.2604	-3.2729	-3.1688	-3.275	-3.0208	-3.2583	-3.2438	-117.995	-76.971	232.219	199.888	9.413	57.528	225.721	128.567	-83.635	-85.589	189.192	184.464	-55.498	211.841	111.425	114.665	0.00031482	0.0011446	0.00020358	783.55	9.61e-06	1.44e-05	547.95	192.87	7.8728e-06	1.6176e-05	149.75	53.848	66.58	29.967	1.5061e-05	30.528	0.017958	0.024977	0.007	982.34	0.00025656	0.00027364	723.63	248.69	0.00025273	0.00027024	257.96	85.805	99.028	40.213	0.00026069	44.895	163.382	134.676	9.622	-109.425	-21.718	166.536	-110.672	-104.856	142.348	56.549	-107.624	-103.971	-102.556	-96.568	-87.246	-99.510	-8191	255	
16191.102	1	1	0	0	0.25934	0.13883	0.32101	0.14654	0.16906	0.037416	0.077242	0.12814	0.17708	0.11534	0.32934	0.1283	0.16214	0.18486	0.28696	0.060685	-2.6354	-3.1813	-2.9667	-3.2521	-3.3354	-3.1583	-3.2604	-3.5021	-3.0542	-3.3688	-3.1729	-3.0812	-3.3646	-3.1792	-3.2188	-3.3854	-35.100	35.419	153.180	-102.469	-73.903	87.056	-87.398	186.668	226.455	218.194	16.582	210.526	210.363	-57.597	-114.389	140.761	0.00015517	0.00068101	0.00042324	830.98	1.9713e-05	9.8676e-06	599.68	201.56	1.5828e-05	1.5302e-05	160.55	56.267	69.541	30.44	2.0336e-05	32.039	0.017388	0.024445	0.0067615	1024.4	0.00025284	0.00027097	767.95	256.75	0.00025194	0.00027052	268.25	88.215	101.91	40.85	0.00025761	45.832	109.396	-101.735	-21.209	-109.805	44.508	-64.805	-111.206	-105.270	127.083	4.236	-108.260	-104.618	-102.845	-96.707	72.032	-99.629	-8191	255	
16191.198	1	1	0	0	0.16664	0.13882	0.088517	0.15075	0.22762	0.20723	0.22227	0.17689	0.031132	0.084395	0.15117	0.075539	0.27848	0.10729	0.15972	0.43554	-2.6271	-3.3937	-3.225	-3.0792	-3.2875	-3.1375	-3.2729	-3.4104	-3.0563	-3.4083	-3.3208	-3.0083	-3.4396	-3.1208	-3.1	-3.5583	97.258	-64.887	53.549	-101.570	177.789	14.910	131.532	-120.262	-1.197	-92.431	-14.125	164.360	-91.789	95.202	38.213	18.847	0.00010736	0.00048459	0.00010611	923.07	1.4935e-05	1.9265e-06	678.84	222.2	9.3401e-06	3.3577e-05	180.2	62.989	77.05	31.681	3.3346e-05	33.077	0.017302	0.024068	0.0067369	1106.3	0.0002521	0.00026867	844.02	275.34	0.000249	0.00026496	282.8	93.511	108.63	41.765	0.00025453	46.711	93.957	52.669	-1.463	-110.383	179.624	-30.510	-112.164	-106.176	-81.997	40.407	-108.394	-105.751	-103.587	-97.593	33.799	-100.024	-8191	255	
16191.294	1	1	0	0	0.34606	0.29103	0.063066	0.28077	0.18665	0.29511	0.16113	0.12972	0.11192	0.16771	0.20059	0.097188	0.16346	0.097728	0.2933	0.10795	-2.75	-3.2625	-3.1667	-3.0667	-3.3375	-3.1396	-3.0958	-3.3271	-2.9854	-3.175	-3.3021	-3.0625	-3.1229	-3.2646	-3.1479	-3.3604	216.511	-112.853	116.582	175.286	40.552	33.255	215.002	219.552	223.599	10.032	-98.715	-9.539	-109.663	230.798	193.665	60.318	0.000191	7.1228e-05	0.00037378	1034.5	1.504e-05	1.2651e-05	788.64	249.18	7.8996e-06	7.5653e-06	205.09	65.421	81.422	31.081	8.9299e-06	33.024	0.017434	0.023891	0.0067102	1218.1	0.00025215	0.0002667	950.84	302.52	0.00025389	0.00026873	311.1	96.99	114.43	41.415	0.00026104	47.79	-77.673	197.863	201.869	-111.133	-124.070	-90.498	-112.345	-107.069	-31.379	145.096	-109.889	-106.278	-105.103	-97.070	38.183	-99.824	-8191	255	
16191.390	1	1	0	0	0.10855	0.060237	0.27568	0.31366	0.22449	0.12447	0.17872	0.089458	0.16684	0.19948	0.12242	0.16293	0.21298	0.13845	0.22395	0.22474	-2.5833	-3.275	-3.2646	-3.2313	-3.3125	-3.3333	-3.2958	-3.5208	-3.1667	-3.0604	-3.4062	-2.9458	-3.4188	-3.5729	-3.0396	-3.4875	-109.175	-5.185	70.869	200.889	91.579	90.631	162.412	-93.635	111.670	-7.585	200.143	8.368	216.866	-43.602	137.407	81.419	0.00026868	0.00089719	0.00037557	1322.2	9.5577e-06	8.7679e-06	1068.5	335.4	1.3677e-05	1.9003e-06	276.33	74.965	94.652	33.469	9.3106e-06	35.991	0.01817	0.025064	0.0070649	1505.3	0.00026861	0.00028607	1226.6	389.1	0.0002687	0.00028357	383.76	107.56	129.39	44.25	0.00027156	50.783	220.370	205.123	-97.635	-112.591	58.732	25.942	-113.793	-109.802	-23.025	-89.209	-112.049	-107.426	-106.873	-96.923	-110.888	-99.597	-8191	255	
16191.511	1	1	0	0	0.053215	0.12798	0.22441	0.23764	0.34836	0.15225	0.32698	0.093696	0.11136	0.21079	0.079698	0.24159	0.038702	0.18234	0.21342	0.18824	-2.7562	-3.1604	-3.2646	-3.0792	-3.2313	-3.3583	-3.3542	-3.5396	-3.1667	-3.0667	-3.3708	-3.2375	-3.2125	-3.1167	-3.2021	-3.4729	-26.757	-99.145	10.859	178.048	222.898	78.803	122.667	-118.149	14.879	172.915	79.344	-35.383	72.774	164.492	194.869	53.067	0.00035618	0.0018944	0.00021133	1443	1.3383e-05	1.3574e-05	1117.1	359.67	1.1621e-05	1.8378e-05	292.78	78.783	99.567	33.616	6.0483e-06	35.684	0.018682	0.025242	0.0070839	1622.9	0.0002661	0.00027777	1271.4	411.37	0.00026001	0.00027057	393.51	110.3	131.6	43.944	0.00025507	49.672	211.555	231.598	136.131	-112.824	130.511	68.170	-113.969	-110.185	-97.107	39.785	-112.282	-108.150	-106.904	-97.464	60.469	-100.383	-8191	255	
16191.607	1	1	0	0	0.042189	0.16226	0.25526	0.13554	0.15824	0.01973	0.049769	0.29573	0.19382	0.082902	0.097986	0.2002	0.11376	0.1608	0.19402	0.22142	-2.7938	-3.0563	-3.2896	-3.1271	-3.0542	-3.0708	-3.0979	-3.3396	-3.2417	-3.2917	-3.45	-3.1542	-3.2167	-3.3417	-3.1125	-3.5792	97.796	194.315	-82.076	208.523	-125.522	62.433	122.318	215.638	5.202	139.442	193.218	207.204	46.393	124.152	-119.576	-82.442	0.00041649	0.0006734	0.00031852	1435.4	9.3361e-06	1.4947e-05	1106.8	351.49	8.2716e-06	1.4943e-05	283.32	78.738	98.372	32.871	1.0757e-05	34.928	0.017509	0.023584	0.006621	1601	0.0002494	0.00025966	1246.2	400.87	0.00024372	0.00025494	381.42	108.75	128.1	42.372	0.00024141	48.156	-118.122	179.969	226.740	-112.659	2.975	-24.175	-113.882	-109.808	210.570	-121.009	-111.920	-107.994	-106.315	-97.263	68.217	-99.667	-8191	255	
16191.701	1	1	0	0	0.3013	0.10793	0.056183	0.29458	0.18087	0.025362	0.53164	0.12418	0.1598	0.088724	0.30215	0.1481	0.24304	0.17424	0.14374	0.054585	-2.7021	-3.0646	-3.3563	-3.1167	-3.2208	-3.425	-3.1292	-3.2708	-3.3688	-3.0938	-3.4792	-3.0854	-3.175	-3.4458	-3.0146	-3.3563	40.880	220.984	-63.436	161.784	-61.704	78.248	225.304	224.288	216.953	90.916	99.150	217.373	208.057	202.975	65.973	144.838	0.00029246	0.0024869	0.00014397	1400.9	2.0576e-05	1.0629e-05	1071.9	343.61	1.27e-05	1.3716e-05	277.84	73.82	92.182	32.712	1.5105e-05	34.351	0.016448	0.022147	0.0063304	1560.7	0.00023692	0.00024657	1210.7	389.63	0.00023626	0.00024638	370.64	103.09	121.38	41.851	0.0002386	47.309	-122.716	-37.264	68.787	-112.468	154.303	216.743	-113.710	-109.738	-49.958	-40.548	-111.787	-107.421	-105.912	-96.917	-19.129	-99.603	-8191	255	
16191.797	1	1	0	0	0.13819	0.1107	0.10235	0.2673	0.12045	0.10697	0.12628	0.10197	0.024744	0.11899	0.16099	0.060353	0.23024	0.18306	0.18577	0.25909	-2.8583	-3.0125	-3.4167	-3.2333	-2.9875	-3.3417	-3.0833	-3.3563	-3.3417	-2.9125	-3.5646	-3.1604	-3.1542	-3.3187	-3.1875	-3.1958	18.015	-2.929	86.832	-117.838	143.586	5.799	-9.846	207.987	45.536	204.855	190.600	150.935	153.255	-113.341	161.540	-87.024	0.00015705	0.0022316	0.00013495	1340.2	5.1269e-06	1.2173e-05	998.84	313.74	6.8089e-06	1.9962e-05	246.17	70.264	87.112	31.9	2.8029e-06	33.785	0.016043	0.021773	0.0061924	1491.1	0.00022705	0.00023724	1125.2	356.44	0.00021898	0.00022614	331.31	96.457	111.88	39.758	0.00020521	44.768	-104.266	-18.759	12.029	-112.030	63.025	208.398	-112.935	-108.652	123.799	105.729	-111.058	-107.267	-104.955	-96.852	4.427	-99.584	-8191	255	
#DATA ENDS
