BOXY.EXE: ISS Imagent and Oximeter Data Acquisition Program Version 0.80
Ascii Record File

#ACQ INFORMATION
2  Detector Channels 
16  External MUX Channels 
1  Auxiliary Channels 
5000  Waveform (CCF) Frequency (Hz)
1  Waveforms Skipped 
30  Waveforms Averaged 
1  Cycles Averaged 
16  Acquisitions per Waveform 
10.0806  Updata Rate (Hz) 

#FILE INFORMATION
TRUE -- External MUX Channel results are PARSED.
FALSE -- AC DC and Phase are NOT grouped.
TRUE -- Companion Program Settings File CREATED.
FALSE -- AC data not excluded
FALSE -- DC data not excluded
FALSE -- Phase data not excluded
FALSE -- Auxillary Chn. data not excluded
Tab delimiters

#CALIBRATION STATE
TRUE -- Waveform Calibration Values APPLIED.


#AUX CALIBRATION VALUES
Val Type	aux-1	

Term	1.0000e+00	
Factor	0.0000e+00	


#WF CALIBRATION VALUES
A = Detector Channel
Val Type	A-AC1	A-AC2	A-AC3	A-AC4	A-AC5	A-AC6	A-AC7	A-AC8	A-AC9	A-AC10	A-AC11	A-AC12	A-AC13	A-AC14	A-AC15	A-AC16	A-DC1	A-DC2	A-DC3	A-DC4	A-DC5	A-DC6	A-DC7	A-DC8	A-DC9	A-DC10	A-DC11	A-DC12	A-DC13	A-DC14	A-DC15	A-DC16	A-Ph1	A-Ph2	A-Ph3	A-Ph4	A-Ph5	A-Ph6	A-Ph7	A-Ph8	A-Ph9	A-Ph10	A-Ph11	A-Ph12	A-Ph13	A-Ph14	A-Ph15	A-Ph16	

Term	0.00000e+00	0.00000e+00	0.00000e+00	0.00000e+00	0.00000e+00	0.00000e+00	0.00000e+00	0.00000e+00	0.00000e+00	0.00000e+00	0.00000e+00	0.00000e+00	0.00000e+00	0.00000e+00	0.00000e+00	0.00000e+00	0.00000e+00	0.00000e+00	0.00000e+00	0.00000e+00	0.00000e+00	0.00000e+00	0.00000e+00	0.00000e+00	0.00000e+00	0.00000e+00	0.00000e+00	0.00000e+00	0.00000e+00	0.00000e+00	0.00000e+00	0.00000e+00	0.00000e+00	0.00000e+00	0.00000e+00	0.00000e+00	0.00000e+00	0.00000e+00	0.00000e+00	0.00000e+00	0.00000e+00	0.00000e+00	0.00000e+00	0.00000e+00	0.00000e+00	0.00000e+00	0.00000e+00	0.00000e+00	
Factor	1.00000e+00	1.00000e+00	1.00000e+00	1.00000e+00	1.00000e+00	1.00000e+00	1.00000e+00	1.00000e+00	1.00000e+00	1.00000e+00	1.00000e+00	1.00000e+00	1.00000e+00	1.00000e+00	1.00000e+00	1.00000e+00	1.00000e+00	1.00000e+00	1.00000e+00	1.00000e+00	1.00000e+00	1.00000e+00	1.00000e+00	1.00000e+00	1.00000e+00	1.00000e+00	1.00000e+00	1.00000e+00	1.00000e+00	1.00000e+00	1.00000e+00	1.00000e+00	X	X	X	X	X	X	X	X	X	X	X	X	X	X	X	X	

B = Detector Channel
Val Type	B-AC1	B-AC2	B-AC3	B-AC4	B-AC5	B-AC6	B-AC7	B-AC8	B-AC9	B-AC10	B-AC11	B-AC12	B-AC13	B-AC14	B-AC15	B-AC16	B-DC1	B-DC2	B-DC3	B-DC4	B-DC5	B-DC6	B-DC7	B-DC8	B-DC9	B-DC10	B-DC11	B-DC12	B-DC13	B-DC14	B-DC15	B-DC16	B-Ph1	B-Ph2	B-Ph3	B-Ph4	B-Ph5	B-Ph6	B-Ph7	B-Ph8	B-Ph9	B-Ph10	B-Ph11	B-Ph12	B-Ph13	B-Ph14	B-Ph15	B-Ph16	

Term	0.00000e+00	0.00000e+00	0.00000e+00	0.00000e+00	0.00000e+00	0.00000e+00	0.00000e+00	0.00000e+00	0.00000e+00	0.00000e+00	0.00000e+00	0.00000e+00	0.00000e+00	0.00000e+00	0.00000e+00	0.00000e+00	0.00000e+00	0.00000e+00	0.00000e+00	0.00000e+00	0.00000e+00	0.00000e+00	0.00000e+00	0.00000e+00	0.00000e+00	0.00000e+00	0.00000e+00	0.00000e+00	0.00000e+00	0.00000e+00	0.00000e+00	0.00000e+00	-1.62352e+02	-1.41008e+02	-1.11495e+02	-1.83984e+02	-1.11418e+02	-7.45502e+01	-1.55811e+02	-1.62015e+02	-8.09347e+01	-4.80968e+01	-1.73154e+02	-1.73613e+02	-1.86815e+02	-1.78292e+02	-6.95269e+01	-1.50256e+02	
Factor	2.31503e-05	1.21955e-04	3.53977e-05	1.73479e-01	9.55770e-07	1.44040e-06	1.63553e-01	5.56841e-02	9.89360e-07	1.12439e-06	9.67085e-02	2.82450e-02	5.57543e-02	8.47876e-03	1.11573e-06	1.21845e-02	1.04864e-06	1.07952e-06	3.00291e-07	8.44363e-02	1.18273e-08	1.18528e-08	7.57509e-02	2.71375e-02	1.18471e-08	1.18386e-08	4.50717e-02	1.32853e-02	2.55029e-02	4.11310e-03	1.18525e-08	5.73167e-03	X	X	X	X	X	X	X	X	X	X	X	X	X	X	X	X	



#DISTANCE SETTINGS
A = Detector Channel
A-1	A-2	A-3	A-4	A-5	A-6	A-7	A-8	A-9	A-10	A-11	A-12	A-13	A-14	A-15	A-16	

2.5000e+00	3.0000e+00	2.5000e+00	3.0000e+00	2.0000e+00	3.0000e+00	1.5000e+00	3.0000e+00	3.0000e+00	3.0000e+00	3.0000e+00	3.0000e+00	3.0000e+00	3.0000e+00	1.5000e+00	3.0000e+00	

B = Detector Channel
B-1	B-2	B-3	B-4	B-5	B-6	B-7	B-8	B-9	B-10	B-11	B-12	B-13	B-14	B-15	B-16	

1.0000e+01	1.0000e+01	1.0000e+01	1.4400e+00	1.0000e+01	1.0000e+01	1.5100e+00	1.9400e+00	1.0000e+01	1.0000e+01	1.9900e+00	2.4900e+00	2.4100e+00	2.9000e+00	1.0000e+01	2.9800e+00	




#DATA BEGINS
time	group	step	mark	flag	A-AC1	A-AC2	A-AC3	A-AC4	A-AC5	A-AC6	A-AC7	A-AC8	A-AC9	A-AC10	A-AC11	A-AC12	A-AC13	A-AC14	A-AC15	A-AC16	A-DC1	A-DC2	A-DC3	A-DC4	A-DC5	A-DC6	A-DC7	A-DC8	A-DC9	A-DC10	A-DC11	A-DC12	A-DC13	A-DC14	A-DC15	A-DC16	A-Ph1	A-Ph2	A-Ph3	A-Ph4	A-Ph5	A-Ph6	A-Ph7	A-Ph8	A-Ph9	A-Ph10	A-Ph11	A-Ph12	A-Ph13	A-Ph14	A-Ph15	A-Ph16	B-AC1	B-AC2	B-AC3	B-AC4	B-AC5	B-AC6	B-AC7	B-AC8	B-AC9	B-AC10	B-AC11	B-AC12	B-AC13	B-AC14	B-AC15	B-AC16	B-DC1	B-DC2	B-DC3	B-DC4	B-DC5	B-DC6	B-DC7	B-DC8	B-DC9	B-DC10	B-DC11	B-DC12	B-DC13	B-DC14	B-DC15	B-DC16	B-Ph1	B-Ph2	B-Ph3	B-Ph4	B-Ph5	B-Ph6	B-Ph7	B-Ph8	B-Ph9	B-Ph10	B-Ph11	B-Ph12	B-Ph13	B-Ph14	B-Ph15	B-Ph16	aux-1	digaux	

5157.479	1	1	0	768	0.1912	0.11639	0.17714	0.30941	0.25762	0.25204	0.31906	0.09384	0.20987	0.14726	0.1136	0.20174	0.031628	0.33211	0.10976	0.27961	-2.775	-3.3542	-3.6917	-3.2125	-3.6479	-3.4771	-3.3396	-3.8792	-3.3812	-3.3729	-3.8354	-3.1167	-3.5458	-3.6146	-3.05	-3.6854	445.575	372.240	223.746	481.522	262.221	486.465	485.698	447.698	201.202	388.830	462.162	345.079	353.249	488.536	264.256	514.238	0.00077843	0.00040061	0.00017088	1359.7	4.4428e-06	1.8917e-06	1352.7	368.32	2.1554e-06	4.7502e-06	417.73	140.25	122.67	41.9	4.5429e-06	51.78	0.00053231	0.00056721	0.0001528	1376.4	5.8421e-06	6.1882e-06	1377.1	373.38	5.9342e-06	6.1767e-06	427.53	142.98	125.01	43.122	5.8663e-06	53.126	521.828	290.548	273.157	182.582	261.219	217.712	182.099	186.734	222.685	362.551	186.512	190.504	190.267	196.121	322.296	195.327	-8191	255	
5157.576	1	1	0	0	0.017899	0.29798	0.042085	0.28525	0.19454	0.19711	0.37856	0.40479	0.11168	0.079216	0.10343	0.1399	0.081237	0.068764	0.022434	0.17161	-3.0312	-3.3604	-3.7521	-3.4	-3.6542	-3.7188	-3.2562	-3.7854	-3.3063	-3.275	-3.8958	-3.3979	-3.3979	-3.6917	-3.1813	-3.7417	480.643	221.012	196.255	446.444	433.790	286.993	450.741	477.080	336.732	352.932	402.869	173.167	381.898	292.666	295.702	513.134	0.00065368	0.00018426	0.0001671	1361.5	4.5823e-06	6.027e-06	1352.2	367.45	1.0824e-05	5.0765e-06	419	140.63	122.48	42.092	5.6305e-06	51.644	0.00055214	0.00055754	0.00014942	1375.9	6.0716e-06	6.1163e-06	1376	373.52	6.0399e-06	6.0326e-06	426.49	142.84	125.39	43.159	5.695e-06	53.032	517.211	501.431	331.691	182.687	205.878	288.179	182.043	186.801	276.674	345.711	186.601	190.588	189.619	195.811	366.453	195.038	-8191	255	
5157.672	1	1	0	0	0.12441	0.15595	0.079112	0.22544	0.1067	0.11205	0.10012	0.21237	0.16419	0.066396	0.27288	0.15502	0.24195	0.30787	0.20521	0.028737	-3.1729	-3.1813	-3.7792	-3.1771	-3.2	-3.6542	-3.2417	-3.6875	-3.4458	-3.1604	-3.9417	-3.3771	-3.4333	-3.825	-3.1292	-3.6167	396.253	280.798	435.988	501.681	300.358	376.536	197.024	495.799	522.883	510.058	508.814	399.434	422.642	524.432	467.750	376.936	0.00070368	0.00060408	0.00016561	1357.9	4.994e-06	7.6899e-06	1357.9	367.73	4.9708e-06	8.8661e-06	421.93	140.63	122.28	41.903	4.7089e-06	51.66	0.00056101	0.00054022	0.00014264	1375.9	6.0841e-06	5.9606e-06	1375.7	373.43	6.1423e-06	5.901e-06	425.61	143.25	125.41	43.063	5.491e-06	53.232	523.817	237.888	284.972	182.459	288.344	340.545	182.139	186.861	331.521	342.840	186.530	190.528	190.097	196.043	331.654	195.229	-8191	255	
5157.768	1	1	0	0	0.037788	0.11474	0.10971	0.32342	0.26578	0.03336	0.34202	0.1064	0.0080434	0.22856	0.1864	0.21374	0.022743	0.1673	0.083255	0.19319	-3.1437	-3.0208	-3.75	-3.3354	-3.425	-3.6604	-3.1625	-3.6312	-3.4958	-3.1458	-3.8312	-3.6312	-3.3625	-3.8	-3.0438	-3.5938	290.467	449.108	397.413	516.421	391.807	184.344	459.758	298.690	403.553	364.852	464.403	191.520	463.624	470.528	452.131	185.806	0.00061576	0.00028211	0.0001953	1360	4.5189e-06	6.4927e-06	1356.5	368.01	8.0303e-06	4.3477e-06	419.41	140.59	122.79	42.097	3.3838e-06	51.957	0.00056483	0.00053243	0.00013951	1381.4	6.0911e-06	5.8916e-06	1375.5	374.53	6.1985e-06	5.92e-06	426.21	143.93	125.94	43.206	5.5875e-06	53.562	526.140	478.543	270.208	182.463	238.126	278.565	182.078	186.886	267.833	343.054	186.607	190.366	190.324	196.113	251.870	195.055	-8191	255	
5157.864	1	1	0	0	0.15394	0.27763	0.24859	0.1686	0.19604	0.2477	0.1151	0.091663	0.21777	0.077487	0.15285	0.54808	0.36224	0.26469	0.11847	0.052336	-3.1042	-3.1375	-3.6333	-3.5375	-3.2104	-3.8146	-3.3792	-3.5208	-3.6458	-2.9354	-3.6167	-3.4896	-3.2562	-3.8104	-3.2917	-3.4938	325.647	487.207	400.415	484.781	363.461	263.838	258.660	455.470	179.045	169.157	512.822	498.834	230.554	477.844	371.990	358.046	0.00080862	0.00048928	0.00010107	1365.4	3.8604e-06	3.789e-06	1359.6	369.29	4.7087e-06	2.432e-06	419.65	139.87	122.81	41.89	2.2425e-06	51.879	0.00057827	0.00054061	0.00014417	1388.6	6.1893e-06	5.9912e-06	1382.6	376.51	6.2505e-06	5.8927e-06	427.67	143.94	125.8	43.113	5.7742e-06	53.709	525.990	252.310	248.253	182.477	278.105	272.157	182.219	186.657	303.810	496.115	186.626	190.412	190.860	195.894	208.988	195.470	-8191	255	
5157.960	1	1	0	0	0.30808	0.10136	0.2111	0.3228	0.12994	0.32369	0.42499	0.12698	0.28171	0.12369	0.27391	0.036421	0.13147	0.12538	0.15011	0.11743	-3.3896	-3.0187	-3.4833	-3.6521	-3.1792	-3.7667	-3.5812	-3.6083	-3.6625	-3.1	-3.575	-3.5292	-3.0312	-3.8563	-3.3708	-3.3146	462.447	172.386	411.427	528.522	449.364	220.609	391.397	206.010	432.369	301.340	482.896	457.198	433.384	473.458	330.691	395.008	0.00071151	0.00035439	7.3109e-05	1360.7	3.6583e-06	6.0737e-06	1358.3	368.6	1.6279e-06	6.1061e-06	418.64	140.46	122.74	41.946	5.0399e-06	51.748	0.00056813	0.00052344	0.00014906	1385.9	6.128e-06	5.7688e-06	1380	375.73	6.1504e-06	5.6174e-06	427.8	144.03	125.3	42.961	6.0856e-06	53.462	520.684	255.136	247.071	182.542	239.325	351.698	182.054	186.767	518.625	420.667	186.710	190.371	190.320	196.239	249.957	195.190	-8191	255	
5158.081	1	1	0	0	0.22765	0.22653	0.14811	0.23316	0.17448	0.15056	0.42382	0.022199	0.13997	0.2536	0.18625	0.14	0.021153	0.060524	0.15219	0.29131	-3.2708	-3.1437	-3.4792	-3.7375	-3.0375	-3.6125	-3.4771	-3.5938	-3.7042	-3.2542	-3.7479	-3.7562	-3.0917	-3.7062	-3.3521	-3.5	414.048	439.056	316.048	469.966	420.974	413.702	466.546	302.969	247.796	465.084	492.845	369.740	324.448	462.296	199.636	443.955	0.00070939	0.00033689	0.00018045	1354.6	7.0074e-06	1.2755e-05	1352.2	367.49	7.907e-06	3.5335e-06	418.84	140.34	123.38	41.833	6.6907e-06	51.675	0.00055184	0.00050449	0.00015466	1379.4	5.8471e-06	5.4789e-06	1377.3	374.16	5.7807e-06	5.4244e-06	427.62	143.35	124.35	42.86	6.0886e-06	53.312	522.550	304.036	255.905	182.723	245.342	333.174	182.019	186.956	300.927	348.477	186.764	190.253	190.388	195.879	250.025	195.248	-8191	255	
5158.177	1	1	0	0	0.13441	0.18439	0.098839	0.18428	0.13083	0.15207	0.17721	0.35718	0.26669	0.051874	0.16071	0.12673	0.070049	0.097227	0.17109	0.080513	-3.2188	-3.1917	-3.4125	-3.6688	-3.05	-3.7479	-3.5917	-3.4125	-3.6312	-3.4521	-3.4437	-3.7979	-3.1542	-3.7896	-3.5708	-3.2229	385.290	320.176	451.150	515.232	232.724	444.800	423.806	173.216	416.897	444.438	444.903	470.728	526.909	457.031	484.402	222.898	0.0005281	0.0005834	7.6161e-05	1361	3.1105e-06	7.2801e-06	1356.6	368.74	6.4875e-06	4.9439e-06	420.29	140.59	123.65	42.078	2.4874e-06	51.906	0.00052546	0.00050244	0.00015556	1382.7	5.65e-06	5.6612e-06	1381	374.8	5.6737e-06	5.7177e-06	428.92	143.53	124.25	43.103	6.2304e-06	53.385	169.942	216.454	263.407	182.461	252.829	295.555	182.047	186.986	347.479	263.205	186.715	190.097	190.618	195.854	518.658	195.375	-8191	255	
5158.273	1	1	0	0	0.055561	0.07729	0.17664	0.24435	0.21029	0.062844	0.20193	0.14174	0.1745	0.11071	0.080943	0.090361	0.083089	0.16136	0.20177	0.13832	-3.3438	-3.2021	-3.1979	-3.8979	-3.0604	-3.6188	-3.7438	-3.3542	-3.7	-3.3458	-3.2938	-3.6646	-3.0729	-3.5333	-3.5521	-3.1	353.682	412.190	274.475	179.500	482.012	411.157	457.178	445.729	297.568	191.715	217.001	443.510	473.827	498.361	270.407	482.543	0.00062702	0.00049375	0.00012661	1361.1	6.5291e-06	2.9986e-06	1354.1	368.76	3.2333e-06	5.4738e-06	418.74	139.84	122.37	41.994	7.1222e-06	51.575	0.0005187	0.00053593	0.00015828	1381.5	5.5597e-06	5.9796e-06	1381.2	375.06	5.5658e-06	6.0234e-06	428.15	143.31	123.84	43.077	6.2036e-06	53.241	524.099	517.303	303.765	182.499	301.896	249.944	182.229	186.972	302.154	286.614	186.742	190.572	190.347	195.838	301.529	195.632	-8191	255	
5158.369	1	1	0	0	0.3171	0.10338	0.10904	0.17536	0.1029	0.22597	0.17517	0.19542	0.10704	0.059957	0.16795	0.089309	0.14982	0.17026	0.038775	0.082805	-3.2313	-3.1583	-3.2042	-3.8708	-3.0312	-3.5812	-3.8417	-3.2833	-3.5521	-3.3958	-3.1562	-3.8229	-3.1146	-3.4875	-3.6854	-3.0646	288.539	444.584	484.282	504.645	206.300	293.410	493.139	525.330	411.549	176.184	236.005	280.144	345.707	451.476	288.647	440.361	0.00063016	0.00024495	0.00025327	1366	3.1759e-06	5.5202e-06	1357.9	366.39	8.3317e-06	8.4927e-06	418.7	140.58	123.22	41.769	2.2083e-06	51.773	0.00051006	0.00055856	0.00015301	1380.1	5.5164e-06	6.0554e-06	1377.1	373.2	5.5297e-06	6.083e-06	426.56	142.93	123.73	43.01	5.9245e-06	53.123	526.322	178.707	314.560	182.525	245.965	219.572	182.044	187.079	298.013	315.146	186.889	190.333	189.990	196.049	293.440	195.254	-8191	255	
5158.464	1	1	0	0	0.15841	0.11595	0.17863	0.34648	0.21634	0.27986	0.11343	0.31339	0.25114	0.12784	0.28571	0.19364	0.12598	0.22844	0.088942	0.24978	-3.0062	-3.375	-3.1917	-3.95	-3.1146	-3.3021	-3.6917	-3.2896	-3.6063	-3.45	-3.0708	-3.6437	-3.0979	-3.3417	-3.6896	-3.1813	431.050	357.971	214.479	486.792	270.458	252.988	447.471	501.052	445.812	233.590	522.471	466.976	429.845	209.639	368.454	498.660	0.00076657	0.00038094	0.0002196	1360	4.0169e-06	2.5012e-06	1353.2	366.73	6.0794e-06	3.5564e-06	420.8	139.9	123.4	41.818	9.9275e-07	51.698	0.00051615	0.00055792	0.00014853	1376.1	5.5971e-06	6.0574e-06	1375.8	372.69	5.7242e-06	6.0613e-06	426.84	142.68	124.55	43.019	5.8354e-06	52.99	527.435	394.099	321.843	182.554	216.440	364.993	182.271	186.680	266.798	351.127	186.685	190.416	190.031	196.089	186.716	194.929	-8191	255	
5158.560	1	1	0	0	0.12654	0.14371	0.18643	0.19683	0.19954	0.13462	0.23012	0.40538	0.14844	0.062355	0.14202	0.11091	0.094052	0.22742	0.16859	0.076396	-3.0917	-3.5167	-3.1521	-3.8021	-3.325	-3.3333	-3.8229	-3.1979	-3.4708	-3.6875	-3.2062	-3.6292	-3.3104	-3.3479	-3.6875	-3.1729	186.892	390.470	521.704	472.205	457.881	171.978	432.365	497.829	287.369	307.694	431.149	501.980	505.641	179.764	486.728	441.515	0.00072937	0.00076034	0.00027088	1359.8	2.8288e-06	2.8792e-06	1354	367.43	4.8936e-06	5.1454e-06	420.28	140.3	121.69	41.972	5.0502e-06	51.667	0.00053647	0.00055249	0.00014495	1375.4	5.7922e-06	5.8988e-06	1376.5	372.69	5.86e-06	5.912e-06	426.45	142.64	124.69	43.029	5.5785e-06	52.945	525.911	264.351	301.932	182.513	176.364	415.408	182.122	186.627	275.465	375.162	186.610	190.394	190.145	196.035	317.575	194.985	-8191	255	
5158.656	1	1	0	0	0.16001	0.19218	0.0065283	0.17452	0.099782	0.072926	0.23373	0.40086	0.28187	0.13732	0.29283	0.073296	0.11703	0.10061	0.039278	0.27211	-3.0854	-3.4604	-3.1042	-3.8042	-3.3667	-3.3021	-3.9625	-3.3583	-3.2667	-3.6625	-3.0771	-3.8208	-3.4292	-3.1729	-3.7208	-3.2687	400.533	434.302	237.903	453.186	463.723	251.688	433.851	455.178	432.348	202.870	521.265	214.006	432.196	405.557	215.687	467.136	0.00068051	0.00015081	0.00015879	1358.5	5.1905e-06	5.6504e-06	1353.9	368.62	2.6745e-06	3.2386e-06	418.38	140.31	122.25	41.947	7.4192e-06	51.646	0.00054716	0.00052899	0.00013886	1375.1	5.9513e-06	5.7386e-06	1372.4	373.17	5.9229e-06	5.7329e-06	424.41	142.64	124.66	42.962	5.3055e-06	53.009	170.599	297.217	314.995	182.662	285.503	324.793	182.095	186.949	270.430	294.324	186.730	190.496	190.390	195.945	340.920	195.133	-8191	255	
5158.777	1	1	0	0	0.093566	0.18816	0.15129	0.29053	0.22702	0.063681	0.25767	0.099267	0.15982	0.32543	0.2144	0.16144	0.21509	0.21063	0.23806	0.18187	-2.8646	-3.4667	-2.9333	-3.6583	-3.4771	-3.1021	-3.9354	-3.4417	-3.1417	-3.7292	-3.1354	-3.6458	-3.5729	-3.1542	-3.8896	-3.3333	509.118	250.401	392.430	468.342	253.700	277.398	488.507	415.353	360.464	431.225	382.600	459.745	498.537	521.089	188.907	366.015	0.00058445	0.00054941	0.00027836	1358	1.4186e-06	7.7605e-06	1352.1	367.29	4.6099e-06	4.1802e-06	417.07	140.77	122	41.865	9.4048e-07	51.735	0.00054407	0.00052124	0.00013231	1373.7	5.9513e-06	5.6424e-06	1370.2	373.2	5.8224e-06	5.6047e-06	423.44	142.83	124.46	42.824	5.234e-06	53.144	525.967	232.831	300.155	182.409	449.836	283.780	182.010	186.818	281.079	320.025	186.801	190.349	190.330	195.887	310.321	194.963	-8191	255	
5158.873	1	1	0	0	0.10499	0.18464	0.058103	0.45542	0.071359	0.27331	0.17011	0.30928	0.026611	0.051167	0.3827	0.28539	0.17455	0.11794	0.12989	0.038737	-2.6771	-3.6625	-3.2125	-3.5167	-3.5812	-3.0104	-3.8	-3.4729	-3.0521	-3.7083	-3.3187	-3.3854	-3.5563	-3.1333	-3.6875	-3.4938	224.637	476.709	490.426	485.131	212.252	467.534	481.394	492.696	346.895	415.402	520.047	525.890	350.497	488.608	234.587	246.770	0.00072313	0.00079097	6.6143e-05	1358.8	3.4783e-06	3.8836e-06	1349.1	366.8	8.1728e-06	3.653e-06	419.18	140.07	122.37	41.798	2.4694e-06	51.543	0.00053236	0.0005063	0.00013105	1376.6	5.7662e-06	5.4183e-06	1369	373.42	5.7629e-06	5.469e-06	423.7	143.15	124.11	42.796	5.3491e-06	53.21	170.715	284.760	361.830	182.510	309.186	408.963	182.170	186.785	279.476	393.421	186.530	190.353	190.667	196.064	302.648	194.944	-8191	255	
5158.969	1	1	0	0	0.16908	0.11755	0.07279	0.14868	0.11175	0.40707	0.18034	0.1646	0.084004	0.15687	0.15053	0.19476	0.2775	0.49483	0.23276	0.38113	-2.625	-3.6604	-3.1458	-3.6312	-3.7438	-2.9354	-3.8021	-3.5583	-3.025	-3.6937	-3.2854	-3.4146	-3.6625	-3.2062	-3.5979	-3.55	509.887	346.401	354.624	499.437	305.313	293.078	392.290	180.084	374.824	499.002	481.572	499.418	253.976	502.720	181.643	478.508	0.00073335	0.00036926	0.00012447	1360.5	6.7471e-06	6.8723e-06	1358.4	366.63	4.8194e-06	2.5314e-06	419.88	139.88	121.13	41.868	6.4404e-06	51.903	0.0005241	0.00049003	0.00013602	1376.8	5.735e-06	5.3184e-06	1372.9	373.38	5.652e-06	5.3192e-06	425.78	143.06	123.86	42.692	5.6463e-06	53.315	521.316	226.375	213.912	182.550	281.684	295.958	182.081	186.863	310.979	343.611	186.423	190.349	190.385	196.201	271.140	195.019	-8191	255	
5159.065	1	1	0	0	0.18086	0.27371	0.32381	0.23168	0.039832	0.20303	0.077135	0.31393	0.21222	0.151	0.32062	0.031429	0.12893	0.21374	0.084575	0.34654	-2.8479	-3.6125	-3.2292	-3.5187	-3.8646	-3.2687	-3.7812	-3.7292	-3.0979	-3.5438	-3.5917	-3.3187	-3.6479	-3.1917	-3.3729	-3.6375	222.337	399.044	505.561	476.156	242.625	438.841	482.158	466.288	226.209	345.968	172.583	189.637	185.055	452.019	400.250	451.059	0.00061546	0.00024289	0.00012781	1356.9	8.6168e-06	5.0397e-06	1355.6	367.17	5.3708e-06	3.3438e-06	419.82	140.12	122.18	41.949	3.1463e-06	51.641	0.00051794	0.00047696	0.00014359	1376.6	5.6006e-06	5.1907e-06	1375.8	373.37	5.5729e-06	5.2015e-06	426.35	143.03	123.81	42.775	5.8891e-06	53.193	527.359	348.313	289.724	182.681	261.237	299.174	182.147	186.949	291.920	505.873	186.462	190.494	190.527	195.940	317.553	195.213	-8191	255	
5159.161	1	1	0	0	0.076867	0.33193	0.14362	0.25809	0.065195	0.41645	0.16442	0.071696	0.17526	0.15391	0.030416	0.13721	0.030517	0.1038	0.1906	0.30452	-2.7625	-3.5729	-3.2292	-3.1417	-3.7292	-3.1375	-3.6125	-3.7229	-3.0021	-3.5833	-3.5583	-3.3	-3.7958	-3.3229	-3.2979	-3.7542	181.742	329.191	252.377	477.387	455.914	458.634	466.852	454.583	382.787	261.426	175.513	182.520	286.142	495.468	307.254	404.166	0.00067959	0.0001805	0.00026178	1360.3	5.517e-06	6.2786e-06	1355.4	366.32	4.3414e-06	6.0714e-06	418.66	140.11	121.82	41.723	2.9045e-06	51.854	0.00050769	0.00048672	0.0001494	1376.3	5.489e-06	5.3355e-06	1376.2	373.04	5.4147e-06	5.3725e-06	426.74	142.88	123.37	42.781	5.9829e-06	53.235	528.862	252.778	278.205	182.551	258.139	219.643	182.303	186.944	339.766	306.688	186.790	190.412	190.510	195.796	356.941	195.335	-8191	255	
5159.257	1	1	0	0	0.032937	0.080438	0.27398	0.25597	0.049163	0.1253	0.052753	0.19612	0.089423	0.17841	0.16194	0.35277	0.066911	0.20323	0.2118	0.29139	-2.5833	-3.65	-3.4062	-3.2146	-3.6875	-3.2375	-3.4917	-3.7625	-3.1396	-3.5729	-3.5854	-3.0771	-3.7062	-3.3479	-3.3625	-3.6667	368.354	231.852	361.484	170.830	525.037	187.583	446.479	442.209	447.115	303.103	411.821	487.100	431.279	482.949	520.667	462.020	0.00073292	0.0007753	0.00022337	1358.2	4.3502e-07	4.5245e-06	1347.8	367	4.4574e-06	5.9451e-07	418.44	140.21	121.49	42.179	2.7384e-06	51.733	0.00049034	0.00050525	0.00015069	1375	5.2932e-06	5.5851e-06	1372.9	372.9	5.2742e-06	5.6109e-06	426.55	142.91	122.8	42.962	5.8574e-06	53.189	520.860	172.376	229.011	182.557	240.983	255.491	182.230	186.635	322.968	298.442	186.594	190.431	190.342	196.208	323.025	195.233	-8191	255	
5159.353	1	1	0	0	0.14217	0.055476	0.2628	0.22544	0.15901	0.13634	0.26378	0.18354	0.1428	0.12948	0.09311	0.11471	0.22138	0.27074	0.16637	0.060526	-2.6917	-3.5354	-3.4875	-3.0375	-3.7729	-3.2479	-3.4042	-3.6437	-3.2271	-3.575	-3.6312	-3.1271	-3.6333	-3.3812	-3.1562	-3.8292	395.880	297.794	477.106	475.326	295.961	291.729	454.325	472.587	320.117	253.017	189.038	434.985	178.206	450.002	265.579	480.521	0.00072831	0.00026262	5.7546e-05	1359.4	4.8961e-06	6.475e-06	1356.5	368.88	6.5516e-06	6.4113e-06	419.22	139.84	122.4	42.055	1.6551e-06	51.612	0.00048001	0.00052681	0.00014919	1376.9	5.2626e-06	5.8826e-06	1378	373.98	5.3036e-06	5.9076e-06	427.38	142.78	123.6	43.129	5.7726e-06	53.111	520.874	417.084	306.601	182.488	221.545	211.413	182.278	186.985	253.027	297.257	186.663	190.407	190.309	196.092	359.200	195.268	-8191	255	
5159.450	1	1	0	0	0.069149	0.22696	0.035153	0.20825	0.17871	0.059518	0.1188	0.31628	0.19063	0.18201	0.32393	0.13819	0.082945	0.27594	0.1648	0.23317	-2.7271	-3.1792	-3.4688	-3.1708	-3.5458	-3.4	-3.2896	-3.9333	-3.0438	-3.2708	-3.8646	-3.1604	-3.4562	-3.5646	-3.1792	-3.7833	415.373	240.477	454.222	503.240	408.728	483.570	343.878	418.421	245.645	188.046	459.203	384.142	237.295	190.722	369.945	447.615	0.00061131	0.00082907	0.0001581	1371	6.2589e-06	5.6782e-06	1360.9	370.41	7.8717e-06	2.8137e-06	421.26	140.35	122.29	42.309	6.4375e-06	51.906	0.00049624	0.00054277	0.00014613	1379.3	5.4336e-06	5.9549e-06	1381.1	374.37	5.5048e-06	5.8739e-06	427.29	142.76	124.32	43.2	5.5581e-06	53.102	515.494	230.560	184.074	182.421	192.524	356.976	182.031	186.677	245.062	269.230	186.642	190.488	190.557	196.019	333.413	195.276	-8191	255	
5159.568	1	1	0	0	0.17541	0.15381	0.20042	0.21909	0.28925	0.20542	0.35606	0.27087	0.12208	0.033011	0.16355	0.28102	0.18099	0.14857	0.24941	0.21977	-3.0979	-3.3458	-3.6813	-3.2438	-3.5021	-3.4896	-3.3187	-3.9542	-3.275	-3.2417	-3.6896	-3.0563	-3.4729	-3.5812	-3.0375	-3.9104	297.592	180.393	468.654	177.774	334.654	331.732	400.172	507.246	169.189	298.669	443.577	428.734	473.536	210.944	414.456	416.542	0.00071138	0.00025068	6.4563e-05	1373.1	3.3239e-06	7.542e-06	1360.5	368.19	5.7285e-06	3.683e-06	419.87	140.7	122.22	42.118	6.3322e-06	51.791	0.00051514	0.00053	0.00014272	1383.1	5.5803e-06	5.811e-06	1380.2	373.75	5.6772e-06	5.763e-06	426.87	143	124.68	43.139	5.458e-06	53.165	517.887	241.843	277.095	182.421	253.206	359.163	182.256	186.772	298.134	305.175	186.615	190.383	190.143	196.237	340.180	194.829	-8191	255	
5159.642	1	1	0	0	0.079826	0.18629	0.17635	0.1261	0.18148	0.11591	0.155	0.27203	0.20681	0.19591	0.13741	0.37401	0.097886	0.038925	0.13517	0.089287	-3.0542	-3.0167	-3.8125	-3.2521	-3.3354	-3.6521	-3.3792	-3.7646	-3.275	-3.1125	-3.725	-3.2646	-3.5	-3.6708	-3.1188	-3.8063	390.393	511.992	298.886	194.162	340.711	321.431	481.816	486.630	302.819	221.166	296.571	458.965	431.765	206.147	373.697	417.134	0.00065659	0.0003503	0.00018098	1367.9	1.9721e-06	5.7857e-06	1360.2	370.36	5.4302e-06	3.4069e-06	421.57	140.94	123.01	42.08	4.0294e-06	51.759	0.00053262	0.00051986	0.0001385	1381.1	5.8471e-06	5.6835e-06	1381.2	374.32	5.9055e-06	5.7034e-06	426.68	143.26	124.97	43.086	5.3073e-06	53.184	521.647	296.095	276.293	182.517	213.957	279.004	182.179	186.799	309.960	386.544	186.475	190.110	190.216	196.216	244.874	195.195	-8191	255	
5159.761	1	1	0	0	0.09587	0.15925	0.19354	0.18438	0.055774	0.20236	0.19013	0.32377	0.13865	0.2139	0.32911	0.16252	0.11565	0.12809	0.17523	0.05194	-2.9625	-3.0667	-3.7021	-3.2042	-3.3521	-3.6979	-3.2375	-3.6729	-3.6146	-3.2604	-3.7958	-3.2896	-3.3167	-3.8333	-3.2042	-3.5521	484.706	387.930	415.844	194.110	386.022	414.853	464.549	453.456	480.078	511.834	465.371	490.732	206.906	445.040	222.563	485.451	0.00068431	0.00039689	0.00030846	1371.7	8.5747e-06	1.5516e-06	1360.4	368.97	4.9e-06	3.5131e-06	417.98	140.73	122.19	42.07	5.8985e-06	52.233	0.00053942	0.0005063	0.00013254	1382.9	5.7685e-06	5.592e-06	1376.8	374.61	5.7906e-06	5.5564e-06	424.85	143.56	124.99	43.13	5.2258e-06	53.544	524.044	515.176	292.472	182.667	250.028	198.593	182.144	186.840	269.083	197.274	186.633	190.152	189.909	195.859	296.499	195.191	-8191	255	
5159.857	1	1	0	0	0.12048	0.25728	0.11563	0.064913	0.17304	0.29135	0.21019	0.20631	0.094222	0.19285	0.25532	0.033263	0.10092	0.063866	0.055148	0.11743	-3.075	-3.0521	-3.6021	-3.5396	-3.2625	-3.4958	-3.4583	-3.6333	-3.6729	-2.9833	-3.7125	-3.4208	-3.3542	-3.7958	-3.1333	-3.4896	509.212	221.383	409.916	211.723	517.252	522.449	200.083	431.903	303.239	328.378	514.468	304.560	430.203	413.040	375.102	172.385	0.0007557	0.00067929	9.7339e-05	1368.1	6.6347e-06	8.2261e-06	1359	368.96	6.8431e-06	3.3838e-06	422.83	140.66	122.85	42.248	5.5271e-06	51.953	0.00053663	0.0005031	0.00013238	1385.8	5.7762e-06	5.5225e-06	1378.1	375.54	5.8593e-06	5.4649e-06	427.04	144.01	124.79	43.12	5.2874e-06	53.509	516.831	287.739	301.005	182.463	254.639	302.341	182.152	186.720	283.609	331.354	186.370	190.441	190.100	196.114	338.723	195.172	-8191	255	
5159.953	1	1	0	0	0.087043	0.17107	0.14221	0.14526	0.25476	0.22417	0.1723	0.14622	0.2373	0.028184	0.26754	0.10609	0.10755	0.27583	0.090477	0.084399	-3.2625	-3.0896	-3.4604	-3.4375	-3.2021	-3.6562	-3.5729	-3.5312	-3.6854	-3.1688	-3.75	-3.675	-3.0708	-3.8833	-3.1104	-3.4875	280.663	373.022	464.140	417.211	275.206	495.017	436.120	520.588	200.262	480.093	173.322	369.898	446.648	490.199	281.262	413.799	0.00064974	0.00013508	0.00017906	1369.8	2.0332e-06	5.9715e-07	1366.1	370.18	2.4634e-06	2.6778e-06	421.4	141.03	123.51	42.049	7.4639e-06	51.891	0.00053178	0.0004876	0.00013644	1388.8	5.6965e-06	5.3822e-06	1385	376.97	5.7622e-06	5.3363e-06	428.51	144.29	125.06	43.117	5.5943e-06	53.643	526.264	228.862	284.538	182.539	316.993	386.176	182.088	186.840	357.155	331.559	186.400	190.229	190.408	196.227	247.502	195.321	-8191	255	
5160.049	1	1	0	0	0.18259	0.14079	0.14917	0.3185	0.083651	0.10652	0.25144	0.18649	0.13038	0.076301	0.20752	0.29335	0.19837	0.27148	0.041885	0.13727	-3.2562	-3.2458	-3.5187	-3.7	-3.0458	-3.6	-3.4708	-3.5708	-3.7521	-3.1	-3.6063	-3.75	-3.1437	-3.675	-3.2771	-3.2604	490.480	481.566	178.569	493.193	183.041	323.080	427.920	452.939	342.843	380.394	401.838	170.581	449.292	491.341	414.141	485.710	0.00062493	0.00049283	0.00022318	1376.3	2.8053e-06	5.7743e-06	1373.8	369.66	5.3283e-06	1.8646e-06	422.86	141.7	122.76	42.429	4.5525e-06	52.06	0.00052593	0.00048717	0.00014478	1395.3	5.7451e-06	5.3268e-06	1391	377.57	5.7664e-06	5.3503e-06	430.83	144.74	125.2	43.238	5.9475e-06	53.675	170.293	245.962	241.676	182.450	250.753	365.674	182.184	186.843	325.861	336.511	186.649	190.389	190.036	195.957	190.624	195.180	-8191	255	
5160.170	1	1	0	0	0.15796	0.08175	0.15103	0.19449	0.19472	0.085085	0.25587	0.15254	0.040149	0.080389	0.047908	0.22938	0.18153	0.080757	0.33281	0.33078	-3.2792	-3.0458	-3.5854	-3.8771	-2.9917	-3.6458	-3.7333	-3.2792	-3.8937	-3.1833	-3.4938	-3.7229	-3.0083	-3.5583	-3.4083	-3.1583	200.867	332.408	229.775	485.327	493.430	370.239	438.105	447.128	437.150	390.257	424.116	184.855	216.654	325.561	221.630	492.317	0.0006905	0.00029453	0.00023769	1381.9	1.4591e-06	1.0435e-05	1378.4	371.19	4.5569e-06	3.7607e-06	423.08	142.2	123.21	42.347	7.4517e-06	52.158	0.00051858	0.00048785	0.00015184	1399.7	5.5335e-06	5.3671e-06	1395.6	377.67	5.5505e-06	5.4134e-06	431.52	144.87	124.86	43.342	6.0098e-06	53.726	528.088	306.546	205.720	182.448	264.238	197.190	182.064	186.678	321.149	235.416	186.560	190.249	190.185	196.075	310.988	195.238	-8191	255	
5160.266	1	1	0	0	0.11617	0.19618	0.14074	0.19356	0.30369	0.1202	0.16731	0.18334	0.037757	0.15604	0.15706	0.22178	0.11747	0.12482	0.29478	0.11721	-3.3292	-3.1854	-3.3354	-3.7333	-2.9854	-3.6375	-3.7333	-3.1771	-3.7146	-3.2021	-3.3792	-3.6042	-3.0146	-3.5979	-3.6083	-2.9292	363.222	291.678	282.929	449.283	483.378	310.361	490.757	431.263	201.318	211.937	321.088	464.441	501.765	492.442	196.816	492.152	0.00070207	0.00051865	0.00022513	1382.6	5.3487e-06	6.9481e-06	1378.5	371.19	1.3762e-06	4.3048e-06	425.71	141.67	124.31	42.294	1.8568e-06	52.096	0.00051088	0.000506	0.00015373	1401.3	5.4102e-06	5.6175e-06	1399.3	377.87	5.4275e-06	5.7254e-06	431.72	144.69	124.75	43.428	6.0483e-06	53.583	525.223	303.381	296.303	182.441	300.686	307.313	181.953	186.862	252.014	339.835	186.652	190.199	190.456	195.998	275.327	195.008	-8191	255	
5160.338	1	1	0	0	0.11438	0.11485	0.019924	0.18257	0.13186	0.33155	0.298	0.13977	0.079156	0.14462	0.27965	0.18346	0.20728	0.15892	0.12926	0.14031	-3.15	-3.1958	-3.1958	-3.7104	-3.0854	-3.3792	-3.8937	-3.2188	-3.7208	-3.3312	-3.1437	-3.6958	-3.1083	-3.5563	-3.6	-3.2792	473.501	430.894	455.289	199.413	514.139	285.166	460.097	450.754	524.758	254.533	503.378	410.334	291.309	273.628	456.102	435.403	0.00067824	0.00046823	0.00024793	1381.4	8.2005e-06	2.395e-06	1373.1	370.63	5.5833e-06	2.9143e-06	423.34	142.26	123.33	42.468	5.0231e-06	52.1	0.00049317	0.00052545	0.00014923	1398.1	5.2999e-06	5.858e-06	1394.9	377.05	5.3164e-06	5.908e-06	431.17	144.35	124.56	43.532	5.9113e-06	53.519	516.404	204.588	304.721	182.501	243.422	280.855	181.880	186.956	309.472	254.956	186.423	190.373	190.467	195.946	380.526	195.026	-8191	255	
5160.458	1	1	0	0	0.16833	0.19953	0.22298	0.20307	0.082172	0.12603	0.17806	0.20767	0.16437	0.16356	0.26609	0.26614	0.16858	0.28557	0.11998	0.37719	-3.2708	-3.375	-3.0938	-3.8438	-2.9833	-3.2521	-3.6979	-3.025	-3.6104	-3.4583	-3.2125	-3.675	-3.2896	-3.3063	-3.7708	-3.0896	286.480	284.588	172.706	488.137	420.236	311.534	469.604	396.291	254.395	457.786	501.241	505.059	411.820	169.721	181.484	473.443	0.00069073	0.00071776	0.00028156	1379	1.7771e-06	7.3719e-06	1376.4	372.43	5.7877e-06	4.6326e-06	424.35	142.58	123.69	42.384	3.1637e-06	52.292	0.00050609	0.00055659	0.00014913	1395.2	5.4978e-06	6.0837e-06	1395.7	377.3	5.5553e-06	6.0607e-06	430.74	144.4	125.41	43.593	5.8046e-06	53.499	519.702	345.902	314.002	182.604	321.670	277.466	182.193	186.907	226.747	245.938	186.574	190.141	190.016	195.817	281.934	195.132	-8191	255	
5160.553	1	1	0	0	0.19121	0.075474	0.26871	0.36801	0.21299	0.12573	0.16366	0.067673	0.17609	0.099471	0.14085	0.14233	0.1581	0.14355	0.21185	0.36094	-3.1479	-3.3937	-3.0792	-3.7812	-3.2625	-3.1479	-3.8604	-3.1792	-3.4375	-3.4875	-3.1583	-3.6458	-3.4958	-3.2542	-3.7812	-3.2896	336.653	457.974	203.644	515.864	298.971	462.624	470.428	482.374	345.073	492.578	443.380	242.883	327.318	183.972	375.818	446.728	0.00074476	0.00060095	9.1415e-05	1380.1	4.8461e-06	3.726e-06	1374.2	370.86	3.7898e-06	3.5044e-06	424.52	141.35	123.17	42.444	5.396e-06	52.179	0.00052856	0.00055263	0.00014657	1393.9	5.7859e-06	6.0033e-06	1394.8	376.45	5.8214e-06	6.0099e-06	430.98	144.13	125.78	43.56	5.6462e-06	53.45	522.322	220.661	177.409	182.510	258.678	330.972	182.252	186.693	243.586	210.775	186.386	190.166	190.390	195.994	328.984	195.131	-8191	255	
5160.649	1	1	0	0	0.23484	0.033091	0.18448	0.027961	0.25829	0.14805	0.16484	0.25441	0.17852	0.16006	0.11574	0.31788	0.10574	0.12777	0.12235	0.25389	-2.9292	-3.475	-3.2604	-3.75	-3.4083	-3.2917	-4.0396	-3.1854	-3.2729	-3.6063	-3.125	-3.7271	-3.0979	-3.1583	-3.6833	-3.0979	410.458	391.533	457.127	193.860	477.150	404.683	490.139	366.224	527.746	303.500	390.370	506.897	453.924	496.965	384.194	466.318	0.00068601	0.00055356	0.0001347	1370.2	2.3697e-06	4.2105e-06	1373.6	371.64	1.1528e-05	3.5403e-06	423.13	141.67	123.88	42.416	9.4291e-06	52.226	0.00054451	0.00054295	0.00014202	1393.6	5.9901e-06	5.8655e-06	1392.4	376.82	6.0002e-06	5.8038e-06	429.13	144.11	125.94	43.375	5.4739e-06	53.527	509.237	315.535	372.724	182.520	466.502	300.407	182.158	186.872	249.134	239.487	186.655	190.097	190.396	195.885	338.585	195.015	-8191	255	
5160.745	1	1	0	0	0.13441	0.1043	0.073507	0.2964	0.0946	0.18522	0.27225	0.139	0.17003	0.34947	0.31133	0.16852	0.15311	0.21487	0.15878	0.18524	-2.9104	-3.5042	-2.8125	-3.6	-3.4167	-3.1167	-3.7896	-3.2438	-3.4313	-3.7729	-3.1188	-3.7396	-3.5375	-3.1646	-3.6562	-3.3708	434.624	240.137	238.119	527.007	421.572	244.838	429.483	492.482	333.711	445.575	517.821	197.023	464.906	453.068	494.787	513.896	0.00073607	0.00027937	0.0002954	1377.4	3.6728e-06	7.6215e-06	1370.4	372.52	2.8931e-06	2.121e-06	422.92	141.3	123.22	42.456	5.0758e-06	52.329	0.00054932	0.00052688	0.00013664	1395.3	6.013e-06	5.7559e-06	1389.5	377.43	6.018e-06	5.7885e-06	428.46	144.44	126.09	43.428	5.3183e-06	53.716	519.231	502.048	285.273	182.505	220.809	327.266	182.241	186.692	307.301	338.693	186.450	190.209	190.199	195.964	372.468	195.161	-8191	255	
5160.866	1	1	0	0	0.2329	0.054529	0.07439	0.14022	0.1295	0.054551	0.20267	0.16109	0.13441	0.23798	0.31535	0.17276	0.040311	0.12527	0.14437	0.10886	-2.7396	-3.7146	-3.1708	-3.6688	-3.4437	-3.1521	-3.7896	-3.6771	-3.3583	-3.6208	-3.2604	-3.4167	-3.6542	-3.0771	-3.5896	-3.2938	280.436	518.545	483.844	469.327	269.085	455.208	481.296	479.812	246.199	406.954	476.735	507.505	218.500	473.598	239.445	172.165	0.00069084	0.00057123	0.00015949	1377.9	6.9084e-06	6.6227e-06	1372.1	368.82	4.6096e-06	1.0996e-05	421.76	141.14	123.08	42.376	4.5632e-06	52.341	0.00054863	0.00051737	0.00013359	1392.9	5.9095e-06	5.6291e-06	1387.8	376.77	5.9058e-06	5.6404e-06	427.89	144.36	125.36	43.339	5.4928e-06	53.82	524.319	247.561	200.414	182.582	243.471	306.725	182.091	186.882	251.020	396.742	186.520	190.470	189.781	196.064	279.984	194.893	-8191	255	
5160.937	1	1	0	0	0.17348	0.077864	0.11578	0.28891	0.19699	0.034683	0.1948	0.17241	0.27817	0.26926	0.0051569	0.092797	0.113	0.28628	0.081922	0.31688	-2.8458	-3.5146	-3.1375	-3.5667	-3.5729	-3.0333	-3.8312	-3.7146	-3.1292	-3.5854	-3.2313	-3.575	-3.6854	-3.075	-3.5708	-3.6333	368.222	313.728	485.293	192.827	514.744	387.002	438.316	229.799	439.440	313.668	382.653	438.094	303.349	454.054	218.526	496.939	0.0006413	0.00026633	0.00012616	1379.4	2.3253e-06	4.7175e-06	1369.5	371.31	2.1755e-06	6.9926e-06	424.5	141.12	123.7	42.13	5.919e-06	52.364	0.00054497	0.00051821	0.0001403	1398.9	6.0125e-06	5.673e-06	1390.4	378.43	5.9412e-06	5.626e-06	430.8	144.89	125.65	43.236	5.7212e-06	53.952	522.448	528.107	272.761	182.545	187.839	373.036	182.123	186.803	509.850	349.205	186.402	190.287	190.041	196.021	220.635	195.091	-8191	255	
5161.033	1	1	0	0	0.22393	0.23594	0.13649	0.3684	0.099073	0.13681	0.22497	0.19304	0.2207	0.041523	0.19623	0.26265	0.17141	0.23741	0.13869	0.15111	-2.7562	-3.7104	-3.2333	-3.4146	-3.6521	-3.1021	-3.5938	-3.6542	-3.0125	-3.6333	-3.2104	-3.4729	-3.7646	-3.1229	-3.4917	-3.4938	386.969	288.182	457.206	480.748	407.045	315.799	467.536	457.359	398.214	447.373	451.142	523.859	506.347	486.929	341.729	462.497	0.000675	0.00079693	0.00025675	1380.3	2.8374e-06	1.7272e-06	1376.1	371.67	7.2351e-06	3.6102e-06	422	142.31	123.66	42.292	5.6688e-06	52.107	0.00054789	0.00050269	0.00014811	1402.9	5.9416e-06	5.5455e-06	1396.3	379.12	5.9696e-06	5.5537e-06	431.88	145.21	126.05	43.262	6.1506e-06	53.87	526.401	271.531	258.419	182.484	222.035	513.915	182.012	186.984	299.825	314.195	186.465	190.287	190.214	195.857	260.363	195.159	-8191	255	
5161.130	1	1	0	0	0.18455	0.12328	0.04593	0.51435	0.11444	0.050196	0.27393	0.36249	0.16376	0.10049	0.36833	0.2034	0.33672	0.2661	0.13711	0.22134	-2.6937	-3.6042	-3.0938	-3.2687	-3.8063	-3.2021	-3.4646	-3.6271	-2.9708	-3.5958	-3.4313	-3.2625	-3.9104	-3.2479	-3.3229	-3.6792	198.418	285.094	485.906	493.972	366.105	305.034	416.947	483.554	169.091	206.903	523.886	475.399	475.150	414.475	500.812	517.585	0.00066569	0.00073848	0.00015563	1382.4	7.2915e-06	2.3746e-06	1378.2	370.88	8.6451e-06	2.6478e-06	423.31	142.02	124.34	42.356	3.3751e-06	52.337	0.00054611	0.00051143	0.00015767	1404.4	5.9317e-06	5.6173e-06	1399.1	379.18	5.8494e-06	5.6425e-06	433.44	145.33	125.52	43.35	6.3716e-06	53.944	520.550	284.068	517.127	182.350	276.714	522.790	182.117	186.725	270.814	327.767	186.660	190.404	190.317	195.826	265.007	195.375	-8191	255	
5161.250	1	1	0	0	0.065324	0.20982	0.053365	0.14733	0.21925	0.30115	0.21968	0.15639	0.13873	0.12832	0.13687	0.16092	0.21689	0.049015	0.1869	0.18579	-2.6437	-3.5708	-3.4479	-3.3375	-3.8229	-3.2375	-3.4375	-3.8083	-3.0917	-3.5938	-3.55	-3.1521	-3.6396	-3.2604	-3.2833	-3.8104	294.229	229.894	203.623	461.030	464.567	395.855	514.947	501.732	397.344	241.428	454.916	202.510	399.465	441.838	384.395	464.610	0.0007872	0.0004022	0.00013787	1385	2.9682e-06	4.9665e-06	1381.3	371.97	4.4362e-06	5.8096e-06	422.25	142.07	123.75	42.395	2.8551e-06	52.196	0.00053109	0.00052809	0.00016164	1405.6	5.76e-06	5.8541e-06	1402.7	378.95	5.6861e-06	5.8833e-06	432.53	144.87	125.36	43.576	6.3248e-06	53.887	173.282	208.661	297.194	182.609	282.204	220.857	182.086	186.815	286.414	368.893	186.315	190.441	190.255	195.968	356.048	195.063	-8191	255	
5161.346	1	1	0	0	0.2234	0.023303	0.19783	0.37109	0.24336	0.25925	0.06283	0.0303	0.20399	0.092958	0.20521	0.25821	0.19108	0.25899	0.1811	0.15396	-2.625	-3.3125	-3.5083	-3.175	-3.4354	-3.2979	-3.4313	-3.6562	-3.1417	-3.3917	-3.7333	-3.1021	-3.6333	-3.4188	-3.2396	-3.8354	275.925	434.737	459.532	444.356	483.500	369.635	464.388	427.721	398.659	511.717	466.569	173.658	527.738	484.014	303.157	517.500	0.00075707	0.00061503	0.00027047	1385.2	2.5676e-06	9.5151e-06	1377.4	370.96	7.5927e-06	2.7717e-06	424.84	142.56	123.78	42.407	6.6901e-06	52.077	0.0005185	0.00056205	0.00016135	1403.5	5.6238e-06	6.179e-06	1401.7	378.97	5.6901e-06	6.2624e-06	432.98	144.95	125.35	43.638	6.223e-06	53.808	520.902	221.378	290.182	182.488	275.054	266.312	182.034	186.628	279.780	443.234	186.665	190.366	190.078	196.092	297.348	195.091	-8191	255	
5161.442	1	1	0	0	0.20651	0.016776	0.13759	0.29756	0.068615	0.22335	0.28213	0.28011	0.17879	0.1914	0.11883	0.059088	0.1744	0.030821	0.057685	0.28419	-2.7646	-3.3125	-3.4875	-3.2812	-3.5208	-3.3333	-3.3292	-3.8771	-2.9896	-3.4292	-3.7583	-2.9021	-3.4938	-3.3167	-3.025	-3.725	481.108	408.661	169.569	491.906	343.546	475.527	408.977	434.722	346.238	296.057	448.210	180.073	216.460	200.312	209.533	482.332	0.00075713	0.0006015	0.00018149	1384.1	3.8519e-06	3.0935e-06	1375.5	372.42	6.015e-06	8.0557e-06	423.39	141.99	123.92	42.428	4.6073e-06	52.472	0.00052582	0.00057547	0.00015689	1402.2	5.7536e-06	6.3604e-06	1399.7	379.03	5.7827e-06	6.3214e-06	432.37	144.93	125.82	43.692	6.159e-06	53.71	522.663	183.156	282.155	182.392	226.042	332.758	181.904	186.822	258.816	373.756	186.372	190.530	190.101	196.111	330.098	194.817	-8191	255	
5161.539	1	1	0	0	0.15838	0.084159	0.11909	0.34127	0.30742	0.25761	0.2186	0.11449	0.1651	0.072893	0.26749	0.032937	0.033302	0.11921	0.055469	0.122	-2.7646	-3.1458	-3.4896	-3.2646	-3.5083	-3.3708	-3.1229	-3.725	-3.2188	-3.1562	-3.7625	-3.1271	-3.4688	-3.5125	-3.0271	-3.6479	520.474	298.036	330.089	497.189	472.105	443.215	414.816	491.638	382.551	223.040	480.924	486.582	294.565	225.832	346.731	276.599	0.00076391	0.00025345	0.00021599	1386.6	5.4774e-06	3.5576e-06	1381.1	372.58	5.4555e-06	4.0534e-06	423.3	142.36	123.71	42.447	5.6402e-06	52.37	0.00054377	0.00057782	0.00015415	1401.7	5.9863e-06	6.3328e-06	1402.4	378.23	6.0413e-06	6.2754e-06	432.48	144.59	126.4	43.69	5.9539e-06	53.717	524.138	176.702	272.932	182.481	256.766	314.448	182.144	186.949	295.066	337.176	186.472	190.274	189.978	195.778	312.720	195.105	-8191	255	
5161.633	1	1	0	0	0.23958	0.12818	0.16788	0.25418	0.15587	0.11913	0.075612	0.22984	0.28502	0.058458	0.12328	0.093302	0.11768	0.25607	0.32143	0.095012	-2.8104	-3.2	-3.8458	-3.2938	-3.2729	-3.7812	-3.1896	-3.85	-3.2146	-3.075	-3.9625	-3.325	-3.3937	-3.7	-3.0917	-3.6667	459.815	254.186	207.772	176.287	360.708	344.517	352.828	505.401	497.088	361.336	348.277	501.897	322.603	494.732	514.092	274.752	0.00082173	0.00056426	0.00035859	1384	4.323e-06	1.3925e-06	1377.9	373.73	4.0098e-06	3.435e-06	425.2	142	123.31	42.515	4.1299e-06	52.466	0.00056405	0.00056557	0.00015058	1401.9	6.1358e-06	6.1147e-06	1399.7	378.64	6.2037e-06	6.0918e-06	431.7	144.71	126.53	43.609	5.7451e-06	53.784	520.839	285.911	293.502	182.589	252.415	294.804	182.083	186.791	223.714	374.548	186.344	190.209	190.073	195.866	357.981	194.910	-8191	255	
5161.731	1	1	0	0	0.35049	0.24629	0.17902	0.18577	0.21062	0.082298	0.32745	0.091434	0.19284	0.1008	0.25695	0.064274	0.14271	0.021832	0.20269	0.31647	-3.1688	-3.1583	-3.6583	-3.3688	-3.4708	-3.7833	-3.1063	-3.6479	-3.4729	-3.0167	-3.8	-3.2042	-3.2583	-3.8625	-3.0896	-3.6375	306.700	277.863	325.217	174.127	183.258	189.468	474.580	420.314	191.955	499.235	473.582	397.701	297.653	329.077	190.000	440.654	0.00072832	0.0012503	0.00012722	1387.1	4.4755e-06	7.2209e-06	1378.3	371.81	6.1533e-06	3.0152e-06	426.65	141.89	123.99	42.451	1.4269e-07	52.22	0.00057957	0.00055444	0.00014452	1404.7	6.2779e-06	6.0611e-06	1399.3	378.57	6.2514e-06	5.9886e-06	432.08	145.05	126.8	43.603	5.6028e-06	53.838	520.716	262.545	275.420	182.484	334.046	358.699	181.985	186.893	281.189	269.161	186.431	190.304	190.315	195.860	497.050	195.117	-8191	255	
5161.850	1	1	0	0	0.21995	0.11642	0.20062	0.13124	0.2906	0.12033	0.34156	0.09987	0.098283	0.19038	0.069392	0.098007	0.026537	0.16045	0.063272	0.16414	-3.2062	-3.0167	-3.725	-3.4417	-3.2083	-3.6375	-3.4313	-3.7562	-3.4354	-3.175	-3.6813	-3.5479	-3.3937	-3.7771	-3.0854	-3.6437	211.746	454.838	395.911	217.601	252.334	293.541	450.999	446.070	452.226	303.199	408.839	474.272	397.452	407.402	471.058	435.050	0.00069471	0.00041674	0.00024084	1383	8.5374e-06	1.1282e-05	1383.7	372.45	6.805e-06	8.5653e-06	426.68	141.97	123.7	42.444	5.7138e-06	52.267	0.00057616	0.0005477	0.00014178	1405	6.1755e-06	5.9322e-06	1398.8	379.9	6.2497e-06	5.8434e-06	431.39	145.37	126.95	43.594	5.5715e-06	54.044	525.065	276.144	287.740	182.520	323.582	347.717	182.121	186.800	295.609	307.140	186.524	190.239	189.915	196.095	252.750	195.204	-8191	255	
5161.946	1	1	0	0	0.15713	0.15566	0.030317	0.29496	0.30098	0.032993	0.20437	0.047601	0.13256	0.34888	0.079393	0.15181	0.21381	0.097549	0.03815	0.07347	-3.2146	-2.9562	-3.6625	-3.4958	-2.9625	-3.7062	-3.3229	-3.5062	-3.6104	-3.0312	-3.5354	-3.3875	-3.2146	-3.8146	-3.2896	-3.1354	287.865	374.321	237.795	423.880	386.029	385.213	360.732	259.446	376.544	209.722	405.779	506.341	462.588	524.042	388.116	401.697	0.00070245	0.00026111	0.00017676	1388.6	2.2199e-06	9.7717e-07	1379	373.26	1.9602e-06	3.5386e-06	424.33	142.46	123.98	42.732	4.4636e-06	52.225	0.00056651	0.00053037	0.00014293	1409.1	6.0657e-06	5.7993e-06	1399.9	380.39	6.0901e-06	5.7207e-06	432.31	145.62	126.26	43.552	5.7613e-06	53.959	521.226	251.923	281.558	182.482	225.609	363.343	182.030	186.924	349.733	338.769	186.790	190.023	189.982	195.748	253.939	194.994	-8191	255	
5162.042	1	1	0	0	0.1042	0.27458	0.1158	0.34546	0.094791	0.13349	0.41975	0.045727	0.077607	0.17263	0.12854	0.19077	0.28695	0.33037	0.02204	0.089152	-2.9604	-2.9833	-3.6021	-3.6667	-3.0292	-3.6771	-3.4083	-3.3833	-3.5542	-3.0729	-3.5917	-3.6688	-3.0771	-3.6312	-3.0875	-3.4688	281.958	436.134	282.568	525.340	378.283	465.655	471.786	295.366	268.251	329.357	481.461	475.688	512.290	527.789	463.671	437.339	0.00062053	0.0010428	9.4254e-05	1388.2	3.2186e-06	6.2433e-06	1385.8	372.74	7.7122e-06	1.3868e-06	424.81	142.59	123.7	42.523	5.1573e-06	52.288	0.00055162	0.00051376	0.00014885	1410.2	5.9801e-06	5.6229e-06	1402.8	380.08	5.9698e-06	5.5499e-06	433.22	145.66	126.31	43.515	6.0679e-06	54.12	519.774	305.817	232.813	182.231	316.136	355.666	181.988	186.814	291.204	379.022	186.566	190.118	190.539	196.093	262.819	195.135	-8191	255	
5162.163	1	1	0	0	0.1742	0.2951	0.065214	0.09633	0.18772	0.24809	0.15495	0.26603	0.14143	0.063007	0.17452	0.33172	0.13254	0.38565	0.14728	0.49842	-3.2938	-3.0625	-3.4396	-3.6854	-3.1292	-3.6271	-3.4604	-3.2292	-3.6479	-3.1083	-3.4062	-3.5333	-3.1167	-3.5667	-3.2917	-3.2292	351.219	514.529	189.487	179.737	303.610	363.191	418.383	399.333	180.444	211.258	386.768	496.852	478.779	499.512	390.307	494.643	0.00075671	0.00099116	3.1072e-05	1387.3	2.2732e-06	1.3885e-06	1388.4	372.9	1.3096e-06	6.8815e-06	424.41	142.33	123.57	42.732	4.1996e-06	52.117	0.00054769	0.00050471	0.0001556	1408.5	5.8815e-06	5.5356e-06	1407.7	380.02	5.8459e-06	5.5334e-06	434.42	145.39	125.94	43.582	6.2845e-06	54.062	170.295	248.478	235.867	182.464	291.532	374.600	182.196	186.848	358.348	270.608	186.528	190.342	189.929	195.893	321.621	195.247	-8191	255	
5162.234	1	1	0	0	0.1737	0.082298	0.06517	0.063918	0.17381	0.18559	0.23333	0.01833	0.14477	0.21475	0.068437	0.15209	0.14417	0.17529	0.11585	0.17072	-3.3167	-3.0042	-3.2708	-3.7354	-3	-3.575	-3.6625	-3.3042	-3.7687	-3.1354	-3.4708	-3.7313	-3	-3.8229	-3.5229	-3.1688	509.451	490.044	208.032	424.517	264.918	209.750	474.375	387.761	169.278	469.608	438.315	521.200	496.313	267.524	216.704	189.820	0.00062402	0.00042781	0.00019805	1390.8	7.0764e-06	5.1319e-06	1382.9	373.46	5.0682e-06	7.0182e-06	425.47	142.53	124.01	42.542	2.4132e-06	52.388	0.0005324	0.00052176	0.00015957	1411.1	5.7199e-06	5.7557e-06	1406.3	380.16	5.6765e-06	5.8371e-06	434.92	145.52	125.42	43.637	6.2715e-06	53.946	520.467	239.006	312.602	182.478	301.812	275.462	182.052	186.728	326.948	267.245	186.595	190.502	190.317	195.962	226.314	195.019	-8191	255	
5162.331	1	1	0	0	0.025523	0.15066	0.1388	0.090701	0.092206	0.075661	0.25168	0.40436	0.12884	0.18258	0.17618	0.091136	0.095947	0.18242	0.067349	0.14891	-3.0771	-3.225	-3.2917	-3.6792	-2.8604	-3.5167	-3.6625	-3.2667	-3.6375	-3.2042	-3.2375	-3.7833	-3.1	-3.3187	-3.5687	-3.1917	320.602	456.503	345.609	405.691	503.948	295.758	491.997	455.467	301.151	382.165	195.660	513.283	371.349	206.999	407.300	356.605	0.00065233	0.00049967	0.00019402	1389.4	4.4653e-06	3.4745e-06	1387.1	372.9	4.7481e-06	1.4908e-06	426.03	142.68	123.69	42.739	5.0113e-06	52.283	0.00051536	0.00054424	0.00015804	1410.6	5.5156e-06	6.0421e-06	1406.2	379.82	5.5654e-06	6.0888e-06	435.1	145.46	125.52	43.739	6.1879e-06	53.921	524.070	239.694	217.236	182.529	250.904	224.198	182.073	186.708	276.807	242.549	186.522	190.012	190.297	196.087	429.217	194.846	-8191	255	
5162.427	1	1	0	0	0.13156	0.2258	0.32097	0.17604	0.15567	0.23131	0.17791	0.2873	0.098429	0.14111	0.13584	0.14313	0.25205	0.21105	0.1051	0.18753	-3.0687	-3.3646	-3.2604	-3.6917	-3.1979	-3.3125	-3.7229	-3.2229	-3.6625	-3.2833	-3.1312	-3.7938	-3.0563	-3.3542	-3.6979	-3.1396	240.927	328.050	336.609	522.595	198.101	481.697	456.446	438.872	190.425	264.808	279.327	406.411	470.523	234.554	473.453	305.093	0.00081435	0.00079059	0.00022536	1396	2.2296e-06	3.7053e-06	1387.9	372.2	5.1323e-06	3.9636e-06	425.27	142.71	125.32	42.585	8.8925e-06	52.422	0.00051671	0.00057003	0.00015449	1410.5	5.5925e-06	6.2502e-06	1407.8	379.07	5.6755e-06	6.2606e-06	434.26	145.18	126.3	43.869	6.0178e-06	53.915	518.684	237.155	339.999	182.780	499.866	256.300	182.109	186.925	231.717	309.794	186.605	190.490	190.182	195.796	329.328	195.251	-8191	255	
5162.546	1	1	0	0	0.34487	0.23823	0.17374	0.14847	0.12812	0.097609	0.098258	0.10688	0.09275	0.13778	0.073569	0.32658	0.16399	0.35769	0.13868	0.209	-3.0396	-3.3875	-2.8438	-3.7604	-3.2104	-3.3	-3.8187	-3.1562	-3.6167	-3.4292	-3.2875	-3.6646	-3.1063	-3.4146	-3.6375	-3.0625	415.261	482.754	371.412	261.946	385.119	380.306	469.454	449.582	434.999	490.390	250.477	176.659	208.434	176.788	444.976	469.286	0.00067884	0.0011643	0.00020197	1394.8	2.4541e-06	3.866e-06	1386.4	374.12	4.6463e-06	3.4195e-06	425.94	142.94	123.68	42.408	7.0192e-06	52.55	0.00053517	0.0005783	0.00015193	1409.5	5.8256e-06	6.2697e-06	1407.5	379.65	5.8866e-06	6.225e-06	433.32	145.26	126.65	43.75	5.9647e-06	53.847	526.949	293.176	261.074	182.466	288.337	355.126	182.111	186.793	245.129	414.359	186.650	190.218	190.238	195.811	329.867	195.195	-8191	255	
5162.642	1	1	0	0	0.18757	0.087455	0.21922	0.17632	0.1354	0.16127	0.32088	0.083686	0.2594	0.10942	0.30023	0.11099	0.30652	0.23562	0.30444	0.12866	-3.1229	-3.6229	-3.0271	-3.9729	-3.5729	-3.3458	-3.9458	-3.2604	-3.4125	-3.6875	-3.2062	-3.7875	-3.4833	-3.1646	-3.6521	-3.3229	329.602	290.644	245.214	490.565	469.030	356.300	461.116	398.171	252.959	381.601	522.606	309.933	472.242	515.165	310.313	480.711	0.00072877	0.00047199	0.00034831	1392.8	3.5945e-06	8.0028e-06	1385.2	374.79	4.1074e-06	1.8017e-06	425.69	142.43	123.79	42.576	3.445e-06	52.502	0.0005664	0.00056887	0.00014927	1409	6.1216e-06	6.1526e-06	1407.1	379.51	6.173e-06	6.1046e-06	433.23	145.18	126.87	43.709	5.7236e-06	53.866	522.940	306.993	293.491	182.509	514.255	283.793	182.136	186.769	268.334	377.820	186.536	190.330	189.821	196.166	317.605	194.966	-8191	255	
5162.738	1	1	0	0	0.22097	0.041116	0.020743	0.15173	0.1831	0.1197	0.27156	0.25232	0.075208	0.14231	0.16381	0.095854	0.19638	0.28298	0.090101	0.11529	-2.9708	-3.4979	-3.0292	-3.7562	-3.4979	-3.2917	-3.9	-3.325	-3.3708	-3.7083	-3.0896	-3.6208	-3.4729	-3.1771	-3.7771	-3.3312	399.225	300.585	188.187	517.653	402.073	306.428	434.104	431.250	256.090	447.640	479.748	396.297	429.087	240.630	258.213	522.073	0.00080543	0.001127	0.00012884	1391.4	3.2082e-06	1.7063e-06	1383.1	374.55	2.4758e-06	8.1625e-06	424.86	142.29	124.72	42.499	4.078e-06	52.458	0.00057185	0.00054615	0.00014397	1409.1	6.1644e-06	6.0188e-06	1405.6	379.78	6.206e-06	5.951e-06	431.4	145.16	127.24	43.67	5.5337e-06	53.92	518.846	273.662	335.651	182.348	191.495	420.462	181.999	186.836	237.663	373.012	186.536	190.120	189.958	195.759	336.912	195.297	-8191	255	
5162.811	1	1	0	0	0.26306	0.1709	0.10139	0.2835	0.065877	0.21261	0.06953	0.23806	0.032731	0.066134	0.28339	0.14889	0.28829	0.21383	0.15595	0.34504	-2.9437	-3.5542	-3.1708	-3.7333	-3.6271	-3.0563	-3.95	-3.4146	-3.2458	-3.4729	-3.2292	-3.5208	-3.5979	-3.0333	-3.6479	-3.4437	211.051	347.227	221.796	504.052	429.151	320.241	424.624	443.445	421.460	521.931	452.511	512.343	281.703	207.506	223.875	460.624	0.00064505	0.00015987	9.5696e-05	1394	1.7292e-06	6.8694e-06	1383.8	373.72	3.6798e-06	4.8216e-06	425.06	142.58	124.53	42.687	1.1787e-05	52.528	0.00056507	0.0005345	0.00013791	1409.9	6.0989e-06	5.8226e-06	1403.1	380.06	6.0407e-06	5.7606e-06	430.89	145.58	126.66	43.671	5.3882e-06	54.033	527.763	217.377	267.194	182.631	197.090	362.862	182.158	186.695	361.457	398.353	186.462	190.130	190.107	195.824	295.648	195.053	-8191	255	
5162.930	1	1	0	0	0.1472	0.23524	0.033018	0.11065	0.11135	0.046914	0.24038	0.26934	0.18326	0.22987	0.2202	0.13616	0.065988	0.24876	0.0635	0.20018	-2.8167	-3.7021	-2.9688	-3.6042	-3.6458	-3.0667	-3.9479	-3.65	-3.1937	-3.7354	-3.2292	-3.3625	-3.6188	-3.1312	-3.4437	-3.525	173.709	260.920	439.538	503.319	280.933	384.780	465.243	491.663	414.834	485.180	481.773	469.569	368.370	477.241	376.918	511.483	0.00074913	0.0010637	0.00010152	1392.5	2.6189e-06	9.5198e-06	1388	372.31	8.5248e-07	4.9955e-06	425.42	142.7	124.61	42.781	5.628e-06	52.319	0.00055457	0.00051864	0.00013645	1412.1	5.9446e-06	5.6027e-06	1404	380.4	5.8647e-06	5.53e-06	431.19	145.64	126.31	43.544	5.5055e-06	53.998	521.480	260.625	299.810	182.485	358.886	292.838	182.018	186.786	303.880	390.483	186.163	190.137	190.435	195.909	281.167	195.110	-8191	255	
5163.026	1	1	0	0	0.1612	0.0037846	0.056581	0.14816	0.13191	0.062517	0.26519	0.34807	0.25173	0.072384	0.12951	0.21369	0.092413	0.24656	0.10672	0.17258	-2.8667	-3.5938	-3.0979	-3.4	-3.6479	-3.1625	-3.7021	-3.6521	-2.9333	-3.7083	-3.3854	-3.3958	-3.65	-3.1958	-3.1854	-3.5708	450.372	248.663	233.843	420.534	407.654	429.538	516.053	472.171	199.998	176.812	220.530	467.390	245.984	517.288	183.015	527.769	0.00062901	0.00034067	0.00029934	1394.5	6.296e-06	1.005e-05	1385.8	374.38	4.4522e-06	8.888e-06	423.75	142.51	124.93	42.678	4.8687e-06	52.825	0.00052994	0.00049026	0.0001398	1412.6	5.6909e-06	5.2771e-06	1405.3	380.31	5.6373e-06	5.2726e-06	431.84	145.66	126.12	43.544	5.6784e-06	54.077	525.332	227.295	251.537	182.442	257.160	307.477	182.001	186.864	310.919	351.502	186.268	190.214	190.314	195.868	277.432	195.057	-8191	255	
5163.123	1	1	0	0	0.10986	0.19397	0.13254	0.34362	0.11885	0.12946	0.20866	0.33259	0.11152	0.086892	0.086963	0.459	0.088223	0.23103	0.020854	0.10881	-2.6042	-3.7562	-3.1958	-3.4458	-3.5792	-2.9042	-3.7687	-3.7021	-3.0208	-3.5396	-3.3583	-3.4146	-3.7042	-3.2729	-3.5271	-3.8	420.385	524.749	180.316	453.219	485.201	314.045	443.590	443.762	370.485	214.043	294.551	472.283	224.651	440.682	267.060	248.261	0.00073745	0.00067229	8.0134e-05	1396.9	2.4682e-06	5.9605e-06	1385.7	375.27	3.3077e-06	3.9828e-06	425.76	143.02	124.25	42.616	3.9287e-06	52.61	0.00051784	0.00047758	0.00014401	1412.7	5.5409e-06	5.1982e-06	1406	380.01	5.4863e-06	5.2815e-06	432.53	145.39	125.19	43.466	5.889e-06	54.03	520.061	260.078	272.001	182.620	254.245	305.391	182.063	186.890	332.840	247.511	186.677	190.206	190.495	195.847	287.788	195.264	-8191	255	
5163.243	1	1	0	0	0.19419	0.03698	0.11166	0.39642	0.083328	0.16411	0.24066	0.32008	0.10242	0.2388	0.18257	0.2094	0.046146	0.19129	0.21834	0.073794	-2.7417	-3.4938	-3.3937	-3.2062	-3.7125	-3.1604	-3.575	-3.625	-3.0312	-3.3896	-3.5708	-3.2875	-3.7229	-3.375	-3.2542	-3.675	367.521	517.761	282.458	506.808	212.506	221.750	452.150	490.545	486.009	463.715	488.826	459.827	318.990	458.934	333.709	421.858	0.00055428	0.00024015	0.00011003	1391.1	7.0129e-06	4.2233e-06	1384.8	373.59	3.7066e-06	4.6771e-06	424.92	142.83	124.55	42.546	7.5809e-07	52.49	0.00049543	0.00048109	0.00014864	1408.6	5.2947e-06	5.223e-06	1404.5	378.59	5.2553e-06	5.3014e-06	432.93	145.06	124.79	43.513	5.8022e-06	53.821	522.159	174.978	214.559	182.575	324.803	215.475	182.035	186.697	345.522	257.942	186.339	190.264	190.141	195.811	175.274	195.158	-8191	255	
5163.339	1	1	0	0	0.38309	0.126	0.13639	0.03592	0.01806	0.071986	0.27848	0.29404	0.322	0.2127	0.23124	0.13717	0.41666	0.29994	0.18754	0.034489	-2.6208	-3.4646	-3.2792	-3.3187	-3.7042	-3.2687	-3.35	-3.5687	-3.2271	-3.5312	-3.6708	-3.1292	-3.6604	-3.3438	-3.2562	-3.6396	504.910	256.505	437.978	183.503	255.270	479.522	450.665	429.576	499.354	423.032	467.390	430.496	217.807	219.669	249.619	195.223	0.00061551	0.00060361	0.00017602	1390.2	6.6332e-06	5.7396e-06	1383.2	374.34	7.0495e-06	2.8837e-06	426.66	142.36	124.57	42.501	1.0719e-05	52.487	0.00047818	0.00050112	0.00014719	1406	5.1287e-06	5.5116e-06	1403.5	379.28	5.1146e-06	5.6156e-06	432.58	144.83	124.76	43.556	5.6935e-06	53.709	528.688	181.566	314.940	182.728	308.382	252.424	182.238	186.958	293.909	245.382	186.491	190.410	190.210	196.010	328.413	194.851	-8191	255	
5163.434	1	1	0	0	0.10093	0.21641	0.040742	0.14525	0.1445	0.25693	0.23657	0.040687	0.17401	0.086056	0.33129	0.27375	0.18653	0.23258	0.25108	0.10668	-2.7292	-3.4417	-3.6188	-3.1896	-3.8354	-3.3063	-3.3458	-3.7646	-2.8521	-3.4896	-3.7	-3.0354	-3.5646	-3.4938	-3.1042	-3.6771	358.647	455.907	305.336	454.071	277.583	420.193	422.460	230.237	499.076	462.263	480.574	224.272	376.375	493.569	277.181	199.733	0.00075736	0.00034209	0.00036656	1391.2	7.8552e-06	3.2393e-06	1387.4	374.25	3.9907e-06	5.6039e-06	423.52	142.15	123.22	42.451	3.5499e-06	52.665	0.00047276	0.0005164	0.00014296	1402.9	5.1355e-06	5.7513e-06	1401.8	378.51	5.1516e-06	5.7765e-06	431.52	144.49	124.49	43.623	5.5965e-06	53.646	522.905	216.308	271.291	182.548	247.998	181.511	182.159	186.823	281.723	322.586	186.422	190.400	190.471	195.891	366.543	195.079	-8191	255	
5163.532	1	1	0	0	0.16811	0.16838	0.047423	0.20982	0.044223	0.29591	0.37596	0.24705	0.074353	0.03403	0.25567	0.14476	0.15194	0.3084	0.062464	0.19367	-2.7958	-3.2875	-3.6063	-3.1875	-3.4917	-3.4625	-3.2938	-3.8812	-3.1375	-3.3417	-3.775	-3.1146	-3.6292	-3.5792	-3.125	-3.7917	429.769	276.547	426.903	450.327	457.935	311.589	178.165	497.036	365.812	443.001	464.306	519.613	289.322	493.472	231.833	516.328	0.00079198	0.00023081	5.6834e-05	1385.3	8.9268e-06	6.6795e-06	1382.2	372.53	6.9751e-06	1.394e-06	426.74	142.02	124.06	42.541	4.8668e-06	52.432	0.00049315	0.00053336	0.00014188	1399.9	5.4189e-06	5.8367e-06	1401	377.84	5.4026e-06	5.8061e-06	431.68	144.49	125.26	43.588	5.5276e-06	53.658	519.243	260.515	322.253	182.663	203.680	315.575	182.015	186.940	252.196	287.909	186.520	190.354	190.311	195.953	336.049	195.180	-8191	255	
5163.626	1	1	0	0	0.21037	0.37706	0.3845	0.42328	0.12317	0.10729	0.11202	0.21965	0.37857	0.018118	0.23019	0.23433	0.091785	0.033274	0.086822	0.1891	-2.6417	-3.1437	-3.6021	-3.375	-3.4792	-3.5542	-3.2271	-3.7583	-3.45	-3.2292	-3.8604	-3.2812	-3.4688	-3.7167	-3.1063	-3.6458	387.527	246.123	403.528	395.857	510.455	325.474	342.296	476.594	443.449	421.278	517.225	495.879	210.811	486.704	495.612	471.264	0.0005794	0.00067972	5.9262e-05	1392.5	3.7491e-06	4.938e-06	1381.4	372.94	7.5037e-06	8.667e-06	425.97	142.84	124.8	42.347	4.0213e-06	52.506	0.00051954	0.00053048	0.00014136	1404.1	5.73e-06	5.7927e-06	1402.9	378.06	5.7543e-06	5.7204e-06	431.9	144.67	126.22	43.528	5.4777e-06	53.648	516.886	198.887	280.610	182.522	242.253	356.232	182.217	186.892	199.555	371.205	186.620	190.383	190.429	196.046	314.523	194.919	-8191	255	
5163.722	1	1	0	0	0.34802	0.17735	0.19044	0.23901	0.17874	0.13853	0.26253	0.14344	0.18383	0.069418	0.11647	0.20392	0.28117	0.24681	0.12275	0.047454	-2.9875	-3.0812	-3.5563	-3.4208	-3.3438	-3.5	-3.2354	-3.7646	-3.3625	-3.2708	-3.9729	-3.2396	-3.2687	-3.65	-2.9729	-3.5729	322.791	265.717	481.492	443.912	314.234	196.872	510.774	503.988	214.959	309.766	519.172	487.076	197.976	421.588	391.476	443.599	0.00075779	0.00050292	0.00010827	1391.9	6.4541e-06	2.2357e-06	1384.2	373.17	3.1142e-06	9.3669e-07	424.95	142.03	124.51	42.52	8.1312e-06	52.394	0.00054485	0.00052759	0.00013754	1404.4	5.9733e-06	5.7503e-06	1401.2	379.06	6.0052e-06	5.7401e-06	430.92	144.99	126.46	43.531	5.3459e-06	53.78	525.570	245.957	296.370	182.525	208.731	277.862	182.072	186.561	248.547	523.154	186.324	190.182	190.540	195.815	262.229	195.196	-8191	255	
5163.843	1	1	0	0	0.19224	0.20842	0.23833	0.17542	0.22934	0.11975	0.13594	0.23329	0.23424	0.20539	0.11988	0.027396	0.34902	0.2406	0.30214	0.26528	-3.1354	-3.05	-3.7	-3.3604	-3.1917	-3.7479	-3.25	-3.5521	-3.5958	-3.0104	-3.7458	-3.425	-3.3542	-3.6104	-3.2042	-3.5771	185.380	228.044	331.310	462.460	369.869	279.392	443.580	409.394	432.029	193.655	472.689	450.395	413.602	510.722	187.947	179.354	0.00073767	0.0010511	7.1235e-05	1392.1	3.7683e-06	2.8149e-06	1381.5	372.7	1.5594e-06	3.815e-06	423.96	142.09	124.16	42.541	6.0623e-06	52.394	0.00054429	0.00052027	0.00013475	1408	6.0227e-06	5.6744e-06	1400.7	379.25	5.9634e-06	5.6613e-06	429.8	145.22	126.43	43.55	5.2657e-06	53.932	525.827	263.472	300.200	182.479	354.693	323.778	181.936	186.948	347.493	416.973	186.596	190.183	189.747	195.792	335.925	195.391	-8191	255	
5163.939	1	1	0	0	0.2831	0.30074	0.052769	0.38676	0.14028	0.24497	0.31665	0.35113	0.18139	0.051459	0.20282	0.079453	0.22478	0.12332	0.11219	0.26362	-2.9938	-3.1417	-3.6625	-3.4792	-3.0271	-3.8	-3.2167	-3.4104	-3.6	-2.9354	-3.5833	-3.5312	-3.1813	-3.6396	-3.1813	-3.5646	250.066	175.909	219.678	497.631	345.935	456.520	455.563	456.449	430.699	409.141	429.713	506.768	438.668	391.094	189.552	492.138	0.00060202	0.00049904	0.00023855	1393.2	6.0221e-06	3.2783e-06	1382.5	373.2	2.5063e-06	3.5605e-06	426.22	142.58	124.94	42.494	3.584e-06	52.556	0.00054454	0.00050926	0.0001332	1409.3	5.8981e-06	5.5577e-06	1401.6	379.98	5.8388e-06	5.4793e-06	430.44	145.6	126.12	43.517	5.4021e-06	54.033	520.066	368.335	273.964	182.468	285.013	221.628	182.089	186.821	318.879	436.937	186.710	190.250	190.132	195.971	314.528	195.022	-8191	255	
5164.035	1	1	0	0	0.40293	0.061181	0.28833	0.41633	0.18612	0.25955	0.16288	0.24714	0.20273	0.11821	0.14781	0.1016	0.10739	0.2007	0.10061	0.26998	-3.1958	-2.8854	-3.5292	-3.5375	-2.9417	-3.6688	-3.2833	-3.5375	-3.6333	-2.975	-3.675	-3.4604	-2.9854	-3.8333	-3.1458	-3.425	504.292	342.725	297.410	512.202	305.474	398.441	525.613	505.003	368.283	493.828	524.694	421.627	499.838	500.546	433.557	411.999	0.00064723	0.00038514	0.00014674	1389	7.4282e-07	4.0651e-06	1388	372.91	3.3576e-06	5.8659e-06	425.49	142.48	124.07	42.62	5.4255e-06	52.414	0.00053371	0.00048923	0.00013952	1410.3	5.7305e-06	5.3594e-06	1405.1	380.01	5.6699e-06	5.3016e-06	431.86	145.4	125.6	43.496	5.6398e-06	54.053	523.527	324.356	269.384	182.413	309.929	405.772	182.050	186.838	284.119	326.273	186.342	190.245	190.543	196.013	214.526	194.903	-8191	255	
5164.107	1	1	0	0	0.019149	0.21713	0.20523	0.3985	0.17272	0.15393	0.12698	0.31951	0.017436	0.21955	0.12161	0.46895	0.17437	0.20587	0.13443	0.049173	-3.1979	-2.9917	-3.5229	-3.4771	-3.0521	-3.5292	-3.45	-3.2938	-3.5833	-3.0729	-3.4208	-3.6396	-3.1896	-3.6188	-3.1396	-3.2833	185.388	363.116	456.674	483.161	206.579	189.558	508.901	492.564	223.395	437.514	228.219	492.046	337.915	465.195	209.932	287.494	0.00080143	0.00075797	0.00022829	1394.4	3.4217e-06	3.4483e-06	1383.1	374.78	7.2228e-06	6.8427e-06	426.56	142.36	123.87	42.766	3.4634e-06	52.596	0.00052026	0.00047916	0.00014588	1410.4	5.6182e-06	5.277e-06	1404.8	380.27	5.5816e-06	5.2473e-06	433.21	145.29	125.28	43.538	5.8699e-06	53.981	525.069	309.940	218.028	182.415	320.613	298.547	182.031	186.812	261.966	331.718	186.456	190.345	190.224	195.879	290.119	195.292	-8191	255	
5164.227	1	1	0	0	0.12646	0.077753	0.29879	0.12714	0.16947	0.0083434	0.15734	0.25757	0.18007	0.11303	0.2365	0.097645	0.31316	0.17513	0.14349	0.19608	-3.2333	-3.0917	-3.2687	-3.7562	-3.0646	-3.6792	-3.7062	-3.3146	-3.7271	-3.1292	-3.4646	-3.6958	-3.0687	-3.75	-3.3479	-3.3292	455.438	300.607	436.514	518.185	471.603	229.924	507.499	207.338	345.879	282.191	474.079	247.026	509.572	186.141	305.711	442.674	0.00080532	6.557e-05	4.4563e-05	1394.1	5.132e-07	6.7779e-06	1388.7	374.77	6.9489e-06	4.9724e-06	425.94	143.22	124.06	42.655	7.5517e-06	52.397	0.00050945	0.00048743	0.00015026	1409.5	5.4294e-06	5.4065e-06	1409.5	380.14	5.4263e-06	5.4441e-06	433.68	145.43	125.12	43.576	5.9483e-06	53.889	523.297	283.965	181.897	182.495	221.310	334.892	182.051	186.730	299.589	297.914	186.528	190.335	190.279	195.979	321.642	195.042	-8191	255	
5164.324	1	1	0	0	0.019946	0.092903	0.21794	0.1611	0.06844	0.053849	0.45465	0.22239	0.056887	0.18449	0.049046	0.11584	0.10863	0.1963	0.10363	0.25391	-3.325	-3.0938	-3.0604	-3.6729	-2.9417	-3.6396	-3.6125	-3.2188	-3.6	-3.2333	-3.5042	-3.7396	-3.0396	-3.525	-3.7292	-3.075	310.336	237.815	223.904	511.750	412.232	225.737	494.310	179.546	513.821	299.477	279.542	505.331	231.473	180.732	395.382	433.351	0.00063024	0.00068788	0.00022179	1388.4	4.3534e-06	3.053e-06	1389	373.67	6.8457e-06	4.7466e-06	426.47	142.71	124.09	42.751	3.9129e-06	52.557	0.00049082	0.00050445	0.00015101	1408.6	5.2551e-06	5.6207e-06	1408	379.5	5.2481e-06	5.7328e-06	433.86	145.43	125.09	43.714	5.9452e-06	53.939	525.399	264.715	316.744	182.562	228.718	282.181	182.110	186.858	309.325	350.717	186.421	190.272	190.141	195.911	338.292	195.070	-8191	255	
5164.420	1	1	0	0	0.19463	0.26315	0.18027	0.2637	0.086235	0.1528	0.30186	0.061773	0.068372	0.23334	0.29601	0.13734	0.19419	0.15981	0.29335	0.048012	-3.2292	-3.2271	-3.0458	-3.7271	-2.8708	-3.45	-3.7687	-3.0312	-3.6417	-3.4	-3.1354	-3.7521	-3.0312	-3.3646	-3.55	-3.2229	317.026	432.097	293.973	522.294	390.476	470.580	484.288	195.774	518.334	508.386	470.118	442.882	377.675	465.532	300.995	508.117	0.00076814	0.00049749	0.00011965	1395.6	4.7376e-06	5.7772e-06	1389.3	372.89	7.8254e-06	4.4368e-06	426.1	143.21	124.92	42.784	3.6637e-06	52.447	0.00049129	0.00053588	0.00014962	1409.8	5.3118e-06	5.9047e-06	1408.5	378.95	5.3236e-06	5.9357e-06	432.77	145.19	125.36	43.77	5.8013e-06	53.795	519.003	271.873	210.028	182.581	191.930	201.273	181.985	186.662	248.135	409.998	186.689	190.155	190.216	196.066	310.875	195.151	-8191	255	
5164.514	1	1	0	0	0.15002	0.11237	0.22904	0.19983	0.28076	0.15096	0.24052	0.31548	0.071129	0.14592	0.31543	0.18778	0.13455	0.10095	0.25231	0.21027	-3.2562	-3.4771	-3.1146	-3.7896	-3.1	-3.4313	-3.875	-3.2562	-3.6583	-3.3167	-3.2188	-3.9104	-3.2375	-3.3646	-3.5708	-3.2229	367.254	509.916	369.332	485.535	477.684	223.387	457.351	472.487	488.259	401.770	173.325	454.008	399.296	414.848	457.967	494.015	0.00071284	7.268e-05	0.00015471	1390.8	1.4008e-06	6.1581e-06	1383.2	373.29	5.0479e-06	1.0931e-06	425.79	142.67	124.08	42.649	6.2466e-07	52.546	0.00049935	0.00054584	0.00014579	1408.1	5.4697e-06	5.9646e-06	1404.8	378.56	5.5481e-06	5.9395e-06	432.82	144.82	125.77	43.679	5.6981e-06	53.769	521.831	281.320	319.732	182.596	236.638	293.459	182.099	186.703	188.987	445.094	186.454	190.701	190.803	196.083	465.051	195.298	-8191	255	
5164.612	1	1	0	0	0.0951	0.15163	0.093208	0.070216	0.1236	0.097684	0.19232	0.16375	0.17656	0.1502	0.11542	0.11535	0.079774	0.34825	0.25777	0.20803	-3.0312	-3.4583	-2.9104	-3.8187	-3.4646	-3.3646	-3.8208	-3.1646	-3.3667	-3.6688	-3.125	-3.7687	-3.3792	-3.3042	-3.7521	-2.9771	228.830	520.378	296.649	277.110	219.417	237.965	410.375	172.599	194.936	321.696	265.732	185.014	300.619	493.578	396.269	489.583	0.00077964	0.00031305	0.00014839	1390.4	4.9055e-06	2.7377e-06	1379.8	373.35	4.6755e-06	4.7232e-06	424.97	142.56	124.78	42.695	2.6739e-06	52.781	0.00052255	0.00053836	0.00014308	1406.1	5.7298e-06	5.8881e-06	1404.1	378.18	5.8143e-06	5.8375e-06	431.32	144.5	126.23	43.708	5.502e-06	53.719	518.311	364.688	286.391	182.210	189.274	287.753	182.016	186.802	219.775	281.704	186.514	190.118	190.299	196.037	368.619	195.188	-8191	255	
5164.706	1	1	0	0	0.20509	0.18874	0.16585	0.22756	0.14728	0.11895	0.14277	0.3595	0.24373	0.14335	0.20745	0.050044	0.19767	0.098998	0.25375	0.06627	-3.0687	-3.45	-2.9125	-3.6146	-3.2271	-3.2375	-4.05	-3.25	-3.3375	-3.7104	-3.25	-3.7479	-3.4792	-3.2104	-3.7896	-3.2687	284.136	190.220	222.944	374.318	491.208	494.472	502.413	519.062	322.411	247.658	483.521	254.455	497.536	508.505	485.026	220.177	0.00062036	0.00055096	0.00011168	1391.5	5.4274e-06	8.9799e-07	1385.5	373	2.5809e-06	3.2012e-06	423.68	142.24	123.88	42.696	7.2938e-06	52.526	0.00054202	0.0005263	0.00013895	1406	5.9453e-06	5.7232e-06	1403.1	378.46	5.9263e-06	5.6806e-06	430.94	144.84	126.29	43.621	5.3267e-06	53.801	517.916	412.078	325.168	182.480	225.786	219.900	182.091	187.018	349.557	302.131	186.400	190.255	190.290	195.963	281.473	195.277	-8191	255	
5164.804	1	1	0	0	0.096362	0.047458	0.28557	0.21969	0.075536	0.070766	0.30489	0.28845	0.28815	0.21615	0.25616	0.13692	0.12833	0.16373	0.06695	0.31466	-2.725	-3.5542	-3	-3.6583	-3.5458	-3.1042	-3.7896	-3.3708	-3.2021	-3.7687	-3.2125	-3.6542	-3.3792	-3.1271	-3.6083	-3.275	493.822	240.053	525.272	527.986	280.844	312.870	425.774	513.336	473.149	381.110	315.944	471.118	489.739	511.126	190.016	478.151	0.00071352	0.00080309	0.00019118	1392	3.7668e-06	1.1008e-06	1387.1	373.23	5.8724e-06	3.5388e-06	425.1	142.43	123.6	42.613	2.4282e-06	52.665	0.00054879	0.0005176	0.000134	1408.6	5.9353e-06	5.6264e-06	1404	379.37	5.9044e-06	5.6441e-06	430.57	145.26	126.07	43.583	5.2394e-06	53.989	522.262	223.129	301.128	182.412	197.351	202.623	182.066	186.705	284.604	421.262	186.514	190.444	190.320	195.820	347.415	195.361	-8191	255	
5164.923	1	1	0	0	0.15997	0.055315	0.22674	0.32154	0.061404	0.18191	0.17205	0.080126	0.11925	0.19988	0.058627	0.27318	0.0685	0.36831	0.19267	0.1223	-2.8146	-3.6708	-2.9208	-3.5646	-3.575	-3.1458	-3.8458	-3.4875	-3.2104	-3.6104	-3.0771	-3.6042	-3.5833	-3.0896	-3.6312	-3.575	371.517	317.567	430.797	499.217	466.736	243.313	460.190	207.072	195.421	507.512	493.821	488.619	419.447	174.972	370.779	468.677	0.00074653	0.0008029	0.00015083	1392	3.3694e-06	5.0761e-06	1385	373.26	5.38e-06	3.1041e-06	426.1	142.87	124.42	42.84	2.5239e-06	52.626	0.00054165	0.00050659	0.00013255	1410.2	5.8443e-06	5.526e-06	1402.3	380.22	5.8031e-06	5.5142e-06	430.83	145.73	126.33	43.586	5.3596e-06	54.125	527.105	240.976	334.427	182.451	268.148	366.452	181.916	186.871	364.949	434.653	186.509	190.283	190.007	196.009	261.560	195.352	-8191	255	
5165.019	1	1	0	0	0.29808	0.037243	0.066895	0.16751	0.11891	0.24919	0.28134	0.34393	0.0553	0.035637	0.12196	0.28624	0.11504	0.0069111	0.0073385	0.23448	-2.6875	-3.5979	-3.0917	-3.4833	-3.6125	-3.0146	-3.6583	-3.4688	-3.0604	-3.7646	-3.2812	-3.4146	-3.7375	-3.0896	-3.4688	-3.6188	258.645	346.938	356.529	460.318	408.535	200.403	458.334	467.839	337.515	209.675	416.329	474.284	419.536	449.700	469.830	209.559	0.00073906	0.00039666	0.00011211	1388	5.3507e-06	4.3286e-06	1385.4	374.52	5.6944e-06	5.345e-06	424.43	142.6	124.21	42.758	3.4847e-06	52.553	0.00052831	0.00048946	0.00013655	1410.7	5.6933e-06	5.3203e-06	1404.2	380.24	5.6885e-06	5.2714e-06	431.5	145.64	125.76	43.549	5.6373e-06	54.136	522.248	264.580	241.076	182.537	269.806	370.650	182.057	186.770	275.062	350.354	186.496	190.217	190.497	195.868	293.030	194.879	-8191	255	
5165.115	1	1	0	0	0.035518	0.095549	0.13314	0.33807	0.051437	0.40289	0.38816	0.21243	0.20587	0.16301	0.28519	0.20896	0.044992	0.19529	0.18445	0.19716	-2.5292	-3.5146	-3.2438	-3.4479	-3.7604	-3.0625	-3.7271	-3.7562	-2.9792	-3.5104	-3.5458	-3.2104	-3.5396	-3.4271	-3.3146	-3.5833	499.920	296.309	290.292	177.768	280.765	526.936	471.684	495.132	232.641	368.259	486.342	492.186	518.114	210.144	502.275	191.237	0.00085016	0.00042787	0.00014836	1393.3	2.4879e-06	9.3122e-06	1381.3	373.96	1.9887e-06	6.5752e-06	425.73	142.63	124.03	42.711	8.1614e-06	52.682	0.00052288	0.00047627	0.00014481	1411.7	5.6259e-06	5.2307e-06	1405.5	380.6	5.5672e-06	5.2497e-06	432.71	145.46	125.59	43.475	5.8488e-06	53.994	522.324	226.509	255.463	182.420	187.837	240.706	181.991	187.027	256.820	358.900	186.590	190.307	190.231	196.047	215.896	195.285	-8191	255	
5165.212	1	1	0	0	0.13541	0.074756	0.071931	0.10244	0.19674	0.26638	0.22101	0.24972	0.11272	0.11158	0.20853	0.16891	0.17243	0.16189	0.10615	0.20163	-2.4917	-3.6437	-3.3125	-3.2333	-3.5604	-3.1354	-3.7583	-3.7333	-3.0187	-3.4917	-3.4646	-3.0208	-3.7292	-3.1937	-3.3854	-3.7875	524.581	276.820	426.306	489.436	306.461	448.196	453.778	455.178	382.457	515.920	461.544	409.821	498.922	423.950	399.864	437.062	0.00076203	0.00016097	0.00016008	1394	2.0105e-06	7.1246e-06	1387.8	373.36	7.0998e-06	3.4437e-06	423.73	142.23	124.25	42.484	7.9437e-06	52.52	0.00050523	0.0004768	0.00014914	1410.9	5.4628e-06	5.3131e-06	1408.4	380.01	5.3949e-06	5.3536e-06	432.91	145.32	125.24	43.45	5.983e-06	54.012	516.130	224.368	256.643	182.582	348.547	282.072	182.111	186.631	275.053	279.393	186.522	190.477	190.167	195.729	298.203	195.303	-8191	255	
5165.332	1	1	0	0	0.16335	0.12131	0.14499	0.24152	0.16179	0.044265	0.30284	0.30446	0.08204	0.21305	0.28655	0.18529	0.087178	0.14054	0.023749	0.2337	-2.5646	-3.4562	-3.3104	-3.1708	-3.7062	-3.3208	-3.4854	-3.7562	-2.9104	-3.4333	-3.5896	-3.2104	-3.6688	-3.35	-3.2313	-3.8833	348.230	291.585	523.673	519.030	296.381	225.207	490.183	477.855	376.132	386.216	474.506	447.183	483.772	354.041	485.191	490.236	0.00067347	0.00090761	0.00023179	1389.4	4.9791e-06	6.0926e-06	1383	373.63	4.1122e-06	4.6693e-06	426.59	142.51	124.74	42.518	1.1623e-05	52.454	0.00049215	0.00050428	0.00015054	1406.8	5.2799e-06	5.5828e-06	1405.3	379.68	5.2813e-06	5.6895e-06	433.75	145.13	125.02	43.642	5.8924e-06	53.844	523.844	198.306	253.425	182.441	287.649	271.534	182.122	186.901	302.288	336.015	186.612	190.333	189.775	195.883	311.780	195.254	-8191	255	
5165.404	1	1	0	0	0.38933	0.10474	0.085631	0.1186	0.16781	0.14133	0.086951	0.18483	0.16503	0.16432	0.17669	0.12629	0.38025	0.50429	0.18796	0.2032	-2.75	-3.475	-3.525	-2.9979	-3.6854	-3.2792	-3.2687	-3.7417	-3.1104	-3.4396	-3.6125	-3.2167	-3.5708	-3.5792	-3.1854	-3.7375	254.148	345.760	467.813	453.879	444.899	378.811	457.741	410.525	280.030	295.986	187.694	412.932	202.503	517.478	459.764	225.525	0.00067126	0.00071361	6.5032e-05	1391.1	6.7535e-07	7.6719e-06	1389	372.69	2.4782e-06	8.53e-06	423.07	142.83	124.02	42.595	1.9037e-06	52.739	0.00048723	0.00053381	0.00014899	1407.9	5.2973e-06	5.8704e-06	1406.8	378.92	5.2785e-06	5.953e-06	432.22	145.06	125.1	43.687	5.8386e-06	53.912	522.496	505.038	210.839	182.545	329.426	299.952	181.876	186.902	256.831	305.411	186.453	190.337	190.543	195.911	284.238	195.153	-8191	255	
5165.525	1	1	0	0	0.12996	0.24133	0.1159	0.24942	0.16432	0.14365	0.15578	0.20398	0.27502	0.14433	0.060659	0.10983	0.049064	0.098654	0.041178	0.059781	-2.9146	-3.35	-3.5438	-3.15	-3.6083	-3.5083	-3.3167	-3.8542	-3.2458	-3.275	-3.7583	-3.1958	-3.5479	-3.6604	-2.9208	-3.6042	431.078	444.017	326.585	431.498	399.319	307.107	506.739	494.452	251.082	466.600	527.333	478.684	439.520	230.413	305.649	410.818	0.00074644	0.00048245	1.2168e-05	1395.8	1.6468e-06	5.344e-06	1384	374.03	7.5083e-06	2.4885e-06	425.97	142.5	123.89	42.463	2.7373e-07	52.517	0.00050072	0.00055026	0.00014555	1409.3	5.5202e-06	6.0138e-06	1405.8	378.9	5.5798e-06	6.0176e-06	432.54	144.68	125.62	43.656	5.7306e-06	53.781	521.414	339.609	209.540	182.621	292.529	293.986	181.951	186.793	301.955	310.045	186.598	190.336	190.434	195.991	265.366	195.067	-8191	255	
5165.619	1	1	0	0	0.11788	0.15612	0.14287	0.26922	0.0425	0.21642	0.37265	0.30924	0.35588	0.17135	0.16147	0.072435	0.1448	0.25042	0.27706	0.198	-2.8688	-3.0125	-3.5625	-3.275	-3.4708	-3.4771	-3.1833	-3.8812	-3.2583	-3.1688	-3.8	-3.3354	-3.4292	-3.6729	-3.0042	-3.6542	357.485	255.497	490.169	479.710	462.276	181.350	441.964	462.920	200.499	374.917	457.300	382.685	502.735	478.479	523.937	393.132	0.00084753	0.00076024	0.00020314	1394.4	8.3416e-07	7.6387e-06	1384.2	373.29	6.7217e-06	6.8026e-06	424.9	142.23	124.01	42.666	6.276e-06	52.429	0.00053059	0.00054813	0.00014371	1406.6	5.816e-06	5.9842e-06	1404.8	378.56	5.9191e-06	5.9082e-06	431.96	144.68	126.5	43.706	5.6257e-06	53.747	521.751	250.075	313.586	182.417	428.973	239.563	182.066	186.982	234.607	306.950	186.553	190.221	190.130	195.988	247.874	195.253	-8191	255	
5165.715	1	1	0	0	0.2035	0.28576	0.025691	0.24807	0.20248	0.22591	0.1172	0.34746	0.099665	0.0714	0.067203	0.17565	0.30055	0.19649	0.12737	0.27022	-3.0625	-3.1104	-3.6688	-3.1292	-3.325	-3.6813	-3.3812	-3.7479	-3.4229	-3.1	-3.8833	-3.2479	-3.5333	-3.7188	-3.0938	-3.7667	178.382	232.086	303.645	372.876	188.689	366.659	455.705	504.686	296.008	199.362	511.792	497.757	481.284	479.860	393.002	522.193	0.00073814	0.00074102	0.00010686	1392.8	1.1531e-05	4.0885e-06	1384.9	374.77	4.8212e-06	4.1169e-06	424.33	142.23	124.83	42.66	3.8293e-06	52.58	0.00055447	0.00053609	0.00014083	1405.9	6.0219e-06	5.8609e-06	1403.9	379.44	6.0803e-06	5.8244e-06	431.71	144.89	127.09	43.677	5.4813e-06	53.928	523.055	283.854	308.659	182.440	263.290	347.101	182.183	186.869	215.230	358.727	186.455	190.030	190.155	195.742	280.436	195.120	-8191	255	
5165.811	1	1	0	0	0.10076	0.34385	0.25152	0.24574	0.20653	0.20865	0.19274	0.11078	0.07754	0.035635	0.19047	0.22929	0.24344	0.095308	0.0096948	0.12311	-2.8604	-3.0771	-3.5354	-3.4792	-3.2562	-3.5208	-3.2687	-3.5062	-3.5229	-3.0146	-3.8375	-3.3021	-3.3271	-3.7479	-3.1708	-3.575	215.489	413.473	353.566	480.138	492.159	371.516	457.831	201.730	341.243	417.319	172.042	186.117	431.894	496.080	256.533	387.329	0.00075177	0.00063796	0.00013712	1391.8	5.4805e-06	2.3804e-06	1383.8	374.97	6.7489e-06	1.5202e-06	426.84	142.35	123.94	42.558	6.3849e-06	52.724	0.00056345	0.00053054	0.0001373	1410.1	6.0951e-06	5.8024e-06	1403.5	380.24	6.1017e-06	5.7544e-06	431.75	145.45	126.65	43.636	5.4149e-06	54.083	522.510	321.563	308.655	182.675	267.224	293.656	182.098	187.048	283.972	425.392	186.702	190.185	190.457	196.041	260.216	194.836	-8191	255	
5165.932	1	1	0	0	0.089835	0.15486	0.22421	0.24631	0.26245	0.11482	0.30257	0.32397	0.129	0.10751	0.095763	0.11779	0.33555	0.16064	0.077224	0.27966	-3.0896	-3.025	-3.6292	-3.5792	-3.2708	-3.7792	-3.2313	-3.6021	-3.5271	-3.25	-3.7771	-3.5104	-3.2354	-3.7938	-3.2271	-3.5625	456.645	250.312	187.566	435.033	203.007	271.617	475.433	487.149	463.964	172.351	231.354	460.379	405.193	513.727	186.339	172.606	0.00079509	0.00025873	0.00018865	1388.4	4.2366e-06	8.1424e-06	1383.6	373.31	3.4604e-06	3.726e-06	427.66	141.71	124.39	42.427	3.0442e-06	52.523	0.00056334	0.00052346	0.00013712	1411.7	6.0199e-06	5.7197e-06	1404.4	380.48	5.9963e-06	5.6088e-06	431.98	145.68	126.49	43.602	5.5002e-06	54.252	525.167	323.339	297.379	182.488	278.015	332.943	182.096	186.938	286.194	361.106	186.629	190.179	190.053	196.016	250.935	194.943	-8191	255	
5166.004	1	1	0	0	0.27053	0.23322	0.22714	0.258	0.14002	0.072748	0.27392	0.31186	0.097759	0.11114	0.078405	0.028142	0.15868	0.27782	0.17407	0.056787	-2.9354	-3.1167	-3.4104	-3.5708	-3.0979	-3.8458	-3.4938	-3.4979	-3.6542	-2.9396	-3.6021	-3.4833	-3.0854	-3.825	-3.1458	-3.5396	439.210	463.506	253.516	457.930	431.601	305.922	449.828	523.299	360.786	287.714	475.337	220.020	188.982	188.803	396.815	410.309	0.0007025	0.00042646	0.00015019	1395.9	5.712e-06	9.7226e-07	1387.7	374.12	3.1673e-06	3.1825e-06	426.48	142.74	123.96	42.6	2.6861e-06	52.483	0.00054446	0.0005101	0.00014067	1413.6	5.8836e-06	5.5746e-06	1404.5	381.08	5.9187e-06	5.4852e-06	433.12	145.76	126.1	43.54	5.8319e-06	54.266	522.227	265.579	237.171	182.430	353.906	505.925	181.880	186.915	351.303	358.106	186.447	190.574	189.913	195.881	278.540	195.256	-8191	255	
5166.100	1	1	0	0	0.010403	0.11927	0.21801	0.21119	0.1756	0.032789	0.26541	0.16776	0.12302	0.18998	0.12942	0.18286	0.1231	0.14957	0.077737	0.1169	-3.125	-2.9542	-3.4854	-3.4333	-2.8417	-3.6437	-3.4229	-3.4042	-3.5563	-3.1229	-3.4479	-3.5187	-3.0438	-3.7333	-3.4188	-3.3312	388.525	449.838	368.989	505.519	412.835	336.692	496.567	195.535	201.138	430.179	444.582	226.280	310.101	263.993	188.648	388.313	0.00070055	0.00013915	0.00026821	1394.5	4.5528e-06	8.688e-06	1381.7	374.71	5.8407e-06	5.8955e-06	424.27	142.49	124.34	42.525	6.728e-06	52.666	0.00053683	0.00049189	0.00014944	1412.5	5.8428e-06	5.4282e-06	1406.7	380.91	5.8471e-06	5.4083e-06	433.78	145.89	126.19	43.578	6.0972e-06	54.184	516.823	410.861	251.893	182.454	318.189	311.842	181.988	186.766	306.299	380.027	186.523	190.072	190.229	196.064	261.813	195.135	-8191	255	
5166.196	1	1	0	0	0.065024	0.1645	0.038696	0.27052	0.15356	0.05834	0.1186	0.26821	0.12116	0.035054	0.17127	0.26789	0.14373	0.1582	0.14273	0.2547	-3.2438	-3.1646	-3.4771	-3.8167	-2.975	-3.525	-3.5875	-3.0125	-3.8187	-3.1208	-3.5312	-3.5062	-2.9917	-3.5792	-3.3771	-3.1917	254.100	183.435	175.683	456.373	305.863	335.360	468.484	502.116	173.807	425.088	489.922	449.909	408.201	517.603	345.163	171.187	0.00068266	0.00049056	0.00014996	1390.6	4.4897e-06	1.0494e-05	1386.5	374.07	5.1106e-06	6.3049e-06	425.94	142.13	124.69	42.64	7.0052e-06	52.178	0.00052987	0.00049909	0.00015678	1410.6	5.6566e-06	5.5165e-06	1408.1	379.88	5.6978e-06	5.5963e-06	434.95	145.77	125.99	43.639	6.2067e-06	53.97	527.121	201.939	259.058	182.582	214.299	265.959	182.153	186.823	322.218	341.544	186.480	190.535	190.140	195.846	381.314	194.800	-8191	255	
5166.292	1	1	0	0	0.16273	0.030507	0.11064	0.19186	0.17148	0.29922	0.25164	0.34187	0.1098	0.14751	0.12612	0.30003	0.16298	0.12013	0.086648	0.20231	-3.4479	-3.2792	-3.4542	-3.8021	-2.925	-3.5	-3.6542	-3.0812	-3.7604	-3.2687	-3.3312	-3.8542	-2.9667	-3.4938	-3.4833	-3.1458	254.097	290.609	428.792	488.102	299.125	392.519	470.820	520.034	356.852	360.340	474.513	495.925	490.548	485.786	498.004	452.526	0.00063838	0.00047098	0.00027428	1391.5	6.2221e-06	5.3206e-06	1382.3	373.52	4.4589e-06	3.2986e-06	426.21	142.43	123.53	42.587	7.8323e-06	52.452	0.00051287	0.0005257	0.00015774	1410.2	5.5115e-06	5.7808e-06	1407.4	380.16	5.5123e-06	5.8447e-06	434.81	145.43	125.46	43.67	6.1208e-06	53.963	519.765	276.022	321.208	182.504	274.223	298.690	181.956	186.888	261.525	247.463	186.591	190.195	190.287	195.777	288.960	195.082	-8191	255	
5166.413	1	1	0	0	0.19698	0.18259	0.052385	0.15214	0.055085	0.21095	0.17383	0.22499	0.10045	0.1808	0.21081	0.12493	0.15939	0.11242	0.25766	0.10536	-3.2833	-3.3563	-3.2646	-3.9833	-3.0729	-3.5062	-3.575	-3.0333	-3.6875	-3.3042	-3.325	-3.7458	-3.3229	-3.5458	-3.5417	-3.1229	275.625	210.971	204.306	231.132	316.775	412.840	427.299	478.078	184.828	252.771	474.967	306.409	454.758	184.987	170.464	240.143	0.00075896	0.00095387	6.3581e-05	1390.5	7.2061e-06	8.9863e-06	1388.7	373.13	3.3666e-06	1.5034e-06	426.27	142.75	123.76	42.613	2.3912e-06	52.362	0.00050213	0.00054708	0.00015521	1408.2	5.4548e-06	6.0743e-06	1406.7	379.97	5.5003e-06	6.1445e-06	433.67	145.28	125.34	43.771	5.9407e-06	53.914	169.988	274.507	344.470	182.501	242.564	235.654	182.020	186.942	258.583	263.546	186.414	190.448	190.242	196.111	330.334	195.060	-8191	255	
5166.507	1	1	0	0	0.089793	0.14207	0.16808	0.28263	0.060142	0.1151	0.26361	0.21647	0.052499	0.033059	0.33606	0.16363	0.19605	0.4509	0.13393	0.053574	-3.2562	-3.4542	-3.1229	-3.9583	-3.3604	-3.475	-3.9125	-3.1917	-3.6229	-3.6479	-3.2062	-3.7354	-3.3667	-3.2771	-3.6729	-3.1208	229.491	379.878	179.819	497.176	501.399	394.094	437.297	434.798	497.085	285.140	502.795	225.503	237.080	178.888	397.075	218.689	0.00086742	0.00060232	0.00021507	1392.2	2.9498e-06	6.9822e-06	1386.2	373.66	4.7986e-06	1.8074e-06	424.91	142.78	124.14	42.496	5.3747e-06	52.243	0.00050758	0.00056138	0.00015091	1405.8	5.5938e-06	6.1593e-06	1407.2	379.55	5.6493e-06	6.1771e-06	433.09	145.14	125.86	43.76	5.7651e-06	53.705	518.110	211.109	291.082	182.486	496.455	338.442	182.228	186.701	291.817	267.360	186.225	190.357	190.253	195.985	328.226	194.895	-8191	255	
5166.605	1	1	0	0	0.12544	0.19339	0.21242	0.19151	0.17469	0.13967	0.087336	0.21115	0.18035	0.13497	0.17452	0.07277	0.10572	0.23436	0.10611	0.21737	-3.2896	-3.6417	-3.0625	-3.7229	-3.4729	-3.2479	-3.9771	-3.4062	-3.4458	-3.7021	-3.2667	-3.8583	-3.3979	-3.4167	-3.8708	-3.2208	509.585	254.180	185.065	438.566	503.780	469.296	403.842	444.812	278.327	488.030	517.003	238.326	280.135	521.622	506.357	244.718	0.0007574	0.00034164	0.0001184	1392.3	6.1976e-06	7.9456e-06	1383.5	372.95	5.0375e-06	2.8252e-06	424.1	142.75	124.21	42.832	1.5929e-06	52.613	0.00053309	0.00055737	0.00014651	1407.4	5.8061e-06	6.0714e-06	1404.3	378.32	5.9157e-06	6.023e-06	432.29	144.97	126.51	43.791	5.6286e-06	53.781	524.606	208.958	217.661	182.575	310.677	262.753	182.145	186.892	232.972	180.750	186.769	190.284	190.455	195.959	381.804	195.068	-8191	255	
5166.699	1	1	0	0	0.068339	0.25769	0.10387	0.37515	0.18237	0.15091	0.36408	0.078173	0.15942	0.16186	0.16425	0.21895	0.10658	0.23379	0.094734	0.12204	-3.15	-3.6375	-2.9917	-3.6104	-3.3812	-3.1958	-3.8667	-3.3625	-3.4542	-3.6083	-3.0708	-3.7062	-3.4354	-3.1521	-3.6833	-3.2812	263.121	332.365	426.940	476.784	480.258	510.525	472.557	450.689	475.287	297.109	521.492	494.410	414.574	494.746	462.229	525.418	0.00073855	0.00020701	8.3493e-05	1391.5	4.5751e-06	3.8237e-06	1383.5	374.41	6.4411e-06	4.4684e-06	424.62	142.96	124.37	42.574	6.9063e-06	52.367	0.00055276	0.0005428	0.00014232	1407.1	5.9953e-06	5.8894e-06	1402.9	379.06	6.086e-06	5.8941e-06	431.45	145.16	126.89	43.7	5.45e-06	53.86	169.279	227.457	269.421	182.336	202.613	360.336	182.025	186.741	231.657	380.067	186.496	190.379	190.546	196.010	245.287	195.114	-8191	255	
5166.795	1	1	0	0	0.12577	0.19967	0.31594	0.17098	0.19544	0.15831	0.074065	0.21908	0.11298	0.11076	0.27	0.12376	0.085585	0.12465	0.080659	0.16362	-3.0521	-3.6479	-2.9479	-3.7562	-3.6896	-3.15	-3.9667	-3.3708	-3.4354	-3.7875	-3.2333	-3.525	-3.7417	-3.4458	-3.8542	-3.3958	235.450	372.250	441.225	489.575	266.404	202.673	429.206	498.336	174.084	375.923	457.228	390.706	395.866	491.695	256.014	493.805	0.0007518	0.00068383	0.00016377	1390.9	1.7322e-06	5.9348e-06	1382.8	374.89	3.1548e-06	5.6963e-07	424.31	142.88	123.79	42.568	2.9092e-06	52.608	0.00055872	0.00053161	0.00013658	1408.5	6.0614e-06	5.7928e-06	1401.7	379.44	6.0699e-06	5.7467e-06	430.12	145.51	126.26	43.7	5.3716e-06	54.131	522.280	280.635	257.304	182.438	229.139	300.415	182.123	186.756	276.057	280.291	186.613	190.268	190.033	195.902	222.408	195.092	-8191	255	
5166.892	1	1	0	0	0.17342	0.12561	0.20181	0.09213	0.076811	0.08786	0.17309	0.39651	0.18293	0.13503	0.15717	0.03179	0.20929	0.21091	0.17332	0.34276	-2.8187	-3.5896	-3.0667	-3.5979	-3.6917	-3.1417	-3.875	-3.4521	-3.2583	-3.6188	-3.2771	-3.4313	-3.725	-3.1917	-3.7062	-3.4896	209.560	326.403	461.864	321.073	329.751	311.311	416.449	469.060	493.443	268.546	427.136	233.718	484.236	519.729	342.047	172.437	0.00072194	0.001023	6.9818e-05	1389.8	6.5322e-07	5.2464e-06	1382	372.33	3.7913e-06	5.6744e-06	424.43	142.31	124.55	42.567	6.2872e-06	52.46	0.00055126	0.00051565	0.00013488	1409.3	5.9263e-06	5.6214e-06	1400.7	379.49	5.9863e-06	5.6398e-06	430.07	145.77	126.44	43.548	5.449e-06	54.062	170.525	250.792	282.286	182.520	305.292	305.563	182.041	186.887	352.323	402.233	186.320	190.223	190.011	196.083	212.477	195.087	-8191	255	
5167.012	1	1	0	0	0.17132	0.17764	0.10688	0.15207	0.13114	0.10729	0.33361	0.10556	0.12358	0.1026	0.076183	0.053226	0.13312	0.12103	0.052653	0.14216	-2.8292	-3.7458	-3.1417	-3.5771	-3.6562	-3.1896	-3.8563	-3.6333	-3.2771	-3.9542	-3.4042	-3.5458	-3.7979	-3.0771	-3.7271	-3.7625	175.983	346.119	326.054	482.915	195.920	201.142	476.849	415.086	389.418	329.035	364.995	404.740	195.067	499.214	229.609	504.263	0.00075437	0.00013787	0.00023655	1391.5	5.4361e-07	1.0389e-05	1386.8	373.29	4.8595e-06	4.0263e-06	423.86	142.79	124.2	42.625	6.9907e-06	52.71	0.00054031	0.00050051	0.00013912	1410.3	5.8287e-06	5.5087e-06	1403.7	380.28	5.8139e-06	5.4898e-06	432.06	145.65	126.34	43.549	5.7213e-06	54.186	170.504	296.593	225.220	182.548	350.626	321.111	182.164	186.782	342.686	359.445	186.370	190.242	190.218	195.722	314.085	194.792	-8191	255	
5167.108	1	1	0	0	0.13221	0.13261	0.12102	0.2762	0.14379	0.16412	0.39997	0.096319	0.077889	0.15507	0.17745	0.20717	0.027215	0.055826	0.1076	0.35524	-2.6354	-3.6417	-3.1875	-3.5896	-3.7979	-3.125	-3.7313	-3.7812	-3.2208	-3.7625	-3.4146	-3.3854	-3.7875	-3.2521	-3.4562	-3.6583	468.015	271.424	394.489	322.430	241.109	336.735	496.258	476.647	252.162	195.594	494.219	481.300	217.235	266.545	425.272	523.668	0.00077358	0.00074718	8.6372e-05	1394.3	2.3449e-06	9.977e-06	1383.7	374.38	9.1661e-06	4.3566e-06	423.93	142.95	124.36	42.444	5.4614e-06	52.51	0.000538	0.00049191	0.0001469	1411.5	5.7139e-06	5.3679e-06	1404.2	380.61	5.7269e-06	5.3398e-06	433.22	145.85	126.03	43.563	5.9848e-06	54.149	528.745	177.821	230.527	182.314	478.498	329.688	181.914	186.871	306.461	314.607	186.682	190.209	190.335	195.883	178.192	195.298	-8191	255	
5167.205	1	1	0	0	0.13527	0.11146	0.24932	0.24332	0.14182	0.11111	0.15453	0.42488	0.10088	0.10857	0.28074	0.21712	0.16948	0.36105	0.01711	0.3869	-2.6354	-3.675	-3.3229	-3.4646	-3.8583	-3.0896	-3.5854	-3.7062	-3.1646	-3.7083	-3.6667	-3.2313	-3.8667	-3.2167	-3.4	-3.6875	350.679	340.779	459.026	184.079	435.825	175.987	403.915	475.798	447.203	511.362	461.615	497.236	452.114	472.727	247.733	497.514	0.00061596	0.00064273	0.0001264	1389.8	1.4993e-06	1.5902e-06	1381.8	374.06	6.7761e-06	2.3241e-06	423.51	142.86	124.66	42.618	2.4149e-06	52.456	0.00052364	0.00049035	0.00015267	1410.3	5.653e-06	5.3972e-06	1406.8	380.07	5.5382e-06	5.4958e-06	433.78	145.8	125.44	43.578	6.1334e-06	54.038	522.552	235.175	299.575	182.544	297.834	422.169	181.984	186.928	366.506	205.939	186.534	190.459	190.627	195.817	294.571	195.140	-8191	255	
5167.301	1	1	0	0	0.20469	0.13947	0.13941	0.26864	0.14605	0.14892	0.25112	0.17298	0.22299	0.047746	0.10204	0.043824	0.05121	0.21866	0.13591	0.11407	-2.5604	-3.6	-3.3521	-3.1458	-3.6604	-3.0583	-3.6083	-3.9458	-2.9875	-3.4437	-3.5729	-3.1458	-3.7333	-3.2708	-3.3354	-3.8646	465.172	264.429	317.162	527.566	524.356	500.740	476.837	472.326	360.891	395.456	220.185	250.341	259.835	479.018	305.132	447.737	0.00074055	0.00042232	0.00015283	1389.7	3.0337e-06	5.1464e-06	1383.9	372.91	3.2592e-06	5.3882e-06	424.85	142.45	124.04	42.694	4.7521e-06	52.483	0.00050692	0.00051218	0.00015607	1408.3	5.4558e-06	5.6848e-06	1406	379.67	5.4053e-06	5.7308e-06	433.43	145.39	125.26	43.773	6.0646e-06	54.123	173.125	220.973	290.439	182.597	249.872	481.645	182.120	187.032	250.192	288.328	186.459	190.184	190.197	195.720	355.802	194.965	-8191	255	
#DATA ENDS
