BOXY.EXE: ISS Imagent and Oximeter Data Acquisition Program Version 0.80
Ascii Record File

#ACQ INFORMATION
2  Detector Channels 
16  External MUX Channels 
1  Auxiliary Channels 
5000  Waveform (CCF) Frequency (Hz)
1  Waveforms Skipped 
30  Waveforms Averaged 
1  Cycles Averaged 
16  Acquisitions per Waveform 
10.0806  Updata Rate (Hz) 

#FILE INFORMATION
TRUE -- External MUX Channel results are PARSED.
FALSE -- AC DC and Phase are NOT grouped.
TRUE -- Companion Program Settings File CREATED.
FALSE -- AC data not excluded
FALSE -- DC data not excluded
FALSE -- Phase data not excluded
FALSE -- Auxillary Chn. data not excluded
Tab delimiters

#CALIBRATION STATE
TRUE -- Waveform Calibration Values APPLIED.


#AUX CALIBRATION VALUES
Val Type	aux-1	

Term	1.0000e+00	
Factor	0.0000e+00	


#WF CALIBRATION VALUES
A = Detector Channel
Val Type	A-AC1	A-AC2	A-AC3	A-AC4	A-AC5	A-AC6	A-AC7	A-AC8	A-AC9	A-AC10	A-AC11	A-AC12	A-AC13	A-AC14	A-AC15	A-AC16	A-DC1	A-DC2	A-DC3	A-DC4	A-DC5	A-DC6	A-DC7	A-DC8	A-DC9	A-DC10	A-DC11	A-DC12	A-DC13	A-DC14	A-DC15	A-DC16	A-Ph1	A-Ph2	A-Ph3	A-Ph4	A-Ph5	A-Ph6	A-Ph7	A-Ph8	A-Ph9	A-Ph10	A-Ph11	A-Ph12	A-Ph13	A-Ph14	A-Ph15	A-Ph16	

Term	0.00000e+00	0.00000e+00	0.00000e+00	0.00000e+00	0.00000e+00	0.00000e+00	0.00000e+00	0.00000e+00	0.00000e+00	0.00000e+00	0.00000e+00	0.00000e+00	0.00000e+00	0.00000e+00	0.00000e+00	0.00000e+00	0.00000e+00	0.00000e+00	0.00000e+00	0.00000e+00	0.00000e+00	0.00000e+00	0.00000e+00	0.00000e+00	0.00000e+00	0.00000e+00	0.00000e+00	0.00000e+00	0.00000e+00	0.00000e+00	0.00000e+00	0.00000e+00	0.00000e+00	0.00000e+00	0.00000e+00	0.00000e+00	0.00000e+00	0.00000e+00	0.00000e+00	0.00000e+00	0.00000e+00	0.00000e+00	0.00000e+00	0.00000e+00	0.00000e+00	0.00000e+00	0.00000e+00	0.00000e+00	
Factor	1.00000e+00	1.00000e+00	1.00000e+00	1.00000e+00	1.00000e+00	1.00000e+00	1.00000e+00	1.00000e+00	1.00000e+00	1.00000e+00	1.00000e+00	1.00000e+00	1.00000e+00	1.00000e+00	1.00000e+00	1.00000e+00	1.00000e+00	1.00000e+00	1.00000e+00	1.00000e+00	1.00000e+00	1.00000e+00	1.00000e+00	1.00000e+00	1.00000e+00	1.00000e+00	1.00000e+00	1.00000e+00	1.00000e+00	1.00000e+00	1.00000e+00	1.00000e+00	X	X	X	X	X	X	X	X	X	X	X	X	X	X	X	X	

B = Detector Channel
Val Type	B-AC1	B-AC2	B-AC3	B-AC4	B-AC5	B-AC6	B-AC7	B-AC8	B-AC9	B-AC10	B-AC11	B-AC12	B-AC13	B-AC14	B-AC15	B-AC16	B-DC1	B-DC2	B-DC3	B-DC4	B-DC5	B-DC6	B-DC7	B-DC8	B-DC9	B-DC10	B-DC11	B-DC12	B-DC13	B-DC14	B-DC15	B-DC16	B-Ph1	B-Ph2	B-Ph3	B-Ph4	B-Ph5	B-Ph6	B-Ph7	B-Ph8	B-Ph9	B-Ph10	B-Ph11	B-Ph12	B-Ph13	B-Ph14	B-Ph15	B-Ph16	

Term	0.00000e+00	0.00000e+00	0.00000e+00	0.00000e+00	0.00000e+00	0.00000e+00	0.00000e+00	0.00000e+00	0.00000e+00	0.00000e+00	0.00000e+00	0.00000e+00	0.00000e+00	0.00000e+00	0.00000e+00	0.00000e+00	0.00000e+00	0.00000e+00	0.00000e+00	0.00000e+00	0.00000e+00	0.00000e+00	0.00000e+00	0.00000e+00	0.00000e+00	0.00000e+00	0.00000e+00	0.00000e+00	0.00000e+00	0.00000e+00	0.00000e+00	0.00000e+00	3.11442e+01	-1.32585e+02	-1.25137e+02	-1.82803e+02	-6.99753e+01	-6.57492e+01	-1.55363e+02	-1.62015e+02	-5.19944e+01	-6.84061e+01	-1.72002e+02	-1.69539e+02	-1.79829e+02	-1.77289e+02	-5.95372e+01	-1.49288e+02	
Factor	4.46143e-05	1.55393e-04	3.79425e-05	1.69166e-01	1.65811e-06	1.54395e-06	1.50608e-01	4.38241e-02	2.52180e-06	1.64082e-06	8.20883e-02	2.44333e-02	2.46613e-02	7.74829e-03	1.75397e-06	1.09675e-02	1.31998e-05	1.98917e-05	5.63019e-06	8.76786e-02	2.03302e-07	2.24248e-07	7.35378e-02	2.28266e-02	1.97474e-07	2.25893e-07	4.16175e-02	1.24053e-02	1.29592e-02	4.07900e-03	2.08931e-07	5.61216e-03	X	X	X	X	X	X	X	X	X	X	X	X	X	X	X	X	



#DISTANCE SETTINGS
A = Detector Channel
A-1	A-2	A-3	A-4	A-5	A-6	A-7	A-8	A-9	A-10	A-11	A-12	A-13	A-14	A-15	A-16	

2.5000e+00	3.0000e+00	2.5000e+00	3.0000e+00	2.0000e+00	3.0000e+00	1.5000e+00	3.0000e+00	3.0000e+00	3.0000e+00	3.0000e+00	3.0000e+00	3.0000e+00	3.0000e+00	1.5000e+00	3.0000e+00	

B = Detector Channel
B-1	B-2	B-3	B-4	B-5	B-6	B-7	B-8	B-9	B-10	B-11	B-12	B-13	B-14	B-15	B-16	

1.0000e+01	1.0000e+01	1.0000e+01	1.4400e+00	1.0000e+01	1.0000e+01	1.5100e+00	1.9400e+00	1.0000e+01	1.0000e+01	1.9900e+00	2.4900e+00	2.4100e+00	2.9000e+00	1.0000e+01	2.9800e+00	




#DATA BEGINS
time	group	step	mark	flag	A-AC1	A-AC2	A-AC3	A-AC4	A-AC5	A-AC6	A-AC7	A-AC8	A-AC9	A-AC10	A-AC11	A-AC12	A-AC13	A-AC14	A-AC15	A-AC16	A-DC1	A-DC2	A-DC3	A-DC4	A-DC5	A-DC6	A-DC7	A-DC8	A-DC9	A-DC10	A-DC11	A-DC12	A-DC13	A-DC14	A-DC15	A-DC16	A-Ph1	A-Ph2	A-Ph3	A-Ph4	A-Ph5	A-Ph6	A-Ph7	A-Ph8	A-Ph9	A-Ph10	A-Ph11	A-Ph12	A-Ph13	A-Ph14	A-Ph15	A-Ph16	B-AC1	B-AC2	B-AC3	B-AC4	B-AC5	B-AC6	B-AC7	B-AC8	B-AC9	B-AC10	B-AC11	B-AC12	B-AC13	B-AC14	B-AC15	B-AC16	B-DC1	B-DC2	B-DC3	B-DC4	B-DC5	B-DC6	B-DC7	B-DC8	B-DC9	B-DC10	B-DC11	B-DC12	B-DC13	B-DC14	B-DC15	B-DC16	B-Ph1	B-Ph2	B-Ph3	B-Ph4	B-Ph5	B-Ph6	B-Ph7	B-Ph8	B-Ph9	B-Ph10	B-Ph11	B-Ph12	B-Ph13	B-Ph14	B-Ph15	B-Ph16	aux-1	digaux	

17978.055	1	1	0	768	0.27645	0.11649	0.065819	0.40826	0.20395	0.067184	0.13404	0.061829	0.34772	0.16611	0.17022	0.057196	0.027129	0.13725	0.17637	0.14017	-2.5542	-2.7562	-2.9437	-3.0104	-2.7313	-3.0146	-2.9354	-3.1188	-2.8646	-2.7292	-3.0146	-2.8458	-2.8208	-3.0979	-2.8396	-3.0312	-119.518	12.273	116.360	113.557	-169.929	-102.970	131.670	179.784	-11.225	151.465	126.961	-127.620	150.109	144.044	7.764	-138.213	0.0013479	0.00050682	0.00012446	1351.9	6.5516e-06	3.9481e-06	1349.1	362.72	1.1327e-05	5.6227e-06	415.46	138.93	120.64	41.161	7.3639e-06	51.196	0.00068562	0.00062323	0.00017167	1377.4	6.8094e-06	6.6816e-06	1375.4	371.19	6.7499e-06	6.7057e-06	424.86	141.9	123.52	42.54	6.4185e-06	52.76	2.453	-86.354	-80.602	-164.890	-59.795	-16.468	-165.295	-160.267	-37.195	1.829	-160.647	-156.610	-156.259	-151.330	-39.731	-152.320	-8191	255	
17978.150	1	1	0	0	0.073592	0.12662	0.038881	0.1799	0.092446	0.23047	0.36068	0.47004	0.073046	0.064437	0.23631	0.13934	0.076145	0.20311	0.12398	0.23579	-2.5917	-2.7583	-2.8563	-2.9479	-2.5604	-2.9917	-2.9917	-2.9604	-3.1833	-2.7146	-2.9125	-3.1292	-2.7604	-3.1667	-2.7417	-2.9354	-4.030	68.627	1.470	-173.370	0.648	132.601	148.048	135.616	139.429	47.065	134.123	127.640	42.414	175.970	154.757	92.747	0.0013645	0.00057193	0.00015715	1347.4	4.3894e-06	3.7469e-06	1352.4	364.81	1.2925e-05	5.8494e-06	414.45	138.62	121.4	41.221	6.8929e-06	51.148	0.00068807	0.00059066	0.00017319	1375.3	6.9165e-06	6.4364e-06	1377.5	371.79	6.7672e-06	6.6756e-06	424.57	142	123.92	42.624	6.768e-06	52.897	3.187	-74.992	-90.370	-164.973	-71.742	-21.377	-164.988	-160.325	-36.142	-24.181	-160.884	-156.613	-155.974	-151.538	-14.117	-151.985	-8191	255	
17978.244	1	1	0	0	0.23914	0.26327	0.18761	0.37925	0.31503	0.10856	0.26085	0.12324	0.052687	0.10382	0.1425	0.1927	0.21304	0.070253	0.11309	0.18581	-2.3917	-2.6625	-2.75	-2.9562	-2.6937	-2.8896	-3.0729	-2.8312	-2.9729	-2.6854	-2.875	-3.1417	-2.5833	-2.8812	-2.8312	-2.7687	49.493	-11.422	108.990	84.794	-28.878	60.193	99.980	162.760	102.427	99.734	151.696	112.704	66.439	116.373	30.560	122.772	0.0013227	0.00057924	0.00011248	1349.9	5.9293e-06	5.8361e-06	1349.9	366.14	1.055e-05	5.7346e-06	414.27	138.86	121.43	41.314	5.918e-06	51.119	0.0006807	0.00057504	0.00016674	1377.1	6.5955e-06	6.4929e-06	1377.5	373.05	6.3751e-06	6.7128e-06	424.45	142.4	123.85	42.697	6.6631e-06	53.028	-0.772	-91.559	-83.934	-164.861	-40.217	-36.997	-165.133	-160.206	-34.677	-37.628	-160.684	-156.642	-156.050	-151.186	-38.350	-152.215	-8191	255	
17978.342	1	1	0	0	0.17003	0.13603	0.17883	0.24346	0.052457	0.23685	0.48179	0.2121	0.14249	0.20675	0.25245	0.27103	0.33125	0.26387	0.091006	0.22769	-2.475	-2.6562	-2.8771	-3.0812	-2.6396	-2.8833	-2.9896	-2.9396	-2.9813	-2.9125	-2.8688	-3.075	-2.7313	-2.9521	-2.9417	-2.7313	-123.915	-4.454	-71.948	105.189	-55.951	-134.600	104.168	111.117	94.510	102.370	-177.721	101.146	142.670	-175.775	90.144	-167.063	0.0013896	0.00050419	0.00016064	1355.5	6.3693e-06	5.2815e-06	1348.8	365	7.3262e-06	6.4092e-06	414.57	139.12	120.85	41.316	5.4477e-06	51.198	0.00068218	0.00060782	0.00017268	1381.4	6.5955e-06	6.5097e-06	1376.6	372.59	6.6857e-06	6.7043e-06	425.28	142.19	123.95	42.681	6.9356e-06	52.953	-0.774	-110.449	-82.129	-164.849	-37.260	-29.647	-164.989	-160.168	-27.263	-39.328	-160.884	-156.499	-156.214	-151.333	-35.352	-152.208	-8191	255	
17978.438	1	1	0	0	0.18932	0.091941	0.30926	0.13655	0.041094	0.090269	0.21299	0.098992	0.16374	0.25197	0.16537	0.0082529	0.10889	0.041876	0.27256	0.15065	-2.5417	-2.7417	-2.8979	-3.1125	-2.8125	-2.8542	-3.1271	-2.7271	-2.7792	-2.9062	-2.95	-3.0187	-2.7667	-3.0333	-2.9354	-2.6417	32.402	-67.850	12.088	-177.524	179.581	55.272	112.308	138.425	-51.480	-163.368	-2.277	113.582	-26.688	60.335	56.686	47.572	0.0014107	0.00056466	0.00013222	1362	6.7554e-06	3.2671e-06	1356.3	366.15	1.007e-05	6.6342e-06	415.18	139.07	121.31	41.455	6.1235e-06	51.163	0.0007068	0.00060114	0.00017435	1382.4	6.5671e-06	6.5536e-06	1379.5	373.34	6.4212e-06	6.7128e-06	425.47	142.72	124.3	42.812	6.6893e-06	53.046	0.405	-88.626	-87.795	-164.952	-44.107	-20.536	-165.290	-160.198	-60.187	-30.694	-160.837	-156.613	-156.161	-151.165	-30.666	-152.019	-8191	255	
17978.535	1	1	0	0	0.16679	0.024442	0.21522	0.21132	0.038968	0.21102	0.36842	0.35961	0.30381	0.10044	0.21421	0.16343	0.19132	0.17544	0.12805	0.28325	-2.5229	-2.9271	-2.7208	-3.2521	-2.7021	-2.7313	-3.1729	-2.8146	-2.9646	-2.8104	-3.0208	-3.0833	-2.7938	-2.7208	-2.9583	-2.7917	12.017	71.008	-36.848	-167.122	-80.675	-59.625	106.605	121.777	-98.239	-153.744	151.691	60.184	-155.757	-153.010	43.477	-169.851	0.001275	0.00047296	8.1779e-05	1355.2	7.1128e-06	6.0732e-06	1352.2	366.89	1.0167e-05	5.7858e-06	415.82	139.21	121.48	41.485	5.0133e-06	51.544	0.00068108	0.00060405	0.00017377	1382.4	6.4261e-06	6.606e-06	1379.6	373.41	6.4467e-06	6.8493e-06	426.25	142.68	124.41	42.889	6.5574e-06	53.12	0.586	-124.116	-109.549	-164.782	-46.850	-7.052	-165.160	-160.414	-29.612	-23.482	-160.827	-156.411	-156.067	-151.191	-15.294	-152.240	-8191	255	
17978.652	1	1	0	0	0.17769	0.2515	0.14381	0.22042	0.096863	0.12952	0.2145	0.33546	0.083782	0.11858	0.39779	0.41672	0.10627	0.16059	0.33749	0.36139	-2.5771	-2.8604	-2.6167	-2.9875	-2.8167	-2.8458	-3.1458	-2.7771	-2.9833	-2.9542	-2.6792	-2.9979	-2.775	-2.7021	-3.0521	-2.7979	-54.905	34.391	-90.330	168.768	166.551	69.058	148.874	150.035	64.648	-37.795	121.499	161.523	1.420	169.312	-64.764	156.656	0.0013189	0.00060475	0.00013752	1355.4	5.8869e-06	5.0871e-06	1355.1	364.1	1.0724e-05	6.3407e-06	416.43	139.35	121.51	41.457	4.6473e-06	51.311	0.00068372	0.00062116	0.00017169	1381.6	6.5277e-06	6.8844e-06	1380.8	372.49	6.4632e-06	6.8742e-06	426.18	142.67	124.19	42.806	6.7398e-06	52.962	0.917	-97.922	-104.119	-164.896	-28.174	-45.199	-165.162	-160.219	-44.964	-56.498	-160.616	-156.592	-156.148	-150.927	-58.790	-152.057	-8191	255	
17978.750	1	1	0	0	0.077982	0.099277	0.095267	0.41271	0.19405	0.37841	0.18493	0.17957	0.15766	0.14032	0.4042	0.18135	0.16554	0.11505	0.18332	0.07951	-2.4167	-2.7208	-2.5604	-2.9396	-2.7229	-2.8271	-3.1292	-2.8229	-2.6437	-3.0958	-2.8083	-3.0354	-2.7458	-2.7771	-2.975	-2.8187	156.534	-12.808	-91.063	-168.913	-171.975	89.406	-69.583	117.467	-142.686	-121.896	153.861	113.060	175.182	-97.703	6.510	97.286	0.001304	0.00060106	0.0001496	1359.4	7.6943e-06	6.1472e-06	1357.2	364.09	1.4477e-05	3.0886e-06	415.88	139.72	121.1	41.407	5.8699e-06	51.191	0.00069538	0.00060446	0.00017279	1384.2	6.6734e-06	6.8961e-06	1381.5	372.12	6.6393e-06	6.814e-06	425.36	142.74	124.08	42.807	6.6888e-06	52.989	-1.097	-70.948	-102.634	-164.892	-34.531	-17.295	-165.349	-160.432	-42.802	-49.677	-160.865	-156.250	-156.254	-151.282	-52.014	-152.180	-8191	255	
17978.846	1	1	0	0	0.13418	0.040363	0.085802	0.11527	0.096211	0.0927	0.062252	0.29239	0.058914	0.22709	0.31969	0.056706	0.18259	0.28684	0.062108	0.20506	-2.3063	-2.975	-2.65	-3.2375	-2.7125	-2.7083	-3.1917	-2.9375	-2.7604	-3.0604	-2.9375	-2.9729	-2.9458	-2.6604	-3.0479	-2.8646	55.837	-75.103	-133.682	175.032	113.593	1.879	115.385	97.655	-176.938	-105.474	-154.888	95.200	-137.484	126.794	-40.467	-108.551	0.0013798	0.00032816	0.00012749	1353.9	6.4074e-06	6.027e-06	1349.6	364.86	1.333e-05	3.8299e-06	415.58	139.32	121.2	41.216	7.373e-06	51.046	0.00069151	0.00062613	0.00017002	1380	6.8623e-06	7.011e-06	1378.6	372.71	6.7857e-06	6.8728e-06	425.68	142.65	123.98	42.653	6.8851e-06	52.926	-1.124	-78.143	-94.132	-164.736	-50.324	-15.596	-165.228	-160.420	-39.827	-19.913	-160.858	-156.557	-156.169	-151.084	-19.833	-151.993	-8191	255	
17978.941	1	1	0	0	0.10735	0.12741	0.09247	0.28905	0.23368	0.27483	0.17477	0.37126	0.11647	0.2597	0.29571	0.015777	0.15386	0.29167	0.17754	0.2664	-2.3854	-3.0042	-2.5833	-3.0146	-2.7708	-2.6458	-3.175	-3.0312	-2.6146	-2.9125	-2.7479	-2.8417	-2.7938	-2.75	-2.9437	-3.0229	-170.201	-144.756	-167.786	-176.469	-54.055	-64.524	80.126	114.538	-173.314	168.691	139.296	10.432	-40.950	155.713	-52.616	-177.450	0.0013853	0.00052974	0.00014605	1358.4	5.4788e-06	6.4964e-06	1355.2	365.23	1.412e-05	4.9471e-06	416.81	139.25	121.2	41.387	6.9553e-06	50.994	0.00070385	0.00061358	0.00016923	1381.2	6.9745e-06	6.8956e-06	1381.2	372.31	6.8729e-06	6.7759e-06	425.64	142.46	123.79	42.738	6.6135e-06	52.893	-0.356	-88.793	-86.657	-164.801	-42.400	-26.944	-165.274	-160.316	-32.978	-36.295	-160.946	-156.559	-156.066	-151.191	-41.011	-152.248	-8191	255	
17979.037	1	1	0	0	0.28074	0.28913	0.17244	0.30906	0.30183	0.1574	0.18551	0.34295	0.067166	0.19241	0.02053	0.1639	0.020797	0.071182	0.17756	0.22482	-2.2333	-2.7833	-2.6875	-3.0021	-2.9167	-2.6729	-3.1167	-2.8375	-2.7313	-3.0042	-2.6458	-3.0229	-3.1896	-2.7917	-2.8708	-3.1125	27.481	-65.225	158.829	-177.476	-161.534	34.485	65.835	98.313	-46.582	-105.922	130.834	79.493	50.258	40.057	32.940	92.379	0.0013485	0.00034903	0.00018182	1355.8	4.3869e-06	5.8489e-06	1350.1	364.95	1.1725e-05	6.46e-06	416.51	138.58	121.34	41.463	7.6632e-06	51.11	0.00069948	0.00060769	0.00017049	1379.6	6.8729e-06	6.6447e-06	1377.3	372.44	6.7717e-06	6.8563e-06	425.81	142.53	123.94	42.763	6.7898e-06	52.885	-0.725	-96.645	-87.051	-164.636	-72.896	4.607	-165.233	-160.353	-26.870	-42.235	-160.796	-156.573	-155.968	-151.260	-32.682	-152.429	-8191	255	
17979.135	1	1	0	0	0.13365	0.38548	0.11409	0.20973	0.073302	0.26422	0.21304	0.18932	0.092838	0.05769	0.21719	0.093617	0.19968	0.060643	0.17437	0.32554	-2.3917	-2.9708	-2.7417	-2.8708	-2.9229	-2.6292	-3.0938	-2.9813	-2.8646	-3.0354	-3.0979	-3.0167	-3.0417	-2.8125	-2.9896	-3.1167	-90.356	-120.046	-102.442	128.426	16.742	-27.898	127.910	136.475	-6.142	-54.634	-120.375	-42.512	-162.989	-110.942	13.866	142.005	0.0013192	0.00052317	0.00013409	1354.4	6.7166e-06	4.7766e-06	1352	362.67	1.4423e-05	6.6712e-06	415.51	138.28	120.98	41.063	8.2162e-06	50.986	0.00070732	0.0006142	0.00017434	1379.4	6.817e-06	6.8036e-06	1378.2	371.06	7.0622e-06	6.9942e-06	424.61	141.88	123.69	42.52	7.2164e-06	52.641	0.107	-79.107	-85.472	-164.814	-44.213	-36.189	-165.279	-160.314	-43.499	-17.071	-160.571	-156.421	-156.202	-151.411	-33.888	-152.140	-8191	255	
17979.256	1	1	0	0	0.25671	0.20469	0.088263	0.23711	0.15542	0.42343	0.19983	0.096414	0.039964	0.081428	0.14159	0.29472	0.21533	0.18783	0.28219	0.11514	-2.2	-3.0917	-2.8292	-2.7708	-2.9979	-2.7667	-3.1021	-3.025	-2.6063	-3.0083	-2.9938	-2.8375	-3.2313	-2.6125	-2.8688	-3.1292	-36.030	-28.308	98.550	139.193	-137.772	70.016	124.448	-53.010	-62.381	-127.429	32.368	139.040	170.595	-39.247	-167.074	-70.929	0.0014196	0.00043169	0.00010761	1352.1	4.5658e-06	5.0937e-06	1352.5	363.11	1.129e-05	4.0263e-06	413.81	138.65	120.36	41.19	7.7478e-06	50.982	0.00073581	0.00063542	0.00018458	1377.7	7.1783e-06	7.4034e-06	1376.5	371.24	7.2049e-06	7.1895e-06	423.55	141.7	123.16	42.536	6.9609e-06	52.727	-1.862	-82.748	-86.847	-165.047	-57.685	-35.849	-165.205	-160.297	-60.593	-23.281	-160.894	-156.662	-156.101	-151.164	-40.241	-152.241	-8191	255	
17979.350	1	1	0	0	0.06333	0.091465	0.13383	0.17338	0.10587	0.12835	0.15963	0.23052	0.082417	0.26321	0.36087	0.20891	0.34411	0.47302	0.14889	0.2326	-2.3208	-2.9708	-2.8604	-2.8646	-2.9896	-2.8417	-3.1583	-3.0917	-2.6708	-2.9229	-2.8354	-2.675	-3.0792	-2.8167	-2.9583	-3.125	145.420	-93.238	137.270	-171.569	118.876	-1.914	142.997	167.610	103.145	-145.195	160.017	115.461	102.573	125.286	61.846	-163.588	0.0013753	0.00047448	9.7559e-05	1350.7	7.3157e-06	6.1322e-06	1343	364.18	1.2505e-05	5.1107e-06	413.49	139.01	120.73	41.245	7.0308e-06	51.261	0.00072522	0.00064213	0.00018053	1377.5	6.8555e-06	7.0647e-06	1374.2	371.87	7.0906e-06	7.1434e-06	423.74	142.23	123.44	42.593	7.1145e-06	52.866	-0.193	-101.076	-95.454	-164.791	-41.488	-25.732	-165.167	-160.308	-53.777	-15.366	-160.972	-156.527	-156.226	-151.069	-21.383	-152.144	-8191	255	
17979.445	1	1	0	0	0.23264	0.029295	0.06923	0.21441	0.24798	0.10186	0.21191	0.23154	0.089079	0.08353	0.26692	0.35192	0.15705	0.31641	0.1487	0.18069	-2.2438	-2.9333	-2.7833	-2.9104	-2.9313	-2.7687	-3.0312	-3.2188	-2.6583	-2.9062	-2.8667	-2.7938	-3.0042	-2.725	-2.8979	-3.0687	63.712	70.616	33.129	171.281	-5.042	-31.992	125.076	181.515	57.638	27.428	116.069	162.840	149.025	-159.897	70.867	125.047	0.0014462	0.00051225	0.00011131	1350.5	5.4499e-06	5.2124e-06	1347.9	364.19	1.0854e-05	3.1207e-06	414.83	139.16	121.49	41.232	5.9326e-06	50.851	0.00072533	0.00064234	0.00017993	1378.1	6.9597e-06	7.1558e-06	1377.8	372.1	6.7215e-06	6.9773e-06	424.4	142.13	123.71	42.641	7.0819e-06	52.804	1.674	-72.098	-102.061	-164.778	-37.847	-16.028	-165.267	-160.296	-44.319	-29.227	-160.778	-156.486	-156.006	-151.400	-12.747	-152.276	-8191	255	
17979.541	1	1	0	0	0.28902	0.21823	0.25209	0.43635	0.14858	0.036875	0.14227	0.41101	0.10374	0.22009	0.17316	0.21147	0.22563	0.18347	0.22685	0.30193	-2.1354	-2.9062	-3.0271	-2.7562	-3.05	-2.7021	-3.0604	-3.15	-2.6604	-2.9854	-3.0167	-2.7479	-3.0458	-2.9229	-2.8771	-2.9583	145.816	-167.178	90.405	94.312	160.361	152.319	137.060	172.542	13.917	-82.527	-161.452	102.573	162.579	159.979	-143.954	139.993	0.0013416	0.00074872	0.00012455	1355.5	7.1514e-06	4.8394e-06	1350.2	364.54	1.1956e-05	5.3762e-06	415.53	138.65	121.19	41.433	5.7265e-06	51.478	0.00069992	0.00063401	0.00018053	1380.3	6.6446e-06	7.0017e-06	1378.6	372.63	6.8692e-06	6.8417e-06	425.12	142.2	123.77	42.754	7.0048e-06	52.972	0.350	-90.802	-83.673	-164.781	-52.847	-26.623	-165.268	-160.582	-48.344	-23.017	-160.910	-156.837	-156.011	-151.139	-40.479	-152.044	-8191	255	
17979.639	1	1	0	0	0.24135	0.022795	0.20804	0.14571	0.078712	0.17084	0.26256	0.31813	0.064532	0.059503	0.22929	0.061026	0.12667	0.1115	0.066356	0.11669	-2.2896	-2.7667	-2.9167	-2.9083	-3.1625	-2.9396	-2.8458	-3.2562	-2.7125	-2.8667	-3.1083	-2.6917	-3.0687	-2.8771	-2.6833	-3.0167	17.351	60.909	111.824	113.579	-164.737	-109.678	74.148	117.060	17.227	82.284	153.607	-30.515	136.196	-168.332	-60.235	112.264	0.0014102	0.00066761	0.00013373	1354.8	7.1424e-06	3.2883e-06	1354.3	363.97	1.4522e-05	3.6418e-06	413.66	139.08	121.52	41.501	3.2995e-06	50.871	0.00068801	0.00062157	0.00017282	1380.6	6.5531e-06	6.812e-06	1379.2	372.23	6.789e-06	6.8907e-06	424.75	142.58	124.08	42.781	6.9848e-06	52.86	-1.239	-88.287	-70.356	-164.810	-34.080	-17.484	-165.180	-160.314	-32.151	-28.472	-160.897	-156.587	-156.083	-151.218	-38.213	-152.255	-8191	255	
17979.734	1	1	0	0	0.20175	0.11729	0.20501	0.39015	0.26287	0.071248	0.20149	0.30059	0.061897	0.18959	0.161	0.10032	0.089169	0.2626	0.1508	0.11863	-2.3063	-2.9521	-2.9292	-3.0312	-3.0417	-2.9833	-2.9104	-3.2042	-2.6896	-2.8125	-3.0958	-2.8833	-2.9667	-2.9792	-2.5792	-3.0896	126.627	-49.280	98.960	136.899	52.258	70.997	127.440	175.493	148.410	7.132	164.834	-152.029	83.489	128.256	149.188	13.470	0.001394	0.00064426	0.00013215	1358.5	6.0591e-06	4.2233e-06	1351.5	362.85	1.2812e-05	5.5374e-06	414.52	138.46	121.22	41.421	6.8628e-06	51.02	0.00069593	0.0006423	0.00017459	1382.2	6.8208e-06	7.0825e-06	1375.9	372.19	6.9815e-06	7.1185e-06	424.73	141.89	123.85	42.712	6.9596e-06	52.829	1.821	-95.364	-79.020	-164.913	-34.826	-15.209	-165.165	-160.251	-42.844	-47.776	-160.867	-156.685	-156.500	-151.388	-42.724	-152.232	-8191	255	
17979.830	1	1	0	0	0.15722	0.11852	0.049952	0.13471	0.044461	0.027012	0.32862	0.23239	0.069117	0.15234	0.19156	0.080878	0.31141	0.07223	0.056532	0.11989	-2.3104	-2.55	-3.0667	-3.0771	-2.7313	-3.0312	-2.9542	-3.0312	-2.8625	-2.775	-3.1208	-2.7479	-2.8333	-3.0312	-2.7333	-3.1083	35.695	164.389	134.559	-172.119	-91.943	-66.414	94.029	134.813	-147.223	-82.948	119.186	43.766	85.248	-70.373	174.894	161.051	0.001433	0.00039251	0.00014272	1356.4	4.969e-06	5.6817e-06	1349.2	364.49	1.0076e-05	4.8121e-06	413.71	138.56	120.96	41.295	6.434e-06	51.133	0.00071675	0.00064159	0.0001775	1379.3	6.8153e-06	7.3044e-06	1377.3	372.2	6.8853e-06	7.1928e-06	424.03	141.77	123.7	42.58	6.8368e-06	52.791	-0.201	-92.374	-71.198	-164.834	-38.909	-9.834	-165.215	-160.410	-33.005	-31.833	-160.745	-156.615	-156.061	-151.225	-32.708	-152.139	-8191	255	
17979.926	1	1	0	0	0.26127	0.087698	0.24624	0.12695	0.19627	0.2195	0.32427	0.10005	0.24488	0.17237	0.29469	0.036093	0.11715	0.20816	0.16858	0.2809	-2.3812	-2.7062	-2.8875	-2.8896	-2.8833	-3.1208	-3.05	-3.1437	-2.9333	-2.8792	-3.0687	-2.8521	-2.9646	-3.2604	-2.8208	-2.9562	78.363	21.884	67.789	-177.106	31.886	162.267	95.708	-27.793	23.577	131.661	174.969	-97.742	164.878	-149.471	-84.302	76.271	0.0014185	0.00055385	0.00013987	1346.8	6.2195e-06	4.9689e-06	1348.6	362.88	1.2566e-05	6.1405e-06	411.81	138.46	120.89	41.292	6.3977e-06	50.962	0.00070295	0.00065804	0.00017254	1373.6	6.8814e-06	6.9979e-06	1375.1	370.88	6.9322e-06	7.0992e-06	423.4	142.1	123.77	42.587	6.9826e-06	52.737	-0.350	-79.116	-80.574	-164.969	-53.002	-48.365	-165.244	-160.471	-36.492	-26.332	-161.045	-156.503	-156.092	-151.252	-44.592	-152.029	-8191	255	
17980.021	1	1	0	0	0.05986	0.26229	0.29437	0.33206	0.093866	0.10057	0.19783	0.094469	0.27661	0.13558	0.072252	0.15049	0.23405	0.17381	0.021681	0.28041	-2.4479	-2.6167	-2.8375	-3.0542	-2.7646	-3.0438	-2.8063	-3.0646	-2.9208	-2.6458	-3.2979	-2.8375	-2.7104	-3.1208	-2.8521	-3.1042	-139.233	-32.932	-150.269	123.061	118.136	15.984	131.350	139.354	-55.309	-50.668	-27.217	53.928	119.937	-175.396	178.703	151.937	0.0012962	0.00076409	0.00015089	1349.1	7.0156e-06	2.8727e-06	1350.4	363.3	1.2442e-05	8.0696e-06	414.26	138.97	120.96	41.16	5.1946e-06	51.33	0.00070498	0.0006379	0.00017357	1376.3	7.0707e-06	6.7924e-06	1374.5	371.15	6.854e-06	7.1622e-06	423.54	142.15	123.61	42.515	6.775e-06	52.867	-2.374	-97.073	-92.208	-164.808	-55.770	-19.380	-165.051	-160.412	-38.967	-14.380	-160.808	-156.670	-155.988	-151.214	-27.369	-152.095	-8191	255	
17980.143	1	1	0	0	0.13881	0.29004	0.11869	0.14517	0.19426	0.13977	0.20696	0.15209	0.1465	0.21574	0.21531	0.12305	0.19971	0.19369	0.34998	0.15382	-2.4813	-2.5312	-2.8625	-2.8417	-2.7042	-3.0396	-2.9521	-3.1292	-2.8708	-2.6063	-2.9875	-2.7938	-2.85	-3.0104	-2.6396	-3.1375	167.533	122.687	16.551	102.404	34.265	-80.199	157.523	96.524	-172.069	145.362	105.453	180.462	-85.694	-114.460	5.866	-135.527	0.0013651	0.00039782	0.00014126	1348.3	6.7847e-06	5.5117e-06	1344.3	364.12	1.3755e-05	7.243e-06	413.73	139.01	120.49	41.433	8.1946e-06	51.15	0.00071227	0.000636	0.00017275	1376.7	7.1016e-06	6.9101e-06	1372.6	371.94	6.8001e-06	6.9787e-06	424.43	142.24	123.44	42.617	6.8547e-06	52.926	-3.199	-70.052	-68.827	-164.783	-53.067	-31.608	-165.417	-160.136	-35.890	-33.234	-161.015	-156.517	-156.111	-151.166	-43.258	-152.052	-8191	255	
17980.215	1	1	0	0	0.26885	0.12945	0.16335	0.2812	0.17454	0.1795	0.24695	0.16599	0.25868	0.16465	0.39057	0.15312	0.13847	0.17441	0.28568	0.12685	-2.4083	-2.5938	-2.8729	-3.0083	-2.6521	-3.0479	-2.8792	-3.0354	-3.0917	-2.8563	-3.1083	-2.9604	-2.6562	-3.2208	-2.6813	-2.9917	-124.568	41.558	-178.083	125.169	24.796	166.170	59.608	81.926	-110.022	-135.761	61.517	150.972	134.823	124.317	158.571	111.079	0.0013534	0.00058954	0.00016155	1353.8	7.5155e-06	4.9563e-06	1351.7	364.25	1.2311e-05	5.2864e-06	416.33	138.37	121.79	41.272	8.392e-06	51.045	0.00069087	0.00060947	0.00017417	1379	6.8864e-06	6.7765e-06	1374.7	372.32	6.8322e-06	6.8003e-06	425.15	142.06	123.99	42.757	6.8586e-06	52.932	1.007	-87.523	-82.547	-164.876	-39.108	-8.179	-165.323	-160.276	-38.045	-34.903	-160.950	-156.798	-156.039	-151.079	-57.111	-152.423	-8191	255	
17980.336	1	1	0	0	0.050593	0.22364	0.15273	0.26844	0.25889	0.1896	0.060956	0.22996	0.13803	0.17434	0.13396	0.14111	0.069761	0.093013	0.099279	0.24128	-2.6479	-2.8875	-2.8896	-3.175	-2.5521	-3.0021	-3.025	-3.075	-3.0083	-2.7438	-2.8479	-2.9562	-2.6583	-3.0125	-2.8479	-2.8521	-136.513	140.943	80.444	176.246	109.926	87.096	121.423	19.427	58.450	149.776	158.347	109.492	1.623	20.472	154.839	119.720	0.0013691	0.00062611	0.00017655	1352.7	5.7847e-06	4.4321e-06	1352	364.16	1.0923e-05	4.5869e-06	416	139.32	121.25	41.342	8.5794e-06	51.186	0.0006983	0.00060284	0.00017333	1378.4	6.9847e-06	6.7428e-06	1377.8	372.1	6.7824e-06	6.9406e-06	425.06	142.5	123.87	42.699	6.7968e-06	52.904	1.778	-101.474	-82.838	-164.856	-38.239	-21.432	-165.158	-160.130	-38.528	-33.736	-160.736	-156.682	-155.954	-151.130	-33.132	-152.422	-8191	255	
17980.430	1	1	0	0	0.1597	0.21211	0.24786	0.29658	0.029589	0.078793	0.42759	0.52487	0.078264	0.27276	0.03564	0.28443	0.26736	0.16843	0.26304	0.23471	-2.5917	-2.5771	-2.9437	-3.0354	-2.7479	-3.075	-2.9958	-3.0521	-3.1354	-2.8479	-3.0687	-2.9833	-2.7042	-3.0708	-2.8146	-2.6792	22.942	-19.446	-72.690	108.170	48.016	44.877	102.806	131.288	-67.739	-77.804	81.802	101.198	-152.715	153.640	-3.605	107.379	0.0013275	0.00056908	0.00014881	1352.6	5.641e-06	5.6562e-06	1351.3	362.88	8.945e-06	4.1767e-06	415.83	139.29	120.84	41.294	4.6737e-06	50.992	0.00067567	0.00062439	0.00017651	1377.4	6.5383e-06	6.7952e-06	1376.8	372.02	6.6594e-06	7.0794e-06	424.74	142.25	123.83	42.64	6.7197e-06	52.738	-1.024	-88.351	-78.350	-164.874	-64.120	-38.954	-165.071	-160.358	-32.540	-46.599	-160.695	-156.404	-156.179	-151.069	-16.065	-152.304	-8191	255	
17980.525	1	1	0	0	0.12272	0.053222	0.16004	0.10037	0.065483	0.20325	0.20269	0.155	0.23709	0.096771	0.17712	0.18552	0.067441	0.079852	0.13757	0.30743	-2.5375	-2.6604	-2.625	-3.125	-2.675	-3.0021	-3.2167	-2.7938	-2.9479	-2.9604	-2.9333	-3.0854	-2.8187	-3.0854	-2.9	-2.725	83.539	152.096	128.099	140.403	-136.934	-143.901	150.708	122.126	-56.035	-119.327	77.503	114.207	150.468	147.363	-51.395	155.027	0.0014213	0.00044915	0.0001569	1349.9	6.1154e-06	3.8904e-06	1351	363.88	1.087e-05	2.4074e-06	413.57	139.43	120.76	41.38	7.2363e-06	51.053	0.00070102	0.00062477	0.00017722	1377.2	6.7746e-06	6.6915e-06	1375	372.14	6.7137e-06	6.7994e-06	424.66	142.39	123.68	42.65	7.0888e-06	52.824	0.375	-116.859	-74.751	-164.873	-50.744	-29.969	-165.078	-160.408	-32.417	-41.613	-160.970	-156.598	-156.041	-151.148	-14.770	-152.019	-8191	255	
17980.621	1	1	0	0	0.13659	0.089335	0.26444	0.32025	0.028205	0.23353	0.2219	0.33474	0.17972	0.18101	0.24454	0.052455	0.054311	0.040026	0.19913	0.18457	-2.6813	-2.6375	-2.8208	-3.1063	-2.9896	-3.2417	-2.9479	-2.9354	-3.1104	-2.8417	-2.8833	-2.9833	-2.6771	-3.1042	-2.9917	-2.7646	8.017	-168.259	-62.613	141.336	143.988	-99.190	107.207	99.090	56.850	-94.688	180.898	160.276	-110.945	180.640	-80.279	70.256	0.0013822	0.00069343	0.00014689	1351.6	6.2563e-06	7.0523e-06	1350.9	364.38	1.3291e-05	3.7654e-06	414.96	139.52	121.08	41.339	8.1969e-06	51.193	0.00069442	0.00062601	0.00017644	1377.7	6.7564e-06	7.0115e-06	1375	371.75	6.6586e-06	7.0728e-06	424.27	142.21	123.52	42.622	6.9213e-06	52.931	0.232	-73.950	-94.003	-164.800	-62.073	-9.634	-165.241	-160.461	-46.242	-51.292	-160.748	-156.507	-156.026	-151.096	-49.695	-151.914	-8191	255	
17980.742	1	1	0	0	0.13168	0.20497	0.24852	0.23689	0.22932	0.18929	0.18758	0.2925	0.23864	0.18194	0.048083	0.080451	0.071601	0.095805	0.052153	0.31485	-2.5667	-2.8063	-2.8208	-3.0896	-2.7354	-2.9771	-3.1854	-2.7125	-3.0938	-2.975	-2.8979	-3.2583	-2.9646	-3.1063	-2.8417	-2.8083	-102.284	40.926	-141.910	125.239	-46.535	52.879	102.009	121.301	73.992	10.890	1.604	122.905	161.277	124.197	-56.133	-162.805	0.0013232	0.00058699	0.00017483	1348.7	5.769e-06	4.7274e-06	1347.7	363.57	1.0802e-05	7.1522e-06	414.71	138.77	120.54	41.396	6.6173e-06	50.957	0.00069442	0.00064748	0.00017402	1376.3	6.8034e-06	7.0003e-06	1373.5	370.93	6.8404e-06	7.2163e-06	424.32	141.68	123.51	42.633	6.7432e-06	52.903	-1.432	-104.715	-71.425	-164.777	-35.382	-32.443	-165.164	-160.340	-28.897	-27.449	-160.884	-156.679	-156.481	-151.058	-27.937	-152.207	-8191	255	
17980.840	1	1	0	0	0.043795	0.15978	0.11649	0.34635	0.067187	0.066582	0.31876	0.42937	0.21475	0.063608	0.37072	0.26168	0.18807	0.032078	0.065149	0.05655	-2.3937	-2.8125	-2.6771	-3.2188	-2.7229	-2.8937	-3.3333	-2.8125	-2.9208	-3.0271	-2.7854	-3.1333	-2.8979	-2.9188	-2.9792	-2.8792	154.824	129.337	-153.983	-166.005	-35.935	136.205	93.894	145.022	-16.235	36.260	143.705	-136.452	-175.618	60.438	-7.246	80.347	0.0013659	0.00064646	0.00011707	1350.3	7.9725e-06	3.8553e-06	1343.1	364.53	1.1414e-05	5.3718e-06	413.86	138.31	120.3	41.389	6.7525e-06	50.972	0.00070622	0.0006316	0.00017478	1375.6	6.6374e-06	7.025e-06	1372.4	371.62	6.8182e-06	6.805e-06	424.03	141.89	123.37	42.647	6.5408e-06	52.867	1.355	-85.593	-65.347	-164.726	-28.398	-25.958	-165.200	-160.115	-20.274	-10.080	-160.836	-156.711	-156.104	-151.308	-29.699	-152.534	-8191	255	
17980.910	1	1	0	0	0.063173	0.1626	0.25098	0.46393	0.12533	0.10108	0.072921	0.3029	0.13611	0.079381	0.33413	0.18839	0.1136	0.20889	0.07911	0.071612	-2.5125	-2.8375	-2.6375	-3.2271	-2.8646	-2.7729	-3.3292	-2.9854	-2.8104	-2.8937	-2.775	-2.9417	-3.0896	-2.7521	-3.0312	-2.6958	40.609	-78.239	-163.682	136.137	138.064	-92.712	79.464	127.730	-156.830	140.298	122.038	148.077	113.033	-177.980	-61.570	97.837	0.0013016	0.00045257	9.1093e-05	1350.4	3.5954e-06	6.3653e-06	1345.6	363.46	1.2146e-05	4.0207e-06	413.85	138.97	121.34	41.371	5.8305e-06	51.01	0.00068856	0.00061623	0.00017225	1375.3	6.5768e-06	6.9218e-06	1374.3	371.96	6.7051e-06	6.6478e-06	423.4	142.23	123.92	42.79	6.6418e-06	52.856	1.310	-100.589	-104.843	-164.813	-43.943	-11.851	-165.098	-160.449	-38.950	-35.168	-160.664	-156.738	-155.815	-151.162	-43.809	-152.415	-8191	255	
17981.031	1	1	0	0	0.22366	0.054108	0.12826	0.30254	0.059416	0.12982	0.32648	0.10825	0.088417	0.16978	0.26897	0.51567	0.10229	0.070376	0.10791	0.14687	-2.4792	-3.025	-2.7562	-3.2333	-2.9917	-2.95	-3.1833	-2.9875	-2.9813	-2.9375	-3.0646	-2.9625	-2.95	-2.8625	-3.0521	-2.9083	76.850	99.369	-105.336	94.232	53.230	142.170	165.831	178.126	-171.436	39.202	-167.831	116.973	-103.260	152.995	69.747	138.066	0.0013966	0.00061503	0.00014452	1349.7	6.7117e-06	2.925e-06	1348	363.89	1.4151e-05	7.1252e-06	413.71	139.41	121.23	41.516	6.3288e-06	51.097	0.00069959	0.0006079	0.00016398	1374.1	6.4904e-06	6.5476e-06	1373.6	371.43	6.6117e-06	6.3504e-06	424.31	142.25	123.94	42.77	6.4433e-06	52.887	0.670	-93.738	-92.959	-164.922	-37.444	-47.106	-165.068	-160.440	-37.391	-37.813	-160.868	-156.705	-155.878	-151.259	-42.130	-152.307	-8191	255	
17981.127	1	1	0	0	0.18064	0.17668	0.15653	0.19578	0.17144	0.12838	0.32346	0.277	0.064782	0.025856	0.30364	0.18548	0.17119	0.23306	0.033647	0.19985	-2.2542	-2.9396	-2.6396	-3.0938	-2.9604	-2.7458	-3.0812	-2.8688	-2.5917	-3.0208	-2.8229	-2.9688	-3.0563	-2.7896	-2.8875	-2.8438	139.467	-44.307	165.322	143.035	74.160	41.468	56.697	104.339	14.195	-33.450	102.308	-172.012	177.842	133.789	73.307	169.304	0.0013158	0.00042398	0.00010809	1347	6.5298e-06	4.7468e-06	1348.1	363.12	1.1273e-05	4.4175e-06	413.62	139.3	121.39	41.438	5.0609e-06	51.053	0.00069566	0.00057943	0.00015993	1374.7	6.4604e-06	6.5373e-06	1371.5	371.17	6.4574e-06	6.2365e-06	423.86	142.32	123.74	42.748	6.2718e-06	52.862	-1.009	-79.873	-79.259	-164.786	-32.477	-29.346	-165.145	-160.318	-37.476	-30.779	-160.911	-156.650	-155.930	-151.384	-21.508	-152.038	-8191	255	
17981.223	1	1	0	0	0.11865	0.28071	0.18462	0.23345	0.27331	0.22155	0.35401	0.070201	0.35442	0.07645	0.11699	0.26305	0.20239	0.23204	0.010578	0.32749	-2.2708	-3.025	-2.6771	-3.025	-2.7417	-2.7729	-3.3063	-2.7354	-2.8	-3.0167	-2.7938	-2.9458	-2.8729	-2.8583	-2.8771	-3.0646	11.891	61.783	-118.180	166.019	-72.525	-84.927	131.405	60.898	-43.723	152.395	21.749	-176.584	136.182	166.397	-90.419	168.131	0.001355	0.0003695	0.00014912	1352.4	6.0073e-06	5.147e-06	1344.9	362.23	1.2338e-05	4.051e-06	415.18	139.14	120.84	41.45	5.5212e-06	51.134	0.00068097	0.00058241	0.0001627	1376	6.6094e-06	6.2775e-06	1372.1	371.29	6.5212e-06	6.3683e-06	424.18	142.43	123.74	42.728	6.1769e-06	52.99	-1.400	-96.380	-77.614	-164.680	-50.129	-23.179	-165.429	-160.229	-45.370	-45.562	-160.676	-156.560	-156.153	-151.318	-22.350	-152.542	-8191	255	
17981.318	1	1	0	0	0.14522	0.075702	0.10772	0.25517	0.046342	0.24858	0.35982	0.27692	0.084592	0.1659	0.11222	0.28756	0.072514	0.34629	0.32972	0.086611	-2.5792	-2.9646	-2.5625	-3.0812	-3.0792	-2.725	-3.0583	-2.8667	-2.825	-2.8438	-2.8458	-3.0333	-3.1854	-2.9604	-2.8042	-3.1208	115.274	168.605	78.103	148.462	131.766	128.672	90.954	152.333	173.915	-66.672	164.794	143.772	92.230	157.694	-93.741	-156.321	0.0014006	0.00046002	0.00011753	1348.6	5.738e-06	5.6218e-06	1344.2	362.76	1.1568e-05	5.1862e-06	415.75	138.92	121.49	41.548	5.3493e-06	51.259	0.00066786	0.00056128	0.0001635	1373.5	6.407e-06	6.0687e-06	1372.3	371.61	6.4607e-06	6.1349e-06	425.31	142.53	124.02	42.819	6.1983e-06	53.021	0.785	-69.781	-87.618	-164.747	-45.078	-38.890	-165.066	-160.191	-41.692	-37.886	-160.725	-156.784	-156.024	-151.182	-38.510	-152.352	-8191	255	
17981.438	1	1	0	0	0.23404	0.11202	0.1458	0.25395	0.16599	0.17858	0.38762	0.28636	0.26111	0.3082	0.32297	0.15289	0.23499	0.22655	0.11793	0.32381	-2.2	-3.0104	-2.7542	-3.0146	-2.9729	-2.6646	-3.0708	-2.9521	-2.6167	-3.1562	-2.8354	-2.6437	-3.1875	-2.7417	-2.9146	-3.0062	-102.317	-22.160	48.907	139.717	-177.898	130.856	103.721	121.335	82.370	-47.554	-177.114	-128.709	119.488	174.866	-138.392	139.691	0.0013828	0.00057424	0.00016976	1342.5	5.9979e-06	4.4344e-06	1346	362.76	1.2427e-05	3.2171e-06	414.45	139.39	121.03	41.477	6.8665e-06	51.487	0.00065884	0.00054466	0.00015937	1371.5	6.2571e-06	6.0762e-06	1372	371.55	6.3509e-06	6.1396e-06	425.2	142.65	123.97	42.776	6.1991e-06	53.101	-1.145	-104.442	-90.280	-164.845	-23.533	-23.775	-165.010	-160.288	-27.961	-11.728	-160.816	-156.674	-156.096	-151.164	-23.932	-152.186	-8191	255	
17981.510	1	1	0	0	0.10825	0.054499	0.079863	0.45047	0.19625	0.10157	0.45057	0.19846	0.029423	0.2536	0.36397	0.31101	0.18575	0.1574	0.013042	0.21088	-2.1937	-2.8354	-2.8729	-2.9396	-3.0333	-2.675	-3.225	-3.0438	-2.6667	-2.9042	-3.0062	-2.9542	-3.0687	-2.8354	-2.8375	-3.1042	-106.238	-133.533	-162.975	153.194	-142.353	-157.690	115.344	179.967	130.424	-114.871	-154.174	120.468	157.699	100.755	-176.704	-52.809	0.0014062	0.00053267	8.011e-05	1353.6	5.1707e-06	5.2028e-06	1350.9	364.7	1.1671e-05	7.0014e-06	417.5	140.2	121.84	41.67	5.176e-06	51.159	0.00065369	0.00053654	0.00016131	1374.9	5.9644e-06	6.029e-06	1375.1	372.64	5.939e-06	6.0892e-06	425.73	143.12	124.45	42.978	5.9859e-06	53.096	0.145	-96.038	-76.464	-164.640	-63.825	-30.968	-164.987	-160.337	-35.369	-21.322	-161.084	-156.467	-156.224	-150.910	-28.691	-152.265	-8191	255	
17981.605	1	1	0	0	0.12235	0.03565	0.32274	0.083898	0.25533	0.10798	0.41272	0.43928	0.085558	0.069175	0.13773	0.22851	0.18298	0.13553	0.20464	0.064315	-2.5271	-2.8771	-2.8604	-2.8854	-3.0833	-2.6542	-2.9771	-3.1063	-2.6125	-2.7833	-2.9458	-2.8625	-2.9229	-2.7125	-2.6708	-3.0354	-145.407	19.017	133.237	115.041	-6.584	20.851	106.087	94.242	95.756	93.780	100.944	57.661	167.948	83.993	147.793	167.494	0.0013839	0.00052163	0.00016296	1352.6	5.3458e-06	5.1363e-06	1352.9	365.27	1.3373e-05	4.559e-06	415.91	140.05	121.66	41.538	5.2943e-06	51.534	0.00066601	0.00054246	0.00015199	1376.5	6.0148e-06	6.0379e-06	1376.2	373.28	5.8946e-06	6.0041e-06	425.8	142.98	124.46	42.909	6.2962e-06	53.199	0.158	-90.322	-98.697	-165.049	-57.536	-33.560	-165.213	-160.523	-41.665	-27.325	-160.857	-156.481	-156.102	-151.276	-26.721	-152.197	-8191	255	
17981.701	1	1	0	0	0.09308	0.20569	0.073158	0.29455	0.08633	0.044477	0.24935	0.1885	0.2193	0.20264	0.15808	0.20227	0.25612	0.11858	0.1945	0.14309	-2.2521	-2.9708	-2.9313	-2.7375	-2.9604	-2.9021	-3.0542	-3.2979	-2.6458	-2.925	-3.0187	-2.9437	-3.0229	-2.8563	-2.7542	-3.1375	-27.684	109.669	-43.797	162.098	26.789	-74.268	110.298	118.260	-106.373	-144.872	139.733	139.389	-116.091	155.377	-143.862	75.519	0.0013501	0.00047509	0.00011577	1346	5.524e-06	6.4515e-06	1340.1	365.11	1.1606e-05	4.4617e-06	417.01	139.24	121.02	41.381	7.1203e-06	51.136	0.00066057	0.00055921	0.00015921	1374.2	6.0893e-06	6.1271e-06	1370.4	372.32	6.174e-06	6.1754e-06	425.75	142.48	123.99	42.772	6.2283e-06	52.921	-0.902	-111.379	-88.623	-164.829	-40.983	-18.398	-165.115	-160.386	-56.927	-28.867	-160.474	-156.751	-156.098	-151.325	-53.203	-152.333	-8191	255	
17981.822	1	1	0	0	0.28804	0.29208	0.2037	0.20285	0.1064	0.02463	0.22011	0.16667	0.33746	0.2025	0.37716	0.069139	0.038858	0.039914	0.071581	0.24638	-2.3563	-2.9333	-2.9479	-2.9271	-2.9813	-2.9917	-2.9167	-3.2125	-2.8521	-2.8417	-3.1063	-2.8854	-3.0354	-3.1125	-2.7417	-3.1292	-74.249	-18.459	127.084	-134.592	-166.282	132.568	117.990	-158.046	50.732	-170.882	135.326	110.265	-169.573	161.927	-9.087	57.961	0.0013557	0.0005204	0.00014823	1346.1	6.3392e-06	2.4737e-06	1344.6	362.09	1.241e-05	5.2059e-06	413.83	138.37	120.81	41.232	5.6229e-06	50.869	0.0006571	0.00054967	0.00015443	1371.7	6.0948e-06	6.5705e-06	1370.3	370.81	6.2422e-06	6.2925e-06	424.38	142.3	123.55	42.665	6.2627e-06	52.816	1.532	-88.191	-86.310	-164.760	-52.527	14.834	-165.254	-160.355	-32.741	-32.118	-160.724	-156.700	-156.037	-151.393	-11.178	-152.145	-8191	255	
17981.920	1	1	0	0	0.23606	0.14989	0.16064	0.2341	0.07781	0.059197	0.30021	0.046326	0.15126	0.33376	0.2403	0.13742	0.42406	0.17544	0.37734	0.14462	-2.3896	-2.8146	-2.9	-2.7208	-2.9667	-2.9542	-2.8875	-3.2396	-2.85	-2.8042	-3.2208	-2.7271	-3.1437	-3.0625	-2.7146	-3.15	16.388	-51.443	-111.678	-157.539	128.550	-146.077	84.683	58.565	42.471	149.459	13.041	-99.888	165.159	163.805	141.193	60.180	0.0013936	0.00054497	0.00017002	1339.7	4.2043e-06	4.997e-06	1339.2	360.78	1.1313e-05	5.9148e-06	412.96	137.69	119.8	40.837	5.7899e-06	50.475	0.00066409	0.00057893	0.00015166	1365.3	6.3413e-06	6.3158e-06	1362.2	368.7	6.6804e-06	6.6836e-06	421.65	140.78	122.53	42.241	6.6118e-06	52.349	-0.579	-69.442	-69.771	-164.829	-32.811	-62.215	-164.971	-160.296	-38.753	-28.104	-160.944	-156.529	-155.949	-151.143	-35.765	-152.130	-8191	255	
17982.016	1	1	0	0	0.092243	0.22659	0.29379	0.30592	0.072618	0.062068	0.35906	0.26371	0.19513	0.11888	0.27015	0.11219	0.22007	0.12491	0.22849	0.21593	-2.3917	-2.8375	-2.9938	-2.9958	-2.9146	-2.9854	-2.9313	-3.175	-2.9979	-2.7375	-3.1667	-2.8896	-2.9896	-3.0438	-2.725	-3.1729	47.909	13.991	35.364	180.994	11.855	-148.736	103.028	164.624	7.446	140.578	124.966	120.532	167.508	50.419	-44.773	138.698	0.0012661	0.00048758	0.00014535	1337.9	6.9287e-06	5.4071e-06	1338	359.43	1.1143e-05	5.0287e-06	409.91	137.8	120.1	41.012	7.3959e-06	50.497	0.00067729	0.00060707	0.00016235	1360.9	6.5438e-06	6.5008e-06	1359.6	367.67	6.61e-06	6.4907e-06	419.45	140.69	122.47	42.223	6.2797e-06	52.319	0.030	-89.981	-92.260	-164.699	-49.081	-25.119	-165.184	-160.209	-45.294	-62.343	-160.748	-156.622	-156.133	-150.979	-18.684	-152.471	-8191	255	
17982.111	1	1	0	0	0.25923	0.2615	0.043313	0.27632	0.13795	0.20618	0.24572	0.28691	0.012896	0.067643	0.29847	0.18145	0.11782	0.27428	0.18288	0.2627	-2.5083	-2.8271	-3.2771	-2.9146	-2.9708	-2.9833	-3.0521	-3.0833	-3.0208	-2.7021	-3.0625	-2.9271	-2.9146	-3.1146	-2.725	-2.9479	-30.361	-130.001	39.419	141.056	-97.246	79.162	134.408	84.516	-154.637	131.822	-150.654	4.842	118.459	150.484	-43.572	95.877	0.0013483	0.0005678	0.00016638	1332.7	6.043e-06	4.7879e-06	1334.5	360.66	1.1507e-05	5.2686e-06	410.69	137.6	119.59	41.033	7.951e-06	50.636	0.00067704	0.00059406	0.00016274	1358.4	6.2079e-06	6.2532e-06	1359.1	367.89	6.2653e-06	6.221e-06	420.08	140.73	122.36	42.239	5.9206e-06	52.47	1.938	-92.237	-72.604	-164.683	-40.341	-33.403	-165.062	-160.328	-30.687	-31.877	-160.994	-156.560	-156.166	-151.274	-22.354	-152.302	-8191	255	
17982.207	1	1	0	0	0.15759	0.055404	0.18282	0.28064	0.18635	0.22126	0.15326	0.2141	0.21784	0.12827	0.11678	0.28203	0.30234	0.14515	0.10456	0.10215	-2.5521	-2.7208	-3.0208	-2.9354	-2.8708	-3.0667	-2.9875	-3.0938	-2.8625	-2.6479	-3.1188	-2.9083	-2.875	-3.1542	-2.7146	-3.1312	-31.174	68.265	-67.072	170.678	68.900	4.758	149.347	73.762	-122.347	-100.521	101.123	143.491	138.900	-176.870	123.505	79.414	0.0013982	0.00041525	0.00015594	1332.5	5.9013e-06	5.1042e-06	1329.9	360.67	9.4456e-06	5.9131e-06	409.71	137.65	119.48	41.007	6.0358e-06	50.707	0.00067646	0.00056729	0.00014882	1357.3	6.249e-06	6.0687e-06	1356.8	367.78	6.0925e-06	6.1551e-06	419.39	140.74	122.24	42.235	6.1234e-06	52.412	-2.177	-97.939	-96.534	-164.964	-47.528	-45.177	-165.177	-160.138	-23.892	-28.189	-160.719	-156.587	-155.950	-151.257	-33.794	-152.212	-8191	255	
17982.305	1	1	0	0	0.19457	0.15572	0.062416	0.066383	0.36784	0.1464	0.17319	0.12691	0.15583	0.16193	0.14965	0.2417	0.28184	0.16373	0.13194	0.28157	-2.5292	-2.7	-2.9708	-3.0583	-2.9146	-3.0062	-3.0521	-2.9979	-2.9062	-2.7167	-3.0708	-2.9167	-2.8479	-3.0375	-2.7625	-2.9437	35.642	26.488	117.191	64.608	92.412	-90.239	181.189	116.510	-94.394	128.057	85.520	122.805	128.528	74.995	-24.212	93.038	0.0013724	0.00067966	0.00013387	1328.9	4.9104e-06	4.9913e-06	1326.5	358.07	9.7984e-06	6.0906e-06	409.86	136.27	119.56	40.854	7.3073e-06	50.45	0.00066241	0.00056492	0.00015889	1353.9	6.3172e-06	5.8986e-06	1350.9	366.77	6.2739e-06	6.0944e-06	418.11	139.92	122.17	42.155	6.2357e-06	52.298	-0.215	-88.072	-89.853	-164.795	-55.616	-17.846	-165.141	-160.379	-47.910	-35.115	-160.703	-156.497	-156.053	-150.890	-29.529	-152.276	-8191	255	
17982.422	1	1	0	0	0.075226	0.12577	0.21425	0.25637	0.31478	0.061284	0.087511	0.1072	0.11019	0.14416	0.20358	0.038775	0.32267	0.094923	0.14945	0.0081867	-2.5479	-2.7083	-3.0875	-3.075	-2.575	-3.0292	-2.9896	-3.1104	-3.1229	-2.6583	-3.15	-3.0521	-2.5646	-3.1854	-2.8333	-2.8896	159.029	-85.945	-152.015	122.138	173.341	-166.977	73.269	-61.427	-128.279	-127.784	150.884	71.906	154.262	-119.144	28.408	-177.087	0.0013422	0.00043522	0.00012692	1325.6	5.918e-06	5.0411e-06	1330.3	359.9	1.083e-05	5.0888e-06	407.47	137.28	119.74	41.065	8.8798e-06	50.647	0.0006403	0.00052634	0.00015417	1351.3	6.2024e-06	6.0491e-06	1354	367.04	5.9629e-06	5.9918e-06	418.93	140.65	122.31	42.308	6.0285e-06	52.446	0.915	-79.533	-90.149	-164.626	-32.755	-23.534	-165.246	-160.296	-31.760	-34.493	-161.018	-156.625	-155.892	-150.950	-38.867	-152.274	-8191	255	
17982.520	1	1	0	0	0.088134	0.10109	0.15801	0.51121	0.22071	0.18344	0.24078	0.13427	0.030742	0.14241	0.10756	0.42323	0.21571	0.13252	0.23099	0.17411	-2.5667	-2.7708	-3.0146	-2.9875	-2.6271	-2.9708	-2.9813	-2.9292	-3.1229	-2.7125	-2.9917	-2.9771	-2.8167	-3.0979	-2.7917	-2.8271	5.252	68.208	42.473	174.957	-57.657	-78.487	120.402	163.141	-111.957	74.080	-35.605	173.218	161.971	89.170	94.136	114.804	0.0014306	0.00034668	0.00013038	1333.2	7.2945e-06	5.5221e-06	1333	360.21	8.7978e-06	5.5166e-06	409.72	137.99	120.39	40.907	7.1136e-06	50.618	0.00066728	0.0005672	0.00015699	1357.4	6.2702e-06	6.1341e-06	1357.4	368.08	6.1176e-06	6.1928e-06	419.79	141.18	122.78	42.26	6.2662e-06	52.482	-0.361	-90.047	-100.023	-164.890	-51.280	-16.779	-164.985	-160.258	-35.389	-26.789	-160.903	-156.679	-156.181	-151.152	-29.659	-152.124	-8191	255	
17982.615	1	1	0	0	0.12442	0.048775	0.22143	0.18686	0.18143	0.25332	0.36003	0.28392	0.20735	0.14062	0.1832	0.094447	0.42653	0.11072	0.054814	0.047048	-2.5062	-2.6312	-2.8708	-3.0375	-2.7625	-3.1083	-3.0167	-2.8688	-2.9875	-2.7229	-3.0479	-3.0708	-2.7313	-3.1	-2.8438	-2.6375	-170.489	118.381	-66.725	132.444	-165.090	46.215	115.759	81.907	85.117	-41.244	66.411	-162.576	169.531	18.127	51.139	-128.345	0.0013809	0.00066842	0.00012791	1333.7	4.5256e-06	5.0809e-06	1335.3	361.41	7.564e-06	4.9536e-06	411.63	138.62	120.54	41.315	4.9038e-06	50.868	0.00065303	0.00057574	0.00016189	1360.6	6.0118e-06	5.9944e-06	1364.1	369.11	5.8522e-06	6.2012e-06	421.66	141.72	123.28	42.63	6.5265e-06	52.842	-2.642	-95.541	-78.154	-164.881	-49.026	-28.810	-165.132	-160.273	-25.597	-40.486	-160.709	-156.526	-156.133	-151.120	-29.405	-151.874	-8191	255	
17982.734	1	1	0	0	0.12726	0.10978	0.14665	0.16989	0.14377	0.22552	0.22162	0.15824	0.19918	0.13948	0.011887	0.023627	0.14801	0.24428	0.36431	0.15785	-2.6333	-2.7771	-2.8854	-3.3417	-2.6854	-3.1562	-2.9917	-2.8937	-2.9083	-2.8	-2.8667	-3.1979	-2.9271	-3.1542	-2.7708	-2.7833	21.663	87.402	161.701	137.322	-165.942	-108.379	93.872	30.209	136.579	-15.242	-74.988	-112.715	151.372	-148.065	119.870	141.378	0.001318	0.00066127	0.00016885	1346.5	6.7896e-06	4.8558e-06	1344.8	363.28	1.3133e-05	4.8808e-06	415.57	138.78	121.3	41.262	7.052e-06	50.845	0.00065053	0.00057562	0.00016276	1371.6	6.0961e-06	6.1458e-06	1369.5	370.46	6.3303e-06	6.4356e-06	423.47	141.79	123.66	42.573	6.3611e-06	52.719	2.523	-95.567	-88.337	-164.887	-24.124	-23.706	-165.113	-160.495	-29.320	-40.544	-160.651	-156.584	-156.094	-151.121	-33.423	-152.114	-8191	255	
17982.807	1	1	0	0	0.057268	0.11146	0.14899	0.29442	0.18224	0.15877	0.20054	0.21935	0.086561	0.13489	0.19429	0.035658	0.19195	0.12732	0.12797	0.1551	-2.5792	-2.6833	-2.6792	-3.2375	-2.6396	-2.9396	-3.0896	-2.8438	-2.9833	-2.9229	-2.8625	-3.0812	-2.9479	-2.7792	-2.8833	-2.6542	-94.562	68.927	-12.724	140.357	-62.359	97.334	63.353	107.672	-75.575	-10.086	-145.104	69.725	136.127	-122.248	-35.300	-87.834	0.0014602	0.00070613	0.00014256	1347.2	3.8876e-06	4.7925e-06	1347.8	361.35	7.6505e-06	4.872e-06	412.48	137.99	120.86	41.267	5.0031e-06	50.772	0.00066618	0.00059335	0.00016601	1371.7	6.3219e-06	6.3883e-06	1371.2	369.73	6.2167e-06	6.4554e-06	422.51	141.57	123.27	42.552	6.2392e-06	52.74	0.532	-84.836	-79.220	-164.747	-52.503	-24.102	-165.140	-160.220	-48.762	-38.678	-160.710	-156.743	-156.128	-151.275	-27.610	-152.459	-8191	255	
17982.902	1	1	0	0	0.061031	0.15831	0.1704	0.34276	0.10585	0.093916	0.14645	0.082261	0.19012	0.20001	0.076651	0.24955	0.10491	0.063616	0.24363	0.063004	-2.7333	-2.9417	-2.8125	-3.1646	-2.7167	-2.9979	-3.0729	-2.8	-2.9854	-2.9188	-2.8854	-3.0458	-2.8729	-2.9729	-3.0771	-2.7125	176.829	-93.283	-124.462	147.119	22.445	161.455	115.125	-165.698	-121.815	-170.139	166.149	174.560	179.943	103.237	-92.589	118.386	0.0014509	0.00051662	0.00017941	1341.7	7.6196e-06	5.5803e-06	1345.5	361.58	1.431e-05	5.879e-06	413.07	138.18	121.04	41.455	6.0273e-06	50.919	0.00068433	0.00056716	0.00016302	1367.6	6.1795e-06	6.3088e-06	1369	369.88	6.3101e-06	6.1236e-06	423.04	141.67	123.41	42.676	6.0377e-06	52.814	-0.583	-65.933	-78.399	-164.758	-19.476	-47.187	-165.204	-160.250	-41.890	-19.723	-160.991	-156.595	-156.206	-151.158	-15.178	-152.410	-8191	255	
17982.998	1	1	0	0	0.024217	0.097639	0.16715	0.16104	0.25988	0.12768	0.083594	0.4878	0.13874	0.28844	0.066601	0.2793	0.03576	0.11681	0.39748	0.20244	-2.5854	-2.8375	-2.6188	-3.3521	-2.7438	-2.7167	-3.275	-2.9771	-2.8521	-2.8854	-2.8333	-3.1146	-2.6833	-2.8708	-3.0208	-2.7812	-65.306	-61.096	140.415	138.984	81.687	41.452	139.960	147.601	91.947	-43.771	-102.451	154.406	-57.524	111.410	146.279	71.919	0.001343	0.00042373	0.00011863	1341.7	5.782e-06	5.3735e-06	1342.6	362.02	1.2347e-05	6.1924e-06	412.08	138.19	121.04	41.329	7.3184e-06	51.12	0.00064393	0.00055117	0.00015238	1367.9	6.2244e-06	6.0547e-06	1366.7	369.77	6.0098e-06	6.005e-06	422.98	141.7	123.43	42.651	6.1151e-06	52.797	1.648	-91.349	-89.504	-164.894	-56.353	-42.583	-165.128	-160.077	-41.242	-47.177	-160.723	-156.530	-155.986	-151.294	-31.002	-152.133	-8191	255	
17983.119	1	1	0	0	0.24598	0.25872	0.1541	0.1197	0.13851	0.2842	0.24816	0.42689	0.212	0.12553	0.12554	0.30927	0.14858	0.31244	0.26975	0.11871	-2.5938	-2.8271	-2.775	-3.0729	-2.825	-2.7125	-3.3187	-2.9958	-2.8625	-2.9188	-2.7458	-3.1625	-3.1208	-3	-2.8896	-2.9313	52.723	71.463	104.332	147.784	-119.351	107.208	-170.001	91.904	168.261	-24.519	-158.923	109.400	165.397	121.604	88.473	126.959	0.0013594	0.00049811	0.00012891	1335.3	6.7967e-06	3.0791e-06	1341.7	361.31	8.1001e-06	4.304e-06	410.69	138.5	120.29	41.279	7.2746e-06	50.909	0.0006628	0.0005505	0.0001534	1365.2	6.296e-06	6.2986e-06	1366.8	369.09	6.3031e-06	6.3005e-06	421.57	141.64	123	42.581	6.0311e-06	52.647	0.722	-85.806	-82.847	-164.738	-55.226	-3.549	-165.121	-160.172	-37.320	-22.954	-160.662	-156.566	-156.170	-151.063	-28.648	-152.154	-8191	255	
17983.217	1	1	0	0	0.13464	0.11797	0.027089	0.16882	0.10306	0.071081	0.25227	0.23347	0.034377	0.16158	0.12528	0.19714	0.071193	0.10762	0.15106	0.068081	-2.3104	-2.7583	-2.6667	-3.2396	-3.0062	-2.7896	-3.3125	-2.7229	-2.8896	-2.9792	-2.8729	-3.0729	-3.0542	-2.8875	-2.9625	-2.9083	-31.242	-38.192	-93.239	100.651	-17.843	79.105	168.343	134.978	154.891	-79.960	-9.509	82.824	-75.408	-97.326	124.928	74.873	0.0014167	0.00052471	0.00013759	1342.4	3.6636e-06	5.6883e-06	1340.7	361.38	1.2326e-05	7.1551e-06	412.73	138.73	120.64	41.087	5.7609e-06	50.927	0.00067264	0.00057533	0.00015458	1366.2	6.2482e-06	6.1626e-06	1364.8	369.58	6.2706e-06	6.1631e-06	422.12	141.65	123.3	42.525	5.8901e-06	52.792	-0.522	-86.468	-93.435	-164.924	-36.420	-40.346	-165.277	-160.243	-54.281	-28.420	-160.722	-156.586	-155.999	-151.074	-32.773	-152.064	-8191	255	
17983.311	1	1	0	0	0.30748	0.14428	0.2716	0.33222	0.20229	0.19233	0.22471	0.21194	0.067696	0.17505	0.16537	0.11073	0.024086	0.23906	0.24512	0.16119	-2.3896	-2.9437	-2.6958	-3.1396	-3.0271	-2.6833	-3.2958	-2.9646	-2.9542	-3.0875	-2.8167	-3.0563	-2.9729	-2.8396	-2.9854	-2.9792	55.415	-141.256	162.850	119.851	174.586	-32.418	172.615	134.991	-100.884	123.520	129.715	73.579	44.433	91.808	149.548	98.427	0.0013339	0.00057571	0.00012143	1342.8	3.4308e-06	7.2607e-06	1335.8	362.15	9.9972e-06	3.5329e-06	412.51	138.69	120.56	41.236	5.5163e-06	51.365	0.0006667	0.00052734	0.00015899	1365.1	6.1402e-06	6.0323e-06	1364.1	370	6.3513e-06	6.0873e-06	422.59	141.82	123.27	42.607	6.1212e-06	52.866	0.831	-109.356	-90.717	-164.569	-63.743	-20.165	-165.363	-160.207	-46.202	-14.356	-160.718	-156.622	-155.841	-151.204	-44.110	-151.879	-8191	255	
17983.385	1	1	0	0	0.063138	0.18107	0.091443	0.19747	0.15656	0.21386	0.12942	0.16006	0.13567	0.13424	0.069999	0.11613	0.036282	0.33525	0.090923	0.049471	-2.4458	-3.1042	-2.7479	-2.9958	-3.1708	-2.5729	-3.2896	-3.0687	-2.6854	-3.0042	-2.9854	-3.0146	-2.9062	-2.7625	-2.9688	-2.7687	28.063	5.766	87.834	136.878	157.885	50.388	146.142	80.344	-93.914	-161.151	76.468	135.346	-152.712	-156.698	-143.499	-174.694	0.0013451	0.00063669	9.3179e-05	1347.4	5.675e-06	5.2979e-06	1343	362.37	1.0441e-05	5.9274e-06	411.81	138.22	120.3	41.297	8.2309e-06	50.937	0.00066252	0.00054893	0.00016024	1370.4	6.1198e-06	6.1444e-06	1369.1	370.19	6.3862e-06	6.4182e-06	422.63	141.74	123.27	42.557	6.6449e-06	52.737	-1.359	-88.884	-97.140	-164.579	-63.176	-36.042	-165.114	-160.440	-27.403	-31.481	-160.800	-156.607	-156.038	-151.202	-28.059	-152.137	-8191	255	
17983.504	1	1	0	0	0.22313	0.16544	0.25008	0.11423	0.099017	0.221	0.17226	0.13656	0.12051	0.06221	0.043156	0.12501	0.24454	0.22106	0.1148	0.39854	-2.2979	-2.9458	-2.5563	-3.0333	-3.0062	-2.5479	-3.2917	-2.9208	-2.6979	-3.0146	-2.9271	-3.0625	-2.9646	-2.6167	-2.9083	-2.9854	-34.358	-89.811	-17.948	93.541	84.496	-4.933	63.055	124.634	66.025	4.482	60.218	146.319	153.196	-147.042	-114.538	145.511	0.0014059	0.00066322	0.00014179	1342.9	4.2904e-06	4.3462e-06	1343.6	362.26	1.1878e-05	6.0287e-06	413.03	138.53	120.25	41.487	5.6759e-06	51.058	0.00067182	0.00057388	0.00016336	1369.4	6.2812e-06	6.1589e-06	1369.6	370.18	6.1772e-06	6.1956e-06	421.78	141.89	123.42	42.62	6.4686e-06	52.758	-0.043	-89.257	-82.247	-164.646	-43.770	-27.192	-165.202	-160.235	-42.633	-36.409	-160.748	-156.680	-156.033	-151.261	-20.468	-152.239	-8191	255	
17983.600	1	1	0	0	0.059365	0.16436	0.18492	0.23511	0.1997	0.24104	0.25514	0.3405	0.17756	0.11946	0.22702	0.34621	0.082558	0.13969	0.10588	0.36015	-2.2771	-2.9479	-2.8542	-3.0125	-3.1417	-2.7271	-3.2396	-3.0833	-2.6813	-2.9792	-2.9938	-2.9979	-3.0312	-2.6708	-3.075	-3.0208	102.018	-120.594	159.166	107.300	-168.606	46.663	110.247	179.516	-103.907	-102.856	85.540	157.873	123.324	-139.574	155.644	128.289	0.0013809	0.00059759	0.00013421	1344.4	5.0574e-06	4.7544e-06	1346.7	361.83	1.1285e-05	5.3576e-06	412.69	138.86	120.47	41.227	5.6035e-06	50.825	0.00066043	0.00056418	0.00016607	1369.1	6.3096e-06	6.0757e-06	1368.5	369.83	6.2702e-06	6.1702e-06	422.2	141.89	123.28	42.574	6.2018e-06	52.767	-0.083	-106.768	-88.852	-164.864	-38.973	-38.835	-165.042	-160.230	-27.197	-33.499	-160.943	-156.606	-155.944	-151.122	-47.956	-152.416	-8191	255	
17983.695	1	1	0	0	0.18294	0.1598	0.18359	0.15559	0.20316	0.033937	0.33306	0.10928	0.15165	0.34923	0.31895	0.30591	0.17098	0.18667	0.07442	0.14906	-2.2542	-2.8854	-2.7417	-3.0146	-3.1458	-2.975	-3.1562	-3.1583	-2.6292	-2.9938	-2.9562	-2.9458	-3.2313	-2.8542	-2.7917	-3.0354	151.354	31.340	61.649	99.837	-95.337	-172.013	116.879	72.077	-9.138	-102.907	119.587	124.726	73.424	154.428	-41.183	173.945	0.001383	0.00064354	0.00014234	1342.5	7.0096e-06	4.6445e-06	1336.5	362.03	1.1114e-05	4.9113e-06	412.46	138.32	120.58	41.266	4.4649e-06	50.762	0.00066392	0.00053911	0.00016279	1368.2	6.1003e-06	6.0239e-06	1366.6	370.11	6.0921e-06	6.0662e-06	422.34	141.81	123.24	42.581	6.1857e-06	52.693	-2.657	-88.965	-89.124	-164.750	-44.907	-13.560	-165.313	-160.232	-38.298	-23.248	-160.634	-156.352	-156.123	-151.560	-33.396	-152.130	-8191	255	
17983.816	1	1	0	0	0.12228	0.17895	0.11628	0.34081	0.088378	0.24505	0.38842	0.30448	0.23031	0.066721	0.29938	0.27106	0.074195	0.37825	0.1052	0.20639	-2.2188	-2.9146	-2.9354	-2.7792	-2.9479	-2.6312	-2.8312	-3.0958	-2.7104	-2.9042	-2.8625	-2.7375	-3.0271	-2.825	-2.7562	-3.0854	149.098	160.618	1.013	178.679	100.939	120.128	130.053	145.336	173.534	-66.047	173.092	102.658	-167.327	161.343	31.724	117.656	0.0013278	0.00073946	0.00011325	1340.3	7.3145e-06	3.5678e-06	1344.2	361.94	1.1867e-05	6.0658e-06	412.49	138.05	121.54	41.13	6.1626e-06	51.035	0.00065705	0.00055846	0.00015205	1365.1	6.1219e-06	6.3789e-06	1368.2	369.7	6.1196e-06	6.2582e-06	422	141.49	123.36	42.422	6.1957e-06	52.641	-0.155	-107.326	-96.524	-164.851	-39.822	-44.604	-165.283	-160.312	-29.711	-38.497	-160.639	-156.542	-156.128	-151.133	-45.558	-152.333	-8191	255	
17983.912	1	1	0	0	0.095585	0.26858	0.32986	0.15529	0.24074	0.14841	0.28867	0.27726	0.18338	0.29351	0.24902	0.046985	0.1787	0.10215	0.30254	0.14281	-2.0854	-2.8729	-2.8958	-2.7812	-2.9896	-2.775	-3.0271	-3.3375	-2.7292	-2.9833	-3.0208	-2.7729	-3.0563	-2.7917	-2.775	-3.0812	-6.153	-133.659	33.044	-135.423	-168.298	-25.732	-159.984	-165.327	-147.860	-168.436	90.086	58.175	136.845	112.736	156.863	120.023	0.0013981	0.00051131	0.0001258	1340.5	7.1545e-06	5.265e-06	1336.2	361.53	9.6997e-06	4.9663e-06	410.83	138.01	119.77	41.161	5.522e-06	50.857	0.00067259	0.00058233	0.00016366	1365	6.1139e-06	6.4462e-06	1363.2	369.38	6.3332e-06	6.3405e-06	421.6	141.36	122.69	42.514	6.2688e-06	52.643	1.586	-89.417	-78.626	-164.890	-28.042	-29.196	-165.020	-160.258	-58.757	-45.424	-160.922	-156.616	-156.005	-151.458	-10.538	-152.101	-8191	255	
17984.008	1	1	0	0	0.20193	0.1341	0.14843	0.31831	0.17952	0.18898	0.21826	0.27682	0.21092	0.13787	0.16435	0.097873	0.17974	0.24584	0.37085	0.16885	-2.3563	-2.8646	-2.8479	-2.875	-3.1708	-2.8792	-3.0187	-3.225	-2.7229	-2.95	-2.9083	-2.9875	-2.8396	-3.0292	-2.7042	-3.0438	95.322	176.749	-75.436	165.678	-83.504	71.810	100.645	142.051	86.204	78.049	46.445	-170.082	-141.038	77.696	-71.134	-167.579	0.0013588	0.00057652	0.00010132	1337.5	4.9779e-06	7.1162e-06	1332.8	361.72	1.2817e-05	5.2082e-06	412.02	138.45	120.94	41.076	5.2423e-06	50.99	0.00066898	0.0005505	0.00015508	1365.5	6.0626e-06	6.0935e-06	1363.5	369.73	6.3385e-06	6.3415e-06	421.94	141.52	123.13	42.438	5.9158e-06	52.727	-3.126	-99.795	-96.887	-164.766	-45.799	-26.317	-165.124	-160.159	-39.272	-10.968	-160.720	-156.889	-155.875	-151.256	-43.689	-152.271	-8191	255	
17984.104	1	1	0	0	0.060604	0.27111	0.22498	0.15837	0.13674	0.014172	0.10939	0.15885	0.31622	0.058863	0.17707	0.1286	0.13965	0.34035	0.14407	0.15013	-2.2375	-2.7708	-2.8271	-2.8083	-3.0229	-2.9562	-2.9042	-3.0521	-2.7313	-2.875	-2.9125	-2.6688	-2.9229	-2.9396	-2.5583	-3.1437	-169.811	50.901	181.723	72.926	173.873	35.428	29.770	116.482	174.331	-123.042	-151.422	174.955	54.663	130.665	-105.009	13.144	0.0013957	0.00050587	0.00016062	1334.7	5.2228e-06	4.813e-06	1335.7	361.7	1.006e-05	4.6732e-06	413.35	138.39	120.25	41.138	8.8338e-06	50.799	0.00064825	0.00054814	0.00015721	1363.1	6.288e-06	6.1252e-06	1363.4	369.96	6.0941e-06	6.1914e-06	422.19	141.37	122.86	42.439	6.0646e-06	52.579	0.328	-104.660	-92.749	-164.884	-57.146	-34.554	-165.053	-160.074	-39.327	-34.892	-160.979	-156.712	-155.920	-150.936	-19.217	-152.167	-8191	255	
17984.199	1	1	0	0	0.21974	0.18926	0.10278	0.36435	0.21832	0.084158	0.20543	0.26353	0.12649	0.058285	0.44329	0.30307	0.09289	0.31444	0.21787	0.1613	-2.425	-2.7667	-2.8729	-2.8479	-2.8875	-2.8729	-3.025	-3.1104	-2.7438	-2.7792	-3.1271	-2.6417	-2.9354	-2.9708	-2.7396	-2.9938	-22.120	-132.244	-51.381	135.928	135.456	-126.823	77.423	111.083	6.462	4.837	163.587	138.535	63.416	143.947	-85.196	-31.851	0.0013729	0.00057935	0.00015703	1340.3	3.9405e-06	4.8388e-06	1336.8	361.43	1.1669e-05	4.8347e-06	410.81	138.62	120.06	40.955	6.0117e-06	50.815	0.00066684	0.00056107	0.00014885	1364.9	6.2338e-06	6.1593e-06	1362.7	369.53	6.076e-06	6.2172e-06	421.38	141.81	122.73	42.335	6.0115e-06	52.636	2.017	-95.060	-77.164	-164.846	-58.122	-26.515	-165.046	-160.434	-43.551	-18.489	-160.860	-156.654	-156.316	-151.228	-32.190	-152.178	-8191	255	
17984.297	1	1	0	0	0.12384	0.11294	0.085262	0.13041	0.087721	0.26594	0.25112	0.10601	0.1536	0.21938	0.23351	0.20803	0.066907	0.13443	0.16554	0.25357	-2.4292	-2.7271	-2.9313	-2.8063	-2.8958	-3.1229	-2.8125	-3.2125	-2.9354	-2.75	-3.0604	-2.8333	-3.0333	-2.9729	-2.7812	-3.1979	-153.538	-16.671	-3.792	111.166	-19.359	-55.428	132.322	-47.267	-57.767	-19.062	-151.167	77.171	-92.078	-173.938	-175.383	123.978	0.0013187	0.00052556	0.00012305	1340.6	4.7379e-06	4.964e-06	1339.8	361.75	1.15e-05	4.6371e-06	411.33	138.53	120.22	41.164	6.7885e-06	50.913	0.00064764	0.00055962	0.00015681	1366.1	6.1169e-06	6.1341e-06	1364.7	369.83	6.0649e-06	5.9325e-06	421.91	141.43	123.1	42.441	6.1965e-06	52.575	-0.493	-96.140	-83.305	-164.870	-44.832	-25.739	-165.150	-160.316	-50.231	-32.433	-160.875	-156.781	-156.003	-151.321	-49.215	-152.264	-8191	255	
17984.414	1	1	0	0	0.14047	0.1345	0.43651	0.1014	0.16101	0.055555	0.31353	0.45584	0.10351	0.11023	0.088213	0.19678	0.17044	0.20803	0.20628	0.26899	-2.3021	-2.6583	-3.0438	-2.9396	-2.8125	-3.1146	-3.0771	-3.1458	-2.9771	-2.7812	-3.1417	-2.6854	-2.9083	-3.1188	-2.7875	-3.1042	-59.106	-55.953	-166.934	96.141	-107.804	169.694	145.600	148.364	134.560	-121.632	132.406	65.876	37.171	179.100	48.063	133.356	0.0013964	0.00066367	0.00010866	1342.1	7.873e-06	4.3527e-06	1335.5	361.16	1.2278e-05	5.5038e-06	412.72	138.66	119.78	41.284	7.0706e-06	50.875	0.00066505	0.00055519	0.00014798	1364.8	6.1016e-06	5.9907e-06	1361.8	369.83	6.2134e-06	6.117e-06	421.78	141.43	122.81	42.51	6.19e-06	52.573	-2.383	-99.209	-89.304	-164.885	-52.105	-28.210	-165.046	-160.342	-29.276	-42.207	-161.018	-156.748	-156.007	-151.285	-21.625	-152.316	-8191	255	
17984.512	1	1	0	0	0.11955	0.21103	0.16164	0.18846	0.093491	0.066535	0.16149	0.29475	0.080383	0.24207	0.18411	0.19225	0.12243	0.36671	0.11155	0.27081	-2.4958	-2.6375	-3.0687	-2.9813	-2.8396	-2.9646	-2.8292	-3.0875	-2.9083	-2.6667	-3.0333	-2.9771	-2.8396	-3.0604	-2.4792	-2.9188	109.159	68.559	104.538	103.452	167.430	-86.564	120.090	86.482	46.595	-86.611	110.938	55.191	-174.546	-140.090	91.346	130.493	0.001322	0.0006965	0.00013176	1340.4	6.8525e-06	6.7284e-06	1335.1	361.71	8.7935e-06	5.6955e-06	409.12	138.07	120.11	41.184	7.1838e-06	50.712	0.0006392	0.00056078	0.00015597	1364.1	5.9254e-06	5.9346e-06	1363.2	369.73	5.9761e-06	6.1551e-06	421.45	141.36	122.93	42.382	6.2753e-06	52.601	-1.017	-92.150	-85.768	-164.613	-43.953	-16.821	-165.134	-160.299	-48.704	-23.524	-160.762	-156.584	-156.069	-151.364	-48.833	-152.105	-8191	255	
17984.607	1	1	0	0	0.35451	0.10978	0.28132	0.19771	0.058504	0.024539	0.16763	0.29179	0.14912	0.1349	0.18168	0.21281	0.2377	0.059088	0.34046	0.4161	-2.4208	-2.5625	-2.8688	-2.8604	-2.5958	-3.0417	-3.0083	-2.9979	-2.775	-2.7604	-3.0312	-3.025	-2.8625	-3.0479	-2.65	-2.9813	-41.183	-149.109	-108.705	163.126	54.424	-77.924	142.758	141.262	47.634	74.686	153.300	169.135	-58.053	17.795	102.382	100.068	0.0013335	0.00051046	0.00011264	1330.7	6.856e-06	4.9956e-06	1336.1	361.23	1.0177e-05	6.5587e-06	409.89	137.78	120.08	41.228	8.8139e-06	50.704	0.00064341	0.00056795	0.00016134	1360.8	6.0419e-06	5.9388e-06	1362	369.48	6.2373e-06	6.0765e-06	421.86	141.03	122.97	42.459	6.3045e-06	52.499	2.045	-68.701	-91.226	-164.638	-40.083	-5.274	-165.162	-160.345	-35.380	-16.053	-160.878	-156.704	-156.244	-150.915	-36.912	-151.885	-8191	255	
17984.680	1	1	0	0	0.16239	0.15878	0.24283	0.25347	0.095249	0.25962	0.21763	0.3257	0.20476	0.1708	0.023221	0.32909	0.22205	0.15774	0.075317	0.44458	-2.3812	-2.6458	-2.9021	-3.0479	-2.7542	-2.8937	-2.95	-3.0083	-2.9875	-2.5292	-3.025	-3.0312	-2.7604	-2.9875	-2.9417	-2.8688	80.618	75.379	170.451	152.929	-136.043	121.513	125.080	-136.467	-125.734	-65.301	-18.582	118.867	-153.703	175.874	147.669	-171.973	0.0013855	0.00060299	0.00014693	1335.6	4.6051e-06	5.7947e-06	1332.1	362.59	1e-05	6.4339e-06	413.12	137.68	120.36	41.049	7.5735e-06	50.827	0.00064379	0.0005522	0.00015559	1363.2	5.9987e-06	6.2467e-06	1358.9	369.69	6.0394e-06	6.1801e-06	422.66	141.03	122.87	42.45	6.2409e-06	52.578	-1.035	-102.551	-87.840	-164.662	-41.071	-36.607	-165.088	-160.264	-46.179	-29.992	-160.901	-156.492	-156.005	-151.157	-29.421	-152.129	-8191	255	
17984.801	1	1	0	0	0.12663	0.21136	0.10578	0.17312	0.14812	0.14765	0.12369	0.22964	0.059952	0.16049	0.27374	0.20066	0.26562	0.43569	0.14216	0.12488	-2.6188	-2.6437	-2.9958	-3.0396	-2.4792	-3.0271	-3.1854	-2.95	-3.1479	-2.8521	-2.8771	-2.9813	-2.8875	-3.1896	-2.7521	-2.8312	103.113	132.601	169.295	-165.398	129.374	128.449	-135.689	154.336	-152.557	-169.621	137.165	161.495	121.603	157.325	177.137	142.593	0.0012703	0.00041307	0.00013363	1336.9	7.2256e-06	6.9111e-06	1335.6	362.25	1.0422e-05	5.0494e-06	411.16	137.87	120.02	40.87	6.5968e-06	50.649	0.00063994	0.00056973	0.00015738	1361.5	6.3172e-06	6.2159e-06	1361.5	369.41	5.9382e-06	6.4756e-06	421.35	140.98	122.81	42.299	6.4455e-06	52.47	-2.959	-97.191	-97.538	-164.716	-40.113	-77.096	-165.193	-160.326	-52.893	-35.799	-160.482	-156.618	-155.933	-151.298	-45.887	-152.110	-8191	255	
17984.896	1	1	0	0	0.05884	0.10064	0.18618	0.20182	0.03698	0.11517	0.24033	0.26616	0.1828	0.12651	0.18056	0.37099	0.27386	0.23295	0.024114	0.16226	-2.625	-2.8854	-2.8021	-3.0021	-2.7313	-2.8521	-3.1	-2.7938	-2.9	-2.8229	-3.0396	-3.1104	-2.7771	-3.0521	-2.8937	-2.7917	-27.199	5.026	108.647	-117.433	-81.932	156.403	121.195	147.476	-151.053	134.398	141.084	150.809	172.038	146.740	-39.640	93.185	0.0013478	0.00038654	0.00016005	1334.8	5.1005e-06	5.0825e-06	1335.1	361.74	1.1494e-05	3.24e-06	412.59	137.83	120.1	41.075	5.5964e-06	50.708	0.00064938	0.00057143	0.00016136	1361.8	6.2795e-06	6.3869e-06	1359.7	368.71	6.378e-06	6.3278e-06	421.42	141.22	122.61	42.356	6.0625e-06	52.337	-0.174	-96.846	-91.898	-164.787	-44.446	-41.665	-165.363	-160.184	-29.791	-43.533	-160.750	-156.739	-156.078	-151.298	-33.040	-152.336	-8191	255	
17984.992	1	1	0	0	0.059237	0.23873	0.1514	0.34409	0.12648	0.038	0.17876	0.17378	0.17171	0.13022	0.078806	0.15502	0.2408	0.03607	0.11693	0.10289	-2.4896	-2.6292	-2.5354	-3.0979	-2.8875	-2.9167	-3.0563	-2.7458	-2.8937	-2.8937	-3.0062	-3.2354	-2.9979	-2.975	-2.8063	-2.7458	181.745	25.393	-101.633	159.324	88.770	-7.628	62.841	127.773	-28.350	53.891	157.418	-148.593	138.016	75.207	-124.867	82.712	0.0013325	0.00060368	0.00013293	1333.7	6.6513e-06	4.5106e-06	1335.7	359.92	1.1705e-05	7.0582e-06	411.45	137.45	119.43	41.033	6.6058e-06	50.671	0.0006601	0.00057359	0.00016624	1360.2	6.318e-06	6.3266e-06	1360.8	368.94	6.2229e-06	6.4582e-06	420.89	141.08	122.57	42.347	6.1696e-06	52.411	-0.456	-90.606	-92.195	-164.697	-53.581	-15.364	-165.191	-160.245	-40.826	-39.791	-160.896	-156.478	-156.056	-150.964	-34.436	-152.093	-8191	255	
17985.088	1	1	0	0	0.15429	0.1488	0.1615	0.17725	0.14949	0.14161	0.42635	0.11987	0.121	0.15277	0.23326	0.25086	0.28561	0.36042	0.27769	0.39143	-2.55	-2.7729	-2.7313	-3.0729	-2.8146	-2.9	-3.2562	-2.7042	-3.0021	-2.8083	-2.8458	-3.0771	-2.7604	-2.975	-3	-2.6437	151.667	34.331	145.749	169.367	-146.342	114.742	96.693	39.263	-140.542	-85.872	112.465	156.182	178.751	132.221	-73.901	131.140	0.0013386	0.0006503	0.00013116	1338	7.1441e-06	5.4945e-06	1336	361.34	8.8355e-06	4.9871e-06	411.36	138.17	119.98	41.17	8.1657e-06	50.385	0.00066868	0.00057889	0.00015169	1362.2	6.3803e-06	6.3158e-06	1361.2	369.18	6.3591e-06	6.414e-06	421.62	141.15	122.46	42.434	6.2218e-06	52.39	1.354	-85.388	-85.180	-164.720	-36.018	-26.162	-165.098	-160.364	-26.075	-46.533	-160.674	-156.381	-156.215	-151.045	-33.006	-152.067	-8191	255	
17985.207	1	1	0	0	0.1343	0.30017	0.10645	0.23461	0.12142	0.26881	0.16186	0.033143	0.015059	0.20322	0.21729	0.25085	0.28942	0.21112	0.084689	0.1864	-2.4708	-2.8104	-2.675	-3.275	-2.7208	-2.9437	-3.1583	-2.9042	-2.9313	-2.7188	-2.8646	-3.1229	-2.9021	-2.9313	-3.1146	-2.7354	-77.089	144.567	18.680	163.935	93.821	149.989	100.771	177.110	-155.859	-129.546	146.045	168.665	83.072	170.168	16.251	-18.073	0.0013228	0.00045043	0.00012497	1339.1	6.7045e-06	4.8812e-06	1338.5	361.61	1.3682e-05	5.1479e-06	411.89	137.36	119.74	40.785	8.3641e-06	50.59	0.00066794	0.00057918	0.00015655	1361.1	6.3884e-06	6.4709e-06	1362.3	369	6.4253e-06	6.3438e-06	421.91	141.06	122.95	42.309	6.0028e-06	52.52	2.054	-67.844	-83.686	-164.692	-35.700	-25.082	-165.079	-160.468	-47.063	-29.929	-160.776	-156.882	-156.187	-151.114	-31.448	-152.189	-8191	255	
17985.281	1	1	0	0	0.11343	0.20461	0.17743	0.23295	0.022098	0.097768	0.2218	0.18435	0.11661	0.17285	0.32897	0.040597	0.17605	0.090235	0.11545	0.30046	-2.5396	-2.9188	-2.5354	-3.0125	-2.6896	-2.7646	-3.2604	-2.7938	-3.0292	-2.8438	-2.8271	-3.1562	-3.0542	-2.7938	-3.1625	-2.9229	-78.469	65.526	-30.259	150.293	68.747	-160.835	92.936	165.104	24.267	165.555	173.221	168.944	149.007	-106.251	140.683	13.325	0.0013576	0.00055924	0.00015229	1339.3	6.8752e-06	5.0219e-06	1333.4	362.06	1.4851e-05	5.1149e-06	412.32	137.73	119.96	41.076	7.8254e-06	50.543	0.00068064	0.0005469	0.00015476	1361.7	6.21e-06	6.2584e-06	1360.8	369.35	6.3723e-06	6.2671e-06	421.58	140.93	122.77	42.31	5.8849e-06	52.413	-0.134	-110.512	-88.555	-164.773	-55.447	-19.720	-165.111	-160.401	-37.716	-19.105	-160.966	-156.626	-156.030	-151.077	-35.684	-152.103	-8191	255	
17985.377	1	1	0	0	0.20532	0.062365	0.14084	0.38134	0.041901	0.20396	0.38037	0.23639	0.15597	0.12247	0.22997	0.27702	0.10054	0.25107	0.28287	0.22973	-2.5812	-2.9708	-2.6	-3.0729	-2.8208	-2.6813	-3.2	-2.8771	-3.0208	-3.1083	-2.6604	-3.2292	-2.9729	-2.8729	-3.2417	-2.8312	179.668	-15.481	-153.662	100.805	-105.942	102.195	110.575	101.840	111.613	44.790	158.617	130.598	79.415	62.667	109.758	100.119	0.0014054	0.00062627	0.00017266	1334.6	4.5625e-06	5.0667e-06	1334.6	361.47	1.0828e-05	3.7403e-06	411.71	137.93	120.59	40.994	4.1576e-06	50.885	0.00066538	0.00055979	0.00016039	1360.9	6.3295e-06	6.2532e-06	1360.9	369.63	6.2209e-06	5.9542e-06	421.27	141.08	122.76	42.355	6.113e-06	52.527	-0.664	-94.553	-94.093	-164.911	-37.455	-35.908	-165.111	-160.265	-45.768	-26.123	-161.058	-156.684	-155.970	-151.267	-32.789	-152.366	-8191	255	
17985.496	1	1	0	0	0.20339	0.19762	0.31048	0.060296	0.11089	0.029142	0.21947	0.11341	0.075511	0.29636	0.27336	0.054044	0.064251	0.1198	0.17376	0.30777	-2.4938	-3.0833	-2.6312	-3.1021	-2.9688	-2.7021	-3.35	-2.8917	-2.8542	-2.9646	-2.8729	-3.1688	-2.9729	-2.7396	-3.0521	-2.7833	-92.614	-154.762	-2.392	126.951	-11.692	78.674	157.772	63.617	18.582	37.980	170.266	168.844	-110.072	-30.515	-123.022	88.689	0.0013802	0.00046021	0.00015826	1337.3	5.3444e-06	6.4059e-06	1333.4	361.05	1.0149e-05	5.447e-06	411.2	138.09	120.16	41.114	7.5925e-06	50.762	0.00067316	0.00055705	0.00015722	1359.5	6.2744e-06	6.2224e-06	1360.5	368.87	6.1229e-06	6.0497e-06	421.52	141.12	122.62	42.365	6.415e-06	52.45	0.419	-95.449	-82.024	-164.765	-49.362	-18.276	-165.164	-160.172	-37.595	-30.257	-160.591	-156.544	-156.286	-151.215	-31.514	-152.279	-8191	255	
17985.592	1	1	0	0	0.28323	0.1896	0.2516	0.27068	0.068075	0.16033	0.20654	0.285	0.021136	0.17361	0.25959	0.28159	0.15308	0.2464	0.056646	0.22903	-2.3854	-2.9854	-2.6021	-3.0604	-3.0146	-2.7229	-3.1521	-3.1167	-2.7958	-3.0458	-2.8417	-3.0396	-2.9208	-2.7583	-3.0854	-2.9167	3.762	28.067	68.958	112.128	-85.572	158.706	94.010	108.071	-83.728	-89.341	167.292	162.463	-159.421	68.214	-23.023	158.643	0.0014095	0.00057455	0.00013366	1340.8	5.9298e-06	3.6728e-06	1339	361.56	1.2964e-05	5.3686e-06	410.17	137.43	119.97	40.873	5.7041e-06	50.505	0.00066255	0.00057533	0.00016398	1361.7	6.4646e-06	6.2757e-06	1362.9	369.41	6.2237e-06	6.2375e-06	421.46	140.79	122.59	42.271	6.3789e-06	52.407	-0.483	-98.929	-99.547	-164.883	-53.880	-15.412	-165.218	-160.379	-24.848	-29.486	-160.683	-156.896	-155.983	-150.991	-34.316	-152.187	-8191	255	
17985.688	1	1	0	0	0.09613	0.24479	0.12739	0.28739	0.20511	0.033722	0.33805	0.21113	0.17589	0.2618	0.070555	0.080657	0.2914	0.15544	0.087031	0.13246	-2.55	-2.9729	-2.6625	-3.2042	-2.9688	-2.7687	-3.1125	-3.0875	-2.8208	-3.0917	-2.8021	-2.8354	-3.1458	-2.7771	-2.925	-2.9833	126.447	129.637	-155.122	-170.943	-3.001	22.249	141.786	-176.897	-45.529	-1.493	-11.328	-94.049	95.517	158.774	93.967	19.792	0.0013125	0.00060238	0.00010777	1337.5	5.824e-06	5.3098e-06	1339.1	361.37	1.1223e-05	5.2823e-06	413.33	138.56	120.19	40.966	5.9948e-06	50.761	0.00065246	0.00057433	0.00016499	1362.5	6.2651e-06	6.5107e-06	1363.1	369.06	6.3381e-06	6.165e-06	421.79	141.53	122.9	42.313	6.4603e-06	52.566	-2.088	-89.983	-84.189	-164.847	-47.508	-30.607	-165.151	-160.343	-46.427	-45.490	-160.879	-156.498	-155.958	-151.225	-46.467	-152.093	-8191	255	
17985.783	1	1	0	0	0.14316	0.06357	0.093062	0.1754	0.19191	0.1992	0.24616	0.4068	0.077106	0.12633	0.1075	0.059754	0.097155	0.19999	0.16403	0.12765	-2.3229	-2.9854	-2.825	-2.9521	-3.025	-2.5	-3.0042	-3.0104	-2.6562	-2.9354	-2.9562	-2.6646	-3.225	-2.8812	-2.9688	-2.7917	-9.777	129.702	165.229	168.309	3.878	-47.112	82.108	99.070	-111.080	-120.506	18.356	72.668	-159.262	114.320	-64.429	-40.078	0.0013744	0.00074656	0.00012017	1341.3	6.6524e-06	6.2926e-06	1336.2	362.07	1.0848e-05	4.6628e-06	411.13	138.65	120.63	41.197	5.8309e-06	50.915	0.00068029	0.00056762	0.0001607	1365.8	5.9542e-06	6.0608e-06	1364	369.6	6.2678e-06	6.2808e-06	422.36	141.67	123.05	42.52	6.3693e-06	52.637	-0.841	-79.620	-87.991	-164.925	-38.518	-45.997	-165.074	-160.259	-51.859	-27.092	-160.803	-156.545	-156.172	-151.321	-40.059	-152.254	-8191	255	
17985.904	1	1	0	0	0.12872	0.16496	0.048084	0.16336	0.087826	0.17202	0.34199	0.25545	0.21784	0.10617	0.20637	0.13842	0.24775	0.14976	0.22568	0.27037	-2.1729	-2.9625	-2.7604	-2.9021	-2.9854	-2.9104	-3.0167	-3.2	-2.625	-3.2208	-2.9833	-2.85	-3.1146	-2.9792	-2.9021	-2.9896	125.046	-9.345	-172.954	174.067	-104.302	71.432	90.274	126.151	73.903	-162.010	-137.668	-45.046	146.435	139.708	-102.593	125.706	0.001341	0.00056166	0.00011123	1338.7	6.4883e-06	7.228e-06	1342.1	361.66	1.1375e-05	6.5222e-06	412.98	138.87	121.18	41.284	4.9127e-06	50.935	0.0006422	0.00058428	0.00015739	1363.7	6.0084e-06	6.3883e-06	1363.3	369.86	6.1727e-06	6.0135e-06	421.9	141.7	123.43	42.548	6.1386e-06	52.735	-0.511	-98.021	-95.714	-164.685	-57.536	-33.603	-165.120	-160.288	-40.966	-24.584	-160.771	-156.588	-156.091	-151.131	-26.405	-152.255	-8191	255	
17985.977	1	1	0	0	0.33391	0.077348	0.15993	0.28635	0.15671	0.18076	0.22457	0.14076	0.001316	0.10615	0.14169	0.25718	0.35167	0.24149	0.12119	0.23236	-2.4604	-2.875	-2.6042	-2.7562	-3.0146	-2.7833	-2.9688	-3.0583	-2.7625	-2.9792	-3.0021	-2.9	-3.1146	-2.7875	-2.7771	-3.1583	-129.010	29.963	2.022	110.362	141.508	161.635	-116.509	68.857	180.000	-109.037	115.846	-167.939	164.873	69.141	-64.592	93.517	0.0014183	0.00040009	0.00015957	1339	3.747e-06	4.637e-06	1335.7	361.69	1.1371e-05	5.5514e-06	413.86	138.51	120.59	41.16	5.6438e-06	50.857	0.00063948	0.00055465	0.0001583	1364	5.8907e-06	5.9734e-06	1361.3	369.83	6.2595e-06	6.2234e-06	422.53	141.4	123.06	42.441	6.1648e-06	52.56	-0.032	-77.824	-105.537	-164.803	-62.079	-17.962	-164.939	-160.465	-37.775	-7.464	-160.702	-156.472	-156.105	-151.262	-59.552	-152.109	-8191	255	
17986.072	1	1	0	0	0.14847	0.15371	0.16125	0.21934	0.21885	0.0042261	0.32776	0.20015	0.12278	0.12529	0.2207	0.27208	0.36609	0.28537	0.14663	0.11053	-2.3563	-2.9646	-2.75	-2.8937	-3.125	-2.8875	-3.1333	-3.175	-2.5563	-3.0083	-2.8021	-2.9062	-3.0646	-2.8688	-2.7354	-3.2	117.566	95.770	17.698	-173.750	-25.699	-59.696	128.974	103.160	163.164	-142.533	170.005	144.926	-165.029	-157.939	-44.911	-155.005	0.0013762	0.00065492	0.00017323	1333.2	4.9556e-06	5.3672e-06	1333.3	362.08	1.2813e-05	3.2434e-06	413.25	137.72	119.78	40.769	4.7102e-06	50.464	0.00065752	0.00057048	0.00015349	1361.7	6.2757e-06	6.3668e-06	1361	369.64	6.3381e-06	6.4827e-06	421.33	140.75	122.51	42.231	6.2766e-06	52.313	0.120	-96.214	-96.604	-164.673	-62.906	-23.900	-165.051	-160.258	-32.939	-35.827	-160.829	-156.489	-155.831	-151.114	-21.163	-151.975	-8191	255	
17986.193	1	1	0	0	0.12361	0.20952	0.06014	0.164	0.16868	0.18944	0.10907	0.32528	0.14075	0.12315	0.20015	0.16703	0.048077	0.13846	0.14686	0.064291	-2.1729	-2.8	-2.8208	-2.8104	-3.0792	-2.6229	-2.8646	-3.1958	-2.6271	-2.9417	-3.0375	-2.6896	-3.0854	-2.8229	-2.825	-3.1188	-167.439	-135.238	90.438	107.855	55.695	129.618	123.688	98.196	119.517	-154.180	-174.532	65.606	155.659	-106.177	95.605	-32.967	0.0013127	0.00044134	0.00016695	1335.4	7.5096e-06	3.7246e-06	1337.7	361.56	1.1379e-05	5.5548e-06	412.41	137.85	119.9	41.097	4.7326e-06	50.766	0.00066043	0.0005544	0.0001581	1360.3	6.1723e-06	6.4186e-06	1360.2	368.67	6.32e-06	6.2671e-06	421.74	140.93	122.71	42.418	6.0277e-06	52.517	-0.039	-101.770	-94.527	-164.705	-45.793	-10.927	-165.148	-160.217	-36.637	-38.719	-160.794	-156.629	-156.034	-151.256	-45.812	-152.276	-8191	255	
17986.287	1	1	0	0	0.083457	0.21298	0.17252	0.20023	0.16893	0.038162	0.34992	0.19088	0.18853	0.19001	0.30522	0.22499	0.26068	0.04139	0.14869	0.16085	-2.2792	-2.8438	-3.0167	-2.7938	-3.0312	-2.8104	-2.975	-3.2458	-2.7583	-2.8208	-3.275	-2.7562	-3.05	-3.1229	-2.825	-3.0917	128.414	162.381	63.117	154.812	76.255	-137.843	99.982	59.319	99.616	-116.148	176.630	109.827	131.381	-82.386	72.521	89.862	0.0013537	0.00069599	0.00016559	1337.1	5.2396e-06	6.6097e-06	1331.7	362.71	1.0479e-05	2.3848e-06	411.8	137.64	121.13	40.995	8.6642e-06	51.108	0.00065842	0.00056803	0.00015104	1359.6	5.8983e-06	6.243e-06	1359	369.75	6.1431e-06	6.1137e-06	421.26	141.35	123.01	42.313	6.1913e-06	52.652	2.109	-77.359	-84.090	-164.537	-53.700	-19.726	-165.149	-160.446	-31.672	-13.052	-160.733	-156.593	-155.804	-151.339	-37.354	-152.069	-8191	255	
17986.385	1	1	0	0	0.12424	0.20346	0.042622	0.31064	0.18506	0.22377	0.16056	0.25065	0.32555	0.26153	0.23087	0.26483	0.050294	0.16969	0.18676	0.19176	-2.2729	-2.8833	-2.9271	-3.0083	-3.0708	-2.9958	-3.0146	-3.2375	-2.75	-2.8854	-3.1229	-2.8208	-2.9021	-3.1417	-2.6292	-3.2167	-160.529	-88.427	-80.440	128.909	-125.264	-124.725	91.909	-111.379	105.077	94.275	142.885	-156.670	-32.442	85.701	-146.518	-17.769	0.0013031	0.0005304	0.00015486	1338	4.0962e-06	2.7999e-06	1332.5	362.2	1.0161e-05	4.5078e-06	413.75	138.44	120.77	41.191	7.1649e-06	50.814	0.00065221	0.00055287	0.00015223	1362	5.9915e-06	6.036e-06	1361.3	369.61	5.9987e-06	6.0295e-06	422.55	141.47	123.22	42.453	5.8374e-06	52.591	0.216	-88.220	-82.072	-164.971	-30.553	-19.655	-164.843	-160.384	-28.848	-23.486	-160.548	-156.588	-156.079	-151.133	-34.647	-152.041	-8191	255	
17986.504	1	1	0	0	0.15373	0.18478	0.19588	0.241	0.31325	0.095502	0.44713	0.17906	0.2232	0.21977	0.46469	0.18016	0.21782	0.27962	0.24861	0.36655	-2.5563	-2.5479	-3.175	-2.95	-2.8583	-2.9521	-2.9833	-3.1896	-2.8	-2.7729	-3.1208	-2.8521	-2.9042	-3.0021	-2.5958	-3.2583	-52.958	17.524	-160.292	-159.970	-58.194	-49.949	108.414	163.395	174.278	13.026	-168.251	87.123	144.903	-124.932	-40.442	179.962	0.0013457	0.00052496	0.00010875	1340.9	8.9575e-06	3.5584e-06	1331.8	361.11	1.1964e-05	6.4103e-06	413.35	138.36	120.8	41.212	7.5837e-06	50.758	0.00063752	0.00052195	0.0001506	1362.8	5.7873e-06	5.5324e-06	1360.8	369.21	5.9152e-06	6.1062e-06	421.62	141.41	123.18	42.439	5.9445e-06	52.547	0.253	-93.386	-76.208	-164.755	-45.053	-33.222	-165.066	-160.221	-41.649	-33.935	-160.618	-156.621	-155.944	-151.289	-22.511	-151.983	-8191	255	
17986.576	1	1	0	0	0.25655	0.13999	0.15814	0.22341	0.10498	0.11356	0.49014	0.24345	0.17601	0.19291	0.039533	0.30326	0.033912	0.20563	0.31583	0.064192	-2.4771	-2.6229	-2.9583	-2.975	-2.9479	-2.9729	-2.8958	-3.225	-2.9521	-2.9062	-3.0917	-2.8917	-3.0167	-3.1396	-2.775	-3.2021	-105.640	167.596	148.038	152.990	165.181	57.227	112.175	149.065	-167.262	120.678	163.250	78.632	83.490	142.924	-117.124	-135.125	0.0013973	0.00041352	0.00012324	1341	4.1427e-06	4.0936e-06	1338	361.49	9.9664e-06	2.4189e-06	410.77	138.15	120.41	40.978	6.6232e-06	50.806	0.00064445	0.00053579	0.00015562	1363	5.9589e-06	5.7641e-06	1361.6	368.64	6.0114e-06	6.0521e-06	421.25	141.13	122.68	42.302	6.1778e-06	52.508	-0.010	-78.282	-117.183	-164.856	-57.873	-29.043	-165.055	-160.255	-39.889	-40.156	-160.645	-156.292	-156.467	-150.970	-30.101	-152.208	-8191	255	
17986.672	1	1	0	0	0.30441	0.087442	0.27409	0.27104	0.087171	0.10272	0.25907	0.16305	0.06632	0.078658	0.2839	0.15792	0.3564	0.10774	0.14035	0.27216	-2.5646	-2.7812	-3.0104	-2.9188	-2.8896	-3.2771	-3.0521	-3.1312	-2.9104	-2.7729	-3.0729	-2.9271	-2.7687	-3.1	-2.8396	-2.9458	45.584	23.422	-137.383	157.833	43.912	-129.138	98.620	178.507	109.991	109.161	68.603	-108.388	158.249	-131.978	7.932	42.858	0.0013528	0.00070764	0.00011447	1335.2	5.5262e-06	6.6583e-06	1331.9	360.85	1.0433e-05	3.8726e-06	413.16	137.88	119.66	40.937	7.7835e-06	50.65	0.00066233	0.00056111	0.00015494	1359.2	5.9712e-06	6.1014e-06	1359	368.77	5.8646e-06	6.2558e-06	421.37	141.04	122.62	42.249	6.1151e-06	52.491	1.164	-83.203	-82.447	-164.712	-53.744	-34.762	-165.061	-160.123	-36.820	-34.564	-160.901	-156.511	-155.953	-151.026	-26.867	-152.207	-8191	255	
17986.770	1	1	0	0	0.085539	0.19394	0.19046	0.3	0.056095	0.095664	0.025725	0.10405	0.14088	0.20505	0.23608	0.1372	0.17233	0.18019	0.12939	0.1298	-2.4458	-2.7396	-2.9625	-3.0563	-2.8812	-3.1104	-2.8167	-3.1333	-2.9271	-2.6917	-3.075	-3.025	-2.9875	-3.1458	-2.7917	-2.8875	-83.621	150.412	-49.289	165.425	84.795	-55.945	162.679	-136.022	-91.102	-59.549	79.554	104.839	-172.666	-97.200	2.215	106.281	0.001294	0.00069732	0.00013692	1333.6	6.2778e-06	6.2945e-06	1331.7	360.78	1.1942e-05	6.0282e-06	410.04	137.85	120.31	41.052	6.4558e-06	50.829	0.0006342	0.00055929	0.00015978	1361.2	5.8678e-06	6.0425e-06	1358.4	368.87	6.0082e-06	6.0704e-06	421.26	141.27	122.83	42.335	6.0329e-06	52.561	-0.738	-91.221	-100.342	-164.588	-44.209	-21.497	-165.042	-160.181	-31.641	-35.203	-160.664	-156.573	-155.884	-151.113	-31.269	-152.207	-8191	255	
17986.865	1	1	0	0	0.32458	0.082828	0.30789	0.2587	0.12109	0.12283	0.1564	0.23812	0.06911	0.18993	0.096441	0.13616	0.096377	0.10678	0.26837	0.16068	-2.4938	-2.6437	-2.7771	-2.8542	-2.7292	-3.0229	-2.8375	-3.0125	-2.9667	-2.5667	-3.1562	-2.8708	-2.8479	-3.0542	-2.5917	-2.9	2.528	-48.983	-107.014	171.712	-78.933	153.427	90.739	117.556	-168.953	75.448	42.186	-167.478	105.367	-174.076	77.037	102.721	0.0013878	0.00060173	0.00015555	1332.8	3.9499e-06	5.5894e-06	1331.9	361.9	1.1541e-05	4.9199e-06	410.24	137.5	120.32	41.2	8.4781e-06	50.725	0.00062765	0.00055158	0.00015678	1360.1	5.7738e-06	5.9496e-06	1360.3	369.95	5.867e-06	5.9659e-06	421.61	141.13	122.97	42.418	5.9628e-06	52.539	-1.229	-88.363	-97.723	-164.969	-37.701	-5.334	-165.042	-160.354	-29.881	-21.478	-160.954	-156.692	-155.914	-151.144	-52.989	-152.073	-8191	255	
17986.984	1	1	0	0	0.15743	0.1091	0.23281	0.29798	0.049725	0.24572	0.31991	0.28033	0.19094	0.071697	0.10113	0.077304	0.22056	0.17006	0.040525	0.27247	-2.4667	-2.5271	-2.8187	-3.0167	-2.7188	-2.9313	-3.0563	-2.9562	-2.8312	-2.8312	-3.0729	-3.0417	-2.7292	-2.9896	-2.7917	-2.825	17.371	-93.774	163.600	149.344	-138.294	-8.056	101.950	122.564	-70.598	147.235	171.065	-23.075	58.422	-69.621	151.860	160.820	0.0013618	0.00034663	0.00016097	1337.1	6.9986e-06	3.5469e-06	1335.2	362.18	1.0781e-05	4.6098e-06	410.63	137.97	120.56	41.281	5.0158e-06	50.684	0.00062776	0.00054715	0.00014799	1360.4	5.7645e-06	5.7791e-06	1360.3	369.61	5.7934e-06	5.8972e-06	421.28	141.35	123.06	42.515	5.7869e-06	52.585	-3.082	-79.763	-77.881	-164.835	-25.843	-28.793	-164.901	-160.322	-40.295	-34.798	-160.886	-156.612	-156.060	-151.150	-21.207	-152.275	-8191	255	
17987.080	1	1	0	0	0.1606	0.016995	0.28033	0.076373	0.20473	0.10697	0.28348	0.2262	0.14849	0.1461	0.14806	0.18108	0.23422	0.04954	0.08071	0.1232	-2.6437	-2.6771	-2.7583	-3.1688	-2.85	-2.9521	-3.0708	-3.0229	-2.8854	-2.8604	-2.7771	-3.0333	-2.7958	-3.0917	-2.9938	-2.7146	-167.081	99.959	106.067	-134.962	63.319	-89.542	43.298	-176.738	-102.429	-100.595	129.765	-158.245	-117.109	83.304	75.087	134.870	0.0013418	0.00072528	0.00014384	1337.5	6.3595e-06	4.9821e-06	1336.8	362	1.4508e-05	6.5411e-06	412.84	138.48	120.29	41.268	6.24e-06	51.056	0.00062006	0.00054313	0.00014902	1360.5	5.7869e-06	6.0295e-06	1360.6	369.81	5.9962e-06	6.0492e-06	422	141.48	123	42.532	5.6746e-06	52.663	-1.611	-102.085	-78.697	-164.745	-34.615	-31.642	-165.221	-160.449	-47.184	-16.086	-161.070	-156.701	-156.048	-151.068	-14.067	-152.180	-8191	255	
17987.178	1	1	0	0	0.15448	0.25058	0.17107	0.33121	0.12922	0.19549	0.22129	0.14168	0.16915	0.06067	0.18641	0.05685	0.12776	0.10348	0.084163	0.1278	-2.4583	-2.8792	-2.7812	-2.8771	-2.8	-2.8583	-3.1167	-2.9271	-2.9792	-2.7562	-2.9208	-3.0771	-2.7979	-3.1188	-2.9792	-2.8271	-120.215	-157.751	118.530	-170.567	131.111	-59.495	116.633	162.231	-147.544	-6.874	-157.390	102.135	157.413	112.894	4.563	-157.152	0.0013663	0.00057556	0.00010685	1338.3	5.5777e-06	6.0867e-06	1335	362.32	9.7106e-06	5.6532e-06	412.07	138.62	120.72	41.136	6.8334e-06	50.8	0.00063213	0.00052945	0.00014636	1362.1	6.0271e-06	5.9444e-06	1360.2	369.8	6.067e-06	6.0106e-06	422.03	141.51	122.91	42.454	5.7003e-06	52.663	1.672	-81.757	-82.771	-164.855	-45.728	-4.804	-165.098	-160.268	-42.762	-45.371	-160.876	-156.436	-156.280	-151.224	-22.785	-152.298	-8191	255	
17987.273	1	1	0	0	0.14195	0.23723	0.1993	0.29397	0.27311	0.10126	0.2819	0.11948	0.090442	0.25017	0.19734	0.047312	0.19668	0.19484	0.24249	0.21863	-2.7062	-2.7542	-2.6958	-3.0333	-2.6729	-2.9292	-3.1021	-2.7792	-3.0708	-2.8104	-2.6958	-3.2208	-2.9104	-2.9375	-3.0396	-2.7792	-16.284	42.791	39.174	173.849	-89.319	65.764	126.351	-170.588	125.747	174.663	60.831	178.840	172.267	163.654	-145.418	120.752	0.0013519	0.00056037	0.00013116	1329.5	6.1471e-06	5.8007e-06	1329.4	362.36	9.451e-06	5.2922e-06	413.55	138.52	120.24	41.001	5.7333e-06	50.833	0.00062523	0.00053799	0.0001456	1358.7	5.9585e-06	6.0673e-06	1359.1	370.2	5.9662e-06	5.7565e-06	422.23	141.39	122.93	42.448	5.6625e-06	52.647	-0.612	-89.665	-98.368	-164.712	-32.227	-29.973	-165.043	-160.168	-31.778	-29.666	-160.945	-156.559	-155.946	-151.215	-29.175	-152.127	-8191	255	
17987.367	1	1	0	0	0.10194	0.026908	0.015827	0.40271	0.20386	0.16084	0.15656	0.23676	0.16151	0.093294	0.1016	0.10659	0.17397	0.14506	0.20896	0.28176	-2.5604	-2.8146	-2.85	-3.15	-2.7521	-2.9625	-3.1583	-2.75	-3.0021	-2.9021	-2.9042	-3.1542	-2.8458	-2.9354	-3.0979	-2.675	42.541	-33.605	-7.264	117.765	-45.550	-62.996	138.188	124.020	100.556	157.379	90.764	76.893	131.927	46.674	167.655	67.954	0.0013653	0.000503	0.00015215	1332.8	9.0431e-06	5.1096e-06	1328.7	361.36	1.3252e-05	5.7207e-06	411.97	138.18	120.32	41.244	7.4776e-06	50.851	0.00063172	0.00055245	0.00014349	1359.1	6.0931e-06	5.7791e-06	1357.9	369.03	5.9909e-06	5.9819e-06	421.64	141.34	122.9	42.454	5.7939e-06	52.498	-0.098	-61.462	-83.619	-165.015	-37.658	-22.173	-165.012	-160.424	-32.559	-31.439	-160.793	-156.366	-156.013	-151.345	-32.235	-152.292	-8191	255	
17987.467	1	1	0	0	0.10211	0.13389	0.15597	0.28144	0.1673	0.10728	0.0066322	0.29848	0.2034	0.14679	0.043338	0.25471	0.40618	0.095946	0.083973	0.33319	-2.5417	-2.8063	-2.6167	-3.1292	-2.7667	-2.95	-3.0646	-2.8479	-2.9958	-2.8292	-2.9708	-3.0563	-2.9458	-2.9146	-3.0062	-2.8604	-94.883	152.611	93.854	120.247	-125.398	-2.256	-26.565	172.938	-139.939	56.654	-161.996	130.069	119.968	-54.570	160.286	-170.653	0.0013141	0.00048153	0.00010848	1336.7	6.2555e-06	5.841e-06	1331.4	359.82	1.1429e-05	5.3206e-06	412.01	138.46	120.63	41.136	5.5867e-06	50.772	0.00064476	0.00053708	0.00014839	1359.4	6.0749e-06	5.8449e-06	1358.1	368.9	5.9176e-06	5.6887e-06	421.51	141.34	122.89	42.438	5.6094e-06	52.557	-2.925	-86.019	-93.015	-164.611	-47.710	-9.352	-165.093	-160.323	-49.875	-22.023	-160.705	-156.638	-155.972	-151.183	-44.782	-152.019	-8191	255	
17987.586	1	1	0	0	0.21543	0.24002	0.1671	0.30255	0.16689	0.16822	0.30398	0.15255	0.27736	0.091972	0.11209	0.19221	0.34688	0.089541	0.17919	0.17407	-2.4458	-2.6979	-2.6396	-2.9917	-2.8542	-2.7292	-3.1917	-2.8542	-2.9771	-3.0396	-2.7917	-3.0812	-2.875	-2.7854	-2.9729	-2.8604	-161.101	160.456	-101.885	-175.076	30.959	-121.880	117.570	165.974	4.301	25.356	136.061	173.107	169.534	-112.885	84.149	132.601	0.0013201	0.00046067	0.00015665	1335.7	5.1811e-06	6.9165e-06	1334.2	362.07	1.0903e-05	6.2626e-06	412.05	138.45	120.95	41.245	6.7669e-06	50.933	0.00063681	0.00052813	0.00015272	1359.9	6.0631e-06	5.9608e-06	1359.6	369.7	6.0016e-06	5.6544e-06	422.15	141.4	123	42.473	6.0877e-06	52.617	-0.197	-90.397	-84.131	-164.755	-23.867	-12.877	-165.357	-160.253	-27.481	-24.392	-160.597	-156.486	-156.080	-150.998	-28.305	-152.259	-8191	255	
17987.682	1	1	0	0	0.27614	0.26377	0.14475	0.16639	0.3432	0.050506	0.26234	0.26664	0.27338	0.19235	0.15033	0.19694	0.048707	0.082691	0.17026	0.048558	-2.5583	-2.8458	-2.7	-3.1688	-3.0167	-2.7188	-3.1312	-2.8729	-2.7729	-2.9333	-2.9333	-3.125	-2.975	-2.8354	-3.0104	-2.9021	-140.176	164.400	-56.288	142.267	-124.977	174.110	110.785	156.049	55.456	-163.070	98.974	-102.868	-69.032	176.920	-165.965	54.780	0.001378	0.00056125	0.00016401	1336	6.8042e-06	5.6801e-06	1333.7	361.56	1.028e-05	5.3728e-06	412.65	138.37	120.87	41.274	6.2238e-06	50.834	0.00064346	0.00051669	0.00015112	1361.6	5.7835e-06	5.9323e-06	1361	369.92	5.9576e-06	5.7363e-06	422.02	141.34	123	42.501	5.8266e-06	52.637	-0.917	-88.133	-91.902	-164.607	-36.713	-25.525	-165.287	-160.244	-32.897	-26.399	-160.932	-156.731	-155.960	-151.373	-39.309	-152.361	-8191	255	
17987.777	1	1	0	0	0.082689	0.21985	0.11371	0.099697	0.20895	0.17564	0.19423	0.24757	0.44135	0.081843	0.0577	0.048517	0.27318	0.064473	0.048915	0.47705	-2.3646	-3.0563	-2.725	-3.075	-2.8875	-2.6375	-3.2	-2.9667	-2.7667	-3.1188	-2.875	-3.0604	-3.0438	-2.975	-3.0312	-2.9167	2.805	3.596	-12.706	106.166	157.611	138.566	135.232	114.144	69.625	129.836	-59.088	116.212	70.698	50.972	11.350	132.442	0.0013015	0.00061842	0.00014423	1335.7	5.9803e-06	4.6302e-06	1331.3	361.31	9.1881e-06	4.4007e-06	415.05	137.62	120.34	41.134	5.9043e-06	50.865	0.00061709	0.00051747	0.00015144	1359.3	5.9182e-06	5.9701e-06	1359.3	369.58	5.9567e-06	5.9692e-06	422.85	141.18	123.01	42.356	5.9763e-06	52.663	0.456	-99.802	-79.857	-164.946	-28.595	-34.735	-165.153	-160.219	-43.928	-33.094	-160.654	-156.506	-156.063	-151.271	-32.463	-152.263	-8191	255	
17987.873	1	1	0	0	0.16431	0.20644	0.017922	0.11101	0.45978	0.21881	0.1805	0.3965	0.11898	0.022469	0.15527	0.21986	0.42637	0.22959	0.40396	0.28039	-2.4104	-2.9479	-2.4938	-2.9792	-2.9146	-2.7771	-3.4479	-2.9875	-2.7083	-3.1833	-2.9333	-2.9604	-2.9917	-2.7938	-2.8604	-2.9896	-96.260	72.123	16.595	62.186	-119.913	-155.526	112.805	130.506	166.339	-42.091	-139.884	170.549	96.406	157.323	114.628	-149.999	0.0013661	0.0006237	0.00015326	1329.6	6.7879e-06	4.7347e-06	1332.1	361.96	9.8067e-06	5.5622e-06	411.02	138.23	120.05	41.082	7.5022e-06	50.748	0.00063675	0.00053177	0.00014927	1358	5.8022e-06	5.9248e-06	1358.6	369.19	5.7794e-06	6.0295e-06	421.58	141.51	122.75	42.401	6.062e-06	52.558	1.073	-95.570	-87.945	-164.641	-55.291	-46.655	-165.062	-160.441	-37.277	-33.160	-161.084	-156.573	-156.022	-151.475	-45.454	-152.119	-8191	255	
#DATA ENDS
