BOXY.EXE: ISS Imagent and Oximeter Data Acquisition Program Version 0.80
Ascii Record File

#ACQ INFORMATION
2  Detector Channels 
16  External MUX Channels 
1  Auxiliary Channels 
5000  Waveform (CCF) Frequency (Hz)
1  Waveforms Skipped 
30  Waveforms Averaged 
1  Cycles Averaged 
16  Acquisitions per Waveform 
10.0806  Updata Rate (Hz) 

#FILE INFORMATION
TRUE -- External MUX Channel results are PARSED.
FALSE -- AC DC and Phase are NOT grouped.
TRUE -- Companion Program Settings File CREATED.
FALSE -- AC data not excluded
FALSE -- DC data not excluded
FALSE -- Phase data not excluded
FALSE -- Auxillary Chn. data not excluded
Tab delimiters

#CALIBRATION STATE
TRUE -- Waveform Calibration Values APPLIED.


#AUX CALIBRATION VALUES
Val Type	aux-1	

Term	1.0000e+00	
Factor	0.0000e+00	


#WF CALIBRATION VALUES
A = Detector Channel
Val Type	A-AC1	A-AC2	A-AC3	A-AC4	A-AC5	A-AC6	A-AC7	A-AC8	A-AC9	A-AC10	A-AC11	A-AC12	A-AC13	A-AC14	A-AC15	A-AC16	A-DC1	A-DC2	A-DC3	A-DC4	A-DC5	A-DC6	A-DC7	A-DC8	A-DC9	A-DC10	A-DC11	A-DC12	A-DC13	A-DC14	A-DC15	A-DC16	A-Ph1	A-Ph2	A-Ph3	A-Ph4	A-Ph5	A-Ph6	A-Ph7	A-Ph8	A-Ph9	A-Ph10	A-Ph11	A-Ph12	A-Ph13	A-Ph14	A-Ph15	A-Ph16	

Term	0.00000e+00	0.00000e+00	0.00000e+00	0.00000e+00	0.00000e+00	0.00000e+00	0.00000e+00	0.00000e+00	0.00000e+00	0.00000e+00	0.00000e+00	0.00000e+00	0.00000e+00	0.00000e+00	0.00000e+00	0.00000e+00	0.00000e+00	0.00000e+00	0.00000e+00	0.00000e+00	0.00000e+00	0.00000e+00	0.00000e+00	0.00000e+00	0.00000e+00	0.00000e+00	0.00000e+00	0.00000e+00	0.00000e+00	0.00000e+00	0.00000e+00	0.00000e+00	0.00000e+00	0.00000e+00	0.00000e+00	0.00000e+00	0.00000e+00	0.00000e+00	0.00000e+00	0.00000e+00	0.00000e+00	0.00000e+00	0.00000e+00	0.00000e+00	0.00000e+00	0.00000e+00	0.00000e+00	0.00000e+00	
Factor	1.00000e+00	1.00000e+00	1.00000e+00	1.00000e+00	1.00000e+00	1.00000e+00	1.00000e+00	1.00000e+00	1.00000e+00	1.00000e+00	1.00000e+00	1.00000e+00	1.00000e+00	1.00000e+00	1.00000e+00	1.00000e+00	1.00000e+00	1.00000e+00	1.00000e+00	1.00000e+00	1.00000e+00	1.00000e+00	1.00000e+00	1.00000e+00	1.00000e+00	1.00000e+00	1.00000e+00	1.00000e+00	1.00000e+00	1.00000e+00	1.00000e+00	1.00000e+00	X	X	X	X	X	X	X	X	X	X	X	X	X	X	X	X	

B = Detector Channel
Val Type	B-AC1	B-AC2	B-AC3	B-AC4	B-AC5	B-AC6	B-AC7	B-AC8	B-AC9	B-AC10	B-AC11	B-AC12	B-AC13	B-AC14	B-AC15	B-AC16	B-DC1	B-DC2	B-DC3	B-DC4	B-DC5	B-DC6	B-DC7	B-DC8	B-DC9	B-DC10	B-DC11	B-DC12	B-DC13	B-DC14	B-DC15	B-DC16	B-Ph1	B-Ph2	B-Ph3	B-Ph4	B-Ph5	B-Ph6	B-Ph7	B-Ph8	B-Ph9	B-Ph10	B-Ph11	B-Ph12	B-Ph13	B-Ph14	B-Ph15	B-Ph16	

Term	0.00000e+00	0.00000e+00	0.00000e+00	0.00000e+00	0.00000e+00	0.00000e+00	0.00000e+00	0.00000e+00	0.00000e+00	0.00000e+00	0.00000e+00	0.00000e+00	0.00000e+00	0.00000e+00	0.00000e+00	0.00000e+00	0.00000e+00	0.00000e+00	0.00000e+00	0.00000e+00	0.00000e+00	0.00000e+00	0.00000e+00	0.00000e+00	0.00000e+00	0.00000e+00	0.00000e+00	0.00000e+00	0.00000e+00	0.00000e+00	0.00000e+00	0.00000e+00	-1.56410e+02	-1.27925e+02	-1.23922e+02	-1.82673e+02	-7.57512e+01	-6.11924e+01	-1.55323e+02	-1.62015e+02	-8.33286e+01	-6.57451e+01	-1.72119e+02	-1.69838e+02	-1.79785e+02	-1.77170e+02	-7.38895e+01	-1.49034e+02	
Factor	2.27176e-05	1.55070e-04	4.33590e-05	1.76889e-01	1.36821e-06	1.78199e-06	1.63072e-01	4.85717e-02	1.34987e-06	1.70672e-06	9.20508e-02	2.79817e-02	2.79836e-02	8.82360e-03	1.44751e-06	1.26394e-02	1.41485e-05	2.59860e-05	7.31483e-06	8.80964e-02	2.56862e-07	2.96358e-07	7.67068e-02	2.43435e-02	2.54028e-07	2.93281e-07	4.48789e-02	1.37183e-02	1.41984e-02	4.46541e-03	2.69071e-07	6.22161e-03	X	X	X	X	X	X	X	X	X	X	X	X	X	X	X	X	



#DISTANCE SETTINGS
A = Detector Channel
A-1	A-2	A-3	A-4	A-5	A-6	A-7	A-8	A-9	A-10	A-11	A-12	A-13	A-14	A-15	A-16	

2.5000e+00	3.0000e+00	2.5000e+00	3.0000e+00	2.0000e+00	3.0000e+00	1.5000e+00	3.0000e+00	3.0000e+00	3.0000e+00	3.0000e+00	3.0000e+00	3.0000e+00	3.0000e+00	1.5000e+00	3.0000e+00	

B = Detector Channel
B-1	B-2	B-3	B-4	B-5	B-6	B-7	B-8	B-9	B-10	B-11	B-12	B-13	B-14	B-15	B-16	

1.0000e+01	1.0000e+01	1.0000e+01	1.4400e+00	1.0000e+01	1.0000e+01	1.5100e+00	1.9400e+00	1.0000e+01	1.0000e+01	1.9900e+00	2.4900e+00	2.4100e+00	2.9000e+00	1.0000e+01	2.9800e+00	




#DATA BEGINS
time	group	step	mark	flag	A-AC1	A-AC2	A-AC3	A-AC4	A-AC5	A-AC6	A-AC7	A-AC8	A-AC9	A-AC10	A-AC11	A-AC12	A-AC13	A-AC14	A-AC15	A-AC16	A-DC1	A-DC2	A-DC3	A-DC4	A-DC5	A-DC6	A-DC7	A-DC8	A-DC9	A-DC10	A-DC11	A-DC12	A-DC13	A-DC14	A-DC15	A-DC16	A-Ph1	A-Ph2	A-Ph3	A-Ph4	A-Ph5	A-Ph6	A-Ph7	A-Ph8	A-Ph9	A-Ph10	A-Ph11	A-Ph12	A-Ph13	A-Ph14	A-Ph15	A-Ph16	B-AC1	B-AC2	B-AC3	B-AC4	B-AC5	B-AC6	B-AC7	B-AC8	B-AC9	B-AC10	B-AC11	B-AC12	B-AC13	B-AC14	B-AC15	B-AC16	B-DC1	B-DC2	B-DC3	B-DC4	B-DC5	B-DC6	B-DC7	B-DC8	B-DC9	B-DC10	B-DC11	B-DC12	B-DC13	B-DC14	B-DC15	B-DC16	B-Ph1	B-Ph2	B-Ph3	B-Ph4	B-Ph5	B-Ph6	B-Ph7	B-Ph8	B-Ph9	B-Ph10	B-Ph11	B-Ph12	B-Ph13	B-Ph14	B-Ph15	B-Ph16	aux-1	digaux	

25709.189	1	1	0	256	0.17589	0.13024	0.1327	0.28201	0.14259	0.085718	0.08224	0.021527	0.10091	0.14908	0.12758	0.19894	0.24722	0.0337	0.080856	0.16336	-2.1354	-3.05	-2.7146	-2.9896	-3.2521	-2.7708	-2.9062	-2.9917	-2.55	-3.0938	-2.9104	-3.0563	-3.0563	-2.8312	-2.8479	-2.975	298.654	280.386	233.682	293.422	-60.203	173.463	53.980	7.753	120.505	-39.849	188.317	293.107	-56.452	123.063	183.932	259.198	0.00019405	0.00042648	0.00013015	727.96	3.2166e-06	4.589e-06	690.9	241.64	2.2973e-06	4.3646e-06	264.17	109.09	91.963	44.954	3.2101e-06	56.175	0.00030287	0.00021996	5.986e-05	709.35	2.6178e-06	3.134e-06	673.54	237.16	2.5387e-06	2.3847e-06	257.78	107.25	90.629	44.532	2.7563e-06	55.383	131.487	19.705	23.941	-48.378	65.277	99.565	-49.482	-43.285	78.804	96.974	-45.548	-41.585	-38.973	-34.307	83.632	-37.763	-8191	255	
25709.285	1	1	0	0	0.16123	0.23674	0.1848	0.22197	0.090909	0.21018	0.10377	0.23306	0.12173	0.13338	0.37365	0.37472	0.25753	0.22792	0.086242	0.084623	-2.1667	-2.9833	-2.7604	-2.8604	-3.0125	-2.7	-3.0875	-3.1542	-2.6958	-3.0042	-2.8792	-2.7583	-3.0792	-2.9521	-2.8875	-3.0792	105.979	259.897	3.152	270.100	232.545	242.559	203.562	224.088	11.114	78.252	162.273	289.441	243.212	255.757	157.361	200.858	0.00023112	0.00048877	0.00011377	725.97	2.7001e-06	4.1566e-06	693.14	242.57	2.7186e-06	3.8021e-06	264.81	109.44	92.321	45.49	3.0925e-06	56.833	0.00030673	0.00019977	5.8702e-05	705.67	2.4734e-06	3.3019e-06	673	237.89	2.6048e-06	2.1629e-06	258.21	107.93	91.466	45.154	2.6223e-06	55.971	138.103	21.899	24.287	-48.448	72.765	99.348	-49.559	-43.303	69.099	96.642	-45.698	-41.655	-39.128	-34.658	80.254	-38.156	-8191	255	
25709.383	1	1	0	0	0.15326	0.13911	0.15266	0.12591	0.12354	0.12541	0.1245	0.16896	0.25356	0.25205	0.16688	0.21876	0.22744	0.036085	0.18336	0.15947	-2.4833	-2.9583	-2.8312	-2.8438	-2.9062	-3.0062	-3.0229	-3.0062	-2.7667	-3.0917	-3.0312	-2.9229	-2.9854	-2.8792	-2.8354	-3.1562	-13.078	39.594	-6.406	220.194	239.055	212.658	246.497	204.315	70.399	14.590	239.326	236.496	258.549	225.992	285.807	239.910	0.00020643	0.00034636	0.00014588	721.85	2.9479e-06	5.4259e-06	688.74	243.17	2.7095e-06	3.2704e-06	264.21	110.14	93.544	45.775	2.8673e-06	57.199	0.00031056	0.00020193	6.3685e-05	702.59	2.3118e-06	3.5643e-06	671.56	238.78	2.6054e-06	2.0774e-06	258.13	108.52	92.13	45.528	2.6436e-06	56.438	136.000	40.314	22.268	-48.260	83.591	91.061	-49.431	-43.528	71.605	87.092	-45.423	-41.924	-39.002	-34.282	93.148	-37.857	-8191	255	
25709.479	1	1	0	0	0.16061	0.11578	0.12174	0.16786	0.14582	0.029259	0.20249	0.037469	0.10387	0.23771	0.0725	0.22447	0.21254	0.12952	0.12213	0.16207	-2.4521	-2.9604	-2.8937	-2.6479	-3.0917	-2.9667	-2.8688	-3.1292	-2.8792	-2.9875	-3.05	-2.75	-3.1771	-3.1167	-2.8667	-3.3146	-7.045	53.975	172.460	261.550	140.552	252.666	274.787	292.057	102.804	297.830	206.248	-12.394	246.097	30.150	65.680	244.780	0.00020457	0.00035802	0.00011796	723.01	3.4925e-06	4.6845e-06	687.29	243.87	2.7271e-06	4.5805e-06	265.06	110.52	92.658	45.76	2.4481e-06	56.627	0.00035144	0.00021996	6.1262e-05	704.41	2.3267e-06	3.263e-06	669.96	239.13	2.535e-06	2.1972e-06	259.34	108.45	91.319	45.335	2.6363e-06	55.951	142.313	26.160	40.704	-48.153	80.329	113.871	-49.573	-43.133	73.368	73.343	-45.763	-41.819	-39.283	-34.215	97.547	-38.013	-8191	255	
25709.574	1	1	0	0	0.22036	0.19795	0.089836	0.1258	0.11957	0.26058	0.14603	0.11586	0.30279	0.12198	0.15042	0.074279	0.2767	0.046963	0.098686	0.17494	-2.1625	-2.8333	-3.0771	-2.7146	-2.9688	-2.8812	-3.0271	-3.0375	-2.9479	-2.8583	-2.9708	-2.8688	-3.0958	-3.1479	-2.7375	-3.3042	112.933	-15.874	93.325	287.208	241.783	142.716	-15.790	-7.987	135.944	198.092	276.433	-23.061	279.333	257.510	148.056	218.118	0.00019164	0.00055493	0.00012241	723.32	2.9679e-06	4.2755e-06	687.36	242.89	1.4434e-06	5.487e-06	264.44	109.91	91.531	45.287	3.1339e-06	56.154	0.00034122	0.00021292	6.0774e-05	703.14	2.1764e-06	3.5847e-06	671.64	237.63	2.2603e-06	2.1141e-06	258.63	108.21	90.851	44.859	2.8185e-06	55.535	140.708	33.871	26.536	-48.306	90.427	94.590	-49.361	-43.382	74.379	96.660	-46.038	-41.775	-38.976	-34.905	91.678	-37.974	-8191	255	
25709.695	1	1	0	0	0.24672	0.22515	0.20366	0.22808	0.14217	0.10347	0.12849	0.15707	0.074255	0.046248	0.06343	0.13156	0.48007	0.30334	0.17292	0.19263	-2.3458	-2.8688	-2.9417	-2.9396	-2.9521	-3.0146	-2.9021	-3.175	-2.8229	-2.7729	-3.25	-2.8521	-3.0167	-3	-2.8937	-3.2854	180.472	124.878	-58.632	277.009	260.079	112.666	287.490	269.409	165.581	4.582	264.136	17.418	237.107	272.548	223.515	-19.289	0.00021271	0.00040903	0.00011671	720.41	2.8083e-06	4.3346e-06	687.78	241.8	1.9667e-06	4.8462e-06	261.95	108.42	92.552	45.191	3.5755e-06	55.847	0.00034552	0.00021373	5.9281e-05	702.28	2.1935e-06	3.3495e-06	669.41	236.56	2.3889e-06	2.2821e-06	255.25	107.27	91.177	44.738	2.8583e-06	55.017	133.643	17.646	29.231	-48.178	95.936	83.060	-49.536	-43.501	87.828	98.718	-45.687	-41.835	-39.267	-34.592	89.807	-38.125	-8191	255	
25709.789	1	1	0	0	0.10866	0.13843	0.14244	0.15359	0.14052	0.14924	0.17393	0.20092	0.26679	0.18854	0.14951	0.070718	0.20474	0.070928	0.19427	0.079859	-2.575	-2.6771	-2.9729	-2.7354	-3.0125	-2.9479	-2.8125	-2.9917	-2.65	-2.9417	-3.1979	-2.7875	-2.9417	-3.1354	-2.7188	-3.0833	3.258	267.146	58.491	251.502	224.078	187.904	171.218	161.446	162.202	258.808	74.916	209.821	275.396	187.339	271.384	80.941	0.00020016	0.00032983	0.00010474	725.3	3.37e-06	4.9733e-06	686.89	241.22	2.9035e-06	3.5629e-06	258.68	107.43	91.871	44.791	2.3753e-06	55.43	0.00034979	0.00021287	5.4404e-05	704.49	2.3401e-06	3.3099e-06	669.08	236.56	2.6191e-06	2.1581e-06	254.14	106.25	90.757	44.43	2.6773e-06	54.597	132.089	30.129	30.480	-48.048	86.359	100.348	-49.476	-43.259	59.433	84.390	-45.770	-42.015	-39.161	-34.404	83.670	-38.284	-8191	255	
25709.887	1	1	0	0	0.052861	0.11167	0.23362	0.21283	0.034147	0.15522	0.15156	0.25387	0.10663	0.029404	0.23865	0.1259	0.038162	0.23188	0.11308	0.17433	-2.6729	-2.7687	-2.9417	-3.0333	-2.9521	-3.2583	-2.8146	-3.2375	-2.7708	-2.8208	-3.2979	-2.8417	-3.0312	-3.1958	-2.7833	-3.2396	38.427	57.568	208.308	194.913	85.798	-3.386	189.518	210.981	-27.051	15.675	243.584	153.848	264.212	281.577	-25.453	170.990	0.0002021	0.0003606	0.00014687	727.42	2.8581e-06	3.6361e-06	683.48	241.59	1.9642e-06	4.0346e-06	263.33	108.61	92.208	45.188	2.9641e-06	55.992	0.00035566	0.00022202	6.0256e-05	704.63	2.2759e-06	2.8685e-06	665.03	236.44	2.4799e-06	2.268e-06	256.15	107.17	90.979	44.69	2.4883e-06	55.185	129.980	24.243	33.199	-48.371	61.663	83.543	-49.653	-43.248	51.982	92.727	-46.284	-41.896	-39.057	-34.260	97.618	-38.222	-8191	255	
25709.982	1	1	0	0	0.083205	0.16136	0.036513	0.22843	0.02694	0.096356	0.21016	0.32629	0.028984	0.037371	0.16864	0.040144	0.10438	0.11741	0.23998	0.13565	-2.6021	-2.6771	-3.0396	-2.95	-2.8396	-3.1167	-2.8167	-2.9708	-2.95	-2.7771	-3.2979	-2.8479	-2.8771	-3.1708	-2.9833	-3.2	-8.981	225.770	258.215	12.316	293.049	285.767	127.316	203.622	288.364	196.031	279.480	68.613	-48.867	31.811	108.820	18.001	0.00020896	0.00037997	0.00011861	724.14	3.4507e-06	3.6312e-06	687.97	242.97	2.4693e-06	2.4886e-06	261.75	108.45	92.672	44.668	3.373e-06	55.294	0.00034505	0.00021097	5.1067e-05	704.92	2.4568e-06	2.1844e-06	670.07	237.8	2.3789e-06	2.243e-06	256.14	107.22	91.261	44.381	2.323e-06	54.623	142.213	37.021	46.414	-48.396	72.468	97.990	-49.703	-43.483	59.511	89.325	-45.992	-41.915	-39.033	-34.548	94.363	-38.094	-8191	255	
25710.078	1	1	0	0	0.055185	0.029282	0.074874	0.18273	0.22291	0.047998	0.19736	0.18011	0.022706	0.30608	0.059594	0.13976	0.22831	0.10872	0.22183	0.24815	-2.5146	-2.8271	-3.0479	-3.0146	-2.6458	-3.1583	-2.8896	-3.1813	-2.9146	-2.9229	-3.0479	-2.9417	-3.0104	-3.0792	-2.9062	-3.0958	-53.368	36.558	78.033	215.977	140.687	29.724	202.158	207.598	-52.255	255.268	24.645	293.916	291.170	267.300	105.190	22.978	0.00020457	0.00044941	0.00010552	722.3	3.7869e-06	3.8864e-06	685.21	241.25	2.5944e-06	3.7601e-06	260.21	107.31	92.071	44.303	2.2384e-06	54.929	0.00036144	0.00021363	5.2255e-05	704.06	2.353e-06	2.0554e-06	668.27	236.68	2.3593e-06	2.2222e-06	253.62	106.31	90.895	44.071	2.4424e-06	54.08	132.573	16.307	29.991	-48.324	87.396	100.911	-49.681	-43.301	78.965	82.623	-45.758	-41.913	-39.287	-34.850	99.766	-38.148	-8191	255	
25710.174	1	1	0	0	0.20374	0.070665	0.19828	0.22442	0.29141	0.14632	0.043973	0.37601	0.10204	0.086604	0.12278	0.062072	0.059694	0.088633	0.18625	0.18196	-2.7646	-2.7417	-3.0875	-2.8708	-2.7729	-3.0833	-3.0312	-2.8792	-3.1188	-2.7375	-3.1271	-2.9354	-2.8875	-3.1667	-2.7521	-2.8812	226.759	-43.868	273.839	151.115	287.506	210.258	243.952	257.235	44.812	64.663	59.024	285.396	172.458	131.707	106.747	7.794	0.00020534	0.0003847	0.00010511	728.46	3.4395e-06	3.9015e-06	688.96	243.62	1.8043e-06	4.3517e-06	262.14	108.32	92.615	44.752	3.3439e-06	55.303	0.00031427	0.0002342	5.4115e-05	708.9	2.4215e-06	2.0072e-06	669.76	238.69	2.2487e-06	2.1159e-06	255.12	106.6	91.187	44.189	2.4418e-06	54.424	136.352	35.732	39.505	-48.372	85.759	90.749	-49.876	-43.437	79.341	106.811	-45.812	-42.095	-39.140	-34.503	78.628	-38.304	-8191	255	
25710.295	1	1	0	0	0.15744	0.070926	0.15009	0.1301	0.21366	0.12714	0.15471	0.20043	0.2744	0.23027	0.10436	0.32361	0.24302	0.26937	0.33706	0.17487	-2.6167	-2.7833	-2.8833	-2.7708	-2.6771	-3.2167	-2.8229	-3.0521	-3.2458	-2.7188	-3.0896	-3.0687	-2.6813	-3.1604	-2.7917	-2.7729	72.029	-2.419	-12.323	184.719	24.815	-43.095	213.503	-15.255	-48.075	198.481	174.045	264.081	182.639	264.301	254.899	269.545	0.00019775	0.00053241	0.00012844	727.9	3.1893e-06	4.7023e-06	685.04	243.3	1.6147e-06	3.9817e-06	261.17	108.77	92.423	45.186	2.397e-06	56.119	0.00028604	0.00029575	5.5471e-05	706.94	2.377e-06	2.0844e-06	667.59	236.92	2.309e-06	1.9937e-06	255.32	107.3	91.38	44.62	2.4917e-06	55.2	134.620	32.696	25.608	-48.361	94.014	82.164	-49.527	-43.295	72.349	93.564	-45.840	-41.871	-39.216	-34.519	86.851	-37.995	-8191	255	
25710.391	1	1	0	0	0.23903	0.096131	0.026021	0.26369	0.43893	0.044176	0.15783	0.14684	0.17908	0.10155	0.16023	0.23894	0.088187	0.10551	0.18687	0.24056	-2.4958	-2.6229	-3	-3.0062	-2.6167	-3.0687	-3.0083	-2.7396	-3.1437	-2.6979	-2.8833	-3.0938	-2.8438	-3.1479	-2.9354	-2.8646	-27.683	286.652	198.930	-60.852	109.407	-20.680	277.656	219.996	209.660	173.703	244.435	-42.529	234.052	-15.862	-47.782	174.689	0.00020642	0.00030553	0.00012413	728.41	2.4498e-06	4.3592e-06	685.05	243.92	3.0568e-06	4.3069e-06	264.04	109.77	92.487	45.373	2.4354e-06	56.262	0.00029013	0.00027892	5.3947e-05	707.44	2.2363e-06	1.9794e-06	670.16	238.87	2.4805e-06	1.9833e-06	257.04	108.05	91.549	44.825	2.4783e-06	55.352	135.434	38.546	35.764	-48.467	71.618	112.118	-49.717	-43.390	67.704	79.816	-46.002	-41.886	-38.896	-34.688	85.538	-38.200	-8191	255	
25710.486	1	1	0	0	0.26955	0.15308	0.078622	0.34491	0.33036	0.16366	0.21675	0.20453	0.13135	0.10609	0.25248	0.081473	0.19677	0.055406	0.089013	0.12474	-2.6729	-2.6417	-2.9104	-3.2375	-2.7104	-3.0542	-3.0542	-2.7396	-2.9	-2.7896	-3.025	-3.0354	-2.8271	-3.0687	-2.8937	-2.9479	210.163	107.251	11.014	-4.066	238.916	-17.222	80.241	201.106	21.178	195.690	279.013	233.547	292.112	30.186	241.769	233.132	0.0002053	0.00043479	0.00011782	726.87	2.996e-06	4.7984e-06	685.27	243.42	2.8807e-06	4.7105e-06	262.59	110.06	93.031	45.389	2.7722e-06	56.323	0.00027657	0.00029088	5.9189e-05	704.07	2.2925e-06	1.9523e-06	665.86	238.09	2.2915e-06	2.0572e-06	256.24	108.06	91.865	45.063	2.2871e-06	55.572	141.321	27.480	50.085	-48.192	64.048	99.760	-49.440	-43.452	73.814	85.758	-45.648	-42.169	-39.007	-34.571	82.406	-38.352	-8191	255	
25710.582	1	1	0	0	0.052725	0.10355	0.15648	0.15532	0.28292	0.15751	0.32508	0.09418	0.16397	0.096659	0.043219	0.21797	0.19666	0.093376	0.2127	0.27604	-2.7083	-2.8042	-2.7292	-3.0917	-2.7812	-3.05	-3.0375	-2.825	-2.9271	-3.0312	-2.9167	-3.3479	-2.6917	-3.0917	-2.9479	-2.8354	35.580	77.848	-5.713	223.886	0.851	292.013	235.752	235.266	-23.182	45.419	142.462	270.322	65.541	180.561	191.877	151.921	0.00020917	0.00041688	0.00010562	726.59	2.9889e-06	3.4014e-06	682.07	244.25	2.5494e-06	4.763e-06	264.41	110.52	94.148	46.359	1.8848e-06	57.173	0.00029072	0.00028509	5.7833e-05	703.6	2.2502e-06	2.0585e-06	666.49	239.41	2.2926e-06	2.0536e-06	258.66	109.15	93.105	45.83	2.4071e-06	56.344	134.725	28.391	21.597	-48.073	81.995	88.778	-49.822	-43.370	70.365	88.419	-45.999	-41.842	-39.334	-34.391	91.790	-38.359	-8191	255	
25710.680	1	1	0	0	0.18842	0.1791	0.12395	0.20056	0.19195	0.20011	0.14863	0.2772	0.16211	0.13673	0.21486	0.089882	0.20206	0.1869	0.18613	0.061524	-2.7104	-3.0062	-2.7333	-3.1021	-2.6354	-3.0333	-3.225	-2.9979	-2.9333	-3.0229	-2.8896	-3.2479	-2.8208	-3.2104	-2.9625	-2.8729	84.489	295.694	-15.430	26.618	251.149	70.669	1.694	236.281	49.300	153.955	185.864	220.088	230.961	-18.924	-60.819	16.945	0.00022658	0.00037651	0.00010534	726.2	3.3727e-06	4.1015e-06	689.3	245.29	2.2581e-06	4.2037e-06	266.03	110.73	94.071	46.274	3.0993e-06	57.133	0.00029447	0.00031248	5.9113e-05	707.81	2.1903e-06	2.1646e-06	671.24	241.09	2.246e-06	2.0823e-06	260.04	109.3	93.124	45.842	2.3661e-06	56.361	132.483	14.670	23.020	-48.190	85.632	93.828	-49.511	-43.402	65.717	94.294	-45.810	-42.206	-39.277	-34.388	89.628	-38.110	-8191	255	
25710.775	1	1	0	0	0.17983	0.23525	0.12853	0.32993	0.11971	0.024694	0.10229	0.29156	0.062841	0.043102	0.11065	0.15693	0.010521	0.028566	0.075443	0.17622	-2.6	-2.8771	-2.5979	-3.2083	-2.9333	-2.9396	-3.0896	-2.8792	-2.9646	-2.9562	-2.7125	-3.1417	-2.9396	-2.9354	-3.0792	-2.8083	28.017	2.975	294.976	218.151	175.235	234.900	240.703	214.394	148.045	128.889	255.387	-28.632	107.692	113.390	15.160	226.257	0.00020025	0.00053146	0.00011717	726.68	3.4632e-06	4.5999e-06	685	245.55	2.1985e-06	4.4304e-06	265.9	110.04	93.672	46.358	2.542e-06	57.097	0.00029087	0.00028601	5.8199e-05	707.78	2.2395e-06	2.0603e-06	667.72	240.83	2.2593e-06	2.1391e-06	258.75	108.78	92.965	45.869	2.3387e-06	56.281	129.923	28.911	22.957	-48.265	76.169	71.089	-49.531	-43.442	84.381	83.593	-46.151	-41.722	-39.515	-34.570	85.460	-38.323	-8191	255	
25710.871	1	1	0	0	0.30644	0.24606	0.076965	0.17731	0.14967	0.11649	0.33868	0.18714	0.033476	0.042282	0.080694	0.056231	0.34913	0.2253	0.021385	0.036652	-2.6229	-3.2104	-2.7	-3.225	-2.9771	-2.825	-3.1229	-2.8458	-2.8958	-3.0396	-2.8521	-3.0458	-2.925	-2.8521	-3.0417	-2.9854	215.972	-61.150	35.375	-27.262	223.707	79.796	229.094	272.786	199.425	-24.326	25.317	289.866	296.285	195.260	108.661	270.822	0.00022565	0.00063771	9.7347e-05	724.47	2.2979e-06	4.5439e-06	683.43	245.36	2.0011e-06	4.7237e-06	264.83	110.3	94.227	46.392	2.897e-06	57.31	0.00029824	0.00030285	5.6446e-05	705.95	2.1314e-06	2.0875e-06	666	241.18	2.2942e-06	2.0475e-06	259.2	108.83	93.363	46.086	2.2798e-06	56.424	133.945	25.846	14.047	-47.992	93.073	97.008	-49.566	-43.539	80.509	87.266	-46.213	-42.089	-39.027	-34.368	90.519	-38.125	-8191	255	
25710.969	1	1	0	0	0.057584	0.17044	0.12238	0.2846	0.23869	0.22472	0.1494	0.13584	0.12811	0.1639	0.14977	0.31723	0.15908	0.14214	0.033897	0.10425	-2.5354	-2.8438	-2.8542	-3.0167	-2.8917	-2.7062	-3.2229	-2.8875	-2.8937	-3.0417	-2.975	-3.1667	-2.9833	-2.8958	-3.0771	-2.9813	294.192	-3.979	234.359	261.586	29.164	-5.454	248.046	227.860	202.186	67.200	176.009	5.670	134.711	239.529	278.583	292.829	0.00019979	0.0003906	8.4021e-05	724.06	2.9132e-06	4.3289e-06	685.6	246.19	1.8183e-06	4.6228e-06	266.03	110.52	94.807	46.633	2.8254e-06	57.563	0.00029464	0.00022505	6.5773e-05	705.25	2.2283e-06	2.0041e-06	666.65	241.74	2.3254e-06	2.1141e-06	259.88	109.22	93.598	46.18	2.332e-06	56.704	136.218	15.836	43.702	-48.290	81.861	90.005	-49.459	-43.546	79.551	86.183	-46.153	-41.659	-38.780	-34.612	95.980	-38.209	-8191	255	
25711.088	1	1	0	0	0.13579	0.25162	0.038289	0.030201	0.14232	0.42157	0.045182	0.17554	0.10138	0.085277	0.055759	0.095156	0.3749	0.2234	0.1103	0.2452	-2.4313	-2.8896	-2.6312	-2.925	-2.8479	-2.6583	-3.0625	-2.8542	-2.6583	-3.3146	-2.6646	-3.0438	-2.9979	-2.7521	-3.1125	-2.9792	289.078	46.187	207.839	121.529	125.957	1.771	122.700	37.891	184.817	80.366	53.018	243.882	250.644	233.148	267.871	-33.342	0.00021855	0.00032139	0.00012872	727.24	3.1628e-06	5.8721e-06	686.4	247.66	2.7586e-06	4.0303e-06	268.63	111.57	94.378	46.76	2.8299e-06	57.961	0.00030782	0.00019083	8.6787e-05	706.22	2.2422e-06	2.1554e-06	668.5	242.5	2.4223e-06	1.9943e-06	261.1	109.85	93.755	46.347	2.305e-06	56.962	138.071	35.893	21.390	-48.214	70.832	85.718	-49.567	-43.449	83.221	86.851	-45.725	-42.024	-38.980	-34.709	89.412	-38.026	-8191	255	
25711.184	1	1	0	0	0.16312	0.42645	0.26819	0.072067	0.13624	0.040377	0.32549	0.19571	0.09815	0.080865	0.11432	0.063514	0.13061	0.19123	0.17504	0.29819	-2.3521	-3.0563	-2.7313	-3.0521	-2.9958	-2.575	-3.1625	-2.9792	-2.775	-3.2542	-3.1958	-2.9437	-3.1562	-2.7771	-3.1312	-2.9917	74.723	39.792	102.482	282.015	184.704	79.132	178.021	255.262	242.141	24.137	-45.501	273.230	12.600	263.701	133.047	272.390	0.00021551	0.00049269	0.00013679	723.64	4.4546e-06	4.0378e-06	683.43	246.82	2.2347e-06	3.8931e-06	266.81	110.7	94.416	46.504	2.6336e-06	57.539	0.00028975	0.00018039	7.8833e-05	703.9	2.2914e-06	2.0554e-06	665.76	242.21	2.2905e-06	1.9057e-06	259.4	109.26	93.589	46.355	2.3034e-06	56.725	136.190	28.848	40.185	-48.127	82.146	101.918	-49.667	-43.450	56.622	104.108	-46.083	-42.100	-39.165	-34.803	82.564	-38.363	-8191	255	
25711.256	1	1	0	0	0.12737	0.077343	0.11928	0.24021	0.17509	0.046444	0.17838	0.086816	0.12391	0.053941	0.21512	0.067615	0.08936	0.21269	0.27507	0.20972	-2.5667	-2.9313	-2.8458	-2.8729	-3.0062	-2.7042	-3.1396	-2.9771	-2.7521	-3.2562	-2.7354	-2.8958	-3.2687	-2.8646	-2.9604	-3.0479	-51.372	118.549	166.016	261.896	262.295	242.312	176.015	143.534	34.990	78.652	211.435	37.885	195.730	287.710	-41.732	260.045	0.00021532	0.00040504	8.9943e-05	722.36	3.063e-06	5.6643e-06	683.56	247.69	2.2744e-06	5.0393e-06	267.42	111.96	95.065	46.927	2.7581e-06	57.763	0.00029927	0.00018575	8.3557e-05	704.07	2.1041e-06	2.1968e-06	665.44	242.83	2.4461e-06	1.8257e-06	259.99	109.51	93.776	46.59	2.3661e-06	56.989	132.376	25.114	45.581	-48.153	73.677	100.351	-49.457	-43.005	73.416	84.016	-46.019	-42.188	-39.297	-34.691	88.692	-38.176	-8191	255	
25711.375	1	1	0	0	0.28475	0.19954	0.078457	0.19418	0.24313	0.098685	0.18502	0.082887	0.12059	0.21695	0.22921	0.20239	0.19164	0.26558	0.1104	0.12945	-2.4562	-2.9542	-2.9646	-3.0833	-3.2917	-2.7625	-3.0854	-3.0833	-2.6667	-3.0625	-3.0146	-2.8396	-3.45	-2.7896	-2.9083	-3.1958	60.424	235.015	276.943	-57.954	40.676	207.366	253.736	45.513	142.603	-24.056	262.129	287.197	-22.339	296.240	-60.227	65.844	0.00021166	0.00039366	0.00014617	725.14	3.5213e-06	4.0693e-06	687.38	248.12	2.1625e-06	4.1048e-06	268.62	111.78	95.08	47.458	2.748e-06	58.256	0.00029909	0.00018889	7.8116e-05	705.54	2.194e-06	1.9813e-06	667.33	243.26	2.3947e-06	1.7261e-06	260.79	110.02	94.321	46.974	2.4082e-06	57.454	136.276	33.778	45.050	-48.352	94.828	91.731	-49.826	-43.243	67.623	89.738	-46.237	-42.051	-39.021	-34.493	75.996	-38.336	-8191	255	
25711.471	1	1	0	0	0.16151	0.1031	0.23588	0.091663	0.14973	0.075851	0.19482	0.08324	0.056404	0.32027	0.25345	0.31742	0.024961	0.19546	0.15742	0.10517	-2.3958	-3.1104	-2.9896	-2.925	-2.9313	-2.8271	-2.9708	-3.0438	-2.7729	-3.1604	-2.9354	-2.7458	-3.2625	-2.9875	-2.9375	-3.2917	69.440	219.999	-1.841	-44.372	262.866	256.683	190.931	266.952	112.264	281.609	216.600	-13.565	-13.258	224.516	177.572	-55.294	0.00021767	0.00039662	0.00011508	725.01	3.0377e-06	4.9246e-06	688.83	250.84	1.725e-06	4.5865e-06	271.04	113.25	96.828	47.892	2.2393e-06	58.659	0.00030481	0.00018401	8.6711e-05	707.34	2.1255e-06	2.1628e-06	670.39	246.01	2.9166e-06	2.0591e-06	264.28	111.29	95.545	47.466	2.3718e-06	57.918	140.762	17.380	26.833	-48.229	85.105	84.640	-49.649	-43.195	73.289	91.577	-45.817	-41.840	-38.869	-34.722	106.286	-38.242	-8191	255	
25711.566	1	1	0	0	0.14204	0.12448	0.086172	0.11973	0.1153	0.26432	0.0049062	0.14581	0.20845	0.1418	0.09053	0.13991	0.49436	0.30733	0.090844	0.10018	-2.2458	-3.1875	-2.8937	-3.0271	-3.1146	-2.9667	-2.9354	-3.2958	-2.6188	-3.0187	-2.95	-2.8667	-3.2479	-2.9104	-2.8542	-3.2	-54.644	78.759	197.380	227.317	-4.554	49.721	269.197	196.948	-61.244	38.861	-22.270	-10.648	277.727	241.166	267.857	232.770	0.00022018	0.0004017	0.00010979	730.53	3.3845e-06	5.101e-06	689.17	251.88	2.6049e-06	4.3288e-06	270.76	112.16	96.327	48.006	2.4067e-06	58.335	0.00029066	0.00019262	8.5172e-05	709.69	2.1164e-06	2.093e-06	671.39	246.53	3.4601e-06	1.9515e-06	264.1	110.77	95.43	47.596	2.4216e-06	57.532	138.213	32.134	38.886	-48.013	78.166	87.223	-49.451	-43.272	71.621	82.600	-46.099	-42.020	-39.031	-34.600	103.169	-38.073	-8191	255	
25711.688	1	1	0	0	0.1888	0.22486	0.23109	0.13086	0.19743	0.062157	0.19324	0.10799	0.083464	0.072285	0.25512	0.19401	0.16929	0.089217	0.2753	0.10859	-2.4083	-2.9542	-3.1125	-2.7667	-3.1917	-2.9104	-2.9646	-3.3	-2.8229	-3.0667	-2.9708	-2.7625	-3.1792	-2.8771	-2.8458	-3.1917	103.713	198.818	295.526	210.179	29.781	218.717	16.764	245.216	196.060	121.974	-15.744	228.549	18.277	233.099	67.200	295.202	0.00022534	0.00052402	0.00012861	730.74	2.7733e-06	4.5578e-06	690.82	252.36	2.3907e-06	4.7867e-06	270.6	112.12	95.908	47.859	3.0139e-06	58.139	0.00030676	0.00020973	8.2901e-05	709.75	2.0437e-06	2.0998e-06	672.24	246.64	3.1367e-06	2.1049e-06	263.38	110.2	95.075	47.372	2.439e-06	57.277	138.091	30.205	38.813	-48.339	78.501	86.716	-49.849	-43.156	69.879	88.327	-45.685	-41.714	-38.955	-34.706	87.923	-38.042	-8191	255	
25711.783	1	1	0	0	0.37544	0.24327	0.12627	0.054552	0.32051	0.1238	0.24606	0.31163	0.10123	0.060983	0.14186	0.25105	0.20663	0.28749	0.069788	0.044639	-2.3167	-2.8667	-2.9562	-2.9104	-3.1667	-2.9333	-2.9	-3.0729	-2.9208	-3.0438	-3.1562	-2.6146	-3.2021	-2.9625	-2.7958	-3.2208	273.843	24.958	-26.778	147.786	98.428	67.188	197.545	295.659	148.313	241.275	278.040	276.712	276.165	285.365	202.724	247.033	0.00021542	0.00053235	9.06e-05	731.51	3.5879e-06	4.0539e-06	695.8	251.45	7.2293e-07	3.7165e-06	269.01	111.61	95.614	47.396	2.4038e-06	57.592	0.00030048	0.00020854	6.2633e-05	713.03	2.0736e-06	2.0875e-06	675.52	246.43	3.431e-06	1.9497e-06	262.89	109.7	94.652	46.884	2.4424e-06	56.748	133.302	24.406	17.380	-48.399	72.326	97.510	-49.547	-43.169	64.007	91.598	-45.933	-42.040	-39.008	-34.429	92.943	-38.102	-8191	255	
25711.879	1	1	0	0	0.20676	0.13528	0.25133	0.28619	0.16081	0.06177	0.30951	0.22611	0.18971	0.030048	0.22363	0.21656	0.22667	0.078895	0.14296	0.069135	-2.3729	-2.6937	-2.95	-2.7313	-3.0896	-3.0146	-2.8	-3.1458	-2.8396	-2.8583	-3.0771	-2.8854	-2.8479	-3.1771	-2.7938	-3.1667	138.479	124.584	255.132	-57.847	-55.983	276.962	186.858	288.441	187.511	-61.193	-35.162	35.635	-32.357	-20.028	69.140	245.060	0.00020827	0.00047119	9.968e-05	729.8	3.0464e-06	4.1001e-06	689.32	249.98	2.1652e-06	4.1817e-06	268.8	110.81	95.77	47.289	2.5386e-06	57.337	0.0003034	0.00018602	5.3292e-05	711.16	2.0998e-06	1.9449e-06	673.58	245.84	3.1944e-06	1.9882e-06	262.28	109.06	94.759	46.781	2.5859e-06	56.584	131.775	36.910	30.209	-48.343	84.803	79.086	-49.559	-43.264	39.478	92.204	-45.772	-41.769	-39.113	-34.672	84.227	-38.066	-8191	255	
25711.975	1	1	0	0	0.11623	0.088343	0.13286	0.36759	0.18777	0.28596	0.16091	0.2207	0.057479	0.065515	0.07331	0.38853	0.10966	0.2171	0.26937	0.17465	-2.3521	-2.7125	-3.1042	-2.7854	-2.85	-2.9	-2.8	-3.2604	-2.9583	-2.8375	-3.2812	-2.9188	-2.9667	-3.2313	-2.8521	-3.1604	-22.394	42.676	97.230	236.984	137.460	-0.275	157.034	232.329	93.869	-51.010	111.491	213.514	283.598	161.443	22.345	17.295	0.0002067	0.00037503	0.00010503	726.95	3.4223e-06	3.3008e-06	685.79	248.17	1.5845e-06	4.5294e-06	266.25	110.12	95.504	47.059	3.6275e-06	56.792	0.00029824	0.00020491	5.0411e-05	707.91	2.2454e-06	1.9708e-06	666.88	243.96	3.3976e-06	2.1012e-06	260.52	108.49	94.266	46.528	2.9435e-06	55.956	130.663	18.437	38.549	-48.349	89.575	87.566	-49.583	-43.065	55.637	76.902	-45.893	-41.914	-39.129	-34.506	91.540	-38.137	-8191	255	
25712.070	1	1	0	0	0.21077	0.30037	0.10277	0.35351	0.22134	0.12092	0.056982	0.331	0.081376	0.044954	0.28422	0.21705	0.23407	0.13117	0.18396	0.049549	-2.4938	-2.7854	-2.8896	-2.9708	-2.8833	-3.1646	-2.7208	-2.9625	-2.9875	-2.7604	-3.0312	-2.9292	-2.8083	-3.1083	-2.7333	-3.2313	173.356	91.918	29.628	-5.911	117.915	64.008	-55.962	270.909	285.561	162.811	-0.933	277.710	-41.998	-48.825	272.511	265.437	0.00021868	0.00047405	0.00013355	727.22	3.3379e-06	5.2353e-06	684.83	249.28	1.6929e-06	3.9106e-06	267.19	110.16	94.294	46.56	3.0319e-06	56.482	0.00030411	0.00019625	5.4419e-05	707.5	2.1683e-06	1.972e-06	668.53	243.92	3.2394e-06	2.2253e-06	259.85	108.25	93.404	46.053	3.6868e-06	55.62	138.189	19.030	36.485	-48.482	89.478	105.759	-49.967	-43.471	55.812	92.454	-45.633	-42.041	-39.120	-34.873	70.852	-38.022	-8191	255	
25712.168	1	1	0	0	0.13617	0.1575	0.089844	0.27642	0.091236	0.44644	0.27391	0.17582	0.12085	0.15136	0.24337	0.13367	0.22067	0.12317	0.20055	0.13951	-2.6521	-2.4292	-2.9271	-3.0125	-2.6583	-2.9771	-2.8479	-3.0438	-2.9938	-2.7542	-3.0146	-2.9479	-2.7292	-3.05	-2.7333	-3.0354	272.302	99.510	-1.492	61.273	215.851	231.446	226.284	237.382	137.988	257.173	246.975	47.610	277.403	-12.731	298.168	-43.611	0.00021618	0.00039594	0.00013852	722.81	2.7088e-06	4.4621e-06	683.41	247.13	2.3307e-06	3.5445e-06	265.39	108.5	93.472	46.007	4.5915e-06	56.109	0.00028757	0.00019977	5.2179e-05	704.55	2.11e-06	1.9942e-06	666.23	241.52	3.3024e-06	2.1575e-06	258.18	107.32	92.399	45.547	3.5288e-06	55.385	134.227	15.147	26.219	-48.243	76.270	102.450	-49.847	-43.414	86.641	102.978	-45.774	-41.921	-39.166	-34.436	99.494	-37.935	-8191	255	
25712.264	1	1	0	0	0.12198	0.26634	0.20537	0.28484	0.067342	0.1229	0.31062	0.23307	0.2133	0.30278	0.28369	0.26885	0.16383	0.26373	0.21535	0.10284	-2.7396	-2.7396	-3.0458	-2.9708	-2.9167	-3.1625	-2.8083	-2.9479	-3.05	-2.7438	-2.9396	-2.8083	-2.85	-3.2521	-3.0521	-3.0646	75.990	261.523	254.491	292.751	65.243	202.286	183.315	262.497	116.274	58.263	290.342	288.645	137.012	290.039	271.717	251.010	0.00021832	0.00044792	0.00013248	720.5	3.5576e-06	4.9602e-06	680.5	244.24	1.959e-06	4.5803e-06	262.6	107.94	92.022	45.628	2.1508e-06	55.524	0.0002919	0.00019322	5.509e-05	702.39	2.2085e-06	2.0554e-06	661.53	240.08	2.4466e-06	2.9194e-06	255.93	106.54	91.473	45.23	3.4363e-06	54.632	137.400	22.328	39.525	-48.192	80.002	89.954	-49.895	-43.178	92.926	83.830	-46.075	-42.058	-39.097	-34.580	80.627	-37.989	-8191	255	
25712.385	1	1	0	0	0.14038	0.081272	0.069844	0.26626	0.10577	0.29442	0.042845	0.025659	0.078251	0.21929	0.28544	0.15446	0.15615	0.16307	0.12389	0.19462	-2.5146	-2.7167	-2.9688	-3.0375	-2.6708	-3.0438	-3.075	-2.9583	-2.9854	-2.6417	-3.1188	-2.975	-2.7229	-2.9917	-2.8375	-2.9813	142.987	-24.375	7.713	269.367	244.684	177.698	-38.554	11.798	249.469	-0.656	3.473	259.263	-41.375	254.199	26.245	-36.445	0.00021462	0.00051278	0.00014203	714.77	2.9861e-06	4.6577e-06	667.64	240.63	2.8502e-06	3.6467e-06	257.86	106.83	91.025	44.7	3.3567e-06	54.443	0.00028111	0.0001949	5.6553e-05	697.11	2.2449e-06	2.0245e-06	653.12	236.64	2.426e-06	3.3129e-06	251.69	105.11	90.239	44.368	3.3118e-06	53.716	135.123	25.451	24.389	-48.230	85.895	91.539	-49.488	-43.605	58.152	83.884	-46.122	-41.926	-39.323	-34.687	79.727	-38.134	-8191	255	
25712.480	1	1	0	0	0.16566	0.14014	0.048021	0.27661	0.15199	0.048376	0.072343	0.089546	0.038969	0.10063	0.15775	0.074251	0.059951	0.073241	0.018407	0.14339	-2.9271	-2.7021	-2.9813	-3.0896	-2.8646	-3.1875	-2.8812	-2.8875	-3.0875	-2.8979	-3.2146	-3.1479	-2.7646	-3.0958	-2.9917	-2.9708	138.379	206.519	-53.690	-54.739	-13.327	-48.936	247.676	-44.292	107.287	233.037	245.057	-50.369	-5.194	184.169	-40.916	112.939	0.00019907	0.00038229	0.00011775	710.92	2.1516e-06	5.0327e-06	669.61	238.01	1.9606e-06	3.8309e-06	255.69	106.78	90.323	44.401	2.6546e-06	54.756	0.00027596	0.00020664	5.3261e-05	690.64	2.2871e-06	1.9591e-06	648.62	233.07	2.1936e-06	2.9744e-06	250	105.12	89.257	43.975	3.4598e-06	53.758	132.473	39.414	22.667	-48.352	91.365	108.852	-49.703	-43.280	67.870	71.848	-45.938	-41.899	-39.102	-34.482	81.770	-38.193	-8191	255	
25712.553	1	1	0	0	0.047874	0.080199	0.093093	0.10066	0.077128	0.090721	0.22313	0.25709	0.23737	0.03607	0.1643	0.153	0.21794	0.11831	0.17874	0.25249	-2.6667	-2.9375	-2.8667	-3.1333	-2.7208	-3.1188	-2.9958	-2.7271	-3.0292	-2.8396	-2.8521	-2.9688	-2.8312	-2.8937	-2.7604	-2.7562	146.181	234.382	297.909	183.097	125.655	65.494	246.134	199.509	238.082	129.663	215.002	266.622	-36.819	253.717	171.528	44.356	0.00020504	0.00045194	9.6171e-05	705.3	2.5339e-06	3.4698e-06	665.01	234.88	1.7311e-06	3.4223e-06	254.83	105.83	89.017	43.852	3.502e-06	53.931	0.00028551	0.00018223	5.416e-05	686.4	2.8785e-06	1.9473e-06	647.12	230.02	2.3413e-06	3.2744e-06	248.47	104.09	87.882	43.287	3.4066e-06	53.156	135.069	15.374	29.160	-48.144	79.903	107.871	-49.882	-43.295	71.830	86.154	-45.898	-42.006	-38.895	-34.698	103.945	-38.139	-8191	255	
25712.648	1	1	0	0	0.088262	0.18393	0.27498	0.33911	0.0871	0.17929	0.24566	0.18695	0.10503	0.10447	0.089076	0.099924	0.14747	0.053268	0.12949	0.23652	-2.6042	-2.7354	-2.7	-3.2833	-2.9354	-3.0187	-3.0667	-2.8021	-3.1	-2.8312	-2.9479	-3.1146	-2.6625	-3.1208	-2.9437	-2.9521	137.687	-30.056	-33.482	292.065	196.412	-35.995	-52.828	192.792	-1.207	95.245	49.905	-29.634	-53.309	275.652	11.787	193.770	0.00019903	0.00043306	0.00017045	703.84	2.0252e-06	4.4032e-06	661.42	234.67	2.3996e-06	4.8679e-06	253.79	105.94	89.912	44.156	3.1591e-06	54.361	0.00028412	0.00019695	5.8336e-05	684.82	3.2038e-06	1.935e-06	640.55	229.92	2.2016e-06	2.9536e-06	247.05	104.31	88.955	43.797	3.1156e-06	53.472	136.735	12.747	27.209	-48.496	99.125	94.218	-49.845	-43.338	78.943	69.030	-46.229	-41.866	-39.213	-34.413	100.505	-38.071	-8191	255	
25712.768	1	1	0	0	0.075795	0.1951	0.12714	0.051578	0.086207	0.17585	0.12199	0.28042	0.28667	0.3748	0.14203	0.2062	0.095547	0.41148	0.14487	0.076679	-2.4771	-2.8104	-2.8979	-3.1229	-2.8937	-2.8521	-2.9771	-2.7542	-3.0312	-2.9667	-2.8979	-3.1042	-2.8208	-2.9271	-3.1875	-2.8333	130.651	48.392	-56.456	-52.186	290.630	210.970	134.922	257.133	102.472	149.292	135.941	-46.165	-4.559	255.269	231.945	135.375	0.00020166	0.00045065	0.00014156	706.97	2.4555e-06	4.0553e-06	663	237.89	2.2516e-06	4.5882e-06	255.41	107.3	91.541	45.015	3.2234e-06	55.019	0.00028607	0.00019289	5.9281e-05	686.55	2.8934e-06	1.9837e-06	644.65	233.07	2.1576e-06	3.1827e-06	250.01	105.69	90.342	44.564	2.4799e-06	54.336	131.559	36.053	26.783	-48.357	61.680	83.772	-49.720	-43.619	66.738	82.370	-45.825	-42.081	-39.438	-34.511	80.348	-38.100	-8191	255	
25712.863	1	1	0	0	0.12002	0.1522	0.2079	0.11116	0.20306	0.14776	0.24625	0.14753	0.020621	0.21287	0.11616	0.19406	0.054239	0.30266	0.052994	0.2549	-2.5208	-2.8563	-2.7458	-3.25	-2.6396	-2.8063	-3.0563	-2.6375	-2.9375	-2.7938	-2.7083	-3.1125	-2.9521	-3.0312	-3.1937	-2.8125	283.715	291.309	184.684	264.408	137.559	-32.468	219.687	270.039	259.307	30.084	191.284	258.178	233.984	-36.530	249.749	194.280	0.00020444	0.00044107	0.00014953	710.99	9.3445e-07	4.0874e-06	663.57	239.34	2.0051e-06	4.526e-06	257.89	107.67	91.367	45.25	3.6845e-06	55.295	0.00028772	0.00020902	5.5608e-05	690.73	3.1348e-06	2.0541e-06	647.34	234.42	2.2646e-06	3.055e-06	251.43	105.89	90.557	44.791	2.4183e-06	54.604	137.249	29.227	39.033	-48.273	97.317	100.995	-49.765	-43.683	63.904	68.464	-45.999	-41.734	-38.743	-34.675	80.261	-38.355	-8191	255	
25712.959	1	1	0	0	0.25139	0.14967	0.1872	0.19075	0.12568	0.059987	0.044595	0.18694	0.07442	0.10993	0.31721	0.10131	0.063803	0.30152	0.13599	0.28554	-2.5687	-2.9083	-2.7021	-3.1042	-2.9125	-3.0333	-3.1021	-2.9167	-3.0146	-3.0979	-3.0021	-3.2583	-2.9542	-2.975	-3.1979	-2.875	17.448	139.288	232.602	-50.887	121.718	-26.643	168.237	146.359	261.290	94.744	65.627	182.680	170.381	262.832	97.086	-60.824	0.00019545	0.0005017	0.00011478	710.87	3.049e-06	4.34e-06	670.23	242.47	1.6198e-06	4.981e-06	262.17	109.12	93.582	46.334	3.0324e-06	56.223	0.00028916	0.00018363	5.416e-05	692.27	2.94e-06	2.0183e-06	651.52	237.38	2.1481e-06	2.9004e-06	254.94	107.26	92.208	45.893	2.2731e-06	55.693	141.045	24.205	29.828	-48.121	91.272	84.624	-49.855	-43.427	64.055	84.001	-45.830	-42.050	-38.868	-34.756	85.762	-38.080	-8191	255	
25713.057	1	1	0	0	0.25512	0.12945	0.17458	0.22782	0.086232	0.28939	0.10835	0.19488	0.091012	0.11358	0.19368	0.17073	0.32882	0.11015	0.25369	0.15722	-2.4417	-2.9479	-2.7104	-2.9583	-2.9208	-2.7812	-3.175	-2.8021	-3.0312	-2.975	-2.775	-2.9417	-2.9521	-2.9354	-3.0833	-2.8979	276.342	8.514	-11.039	176.869	-40.217	99.018	245.138	271.448	217.573	-36.105	87.232	150.431	-23.560	-54.860	153.374	215.264	0.00021638	0.00038887	9.6803e-05	712.91	1.959e-06	4.0252e-06	669.92	244.87	2.4039e-06	4.0938e-06	262.16	109.47	94.025	47.148	2.2047e-06	57.288	0.00029199	0.00017957	5.3185e-05	693.57	3.1856e-06	2.0498e-06	651.74	239.9	2.2238e-06	2.067e-06	255.84	107.83	93.066	46.602	2.1543e-06	56.412	137.160	23.262	19.534	-48.451	93.173	81.475	-49.650	-43.559	81.913	70.215	-46.375	-41.963	-39.321	-34.409	87.802	-38.259	-8191	255	
25713.150	1	1	0	0	0.1135	0.13851	0.10562	0.23243	0.075836	0.13238	0.14316	0.13837	0.21287	0.25093	0.12829	0.18062	0.24973	0.059895	0.047181	0.018249	-2.6417	-3	-2.65	-2.9542	-2.925	-2.6667	-2.9083	-2.9125	-2.975	-3.1167	-2.7833	-2.9813	-3.0708	-2.8021	-3.1646	-2.8688	113.468	22.833	251.174	167.510	146.417	19.312	77.557	-43.642	124.662	290.186	273.322	225.931	-29.427	153.680	239.965	110.640	0.00022376	0.00054127	0.00012369	715.45	3.5042e-06	3.3961e-06	671.24	246.39	2.3449e-06	3.0339e-06	263.19	110.6	95.279	47.584	2.9272e-06	57.752	0.00029199	0.00018602	5.4389e-05	696.97	3.0888e-06	2.0541e-06	653.22	241.2	2.3476e-06	1.8477e-06	257.66	108.92	94.26	47.191	2.3589e-06	56.941	134.290	21.278	28.667	-48.545	110.768	88.827	-49.272	-43.314	75.259	84.357	-45.927	-41.989	-39.016	-34.698	82.396	-38.334	-8191	255	
25713.246	1	1	0	0	0.18235	0.032435	0.27292	0.078374	0.26459	0.1825	0.313	0.057711	0.12438	0.10407	0.22107	0.11726	0.24044	0.1245	0.22807	0.069028	-2.4396	-3.0563	-2.6937	-2.9896	-2.9167	-2.7958	-3.1396	-2.9771	-2.5958	-3.1896	-2.9188	-2.9604	-3.0812	-2.8937	-2.9854	-2.9354	41.268	12.440	43.103	248.022	168.812	70.952	176.417	193.009	152.839	139.881	-54.620	-59.389	128.192	139.339	171.329	-49.555	0.00021053	0.00036667	0.00010481	720.47	3.5873e-06	4.129e-06	674.05	247.02	2.5706e-06	2.8644e-06	263.3	109.84	94.856	47.454	3.5203e-06	57.598	0.00029494	0.0001949	5.4785e-05	699.2	2.8929e-06	2.3437e-06	657.7	242.25	2.4418e-06	1.932e-06	257.47	108.49	93.693	46.974	2.2765e-06	56.683	134.934	22.111	19.866	-48.209	83.188	109.379	-49.351	-43.045	65.751	77.622	-45.981	-41.953	-39.391	-34.393	87.101	-38.235	-8191	255	
25713.367	1	1	0	0	0.054313	0.085234	0.2418	0.18765	0.14161	0.048234	0.30579	0.10823	0.19394	0.18702	0.12749	0.083134	0.19923	0.073799	0.080651	0.09954	-2.5062	-3.0833	-2.7104	-2.9708	-2.975	-2.7917	-3.1146	-2.9437	-2.8542	-3.1063	-3.05	-2.9688	-3.15	-2.6562	-3.075	-3.0958	252.025	-1.847	232.994	-58.421	226.462	-43.467	237.337	-42.423	173.101	108.494	272.665	7.701	278.223	212.079	221.368	227.499	0.0002129	0.00046242	0.000113	716.48	2.8442e-06	3.7394e-06	671.48	246.15	2.9589e-06	4.7297e-06	261.87	108.72	94.433	46.969	3.4053e-06	57.067	0.00029845	0.00018423	5.2987e-05	699.19	2.14e-06	3.0692e-06	656.06	241.14	2.364e-06	1.9815e-06	255.68	107.22	93.12	46.545	2.4418e-06	56.078	135.803	31.426	24.360	-48.356	87.755	89.170	-49.509	-43.406	80.131	84.954	-45.965	-42.163	-39.232	-34.562	86.115	-38.155	-8191	255	
25713.465	1	1	0	0	0.39056	0.17242	0.12466	0.12354	0.16685	0.087785	0.21761	0.13253	0.089971	0.13372	0.096328	0.18124	0.22355	0.21792	0.13049	0.1146	-2.4646	-3.0979	-2.7979	-2.9708	-3.0354	-2.8042	-3.1354	-3.1354	-2.8396	-3.2042	-2.9062	-2.7042	-3.1146	-2.8583	-3.075	-2.9854	81.785	235.599	161.061	289.999	210.273	103.817	227.319	198.381	164.185	162.757	291.020	184.966	-5.588	-26.309	267.905	225.656	0.00019552	0.00054483	0.00010809	715.18	3.0704e-06	3.2345e-06	666.82	244.69	2.2084e-06	4.165e-06	260.79	109.06	93.907	46.836	2.308e-06	56.973	0.00028368	0.00018564	5.1631e-05	695.48	2.0148e-06	3.1519e-06	650.53	239.58	2.2825e-06	1.8697e-06	253.93	107.24	92.877	46.372	2.2708e-06	55.972	136.032	24.201	25.328	-48.281	78.416	95.229	-49.745	-43.390	67.107	69.969	-46.274	-41.866	-39.272	-34.427	84.958	-38.272	-8191	255	
25713.561	1	1	0	0	0.11837	0.20051	0.20905	0.32308	0.25334	0.034667	0.22906	0.13544	0.051598	0.12967	0.18083	0.3162	0.051729	0.12106	0.12336	0.36702	-2.3583	-2.9938	-2.8354	-3.0104	-3.1708	-2.8729	-3.125	-2.8667	-2.7667	-3.025	-2.975	-2.9688	-2.8771	-2.7542	-2.8812	-3.1104	195.831	32.044	19.292	179.337	29.275	276.288	278.889	230.778	234.956	3.146	286.976	247.419	275.251	249.712	175.431	240.181	0.0002323	0.0003543	0.0001436	710.48	2.6834e-06	3.3835e-06	663.69	241.16	2.4306e-06	4.0927e-06	257.55	108.14	92.742	46.087	2.7775e-06	56.02	0.0003031	0.0001767	5.5166e-05	690.85	2.1646e-06	3.0562e-06	648.25	236.27	2.2476e-06	1.7841e-06	251.06	106.23	91.698	45.703	2.5332e-06	55.215	135.137	33.100	28.322	-48.558	84.627	58.713	-49.594	-43.539	62.157	73.105	-46.111	-41.746	-39.318	-34.863	114.789	-38.432	-8191	255	
25713.656	1	1	0	0	0.034287	0.10947	0.015624	0.23947	0.15671	0.10376	0.069335	0.03819	0.094189	0.19437	0.31922	0.22665	0.28623	0.16436	0.17956	0.15475	-2.4313	-3.15	-2.9083	-2.7875	-3.0958	-2.6937	-2.8583	-2.9667	-2.7062	-2.9396	-2.8729	-2.7896	-2.9208	-3.0312	-2.8042	-3.1375	44.003	54.893	16.401	273.920	119.142	151.548	76.927	81.023	175.607	80.497	206.578	-42.365	256.325	204.828	4.253	253.676	0.000219	0.00031332	0.00012213	706.1	3.6212e-06	4.2128e-06	661.29	238.71	2.0867e-06	3.7634e-06	256.61	107.01	91.793	45.839	3.3559e-06	55.724	0.00032825	0.00017199	5.3581e-05	688.39	2.0554e-06	3.2093e-06	646.59	235	2.3974e-06	2.0389e-06	250.36	105.79	91.028	45.338	2.3981e-06	54.835	140.918	39.717	23.155	-48.519	81.505	93.709	-49.986	-43.654	76.854	93.663	-45.810	-41.958	-38.965	-34.418	74.532	-38.224	-8191	255	
25713.777	1	1	0	0	0.29911	0.085426	0.33712	0.25229	0.06534	0.10342	0.20384	0.11832	0.2305	0.078264	0.12224	0.054437	0.065732	0.092538	0.045921	0.25582	-2.2646	-2.9271	-2.7792	-2.8375	-2.8979	-2.8563	-2.9125	-3.0375	-2.775	-2.8875	-2.8896	-2.6729	-3.1167	-2.8708	-2.8625	-3.1292	-18.777	221.808	-20.458	293.064	142.266	-38.831	213.368	141.691	42.401	260.053	139.841	39.084	32.070	260.993	139.310	253.905	0.00020027	0.00051409	0.00013185	706.8	3.272e-06	3.362e-06	662.89	238.39	2.0934e-06	4.8722e-06	254.39	106.43	91.409	45.415	1.6672e-06	55.366	0.00034947	0.00019647	5.5059e-05	688.49	2.0656e-06	3.1e-06	644.41	233.77	2.2243e-06	2.1202e-06	248.02	104.78	90.26	45.004	2.3992e-06	54.494	133.809	27.498	29.968	-48.288	78.526	112.662	-49.607	-43.209	48.963	84.563	-46.086	-42.093	-39.035	-34.660	81.965	-38.311	-8191	255	
25713.850	1	1	0	0	0.22082	0.37693	0.17468	0.064695	0.32389	0.2035	0.37638	0.23354	0.2038	0.020229	0.2903	0.16023	0.11615	0.18846	0.11756	0.18295	-2.1854	-2.9771	-3.0125	-2.6979	-3.0812	-2.9292	-2.8542	-3.1396	-2.9396	-2.9833	-3.0583	-2.7687	-3.0438	-2.9792	-2.8292	-3.2104	165.789	261.243	-37.494	266.296	254.840	15.609	210.903	163.157	-27.064	146.082	15.100	298.509	293.196	279.869	62.219	114.989	0.00020172	0.00043496	0.00014088	704.44	3.03e-06	2.2548e-06	662.47	239.33	1.588e-06	4.4187e-06	255.58	107.07	92.812	46.402	2.721e-06	56.463	0.000336	0.00020296	5.4069e-05	684.75	2.057e-06	3.3871e-06	642.16	234.2	2.2466e-06	1.9564e-06	249.57	105.91	91.816	45.938	2.4424e-06	55.567	135.967	20.268	37.044	-48.263	73.368	71.031	-49.317	-43.389	68.737	78.127	-46.053	-41.980	-39.286	-34.665	92.136	-38.352	-8191	255	
25713.943	1	1	0	0	0.35105	0.27221	0.12558	0.064677	0.27064	0.071319	0.33074	0.074924	0.16799	0.23297	0.21605	0.14158	0.26385	0.19905	0.41665	0.28491	-2.5479	-2.9104	-3.0333	-2.7438	-2.9417	-3.0563	-2.775	-3.1562	-2.9479	-3.0271	-3.0417	-2.6604	-2.9104	-3.1771	-2.7854	-3.1854	267.586	53.710	151.078	11.744	68.059	219.911	250.593	-55.863	153.625	24.635	-31.802	203.104	212.227	214.071	95.381	293.716	0.00020812	0.00046832	0.0001352	704.82	3.0157e-06	4.2176e-06	664.83	242.35	2.7683e-06	5.2281e-06	256.88	108.4	93.099	46.788	2.9648e-06	56.561	0.00034758	0.00019711	5.2712e-05	688.1	2.1512e-06	3.0099e-06	647.43	236.98	2.2561e-06	2.0334e-06	251.76	106.8	92.024	46.21	2.4323e-06	55.64	130.894	17.835	34.018	-48.367	88.354	93.310	-49.759	-43.251	97.951	91.300	-45.868	-41.778	-38.954	-34.728	81.694	-38.421	-8191	255	
25714.041	1	1	0	0	0.16082	0.17628	0.12312	0.16382	0.13259	0.055245	0.14161	0.23684	0.09211	0.09658	0.12193	0.095701	0.17018	0.06454	0.32403	0.25631	-2.4938	-2.8146	-3.0479	-2.6875	-3.0875	-2.9979	-2.7396	-3.1917	-3.1396	-2.8708	-3.1167	-2.8167	-3.175	-3.0312	-2.6167	-3.1292	-52.598	114.047	35.798	214.320	-36.756	250.788	38.607	-50.009	-33.252	54.125	114.126	261.506	-51.144	129.667	-52.846	194.962	0.00020977	0.00044425	0.00010742	708.76	2.434e-06	3.4704e-06	664.08	240.14	2.4214e-06	5.4338e-06	256.36	108.04	91.955	45.79	2.3721e-06	55.582	0.00034567	0.00019879	4.84e-05	689.15	2.0667e-06	2.6728e-06	647.41	235.84	2.2471e-06	2.1972e-06	250.52	106.29	91.271	45.299	2.4491e-06	54.714	131.168	19.286	23.230	-48.332	80.079	83.563	-49.574	-43.475	44.734	86.324	-45.640	-41.849	-39.199	-34.490	91.268	-37.918	-8191	255	
25714.160	1	1	0	0	0.4085	0.19504	0.15379	0.12207	0.23129	0.14655	0.27893	0.047764	0.1089	0.10098	0.075827	0.057343	0.27923	0.31196	0.18274	0.16949	-2.4875	-2.7604	-2.9646	-2.875	-2.9042	-3.1021	-2.6896	-3.1604	-2.8146	-2.8208	-3.0792	-2.8521	-3.0583	-3.3104	-2.6729	-3.0438	63.153	131.813	114.720	269.937	-17.899	62.912	246.001	199.123	-5.068	217.307	-23.786	134.150	18.792	245.766	34.508	167.433	0.00021357	0.00047997	8.8101e-05	707.65	2.5878e-06	3.799e-06	658.62	238.87	2.332e-06	4.1247e-06	252.59	106.75	91.685	45.317	2.8384e-06	54.854	0.00035221	0.00019966	5.0609e-05	687.57	2.1485e-06	1.9881e-06	641.86	233.68	2.1592e-06	1.9314e-06	247.14	104.94	90.583	44.791	2.3891e-06	53.994	136.848	35.293	34.799	-48.124	111.649	89.902	-50.165	-43.107	59.443	98.927	-46.106	-42.279	-39.152	-34.831	77.783	-38.130	-8191	255	
25714.256	1	1	0	0	0.24799	0.20985	0.18533	0.45254	0.071791	0.1359	0.28014	0.071197	0.2551	0.025944	0.19049	0.038186	0.089713	0.10184	0.099461	0.16379	-2.4479	-2.7458	-3.1458	-2.8979	-2.9688	-3.2188	-2.7938	-3.1042	-2.975	-2.7521	-3.3208	-2.9062	-2.9604	-3.375	-2.7417	-3.1417	6.017	101.756	279.988	276.530	296.395	-51.176	234.511	186.261	105.431	185.286	248.556	148.719	118.904	119.360	47.728	251.135	0.00022984	0.00042355	0.00011497	703.77	2.8184e-06	4.782e-06	657.47	237.96	2.6791e-06	4.9473e-06	251.27	105.68	91.205	45.138	3.7579e-06	54.611	0.00033405	0.00018845	5.221e-05	685.82	2.1956e-06	2.0239e-06	638.83	232.99	2.2852e-06	2.0194e-06	245.87	104.32	90.227	44.776	2.2826e-06	53.847	133.257	24.810	35.741	-48.296	80.196	89.534	-49.727	-43.404	92.187	90.470	-45.909	-41.826	-39.383	-34.526	71.713	-37.989	-8191	255	
25714.352	1	1	0	0	0.1047	0.20457	0.18041	0.32571	0.23996	0.23406	0.17357	0.12626	0.1994	0.27461	0.088463	0.28014	0.18524	0.3815	0.27537	0.11748	-2.5417	-2.7146	-3.1437	-2.9313	-2.7542	-3.1458	-3.0646	-3	-2.9396	-2.6604	-3.0417	-2.9208	-2.9042	-3.0958	-2.8396	-2.9958	177.129	-45.995	245.136	273.729	132.955	41.093	249.481	276.740	209.835	141.195	8.280	-43.390	-42.753	-57.171	84.519	-27.691	0.00018812	0.00049533	8.5588e-05	700.49	3.8354e-06	3.3403e-06	654.98	237.36	1.4436e-06	4.2854e-06	252.79	106.7	91.447	45.188	2.6888e-06	55.151	0.00031808	0.00024833	5.0381e-05	683.85	2.0319e-06	1.8572e-06	638.67	233.25	2.1518e-06	1.987e-06	247.29	104.95	90.47	44.988	2.4261e-06	54.251	129.818	20.654	36.476	-48.376	99.343	98.513	-49.630	-43.482	69.767	87.268	-45.706	-42.316	-38.921	-34.645	76.800	-37.998	-8191	255	
25714.447	1	1	0	0	0.15065	0.18333	0.072427	0.10539	0.028738	0.15574	0.068716	0.14101	0.19941	0.08644	0.032371	0.18094	0.29115	0.23514	0.22261	0.18719	-2.7396	-2.6146	-2.8708	-2.8667	-2.7917	-3.1521	-2.9	-2.9542	-3.1063	-2.6958	-2.9688	-2.7938	-2.7333	-2.975	-3	-2.8333	161.854	183.627	118.109	-3.171	282.148	233.289	106.857	254.058	11.008	92.357	116.629	-3.711	-38.084	215.546	200.783	269.177	0.0002075	0.00031387	0.00010853	702.11	3.049e-06	3.3651e-06	657.72	238.94	2.0161e-06	3.8665e-06	255.23	106.39	91.694	45.79	3.3649e-06	55.204	0.00028586	0.00030079	5.1097e-05	685.18	2.2117e-06	1.8177e-06	640.6	233.99	2.1449e-06	1.8532e-06	248.57	105.44	90.998	45.333	2.4429e-06	54.49	139.036	40.604	33.996	-48.537	80.906	103.001	-49.959	-43.349	49.542	91.718	-46.014	-42.016	-39.159	-34.461	77.502	-38.164	-8191	255	
25714.545	1	1	0	0	0.080442	0.1218	0.25991	0.17458	0.057787	0.08949	0.04427	0.12284	0.015713	0.16904	0.18841	0.21107	0.23339	0.060722	0.15784	0.39564	-2.6937	-2.5521	-3.0625	-2.8812	-2.7125	-3.0187	-2.8458	-2.8104	-3.0167	-2.9604	-2.8792	-2.8958	-2.8917	-3.1104	-2.8792	-2.8875	74.877	111.660	1.138	267.882	37.618	212.771	89.807	209.807	294.911	44.839	-59.176	271.981	-39.160	-45.876	208.455	-13.554	0.00020385	0.00040064	0.00011097	701.84	2.8884e-06	4.8098e-06	654.2	239.33	1.5657e-06	4.1983e-06	255.1	106.37	92.923	46.215	3.4717e-06	55.497	0.00028002	0.00030035	5.2484e-05	682.73	2.0421e-06	1.9041e-06	637.05	234.36	2.1518e-06	1.8776e-06	248.18	105.4	91.706	45.693	2.3611e-06	54.793	137.159	33.158	37.413	-48.381	89.019	97.042	-49.539	-43.570	64.590	80.422	-46.076	-42.185	-39.184	-34.450	84.413	-38.379	-8191	255	
25714.641	1	1	0	0	0.05248	0.31545	0.12164	0.28496	0.18794	0.084295	0.090617	0.26418	0.28801	0.082024	0.089796	0.054241	0.18592	0.41873	0.36381	0.22946	-2.6958	-2.8583	-2.8104	-2.9917	-2.8521	-3.0708	-3.0417	-2.7438	-3.0042	-2.9104	-3.0229	-3.1	-2.6417	-3.1375	-2.7687	-2.9688	74.070	0.015	199.256	105.869	47.320	76.785	281.424	203.250	227.085	27.824	186.322	270.883	154.342	116.997	17.027	278.163	0.00022331	0.00037993	0.00011138	701.1	2.4083e-06	4.3533e-06	655.6	239.61	2.3205e-06	3.4868e-06	253.57	106.73	91.532	45.581	3.3928e-06	54.67	0.00028987	0.00027773	5.349e-05	685.29	2.0115e-06	1.8226e-06	638.34	234.7	2.1386e-06	1.965e-06	247.18	104.79	90.772	45.032	2.3902e-06	53.792	137.640	49.075	45.726	-48.194	86.138	107.608	-49.747	-43.372	48.578	87.539	-45.666	-42.053	-38.803	-34.692	89.746	-38.362	-8191	255	
25714.736	1	1	0	0	0.11184	0.50509	0.30215	0.20212	0.06003	0.20079	0.19342	0.19539	0.068018	0.34898	0.29019	0.2533	0.34685	0.28058	0.063844	0.20101	-2.7313	-2.7042	-2.9146	-3.0646	-2.7771	-3.2667	-3.0458	-2.9021	-3.075	-2.9646	-3.0062	-3.2229	-2.5896	-3.0792	-2.9958	-2.7	68.641	9.409	-37.141	245.458	120.409	0.682	-22.650	237.954	84.330	57.090	17.283	272.009	291.402	-58.051	28.261	166.275	0.00018206	0.0004068	0.0001165	710.44	2.0165e-06	3.7172e-06	652.77	237.61	1.5376e-06	4.3027e-06	251.34	105.52	91.476	44.864	3.8472e-06	54.025	0.00027991	0.00030734	5.0259e-05	688.24	2.0699e-06	1.9078e-06	639.01	233.5	1.9994e-06	1.9772e-06	245.87	103.89	90.241	44.523	2.4446e-06	53.347	132.097	35.729	30.990	-48.296	101.544	107.822	-49.985	-43.089	58.240	66.411	-45.785	-41.913	-38.891	-34.470	76.389	-38.316	-8191	255	
25714.857	1	1	0	0	0.17575	0.13809	0.10924	0.20358	0.25767	0.048478	0.089158	0.16563	0.081436	0.12165	0.16019	0.18461	0.20881	0.085455	0.21083	0.051935	-2.7042	-2.9667	-2.8438	-3.0771	-2.9	-3.0021	-3.075	-2.9229	-3.0896	-3.0125	-2.8792	-3.1271	-2.7854	-2.9875	-3.1458	-2.8833	180.683	64.540	282.005	207.872	218.901	87.930	291.944	231.771	-29.660	224.127	267.497	253.106	-25.047	68.499	26.697	124.651	0.00020682	0.0003776	0.00014428	706.1	2.7368e-06	3.7887e-06	655.09	237.63	2.4556e-06	4.7825e-06	251.75	105.66	90.865	45.089	2.663e-06	54.286	0.00027802	0.00028455	5.2179e-05	686.48	2.1732e-06	1.8516e-06	636.49	232.67	2.263e-06	1.8733e-06	245.8	103.73	90.079	44.675	2.249e-06	53.413	140.635	20.233	30.553	-48.321	96.138	96.689	-49.867	-43.464	66.012	87.578	-45.994	-42.262	-39.192	-34.436	87.476	-38.263	-8191	255	
25714.951	1	1	0	0	0.17491	0.17956	0.15093	0.080824	0.10662	0.14509	0.10289	0.042216	0.023049	0.2243	0.18649	0.07886	0.061176	0.4047	0.16561	0.31864	-2.7021	-2.8021	-2.6854	-3.0625	-2.8417	-3.0083	-2.9104	-2.9167	-3.1042	-2.8917	-2.8667	-2.9875	-3.0375	-3.0042	-3.1583	-3.0521	135.622	42.143	91.433	188.798	-47.014	249.087	217.952	285.224	284.362	184.319	240.522	142.542	41.758	-32.261	125.529	189.409	0.00020934	0.00038426	0.00010484	703.38	1.9508e-06	4.1369e-06	648.14	238.12	1.6296e-06	4.2327e-06	250.85	105.55	90.932	45.207	3.3082e-06	54.47	0.00027893	0.00028103	5.2697e-05	682.4	2.1362e-06	1.9726e-06	631.88	232.57	2.1756e-06	2.0554e-06	244.93	103.67	90.231	44.829	2.3404e-06	53.661	135.643	23.625	32.432	-48.274	91.634	87.597	-49.578	-43.359	86.026	95.364	-46.074	-42.015	-39.118	-34.409	76.159	-38.138	-8191	255	
25715.049	1	1	0	0	0.16033	0.026926	0.18987	0.092309	0.24358	0.10515	0.19545	0.23538	0.16304	0.15807	0.16049	0.042207	0.078063	0.035617	0.077147	0.18377	-2.6562	-2.9583	-2.725	-3.0396	-2.7708	-2.8979	-3.0792	-2.8521	-2.8187	-2.9667	-2.9583	-2.9562	-2.85	-2.7792	-2.7458	-2.9333	62.571	211.316	-56.729	210.948	-16.847	284.010	268.311	-52.222	160.256	164.344	141.682	30.334	56.088	-33.506	37.141	219.986	0.00018899	0.00045463	0.00010311	701.07	3.7301e-06	2.9064e-06	650.93	239.16	2.4861e-06	3.7422e-06	253.08	106.06	91.96	45.554	2.8508e-06	54.731	0.00027484	0.00027913	5.3749e-05	681.98	2.2053e-06	1.8658e-06	633.14	233.82	2.3503e-06	1.855e-06	246.9	104.34	90.816	45.129	2.3314e-06	53.986	138.594	21.833	40.880	-48.222	75.083	97.429	-49.732	-43.235	51.822	91.138	-45.657	-42.137	-39.078	-34.395	68.697	-38.546	-8191	255	
25715.145	1	1	0	0	0.19415	0.12319	0.0888	0.12576	0.093755	0.13753	0.13956	0.14663	0.11719	0.1138	0.11394	0.11678	0.32098	0.10651	0.30305	0.14019	-2.4688	-3.0708	-2.7333	-3.1	-3.0375	-2.8104	-3.3187	-2.8542	-2.8792	-2.7687	-2.7687	-3.1667	-2.9188	-2.9021	-3.0563	-2.9708	130.077	-28.848	-2.155	176.133	113.668	283.729	198.371	203.304	279.565	22.330	13.272	41.401	38.161	45.423	76.830	264.194	0.00018869	0.0003944	0.00011145	704.39	2.8491e-06	4.5093e-06	654.66	240.38	8.6783e-07	4.2489e-06	253.8	106.06	91.904	45.602	2.2422e-06	54.628	0.0002901	0.00021336	7.2127e-05	685.17	2.117e-06	2.0801e-06	637.23	235.14	2.2201e-06	1.9069e-06	248.19	104.75	90.84	45.145	2.305e-06	53.961	131.300	27.528	35.707	-48.338	83.452	92.472	-49.471	-43.517	76.830	92.475	-45.881	-41.889	-39.185	-34.525	84.579	-38.158	-8191	255	
25715.240	1	1	0	0	0.27744	0.059572	0.12793	0.29887	0.16143	0.22904	0.056693	0.24104	0.11396	0.061263	0.29029	0.19574	0.077993	0.21736	0.07276	0.15048	-2.3438	-2.8771	-2.7458	-3.1583	-2.7875	-2.8708	-3.1229	-2.8625	-2.8104	-3.0646	-2.7313	-3.0687	-3.0917	-2.7146	-3.1958	-3	38.940	-27.314	293.649	285.217	210.506	36.274	240.256	257.938	95.638	43.557	-7.054	-48.903	-57.943	19.525	-35.244	-41.810	0.00018995	0.00039178	0.00012774	701.91	2.7475e-06	4.2259e-06	647.3	238.13	1.992e-06	4.0569e-06	251.03	104.95	91.347	45.306	2.6216e-06	54.314	0.00028111	0.00018753	7.8436e-05	685.02	2.1485e-06	2.1048e-06	632.01	233.54	2.3169e-06	1.9943e-06	245.42	103.58	90.444	44.899	2.2333e-06	53.487	132.312	15.332	33.784	-48.371	88.042	83.109	-49.760	-43.206	63.054	87.006	-45.961	-41.914	-39.252	-34.556	85.939	-38.278	-8191	255	
25715.338	1	1	0	0	0.11797	0.25205	0.05935	0.057991	0.16524	0.13954	0.30127	0.18354	0.29648	0.17383	0.162	0.046563	0.21248	0.39264	0.087166	0.022968	-2.5021	-2.7771	-2.6146	-3.1521	-2.8479	-2.9083	-3.0771	-2.95	-2.825	-2.9813	-2.8125	-2.9771	-2.9479	-2.8771	-3.1333	-2.8958	222.296	248.306	210.217	101.944	275.902	123.599	164.495	176.177	286.532	181.110	205.399	244.287	-23.451	243.349	220.991	162.337	0.00020389	0.00037988	0.0001072	696.92	2.686e-06	3.0986e-06	643.8	238.06	8.4151e-07	5.2712e-06	250.79	105.08	90.46	45.085	3.3868e-06	54.053	0.00028545	0.00018948	8.2216e-05	680.97	2.095e-06	2.0189e-06	628.16	232.72	2.1936e-06	1.9265e-06	243.5	103.07	89.805	44.616	2.2647e-06	53.217	137.323	40.767	24.346	-48.123	91.927	87.971	-49.879	-43.434	59.396	91.930	-46.004	-41.993	-38.761	-34.649	75.901	-38.319	-8191	255	
25715.457	1	1	0	0	0.35361	0.28862	0.10417	0.23008	0.219	0.29803	0.29834	0.18212	0.040329	0.16414	0.089791	0.26387	0.032229	0.18869	0.23889	0.1794	-2.4375	-2.8583	-2.5438	-2.9917	-2.9542	-2.5604	-3.25	-2.8604	-2.8271	-3.1708	-2.8396	-2.9958	-2.9625	-2.8042	-2.9354	-2.8354	83.199	224.656	163.100	38.568	22.409	0.774	196.621	252.352	127.849	296.876	236.981	107.700	-32.907	223.371	268.656	188.175	0.00018565	0.00048763	0.00012157	704.48	3.2225e-06	4.6977e-06	642.39	236.14	1.8948e-06	3.8707e-06	248.61	104.08	90.441	44.938	2.9863e-06	53.901	0.00028822	0.00017995	7.8452e-05	682.88	2.0742e-06	2.0313e-06	628.54	231.62	2.2751e-06	1.8568e-06	243.46	102.67	89.444	44.492	2.2703e-06	53.178	130.995	20.700	31.062	-48.042	83.389	95.969	-49.780	-43.583	89.177	94.666	-45.905	-42.244	-38.969	-34.525	78.586	-38.370	-8191	255	
25715.553	1	1	0	0	0.24719	0.051773	0.096507	0.14877	0.3088	0.084303	0.25317	0.1776	0.17142	0.13388	0.32754	0.14959	0.056621	0.10987	0.078488	0.14571	-2.3646	-3.0542	-2.6396	-3.0021	-3.0667	-2.7396	-3.175	-3.0146	-2.9188	-3.2938	-2.9521	-3.0396	-3.0479	-2.8667	-2.9604	-2.9125	86.952	108.857	-50.463	215.361	71.833	219.504	245.269	165.834	190.029	-43.072	234.452	-1.019	-20.303	230.770	127.770	150.671	0.00019535	0.00040624	0.00010181	700.04	1.9787e-06	3.7162e-06	649.7	237.53	2.878e-06	3.8878e-06	249.61	104.54	90.405	44.928	2.7578e-06	53.93	0.00028978	0.00016295	8.0768e-05	681.83	2.0287e-06	1.914e-06	630.68	232.2	2.3148e-06	1.7811e-06	244.17	103.15	89.511	44.495	2.1952e-06	53.077	133.895	26.813	31.156	-48.254	85.863	94.318	-49.498	-43.507	59.342	91.008	-46.050	-42.057	-38.657	-34.439	85.492	-38.354	-8191	255	
25715.650	1	1	0	0	0.19506	0.1312	0.13297	0.49266	0.21722	0.16592	0.1305	0.31325	0.22766	0.13597	0.1644	0.10531	0.14562	0.051326	0.28355	0.29455	-2.3375	-3.1188	-2.9458	-3.0062	-3.0417	-2.8729	-3.0104	-2.975	-2.6958	-3.0229	-2.8125	-2.9417	-3.1292	-2.8375	-3.0792	-3.0958	36.347	51.742	77.593	284.968	130.845	221.577	290.460	-56.261	164.449	53.279	-49.278	225.494	249.744	278.793	-38.844	-50.069	0.0001804	0.00047799	9.263e-05	700.64	2.7989e-06	4.2786e-06	637.04	236.23	1.8922e-06	3.7886e-06	246.49	103.4	89.662	44.347	2.1536e-06	53.083	0.00028554	0.00016929	7.897e-05	680.14	2.1544e-06	2.0436e-06	623.58	230.72	2.7932e-06	1.8794e-06	240.18	101.6	88.577	43.889	2.1492e-06	52.136	134.422	30.193	15.459	-48.456	87.753	103.909	-49.985	-43.531	51.017	91.137	-46.169	-42.280	-38.924	-34.453	81.898	-38.437	-8191	255	
25715.721	1	1	0	0	0.13101	0.26199	0.12981	0.10078	0.11626	0.13435	0.17471	0.22265	0.040635	0.042772	0.32278	0.15973	0.20667	0.22075	0.080451	0.18377	-2.2917	-2.9938	-2.7188	-2.7458	-2.9792	-2.775	-2.8542	-3.2083	-2.7812	-2.9958	-2.8875	-2.7292	-3.1292	-2.7833	-2.8604	-3.0729	32.874	58.745	-17.254	218.968	128.373	165.995	283.580	16.441	-26.957	144.586	192.045	295.656	294.454	-19.591	114.226	293.750	0.00018922	0.00032934	0.00011308	692.6	2.0284e-06	4.1557e-06	641.06	234.48	2.651e-06	3.7837e-06	248.06	103.41	89.519	44.436	2.8789e-06	53.209	0.00028775	0.00018087	7.9899e-05	675.19	1.9313e-06	1.8325e-06	621.78	229.92	3.1007e-06	1.9369e-06	241.29	102.02	88.753	44.081	2.3617e-06	52.419	136.191	11.709	30.696	-48.416	85.531	107.658	-49.692	-43.393	80.015	92.898	-45.997	-41.770	-38.883	-34.685	82.931	-38.233	-8191	255	
25715.840	1	1	0	0	0.11732	0.26262	0.17156	0.29133	0.19078	0.17989	0.21598	0.11278	0.16271	0.12303	0.3265	0.073843	0.28197	0.34312	0.18043	0.25741	-2.3375	-3.0062	-2.8396	-2.8854	-2.9437	-2.7646	-2.9375	-3.0938	-2.8958	-2.9479	-2.9333	-2.6417	-3.1104	-2.875	-2.7167	-3.1437	-47.218	260.682	-0.070	6.019	37.436	114.657	226.559	169.892	-58.033	152.031	179.243	-49.271	276.724	211.153	-29.052	251.763	0.00018122	0.00044926	0.00012933	697.79	2.79e-06	4.3438e-06	640.78	234.9	2.8424e-06	4.7991e-06	249.22	104.31	90.217	44.899	3.2521e-06	54.092	0.00028303	0.00018986	7.2767e-05	676.57	1.8334e-06	1.9084e-06	623.84	230.31	3.1193e-06	2.1031e-06	242.72	102.71	89.188	44.344	2.3874e-06	53.068	129.869	24.163	27.635	-48.270	79.302	90.803	-49.469	-43.391	75.741	99.895	-46.071	-41.900	-38.913	-34.341	90.799	-38.374	-8191	255	
25715.936	1	1	0	0	0.28421	0.077031	0.22568	0.177	0.1024	0.052251	0.12994	0.084212	0.25708	0.18092	0.050128	0.25553	0.13056	0.2866	0.30912	0.15446	-2.3333	-3.0479	-2.9583	-2.6417	-3.0708	-2.8187	-2.7417	-3.2354	-2.6729	-2.9708	-3.0479	-2.7479	-3.0583	-2.9542	-2.6937	-3.1813	136.750	-25.220	288.782	-18.815	117.326	-31.026	224.260	185.002	281.089	200.285	32.176	-56.743	-20.701	-19.208	167.860	28.377	0.00019784	0.00052984	0.00012396	697.2	2.7987e-06	3.5376e-06	647.04	235.11	2.5978e-06	4.228e-06	248.53	104.39	89.668	44.353	1.8273e-06	53.358	0.00028406	0.00018445	5.7528e-05	678.13	1.8869e-06	1.8436e-06	628.16	230.7	3.0123e-06	1.943e-06	242.6	102.33	88.828	44.023	2.295e-06	52.496	137.443	41.520	20.963	-48.684	100.281	85.910	-49.923	-43.334	77.092	97.803	-45.912	-41.965	-39.116	-34.698	78.172	-38.107	-8191	255	
25716.031	1	1	0	0	0.27803	0.18079	0.048312	0.23974	0.33584	0.098344	0.098431	0.11875	0.17013	0.074114	0.074152	0.09821	0.22417	0.20034	0.041143	0.1263	-2.1479	-2.8542	-2.8625	-2.8625	-2.8917	-2.8812	-2.8187	-3.0208	-2.6896	-2.9604	-3.1813	-2.7958	-3.0104	-2.8937	-2.7208	-3.0917	230.164	-28.964	-53.501	293.397	226.546	225.663	134.808	240.605	-43.657	150.359	-12.670	252.992	185.620	258.717	-5.674	-4.149	0.00017895	0.00039393	0.00013631	692.73	2.9472e-06	3.4771e-06	636.01	234.01	1.763e-06	4.2133e-06	246.5	102.94	89.424	44.301	1.7801e-06	53.343	0.00028215	0.00017995	5.2499e-05	675.79	1.9827e-06	1.8899e-06	620.32	229.01	3.3399e-06	1.8947e-06	240.39	101.73	88.478	43.987	2.3448e-06	52.571	136.437	15.727	40.595	-48.445	98.643	82.619	-49.641	-43.548	50.692	74.670	-45.795	-42.090	-38.973	-34.556	86.106	-38.036	-8191	255	
25716.129	1	1	0	0	0.23035	0.22816	0.060601	0.2244	0.20774	0.24152	0.096523	0.10892	0.15029	0.28876	0.18363	0.05261	0.1119	0.27946	0.051583	0.14281	-2.4813	-2.8292	-3.1125	-2.8167	-2.9333	-3.1292	-2.9437	-3.175	-2.8854	-2.8063	-3.0062	-2.85	-2.9083	-3.0771	-2.6479	-3.1604	39.786	77.207	242.486	48.584	-27.507	155.762	277.581	189.651	2.039	117.223	76.625	57.490	-31.205	270.469	39.310	112.984	0.00021178	0.00031022	0.00012668	697.52	2.3678e-06	4.2757e-06	639.55	234.04	2.4761e-06	2.9293e-06	248.55	104.3	90.826	45.041	2.596e-06	53.745	0.00029078	0.00017411	5.1036e-05	676.47	2.0142e-06	2.0257e-06	622.31	229.82	3.2674e-06	1.9961e-06	242.08	102.66	89.319	44.545	3.1644e-06	53	135.492	8.427	30.796	-48.478	82.843	92.023	-49.732	-43.328	87.096	77.229	-45.964	-41.864	-38.940	-34.596	92.652	-38.400	-8191	255	
25716.248	1	1	0	0	0.19825	0.061878	0.057642	0.072543	0.066507	0.1135	0.32714	0.052713	0.023916	0.089128	0.18105	0.13554	0.025681	0.1947	0.20783	0.047175	-2.4	-2.9313	-3.1167	-2.8708	-2.9125	-3.1875	-2.8479	-3.1833	-2.775	-2.7667	-3.2188	-2.8271	-2.7896	-3.0292	-2.6208	-3.0312	5.450	197.008	88.836	261.084	133.984	-29.897	258.180	67.445	91.932	-56.101	-27.207	253.965	272.739	297.684	138.677	204.382	0.00018496	0.00048614	0.00011881	694.1	2.777e-06	4.1396e-06	639.73	234.11	3.3663e-06	4.583e-06	246.95	104.03	89.577	44.562	1.6845e-06	53.363	0.00028748	0.00021211	5.2453e-05	678.08	2.0613e-06	1.8942e-06	624.36	229.69	3.1679e-06	2.0304e-06	241.43	102.34	88.656	44.177	3.2126e-06	52.571	131.643	17.318	20.732	-48.381	75.914	103.648	-49.881	-43.347	53.472	104.187	-46.253	-42.051	-39.197	-34.524	105.268	-38.156	-8191	255	
25716.320	1	1	0	0	0.10314	0.25786	0.15339	0.28027	0.21675	0.20915	0.14195	0.18501	0.37828	0.29909	0.051	0.25299	0.03522	0.10318	0.14604	0.096581	-2.4521	-2.7354	-3	-2.8937	-2.8812	-3.0958	-2.8583	-3.0938	-2.9938	-2.7875	-3.1396	-2.8479	-2.6583	-3.0021	-2.6813	-2.9062	200.498	257.077	36.361	-44.792	139.424	-22.574	43.013	296.798	246.832	249.272	252.268	26.453	238.400	-36.030	196.169	273.707	0.00019867	0.00039776	8.1605e-05	699.89	2.2777e-06	5.5477e-06	636.82	232.78	2.8832e-06	3.7376e-06	244.72	102.58	89.502	44.283	1.8327e-06	53.089	0.00028506	0.00018791	4.6815e-05	678.08	2.1389e-06	1.9733e-06	622.33	228.46	2.8806e-06	2.1575e-06	238.95	101.33	88.086	43.862	3.2782e-06	52.326	134.657	27.009	28.110	-48.546	95.869	92.606	-49.610	-43.427	47.901	79.131	-46.013	-41.983	-39.007	-34.656	85.438	-37.732	-8191	255	
25716.418	1	1	0	0	0.17339	0.35546	0.15901	0.09995	0.096843	0.12219	0.14551	0.099063	0.019378	0.048142	0.18059	0.1931	0.038473	0.25944	0.20016	0.12309	-2.2687	-2.7687	-2.9729	-2.8812	-2.9917	-3.1437	-2.6979	-3.0104	-3.0375	-2.8563	-3.1042	-3.0021	-3.0583	-3.0563	-2.7167	-2.975	220.004	155.048	85.839	258.045	265.748	126.987	110.638	205.283	204.215	144.787	133.938	-26.636	212.664	-50.989	124.837	172.520	0.00019693	0.00032321	0.00011315	688.63	2.4696e-06	3.7189e-06	633.98	232.21	2.4315e-06	3.6051e-06	245.06	103.35	88.966	44.569	2.8222e-06	53.637	0.00028105	0.00017589	4.7805e-05	672.84	2.1143e-06	1.8664e-06	618.36	227.79	2.2915e-06	2.8406e-06	238.75	101.76	88.363	44.229	3.2193e-06	52.785	135.291	27.302	23.732	-48.498	90.978	84.708	-49.813	-43.200	60.539	89.167	-46.287	-42.020	-39.260	-34.573	108.411	-38.539	-8191	255	
25716.537	1	1	0	0	0.25752	0.17474	0.32519	0.33878	0.32013	0.16684	0.22879	0.20053	0.22107	0.17982	0.31194	0.24513	0.19196	0.21747	0.094407	0.37082	-2.4792	-2.6604	-2.9417	-2.9375	-2.7833	-3.1271	-2.8396	-2.9708	-3.0125	-2.9875	-3.0375	-3.175	-2.6583	-3.0354	-2.7687	-3.0479	269.168	107.927	125.641	204.141	161.967	-5.886	203.164	280.466	122.607	56.720	276.216	282.035	4.023	286.510	139.903	257.779	0.00022197	0.00034971	0.0001064	691.21	3.031e-06	3.3666e-06	640.11	234.76	3.018e-06	4.3839e-06	247.6	103.96	90.209	44.763	2.3018e-06	53.921	0.00028291	0.00017827	5.1326e-05	674.54	2.0736e-06	1.8084e-06	623.46	229.31	2.1825e-06	3.1662e-06	241.26	102.47	89.1	44.434	3.5209e-06	53.001	137.409	12.800	39.706	-48.462	78.529	93.484	-49.755	-43.586	63.998	89.980	-46.245	-42.133	-38.961	-34.543	136.450	-38.198	-8191	255	
25716.635	1	1	0	0	0.064342	0.16951	0.14287	0.075894	0.12719	0.097861	0.12237	0.1205	0.2587	0.24059	0.15389	0.25536	0.2366	0.33292	0.0076939	0.26185	-2.4854	-2.7417	-3.0396	-2.9229	-2.7229	-3.0521	-3.0833	-2.9313	-3.2042	-2.8875	-3.0563	-3.0062	-2.8271	-3.3563	-2.8625	-2.9208	272.455	157.626	52.276	-11.528	167.824	166.282	139.276	88.794	239.170	197.244	34.121	49.666	-57.251	279.687	81.123	277.699	0.00022169	0.00040911	0.00011627	696.42	2.8722e-06	3.9201e-06	644.97	234.39	1.6252e-06	4.3144e-06	248.46	103.96	90.323	45.143	2.3497e-06	53.76	0.00028757	0.00018206	4.8964e-05	676.41	2.2042e-06	1.8035e-06	626.14	229.34	2.2026e-06	3.0006e-06	242.56	102.68	89.29	44.534	3.1274e-06	52.999	136.342	23.588	28.505	-48.354	78.270	93.474	-49.682	-43.313	75.336	105.687	-45.824	-41.779	-38.940	-34.680	77.506	-38.113	-8191	255	
25716.730	1	1	0	0	0.17455	0.1175	0.056105	0.26016	0.09776	0.16894	0.11685	0.17288	0.45949	0.20323	0.14624	0.15506	0.22769	0.14147	0.28321	0.3746	-2.6417	-2.8396	-2.9896	-3.0292	-2.7333	-2.9604	-2.9667	-3.1146	-3.1	-2.8271	-3.0958	-3.1229	-2.7542	-3.1042	-2.9875	-2.9292	2.912	133.847	285.149	248.716	261.346	289.884	262.867	233.056	11.962	-55.204	254.739	45.302	54.817	-18.744	21.479	234.511	0.00020758	0.00038775	0.00011947	695.89	3.5165e-06	3.8488e-06	643.82	233.5	2.2059e-06	4.2821e-06	246.53	103.92	89.94	44.815	1.752e-06	53.601	0.00026977	0.00018098	5.3794e-05	677.14	2.8902e-06	1.8566e-06	624.95	229.31	2.0301e-06	2.8595e-06	240.95	102.11	88.941	44.444	3.6246e-06	52.812	139.361	20.999	41.141	-48.602	76.156	108.419	-49.713	-43.189	60.495	96.607	-46.237	-42.205	-39.233	-34.738	111.576	-38.402	-8191	255	
25716.850	1	1	0	0	0.027672	0.26249	0.12012	0.097919	0.088875	0.11268	0.17008	0.14718	0.083894	0.032356	0.0062248	0.21769	0.10452	0.4535	0.15379	0.39748	-2.65	-2.6646	-2.9729	-3.0958	-2.6583	-3.1562	-3.1375	-2.8812	-3.0812	-2.9583	-2.9437	-2.9708	-2.7938	-2.9271	-3.0146	-2.7812	45.101	19.961	-46.780	185.429	48.271	66.949	164.594	-60.716	20.307	197.705	163.672	256.137	85.293	231.116	141.549	266.786	0.00018913	0.00038749	0.00011801	699.79	3.2604e-06	4.0657e-06	640.18	235.7	2.7277e-06	2.9503e-06	247.55	104.49	90.396	45.108	3.5084e-06	53.483	0.00026517	0.00017703	5.3993e-05	677.9	2.9373e-06	1.8319e-06	624.72	231.18	2.2127e-06	3.1247e-06	241.89	102.5	89.35	44.707	2.9676e-06	52.866	137.584	13.323	37.253	-48.355	60.139	93.772	-49.550	-43.298	74.080	97.157	-45.995	-42.085	-39.201	-34.648	68.144	-38.110	-8191	255	
25716.945	1	1	0	0	0.26109	0.10943	0.1438	0.23652	0.088627	0.020103	0.05588	0.15474	0.0465	0.027064	0.16853	0.15184	0.23006	0.011402	0.077063	0.11026	-2.6729	-2.7583	-2.9583	-3.1375	-2.9042	-3.0479	-2.9562	-2.8229	-2.925	-2.8646	-2.8688	-3.1833	-2.95	-3.0396	-3.0271	-2.7708	15.595	151.812	35.860	253.150	197.528	74.323	12.982	254.068	34.016	29.348	-5.659	253.351	296.637	180.412	9.646	125.352	0.00019531	0.0004149	0.00013075	697.53	2.7647e-06	3.1108e-06	640.56	236.03	1.36e-06	4.3154e-06	247.36	103.59	90.572	44.951	2.7698e-06	53.321	0.00027201	0.00019002	5.1509e-05	678.55	3.0802e-06	2.1332e-06	626.5	231.06	1.9666e-06	3.0141e-06	241.26	102.17	89.352	44.5	2.3729e-06	52.684	129.777	19.240	21.784	-48.267	80.633	102.105	-49.869	-43.188	70.437	97.114	-46.242	-42.012	-38.756	-34.524	90.934	-38.196	-8191	255	
25717.018	1	1	0	0	0.2679	0.065459	0.42395	0.3276	0.20964	0.1395	0.30819	0.15556	0.089066	0.2275	0.079434	0.24147	0.26819	0.14483	0.19383	0.022517	-2.5167	-2.7208	-2.9021	-2.9917	-2.8042	-3.0312	-3.0125	-2.7375	-3.0396	-3.0771	-2.7979	-3.2229	-2.8583	-3.075	-2.9458	-2.8667	242.597	77.683	233.586	238.632	73.775	257.573	237.909	285.352	12.651	214.447	83.258	-45.452	197.390	210.371	17.315	131.584	0.00018163	0.00035557	0.00013232	698.48	2.7127e-06	4.8511e-06	640.15	235.64	2.3329e-06	4.9151e-06	248.85	104.42	90.987	45.056	1.9834e-06	53.637	0.0002718	0.00018531	5.8001e-05	679.12	2.9127e-06	2.1011e-06	625.35	231.48	2.1825e-06	3.209e-06	243.42	102.65	89.826	44.634	2.2249e-06	52.824	136.413	18.721	27.987	-48.369	97.813	94.824	-49.874	-43.651	84.345	96.133	-45.977	-42.249	-39.160	-34.520	89.595	-38.168	-8191	255	
25717.137	1	1	0	0	0.16104	0.13857	0.12667	0.26221	0.1222	0.051022	0.19919	0.29135	0.072438	0.19624	0.064496	0.089016	0.13137	0.11445	0.064895	0.033414	-2.6646	-2.925	-2.7979	-3.0333	-2.9167	-2.8646	-3.2667	-2.8063	-3.0271	-2.8604	-2.8729	-3.2104	-2.8375	-3.0396	-2.9875	-2.8563	49.627	41.118	-42.031	278.368	168.025	-20.503	98.759	150.070	165.796	234.109	156.887	247.961	260.832	235.040	26.880	130.916	0.00018714	0.00035498	0.00012346	696.15	3.7556e-06	3.6331e-06	636.03	236.16	2.0526e-06	3.664e-06	246.15	102.69	89.931	44.709	2.47e-06	53.487	0.00027923	0.0001865	5.2103e-05	678.99	3.184e-06	1.8868e-06	620.21	230.49	2.3926e-06	2.5577e-06	240.15	101.46	89.084	44.365	2.1918e-06	52.301	129.777	13.376	31.971	-48.173	102.518	87.985	-49.933	-43.578	79.363	81.669	-46.284	-41.810	-38.964	-34.546	105.908	-38.240	-8191	255	
25717.232	1	1	0	0	0.2218	0.090108	0.13357	0.26652	0.19309	0.23671	0.062852	0.12759	0.1	0.17429	0.20753	0.27212	0.17831	0.082366	0.19482	0.22889	-2.6521	-2.9979	-2.8396	-3.1271	-2.8625	-2.8187	-3.1625	-2.8208	-2.9688	-3.0104	-2.7271	-2.9542	-2.6562	-2.8292	-3.0979	-2.9313	-60.631	213.665	218.351	272.966	281.473	-23.515	148.831	58.355	186.143	168.471	36.550	-49.936	134.077	233.246	-24.752	166.509	0.00021716	0.00040496	0.00011446	692.01	2.8147e-06	3.79e-06	634.16	233.58	3.1756e-06	5.0292e-06	245.55	103.39	89.99	44.758	2.6609e-06	53.421	0.0002754	0.00019549	5.3535e-05	674.15	3.0272e-06	2.0517e-06	618.45	229.72	2.2598e-06	1.9827e-06	240.34	101.73	89.282	44.519	2.2182e-06	52.618	131.359	17.413	27.381	-48.327	88.912	91.477	-49.594	-43.265	91.525	84.289	-46.056	-41.956	-38.900	-34.516	75.221	-38.225	-8191	255	
25717.328	1	1	0	0	0.15619	0.17015	0.32174	0.23929	0.15369	0.19719	0.20731	0.29988	0.16876	0.10294	0.12122	0.087911	0.14709	0.1776	0.033515	0.13922	-2.4437	-2.9333	-2.5875	-3.0354	-2.7792	-2.8667	-3.0875	-2.8458	-2.9562	-3.0833	-2.8542	-3.1437	-2.9333	-2.8958	-3.1958	-2.925	275.787	246.068	274.869	269.432	152.507	4.370	-57.562	187.619	123.699	245.776	215.505	258.757	233.032	174.109	25.848	218.029	0.00020673	0.0004088	0.00010968	695.48	3.6379e-06	3.9418e-06	642.96	235.05	2.5138e-06	4.2431e-06	247.72	103.03	90.468	45.05	2.7847e-06	53.761	0.00028848	0.00017313	5.3535e-05	677.37	3.2081e-06	1.8745e-06	623.77	231.02	2.2889e-06	1.7517e-06	241.8	102.3	89.453	44.724	2.189e-06	52.943	138.902	45.379	31.109	-48.048	74.185	99.321	-49.681	-43.425	100.869	87.251	-46.115	-42.103	-39.168	-34.538	127.653	-38.490	-8191	255	
25717.424	1	1	0	0	0.12361	0.1947	0.089462	0.12898	0.10862	0.19549	0.065257	0.1118	0.06876	0.10283	0.052558	0.26252	0.19159	0.048401	0.11615	0.31763	-2.2021	-3.0479	-2.8063	-3.1417	-2.9833	-2.7958	-3.0604	-2.9938	-2.9854	-3.0104	-2.8521	-2.9917	-2.9729	-2.9083	-3.0667	-2.9208	177.917	105.843	118.200	274.747	4.995	169.639	40.307	69.125	82.505	258.632	149.217	271.663	66.838	265.489	145.023	117.263	0.00020099	0.00048025	0.0001157	698.77	3.12e-06	4.9297e-06	644.48	236.43	2.2387e-06	4.2408e-06	247.64	104.01	90.918	45.532	2.6655e-06	53.94	0.00028925	0.00019619	5.1173e-05	679.83	2.612e-06	2.2974e-06	625.73	231.69	2.281e-06	1.7963e-06	241.92	102.25	89.956	44.897	2.212e-06	52.986	132.311	21.514	21.639	-48.318	74.329	83.736	-49.932	-43.227	72.662	85.801	-45.895	-41.827	-39.189	-34.463	63.985	-38.396	-8191	255	
25717.545	1	1	0	0	0.097893	0.11533	0.14784	0.17564	0.081197	0.097809	0.19913	0.13082	0.055314	0.35368	0.31861	0.19349	0.2272	0.2096	0.11883	0.19212	-2.5708	-3.0187	-2.9479	-3.0708	-3.0187	-2.9062	-3.225	-2.9938	-2.7125	-3.1813	-2.8708	-3.2583	-2.9479	-2.8708	-3.1167	-3.1063	100.298	-7.139	210.955	294.578	-14.742	-35.468	-37.981	29.794	44.201	292.509	270.339	196.231	218.818	273.504	159.345	273.530	0.00019602	0.00033699	0.00011466	698.38	3.2697e-06	2.9573e-06	637.79	235.97	1.8869e-06	4.6699e-06	247.24	103.91	91.562	45.587	2.8013e-06	53.887	0.00028515	0.00017638	5.3703e-05	677.74	2.0838e-06	3.2291e-06	620.56	231.45	2.237e-06	1.9735e-06	241.57	102.2	90.273	45.134	2.4132e-06	53.04	133.770	30.782	37.375	-48.224	96.358	105.390	-49.636	-43.745	82.965	78.782	-46.082	-41.997	-39.380	-34.579	64.903	-38.278	-8191	255	
25717.615	1	1	0	0	0.34423	0.16814	0.20375	0.24812	0.19167	0.16177	0.20057	0.11733	0.20381	0.11061	0.16677	0.11289	0.12674	0.43177	0.13628	0.434	-2.5812	-2.9042	-2.6896	-3.0333	-3.0708	-2.7854	-3.1229	-3.1667	-2.6479	-3.0083	-2.9313	-2.9958	-3.1792	-2.9771	-2.85	-3.0125	115.549	215.773	207.817	63.968	17.620	80.227	195.005	193.716	165.140	6.929	163.655	192.381	52.779	225.681	296.109	254.226	0.00017703	0.00040361	0.00010404	696.16	3.1131e-06	5.0357e-06	634.23	235.64	1.4493e-06	3.4879e-06	246.41	103.13	90.399	45.016	3.1924e-06	53.21	0.00028049	0.00017432	5.3779e-05	677.09	2.0592e-06	2.9241e-06	618.91	231.06	2.1878e-06	1.7939e-06	240.58	101.44	89.309	44.632	2.342e-06	52.509	133.534	26.976	27.554	-48.446	84.339	79.797	-49.909	-43.456	73.202	81.321	-45.870	-41.988	-38.854	-34.415	76.732	-38.105	-8191	255	
25717.713	1	1	0	0	0.20969	0.095738	0.11258	0.34002	0.26903	0.32931	0.24627	0.11607	0.099232	0.12804	0.016218	0.077446	0.18133	0.052903	0.23907	0.35893	-2.4104	-3.1292	-2.7812	-3.0104	-3.025	-2.8479	-3.225	-2.9792	-2.7979	-3.0854	-2.7896	-2.9562	-2.9979	-2.8667	-3.0542	-3.0417	55.695	241.036	98.448	-53.225	126.154	123.775	207.865	4.279	221.139	220.231	279.721	-36.863	295.074	86.973	219.975	-16.894	0.00020489	0.00045644	0.0001266	694.59	2.5582e-06	4.4652e-06	635.33	234.99	2.2236e-06	4.8205e-06	246.58	103.98	90.426	45.194	2.5118e-06	53.848	0.0002985	0.00016555	5.2834e-05	677.19	1.8216e-06	3.0333e-06	619.45	230.2	2.3651e-06	1.8403e-06	241.14	102.1	89.589	44.862	2.1789e-06	52.885	135.756	24.347	21.892	-48.303	84.795	94.266	-49.918	-43.424	65.825	88.967	-45.875	-42.005	-39.114	-34.617	82.660	-38.545	-8191	255	
25717.809	1	1	0	0	0.033579	0.17118	0.31634	0.12002	0.022547	0.14286	0.088437	0.13125	0.25461	0.067497	0.049422	0.081806	0.036635	0.15431	0.13928	0.055717	-2.2	-3.0479	-2.8583	-2.8583	-3.0333	-2.625	-3.0146	-3.2396	-2.7479	-3.15	-2.9667	-2.8167	-3.2542	-2.8896	-2.95	-3.05	186.956	255.311	225.169	183.294	121.968	219.865	-38.386	-3.659	40.760	181.364	152.862	241.222	64.619	288.353	-22.174	-37.917	0.0001978	0.00039017	0.0001077	694.61	3.6075e-06	3.7632e-06	635.32	236.06	2.6259e-06	3.2467e-06	246.84	103.57	90.696	45.766	3.9083e-06	53.83	0.00034095	0.00017541	5.3993e-05	675.35	2.1218e-06	3.0858e-06	619.5	231.56	2.2942e-06	1.7548e-06	241.34	102.1	89.963	45.23	2.2877e-06	53.071	133.760	25.429	32.620	-48.448	92.952	75.653	-49.661	-43.136	64.458	106.629	-45.685	-41.973	-39.283	-34.601	89.946	-38.225	-8191	255	
25717.930	1	1	0	0	0.20718	0.21064	0.15519	0.12428	0.36821	0.056778	0.16741	0.078369	0.13983	0.12205	0.14255	0.085461	0.073444	0.089037	0.092671	0.2581	-2.2479	-3.1562	-2.8417	-2.7625	-2.9188	-2.8375	-3.0833	-3.1521	-2.675	-3.1625	-2.8896	-2.8042	-3.1854	-2.9354	-2.8667	-3.1208	166.017	47.879	236.815	163.434	83.362	248.439	283.915	253.151	153.319	-12.759	-8.068	234.827	-13.220	-9.489	-6.896	162.879	0.00019091	0.00041574	0.0001243	697.93	3.4431e-06	5.5764e-06	631.26	236.33	2.8597e-06	4.2604e-06	247.03	103.62	90.602	45.409	3.4208e-06	53.666	0.00032836	0.00019652	5.3703e-05	675.51	1.8922e-06	3.2402e-06	615.99	231.02	2.2254e-06	1.957e-06	240.29	102.07	89.743	44.986	2.4116e-06	52.885	144.504	30.470	24.776	-48.325	86.470	119.140	-49.726	-43.476	71.264	86.891	-46.187	-42.117	-39.221	-34.684	88.460	-38.333	-8191	255	
25718.025	1	1	0	0	0.21239	0.14153	0.28153	0.34392	0.15008	0.21944	0.15626	0.23229	0.25506	0.13466	0.11696	0.28956	0.27948	0.22389	0.27394	0.23746	-2.3229	-2.8187	-2.9917	-2.8729	-3.0604	-2.825	-2.9146	-3.2042	-2.9542	-3.0833	-3.0771	-2.7667	-3.0729	-3.0312	-3.0438	-3.1979	293.805	124.955	0.989	235.384	233.610	290.140	225.120	214.371	153.038	-28.780	-53.201	263.927	280.277	-0.571	-35.205	216.058	0.00020613	0.00041037	0.00011105	691.75	2.5507e-06	4.9575e-06	635.84	234.52	2.4544e-06	4.1922e-06	247.79	103.81	90.676	45.167	2.2779e-06	53.664	0.00033635	0.00018699	5.0427e-05	673.58	1.9725e-06	3.0636e-06	618.13	230.16	2.2333e-06	1.9265e-06	240.73	102.02	89.675	44.863	2.3017e-06	52.675	132.853	34.136	36.848	-48.310	77.204	89.111	-49.784	-43.146	65.889	94.436	-45.750	-41.924	-39.124	-34.442	105.161	-38.646	-8191	255	
25718.121	1	1	0	0	0.24882	0.10221	0.24304	0.0821	0.23632	0.19003	0.22845	0.27246	0.17561	0.18089	0.26911	0.20308	0.1467	0.16214	0.19232	0.20834	-2.4479	-2.9437	-3.0563	-2.9229	-2.8667	-2.9833	-2.7562	-3.2083	-2.75	-3.1396	-3.0042	-2.925	-3.1417	-3.0438	-2.8063	-3.1146	3.222	174.482	275.028	-33.319	120.606	192.194	270.207	208.338	32.419	166.119	251.008	219.291	261.257	248.576	-60.815	294.148	0.00021136	0.00039224	0.00012732	694.52	3.7551e-06	5.1812e-06	636.06	236.57	1.0911e-06	3.256e-06	247.69	104.24	90.894	45.527	1.9096e-06	53.956	0.00033231	0.00018434	5.4221e-05	676.15	2.1491e-06	3.2124e-06	619.19	231.29	2.0698e-06	1.8849e-06	242.1	102.58	90.053	45.156	2.2114e-06	53.106	136.772	42.552	27.349	-48.323	79.803	89.954	-49.416	-43.521	23.215	84.661	-45.756	-42.052	-39.125	-34.561	107.956	-38.308	-8191	255	
25718.242	1	1	0	0	0.32578	0.096201	0.13436	0.13493	0.17955	0.14835	0.26659	0.11023	0.20381	0.19985	0.15745	0.086253	0.16369	0.31974	0.22523	0.20453	-2.5125	-3.0167	-3.1479	-2.9188	-3.2188	-2.9125	-2.9437	-3.3354	-2.75	-2.8875	-3.2438	-2.8063	-2.9708	-2.9688	-2.8583	-3.2687	189.446	24.837	263.102	154.585	-34.167	115.808	242.244	181.102	174.054	-27.135	283.970	229.771	292.380	250.929	12.556	296.040	0.00016886	0.00049913	0.00013671	690.05	1.8579e-06	3.8571e-06	637.18	236.03	2.0917e-06	4.1708e-06	246.87	103.92	90.591	45.509	3.2972e-06	53.788	0.00034384	0.00018645	5.0274e-05	673.89	1.8895e-06	2.1264e-06	618.87	231.46	2.2672e-06	1.9155e-06	240.48	102.43	89.954	45.183	2.4564e-06	52.889	134.541	27.284	31.431	-48.515	76.084	71.161	-49.903	-43.386	62.511	93.635	-45.728	-42.386	-38.723	-34.789	82.131	-38.395	-8191	255	
25718.314	1	1	0	0	0.18226	0.24307	0.29421	0.16792	0.21574	0.085827	0.042949	0.11092	0.15243	0.19918	0.094178	0.10908	0.27016	0.19338	0.041266	0.086449	-2.4417	-2.725	-2.9708	-2.8688	-2.9688	-2.9958	-2.7812	-3.2521	-3.0208	-2.8583	-3.1125	-2.8583	-3.0917	-2.9104	-2.9083	-3.1688	-26.720	225.038	40.514	287.715	-59.588	224.600	200.394	276.784	-40.008	235.992	52.527	270.381	-13.356	209.884	160.123	-24.350	0.00018592	0.00032519	9.8279e-05	692.69	2.2355e-06	4.069e-06	633.2	236.78	1.5932e-06	3.5214e-06	246.32	103.41	91.167	45.699	2.2394e-06	53.643	0.00033886	0.0001956	5.1432e-05	674.72	2.0881e-06	1.977e-06	618.21	232.28	2.272e-06	2.0157e-06	241.03	102.34	90.136	45.334	2.1778e-06	52.871	138.005	19.910	28.260	-48.379	74.272	94.034	-49.802	-43.391	92.049	87.187	-45.884	-42.099	-38.914	-34.767	94.358	-38.371	-8191	255	
25718.410	1	1	0	0	0.19267	0.23705	0.083947	0.17926	0.19265	0.26195	0.15403	0.26655	0.085195	0.21112	0.04212	0.24982	0.11627	0.15271	0.10304	0.046573	-2.5917	-2.8312	-2.9896	-2.8625	-2.9646	-3.0104	-2.8625	-3.3771	-2.9521	-2.7771	-3.1646	-2.9333	-3.0292	-3.1646	-2.6333	-3.0667	264.696	250.596	220.687	211.567	73.176	31.808	-16.529	169.053	36.217	237.258	-9.573	280.374	-45.498	27.043	32.005	46.363	0.00020079	0.00034249	8.5567e-05	693.77	2.6103e-06	5.0881e-06	634.72	236.5	1.8171e-06	4.0588e-06	246.13	103.71	90.985	45.62	2.5223e-06	53.503	0.00033603	0.00020015	4.9863e-05	675.48	2.0255e-06	1.9171e-06	618.35	232.13	2.1995e-06	1.9693e-06	240.99	102.24	90.086	45.175	2.2742e-06	52.711	138.314	33.764	29.187	-48.258	88.257	99.490	-49.836	-43.325	80.172	95.492	-45.949	-42.251	-39.107	-34.470	92.997	-38.257	-8191	255	
25718.529	1	1	0	0	0.21656	0.15209	0.13492	0.28198	0.13317	0.10913	0.18495	0.13617	0.37244	0.15611	0.26276	0.15604	0.16983	0.18357	0.20641	0.34081	-2.4708	-2.7417	-2.9875	-2.9292	-2.8646	-3.0167	-2.8438	-3.1063	-2.9375	-2.8083	-3.2896	-2.9813	-3.0687	-3.1917	-2.8479	-2.9771	275.436	131.329	170.585	283.290	0.198	263.208	186.830	42.586	30.981	253.479	-37.911	281.810	257.168	217.649	109.193	164.806	0.00019587	0.00041576	9.8883e-05	697.48	3.6926e-06	4.7976e-06	632.49	238.22	1.1395e-06	4.6489e-06	246.79	103.52	90.877	45.563	2.7836e-06	53.528	0.00029786	0.00023247	4.9604e-05	677.3	2.2593e-06	1.8763e-06	618.44	232.03	2.0746e-06	1.8911e-06	241.11	102.3	90.048	45.219	2.4031e-06	52.803	139.139	14.006	33.129	-48.245	74.400	102.708	-49.817	-43.397	62.241	95.589	-45.705	-42.396	-38.811	-34.488	76.462	-38.174	-8191	255	
25718.625	1	1	0	0	0.016952	0.090814	0.13212	0.10349	0.22284	0.12995	0.2803	0.078995	0.14985	0.15694	0.33292	0.1007	0.13167	0.13723	0.26364	0.049892	-2.3688	-2.7083	-3.0896	-3.1146	-2.7979	-3.1854	-2.8	-3.0625	-2.9813	-2.7542	-3.0812	-2.8542	-2.7708	-3.1063	-2.8167	-3.0104	24.870	250.045	-3.308	-25.200	293.487	65.298	138.158	271.213	49.789	132.735	202.226	250.460	297.551	20.327	206.943	-35.948	0.00018912	0.00028854	0.00011126	695.84	2.0003e-06	3.854e-06	631.47	236.26	2.2815e-06	2.97e-06	245.21	103.91	91	45.615	3.048e-06	53.653	0.00026101	0.00030236	5.0061e-05	675.06	2.125e-06	1.8467e-06	616.7	231.71	2.2884e-06	1.8092e-06	239.85	102.19	90.143	45.282	2.3196e-06	52.81	136.435	17.610	25.678	-48.498	78.446	74.004	-49.801	-43.279	67.756	90.878	-45.725	-42.016	-39.355	-34.598	94.567	-38.366	-8191	255	
25718.721	1	1	0	0	0.29384	0.17033	0.21989	0.15573	0.11858	0.12561	0.053811	0.28365	0.25493	0.083979	0.35979	0.07424	0.24265	0.12366	0.16838	0.28946	-2.5271	-2.8167	-2.9479	-3.0208	-2.5917	-2.9792	-2.9042	-2.9771	-3.0208	-2.8521	-3.0708	-3.0375	-2.8375	-3.1021	-2.9208	-2.725	74.187	236.428	-17.203	108.351	-57.693	175.286	20.792	148.349	212.577	165.336	-11.350	-15.341	286.492	-22.304	88.056	294.917	0.00018853	0.00035757	8.8775e-05	690.41	2.6654e-06	3.9911e-06	633.59	237.05	3.0551e-06	2.8272e-06	246.39	103.56	92.201	45.928	3.2044e-06	53.658	0.00027828	0.00026906	4.8811e-05	673	2.0592e-06	1.8374e-06	615.85	232.07	2.1894e-06	1.9185e-06	240.72	101.89	90.345	45.443	2.2787e-06	52.817	130.923	27.936	17.055	-48.391	74.861	97.308	-50.014	-43.405	89.762	85.035	-45.890	-41.893	-39.106	-34.695	88.288	-38.292	-8191	255	
25718.842	1	1	0	0	0.16381	0.16565	0.12013	0.14294	0.37018	0.14593	0.072016	0.13423	0.25703	0.14118	0.16268	0.26176	0.11694	0.16621	0.12918	0.3415	-2.6417	-2.95	-3.0271	-3.0687	-2.7938	-3.1188	-2.8333	-2.9021	-3.1333	-2.9208	-2.9688	-3.1562	-2.8229	-3.1396	-2.7771	-2.8604	276.428	164.135	-34.418	221.213	225.051	237.705	169.277	8.598	212.634	253.621	189.250	-23.190	207.348	287.304	255.486	212.796	0.00019303	0.00043186	0.00011388	692.97	3.0234e-06	4.4505e-06	633.08	237.1	1.8051e-06	3.8143e-06	247.87	104.16	91.821	45.953	1.9171e-06	53.859	0.00026685	0.00031741	5.3093e-05	675.35	2.0303e-06	1.767e-06	615.85	232.35	2.0079e-06	2.0536e-06	242.14	102.57	90.712	45.608	2.4575e-06	53.231	134.519	13.232	33.099	-48.274	77.954	92.969	-49.655	-43.548	72.251	98.337	-45.854	-42.092	-38.955	-34.850	84.037	-38.371	-8191	255	
25718.912	1	1	0	0	0.078081	0.15934	0.21264	0.092118	0.14664	0.16196	0.23378	0.22507	0.060856	0.13992	0.22742	0.11448	0.1977	0.27899	0.14273	0.20143	-2.6542	-2.8229	-2.8167	-2.9271	-2.6792	-3.1333	-2.9521	-2.9625	-3.025	-2.8729	-3.0646	-2.95	-2.8625	-3.1979	-3.0083	-3.0125	221.472	-11.298	134.035	-43.222	240.933	-6.373	-10.210	200.748	261.154	6.814	250.571	157.011	264.618	13.305	88.757	278.524	0.00018523	0.00036844	0.00013381	699.91	1.7243e-06	3.7863e-06	637.69	238.59	2.3025e-06	3.3393e-06	249.38	104.9	92.54	46.278	3.347e-06	54.277	0.00028061	0.00027561	5.4816e-05	678.28	2.1416e-06	1.9813e-06	621.57	233.93	2.1804e-06	1.9876e-06	243.64	102.97	91.464	46.06	2.3661e-06	53.445	135.053	20.024	29.995	-48.467	76.599	100.255	-49.785	-43.109	77.333	81.898	-45.930	-42.301	-39.026	-34.513	90.370	-38.226	-8191	255	
25719.010	1	1	0	0	0.14732	0.22022	0.17152	0.20106	0.068293	0.12589	0.1197	0.26352	0.20578	0.12386	0.22586	0.094168	0.2399	0.14873	0.11421	0.091483	-2.6729	-2.7521	-3.0521	-3.025	-2.675	-3.05	-3.0479	-2.9062	-2.9875	-2.8563	-2.9667	-2.9771	-2.8458	-3.125	-2.8667	-2.925	138.266	240.750	245.876	287.969	-12.108	-5.330	143.777	284.646	131.706	223.349	13.157	217.247	184.302	264.838	76.186	202.390	0.00021133	0.00048568	9.5711e-05	695.99	2.4568e-06	5.0785e-06	632.62	240.26	1.335e-06	3.7126e-06	249.13	104.58	92.166	46.396	2.54e-06	53.694	0.00026944	0.00030474	5.1981e-05	676.56	1.9896e-06	2.0078e-06	618.02	234.67	2.1158e-06	1.8495e-06	242.66	102.6	91.127	45.933	2.3476e-06	53.104	135.005	17.719	29.015	-48.021	82.732	87.877	-49.398	-43.377	69.681	81.550	-45.831	-42.090	-38.906	-34.663	71.056	-38.130	-8191	255	
#DATA ENDS
