BOXY.EXE: ISS Imagent and Oximeter Data Acquisition Program Version 0.80
Ascii Record File

#ACQ INFORMATION
2  Detector Channels 
16  External MUX Channels 
1  Auxiliary Channels 
5000  Waveform (CCF) Frequency (Hz)
1  Waveforms Skipped 
30  Waveforms Averaged 
1  Cycles Averaged 
16  Acquisitions per Waveform 
10.0806  Updata Rate (Hz) 

#FILE INFORMATION
TRUE -- External MUX Channel results are PARSED.
FALSE -- AC DC and Phase are NOT grouped.
TRUE -- Companion Program Settings File CREATED.
FALSE -- AC data not excluded
FALSE -- DC data not excluded
FALSE -- Phase data not excluded
FALSE -- Auxillary Chn. data not excluded
Tab delimiters

#CALIBRATION STATE
TRUE -- Waveform Calibration Values APPLIED.


#AUX CALIBRATION VALUES
Val Type	aux-1	

Term	1.0000e+00	
Factor	0.0000e+00	


#WF CALIBRATION VALUES
A = Detector Channel
Val Type	A-AC1	A-AC2	A-AC3	A-AC4	A-AC5	A-AC6	A-AC7	A-AC8	A-AC9	A-AC10	A-AC11	A-AC12	A-AC13	A-AC14	A-AC15	A-AC16	A-DC1	A-DC2	A-DC3	A-DC4	A-DC5	A-DC6	A-DC7	A-DC8	A-DC9	A-DC10	A-DC11	A-DC12	A-DC13	A-DC14	A-DC15	A-DC16	A-Ph1	A-Ph2	A-Ph3	A-Ph4	A-Ph5	A-Ph6	A-Ph7	A-Ph8	A-Ph9	A-Ph10	A-Ph11	A-Ph12	A-Ph13	A-Ph14	A-Ph15	A-Ph16	

Term	0.00000e+00	0.00000e+00	0.00000e+00	0.00000e+00	0.00000e+00	0.00000e+00	0.00000e+00	0.00000e+00	0.00000e+00	0.00000e+00	0.00000e+00	0.00000e+00	0.00000e+00	0.00000e+00	0.00000e+00	0.00000e+00	0.00000e+00	0.00000e+00	0.00000e+00	0.00000e+00	0.00000e+00	0.00000e+00	0.00000e+00	0.00000e+00	0.00000e+00	0.00000e+00	0.00000e+00	0.00000e+00	0.00000e+00	0.00000e+00	0.00000e+00	0.00000e+00	0.00000e+00	0.00000e+00	0.00000e+00	0.00000e+00	0.00000e+00	0.00000e+00	0.00000e+00	0.00000e+00	0.00000e+00	0.00000e+00	0.00000e+00	0.00000e+00	0.00000e+00	0.00000e+00	0.00000e+00	0.00000e+00	
Factor	1.00000e+00	1.00000e+00	1.00000e+00	1.00000e+00	1.00000e+00	1.00000e+00	1.00000e+00	1.00000e+00	1.00000e+00	1.00000e+00	1.00000e+00	1.00000e+00	1.00000e+00	1.00000e+00	1.00000e+00	1.00000e+00	1.00000e+00	1.00000e+00	1.00000e+00	1.00000e+00	1.00000e+00	1.00000e+00	1.00000e+00	1.00000e+00	1.00000e+00	1.00000e+00	1.00000e+00	1.00000e+00	1.00000e+00	1.00000e+00	1.00000e+00	1.00000e+00	X	X	X	X	X	X	X	X	X	X	X	X	X	X	X	X	

B = Detector Channel
Val Type	B-AC1	B-AC2	B-AC3	B-AC4	B-AC5	B-AC6	B-AC7	B-AC8	B-AC9	B-AC10	B-AC11	B-AC12	B-AC13	B-AC14	B-AC15	B-AC16	B-DC1	B-DC2	B-DC3	B-DC4	B-DC5	B-DC6	B-DC7	B-DC8	B-DC9	B-DC10	B-DC11	B-DC12	B-DC13	B-DC14	B-DC15	B-DC16	B-Ph1	B-Ph2	B-Ph3	B-Ph4	B-Ph5	B-Ph6	B-Ph7	B-Ph8	B-Ph9	B-Ph10	B-Ph11	B-Ph12	B-Ph13	B-Ph14	B-Ph15	B-Ph16	

Term	0.00000e+00	0.00000e+00	0.00000e+00	0.00000e+00	0.00000e+00	0.00000e+00	0.00000e+00	0.00000e+00	0.00000e+00	0.00000e+00	0.00000e+00	0.00000e+00	0.00000e+00	0.00000e+00	0.00000e+00	0.00000e+00	0.00000e+00	0.00000e+00	0.00000e+00	0.00000e+00	0.00000e+00	0.00000e+00	0.00000e+00	0.00000e+00	0.00000e+00	0.00000e+00	0.00000e+00	0.00000e+00	0.00000e+00	0.00000e+00	0.00000e+00	0.00000e+00	5.86631e+01	-1.56400e+02	-1.26551e+02	-1.83880e+02	-1.09246e+02	-7.56946e+01	-1.56632e+02	-1.62015e+02	-4.97451e+01	-9.07007e+01	-1.74091e+02	-1.74047e+02	-1.85978e+02	-1.78374e+02	-8.62442e+01	-1.51155e+02	
Factor	5.26311e-05	1.61735e-04	4.04003e-05	1.79766e-01	1.77941e-06	1.50208e-06	1.73528e-01	5.90053e-02	1.98371e-06	1.52351e-06	1.02683e-01	2.97751e-02	5.44086e-02	8.92468e-03	1.82445e-06	1.29180e-02	1.91554e-06	2.01426e-06	5.61593e-07	8.71805e-02	2.19587e-08	2.21199e-08	7.97260e-02	2.86352e-02	2.18545e-08	2.20121e-08	4.81154e-02	1.39628e-02	2.54592e-02	4.34647e-03	2.18729e-08	6.10577e-03	X	X	X	X	X	X	X	X	X	X	X	X	X	X	X	X	



#DISTANCE SETTINGS
A = Detector Channel
A-1	A-2	A-3	A-4	A-5	A-6	A-7	A-8	A-9	A-10	A-11	A-12	A-13	A-14	A-15	A-16	

2.5000e+00	3.0000e+00	2.5000e+00	3.0000e+00	2.0000e+00	3.0000e+00	1.5000e+00	3.0000e+00	3.0000e+00	3.0000e+00	3.0000e+00	3.0000e+00	3.0000e+00	3.0000e+00	1.5000e+00	3.0000e+00	

B = Detector Channel
B-1	B-2	B-3	B-4	B-5	B-6	B-7	B-8	B-9	B-10	B-11	B-12	B-13	B-14	B-15	B-16	

1.0000e+01	1.0000e+01	1.0000e+01	1.4400e+00	1.0000e+01	1.0000e+01	1.5100e+00	1.9400e+00	1.0000e+01	1.0000e+01	1.9900e+00	2.4900e+00	2.4100e+00	2.9000e+00	1.0000e+01	2.9800e+00	




#DATA BEGINS
time	group	step	mark	flag	A-AC1	A-AC2	A-AC3	A-AC4	A-AC5	A-AC6	A-AC7	A-AC8	A-AC9	A-AC10	A-AC11	A-AC12	A-AC13	A-AC14	A-AC15	A-AC16	A-DC1	A-DC2	A-DC3	A-DC4	A-DC5	A-DC6	A-DC7	A-DC8	A-DC9	A-DC10	A-DC11	A-DC12	A-DC13	A-DC14	A-DC15	A-DC16	A-Ph1	A-Ph2	A-Ph3	A-Ph4	A-Ph5	A-Ph6	A-Ph7	A-Ph8	A-Ph9	A-Ph10	A-Ph11	A-Ph12	A-Ph13	A-Ph14	A-Ph15	A-Ph16	B-AC1	B-AC2	B-AC3	B-AC4	B-AC5	B-AC6	B-AC7	B-AC8	B-AC9	B-AC10	B-AC11	B-AC12	B-AC13	B-AC14	B-AC15	B-AC16	B-DC1	B-DC2	B-DC3	B-DC4	B-DC5	B-DC6	B-DC7	B-DC8	B-DC9	B-DC10	B-DC11	B-DC12	B-DC13	B-DC14	B-DC15	B-DC16	B-Ph1	B-Ph2	B-Ph3	B-Ph4	B-Ph5	B-Ph6	B-Ph7	B-Ph8	B-Ph9	B-Ph10	B-Ph11	B-Ph12	B-Ph13	B-Ph14	B-Ph15	B-Ph16	aux-1	digaux	

474.526	1	1	0	256	0.10315	0.15458	0.10974	0.2209	0.17473	0.17164	0.36468	0.18793	0.12563	0.11884	0.23269	0.37261	0.1517	0.081654	0.14107	0.14218	-3.5042	-3.9229	-3.5458	-4.3354	-3.625	-3.8542	-4.0188	-3.5021	-3.7521	-3.9792	-3.6396	-4.0021	-3.8146	-3.3396	-3.8333	-3.6354	36.440	212.991	189.864	206.260	-107.731	95.268	215.174	175.776	56.629	-14.709	-104.457	228.203	93.120	140.348	-38.430	88.428	0.00027928	0.00037709	6.6066e-05	1151.2	4.1328e-06	2.8817e-06	1216.1	239.98	3.6069e-06	2.1719e-06	297.38	84.1	65.523	19.327	5.2481e-06	26.819	0.00017218	0.00015874	5.276e-05	1118.9	1.8122e-06	1.8005e-06	1185.5	234.67	1.7764e-06	1.8183e-06	291.18	83.176	63.703	19.203	2.13e-06	26.968	31.972	-55.184	-47.000	-104.216	-29.149	62.893	-104.205	-97.279	9.333	3.833	-97.533	-90.736	-90.885	-83.421	-31.782	-84.506	-8191	255	
474.598	1	1	0	0	0.06346	0.20767	0.038696	0.18444	0.083872	0.16336	0.22144	0.14205	0.15993	0.1174	0.09487	0.064292	0.04374	0.19849	0.13405	0.13716	-3.2562	-3.8208	-3.575	-3.7438	-3.6271	-3.6625	-4.1292	-3.7271	-3.7417	-4.0083	-3.5375	-3.925	-3.8792	-3.6521	-3.9583	-3.6208	128.421	-81.885	1.294	179.528	-104.864	64.280	181.324	107.138	173.831	135.082	-91.380	223.836	239.492	-0.684	220.155	-86.157	0.00032248	0.00040601	0.00014654	1150.5	5.9859e-06	2.8768e-06	1211.6	239.94	2.0296e-06	2.0951e-06	295.44	84.167	65.862	19.272	2.7536e-06	26.917	0.00017731	0.00018854	5.6503e-05	1120.3	1.904e-06	2.0731e-06	1184.7	234.67	1.8747e-06	2.0824e-06	290.14	83.068	63.838	19.248	2.0344e-06	26.963	30.289	-8.660	-14.327	-104.017	-33.323	-71.544	-104.269	-97.581	21.324	41.825	-97.623	-91.110	-91.449	-83.555	-15.157	-83.981	-8191	255	
474.694	1	1	0	0	0.30127	0.075866	0.10951	0.17375	0.074218	0.14598	0.1363	0.2621	0.061887	0.13666	0.0979	0.090563	0.19408	0.099862	0.10492	0.14423	-3.1583	-3.8417	-3.5146	-3.8229	-3.9417	-3.5021	-4.1021	-3.6667	-3.5479	-3.9375	-3.6646	-3.7854	-3.8104	-3.5729	-3.8104	-3.6646	125.436	177.926	144.002	166.560	126.411	-40.627	179.848	148.089	-24.536	-16.697	88.430	91.949	190.586	161.575	-66.852	-61.286	0.00025802	0.00027175	9.0277e-05	1148.7	2.1027e-06	2.9893e-06	1209.4	239.42	6.0275e-06	3.3507e-06	295.78	83.846	65.578	19.337	4.5243e-06	27.27	0.00017176	0.00018564	4.9708e-05	1116.7	1.7684e-06	1.9906e-06	1179.8	234.19	1.7931e-06	1.9837e-06	290.24	82.737	63.599	19.257	1.8489e-06	26.974	14.747	-55.841	-18.063	-104.270	215.645	-51.271	-104.273	-97.229	-4.368	12.577	-97.645	-91.202	-90.854	-83.475	15.940	-84.116	-8191	255	
474.790	1	1	0	0	0.095338	0.2111	0.10428	0.090029	0.12915	0.21661	0.23583	0.13781	0.1187	0.054652	0.24643	0.26822	0.084746	0.24244	0.10239	0.12115	-3.1312	-4.1667	-3.5083	-3.7583	-3.8167	-3.5958	-4.0062	-3.7042	-3.6063	-3.8875	-3.5979	-3.7271	-3.9354	-3.5958	-3.8354	-3.825	105.237	7.488	239.160	214.588	-45.554	-106.899	204.347	145.286	-103.293	-44.548	68.277	46.200	187.026	129.873	88.759	191.770	0.00034178	0.00029868	8.534e-05	1146.2	8.6202e-07	3.3435e-06	1211.1	239.33	1.2182e-06	5.0222e-06	296.78	83.684	64.88	19.093	2.9272e-06	27.013	0.00016957	0.00018266	4.6227e-05	1113.4	1.8628e-06	1.984e-06	1179	233.79	1.8826e-06	2.038e-06	290.02	82.646	63.644	19.174	1.8278e-06	26.94	28.166	-51.466	-30.112	-104.111	243.055	44.164	-104.238	-97.213	77.324	-29.086	-97.593	-90.684	-90.888	-83.279	21.093	-84.150	-8191	255	
474.910	1	1	0	0	0.17119	0.097375	0.13983	0.32843	0.12009	0.12587	0.27583	0.1325	0.062198	0.030417	0.15986	0.22908	0.16874	0.23533	0.12292	0.063252	-3.1188	-3.85	-3.5812	-3.7167	-3.8812	-3.6646	-4.0271	-3.9167	-3.6188	-4.0271	-3.8833	-3.7208	-4.0771	-3.3896	-4.0125	-3.7375	94.630	-5.537	227.298	235.033	20.663	21.702	148.134	190.560	11.300	161.796	-33.889	-34.366	-101.352	215.300	-90.865	127.835	0.00028894	0.00051518	8.7195e-05	1147.7	1.1287e-06	3.804e-06	1209.3	238.92	5.6802e-06	6.4143e-06	297.79	83.84	64.927	19.133	2.6382e-06	27.092	0.00018799	0.00018578	4.6287e-05	1112.7	1.973e-06	1.9228e-06	1178.2	233.22	1.929e-06	1.8436e-06	289.62	82.798	63.656	19.089	1.7442e-06	26.905	26.060	-61.112	-17.530	-104.293	33.678	69.808	-104.262	-97.098	-34.488	30.579	-97.320	-90.797	-91.146	-83.509	4.721	-84.245	-8191	255	
475.007	1	1	0	0	0.063347	0.039084	0.19648	0.27719	0.1418	0.13262	0.23814	0.20686	0.39276	0.23865	0.08351	0.17578	0.24417	0.080502	0.036663	0.094491	-3.1854	-3.9625	-3.5896	-3.7333	-4.0312	-3.5125	-3.8583	-3.9521	-3.3896	-3.9313	-3.8708	-3.6125	-4.0521	-3.6	-3.7438	-4.025	-108.147	16.401	-44.449	231.746	109.252	-103.178	176.922	95.354	69.030	145.698	225.985	199.286	-14.271	184.816	94.348	152.284	0.00032388	0.00063423	9.2652e-05	1143.9	2.2438e-06	9.2107e-07	1201.9	237.1	7.0086e-06	2.7677e-06	295.65	83.34	65.006	19.14	1.6554e-06	26.801	0.00018677	0.00016777	4.2056e-05	1111.7	1.923e-06	1.7304e-06	1174.2	232.64	1.8633e-06	1.6707e-06	288.33	82.271	63.428	19.058	1.5481e-06	26.804	21.063	-40.084	-35.118	-104.358	-41.595	120.904	-104.451	-97.265	-25.861	-22.727	-97.605	-90.793	-91.180	-83.630	7.498	-84.431	-8191	255	
475.103	1	1	0	0	0.13286	0.15141	0.16478	0.2092	0.10924	0.084815	0.29169	0.012272	0.11686	0.18011	0.090421	0.21102	0.15223	0.12775	0.14083	0.029121	-3.1375	-3.9479	-3.7938	-3.5563	-3.8333	-3.5312	-3.8187	-3.9917	-3.3937	-3.9062	-3.8875	-3.6375	-3.9292	-3.7021	-3.7458	-4.0687	-43.766	36.956	164.713	181.015	228.173	215.328	194.645	143.120	40.288	206.924	-112.978	157.601	16.024	244.677	154.174	143.203	0.00033972	0.0003212	5.3418e-05	1142.1	1.1895e-06	1.8107e-06	1198.4	237.21	5.7775e-06	3.3521e-06	295.04	83.751	65.108	19.141	1.5686e-06	26.915	0.00017476	0.0001534	3.9922e-05	1108.1	1.8897e-06	1.6843e-06	1170.4	232.69	1.8762e-06	1.6377e-06	288.18	82.53	63.372	19.018	1.6161e-06	26.874	26.095	-80.766	-17.204	-104.208	36.109	-5.241	-104.379	-97.222	12.891	98.882	-97.216	-91.102	-90.362	-83.877	53.718	-84.472	-8191	255	
475.199	1	1	0	0	0.30049	0.14694	0.055169	0.26604	0.041508	0.14461	0.3364	0.084952	0.10224	0.13107	0.084494	0.26263	0.094944	0.15895	0.11285	0.024224	-3.2646	-3.9167	-3.9	-3.6896	-3.9917	-3.7167	-3.7854	-4.0917	-3.5958	-3.8063	-4.0229	-3.5812	-4.0208	-3.7583	-3.7375	-3.9938	60.049	197.988	-29.524	156.519	181.404	231.255	209.255	-42.393	17.124	-42.598	47.956	-86.491	79.324	-95.662	3.292	221.617	0.00029421	0.0001277	0.00015005	1136.2	2.5003e-06	1.1431e-06	1201.6	237.19	2.181e-06	2.2113e-06	293.68	82.641	64.894	19.15	2.1312e-06	26.552	0.00016976	0.00015438	4.0584e-05	1107	1.7779e-06	1.641e-06	1171.6	232.57	1.7358e-06	1.603e-06	288.14	82.223	62.986	19.003	1.6393e-06	26.726	25.159	24.169	-29.294	-104.260	-100.240	2.322	-104.408	-97.215	-2.607	13.147	-97.484	-90.820	-90.753	-83.305	49.460	-84.038	-8191	255	
475.293	1	1	0	0	0.14664	0.046711	0.16017	0.24981	0.18591	0.17917	0.10679	0.17252	0.037497	0.058355	0.1397	0.15904	0.2348	0.22035	0.1833	0.16729	-3.0687	-3.7562	-3.7271	-3.7375	-3.9688	-3.7854	-3.5604	-3.9521	-3.5083	-3.8646	-3.9625	-3.6354	-3.7792	-3.8042	-3.7042	-3.9667	-50.896	-1.313	121.298	33.028	79.012	97.918	199.327	144.709	156.632	87.494	154.914	95.664	146.939	-62.821	198.851	-106.410	0.00035675	0.00046649	4.4484e-05	1129.3	6.484e-06	3.0306e-06	1191.8	237.08	5.0442e-06	2.4409e-06	294.79	83.536	64.769	18.77	2.672e-06	26.769	0.0001641	0.00014302	4.1847e-05	1103.9	1.6765e-06	1.5174e-06	1165.1	232.05	1.6311e-06	1.5209e-06	287.74	82.208	62.779	18.866	1.6742e-06	26.745	35.364	-109.222	-48.451	-104.290	-45.025	28.648	-104.318	-97.079	0.352	-72.730	-97.403	-91.000	-90.862	-83.234	18.294	-84.230	-8191	255	
475.391	1	1	0	0	0.11057	0.17446	0.066863	0.057608	0.1355	0.036752	0.30884	0.16113	0.14147	0.18979	0.10469	0.11303	0.062212	0.18064	0.080071	0.016918	-3.2354	-3.8187	-3.8292	-3.6146	-3.8063	-3.9833	-3.6813	-3.9229	-3.6583	-3.7271	-3.9333	-3.5687	-3.8542	-3.8354	-3.5771	-3.925	32.113	211.145	186.457	157.920	171.430	220.903	130.013	197.753	93.461	-34.292	-63.851	-100.893	186.284	-23.247	-46.894	-56.274	0.00037166	0.00035319	4.5461e-05	1129.1	2.4853e-06	3.4145e-06	1186.9	235.27	3.3269e-06	4.0924e-06	294.19	83.247	64.231	19.056	2.5984e-06	26.777	0.00015053	0.00013853	4.3841e-05	1099	1.6282e-06	1.5305e-06	1161	231.01	1.6229e-06	1.5302e-06	287.01	82.058	62.627	18.936	1.8569e-06	26.709	35.583	-46.054	55.203	-104.152	-14.147	29.079	-104.381	-96.967	107.369	34.412	-97.377	-90.917	-91.030	-83.035	-73.806	-83.733	-8191	255	
475.510	1	1	0	0	0.14776	0.19547	0.086493	0.3214	0.12356	0.087609	0.12088	0.077615	0.28657	0.21965	0.28219	0.096071	0.10625	0.045392	0.20828	0.10968	-3.3312	-3.675	-3.9417	-3.7042	-3.7292	-3.8812	-3.7708	-4.0083	-3.7875	-3.6688	-4.0521	-3.6771	-3.8688	-3.8208	-3.5646	-3.9125	122.183	26.831	166.735	193.288	-24.318	-106.836	135.693	30.822	-72.581	10.444	-91.921	195.131	-25.333	110.750	202.407	241.637	0.00044951	0.00033265	4.9401e-05	1126.6	1.5627e-06	3.4869e-06	1192.4	235.26	5.0263e-06	2.4811e-06	293.92	82.889	64.204	18.943	3.8825e-06	26.551	0.00015461	0.00014529	4.5505e-05	1098.7	1.5657e-06	1.5503e-06	1162.7	231.16	1.5219e-06	1.5647e-06	286.53	81.799	62.146	18.896	1.6877e-06	26.604	35.245	3.122	48.892	-104.167	-62.904	0.734	-104.321	-96.860	46.083	20.535	-97.515	-91.034	-90.880	-83.388	40.907	-83.829	-8191	255	
475.606	1	1	0	0	0.18701	0.047923	0.12467	0.10309	0.033188	0.10422	0.054228	0.21084	0.062406	0.20648	0.10886	0.12159	0.19762	0.12249	0.15197	0.20326	-3.3688	-3.4417	-3.9396	-3.5417	-3.8312	-3.9708	-3.6708	-3.7396	-3.7062	-3.5563	-4.0354	-3.6	-3.7229	-3.8854	-3.6708	-3.9333	180.158	162.923	213.311	203.067	-53.446	-94.821	228.657	123.861	29.856	205.993	175.987	-71.203	-73.932	-93.647	183.469	73.294	0.00032553	0.00036459	8.6394e-05	1131	3.2443e-06	1.9154e-06	1188.1	234.71	3.0121e-06	1.7105e-06	294.23	82.485	64.148	18.943	8.7013e-07	26.672	0.00014214	0.0001479	4.2514e-05	1096.9	1.4806e-06	1.5706e-06	1157.9	229.68	1.4258e-06	1.5762e-06	285.54	81.415	62.289	18.884	1.6927e-06	26.551	28.472	-36.726	-24.634	-104.156	-79.651	-48.656	-104.230	-97.076	14.379	60.868	-97.622	-91.050	-90.464	-83.379	154.086	-84.399	-8191	255	
475.702	1	1	0	0	0.31247	0.1747	0.27093	0.15342	0.13281	0.07545	0.40973	0.22556	0.077442	0.26924	0.19123	0.12403	0.248	0.17501	0.19339	0.081959	-3.4313	-3.5917	-4.0854	-3.7271	-3.5687	-3.9688	-3.7	-3.8521	-3.8271	-3.7292	-4.0854	-3.7417	-3.7812	-4.0771	-3.6125	-4.0542	-33.591	-79.280	-69.089	108.454	137.329	61.218	175.506	173.233	64.046	102.364	216.046	-7.247	203.041	182.186	-80.086	90.744	0.00034048	0.00010215	0.00011033	1119.9	2.6165e-06	1.3134e-06	1180	234.02	2.7459e-06	4.6711e-06	292.49	82.758	64.413	18.883	4.282e-06	26.588	0.00014529	0.00015435	4.2027e-05	1090.4	1.5138e-06	1.7217e-06	1155.3	229.44	1.4872e-06	1.7344e-06	284.97	81.582	62.449	18.911	1.5942e-06	26.523	17.398	-50.284	2.252	-104.044	67.058	39.619	-104.227	-97.114	-27.076	2.150	-97.293	-90.726	-90.162	-83.487	-59.020	-83.708	-8191	255	
475.799	1	1	0	0	0.23966	0.037466	0.2412	0.1175	0.049169	0.15844	0.21168	0.15401	0.20989	0.15185	0.20154	0.12626	0.26406	0.10808	0.068781	0.15692	-3.4167	-3.6396	-4.0104	-3.6854	-3.6188	-3.9375	-3.7062	-3.875	-3.9417	-3.6375	-3.9125	-3.8854	-3.4417	-3.9521	-3.7	-3.7458	167.144	135.006	146.094	-77.540	-88.978	206.607	140.055	21.795	-95.867	-2.189	125.939	136.043	-89.613	144.470	-63.622	239.729	0.00048036	0.00032478	7.9463e-05	1118.5	2.6046e-06	2.769e-06	1185.1	234.59	2.9069e-06	4.6604e-06	293.12	82.577	64.409	18.822	4.2885e-06	26.575	0.00014395	0.0001553	3.9593e-05	1089.5	1.5532e-06	1.6711e-06	1155.5	229.34	1.5677e-06	1.7237e-06	285.66	81.384	62.438	18.811	1.5749e-06	26.496	21.516	-40.872	-26.524	-104.312	-82.733	-28.384	-104.235	-96.780	208.277	65.953	-97.503	-91.131	-90.635	-83.468	11.356	-83.981	-8191	255	
475.895	1	1	0	0	0.24687	0.074385	0.25054	0.22725	0.088579	0.06008	0.20635	0.1773	0.080309	0.17375	0.055923	0.20342	0.094637	0.088649	0.098244	0.18319	-3.5292	-3.4229	-3.9042	-3.8417	-3.6042	-3.9479	-3.6646	-3.7188	-4.1	-3.5958	-3.8563	-3.9479	-3.6396	-3.9562	-3.5354	-3.6854	117.830	159.686	86.863	197.380	91.364	185.434	151.439	240.861	149.462	168.261	-57.061	236.580	114.276	188.471	-70.943	166.076	0.0002731	0.00030375	0.00012018	1122.9	1.0316e-06	7.9515e-07	1181.5	233.95	7.1079e-06	5.9041e-06	292	82.796	64.031	18.927	2.6877e-06	26.778	0.00015865	0.00015611	3.9602e-05	1090.5	1.6904e-06	1.6669e-06	1156	229.45	1.7157e-06	1.6893e-06	284.9	81.573	62.612	18.834	1.5439e-06	26.532	15.715	-64.618	2.859	-104.298	96.869	-38.622	-104.271	-97.096	-36.106	16.827	-97.446	-90.931	-90.406	-83.222	40.795	-84.100	-8191	255	
475.991	1	1	0	0	0.11942	0.079	0.080593	0.25251	0.16688	0.079263	0.12438	0.042578	0.15447	0.11246	0.30044	0.2103	0.14642	0.18007	0.078121	0.20971	-3.5896	-3.6521	-3.6583	-3.8021	-3.5125	-4.0125	-3.8104	-3.6437	-3.9896	-3.4896	-3.8354	-3.8708	-3.5187	-3.9104	-3.7833	-3.7687	-98.856	17.862	46.952	176.528	43.615	-29.437	220.844	27.370	227.177	143.193	32.693	-114.100	153.524	183.859	88.361	27.399	0.00031143	0.00019371	9.5562e-05	1126.7	1.1254e-06	2.1801e-06	1185.6	235.21	7.5542e-07	4.5092e-06	293.57	82.827	64.909	18.956	1.7326e-06	26.512	0.00016791	0.00015533	3.856e-05	1093	1.7586e-06	1.6327e-06	1156.1	229.96	1.8025e-06	1.5986e-06	284.91	81.714	62.689	18.892	1.5535e-06	26.592	18.666	-21.002	-26.843	-104.178	1.130	55.408	-104.325	-97.405	-20.868	30.923	-97.321	-90.733	-90.659	-83.180	22.850	-84.270	-8191	255	
476.087	1	1	0	0	0.24026	0.15505	0.24846	0.1235	0.15957	0.3062	0.080306	0.21433	0.05187	0.13252	0.2941	0.38671	0.31443	0.13255	0.082457	0.25702	-3.5583	-3.4646	-3.5563	-4.05	-3.3479	-3.9292	-3.8521	-3.6958	-4.0208	-3.4833	-3.7354	-3.8917	-3.7375	-3.7979	-3.8667	-3.65	23.053	-75.870	-16.594	100.571	218.381	189.271	180.439	-112.859	72.354	235.729	202.726	161.724	106.102	225.333	170.870	-50.734	0.00029282	0.00041004	9.2167e-05	1123	5.3905e-06	4.1155e-06	1183.2	234.48	1.7772e-06	3.4505e-06	293.57	82.718	64.425	18.998	5.6291e-06	26.671	0.00017162	0.00014942	3.9061e-05	1092.9	1.8482e-06	1.6165e-06	1156.4	230.03	1.7724e-06	1.589e-06	285.33	81.65	62.572	18.872	1.456e-06	26.609	-4.444	-27.139	-1.927	-104.088	-12.037	-10.295	-104.192	-96.967	58.859	-2.205	-97.440	-91.083	-90.792	-83.697	-7.908	-84.043	-8191	255	
476.206	1	1	0	0	0.26025	0.12754	0.0094648	0.08551	0.14147	0.16573	0.17101	0.3786	0.2082	0.13981	0.070359	0.10657	0.17024	0.084602	0.12631	0.10888	-3.5708	-3.6271	-3.6792	-3.9479	-3.4667	-3.7687	-3.9958	-3.6396	-3.7583	-3.7188	-3.7646	-3.9188	-3.5938	-3.7896	-3.7667	-3.6562	-60.978	131.657	237.311	130.436	-75.119	-8.037	121.788	-95.676	212.903	-24.384	53.516	237.156	224.134	232.009	152.817	-24.492	0.00033874	0.0005123	7.5505e-05	1122.2	2.4216e-06	2.3361e-06	1186.5	233.88	1.8599e-06	4.2124e-06	292.65	82.622	64.409	18.883	2.6703e-06	26.598	0.00016971	0.00014799	3.9161e-05	1095.2	1.7776e-06	1.6054e-06	1158.4	229.83	1.7832e-06	1.6206e-06	285.63	81.76	62.611	18.822	1.5999e-06	26.621	26.889	-40.020	-2.549	-103.994	7.867	-20.176	-104.090	-96.967	87.263	45.768	-97.645	-91.020	-91.267	-83.663	90.397	-83.855	-8191	255	
476.302	1	1	0	0	0.13463	0.1252	0.11513	0.17777	0.15301	0.089593	0.19316	0.065978	0.18723	0.094366	0.19295	0.22627	0.09327	0.34192	0.13992	0.13228	-3.5646	-3.5563	-3.6646	-4.0375	-3.5979	-3.8187	-4.0333	-3.3958	-3.7146	-3.6354	-3.7021	-3.9792	-3.6521	-3.5875	-3.9958	-3.5771	-52.476	89.710	156.819	241.507	237.779	165.314	-78.917	-65.752	74.032	238.551	221.071	-78.010	-15.130	-95.482	13.095	-57.921	0.00039947	0.00045602	0.00010357	1128.8	4.7363e-06	1.4654e-06	1187.9	235.71	6.7203e-06	3.0036e-06	290.15	82.728	65.316	18.944	3.2564e-06	26.62	0.00016217	0.00014438	4.1021e-05	1097.2	1.7237e-06	1.562e-06	1160.4	230.61	1.6702e-06	1.5301e-06	284.93	81.759	62.734	18.881	1.6805e-06	26.648	21.307	-67.111	-52.232	-104.261	-56.751	-27.817	-104.330	-97.325	57.693	15.867	-97.604	-91.072	-91.181	-83.614	13.339	-84.007	-8191	255	
476.398	1	1	0	0	0.33547	0.4041	0.066632	0.038889	0.12377	0.12491	0.13688	0.13483	0.061348	0.066776	0.095891	0.20151	0.050721	0.18337	0.10623	0.12916	-3.4	-3.6354	-3.6333	-4.0958	-3.5125	-3.7042	-4.0229	-3.45	-3.8604	-3.8083	-3.6583	-4.0771	-3.6958	-3.6646	-3.9125	-3.4292	-20.243	127.894	-81.863	213.280	55.213	-92.751	56.250	118.752	69.615	191.723	199.920	235.698	39.494	215.391	124.765	72.893	0.00037304	0.00067766	8.6161e-05	1120.8	1.9907e-06	2.5334e-06	1187.9	234.35	2.8805e-06	4.6555e-06	292.76	83.386	64.197	18.985	2.5841e-06	26.751	0.00016031	0.00014287	4.4595e-05	1094.6	1.726e-06	1.5587e-06	1160.1	230.15	1.6658e-06	1.5695e-06	286.41	82.188	62.562	18.901	1.8231e-06	26.71	19.164	-24.094	-27.791	-103.945	92.149	38.758	-104.296	-97.017	-15.767	-30.868	-97.197	-90.666	-91.169	-83.356	-94.151	-84.132	-8191	255	
476.472	1	1	0	0	0.20769	0.06316	0.14237	0.14505	0.069921	0.14212	0.037411	0.092541	0.10336	0.10078	0.16181	0.0658	0.12196	0.048257	0.18922	0.19935	-3.5417	-3.8542	-3.5521	-4.1271	-3.7375	-3.6917	-4.3125	-3.5687	-3.7188	-3.8812	-3.5125	-3.9771	-3.6979	-3.6354	-3.8646	-3.6708	96.760	150.212	-27.274	-108.095	236.116	136.238	-63.509	167.362	-88.116	-11.377	113.814	-19.970	30.458	-53.698	30.258	-52.978	0.00037543	4.8585e-05	0.00013334	1128.4	4.6195e-06	1.7422e-06	1189.3	234.63	2.2356e-06	3.4317e-06	293.34	82.816	64.503	18.981	3.8788e-06	26.675	0.00015887	0.00014715	4.6441e-05	1095.8	1.6661e-06	1.6286e-06	1160.7	230.29	1.6413e-06	1.5845e-06	286.4	81.848	62.589	18.928	1.8015e-06	26.608	6.346	11.750	7.213	-104.262	-19.359	64.379	-104.232	-97.069	65.256	-33.802	-97.355	-91.359	-91.205	-83.519	148.956	-84.503	-8191	255	
476.590	1	1	0	0	0.14975	0.17666	0.18816	0.11748	0.073686	0.03085	0.34882	0.23175	0.0933	0.026945	0.23205	0.3152	0.14297	0.27991	0.11277	0.42318	-3.2625	-3.9167	-3.5458	-4.025	-3.8187	-3.5333	-4.0458	-3.5646	-3.6562	-4.0104	-3.7479	-4.0396	-3.7333	-3.6146	-4.0875	-3.4167	33.698	59.253	215.479	185.273	153.483	143.415	176.268	-105.323	118.711	106.505	234.754	212.515	235.457	155.196	150.974	210.979	0.00031191	0.00036084	4.9854e-05	1128	4.9924e-06	2.7119e-06	1185.1	234.57	4.3182e-06	3.6398e-06	293.29	82.625	64.23	19.039	3.7279e-06	26.875	0.00015131	0.00015256	4.6943e-05	1096	1.62e-06	1.7131e-06	1160.3	230.22	1.5903e-06	1.7406e-06	286.45	81.984	62.374	18.974	1.7975e-06	26.691	19.712	-22.028	-8.258	-104.057	-49.584	-30.141	-104.359	-97.127	16.852	-25.021	-97.411	-90.962	-90.823	-83.351	26.098	-84.126	-8191	255	
476.687	1	1	0	0	0.10774	0.20963	0.1993	0.33856	0.1622	0.16564	0.3918	0.24204	0.21327	0.25769	0.23418	0.241	0.36544	0.13105	0.083887	0.019224	-3.1333	-3.8396	-3.6542	-3.8708	-3.7333	-3.6437	-4.0312	-3.7438	-3.75	-3.9917	-3.4792	-3.8958	-3.9104	-3.5583	-3.8354	-3.6917	188.451	134.423	155.139	190.639	-67.441	161.206	201.011	163.687	-106.680	-45.248	-74.059	-79.956	169.729	-109.853	-58.393	-68.715	0.0003832	0.00044543	6.8874e-05	1131.6	3.9888e-06	2.4316e-06	1183.5	235.7	1.8116e-06	4.6532e-06	295.09	82.851	63.994	18.983	2.878e-06	26.91	0.00015284	0.00016775	4.5329e-05	1097.8	1.615e-06	1.8304e-06	1159.3	230.49	1.6202e-06	1.8345e-06	286.58	81.75	62.497	18.94	1.6934e-06	26.689	26.124	-83.967	-52.488	-104.064	14.890	23.974	-104.080	-97.138	77.066	-23.633	-97.401	-90.675	-90.846	-83.900	5.692	-84.179	-8191	255	
476.783	1	1	0	0	0.17407	0.020428	0.19739	0.12997	0.13041	0.099754	0.23994	0.10745	0.27426	0.064203	0.29715	0.16143	0.028866	0.088657	0.082017	0.18775	-3.2812	-4.0479	-3.5667	-3.8729	-3.7812	-3.5708	-4.1312	-3.7667	-3.5312	-3.9521	-3.5396	-3.7438	-3.8438	-3.425	-3.8979	-3.7708	0.429	32.230	43.432	236.090	200.603	16.439	236.958	181.882	-78.763	90.204	211.137	-108.448	-40.698	221.510	-107.442	25.651	0.00039236	0.00050759	9.2183e-05	1121.7	7.2437e-07	4.7101e-06	1188.2	234.83	1.9717e-06	6.7642e-06	293.91	82.999	64.984	18.932	2.9261e-06	26.578	0.00015545	0.00017121	4.416e-05	1095.4	1.7109e-06	1.8906e-06	1160.2	229.95	1.749e-06	1.8878e-06	286.59	81.959	62.721	18.964	1.7229e-06	26.607	13.169	-76.252	-11.289	-104.351	118.412	13.719	-104.426	-96.877	78.140	40.246	-97.520	-90.932	-91.239	-83.506	65.872	-83.827	-8191	255	
476.903	1	1	0	0	0.33526	0.036726	0.15719	0.10896	0.087347	0.10622	0.26046	0.23198	0.16683	0.15109	0.069287	0.13761	0.20842	0.062061	0.164	0.15411	-3.1875	-4.0042	-3.5042	-3.7604	-3.8729	-3.4562	-4.0271	-3.8917	-3.5896	-3.9979	-3.425	-3.6958	-3.9333	-3.5542	-3.8708	-3.9646	-55.377	-81.267	130.113	205.033	106.342	218.510	173.534	219.493	122.213	3.402	182.199	-25.722	151.663	122.268	124.654	79.398	0.00040263	0.00071795	3.0488e-05	1127.1	3.5631e-06	2.5738e-06	1181.6	233.65	5.5401e-06	3.1214e-06	292.11	82.228	64.314	19.09	2.8133e-06	26.679	0.00016893	0.00017166	4.4028e-05	1095.6	1.8443e-06	1.8808e-06	1158.9	229.87	1.8608e-06	1.8362e-06	285.84	81.625	62.901	18.903	1.6922e-06	26.606	44.450	-69.585	-1.700	-104.270	-12.486	12.181	-104.085	-97.150	243.764	30.911	-97.572	-91.188	-90.877	-83.966	56.820	-83.980	-8191	255	
477.000	1	1	0	0	0.24855	0.13667	0.14312	0.1264	0.16249	0.14231	0.25528	0.23288	0.11689	0.12395	0.024663	0.24432	0.048625	0.17074	0.21866	0.26522	-3.225	-3.7875	-3.4479	-3.8917	-3.9792	-3.525	-3.9333	-3.9458	-3.6646	-3.7646	-3.8917	-3.7229	-4.0375	-3.6479	-3.6292	-4.0042	-113.386	61.313	79.536	232.166	239.785	102.082	-102.173	173.402	-28.783	137.104	176.483	209.356	138.865	205.172	179.050	206.979	0.00030849	0.00040186	0.00016803	1126.4	6.1689e-07	2.8924e-06	1181.4	234.57	1.1174e-06	4.8306e-07	292.07	82.723	64.018	18.966	3.265e-06	26.627	0.00017907	0.00016793	4.3016e-05	1094.4	1.9314e-06	1.7748e-06	1155.9	230.24	1.8321e-06	1.6772e-06	285.09	81.625	62.481	18.851	1.4982e-06	26.564	50.685	-37.299	20.283	-104.056	-49.051	173.749	-104.046	-97.150	38.292	54.053	-97.376	-90.761	-90.885	-83.646	-29.433	-84.003	-8191	255	
477.071	1	1	0	0	0.017571	0.06615	0.090319	0.1869	0.25206	0.018728	0.082252	0.21168	0.13754	0.13005	0.12026	0.14346	0.21737	0.24288	0.17378	0.077882	-3.1271	-3.8854	-3.9417	-3.7354	-3.9625	-3.6	-3.9854	-3.8604	-3.5771	-3.8271	-3.9313	-3.6917	-3.9292	-3.6646	-3.7417	-4.0563	-14.396	-98.608	69.439	218.893	19.956	198.795	138.239	226.675	-50.198	144.721	240.272	222.271	82.272	-95.290	159.356	155.016	0.0003683	0.00047382	5.8167e-05	1116	4.5214e-06	2.6208e-06	1178.4	234.71	5.8382e-06	2.903e-06	292.07	81.901	64.26	18.909	4.1218e-06	26.674	0.00016901	0.00014379	3.7603e-05	1086.8	1.7494e-06	1.5741e-06	1150.2	229.77	1.7316e-06	1.5587e-06	284.31	81.258	62.57	18.78	1.4879e-06	26.567	36.185	-89.030	-6.061	-104.199	17.755	50.528	-104.231	-97.048	-27.672	-48.311	-97.393	-90.805	-90.769	-83.372	44.421	-84.486	-8191	255	
477.192	1	1	0	0	0.17664	0.18394	0.13045	0.19414	0.095041	0.19989	0.13882	0.23456	0.086024	0.093012	0.083111	0.020879	0.13359	0.088102	0.17209	0.28836	-3.1708	-3.8042	-3.725	-3.7896	-3.9458	-3.6437	-3.8583	-4.0188	-3.5792	-3.8625	-3.7896	-3.5729	-4.0083	-3.6854	-3.6562	-4.0083	-83.016	149.218	90.266	-111.113	-39.017	-96.991	239.798	196.245	-3.778	-74.644	173.260	65.904	127.057	-53.723	18.861	192.670	0.00035263	0.00045444	6.9826e-05	1115	2.4442e-06	3.8794e-06	1177.5	234.03	3.7667e-06	3.5479e-06	292.29	82.374	64.073	18.939	4.581e-06	26.506	0.00016613	0.00014583	3.8932e-05	1088.2	1.7493e-06	1.602e-06	1151.3	229.37	1.7415e-06	1.613e-06	284.94	81.618	62.382	18.817	1.5747e-06	26.567	18.985	-53.646	-71.538	-104.151	6.111	88.625	-104.270	-97.055	-46.096	40.245	-97.134	-90.865	-90.917	-83.639	-35.319	-83.685	-8191	255	
477.286	1	1	0	0	0.12694	0.13879	0.11726	0.15483	0.048817	0.31896	0.16341	0.11725	0.12687	0.085931	0.10084	0.23747	0.17404	0.059051	0.070739	0.25904	-3.2938	-3.7979	-4.0708	-3.6542	-3.9708	-3.8063	-3.8333	-4.0917	-3.7062	-3.8583	-3.9854	-3.7125	-3.7979	-3.7792	-3.4896	-4.1146	209.858	107.904	-45.997	232.954	-4.789	195.799	169.919	190.757	-108.474	205.338	-102.202	-79.898	111.835	-18.020	154.954	244.945	0.00039256	0.00017796	5.099e-05	1114	1.9765e-06	1.8446e-06	1177.7	234.17	1.428e-06	4.2802e-06	293.85	82.671	64.258	19.013	1.3062e-06	26.508	0.00016414	0.00014488	4.015e-05	1089.9	1.6856e-06	1.5477e-06	1152.1	229.41	1.6906e-06	1.5334e-06	284.8	81.676	62.482	18.832	1.6458e-06	26.5	24.461	-66.292	225.423	-104.095	-60.269	-7.970	-104.245	-96.944	-61.483	-30.059	-97.404	-91.091	-90.830	-83.518	131.869	-84.119	-8191	255	
477.382	1	1	0	0	0.32388	0.14153	0.15799	0.15165	0.056308	0.13562	0.22595	0.12621	0.044303	0.21815	0.11923	0.23463	0.014462	0.097875	0.27206	0.11374	-3.2375	-3.5438	-3.9354	-3.6	-3.9	-3.7833	-3.7313	-4.0271	-3.4854	-3.6771	-3.9729	-3.5312	-3.8063	-3.7208	-3.6521	-3.9167	172.605	139.787	45.731	170.427	-93.695	165.274	162.897	112.770	225.197	132.103	137.782	205.472	-12.037	202.482	142.527	50.114	0.00034102	0.0005282	0.0001746	1118.7	9.5753e-07	2.8489e-06	1179.5	233.82	1.2222e-06	3.483e-06	291.75	82.08	63.986	18.905	3.1617e-06	26.501	0.00015423	0.00013767	4.2191e-05	1088.4	1.6238e-06	1.5445e-06	1151.3	229.54	1.6281e-06	1.5052e-06	284.95	81.427	62.133	18.774	1.7324e-06	26.561	9.629	-57.551	-40.276	-104.084	-42.663	113.901	-103.995	-97.005	-2.260	41.701	-97.438	-91.248	-90.819	-83.708	14.938	-83.979	-8191	255	
477.503	1	1	0	0	0.057723	0.15757	0.064621	0.016507	0.40077	0.24135	0.23107	0.25488	0.030334	0.31828	0.21005	0.35822	0.13801	0.048283	0.022313	0.16367	-3.2167	-3.6271	-3.9958	-3.6312	-3.8292	-3.7812	-3.5875	-3.9458	-3.5896	-3.5854	-4.0854	-3.7208	-3.6188	-3.8208	-3.4292	-3.9396	-28.318	-31.930	-63.661	96.087	193.229	172.774	202.165	160.952	128.225	148.217	150.265	150.645	28.950	-69.402	185.282	33.932	0.00040403	0.00042641	3.8578e-05	1119.9	2.4228e-06	2.5489e-06	1182.5	232.98	5.1581e-06	2.841e-06	292.47	82.216	64.406	18.811	3.8598e-06	26.593	0.00015075	0.00014088	4.4166e-05	1087.2	1.5879e-06	1.5322e-06	1152.2	229.09	1.5465e-06	1.512e-06	285.01	81.409	62.303	18.797	1.7804e-06	26.467	28.898	-81.887	67.978	-104.155	-23.647	93.806	-104.198	-96.969	-1.332	-32.412	-97.096	-91.234	-90.715	-83.874	65.853	-83.732	-8191	255	
477.599	1	1	0	0	0.29174	0.18473	0.15556	0.18556	0.15786	0.059645	0.36074	0.14127	0.2834	0.068532	0.15072	0.27902	0.10371	0.22178	0.24125	0.20572	-3.2792	-3.4688	-3.7646	-3.5979	-3.8083	-3.8771	-3.6312	-3.9167	-3.8688	-3.6521	-4.1042	-3.7292	-3.5938	-3.9479	-3.5854	-3.8604	-58.609	85.945	65.925	199.872	211.381	227.780	197.161	147.667	152.619	-98.777	-37.728	-9.055	-69.472	67.447	-83.352	168.340	0.00027061	0.00048731	0.00015918	1115.6	6.3406e-07	2.6117e-06	1175.7	234.85	3.7763e-06	4.1212e-06	293.7	83.146	64.083	18.812	5.6715e-06	26.58	0.00014315	0.00014022	4.4273e-05	1085.8	1.5504e-06	1.6182e-06	1152.1	229.38	1.5258e-06	1.6197e-06	285.76	81.637	62.243	18.852	1.8115e-06	26.477	8.385	-64.770	-0.740	-104.311	-94.518	82.358	-104.261	-97.059	56.812	12.102	-97.681	-91.188	-90.667	-83.327	40.945	-84.006	-8191	255	
477.695	1	1	0	0	0.17252	0.24603	0.29325	0.18575	0.16505	0.20179	0.16693	0.15317	0.074564	0.055889	0.19932	0.46613	0.27452	0.072305	0.034125	0.12512	-3.4938	-3.5604	-3.9104	-3.5604	-3.7521	-4.0292	-3.6417	-3.8979	-3.6917	-3.6292	-3.9375	-3.8187	-3.6667	-3.9521	-3.5687	-3.8479	152.085	83.777	-15.195	164.465	238.017	-65.724	96.403	-72.444	-80.647	192.567	116.056	194.201	-86.921	-85.515	37.078	146.800	0.00031405	0.00026515	0.00013048	1116.6	4.3104e-06	2.2856e-06	1176.9	233.71	2.299e-06	2.1488e-06	291.06	82.294	63.809	18.908	2.5882e-06	26.658	0.00015301	0.0001638	4.6925e-05	1087.5	1.6143e-06	1.8442e-06	1152.2	229.33	1.6167e-06	1.8623e-06	285.04	81.293	62.304	18.884	1.813e-06	26.528	24.481	-85.888	-6.567	-104.251	18.681	144.871	-104.029	-97.311	29.800	19.137	-97.353	-90.765	-90.279	-83.149	227.683	-83.920	-8191	255	
477.767	1	1	0	0	0.036123	0.24089	0.13269	0.15284	0.23275	0.28624	0.15232	0.090484	0.042168	0.31252	0.092584	0.07012	0.15889	0.10002	0.19114	0.096497	-3.55	-3.4854	-3.8312	-3.6937	-3.6208	-4.1104	-3.6771	-3.8458	-3.8958	-3.3833	-3.9437	-3.9333	-3.5833	-4.0271	-3.5917	-3.7583	-5.282	194.645	113.317	147.042	65.540	-25.960	76.106	209.208	38.395	-61.628	-108.348	205.329	183.981	73.881	103.590	162.194	0.00039434	0.00024342	5.2161e-05	1118.9	3.58e-06	2.7953e-06	1181.6	234.81	2.0181e-06	2.9064e-06	292.3	82.468	63.96	18.867	5.5769e-06	26.591	0.00015881	0.00017667	4.5215e-05	1088.6	1.6557e-06	1.8748e-06	1153.4	229.3	1.7419e-06	1.8593e-06	285.19	81.439	62.537	18.879	1.7327e-06	26.484	22.066	-48.141	23.355	-104.078	226.590	-31.907	-104.164	-97.364	233.988	15.604	-97.154	-90.701	-91.043	-83.151	-5.092	-84.174	-8191	255	
477.888	1	1	0	0	0.22484	0.064129	0.033174	0.086911	0.13509	0.096415	0.14949	0.056194	0.35619	0.031791	0.15066	0.11061	0.075766	0.062688	0.07231	0.2252	-3.5542	-3.4792	-3.8917	-3.8333	-3.6083	-3.9646	-3.7292	-3.7417	-4.0521	-3.575	-3.9729	-3.7188	-3.65	-3.9062	-3.6813	-3.7271	8.853	18.787	33.475	194.671	188.418	37.860	151.942	44.991	152.894	-110.956	64.890	-66.670	162.237	128.880	84.541	182.439	0.0004181	0.00048968	8.8701e-05	1118.7	2.1368e-06	5.2453e-06	1187	234.18	2.5915e-06	2.1361e-06	293.06	82.535	63.513	18.912	4.4855e-06	26.73	0.00017353	0.00018238	4.5068e-05	1089.5	1.8871e-06	1.9349e-06	1153.5	229.61	1.8628e-06	1.9461e-06	285.74	81.525	62.423	18.899	1.7608e-06	26.597	27.330	-30.585	25.061	-104.046	99.088	13.322	-104.340	-96.902	184.556	202.292	-97.271	-91.199	-90.452	-83.543	-94.051	-83.982	-8191	255	
477.984	1	1	0	0	0.1905	0.069106	0.17896	0.29394	0.051202	0.23542	0.47967	0.044373	0.044246	0.064315	0.075996	0.15128	0.2595	0.11624	0.1807	0.075911	-3.475	-3.4729	-3.8792	-3.9354	-3.6813	-4.0708	-3.85	-3.7708	-3.7896	-3.5458	-3.7229	-3.8312	-3.6125	-3.9396	-3.85	-3.7083	113.271	152.341	173.483	-92.699	-73.635	123.186	151.327	110.805	-0.861	218.791	243.234	174.851	238.994	231.748	208.939	159.738	0.00031775	0.00034174	7.2443e-05	1117.4	3.6387e-06	4.4171e-06	1181.7	233.9	3.7903e-06	5.7735e-07	292.66	82.728	64.259	18.812	7.9762e-06	26.499	0.00018261	0.00017648	4.48e-05	1091	2.0153e-06	1.8861e-06	1153.5	229.65	2.0091e-06	1.8849e-06	285.91	81.66	62.867	18.866	1.742e-06	26.524	13.456	-36.460	-68.117	-104.141	57.603	73.177	-104.410	-97.156	-27.612	-12.735	-97.177	-90.853	-90.439	-83.726	-25.299	-84.074	-8191	255	
478.080	1	1	0	0	0.16125	0.19433	0.12694	0.16212	0.22011	0.15605	0.27367	0.16515	0.22788	0.10644	0.40244	0.10214	0.10304	0.16496	0.24648	0.17295	-3.675	-3.6396	-3.8	-4.0521	-3.6375	-3.9813	-4.0521	-3.6042	-3.8729	-3.8167	-3.7604	-4.0917	-3.4104	-4.0667	-3.7583	-3.725	-60.041	7.769	197.536	179.031	-28.228	-45.156	209.727	154.690	-16.953	-35.942	182.859	132.258	48.498	-110.098	120.247	242.291	0.00023791	0.00036859	0.00013217	1120.8	3.1411e-06	1.9265e-06	1184.3	235.75	4.5885e-06	2.92e-06	291.95	82.346	63.852	18.809	3.3444e-06	26.635	0.00019143	0.00017396	4.4368e-05	1093	2.0127e-06	1.816e-06	1156.3	230.05	2.0347e-06	1.8267e-06	285.29	81.627	62.882	18.865	1.6973e-06	26.593	39.046	-54.549	-6.923	-104.252	-94.834	31.479	-104.404	-97.238	-43.622	-14.717	-97.199	-91.384	-90.888	-83.817	-30.464	-83.865	-8191	255	
478.176	1	1	0	0	0.11611	0.069651	0.1476	0.097829	0.26673	0.2431	0.18515	0.16854	0.10752	0.10539	0.0089361	0.15277	0.12366	0.14465	0.12583	0.18461	-3.6167	-3.5979	-3.6271	-4.05	-3.525	-3.8458	-4.0271	-3.6979	-3.8812	-3.575	-3.875	-3.8979	-3.5	-3.7083	-3.7333	-3.525	112.531	59.891	161.154	143.926	90.917	9.208	158.989	226.066	221.296	143.378	22.491	221.163	223.694	178.962	-30.932	-41.062	0.00032358	0.00061774	9.6106e-05	1127.1	3.6709e-06	6.9128e-07	1183.8	234.06	5.1168e-06	4.6042e-06	293.21	82.688	64.26	18.917	1.8976e-06	26.638	0.00018619	0.00016666	4.3464e-05	1094.6	2.0101e-06	1.7911e-06	1156.2	230.39	2.0146e-06	1.7598e-06	285.75	81.717	62.613	18.893	1.746e-06	26.664	30.597	-50.061	-98.484	-103.934	16.233	-92.203	-104.158	-97.129	27.434	-18.192	-97.323	-90.887	-90.444	-83.462	50.617	-83.865	-8191	255	
478.295	1	1	0	0	0.13097	0.11491	0.10741	0.25783	0.047658	0.14486	0.38985	0.10285	0.097235	0.24236	0.064598	0.19054	0.13845	0.038887	0.12543	0.10202	-3.4938	-3.6604	-3.6063	-4.0229	-3.6167	-3.8458	-3.9979	-3.5854	-3.7521	-3.8417	-3.6458	-4.0104	-3.6667	-3.5187	-3.8021	-3.5979	-49.696	109.305	59.305	189.640	225.591	159.231	190.941	-17.512	-107.297	-110.073	5.685	-51.608	164.419	56.279	99.175	61.825	0.00033779	0.00063946	6.1616e-05	1130.2	2.6176e-06	3.0216e-06	1179.6	234.76	1.3156e-06	3.3655e-06	293.39	82.571	64.223	18.874	2.7983e-06	26.586	0.00018182	0.00016407	4.4664e-05	1096	1.8996e-06	1.742e-06	1155.1	230.52	1.8783e-06	1.7339e-06	286.28	81.74	62.492	18.853	1.817e-06	26.61	38.259	-59.332	22.264	-104.043	-20.560	-0.622	-104.487	-97.035	-28.171	-34.989	-97.391	-91.221	-90.769	-83.539	-1.930	-83.830	-8191	255	
478.367	1	1	0	0	0.25301	0.15603	0.044241	0.085409	0.078784	0.24416	0.13564	0.16657	0.11162	0.18312	0.077305	0.089923	0.23227	0.058498	0.12053	0.081548	-3.5438	-3.7208	-3.4521	-4.025	-3.5438	-3.6271	-4.025	-3.4708	-3.7479	-3.7729	-3.6583	-3.9583	-3.5583	-3.5667	-3.8521	-3.5438	55.632	16.881	-109.942	193.440	119.232	42.278	-9.048	211.033	233.728	3.277	-107.148	181.601	141.530	-95.376	-41.067	225.682	0.00033088	0.00023242	0.0001291	1122.6	2.7017e-06	1.7749e-06	1182.1	233.06	4.3144e-06	2.069e-08	293.23	82.393	64.43	18.989	3.7352e-06	26.461	0.00017471	0.00015564	4.7588e-05	1094.5	1.8635e-06	1.7008e-06	1157.4	230.09	1.8412e-06	1.7422e-06	286.26	81.864	62.683	18.883	1.98e-06	26.555	17.381	-68.109	-38.942	-104.236	80.270	45.824	-104.266	-97.074	-29.875	136.383	-97.453	-90.803	-90.454	-83.623	111.371	-83.712	-8191	255	
478.465	1	1	0	0	0.18653	0.14191	0.0634	0.12243	0.22985	0.070421	0.062266	0.07716	0.22528	0.079461	0.23404	0.13613	0.088783	0.25258	0.21603	0.0921	-3.5938	-3.7729	-3.4375	-4.0021	-3.4833	-3.6708	-4.1896	-3.6604	-3.875	-3.7979	-3.6083	-3.8917	-3.7417	-3.5792	-3.9458	-3.4646	-3.154	17.020	-90.073	182.407	108.096	205.826	142.725	59.045	212.501	108.609	179.966	198.382	137.679	96.833	-45.997	238.958	0.00026923	0.000301	0.00010264	1121.6	3.9247e-06	2.6054e-06	1184.2	234.74	6.0072e-06	2.2921e-06	293.41	82.534	63.885	18.893	3.5824e-06	26.609	0.00017744	0.00015792	5.0361e-05	1094.3	1.8432e-06	1.7392e-06	1157.6	230.76	1.805e-06	1.7483e-06	287.32	81.756	62.502	18.925	2.0328e-06	26.628	20.053	-108.976	-57.140	-104.171	-13.495	108.464	-104.049	-97.345	-19.127	112.757	-97.272	-90.537	-90.626	-83.692	0.881	-83.789	-8191	255	
478.583	1	1	0	0	0.19405	0.099214	0.1505	0.23553	0.15387	0.15746	0.34458	0.096646	0.13014	0.081442	0.23228	0.28104	0.053811	0.013067	0.32208	0.066708	-3.5396	-3.7188	-3.5375	-3.9771	-3.8396	-3.6125	-4.0583	-3.6125	-3.9	-3.8979	-3.6729	-3.8792	-3.6354	-3.5396	-4.0146	-3.6021	144.571	163.075	-96.783	193.110	157.643	240.269	199.313	-104.391	241.909	125.398	124.752	237.633	105.433	243.085	-57.429	170.601	0.00030437	0.00023119	9.6715e-05	1127.7	3.8961e-06	1.6992e-06	1184.3	235.41	3.6644e-06	7.5576e-07	292.86	82.575	64.412	18.819	2.8418e-06	26.528	0.00017107	0.00016629	5.2812e-05	1097	1.7906e-06	1.8405e-06	1158.5	230.87	1.8196e-06	1.8697e-06	286.97	81.76	62.542	18.894	2.0185e-06	26.626	7.687	-109.496	-31.053	-104.189	-14.744	-9.626	-104.554	-97.207	-29.192	-23.631	-97.381	-90.871	-90.982	-83.681	12.510	-84.112	-8191	255	
478.680	1	1	0	0	0.15442	0.14118	0.044068	0.4068	0.12534	0.042776	0.050292	0.21823	0.094997	0.15744	0.11499	0.08423	0.12919	0.15562	0.049182	0.085179	-3.4	-3.6583	-3.4854	-3.7583	-3.85	-3.5563	-4.0167	-3.6333	-3.7771	-3.8854	-3.5542	-3.9229	-3.7792	-3.6458	-3.8208	-3.7333	-18.169	-25.896	-101.185	206.448	220.718	221.003	123.255	243.010	-98.073	29.815	127.489	37.710	204.373	-34.548	-90.394	221.891	0.00036302	0.00014216	0.00016738	1128.5	1.4879e-06	1.6041e-06	1189.7	235.35	1.5602e-06	1.9812e-06	294.56	82.586	64.22	18.908	5.8241e-06	26.519	0.00016729	0.00017714	5.1883e-05	1097.7	1.8168e-06	2.0302e-06	1162.1	230.87	1.8072e-06	2.0647e-06	287.09	81.799	62.821	18.942	2.0802e-06	26.555	17.754	-86.218	-13.836	-104.324	35.652	114.115	-104.442	-97.530	116.860	9.976	-97.609	-91.014	-90.773	-83.396	41.437	-83.456	-8191	255	
478.776	1	1	0	0	0.044936	0.071453	0.097491	0.44502	0.11611	0.17995	0.27016	0.097557	0.11592	0.10558	0.18991	0.17977	0.15412	0.03669	0.1973	0.09846	-3.4208	-3.9792	-3.4292	-3.9521	-3.8937	-3.6667	-4.0188	-3.7375	-3.6208	-3.9708	-3.6125	-3.7167	-3.8271	-3.4292	-3.9062	-3.7208	89.214	-70.926	-23.074	243.330	-52.766	1.888	228.980	195.265	-108.438	-80.544	180.440	109.379	121.569	87.506	-44.846	35.863	0.000316	0.00012478	6.5689e-05	1129.8	2.7682e-06	3.2531e-06	1189.2	235.71	4.6897e-06	4.0636e-06	294.14	82.526	64.207	18.92	5.1896e-06	26.679	0.00017755	0.00019961	5.2916e-05	1099.2	1.9884e-06	2.2493e-06	1163.5	231.41	1.9835e-06	2.258e-06	287.14	81.896	62.875	19.02	2.0838e-06	26.684	6.291	-53.027	2.652	-104.079	-44.479	75.379	-104.126	-97.493	240.907	56.177	-97.398	-90.917	-90.738	-83.512	16.227	-84.428	-8191	255	
478.872	1	1	0	0	0.012195	0.013877	0.13239	0.23209	0.25652	0.078201	0.10929	0.31825	0.15255	0.12001	0.092487	0.24836	0.25697	0.17483	0.24992	0.072025	-3.4021	-3.9021	-3.525	-3.5687	-3.8812	-3.4396	-3.9313	-3.7021	-3.7167	-4.025	-3.6813	-3.6833	-3.8042	-3.675	-3.8	-3.8521	-87.111	24.878	-107.423	192.727	118.981	163.754	105.093	200.750	-35.678	48.391	70.759	201.735	223.345	112.686	239.551	34.879	0.00040879	0.00039472	6.8542e-05	1130	3.2904e-06	3.1357e-06	1185.6	235.74	1.9771e-06	3.605e-06	292.9	82.728	64.649	18.84	2.501e-06	26.559	0.000196	0.0002079	5.3537e-05	1102.2	2.1158e-06	2.2586e-06	1164.2	231.09	2.1882e-06	2.2237e-06	287.47	81.988	63.409	18.966	2.0556e-06	26.637	20.650	-110.474	-26.283	-104.004	21.224	71.831	-104.374	-97.103	-21.414	60.588	-97.407	-90.978	-90.696	-83.642	-33.073	-83.840	-8191	255	
478.968	1	1	0	0	0.174	0.034706	0.074337	0.087267	0.10569	0.029009	0.16864	0.35484	0.041476	0.11022	0.16675	0.31793	0.16211	0.14363	0.06477	0.17079	-3.2229	-4.0417	-3.5917	-3.8792	-3.9938	-3.6333	-3.9208	-3.7833	-3.6417	-3.7958	-3.6792	-3.8146	-3.9333	-3.6104	-3.7333	-3.8583	55.491	44.142	44.640	-110.510	-74.358	76.645	163.654	193.243	183.698	62.542	161.948	221.047	-76.200	98.924	4.492	95.498	0.00047868	0.00042012	6.6889e-05	1132	3.8351e-07	6.058e-06	1196.6	236.49	2.151e-06	1.5167e-06	296.13	83.142	64.687	18.929	5.7536e-06	26.677	0.00021092	0.00020921	5.2918e-05	1103.9	2.2585e-06	2.2342e-06	1168.6	232.03	2.2778e-06	2.1639e-06	287.77	82.204	63.487	18.952	1.9776e-06	26.542	11.638	-37.708	-23.568	-104.197	189.539	48.507	-104.136	-97.212	-35.063	58.267	-97.149	-91.130	-90.761	-83.110	-2.884	-83.995	-8191	255	
479.064	1	1	0	0	0.098381	0.33189	0.087941	0.085257	0.25056	0.22778	0.13617	0.17988	0.085707	0.09138	0.16072	0.19865	0.10455	0.018505	0.41248	0.1684	-3.1417	-3.8542	-3.6	-3.7604	-4.0312	-3.7458	-3.9146	-3.9271	-3.6125	-3.9313	-3.8479	-3.6937	-3.9688	-3.7188	-3.8375	-4.0417	185.033	-66.828	-79.255	-111.595	85.079	192.795	205.380	207.989	-75.589	-104.778	188.608	214.184	171.182	151.692	-39.050	187.544	0.00047423	3.7574e-05	0.00011539	1133.5	4.649e-06	5.0041e-06	1190.3	236.22	2.893e-06	2.4531e-06	295.49	82.781	64.267	18.898	1.0871e-06	26.663	0.0002111	0.00019153	4.9929e-05	1104.8	2.2624e-06	2.0437e-06	1167.1	231.72	2.2895e-06	2.0249e-06	287.9	82.053	63.266	18.926	1.8566e-06	26.633	11.130	-84.860	-24.802	-104.406	-0.872	59.253	-104.416	-97.255	3.506	-3.598	-97.282	-90.844	-90.737	-83.496	-47.238	-84.077	-8191	255	
479.185	1	1	0	0	0.17002	0.048673	0.26288	0.18289	0.14776	0.26903	0.42849	0.23833	0.16556	0.10906	0.16885	0.22951	0.14971	0.12667	0.0084008	0.10455	-3.2208	-3.8896	-3.5708	-3.6417	-3.8812	-3.5312	-3.8042	-4.0458	-3.5125	-3.8063	-3.7979	-3.5833	-3.7562	-3.6375	-3.5812	-4.0542	61.521	177.197	-27.656	-99.327	76.587	51.723	147.648	206.849	155.127	-66.871	84.882	-90.911	-55.434	-28.945	170.132	-35.622	0.00040188	0.00048085	4.6011e-05	1136.2	2.7529e-06	4.0318e-06	1190.9	235.92	1.2462e-06	2.5521e-06	292.95	83.059	64.311	18.907	1.1499e-06	26.587	0.00020632	0.00018004	4.8269e-05	1104.1	2.2237e-06	1.9373e-06	1163.8	231.87	2.1645e-06	1.9587e-06	286.94	82.047	63.092	18.875	1.8248e-06	26.652	17.452	204.144	19.239	-104.275	-15.444	25.614	-104.231	-97.558	32.105	-4.032	-97.457	-90.777	-90.599	-83.361	132.121	-83.816	-8191	255	
479.279	1	1	0	0	0.019585	0.1776	0.10372	0.27376	0.26001	0.16775	0.20645	0.11464	0.11185	0.044389	0.26897	0.030564	0.1694	0.13503	0.17094	0.061996	-3.2104	-3.7188	-3.6625	-3.6813	-4.1146	-3.7667	-3.8604	-3.8542	-3.6396	-3.8104	-3.8063	-3.5062	-3.7146	-3.7062	-3.5542	-3.975	-109.477	-85.331	31.900	225.032	192.222	69.849	118.393	93.106	-82.405	154.366	214.062	168.551	-58.396	175.243	159.278	197.181	0.00039357	0.00036179	6.3975e-05	1128.6	2.3955e-06	3.2358e-06	1187	235.32	8.9539e-06	4.7637e-06	292.58	82.893	64.337	18.869	3.4557e-06	26.461	0.00019684	0.00017476	4.772e-05	1102	2.0669e-06	1.8977e-06	1162.5	231.71	1.9947e-06	1.8428e-06	286.72	82.009	62.887	18.893	1.855e-06	26.558	50.215	-57.671	58.382	-104.156	-83.053	64.033	-104.412	-97.181	22.469	-28.184	-97.484	-90.807	-90.913	-83.364	184.604	-83.663	-8191	255	
479.375	1	1	0	0	0.15423	0.12408	0.14004	0.042057	0.23442	0.075451	0.22571	0.10523	0.17583	0.3785	0.32163	0.17873	0.11818	0.11087	0.085624	0.096474	-3.2458	-3.5438	-3.6604	-3.8896	-3.8396	-3.8521	-3.9	-4.0563	-3.7125	-3.6771	-3.9896	-3.6354	-3.8917	-3.8771	-3.6104	-3.9688	-52.611	-31.855	45.038	188.997	-13.857	43.236	119.130	162.445	-52.340	17.738	-108.020	-78.540	36.682	69.443	208.574	-46.459	0.00033499	0.00046531	2.9393e-05	1130.8	2.3686e-06	3.8528e-06	1185.3	235.99	7.2991e-06	3.3143e-06	294.51	82.57	63.437	18.881	3.2663e-06	26.589	0.00018022	0.00016233	4.7374e-05	1100.1	1.9583e-06	1.7617e-06	1159.4	231.45	1.8693e-06	1.784e-06	287.13	81.935	62.572	18.867	1.9861e-06	26.544	30.332	-53.960	-96.095	-104.078	76.951	22.552	-104.296	-97.156	43.588	-19.557	-97.592	-91.251	-91.188	-83.516	7.240	-83.663	-8191	255	
479.472	1	1	0	0	0.081256	0.12176	0.1551	0.12573	0.092767	0.089317	0.21425	0.10812	0.15532	0.051681	0.18473	0.085918	0.10414	0.092023	0.060894	0.073529	-3.0958	-3.575	-3.7833	-3.5792	-3.8292	-3.8333	-3.6396	-4.0083	-3.7292	-3.6979	-4.0479	-3.6896	-3.825	-3.8771	-3.5583	-3.9854	25.788	72.662	202.131	-94.318	-69.663	231.238	127.152	-55.209	-37.165	164.908	161.006	50.986	218.984	116.929	194.904	101.149	0.00031766	0.00016664	8.2312e-05	1125.3	2.5886e-06	1.872e-06	1182.9	234.82	4.1226e-06	2.2274e-06	291.5	82.141	64.749	18.842	2.6766e-06	26.263	0.00017656	0.0001641	5.0859e-05	1098.4	1.9156e-06	1.765e-06	1160.1	230.77	1.8811e-06	1.8037e-06	286.4	81.632	62.841	18.801	2.0941e-06	26.456	35.064	-72.639	-15.401	-104.329	-42.443	-23.279	-104.296	-96.957	4.656	21.060	-97.578	-91.037	-90.577	-83.800	35.870	-84.067	-8191	255	
479.592	1	1	0	0	0.18719	0.1461	0.20247	0.087266	0.09225	0.11969	0.18068	0.15303	0.042258	0.28494	0.24276	0.039971	0.26538	0.080733	0.11369	0.1072	-3.1813	-3.7062	-3.9646	-3.6937	-3.7625	-3.8417	-3.6688	-4.1542	-3.6667	-3.6375	-4.0375	-3.5375	-3.7333	-3.8563	-3.5167	-3.9938	-82.950	132.864	76.239	227.387	141.034	108.782	192.690	46.807	119.780	233.243	232.420	-106.108	-97.002	61.288	-68.788	199.471	0.00036026	0.00050184	6.3498e-05	1125.7	2.7565e-06	2.6219e-06	1187.9	235.6	3.8714e-06	1.6542e-06	293.52	82.146	64.557	18.652	9.9043e-06	26.295	0.00017818	0.00016788	5.3672e-05	1096.4	1.8819e-06	1.9032e-06	1158.3	230.47	1.8545e-06	1.8818e-06	287.51	81.459	62.548	18.741	2.1038e-06	26.34	26.299	-57.065	87.024	-104.128	1.561	-0.809	-104.435	-97.072	32.796	-109.755	-97.454	-90.790	-90.330	-83.468	40.762	-83.878	-8191	255	
479.664	1	1	0	0	0.041692	0.37284	0.1843	0.23314	0.054002	0.14683	0.23886	0.077199	0.12519	0.14239	0.11128	0.26629	0.11405	0.19185	0.12819	0.17961	-3.375	-3.4125	-3.9833	-3.6896	-3.6875	-3.8979	-3.7104	-3.9625	-3.9062	-3.7021	-4.025	-3.7896	-3.7542	-4.0229	-3.525	-3.9167	179.011	71.886	191.624	217.294	27.166	167.464	163.306	67.769	160.340	241.112	233.438	226.048	89.364	161.045	-36.081	-63.549	0.00035893	0.00037981	9.6175e-05	1123.5	5.3574e-06	2.904e-06	1184.4	234.97	3.5877e-06	1.0457e-06	291.68	82.095	64.467	18.661	2.9932e-06	26.346	0.00017174	0.0001803	5.362e-05	1097.1	1.8654e-06	2.0174e-06	1159.4	230.37	1.8203e-06	2.0293e-06	286.34	81.494	62.489	18.755	2.0264e-06	26.389	25.432	83.814	-28.521	-104.036	-8.013	99.821	-104.307	-97.206	-55.236	-24.647	-97.348	-90.538	-90.447	-83.433	-0.362	-84.137	-8191	255	
479.760	1	1	0	0	0.027653	0.16963	0.13442	0.2868	0.11968	0.11715	0.2427	0.13956	0.0953	0.085867	0.085555	0.24092	0.14787	0.15118	0.099847	0.12842	-3.4458	-3.5083	-3.9688	-3.7375	-3.7646	-3.9646	-3.5625	-3.9042	-3.8438	-3.5417	-3.9125	-3.4354	-3.65	-3.9354	-3.3521	-3.7771	242.679	157.051	74.513	237.506	1.706	128.172	182.032	166.661	177.691	199.839	243.925	223.023	153.058	44.299	-25.283	168.140	0.00037876	0.00025811	0.00015116	1128.9	2.9508e-06	2.2557e-06	1185.8	234.64	4.2187e-06	1.2734e-06	294.59	82.396	64.07	18.67	6.025e-06	26.309	0.00017315	0.00019104	5.2273e-05	1097.5	1.8448e-06	2.0916e-06	1158.3	230.31	1.8758e-06	2.1487e-06	286.45	81.384	62.377	18.78	1.9774e-06	26.324	19.250	-25.187	-39.021	-104.042	30.075	49.545	-104.219	-96.896	-45.481	61.449	-97.417	-90.883	-90.444	-83.523	17.551	-83.872	-8191	255	
479.856	1	1	0	0	0.082355	0.20302	0.13809	0.24389	0.065683	0.11882	0.19499	0.08251	0.20451	0.12246	0.19624	0.15497	0.10539	0.024288	0.068676	0.076078	-3.5792	-3.4771	-3.8563	-3.7646	-3.5021	-3.9938	-3.6729	-3.6167	-3.7896	-3.4562	-3.9167	-3.7625	-3.6375	-3.9125	-3.525	-3.6229	244.125	150.231	-101.109	175.935	173.005	34.538	166.369	-62.844	68.209	127.128	214.495	200.358	121.224	93.339	-81.060	148.986	0.00041625	0.00021703	4.459e-05	1126.3	3.3699e-06	9.439e-07	1186.9	235.58	5.2698e-06	1.574e-06	292.96	82.239	64.129	18.675	2.3507e-06	26.232	0.00018062	0.00019787	4.9914e-05	1096.3	1.9396e-06	2.1878e-06	1158.5	230.38	2.0478e-06	2.1359e-06	285.95	81.255	62.599	18.765	1.9735e-06	26.283	24.560	-13.527	200.094	-104.368	-38.491	227.005	-104.352	-97.115	21.177	108.066	-97.282	-90.940	-91.215	-83.576	29.088	-84.073	-8191	255	
479.977	1	1	0	0	0.13902	0.035601	0.04992	0.0082773	0.15596	0.15564	0.27403	0.18058	0.17494	0.09738	0.14295	0.18951	0.047117	0.25088	0.39783	0.03932	-3.5438	-3.475	-3.8167	-3.8042	-3.7083	-4.1271	-3.8229	-3.5958	-4.0083	-3.4958	-3.9333	-3.9271	-3.5271	-3.8583	-3.7542	-3.6979	-15.321	101.253	25.283	-18.738	9.528	-41.710	190.947	69.926	70.433	15.314	121.859	175.217	110.968	205.755	-63.321	-66.898	0.00035603	0.00035973	8.3944e-05	1126.7	4.8338e-06	5.2261e-06	1185.8	233.91	3.9203e-06	2.5734e-06	293.57	82.496	63.492	18.761	2.6617e-06	26.263	0.00019369	0.00019326	5.0077e-05	1094.8	2.1275e-06	2.0665e-06	1156.8	229.91	2.1088e-06	2.0419e-06	286.1	81.466	62.584	18.79	1.8987e-06	26.277	28.739	233.612	66.479	-104.140	-58.311	59.095	-104.139	-97.068	-14.568	74.812	-97.147	-90.924	-90.821	-83.209	91.619	-84.190	-8191	255	
480.073	1	1	0	0	0.14945	0.1903	0.1636	0.19808	0.20579	0.070836	0.12236	0.067191	0.19106	0.1578	0.2408	0.11315	0.15305	0.18446	0.14286	0.093571	-3.5979	-3.4521	-3.7146	-3.7729	-3.4479	-3.7729	-3.8792	-3.5896	-4.025	-3.5396	-3.8542	-3.8625	-3.5104	-3.8333	-3.7708	-3.6875	-26.314	145.100	-114.277	240.793	39.784	-55.777	230.203	181.986	94.792	148.542	154.072	-40.915	-26.347	175.232	193.775	31.121	0.00027615	0.00048233	0.00011668	1124.9	5.381e-06	1.8011e-06	1181.7	233.17	2.9282e-06	3.1873e-06	291.82	82.38	63.734	18.853	3.6475e-06	26.282	0.00020031	0.00018669	4.7726e-05	1095.9	2.1759e-06	1.9826e-06	1157.5	229.61	2.1997e-06	1.99e-06	285.61	81.411	62.632	18.731	1.8965e-06	26.347	21.589	12.539	-11.266	-104.055	67.861	65.700	-104.088	-97.047	-16.752	80.030	-97.263	-90.862	-90.876	-83.298	153.988	-84.085	-8191	255	
480.167	1	1	0	0	0.20357	0.064571	0.038262	0.19337	0.25374	0.21431	0.41859	0.2128	0.063967	0.11516	0.18486	0.32966	0.12637	0.32106	0.13352	0.23739	-3.4813	-3.5396	-3.6625	-3.8937	-3.3312	-3.7438	-4.0563	-3.7188	-4.0229	-3.6458	-3.75	-3.9417	-3.4437	-3.7604	-3.8187	-3.5854	124.621	15.439	135.726	-60.509	145.204	141.702	143.915	-110.705	195.233	162.751	-94.285	208.799	239.086	116.696	181.889	173.285	0.00030336	0.00032121	8.6821e-05	1120.8	1.7379e-06	9.9765e-07	1181.9	232.83	5.9771e-06	1.6381e-06	289.19	81.97	63.677	18.666	1.2347e-06	26.375	0.00020722	0.00018507	4.6677e-05	1097.3	2.189e-06	1.9555e-06	1156.3	229.3	2.0846e-06	1.8717e-06	284.68	81.302	62.696	18.701	1.8027e-06	26.4	15.924	-89.359	-12.834	-104.171	-2.126	227.782	-104.427	-97.113	8.517	-5.977	-97.351	-91.012	-90.378	-83.267	112.180	-84.089	-8191	255	
480.265	1	1	0	0	0.081708	0.20761	0.083294	0.21001	0.10371	0.19014	0.22022	0.13869	0.20865	0.03627	0.11375	0.1989	0.044977	0.099278	0.13029	0.35447	-3.3875	-3.6771	-3.8021	-3.775	-3.5479	-3.7021	-3.8333	-3.5458	-3.975	-3.6437	-3.6875	-3.7313	-3.5479	-3.7729	-3.8542	-3.5083	223.766	52.913	160.091	238.353	144.687	224.120	-96.016	109.776	207.164	21.099	121.157	239.586	-36.498	204.540	51.849	176.439	0.0003459	0.00039879	8.6121e-05	1124	5.0712e-06	2.4887e-06	1178.4	234.09	8.2243e-06	8.6135e-07	290.71	82.354	63.976	18.807	3.3661e-06	26.327	0.00019334	0.00017183	4.6257e-05	1095.1	2.0513e-06	1.9006e-06	1156	229.54	2.046e-06	1.8311e-06	285.35	81.69	62.581	18.761	1.886e-06	26.39	32.699	-76.144	-47.038	-103.961	-12.927	186.770	-104.028	-97.005	5.908	98.803	-97.479	-90.521	-90.476	-83.578	209.636	-84.081	-8191	255	
480.360	1	1	0	0	0.11315	0.065273	0.015848	0.086361	0.23263	0.18277	0.39099	0.19136	0.11959	0.13125	0.044498	0.14401	0.12174	0.12453	0.18555	0.20012	-3.525	-3.6562	-3.6312	-3.9083	-3.6208	-3.6146	-3.9771	-3.55	-3.8125	-3.9854	-3.7333	-4.0687	-3.5062	-3.6437	-3.8771	-3.7104	-74.250	30.701	0.789	188.565	146.568	36.994	192.433	125.465	204.948	193.099	-29.198	189.319	77.523	-74.248	176.767	215.964	0.00025773	0.00037905	6.6042e-05	1123	1.6764e-06	2.6403e-06	1178.7	233.97	3.9093e-06	4.5853e-06	291.71	81.976	63.068	18.719	4.7428e-06	26.152	0.00018568	0.00016799	4.8089e-05	1092.6	1.987e-06	1.7841e-06	1154	229.35	1.9486e-06	1.7543e-06	285.52	81.477	62.288	18.677	1.9757e-06	26.356	8.606	-47.932	52.560	-104.052	-48.086	41.894	-104.101	-97.094	45.631	-3.683	-97.414	-90.784	-90.541	-83.164	17.833	-83.991	-8191	255	
480.456	1	1	0	0	0.093088	0.18373	0.13296	0.099667	0.15185	0.054237	0.21392	0.13676	0.15637	0.21385	0.11916	0.14576	0.10167	0.1412	0.078951	0.26346	-3.3917	-3.6521	-3.4813	-4.0312	-3.6208	-3.6458	-3.9083	-3.5938	-3.7604	-3.7292	-3.6583	-3.9229	-3.525	-3.6208	-4.0083	-3.5479	244.619	136.867	-77.629	-103.948	111.139	122.024	157.895	-23.640	35.010	160.534	120.474	222.917	197.057	202.386	69.071	-79.378	0.00034651	0.00030886	6.5591e-05	1124.2	3.4559e-06	2.2358e-06	1182.4	233.45	1.0932e-06	1.9885e-06	292.46	82.819	63.788	18.76	4.7404e-06	26.261	0.00018832	0.00016644	5.2324e-05	1093.3	1.9588e-06	1.8154e-06	1156	229.32	1.9286e-06	1.7946e-06	285.55	81.494	62.424	18.678	2.1801e-06	26.319	1.494	-12.274	0.574	-104.242	-45.360	104.027	-104.520	-97.188	15.280	-30.454	-97.313	-90.592	-91.035	-83.580	47.378	-83.867	-8191	255	
480.552	1	1	0	0	0.084424	0.10774	0.042013	0.26316	0.06324	0.21605	0.3268	0.16757	0.055332	0.07169	0.20651	0.13397	0.16407	0.11702	0.20917	0.16798	-3.3792	-3.8708	-3.5792	-3.9688	-3.7458	-3.9437	-4.025	-3.7042	-3.8021	-3.8333	-3.6375	-3.9375	-3.5896	-3.4833	-3.8625	-3.6104	121.103	88.709	166.433	186.320	3.982	156.216	173.614	151.806	22.885	74.474	159.371	196.581	124.631	-24.698	-62.229	-61.027	0.00040649	0.0003927	8.398e-05	1121.6	2.6407e-06	3.07e-06	1178.3	234.77	3.2025e-06	2.0554e-06	291.74	81.792	63.723	18.638	3.1868e-06	26.329	0.0001822	0.00017065	5.5189e-05	1093.7	1.9213e-06	1.9017e-06	1153.8	229.7	1.8646e-06	1.9235e-06	285.4	81.261	62.268	18.688	2.1281e-06	26.326	8.500	-22.600	-54.891	-103.929	36.186	25.263	-104.208	-97.168	-45.106	88.778	-97.128	-90.752	-90.694	-83.511	-46.332	-83.859	-8191	255	
480.673	1	1	0	0	0.20416	0.10427	0.028721	0.11695	0.07436	0.037227	0.24449	0.17744	0.30956	0.077851	0.072291	0.15456	0.093617	0.096909	0.2781	0.14496	-3.35	-3.9938	-3.3458	-4.0042	-3.7812	-3.6604	-3.8792	-3.5687	-3.6937	-3.8563	-3.6229	-3.7938	-3.9437	-3.6958	-4.025	-3.6958	242.041	52.352	124.746	159.975	45.588	102.623	110.981	157.891	194.894	118.643	243.988	-84.096	105.484	170.742	33.079	-107.000	0.00024292	0.00020699	7.4995e-05	1119.7	2.6655e-06	3.5972e-06	1183.3	233.34	4.9849e-06	3.0122e-06	291.48	81.827	63.342	18.68	5.5419e-06	26.354	0.00017447	0.00017751	5.4797e-05	1093.1	1.852e-06	1.9919e-06	1157.6	229.18	1.8788e-06	2.0543e-06	284.84	81.231	62.151	18.721	2.1142e-06	26.319	34.637	173.279	-3.596	-104.349	-62.117	41.296	-104.285	-96.907	13.238	38.438	-97.081	-90.977	-90.573	-83.355	35.594	-84.060	-8191	255	
480.769	1	1	0	0	0.23794	0.12474	0.1072	0.27878	0.12449	0.11131	0.13409	0.087209	0.047073	0.10202	0.17683	0.22132	0.21555	0.062712	0.2916	0.21825	-3.2229	-3.8208	-3.4583	-4.0479	-3.8458	-3.5396	-4.0875	-3.6792	-3.6833	-4.1229	-3.7167	-3.6979	-3.9271	-3.5958	-4.1	-3.8271	142.632	-80.695	60.263	229.763	215.249	63.097	141.566	41.240	192.870	190.922	223.506	-109.930	25.672	109.433	-29.242	60.536	0.00040635	0.00054471	0.00011008	1121.9	2.4077e-06	2.3509e-06	1178	233.89	6.9851e-06	2.051e-06	291.69	81.298	62.861	18.641	2.1488e-06	26.393	0.00017884	0.00019709	5.3393e-05	1093.1	1.9271e-06	2.1985e-06	1154.1	229.34	1.9195e-06	2.2207e-06	285.45	81.001	62.073	18.729	2.0818e-06	26.289	39.045	-60.161	13.584	-104.096	217.445	47.371	-104.153	-96.714	37.814	14.555	-97.214	-91.085	-90.886	-83.555	-34.137	-83.944	-8191	255	
480.865	1	1	0	0	0.1664	0.23096	0.097393	0.16034	0.31742	0.030333	0.084001	0.33899	0.11294	0.067511	0.070637	0.046826	0.22489	0.1426	0.07177	0.11218	-3.1396	-3.7646	-3.5104	-3.6354	-3.9333	-3.5229	-3.9729	-3.7854	-3.65	-4.0708	-3.6146	-3.7229	-3.7896	-3.3833	-3.9188	-3.8063	-114.829	121.755	145.818	148.335	131.686	43.953	232.090	206.067	132.374	-94.860	88.518	198.996	160.002	91.564	-78.015	228.546	0.00032449	0.00042104	9.1544e-05	1118.2	2.851e-06	3.2391e-06	1178.9	234.72	8.9429e-06	2.819e-06	289.93	82.006	63.597	18.639	2.2465e-06	26.361	0.00018318	0.00020766	5.3129e-05	1091.3	2.0481e-06	2.3169e-06	1154.1	229.42	2.0484e-06	2.2153e-06	284.51	81.049	62.579	18.714	2.0161e-06	26.253	23.710	-24.709	56.784	-104.203	185.330	43.213	-104.382	-97.143	72.322	-29.229	-97.306	-91.075	-90.670	-83.531	49.331	-83.599	-8191	255	
480.961	1	1	0	0	0.18253	0.14035	0.24564	0.19555	0.18528	0.11415	0.12463	0.19049	0.077772	0.078657	0.22226	0.14283	0.16742	0.20912	0.080446	0.21551	-3.1188	-3.9729	-3.5333	-3.8146	-3.8333	-3.5	-3.9437	-3.9833	-3.6229	-4.0875	-3.4917	-3.8292	-4.0042	-3.7083	-3.6792	-3.9896	-85.983	12.848	175.136	186.418	95.585	237.470	165.788	-110.240	85.948	33.839	-80.709	-99.080	14.785	63.490	164.228	-92.730	0.00038957	0.00065939	9.2454e-06	1123.5	1.8057e-06	4.4495e-06	1182.3	233.16	8.0104e-07	4.7203e-06	292.12	81.256	63.548	18.725	2.014e-07	26.238	0.00020075	0.00020526	5.141e-05	1093.6	2.2208e-06	2.2739e-06	1155.2	229.22	2.2575e-06	2.2052e-06	285.73	81.082	62.705	18.741	1.9928e-06	26.301	19.259	-39.853	56.204	-104.402	76.467	-24.702	-104.274	-96.841	232.876	-2.767	-97.265	-91.052	-90.772	-83.170	235.290	-84.454	-8191	255	
481.057	1	1	0	0	0.12147	0.1456	0.23496	0.24834	0.10572	0.083144	0.13843	0.27393	0.26554	0.1004	0.23057	0.18585	0.11273	0.12303	0.10131	0.084923	-3.2104	-4.0021	-3.5646	-3.7167	-4.025	-3.5292	-3.9667	-4.0292	-3.7021	-3.9604	-3.6479	-3.55	-3.8021	-3.4708	-3.7417	-3.925	19.023	-6.644	-111.788	199.945	186.782	4.040	169.937	215.520	161.608	-71.719	175.430	216.557	-37.008	164.821	188.991	39.960	0.00033913	0.00057728	8.8283e-05	1119.6	1.8549e-06	3.1277e-06	1185.3	233.76	4.9507e-06	2.7606e-06	291.65	82.092	63.861	18.642	4.162e-06	26.301	0.00021444	0.00019789	5.145e-05	1093.7	2.3589e-06	2.1826e-06	1157.3	229.03	2.3418e-06	2.1234e-06	284.83	81.372	62.806	18.735	1.9818e-06	26.304	22.545	-30.671	-43.018	-104.183	34.046	57.190	-104.310	-97.252	-11.683	-3.021	-97.523	-90.950	-90.537	-83.892	17.000	-84.113	-8191	255	
481.153	1	1	0	0	0.19836	0.0849	0.078284	0.33406	0.15027	0.033835	0.4305	0.21099	0.17447	0.037715	0.14057	0.25832	0.14512	0.092359	0.085759	0.082519	-3.2396	-3.8979	-3.8292	-3.7396	-4.0333	-3.5563	-3.7396	-3.9292	-3.5542	-3.9292	-3.8375	-3.5583	-3.8646	-3.4979	-3.5729	-3.8042	-49.773	154.866	147.997	207.757	159.095	-66.196	148.983	234.084	75.661	71.641	171.775	240.923	-83.736	104.416	-18.321	48.409	0.00029623	0.00029843	2.5014e-05	1125	2.3621e-06	8.7422e-07	1184.3	233.22	1.4288e-06	7.4811e-06	292.19	81.811	63.847	18.641	1.3644e-06	26.384	0.00021329	0.00018866	4.8484e-05	1095.8	2.2686e-06	2.0475e-06	1156	229.58	2.2633e-06	2.0039e-06	285.16	81.246	62.559	18.67	1.9319e-06	26.324	26.826	51.189	30.766	-103.846	-68.321	180.302	-104.311	-97.063	88.147	9.655	-97.249	-91.149	-91.143	-83.734	-78.687	-84.151	-8191	255	
481.272	1	1	0	0	0.21758	0.28769	0.076142	0.35974	0.058666	0.16458	0.28115	0.024401	0.075913	0.28194	0.16813	0.30175	0.17042	0.11068	0.029345	0.10644	-3.1375	-3.7438	-3.6583	-3.6458	-3.9583	-3.7396	-3.8646	-3.9625	-3.6042	-3.7	-3.8333	-3.5479	-3.9083	-3.7396	-3.6104	-3.875	81.785	57.016	118.370	210.575	-25.382	151.937	178.923	43.603	139.023	32.809	180.501	136.160	-61.200	87.436	1.517	224.498	0.00027037	0.00022805	0.0001058	1123.8	1.421e-06	4.3836e-06	1181.6	233.4	5.7008e-06	3.9283e-06	291.18	82.03	63.717	18.609	3.7864e-06	26.07	0.00020704	0.00018448	4.9599e-05	1096	2.2412e-06	2.0288e-06	1154.7	229.84	2.2159e-06	2.023e-06	285.41	81.341	62.568	18.667	2.0064e-06	26.269	57.672	-10.346	-11.934	-104.152	-49.617	-18.957	-104.194	-96.917	-37.261	105.715	-96.971	-90.903	-90.355	-83.257	3.405	-84.299	-8191	255	
481.368	1	1	0	0	0.17298	0.11247	0.046396	0.13882	0.058134	0.22133	0.34031	0.15274	0.31463	0.087969	0.037309	0.1776	0.090878	0.071423	0.27861	0.2108	-3.0958	-3.6042	-3.9604	-3.6	-3.9	-3.8417	-3.6479	-3.825	-3.5875	-3.7125	-3.9292	-3.6375	-4.1354	-3.8479	-3.6312	-3.85	208.610	-37.815	235.323	122.124	109.240	98.271	194.200	205.320	-77.477	-19.438	-33.265	-105.610	216.881	-60.644	136.222	199.048	0.00044078	0.00048659	2.8434e-05	1126.5	3.8623e-06	1.5901e-06	1182	232.93	2.562e-06	2.8632e-06	291.8	82.815	63.716	18.598	2.6813e-06	26.393	0.0002028	0.00018532	5.0987e-05	1095.3	2.1372e-06	1.9601e-06	1156.3	229.78	2.1157e-06	1.9089e-06	285.65	81.627	62.398	18.652	2.0197e-06	26.387	17.871	-60.742	41.742	-104.247	38.347	-100.492	-104.319	-96.955	26.506	31.379	-97.120	-90.898	-90.987	-83.132	-27.405	-83.835	-8191	255	
481.464	1	1	0	0	0.099259	0.055449	0.17535	0.18146	0.075315	0.19603	0.0096961	0.22833	0.10144	0.066743	0.035237	0.072848	0.30862	0.19345	0.086273	0.096698	-3.2604	-3.7042	-3.9521	-3.6333	-3.7188	-4	-3.7542	-3.9958	-3.7271	-3.5083	-3.9479	-3.6396	-3.7729	-3.6417	-3.6479	-3.8958	124.229	186.136	-99.268	-92.326	-111.448	70.342	77.461	146.561	218.925	214.874	61.349	-23.599	192.395	196.089	-57.370	204.379	0.00037229	0.00012122	6.7186e-05	1123.6	1.6598e-06	2.4212e-06	1185.2	234.14	5.4129e-06	1.7979e-06	291.57	82.132	63.93	18.734	3.9068e-06	26.228	0.00018983	0.00017412	5.355e-05	1094.7	2.0594e-06	1.9353e-06	1156.6	229.78	2.0444e-06	1.9668e-06	285.87	81.516	62.633	18.658	2.2623e-06	26.35	17.067	-58.783	-15.633	-104.140	-59.778	29.661	-104.333	-97.125	-22.946	34.345	-97.450	-90.962	-90.682	-83.485	-108.774	-84.075	-8191	255	
481.536	1	1	0	0	0.17283	0.098916	0.035589	0.18776	0.1727	0.25295	0.18076	0.14765	0.31655	0.1207	0.26119	0.20271	0.20596	0.1978	0.23714	0.23566	-3.1583	-3.5125	-3.8438	-3.5229	-3.7458	-3.9813	-3.8271	-4.0021	-3.6354	-3.675	-4.1021	-3.7188	-3.7208	-3.9896	-3.5479	-3.8625	42.578	97.271	208.598	224.050	160.459	-9.767	239.594	151.451	-16.914	69.229	157.091	87.947	16.013	88.506	110.097	-65.133	0.00047017	0.00031265	7.4856e-05	1124.7	2.9206e-06	5.6383e-06	1174.9	232.89	6.042e-06	2.3695e-06	291.56	81.837	63.375	18.722	5.87e-06	26.218	0.00019347	0.00017918	5.8237e-05	1095.7	2.0327e-06	1.9446e-06	1153.7	229.46	1.9593e-06	1.9477e-06	285.38	81.284	62.304	18.686	2.2686e-06	26.304	30.008	-17.184	-12.744	-104.185	67.297	39.980	-104.416	-97.281	55.522	71.660	-97.565	-90.787	-91.037	-83.574	42.212	-83.994	-8191	255	
481.632	1	1	0	0	0.096763	0.14488	0.35349	0.17801	0.20767	0.080776	0.094128	0.084745	0.22469	0.056533	0.12282	0.23434	0.15247	0.082376	0.084422	0.13757	-3.4917	-3.5979	-3.9875	-3.7188	-3.8146	-3.9729	-3.5979	-3.9042	-3.6063	-3.7354	-3.9792	-3.7667	-3.5854	-3.8854	-3.5292	-3.9458	-64.734	108.657	47.153	145.172	-18.862	134.283	80.599	-92.042	157.340	207.241	69.628	240.425	138.844	234.106	241.343	231.449	0.00036153	0.00060464	4.5361e-05	1123.4	5.0193e-06	2.8821e-06	1186.7	233.99	5.4841e-06	2.639e-06	292.82	81.984	63.229	18.699	2.5444e-06	26.094	0.00018372	0.00018863	5.7786e-05	1095.4	1.9886e-06	2.1003e-06	1156.7	229.4	1.9259e-06	2.0893e-06	285.39	81.228	62.193	18.641	2.1733e-06	26.269	21.072	228.154	-37.953	-104.132	1.176	6.604	-104.436	-97.227	30.893	-42.896	-97.300	-91.022	-90.859	-83.740	-10.624	-83.680	-8191	255	
481.753	1	1	0	0	0.090574	0.04311	0.10232	0.2197	0.22016	0.029553	0.14975	0.25706	0.21775	0.1867	0.17413	0.22451	0.10806	0.058421	0.10502	0.11588	-3.5208	-3.5	-3.9354	-3.7062	-3.6188	-3.8563	-3.7479	-3.8292	-3.9	-3.6208	-3.9896	-3.6625	-3.7125	-4.0125	-3.7354	-3.8854	35.853	-79.157	14.752	172.815	-95.159	-67.144	49.314	203.933	182.203	-103.203	-46.833	-59.248	90.336	101.370	193.649	-84.278	0.00028475	0.00075245	8.8966e-05	1125.3	1.8043e-06	3.1995e-06	1185.4	232.25	5.8737e-06	4.3493e-06	291.46	82.236	63.26	18.695	3.0186e-06	26.281	0.00017861	0.00019646	5.5253e-05	1095.4	1.9231e-06	2.2309e-06	1156	228.56	1.9477e-06	2.2235e-06	285.2	81.21	62.055	18.708	2.1538e-06	26.261	30.961	-50.974	-14.352	-104.046	16.148	42.509	-104.476	-96.936	-33.060	-28.538	-97.299	-90.844	-90.689	-82.877	-93.399	-84.082	-8191	255	
481.849	1	1	0	0	0.1014	0.18287	0.20211	0.17168	0.22573	0.26568	0.30584	0.2686	0.2568	0.3167	0.20154	0.16653	0.20412	0.20631	0.1162	0.12948	-3.325	-3.6	-3.9646	-3.8708	-3.6458	-3.9688	-3.6875	-3.7271	-3.7917	-3.4562	-3.9188	-3.8104	-3.5667	-3.9479	-3.6	-3.6417	-32.936	-56.082	-37.697	216.805	-45.465	124.552	165.527	237.613	53.473	229.823	-108.864	243.265	126.938	-69.959	113.111	-4.466	0.00028125	0.00048105	6.6592e-05	1121	2.8325e-06	4.8353e-06	1176.3	232.79	2.5377e-06	4.1854e-06	290.12	81.923	63.279	18.587	3.7415e-06	26.222	0.00018687	0.00020827	5.2902e-05	1093	2.0406e-06	2.2397e-06	1153.4	228.85	2.0947e-06	2.2784e-06	285	81.005	62.158	18.662	2.0872e-06	26.288	9.051	-19.822	-41.349	-103.936	-37.786	49.010	-104.425	-97.287	-92.561	-32.557	-97.179	-91.070	-90.756	-83.430	-34.364	-83.714	-8191	255	
481.945	1	1	0	0	0.17691	0.087785	0.16994	0.071034	0.16405	0.069348	0.1173	0.11729	0.14233	0.155	0.14601	0.077822	0.19172	0.26374	0.17252	0.056707	-3.5292	-3.5312	-3.8604	-3.8375	-3.4958	-4.1229	-3.7562	-3.6271	-3.9833	-3.7167	-3.9833	-3.6	-3.6167	-4.0229	-3.4938	-3.8229	30.331	-55.206	199.509	-111.507	-64.019	127.751	216.941	127.179	44.200	177.341	104.718	-38.483	-79.735	152.752	159.376	-25.560	0.00038444	0.00035002	3.9083e-05	1122.3	9.2662e-07	3.462e-06	1181.1	232.62	6.7266e-07	4.7888e-06	291.82	81.409	63.771	18.632	5.0079e-06	26.2	0.00019743	0.00020545	5.1895e-05	1092	2.1438e-06	2.2245e-06	1154.1	228.37	2.2065e-06	2.2589e-06	284.77	80.787	62.663	18.643	2.02e-06	26.233	29.794	-90.028	-42.171	-104.099	160.824	13.298	-104.152	-97.242	36.723	41.707	-97.270	-90.592	-90.948	-83.493	35.780	-83.641	-8191	255	
482.066	1	1	0	0	0.13479	0.11273	0.15985	0.2101	0.14034	0.41178	0.41928	0.074985	0.2423	0.19307	0.083254	0.13693	0.056369	0.17341	0.022671	0.037278	-3.5792	-3.4896	-3.8979	-3.9375	-3.7562	-3.9083	-3.8125	-3.825	-3.8688	-3.7271	-3.9104	-3.8021	-3.6646	-3.8833	-3.6021	-3.6458	226.122	143.563	-28.847	233.273	67.249	-104.685	206.063	134.615	187.009	214.195	216.221	70.988	153.140	-107.587	174.284	-12.842	0.00035649	0.00029004	8.0059e-05	1122.8	3.2205e-06	3.8064e-06	1178.9	233.39	4.8275e-06	5.5157e-06	291.36	81.389	63.912	18.635	1.8365e-06	26.137	0.00021618	0.00020313	5.194e-05	1094.8	2.3135e-06	2.2131e-06	1156.1	228.96	2.2944e-06	2.2031e-06	285.16	81.254	62.776	18.598	1.9605e-06	26.23	16.811	-72.653	-39.709	-104.142	41.851	37.554	-104.318	-97.240	-38.009	64.738	-97.330	-90.966	-90.160	-83.558	93.328	-83.986	-8191	255	
482.137	1	1	0	0	0.14224	0.19847	0.10991	0.12185	0.13319	0.012925	0.1275	0.032306	0.15999	0.15693	0.20369	0.13814	0.18466	0.056028	0.29074	0.11995	-3.4729	-3.65	-3.6063	-3.9417	-3.6188	-3.8937	-3.7229	-3.5271	-3.8438	-3.4938	-3.8021	-3.9729	-3.3479	-3.9	-4.0083	-3.5104	-17.066	156.905	118.930	131.637	11.013	168.343	73.697	230.608	-106.691	-39.163	216.703	180.234	103.363	-51.312	99.504	237.197	0.00035931	0.00029428	3.5867e-05	1119	3.0565e-06	1.9864e-06	1179.4	233.52	5.7481e-06	3.3058e-06	291.25	81.761	63.343	18.585	3.2996e-06	26.228	0.0002099	0.00018804	4.9157e-05	1094.1	2.3279e-06	2.0738e-06	1154.3	229.34	2.2624e-06	2.0637e-06	284.4	81.177	62.643	18.631	1.9357e-06	26.354	30.442	-16.362	-105.905	-104.080	1.135	160.141	-104.437	-96.884	3.185	-16.702	-97.387	-90.679	-91.147	-83.525	-48.475	-84.316	-8191	255	
482.234	1	1	0	0	0.14418	0.27243	0.12159	0.24864	0.28109	0.199	0.15344	0.28582	0.066764	0.21503	0.20305	0.067164	0.12408	0.12636	0.085449	0.078104	-3.6437	-3.4708	-3.725	-4.05	-3.5875	-3.9875	-3.9125	-3.5917	-3.8958	-3.6979	-3.7687	-3.9188	-3.5667	-3.6875	-3.775	-3.6083	160.806	-109.442	228.497	-100.877	-24.514	116.140	136.854	196.785	-74.424	201.418	199.279	-11.216	152.799	185.917	98.972	145.607	0.00034619	0.00015168	8.6878e-05	1121.6	3.0635e-06	4.8802e-06	1180.4	231.46	4.8599e-06	2.9453e-06	289.99	82.063	63.878	18.479	1.275e-06	26.273	0.00021021	0.00018389	4.7895e-05	1094.7	2.1686e-06	2.0246e-06	1152.8	228.96	2.2516e-06	2.033e-06	284.61	81.339	62.603	18.594	2.0768e-06	26.37	26.434	-27.276	17.425	-104.177	20.797	-7.921	-104.021	-96.992	61.892	97.096	-97.218	-91.151	-90.786	-83.475	-49.213	-83.771	-8191	255	
482.353	1	1	0	0	0.13028	0.30332	0.27396	0.14474	0.35944	0.086495	0.22711	0.048184	0.087485	0.097412	0.21209	0.076777	0.11846	0.11244	0.064905	0.28553	-3.4521	-3.6646	-3.6562	-3.8667	-3.4583	-3.7146	-3.9854	-3.575	-4.0854	-3.8333	-3.7417	-3.7938	-3.7292	-3.7771	-3.8771	-3.6146	-78.620	173.158	-77.403	187.179	146.066	69.211	210.081	169.535	42.416	-3.362	178.409	-109.014	209.061	-88.275	86.960	166.795	0.00033387	0.00092701	1.242e-05	1120.9	3.8264e-06	3.5466e-07	1179.4	232.51	4.9181e-06	2.3418e-06	291.82	82.123	63.159	18.567	1.6577e-06	26.161	0.00020808	0.00019195	5.2587e-05	1097.2	2.2444e-06	2.0618e-06	1156.4	229.36	2.2878e-06	2.1044e-06	285.8	81.422	62.597	18.636	2.2565e-06	26.334	30.307	-64.841	199.516	-104.187	-10.257	-65.401	-104.317	-97.231	18.059	39.896	-97.032	-91.106	-91.015	-83.447	118.832	-83.972	-8191	255	
482.449	1	1	0	0	0.14027	0.061689	0.29561	0.32805	0.23011	0.11337	0.50157	0.11251	0.13837	0.14145	0.13464	0.033056	0.15456	0.1368	0.073665	0.10658	-3.5292	-3.7104	-3.4667	-3.9188	-3.5396	-3.5479	-4.0292	-3.5917	-3.8708	-3.8125	-3.7333	-3.9396	-3.7	-3.525	-3.7479	-3.7188	236.443	120.427	111.383	208.577	232.585	-3.206	191.308	88.822	-92.765	36.060	65.453	-99.105	87.964	-65.277	-52.104	116.640	0.00031187	0.00024999	5.7021e-05	1123.3	4.1747e-06	3.7574e-06	1183.7	233.37	2.8474e-06	3.1243e-06	291.34	81.906	63.963	18.621	1.0765e-06	26.128	0.00021403	0.00019618	5.9713e-05	1097.1	2.3075e-06	2.1843e-06	1158.3	229.6	2.3483e-06	2.1684e-06	286.45	81.626	62.832	18.684	2.5275e-06	26.425	30.955	-52.494	106.308	-104.213	-12.837	8.844	-104.245	-97.196	32.856	-25.552	-96.968	-91.042	-90.793	-83.147	26.821	-84.047	-8191	255	
482.545	1	1	0	0	0.1426	0.12326	0.055335	0.14497	0.046021	0.19231	0.21723	0.22604	0.10853	0.053966	0.21312	0.27928	0.19434	0.15937	0.036283	0.11428	-3.4729	-3.7833	-3.4229	-4.0312	-3.7354	-3.6	-4.2375	-3.5563	-3.975	-3.6813	-3.6688	-3.9354	-3.8125	-3.7188	-3.9583	-3.5542	89.545	174.082	88.965	136.913	110.331	49.843	231.348	-66.868	-92.013	-65.319	-56.691	-101.385	-104.775	-107.447	117.660	111.285	0.00046013	0.00067306	0.00011507	1131.9	1.7899e-06	3.5494e-07	1188.5	234.67	3.0377e-06	3.4934e-06	291.2	82.264	63.844	18.687	1.3145e-06	26.164	0.00021907	0.00020435	6.6074e-05	1101.8	2.324e-06	2.2312e-06	1161	230.25	2.263e-06	2.1714e-06	286.87	81.431	62.621	18.722	2.5213e-06	26.404	22.698	-88.522	-44.904	-104.272	6.834	-14.469	-104.192	-97.119	-87.872	127.370	-97.772	-90.942	-90.541	-82.942	-85.293	-83.781	-8191	255	
482.665	1	1	0	0	0.18875	0.052379	0.048316	0.21862	0.018384	0.22041	0.31315	0.14732	0.24714	0.28265	0.14197	0.038521	0.37393	0.049727	0.16612	0.051925	-3.35	-3.8542	-3.4521	-3.9104	-3.7833	-3.5083	-3.975	-3.5896	-3.6146	-3.8833	-3.5729	-3.8542	-3.5979	-3.4854	-3.8229	-3.4479	230.794	138.207	-74.958	-96.492	197.644	-44.518	174.211	129.899	-50.195	-61.816	212.142	-104.814	184.551	119.633	198.109	-104.262	0.00032651	0.00028671	0.00011829	1129.4	9.549e-07	2.1501e-06	1188.1	234.39	5.2774e-06	2.0009e-06	292.47	82.105	63.928	18.651	5.6999e-06	26.438	0.00020171	0.00020602	6.5202e-05	1101	2.1573e-06	2.245e-06	1162.2	229.79	2.0672e-06	2.2069e-06	287.04	81.433	62.656	18.707	2.3082e-06	26.4	28.900	-25.554	-23.553	-104.017	-55.453	120.997	-104.232	-97.255	-13.641	23.767	-97.240	-90.832	-90.567	-83.568	-0.815	-83.786	-8191	255	
482.762	1	1	0	0	0.090726	0.060172	0.11839	0.1959	0.16002	0.11214	0.14681	0.29497	0.1088	0.081678	0.2656	0.021806	0.32788	0.17222	0.42543	0.11412	-3.1354	-3.7979	-3.6229	-3.8354	-3.7958	-3.5833	-4.0062	-3.5563	-3.6125	-3.8917	-3.2833	-3.6333	-3.6688	-3.6646	-3.8729	-3.5687	120.853	211.047	13.208	-101.814	36.347	32.549	-107.519	106.203	148.156	186.962	239.792	34.236	69.134	130.988	237.092	33.768	0.00031845	0.000406	0.00012442	1127.1	3.2875e-06	3.5778e-06	1184.2	233	5.3023e-06	4.6477e-07	290.34	82.22	64.02	18.589	1.6683e-06	26.402	0.00018622	0.00020596	5.7603e-05	1098.5	1.9595e-06	2.2436e-06	1157.3	229.13	1.9559e-06	2.2506e-06	285.55	81.486	62.597	18.63	2.1252e-06	26.314	32.855	-113.678	3.957	-104.213	-59.880	101.765	-104.242	-96.819	-30.929	199.024	-97.518	-90.789	-90.776	-83.217	-65.524	-84.029	-8191	255	
482.833	1	1	0	0	0.2589	0.092761	0.096046	0.32525	0.34233	0.080493	0.26965	0.22519	0.10533	0.22536	0.07731	0.22037	0.15215	0.058712	0.052439	0.11209	-3.1875	-3.9729	-3.5021	-3.7458	-3.7	-3.4313	-3.9292	-3.7208	-3.4583	-3.9375	-3.5542	-3.7792	-3.9833	-3.3979	-3.7583	-3.7583	207.386	144.151	54.784	223.234	-29.902	174.099	159.433	-69.776	144.178	97.287	179.319	-46.545	240.240	-63.087	103.765	243.402	0.00036745	0.00036243	6.5906e-05	1123	1.4311e-06	8.3693e-07	1177.4	233.35	1.0047e-06	2.7685e-06	290.63	81.665	63.161	18.515	5.0882e-06	26.15	0.00018265	0.00019912	5.184e-05	1092.9	1.9224e-06	2.1796e-06	1154.6	228.58	1.9758e-06	2.2323e-06	285.14	81.066	62.297	18.628	2.0924e-06	26.216	8.247	-67.734	-76.499	-104.127	174.562	-81.443	-103.845	-96.997	57.042	63.160	-97.514	-91.070	-90.004	-83.544	-6.376	-83.809	-8191	255	
482.929	1	1	0	0	0.20982	0.16494	0.24238	0.27592	0.068919	0.064396	0.21307	0.1615	0.09194	0.16063	0.01616	0.060855	0.22166	0.05607	0.19069	0.11464	-3.1188	-3.9958	-3.7458	-3.8479	-3.8396	-3.6625	-3.9917	-3.9333	-3.6667	-3.9604	-3.6646	-3.7542	-3.7833	-3.6042	-4.0062	-3.9083	87.910	-3.563	-79.509	128.511	22.030	-64.526	195.375	-105.563	27.996	209.785	-77.028	52.383	182.988	-18.826	-101.174	166.129	0.00035313	0.00037443	3.5589e-05	1120.4	4.0502e-07	4.5983e-06	1184.3	233.44	9.4653e-07	5.0818e-06	290.88	81.915	63.219	18.572	2.0916e-06	26.457	0.00019939	0.00021534	5.5508e-05	1091.8	2.1898e-06	2.3056e-06	1155.4	228.91	2.2287e-06	2.3369e-06	284.52	81.086	62.439	18.702	2.1362e-06	26.319	28.022	-35.048	-75.096	-104.319	93.971	88.022	-104.357	-96.895	229.803	-37.069	-97.425	-90.581	-91.224	-83.742	103.064	-83.921	-8191	255	
483.050	1	1	0	0	0.20643	0.12457	0.21909	0.25677	0.068652	0.059093	0.27871	0.13747	0.11596	0.098704	0.15295	0.255	0.090871	0.024735	0.056168	0.12203	-3.0542	-3.9667	-3.5292	-3.7438	-3.8563	-3.6	-3.8417	-3.8896	-3.6292	-3.9021	-3.7375	-3.6729	-4.0021	-3.5687	-3.8208	-3.8104	-5.845	68.681	105.987	205.624	188.123	137.942	183.043	151.719	76.337	71.672	71.335	240.404	68.445	185.525	-26.069	213.779	0.00038249	0.00044715	7.7287e-05	1120.2	4.8437e-06	2.7272e-06	1182.7	233.1	7.7758e-06	3.3313e-06	292.86	81.812	63.318	18.644	2.1418e-06	26.294	0.00021829	0.00021337	5.4781e-05	1094.6	2.4682e-06	2.3719e-06	1154.6	228.73	2.4837e-06	2.3185e-06	285.77	81.159	62.751	18.672	2.1329e-06	26.368	12.876	-20.929	-61.235	-104.152	-34.238	39.098	-104.095	-97.128	-16.631	-11.743	-97.406	-91.093	-90.125	-83.350	170.123	-83.676	-8191	255	
483.146	1	1	0	0	0.17005	0.03847	0.13094	0.20221	0.11093	0.24995	0.31037	0.24021	0.13244	0.15248	0.26732	0.082815	0.13236	0.14657	0.2067	0.32422	-3.1479	-4.0062	-3.6083	-3.7604	-3.9188	-3.6458	-3.825	-4.0083	-3.7229	-4.0062	-3.8542	-3.6146	-4.0271	-3.7042	-3.6333	-3.9667	80.488	14.189	11.048	-95.122	33.247	184.753	154.923	-76.656	-4.571	96.173	212.670	81.411	238.912	116.836	-103.851	235.522	0.00033758	0.00040249	0.00013377	1127	7.4801e-06	3.0571e-06	1178.5	233.4	2.0342e-06	2.5887e-06	291.5	81.955	64.186	18.553	3.2476e-06	26.016	0.00022615	0.00020521	5.3019e-05	1095.8	2.5399e-06	2.3064e-06	1154.3	229.18	2.4224e-06	2.2019e-06	285.01	81.423	62.978	18.629	2.0499e-06	26.35	30.756	-46.035	-92.750	-104.335	19.095	7.204	-104.229	-97.097	80.655	149.667	-97.008	-90.930	-90.402	-83.434	-36.836	-84.204	-8191	255	
483.242	1	1	0	0	0.11619	0.17568	0.28914	0.11694	0.20741	0.19722	0.23583	0.093211	0.14707	0.09816	0.065469	0.25802	0.020194	0.085415	0.062331	0.2274	-3.1271	-3.8	-3.7083	-3.5625	-3.9458	-3.6021	-3.8875	-3.9229	-3.4708	-3.9062	-3.8937	-3.6229	-3.9896	-3.6333	-3.6562	-3.9833	147.768	61.566	90.773	215.679	217.489	-48.546	168.273	91.836	99.974	-57.118	174.990	-83.966	122.091	26.260	40.923	75.288	0.00044368	0.00036206	5.1489e-05	1120.5	3.7013e-06	3.7704e-06	1178	233.35	5.3678e-06	3.0709e-06	289.61	82.201	62.611	18.544	4.6888e-06	26.371	0.00022535	0.00019824	5.3616e-05	1097.3	2.4606e-06	2.2394e-06	1157.1	229.65	2.4371e-06	2.2179e-06	285.04	81.486	62.49	18.641	2.133e-06	26.386	19.965	54.151	-47.250	-104.261	-36.904	10.524	-104.174	-96.940	-35.951	17.108	-97.293	-91.153	-90.675	-83.528	56.533	-83.877	-8191	255	
483.337	1	1	0	0	0.28893	0.17071	0.11419	0.30777	0.33879	0.34658	0.16941	0.19317	0.13745	0.30743	0.073285	0.13056	0.15457	0.093846	0.14192	0.12178	-3.0771	-3.6854	-3.925	-3.7125	-3.8625	-3.7875	-3.7646	-4.0333	-3.7375	-3.7479	-3.7521	-3.5458	-3.8688	-3.6167	-3.625	-3.9104	-65.253	181.330	83.423	204.063	-91.359	105.359	236.763	154.065	153.776	-112.257	192.987	235.144	120.688	34.737	57.504	187.092	0.00031613	0.00037001	5.5038e-05	1126.4	5.3261e-06	5.4781e-06	1186.9	234.03	3.7461e-06	3.2757e-06	291.62	81.888	63.87	18.581	1.7045e-06	26.382	0.00021808	0.00019489	5.4663e-05	1098.1	2.3562e-06	2.1437e-06	1157.7	229.57	2.2888e-06	2.1074e-06	285.42	81.375	62.724	18.654	2.2334e-06	26.411	24.778	-72.593	187.832	-104.319	-8.356	15.330	-104.219	-97.004	9.089	-0.122	-97.735	-90.977	-90.321	-83.381	154.622	-83.786	-8191	255	
483.433	1	1	0	0	0.16135	0.19588	0.11559	0.22285	0.13369	0.17783	0.17633	0.4027	0.1723	0.14577	0.074595	0.16118	0.21831	0.20921	0.14747	0.34335	-3.1125	-3.5604	-3.9667	-3.5229	-3.8771	-3.8625	-3.4896	-4.0542	-3.4458	-3.7521	-3.9979	-3.4062	-3.8521	-3.775	-3.4833	-3.9854	182.544	12.147	46.118	-109.121	122.594	-50.966	186.893	180.585	123.060	-39.889	73.316	142.837	-7.127	106.990	140.332	-47.218	0.00038574	0.00018378	9.6471e-05	1125.6	6.563e-06	1.7664e-06	1189.7	232.58	6.455e-06	3.3621e-06	293.33	81.779	63.131	18.676	1.8597e-06	26.312	0.00021276	0.00019153	5.8764e-05	1099	2.3333e-06	2.128e-06	1161	229.56	2.2356e-06	2.034e-06	286.16	81.384	62.651	18.68	2.2884e-06	26.397	34.946	104.472	24.353	-104.292	-46.357	63.934	-104.262	-97.377	-15.551	-1.525	-97.035	-90.986	-90.424	-83.383	-108.551	-83.911	-8191	255	
483.529	1	1	0	0	0.12608	0.19872	0.19804	0.41873	0.24088	0.18502	0.12696	0.15246	0.22957	0.21403	0.21907	0.10971	0.061116	0.34478	0.052102	0.066554	-2.9479	-3.6292	-3.8604	-3.6146	-3.8042	-3.7667	-3.6417	-3.925	-3.7521	-3.7646	-3.8896	-3.5563	-3.6896	-3.6979	-3.4104	-3.7896	-94.480	93.823	-56.610	230.493	87.416	9.819	-66.159	238.230	210.981	10.819	127.083	-44.490	-20.862	192.420	218.050	134.837	0.00030659	0.00019325	9.2027e-05	1129.3	3.903e-06	2.2549e-06	1181.4	233.23	4.3905e-06	1.0199e-06	292.54	81.38	63.653	18.695	9.1236e-07	26.2	0.00019928	0.00018392	5.9797e-05	1098.5	2.1476e-06	2.0631e-06	1158.8	229.64	2.1253e-06	2.0452e-06	286.54	81.375	62.673	18.699	2.452e-06	26.342	9.923	-53.943	-77.386	-104.081	-67.263	13.849	-104.317	-97.141	-28.170	62.338	-97.708	-90.641	-90.377	-83.522	75.408	-84.058	-8191	255	
483.625	1	1	0	0	0.14182	0.23776	0.14842	0.17236	0.128	0.35614	0.20206	0.015342	0.14591	0.066754	0.18306	0.086272	0.2465	0.15612	0.13057	0.16821	-3.2125	-3.5875	-3.9396	-3.5729	-3.6417	-3.9062	-3.6083	-3.9396	-3.6458	-3.5979	-4.0333	-3.6229	-3.7313	-3.7938	-3.4583	-4.0208	19.160	30.369	117.169	175.995	138.145	-9.311	206.539	144.507	23.519	199.394	123.550	-70.734	-114.269	48.347	50.889	101.885	0.00024952	0.00032254	0.00014891	1127.1	3.5214e-06	3.3569e-06	1182.2	233.45	3.0764e-06	1.9785e-06	291.1	81.77	63.955	18.652	5.6137e-06	26.443	0.00020321	0.00020632	6.4546e-05	1098.5	2.2391e-06	2.2805e-06	1160.8	229.55	2.186e-06	2.3325e-06	286.36	81.314	62.864	18.761	2.4945e-06	26.451	5.473	-83.755	38.070	-104.128	-101.593	187.538	-104.263	-97.344	131.857	20.125	-97.416	-90.905	-90.855	-83.554	-14.692	-83.768	-8191	255	
483.746	1	1	0	0	0.098847	0.14412	0.077402	0.065083	0.16956	0.20186	0.15468	0.10297	0.09184	0.077199	0.23286	0.099969	0.17135	0.077264	0.14495	0.069649	-3.4125	-3.5208	-3.9125	-3.8	-3.7062	-3.9042	-3.5708	-3.9542	-3.7542	-3.5062	-4.0042	-3.6979	-3.6229	-3.9646	-3.5583	-3.7271	198.325	26.595	112.254	-14.305	-36.221	106.843	186.795	241.134	140.480	219.126	-88.456	218.729	192.160	238.022	172.760	-33.125	0.00043422	0.00068204	0.00012953	1126.4	2.736e-06	7.4814e-07	1186.8	232.98	3.4811e-06	2.0781e-06	291.31	81.929	63.827	18.873	8.4309e-06	26.284	0.00019913	0.00021741	6.1645e-05	1098.5	2.0785e-06	2.331e-06	1159.3	229.24	2.0325e-06	2.3181e-06	285.95	81.404	62.562	18.793	2.2509e-06	26.367	24.801	-57.057	-9.102	-104.260	105.781	211.708	-104.059	-97.229	94.124	-1.911	-97.346	-90.718	-90.851	-83.668	-44.198	-84.053	-8191	255	
483.842	1	1	0	0	0.24467	0.20811	0.31835	0.25548	0.10319	0.27469	0.37407	0.18911	0.34722	0.26709	0.17359	0.19687	0.12509	0.064881	0.23694	0.1001	-3.4938	-3.4854	-3.8333	-3.7958	-3.6167	-3.9333	-3.7438	-4.0229	-3.8208	-3.4479	-3.8729	-3.9375	-3.6854	-3.9958	-3.6521	-3.7792	37.246	-35.301	-5.532	241.533	80.048	1.191	158.945	188.443	83.460	143.186	138.849	190.690	158.341	215.170	221.902	244.882	0.00031005	0.00014305	0.00011605	1130.2	5.0878e-06	3.081e-06	1180.7	233.64	4.8411e-06	1.2595e-06	291.58	82.131	63.601	18.627	5.1348e-06	26.416	0.00018927	0.00020719	5.6268e-05	1098.1	2.0454e-06	2.3547e-06	1159	229.6	2.0849e-06	2.3353e-06	285.76	81.257	62.496	18.704	2.1277e-06	26.337	36.150	-23.412	5.166	-104.285	-37.833	86.389	-104.134	-97.087	22.619	-7.517	-97.175	-90.933	-90.359	-83.397	14.270	-83.965	-8191	255	
483.938	1	1	0	0	0.21653	0.12733	0.25136	0.27224	0.22208	0.11151	0.42131	0.22759	0.20176	0.29126	0.27065	0.40616	0.042916	0.18345	0.063684	0.25943	-3.5104	-3.575	-3.8479	-3.9521	-3.5292	-3.9042	-3.7812	-3.8063	-3.8167	-3.5396	-3.9313	-3.7229	-3.5604	-3.8604	-3.6229	-3.6708	-71.482	106.989	111.837	218.944	243.673	244.694	200.647	166.200	2.870	72.800	111.082	0.506	-46.002	60.465	113.833	130.379	0.0002688	0.00035536	0.00012963	1119.9	3.0256e-06	2.0909e-06	1184.5	232.74	5.2931e-06	1.3468e-06	290.24	82.339	63.895	18.554	6.4311e-06	26.176	0.00019915	0.00021645	5.3982e-05	1096.6	2.294e-06	2.4644e-06	1158.2	229.35	2.4192e-06	2.5563e-06	285.97	81.483	63.162	18.78	2.3297e-06	26.307	31.936	-25.537	-14.347	-104.135	227.431	19.752	-104.180	-96.857	232.587	26.834	-97.237	-90.913	-90.666	-83.628	10.361	-83.782	-8191	255	
484.034	1	1	0	0	0.22042	0.053943	0.12007	0.093395	0.2263	0.21699	0.29604	0.070733	0.28503	0.073168	0.14586	0.072624	0.075231	0.18719	0.22565	0.12703	-3.5208	-3.3896	-3.8646	-3.9479	-3.65	-3.9188	-3.6917	-3.5521	-3.9188	-3.5833	-3.7729	-3.8479	-3.5333	-3.8146	-3.6813	-3.4771	-106.884	-89.152	-29.936	109.421	154.756	239.160	164.898	138.534	-55.978	91.454	66.840	15.811	-2.950	-84.402	131.408	55.762	0.0004017	0.00012687	7.877e-05	1130.9	2.2011e-06	3.0952e-06	1187	232.78	4.9803e-06	1.3928e-06	292.26	82.031	63.925	18.798	3.0758e-06	26.277	0.00023522	0.00023092	5.8438e-05	1101.5	2.5854e-06	2.5279e-06	1162	229.33	2.6092e-06	2.5394e-06	286.73	81.556	63.173	18.841	2.318e-06	26.4	15.294	-5.048	-40.748	-104.154	29.456	-35.596	-104.192	-97.002	-14.865	-104.915	-97.273	-90.748	-91.176	-83.157	134.582	-84.125	-8191	255	
484.129	1	1	0	0	0.12525	0.28056	0.052891	0.29521	0.061804	0.21248	0.30472	0.16891	0.25512	0.12707	0.13053	0.11586	0.26469	0.13326	0.069798	0.12952	-3.6208	-3.4562	-3.7729	-3.8688	-3.4479	-3.9583	-3.7938	-3.5062	-3.8979	-3.5062	-3.7479	-3.8937	-3.4646	-3.8937	-3.7833	-3.7042	5.469	163.573	-38.172	231.574	128.805	-102.071	192.287	203.860	1.638	169.178	112.767	135.510	244.732	127.863	-46.002	227.117	0.00030051	0.00038272	3.9755e-05	1130.2	1.3506e-06	3.1897e-06	1194.6	233.92	6.8717e-06	3.0989e-06	292.81	82.413	64.678	18.817	3.8378e-06	26.187	0.00024988	0.00023276	6.0713e-05	1104.4	2.9614e-06	2.654e-06	1167	231.02	2.9679e-06	2.6398e-06	287.56	82.038	63.995	18.906	2.3719e-06	26.564	20.074	221.098	15.633	-104.206	72.027	19.844	-104.276	-97.189	-20.414	78.199	-97.453	-90.843	-90.609	-83.757	66.500	-84.024	-8191	255	
484.225	1	1	0	0	0.058006	0.034922	0.20808	0.18257	0.19234	0.21234	0.15037	0.13997	0.20389	0.057771	0.23296	0.10491	0.15762	0.27353	0.17885	0.085195	-3.5792	-3.5479	-3.7125	-3.8563	-3.5	-3.9021	-3.95	-3.5896	-3.7812	-3.5208	-3.6562	-3.9188	-3.5729	-3.8125	-3.8854	-3.5167	-108.029	12.101	-86.601	169.063	140.017	-95.980	223.388	142.203	119.852	208.201	160.191	230.145	173.847	212.022	-59.371	193.310	0.00034668	0.00043965	9.9076e-05	1136.1	1.9691e-06	4.6183e-06	1200.8	233.82	4.1157e-06	3.006e-06	291.69	82.053	63.591	18.699	2.3801e-06	26.322	0.00025355	0.0002303	5.9052e-05	1111.9	2.6845e-06	2.349e-06	1170.9	230.87	2.4537e-06	2.2492e-06	286.66	81.938	63.046	18.774	2.1335e-06	26.543	27.867	39.012	-60.874	-104.083	-14.739	52.014	-104.269	-96.985	75.708	33.850	-97.042	-91.101	-90.439	-83.540	39.878	-84.081	-8191	255	
484.345	1	1	0	0	0.24816	0.17989	0.017967	0.11399	0.041719	0.1272	0.042499	0.21369	0.086831	0.23093	0.10676	0.20456	0.19474	0.14248	0.084996	0.047343	-3.6042	-3.5438	-3.4604	-3.9562	-3.525	-3.8479	-3.8125	-3.6917	-3.9437	-3.7417	-3.8604	-3.9583	-3.6042	-3.7062	-3.8458	-3.6458	120.161	-69.113	-32.373	150.059	81.268	-77.836	52.726	205.620	217.237	139.482	102.915	242.149	-27.523	222.669	161.570	-55.617	0.00033644	0.00034126	8.7882e-05	1134.9	2.4418e-07	1.3153e-06	1191.5	233.65	2.3599e-06	3.7673e-06	291.69	82.172	63.954	18.696	8.9262e-07	26.212	0.00022326	0.00020545	5.5358e-05	1108.7	2.409e-06	2.1813e-06	1165.8	230.77	2.3396e-06	2.1039e-06	286.61	81.753	63.109	18.736	2.1907e-06	26.427	19.879	219.130	-49.570	-104.324	-107.068	60.838	-104.224	-97.408	-2.792	-21.367	-97.519	-90.789	-90.629	-83.749	65.484	-83.933	-8191	255	
#DATA ENDS
