BOXY.EXE: ISS Imagent and Oximeter Data Acquisition Program Version 0.80
Ascii Record File

#ACQ INFORMATION
2  Detector Channels 
16  External MUX Channels 
1  Auxiliary Channels 
5000  Waveform (CCF) Frequency (Hz)
1  Waveforms Skipped 
30  Waveforms Averaged 
1  Cycles Averaged 
16  Acquisitions per Waveform 
10.0806  Updata Rate (Hz) 

#FILE INFORMATION
TRUE -- External MUX Channel results are PARSED.
FALSE -- AC DC and Phase are NOT grouped.
TRUE -- Companion Program Settings File CREATED.
FALSE -- AC data not excluded
FALSE -- DC data not excluded
FALSE -- Phase data not excluded
FALSE -- Auxillary Chn. data not excluded
Tab delimiters

#CALIBRATION STATE
TRUE -- Waveform Calibration Values APPLIED.


#AUX CALIBRATION VALUES
Val Type	aux-1	

Term	1.0000e+00	
Factor	0.0000e+00	


#WF CALIBRATION VALUES
A = Detector Channel
Val Type	A-AC1	A-AC2	A-AC3	A-AC4	A-AC5	A-AC6	A-AC7	A-AC8	A-AC9	A-AC10	A-AC11	A-AC12	A-AC13	A-AC14	A-AC15	A-AC16	A-DC1	A-DC2	A-DC3	A-DC4	A-DC5	A-DC6	A-DC7	A-DC8	A-DC9	A-DC10	A-DC11	A-DC12	A-DC13	A-DC14	A-DC15	A-DC16	A-Ph1	A-Ph2	A-Ph3	A-Ph4	A-Ph5	A-Ph6	A-Ph7	A-Ph8	A-Ph9	A-Ph10	A-Ph11	A-Ph12	A-Ph13	A-Ph14	A-Ph15	A-Ph16	

Term	0.00000e+00	0.00000e+00	0.00000e+00	0.00000e+00	0.00000e+00	0.00000e+00	0.00000e+00	0.00000e+00	0.00000e+00	0.00000e+00	0.00000e+00	0.00000e+00	0.00000e+00	0.00000e+00	0.00000e+00	0.00000e+00	0.00000e+00	0.00000e+00	0.00000e+00	0.00000e+00	0.00000e+00	0.00000e+00	0.00000e+00	0.00000e+00	0.00000e+00	0.00000e+00	0.00000e+00	0.00000e+00	0.00000e+00	0.00000e+00	0.00000e+00	0.00000e+00	0.00000e+00	0.00000e+00	0.00000e+00	0.00000e+00	0.00000e+00	0.00000e+00	0.00000e+00	0.00000e+00	0.00000e+00	0.00000e+00	0.00000e+00	0.00000e+00	0.00000e+00	0.00000e+00	0.00000e+00	0.00000e+00	
Factor	1.00000e+00	1.00000e+00	1.00000e+00	1.00000e+00	1.00000e+00	1.00000e+00	1.00000e+00	1.00000e+00	1.00000e+00	1.00000e+00	1.00000e+00	1.00000e+00	1.00000e+00	1.00000e+00	1.00000e+00	1.00000e+00	1.00000e+00	1.00000e+00	1.00000e+00	1.00000e+00	1.00000e+00	1.00000e+00	1.00000e+00	1.00000e+00	1.00000e+00	1.00000e+00	1.00000e+00	1.00000e+00	1.00000e+00	1.00000e+00	1.00000e+00	1.00000e+00	X	X	X	X	X	X	X	X	X	X	X	X	X	X	X	X	

B = Detector Channel
Val Type	B-AC1	B-AC2	B-AC3	B-AC4	B-AC5	B-AC6	B-AC7	B-AC8	B-AC9	B-AC10	B-AC11	B-AC12	B-AC13	B-AC14	B-AC15	B-AC16	B-DC1	B-DC2	B-DC3	B-DC4	B-DC5	B-DC6	B-DC7	B-DC8	B-DC9	B-DC10	B-DC11	B-DC12	B-DC13	B-DC14	B-DC15	B-DC16	B-Ph1	B-Ph2	B-Ph3	B-Ph4	B-Ph5	B-Ph6	B-Ph7	B-Ph8	B-Ph9	B-Ph10	B-Ph11	B-Ph12	B-Ph13	B-Ph14	B-Ph15	B-Ph16	

Term	0.00000e+00	0.00000e+00	0.00000e+00	0.00000e+00	0.00000e+00	0.00000e+00	0.00000e+00	0.00000e+00	0.00000e+00	0.00000e+00	0.00000e+00	0.00000e+00	0.00000e+00	0.00000e+00	0.00000e+00	0.00000e+00	0.00000e+00	0.00000e+00	0.00000e+00	0.00000e+00	0.00000e+00	0.00000e+00	0.00000e+00	0.00000e+00	0.00000e+00	0.00000e+00	0.00000e+00	0.00000e+00	0.00000e+00	0.00000e+00	0.00000e+00	0.00000e+00	-1.56410e+02	-1.27925e+02	-1.23922e+02	-1.82673e+02	-7.57512e+01	-6.11924e+01	-1.55323e+02	-1.62015e+02	-8.33286e+01	-6.57451e+01	-1.72119e+02	-1.69838e+02	-1.79785e+02	-1.77170e+02	-7.38895e+01	-1.49034e+02	
Factor	2.27176e-05	1.55070e-04	4.33590e-05	1.76889e-01	1.36821e-06	1.78199e-06	1.63072e-01	4.85717e-02	1.34987e-06	1.70672e-06	9.20508e-02	2.79817e-02	2.79836e-02	8.82360e-03	1.44751e-06	1.26394e-02	1.41485e-05	2.59860e-05	7.31483e-06	8.80964e-02	2.56862e-07	2.96358e-07	7.67068e-02	2.43435e-02	2.54028e-07	2.93281e-07	4.48789e-02	1.37183e-02	1.41984e-02	4.46541e-03	2.69071e-07	6.22161e-03	X	X	X	X	X	X	X	X	X	X	X	X	X	X	X	X	



#DISTANCE SETTINGS
A = Detector Channel
A-1	A-2	A-3	A-4	A-5	A-6	A-7	A-8	A-9	A-10	A-11	A-12	A-13	A-14	A-15	A-16	

2.5000e+00	3.0000e+00	2.5000e+00	3.0000e+00	2.0000e+00	3.0000e+00	1.5000e+00	3.0000e+00	3.0000e+00	3.0000e+00	3.0000e+00	3.0000e+00	3.0000e+00	3.0000e+00	1.5000e+00	3.0000e+00	

B = Detector Channel
B-1	B-2	B-3	B-4	B-5	B-6	B-7	B-8	B-9	B-10	B-11	B-12	B-13	B-14	B-15	B-16	

1.0000e+01	1.0000e+01	1.0000e+01	1.4400e+00	1.0000e+01	1.0000e+01	1.5100e+00	1.9400e+00	1.0000e+01	1.0000e+01	1.9900e+00	2.4900e+00	2.4100e+00	2.9000e+00	1.0000e+01	2.9800e+00	




#DATA BEGINS
time	group	step	mark	flag	A-AC1	A-AC2	A-AC3	A-AC4	A-AC5	A-AC6	A-AC7	A-AC8	A-AC9	A-AC10	A-AC11	A-AC12	A-AC13	A-AC14	A-AC15	A-AC16	A-DC1	A-DC2	A-DC3	A-DC4	A-DC5	A-DC6	A-DC7	A-DC8	A-DC9	A-DC10	A-DC11	A-DC12	A-DC13	A-DC14	A-DC15	A-DC16	A-Ph1	A-Ph2	A-Ph3	A-Ph4	A-Ph5	A-Ph6	A-Ph7	A-Ph8	A-Ph9	A-Ph10	A-Ph11	A-Ph12	A-Ph13	A-Ph14	A-Ph15	A-Ph16	B-AC1	B-AC2	B-AC3	B-AC4	B-AC5	B-AC6	B-AC7	B-AC8	B-AC9	B-AC10	B-AC11	B-AC12	B-AC13	B-AC14	B-AC15	B-AC16	B-DC1	B-DC2	B-DC3	B-DC4	B-DC5	B-DC6	B-DC7	B-DC8	B-DC9	B-DC10	B-DC11	B-DC12	B-DC13	B-DC14	B-DC15	B-DC16	B-Ph1	B-Ph2	B-Ph3	B-Ph4	B-Ph5	B-Ph6	B-Ph7	B-Ph8	B-Ph9	B-Ph10	B-Ph11	B-Ph12	B-Ph13	B-Ph14	B-Ph15	B-Ph16	aux-1	digaux	

25474.506	1	1	0	256	0.10017	0.14115	0.15378	0.16367	0.25833	0.1241	0.21103	0.50387	0.17014	0.11519	0.33813	0.18977	0.11551	0.099975	0.094515	0.27881	-3.0604	-3.1292	-3.4208	-3.4104	-3.1229	-3.4562	-3.45	-3.3417	-3.4896	-3.1188	-3.3604	-3.4542	-3.1917	-3.3833	-3.2375	-3.2125	12.917	27.363	158.170	-45.793	136.379	-38.425	285.327	261.841	16.172	167.235	226.574	211.679	192.759	203.093	-54.559	209.014	0.00010545	0.00027555	8.2998e-05	1254.8	1.8692e-06	3.0766e-06	1320.8	256.12	1.5485e-06	2.115e-06	318.45	87.99	69.962	19.785	1.9832e-06	27.636	0.00023666	0.0002323	7.3285e-05	1229.9	3.3146e-06	2.6215e-06	1296.6	252.56	3.1896e-06	2.7281e-06	314.75	87.932	69.631	19.781	2.9906e-06	27.781	112.161	11.551	13.335	-46.672	100.226	93.687	-46.765	-39.757	94.812	89.767	-39.705	-33.376	-33.206	-26.223	65.610	-26.346	-8191	255	
25474.604	1	1	0	0	0.11792	0.0091519	0.065068	0.14956	0.031382	0.15644	0.42986	0.17566	0.143	0.17443	0.25953	0.28462	0.056519	0.1399	0.030354	0.25334	-2.9396	-3.0667	-3.1688	-3.3958	-3.0208	-3.3708	-3.5583	-2.9062	-3.2792	-3.0958	-3.3458	-3.4583	-3.1688	-3.3333	-3.4292	-3.0687	52.388	-43.761	-42.460	195.901	282.662	-30.262	229.619	192.237	240.941	115.774	-51.763	241.969	-15.405	284.300	143.240	251.292	9.6058e-05	0.00034083	9.1735e-05	1255.4	1.636e-06	4.0442e-06	1320.4	254.45	1.0789e-06	2.3247e-06	318.91	87.295	69.895	19.757	2.7382e-06	27.633	0.00023637	0.00026674	7.9625e-05	1228.5	3.1953e-06	2.6666e-06	1294.5	251.79	2.8785e-06	2.6829e-06	314.21	87.742	69.663	19.738	2.8146e-06	27.759	115.198	22.675	55.466	-46.683	70.312	120.663	-46.754	-39.728	89.153	90.980	-40.020	-33.547	-33.283	-26.251	75.769	-26.073	-8191	255	
25474.699	1	1	0	0	0.27868	0.26496	0.028774	0.087662	0.35882	0.27889	0.19467	0.039436	0.048454	0.12105	0.41213	0.14103	0.17393	0.16905	0.06043	0.288	-2.9979	-3.05	-3.1479	-3.6958	-2.9688	-3.2313	-3.5021	-2.9646	-3.4479	-3.3042	-3.3958	-3.3771	-3.1312	-3.3542	-3.3146	-3.2292	93.484	26.644	89.784	2.654	169.080	116.348	221.019	-35.290	-31.653	274.346	291.451	-31.319	181.088	60.577	93.895	159.391	8.2461e-05	0.00030509	8.4398e-05	1252.1	8.2436e-07	3.5243e-06	1318.2	254.73	8.8791e-07	3.8197e-06	318.93	87.491	69.485	19.592	2.3496e-06	27.392	0.00021185	0.00023593	7.5373e-05	1227.1	2.9138e-06	2.5604e-06	1292.5	251.97	2.5223e-06	2.3255e-06	313.96	87.847	69.495	19.684	2.3583e-06	27.654	125.459	30.062	29.221	-46.753	99.918	91.000	-46.588	-39.614	178.588	95.267	-39.850	-33.608	-32.805	-26.635	104.961	-26.418	-8191	255	
25474.818	1	1	0	0	0.11285	0.099447	0.16361	0.08451	0.21099	0.26988	0.34974	0.2161	0.16876	0.062078	0.02259	0.048948	0.14132	0.12729	0.097765	0.27074	-2.8917	-3.2938	-3.0521	-3.4979	-3.0354	-3.1833	-3.5667	-3.0729	-3.4292	-3.2146	-3.0875	-3.4833	-3.3063	-3.2438	-3.3625	-2.9833	8.591	194.380	217.432	259.423	159.730	112.187	248.827	265.767	130.796	285.809	-6.939	260.658	55.591	277.068	66.875	155.686	0.00011247	0.00028492	8.2405e-05	1254.1	2.6055e-06	3.454e-06	1311.5	254.93	1.06e-06	3.2582e-06	316.44	87.891	69.47	19.796	2.6568e-06	27.6	0.00020616	0.00020995	6.1521e-05	1228.2	2.613e-06	2.4752e-06	1291.7	252.37	2.3434e-06	2.1868e-06	313.79	87.812	69.517	19.718	2.1767e-06	27.655	116.882	30.143	49.693	-46.554	82.146	121.662	-46.304	-39.599	128.025	119.668	-40.037	-33.244	-33.039	-26.312	104.530	-26.273	-8191	255	
25474.914	1	1	0	0	0.027549	0.091963	0.22292	0.22494	0.16665	0.22609	0.15575	0.17689	0.10154	0.1272	0.30619	0.087309	0.25521	0.22276	0.17775	0.10004	-2.7667	-3.3667	-2.9708	-3.4396	-3.1167	-3.2	-3.5125	-3.1146	-3.3271	-3.3208	-2.9896	-3.5271	-3.1292	-3.1604	-3.2792	-3.2667	265.440	164.655	-16.884	31.815	106.764	255.404	200.768	272.150	112.874	201.659	230.446	238.556	239.507	265.858	122.802	7.088	9.338e-05	0.00035481	7.1239e-05	1259.1	1.252e-06	3.3286e-06	1318.7	253.26	2.0756e-06	3.4972e-06	317.45	88.114	69.498	19.604	1.7199e-06	27.487	0.00019121	0.00020518	5.9509e-05	1226.4	2.4926e-06	2.3579e-06	1291.8	251.52	2.4953e-06	2.3866e-06	314.08	87.814	69.501	19.677	2.3376e-06	27.654	100.991	47.974	20.875	-46.550	108.574	120.185	-46.503	-39.588	89.305	112.464	-39.839	-33.574	-32.988	-26.274	99.405	-26.281	-8191	255	
25474.986	1	1	0	0	0.16087	0.068296	0.048956	0.31377	0.36591	0.30703	0.28298	0.24764	0.10402	0.098953	0.41091	0.14295	0.14811	0.27048	0.28271	0.24266	-2.7771	-3.2729	-2.9875	-3.4917	-3.1521	-3.0354	-3.5521	-3.1813	-3.3	-3.5146	-3.0625	-3.4042	-3.1604	-3.1917	-3.3854	-3.25	-31.233	202.733	257.245	283.168	54.342	260.098	243.718	253.927	299.283	0.015	206.905	-9.148	287.674	215.297	213.066	101.853	0.00010517	0.00031032	9.608e-05	1249.3	1.0058e-06	4.4452e-06	1313.3	256.09	1.2678e-06	2.3587e-06	318.35	87.82	69.663	19.626	1.7446e-06	27.542	0.00021406	0.00021368	6.2496e-05	1223.2	2.6189e-06	2.4215e-06	1290.8	252.26	2.5239e-06	2.3652e-06	314.18	87.851	69.53	19.778	2.3891e-06	27.723	105.382	37.749	33.014	-46.619	137.019	110.454	-46.577	-39.742	119.732	84.234	-39.697	-33.593	-33.543	-26.271	95.322	-26.623	-8191	255	
25475.082	1	1	0	0	0.11528	0.08999	0.084099	0.16655	0.083429	0.13804	0.20958	0.14564	0.19355	0.078634	0.1411	0.16759	0.10797	0.12254	0.17883	0.20896	-2.8187	-3.3792	-3.1104	-3.4292	-3.1396	-3.1021	-3.6479	-3.1708	-3.2	-3.3604	-3.125	-3.2938	-3.3333	-3.0708	-3.4646	-3.3458	225.737	239.905	82.108	286.770	290.689	149.305	193.056	226.635	233.710	176.548	182.642	-2.464	28.255	270.359	133.097	187.492	9.6144e-05	0.00031641	0.00010537	1260.1	2.7403e-06	3.8286e-06	1322.1	255.45	1.3637e-06	2.0458e-06	318.56	88.195	69.983	19.608	1.6617e-06	27.698	0.00021317	0.00022418	6.1841e-05	1231	2.8105e-06	2.8265e-06	1298.2	253.33	2.6355e-06	2.3799e-06	314.97	88.203	69.782	19.803	2.2305e-06	27.762	119.989	31.760	40.107	-46.720	90.851	100.049	-46.493	-39.684	39.645	89.999	-39.735	-33.645	-32.969	-26.773	141.109	-26.341	-8191	255	
25475.180	1	1	0	0	0.11684	0.21677	0.15741	0.22265	0.2137	0.12882	0.19685	0.066957	0.29144	0.26193	0.067251	0.06869	0.011814	0.13147	0.12923	0.10247	-2.9146	-3.3479	-3.1146	-3.5354	-3.0854	-3.0833	-3.6479	-3.2083	-3.0229	-3.2313	-3.0625	-3.3792	-3.2396	-3.05	-3.4146	-3.1562	248.850	86.901	130.963	236.739	-51.323	-30.129	203.857	131.278	300.475	-12.443	301.887	229.365	-23.863	-55.080	170.937	165.907	0.0001044	0.00045554	0.00010191	1263.4	9.6551e-07	3.5627e-06	1322.7	257.55	1.1688e-06	3.209e-06	319.64	88.325	69.774	19.702	2.8729e-06	27.693	0.00021877	0.00023967	6.3913e-05	1232.2	2.8715e-06	2.6024e-06	1298.9	254.42	2.8435e-06	2.4697e-06	315.82	88.424	69.973	19.805	2.5096e-06	27.831	111.007	46.001	26.871	-46.471	126.753	112.083	-46.537	-39.982	119.898	108.748	-39.991	-33.161	-32.994	-26.292	101.504	-26.640	-8191	255	
25475.299	1	1	0	0	0.018802	0.32705	0.16123	0.42204	0.30318	0.11252	0.37377	0.13886	0.22703	0.16265	0.12687	0.22355	0.12683	0.37922	0.11514	0.24258	-2.8125	-3.3187	-3.0938	-3.3333	-3.2854	-3.1083	-3.5646	-3.2583	-3.1312	-3.5021	-3.1271	-3.3583	-3.5646	-3.0958	-3.3875	-3.3	257.068	248.765	94.535	234.581	160.669	-35.348	220.541	-27.732	223.059	-35.701	300.654	36.142	45.641	-41.302	272.130	269.665	0.00011014	0.00041839	6.717e-05	1257.8	1.543e-06	2.8719e-06	1320.9	257.25	1.9983e-06	2.6064e-06	319.68	88.146	69.925	19.799	2.7749e-06	27.421	0.00023495	0.00024189	6.8531e-05	1231.4	3.3012e-06	3.1463e-06	1296.2	254.15	3.5447e-06	3.1088e-06	315.91	88.156	69.795	19.764	3.2563e-06	27.644	121.566	36.912	46.090	-46.567	112.787	94.941	-46.642	-39.776	111.768	109.271	-40.035	-33.321	-32.958	-25.692	99.854	-26.249	-8191	255	
25475.395	1	1	0	0	0.27928	0.13277	0.22548	0.28159	0.094749	0.091889	0.16237	0.18963	0.17319	0.20126	0.038992	0.26884	0.099805	0.17459	0.059648	0.20866	-2.5875	-3.4708	-3.2521	-3.3208	-3.5333	-2.8937	-3.5479	-3.3625	-2.9021	-3.3271	-3.3688	-3.2333	-3.4646	-3.0229	-3.3063	-3.25	260.100	220.544	248.857	193.147	-52.846	99.231	225.574	213.986	274.614	96.055	23.910	268.937	283.652	290.002	24.228	280.564	0.0001057	0.00020797	9.1228e-05	1248.1	4.4987e-07	2.6894e-06	1309.8	255.99	3.3598e-07	4.1093e-06	319.95	87.509	69.768	19.579	2.3363e-06	27.408	0.00028088	0.00031611	9.203e-05	1224.4	3.991e-06	3.7749e-06	1289.3	252.76	4.238e-06	4.1365e-06	315.34	87.947	69.493	19.67	4.4806e-06	27.625	120.974	67.524	25.328	-46.737	52.399	121.693	-46.614	-39.708	90.842	101.640	-39.757	-33.343	-33.208	-26.330	103.968	-26.320	-8191	255	
25475.490	1	1	0	0	0.26723	0.30218	0.03958	0.09768	0.10749	0.11288	0.20661	0.16243	0.098183	0.037714	0.10415	0.17993	0.15933	0.20146	0.10297	0.018517	-2.5292	-3.2188	-3.1646	-3.2458	-3.5979	-2.9833	-3.5021	-3.3458	-3.0271	-3.3396	-3.6562	-3.0729	-3.4021	-3.0417	-3.2646	-3.4396	200.744	176.337	87.194	159.441	-27.502	259.693	277.003	278.648	172.059	241.638	271.512	-4.936	296.798	2.682	228.524	267.424	0.00010767	0.0003597	8.8401e-05	1245.3	1.6223e-06	3.1721e-06	1308.1	254.72	4.7547e-07	1.2978e-06	317.9	87.221	69.358	19.504	2.4413e-06	27.623	0.00034938	0.00039916	0.00011833	1222.9	5.0848e-06	4.6084e-06	1287.5	252.07	5.1335e-06	4.632e-06	313.94	87.716	69.433	19.613	4.8803e-06	27.601	118.842	44.056	12.879	-46.556	107.186	82.761	-46.546	-39.981	38.436	66.251	-40.095	-33.488	-32.841	-26.361	91.842	-26.196	-8191	255	
25475.611	1	1	0	0	0.083608	0.077124	0.063436	0.17912	0.23708	0.11211	0.30132	0.14904	0.13906	0.10384	0.069399	0.16908	0.17715	0.093858	0.06307	0.11297	-2.6354	-3.1896	-3.2375	-3.3187	-3.3417	-3.1312	-3.3292	-3.4125	-3.0917	-3.4333	-3.425	-2.9104	-3.3583	-2.9542	-3.0625	-3.3021	294.477	189.654	233.789	-25.748	101.608	142.913	209.724	209.278	223.805	161.240	180.869	263.463	160.212	125.895	150.707	231.394	0.00012071	0.00027722	5.1098e-05	1243.5	2.6416e-06	4.1094e-06	1305.4	254.06	2.6289e-06	3.6602e-06	315.6	87.076	69.027	19.558	1.6113e-06	27.214	0.00035722	0.00040305	0.00012106	1216.7	5.2496e-06	4.7399e-06	1281.2	251.13	4.889e-06	4.7915e-06	312.91	87.495	69.195	19.541	5.2149e-06	27.525	123.196	43.855	55.005	-46.728	95.248	97.574	-46.454	-39.556	84.455	98.426	-39.580	-33.315	-33.080	-25.935	70.799	-25.971	-8191	255	
25475.684	1	1	0	0	0.022202	0.051055	0.28661	0.085145	0.25711	0.20057	0.33277	0.011166	0.069484	0.033134	0.27932	0.13303	0.096648	0.26427	0.21101	0.13922	-2.675	-3.3729	-3.1188	-3.2604	-3.3375	-3.2521	-3.3604	-3.4437	-3.0479	-3.3229	-3.3104	-3.1958	-3.3937	-3.1063	-3.1146	-3.4021	104.910	231.891	76.122	291.906	143.485	207.604	212.915	277.867	50.045	3.890	222.403	255.960	64.132	-2.128	14.586	268.465	9.7422e-05	0.00034199	0.00012806	1238.8	1.8628e-06	2.592e-06	1301.5	253.61	3.9768e-07	2.8289e-06	314.32	86.983	69.051	19.477	2.0331e-06	27.365	0.00034351	0.00044653	0.00013267	1215	4.9398e-06	4.9152e-06	1282.6	251	4.5831e-06	4.6821e-06	312.5	87.384	69.084	19.612	4.808e-06	27.587	125.961	7.109	37.661	-46.413	85.437	116.794	-46.448	-39.809	29.533	111.010	-39.880	-33.606	-33.106	-26.424	116.991	-26.268	-8191	255	
25475.779	1	1	0	0	0.041853	0.21998	0.10065	0.30728	0.13349	0.18333	0.23931	0.48053	0.1545	0.12863	0.16388	0.26759	0.048592	0.079669	0.1397	0.093669	-2.7292	-3.1729	-3.3667	-3.0667	-3.4625	-3.2188	-3.3438	-3.4208	-3.1813	-3.2396	-3.5042	-3.0042	-3.3958	-3.3146	-3.1437	-3.3833	126.503	-24.238	-32.994	118.307	157.534	225.130	219.710	266.555	227.764	138.931	94.623	200.102	248.563	247.599	265.754	-23.800	9.0056e-05	0.00029392	0.00012263	1237.6	2.601e-06	4.8363e-06	1302.5	252.09	1.8527e-06	3.066e-06	314.36	87.374	68.915	19.436	2.3615e-06	27.238	0.00030661	0.00039093	0.00011973	1213.2	4.1756e-06	4.1132e-06	1280.3	250.46	4.0232e-06	4.1817e-06	311.9	87.473	69.195	19.564	4.4116e-06	27.512	129.103	40.095	43.187	-46.559	125.126	102.704	-46.395	-39.596	43.733	79.543	-39.915	-33.187	-32.847	-26.357	84.495	-26.133	-8191	255	
25475.900	1	1	0	0	0.070824	0.15138	0.33077	0.29698	0.15908	0.20081	0.15636	0.23238	0.092357	0.063741	0.077236	0.017273	0.10771	0.099401	0.15921	0.022776	-2.7979	-3.1833	-3.4313	-3.0563	-3.3854	-3.1292	-3.2042	-3.5563	-3.0062	-3.125	-3.3292	-3.1354	-3.4188	-3.3646	-3.0167	-3.4688	134.829	264.114	16.523	259.790	148.040	273.408	189.105	-27.762	83.424	177.363	276.957	109.223	11.003	290.321	91.123	105.482	9.4153e-05	0.00022885	0.0001154	1235.9	1.1664e-06	2.9462e-06	1296.8	254.09	1.5072e-06	2.6273e-06	315.52	86.709	68.852	19.387	1.3055e-06	27.253	0.00029273	0.00038692	0.00010617	1212.1	4.0547e-06	4.3151e-06	1276.9	250.72	4.1237e-06	4.2104e-06	311.61	87.171	68.974	19.52	4.1583e-06	27.439	118.923	13.431	43.229	-46.599	91.766	118.071	-46.437	-39.559	105.762	106.148	-39.726	-33.132	-33.242	-25.988	96.586	-26.460	-8191	255	
25475.994	1	1	0	0	0.20997	0.1867	0.10501	0.28843	0.17299	0.17317	0.16889	0.11811	0.12912	0.33191	0.19893	0.10128	0.12258	0.089592	0.093255	0.039833	-2.8146	-3.0792	-3.3375	-3.2	-3.3937	-3.3167	-3.1583	-3.2625	-3.1021	-3.1937	-3.4854	-2.9938	-3.5042	-3.3688	-3.1104	-3.3479	177.327	92.611	239.395	225.799	179.394	206.233	234.611	287.180	19.746	167.977	287.555	168.060	80.734	111.017	-36.101	294.875	0.00010639	0.00021455	2.8509e-05	1240.2	1.9858e-06	2.5833e-06	1301.2	253.73	6.4199e-07	3.3502e-06	313.41	86.775	68.558	19.43	2.6548e-06	27.546	0.0002838	0.00038319	0.00010338	1212	3.9113e-06	4.1206e-06	1276.6	250.18	3.8067e-06	4.2721e-06	310.89	87.153	68.778	19.486	3.8225e-06	27.47	120.968	22.537	31.618	-46.633	98.566	85.821	-46.593	-39.487	72.272	90.987	-39.827	-33.577	-33.215	-25.982	69.839	-25.998	-8191	255	
25476.092	1	1	0	0	0.23311	0.078407	0.2091	0.14132	0.096546	0.32565	0.22684	0.33237	0.10709	0.19027	0.32213	0.02538	0.14699	0.027255	0.1109	0.21515	-2.7125	-3.1	-3.3521	-3.0938	-3.2167	-3.2854	-3.2083	-3.2062	-3.1479	-3.1792	-3.3438	-2.9896	-3.3604	-3.3021	-3.0292	-3.4646	256.785	56.086	178.230	249.879	234.559	5.513	175.613	260.873	120.134	90.914	-52.348	-22.438	198.984	231.588	141.613	190.387	9.5933e-05	0.00034699	7.6667e-05	1234.9	1.5518e-06	3.1815e-06	1296.1	251.2	2.5548e-06	4.0515e-06	312.14	86.584	68.738	19.281	2.2447e-06	27.16	0.00028639	0.00038741	0.00010213	1206.6	3.923e-06	3.9601e-06	1271.5	248.72	3.8258e-06	4.0687e-06	309.83	86.998	68.648	19.44	3.8404e-06	27.324	118.705	15.800	23.144	-46.456	115.325	115.300	-46.520	-39.459	134.324	84.826	-39.960	-33.390	-32.962	-25.714	108.944	-26.413	-8191	255	
25476.211	1	1	0	0	0.013708	0.1601	0.040266	0.2661	0.17644	0.22496	0.1837	0.25642	0.10447	0.090833	0.16146	0.28157	0.14874	0.12717	0.074781	0.39234	-2.6188	-2.9583	-3.3187	-3.1375	-3.2979	-3.4188	-3.3729	-3.3625	-3.3833	-3.0708	-3.4292	-3.1792	-3.2979	-3.4188	-3.0167	-3.3063	63.549	5.648	33.789	260.922	228.771	277.736	282.409	284.735	234.052	216.667	68.674	289.807	227.952	224.194	274.227	216.128	7.6914e-05	0.00037368	8.7843e-05	1224.8	9.9292e-07	3.9156e-06	1292.4	251.12	1.3583e-06	3.1593e-06	313.87	86.611	68.831	19.412	2.7052e-06	27.343	0.00029063	0.00035991	9.4986e-05	1202.2	4.3361e-06	4.2774e-06	1268.2	248.3	4.1285e-06	4.0424e-06	310.64	86.744	68.725	19.419	3.6969e-06	27.425	104.940	25.705	50.899	-46.602	70.962	100.020	-46.628	-39.702	92.042	116.014	-39.839	-33.349	-32.970	-26.195	85.087	-26.519	-8191	255	
25476.283	1	1	0	0	0.098093	0.04059	0.22682	0.2458	0.13547	0.065471	0.15746	0.37174	0.14805	0.14688	0.27564	0.27524	0.16246	0.28318	0.174	0.12441	-2.9104	-3.1125	-3.2521	-3.175	-2.9917	-3.4062	-3.1396	-3.3042	-3.1646	-3.0646	-3.3771	-3.3021	-3.4167	-3.5854	-3.0583	-3.2729	127.934	224.905	76.299	292.982	36.933	-13.619	279.487	299.097	-19.205	-30.006	228.535	270.752	255.719	191.236	133.703	147.154	0.00010638	0.00043337	0.00011288	1227.2	2.0106e-06	4.1196e-06	1288.3	250.76	1.6047e-06	2.4116e-06	311.07	86.55	68.387	19.444	2.0907e-06	27.036	0.00030245	0.00038513	9.3127e-05	1203.1	4.2206e-06	3.8212e-06	1267.8	248.2	4.0734e-06	4.1817e-06	308.9	86.685	68.523	19.454	3.8298e-06	27.316	112.406	42.314	32.501	-46.737	87.474	69.983	-46.549	-39.540	113.840	102.576	-39.997	-33.308	-33.042	-26.062	40.902	-26.270	-8191	255	
25476.379	1	1	0	0	0.054521	0.29746	0.13134	0.25917	0.090887	0.28806	0.18532	0.004467	0.12773	0.064331	0.10491	0.20177	0.099529	0.23214	0.23623	0.14901	-2.8396	-3.0729	-3.2167	-3.3729	-2.9875	-3.3104	-3.2354	-3.1708	-3.3583	-3.0458	-3.4938	-3.1458	-3.1729	-3.4146	-3.1437	-3.1708	138.753	-2.214	82.962	293.260	265.551	154.059	232.413	18.167	38.541	27.897	298.675	240.397	198.430	290.137	63.590	-41.855	9.6856e-05	0.00024598	8.0434e-05	1230.4	1.953e-06	6.2297e-06	1289.7	251.59	1.8023e-06	3.3494e-06	311.14	86.19	68.35	19.463	3.1567e-06	27.081	0.00028951	0.00036868	9.7272e-05	1203	4.3634e-06	4.0521e-06	1267.7	247.83	4.056e-06	3.8432e-06	308.9	86.46	68.354	19.453	3.6016e-06	27.246	121.134	14.483	36.062	-46.626	110.550	103.257	-46.415	-39.472	96.576	104.111	-39.891	-33.371	-32.767	-26.312	74.929	-26.131	-8191	255	
25476.498	1	1	0	0	0.12778	0.23522	0.1323	0.070447	0.18183	0.21237	0.26417	0.079422	0.30233	0.084133	0.13503	0.23983	0.30079	0.13811	0.18259	0.087297	-2.8896	-2.9979	-3.3375	-3.4146	-3.0125	-3.5542	-3.3542	-3.3417	-3.3833	-3.1833	-3.4521	-3.3229	-2.9833	-3.3042	-3.0896	-2.9167	41.186	253.446	37.858	89.496	246.588	187.029	-41.541	-47.233	200.135	178.590	277.589	281.459	-12.919	13.586	284.967	140.871	7.6275e-05	0.00030284	0.00012869	1225.7	1.6136e-06	4.3905e-06	1283.5	249.73	2.1898e-06	4.0732e-06	311.85	85.739	68.167	19.225	3.0003e-06	27.02	0.00030142	0.00034821	9.491e-05	1197.4	4.2998e-06	3.6137e-06	1261.5	246.82	3.9009e-06	3.7338e-06	307.66	86.296	68.174	19.293	3.8057e-06	27.255	108.359	18.209	28.093	-46.538	115.063	101.074	-46.406	-39.542	125.578	85.671	-39.923	-33.183	-33.085	-26.059	77.697	-26.254	-8191	255	
25476.596	1	1	0	0	0.13843	0.06651	0.23118	0.11163	0.22569	0.098498	0.23781	0.26448	0.12631	0.097782	0.15506	0.062103	0.084085	0.1517	0.15067	0.10982	-3.0042	-2.9771	-3.2771	-3.3625	-3.0458	-3.2812	-3.3688	-3.2313	-3.2646	-3.1896	-3.4354	-3.3917	-3.1417	-3.4354	-3.2062	-3.0583	275.691	124.492	164.775	294.992	-28.195	-22.340	218.071	84.957	37.063	6.001	239.424	300.452	35.522	180.553	22.764	288.627	9.2382e-05	0.0003792	5.5689e-05	1222.8	1.3372e-06	3.9279e-06	1284.5	249.92	2.0277e-06	3.3853e-06	310.47	86.113	68.483	19.215	2.202e-06	27.189	0.00029314	0.00031752	8.8509e-05	1197.3	4.0456e-06	3.6761e-06	1259.5	246.9	3.6389e-06	3.5169e-06	308.01	86.327	68.379	19.326	3.3696e-06	27.262	119.099	33.025	26.673	-46.553	96.421	99.876	-46.476	-39.684	62.943	103.210	-40.014	-33.374	-33.142	-26.083	118.804	-26.167	-8191	255	
25476.691	1	1	0	0	0.1541	0.14227	0.1608	0.3898	0.11391	0.047726	0.30463	0.2297	0.028122	0.074787	0.10978	0.20653	0.38362	0.033327	0.33565	0.11405	-3.0375	-3	-3.1917	-3.4625	-2.9375	-3.3771	-3.3312	-3.1271	-3.1958	-3.1688	-3.2062	-3.4167	-3.1188	-3.3146	-3.1542	-3.0896	47.163	148.634	68.051	213.990	170.845	-37.147	200.847	170.896	105.860	187.016	218.147	151.130	0.479	246.841	123.682	58.229	8.8259e-05	0.00028205	9.3062e-05	1225	1.328e-06	3.1442e-06	1283	248.99	9.1319e-07	4.0173e-06	310.12	86.552	68.296	19.297	1.8349e-06	27.026	0.00025803	0.00028974	9.1633e-05	1195.6	3.6325e-06	3.0784e-06	1261.1	246.85	3.4013e-06	3.3122e-06	307.32	86.41	68.275	19.358	3.1571e-06	27.253	113.903	40.060	38.793	-46.679	102.005	109.774	-46.430	-39.485	85.322	101.426	-39.560	-33.512	-32.814	-26.084	111.262	-26.689	-8191	255	
25476.787	1	1	0	0	0.19443	0.22256	0.077123	0.18628	0.14512	0.10334	0.044074	0.15305	0.028493	0.047268	0.12354	0.16619	0.25317	0.21866	0.10793	0.12588	-3.0104	-3.1042	-3.1896	-3.5458	-3.0771	-3.1979	-3.4396	-3.1083	-3.2646	-3.1021	-3.275	-3.2833	-3.0875	-3.3375	-3.1708	-3.1979	264.749	16.366	68.967	-37.701	129.421	184.957	-22.728	297.546	107.852	175.043	277.503	287.077	101.691	214.054	154.240	178.547	7.9989e-05	0.00034178	7.595e-05	1222.4	2.0032e-06	3.1657e-06	1288.5	249.02	1.1297e-06	2.3549e-06	310.42	86.336	68.587	19.237	2.5737e-06	27.05	0.0002509	0.00028899	8.377e-05	1197.1	3.4361e-06	3.3217e-06	1263.6	246.43	3.187e-06	2.9847e-06	307.14	86.522	68.197	19.334	3.0853e-06	27.254	110.605	44.833	27.064	-46.687	136.383	95.361	-46.540	-39.532	197.044	144.611	-39.650	-33.682	-32.842	-25.755	85.449	-26.508	-8191	255	
25476.885	1	1	0	0	0.088422	0.32435	0.23346	0.17407	0.16213	0.10723	0.16933	0.13027	0.23401	0.17648	0.30623	0.19673	0.28248	0.108	0.17417	0.07401	-3.0292	-3.1542	-3.1437	-3.4292	-2.8021	-3.2188	-3.4417	-3.1417	-3.1646	-3.1792	-3.0667	-3.4854	-3.1625	-3.1063	-3.2167	-3.0542	111.036	25.334	-50.338	297.202	38.358	297.970	157.890	223.194	-2.641	1.017	236.947	-56.704	-3.435	20.773	-57.116	2.473	9.2887e-05	0.000469	9.9615e-05	1218.8	1.0918e-06	3.8256e-06	1279.6	249.82	5.3054e-07	2.9912e-06	310.38	86.163	68.692	19.25	1.4568e-06	27.145	0.00024607	0.00030891	8.4745e-05	1193	3.3547e-06	3.3834e-06	1258.4	246.61	3.1288e-06	3.4155e-06	307.37	86.425	68.428	19.346	3.3881e-06	27.279	116.721	22.235	47.341	-46.549	87.071	104.293	-46.595	-39.713	72.337	96.092	-39.672	-33.091	-32.999	-25.984	94.155	-26.549	-8191	255	
25476.980	1	1	0	0	0.071958	0.095743	0.1863	0.47236	0.18522	0.22256	0.19603	0.2958	0.044823	0.23412	0.16432	0.26759	0.14345	0.15131	0.23632	0.053206	-2.7938	-3.1979	-2.9354	-3.5062	-3.0208	-3.2542	-3.3937	-3.1896	-3.3312	-3.1792	-3.2208	-3.3688	-3.1979	-3.2271	-3.3896	-3.15	46.857	-3.555	242.899	250.801	68.114	224.058	204.773	223.235	24.453	-41.890	249.667	126.077	253.454	279.958	-37.047	-36.142	8.7906e-05	0.00033589	0.00010186	1217.7	1.8746e-06	4.545e-06	1280.3	249.68	2.0105e-06	4.2078e-06	314.18	86.27	68.168	19.247	2.059e-06	27.183	0.00024336	0.00031833	9.0917e-05	1194.3	3.5356e-06	3.4273e-06	1259.2	247.13	3.0213e-06	3.3966e-06	308.5	86.291	68.188	19.343	3.1016e-06	27.271	119.442	40.811	56.442	-46.669	133.757	101.225	-46.507	-39.596	90.032	100.981	-39.678	-33.265	-33.074	-26.072	85.375	-26.774	-8191	255	
25477.074	1	1	0	0	0.14249	0.12389	0.15161	0.16591	0.029614	0.23551	0.21704	0.19856	0.056265	0.20375	0.12859	0.29658	0.1011	0.19471	0.028347	0.16416	-2.9458	-3.2354	-3.0146	-3.5	-3.2146	-3.1604	-3.625	-3.0542	-3.1667	-3.3042	-3.1229	-3.3229	-3.1958	-2.8271	-3.3021	-2.95	45.878	32.339	-56.817	208.871	134.735	172.552	223.242	235.628	125.619	235.612	261.885	208.617	301.441	249.936	262.843	186.036	0.00010058	0.00034837	0.00010012	1221	1.26e-06	2.1281e-06	1281.7	248.6	2.7012e-06	3.8776e-06	310.74	86.179	68.041	19.214	2.4299e-06	27.073	0.0002417	0.00028233	8.0768e-05	1194	3.0411e-06	3.1408e-06	1257.5	245.88	2.9748e-06	2.9456e-06	307.36	86.109	68.158	19.303	2.7669e-06	27.189	116.166	36.667	25.949	-46.707	107.156	118.399	-46.381	-39.616	89.006	83.521	-39.685	-33.447	-32.738	-25.900	65.413	-26.236	-8191	255	
25477.172	1	1	0	0	0.14788	0.1358	0.063947	0.19187	0.015139	0.11283	0.21738	0.064053	0.15806	0.11022	0.11151	0.073619	0.13647	0.2476	0.21583	0.18537	-2.9771	-3.3875	-3.0146	-3.2479	-3.0979	-2.9813	-3.4417	-3.1604	-3.1167	-3.4271	-3.1813	-3.2479	-3.2021	-3.1833	-3.3396	-3.2083	9.973	-55.798	-51.437	-31.246	197.584	135.468	249.022	-40.857	48.643	69.492	263.725	98.445	190.947	250.864	-23.248	235.637	7.9599e-05	0.00027716	0.0001086	1218.1	1.674e-06	2.2544e-06	1281.6	248.12	4.7028e-07	3.0095e-06	309	85.896	67.825	19.198	2.4085e-06	26.913	0.00023201	0.00025179	7.391e-05	1190.3	3.1535e-06	2.9092e-06	1254.6	245.13	3.0526e-06	2.7477e-06	306.31	86.162	67.866	19.268	2.7361e-06	27.145	119.084	26.719	14.129	-46.562	112.863	76.537	-46.335	-39.632	138.642	98.393	-39.650	-33.488	-32.778	-26.472	86.983	-26.410	-8191	255	
25477.291	1	1	0	0	0.21734	0.041248	0.10714	0.11068	0.31116	0.18408	0.25856	0.21526	0.26566	0.14181	0.21438	0.19965	0.10168	0.095539	0.16766	0.17776	-2.9208	-3.3312	-2.9521	-3.6	-3.2125	-3.0125	-3.4896	-3.3187	-3.2458	-3.4167	-3.1896	-3.4521	-3.3208	-2.9583	-3.3917	-3.3125	104.270	26.809	93.726	162.635	-26.089	22.775	250.907	296.659	265.130	4.018	160.118	300.073	177.052	70.035	139.801	162.994	8.802e-05	0.00034963	9.3218e-05	1211.1	1.7421e-06	3.5345e-06	1276.8	247.68	1.3326e-06	2.0804e-06	310.15	86.092	68.169	19.303	1.4049e-06	26.835	0.00024082	0.00026771	6.8927e-05	1187.7	3.268e-06	3.0525e-06	1251.2	244.82	3.2166e-06	2.832e-06	306.08	85.969	67.998	19.262	2.7193e-06	27.064	125.421	29.717	25.008	-46.486	137.108	103.337	-46.534	-39.513	99.517	106.913	-39.654	-33.406	-33.216	-26.133	100.448	-26.240	-8191	255	
25477.387	1	1	0	0	0.16338	0.093542	0.12011	0.064222	0.076456	0.048352	0.56859	0.31716	0.17721	0.056009	0.16754	0.2646	0.13182	0.14018	0.10511	0.27978	-2.9833	-3.3167	-3.1021	-3.4354	-3.3375	-3.175	-3.3833	-3.0812	-2.9917	-3.3063	-3.3333	-3.2687	-3.2271	-2.975	-3.2354	-3.1604	136.468	30.366	170.727	159.030	-48.519	139.538	224.630	301.054	10.008	123.851	277.692	119.853	138.468	-22.811	94.362	82.050	0.00010007	0.00022278	8.2628e-05	1211.7	1.0229e-06	3.484e-06	1272.2	248.27	1.8487e-06	4.5853e-06	310.93	85.845	68.037	19.139	2.4874e-06	26.875	0.00023687	0.00027058	6.783e-05	1184.5	3.2279e-06	2.9062e-06	1248.1	244.92	3.2833e-06	2.8094e-06	305.77	86.034	67.815	19.246	2.4026e-06	27.046	121.808	21.055	21.935	-46.529	87.530	94.249	-46.284	-39.362	119.767	76.406	-39.914	-33.239	-32.748	-26.147	87.614	-25.967	-8191	255	
25477.484	1	1	0	0	0.26154	0.26675	0.1487	0.039527	0.20939	0.40239	0.15319	0.055263	0.15111	0.1672	0.13984	0.1571	0.11143	0.10563	0.22951	0.092777	-2.725	-3.275	-2.9437	-3.3542	-3.3229	-2.9896	-3.5771	-3.2729	-3.0354	-3.4042	-3.1979	-3.1875	-3.3146	-3.0521	-3.2854	-3.2521	152.967	42.362	253.137	24.281	5.607	43.389	256.397	-11.781	110.316	4.093	200.023	-50.718	-45.750	295.680	267.890	4.540	0.00011093	0.00020979	5.8632e-05	1213.1	3.1291e-06	2.5659e-06	1272.5	247.76	1.7702e-06	4.2621e-06	309.89	85.377	68.088	19.187	3.2079e-06	26.985	0.00024029	0.00024113	6.6001e-05	1185.3	3.1904e-06	2.8333e-06	1249.1	244.84	3.1748e-06	2.7342e-06	305.64	85.778	67.899	19.216	2.6789e-06	27.158	104.078	35.846	31.299	-46.427	110.933	80.158	-46.358	-39.582	68.190	95.339	-39.929	-33.272	-33.086	-25.918	102.768	-26.152	-8191	255	
25477.580	1	1	0	0	0.27827	0.12132	0.046164	0.20915	0.18307	0.1477	0.34345	0.2747	0.432	0.18295	0.15405	0.068499	0.099671	0.093996	0.20832	0.14193	-2.6833	-3.3229	-3.0458	-3.1813	-3.2208	-3.1208	-3.3375	-3.2271	-3.0771	-3.35	-3.2708	-3.1479	-3.275	-3.2104	-3.2833	-3.2625	125.161	1.897	250.756	267.408	69.910	234.626	226.914	192.639	207.248	87.981	194.412	153.056	5.856	223.557	53.850	109.377	0.00010528	0.00034091	8.602e-05	1212.7	2.8969e-06	1.771e-06	1269.9	248.04	1.5904e-06	2.4954e-06	311.07	85.937	67.625	19.109	1.3465e-06	27.156	0.0002415	0.00024227	6.9735e-05	1184.9	3.2359e-06	2.7024e-06	1251	244.91	3.3251e-06	2.6505e-06	305.7	85.988	67.875	19.24	2.8751e-06	27.186	110.794	31.384	43.953	-46.569	82.424	76.539	-46.538	-39.504	38.658	92.635	-39.726	-33.629	-33.020	-25.691	87.858	-26.297	-8191	255	
25477.676	1	1	0	0	0.17491	0.15848	0.28373	0.258	0.23255	0.27704	0.21888	0.24955	0.3049	0.18458	0.072272	0.20656	0.32205	0.18977	0.10163	0.17152	-2.5292	-3.1437	-3.1312	-3.0333	-3.3292	-3.0417	-3.3208	-3.1896	-3.0187	-3.2917	-3.2792	-3.2667	-3.3542	-2.9688	-3.325	-3.2062	23.552	238.302	294.496	203.937	269.584	103.071	238.980	284.712	113.192	223.086	235.947	186.667	9.489	92.108	235.749	-33.827	9.0094e-05	0.00025338	5.786e-05	1213	2.0593e-06	2.9686e-06	1277.1	248.65	1.3595e-06	2.9568e-06	308.93	86.936	68.086	19.311	3.8628e-06	27.076	0.00025291	0.00025894	7.7217e-05	1189.4	3.5056e-06	2.9364e-06	1255.4	245.84	3.3145e-06	2.667e-06	306.44	86.45	68.273	19.365	3.2305e-06	27.253	119.149	45.561	41.896	-46.586	88.612	106.893	-46.370	-39.772	137.052	104.433	-39.921	-33.573	-32.727	-26.222	79.940	-26.639	-8191	255	
25477.771	1	1	0	0	0.082766	0.10225	0.19255	0.43654	0.11438	0.084671	0.13092	0.12734	0.079878	0.13077	0.2617	0.06287	0.26809	0.15607	0.11683	0.18161	-2.6604	-3.1542	-3.1271	-3.3396	-3.2146	-3.1063	-3.3729	-3.3771	-3.1479	-3.3354	-3.3625	-3.0896	-3.2292	-3.15	-3.2229	-3.3917	27.055	289.569	273.842	-45.296	-50.771	180.437	229.715	251.726	102.994	3.321	-7.532	49.588	246.692	242.717	-40.296	301.173	0.00010536	0.00044983	0.00011125	1222.5	1.6245e-06	2.7745e-06	1286.1	249.31	1.5315e-06	2.7916e-06	312.85	86.386	68.837	19.362	2.7198e-06	27.126	0.00024837	0.0002853	8.4303e-05	1196.9	3.2739e-06	2.9025e-06	1264.4	246.74	3.2436e-06	2.9652e-06	308.16	86.443	68.591	19.475	3.0271e-06	27.357	112.201	33.380	18.600	-46.312	63.823	118.950	-46.369	-39.685	85.019	96.117	-39.781	-33.552	-32.799	-26.185	87.932	-26.481	-8191	255	
25477.893	1	1	0	0	0.047703	0.1488	0.20629	0.28185	0.083269	0.31128	0.19873	0.31172	0.06677	0.094518	0.14181	0.27872	0.12088	0.17407	0.024305	0.098237	-2.5521	-3.2083	-3.3333	-2.975	-3.3146	-3.0542	-3.2396	-3.3979	-3.0062	-3.0729	-3.2812	-3.1292	-3.2583	-3.2771	-3.0479	-3.4938	231.691	238.795	29.026	291.898	128.539	228.664	290.123	-52.665	42.202	77.191	269.444	227.709	57.269	111.708	18.763	272.344	0.00011557	0.00022375	0.00011227	1231.1	1.738e-06	3.641e-06	1296.3	250.66	1.9408e-06	2.6752e-06	312.43	86.585	68.776	19.363	2.54e-06	27.112	0.00024633	0.00027421	8.2505e-05	1202.5	3.2027e-06	3.0951e-06	1269.7	247.66	3.1298e-06	3.1375e-06	308.85	86.832	68.586	19.5	3.2502e-06	27.393	126.092	35.744	30.929	-46.403	89.365	102.798	-46.547	-39.432	93.493	120.684	-39.651	-33.514	-33.077	-25.944	102.387	-26.357	-8191	255	
25477.988	1	1	0	0	0.20369	0.22882	0.13662	0.13012	0.04153	0.24619	0.16879	0.14356	0.23008	0.19806	0.21808	0.38665	0.37373	0.1922	0.21847	0.13732	-2.7333	-3.1063	-3.3229	-3.1396	-3.3229	-3.2979	-3.3354	-3.3396	-3.1479	-3.2333	-3.3646	-3.0396	-3.4375	-3.1396	-3.0958	-3.3854	-29.875	-40.374	57.978	-34.752	256.856	128.544	157.509	298.445	247.560	291.607	226.457	-26.554	33.414	-53.646	267.116	234.992	8.9471e-05	0.00031632	7.9519e-05	1229.8	2.239e-06	2.7724e-06	1290.4	250.65	1.2385e-06	3.0408e-06	314.8	86.703	68.938	19.315	2.3893e-06	27.311	0.00023811	0.00027258	7.7385e-05	1201.9	3.0283e-06	3.1747e-06	1269.2	247.65	3.0774e-06	3.0361e-06	310.21	86.85	68.599	19.498	3.1711e-06	27.412	111.243	10.685	34.767	-46.578	110.766	113.601	-46.624	-39.536	112.784	98.722	-39.816	-33.349	-33.183	-26.155	86.366	-26.466	-8191	255	
25478.082	1	1	0	0	0.31434	0.1493	0.090819	0.14445	0.066028	0.075235	0.2226	0.14312	0.35367	0.19053	0.11232	0.097763	0.22653	0.22928	0.22369	0.080857	-2.6479	-3.0729	-3.2583	-3.1042	-3.2313	-3.1625	-3.2062	-3.6854	-3.0687	-3.2917	-3.4458	-3.1229	-3.4646	-3.1771	-3.125	-3.35	-52.154	255.824	251.885	161.192	161.788	194.703	274.043	288.311	282.010	-24.933	20.060	-7.743	269.076	270.137	67.624	243.403	0.00011101	0.00027216	7.0477e-05	1233	1.5261e-06	4.083e-06	1289.6	250.25	1.8539e-06	2.7383e-06	312.72	86.944	68.722	19.358	3.3507e-06	27.33	0.00023584	0.00026148	7.3758e-05	1201.9	3.169e-06	2.9673e-06	1265.9	247.23	3.0949e-06	3.1797e-06	308.64	86.874	68.636	19.5	3.0472e-06	27.462	126.103	46.578	57.430	-46.686	104.662	104.729	-46.585	-39.352	120.234	92.794	-39.431	-33.238	-32.956	-26.062	87.534	-26.551	-8191	255	
25478.154	1	1	0	0	0.13762	0.25541	0.03669	0.1219	0.072996	0.16249	0.26004	0.189	0.12455	0.13912	0.20861	0.26136	0.31597	0.083983	0.15403	0.27884	-2.6521	-3.1437	-3.4021	-3.1229	-3.4083	-3.2583	-3.1146	-3.4833	-3.1229	-3.1146	-3.4917	-3.1312	-3.2854	-3.3542	-2.9625	-3.4104	221.351	254.135	-25.163	151.888	39.983	289.311	177.722	60.637	234.214	226.368	14.226	50.182	300.494	82.145	97.951	29.810	0.00010645	0.00021022	9.8059e-05	1220.4	9.7065e-07	3.6142e-06	1286.3	249.78	2.534e-06	4.214e-06	312.08	86.762	68.488	19.544	2.4297e-06	27.323	0.00023375	0.00028698	6.911e-05	1198.7	2.9796e-06	3.0229e-06	1266.9	247.4	3.0145e-06	2.9017e-06	309.03	86.785	68.646	19.551	2.8533e-06	27.504	112.660	40.353	27.051	-46.706	96.362	105.735	-46.452	-39.800	107.607	82.974	-39.620	-33.440	-33.011	-26.082	91.746	-26.386	-8191	255	
25478.275	1	1	0	0	0.10527	0.11364	0.085969	0.21042	0.081302	0.11838	0.29568	0.25366	0.11715	0.11099	0.13124	0.28715	0.24138	0.15244	0.26139	0.059197	-2.7542	-2.9583	-3.4479	-3.0896	-3.0833	-3.3583	-3.0854	-3.2729	-3.1292	-3.1396	-3.4479	-3.1458	-3.1229	-3.2854	-3.0396	-3.4354	232.737	-24.776	290.037	-37.945	161.674	4.758	231.524	229.158	152.552	218.612	232.194	301.873	74.141	214.605	138.876	184.572	0.00011042	0.00038166	0.00012005	1231	1.8223e-06	3.0263e-06	1288.2	250.11	1.2168e-06	1.5007e-06	313.03	87.108	68.82	19.466	2.1372e-06	27.188	0.00022552	0.00025147	6.7083e-05	1202.3	3.3692e-06	2.8185e-06	1266.7	247.86	3.0012e-06	2.8271e-06	309.44	86.814	68.625	19.539	2.4867e-06	27.461	120.915	36.724	28.921	-46.508	103.933	130.295	-46.508	-39.416	87.139	105.466	-39.573	-33.677	-33.259	-26.206	90.865	-26.985	-8191	255	
25478.371	1	1	0	0	0.18184	0.16601	0.11421	0.25469	0.20096	0.073783	0.12906	0.16029	0.073811	0.22659	0.13403	0.155	0.070609	0.19408	0.11291	0.10422	-2.8604	-3.0292	-3.2	-3.4229	-3.0625	-3.2333	-3.1354	-3.45	-3.1354	-2.9125	-3.4979	-3.0958	-3.1792	-3.4458	-3.0167	-3.25	14.656	181.988	263.884	-32.987	-45.363	143.833	241.488	217.977	80.016	38.380	-38.788	266.267	154.160	259.931	161.903	28.554	9.0977e-05	0.00034754	0.00011312	1224.3	1.5505e-06	2.4315e-06	1292.2	250.83	1.1503e-06	4.0101e-06	312.5	86.132	68.358	19.516	3.1272e-06	27.311	0.00022829	0.00024708	6.8363e-05	1200.7	3.0144e-06	2.5796e-06	1265.1	247.73	3.096e-06	2.8876e-06	308.84	86.7	68.545	19.543	2.3925e-06	27.514	118.692	20.134	13.683	-46.589	78.434	115.413	-46.364	-39.349	111.085	111.423	-39.697	-33.121	-32.990	-26.073	101.142	-25.882	-8191	255	
25478.469	1	1	0	0	0.13711	0.16406	0.14303	0.26726	0.014739	0.16244	0.10242	0.17764	0.028827	0.28721	0.065352	0.056463	0.098459	0.17679	0.10675	0.3349	-2.9104	-3.0542	-3.4625	-3.3937	-3.2479	-3.3833	-3.3167	-3.3875	-3.2292	-3.2021	-3.4062	-3.0771	-3.0687	-3.3333	-3.0062	-3.2229	151.060	-24.567	75.555	198.766	122.246	28.869	241.821	255.509	203.078	215.813	254.753	10.431	300.097	56.994	-6.839	-23.244	8.3885e-05	0.00030125	7.6988e-05	1231.8	1.905e-06	2.5502e-06	1289.6	251.22	1.4194e-06	3.7196e-06	314.64	86.76	68.638	19.499	3.1783e-06	27.462	0.000228	0.00024275	6.0637e-05	1202.9	3.0117e-06	2.7617e-06	1266.5	247.95	2.9912e-06	2.7031e-06	309.61	86.843	68.685	19.547	2.541e-06	27.558	114.655	25.774	45.793	-46.684	111.447	122.783	-46.493	-39.802	93.635	82.699	-39.546	-33.055	-33.146	-26.091	88.383	-26.624	-8191	255	
25478.564	1	1	0	0	0.28806	0.16582	0.10242	0.21753	0.1887	0.18252	0.0714	0.20942	0.064095	0.29634	0.26748	0.056893	0.18728	0.15232	0.18098	0.16965	-2.9	-3.0187	-3.3187	-3.2938	-3.1271	-3.4792	-3.3292	-3.2729	-3.35	-3.1312	-3.5021	-3.3167	-3.0104	-3.3583	-3.1854	-3.1667	39.235	299.326	-3.322	222.297	-49.517	-10.266	262.332	111.560	122.038	112.344	299.165	64.700	295.928	240.197	26.667	28.584	0.00010431	0.00026464	9.914e-05	1227	2.0138e-06	3.561e-06	1287.2	250.18	1.3838e-06	3.751e-06	312.59	86.723	69.12	19.501	3.4031e-06	27.293	0.00022803	0.00025585	6.7053e-05	1200.5	3.0829e-06	2.532e-06	1265.1	247.32	2.7684e-06	2.623e-06	309.07	86.707	68.726	19.591	2.6896e-06	27.491	125.281	30.672	37.117	-46.524	104.825	109.947	-46.386	-39.363	59.812	105.988	-39.966	-33.628	-33.134	-25.971	107.133	-26.296	-8191	255	
25478.686	1	1	0	0	0.13864	0.14691	0.21728	0.2093	0.094773	0.051932	0.21936	0.21941	0.15815	0.15866	0.19145	0.083948	0.14039	0.12609	0.27286	0.34882	-2.9792	-2.9708	-3.3104	-3.3958	-3.0604	-3.3167	-3.3667	-3.15	-3.1458	-3.125	-3.3438	-3.2208	-3.0896	-3.3063	-3.1437	-3.2521	199.173	118.145	128.260	211.670	142.695	299.910	207.136	215.988	251.745	132.286	-54.261	31.112	-13.715	105.162	3.286	287.871	9.8018e-05	0.00021026	0.00010601	1222.5	1.7305e-06	3.6382e-06	1284.4	249.63	1.8101e-06	2.8806e-06	311.25	86.261	68.084	19.351	2.5904e-06	27.02	0.00022361	0.00023517	6.495e-05	1200.7	3.1075e-06	2.2869e-06	1262.7	247.24	2.898e-06	2.2864e-06	308.2	86.582	68.295	19.448	2.5764e-06	27.301	118.427	48.484	23.395	-46.529	109.572	105.922	-46.836	-39.513	89.009	98.984	-39.461	-33.605	-33.173	-26.212	93.321	-26.352	-8191	255	
25478.781	1	1	0	0	0.26578	0.15171	0.12964	0.19135	0.13548	0.20004	0.14904	0.078806	0.11074	0.27875	0.1273	0.15712	0.34186	0.13387	0.15946	0.24496	-3.0667	-2.9813	-3.2646	-3.5354	-3.1292	-3.4354	-3.4792	-3.2667	-3.275	-2.9958	-3.475	-3.4417	-3.1833	-3.4188	-3.2521	-3.0812	-7.552	83.208	-14.193	-48.835	188.748	-0.776	275.335	245.403	71.179	273.518	284.199	273.113	14.121	36.526	50.844	176.295	0.00012259	0.00027297	8.2456e-05	1215.8	1.8708e-06	2.7028e-06	1280.4	248.3	8.0304e-07	3.6332e-06	313	85.816	68.257	19.386	2.3451e-06	27.117	0.00021279	0.00020096	6.4751e-05	1189	2.7249e-06	2.1646e-06	1255.4	245.43	2.6313e-06	2.3151e-06	307.29	86.423	68.216	19.455	2.4525e-06	27.39	113.315	34.531	16.115	-46.314	117.431	120.834	-46.480	-39.744	89.443	114.204	-39.491	-33.469	-32.812	-26.162	85.810	-26.319	-8191	255	
25478.852	1	1	0	0	0.15034	0.16197	0.13389	0.23111	0.19347	0.33844	0.27881	0.1553	0.079261	0.080539	0.1151	0.1292	0.22141	0.089856	0.093698	0.052334	-3.0104	-3.0458	-3.1833	-3.3354	-3.0042	-3.2417	-3.4313	-3.1604	-3.3521	-3.0938	-3.2938	-3.4708	-2.975	-3.3167	-3.2208	-3.0396	0.471	-0.621	264.608	245.260	169.455	93.756	261.205	221.764	236.508	41.027	47.207	244.749	207.903	-50.963	202.897	47.697	8.6519e-05	0.00037727	7.2665e-05	1218.2	1.2035e-06	1.8913e-06	1280.6	248.11	1.8278e-06	3.4176e-06	308.76	86.093	67.909	19.462	2.0662e-06	27.145	0.00021297	0.00022169	6.5483e-05	1190.1	2.7457e-06	2.3036e-06	1256	245.79	2.5509e-06	2.5338e-06	306.3	86.372	68.097	19.439	2.439e-06	27.314	125.140	51.467	49.095	-46.624	96.152	106.784	-46.576	-39.736	91.996	75.251	-39.638	-33.433	-32.960	-26.174	52.299	-26.308	-8191	255	
25478.973	1	1	0	0	0.17577	0.15697	0.23341	0.18544	0.012362	0.052273	0.087977	0.36739	0.25554	0.078001	0.2641	0.12395	0.24909	0.1755	0.18129	0.16529	-3.0229	-3.2292	-3.2042	-3.3563	-3.1083	-3.2417	-3.3104	-3.1646	-3.4104	-3.1458	-3.3479	-3.5271	-3.0917	-3.3667	-3.1604	-2.9667	47.754	262.251	-52.229	251.836	299.412	111.872	142.056	225.183	212.567	-36.467	-14.633	268.301	252.219	110.874	38.936	213.792	9.6888e-05	0.000357	5.6328e-05	1209.7	1.4328e-06	2.7492e-06	1272.2	247.67	1.743e-06	3.759e-06	307.94	85.945	67.952	19.36	2.5962e-06	27.24	0.00020902	0.0002067	6.4096e-05	1183.9	2.5215e-06	2.3869e-06	1249.9	244.75	2.4106e-06	2.2405e-06	305.61	86.147	67.902	19.398	2.3269e-06	27.421	110.629	29.576	27.133	-46.576	103.588	91.473	-46.435	-39.818	55.847	107.451	-39.386	-33.324	-32.885	-26.369	128.092	-26.195	-8191	255	
25479.068	1	1	0	0	0.085735	0.088144	0.064337	0.073107	0.19968	0.12694	0.11614	0.23089	0.12112	0.47472	0.04429	0.29484	0.14717	0.29968	0.15132	0.14198	-2.8771	-3.1375	-3.1979	-3.5396	-3.0333	-3.3542	-3.5583	-3.2104	-3.3	-3.2458	-3.1542	-3.3375	-3.0583	-3.1833	-3.3917	-3.1521	-48.763	255.678	55.989	-32.525	282.949	221.743	282.815	-16.252	181.929	136.995	28.591	259.316	258.806	72.626	260.443	-42.003	0.00010375	0.00030381	8.7642e-05	1206.2	1.9483e-06	3.3912e-06	1271	247.74	1.385e-06	3.4974e-06	309.21	85.929	68.162	19.237	2.5729e-06	27.312	0.00020439	0.00021493	6.5346e-05	1181.5	2.7185e-06	2.3783e-06	1247.3	245.35	2.4985e-06	2.408e-06	305.93	86.07	67.991	19.368	2.5186e-06	27.4	112.278	46.960	40.291	-46.454	110.788	92.687	-46.314	-39.317	113.852	85.679	-39.637	-33.300	-33.027	-26.316	88.112	-26.154	-8191	255	
25479.164	1	1	0	0	0.1455	0.32078	0.15453	0.093037	0.092383	0.29003	0.18049	0.069741	0.07822	0.2219	0.13412	0.34525	0.15145	0.08672	0.11548	0.24971	-2.8167	-3.0917	-3.0333	-3.4896	-3.2292	-3.1167	-3.3521	-3.3208	-3.4688	-3.2625	-3.0438	-3.5042	-3.1479	-3.05	-3.3979	-3.0438	-50.784	151.653	51.349	-43.995	138.066	99.622	271.957	26.612	234.634	152.176	288.885	-30.951	-20.261	226.693	264.299	-48.227	9.542e-05	0.00022198	8.3392e-05	1213.2	1.561e-06	1.0759e-06	1275.8	248.12	1.0896e-06	2.4548e-06	309.02	85.35	68.467	19.335	3.1839e-06	27.245	0.00020958	0.00021552	6.6184e-05	1186.3	2.5836e-06	2.4721e-06	1252.1	245.36	2.5715e-06	2.3957e-06	305.94	86.045	68.138	19.465	2.379e-06	27.376	114.109	38.635	37.996	-46.650	107.555	83.366	-46.394	-39.432	101.223	98.560	-39.632	-33.022	-33.031	-26.179	101.177	-25.959	-8191	255	
25479.260	1	1	0	0	0.25573	0.091086	0.15838	0.11919	0.075476	0.14695	0.15279	0.32825	0.20526	0.090276	0.052892	0.089426	0.12975	0.18297	0.027922	0.070287	-2.9271	-3.1937	-3.1312	-3.575	-3.25	-3.2625	-3.6167	-3.1688	-3.1396	-3.1708	-3.125	-3.2104	-3.2833	-3.1604	-3.2875	-3.2271	232.955	210.037	70.258	275.267	211.611	268.020	263.265	246.973	14.885	139.893	278.146	96.074	160.844	223.219	273.066	150.642	0.00010987	0.00038832	0.00011324	1216.9	1.2902e-06	3.0352e-06	1279.2	248.58	1.1844e-06	3.0027e-06	309.05	86.269	68.326	19.336	2.7183e-06	26.984	0.00021411	0.00022732	6.2222e-05	1188.2	2.7907e-06	2.5431e-06	1254	245.32	2.6747e-06	2.5259e-06	306.26	86.158	67.95	19.389	2.1817e-06	27.288	121.544	43.238	49.245	-46.598	128.124	101.215	-46.422	-39.526	119.633	109.141	-39.627	-33.366	-33.086	-25.955	80.979	-26.154	-8191	255	
25479.381	1	1	0	0	0.12101	0.10693	0.19995	0.37998	0.061822	0.15848	0.30528	0.17713	0.20736	0.18717	0.16003	0.042091	0.18413	0.14445	0.021792	0.18355	-2.6979	-3.2708	-3.2917	-3.4542	-3.1271	-2.9771	-3.4792	-3.2875	-3.2062	-3.225	-3.0812	-3.275	-3.1458	-3.175	-3.425	-3.1354	36.483	202.807	290.472	259.815	126.199	176.783	230.236	166.613	69.895	53.974	-19.398	284.137	31.955	162.195	263.985	-33.563	0.00012538	0.00035073	0.00010089	1208.5	7.1223e-07	3.2454e-06	1271.8	246.98	1.8843e-06	3.2785e-06	309.41	85.664	68.277	19.197	1.9749e-06	27.173	0.00021812	0.00022158	6.0576e-05	1183.9	2.7115e-06	2.261e-06	1249.9	244.8	2.6302e-06	2.279e-06	305.79	86.075	68.019	19.359	2.032e-06	27.361	109.769	14.596	36.077	-46.457	135.813	97.086	-46.455	-39.536	96.449	108.642	-39.531	-33.415	-33.189	-25.786	121.462	-26.384	-8191	255	
25479.451	1	1	0	0	0.066505	0.098423	0.31734	0.14612	0.27	0.22455	0.33505	0.26696	0.20258	0.090253	0.16659	0.058143	0.12398	0.18364	0.23921	0.22084	-2.6312	-3.3542	-2.9167	-3.5667	-3.325	-3.0687	-3.3479	-3.2375	-3.0771	-3.3479	-3.0417	-3.2333	-3.2646	-2.9313	-3.4104	-3.1875	175.304	148.738	214.178	269.386	-26.405	151.347	227.737	241.621	-55.413	25.326	71.983	171.323	-56.545	49.416	18.799	166.958	0.00010279	0.00030382	7.0585e-05	1210.9	2.6232e-06	2.2843e-06	1272.5	246.76	1.8067e-06	3.1308e-06	309.38	86.48	67.892	19.275	2.2639e-06	27.031	0.00020468	0.00021254	5.8321e-05	1184.2	2.5328e-06	2.2023e-06	1250	244.63	2.6826e-06	2.1416e-06	305.86	86.27	68.02	19.351	2.2019e-06	27.282	119.437	16.729	34.895	-46.489	87.945	126.737	-46.150	-39.598	85.697	92.797	-39.480	-33.367	-32.861	-25.923	98.257	-26.270	-8191	255	
25479.572	1	1	0	0	0.11636	0.070146	0.098013	0.097099	0.11581	0.039771	0.21213	0.39306	0.30263	0.15152	0.23977	0.18444	0.14802	0.23574	0.14862	0.49325	-2.6896	-3.3458	-3	-3.4167	-3.275	-3.0146	-3.5	-3.3708	-3.075	-3.2021	-3.1417	-3.2292	-3.1417	-2.9625	-3.5146	-3.1792	5.552	252.430	57.364	-32.597	-1.897	74.194	-49.221	278.476	120.486	265.241	301.890	212.563	216.757	-32.425	-36.401	121.024	0.00010457	0.00033913	0.00013052	1209.3	2.4166e-06	2.7053e-06	1272.1	247.7	8.7196e-07	3.5682e-06	308.85	85.625	67.876	19.068	3.3899e-06	27.101	0.00021497	0.00021482	5.9921e-05	1183.1	2.7174e-06	2.2999e-06	1248.8	244.88	2.7488e-06	2.265e-06	305.97	86.196	67.92	19.323	2.4861e-06	27.323	124.408	31.742	39.609	-46.484	90.753	88.271	-46.361	-39.636	68.760	87.028	-40.009	-33.200	-32.928	-26.259	106.252	-26.366	-8191	255	
25479.670	1	1	0	0	0.29269	0.14384	0.03282	0.19328	0.18016	0.3807	0.13453	0.13306	0.17486	0.20961	0.19011	0.37358	0.033758	0.035313	0.23688	0.25276	-2.6813	-3.3917	-3	-3.2354	-3.3146	-3.0104	-3.6396	-3.2417	-3.2042	-3.5312	-3.3604	-3.1896	-3.4271	-3.0792	-3.4688	-3.2833	-8.921	-29.448	292.660	178.152	102.196	-17.455	207.700	232.731	142.619	-24.891	286.107	270.810	67.429	173.923	210.505	86.659	9.2549e-05	0.0002434	6.3774e-05	1208.4	2.5877e-06	3.5821e-06	1267.7	247.67	1.8155e-06	2.2575e-06	309.65	86.121	67.716	19.25	2.6843e-06	27.164	0.00022375	0.00020496	5.7559e-05	1182.9	2.734e-06	2.3406e-06	1246.5	244.84	2.8049e-06	2.1403e-06	306.12	86.04	67.673	19.33	2.6134e-06	27.24	114.351	21.948	49.628	-46.291	93.936	92.535	-46.414	-39.618	85.364	86.574	-39.538	-33.418	-33.246	-25.625	94.619	-26.317	-8191	255	
25479.766	1	1	0	0	0.12581	0.046644	0.07643	0.18524	0.26758	0.20798	0.18803	0.22778	0.25474	0.15129	0.14896	0.14487	0.17013	0.20238	0.014561	0.14703	-2.7229	-3.3042	-3.1896	-3.2062	-3.2125	-2.9729	-3.4229	-3.3458	-3.2292	-3.3771	-3.0917	-3.2	-3.4917	-3.1875	-3.3021	-3.2333	254.036	216.812	245.826	-39.336	75.159	227.898	266.629	213.963	129.230	69.735	179.864	197.621	81.062	264.295	132.523	293.581	8.5348e-05	0.00033669	0.00010899	1207.4	1.8145e-06	3.5143e-06	1268	247.76	1.4865e-06	2.5978e-06	307.59	85.429	67.752	19.33	2.867e-06	27.088	0.00022022	0.00021974	6.1186e-05	1180.1	2.7618e-06	2.3912e-06	1244.5	244.76	2.78e-06	2.1758e-06	305.25	85.739	67.799	19.372	2.6162e-06	27.305	114.823	39.776	42.946	-46.443	104.464	136.133	-46.426	-39.497	141.196	103.865	-39.841	-33.269	-32.887	-25.847	96.549	-26.298	-8191	255	
25479.861	1	1	0	0	0.12756	0.15715	0.13866	0.20702	0.018107	0.14506	0.26772	0.24181	0.21723	0.15189	0.11772	0.11139	0.36834	0.18178	0.25335	0.10102	-2.7333	-3.2167	-3.1375	-3.3083	-3.3542	-3.1604	-3.3833	-3.4	-3.15	-3.3333	-3.2708	-3.2125	-3.3312	-3.0479	-3.275	-3.3646	114.908	203.687	284.618	240.902	-7.779	31.678	215.312	206.617	116.504	172.137	282.307	-54.126	195.974	300.954	65.005	2.305	9.2186e-05	0.00033414	9.2843e-05	1205.7	1.7252e-06	2.6992e-06	1271	247.66	1.9106e-06	3.8633e-06	309	85.638	67.977	19.351	3.4419e-06	27.066	0.00023218	0.00021016	7.0192e-05	1178.9	2.6607e-06	2.4061e-06	1245.5	244.83	2.6318e-06	2.5124e-06	305.46	86.062	67.774	19.328	2.6761e-06	27.318	113.194	30.990	34.691	-46.313	97.310	105.808	-46.340	-39.496	109.429	82.982	-39.606	-33.207	-32.866	-25.650	109.207	-26.368	-8191	255	
25479.982	1	1	0	0	0.045551	0.11495	0.13397	0.30221	0.13686	0.18416	0.38412	0.05163	0.32634	0.12333	0.13453	0.17222	0.18976	0.028796	0.063786	0.13787	-2.6312	-3.3083	-3.2646	-3.1875	-3.2542	-3.2396	-3.3646	-3.5333	-3.0958	-3.2771	-3.4896	-3.1813	-3.4375	-3.1917	-3.1604	-3.4875	137.474	-56.018	15.996	236.317	294.474	33.636	276.857	106.324	179.870	-32.246	-20.063	243.008	195.741	-44.272	-30.646	201.862	8.5008e-05	0.00026197	6.0165e-05	1206	1.987e-06	2.522e-06	1268.4	246.95	2.046e-06	3.5807e-06	308.61	85.996	67.655	19.168	1.7703e-06	27.168	0.00021084	0.00021742	6.7373e-05	1179.5	2.551e-06	2.2252e-06	1243.6	244.6	2.5593e-06	2.455e-06	305.72	85.821	67.669	19.314	2.4878e-06	27.284	117.686	37.554	34.699	-46.560	80.684	112.837	-46.319	-39.501	92.626	105.469	-39.470	-33.645	-32.768	-25.769	118.318	-26.087	-8191	255	
25480.076	1	1	0	0	0.060884	0.13571	0.18535	0.19033	0.26845	0.27913	0.20198	0.16112	0.35349	0.08527	0.19522	0.081948	0.20577	0.11511	0.17675	0.22529	-2.6063	-3.2708	-3.1292	-3.2396	-3.325	-3.1188	-3.225	-3.4	-3.0312	-3.1875	-3.5104	-2.9667	-3.2292	-3.1521	-3.0812	-3.3292	42.816	158.896	82.569	264.509	168.443	138.979	254.622	33.208	-57.006	80.342	-57.019	-49.580	94.861	53.662	80.363	-28.117	9.5947e-05	0.00030378	9.344e-05	1201.2	1.8315e-06	2.63e-06	1263.9	247.65	1.2148e-06	3.5124e-06	307.74	85.886	68.15	19.372	1.694e-06	27.018	0.00021155	0.00022451	6.3746e-05	1176.3	2.7227e-06	2.5382e-06	1238.3	244.63	2.5265e-06	2.3108e-06	305.44	86.035	67.841	19.331	2.4682e-06	27.22	117.873	31.562	25.320	-46.329	99.539	109.276	-46.254	-39.586	107.811	104.502	-39.936	-33.260	-33.061	-25.803	77.087	-26.441	-8191	255	
25480.148	1	1	0	0	0.14284	0.21354	0.1515	0.32362	0.23043	0.21258	0.15291	0.096989	0.096518	0.077013	0.023836	0.10784	0.32065	0.22276	0.19164	0.04509	-2.6813	-3.2896	-3.3021	-3.1708	-3.3583	-3.0625	-3.1021	-3.4896	-3.1167	-3.2792	-3.3958	-3.1583	-3.3229	-3.1	-3.0083	-3.4562	155.348	91.069	-29.150	253.564	286.763	-54.013	278.892	234.145	-40.034	187.766	281.566	122.865	266.695	-40.247	219.698	-43.058	0.0001107	0.00032883	9.9683e-05	1197.3	2.4056e-06	3.0358e-06	1262.7	248.07	1.5803e-06	2.7132e-06	308.21	85.838	67.941	19.31	1.6825e-06	27.007	0.0002025	0.00021893	6.0667e-05	1173.5	2.5932e-06	2.24e-06	1239.5	244.29	2.5503e-06	2.364e-06	304.82	85.698	67.687	19.291	2.3992e-06	27.181	117.975	20.027	35.056	-46.651	120.685	106.431	-46.246	-39.670	92.235	83.459	-39.722	-33.238	-32.720	-26.344	61.653	-26.138	-8191	255	
25480.244	1	1	0	0	0.21841	0.0018557	0.13733	0.16928	0.20223	0.18871	0.025033	0.056861	0.2292	0.11367	0.061984	0.2418	0.097265	0.11877	0.13235	0.19474	-2.6167	-3.1833	-3.4417	-3.2021	-3.2188	-3.2396	-3.2562	-3.3354	-3.15	-3.2021	-3.525	-3.0271	-3.3375	-3.25	-2.9667	-3.3563	159.517	180.000	115.964	258.951	268.450	39.819	190.895	74.408	144.370	44.436	163.118	263.040	17.995	223.195	65.469	154.181	0.00010269	0.00030922	9.359e-05	1196.2	1.567e-06	3.2221e-06	1263.9	246.95	1.2007e-06	3.0526e-06	307.98	85.356	67.492	19.232	2.0885e-06	27.127	0.00021603	0.00023783	6.0378e-05	1173.3	2.7575e-06	2.5351e-06	1239.4	244.34	2.49e-06	2.598e-06	304.54	85.64	67.511	19.282	2.4407e-06	27.257	115.002	26.196	43.644	-46.562	145.032	93.673	-46.666	-39.502	106.925	101.576	-39.731	-33.508	-33.291	-26.222	84.892	-26.412	-8191	255	
25480.340	1	1	0	0	0.14522	0.32438	0.11287	0.35591	0.082711	0.043251	0.39462	0.26361	0.12619	0.15403	0.20225	0.23973	0.22229	0.13005	0.1164	0.2064	-2.5	-3.125	-3.3854	-3.0542	-3.1958	-3.2667	-3.3812	-3.3417	-3.1042	-3.0042	-3.5771	-3.1396	-3.1542	-3.3083	-3.0875	-3.4083	235.106	156.321	-39.134	237.516	139.276	-10.849	220.671	34.680	71.842	242.394	-55.323	224.922	266.874	76.373	164.833	-16.447	0.00010015	0.00035783	0.00011988	1194.1	1.9494e-06	1.8941e-06	1258.7	246.77	1.7506e-06	3.2793e-06	307.81	85.693	67.453	19.071	1.9466e-06	27.165	0.00021005	0.00021612	6.0561e-05	1170.6	2.7051e-06	2.2276e-06	1236.8	243.9	2.671e-06	2.3737e-06	304.7	85.767	67.483	19.259	2.309e-06	27.267	120.718	24.188	31.341	-46.311	109.766	109.486	-46.265	-39.387	97.212	112.070	-39.883	-33.080	-33.411	-26.080	96.925	-26.638	-8191	255	
25480.461	1	1	0	0	0.20342	0.10641	0.17313	0.27724	0.40775	0.17749	0.24364	0.31857	0.17971	0.1453	0.31246	0.089179	0.058492	0.28509	0.18042	0.16701	-2.6521	-2.9417	-3.3146	-3.1875	-3.1833	-3.3187	-3.3375	-3.4104	-3.3312	-3.175	-3.4625	-3.025	-3.3458	-3.3729	-3.0187	-3.2583	284.154	291.040	301.750	265.247	42.091	176.100	258.668	255.369	275.918	-40.728	-54.362	288.276	295.751	290.680	221.666	150.608	0.00011273	0.00026184	0.00010493	1198.2	3.4759e-06	2.9275e-06	1256.5	247.44	1.0885e-06	3.3585e-06	308.09	85.679	67.788	19.222	2.7633e-06	27.31	0.00022166	0.00022397	5.8961e-05	1173.1	2.9609e-06	2.3844e-06	1238.3	244.21	2.6805e-06	2.5546e-06	304.57	85.812	67.757	19.295	2.3897e-06	27.316	110.674	27.162	44.490	-46.536	108.617	121.691	-46.238	-39.302	95.811	105.673	-39.850	-33.469	-33.222	-26.051	97.157	-26.087	-8191	255	
25480.557	1	1	0	0	0.13547	0.095643	0.053176	0.052919	0.12244	0.17992	0.031975	0.26786	0.16432	0.099255	0.21922	0.15739	0.31778	0.27778	0.14749	0.11247	-2.9583	-3.0958	-3.3104	-3.3354	-3.1958	-3.3646	-3.2188	-3.3542	-3.1667	-3.0542	-3.35	-3.1771	-3.2188	-3.3125	-3.2354	-3.3083	64.541	30.887	170.389	219.551	-22.479	58.649	6.997	238.560	72.618	278.737	265.128	218.013	298.323	196.284	55.902	244.133	9.8815e-05	0.00032672	9.5563e-05	1202.4	2.1081e-06	3.5607e-06	1265.8	246.39	7.1747e-07	3.0162e-06	309.26	85.296	67.694	19.259	1.6277e-06	27.242	0.00020846	0.00022565	5.6278e-05	1173.5	2.9202e-06	2.2801e-06	1239.5	244.15	2.7308e-06	2.3542e-06	305.06	85.888	67.648	19.323	2.249e-06	27.284	123.459	30.820	35.215	-46.271	109.949	79.857	-46.239	-39.510	108.795	95.405	-39.873	-33.221	-33.019	-25.796	125.047	-26.625	-8191	255	
25480.652	1	1	0	0	0.2134	0.14583	0.11579	0.22529	0.20621	0.24287	0.32819	0.14213	0.11417	0.21611	0.172	0.15683	0.038127	0.20432	0.086956	0.18368	-2.7542	-3.0458	-3.2604	-3.3375	-3.0667	-3.5917	-3.2833	-3.4021	-3.2042	-2.925	-3.2208	-3.1146	-3.0271	-3.4917	-3.2146	-2.9938	1.206	253.577	56.009	271.270	-55.790	-56.859	274.835	257.281	224.962	11.742	282.797	67.325	238.541	188.565	288.318	129.311	0.00010753	0.00030526	7.5718e-05	1196.1	1.7669e-06	2.3545e-06	1262.2	246.79	1.7862e-06	2.8578e-06	307.58	85.839	67.652	19.221	3.672e-06	26.931	0.00020931	0.00021373	5.3337e-05	1172.4	2.7666e-06	1.8973e-06	1239.4	244.27	2.535e-06	2.0786e-06	304.76	85.758	67.676	19.28	2.2484e-06	27.236	118.845	35.212	56.846	-46.475	84.670	74.261	-46.269	-39.485	56.559	87.429	-39.503	-33.298	-33.249	-26.141	85.197	-26.584	-8191	255	
25480.748	1	1	0	0	0.085523	0.15843	0.16061	0.17815	0.13431	0.16218	0.34457	0.14236	0.14666	0.21672	0.072985	0.22465	0.22656	0.087892	0.14519	0.16172	-2.8333	-3.0312	-3.1854	-3.275	-3.0396	-3.5917	-3.2042	-3.2667	-3.325	-2.9979	-3.4042	-3.3917	-3.1271	-3.3	-2.9479	-3.2792	54.017	115.379	-17.041	260.190	6.365	242.628	275.850	32.404	71.040	30.976	15.797	268.211	-42.536	212.378	130.125	233.970	9.6025e-05	0.00019642	9.8144e-05	1199.3	2.1097e-06	3.596e-06	1256.7	246.88	1.933e-06	3.4525e-06	308.12	85.777	68.316	19.256	1.9174e-06	27.005	0.00020863	0.00019019	5.5471e-05	1173.4	2.7072e-06	2.0992e-06	1237.9	244.4	2.5932e-06	2.0939e-06	304.44	85.872	67.695	19.334	2.4031e-06	27.241	131.722	4.183	17.717	-46.563	82.720	93.396	-46.367	-39.416	80.945	75.810	-40.045	-33.011	-33.280	-25.984	116.265	-25.851	-8191	255	
25480.846	1	1	0	0	0.13187	0.10101	0.042899	0.23558	0.30985	0.10857	0.46352	0.35417	0.089934	0.1465	0.0098734	0.16573	0.27962	0.07328	0.22978	0.046425	-3.0875	-3.0417	-3.3104	-3.4229	-2.9729	-3.5021	-3.3375	-3.0521	-3.3458	-3.0354	-3.2771	-3.2438	-3.0167	-3.4229	-3.1667	-2.9813	179.483	-28.888	211.470	271.219	250.466	93.296	217.853	290.154	291.778	119.911	2.597	82.066	-24.900	187.483	137.810	-43.947	8.6827e-05	0.0002934	7.2033e-05	1201.7	1.983e-06	3.863e-06	1261.3	247.5	2.2981e-06	2.9218e-06	309.81	86.355	67.946	19.293	2.3252e-06	26.984	0.000204	0.00020843	5.5471e-05	1173.9	2.5997e-06	1.9078e-06	1240	244.1	2.4921e-06	2.2992e-06	304.83	86.114	67.816	19.339	2.5338e-06	27.231	126.776	50.605	49.114	-46.632	76.684	99.183	-46.400	-39.481	86.272	97.980	-39.586	-33.158	-32.729	-25.658	119.837	-26.246	-8191	255	
25480.941	1	1	0	0	0.23497	0.13229	0.032177	0.18032	0.17384	0.060268	0.41061	0.075686	0.083204	0.22518	0.17415	0.054002	0.31628	0.23519	0.21447	0.1384	-3.0646	-3.0083	-3.2792	-3.4917	-3.0229	-3.4396	-3.1771	-3.325	-3.4042	-3.1042	-3.2542	-3.45	-3.1208	-3.4333	-3.125	-3.025	222.553	155.408	213.018	-41.010	-23.032	201.519	219.204	12.751	14.562	216.539	299.328	166.049	-34.616	245.965	174.828	21.793	0.0001013	0.00033845	8.3655e-05	1203.9	2.2757e-06	3.6373e-06	1268.2	246.03	8.3991e-07	2.8952e-06	307.32	85.822	67.655	19.252	3.0412e-06	27.03	0.00020406	0.000212	6.5041e-05	1176.1	2.6264e-06	2.2999e-06	1241.4	243.67	2.3863e-06	2.0432e-06	304.57	85.862	67.566	19.305	2.513e-06	27.258	118.775	25.719	22.169	-46.379	111.217	111.356	-46.525	-39.715	92.526	96.036	-39.422	-33.655	-33.154	-26.124	83.249	-25.888	-8191	255	
25481.062	1	1	0	0	0.20182	0.10299	0.15292	0.068351	0.15884	0.073464	0.12013	0.15469	0.028915	0.1867	0.078646	0.10936	0.015244	0.24281	0.18914	0.12211	-3.0646	-2.9938	-3.2542	-3.4792	-3.0667	-3.4271	-3.3625	-3.2146	-3.575	-3.0917	-3.3417	-3.4708	-3.1937	-3.4104	-3.3979	-3.1854	253.678	227.080	56.637	13.677	134.187	94.767	187.606	145.791	-1.112	216.280	258.281	280.442	131.025	-42.219	249.880	195.298	0.00012447	0.00033134	8.2697e-05	1200.9	2.1008e-06	2.974e-06	1255.7	247.16	4.298e-07	3.373e-06	308.46	85.862	67.804	19.365	2.8252e-06	26.985	0.00019566	0.00021032	6.1414e-05	1173.3	2.5627e-06	2.1961e-06	1236.1	243.99	2.1619e-06	2.3737e-06	304.68	85.696	67.68	19.343	2.4844e-06	27.247	118.725	28.449	36.230	-46.741	96.225	98.638	-46.393	-39.670	107.533	80.407	-39.703	-33.203	-32.950	-26.362	87.164	-26.105	-8191	255	
25481.156	1	1	0	0	0.21917	0.22841	0.1206	0.26667	0.30766	0.074475	0.13773	0.093728	0.2145	0.1496	0.06914	0.17584	0.1204	0.058471	0.1947	0.21246	-2.775	-3.1646	-3	-3.4833	-3.0958	-3.2625	-3.6937	-3.1458	-3.2188	-3.1521	-3.1854	-3.3146	-3.0938	-3.3479	-3.3875	-3.0583	148.335	-52.646	107.479	226.750	34.275	-8.615	210.080	13.723	4.766	-50.700	277.166	229.359	161.041	36.374	230.846	291.944	0.00010935	0.00021682	8.8905e-05	1200.6	3.3712e-06	2.6055e-06	1264.6	247.14	1.5486e-06	4.8904e-06	308.58	86.303	67.553	19.155	1.9091e-06	27.028	0.00019658	0.00021525	6.7754e-05	1173.5	2.6007e-06	2.2875e-06	1240.2	244.53	2.3535e-06	2.4556e-06	304.83	85.902	67.571	19.314	2.3235e-06	27.217	123.522	35.322	44.473	-46.538	105.778	63.932	-46.309	-39.303	79.613	90.125	-39.668	-33.300	-32.880	-25.599	70.768	-26.397	-8191	255	
25481.254	1	1	0	0	0.13006	0.11666	0.1966	0.16133	0.1233	0.13651	0.37449	0.22742	0.18748	0.23965	0.17905	0.23704	0.10288	0.3552	0.2013	0.20743	-2.9333	-3.3354	-3.0979	-3.4875	-2.9833	-3.2667	-3.5917	-3.1167	-3.4333	-3.2646	-3.1104	-3.2687	-3.1083	-3.1667	-3.1833	-2.9938	-51.302	188.200	139.778	197.494	-4.974	268.302	225.004	212.171	270.461	65.782	242.930	281.470	280.420	-29.356	138.574	194.683	0.00010495	0.00026859	6.9078e-05	1196.2	1.0448e-06	3.1989e-06	1260.2	246.06	1.9069e-06	1.9736e-06	309.71	85.7	67.942	19.154	2.0467e-06	27.119	0.00020377	0.00020686	5.8381e-05	1171.3	2.3926e-06	2.3369e-06	1236.9	243.69	2.2952e-06	2.3145e-06	304.67	85.781	67.631	19.279	2.2406e-06	27.209	117.685	40.431	41.846	-46.369	68.968	133.749	-46.360	-39.587	116.916	71.542	-39.875	-33.208	-32.908	-25.709	94.936	-26.349	-8191	255	
25481.350	1	1	0	0	0.21337	0.039881	0.13823	0.14568	0.17783	0.14345	0.077187	0.11438	0.19226	0.125	0.075389	0.39736	0.27956	0.15926	0.17997	0.077702	-2.8292	-3.0833	-3.0021	-3.4583	-3.2104	-3.1562	-3.4417	-3.1333	-3.1958	-3.2208	-3.1521	-3.4104	-3.1958	-3.2271	-3.3688	-3.0292	285.386	118.614	210.395	-32.151	56.107	130.668	237.283	235.225	163.504	-21.337	296.863	-10.976	192.897	295.906	29.348	7.011	0.00011449	0.0002396	8.8525e-05	1197.2	1.9154e-06	3.442e-06	1259.4	245.73	1.7302e-06	3.5211e-06	306.79	85.905	67.798	19.208	2.5688e-06	27.036	0.00021326	0.00021493	5.9829e-05	1170.3	2.6387e-06	2.4135e-06	1236.7	243.42	2.5816e-06	2.3218e-06	303.86	85.752	67.647	19.295	2.2215e-06	27.201	108.387	47.879	34.671	-46.326	66.842	110.726	-46.416	-39.738	123.856	133.181	-39.681	-33.228	-33.161	-25.974	92.538	-26.712	-8191	255	
25481.445	1	1	0	0	0.28929	0.14549	0.15092	0.070094	0.2023	0.022967	0.20681	0.14761	0.072868	0.11435	0.25843	0.1424	0.13434	0.10942	0.29325	0.14156	-2.9292	-3.4167	-2.8792	-3.4229	-3.1146	-3.1042	-3.5771	-3.0625	-3.3187	-3.3208	-3.1667	-3.3875	-3.0958	-3.0854	-3.3333	-3.125	298.682	144.193	35.844	-14.811	87.061	174.079	248.762	-51.801	242.368	-53.352	-51.573	286.015	262.661	101.524	189.398	124.760	9.4894e-05	0.00027259	0.00012711	1198.2	2.5888e-06	2.9438e-06	1261.3	246.73	1.0065e-06	2.4492e-06	307.97	85.691	68.015	19.243	2.349e-06	27.209	0.00021064	0.00021758	6.0987e-05	1172.9	2.8624e-06	2.5863e-06	1237.9	243.85	2.6334e-06	2.3621e-06	304.78	85.928	67.719	19.329	2.231e-06	27.26	108.292	41.119	49.536	-46.405	80.557	95.390	-46.260	-39.556	121.992	92.169	-39.563	-33.353	-32.981	-25.903	112.779	-26.433	-8191	255	
25481.541	1	1	0	0	0.25476	0.097458	0.0068699	0.25608	0.22903	0.13817	0.17047	0.16017	0.039308	0.072804	0.30637	0.23016	0.10739	0.17749	0.27575	0.187	-2.6146	-3.2604	-2.9854	-3.3667	-3.0146	-3.2083	-3.4104	-3.3937	-3.225	-3.3708	-3.1125	-3.4375	-3.2771	-3.025	-3.3958	-3.0833	-20.446	121.484	245.798	215.390	2.545	127.463	262.552	240.869	250.625	157.542	-19.095	205.317	269.679	81.656	157.693	-27.890	9.5173e-05	0.00024733	7.3217e-05	1197.6	2.2028e-06	3.2011e-06	1258.9	247.63	1.4285e-06	3.2625e-06	310.67	85.938	67.503	19.098	3.2753e-06	26.96	0.00021479	0.00021325	5.7132e-05	1172.5	2.7714e-06	2.2678e-06	1238.4	244.44	2.6451e-06	2.3359e-06	304.91	85.9	67.634	19.325	2.2002e-06	27.249	124.711	40.671	50.642	-46.360	108.016	87.899	-46.535	-39.747	133.573	103.242	-39.539	-33.319	-33.062	-25.924	99.374	-26.120	-8191	255	
25481.637	1	1	0	0	0.21321	0.21116	0.078087	0.14124	0.14179	0.21506	0.021936	0.40204	0.44908	0.055086	0.13967	0.31379	0.29186	0.047258	0.13823	0.20836	-2.9375	-3.3542	-2.9688	-3.4771	-3.2958	-3.0542	-3.5646	-3.2979	-3.1292	-3.2938	-3.1146	-3.2104	-3.2146	-3.0812	-3.4333	-3.2417	196.355	33.262	161.333	98.710	29.718	113.242	185.202	248.085	249.028	112.085	252.698	273.204	247.215	120.368	240.537	273.078	0.0001065	0.00026813	9.0765e-05	1199.1	1.3877e-06	3.2211e-06	1259.2	245.76	2.306e-06	3.3074e-06	306.91	86.194	67.815	19.27	2.3657e-06	27.052	0.00021565	0.00020951	5.8107e-05	1171.7	2.6933e-06	2.285e-06	1238.8	243.74	2.7091e-06	2.2717e-06	304.21	86.048	67.561	19.297	2.138e-06	27.247	120.547	25.859	19.366	-46.435	90.885	118.233	-46.301	-39.495	80.942	79.920	-39.536	-33.422	-32.770	-26.227	122.144	-26.030	-8191	255	
25481.758	1	1	0	0	0.1759	0.2405	0.051354	0.27835	0.044879	0.058766	0.22455	0.16154	0.21351	0.12492	0.062384	0.20659	0.13687	0.1075	0.16731	0.10762	-2.8521	-3.4625	-3.0812	-3.4354	-3.2271	-3.2313	-3.4938	-3.2333	-3.2979	-3.4625	-3.0229	-3.3542	-3.3875	-3.0875	-3.3604	-3.1771	-53.569	-45.476	-29.007	267.153	147.084	-10.194	224.747	257.737	-37.912	203.234	174.562	-23.840	183.763	283.998	217.180	256.627	0.00010984	0.00038846	0.00010269	1192.1	2.3479e-06	3.0514e-06	1258.1	246.5	8.1409e-07	2.0328e-06	308.19	85.693	67.662	19.392	2.5888e-06	27.173	0.00022237	0.00020139	5.8412e-05	1169.1	2.8233e-06	2.3505e-06	1235.7	243.86	2.7329e-06	2.1788e-06	304.4	85.744	67.683	19.317	2.3852e-06	27.278	118.535	31.743	46.775	-46.325	76.128	117.710	-46.244	-39.414	109.799	101.578	-39.533	-33.228	-33.005	-25.680	97.207	-26.375	-8191	255	
25481.854	1	1	0	0	0.058462	0.30416	0.039917	0.13825	0.092946	0.034854	0.32872	0.16978	0.19174	0.17662	0.2017	0.082161	0.18495	0.19603	0.14302	0.21927	-2.6917	-3.1688	-3.1354	-3.2396	-3.1146	-3.0083	-3.6146	-3.4021	-3.1646	-3.3604	-3.2188	-3.3667	-3.2438	-3.1354	-3.2333	-3.2042	301.220	273.527	122.294	2.506	91.256	177.437	248.347	263.408	232.440	-24.425	142.833	265.578	285.408	-34.351	-37.942	-45.293	9.4594e-05	0.0003356	6.0138e-05	1198.8	5.3639e-07	3.9022e-06	1263.9	246.31	9.308e-07	2.8056e-06	308.99	85.634	68.015	19.287	2.6861e-06	27.231	0.00021942	0.00019722	6.1445e-05	1171.7	2.803e-06	2.3128e-06	1239.2	244.23	2.735e-06	2.3304e-06	304.79	85.707	67.788	19.306	2.6554e-06	27.287	118.045	23.482	40.819	-46.611	138.520	109.884	-46.382	-39.565	72.233	112.214	-39.673	-33.430	-32.956	-26.305	88.290	-26.329	-8191	255	
25481.949	1	1	0	0	0.057818	0.24116	0.11894	0.21934	0.19787	0.17187	0.23978	0.3463	0.059259	0.13624	0.18071	0.27023	0.17368	0.33078	0.19997	0.19997	-2.5542	-3.3042	-2.9542	-3.2938	-3.3896	-3.1396	-3.475	-3.3063	-2.9854	-3.4021	-3.4	-3.2	-3.4292	-3.0771	-3.3708	-3.4188	183.243	82.280	260.172	209.123	55.692	149.914	281.409	243.550	226.345	242.265	230.294	284.974	243.694	277.286	-53.298	179.915	0.00010675	0.00034199	0.00010793	1196.9	1.5275e-06	3.4218e-06	1262.3	247.24	9.8391e-07	3.908e-06	308.59	85.929	67.808	19.289	2.3395e-06	26.984	0.00021444	0.00020632	6.213e-05	1173.9	2.6071e-06	2.453e-06	1239.6	244.32	2.4789e-06	2.221e-06	304.68	85.911	67.792	19.317	2.4844e-06	27.297	112.989	29.571	31.945	-46.559	105.014	102.741	-46.215	-39.686	115.661	93.890	-39.775	-33.500	-32.752	-25.924	95.004	-26.250	-8191	255	
25482.021	1	1	0	0	0.084225	0.024033	0.1879	0.42759	0.13484	0.1091	0.14626	0.1414	0.10051	0.2733	0.087359	0.22311	0.091967	0.13532	0.069976	0.30467	-2.6021	-3.3979	-3.2979	-3.1688	-3.4688	-2.9917	-3.3167	-3.2854	-2.9958	-3.5208	-3.2417	-3.0896	-3.35	-3.1396	-3.2479	-3.2375	107.784	180.482	8.123	266.841	150.505	292.157	235.075	-14.953	127.284	4.280	45.785	229.097	241.286	297.311	279.900	194.126	0.00010053	0.00028026	8.962e-05	1197.6	1.499e-06	2.7496e-06	1264.3	246.45	7.5122e-07	2.8642e-06	309.24	85.831	67.668	19.212	1.4158e-06	27.095	0.00020695	0.00021271	6.6763e-05	1173.7	2.4204e-06	2.4876e-06	1242.3	244	2.5932e-06	2.2821e-06	304.45	85.933	67.652	19.301	2.513e-06	27.29	119.617	50.391	39.816	-46.559	114.099	111.147	-46.256	-39.645	75.155	96.063	-39.845	-33.331	-33.126	-26.097	93.531	-26.223	-8191	255	
25482.141	1	1	0	0	0.11641	0.18644	0.15531	0.1866	0.054187	0.19487	0.029813	0.17686	0.18947	0.036266	0.097824	0.12024	0.090701	0.057734	0.088407	0.38442	-2.6646	-3.2	-3.1958	-3.2333	-3.5083	-3.0708	-3.3875	-3.3417	-2.9313	-3.2646	-3.2833	-3.0646	-3.375	-3.2021	-3.125	-3.2292	137.591	172.643	237.571	223.515	127.565	99.592	-53.756	208.386	34.097	13.110	-51.926	-12.356	231.927	284.090	195.767	208.886	0.00011579	0.00031943	7.5301e-05	1200.8	2.121e-06	2.5911e-06	1263.7	246.72	1.5769e-06	2.3539e-06	308.07	85.798	67.58	19.175	2.6176e-06	27.065	0.0002084	0.00021677	6.0622e-05	1175.1	2.5172e-06	2.4443e-06	1240.1	244.14	2.5323e-06	2.2992e-06	304.66	85.959	67.648	19.269	2.4054e-06	27.148	123.968	41.330	44.184	-46.475	101.334	112.661	-46.215	-39.534	102.427	84.222	-39.946	-33.268	-33.214	-25.853	89.472	-26.317	-8191	255	
25482.236	1	1	0	0	0.24078	0.082455	0.21689	0.29369	0.0833	0.18979	0.23408	0.25613	0.17101	0.43358	0.16219	0.17019	0.16868	0.29806	0.053253	0.21261	-2.525	-3.175	-3.1229	-3.15	-3.4521	-3.1479	-3.3229	-3.4271	-3.0208	-3.2125	-3.2812	-3.0458	-3.4437	-3.0875	-3.2479	-3.4896	193.414	-12.069	34.403	-42.793	221.550	246.565	208.900	277.351	278.383	173.458	177.382	203.756	287.996	31.769	116.484	-26.447	9.7894e-05	0.00028741	8.2753e-05	1197.6	2.506e-06	2.7653e-06	1262.3	247.79	9.2751e-07	3.3592e-06	309.4	85.077	67.921	19.185	1.3005e-06	27.012	0.00021429	0.00020664	5.9509e-05	1172.1	2.4391e-06	2.4771e-06	1239.4	244.26	2.5525e-06	2.3682e-06	305.3	85.488	67.593	19.266	2.4172e-06	27.155	109.270	32.295	47.237	-46.478	85.983	101.415	-46.329	-39.426	68.489	99.614	-39.741	-33.425	-32.928	-26.103	84.261	-26.359	-8191	255	
25482.332	1	1	0	0	0.10113	0.1232	0.22266	0.16051	0.13345	0.25996	0.16112	0.11677	0.11415	0.12707	0.066344	0.067075	0.030866	0.1003	0.14361	0.045001	-2.6333	-3.1604	-3.0563	-3.0917	-3.2042	-3.2604	-3.3083	-3.4229	-3.2583	-3.2062	-3.3083	-2.9938	-3.3354	-3.1979	-3.0812	-3.4104	171.677	-31.886	74.591	222.064	162.545	42.407	281.467	159.716	148.378	248.732	-54.989	30.103	92.835	175.947	181.847	11.251	0.00010332	0.00025473	8.5382e-05	1199.2	1.4127e-06	2.9501e-06	1259	247.25	1.5412e-06	3.1835e-06	306.91	85.768	67.682	19.172	1.8646e-06	26.911	0.0002061	0.00021406	5.8641e-05	1174.7	2.6077e-06	2.3875e-06	1239.3	244.29	2.6318e-06	2.5296e-06	304.05	85.651	67.598	19.201	2.4659e-06	27.158	110.993	11.394	29.001	-46.665	113.225	98.753	-46.245	-39.592	97.452	94.644	-40.129	-33.325	-33.153	-26.162	103.764	-26.643	-8191	255	
25482.453	1	1	0	0	0.11277	0.10711	0.11165	0.41855	0.054805	0.19702	0.15116	0.18561	0.22021	0.2044	0.055785	0.1119	0.10096	0.12705	0.1686	0.25564	-2.4792	-3.2979	-3.2938	-3.1958	-3.2896	-3.1854	-3.2771	-3.4354	-3.1229	-3.2729	-3.1646	-3.0667	-3.2562	-3.3375	-3.0292	-3.3354	236.800	-0.082	150.910	-33.987	67.990	-14.038	256.673	293.870	92.249	282.564	59.995	234.995	139.851	258.147	162.383	197.042	9.2228e-05	0.00028601	8.9479e-05	1200.3	1.2105e-06	3.4713e-06	1265	247.15	1.815e-06	2.053e-06	308.18	85.509	67.707	19.136	1.8336e-06	27.079	0.0002089	0.00022386	5.8976e-05	1173	2.8062e-06	2.666e-06	1240.9	243.92	2.9076e-06	2.6511e-06	304.73	85.833	67.645	19.28	2.4491e-06	27.211	120.271	45.181	19.826	-46.450	113.232	80.121	-46.579	-39.618	84.731	110.701	-39.558	-33.410	-33.009	-26.191	69.824	-26.545	-8191	255	
25482.551	1	1	0	0	0.12064	0.16426	0.0041316	0.083834	0.096197	0.24107	0.36462	0.1794	0.074128	0.19124	0.083076	0.15154	0.1597	0.0511	0.11317	0.25521	-2.5521	-3.1208	-3.2438	-3.1437	-3.3271	-3.2396	-3.1562	-3.4396	-3.3125	-3.2125	-3.4896	-3.1458	-3.2917	-3.2792	-2.9708	-3.2896	106.707	269.881	10.465	204.167	152.150	232.900	235.549	270.023	100.895	-43.635	210.349	-28.199	292.525	55.515	109.895	200.405	9.0844e-05	0.00025426	8.7305e-05	1200.7	2.4063e-06	2.3138e-06	1261.9	247.76	8.3101e-07	2.8257e-06	308.73	85.352	67.813	19.199	1.947e-06	26.905	0.00022437	0.00024438	6.0957e-05	1177	3.1835e-06	2.8333e-06	1242.8	244.58	2.9102e-06	2.4831e-06	305.03	85.679	67.781	19.242	2.4059e-06	27.092	113.862	23.945	52.364	-46.517	116.561	75.416	-46.387	-39.529	100.481	94.375	-39.849	-33.138	-32.593	-26.138	92.433	-26.541	-8191	255	
25482.621	1	1	0	0	0.12968	0.11208	0.35916	0.083149	0.089762	0.05425	0.1621	0.08757	0.15868	0.11406	0.087926	0.066447	0.22791	0.26584	0.15694	0.26897	-2.9396	-3.1292	-3.2812	-3.2146	-3.2792	-3.3063	-3.0167	-3.3229	-3.1854	-3.1917	-3.5625	-3.1708	-3.3042	-3.3417	-3.0833	-3.4104	-41.372	64.509	138.325	-33.608	168.966	99.168	244.513	156.272	230.381	256.536	96.140	270.932	215.972	300.842	227.227	88.202	8.6142e-05	0.00027498	9.4883e-05	1210	2.9402e-06	3.3777e-06	1268.2	246.96	1.0623e-06	2.3229e-06	308.41	85.524	67.145	19.193	2.9825e-06	27.04	0.00021347	0.00021774	5.7178e-05	1181.4	2.8415e-06	2.1931e-06	1245	244.16	2.7451e-06	2.3621e-06	304.65	85.667	67.538	19.227	2.1699e-06	27.171	118.940	50.024	30.603	-46.467	88.885	124.801	-46.541	-39.485	78.512	88.808	-39.579	-33.444	-32.935	-26.189	96.884	-26.677	-8191	255	
25482.742	1	1	0	0	0.29895	0.14777	0.23848	0.25566	0.061059	0.21658	0.2275	0.082806	0.04079	0.26236	0.095927	0.18685	0.29745	0.10022	0.090543	0.14756	-2.8396	-2.9771	-3.2021	-3.2542	-3.1458	-3.3521	-3.2542	-3.3458	-3.3292	-3.1208	-3.45	-3.1542	-3.2562	-3.4125	-3.0167	-3.4271	-41.255	-53.952	33.344	241.882	73.041	215.061	203.736	15.238	170.388	184.274	135.499	-25.407	240.747	75.531	266.212	81.528	0.00010535	0.00040378	0.00011458	1208.5	2.1591e-06	3.5101e-06	1269	248.01	8.0797e-07	1.7086e-06	309.58	86.104	67.681	19.028	1.6954e-06	26.979	0.00021503	0.00021195	5.4526e-05	1179.7	2.6601e-06	2.1066e-06	1246.2	244.61	2.4852e-06	2.1507e-06	305.08	86.006	67.7	19.202	2.5349e-06	27.18	124.790	46.997	27.908	-46.481	92.947	96.798	-46.270	-39.517	80.154	132.646	-39.755	-33.326	-33.105	-25.899	104.693	-26.203	-8191	255	
25482.838	1	1	0	0	0.16802	0.20559	0.2064	0.12461	0.21005	0.046808	0.28698	0.35496	0.080382	0.2119	0.16066	0.10991	0.14906	0.09981	0.1016	0.2697	-2.8708	-2.8979	-3.4333	-3.3375	-2.8542	-3.4188	-3.2979	-3.3688	-3.3438	-3.0229	-3.4188	-3.0896	-3.0771	-3.3438	-2.9333	-3.1479	107.573	285.248	225.830	182.942	51.600	40.459	232.485	278.595	-33.290	291.790	230.847	168.136	103.795	290.572	93.499	-2.179	0.00010814	0.00030299	0.00010146	1204.8	1.5208e-06	2.1981e-06	1268.8	246.73	2.0292e-06	2.763e-06	310.88	85.818	67.753	19.137	1.4576e-06	27.042	0.00021739	0.00021693	6.6885e-05	1180.8	2.872e-06	2.3585e-06	1247.7	244.34	2.6779e-06	2.4183e-06	306.28	86.039	67.689	19.265	2.6436e-06	27.217	122.716	35.292	23.221	-46.500	94.560	105.023	-46.382	-39.723	103.434	108.518	-39.760	-33.207	-33.326	-25.885	117.155	-26.320	-8191	255	
25482.934	1	1	0	0	0.13827	0.18423	0.14619	0.27033	0.19231	0.33861	0.16239	0.15886	0.32661	0.042129	0.20537	0.16937	0.088665	0.076248	0.045359	0.30371	-3.0875	-3.0375	-3.2167	-3.3375	-3.0062	-3.4104	-3.3312	-3.2292	-3.4	-3.0167	-3.2188	-3.2667	-3.2292	-3.3458	-3.1042	-3.3125	-43.802	293.033	-41.661	221.653	73.750	157.824	220.966	270.273	82.997	-15.242	224.717	181.375	-25.572	58.165	-51.618	211.805	0.00011014	0.00016171	0.00011231	1211.1	2.1754e-06	2.7904e-06	1273.6	247.97	1.7099e-06	3.1664e-06	309.06	86.101	67.501	19.178	3.164e-06	26.868	0.00021806	0.00021433	6.8744e-05	1184.5	2.7195e-06	2.2992e-06	1251.5	245.33	2.6927e-06	2.5088e-06	305.73	86.051	67.671	19.304	2.7434e-06	27.136	119.685	36.900	20.422	-46.301	86.876	93.717	-46.485	-39.603	92.217	87.285	-39.935	-33.236	-33.105	-26.125	82.181	-26.006	-8191	255	
25483.053	1	1	0	0	0.292	0.095748	0.04622	0.1025	0.26282	0.068041	0.28161	0.24971	0.23319	0.12556	0.064812	0.23073	0.14326	0.11603	0.11817	0.27368	-3.1396	-3.1271	-3.3333	-3.2833	-3.1125	-3.4542	-3.2542	-3.2938	-3.4458	-3.0146	-3.2104	-3.3021	-3.0146	-3.3063	-3.2479	-3.2313	-35.880	136.539	174.591	182.747	-46.643	99.627	213.131	134.022	127.162	18.971	-35.785	204.663	269.826	69.980	101.798	246.085	0.00011142	0.00038788	7.2922e-05	1210.9	2.3251e-06	2.1992e-06	1271.3	247.84	1.174e-06	2.2752e-06	308.59	86.142	68.084	19.413	1.9223e-06	27.147	0.00021907	0.00021974	6.6839e-05	1185.1	2.8785e-06	2.3511e-06	1250.4	245.12	2.5376e-06	2.5693e-06	305.58	85.936	67.884	19.322	2.6072e-06	27.141	111.450	25.998	28.172	-46.727	69.526	106.414	-46.295	-39.535	89.432	107.532	-39.942	-33.408	-33.063	-26.313	117.002	-25.923	-8191	255	
25483.148	1	1	0	0	0.14386	0.088013	0.132	0.31163	0.078615	0.23352	0.20926	0.21221	0.14518	0.16285	0.29178	0.21918	0.19805	0.1909	0.17164	0.23486	-2.9125	-2.95	-3.2646	-3.5083	-2.9667	-3.3271	-3.3604	-3.1437	-3.2417	-3.0229	-3.2438	-3.3896	-3.1646	-3.4542	-3.1479	-3.1229	144.012	102.614	219.607	223.525	21.855	5.996	190.906	274.630	147.882	235.328	262.036	21.784	191.219	34.427	81.789	4.018	0.00010451	0.00025406	6.9314e-05	1208.4	1.7787e-06	2.395e-06	1274	247.4	1.7745e-06	4.1468e-06	309.66	85.634	67.863	19.265	2.5639e-06	26.671	0.00020554	0.00022186	6.8119e-05	1184.4	2.7383e-06	2.5234e-06	1252.3	245.16	2.5313e-06	2.5748e-06	306.58	85.99	67.886	19.316	2.7159e-06	27.026	122.404	49.924	38.517	-46.648	95.536	117.637	-46.575	-39.510	85.999	91.700	-39.786	-33.260	-33.022	-25.990	88.058	-26.222	-8191	255	
25483.246	1	1	0	0	0.080526	0.32515	0.078802	0.29502	0.05954	0.20143	0.3179	0.34582	0.12229	0.35188	0.14107	0.19715	0.13283	0.060444	0.20672	0.24607	-2.9479	-3.0854	-3.1229	-3.5021	-3.1083	-3.2333	-3.3521	-3.1542	-3.4208	-3.0187	-3.1375	-3.4729	-3.1188	-3.4271	-3.2833	-2.975	124.010	216.231	142.971	255.959	164.689	-37.517	297.264	250.760	248.910	137.632	264.307	0.776	-33.387	35.596	187.713	260.673	0.00010805	0.0003259	0.00010704	1213.2	9.2891e-07	2.8275e-06	1274.7	249.01	1.0079e-06	3.1239e-06	308.89	85.962	67.954	19.199	2.7169e-06	27.091	0.00021865	0.00023387	6.9719e-05	1187.7	2.6772e-06	2.5018e-06	1252.6	245.89	2.6054e-06	2.7911e-06	306.18	86.278	67.802	19.297	2.5164e-06	27.212	111.689	33.013	48.958	-46.606	91.851	87.336	-46.457	-39.669	84.658	95.678	-39.798	-33.368	-32.668	-26.020	73.007	-26.044	-8191	255	
25483.316	1	1	0	0	0.097713	0.18666	0.20433	0.26118	0.16068	0.12183	0.18722	0.25525	0.082319	0.08627	0.062098	0.20413	0.13622	0.27805	0.25536	0.17676	-3.0312	-3.1292	-3.1271	-3.35	-3.1688	-3.25	-3.5042	-3.1021	-3.4042	-3.2333	-3.2854	-3.3937	-3.05	-3.2438	-3.45	-3.0854	-28.323	177.268	134.135	248.909	173.735	-22.878	-37.022	295.308	164.755	66.264	273.865	279.010	260.807	34.913	29.658	221.606	7.7986e-05	0.00032273	0.00010667	1218	1.101e-06	4.1032e-06	1278.4	249.18	1.6107e-06	2.8716e-06	309.41	85.721	68.426	19.079	2.8093e-06	27.095	0.00021055	0.0002349	6.4873e-05	1191.9	2.7816e-06	2.7123e-06	1257.2	245.71	2.7255e-06	2.7257e-06	306.88	86.14	68.12	19.209	2.6391e-06	27.149	111.880	36.748	35.380	-46.836	123.309	122.644	-46.349	-39.569	91.885	73.749	-39.824	-33.378	-33.342	-26.005	80.261	-26.325	-8191	255	
25483.438	1	1	0	0	0.052657	0.24776	0.081436	0.24029	0.15975	0.06354	0.26613	0.29133	0.07347	0.024502	0.31971	0.29199	0.19137	0.36094	0.36902	0.19722	-2.8792	-2.9625	-3.0708	-3.3979	-3.1146	-3.2125	-3.35	-3.1312	-3.2708	-3.2521	-3.1271	-3.3625	-3.0292	-3.4167	-3.3625	-3.0062	108.001	-10.885	-0.941	241.439	226.411	-37.883	253.132	271.441	231.410	106.814	275.238	242.417	-36.646	154.751	106.311	32.799	0.00011174	0.00027102	0.00010524	1215.7	1.4686e-06	2.6244e-06	1280.8	247.62	8.3936e-07	2.8822e-06	311.19	86.333	68.107	19.167	2.4241e-06	26.911	0.00022582	0.00026024	7.2143e-05	1191.8	2.9432e-06	2.8734e-06	1260.7	245.69	2.9668e-06	2.7312e-06	307.32	86.146	67.97	19.266	2.3835e-06	27.114	125.376	31.222	29.347	-46.475	79.261	112.298	-46.595	-39.595	87.646	108.293	-39.827	-33.015	-33.060	-25.935	109.407	-26.441	-8191	255	
25483.533	1	1	0	0	0.19521	0.32511	0.23063	0.086074	0.18069	0.20923	0.33423	0.044504	0.037712	0.19219	0.15281	0.1412	0.21956	0.088503	0.11385	0.30503	-2.8583	-3.1646	-2.9167	-3.6208	-3.0438	-3	-3.5458	-3.05	-3.4354	-3.1625	-3.0583	-3.4	-3.0771	-3.05	-3.1917	-3.0062	192.395	196.224	8.923	-15.160	-4.932	70.736	261.285	274.661	159.727	220.320	-41.823	301.436	235.888	227.035	225.076	221.800	0.00012547	0.00030062	9.5214e-05	1216	2.3412e-06	2.2909e-06	1282.7	249.55	1.1236e-06	2.7688e-06	310.03	86.072	68.392	19.124	2.6139e-06	27.049	0.00023033	0.00024118	6.687e-05	1194	3.0481e-06	2.916e-06	1263	246.22	2.9377e-06	2.7703e-06	307.58	86.207	68.203	19.256	2.5792e-06	27.117	114.744	15.324	37.224	-46.511	86.551	77.992	-46.595	-39.684	96.427	76.242	-39.830	-33.255	-32.968	-25.959	81.819	-26.626	-8191	255	
25483.631	1	1	0	0	0.11628	0.065942	0.13061	0.055026	0.047317	0.12111	0.1744	0.06115	0.14348	0.064641	0.20152	0.056317	0.29954	0.31033	0.215	0.19506	-2.8729	-3.3458	-3.0354	-3.5083	-2.9479	-3.0146	-3.6083	-3.0375	-3.3187	-3.2292	-3.1958	-3.4646	-3.2208	-3.1437	-3.3771	-3.0771	-19.309	289.186	19.145	-45.036	106.989	132.016	173.220	51.756	287.164	175.024	227.585	299.011	249.165	290.646	40.027	243.334	0.00010217	0.0004421	8.5657e-05	1221.2	1.8699e-06	4.1745e-06	1290.2	249.8	1.1499e-06	2.2399e-06	311.21	86.189	68.034	19.217	2.8178e-06	26.971	0.0002326	0.0002499	6.5894e-05	1196.8	3.176e-06	2.729e-06	1264.3	246.55	2.8996e-06	2.5014e-06	306.96	86.452	68.117	19.248	2.3381e-06	27.15	117.192	30.761	10.539	-46.601	56.667	94.231	-46.575	-39.779	133.419	116.961	-39.604	-33.616	-32.954	-25.959	91.632	-26.159	-8191	255	
25483.727	1	1	0	0	0.081565	0.18098	0.15626	0.34405	0.22697	0.14669	0.3938	0.34318	0.20549	0.11794	0.19144	0.1263	0.37156	0.042645	0.16084	0.08838	-2.9208	-3.2479	-2.9813	-3.3063	-3.2021	-3.0521	-3.4	-3.2062	-3.2625	-3.4396	-3.225	-3.1688	-3.2271	-3.0708	-3.3937	-3.1042	113.657	72.497	74.554	-53.529	85.264	170.492	234.042	286.814	22.335	62.079	170.209	-20.882	202.821	192.353	16.563	-54.118	8.5154e-05	0.00019442	0.00011004	1225.7	2.1113e-06	3.2717e-06	1284	248.41	1.3287e-06	2.3091e-06	309.96	86.317	68.524	19.126	3.1096e-06	26.914	0.00023316	0.00022808	6.6595e-05	1198.6	2.9844e-06	2.5252e-06	1262.7	246.33	2.9949e-06	2.312e-06	306.89	86.276	68.296	19.244	2.4093e-06	27.165	108.893	26.660	38.345	-46.521	106.921	99.359	-46.439	-39.561	41.328	73.160	-39.642	-33.774	-33.010	-26.106	68.717	-26.616	-8191	255	
25483.846	1	1	0	0	0.11547	0.10369	0.13359	0.047342	0.14992	0.33851	0.29897	0.25711	0.077571	0.056169	0.20043	0.33122	0.23752	0.27729	0.24088	0.21141	-2.7125	-3.25	-3.0146	-3.3479	-3.2062	-3.1688	-3.5563	-3.1896	-3.1583	-3.5125	-3.0125	-3.1375	-3.2021	-3.1417	-3.3375	-3.0729	300.773	197.244	232.752	261.387	222.487	-16.858	224.522	274.057	13.021	182.882	128.472	-13.356	-39.169	126.574	148.159	193.396	0.0001105	0.00024811	0.00011472	1227.9	2.48e-06	2.6678e-06	1291.5	249.41	1.4819e-06	2.1406e-06	312.59	86.211	69.137	19.288	2.4035e-06	27.247	0.00023528	0.00022489	6.7007e-05	1200.4	3.093e-06	2.4721e-06	1269	247.31	3.1203e-06	2.4232e-06	308.56	86.562	68.67	19.378	2.7513e-06	27.276	124.325	28.072	18.234	-46.698	113.722	93.182	-46.150	-39.521	92.457	112.272	-39.714	-33.382	-32.947	-26.348	101.178	-27.009	-8191	255	
25483.920	1	1	0	0	0.048827	0.22734	0.11028	0.20353	0.11299	0.19976	0.08382	0.056489	0.11315	0.11492	0.1983	0.17221	0.047261	0.13683	0.063358	0.10242	-2.5917	-3.2833	-3.0187	-3.4	-3.2625	-2.9542	-3.7	-3.2333	-3.0979	-3.45	-3.2396	-3.3667	-3.4062	-3.05	-3.1333	-3.0917	190.332	184.381	201.601	-42.804	4.807	232.527	245.842	112.664	169.930	277.771	153.464	1.995	-17.188	269.514	213.069	-4.826	0.00010094	0.00025153	9.2598e-05	1241.5	3.2972e-07	2.7869e-06	1301.9	251.57	6.8778e-07	3.5865e-06	313.71	86.614	68.585	19.476	1.5933e-06	27.054	0.00023039	0.00021725	7.5175e-05	1211.3	3.1471e-06	2.7932e-06	1277.4	248.59	2.8843e-06	2.4746e-06	309.94	86.89	68.654	19.471	2.8494e-06	27.338	126.391	27.580	28.499	-46.552	70.807	79.893	-46.419	-39.613	100.659	108.013	-39.971	-33.482	-33.270	-26.121	85.508	-26.589	-8191	255	
25484.016	1	1	0	0	0.20726	0.35849	0.10358	0.14842	0.11909	0.080198	0.26465	0.21388	0.15495	0.12001	0.10284	0.2515	0.14774	0.22043	0.10995	0.20242	-2.4333	-3.1146	-3.0167	-3.4125	-3.4354	-3.0208	-3.2542	-3.2729	-3.1479	-3.2854	-3.1958	-3.0625	-3.575	-3.0958	-3.2708	-3.4104	-44.798	13.860	-0.054	291.661	105.140	150.550	206.390	173.627	130.750	30.059	125.807	219.442	128.737	36.947	54.557	227.451	9.3231e-05	0.00026239	8.2304e-05	1243.5	2.6542e-06	3.1122e-06	1299.7	251.52	1.2624e-06	3.3045e-06	313.63	87.076	68.697	19.374	3.2132e-06	27.259	0.0002354	0.00025255	7.4505e-05	1214.7	2.917e-06	2.866e-06	1278	249.04	2.9848e-06	2.686e-06	310.5	87.127	68.763	19.509	2.897e-06	27.39	135.874	30.838	38.072	-46.628	120.352	113.765	-46.476	-39.849	110.976	97.001	-39.614	-33.438	-33.192	-25.897	92.536	-26.184	-8191	255	
25484.135	1	1	0	0	0.20396	0.38148	0.23024	0.23096	0.091315	0.16802	0.1797	0.22275	0.13872	0.19696	0.063509	0.21508	0.22945	0.20532	0.24077	0.12813	-2.5729	-3.35	-2.9479	-3.3021	-3.2875	-3.0312	-3.3396	-3.3375	-2.9833	-3.3542	-3.2667	-3.1917	-3.5604	-3.0896	-3.3208	-3.3	-28.033	7.633	253.860	290.033	139.542	-34.483	227.840	169.599	220.512	68.611	298.213	270.320	218.844	287.518	151.991	-42.645	9.2452e-05	0.0003729	9.0757e-05	1241	2.5341e-06	2.8494e-06	1303.6	251.98	1.5641e-06	2.5779e-06	311.64	86.136	69.082	19.319	3.8676e-06	26.917	0.00022971	0.00023902	7.711e-05	1213.4	2.8699e-06	2.6888e-06	1279.2	248.41	2.7779e-06	2.6591e-06	308.88	86.611	68.765	19.377	2.661e-06	27.262	122.792	31.533	30.385	-46.491	101.765	113.538	-46.404	-39.596	92.572	112.426	-39.486	-33.264	-33.020	-25.743	88.176	-26.486	-8191	255	
25484.230	1	1	0	0	0.25628	0.24704	0.18722	0.13861	0.21801	0.26852	0.26712	0.096456	0.20174	0.1848	0.22306	0.01461	0.07648	0.03226	0.17995	0.13285	-2.6646	-3.3479	-3.0271	-3.0979	-3.2354	-3.0083	-3.4062	-3.4562	-3.1896	-3.2833	-3.3688	-3.2062	-3.4125	-3.2542	-3.0708	-3.3146	215.857	62.219	96.686	215.211	-56.093	-37.712	229.554	157.715	105.050	138.283	259.946	156.930	170.908	-57.167	190.293	259.402	0.0001059	0.00023065	6.3992e-05	1232.9	2.3894e-06	2.8125e-06	1292.1	251.09	2.5143e-06	1.4737e-06	313.25	86.063	68.558	19.277	2.1928e-06	27.048	0.0002173	0.00021807	6.4355e-05	1205.6	2.5258e-06	2.3628e-06	1269.7	247.25	2.6731e-06	2.2705e-06	308.52	86.41	68.342	19.277	2.5394e-06	27.226	116.149	17.216	31.519	-46.619	128.634	121.082	-46.502	-39.814	85.736	68.376	-39.839	-33.448	-32.973	-26.317	85.167	-26.576	-8191	255	
25484.326	1	1	0	0	0.24663	0.34273	0.22381	0.21147	0.11619	0.090532	0.22389	0.11352	0.092864	0.039644	0.1009	0.27244	0.22033	0.16105	0.16244	0.16121	-2.6958	-3.1562	-3.1833	-3.2208	-3.3917	-3.0917	-3.2958	-3.6063	-3.0917	-3.2729	-3.3937	-2.9354	-3.3625	-3.025	-3.1604	-3.3375	149.162	-23.909	163.738	213.578	274.029	296.611	214.415	212.932	185.248	248.931	206.194	160.680	271.339	-5.564	172.671	152.346	0.00011822	0.00033472	7.5002e-05	1229.9	2.3631e-06	3.3725e-06	1287.4	250.85	1.4473e-06	2.2609e-06	311.94	86.182	68.514	19.255	2.3917e-06	26.957	0.00020784	0.0002218	6.4721e-05	1200.4	2.5659e-06	2.5048e-06	1267.5	246.94	2.5821e-06	2.4947e-06	307.8	86.525	68.332	19.316	2.5786e-06	27.149	119.856	30.614	25.162	-46.421	103.818	82.824	-46.426	-39.760	123.968	74.552	-39.877	-33.509	-32.985	-26.265	89.613	-26.400	-8191	255	
#DATA ENDS
