BOXY.EXE: ISS Imagent and Oximeter Data Acquisition Program Version 0.80
Ascii Record File

#ACQ INFORMATION
2  Detector Channels 
16  External MUX Channels 
1  Auxiliary Channels 
5000  Waveform (CCF) Frequency (Hz)
1  Waveforms Skipped 
30  Waveforms Averaged 
1  Cycles Averaged 
16  Acquisitions per Waveform 
10.0806  Updata Rate (Hz) 

#FILE INFORMATION
TRUE -- External MUX Channel results are PARSED.
FALSE -- AC DC and Phase are NOT grouped.
TRUE -- Companion Program Settings File CREATED.
FALSE -- AC data not excluded
FALSE -- DC data not excluded
FALSE -- Phase data not excluded
FALSE -- Auxillary Chn. data not excluded
Tab delimiters

#CALIBRATION STATE
TRUE -- Waveform Calibration Values APPLIED.


#AUX CALIBRATION VALUES
Val Type	aux-1	

Term	1.0000e+00	
Factor	0.0000e+00	


#WF CALIBRATION VALUES
A = Detector Channel
Val Type	A-AC1	A-AC2	A-AC3	A-AC4	A-AC5	A-AC6	A-AC7	A-AC8	A-AC9	A-AC10	A-AC11	A-AC12	A-AC13	A-AC14	A-AC15	A-AC16	A-DC1	A-DC2	A-DC3	A-DC4	A-DC5	A-DC6	A-DC7	A-DC8	A-DC9	A-DC10	A-DC11	A-DC12	A-DC13	A-DC14	A-DC15	A-DC16	A-Ph1	A-Ph2	A-Ph3	A-Ph4	A-Ph5	A-Ph6	A-Ph7	A-Ph8	A-Ph9	A-Ph10	A-Ph11	A-Ph12	A-Ph13	A-Ph14	A-Ph15	A-Ph16	

Term	0.00000e+00	0.00000e+00	0.00000e+00	0.00000e+00	0.00000e+00	0.00000e+00	0.00000e+00	0.00000e+00	0.00000e+00	0.00000e+00	0.00000e+00	0.00000e+00	0.00000e+00	0.00000e+00	0.00000e+00	0.00000e+00	0.00000e+00	0.00000e+00	0.00000e+00	0.00000e+00	0.00000e+00	0.00000e+00	0.00000e+00	0.00000e+00	0.00000e+00	0.00000e+00	0.00000e+00	0.00000e+00	0.00000e+00	0.00000e+00	0.00000e+00	0.00000e+00	0.00000e+00	0.00000e+00	0.00000e+00	0.00000e+00	0.00000e+00	0.00000e+00	0.00000e+00	0.00000e+00	0.00000e+00	0.00000e+00	0.00000e+00	0.00000e+00	0.00000e+00	0.00000e+00	0.00000e+00	0.00000e+00	
Factor	1.00000e+00	1.00000e+00	1.00000e+00	1.00000e+00	1.00000e+00	1.00000e+00	1.00000e+00	1.00000e+00	1.00000e+00	1.00000e+00	1.00000e+00	1.00000e+00	1.00000e+00	1.00000e+00	1.00000e+00	1.00000e+00	1.00000e+00	1.00000e+00	1.00000e+00	1.00000e+00	1.00000e+00	1.00000e+00	1.00000e+00	1.00000e+00	1.00000e+00	1.00000e+00	1.00000e+00	1.00000e+00	1.00000e+00	1.00000e+00	1.00000e+00	1.00000e+00	X	X	X	X	X	X	X	X	X	X	X	X	X	X	X	X	

B = Detector Channel
Val Type	B-AC1	B-AC2	B-AC3	B-AC4	B-AC5	B-AC6	B-AC7	B-AC8	B-AC9	B-AC10	B-AC11	B-AC12	B-AC13	B-AC14	B-AC15	B-AC16	B-DC1	B-DC2	B-DC3	B-DC4	B-DC5	B-DC6	B-DC7	B-DC8	B-DC9	B-DC10	B-DC11	B-DC12	B-DC13	B-DC14	B-DC15	B-DC16	B-Ph1	B-Ph2	B-Ph3	B-Ph4	B-Ph5	B-Ph6	B-Ph7	B-Ph8	B-Ph9	B-Ph10	B-Ph11	B-Ph12	B-Ph13	B-Ph14	B-Ph15	B-Ph16	

Term	0.00000e+00	0.00000e+00	0.00000e+00	0.00000e+00	0.00000e+00	0.00000e+00	0.00000e+00	0.00000e+00	0.00000e+00	0.00000e+00	0.00000e+00	0.00000e+00	0.00000e+00	0.00000e+00	0.00000e+00	0.00000e+00	0.00000e+00	0.00000e+00	0.00000e+00	0.00000e+00	0.00000e+00	0.00000e+00	0.00000e+00	0.00000e+00	0.00000e+00	0.00000e+00	0.00000e+00	0.00000e+00	0.00000e+00	0.00000e+00	0.00000e+00	0.00000e+00	-1.62352e+02	-1.41008e+02	-1.11495e+02	-1.83984e+02	-1.11418e+02	-7.45502e+01	-1.55811e+02	-1.62015e+02	-8.09347e+01	-4.80968e+01	-1.73154e+02	-1.73613e+02	-1.86815e+02	-1.78292e+02	-6.95269e+01	-1.50256e+02	
Factor	2.31503e-05	1.21955e-04	3.53977e-05	1.73479e-01	9.55770e-07	1.44040e-06	1.63553e-01	5.56841e-02	9.89360e-07	1.12439e-06	9.67085e-02	2.82450e-02	5.57543e-02	8.47876e-03	1.11573e-06	1.21845e-02	1.04864e-06	1.07952e-06	3.00291e-07	8.44363e-02	1.18273e-08	1.18528e-08	7.57509e-02	2.71375e-02	1.18471e-08	1.18386e-08	4.50717e-02	1.32853e-02	2.55029e-02	4.11310e-03	1.18525e-08	5.73167e-03	X	X	X	X	X	X	X	X	X	X	X	X	X	X	X	X	



#DISTANCE SETTINGS
A = Detector Channel
A-1	A-2	A-3	A-4	A-5	A-6	A-7	A-8	A-9	A-10	A-11	A-12	A-13	A-14	A-15	A-16	

2.5000e+00	3.0000e+00	2.5000e+00	3.0000e+00	2.0000e+00	3.0000e+00	1.5000e+00	3.0000e+00	3.0000e+00	3.0000e+00	3.0000e+00	3.0000e+00	3.0000e+00	3.0000e+00	1.5000e+00	3.0000e+00	

B = Detector Channel
B-1	B-2	B-3	B-4	B-5	B-6	B-7	B-8	B-9	B-10	B-11	B-12	B-13	B-14	B-15	B-16	

1.0000e+01	1.0000e+01	1.0000e+01	1.4400e+00	1.0000e+01	1.0000e+01	1.5100e+00	1.9400e+00	1.0000e+01	1.0000e+01	1.9900e+00	2.4900e+00	2.4100e+00	2.9000e+00	1.0000e+01	2.9800e+00	




#DATA BEGINS
time	group	step	mark	flag	A-AC1	A-AC2	A-AC3	A-AC4	A-AC5	A-AC6	A-AC7	A-AC8	A-AC9	A-AC10	A-AC11	A-AC12	A-AC13	A-AC14	A-AC15	A-AC16	A-DC1	A-DC2	A-DC3	A-DC4	A-DC5	A-DC6	A-DC7	A-DC8	A-DC9	A-DC10	A-DC11	A-DC12	A-DC13	A-DC14	A-DC15	A-DC16	A-Ph1	A-Ph2	A-Ph3	A-Ph4	A-Ph5	A-Ph6	A-Ph7	A-Ph8	A-Ph9	A-Ph10	A-Ph11	A-Ph12	A-Ph13	A-Ph14	A-Ph15	A-Ph16	B-AC1	B-AC2	B-AC3	B-AC4	B-AC5	B-AC6	B-AC7	B-AC8	B-AC9	B-AC10	B-AC11	B-AC12	B-AC13	B-AC14	B-AC15	B-AC16	B-DC1	B-DC2	B-DC3	B-DC4	B-DC5	B-DC6	B-DC7	B-DC8	B-DC9	B-DC10	B-DC11	B-DC12	B-DC13	B-DC14	B-DC15	B-DC16	B-Ph1	B-Ph2	B-Ph3	B-Ph4	B-Ph5	B-Ph6	B-Ph7	B-Ph8	B-Ph9	B-Ph10	B-Ph11	B-Ph12	B-Ph13	B-Ph14	B-Ph15	B-Ph16	aux-1	digaux	

5198.847	1	1	0	256	0.14812	0.086271	0.22165	0.092108	0.19143	0.17412	0.2149	0.32828	0.18943	0.095381	0.29897	0.30727	0.30676	0.25572	0.1586	0.30354	-2.9042	-3.3396	-3.0292	-3.7188	-2.9938	-3.2062	-3.9958	-3.3208	-3.5187	-3.6271	-3.0854	-3.7833	-3.2479	-3.2229	-3.6312	-3.2438	227.909	389.427	399.985	193.284	233.259	215.882	440.495	526.367	487.227	449.196	490.497	465.115	463.626	499.080	376.300	486.355	0.00088605	0.0008804	0.00013634	1477.4	7.6191e-06	6.1603e-06	1457.1	383.4	7.366e-06	6.6813e-06	433.21	144.87	127.67	43.461	6.4909e-06	53.275	0.00054084	0.00055428	0.00014607	1490.9	5.8943e-06	6.0188e-06	1479.3	389.16	5.9591e-06	5.9646e-06	440.53	147.86	129.44	44.528	5.6051e-06	54.614	522.155	260.796	297.675	182.535	191.754	350.463	182.081	186.829	244.076	367.340	186.427	190.249	190.133	195.946	240.524	195.171	-8191	255	
5198.967	1	1	0	0	0.25103	0.082125	0.20238	0.32303	0.2451	0.078831	0.30497	0.39979	0.10297	0.11269	0.1107	0.28181	0.018843	0.099184	0.041838	0.12186	-2.9562	-3.525	-3.0208	-3.7375	-3.3563	-2.9479	-4.0021	-3.3667	-3.4042	-3.4833	-3.2479	-3.7979	-3.3125	-3.2521	-3.6875	-3.2146	487.719	469.229	318.492	509.920	440.564	306.382	472.037	521.360	220.668	472.097	366.349	508.155	378.774	495.288	313.835	460.722	0.00073523	0.00070386	0.0002792	1476.5	4.1932e-06	3.2978e-06	1459.6	384.21	4.8406e-06	1.0998e-05	433.75	145.6	128.26	43.355	3.7733e-06	53.439	0.00055322	0.00054035	0.00014209	1490.9	6.0533e-06	5.8445e-06	1476.8	389.27	6.045e-06	5.8329e-06	439.87	148.2	129.58	44.479	5.413e-06	54.622	524.447	437.174	291.679	182.459	275.658	339.627	182.156	187.019	309.730	346.787	186.619	190.296	190.261	196.536	334.630	195.313	-8191	255	
5199.039	1	1	0	0	0.066479	0.11009	0.21312	0.20472	0.12328	0.27596	0.20725	0.28105	0.22846	0.14502	0.21046	0.11503	0.029772	0.048045	0.12762	0.10859	-2.9229	-3.6688	-3	-3.6583	-3.3396	-3.0646	-3.8229	-3.3292	-3.1688	-3.6104	-3.0604	-3.5125	-3.6188	-3.0625	-3.525	-3.4542	299.919	260.296	278.028	463.849	197.740	429.532	441.517	524.186	171.533	342.755	512.250	501.465	436.649	229.853	445.638	479.793	0.00073596	0.00038538	1.4775e-05	1481.4	3.8951e-06	4.8014e-06	1460.7	382.55	3.7596e-06	3.0911e-06	433.74	145.59	127.34	43.224	2.8554e-06	53.213	0.00055771	0.00052709	0.00013618	1492.8	6.019e-06	5.7738e-06	1475	389.13	6.0339e-06	5.7328e-06	439.22	148.37	129.22	44.32	5.3408e-06	54.744	521.793	304.510	222.460	182.462	252.671	297.942	181.958	186.816	252.321	333.807	186.513	190.531	190.480	195.858	367.347	195.418	-8191	255	
5199.135	1	1	0	0	0.10186	0.1588	0.046427	0.26059	0.18528	0.12632	0.22647	0.30528	0.049801	0.12748	0.21582	0.014029	0.12509	0.040932	0.19426	0.27059	-2.6667	-3.7687	-2.9938	-3.6604	-3.5792	-3.1063	-3.75	-3.5979	-3.0625	-3.7646	-3.2271	-3.3604	-3.4667	-3.0563	-3.5604	-3.4854	526.203	442.262	413.444	476.485	338.369	472.054	479.921	473.948	404.446	331.972	472.615	222.227	246.698	366.924	360.391	184.164	0.00071844	0.00095073	0.00011662	1474.2	4.0458e-06	7.3052e-06	1456.3	383.09	7.4808e-06	9.3887e-07	434.75	146.04	127.55	43.292	2.077e-06	53.298	0.0005499	0.00051515	0.00013441	1491.9	5.9284e-06	5.5969e-06	1473.5	390.3	5.8572e-06	5.58e-06	439.58	148.52	128.73	44.183	5.3512e-06	54.874	526.161	348.368	307.908	182.366	263.384	279.138	181.939	186.885	296.700	246.522	186.320	190.261	190.404	195.933	306.204	195.369	-8191	255	
5199.256	1	1	0	0	0.068735	0.026928	0.2929	0.19577	0.13895	0.21324	0.21094	0.22279	0.28417	0.25673	0.41873	0.096968	0.26767	0.12125	0.37771	0.2736	-2.7687	-3.6813	-3.2062	-3.675	-3.7104	-3.1083	-3.6083	-3.6396	-3.1312	-3.775	-3.2083	-3.4562	-3.7271	-3.0563	-3.4854	-3.625	293.893	398.962	493.395	473.028	386.568	360.518	466.438	415.818	526.827	345.318	421.394	460.114	521.926	464.341	424.102	435.516	0.00072191	0.00080078	0.0001356	1475.7	6.7163e-06	1.2873e-05	1457	383.57	5.1964e-06	6.3963e-06	433.37	145.92	127.51	43.223	4.8462e-06	53.354	0.00052987	0.00049372	0.00013698	1491.6	5.6949e-06	5.3104e-06	1473.6	389.8	5.6408e-06	5.2871e-06	438.86	148.48	128.72	44.14	5.6225e-06	54.751	517.815	264.530	526.438	182.491	256.028	323.177	182.163	186.812	318.400	332.508	186.671	190.561	190.406	195.911	277.781	195.150	-8191	255	
5199.352	1	1	0	0	0.059753	0.1701	0.10899	0.33051	0.26694	0.23581	0.22319	0.16908	0.14056	0.24502	0.13109	0.42176	0.053307	0.18552	0.11268	0.13319	-2.6104	-3.5708	-3.1937	-3.4813	-3.7146	-2.9583	-3.6854	-3.6292	-2.8521	-3.5479	-3.4229	-3.2333	-3.7104	-3.2646	-3.3167	-3.7917	182.971	419.571	437.005	443.378	244.827	207.749	414.658	474.710	358.455	523.332	487.357	477.762	235.034	517.925	410.011	409.458	0.00058009	0.00034542	0.00014684	1473.3	6.5375e-06	5.2876e-06	1453.9	382.38	2.8506e-06	5.9599e-06	432.06	144.96	127	43.184	4.3403e-06	52.808	0.00051887	0.00047832	0.00014304	1489.4	5.6154e-06	5.2352e-06	1474.1	388.52	5.6112e-06	5.2559e-06	438.85	147.81	127.97	44.027	5.9093e-06	54.549	171.376	242.078	449.822	182.557	302.051	272.199	182.173	186.893	257.270	262.139	186.529	190.435	190.391	196.248	278.092	195.390	-8191	255	
5199.448	1	1	0	0	0.10542	0.14593	0.2179	0.24105	0.15866	0.20694	0.22785	0.18222	0.18361	0.0031128	0.14806	0.069541	0.13278	0.34275	0.12257	0.038758	-2.7667	-3.6979	-3.2167	-3.375	-3.6729	-3.0771	-3.6604	-3.7771	-3.1333	-3.6417	-3.6021	-3.0438	-3.6729	-3.2062	-3.3063	-3.625	222.290	498.879	478.238	500.243	440.522	304.263	490.530	458.345	335.338	241.168	435.327	445.126	172.631	477.974	265.009	517.404	0.00078541	0.00048653	0.00018117	1475	3.6e-06	5.0049e-06	1446.8	383.12	5.5184e-06	5.7295e-06	430.86	145.32	126.51	43.021	5.1273e-06	53.157	0.00051385	0.00048973	0.00014966	1490.6	5.5613e-06	5.34e-06	1470.8	387.99	5.4717e-06	5.3737e-06	439.09	147.63	127.59	44.01	5.9633e-06	54.49	519.065	206.202	231.425	182.464	293.469	369.740	181.937	186.891	328.285	285.195	186.397	190.445	190.267	196.014	302.428	195.091	-8191	255	
5199.567	1	1	0	0	0.052752	0.15679	0.11402	0.33129	0.052088	0.11839	0.63975	0.23945	0.091478	0.13654	0.10551	0.1943	0.13453	0.16132	0.1072	0.11829	-2.65	-3.4708	-3.3958	-3.0625	-3.6646	-3.15	-3.5729	-3.7604	-3.2292	-3.4188	-3.6229	-3.0667	-3.7354	-3.1958	-3.2042	-3.6729	395.917	519.842	360.479	485.170	286.699	528.019	437.945	473.721	345.784	452.182	460.699	469.185	200.369	387.890	393.622	509.185	0.00062763	0.00022219	0.00010101	1465.9	3.8811e-06	6.6317e-06	1445.5	381.16	6.6517e-06	1.0879e-06	431.68	143.84	126.91	43.112	2.2207e-06	52.978	0.00049822	0.00050456	0.00015192	1483.3	5.3457e-06	5.6285e-06	1468.8	387.2	5.3522e-06	5.7283e-06	439.06	147.23	127.24	44.072	5.9683e-06	54.37	528.017	528.070	330.068	182.491	312.517	334.096	182.109	186.907	284.705	411.313	186.428	190.126	189.979	196.264	356.841	195.381	-8191	255	
5199.639	1	1	0	0	0.14305	0.32649	0.049608	0.23735	0.15065	0.2176	0.060726	0.22026	0.10726	0.03579	0.13165	0.1197	0.17837	0.20232	0.10098	0.04042	-2.575	-3.3229	-3.5521	-3.1771	-3.6917	-3.2271	-3.3625	-3.65	-3.1729	-3.4	-3.6042	-3.125	-3.525	-3.3771	-3.0417	-3.6708	460.261	316.414	386.988	470.344	458.206	191.321	328.197	488.299	331.751	437.835	497.806	506.594	479.067	478.234	242.403	212.713	0.00072287	0.0011949	0.00020476	1465.1	3.5738e-06	7.287e-06	1444.8	380.55	5.045e-06	5.0785e-06	431.24	144.66	126.66	42.985	3.3633e-06	52.742	0.00049326	0.0005305	0.00015157	1481.6	5.32e-06	5.889e-06	1468.1	386.39	5.3743e-06	5.9755e-06	437.49	146.74	127.18	44.071	5.8649e-06	54.178	169.442	217.197	259.309	182.425	206.133	256.975	182.007	186.796	317.524	338.267	186.628	190.435	190.263	195.996	293.462	195.523	-8191	255	
5199.737	1	1	0	0	0.030496	0.21868	0.26499	0.18362	0.17046	0.03956	0.29406	0.29775	0.083411	0.10096	0.22363	0.10015	0.21452	0.089163	0.076206	0.031518	-2.725	-3.2104	-3.4562	-3.2396	-3.6188	-3.4083	-3.3667	-3.825	-3.1813	-3.2646	-3.7271	-3.1271	-3.5021	-3.3646	-3.0417	-3.7188	445.629	393.765	183.307	525.200	205.963	260.880	456.447	446.240	393.230	478.303	478.541	500.867	325.157	191.699	497.095	513.952	0.00072297	0.00070247	0.00018452	1467.7	2.1236e-06	1.1312e-05	1448.1	379.97	2.1511e-06	4.6718e-06	430.16	144.85	126.49	43.163	5.5792e-06	52.842	0.00050428	0.00055128	0.00014791	1479.2	5.4811e-06	6.0005e-06	1466.6	385.23	5.5443e-06	6.0329e-06	437.2	146.66	127.64	44.116	5.7992e-06	54.035	523.745	254.136	239.607	182.375	218.700	387.665	182.147	186.908	387.827	283.714	186.704	190.427	189.987	196.399	334.751	195.191	-8191	255	
5199.855	1	1	0	0	0.16912	0.29651	0.039774	0.18605	0.094957	0.27723	0.2588	0.28046	0.19881	0.096858	0.27947	0.26098	0.074886	0.095444	0.14419	0.19814	-2.7438	-3.3021	-3.5208	-3.1833	-3.6104	-3.5229	-3.0938	-3.7542	-3.1396	-3.1437	-3.6437	-3.0354	-3.4354	-3.6562	-2.9062	-3.5812	217.264	198.896	181.230	506.216	368.260	196.907	509.481	241.862	342.717	433.978	221.550	440.006	347.844	199.512	330.156	323.241	0.00060225	0.00016805	0.00015936	1462	3.4066e-06	9.697e-06	1443.6	380.23	3.916e-06	4.2769e-06	429.79	144.61	126.23	42.987	7.7137e-06	53.043	0.00052245	0.00054748	0.00014644	1476	5.7658e-06	5.9984e-06	1464.1	385.2	5.7933e-06	5.8701e-06	436.4	146.65	128.01	44.077	5.6339e-06	54.109	521.463	265.523	294.492	182.444	238.359	345.782	182.113	186.758	284.809	366.012	186.407	190.090	190.372	196.130	316.712	195.387	-8191	255	
5199.952	1	1	0	0	0.069929	0.070347	0.13543	0.18934	0.19537	0.039848	0.05515	0.22101	0.067984	0.10642	0.020036	0.18322	0.35105	0.080783	0.17565	0.078484	-2.7979	-3.0646	-3.5354	-3.2917	-3.4333	-3.4229	-3.2583	-3.7438	-3.4188	-3.2271	-3.7354	-3.1813	-3.2438	-3.6979	-3.0917	-3.5687	183.698	275.062	262.291	202.078	261.759	434.315	208.897	469.845	315.422	507.831	199.130	489.569	493.767	467.481	439.009	524.801	0.00073882	0.00016337	0.00019558	1462.8	4.7862e-06	8.8366e-06	1446.2	382.27	2.908e-06	6.3494e-06	433.63	145.01	127.73	43.335	2.0795e-06	53.216	0.00054343	0.00053302	0.00014174	1475.8	5.8802e-06	5.8233e-06	1465.4	386.63	5.9138e-06	5.7312e-06	438.46	147.34	129.24	44.354	5.3665e-06	54.549	518.594	528.196	335.080	182.430	201.217	323.187	181.940	186.977	485.918	344.233	186.374	190.285	190.220	196.185	424.257	195.442	-8191	255	
5200.048	1	1	0	0	0.15299	0.034932	0.25152	0.36048	0.13268	0.028966	0.2216	0.35291	0.040371	0.33205	0.19231	0.056819	0.24763	0.16113	0.25079	0.12914	-2.8708	-2.9813	-3.7958	-3.3063	-3.2667	-3.7167	-3.1521	-3.5312	-3.4521	-3.0292	-3.9188	-3.2417	-3.2979	-3.7625	-2.9458	-3.4646	178.139	447.335	387.496	519.453	283.090	281.780	439.276	489.587	411.244	259.093	396.835	482.539	171.235	430.073	501.143	229.107	0.00073912	0.00017878	0.00011928	1475.8	2.8884e-06	5.15e-06	1453.6	382.09	4.9336e-06	2.7631e-06	434.09	145.02	127.26	43.323	4.6057e-06	53.182	0.00054812	0.00051814	0.00013604	1487.8	5.9202e-06	5.7255e-06	1470.7	388.47	5.9484e-06	5.6951e-06	437.99	147.93	129.23	44.283	5.3239e-06	54.626	519.478	371.736	326.780	182.608	345.151	319.838	182.115	186.772	321.393	346.522	186.769	190.250	190.487	196.037	423.059	195.307	-8191	255	
5200.144	1	1	0	0	0.081665	0.13532	0.098923	0.29819	0.071465	0.32212	0.29158	0.074753	0.27295	0.31693	0.2454	0.16524	0.076073	0.079578	0.11118	0.014708	-3.0396	-2.9208	-3.5583	-3.3417	-3.2687	-3.675	-3.2458	-3.5167	-3.5958	-2.9771	-3.7125	-3.4938	-3.1104	-3.7604	-2.7917	-3.4729	338.522	203.414	490.665	486.492	252.226	472.535	496.021	454.462	234.479	200.310	437.155	431.635	440.525	297.573	353.046	232.156	0.00065299	0.00043418	0.00012037	1469.8	2.4136e-06	1.2384e-06	1452	382.43	8.2764e-06	4.1315e-06	433.24	145.5	126.91	43.196	3.5127e-06	53.162	0.00054589	0.00052067	0.00013367	1485.6	5.8534e-06	5.5668e-06	1469.5	388.12	5.7563e-06	5.492e-06	436.87	148.05	128.5	44.111	5.2188e-06	54.59	519.460	169.332	329.639	182.208	352.173	331.044	182.111	186.581	297.169	372.856	186.423	190.344	190.221	196.140	309.992	195.313	-8191	255	
5200.264	1	1	0	0	0.27388	0.14785	0.1289	0.10338	0.16282	0.27166	0.28781	0.32197	0.19785	0.18255	0.15575	0.20793	0.24511	0.061853	0.10897	0.05579	-3.0229	-2.9125	-3.6104	-3.4729	-3.0979	-3.6292	-3.2562	-3.5417	-3.6937	-3.0187	-3.6042	-3.5333	-3.2208	-3.6	-3.0187	-3.2667	435.756	453.778	399.656	508.941	342.751	322.696	466.879	179.642	371.019	316.724	449.463	465.521	211.140	323.304	374.754	505.980	0.00069338	0.00041686	0.00011643	1470.6	3.7279e-06	6.1003e-06	1450.7	383.58	2.3181e-06	1.025e-06	431.86	146.53	128.41	43.521	7.2696e-06	53.724	0.00052252	0.00048619	0.00013238	1484.4	5.5802e-06	5.2772e-06	1467.5	389.95	5.5308e-06	5.1568e-06	438.92	148.87	128.95	44.453	5.2149e-06	55.131	172.316	269.783	260.142	182.403	280.111	285.454	182.103	186.856	285.607	329.708	186.617	190.372	190.309	195.927	286.549	195.263	-8191	255	
5200.336	1	1	0	0	0.038903	0.14679	0.20746	0.20991	0.27741	0.085275	0.21886	0.13217	0.2448	0.17263	0.10546	0.31203	0.16713	0.23116	0.35499	0.068732	-3.1729	-2.9417	-3.3667	-3.6271	-2.7542	-3.5833	-3.5833	-3.4396	-3.7	-3.0938	-3.6771	-3.5417	-3.1104	-3.7417	-3.3333	-3.2271	425.274	340.086	403.463	510.595	178.943	270.673	479.905	219.891	202.217	472.412	257.269	486.050	332.844	515.182	518.589	266.054	0.00077844	0.00015915	0.0001954	1473	5.5236e-06	3.6032e-06	1457.9	388.32	2.7378e-06	7.7461e-06	437.23	147.97	129.24	43.959	1.7881e-06	54.119	0.00049412	0.00045273	0.00013389	1490.2	5.2778e-06	4.895e-06	1476.4	392.8	5.1959e-06	4.7823e-06	443.11	150.04	129.19	44.703	5.3407e-06	55.247	525.525	282.856	283.621	182.323	296.543	342.264	182.153	186.722	254.282	380.213	186.252	190.291	190.248	196.080	234.245	195.417	-8191	255	
5200.432	1	1	0	0	0.19177	0.16794	0.10688	0.13009	0.3398	0.14864	0.42711	0.23914	0.23256	0.24137	0.22472	0.26101	0.20226	0.30632	0.083061	0.28127	-3.1958	-3.1417	-3.2812	-3.6354	-3.1875	-3.6083	-3.4437	-3.3417	-3.6771	-3.2021	-3.5375	-3.5917	-2.9125	-3.6771	-3.3792	-3.0771	372.700	441.883	486.989	460.874	317.838	282.333	424.559	456.854	347.617	369.366	169.923	463.286	511.562	515.910	271.977	431.144	0.00073333	0.00071569	0.0001476	1485	3.8916e-06	7.5849e-06	1465.2	388.85	7.7958e-06	2.7086e-06	440.15	146.98	129.16	43.879	6.6848e-06	54.029	0.00047669	0.00043892	0.00013713	1496.3	5.123e-06	4.9234e-06	1481.3	393.85	5.1551e-06	4.9872e-06	444.79	149.69	128.86	44.68	5.6413e-06	55.16	524.307	183.522	263.788	182.511	351.339	282.477	181.939	186.730	291.193	344.971	186.727	190.330	190.113	195.946	394.201	195.174	-8191	255	
5200.528	1	1	0	0	0.24566	0.24539	0.071118	0.097762	0.19153	0.24338	0.32907	0.35418	0.31065	0.091797	0.1431	0.12131	0.049091	0.20787	0.18626	0.17688	-3.3125	-3.0708	-3.3646	-3.6625	-3.0125	-3.6604	-3.7104	-3.1875	-3.6562	-3.1021	-3.2958	-3.675	-3.0729	-3.5229	-3.5042	-2.8979	385.743	177.571	445.995	480.703	358.428	322.460	455.460	479.482	245.225	299.110	330.624	390.338	340.360	463.058	218.277	524.986	0.00063793	0.00074137	0.00014121	1483.7	6.2032e-06	4.8958e-06	1472.7	386.38	6.4286e-06	4.7575e-06	437.05	146.81	128.74	43.688	5.1332e-06	53.672	0.00047739	0.00047079	0.00014428	1497.8	5.1786e-06	5.3167e-06	1485.8	393.06	5.2069e-06	5.3744e-06	444.26	149.38	128.79	44.646	5.8415e-06	55.057	525.453	266.507	306.747	182.569	308.222	296.536	182.172	186.775	264.035	300.086	186.436	190.361	190.137	196.183	386.448	195.475	-8191	255	
5200.647	1	1	0	0	0.12133	0.18016	0.087888	0.25492	0.16515	0.27218	0.30526	0.1883	0.21918	0.16824	0.1767	0.24713	0.12201	0.17815	0.11351	0.17305	-3.0812	-3.0208	-2.9313	-3.7438	-3.1458	-3.3833	-3.8	-3.1979	-3.525	-3.3125	-3.4188	-3.7208	-3.0979	-3.5417	-3.3979	-3.2583	240.771	505.801	363.429	510.352	182.726	527.681	496.697	506.959	205.399	419.734	200.878	400.699	205.213	169.822	266.049	386.247	0.00067198	0.00061028	6.8388e-05	1480.2	1.017e-06	9.7019e-06	1457	383.93	2.1222e-06	7.9562e-06	437.18	146.36	128.24	43.4	2.8334e-06	53.684	0.00048135	0.0005155	0.00014929	1495.3	5.1865e-06	5.7271e-06	1481.5	390.73	5.3007e-06	5.7771e-06	443.27	148.57	128.42	44.558	5.8281e-06	54.843	519.832	171.380	344.402	182.373	268.433	287.899	182.011	186.668	305.439	241.882	186.454	190.419	189.930	196.052	272.637	194.850	-8191	255	
5200.743	1	1	0	0	0.16275	0.28434	0.088026	0.23119	0.17036	0.17018	0.10283	0.20994	0.07009	0.28428	0.087551	0.32237	0.09299	0.17782	0.15412	0.15207	-3.1854	-3.2646	-3.0042	-3.85	-3.1917	-3.4896	-3.8021	-2.9188	-3.4771	-3.2938	-3.2188	-3.8208	-3.2687	-3.3542	-3.7167	-3.0187	409.035	233.890	511.558	174.372	381.530	273.975	202.865	437.622	232.364	525.239	251.913	518.163	260.562	514.350	503.228	321.762	0.00074235	0.00061652	4.6573e-05	1478.1	4.1485e-06	3.9063e-06	1457.8	384.44	2.6201e-06	2.907e-06	436.9	146.54	127.63	43.719	5.0956e-07	53.707	0.00049155	0.00053564	0.00014629	1493.1	5.3053e-06	5.8586e-06	1478.2	390.56	5.3327e-06	5.8207e-06	441.47	148.6	128.2	44.696	5.4351e-06	54.698	517.879	219.818	481.528	182.410	214.474	410.399	182.074	186.966	200.917	323.342	186.524	190.248	190.327	196.104	346.804	195.147	-8191	255	
5200.840	1	1	0	0	0.1471	0.12181	0.28632	0.10874	0.086201	0.32563	0.1903	0.41993	0.22024	0.13081	0.25075	0.33488	0.23019	0.13995	0.11133	0.38399	-2.9104	-3.3812	-3.1146	-3.7292	-3.1604	-3.0687	-3.8417	-3.0396	-3.4646	-3.3583	-3.0687	-3.7917	-3.3875	-3.1583	-3.7188	-3.0542	213.387	477.600	211.511	200.986	528.491	316.251	517.123	490.090	463.825	379.312	188.374	192.965	472.667	449.464	214.069	447.088	0.00078462	0.00064955	0.00023983	1479.9	4.4034e-06	1.2679e-06	1459.8	387.28	5.1975e-06	1.3679e-06	436.05	147.09	128.72	43.797	4.5347e-06	53.757	0.00048364	0.00051164	0.00013477	1487.9	5.2754e-06	5.531e-06	1476.4	390.84	5.2906e-06	5.5387e-06	441.04	148.88	129.18	44.706	5.3487e-06	54.715	519.592	264.609	304.422	182.355	247.808	214.620	182.055	186.888	239.594	337.535	186.493	190.470	190.253	195.960	348.768	195.246	-8191	255	
5200.936	1	1	0	0	0.097307	0.068907	0.14222	0.47141	0.20218	0.075446	0.1685	0.35262	0.18736	0.1907	0.40466	0.20589	0.22722	0.17973	0.12889	0.079867	-2.8896	-3.5458	-2.8688	-3.7313	-3.3625	-3.2083	-3.7146	-3.2313	-3.3208	-3.4958	-3.0854	-3.725	-3.3396	-3.3458	-3.7042	-3.1625	299.591	453.953	227.334	494.790	386.682	225.047	470.133	495.792	429.154	325.724	469.298	179.125	363.637	257.742	215.075	487.104	0.0007801	0.00050013	0.00020517	1481.2	2.901e-06	4.3756e-06	1460.6	385.83	3.7263e-06	6.566e-06	438.21	147.06	128.12	43.58	2.5335e-06	53.708	0.0005099	0.00050784	0.00013414	1489.1	5.588e-06	5.6414e-06	1477	390.37	5.6388e-06	5.5908e-06	441.2	148.66	129.62	44.565	5.2614e-06	54.736	515.530	327.789	269.742	182.402	353.838	265.602	181.980	186.744	275.057	303.852	186.426	190.505	190.374	196.113	304.161	195.417	-8191	255	
5201.032	1	1	0	0	0.14545	0.04202	0.24298	0.21089	0.30926	0.10752	0.19135	0.1716	0.15059	0.10973	0.061512	0.21591	0.10981	0.27957	0.16748	0.18176	-2.8708	-3.4313	-2.9104	-3.675	-3.3104	-3.0979	-3.775	-3.2375	-3.2625	-3.6437	-2.9917	-3.6458	-3.4146	-3.0729	-3.4583	-3.3354	356.465	464.427	424.824	514.123	329.586	382.425	413.716	415.347	454.600	313.158	426.740	458.220	347.423	356.120	217.363	478.320	0.00071579	0.00082744	0.00011147	1478.2	6.4532e-06	4.3457e-06	1454.6	385.52	1.7542e-06	4.1542e-06	436.28	147.01	128.51	43.746	3.8152e-06	53.895	0.00052721	0.00050712	0.00013182	1491.2	5.7023e-06	5.4613e-06	1474.8	391.35	5.6937e-06	5.441e-06	440.55	149.13	129.78	44.578	5.0731e-06	54.971	517.560	221.775	324.318	182.562	248.066	394.896	182.081	186.664	311.868	339.436	186.845	190.308	190.414	195.994	281.981	195.466	-8191	255	
5201.128	1	1	0	0	0.072422	0.089575	0.11044	0.20625	0.098807	0.19287	0.064768	0.29123	0.12038	0.10208	0.20401	0.46557	0.11286	0.18201	0.12741	0.13191	-2.8271	-3.4833	-3.0312	-3.5333	-3.3958	-2.9583	-3.7854	-3.2271	-3.1562	-3.7354	-3.1208	-3.3521	-3.6125	-3.1354	-3.6833	-3.3708	272.331	326.408	412.143	434.566	439.020	404.530	441.603	455.251	216.268	222.431	490.415	478.416	505.631	495.576	372.510	453.060	0.00070286	0.00028933	0.00014617	1484.1	2.4439e-06	4.3308e-06	1457.9	387.22	2.018e-06	8.1212e-06	438.14	147.5	128.26	43.894	6.1663e-06	53.795	0.0005209	0.00049306	0.00012724	1494.1	5.624e-06	5.3388e-06	1475.6	392.17	5.555e-06	5.3344e-06	440.6	149.6	129.68	44.657	5.0145e-06	55.23	527.066	454.251	261.385	182.334	378.110	314.308	182.165	187.004	279.886	314.888	186.227	190.453	190.293	196.220	229.555	195.145	-8191	255	
5201.249	1	1	0	0	0.076603	0.25753	0.082994	0.032445	0.078735	0.30237	0.25787	0.15283	0.13696	0.24571	0.23483	0.08734	0.32358	0.072351	0.1073	0.12999	-2.6688	-3.6688	-2.8063	-3.4521	-3.4771	-2.9979	-3.6542	-3.3792	-3.2	-3.6875	-3.1833	-3.3688	-3.5396	-3.1562	-3.5417	-3.6188	510.543	182.226	417.798	319.632	250.315	389.979	461.595	475.512	289.364	260.994	296.873	458.278	488.061	222.055	221.912	397.129	0.00072316	0.00055428	4.3572e-05	1486.9	3.3048e-06	7.1299e-06	1466.6	387.44	2.7412e-06	2.8526e-07	439.42	147.09	128.7	43.651	5.602e-06	53.89	0.00050659	0.00047639	0.00012698	1499.4	5.46e-06	5.1317e-06	1479.1	393.47	5.4113e-06	5.1519e-06	442.11	149.68	129.67	44.511	5.2846e-06	55.235	520.980	235.358	302.127	182.532	282.173	373.306	182.096	186.714	224.475	461.800	186.373	190.482	190.320	196.054	285.382	195.251	-8191	255	
5201.345	1	1	0	0	0.37146	0.2029	0.34811	0.24741	0.15305	0.29352	0.010017	0.13078	0.079954	0.14319	0.12994	0.070945	0.11117	0.28298	0.16653	0.18261	-2.7229	-3.5792	-3.2479	-3.3458	-3.6437	-2.9271	-3.5917	-3.4333	-2.9729	-3.5833	-3.3792	-3.2646	-3.5396	-3.1896	-3.6167	-3.6125	486.432	509.369	245.018	424.787	355.957	509.781	192.009	457.631	523.328	199.387	465.971	377.695	435.418	448.581	521.317	525.106	0.0006938	0.00059606	0.00019928	1480.7	5.642e-06	5.8588e-06	1463	386.77	6.3167e-06	3.6183e-06	438.42	147.25	127.66	43.68	6.3475e-06	53.813	0.0005056	0.00046782	0.00013489	1497.5	5.4503e-06	5.0609e-06	1480	392.07	5.4548e-06	5.0641e-06	442.5	149.6	128.9	44.356	5.4854e-06	55.112	522.679	215.743	249.050	182.344	288.685	343.510	182.054	186.752	267.332	329.212	186.453	190.446	190.411	196.047	290.595	195.153	-8191	255	
5201.441	1	1	0	0	0.20606	0.28463	0.14807	0.35328	0.33912	0.20394	0.31707	0.23446	0.053401	0.0502	0.11223	0.026122	0.22246	0.33	0.15338	0.14434	-2.5375	-3.5667	-3.1792	-3.375	-3.6	-3.1146	-3.3937	-3.5625	-3.1021	-3.5812	-3.3604	-3.25	-3.6813	-3.2708	-3.3187	-3.6125	424.726	193.608	410.888	178.983	422.338	423.229	476.651	187.349	455.410	342.551	523.414	442.231	513.849	513.595	226.176	501.141	0.00076391	0.0004688	0.00010129	1479.5	5.5398e-06	6.4184e-06	1466.8	389.12	6.5793e-06	3.4086e-06	437.06	147.38	128.4	43.743	3.8333e-06	53.632	0.00049854	0.00045513	0.00013962	1494.6	5.3482e-06	4.9872e-06	1481.8	392.51	5.2509e-06	4.9998e-06	443.04	149.61	128.75	44.513	5.6058e-06	54.978	170.314	172.104	248.289	182.420	257.007	315.282	182.214	186.845	348.881	408.506	186.630	190.446	190.067	196.056	350.704	195.029	-8191	255	
5201.537	1	1	0	0	0.10334	0.20517	0.11643	0.15389	0.23582	0.37397	0.19134	0.10022	0.076757	0.1513	0.074133	0.049885	0.096291	0.068744	0.18274	0.099988	-2.4938	-3.5708	-3.5229	-3.3063	-3.6542	-3.1875	-3.4562	-3.8125	-3.0167	-3.4125	-3.5083	-3.175	-3.7271	-3.3333	-3.2625	-3.6583	430.711	390.320	280.608	504.936	192.199	354.840	434.529	208.337	358.732	252.900	481.274	518.351	278.275	382.746	519.094	351.319	0.00068841	0.00038188	0.00027364	1474.9	3.5885e-06	7.0345e-06	1461.5	385.84	1.6662e-06	5.7319e-06	437.44	146.29	128.35	43.692	2.8205e-06	53.449	0.00047949	0.0004647	0.00014246	1489.7	5.1474e-06	5.2006e-06	1479.1	391.53	5.1217e-06	5.2201e-06	442.96	149.04	128	44.52	5.6695e-06	54.876	520.970	228.765	276.670	182.543	232.513	340.130	182.044	186.652	299.463	321.020	186.875	190.224	190.295	196.218	339.682	195.331	-8191	255	
5201.632	1	1	0	0	0.11407	0.19636	0.12002	0.13603	0.28125	0.12855	0.36253	0.22019	0.072796	0.26922	0.18708	0.2277	0.21268	0.18858	0.18988	0.094194	-2.5854	-3.5479	-3.2771	-3.3125	-3.6208	-3.3417	-3.4354	-3.8167	-2.8771	-3.3917	-3.6667	-3.0271	-3.6312	-3.4562	-3.2604	-3.5146	343.055	418.552	390.965	491.410	310.125	468.781	470.036	460.411	281.281	195.768	489.577	484.216	209.786	469.876	499.785	430.516	0.00070047	0.00071971	8.1329e-05	1477.8	3.1369e-06	3.5293e-06	1460.7	386.92	8.0209e-06	8.2006e-07	435.61	146.55	127.81	43.336	4.9539e-06	53.42	0.00047182	0.00049039	0.00014407	1491.6	5.0967e-06	5.5152e-06	1479.9	391.86	5.0664e-06	5.5556e-06	442.56	148.71	127.89	44.427	5.6671e-06	54.756	515.984	221.352	510.852	182.483	242.836	304.210	182.108	186.733	271.887	396.690	186.517	190.462	190.623	196.080	353.687	195.507	-8191	255	
5201.728	1	1	0	0	0.092414	0.19911	0.1213	0.15981	0.16981	0.23399	0.077576	0.20736	0.19767	0.060883	0.046361	0.34199	0.13706	0.19791	0.18889	0.057219	-2.8125	-3.2396	-3.5854	-3.1354	-3.5896	-3.3688	-3.4229	-3.8937	-3.1688	-3.3458	-3.6188	-3.05	-3.5354	-3.3354	-3.0208	-3.8229	394.667	387.881	417.883	179.662	414.702	246.372	174.698	453.038	334.738	460.887	435.629	486.348	186.590	463.310	208.422	408.714	0.00075834	0.00032185	0.00012416	1476.8	4.4564e-06	5.3704e-06	1461.6	386.87	5.2994e-06	5.025e-06	436.15	146.13	128.78	43.445	5.4372e-06	53.666	0.00047521	0.0005184	0.00014257	1489.3	5.1239e-06	5.6771e-06	1477.6	391.38	5.1173e-06	5.6497e-06	442.21	148.79	128.6	44.59	5.4814e-06	54.795	526.077	177.718	290.169	182.533	217.287	287.698	182.213	186.811	282.888	267.360	186.659	190.375	190.344	196.044	363.551	195.373	-8191	255	
5201.824	1	1	0	0	0.18333	0.25674	0.28672	0.3302	0.019322	0.19531	0.32799	0.063591	0.24866	0.10682	0.18467	0.10271	0.035002	0.33024	0.026213	0.22955	-2.6979	-3.1979	-3.6146	-3.0979	-3.7229	-3.5271	-3.3896	-3.725	-3.1312	-3.2771	-3.7833	-3.1271	-3.4646	-3.5563	-3.0854	-3.7438	414.429	380.553	200.149	481.641	439.751	172.349	490.607	305.323	503.339	395.938	521.755	511.732	340.204	424.596	327.792	182.461	0.00079645	0.00061155	0.0002486	1473.9	6.0139e-07	6.6909e-06	1459.1	386.82	9.1577e-06	6.0321e-06	436.24	146.97	128.59	43.649	2.6751e-06	53.613	0.00048559	0.00052208	0.00013842	1486.4	5.2646e-06	5.6157e-06	1475.6	390.56	5.3225e-06	5.5891e-06	441.77	148.78	129.14	44.662	5.3482e-06	54.762	516.061	279.565	281.450	182.607	231.582	310.591	182.174	186.776	297.210	373.359	186.691	190.407	190.129	196.042	328.995	195.040	-8191	255	
5201.944	1	1	0	0	0.16119	0.099072	0.11898	0.2436	0.098328	0.18725	0.15951	0.051839	0.19593	0.15802	0.12591	0.2911	0.25313	0.28302	0.057117	0.3155	-2.6146	-3.1458	-3.5417	-3.175	-3.3271	-3.4354	-3.2271	-3.7354	-3.2125	-3.1521	-3.7812	-3.3063	-3.3292	-3.6667	-3.0396	-3.6312	345.942	186.547	321.010	461.236	527.975	346.821	429.102	397.941	416.894	518.615	202.336	465.969	518.800	521.685	505.291	484.438	0.00067421	0.00070491	0.00025742	1480.7	5.7907e-06	4.9237e-06	1462.1	388.06	6.2025e-06	2.6618e-06	437.44	146.74	128	43.682	4.9749e-06	53.694	0.00050685	0.000505	0.00013501	1488.8	5.4787e-06	5.5768e-06	1478.1	391.48	5.5993e-06	5.5329e-06	441.2	148.64	129.37	44.546	5.2539e-06	54.705	169.689	303.718	297.547	182.346	190.456	330.671	182.124	186.809	262.470	390.241	186.523	190.387	190.004	196.190	356.218	195.209	-8191	255	
5202.041	1	1	0	0	0.33082	0.20304	0.2479	0.21566	0.14832	0.15331	0.24711	0.072043	0.15062	0.047084	0.2044	0.018411	0.10352	0.024326	0.27983	0.16228	-3.0625	-3.0479	-3.5125	-3.175	-3.2958	-3.625	-3.4479	-3.7687	-3.5583	-3.0625	-3.7188	-3.2458	-3.375	-3.8417	-2.8937	-3.6521	330.351	441.547	287.810	499.297	414.163	340.073	457.508	355.701	473.193	253.043	176.707	237.564	429.231	181.003	187.896	524.216	0.00067173	0.00096597	0.00019742	1476.9	4.1964e-06	5.3054e-06	1461	387.72	7.2749e-06	3.9495e-06	437.02	147.24	128.86	43.721	2.2867e-06	53.79	0.00052775	0.00050077	0.00013139	1487.9	5.5819e-06	5.4139e-06	1479	391.97	5.5938e-06	5.3506e-06	440.91	149.19	129.66	44.651	4.9452e-06	54.951	521.073	280.211	284.198	182.649	250.780	365.049	182.113	186.615	317.372	348.734	186.489	190.095	190.499	195.911	367.029	195.325	-8191	255	
5202.137	1	1	0	0	0.15976	0.14876	0.041332	0.18928	0.20296	0.11081	0.20865	0.29015	0.2164	0.14241	0.31588	0.0224	0.15949	0.26303	0.11986	0.20024	-3.0833	-2.9667	-3.5438	-3.3292	-3.0938	-3.8187	-3.4	-3.5563	-3.4708	-2.9479	-3.7458	-3.1646	-3.1708	-3.6375	-3.0208	-3.4646	426.734	271.376	320.982	455.497	307.607	326.576	507.994	471.398	446.049	494.264	504.230	501.441	401.531	470.377	400.386	506.175	0.00074704	0.00021677	0.0001954	1480	6.6818e-06	2.911e-06	1463.4	388.24	3.1729e-06	8.9717e-06	437.71	147.16	128.18	43.666	4.2401e-06	53.487	0.00051819	0.00048789	0.00012518	1491.3	5.5685e-06	5.3027e-06	1476.4	392.08	5.5578e-06	5.321e-06	441.07	149.44	129.41	44.515	5.0148e-06	54.977	520.375	203.908	307.097	182.499	292.742	333.803	181.886	186.660	313.113	354.493	186.704	190.195	190.748	196.093	236.893	195.250	-8191	255	
5202.208	1	1	0	0	0.21999	0.081184	0.1873	0.13026	0.23911	0.10341	0.20844	0.32682	0.0659	0.12157	0.15513	0.14211	0.12015	0.11082	0.13484	0.25525	-3.0854	-2.9646	-3.5708	-3.4667	-3.1042	-3.8	-3.3125	-3.4813	-3.575	-3.0812	-3.6937	-3.4417	-3.0479	-3.7042	-2.9396	-3.4708	527.031	245.283	360.332	468.187	361.512	308.412	493.813	453.359	277.816	292.672	406.470	218.650	260.548	467.305	485.188	458.827	0.00071355	0.00072277	0.00039044	1477.8	4.8766e-06	4.3644e-06	1465.1	386.79	3.7537e-06	5.9821e-06	435.14	146.68	128.3	43.618	5.0765e-06	53.797	0.00051439	0.00048506	0.0001277	1493.2	5.5673e-06	5.2783e-06	1478.2	392.67	5.531e-06	5.1893e-06	440.47	149.52	129.04	44.418	5.1888e-06	55.14	522.847	266.975	301.702	182.424	264.723	340.001	182.208	186.682	360.866	362.921	186.381	190.377	190.251	195.993	275.170	195.109	-8191	255	
5202.329	1	1	0	0	0.24394	0.16642	0.28489	0.13872	0.029964	0.09274	0.31081	0.23098	0.2959	0.25394	0.19307	0.0699	0.16401	0.39654	0.17774	0.35317	-3.1833	-2.7604	-3.6896	-3.4854	-3.0708	-3.5771	-3.475	-3.4813	-3.7646	-2.8979	-3.6354	-3.3958	-3.0187	-3.7625	-3.1562	-3.3271	506.536	218.833	389.826	380.561	440.531	278.025	481.602	491.813	253.533	239.263	424.870	429.279	484.760	504.843	514.100	487.333	0.00077718	0.00074924	3.0313e-05	1478.6	7.1211e-07	9.7421e-06	1463.1	387.54	8.1094e-06	2.9893e-06	438.01	147.52	128.71	43.693	4.1958e-06	53.777	0.00050566	0.00046917	0.00013168	1492.5	5.4118e-06	5.0819e-06	1476.9	392.24	5.4188e-06	4.9944e-06	441.99	149.52	129.04	44.435	5.3803e-06	55.095	524.146	244.876	196.306	182.452	334.993	362.703	182.107	186.808	312.013	272.566	186.623	190.265	190.242	195.972	246.383	195.275	-8191	255	
5202.425	1	1	0	0	0.1233	0.084851	0.25058	0.31166	0.15007	0.05994	0.14394	0.25823	0.072231	0.054697	0.11081	0.11021	0.22011	0.10338	0.16021	0.092616	-3.2104	-3.0375	-3.5021	-3.6542	-2.9313	-3.6125	-3.5375	-3.3792	-3.5917	-2.9021	-3.5042	-3.7604	-3.0479	-3.7521	-3.0854	-3.0354	181.179	336.231	372.819	510.132	455.387	188.462	455.885	506.736	480.409	499.943	413.855	200.115	169.940	193.492	521.124	340.734	0.00075992	0.0008941	0.00019964	1476.5	3.5206e-06	4.9e-06	1461	387.19	4.8274e-06	8.0958e-06	437.08	146.94	127.87	43.749	4.0127e-06	53.741	0.00049363	0.00044923	0.00013699	1492.6	5.277e-06	4.9262e-06	1478.1	392.42	5.2592e-06	4.9192e-06	442.77	149.6	128.79	44.463	5.5864e-06	54.999	523.466	204.578	272.411	182.466	248.651	441.814	182.003	186.775	280.987	320.254	186.430	190.327	190.683	196.061	291.689	194.970	-8191	255	
5202.521	1	1	0	0	0.14313	0.2762	0.094726	0.16963	0.19233	0.1856	0.2506	0.42724	0.019855	0.38636	0.11092	0.22629	0.068781	0.19416	0.15413	0.068608	-3.2375	-2.975	-3.1542	-3.6375	-3.1167	-3.6917	-3.5292	-3.1167	-3.6646	-3.1667	-3.3771	-3.7375	-3.0438	-3.5979	-3.3333	-3.2375	180.828	432.448	210.404	173.438	327.246	419.005	177.007	487.863	251.306	507.069	196.893	480.894	319.546	207.802	322.515	229.481	0.00072603	0.00045126	0.00016547	1484.9	4.7816e-06	8.7644e-06	1466.6	386.95	5.8903e-06	2.8722e-06	435.38	147.22	128.21	43.696	3.6375e-06	53.576	0.00047641	0.00045902	0.00014186	1494	5.0842e-06	5.0856e-06	1482.5	391.96	5.1063e-06	5.1103e-06	443.55	149.57	128.36	44.559	5.6742e-06	54.965	522.237	201.422	243.489	182.489	355.442	279.771	181.955	186.814	292.415	210.605	186.419	190.404	190.353	196.042	273.707	195.444	-8191	255	
5202.618	1	1	0	0	0.16725	0.031663	0.14113	0.11382	0.15558	0.13118	0.30118	0.18905	0.17591	0.1138	0.18341	0.22331	0.094607	0.23043	0.1107	0.19893	-3.1646	-3.0271	-3.3146	-3.8292	-2.9771	-3.4083	-3.7208	-3.0771	-3.6396	-3.2	-3.2729	-3.8104	-3.0021	-3.5896	-3.4667	-3.125	491.042	375.781	500.547	421.036	479.184	298.116	441.791	435.506	386.098	446.782	348.846	520.426	484.778	486.412	460.754	173.377	0.00063825	0.00033268	1.1979e-05	1477.6	5.2931e-06	9.6367e-07	1462.7	387.38	4.172e-06	2.3154e-06	435.7	146.85	128.88	43.792	3.3948e-06	53.515	0.00046946	0.00048638	0.00014203	1492.9	4.9904e-06	5.324e-06	1481.3	391.75	5.0109e-06	5.3668e-06	442.49	149.14	128.31	44.728	5.5284e-06	54.919	522.853	228.080	313.770	182.558	234.044	238.197	181.884	186.882	287.686	511.027	186.511	190.348	190.217	196.180	375.258	195.393	-8191	255	
5202.736	1	1	0	0	0.21979	0.13728	0.047427	0.31652	0.14613	0.12539	0.22339	0.28037	0.14796	0.19553	0.15556	0.27586	0.073947	0.20136	0.19853	0.037986	-3.2854	-3.3271	-3.1458	-3.825	-3.0812	-3.3771	-3.6979	-3.05	-3.5292	-3.6104	-3.0333	-3.7521	-3.0062	-3.2354	-3.5271	-3.0146	292.190	320.915	510.648	523.663	227.265	252.503	493.515	452.086	256.211	483.601	482.676	441.831	291.315	237.858	519.300	221.227	0.00072915	0.00031872	0.00014249	1478	4.8656e-06	5.1269e-06	1461.1	387.39	5.915e-06	5.4737e-06	436.56	146.81	127.76	43.742	2.919e-06	53.714	0.00045391	0.00049904	0.0001376	1492	4.9169e-06	5.4938e-06	1478.5	391.69	4.9983e-06	5.5357e-06	442.13	149.07	128.2	44.62	5.3971e-06	54.834	524.302	491.653	268.137	182.360	268.671	259.124	182.056	187.034	266.017	323.415	186.780	190.136	190.209	196.210	364.151	195.395	-8191	255	
5202.810	1	1	0	0	0.14953	0.047001	0.20475	0.11324	0.27298	0.1589	0.17358	0.26261	0.16337	0.19263	0.071323	0.099684	0.23827	0.16632	0.20033	0.18055	-3.2458	-3.3063	-3.1208	-3.9146	-3.3021	-3.2375	-3.8396	-3.2208	-3.6271	-3.4167	-3.2708	-3.725	-3.2687	-3.3292	-3.4708	-3.1083	334.753	504.883	245.180	455.274	456.836	368.819	447.060	477.075	207.851	494.399	442.109	514.199	472.443	365.902	187.466	203.966	0.00073563	0.00053226	0.00013523	1482.4	8.0238e-07	4.1222e-06	1458.3	387.4	6.2295e-06	8.1493e-06	436.52	146.38	128.37	43.557	7.9752e-06	53.582	0.00046939	0.00050603	0.00013599	1490.1	5.1281e-06	5.5476e-06	1477.3	390.86	5.2623e-06	5.5595e-06	440.99	148.56	128.58	44.559	5.378e-06	54.63	524.386	488.122	268.945	182.536	219.012	276.950	182.137	186.722	294.012	317.153	186.688	190.381	190.093	195.949	354.568	195.345	-8191	255	
5202.929	1	1	0	0	0.1678	0.16332	0.22602	0.27285	0.22726	0.1737	0.044524	0.17588	0.16972	0.20727	0.26471	0.1637	0.16447	0.087909	0.13261	0.34818	-3.1375	-3.4354	-2.9271	-3.7229	-3.1604	-3.1813	-3.95	-3.0687	-3.3854	-3.4813	-3.1562	-3.9292	-3.3771	-3.1562	-3.7833	-3.2583	337.312	225.849	276.100	454.996	297.339	276.195	256.645	442.589	185.478	215.515	317.414	519.338	238.326	525.975	382.874	492.836	0.00076016	0.00021236	0.00023531	1483.3	3.912e-06	4.2282e-06	1456.2	386.75	3.7081e-06	5.2053e-06	437.15	146.57	128.68	43.758	2.4661e-06	53.683	0.00049643	0.00050513	0.00013443	1490.1	5.3822e-06	5.4594e-06	1474.7	390.48	5.3968e-06	5.4352e-06	441.18	148.67	129.17	44.652	5.1116e-06	54.743	523.630	291.825	332.372	182.434	232.037	334.414	182.019	186.708	262.416	281.464	186.649	190.272	189.807	196.171	285.698	195.063	-8191	255	
5203.025	1	1	0	0	0.094877	0.3366	0.31129	0.088548	0.096778	0.055699	0.12703	0.16267	0.10569	0.12752	0.17373	0.090429	0.15617	0.24425	0.15423	0.070329	-3.0812	-3.4104	-2.9813	-3.75	-3.3667	-3.1854	-3.95	-3.1917	-3.4	-3.6333	-3.2958	-3.5938	-3.5854	-3.2125	-3.7333	-3.2708	379.813	428.939	296.352	522.990	339.868	210.279	371.960	524.341	246.375	236.070	512.258	374.187	487.874	513.639	305.925	417.571	0.00077119	0.00050182	8.8963e-05	1482.7	3.23e-06	6.7213e-06	1459.2	387.17	6.1645e-06	4.4496e-06	433.95	147.48	129.2	43.815	5.536e-06	53.993	0.000501	0.00048753	0.00012842	1490	5.4716e-06	5.3318e-06	1475.3	390.3	5.5243e-06	5.3066e-06	439.93	149.17	129.39	44.59	4.9769e-06	54.813	521.623	311.999	241.904	182.596	253.552	366.774	181.986	186.695	289.075	300.019	186.372	190.144	190.052	196.309	353.585	195.045	-8191	255	
5203.121	1	1	0	0	0.1546	0.1575	0.047408	0.3515	0.11984	0.20168	0.19448	0.092505	0.277	0.07157	0.22817	0.27842	0.18323	0.18707	0.35327	0.041112	-2.8187	-3.5542	-2.7521	-3.6188	-3.5146	-3.1104	-3.8521	-3.3167	-3.3438	-3.7146	-3.3896	-3.5729	-3.4062	-3.2167	-3.5687	-3.2396	526.894	219.607	407.517	523.085	352.893	252.412	416.925	457.061	245.106	445.327	431.420	179.199	473.301	467.918	392.968	408.593	0.00072007	0.000271	0.00019597	1482.3	1.3616e-06	2.0714e-06	1459.5	386.01	3.6678e-06	5.7446e-06	435.2	147.03	128.19	43.814	3.9854e-06	53.706	0.00050834	0.0004786	0.00012417	1490.2	5.4597e-06	5.2353e-06	1475.4	390.93	5.4167e-06	5.1662e-06	438.82	149.21	129.06	44.517	4.7951e-06	54.867	522.266	250.111	325.998	182.442	307.805	274.365	182.065	186.770	328.908	309.635	186.679	190.471	190.226	195.960	239.934	195.153	-8191	255	
5203.217	1	1	0	0	0.1006	0.26683	0.21212	0.23176	0.095954	0.20895	0.15119	0.15429	0.35797	0.16161	0.21119	0.3	0.077462	0.10926	0.17406	0.2095	-2.7521	-3.6208	-2.9542	-3.3896	-3.5438	-3.1417	-3.9146	-3.5062	-3.0208	-3.7354	-3.075	-3.4354	-3.5771	-3.275	-3.5667	-3.3438	438.646	448.502	526.082	496.234	223.881	288.669	467.525	450.980	271.309	287.601	209.267	468.831	219.722	515.491	211.574	436.774	0.00068677	0.000552	9.5674e-05	1473.9	4.1211e-06	4.409e-06	1458.3	385.98	9.6087e-06	8.8247e-06	436.32	147.29	128.9	43.578	5.6112e-06	53.685	0.00049096	0.00046126	0.00012073	1488.6	5.2559e-06	4.9483e-06	1471.6	390.38	5.2702e-06	5.0156e-06	438.74	149.13	128.95	44.361	4.9228e-06	54.861	169.762	283.483	428.762	182.476	266.214	291.587	182.244	186.841	296.400	357.842	186.465	190.464	190.359	196.140	297.346	195.201	-8191	255	
5203.338	1	1	0	0	0.16448	0.14285	0.12947	0.14432	0.2016	0.34204	0.40915	0.22439	0.11893	0.24413	0.19387	0.18056	0.15361	0.27801	0.25464	0.20773	-2.6083	-3.4958	-3.0521	-3.35	-3.6542	-3.1437	-3.6667	-3.3187	-3.0938	-3.6958	-3.2562	-3.4771	-3.6813	-3.1021	-3.4938	-3.6208	181.076	493.195	173.504	484.405	180.365	493.807	476.658	503.649	324.563	230.945	520.256	485.619	358.289	514.758	206.664	384.325	0.00072387	0.0006082	0.00025229	1476.4	3.8465e-06	4.485e-06	1460.2	386.13	7.6044e-06	4.6994e-06	436.32	147.28	128.06	43.799	4.2104e-06	53.382	0.00049003	0.00045229	0.0001249	1488.7	5.2983e-06	4.943e-06	1473.8	391.35	5.2582e-06	4.9628e-06	440.68	149.28	128.72	44.336	5.2178e-06	54.858	522.819	268.141	234.460	182.573	254.930	398.914	182.339	186.909	287.932	360.517	186.577	190.573	190.142	195.888	303.098	195.308	-8191	255	
5203.432	1	1	0	0	0.13377	0.1597	0.14256	0.20724	0.15265	0.39058	0.33098	0.20539	0.16253	0.10936	0.14818	0.22952	0.22029	0.11969	0.24525	0.21228	-2.6104	-3.5417	-3.2687	-3.4167	-3.6646	-3.075	-3.5771	-3.5625	-3.0042	-3.6792	-3.3208	-3.5042	-3.7188	-3.2687	-3.4229	-3.5729	411.674	432.607	232.777	481.610	227.124	482.596	471.721	440.642	360.571	328.645	523.838	477.250	470.963	434.379	339.409	289.914	0.00075432	0.00095972	0.00012928	1475.1	3.0935e-06	4.9636e-06	1457.2	385.89	5.1067e-06	1.6766e-06	437.22	146.88	128.22	43.625	6.0692e-06	53.775	0.00048477	0.00044273	0.00013214	1489	5.1239e-06	4.7313e-06	1473	391.05	5.0602e-06	4.7595e-06	441.29	149.28	128.2	44.391	5.2886e-06	54.998	524.217	264.133	514.129	182.564	370.464	276.148	181.991	186.889	260.732	389.701	186.407	190.315	190.109	196.078	249.949	195.468	-8191	255	
5203.506	1	1	0	0	0.1349	0.1688	0.26786	0.13035	0.1848	0.1202	0.18002	0.19432	0.11044	0.1156	0.22922	0.1243	0.17208	0.26366	0.14062	0.10525	-2.5646	-3.425	-3.2729	-3.3708	-3.6333	-3.2062	-3.6479	-3.8021	-2.8792	-3.5396	-3.5625	-3.1958	-3.5563	-3.2167	-3.275	-3.5375	398.694	524.118	316.441	463.898	185.485	428.436	520.050	486.670	348.402	310.871	493.492	470.134	438.765	181.610	278.322	472.876	0.00078883	0.00040433	6.4809e-05	1481.3	5.2537e-06	4.935e-06	1461.4	386.79	5.2944e-06	5.3796e-06	434.82	146.74	128.24	43.632	3.6611e-06	53.795	0.0004665	0.00043749	0.0001355	1489.1	5.0205e-06	4.8153e-06	1475.2	390.16	4.9742e-06	4.9424e-06	441.09	149.09	127.78	44.37	5.3346e-06	54.938	525.390	272.264	236.637	182.573	261.778	310.605	181.986	186.852	337.238	287.802	186.497	190.369	189.898	196.122	294.936	195.347	-8191	255	
5203.624	1	1	0	0	0.16696	0.31826	0.23669	0.11856	0.3484	0.042143	0.23706	0.12611	0.10055	0.060972	0.028246	0.23964	0.17223	0.15261	0.049625	0.1349	-2.5563	-3.4313	-3.3396	-3.1458	-3.6292	-3.1271	-3.6479	-3.6604	-2.9458	-3.375	-3.3646	-3.0542	-3.6292	-3.2458	-3.2333	-3.8875	245.857	194.234	484.194	479.902	197.901	477.024	443.460	501.651	476.476	329.068	249.396	493.357	304.181	495.888	284.910	415.128	0.00071166	0.00033909	8.5628e-05	1473.6	8.6809e-07	2.7553e-06	1450.8	385.71	5.9642e-06	2.7931e-06	435.77	146.74	127.83	43.63	2.4924e-06	53.467	0.00044598	0.00044886	0.00013378	1485.8	4.7273e-06	4.905e-06	1472.7	390.16	4.7055e-06	5.0653e-06	440.38	148.39	127.18	44.403	5.2839e-06	54.6	526.605	305.529	272.056	182.556	277.030	330.011	182.111	186.916	286.403	410.071	186.517	190.304	190.119	196.142	425.027	195.188	-8191	255	
5203.721	1	1	0	0	0.11374	0.0623	0.18751	0.16423	0.2156	0.22742	0.3594	0.1752	0.09925	0.056074	0.44091	0.11152	0.099134	0.17788	0.094113	0.058945	-2.4583	-3.2313	-3.4583	-3.1688	-3.5938	-3.1813	-3.2125	-3.6229	-3.1396	-3.3854	-3.4667	-3.075	-3.6562	-3.6583	-3.3375	-3.7812	386.667	443.812	188.421	260.353	462.056	271.834	482.779	522.282	224.922	336.249	414.556	359.299	404.362	479.113	526.231	508.972	0.00070478	0.00062151	2.9291e-05	1476.4	4.931e-06	1.5804e-06	1450.8	385.45	1.0601e-06	2.8761e-06	432.76	145.2	127.86	43.168	3.5388e-06	52.788	0.00044049	0.0004748	0.0001333	1483.6	4.7475e-06	5.3065e-06	1470.4	388.39	4.7889e-06	5.392e-06	438.44	147.59	126.91	44.156	5.3843e-06	54.097	517.745	209.713	212.391	182.517	222.980	328.510	182.236	186.674	401.882	336.171	186.801	190.333	190.211	196.005	295.069	195.564	-8191	255	
5203.817	1	1	0	0	0.32678	0.098368	0.10911	0.30451	0.1411	0.18466	0.2192	0.24956	0.03113	0.075276	0.17551	0.20696	0.093513	0.23549	0.2495	0.34127	-2.5687	-3.3187	-3.5062	-2.9417	-3.4854	-3.425	-2.9875	-3.7458	-3.1458	-3.3104	-3.5604	-2.9521	-3.4542	-3.5438	-3.2021	-3.7979	308.511	392.177	242.259	454.044	222.076	388.841	457.063	474.721	415.455	392.146	255.035	457.783	332.795	494.411	415.210	187.438	0.0007731	0.00051783	0.00028177	1459.6	1.6006e-06	2.8097e-06	1440.5	378.38	8.6185e-06	4.5734e-06	426.91	143.21	125.14	42.426	7.4198e-06	52.25	0.00046479	0.00050386	0.00013723	1473.2	5.1608e-06	5.6273e-06	1460.1	383	5.313e-06	5.7678e-06	434.27	145.44	126.46	43.552	5.7729e-06	53.473	514.314	361.846	243.305	182.551	406.867	407.112	182.113	186.849	256.950	406.897	186.439	190.465	190.215	196.320	341.658	195.331	-8191	255	
5203.913	1	1	0	0	0.097412	0.12831	0.10595	0.24217	0.11182	0.059201	0.10453	0.18654	0.21478	0.15907	0.28429	0.24787	0.33762	0.15482	0.092695	0.14065	-2.9167	-3.075	-3.5438	-3.1833	-3.3583	-3.4417	-3.1792	-3.6875	-3.2958	-3.1229	-3.7021	-3.1333	-3.3271	-3.6417	-3.075	-3.6813	400.219	275.969	253.228	352.824	495.119	462.712	189.878	498.755	487.119	341.580	465.799	217.262	527.273	502.355	251.187	356.712	0.00062492	0.00062645	0.00025464	1451.8	4.8341e-06	2.7186e-06	1425.8	372.77	6.1296e-06	1.8785e-06	423.44	141.24	124.75	42.159	4.1951e-06	51.651	0.0005415	0.00056024	0.00015278	1465	6.1307e-06	6.4484e-06	1451.7	378.74	6.3216e-06	6.4399e-06	431.65	144.38	127.04	43.348	6.1385e-06	53.31	509.099	252.906	296.086	182.539	185.624	221.863	182.117	186.877	254.612	409.309	186.631	190.802	190.388	196.146	231.336	195.593	-8191	255	
5204.034	1	1	0	0	0.16553	0.25387	0.10962	0.11869	0.14338	0.24325	0.0764	0.099289	0.13465	0.27351	0.050638	0.080849	0.24358	0.62135	0.1745	0.039615	-2.9479	-3.2083	-3.6396	-3.4229	-3.5	-3.4437	-3.2417	-3.525	-3.3083	-3.2125	-3.6292	-3.1208	-3.4313	-3.6104	-2.9562	-3.6083	187.734	329.800	232.876	244.351	337.662	426.324	449.744	171.418	431.123	303.079	350.646	202.510	478.069	169.630	463.834	327.214	0.00068067	0.00062669	4.8757e-05	1448.8	3.4473e-06	6.7079e-06	1428.6	373.17	4.4548e-06	1.4054e-06	421.21	141.88	123.17	42.033	9.1794e-06	51.88	0.0005884	0.00058381	0.00015406	1463.7	6.4549e-06	6.333e-06	1449.6	379.3	6.4805e-06	6.2548e-06	429.97	144.83	127.03	43.275	5.8797e-06	53.538	516.222	215.227	340.668	182.499	290.925	323.734	182.157	186.967	274.903	451.247	186.580	190.413	190.628	196.015	345.357	195.353	-8191	255	
5204.105	1	1	0	0	0.076033	0.099618	0.20435	0.3866	0.25546	0.10689	0.3401	0.18452	0.080425	0.12159	0.058602	0.11055	0.2082	0.35532	0.10426	0.17737	-2.8937	-3.0146	-3.7125	-3.2479	-3.1583	-3.6292	-3.1562	-3.6042	-3.4271	-2.9938	-3.6229	-3.3396	-3.2958	-3.4583	-3.0938	-3.6104	407.030	225.353	184.744	503.464	322.276	411.957	472.697	517.367	481.161	173.236	343.055	430.360	204.944	487.981	333.018	404.098	0.00073554	0.00069023	0.00021743	1450	4.0486e-06	4.9564e-07	1432.3	373.23	7.594e-06	6.7763e-06	421.21	141.26	123.28	41.95	2.5559e-06	52.111	0.00060321	0.00057192	0.00014964	1467.1	6.5302e-06	6.2651e-06	1453	380.49	6.5392e-06	6.287e-06	429.89	144.9	127.27	43.3	5.7935e-06	53.755	524.211	242.386	317.558	182.415	216.902	439.432	182.320	186.833	328.465	371.651	186.535	190.322	190.480	196.161	474.361	195.374	-8191	255	
5204.201	1	1	0	0	0.17294	0.31329	0.18171	0.20126	0.10011	0.041784	0.22095	0.25149	0.051891	0.11237	0.3919	0.11369	0.1606	0.056554	0.21385	0.018359	-3.15	-3.1146	-3.525	-3.2083	-3.1292	-3.6479	-3.2188	-3.4521	-3.4083	-2.925	-3.7146	-3.4688	-3.1396	-3.8083	-2.9792	-3.4167	491.383	189.929	274.917	468.652	210.924	182.753	469.104	473.829	169.232	503.715	470.537	494.812	499.026	361.726	450.544	312.218	0.00071867	0.00030891	0.00018145	1454.2	4.4226e-06	8.6109e-06	1433.3	373.02	5.0448e-06	3.0522e-06	422.12	141.48	123.82	42.027	8.5989e-06	52.255	0.00059617	0.00056272	0.00014803	1473.4	6.4505e-06	6.1589e-06	1452.8	381.14	6.4192e-06	6.0945e-06	430.46	145.39	127.29	43.308	5.8777e-06	53.928	519.841	317.084	193.447	182.661	240.551	291.942	181.885	186.764	303.731	324.080	186.530	190.399	190.623	196.128	222.356	195.319	-8191	255	
5204.298	1	1	0	0	0.1629	0.1686	0.34556	0.20482	0.19518	0.14123	0.18608	0.33903	0.11115	0.17915	0.27966	0.038744	0.25703	0.12417	0.20403	0.14998	-3.1583	-2.9021	-3.4896	-3.3708	-3.0458	-3.4896	-3.3125	-3.5104	-3.5938	-3.075	-3.6604	-3.3958	-3.0271	-3.7083	-3.0438	-3.4542	315.437	220.021	275.974	470.375	418.838	386.816	484.586	422.740	194.865	456.182	505.223	260.542	523.954	453.615	354.944	404.475	0.00068879	0.00090897	0.00023529	1454.4	4.9346e-07	3.0988e-06	1432.1	374.22	3.9979e-06	9.2943e-06	423.7	141.6	123.98	42.29	8.2449e-06	52.092	0.00058597	0.00054899	0.00014921	1474.5	6.3029e-06	5.9849e-06	1455.6	381.85	6.3062e-06	5.8448e-06	431.82	145.7	126.97	43.336	6.1033e-06	53.876	175.444	232.069	210.888	182.467	304.490	405.833	182.153	186.836	340.688	428.187	186.645	190.443	190.447	195.986	263.194	195.568	-8191	255	
5204.418	1	1	0	0	0.2426	0.084518	0.076537	0.29141	0.065334	0.1753	0.13626	0.17007	0.0050953	0.14864	0.35264	0.31383	0.23019	0.030225	0.12183	0.039821	-3.1354	-2.8333	-3.3542	-3.5875	-2.9167	-3.4375	-3.4271	-3.3354	-3.6292	-2.8979	-3.5938	-3.6542	-2.925	-3.6271	-3.2625	-3.3	339.207	203.987	268.645	486.044	439.866	496.708	428.671	438.579	377.878	414.753	474.302	490.982	421.553	506.594	263.947	475.767	0.00070335	0.00054904	0.00016638	1458.8	3.3578e-06	5.6518e-06	1438	375.31	5.0846e-06	4.6123e-06	424.65	142.43	124.12	42.172	5.6235e-06	52.182	0.00057259	0.00052765	0.00015741	1476	6.237e-06	5.7934e-06	1458.8	382.33	6.2981e-06	5.8222e-06	433.73	146.06	127.33	43.28	6.4728e-06	53.945	526.392	243.486	235.615	182.433	205.580	283.803	181.987	186.785	309.552	335.444	186.491	190.458	190.484	196.054	249.620	195.263	-8191	255	
5204.514	1	1	0	0	0.19477	0.17288	0.20293	0.1721	0.13349	0.21535	0.27993	0.1131	0.21873	0.12538	0.22733	0.037171	0.11124	0.082901	0.18825	0.090076	-3.1542	-3.0083	-3.1813	-3.6604	-3.0687	-3.3438	-3.4771	-3.3167	-3.85	-3.1333	-3.3875	-3.5604	-3.0792	-3.5229	-3.4708	-3.0542	472.351	321.511	515.360	517.692	280.127	403.142	446.064	171.005	346.794	470.152	286.008	427.110	256.705	185.288	511.699	428.554	0.00062951	0.00045956	7.2653e-05	1456.8	4.7742e-06	4.6234e-06	1436.1	375.29	5.6379e-06	2.661e-06	423.72	141.86	123.87	41.937	6.1435e-06	52.004	0.00056981	0.00053477	0.00016558	1477	6.1622e-06	5.8832e-06	1461.3	382.24	6.0851e-06	5.9211e-06	433.36	145.69	126.32	43.307	6.536e-06	53.789	521.922	265.787	332.173	182.599	313.991	305.571	181.914	187.072	258.444	247.235	186.519	190.514	190.265	196.087	343.473	195.664	-8191	255	
5204.610	1	1	0	0	0.18556	0.12267	0.024555	0.20667	0.17239	0.11842	0.2412	0.25195	0.24917	0.092484	0.058625	0.075774	0.26348	0.21095	0.1586	0.059087	-3.2188	-2.8063	-3.1562	-3.7021	-2.9771	-3.5292	-3.5812	-3.0312	-3.6312	-3.0417	-3.3312	-3.5583	-2.8208	-3.5458	-3.2646	-3.0938	255.910	370.852	517.373	453.143	289.810	410.348	467.598	526.566	363.544	386.224	170.970	504.027	243.645	475.863	191.968	172.726	0.0006399	0.00071704	0.00010704	1455.9	1.6196e-06	1.0995e-05	1436.1	374.99	6.0472e-06	7.6915e-06	422.96	142.06	124.49	42.138	6.4694e-06	51.992	0.00054626	0.00054348	0.00016593	1475.2	5.8475e-06	6.0555e-06	1461.6	382.15	5.8854e-06	6.2143e-06	434.64	145.92	126.78	43.471	6.6494e-06	53.81	524.436	250.194	254.877	182.452	519.574	243.080	182.069	187.143	207.379	283.167	186.680	190.374	190.306	196.177	252.216	195.088	-8191	255	
5204.729	1	1	0	0	0.0045883	0.31601	0.1296	0.14985	0.080914	0.13259	0.11734	0.22511	0.034477	0.17331	0.1278	0.042711	0.16428	0.15318	0.20269	0.081687	-3.2104	-3.0521	-3.0479	-3.8292	-3.0729	-3.2583	-3.9313	-3.0833	-3.7458	-3.2562	-3.2604	-3.7583	-3.1708	-3.4604	-3.5229	-3.0625	266.886	444.925	206.028	492.957	334.812	433.618	473.934	470.436	221.516	313.285	491.671	364.124	385.259	398.460	383.002	479.509	0.00079069	0.00051591	0.00017146	1458.3	6.9394e-06	6.9548e-06	1440.8	373.42	3.4576e-06	2.8138e-06	424.17	142.57	124.31	42.247	2.2661e-06	51.953	0.00054327	0.00059116	0.00016828	1475.8	5.9176e-06	6.5696e-06	1463.3	381.77	5.982e-06	6.5557e-06	433.9	145.68	126.56	43.577	6.6456e-06	53.763	510.752	448.261	226.440	182.361	194.993	294.470	182.286	187.000	335.319	395.023	186.582	190.480	190.555	196.166	303.694	195.055	-8191	255	
5204.801	1	1	0	0	0.16931	0.43818	0.197	0.26935	0.18302	0.049342	0.13117	0.063701	0.020855	0.25554	0.26163	0.032519	0.20948	0.22414	0.13757	0.1592	-3.2	-3.4083	-3.0729	-3.8583	-3.0354	-3.2812	-3.7083	-2.95	-3.5458	-3.4375	-3.1854	-3.75	-3.0417	-3.2625	-3.6437	-3.2396	442.548	378.069	230.667	501.131	232.252	453.383	490.502	467.635	354.323	463.537	172.370	261.921	448.642	456.648	359.464	450.993	0.00062553	0.00024506	5.8432e-05	1457.2	5.0318e-06	4.4522e-06	1436	374.7	7.2844e-06	4.5369e-06	422.83	142.2	124.14	42.118	4.9871e-06	51.977	0.00055736	0.00061696	0.000167	1475.6	6.1183e-06	6.7884e-06	1462.8	381.39	6.1663e-06	6.7598e-06	433.76	145.41	127.05	43.526	6.4927e-06	53.656	175.002	204.808	350.268	182.572	257.390	354.226	182.027	186.902	283.664	228.995	186.281	190.589	190.365	196.066	324.923	195.430	-8191	255	
5204.897	1	1	0	0	0.03585	0.039996	0.057847	0.33736	0.16338	0.21956	0.35624	0.18632	0.2592	0.052254	0.038722	0.14272	0.098566	0.21442	0.14068	0.14463	-3.0167	-3.4	-3.1375	-3.6688	-3.2104	-3.1208	-3.8063	-3.1229	-3.4208	-3.5396	-2.9375	-3.6604	-3.2979	-3.1688	-3.5375	-3.0896	421.958	467.891	463.351	500.680	434.806	509.694	459.228	507.175	453.768	485.905	387.008	504.437	271.536	514.668	260.001	515.571	0.00084386	0.00057082	0.0001259	1455.4	5.6908e-06	1.0434e-05	1443.1	373.42	4.1219e-06	2.183e-06	426.52	141.9	124.52	42.15	6.4903e-06	52.114	0.00058274	0.00061743	0.00016436	1474.7	6.451e-06	6.7192e-06	1463.8	380.59	6.537e-06	6.7318e-06	433.95	145.31	127.74	43.612	6.4845e-06	53.644	524.858	200.704	298.649	182.526	199.369	321.398	182.001	187.025	341.870	179.368	186.521	190.510	189.700	196.441	384.654	195.008	-8191	255	
5205.018	1	1	0	0	0.14591	0.2265	0.085133	0.30036	0.13911	0.097905	0.2725	0.073325	0.10836	0.24177	0.14581	0.4635	0.10489	0.31761	0.28952	0.20416	-3.1521	-3.2208	-2.9333	-3.7104	-3.2021	-3.1958	-3.7208	-3.2792	-3.2313	-3.4354	-3.0792	-3.675	-3.3375	-3.1708	-3.6875	-3.0354	359.550	470.462	274.027	459.268	453.803	478.348	366.710	481.451	376.563	372.077	379.943	507.989	512.124	210.300	232.201	483.757	0.00070147	0.00065144	0.00027202	1455.7	5.2282e-06	6.0203e-06	1439.1	374.92	2.5883e-06	5.183e-06	423.27	141.41	124.1	42.13	8.6313e-06	52.019	0.00061587	0.00061671	0.00016298	1475.1	6.8193e-06	6.7404e-06	1463.6	381.83	6.8551e-06	6.7356e-06	432.8	145.41	128.76	43.565	6.3763e-06	53.815	523.371	263.453	328.618	182.552	218.773	314.725	182.245	186.828	252.023	378.284	186.584	190.484	190.039	196.172	334.971	195.273	-8191	255	
5205.114	1	1	0	0	0.11711	0.2945	0.11477	0.18293	0.30451	0.13494	0.14095	0.081758	0.13929	0.095001	0.096936	0.10041	0.10258	0.14569	0.30097	0.27855	-2.8479	-3.6813	-2.85	-3.7792	-3.2167	-2.9917	-3.7979	-3.2354	-3.1479	-3.6792	-3.1146	-3.6125	-3.575	-3.1896	-3.6021	-3.5833	498.828	478.263	504.706	454.668	173.655	276.541	490.037	420.975	329.138	379.766	485.475	347.064	197.759	176.627	522.156	418.396	0.00076446	0.00029456	0.00028765	1463.1	9.8193e-07	1.8902e-06	1442.4	374.54	4.5038e-06	4.7711e-06	424.86	142.63	124.06	42.226	6.7853e-07	51.964	0.00063498	0.00061193	0.00015895	1482.2	6.9602e-06	6.6781e-06	1463.8	382.63	7.0177e-06	6.7131e-06	432.88	146.05	128.72	43.597	6.2201e-06	53.972	521.501	279.380	267.636	182.648	522.854	363.794	182.049	186.663	298.089	284.590	186.730	190.135	190.362	196.040	233.716	195.287	-8191	255	
5205.210	1	1	0	0	0.17669	0.068832	0.21406	0.31473	0.053153	0.02489	0.28553	0.11691	0.2776	0.035493	0.129	0.16869	0.12935	0.14011	0.19655	0.24246	-2.9625	-3.4646	-2.9521	-3.7438	-3.4583	-3.0625	-3.8021	-3.3729	-3.2375	-3.6417	-3.0979	-3.5542	-3.7	-3.0625	-3.7167	-3.375	309.941	174.692	523.909	169.849	275.512	465.737	478.603	408.492	440.310	362.897	510.465	484.383	479.011	232.055	408.403	409.606	0.00059587	0.00035338	0.00015226	1462.2	2.2623e-06	3.2906e-07	1443.6	375.06	2.028e-06	5.3532e-06	423.02	142.07	124.26	42.054	8.3988e-06	52.013	0.00063217	0.00060473	0.00015563	1484	6.8587e-06	6.5966e-06	1464.9	383.12	6.8791e-06	6.5303e-06	432.36	146.28	128.31	43.53	6.2237e-06	54.09	511.195	254.056	204.368	182.524	357.918	401.159	182.022	186.753	340.415	297.111	186.291	190.191	190.203	196.134	291.099	195.137	-8191	255	
5205.331	1	1	0	0	0.13632	0.083576	0.16854	0.15925	0.18993	0.44334	0.021051	0.069825	0.076187	0.066096	0.17061	0.19427	0.089575	0.063867	0.21404	0.49356	-2.6604	-3.6292	-2.9979	-3.575	-3.5354	-2.9583	-3.8438	-3.4875	-3.0521	-3.5979	-3.3333	-3.2729	-3.5958	-2.9458	-3.6146	-3.5521	188.738	318.794	397.033	456.524	512.092	512.287	466.724	434.110	440.105	398.143	499.454	207.700	429.980	267.385	487.464	170.917	0.00060622	0.00079422	0.00040368	1460	6.0572e-06	3.1704e-06	1445.1	377.04	4.3127e-06	6.1641e-06	422.98	141.3	124.11	42.011	8.0352e-06	52.128	0.00062527	0.00058756	0.00015832	1486	6.7522e-06	6.3616e-06	1466.6	384.43	6.6865e-06	6.358e-06	433.45	146.48	128.13	43.422	6.516e-06	54.195	513.396	313.117	244.952	182.468	229.953	303.773	182.173	186.913	259.829	351.461	186.339	190.470	190.487	195.892	285.378	195.063	-8191	255	
5205.402	1	1	0	0	0.19353	0.30518	0.10322	0.091873	0.082035	0.051652	0.13772	0.16632	0.13136	0.079398	0.29091	0.095994	0.07496	0.31959	0.12403	0.38087	-2.6146	-3.5354	-3.1375	-3.4437	-3.4958	-2.9625	-3.6167	-3.6396	-2.7792	-3.7708	-3.325	-3.3417	-3.6521	-3.225	-3.3521	-3.55	445.113	244.862	172.895	499.191	405.922	359.833	320.109	461.838	244.499	524.933	444.996	204.448	456.472	508.077	229.118	457.677	0.00065417	0.00064158	0.00021979	1456.1	2.9099e-06	4.4839e-06	1443.2	376.75	1.9636e-06	4.1253e-06	422.73	142.23	124.3	42.091	9.9003e-06	51.967	0.00061431	0.00056914	0.000165	1485.2	6.6769e-06	6.1123e-06	1467.5	384.08	6.5713e-06	6.0929e-06	434.53	146.3	127.92	43.294	6.7651e-06	54.096	522.168	246.018	230.665	182.436	307.834	351.322	181.922	186.848	293.598	348.134	186.448	190.105	190.518	196.068	278.240	195.121	-8191	255	
5205.499	1	1	0	0	0.10326	0.1801	0.10519	0.1082	0.11799	0.023755	0.19424	0.093977	0.26749	0.094261	0.075988	0.1465	0.096906	0.21385	0.10307	0.088461	-2.4375	-3.5563	-3.125	-3.2438	-3.5625	-3.0187	-3.6854	-3.5646	-2.9896	-3.5146	-3.5438	-3.0917	-3.5458	-3.1375	-3.2083	-3.6146	503.470	412.956	340.420	173.214	268.634	488.856	232.075	230.398	287.604	504.901	492.638	519.161	215.519	481.728	247.490	187.589	0.00061846	0.00072706	0.00012193	1458.2	3.153e-06	1.5809e-06	1441.1	375.9	4.6019e-06	4.1422e-06	422.63	142.16	124.8	41.981	4.4939e-06	52.239	0.00060036	0.00055988	0.00017234	1484.7	6.5278e-06	6.1548e-06	1469.5	383.48	6.5001e-06	6.2458e-06	435.04	146.1	127.58	43.361	6.965e-06	54.061	527.896	251.018	302.889	182.396	226.902	246.311	181.903	186.687	331.434	285.039	186.610	190.182	190.401	196.268	387.824	195.424	-8191	255	
5205.595	1	1	0	0	0.18131	0.034024	0.06289	0.18873	0.16275	0.069526	0.35352	0.29784	0.26195	0.06323	0.16079	0.13484	0.17371	0.40789	0.23671	0.42817	-2.5312	-3.4542	-3.4	-3.2479	-3.8021	-3.1271	-3.4583	-3.5792	-2.9042	-3.6146	-3.3292	-3.0646	-3.6167	-3.2229	-3.1917	-3.5771	493.492	489.202	257.362	470.884	339.064	411.842	485.674	478.928	457.479	491.322	435.556	517.070	279.410	247.324	506.658	481.282	0.00073022	0.00015937	9.6568e-05	1462.7	6.5274e-06	1.239e-06	1446.4	375.54	6.2673e-07	1.3436e-06	423.87	141.63	123.94	42.241	1.1e-05	52.101	0.00058076	0.00057763	0.00017689	1481.6	6.2658e-06	6.4202e-06	1468.4	383	6.233e-06	6.4751e-06	435.47	145.81	126.8	43.458	6.8644e-06	53.886	526.281	375.532	216.383	182.316	274.074	225.589	182.026	186.810	522.463	229.181	186.846	190.289	190.091	196.161	328.707	195.349	-8191	255	
5205.714	1	1	0	0	0.24175	0.13157	0.29352	0.14062	0.1508	0.31705	0.18027	0.075077	0.23578	0.11309	0.047696	0.1309	0.2299	0.093947	0.1779	0.24371	-2.5833	-3.55	-3.3688	-3.1937	-3.6083	-3.1437	-3.3417	-3.8625	-2.9354	-3.4271	-3.7521	-3.0271	-3.625	-3.3042	-3.2125	-3.8	404.815	326.803	297.686	511.492	415.047	472.972	445.084	409.822	283.794	192.468	398.802	413.763	411.452	378.894	496.284	333.327	0.00062969	0.00078551	0.00012606	1454.7	3.5859e-06	6.9994e-06	1442.6	375.09	2.4916e-06	9.7993e-06	424.68	141.83	123.94	42.05	2.8643e-06	52.072	0.00056415	0.00060375	0.0001734	1477.6	6.1368e-06	6.6645e-06	1466.6	382.29	6.0716e-06	6.7217e-06	434.36	145.54	126.37	43.591	6.7103e-06	53.874	528.474	179.826	198.265	182.400	231.421	337.941	182.108	186.738	227.530	338.200	186.504	190.222	190.023	196.231	355.389	195.209	-8191	255	
5205.810	1	1	0	0	0.26635	0.25496	0.093699	0.19897	0.031931	0.18439	0.31112	0.086988	0.13826	0.12168	0.13882	0.23944	0.26532	0.23082	0.16865	0.040829	-2.5792	-3.1063	-3.4271	-3.1771	-3.4875	-3.3625	-3.2958	-3.7979	-3.1792	-3.4021	-3.8083	-3.0563	-3.3396	-3.4604	-2.9958	-3.8146	455.613	465.707	196.241	442.699	353.333	450.011	445.559	421.945	234.565	388.569	190.502	171.635	304.174	491.254	494.387	472.085	0.00070553	0.0007979	7.3392e-05	1452.8	3.1103e-06	3.5135e-06	1443.8	374.37	6.3613e-06	5.7938e-06	423.02	141.91	123.79	42.156	8.4214e-06	51.779	0.00056234	0.0006185	0.00016976	1477.9	6.1805e-06	6.8562e-06	1465.7	380.92	6.1836e-06	6.8912e-06	433.96	145.32	126.99	43.686	6.5899e-06	53.624	518.419	221.294	365.270	182.446	221.277	522.723	181.784	186.782	256.712	379.890	186.345	190.312	190.269	196.105	300.229	195.378	-8191	255	
5205.906	1	1	0	0	0.047473	0.096359	0.086989	0.049013	0.12903	0.09871	0.25577	0.32076	0.13669	0.25398	0.31796	0.12037	0.17463	0.17533	0.1805	0.31199	-2.6813	-3.2729	-3.5687	-2.9229	-3.5375	-3.3792	-3.25	-3.8667	-3.1125	-3.1292	-3.7417	-3.1625	-3.2375	-3.4958	-3.1188	-3.7208	278.918	326.993	461.482	493.027	505.977	462.345	410.452	420.528	202.092	445.130	478.578	393.731	396.107	478.360	274.726	505.716	0.00068564	0.00079568	8.945e-05	1455.7	3.0082e-06	9.7024e-06	1434.4	372.84	5.2096e-06	7.4794e-06	424.62	141.57	124.7	42.134	1.2236e-05	52.19	0.00058572	0.00062363	0.00016602	1475.5	6.3877e-06	6.8101e-06	1462	380.95	6.465e-06	6.7693e-06	433.97	145.22	127.99	43.618	6.4321e-06	53.661	515.668	277.419	264.218	182.370	221.092	321.851	182.198	186.835	363.698	368.695	186.644	190.428	190.287	196.368	369.590	195.643	-8191	255	
5205.979	1	1	0	0	0.10585	0.1389	0.21949	0.25196	0.11391	0.19985	0.10082	0.10806	0.14062	0.13558	0.33188	0.1035	0.077987	0.057291	0.066436	0.28609	-2.6646	-3.0583	-3.5521	-3.2521	-3.3917	-3.5229	-3.0625	-3.575	-3.3063	-3.3187	-3.6771	-3.2333	-3.2833	-3.775	-2.9083	-3.6167	198.852	230.485	398.824	482.136	506.326	441.342	504.864	365.580	390.718	468.535	309.828	504.640	178.062	429.537	241.866	452.859	0.00072866	0.00057681	0.00018393	1459.8	2.816e-06	7.1183e-06	1440.2	374.08	4.4587e-06	4.0728e-06	423.33	142.02	123.35	42.11	9.103e-06	52.117	0.00060657	0.00061706	0.00016293	1474.3	6.6811e-06	6.7259e-06	1464	381.73	6.7837e-06	6.6721e-06	432.83	145.19	128	43.572	6.2567e-06	53.772	526.177	242.530	293.171	182.343	252.108	257.145	181.960	186.998	294.484	328.607	186.748	190.515	190.707	196.396	286.201	195.126	-8191	255	
5206.098	1	1	0	0	0.07612	0.1369	0.25901	0.11774	0.08843	0.039746	0.31307	0.063112	0.3551	0.15737	0.1948	0.11214	0.013333	0.064999	0.33569	0.229	-2.9062	-2.9813	-3.5687	-3.175	-3.225	-3.5938	-3.1875	-3.5854	-3.4125	-3.05	-3.6813	-3.1771	-3.2104	-3.6854	-3.0062	-3.5646	335.757	256.381	513.794	472.080	205.083	523.859	450.041	392.139	217.742	418.430	523.811	453.862	373.212	246.440	328.394	428.590	0.00080382	0.00042077	0.00021657	1456.1	2.5492e-06	8.4782e-06	1439.5	374.06	1.8196e-06	4.429e-06	425.57	142.13	124.51	42.051	3.023e-06	52.243	0.00062383	0.00060109	0.00015882	1475.1	6.7974e-06	6.5852e-06	1462	381.54	6.8305e-06	6.5015e-06	432.47	145.62	128.34	43.513	6.0101e-06	53.93	514.482	227.026	280.095	182.360	497.568	171.165	181.957	186.844	483.139	411.819	186.304	190.474	190.583	196.177	329.320	195.348	-8191	255	
5206.194	1	1	0	0	0.13496	0.058208	0.15887	0.24413	0.16372	0.09774	0.20269	0.070878	0.29159	0.16765	0.36984	0.12217	0.034144	0.16953	0.11299	0.012813	-2.8979	-2.8688	-3.6354	-3.3104	-3.1854	-3.6708	-3.1979	-3.6437	-3.4833	-3.0729	-3.775	-3.3937	-3.2396	-3.6354	-3.0333	-3.5708	218.325	373.684	400.587	192.713	258.391	248.396	481.878	429.559	443.755	326.229	440.234	359.040	295.706	187.940	443.359	446.293	0.00074494	0.0011679	0.00025797	1455	2.2596e-06	2.6837e-06	1437.8	373.62	8.7913e-07	5.5622e-06	422.92	142.52	124.54	42.18	5.7074e-06	52.152	0.00061736	0.00058967	0.00015209	1476.1	6.6891e-06	6.3676e-06	1459.9	382.06	6.6449e-06	6.3575e-06	431.83	145.98	128.11	43.438	5.9046e-06	53.97	521.767	245.909	279.094	182.518	424.001	295.400	181.969	186.803	516.069	306.953	186.544	190.419	190.468	196.086	290.967	195.463	-8191	255	
5206.290	1	1	0	0	0.059195	0.19163	0.16936	0.18196	0.21036	0.1322	0.20797	0.33139	0.11989	0.18665	0.095051	0.39502	0.25718	0.097116	0.18379	0.087927	-3.0625	-2.9104	-3.5167	-3.4188	-3.2479	-3.7188	-3.2458	-3.5812	-3.4729	-3.0396	-3.7458	-3.4104	-3.1937	-3.7083	-3.1354	-3.475	353.977	336.148	170.089	219.116	241.268	187.630	416.889	512.130	427.098	493.339	489.050	525.121	527.204	269.199	265.895	186.217	0.00077415	0.00043878	0.0001917	1454.7	7.9334e-06	6.6799e-06	1441.7	374.76	6.5523e-06	4.2192e-06	421.79	142.01	123.86	42.3	9.2373e-06	52.084	0.00060794	0.00056818	0.00015175	1479.1	6.5447e-06	6.2284e-06	1459.3	382.74	6.4964e-06	6.0905e-06	431.79	146.07	127.52	43.426	6.155e-06	54.096	528.722	271.762	223.802	182.532	310.475	312.960	181.933	187.006	320.278	344.085	186.638	190.574	190.303	196.252	284.160	195.052	-8191	255	
5206.411	1	1	0	0	0.14376	0.077608	0.0523	0.095482	0.13377	0.083487	0.39522	0.16984	0.11331	0.12476	0.095506	0.17748	0.096301	0.14145	0.23615	0.13092	-3.0458	-2.9875	-3.4313	-3.3958	-3	-3.7042	-3.3521	-3.4313	-3.7938	-3.1708	-3.5771	-3.5208	-3.1917	-3.7188	-3.2896	-3.275	469.410	436.573	219.011	453.679	334.935	253.738	487.341	483.330	233.912	298.207	210.809	512.771	360.890	171.824	225.682	407.597	0.00077214	0.00091785	0.0001882	1457.8	2.8235e-06	4.6227e-06	1431.9	374.55	3.1696e-06	4.8929e-06	422.87	142.17	123.96	42.311	8.2949e-06	52.117	0.00058805	0.00054689	0.00015755	1480.5	6.4186e-06	5.9805e-06	1460.8	382.34	6.3773e-06	5.899e-06	432.98	146.23	127.09	43.467	6.4171e-06	53.999	524.215	254.826	215.469	182.438	294.529	328.745	182.051	187.031	414.415	359.051	186.526	190.555	190.488	196.294	235.667	195.224	-8191	255	
5206.507	1	1	0	0	0.04348	0.10524	0.27996	0.20673	0.26828	0.15292	0.37511	0.14347	0.14952	0.15482	0.11895	0.27291	0.1043	0.14358	0.26408	0.27888	-3.2812	-3.0229	-3.3312	-3.7396	-2.7708	-3.6625	-3.5125	-3.275	-3.7062	-2.9979	-3.35	-3.6979	-2.8333	-3.5625	-3.3354	-3.0583	383.518	241.345	448.149	419.403	344.646	398.065	447.565	476.873	352.494	279.398	430.330	183.396	403.639	245.811	311.148	169.857	0.00065647	0.00059971	0.00013842	1452.7	1.3215e-06	6.6946e-06	1439.5	373.09	5.9533e-06	3.545e-06	421.96	142.08	123.94	42.294	9.8788e-06	52.055	0.00058246	0.00053772	0.00016463	1477	6.284e-06	5.9201e-06	1464.8	382.48	6.2554e-06	5.9582e-06	433.73	145.9	127.21	43.436	6.6796e-06	54.049	524.905	246.440	216.205	182.465	265.913	337.629	181.873	186.851	260.230	257.578	186.497	190.408	190.239	196.266	299.735	195.320	-8191	255	
5206.602	1	1	0	0	0.02903	0.023346	0.24054	0.078623	0.19327	0.28015	0.28863	0.35416	0.2223	0.049175	0.18465	0.1061	0.10231	0.35382	0.16071	0.22205	-3.2812	-2.8833	-3.1833	-3.6708	-2.8875	-3.5812	-3.2917	-2.9375	-3.625	-2.9917	-3.3875	-3.6833	-3.0021	-3.6083	-3.4375	-2.9417	330.264	354.688	176.227	455.800	459.181	448.126	480.479	527.117	195.039	364.414	412.465	486.791	424.637	173.887	464.915	495.670	0.00065262	9.0346e-05	0.0001721	1462.1	4.8993e-06	6.2162e-06	1439	374.6	4.1506e-06	4.9853e-06	422.91	141.66	124.27	42.318	2.6152e-06	52.073	0.00056192	0.00055281	0.00017042	1479	6.065e-06	6.1031e-06	1464.5	381.76	6.0773e-06	6.2113e-06	434.46	145.47	126.62	43.547	6.7179e-06	53.875	522.557	263.677	235.451	182.536	264.828	179.628	182.124	187.046	267.629	329.608	186.485	190.373	190.229	196.146	332.139	195.127	-8191	255	
5206.700	1	1	0	0	0.10074	0.22022	0.025137	0.35992	0.10414	0.050593	0.23314	0.26666	0.21129	0.212	0.067991	0.22904	0.29568	0.055242	0.039675	0.03339	-3.2104	-3.1354	-3.2521	-3.7104	-2.9708	-3.5312	-3.6292	-3.1458	-3.6229	-3.3167	-3.2854	-3.7083	-3.1167	-3.4479	-3.4625	-3.1896	290.845	204.819	202.290	509.654	256.225	237.246	202.917	514.537	423.543	491.630	256.011	508.841	182.589	403.774	496.461	179.063	0.00077089	0.0002145	0.00034374	1455.3	7.6925e-06	2.0961e-06	1435.4	374.45	7.1848e-06	7.1663e-06	422.87	142.06	123.95	42.137	6.155e-06	51.979	0.00055082	0.00057731	0.00016943	1475.2	5.9036e-06	6.3737e-06	1463.7	381.56	5.9849e-06	6.5093e-06	434.24	145.75	126.58	43.611	6.6684e-06	53.76	524.926	259.124	274.276	182.328	287.197	314.011	182.117	187.084	246.275	321.312	186.690	190.611	190.259	196.326	328.247	195.286	-8191	255	
5206.794	1	1	0	0	0.19322	0.0161	0.10849	0.25688	0.14676	0.10538	0.15477	0.29285	0.095566	0.08229	0.18065	0.18955	0.12611	0.3321	0.14649	0.057815	-3.2604	-3.3438	-3.1271	-3.8729	-2.9333	-3.3187	-3.6542	-3.1917	-3.5708	-3.4458	-3.1833	-3.8333	-3.2583	-3.3208	-3.6292	-3.2042	479.022	271.378	228.245	468.062	332.642	390.257	417.380	433.051	270.740	272.723	500.700	478.580	179.083	459.319	501.664	503.330	0.00080252	0.00069733	7.9235e-05	1456.8	4.4997e-06	7.0973e-06	1442.1	374.92	3.784e-06	7.1812e-06	423.04	142.45	124.75	42.236	5.5524e-06	51.982	0.00055661	0.0006116	0.00016601	1475.8	6.0033e-06	6.7157e-06	1463.9	381.46	6.0654e-06	6.6632e-06	433.33	145.66	126.85	43.656	6.5378e-06	53.721	520.026	280.336	295.735	182.402	190.728	192.413	182.036	186.945	238.562	371.548	186.719	190.536	190.348	196.227	304.877	195.060	-8191	255	
5206.890	1	1	0	0	0.17493	0.17452	0.12268	0.23245	0.12051	0.092944	0.29213	0.076327	0.22865	0.10136	0.21972	0.099048	0.05701	0.071301	0.17396	0.079734	-3.0812	-3.225	-2.875	-3.8708	-3.1	-3.2896	-3.8438	-3.0104	-3.5792	-3.5833	-3.2062	-3.6	-3.1542	-3.2125	-3.4708	-3.1083	525.247	244.344	467.040	502.912	521.703	481.024	505.122	410.415	429.095	218.814	521.852	439.014	474.614	456.267	478.279	526.916	0.00070195	0.00031143	0.00017852	1453.8	1.7588e-06	5.3239e-06	1440.9	375.71	4.9101e-06	3.2182e-06	423.22	142.4	124.91	42.186	2.2211e-06	52.013	0.00056838	0.00061512	0.00016424	1471.9	6.2486e-06	6.7062e-06	1462.7	381.08	6.3378e-06	6.7031e-06	433.46	144.99	127.64	43.62	6.4591e-06	53.579	515.984	231.214	311.370	182.643	237.850	411.623	182.084	186.913	276.586	367.056	186.491	190.587	190.297	196.249	317.434	195.427	-8191	255	
5206.986	1	1	0	0	0.32486	0.16215	0.059856	0.10088	0.26833	0.10232	0.19507	0.22925	0.33372	0.066937	0.093791	0.10159	0.18508	0.17639	0.10563	0.22321	-3.0479	-3.3417	-2.8812	-3.7667	-3.3958	-3.0833	-3.85	-3.1417	-3.2417	-3.3667	-2.9396	-3.5417	-3.2604	-3.2125	-3.4917	-3.1021	307.902	457.115	356.228	207.987	191.764	304.065	482.856	480.113	417.639	441.141	409.994	197.471	454.038	193.995	278.858	359.919	0.00069045	0.0005323	0.00023232	1453.9	5.6592e-06	8.6636e-06	1437.7	373.7	3.8963e-06	4.8223e-06	421.66	142.14	123.29	42.176	5.988e-06	51.935	0.00060117	0.00061059	0.00016158	1472.5	6.5681e-06	6.6622e-06	1461.6	380.64	6.6682e-06	6.6538e-06	432.52	145.17	127.81	43.526	6.2879e-06	53.621	523.965	344.603	296.645	182.484	253.490	327.633	182.029	186.991	249.694	341.338	186.684	190.374	190.593	196.154	339.088	195.374	-8191	255	
5207.107	1	1	0	0	0.2528	0.19162	0.19677	0.19126	0.14339	0.26956	0.29157	0.44928	0.18136	0.030368	0.16129	0.27897	0.17884	0.048416	0.12232	0.1932	-3.1271	-3.5917	-2.9479	-3.6646	-3.3917	-3.1083	-3.9354	-3.2625	-3.2646	-3.5521	-3.1396	-3.4854	-3.4	-3.1042	-3.575	-3.2021	490.318	238.551	205.992	441.668	249.851	476.380	493.139	461.769	398.277	378.866	196.816	464.272	206.288	403.351	279.695	442.622	0.00079632	9.5737e-05	0.00022078	1456.3	1.4259e-06	1.2432e-05	1436.6	373	5.076e-06	4.5712e-06	421.66	141.72	123.92	42.126	7.4338e-06	52.143	0.00061745	0.00060035	0.00015727	1474.3	6.7268e-06	6.5127e-06	1458.7	380.83	6.7365e-06	6.4651e-06	430.86	145.33	127.99	43.427	6.0647e-06	53.809	519.590	236.920	325.160	182.436	247.628	445.149	181.937	186.832	267.516	362.617	186.632	190.477	190.549	196.058	244.841	195.170	-8191	255	
5207.203	1	1	0	0	0.20798	0.23358	0.20904	0.10846	0.027404	0.15079	0.15316	0.29987	0.23812	0.021087	0.1847	0.34409	0.17207	0.081365	0.12102	0.18866	-2.9354	-3.6542	-3.0542	-3.7208	-3.475	-3.1042	-4.0333	-3.425	-3.2479	-3.825	-3.3167	-3.3833	-3.5625	-3.1396	-3.625	-3.4313	331.833	326.801	399.717	466.656	186.910	454.182	169.522	436.593	256.816	245.496	446.700	475.835	192.874	451.952	518.504	403.824	0.0006744	0.00094356	0.00022812	1454.6	7.0399e-06	7.616e-06	1432.7	372.94	1.7628e-06	5.6284e-06	422.39	141.91	124.51	42.055	6.6841e-06	52.157	0.00061432	0.00058981	0.00015313	1475.7	6.7275e-06	6.4075e-06	1457.7	381.51	6.6547e-06	6.3504e-06	430.82	145.78	128.07	43.432	5.961e-06	54.022	524.660	291.230	341.042	182.467	301.393	288.847	182.018	187.007	234.342	411.891	186.677	190.385	190.300	196.303	318.539	195.231	-8191	255	
5207.275	1	1	0	0	0.085937	0.16195	0.14566	0.31096	0.15386	0.20558	0.2705	0.076577	0.17656	0.078314	0.21035	0.052267	0.013301	0.04332	0.28051	0.21364	-2.825	-3.6083	-3.025	-3.4479	-3.5958	-2.9875	-3.7458	-3.5208	-3.0563	-3.7167	-3.2271	-3.3625	-3.4792	-2.9146	-3.3688	-3.3208	338.783	350.817	257.965	514.719	496.012	418.056	433.498	502.984	459.561	343.990	491.152	450.613	249.818	266.322	424.588	526.753	0.00071517	0.00047552	0.00014088	1454.5	7.1766e-06	1.2121e-05	1439.6	373.97	3.209e-06	4.8035e-06	421.45	141.21	123.92	42.076	2.6931e-06	51.912	0.00060587	0.00057706	0.00015149	1477.3	6.6176e-06	6.2446e-06	1458.9	382.03	6.5906e-06	6.1864e-06	430.78	145.72	127.61	43.3	6.1367e-06	53.916	526.423	440.643	300.359	182.486	250.755	321.813	181.924	186.638	433.473	396.939	186.678	190.304	190.101	196.028	190.113	195.172	-8191	255	
5207.371	1	1	0	0	0.20745	0.073207	0.10878	0.12075	0.1762	0.16763	0.20004	0.11299	0.15292	0.18819	0.13989	0.21358	0.079163	0.039763	0.072806	0.2212	-2.5354	-3.6521	-3.0833	-3.2562	-3.3854	-2.9333	-3.4625	-3.4562	-3.1333	-3.6625	-3.2708	-3.3542	-3.5833	-3.0833	-3.6271	-3.4521	439.767	517.724	320.116	189.708	416.933	370.063	525.891	443.251	476.693	267.761	176.989	193.678	264.917	516.332	515.866	433.275	0.00069423	0.00055196	0.00015798	1454.3	9.7781e-06	1.7906e-06	1435.6	374.12	7.2384e-06	2.0533e-06	424.13	141.74	123.73	42.169	4.1307e-06	51.857	0.00059174	0.00055912	0.00015805	1475.9	6.4833e-06	6.0495e-06	1458.8	382.2	6.452e-06	5.9832e-06	433.06	145.62	127.27	43.248	6.4232e-06	53.925	528.125	347.793	242.010	182.337	310.620	372.889	182.093	186.717	310.671	324.657	186.322	190.465	189.855	196.185	297.865	195.173	-8191	255	
5207.491	1	1	0	0	0.12841	0.12212	0.14854	0.24701	0.22796	0.020887	0.30725	0.3738	0.27173	0.23797	0.17758	0.1613	0.11224	0.086834	0.23362	0.1508	-2.6417	-3.5271	-3.3083	-3.3292	-3.6708	-3.0354	-3.6375	-3.575	-2.9604	-3.5438	-3.2604	-3.2979	-3.6208	-3.1146	-3.3104	-3.5333	195.635	451.547	345.418	201.828	516.290	201.107	460.258	496.326	504.855	207.568	461.110	381.564	480.898	366.746	271.300	366.231	0.00065673	0.00012895	0.00021328	1455.9	6.434e-06	1.159e-05	1435.2	373.8	3.6549e-06	4.6944e-06	422.42	142.3	124.11	42.258	4.1168e-06	51.951	0.00058186	0.00054009	0.00016277	1477.2	6.2898e-06	5.8591e-06	1458.7	382.09	6.2804e-06	5.9572e-06	432.64	145.78	126.97	43.312	6.6528e-06	53.894	169.791	268.135	208.656	182.410	264.845	301.726	182.138	187.195	353.772	377.805	186.651	190.396	190.774	196.081	170.843	195.219	-8191	255	
5207.588	1	1	0	0	0.17438	0.11095	0.082326	0.24069	0.09241	0.16009	0.26554	0.15408	0.14487	0.16307	0.15708	0.19627	0.19084	0.13108	0.10159	0.31518	-2.6292	-3.5104	-3.2208	-3.2667	-3.6458	-2.9167	-3.65	-3.7583	-3.0083	-3.5583	-3.3917	-3.1833	-3.6354	-3.1625	-3.275	-3.7313	516.789	184.437	462.951	454.395	242.244	469.407	504.961	170.292	386.355	317.575	206.855	515.511	379.261	494.766	263.923	391.426	0.0006651	0.00048777	9.3534e-05	1456.3	3.5861e-06	5.9884e-07	1433.4	373.21	4.9363e-06	6.4337e-06	424.27	141.77	123.83	42.15	3.239e-07	52.294	0.00056712	0.00054724	0.00016886	1475.5	6.125e-06	6.0198e-06	1460.5	381.79	6.0358e-06	6.0752e-06	434.14	145.56	126.34	43.398	6.6846e-06	53.852	518.967	515.951	363.436	182.533	285.397	364.259	181.972	186.857	398.068	298.427	186.500	190.454	190.775	196.035	391.150	195.245	-8191	255	
5207.682	1	1	0	0	0.25593	0.18261	0.28621	0.079032	0.057094	0.19035	0.26728	0.13665	0.058632	0.14001	0.23181	0.11142	0.061605	0.21044	0.20598	0.22355	-2.5167	-3.5354	-3.3875	-3.1083	-3.6646	-3.2917	-3.2604	-3.6375	-2.9771	-3.4896	-3.4708	-2.9667	-3.6875	-3.2542	-3.2021	-3.6167	515.980	524.627	418.614	373.450	435.829	458.116	501.871	495.160	479.559	396.658	218.613	447.458	172.276	449.413	470.175	422.611	0.00061092	0.00055222	0.00010558	1450.4	4.0724e-06	4.0016e-06	1434.8	374.73	2.1694e-06	5.0167e-06	422.2	141.89	124.08	42.24	4.0958e-06	51.949	0.00054737	0.0005727	0.00016828	1473.6	5.9588e-06	6.2683e-06	1461.8	381.55	5.9131e-06	6.3649e-06	433.8	145.45	126.1	43.541	6.5144e-06	53.754	174.829	324.213	277.827	182.465	208.763	312.091	182.135	186.799	346.658	237.160	186.476	190.332	190.446	196.054	297.773	195.434	-8191	255	
5207.780	1	1	0	0	0.13825	0.1526	0.10873	0.2646	0.087237	0.1938	0.059335	0.14227	0.19692	0.10291	0.15761	0.12923	0.17638	0.28761	0.018854	0.1209	-2.5833	-3.1833	-3.2917	-2.9917	-3.6125	-3.4354	-3.275	-3.9688	-3.1771	-3.2583	-3.675	-3.1042	-3.5458	-3.3854	-3.0854	-3.6604	311.349	190.218	261.989	470.577	169.172	444.299	508.111	492.308	360.576	421.287	422.676	482.345	453.495	229.034	186.333	380.037	0.00074668	0.00073125	0.00029184	1451.6	6.3816e-06	9.7691e-06	1435.1	374.39	7.0994e-06	3.9274e-06	423.86	142.38	124.4	42.128	6.8995e-06	52.16	0.0005437	0.00059286	0.0001649	1470.6	5.9133e-06	6.5342e-06	1458.6	380.98	5.913e-06	6.5651e-06	433.01	145.46	126.26	43.62	6.3564e-06	53.784	519.168	183.623	241.917	182.310	222.174	245.524	181.802	186.678	279.412	377.315	186.791	190.381	190.390	196.126	261.034	195.275	-8191	255	
5207.899	1	1	0	0	0.068203	0.11631	0.14769	0.27065	0.047405	0.23066	0.30502	0.26723	0.078589	0.0885	0.080216	0.26187	0.044722	0.060243	0.10745	0.41989	-2.5854	-3.4917	-3.5917	-3.3146	-3.4792	-3.3354	-3.2354	-3.7021	-3.0958	-3.0938	-3.5125	-2.9979	-3.4813	-3.4271	-2.975	-3.7604	249.620	304.843	169.155	449.211	438.175	519.308	461.830	452.332	307.183	217.524	416.829	479.095	372.807	207.971	206.554	505.857	0.00070902	0.00048361	0.00011334	1454.5	5.7586e-06	6.1315e-06	1436.6	374.68	5.4879e-06	5.2652e-06	424.15	142.03	124.68	42.327	5.8354e-06	52.156	0.00055437	0.00059954	0.00016265	1473	6.0454e-06	6.6134e-06	1462	380.84	6.195e-06	6.625e-06	433.71	145.05	127.52	43.704	6.3304e-06	53.765	522.793	227.174	303.631	182.109	276.771	456.163	181.998	187.094	217.834	349.120	186.568	190.358	189.895	196.163	365.404	195.209	-8191	255	
5207.970	1	1	0	0	0.0041661	0.23246	0.093449	0.20227	0.062499	0.11147	0.38799	0.049554	0.25791	0.14388	0.11055	0.07509	0.052446	0.21047	0.066317	0.29845	-2.6917	-3.2583	-3.4458	-3.2938	-3.4208	-3.4667	-3.2	-3.6688	-3.2146	-3.0271	-3.6708	-3.2167	-3.5354	-3.5417	-2.8979	-3.6771	256.263	232.005	185.335	462.847	389.660	454.348	433.549	385.964	468.588	452.721	400.266	183.825	374.329	478.741	263.303	462.108	0.000742	0.00075421	0.00018453	1452.7	3.115e-06	5.7816e-06	1437.8	375.37	5.9496e-06	1.1148e-05	423.83	142.76	124.29	42.232	6.1472e-06	52.26	0.00058333	0.00060494	0.00016071	1471.9	6.4087e-06	6.5616e-06	1460.9	381.26	6.5211e-06	6.5377e-06	432.57	145.27	127.68	43.615	6.2545e-06	53.732	521.939	259.484	356.371	182.529	247.753	270.255	182.043	186.772	292.183	317.138	186.438	190.289	190.512	196.202	346.651	195.154	-8191	255	
5208.091	1	1	0	0	0.081328	0.13816	0.094817	0.21968	0.18105	0.10352	0.16757	0.11862	0.30137	0.26591	0.076958	0.055242	0.28236	0.14047	0.15743	0.12056	-2.9542	-3.4083	-3.8063	-3.2167	-3.3375	-3.4437	-3.2542	-3.7062	-3.5563	-3.1521	-3.8521	-3.1333	-3.3792	-3.4875	-3.1333	-3.4417	483.191	178.013	275.086	509.599	245.243	497.875	484.474	422.322	466.558	403.076	497.984	276.270	274.906	201.511	256.622	489.543	0.00070312	0.00061298	0.00017386	1458	5.9701e-06	4.2355e-06	1440.1	375.11	3.8588e-06	2.0675e-06	424.39	142.29	124.21	42.31	6.7099e-06	52.159	0.00060732	0.00059404	0.00015705	1473	6.6333e-06	6.4897e-06	1460.1	381.52	6.682e-06	6.471e-06	432.44	145.59	128.16	43.577	5.9951e-06	53.842	519.519	482.722	310.607	182.553	258.025	242.803	181.939	186.868	174.505	495.046	186.622	190.112	190.521	196.319	281.886	195.497	-8191	255	
5208.187	1	1	0	0	0.066976	0.1735	0.20825	0.35852	0.057834	0.15021	0.3589	0.37398	0.087467	0.067554	0.20688	0.10001	0.11369	0.2085	0.15544	0.2252	-3.0229	-3.1354	-3.7	-3.3479	-3.0375	-3.5479	-3.1708	-3.7271	-3.6167	-2.9146	-3.7562	-3.1312	-3.2646	-3.6625	-2.8396	-3.5229	367.206	394.218	209.076	473.906	230.675	432.441	478.024	426.284	524.478	527.394	524.062	452.441	328.981	486.356	322.457	430.380	0.00064567	0.0010466	0.00018151	1458.8	2.305e-06	9.2842e-06	1431	373.9	3.1155e-06	6.3382e-06	424.74	142.52	125.24	42.404	3.2773e-06	52.089	0.00061028	0.00057583	0.00015076	1474.9	6.6174e-06	6.3475e-06	1456.1	381.48	6.5985e-06	6.2717e-06	432.06	145.96	127.98	43.605	5.8284e-06	54.008	524.390	275.207	232.679	182.480	356.020	316.897	182.029	186.851	394.598	345.406	186.633	190.359	190.347	196.167	483.999	195.510	-8191	255	
5208.283	1	1	0	0	0.080504	0.30703	0.29301	0.30555	0.035236	0.11797	0.19555	0.13195	0.10143	0.10856	0.18971	0.24733	0.27281	0.056403	0.19326	0.066515	-2.9854	-2.9917	-3.4771	-3.4313	-3.0625	-3.7479	-3.2729	-3.4083	-3.6312	-3.0604	-3.6479	-3.3646	-3.1167	-3.625	-3.0333	-3.4146	341.105	366.682	201.939	174.614	201.202	449.309	453.502	442.060	345.603	467.122	487.045	500.780	400.372	186.324	453.003	486.149	0.00071946	0.00049223	0.00020261	1460.3	4.8629e-06	4.8245e-06	1436	374.61	6.1327e-06	4.3417e-06	424.03	141.58	124.45	42.302	3.0783e-06	52.148	0.0006007	0.00056754	0.00014785	1478.8	6.4504e-06	6.154e-06	1457.8	382.21	6.5095e-06	6.1032e-06	431.61	145.85	127.64	43.506	6.0079e-06	53.952	169.627	316.755	245.234	182.342	248.224	322.123	181.907	186.946	286.742	348.700	186.325	190.459	190.460	196.176	257.390	195.116	-8191	255	
5208.380	1	1	0	0	0.16259	0.18092	0.27407	0.077089	0.21532	0.13202	0.15395	0.05162	0.099305	0.33802	0.18411	0.05221	0.23326	0.10264	0.13403	0.20303	-3.0646	-3.1042	-3.4562	-3.5687	-2.8521	-3.6125	-3.4375	-3.3146	-3.3729	-2.9042	-3.5146	-3.6417	-3.1875	-3.7542	-3.2125	-3.4708	244.469	444.746	486.993	228.434	474.750	392.794	432.029	249.946	348.729	409.038	176.941	407.484	225.969	292.735	205.557	477.080	0.00069377	0.00034444	0.0002454	1453.8	2.3976e-06	6.7931e-06	1434.2	373.33	7.9784e-06	3.6493e-06	424.81	141.76	123.98	42.252	4.9775e-06	52.125	0.0005897	0.00054851	0.00015185	1477.6	6.4421e-06	6.0391e-06	1457.5	382.66	6.4032e-06	5.9655e-06	433.16	145.93	127.37	43.434	6.2287e-06	54.145	528.630	309.811	251.882	182.270	345.678	326.971	182.206	186.788	314.435	371.150	186.495	190.426	190.535	196.154	261.149	195.296	-8191	255	
5208.500	1	1	0	0	0.14042	0.14083	0.021246	0.15297	0.20202	0.20807	0.12005	0.23331	0.062037	0.34967	0.0095054	0.097841	0.097713	0.18353	0.13721	0.13107	-3.2812	-2.8917	-3.4833	-3.6854	-2.9604	-3.6417	-3.4979	-3.2854	-3.75	-3.0687	-3.5729	-3.6667	-2.9292	-3.5271	-3.1917	-3.1	273.944	405.825	183.736	499.461	501.527	423.649	473.577	511.892	449.895	295.910	188.361	488.543	408.188	176.105	240.433	379.812	0.00079702	0.00030355	0.00013087	1455.8	6.4909e-06	2.3076e-06	1439.9	375.32	9.0301e-06	2.4125e-06	421.68	142.62	124.26	42.268	6.46e-06	51.95	0.00058132	0.0005322	0.00016014	1479.6	6.2852e-06	5.859e-06	1463.4	382.88	6.3107e-06	5.8671e-06	433.59	146.03	127.15	43.409	6.5414e-06	53.987	173.907	244.364	268.902	182.455	251.535	511.889	181.949	186.778	275.996	335.351	186.425	190.609	190.584	195.967	214.360	195.196	-8191	255	
5208.572	1	1	0	0	0.051229	0.090026	0.24937	0.22252	0.067387	0.19609	0.35118	0.22962	0.32873	0.071708	0.049053	0.23302	0.15285	0.081658	0.081558	0.14125	-3.2729	-2.8583	-3.2542	-3.6208	-2.9646	-3.6	-3.4792	-3.1667	-3.6104	-2.9813	-3.3229	-3.6229	-2.9854	-3.6146	-3.3563	-3.0062	453.184	463.623	329.783	507.895	225.115	211.074	178.105	180.146	193.205	478.648	273.045	467.834	187.302	211.343	479.521	198.623	0.00068301	0.0007319	0.00016509	1453.4	4.9579e-06	4.032e-06	1439	375.03	3.9219e-06	5.8011e-06	426.24	142.98	124.15	42.411	4.4246e-06	51.908	0.00057474	0.00053555	0.0001675	1478.1	6.1411e-06	5.9884e-06	1463	382.66	6.1299e-06	6.0376e-06	435.01	146.14	126.75	43.514	6.6681e-06	53.926	169.142	187.807	290.388	182.576	263.141	364.117	181.903	186.995	275.454	311.713	186.422	190.588	190.155	196.127	338.284	195.522	-8191	255	
5208.668	1	1	0	0	0.12378	0.10782	0.2992	0.37414	0.1174	0.063715	0.23973	0.37241	0.16529	0.15671	0.22915	0.24761	0.12051	0.21651	0.083931	0.17368	-3.3146	-3.1729	-3.2062	-3.7	-2.8937	-3.5062	-3.8042	-3.1854	-3.5542	-3.3042	-3.1542	-3.7375	-2.9167	-3.6333	-3.4917	-3.1396	395.555	289.991	506.348	455.275	498.854	312.015	455.565	492.294	414.417	196.014	412.120	466.861	484.100	528.125	449.485	232.384	0.00068427	0.0013551	0.00017249	1455.5	6.0385e-06	9.1204e-06	1440.7	374.64	4.0742e-06	3.29e-06	423.34	142.04	124.71	42.131	6.3009e-06	52.128	0.00055376	0.0005621	0.00016935	1477.5	5.9348e-06	6.2521e-06	1465.2	381.63	5.8899e-06	6.3108e-06	434.48	145.61	126.44	43.524	6.4981e-06	53.922	512.160	185.357	298.107	182.517	293.205	386.474	181.913	186.847	245.774	353.123	186.566	190.213	190.566	196.494	380.653	195.331	-8191	255	
#DATA ENDS
