BOXY.EXE: ISS Imagent and Oximeter Data Acquisition Program Version 0.80
Ascii Record File

#ACQ INFORMATION
2  Detector Channels 
16  External MUX Channels 
1  Auxiliary Channels 
5000  Waveform (CCF) Frequency (Hz)
1  Waveforms Skipped 
30  Waveforms Averaged 
1  Cycles Averaged 
16  Acquisitions per Waveform 
10.0806  Updata Rate (Hz) 

#FILE INFORMATION
TRUE -- External MUX Channel results are PARSED.
FALSE -- AC DC and Phase are NOT grouped.
TRUE -- Companion Program Settings File CREATED.
FALSE -- AC data not excluded
FALSE -- DC data not excluded
FALSE -- Phase data not excluded
FALSE -- Auxillary Chn. data not excluded
Tab delimiters

#CALIBRATION STATE
TRUE -- Waveform Calibration Values APPLIED.


#AUX CALIBRATION VALUES
Val Type	aux-1	

Term	1.0000e+00	
Factor	0.0000e+00	


#WF CALIBRATION VALUES
A = Detector Channel
Val Type	A-AC1	A-AC2	A-AC3	A-AC4	A-AC5	A-AC6	A-AC7	A-AC8	A-AC9	A-AC10	A-AC11	A-AC12	A-AC13	A-AC14	A-AC15	A-AC16	A-DC1	A-DC2	A-DC3	A-DC4	A-DC5	A-DC6	A-DC7	A-DC8	A-DC9	A-DC10	A-DC11	A-DC12	A-DC13	A-DC14	A-DC15	A-DC16	A-Ph1	A-Ph2	A-Ph3	A-Ph4	A-Ph5	A-Ph6	A-Ph7	A-Ph8	A-Ph9	A-Ph10	A-Ph11	A-Ph12	A-Ph13	A-Ph14	A-Ph15	A-Ph16	

Term	0.00000e+00	0.00000e+00	0.00000e+00	0.00000e+00	0.00000e+00	0.00000e+00	0.00000e+00	0.00000e+00	0.00000e+00	0.00000e+00	0.00000e+00	0.00000e+00	0.00000e+00	0.00000e+00	0.00000e+00	0.00000e+00	0.00000e+00	0.00000e+00	0.00000e+00	0.00000e+00	0.00000e+00	0.00000e+00	0.00000e+00	0.00000e+00	0.00000e+00	0.00000e+00	0.00000e+00	0.00000e+00	0.00000e+00	0.00000e+00	0.00000e+00	0.00000e+00	0.00000e+00	0.00000e+00	0.00000e+00	0.00000e+00	0.00000e+00	0.00000e+00	0.00000e+00	0.00000e+00	0.00000e+00	0.00000e+00	0.00000e+00	0.00000e+00	0.00000e+00	0.00000e+00	0.00000e+00	0.00000e+00	
Factor	1.00000e+00	1.00000e+00	1.00000e+00	1.00000e+00	1.00000e+00	1.00000e+00	1.00000e+00	1.00000e+00	1.00000e+00	1.00000e+00	1.00000e+00	1.00000e+00	1.00000e+00	1.00000e+00	1.00000e+00	1.00000e+00	1.00000e+00	1.00000e+00	1.00000e+00	1.00000e+00	1.00000e+00	1.00000e+00	1.00000e+00	1.00000e+00	1.00000e+00	1.00000e+00	1.00000e+00	1.00000e+00	1.00000e+00	1.00000e+00	1.00000e+00	1.00000e+00	X	X	X	X	X	X	X	X	X	X	X	X	X	X	X	X	

B = Detector Channel
Val Type	B-AC1	B-AC2	B-AC3	B-AC4	B-AC5	B-AC6	B-AC7	B-AC8	B-AC9	B-AC10	B-AC11	B-AC12	B-AC13	B-AC14	B-AC15	B-AC16	B-DC1	B-DC2	B-DC3	B-DC4	B-DC5	B-DC6	B-DC7	B-DC8	B-DC9	B-DC10	B-DC11	B-DC12	B-DC13	B-DC14	B-DC15	B-DC16	B-Ph1	B-Ph2	B-Ph3	B-Ph4	B-Ph5	B-Ph6	B-Ph7	B-Ph8	B-Ph9	B-Ph10	B-Ph11	B-Ph12	B-Ph13	B-Ph14	B-Ph15	B-Ph16	

Term	0.00000e+00	0.00000e+00	0.00000e+00	0.00000e+00	0.00000e+00	0.00000e+00	0.00000e+00	0.00000e+00	0.00000e+00	0.00000e+00	0.00000e+00	0.00000e+00	0.00000e+00	0.00000e+00	0.00000e+00	0.00000e+00	0.00000e+00	0.00000e+00	0.00000e+00	0.00000e+00	0.00000e+00	0.00000e+00	0.00000e+00	0.00000e+00	0.00000e+00	0.00000e+00	0.00000e+00	0.00000e+00	0.00000e+00	0.00000e+00	0.00000e+00	0.00000e+00	-4.91106e+01	-1.29134e+02	-1.27521e+02	-1.82803e+02	-4.69321e+01	-6.59653e+01	-1.55300e+02	-1.62015e+02	-3.08113e+01	-5.60136e+01	-1.72433e+02	-1.69655e+02	-1.79183e+02	-1.77693e+02	-4.59966e+01	-1.49676e+02	
Factor	2.21910e-05	1.68420e-04	4.73740e-05	1.71963e-01	2.02722e-06	1.93536e-06	1.62812e-01	5.14453e-02	1.28848e-06	1.77628e-06	9.95207e-02	3.07250e-02	2.96854e-02	1.01395e-02	1.68739e-06	1.45673e-02	8.04080e-06	1.07497e-05	2.97371e-06	8.54535e-02	1.12668e-07	1.18595e-07	7.62481e-02	2.57182e-02	1.11776e-07	1.19426e-07	4.83138e-02	1.49934e-02	1.50207e-02	5.11324e-03	1.16012e-07	7.12113e-03	X	X	X	X	X	X	X	X	X	X	X	X	X	X	X	X	



#DISTANCE SETTINGS
A = Detector Channel
A-1	A-2	A-3	A-4	A-5	A-6	A-7	A-8	A-9	A-10	A-11	A-12	A-13	A-14	A-15	A-16	

2.5000e+00	3.0000e+00	2.5000e+00	3.0000e+00	2.0000e+00	3.0000e+00	1.5000e+00	3.0000e+00	3.0000e+00	3.0000e+00	3.0000e+00	3.0000e+00	3.0000e+00	3.0000e+00	1.5000e+00	3.0000e+00	

B = Detector Channel
B-1	B-2	B-3	B-4	B-5	B-6	B-7	B-8	B-9	B-10	B-11	B-12	B-13	B-14	B-15	B-16	

1.0000e+01	1.0000e+01	1.0000e+01	1.4400e+00	1.0000e+01	1.0000e+01	1.5100e+00	1.9400e+00	1.0000e+01	1.0000e+01	1.9900e+00	2.4900e+00	2.4100e+00	2.9000e+00	1.0000e+01	2.9800e+00	




#DATA BEGINS
time	group	step	mark	flag	A-AC1	A-AC2	A-AC3	A-AC4	A-AC5	A-AC6	A-AC7	A-AC8	A-AC9	A-AC10	A-AC11	A-AC12	A-AC13	A-AC14	A-AC15	A-AC16	A-DC1	A-DC2	A-DC3	A-DC4	A-DC5	A-DC6	A-DC7	A-DC8	A-DC9	A-DC10	A-DC11	A-DC12	A-DC13	A-DC14	A-DC15	A-DC16	A-Ph1	A-Ph2	A-Ph3	A-Ph4	A-Ph5	A-Ph6	A-Ph7	A-Ph8	A-Ph9	A-Ph10	A-Ph11	A-Ph12	A-Ph13	A-Ph14	A-Ph15	A-Ph16	B-AC1	B-AC2	B-AC3	B-AC4	B-AC5	B-AC6	B-AC7	B-AC8	B-AC9	B-AC10	B-AC11	B-AC12	B-AC13	B-AC14	B-AC15	B-AC16	B-DC1	B-DC2	B-DC3	B-DC4	B-DC5	B-DC6	B-DC7	B-DC8	B-DC9	B-DC10	B-DC11	B-DC12	B-DC13	B-DC14	B-DC15	B-DC16	B-Ph1	B-Ph2	B-Ph3	B-Ph4	B-Ph5	B-Ph6	B-Ph7	B-Ph8	B-Ph9	B-Ph10	B-Ph11	B-Ph12	B-Ph13	B-Ph14	B-Ph15	B-Ph16	aux-1	digaux	

41554.820	1	1	0	512	0.28206	0.49731	0.25035	0.19796	0.09574	0.22034	0.18429	0.12191	0.074001	0.20112	0.23167	0.084613	0.17046	0.22111	0.16892	0.17296	-2.4896	-2.625	-2.9417	-2.9875	-2.7708	-3.0167	-2.6771	-3.0125	-2.9688	-2.525	-3.1646	-3.0187	-2.9188	-3.0792	-2.9229	-2.8125	56.080	242.475	59.207	324.494	157.134	7.809	267.199	15.519	27.876	284.800	297.184	183.242	309.346	300.738	212.782	72.544	0.00024651	0.00035304	0.00011704	477.72	6.4837e-06	3.4021e-06	443.83	180.35	2.7779e-06	2.87e-06	198.59	92.363	82.515	44.743	3.8326e-06	49.051	0.00033086	0.0003233	8.2632e-05	464.1	3.5479e-06	3.3809e-06	433.66	178.1	3.4627e-06	3.3604e-06	194.28	91.342	81.762	44.532	3.4192e-06	48.337	223.049	62.461	70.423	-0.694	144.780	137.993	-1.124	5.254	208.221	143.414	2.366	6.600	9.273	12.984	153.275	8.785	-8191	255	
41554.941	1	1	0	0	0.21882	0.16999	0.12297	0.12202	0.31676	0.10073	0.2885	0.082503	0.17879	0.23003	0.32871	0.16641	0.082805	0.09088	0.088657	0.08881	-2.7792	-2.7458	-3.2292	-3.0521	-2.75	-3.1896	-3.0083	-2.9646	-3.1021	-2.5729	-3.0521	-2.9167	-2.75	-3.0729	-2.9021	-2.7958	27.086	151.279	213.560	47.306	92.371	119.244	324.241	102.028	28.052	172.822	267.412	102.442	167.735	10.890	237.384	267.171	0.00025418	0.0002123	0.00016883	472.76	2.92e-06	2.8068e-06	438.52	180.21	2.4236e-06	2.3579e-06	194.94	91.728	81.723	44.367	3.2595e-06	48.493	0.00034048	0.00033116	9.1045e-05	463.08	3.6969e-06	3.5104e-06	429.52	177.11	3.7887e-06	3.6587e-06	192.11	90.262	81.175	44.222	3.636e-06	47.839	218.895	62.757	103.477	-0.826	156.656	154.193	-0.972	5.216	181.386	116.240	2.717	6.451	9.484	12.888	186.868	9.041	-8191	255	
41555.039	1	1	0	0	0.10851	0.1422	0.18258	0.098917	0.10966	0.19825	0.2705	0.158	0.15439	0.19462	0.27932	0.30027	0.10712	0.057063	0.16932	0.14739	-2.7313	-2.7104	-3.0229	-3.1833	-2.6688	-3.1667	-2.85	-2.8625	-3.2396	-2.6688	-3.05	-2.9688	-2.85	-2.9375	-2.6896	-2.7708	7.519	0.094	92.481	104.560	136.891	54.330	269.512	279.370	171.527	197.920	177.553	343.715	229.975	277.854	71.716	222.989	0.0002389	0.00041369	0.00013063	470.67	5.2428e-06	4.9116e-06	437.87	179.69	2.3496e-06	1.8896e-06	195.28	92.156	82.303	44.909	3.2589e-06	48.933	0.00034279	0.00033073	9.7222e-05	460.54	3.604e-06	3.3987e-06	427.97	177.38	3.4476e-06	3.4785e-06	191.86	90.873	81.574	44.568	3.7672e-06	48.273	214.931	84.655	65.617	-0.537	166.502	138.144	-0.767	5.116	162.785	134.609	2.296	6.426	9.544	13.020	165.632	9.061	-8191	255	
41555.137	1	1	0	0	0.19887	0.20622	0.042016	0.10593	0.1948	0.062235	0.062659	0.09858	0.19952	0.11234	0.11119	0.060308	0.12518	0.161	0.21485	0.26284	-2.5479	-2.5979	-2.8583	-2.9458	-2.6458	-2.85	-2.7208	-2.6083	-3.0333	-2.7854	-2.9375	-2.8708	-2.6854	-2.8479	-2.8208	-2.7167	238.824	171.244	42.495	223.769	178.627	208.737	274.168	278.060	7.185	69.390	120.655	300.074	279.060	278.598	-4.542	279.604	0.00026035	0.00053125	8.9838e-05	475.75	6.6938e-06	2.9397e-06	443.5	180.57	3.3171e-06	4.2656e-06	197.76	92.206	82.066	45.095	3.3856e-06	49.608	0.00034245	0.00031622	9.8876e-05	464.25	3.527e-06	3.5247e-06	432.72	178.55	3.4951e-06	3.4106e-06	194.31	91.273	81.63	44.817	3.8405e-06	48.741	219.446	93.493	75.956	-0.544	131.627	132.286	-1.244	5.231	181.511	119.276	2.535	6.430	9.352	12.816	152.997	9.136	-8191	255	
41555.230	1	1	0	0	0.06763	0.2114	0.26924	0.17417	0.21553	0.093354	0.13118	0.34895	0.094115	0.096454	0.035649	0.27355	0.24137	0.32541	0.29981	0.19898	-2.4896	-2.9417	-2.9167	-3.0146	-2.6063	-3.1104	-2.8688	-2.8375	-2.9938	-2.9083	-2.7604	-3.1437	-2.7854	-2.9667	-3	-2.7917	264.741	108.547	264.055	304.826	220.403	201.952	276.645	-0.214	113.467	41.733	268.199	294.627	165.871	40.644	273.729	201.215	0.00025337	0.0003558	0.00012903	478.45	1.1959e-06	2.6317e-06	446.97	182.68	1.7915e-06	4.9146e-06	197.72	93.148	82.133	45.333	2.2953e-06	49.478	0.00033673	0.00032486	9.9396e-05	466.95	3.5955e-06	3.6594e-06	436.3	179.56	3.6686e-06	3.7517e-06	195.06	91.669	81.839	45.039	4.0232e-06	48.766	218.699	88.335	55.626	-0.488	205.798	114.720	-0.997	5.279	200.059	159.089	2.152	6.642	9.655	13.021	146.131	9.161	-8191	255	
41555.328	1	1	0	0	0.18685	0.1371	0.16421	0.11098	0.17528	0.29386	0.24688	0.10909	0.11776	0.18296	0.093347	0.41078	0.25875	0.15877	0.083424	0.13447	-2.4542	-2.7875	-2.7208	-3.1208	-2.7125	-3.1042	-2.8667	-2.7396	-2.9813	-2.8	-2.975	-3.1354	-2.8896	-2.8479	-2.8646	-2.9458	256.831	108.845	242.321	345.240	270.715	255.899	194.313	319.121	125.267	281.324	346.019	-9.283	183.700	301.111	246.431	280.802	0.00026573	0.00026373	8.4108e-05	473.45	2.028e-06	4.5938e-06	444.43	181.07	4.2216e-06	4.8463e-06	195.65	91.993	82.395	45.23	3.0124e-06	49.515	0.00033887	0.00033944	0.00010562	464.51	3.6228e-06	3.8106e-06	432.07	178.73	3.5906e-06	3.9075e-06	193.12	90.811	81.638	44.934	4.1341e-06	48.554	216.612	83.353	49.637	-0.432	157.537	159.924	-1.003	5.104	177.858	162.118	2.569	6.425	9.198	13.070	202.843	9.165	-8191	255	
41555.422	1	1	0	0	0.19718	0.11489	0.10059	0.080393	0.082196	0.17404	0.071753	0.23544	0.088589	0.11275	0.16236	0.22594	0.26354	0.093793	0.1407	0.090875	-2.6146	-2.875	-2.7938	-3.1437	-2.75	-2.7979	-3.35	-2.7208	-3.1583	-2.9333	-2.7979	-3.2438	-2.8396	-2.9917	-3.0854	-2.9667	61.507	92.532	65.886	27.703	94.964	228.192	211.143	14.200	263.745	116.898	109.726	163.727	3.710	205.913	100.441	243.620	0.00023979	0.00020682	9.2987e-05	475.14	5.5845e-06	1.8094e-06	443.79	181.55	2.9529e-06	4.1354e-06	196.74	92.635	81.919	45.182	1.2023e-06	49.694	0.00035055	0.00037219	0.00010759	464.54	3.6005e-06	3.9186e-06	432.91	178.91	3.7536e-06	3.9127e-06	193.91	91.239	81.657	45.008	3.8862e-06	48.88	220.519	12.996	56.029	-0.462	172.497	45.609	-1.223	5.269	148.905	121.541	2.700	6.336	9.444	12.908	131.850	8.828	-8191	255	
41555.520	1	1	0	0	0.094296	0.22424	0.10648	0.17332	0.098904	0.18772	0.074854	0.25367	0.13815	0.22622	0.086677	0.09056	0.042423	0.15947	0.20365	0.11806	-2.6063	-2.8979	-2.85	-3.1333	-2.8438	-2.9458	-3.2104	-2.9417	-3.0521	-3.075	-2.8479	-3.2417	-3.0458	-3.0667	-3.2208	-2.9042	64.395	12.361	277.817	59.412	1.331	178.678	332.458	324.698	283.687	171.119	336.062	319.410	17.126	-2.697	31.577	199.337	0.00020526	0.00049131	0.00013402	479.9	4.9868e-06	3.3602e-06	450.85	182.96	2.293e-06	4.7428e-06	198.94	92.32	82.008	45.581	1.4704e-06	49.913	0.00034857	0.00036014	0.00010158	469.22	3.6117e-06	3.9161e-06	437.94	180.25	3.7694e-06	3.9851e-06	195.49	91.42	81.742	45.34	3.9814e-06	49.184	219.068	121.077	76.805	-0.793	140.509	124.382	-1.233	5.511	224.542	179.681	2.370	6.534	9.520	13.110	239.160	8.983	-8191	255	
41555.637	1	1	0	0	0.010525	0.16801	0.16331	0.21807	0.12551	0.376	0.37539	0.075705	0.15333	0.023921	0.35992	0.31923	0.13913	0.2918	0.1369	0.46931	-2.5375	-2.9917	-2.6667	-2.9938	-2.7562	-3.0792	-3.0708	-2.8854	-2.9875	-3.1875	-2.7687	-3.0625	-2.9938	-2.9542	-3.1229	-2.6604	78.444	253.106	305.981	309.744	323.531	62.259	282.498	0.833	246.295	38.498	328.034	243.989	283.365	293.662	277.767	13.117	0.00025336	0.00023913	0.00013099	475.83	3.2432e-06	4.868e-06	446.8	182.13	1.9706e-06	3.5675e-06	197.53	92.298	82.291	45.107	1.1004e-06	49.358	0.00035887	0.00036043	0.00010232	466.8	3.9155e-06	4.0631e-06	435.48	179.32	4.2265e-06	4.1652e-06	193.5	90.825	81.439	44.848	4.1056e-06	48.61	224.532	61.994	89.799	-0.464	166.573	163.033	-1.173	5.150	188.534	118.911	2.462	6.293	9.992	12.893	180.084	9.258	-8191	255	
41555.734	1	1	0	0	0.1821	0.080912	0.16402	0.25469	0.069997	0.21777	0.20821	0.30937	0.10077	0.10598	0.092448	0.29419	0.10004	0.23198	0.20307	0.31986	-2.5333	-2.9958	-2.8063	-3.0958	-2.8917	-2.6958	-3.1396	-2.7562	-3.0062	-2.9979	-2.7917	-2.9708	-2.8375	-2.7542	-3.0833	-2.8	149.980	306.836	18.145	-10.761	6.955	134.479	294.596	290.665	329.168	118.729	207.168	245.608	194.720	0.700	178.644	289.532	0.00022484	0.00044427	3.2477e-05	475.72	5.2301e-06	3.0711e-06	442.41	180.91	1.5356e-06	3.585e-06	193.76	91.144	81.429	44.889	2.4117e-06	49.195	0.00037837	0.00038341	0.00010216	466.08	4.1206e-06	4.2805e-06	432.57	178.09	4.3986e-06	4.2384e-06	191.96	90.048	80.885	44.578	4.0923e-06	48.358	216.732	70.767	75.330	-0.275	153.221	206.972	-0.890	5.496	196.856	183.814	2.675	6.699	9.336	13.136	180.390	8.809	-8191	255	
41555.832	1	1	0	0	0.44717	0.28217	0.16743	0.068742	0.097497	0.16488	0.22386	0.28899	0.12837	0.26437	0.17511	0.1601	0.15257	0.12181	0.14224	0.055588	-2.3	-2.9792	-2.7417	-2.7854	-3.0396	-2.7604	-3.1667	-2.9292	-2.8604	-3.05	-2.925	-2.9313	-2.9667	-2.6875	-3.0333	-2.9604	327.179	-10.117	179.620	286.141	169.044	86.952	251.117	308.839	211.152	66.413	32.402	327.212	328.048	201.586	47.147	261.060	0.00025191	0.00042531	0.00011545	474.76	5.3875e-06	3.8935e-06	440.28	179.79	1.3523e-06	4.1929e-06	195.84	91.388	81.754	44.803	3.419e-06	49.381	0.00039628	0.00038858	0.00010467	464.14	4.4694e-06	4.3796e-06	430.44	177.38	4.5796e-06	4.3411e-06	192.04	90.222	81.03	44.566	3.9898e-06	48.552	222.055	65.841	90.201	-0.158	156.162	157.690	-0.716	5.290	151.961	118.275	2.456	6.948	9.369	12.777	204.473	9.116	-8191	255	
41555.902	1	1	0	0	0.1676	0.2097	0.13395	0.10258	0.26298	0.089083	0.24251	0.023535	0.15749	0.087477	0.14836	0.14045	0.050741	0.16157	0.11795	0.11532	-2.3354	-2.9583	-2.8729	-2.9708	-2.9208	-2.8312	-3.0187	-3.0167	-2.7146	-2.9729	-2.8	-2.7708	-3.0708	-2.8812	-3.0479	-2.9729	7.882	174.768	152.215	86.234	191.092	130.068	332.598	134.946	129.816	228.933	280.519	259.028	241.189	340.441	142.184	337.005	0.00025266	0.00042138	8.859e-05	475.14	4.2637e-06	5.1921e-06	444.26	181.2	3.0477e-06	1.9541e-06	196.92	91.768	82.164	45.207	3.9381e-06	49.707	0.00039614	0.00038193	9.8399e-05	464.55	4.1598e-06	3.9035e-06	433.81	178.22	4.18e-06	4.0577e-06	193.39	90.742	81.346	44.828	4.1436e-06	48.707	210.604	112.913	87.293	-0.756	119.371	97.347	-0.986	5.239	192.532	115.688	2.393	6.916	9.384	12.863	176.235	9.038	-8191	255	
41556.023	1	1	0	0	0.15602	0.19774	0.3461	0.12197	0.038634	0.10886	0.14526	0.18119	0.14617	0.14585	0.20572	0.11317	0.18413	0.44701	0.20344	0.20235	-2.3604	-2.9646	-2.6354	-2.7958	-3.0292	-2.8187	-3.0667	-3.1312	-2.6208	-3.1271	-2.7479	-2.725	-2.9417	-2.7812	-3.0167	-2.9729	28.791	335.913	140.306	309.132	116.757	10.496	270.627	107.972	291.622	157.822	345.791	5.120	50.900	298.669	26.881	321.777	0.00022059	0.00026251	0.0001056	474.43	6.1484e-06	1.6632e-06	437.45	179.54	2.2319e-06	6.353e-06	194.86	91.218	81.427	44.953	2.9451e-06	49.269	0.000378	0.00036645	0.00010141	463.56	4.0255e-06	4.0476e-06	428.52	177.09	4.2757e-06	3.9518e-06	191.32	89.948	80.785	44.689	4.2236e-06	48.625	220.538	92.389	97.328	-0.357	158.276	92.984	-1.196	5.159	202.016	160.315	2.320	7.017	9.301	12.957	174.587	8.879	-8191	255	
41556.117	1	1	0	0	0.23655	0.12469	0.09002	0.23331	0.18942	0.10749	0.052137	0.056154	0.12973	0.17251	0.19668	0.21959	0.059922	0.0724	0.33713	0.14365	-2.2542	-3.0062	-2.7875	-2.8042	-2.9604	-2.6688	-3.1813	-2.9813	-2.7792	-3.1188	-2.7604	-2.7917	-3.0292	-2.7125	-2.8	-3.2167	115.415	38.402	81.448	193.684	44.355	294.831	313.954	60.751	317.657	77.607	24.512	41.712	2.261	50.586	290.617	316.864	0.00022514	0.00059017	0.00016369	473.97	4.5182e-06	3.0857e-06	442.5	180.36	3.1513e-06	3.0372e-06	195.49	92.041	81.862	45.116	2.6883e-06	49.839	0.00036748	0.00035015	9.944e-05	464.43	3.8913e-06	3.6621e-06	431.4	178.01	3.9904e-06	3.738e-06	192.59	90.871	81.23	44.843	4.2978e-06	48.954	223.012	84.768	115.843	-0.419	166.413	162.815	-1.040	5.595	158.341	82.431	2.489	6.502	9.870	12.729	187.153	9.130	-8191	255	
41556.215	1	1	0	0	0.15439	0.11	0.087917	0.16246	0.052434	0.18756	0.10238	0.078745	0.12136	0.27543	0.095458	0.11336	0.13871	0.051803	0.095128	0.045985	-2.2938	-3.1729	-2.9521	-2.6875	-3.0729	-2.8021	-2.9021	-3.1312	-2.7021	-3.0563	-3.0521	-2.7333	-3.1562	-2.8479	-2.7521	-3.1042	270.108	103.906	302.047	179.491	131.943	138.634	188.034	327.650	101.561	158.435	277.111	105.337	21.368	81.329	167.519	17.955	0.0002305	0.00035987	6.1724e-05	473.95	4.4882e-06	3.0347e-06	444.84	180.62	6.5134e-07	3.5451e-06	197.52	92.576	81.444	45.283	2.7319e-06	49.754	0.00037031	0.00035277	0.00010087	464.38	3.6657e-06	3.738e-06	434.39	178.38	3.812e-06	3.8983e-06	193.97	91.269	81.088	44.816	4.3086e-06	49	215.522	63.702	44.176	-0.370	163.645	121.300	-1.254	5.179	159.609	150.270	2.043	6.695	9.657	13.142	194.398	9.002	-8191	255	
41556.312	1	1	0	0	0.1249	0.1649	0.067734	0.054136	0.20751	0.30581	0.3414	0.086682	0.075816	0.09504	0.13844	0.16838	0.15828	0.37342	0.30018	0.11712	-2.0646	-3.0187	-2.8604	-2.6729	-2.8875	-2.9292	-2.9042	-3.0062	-2.6521	-3.0583	-2.8146	-2.7042	-3.1875	-2.8	-2.6875	-2.9833	155.950	18.642	239.706	320.678	68.636	262.168	321.914	339.626	274.726	220.378	84.011	-2.060	18.604	288.206	186.147	98.759	0.00025711	0.00041395	7.1064e-05	472.55	5.8795e-06	2.6255e-06	439.86	179.15	2.6684e-06	4.6765e-06	195.61	91.731	81.289	44.868	2.2533e-06	49.334	0.0003612	0.00036878	0.00010513	463.74	3.8293e-06	3.9858e-06	430.53	177.08	3.7068e-06	4.0801e-06	191.82	90.331	80.558	44.595	4.4553e-06	48.653	225.281	89.423	44.819	-0.486	156.021	126.521	-0.922	5.521	150.671	156.867	2.187	6.533	9.767	12.801	150.147	8.709	-8191	255	
41556.430	1	1	0	0	0.15714	0.11382	0.16509	0.16017	0.29449	0.065675	0.10177	0.20763	0.33332	0.01295	0.14676	0.14481	0.12922	0.30602	0.22571	0.22925	-2	-2.8021	-2.9813	-2.8542	-3.0354	-2.9542	-2.7021	-3.05	-2.9062	-2.8563	-2.8396	-2.5875	-3.0687	-2.8854	-2.5604	-3.1292	213.228	24.208	52.080	41.038	233.295	128.822	268.691	12.144	56.201	242.163	25.058	330.461	46.686	4.015	96.553	-4.054	0.00022311	0.00043485	0.00012127	472.26	3.6807e-06	3.3802e-06	438.32	179.02	2.5586e-06	2.9405e-06	194.7	91.473	81.271	44.592	2.131e-06	49.584	0.0003539	0.000374	0.00010246	461.7	3.7307e-06	3.9413e-06	428.76	176.7	3.6788e-06	4.2767e-06	191.65	90.366	80.885	44.603	4.3497e-06	48.848	217.681	84.129	98.876	-0.477	133.399	117.351	-1.206	5.287	182.030	126.327	2.469	6.755	9.737	13.047	207.287	8.923	-8191	255	
41556.527	1	1	0	0	0.24062	0.29669	0.087276	0.16004	0.18615	0.11089	0.038564	0.069831	0.072986	0.17045	0.12044	0.15438	0.14339	0.15867	0.051801	0.13298	-2.2521	-2.8521	-2.9458	-2.7771	-2.9	-2.9583	-2.8042	-2.8896	-2.6896	-2.7208	-3.075	-2.6583	-3.0417	-2.9396	-2.7854	-3.05	70.824	158.547	151.621	61.525	249.431	138.171	178.032	153.412	287.533	-3.194	310.451	39.503	64.090	304.210	223.670	54.882	0.00024258	0.00056006	0.00010413	474.78	4.367e-06	5.9435e-06	443.92	181.13	2.5144e-06	4.023e-06	197.28	92.326	81.589	45.224	2.9416e-06	49.915	0.00035289	0.00037758	0.00010301	463.28	3.8699e-06	3.9586e-06	433.37	177.92	3.9366e-06	4.1859e-06	193.54	90.826	81.138	44.903	4.4068e-06	49.132	227.361	89.091	75.212	-0.509	148.788	117.708	-1.346	5.408	177.229	176.912	2.349	6.841	9.593	12.895	205.520	9.132	-8191	255	
41556.621	1	1	0	0	0.051428	0.13096	0.25294	0.11005	0.051518	0.19623	0.22743	0.070849	0.244	0.080712	0.069634	0.081071	0.32554	0.3842	0.070963	0.23425	-2.2354	-2.7479	-2.9396	-2.7042	-3.0687	-2.7479	-2.85	-3.0521	-2.8771	-2.9813	-2.9583	-2.7125	-2.9542	-3.0625	-2.8479	-2.9562	-9.650	111.725	163.626	288.726	-0.148	149.559	296.836	228.063	168.320	185.633	31.950	334.473	335.558	313.560	252.989	111.078	0.00029755	0.00033886	8.3091e-05	474.07	2.8963e-06	4.0311e-06	443.88	181.08	3.8556e-06	3.4086e-06	195.12	91.641	81.633	44.992	3.9777e-06	49.804	0.00036643	0.00038871	0.00010158	464.41	4.0192e-06	4.2131e-06	433.13	178.17	4.0053e-06	4.3961e-06	193.09	90.629	81.163	44.866	4.2124e-06	49.021	220.607	85.228	64.051	-0.403	139.212	126.967	-1.197	5.415	176.341	141.682	2.521	6.717	9.888	13.116	183.087	8.936	-8191	255	
41556.719	1	1	0	0	0.24223	0.3468	0.22848	0.23059	0.17882	0.055063	0.31228	0.19252	0.1488	0.20233	0.12694	0.15868	0.239	0.19104	0.024568	0.2118	-2.4708	-2.6583	-2.9083	-2.8354	-2.9708	-3.0375	-2.6042	-3.0333	-2.9146	-2.7396	-2.8833	-2.7292	-2.8896	-3.15	-2.6521	-3.1396	218.206	135.137	222.606	214.765	313.828	123.920	175.678	244.421	107.948	162.549	4.840	181.370	301.187	321.441	223.545	257.651	0.00024795	0.00048001	5.6491e-05	470.96	2.3719e-06	4.0309e-06	437.19	179.69	2.7344e-06	3.3896e-06	195.3	91.835	81.535	44.87	2.6174e-06	49.419	0.00036405	0.00039559	9.8393e-05	462.58	4.1791e-06	4.2109e-06	428.77	176.89	4.145e-06	4.3459e-06	191.1	90.122	80.716	44.582	4.2627e-06	48.759	221.166	84.398	42.769	-0.515	122.560	149.967	-1.176	5.380	150.332	159.016	2.746	6.729	9.989	13.023	211.710	9.050	-8191	255	
41556.816	1	1	0	0	0.24185	0.18901	0.097727	0.28798	0.08908	0.15057	0.098148	0.11197	0.21148	0.12998	0.15612	0.084492	0.15872	0.038109	0.055066	0.28635	-2.5583	-2.8	-3.1167	-2.7375	-2.7958	-3.0708	-2.7229	-2.9833	-2.8875	-2.6458	-3.1958	-2.7729	-2.8271	-3.1542	-2.7313	-3.1042	56.982	75.745	106.294	23.584	92.056	225.960	4.194	169.818	105.180	197.728	78.802	280.634	300.895	258.895	224.334	306.280	0.00026903	0.00024543	6.3325e-05	469.63	4.9149e-06	4.2048e-06	437.38	180.14	1.3859e-06	3.8545e-06	195.28	91.07	80.915	44.983	1.7636e-06	49.638	0.00039755	0.00040365	0.00010288	461.45	4.4481e-06	4.2998e-06	428.77	177.02	4.3085e-06	4.6074e-06	191.64	90.072	80.766	44.788	4.1769e-06	48.98	212.755	103.294	34.169	-0.290	149.798	106.520	-1.236	5.148	157.489	176.638	2.516	6.898	9.658	12.920	197.321	8.922	-8191	255	
41556.910	1	1	0	0	0.1119	0.11171	0.13418	0.25153	0.096776	0.19703	0.22531	0.15904	0.14803	0.24965	0.21705	0.19307	0.25701	0.25306	0.19967	0.17415	-2.4271	-2.5771	-3.0187	-2.6208	-2.8125	-3.0354	-2.7792	-2.8042	-3.1333	-2.6312	-3.1167	-2.9146	-2.8063	-3.1792	-2.8063	-3.0833	163.253	90.771	7.711	64.041	233.376	222.797	149.278	258.171	167.066	107.741	311.510	334.513	-1.492	147.597	23.206	306.296	0.00024911	0.00048407	0.00015642	472.25	6.5335e-06	4.2761e-06	445.63	179.9	2.3775e-06	3.5344e-06	195.99	91.84	82.171	45.11	4.4206e-06	49.995	0.00038415	0.00037458	9.97e-05	463.53	4.3276e-06	3.992e-06	433.65	177.92	4.1723e-06	4.1593e-06	193.39	90.767	81.184	44.86	4.1054e-06	49.318	226.382	87.510	84.115	-0.262	141.769	132.304	-1.025	5.064	145.937	201.690	2.356	6.733	9.595	12.964	160.266	9.047	-8191	255	
41557.031	1	1	0	0	0.052471	0.25592	0.093097	0.094105	0.081328	0.21388	0.19169	0.24353	0.39244	0.11121	0.11171	0.19315	0.1116	0.11687	0.14087	0.11358	-2.4875	-2.5417	-2.8854	-3.1042	-2.8667	-3.1479	-2.8354	-2.8167	-3.0917	-2.8146	-3.0917	-2.8937	-2.8708	-3.0521	-2.9354	-2.9396	322.280	158.772	58.661	333.049	344.871	332.052	241.633	72.810	100.058	70.568	245.653	-10.115	225.325	90.974	-3.470	260.685	0.00025316	0.00033239	0.00010619	473	3.6123e-06	2.6053e-06	442.46	180.27	3.461e-06	3.7751e-06	195.28	91.474	81.099	45.092	8.2906e-07	49.867	0.00038246	0.00036493	0.0001008	465	4.311e-06	3.9522e-06	431.54	177.71	4.1553e-06	3.9851e-06	192.24	90.282	80.532	44.818	4.1738e-06	49.169	216.559	58.889	105.747	-0.254	151.538	96.526	-1.096	5.225	194.337	155.195	2.082	6.879	9.425	13.056	104.147	8.799	-8191	255	
41557.129	1	1	0	0	0.2007	0.18617	0.21179	0.25724	0.23807	0.31421	0.054264	0.44245	0.081199	0.14548	0.16487	0.040135	0.070716	0.18434	0.2524	0.23031	-2.6292	-2.4958	-2.9667	-2.7562	-2.7292	-2.8875	-2.7542	-2.7	-3.1188	-2.6854	-2.9	-2.9625	-2.6229	-3.0521	-2.7687	-2.9292	14.587	267.353	154.340	299.143	305.852	334.449	191.844	317.230	19.808	5.145	230.205	284.632	225.209	248.371	292.294	345.637	0.00024571	0.00032887	9.7802e-05	473.81	3.9766e-06	3.6274e-06	442.14	181.78	2.6524e-06	3.8887e-06	195.66	91.929	81.552	45.176	2.8585e-06	50.221	0.00036683	0.00035091	9.8591e-05	464.45	4.1861e-06	3.8286e-06	433.28	178.19	3.9827e-06	3.8975e-06	193.12	90.578	80.997	44.969	4.2426e-06	49.304	222.699	105.958	107.650	-0.438	176.447	101.155	-0.715	5.097	207.350	103.878	2.664	6.740	9.623	12.834	154.630	9.252	-8191	255	
41557.199	1	1	0	0	0.1276	0.21317	0.25187	0.25507	0.26598	0.24249	0.25579	0.07357	0.17998	0.14302	0.081646	0.058054	0.034471	0.14649	0.20665	0.18435	-2.5542	-2.6292	-2.7583	-3.1	-2.4729	-2.9083	-2.9208	-2.9396	-3.2	-2.8063	-3.0021	-3.0062	-2.7542	-3.2104	-2.8354	-2.6771	161.513	-2.391	199.233	267.125	123.922	49.019	335.856	320.589	213.297	237.311	262.674	168.151	81.929	324.369	189.945	322.514	0.0002478	0.00046095	5.1576e-05	474.68	4.0813e-06	1.6289e-06	446.33	180.81	2.2711e-06	3.8067e-06	195.91	92.503	81.682	45.274	2.9527e-06	50.358	0.00036934	0.00035859	0.00010246	464.11	4.1058e-06	3.9391e-06	434.09	178.36	3.8297e-06	3.9923e-06	193.66	90.947	81.033	45.012	4.2613e-06	49.499	222.487	83.269	77.540	-0.433	163.583	36.076	-1.091	5.465	193.271	134.332	2.970	6.646	9.520	13.131	165.903	9.123	-8191	255	
41557.320	1	1	0	0	0.31638	0.31338	0.050775	0.057656	0.26524	0.022373	0.18002	0.24501	0.037291	0.1095	0.18159	0.10618	0.1072	0.23343	0.23924	0.23648	-2.5042	-2.6937	-2.9479	-2.8958	-2.6813	-3.0229	-2.8604	-2.65	-3.0271	-2.7125	-3.0062	-3.125	-2.7771	-3.0187	-2.9938	-2.6917	201.106	69.373	255.275	59.985	81.266	57.745	-9.922	198.967	117.264	141.631	198.856	-8.563	307.918	322.136	209.078	296.816	0.00024692	0.00038234	5.5257e-05	475.04	4.9232e-06	3.435e-06	447.6	182.27	1.6231e-06	4.5181e-06	195.34	92.282	81.786	45.236	6.7524e-06	50.032	0.00036559	0.00036681	0.00010809	466.89	3.9145e-06	4.092e-06	436.53	179.13	3.6288e-06	3.9602e-06	193.44	91.012	81.055	44.978	4.146e-06	49.354	219.290	108.694	81.800	-0.178	149.517	106.120	-1.174	5.419	168.947	150.315	2.153	6.612	9.650	13.209	172.290	8.745	-8191	255	
41557.414	1	1	0	0	0.10476	0.13004	0.26504	0.18092	0.25776	0.11424	0.24059	0.03502	0.1521	0.16758	0.3353	0.18925	0.26666	0.28076	0.059247	0.10473	-2.6688	-2.7271	-2.8812	-2.8729	-2.8	-2.8833	-2.9833	-2.5438	-3.1083	-2.7729	-2.9	-3.0479	-2.7	-2.9604	-2.9646	-2.7417	203.596	251.483	88.075	278.863	266.490	41.090	344.617	114.659	287.299	253.456	19.490	316.211	275.465	310.935	71.776	328.723	0.00027016	0.00029565	0.00012276	475.61	1.6451e-06	3.6039e-06	441.64	180.65	1.8938e-06	3.71e-06	196.41	92.032	81.079	45.349	2.4814e-06	49.902	0.00036552	0.00035971	0.00010473	465.45	3.7033e-06	4.0952e-06	431.95	177.68	3.7557e-06	3.9784e-06	192.54	90.768	80.837	44.964	4.0578e-06	49.34	216.301	56.280	84.915	-0.206	127.894	160.366	-0.919	5.269	167.060	143.386	2.848	6.685	9.657	13.010	182.646	9.031	-8191	255	
41557.512	1	1	0	0	0.038663	0.039088	0.31051	0.16431	0.10585	0.076482	0.25007	0.17462	0.26102	0.17788	0.14808	0.2484	0.13412	0.16312	0.32961	0.27896	-2.6875	-2.8083	-2.5792	-3.2104	-2.5229	-3.0458	-3.0542	-2.8875	-2.8438	-2.7687	-2.775	-3.1562	-2.8063	-2.9542	-2.9896	-2.7083	26.665	296.984	223.131	38.984	252.179	216.333	246.807	267.617	331.863	20.622	257.822	308.675	109.670	-9.416	18.299	-11.754	0.00025395	0.00056555	0.00013401	474.51	5.8333e-06	2.3939e-06	445.19	182.03	3.1817e-06	4.0287e-06	196.37	92.446	81.919	45.502	4.9451e-06	50.549	0.00035423	0.00036108	9.9105e-05	466.32	3.8885e-06	4.1123e-06	434.65	178.37	3.7207e-06	4.0679e-06	193.84	91.135	81.188	45.112	4.0261e-06	49.671	215.221	71.501	89.337	-0.717	143.649	128.359	-1.168	5.317	169.088	156.218	2.709	6.931	9.385	13.165	178.513	9.019	-8191	255	
41557.605	1	1	0	0	0.078588	0.18798	0.046644	0.34076	0.24311	0.058955	0.15206	0.19367	0.040771	0.044612	0.25773	0.26129	0.037691	0.07212	0.15351	0.14415	-2.4854	-2.6583	-2.65	-2.9729	-2.8604	-2.9813	-3.0854	-2.8167	-3.0521	-2.8688	-2.6771	-3.1146	-2.8312	-2.8333	-3.075	-2.7062	53.944	304.458	326.593	-9.903	30.216	159.324	312.024	342.677	318.002	65.182	253.746	298.319	168.239	344.515	184.573	2.766	0.00023794	0.00032715	5.3202e-05	479.22	4.7e-06	5.6486e-06	442.52	182.27	2.7037e-06	3.9388e-06	199.74	92.628	81.649	45.551	3.3633e-06	50.339	0.00036931	0.00037333	0.00010593	467.93	3.8068e-06	4.2452e-06	435.61	178.67	3.8605e-06	4.0264e-06	194.71	91.188	81.07	45.054	4.0727e-06	49.661	220.852	67.491	108.293	-0.427	162.797	123.654	-0.934	5.292	172.119	151.722	2.358	6.677	9.613	13.099	130.511	9.305	-8191	255	
41557.727	1	1	0	0	0.07709	0.035693	0.082739	0.10713	0.015622	0.05281	0.22535	0.14426	0.22688	0.10906	0.27367	0.24284	0.24199	0.3169	0.068633	0.14629	-2.3646	-2.8271	-2.4354	-3.1417	-2.6375	-2.7896	-2.8833	-2.7833	-3.0771	-3.0083	-2.7833	-3.1042	-2.85	-2.8333	-3.0896	-2.9458	166.808	204.744	184.716	116.301	111.559	46.590	-9.577	292.408	45.159	90.125	55.395	272.268	130.949	3.527	313.081	-6.778	0.00022455	0.00037023	9.7062e-05	472.87	4.0082e-06	2.3539e-06	441.75	181.05	2.2871e-06	3.5839e-06	192.85	91.574	81.474	44.929	3.1724e-06	49.739	0.00037406	0.00037832	9.8262e-05	465.06	3.977e-06	4.2988e-06	432.81	178.13	4.0325e-06	4.1605e-06	191.41	90.335	80.612	44.787	4.0703e-06	49.063	223.221	107.218	77.531	-0.528	189.456	144.610	-1.008	5.076	157.577	145.883	2.307	6.723	9.520	13.249	161.731	9.205	-8191	255	
41557.824	1	1	0	0	0.10957	0.079357	0.22412	0.088797	0.064688	0.082684	0.32966	0.20293	0.24451	0.12784	0.10267	0.17862	0.090016	0.27547	0.17203	0.23116	-2.4958	-3.1417	-2.5667	-2.7687	-2.8333	-2.8229	-3.2396	-2.7792	-2.75	-2.8979	-2.8271	-2.9625	-3.0125	-2.7958	-2.9688	-2.7125	145.380	62.163	267.072	53.767	153.921	336.004	15.959	71.488	327.903	315.731	275.316	317.890	201.524	16.799	130.765	28.590	0.00025063	0.00018392	4.8595e-05	475.33	4.0734e-06	2.5208e-06	442.89	179.32	2.073e-06	1.2292e-06	195.84	91.334	80.768	44.969	8.9485e-07	49.913	0.00039479	0.00038652	0.00010181	464.76	4.1176e-06	4.4503e-06	430.96	177.05	4.2133e-06	4.111e-06	192.41	90.421	80.424	44.717	4.007e-06	49.157	221.215	58.913	84.591	-0.199	170.682	114.324	-0.634	5.333	167.370	148.127	3.075	6.631	9.592	13.113	51.501	9.158	-8191	255	
41557.895	1	1	0	0	0.080737	0.22068	0.12167	0.099241	0.060373	0.20513	0.33108	0.22578	0.23477	0.27482	0.10386	0.33122	0.15932	0.25224	0.082561	0.1115	-2.5458	-2.9521	-2.6125	-3.0333	-2.8375	-2.7542	-3.075	-2.9292	-3.0042	-2.9708	-2.7958	-3.0333	-2.9688	-2.9354	-3	-2.9146	194.108	-12.166	121.571	81.015	312.317	113.759	311.959	-0.513	102.724	228.065	229.919	252.379	54.178	273.886	239.500	279.650	0.00021713	0.00064625	0.00010694	475.17	6.3205e-06	6.1889e-06	442.23	180.45	2.4712e-06	3.665e-06	196.26	92.063	81.043	45.168	2.8444e-06	50.038	0.00039077	0.00037624	9.5685e-05	464.96	3.9974e-06	4.3376e-06	433.95	177.52	3.9045e-06	3.9831e-06	193.06	90.756	80.692	44.901	3.8671e-06	49.458	221.150	76.800	81.879	-0.655	178.414	139.366	-1.087	5.137	179.984	137.566	2.689	6.843	9.731	13.066	226.162	9.021	-8191	255	
41557.992	1	1	0	0	0.28424	0.16753	0.1767	0.20936	0.18227	0.15726	0.13976	0.22261	0.25776	0.25244	0.1661	0.2256	0.1598	0.27933	0.086806	0.088284	-2.4	-3.0062	-2.6333	-2.9604	-2.8646	-2.7979	-2.9562	-2.8396	-2.7792	-3.0604	-2.8417	-2.9542	-2.8792	-2.7479	-2.9813	-2.8958	192.178	241.994	108.916	182.389	61.059	32.384	324.968	59.537	283.002	58.076	326.157	319.386	40.575	303.159	133.764	298.166	0.00023797	0.00024802	6.6582e-05	475.95	2.1979e-06	3.6977e-06	445.1	180.29	3.2763e-06	3.3064e-06	195.65	91.551	80.469	45.092	4.133e-06	49.887	0.00040253	0.00037416	9.9173e-05	466.19	4.0028e-06	4.1195e-06	434.95	177.48	4.2531e-06	4.0657e-06	192.52	90.687	80.427	44.737	4.0744e-06	49.363	212.717	59.722	81.259	-0.318	118.712	101.332	-1.423	5.142	160.082	153.932	2.422	6.794	9.849	13.005	181.084	9.157	-8191	255	
41558.113	1	1	0	0	0.019954	0.19631	0.27568	0.071748	0.32797	0.22647	0.061281	0.28264	0.10238	0.11735	0.022102	0.13454	0.13612	0.17507	0.086071	0.13969	-2.3229	-3.0625	-2.7313	-2.9375	-3.075	-2.7	-3.1167	-2.75	-2.7271	-3.1333	-2.6646	-2.7729	-2.9875	-2.7396	-3.2938	-2.9688	74.588	178.534	123.468	281.477	214.713	207.793	305.978	248.977	144.356	73.631	301.144	319.942	3.265	10.846	245.058	318.535	0.00025774	0.00025847	8.2597e-05	473.7	3.5682e-06	3.7451e-06	440.2	178.93	2.0225e-06	5.1161e-06	196.11	91.265	80.969	44.994	1.4055e-06	49.818	0.00038623	0.0003542	9.8287e-05	463.55	3.8864e-06	3.8667e-06	432.08	176.81	4.0344e-06	3.7657e-06	192.24	90.312	80.405	44.613	4.1411e-06	49.105	213.357	92.410	74.619	-0.213	153.371	129.431	-0.816	5.168	174.502	141.115	2.554	6.971	10.103	12.929	117.760	9.442	-8191	255	
41558.207	1	1	0	0	0.18567	0.079528	0.19485	0.11439	0.17827	0.14495	0.058662	0.12011	0.050193	0.10645	0.17113	0.08015	0.067172	0.16631	0.20852	0.11063	-2.2562	-3.0438	-2.7313	-2.7208	-2.9396	-2.9583	-3.1437	-2.9021	-2.6729	-3.0708	-2.8958	-2.875	-3.0312	-2.6458	-2.9813	-2.9396	49.725	266.197	255.964	329.306	114.683	114.541	132.513	329.376	48.122	265.737	301.609	120.744	83.034	304.047	309.994	310.665	0.00026297	0.00028889	0.00011485	473.03	5.453e-06	6.4469e-06	443.13	179.56	3.009e-06	4.202e-06	194.09	91.683	80.721	44.831	2.2615e-06	50.083	0.00039871	0.0003534	0.00010206	463.64	3.9584e-06	3.9472e-06	432.58	176.61	4.2277e-06	4.0147e-06	192.04	90.238	80.123	44.528	4.5112e-06	49.171	221.557	95.439	83.745	-0.423	150.340	145.533	-1.116	5.255	193.521	162.567	2.760	6.516	9.725	13.114	180.456	8.936	-8191	255	
41558.305	1	1	0	0	0.12022	0.045076	0.14323	0.11605	0.27	0.13494	0.17375	0.056326	0.12898	0.14476	0.18785	0.46296	0.35893	0.087924	0.16749	0.055563	-2.0833	-3.0167	-2.7792	-2.7438	-3.075	-2.6667	-2.8563	-2.9938	-2.7313	-2.8896	-2.7021	-2.7917	-2.9979	-2.8854	-2.9	-3.1333	318.198	96.379	340.010	85.783	314.322	234.199	49.889	321.609	169.362	195.283	242.481	273.976	304.015	290.268	-1.975	246.015	0.00022911	0.0004014	6.5413e-05	473.52	3.3108e-06	6.8512e-06	442.58	178.74	2.7889e-06	4.4165e-06	195.12	91.672	80.63	44.809	2.2567e-06	49.696	0.00037388	0.00038979	0.00011215	464.55	4.0112e-06	4.1834e-06	433.47	176.42	4.1383e-06	4.1127e-06	192.17	90.364	80.064	44.41	4.5503e-06	49.008	222.634	61.211	74.249	-0.301	178.428	117.679	-1.565	5.276	161.126	136.636	2.520	6.686	9.742	12.891	175.089	9.211	-8191	255	
41558.422	1	1	0	0	0.067794	0.040219	0.27049	0.41335	0.1337	0.27216	0.12313	0.061588	0.051628	0.074029	0.10138	0.10913	0.17905	0.21038	0.24555	0.22927	-2.3833	-2.975	-2.9125	-2.9083	-2.9458	-2.7646	-3.0917	-3.0729	-2.6208	-2.9792	-2.9854	-2.7062	-3.0417	-2.5208	-2.7396	-2.9146	234.812	190.990	267.371	-1.054	338.028	89.887	270.462	209.830	229.687	101.080	25.186	25.658	36.515	273.626	61.722	297.792	0.0002416	0.0002465	9.2913e-05	472.76	4.9514e-06	4.1901e-06	439.93	178.37	2.726e-06	4.9284e-06	195.07	90.988	80.351	44.417	4.4e-06	49.838	0.00038299	0.00039763	0.00011104	461.58	3.9077e-06	4.2865e-06	429.54	175.25	4.0365e-06	4.2436e-06	190.88	89.867	79.66	44.353	4.3802e-06	48.999	217.299	115.211	71.826	-0.467	134.892	127.743	-0.894	5.293	215.110	178.763	2.308	6.477	9.578	12.869	127.572	9.146	-8191	255	
41558.496	1	1	0	0	0.14663	0.086796	0.2069	0.12069	0.15403	0.1145	0.10036	0.37652	0.18961	0.13396	0.2145	0.2783	0.23698	0.19884	0.14859	0.36718	-2.3792	-2.8875	-2.8063	-2.7917	-2.8583	-2.7479	-2.8521	-2.9583	-2.7354	-3.0729	-2.8646	-2.9396	-3.0646	-2.8875	-2.7875	-3.1937	288.671	232.105	9.654	185.745	283.504	82.951	155.676	284.569	100.601	148.991	20.010	336.239	306.066	252.460	5.108	306.010	0.0002501	0.00058266	0.00010001	472.58	3.7382e-06	4.5057e-06	443.24	180.34	2.7501e-06	2.3906e-06	195.24	92.08	80.71	44.879	3.7512e-06	50.25	0.00036383	0.00040096	0.00010662	462.85	3.7648e-06	4.0814e-06	432.67	176.96	3.8742e-06	4.0423e-06	192.11	90.593	80.192	44.608	4.2434e-06	49.518	217.295	66.990	89.561	-0.239	182.018	85.516	-1.049	5.222	157.401	139.454	2.558	6.588	9.754	13.076	162.336	9.266	-8191	255	
41558.594	1	1	0	0	0.2314	0.063596	0.099346	0.33026	0.13722	0.23329	0.23754	0.2749	0.11976	0.020626	0.33602	0.3522	0.21881	0.11819	0.081456	0.17367	-2.175	-2.7583	-2.9813	-2.6979	-2.9437	-2.8688	-2.8083	-3.0333	-2.7188	-2.9938	-3.0167	-2.7667	-2.9188	-2.9208	-2.9083	-3.1875	100.185	145.437	295.473	20.708	101.241	185.083	261.061	332.861	63.539	211.737	19.155	-12.412	291.317	4.725	257.593	289.738	0.00025553	0.00051512	5.0049e-05	474.13	4.7037e-06	4.1645e-06	443.7	179.66	2.9117e-06	4.9582e-06	195.85	91.575	80.822	44.592	1.1477e-06	50.25	0.00036639	0.00039848	0.0001062	464.45	3.6988e-06	4.1476e-06	434.44	176.74	3.9944e-06	4.1675e-06	192.9	90.498	80.232	44.549	4.3202e-06	49.523	221.472	82.139	38.102	-0.279	164.922	159.290	-1.284	5.267	176.852	135.841	2.305	6.739	9.529	12.954	190.274	9.288	-8191	255	
41558.711	1	1	0	0	0.16558	0.12184	0.22986	0.049267	0.070016	0.22194	0.26894	0.094059	0.18541	0.19618	0.30518	0.22183	0.15617	0.13913	0.17399	0.25055	-2.1979	-2.8104	-2.9	-2.7417	-2.9833	-2.9521	-2.7896	-3.0729	-2.6896	-2.6083	-2.9917	-2.6458	-3.05	-2.9333	-2.7396	-3.1458	252.171	165.146	327.829	70.941	196.037	248.404	215.359	317.709	250.885	198.534	312.768	170.780	307.497	95.733	288.664	238.471	0.00025769	0.00026134	0.00013934	472.63	5.7794e-06	3.4501e-06	443.36	179.7	2.6963e-06	3.5149e-06	194.14	91.277	80.734	44.742	1.0406e-06	49.797	0.00037696	0.00040934	0.00010331	463.98	4.0389e-06	4.2393e-06	433.74	176.43	4.0374e-06	4.3344e-06	191.55	90.214	79.942	44.376	4.2214e-06	48.922	218.537	53.504	97.278	-0.416	146.651	115.965	-1.182	5.087	193.984	150.311	2.660	7.021	9.443	13.050	86.439	8.790	-8191	255	
41558.809	1	1	0	0	0.15284	0.1462	0.19419	0.12418	0.10828	0.14722	0.18978	0.32655	0.37319	0.095404	0.17946	0.065779	0.034033	0.1506	0.1349	0.13046	-2.3292	-2.8417	-2.9708	-2.6937	-2.975	-2.9062	-2.7521	-3.0833	-2.7562	-2.9292	-3.0979	-2.6437	-2.9688	-2.9625	-2.7021	-3.0167	126.551	136.844	173.412	87.050	325.042	72.002	221.755	323.740	149.480	46.815	174.488	26.394	339.197	-2.639	345.184	193.965	0.00027606	0.00077404	9.8737e-05	470.89	3.8588e-06	2.6476e-06	438.51	175.7	2.6832e-06	4.3956e-06	194.2	90.804	79.705	44.166	4.3476e-06	49.17	0.0003939	0.00042661	0.00010747	460.62	4.2891e-06	4.4698e-06	427.85	173.99	4.4375e-06	4.517e-06	189.68	89.317	79.265	43.988	4.4793e-06	48.516	229.438	65.263	68.426	-0.379	200.307	120.352	-0.905	5.134	184.653	157.030	2.617	6.927	9.673	13.166	162.585	9.062	-8191	255	
41558.902	1	1	0	0	0.17657	0.1563	0.24882	0.19237	0.033954	0.36502	0.33832	0.13603	0.13775	0.092018	0.332	0.077056	0.28424	0.16466	0.14566	0.12492	-2.4062	-2.8125	-3.025	-2.7958	-2.8229	-2.9188	-2.8667	-2.975	-2.7083	-2.7313	-3.1542	-2.7604	-2.9646	-3.1417	-2.7083	-3.05	218.342	6.654	18.269	331.457	116.238	175.574	283.298	254.026	-1.016	193.970	279.187	293.532	298.651	302.828	199.826	276.887	0.00021103	0.00058529	8.6213e-05	470.87	3.8812e-06	5.4927e-06	440.6	177.27	2.5572e-06	2.0283e-06	193.35	90.411	79.842	44.043	2.9946e-06	49.506	0.00039897	0.00043426	0.00010303	460.04	4.3934e-06	4.2682e-06	428.79	174.69	4.393e-06	4.3289e-06	190.14	89.239	79.116	43.9	4.312e-06	48.703	219.660	70.762	92.197	-0.359	160.972	125.412	-0.884	5.068	198.846	17.710	2.467	6.761	9.764	13.064	132.408	9.260	-8191	255	
41559.023	1	1	0	0	0.22285	0.163	0.27007	0.17304	0.13415	0.18953	0.34104	0.14973	0.18135	0.088373	0.19453	0.21684	0.25581	0.10189	0.088563	0.2217	-2.4708	-2.6063	-3.0542	-2.9708	-2.7562	-3.0146	-2.8042	-3.0479	-3.0646	-2.8896	-3.0979	-2.8896	-2.7354	-3.1896	-2.6646	-3.0042	169.110	302.688	166.945	218.568	-9.724	141.911	311.947	144.335	199.583	232.894	332.634	-3.831	36.427	60.090	198.576	300.443	0.00026399	0.00015269	0.00013451	469.36	3.1952e-06	1.8529e-06	439.29	177.13	1.9947e-06	6.0768e-06	192.37	91.373	80.123	44.048	2.1455e-06	49.422	0.00040206	0.00043339	0.00010239	460.77	4.4363e-06	4.3431e-06	429.24	174.71	4.4068e-06	4.3396e-06	190.03	89.726	79.288	43.896	4.3884e-06	48.757	211.786	-2.769	80.240	-0.312	126.298	117.622	-1.338	5.213	203.467	137.084	2.658	6.541	9.425	13.187	185.874	9.289	-8191	255	
41559.098	1	1	0	0	0.17238	0.33449	0.069932	0.069682	0.10144	0.13359	0.31222	0.10554	0.13525	0.18473	0.2572	0.1545	0.26347	0.1522	0.12409	0.073356	-2.425	-2.775	-2.8937	-2.7854	-2.7938	-3.1604	-2.9833	-3.0687	-2.9688	-2.6646	-3.1354	-2.8208	-2.75	-3.0167	-2.8375	-2.9813	185.767	115.931	87.022	1.688	326.109	47.917	203.060	106.337	195.989	287.430	215.001	4.213	304.421	1.977	198.022	256.722	0.00022434	0.00037586	0.00014973	468.89	2.8079e-06	3.6153e-06	436.74	176.37	3.1276e-06	5.0665e-06	189.72	89.917	79.049	43.856	2.6277e-06	49.028	0.00040415	0.00040887	0.00011031	459.25	4.4166e-06	4.202e-06	426.56	173.85	4.3295e-06	4.4048e-06	188.32	88.764	78.65	43.737	4.5711e-06	48.503	218.244	84.029	89.832	-0.414	137.546	143.592	-1.557	5.227	132.765	106.016	2.597	6.813	9.396	13.113	177.875	9.129	-8191	255	
41559.191	1	1	0	0	0.054689	0.1506	0.19698	0.25344	0.36289	0.15956	0.1146	0.20229	0.20524	0.15584	0.19776	0.13982	0.013434	0.13191	0.19191	0.096049	-2.6083	-2.5354	-2.975	-2.7542	-2.7417	-2.9979	-2.8479	-2.9417	-2.9021	-2.6771	-3.1354	-2.9021	-2.6146	-2.9542	-2.7062	-3.0729	336.788	66.708	81.208	326.159	263.120	281.431	214.250	172.788	228.293	74.904	306.923	331.895	22.126	34.613	167.433	183.760	0.00026103	0.00029137	5.5561e-05	469.33	2.7516e-06	3.6931e-06	436.19	176.65	2.5868e-06	5.2688e-07	191.94	90.25	79.26	43.94	3.9263e-06	49.297	0.00040956	0.00041926	0.00011937	459.02	4.6271e-06	4.2588e-06	427.02	173.72	4.37e-06	4.4103e-06	188.42	89.045	78.834	43.807	4.6504e-06	48.677	214.080	74.049	56.473	-0.272	166.757	103.390	-1.268	4.934	165.576	71.721	2.257	6.593	9.524	13.065	173.582	8.694	-8191	255	
41559.289	1	1	0	0	0.39301	0.06223	0.16298	0.12562	0.26865	0.037474	0.11881	0.069763	0.10496	0.074942	0.074092	0.15348	0.18528	0.15918	0.12199	0.036948	-2.5312	-2.6896	-2.8792	-2.8312	-2.6833	-2.9333	-2.9188	-2.9646	-2.7917	-2.6875	-2.7542	-3.0542	-2.6875	-2.9646	-2.7333	-2.7667	18.873	10.012	159.793	278.275	35.396	144.254	248.722	167.739	241.573	146.315	265.634	17.265	37.292	132.127	-8.678	186.316	0.00026013	0.00023801	0.00014805	468.42	4.0304e-06	4.1333e-06	440.17	176.73	2.3406e-06	2.7185e-06	192.11	90.007	79.58	44.277	4.7266e-06	49.602	0.0003934	0.00039467	0.00011908	459.86	4.2891e-06	4.3537e-06	427.77	174.45	4.244e-06	4.374e-06	189.68	89.012	79.042	44.01	4.9305e-06	48.832	231.019	90.496	41.745	-0.418	157.709	117.176	-0.889	5.225	151.508	134.440	2.468	6.583	9.800	13.109	167.426	8.818	-8191	255	
41559.406	1	1	0	0	0.1811	0.080845	0.10993	0.12681	0.15431	0.1953	0.1728	0.16453	0.30679	0.056438	0.10147	0.35599	0.17251	0.18637	0.22388	0.15634	-2.5896	-2.6042	-2.9125	-2.9583	-2.7333	-2.95	-2.8937	-2.7812	-3.2062	-2.6958	-2.8563	-2.8563	-2.7	-3.0479	-2.9	-2.6729	-8.587	261.993	239.293	278.133	321.594	112.904	273.235	211.462	215.171	17.554	324.717	266.318	202.705	328.422	322.380	323.779	0.00023667	0.00043191	4.9539e-05	471.77	2.9651e-06	2.1374e-06	434.92	177.19	2.3854e-06	2.914e-06	191.18	89.84	79.446	44.244	2.234e-06	49.5	0.00039732	0.00042777	0.00012542	460.99	4.3267e-06	4.4782e-06	425.87	174.37	4.3083e-06	4.5506e-06	188.6	88.747	78.762	43.95	4.7935e-06	48.685	219.486	99.558	104.584	-0.358	188.605	97.172	-1.006	5.541	188.888	133.886	2.740	6.697	9.264	13.008	202.764	8.961	-8191	255	
41559.504	1	1	0	0	0.18718	0.1535	0.1569	0.060756	0.05865	0.31627	0.050128	0.089036	0.15682	0.10312	0.34662	0.14387	0.029655	0.14487	0.17841	0.043171	-2.6312	-2.7646	-2.7667	-2.9396	-2.5875	-2.9188	-2.6583	-2.8479	-3.1063	-2.7604	-2.9729	-2.8958	-2.7333	-3.1083	-2.9604	-2.6979	62.824	262.600	89.222	162.285	73.596	191.358	36.365	291.455	159.777	70.905	281.522	337.492	180.361	138.772	83.703	57.395	0.00025187	0.00033158	0.00019985	466.73	1.8559e-06	7.4702e-06	435.38	176.96	2.2429e-06	4.4262e-06	192.26	89.798	78.809	44.087	4.5475e-06	49.49	0.00038388	0.00042806	0.00012312	457.78	4.329e-06	4.4923e-06	425.12	173.96	4.1338e-06	4.5964e-06	188.37	88.645	78.621	43.991	4.7611e-06	48.642	224.162	64.908	62.541	-0.153	105.553	144.997	-1.031	5.234	199.663	145.628	2.752	6.741	9.553	13.277	205.112	9.401	-8191	255	
41559.602	1	1	0	0	0.2062	0.12823	0.25224	0.19606	0.042985	0.31498	0.19108	0.11134	0.10056	0.088622	0.20829	0.12966	0.23944	0.16172	0.29582	0.23798	-2.6104	-2.6854	-2.7708	-3.1104	-2.7604	-2.8292	-2.8771	-2.875	-3.0687	-2.8479	-2.8479	-3.1875	-2.6896	-3.0104	-2.9792	-2.6542	119.522	240.322	179.054	74.084	69.435	18.751	60.589	11.567	327.679	269.827	159.342	-7.714	-9.213	295.882	38.081	56.187	0.00021759	0.00035753	0.00015717	466.98	5.0651e-06	3.9236e-06	436.17	176.96	1.6128e-06	4.5267e-06	190.06	90.119	78.848	44.45	3.6394e-06	49.474	0.00039482	0.00042515	0.00012983	458.84	4.3006e-06	4.7253e-06	427.55	174.15	4.4161e-06	4.835e-06	189.08	88.962	78.81	44.117	4.7678e-06	48.873	209.310	78.305	76.679	-0.808	146.364	75.027	-1.158	4.967	173.622	143.301	2.209	6.822	9.750	12.856	204.906	9.092	-8191	255	
41559.695	1	1	0	0	0.21003	0.15535	0.27539	0.16638	0.25463	0.11818	0.22352	0.20365	0.24167	0.19756	0.028147	0.096919	0.10201	0.22974	0.15514	0.02629	-2.625	-2.8625	-2.6542	-2.9979	-2.7167	-2.7792	-2.9083	-2.7208	-2.8875	-2.7729	-2.6896	-3.0042	-2.7042	-2.7417	-2.9417	-2.6208	58.114	54.111	53.216	305.747	344.382	228.781	299.686	38.840	105.840	152.359	296.804	16.998	219.581	11.422	89.222	178.922	0.00024915	0.00031726	8.3422e-05	470.34	1.9991e-06	3.4592e-06	439.06	177.71	2.1154e-06	4.6274e-06	192.94	89.873	79.157	44.497	3.4364e-06	49.906	0.00041085	0.00042271	0.00012138	461.1	4.3157e-06	4.8009e-06	430.25	175.41	4.6115e-06	4.7477e-06	189.62	89.204	78.822	44.184	4.612e-06	48.892	222.673	74.927	53.224	-0.486	208.223	94.605	-0.890	5.204	162.314	173.602	2.865	6.716	9.729	12.823	211.869	9.095	-8191	255	
41559.793	1	1	0	0	0.038066	0.24632	0.028033	0.30999	0.20277	0.11439	0.15923	0.081251	0.24843	0.30049	0.23163	0.22699	0.19259	0.36105	0.15832	0.10727	-2.5333	-2.775	-2.6625	-3.0458	-2.6979	-2.7354	-3.1625	-2.675	-3.0542	-3.1292	-2.7938	-2.95	-2.7271	-2.9375	-2.9396	-2.5458	273.616	207.765	132.958	37.914	282.127	31.284	200.896	341.045	44.926	8.760	303.199	71.863	254.122	319.208	135.250	123.566	0.0002527	0.00043822	9.6505e-05	468.1	6.8005e-06	3.6109e-06	434.76	176.22	2.6985e-06	4.2449e-06	188.65	89.655	78.833	43.986	2.9689e-06	49.364	0.00040852	0.0004282	0.00011708	459.05	4.5943e-06	4.6791e-06	425.34	173.78	4.6736e-06	4.8164e-06	187.16	88.27	78.446	43.788	4.4304e-06	48.549	214.868	65.655	46.289	-0.461	131.955	122.509	-0.943	5.008	228.219	128.502	2.462	6.843	9.750	13.132	177.996	8.956	-8191	255	
41559.887	1	1	0	0	0.10585	0.075034	0.21368	0.24406	0.25822	0.20062	0.28276	0.27204	0.068284	0.0076482	0.30827	0.25852	0.16513	0.25005	0.12235	0.38673	-2.4292	-2.9417	-2.5958	-2.925	-2.9042	-2.8104	-3.1458	-2.7167	-2.8792	-2.975	-2.6437	-2.9125	-2.6875	-2.9521	-3.0062	-2.7146	329.055	163.577	63.252	183.176	283.248	13.557	77.359	14.974	234.086	317.561	0.821	342.937	148.884	-1.845	54.586	245.836	0.00022853	0.00011331	9.5091e-05	469.28	3.8576e-06	4.3532e-06	434.75	176.31	1.5114e-06	1.7697e-06	191.07	89.638	79.678	44.101	3.0575e-06	49.355	0.00039693	0.0004146	0.00011085	459.6	4.3025e-06	4.475e-06	426.34	173.65	4.6636e-06	4.5773e-06	188.5	88.812	78.718	43.753	4.3635e-06	48.575	218.607	86.457	84.038	-0.425	140.513	119.711	-0.868	5.306	220.822	80.864	2.334	6.622	9.456	13.191	153.618	9.000	-8191	255	
41559.984	1	1	0	0	0.19059	0.11613	0.39976	0.12518	0.06958	0.22161	0.30607	0.10436	0.24071	0.24902	0.13618	0.11027	0.052378	0.1083	0.11862	0.13883	-2.4167	-3.1021	-2.7146	-3	-2.8729	-2.4938	-2.9396	-2.8542	-2.8229	-3.0583	-2.7687	-3.0062	-2.8229	-2.7313	-2.9854	-2.7729	159.524	222.392	4.358	43.082	-0.789	-1.972	267.054	278.249	268.196	218.315	78.919	67.941	289.461	37.396	258.753	228.609	0.00024546	0.00049755	0.00010648	468.67	4.9874e-06	4.9411e-06	435.45	176.52	1.1441e-06	1.9604e-06	191.81	89.952	79.465	44.439	3.6246e-06	49.421	0.00040316	0.00040497	0.00010842	459.76	4.4795e-06	4.4486e-06	427.42	174.28	4.6564e-06	4.3262e-06	189.07	88.951	78.771	43.975	4.1646e-06	48.914	224.337	85.483	64.698	-0.259	197.428	121.443	-0.947	5.396	159.913	145.458	2.826	6.621	9.803	12.841	178.805	9.005	-8191	255	
41560.105	1	1	0	0	0.2263	0.16741	0.31429	0.18636	0.23338	0.10495	0.24159	0.17625	0.15363	0.31579	0.20667	0.12299	0.49694	0.14638	0.16199	0.097089	-2.3708	-2.8458	-2.5208	-2.9188	-2.8042	-2.825	-3.1167	-2.7375	-2.8375	-2.9542	-2.7396	-3.0333	-2.9333	-2.8333	-3.05	-2.9062	338.576	267.339	316.283	142.454	69.663	214.221	203.028	276.261	-8.085	201.999	267.403	96.260	291.773	265.002	105.520	347.039	0.00025051	0.00025933	1.3373e-05	471.88	3.7084e-06	2.7094e-06	440.96	177.28	1.6584e-06	2.1936e-06	192.04	89.537	78.813	44.017	3.0722e-06	49.547	0.00038931	0.00038721	0.00010217	462.58	4.1575e-06	4.0723e-06	429.98	174.74	4.3881e-06	4.0025e-06	189.31	88.791	78.489	43.922	4.1184e-06	48.736	224.982	127.044	152.945	-0.414	142.096	163.682	-1.009	5.291	93.943	137.777	2.376	6.916	9.464	12.795	165.641	9.032	-8191	255	
41560.199	1	1	0	0	0.14044	0.19185	0.064619	0.22061	0.245	0.32393	0.28021	0.061687	0.18472	0.086667	0.19309	0.37221	0.10418	0.15669	0.1979	0.08626	-2.2521	-3.05	-2.5667	-2.8833	-2.9396	-2.5563	-3.0521	-2.7687	-2.6917	-2.9208	-2.6625	-2.9229	-2.9771	-2.7458	-2.8312	-2.7917	94.454	42.111	319.097	24.941	213.460	267.562	243.052	125.012	103.900	168.959	222.532	32.315	310.233	302.399	30.961	234.764	0.00025861	0.00046636	0.00012092	469.58	4.2315e-06	5.4963e-06	437.08	175.93	2.1186e-06	5.1585e-06	190.54	89.775	78.426	43.74	4.6294e-06	48.833	0.00038984	0.00038058	0.00010774	461.35	4.2401e-06	4.0505e-06	427.81	173.5	4.4897e-06	4.1724e-06	187.23	88.129	78.042	43.464	4.8036e-06	48.324	223.046	96.793	83.315	-0.361	157.191	194.670	-1.072	5.181	178.396	132.577	2.630	6.624	9.704	13.337	185.596	9.077	-8191	255	
41560.297	1	1	0	0	0.13442	0.2119	0.1593	0.11156	0.088032	0.14388	0.12484	0.28717	0.039508	0.45758	0.10968	0.29801	0.1479	0.18237	0.02203	0.099281	-2.3	-3.0729	-2.6396	-2.8937	-2.9167	-2.5687	-2.8667	-2.8417	-2.6292	-3.0312	-2.8708	-2.9562	-2.9771	-2.6729	-2.8667	-2.9	1.958	236.492	317.530	212.508	157.774	175.046	344.560	302.796	96.662	60.404	232.546	203.344	60.583	318.422	165.772	252.220	0.0002895	0.00020393	0.00013493	466.88	4.941e-06	4.6883e-06	435.99	174.29	1.7155e-06	4.981e-06	189.92	88.631	77.676	43.49	3.2902e-06	48.821	0.000407	0.00040546	0.00012026	459.73	4.6056e-06	4.6442e-06	425.3	172.25	4.8283e-06	4.684e-06	186.68	87.668	77.404	43.237	5.1371e-06	48.101	217.141	104.811	95.539	-0.298	159.230	169.856	-1.009	5.047	196.969	141.959	2.758	6.958	9.580	13.201	146.528	9.217	-8191	255	
41560.395	1	1	0	0	0.17238	0.23175	0.23568	0.15539	0.063315	0.30154	0.16941	0.062871	0.14218	0.19072	0.1509	0.093	0.27579	0.24199	0.097621	0.1867	-2.1792	-3.1167	-2.6208	-2.7375	-3.0812	-2.7583	-2.9875	-2.9979	-2.7167	-3.1208	-2.8417	-2.7625	-3.05	-2.6354	-2.9292	-2.9479	181.805	203.310	183.448	265.619	324.745	125.900	264.422	298.092	28.916	12.521	175.946	346.739	50.804	322.186	197.635	44.836	0.00027835	0.00045088	5.9455e-05	471.03	6.3283e-06	3.63e-06	436.24	175.36	3.1405e-06	2.3356e-06	191.2	89.703	78.356	43.912	1.4533e-06	49.251	0.00040968	0.00041709	0.00011869	460.32	4.3506e-06	4.6094e-06	428.5	173.5	4.346e-06	4.3829e-06	188.41	88.268	77.915	43.573	4.8491e-06	48.603	213.772	81.596	86.054	-0.274	143.140	90.092	-1.154	5.127	217.187	170.841	2.615	6.588	9.668	12.911	171.956	9.062	-8191	255	
41560.488	1	1	0	0	0.092733	0.25745	0.11018	0.064084	0.27531	0.18549	0.31254	0.02864	0.14419	0.31641	0.20218	0.37737	0.10793	0.18539	0.23898	0.12997	-2.2583	-2.9542	-2.7646	-2.65	-3.0667	-2.6958	-2.9729	-2.8271	-2.7792	-2.9625	-2.9125	-2.5958	-3.1146	-2.9375	-2.8833	-3.0563	123.895	262.549	288.587	300.742	114.663	77.633	254.697	321.150	317.296	-4.675	293.396	36.432	201.012	51.377	328.249	114.334	0.00023596	0.00035194	4.7451e-05	469	1.7884e-06	5.4385e-06	435.54	175.41	3.4445e-06	4.8352e-06	191.05	88.855	78.194	43.775	4.3636e-06	49.365	0.00038783	0.00040421	0.00011358	459.84	4.0309e-06	4.4609e-06	427.51	173.18	4.1038e-06	4.5912e-06	187.69	87.928	77.71	43.522	4.6637e-06	48.498	223.688	101.882	158.511	-0.710	119.307	118.871	-0.994	5.232	162.625	130.635	2.326	7.031	9.559	13.188	164.702	8.719	-8191	255	
41560.586	1	1	0	0	0.23975	0.078719	0.2255	0.15415	0.2657	0.07068	0.15719	0.1757	0.32587	0.06779	0.18778	0.18311	0.19501	0.28133	0.082815	0.13925	-2.2208	-3.0312	-2.8354	-2.8812	-3.1792	-2.7042	-2.7229	-3.0479	-2.5229	-2.9375	-2.9542	-2.8604	-3.0104	-2.8563	-2.7979	-2.9646	163.911	191.503	43.134	74.151	172.474	19.507	307.124	-4.665	111.382	310.074	-5.000	251.196	-7.420	320.695	267.750	290.046	0.00024082	0.00040567	0.00010203	473.5	3.8314e-06	4.2485e-06	441.35	177.93	2.05e-06	3.047e-06	192.26	90.021	78.786	44.395	4.1439e-06	50.003	0.00036886	0.00038921	0.00011188	463.36	3.8533e-06	4.2964e-06	430.79	174.61	3.8109e-06	4.3317e-06	189.26	88.764	78.389	44.023	4.4213e-06	49.145	226.627	110.730	73.364	-0.366	191.960	174.742	-1.392	5.536	172.463	133.930	2.426	6.754	9.816	12.723	149.564	9.274	-8191	255	
41560.703	1	1	0	0	0.0095205	0.17222	0.15907	0.088997	0.25743	0.089566	0.19979	0.047875	0.30109	0.181	0.078001	0.030911	0.37557	0.28455	0.25257	0.27165	-2.1521	-2.8	-2.9292	-2.8833	-2.9917	-2.6813	-2.8646	-2.9396	-2.6875	-2.9	-2.9479	-2.6604	-2.8854	-2.9479	-2.4562	-3.0833	69.245	261.144	130.353	307.736	75.076	212.165	273.731	93.335	319.863	48.561	269.598	54.487	301.455	218.097	244.187	58.891	0.00027845	0.00056428	4.3416e-05	480.77	5.4783e-06	3.7602e-06	448	179.13	3.1764e-06	2.1295e-06	195.44	90.27	80.065	44.586	4.8815e-06	50.418	0.00036132	0.00037342	0.00010046	467.63	3.7404e-06	3.8768e-06	437.47	176.56	3.7072e-06	4.2197e-06	191.69	89.58	79.239	44.267	4.1999e-06	49.526	219.442	66.104	146.105	-0.476	177.454	149.552	-1.021	5.332	193.027	173.137	2.782	6.907	10.054	13.186	170.674	9.080	-8191	255	
41560.801	1	1	0	0	0.09667	0.18187	0.18743	0.23535	0.14526	0.026963	0.026041	0.23557	0.1145	0.086302	0.22543	0.2595	0.1137	0.043979	0.11059	0.093517	-2.1854	-2.8937	-3.0167	-2.6854	-2.9896	-2.9125	-2.8375	-3.0875	-2.6875	-2.9292	-3.0167	-2.6896	-2.9833	-2.85	-2.5167	-3.1333	322.811	85.013	313.678	327.164	24.481	248.264	283.316	228.371	219.811	346.395	327.399	288.928	29.874	148.931	325.590	282.338	0.00024811	0.00016103	6.2657e-05	476.93	5.3486e-06	1.048e-06	447.31	177.38	2.5649e-06	2.25e-06	191.64	89.765	78.793	43.854	3.9224e-06	49.332	0.00036361	0.00037693	9.9e-05	466.66	3.972e-06	4.0871e-06	435.65	175.49	3.8654e-06	4.3613e-06	188.64	88.576	78.249	43.638	4.4723e-06	48.529	222.655	57.372	81.118	-0.035	134.920	132.960	-1.070	5.105	178.480	179.732	2.627	6.651	9.675	12.909	138.260	9.382	-8191	255	
41560.898	1	1	0	0	0.1356	0.14871	0.32216	0.18487	0.078861	0.19279	0.061958	0.23573	0.11957	0.17937	0.12861	0.19459	0.20705	0.19528	0.061563	0.050416	-2.3312	-2.7479	-3.0042	-2.8417	-2.8104	-2.85	-2.7021	-3.0583	-2.8042	-2.8583	-2.9896	-2.5917	-2.9083	-2.9417	-2.5917	-2.9646	217.055	260.592	34.497	285.672	71.781	59.109	70.010	339.837	16.496	3.235	304.992	-12.224	307.810	334.119	272.212	15.868	0.00023134	0.00022875	0.00013784	472.94	2.6518e-06	3.9688e-06	438.04	176.25	1.9304e-06	1.7554e-06	190.88	89.153	78.574	43.975	4.4237e-06	49.229	0.00038234	0.00038979	0.00010166	462.3	4.3793e-06	4.2716e-06	429.77	173.51	4.1262e-06	4.3877e-06	188.12	88.338	77.956	43.587	4.0872e-06	48.621	214.046	99.763	106.333	-0.381	168.239	114.712	-1.139	5.191	200.891	121.265	2.698	6.654	10.256	13.426	159.466	8.930	-8191	255	
41560.992	1	1	0	0	0.25115	0.2328	0.030502	0.15427	0.17893	0.031737	0.18936	0.17919	0.22744	0.29414	0.17548	0.18741	0.23629	0.11112	0.19845	0.059001	-2.25	-2.8125	-2.9667	-2.8229	-2.9583	-2.9188	-2.75	-2.9417	-2.7125	-2.6188	-2.8604	-2.6125	-2.9167	-2.9917	-2.6375	-3.0875	6.896	339.115	153.319	303.149	237.410	112.058	309.411	193.544	64.081	201.314	104.820	267.296	283.373	88.338	248.916	249.314	0.00022949	0.00046793	0.00014787	473.02	4.8834e-06	3.8715e-06	441.39	177.2	2.4904e-06	5.357e-06	191.75	89.938	78.944	43.886	2.2988e-06	49.242	0.00038046	0.00038786	0.00010007	463.63	4.4093e-06	4.157e-06	431.95	174.27	4.0305e-06	4.3217e-06	188.04	88.415	78.05	43.516	3.9976e-06	48.603	219.130	127.120	90.216	-0.582	133.673	103.386	-0.794	5.195	163.920	133.395	2.668	6.942	9.373	13.120	189.734	9.230	-8191	255	
41561.066	1	1	0	0	0.12821	0.10196	0.19188	0.2214	0.19591	0.30193	0.16914	0.33319	0.056915	0.20732	0.056279	0.14746	0.2131	0.12689	0.26739	0.3019	-2.3354	-2.6937	-3.1542	-2.7313	-2.8042	-2.9375	-2.6729	-2.8146	-2.7313	-2.8937	-3.1083	-2.725	-3.0438	-2.8833	-2.6208	-3.0479	82.664	201.921	98.996	317.323	243.474	181.052	272.476	291.439	34.406	151.921	89.242	320.699	-0.600	46.706	153.501	276.987	0.0002902	0.00049482	8.015e-05	471.81	2.1857e-06	4.9917e-06	440.57	175.98	2.3297e-06	3.1356e-06	189.78	89.072	77.927	43.424	2.7718e-06	49.024	0.0003966	0.00039586	0.00010248	462.24	4.5621e-06	4.2447e-06	431.08	172.97	4.2829e-06	4.5377e-06	187.03	87.838	77.305	43.258	4.2356e-06	48.316	225.601	79.201	50.520	-0.553	149.564	129.286	-1.228	5.355	194.195	115.451	2.656	6.424	9.893	12.880	156.611	9.252	-8191	255	
41561.184	1	1	0	0	0.13325	0.30073	0.079419	0.12576	0.14964	0.10673	0.10647	0.23711	0.1111	0.025511	0.064619	0.28938	0.14647	0.14806	0.06475	0.24274	-2.2771	-2.6417	-2.9167	-2.9521	-2.8937	-2.9813	-2.6542	-2.9729	-2.7771	-2.7146	-3.0271	-2.7854	-2.9417	-3.0917	-2.65	-2.9833	29.097	29.687	254.617	0.731	88.062	319.522	301.108	136.917	137.649	339.110	296.421	329.479	281.377	8.781	275.349	89.065	0.00025321	0.00043178	8.3897e-05	469.17	5.7686e-06	3.1263e-06	437.82	174.47	4.0666e-06	4.528e-06	187.86	87.731	77.689	43.408	2.711e-06	48.983	0.00039665	0.00041035	0.00010754	460.12	4.7224e-06	4.2729e-06	427.12	171.97	4.4326e-06	4.3013e-06	185.14	87.195	77.249	43.152	4.3669e-06	48.212	219.747	73.442	105.686	-0.509	143.402	125.174	-0.962	5.254	152.458	118.046	2.124	6.832	9.713	12.964	182.359	9.425	-8191	255	
41561.281	1	1	0	0	0.091923	0.22383	0.074333	0.078455	0.061705	0.064288	0.21508	0.35892	0.1361	0.13334	0.10958	0.26882	0.15265	0.34946	0.13752	0.18223	-2.4521	-2.7396	-2.7562	-2.9417	-2.7583	-2.9917	-2.6271	-2.9104	-2.9375	-2.4813	-2.9062	-2.8833	-2.7125	-3.1417	-2.8063	-2.8604	17.664	43.279	35.873	140.298	-5.723	289.748	111.859	333.827	182.845	45.076	23.321	21.000	317.033	300.187	14.166	249.189	0.0002491	0.00023108	9.8813e-05	472.46	4.0587e-06	2.6184e-06	437.52	175.88	7.0539e-07	3.8261e-06	188.07	88.839	78.399	43.672	3.9558e-06	49.383	0.0003977	0.00039221	0.00010969	462.2	4.6309e-06	4.2956e-06	429.77	173.01	4.2493e-06	4.3098e-06	186.11	87.557	77.396	43.343	4.612e-06	48.631	218.088	7.673	120.045	-0.078	194.567	104.186	-0.696	5.319	127.904	146.353	2.909	6.717	9.923	12.940	145.444	8.826	-8191	255	
41561.379	1	1	0	0	0.10312	0.099467	0.22706	0.14484	0.13084	0.12979	0.12391	0.071989	0.2141	0.10724	0.075754	0.19302	0.31717	0.13854	0.12867	0.13649	-2.4708	-2.6437	-2.9188	-2.7625	-2.6667	-3.0583	-2.7875	-2.9083	-2.9708	-2.7229	-3.1688	-3.025	-2.5938	-3.0021	-2.6688	-2.8438	51.644	71.941	286.576	23.337	24.899	273.784	267.980	195.550	226.875	39.731	38.785	2.564	315.554	56.140	201.282	29.947	0.00023644	0.00050278	0.00011742	472.67	1.4523e-06	2.3815e-06	441.03	176.38	9.0122e-07	5.3155e-06	190.85	88.77	78.242	43.615	3.5037e-06	49.278	0.00038373	0.00038802	0.00011013	463.98	4.3565e-06	4.2254e-06	431.69	173.65	4.112e-06	4.2197e-06	187.81	87.878	77.466	43.402	4.619e-06	48.64	225.035	86.440	101.018	-0.229	166.751	265.908	-1.428	5.389	227.483	158.827	2.675	6.913	9.752	12.730	215.657	8.725	-8191	255	
41561.473	1	1	0	0	0.13619	0.22412	0.27369	0.12161	0.0054883	0.20355	0.17491	0.25831	0.18393	0.098665	0.1593	0.047513	0.10314	0.09611	0.17882	0.13686	-2.2979	-2.5354	-2.9708	-3.1042	-2.7396	-3.0125	-2.6917	-2.825	-2.8917	-2.7188	-2.9208	-3.075	-2.6708	-3.0042	-2.8417	-2.7438	218.404	154.925	321.808	221.145	173.786	15.180	308.352	315.943	220.687	36.565	304.620	220.619	232.030	139.235	92.936	269.585	0.00024697	0.00042485	5.708e-05	472.83	1.975e-06	2.592e-06	439.08	175.73	1.4241e-06	3.391e-06	189.31	88.671	77.558	43.621	4.8372e-06	48.776	0.00038127	0.00040018	0.00011334	462.64	4.1068e-06	4.2776e-06	429.75	172.64	4.115e-06	4.2478e-06	185.54	87.32	76.977	43.236	4.472e-06	48.213	221.639	94.547	129.033	-0.272	200.903	138.438	-1.035	5.219	163.792	167.593	2.389	6.765	9.969	13.226	144.226	9.070	-8191	255	
41561.594	1	1	0	0	0.17708	0.18977	0.11082	0.27287	0.078529	0.35802	0.083237	0.25666	0.12399	0.20095	0.097416	0.12857	0.24775	0.10887	0.16987	0.027913	-2.5896	-2.5604	-2.6521	-2.9542	-2.7125	-2.8875	-3.0042	-2.8417	-2.975	-2.7687	-2.8458	-2.9875	-2.6125	-3.0146	-2.6937	-2.7771	-4.154	129.356	105.412	253.434	110.603	136.866	162.148	120.335	64.329	175.477	84.756	185.867	271.985	336.975	76.675	239.306	0.00023575	0.000112	8.1872e-05	471.19	4.299e-06	4.4587e-06	435.82	174.24	1.8327e-06	5.2674e-06	189.1	87.85	77.531	43.381	4.7379e-06	48.833	0.00037438	0.00040475	0.00011273	462.48	4.0486e-06	4.683e-06	427.1	171.83	4.105e-06	4.528e-06	184.91	87.109	76.805	43.071	4.7137e-06	48.125	216.557	91.996	104.126	-0.469	160.041	108.655	-0.894	5.310	142.953	182.284	2.678	6.502	9.554	13.065	196.877	8.835	-8191	255	
41561.664	1	1	0	0	0.23011	0.25539	0.31537	0.2484	0.052479	0.27807	0.024887	0.10342	0.098404	0.12266	0.33589	0.08378	0.26889	0.41373	0.12706	0.21548	-2.7417	-2.6229	-2.6333	-3.0042	-2.5979	-2.8917	-2.8104	-2.6167	-3.1104	-2.8438	-2.8375	-3.0563	-2.6667	-2.9104	-3.0042	-2.6896	118.699	226.107	244.942	346.041	17.233	305.597	295.644	331.693	31.400	235.231	-12.599	106.068	316.685	66.793	164.104	249.155	0.00023259	0.00034011	4.5126e-05	470.19	4.2588e-06	4.8164e-06	440.87	173.7	1.6512e-06	3.4372e-06	187.19	88.575	77.661	43.306	4.7616e-06	48.844	0.00039065	0.0004279	0.00011723	461.01	4.3342e-06	4.7567e-06	429.08	171.49	4.2894e-06	4.8285e-06	185.21	87.093	76.864	43.044	4.7338e-06	48.14	221.760	109.028	61.822	-0.136	155.562	131.675	-1.218	5.264	215.091	128.110	2.663	6.797	9.590	12.943	155.499	9.058	-8191	255	
41561.785	1	1	0	0	0.17036	0.22849	0.088356	0.18051	0.067178	0.033173	0.11291	0.092253	0.27009	0.19834	0.1046	0.13501	0.18131	0.35069	0.12149	0.2142	-2.5583	-2.7104	-2.6146	-3.0062	-2.7104	-3.0187	-3.0354	-2.7708	-3.0542	-2.7667	-2.8896	-3.0187	-2.6	-2.8875	-2.9208	-2.675	92.537	297.494	286.413	98.593	263.147	69.788	296.779	282.077	263.147	15.192	227.148	78.934	288.674	317.909	5.561	338.341	0.0002699	0.00027874	6.3424e-05	470.57	4.9179e-06	3.806e-06	440.82	174.97	2.0547e-06	2.2866e-06	188.51	88.215	77.125	43.396	4.9524e-06	48.775	0.00041594	0.00043514	0.00011574	461.13	4.4333e-06	4.832e-06	430.39	172.57	4.4233e-06	4.6693e-06	185.64	87.199	76.762	43.077	4.5665e-06	48.118	211.792	81.618	131.000	-0.237	182.343	118.697	-0.881	5.411	160.725	199.861	2.590	6.539	9.649	13.055	164.389	9.216	-8191	255	
41561.883	1	1	0	0	0.017038	0.12794	0.15491	0.077932	0.27675	0.10519	0.12226	0.16772	0.30208	0.13072	0.13735	0.18263	0.067708	0.18776	0.25009	0.22299	-2.55	-2.6417	-2.6896	-3.0396	-2.7271	-2.8312	-2.8625	-2.6792	-3.0312	-2.9354	-2.925	-3.0417	-2.8583	-2.9146	-3.0687	-2.7458	109.135	274.494	315.877	229.150	79.798	-11.438	242.470	81.452	330.528	150.506	236.401	214.586	106.742	6.425	241.927	14.369	0.00021488	0.00020023	9.4894e-05	470.67	6.3161e-06	3.6385e-06	437.84	175.26	2.3441e-06	4.7704e-06	185.48	88.332	77.256	43.262	3.3356e-06	48.894	0.00040542	0.00043055	0.00011168	461.31	4.3913e-06	4.7307e-06	428.79	172.01	4.3255e-06	4.5014e-06	183.91	86.684	76.711	43.083	4.4582e-06	48.139	217.257	49.717	49.016	-0.184	159.088	102.956	-1.098	5.031	168.139	156.354	2.425	6.781	9.949	13.182	156.089	9.135	-8191	255	
41561.977	1	1	0	0	0.17217	0.37341	0.19062	0.13097	0.03659	0.063672	0.12896	0.20449	0.19768	0.1326	0.16276	0.26517	0.11243	0.17851	0.055972	0.12522	-2.675	-2.8417	-2.5958	-3.0354	-2.7375	-2.8125	-3.0146	-2.7896	-2.9667	-2.8354	-2.7	-2.8917	-2.9313	-2.7792	-2.9167	-2.7687	53.689	55.426	298.682	288.422	69.298	39.100	245.708	214.456	38.952	287.591	31.763	312.625	196.799	336.397	102.221	265.554	0.00026085	0.00033326	0.00011199	466.95	2.8465e-06	3.2171e-06	436.65	174.89	3.8897e-06	4.6277e-06	188.68	88.336	76.868	43.066	1.6179e-06	48.715	0.00042058	0.00043639	0.00011135	459.72	4.4481e-06	4.8755e-06	427.56	172.28	4.4994e-06	4.571e-06	186.03	87.007	76.684	42.943	4.4582e-06	48.003	216.408	55.403	89.807	-0.329	136.569	176.528	-1.203	5.239	173.562	157.525	2.776	6.880	9.493	12.953	175.660	9.146	-8191	255	
41562.074	1	1	0	0	0.32037	0.35462	0.076409	0.13204	0.12602	0.13375	0.15366	0.23111	0.19839	0.1052	0.052677	0.088297	0.17912	0.26985	0.09604	0.2289	-2.2021	-2.8292	-2.5542	-2.8896	-2.6125	-2.7333	-2.9958	-2.7229	-2.9188	-2.9875	-2.6042	-3.0417	-2.8563	-2.8063	-2.975	-2.7958	259.478	295.755	128.046	279.751	249.996	37.689	-5.853	-4.754	156.076	276.144	67.358	58.963	319.809	39.148	235.371	343.081	0.00025913	0.00030813	5.4016e-05	469.6	4.4092e-06	3.7924e-06	438.4	174.07	3.0876e-06	4.3186e-06	187.46	87.829	77.095	43.104	3.2149e-06	48.552	0.00043963	0.00043588	0.00011312	460.27	4.795e-06	4.892e-06	428.37	171.97	4.8499e-06	4.7502e-06	185.03	86.821	76.648	42.801	4.6325e-06	47.96	221.584	96.384	40.044	-0.447	187.844	150.931	-1.334	5.134	196.693	98.087	2.460	6.951	9.605	13.248	197.993	9.128	-8191	255	
41562.195	1	1	0	0	0.1422	0.25024	0.10916	0.065741	0.2322	0.13491	0.28212	0.25473	0.10211	0.19434	0.32721	0.27471	0.20565	0.1485	0.15681	0.24189	-2.4562	-2.7021	-2.5896	-3.0354	-2.9354	-2.7687	-3.0563	-2.8417	-2.7333	-3.2604	-2.8563	-3.0646	-2.8833	-2.7229	-2.9125	-2.6896	119.255	229.725	175.285	54.459	242.700	5.515	307.272	310.182	157.501	331.597	113.471	290.800	29.303	317.420	257.744	216.348	0.00020386	6.1192e-05	8.0903e-05	466.57	3.7068e-06	2.8357e-06	432.86	174.46	2.199e-06	3.8402e-06	186.69	86.94	76.209	42.96	4.7509e-06	48.274	0.00044434	0.00043359	0.00011669	458.3	4.6391e-06	4.8609e-06	424.7	171.08	4.903e-06	4.5999e-06	182.66	85.887	75.952	42.65	4.7154e-06	47.572	218.388	96.137	73.143	-0.169	154.120	144.148	-0.833	5.379	185.721	147.992	2.550	6.910	10.115	13.230	172.927	9.022	-8191	255	
41562.266	1	1	0	0	0.2299	0.18918	0.17534	0.073208	0.16566	0.045335	0.079646	0.11794	0.25242	0.16161	0.065208	0.11445	0.035527	0.08589	0.19437	0.18165	-2.3688	-2.9958	-2.6104	-2.8646	-2.8583	-2.7333	-2.9854	-2.8083	-2.875	-3.0646	-2.8667	-2.8896	-2.9479	-2.5479	-3.1042	-2.9083	329.809	204.128	26.298	277.246	11.429	304.304	74.809	100.597	239.760	314.186	339.302	35.099	232.672	323.205	161.324	81.822	0.00025486	0.00055598	8.3974e-05	466.28	5.4959e-06	3.3904e-06	434.23	172.23	4.3862e-07	3.4205e-06	184.52	87.068	76.243	42.957	2.1839e-06	48.062	0.00044002	0.00041776	0.00012019	458.07	4.7452e-06	4.4708e-06	424.11	169.93	4.8457e-06	4.4887e-06	182.23	85.966	75.879	42.623	4.851e-06	47.522	214.955	79.700	45.844	-0.376	170.385	133.117	-1.050	5.173	236.437	124.616	2.701	6.734	9.774	12.938	180.691	9.309	-8191	255	
41562.387	1	1	0	0	0.12669	0.06234	0.19407	0.19461	0.16525	0.48481	0.046062	0.20363	0.10353	0.13462	0.083289	0.11434	0.25714	0.21716	0.26145	0.17154	-2.2479	-2.9562	-2.7708	-2.9146	-2.7979	-2.6771	-2.9729	-2.7833	-2.7333	-2.8792	-2.8396	-2.9333	-2.8333	-2.6979	-2.9646	-2.9625	95.209	229.847	236.886	250.430	172.784	52.499	59.367	275.310	292.142	52.112	2.649	97.863	333.070	308.492	152.572	275.177	0.0002336	0.00033141	6.2582e-05	468.34	3.2629e-06	5.2656e-06	433.8	172.18	2.7208e-06	4.5387e-06	185.89	87.095	76.619	42.711	3.0398e-06	48.252	0.00043539	0.00040477	0.00012236	458.63	4.6124e-06	4.6961e-06	424.81	169.99	4.7672e-06	4.7405e-06	183.9	86.325	76.026	42.557	5.1178e-06	47.645	223.193	67.571	103.761	-0.734	161.732	148.769	-0.808	5.368	155.441	133.119	2.629	6.554	9.601	13.227	134.335	8.802	-8191	255	
41562.484	1	1	0	0	0.057737	0.089683	0.11683	0.13769	0.19097	0.10292	0.29242	0.2174	0.19066	0.28771	0.21763	0.073073	0.17025	0.085975	0.183	0.28881	-2.1437	-2.8812	-2.6229	-2.8958	-2.9125	-2.6458	-2.9375	-2.9396	-2.7042	-3.0479	-2.6396	-2.9208	-3.1417	-2.7104	-2.9542	-3.0771	91.917	46.213	219.389	267.467	245.219	283.984	284.691	236.936	123.929	58.256	261.982	91.118	271.478	16.275	333.638	277.002	0.00026649	0.00031251	0.00012534	466.67	3.2979e-06	1.5306e-06	435.5	172.61	2.3277e-06	4.6171e-06	187.11	87.38	76.897	42.879	2.7828e-06	48.085	0.0004371	0.0004408	0.00012553	457.82	4.6034e-06	4.7394e-06	426.26	170.92	4.6464e-06	4.7096e-06	184.39	86.309	76.193	42.649	4.9426e-06	47.583	221.463	73.492	57.493	-0.443	146.487	79.040	-1.206	5.399	135.132	175.629	2.454	6.549	9.666	13.065	181.648	9.091	-8191	255	
41562.578	1	1	0	0	0.057603	0.26507	0.085069	0.40808	0.27766	0.18193	0.20218	0.08113	0.23636	0.041884	0.22415	0.28842	0.07338	0.21531	0.26249	0.061105	-2.4083	-3.0125	-2.7625	-2.8083	-3.0792	-2.6521	-3	-3.1146	-2.6521	-3.1813	-2.6063	-2.8021	-3.075	-2.6854	-2.8187	-2.9646	285.084	225.147	170.242	289.638	95.534	176.386	320.000	32.476	272.902	162.077	93.684	225.380	114.144	77.015	248.049	218.987	0.00025437	0.00010175	9.1362e-05	466.93	3.0609e-06	2.6857e-06	433.28	172.28	3.47e-06	4.0013e-06	184.24	87.247	76.494	42.933	5.0527e-06	48.411	0.00040299	0.0004325	0.00012419	457.34	4.4849e-06	4.7631e-06	423.79	170.28	4.5127e-06	4.7644e-06	182.8	86.09	76.068	42.653	4.9467e-06	47.562	209.748	132.819	72.210	-0.636	171.159	152.279	-0.933	5.193	148.503	118.166	2.488	6.572	9.779	13.136	206.481	9.102	-8191	255	
41562.672	1	1	0	0	0.13273	0.1817	0.30819	0.17143	0.019883	0.14255	0.27389	0.10493	0.25415	0.25803	0.13573	0.21863	0.28056	0.018025	0.25599	0.087799	-2.2083	-3.025	-2.8646	-2.7021	-3.0292	-2.7375	-2.8937	-3.1104	-2.6208	-3.0167	-2.8521	-2.775	-3.1688	-2.8479	-2.975	-3.1104	284.447	103.812	261.450	328.257	325.272	41.435	56.037	337.538	168.360	206.807	63.385	-6.084	333.286	92.576	-12.634	247.703	0.00025165	0.0003546	0.00011124	467.75	5.579e-06	4.0441e-06	436.24	173.5	1.8654e-06	3.4366e-06	188.98	87.536	76.586	43.058	3.8309e-06	48.435	0.00039825	0.0004312	0.0001207	457.5	4.1922e-06	4.6279e-06	425.41	171	4.4035e-06	4.6322e-06	184.97	86.492	76.179	42.703	4.7425e-06	47.905	217.258	72.795	46.002	-0.358	147.618	104.693	-0.798	5.039	219.301	143.145	2.283	6.547	9.816	12.986	213.028	8.728	-8191	255	
41562.770	1	1	0	0	0.20158	0.10779	0.3022	0.34425	0.054175	0.09617	0.1472	0.035728	0.072433	0.17096	0.081529	0.17774	0.40777	0.36161	0.25068	0.25525	-2.35	-2.8417	-2.7854	-2.6833	-3.0417	-2.9313	-2.9479	-3.0083	-2.8	-3.2104	-2.8021	-2.7792	-3.0708	-2.775	-2.9	-2.9083	180.551	217.754	171.479	289.686	242.267	5.012	98.065	18.092	130.684	228.996	268.725	269.076	51.141	212.430	245.621	309.452	0.00021389	0.00031773	7.8663e-05	466.02	4.1616e-06	1.2047e-06	438.02	173.33	1.1389e-06	4.05e-06	188.83	88.093	76.865	43.096	4.0457e-06	48.55	0.00038862	0.00044766	0.00011511	458.26	4.3736e-06	4.5879e-06	427.85	171.72	4.5053e-06	4.7109e-06	185.68	86.716	76.439	42.871	4.8319e-06	47.879	233.380	126.625	130.666	-0.099	125.074	192.286	-1.121	5.342	196.516	149.396	2.700	7.118	9.737	12.912	188.354	9.264	-8191	255	
41562.891	1	1	0	0	0.13573	0.24968	0.17187	0.14013	0.31958	0.16774	0.12087	0.18531	0.1774	0.094945	0.14212	0.28865	0.053668	0.24997	0.20478	0.20445	-2.3417	-2.9208	-2.9667	-2.8229	-2.9854	-2.9313	-2.8917	-3.0979	-2.8333	-3.0479	-3.0083	-2.6667	-2.9625	-2.8187	-2.7375	-3.0833	282.078	136.577	247.806	96.053	-7.714	243.055	25.142	300.598	101.388	266.661	164.866	339.768	43.428	318.370	103.939	94.693	0.00020816	0.0003801	3.5599e-05	467.59	5.1036e-06	4.6139e-06	435.71	173.53	4.2426e-07	3.8426e-06	186.22	86.785	76.35	42.714	2.3426e-06	47.758	0.00040432	0.00044822	0.00011873	458.4	4.5227e-06	4.7665e-06	425.52	170.82	4.496e-06	4.7636e-06	183.6	85.871	75.797	42.444	4.4756e-06	47.374	222.044	67.679	100.678	-0.037	140.418	143.227	-1.275	5.630	3.653	142.849	2.733	6.342	9.612	12.990	215.449	9.231	-8191	255	
41562.961	1	1	0	0	0.34028	0.19491	0.11237	0.26066	0.29134	0.25148	0.19051	0.30619	0.18815	0.11929	0.11302	0.2838	0.1461	0.094967	0.1028	0.082188	-2.2292	-2.8917	-2.9104	-2.6333	-2.9437	-2.9021	-2.8	-3.1521	-2.7979	-2.9313	-3.15	-2.8063	-2.875	-2.9292	-2.6625	-3.1479	29.470	102.497	287.894	308.023	297.137	74.022	38.156	309.878	296.900	192.822	157.215	145.907	276.333	82.709	116.962	69.849	0.00024771	0.00044466	0.00010433	465.03	2.7233e-06	4.2687e-06	433.47	172.84	4.0953e-06	2.3204e-06	186.19	86.976	76.173	42.677	1.5748e-06	48.202	0.00041226	0.00045084	0.00011249	457.84	4.6727e-06	4.812e-06	424.78	170.31	4.59e-06	4.7591e-06	183.65	85.862	75.755	42.406	4.5423e-06	47.415	219.593	68.422	75.071	-0.548	140.487	151.260	-0.877	5.030	162.266	109.076	2.343	6.634	9.491	13.247	89.766	9.250	-8191	255	
41563.059	1	1	0	0	0.18893	0.31314	0.13157	0.082221	0.3837	0.14364	0.074821	0.11896	0.11996	0.089258	0.16794	0.11023	0.0644	0.18962	0.15993	0.042191	-2.3917	-2.8604	-3.0563	-2.7729	-3.0958	-2.8937	-2.7229	-3.0125	-2.7667	-2.9146	-3.1146	-2.8208	-2.9479	-2.9792	-2.5062	-2.9188	13.713	257.271	174.317	326.767	11.613	324.407	82.730	302.417	158.253	227.458	309.666	181.622	169.758	265.937	223.229	101.059	0.00022459	0.00011375	4.9329e-05	466.17	1.7793e-06	3.0029e-06	436.23	173.69	1.6039e-06	5.3623e-06	187.51	87.468	76.512	42.774	3.5193e-06	48.261	0.00042715	0.00046736	0.00011104	456.71	4.6473e-06	4.7794e-06	425.44	170.71	4.5584e-06	4.5442e-06	184.35	86.473	76.059	42.545	4.551e-06	47.682	219.027	23.514	50.860	-0.259	142.980	137.100	-0.962	5.246	155.120	137.005	2.367	6.998	9.612	13.010	147.517	9.071	-8191	255	
41563.152	1	1	0	0	0.042706	0.17111	0.023591	0.2985	0.095706	0.05927	0.14832	0.1413	0.20251	0.074955	0.077869	0.19009	0.2704	0.27553	0.18824	0.12275	-2.5146	-2.7938	-2.8875	-2.7667	-2.825	-3.0521	-2.725	-2.9042	-2.8083	-2.8417	-3.1021	-2.7833	-2.8896	-2.8312	-2.5792	-2.9917	13.355	224.992	214.103	337.576	2.726	74.901	341.965	280.904	218.543	67.458	232.026	248.702	-11.125	211.298	18.213	230.278	0.00024786	0.00030311	0.00014799	467.5	9.2735e-07	5.2439e-06	438.17	174.07	2.3041e-06	3.1598e-06	187.71	87.293	76.543	42.64	4.5957e-06	48.384	0.00042363	0.0004393	0.00010887	459.93	4.7128e-06	4.58e-06	427.6	171.54	4.672e-06	4.5852e-06	184.66	86.168	75.977	42.479	4.4865e-06	47.516	220.724	82.994	83.528	-0.692	216.681	160.718	-1.373	5.411	172.382	170.158	2.284	6.721	9.978	12.956	185.184	9.140	-8191	255	
41563.273	1	1	0	0	0.16829	0.15541	0.14776	0.18134	0.19725	0.15949	0.14707	0.12	0.049377	0.26318	0.21633	0.18474	0.11535	0.27972	0.19433	0.087376	-2.6625	-2.7687	-3.0271	-2.8146	-2.8438	-2.9917	-2.7646	-3.0708	-2.7438	-2.5062	-3.1125	-2.8	-2.7812	-3.0396	-2.825	-2.9958	126.811	341.219	255.057	13.420	205.722	26.488	247.389	2.585	3.444	11.344	-4.079	272.833	277.375	-9.530	318.016	162.751	0.00023226	0.00026661	8.7633e-05	466.82	3.1599e-06	3.0081e-06	432.14	172.9	1.7887e-06	5.6886e-06	185.39	86.96	76.404	42.741	2.6961e-06	48.315	0.0004102	0.00042114	0.0001154	457.75	4.6776e-06	4.5531e-06	423.88	170.26	4.6727e-06	4.5031e-06	183.33	85.843	75.923	42.456	4.6086e-06	47.577	216.975	102.358	91.505	-0.332	185.128	139.695	-0.995	5.270	171.032	155.996	2.903	6.857	9.700	13.040	186.543	9.002	-8191	255	
41563.367	1	1	0	0	0.16718	0.28228	0.046806	0.021514	0.16742	0.13985	0.074766	0.40212	0.097105	0.091307	0.15759	0.18498	0.076187	0.16001	0.10016	0.22888	-2.5104	-2.775	-2.8083	-2.9292	-2.8688	-3.1125	-2.6875	-2.8833	-2.9188	-2.8292	-3.1063	-2.9146	-2.6833	-3.0354	-2.7208	-2.9208	318.995	187.723	289.816	104.317	123.072	-1.672	223.810	341.141	173.917	93.372	70.667	144.840	113.089	177.905	180.092	341.294	0.0002752	0.00045211	5.2809e-05	469.34	4.1972e-06	2.7357e-06	436.55	174.32	2.925e-06	3.1613e-06	188.94	87.242	76.151	42.953	1.3503e-06	48.827	0.00041246	0.00040383	0.00011435	459.46	4.5532e-06	4.4095e-06	426.86	171.96	4.5148e-06	4.4954e-06	185.31	86.327	76.079	42.769	4.5846e-06	47.961	221.079	44.409	97.700	-0.188	144.273	167.314	-1.332	5.079	168.843	142.616	2.212	6.594	9.373	13.011	162.682	8.924	-8191	255	
41563.469	1	1	0	0	0.37441	0.22138	0.067456	0.035373	0.31062	0.057286	0.13854	0.21642	0.11274	0.12048	0.054966	0.15772	0.15191	0.084635	0.22922	0.26846	-2.4667	-2.6979	-3.1854	-2.8229	-2.7625	-3.0771	-2.7854	-2.7625	-3.0187	-2.7875	-3.0667	-3.1208	-2.8375	-3	-2.7646	-2.9333	10.035	18.915	227.352	5.529	154.522	12.443	322.333	58.081	92.640	267.857	112.956	301.770	272.902	31.396	102.816	0.962	0.00025634	0.00038486	0.00010803	471.82	3.9834e-06	4.6424e-06	441.35	176.03	2.7893e-06	6.2244e-06	190.25	88.867	77.457	43.293	3.0822e-06	49.039	0.00038783	0.00039604	0.00011745	462.86	4.2727e-06	4.0989e-06	431.47	173.75	4.0882e-06	4.2115e-06	187.22	87.384	76.773	43.102	4.4474e-06	48.385	224.088	130.544	97.816	-0.602	128.751	129.939	-1.136	5.047	167.064	162.459	2.454	6.675	9.737	13.284	132.128	9.058	-8191	255	
41563.562	1	1	0	0	0.084	0.14805	0.033239	0.25263	0.16585	0.35667	0.13453	0.086273	0.025678	0.061957	0.15307	0.24004	0.32545	0.32161	0.11097	0.21339	-2.725	-2.6146	-2.775	-2.7521	-2.6458	-3.0042	-2.7833	-2.7771	-2.9562	-2.6604	-2.8583	-3.0062	-2.8354	-3.1958	-2.8854	-2.9375	195.676	274.341	287.765	308.323	2.856	158.493	264.556	295.843	166.795	113.009	60.029	255.435	295.576	277.815	18.706	287.487	0.00023865	0.00037604	9.986e-05	472.39	5.3329e-06	1.6282e-06	440.14	175.23	9.0168e-07	2.6261e-06	188.6	87.509	76.86	43.123	2.7132e-06	49.111	0.00037396	0.00038177	0.00011308	462.86	4.0176e-06	4.1439e-06	430.32	173.4	4.0747e-06	4.265e-06	186.05	86.567	76.385	42.954	4.5738e-06	48.147	214.278	75.117	83.647	-0.280	127.624	149.155	-1.342	5.492	160.415	163.982	2.899	6.688	9.647	13.493	205.634	8.847	-8191	255	
41563.656	1	1	0	0	0.11157	0.12606	0.10883	0.37213	0.12172	0.047602	0.16826	0.031486	0.12056	0.040426	0.12116	0.0516	0.14269	0.15415	0.081292	0.14466	-2.5812	-2.8375	-2.8792	-2.9729	-2.6583	-2.925	-2.9146	-2.9229	-3.1896	-2.6937	-2.8083	-2.8563	-2.4604	-3.175	-2.8146	-2.8792	-10.149	37.588	55.068	281.768	209.021	307.006	230.048	71.630	34.886	306.282	143.147	107.767	35.690	293.362	258.586	144.554	0.00024448	0.00050091	7.4991e-05	474.59	4.5824e-06	4.6339e-06	444.7	175.57	4.0555e-06	3.2164e-06	190.7	87.531	76.646	43.384	5.5073e-06	48.639	0.00037001	0.00039277	0.00011412	465.04	3.9373e-06	4.1778e-06	433.64	173.47	3.9736e-06	4.3327e-06	187.21	86.574	76.282	42.996	4.5772e-06	48.054	224.350	81.253	70.311	-0.397	148.529	111.025	-1.149	5.383	177.017	143.272	2.869	6.662	9.826	13.077	176.925	9.133	-8191	255	
41563.754	1	1	0	0	0.1819	0.24555	0.048624	0.062551	0.060416	0.13854	0.13184	0.23413	0.17381	0.19569	0.099289	0.22881	0.25826	0.22958	0.22368	0.43615	-2.6063	-3	-3.0396	-3.0187	-2.725	-2.8708	-2.9583	-2.6688	-3.0604	-2.8125	-2.8042	-3.0687	-2.6521	-3.2	-2.9354	-2.7083	134.214	342.758	323.953	263.984	44.920	303.960	297.954	336.949	204.136	293.418	193.503	280.757	270.249	337.864	91.760	244.994	0.00022468	0.0001337	7.9252e-05	477.49	4.409e-06	5.2526e-06	446.23	176.01	5.3193e-06	3.8411e-06	190.87	87.826	76.701	42.994	2.1727e-06	48.885	0.00037678	0.00041574	0.00012115	465.71	4.1464e-06	4.5014e-06	433.81	173.45	4.1394e-06	4.6492e-06	187.3	86.495	76.387	42.87	4.5213e-06	48.174	227.850	115.869	89.901	-0.329	157.769	90.616	-1.240	5.380	186.372	134.916	2.654	6.476	9.510	13.350	215.351	8.976	-8191	255	
41563.875	1	1	0	0	0.11725	0.17622	0.14497	0.23754	0.034643	0.093032	0.13203	0.20407	0.21787	0.13789	0.14509	0.080068	0.022732	0.11271	0.22256	0.22771	-2.7479	-2.6917	-2.975	-3.1542	-2.7562	-3.1604	-2.9458	-2.8792	-3.1458	-2.775	-2.8042	-3.025	-2.7042	-3.1083	-2.8667	-2.7125	101.927	213.135	121.879	12.092	196.355	345.503	323.494	294.933	230.562	158.014	-10.759	304.152	282.456	342.857	245.629	333.893	0.00022286	0.00049582	6.2001e-05	475.83	3.8887e-06	4.0203e-06	442.64	176.43	2.5575e-06	5.6794e-06	190.61	87.587	76.811	43.315	2.5343e-06	48.376	0.00039006	0.00043821	0.00011995	465.67	4.2291e-06	4.5844e-06	432.86	174.01	4.363e-06	4.3747e-06	186.59	86.679	76.225	42.96	4.3318e-06	47.901	221.386	96.563	137.650	-0.389	161.779	161.231	-1.250	4.899	212.433	135.972	2.268	6.814	9.849	13.101	129.911	8.985	-8191	255	
41563.969	1	1	0	0	0.14383	0.089866	0.15458	0.14183	0.2392	0.17706	0.065073	0.31349	0.13371	0.19488	0.13021	0.35553	0.05872	0.23087	0.17994	0.25068	-2.525	-2.7396	-2.6958	-3.2125	-2.8146	-3.0417	-2.7812	-2.6479	-2.9979	-2.7062	-2.8729	-3.0687	-2.7396	-2.9792	-2.9396	-2.7333	14.151	28.540	249.700	94.210	313.738	191.666	126.875	124.580	9.760	188.806	206.591	308.705	21.795	335.194	315.997	156.557	0.00024621	0.00017798	0.00011537	474.01	3.9227e-06	3.2168e-06	438.06	175.69	1.2376e-06	6.0193e-07	187.78	86.417	76.718	42.73	3.6761e-06	48.491	0.00039251	0.00042132	0.00011636	463.97	4.4006e-06	4.5652e-06	429.75	172.31	4.8129e-06	4.7352e-06	184.74	85.711	75.961	42.587	4.4771e-06	47.576	224.579	111.942	56.529	-0.124	156.713	126.330	-1.123	5.252	236.785	40.832	2.706	6.995	9.532	13.278	156.773	9.212	-8191	255	
41564.066	1	1	0	0	0.10037	0.11423	0.24938	0.24959	0.077917	0.13197	0.22394	0.062354	0.20467	0.33397	0.15388	0.30494	0.15182	0.17799	0.26266	0.20697	-2.7375	-2.8187	-2.6375	-3.0625	-2.5812	-2.8229	-3.1063	-2.8229	-3.0521	-2.7229	-2.6979	-3.1104	-2.6354	-2.8563	-2.9854	-2.9458	55.781	42.677	124.880	-6.098	344.463	213.818	194.731	288.160	8.357	332.582	284.743	215.425	291.786	328.673	119.234	293.616	0.00020477	0.0003366	0.00010498	471.98	5.0777e-06	2.2931e-06	441.89	175.74	2.2662e-06	2.7932e-06	186.83	86.942	75.998	43.272	2.5276e-06	48.227	0.00042367	0.0004499	0.00011761	462.46	4.8659e-06	4.8399e-06	430.36	172.72	4.9507e-06	4.8415e-06	184.82	85.963	75.827	42.822	4.4996e-06	47.707	223.610	85.540	71.949	-0.104	138.583	193.764	-1.076	5.310	203.194	160.132	2.813	6.719	9.513	13.182	197.721	9.111	-8191	255	
41564.188	1	1	0	0	0.22734	0.044594	0.094409	0.10756	0.1922	0.14022	0.20675	0.15524	0.21253	0.11185	0.067804	0.09471	0.22216	0.21412	0.28498	0.058118	-2.6479	-2.9333	-2.725	-3.0583	-2.7708	-2.7313	-3.2396	-2.7042	-3.0729	-2.9417	-2.5	-3.1146	-2.7583	-2.9208	-3.1125	-2.8854	345.715	183.514	226.973	101.498	49.167	160.755	192.709	2.895	333.484	142.499	188.855	224.190	1.383	326.961	11.606	12.199	0.00023672	0.0001467	5.653e-05	473.25	4.4327e-06	2.795e-06	444.08	175.55	3.9489e-06	4.9299e-06	189.54	87.846	76.204	42.991	1.4901e-06	48.766	0.0004199	0.00043216	0.00011206	464.42	4.6666e-06	4.6282e-06	433.34	173.56	4.8567e-06	4.4613e-06	186.39	86.439	76.082	42.819	4.5211e-06	48.017	219.277	30.936	76.472	-0.088	177.602	145.097	-1.222	5.446	151.973	161.596	2.526	6.494	9.703	12.903	174.709	9.017	-8191	255	
41564.258	1	1	0	0	0.15814	0.13799	0.11901	0.088108	0.3662	0.19089	0.20032	0.12699	0.081369	0.18849	0.095871	0.042931	0.21404	0.065635	0.2655	0.10635	-2.3812	-2.9062	-2.4667	-3.2854	-3.0187	-2.8771	-2.9208	-2.7438	-2.7396	-3.1188	-2.5896	-3.2	-2.7229	-2.6396	-2.9917	-2.8937	290.879	210.942	163.567	201.915	150.371	89.304	327.073	200.536	327.472	132.088	17.758	164.453	34.450	345.380	343.205	159.813	0.00025025	0.00031219	0.0001492	473.48	3.4815e-06	5.0553e-06	441.48	175.55	2.109e-06	1.3128e-06	188.33	86.75	75.968	43.111	1.4708e-06	48.563	0.00040916	0.00041185	0.00010707	464.29	4.4464e-06	4.4775e-06	431.19	172.88	4.6266e-06	4.2901e-06	185.34	85.839	75.66	42.729	4.6149e-06	47.739	219.924	99.912	78.114	0.083	125.809	140.839	-1.038	5.197	137.980	193.986	2.526	6.647	9.621	13.211	171.449	9.260	-8191	255	
41564.352	1	1	0	0	0.089355	0.055739	0.10457	0.27415	0.13721	0.1287	0.1038	0.056228	0.29259	0.09597	0.12557	0.10124	0.19783	0.13357	0.014667	0.18992	-2.325	-2.9354	-2.6813	-3.025	-2.9646	-2.5458	-3.0979	-2.7438	-2.7708	-2.9917	-2.7313	-2.9667	-2.9313	-2.7167	-3.15	-2.7458	30.032	115.118	232.924	229.856	259.352	133.447	176.306	333.362	232.231	28.825	255.326	278.397	267.082	96.977	301.404	304.583	0.00023873	0.00013394	8.3523e-05	476.06	5.1084e-06	5.4171e-06	442.12	174.96	3.0072e-06	5.5493e-06	188.64	87.177	76.557	43.115	3.5224e-06	48.522	0.00040467	0.00039794	0.00010878	466.53	4.4558e-06	4.2998e-06	432.05	172.81	4.5404e-06	4.1993e-06	185.76	85.806	76.023	42.792	4.6289e-06	47.89	224.908	45.523	83.696	-0.043	152.458	119.461	-1.117	5.352	177.049	128.081	2.462	6.936	10.024	13.137	110.602	9.233	-8191	255	
41564.449	1	1	0	0	0.072879	0.22495	0.20271	0.088397	0.31061	0.076512	0.19631	0.11907	0.23161	0.21202	0.087921	0.15038	0.23092	0.024992	0.21927	0.1403	-2.5479	-3.1333	-2.6542	-3.1354	-2.7333	-2.725	-2.9708	-2.7896	-2.8187	-3.1958	-2.8833	-3.0312	-2.9458	-2.6896	-2.9875	-2.6604	143.002	256.515	84.658	244.112	290.262	37.077	319.470	222.796	30.625	118.944	307.347	38.322	177.070	295.040	298.171	38.212	0.00023948	0.00052872	7.2072e-05	478.18	4.6103e-06	4.8231e-06	442.52	176.02	2.0273e-06	2.4707e-06	190.89	86.797	76.561	43.23	5.0153e-06	48.579	0.00039303	0.00037989	0.0001139	467.25	4.3159e-06	4.2662e-06	433.56	173.69	4.3725e-06	4.217e-06	186.53	85.957	75.963	42.881	4.8097e-06	47.985	218.474	105.286	50.468	-0.418	165.244	116.642	-0.890	5.248	157.380	109.133	2.616	6.937	9.818	12.952	184.552	8.870	-8191	255	
41564.570	1	1	0	0	0.17362	0.15192	0.094595	0.087463	0.067056	0.28774	0.069744	0.014629	0.1075	0.038372	0.19844	0.26681	0.276	0.18694	0.15666	0.14653	-2.2792	-2.9083	-2.6917	-2.8854	-3.0854	-2.6896	-3.0896	-2.9188	-2.6854	-3.0563	-2.8417	-2.8312	-2.9208	-2.6896	-2.8083	-2.7771	206.853	137.128	206.906	110.858	20.307	155.093	108.230	48.683	289.960	133.666	221.506	18.262	26.447	343.133	240.477	50.908	0.00020906	0.00025984	5.859e-05	476.97	4.7503e-06	3.3783e-06	443.66	175.99	1.7636e-06	3.0512e-06	188.38	86.901	76.275	43.233	2.612e-06	48.757	0.00038604	0.00040307	0.00011549	467.63	4.1847e-06	4.3584e-06	434.38	173.62	4.1783e-06	4.4608e-06	185.88	86.034	75.886	42.825	4.7971e-06	47.892	221.938	84.115	126.224	-0.418	169.359	131.131	-1.189	5.285	181.490	157.712	2.544	6.748	9.810	13.039	127.513	9.334	-8191	255	
41564.664	1	1	0	0	0.12883	0.080833	0.33589	0.17218	0.17245	0.050692	0.24895	0.18444	0.12948	0.12444	0.15744	0.17063	0.19505	0.17457	0.071444	0.27734	-2.1979	-2.9521	-2.6625	-2.9813	-2.8937	-2.7771	-2.9292	-2.7958	-2.6437	-2.9688	-2.9042	-2.9417	-3.1146	-2.8854	-2.9583	-2.7625	224.055	272.561	4.332	69.775	29.153	200.453	211.580	316.520	207.256	325.804	142.883	214.805	344.776	-0.700	213.246	317.479	0.00026424	0.00057903	7.3022e-05	476.68	7.2497e-06	4.8279e-06	443.28	175.18	3.074e-06	4.7365e-06	187.54	86.448	76.783	42.777	3.0392e-06	48.329	0.00039368	0.00039066	0.00011278	466.61	4.0882e-06	4.3033e-06	431.28	172.62	4.1571e-06	4.6024e-06	184.82	85.522	75.786	42.562	4.9291e-06	47.681	216.023	88.468	76.823	-0.416	168.595	134.438	-1.232	5.150	211.823	138.211	2.962	6.858	9.639	12.952	145.862	9.157	-8191	255	
#DATA ENDS
