BOXY.EXE: ISS Imagent and Oximeter Data Acquisition Program Version 0.80
Ascii Record File

#ACQ INFORMATION
2  Detector Channels 
16  External MUX Channels 
1  Auxiliary Channels 
5000  Waveform (CCF) Frequency (Hz)
1  Waveforms Skipped 
30  Waveforms Averaged 
1  Cycles Averaged 
16  Acquisitions per Waveform 
10.0806  Updata Rate (Hz) 

#FILE INFORMATION
TRUE -- External MUX Channel results are PARSED.
FALSE -- AC DC and Phase are NOT grouped.
TRUE -- Companion Program Settings File CREATED.
FALSE -- AC data not excluded
FALSE -- DC data not excluded
FALSE -- Phase data not excluded
FALSE -- Auxillary Chn. data not excluded
Tab delimiters

#CALIBRATION STATE
TRUE -- Waveform Calibration Values APPLIED.


#AUX CALIBRATION VALUES
Val Type	aux-1	

Term	1.0000e+00	
Factor	0.0000e+00	


#WF CALIBRATION VALUES
A = Detector Channel
Val Type	A-AC1	A-AC2	A-AC3	A-AC4	A-AC5	A-AC6	A-AC7	A-AC8	A-AC9	A-AC10	A-AC11	A-AC12	A-AC13	A-AC14	A-AC15	A-AC16	A-DC1	A-DC2	A-DC3	A-DC4	A-DC5	A-DC6	A-DC7	A-DC8	A-DC9	A-DC10	A-DC11	A-DC12	A-DC13	A-DC14	A-DC15	A-DC16	A-Ph1	A-Ph2	A-Ph3	A-Ph4	A-Ph5	A-Ph6	A-Ph7	A-Ph8	A-Ph9	A-Ph10	A-Ph11	A-Ph12	A-Ph13	A-Ph14	A-Ph15	A-Ph16	

Term	0.00000e+00	0.00000e+00	0.00000e+00	0.00000e+00	0.00000e+00	0.00000e+00	0.00000e+00	0.00000e+00	0.00000e+00	0.00000e+00	0.00000e+00	0.00000e+00	0.00000e+00	0.00000e+00	0.00000e+00	0.00000e+00	0.00000e+00	0.00000e+00	0.00000e+00	0.00000e+00	0.00000e+00	0.00000e+00	0.00000e+00	0.00000e+00	0.00000e+00	0.00000e+00	0.00000e+00	0.00000e+00	0.00000e+00	0.00000e+00	0.00000e+00	0.00000e+00	0.00000e+00	0.00000e+00	0.00000e+00	0.00000e+00	0.00000e+00	0.00000e+00	0.00000e+00	0.00000e+00	0.00000e+00	0.00000e+00	0.00000e+00	0.00000e+00	0.00000e+00	0.00000e+00	0.00000e+00	0.00000e+00	
Factor	1.00000e+00	1.00000e+00	1.00000e+00	1.00000e+00	1.00000e+00	1.00000e+00	1.00000e+00	1.00000e+00	1.00000e+00	1.00000e+00	1.00000e+00	1.00000e+00	1.00000e+00	1.00000e+00	1.00000e+00	1.00000e+00	1.00000e+00	1.00000e+00	1.00000e+00	1.00000e+00	1.00000e+00	1.00000e+00	1.00000e+00	1.00000e+00	1.00000e+00	1.00000e+00	1.00000e+00	1.00000e+00	1.00000e+00	1.00000e+00	1.00000e+00	1.00000e+00	X	X	X	X	X	X	X	X	X	X	X	X	X	X	X	X	

B = Detector Channel
Val Type	B-AC1	B-AC2	B-AC3	B-AC4	B-AC5	B-AC6	B-AC7	B-AC8	B-AC9	B-AC10	B-AC11	B-AC12	B-AC13	B-AC14	B-AC15	B-AC16	B-DC1	B-DC2	B-DC3	B-DC4	B-DC5	B-DC6	B-DC7	B-DC8	B-DC9	B-DC10	B-DC11	B-DC12	B-DC13	B-DC14	B-DC15	B-DC16	B-Ph1	B-Ph2	B-Ph3	B-Ph4	B-Ph5	B-Ph6	B-Ph7	B-Ph8	B-Ph9	B-Ph10	B-Ph11	B-Ph12	B-Ph13	B-Ph14	B-Ph15	B-Ph16	

Term	0.00000e+00	0.00000e+00	0.00000e+00	0.00000e+00	0.00000e+00	0.00000e+00	0.00000e+00	0.00000e+00	0.00000e+00	0.00000e+00	0.00000e+00	0.00000e+00	0.00000e+00	0.00000e+00	0.00000e+00	0.00000e+00	0.00000e+00	0.00000e+00	0.00000e+00	0.00000e+00	0.00000e+00	0.00000e+00	0.00000e+00	0.00000e+00	0.00000e+00	0.00000e+00	0.00000e+00	0.00000e+00	0.00000e+00	0.00000e+00	0.00000e+00	0.00000e+00	-1.03364e+02	-1.28589e+02	-1.22771e+02	-1.82799e+02	-5.29327e+01	-6.36955e+01	-1.54998e+02	-1.62015e+02	-5.44320e+01	-6.23480e+01	-1.71853e+02	-1.69414e+02	-1.80018e+02	-1.77411e+02	-5.74280e+01	-1.48938e+02	
Factor	1.60856e-05	1.42380e-04	4.19562e-05	1.84207e-01	1.34200e-06	1.50499e-06	1.63323e-01	4.88771e-02	1.25689e-06	1.78350e-06	9.25773e-02	2.71365e-02	2.66344e-02	8.67124e-03	1.27850e-06	1.23973e-02	7.02452e-06	9.64614e-06	2.71299e-06	9.29001e-02	1.02271e-07	1.07808e-07	7.77924e-02	2.48455e-02	1.01700e-07	1.07589e-07	4.55974e-02	1.35142e-02	1.37367e-02	4.44083e-03	1.04084e-07	6.15744e-03	X	X	X	X	X	X	X	X	X	X	X	X	X	X	X	X	



#DISTANCE SETTINGS
A = Detector Channel
A-1	A-2	A-3	A-4	A-5	A-6	A-7	A-8	A-9	A-10	A-11	A-12	A-13	A-14	A-15	A-16	

2.5000e+00	3.0000e+00	2.5000e+00	3.0000e+00	2.0000e+00	3.0000e+00	1.5000e+00	3.0000e+00	3.0000e+00	3.0000e+00	3.0000e+00	3.0000e+00	3.0000e+00	3.0000e+00	1.5000e+00	3.0000e+00	

B = Detector Channel
B-1	B-2	B-3	B-4	B-5	B-6	B-7	B-8	B-9	B-10	B-11	B-12	B-13	B-14	B-15	B-16	

1.0000e+01	1.0000e+01	1.0000e+01	1.4400e+00	1.0000e+01	1.0000e+01	1.5100e+00	1.9400e+00	1.0000e+01	1.0000e+01	1.9900e+00	2.4900e+00	2.4100e+00	2.9000e+00	1.0000e+01	2.9800e+00	




#DATA BEGINS
time	group	step	mark	flag	A-AC1	A-AC2	A-AC3	A-AC4	A-AC5	A-AC6	A-AC7	A-AC8	A-AC9	A-AC10	A-AC11	A-AC12	A-AC13	A-AC14	A-AC15	A-AC16	A-DC1	A-DC2	A-DC3	A-DC4	A-DC5	A-DC6	A-DC7	A-DC8	A-DC9	A-DC10	A-DC11	A-DC12	A-DC13	A-DC14	A-DC15	A-DC16	A-Ph1	A-Ph2	A-Ph3	A-Ph4	A-Ph5	A-Ph6	A-Ph7	A-Ph8	A-Ph9	A-Ph10	A-Ph11	A-Ph12	A-Ph13	A-Ph14	A-Ph15	A-Ph16	B-AC1	B-AC2	B-AC3	B-AC4	B-AC5	B-AC6	B-AC7	B-AC8	B-AC9	B-AC10	B-AC11	B-AC12	B-AC13	B-AC14	B-AC15	B-AC16	B-DC1	B-DC2	B-DC3	B-DC4	B-DC5	B-DC6	B-DC7	B-DC8	B-DC9	B-DC10	B-DC11	B-DC12	B-DC13	B-DC14	B-DC15	B-DC16	B-Ph1	B-Ph2	B-Ph3	B-Ph4	B-Ph5	B-Ph6	B-Ph7	B-Ph8	B-Ph9	B-Ph10	B-Ph11	B-Ph12	B-Ph13	B-Ph14	B-Ph15	B-Ph16	aux-1	digaux	

15274.647	1	1	0	256	0.10229	0.16609	0.16389	0.052623	0.16669	0.17638	0.48109	0.25206	0.27059	0.046396	0.13273	0.090268	0.39605	0.077074	0.060284	0.13568	-2.2104	-2.6979	-2.7146	-2.5938	-2.8458	-2.9188	-2.7375	-2.8958	-2.5812	-2.6854	-3.025	-2.5625	-2.9042	-2.9896	-2.5542	-2.8917	72.973	156.022	126.871	158.878	44.366	-37.682	190.251	-67.528	57.520	199.844	11.311	205.216	-82.015	253.834	221.791	206.785	0.0001069	0.00027737	0.00016188	1425.2	3.0606e-06	3.2836e-06	1021.6	347.78	6.8085e-06	7.8351e-06	250.31	56.251	78.915	21.314	1.1868e-05	16.909	0.0028586	0.0039152	0.0010919	1414.5	4.093e-05	4.2845e-05	1023.2	347.24	3.9928e-05	4.2209e-05	260.27	60.438	82.301	22.624	4.1343e-05	18.92	230.017	-34.106	-64.097	-86.362	124.900	35.900	-87.439	-82.169	5.992	30.551	-84.514	-80.504	-78.188	-73.614	27.625	-75.716	-8191	255	
15274.741	1	1	0	0	0.41791	0.31779	0.22203	0.28751	0.10462	0.13152	0.17715	0.22707	0.15495	0.14399	0.16803	0.12191	0.2333	0.14888	0.088186	0.31762	-2.425	-2.5833	-2.7979	-2.8667	-2.8979	-2.7979	-2.7938	-3.0625	-2.7896	-2.8083	-3.0917	-2.725	-2.85	-2.8979	-2.5354	-2.95	129.956	-31.632	129.696	251.880	-81.052	104.255	120.634	146.806	71.573	-10.577	195.526	255.445	233.140	204.580	-7.145	239.218	2.9779e-05	0.00071944	0.00013548	1429.5	1.854e-06	9.5893e-06	1021	347.65	3.9259e-06	1.0032e-05	248.1	55.389	77.945	21.339	4.1421e-06	16.824	0.0028323	0.0038627	0.0010908	1418.1	4.1276e-05	4.4232e-05	1020.7	348.64	4.0661e-05	4.2685e-05	256.77	59.439	81.655	22.421	3.9857e-05	18.683	-59.466	57.672	102.470	-86.465	100.780	57.037	-87.428	-82.218	39.342	43.960	-84.785	-80.260	-78.141	-73.871	26.502	-75.927	-8191	255	
15274.837	1	1	0	0	0.093706	0.26423	0.12266	0.44823	0.25778	0.089474	0.11482	0.22597	0.094754	0.28491	0.25736	0.026308	0.34583	0.048961	0.13643	0.10069	-2.2354	-2.5979	-2.9958	-2.6875	-2.8375	-2.8125	-2.8146	-3.1104	-2.6583	-2.5563	-2.9583	-2.6875	-2.8875	-2.9042	-2.6896	-2.8438	149.125	-59.067	243.862	236.224	-23.962	-1.172	12.731	230.308	-27.580	216.949	204.563	85.458	-92.875	-37.918	189.906	129.704	7.6049e-05	0.0001933	2.4694e-05	1417.1	3.74e-06	1.0002e-05	1017.6	346.74	5.9991e-06	1.3974e-05	250.4	56.291	78.776	21.568	3.0485e-06	17.204	0.0027371	0.0037265	0.001027	1404.4	3.8741e-05	4.0416e-05	1014.9	346.01	3.8022e-05	3.979e-05	257.63	59.847	82.155	22.606	3.7693e-05	18.768	154.093	194.370	256.530	-86.614	42.462	-9.639	-87.307	-82.058	204.179	58.532	-84.582	-80.219	-78.061	-73.690	-18.032	-75.829	-8191	255	
15274.958	1	1	0	0	0.10347	0.24393	0.30057	0.2278	0.11661	0.3702	0.2507	0.2983	0.23869	0.097377	0.14689	0.10719	0.29236	0.12531	0.044851	0.051098	-2.3521	-2.4979	-2.8187	-2.7625	-3.0083	-3.0646	-2.775	-2.9208	-2.7875	-2.725	-2.9917	-2.8542	-2.6958	-3.1083	-2.6271	-2.8688	36.481	18.584	-32.665	219.468	17.466	-89.361	195.753	208.393	161.720	79.357	219.979	40.642	-71.846	-89.020	-17.855	109.761	3.2464e-05	0.0010076	6.5806e-05	1424.4	2.0828e-06	4.9347e-06	1027.7	350.55	2.6119e-06	1.3658e-05	253.25	56.634	79.687	21.851	6.1787e-06	17.156	0.002598	0.0034798	0.00097342	1411.7	3.7354e-05	3.938e-05	1022.9	350.25	3.8328e-05	4.0838e-05	261.01	60.864	83.249	22.954	3.9256e-05	19.016	249.279	-6.647	48.875	-86.214	255.290	48.832	-87.545	-82.232	-30.124	-0.886	-84.449	-80.341	-78.179	-73.646	-10.980	-76.074	-8191	255	
15275.054	1	1	0	0	0.095294	0.22904	0.09501	0.047783	0.22549	0.083409	0.28309	0.35188	0.085425	0.066744	0.25226	0.072326	0.050569	0.22749	0.24331	0.096139	-2.3083	-2.6312	-2.9813	-2.8792	-2.7604	-2.9062	-2.7292	-2.8396	-2.7854	-2.7625	-3.1292	-2.7771	-2.6917	-3.1917	-2.7042	-2.95	53.608	115.030	252.704	-25.389	186.425	235.777	220.470	228.670	-10.001	6.085	172.164	-58.968	183.125	145.664	60.081	2.652	3.0165e-05	4.9568e-05	0.00010278	1431.3	3.663e-06	9.2165e-06	1023.1	348.73	2.3899e-06	4.4992e-06	251.65	56.499	79.227	21.809	2.5792e-06	17.426	0.0027024	0.0036757	0.0010285	1418.5	3.9509e-05	4.1163e-05	1028	349.21	3.9752e-05	4.1247e-05	260.48	61.005	83.115	22.948	4.0438e-05	19.306	158.421	138.125	-86.216	-86.372	41.687	97.202	-87.490	-82.026	179.086	211.209	-84.453	-79.921	-77.889	-73.679	112.987	-76.193	-8191	255	
15275.150	1	1	0	0	0.05402	0.23079	0.13096	0.53856	0.088363	0.14502	0.078805	0.27554	0.28549	0.10269	0.18544	0.097674	0.14957	0.28307	0.20754	0.16756	-2.5021	-2.7042	-2.7583	-2.8875	-2.7042	-3.0062	-2.9625	-3.0708	-2.9292	-2.6646	-3.0896	-2.7188	-2.7938	-2.8667	-2.6833	-2.7729	108.156	205.987	222.698	210.945	-62.246	149.087	180.257	133.069	-55.976	-24.669	208.057	163.077	164.569	102.304	-44.515	46.039	8.5122e-05	0.0008415	0.00014606	1426.2	6.3414e-06	2.2483e-06	1017.3	345.96	4.503e-06	5.3264e-06	249.51	56.095	78.651	21.708	3.3e-06	17.1	0.0027667	0.0037522	0.0010549	1411.8	3.9769e-05	4.1432e-05	1016.9	346.75	3.9572e-05	4.0702e-05	257.05	60.184	82.241	22.802	3.9771e-05	19.096	241.773	-30.314	65.246	-86.350	101.983	246.449	-87.395	-82.270	210.086	80.397	-84.498	-80.082	-77.763	-73.742	-7.447	-76.610	-8191	255	
15275.222	1	1	0	0	0.16274	0.067348	0.28962	0.17885	0.24238	0.23232	0.16421	0.25718	0.10746	0.13387	0.27616	0.16719	0.22672	0.15134	0.36577	0.18919	-2.5187	-2.55	-2.9104	-2.8896	-2.4313	-3.1188	-2.8979	-2.8042	-3.0187	-2.6167	-2.9625	-2.825	-2.5875	-2.9104	-2.7292	-2.8312	-3.380	219.372	159.959	-81.622	-16.677	35.489	198.886	188.797	5.053	-7.788	225.578	95.055	-69.850	81.732	143.114	232.495	3.4932e-05	0.00040907	0.00031486	1418.8	3.7126e-06	4.4436e-06	1018	345.32	2.2135e-06	9.2688e-06	247.53	56.682	79.139	21.717	4.939e-06	17.199	0.0027224	0.0036379	0.0010321	1406.8	3.8947e-05	4.0619e-05	1015.5	345.83	3.8763e-05	4.0802e-05	257.68	60.352	82.384	22.879	4.0083e-05	19.093	-95.971	46.613	-8.079	-86.265	199.395	-16.242	-87.290	-82.103	22.997	120.612	-84.285	-80.117	-77.927	-73.520	99.910	-76.084	-8191	255	
15275.342	1	1	0	0	0.3222	0.25745	0.098346	0.0725	0.076012	0.21313	0.25926	0.21158	0.09388	0.046669	0.11309	0.092112	0.39256	0.0845	0.1299	0.04212	-2.4083	-2.475	-2.7833	-2.9146	-2.5187	-2.8792	-2.9875	-2.7729	-3.0042	-2.6646	-2.75	-2.8854	-2.7417	-2.7604	-2.8542	-2.8396	151.806	-11.212	16.776	180.012	33.940	233.584	90.794	251.426	220.818	176.555	-68.741	107.007	-78.546	147.873	123.862	222.137	1.0751e-05	0.00033667	0.00023478	1416.7	6.6352e-06	7.4325e-06	1019.3	345.95	7.357e-06	8.6077e-06	250.61	56.29	78.873	21.676	3.048e-06	17.332	0.0027461	0.0036782	0.0010341	1403.9	3.8727e-05	4.0846e-05	1018.5	345.84	3.8429e-05	4.0432e-05	257.79	60.474	81.894	22.786	4.0098e-05	19.121	199.272	-29.867	13.528	-86.393	-61.705	-36.923	-87.500	-81.936	-41.852	33.757	-84.487	-79.954	-78.207	-73.502	27.101	-75.957	-8191	255	
15275.438	1	1	0	0	0.031507	0.053048	0.22126	0.13319	0.10972	0.2168	0.081919	0.12855	0.20033	0.067658	0.041721	0.10477	0.071087	0.086249	0.2532	0.12073	-2.6083	-2.4625	-2.8167	-2.9854	-2.6229	-2.7771	-2.9208	-2.7833	-3.0208	-2.7625	-2.8312	-2.9688	-2.5542	-2.85	-2.7708	-2.5896	155.744	122.089	-63.766	188.218	202.360	13.801	5.554	12.032	-65.302	81.018	47.585	107.635	230.930	185.734	-97.019	-97.014	0.00012057	0.00030428	6.8406e-05	1418.9	5.1425e-06	3.2939e-06	1025.3	347.7	3.6004e-06	6.1751e-06	249.62	56.864	78.874	21.705	2.3497e-06	17.294	0.0027185	0.003696	0.0010662	1408.1	3.9829e-05	4.1865e-05	1023.1	347.28	3.9567e-05	4.1257e-05	259.67	60.809	82.225	22.788	4.0472e-05	19.158	238.728	241.135	-65.099	-86.016	35.412	-52.603	-87.324	-82.235	131.976	80.956	-84.303	-80.121	-77.739	-73.450	65.477	-75.629	-8191	255	
15275.535	1	1	0	0	0.16863	0.22666	0.065977	0.15594	0.14217	0.15361	0.22741	0.10093	0.19984	0.21104	0.23636	0.10259	0.13733	0.3946	0.23716	0.19553	-2.5	-2.5917	-2.6021	-3.1292	-2.6	-2.8604	-2.8917	-2.6771	-2.8458	-2.7292	-2.8458	-2.9	-2.6333	-2.9292	-2.9062	-2.5542	18.712	-40.353	-72.369	210.198	-96.632	113.582	211.981	193.579	109.263	104.929	246.168	-62.757	-85.108	-83.292	-48.792	10.142	9.847e-05	0.00053501	9.6343e-05	1422	3.4701e-06	7.3264e-06	1013.9	344.77	4.0582e-06	3.4373e-06	245.81	55.176	77.296	21.31	2.1025e-06	16.616	0.0027418	0.003696	0.0010547	1407.1	3.9922e-05	4.1623e-05	1014.1	344.26	3.9159e-05	4.2219e-05	254.8	59.209	80.678	22.327	4.1215e-05	18.681	232.964	3.804	83.998	-86.277	141.034	108.197	-87.542	-82.267	43.765	92.014	-84.511	-80.743	-77.836	-74.105	139.532	-75.858	-8191	255	
15275.631	1	1	0	0	0.20838	0.073887	0.1558	0.052077	0.15518	0.01571	0.15382	0.21553	0.31424	0.04982	0.12765	0.18715	0.23445	0.13253	0.23288	0.21156	-2.5771	-2.7208	-2.6	-3.1667	-2.6979	-2.8937	-2.9625	-2.7333	-2.8646	-2.7687	-2.6979	-3.0333	-2.7188	-2.8021	-2.825	-2.6646	-42.699	53.489	-68.396	49.746	28.226	75.434	247.815	161.085	50.080	152.240	102.692	-30.424	232.056	51.408	111.575	251.851	4.3659e-05	0.00064375	0.00011941	1390.1	6.7193e-06	3.2017e-06	1006.6	334.29	7.7321e-06	7.0706e-06	242.42	54.117	75.043	20.63	4.4549e-06	16.801	0.0027432	0.0037527	0.0010529	1379.9	3.9517e-05	4.157e-05	1001.2	335.56	3.9136e-05	4.2203e-05	251.17	58.301	78.672	21.791	4.0163e-05	18.542	85.014	10.048	57.014	-86.234	36.263	219.232	-87.497	-82.068	27.062	218.731	-84.435	-80.334	-77.921	-73.679	-33.000	-75.887	-8191	255	
15275.750	1	1	0	0	0.16134	0.05939	0.10488	0.14107	0.1775	0.20489	0.33422	0.41165	0.17917	0.21538	0.082886	0.092673	0.21795	0.11369	0.11345	0.057392	-2.5542	-2.7667	-2.7292	-2.9813	-2.7854	-2.8021	-3.0333	-2.6146	-2.975	-2.9313	-2.5271	-2.9042	-2.5833	-2.7667	-3.0146	-2.6708	112.377	95.553	173.241	213.835	-30.701	-99.279	201.810	181.726	34.293	149.169	2.967	176.599	21.554	-66.267	-29.079	201.293	4.1641e-05	2.8899e-05	5.2625e-05	1390	2.5869e-06	3.598e-06	1003.8	334.12	6.1908e-06	7.795e-06	244.82	54.613	75.172	20.689	4.993e-06	17.011	0.0026834	0.0036863	0.001031	1376.1	3.8499e-05	4.1163e-05	1002.6	334.71	3.876e-05	4.0947e-05	252.2	58.729	78.712	21.891	3.9421e-05	18.712	194.372	243.317	188.171	-86.165	139.696	97.685	-87.461	-82.121	-38.331	-47.106	-84.572	-80.324	-77.808	-73.212	83.763	-75.931	-8191	255	
15275.823	1	1	0	0	0.10986	0.094069	0.23042	0.30759	0.15554	0.090243	0.35782	0.15647	0.38019	0.19858	0.13085	0.091431	0.066401	0.1442	0.28949	0.16111	-2.5312	-2.6083	-2.6521	-3.0479	-2.6083	-2.7687	-3.0583	-2.8104	-2.9354	-2.7792	-2.5604	-2.9542	-2.6167	-2.5375	-2.9542	-2.5563	221.539	216.686	-98.168	223.563	247.779	160.291	185.943	54.649	164.665	117.352	254.317	235.958	-51.551	-53.612	192.974	222.206	9.4023e-06	0.00071557	7.7622e-05	1388	3.5234e-06	8.8441e-07	1005.7	335.08	8.5134e-07	4.2002e-06	246.22	55.456	76.38	20.957	4.6096e-06	17.057	0.0026877	0.0036485	0.0010045	1375.9	3.8062e-05	3.9571e-05	1005.4	334.96	3.6782e-05	3.8542e-05	252.97	59.009	79.227	22.032	3.7096e-05	18.816	-84.855	61.459	28.069	-86.326	-65.792	168.736	-87.504	-81.958	237.087	122.888	-84.167	-80.305	-77.910	-73.425	127.795	-76.147	-8191	255	
15275.942	1	1	0	0	0.1238	0.03114	0.082519	0.20905	0.1989	0.12729	0.14356	0.24216	0.074799	0.24383	0.19636	0.30469	0.23702	0.22154	0.19263	0.32209	-2.2542	-2.6458	-2.6958	-2.9979	-2.5312	-2.7104	-3.0604	-2.775	-2.8542	-2.825	-2.5083	-2.9271	-2.7583	-2.5125	-2.8458	-2.6375	19.990	-56.123	125.960	-39.234	10.715	79.433	170.488	196.635	217.295	158.914	-25.157	244.496	218.930	0.625	-17.818	106.662	6.465e-05	0.00032473	2.9783e-05	1392.2	4.5402e-06	4.8954e-06	1004.1	335.44	5.3255e-06	5.89e-07	241.69	55.067	75.471	20.861	3.0654e-06	16.916	0.0025072	0.0034397	0.00096874	1377.1	3.7227e-05	3.8576e-05	999.07	334.84	3.5734e-05	3.7673e-05	249.58	58.346	78.567	21.861	3.5617e-05	18.556	259.897	-54.140	-6.393	-86.205	-15.036	68.026	-87.372	-82.070	27.224	155.496	-84.588	-80.569	-77.679	-73.651	74.549	-76.102	-8191	255	
15276.038	1	1	0	0	0.13707	0.1003	0.084053	0.46397	0.10066	0.20523	0.061543	0.14783	0.16257	0.031737	0.10011	0.15708	0.081065	0.21927	0.27115	0.18104	-2.4875	-2.7021	-2.6437	-3.1458	-2.7562	-2.7208	-2.9958	-2.6583	-2.475	-3.0563	-2.7271	-2.8812	-2.8104	-2.6312	-2.8563	-2.7333	166.730	-68.942	-59.911	240.916	120.143	198.801	120.331	-68.571	207.883	-3.794	156.316	205.972	-63.344	-64.717	112.210	147.575	8.1872e-05	0.0001355	0.00014331	1381.8	4.9657e-06	6.2861e-06	1006.4	336.36	3.8175e-06	7.0494e-06	243.11	54.858	75.275	20.84	6.7616e-06	17.09	0.0024382	0.0033532	0.00092233	1367	3.5178e-05	3.6601e-05	1000.2	334.94	3.4909e-05	3.658e-05	250.65	58.541	78.492	21.922	3.5573e-05	18.752	178.752	20.179	-46.939	-86.239	131.202	147.033	-87.533	-82.324	247.504	105.437	-84.764	-80.212	-77.840	-73.377	207.204	-75.966	-8191	255	
15276.134	1	1	0	0	0.11611	0.37887	0.072215	0.19427	0.10211	0.23751	0.40181	0.39676	0.1544	0.087825	0.21748	0.11184	0.2961	0.26267	0.28922	0.11743	-2.2458	-2.7208	-2.575	-2.9479	-2.8375	-2.5146	-2.9229	-2.7104	-2.6312	-2.8708	-2.5521	-2.7479	-2.6333	-2.6042	-2.9458	-2.7646	42.434	-40.838	91.065	-25.479	-26.807	-93.786	217.330	204.671	-53.162	103.594	202.365	73.642	-81.574	200.073	-54.306	3.419	3.9533e-05	0.00067989	0.00013643	1388	3.1843e-06	5.4052e-06	1004.8	336.27	6.7533e-06	4.4557e-06	244.09	55.09	75.332	20.903	3.7594e-06	17.15	0.0024647	0.0033257	0.00093484	1371.2	3.6032e-05	3.6925e-05	1002.2	335	3.5232e-05	3.675e-05	251.17	58.678	78.3	21.826	3.4982e-05	18.757	149.378	66.159	219.768	-86.360	133.614	61.899	-87.528	-82.589	13.553	94.573	-84.505	-79.828	-78.263	-73.545	106.388	-76.282	-8191	255	
15276.230	1	1	0	0	0.12229	0.062509	0.26609	0.39372	0.021114	0.090589	0.24959	0.29029	0.25999	0.12359	0.10027	0.22782	0.048565	0.19527	0.1389	0.26523	-2.3208	-2.925	-2.4562	-2.9417	-2.9167	-2.3979	-2.9792	-2.9521	-2.7208	-2.9083	-2.5333	-2.8146	-2.8229	-2.6437	-2.9542	-2.6437	254.705	58.239	41.178	253.384	115.325	34.921	182.381	180.898	205.418	65.917	191.720	-73.289	157.285	148.221	132.120	-82.211	5.3547e-05	0.00049069	0.0002389	1390.7	2.1176e-06	8.6552e-06	1008	334.35	3.6048e-06	6.4906e-06	245.98	54.85	74.437	20.602	7.2898e-07	17.105	0.0024257	0.0032307	0.00092771	1370.3	3.5316e-05	3.6938e-05	1004.9	334.23	3.5478e-05	3.6912e-05	252.48	58.75	77.796	21.649	3.5599e-05	18.666	219.228	22.003	-48.131	-86.428	98.440	110.256	-87.292	-82.212	-16.313	149.279	-84.411	-80.228	-78.062	-73.211	198.651	-75.898	-8191	255	
15276.351	1	1	0	0	0.15996	0.054495	0.047186	0.23267	0.080466	0.31877	0.33905	0.12768	0.12513	0.2293	0.16499	0.2075	0.10343	0.21283	0.25554	0.21929	-2.325	-2.8333	-2.5271	-2.8354	-2.7896	-2.6042	-2.9688	-2.8083	-2.5438	-2.9333	-2.6333	-2.725	-2.9625	-2.6125	-2.8438	-2.8667	174.178	13.128	117.549	173.453	-57.952	6.221	243.178	-43.035	76.015	66.373	-94.357	-33.849	180.666	217.549	249.982	92.173	7.9316e-05	0.00014379	6.4434e-05	1370.5	1.2365e-06	1.061e-05	996.31	332.65	5.3211e-06	8.4684e-06	240.69	54.174	74.048	20.499	5.4221e-06	16.726	0.0023938	0.0032285	0.00091861	1359	3.464e-05	3.6065e-05	993.87	331.85	3.4021e-05	3.5218e-05	248.41	57.727	76.916	21.502	3.4489e-05	18.373	202.198	25.263	84.117	-86.147	33.975	43.586	-87.558	-82.113	-72.763	96.751	-84.556	-80.421	-77.517	-73.404	161.805	-76.486	-8191	255	
15276.447	1	1	0	0	0.19308	0.24633	0.01457	0.11624	0.092477	0.10414	0.25549	0.14709	0.19863	0.07926	0.14359	0.20248	0.18668	0.30533	0.16431	0.15857	-2.0979	-2.9646	-2.7	-2.8625	-2.7	-2.5792	-2.8896	-2.9875	-2.4771	-2.5917	-2.9083	-2.7771	-2.9813	-2.5917	-2.6896	-2.7771	44.769	69.031	-60.344	-99.496	-4.993	247.383	157.472	-93.636	40.897	-95.081	155.079	184.147	252.403	46.090	219.898	246.446	6.7335e-05	6.1602e-05	0.00013057	1366.3	5.1e-06	6.7182e-06	1000.5	332.27	3.9809e-06	5.7364e-06	241.85	54.377	74.044	20.649	8.0735e-06	17.029	0.0023571	0.0031507	0.00090346	1353.1	3.3705e-05	3.4843e-05	993.15	331.45	3.3558e-05	3.4877e-05	249.33	57.651	76.902	21.485	3.4433e-05	18.53	222.872	32.300	26.361	-86.352	246.438	35.085	-87.271	-82.051	-55.871	-65.823	-84.363	-80.187	-77.870	-73.344	38.435	-75.901	-8191	255	
15276.519	1	1	0	0	0.19344	0.098927	0.15993	0.31405	0.063761	0.081218	0.08697	0.2628	0.19666	0.47085	0.23395	0.054614	0.33248	0.25676	0.086383	0.21601	-2.2479	-3.0271	-2.7104	-2.8021	-2.8521	-2.7604	-2.8896	-2.9792	-2.5708	-2.8688	-2.7812	-2.6167	-2.9271	-2.5396	-2.7083	-2.8958	156.850	201.292	187.933	221.575	14.824	56.290	118.689	219.325	221.825	95.921	221.735	97.914	233.054	178.920	-89.210	153.621	0.00014316	0.00035036	0.00020747	1374.7	6.9399e-06	2.1467e-06	1006.6	333.57	1.4178e-06	4.7052e-06	242.94	55.106	74.248	20.614	2.7478e-06	17.085	0.0023618	0.0031898	0.00091007	1358.5	3.4516e-05	3.6019e-05	999.25	332.58	3.3786e-05	3.5885e-05	250.46	58.313	77.114	21.57	3.525e-05	18.7	182.286	249.007	-3.289	-86.091	94.362	-0.172	-87.330	-81.946	0.018	119.852	-84.411	-80.056	-77.934	-73.466	201.394	-75.906	-8191	255	
15276.615	1	1	0	0	0.061933	0.22429	0.12702	0.19236	0.098654	0.31388	0.072775	0.24865	0.044408	0.12489	0.11634	0.21671	0.08455	0.3086	0.21341	0.04765	-2.3083	-2.7583	-2.7375	-2.6771	-2.9458	-2.6083	-2.9479	-2.9375	-2.6292	-3.0521	-2.8333	-2.5229	-2.8542	-2.6354	-2.4958	-3.0167	-97.447	39.249	-85.037	222.899	235.481	202.146	-16.458	192.147	161.798	-61.298	33.136	195.946	185.427	223.833	43.928	-59.093	2.8947e-05	0.00055544	0.00013759	1384.2	2.6871e-06	5.498e-06	1011.8	337.03	1.4535e-06	8.6637e-06	247.13	55.809	75.612	20.891	3.8516e-07	17.262	0.0023837	0.0032664	0.00092646	1366.6	3.5592e-05	3.8034e-05	1009	337.44	3.5855e-05	3.864e-05	255.47	59.575	79.049	22.023	3.811e-05	19.078	-79.677	20.729	-48.390	-86.243	206.101	127.663	-87.581	-82.094	254.700	27.329	-84.620	-80.409	-77.645	-73.775	9.900	-75.944	-8191	255	
15276.734	1	1	0	0	0.46728	0.21551	0.063361	0.20581	0.016386	0.24376	0.24865	0.066808	0.14409	0.32109	0.23156	0.46481	0.085818	0.20072	0.17218	0.032088	-2.2625	-2.7833	-2.8042	-2.7354	-2.9417	-2.7458	-2.9021	-3.0312	-2.5938	-2.8417	-2.925	-2.5812	-3.1625	-2.7292	-2.675	-3.0958	-39.697	195.500	9.383	155.388	258.816	159.714	202.121	60.898	-31.457	242.917	130.550	165.864	240.747	-3.345	217.393	158.981	5.3893e-05	0.00050601	2.7508e-05	1393.9	5.0042e-06	3.2227e-06	1007.3	339.51	3.0547e-06	5.4007e-06	246.57	54.815	76.241	21.029	8.64e-06	17.048	0.002588	0.0035618	0.0010015	1378.3	3.7105e-05	3.9553e-05	1005	338.71	3.7513e-05	4.0255e-05	253.95	59.041	79.523	22.176	3.9586e-05	18.895	237.599	-5.087	158.891	-86.479	215.492	39.968	-87.229	-82.035	-17.671	-3.444	-84.189	-80.081	-77.995	-73.486	60.013	-76.074	-8191	255	
15276.830	1	1	0	0	0.19415	0.17636	0.030414	0.13721	0.085488	0.14401	0.084624	0.35125	0.006297	0.22559	0.23795	0.26584	0.1252	0.1617	0.11869	0.1606	-2.0354	-2.6125	-2.6021	-2.7687	-2.7021	-2.5812	-2.8542	-2.9979	-2.7896	-2.8146	-3.0521	-2.8375	-2.9313	-2.7542	-2.6854	-2.7604	-0.509	137.080	212.253	247.117	250.121	-89.896	170.798	181.833	-86.975	213.946	210.730	53.726	146.978	142.743	212.229	95.705	0.00018066	0.00029987	0.00019641	1387	4.7712e-06	3.9043e-06	1010.3	341.18	2.3416e-06	1.031e-06	247.97	56.109	77.522	21.434	3.7709e-07	17.287	0.0026881	0.003675	0.0010261	1377.8	3.8439e-05	4.0797e-05	1006.6	340.93	3.8549e-05	4.0466e-05	256.88	60.115	80.927	22.579	4.0667e-05	19.104	156.668	238.358	-91.940	-86.305	-65.295	-48.558	-87.220	-82.028	-35.395	-23.478	-84.394	-80.405	-78.198	-73.667	173.774	-75.545	-8191	255	
15276.926	1	1	0	0	0.15483	0.24689	0.024597	0.078371	0.15656	0.24449	0.12316	0.29028	0.25641	0.27168	0.09078	0.25008	0.2191	0.02856	0.083585	0.18167	-2.1958	-2.6646	-2.8833	-2.7438	-2.9083	-2.7708	-2.5896	-3.1083	-2.5917	-2.6646	-2.8271	-2.6063	-2.7083	-2.7521	-2.4146	-2.8729	106.336	-81.685	112.764	-98.300	249.932	90.671	205.150	227.735	206.127	-43.359	24.151	181.123	111.831	162.096	5.309	236.556	6.7433e-05	0.00096654	5.5455e-05	1400.7	2.8009e-06	7.3099e-06	1016.9	344.77	3.3341e-06	3.129e-06	249.02	56.607	78.23	21.502	8.4044e-06	17.32	0.0027859	0.0037742	0.0010391	1388.6	3.9676e-05	4.1511e-05	1015	344.97	4.0023e-05	4.2254e-05	258.98	60.753	81.752	22.741	4.083e-05	19.33	193.615	248.051	153.606	-86.261	17.324	36.149	-87.242	-82.062	62.566	40.981	-84.774	-79.701	-77.556	-73.698	63.440	-76.044	-8191	255	
15277.022	1	1	0	0	0.10931	0.22165	0.2288	0.11963	0.15265	0.1561	0.18262	0.27979	0.13402	0.24259	0.18595	0.13232	0.16711	0.051186	0.26966	0.1638	-2.2333	-2.8021	-2.9458	-2.725	-2.8438	-2.8271	-2.7562	-3.0812	-2.7875	-2.5896	-2.8792	-2.6688	-2.7896	-2.7812	-2.6333	-2.7687	67.880	194.932	18.298	129.355	40.912	248.407	177.042	116.984	100.243	15.374	245.872	-74.208	113.162	241.016	236.946	189.215	0.00011491	0.00055917	0.00014702	1398.4	7.8881e-06	5.0702e-06	1019.5	341.78	6.1052e-06	5.3854e-06	249.54	56.405	77.312	21.478	9.0573e-06	17.504	0.002808	0.003757	0.0010386	1388.2	4.0052e-05	4.2402e-05	1015.6	342.21	3.9997e-05	4.1231e-05	258.27	60.484	80.832	22.535	3.944e-05	19.326	218.296	-19.903	51.518	-86.415	183.900	71.484	-87.293	-82.303	173.876	163.873	-84.390	-80.407	-77.688	-73.341	17.732	-76.325	-8191	255	
15277.118	1	1	0	0	0.12604	0.25148	0.15474	0.23874	0.10734	0.04021	0.21655	0.078756	0.3474	0.33935	0.042378	0.43509	0.25147	0.13333	0.045339	0.043894	-2.3167	-2.7354	-2.8667	-2.7687	-2.5438	-2.8292	-2.6375	-3.0563	-2.6604	-2.5896	-2.9875	-2.6063	-2.6792	-2.8187	-2.4771	-2.6979	-19.750	49.580	-5.872	160.038	171.806	52.064	-94.799	243.457	-48.564	-36.271	104.766	206.138	-74.263	-18.231	151.317	-12.595	9.5392e-05	0.00044223	0.00016497	1391.4	5.0478e-06	4.7685e-06	1004	341.71	3.1381e-06	1.0072e-05	246.95	56.287	77.941	21.516	4.7314e-06	17.243	0.0027366	0.0036798	0.0010117	1381.9	3.932e-05	4.0662e-05	1005	342.35	3.9609e-05	4.1055e-05	256.23	60.336	81.411	22.72	3.9736e-05	19.226	-73.080	22.780	-19.509	-86.360	198.382	52.867	-87.341	-82.190	3.465	108.902	-84.577	-80.042	-77.991	-73.590	31.999	-76.715	-8191	255	
15277.215	1	1	0	0	0.11678	0.23305	0.20586	0.18415	0.28823	0.15789	0.34291	0.32665	0.16928	0.095175	0.13756	0.15993	0.17849	0.20554	0.029239	0.10508	-2.3792	-2.6271	-2.5729	-2.6229	-2.475	-2.8667	-2.6854	-2.9542	-2.75	-2.5458	-2.9479	-2.7083	-2.6146	-2.9167	-2.7875	-2.9479	9.035	6.007	160.084	179.758	235.257	-2.009	-93.127	223.611	103.956	213.383	34.809	-86.210	43.879	-71.596	240.173	-58.707	5.8593e-05	0.00032721	0.00012168	1411.5	3.9084e-06	2.5105e-06	1012.9	350.64	5.892e-06	5.9851e-06	250.54	57.604	79.23	21.771	2.4433e-06	17.512	0.0027675	0.0037169	0.0010474	1399.8	4.0584e-05	4.2428e-05	1016	350.01	4.0945e-05	4.2918e-05	261.3	61.431	83.258	23.06	4.1701e-05	19.536	18.866	9.796	173.200	-86.329	61.990	30.392	-87.475	-82.114	15.439	121.635	-84.490	-79.825	-77.985	-73.675	132.831	-76.077	-8191	255	
15277.311	1	1	0	0	0.067344	0.18406	0.10756	0.34872	0.26355	0.11466	0.065421	0.12578	0.14641	0.05128	0.33432	0.044709	0.23559	0.15056	0.20212	0.25991	-2.4188	-2.4167	-2.8479	-2.8917	-2.6708	-2.8312	-2.6208	-2.9021	-2.6792	-2.8021	-2.7958	-2.8	-2.8021	-2.9458	-2.6083	-2.8021	0.417	97.886	232.274	211.942	199.931	228.860	200.181	-44.617	45.026	-47.219	202.381	255.629	117.842	-34.012	161.208	217.939	5.3727e-05	0.00027376	0.00017117	1416.3	3.3659e-06	4.8079e-06	1016.5	348.87	4.4254e-06	6.7456e-06	249.99	57.26	78.245	21.816	5.355e-06	17.335	0.0028728	0.0038418	0.0010844	1402.4	4.1117e-05	4.231e-05	1017.6	348.82	4.0842e-05	4.2582e-05	260.54	61.43	82.49	23.023	4.2786e-05	19.569	219.558	-80.172	48.709	-86.212	85.181	74.218	-87.596	-82.182	18.821	83.561	-84.579	-80.401	-77.932	-73.573	-7.248	-75.799	-8191	255	
15277.431	1	1	0	0	0.10091	0.18	0.38052	0.32087	0.23622	0.10312	0.10047	0.14616	0.41532	0.24673	0.24589	0.32046	0.25449	0.25339	0.15501	0.22244	-2.4208	-2.5604	-2.7313	-2.9667	-2.5771	-2.8542	-2.9771	-2.7854	-2.7917	-2.5042	-2.6583	-2.6937	-2.5479	-3.0187	-2.8583	-2.7062	248.264	20.049	-38.115	-98.843	-8.955	54.044	243.328	139.128	89.420	95.214	194.739	196.002	240.698	-53.916	238.510	-51.595	5.1415e-05	0.00039236	8.5926e-05	1410.5	5.3796e-06	1.1792e-05	1024.3	346.72	1.3174e-06	5.5602e-06	252.32	57.141	78.517	21.876	2.9491e-06	17.828	0.0029544	0.0040127	0.0011535	1403.6	4.4186e-05	4.5896e-05	1023.1	348.31	4.3821e-05	4.5596e-05	262.31	61.952	82.911	23.222	4.4386e-05	19.833	180.227	-53.544	186.700	-86.564	-27.234	81.757	-87.458	-82.028	19.059	37.085	-84.807	-80.425	-77.903	-73.746	110.792	-76.133	-8191	255	
15277.528	1	1	0	0	0.11312	0.26678	0.14466	0.17706	0.21916	0.22573	0.20344	0.04441	0.34686	0.076229	0.17058	0.068944	0.089061	0.14828	0.25942	0.23366	-2.2938	-2.4417	-2.7958	-2.9021	-2.6188	-3.0792	-2.7708	-2.7542	-3.0729	-2.5979	-2.8521	-2.9521	-2.6979	-2.925	-2.7917	-2.5958	-47.993	-5.569	196.875	220.171	58.815	99.333	-72.863	207.182	203.123	-71.708	147.798	192.687	-35.390	123.455	244.012	92.475	0.00013033	0.0007489	0.00014055	1406.4	1.1042e-06	7.1922e-06	1005.6	345.17	5.482e-06	4.8978e-06	247.44	56.499	78.446	21.754	7.5747e-06	17.453	0.0030128	0.0040909	0.0011581	1398	4.3284e-05	4.5524e-05	1009	346.43	4.3378e-05	4.6392e-05	259.66	61.038	82.707	23.2	4.5751e-05	19.661	211.466	67.023	46.180	-85.976	69.234	158.581	-87.376	-81.825	57.848	213.030	-84.555	-80.402	-77.961	-73.718	-5.986	-76.168	-8191	255	
15277.624	1	1	0	0	0.34438	0.35675	0.087429	0.07046	0.33077	0.098781	0.12051	0.022711	0.21299	0.12862	0.15062	0.14605	0.12128	0.31613	0.36463	0.094436	-2.4104	-2.6146	-2.9083	-2.9479	-2.6917	-2.7854	-2.9458	-2.7375	-2.8604	-2.5938	-2.8375	-2.7854	-2.6396	-2.9417	-2.8896	-2.6562	-27.870	-63.979	239.419	227.784	-50.842	129.149	160.016	60.533	32.063	168.235	250.775	173.141	192.966	-62.595	101.323	9.442	6.4513e-05	9.5287e-05	5.6465e-05	1400.5	6.3476e-06	3.1746e-06	1007	346.26	8.5933e-06	5.6761e-06	249.35	56.478	78.553	21.853	6.325e-06	17.594	0.0030507	0.0042171	0.0011963	1395.9	4.46e-05	4.6547e-05	1010.3	346.85	4.3396e-05	4.5525e-05	259.06	60.904	82.25	23.163	4.4117e-05	19.602	216.049	-20.769	157.553	-86.152	108.060	-76.761	-87.629	-82.301	-67.512	29.874	-84.508	-80.135	-78.011	-73.847	131.263	-76.148	-8191	255	
15277.720	1	1	0	0	0.071288	0.043124	0.21184	0.13499	0.12757	0.041958	0.12466	0.22523	0.23961	0.02337	0.090661	0.22969	0.25073	0.076884	0.22611	0.23071	-2.6312	-2.6854	-2.5896	-3.0583	-2.5729	-2.75	-2.9583	-2.7521	-2.9583	-2.6792	-2.8021	-3.0583	-2.7104	-2.8187	-2.8542	-2.6229	115.018	38.408	137.605	245.868	22.611	62.004	183.424	223.410	71.942	-44.989	156.237	209.619	224.452	61.123	-96.871	95.327	0.00012975	0.00062571	6.728e-05	1401.8	7.8418e-06	3.8779e-06	1007	342.64	4.9629e-06	1.5927e-05	248.01	56.483	78.099	21.865	3.3916e-06	17.669	0.0028919	0.0039995	0.0011225	1387.9	4.1617e-05	4.5084e-05	1007.8	344.13	4.1124e-05	4.4494e-05	258.62	60.931	82.306	23.16	4.4233e-05	19.683	256.442	237.074	209.941	-86.197	32.297	113.708	-87.282	-82.100	88.306	-3.798	-84.401	-80.580	-77.971	-73.526	107.240	-76.201	-8191	255	
15277.814	1	1	0	0	0.062023	0.096865	0.04974	0.35149	0.11753	0.053783	0.13015	0.047596	0.22602	0.15663	0.2333	0.27686	0.19659	0.096957	0.13519	0.1756	-2.6958	-2.8458	-2.7146	-3.1917	-2.6458	-2.8958	-3.0104	-2.6688	-2.7042	-2.8271	-2.5563	-2.9583	-2.8271	-2.8542	-2.8583	-2.6625	210.001	227.690	3.326	212.930	90.465	47.793	218.310	112.050	214.469	187.614	95.575	202.456	241.313	167.571	175.967	139.041	3.0571e-05	0.00048576	1.7443e-05	1411.5	5.8789e-06	5.3165e-06	1011.2	345.73	6.7939e-06	2.7894e-06	249.91	56.708	78.526	21.743	6.0536e-06	17.338	0.0030455	0.004202	0.0011869	1400.8	4.4456e-05	4.6778e-05	1015.8	347.6	4.4222e-05	4.6497e-05	260.36	61.072	82.29	23.012	4.2735e-05	19.401	182.177	84.131	-32.163	-86.242	86.246	70.989	-87.362	-82.288	-96.654	65.196	-84.578	-80.240	-77.796	-73.421	42.057	-75.859	-8191	255	
15277.912	1	1	0	0	0.1538	0.11707	0.09663	0.34874	0.11323	0.12618	0.19846	0.18919	0.25756	0.072653	0.15678	0.031275	0.069542	0.3123	0.029614	0.097237	-2.5062	-2.7771	-2.6667	-3.0375	-2.5438	-2.5708	-3.0125	-2.725	-2.9479	-2.9771	-2.6354	-3.0708	-2.5979	-2.8542	-2.8104	-2.6167	87.926	-71.447	-8.019	232.189	-52.515	-71.685	-91.922	178.579	169.351	-32.204	166.446	-9.829	-46.983	-98.810	139.306	79.326	0.00012765	0.00064693	0.00023091	1392.8	1.8547e-06	6.8126e-06	1000.4	339.38	1.7251e-06	1.3138e-05	243.25	55.151	76.191	21.284	8.2458e-06	17.085	0.002888	0.0040094	0.0010973	1383.7	4.2073e-05	4.4288e-05	998.76	340.51	4.1307e-05	4.3813e-05	252.88	59.254	80.121	22.589	4.1807e-05	19.14	209.176	23.052	6.457	-86.221	60.268	50.291	-87.405	-82.095	6.146	11.557	-84.660	-79.953	-77.966	-73.391	-10.159	-76.289	-8191	255	
15278.031	1	1	0	0	0.22264	0.057832	0.076249	0.33798	0.030157	0.047985	0.12576	0.1973	0.20378	0.13035	0.22701	0.12207	0.2002	0.043557	0.17649	0.23187	-2.4396	-2.8083	-2.4854	-3.1083	-2.6188	-2.9542	-3.1146	-2.6813	-2.7687	-3.0187	-2.7271	-2.9688	-2.7604	-2.9458	-2.9292	-2.7083	175.042	-36.274	0.024	-94.271	164.189	233.780	157.070	207.066	210.337	233.369	-77.447	-15.256	255.293	69.349	32.349	162.585	7.8954e-05	0.00056985	4.017e-05	1385.4	1.2345e-06	3.8145e-06	1001.5	340.72	2.3188e-06	6.2182e-06	247.47	55.765	76.97	21.44	4.8487e-06	17.326	0.0029107	0.0039981	0.0011019	1379.1	4.2416e-05	4.4722e-05	1001.2	342.16	4.1975e-05	4.3845e-05	256.62	59.97	81.336	22.738	4.0679e-05	19.272	-58.453	228.388	102.843	-86.410	101.478	80.232	-87.549	-82.134	182.471	-83.537	-84.295	-80.264	-78.134	-73.497	-25.862	-76.853	-8191	255	
15278.125	1	1	0	0	0.35244	0.2043	0.18817	0.30993	0.057556	0.16055	0.11931	0.25112	0.21001	0.10088	0.055407	0.080803	0.037311	0.08624	0.23951	0.080143	-2.55	-2.8021	-2.4708	-3.1125	-2.8021	-2.7979	-2.9521	-2.7562	-2.8146	-2.8958	-2.6125	-3.0646	-2.8708	-2.7604	-2.9271	-2.8542	29.164	169.042	-61.651	206.359	41.558	31.349	154.364	188.951	29.377	245.674	-7.669	-15.981	-77.280	147.178	208.732	117.705	7.6694e-05	0.00085111	0.00011204	1397.1	3.6654e-06	6.191e-06	1010.4	345.9	1.4188e-06	1.1253e-05	250.02	56.027	78.694	21.773	4.4222e-06	17.48	0.0028037	0.0038318	0.0010572	1388.5	4.0706e-05	4.2348e-05	1008.5	346.06	4.022e-05	4.2313e-05	258.29	60.352	82.025	22.827	3.9856e-05	19.232	208.305	2.400	-21.548	-86.319	27.025	0.553	-87.548	-82.272	-57.933	-11.893	-84.509	-80.409	-77.949	-73.789	-51.962	-76.098	-8191	255	
15278.222	1	1	0	0	0.0057409	0.2416	0.040084	0.23569	0.18969	0.29533	0.39583	0.16008	0.37696	0.14678	0.11214	0.37716	0.20544	0.067421	0.047306	0.30852	-2.4125	-2.9229	-2.6	-3.075	-2.6583	-2.8021	-2.9813	-2.95	-2.7979	-2.8583	-2.6292	-2.9271	-2.9583	-2.7625	-2.8958	-2.6437	81.302	35.442	-24.375	186.716	43.829	-89.888	213.844	227.774	-13.244	-60.133	259.337	247.279	-69.341	82.089	195.921	2.076	2.271e-05	0.00046804	0.00010286	1399	4.3013e-06	3.2476e-06	1009.5	342.83	6.6994e-06	5.4937e-06	248.71	56.117	77.576	21.354	1.0089e-05	17.285	0.0028005	0.0037493	0.0010422	1388.8	4.0011e-05	4.2135e-05	1008.5	344.11	3.9606e-05	4.1417e-05	257.44	60.205	81.196	22.606	3.9297e-05	19.188	178.132	-39.156	69.747	-86.363	29.946	-33.658	-87.806	-82.123	23.961	-52.335	-84.372	-80.239	-78.229	-73.640	102.428	-76.126	-8191	255	
15278.342	1	1	0	0	0.15309	0.081448	0.034255	0.39336	0.17665	0.11262	0.19782	0.078039	0.26726	0.10879	0.24891	0.31311	0.25295	0.19954	0.043206	0.20804	-2.2938	-2.9833	-2.7313	-3.1021	-2.8063	-2.6188	-2.9604	-2.8604	-2.8146	-2.9562	-2.3958	-3.0625	-2.9146	-2.675	-2.9458	-2.7958	102.943	181.355	-38.768	231.586	-54.134	60.137	259.270	56.173	-47.808	103.549	-50.324	-76.045	244.418	227.823	69.187	201.251	6.1437e-05	0.00035089	0.000212	1388.1	1.1767e-06	9.5422e-06	998.12	342.1	5.5404e-06	1.021e-05	245.4	54.899	76.827	21.216	2.7507e-06	16.971	0.0027212	0.0036541	0.0010132	1380.9	3.9421e-05	4.0432e-05	996.69	342.18	3.922e-05	4.0154e-05	253.37	59.113	80.402	22.414	3.9019e-05	18.893	257.069	197.808	-11.167	-86.392	-48.996	-9.265	-87.293	-82.159	29.292	25.980	-84.868	-79.919	-78.086	-73.657	158.670	-76.438	-8191	255	
15278.414	1	1	0	0	0.049035	0.10226	0.2491	0.18057	0.10466	0.15313	0.252	0.28592	0.12915	0.3546	0.19098	0.083401	0.054351	0.18003	0.098565	0.12673	-2.2167	-2.8875	-2.6271	-3.0521	-3.1	-2.6083	-2.9896	-2.9833	-2.6417	-2.7854	-2.8	-2.6042	-2.7542	-2.6042	-2.9875	-2.8	3.278	173.594	-98.653	183.907	-21.531	-37.689	101.052	203.097	165.340	174.849	174.499	105.819	222.417	205.607	108.501	218.063	3.2291e-05	5.5159e-05	5.9419e-05	1392.1	3.7989e-07	1.5133e-06	999.37	343.38	6.8892e-06	8.7255e-06	247.7	56.045	77.836	21.701	3.3506e-06	17.343	0.0026828	0.0036093	0.0010334	1380.9	3.8577e-05	4.0326e-05	999.63	343.82	3.9118e-05	4.0925e-05	256.5	59.78	81.383	22.706	4.004e-05	19.129	-75.085	95.038	-33.584	-86.321	-68.936	-37.896	-87.411	-82.312	-22.345	60.651	-84.870	-80.728	-77.955	-73.596	196.407	-76.282	-8191	255	
15278.510	1	1	0	0	0.050363	0.33057	0.29292	0.30653	0.29152	0.049221	0.05734	0.28598	0.13186	0.17218	0.13237	0.12017	0.18589	0.08237	0.13325	0.23818	-2.3667	-2.825	-2.6854	-2.8792	-2.8333	-2.6042	-3.0021	-2.9583	-2.5479	-2.8021	-2.7313	-2.8187	-3.1021	-2.5521	-2.9062	-2.7625	165.934	29.997	61.797	206.434	192.977	-66.666	149.416	257.543	255.668	130.363	-85.695	189.821	-67.340	-58.818	259.745	143.137	6.1434e-05	0.0011051	9.8967e-05	1397.7	8.4648e-07	7.3363e-06	1006.7	345.39	2.4144e-06	7.1561e-06	248.34	55.74	77.95	21.605	5.4399e-06	17.344	0.002724	0.0037434	0.0010557	1385.5	3.9433e-05	4.1255e-05	1006.8	345.1	4.0105e-05	4.1385e-05	258.01	60.085	81.45	22.751	4.156e-05	19.192	207.883	24.276	103.270	-86.277	108.417	24.511	-87.400	-82.069	-0.818	21.400	-84.519	-80.281	-78.158	-73.335	-76.050	-75.859	-8191	255	
15278.606	1	1	0	0	0.037102	0.27173	0.1905	0.29635	0.40554	0.2033	0.08043	0.15502	0.32225	0.064603	0.075006	0.076383	0.054378	0.072845	0.12477	0.16137	-2.1875	-2.8479	-2.675	-2.7417	-3.0458	-2.5604	-3.0312	-2.8792	-2.7	-2.9417	-2.7521	-2.6688	-2.925	-2.7917	-2.9208	-2.6958	17.415	255.017	152.130	249.349	81.106	166.810	247.186	187.332	-58.299	-5.234	75.669	249.423	-91.725	13.474	44.775	97.265	6.4298e-05	0.00051574	0.00017887	1404.1	3.3188e-06	3.6387e-06	1014.2	347.42	4.0806e-06	8.9359e-06	250.04	56.874	78.346	21.602	3.506e-06	17.277	0.0028452	0.0038597	0.0011035	1395.5	4.1275e-05	4.4379e-05	1014	347.41	4.1274e-05	4.3292e-05	260.21	60.742	82.091	22.883	4.1818e-05	19.2	-66.884	-74.642	-15.646	-86.272	41.227	107.713	-87.182	-82.100	-80.355	-20.011	-84.042	-80.295	-78.065	-73.507	86.154	-76.504	-8191	255	
15278.727	1	1	0	0	0.20052	0.29829	0.030933	0.22473	0.038401	0.081825	0.38481	0.22126	0.32384	0.088055	0.065851	0.26675	0.18988	0.11588	0.12555	0.23417	-2.1771	-2.8354	-2.6125	-2.6667	-3.0167	-2.6813	-2.9125	-3.1	-2.6021	-2.9188	-2.8396	-2.5875	-2.9	-2.7687	-2.9042	-2.6875	70.689	-41.592	82.138	227.958	-42.438	-49.129	179.989	236.465	-2.615	202.659	-18.431	-20.183	-13.063	60.009	-10.385	250.970	9.4808e-05	0.00038781	0.00022344	1409.5	6.9054e-06	7.5296e-06	1003	345.9	2.8953e-06	5.7693e-06	247.84	55.543	78.126	21.44	2.2646e-06	16.965	0.0028117	0.0038963	0.0011142	1395.4	4.1259e-05	4.3858e-05	1005.3	347.17	4.1739e-05	4.4469e-05	257.57	59.84	81.898	22.844	4.3654e-05	19.022	247.706	-6.498	12.562	-86.324	-34.134	-23.239	-87.440	-82.402	-73.607	131.944	-84.317	-80.587	-77.458	-73.814	1.880	-75.859	-8191	255	
15278.823	1	1	0	0	0.14435	0.27801	0.041708	0.17306	0.11884	0.31579	0.008921	0.30391	0.22155	0.10657	0.26973	0.11711	0.077205	0.17937	0.24426	0.20726	-2.1833	-2.9083	-2.7438	-2.6188	-2.8	-2.4854	-2.9042	-3.1229	-2.6792	-2.8104	-2.7104	-2.6437	-3.0521	-2.7812	-2.7208	-2.8854	7.736	36.049	123.521	192.330	83.234	52.380	-39.905	218.573	103.864	242.859	157.204	133.979	-58.162	-61.528	116.115	229.814	6.2243e-05	6.0818e-05	2.5447e-05	1406.5	4.9032e-06	1.8024e-05	1002.1	346.85	7.8307e-06	1.6693e-05	247.76	55.656	78.068	21.634	1.4792e-06	17.003	0.0029338	0.0040278	0.0011432	1394.5	4.2685e-05	4.5673e-05	1006.7	347.16	4.3806e-05	4.7089e-05	259.63	60.456	82.39	22.998	4.6652e-05	19.294	-6.350	-3.233	109.413	-86.072	-4.831	59.339	-87.604	-82.097	88.816	-31.481	-84.367	-80.012	-78.142	-73.317	-28.227	-76.351	-8191	255	
15278.919	1	1	0	0	0.27239	0.30757	0.044784	0.23855	0.10867	0.36339	0.26418	0.13984	0.24139	0.46416	0.35392	0.093617	0.21078	0.11054	0.12481	0.052993	-2.0417	-2.7646	-2.7687	-2.5687	-2.9021	-2.7667	-2.8625	-3.075	-2.6667	-2.7104	-2.7875	-2.4958	-3.0062	-2.6813	-2.7562	-2.9104	67.858	12.775	78.136	209.212	76.835	133.530	142.602	193.658	186.304	130.734	-76.503	-28.448	252.428	143.858	9.639	-42.140	0.00012624	0.00068687	0.00026158	1405.1	1.3239e-05	1.2331e-06	1004.7	345.37	1.278e-05	4.7284e-06	249.57	55.71	78.447	21.531	1.1413e-06	17.061	0.0031765	0.0043848	0.0012198	1398.1	4.4733e-05	4.7521e-05	1009.8	346.8	4.4965e-05	4.739e-05	260.89	60.678	82.725	22.979	4.6548e-05	19.285	-85.025	223.528	49.408	-86.238	-43.253	-11.230	-87.181	-82.088	64.926	56.479	-84.387	-80.391	-78.166	-73.616	-12.862	-75.492	-8191	255	
15278.991	1	1	0	0	0.041723	0.15009	0.23562	0.25828	0.19133	0.16454	0.23503	0.24198	0.11909	0.12472	0.14509	0.13486	0.20026	0.17491	0.15369	0.25287	-2.3063	-2.7625	-2.7687	-2.7833	-2.9583	-2.6021	-2.6875	-3.0021	-2.4771	-2.7792	-2.9	-2.6917	-2.9146	-2.9458	-2.65	-3.1021	11.136	-45.779	-92.400	133.477	65.440	163.111	210.171	98.458	-54.005	145.248	189.991	226.252	255.663	161.255	39.039	-82.041	6.6353e-05	0.00057517	0.00014691	1401.1	8.8501e-07	3.2226e-06	1006.5	343.4	2.7163e-06	7.0894e-06	247.25	55.856	77.633	21.48	6.7531e-06	16.996	0.0031391	0.0043289	0.0011838	1394.9	4.4992e-05	4.7251e-05	1011.3	345	4.4606e-05	4.6689e-05	258.68	60.366	81.712	22.82	4.4461e-05	19.253	-30.764	51.130	58.877	-86.173	116.526	29.942	-87.531	-82.171	81.535	89.886	-84.470	-79.940	-77.854	-73.913	66.257	-75.897	-8191	255	
15279.111	1	1	0	0	0.067156	0.063777	0.12275	0.27838	0.13468	0.12437	0.12872	0.046198	0.22079	0.065982	0.26059	0.11466	0.074729	0.14188	0.095118	0.16846	-2.2833	-2.4729	-2.8417	-2.7583	-2.8771	-2.8958	-2.7875	-2.8937	-2.5396	-2.6146	-3.0771	-2.6396	-2.9437	-2.8854	-2.6333	-3.0208	123.769	-80.753	16.210	209.684	233.076	77.253	-93.195	239.112	-35.079	10.347	223.053	154.078	-84.370	16.415	-37.794	215.195	2.2918e-05	0.00048445	0.00017859	1399.9	7.216e-07	3.4297e-06	1000.5	342.45	5.2161e-06	1.1036e-05	244.67	54.56	77.323	21.369	7.2028e-06	17.076	0.0030514	0.0041862	0.0011602	1392.6	4.4847e-05	4.6726e-05	1001.2	343.58	4.4228e-05	4.6358e-05	255.91	59.475	81.208	22.681	4.3743e-05	19.077	232.837	-32.988	14.513	-86.282	53.807	184.469	-87.430	-82.202	-21.939	92.060	-84.763	-80.299	-78.536	-73.301	-25.977	-75.999	-8191	255	
15279.206	1	1	0	0	0.13336	0.10154	0.12455	0.084318	0.11038	0.1244	0.29186	0.20795	0.12332	0.061975	0.092476	0.12647	0.34784	0.22741	0.009313	0.088518	-2.2479	-2.6688	-2.8833	-2.8354	-2.7521	-2.9	-2.5875	-3.1979	-2.8042	-2.7708	-3.1583	-2.5458	-2.8771	-2.9833	-2.4813	-2.7979	156.010	34.162	-76.048	224.620	-92.901	66.050	170.927	-97.500	31.671	256.945	145.012	249.216	-79.887	247.181	106.058	102.277	6.6962e-06	0.00068348	0.00024996	1390.6	5.2155e-06	3.9551e-06	998.52	343.32	6.4307e-06	5.6492e-06	245.5	54.758	76.84	21.131	5.2382e-06	16.992	0.0030551	0.004091	0.0011349	1387	4.2957e-05	4.5077e-05	1000.2	343.17	4.2666e-05	4.4268e-05	255.95	59.438	80.83	22.499	4.2297e-05	19.01	150.147	155.906	-99.599	-86.405	-32.011	4.727	-87.690	-82.084	62.592	-30.390	-84.308	-80.054	-77.789	-73.821	208.440	-75.991	-8191	255	
15279.304	1	1	0	0	0.15004	0.033723	0.044809	0.26583	0.055868	0.19812	0.16255	0.158	0.058658	0.34211	0.19556	0.11826	0.11568	0.17464	0.052211	0.080978	-2.3542	-2.6	-2.8854	-2.9958	-2.7583	-2.8542	-2.725	-2.9813	-2.6917	-2.5229	-2.8167	-2.6583	-2.7083	-2.9771	-2.4562	-2.8729	151.401	43.998	218.214	202.827	-79.750	200.040	61.303	259.936	-46.548	170.219	28.363	-64.160	159.307	37.823	99.758	-61.598	5.4231e-05	0.00051133	5.8445e-05	1389.9	8.4956e-06	1.043e-05	1002	341.3	4.5915e-06	5.5683e-06	247.33	55.075	76.763	21.071	1.8452e-06	16.966	0.0029252	0.0039382	0.0010946	1381.5	4.2508e-05	4.3519e-05	1001.3	341.69	4.1839e-05	4.2914e-05	256.46	59.521	80.377	22.381	4.1247e-05	19.014	187.751	26.831	-7.701	-86.129	182.234	78.563	-87.462	-82.005	233.228	-43.648	-84.193	-79.942	-78.277	-73.438	74.529	-75.969	-8191	255	
15279.423	1	1	0	0	0.21351	0.16967	0.14184	0.4761	0.18481	0.080621	0.32213	0.24443	0.18972	0.14259	0.12357	0.2909	0.13824	0.13048	0.051409	0.0095685	-2.3292	-2.5938	-2.9562	-2.8396	-2.6188	-2.7729	-2.7958	-3.1188	-2.6937	-2.55	-3.05	-2.7542	-2.7083	-3.0396	-2.8521	-2.8958	240.778	-82.530	-8.340	204.622	1.507	-92.807	-72.684	196.013	-48.484	3.245	132.970	-59.315	-83.018	16.844	-10.031	-76.277	6.4557e-05	0.00061497	8.0706e-05	1389.4	5.0762e-06	6.1885e-06	999.84	341.7	4.7166e-06	1.9745e-06	245.93	55.646	76.885	21.271	9.0605e-06	17.106	0.0028388	0.0037648	0.0010674	1380.2	4.0144e-05	4.1373e-05	1001.8	341.29	3.9523e-05	4.1278e-05	256.21	59.772	80.301	22.388	4.1004e-05	19.03	211.897	-14.237	96.782	-86.128	28.827	-28.901	-87.224	-82.113	23.919	153.819	-84.314	-80.059	-77.989	-73.341	101.814	-76.034	-8191	255	
15279.519	1	1	0	0	0.12617	0.20692	0.061968	0.037601	0.061505	0.12285	0.37922	0.25023	0.18129	0.069469	0.10735	0.15707	0.0791	0.017692	0.13393	0.1905	-2.3792	-2.6979	-2.7354	-2.9271	-2.5917	-3.0104	-2.8167	-2.8271	-2.7646	-2.6375	-2.8667	-2.6375	-2.7333	-3.0708	-2.8104	-2.6521	-45.851	-0.149	222.446	124.796	-0.623	82.602	169.180	115.616	199.289	252.418	255.609	223.716	214.499	112.180	-17.394	165.518	4.488e-05	0.0010752	0.00025854	1387.3	3.6401e-06	7.9315e-06	998.49	341.14	2.1984e-06	9.2842e-06	243.67	54.874	76.087	21.13	4.0256e-06	17.121	0.0027544	0.0036886	0.0010485	1376.2	3.9426e-05	4.1233e-05	995.95	340.29	4.007e-05	4.1751e-05	253.81	59.19	80.016	22.385	4.1742e-05	18.983	182.015	22.372	-6.381	-86.330	179.367	92.805	-87.386	-82.154	125.370	17.760	-84.732	-80.821	-78.003	-72.867	42.822	-75.663	-8191	255	
15279.615	1	1	0	0	0.087233	0.088692	0.30336	0.052154	0.066085	0.13921	0.38853	0.10129	0.082619	0.092921	0.12287	0.1176	0.16223	0.20787	0.12688	0.085389	-2.4646	-2.4646	-2.9708	-2.8271	-2.4771	-2.9604	-2.8688	-2.9375	-3.0479	-2.7542	-2.8104	-2.9479	-2.5646	-2.8292	-2.6271	-2.7438	-2.723	14.893	95.389	62.241	101.940	158.715	185.597	216.204	23.460	-38.131	211.992	-13.821	20.520	189.939	154.815	83.761	0.0001184	0.00059585	0.00026172	1382.4	3.1254e-06	8.4092e-06	998.07	339.62	4.5885e-06	5.9256e-06	244.33	55.207	76.09	21.331	7.2728e-07	17.303	0.0028214	0.003873	0.0010935	1377	4.0854e-05	4.273e-05	997.14	340.08	4.0078e-05	4.1972e-05	253.93	59.277	79.752	22.485	4.1538e-05	19.053	224.979	95.749	6.094	-86.006	167.591	37.601	-87.215	-82.103	36.426	117.149	-84.379	-80.261	-78.192	-73.428	100.754	-75.988	-8191	255	
15279.711	1	1	0	0	0.22992	0.10756	0.12033	0.10797	0.26303	0.017177	0.14117	0.18844	0.12566	0.13414	0.085557	0.029689	0.22014	0.075611	0.037704	0.21205	-2.3937	-2.2917	-2.7104	-2.7875	-2.6521	-2.9313	-2.75	-2.9021	-3.0771	-2.6125	-2.7521	-2.7917	-2.4833	-3.0146	-2.5354	-2.7021	117.619	-27.295	251.030	25.467	253.145	-0.396	245.579	219.419	226.799	183.200	195.101	-64.383	177.490	-79.812	-40.049	245.808	8.2082e-05	0.00016709	0.00018973	1390.4	3.8617e-06	5.0647e-06	1002.3	342.4	5.5718e-06	4.0079e-06	246.74	55.83	76.513	21.221	6.1047e-06	17.088	0.0027611	0.0037836	0.0010903	1379.9	4.0632e-05	4.2804e-05	1005	342.16	4.007e-05	4.3152e-05	257.46	59.719	80.495	22.581	4.2767e-05	19.221	217.688	83.097	3.926	-86.371	50.460	-32.028	-87.393	-82.136	0.198	9.758	-84.506	-80.093	-78.042	-73.889	95.393	-75.705	-8191	255	
15279.807	1	1	0	0	0.10383	0.1921	0.16008	0.24973	0.092983	0.18602	0.28344	0.18116	0.038824	0.080529	0.23336	0.12176	0.16517	0.06901	0.078157	0.16387	-2.4938	-2.45	-2.7542	-2.9062	-2.6792	-2.9146	-2.7188	-2.8729	-2.9271	-2.3729	-2.9083	-2.7896	-2.6896	-2.9646	-2.6562	-2.6312	-90.088	-31.766	42.095	175.305	-66.376	14.519	155.283	218.146	57.182	254.222	-0.974	194.471	178.526	197.495	129.576	-52.329	8.4178e-05	0.00034912	7.6627e-05	1392	6.6895e-06	6.251e-07	1003.4	340.54	3.7322e-06	1.3475e-05	245.61	54.748	76.731	21.111	2.5423e-06	17.111	0.0028493	0.0039288	0.0011109	1382.6	4.0939e-05	4.4642e-05	1006.6	341.19	4.1692e-05	4.5238e-05	256.42	59.717	80.407	22.521	4.4428e-05	19.157	248.038	12.900	184.942	-86.592	97.580	67.918	-87.239	-81.756	41.800	11.066	-84.374	-80.146	-77.758	-73.664	-39.150	-76.086	-8191	255	
15279.903	1	1	0	0	0.16266	0.20718	0.28435	0.32401	0.16066	0.19944	0.1409	0.12335	0.17521	0.19603	0.1051	0.10627	0.070211	0.20767	0.20187	0.078781	-2.3625	-2.5479	-2.7667	-2.9562	-2.7042	-3.0208	-2.8583	-2.7958	-2.9146	-2.7208	-2.5542	-2.8292	-2.55	-2.8	-2.4771	-2.5	210.113	208.924	185.517	254.607	116.782	28.565	-60.008	-8.527	174.725	-67.210	236.346	94.353	182.212	227.288	69.873	-72.663	3.5884e-05	0.00072644	0.00010543	1388.9	5.183e-06	2.5849e-06	999.04	339.36	2.4031e-06	2.9362e-06	244.28	54.112	76.764	20.881	2.1908e-06	16.795	0.0029436	0.0041035	0.0011397	1381.2	4.2993e-05	4.5476e-05	999.16	340.52	4.2612e-05	4.6386e-05	255.67	59.133	80.614	22.523	4.4886e-05	19.025	15.295	-61.043	-25.866	-86.369	191.681	110.692	-87.283	-82.003	17.930	68.444	-84.026	-79.793	-77.883	-73.452	49.740	-76.382	-8191	255	
15280.000	1	1	0	0	0.27338	0.16086	0.12831	0.11401	0.05382	0.11356	0.30423	0.24829	0.089541	0.018481	0.084253	0.1658	0.030145	0.188	0.10468	0.40751	-2.3917	-2.5021	-2.7354	-2.9854	-2.5708	-2.8979	-2.8542	-2.5604	-2.8688	-2.6271	-2.7229	-2.9458	-2.7521	-2.7542	-2.6729	-2.5271	182.461	-5.709	88.023	217.545	-80.168	250.724	192.464	238.991	237.645	246.049	169.613	246.944	258.049	190.470	-24.890	-99.869	3.9618e-05	0.00048305	0.00020499	1391	1.5362e-06	3.8682e-06	999.88	339.43	1.1538e-06	1.199e-05	244.27	54.628	75.968	20.847	1.1214e-06	17.03	0.003054	0.0042028	0.0011661	1383.2	4.4207e-05	4.7349e-05	1003.9	341.02	4.4539e-05	4.7587e-05	256.19	59.601	80.713	22.501	4.4922e-05	19.161	206.131	41.979	40.778	-86.208	166.793	255.903	-87.379	-82.065	242.601	119.542	-83.985	-80.490	-77.922	-73.237	26.486	-76.263	-8191	255	
15280.118	1	1	0	0	0.29261	0.21956	0.096008	0.20254	0.17808	0.1932	0.097358	0.1055	0.084864	0.11851	0.24357	0.26967	0.093404	0.12563	0.28075	0.18375	-2.6437	-2.6229	-2.5979	-2.9646	-2.4417	-2.8979	-2.9708	-2.6104	-2.8583	-2.8333	-2.6417	-2.9417	-2.5687	-2.8688	-2.8229	-2.5854	101.649	42.513	55.512	213.341	139.572	56.229	-77.105	253.372	-69.608	214.975	143.819	224.492	-74.334	253.956	84.376	246.299	2.9259e-05	0.00042169	7.7143e-05	1392.7	1.5192e-06	4.1995e-06	1002.6	339.69	3.1452e-06	4.5639e-06	244.01	54.509	76.462	21.137	1.2421e-05	17.104	0.0030603	0.0042739	0.0011817	1384.3	4.579e-05	4.8124e-05	1006.9	341.79	4.5621e-05	4.8373e-05	257.22	59.816	80.894	22.65	4.5858e-05	19.302	60.368	-77.270	3.866	-86.219	-33.000	-97.142	-87.448	-82.097	17.875	-87.058	-84.576	-80.396	-77.869	-73.498	45.531	-76.044	-8191	255	
15280.215	1	1	0	0	0.085645	0.24446	0.10797	0.098295	0.12812	0.011241	0.12612	0.15411	0.18364	0.10477	0.19527	0.082085	0.22541	0.18642	0.09474	0.17107	-2.525	-2.7458	-2.6125	-3.0021	-2.5938	-2.6979	-2.9208	-2.7771	-3.0146	-2.825	-2.6542	-3.0583	-2.7562	-2.6417	-2.8646	-2.4958	48.519	24.050	66.047	-34.122	-97.215	22.283	183.813	90.050	231.646	-26.815	210.537	156.019	190.296	-75.845	248.193	-13.214	6.0661e-05	9.4752e-05	0.00028026	1390.6	3.9947e-06	1.5259e-06	1008.3	339.61	5.3142e-06	2.123e-06	246.05	55.179	75.96	21.178	2.2685e-06	17.05	0.0032056	0.0043621	0.0012141	1387.6	4.6822e-05	4.8862e-05	1010.1	341.41	4.5392e-05	4.8046e-05	257.48	59.909	80.785	22.533	4.5357e-05	19.263	-55.423	259.284	-48.186	-86.119	73.002	198.725	-87.340	-82.042	3.292	-95.650	-84.249	-80.152	-77.682	-73.186	9.564	-76.518	-8191	255	
15280.286	1	1	0	0	0.13384	0.059831	0.19073	0.12853	0.26554	0.14634	0.12066	0.15881	0.20751	0.33041	0.064519	0.19709	0.24343	0.30273	0.2162	0.17265	-2.4	-2.7542	-2.5229	-2.9271	-2.6646	-2.7458	-2.9188	-2.6667	-2.7042	-2.8063	-2.4583	-3.025	-2.7812	-2.65	-3.0354	-2.725	256.154	109.472	6.067	-99.643	182.965	30.625	23.375	187.992	258.738	176.067	193.400	82.920	221.812	-57.251	68.816	-10.874	4.6106e-05	0.00069611	5.8979e-05	1388.5	4.8854e-06	8.6386e-06	996.43	340.79	5.5596e-06	6.9694e-06	242.74	54.566	76.848	21.189	3.8759e-06	16.885	0.003174	0.0042593	0.0011929	1385.4	4.5756e-05	4.6899e-05	1001.7	340.88	4.5436e-05	4.7747e-05	254.82	59.646	81.204	22.669	4.6797e-05	19.149	163.777	-38.012	138.378	-86.219	-45.671	117.965	-87.243	-82.158	-66.089	56.684	-84.525	-80.109	-78.029	-73.621	108.558	-76.179	-8191	255	
15280.384	1	1	0	0	0.17474	0.16711	0.22333	0.18262	0.19971	0.10455	0.27174	0.5178	0.15708	0.22405	0.17352	0.040641	0.16633	0.14241	0.22797	0.19124	-2.2958	-2.7229	-2.6063	-2.9708	-2.4688	-2.5938	-3.125	-2.775	-2.8042	-2.9146	-2.6125	-2.9333	-2.8979	-2.7562	-3.0771	-2.6688	-91.973	206.787	79.025	106.121	79.236	92.153	235.002	225.031	39.304	192.065	156.561	133.129	253.752	-85.351	232.498	218.190	6.6026e-05	0.00092517	7.473e-05	1395.2	9.723e-06	4.2855e-06	1000.5	342.47	5.8133e-06	1.5193e-06	245.93	55.055	76.796	21.182	4.025e-06	16.981	0.0031795	0.0043084	0.0012032	1390.9	4.6154e-05	4.7801e-05	1004.9	342.95	4.4667e-05	4.6477e-05	256.63	59.954	81.039	22.557	4.4845e-05	19.229	-96.910	-42.768	0.674	-86.187	-52.480	-1.071	-87.310	-82.083	118.296	-58.243	-84.431	-80.099	-77.962	-73.347	54.138	-76.148	-8191	255	
15280.503	1	1	0	0	0.041429	0.060011	0.15832	0.087693	0.18121	0.14215	0.34398	0.54922	0.27256	0.0017967	0.22816	0.078187	0.16244	0.2062	0.036941	0.03481	-2.4396	-2.8729	-2.4521	-3.15	-2.8729	-2.6292	-3.2042	-2.6979	-2.9062	-2.6958	-2.8688	-2.85	-2.9333	-2.5938	-3.0521	-2.6417	91.859	197.603	176.509	227.678	-37.445	163.521	160.828	196.307	19.192	180.000	257.848	236.688	0.549	108.155	-19.235	38.380	3.217e-05	0.00091708	6.313e-05	1391	8.3513e-06	3.8714e-06	1005.3	340.42	6.1214e-06	1.7912e-06	244.74	55.236	76.764	21.124	2.8108e-06	16.97	0.0030474	0.0040749	0.001165	1386.7	4.4294e-05	4.6233e-05	1006.8	342.32	4.4457e-05	4.5679e-05	257.16	59.947	80.993	22.552	4.4994e-05	19.203	-12.042	-5.760	-60.243	-86.326	155.637	-22.356	-87.429	-81.972	12.861	253.145	-84.639	-80.413	-77.809	-73.302	-19.354	-76.098	-8191	255	
15280.599	1	1	0	0	0.12633	0.36148	0.11601	0.28798	0.048629	0.11512	0.14701	0.39202	0.22466	0.16739	0.05509	0.058506	0.22588	0.26062	0.21093	0.19586	-2.4167	-3.0333	-2.6167	-2.9	-2.6583	-2.5104	-3.1813	-2.7958	-2.4979	-2.8563	-2.825	-2.8438	-2.7729	-2.5542	-2.9396	-2.7542	86.650	-40.260	-2.459	217.915	42.945	74.837	-84.352	159.733	15.071	170.197	-14.795	83.725	-99.915	97.835	136.365	87.002	7.3999e-05	0.00033858	8.5257e-05	1401.3	4.0378e-06	8.0895e-06	1003.2	341.93	4.0136e-06	8.7208e-06	246.37	55.189	77.206	21.254	1.202e-06	16.872	0.0031055	0.0041366	0.0011997	1389.9	4.5381e-05	4.7443e-05	1009.6	343.61	4.5261e-05	4.7413e-05	258.37	60.126	81.215	22.675	4.7187e-05	19.282	-92.898	-25.902	26.698	-86.298	155.136	66.418	-87.433	-82.133	25.166	-51.869	-84.499	-80.171	-78.324	-73.184	184.977	-75.746	-8191	255	
15280.695	1	1	0	0	0.16831	0.048853	0.10153	0.13757	0.023778	0.13109	0.16732	0.14798	0.25616	0.17816	0.049112	0.15761	0.22525	0.091044	0.13097	0.20592	-2.2542	-2.7958	-2.7417	-2.9188	-2.8875	-2.5333	-3.0375	-3	-2.5396	-2.9104	-2.5792	-2.6188	-2.775	-2.5812	-2.7292	-2.75	45.939	133.040	-72.260	237.419	21.309	173.331	197.432	229.527	-88.378	-79.454	228.846	209.593	182.344	204.848	116.304	233.116	6.7751e-05	0.00027843	0.00021901	1392.2	4.8997e-06	4.7116e-06	988.95	339.88	7.1873e-06	3.2429e-06	242.24	54.395	76.456	21.152	2.6762e-06	16.744	0.0032169	0.0044201	0.0012724	1391	4.7086e-05	4.9692e-05	999.67	341.48	4.5865e-05	4.896e-05	255.58	59.632	80.853	22.595	4.9351e-05	19.182	-24.614	59.076	47.141	-86.206	-26.215	-82.141	-87.041	-82.053	32.114	230.825	-84.719	-80.033	-77.589	-73.303	-45.482	-75.936	-8191	255	
15280.791	1	1	0	0	0.056563	0.17851	0.1651	0.17291	0.055952	0.36042	0.13452	0.15775	0.1263	0.21469	0.15895	0.12995	0.15746	0.11928	0.1773	0.074306	-2.2438	-2.8958	-2.6708	-2.875	-2.8917	-2.6896	-2.9792	-2.9542	-2.5854	-2.9458	-2.8375	-2.6854	-3.0771	-2.5438	-2.8875	-2.8333	200.254	196.714	-67.390	-46.308	233.269	48.926	150.017	212.925	-44.011	72.601	-55.768	219.189	14.727	-76.398	131.141	221.528	2.4669e-05	0.00016834	0.0001671	1389	8.4133e-06	8.8114e-06	1000.6	341.16	1.6356e-06	7.857e-06	246.88	54.998	76.778	21.056	2.3015e-06	16.85	0.0032777	0.0045006	0.0012887	1387.8	4.7589e-05	5.0274e-05	1005.2	342.51	4.7465e-05	5.0754e-05	258.06	60.138	81.467	22.718	4.9245e-05	19.24	68.001	197.934	231.908	-86.184	63.765	72.743	-87.341	-82.113	-43.121	-45.626	-84.365	-80.323	-77.999	-73.228	57.892	-76.111	-8191	255	
15280.888	1	1	0	0	0.20691	0.090622	0.078496	0.19409	0.31215	0.12447	0.30468	0.22225	0.18477	0.23553	0.27959	0.19827	0.2156	0.22734	0.043703	0.19227	-2.1229	-2.8812	-2.8604	-2.8688	-2.8917	-2.8063	-3.05	-2.9062	-2.5875	-2.9458	-2.8563	-2.7104	-2.9396	-2.6188	-2.9313	-2.9938	243.983	117.392	195.775	200.549	0.860	143.876	254.039	208.100	114.002	157.014	255.527	40.863	254.695	-79.409	36.709	15.916	4.0018e-05	0.00020716	0.00022168	1394.3	3.5208e-06	7.6228e-06	1002.5	340.8	8.2124e-06	9.9914e-06	244.29	54.909	76.926	21.294	1.2619e-06	16.711	0.0032586	0.0044856	0.0012605	1387.4	4.67e-05	4.9949e-05	1006.8	342.29	4.6333e-05	4.9692e-05	258.13	60	81.389	22.757	4.9333e-05	19.299	254.185	91.283	20.938	-86.193	-14.720	41.089	-87.399	-82.297	114.792	171.234	-84.715	-80.133	-78.087	-73.529	-83.650	-76.145	-8191	255	
15280.984	1	1	0	0	0.22048	0.11163	0.3347	0.20706	0.12892	0.22772	0.088405	0.15821	0.27826	0.11624	0.25756	0.14815	0.049045	0.13921	0.098992	0.20138	-2.2396	-2.9729	-2.8292	-2.6396	-3.0896	-2.7	-3.0187	-2.9833	-2.5167	-2.8312	-2.8937	-2.725	-3.0229	-2.7979	-2.7313	-2.9646	199.868	201.545	30.269	236.586	137.449	19.750	122.967	219.573	208.642	-74.828	-36.791	237.018	-52.209	61.498	210.088	244.993	1.0599e-05	0.00041596	8.1295e-05	1398.2	6.0745e-06	7.0478e-06	1012.5	341.61	2.5752e-06	6.4441e-06	245.57	54.79	76.891	21.19	4.501e-06	16.763	0.0033419	0.0046065	0.0012941	1394.2	4.8666e-05	5.2029e-05	1014.6	344.51	4.8232e-05	5.0597e-05	259.23	60.165	81.677	22.821	4.8373e-05	19.152	-42.415	-84.370	17.712	-86.082	59.933	2.558	-87.351	-82.101	139.820	151.690	-84.669	-80.254	-77.897	-73.338	80.995	-76.166	-8191	255	
15281.104	1	1	0	0	0.10193	0.10469	0.074754	0.21464	0.10268	0.10334	0.071224	0.20179	0.15937	0.13677	0.25088	0.063165	0.067232	0.026666	0.003212	0.14143	-2.1375	-2.8812	-2.7958	-2.9104	-2.8208	-2.7604	-2.6479	-2.9562	-2.6813	-2.925	-2.8771	-2.6021	-3.125	-2.8771	-2.6417	-2.7792	36.950	-83.832	103.303	252.913	141.714	247.018	-44.302	223.579	52.072	172.803	196.441	22.231	-66.130	194.920	-91.768	-80.505	3.4431e-05	8.1147e-05	3.022e-05	1393.9	7.487e-06	4.3828e-06	995.8	339.79	6.1659e-06	6.8077e-06	244.65	54.746	76.368	21.341	6.073e-06	16.849	0.0032889	0.0044993	0.00126	1389.8	4.7479e-05	5.0947e-05	1001.6	342.64	4.7032e-05	5.021e-05	256.79	59.798	81.266	22.815	4.8201e-05	19.209	234.859	-3.144	-25.949	-86.255	75.965	142.299	-87.396	-81.987	48.679	15.555	-84.467	-80.223	-77.785	-73.743	38.657	-75.954	-8191	255	
15281.199	1	1	0	0	0.092025	0.2843	0.1366	0.18372	0.040782	0.25772	0.086358	0.15535	0.21946	0.05598	0.0068932	0.083311	0.232	0.081809	0.05727	0.19955	-2.0687	-2.7604	-2.8125	-2.8021	-2.8042	-2.9875	-2.7083	-3.0729	-2.6771	-2.8063	-2.9958	-2.7833	-2.9708	-2.7708	-2.8021	-2.8375	164.232	-93.497	-38.785	-38.366	60.570	142.131	72.833	106.022	165.175	30.203	-18.350	121.182	60.910	-6.922	202.786	64.998	4.2762e-05	0.00028798	0.00016935	1394.3	3.4332e-06	6.2378e-06	1004.3	343.22	6.3705e-06	7.5592e-06	247.13	55.167	77.101	21.376	3.1636e-06	16.997	0.0033496	0.0045391	0.0012707	1394.5	4.8171e-05	5.1418e-05	1009.1	345.25	4.8092e-05	5.1073e-05	259.6	60.337	82.114	22.902	4.85e-05	19.376	165.607	18.150	18.708	-86.289	95.706	154.062	-87.319	-82.146	-38.399	207.219	-84.680	-80.530	-78.059	-73.736	126.412	-76.681	-8191	255	
15281.295	1	1	0	0	0.18318	0.30944	0.028918	0.28098	0.18413	0.21202	0.40006	0.14469	0.13097	0.13872	0.17681	0.10802	0.27662	0.20447	0.11689	0.14716	-2.1479	-2.6729	-3.025	-2.6979	-2.975	-2.9562	-2.8	-3.1771	-2.5646	-2.7917	-3.0583	-2.6771	-2.8333	-2.8646	-2.6979	-2.9292	245.133	28.822	224.056	235.735	-26.298	29.243	162.946	192.025	17.253	87.384	-33.104	-97.204	256.007	33.924	20.748	8.330	5.6035e-05	0.00018649	0.00016578	1398.7	3.2906e-06	4.2933e-06	1003.5	342.49	6.5585e-06	2.1963e-06	247.46	55.023	77.202	21.36	1.0331e-05	17.127	0.0033629	0.0045044	0.0012351	1396.1	4.7262e-05	4.8715e-05	1009.3	344.29	4.5947e-05	4.807e-05	259.59	60.392	81.938	22.853	4.7029e-05	19.39	-65.813	-51.069	-16.643	-86.247	137.353	4.786	-87.370	-82.031	29.248	89.804	-84.319	-80.021	-77.952	-73.715	67.067	-75.748	-8191	255	
15281.391	1	1	0	0	0.078339	0.11632	0.12998	0.39391	0.063182	0.30871	0.11276	0.2643	0.19005	0.18139	0.14071	0.087779	0.14418	0.17398	0.17282	0.09105	-2.2188	-2.8396	-2.925	-2.9833	-2.9542	-2.9437	-2.8396	-3.0521	-2.9667	-2.6312	-3.0958	-2.5896	-2.9125	-2.8438	-2.6542	-3.0333	50.865	46.228	222.628	198.275	-21.156	139.515	149.539	216.547	-20.676	-0.593	-82.804	-61.315	212.046	239.542	42.321	202.353	0.00010471	0.00020494	0.00015572	1400.7	5.18e-06	4.7235e-06	1008.4	343.62	6.2162e-06	7.5511e-06	248.55	55.607	77.997	21.384	3.4052e-06	17.05	0.0033152	0.0044387	0.0012387	1397.4	4.7519e-05	4.9596e-05	1015.6	345.9	4.7065e-05	4.8843e-05	260.53	60.716	82.24	22.939	4.6529e-05	19.34	170.579	-31.185	109.664	-86.252	56.817	78.665	-87.485	-81.983	128.773	64.679	-84.233	-80.256	-78.122	-73.717	129.763	-76.299	-8191	255	
15281.512	1	1	0	0	0.023826	0.20068	0.17396	0.20897	0.030924	0.30583	0.10935	0.12222	0.1643	0.10849	0.38779	0.26599	0.29171	0.0751	0.1917	0.27114	-2.2396	-2.6437	-2.7854	-2.9083	-2.8063	-3	-2.7062	-3.0938	-2.8604	-2.5875	-3.2229	-2.7458	-2.9146	-3.0458	-2.5292	-2.95	122.272	-24.886	77.846	255.275	152.597	203.415	162.364	100.218	61.060	-87.423	218.168	157.978	-48.793	120.277	223.766	-60.824	0.000102	0.00056961	0.00027767	1400	6.0314e-06	4.0092e-06	1002.4	341.74	2.0473e-06	6.5766e-06	248.52	55.162	77.255	21.315	7.8895e-06	17.05	0.0032416	0.0043307	0.0012211	1395.1	4.6557e-05	4.8296e-05	1006.3	344.89	4.6333e-05	4.8266e-05	259.18	60.223	81.865	22.835	4.7287e-05	19.311	188.997	7.442	-18.136	-86.047	95.766	234.658	-87.318	-82.096	101.270	69.280	-84.680	-80.020	-77.823	-73.276	156.458	-75.955	-8191	255	
15281.583	1	1	0	0	0.19178	0.32752	0.31817	0.010848	0.11453	0.23497	0.28453	0.2426	0.12973	0.19772	0.2298	0.20489	0.13935	0.23406	0.17611	0.10702	-2.4292	-2.7229	-3.1042	-2.9146	-2.95	-3.0729	-2.8083	-2.9792	-2.6333	-2.6437	-3.0333	-2.9062	-2.8667	-2.9896	-2.7417	-2.8667	107.027	188.462	-85.669	217.535	204.368	223.662	138.328	177.891	23.537	184.983	198.756	-43.499	258.646	139.929	156.767	184.932	2.5102e-05	0.00035405	4.179e-05	1400.5	6.9424e-06	3.6282e-06	1004.9	344.11	4.7892e-06	7.2325e-06	248.55	55.252	77.165	21.419	1.9811e-06	17.137	0.0032019	0.0043043	0.0012193	1393.8	4.6021e-05	4.7483e-05	1009.9	345.27	4.6023e-05	4.7722e-05	259.1	60.291	81.457	22.742	4.6441e-05	19.343	217.286	-48.616	46.562	-86.246	-8.282	5.956	-87.524	-81.940	-17.108	130.248	-84.379	-80.297	-78.313	-73.869	164.113	-76.099	-8191	255	
15281.680	1	1	0	0	0.1238	0.057439	0.18605	0.11146	0.22047	0.094995	0.11091	0.15715	0.14478	0.093281	0.17213	0.38117	0.242	0.17544	0.25427	0.078247	-2.2896	-2.5229	-2.9854	-3.0521	-2.7875	-3.1125	-2.9437	-3.15	-2.9125	-2.7	-3.0458	-2.85	-2.8937	-3.2375	-2.6063	-3.1521	68.554	118.312	-83.512	122.860	-17.274	39.389	172.220	256.801	63.859	57.002	-43.288	219.784	-57.185	200.851	-78.841	200.303	1.27e-05	0.00025555	0.00011539	1394.4	1.8231e-06	6.3409e-06	1005.5	342.57	4.8862e-06	9.9189e-06	248.63	56.136	77.903	21.634	6.8445e-06	17.249	0.0031297	0.004237	0.0012058	1391.7	4.554e-05	4.7218e-05	1010	344.99	4.5352e-05	4.7994e-05	261.3	61.152	82.525	23.059	4.8464e-05	19.616	54.054	85.034	27.477	-86.157	249.362	136.283	-87.491	-81.858	-38.513	122.873	-84.609	-80.395	-77.698	-73.557	-42.875	-76.185	-8191	255	
15281.800	1	1	0	0	0.25859	0.022491	0.20085	0.16266	0.08243	0.11961	0.08919	0.34248	0.18888	0.17824	0.17207	0.032107	0.11007	0.18556	0.17744	0.27848	-2.5542	-2.7771	-2.9479	-2.7125	-2.7021	-3.2	-2.8771	-2.9625	-3.0625	-2.6521	-3.0104	-2.8896	-2.6667	-2.9979	-2.7625	-2.8167	-98.119	221.324	-17.167	211.075	126.543	55.512	225.027	213.360	86.803	156.651	-74.983	124.860	146.254	16.614	218.303	184.812	3.2591e-05	0.00025415	0.00017984	1408.2	3.3831e-06	3.7271e-06	1010.6	344.54	6.5416e-06	5.8054e-07	248.89	55.783	78.243	21.456	6.3061e-06	17.21	0.0032306	0.004393	0.001262	1401.7	4.6217e-05	4.8592e-05	1016.7	346.6	4.4735e-05	4.7242e-05	260.48	60.618	82.067	22.887	4.5498e-05	19.252	44.474	243.941	-10.658	-86.280	-56.024	87.118	-87.402	-81.911	-41.545	193.861	-84.397	-80.203	-78.418	-73.653	116.452	-75.776	-8191	255	
15281.896	1	1	0	0	0.17031	0.027022	0.049334	0.18404	0.11628	0.078792	0.18171	0.078417	0.11795	0.26173	0.22631	0.18702	0.20448	0.28258	0.11283	0.18477	-2.6875	-2.5854	-2.9625	-2.9437	-2.6167	-2.9062	-2.8625	-3.0729	-3.1146	-2.7979	-2.9708	-2.8187	-2.9	-3.0354	-2.8937	-2.8438	46.880	157.067	-61.931	182.258	69.097	-13.680	171.068	208.690	116.189	129.678	251.674	49.122	183.850	-47.009	136.801	243.849	1.4704e-05	0.00018393	0.00025508	1399	8.3613e-06	9.8626e-06	1001.1	343.81	4.4174e-06	6.3821e-06	246.51	55.525	78.424	21.342	2.2204e-06	17.171	0.0030187	0.0042004	0.00118	1389.1	4.4058e-05	4.706e-05	1005.5	345.33	4.4139e-05	4.7723e-05	258.44	60.23	82.313	22.966	4.7462e-05	19.334	238.227	43.543	-25.718	-86.348	31.536	209.792	-87.283	-81.940	95.105	167.481	-84.546	-79.951	-77.666	-73.509	26.719	-75.539	-8191	255	
15281.992	1	1	0	0	0.19651	0.22551	0.31524	0.21541	0.20857	0.13701	0.15945	0.42141	0.15777	0.1759	0.29509	0.22161	0.15432	0.081082	0.15629	0.22992	-2.7333	-2.6625	-2.9375	-3.0625	-2.7354	-3.1437	-3.0687	-2.7604	-3.0938	-2.8167	-2.8708	-3.0729	-2.7333	-2.9979	-2.9667	-2.9792	-18.435	41.949	-20.283	252.630	183.124	-59.045	165.868	241.362	-55.757	160.807	151.527	-33.572	216.004	258.120	-23.074	220.396	0.00010505	0.00034949	9.6301e-05	1401	8.165e-06	3.6933e-07	1006.1	343.21	1.8866e-06	7.2636e-06	248.12	55.48	77.812	21.547	3.7664e-06	17.241	0.0031871	0.0044226	0.0012373	1397.1	4.5313e-05	4.789e-05	1010.6	345.33	4.3421e-05	4.6283e-05	259.9	60.481	82.383	22.981	4.5371e-05	19.414	204.641	30.298	44.095	-86.309	49.182	61.331	-87.423	-82.210	8.001	55.245	-84.502	-80.076	-78.135	-73.419	-97.388	-75.547	-8191	255	
15282.087	1	1	0	0	0.096378	0.21474	0.073346	0.40428	0.37673	0.15388	0.27858	0.21795	0.13214	0.19857	0.14012	0.3081	0.11485	0.088935	0.098345	0.20388	-2.375	-2.6583	-2.8917	-2.9979	-2.6396	-2.9125	-2.7271	-2.7188	-2.7792	-2.6271	-2.8542	-3.0792	-2.575	-2.9562	-2.8271	-2.7104	165.953	149.001	246.311	142.034	123.578	100.712	202.513	-60.988	60.901	-9.212	-47.013	248.156	31.577	199.469	66.448	221.429	4.3446e-05	0.00076946	0.00011883	1403	4.1576e-06	1.8126e-06	1014.5	345.15	3.8759e-06	7.8654e-06	250.11	56.491	78.384	21.678	4.9485e-06	17.347	0.0030809	0.0042498	0.001204	1396.5	4.4697e-05	4.7795e-05	1014.2	346.03	4.5557e-05	4.8576e-05	261.75	61.152	82.764	23.191	4.7885e-05	19.654	133.909	-13.352	-7.693	-86.068	62.755	97.279	-87.403	-82.017	68.214	-13.063	-84.312	-80.529	-78.031	-73.511	171.444	-76.389	-8191	255	
15282.183	1	1	0	0	0.086459	0.33698	0.13776	0.24392	0.19484	0.10834	0.14035	0.12923	0.23467	0.16159	0.18231	0.17321	0.17232	0.076997	0.099973	0.11945	-2.7333	-2.6583	-2.7708	-3.1771	-2.9042	-2.8396	-2.9708	-2.9	-3.0583	-2.6333	-2.7313	-3.0021	-2.7604	-2.8354	-3.0125	-2.6208	243.313	120.989	151.776	227.296	191.687	71.193	152.593	170.956	108.503	-83.966	194.781	-81.129	100.046	-30.644	120.952	42.521	5.0898e-06	0.00078542	0.00011848	1405.1	6.0066e-06	5.3939e-06	1014.7	345.44	3.3397e-06	1.0266e-05	249.29	55.865	77.756	21.361	4.1039e-06	17.08	0.0032555	0.0044769	0.0012501	1403	4.7252e-05	5.0309e-05	1019.3	347.47	4.775e-05	5.0786e-05	262.03	61.061	82.774	23.079	4.7877e-05	19.481	170.829	-8.222	80.443	-85.995	-30.238	88.516	-87.454	-81.930	-33.273	67.096	-84.852	-80.219	-78.066	-73.735	72.541	-75.983	-8191	255	
15282.279	1	1	0	0	0.12375	0.093447	0.13404	0.16337	0.15008	0.21566	0.067406	0.16042	0.1767	0.17621	0.1653	0.24677	0.26224	0.26993	0.081243	0.1258	-2.6792	-2.7333	-2.6667	-3.325	-2.6125	-2.8875	-3.1417	-2.8125	-2.9125	-2.8292	-2.6667	-3.0292	-2.5583	-2.7146	-2.9396	-2.7354	142.889	17.758	-0.021	225.503	83.557	-80.240	202.126	257.375	74.774	-81.465	-37.361	94.746	205.098	-19.686	57.094	189.864	0.00010627	0.00055677	5.083e-05	1400.5	6.0557e-06	9.4658e-06	998.93	341.53	7.6622e-06	8.8278e-06	245.47	55.613	77.552	21.217	9.6013e-06	17.083	0.0033158	0.0044654	0.0012322	1395.4	4.7603e-05	4.9752e-05	1004.2	343.81	4.6443e-05	4.9114e-05	257.47	60.279	81.948	22.849	4.6206e-05	19.305	-99.252	-3.797	250.644	-86.269	138.862	-44.760	-87.411	-82.042	-67.511	60.932	-84.553	-80.296	-77.753	-73.549	135.406	-76.121	-8191	255	
15282.375	1	1	0	0	0.25421	0.094698	0.28026	0.20135	0.26949	0.10123	0.23448	0.27002	0.095748	0.17918	0.11833	0.23215	0.25351	0.13952	0.23976	0.087893	-2.3833	-2.5563	-2.7062	-3.0875	-2.7229	-2.6729	-3.1688	-2.6458	-2.9375	-2.6333	-2.7479	-3.0646	-2.7313	-2.7792	-2.8854	-2.6083	143.992	6.413	206.713	248.834	25.185	112.859	214.631	112.410	61.094	67.927	-0.161	158.136	-76.307	240.036	153.284	40.920	4.3881e-05	0.00065177	8.8349e-05	1399	3.6236e-06	4.6228e-06	1007.9	344.04	6.2942e-06	1.1443e-05	249.02	55.801	78.098	21.613	3.4859e-06	17.236	0.0032491	0.0043824	0.0012302	1395.8	4.7528e-05	4.9157e-05	1010.7	346.88	4.6791e-05	4.8688e-05	260.58	60.679	82.616	23.055	4.6413e-05	19.502	192.457	246.852	8.559	-86.107	-16.672	106.731	-87.663	-81.908	35.286	-25.365	-84.258	-80.219	-78.299	-73.026	58.407	-75.884	-8191	255	
15282.471	1	1	0	0	0.032758	0.1157	0.2563	0.21381	0.29988	0.045578	0.17867	0.26372	0.20268	0.38345	0.025272	0.11421	0.068779	0.13115	0.037646	0.16435	-2.4062	-2.7292	-2.4667	-3.2729	-2.9333	-2.7417	-3.2042	-2.725	-3.0187	-2.9896	-2.7146	-3.1	-2.8354	-2.7521	-3.0125	-2.7958	-90.701	194.062	213.221	150.858	244.536	64.501	82.752	-13.179	185.277	157.605	-76.850	240.018	207.088	207.266	227.285	64.683	0.00011151	0.00064236	0.00013483	1410.7	5.9415e-06	4.2155e-06	1015	347.03	2.3594e-06	3.9372e-06	250.25	56.36	78.363	21.531	4.92e-06	17.35	0.0032334	0.004342	0.0012158	1404.4	4.6792e-05	4.8336e-05	1017.3	348.76	4.638e-05	4.7915e-05	262.22	61.332	82.909	23.13	4.6723e-05	19.637	153.408	9.714	244.322	-86.081	189.403	54.505	-87.267	-82.278	-90.211	203.209	-84.616	-80.395	-77.990	-73.625	178.019	-75.633	-8191	255	
15282.592	1	1	0	0	0.1124	0.024852	0.11641	0.17381	0.091923	0.35779	0.14679	0.27872	0.029151	0.16229	0.28904	0.23355	0.14269	0.10758	0.25	0.082935	-2.4125	-3.05	-2.6708	-3.0917	-2.9104	-2.8187	-3.0833	-2.9854	-2.8458	-2.8917	-2.6104	-3.0271	-2.8896	-2.8979	-3	-2.7979	36.143	259.098	-83.642	254.972	19.173	68.489	189.364	199.518	210.118	251.780	259.036	-68.293	-98.508	14.774	133.128	195.231	1.9709e-05	0.00054849	6.3512e-05	1409.8	5.3211e-06	9.8418e-06	1007.1	345.39	1.4328e-06	3.6016e-06	248.35	56.121	77.53	21.632	6.107e-06	16.951	0.003219	0.0043359	0.0012175	1402.6	4.6581e-05	4.7465e-05	1014.8	346.92	4.5139e-05	4.6508e-05	260.76	60.863	82.283	23.01	4.5893e-05	19.284	-8.870	-45.770	-43.898	-86.245	9.207	51.637	-87.561	-82.098	65.749	166.330	-84.589	-80.250	-78.190	-73.472	80.252	-76.604	-8191	255	
15282.688	1	1	0	0	0.1259	0.1091	0.22988	0.41234	0.19382	0.1404	0.3549	0.32727	0.28991	0.29046	0.11389	0.28039	0.052222	0.14592	0.099139	0.084661	-2.4771	-2.8729	-2.5812	-3.0833	-2.9333	-2.8312	-3.2021	-2.8854	-2.6229	-2.8708	-2.6042	-2.9688	-2.8896	-2.8479	-3.0563	-2.6417	96.226	111.966	102.595	-95.852	21.490	-94.893	222.450	188.695	240.155	-18.057	-51.625	166.400	187.948	213.265	176.401	4.267	5.5725e-05	0.00016777	0.00030413	1391.3	1.3361e-06	1.9222e-06	999.34	344.86	6.4081e-06	7.8483e-06	248.2	55.118	77.711	21.481	4.1845e-06	16.934	0.0031005	0.0041325	0.0011946	1389.2	4.4668e-05	4.6205e-05	1004.1	345.93	4.467e-05	4.6671e-05	258.64	60.234	82.015	22.868	4.6586e-05	19.284	169.702	-15.670	67.158	-86.154	116.106	28.425	-87.312	-82.319	-37.455	39.441	-84.696	-79.936	-78.027	-73.451	105.631	-76.325	-8191	255	
15282.784	1	1	0	0	0.19509	0.18797	0.10089	0.13765	0.0669	0.16021	0.1747	0.19669	0.19213	0.18105	0.26511	0.31439	0.2029	0.10883	0.28517	0.10541	-2.4042	-3.05	-2.6146	-3.0854	-3	-2.7458	-3.1292	-2.8542	-2.7687	-3.0563	-2.6417	-3.125	-2.9542	-2.6583	-2.9708	-2.8229	233.191	183.622	49.034	233.196	103.439	-83.132	244.881	225.850	36.004	17.878	145.368	-38.365	-91.644	153.225	34.871	245.196	0.00012221	0.00048251	7.5743e-05	1402.1	3.8264e-06	8.0999e-06	1006.1	342.75	5.8849e-06	3.6469e-06	249.97	55.706	77.59	21.326	1.8172e-06	17.077	0.0031327	0.0042281	0.0012101	1393.7	4.4851e-05	4.7837e-05	1009.2	345.37	4.543e-05	4.7219e-05	260.11	60.48	81.866	22.761	4.5771e-05	19.273	-76.498	244.898	208.058	-86.290	-46.575	69.072	-87.330	-82.184	95.022	1.465	-84.464	-80.555	-77.871	-73.418	224.820	-76.236	-8191	255	
15282.881	1	1	0	0	0.0097583	0.38081	0.039884	0.29541	0.073159	0.17246	0.30621	0.2106	0.42252	0.25586	0.19563	0.29687	0.088723	0.09038	0.070656	0.066894	-2.2188	-2.9979	-2.5896	-3.0563	-2.8688	-2.6458	-3.1104	-3.0354	-2.7438	-2.9938	-2.7583	-2.9646	-3.1417	-2.9042	-2.9708	-2.8479	141.415	-97.042	-81.202	221.345	149.320	-37.298	143.719	201.479	-31.862	48.183	-53.336	206.742	228.448	-82.074	-2.156	87.421	7.0529e-05	0.00038172	0.00013083	1395	4.5905e-06	5.5696e-06	1005.1	342.54	2.8837e-06	7.0721e-06	248.46	55.603	77.815	21.443	2.5265e-06	17.191	0.0030348	0.0041535	0.0011825	1388	4.3218e-05	4.6238e-05	1008.9	344.78	4.3273e-05	4.6132e-05	259.64	60.453	81.929	22.844	4.4987e-05	19.365	-34.981	248.810	214.813	-86.560	47.095	112.766	-87.220	-82.035	207.285	27.265	-84.896	-80.630	-77.761	-73.648	-4.562	-76.785	-8191	255	
15282.977	1	1	0	0	0.28869	0.099951	0.18394	0.10284	0.057226	0.22862	0.036678	0.31181	0.08864	0.12891	0.13968	0.046645	0.04452	0.10725	0.080991	0.089504	-2.0792	-3.1229	-2.6167	-3.0833	-2.9958	-2.8937	-3.0646	-3.0125	-2.6729	-3.0958	-2.8917	-2.8146	-3.1021	-2.8937	-2.9667	-3.0187	100.216	155.540	183.553	211.975	136.413	159.339	125.271	205.748	62.226	228.421	180.108	-60.091	32.763	246.533	252.682	257.032	0.00010182	0.00026692	0.00020258	1406.7	8.3581e-06	4.1171e-06	1014.5	346.86	9.9302e-07	8.7311e-06	250.64	55.59	78.155	21.688	5.5457e-06	17.065	0.0030287	0.0041919	0.0011862	1398.3	4.4099e-05	4.752e-05	1015.7	347.65	4.4398e-05	4.7581e-05	261.54	60.468	82.475	23.067	4.6245e-05	19.277	-69.418	132.691	-54.058	-86.164	102.937	30.700	-87.327	-82.135	54.711	101.709	-84.478	-80.269	-77.474	-73.487	3.474	-76.017	-8191	255	
15283.073	1	1	0	0	0.15979	0.02614	0.13036	0.40417	0.082423	0.10039	0.28632	0.033042	0.094108	0.081934	0.12153	0.073424	0.46352	0.08429	0.16227	0.30624	-2.375	-2.7917	-2.7479	-2.9458	-2.975	-2.825	-3.0938	-2.9979	-2.7938	-3.1708	-2.7	-2.7854	-3.0604	-2.6833	-2.9458	-2.9583	68.068	77.946	190.709	240.872	11.188	-29.158	156.382	-89.007	104.973	254.562	219.325	213.996	239.658	257.495	22.611	153.385	4.9036e-05	0.0004831	0.00015306	1390.8	3.5242e-06	2.8658e-06	998.87	344.25	1.7781e-06	5.1011e-06	246.48	54.791	76.77	21.274	4.1985e-06	16.95	0.003086	0.0042823	0.0012026	1390.2	4.4432e-05	4.7568e-05	1003.2	343.96	4.4179e-05	4.6458e-05	256.43	59.511	80.921	22.614	4.39e-05	19.012	-12.642	115.729	27.450	-86.054	173.690	59.220	-87.323	-81.982	-84.092	-83.298	-84.639	-80.290	-77.762	-73.771	-19.673	-76.051	-8191	255	
15283.192	1	1	0	0	0.25342	0.17043	0.27123	0.32501	0.28132	0.19075	0.16274	0.030813	0.15373	0.06901	0.16004	0.10964	0.19452	0.1516	0.11515	0.13132	-2.2083	-3.0604	-2.7792	-2.9375	-3.0042	-2.7188	-3.1208	-3.0229	-2.775	-3.1292	-3.0375	-2.7146	-2.9479	-2.8021	-2.7562	-2.9604	-52.379	71.756	-91.031	225.130	-76.519	254.669	-63.303	115.617	60.466	40.869	48.186	21.399	113.464	-57.423	255.998	150.827	4.8028e-05	0.00035871	0.00017631	1390.1	5.6507e-06	6.2745e-06	994.98	342.14	1.1796e-06	1.2474e-05	246.95	55.756	77.603	21.616	8.5099e-06	17.132	0.0029469	0.0040308	0.0011272	1383.1	4.2015e-05	4.4385e-05	1000.1	342.5	4.2126e-05	4.4781e-05	257.59	60.02	81.688	22.765	4.3327e-05	19.254	-98.179	-35.927	-18.960	-86.215	135.318	179.853	-87.169	-82.170	235.208	17.334	-84.603	-80.356	-78.060	-73.834	210.740	-76.239	-8191	255	
15283.288	1	1	0	0	0.10898	0.087577	0.17835	0.048204	0.12155	0.19967	0.21436	0.27834	0.23552	0.13355	0.20048	0.24329	0.0224	0.11228	0.037873	0.15377	-2.2021	-2.8167	-3.0438	-2.8333	-3.1229	-2.7396	-3	-3.0875	-2.5396	-2.9833	-3.0167	-2.5292	-3.0542	-2.9417	-2.6604	-3.0563	244.041	-35.658	-42.623	-98.174	125.625	23.388	-82.232	200.479	198.837	221.749	185.984	105.985	-86.328	-33.337	-25.897	5.484	9.0729e-05	0.00041803	6.5917e-05	1401.4	2.7948e-07	5.7955e-06	1004	344.68	9.5034e-06	6.4425e-06	249.07	56.332	77.379	21.585	6.1622e-06	17.138	0.0030255	0.0041227	0.0011438	1390.5	4.3751e-05	4.5897e-05	1008.7	345.41	4.3692e-05	4.5825e-05	259.21	60.553	81.698	22.85	4.3084e-05	19.35	244.540	65.841	-92.505	-86.127	-18.328	2.115	-87.495	-81.927	-29.200	222.512	-84.421	-80.250	-77.941	-73.431	129.296	-75.962	-8191	255	
15283.384	1	1	0	0	0.10605	0.25695	0.1373	0.12532	0.3027	0.32496	0.2211	0.085286	0.093131	0.13284	0.2077	0.29158	0.23893	0.13787	0.088648	0.17713	-2.2083	-2.7167	-2.6833	-2.9	-3.0667	-2.7979	-2.8563	-3.3292	-2.7167	-3.0667	-3.1229	-2.8438	-3.0292	-2.9792	-2.7375	-3	10.303	40.483	149.192	205.009	131.913	236.060	244.661	239.857	152.121	136.857	227.309	-97.273	-60.740	-91.888	27.192	196.837	9.684e-05	0.00016243	0.00017391	1401.4	2.9861e-06	1.6109e-06	1007.3	343.05	3.9987e-06	2.281e-06	249.07	55.778	77.837	21.544	4.3332e-06	17.012	0.0030102	0.0040477	0.0011215	1390.4	4.3584e-05	4.5544e-05	1009.1	344.79	4.3096e-05	4.5079e-05	258.95	60.278	81.782	22.86	4.3903e-05	19.187	250.669	-59.006	-56.263	-86.203	40.349	222.700	-87.542	-81.987	-49.081	131.922	-84.644	-80.385	-77.738	-73.208	-24.513	-75.880	-8191	255	
15283.480	1	1	0	0	0.11624	0.17822	0.023672	0.14874	0.18006	0.059692	0.054441	0.22177	0.13489	0.11282	0.10052	0.1613	0.24462	0.11498	0.19727	0.20543	-2.2271	-2.7542	-3.0187	-2.8333	-2.925	-2.925	-2.8854	-3.1312	-2.6729	-2.7562	-3.0563	-2.7854	-3.0667	-2.8042	-2.7854	-3.0958	93.430	-99.403	19.479	-79.645	-56.666	195.045	118.837	164.638	196.537	228.006	-19.726	75.225	-92.712	232.692	117.514	245.562	5.9899e-05	0.00062773	0.00025436	1389	4.5737e-06	9.9456e-06	999.85	344	4.0219e-06	2.1655e-06	246.28	55.705	77.652	21.423	5.5332e-06	17.142	0.0030405	0.0040662	0.0011354	1384.3	4.3725e-05	4.545e-05	1001.3	345.12	4.3926e-05	4.5807e-05	257.8	60.267	81.839	22.733	4.38e-05	19.182	172.270	-32.746	-79.339	-86.240	122.333	111.494	-87.436	-82.058	8.452	-12.489	-84.402	-80.368	-77.908	-73.824	-48.019	-76.193	-8191	255	
15283.576	1	1	0	0	0.23821	0.17759	0.11606	0.12022	0.14022	0.1993	0.20512	0.26311	0.11083	0.23639	0.092757	0.042061	0.19745	0.08288	0.34435	0.24666	-2.4437	-2.8563	-3.1188	-2.7458	-2.8604	-2.9667	-2.7521	-3.1562	-2.7646	-2.7979	-3.1	-2.6708	-2.925	-2.9229	-2.7313	-3.0021	-81.601	38.720	238.297	195.784	37.408	69.582	184.608	205.069	-16.093	133.124	-19.316	156.112	2.450	-59.882	128.285	-32.927	0.00014486	0.00057519	0.00020909	1390.4	5.1824e-06	7.5867e-06	999.04	342.82	2.0036e-06	4.3941e-06	248.15	55.682	76.777	21.353	4.6661e-06	17.153	0.0030061	0.0039727	0.0011191	1384.6	4.264e-05	4.3532e-05	1001.3	343.42	4.1392e-05	4.2734e-05	256.91	60.04	80.636	22.512	4.1488e-05	19.083	217.181	13.319	70.436	-86.217	-91.834	170.060	-87.629	-81.905	64.797	100.905	-84.167	-80.045	-78.090	-73.295	50.832	-76.227	-8191	255	
15283.672	1	1	0	0	0.27211	0.30697	0.24072	0.25729	0.10985	0.012628	0.28678	0.1999	0.10667	0.15892	0.20104	0.078805	0.19548	0.30328	0.13158	0.13271	-2.3125	-2.6646	-2.9271	-2.8063	-2.8479	-2.9458	-2.6146	-3.0396	-2.8417	-2.7542	-3.2104	-2.7167	-2.6833	-2.9604	-2.7396	-3.025	1.448	129.898	102.823	191.770	40.305	88.646	179.801	235.654	-25.178	217.105	171.753	15.848	-52.483	257.302	16.237	89.764	5.8446e-06	0.00082168	0.00024562	1389.1	2.2983e-06	6.5459e-06	992.97	338.48	2.7457e-06	5.2525e-06	246.23	55.515	76.916	21.19	4.079e-06	17.416	0.0028445	0.0038143	0.0010616	1374.5	4.043e-05	4.1962e-05	998.46	339.61	4.0417e-05	4.1986e-05	255.93	59.824	80.566	22.522	4.2107e-05	19.33	141.202	-4.779	251.363	-86.179	-32.985	-0.732	-87.442	-82.219	-52.994	104.534	-84.733	-80.174	-78.268	-73.278	20.504	-76.034	-8191	255	
15283.769	1	1	0	0	0.1712	0.22331	0.22495	0.31878	0.15634	0.21167	0.43945	0.2149	0.01683	0.19901	0.087902	0.30619	0.10017	0.075948	0.050779	0.30708	-2.3187	-2.5812	-3.0479	-2.8208	-2.7625	-2.7687	-2.7438	-3.1854	-2.6042	-2.6813	-3.1625	-2.8646	-2.7083	-2.9729	-2.6958	-2.9708	157.896	63.012	6.406	232.462	14.998	-50.418	232.793	233.595	-28.636	185.666	240.162	198.162	207.289	65.108	24.988	150.845	1.8058e-05	0.00044698	0.00020226	1396.7	2.1231e-06	6.2869e-06	1004.1	343.19	8.4594e-06	2.8773e-06	247.78	55.829	77.224	21.422	6.031e-06	17.144	0.0028826	0.0038742	0.0010983	1384.1	4.1437e-05	4.2894e-05	1004.1	343.32	4.1119e-05	4.2605e-05	257.5	60.118	81.113	22.637	4.1215e-05	19.045	36.513	-2.301	-10.871	-86.199	-3.577	85.043	-87.530	-82.284	-21.975	162.789	-84.261	-80.125	-77.616	-73.475	-40.055	-76.463	-8191	255	
15283.889	1	1	0	0	0.20744	0.19323	0.20401	0.34277	0.16155	0.22553	0.12397	0.20509	0.082054	0.1141	0.16415	0.088016	0.21225	0.13305	0.18045	0.11814	-2.4542	-2.5396	-2.9396	-2.8229	-2.8354	-2.975	-2.7562	-2.8583	-2.9354	-2.7	-3.0729	-2.8896	-2.7958	-3.1437	-2.6208	-2.9042	175.166	-81.868	71.990	245.335	252.159	259.278	-68.164	-89.998	103.247	-64.505	156.414	157.104	221.774	37.532	222.629	259.537	4.5638e-05	0.00038098	0.00016711	1385.7	2.6707e-06	4.2022e-06	992.61	340.53	4.5903e-07	8.5985e-06	244.04	55.019	76.768	21.26	3.8261e-06	17.124	0.0027592	0.0037723	0.0010697	1376.2	4.0005e-05	4.2183e-05	995.34	340.84	3.9599e-05	4.2078e-05	254.1	59.339	80.509	22.532	4.214e-05	19.108	33.759	174.328	101.983	-86.130	245.933	59.516	-87.370	-81.966	157.818	126.709	-84.285	-80.291	-78.162	-73.623	21.276	-75.602	-8191	255	
15283.984	1	1	0	0	0.14371	0.2131	0.070023	0.076176	0.14191	0.16568	0.12973	0.13613	0.21977	0.2989	0.0627	0.2043	0.21081	0.12037	0.17955	0.012434	-2.4708	-2.7062	-2.9854	-3.1063	-2.8854	-2.8833	-2.9792	-2.8667	-3.1729	-2.7375	-3.1396	-3.0333	-2.875	-2.9875	-2.7667	-2.7562	-54.497	125.124	27.026	230.422	151.821	-18.044	30.702	166.229	-13.084	242.948	14.272	141.602	-64.338	83.296	172.697	160.202	0.00012796	0.00056053	0.00013682	1388.1	1.637e-06	3.2305e-06	999.66	342.13	4.8064e-06	3.0661e-06	246.89	55.389	76.73	21.35	4.3996e-07	17.062	0.0028305	0.0039652	0.0011239	1381.4	4.1978e-05	4.4379e-05	1002.2	343.63	4.2457e-05	4.5388e-05	257.76	60.003	81.002	22.703	4.3687e-05	19.223	-52.831	-20.453	-8.916	-86.162	179.954	117.460	-87.431	-82.044	54.545	241.378	-84.461	-80.297	-77.859	-73.354	214.127	-75.990	-8191	255	
15284.057	1	1	0	0	0.19887	0.18737	0.11711	0.14723	0.17573	0.23465	0.2366	0.38546	0.22158	0.20023	0.15911	0.21389	0.073248	0.067312	0.017594	0.071867	-2.4792	-2.8	-2.9562	-2.9479	-2.6937	-3.0833	-2.7917	-2.9771	-2.9958	-2.8125	-3.0979	-2.975	-2.6333	-3.0708	-2.925	-2.9104	51.604	44.252	-87.073	198.183	-66.602	100.355	157.402	-96.936	221.954	205.546	193.032	207.041	36.740	221.465	68.471	212.722	3.7113e-06	0.00027842	0.00022661	1394.4	3.6232e-06	7.9742e-06	1003.6	342.85	3.4667e-06	4.3076e-06	250.28	56.132	77.524	21.465	7.6945e-06	17.419	0.0029299	0.0039738	0.0011239	1383.3	4.2163e-05	4.5018e-05	1005.1	342.71	4.213e-05	4.5184e-05	259.12	60.252	81.196	22.762	4.4436e-05	19.415	70.542	216.964	-26.287	-86.258	203.424	39.603	-87.173	-82.164	-57.054	93.971	-84.374	-80.548	-78.018	-73.631	59.538	-75.771	-8191	255	
15284.153	1	1	0	0	0.22826	0.091954	0.11672	0.069729	0.16264	0.074778	0.12806	0.068029	0.1405	0.10285	0.11235	0.039147	0.10171	0.093524	0.035071	0.097326	-2.6958	-2.7542	-2.875	-2.9854	-2.6375	-2.9729	-2.825	-2.9604	-2.9458	-2.7542	-2.8042	-3.0479	-2.6542	-3.1146	-2.8708	-2.7333	160.866	240.671	138.209	108.188	55.731	178.105	250.403	-4.425	63.750	134.376	132.065	240.320	-8.467	213.342	217.993	5.737	4.022e-05	0.00078624	0.00025887	1398	6.8146e-08	4.982e-06	1003.7	344.39	2.5278e-06	9.2385e-06	249.82	55.558	78.124	21.577	4.7679e-06	17.304	0.0029592	0.0040576	0.0011495	1386	4.3182e-05	4.5365e-05	1007.8	345.36	4.2913e-05	4.5823e-05	258.74	60.173	81.997	22.936	4.3228e-05	19.246	126.338	22.831	-37.947	-86.126	110.353	128.344	-87.799	-81.899	77.191	-4.524	-84.311	-80.623	-77.951	-73.394	125.077	-75.496	-8191	255	
15284.274	1	1	0	0	0.10553	0.12075	0.14315	0.2437	0.045604	0.26728	0.22218	0.055427	0.21732	0.13338	0.074275	0.12918	0.12476	0.25482	0.089317	0.019082	-2.6	-2.8521	-3.0708	-3.1917	-2.7229	-2.9271	-2.9042	-3.0896	-3.1958	-2.8187	-3.0292	-2.9104	-2.8583	-2.8937	-2.9104	-2.9021	128.451	229.759	-1.734	240.761	-56.451	257.731	208.368	130.342	63.449	229.598	222.435	126.286	66.485	258.774	63.934	-76.470	5.2903e-05	0.00059814	5.2023e-05	1397.5	5.734e-08	1.5601e-06	1002.6	343.29	4.6284e-06	8.805e-06	248.06	55.523	78.211	21.646	7.6607e-06	17.067	0.0029038	0.0040334	0.0011144	1386.1	4.2834e-05	4.5257e-05	1002.3	344.39	4.2656e-05	4.5265e-05	258.68	60.102	82.041	22.924	4.3369e-05	19.23	252.998	-72.478	101.145	-86.127	120.960	-77.064	-87.622	-82.078	156.016	-61.385	-84.556	-80.280	-77.656	-73.505	70.919	-76.283	-8191	255	
15284.368	1	1	0	0	0.037291	0.18624	0.18899	0.2794	0.12724	0.25422	0.17676	0.12618	0.20409	0.11361	0.065173	0.11508	0.097009	0.31435	0.083595	0.11257	-2.6042	-2.6125	-2.7438	-3.2	-2.7542	-3.0438	-3.0375	-2.7854	-3.0583	-2.9437	-2.8563	-2.9646	-2.7646	-2.9021	-2.7917	-2.675	203.568	-62.686	71.139	214.804	-2.434	192.651	215.086	-77.225	27.460	62.820	160.930	163.749	167.333	-39.215	39.599	-66.527	8.353e-05	0.00047823	0.00018942	1399.9	4.698e-06	9.5466e-06	1005.3	345.44	2.3181e-06	2.7584e-06	247.6	56.135	77.324	21.396	5.0824e-06	17.193	0.0029474	0.0040222	0.001127	1389.8	4.2819e-05	4.5222e-05	1004.9	345.88	4.2715e-05	4.551e-05	258.48	60.553	81.757	22.782	4.2494e-05	19.207	197.098	33.774	46.147	-86.050	99.769	107.788	-87.406	-82.023	103.348	-18.307	-84.579	-80.544	-78.090	-73.925	99.246	-76.476	-8191	255	
15284.464	1	1	0	0	0.25786	0.2061	0.19758	0.11216	0.16798	0.13579	0.33233	0.24045	0.23785	0.13808	0.1112	0.071298	0.038896	0.07548	0.13075	0.30443	-2.5479	-2.7333	-2.8271	-3.1646	-2.7333	-3.1292	-3.1646	-2.6458	-2.9562	-2.7625	-2.7458	-3.0354	-2.8729	-2.8917	-2.9479	-2.8625	73.598	-51.964	112.777	200.603	132.688	28.321	200.795	204.447	34.463	-11.774	193.199	-42.816	220.559	179.515	146.285	-56.135	6.26e-05	0.00057793	2.2353e-05	1388.6	2.5883e-06	1.8259e-06	1006.3	343.81	3.7371e-06	7.3025e-06	250.61	56.39	78.151	21.484	4.2676e-06	17.259	0.0029093	0.0039397	0.0010815	1379.5	4.1737e-05	4.3483e-05	1003.7	344.67	4.1738e-05	4.3893e-05	260.16	60.737	82.156	22.935	4.3687e-05	19.468	182.083	-10.457	-24.577	-86.235	145.015	-2.078	-87.512	-82.034	12.396	136.396	-84.431	-80.136	-78.035	-73.763	19.014	-76.501	-8191	255	
#DATA ENDS
