BOXY.EXE: ISS Imagent and Oximeter Data Acquisition Program Version 0.80
Ascii Record File

#ACQ INFORMATION
2  Detector Channels 
16  External MUX Channels 
1  Auxiliary Channels 
5000  Waveform (CCF) Frequency (Hz)
1  Waveforms Skipped 
30  Waveforms Averaged 
1  Cycles Averaged 
16  Acquisitions per Waveform 
10.0806  Updata Rate (Hz) 

#FILE INFORMATION
TRUE -- External MUX Channel results are PARSED.
FALSE -- AC DC and Phase are NOT grouped.
TRUE -- Companion Program Settings File CREATED.
FALSE -- AC data not excluded
FALSE -- DC data not excluded
FALSE -- Phase data not excluded
FALSE -- Auxillary Chn. data not excluded
Tab delimiters

#CALIBRATION STATE
TRUE -- Waveform Calibration Values APPLIED.


#AUX CALIBRATION VALUES
Val Type	aux-1	

Term	1.0000e+00	
Factor	0.0000e+00	


#WF CALIBRATION VALUES
A = Detector Channel
Val Type	A-AC1	A-AC2	A-AC3	A-AC4	A-AC5	A-AC6	A-AC7	A-AC8	A-AC9	A-AC10	A-AC11	A-AC12	A-AC13	A-AC14	A-AC15	A-AC16	A-DC1	A-DC2	A-DC3	A-DC4	A-DC5	A-DC6	A-DC7	A-DC8	A-DC9	A-DC10	A-DC11	A-DC12	A-DC13	A-DC14	A-DC15	A-DC16	A-Ph1	A-Ph2	A-Ph3	A-Ph4	A-Ph5	A-Ph6	A-Ph7	A-Ph8	A-Ph9	A-Ph10	A-Ph11	A-Ph12	A-Ph13	A-Ph14	A-Ph15	A-Ph16	

Term	0.00000e+00	0.00000e+00	0.00000e+00	0.00000e+00	0.00000e+00	0.00000e+00	0.00000e+00	0.00000e+00	0.00000e+00	0.00000e+00	0.00000e+00	0.00000e+00	0.00000e+00	0.00000e+00	0.00000e+00	0.00000e+00	0.00000e+00	0.00000e+00	0.00000e+00	0.00000e+00	0.00000e+00	0.00000e+00	0.00000e+00	0.00000e+00	0.00000e+00	0.00000e+00	0.00000e+00	0.00000e+00	0.00000e+00	0.00000e+00	0.00000e+00	0.00000e+00	0.00000e+00	0.00000e+00	0.00000e+00	0.00000e+00	0.00000e+00	0.00000e+00	0.00000e+00	0.00000e+00	0.00000e+00	0.00000e+00	0.00000e+00	0.00000e+00	0.00000e+00	0.00000e+00	0.00000e+00	0.00000e+00	
Factor	1.00000e+00	1.00000e+00	1.00000e+00	1.00000e+00	1.00000e+00	1.00000e+00	1.00000e+00	1.00000e+00	1.00000e+00	1.00000e+00	1.00000e+00	1.00000e+00	1.00000e+00	1.00000e+00	1.00000e+00	1.00000e+00	1.00000e+00	1.00000e+00	1.00000e+00	1.00000e+00	1.00000e+00	1.00000e+00	1.00000e+00	1.00000e+00	1.00000e+00	1.00000e+00	1.00000e+00	1.00000e+00	1.00000e+00	1.00000e+00	1.00000e+00	1.00000e+00	X	X	X	X	X	X	X	X	X	X	X	X	X	X	X	X	

B = Detector Channel
Val Type	B-AC1	B-AC2	B-AC3	B-AC4	B-AC5	B-AC6	B-AC7	B-AC8	B-AC9	B-AC10	B-AC11	B-AC12	B-AC13	B-AC14	B-AC15	B-AC16	B-DC1	B-DC2	B-DC3	B-DC4	B-DC5	B-DC6	B-DC7	B-DC8	B-DC9	B-DC10	B-DC11	B-DC12	B-DC13	B-DC14	B-DC15	B-DC16	B-Ph1	B-Ph2	B-Ph3	B-Ph4	B-Ph5	B-Ph6	B-Ph7	B-Ph8	B-Ph9	B-Ph10	B-Ph11	B-Ph12	B-Ph13	B-Ph14	B-Ph15	B-Ph16	

Term	0.00000e+00	0.00000e+00	0.00000e+00	0.00000e+00	0.00000e+00	0.00000e+00	0.00000e+00	0.00000e+00	0.00000e+00	0.00000e+00	0.00000e+00	0.00000e+00	0.00000e+00	0.00000e+00	0.00000e+00	0.00000e+00	0.00000e+00	0.00000e+00	0.00000e+00	0.00000e+00	0.00000e+00	0.00000e+00	0.00000e+00	0.00000e+00	0.00000e+00	0.00000e+00	0.00000e+00	0.00000e+00	0.00000e+00	0.00000e+00	0.00000e+00	0.00000e+00	3.11442e+01	-1.32585e+02	-1.25137e+02	-1.82803e+02	-6.99753e+01	-6.57492e+01	-1.55363e+02	-1.62015e+02	-5.19944e+01	-6.84061e+01	-1.72002e+02	-1.69539e+02	-1.79829e+02	-1.77289e+02	-5.95372e+01	-1.49288e+02	
Factor	4.46143e-05	1.55393e-04	3.79425e-05	1.69166e-01	1.65811e-06	1.54395e-06	1.50608e-01	4.38241e-02	2.52180e-06	1.64082e-06	8.20883e-02	2.44333e-02	2.46613e-02	7.74829e-03	1.75397e-06	1.09675e-02	1.31998e-05	1.98917e-05	5.63019e-06	8.76786e-02	2.03302e-07	2.24248e-07	7.35378e-02	2.28266e-02	1.97474e-07	2.25893e-07	4.16175e-02	1.24053e-02	1.29592e-02	4.07900e-03	2.08931e-07	5.61216e-03	X	X	X	X	X	X	X	X	X	X	X	X	X	X	X	X	



#DISTANCE SETTINGS
A = Detector Channel
A-1	A-2	A-3	A-4	A-5	A-6	A-7	A-8	A-9	A-10	A-11	A-12	A-13	A-14	A-15	A-16	

2.5000e+00	3.0000e+00	2.5000e+00	3.0000e+00	2.0000e+00	3.0000e+00	1.5000e+00	3.0000e+00	3.0000e+00	3.0000e+00	3.0000e+00	3.0000e+00	3.0000e+00	3.0000e+00	1.5000e+00	3.0000e+00	

B = Detector Channel
B-1	B-2	B-3	B-4	B-5	B-6	B-7	B-8	B-9	B-10	B-11	B-12	B-13	B-14	B-15	B-16	

1.0000e+01	1.0000e+01	1.0000e+01	1.4400e+00	1.0000e+01	1.0000e+01	1.5100e+00	1.9400e+00	1.0000e+01	1.0000e+01	1.9900e+00	2.4900e+00	2.4100e+00	2.9000e+00	1.0000e+01	2.9800e+00	




#DATA BEGINS
time	group	step	mark	flag	A-AC1	A-AC2	A-AC3	A-AC4	A-AC5	A-AC6	A-AC7	A-AC8	A-AC9	A-AC10	A-AC11	A-AC12	A-AC13	A-AC14	A-AC15	A-AC16	A-DC1	A-DC2	A-DC3	A-DC4	A-DC5	A-DC6	A-DC7	A-DC8	A-DC9	A-DC10	A-DC11	A-DC12	A-DC13	A-DC14	A-DC15	A-DC16	A-Ph1	A-Ph2	A-Ph3	A-Ph4	A-Ph5	A-Ph6	A-Ph7	A-Ph8	A-Ph9	A-Ph10	A-Ph11	A-Ph12	A-Ph13	A-Ph14	A-Ph15	A-Ph16	B-AC1	B-AC2	B-AC3	B-AC4	B-AC5	B-AC6	B-AC7	B-AC8	B-AC9	B-AC10	B-AC11	B-AC12	B-AC13	B-AC14	B-AC15	B-AC16	B-DC1	B-DC2	B-DC3	B-DC4	B-DC5	B-DC6	B-DC7	B-DC8	B-DC9	B-DC10	B-DC11	B-DC12	B-DC13	B-DC14	B-DC15	B-DC16	B-Ph1	B-Ph2	B-Ph3	B-Ph4	B-Ph5	B-Ph6	B-Ph7	B-Ph8	B-Ph9	B-Ph10	B-Ph11	B-Ph12	B-Ph13	B-Ph14	B-Ph15	B-Ph16	aux-1	digaux	

18075.602	1	1	0	256	0.11872	0.25901	0.13265	0.28705	0.090201	0.314	0.38338	0.14284	0.12834	0.28218	0.082761	0.062371	0.10501	0.1839	0.26773	0.25623	-2.4396	-2.6375	-2.8937	-2.8917	-2.8187	-3.0625	-3.0375	-3.2417	-3.0417	-2.7	-3.2479	-3.0521	-2.9062	-3.0021	-2.7521	-3.1271	-163.098	58.168	-53.771	121.501	-145.209	-156.972	106.989	91.539	50.261	-102.141	67.887	84.197	-130.397	63.915	104.704	101.110	0.0014038	0.000488	0.00012259	1432.6	5.7448e-06	6.1455e-06	1422.6	382.79	1.4031e-05	6.5104e-06	430.01	143.34	124.05	42.496	6.6247e-06	52.285	0.00088942	0.00088431	0.00024353	1457.6	9.3655e-06	9.395e-06	1446.9	391.2	9.271e-06	9.4819e-06	440.27	146.28	126.97	43.958	9.3988e-06	54.324	-3.192	-85.340	-78.656	-165.057	-30.847	-35.775	-165.240	-160.530	-42.776	-44.143	-160.805	-156.732	-156.133	-151.503	-18.482	-152.500	-8191	255	
18075.697	1	1	0	0	0.10857	0.20062	0.17942	0.21782	0.13245	0.23613	0.050126	0.24058	0.26503	0.14501	0.26659	0.17651	0.11174	0.1926	0.14754	0.58329	-2.5521	-2.6208	-2.9833	-3.0042	-2.6583	-2.9125	-3.0229	-2.9188	-2.9479	-2.6625	-2.9896	-2.9167	-2.6375	-3.225	-2.8063	-2.9	-100.053	-28.914	119.903	166.355	-145.554	6.800	57.590	164.441	124.869	-77.117	158.315	144.399	21.663	148.965	71.721	118.354	0.0013329	0.00047283	0.00013172	1420.7	5.3198e-06	2.4433e-06	1412.5	382.25	1.4748e-05	7.602e-06	426.98	141.78	123.82	42.61	7.8465e-06	52.49	0.00086987	0.00089061	0.00023354	1450.1	9.4743e-06	9.2091e-06	1440.7	390.83	9.4195e-06	9.6696e-06	439.05	145.81	126.89	43.988	9.3544e-06	54.357	0.708	-126.287	-85.484	-165.070	-40.965	-7.291	-165.423	-160.410	-31.474	-42.585	-160.954	-156.943	-156.290	-151.459	-31.079	-152.367	-8191	255	
18075.793	1	1	0	0	0.18891	0.095064	0.11794	0.16503	0.17125	0.23217	0.22521	0.097594	0.25239	0.080536	0.070462	0.23278	0.26509	0.17538	0.17535	0.20187	-2.6167	-2.825	-2.8833	-2.9583	-2.6833	-3.0792	-2.875	-2.9167	-3.025	-2.5687	-3.0542	-3.0604	-2.6854	-3.0479	-2.7479	-2.9	157.832	18.346	72.544	-128.123	59.111	-61.139	172.947	139.144	65.138	-67.804	144.309	138.768	124.755	144.536	90.581	171.614	0.0015258	0.00042775	0.00015401	1423.8	3.9436e-06	5.1251e-06	1413	381.57	1.3441e-05	5.7102e-06	429.72	142.29	124.15	42.414	4.8681e-06	52.759	0.00088189	0.00083707	0.00023965	1451.2	9.2795e-06	9.4525e-06	1441.3	390.31	9.3442e-06	9.7628e-06	439.97	146.08	127.01	43.897	9.5055e-06	54.559	0.565	-102.173	-87.275	-164.982	-53.795	-25.678	-165.233	-160.495	-37.618	-23.248	-160.760	-156.546	-156.357	-151.303	-58.768	-152.376	-8191	255	
18075.889	1	1	0	0	0.29031	0.34941	0.1793	0.27634	0.10831	0.17352	0.2715	0.047277	0.1455	0.012469	0.24533	0.15701	0.12277	0.24941	0.092803	0.14499	-2.5729	-2.6979	-2.7854	-3.05	-2.7833	-2.8583	-3.1042	-2.9208	-2.9646	-2.7104	-3.1729	-3.1333	-2.6688	-3.0979	-2.7542	-2.8229	111.348	-134.968	148.071	157.584	70.724	166.800	161.607	168.594	-28.255	-15.024	136.056	-139.305	-117.278	-118.225	-20.491	-23.714	0.001377	0.00057838	0.0002088	1426.2	5.5709e-06	5.6993e-06	1410.4	381.04	1.1525e-05	5.0198e-06	429.87	142.16	124.41	42.472	7.1853e-06	52.44	0.00086844	0.00086363	0.00024529	1450.8	9.3036e-06	9.4254e-06	1438.8	389.65	8.9941e-06	9.5002e-06	439.48	145.94	126.91	43.799	9.4924e-06	54.337	-1.718	-103.742	-86.856	-165.020	-41.814	-25.557	-165.403	-160.458	-22.108	-45.635	-160.964	-156.737	-155.969	-151.471	-42.752	-152.412	-8191	255	
18076.008	1	1	0	0	0.21946	0.23984	0.042025	0.12833	0.13364	0.24976	0.40046	0.16236	0.15077	0.037386	0.38462	0.054273	0.068097	0.18921	0.36482	0.14396	-2.7208	-2.7062	-2.8479	-3.1583	-2.7583	-2.975	-3.2438	-2.7292	-2.8063	-2.7833	-2.9437	-3.05	-3.0021	-3.0979	-2.7854	-2.7646	111.426	-5.879	9.782	126.710	28.670	19.860	90.476	-161.434	112.628	4.424	156.492	55.132	-28.680	-153.303	116.585	82.738	0.0014818	0.00067275	0.00014454	1416	8.4119e-06	4.1437e-06	1405.9	382.47	1.2822e-05	6.4744e-06	429.16	142.84	123.85	42.655	5.7153e-06	52.747	0.00088527	0.00088796	0.0002519	1444.7	9.5442e-06	9.9374e-06	1435.6	390.25	9.366e-06	1.007e-05	440.77	146.06	126.65	43.897	1.0079e-05	54.455	-0.465	-93.710	-75.730	-165.126	-46.252	-14.380	-165.369	-160.552	-53.245	-17.794	-161.135	-156.826	-156.214	-151.390	-23.658	-152.386	-8191	255	
18076.104	1	1	0	0	0.069508	0.24696	0.16389	0.14288	0.2078	0.065835	0.30792	0.455	0.14205	0.38848	0.18918	0.001273	0.054312	0.16637	0.2419	0.17178	-2.6167	-2.7604	-2.7604	-3.1083	-2.7604	-2.9104	-3.0417	-2.8063	-3.0333	-2.7375	-2.8729	-3.0563	-2.7875	-2.9167	-2.8833	-2.7729	-57.330	49.484	115.846	165.136	42.634	-97.395	123.369	120.787	131.644	50.060	-175.322	180.000	88.384	150.557	-60.787	104.250	0.0014432	0.00069797	0.00018168	1421.1	4.4706e-06	1.8736e-06	1411.9	381.89	8.4166e-06	7.9748e-06	430.87	142.52	123.88	42.399	6.2559e-06	52.688	0.00090306	0.00093673	0.00026013	1450.4	1.0022e-05	1.0226e-05	1441.7	390.58	9.8153e-06	1.0629e-05	440.96	146.46	126.93	43.933	9.9368e-06	54.528	-0.198	-75.476	-100.575	-164.915	-91.775	5.050	-165.131	-160.510	-30.134	-36.097	-160.954	-156.872	-156.304	-151.436	-34.461	-152.339	-8191	255	
18076.176	1	1	0	0	0.12039	0.32898	0.23677	0.026859	0.21259	0.21133	0.18548	0.18075	0.10287	0.18822	0.068374	0.37969	0.21912	0.26161	0.2614	0.11586	-2.4958	-2.7896	-2.5083	-3.2479	-2.6312	-2.8667	-3.3187	-2.9354	-2.8104	-2.9396	-2.5792	-3.0958	-2.7542	-2.9542	-2.9854	-2.8396	-55.189	-145.707	-64.412	-17.079	86.517	-125.773	82.379	36.141	0.412	126.269	72.826	155.110	-97.963	180.439	67.797	130.358	0.0013701	0.00040999	0.00014171	1430.9	5.7408e-06	6.552e-06	1420.5	383.45	1.1651e-05	4.6466e-06	430.52	143.04	123.96	42.538	6.982e-06	52.539	0.00090884	0.00095348	0.00026517	1457.8	9.6442e-06	1.0116e-05	1447.7	391.6	9.7984e-06	1.0609e-05	441.95	146.58	127.07	43.987	9.993e-06	54.46	-0.806	-109.748	-92.906	-164.832	-51.941	-27.316	-165.520	-160.403	-28.551	-30.739	-160.813	-156.846	-156.189	-151.409	-26.577	-152.360	-8191	255	
18076.273	1	1	0	0	0.1353	0.18447	0.15539	0.23815	0.17222	0.036858	0.2283	0.41221	0.049638	0.14124	0.10447	0.22896	0.069515	0.22988	0.093184	0.15409	-2.3354	-2.9542	-2.4771	-3.1688	-2.7375	-2.8646	-3.2562	-3.0438	-3.0708	-2.9354	-2.8458	-3.1646	-2.8333	-2.9229	-3.225	-2.9062	52.795	-79.519	103.932	147.607	-81.334	-116.498	132.260	137.391	48.611	153.098	25.082	-103.248	171.984	-168.564	37.337	97.458	0.0014296	0.00049505	0.00014072	1427.4	3.2561e-06	3.6815e-06	1411.9	382.29	1.1054e-05	5.5321e-06	429.59	142.66	124.04	42.513	6.195e-06	52.546	0.0008988	0.00090909	0.00026198	1455	9.6039e-06	1.0257e-05	1445.3	390.75	9.661e-06	1.0076e-05	441.12	145.99	126.83	43.923	9.7605e-06	54.414	0.939	-96.765	-118.262	-165.022	-47.205	-49.902	-165.352	-160.348	-33.463	-46.522	-160.990	-156.857	-156.156	-151.476	-28.421	-152.373	-8191	255	
18076.393	1	1	0	0	0.038613	0.32902	0.19651	0.34859	0.042649	0.11514	0.33571	0.32225	0.35946	0.025877	0.080852	0.062689	0.032752	0.10782	0.26935	0.11856	-2.4458	-2.8187	-2.7125	-3.0792	-2.8854	-2.7896	-3.2146	-2.8375	-2.8292	-2.9	-2.7104	-3.1854	-2.9562	-2.9396	-2.9458	-2.9271	-145.301	51.015	-139.239	102.439	-167.847	13.442	99.202	133.204	-64.482	-77.194	-25.170	-57.342	-118.155	-170.615	-167.895	-157.907	0.0013726	0.00048665	0.00013472	1427.3	9.2371e-06	5.6153e-06	1417.3	384.74	1.2123e-05	6.8009e-06	431.03	143.06	124.88	42.451	6.6687e-06	52.574	0.00087424	0.0008979	0.00025	1453.7	9.8123e-06	1.0428e-05	1445.2	391.4	9.7363e-06	1.0416e-05	441.58	146.19	127.3	43.939	9.9077e-06	54.533	2.199	-73.424	-81.044	-164.990	-57.196	-33.399	-165.320	-160.516	-25.476	-24.957	-160.852	-156.754	-156.139	-151.266	-36.849	-152.399	-8191	255	
18076.488	1	1	0	0	0.16502	0.39211	0.0089264	0.40344	0.051085	0.073716	0.21197	0.089769	0.19906	0.22169	0.14787	0.10646	0.18065	0.26768	0.2045	0.089198	-2.5875	-2.8729	-2.6396	-3.0917	-2.8	-2.8583	-3.3312	-3.0125	-2.9021	-2.9458	-2.8042	-3.0208	-2.7771	-2.85	-3.0187	-2.8333	96.398	125.964	88.613	113.418	-169.542	50.544	90.135	-17.529	-105.570	106.172	143.948	80.274	74.082	114.287	163.555	131.702	0.0013628	0.00063219	0.00012964	1425.9	8.5636e-06	5.6522e-06	1415.4	382.42	8.8055e-06	6.9759e-06	433.09	142.95	124.53	42.506	5.8204e-06	52.718	0.00090358	0.00092907	0.00026075	1454.7	9.8381e-06	1.0275e-05	1445.2	390.88	9.6384e-06	1.0134e-05	441.74	146.41	127.11	43.941	9.7105e-06	54.541	-1.341	-88.544	-111.699	-165.054	-45.421	-52.216	-165.162	-160.490	-31.341	-20.130	-160.954	-156.807	-156.151	-151.594	-38.965	-152.419	-8191	255	
18076.586	1	1	0	0	0.19104	0.26563	0.20606	0.41187	0.26555	0.19485	0.37418	0.25185	0.25316	0.051917	0.21358	0.11983	0.12585	0.14258	0.078239	0.074583	-2.375	-3.0208	-2.7417	-3.0875	-2.8854	-2.6833	-3.3208	-2.8917	-2.8542	-2.9896	-2.8333	-3.2625	-3.1667	-2.8854	-3.225	-3.15	25.615	-51.768	65.409	131.198	-147.071	20.787	101.707	116.417	142.513	64.994	134.000	149.391	141.008	32.594	-28.232	-69.160	0.0013471	0.00061977	0.00012471	1430.8	5.7258e-06	5.0055e-06	1425.4	382.85	8.7126e-06	5.5621e-06	430.8	142.68	124.79	42.497	6.3072e-06	52.36	0.00089995	0.00089525	0.00024881	1458.7	9.7733e-06	1.0249e-05	1449.3	390.9	9.724e-06	1.0089e-05	442.4	146.27	127.52	43.986	9.7092e-06	54.482	-0.121	-80.541	-92.397	-164.885	-51.860	-34.547	-165.238	-160.558	-56.682	-18.867	-161.002	-156.765	-156.169	-151.730	-27.869	-152.584	-8191	255	
18076.705	1	1	0	0	0.13069	0.10176	0.074928	0.294	0.18705	0.17432	0.23281	0.021434	0.16834	0.043861	0.19732	0.28693	0.29561	0.097418	0.1563	0.20403	-2.3167	-3.0042	-2.5979	-3.0312	-2.9875	-2.5833	-3.1729	-3.0292	-2.5979	-3.2417	-2.9146	-2.8667	-3.0187	-2.7229	-3.025	-3.0542	-37.528	45.044	-67.383	-158.147	175.616	-130.566	11.472	52.415	-176.024	124.755	75.061	167.233	75.994	-140.302	174.045	177.075	0.001404	0.00074777	9.0806e-05	1433.3	4.9526e-06	4.3243e-06	1419.1	382.79	1.1827e-05	5.9405e-06	432.89	143.51	124.32	42.542	7.5561e-06	52.635	0.00092547	0.00091767	0.00025223	1458.9	9.7598e-06	1.0264e-05	1451	391.7	9.9177e-06	1.0291e-05	442.69	146.8	127.22	43.949	9.7205e-06	54.534	1.712	-89.041	-88.421	-164.836	-64.810	-8.289	-165.233	-160.563	-31.260	-33.794	-160.819	-156.451	-156.265	-151.487	-6.769	-152.211	-8191	255	
18076.777	1	1	0	0	0.21305	0.22724	0.046327	0.29178	0.30384	0.10434	0.13338	0.12198	0.42012	0.1413	0.2091	0.28099	0.39009	0.12529	0.21977	0.18368	-2.3563	-3.0417	-2.6667	-3.0625	-2.9125	-2.5854	-3.1375	-2.9542	-2.6229	-3.0458	-2.9708	-3.0583	-2.9562	-2.8	-2.9896	-2.9875	-109.838	-15.417	-119.182	112.177	-12.856	76.203	169.135	-84.100	47.013	-46.964	75.875	-124.947	102.465	179.689	146.072	155.071	0.0013889	0.00054583	0.00012166	1438.7	7.176e-06	5.5987e-06	1424.9	385.05	1.5588e-05	7.2099e-06	432.96	144.06	124.75	42.444	7.734e-06	52.743	0.00092305	0.00093715	0.00026118	1464.6	1.0099e-05	1.0245e-05	1455.3	392.38	9.6968e-06	9.9186e-06	443.29	147.14	127.73	44.037	9.64e-06	54.592	-1.930	-93.232	-78.486	-164.875	-26.199	-33.388	-165.473	-160.634	-44.264	-37.649	-160.814	-156.754	-156.306	-151.721	-21.060	-152.356	-8191	255	
18076.873	1	1	0	0	0.16752	0.22732	0.043839	0.2432	0.28772	0.30152	0.23111	0.076624	0.2304	0.094366	0.15757	0.25261	0.11555	0.22928	0.08015	0.066759	-2.2	-2.9021	-2.7333	-2.8896	-2.8854	-2.8604	-3.2583	-3.0812	-2.6229	-3.0292	-2.8563	-2.9208	-3.05	-2.8063	-2.8708	-2.9229	11.920	90.653	157.153	99.233	31.955	138.120	127.384	162.290	128.790	-86.525	147.843	164.982	142.110	177.825	-59.026	89.203	0.0013853	0.00048754	0.00010095	1433.3	7.8264e-06	4.4165e-06	1427.3	382.76	9.7199e-06	5.1992e-06	432.64	142.89	124.67	42.75	8.4762e-06	52.73	0.00088392	0.00088319	0.00025461	1463.9	1.001e-05	9.9902e-06	1454.9	392.11	9.8996e-06	1.0121e-05	442.63	146.73	127.54	44.029	9.9347e-06	54.592	0.342	-101.565	-79.070	-164.873	-56.654	-31.830	-165.195	-160.533	-58.028	-36.065	-160.993	-156.762	-156.250	-151.718	-32.748	-152.507	-8191	255	
18076.994	1	1	0	0	0.2602	0.28875	0.10185	0.12712	0.34267	0.091594	0.26366	0.17794	0.13823	0.19103	0.28811	0.13994	0.14855	0.21743	0.16369	0.16551	-2.1479	-2.9792	-2.8521	-2.8542	-2.9313	-2.6479	-3.1667	-3.1917	-2.5917	-3.1063	-2.9646	-2.6646	-3.0354	-2.8812	-2.8333	-3.0458	-117.101	-153.272	-13.811	137.998	122.248	12.773	108.909	127.263	-160.590	112.808	179.780	-156.850	-162.597	131.814	90.303	-171.044	0.0013876	0.00087583	0.0001585	1437.8	7.4758e-06	7.3622e-06	1418.9	383.33	1.0896e-05	5.8143e-06	429.99	142.57	123.96	42.489	7.5457e-06	52.623	0.00090774	0.00090835	0.00025443	1461	9.4226e-06	9.9365e-06	1449.2	391.04	9.654e-06	9.6903e-06	441.01	146.43	126.9	43.883	9.8302e-06	54.444	-2.945	-103.576	-77.170	-164.781	-59.139	-10.891	-165.271	-160.296	-43.115	-61.079	-160.804	-156.534	-156.388	-151.463	-35.058	-152.539	-8191	255	
18077.090	1	1	0	0	0.045385	0.11587	0.18095	0.13803	0.010171	0.057342	0.36683	0.18587	0.15911	0.053378	0.12795	0.25954	0.09187	0.44607	0.09998	0.26161	-2.2562	-2.8417	-2.8229	-2.9271	-2.9292	-2.9979	-3.0167	-3.3396	-2.8125	-2.9604	-3.1063	-2.7333	-3.0333	-2.9417	-2.6792	-3.0312	158.911	166.617	122.800	126.995	170.887	-81.921	131.198	134.610	-98.397	9.568	-104.386	125.313	19.811	-167.239	29.140	89.992	0.0014619	0.00042853	0.00011922	1422	4.3126e-06	5.7269e-06	1415.6	381.39	1.2872e-05	6.7618e-06	428.96	143	124.53	42.385	5.1802e-06	52.382	0.00087595	0.00088062	0.0002576	1452.5	9.1037e-06	9.7623e-06	1441.3	390.24	9.5047e-06	9.7496e-06	441.27	146.22	126.94	43.843	9.909e-06	54.363	2.420	-63.095	-90.789	-165.040	-50.538	-41.782	-165.277	-160.350	-41.892	-20.598	-161.050	-156.734	-156.243	-151.265	-41.787	-152.472	-8191	255	
18077.186	1	1	0	0	0.083793	0.27023	0.16748	0.15891	0.14543	0.18761	0.28616	0.18805	0.28924	0.053413	0.080473	0.28846	0.34788	0.20352	0.042005	0.22094	-2.2583	-2.9167	-2.9917	-2.9	-2.8417	-2.8542	-3.1125	-3.2583	-2.7062	-2.8417	-2.9625	-2.8812	-2.9354	-2.9917	-2.6979	-3.2583	-87.128	-173.401	-74.548	-100.473	-157.015	69.238	46.900	104.085	24.309	127.462	34.711	120.231	138.607	-157.220	100.645	107.862	0.0013892	0.00059762	0.00012853	1421	6.1903e-06	5.2974e-06	1414	382.29	7.7711e-06	5.5044e-06	428.5	142.6	124	42.558	5.7535e-06	52.722	0.00090416	0.00088887	0.00025383	1450.8	9.166e-06	9.7613e-06	1442.3	390.48	9.408e-06	1.019e-05	440	146.18	127.01	43.9	9.8885e-06	54.443	2.486	-92.785	-82.078	-165.042	-38.059	-22.907	-165.167	-160.553	-28.859	-39.389	-161.191	-156.461	-156.378	-151.428	-22.925	-152.463	-8191	255	
18077.305	1	1	0	0	0.081291	0.028191	0.087327	0.27558	0.19092	0.16441	0.44944	0.22648	0.24429	0.24839	0.30865	0.23402	0.38542	0.042723	0.25013	0.22733	-2.3187	-2.9979	-2.8104	-2.9188	-2.95	-2.7687	-2.925	-3.2042	-2.8292	-2.7917	-2.9604	-2.8438	-2.9062	-2.8354	-2.8333	-3.0563	-98.023	41.553	-143.331	154.433	136.000	-152.640	90.231	147.400	171.829	180.691	88.601	143.796	171.660	117.625	164.586	127.967	0.0014044	0.00065261	9.7686e-05	1432.9	7.2417e-06	7.4022e-06	1417.5	384.07	1.2696e-05	6.2134e-06	429.56	142.8	124.34	42.636	5.5767e-06	52.775	0.00089003	0.00090615	0.00025383	1454.9	9.3833e-06	9.9543e-06	1444.8	391.78	9.5553e-06	1.0261e-05	440.52	146.05	127.04	43.902	9.7545e-06	54.479	-0.493	-102.960	-72.408	-164.989	-44.608	-48.313	-165.317	-160.499	-48.881	-54.009	-160.983	-156.904	-156.251	-151.238	-49.227	-152.182	-8191	255	
18077.377	1	1	0	0	0.24021	0.2401	0.11149	0.18568	0.34685	0.14949	0.30839	0.21273	0.3152	0.18065	0.22944	0.12268	0.17871	0.43846	0.096657	0.28727	-2.1875	-2.725	-2.9813	-2.6333	-2.9771	-2.9146	-2.7854	-3.1646	-2.7604	-2.8625	-3.0646	-2.875	-3.0917	-2.9083	-2.575	-3.1875	-42.599	106.048	-70.937	136.643	-51.172	-154.004	85.850	107.119	-125.530	-60.880	137.802	152.433	122.707	94.166	-113.480	140.726	0.0014212	0.00051211	0.00015719	1426.5	6.0983e-06	6.0288e-06	1413.5	382.11	1.389e-05	5.2659e-06	428.85	142.87	123.7	42.388	5.7794e-06	52.386	0.00088458	0.000888	0.0002478	1454.8	9.3485e-06	9.7263e-06	1443.1	390.54	9.4027e-06	1.0041e-05	440.19	146.25	126.91	43.852	9.6343e-06	54.374	0.146	-109.888	-86.991	-165.024	-59.873	-24.739	-165.206	-160.527	-49.686	-22.485	-161.027	-156.789	-156.200	-151.523	-36.976	-152.395	-8191	255	
18077.473	1	1	0	0	0.26585	0.048338	0.20112	0.32138	0.050568	0.18399	0.2512	0.13102	0.16558	0.1151	0.15711	0.22193	0.20691	0.11846	0.021128	0.10447	-2.4542	-2.5958	-3.0229	-2.8104	-2.8833	-2.7958	-2.8625	-3.1646	-2.8021	-2.8042	-2.9958	-2.8812	-2.9625	-3.1562	-2.6792	-3.0542	165.606	-36.080	-128.380	128.368	-84.441	90.047	80.658	153.270	33.874	159.774	95.398	104.249	1.302	30.378	94.197	119.226	0.0013687	0.00050553	9.7061e-05	1423.5	6.7672e-06	4.403e-06	1413.4	381.46	9.9943e-06	7.5843e-06	428.91	142.3	124.13	42.403	7.4119e-06	52.319	0.00087424	0.00087946	0.00025316	1450.3	9.6399e-06	9.873e-06	1442.3	390.7	9.3747e-06	1.0225e-05	439.84	145.94	127	43.815	9.3997e-06	54.23	-3.700	-76.852	-99.445	-165.098	-49.885	-23.993	-165.249	-160.726	-50.500	-36.966	-160.776	-156.788	-156.189	-151.528	-41.073	-152.332	-8191	255	
18077.568	1	1	0	0	0.17431	0.11443	0.097568	0.35877	0.20577	0.038496	0.15835	0.27653	0.12761	0.097051	0.25838	0.13475	0.40921	0.23938	0.18353	0.1002	-2.3646	-2.5687	-2.9313	-2.9813	-2.8917	-3.1	-2.8667	-3.075	-2.9437	-2.5583	-2.95	-2.8854	-2.9062	-3.1188	-2.7438	-3.1208	-132.342	12.074	178.468	174.231	152.441	49.394	66.602	138.257	-92.559	-107.929	57.768	71.775	172.879	74.757	123.764	-31.558	0.0013752	0.00073502	0.00010263	1426	4.2193e-06	4.2533e-06	1410.3	382.43	1.0703e-05	3.8788e-06	429.27	142.24	124.04	42.478	7.229e-06	52.372	0.00087551	0.00087863	0.00023811	1448.6	9.4375e-06	9.7987e-06	1440	390.52	9.4837e-06	9.8654e-06	439.73	145.81	126.7	43.909	9.3697e-06	54.285	0.027	-99.357	-94.233	-165.025	-51.076	-34.780	-165.325	-160.618	-26.343	-28.075	-160.663	-156.795	-156.214	-151.370	-28.913	-152.443	-8191	255	
18077.689	1	1	0	0	0.16573	0.099336	0.25459	0.31433	0.12532	0.10136	0.13362	0.09614	0.19215	0.15291	0.079492	0.048027	0.22783	0.17021	0.105	0.12864	-2.5021	-2.4604	-2.8667	-3.2125	-3.0208	-2.9167	-2.8271	-3.2812	-2.8667	-2.8729	-3.1312	-2.8458	-2.6333	-3.0833	-2.6688	-2.9437	-70.207	-96.762	2.398	101.558	-172.548	-140.778	142.480	-22.940	-153.365	105.681	-1.903	-13.162	154.667	177.664	-36.543	141.547	0.0013954	0.00052195	0.00014572	1422.1	6.3158e-06	4.4142e-06	1415.2	381.29	1.2617e-05	7.536e-06	428.6	142.64	124.3	42.381	5.2206e-06	52.493	0.00087355	0.00090449	0.00024408	1450.7	9.5895e-06	9.5819e-06	1442.1	390.09	9.545e-06	9.7868e-06	440.32	146.05	127.01	43.809	9.2147e-06	54.328	1.245	-78.218	-74.737	-165.076	-54.306	-11.210	-165.217	-160.486	-55.796	-21.084	-161.028	-156.577	-156.374	-151.603	-50.454	-152.504	-8191	255	
18077.785	1	1	0	0	0.23917	0.095854	0.139	0.19102	0.071553	0.36341	0.41753	0.24883	0.095336	0.17396	0.19574	0.21291	0.35888	0.11013	0.23257	0.14741	-2.4292	-2.8083	-2.9083	-3.0875	-2.8354	-2.9792	-2.9542	-2.9104	-2.8563	-2.7104	-3.3083	-2.9521	-2.8187	-3.05	-2.725	-2.9583	60.913	70.144	-87.320	-168.175	123.891	151.645	161.010	145.343	100.136	36.281	9.675	160.429	134.877	146.968	-167.076	102.195	0.0013714	0.00058961	0.00017596	1427.3	6.245e-06	5.5759e-06	1417	382.56	1.1011e-05	7.5365e-06	429.81	143.03	123.73	42.522	4.0763e-06	52.329	0.00089759	0.00088547	0.00024405	1453.8	9.5417e-06	9.8066e-06	1443.9	390.93	9.4652e-06	9.9252e-06	440.83	146.32	126.84	43.889	9.4894e-06	54.33	1.736	-118.553	-84.607	-164.843	-27.838	-26.031	-165.302	-160.508	-34.552	-24.352	-160.827	-156.454	-155.979	-151.410	-14.458	-152.215	-8191	255	
18077.883	1	1	0	0	0.053743	0.1282	0.14058	0.21768	0.11279	0.23246	0.38963	0.20082	0.049657	0.057662	0.2807	0.15858	0.46237	0.062387	0.097223	0.055037	-2.575	-2.5917	-2.9521	-2.9813	-2.8083	-3.1292	-3.0104	-3.0479	-3.0604	-2.6167	-2.8729	-2.9917	-2.8021	-3.1958	-2.6562	-2.7521	-45.728	-92.114	-148.055	134.825	-78.653	31.645	136.501	175.431	-154.550	-18.477	10.963	181.033	150.175	34.694	-98.787	-25.163	0.0014101	0.00051859	0.00011813	1426.4	6.5341e-06	2.3115e-06	1416.1	381.32	1.3773e-05	6.821e-06	431.48	142.85	124.34	42.36	7.048e-06	52.609	0.00088634	0.00089944	0.00024841	1453.9	9.645e-06	9.5445e-06	1446	390.77	9.4183e-06	9.7675e-06	442.23	146.32	127.01	43.91	9.6957e-06	54.397	-2.641	-81.057	-62.901	-164.771	-49.969	-3.072	-165.334	-160.428	-49.103	-20.321	-160.846	-156.836	-156.566	-151.554	-45.871	-152.302	-8191	255	
18077.977	1	1	0	0	0.055264	0.37576	0.15472	0.22063	0.21766	0.23221	0.23366	0.062804	0.077863	0.28581	0.19022	0.12652	0.075547	0.19777	0.25497	0.026036	-2.4479	-2.5708	-2.9271	-3.1354	-2.6729	-2.9583	-2.9229	-3.0417	-3.0604	-2.7125	-3.1813	-3.0417	-2.775	-3.1521	-2.8812	-2.7917	-107.549	-155.848	56.789	152.731	-39.540	116.239	98.002	163.916	57.372	152.127	96.811	-24.208	144.052	99.449	-83.360	91.289	0.0014265	0.00065925	7.0525e-05	1427.1	8.2806e-06	5.0644e-06	1414.2	381.25	1.189e-05	5.9686e-06	432.24	143.14	123.99	42.496	7.267e-06	52.351	0.00088109	0.00088924	0.00025696	1454.9	9.5476e-06	9.6043e-06	1446.1	390.74	9.5154e-06	9.9073e-06	442.38	146.29	127.02	43.863	9.6391e-06	54.329	0.054	-91.393	-75.533	-164.932	-52.791	-8.870	-165.323	-160.431	-42.782	-36.788	-160.923	-156.893	-156.249	-151.322	-8.256	-152.497	-8191	255	
18078.074	1	1	0	0	0.17944	0.11095	0.25057	0.22406	0.30753	0.058183	0.29715	0.19512	0.17058	0.18241	0.24538	0.13159	0.13268	0.0301	0.10376	0.364	-2.5354	-2.7562	-2.7583	-3.1104	-2.7625	-3.0479	-3.0854	-3.0604	-2.9854	-2.7792	-3.1688	-3.0563	-2.8771	-3.0125	-2.775	-2.7188	-3.986	-3.082	-92.914	111.858	99.837	-176.953	123.117	95.057	158.615	-16.914	157.123	60.759	-91.616	75.229	-64.694	165.901	0.0014743	0.00076349	0.00015454	1426.3	6.7125e-06	4.072e-06	1414.2	381.39	1.4679e-05	5.3767e-06	431.91	142.75	124.22	42.414	8.8626e-06	52.564	0.00088343	0.00090727	0.00025643	1454.6	9.5578e-06	9.6763e-06	1444.9	390.93	9.4561e-06	9.7854e-06	441.06	146.31	127.1	43.94	9.7827e-06	54.353	-1.569	-99.551	-80.862	-164.992	-53.107	-62.001	-165.319	-160.487	-41.370	-29.959	-161.145	-156.544	-156.328	-151.434	-25.211	-152.359	-8191	255	
18078.170	1	1	0	0	0.18205	0.18213	0.11323	0.13395	0.14209	0.18245	0.18931	0.11203	0.13903	0.072567	0.33102	0.25656	0.08888	0.23373	0.1593	0.10062	-2.5333	-2.5396	-2.7875	-3.1	-2.7917	-3.0396	-3.1979	-2.7417	-3.0146	-2.7812	-2.9354	-3.1833	-2.8104	-3.0792	-2.9271	-2.8083	-26.357	-26.299	90.191	130.820	115.364	-148.395	-164.803	93.815	-154.795	2.432	113.862	127.688	12.199	170.126	-41.426	92.974	0.001375	0.00066488	0.0001816	1432.7	6.5968e-06	5.2709e-06	1420.7	382.68	8.3454e-06	6.0511e-06	429.07	143.49	125.07	42.642	7.0451e-06	52.514	0.00086992	0.00092024	0.00025646	1458.8	9.4447e-06	9.7772e-06	1449.1	391.01	9.2081e-06	9.9214e-06	441.2	146.57	127.45	44.006	9.7915e-06	54.405	-1.453	-69.130	-100.538	-164.838	-48.843	-16.920	-165.486	-160.585	-53.987	-46.761	-160.758	-156.796	-156.387	-151.242	-21.437	-152.392	-8191	255	
18078.266	1	1	0	0	0.16214	0.28251	0.19159	0.33127	0.27768	0.18785	0.29279	0.45643	0.073215	0.066213	0.098926	0.090524	0.084236	0.13246	0.053343	0.21495	-2.6125	-2.7938	-2.9958	-3.2542	-2.9	-3.0958	-2.9958	-2.8833	-3.1479	-2.8729	-2.7812	-3.1271	-2.9521	-2.9625	-3.2188	-2.7833	-46.024	67.920	53.436	103.241	-107.611	-174.537	-160.070	120.570	-114.377	167.966	-130.482	126.441	59.185	126.385	79.423	-21.950	0.0013846	0.00042987	0.00014974	1429	4.4605e-06	7.511e-06	1421	382.46	1.233e-05	5.9884e-06	430.63	142.68	124.89	42.375	4.344e-06	52.416	0.00086676	0.00088456	0.00025332	1458.3	9.3214e-06	9.5352e-06	1449.3	391.54	9.5014e-06	1.004e-05	441.81	146.5	127.42	43.953	9.875e-06	54.391	-1.383	-86.927	-91.122	-165.194	-37.475	-31.683	-165.376	-160.456	-43.806	-48.027	-160.782	-156.754	-156.377	-151.517	-26.881	-152.320	-8191	255	
18078.387	1	1	0	0	0.14117	0.10487	0.16735	0.23574	0.067902	0.062483	0.24361	0.49152	0.086285	0.18532	0.13518	0.081529	0.18386	0.27474	0.12484	0.076708	-2.4229	-2.8083	-2.8229	-3.1542	-2.6979	-3.025	-3.3063	-2.8688	-2.9146	-2.8833	-2.9813	-3.05	-2.9042	-2.75	-2.8646	-2.7708	-65.578	179.021	-84.766	130.896	97.160	58.718	113.247	116.701	147.001	-80.301	76.491	133.384	90.496	168.875	-168.267	90.966	0.0013688	0.00057017	0.00015424	1432.2	6.3367e-06	4.0335e-06	1424.9	381.94	1.101e-05	5.0748e-06	431.91	142.85	124.85	42.371	6.177e-06	52.376	0.00086682	0.00087553	0.00025459	1460.6	9.3345e-06	9.8837e-06	1451.9	391.37	9.3389e-06	9.8979e-06	442.34	146.75	127.47	43.918	9.4676e-06	54.416	-0.665	-90.114	-79.275	-164.867	-33.984	-37.419	-165.436	-160.552	-46.766	-12.115	-160.961	-156.808	-156.031	-151.424	-13.090	-152.645	-8191	255	
18078.482	1	1	0	0	0.20078	0.073941	0.21016	0.18891	0.047259	0.088851	0.17681	0.32666	0.2302	0.16769	0.043205	0.11333	0.11798	0.36877	0.21903	0.17643	-2.5396	-2.7521	-2.7854	-2.9813	-2.6708	-2.6854	-3.2958	-2.8479	-2.8146	-2.8333	-2.8167	-3.0563	-2.7854	-2.8875	-2.9729	-2.6521	167.573	103.632	-51.247	-164.848	118.966	-44.660	-118.661	95.707	95.853	75.913	-177.807	176.321	170.662	165.471	98.244	-69.564	0.001419	0.00060493	0.00014871	1434.1	5.6534e-06	5.728e-06	1422.5	382.89	1.0608e-05	4.9255e-06	429.67	143.71	124.92	42.593	7.1191e-06	52.709	0.00087413	0.00091954	0.00024917	1463.3	9.6806e-06	9.8833e-06	1452.4	391.97	9.4685e-06	9.848e-06	441.38	147.06	127.56	44.004	9.3919e-06	54.488	-1.102	-98.654	-99.170	-165.092	-32.106	-47.765	-165.423	-160.496	-40.275	-24.000	-160.928	-156.508	-156.183	-151.401	-8.973	-152.482	-8191	255	
18078.578	1	1	0	0	0.12745	0.1017	0.18762	0.24346	0.054482	0.27052	0.13766	0.38248	0.028693	0.033791	0.30747	0.27565	0.11901	0.11965	0.073822	0.22462	-2.4396	-2.8271	-2.7896	-3.1312	-2.8917	-2.6646	-3.3438	-2.9083	-2.8458	-3.0833	-2.6667	-3.1083	-2.9562	-2.8292	-3.0146	-2.8958	16.254	64.743	161.442	-148.252	-97.838	-66.971	-168.414	120.544	89.953	-133.417	125.399	155.712	80.958	-78.275	29.182	144.035	0.0013961	0.00063478	0.000132	1435.1	7.3136e-06	7.0636e-06	1431.6	384.15	1.3674e-05	5.4469e-06	430.11	143.25	124.85	42.733	4.1836e-06	52.897	0.00089399	0.00090594	0.00024488	1465.8	9.8195e-06	1.0031e-05	1456.8	392.53	9.5438e-06	1.0051e-05	442.06	146.68	127.63	44.083	9.6073e-06	54.489	0.696	-90.393	-95.981	-164.947	-43.024	-36.284	-165.485	-160.503	-37.122	-0.694	-161.130	-156.658	-156.395	-151.686	-39.978	-152.347	-8191	255	
18078.674	1	1	0	0	0.13517	0.15763	0.324	0.29564	0.020434	0.20044	0.30405	0.32581	0.2448	0.26442	0.21297	0.19151	0.28905	0.14216	0.23368	0.14956	-2.4188	-2.7687	-2.6208	-3.0896	-2.8354	-2.7917	-3.0979	-2.8979	-3.0208	-2.9521	-2.8438	-3.1375	-2.8708	-2.7271	-2.9208	-2.8167	-104.818	-50.121	168.901	-147.092	92.715	-110.337	99.545	83.315	-112.874	-84.802	143.766	-150.696	77.669	171.579	143.815	48.268	0.0014134	0.00060768	0.00019701	1442.1	3.585e-06	6.4516e-06	1429	383.84	1.2991e-05	6.9535e-06	432.83	143.36	125.18	42.881	5.0168e-06	52.611	0.00089214	0.00090826	0.00025247	1466.9	9.7018e-06	9.8202e-06	1457.6	392.88	9.7894e-06	9.8805e-06	442.9	146.99	127.83	44.123	9.63e-06	54.485	-0.979	-104.831	-92.147	-164.869	-20.902	-22.005	-165.476	-160.503	-48.087	-32.160	-160.825	-156.703	-156.225	-151.434	-21.274	-152.153	-8191	255	
18078.770	1	1	0	0	0.16402	0.063231	0.18322	0.15733	0.021083	0.30962	0.25571	0.21683	0.13365	0.046638	0.0515	0.042022	0.10414	0.1237	0.050726	0.18872	-2.3125	-3.0854	-2.7	-3.0646	-2.8479	-2.7188	-3.2917	-3.05	-2.7438	-3.0667	-2.9271	-3.0125	-3.0062	-2.7	-3.0292	-3.0187	11.576	72.807	-29.729	125.273	170.871	135.625	137.623	172.437	-166.605	13.126	-161.719	21.736	176.996	39.828	116.498	130.969	0.0014007	0.00069717	0.0001428	1440.7	6.107e-06	3.5846e-06	1434	385.3	1.2884e-05	5.7738e-06	434.54	143.71	125.01	42.927	4.1856e-06	52.978	0.00091546	0.00090922	0.00025317	1471.6	1.0226e-05	1.0154e-05	1462.2	393.63	9.8252e-06	1.0234e-05	443.65	147.49	128.36	44.292	9.6687e-06	54.564	0.819	-92.617	-106.080	-164.901	-39.850	-28.898	-165.434	-160.480	-42.279	-24.106	-160.693	-156.721	-156.313	-151.509	-27.197	-152.427	-8191	255	
18078.865	1	1	0	0	0.19706	0.27061	0.067782	0.15508	0.05253	0.15057	0.23983	0.39314	0.092594	0.12734	0.4313	0.12478	0.031114	0.36797	0.13971	0.33403	-2.4417	-2.9	-2.6312	-3.125	-3.0958	-2.8563	-3.2271	-3.1458	-2.7292	-2.9854	-2.8875	-2.8729	-3.0417	-2.7292	-3.0333	-3.075	72.209	132.824	-105.383	-174.975	32.173	44.139	115.289	171.684	174.803	40.915	127.074	164.060	-131.903	-171.682	-129.983	89.894	0.0014156	0.00075363	0.00016692	1449.6	4.9085e-06	6.6824e-06	1438.6	386.07	1.3125e-05	3.918e-06	434.78	143.92	125.01	42.776	3.938e-06	52.689	0.00092311	0.00090971	0.00025792	1477.8	1.0079e-05	1.0082e-05	1467.3	394.05	9.942e-06	9.8993e-06	445.1	147.68	128.19	44.23	1.0075e-05	54.704	-0.186	-79.344	-77.485	-165.179	-31.883	-14.201	-165.382	-160.555	-28.898	-19.280	-160.683	-156.840	-156.496	-151.549	-82.845	-152.261	-8191	255	
18078.984	1	1	0	0	0.14197	0.085988	0.36758	0.29066	0.1463	0.059757	0.35183	0.16537	0.062993	0.1639	0.083186	0.1097	0.24821	0.11661	0.28759	0.15286	-2.2479	-3.0271	-2.6833	-3.0125	-3.1083	-2.8104	-3.1917	-3.1583	-2.7667	-3.0167	-3.0229	-2.8937	-3.0458	-2.7792	-2.9292	-3.0146	127.683	104.972	-3.286	170.013	37.053	118.662	88.854	121.040	82.730	-21.013	-14.116	154.812	121.112	77.298	-7.297	64.637	0.0013645	0.00043964	0.00015729	1447.7	2.9429e-06	5.4492e-06	1433.4	385.3	1.5207e-05	7.0546e-06	434.36	144.11	125.43	42.804	5.9618e-06	52.836	0.00089319	0.00090387	0.00025264	1474.1	9.7755e-06	1.0066e-05	1463	393.94	9.7478e-06	9.8696e-06	444.49	147.68	128.34	44.213	9.959e-06	54.659	1.168	-88.358	-107.040	-165.011	-69.601	-33.662	-165.408	-160.542	-23.570	-34.333	-160.858	-156.808	-156.312	-151.305	-41.609	-152.289	-8191	255	
18079.080	1	1	0	0	0.26373	0.091116	0.064973	0.1364	0.21265	0.19727	0.17545	0.30311	0.1707	0.15695	0.41576	0.13631	0.16573	0.089721	0.069498	0.093408	-2.4	-2.8979	-2.5521	-3.0104	-2.9979	-2.5938	-3.3479	-3.0271	-2.6292	-3.0104	-2.7542	-3.0208	-3.0583	-2.7687	-2.9958	-3.0312	-55.067	14.201	-132.099	-169.612	88.080	117.311	90.841	111.976	100.306	-30.671	-172.074	121.582	-84.114	-93.418	95.397	129.291	0.0014199	0.0005705	0.0001463	1442.8	6.3979e-06	6.5334e-06	1433	385.13	1.8718e-05	7.8187e-06	430.13	143.9	125.5	42.758	5.5609e-06	52.474	0.00087152	0.00087544	0.00025292	1472.1	9.4747e-06	9.8206e-06	1460.5	392.99	9.4298e-06	9.8786e-06	442.78	147.24	127.79	44.129	9.613e-06	54.607	-4.403	-90.612	-79.737	-165.094	-67.170	-14.040	-165.303	-160.405	-22.617	-8.323	-160.894	-156.638	-156.143	-151.499	-43.245	-152.341	-8191	255	
18079.178	1	1	0	0	0.28993	0.26681	0.16946	0.13899	0.093272	0.054554	0.31634	0.37469	0.1083	0.18272	0.1735	0.14009	0.3817	0.13218	0.18458	0.26405	-2.1625	-2.9833	-2.7896	-2.8333	-2.9083	-2.7458	-3.2313	-3.1479	-2.6188	-2.95	-2.9146	-2.9188	-3.1312	-2.9125	-2.7646	-2.9	10.990	135.410	2.029	129.553	-64.616	161.152	175.179	150.305	92.753	112.638	76.835	56.023	155.890	-45.547	106.369	89.467	0.0013762	0.00056576	6.036e-05	1435.1	4.7249e-06	5.6232e-06	1423.6	383.25	1.255e-05	7.5185e-06	431.55	143.14	124.36	42.694	9.4719e-06	52.544	0.00087872	0.00086703	0.00024924	1463.8	9.454e-06	9.6945e-06	1454.6	392.32	9.6898e-06	9.7473e-06	441.96	146.75	127.5	44.037	9.8189e-06	54.476	-0.842	-84.034	-78.636	-165.032	-70.614	-39.709	-165.346	-160.644	-37.645	-37.047	-160.887	-156.787	-156.140	-151.481	-31.095	-152.407	-8191	255	
18079.273	1	1	0	0	0.18282	0.047414	0.081148	0.26518	0.22877	0.066946	0.24246	0.28842	0.20828	0.10274	0.23041	0.26096	0.2554	0.23553	0.1936	0.099992	-2.3292	-3.0312	-2.7521	-2.7271	-2.9146	-2.8479	-2.9313	-3.1625	-2.6542	-2.8958	-3.0042	-2.8812	-3.175	-2.7729	-2.7604	-3.125	-58.636	-25.685	-3.069	137.115	-174.665	4.759	93.682	122.191	46.672	28.552	143.828	152.271	-175.752	167.063	-50.214	116.184	0.0014124	0.00045121	0.0001417	1431.5	6.3794e-06	5.854e-06	1422.2	382.99	1.0086e-05	6.7171e-06	432.11	143.45	124.08	42.692	5.5848e-06	52.465	0.00088167	0.00088373	0.00025342	1460.2	9.2507e-06	9.8636e-06	1451	391.45	9.4166e-06	1.0152e-05	442.45	146.67	127.24	44.072	9.6221e-06	54.439	-0.079	-106.849	-63.167	-164.826	-44.406	-10.056	-165.335	-160.491	-38.080	-40.583	-160.906	-156.503	-156.232	-151.387	-53.936	-152.490	-8191	255	
18079.369	1	1	0	0	0.049992	0.10172	0.064913	0.32725	0.19535	0.070038	0.19097	0.037832	0.037059	0.26568	0.1173	0.32259	0.16204	0.18875	0.25905	0.2768	-2.0917	-2.9458	-2.8937	-2.7958	-2.9458	-2.8833	-3.025	-3.2021	-2.7354	-2.9083	-2.9771	-2.7167	-3.0729	-2.9	-2.7667	-3.2938	-137.238	26.176	108.015	148.847	12.844	-48.492	122.638	-0.079	112.785	152.032	106.458	93.003	86.217	-13.731	107.123	53.277	0.001456	0.00046561	0.00012403	1434.1	4.8127e-06	3.4031e-06	1415.4	383.09	1.068e-05	7.3014e-06	431.97	142.46	124.56	42.666	8.0015e-06	52.396	0.00089698	0.00088966	0.00024677	1460.1	9.4163e-06	1.0214e-05	1446.9	390.76	9.3628e-06	1.0075e-05	441.04	146.25	127.22	44.002	9.5281e-06	54.326	-1.711	-86.283	-86.317	-164.901	-34.974	-14.960	-165.294	-160.515	-36.320	-31.332	-160.775	-156.571	-156.147	-151.454	-28.756	-152.394	-8191	255	
18079.467	1	1	0	0	0.086925	0.16875	0.092995	0.41729	0.22176	0.099625	0.2625	0.27128	0.27905	0.11309	0.11467	0.31567	0.19678	0.26167	0.18444	0.14456	-2.2458	-2.8146	-2.7146	-2.9854	-2.8729	-2.9437	-3.1458	-3.1542	-2.7271	-2.8271	-3.0687	-2.8417	-3.0271	-2.9	-2.7208	-3.0167	157.323	170.054	36.480	128.198	-56.846	14.410	108.633	134.824	140.276	-6.444	178.435	108.290	147.917	144.840	-41.157	141.697	0.0013673	0.0004526	8.183e-05	1422.1	4.4754e-06	4.3644e-06	1408.9	380.68	1.2825e-05	7.1855e-06	425.39	142.51	123.18	42.143	5.657e-06	52.038	0.00086544	0.00087772	0.00025219	1449.5	9.1634e-06	9.4978e-06	1437	389.03	9.3117e-06	9.6226e-06	437.57	145.67	126.2	43.65	9.3288e-06	54.094	-1.268	-84.396	-121.245	-164.972	-47.617	-13.808	-165.129	-160.454	-29.893	-56.512	-160.864	-156.653	-156.109	-151.188	-15.665	-152.550	-8191	255	
18079.562	1	1	0	0	0.10261	0.077597	0.25542	0.19561	0.14166	0.25854	0.22756	0.26219	0.14148	0.068993	0.15087	0.036452	0.13397	0.084538	0.1504	0.10381	-2.4417	-2.8875	-2.8812	-2.9771	-2.8458	-2.9292	-2.9208	-3.2062	-2.8604	-2.8229	-3.1417	-2.8396	-2.9313	-3.1542	-2.5375	-3.0812	20.758	-130.940	144.186	159.061	48.911	-178.227	88.705	128.696	-142.678	-68.224	127.700	-68.480	-154.722	-109.414	-99.585	-118.484	0.0014031	0.00065921	0.00019388	1413.6	4.8901e-06	3.4448e-06	1403.6	380.08	1.0544e-05	5.1757e-06	427.38	141.74	123.3	42.157	7.1737e-06	52.125	0.00087064	0.0008834	0.00024602	1442.2	9.3998e-06	9.9117e-06	1432.4	388.09	9.7075e-06	1.0126e-05	437.75	145.32	125.96	43.589	9.8559e-06	53.971	0.299	-87.301	-76.524	-164.864	-44.912	-53.894	-165.376	-160.449	-20.373	-26.827	-160.968	-157.022	-156.263	-151.499	-19.125	-152.293	-8191	255	
18079.658	1	1	0	0	0.1737	0.20483	0.17721	0.37921	0.10361	0.040868	0.32369	0.14078	0.084722	0.13419	0.025105	0.17329	0.13583	0.24402	0.15163	0.23346	-2.3896	-2.6896	-2.9854	-2.9646	-2.8229	-2.9854	-2.875	-3.0125	-2.8083	-2.7417	-3.2021	-2.9917	-3.0875	-3.0042	-2.6937	-3.2208	-94.488	145.967	-53.254	106.004	-111.139	43.280	158.509	119.121	59.835	-122.004	0.904	159.412	165.897	105.526	68.699	148.751	0.001268	0.00057935	0.00020675	1412.4	8.9856e-06	2.9057e-06	1400.8	379.58	1.1655e-05	6.8509e-06	427.88	141.66	122.89	41.964	5.7051e-06	51.981	0.00087251	0.00092724	0.00025078	1439.5	9.8411e-06	9.9916e-06	1427.8	387.61	9.7812e-06	1.0258e-05	436.6	144.84	125.67	43.433	9.6021e-06	53.977	1.734	-99.641	-70.325	-165.025	-36.874	-67.751	-165.156	-160.380	-32.671	-46.637	-161.117	-156.638	-156.127	-151.619	-56.305	-152.284	-8191	255	
18079.754	1	1	0	0	0.11698	0.20078	0.016628	0.35605	0.057734	0.21118	0.3129	0.18922	0.049565	0.12696	0.052944	0.22625	0.080968	0.17832	0.20081	0.31465	-2.3542	-2.7	-3.0917	-2.8542	-2.7833	-2.9917	-2.8729	-3.0875	-2.7021	-2.7271	-2.9875	-2.8021	-2.9083	-3.1583	-2.7396	-3.1854	-85.589	-137.171	-93.495	115.321	153.957	-143.234	87.975	54.187	47.384	-72.687	-134.947	156.260	-64.359	81.025	-65.367	74.835	0.0014316	0.00057012	0.00014174	1407.1	8.9784e-06	5.787e-06	1392.3	376.13	9.8001e-06	6.1151e-06	426.63	141.3	122.64	41.692	8.7673e-06	51.932	0.00089883	0.00089902	0.00023395	1432.7	9.7691e-06	9.8571e-06	1421.5	385.27	9.2455e-06	9.768e-06	435.65	144.48	125.29	43.257	9.5242e-06	53.831	0.900	-93.917	-82.105	-164.954	-38.480	-15.102	-165.175	-160.374	-31.600	-37.420	-160.910	-156.947	-156.116	-151.373	-46.701	-152.206	-8191	255	
18079.873	1	1	0	0	0.25858	0.24187	0.26641	0.30656	0.26557	0.11066	0.10689	0.11048	0.11235	0.022674	0.26757	0.056806	0.094534	0.16174	0.25977	0.21532	-2.3646	-2.7479	-3.0208	-3.0521	-2.7271	-3.0417	-2.9229	-2.9042	-2.8875	-2.8479	-3.1063	-2.95	-2.8292	-3.025	-2.7542	-3.0667	-135.922	-164.777	108.590	156.965	-165.563	175.344	173.722	-51.980	-114.447	-63.380	179.356	148.396	37.948	127.651	-157.832	54.691	0.0014472	0.00048642	0.00015373	1404.1	4.7578e-06	5.1104e-06	1399	377.31	1.1314e-05	6.7028e-06	426.03	141.51	122.53	42.023	4.5455e-06	51.904	0.00089544	0.0009086	0.00024907	1432.1	9.8314e-06	9.8398e-06	1425.7	386.11	9.8309e-06	9.8904e-06	436.29	144.48	125.54	43.363	9.7401e-06	53.887	0.405	-81.698	-83.321	-164.858	-55.062	-20.808	-165.204	-160.394	-48.349	-13.600	-160.873	-156.692	-156.413	-151.150	-43.802	-152.287	-8191	255	
18079.947	1	1	0	0	0.20165	0.14702	0.025277	0.21994	0.10519	0.14051	0.30857	0.29673	0.066641	0.11429	0.4611	0.23118	0.35011	0.1145	0.07722	0.041109	-2.4104	-2.6625	-2.9583	-3.0083	-2.6292	-2.9396	-2.8854	-3.1208	-3.0292	-2.6042	-3.0854	-3.1583	-2.8854	-3.1083	-2.8375	-2.9562	106.570	177.188	118.272	151.270	-93.519	-145.610	92.655	130.196	-93.318	12.578	-161.891	95.553	140.766	165.342	151.374	75.371	0.0014041	0.00076051	0.00011521	1405.1	8.274e-06	4.8432e-06	1399.4	378.74	1.644e-05	5.8258e-06	425.24	140.77	122.95	42.213	6.362e-06	52.045	0.00088829	0.00091208	0.00025825	1435.1	9.853e-06	9.9155e-06	1426.7	386.95	9.7005e-06	9.9346e-06	436.22	144.6	125.64	43.483	9.6744e-06	54.021	-2.191	-92.874	-87.393	-164.774	-39.011	-37.015	-165.186	-160.474	-34.187	-29.361	-160.884	-156.847	-156.247	-151.594	-45.027	-152.413	-8191	255	
18080.066	1	1	0	0	0.090212	0.026274	0.30637	0.24146	0.097996	0.18022	0.39724	0.41315	0.21303	0.083794	0.48396	0.25844	0.1098	0.032651	0.12198	0.071398	-2.3521	-2.8479	-2.9375	-3.0729	-2.9104	-3.0167	-3.0479	-3.1396	-2.8542	-2.7292	-3.0271	-2.8812	-2.7854	-3.3042	-2.8917	-2.7521	163.079	-24.552	18.844	178.289	-83.934	153.632	76.520	148.324	178.954	105.241	86.143	-155.343	162.776	-97.829	-153.488	141.626	0.0014023	0.00060598	0.00018593	1410.3	7.1852e-06	6.0466e-06	1402	378.56	1.2722e-05	6.2144e-06	426.27	141.17	122.62	41.989	4.2996e-06	52.22	0.00086035	0.00087503	0.00024739	1437.1	9.3286e-06	9.4815e-06	1428.2	387.1	9.027e-06	9.9129e-06	437.13	144.67	125.77	43.371	9.3457e-06	54.006	-0.982	-112.353	-84.418	-164.900	-34.577	-42.822	-165.296	-160.481	-46.407	-27.710	-160.738	-156.661	-156.128	-151.436	-50.233	-152.197	-8191	255	
18080.162	1	1	0	0	0.10631	0.10608	0.13478	0.28148	0.10501	0.51048	0.22269	0.27776	0.19275	0.22864	0.25703	0.10712	0.18148	0.13137	0.1424	0.17716	-2.6458	-2.7792	-2.7292	-2.9313	-2.6	-2.8896	-2.9729	-2.9104	-2.9979	-2.6833	-2.8979	-3.0021	-2.8229	-2.9896	-2.8396	-2.8646	17.737	-0.485	-150.914	160.906	180.685	66.687	88.441	154.473	-94.632	95.023	50.626	7.025	-148.441	-124.120	120.314	163.797	0.0013843	0.00038946	0.00015957	1411.2	8.6977e-06	5.5824e-06	1398.4	379.48	9.2133e-06	6.2822e-06	425.17	141.34	122.79	42.022	6.9532e-06	52.159	0.00085551	0.00085642	0.0002386	1436.1	9.1804e-06	9.5758e-06	1426.9	387.28	8.955e-06	9.4447e-06	435.98	144.59	125.45	43.447	9.6417e-06	53.967	0.093	-97.063	-81.990	-164.860	-55.547	-4.263	-165.463	-160.642	-29.252	-38.909	-161.089	-156.691	-156.421	-151.487	-24.181	-152.357	-8191	255	
18080.258	1	1	0	0	0.17809	0.34673	0.11484	0.37837	0.1441	0.07646	0.21422	0.26608	0.20005	0.27503	0.42506	0.26717	0.17927	0.21129	0.22178	0.17623	-2.5271	-2.8042	-2.7958	-3.05	-2.6167	-2.9958	-3.2167	-2.8271	-3.1396	-2.8583	-2.8937	-3.0479	-2.8688	-3.0333	-2.8583	-2.8771	94.065	-62.057	177.846	161.618	155.213	15.727	58.395	164.142	160.579	-70.023	-156.365	118.133	-157.034	169.661	58.570	-11.268	0.0013611	0.00052473	0.00010147	1407.4	6.8735e-06	5.6611e-06	1403.6	379.36	1.1262e-05	5.413e-06	428.15	140.88	123.23	42.069	8.9412e-06	51.948	0.00084773	0.00086488	0.00024451	1436.9	9.2299e-06	9.7225e-06	1429	387.08	8.9201e-06	9.9779e-06	437.18	144.79	125.64	43.399	9.6539e-06	54.005	-0.786	-93.608	-74.889	-164.986	-26.435	-32.569	-165.271	-160.486	-56.562	-23.884	-160.672	-156.737	-155.917	-151.390	-22.505	-152.395	-8191	255	
18080.354	1	1	0	0	0.25001	0.12271	0.22851	0.17917	0.28505	0.072091	0.37415	0.15176	0.11062	0.19019	0.40195	0.064617	0.095082	0.10325	0.19043	0.11654	-2.6021	-2.6333	-2.6271	-3.1688	-2.7458	-3.1271	-3.0563	-2.8021	-3.0312	-2.7125	-2.9813	-3.275	-2.7229	-2.8708	-2.9562	-2.7396	-155.297	-162.456	-177.971	-106.854	-45.145	-98.290	131.156	91.554	117.657	98.828	-164.720	150.875	99.831	-1.465	-118.683	25.035	0.0014844	0.00070644	0.00013766	1410	4.2921e-06	6.0445e-06	1398.1	378.86	1.1039e-05	5.6003e-06	427.35	141.56	122.38	42.027	4.0275e-06	52.073	0.0008658	0.00087992	0.0002503	1436.2	9.2359e-06	9.5964e-06	1427.4	387.26	9.1464e-06	9.9628e-06	436.52	144.93	125.52	43.365	9.6391e-06	54.068	-0.345	-85.864	-85.059	-165.136	-36.643	-16.937	-165.399	-160.384	-34.470	-5.653	-160.934	-156.654	-156.085	-151.304	-52.068	-152.280	-8191	255	
18080.475	1	1	0	0	0.13574	0.026377	0.12245	0.37105	0.084137	0.13157	0.35016	0.054137	0.21639	0.24468	0.22212	0.11889	0.17619	0.22352	0.25415	0.086872	-2.3167	-2.7167	-2.8417	-3.1042	-2.7333	-2.8063	-3.1229	-2.6708	-2.9208	-2.875	-2.9333	-3.1979	-2.5438	-2.925	-2.8438	-2.8	-124.134	1.184	164.546	85.305	172.115	-64.355	134.840	90.566	100.379	34.155	93.248	152.805	-143.890	61.986	-43.773	23.867	0.0014213	0.00073762	0.00014304	1403.1	4.0233e-06	4.7844e-06	1397.7	377.96	1.4129e-05	7.2693e-06	425.43	141.27	123.26	42.003	5.3001e-06	52.407	0.00087515	0.000896	0.00024984	1434.5	9.2808e-06	1.0125e-05	1426.9	386.46	9.2842e-06	9.888e-06	436.67	144.8	125.72	43.414	9.7009e-06	53.997	-1.919	-89.963	-88.362	-164.842	-69.463	-9.257	-165.280	-160.260	-36.245	-38.018	-160.861	-156.753	-156.320	-151.293	-42.783	-152.400	-8191	255	
18080.547	1	1	0	0	0.17086	0.12166	0.21709	0.25649	0.15639	0.20633	0.10431	0.1778	0.033979	0.089769	0.19384	0.19674	0.17336	0.12214	0.080105	0.22708	-2.4792	-2.8417	-2.6771	-2.9979	-2.6458	-2.9521	-3.1312	-3.0729	-2.8063	-3.0312	-2.8708	-3.0208	-2.9667	-2.9167	-2.9562	-2.8167	107.984	99.153	-162.753	128.029	177.748	-45.023	0.681	93.381	30.504	-160.436	105.625	136.459	175.388	-158.211	123.560	170.746	0.0013832	0.00078872	0.00013806	1410.9	5.0323e-06	4.8779e-06	1398.4	377.42	1.4118e-05	5.6286e-06	425.34	141.28	123.03	42.036	6.8736e-06	52.045	0.00086946	0.00091664	0.00024855	1436.7	9.3799e-06	9.701e-06	1426.4	386.59	9.4043e-06	1.0054e-05	436.03	144.64	125.86	43.424	9.3013e-06	54.036	-1.473	-110.579	-89.615	-164.908	-28.707	-17.244	-165.212	-160.618	-36.262	-59.636	-161.120	-156.665	-156.052	-151.242	-30.773	-152.170	-8191	255	
18080.643	1	1	0	0	0.18101	0.17865	0.084452	0.33543	0.24781	0.047672	0.29276	0.34908	0.17473	0.2008	0.53615	0.11058	0.26939	0.1676	0.072914	0.30488	-2.575	-2.8625	-2.6875	-3.2104	-2.9583	-2.8937	-3.125	-2.9354	-3.0187	-2.6688	-2.8292	-3.0229	-3.1083	-2.8	-3.0646	-2.7062	119.106	48.677	121.455	163.876	-50.474	38.416	140.235	118.171	177.563	-48.697	129.630	179.623	147.342	106.339	54.128	-154.646	0.001458	0.00064568	0.00014303	1409.9	7.3247e-06	5.5526e-06	1397.8	378.34	1.1416e-05	6.6796e-06	427.57	141.27	123.05	41.99	5.4041e-06	52.115	0.00088862	0.00087913	0.00024915	1436.8	9.5514e-06	9.7324e-06	1427.2	386.48	9.2476e-06	1.0071e-05	436.22	144.59	125.66	43.484	9.1368e-06	54.049	0.262	-96.753	-70.724	-165.041	-49.224	-29.256	-165.159	-160.685	-29.134	-36.176	-160.856	-156.750	-156.116	-151.397	-7.930	-152.269	-8191	255	
18080.764	1	1	0	0	0.33617	0.092849	0.20833	0.44437	0.050701	0.19319	0.39904	0.096106	0.12426	0.25214	0.20387	0.098297	0.035115	0.12948	0.12897	0.29206	-2.5375	-2.8271	-2.5458	-3.1083	-2.9208	-2.7833	-3.275	-3.0104	-3.0208	-3.0563	-2.6937	-3.0021	-3.1063	-2.8312	-3.0667	-2.8479	151.332	16.961	-46.502	153.173	33.468	-77.820	153.323	28.232	20.689	123.851	85.347	-177.735	7.429	48.205	56.765	96.364	0.0013756	0.0005248	0.00013465	1410.9	6.2522e-06	4.8113e-06	1404.3	378.24	1.0026e-05	7.119e-06	426.18	141.47	123.13	42.022	5.0927e-06	52.323	0.00087661	0.0008902	0.00024588	1435.5	9.5628e-06	9.7879e-06	1426.8	386.83	9.5598e-06	9.872e-06	436.79	144.8	125.55	43.382	9.3209e-06	54.089	0.700	-68.079	-91.709	-164.974	-42.109	-19.188	-165.257	-160.427	-35.836	-38.612	-160.944	-156.726	-156.298	-151.650	-36.150	-152.158	-8191	255	
18080.859	1	1	0	0	0.07748	0.32006	0.1224	0.058756	0.25895	0.17068	0.27242	0.085339	0.14013	0.13291	0.34969	0.16842	0.071781	0.03132	0.097551	0.049663	-2.5458	-2.8646	-2.6229	-3.2021	-2.8875	-2.8354	-3.1813	-2.9	-2.7833	-3.1208	-2.8187	-3.0375	-2.9604	-2.8354	-3.0604	-2.9146	-68.440	74.750	-98.999	139.036	34.098	100.596	114.854	136.804	61.487	7.979	166.467	147.866	159.994	-78.967	141.157	-133.604	0.0013122	0.00050201	0.00018958	1407.8	3.4606e-06	5.2986e-06	1402.5	377.83	1.4332e-05	2.3714e-06	425.75	141.55	122.6	42.12	6.4868e-06	52.043	0.00086816	0.00088381	0.00024631	1435.6	9.5323e-06	9.7851e-06	1426.8	386.63	9.3829e-06	9.5299e-06	436.23	144.9	125.48	43.477	9.2948e-06	53.983	-0.823	-94.719	-79.803	-164.998	-62.453	-6.948	-165.302	-160.436	-40.255	-22.308	-160.897	-156.693	-156.243	-151.464	-43.649	-152.381	-8191	255	
18080.955	1	1	0	0	0.11368	0.19265	0.17466	0.11241	0.1696	0.060144	0.25918	0.1827	0.19349	0.26187	0.19509	0.23234	0.22725	0.021535	0.14471	0.21052	-2.3979	-2.9813	-2.6396	-3.1312	-2.8646	-2.8375	-3.1604	-3.0271	-2.8812	-3.0729	-2.9521	-2.8604	-2.8917	-2.9938	-2.9938	-2.9458	23.710	-4.037	-55.831	-164.023	89.731	66.472	159.179	118.515	-1.063	94.027	171.076	149.867	-163.710	-150.543	-45.537	97.164	0.0014332	0.00064287	0.00016278	1403.7	6.1947e-06	6.4036e-06	1396.9	378.48	1.1974e-05	5.5528e-06	424.52	141.44	122.25	41.991	6.9715e-06	51.843	0.00089366	0.00087001	0.0002432	1435.3	9.5095e-06	9.5263e-06	1426	386.81	9.5944e-06	9.4767e-06	436.01	144.79	125.47	43.455	9.3853e-06	53.913	-2.524	-103.418	-86.874	-164.897	-47.880	-14.502	-165.199	-160.439	-47.306	-25.354	-161.138	-156.608	-156.247	-151.296	-17.218	-152.417	-8191	255	
18081.074	1	1	0	0	0.21556	0.2132	0.091193	0.34676	0.073179	0.11575	0.34834	0.42753	0.23978	0.23798	0.12508	0.14007	0.29047	0.13751	0.13689	0.15389	-2.275	-2.9875	-2.625	-3.0583	-3.0521	-2.7979	-3.2021	-3.0167	-2.7229	-3.2979	-2.9104	-3.1937	-3.1354	-2.7938	-3.0438	-3.0792	30.348	54.480	178.113	-166.229	152.043	-33.713	111.684	135.244	159.459	137.180	95.772	167.136	-144.828	173.875	-74.223	95.544	0.0014041	0.00054721	0.00014141	1402.5	5.1752e-06	4.9068e-06	1396.8	378.01	9.4797e-06	5.1196e-06	424.64	141.22	122.41	41.988	7.5224e-06	52.112	0.00087113	0.00084677	0.00024458	1432.5	9.3401e-06	9.4179e-06	1425.6	386.46	9.2142e-06	9.5525e-06	436.41	144.67	125.51	43.45	9.4519e-06	53.905	-0.779	-105.505	-99.237	-164.739	-51.258	-20.885	-165.258	-160.484	-45.134	-49.810	-160.901	-156.628	-156.209	-151.325	-32.079	-152.405	-8191	255	
18081.172	1	1	0	0	0.10912	0.08208	0.20154	0.16404	0.12011	0.18748	0.28508	0.39378	0.35014	0.32224	0.053219	0.19261	0.06397	0.21691	0.32409	0.039066	-2.1813	-3.0104	-2.7562	-3.0687	-2.9562	-2.7083	-3.3396	-3.0687	-2.8458	-3.2313	-2.9458	-3.075	-3.3229	-2.8375	-3.0542	-3.0271	-68.659	-112.957	42.826	64.716	21.413	-129.645	149.071	145.356	118.411	-39.868	-10.595	-103.737	159.533	154.119	16.996	-81.141	0.0013896	0.00060532	0.00017373	1410.3	5.5944e-06	5.8584e-06	1397	379.02	7.5389e-06	4.7828e-06	426.51	141.29	122.82	42.105	5.4968e-06	52.001	0.00086	0.00085791	0.00024124	1435.2	9.1948e-06	9.5917e-06	1425.8	386.75	9.2027e-06	9.8287e-06	437.1	144.8	125.73	43.423	9.6909e-06	53.875	0.268	-94.879	-72.717	-164.913	-61.459	-23.485	-165.304	-160.432	-33.549	-23.321	-160.859	-156.811	-156.285	-151.332	-48.284	-152.470	-8191	255	
18081.242	1	1	0	0	0.091753	0.19848	0.09582	0.20506	0.026296	0.071145	0.3329	0.29022	0.083228	0.11782	0.22465	0.19845	0.18303	0.2335	0.1473	0.066281	-2.3896	-2.9813	-2.8917	-3	-3.0854	-2.725	-3.2146	-3.15	-2.6833	-3.1104	-2.9958	-2.9292	-3.1708	-3.0125	-2.8021	-3.0458	63.395	40.470	177.220	89.745	45.422	-175.415	95.810	103.473	67.414	-77.702	-154.743	-101.498	155.828	91.842	172.842	-89.664	0.0014271	0.00036257	0.00020614	1410.2	5.6586e-06	5.7417e-06	1399.5	377.06	9.7308e-06	6.8468e-06	424.64	141.55	122.89	42.062	7.5534e-06	52.099	0.00087416	0.00087204	0.00024226	1436.7	9.2748e-06	9.4605e-06	1426	386.55	9.2508e-06	9.5501e-06	436.73	144.65	125.71	43.425	9.9055e-06	53.986	-0.235	-73.926	-83.112	-165.047	-41.230	-6.563	-165.089	-160.349	-41.010	-23.280	-160.872	-156.632	-156.235	-151.389	-47.783	-152.548	-8191	255	
18081.338	1	1	0	0	0.088027	0.11952	0.21917	0.2197	0.08555	0.24017	0.48052	0.19039	0.1757	0.12432	0.3262	0.14804	0.24081	0.15972	0.12243	0.093405	-2.4	-3.0125	-2.7833	-2.9917	-3.0708	-2.8146	-3.1896	-3.2062	-2.6312	-2.9708	-3.1312	-2.85	-3.0125	-2.8958	-2.7687	-2.9813	60.933	89.656	-24.619	119.564	-87.218	0.980	98.283	136.484	32.635	145.065	97.825	121.088	72.816	155.869	-31.840	27.437	0.0013939	0.00064472	0.00011868	1404.4	4.3779e-06	4.8714e-06	1401.1	379.37	1.0536e-05	3.4448e-06	425.59	141.29	123.16	41.905	5.3116e-06	52.224	0.00086547	0.00089695	0.00024961	1433.7	9.271e-06	9.7693e-06	1428.9	386.86	9.2949e-06	9.8424e-06	436.95	144.84	125.87	43.452	9.7257e-06	54.039	3.320	-90.628	-89.488	-165.020	-7.676	9.220	-165.321	-160.507	-30.716	-17.938	-161.136	-156.544	-156.027	-151.556	-34.764	-152.251	-8191	255	
18081.434	1	1	0	0	0.23996	0.14818	0.063076	0.21242	0.14364	0.28493	0.41976	0.098466	0.071085	0.10886	0.38447	0.2866	0.043582	0.26078	0.0085327	0.098999	-2.1396	-2.9458	-2.775	-3.0229	-3.0187	-2.8	-3.175	-3.1375	-2.8063	-2.9604	-2.8667	-2.8146	-3.2042	-2.7271	-2.8563	-3.225	109.468	87.170	-94.787	91.732	8.057	116.215	100.295	135.146	134.262	166.860	128.042	-48.532	-3.840	141.798	-16.546	72.307	0.0014732	0.00063972	0.00011539	1403.7	5.963e-06	4.9244e-06	1396.4	378.49	9.8273e-06	9.2398e-06	425.17	141.19	122.94	42.061	5.4263e-06	52.389	0.00086643	0.00088746	0.00024527	1434.8	9.4201e-06	1.0012e-05	1427.1	386.92	9.6121e-06	1.0315e-05	436.25	144.68	125.81	43.499	9.6922e-06	54.072	-0.700	-109.200	-94.367	-164.931	-47.119	-55.528	-165.229	-160.402	-38.813	-11.873	-160.892	-156.774	-156.435	-151.482	-4.098	-152.312	-8191	255	
18081.555	1	1	0	0	0.1564	0.065408	0.24032	0.17778	0.0098718	0.14014	0.24077	0.30994	0.2128	0.049684	0.15006	0.34165	0.10199	0.3697	0.345	0.11769	-2.2792	-2.9167	-2.9938	-2.8354	-2.8354	-2.7375	-2.9062	-3.1562	-2.8	-3.1937	-3.1	-2.8521	-3.1292	-2.8833	-2.8396	-3.2792	-73.923	29.543	-146.101	-178.554	156.185	181.182	142.312	114.085	56.363	-55.302	153.864	148.726	87.826	-142.525	-100.471	119.894	0.001405	0.00044943	0.00016783	1413.7	6.1944e-06	6.7879e-06	1398.1	377.32	8.8457e-06	7.1715e-06	425.4	141.47	123.36	41.913	7.9745e-06	52.076	0.00088087	0.00089629	0.00025714	1438.1	9.5069e-06	9.8454e-06	1427.3	386.2	9.6178e-06	9.9868e-06	436.72	144.79	125.85	43.401	9.7788e-06	53.974	0.740	-89.092	-103.472	-164.924	-58.137	-30.696	-165.272	-160.691	-44.971	-15.472	-160.816	-156.490	-156.224	-151.447	-32.168	-152.613	-8191	255	
18081.650	1	1	0	0	0.22448	0.32314	0.2589	0.20622	0.29949	0.17467	0.034771	0.15552	0.096231	0.16543	0.024884	0.11047	0.11704	0.10407	0.071808	0.18653	-2.4667	-2.7833	-2.9729	-2.9146	-3.0229	-2.9062	-3.0708	-3.2896	-3.05	-2.7729	-3.1708	-2.9396	-3.1417	-3.0792	-2.6646	-3.2188	-15.874	-131.656	118.589	101.115	84.773	-135.325	17.085	-171.031	-103.341	102.865	-21.063	20.531	-66.940	55.966	160.668	138.635	0.0013042	0.00059334	0.00013753	1406.9	7.8236e-06	7.1169e-06	1401.3	378.77	1.2682e-05	8.359e-06	426.29	141.23	122.99	42.054	4.8883e-06	52.286	0.00088169	0.00091266	0.00024433	1435	9.4637e-06	9.7665e-06	1428.4	386.9	9.4352e-06	1.0263e-05	436.88	144.75	125.74	43.465	9.4733e-06	54.052	-0.594	-90.765	-88.043	-164.944	-45.132	-41.118	-165.383	-160.366	-46.238	-29.881	-160.958	-156.616	-156.253	-151.572	-30.083	-152.281	-8191	255	
18081.746	1	1	0	0	0.26603	0.10369	0.18652	0.23788	0.12788	0.19354	0.0324	0.21531	0.14995	0.088302	0.25875	0.32674	0.087616	0.14155	0.24883	0.17954	-2.275	-2.7271	-3.0958	-2.7542	-2.8667	-2.9833	-2.8521	-3.3083	-2.6354	-2.8792	-3.0646	-2.7333	-3.1437	-3.1708	-2.7542	-3.1375	-31.253	26.843	169.079	122.636	131.567	96.668	-2.703	176.668	150.806	22.435	141.734	106.135	158.398	163.866	57.659	130.797	0.0014003	0.00050464	0.00016137	1408.9	7.7113e-06	4.7737e-06	1404.4	377.95	1.0496e-05	5.8801e-06	425.51	141.33	122.83	41.927	6.5442e-06	52.108	0.00087892	0.00091668	0.00024783	1436.5	9.4324e-06	9.9781e-06	1429.5	386.67	9.4816e-06	9.8405e-06	436.01	144.65	125.64	43.396	9.5094e-06	54.038	-2.060	-89.290	-78.813	-164.900	-44.976	-28.836	-165.268	-160.640	-45.108	-46.084	-160.765	-156.625	-156.002	-151.342	-46.338	-152.432	-8191	255	
18081.844	1	1	0	0	0.05473	0.16856	0.23131	0.33119	0.12936	0.043525	0.38887	0.32556	0.18324	0.29225	0.24998	0.26062	0.03348	0.17769	0.12371	0.22482	-2.4917	-2.6521	-3.225	-2.875	-2.9125	-3.0208	-2.9917	-3.175	-2.9792	-2.7438	-3.2271	-2.7	-3.075	-2.9646	-2.8438	-3.2229	16.063	72.630	-177.098	134.336	150.889	166.179	98.919	143.258	114.448	114.848	-140.926	159.293	79.627	165.203	7.524	181.363	0.0013492	0.00053558	0.00015421	1405.1	7.38e-06	5.7729e-06	1400.2	378.32	7.4481e-06	5.16e-06	425.91	141.5	122.96	42.041	6.8293e-06	52.279	0.00086948	0.00089078	0.00024266	1436.2	9.8644e-06	9.8136e-06	1429.1	386.55	9.5109e-06	9.6936e-06	436.7	144.99	125.85	43.42	9.465e-06	54.017	-1.032	-96.572	-92.621	-165.135	-47.664	-68.440	-165.290	-160.601	-30.994	-17.064	-160.783	-156.706	-156.177	-151.495	-51.915	-152.541	-8191	255	
18081.939	1	1	0	0	0.088893	0.19995	0.051298	0.23464	0.1679	0.13296	0.30537	0.12312	0.19838	0.13181	0.25866	0.20907	0.1936	0.18972	0.22025	0.27828	-2.5167	-2.8708	-3.1542	-3.0083	-2.8521	-2.9125	-2.9958	-3.1667	-2.75	-2.7104	-3.275	-2.9	-2.9458	-3.1667	-2.65	-3.0854	20.725	-114.364	27.217	133.580	-3.647	-6.376	-4.910	137.899	51.963	-59.315	117.446	176.624	49.590	177.701	-157.129	180.286	0.0014312	0.00052107	0.00011955	1409.5	7.5305e-06	5.1535e-06	1402.4	378.23	9.5394e-06	4.4618e-06	426.82	141.84	123.21	42.062	7.1524e-06	51.948	0.00088722	0.00088812	0.00023894	1436.3	9.7585e-06	9.8319e-06	1429	387.28	9.6405e-06	9.8631e-06	436.17	145.09	125.93	43.391	9.3618e-06	53.914	-0.137	-103.525	-103.698	-164.822	-44.510	-17.159	-165.247	-160.393	-39.461	-14.142	-160.873	-156.631	-156.331	-151.457	-73.428	-152.265	-8191	255	
18082.035	1	1	0	0	0.06139	0.24774	0.17309	0.060931	0.058953	0.14098	0.3804	0.11467	0.16898	0.31453	0.17491	0.06822	0.14243	0.22146	0.14193	0.11016	-2.6312	-2.4729	-3.0812	-2.9229	-2.8792	-3.2167	-3.0667	-3.0771	-2.8229	-2.7562	-3.0417	-2.9875	-2.8458	-3.175	-2.95	-3.0958	-129.888	-25.535	-77.710	-147.470	144.711	167.664	111.858	-73.002	132.070	155.860	145.815	-112.725	125.172	173.830	-78.406	-30.182	0.0014162	0.00067275	0.00012143	1411.1	7.0988e-06	2.875e-06	1400	380.26	1.3704e-05	4.1413e-06	426.58	141.58	123.55	42.063	7.6141e-06	51.84	0.00088719	0.00089281	0.00023904	1437.5	9.6302e-06	9.6099e-06	1429.1	387.7	9.5849e-06	9.9111e-06	436.75	144.85	125.96	43.506	9.8258e-06	53.865	0.032	-92.266	-82.431	-164.669	-52.884	-13.153	-165.276	-160.565	-37.867	-29.993	-161.096	-156.729	-156.349	-151.339	-39.113	-152.286	-8191	255	
18082.154	1	1	0	0	0.06425	0.1062	0.16366	0.12227	0.024431	0.16471	0.11022	0.22755	0.061665	0.029979	0.26437	0.15077	0.074893	0.10396	0.13826	0.035964	-2.5187	-2.7083	-2.9583	-2.8146	-2.7562	-3.2167	-3.0521	-2.9146	-2.9875	-2.7917	-3.2083	-3.05	-2.9271	-3.2333	-2.8438	-3.0208	15.096	-43.019	128.765	-137.665	-70.783	96.043	-161.205	107.013	156.204	-45.782	107.474	122.490	-159.624	152.410	95.726	69.803	0.0013734	0.00071962	0.00014982	1407.4	6.2785e-06	4.4988e-06	1401.5	377.82	1.3328e-05	5.1517e-06	425.65	141.64	123.22	42.147	8.5235e-06	52.166	0.00088194	0.00087478	0.00024742	1435	9.6958e-06	9.6838e-06	1428.8	386.96	9.3294e-06	9.9445e-06	436.53	145.12	126.06	43.452	9.8311e-06	54.04	0.322	-100.422	-72.424	-165.040	-26.048	-22.781	-165.259	-160.481	-41.650	-26.458	-160.934	-156.515	-156.233	-151.467	-39.683	-152.215	-8191	255	
18082.252	1	1	0	0	0.11185	0.16242	0.037112	0.22851	0.16055	0.080815	0.29041	0.38896	0.044491	0.15093	0.3089	0.26438	0.044257	0.15841	0.18583	0.091304	-2.5646	-2.7958	-2.9646	-3.0354	-2.7438	-2.8229	-3.1333	-3.15	-2.9354	-2.9354	-3.1042	-2.9875	-3.0042	-3.025	-2.9229	-2.9292	62.666	103.719	88.789	141.527	-91.705	-170.609	108.170	125.722	178.654	173.602	157.014	175.027	-140.797	69.579	130.466	177.001	0.0014028	0.00061156	0.00011103	1413.1	7.5851e-06	6.3233e-06	1402.7	379.53	9.5142e-06	5.952e-06	427.46	140.98	122.96	42.122	6.6002e-06	52.2	0.00085521	0.00088531	0.00025182	1438.7	9.6577e-06	1.0033e-05	1429.3	387.49	9.3541e-06	9.7802e-06	437.1	144.81	125.91	43.45	9.5956e-06	54.04	-0.737	-93.860	-78.985	-164.887	-53.807	-27.966	-165.215	-160.503	-43.687	-32.937	-160.864	-156.857	-155.963	-151.184	-26.870	-152.263	-8191	255	
18082.348	1	1	0	0	0.26582	0.08938	0.29422	0.31136	0.21071	0.13131	0.3682	0.24548	0.39154	0.17088	0.2302	0.2195	0.28241	0.031404	0.17798	0.21715	-2.6396	-2.8208	-2.95	-3.075	-2.9125	-3.2292	-2.9729	-2.9667	-3.1021	-2.8563	-3.0625	-3.1271	-2.5938	-3	-2.9271	-3.0667	-1.529	3.963	1.751	123.747	151.903	175.835	127.192	116.047	-175.100	-163.897	147.900	-141.609	157.077	65.574	50.549	122.612	0.0014126	0.00054958	0.00011304	1408.2	2.7082e-06	4.3413e-06	1397.9	379.37	1.2095e-05	5.031e-06	428.54	141.65	122.8	42.09	5.3471e-06	52.204	0.00087468	0.00087184	0.00026064	1437.3	9.3964e-06	9.7361e-06	1428.9	387.06	9.2208e-06	1.0218e-05	437.69	144.75	125.97	43.458	9.6905e-06	54.051	-0.137	-86.417	-70.466	-164.954	-14.126	-37.295	-165.268	-160.658	-38.828	-35.914	-160.765	-156.688	-156.129	-151.158	-14.956	-152.191	-8191	255	
18082.469	1	1	0	0	0.15862	0.29352	0.11597	0.2969	0.044186	0.060165	0.46081	0.35478	0.03737	0.25421	0.18643	0.49856	0.048385	0.069421	0.12685	0.25478	-2.5104	-2.7417	-2.9521	-3.1437	-2.6979	-2.9208	-3.0854	-3.0812	-3.1521	-2.7729	-3.0042	-3.2146	-2.7438	-3.1271	-3.0042	-2.8604	33.969	118.198	-15.663	142.899	133.488	-49.330	89.242	126.780	111.450	16.130	163.105	168.270	96.632	9.569	165.714	173.403	0.0013606	0.00055853	0.0001686	1408	5.2258e-06	4.5708e-06	1398.1	378.63	1.5261e-05	6.5338e-06	427.31	142.19	123.26	42.036	7.9358e-06	52.032	0.00087424	0.00088473	0.00025504	1436.5	9.4315e-06	9.6319e-06	1426.9	386.57	9.1986e-06	9.9468e-06	437.08	144.96	125.73	43.392	9.6478e-06	53.999	-0.324	-107.243	-66.795	-164.906	-55.583	-44.210	-165.278	-160.352	-33.066	-11.480	-160.982	-156.767	-156.166	-151.440	-46.080	-152.243	-8191	255	
18082.539	1	1	0	0	0.20655	0.10034	0.18483	0.19527	0.12773	0.18381	0.17056	0.44193	0.26389	0.26031	0.26674	0.13513	0.19221	0.25062	0.10055	0.13693	-2.4979	-2.7542	-2.7438	-3.2854	-2.6188	-2.8771	-3.1896	-2.9833	-3.0542	-2.8833	-2.9229	-3.2292	-2.8229	-3.0208	-2.9083	-2.8354	-29.806	-68.583	107.247	155.289	70.729	-42.399	149.751	96.873	-51.150	152.083	33.052	128.458	-0.648	72.211	-137.818	172.395	0.0013616	0.00069561	0.000161	1403.8	5.5712e-06	7.8873e-06	1401.5	377.33	9.8389e-06	4.2523e-06	426.67	141.86	122.96	42.05	8.9831e-06	51.994	0.00086332	0.00089712	0.00025406	1434.1	9.3354e-06	9.6085e-06	1427.1	386.35	9.3706e-06	9.7769e-06	436.88	144.87	125.78	43.449	9.6587e-06	53.962	0.774	-86.610	-91.585	-164.950	-30.400	-32.954	-165.281	-160.674	-20.534	-29.013	-160.684	-156.614	-156.247	-151.530	-29.736	-152.417	-8191	255	
18082.635	1	1	0	0	0.067482	0.057116	0.095726	0.31707	0.16336	0.20198	0.17659	0.33538	0.10911	0.1657	0.10372	0.023207	0.30142	0.31488	0.13677	0.19944	-2.7104	-2.8229	-2.8292	-3.2062	-2.9167	-3.0042	-3.1667	-3.0458	-3.0854	-3.0187	-2.9792	-3.2354	-2.95	-2.975	-3.0187	-2.7604	-1.403	21.991	71.607	69.385	17.664	-166.285	92.399	179.172	-162.324	117.314	-173.788	178.181	-171.290	157.671	4.984	130.359	0.0014826	0.00056226	9.7595e-05	1402.5	4.6666e-06	6.5293e-06	1392.6	376.95	1.0412e-05	5.9241e-06	424.83	141.67	122.29	41.968	5.948e-06	52.064	0.00086651	0.00090064	0.00024508	1430.7	9.3117e-06	9.8267e-06	1422.5	385.9	9.2813e-06	9.9101e-06	436.47	144.54	125.61	43.426	9.5033e-06	53.872	-0.100	-101.665	-97.605	-164.962	-62.007	-3.696	-165.279	-160.568	-42.300	-39.687	-161.012	-156.609	-156.216	-151.368	-15.723	-152.463	-8191	255	
18082.730	1	1	0	0	0.10715	0.22563	0.244	0.13152	0.21494	0.057225	0.20808	0.23537	0.15793	0.37809	0.053163	0.10924	0.18863	0.34471	0.17174	0.17394	-2.525	-2.7375	-2.6167	-3.1792	-3.0833	-2.9229	-3.1937	-2.875	-3.075	-2.8563	-2.9854	-3.2708	-2.925	-2.8917	-2.9042	-2.6479	148.625	-114.221	-66.632	81.132	97.520	-177.916	137.690	122.421	136.193	-55.305	137.199	128.818	154.285	167.175	96.869	121.286	0.0013685	0.00060978	0.00013855	1400.9	6.0671e-06	4.8294e-06	1398.1	376.57	9.6964e-06	5.6229e-06	423.81	140.81	123.07	42.102	6.8277e-06	52.039	0.00086475	0.00088187	0.00024337	1430.4	9.3138e-06	9.78e-06	1424.6	385.77	9.5516e-06	9.7727e-06	435.73	144.58	125.61	43.448	9.5647e-06	53.976	-1.810	-75.053	-56.858	-164.903	-45.166	-23.640	-165.342	-160.388	-11.519	-35.416	-160.842	-156.843	-156.287	-151.444	-48.556	-152.424	-8191	255	
18082.852	1	1	0	0	0.20083	0.075095	0.050637	0.16911	0.10811	0.022552	0.083147	0.16265	0.069243	0.059164	0.33748	0.14066	0.22752	0.21426	0.11005	0.10342	-2.4396	-2.8937	-2.6667	-3.1646	-2.8646	-2.8708	-3.2542	-3.0125	-2.9729	-2.9958	-2.7229	-3.2042	-2.6813	-3.0563	-3.0771	-2.9333	28.024	46.566	-8.318	152.076	49.019	-175.019	101.312	106.186	120.897	35.685	94.711	102.356	181.049	124.880	-98.156	61.640	0.0013924	0.00062717	9.7013e-05	1402.3	7.2415e-06	3.8488e-06	1394	378.46	1.1703e-05	2.0844e-06	424.45	140.97	122.55	42.006	7.4817e-06	52.093	0.00089399	0.00088787	0.0002448	1431.3	9.825e-06	9.773e-06	1422.1	386.34	9.5931e-06	9.6649e-06	435.78	144.56	125.42	43.347	9.1172e-06	53.928	2.144	-102.270	-81.951	-164.728	-66.636	-38.173	-165.379	-160.606	-56.176	-25.231	-160.781	-156.630	-156.133	-151.375	-27.900	-152.473	-8191	255	
18082.947	1	1	0	0	0.2142	0.23449	0.20984	0.42582	0.069269	0.046907	0.062065	0.24946	0.28413	0.23434	0.050599	0.2966	0.22065	0.1875	0.039564	0.21987	-2.6312	-3.0333	-2.9667	-3.2396	-2.8583	-2.7854	-3.2812	-2.8542	-2.95	-3.0792	-2.8417	-3.2208	-2.9479	-2.9146	-2.9375	-2.8042	-78.312	-157.254	22.570	163.878	-24.548	88.391	174.651	144.795	93.530	125.562	73.891	-172.853	-155.431	145.396	125.230	66.094	0.0013747	0.00056475	0.00011364	1404.9	6.9385e-06	4.9956e-06	1393.7	378.08	1.5685e-05	4.8532e-06	424.02	141.23	122.53	42.09	6.6516e-06	51.521	0.00089088	0.00087287	0.0002353	1432.7	9.4438e-06	9.5352e-06	1422.2	386.31	9.4298e-06	9.9242e-06	435.44	144.44	125.5	43.408	9.3144e-06	53.826	-2.108	-73.938	-85.275	-164.963	-55.586	-28.617	-165.136	-160.513	-53.211	-44.212	-160.857	-156.807	-156.165	-151.324	-20.444	-152.366	-8191	255	
18083.043	1	1	0	0	0.12045	0.26108	0.074188	0.22377	0.052264	0.038092	0.43632	0.28471	0.11468	0.22471	0.19185	0.38822	0.099643	0.009245	0.11403	0.19487	-2.5042	-2.9562	-2.7479	-3.2854	-2.8688	-2.825	-3.4333	-3.0875	-2.7917	-2.9521	-2.8958	-3.2	-2.8729	-2.7812	-3.1896	-3.0021	-69.175	-108.595	166.493	115.735	-161.487	-176.762	115.139	144.812	174.485	21.748	-117.093	155.685	-89.490	52.910	-45.619	172.246	0.0013836	0.00075965	0.00016468	1404.5	5.4491e-06	5.6379e-06	1396.3	375.41	1.3131e-05	4.3529e-06	425.04	141.3	122.75	41.865	7.0104e-06	52.058	0.00088596	0.0008449	0.00023881	1429.9	9.3062e-06	9.5282e-06	1421.5	385.01	9.3821e-06	9.5096e-06	435.18	144.42	125.23	43.344	9.2452e-06	53.888	-0.614	-104.253	-79.484	-164.805	-39.453	-19.485	-165.376	-160.448	-46.638	-17.974	-160.844	-156.610	-156.508	-151.161	-38.214	-152.353	-8191	255	
18083.115	1	1	0	0	0.081239	0.10743	0.21088	0.35049	0.096914	0.11191	0.38588	0.29201	0.19845	0.12752	0.22701	0.096288	0.024387	0.28501	0.12087	0.17325	-2.5187	-3.0396	-2.8063	-3.2354	-2.9104	-2.8104	-3.2062	-3.1208	-2.9958	-2.9917	-2.7458	-3.0229	-3.0687	-2.9729	-2.9771	-2.8417	39.545	-98.871	-161.999	93.666	-74.025	-70.812	150.745	115.728	-14.405	-102.443	167.294	101.458	-101.295	165.124	-126.306	123.723	0.0014242	0.00064218	9.2127e-05	1405.7	5.2562e-06	5.1908e-06	1396.3	377.21	9.2007e-06	4.9202e-06	424.3	141.15	122.52	42.036	5.2557e-06	51.896	0.00088114	0.00084088	0.00024769	1433.3	9.3252e-06	9.4408e-06	1423.5	385.59	9.3837e-06	9.5087e-06	435.72	144.46	125.39	43.305	9.2931e-06	53.857	2.875	-83.130	-96.007	-165.002	-32.070	-15.107	-165.034	-160.544	-52.253	-43.634	-160.769	-156.789	-156.331	-151.401	-42.220	-152.597	-8191	255	
18083.234	1	1	0	0	0.19146	0.026803	0.094023	0.13098	0.25272	0.2061	0.044765	0.19226	0.15739	0.22455	0.12631	0.21315	0.28732	0.14431	0.128	0.22202	-2.3604	-2.7604	-2.6958	-3.1833	-2.9917	-2.7438	-3.1063	-2.8542	-2.7875	-2.8167	-2.9021	-3.0438	-3.0875	-2.8958	-3.0604	-2.9292	-27.307	3.080	-29.815	-112.711	6.365	45.410	72.851	141.631	30.631	158.091	-113.779	120.336	-168.209	72.082	78.856	132.624	0.0013076	0.00064105	0.00012419	1402.8	4.7449e-06	5.6069e-06	1395	377.71	8.1375e-06	5.9906e-06	424.36	141.43	122.12	41.957	6.4115e-06	52.069	0.00088329	0.0008563	0.00025119	1431.4	9.2625e-06	9.5735e-06	1423.6	385.69	9.1723e-06	9.8071e-06	435.41	144.8	125.12	43.329	9.482e-06	53.914	0.121	-84.731	-69.830	-164.940	-46.965	-12.151	-165.422	-160.676	-37.943	-42.006	-160.858	-156.613	-156.243	-151.366	-35.297	-152.256	-8191	255	
18083.330	1	1	0	0	0.083087	0.12204	0.028285	0.48764	0.040483	0.12711	0.34128	0.22332	0.29499	0.083644	0.14546	0.18354	0.13842	0.14813	0.054351	0.20515	-2.2146	-3.0312	-2.8021	-2.9979	-2.9583	-2.7521	-3.3271	-3.1604	-2.7979	-3.0458	-2.9646	-3.0083	-3.2729	-2.7292	-3.0146	-2.9208	-21.270	8.281	-4.747	171.472	63.621	-26.576	125.598	172.173	124.045	-87.639	158.536	130.721	-174.804	-111.787	-138.620	124.030	0.0014044	0.00071171	0.00015934	1398.7	6.5013e-06	4.1244e-06	1393.1	375.69	1.1626e-05	4.6606e-06	426.7	141	122.48	41.939	6.8907e-06	51.855	0.0008647	0.00084577	0.00025117	1428.5	9.332e-06	9.6964e-06	1421.3	385.22	8.9884e-06	9.4922e-06	435.97	144.39	125.35	43.356	9.4933e-06	53.854	1.679	-90.596	-88.271	-164.881	-44.754	-30.128	-165.207	-160.365	-42.707	-21.441	-161.039	-156.753	-155.971	-151.736	-6.800	-152.283	-8191	255	
18083.428	1	1	0	0	0.08366	0.10606	0.22895	0.35857	0.26199	0.095722	0.17789	0.3574	0.23655	0.28076	0.26716	0.2359	0.19307	0.22459	0.064484	0.15683	-2.2021	-3.1521	-3.0396	-3.1104	-3.0062	-2.95	-3.1979	-3.1396	-2.7417	-2.9771	-3.0958	-3.0625	-3.1542	-2.7771	-2.8604	-3.1479	-145.727	-93.879	-21.320	125.766	15.105	158.489	75.651	120.568	12.480	-46.786	163.854	56.508	132.933	175.871	-107.697	-168.420	0.0013471	0.00055903	0.00015087	1402.3	6.1784e-06	5.9708e-06	1390.8	377.03	1.0504e-05	7.4824e-06	425.4	141.36	122.7	41.853	5.2253e-06	51.963	0.00086467	0.00085804	0.00024905	1429.8	9.1363e-06	9.7781e-06	1420.3	385.12	9.2949e-06	9.7539e-06	435.78	144.63	125.26	43.289	9.2896e-06	53.801	1.600	-107.649	-70.522	-164.733	-26.220	-12.943	-165.168	-160.600	-40.764	-22.142	-160.609	-156.799	-156.227	-151.465	-28.924	-152.396	-8191	255	
18083.547	1	1	0	0	0.30859	0.14499	0.14513	0.18151	0.42865	0.11309	0.087087	0.17671	0.095252	0.2412	0.25391	0.17775	0.099096	0.15961	0.12512	0.07496	-2.3833	-2.8542	-2.9	-3.0854	-3.1521	-2.6792	-3.1125	-3.2708	-2.7167	-3.0438	-3.0521	-2.7417	-3.2812	-2.9896	-2.9458	-3.1604	179.931	-20.080	-18.964	101.406	-55.262	144.181	-147.749	110.475	146.858	-48.072	155.249	-151.231	-172.835	163.008	99.574	31.788	0.0014288	0.00073189	0.00015666	1402.5	5.2948e-06	7.0153e-06	1394	376.17	9.9995e-06	4.5505e-06	424.4	141.23	122.72	41.749	5.1424e-06	51.77	0.00086761	0.00085568	0.00024184	1428.1	9.2058e-06	9.6777e-06	1421.4	385.06	9.2336e-06	9.9285e-06	435.44	144.43	125.37	43.249	9.4515e-06	53.822	1.381	-87.974	-85.444	-164.893	-58.247	-22.348	-165.296	-160.277	-49.985	-53.779	-160.627	-156.811	-156.166	-151.349	-28.241	-152.481	-8191	255	
18083.643	1	1	0	0	0.16278	0.060668	0.026119	0.31796	0.078583	0.088178	0.067345	0.26238	0.30914	0.13135	0.32992	0.16412	0.056807	0.28216	0.11105	0.18918	-2.2604	-2.8604	-2.7271	-2.9646	-3.1396	-2.8646	-3.3042	-3.1521	-2.6542	-2.9146	-3.1021	-2.8958	-3.0438	-2.9479	-2.8375	-3.0625	156.786	-103.294	-116.514	153.902	-138.643	-142.213	-172.035	69.914	-2.771	147.911	176.845	43.021	1.012	136.501	138.839	-113.546	0.0013598	0.00059988	0.0001193	1395.9	6.915e-06	4.96e-06	1387.5	375.67	1.1903e-05	6.9478e-06	424.73	141.22	122.77	41.898	4.1458e-06	51.833	0.00086222	0.00088659	0.00024754	1425.9	9.1338e-06	9.5838e-06	1418.1	385.17	9.3862e-06	9.8344e-06	435.04	144.34	125.19	43.305	9.3005e-06	53.825	0.123	-90.132	-70.554	-164.966	-56.541	-28.207	-165.077	-160.611	-49.114	-32.331	-160.946	-156.669	-156.409	-151.300	-27.064	-152.138	-8191	255	
18083.717	1	1	0	0	0.13303	0.062786	0.18231	0.406	0.19457	0.036339	0.20733	0.1567	0.20812	0.072207	0.17916	0.030233	0.34668	0.076407	0.10023	0.19205	-2.3937	-2.9646	-2.9458	-2.8479	-3.0104	-2.8333	-3.0187	-3.2583	-2.8604	-2.8646	-2.9229	-2.7021	-2.9	-2.6667	-2.7521	-3.1646	143.026	-115.218	-59.327	145.676	177.086	-112.792	66.556	120.881	59.368	97.393	147.071	-14.196	137.206	-91.100	-146.737	123.825	0.0013413	0.00074178	0.00011192	1400.6	3.774e-06	4.6296e-06	1387.7	376.78	1.2753e-05	5.7391e-06	423.8	141.84	122.45	42.002	8.9823e-06	51.989	0.00085837	0.00085634	0.00024116	1427.1	9.1664e-06	9.6604e-06	1417.9	385.46	9.3932e-06	9.8259e-06	434.47	144.45	125.16	43.263	9.2817e-06	53.872	0.485	-98.157	-75.314	-165.031	-49.346	-17.841	-165.283	-160.479	-30.973	-28.750	-160.763	-156.664	-156.107	-151.384	-24.873	-152.388	-8191	255	
18083.836	1	1	0	0	0.32026	0.1492	0.1617	0.073899	0.21864	0.12412	0.20703	0.25866	0.080296	0.32576	0.18889	0.31233	0.07664	0.15479	0.20598	0.032428	-2.1521	-2.8333	-3.0708	-2.8958	-2.9542	-2.925	-3.0375	-3.1604	-2.7542	-2.9917	-3.2354	-3.0125	-3.0812	-3.0042	-2.7562	-3.2562	94.231	-137.667	3.471	170.269	-125.476	0.588	121.083	133.383	-74.471	-84.625	107.919	87.603	127.744	165.180	90.750	-161.989	0.0013406	0.0004901	0.00011367	1394	5.6051e-06	5.3784e-06	1387	376.29	1.2763e-05	5.5832e-06	425.14	140.72	122.3	41.774	5.3117e-06	52.066	0.00085609	0.00088804	0.00023506	1423.9	9.3744e-06	9.6599e-06	1417.2	384.99	9.3924e-06	9.3962e-06	435.3	144.29	125.2	43.225	9.3649e-06	53.769	0.482	-73.732	-96.005	-164.967	-47.359	-8.520	-165.560	-160.453	-31.391	-30.718	-160.882	-156.645	-156.003	-151.130	-39.026	-152.499	-8191	255	
18083.932	1	1	0	0	0.21752	0.19587	0.094151	0.21159	0.1202	0.054193	0.22739	0.1882	0.078677	0.2011	0.2052	0.077272	0.27366	0.098321	0.12405	0.17902	-2.4021	-2.7896	-3.0729	-2.8625	-3.0146	-3.1	-2.9229	-3.2354	-2.8479	-2.85	-3.1458	-2.7021	-3	-3.0771	-2.6688	-3.0438	11.244	120.934	18.339	94.567	51.188	3.565	137.385	161.326	-167.293	-99.153	158.343	106.747	161.645	-9.701	172.174	-66.737	0.0013385	0.00057762	0.00019011	1400.1	4.8307e-06	5.283e-06	1385.5	377.21	1.1725e-05	7.529e-06	424.82	140.85	121.91	41.867	7.655e-06	51.887	0.00087515	0.00088311	0.00024155	1426.3	9.4417e-06	9.5287e-06	1417.1	385.28	9.3804e-06	9.7816e-06	435.26	144.16	125.06	43.31	9.3566e-06	53.853	-2.651	-66.623	-71.065	-165.065	-32.095	-11.193	-165.260	-160.487	-48.637	-52.313	-160.779	-156.608	-156.063	-151.388	-28.035	-152.327	-8191	255	
18084.027	1	1	0	0	0.20741	0.048716	0.23833	0.29835	0.11919	0.14346	0.38701	0.267	0.093514	0.26622	0.078529	0.27416	0.11159	0.1035	0.13572	0.12385	-2.2521	-2.8396	-2.9875	-2.8604	-3.0042	-2.9625	-2.9042	-3.2646	-2.8208	-2.8312	-3.2333	-2.95	-3.0438	-2.9396	-2.7521	-3.0479	-45.356	14.274	-69.703	111.953	-67.902	27.359	74.265	122.402	171.584	-64.277	126.965	89.083	-46.835	-113.241	168.613	50.014	0.0014061	0.00061775	0.00013851	1400.9	4.8805e-06	5.2905e-06	1390	376.05	1.1109e-05	5.0328e-06	424.17	140.18	122.12	41.964	5.6459e-06	52.174	0.00086154	0.00087855	0.00023906	1426.7	9.4938e-06	9.3764e-06	1418.5	385.38	9.359e-06	9.5619e-06	435.37	144.04	125.07	43.295	9.189e-06	53.909	-3.836	-94.836	-97.333	-165.000	-29.794	-23.001	-165.014	-160.407	-41.887	-4.835	-160.749	-156.783	-156.258	-151.500	-15.765	-152.236	-8191	255	
18084.148	1	1	0	0	0.25677	0.18261	0.15748	0.38086	0.035448	0.10766	0.31367	0.29149	0.10302	0.032669	0.18024	0.13684	0.16365	0.20934	0.08533	0.21457	-2.3604	-2.6396	-3.0917	-2.6625	-2.8896	-3.0583	-2.9729	-3.2229	-2.8583	-2.7771	-3.1333	-2.8292	-2.8937	-3.0812	-2.8229	-3.1063	-139.967	-72.829	-44.735	160.631	-122.063	-89.063	128.466	158.761	90.085	94.367	171.658	139.983	-109.851	-107.188	-90.675	81.733	0.0014745	0.0004653	0.0001047	1399.3	3.7844e-06	4.1413e-06	1393.7	377.85	1.4418e-05	2.7746e-06	424	141.2	122.5	41.893	5.7963e-06	51.782	0.00088257	0.00084946	0.00023045	1425.9	9.3947e-06	9.3077e-06	1419.5	385.73	9.3792e-06	9.4499e-06	434.93	144.4	125.18	43.303	9.3762e-06	53.866	-0.119	-82.181	-69.522	-164.800	-33.015	-56.344	-165.240	-160.235	-44.115	-44.586	-160.724	-156.708	-156.127	-151.148	-24.946	-152.291	-8191	255	
18084.244	1	1	0	0	0.20929	0.067817	0.32564	0.21748	0.13244	0.13382	0.17752	0.16469	0.17242	0.02859	0.031481	0.027416	0.17932	0.19966	0.17368	0.033913	-2.4833	-2.5563	-3.1375	-3.1188	-2.9958	-3.0854	-3.1083	-3.0583	-3.0146	-2.7333	-3.0521	-2.8792	-3.0521	-3.1479	-2.8187	-3.1083	14.145	-4.439	152.037	116.571	-140.264	122.681	147.158	-161.411	-153.167	13.724	-151.218	-74.819	61.429	176.688	19.696	-22.243	0.0014373	0.00033542	0.00011803	1395.7	6.071e-06	6.7501e-06	1388.8	377.52	1.32e-05	6.6485e-06	424.01	141.26	123.08	41.835	6.9778e-06	52.212	0.00086783	0.00086019	0.00024455	1425.6	9.3718e-06	9.2731e-06	1418.8	385.36	9.0694e-06	9.6993e-06	434.65	144.23	125.35	43.245	9.586e-06	53.816	0.563	-110.884	-99.490	-164.885	-46.453	-25.644	-165.335	-160.279	-33.106	-68.687	-160.915	-156.933	-156.180	-151.602	-27.366	-152.200	-8191	255	
18084.338	1	1	0	0	0.18162	0.32194	0.19554	0.3976	0.076301	0.11961	0.29181	0.22089	0.14909	0.23427	0.086483	0.23979	0.22965	0.36149	0.31906	0.12705	-2.5438	-2.6917	-2.9771	-2.9542	-2.7896	-3.0208	-2.9771	-3.2229	-3.0625	-2.9083	-3.3229	-3.0938	-2.85	-3.2188	-2.8875	-2.9479	55.688	-98.928	-22.376	159.265	-152.303	-135.702	94.150	118.571	-104.653	16.456	-83.705	68.299	141.650	-175.579	30.286	76.248	0.0013288	0.00048637	0.00010015	1399.1	5.5318e-06	4.7281e-06	1388.2	377.16	1.0326e-05	5.4355e-06	424.91	141.25	122.85	42.041	5.556e-06	51.912	0.0008631	0.00086674	0.00024752	1426	9.3684e-06	9.3096e-06	1417.5	385.45	9.0657e-06	9.5459e-06	434.93	144.53	125.31	43.37	9.4837e-06	53.806	0.198	-103.367	-92.065	-164.937	-83.186	-9.265	-165.230	-160.292	-37.040	-33.570	-160.960	-156.835	-156.256	-151.393	-52.774	-152.038	-8191	255	
18084.412	1	1	0	0	0.066988	0.27765	0.20287	0.23664	0.24341	0.1946	0.25631	0.18285	0.13776	0.18869	0.19487	0.18337	0.30615	0.10763	0.02394	0.19662	-2.6146	-2.5938	-2.8646	-3.125	-2.8104	-3.1875	-2.7833	-3.025	-3.0333	-2.8646	-3.0312	-3.0292	-2.8229	-3.0917	-2.8104	-3.1479	-136.324	-52.815	-85.816	178.779	-98.968	-40.649	-2.715	173.755	-98.073	32.171	130.219	142.962	118.893	-160.930	-94.454	55.305	0.001416	0.00051908	0.00010071	1397.7	5.595e-06	5.6586e-06	1394.6	377.05	9.6983e-06	4.8017e-06	425.32	140.61	122.34	41.867	6.7024e-06	51.924	0.00085271	0.00086666	0.0002512	1427	9.3625e-06	9.7057e-06	1417.8	385.28	9.3479e-06	9.792e-06	435.62	144.18	125.13	43.222	9.5595e-06	53.747	-0.036	-94.723	-80.349	-164.965	-65.548	-28.000	-165.285	-160.463	-35.709	-38.566	-160.788	-156.784	-156.385	-151.288	-30.746	-152.426	-8191	255	
18084.531	1	1	0	0	0.043643	0.086516	0.45122	0.24708	0.14403	0.11737	0.14577	0.068467	0.19071	0.16601	0.16476	0.17638	0.26193	0.25517	0.14796	0.098219	-2.7042	-2.8083	-2.9958	-3.1604	-2.525	-3.0125	-3.1917	-2.9875	-3.1042	-2.7875	-3.15	-3.0125	-2.7979	-2.9604	-2.85	-2.8333	-165.800	-170.376	-34.317	125.633	34.759	104.353	-145.919	-156.362	-128.569	84.907	151.025	122.263	133.258	176.149	23.023	38.791	0.001361	0.0006288	0.00014537	1398.2	5.7139e-06	4.8256e-06	1389.4	378.01	1.226e-05	4.9145e-06	425.97	140.23	122.16	42.054	6.3217e-06	51.937	0.00084487	0.00089214	0.00024739	1425.9	9.2757e-06	9.51e-06	1419.4	385.55	9.1188e-06	9.5633e-06	435.07	144.12	125.01	43.308	9.2918e-06	53.778	-1.224	-107.024	-68.097	-164.928	-27.800	-17.971	-165.084	-160.328	-45.375	-44.613	-161.088	-156.822	-156.304	-151.573	-27.851	-152.398	-8191	255	
18084.627	1	1	0	0	0.051044	0.13563	0.065525	0.20181	0.10445	0.15234	0.27247	0.20699	0.28185	0.069033	0.11845	0.34505	0.16692	0.17254	0.28257	0.15323	-2.6896	-2.7708	-2.8896	-3.0938	-2.7354	-2.9375	-3.1875	-2.8333	-3.2208	-3.0229	-3.1208	-3.0312	-2.6688	-3.0854	-2.9188	-2.8208	-95.466	18.259	57.188	-166.485	-10.648	37.894	76.031	90.783	-142.430	124.022	159.681	117.802	128.131	118.857	-79.521	92.300	0.0013864	0.00075141	0.00010697	1402.7	6.0535e-06	5.8389e-06	1386.5	377.89	1.3864e-05	5.0137e-06	422.72	141.41	122.16	42.039	4.2183e-06	51.919	0.00086233	0.00089757	0.00024378	1426.4	9.2265e-06	9.8239e-06	1418.2	385.53	9.1192e-06	9.8692e-06	435.06	144.36	125.04	43.346	9.5856e-06	53.749	-0.865	-85.213	-90.434	-164.792	-54.169	3.824	-165.066	-160.461	-33.436	-60.748	-160.360	-156.688	-155.997	-151.202	-33.985	-152.171	-8191	255	
18084.723	1	1	0	0	0.15034	0.23911	0.29619	0.14571	0.27949	0.065169	0.12553	0.078132	0.073479	0.26421	0.31957	0.18565	0.27837	0.46064	0.25757	0.16815	-2.6479	-2.8542	-2.825	-3.1167	-2.6562	-2.9271	-3.3375	-2.8604	-3.0625	-2.9104	-2.9562	-3.1125	-2.8854	-3.0854	-2.9229	-2.7604	-87.166	129.295	17.342	98.450	3.966	-162.030	146.879	124.464	-89.283	37.224	123.077	-163.168	178.695	137.123	-47.613	-39.768	0.0013384	0.00056476	0.00014613	1397.3	7.036e-06	7.2156e-06	1388.8	376.51	9.007e-06	4.1747e-06	424.64	140.49	121.55	42.016	4.5836e-06	51.995	0.00086475	0.00087801	0.00024606	1425.7	9.3977e-06	9.8118e-06	1419.3	385.42	9.2895e-06	9.7816e-06	434.92	144.14	124.76	43.335	9.3022e-06	53.88	-0.767	-113.033	-72.811	-164.842	-73.146	-47.298	-165.285	-160.423	-34.045	-38.082	-160.777	-156.724	-156.192	-151.234	-48.281	-152.468	-8191	255	
18084.818	1	1	0	0	0.068636	0.062273	0.3397	0.17601	0.13284	0.091723	0.15602	0.19326	0.17179	0.25775	0.095357	0.15736	0.28081	0.16601	0.069761	0.30723	-2.5563	-2.8729	-2.7979	-3.2812	-2.8979	-2.8396	-3.1521	-2.8937	-3.1729	-2.9229	-2.9	-3.1604	-2.6708	-3	-2.875	-2.8625	9.798	133.835	-45.809	136.137	144.374	-115.400	99.949	86.375	73.694	38.089	167.313	139.575	144.759	-159.385	69.840	175.071	0.0014425	0.00067266	0.00010833	1400.8	5.1005e-06	4.5296e-06	1391.5	376.25	1.1264e-05	7.6551e-06	424.91	140.98	121.96	41.917	5.0314e-06	51.935	0.00087941	0.00087727	0.00025017	1427.6	9.202e-06	9.7594e-06	1418.9	385.08	9.229e-06	9.9732e-06	434.84	144.07	125.25	43.256	8.8439e-06	53.812	1.430	-82.047	-116.990	-164.792	-49.432	-14.368	-165.317	-160.442	-37.228	-38.213	-160.543	-156.731	-156.219	-151.304	-20.380	-152.445	-8191	255	
18084.939	1	1	0	0	0.22667	0.33487	0.17149	0.32821	0.085737	0.068015	0.27394	0.21925	0.32186	0.15687	0.05493	0.23869	0.23271	0.3112	0.17502	0.18646	-2.3812	-2.9437	-2.7104	-3.1021	-2.6229	-2.8229	-3.1479	-2.8563	-3.0667	-2.9188	-3.0396	-2.9771	-2.8563	-2.9125	-3.1333	-2.9125	-30.793	48.272	156.465	147.791	17.981	20.119	89.424	119.353	-43.220	-111.364	93.118	82.197	124.636	95.879	-154.948	144.538	0.0014348	0.00067716	0.00012033	1397.8	5.3999e-06	5.8626e-06	1391	375.58	1.5138e-05	7.5858e-06	421.81	141.17	122.12	42.024	7.0093e-06	51.829	0.00087336	0.00086786	0.00023675	1424.5	9.6361e-06	9.4619e-06	1417.1	384.63	9.5392e-06	9.9087e-06	434.01	144.41	124.96	43.34	9.1507e-06	53.704	-1.204	-110.746	-57.236	-164.934	-44.246	-25.627	-165.339	-160.443	-49.471	-47.836	-160.770	-156.692	-156.538	-151.410	-20.986	-152.367	-8191	255	
18085.012	1	1	0	0	0.32329	0.11773	0.16927	0.18806	0.045418	0.22139	0.29166	0.22272	0.19502	0.24354	0.17983	0.088867	0.093714	0.29062	0.12813	0.3373	-2.5687	-3.0104	-2.7208	-3.1458	-2.975	-2.8187	-3.4667	-3.0167	-3.1562	-2.9562	-2.8688	-3.2812	-2.9	-2.8375	-3.1167	-2.9875	-155.533	38.020	-48.642	91.843	169.182	-170.278	159.680	141.892	102.516	-30.419	87.526	122.378	101.109	168.081	34.795	138.692	0.0013546	0.00072831	0.00016607	1396.9	3.5754e-06	6.7197e-06	1389	375.69	1.4162e-05	6.6294e-06	426.01	140.62	122.33	41.729	5.2099e-06	52.043	0.00087911	0.00086823	0.00023897	1426.6	9.0944e-06	9.802e-06	1418.9	384.91	9.2344e-06	9.5694e-06	434.88	144.05	125.2	43.26	9.1438e-06	53.885	-1.157	-85.098	-63.368	-164.875	-23.566	-39.521	-165.255	-160.500	-28.502	-32.189	-160.888	-156.808	-156.119	-151.450	-21.595	-152.272	-8191	255	
18085.107	1	1	0	0	0.21425	0.28445	0.014253	0.41507	0.16104	0.31298	0.27809	0.29974	0.1075	0.09805	0.25521	0.080751	0.37203	0.15682	0.25213	0.21086	-2.6979	-2.975	-2.5521	-3.1021	-2.9104	-2.8521	-3.3	-3.0292	-2.9417	-2.9625	-2.8417	-3.1354	-2.8937	-2.6979	-2.9854	-2.8729	-111.966	137.561	-55.652	55.965	175.450	177.313	107.078	163.864	101.115	116.331	-153.299	129.683	143.711	150.521	117.444	180.837	0.001425	0.00075757	9.7115e-05	1395.6	5.2785e-06	4.1111e-06	1389.7	375.84	1.2137e-05	6.9309e-06	423.91	140.95	122.69	41.848	8.3747e-06	52.028	0.0008851	0.00084801	0.00023939	1422.7	9.2295e-06	9.5226e-06	1415.8	384.71	9.2788e-06	9.3209e-06	433.81	144.16	125.13	43.252	9.1529e-06	53.809	-3.049	-74.164	-52.396	-165.017	-57.770	-11.696	-165.140	-160.388	-33.830	-25.701	-161.221	-156.703	-156.111	-151.224	-34.254	-152.427	-8191	255	
18085.229	1	1	0	0	0.31666	0.13258	0.1412	0.1769	0.15139	0.21518	0.30455	0.20436	0.17705	0.22036	0.20134	0.13055	0.34778	0.18567	0.23396	0.24917	-2.4375	-2.8479	-2.7167	-3.1771	-2.8958	-2.6271	-3.3167	-2.8604	-2.8333	-3.1813	-2.7938	-3.1792	-2.9854	-2.8854	-2.9938	-3.0062	-166.349	58.010	87.604	-176.706	-78.428	7.248	118.902	-146.400	-4.765	-132.754	-167.036	58.720	-125.550	-125.400	116.420	70.726	0.0013485	0.00069985	0.00013387	1394.4	2.8509e-06	3.8155e-06	1383.2	375.44	1.2084e-05	4.5265e-06	423.85	140.21	121.94	41.721	7.1913e-06	51.952	0.00084658	0.00083143	0.00024146	1420.2	9.0571e-06	9.0797e-06	1411.7	383.79	9.2064e-06	9.1096e-06	433.95	143.83	124.78	43.207	8.7098e-06	53.733	1.191	-95.160	-84.011	-165.071	-65.535	2.635	-165.183	-160.485	-45.891	-49.904	-160.883	-156.674	-156.000	-151.122	-30.895	-152.490	-8191	255	
18085.324	1	1	0	0	0.10969	0.20954	0.14074	0.19794	0.17612	0.057068	0.38036	0.17772	0.19642	0.37081	0.099883	0.31	0.068089	0.12031	0.11843	0.19231	-2.3792	-2.9875	-2.7479	-3.2104	-2.7375	-2.6625	-3.3333	-2.8625	-2.9562	-2.9042	-2.9542	-3.2104	-2.8583	-2.7104	-3.0583	-2.9021	-4.567	-92.391	164.440	-173.427	36.878	7.690	83.494	140.232	-167.199	-47.014	102.227	78.652	-20.527	159.537	84.908	28.305	0.0014229	0.00044559	0.00010312	1393.6	5.0213e-06	7.5668e-06	1381.9	375.28	1.1714e-05	6.8749e-06	422.56	140.93	122.3	41.923	4.2481e-06	51.645	0.00082521	0.0007788	0.00022857	1417	8.5866e-06	8.8526e-06	1410	383.79	8.579e-06	8.7519e-06	432.65	143.94	124.71	43.271	8.9997e-06	53.607	-1.486	-102.181	-100.855	-164.942	-50.343	-21.312	-165.319	-160.540	-36.833	-34.705	-160.644	-156.778	-155.959	-151.505	-35.100	-152.577	-8191	255	
18085.420	1	1	0	0	0.11638	0.20497	0.1083	0.20038	0.13934	0.38447	0.25731	0.31933	0.021548	0.13834	0.25723	0.29735	0.21711	0.26473	0.17146	0.36123	-2.3875	-2.9833	-2.6396	-2.9729	-3.0583	-2.7687	-3.2625	-3.0792	-2.9229	-3.0625	-2.8438	-3.0583	-2.9792	-2.9104	-2.9104	-2.9375	115.768	-147.167	-63.236	-162.531	-22.013	58.678	171.314	160.071	7.671	179.615	147.496	134.337	96.858	148.390	-121.408	171.283	0.0013811	0.00083669	0.0001573	1385.2	5.8622e-06	4.6089e-06	1387.3	373.99	1.5332e-05	6.0466e-06	421.26	139.84	121.72	41.926	6.8233e-06	51.688	0.00081448	0.00077391	0.00022586	1414.9	8.4739e-06	8.8288e-06	1409.7	382.56	8.4466e-06	8.9209e-06	432.48	143.61	124.58	43.175	9.1425e-06	53.576	2.441	-97.364	-97.989	-164.911	-65.085	-2.439	-165.176	-160.442	-38.067	-46.792	-160.839	-156.908	-156.147	-151.312	-43.192	-152.259	-8191	255	
#DATA ENDS
