BOXY.EXE: ISS Imagent and Oximeter Data Acquisition Program Version 0.80
Ascii Record File

#ACQ INFORMATION
2  Detector Channels 
16  External MUX Channels 
1  Auxiliary Channels 
5000  Waveform (CCF) Frequency (Hz)
1  Waveforms Skipped 
30  Waveforms Averaged 
1  Cycles Averaged 
16  Acquisitions per Waveform 
10.0806  Updata Rate (Hz) 

#FILE INFORMATION
TRUE -- External MUX Channel results are PARSED.
FALSE -- AC DC and Phase are NOT grouped.
TRUE -- Companion Program Settings File CREATED.
FALSE -- AC data not excluded
FALSE -- DC data not excluded
FALSE -- Phase data not excluded
FALSE -- Auxillary Chn. data not excluded
Tab delimiters

#CALIBRATION STATE
TRUE -- Waveform Calibration Values APPLIED.


#AUX CALIBRATION VALUES
Val Type	aux-1	

Term	1.0000e+00	
Factor	0.0000e+00	


#WF CALIBRATION VALUES
A = Detector Channel
Val Type	A-AC1	A-AC2	A-AC3	A-AC4	A-AC5	A-AC6	A-AC7	A-AC8	A-AC9	A-AC10	A-AC11	A-AC12	A-AC13	A-AC14	A-AC15	A-AC16	A-DC1	A-DC2	A-DC3	A-DC4	A-DC5	A-DC6	A-DC7	A-DC8	A-DC9	A-DC10	A-DC11	A-DC12	A-DC13	A-DC14	A-DC15	A-DC16	A-Ph1	A-Ph2	A-Ph3	A-Ph4	A-Ph5	A-Ph6	A-Ph7	A-Ph8	A-Ph9	A-Ph10	A-Ph11	A-Ph12	A-Ph13	A-Ph14	A-Ph15	A-Ph16	

Term	0.00000e+00	0.00000e+00	0.00000e+00	0.00000e+00	0.00000e+00	0.00000e+00	0.00000e+00	0.00000e+00	0.00000e+00	0.00000e+00	0.00000e+00	0.00000e+00	0.00000e+00	0.00000e+00	0.00000e+00	0.00000e+00	0.00000e+00	0.00000e+00	0.00000e+00	0.00000e+00	0.00000e+00	0.00000e+00	0.00000e+00	0.00000e+00	0.00000e+00	0.00000e+00	0.00000e+00	0.00000e+00	0.00000e+00	0.00000e+00	0.00000e+00	0.00000e+00	0.00000e+00	0.00000e+00	0.00000e+00	0.00000e+00	0.00000e+00	0.00000e+00	0.00000e+00	0.00000e+00	0.00000e+00	0.00000e+00	0.00000e+00	0.00000e+00	0.00000e+00	0.00000e+00	0.00000e+00	0.00000e+00	
Factor	1.00000e+00	1.00000e+00	1.00000e+00	1.00000e+00	1.00000e+00	1.00000e+00	1.00000e+00	1.00000e+00	1.00000e+00	1.00000e+00	1.00000e+00	1.00000e+00	1.00000e+00	1.00000e+00	1.00000e+00	1.00000e+00	1.00000e+00	1.00000e+00	1.00000e+00	1.00000e+00	1.00000e+00	1.00000e+00	1.00000e+00	1.00000e+00	1.00000e+00	1.00000e+00	1.00000e+00	1.00000e+00	1.00000e+00	1.00000e+00	1.00000e+00	1.00000e+00	X	X	X	X	X	X	X	X	X	X	X	X	X	X	X	X	

B = Detector Channel
Val Type	B-AC1	B-AC2	B-AC3	B-AC4	B-AC5	B-AC6	B-AC7	B-AC8	B-AC9	B-AC10	B-AC11	B-AC12	B-AC13	B-AC14	B-AC15	B-AC16	B-DC1	B-DC2	B-DC3	B-DC4	B-DC5	B-DC6	B-DC7	B-DC8	B-DC9	B-DC10	B-DC11	B-DC12	B-DC13	B-DC14	B-DC15	B-DC16	B-Ph1	B-Ph2	B-Ph3	B-Ph4	B-Ph5	B-Ph6	B-Ph7	B-Ph8	B-Ph9	B-Ph10	B-Ph11	B-Ph12	B-Ph13	B-Ph14	B-Ph15	B-Ph16	

Term	0.00000e+00	0.00000e+00	0.00000e+00	0.00000e+00	0.00000e+00	0.00000e+00	0.00000e+00	0.00000e+00	0.00000e+00	0.00000e+00	0.00000e+00	0.00000e+00	0.00000e+00	0.00000e+00	0.00000e+00	0.00000e+00	0.00000e+00	0.00000e+00	0.00000e+00	0.00000e+00	0.00000e+00	0.00000e+00	0.00000e+00	0.00000e+00	0.00000e+00	0.00000e+00	0.00000e+00	0.00000e+00	0.00000e+00	0.00000e+00	0.00000e+00	0.00000e+00	5.86631e+01	-1.56400e+02	-1.26551e+02	-1.83880e+02	-1.09246e+02	-7.56946e+01	-1.56632e+02	-1.62015e+02	-4.97451e+01	-9.07007e+01	-1.74091e+02	-1.74047e+02	-1.85978e+02	-1.78374e+02	-8.62442e+01	-1.51155e+02	
Factor	5.26311e-05	1.61735e-04	4.04003e-05	1.79766e-01	1.77941e-06	1.50208e-06	1.73528e-01	5.90053e-02	1.98371e-06	1.52351e-06	1.02683e-01	2.97751e-02	5.44086e-02	8.92468e-03	1.82445e-06	1.29180e-02	1.91554e-06	2.01426e-06	5.61593e-07	8.71805e-02	2.19587e-08	2.21199e-08	7.97260e-02	2.86352e-02	2.18545e-08	2.20121e-08	4.81154e-02	1.39628e-02	2.54592e-02	4.34647e-03	2.18729e-08	6.10577e-03	X	X	X	X	X	X	X	X	X	X	X	X	X	X	X	X	



#DISTANCE SETTINGS
A = Detector Channel
A-1	A-2	A-3	A-4	A-5	A-6	A-7	A-8	A-9	A-10	A-11	A-12	A-13	A-14	A-15	A-16	

2.5000e+00	3.0000e+00	2.5000e+00	3.0000e+00	2.0000e+00	3.0000e+00	1.5000e+00	3.0000e+00	3.0000e+00	3.0000e+00	3.0000e+00	3.0000e+00	3.0000e+00	3.0000e+00	1.5000e+00	3.0000e+00	

B = Detector Channel
B-1	B-2	B-3	B-4	B-5	B-6	B-7	B-8	B-9	B-10	B-11	B-12	B-13	B-14	B-15	B-16	

1.0000e+01	1.0000e+01	1.0000e+01	1.4400e+00	1.0000e+01	1.0000e+01	1.5100e+00	1.9400e+00	1.0000e+01	1.0000e+01	1.9900e+00	2.4900e+00	2.4100e+00	2.9000e+00	1.0000e+01	2.9800e+00	




#DATA BEGINS
time	group	step	mark	flag	A-AC1	A-AC2	A-AC3	A-AC4	A-AC5	A-AC6	A-AC7	A-AC8	A-AC9	A-AC10	A-AC11	A-AC12	A-AC13	A-AC14	A-AC15	A-AC16	A-DC1	A-DC2	A-DC3	A-DC4	A-DC5	A-DC6	A-DC7	A-DC8	A-DC9	A-DC10	A-DC11	A-DC12	A-DC13	A-DC14	A-DC15	A-DC16	A-Ph1	A-Ph2	A-Ph3	A-Ph4	A-Ph5	A-Ph6	A-Ph7	A-Ph8	A-Ph9	A-Ph10	A-Ph11	A-Ph12	A-Ph13	A-Ph14	A-Ph15	A-Ph16	B-AC1	B-AC2	B-AC3	B-AC4	B-AC5	B-AC6	B-AC7	B-AC8	B-AC9	B-AC10	B-AC11	B-AC12	B-AC13	B-AC14	B-AC15	B-AC16	B-DC1	B-DC2	B-DC3	B-DC4	B-DC5	B-DC6	B-DC7	B-DC8	B-DC9	B-DC10	B-DC11	B-DC12	B-DC13	B-DC14	B-DC15	B-DC16	B-Ph1	B-Ph2	B-Ph3	B-Ph4	B-Ph5	B-Ph6	B-Ph7	B-Ph8	B-Ph9	B-Ph10	B-Ph11	B-Ph12	B-Ph13	B-Ph14	B-Ph15	B-Ph16	aux-1	digaux	

454.263	1	1	0	256	0.13093	0.23179	0.12428	0.25563	0.14526	0.17212	0.21626	0.044356	0.3192	0.11019	0.34099	0.035114	0.32903	0.20879	0.081412	0.060797	-3.2417	-3.8875	-3.4917	-3.8896	-3.8083	-3.8375	-4.1354	-4.0437	-3.7229	-3.9917	-3.5875	-3.7271	-3.9771	-3.6958	-3.9104	-3.8708	191.413	-110.450	120.758	191.960	123.000	90.594	214.606	29.476	225.688	-36.984	-87.150	-7.250	-63.672	223.356	45.155	-90.463	0.00083828	0.00050161	0.00028933	1373.5	6.3148e-07	6.541e-06	1369.8	367.18	9.0707e-06	1.0753e-05	418.3	137.58	117.91	40.7	1.5894e-05	50.828	0.00078132	0.00088797	0.00023016	1401.3	8.7763e-06	9.7512e-06	1401.3	376.54	8.8207e-06	9.597e-06	431.94	142.31	124.31	42.482	8.5137e-06	52.894	19.802	-108.266	-28.610	-106.602	171.794	-5.136	-106.784	-102.141	-38.957	66.276	-102.465	-98.101	-98.090	-92.892	-9.583	-93.929	-8191	255	
454.359	1	1	0	0	0.36149	0.33211	0.083534	0.2019	0.098322	0.19677	0.18044	0.083205	0.24414	0.25888	0.18266	0.15736	0.048644	0.088535	0.25151	0.043084	-3.1208	-4.0333	-3.6292	-3.8229	-3.8083	-3.7042	-4.0458	-3.9938	-3.575	-3.9042	-3.8125	-3.7833	-4.0437	-3.6562	-3.8792	-3.8875	96.803	237.366	84.665	173.761	-44.332	-30.653	160.068	108.744	235.161	-118.330	-60.598	-97.448	-8.959	53.763	31.001	192.548	0.00096356	0.0005288	9.6936e-05	1367	4.8728e-06	7.0831e-06	1365.7	365.32	5.6459e-06	6.6372e-06	416.61	137.54	117.87	40.737	9.2236e-06	50.767	0.00081294	0.00084865	0.00021838	1395	9.0356e-06	9.2252e-06	1395.4	374.69	9.0714e-06	9.0841e-06	430.8	141.94	124.34	42.512	8.262e-06	52.827	25.013	-30.561	-37.541	-106.620	-110.887	30.333	-106.730	-101.789	-38.678	74.126	-102.342	-98.013	-97.416	-92.582	102.710	-93.896	-8191	255	
454.455	1	1	0	0	0.19987	0.32028	0.1057	0.30973	0.064239	0.073245	0.39229	0.2139	0.12131	0.31681	0.16438	0.23911	0.15239	0.086581	0.23727	0.3883	-3.2896	-4.0458	-3.6312	-3.7917	-3.8896	-3.5687	-4.0667	-4.0771	-3.5729	-3.8438	-3.7792	-3.6188	-3.9979	-3.6229	-3.7875	-4.0542	-20.778	-89.197	-6.030	179.286	207.825	-85.000	161.438	193.540	108.067	66.334	-87.712	147.059	223.364	200.490	140.792	129.555	0.00086399	0.00051364	9.6685e-05	1370.1	4.4221e-06	6.6759e-06	1364.9	365.75	1.4663e-06	3.8058e-06	416.7	137.47	117.81	40.793	2.8828e-06	50.776	0.00083923	0.00081259	0.00021182	1396.2	9.3805e-06	8.9106e-06	1393	375.2	9.3656e-06	8.764e-06	429.96	142.12	124.55	42.396	8.045e-06	53.059	11.562	-36.708	-38.386	-106.580	-24.760	45.092	-106.701	-101.907	-87.114	26.937	-102.555	-98.101	-97.969	-92.605	-43.683	-93.693	-8191	255	
454.576	1	1	0	0	0.11021	0.21639	0.25803	0.13987	0.14846	0.21801	0.22908	0.28865	0.16418	0.10796	0.18088	0.19448	0.46845	0.27684	0.05039	0.26566	-3.125	-3.8271	-3.8063	-3.6979	-4.0521	-3.6167	-3.8854	-4.0833	-3.4521	-3.9729	-3.7833	-3.7125	-4.0854	-3.8333	-3.725	-4.0208	-16.776	201.553	135.862	28.284	199.282	115.123	178.346	151.114	200.896	160.139	160.056	152.278	162.118	188.717	-92.038	234.985	0.00063156	0.00069987	0.00013297	1370.9	8.7875e-06	8.9029e-06	1363.9	366.88	4.1996e-06	1.0009e-05	418.31	137.56	117.58	40.795	1.5396e-06	50.691	0.00085071	0.00079351	0.00020656	1400.1	9.3463e-06	8.6095e-06	1394.8	376.42	9.2498e-06	8.519e-06	430.7	142.63	124.43	42.349	8.0105e-06	53.234	29.412	-46.278	-21.075	-106.542	-60.043	48.837	-106.819	-101.781	-39.702	-22.168	-102.259	-98.144	-97.864	-92.970	189.445	-93.833	-8191	255	
454.672	1	1	0	0	0.13169	0.31535	0.26076	0.34725	0.11039	0.12988	0.32952	0.15671	0.18618	0.35227	0.34801	0.22623	0.23396	0.075508	0.093721	0.11764	-3.1896	-3.7562	-3.6229	-3.7896	-3.9333	-3.6604	-3.8854	-4.0521	-3.3396	-3.8479	-4.0792	-3.6792	-4.0375	-3.7625	-3.7396	-4.1062	129.263	127.343	113.376	234.869	-93.830	4.886	166.909	-77.685	-1.152	-85.741	200.609	-55.079	-71.782	97.442	-34.711	204.199	0.00089	0.00062882	1.4312e-05	1371.6	1.086e-05	5.6751e-06	1370.7	366.88	1.4136e-05	7.5557e-06	418.53	137.51	118.16	40.607	7.7762e-06	50.994	0.00083315	0.00077783	0.0002072	1405.1	9.2259e-06	8.6252e-06	1399.7	377.81	9.2014e-06	8.5089e-06	431.62	143.04	124.56	42.348	8.4155e-06	53.413	22.917	-55.020	212.116	-106.374	-8.248	25.540	-106.605	-101.868	19.263	-1.965	-102.473	-98.137	-97.676	-92.749	5.117	-93.652	-8191	255	
454.766	1	1	0	0	0.12042	0.16112	0.10223	0.20624	0.064033	0.20777	0.37125	0.23043	0.32352	0.10253	0.19831	0.12935	0.10537	0.24784	0.10615	0.10211	-3.3333	-3.7812	-3.8333	-3.6208	-3.8896	-3.7625	-3.8917	-4.1687	-3.5042	-3.9167	-3.9437	-3.6125	-3.95	-4	-3.7271	-4.1562	-10.842	-83.201	152.679	206.856	-4.436	158.898	185.029	148.613	11.647	208.454	-88.445	207.408	-44.917	181.068	134.416	-59.390	0.00049628	0.00064036	6.6615e-05	1377.5	4.4584e-06	3.4334e-06	1367.9	367.13	7.587e-06	4.9104e-06	418.71	137.71	118.89	40.652	7.2753e-06	50.824	0.00081531	0.00077063	0.00021941	1411.9	9.0521e-06	8.519e-06	1403.5	378.78	8.9985e-06	8.3412e-06	432.51	143.34	124.37	42.393	8.9395e-06	53.381	27.836	-17.914	-24.346	-106.417	-4.633	-24.086	-106.751	-101.940	53.672	-0.419	-102.342	-98.149	-97.582	-92.563	-37.991	-93.928	-8191	255	
454.862	1	1	0	0	0.22631	0.14522	0.1217	0.36423	0.12701	0.093602	0.15929	0.1089	0.21946	0.18354	0.11122	0.18438	0.10714	0.19924	0.066254	0.14888	-3.1208	-3.85	-3.9771	-3.7104	-3.9083	-3.8583	-3.7562	-4.1146	-3.7167	-3.825	-4.1458	-3.4896	-3.8708	-3.7938	-3.5333	-4.1062	203.553	-70.846	23.570	228.426	-20.715	-32.132	190.861	-115.664	199.625	167.277	197.300	-47.735	6.158	162.943	-78.513	217.427	0.00058238	0.0012559	7.596e-05	1377.4	3.1829e-06	7.3811e-06	1372.1	366.55	5.7442e-06	5.2246e-06	418.01	137.75	118.4	40.787	3.8326e-07	50.89	0.00080186	0.00075856	0.00023616	1413.2	8.8526e-06	8.3712e-06	1407.3	378.43	8.8279e-06	8.334e-06	434.66	143.14	124.31	42.364	9.532e-06	53.246	20.927	-78.560	197.364	-106.410	-28.774	111.949	-106.868	-101.854	-18.319	133.165	-102.145	-97.936	-97.415	-92.807	140.055	-93.903	-8191	255	
454.958	1	1	0	0	0.20716	0.10111	0.17829	0.2783	0.10954	0.2471	0.26576	0.1843	0.058649	0.22708	0.16279	0.096781	0.14488	0.071971	0.1954	0.15683	-3.2604	-3.7042	-4.0125	-3.6833	-3.9396	-4.0792	-3.7604	-4.2271	-3.7062	-3.6604	-4.1875	-3.6958	-3.8187	-4.0229	-3.675	-4.0062	-15.014	-18.245	135.207	209.790	-95.368	122.471	175.563	193.492	-46.013	-31.239	-107.771	139.198	229.345	108.748	142.252	-108.383	0.00076747	0.00082603	5.2191e-05	1376.1	7.564e-06	2.5625e-06	1369.7	365.08	7.6395e-06	3.3266e-06	416.86	137.63	118.02	40.628	8.1258e-06	50.754	0.00078593	0.00077126	0.0002463	1409.2	8.5727e-06	8.4597e-06	1406.4	377.21	8.3694e-06	8.3921e-06	434.31	142.62	123.25	42.313	9.5472e-06	53.069	7.320	-94.011	221.541	-106.638	-81.452	-8.374	-106.752	-101.758	44.753	45.249	-102.371	-98.238	-97.640	-92.681	-6.279	-93.401	-8191	255	
455.055	1	1	0	0	0.14664	0.13695	0.079741	0.1765	0.11331	0.10842	0.064048	0.18089	0.18851	0.026368	0.089406	0.079595	0.2047	0.099674	0.28159	0.088759	-3.4625	-3.7687	-3.9208	-3.8583	-3.8104	-3.9792	-3.7104	-4.1229	-3.8521	-3.7771	-4.1062	-3.9396	-3.7917	-4.1604	-3.5646	-4.2667	230.540	-21.353	97.592	224.388	211.987	112.284	207.662	-111.715	139.585	-106.122	117.511	-83.011	134.603	-77.579	-61.511	64.448	0.00077542	0.00072316	6.3845e-05	1374.8	1.5485e-06	3.9373e-06	1368.5	366.36	7.3043e-06	6.3498e-06	420.41	137.9	117.04	40.645	1.2238e-05	50.739	0.00075181	0.00079834	0.00024493	1404.2	8.2771e-06	8.9171e-06	1405.8	376.95	8.2535e-06	9.1166e-06	434.85	142.78	123.41	42.433	9.5414e-06	53.113	27.490	34.282	-84.076	-106.603	-107.818	-11.004	-106.640	-101.854	52.107	216.255	-102.303	-98.094	-97.675	-92.635	-6.854	-93.735	-8191	255	
455.175	1	1	0	0	0.10497	0.10378	0.059824	0.2448	0.14557	0.031637	0.44644	0.16367	0.064775	0.17534	0.12061	0.15117	0.10842	0.30005	0.097501	0.18059	-3.2625	-3.6229	-4.0312	-3.8958	-3.6729	-4.0333	-3.8	-3.825	-3.9479	-3.7062	-3.9854	-3.8458	-3.7542	-4.0125	-3.5563	-3.8563	125.563	76.758	186.115	231.914	96.645	14.871	192.865	174.635	181.005	45.338	214.183	162.320	-37.341	177.116	224.760	178.966	0.00081468	0.00073229	0.00013794	1377.6	3.4843e-06	2.6431e-06	1374.4	367.53	5.3713e-06	5.8305e-06	418.72	137.81	117.74	40.875	4.0558e-06	50.763	0.00075687	0.00086269	0.00024392	1407.7	8.2955e-06	9.5113e-06	1406.8	377.38	8.3665e-06	9.6302e-06	433.49	142.44	123.82	42.648	9.2198e-06	53.114	37.343	105.206	-78.382	-106.471	-5.045	52.531	-106.683	-102.089	-5.737	40.227	-102.256	-98.033	-97.606	-92.949	115.049	-93.723	-8191	255	
455.271	1	1	0	0	0.11199	0.12733	0.14201	0.12776	0.16052	0.12224	0.2484	0.16295	0.068495	0.37568	0.10364	0.097151	0.13985	0.21686	0.23848	0.38499	-3.5083	-3.7375	-4.0312	-3.9521	-3.7229	-4.0542	-3.7375	-4.0021	-3.9854	-3.6292	-4.0083	-3.9625	-3.5125	-4.0125	-3.3958	-3.8312	-66.518	112.908	211.496	-116.752	166.358	75.024	124.269	-113.533	83.369	52.186	161.454	36.329	225.424	30.120	142.210	206.769	0.00090331	0.0010352	0.00021478	1376.1	1.8342e-06	3.517e-06	1366.7	367.32	5.0311e-06	8.121e-06	418.62	137.86	117.49	40.827	7.625e-06	51.053	0.00077675	0.0008949	0.00023473	1408.9	8.6536e-06	9.8511e-06	1405.9	376.91	8.7294e-06	9.7795e-06	432.93	142.52	124.28	42.552	8.9031e-06	53.007	17.847	-21.137	-29.588	-106.386	-71.483	-54.470	-106.799	-101.940	-38.789	14.215	-102.293	-98.070	-97.763	-92.959	-16.015	-93.759	-8191	255	
455.368	1	1	0	0	0.092544	0.19962	0.042126	0.15623	0.20962	0.092087	0.18956	0.21873	0.1838	0.070167	0.1944	0.49389	0.10308	0.1453	0.16989	0.066071	-3.3396	-3.5375	-4.0188	-3.9313	-3.5812	-3.9229	-3.8792	-3.825	-3.8646	-3.6958	-4.0896	-3.9229	-3.5687	-3.9125	-3.7333	-3.9562	-19.752	202.941	208.221	-82.965	-65.331	57.508	14.803	203.196	124.238	165.007	185.976	185.969	69.064	-96.569	229.583	156.532	0.00085267	0.00044713	0.00016552	1375.8	6.5314e-06	1.9641e-06	1374.4	366.16	6.0945e-06	7.3308e-06	418.74	137.63	118.56	40.57	6.0091e-06	50.511	0.00081048	0.00088419	0.00022426	1405.4	9.0548e-06	9.5873e-06	1403.3	375.99	9.1053e-06	9.3728e-06	432.01	142.14	124.88	42.439	8.6226e-06	52.872	14.415	-58.442	37.007	-106.414	154.308	11.930	-106.619	-101.789	-22.941	-16.409	-102.441	-98.094	-97.371	-93.048	195.697	-93.752	-8191	255	
455.464	1	1	0	0	0.057427	0.10071	0.13155	0.12242	0.23516	0.16445	0.25296	0.12625	0.12127	0.31417	0.030224	0.15381	0.16616	0.11363	0.039047	0.25711	-3.4458	-3.4979	-3.8458	-4.025	-3.5667	-4.0479	-3.8917	-3.9417	-3.8354	-3.5521	-4.1458	-4.0542	-3.6417	-4.0771	-3.6979	-3.7146	-96.666	208.877	136.525	138.506	54.336	-29.976	155.010	211.911	47.261	81.344	219.297	230.205	136.037	140.373	53.766	-76.804	0.00063907	0.0012795	0.00021062	1377.8	7.0596e-06	1.0999e-05	1373.8	366.98	5.5279e-06	1.6288e-06	418.41	137.76	117.85	40.66	1.0562e-05	50.729	0.00085798	0.00085877	0.00021921	1408	9.5858e-06	9.2809e-06	1405.9	376.91	9.5799e-06	9.2006e-06	432.75	142.75	125.14	42.427	8.4728e-06	53.08	3.351	-64.375	-32.141	-106.552	78.301	37.687	-106.719	-101.848	-47.756	25.483	-102.315	-97.956	-97.953	-92.843	-31.610	-93.697	-8191	255	
455.535	1	1	0	0	0.22457	0.16899	0.14567	0.21635	0.093922	0.064764	0.19593	0.066485	0.18846	0.19657	0.24197	0.19361	0.29408	0.32898	0.12769	0.20762	-3.6063	-3.7021	-3.7562	-4.1188	-3.6208	-4.0479	-3.9	-3.7083	-4.0125	-3.7167	-3.8563	-4.0292	-3.4562	-3.9396	-3.8	-3.5396	173.925	98.598	-17.012	194.873	-69.739	168.495	208.989	202.432	22.880	4.353	-76.825	159.731	233.460	200.855	122.722	194.746	0.00083463	0.00062859	0.00024556	1379.7	5.4526e-06	3.6416e-06	1372	366.11	3.9384e-06	3.6673e-06	420.47	137.89	117.79	40.765	6.2767e-06	50.832	0.00087614	0.00082658	0.0002143	1408.2	9.6759e-06	8.8661e-06	1402.4	376.83	9.5744e-06	8.7647e-06	431.83	143	124.97	42.413	8.2455e-06	53.291	9.164	-49.561	-41.462	-106.560	32.471	-14.308	-106.907	-101.820	-8.927	-35.334	-102.544	-98.155	-97.860	-92.807	-6.221	-94.025	-8191	255	
455.654	1	1	0	0	0.26528	0.24649	0.18584	0.22828	0.22902	0.059852	0.20519	0.055659	0.032266	0.20794	0.068839	0.16227	0.20852	0.1315	0.12711	0.13726	-3.6896	-3.5583	-3.8563	-4.1062	-3.6375	-3.8646	-4.0833	-3.8125	-3.8583	-3.6333	-3.8021	-3.8729	-3.4917	-4.0146	-3.8	-3.7542	-93.642	95.553	-33.168	211.346	33.639	-101.106	219.510	202.956	78.212	32.880	120.788	30.151	-31.779	148.351	-60.405	150.222	0.00068529	0.00053981	0.00018504	1382.8	5.0676e-06	2.7265e-06	1374.3	366.91	8.5873e-06	7.8418e-06	418.91	137.68	118.34	40.648	9.0765e-06	50.882	0.00086073	0.00080583	0.00021008	1412.7	9.5414e-06	8.7181e-06	1403.9	378.3	9.3108e-06	8.6598e-06	431.67	143.26	124.84	42.352	8.2862e-06	53.382	32.229	-39.646	-50.961	-106.415	-43.926	-31.737	-106.647	-101.878	16.853	41.370	-102.518	-98.182	-97.642	-92.979	211.639	-93.844	-8191	255	
455.750	1	1	0	0	0.051137	0.12347	0.041096	0.13287	0.32175	0.20397	0.15752	0.34014	0.050828	0.21338	0.12144	0.15384	0.10365	0.11546	0.048683	0.25699	-3.4896	-3.6667	-3.575	-4.1708	-3.5021	-3.8792	-4.1188	-3.6542	-3.9958	-3.7729	-3.6562	-4.1062	-3.6521	-3.8667	-3.8917	-3.7792	188.963	59.637	-107.774	230.997	131.410	85.486	190.306	132.298	-109.218	16.369	185.595	234.088	161.152	128.175	207.834	163.755	0.00058094	0.00076146	8.0402e-05	1382.3	8.7627e-06	5.4027e-06	1375.8	366.54	1.149e-05	5.8049e-06	418.59	137.62	118.22	40.726	4.8808e-06	50.762	0.00083027	0.00078813	0.00021495	1413.9	9.2022e-06	8.4325e-06	1405.5	378.37	9.0485e-06	8.5278e-06	432.65	143.43	124.54	42.306	8.7456e-06	53.453	34.483	-64.201	-8.204	-106.633	-9.110	-35.105	-106.599	-101.842	28.575	-13.829	-102.292	-98.354	-97.960	-92.628	-93.855	-93.791	-8191	255	
455.847	1	1	0	0	0.096876	0.067415	0.021556	0.15277	0.097448	0.19161	0.27221	0.17198	0.095853	0.14793	0.090014	0.16905	0.20057	0.16841	0.091096	0.26754	-3.4979	-3.9	-3.6479	-4.2667	-3.6354	-3.7896	-4.0542	-3.7875	-3.9146	-3.9375	-3.8187	-4.1417	-3.6208	-3.7	-4.0396	-3.5708	188.579	234.243	61.176	213.404	-108.412	115.133	-107.849	187.432	160.318	165.851	-67.938	-95.158	212.434	220.757	152.781	223.254	0.00087228	0.00039379	4.4856e-05	1379.4	3.9281e-06	7.1058e-06	1371.6	368.68	7.8159e-06	7.4882e-06	420.34	137.92	118.5	40.617	4.0773e-06	50.683	0.0008086	0.00076786	0.00022756	1414.5	8.95e-06	8.3944e-06	1408.3	378.87	8.8255e-06	8.384e-06	434.51	143.39	124.33	42.26	9.3504e-06	53.365	26.064	-5.966	57.234	-106.403	163.581	61.600	-106.727	-101.956	36.515	41.344	-102.354	-98.242	-97.984	-92.821	233.939	-93.830	-8191	255	
455.943	1	1	0	0	0.23788	0.055479	0.19582	0.3415	0.1937	0.026161	0.17071	0.17744	0.068657	0.046884	0.18449	0.1246	0.18348	0.40442	0.041443	0.11984	-3.5292	-3.6813	-3.6188	-3.9708	-3.5833	-3.8	-4.0729	-3.7333	-3.8229	-3.7562	-3.6167	-4.0938	-3.6854	-3.825	-3.8896	-3.6813	101.005	64.121	233.396	189.311	109.144	223.764	184.592	164.797	121.760	101.668	151.107	-95.786	159.109	160.520	104.885	-103.033	0.0009383	0.00062677	0.00011552	1380.6	4.5238e-06	7.5722e-06	1373.7	367.75	8.4998e-06	6.0973e-06	415.74	137.9	118	40.819	8.9894e-06	50.991	0.0007996	0.00077302	0.00024486	1415	8.8554e-06	8.4499e-06	1410.1	378.58	8.6338e-06	8.5467e-06	434.97	143.07	124.07	42.367	9.8263e-06	53.352	30.099	-114.786	-93.147	-106.436	9.917	25.160	-106.691	-101.792	20.430	8.998	-102.237	-98.013	-97.723	-93.080	-11.162	-93.821	-8191	255	
456.063	1	1	0	0	0.2347	0.14987	0.18151	0.17374	0.087768	0.18613	0.11537	0.29621	0.12151	0.16104	0.15626	0.22787	0.11865	0.34039	0.053359	0.17459	-3.4021	-3.8729	-3.4833	-4.0625	-3.6167	-3.5917	-4.2458	-3.7104	-3.6208	-3.8458	-3.6937	-4.1729	-3.7479	-3.7604	-4.0958	-3.7062	-93.336	-72.397	97.110	-119.854	96.273	4.649	213.812	162.966	6.712	198.465	192.384	223.203	184.342	218.491	-105.405	143.817	0.00080211	7.8146e-05	0.0001912	1388	9.9022e-06	4.9785e-06	1375.2	368.3	1.0207e-05	4.844e-06	417.86	137.92	118.79	40.872	6.2074e-06	50.983	0.00079054	0.00079795	0.00025348	1415.9	8.5893e-06	8.8897e-06	1412	377.94	8.4609e-06	9.0096e-06	434.77	143.04	123.8	42.498	9.7582e-06	53.263	19.056	184.433	-63.559	-106.288	-19.495	56.022	-106.812	-101.893	-53.166	-30.416	-102.615	-97.987	-97.839	-92.639	-22.969	-93.753	-8191	255	
456.135	1	1	0	0	0.14314	0.22365	0.062187	0.33463	0.083465	0.16877	0.28698	0.23631	0.054041	0.049793	0.11357	0.11518	0.31235	0.14634	0.10339	0.26167	-3.3792	-3.8417	-3.5146	-3.9771	-3.7396	-3.6375	-4.0375	-3.5625	-3.7625	-3.85	-3.725	-4.0271	-3.7812	-3.6646	-3.9167	-3.7521	-47.187	88.266	103.012	190.779	84.169	-100.790	151.818	175.359	-30.735	124.011	-67.112	154.996	-82.344	-81.479	85.774	207.175	0.00061835	0.00027377	0.00021983	1377.5	9.6164e-06	1.8495e-06	1378.7	367.31	6.0608e-06	6.3724e-06	418.29	138	118.34	40.718	5.5697e-06	50.713	0.00076275	0.00084451	0.00024766	1412.2	8.3228e-06	9.3913e-06	1413.5	377.77	8.2554e-06	9.488e-06	434.68	142.97	123.81	42.553	9.4385e-06	53.048	28.966	153.296	-23.035	-106.507	-84.932	-59.953	-106.875	-101.980	-29.449	220.030	-102.340	-98.241	-97.885	-92.936	-26.458	-93.401	-8191	255	
456.256	1	1	0	0	0.077109	0.12562	0.22961	0.1919	0.27403	0.27613	0.44049	0.16729	0.31952	0.10749	0.12458	0.066698	0.080203	0.49782	0.092909	0.10367	-3.275	-3.9208	-3.4	-3.9042	-3.75	-3.6562	-4.1292	-3.7812	-3.7729	-4.0125	-3.7687	-3.9042	-3.8229	-3.6417	-4.0229	-3.8896	-90.340	226.199	61.275	223.611	-62.742	4.956	193.432	-98.999	17.318	74.587	214.220	-100.392	153.722	-82.824	-36.779	76.323	0.00079932	0.00014112	0.00016605	1386.7	1.0342e-05	4.5934e-06	1376.9	367.45	9.5942e-06	3.1666e-06	418.87	137.86	118.15	40.613	8.7611e-06	50.775	0.00076355	0.00088506	0.00023811	1413	8.4403e-06	9.7433e-06	1409.9	377.2	8.5346e-06	9.7235e-06	434.53	142.52	124.26	42.566	9.0238e-06	53.029	38.257	121.345	-28.544	-106.575	-76.866	78.366	-106.861	-101.780	15.067	55.580	-102.340	-98.124	-97.588	-93.013	-47.176	-93.880	-8191	255	
456.352	1	1	0	0	0.020191	0.096005	0.14293	0.39109	0.082227	0.12443	0.13651	0.26389	0.23568	0.22398	0.16376	0.088821	0.15236	0.19286	0.15312	0.194	-3.3208	-3.9458	-3.4896	-3.8917	-3.9708	-3.4979	-3.9292	-3.9958	-3.825	-3.9729	-3.6583	-3.7271	-4.0792	-3.6667	-3.9208	-3.9313	-94.225	119.272	-88.907	177.120	144.477	61.304	238.663	151.612	25.335	147.301	104.749	171.769	45.547	233.967	-37.124	89.591	0.0011292	0.0014998	1.2575e-05	1382.7	1.0211e-06	4.9612e-06	1376.1	367.98	1.5952e-06	1.1576e-05	418.45	137.47	118.53	40.692	3.5412e-06	50.647	0.00080513	0.00090559	0.00023114	1411.8	9.1201e-06	9.8924e-06	1409.2	377.6	9.1044e-06	9.7166e-06	433.73	142.55	125.25	42.585	8.906e-06	52.984	23.309	-43.717	-74.357	-106.498	225.701	54.375	-106.658	-101.864	19.580	-21.598	-102.462	-98.086	-98.084	-93.108	-69.627	-93.852	-8191	255	
456.448	1	1	0	0	0.14805	0.049025	0.085282	0.19321	0.11091	0.080185	0.19052	0.074149	0.13353	0.079816	0.31415	0.078144	0.075276	0.28771	0.10144	0.13632	-3.1646	-4.0729	-3.5687	-3.8792	-3.8875	-3.6604	-4.0854	-3.8354	-3.5167	-4.0292	-3.9125	-3.8063	-4.0667	-3.6792	-3.9771	-4.1333	-27.287	209.909	212.474	230.949	192.648	153.948	175.118	-110.880	67.590	213.318	147.263	185.769	82.834	117.749	140.683	-114.866	0.0010788	0.00044556	0.00018144	1382.1	5.5038e-06	2.3058e-06	1371.3	367.54	9.5273e-06	7.6665e-06	421.11	137.67	118.74	40.637	4.8665e-06	50.791	0.00086046	0.00089581	0.00022751	1412.3	9.6222e-06	9.6441e-06	1408.3	377.36	9.6551e-06	9.5049e-06	434.23	142.5	125.38	42.529	8.7051e-06	53.059	16.955	-45.796	-28.244	-106.546	175.290	40.130	-106.724	-101.869	-48.988	30.170	-102.277	-98.067	-97.887	-92.870	88.900	-93.783	-8191	255	
456.544	1	1	0	0	0.05706	0.13604	0.26108	0.056308	0.13257	0.20386	0.19561	0.15648	0.1063	0.21897	0.27839	0.18028	0.076568	0.066517	0.11297	0.1839	-3.2313	-4.0104	-3.6604	-3.9146	-4.0667	-3.575	-4.0125	-3.9583	-3.5875	-4	-3.9062	-3.7938	-3.925	-3.6146	-3.775	-4.0917	146.162	-117.547	79.045	231.456	-89.562	-26.516	153.686	157.496	-38.827	152.002	220.457	179.281	158.427	170.578	160.676	197.474	0.00092018	0.0010584	8.2834e-05	1387.3	4.874e-06	2.9596e-06	1376	366.65	9.1436e-06	3.783e-06	420.43	137.97	118.93	40.632	2.2953e-06	50.691	0.00088604	0.000851	0.00022061	1414.3	9.9384e-06	9.1717e-06	1406.2	377.53	9.8714e-06	9.0157e-06	432.75	142.91	125.81	42.429	8.4622e-06	53.226	22.835	-46.315	41.997	-106.485	85.796	-20.045	-106.858	-101.910	22.883	53.059	-102.336	-98.170	-97.680	-92.788	111.210	-93.912	-8191	255	
456.663	1	1	0	0	0.34698	0.13969	0.017545	0.22327	0.1317	0.16588	0.12676	0.20615	0.14195	0.14704	0.17862	0.088313	0.1938	0.19284	0.031883	0.25455	-3.2229	-3.9479	-3.8354	-3.8063	-4.1271	-3.8	-3.8875	-4.025	-3.7229	-3.8646	-3.9188	-3.5021	-4.0104	-3.4646	-3.6917	-4.175	82.046	167.843	-82.660	196.220	212.239	-43.315	192.047	228.515	227.804	-97.884	173.856	187.350	-70.146	191.803	9.724	192.929	0.00094138	0.0003004	9.373e-05	1382.6	8.4338e-06	1.2397e-05	1371.1	367.67	1.2361e-05	3.8363e-06	418.88	137.86	117.89	40.735	1.882e-06	50.707	0.00088938	0.00082662	0.00021641	1415.6	9.8023e-06	9.0557e-06	1405.4	378.83	9.7268e-06	8.9059e-06	432.38	143.27	125.02	42.407	8.3748e-06	53.33	22.801	-57.197	-17.234	-106.464	16.177	35.834	-106.913	-102.026	-29.719	-46.884	-102.452	-98.340	-97.633	-92.758	29.904	-94.091	-8191	255	
456.735	1	1	0	0	0.13922	0.11756	0.10275	0.23473	0.075669	0.16402	0.1372	0.22787	0.032652	0.12851	0.19692	0.26474	0.15489	0.30959	0.27128	0.21882	-3.125	-3.8771	-3.7979	-3.5271	-4.0458	-3.6396	-3.85	-4.0333	-3.6458	-3.9479	-4.0583	-3.6813	-3.7771	-3.7292	-3.5333	-3.9104	-39.072	161.739	-68.100	-112.600	165.780	-102.536	216.332	120.438	13.537	-28.360	-16.411	-112.230	192.255	195.574	64.303	179.323	0.00079122	0.00043252	5.8699e-05	1385.8	5.5114e-07	5.9813e-06	1375.8	367.12	9.2631e-06	8.1369e-06	416.97	137.88	117.8	40.561	8.5427e-06	50.687	0.00086726	0.00080618	0.00021643	1417.5	9.4117e-06	8.8196e-06	1405.3	378.87	9.3073e-06	8.5619e-06	431.35	143.22	124.39	42.252	8.4539e-06	53.275	24.156	-64.444	96.925	-106.525	5.763	-46.143	-106.659	-101.806	42.874	-14.091	-102.305	-98.057	-97.661	-92.857	-115.121	-93.748	-8191	255	
456.831	1	1	0	0	0.062451	0.19497	0.29212	0.29164	0.097514	0.19384	0.23583	0.23526	0.10618	0.096809	0.15186	0.11013	0.31967	0.16091	0.060888	0.13746	-3.1917	-3.7354	-3.7854	-3.6146	-3.9208	-3.7812	-4	-3.9625	-3.6458	-3.7	-3.9188	-3.7021	-3.7375	-3.7896	-3.7167	-4.1937	-93.701	137.031	58.344	239.065	204.859	174.179	125.648	-72.643	-75.480	-60.085	78.688	-55.130	152.062	134.910	-13.648	131.219	0.00083128	0.00086455	0.00015096	1381.1	7.8676e-06	3.1608e-06	1370.5	365.25	7.3704e-06	1.0273e-05	418.39	137.33	118.39	40.677	9.8077e-06	50.922	0.00081037	0.00076044	0.00021992	1414	8.8814e-06	8.3448e-06	1403.4	378.04	8.8551e-06	8.3047e-06	433.38	142.92	124.2	42.165	9.0364e-06	53.313	23.602	-47.975	160.810	-106.551	17.631	20.509	-106.848	-101.989	74.326	24.039	-102.446	-97.845	-97.799	-92.912	-63.320	-94.056	-8191	255	
456.951	1	1	0	0	0.17721	0.021344	0.13492	0.19009	0.27998	0.13099	0.28509	0.13732	0.077897	0.25812	0.01861	0.10603	0.084714	0.066508	0.042249	0.18372	-3.2	-3.5167	-3.9292	-3.6417	-3.7604	-3.8229	-3.8187	-3.9792	-3.5646	-3.6833	-4.0458	-3.7167	-3.975	-3.8958	-3.5458	-4.1937	191.649	109.299	89.214	227.916	11.413	123.759	161.492	192.901	22.748	148.180	-5.855	-113.921	-61.657	216.283	92.022	33.274	0.001047	0.00099348	5.6986e-05	1379.7	1.3666e-06	3.1032e-06	1371.4	366.36	8.9361e-06	2.3071e-06	416.18	137.22	118.15	40.438	1.1809e-05	50.814	0.00079613	0.00075476	0.0002344	1413.9	8.8082e-06	8.3386e-06	1407.1	378.13	8.77e-06	8.3356e-06	433.69	142.7	123.91	42.165	9.6014e-06	53.153	18.694	-38.896	108.685	-106.716	-6.732	50.796	-106.671	-101.837	21.134	10.391	-102.463	-98.159	-97.987	-92.827	18.926	-93.765	-8191	255	
457.048	1	1	0	0	0.36038	0.039313	0.17656	0.29732	0.21598	0.2317	0.29876	0.23332	0.15628	0.10494	0.075197	0.14088	0.083032	0.11503	0.43465	0.1418	-3.3208	-3.7521	-3.8417	-3.7062	-3.7854	-3.8583	-3.8729	-4.0813	-3.8271	-3.7542	-4.0792	-3.6396	-3.8125	-3.9708	-3.45	-4.0229	-88.484	162.934	117.603	205.689	12.668	-19.616	128.205	191.521	169.932	197.370	-28.762	114.957	35.962	-111.578	63.406	106.156	0.0010133	0.00083548	0.0002081	1380.7	6.1132e-06	2.3742e-06	1375.4	366.55	2.4649e-06	1.1685e-06	417.52	137.21	118.82	40.649	5.3853e-06	50.808	0.00078683	0.00077308	0.00024795	1411.4	8.5498e-06	8.669e-06	1410.8	377.91	8.6038e-06	8.7376e-06	434.93	142.59	123.81	42.34	9.8484e-06	53.063	27.566	222.205	-82.519	-106.543	4.694	235.366	-106.743	-101.981	-0.996	-49.895	-102.144	-98.130	-97.985	-93.160	152.976	-93.886	-8191	255	
457.144	1	1	0	0	0.2121	0.16952	0.21552	0.16215	0.17941	0.29828	0.074762	0.50054	0.19707	0.041245	0.27269	0.06777	0.38087	0.12236	0.10804	0.32618	-3.4625	-3.5896	-4.0104	-3.8146	-3.7083	-3.8271	-3.6813	-4.0604	-3.7833	-3.8125	-3.9396	-3.75	-3.9313	-4.1396	-3.4375	-4.0021	4.393	-96.417	179.987	155.337	62.114	67.978	185.715	180.151	137.299	138.671	196.371	-1.330	185.531	38.051	-64.448	158.187	0.00083445	0.00032519	8.7031e-05	1379	4.3851e-06	4.1047e-06	1371.5	365.52	6.5102e-06	3.4144e-06	417.19	137.24	117.83	40.479	5.297e-06	50.691	0.0007636	0.00082023	0.00025197	1412.4	8.4663e-06	9.1772e-06	1410.2	377.33	8.3669e-06	9.2598e-06	434.77	142.59	123.57	42.448	9.6997e-06	53.094	24.252	-92.639	62.408	-106.582	-34.918	-24.573	-106.815	-101.945	16.358	-86.287	-102.448	-98.149	-97.402	-92.920	-16.094	-93.720	-8191	255	
457.240	1	1	0	0	0.31316	0.075811	0.13946	0.25529	0.13754	0.19578	0.14212	0.020854	0.2661	0.29204	0.14619	0.2303	0.078609	0.15292	0.30168	0.47579	-3.4021	-3.6312	-3.8667	-3.8646	-3.8708	-3.9479	-3.6729	-3.8667	-3.9542	-3.5438	-3.8937	-3.7042	-3.6229	-3.9771	-3.5396	-3.8021	-35.898	77.927	87.432	236.383	168.377	225.913	155.061	132.080	-99.544	106.145	194.866	236.740	173.159	239.467	-108.915	193.980	0.00071083	0.00010746	0.00014928	1385.9	1.1009e-05	6.6542e-06	1376.3	368.35	7.32e-06	4.0596e-06	418.89	137.5	118.37	40.609	4.8756e-06	50.883	0.00076908	0.00088621	0.00024623	1417.4	8.5277e-06	9.8491e-06	1412.9	378.45	8.5481e-06	9.7763e-06	434.28	142.52	124.17	42.601	9.2488e-06	53.012	20.580	-47.553	-22.276	-106.388	29.542	20.613	-106.680	-101.996	-52.249	-119.067	-102.272	-98.279	-98.122	-92.861	101.942	-93.901	-8191	255	
457.360	1	1	0	0	0.15647	0.16909	0.082473	0.14384	0.11888	0.10836	0.20935	0.27924	0.13938	0.24613	0.37237	0.18554	0.16735	0.038632	0.052475	0.091436	-3.5396	-3.5062	-3.8375	-3.8396	-3.6667	-4.0583	-3.65	-4.0375	-3.9771	-3.6625	-3.9375	-3.7729	-3.6063	-4.0458	-3.675	-3.85	96.998	24.214	55.798	-64.240	43.574	-7.323	108.200	188.548	46.123	28.442	133.661	234.672	170.939	127.839	145.585	-64.110	0.00080399	0.0012486	0.00024683	1384.5	1.8454e-06	6.3338e-06	1375.1	366.39	4.8999e-06	6.9223e-06	420.01	137.67	118.24	40.797	5.4148e-06	50.786	0.00078502	0.00090506	0.00023483	1415.7	8.8418e-06	9.9678e-06	1411.2	377.53	8.9984e-06	1.0086e-05	434.61	142.46	124.86	42.671	9.1124e-06	53.018	19.205	-38.193	2.719	-106.359	4.520	-42.085	-106.750	-101.872	180.593	-9.417	-102.317	-98.147	-98.226	-93.006	-22.587	-93.621	-8191	255	
457.432	1	1	0	0	0.15143	0.075791	0.06263	0.033667	0.05433	0.22452	0.038408	0.18571	0.23886	0.14735	0.15406	0.2769	0.12149	0.27325	0.090865	0.071711	-3.575	-3.6312	-3.7396	-3.8979	-3.6417	-4.0521	-3.8104	-3.8208	-3.85	-3.4667	-3.9479	-4.0125	-3.6271	-4.0333	-3.6562	-3.8604	-101.282	55.687	-96.246	-81.808	-14.203	84.873	216.977	131.513	211.752	127.837	161.327	191.466	-74.793	-100.221	40.752	131.322	0.00088898	0.00057345	0.00023274	1386.8	1.7667e-06	5.2599e-06	1379.7	366.69	4.3301e-06	1.4154e-06	420.29	137.64	118.64	40.857	1.201e-05	50.673	0.00084912	0.00091016	0.00023187	1417.6	9.5301e-06	9.794e-06	1411.4	377.49	9.5755e-06	9.7126e-06	434.3	142.62	125.49	42.651	8.994e-06	53.029	17.206	-31.091	-36.925	-106.356	-92.390	-38.730	-106.752	-102.007	186.254	2.258	-102.304	-98.126	-97.879	-93.050	1.991	-93.698	-8191	255	
457.528	1	1	0	0	0.22202	0.19501	0.24685	0.3348	0.15014	0.12087	0.28158	0.16495	0.15142	0.054977	0.2752	0.22197	0.21374	0.21115	0.030627	0.13557	-3.5979	-3.4604	-3.8333	-4.0208	-3.4854	-3.9229	-3.8146	-3.8896	-3.9229	-3.6708	-4.025	-3.9042	-3.6896	-3.9958	-3.6958	-3.6479	212.454	12.083	196.250	229.003	72.172	-110.717	-85.238	220.364	-12.069	-118.678	210.576	168.731	215.765	-109.064	28.341	150.712	0.00081133	0.00070646	0.00012166	1390.8	4.8437e-06	5.4907e-06	1383.6	367.85	9.103e-06	9.5009e-06	420.75	137.89	118.25	40.745	1.0444e-05	50.968	0.00089575	0.0008874	0.0002271	1417.8	1.0042e-05	9.4947e-06	1413.5	378.84	1.0098e-05	9.4521e-06	434.49	142.77	126.05	42.57	8.648e-06	53.287	19.521	-57.048	6.856	-106.312	60.326	26.581	-106.749	-101.902	-50.631	5.018	-102.433	-98.167	-97.792	-93.056	11.443	-93.811	-8191	255	
457.624	1	1	0	0	0.22281	0.12128	0.1294	0.31044	0.14483	0.020183	0.2181	0.27253	0.12209	0.023382	0.15884	0.13942	0.15881	0.19035	0.28571	0.22381	-3.5271	-3.6875	-3.6792	-4.1521	-3.6083	-3.8875	-3.9771	-3.7167	-4.0604	-3.7479	-3.7708	-3.9562	-3.3875	-4.025	-3.7271	-3.7396	100.300	-20.109	-82.444	201.589	121.444	191.118	217.141	169.121	69.671	-29.511	217.010	-96.763	203.838	228.903	187.708	99.719	0.00090669	0.00056282	0.00019833	1385.5	3.9953e-06	8.466e-06	1379.8	368.75	1.1944e-05	4.1017e-06	419.09	137.83	118.37	40.728	8.3375e-06	50.894	0.00090515	0.00084678	0.00021841	1420	9.9365e-06	9.1633e-06	1411.7	379.27	9.8857e-06	9.0517e-06	433.31	143.12	125.52	42.476	8.4329e-06	53.274	20.327	-78.845	-21.977	-106.377	-82.562	-24.630	-106.916	-101.729	19.389	-29.669	-102.246	-98.070	-97.723	-92.753	-11.244	-93.968	-8191	255	
457.743	1	1	0	0	0.25462	0.053306	0.16824	0.1688	0.10966	0.20033	0.072873	0.07376	0.03758	0.24345	0.27175	0.035909	0.089622	0.097753	0.21408	0.14454	-3.3833	-3.5292	-3.5854	-4.1542	-3.575	-3.8771	-4.1125	-3.7375	-3.9208	-3.5958	-3.8438	-4.075	-3.6104	-3.9646	-3.7458	-3.7313	-103.542	45.825	48.244	125.341	214.027	41.194	-113.770	156.703	26.241	54.682	169.938	234.881	-28.456	-59.924	-5.780	202.459	0.00085313	0.00057896	5.3883e-05	1391.5	6.3415e-06	7.4418e-06	1380.2	369.78	1.1449e-05	5.8906e-06	420.47	137.84	118.99	40.842	4.7912e-06	50.894	0.00088711	0.00082684	0.00021772	1424.2	9.653e-06	8.9199e-06	1413.2	380.46	9.5671e-06	8.8519e-06	433.86	143.37	125.41	42.441	8.6106e-06	53.48	21.460	3.332	30.276	-106.426	-76.421	26.511	-106.686	-101.921	8.723	10.223	-102.218	-98.250	-97.992	-92.899	110.181	-93.755	-8191	255	
457.839	1	1	0	0	0.13361	0.045843	0.34022	0.11871	0.21758	0.17856	0.26911	0.20726	0.21473	0.33702	0.25042	0.10553	0.060092	0.023391	0.086527	0.023787	-3.6813	-3.5458	-3.6021	-4.1	-3.5354	-3.7604	-4.0667	-3.5375	-3.9729	-3.7104	-3.7354	-4.0396	-3.4458	-3.7812	-4.0437	-3.5917	37.238	-117.388	-70.255	231.912	11.158	107.275	126.990	209.731	-86.557	183.804	208.832	-45.055	-79.673	39.480	108.043	-32.189	0.00069563	0.00063276	0.00012676	1386.2	6.1301e-06	4.4997e-06	1383.5	368.66	2.2748e-06	5.2082e-06	419.36	137.83	118.22	40.695	4.971e-06	50.781	0.00084602	0.00079839	0.00022238	1423.2	9.3469e-06	8.7162e-06	1415.3	380.59	9.2001e-06	8.6501e-06	434.58	143.54	124.51	42.446	9.109e-06	53.474	41.399	-89.315	-68.013	-106.546	2.878	34.523	-106.856	-101.884	44.917	30.022	-102.251	-98.036	-97.787	-92.735	231.049	-93.761	-8191	255	
457.936	1	1	0	0	0.19134	0.1192	0.12325	0.22067	0.16225	0.089628	0.16023	0.19085	0.21913	0.12331	0.051345	0.14071	0.065073	0.15729	0.12514	0.028471	-3.375	-3.7917	-3.675	-4.125	-3.5229	-3.7542	-4.1062	-3.6271	-3.8854	-3.7667	-3.6875	-3.9896	-3.7042	-3.9938	-3.8729	-3.5667	3.042	-40.883	168.075	179.042	173.633	-3.090	144.342	202.802	163.640	216.576	138.435	114.251	-80.296	184.466	184.349	191.928	0.0008752	0.00081298	0.00011844	1389.5	1.6422e-06	5.9193e-06	1380.8	368.38	4.0285e-06	4.5954e-06	422.82	137.92	118.78	40.51	5.9488e-06	50.951	0.00083259	0.00079524	0.00023933	1425	9.1186e-06	8.5903e-06	1418.2	380.26	9.098e-06	8.5548e-06	436.72	143.76	124.94	42.353	9.7412e-06	53.444	9.831	-11.702	-99.089	-106.589	-74.413	56.220	-106.707	-101.972	8.155	-18.109	-102.429	-98.214	-97.890	-92.529	233.861	-93.910	-8191	255	
458.032	1	1	0	0	0.30739	0.0054619	0.30024	0.15724	0.062492	0.19411	0.15146	0.14961	0.18798	0.06216	0.11942	0.084416	0.20583	0.062795	0.15508	0.085679	-3.5021	-3.7771	-3.6312	-4.1396	-3.5833	-3.7292	-4.0792	-3.8479	-3.7667	-3.8021	-3.6063	-4.0854	-4.0396	-3.7062	-4.1562	-3.5375	-48.105	132.810	24.778	186.444	-88.143	-81.002	184.188	113.465	165.714	191.621	-93.051	-99.598	42.528	-65.988	-102.382	8.905	0.00072591	0.00039863	0.00014839	1390.9	6.7774e-06	2.3897e-06	1385.5	369.27	7.5237e-06	5.3737e-06	419.74	137.85	118.81	40.779	2.3471e-06	50.802	0.00081013	0.00078569	0.00025187	1424.5	8.8904e-06	8.629e-06	1418.9	379.44	8.7954e-06	8.6749e-06	436.75	143.45	124.6	42.538	1.0006e-05	53.265	31.772	60.118	72.037	-106.461	-54.084	-12.275	-106.910	-101.977	38.543	-45.973	-102.387	-98.077	-97.801	-92.804	104.016	-93.556	-8191	255	
458.128	1	1	0	0	0.022125	0.12365	0.050708	0.27382	0.0072997	0.08258	0.11697	0.21406	0.045446	0.16951	0.18263	0.17407	0.17875	0.17926	0.086109	0.3481	-3.4583	-3.9333	-3.5875	-4.0625	-3.7604	-3.6333	-4.2396	-3.7687	-3.8542	-3.9437	-3.6854	-3.9229	-3.7625	-3.6021	-4.1396	-3.725	124.643	69.214	-3.907	-91.578	152.236	10.104	184.985	184.604	103.252	135.626	101.327	-90.831	174.730	123.848	0.403	160.819	0.00066302	0.00019694	0.00012652	1390.8	9.036e-06	6.6065e-06	1379.1	367.06	1.1744e-05	6.3621e-06	422.01	138.17	118.95	40.668	1.0324e-05	50.89	0.00079068	0.00081923	0.0002579	1422.3	8.7107e-06	9.2155e-06	1418.3	378.91	8.5849e-06	9.2843e-06	437.34	143.17	124.31	42.508	9.8934e-06	53.22	31.483	-17.822	-44.845	-106.249	46.197	-66.461	-106.692	-101.784	-21.649	239.423	-102.369	-98.129	-97.765	-93.041	-4.598	-93.601	-8191	255	
458.224	1	1	0	0	0.21042	0.14087	0.26392	0.080615	0.057485	0.10254	0.12385	0.14654	0.14491	0.22298	0.19295	0.27778	0.16179	0.12377	0.095056	0.30267	-3.4292	-3.9917	-3.6813	-4.0104	-3.8208	-3.6771	-4.2312	-3.8125	-3.825	-3.8167	-3.6875	-4.1042	-3.7313	-3.7	-3.8125	-3.7375	47.189	63.347	-7.657	-91.145	167.298	-86.644	183.612	-109.035	11.009	23.807	147.672	234.147	-45.521	230.578	-45.628	213.080	0.00062845	0.00023336	7.6476e-05	1389.7	1.0567e-06	2.748e-06	1385.1	366.78	6.3822e-06	6.9608e-06	419.39	138.02	118.28	40.702	1.6738e-06	50.878	0.00077268	0.00087268	0.0002541	1420.2	8.6444e-06	9.7649e-06	1419.4	378.6	8.5959e-06	9.8139e-06	436.6	143.09	124.33	42.664	9.5502e-06	53.202	34.620	31.104	-29.819	-106.531	-85.023	21.269	-106.775	-102.025	-37.909	47.327	-102.381	-98.120	-97.966	-92.848	32.731	-93.637	-8191	255	
458.345	1	1	0	0	0.10125	0.16053	0.21174	0.059515	0.14889	0.049147	0.12241	0.25607	0.07243	0.060698	0.23245	0.19591	0.18434	0.12886	0.049226	0.16227	-3.3333	-3.9854	-3.4542	-3.8937	-3.8354	-3.575	-4.3583	-3.9437	-3.6688	-3.9708	-3.6688	-3.9188	-3.9375	-3.6104	-4.0542	-3.9042	-40.216	-37.177	195.656	-72.456	54.278	78.853	229.368	237.770	209.227	88.654	205.207	-108.073	133.597	88.634	235.868	66.319	0.00079648	0.00050049	6.1767e-05	1393.1	5.3426e-06	3.1197e-06	1382.2	369.13	1.0326e-05	4.5479e-06	419.89	138.25	117.52	40.804	1.2595e-06	50.782	0.00078006	0.00091431	0.00024175	1420.5	8.8095e-06	1.0104e-05	1416.1	378.78	8.8856e-06	1.0072e-05	435.41	142.84	124.73	42.742	9.1961e-06	53.051	20.621	-65.073	-71.554	-106.309	-0.401	217.582	-106.668	-101.927	217.350	-48.384	-102.246	-97.973	-98.011	-92.604	221.892	-93.519	-8191	255	
458.441	1	1	0	0	0.062683	0.21007	0.21866	0.22462	0.26749	0.16697	0.031277	0.089691	0.14007	0.084882	0.22084	0.10129	0.25008	0.1348	0.13626	0.066038	-3.2917	-3.8563	-3.6292	-3.9	-3.9354	-3.5896	-4.0875	-3.9	-3.5812	-4.0104	-3.8187	-3.9375	-3.8625	-3.6125	-3.9708	-3.8646	141.933	-91.645	132.246	-119.297	-8.594	-74.680	222.811	-59.517	-46.937	205.415	81.436	-92.739	-36.364	148.356	210.843	84.725	0.0010324	0.0012442	5.0218e-05	1388.5	4.6209e-06	8.6936e-06	1382.2	367.71	7.743e-06	2.0807e-06	417.9	137.53	118.62	40.86	4.2702e-06	50.948	0.00083028	0.0009148	0.00023428	1419.9	9.2981e-06	1.0016e-05	1415.6	377.96	9.4443e-06	9.9512e-06	433.5	142.56	125.45	42.656	8.9574e-06	53.053	18.202	-38.015	224.131	-106.474	160.639	29.776	-106.724	-101.651	0.401	-82.635	-102.311	-97.982	-97.787	-92.823	9.734	-93.691	-8191	255	
458.537	1	1	0	0	0.31113	0.25797	0.060979	0.22848	0.16071	0.10045	0.25212	0.080666	0.10285	0.29835	0.044362	0.33723	0.25937	0.13219	0.16453	0.3129	-3.1688	-4.0583	-3.6562	-3.775	-4.025	-3.575	-4.1292	-3.9042	-3.5583	-3.9042	-3.75	-3.5917	-3.9417	-3.6146	-3.7021	-3.85	-20.414	-5.642	-82.461	154.203	-68.761	-83.415	179.052	73.743	-25.798	-34.422	217.498	234.671	-6.001	-92.981	174.056	201.609	0.00096956	0.001274	0.00014782	1390.6	2.7904e-06	6.3579e-06	1380.2	368.21	5.1411e-06	7.1965e-06	418.69	138.26	119.11	40.93	8.4164e-06	50.7	0.00087429	0.00089101	0.00022893	1419.3	9.8198e-06	9.7159e-06	1413.8	378.35	9.9014e-06	9.5637e-06	434.07	142.86	125.96	42.608	8.8155e-06	53.121	11.709	-41.780	-58.241	-106.719	147.421	2.174	-106.874	-102.040	-3.794	-56.183	-102.589	-98.304	-97.530	-93.001	46.194	-93.720	-8191	255	
458.656	1	1	0	0	0.12845	0.27013	0.20889	0.28109	0.17485	0.22388	0.09468	0.18165	0.10062	0.021277	0.2434	0.27933	0.16497	0.12871	0.20278	0.16363	-3.2271	-3.8375	-3.8396	-3.7917	-4.0188	-3.4771	-3.8917	-3.8333	-3.5875	-3.8583	-3.7396	-3.7125	-4.0542	-3.7208	-3.7229	-4.0396	-44.243	95.143	34.646	-93.883	-93.161	39.390	184.718	194.296	85.356	73.206	145.515	-81.268	219.663	-98.820	218.596	-83.438	0.00078949	0.00091609	5.7492e-05	1388.7	8.5491e-06	8.4936e-06	1384.9	368.7	2.4979e-06	7.1831e-06	421.06	137.54	118.69	40.579	5.041e-06	50.619	0.00090059	0.0008513	0.00022205	1420	1.0019e-05	9.2038e-06	1412.4	379.36	9.8714e-06	9.1054e-06	433.71	142.89	125.75	42.485	8.5526e-06	53.214	9.857	-56.592	95.123	-106.363	-65.902	16.306	-106.756	-101.790	-47.180	-33.094	-102.160	-98.100	-97.774	-93.035	-5.183	-93.818	-8191	255	
458.728	1	1	0	0	0.20016	0.12103	0.10581	0.29483	0.12899	0.031023	0.22667	0.23937	0.17436	0.057354	0.19898	0.19555	0.20744	0.28113	0.13148	0.25045	-3.2146	-3.85	-3.7604	-3.7083	-3.9333	-3.6729	-3.7646	-4.0271	-3.4229	-3.8271	-3.9021	-3.7	-4.0958	-3.7271	-3.8438	-3.925	-2.425	31.691	87.837	179.376	-48.038	64.776	123.192	-95.322	49.104	35.938	-114.066	236.132	180.920	179.938	176.772	-100.743	0.00073314	0.0005456	0.00017755	1389.4	1.5598e-05	3.7282e-06	1381	368.18	1.774e-05	7.657e-06	418.4	137.9	118.61	40.711	3.8837e-06	50.66	0.0008993	0.00083787	0.00021728	1423.9	9.9373e-06	9.005e-06	1412.2	379.82	9.7162e-06	8.9342e-06	433.12	143.46	125.44	42.547	8.4049e-06	53.266	29.575	-41.733	-16.374	-106.564	-48.970	-21.761	-106.857	-102.001	-35.235	42.206	-102.304	-98.149	-97.830	-93.176	-110.214	-93.539	-8191	255	
458.824	1	1	0	0	0.17227	0.024131	0.12619	0.202	0.18963	0.1351	0.13865	0.056641	0.15326	0.081158	0.042093	0.18916	0.18847	0.24969	0.36133	0.13268	-3.3229	-3.8604	-3.9938	-3.6188	-4.0312	-3.6979	-3.9208	-4.1021	-3.4354	-3.8979	-3.9083	-3.7896	-3.9125	-3.7687	-3.7458	-3.9583	43.234	230.847	-25.664	201.448	121.921	-43.973	203.416	-89.721	224.141	-79.139	-100.229	59.191	-66.924	-57.165	-52.453	215.666	0.0008683	0.00046513	7.6673e-05	1388.9	2.1549e-06	4.4826e-06	1376.2	368.01	8.4169e-06	1.2578e-06	419.53	137.65	119.39	40.684	3.5815e-06	50.997	0.00085958	0.00080641	0.00021926	1424.8	9.5226e-06	8.8246e-06	1410.5	380.05	9.3485e-06	8.6336e-06	434.23	143.55	125.08	42.475	8.8438e-06	53.497	23.052	-84.145	15.534	-106.639	-22.084	97.687	-106.741	-101.813	19.810	43.795	-102.369	-98.244	-98.105	-92.933	171.462	-93.648	-8191	255	
458.920	1	1	0	0	0.044476	0.18379	0.40089	0.17334	0.27553	0.17935	0.014347	0.28606	0.19528	0.2203	0.18083	0.11869	0.34328	0.12995	0.13026	0.096834	-3.1333	-3.6271	-3.8646	-3.5354	-3.8875	-3.6521	-3.9896	-4.1021	-3.7042	-3.8104	-4.0312	-3.7687	-3.9792	-3.9604	-3.6979	-4	-98.418	-90.618	217.042	237.701	201.063	205.375	-82.362	157.957	229.831	-47.322	-23.902	-51.087	197.006	167.527	209.967	229.703	0.00080069	0.00080265	7.1125e-05	1390.3	5.2074e-06	5.3648e-06	1378.1	368.47	2.4324e-06	2.601e-06	419.72	137.98	118.36	40.917	8.5831e-06	50.748	0.00083262	0.00078669	0.00022983	1424.8	9.0949e-06	8.6156e-06	1414.6	380.24	9.0236e-06	8.4747e-06	435.09	143.52	124.75	42.417	9.4406e-06	53.396	35.467	-106.490	-15.022	-106.468	-30.521	-17.468	-106.746	-101.976	31.467	218.956	-102.389	-98.272	-97.693	-93.103	212.899	-93.634	-8191	255	
459.040	1	1	0	0	0.086201	0.20856	0.080949	0.30599	0.32689	0.10601	0.30447	0.1887	0.14966	0.15007	0.17898	0.33972	0.10129	0.10225	0.1171	0.20917	-3.4125	-3.6021	-3.8688	-3.7792	-4.0479	-3.9188	-3.7771	-4.1542	-3.5271	-3.6604	-4.0708	-3.7313	-3.8604	-3.9833	-3.7104	-4.0167	183.962	22.690	48.663	199.292	56.096	160.515	164.233	194.148	63.321	1.636	-89.633	-115.287	141.299	120.627	185.237	-81.172	0.00062726	0.00037625	0.00022641	1391	7.7662e-06	5.8926e-06	1378.8	368.84	7.1456e-06	3.2727e-06	417.01	138.41	117.66	40.944	1.0027e-05	50.54	0.0008195	0.000776	0.00024361	1423.2	8.9851e-06	8.5988e-06	1416.6	379.9	8.9773e-06	8.6253e-06	435.82	143.57	124.29	42.469	9.8444e-06	53.225	32.689	-90.947	-110.678	-106.222	-13.271	45.167	-106.793	-101.758	23.247	-41.550	-102.336	-98.152	-97.520	-92.756	106.057	-94.076	-8191	255	
459.137	1	1	0	0	0.1154	0.17279	0.14058	0.14554	0.21081	0.21451	0.13901	0.15585	0.1201	0.083917	0.067905	0.1042	0.078492	0.061351	0.058376	0.05911	-3.375	-3.7354	-3.8937	-3.7604	-3.8167	-3.9646	-3.7417	-4.1375	-3.7792	-3.7417	-4.0854	-3.6813	-3.7333	-4.0479	-3.5604	-4.0687	33.166	219.708	18.414	195.789	136.008	91.582	166.220	183.070	42.913	81.377	150.582	114.074	187.821	144.264	60.262	99.110	0.00079112	0.0006056	5.0723e-05	1391.7	2.8764e-06	1.2077e-06	1382	369.15	5.7224e-06	2.2619e-06	421.2	138.13	118.89	40.629	3.0126e-06	50.59	0.00079191	0.00079562	0.0002534	1422.7	8.6725e-06	8.961e-06	1417.4	379.1	8.6626e-06	8.9656e-06	436.77	143.17	124.1	42.482	1.003e-05	53.053	29.809	-3.577	12.271	-106.451	25.990	214.419	-106.889	-101.916	60.993	86.826	-102.465	-98.204	-97.235	-92.792	224.141	-93.868	-8191	255	
459.233	1	1	0	0	0.15345	0.20539	0.067654	0.47181	0.14063	0.037343	0.3372	0.29221	0.21709	0.039009	0.27755	0.27146	0.25726	0.077616	0.17164	0.19041	-3.4604	-3.6958	-3.9104	-3.7979	-3.6167	-3.9125	-3.8667	-4.0667	-3.7479	-3.6396	-4.1021	-3.8208	-3.8875	-4.0979	-3.6229	-3.9938	50.211	-45.308	167.880	193.806	199.986	155.927	188.184	219.831	44.545	4.461	148.916	193.305	138.625	208.841	204.650	174.587	0.0008298	4.9763e-05	0.00018827	1387.9	2.9318e-07	5.6096e-06	1381.1	367.51	6.2044e-06	6.4866e-06	419.56	137.35	117.93	40.733	1.4775e-06	50.649	0.00077974	0.00084504	0.00025265	1419.7	8.4944e-06	9.4528e-06	1416.5	378.81	8.4892e-06	9.5325e-06	436.13	142.72	123.78	42.653	9.6783e-06	53.107	32.873	129.592	29.568	-106.557	-12.513	-88.263	-106.715	-101.910	61.779	5.769	-102.267	-98.140	-97.777	-92.914	160.933	-93.732	-8191	255	
459.304	1	1	0	0	0.14163	0.15039	0.14416	0.20945	0.072823	0.11446	0.30813	0.15822	0.075152	0.20745	0.31698	0.23458	0.18508	0.10417	0.2229	0.24244	-3.4729	-3.6208	-3.975	-3.9208	-3.7104	-4.075	-3.8708	-4.1104	-3.8312	-3.5979	-4.1542	-3.9125	-3.7458	-4.2146	-3.775	-4.0125	-79.676	58.245	70.658	166.017	151.372	-107.112	202.440	202.763	-79.219	121.917	223.153	233.822	216.091	154.752	-70.666	-111.119	0.00077293	0.00057604	0.00017184	1387.7	3.9906e-06	2.9913e-06	1376.9	367.41	1.0449e-06	3.4698e-06	422.74	137.54	117.52	40.619	4.8366e-06	50.579	0.00077993	0.00089316	0.00024473	1418.2	8.6167e-06	9.9817e-06	1414.8	378.35	8.6881e-06	1.0026e-05	435.87	142.66	124.35	42.694	9.3296e-06	53.041	23.889	12.847	-60.107	-106.480	-20.818	-55.131	-106.852	-101.924	205.851	217.959	-102.346	-98.047	-97.854	-93.070	-37.794	-93.543	-8191	255	
459.425	1	1	0	0	0.20795	0.29594	0.37214	0.23768	0.13466	0.10384	0.25267	0.068165	0.15349	0.097947	0.29339	0.17591	0.27719	0.2378	0.21746	0.088905	-3.5687	-3.5563	-3.8729	-3.8312	-3.75	-4.0875	-3.7979	-3.8542	-3.9708	-3.6958	-4.2021	-3.8542	-3.7833	-4.1625	-3.6562	-3.7687	136.656	152.266	-23.796	205.218	-45.091	194.713	232.212	-111.224	192.267	9.004	-109.755	194.772	152.360	-113.538	93.056	117.778	0.00078605	0.00041992	0.00024219	1384.2	9.3371e-06	9.0634e-06	1380.8	366.68	1.2604e-05	1.0114e-05	418.64	137.28	118.18	40.609	4.7055e-06	50.957	0.00081089	0.00092534	0.00023741	1417.2	9.0735e-06	1.0104e-05	1415	377.74	9.1597e-06	9.9435e-06	434.13	142.57	124.85	42.59	8.9667e-06	52.985	18.853	-35.120	-53.887	-106.608	232.130	-10.936	-106.657	-101.798	-13.143	19.189	-102.504	-98.169	-97.969	-93.036	132.953	-93.664	-8191	255	
459.521	1	1	0	0	0.13104	0.17342	0.11097	0.11993	0.070699	0.091964	0.1861	0.30087	0.10236	0.10561	0.21159	0.23002	0.13613	0.27187	0.1882	0.33342	-3.5083	-3.5854	-3.9188	-4.0188	-3.6708	-4.1104	-3.8875	-3.8458	-3.9479	-3.5104	-4.0813	-3.8708	-3.6521	-4.2104	-3.7396	-3.675	195.586	211.573	31.021	202.634	236.664	91.681	106.347	174.657	57.934	84.888	114.144	174.013	-80.047	198.599	-63.918	167.706	0.00081212	0.00046142	0.00029388	1384.4	4.7068e-06	5.3031e-06	1376.3	367.09	1.0615e-05	2.7471e-06	419.22	137.52	118.38	40.703	5.7314e-06	50.582	0.00083912	0.00089448	0.00022535	1414.2	9.399e-06	9.6414e-06	1408	377.3	9.5389e-06	9.5929e-06	433.03	142.31	125.41	42.564	8.7736e-06	52.886	14.866	-67.056	-25.662	-106.237	222.702	126.645	-106.776	-101.787	-46.823	-86.603	-102.586	-98.383	-97.786	-92.886	46.302	-93.776	-8191	255	
459.617	1	1	0	0	0.08734	0.18282	0.12392	0.059625	0.21078	0.28425	0.10229	0.3896	0.089285	0.055162	0.22878	0.098007	0.10122	0.054809	0.15618	0.12072	-3.5604	-3.5667	-3.8833	-3.9021	-3.5625	-3.9104	-3.8708	-3.7375	-4.0729	-3.5667	-3.8563	-3.9875	-3.5646	-4.0938	-3.6521	-3.8208	-75.897	235.573	-48.149	198.372	31.835	-2.977	223.508	145.970	-9.685	166.882	237.229	75.917	-43.901	90.962	138.512	45.347	0.0007735	9.3183e-05	0.00016249	1388.8	3.3817e-06	2.2357e-06	1375.3	367.38	9.036e-06	6.3935e-06	418.74	138.26	117.78	40.797	4.3603e-06	50.545	0.00089961	0.00086948	0.00022539	1418.7	1.0047e-05	9.5894e-06	1410.1	378	1.0075e-05	9.3637e-06	433.79	143.06	125.62	42.552	8.6712e-06	53.013	18.641	143.871	-12.399	-106.373	-36.858	-2.745	-106.749	-101.916	-40.236	-29.310	-102.355	-98.164	-97.721	-92.814	42.099	-93.710	-8191	255	
459.736	1	1	0	0	0.039657	0.13795	0.29182	0.26667	0.095002	0.27226	0.060926	0.18195	0.28277	0.086534	0.15581	0.11297	0.19133	0.17614	0.1994	0.25198	-3.6542	-3.5583	-3.6521	-4.0188	-3.6646	-3.9458	-4.0375	-3.7708	-4.0521	-3.5438	-3.7854	-4.1646	-3.6312	-4.125	-3.8417	-3.7292	-54.753	-19.703	-4.428	-89.272	176.757	-78.971	175.043	128.896	24.415	-12.275	155.597	-57.738	78.701	176.967	32.195	197.017	0.00060042	0.00060749	0.00013249	1384.6	5.2128e-06	4.5384e-06	1376.5	366.7	1.388e-05	5.8359e-06	416.99	137.57	118.6	40.699	3.4986e-06	50.846	0.00091133	0.00084576	0.000219	1418.9	9.9944e-06	9.0987e-06	1409.7	378.64	9.8032e-06	9.0492e-06	431.76	143.15	125.47	42.42	8.5447e-06	53.247	24.404	-54.312	-109.138	-106.367	-26.924	65.259	-106.902	-101.962	37.253	53.285	-102.571	-98.072	-97.662	-92.913	1.250	-93.689	-8191	255	
459.832	1	1	0	0	0.19442	0.13096	0.049371	0.32771	0.076181	0.19352	0.32023	0.29762	0.080916	0.24239	0.20565	0.23064	0.01169	0.30864	0.17385	0.24754	-3.6875	-3.6417	-3.6875	-4.2229	-3.6312	-3.9021	-4.025	-3.8583	-4.0437	-3.6958	-3.8958	-4.1375	-3.7833	-3.9062	-3.9646	-3.7708	182.130	-62.277	-60.292	194.943	-29.465	-33.112	239.430	182.853	229.633	207.804	194.234	167.163	-93.938	-74.561	193.241	207.642	0.00086701	0.0013498	0.00031129	1388.4	6.8684e-06	9.9193e-06	1379.8	367.32	1.5543e-05	5.3463e-06	419.08	137.92	119.28	40.678	3.0212e-06	50.7	0.0008775	0.00081858	0.00021747	1421.2	9.7012e-06	9.016e-06	1409.8	379.63	9.588e-06	8.8539e-06	433.1	143.38	125.04	42.451	8.8472e-06	53.334	40.695	-61.300	-1.445	-106.213	38.551	24.468	-106.802	-101.700	-3.351	38.023	-102.188	-98.234	-97.881	-92.912	26.322	-93.987	-8191	255	
459.906	1	1	0	0	0.089527	0.14108	0.075675	0.33095	0.16331	0.16227	0.20743	0.14537	0.043787	0.062215	0.036643	0.15378	0.13426	0.17015	0.09374	0.2429	-3.6042	-3.6875	-3.7292	-4.3042	-3.5625	-3.9542	-4.1771	-3.6375	-4.0146	-3.9083	-3.8333	-4.2	-3.6896	-3.9604	-4.0417	-3.6271	4.733	-59.142	42.256	230.223	-33.989	-25.037	212.414	181.687	42.365	214.422	150.401	211.817	193.105	-116.306	121.893	219.378	0.00069128	0.00076643	0.00012489	1386.7	4.3391e-06	5.0261e-06	1379	368.4	2.9023e-06	1.1031e-05	418.58	137.68	118.57	40.526	7.2242e-06	50.6	0.00085289	0.00081049	0.00022886	1423.6	9.3658e-06	8.7495e-06	1412.2	379.68	9.2704e-06	8.7702e-06	434.62	143.42	124.79	42.278	9.3913e-06	53.331	21.987	-84.471	234.053	-106.374	-10.160	-40.589	-106.885	-101.865	-13.070	24.347	-102.296	-98.191	-97.985	-92.921	-21.416	-93.851	-8191	255	
460.025	1	1	0	0	0.022698	0.26462	0.10288	0.34596	0.24271	0.066663	0.20493	0.046528	0.12159	0.14689	0.21219	0.081314	0.19827	0.23155	0.16192	0.23162	-3.6771	-3.7	-3.7687	-4.1042	-3.6562	-3.8063	-4.0542	-3.8063	-3.8229	-3.9188	-3.9188	-4.0938	-3.6	-3.7375	-3.9917	-3.6229	78.510	29.664	-67.799	218.437	-33.757	157.182	213.142	159.162	132.674	-26.296	142.238	230.863	187.670	211.950	-77.413	116.594	0.00085031	0.0007968	6.5625e-05	1389.1	4.503e-06	8.9754e-06	1376.9	366.94	5.4408e-06	4.1888e-06	419.57	137.77	118.27	40.669	3.6304e-06	50.481	0.00083662	0.00079601	0.00024496	1424.3	9.2781e-06	8.7384e-06	1414.5	380.04	9.1329e-06	8.6794e-06	436.23	143.4	124.79	42.361	1.0058e-05	53.286	27.003	-30.745	117.304	-106.756	6.988	73.641	-106.692	-101.982	-30.924	11.474	-102.547	-97.879	-97.468	-92.942	88.345	-93.595	-8191	255	
460.121	1	1	0	0	0.098744	0.22863	0.057558	0.21067	0.12844	0.19077	0.20544	0.28112	0.12346	0.060042	0.11941	0.046899	0.17348	0.35626	0.010368	0.15064	-3.5083	-3.7708	-3.7062	-4.0563	-3.7458	-3.6208	-4.1167	-3.6458	-3.9729	-3.9188	-3.9062	-4.0813	-3.9958	-3.6875	-3.9688	-3.6292	179.784	231.487	-46.148	-28.216	28.910	161.231	189.080	110.800	183.092	222.014	229.800	202.428	164.111	133.648	197.760	-23.766	0.00068586	0.00065513	0.00018493	1392.6	2.5765e-06	4.1666e-06	1385.3	368.04	9.4593e-07	1.8924e-06	419.54	137.62	118.19	40.533	6.946e-06	50.764	0.0008306	0.00081203	0.00026007	1425.9	9.2271e-06	8.9717e-06	1420.6	379.68	8.9788e-06	8.9196e-06	437	143.01	124.31	42.397	1.0216e-05	53.17	34.133	11.070	200.333	-106.534	31.181	-31.458	-106.586	-101.899	-82.026	178.868	-102.649	-98.221	-97.777	-92.955	45.568	-93.647	-8191	255	
460.217	1	1	0	0	0.07366	0.11328	0.12404	0.25292	0.1201	0.23779	0.21208	0.083651	0.21867	0.22873	0.1752	0.012795	0.18488	0.1541	0.057801	0.2065	-3.4667	-3.8354	-3.6146	-4.0938	-3.7021	-3.6688	-4.1479	-3.7083	-3.7479	-3.8937	-3.6312	-4.0375	-3.6688	-3.7021	-3.9625	-3.7313	-96.712	-27.742	181.339	-110.459	-113.729	41.644	192.441	148.448	219.178	-107.603	36.894	98.641	178.657	-110.524	107.100	175.557	0.00070449	0.00033445	0.00015582	1388.2	4.1308e-06	2.7031e-06	1381.5	366.77	1.2207e-05	4.4839e-07	420.03	137.39	118.16	40.714	6.5983e-06	50.789	0.00079613	0.00083625	0.00026179	1421.7	8.791e-06	9.4318e-06	1421	378.67	8.6867e-06	9.4844e-06	437.07	142.77	124.19	42.555	1.0107e-05	53.162	25.827	8.357	-16.417	-106.442	-68.857	81.290	-106.688	-101.833	-23.473	84.031	-102.290	-98.012	-97.625	-92.914	11.518	-93.854	-8191	255	
460.338	1	1	0	0	0.24191	0.065376	0.23626	0.26381	0.14355	0.072174	0.18139	0.075364	0.14905	0.039926	0.19822	0.12964	0.1484	0.10361	0.16793	0.1669	-3.4083	-3.7917	-3.6937	-4.0604	-3.8625	-3.6229	-4.1687	-3.7146	-3.675	-3.9688	-3.7458	-4.0125	-3.7188	-3.5646	-3.9271	-3.5833	-33.563	-72.628	8.452	233.893	-24.064	226.049	171.182	198.691	-61.736	239.361	148.988	-0.233	167.378	23.871	-112.727	187.554	0.00078265	0.00061705	0.00027802	1390.8	6.023e-06	5.2833e-06	1382.4	366.8	3.6696e-06	3.6584e-06	419.75	137.89	118.52	40.627	8.4278e-06	50.578	0.000795	0.00090464	0.00025643	1423.6	8.7666e-06	1.0032e-05	1418.1	379.04	8.7953e-06	1.0102e-05	435.87	142.87	124.4	42.708	9.8066e-06	53.096	33.746	-29.024	-6.215	-106.305	154.794	-101.092	-106.704	-101.979	30.888	176.902	-102.489	-98.094	-97.723	-92.862	-43.659	-93.673	-8191	255	
460.434	1	1	0	0	0.12643	0.15056	0.20317	0.21583	0.18212	0.24227	0.21388	0.27604	0.14066	0.18092	0.37852	0.22767	0.15474	0.16041	0.22871	0.10715	-3.3063	-3.8292	-3.4854	-4.1042	-3.8729	-3.5958	-4.0208	-3.7167	-3.5563	-4.0021	-3.5375	-3.8958	-3.8958	-3.5604	-3.9979	-3.7708	147.338	-49.490	13.456	223.552	-19.063	27.499	153.042	184.921	83.057	74.927	-69.162	176.344	120.306	130.195	131.261	44.080	0.00092269	0.00029058	0.00034064	1389.8	5.5643e-06	8.3282e-06	1378.3	367.48	8.0447e-06	3.0196e-06	418.11	137.38	118.51	40.633	8.7621e-06	50.713	0.00081616	0.00095067	0.00024879	1421.6	9.1712e-06	1.0461e-05	1417.7	379.18	9.1879e-06	1.0431e-05	435.83	142.68	125.26	42.808	9.5787e-06	53.047	25.697	38.706	-50.502	-106.382	199.740	14.089	-106.618	-101.964	-110.806	125.244	-102.201	-98.384	-97.575	-92.810	97.548	-93.613	-8191	255	
460.530	1	1	0	0	0.17195	0.36181	0.19144	0.16626	0.14765	0.13706	0.16277	0.24061	0.21311	0.19163	0.1193	0.10573	0.1572	0.17983	0.3072	0.21552	-3.2687	-4.1708	-3.6167	-4	-3.9333	-3.5979	-4.0521	-4.0229	-3.6083	-4.1333	-3.5312	-3.7875	-4.1208	-3.825	-3.9583	-3.8604	214.582	143.391	-9.835	-70.035	-54.857	-24.838	160.102	192.951	-30.257	223.586	-43.267	220.620	100.212	164.355	176.403	219.740	0.0010097	0.00074364	0.00013079	1395.4	4.4042e-06	4.651e-06	1387.9	369.37	5.2229e-06	4.4149e-06	422.81	137.46	118.29	40.789	8.2339e-06	50.691	0.00088213	0.00096857	0.00024662	1423.1	9.879e-06	1.0508e-05	1424	379.56	1.007e-05	1.0364e-05	437.39	142.9	125.95	42.816	9.4521e-06	53.118	23.649	-109.974	1.878	-106.522	63.682	20.076	-106.881	-101.920	237.454	5.164	-102.556	-98.042	-97.631	-93.038	-23.295	-93.748	-8191	255	
460.602	1	1	0	0	0.10973	0.11787	0.26547	0.12118	0.060524	0.18775	0.1976	0.24351	0.19785	0.17282	0.15387	0.18382	0.12368	0.24293	0.18997	0.15132	-3.2708	-3.9271	-3.8792	-3.925	-4.0979	-3.4625	-4.0979	-3.8542	-3.6042	-3.9875	-3.9562	-3.9521	-4.0104	-3.6688	-3.7458	-3.9188	-51.018	94.079	-55.260	231.603	-41.565	94.751	198.839	188.255	192.738	-85.449	-52.022	120.225	-2.255	126.401	140.655	207.974	0.00092388	0.00059075	0.00021158	1392.5	5.8489e-06	1.002e-05	1387.3	369.41	9.0947e-06	6.5418e-06	419.98	138.12	118.49	40.872	3.4372e-06	50.652	0.00093227	0.00093626	0.0002426	1426.1	1.0412e-05	1.006e-05	1421	380.13	1.0435e-05	1.0046e-05	436.68	143.39	126.78	42.703	9.1506e-06	53.175	11.085	-31.972	-54.461	-106.748	8.134	-3.745	-106.938	-101.877	-11.895	-20.033	-102.344	-98.190	-97.885	-92.854	-79.212	-93.631	-8191	255	
460.698	1	1	0	0	0.27513	0.14839	0.23775	0.27427	0.13076	0.1038	0.13304	0.16973	0.084187	0.10031	0.19141	0.0451	0.12969	0.11768	0.14544	0.15204	-3.2125	-4.1042	-3.5938	-3.7917	-3.9813	-3.6625	-3.9667	-4.0625	-3.4792	-3.6292	-3.8417	-3.7333	-4.0771	-3.7708	-3.6937	-4.0083	216.596	-74.314	233.045	189.579	-86.358	188.414	230.092	90.757	121.432	17.338	186.856	198.104	187.304	-77.061	-75.902	130.394	0.00075875	0.00080126	0.00020363	1399.5	5.1002e-06	8.7779e-06	1389.9	369.5	7.5309e-06	2.4643e-06	422.37	138.03	118.19	40.768	1.9863e-06	50.848	0.00095481	0.00089831	0.00023598	1431	1.0572e-05	9.7841e-06	1421.7	380.91	1.0575e-05	9.6831e-06	435.92	143.94	126.6	42.633	9.0593e-06	53.498	27.117	-35.752	-42.713	-106.414	-46.922	12.414	-106.915	-101.912	46.229	-84.104	-102.547	-98.138	-97.471	-93.107	-30.878	-93.667	-8191	255	
460.817	1	1	0	0	0.11083	0.063611	0.092533	0.15341	0.062176	0.10883	0.14653	0.19758	0.0829	0.059424	0.19596	0.3166	0.16651	0.10891	0.17367	0.13338	-3.1625	-3.8542	-3.7292	-3.7938	-3.8958	-3.4917	-3.7396	-4.125	-3.6312	-3.8646	-3.9188	-3.6542	-4.0167	-3.7938	-3.7292	-4.1104	-57.906	39.683	28.021	208.531	68.634	55.580	123.262	193.342	120.465	-114.479	203.914	169.136	238.007	137.950	9.583	128.906	0.00066467	0.00023234	0.00017048	1398	6.9083e-06	1.803e-06	1386	368.89	6.5933e-06	8.0617e-06	420.09	137.72	119.3	40.777	2.5918e-06	50.798	0.00094412	0.00087895	0.00023048	1432.6	1.0305e-05	9.571e-06	1418.8	381.38	1.0121e-05	9.4513e-06	435.72	143.9	126.2	42.564	9.1162e-06	53.548	37.235	7.197	-96.666	-106.408	30.109	29.126	-106.802	-101.887	80.036	22.859	-102.307	-98.228	-97.530	-92.858	-110.078	-93.664	-8191	255	
460.913	1	1	0	0	0.085252	0.12957	0.18288	0.17794	0.055764	0.12005	0.16908	0.46644	0.17742	0.099554	0.2289	0.14407	0.19275	0.046918	0.22622	0.08776	-3.2292	-3.9146	-3.8438	-3.675	-3.9104	-3.7021	-3.8771	-4.1396	-3.5979	-3.7042	-3.825	-3.5917	-3.8521	-3.8917	-3.7	-4.0354	-38.899	198.932	-81.638	174.500	48.445	119.708	231.109	167.346	31.888	87.222	100.135	221.360	145.916	-103.533	-12.314	124.006	0.00075991	0.00039501	0.0001803	1390.4	5.9604e-06	9.6086e-06	1389.8	370.44	4.971e-06	7.6867e-06	420.3	137.83	118.58	40.873	3.0377e-06	50.842	0.00091352	0.00085646	0.00023585	1433.3	9.9843e-06	9.4511e-06	1421.5	383	9.8843e-06	9.2052e-06	436.68	144.18	125.64	42.547	9.5559e-06	53.663	24.718	-75.180	-15.754	-106.505	60.933	34.294	-106.904	-102.006	60.142	-18.516	-102.464	-98.058	-97.942	-93.120	208.222	-93.850	-8191	255	
461.009	1	1	0	0	0.033087	0.31547	0.093057	0.17584	0.074058	0.091561	0.20737	0.2482	0.024536	0.077766	0.37307	0.11735	0.11907	0.049647	0.12062	0.10967	-2.9875	-3.5812	-3.7458	-3.7125	-3.9833	-3.9271	-3.8375	-4.1958	-3.5687	-3.7188	-3.925	-3.6417	-3.7875	-4.1062	-3.6208	-4.1208	106.279	-28.473	52.460	39.990	-63.555	-101.297	202.959	140.248	61.181	221.636	157.333	-6.735	134.866	238.787	111.655	238.805	0.00068838	0.0011593	2.3141e-05	1399.9	5.8959e-06	2.4351e-06	1391	368.61	1.7066e-05	8.1659e-06	420.35	138.83	118.74	40.85	2.7181e-06	50.932	0.00088286	0.00083159	0.00025072	1435.8	9.6909e-06	9.1746e-06	1425.1	382.28	9.6311e-06	9.0676e-06	438.17	144.29	125.64	42.565	1.0282e-05	53.571	39.309	-16.016	-113.740	-106.471	-25.418	120.505	-106.834	-101.787	-2.811	35.424	-102.207	-98.113	-97.780	-93.034	69.130	-93.603	-8191	255	
461.105	1	1	0	0	0.28317	0.022658	0.23596	0.019742	0.25715	0.13051	0.31706	0.056153	0.18773	0.18944	0.11037	0.15592	0.23747	0.11813	0.094267	0.30193	-3.1	-3.6333	-3.7958	-3.6437	-3.8979	-3.8646	-3.6312	-4.0104	-3.7	-3.7604	-3.925	-3.6208	-3.9833	-3.9271	-3.6229	-3.8604	0.847	156.385	207.958	-75.868	210.458	163.000	179.599	40.058	124.898	165.809	155.581	151.228	114.638	170.083	73.156	162.336	0.00072666	0.00092365	0.00010282	1399.9	2.4781e-06	3.3565e-06	1388.8	370.24	9.0936e-06	1.0375e-05	421.17	138.43	118.52	40.84	7.2213e-06	50.929	0.00087012	0.00083543	0.00026505	1433.6	9.5313e-06	9.1995e-06	1427.9	382.64	9.4671e-06	9.179e-06	439.86	144.03	125.27	42.682	1.0722e-05	53.538	32.128	-75.678	100.738	-106.577	-24.228	27.379	-106.724	-101.830	14.403	20.423	-102.449	-98.182	-97.542	-93.066	-29.913	-93.878	-8191	255	
461.201	1	1	0	0	0.18278	0.075689	0.03978	0.22453	0.087968	0.16186	0.31326	0.39039	0.12743	0.11104	0.3375	0.25692	0.18188	0.13229	0.060821	0.19169	-3.3146	-3.6375	-3.8146	-3.7458	-3.6333	-3.7542	-3.7792	-3.9583	-3.8729	-3.6875	-4.1292	-3.6896	-3.7438	-4.0875	-3.5854	-4.0938	-87.312	87.846	30.817	232.160	-36.930	19.165	215.475	211.479	118.983	-63.715	-95.974	229.671	37.614	193.516	-29.726	173.170	0.00095874	0.0004287	0.00017132	1400.4	7.5633e-06	4.7072e-06	1389.5	370.88	5.0088e-06	8.9956e-06	422.96	137.75	118.98	40.593	9.2784e-06	50.844	0.00085351	0.00087259	0.00027507	1435	9.3232e-06	9.7377e-06	1430.5	381.85	9.3061e-06	9.7701e-06	440.42	143.67	125.22	42.682	1.071e-05	53.384	30.882	-46.338	32.052	-106.601	-7.914	-92.830	-106.864	-101.900	-23.771	29.373	-102.294	-98.124	-97.554	-92.978	-4.123	-93.887	-8191	255	
461.297	1	1	0	0	0.18041	0.2218	0.21609	0.46246	0.22988	0.13845	0.12903	0.17762	0.16221	0.15606	0.2482	0.033981	0.12248	0.032092	0.19497	0.28131	-3.3958	-3.5458	-3.9854	-3.7729	-3.6437	-4.0458	-3.725	-4.1021	-3.7771	-3.5583	-4.0104	-3.7562	-3.7271	-4.0042	-3.5625	-3.9833	3.650	-22.479	66.621	176.453	75.577	55.890	11.873	114.002	234.344	-70.422	211.493	-4.369	-19.011	-90.160	-27.799	182.863	0.00076212	0.00017847	7.7779e-05	1396.2	2.4374e-06	1.8705e-06	1391	369.94	1.0704e-05	3.0796e-06	423.29	138.13	118.59	40.837	1.1641e-05	50.717	0.00083658	0.0009249	0.00027235	1432.1	9.1823e-06	1.0238e-05	1428.6	381.61	9.2124e-06	1.0434e-05	440.24	143.78	124.99	42.855	1.0312e-05	53.342	25.975	160.264	-81.545	-106.518	70.539	-57.518	-106.848	-101.891	-39.283	14.249	-102.602	-97.897	-97.660	-92.928	-7.516	-93.713	-8191	255	
461.418	1	1	0	0	0.079678	0.1283	0.0043472	0.17174	0.14345	0.29493	0.32406	0.31646	0.12831	0.21462	0.21909	0.32195	0.085202	0.087679	0.23858	0.20371	-3.4625	-3.6562	-4.1167	-3.8875	-3.7042	-3.9875	-3.8083	-3.925	-3.7854	-3.6146	-4.275	-3.8521	-3.8208	-3.9375	-3.6854	-4.025	-9.390	43.040	3.179	235.408	-11.249	-118.296	162.092	194.437	-39.278	76.572	181.156	129.903	235.859	44.854	-110.825	191.514	0.00088944	0.00084448	0.00029755	1401.4	4.4252e-06	3.4518e-06	1396.5	368.68	8.1373e-06	8.0293e-06	421.75	137.81	117.91	40.669	1.0657e-06	50.76	0.0008358	0.00097329	0.00026116	1434.1	9.2962e-06	1.0765e-05	1429.4	381.21	9.3686e-06	1.0786e-05	438.72	143.39	125.47	42.927	1.0047e-05	53.201	19.375	-16.115	-48.402	-106.623	229.066	144.982	-106.790	-101.850	204.951	34.142	-102.529	-98.191	-97.584	-92.836	206.362	-93.744	-8191	255	
461.514	1	1	0	0	0.11041	0.17586	0.18799	0.2475	0.14353	0.20252	0.13155	0.057819	0.05116	0.23258	0.24209	0.2004	0.22185	0.21901	0.047594	0.23512	-3.5333	-3.5583	-3.9208	-3.8937	-3.5563	-3.9854	-3.7208	-3.8958	-3.9938	-3.7771	-3.9125	-3.8771	-3.6021	-4.1146	-3.6396	-3.8771	110.138	148.965	-26.837	-99.589	-34.063	-27.812	151.246	105.874	173.782	175.999	-100.788	-49.703	233.889	-118.369	217.361	164.105	0.00090321	0.00052762	0.00034982	1399.3	9.8621e-06	8.1172e-06	1392.6	370.04	1.2027e-05	2.9643e-06	422.63	137.68	118.81	40.92	2.5176e-06	50.713	0.00087601	0.00098658	0.0002519	1432.1	9.7752e-06	1.0747e-05	1427.3	380.71	9.9728e-06	1.0734e-05	438.27	143.45	126.49	42.916	9.6873e-06	53.199	32.900	-30.610	-66.024	-106.571	-13.229	-34.081	-106.821	-101.903	-110.429	195.108	-102.443	-98.078	-97.990	-92.913	45.227	-93.828	-8191	255	
461.610	1	1	0	0	0.082438	0.085223	0.22106	0.024163	0.37157	0.18735	0.23856	0.30548	0.086432	0.031595	0.23822	0.11151	0.112	0.14471	0.11875	0.20145	-3.6521	-3.6167	-3.9229	-3.9792	-3.5938	-4	-3.8396	-3.7333	-4.0396	-3.5833	-3.9146	-4.0854	-3.7875	-3.9688	-3.7167	-3.8021	211.676	227.741	186.432	105.644	40.430	-84.233	203.313	-115.541	-118.192	-77.803	-62.761	185.955	-28.160	-98.485	5.975	-29.054	0.00088518	0.00054689	0.00019441	1396.6	1.2e-06	8.3988e-06	1397	369.05	1.7418e-06	1.154e-05	421.34	138.32	118.63	40.937	5.762e-06	50.893	0.00093185	0.00096186	0.00024717	1430.6	1.0478e-05	1.0407e-05	1427.9	380.48	1.0526e-05	1.0316e-05	437.31	143.35	126.77	42.826	9.5081e-06	53.27	30.145	-67.393	-0.406	-106.171	-15.716	16.562	-106.882	-101.824	-53.760	28.454	-102.249	-98.395	-97.419	-92.995	14.034	-93.782	-8191	255	
461.706	1	1	0	0	0.21662	0.24076	0.055941	0.27552	0.047151	0.12071	0.10968	0.345	0.024296	0.036021	0.22004	0.24581	0.14459	0.076722	0.23157	0.16742	-3.5167	-3.5542	-3.8208	-4.0833	-3.5625	-4.1104	-3.9562	-3.6458	-3.8708	-3.5083	-4.0437	-4.0729	-3.5292	-4.1417	-3.7792	-3.6437	88.975	-24.664	-101.096	189.547	-14.419	208.701	-116.504	76.452	88.359	174.298	139.423	200.398	222.913	125.202	206.373	235.439	0.0011332	0.0012798	5.8456e-05	1397.8	6.0569e-06	1.1148e-06	1393.1	369.55	9.4786e-06	2.1706e-06	422.64	138.07	118.49	40.993	4.7272e-06	50.624	0.00096534	0.00092983	0.00024077	1433.6	1.0749e-05	1.0055e-05	1425.1	381.54	1.0711e-05	9.841e-06	437.32	143.88	126.74	42.747	9.1803e-06	53.387	16.059	-29.107	-74.880	-106.514	-19.226	-102.749	-106.612	-101.858	54.095	-52.176	-102.498	-98.397	-97.893	-92.742	-13.805	-93.606	-8191	255	
461.825	1	1	0	0	0.048428	0.019037	0.12997	0.16202	0.12557	0.044999	0.27243	0.11055	0.10847	0.10097	0.15825	0.18229	0.043139	0.18159	0.13629	0.069431	-3.8104	-3.5458	-3.8729	-4.1188	-3.5708	-3.9625	-4.075	-3.8417	-4.0458	-3.7583	-3.9646	-4.0542	-3.7438	-3.9625	-3.7854	-3.6604	-12.472	-82.560	-34.567	181.800	-62.502	-35.720	97.917	179.122	-7.979	-109.606	186.337	204.099	41.507	-51.991	187.467	-67.753	0.00068974	0.00062525	0.00011038	1398.4	1.1149e-05	1.1996e-05	1388.6	368.07	6.6969e-06	9.4362e-06	419.94	137.84	119.24	40.889	6.7532e-06	50.847	0.00096184	0.00090512	0.00023239	1434.9	1.0616e-05	9.7789e-06	1423.8	381.55	1.0457e-05	9.7546e-06	436.07	143.98	126.85	42.664	9.1553e-06	53.577	30.933	-35.634	-68.456	-106.531	38.725	28.576	-106.726	-101.914	27.032	32.279	-102.291	-98.102	-97.650	-92.837	8.325	-93.713	-8191	255	
461.897	1	1	0	0	0.10388	0.17439	0.15289	0.26678	0.12454	0.0071139	0.098632	0.20884	0.043857	0.13495	0.14783	0.13888	0.08968	0.34858	0.28556	0.16516	-3.6813	-3.5187	-3.6875	-4.0667	-3.5333	-3.9292	-4.0062	-3.4896	-4.1292	-3.8	-3.8167	-4.0563	-3.5167	-3.8896	-3.9146	-3.5958	64.510	216.419	12.253	138.440	122.912	212.866	-113.250	144.652	-13.768	-97.762	-51.296	57.343	-91.262	-80.577	216.038	216.796	0.00071641	0.0005605	0.00014035	1401.1	5.3724e-06	8.1283e-07	1390.6	369.46	8.7284e-06	1.2259e-06	421.39	138.76	119.27	40.858	7.0886e-06	50.773	0.00093834	0.00087677	0.00023519	1437.8	1.0317e-05	9.5738e-06	1425	382.61	1.0121e-05	9.3883e-06	437.73	144.55	126.29	42.647	9.4375e-06	53.677	38.674	-71.907	-44.539	-106.527	-69.915	203.886	-106.668	-102.065	-33.216	227.117	-102.419	-97.961	-97.763	-93.152	-76.601	-93.809	-8191	255	
461.993	1	1	0	0	0.15258	0.29885	0.1928	0.28852	0.15613	0.15019	0.42805	0.20442	0.012249	0.086623	0.29473	0.18148	0.14353	0.17232	0.1088	0.20891	-3.5396	-3.6667	-3.6	-4.1396	-3.5396	-3.9	-4.125	-3.7062	-3.9729	-3.7062	-3.6208	-4.0292	-3.5917	-3.8354	-3.9896	-3.6813	39.856	162.153	166.909	180.406	28.733	-54.657	183.997	209.966	25.037	-52.489	206.467	196.824	-100.243	-97.784	223.968	182.419	0.0010272	0.0010428	0.00010038	1406.3	8.0222e-06	3.3239e-06	1397.6	370.19	8.1913e-06	8.0165e-06	421.68	138.01	118.89	40.898	7.0814e-06	50.603	0.00090106	0.00085892	0.00024689	1440.6	9.9351e-06	9.2525e-06	1428.2	382.91	9.783e-06	9.1894e-06	438.66	144.5	125.94	42.599	1.0066e-05	53.601	25.849	-69.396	57.961	-106.414	-51.529	145.291	-106.616	-101.907	17.431	10.688	-102.166	-98.093	-97.806	-92.711	238.036	-93.621	-8191	255	
462.114	1	1	0	0	0.12406	0.24854	0.16725	0.34853	0.042861	0.077185	0.38489	0.058651	0.12146	0.38747	0.095063	0.025495	0.38116	0.28181	0.12612	0.25531	-3.5563	-3.7687	-3.5646	-4.1958	-3.6646	-3.8292	-4.2688	-3.725	-3.9208	-3.8604	-3.5708	-3.9896	-3.5292	-3.6833	-3.9813	-3.5604	132.449	39.599	-1.075	239.025	-48.446	-27.557	141.422	232.270	45.862	133.764	213.244	-27.198	191.293	175.805	190.272	191.735	0.00091669	0.00024148	8.0639e-05	1401.4	4.4378e-06	4.6322e-06	1390.3	370.04	7.2014e-06	4.1965e-06	421.24	138.83	118.54	40.76	6.544e-06	50.614	0.00087495	0.00084227	0.00026119	1438.4	9.7336e-06	9.1564e-06	1430	382.7	9.6023e-06	9.1497e-06	439.93	144.24	125.68	42.587	1.0711e-05	53.467	30.734	-37.699	220.805	-106.373	-77.528	17.183	-106.752	-102.049	61.471	61.741	-102.563	-98.036	-97.770	-92.993	-89.409	-93.759	-8191	255	
462.210	1	1	0	0	0.17081	0.11481	0.18362	0.20595	0.19591	0.062644	0.38068	0.19114	0.23334	0.17349	0.28252	0.078197	0.17149	0.09569	0.0033207	0.13047	-3.45	-3.7542	-3.5542	-4.2167	-3.9167	-3.7417	-4.1896	-3.8271	-3.7979	-3.8333	-3.7271	-4.15	-3.9292	-3.7542	-3.9396	-3.8146	163.020	98.837	63.878	220.437	-77.932	-89.219	156.920	159.824	11.863	14.231	219.027	222.699	-75.556	111.725	47.652	123.865	0.0010913	0.00047612	9.2043e-05	1403.3	2.0339e-06	6.6868e-06	1397.1	369.52	9.4898e-06	3.3561e-06	419.79	138.04	119.4	40.774	4.536e-06	50.815	0.00086586	0.00086889	0.00027707	1438.8	9.5384e-06	9.5709e-06	1433.5	382.12	9.4309e-06	9.5967e-06	440.1	144.1	125.53	42.692	1.0821e-05	53.432	20.831	-96.217	-65.228	-106.563	60.928	129.013	-106.827	-101.897	26.886	-1.745	-102.312	-98.271	-97.826	-92.785	-69.921	-93.849	-8191	255	
462.306	1	1	0	0	0.13281	0.20395	0.26238	0.11564	0.10113	0.078587	0.11243	0.23744	0.071758	0.09774	0.18145	0.26563	0.077547	0.33214	0.087732	0.10019	-3.3125	-3.9125	-3.5938	-4.0687	-3.7958	-3.7313	-4.2729	-3.7938	-3.825	-3.9625	-3.7896	-4.1229	-3.8208	-3.7167	-3.9583	-3.8021	157.426	130.837	114.335	144.309	-50.795	-58.726	-85.693	167.539	-65.904	109.218	94.774	172.160	181.270	-95.946	98.943	93.888	0.00083224	0.00093944	0.00017445	1404.7	3.8411e-06	4.2868e-06	1394.4	369.14	3.9263e-06	1.1176e-06	422.34	137.93	118.33	40.844	8.2424e-06	50.651	0.00084287	0.00090746	0.00027636	1436.7	9.241e-06	1.0014e-05	1431.7	381.24	9.132e-06	1.0097e-05	440.06	143.73	124.97	42.844	1.0414e-05	53.362	22.753	-117.791	-28.043	-106.460	-76.634	48.795	-106.839	-101.797	24.503	52.272	-102.438	-97.922	-97.822	-92.995	8.415	-93.763	-8191	255	
462.402	1	1	0	0	0.10691	0.17035	0.30666	0.37705	0.22062	0.17553	0.057708	0.047042	0.061706	0.091695	0.095045	0.073097	0.21835	0.14715	0.19891	0.093373	-3.3	-3.9437	-3.6854	-3.8833	-3.8104	-3.5917	-4.2521	-3.8021	-3.6875	-3.9875	-3.8375	-4.0646	-3.9604	-3.5312	-3.7917	-3.8479	-23.412	180.128	174.330	238.135	-50.683	142.274	40.730	133.623	-52.976	-51.060	181.160	69.964	32.792	177.550	6.259	209.638	0.00098178	0.00016677	0.00021492	1401.8	3.8254e-06	3.2593e-06	1391.7	369.04	7.6272e-06	4.5377e-06	421.81	137.76	118.49	40.728	9.5682e-06	50.72	0.00083224	0.00095139	0.00026573	1434	9.2447e-06	1.0648e-05	1429.6	380.94	9.2269e-06	1.0642e-05	438.54	143.48	125.11	42.854	9.9789e-06	53.15	30.482	239.887	-18.428	-106.433	-71.643	189.197	-106.703	-101.925	-90.758	63.873	-102.353	-98.329	-97.721	-92.967	-3.768	-93.510	-8191	255	
462.498	1	1	0	0	0.18723	0.08554	0.20326	0.21225	0.090855	0.19633	0.11103	0.052179	0.03747	0.12636	0.23695	0.39163	0.095101	0.056809	0.29132	0.31924	-3.1979	-4.0729	-3.5208	-3.8396	-3.8	-3.6208	-4.2271	-3.9313	-3.5563	-4.0646	-3.7229	-3.8833	-3.8354	-3.6271	-3.9417	-3.9104	-64.222	234.508	121.991	-101.767	134.654	-72.451	141.261	-113.966	-12.937	99.969	168.757	203.396	36.062	136.521	-79.848	144.474	0.0010651	0.00045345	0.00028539	1399	5.7983e-06	8.0566e-06	1394.8	370.24	4.1646e-06	1.1285e-05	420.39	137.88	118.65	40.596	3.0284e-06	50.844	0.00084657	0.00098347	0.0002544	1432	9.6222e-06	1.0783e-05	1427	380.81	9.7172e-06	1.0769e-05	438.02	143.08	125.91	42.792	9.6804e-06	53.244	19.405	14.754	-12.554	-106.529	147.247	69.887	-106.673	-101.824	-34.534	11.289	-102.541	-98.016	-97.852	-92.848	204.640	-93.860	-8191	255	
462.595	1	1	0	0	0.10712	0.22085	0.095451	0.27044	0.04775	0.11635	0.33383	0.10647	0.17942	0.28056	0.13065	0.19664	0.10595	0.098881	0.1545	0.091619	-3.1458	-3.9042	-3.6417	-3.8833	-4.1354	-3.5229	-4.0854	-4	-3.5958	-3.9854	-3.8208	-3.9208	-4.0146	-3.7438	-4.0125	-4.0333	117.771	185.059	83.297	154.873	-105.606	-61.745	201.907	176.132	77.441	-118.839	43.492	-104.321	-82.614	-87.719	-54.014	202.771	0.00082563	0.0004683	0.00022113	1397.3	4.9983e-06	4.4921e-06	1389.3	370.66	1.2525e-06	2.8351e-06	421.77	137.68	118.01	40.88	7.8782e-06	50.723	0.00090715	0.00097284	0.00024898	1430.7	1.0145e-05	1.0513e-05	1426.9	380.53	1.0234e-05	1.0395e-05	437.16	143.22	126.4	42.82	9.4094e-06	53.12	20.755	-92.898	16.612	-106.417	-22.133	53.365	-106.813	-101.664	-26.005	-5.433	-102.468	-98.262	-98.001	-92.932	12.983	-93.501	-8191	255	
462.689	1	1	0	0	0.017681	0.057775	0.17152	0.26693	0.39607	0.21998	0.20942	0.26231	0.11018	0.02736	0.012102	0.094131	0.10822	0.11279	0.099543	0.050541	-3.3229	-3.7625	-3.6104	-3.9	-4.0062	-3.5146	-4.0771	-4.1521	-3.3896	-3.9146	-3.8021	-3.8396	-4.1	-3.5354	-3.8333	-3.8792	143.664	79.260	-43.190	183.051	52.069	30.437	159.828	224.132	115.662	208.744	20.793	190.054	-46.892	-68.357	235.071	-98.972	0.00082298	0.00093996	0.00012272	1395.9	5.1047e-06	1.1753e-05	1390.9	368.08	3.1472e-06	6.7754e-06	421.13	138.11	118.51	40.927	9.1001e-06	50.703	0.00094589	0.00093006	0.00024154	1430.8	1.0599e-05	1.0116e-05	1425	380.43	1.0652e-05	1.0005e-05	436.77	143.51	126.66	42.717	9.2086e-06	53.298	35.752	-19.206	-94.356	-106.414	17.707	31.889	-106.567	-102.030	-78.394	36.097	-102.125	-98.224	-97.638	-93.065	-47.238	-93.724	-8191	255	
462.787	1	1	0	0	0.16342	0.14283	0.16502	0.34313	0.12497	0.097992	0.31626	0.12708	0.059967	0.23218	0.2075	0.15713	0.10609	0.16794	0.082855	0.35969	-3.2583	-3.8875	-3.6583	-3.8833	-4	-3.6937	-3.825	-4.0583	-3.6292	-3.9646	-3.9896	-3.8229	-3.9625	-3.7604	-3.6708	-3.9604	-108.040	-69.091	181.165	178.879	31.090	140.804	155.450	219.637	200.014	52.134	-117.957	43.228	127.514	205.883	125.554	199.923	0.00062426	0.00061916	0.00016331	1401.7	1.6687e-06	8.3076e-06	1392.3	368.38	9.2843e-06	6.5212e-06	420.79	138.2	119.02	40.99	2.9968e-06	50.507	0.000967	0.00090459	0.00023537	1433.7	1.0641e-05	9.8293e-06	1425.1	381.32	1.0588e-05	9.6303e-06	436.31	144.01	126.8	42.667	9.1263e-06	53.43	26.958	-89.403	-24.691	-106.348	107.033	6.211	-106.616	-101.879	18.862	23.727	-102.164	-98.117	-97.905	-93.033	153.000	-93.516	-8191	255	
462.906	1	1	0	0	0.061734	0.12794	0.11466	0.25461	0.11384	0.077012	0.24394	0.036628	0.049459	0.21989	0.1113	0.30838	0.22539	0.086728	0.18318	0.15518	-3.2583	-3.7917	-3.7542	-3.75	-4.0646	-3.6208	-3.9208	-4.0312	-3.6125	-3.8146	-3.8833	-3.575	-4.1854	-3.7313	-3.7875	-4.0833	-30.913	128.074	177.081	210.202	-52.928	223.889	159.398	214.517	-29.078	94.267	-77.853	-56.568	-7.452	163.652	-84.249	204.727	0.00089758	0.00051412	0.00017784	1399.6	4.2228e-06	5.1545e-06	1387.6	369.59	1.42e-05	8.189e-06	420.54	137.71	118.67	40.75	2.4318e-06	50.967	0.00094693	0.00088878	0.00023412	1434.6	1.0395e-05	9.6616e-06	1422.3	382.45	1.0219e-05	9.5898e-06	436.76	144.07	125.93	42.583	9.2657e-06	53.707	46.517	-28.944	-15.147	-106.513	-38.854	11.073	-106.488	-101.886	12.210	3.183	-102.340	-98.040	-97.918	-92.879	-64.024	-93.734	-8191	255	
463.002	1	1	0	0	0.17396	0.11492	0.33442	0.10643	0.21504	0.16263	0.15834	0.050036	0.23014	0.013283	0.18612	0.18383	0.072351	0.31385	0.17405	0.23013	-3.2208	-3.8312	-3.8708	-3.7875	-3.9333	-3.8604	-3.7083	-3.9437	-3.6354	-3.7812	-3.9146	-3.6437	-3.8333	-3.8854	-3.625	-4.0146	199.679	44.261	60.017	238.469	75.867	-89.103	-98.830	182.582	44.201	-80.184	149.907	219.095	-58.161	208.219	-17.618	116.722	0.00071053	0.0012327	4.1412e-05	1402.4	1.0841e-05	4.9465e-06	1390	369.33	1.2054e-05	6.0517e-06	421.57	138.13	118.16	40.722	2.3314e-06	50.925	0.00090943	0.00085975	0.00023816	1438.6	1.0021e-05	9.3791e-06	1425.4	382.89	9.8619e-06	9.3346e-06	437.83	144.43	125.69	42.575	9.8286e-06	53.734	31.923	-43.463	-68.080	-106.400	-52.582	46.234	-106.761	-101.700	62.901	16.261	-102.080	-98.187	-97.887	-92.733	187.373	-93.710	-8191	255	
463.098	1	1	0	0	0.24923	0.085961	0.058235	0.18922	0.29227	0.073172	0.14561	0.2114	0.10139	0.15212	0.061952	0.12843	0.16121	0.21785	0.038154	0.15368	-3.1958	-3.7479	-3.9521	-3.7	-3.8521	-3.7229	-3.675	-4.0625	-3.5563	-3.7792	-4.0417	-3.6979	-3.9354	-3.8458	-3.6708	-4.1937	81.863	-52.279	91.177	208.299	171.061	82.104	-71.814	174.070	68.862	-15.093	230.638	202.162	48.928	-97.052	-89.184	113.906	0.00085131	0.00052295	0.00013492	1396.8	7.7605e-06	5.8204e-06	1392.1	370.31	1.0871e-05	4.2657e-06	422.18	137.9	118.28	40.84	3.5163e-06	50.541	0.00089327	0.00084327	0.00025639	1436.5	9.8741e-06	9.3089e-06	1428.9	382.38	9.7096e-06	9.2297e-06	439.42	144.12	125.87	42.616	1.0499e-05	53.511	37.284	12.770	-33.366	-106.499	31.562	19.932	-106.724	-101.937	3.467	-3.326	-102.493	-98.145	-97.760	-92.910	-86.759	-93.681	-8191	255	
463.194	1	1	0	0	0.081838	0.22117	0.11016	0.37006	0.098261	0.048726	0.062191	0.30123	0.040741	0.24877	0.22067	0.2073	0.2276	0.10474	0.12975	0.25449	-3.2979	-3.6	-3.7188	-3.7604	-3.9708	-3.8688	-3.8333	-4.025	-3.7708	-3.7167	-4.25	-3.6208	-3.8208	-3.9583	-3.4604	-4.0563	166.497	-38.765	78.472	-105.375	-86.634	-59.718	138.616	201.229	-101.017	93.062	214.592	-115.324	167.088	-95.780	42.548	185.374	0.00056098	0.00033695	0.00017198	1403.1	6.2568e-06	2.0617e-06	1392.6	370.12	1.3158e-05	3.6815e-06	422.31	137.99	118.44	40.84	8.0151e-06	50.846	0.00086817	0.00084378	0.00026991	1438.2	9.546e-06	9.4415e-06	1430.4	382.05	9.4891e-06	9.5004e-06	440.18	144.11	125.45	42.67	1.092e-05	53.487	21.128	-15.407	-30.952	-106.598	37.094	-26.624	-106.748	-102.122	10.295	70.661	-102.323	-97.864	-97.558	-92.785	8.838	-93.758	-8191	255	
463.290	1	1	0	0	0.15507	0.034537	0.16652	0.1994	0.12529	0.048547	0.061741	0.39057	0.10502	0.12948	0.097054	0.13466	0.21166	0.18119	0.12522	0.14276	-3.4542	-3.5667	-3.9313	-3.7479	-3.9021	-3.9688	-3.8104	-3.9583	-3.7583	-3.6688	-4.0146	-3.875	-3.7208	-4.0917	-3.5187	-3.8708	-106.310	51.814	200.863	227.982	178.799	-63.391	150.397	191.565	175.073	155.603	140.270	37.309	226.505	-37.887	181.027	31.284	0.00094869	0.00020084	0.00020687	1401.8	4.6644e-06	2.2892e-06	1396.6	369.33	8.5312e-06	3.1772e-06	421.65	138.13	118.47	40.592	6.3652e-06	50.664	0.00086188	0.00089832	0.00028187	1436.3	9.4795e-06	1.0006e-05	1433	381.93	9.4296e-06	1.0146e-05	441	144.1	125.25	42.737	1.0837e-05	53.359	25.391	-66.780	28.908	-106.396	-33.008	219.247	-106.611	-102.116	-15.301	237.736	-102.193	-97.895	-97.581	-92.992	7.814	-93.796	-8191	255	
463.386	1	1	0	0	0.23944	0.01993	0.10752	0.11682	0.16566	0.22023	0.36452	0.031116	0.22393	0.08118	0.087466	0.10465	0.19112	0.29214	0.21559	0.012295	-3.3896	-3.7146	-3.9396	-3.9521	-3.6292	-4.1062	-3.8458	-4.0583	-3.9604	-3.6437	-4.0896	-3.7729	-3.7833	-3.9979	-3.5563	-4.0021	-46.594	146.141	148.079	113.802	172.900	-18.405	178.154	-55.270	-105.240	-66.967	65.756	-94.145	144.146	140.870	-11.814	130.138	0.00081072	0.00040096	0.00022215	1404.4	6.0364e-06	3.0273e-06	1391.7	370.15	8.1423e-06	3.8813e-06	419.9	137.63	119.24	40.745	5.8189e-06	50.473	0.00084658	0.00095755	0.0002774	1438.9	9.4207e-06	1.0672e-05	1431.6	381.94	9.381e-06	1.0768e-05	439.74	143.63	125.56	42.831	1.0389e-05	53.205	39.132	184.800	-43.491	-106.639	43.184	214.844	-106.768	-101.933	-8.106	-67.128	-102.601	-98.042	-97.872	-92.861	-30.272	-93.813	-8191	255	
463.507	1	1	0	0	0.12121	0.23338	0.25005	0.47718	0.19008	0.21796	0.18009	0.21569	0.05933	0.15808	0.25516	0.33732	0.13782	0.1036	0.1636	0.11657	-3.5187	-3.5479	-3.9188	-3.7979	-3.5792	-4.0208	-3.925	-3.9417	-4.0542	-3.6542	-4.0938	-3.7875	-3.7	-3.9583	-3.6583	-3.9	141.970	-18.130	179.490	143.540	179.501	133.141	142.775	189.836	-82.007	49.678	226.569	220.363	122.463	168.668	91.408	163.712	0.00095356	0.0012589	0.00016984	1403.2	7.4881e-06	6.8573e-07	1399.2	369.31	5.68e-06	5.8991e-06	422.02	138.49	118.35	40.829	5.801e-06	50.462	0.00086026	0.0010122	0.00026633	1437.9	9.6628e-06	1.1025e-05	1433.7	381.41	9.6606e-06	1.1021e-05	438.98	143.46	125.9	42.941	1.0074e-05	53.2	16.857	236.358	-49.639	-106.454	-64.178	26.149	-106.713	-101.990	-35.054	12.849	-102.054	-98.076	-98.178	-92.786	14.696	-93.667	-8191	255	
463.601	1	1	0	0	0.34556	0.055009	0.2129	0.052405	0.091357	0.033828	0.19928	0.13438	0.076617	0.32653	0.21074	0.30636	0.059123	0.24733	0.084865	0.058918	-3.7146	-3.6896	-3.9333	-3.9896	-3.6917	-3.9771	-3.7125	-3.9062	-3.9021	-3.5917	-4.0333	-3.9167	-3.5938	-4.0792	-3.6833	-3.75	211.733	-14.624	-66.825	158.206	92.372	222.050	181.683	147.217	205.300	-108.616	146.455	221.104	-50.002	-112.384	143.484	173.731	0.00076785	0.00049808	8.9103e-05	1399.1	4.5694e-06	3.4255e-06	1394.5	370.36	1.0811e-05	5.8002e-06	419.77	138.19	118.55	40.805	8.2594e-06	50.565	0.00090341	0.0010055	0.00025844	1435.2	1.0182e-05	1.0896e-05	1431.3	381.01	1.0234e-05	1.0694e-05	437.62	143.38	126.5	42.853	9.7511e-06	53.097	30.940	-6.145	10.827	-106.500	184.021	-21.418	-106.687	-101.838	-102.800	-50.894	-102.271	-98.211	-97.920	-92.934	61.682	-93.530	-8191	255	
463.699	1	1	0	0	0.044005	0.26619	0.13849	0.076446	0.089911	0.17188	0.20318	0.33078	0.074075	0.1726	0.19108	0.17452	0.095094	0.30269	0.095361	0.085128	-3.55	-3.4375	-3.9146	-3.9979	-3.5979	-3.9104	-3.9083	-3.9	-3.975	-3.4771	-3.8479	-3.9396	-3.4562	-4.0104	-3.8333	-3.6979	-96.107	187.458	-36.351	-44.397	71.360	164.103	149.521	164.296	198.337	-74.642	124.781	148.498	-87.688	203.251	35.377	167.472	0.0007257	0.00070386	4.0148e-05	1404.7	2.1906e-06	5.4804e-06	1391	369.6	8.3236e-06	7.0738e-06	421.24	137.71	118.26	40.737	1.0981e-05	50.654	0.00095192	0.00096796	0.00024814	1436	1.0803e-05	1.0581e-05	1427.9	381.16	1.0794e-05	1.0444e-05	437.82	143.37	127.05	42.763	9.4787e-06	53.262	22.216	-70.770	225.225	-106.421	-32.468	51.911	-106.762	-102.098	-76.553	22.906	-102.393	-98.253	-97.617	-92.839	33.542	-93.694	-8191	255	
463.796	1	1	0	0	0.051357	0.047384	0.18047	0.17191	0.15844	0.044084	0.15643	0.25538	0.103	0.16292	0.39747	0.23876	0.29604	0.16097	0.13547	0.059822	-3.5479	-3.6188	-3.7146	-4.0771	-3.5417	-4.0375	-4.0167	-3.75	-4.0646	-3.6479	-3.8812	-3.9979	-3.6271	-4.0854	-3.8292	-3.8375	23.228	84.908	81.709	170.890	-81.983	189.941	190.132	184.448	-74.706	-106.721	157.589	114.779	-104.874	-96.907	9.746	136.600	0.00076344	0.00068562	0.00022179	1402.8	1.3716e-06	1.2106e-05	1392.2	370.64	3.1483e-06	3.8576e-06	422.42	138.05	119	40.628	4.4373e-06	50.483	0.00098272	0.00094047	0.00024267	1437.8	1.11e-05	1.0129e-05	1428.7	382.24	1.092e-05	1.0077e-05	437.32	143.73	127.33	42.719	9.343e-06	53.37	33.885	-33.659	8.473	-106.634	232.816	18.558	-106.748	-101.929	58.366	-27.055	-102.386	-98.442	-97.992	-92.976	5.093	-93.701	-8191	255	
463.890	1	1	0	0	0.21216	0.25901	0.26649	0.39249	0.25227	0.23024	0.40406	0.12342	0.15599	0.045439	0.13841	0.2421	0.19335	0.11139	0.071519	0.12194	-3.65	-3.4792	-3.8479	-4.0667	-3.6854	-3.9625	-4.0646	-3.7292	-4.0458	-3.7083	-3.8604	-4.0458	-3.5604	-4.0125	-3.825	-3.6917	-114.355	238.581	95.471	-91.335	216.466	-53.892	-118.048	140.269	-84.013	-79.195	-46.864	106.424	156.664	-40.003	-47.195	190.205	0.00071422	0.00096287	0.00018903	1405.2	9.6099e-06	4.7024e-06	1395.8	370.46	7.3409e-06	5.4588e-06	419.43	137.95	119.2	40.714	5.0912e-06	50.58	0.00096856	0.00090914	0.00023916	1441.6	1.0744e-05	9.9457e-06	1429.1	383.36	1.0628e-05	9.8144e-06	436.97	144.41	126.5	42.631	9.3181e-06	53.574	18.707	-11.788	-75.267	-106.365	-70.065	42.555	-106.564	-101.932	-31.318	47.336	-102.255	-98.007	-97.472	-92.801	-105.550	-94.054	-8191	255	
463.986	1	1	0	0	0.059339	0.23845	0.19038	0.12084	0.13463	0.041234	0.27358	0.2412	0.0733	0.2312	0.22596	0.12527	0.12271	0.23653	0.069441	0.010225	-3.4792	-3.5729	-3.6104	-4.0437	-3.6458	-4.0542	-3.9854	-3.7854	-3.9208	-3.8292	-3.8688	-4.1	-3.6	-4.0458	-3.8937	-3.5854	238.971	223.830	43.014	233.491	-21.827	129.390	165.978	226.536	-37.397	-86.931	121.068	146.751	232.872	219.616	187.772	132.533	0.0007757	0.00086835	0.00018591	1403.5	7.8095e-06	7.4304e-07	1393.5	369.99	3.9499e-06	2.0301e-06	421.48	137.95	118.71	40.796	8.8997e-06	50.538	0.00093217	0.00088363	0.00023723	1443	1.0214e-05	9.5498e-06	1429	383.1	1.0111e-05	9.4197e-06	437.74	144.23	125.92	42.512	9.6113e-06	53.509	27.883	7.864	-21.293	-106.497	-21.718	44.265	-106.863	-102.007	87.828	58.527	-102.213	-98.136	-97.900	-92.739	-60.161	-93.610	-8191	255	
464.082	1	1	0	0	0.12508	0.066192	0.14656	0.15184	0.084388	0.17154	0.20397	0.24991	0.24478	0.11601	0.079946	0.11646	0.11903	0.24747	0.20803	0.063129	-3.6958	-3.7083	-3.5667	-4.0167	-3.6542	-3.7979	-4.125	-3.6583	-3.9208	-3.85	-3.7021	-4.2271	-3.6792	-3.7146	-3.9417	-3.6583	142.301	116.483	187.887	217.723	87.337	37.755	172.876	238.396	-94.401	74.854	129.738	-64.279	-21.200	218.993	-41.345	233.082	0.00072747	0.00055242	0.00013756	1402.8	7.3258e-06	4.6552e-06	1397.2	369.96	8.6423e-06	1.028e-05	419.85	137.84	118.65	40.758	8.6229e-06	50.565	0.00088951	0.00084816	0.00025023	1441.1	9.8109e-06	9.264e-06	1430.8	382.71	9.859e-06	9.233e-06	438.53	144.08	125.68	42.517	1.0378e-05	53.485	18.364	-50.224	26.101	-106.427	25.713	1.507	-106.705	-101.718	-14.143	22.155	-102.388	-98.114	-97.655	-93.009	28.946	-93.858	-8191	255	
#DATA ENDS
