BOXY.EXE: ISS Imagent and Oximeter Data Acquisition Program Version 0.80
Ascii Record File

#ACQ INFORMATION
2  Detector Channels 
16  External MUX Channels 
1  Auxiliary Channels 
5000  Waveform (CCF) Frequency (Hz)
1  Waveforms Skipped 
30  Waveforms Averaged 
1  Cycles Averaged 
16  Acquisitions per Waveform 
10.0806  Updata Rate (Hz) 

#FILE INFORMATION
TRUE -- External MUX Channel results are PARSED.
FALSE -- AC DC and Phase are NOT grouped.
TRUE -- Companion Program Settings File CREATED.
FALSE -- AC data not excluded
FALSE -- DC data not excluded
FALSE -- Phase data not excluded
FALSE -- Auxillary Chn. data not excluded
Tab delimiters

#CALIBRATION STATE
TRUE -- Waveform Calibration Values APPLIED.


#AUX CALIBRATION VALUES
Val Type	aux-1	

Term	1.0000e+00	
Factor	0.0000e+00	


#WF CALIBRATION VALUES
A = Detector Channel
Val Type	A-AC1	A-AC2	A-AC3	A-AC4	A-AC5	A-AC6	A-AC7	A-AC8	A-AC9	A-AC10	A-AC11	A-AC12	A-AC13	A-AC14	A-AC15	A-AC16	A-DC1	A-DC2	A-DC3	A-DC4	A-DC5	A-DC6	A-DC7	A-DC8	A-DC9	A-DC10	A-DC11	A-DC12	A-DC13	A-DC14	A-DC15	A-DC16	A-Ph1	A-Ph2	A-Ph3	A-Ph4	A-Ph5	A-Ph6	A-Ph7	A-Ph8	A-Ph9	A-Ph10	A-Ph11	A-Ph12	A-Ph13	A-Ph14	A-Ph15	A-Ph16	

Term	0.00000e+00	0.00000e+00	0.00000e+00	0.00000e+00	0.00000e+00	0.00000e+00	0.00000e+00	0.00000e+00	0.00000e+00	0.00000e+00	0.00000e+00	0.00000e+00	0.00000e+00	0.00000e+00	0.00000e+00	0.00000e+00	0.00000e+00	0.00000e+00	0.00000e+00	0.00000e+00	0.00000e+00	0.00000e+00	0.00000e+00	0.00000e+00	0.00000e+00	0.00000e+00	0.00000e+00	0.00000e+00	0.00000e+00	0.00000e+00	0.00000e+00	0.00000e+00	0.00000e+00	0.00000e+00	0.00000e+00	0.00000e+00	0.00000e+00	0.00000e+00	0.00000e+00	0.00000e+00	0.00000e+00	0.00000e+00	0.00000e+00	0.00000e+00	0.00000e+00	0.00000e+00	0.00000e+00	0.00000e+00	
Factor	1.00000e+00	1.00000e+00	1.00000e+00	1.00000e+00	1.00000e+00	1.00000e+00	1.00000e+00	1.00000e+00	1.00000e+00	1.00000e+00	1.00000e+00	1.00000e+00	1.00000e+00	1.00000e+00	1.00000e+00	1.00000e+00	1.00000e+00	1.00000e+00	1.00000e+00	1.00000e+00	1.00000e+00	1.00000e+00	1.00000e+00	1.00000e+00	1.00000e+00	1.00000e+00	1.00000e+00	1.00000e+00	1.00000e+00	1.00000e+00	1.00000e+00	1.00000e+00	X	X	X	X	X	X	X	X	X	X	X	X	X	X	X	X	

B = Detector Channel
Val Type	B-AC1	B-AC2	B-AC3	B-AC4	B-AC5	B-AC6	B-AC7	B-AC8	B-AC9	B-AC10	B-AC11	B-AC12	B-AC13	B-AC14	B-AC15	B-AC16	B-DC1	B-DC2	B-DC3	B-DC4	B-DC5	B-DC6	B-DC7	B-DC8	B-DC9	B-DC10	B-DC11	B-DC12	B-DC13	B-DC14	B-DC15	B-DC16	B-Ph1	B-Ph2	B-Ph3	B-Ph4	B-Ph5	B-Ph6	B-Ph7	B-Ph8	B-Ph9	B-Ph10	B-Ph11	B-Ph12	B-Ph13	B-Ph14	B-Ph15	B-Ph16	

Term	0.00000e+00	0.00000e+00	0.00000e+00	0.00000e+00	0.00000e+00	0.00000e+00	0.00000e+00	0.00000e+00	0.00000e+00	0.00000e+00	0.00000e+00	0.00000e+00	0.00000e+00	0.00000e+00	0.00000e+00	0.00000e+00	0.00000e+00	0.00000e+00	0.00000e+00	0.00000e+00	0.00000e+00	0.00000e+00	0.00000e+00	0.00000e+00	0.00000e+00	0.00000e+00	0.00000e+00	0.00000e+00	0.00000e+00	0.00000e+00	0.00000e+00	0.00000e+00	-1.56410e+02	-1.27925e+02	-1.23922e+02	-1.82673e+02	-7.57512e+01	-6.11924e+01	-1.55323e+02	-1.62015e+02	-8.33286e+01	-6.57451e+01	-1.72119e+02	-1.69838e+02	-1.79785e+02	-1.77170e+02	-7.38895e+01	-1.49034e+02	
Factor	2.27176e-05	1.55070e-04	4.33590e-05	1.76889e-01	1.36821e-06	1.78199e-06	1.63072e-01	4.85717e-02	1.34987e-06	1.70672e-06	9.20508e-02	2.79817e-02	2.79836e-02	8.82360e-03	1.44751e-06	1.26394e-02	1.41485e-05	2.59860e-05	7.31483e-06	8.80964e-02	2.56862e-07	2.96358e-07	7.67068e-02	2.43435e-02	2.54028e-07	2.93281e-07	4.48789e-02	1.37183e-02	1.41984e-02	4.46541e-03	2.69071e-07	6.22161e-03	X	X	X	X	X	X	X	X	X	X	X	X	X	X	X	X	



#DISTANCE SETTINGS
A = Detector Channel
A-1	A-2	A-3	A-4	A-5	A-6	A-7	A-8	A-9	A-10	A-11	A-12	A-13	A-14	A-15	A-16	

2.5000e+00	3.0000e+00	2.5000e+00	3.0000e+00	2.0000e+00	3.0000e+00	1.5000e+00	3.0000e+00	3.0000e+00	3.0000e+00	3.0000e+00	3.0000e+00	3.0000e+00	3.0000e+00	1.5000e+00	3.0000e+00	

B = Detector Channel
B-1	B-2	B-3	B-4	B-5	B-6	B-7	B-8	B-9	B-10	B-11	B-12	B-13	B-14	B-15	B-16	

1.0000e+01	1.0000e+01	1.0000e+01	1.4400e+00	1.0000e+01	1.0000e+01	1.5100e+00	1.9400e+00	1.0000e+01	1.0000e+01	1.9900e+00	2.4900e+00	2.4100e+00	2.9000e+00	1.0000e+01	2.9800e+00	




#DATA BEGINS
time	group	step	mark	flag	A-AC1	A-AC2	A-AC3	A-AC4	A-AC5	A-AC6	A-AC7	A-AC8	A-AC9	A-AC10	A-AC11	A-AC12	A-AC13	A-AC14	A-AC15	A-AC16	A-DC1	A-DC2	A-DC3	A-DC4	A-DC5	A-DC6	A-DC7	A-DC8	A-DC9	A-DC10	A-DC11	A-DC12	A-DC13	A-DC14	A-DC15	A-DC16	A-Ph1	A-Ph2	A-Ph3	A-Ph4	A-Ph5	A-Ph6	A-Ph7	A-Ph8	A-Ph9	A-Ph10	A-Ph11	A-Ph12	A-Ph13	A-Ph14	A-Ph15	A-Ph16	B-AC1	B-AC2	B-AC3	B-AC4	B-AC5	B-AC6	B-AC7	B-AC8	B-AC9	B-AC10	B-AC11	B-AC12	B-AC13	B-AC14	B-AC15	B-AC16	B-DC1	B-DC2	B-DC3	B-DC4	B-DC5	B-DC6	B-DC7	B-DC8	B-DC9	B-DC10	B-DC11	B-DC12	B-DC13	B-DC14	B-DC15	B-DC16	B-Ph1	B-Ph2	B-Ph3	B-Ph4	B-Ph5	B-Ph6	B-Ph7	B-Ph8	B-Ph9	B-Ph10	B-Ph11	B-Ph12	B-Ph13	B-Ph14	B-Ph15	B-Ph16	aux-1	digaux	

25420.127	1	1	0	768	0.11154	0.14343	0.19918	0.19933	0.20182	0.24268	0.069864	0.11841	0.15642	0.17799	0.11349	0.25514	0.050511	0.22492	0.24453	0.081597	-2.8458	-3.4208	-3.05	-3.5146	-3.1896	-3.2146	-3.7979	-3.3521	-3.2604	-3.4792	-3.4646	-3.6083	-3.2875	-3.2458	-3.4625	-3.1813	118.416	192.106	114.806	239.008	295.811	177.971	263.369	210.245	300.979	-35.623	189.321	-22.875	86.677	-55.862	-26.127	83.484	0.00010671	0.00030447	9.8547e-05	1205.2	2.4016e-06	3.1856e-06	1268	248.53	1.8738e-06	4.0063e-06	310.25	85.607	68.067	19.433	2.7967e-06	27.44	0.0001849	0.0001485	4.5001e-05	1180.8	2.1694e-06	1.6905e-06	1247.1	245.74	1.9867e-06	1.654e-06	306.31	86.202	67.883	19.553	1.5382e-06	27.512	115.052	36.456	29.102	-46.645	111.922	95.626	-46.431	-39.348	70.676	72.793	-39.501	-33.518	-33.063	-25.938	98.587	-26.145	-8191	255	
25420.225	1	1	0	0	0.072512	0.095293	0.31036	0.14918	0.13634	0.046242	0.11544	0.21601	0.077284	0.15116	0.088344	0.13855	0.28749	0.16827	0.14463	0.10273	-2.9188	-3.4833	-3.075	-3.5979	-3.425	-3.0583	-3.7979	-3.3	-3.2417	-3.5563	-3.2271	-3.3833	-3.4646	-3.2188	-3.4083	-3.3438	-7.243	193.616	-19.292	-30.014	186.637	92.645	266.669	6.111	-25.322	35.434	236.836	-3.158	295.915	109.134	117.849	173.342	0.00010833	0.00030105	0.00010557	1207.6	2.3039e-06	3.0973e-06	1269.5	249.36	1.6233e-06	3.1049e-06	309.84	86.339	67.844	19.381	1.668e-06	27.544	0.0001814	0.0001531	4.3218e-05	1182.8	2.0929e-06	1.906e-06	1249.4	245.6	2.0862e-06	1.6247e-06	306.39	86.242	67.955	19.499	1.5219e-06	27.593	113.398	26.577	22.464	-46.456	81.524	96.331	-46.391	-39.496	78.740	83.968	-39.781	-33.366	-33.184	-25.835	83.711	-26.076	-8191	255	
25420.320	1	1	0	0	0.080386	0.042531	0.30872	0.11037	0.090094	0.060959	0.099817	0.079641	0.021367	0.022364	0.28551	0.23935	0.19858	0.24933	0.14045	0.32753	-2.8104	-3.3688	-3.2438	-3.5812	-3.3875	-3.2792	-3.7625	-3.3583	-3.3354	-3.5687	-3.3396	-3.6521	-3.4667	-3.3292	-3.5563	-3.2771	80.247	30.197	164.778	1.947	83.418	250.822	249.105	230.043	0.301	-13.296	285.448	177.370	246.687	-44.141	253.154	297.302	9.9433e-05	0.00033429	7.8538e-05	1207.1	2.4713e-06	2.5125e-06	1273.9	248.53	2.2436e-06	3.2732e-06	310.85	86.374	68.281	19.58	1.0401e-06	27.534	0.00018567	0.00013886	4.0658e-05	1183.4	2.1036e-06	1.7127e-06	1251.6	245.78	2.1598e-06	1.5446e-06	307.25	86.448	68.048	19.588	1.597e-06	27.574	119.616	22.670	37.927	-46.382	97.595	107.456	-46.455	-39.807	98.590	95.554	-39.603	-33.411	-33.079	-26.015	120.320	-26.119	-8191	255	
25420.416	1	1	0	0	0.39585	0.39953	0.24182	0.17897	0.026992	0.15172	0.015419	0.28047	0.25132	0.094061	0.19046	0.10007	0.16218	0.10162	0.13015	0.23152	-2.8979	-3.5167	-3.3417	-3.4667	-3.4167	-3.1979	-3.6292	-3.5333	-3.1146	-3.4313	-3.3187	-3.3229	-3.5229	-3.2062	-3.2958	-3.3375	54.947	141.464	-1.184	268.103	83.505	252.335	283.465	246.535	298.245	124.779	281.354	53.496	214.726	43.176	69.497	100.919	9.8424e-05	0.00024611	7.4443e-05	1208.2	1.9553e-06	3.9178e-06	1273	249.52	1.6416e-06	3.3195e-06	310.06	86.016	68.183	19.515	1.5215e-06	27.438	0.00017854	0.00013653	3.7321e-05	1185.8	2.0485e-06	1.7189e-06	1250.7	245.92	2.0851e-06	1.409e-06	306.62	86.418	67.953	19.578	1.5774e-06	27.583	119.936	35.723	34.822	-46.589	88.277	98.318	-46.284	-39.489	87.373	111.944	-39.689	-33.455	-33.028	-26.077	97.787	-26.137	-8191	255	
25420.510	1	1	0	0	0.0051114	0.09344	0.11175	0.28835	0.17922	0.11886	0.070202	0.23618	0.092096	0.13901	0.11991	0.12228	0.3342	0.039028	0.17595	0.027835	-2.8812	-3.4562	-3.2375	-3.4417	-3.4479	-3.0625	-3.7375	-3.4021	-3.1562	-3.4104	-3.3479	-3.3375	-3.5771	-3.0646	-3.3937	-3.4188	-24.083	-50.277	227.778	270.936	62.138	53.323	3.284	263.963	80.379	-37.428	103.230	1.567	-27.401	22.240	123.657	-32.782	9.255e-05	0.00031363	7.7889e-05	1210.4	1.8788e-06	4.0733e-06	1273	248.2	1.9383e-06	3.1986e-06	310.26	86.334	68.134	19.368	1.5085e-06	27.437	0.00017656	0.00012668	4.1908e-05	1182.7	2.0565e-06	1.4701e-06	1249.6	245.26	2.0153e-06	1.3668e-06	306.42	86.568	67.934	19.506	1.6666e-06	27.537	122.831	27.627	34.710	-46.397	102.123	89.861	-46.426	-39.320	105.977	77.398	-39.764	-33.186	-33.056	-25.992	101.234	-26.152	-8191	255	
25420.607	1	1	0	0	0.060367	0.14042	0.2261	0.021999	0.10696	0.18926	0.26379	0.063167	0.042021	0.39749	0.27587	0.17476	0.21579	0.12795	0.06338	0.2255	-2.6437	-3.3542	-3.2771	-3.4771	-3.525	-3.3354	-3.4958	-3.5021	-3.1771	-3.3917	-3.4208	-3.2458	-3.5479	-3.1854	-3.4354	-3.6688	81.281	118.465	71.984	150.636	-10.970	240.011	222.401	14.527	-13.983	128.030	267.526	159.441	81.157	217.593	235.408	-53.688	9.8625e-05	0.00030526	6.107e-05	1210	2.6006e-06	3.837e-06	1271.1	248.85	1.1433e-06	3.3406e-06	309.73	86.098	67.649	19.445	1.8936e-06	27.359	0.00017111	0.00012852	4.494e-05	1180.2	1.8954e-06	1.5213e-06	1246.8	245.64	1.9539e-06	1.3515e-06	306.17	86.197	67.783	19.481	1.7456e-06	27.488	115.377	38.033	56.134	-46.542	107.893	107.516	-46.235	-39.454	123.579	100.750	-39.604	-33.286	-33.223	-25.748	114.638	-26.343	-8191	255	
25420.727	1	1	0	0	0.41349	0.073941	0.049014	0.20208	0.19401	0.35976	0.38967	0.27304	0.08109	0.10365	0.1989	0.20791	0.1242	0.11828	0.12755	0.10035	-2.9125	-3.3396	-3.3333	-3.1875	-3.5979	-3.0625	-3.525	-3.5479	-3.2917	-3.5604	-3.5312	-3.1417	-3.6667	-3.3063	-3.3896	-3.6125	256.948	-22.352	-52.292	294.401	24.543	132.742	260.209	270.244	281.191	-57.221	247.807	12.274	143.069	-28.530	31.610	82.354	0.0001064	0.00028528	8.3874e-05	1199.9	2.1222e-06	3.5985e-06	1268.6	247.36	1.3305e-06	3.114e-06	309.61	85.969	67.89	19.432	2.7494e-06	27.511	0.00017426	0.00013486	4.0171e-05	1176.7	1.9318e-06	1.5145e-06	1243.9	244.88	1.8719e-06	1.4976e-06	306.13	86.225	67.652	19.485	1.6425e-06	27.527	120.262	23.158	43.014	-46.268	106.957	105.265	-46.221	-39.505	107.706	93.556	-39.605	-33.321	-32.782	-26.121	89.788	-26.127	-8191	255	
25420.822	1	1	0	0	0.1943	0.22804	0.093315	0.23755	0.12106	0.097685	0.18635	0.29933	0.15117	0.071268	0.10093	0.074665	0.072117	0.14172	0.26889	0.36535	-2.6688	-3.4354	-3.4833	-3.25	-3.525	-3.3729	-3.5687	-3.7521	-3.2687	-3.4792	-3.4292	-3.2979	-3.5875	-3.3125	-3.1708	-3.5396	50.525	-31.349	45.109	208.294	210.970	255.707	267.746	273.986	-21.915	182.132	-54.309	105.904	-30.469	222.819	49.917	191.088	9.6662e-05	0.00033959	9.1343e-05	1199.6	2.2228e-06	2.6244e-06	1266.9	247.84	9.9633e-07	2.4085e-06	307.9	85.51	67.642	19.405	1.7991e-06	27.346	0.00017394	0.00014785	4.3127e-05	1174.2	1.8093e-06	1.6967e-06	1241.4	244.33	1.856e-06	1.5697e-06	305.52	85.887	67.656	19.464	1.6851e-06	27.485	113.387	26.697	40.998	-46.353	108.984	88.647	-46.208	-39.530	101.695	96.911	-39.713	-33.193	-32.668	-25.801	103.571	-26.295	-8191	255	
25420.920	1	1	0	0	0.18393	0.19341	0.12949	0.12057	0.055275	0.15735	0.23646	0.13301	0.23803	0.080975	0.10804	0.030233	0.17678	0.35836	0.074051	0.17405	-2.8583	-3.2875	-3.5521	-3.55	-3.6312	-3.4667	-3.4021	-3.6667	-3.2938	-3.5687	-3.5958	-3.3042	-3.6583	-3.2292	-3.2146	-3.6437	36.456	156.986	127.666	285.253	79.385	105.252	226.825	251.087	44.910	219.686	197.982	242.795	124.214	269.973	25.218	192.405	0.00010321	0.00035017	9.1974e-05	1199.5	1.8434e-06	2.0193e-06	1264.9	247.2	1.0307e-06	3.5188e-06	310.55	86.124	67.887	19.316	1.307e-06	27.282	0.00016598	0.00014574	4.1634e-05	1174.3	1.8034e-06	1.4917e-06	1239.4	244.66	1.7713e-06	1.5978e-06	305.51	85.996	67.617	19.441	1.6184e-06	27.486	118.580	43.918	32.911	-46.349	111.254	88.818	-46.375	-39.308	121.639	94.783	-39.512	-33.074	-32.910	-25.710	77.123	-26.459	-8191	255	
25421.016	1	1	0	0	0.35289	0.15989	0.025898	0.1649	0.13146	0.14914	0.16668	0.11193	0.089064	0.14348	0.22992	0.1672	0.36528	0.2338	0.16787	0.21097	-2.9333	-3.1937	-3.5104	-3.4021	-3.4896	-3.4208	-3.2521	-3.5292	-3.1729	-3.3396	-3.7479	-3.2812	-3.5312	-3.5292	-3.2646	-3.6083	80.436	-34.576	248.515	284.341	33.668	90.151	283.885	101.608	91.679	227.021	293.441	179.456	279.664	203.543	-19.176	31.317	8.2406e-05	0.00029346	9.568e-05	1203.2	2.299e-06	2.7678e-06	1264.5	247.32	2.0276e-06	2.6662e-06	310.2	86.111	67.932	19.535	2.1253e-06	27.371	0.00016616	0.00015061	4.0704e-05	1175.6	1.9361e-06	1.5886e-06	1242.7	244.6	1.8412e-06	1.6528e-06	306.23	86.013	67.826	19.576	1.6598e-06	27.5	123.295	33.897	46.288	-46.295	96.001	97.368	-46.405	-39.573	80.947	103.490	-40.026	-33.181	-33.027	-25.613	101.604	-26.154	-8191	255	
25421.111	1	1	0	0	0.13857	0.23394	0.040189	0.15089	0.23704	0.18146	0.16739	0.15666	0.10065	0.17062	0.27354	0.12643	0.22262	0.16272	0.089322	0.098077	-2.9688	-3.2687	-3.6146	-3.425	-3.3979	-3.5125	-3.3292	-3.5083	-3.1813	-3.2021	-3.3979	-3.3312	-3.425	-3.5354	-3.2042	-3.4208	35.990	6.779	276.263	301.169	178.607	288.633	193.519	260.995	100.956	72.717	247.391	164.048	185.465	5.486	8.560	-40.022	9.3178e-05	0.00033141	0.00011731	1204.3	1.1906e-06	2.3284e-06	1266.7	247.82	1.6509e-06	3.1714e-06	310.9	86.429	68.002	19.429	2.6971e-06	27.42	0.00017146	0.00015857	3.7946e-05	1177.7	2.079e-06	1.525e-06	1244	244.87	1.9211e-06	1.6613e-06	306.3	86.233	67.86	19.535	1.6851e-06	27.525	129.483	40.678	44.525	-46.593	127.018	103.434	-46.116	-39.459	110.475	99.899	-39.684	-33.451	-32.970	-26.067	85.235	-26.242	-8191	255	
25421.207	1	1	0	0	0.2655	0.23976	0.048796	0.39246	0.091086	0.20498	0.35957	0.39552	0.15852	0.089581	0.033297	0.02962	0.22527	0.014485	0.2455	0.044865	-2.7771	-3.2708	-3.6125	-3.4625	-3.4188	-3.5979	-3.3875	-3.6208	-3.4521	-3.1854	-3.6437	-3.2188	-3.2833	-3.5333	-3.4229	-3.5812	-45.307	100.715	-44.627	-43.569	7.960	22.017	217.198	300.249	218.893	5.081	-45.324	-39.030	275.947	-14.023	170.351	275.324	8.2819e-05	0.00034165	7.9361e-05	1203	1.2598e-06	2.8176e-06	1267.2	247.24	1.4171e-06	3.4218e-06	310.44	86.214	67.568	19.459	1.8867e-06	27.421	0.0001732	0.00015456	3.3999e-05	1177.6	2.1234e-06	1.4565e-06	1245.8	244.49	2.1031e-06	1.624e-06	306.64	86.208	67.715	19.484	1.5791e-06	27.514	105.392	23.936	33.732	-46.440	117.705	102.888	-46.270	-39.507	107.522	94.093	-39.772	-33.312	-32.836	-26.294	88.839	-26.443	-8191	255	
25421.328	1	1	0	0	0.24819	0.25505	0.15895	0.21057	0.2286	0.14472	0.070541	0.082791	0.10411	0.095963	0.29093	0.18072	0.19639	0.19415	0.1649	0.077057	-3.0979	-3.0708	-3.4729	-3.4396	-3.2896	-3.5479	-3.4229	-3.5833	-3.4521	-3.275	-3.5438	-3.325	-3.3521	-3.4688	-3.3104	-3.5292	-56.196	226.990	298.483	262.123	74.809	121.134	154.283	97.800	250.327	227.823	187.162	-10.654	-41.236	-32.140	101.911	-25.131	0.00010166	0.00023107	0.0001146	1209	2.0637e-06	3.0075e-06	1265.3	247.39	1.3556e-06	3.4308e-06	308.47	86.133	67.489	19.465	1.9598e-06	27.47	0.00018275	0.00014872	3.5218e-05	1177.7	2.0715e-06	1.5874e-06	1244.2	245.01	1.8989e-06	1.5342e-06	306.34	86.214	67.73	19.54	1.6352e-06	27.628	115.930	30.990	32.101	-46.589	64.057	112.280	-46.521	-39.391	106.465	104.561	-39.574	-33.323	-32.876	-26.244	115.820	-26.027	-8191	255	
25421.424	1	1	0	0	0.36079	0.011986	0.23394	0.33047	0.13721	0.093609	0.063193	0.33554	0.13971	0.051593	0.15489	0.12595	0.16978	0.15256	0.15706	0.14849	-3.0708	-3.1417	-3.2938	-3.4208	-3.2521	-3.4771	-3.3771	-3.5021	-3.3563	-3.1208	-3.5583	-3.1979	-3.2687	-3.6937	-3.2792	-3.4	128.455	41.793	149.502	299.734	-37.010	-16.192	-44.548	267.047	220.895	288.238	281.301	167.817	282.232	89.052	245.017	-0.491	9.2204e-05	0.00035993	8.4965e-05	1198.4	1.5886e-06	3.108e-06	1266.5	249.13	1.1069e-06	3.678e-06	310.28	85.781	68.233	19.535	2.8078e-06	27.391	0.00016766	0.00014731	3.4151e-05	1175.4	2.0688e-06	1.4497e-06	1244.7	245.33	1.7941e-06	1.5929e-06	306.49	86.217	67.974	19.575	1.5337e-06	27.575	121.810	33.477	33.172	-46.472	116.117	91.727	-46.431	-39.497	128.073	95.420	-39.518	-33.077	-32.943	-25.608	87.333	-25.609	-8191	255	
25421.520	1	1	0	0	0.36442	0.0090692	0.22646	0.071112	0.12947	0.24736	0.39256	0.30505	0.07615	0.22246	0.10327	0.18131	0.15086	0.33967	0.12142	0.12846	-3.0896	-3.2479	-3.4208	-3.5167	-3.1646	-3.6583	-3.3667	-3.3	-3.5312	-3.2521	-3.5479	-3.4625	-3.2854	-3.6833	-3.3792	-3.4208	124.477	268.569	9.540	-26.760	190.103	97.501	251.360	182.215	188.465	112.338	30.354	246.294	92.199	170.391	16.419	40.291	0.00010153	0.00042603	9.0183e-05	1203.1	1.1053e-06	2.5235e-06	1270.8	248.4	7.8176e-07	3.9054e-06	308.24	85.981	67.969	19.475	3.2263e-06	27.424	0.00017417	0.00013534	3.7473e-05	1179.1	2.0228e-06	1.3608e-06	1248	245.47	1.8973e-06	1.3888e-06	305.93	86.176	67.948	19.538	1.6413e-06	27.578	120.551	34.364	43.835	-46.430	104.688	109.604	-46.361	-39.508	131.754	94.471	-39.746	-33.353	-32.775	-26.032	82.384	-26.242	-8191	255	
25421.615	1	1	0	0	0.21929	0.064476	0.15595	0.11675	0.23677	0.21935	0.2526	0.2435	0.11516	0.14906	0.19924	0.16349	0.070078	0.10911	0.056339	0.052709	-3.1042	-3.2188	-3.4188	-3.4458	-3.2271	-3.5333	-3.5375	-3.3917	-3.4417	-3.2104	-3.6479	-3.4604	-3.1417	-3.6271	-3.2458	-3.4083	282.356	85.838	23.968	235.656	242.566	297.181	203.166	289.632	215.344	-50.890	285.134	238.748	286.931	8.199	82.772	158.277	0.00011267	0.00031865	0.00010096	1203.9	1.8536e-06	3.0898e-06	1266	247.71	1.3834e-06	2.8177e-06	310.17	86.111	68.033	19.526	2.8189e-06	27.328	0.00017426	0.00012993	3.9363e-05	1178.8	1.9746e-06	1.2947e-06	1243.9	245.11	1.8338e-06	1.3014e-06	305.88	86.127	67.828	19.557	1.666e-06	27.478	122.397	41.291	42.363	-46.405	107.817	82.921	-46.338	-39.385	82.698	104.241	-39.688	-33.372	-32.786	-26.163	85.055	-26.162	-8191	255	
25421.711	1	1	0	0	0.29248	0.201	0.13498	0.1755	0.12146	0.10192	0.088935	0.067142	0.12093	0.025528	0.20085	0.083062	0.15265	0.18216	0.089659	0.27114	-2.9917	-3.1021	-3.3604	-3.5896	-3.1667	-3.5292	-3.5187	-3.3875	-3.4292	-3.3083	-3.4125	-3.5187	-3.2771	-3.5625	-3.425	-3.1979	120.374	168.628	-55.252	292.172	249.823	-50.148	289.488	24.189	270.363	-49.432	108.611	265.645	183.220	244.194	156.385	255.198	0.00010623	0.00034863	5.3133e-05	1203.7	2.0376e-06	3.3188e-06	1268.8	248.03	1.5685e-06	3.5304e-06	309	85.861	68.297	19.423	1.7053e-06	27.401	0.00016557	0.00012928	3.9805e-05	1177.2	1.9912e-06	1.3892e-06	1245	245.03	1.7607e-06	1.4255e-06	305.76	86.252	67.876	19.508	1.5903e-06	27.555	121.673	37.069	60.665	-46.468	76.271	105.579	-46.199	-39.552	77.446	97.886	-39.596	-33.685	-32.896	-26.084	86.053	-25.978	-8191	255	
25421.807	1	1	0	0	0.090607	0.20089	0.081807	0.386	0.11738	0.19933	0.20418	0.15304	0.051362	0.12857	0.079406	0.20312	0.21355	0.13363	0.11437	0.068704	-3.0958	-3.2188	-3.3729	-3.8229	-3.1208	-3.4792	-3.5812	-3.3271	-3.4021	-3.3771	-3.4229	-3.4833	-3.1146	-3.4562	-3.2646	-3.1271	-51.917	283.131	167.557	266.800	277.745	237.637	202.542	270.195	263.953	185.013	216.452	244.221	-26.340	219.386	52.388	183.244	9.6536e-05	0.00039418	9.3922e-05	1200.4	2.0491e-06	2.2872e-06	1262.4	248.07	1.8732e-06	2.6264e-06	309.14	85.754	67.774	19.42	1.6536e-06	27.248	0.00016044	0.00013345	4.3249e-05	1175.7	1.881e-06	1.3886e-06	1240.4	244.73	1.8248e-06	1.522e-06	305.47	86.187	67.732	19.48	1.6133e-06	27.483	119.232	18.935	39.410	-46.401	101.927	121.385	-46.459	-39.502	101.224	124.488	-39.726	-33.465	-32.625	-26.345	101.488	-26.150	-8191	255	
25421.904	1	1	0	0	0.10047	0.081615	0.1071	0.11945	0.089061	0.059708	0.30951	0.28459	0.12218	0.10865	0.10892	0.061407	0.10289	0.27949	0.22246	0.27698	-3.0292	-3.2146	-3.2292	-3.6063	-3.1229	-3.3542	-3.4167	-3.275	-3.4146	-3.2271	-3.4104	-3.5458	-3.1958	-3.2792	-3.4771	-3.1042	237.014	241.451	50.077	209.996	80.835	182.194	219.362	239.388	-46.332	45.225	16.550	50.076	301.244	289.793	49.589	-48.709	0.00010782	0.00036169	7.313e-05	1199.1	1.9077e-06	2.499e-06	1265.1	248.77	9.8184e-07	3.2458e-06	309.56	86.126	67.678	19.496	2.7333e-06	27.3	0.00016353	0.00015294	4.4011e-05	1171.8	1.9447e-06	1.5528e-06	1238.9	244.55	1.6803e-06	1.676e-06	305.32	86.053	67.763	19.498	1.578e-06	27.495	123.465	42.412	46.871	-46.401	79.653	94.805	-46.318	-39.289	58.783	108.155	-39.801	-33.260	-32.814	-26.037	100.859	-26.256	-8191	255	
25422.000	1	1	0	0	0.073497	0.08875	0.26848	0.118	0.10435	0.048419	0.20397	0.20259	0.084979	0.074044	0.26446	0.12142	0.069858	0.20377	0.032921	0.12966	-2.9854	-3.3042	-3.175	-3.6271	-3.1042	-3.3833	-3.4854	-3.1125	-3.4292	-3.3312	-3.1562	-3.4979	-3.1979	-3.4208	-3.3333	-3.1271	4.089	14.233	118.013	157.056	103.075	116.147	30.545	209.988	161.495	301.700	185.258	-39.982	260.552	49.598	244.129	210.334	9.3435e-05	0.00033721	8.1965e-05	1199.7	1.9577e-06	1.1387e-06	1263.4	246.93	7.9371e-07	2.6018e-06	309.69	86.382	67.539	19.378	2.7326e-06	27.286	0.00016822	0.00015803	4.3798e-05	1171.8	1.8981e-06	1.7244e-06	1240.4	244.42	1.9031e-06	1.4071e-06	305.22	86.08	67.736	19.48	1.5427e-06	27.487	112.191	25.129	51.613	-46.451	101.858	107.581	-46.331	-39.636	87.259	94.325	-39.586	-32.849	-32.954	-25.788	103.981	-25.946	-8191	255	
25422.096	1	1	0	0	0.13644	0.13013	0.095063	0.28445	0.19665	0.079549	0.12436	0.23883	0.16166	0.15909	0.16404	0.15441	0.16948	0.31617	0.20572	0.16341	-3.0625	-3.3812	-3.3104	-3.3875	-3.2979	-3.2708	-3.4333	-3.2479	-3.4583	-3.1708	-3.2875	-3.3958	-3.2604	-3.3625	-3.3021	-3.2854	11.621	71.206	-17.706	276.214	111.751	198.970	221.119	289.425	-43.435	246.949	215.733	139.203	-22.887	18.299	131.045	63.021	8.8432e-05	0.00033315	9.0163e-05	1195.7	2.151e-06	2.0858e-06	1263	246.82	1.7952e-06	2.4774e-06	310.66	86.188	67.766	19.485	1.46e-06	27.457	0.0001709	0.00015223	4.1039e-05	1171.6	1.9366e-06	1.5479e-06	1242.3	244.87	1.9063e-06	1.5617e-06	306.28	86.202	67.797	19.591	1.5203e-06	27.628	129.650	23.499	34.788	-46.408	109.093	91.808	-46.395	-39.760	84.336	105.225	-39.569	-33.148	-32.801	-26.291	73.739	-26.205	-8191	255	
25422.217	1	1	0	0	0.038675	0.1388	0.18092	0.13553	0.13076	0.14693	0.46625	0.06363	0.18416	0.05832	0.034083	0.15066	0.05195	0.11159	0.11485	0.019056	-3.0563	-3.2438	-3.0438	-3.6188	-3.1292	-3.2021	-3.5687	-3.1417	-3.3125	-3.3208	-3.0667	-3.4375	-3.4271	-3.2875	-3.4083	-3.2583	275.603	3.271	88.474	268.546	72.435	45.881	261.402	180.325	61.362	232.426	166.995	-40.711	30.951	200.114	191.634	108.160	8.8175e-05	0.00028326	7.1681e-05	1199.1	1.5837e-06	3.0021e-06	1262.6	248.02	7.498e-07	2.1954e-06	310.51	86.154	67.98	19.427	2.1891e-06	27.243	0.00016716	0.00013729	4.1771e-05	1174.9	2.0865e-06	1.6571e-06	1240.7	245.06	1.8925e-06	1.5684e-06	306.61	86.244	67.969	19.548	1.4457e-06	27.571	122.322	36.817	37.102	-46.372	100.530	87.344	-46.525	-39.464	80.944	74.282	-40.133	-33.330	-33.390	-26.006	90.363	-26.394	-8191	255	
25422.287	1	1	0	0	0.14381	0.16731	0.14499	0.37736	0.19117	0.042692	0.20554	0.12773	0.14494	0.099826	0.11293	0.096694	0.13039	0.07368	0.079312	0.097195	-2.8438	-3.4	-3.1896	-3.6312	-3.2792	-3.0542	-3.5938	-3.2	-3.3104	-3.25	-3.0438	-3.5917	-3.3604	-3.1125	-3.5458	-3.1521	223.777	-51.972	270.686	266.719	160.177	102.992	226.608	276.890	-4.496	132.414	38.169	-31.452	198.605	212.909	165.577	138.533	0.00010315	0.00024644	0.00010927	1201.3	1.4391e-06	3.5074e-06	1263.4	248.17	1.505e-06	2.5219e-06	309.3	86.053	67.708	19.439	2.606e-06	27.311	0.00018036	0.00014206	4.046e-05	1176.6	2.0025e-06	1.8282e-06	1241.4	245.29	2.0179e-06	1.4945e-06	305.89	86.282	67.922	19.526	1.3868e-06	27.574	109.519	21.914	33.477	-46.305	82.959	100.050	-46.371	-39.443	54.994	118.381	-39.933	-33.056	-32.372	-26.364	88.588	-26.671	-8191	255	
25422.408	1	1	0	0	0.05319	0.20894	0.16076	0.18427	0.25924	0.14061	0.2296	0.055146	0.048583	0.22238	0.25865	0.25047	0.16194	0.049287	0.037492	0.16664	-2.8729	-3.4771	-3.1854	-3.6688	-3.3229	-3.1958	-3.4854	-3.2625	-3.3	-3.3937	-3.2792	-3.4313	-3.3958	-3.2875	-3.2708	-3.2729	262.113	166.300	273.135	218.585	-52.234	-19.088	243.189	213.306	-40.768	78.570	-33.972	195.726	74.312	10.180	10.348	272.927	0.00010212	0.00038786	7.005e-05	1198.4	2.4548e-06	3.717e-06	1268.2	247.68	1.0014e-06	3.1796e-06	309.8	86.56	68.11	19.538	2.4435e-06	27.457	0.00017807	0.00012679	3.8753e-05	1175.8	1.9393e-06	1.6837e-06	1243.3	245.09	2.0735e-06	1.4756e-06	306.32	86.218	67.981	19.581	1.4507e-06	27.7	112.979	44.383	40.143	-46.316	95.247	104.367	-46.197	-39.569	86.328	87.988	-39.736	-33.563	-33.345	-25.990	115.639	-26.259	-8191	255	
25422.504	1	1	0	0	0.18152	0.08388	0.14288	0.17584	0.24914	0.13232	0.20363	0.15141	0.040956	0.17276	0.098697	0.26905	0.092553	0.12989	0.13892	0.16173	-2.7646	-3.4062	-3.1167	-3.4104	-3.325	-3.1083	-3.6271	-3.4437	-3.3771	-3.4562	-3.2562	-3.2833	-3.4396	-3.3	-3.4396	-3.2438	114.181	276.519	-10.828	237.177	-45.616	228.079	165.222	-13.390	158.778	188.503	6.073	-22.005	172.570	264.478	150.701	141.911	0.00010537	0.00031884	9.1981e-05	1202.6	1.0434e-06	3.3886e-06	1267.5	248.53	1.5176e-06	2.4708e-06	311.74	85.882	67.662	19.551	2.5299e-06	27.586	0.00018414	0.00013296	4.2548e-05	1175.4	2.1127e-06	1.4725e-06	1243.5	245.33	1.9756e-06	1.434e-06	306.71	86.489	67.837	19.606	1.5786e-06	27.666	123.342	38.993	42.881	-46.325	106.822	97.893	-46.354	-39.533	86.126	102.570	-39.617	-33.312	-33.162	-25.834	99.353	-26.061	-8191	255	
25422.600	1	1	0	0	0.13836	0.13702	0.096494	0.28965	0.16822	0.087206	0.30255	0.082883	0.26161	0.22404	0.19522	0.13675	0.21356	0.11458	0.22505	0.23435	-2.7542	-3.4208	-3.2208	-3.4354	-3.475	-3.2188	-3.6104	-3.4479	-3.025	-3.4854	-3.4542	-3.3208	-3.3708	-3.1854	-3.1479	-3.4667	6.991	58.309	86.797	259.985	295.575	172.312	222.795	111.593	286.060	301.365	134.530	67.600	16.867	106.051	281.773	247.526	0.0001054	0.00035547	7.4175e-05	1201.7	1.6312e-06	3.0408e-06	1259.9	248.16	1.5872e-06	3.0397e-06	310.43	86.193	68.132	19.509	2.3796e-06	27.475	0.00016763	0.00013145	3.7031e-05	1174.7	2.0025e-06	1.5559e-06	1239.3	244.93	2.0195e-06	1.3479e-06	306.15	86.358	67.816	19.565	1.5752e-06	27.611	117.780	28.785	37.399	-46.340	105.309	104.095	-46.278	-39.598	98.547	88.855	-39.978	-33.369	-33.148	-26.037	89.967	-26.286	-8191	255	
25422.695	1	1	0	0	0.11349	0.12727	0.078512	0.12326	0.13918	0.17869	0.099509	0.010751	0.0048377	0.092237	0.3165	0.076649	0.24578	0.032401	0.37006	0.22279	-2.7583	-3.3854	-3.0917	-3.3417	-3.425	-3.0104	-3.4979	-3.3063	-3.1083	-3.4667	-3.2396	-3.3021	-3.6688	-3.0979	-3.3438	-3.2875	129.821	-56.373	-2.215	254.282	69.158	18.724	254.715	293.109	-49.671	77.077	105.140	28.149	-42.230	157.718	170.858	168.820	9.2493e-05	0.00038742	0.00012933	1199.2	2.1373e-06	3.4332e-06	1265.2	248.16	1.4035e-06	2.6689e-06	309.36	85.705	68.102	19.525	2.6778e-06	27.367	0.00017995	0.00013128	4.2959e-05	1174.7	1.9222e-06	1.5621e-06	1241.4	245.27	1.9909e-06	1.4285e-06	306.92	86.203	68.08	19.609	1.768e-06	27.616	112.137	48.675	40.051	-46.299	109.567	107.148	-46.389	-39.569	117.394	95.927	-39.595	-33.489	-32.930	-26.190	74.000	-26.239	-8191	255	
25422.816	1	1	0	0	0.3981	0.1289	0.13639	0.33358	0.063164	0.061253	0.4829	0.12094	0.27286	0.20441	0.3063	0.085054	0.067873	0.17763	0.14151	0.19545	-2.6146	-3.2708	-3.0833	-3.3625	-3.4542	-3.2458	-3.4417	-3.4771	-3.0271	-3.4542	-3.2875	-3.2396	-3.4417	-3.2271	-3.3771	-3.4	223.184	163.057	129.900	261.433	208.944	79.346	237.085	279.225	50.801	-55.897	268.223	159.935	131.337	-51.984	250.142	4.201	0.00011476	0.00033334	0.00010809	1202.4	2.7005e-06	2.8485e-06	1264.3	248.33	2.3205e-06	2.6823e-06	310.36	86.637	68.277	19.521	2.963e-06	27.552	0.00017562	0.0001315	4.395e-05	1176.2	1.9431e-06	1.4849e-06	1243.4	245.52	1.9169e-06	1.4542e-06	306.87	86.529	68.038	19.631	1.7523e-06	27.664	117.389	35.901	45.222	-46.421	109.401	103.506	-46.372	-39.309	83.431	105.624	-39.601	-33.284	-32.739	-25.521	84.715	-25.953	-8191	255	
25422.912	1	1	0	0	0.28636	0.19642	0.18781	0.28615	0.24616	0.040283	0.1194	0.13449	0.17758	0.12375	0.18043	0.17137	0.097231	0.14364	0.091607	0.1586	-2.7	-3.3604	-3.225	-3.2979	-3.3354	-3.1708	-3.5021	-3.4437	-2.9104	-3.5104	-3.4083	-3.2917	-3.525	-3.2062	-3.1729	-3.5312	233.522	-37.331	59.699	294.775	198.198	-2.604	262.797	11.861	7.159	66.637	289.918	-10.688	231.566	244.228	101.650	225.830	9.4514e-05	0.00033172	7.6626e-05	1203.3	2.1117e-06	2.48e-06	1264.1	247.47	1.9505e-06	2.665e-06	310.01	86.424	67.898	19.429	2.6959e-06	27.762	0.00017182	0.00013751	4.1161e-05	1175.4	1.7772e-06	1.6121e-06	1242.8	245.61	1.8761e-06	1.5208e-06	306.89	86.439	67.858	19.601	1.6929e-06	27.669	115.614	21.283	30.294	-46.304	106.699	100.635	-46.239	-39.687	78.920	77.630	-39.740	-32.984	-33.137	-25.770	81.797	-26.391	-8191	255	
25422.984	1	1	0	0	0.12662	0.11281	0.19427	0.0356	0.11447	0.10779	0.19507	0.069523	0.12508	0.17145	0.14724	0.10328	0.16488	0.024261	0.070017	0.091853	-2.7104	-3.3333	-3.15	-3.2021	-3.4708	-3.1688	-3.3021	-3.3979	-3.2062	-3.4417	-3.4292	-3.1354	-3.3604	-3.1646	-3.1354	-3.5	-37.900	121.075	80.594	123.999	159.665	234.645	200.902	245.621	190.551	140.391	182.857	295.562	46.561	210.492	172.180	62.966	9.8596e-05	0.00030601	0.00011679	1203.3	2.5289e-06	4.3857e-06	1263.9	249.37	1.8279e-06	3.0633e-06	309.43	86.431	67.894	19.54	1.8094e-06	27.509	0.00017361	0.00014633	4.1466e-05	1175.3	1.9859e-06	1.8263e-06	1242.5	245.58	1.8825e-06	1.7334e-06	306.71	86.506	67.867	19.64	1.8375e-06	27.641	111.849	43.390	38.867	-46.534	111.677	95.197	-46.296	-39.480	80.294	106.433	-39.605	-33.183	-32.957	-25.993	95.163	-26.280	-8191	255	
25423.105	1	1	0	0	0.22781	0.035259	0.16653	0.23394	0.25284	0.27231	0.13938	0.15221	0.044347	0.22958	0.081749	0.16227	0.17251	0.05156	0.12888	0.010592	-2.7313	-3.2021	-3.2771	-3.2208	-3.4896	-3.2917	-3.4125	-3.6083	-3.2438	-3.4	-3.4646	-3.1083	-3.5104	-3.4167	-3.1771	-3.5771	156.383	-13.112	-23.838	188.545	148.989	201.745	225.250	188.547	57.281	283.346	219.368	299.251	132.373	3.120	228.089	-26.659	9.1893e-05	0.00032613	7.2726e-05	1201.6	2.1123e-06	3.8613e-06	1265.4	248.29	1.3152e-06	3.2393e-06	310.69	86.333	68.376	19.585	3.1608e-06	27.569	0.00017639	0.00014189	3.9835e-05	1177.3	2.0041e-06	1.7763e-06	1243.2	245.61	1.9417e-06	1.6986e-06	307.3	86.532	67.973	19.602	1.7484e-06	27.707	114.439	38.204	46.381	-46.361	94.481	100.809	-46.500	-39.436	127.419	113.079	-39.808	-33.299	-32.883	-25.861	96.551	-26.533	-8191	255	
25423.201	1	1	0	0	0.1423	0.17118	0.043623	0.14888	0.11503	0.033384	0.081061	0.13944	0.25074	0.33117	0.22543	0.042437	0.39436	0.12249	0.11296	0.17781	-2.7625	-3.1688	-3.2583	-3.2812	-3.5187	-3.3271	-3.2771	-3.5146	-3.2062	-3.3563	-3.4208	-3.2104	-3.2583	-3.3083	-2.9958	-3.5438	97.460	58.421	298.795	-24.141	111.919	50.841	190.512	245.757	-5.331	141.011	155.989	19.037	264.589	252.781	217.666	180.284	0.00010141	0.00031357	7.4635e-05	1205.5	2.4144e-06	2.9025e-06	1264.2	248.24	1.1776e-06	3.0627e-06	310.3	86.592	67.601	19.476	3.0092e-06	27.635	0.00017612	0.00014303	4.3097e-05	1179	1.9158e-06	1.6781e-06	1242.6	245.67	2.0238e-06	1.6613e-06	306.88	86.305	68.014	19.56	1.7193e-06	27.661	117.209	40.683	50.347	-46.477	113.426	97.150	-46.406	-39.723	112.487	107.985	-39.513	-33.529	-32.894	-25.889	80.691	-26.306	-8191	255	
25423.297	1	1	0	0	0.23888	0.096204	0.09213	0.37598	0.27574	0.16738	0.23078	0.10121	0.25282	0.25884	0.14303	0.17189	0.13816	0.36984	0.2273	0.12981	-2.7938	-2.925	-3.4958	-3.2958	-3.3229	-3.2313	-3.1292	-3.4917	-3.1771	-3.2646	-3.5563	-3.2854	-3.5312	-3.3688	-3.1375	-3.4917	115.593	253.253	65.536	213.510	146.404	167.350	250.559	258.279	49.138	44.342	284.800	250.857	229.740	6.717	212.721	26.479	0.00011914	0.00041556	5.7861e-05	1203.1	2.628e-06	1.6524e-06	1267.1	248.81	1.027e-06	1.8179e-06	312.42	86.109	68.598	19.499	1.7346e-06	27.465	0.00016554	0.00016734	3.633e-05	1176.6	1.9329e-06	1.7257e-06	1244.2	246.02	1.9994e-06	1.5843e-06	307.58	86.38	68.076	19.575	1.555e-06	27.665	121.383	29.125	31.685	-46.578	117.042	107.399	-46.369	-39.579	87.849	94.581	-39.598	-32.931	-33.365	-25.928	99.778	-26.044	-8191	255	
25423.393	1	1	0	0	0.12727	0.22007	0.11794	0.060694	0.085995	0.017573	0.32668	0.18266	0.13327	0.19662	0.071894	0.10647	0.17309	0.037409	0.28709	0.20204	-2.8833	-3.0896	-3.3646	-3.2771	-3.3521	-3.2542	-3.1896	-3.5292	-3.1667	-3.1562	-3.425	-3.2938	-3.2604	-3.4708	-3.1896	-3.4313	-56.730	86.324	9.939	169.751	123.194	-43.447	275.784	285.458	194.878	208.385	111.111	182.291	176.308	106.156	252.385	269.041	0.00010499	0.00029522	0.00011208	1198.9	1.9833e-06	3.0754e-06	1269.4	248.63	9.8138e-07	3.1038e-06	308.87	86.238	68.171	19.569	2.191e-06	27.442	0.00017544	0.00014931	3.9073e-05	1173.5	1.9859e-06	1.7004e-06	1245.3	245.81	1.9629e-06	1.5306e-06	306.72	86.422	68.001	19.551	1.6419e-06	27.578	113.941	37.896	26.400	-46.431	87.473	104.872	-46.477	-39.610	88.042	113.598	-39.472	-33.389	-32.961	-26.289	112.359	-26.386	-8191	255	
25423.512	1	1	0	0	0.11563	0.21809	0.13165	0.18651	0.11149	0.055306	0.098806	0.097992	0.23236	0.15358	0.22629	0.18923	0.24752	0.099074	0.054327	0.18322	-2.7854	-2.9833	-3.4625	-3.4104	-3.3812	-3.4854	-3.1875	-3.4625	-3.2417	-3.2604	-3.5458	-3.1646	-3.2583	-3.4417	-3.1771	-3.4313	230.679	266.932	64.910	284.758	155.751	-26.494	281.080	300.197	212.132	-12.443	227.997	231.811	-33.819	221.275	150.130	35.500	0.00010412	0.00028176	9.061e-05	1208.6	1.3957e-06	2.9685e-06	1264.5	248.2	1.4284e-06	3.4641e-06	311.65	86.526	68.198	19.475	1.0184e-06	27.457	0.00018234	0.00013978	3.5233e-05	1175.8	1.981e-06	1.3793e-06	1243.4	245.66	1.9592e-06	1.5672e-06	307.22	86.445	68.002	19.572	1.4625e-06	27.608	118.018	30.970	35.032	-46.686	125.502	82.464	-46.331	-39.569	73.844	111.365	-39.670	-33.116	-32.873	-25.797	132.745	-26.322	-8191	255	
25423.586	1	1	0	0	0.021664	0.21425	0.14871	0.27398	0.17284	0.079403	0.23805	0.22691	0.028429	0.19152	0.13844	0.065952	0.13997	0.12941	0.064044	0.13636	-3.0438	-3.1229	-3.4562	-3.3729	-3.3125	-3.4688	-3.3021	-3.3937	-3.275	-3.2604	-3.2958	-3.2042	-3.0625	-3.5292	-3.125	-3.5417	112.816	190.388	-18.187	-33.789	-4.721	177.347	175.591	210.292	300.846	297.278	-16.849	132.150	255.736	51.432	289.758	185.541	9.561e-05	0.00026725	7.8768e-05	1201.8	2.2837e-06	2.8343e-06	1260.7	248.58	1.0542e-06	2.2354e-06	310.8	86.268	68.24	19.453	1.6209e-06	27.338	0.00017839	0.00013453	3.6193e-05	1176.1	1.9682e-06	1.3818e-06	1240.7	245.86	1.8391e-06	1.3265e-06	307.14	86.349	67.934	19.536	1.6397e-06	27.577	127.728	20.058	51.884	-46.298	97.723	104.005	-46.234	-39.634	116.531	93.534	-39.943	-33.456	-33.229	-26.143	114.509	-26.589	-8191	255	
25423.680	1	1	0	0	0.28097	0.215	0.15473	0.12965	0.14477	0.18292	0.051403	0.36157	0.022361	0.078115	0.17251	0.12424	0.16176	0.20728	0.12324	0.17135	-2.9771	-3.2521	-3.3833	-3.3146	-3.1688	-3.5792	-3.3167	-3.4458	-3.5229	-3.2125	-3.3792	-3.4062	-3.1042	-3.6562	-3.1562	-3.2167	129.768	297.483	16.402	232.390	187.338	200.753	-32.940	273.377	246.967	68.238	19.243	249.839	290.023	189.725	59.235	232.318	0.00010808	0.00043167	7.7571e-05	1198.7	1.7824e-06	2.8565e-06	1263.2	247.33	8.442e-07	3.5719e-06	311.23	85.749	67.636	19.539	2.3943e-06	27.38	0.00017783	0.00013513	3.6193e-05	1173.1	2.1031e-06	1.3268e-06	1240.3	245.41	1.8216e-06	1.497e-06	307.44	86.137	67.78	19.539	1.6867e-06	27.611	115.424	29.460	39.483	-46.502	92.864	113.637	-46.459	-39.166	118.803	100.691	-39.538	-33.161	-33.129	-25.813	93.719	-26.727	-8191	255	
25423.775	1	1	0	0	0.17764	0.20417	0.091622	0.1144	0.031088	0.28172	0.4003	0.091112	0.051781	0.055288	0.13679	0.074484	0.13107	0.27788	0.20254	0.17837	-2.9979	-3.1521	-3.4104	-3.575	-3.2229	-3.5083	-3.2625	-3.3458	-3.2896	-3.2313	-3.4021	-3.3333	-3.2167	-3.5375	-3.1688	-3.3063	-1.107	153.712	93.360	-53.021	127.675	13.593	213.039	121.703	237.386	236.601	-6.375	182.930	221.405	278.447	247.108	243.496	0.00010795	0.0002928	8.6216e-05	1202.6	1.5796e-06	3.8748e-06	1268.1	249.22	1.1349e-06	3.4031e-06	310.02	85.856	67.987	19.501	2.7233e-06	27.223	0.0001628	0.00012868	3.7991e-05	1177.3	1.981e-06	1.333e-06	1244.1	245.97	1.5961e-06	1.4194e-06	307.01	86.292	67.812	19.572	1.6699e-06	27.524	121.603	29.778	64.392	-46.534	108.966	85.672	-46.315	-39.318	106.220	96.184	-39.543	-33.202	-32.652	-26.207	104.238	-26.282	-8191	255	
25423.896	1	1	0	0	0.027244	0.054012	0.28989	0.23672	0.1041	0.062218	0.2014	0.24311	0.095963	0.2017	0.21339	0.083464	0.25839	0.35037	0.10232	0.24149	-2.9188	-3.3229	-3.3542	-3.4479	-3.1	-3.5667	-3.4104	-3.2083	-3.5333	-3.1354	-3.3333	-3.5042	-3.1771	-3.3896	-3.2979	-3.3063	236.477	187.870	194.419	-55.692	-2.414	207.009	247.688	204.064	152.406	178.002	205.019	13.346	29.696	-41.499	146.165	222.235	9.638e-05	0.00032567	9.0862e-05	1199.2	9.4623e-07	3.372e-06	1266.2	246.45	1.8105e-06	2.8525e-06	309.81	85.616	67.966	19.393	2.897e-06	27.365	0.00015696	0.00013404	3.9927e-05	1174.3	1.8697e-06	1.3447e-06	1242.2	244.36	1.7475e-06	1.5165e-06	306.17	86.071	67.687	19.491	1.5763e-06	27.559	115.186	23.371	31.642	-46.425	114.105	112.269	-46.280	-39.385	71.217	91.990	-39.608	-33.494	-33.050	-25.943	91.997	-25.745	-8191	255	
25423.992	1	1	0	0	0.14715	0.15129	0.18347	0.13383	0.16318	0.2593	0.11496	0.21543	0.24545	0.19075	0.30071	0.12977	0.098631	0.1238	0.15336	0.15438	-3.1396	-3.2833	-3.3292	-3.4875	-3.2562	-3.5208	-3.35	-3.3521	-3.6625	-3.2667	-3.5333	-3.45	-3.2083	-3.325	-3.2292	-3.1979	216.850	-37.865	-46.653	272.075	97.989	-54.237	243.974	162.869	-38.512	34.640	-44.065	281.454	-3.499	199.639	174.318	-11.476	0.0001028	0.0002643	9.6371e-05	1195.4	1.8004e-06	1.5862e-06	1259.1	247.77	1.2448e-06	2.8222e-06	310.36	86.186	67.922	19.535	1.7011e-06	27.333	0.00015826	0.00013561	3.5203e-05	1170.3	1.7563e-06	1.2713e-06	1238.6	245.22	1.675e-06	1.6259e-06	306.42	86.276	67.747	19.549	1.4334e-06	27.544	117.307	56.893	47.207	-46.371	93.304	86.763	-46.566	-39.396	75.067	76.983	-39.660	-33.150	-33.054	-26.266	96.141	-26.299	-8191	255	
25424.090	1	1	0	0	0.21022	0.32157	0.1705	0.27263	0.11558	0.04196	0.29364	0.30798	0.10901	0.16511	0.02243	0.17398	0.17153	0.043593	0.20622	0.17573	-3.0708	-3.275	-3.1729	-3.6146	-3.1792	-3.3646	-3.4146	-3.3604	-3.4896	-3.3937	-3.2313	-3.6312	-3.1063	-3.4333	-3.4792	-3.2062	235.626	69.142	222.249	-44.298	226.005	265.865	207.556	268.958	239.949	4.972	11.701	-20.203	-36.346	-43.896	168.377	117.793	0.0001094	0.00035831	8.0255e-05	1199.2	2.1296e-06	3.1033e-06	1265.3	247.15	1.4029e-06	3.395e-06	311.36	85.855	67.504	19.588	2.6875e-06	27.368	0.00016017	0.00014514	3.8327e-05	1172.9	1.8574e-06	1.4522e-06	1239.2	244.96	1.7501e-06	1.6344e-06	306.1	86.087	67.649	19.553	1.4928e-06	27.491	111.267	37.278	47.487	-46.276	111.162	80.189	-46.333	-39.570	121.363	94.805	-39.717	-33.068	-33.125	-26.127	96.796	-26.303	-8191	255	
25424.186	1	1	0	0	0.23331	0.45538	0.26361	0.047055	0.053281	0.31161	0.30092	0.17374	0.35444	0.36373	0.12766	0.21645	0.18426	0.15502	0.074057	0.28777	-3.0646	-3.1521	-3.2438	-3.5042	-3.1292	-3.2854	-3.3229	-3.1333	-3.3917	-3.15	-3.1562	-3.5042	-3.3104	-3.3958	-3.3354	-3.0708	180.240	201.646	32.583	251.209	-9.361	269.963	241.114	228.392	83.658	-43.072	193.124	177.780	57.507	-50.560	245.378	156.945	0.00011516	0.00035684	5.5376e-05	1198.3	1.2585e-06	2.6717e-06	1264.6	248.58	1.9139e-06	3.6189e-06	310.34	86.002	67.874	19.458	2.2975e-06	27.189	0.00017232	0.00013448	4.142e-05	1172.4	1.8457e-06	1.3077e-06	1239.3	245.06	1.7978e-06	1.4462e-06	306.26	86.252	67.791	19.507	1.4894e-06	27.473	121.097	38.928	20.431	-46.371	75.736	98.552	-46.448	-39.441	91.324	95.123	-39.764	-33.408	-33.150	-25.704	83.439	-26.111	-8191	255	
25424.281	1	1	0	0	0.087106	0.13288	0.090117	0.3844	0.15228	0.015229	0.35358	0.18502	0.09043	0.14677	0.45033	0.16792	0.23394	0.22899	0.038719	0.37332	-2.8333	-3.1188	-3.2188	-3.5896	-3.125	-3.2667	-3.5021	-3.3417	-3.375	-3.4542	-3.1208	-3.6375	-3.2313	-3.3229	-3.375	-3.1875	20.065	102.524	180.044	243.021	180.717	218.551	209.138	172.421	123.740	37.892	301.341	247.633	246.069	74.888	-51.563	287.434	9.824e-05	0.00033542	9.2805e-05	1195.1	1.5231e-06	3.3411e-06	1260.7	248.2	1.3859e-06	3.6371e-06	309.81	85.418	67.305	19.471	1.9234e-06	27.41	0.00016209	0.00012776	3.5995e-05	1169.7	1.9837e-06	1.5769e-06	1236.5	244.98	1.7369e-06	1.6094e-06	305.89	86.015	67.611	19.52	1.3992e-06	27.524	121.950	51.233	34.655	-46.318	103.584	113.448	-46.195	-39.394	86.888	102.407	-39.383	-33.250	-32.981	-26.021	79.618	-26.406	-8191	255	
25424.377	1	1	0	0	0.020735	0.12379	0.15403	0.094958	0.040277	0.097256	0.20157	0.085716	0.15863	0.10659	0.11136	0.15923	0.016108	0.099342	0.11246	0.13588	-2.8854	-3.3812	-3.1312	-3.5729	-3.3146	-3.1625	-3.6021	-3.3667	-3.3812	-3.4146	-3.2333	-3.5583	-3.3542	-3.1771	-3.5625	-3.2021	90.117	138.375	239.502	197.673	49.133	139.038	237.991	29.217	248.139	177.003	-38.953	231.481	139.944	179.325	214.741	275.732	0.00010555	0.00036736	9.3649e-05	1198	1.7126e-06	2.3131e-06	1257.4	247.18	1.4613e-06	3.1359e-06	308.69	85.547	67.563	19.345	1.9348e-06	27.361	0.00016692	0.00013432	3.7351e-05	1169.4	1.897e-06	1.3608e-06	1235.9	244.51	1.7528e-06	1.299e-06	305.35	86.093	67.606	19.48	1.4182e-06	27.497	112.689	35.655	30.317	-46.406	121.808	119.429	-46.245	-39.259	106.740	105.154	-39.636	-32.916	-32.974	-26.076	112.041	-25.975	-8191	255	
25424.498	1	1	0	0	0.16724	0.068024	0.20045	0.099389	0.097844	0.17371	0.21306	0.15687	0.058296	0.068012	0.27289	0.16666	0.27044	0.017223	0.20803	0.077601	-2.8438	-3.3354	-3.0958	-3.4917	-3.1729	-3.1604	-3.55	-3.1979	-3.2812	-3.4667	-3.0521	-3.4562	-3.2521	-3.1208	-3.4833	-3.1813	265.229	181.268	78.052	257.167	167.496	191.884	227.379	219.086	-54.329	260.085	187.278	89.782	295.800	77.923	161.764	180.636	9.9923e-05	0.00035925	9.7346e-05	1194.5	2.3632e-06	3.4785e-06	1258.3	248.47	2.1601e-06	3.0497e-06	309.18	86.014	68.198	19.504	2.0729e-06	27.61	0.00017388	0.00013177	3.8433e-05	1168.7	1.9382e-06	1.2997e-06	1235.5	244.81	1.7422e-06	1.2263e-06	306.14	85.989	67.69	19.509	1.4042e-06	27.6	113.649	26.564	19.106	-46.318	95.562	92.113	-46.529	-39.435	124.431	115.408	-39.893	-33.129	-33.226	-25.513	100.359	-25.841	-8191	255	
25424.592	1	1	0	0	0.18512	0.16478	0.0208	0.22647	0.18654	0.01908	0.28082	0.306	0.0553	0.074918	0.088496	0.098769	0.08944	0.13783	0.12482	0.056837	-2.8292	-3.2687	-3.1771	-3.4417	-3.4333	-3.0479	-3.5792	-3.1625	-3.1937	-3.5479	-3.0896	-3.3688	-3.1229	-3.275	-3.5604	-3.3563	-40.244	203.483	49.077	299.522	105.819	216.894	219.979	240.123	140.128	280.994	205.424	-8.810	181.358	-24.030	59.134	-15.758	0.00010153	0.00031321	7.3583e-05	1195.8	1.484e-06	2.8225e-06	1260.3	247.61	1.9337e-06	2.7094e-06	309.51	86.137	67.479	19.389	2.3744e-06	27.521	0.00016793	0.00012733	3.0768e-05	1169.2	1.7975e-06	1.2817e-06	1237.1	244.86	1.9454e-06	1.1817e-06	305.81	86.108	67.598	19.51	1.4395e-06	27.599	124.070	46.043	42.384	-46.214	116.735	107.337	-46.366	-39.552	100.139	68.631	-39.736	-33.151	-32.784	-25.999	79.347	-26.303	-8191	255	
25424.688	1	1	0	0	0.1235	0.12522	0.10235	0.28467	0.063389	0.04223	0.1372	0.3294	0.1247	0.14412	0.031217	0.38803	0.07661	0.056182	0.10918	0.1864	-2.8104	-3.2687	-2.9896	-3.5062	-3.3937	-2.9271	-3.5833	-3.3271	-3.0417	-3.375	-3.3167	-3.4188	-3.325	-3.0771	-3.5333	-3.2583	-32.744	284.978	-17.553	198.432	266.384	77.149	-40.657	268.524	179.975	37.263	244.168	-42.064	20.539	100.868	195.915	187.842	0.00011906	0.00032407	9.3108e-05	1188.1	2.4137e-06	3.2939e-06	1258.4	247.41	1.0515e-06	3.6954e-06	310.71	86.662	67.795	19.51	2.4658e-06	27.572	0.00016987	0.00011862	3.7229e-05	1167.1	1.9077e-06	1.3145e-06	1235.4	244.7	1.7105e-06	1.2202e-06	305.79	86.391	67.669	19.552	1.4126e-06	27.568	115.473	33.981	23.316	-46.408	98.398	107.045	-46.384	-39.526	93.630	86.555	-39.824	-32.988	-32.736	-25.868	104.795	-26.343	-8191	255	
25424.809	1	1	0	0	0.17637	0.22465	0.093505	0.25023	0.21412	0.069677	0.17215	0.11667	0.17332	0.1049	0.11494	0.21761	0.06598	0.098484	0.15599	0.15786	-2.6937	-3.4292	-3.1688	-3.4146	-3.2792	-3.1375	-3.5187	-3.3542	-3.0542	-3.3187	-3.2792	-3.3771	-3.3396	-3.2333	-3.2938	-3.3438	236.531	129.871	5.178	192.127	-23.326	63.863	184.364	226.701	12.853	15.135	232.801	239.922	89.134	230.981	139.214	-4.645	0.00011447	0.0002554	8.0134e-05	1194.8	2.0747e-06	4.3564e-06	1260.9	247.9	1.3811e-06	2.6145e-06	309.29	86.025	67.557	19.494	1.9212e-06	27.364	0.00016318	0.00011017	3.7321e-05	1169.3	1.7707e-06	1.483e-06	1235.6	244.49	1.7406e-06	1.3619e-06	305.95	86.253	67.657	19.492	1.5595e-06	27.539	117.128	33.081	58.139	-46.446	105.895	97.353	-46.071	-39.593	109.145	91.904	-39.712	-33.477	-32.978	-26.008	78.662	-26.332	-8191	255	
25424.881	1	1	0	0	0.22131	0.24712	0.24394	0.17417	0.21165	0.25343	0.08202	0.11527	0.074261	0.1346	0.17215	0.094709	0.18039	0.1954	0.16891	0.19439	-2.6896	-3.4604	-3.1021	-3.3583	-3.325	-3.0854	-3.4708	-3.375	-3.0563	-3.4458	-3.4104	-3.2604	-3.4938	-3.2	-3.4271	-3.4979	284.996	152.176	110.985	225.953	-20.841	139.878	280.123	167.989	-49.506	-54.983	282.272	-54.421	245.701	-8.062	151.766	228.101	9.2111e-05	0.00038574	9.1865e-05	1195.3	1.6043e-06	3.1382e-06	1253.8	247.57	1.5599e-06	2.8426e-06	310.3	86.117	68.58	19.371	3.5413e-06	27.376	0.00016454	0.00012473	4.1496e-05	1169.2	1.6632e-06	1.3472e-06	1234.7	244.77	1.6856e-06	1.2544e-06	305.54	86.213	67.854	19.496	1.6475e-06	27.573	123.175	34.142	30.284	-46.644	100.727	112.752	-46.329	-39.369	87.652	86.895	-39.679	-33.605	-32.875	-26.045	106.207	-26.419	-8191	255	
25424.977	1	1	0	0	0.093176	0.39221	0.15155	0.24992	0.26793	0.19503	0.081834	0.23757	0.19723	0.07489	0.25584	0.096897	0.10844	0.055429	0.10368	0.036987	-2.7396	-3.375	-3.3271	-3.3312	-3.4542	-3.2354	-3.4167	-3.4042	-3.0938	-3.2479	-3.0729	-3.0438	-3.3042	-3.1417	-3.2646	-3.3542	283.439	-1.827	240.008	259.298	154.717	52.870	210.992	200.329	70.631	57.244	272.537	-34.975	231.384	63.554	20.938	9.121	0.00010814	0.0002309	0.00012426	1187.9	1.9372e-06	2.5808e-06	1255.4	246.76	1.4921e-06	3.2744e-06	310.92	86.169	67.888	19.344	2.6726e-06	27.454	0.00017376	0.00012208	4.0978e-05	1165.8	1.6883e-06	1.4231e-06	1234.9	244.4	1.8904e-06	1.4902e-06	306.11	86.09	67.834	19.472	1.5763e-06	27.596	122.000	6.722	47.851	-46.438	117.766	100.625	-46.336	-39.184	81.935	109.880	-39.735	-33.151	-33.283	-26.237	109.489	-26.187	-8191	255	
25425.072	1	1	0	0	0.25384	0.063634	0.033261	0.091531	0.090393	0.090935	0.20253	0.37069	0.17329	0.10036	0.090526	0.34001	0.11448	0.053901	0.12581	0.15467	-2.55	-3.2375	-3.1167	-3.1354	-3.4125	-3.1583	-3.5042	-3.4167	-2.9292	-3.3604	-3.2417	-3.225	-3.3875	-3.0417	-3.1875	-3.3229	281.433	279.832	70.067	224.667	152.209	-2.991	242.466	-34.512	116.554	242.721	221.217	289.455	277.044	200.300	222.000	265.646	8.9232e-05	0.00028366	7.9182e-05	1194	1.6982e-06	3.0831e-06	1262.9	246.48	1.6962e-06	3.0382e-06	311.64	86.457	67.896	19.426	1.7876e-06	27.403	0.00016507	0.00012549	3.5538e-05	1168.9	1.7151e-06	1.412e-06	1238	244.23	1.7697e-06	1.5073e-06	306.2	86.243	67.632	19.519	1.6425e-06	27.508	118.076	18.490	33.264	-46.498	85.849	92.589	-46.345	-39.490	102.591	92.300	-39.896	-33.392	-33.100	-26.084	89.346	-26.033	-8191	255	
25425.193	1	1	0	0	0.11833	0.0010232	0.14148	0.11173	0.033657	0.090654	0.18302	0.13342	0.13697	0.25191	0.22846	0.26081	0.20059	0.18661	0.18476	0.058251	-2.7167	-3.2896	-3.1729	-3.4375	-3.3208	-3.3083	-3.4542	-3.5104	-3.1083	-3.5667	-3.3979	-2.9729	-3.3312	-3.1437	-3.1917	-3.4021	-49.777	180.000	-42.671	108.066	-27.603	177.026	298.446	218.850	80.604	24.387	213.318	202.434	-12.843	151.555	142.908	104.321	9.5247e-05	0.00034788	8.8517e-05	1193.5	2.2538e-06	3.9129e-06	1258.2	248.15	1.051e-06	2.701e-06	308.93	86.528	67.781	19.519	2.1064e-06	27.378	0.00016916	0.00012755	3.8723e-05	1168.1	1.7649e-06	1.4911e-06	1236.9	244.36	1.7126e-06	1.4517e-06	305.21	86.311	67.813	19.522	1.4967e-06	27.513	122.565	52.824	21.440	-46.374	119.220	105.535	-46.469	-39.221	108.701	85.039	-39.618	-33.299	-32.763	-26.333	108.210	-26.248	-8191	255	
25425.289	1	1	0	0	0.30482	0.26862	0.35634	0.25364	0.010842	0.26538	0.37237	0.32559	0.1819	0.067861	0.023235	0.20048	0.073013	0.24983	0.14263	0.11515	-2.8042	-3.3063	-3.2542	-3.3646	-3.275	-3.2562	-3.4458	-3.4375	-3.2479	-3.4104	-3.5083	-3.2208	-3.5333	-3.2875	-3.2021	-3.5104	25.946	237.083	138.800	261.918	249.534	255.985	198.838	286.830	28.756	5.444	6.821	-25.189	254.369	141.049	-37.862	80.224	0.00010901	0.00041494	7.4734e-05	1197.5	1.2338e-06	2.3817e-06	1261.2	247.21	1.164e-06	2.6403e-06	310.74	86.422	67.75	19.512	2.0711e-06	27.435	0.00016515	0.00014179	3.2795e-05	1168.7	1.7263e-06	1.3293e-06	1236.1	244.32	1.8438e-06	1.368e-06	306.48	86.179	67.63	19.524	1.4698e-06	27.549	114.826	11.508	35.577	-46.299	106.322	122.187	-46.534	-39.476	79.438	96.700	-39.641	-33.012	-33.214	-25.710	97.751	-26.193	-8191	255	
25425.387	1	1	0	0	0.06548	0.22788	0.21574	0.065559	0.24297	0.24806	0.23728	0.18148	0.17031	0.22688	0.15973	0.081783	0.22956	0.18887	0.059276	0.024025	-2.8375	-3.3854	-3.2146	-3.325	-3.4188	-3.2458	-3.3354	-3.5187	-3.2062	-3.2354	-3.5292	-3.2125	-3.3771	-3.3271	-3.2188	-3.3417	20.793	282.857	168.827	109.621	111.702	30.479	256.394	219.207	189.378	220.652	3.666	-46.170	197.536	-15.743	107.722	242.360	9.2241e-05	0.00035921	8.7683e-05	1195.5	5.154e-07	3.4783e-06	1258.8	247.96	9.9455e-07	2.9603e-06	308.73	86.374	67.695	19.301	1.3758e-06	27.423	0.00016807	0.00013053	3.6498e-05	1171	1.8542e-06	1.3293e-06	1238	244.9	1.8496e-06	1.5416e-06	305.54	86.333	67.603	19.48	1.4283e-06	27.573	121.403	43.834	44.835	-46.402	98.606	102.856	-46.415	-39.325	76.673	105.829	-39.755	-33.424	-33.010	-26.090	111.790	-26.284	-8191	255	
25425.457	1	1	0	0	0.13521	0.10573	0.17724	0.18295	0.13119	0.17657	0.43979	0.31761	0.094146	0.22834	0.20842	0.13202	0.19783	0.22759	0.27962	0.11714	-2.5833	-3.2333	-3.4375	-3.3229	-3.3688	-3.3354	-3.15	-3.4146	-3.1854	-3.2333	-3.4771	-3.2292	-3.1771	-3.4854	-3.1688	-3.275	154.159	102.616	148.627	231.413	301.870	-41.060	275.538	238.085	-31.507	78.532	15.123	291.338	-1.364	257.942	155.013	76.062	9.359e-05	0.00032346	8.4123e-05	1195.6	1.7533e-06	3.0869e-06	1263.7	248.05	9.4349e-07	3.4874e-06	309.59	86.454	68.077	19.423	2.3996e-06	27.334	0.00017804	0.00013334	3.1012e-05	1171.3	1.8885e-06	1.4287e-06	1237.5	244.91	1.8163e-06	1.3503e-06	305.83	86.226	67.796	19.519	1.5898e-06	27.556	101.425	33.775	50.422	-46.321	85.670	82.635	-46.376	-39.225	121.353	86.805	-39.807	-32.995	-33.078	-26.138	98.911	-26.303	-8191	255	
25425.576	1	1	0	0	0.18581	0.06327	0.2738	0.12943	0.10105	0.14714	0.33552	0.22664	0.32649	0.1663	0.22632	0.12616	0.29604	0.13361	0.211	0.22437	-2.8187	-3.2083	-3.4313	-3.2729	-3.3458	-3.2062	-3.1792	-3.3958	-3.1229	-3.1937	-3.4375	-3.2271	-3.3042	-3.4333	-3.0125	-3.3542	253.484	146.207	162.798	-49.325	-45.675	220.402	210.205	300.131	26.658	256.002	225.547	118.828	208.527	15.160	109.861	257.077	0.0001077	0.00031101	9.1756e-05	1201	1.8125e-06	2.655e-06	1258.3	247.63	1.1158e-06	3.5767e-06	310.33	86.024	67.861	19.49	2.8597e-06	27.194	0.00016622	0.00013951	3.4075e-05	1170.5	2.0115e-06	1.2947e-06	1236.6	244.92	1.8311e-06	1.4499e-06	306.2	86.242	67.741	19.576	1.5707e-06	27.502	126.123	33.987	40.120	-46.361	117.651	76.571	-46.309	-39.466	112.463	103.721	-39.606	-33.257	-32.808	-25.993	94.578	-26.031	-8191	255	
25425.674	1	1	0	0	0.058468	0.12721	0.19472	0.16168	0.14568	0.084432	0.33631	0.08499	0.17196	0.061788	0.25452	0.27748	0.13194	0.12434	0.15544	0.17193	-2.8167	-3.0438	-3.3271	-3.3604	-3.4729	-3.3958	-3.1792	-3.4813	-3.2625	-3.0563	-3.5708	-3.3063	-3.2021	-3.4583	-3.0812	-3.3646	260.507	290.076	187.379	255.000	2.768	-45.324	228.423	131.862	-29.806	170.392	288.120	256.132	128.625	282.623	118.622	221.979	0.00010042	0.00029516	7.8722e-05	1195.9	2.237e-06	2.5514e-06	1259	249.03	1.9566e-06	3.5443e-06	309.93	86.289	67.934	19.422	2.4857e-06	27.274	0.00016713	0.00013459	3.3435e-05	1169	2.0651e-06	1.0996e-06	1235.2	245.65	1.947e-06	1.376e-06	306.46	86.184	67.825	19.49	1.5673e-06	27.571	128.823	31.010	33.602	-46.509	117.735	115.786	-46.015	-39.321	77.758	94.858	-39.882	-33.237	-32.988	-25.982	90.981	-26.061	-8191	255	
25425.770	1	1	0	0	0.27276	0.36688	0.1521	0.18796	0.11091	0.11204	0.31153	0.31504	0.30859	0.14322	0.27371	0.16226	0.34356	0.15924	0.064237	0.13967	-2.8208	-3.0062	-3.3854	-3.3688	-3.3021	-3.375	-3.2375	-3.2917	-3.3479	-3.15	-3.3937	-3.2292	-3.25	-3.4188	-3.3083	-3.3063	-13.038	62.938	104.538	-55.025	-17.769	80.615	281.497	259.155	192.639	45.372	293.934	227.304	231.155	171.263	228.465	277.312	0.00010381	0.00033637	0.00010633	1189.4	2.1517e-06	2.5173e-06	1258.1	248.02	2.6736e-06	2.9316e-06	307.88	85.813	67.957	19.639	2.1773e-06	27.409	0.00015941	0.00013356	3.6117e-05	1166.3	1.9008e-06	1.149e-06	1233	244.85	1.7814e-06	1.4078e-06	305.34	86.131	67.775	19.548	1.49e-06	27.502	125.709	33.760	38.812	-46.395	102.655	90.755	-46.328	-39.508	76.204	89.612	-39.583	-33.408	-32.850	-25.517	91.376	-26.188	-8191	255	
25425.889	1	1	0	0	0.013396	0.12577	0.12581	0.13512	0.11703	0.17572	0.16345	0.026522	0.07537	0.30085	0.086003	0.13578	0.1481	0.2351	0.11593	0.1976	-2.9667	-3.0042	-3.4958	-3.3292	-3.0333	-3.4646	-3.3854	-3.4125	-3.525	-3.2083	-3.4146	-3.4229	-3.3604	-3.3271	-3.1625	-3.4188	246.789	-53.728	236.268	170.983	2.903	23.032	184.464	111.308	141.115	233.704	69.566	177.301	197.755	245.605	252.254	-7.379	0.00010332	0.00034587	8.8323e-05	1192.9	2.0908e-06	3.5003e-06	1259.1	247.49	1.0036e-06	2.466e-06	308.72	85.464	67.763	19.41	2.194e-06	27.429	0.00016174	0.00013534	3.5904e-05	1166.5	1.8927e-06	1.3348e-06	1234.8	244.58	1.6686e-06	1.4175e-06	305.05	85.868	67.712	19.449	1.4687e-06	27.475	118.640	42.242	36.247	-46.346	91.381	101.538	-46.321	-39.513	77.585	123.133	-39.483	-33.309	-33.361	-26.029	81.092	-26.152	-8191	255	
25425.986	1	1	0	0	0.095042	0.17674	0.20563	0.21625	0.40655	0.072579	0.39261	0.28943	0.083485	0.11321	0.13364	0.1116	0.27556	0.021747	0.10797	0.12092	-3.1354	-3.2313	-3.4688	-3.4875	-3.025	-3.4417	-3.3292	-3.2958	-3.4479	-3.1958	-3.3312	-3.5687	-2.9854	-3.4729	-2.9896	-3.2438	-10.178	221.567	101.536	-28.545	73.378	239.700	187.691	224.095	89.033	290.090	198.883	176.883	263.778	241.801	229.582	11.277	9.9419e-05	0.00028744	0.00011046	1191.9	1.6388e-06	3.8991e-06	1257.7	247.81	1.2129e-06	3.5387e-06	308.07	85.465	67.288	19.446	3.3313e-06	27.185	0.00016235	0.00013388	3.6041e-05	1164.5	1.8628e-06	1.4725e-06	1231.4	244.54	1.5766e-06	1.5287e-06	304.79	85.827	67.242	19.45	1.7103e-06	27.392	121.843	40.928	25.870	-46.335	104.835	117.552	-46.318	-39.424	67.140	91.582	-39.698	-33.600	-32.547	-26.111	86.505	-26.401	-8191	255	
25426.082	1	1	0	0	0.11764	0.45869	0.09171	0.063836	0.2965	0.096954	0.28534	0.058687	0.059463	0.18105	0.071193	0.17953	0.016781	0.18016	0.15894	0.25906	-2.8812	-3.1167	-3.4083	-3.5458	-3.025	-3.4083	-3.2167	-3.4688	-3.5146	-2.9813	-3.5146	-3.4667	-3.1167	-3.4	-3.4313	-3.2833	81.520	75.836	143.362	101.859	-6.407	-8.101	197.131	245.338	57.620	-34.291	155.214	297.742	267.089	159.694	1.091	258.762	0.00010975	0.00019728	0.00013923	1188.9	1.8954e-06	3.0617e-06	1254.7	246.29	1.6169e-06	2.7141e-06	309.24	85.55	67.397	19.186	2.2069e-06	27.315	0.00016023	0.00012208	4.1679e-05	1162.9	1.821e-06	1.3509e-06	1231.2	243.71	1.6237e-06	1.4682e-06	305.21	85.666	67.385	19.357	1.6621e-06	27.386	112.984	23.888	40.480	-46.567	86.606	100.119	-46.234	-39.463	114.202	88.977	-39.793	-33.275	-33.013	-25.725	94.812	-26.090	-8191	255	
25426.178	1	1	0	0	0.14459	0.061286	0.14043	0.11339	0.29118	0.034965	0.146	0.11131	0.034762	0.080068	0.054514	0.21735	0.29755	0.034739	0.19194	0.20366	-2.9958	-3.1937	-3.1896	-3.4354	-2.8896	-3.3917	-3.3854	-3.2479	-3.4417	-2.9333	-3.3812	-3.3333	-3.1833	-3.4396	-3.3208	-3.2542	-43.910	75.772	108.053	238.345	-27.925	243.285	232.652	291.763	288.675	195.743	96.941	-41.156	19.376	33.498	216.743	247.442	0.00010234	0.00040139	9.3165e-05	1189.5	1.8604e-06	2.1802e-06	1250.2	246.06	1.2691e-06	2.8807e-06	308.71	85.415	67.376	19.374	2.7783e-06	27.168	0.0001653	0.00014947	4.0872e-05	1161.1	1.9998e-06	1.3293e-06	1227.9	243.47	1.6983e-06	1.5196e-06	304.49	85.632	67.217	19.393	1.5522e-06	27.292	116.407	26.023	40.276	-46.566	90.886	133.456	-46.089	-39.348	118.493	101.363	-39.687	-33.162	-32.861	-25.715	86.656	-26.400	-8191	255	
25426.273	1	1	0	0	0.16435	0.044987	0.12146	0.20555	0.15326	0.10176	0.048165	0.10529	0.22543	0.32079	0.28464	0.070361	0.16438	0.26718	0.10734	0.19537	-2.95	-3.1146	-3.1833	-3.4667	-3.0938	-3.2854	-3.3333	-3.1833	-3.3771	-3.3229	-3.1833	-3.3083	-3.0687	-3.2729	-3.5062	-3.2417	239.198	296.468	90.071	-42.008	29.467	54.175	-43.572	263.023	-48.329	60.114	262.245	280.714	295.072	-3.024	44.916	74.380	0.00011243	0.00025607	8.1993e-05	1183.2	2.0088e-06	4.2499e-06	1249	246.16	1.6868e-06	2.5364e-06	308.37	85.291	67.611	19.325	1.3042e-06	27.151	0.00017639	0.00013697	3.6467e-05	1160.5	2.0635e-06	1.5651e-06	1225.9	243.23	1.8613e-06	1.4175e-06	304.43	85.496	67.286	19.363	1.5135e-06	27.353	115.435	43.135	47.575	-46.374	116.834	102.679	-46.238	-39.256	54.546	112.157	-39.544	-33.083	-32.944	-25.888	98.571	-26.118	-8191	255	
25426.369	1	1	0	0	0.15646	0.10783	0.28322	0.24034	0.13661	0.12634	0.036655	0.28428	0.083537	0.20462	0.1886	0.34152	0.16072	0.12791	0.11648	0.32401	-3.0104	-3.2333	-3.2438	-3.5417	-3.1229	-3.2542	-3.5771	-3.2125	-3.3875	-3.3667	-3.1854	-3.4042	-3.1292	-3.2229	-3.4188	-3.1521	94.857	7.063	283.432	266.442	283.555	229.187	134.408	255.437	258.671	178.553	269.848	299.173	121.082	301.187	-40.393	-13.865	0.00011476	0.00034575	0.00010841	1184.2	1.7733e-06	2.3779e-06	1250.5	246.71	1.4308e-06	1.8468e-06	307.96	85.859	67.258	19.32	1.7439e-06	27.116	0.00018193	0.00015375	4.0674e-05	1159.4	1.9757e-06	1.6899e-06	1227.1	243.26	1.8877e-06	1.5831e-06	304.41	85.66	67.314	19.349	1.5051e-06	27.308	119.203	13.965	37.110	-46.358	95.746	111.304	-46.403	-39.347	78.906	100.154	-39.445	-33.566	-32.657	-26.079	98.497	-25.951	-8191	255	
25426.488	1	1	0	0	0.085637	0.1716	0.075414	0.077155	0.22146	0.23695	0.050186	0.17734	0.2019	0.10539	0.099873	0.17989	0.037964	0.10204	0.23666	0.15011	-3.0438	-3.2833	-3.2208	-3.7104	-3.2417	-3.1917	-3.6479	-3.1458	-3.4104	-3.3604	-3.2583	-3.4646	-3.1333	-3.2229	-3.3917	-3.0146	48.575	168.479	84.359	205.071	65.306	12.086	163.048	95.951	247.445	59.661	-50.414	21.922	78.931	-27.286	217.936	15.552	9.0433e-05	0.00029667	6.7521e-05	1188.9	2.0803e-06	2.6988e-06	1252.2	245.87	7.0678e-07	3.2055e-06	307.37	85.616	67.032	19.321	2.3843e-06	27.008	0.00016787	0.00014996	3.8311e-05	1161.5	1.95e-06	1.6207e-06	1229.1	243.6	1.8073e-06	1.4432e-06	304.35	85.683	67.15	19.379	1.4137e-06	27.303	119.720	42.202	31.903	-46.397	91.224	122.856	-46.409	-39.548	115.867	97.661	-39.564	-33.461	-32.953	-25.913	71.555	-26.341	-8191	255	
25426.586	1	1	0	0	0.10532	0.15561	0.11237	0.16976	0.12269	0.058336	0.25854	0.13749	0.21513	0.10242	0.34739	0.17485	0.13679	0.1705	0.026666	0.17781	-3.0333	-3.1813	-3.1	-3.2917	-3.2479	-3.2625	-3.5896	-3.2479	-3.4042	-3.0542	-3.1208	-3.4437	-3.1021	-3.3604	-3.4979	-3.0646	280.588	153.607	237.745	297.331	249.310	263.301	198.856	138.018	290.964	72.375	258.252	209.971	3.236	25.959	2.512	246.887	0.0001201	0.00038411	9.4326e-05	1188.4	1.4567e-06	3.5069e-06	1249.5	245.17	1.4418e-06	2.8989e-06	308.2	85.208	67.439	19.239	2.9436e-06	27.038	0.00017541	0.00014974	3.8555e-05	1162.1	1.9291e-06	1.4447e-06	1228.6	243.1	1.7115e-06	1.3521e-06	304.59	85.468	67.223	19.339	1.4278e-06	27.357	114.517	47.730	33.869	-46.174	99.768	104.440	-46.342	-39.319	122.108	109.433	-39.647	-33.339	-32.849	-25.869	98.740	-26.189	-8191	255	
25426.682	1	1	0	0	0.16221	0.12776	0.10532	0.28877	0.13441	0.14097	0.20672	0.16149	0.061484	0.070317	0.018676	0.14556	0.18942	0.19912	0.091357	0.2533	-3.0083	-3.4146	-2.9792	-3.5312	-3.0854	-2.9646	-3.5938	-3.2667	-3.3812	-3.3042	-3.1813	-3.4083	-3.3083	-3.2417	-3.4042	-3.3	5.846	93.191	-25.304	243.420	-36.083	173.370	264.772	221.274	78.719	147.440	-53.826	12.621	205.385	170.849	22.716	274.804	0.00010963	0.00030515	7.4712e-05	1184.5	1.2363e-06	2.701e-06	1248	245.56	1.4814e-06	2.7783e-06	307.66	85.178	67.771	19.259	3.0101e-06	27.15	0.0001722	0.00013015	3.7351e-05	1160.1	2.0656e-06	1.4806e-06	1225.9	243.06	1.9015e-06	1.2501e-06	304.35	85.438	67.417	19.324	1.4407e-06	27.334	120.750	36.508	41.198	-46.361	86.258	100.294	-46.491	-39.385	74.020	80.838	-39.662	-33.155	-32.914	-26.044	68.338	-26.515	-8191	255	
25426.754	1	1	0	0	0.1333	0.26328	0.16069	0.27211	0.10878	0.043625	0.31171	0.16346	0.19458	0.35156	0.21443	0.1384	0.19426	0.068146	0.086447	0.23773	-2.9542	-3.4792	-2.9292	-3.5792	-3.3125	-3.2167	-3.6312	-3.2792	-3.3563	-3.375	-3.1312	-3.5667	-3.2708	-3.2958	-3.4354	-3.3646	98.738	195.708	37.511	-56.478	57.941	45.477	256.029	192.520	-42.246	84.367	17.958	294.233	-47.261	262.600	56.534	225.127	0.00010223	0.0003185	7.8167e-05	1191.4	1.5268e-06	4.1054e-06	1246.2	245.37	2.1394e-06	4.0869e-06	308.69	85.16	66.79	19.251	2.1403e-06	27.32	0.00016969	0.0001112	3.9668e-05	1161.3	1.8226e-06	1.4522e-06	1225.9	242.92	1.8433e-06	1.2556e-06	305.04	85.599	67.109	19.369	1.4754e-06	27.366	129.790	23.662	49.293	-46.518	98.894	102.409	-46.219	-39.530	97.444	107.018	-39.345	-33.033	-32.886	-25.723	85.102	-26.193	-8191	255	
25426.873	1	1	0	0	0.16381	0.079341	0.030269	0.47075	0.50076	0.13005	0.37241	0.17425	0.12141	0.28961	0.012482	0.16983	0.23481	0.26487	0.063209	0.15321	-2.7687	-3.2938	-3.175	-3.4583	-3.3292	-3.0854	-3.5875	-3.3229	-3.2646	-3.3979	-3.3854	-3.3563	-3.4042	-2.8604	-3.6063	-3.0187	99.623	14.626	129.942	293.262	213.493	83.357	226.571	145.236	106.468	-17.775	146.105	-28.569	145.278	221.810	287.892	189.210	7.4551e-05	0.00026486	9.7643e-05	1186.2	1.7375e-06	3.5502e-06	1246.6	246.26	1.2008e-06	2.903e-06	308.22	85.596	67.566	19.23	2.0368e-06	27.263	0.00017081	0.00011158	4.3188e-05	1160.4	1.813e-06	1.4738e-06	1226.4	243.31	1.8565e-06	1.2495e-06	304.02	85.541	67.285	19.359	1.6671e-06	27.371	128.434	33.164	42.499	-46.473	109.152	110.214	-46.305	-39.377	77.429	106.396	-39.824	-33.359	-33.143	-26.054	105.304	-26.444	-8191	255	
25426.971	1	1	0	0	0.15878	0.14191	0.27081	0.14874	0.10997	0.15539	0.36081	0.16588	0.20894	0.37254	0.1642	0.26612	0.12879	0.21682	0.1403	0.24182	-2.7292	-3.3458	-3.0229	-3.3417	-3.3229	-2.9833	-3.4667	-3.1271	-3.2604	-3.4813	-3.2708	-3.3021	-3.2438	-2.9417	-3.4771	-3.2458	-44.084	20.753	252.847	167.015	164.991	61.629	262.844	282.718	-50.214	292.331	6.034	274.177	-17.886	26.507	26.611	266.851	0.00011817	0.00029353	6.0611e-05	1186.7	1.8567e-06	3.3802e-06	1250.7	245.59	1.7488e-06	3.8331e-06	308.98	85.173	67.556	19.298	2.57e-06	27.317	0.00017291	0.00012527	4.1054e-05	1160.8	1.7531e-06	1.4515e-06	1227.6	243.06	1.8581e-06	1.3583e-06	304.95	85.605	67.516	19.403	1.5382e-06	27.385	118.184	21.517	32.157	-46.629	97.374	94.618	-46.047	-39.388	85.879	89.888	-39.739	-33.410	-33.096	-25.772	63.932	-26.331	-8191	255	
25427.066	1	1	0	0	0.11652	0.10094	0.17376	0.033343	0.19443	0.12727	0.32132	0.058059	0.18279	0.15413	0.14337	0.031408	0.062494	0.18198	0.1841	0.16442	-2.6042	-3.2896	-3.2042	-3.4104	-3.4354	-3.05	-3.4771	-3.3292	-3.0958	-3.5	-3.25	-3.2917	-3.4417	-3.2542	-3.2687	-3.4188	187.992	154.258	120.303	294.336	211.329	53.734	250.600	244.219	281.555	270.157	54.335	212.647	218.311	111.257	6.563	-11.630	9.5302e-05	0.00033725	7.166e-05	1193.2	1.8148e-06	3.212e-06	1256.2	248.22	1.7959e-06	3.1767e-06	308.34	85.29	67.55	19.31	3.1076e-06	27.078	0.00016586	0.00013177	4.2563e-05	1164.4	1.7156e-06	1.4244e-06	1228.4	244.04	1.7983e-06	1.3741e-06	304.31	85.674	67.249	19.391	1.6027e-06	27.304	125.917	41.739	43.999	-46.276	112.391	94.817	-46.376	-39.508	114.703	102.446	-39.947	-33.215	-32.640	-25.774	85.730	-26.684	-8191	255	
25427.162	1	1	0	0	0.27161	0.20558	0.10812	0.079218	0.22902	0.18751	0.18154	0.12214	0.16607	0.22882	0.04647	0.070945	0.16574	0.19537	0.099555	0.24159	-2.6875	-3.3708	-3.3229	-3.2125	-3.2583	-3.1104	-3.5271	-3.2104	-3.0167	-3.4229	-3.2562	-3.075	-3.3646	-3.0917	-3.3292	-3.2812	-27.632	249.509	68.357	252.313	-27.548	211.405	213.195	5.498	277.871	90.850	121.210	288.806	192.148	-34.742	58.060	110.886	0.00011149	0.00040201	8.8702e-05	1186.3	1.9852e-06	3.4838e-06	1256	246.39	1.3395e-06	3.1329e-06	308.36	85.376	67.548	19.308	2.9274e-06	27.04	0.00016663	0.0001387	4.2822e-05	1163.5	1.7204e-06	1.6096e-06	1232.1	243.5	1.7883e-06	1.4658e-06	304.21	85.518	67.424	19.391	1.7293e-06	27.268	120.158	23.235	36.077	-46.565	91.770	89.876	-46.271	-39.545	103.134	95.931	-39.693	-33.382	-32.889	-25.668	98.912	-26.324	-8191	255	
25427.258	1	1	0	0	0.31745	0.027002	0.10462	0.15529	0.044864	0.19992	0.25668	0.13985	0.099288	0.042537	0.034489	0.051261	0.17877	0.16456	0.007188	0.16943	-2.8292	-3.3958	-3.1437	-3.3812	-3.4917	-3.1729	-3.4792	-3.3667	-3.2021	-3.5542	-3.2604	-3.1542	-3.5667	-3.0354	-3.3729	-3.5438	196.564	173.704	74.301	268.358	2.384	-4.878	235.919	89.572	278.256	182.094	248.620	220.122	197.970	-6.820	45.084	232.225	0.00010507	0.00041873	8.8074e-05	1192.2	1.8662e-06	3.6176e-06	1249.4	246.99	9.9817e-07	3.0216e-06	307.7	85.635	67.711	19.239	1.9029e-06	27.206	0.0001658	0.00013892	3.8403e-05	1164.6	1.7151e-06	1.6331e-06	1228.8	243.77	1.8348e-06	1.519e-06	304.56	85.753	67.494	19.352	1.5982e-06	27.371	115.908	37.558	35.024	-46.275	112.442	81.688	-46.412	-39.525	75.592	106.257	-39.605	-33.226	-32.860	-25.872	90.398	-26.098	-8191	255	
25427.354	1	1	0	0	0.21838	0.21703	0.17999	0.16729	0.13832	0.16249	0.041509	0.18034	0.34967	0.13017	0.070951	0.078662	0.28851	0.11364	0.18627	0.10852	-2.8292	-3.3229	-3.3812	-3.2812	-3.5729	-3.2604	-3.4938	-3.5521	-3.1083	-3.4688	-3.4979	-3.2021	-3.3771	-3.2458	-3.3542	-3.6437	181.581	149.244	156.524	288.298	55.474	17.178	-29.188	245.177	117.486	287.425	23.327	266.235	233.340	71.962	34.408	66.342	9.962e-05	0.00033798	8.1099e-05	1185.9	2.0665e-06	3.8079e-06	1252.3	245.82	1.3594e-06	2.2547e-06	308.37	85.542	67.704	19.209	1.702e-06	27.346	0.00017185	0.00013296	3.6407e-05	1164.9	2.0164e-06	1.6077e-06	1230	243.47	1.8756e-06	1.489e-06	305	85.68	67.535	19.333	1.4222e-06	27.383	112.950	42.698	36.498	-46.528	108.322	98.377	-46.225	-39.248	105.080	89.276	-39.622	-33.056	-32.972	-26.001	81.876	-26.106	-8191	255	
25427.451	1	1	0	0	0.038999	0.16358	0.3397	0.21703	0.15197	0.055497	0.23456	0.16611	0.16126	0.11852	0.21592	0.16354	0.39079	0.13158	0.068427	0.01168	-2.8708	-3.4396	-3.35	-3.1333	-3.4208	-3.2375	-3.3	-3.5062	-3.1	-3.4458	-3.4458	-3.025	-3.45	-3.3438	-3.1708	-3.4625	190.919	236.873	186.868	-49.974	257.290	18.543	185.976	242.038	101.135	237.110	173.780	273.239	-9.886	7.881	269.949	107.924	9.6069e-05	0.00023482	0.00010594	1190.1	1.8398e-06	3.375e-06	1247	245.91	1.8355e-06	2.7726e-06	308.79	85.342	67.824	19.37	2.9457e-06	27.348	0.00017945	0.00013843	3.5477e-05	1165.1	1.8869e-06	1.391e-06	1229.5	243.2	2.0021e-06	1.5611e-06	305.21	85.688	67.552	19.38	1.4496e-06	27.432	114.113	58.480	29.871	-46.501	94.483	97.965	-46.376	-39.510	108.265	83.425	-39.604	-33.090	-32.867	-25.983	94.467	-26.413	-8191	255	
25427.568	1	1	0	0	0.055961	0.030786	0.28521	0.19255	0.10913	0.30846	0.22379	0.20719	0.10291	0.051864	0.012305	0.047652	0.18195	0.064183	0.08527	0.20125	-2.7333	-3.2167	-3.4271	-3.1604	-3.1688	-3.2292	-3.2875	-3.5938	-3.2	-3.3979	-3.4667	-3.15	-3.4479	-3.3104	-3.2188	-3.4833	207.408	-16.427	-55.703	224.575	86.020	6.623	272.969	240.253	211.612	105.576	253.384	295.674	123.424	-41.890	51.542	150.501	9.9818e-05	0.0002399	0.00011211	1190.9	1.4682e-06	3.013e-06	1252.8	246.58	1.1243e-06	3.6129e-06	308.58	85.734	67.91	19.396	2.568e-06	27.166	0.00017933	0.00012479	3.3877e-05	1163.6	1.9259e-06	1.4083e-06	1229.9	243.76	1.8772e-06	1.3302e-06	304.74	85.781	67.464	19.468	1.527e-06	27.444	112.529	32.276	49.790	-46.628	122.537	88.812	-46.320	-39.431	89.495	96.471	-39.923	-33.153	-32.890	-25.692	114.758	-26.475	-8191	255	
25427.666	1	1	0	0	0.17001	0.11957	0.23073	0.18901	0.037487	0.13548	0.19005	0.29463	0.10622	0.07942	0.15395	0.10815	0.2439	0.24386	0.20392	0.11585	-2.8083	-3.2708	-3.4521	-3.2354	-3.3979	-3.2354	-3.3	-3.6896	-3.3708	-3.3167	-3.5042	-3.1437	-3.3083	-3.4375	-2.9667	-3.3187	179.567	-44.031	22.954	181.080	225.400	170.414	279.342	253.566	269.440	-20.564	257.174	-51.815	-46.498	54.346	177.138	154.174	9.7787e-05	0.00032153	8.8915e-05	1188.8	1.0063e-06	2.7517e-06	1253.6	246.84	1.0403e-06	2.8094e-06	310.05	85.938	67.989	19.368	1.8624e-06	27.174	0.00016778	0.00013388	3.3983e-05	1163.5	1.9035e-06	1.3188e-06	1231.4	243.96	1.8301e-06	1.2422e-06	305.03	85.884	67.52	19.457	1.532e-06	27.368	120.636	34.724	38.906	-46.507	97.091	88.750	-46.332	-39.485	105.225	110.946	-39.603	-33.316	-32.728	-26.162	96.920	-25.917	-8191	255	
25427.762	1	1	0	0	0.24456	0.019592	0.09491	0.22753	0.13223	0.15234	0.097733	0.25021	0.19573	0.050639	0.06013	0.18868	0.062331	0.16974	0.14719	0.21837	-2.775	-3.1375	-3.3521	-3.3312	-3.1583	-3.2729	-3.2313	-3.4708	-3.125	-3.1063	-3.5208	-3.1458	-3.2271	-3.4562	-2.9167	-3.4042	219.217	76.594	117.500	-21.978	282.251	86.504	229.991	224.381	299.109	-40.048	254.660	-44.693	-38.378	196.540	264.422	149.430	8.7084e-05	0.00041262	9.7174e-05	1194.4	1.8688e-06	3.6456e-06	1249.1	246.66	1.7988e-06	2.9798e-06	309.02	85.246	68.104	19.348	2.069e-06	27.346	0.00017235	0.00012257	3.5065e-05	1166.7	2.0019e-06	1.3904e-06	1231.9	244.03	1.9126e-06	1.4933e-06	304.68	85.617	67.678	19.407	1.5847e-06	27.416	113.839	55.242	26.846	-46.321	85.264	100.381	-46.465	-39.440	85.710	100.387	-39.572	-33.173	-32.984	-26.095	85.902	-25.858	-8191	255	
25427.857	1	1	0	0	0.078375	0.19607	0.22322	0.25868	0.056768	0.053892	0.21399	0.2446	0.12115	0.23872	0.24275	0.11118	0.19572	0.045268	0.17377	0.23187	-2.7917	-3.2542	-3.4125	-3.1979	-3.2021	-3.4021	-3.4667	-3.4813	-3.3063	-3.2729	-3.4854	-3.1208	-3.1813	-3.4708	-3.1521	-3.3104	120.762	131.647	93.635	223.976	196.373	11.774	248.164	274.679	131.237	33.478	300.479	179.333	-33.296	271.102	193.314	-46.803	0.00011526	0.00028553	0.00012672	1186.6	1.915e-06	3.8405e-06	1255	246.26	1.8447e-06	3.2999e-06	308.16	85.722	67.826	19.374	2.0044e-06	27.205	0.00017865	0.00013475	3.6864e-05	1164.7	1.8532e-06	1.3281e-06	1232.4	243.72	1.8793e-06	1.3607e-06	305.19	85.78	67.445	19.446	1.6755e-06	27.434	110.362	32.297	34.454	-46.453	137.324	92.837	-46.263	-39.345	79.248	117.938	-39.620	-33.385	-32.929	-26.015	93.247	-26.148	-8191	255	
25427.979	1	1	0	0	0.10644	0.14654	0.19296	0.32896	0.1884	0.10512	0.35187	0.21619	0.22844	0.065984	0.113	0.06052	0.11676	0.18986	0.085776	0.13406	-2.7917	-3.0583	-3.4813	-3.3812	-3.0208	-3.3583	-3.2	-3.5083	-3.1417	-3.1813	-3.5625	-3.0458	-3.3896	-3.3625	-3.0896	-3.2333	66.225	75.142	13.885	299.740	41.214	-48.768	230.381	262.820	287.594	-7.538	135.506	300.304	127.315	194.420	158.028	3.179	9.2731e-05	0.00031668	8.9865e-05	1191.5	1.8951e-06	3.1598e-06	1250.4	246.26	1.4931e-06	2.92e-06	309.24	85.764	68.114	19.282	2.8532e-06	27.318	0.00016112	0.00013432	3.8784e-05	1164.2	1.8697e-06	1.4627e-06	1229.2	243.85	1.7205e-06	1.4658e-06	305.21	85.92	67.586	19.376	1.694e-06	27.451	110.161	35.728	31.714	-46.560	100.125	112.798	-46.293	-39.365	115.342	83.427	-39.681	-33.558	-33.008	-25.380	86.798	-26.278	-8191	255	
25428.051	1	1	0	0	0.15534	0.053105	0.15569	0.10134	0.23689	0.1747	0.1553	0.14113	0.11191	0.11282	0.020055	0.093605	0.12292	0.12205	0.1808	0.11501	-2.9896	-3.1708	-3.3958	-3.4188	-3.1125	-3.4688	-3.2729	-3.4729	-3.3625	-3.0604	-3.2917	-3.2333	-3.2583	-3.4167	-3.2042	-3.2271	63.388	192.182	-53.971	233.535	218.851	243.530	209.493	-14.178	186.133	-54.828	124.646	92.680	38.030	-5.352	147.050	-43.961	0.0001187	0.00029967	9.3136e-05	1191.4	2.5746e-06	3.2188e-06	1257.9	247.29	8.6606e-07	2.8189e-06	309.1	85.855	67.445	19.441	2.1162e-06	27.47	0.00016277	0.0001439	3.7412e-05	1167.6	1.9061e-06	1.4194e-06	1233.7	244.39	1.7105e-06	1.4285e-06	304.79	85.981	67.522	19.443	1.652e-06	27.514	123.205	25.995	30.106	-46.275	113.182	110.512	-46.421	-39.439	85.746	94.463	-39.870	-33.117	-33.005	-26.104	96.795	-26.248	-8191	255	
25428.172	1	1	0	0	0.32847	0.13058	0.23195	0.12413	0.20399	0.135	0.16589	0.13495	0.13877	0.24937	0.11912	0.11069	0.18375	0.26576	0.13389	0.24097	-2.975	-2.9792	-3.2687	-3.375	-2.9688	-3.3438	-3.2625	-3.3667	-3.1604	-3.0083	-3.4458	-3.3667	-3.1937	-3.4708	-3.1833	-3.2271	72.655	284.560	245.278	216.669	42.322	225.947	187.413	235.453	17.040	259.115	262.843	12.900	261.760	132.952	259.940	222.844	0.00010331	0.00034598	8.9386e-05	1191.2	1.1888e-06	2.9424e-06	1253.7	246.03	1.4589e-06	2.6716e-06	308.66	85.654	67.801	19.401	2.7739e-06	27.311	0.00015628	0.00014487	3.6208e-05	1166	1.7938e-06	1.3305e-06	1232.4	244.04	1.6464e-06	1.5941e-06	305.08	85.878	67.476	19.44	1.5595e-06	27.423	126.435	43.836	26.347	-46.455	115.276	104.882	-46.546	-39.443	88.215	106.886	-39.681	-33.181	-33.004	-26.411	63.643	-26.046	-8191	255	
25428.268	1	1	0	0	0.040618	0.19923	0.12882	0.16442	0.073996	0.15684	0.046138	0.18388	0.091012	0.11345	0.15035	0.079844	0.2601	0.18103	0.23293	0.095105	-3.1188	-3.1896	-3.4208	-3.4625	-3.1229	-3.5833	-3.4021	-3.4688	-3.4458	-3.1188	-3.5021	-3.3146	-3.275	-3.3667	-3.2979	-3.1875	188.812	208.858	89.916	249.765	59.655	85.373	58.578	84.936	92.248	31.705	202.679	100.539	239.528	122.271	59.370	259.374	9.0434e-05	0.00032796	0.00010036	1193.6	2.5248e-06	3.6581e-06	1250.9	248.08	1.7118e-06	2.091e-06	308.67	85.865	67.767	19.275	2.1905e-06	27.119	0.00015823	0.00015294	4.1573e-05	1165.9	2.094e-06	1.4466e-06	1230.1	244.34	1.7507e-06	1.4585e-06	305.29	85.696	67.522	19.414	1.5797e-06	27.328	123.302	32.606	47.805	-46.411	101.300	114.169	-46.158	-39.359	111.354	79.662	-39.295	-33.471	-33.297	-26.188	105.825	-25.960	-8191	255	
25428.363	1	1	0	0	0.093362	0.16508	0.31331	0.15215	0.064683	0.22587	0.32685	0.38889	0.094212	0.19299	0.12219	0.078165	0.082134	0.17835	0.18432	0.077885	-3.0812	-3.1729	-3.4646	-3.4542	-3.0708	-3.3563	-3.3271	-3.2229	-3.4958	-3.175	-3.4646	-3.4938	-3.1875	-3.4021	-3.2625	-3.175	75.958	107.723	109.990	268.218	12.629	137.382	213.690	263.923	112.000	-23.737	218.841	67.865	121.184	265.949	239.608	100.854	0.00010132	0.00032474	0.00012156	1190	2.9389e-06	3.3564e-06	1254.7	246.61	1.3813e-06	3.4183e-06	308.38	85.804	67.653	19.313	2.6276e-06	27.387	0.00016616	0.00014222	3.6437e-05	1162.9	1.995e-06	1.4676e-06	1228.7	244.29	1.8348e-06	1.4713e-06	304.62	85.762	67.336	19.362	1.5012e-06	27.42	113.056	29.178	30.824	-46.468	89.185	98.194	-46.482	-39.488	89.990	99.067	-39.523	-33.276	-32.904	-26.017	84.441	-26.297	-8191	255	
25428.457	1	1	0	0	0.11827	0.090029	0.16242	0.40999	0.081222	0.15459	0.10109	0.17045	0.16089	0.27617	0.15128	0.088235	0.066127	0.13921	0.12074	0.25679	-3.0333	-3.3271	-3.2229	-3.4708	-3.3083	-3.425	-3.5667	-3.2125	-3.5208	-3.3229	-3.4667	-3.4813	-3.0708	-3.6292	-3.4667	-3.225	32.715	1.464	195.564	239.619	-27.142	67.536	195.421	-4.124	73.659	-18.958	295.499	285.748	277.051	-16.967	123.348	213.403	0.00010465	0.00038053	0.00010336	1189.1	2.0434e-06	3.1935e-06	1250.9	246.4	6.8855e-07	1.791e-06	308.18	86.473	67.51	19.3	1.8613e-06	27.194	0.00016846	0.00014444	4.1984e-05	1162.1	1.9976e-06	1.5232e-06	1228.8	243.69	1.7967e-06	1.42e-06	304.87	85.668	67.392	19.372	1.2893e-06	27.365	120.711	26.705	34.549	-46.358	89.577	96.791	-46.396	-39.409	90.951	95.723	-39.923	-33.391	-32.646	-25.552	100.891	-26.346	-8191	255	
25428.555	1	1	0	0	0.35951	0.26426	0.092393	0.26143	0.11315	0.10283	0.42004	0.11507	0.10572	0.095215	0.25701	0.06345	0.094475	0.04465	0.053727	0.12111	-3.1021	-3.2917	-3.3438	-3.6771	-3.1188	-3.3646	-3.4146	-3.2625	-3.4479	-3.3271	-3.4208	-3.6479	-3.4333	-3.3479	-3.3875	-3.1271	242.089	160.666	-15.503	297.271	178.412	46.422	257.185	196.508	206.965	271.921	-26.606	252.796	-6.712	269.426	-41.354	99.292	0.00010647	0.00039472	0.00010945	1189.9	2.1607e-06	2.7987e-06	1252.5	246.76	1.9452e-06	3.1918e-06	307.47	85.687	66.945	19.496	2.2933e-06	27.296	0.00016716	0.00013767	3.8357e-05	1163.6	2.0051e-06	1.4417e-06	1230.1	244.01	1.7835e-06	1.5342e-06	304.58	85.726	67.325	19.43	1.439e-06	27.362	120.725	26.211	31.748	-46.406	107.530	110.689	-46.245	-39.364	108.574	101.817	-39.611	-33.160	-32.850	-25.874	86.252	-26.607	-8191	255	
25428.650	1	1	0	0	0.14646	0.26836	0.10144	0.27718	0.096983	0.24167	0.07057	0.18172	0.29737	0.081864	0.21409	0.16532	0.23914	0.10223	0.22768	0.016949	-3.0875	-3.4396	-3.1333	-3.6042	-3.1625	-3.4521	-3.5458	-3.2833	-3.3854	-3.2833	-3.3792	-3.5229	-3.2896	-3.3458	-3.5062	-3.0708	227.598	227.584	-51.264	243.558	142.352	281.267	153.504	253.189	125.210	128.244	158.330	286.612	91.214	28.270	77.235	147.667	9.6161e-05	0.00034782	7.8782e-05	1187	1.6839e-06	4.1462e-06	1257.5	247.29	2.2527e-06	2.704e-06	308.62	85.479	67.191	19.406	1.8632e-06	27.178	0.00016106	0.0001374	3.6132e-05	1163.9	1.8676e-06	1.4312e-06	1230.6	244.13	1.9216e-06	1.2733e-06	305.32	85.649	67.344	19.373	1.3857e-06	27.341	122.324	30.414	11.503	-46.627	99.266	98.206	-46.437	-39.539	101.213	106.937	-39.534	-33.086	-33.025	-25.504	77.646	-26.155	-8191	255	
25428.746	1	1	0	0	0.14775	0.11192	0.32353	0.18023	0.077658	0.31172	0.054102	0.12922	0.11494	0.099074	0.27332	0.26444	0.07765	0.1753	0.25989	0.14982	-3.0604	-3.3563	-3.2479	-3.425	-3.3667	-3.2	-3.6292	-3.2979	-3.4375	-3.3875	-3.1729	-3.6792	-3.2313	-3.5021	-3.5646	-3.2375	148.234	21.076	76.455	264.398	81.941	240.388	24.761	254.854	39.540	269.586	252.179	255.883	48.802	-22.074	-14.746	245.035	0.00010386	0.00034898	9.5478e-05	1192.6	2.0755e-06	3.4156e-06	1255.8	245.84	1.1623e-06	2.7197e-06	308.7	85.449	67.573	19.318	2.8499e-06	27.414	0.00016583	0.00011705	3.915e-05	1165.6	1.8419e-06	1.4349e-06	1231	243.71	1.8131e-06	1.2519e-06	304.58	85.698	67.392	19.373	1.3476e-06	27.48	120.334	30.375	31.249	-46.382	121.097	110.940	-46.208	-39.111	85.852	104.499	-39.707	-33.405	-32.967	-25.719	105.582	-26.288	-8191	255	
25428.842	1	1	0	0	0.11922	0.13272	0.074274	0.14381	0.065235	0.26062	0.33258	0.099668	0.20467	0.10018	0.096012	0.051284	0.21172	0.26156	0.091168	0.10617	-2.9917	-3.3	-3.1167	-3.7125	-3.1437	-3.125	-3.5938	-3.3875	-3.4437	-3.3042	-3.1667	-3.5	-3.4167	-3.3208	-3.5729	-3.2708	270.601	-34.364	45.430	300.090	216.241	82.585	196.954	-40.322	199.646	66.489	204.914	228.475	293.333	215.725	226.637	153.745	9.8718e-05	0.00032541	9.4723e-05	1189	1.8108e-06	2.8592e-06	1254.3	246.53	1.781e-06	2.5699e-06	306.24	85.63	67.588	19.289	2.2534e-06	27.118	0.00016913	0.00010676	3.7245e-05	1162.9	1.912e-06	1.3571e-06	1230.8	243.39	1.8438e-06	1.1896e-06	303.83	85.63	67.392	19.34	1.4463e-06	27.315	127.915	42.959	32.919	-46.295	111.473	99.164	-46.445	-39.198	119.369	107.145	-39.695	-33.268	-33.079	-25.745	93.994	-26.038	-8191	255	
25428.938	1	1	0	0	0.10818	0.15441	0.15036	0.35879	0.10808	0.18663	0.19597	0.24018	0.1932	0.10028	0.21862	0.11509	0.10215	0.20148	0.137	0.059072	-3.0729	-3.4917	-3.1604	-3.5083	-3.3792	-3.1792	-3.5958	-3.3042	-3.2375	-3.3979	-3.2958	-3.6271	-3.4125	-3.2917	-3.4708	-3.3292	174.406	149.269	147.086	273.939	105.409	28.439	261.336	206.513	-3.121	254.882	104.895	23.271	-17.400	279.317	30.164	-15.066	0.00010129	0.0003524	9.0406e-05	1190.5	2.0686e-06	3.2801e-06	1250	247.19	1.6803e-06	3.0443e-06	309.71	85.042	67.404	19.335	3.0942e-06	27.232	0.00017108	0.00013031	4.0552e-05	1163.2	1.7483e-06	1.2966e-06	1228.4	243.72	1.756e-06	1.2715e-06	304.33	85.616	67.317	19.337	1.5315e-06	27.326	122.191	30.721	39.704	-46.288	125.814	92.662	-46.321	-39.165	86.505	114.431	-39.887	-33.224	-32.865	-26.018	87.048	-26.414	-8191	255	
25429.059	1	1	0	0	0.27312	0.32259	0.23033	0.44895	0.05699	0.13934	0.27026	0.20151	0.05979	0.093157	0.26216	0.23573	0.16808	0.083157	0.28451	0.098575	-2.9292	-3.3187	-3.0062	-3.3708	-3.3854	-3.1813	-3.5187	-3.4375	-3.2729	-3.5729	-3.2542	-3.4104	-3.4292	-3.1271	-3.3646	-3.1729	80.458	-23.413	245.524	241.084	-25.728	-51.861	207.700	287.616	61.786	199.749	239.344	256.285	164.108	261.811	-25.561	198.506	0.00010499	0.00034918	0.00010813	1187.4	1.9672e-06	4.3203e-06	1245.8	245.85	1.2019e-06	3.1383e-06	308.02	84.996	67.091	19.245	2.44e-06	27.226	0.00016415	0.00012652	4.1207e-05	1160.6	1.79e-06	1.4552e-06	1226	243.07	1.7782e-06	1.3253e-06	304.25	85.486	67.065	19.318	1.5146e-06	27.336	118.107	54.084	29.110	-46.371	124.584	102.852	-46.292	-39.427	70.140	89.028	-39.492	-33.411	-32.808	-25.941	77.000	-26.183	-8191	255	
25429.154	1	1	0	0	0.18816	0.1942	0.1325	0.054857	0.13291	0.042062	0.20651	0.23626	0.28263	0.28525	0.086526	0.16532	0.12315	0.064944	0.24031	0.27724	-2.6562	-3.5125	-3.1583	-3.4792	-3.3854	-3.2625	-3.4604	-3.3708	-3.1417	-3.55	-3.3458	-3.55	-3.4146	-3.2625	-3.5563	-3.4229	48.212	196.724	106.676	29.987	180.776	254.869	233.539	278.951	-54.822	90.818	49.642	169.270	-46.672	-30.926	-35.589	282.806	9.6996e-05	0.00026232	0.00011133	1189.3	1.6018e-06	2.8498e-06	1249	245.62	8.5707e-07	3.1108e-06	307.14	84.669	66.766	19.227	2.9619e-06	27.322	0.00016825	0.00012944	4.0552e-05	1160.3	1.7327e-06	1.4571e-06	1225.9	243.14	1.757e-06	1.2281e-06	303.78	85.504	67.032	19.269	1.5528e-06	27.332	123.708	30.478	29.163	-46.360	98.248	107.925	-46.168	-39.285	94.885	111.764	-39.660	-33.014	-32.923	-25.848	89.774	-25.898	-8191	255	
25429.252	1	1	0	0	0.38149	0.16919	0.4676	0.15446	0.048116	0.018536	0.24459	0.10508	0.11211	0.16459	0.090976	0.054826	0.036654	0.31619	0.14955	0.19882	-2.7854	-3.5875	-3.2896	-3.5167	-3.4813	-3.2167	-3.5292	-3.3354	-3.1229	-3.4188	-3.2833	-3.4333	-3.5729	-3.1729	-3.3792	-3.3792	133.432	123.090	-45.700	-48.755	-37.479	-42.486	244.581	292.808	239.624	165.486	68.315	214.145	69.498	1.917	242.529	5.927	9.3266e-05	0.00032585	7.3694e-05	1184.8	2.7414e-06	4.1008e-06	1245.6	246.11	1.5996e-06	3.0142e-06	306.79	85.283	67.096	19.182	2.4448e-06	27.398	0.00015864	0.0001308	4.2411e-05	1159.6	1.7884e-06	1.5596e-06	1223	243.16	1.7814e-06	1.4096e-06	303.52	85.321	67.143	19.261	1.6929e-06	27.331	120.369	17.040	25.946	-46.507	119.270	121.464	-46.337	-39.699	56.932	97.710	-39.562	-33.190	-32.613	-25.328	83.875	-26.456	-8191	255	
25429.348	1	1	0	0	0.19058	0.10715	0.16093	0.11244	0.10578	0.19968	0.16449	0.11806	0.057729	0.41003	0.097987	0.16109	0.1159	0.17539	0.046955	0.25258	-2.575	-3.3292	-3.0083	-3.3104	-3.3292	-3.2792	-3.6063	-3.3542	-3.1417	-3.4375	-3.2271	-3.3292	-3.6167	-3.1042	-3.1937	-3.4667	101.589	1.213	294.369	299.199	56.276	65.176	276.683	256.441	27.946	266.810	-25.320	226.311	-7.476	182.034	87.149	142.785	0.00010866	0.00032438	8.5972e-05	1185.6	2.0696e-06	3.8047e-06	1247.8	245.55	1.1081e-06	2.0294e-06	306.18	85.183	67.401	19.334	2.8185e-06	27.202	0.00017158	0.00013767	3.8799e-05	1158.9	1.8334e-06	1.4589e-06	1224.5	242.77	1.829e-06	1.4866e-06	303.16	85.236	67.259	19.363	1.7108e-06	27.313	121.225	39.396	31.441	-46.360	102.027	100.181	-46.364	-39.259	76.208	97.966	-39.694	-33.471	-32.472	-25.810	114.295	-26.212	-8191	255	
25429.443	1	1	0	0	0.065102	0.27612	0.081642	0.062929	0.036392	0.094501	0.27499	0.21283	0.14217	0.19912	0.16163	0.34526	0.2872	0.14122	0.11288	0.22696	-2.7458	-3.3708	-3.2021	-3.325	-3.35	-3.2021	-3.4292	-3.5167	-3.1104	-3.4958	-3.3854	-3.1667	-3.5458	-3.3	-3.4458	-3.5146	262.764	79.888	-28.168	224.067	63.348	-6.337	214.642	200.915	115.887	140.238	-29.186	231.082	233.119	-40.263	247.024	282.676	0.00010039	0.00037025	9.0298e-05	1187.3	2.9381e-06	2.9842e-06	1248.4	246.15	1.6744e-06	2.8815e-06	308.4	85.089	67.335	19.409	2.4001e-06	27.024	0.00016896	0.00013399	3.8555e-05	1159.1	1.9457e-06	1.4058e-06	1223.8	242.65	1.8449e-06	1.6167e-06	303.83	85.295	67.183	19.321	1.5898e-06	27.323	122.887	31.923	25.000	-46.396	91.026	98.661	-46.216	-39.402	84.446	101.300	-39.751	-33.331	-33.162	-25.856	81.621	-25.750	-8191	255	
25429.539	1	1	0	0	0.18013	0.10254	0.059985	0.28484	0.038971	0.2186	0.26723	0.15454	0.12459	0.17423	0.16482	0.1395	0.089424	0.10205	0.042477	0.15454	-2.7167	-3.4396	-3.175	-3.2313	-3.3146	-3.0958	-3.3812	-3.4792	-3.0667	-3.3167	-3.3063	-3.1729	-3.4521	-3.25	-3.2083	-3.5458	-24.767	40.473	144.776	286.318	-39.629	-30.886	237.652	271.921	11.815	-14.708	245.277	245.666	291.719	197.482	6.377	296.806	7.5527e-05	0.00035492	8.1836e-05	1178.9	1.8751e-06	3.3876e-06	1249.4	246.59	1.7984e-06	3.831e-06	307.9	84.911	66.877	19.272	2.3942e-06	27.29	0.00017417	0.00013854	3.502e-05	1156.6	1.7729e-06	1.6065e-06	1223.2	242.86	1.874e-06	1.4114e-06	303.69	85.167	66.938	19.307	1.4984e-06	27.31	121.432	30.047	48.671	-46.451	93.501	120.743	-46.476	-39.427	114.658	92.141	-39.619	-33.136	-32.948	-26.169	113.600	-26.249	-8191	255	
25429.658	1	1	0	0	0.033612	0.09879	0.14312	0.12657	0.10874	0.20605	0.28799	0.079677	0.25367	0.22554	0.14716	0.18901	0.13574	0.19955	0.30145	0.07067	-2.6188	-3.2812	-3.2917	-3.1833	-3.3958	-3.1167	-3.3625	-3.4958	-2.9771	-3.2229	-3.3125	-3.4375	-3.3937	-3.2875	-3.2458	-3.575	146.063	295.237	299.613	270.315	272.568	89.157	266.872	206.975	236.648	-9.755	252.676	228.807	-14.465	210.272	-43.677	-25.757	0.00010155	0.00032178	7.7702e-05	1181.8	1.833e-06	2.511e-06	1240.5	244.49	1.9842e-06	3.1019e-06	307.05	85.637	67.304	19.125	2.031e-06	27.103	0.00017403	0.00013323	3.409e-05	1155.3	1.9586e-06	1.412e-06	1223	242.33	1.9507e-06	1.4371e-06	303.71	85.479	67.093	19.242	1.5365e-06	27.287	117.876	21.181	42.950	-46.292	109.853	97.663	-46.170	-39.530	110.487	76.993	-39.889	-33.441	-32.643	-26.125	84.403	-26.033	-8191	255	
25429.756	1	1	0	0	0.11273	0.079824	0.099021	0.37347	0.19764	0.17358	0.15753	0.10577	0.19794	0.19004	0.15819	0.25851	0.17089	0.21904	0.11677	0.21931	-2.7687	-3.3229	-3.3438	-3.3604	-3.4604	-3.2125	-3.4792	-3.5083	-3.2104	-3.4333	-3.3417	-3.0958	-3.35	-3.2729	-2.925	-3.5958	211.794	76.865	198.517	256.511	264.401	49.271	300.264	288.246	264.216	164.005	86.544	250.938	221.898	211.116	296.749	285.743	0.0001097	0.00030147	8.6024e-05	1184.7	1.4815e-06	3.5082e-06	1243.9	243.81	7.3013e-07	3.564e-06	306.86	85.403	67.659	19.184	2.5531e-06	27.112	0.00017612	0.00012159	3.5142e-05	1157	1.9634e-06	1.3768e-06	1222	242.15	1.9158e-06	1.4597e-06	303.36	85.344	67.121	19.323	1.6099e-06	27.285	122.288	31.939	23.885	-46.332	82.414	109.884	-46.190	-39.470	85.971	103.857	-39.624	-33.354	-32.904	-26.043	106.466	-26.000	-8191	255	
25429.852	1	1	0	0	0.22791	0.33341	0.13432	0.35147	0.10612	0.045056	0.17979	0.11728	0.12918	0.16348	0.42312	0.094871	0.12457	0.20856	0.037671	0.27	-2.7917	-3.2771	-3.2229	-3.0958	-3.2958	-3.2833	-3.0812	-3.5667	-3.1208	-3.3438	-3.4	-3.1625	-3.3563	-3.2979	-3.1125	-3.4313	169.812	215.261	75.643	15.100	191.941	273.339	250.500	-37.737	25.478	132.272	283.157	299.797	-36.887	-46.276	286.661	245.428	0.00011555	0.00030277	9.3706e-05	1180.8	2.0456e-06	3.3127e-06	1249.6	245.66	1.2655e-06	1.9812e-06	305.5	85.073	66.657	19.096	2.5275e-06	27.122	0.00017476	0.000123	3.3618e-05	1158.1	1.9115e-06	1.2305e-06	1225.2	242.45	1.7708e-06	1.1505e-06	303.42	85.377	67.063	19.302	1.6021e-06	27.32	115.153	35.629	39.698	-46.414	97.445	113.365	-46.265	-39.287	97.230	105.139	-39.486	-33.337	-32.906	-25.781	116.305	-26.442	-8191	255	
25429.947	1	1	0	0	0.092042	0.22914	0.30363	0.10615	0.12314	0.15208	0.38929	0.13665	0.19544	0.025103	0.11452	0.063598	0.23975	0.078743	0.095134	0.1792	-2.6292	-3.0354	-3.3479	-3.1458	-3.5833	-3.2958	-3.3125	-3.5271	-3.2146	-3.2208	-3.3854	-3.3229	-3.2625	-3.3854	-3.2646	-3.3729	130.756	236.247	154.285	144.088	172.184	-6.717	233.596	192.295	154.261	187.092	229.349	116.945	67.683	241.521	180.323	42.328	0.0001016	0.00031355	8.5072e-05	1183	2.4966e-06	3.143e-06	1248.7	245.14	1.5088e-06	3.0805e-06	307.57	85.351	67.412	19.288	1.9907e-06	27.14	0.00017544	0.00013496	3.4684e-05	1158.6	1.9125e-06	1.3046e-06	1226.1	242.76	1.757e-06	1.3271e-06	304.01	85.377	67.134	19.349	1.5163e-06	27.376	116.786	40.163	36.729	-46.380	115.710	111.416	-46.490	-39.359	80.028	100.714	-39.834	-33.335	-32.312	-26.216	87.833	-26.287	-8191	255	
#DATA ENDS
