BOXY.EXE: ISS Imagent and Oximeter Data Acquisition Program Version 0.80
Ascii Record File

#ACQ INFORMATION
2  Detector Channels 
16  External MUX Channels 
1  Auxiliary Channels 
5000  Waveform (CCF) Frequency (Hz)
1  Waveforms Skipped 
30  Waveforms Averaged 
1  Cycles Averaged 
16  Acquisitions per Waveform 
10.0806  Updata Rate (Hz) 

#FILE INFORMATION
TRUE -- External MUX Channel results are PARSED.
FALSE -- AC DC and Phase are NOT grouped.
TRUE -- Companion Program Settings File CREATED.
FALSE -- AC data not excluded
FALSE -- DC data not excluded
FALSE -- Phase data not excluded
FALSE -- Auxillary Chn. data not excluded
Tab delimiters

#CALIBRATION STATE
TRUE -- Waveform Calibration Values APPLIED.


#AUX CALIBRATION VALUES
Val Type	aux-1	

Term	1.0000e+00	
Factor	0.0000e+00	


#WF CALIBRATION VALUES
A = Detector Channel
Val Type	A-AC1	A-AC2	A-AC3	A-AC4	A-AC5	A-AC6	A-AC7	A-AC8	A-AC9	A-AC10	A-AC11	A-AC12	A-AC13	A-AC14	A-AC15	A-AC16	A-DC1	A-DC2	A-DC3	A-DC4	A-DC5	A-DC6	A-DC7	A-DC8	A-DC9	A-DC10	A-DC11	A-DC12	A-DC13	A-DC14	A-DC15	A-DC16	A-Ph1	A-Ph2	A-Ph3	A-Ph4	A-Ph5	A-Ph6	A-Ph7	A-Ph8	A-Ph9	A-Ph10	A-Ph11	A-Ph12	A-Ph13	A-Ph14	A-Ph15	A-Ph16	

Term	0.00000e+00	0.00000e+00	0.00000e+00	0.00000e+00	0.00000e+00	0.00000e+00	0.00000e+00	0.00000e+00	0.00000e+00	0.00000e+00	0.00000e+00	0.00000e+00	0.00000e+00	0.00000e+00	0.00000e+00	0.00000e+00	0.00000e+00	0.00000e+00	0.00000e+00	0.00000e+00	0.00000e+00	0.00000e+00	0.00000e+00	0.00000e+00	0.00000e+00	0.00000e+00	0.00000e+00	0.00000e+00	0.00000e+00	0.00000e+00	0.00000e+00	0.00000e+00	0.00000e+00	0.00000e+00	0.00000e+00	0.00000e+00	0.00000e+00	0.00000e+00	0.00000e+00	0.00000e+00	0.00000e+00	0.00000e+00	0.00000e+00	0.00000e+00	0.00000e+00	0.00000e+00	0.00000e+00	0.00000e+00	
Factor	1.00000e+00	1.00000e+00	1.00000e+00	1.00000e+00	1.00000e+00	1.00000e+00	1.00000e+00	1.00000e+00	1.00000e+00	1.00000e+00	1.00000e+00	1.00000e+00	1.00000e+00	1.00000e+00	1.00000e+00	1.00000e+00	1.00000e+00	1.00000e+00	1.00000e+00	1.00000e+00	1.00000e+00	1.00000e+00	1.00000e+00	1.00000e+00	1.00000e+00	1.00000e+00	1.00000e+00	1.00000e+00	1.00000e+00	1.00000e+00	1.00000e+00	1.00000e+00	X	X	X	X	X	X	X	X	X	X	X	X	X	X	X	X	

B = Detector Channel
Val Type	B-AC1	B-AC2	B-AC3	B-AC4	B-AC5	B-AC6	B-AC7	B-AC8	B-AC9	B-AC10	B-AC11	B-AC12	B-AC13	B-AC14	B-AC15	B-AC16	B-DC1	B-DC2	B-DC3	B-DC4	B-DC5	B-DC6	B-DC7	B-DC8	B-DC9	B-DC10	B-DC11	B-DC12	B-DC13	B-DC14	B-DC15	B-DC16	B-Ph1	B-Ph2	B-Ph3	B-Ph4	B-Ph5	B-Ph6	B-Ph7	B-Ph8	B-Ph9	B-Ph10	B-Ph11	B-Ph12	B-Ph13	B-Ph14	B-Ph15	B-Ph16	

Term	0.00000e+00	0.00000e+00	0.00000e+00	0.00000e+00	0.00000e+00	0.00000e+00	0.00000e+00	0.00000e+00	0.00000e+00	0.00000e+00	0.00000e+00	0.00000e+00	0.00000e+00	0.00000e+00	0.00000e+00	0.00000e+00	0.00000e+00	0.00000e+00	0.00000e+00	0.00000e+00	0.00000e+00	0.00000e+00	0.00000e+00	0.00000e+00	0.00000e+00	0.00000e+00	0.00000e+00	0.00000e+00	0.00000e+00	0.00000e+00	0.00000e+00	0.00000e+00	-1.62186e+02	-1.31730e+02	-1.27311e+02	-1.82839e+02	-7.22027e+01	-7.27005e+01	-1.55569e+02	-1.62015e+02	-8.76372e+01	-5.40435e+01	-1.72178e+02	-1.69985e+02	-1.81095e+02	-1.77169e+02	-7.66771e+01	-1.49038e+02	
Factor	2.42245e-05	1.56023e-04	3.81428e-05	1.75312e-01	1.40971e-06	1.64037e-06	1.54563e-01	4.71353e-02	1.24050e-06	1.69146e-06	8.91026e-02	2.75073e-02	2.74061e-02	8.82892e-03	1.31004e-06	1.28598e-02	5.15665e-06	6.04778e-06	1.70279e-06	8.69371e-02	6.52167e-08	6.74084e-08	7.23543e-02	2.35215e-02	6.47762e-08	6.74149e-08	4.30885e-02	1.33832e-02	1.37951e-02	4.43508e-03	6.56277e-08	6.27281e-03	X	X	X	X	X	X	X	X	X	X	X	X	X	X	X	X	



#DISTANCE SETTINGS
A = Detector Channel
A-1	A-2	A-3	A-4	A-5	A-6	A-7	A-8	A-9	A-10	A-11	A-12	A-13	A-14	A-15	A-16	

2.5000e+00	3.0000e+00	2.5000e+00	3.0000e+00	2.0000e+00	3.0000e+00	1.5000e+00	3.0000e+00	3.0000e+00	3.0000e+00	3.0000e+00	3.0000e+00	3.0000e+00	3.0000e+00	1.5000e+00	3.0000e+00	

B = Detector Channel
B-1	B-2	B-3	B-4	B-5	B-6	B-7	B-8	B-9	B-10	B-11	B-12	B-13	B-14	B-15	B-16	

1.0000e+01	1.0000e+01	1.0000e+01	1.4400e+00	1.0000e+01	1.0000e+01	1.5100e+00	1.9400e+00	1.0000e+01	1.0000e+01	1.9900e+00	2.4900e+00	2.4100e+00	2.9000e+00	1.0000e+01	2.9800e+00	




#DATA BEGINS
time	group	step	mark	flag	A-AC1	A-AC2	A-AC3	A-AC4	A-AC5	A-AC6	A-AC7	A-AC8	A-AC9	A-AC10	A-AC11	A-AC12	A-AC13	A-AC14	A-AC15	A-AC16	A-DC1	A-DC2	A-DC3	A-DC4	A-DC5	A-DC6	A-DC7	A-DC8	A-DC9	A-DC10	A-DC11	A-DC12	A-DC13	A-DC14	A-DC15	A-DC16	A-Ph1	A-Ph2	A-Ph3	A-Ph4	A-Ph5	A-Ph6	A-Ph7	A-Ph8	A-Ph9	A-Ph10	A-Ph11	A-Ph12	A-Ph13	A-Ph14	A-Ph15	A-Ph16	B-AC1	B-AC2	B-AC3	B-AC4	B-AC5	B-AC6	B-AC7	B-AC8	B-AC9	B-AC10	B-AC11	B-AC12	B-AC13	B-AC14	B-AC15	B-AC16	B-DC1	B-DC2	B-DC3	B-DC4	B-DC5	B-DC6	B-DC7	B-DC8	B-DC9	B-DC10	B-DC11	B-DC12	B-DC13	B-DC14	B-DC15	B-DC16	B-Ph1	B-Ph2	B-Ph3	B-Ph4	B-Ph5	B-Ph6	B-Ph7	B-Ph8	B-Ph9	B-Ph10	B-Ph11	B-Ph12	B-Ph13	B-Ph14	B-Ph15	B-Ph16	aux-1	digaux	

1960.818	1	1	0	512	0.096024	0.048284	0.18765	0.26062	0.094046	0.22425	0.19784	0.14377	0.16427	0.073094	0.19221	0.23549	0.2432	0.18306	0.18726	0.26204	-2.5396	-3.2646	-3.3021	-3.075	-3.4188	-3.1437	-3.2188	-3.6354	-3.0271	-3.3146	-3.4125	-3.0687	-3.6604	-3.4833	-3.2271	-3.5167	139.025	21.933	255.974	228.849	97.159	243.570	181.535	-10.102	134.151	296.300	-2.512	-37.712	220.818	194.611	59.794	221.342	0.0001757	0.00041295	0.00010727	975.55	9.0275e-06	8.0012e-06	697.41	259.3	8.2793e-06	1.5475e-05	243.71	95.584	88.542	36.651	3.5099e-06	46.873	0.0021733	0.0024725	0.0006992	975.94	2.6852e-05	2.7815e-05	706.74	261.46	2.7054e-05	2.8404e-05	254.05	99.652	92.268	37.639	2.6876e-05	48.36	136.665	36.483	74.076	-46.435	156.858	98.581	-47.533	-41.237	69.959	116.410	-43.280	-39.546	-36.805	-32.266	124.603	-35.190	-8191	255	
1960.914	1	1	0	0	0.10923	0.20217	0.11828	0.14277	0.097227	0.24983	0.27714	0.22278	0.13156	0.1872	0.21943	0.14431	0.24275	0.1651	0.15197	0.16855	-2.8083	-3.2958	-3.3479	-3.2667	-3.5229	-3.1833	-3.3	-3.6	-3.3354	-3.25	-3.4333	-3.1479	-3.4229	-3.3792	-3.2458	-3.4458	-24.229	233.044	247.357	281.680	278.216	271.891	296.936	244.281	125.474	87.015	-54.573	122.168	160.323	188.187	186.275	291.505	0.00017824	0.0009855	4.222e-05	973.96	4.1012e-06	1.018e-05	700.81	258.64	2.1321e-06	6.648e-06	245.15	97.383	88.219	36.681	6.909e-06	47.018	0.0021693	0.002506	0.00069868	978.64	2.7079e-05	2.7788e-05	709.99	261.45	2.6834e-05	2.8222e-05	255.71	100.71	92.376	37.744	2.7207e-05	48.598	128.636	-0.714	259.152	-46.274	59.743	70.858	-47.542	-41.087	124.786	95.846	-43.236	-39.530	-36.878	-32.304	85.474	-35.605	-8191	255	
1961.010	1	1	0	0	0.22239	0.23536	0.12064	0.13065	0.3234	0.22496	0.27346	0.38015	0.12549	0.06775	0.1412	0.36305	0.15464	0.055967	0.14739	0.15606	-2.8688	-3.1958	-3.4313	-3.2146	-3.3854	-3.4146	-3.3646	-3.4625	-3.2625	-3.3375	-3.5812	-3.0938	-3.4313	-3.4792	-3.1396	-3.4104	192.346	166.574	69.675	229.016	116.993	156.037	231.781	177.648	-31.752	245.053	58.005	245.651	294.124	222.992	185.407	257.598	8.3135e-05	0.00066854	0.00014407	977.93	4.0016e-06	5.8229e-06	703.13	258.23	5.5609e-06	6.9486e-06	246.69	97.685	88.495	36.649	5.7094e-06	46.984	0.0021896	0.0025295	0.000707	981.42	2.7161e-05	2.8135e-05	714.11	261.66	2.7113e-05	2.8434e-05	256.89	100.82	92.11	37.662	2.6914e-05	48.402	141.473	126.482	-6.990	-46.246	165.033	46.785	-47.279	-41.137	40.085	122.698	-42.937	-39.208	-36.790	-32.135	103.149	-35.278	-8191	255	
1961.131	1	1	0	0	0.15367	0.26745	0.25155	0.10597	0.026793	0.086112	0.16601	0.39491	0.21892	0.16436	0.096174	0.33229	0.091498	0.25477	0.11904	0.079458	-2.8021	-3.2229	-3.4125	-3.2583	-3.4667	-3.4229	-3.0646	-3.5812	-3.2188	-3.1146	-3.4125	-3.3438	-3.3396	-3.5396	-3.1667	-3.5458	4.985	48.222	75.933	8.948	86.059	-9.672	228.359	258.498	30.748	144.724	156.751	-44.990	158.035	-15.500	71.503	260.603	0.00030605	0.00065845	0.00012833	964.35	1.8394e-06	5.1023e-06	687.67	255.86	6.4927e-06	1.1141e-05	240.62	96.067	87.683	36.329	2.4127e-06	46.51	0.0021664	0.0024797	0.0006934	968.03	2.6486e-05	2.7429e-05	696.79	258.17	2.6442e-05	2.7163e-05	251.27	99.138	91.142	37.222	2.5946e-05	47.86	113.417	57.843	48.571	-46.456	239.698	119.228	-47.414	-41.153	69.091	82.398	-43.169	-39.215	-36.825	-32.282	196.478	-35.350	-8191	255	
1961.227	1	1	0	0	0.21122	0.10635	0.24763	0.263	0.12137	0.16232	0.28016	0.11702	0.11423	0.32433	0.085752	0.23476	0.10958	0.021156	0.18066	0.074597	-3.0062	-3.1354	-3.4875	-3.2667	-3.225	-3.55	-3.2125	-3.5979	-3.4479	-3.1875	-3.4042	-3.3187	-3.3396	-3.475	-3.1625	-3.475	116.964	171.210	101.412	-48.888	193.341	91.604	206.132	254.390	185.953	30.291	177.570	198.656	267.579	222.294	-39.306	-40.573	0.00013846	0.00034734	6.2814e-05	956.66	5.5134e-06	7.5531e-06	691.57	254.37	1.1716e-06	3.1498e-06	243.02	96.497	87.539	36.345	8.1318e-06	46.861	0.0020821	0.002402	0.0006756	958.1	2.6056e-05	2.7134e-05	697.54	257.06	2.5993e-05	2.6928e-05	253.23	99.553	91.047	37.229	2.6439e-05	48.072	144.729	187.218	-47.440	-46.102	185.734	90.192	-47.505	-41.170	73.585	65.595	-43.575	-39.538	-36.770	-32.076	92.007	-35.150	-8191	255	
1961.299	1	1	0	0	0.25054	0.064615	0.078	0.056675	0.13092	0.10635	0.2373	0.22101	0.081865	0.23913	0.085189	0.06113	0.1031	0.24216	0.14505	0.046359	-2.8646	-3.25	-3.5292	-3.4021	-3.3438	-3.6813	-3.2833	-3.5667	-3.3896	-3.0667	-3.5396	-3.3854	-3.2625	-3.4	-3.15	-3.5062	106.383	146.094	44.875	243.482	39.513	147.989	210.717	190.337	-27.302	97.363	216.209	162.892	-16.851	249.835	274.660	49.335	9.6436e-05	0.00059871	0.00011868	961.29	6.4132e-06	1.0023e-05	696.52	255.76	6.606e-06	1.3236e-05	247.2	97.505	88.038	36.494	4.618e-06	47.037	0.002137	0.0024395	0.00068613	966.91	2.6329e-05	2.6708e-05	704.72	258.75	2.5891e-05	2.6859e-05	256.3	100.51	91.592	37.457	2.6386e-05	48.34	124.798	46.926	-32.945	-46.218	93.271	91.241	-47.615	-41.136	1.448	56.468	-43.097	-39.512	-36.611	-32.130	126.358	-35.345	-8191	255	
1961.419	1	1	0	0	0.080897	0.18961	0.1123	0.013841	0.07077	0.074794	0.23032	0.2486	0.25875	0.17304	0.11361	0.17464	0.17328	0.17392	0.25563	0.42951	-2.975	-3.0896	-3.4813	-3.4542	-3.1521	-3.4708	-3.2042	-3.5396	-3.3667	-3.1479	-3.4146	-3.4354	-3.1479	-3.5292	-3.3479	-3.3812	195.105	14.396	-39.204	-43.068	-3.633	-36.281	203.814	283.316	210.874	91.385	299.943	108.891	-34.657	-42.653	91.178	275.374	0.00017362	0.001064	0.00027687	965.62	6.8358e-06	2.9365e-06	694.14	256.55	9.0448e-06	8.742e-06	244.75	96.387	88.121	36.255	5.3459e-06	46.508	0.0021187	0.0024349	0.00068699	970.59	2.6293e-05	2.7079e-05	702.94	258.9	2.5967e-05	2.6747e-05	253.44	99.694	91.3	37.167	2.6022e-05	47.842	83.823	-37.020	11.259	-46.283	67.668	184.908	-47.188	-41.219	115.133	54.108	-43.485	-39.443	-36.902	-32.407	23.072	-35.153	-8191	255	
1961.514	1	1	0	0	0.25727	0.10647	0.080517	0.31668	0.25282	0.032671	0.074799	0.12022	0.24872	0.13673	0.19739	0.079648	0.12635	0.20733	0.11141	0.15854	-3.1	-3.1979	-3.2313	-3.4625	-3.0146	-3.6125	-3.2687	-3.3771	-3.5438	-3.2333	-3.3438	-3.3083	-3.2188	-3.6104	-3.2229	-3.4208	1.362	128.693	1.243	-53.495	29.064	-17.569	40.823	3.232	174.078	249.536	284.307	87.473	278.966	300.615	168.935	205.709	0.00011985	0.00044686	0.00024929	954.53	7.8911e-06	8.2712e-06	691.64	255.65	3.5665e-06	1.1141e-05	243.99	96.26	87.905	36.458	1.8311e-06	46.278	0.0020613	0.0023796	0.00067092	957.59	2.555e-05	2.639e-05	697.86	258.1	2.5595e-05	2.6551e-05	253.93	99.672	91.351	37.289	2.6136e-05	47.859	139.197	155.240	4.224	-46.321	73.261	46.942	-47.416	-41.298	18.619	83.983	-42.876	-39.672	-36.673	-32.154	225.521	-35.186	-8191	255	
1961.610	1	1	0	0	0.092791	0.12967	0.030855	0.078041	0.1062	0.3387	0.26455	0.053328	0.14958	0.039293	0.11372	0.25472	0.28568	0.29392	0.15972	0.10784	-3.1708	-3.05	-3.5375	-3.4396	-3.1667	-3.4583	-3.3688	-3.3396	-3.5312	-3.1146	-3.525	-3.2521	-3.0771	-3.4667	-3.3958	-3.3563	104.501	-2.425	142.990	246.520	229.315	236.045	249.403	-51.353	134.766	247.979	294.044	206.347	-49.181	204.971	202.761	-27.058	0.00014012	0.00054172	5.574e-05	963.31	3.8045e-06	4.6645e-06	696.44	258.26	3.2005e-06	1.0601e-05	248.33	97.639	88.172	36.386	2.0612e-06	46.883	0.0020951	0.0024043	0.00067267	965.13	2.5914e-05	2.6343e-05	705.03	259.8	2.5649e-05	2.6401e-05	256.87	100.66	91.806	37.369	2.6036e-05	48.319	114.936	-0.132	77.692	-46.162	195.356	100.724	-47.409	-41.149	-25.498	90.613	-43.812	-39.197	-37.020	-32.103	143.750	-35.254	-8191	255	
1961.706	1	1	0	0	0.059453	0.26535	0.16123	0.071613	0.10936	0.083518	0.26057	0.046781	0.13148	0.13945	0.097724	0.12418	0.23026	0.1295	0.072578	0.13174	-3.1479	-3.1688	-3.1604	-3.4813	-3.0479	-3.3708	-3.5271	-3.2687	-3.5708	-3.1958	-3.4042	-3.5687	-3.2917	-3.4521	-3.5271	-3.1667	193.075	263.468	256.018	188.538	83.162	29.630	218.855	291.898	60.236	69.583	279.718	-37.075	250.431	244.844	193.278	123.764	0.0002418	0.00032972	0.00020019	964.85	9.5824e-06	4.5805e-06	705.34	257.9	5.31e-06	3.1612e-06	248.51	97.567	87.915	36.177	1.931e-06	46.622	0.0021011	0.002409	0.00067289	968.74	2.5922e-05	2.6795e-05	712.45	260.58	2.5805e-05	2.6882e-05	257.72	100.87	91.654	37.385	2.6337e-05	48.194	135.091	56.038	75.268	-46.354	110.957	114.836	-47.613	-41.177	46.266	184.197	-43.181	-39.437	-37.132	-32.090	124.842	-35.256	-8191	255	
1961.827	1	1	0	0	0.18772	0.22724	0.11798	0.12698	0.15023	0.19912	0.069183	0.077738	0.046954	0.079936	0.12395	0.22329	0.042864	0.22513	0.067393	0.20518	-3.2146	-3.1479	-3.3167	-3.625	-3.2896	-3.4396	-3.5396	-3.3354	-3.4833	-3.15	-3.3896	-3.525	-3.3833	-3.4875	-3.4042	-3.1813	-41.312	163.852	200.910	219.948	60.987	-54.444	261.851	-57.362	-39.146	138.865	113.776	295.206	75.268	127.130	175.019	188.392	0.00012282	0.00053401	6.6268e-05	956.1	1.2536e-06	9.5394e-06	688.33	255.21	3.8249e-06	4.1402e-06	246.17	96.83	88.045	36.208	5.3202e-06	46.871	0.002128	0.0024336	0.0006876	957.25	2.6236e-05	2.7172e-05	698.3	257.74	2.6196e-05	2.7432e-05	255.4	100.08	91.473	37.24	2.6838e-05	48.162	128.733	26.741	-1.761	-46.304	-1.670	116.851	-47.365	-41.199	116.983	108.191	-43.094	-39.460	-36.594	-32.166	164.792	-35.352	-8191	255	
1961.923	1	1	0	0	0.22278	0.21846	0.16688	0.10861	0.16179	0.21738	0.03557	0.23011	0.2968	0.22616	0.19193	0.20259	0.26465	0.077311	0.14223	0.076074	-3.0042	-3.3521	-3.2042	-3.6354	-3.1583	-3.2458	-3.4708	-3.1792	-3.3667	-3.2229	-3.2458	-3.6437	-3.1792	-3.2896	-3.5104	-3.1854	116.716	132.797	236.319	297.891	190.047	36.833	222.811	166.841	298.360	143.677	173.599	298.985	254.429	300.043	83.873	209.863	0.00015101	0.00021215	7.6776e-05	954.44	3.5195e-06	6.2938e-06	700.14	255.52	6.2407e-06	6.6823e-06	247.39	98.434	88.127	36.451	5.0254e-06	47.025	0.002151	0.0024734	0.00069408	959	2.6458e-05	2.7407e-05	705.92	258.46	2.6627e-05	2.755e-05	257.64	101.34	91.868	37.554	2.746e-05	48.577	96.142	10.342	77.590	-46.258	166.063	131.580	-47.378	-41.094	130.252	294.554	-43.306	-39.239	-37.030	-32.414	91.443	-35.137	-8191	255	
1961.994	1	1	0	0	0.097355	0.05787	0.12562	0.085562	0.21257	0.042221	0.15275	0.2695	0.1715	0.064792	0.055823	0.13875	0.19991	0.084833	0.19291	0.16122	-3.0125	-3.3708	-3.1937	-3.4542	-3.025	-3.4458	-3.4708	-3.2417	-3.5042	-3.3875	-3.2958	-3.7687	-3.3146	-3.4458	-3.4708	-3.4208	-26.643	19.647	-17.066	226.871	68.344	67.972	143.500	225.078	23.437	202.130	-7.543	258.081	289.118	245.115	-57.619	185.314	0.00025686	0.00047166	4.8477e-05	957.34	8.3349e-06	7.8698e-07	704.23	256.69	6.2534e-06	7.2665e-06	249.68	98.155	88.692	36.497	5.7365e-06	47.39	0.0022149	0.002519	0.0007127	965.42	2.7185e-05	2.789e-05	712.96	260.34	2.7413e-05	2.8295e-05	260.48	101.88	92.557	37.653	2.7518e-05	48.909	143.340	63.992	16.335	-46.037	38.186	4.153	-47.243	-41.202	3.460	50.700	-43.280	-39.415	-37.061	-31.978	84.488	-35.429	-8191	255	
1962.091	1	1	0	0	0.13766	0.17346	0.16314	0.28418	0.23466	0.086479	0.023211	0.21175	0.29589	0.063713	0.20133	0.21496	0.073475	0.12772	0.092199	0.26508	-2.9021	-3.4292	-2.9729	-3.5333	-3.1896	-3.3479	-3.6542	-3.2896	-3.4125	-3.2875	-3.325	-3.4667	-3.3583	-3.3854	-3.6125	-3.1792	236.337	70.458	-44.632	279.367	205.485	4.756	50.930	270.842	51.860	123.068	25.859	199.613	6.950	242.668	8.537	189.803	0.00022659	0.0001233	0.00014071	960.92	8.3521e-07	2.5299e-06	693.6	256.76	1.3985e-06	3.8067e-06	244.01	96.622	87.9	36.21	3.2796e-06	46.332	0.0022104	0.0025326	0.00071102	965.1	2.7507e-05	2.8451e-05	704.16	258.97	2.7508e-05	2.8575e-05	255.63	100.28	91.545	37.226	2.7762e-05	47.827	105.643	212.416	76.389	-46.102	163.562	67.928	-47.463	-41.068	146.771	31.646	-42.928	-39.321	-36.449	-32.339	242.127	-35.111	-8191	255	
1962.211	1	1	0	0	0.17092	0.11883	0.33367	0.37277	0.27565	0.075651	0.075262	0.15289	0.18508	0.053129	0.20663	0.24023	0.21913	0.13816	0.15111	0.17348	-2.7958	-3.4542	-3.0208	-3.5792	-3.5229	-3.2104	-3.5125	-3.2583	-3.5021	-3.5646	-3.3312	-3.5875	-3.4792	-3.3417	-3.6417	-3.3833	174.321	33.905	124.078	288.059	51.954	-41.198	206.303	222.939	-20.768	109.931	-40.418	217.312	230.153	194.860	260.057	171.558	0.00018559	0.00032132	3.5531e-05	958.6	8.0243e-07	4.7585e-06	694.6	256.2	1.2074e-06	9.3741e-06	248.06	97.017	87.532	36.171	4.329e-06	46.846	0.0022491	0.0025599	0.00072479	962.58	2.7871e-05	2.8339e-05	704.34	258.82	2.751e-05	2.8491e-05	257.46	100.58	91.888	37.371	2.8243e-05	48.44	153.034	99.205	108.880	-46.003	265.482	102.358	-47.228	-41.232	234.179	95.151	-43.445	-39.267	-36.743	-31.954	-17.976	-35.159	-8191	255	
1962.307	1	1	0	0	0.16023	0.17923	0.25287	0.11684	0.19947	0.10536	0.20441	0.083914	0.026326	0.30842	0.056606	0.20489	0.091446	0.28649	0.05811	0.26616	-2.9292	-3.525	-3.1396	-3.5771	-3.4813	-3.2583	-3.4125	-3.2979	-3.2271	-3.5125	-3.3167	-3.5396	-3.4	-3.1917	-3.4688	-3.3333	110.213	173.790	206.848	160.810	51.952	216.182	283.554	119.784	82.440	178.790	214.861	291.858	88.839	-17.583	132.401	252.526	0.00021914	0.00028162	0.00013859	960.55	6.7835e-06	7.2184e-06	698.39	255.61	6.722e-06	7.1266e-06	252.33	99.01	88.142	36.783	1.5536e-06	48.069	0.0022752	0.0026038	0.00073264	967.51	2.8188e-05	2.9133e-05	710.45	259.66	2.8038e-05	2.8678e-05	262	102.48	92.367	37.893	2.7922e-05	49.592	119.839	60.245	23.939	-46.116	24.980	217.924	-47.650	-40.838	-52.015	150.522	-43.279	-39.461	-36.902	-32.231	249.759	-35.449	-8191	255	
1962.404	1	1	0	0	0.16804	0.14664	0.28019	0.11743	0.17872	0.15173	0.14062	0.12035	0.20451	0.14793	0.026277	0.16846	0.15602	0.25194	0.064556	0.11253	-2.8208	-3.4313	-3.2062	-3.4188	-3.3	-3.2146	-3.5583	-3.3812	-3.2313	-3.5646	-3.1833	-3.5146	-3.5333	-3.3292	-3.6167	-3.3771	94.588	278.592	284.803	138.747	-28.041	12.002	253.498	292.950	-50.772	87.466	-18.921	-24.185	-28.628	-31.084	264.124	154.360	0.00020215	0.00022461	0.00013812	952.48	4.9682e-06	6.5773e-06	702.75	256.32	4.0788e-06	5.3275e-06	248.11	98.897	87.762	36.465	2.9145e-06	47.501	0.0022791	0.0026086	0.00073667	962.73	2.8553e-05	2.924e-05	712.42	259.59	2.8189e-05	2.9151e-05	259.13	102.4	91.803	37.67	2.8813e-05	48.96	111.730	204.245	41.972	-46.314	88.627	98.592	-47.404	-41.302	55.674	94.939	-43.343	-39.378	-36.887	-32.151	116.842	-35.346	-8191	255	
1962.500	1	1	0	0	0.15791	0.1364	0.048286	0.10427	0.33392	0.16269	0.2348	0.25367	0.20394	0.21841	0.3916	0.15495	0.19172	0.091742	0.12667	0.044341	-2.7958	-3.6708	-3.1729	-3.5375	-3.45	-3.2	-3.4292	-3.4333	-3.3063	-3.6021	-3.3896	-3.3312	-3.4875	-3.2792	-3.4542	-3.4562	-52.993	-32.141	2.992	176.312	187.350	238.053	204.373	248.904	194.044	-19.268	191.777	299.072	246.128	-33.941	196.892	237.703	0.00014068	0.00020389	0.00018118	943.18	4.1456e-06	9.0927e-06	688.09	254.61	1.0647e-05	1.1599e-05	244.72	97.347	87.179	36.218	9.8969e-06	46.799	0.0022967	0.0026413	0.00074241	949.39	2.8092e-05	2.8823e-05	701.79	257.31	2.8088e-05	2.9465e-05	256.76	100.94	91.444	37.477	2.8905e-05	48.714	118.661	-58.521	0.385	-46.139	228.270	112.461	-47.277	-41.077	67.041	112.696	-43.422	-39.439	-36.865	-32.232	54.962	-35.290	-8191	255	
1962.594	1	1	0	0	0.08379	0.12274	0.0399	0.13638	0.23374	0.19918	0.31293	0.14316	0.37535	0.2725	0.22898	0.26392	0.2008	0.16176	0.18662	0.24421	-2.8271	-3.6167	-3.2208	-3.3	-3.6292	-3.1562	-3.6479	-3.6604	-3.3354	-3.4146	-3.1813	-3.325	-3.4917	-3.0875	-3.2979	-3.5083	288.749	-4.005	205.797	260.353	90.328	88.411	223.572	183.494	-7.127	-39.175	231.213	232.516	115.766	193.474	156.898	296.657	0.00028153	0.00056252	0.00021523	950.06	5.7844e-06	7.2368e-06	696.4	254.67	4.0691e-06	1.1571e-05	249.38	98.349	88.137	36.306	8.0287e-06	47.431	0.0023136	0.0026639	0.00074934	957.37	2.8519e-05	2.9247e-05	706.33	258.55	2.8602e-05	2.9698e-05	259.32	101.79	92.015	37.52	2.9275e-05	48.989	140.240	33.976	24.738	-46.089	103.364	166.589	-47.188	-41.146	88.992	59.314	-43.426	-39.057	-36.664	-32.102	153.012	-35.189	-8191	255	
1962.692	1	1	0	0	0.33525	0.03664	0.019846	0.43352	0.065212	0.18317	0.18507	0.059231	0.25904	0.20505	0.05829	0.13908	0.071725	0.38973	0.089383	0.12099	-2.7771	-3.4708	-3.1979	-3.3187	-3.4708	-3.0146	-3.4854	-3.4313	-3.1333	-3.3438	-3.2833	-3.3917	-3.5563	-3.2583	-3.25	-3.4271	269.470	-57.277	134.371	146.112	-34.898	269.842	-40.355	198.796	105.014	97.879	218.520	298.937	-7.897	265.209	15.336	146.326	0.00010727	0.00041857	0.00020015	952.7	3.2308e-06	7.6316e-06	701.65	255.71	4.9875e-06	3.2611e-06	248.87	98.891	87.328	36.45	1.1328e-05	47.17	0.0023495	0.0027074	0.00076357	963.11	2.891e-05	2.9817e-05	712.87	259.01	2.8856e-05	2.9939e-05	260.22	102.22	91.891	37.546	2.862e-05	48.728	140.095	105.019	77.313	-46.244	64.662	-24.987	-47.472	-41.260	81.156	44.863	-43.236	-39.067	-36.869	-32.145	113.447	-35.336	-8191	255	
1962.811	1	1	0	0	0.080049	0.17501	0.13337	0.22001	0.14079	0.081647	0.10361	0.049553	0.16746	0.12415	0.20498	0.25729	0.096752	0.15868	0.1948	0.083879	-2.7438	-3.4792	-3.3458	-3.0646	-3.3333	-3.0917	-3.2854	-3.575	-3.1354	-3.3604	-3.3854	-3.1583	-3.5333	-3.4104	-3.3271	-3.5729	252.935	-52.770	298.569	270.714	209.558	18.268	-35.532	13.819	258.217	185.325	256.612	9.857	131.548	232.908	131.779	45.933	0.00016749	0.00072728	0.00020264	942.68	5.08e-06	1.9028e-06	687.99	253	4.5249e-06	1.5115e-06	244.46	97.308	86.681	36.19	6.2325e-06	46.864	0.002317	0.0026595	0.00075034	953.35	2.8992e-05	2.9853e-05	699.13	256.87	2.8718e-05	2.9617e-05	255.88	100.39	90.932	37.231	2.8698e-05	48.34	97.972	-6.695	57.550	-46.091	114.726	87.878	-47.458	-41.179	164.058	1.260	-43.204	-39.256	-36.819	-32.504	23.060	-35.448	-8191	255	
1962.907	1	1	0	0	0.027522	0.1951	0.2257	0.057299	0.12578	0.11988	0.28297	0.12624	0.28696	0.14121	0.073557	0.071439	0.30778	0.1451	0.050719	0.15404	-2.7188	-3.4208	-3.4083	-3.1792	-3.425	-3.325	-3.3521	-3.5125	-3.1083	-3.4104	-3.4271	-3.325	-3.5208	-3.4729	-3.2313	-3.5625	153.800	32.826	-20.485	24.727	267.646	32.021	244.100	-44.934	45.382	227.654	256.922	-27.286	290.966	262.421	129.653	8.747	0.0002742	0.00081339	0.00010692	939.78	9.7081e-06	1.0461e-05	690.2	252.42	2.3443e-06	6.0773e-06	248.01	97.873	87.177	36.187	4.8248e-06	47.681	0.0022783	0.0026053	0.00073138	944.9	2.8022e-05	2.8944e-05	700.09	255.99	2.8236e-05	2.9001e-05	258.03	101.49	91.192	37.466	2.8408e-05	49.123	145.280	44.927	48.554	-46.384	76.079	-19.166	-47.406	-41.046	83.278	14.171	-43.397	-39.534	-36.834	-31.988	117.487	-35.249	-8191	255	
1963.003	1	1	0	0	0.062759	0.049841	0.1546	0.35578	0.13568	0.074559	0.17812	0.1827	0.13016	0.11709	0.12807	0.32109	0.2683	0.044014	0.087302	0.22535	-2.7479	-3.1833	-3.3396	-3.1479	-3.2104	-3.325	-3.2562	-3.5563	-3.1396	-3.2521	-3.65	-3.2896	-3.2458	-3.2167	-3.1646	-3.5917	244.797	49.642	-4.000	260.536	239.307	-15.567	1.939	28.805	192.057	168.091	215.451	261.032	282.027	230.937	281.960	162.081	0.00022218	0.00052921	0.00019106	942.82	1.5747e-06	9.8335e-06	691.87	253.93	3.0059e-06	5.6062e-06	249.33	99.125	88.105	36.678	6.4048e-06	47.927	0.0022931	0.0026396	0.00074117	948.94	2.8611e-05	2.9627e-05	704.85	257.82	2.8564e-05	2.9799e-05	260.99	102.77	92.078	37.743	2.9316e-05	49.48	118.875	93.038	136.614	-46.478	271.597	80.426	-47.487	-41.125	178.812	160.276	-43.148	-39.288	-37.002	-32.127	68.047	-35.315	-8191	255	
1963.099	1	1	0	0	0.10888	0.29846	0.17553	0.20108	0.21954	0.20482	0.099121	0.32433	0.13593	0.14777	0.19179	0.047303	0.13077	0.45478	0.15703	0.22286	-2.6708	-3.1354	-3.55	-3.1104	-3.4771	-3.4708	-3.2125	-3.4542	-3.1021	-3.2146	-3.5167	-3.1625	-3.3979	-3.5042	-3.1667	-3.4688	48.822	-37.034	242.805	-55.787	237.300	-42.315	216.310	237.377	-7.091	-50.519	284.012	135.354	205.109	247.347	22.030	-51.987	0.00033652	0.00063319	0.00011119	944.02	6.3178e-06	7.7774e-06	688.51	253.01	3.5268e-06	5.4033e-06	246.91	97.629	87.341	36.185	3.8895e-06	46.882	0.0023556	0.0027201	0.00075839	953.17	2.9162e-05	3.0094e-05	701.6	257.42	2.9202e-05	2.9821e-05	257.55	101.33	91.388	37.338	2.9478e-05	48.468	162.559	43.513	50.299	-46.396	261.229	118.429	-47.386	-41.299	64.502	92.226	-43.294	-39.044	-37.124	-32.046	166.135	-35.377	-8191	255	
1963.220	1	1	0	0	0.14768	0.028196	0.18396	0.083476	0.27571	0.18652	0.18116	0.34851	0.21349	0.10639	0.018486	0.094583	0.25664	0.24177	0.13149	0.18408	-2.8979	-3.1292	-3.3458	-3.2271	-3.4104	-3.3583	-3.2583	-3.5896	-3.2042	-3.2	-3.5396	-3.25	-3.5208	-3.5292	-3.0333	-3.4396	83.765	263.864	161.515	62.573	-40.140	-6.295	278.247	289.067	100.820	169.400	294.896	67.553	277.083	215.716	80.488	203.903	0.00015209	0.0009708	0.00016144	943.06	5.0751e-06	1.0534e-05	684.85	252.99	3.4741e-06	1.2057e-05	245.42	97.811	86.779	36.232	1.0307e-05	47.385	0.0023626	0.0026924	0.00075241	949.27	2.915e-05	2.9963e-05	696.32	256.59	2.8831e-05	2.987e-05	256.96	101.09	91.072	37.423	2.8894e-05	48.869	132.868	96.102	20.066	-46.432	10.793	101.219	-47.723	-40.972	282.425	116.415	-43.107	-39.433	-36.807	-32.048	45.893	-35.149	-8191	255	
1963.292	1	1	0	0	0.054648	0.018064	0.2359	0.043303	0.13871	0.30273	0.22912	0.35017	0.045156	0.22392	0.1471	0.055737	0.23589	0.25798	0.046805	0.043112	-2.7729	-3.2438	-3.4688	-3.2562	-3.1708	-3.3271	-3.3104	-3.4604	-3.3812	-3.125	-3.5104	-3.4188	-3.1	-3.5854	-3.3688	-3.5479	-0.875	-43.772	222.110	15.023	109.954	76.699	-27.083	244.422	48.242	266.177	261.843	211.126	292.595	267.479	133.651	-4.132	0.00016256	0.00061827	0.00010346	937.78	6.1108e-06	5.0048e-06	693.78	253.71	1.9904e-06	1.3566e-06	247.54	98.386	87.112	36.407	4.9445e-06	47.941	0.002311	0.002647	0.00074354	947.03	2.855e-05	2.9185e-05	702.23	256.89	2.862e-05	2.9475e-05	259.23	102.08	91.31	37.53	2.8589e-05	49.522	94.367	59.262	72.181	-46.279	30.117	19.487	-47.579	-40.981	178.510	99.384	-42.913	-39.658	-36.906	-32.033	59.146	-35.031	-8191	255	
1963.388	1	1	0	0	0.11784	0.10507	0.13384	0.17913	0.22474	0.0933	0.19082	0.34623	0.18296	0.17527	0.1609	0.31774	0.29984	0.094671	0.27982	0.12383	-3.0604	-2.975	-3.5062	-3.4896	-3.2438	-3.7229	-3.3958	-3.2687	-3.4062	-3.1583	-3.6333	-3.3812	-3.4125	-3.6354	-3.3063	-3.3021	3.457	22.353	139.163	-57.765	84.597	224.955	-48.275	278.906	240.882	89.425	217.245	275.959	297.832	237.260	-37.119	29.173	0.00022816	0.00056018	0.00015567	936.34	1.0299e-06	5.8943e-06	697.35	253	1.0316e-05	2.6932e-06	249.54	99.095	86.636	36.537	8.523e-06	47.671	0.0022802	0.0026232	0.00072686	942.67	2.8021e-05	2.8521e-05	706.62	256.53	2.7598e-05	2.8644e-05	260.31	102.38	91.075	37.566	2.8002e-05	49.277	148.239	107.378	242.474	-45.983	116.494	73.425	-47.635	-41.295	-26.627	126.587	-43.112	-39.477	-36.788	-32.288	29.518	-35.414	-8191	255	
1963.508	1	1	0	0	0.20705	0.10615	0.076545	0.035052	0.31796	0.11333	0.26029	0.18237	0.20752	0.26203	0.19322	0.13854	0.21929	0.19018	0.15012	0.45828	-3.025	-3.0312	-3.4062	-3.3917	-3.0583	-3.5104	-3.4813	-3.2896	-3.4396	-3.1146	-3.4792	-3.3833	-3.2438	-3.6917	-3.3271	-3.3479	69.724	125.719	296.496	-17.846	61.355	244.036	184.668	156.980	95.542	243.123	244.977	280.705	-3.814	-43.406	187.673	273.275	0.00010115	0.00018732	0.00013878	919.07	9.8805e-06	4.3217e-06	680.17	250.41	4.536e-06	7.6347e-06	246.03	97.998	86.564	36.34	9.1182e-06	47.798	0.0022821	0.0025789	0.00072403	929.12	2.7463e-05	2.8495e-05	691.28	253.14	2.7161e-05	2.8383e-05	256.71	101.55	90.513	37.418	2.7883e-05	49.313	189.461	264.418	-43.307	-46.275	31.130	-27.859	-47.340	-41.201	26.590	148.515	-43.487	-39.471	-36.993	-32.004	27.340	-35.410	-8191	255	
1963.603	1	1	0	0	0.25078	0.14884	0.10447	0.37094	0.080504	0.13446	0.19596	0.16294	0.16712	0.17241	0.27881	0.14415	0.2733	0.26429	0.12712	0.30306	-3.0604	-3.1521	-3.3521	-3.5958	-3.2083	-3.2958	-3.175	-3.3292	-3.5458	-3.1958	-3.3375	-3.5792	-3.1583	-3.5604	-3.2667	-3.3646	131.945	39.026	154.794	278.423	-0.340	-15.380	284.990	232.821	110.257	229.193	209.526	162.201	289.007	296.891	240.207	-34.321	0.00022743	0.00055874	4.2751e-05	923.5	3.0062e-06	7.3266e-06	685	251.68	3.0661e-06	4.6757e-06	249.54	98.921	87.038	36.611	2.1406e-06	48.172	0.0022327	0.0025593	0.00072036	931.22	2.7329e-05	2.8497e-05	695.63	255.07	2.7283e-05	2.8007e-05	259.56	102.49	90.948	37.628	2.7473e-05	49.636	104.317	5.891	202.526	-46.193	-5.211	161.907	-47.411	-40.987	152.192	6.006	-43.172	-39.417	-37.098	-32.416	-9.927	-35.524	-8191	255	
1963.699	1	1	0	0	0.27232	0.18707	0.25943	0.243	0.21093	0.20816	0.26611	0.1942	0.10612	0.24761	0.17189	0.15194	0.14943	0.23098	0.11788	0.089386	-3.2083	-3.3208	-3.3917	-3.4625	-3.1688	-3.5708	-3.4646	-3.3563	-3.5229	-3.2771	-3.4167	-3.3833	-3.1646	-3.5396	-3.275	-3.2667	-22.617	247.494	190.873	200.233	300.009	153.659	193.480	279.852	-40.086	103.523	221.709	292.316	-14.550	198.199	102.292	100.501	0.00026239	0.00088459	8.0889e-05	929.78	2.1817e-06	1.1402e-05	691.97	254.87	2.0551e-06	6.6501e-06	249.37	99.795	87.105	36.39	5.7038e-06	48.392	0.0022042	0.0025516	0.00071225	936.86	2.7511e-05	2.8198e-05	702.5	256.42	2.7193e-05	2.8459e-05	260.45	102.89	91.05	37.605	2.7273e-05	49.763	138.390	51.259	73.651	-46.252	-21.648	192.080	-47.182	-40.861	-16.978	179.011	-43.531	-39.181	-37.000	-32.300	227.041	-35.248	-8191	255	
1963.795	1	1	0	0	0.10967	0.046822	0.076508	0.12055	0.12186	0.12873	0.067832	0.111	0.19097	0.08255	0.13822	0.28807	0.24894	0.36158	0.17842	0.173	-3.0417	-3.1271	-3.3	-3.5604	-2.9542	-3.4083	-3.5333	-3.0667	-3.5438	-3.1917	-3.2854	-3.5563	-3.15	-3.4771	-3.2562	-3.1979	41.503	262.346	159.167	254.059	-12.525	79.778	-24.465	242.900	141.611	146.999	201.018	289.137	263.252	274.159	87.922	230.917	9.1572e-05	0.00019392	0.00014129	925.21	4.6533e-06	9.1071e-06	677.71	250.04	5.8274e-06	3.2382e-06	244.97	96.845	85.947	35.874	4.4747e-06	47.444	0.0021999	0.0024979	0.00070656	928.64	2.6923e-05	2.7662e-05	687.88	252.81	2.6811e-05	2.7897e-05	254.36	100.46	89.608	36.981	2.7027e-05	48.694	58.759	84.953	-21.283	-46.351	97.768	87.900	-47.853	-41.104	278.221	112.270	-43.303	-39.043	-37.070	-32.126	110.506	-35.331	-8191	255	
1963.891	1	1	0	0	0.11655	0.12882	0.22363	0.18763	0.055014	0.083106	0.34907	0.10922	0.27168	0.34259	0.19985	0.14509	0.1526	0.1483	0.064848	0.18361	-3.0687	-3.1375	-3.1854	-3.6	-3.2687	-3.4104	-3.4396	-3.3167	-3.2708	-3.2333	-3.1708	-3.5375	-3.2646	-3.425	-3.4562	-3.1604	50.165	33.710	70.013	-40.993	219.068	220.389	255.461	-19.262	273.559	212.253	281.842	146.061	-25.521	261.975	288.559	276.693	0.00022208	0.00027874	0.00019673	912.66	5.8393e-06	7.4092e-06	677	247.37	7.8674e-06	1.0286e-05	244.92	97.124	85.778	36.218	2.5615e-06	47.876	0.0021661	0.0024606	0.00069236	917.9	2.6192e-05	2.7363e-05	686.12	250.56	2.6187e-05	2.6999e-05	254.58	100.83	89.379	37.058	2.6425e-05	49.246	134.690	199.488	-4.005	-46.147	92.290	59.836	-47.500	-41.175	142.741	149.220	-43.477	-39.598	-36.910	-32.369	139.671	-35.739	-8191	255	
1963.987	1	1	0	0	0.068127	0.20285	0.040615	0.25181	0.067878	0.05153	0.24714	0.13442	0.17618	0.20376	0.032634	0.12966	0.029325	0.19561	0.024609	0.084127	-3.0187	-3.1833	-3.175	-3.5854	-3.2313	-3.3292	-3.4562	-3.2375	-3.3396	-3.1562	-3.3042	-3.7062	-3.2792	-3.4229	-3.525	-3.1979	168.156	-47.516	221.055	273.518	184.949	-13.276	189.196	16.297	300.119	176.462	282.566	137.636	294.503	48.882	-26.298	241.811	0.00017569	0.00029997	9.8472e-05	912.58	3.133e-06	1.1797e-05	677.89	248.2	2.7824e-06	4.5141e-06	247.1	99.285	86.376	36.253	4.7025e-06	48.621	0.0021366	0.0023826	0.00067087	915.03	2.5621e-05	2.6302e-05	684.92	250.06	2.5444e-05	2.6193e-05	256.49	102.15	89.603	37.214	2.53e-05	49.858	86.121	231.713	-2.058	-46.335	109.774	140.052	-47.426	-41.180	83.040	131.373	-43.214	-39.282	-36.971	-32.148	1.964	-35.597	-8191	255	
1964.084	1	1	0	0	0.28747	0.081234	0.10065	0.34417	0.033566	0.085252	0.10458	0.17669	0.25905	0.11669	0.14876	0.25001	0.04952	0.1573	0.1416	0.090543	-2.9917	-3.4146	-3.3292	-3.5708	-3.2938	-3.25	-3.5896	-3.125	-3.4188	-3.3896	-3.1312	-3.5938	-3.25	-3.3354	-3.4583	-3.0271	205.764	253.618	-56.962	204.803	159.759	19.914	295.227	241.205	60.584	-10.838	56.782	-24.261	116.382	-41.001	30.706	220.688	0.00024296	0.00091564	0.00015048	904.02	5.4526e-06	7.5113e-06	678.04	245.47	6.3435e-06	4.2054e-06	244.43	98.007	85.9	35.864	4.7649e-06	47.469	0.0020474	0.0023529	0.00066842	910.67	2.5647e-05	2.6139e-05	683.2	248.46	2.5409e-05	2.64e-05	253.94	100.77	88.895	36.802	2.5326e-05	48.845	105.681	91.907	31.434	-46.397	62.670	147.342	-47.668	-41.345	47.586	-2.893	-43.149	-39.329	-37.012	-32.174	31.886	-35.316	-8191	255	
1964.180	1	1	0	0	0.05599	0.1325	0.1668	0.2106	0.072578	0.12255	0.37694	0.28203	0.14363	0.13786	0.15539	0.16602	0.29977	0.10579	0.10306	0.26282	-2.9271	-3.4062	-3.0604	-3.6562	-3.175	-3.0458	-3.5417	-3.3833	-3.3688	-3.3979	-3.2042	-3.5229	-3.4188	-3.1958	-3.6063	-3.2625	35.402	145.986	257.844	-53.475	293.553	240.913	273.196	237.736	123.842	-28.200	282.049	-14.946	298.404	105.151	219.524	178.935	0.00022368	0.00058351	0.00012141	897.13	3.7544e-06	7.3601e-06	664.29	243.61	3.5771e-06	2.6267e-06	241.76	97.559	84.891	35.813	5.6677e-06	47.666	0.0020325	0.0023442	0.00065768	900.31	2.4949e-05	2.5992e-05	672.53	246.14	2.5362e-05	2.6061e-05	251.17	100.38	88.11	36.755	2.5185e-05	49.065	116.661	58.676	40.901	-46.311	58.825	0.557	-47.317	-41.016	172.513	20.173	-43.494	-39.619	-36.896	-32.345	77.011	-35.808	-8191	255	
1964.300	1	1	0	0	0.12443	0.20602	0.059053	0.073613	0.20349	0.12554	0.17829	0.043196	0.05313	0.12304	0.26503	0.16421	0.13921	0.10825	0.019757	0.11256	-2.9104	-3.4417	-3.2604	-3.5354	-3.2604	-3.1792	-3.6646	-3.25	-3.1771	-3.4104	-3.2646	-3.4333	-3.3583	-3.0542	-3.4792	-3.3146	26.224	-35.048	263.586	276.356	248.574	81.255	63.284	186.319	269.876	-1.966	145.970	180.422	243.447	239.890	149.345	273.766	0.00018622	0.00076153	9.8677e-05	891.07	6.1647e-06	5.5978e-06	668.89	244.3	5.9192e-06	7.2062e-06	244.91	97.794	84.925	35.996	5.4984e-06	48.143	0.0020102	0.002276	0.00064461	896.8	2.4923e-05	2.5626e-05	676	246.6	2.4743e-05	2.5477e-05	253.82	100.97	88.468	36.964	2.5122e-05	49.468	144.106	68.678	36.358	-46.436	113.060	-3.566	-47.467	-41.139	98.811	204.180	-43.208	-39.503	-36.895	-32.656	69.209	-35.651	-8191	255	
1964.395	1	1	0	0	0.25088	0.054349	0.18299	0.018135	0.04544	0.055324	0.087033	0.17028	0.024625	0.12085	0.20085	0.05704	0.17724	0.3078	0.10639	0.14245	-2.7354	-3.4521	-3.15	-3.4333	-3.2188	-3.1917	-3.65	-3.2354	-3.3063	-3.6521	-3.2021	-3.4583	-3.3229	-3.1437	-3.5479	-3.1208	-16.885	79.675	53.582	-18.779	4.875	292.980	134.291	138.924	205.089	242.344	-25.947	26.668	-39.458	286.140	299.516	223.323	0.00018454	0.00032877	0.00011862	894.23	7.3003e-06	2.4319e-06	675.51	245.18	2.0714e-06	5.112e-06	248.58	98.878	85.97	36.261	2.059e-06	47.97	0.0020314	0.0023222	0.00065935	900.44	2.5185e-05	2.6206e-05	681.67	248.15	2.491e-05	2.5857e-05	256.67	101.75	88.922	37.264	2.5067e-05	49.324	151.125	35.425	43.780	-46.166	129.213	140.177	-47.526	-41.092	266.231	144.931	-43.161	-39.286	-37.149	-32.561	287.837	-35.255	-8191	255	
1964.493	1	1	0	0	0.13546	0.052763	0.070643	0.25939	0.16974	0.11678	0.084373	0.073679	0.14199	0.14661	0.14993	0.018335	0.049682	0.13684	0.14347	0.26746	-2.7958	-3.5396	-3.0542	-3.3875	-3.5292	-3.2417	-3.5292	-3.3875	-3.0771	-3.5583	-3.15	-3.2188	-3.4417	-3.1583	-3.7021	-3.45	273.061	37.271	-48.960	-38.903	-54.202	233.415	-5.327	212.082	130.583	201.766	300.118	268.746	298.654	290.292	25.985	236.903	0.00017131	0.00082887	2.2111e-05	903.08	3.0608e-06	4.4592e-06	667.59	245.4	3.642e-06	5.934e-06	243.18	97.134	85.489	35.967	5.7606e-06	47.651	0.0020307	0.0023188	0.00066241	906.97	2.5475e-05	2.6422e-05	675.04	247.89	2.5212e-05	2.6168e-05	251.95	99.981	88.725	36.883	2.5377e-05	48.828	102.056	76.393	222.966	-46.278	285.691	97.780	-47.507	-41.264	154.964	101.734	-43.517	-39.497	-37.204	-32.335	47.713	-35.580	-8191	255	
1964.589	1	1	0	0	0.20845	0.19751	0.076619	0.20259	0.13237	0.17573	0.35392	0.16481	0.17098	0.071015	0.14924	0.26633	0.20042	0.15337	0.071844	0.11166	-2.8771	-3.575	-3.0604	-3.4167	-3.6354	-3.1375	-3.5563	-3.3854	-3.1542	-3.5625	-3.4146	-3.25	-3.5563	-3.1292	-3.3646	-3.5646	261.093	276.840	281.719	286.935	131.560	-32.183	-47.861	284.487	27.972	154.384	130.964	256.622	196.103	254.853	86.607	245.306	0.00027295	9.257e-05	7.0645e-05	905.35	7.1671e-06	9.0264e-07	671.49	247.5	1.8402e-06	3.2938e-06	244.39	96.886	85.679	36.22	6.4553e-06	47.797	0.002022	0.0023118	0.00065747	909.41	2.5264e-05	2.6044e-05	681.26	248.93	2.5241e-05	2.6267e-05	252.98	100.42	89.152	37.164	2.527e-05	48.93	104.514	268.810	-40.250	-46.246	102.873	223.689	-47.185	-41.226	252.053	112.758	-43.364	-39.472	-37.301	-32.342	106.528	-35.473	-8191	255	
1964.683	1	1	0	0	0.16454	0.083802	0.076539	0.19841	0.020731	0.13326	0.13413	0.36515	0.025807	0.14361	0.2047	0.011015	0.17776	0.20076	0.16879	0.25316	-2.7958	-3.4708	-3.2271	-3.4021	-3.5917	-3.15	-3.5563	-3.525	-3.0917	-3.6458	-3.4229	-3.1583	-3.4542	-3.4479	-3.3125	-3.3729	-28.315	-30.900	71.898	224.430	46.612	209.036	234.638	285.834	-9.871	159.219	-42.707	293.347	46.806	200.513	107.170	122.882	0.00026173	0.00016449	2.7022e-05	914.09	4.8418e-06	1.0471e-05	681.72	248.57	3.9323e-06	2.0845e-06	244.95	97.797	86.382	36.077	4.1933e-06	47.91	0.0020364	0.0022828	0.00064138	915.99	2.449e-05	2.5429e-05	688.88	250.17	2.4584e-05	2.5795e-05	253.8	100.75	89.422	37.147	2.4977e-05	49.048	155.429	61.400	0.358	-46.122	79.381	61.356	-47.242	-40.881	147.646	106.978	-43.649	-39.532	-36.845	-32.309	84.914	-35.170	-8191	255	
1964.779	1	1	0	0	0.053459	0.23093	0.057142	0.094073	0.13027	0.11981	0.24345	0.24119	0.027658	0.14705	0.23592	0.21439	0.11446	0.17047	0.040528	0.18323	-2.7208	-3.3	-3.1437	-3.1854	-3.4833	-3.2438	-3.4562	-3.6104	-3.1854	-3.4437	-3.375	-3.2292	-3.4688	-3.1729	-3.3229	-3.5479	-16.837	141.618	199.074	89.390	233.266	112.579	221.058	292.816	227.878	-39.244	283.417	202.895	285.013	259.890	201.990	299.281	0.00026645	0.00065596	0.00012725	911.05	3.8877e-06	1.9366e-06	671.9	248.46	6.4136e-06	6.6433e-06	243.04	97.329	85.931	35.868	2.3103e-06	47.001	0.0019946	0.0022666	0.00063824	914.77	2.4092e-05	2.4899e-05	678.09	249.52	2.402e-05	2.5154e-05	250.4	99.666	88.974	36.865	2.4537e-05	48.277	111.972	285.173	-19.014	-46.143	123.603	128.160	-47.446	-41.112	87.469	138.763	-43.526	-39.236	-37.025	-32.476	-43.171	-35.557	-8191	255	
1964.900	1	1	0	0	0.14725	0.19724	0.041516	0.13037	0.35937	0.18737	0.32465	0.24416	0.11751	0.26307	0.15467	0.10387	0.22708	0.19969	0.15859	0.08397	-2.6771	-3.5583	-3.3	-3.2938	-3.35	-3.3458	-3.3583	-3.6292	-3.1562	-3.4542	-3.4188	-3.0479	-3.4917	-3.2375	-3.2438	-3.6292	95.648	109.194	289.333	-46.676	290.625	140.697	191.729	272.316	-43.647	4.482	-16.678	282.370	238.076	-14.438	141.551	197.156	0.00012299	0.0003542	0.00016984	910.98	1.4438e-06	4.4195e-06	671.23	246.53	5.8387e-06	7.9806e-06	243.34	97.504	85.924	36.254	7.2866e-06	47.868	0.0019837	0.0022581	0.00064778	912.84	2.4577e-05	2.548e-05	679.23	248.83	2.4501e-05	2.5734e-05	252.06	100.4	89.355	37.2	2.516e-05	49.094	124.842	4.631	12.502	-46.326	31.815	9.874	-47.457	-41.231	117.645	85.937	-43.266	-39.119	-36.883	-32.140	94.462	-35.677	-8191	255	
1964.996	1	1	0	0	0.21394	0.05042	0.28546	0.15677	0.19677	0.22659	0.080636	0.025538	0.048955	0.16366	0.10796	0.10488	0.20762	0.20564	0.16845	0.25708	-2.7542	-3.2021	-3.275	-3.2125	-3.6229	-3.3021	-3.3979	-3.7292	-3.1646	-3.3	-3.5021	-3.2521	-3.2417	-3.3042	-3.25	-3.5604	97.317	170.777	85.753	0.537	-27.540	67.013	241.243	243.788	97.848	137.444	197.778	-38.658	260.568	-26.385	142.797	215.227	0.00031009	0.00014753	0.00022952	917.24	3.4031e-06	3.9398e-06	680.55	248.31	6.8888e-06	4.639e-06	245.13	97.951	86.732	36.379	3.3187e-06	48.131	0.0020615	0.0023433	0.00065856	921.28	2.5651e-05	2.6171e-05	688.13	251.13	2.5805e-05	2.6566e-05	254.13	100.83	89.921	37.369	2.5992e-05	49.325	130.720	141.677	-31.002	-46.161	200.427	107.060	-47.201	-41.261	106.751	98.843	-43.456	-39.428	-37.120	-32.095	170.692	-35.486	-8191	255	
1965.092	1	1	0	0	0.18407	0.14123	0.13037	0.25998	0.17323	0.12654	0.19047	0.22231	0.19853	0.22947	0.14244	0.33866	0.24727	0.18252	0.057426	0.18144	-2.8083	-3.3812	-3.4521	-3.2646	-3.4125	-3.4125	-3.4437	-3.5667	-3.3688	-3.2417	-3.4542	-3.3146	-3.6063	-3.4042	-3.0812	-3.4896	253.979	141.356	92.986	82.809	181.281	177.256	212.038	298.957	292.124	187.584	183.574	288.196	286.640	300.684	210.269	211.230	0.00026731	0.0007234	8.7869e-05	925.57	4.8942e-06	6.099e-06	685.95	250.29	2.2316e-06	2.6796e-06	242.28	97.365	86.418	36.188	3.4018e-06	47.102	0.0020793	0.0023668	0.00066865	931.28	2.5639e-05	2.6576e-05	693.61	253.02	2.5686e-05	2.6496e-05	252.24	100.27	90.004	37.147	2.5741e-05	48.487	114.897	17.745	111.887	-46.168	81.594	121.588	-47.309	-41.268	29.118	21.837	-43.239	-39.474	-37.091	-32.271	2.828	-35.502	-8191	255	
1965.164	1	1	0	0	0.16142	0.070777	0.04601	0.24659	0.084405	0.12849	0.21767	0.19473	0.093774	0.10183	0.27168	0.14457	0.27694	0.22661	0.10398	0.11076	-2.9208	-3.0667	-3.3688	-3.2062	-3.3667	-3.4854	-3.1146	-3.5187	-3.2313	-3.2188	-3.4688	-3.2	-3.4792	-3.4854	-3.1354	-3.5646	163.976	27.196	211.713	-28.491	158.690	54.206	231.708	286.297	132.311	229.186	254.145	71.772	277.965	256.752	33.216	214.324	0.0002641	0.0007571	5.6947e-05	924.6	3.8633e-06	1.0584e-05	674.08	247.23	2.8011e-06	6.8698e-06	240.87	95.704	85.785	36.064	5.8441e-06	46.73	0.0020713	0.0023717	0.00066567	925.92	2.5546e-05	2.6259e-05	682.35	250.19	2.5216e-05	2.609e-05	250.2	99.021	89.321	37.062	2.5601e-05	48.289	129.654	49.066	20.747	-46.383	164.363	126.454	-47.489	-41.014	54.353	136.013	-43.604	-39.256	-36.655	-32.417	-14.099	-35.491	-8191	255	
1965.285	1	1	0	0	0.1412	0.1598	0.031785	0.077647	0.085214	0.19648	0.063259	0.13899	0.22219	0.53587	0.30041	0.28681	0.123	0.30118	0.23076	0.059435	-2.9542	-3.2271	-3.4667	-3.2104	-3.1896	-3.3292	-3.2646	-3.5312	-3.3604	-3.075	-3.6937	-3.1979	-3.3688	-3.5708	-3.0771	-3.6312	77.215	65.406	-26.985	-41.188	217.398	253.138	56.762	184.536	136.771	-43.654	-17.218	200.009	203.799	284.442	183.243	164.505	0.00018776	0.0005295	0.00019667	921.77	5.0155e-06	1.412e-05	679.5	249.86	4.6026e-06	8.699e-06	243.57	97.456	86.726	36.367	4.0349e-06	47.725	0.0020511	0.0023671	0.00065833	928.35	2.5413e-05	2.6251e-05	687.25	252.12	2.5054e-05	2.6015e-05	252.81	100.44	89.973	37.329	2.5421e-05	48.927	137.031	-0.912	69.473	-46.614	65.324	79.397	-47.520	-41.093	110.274	139.496	-43.230	-39.160	-37.078	-32.387	246.968	-35.254	-8191	255	
1965.381	1	1	0	0	0.18388	0.15176	0.02936	0.29645	0.12887	0.04087	0.36103	0.075469	0.065702	0.17739	0.20758	0.15845	0.21731	0.28619	0.25707	0.15314	-2.9708	-3.175	-3.4104	-3.3542	-3.3438	-3.5104	-3.3625	-3.5583	-3.3042	-3.0917	-3.6437	-3.3792	-3.3208	-3.5625	-3.1521	-3.5896	122.855	-33.781	140.984	237.588	118.954	-14.608	209.343	75.431	197.833	229.581	281.171	215.099	250.224	296.208	136.718	200.099	0.00022493	0.00046871	4.0836e-05	926.46	5.5858e-06	5.0314e-06	684.59	248.84	5.3974e-06	2.6333e-06	246.88	98.392	86.919	36.48	5.6961e-06	48.084	0.0020538	0.002328	0.00065262	930.47	2.5266e-05	2.6192e-05	693.02	252.62	2.519e-05	2.6121e-05	255.13	101.35	90.232	37.453	2.5319e-05	49.231	106.351	-19.739	136.483	-46.684	92.439	70.089	-47.226	-41.366	30.614	28.821	-43.818	-39.434	-36.964	-32.327	162.211	-35.246	-8191	255	
1965.477	1	1	0	0	0.094439	0.05342	0.12264	0.24005	0.18529	0.24479	0.31901	0.15881	0.086611	0.13451	0.24068	0.045113	0.18504	0.3431	0.097613	0.14957	-2.9458	-3.1104	-3.5125	-3.3979	-3.1771	-3.5292	-3.2271	-3.3729	-3.4375	-3.2375	-3.5563	-3.1937	-3.1354	-3.6521	-3.1583	-3.4896	163.856	89.987	-55.809	271.523	73.560	104.607	162.258	118.025	289.789	5.820	109.625	224.016	276.724	210.256	275.191	180.918	0.00014708	0.0007312	0.00016535	920.98	4.6024e-06	5.6604e-06	675.18	248.19	7.6239e-07	4.6626e-06	241.02	96.958	86.162	36.286	4.0443e-06	47.316	0.0020355	0.0023059	0.00065166	922.62	2.5159e-05	2.601e-05	682.29	251.1	2.4933e-05	2.6052e-05	251.29	99.778	89.542	37.136	2.5565e-05	48.716	97.143	62.558	15.875	-46.295	130.226	81.240	-47.196	-41.416	196.238	112.863	-43.215	-39.247	-37.080	-32.265	190.195	-35.437	-8191	255	
1965.573	1	1	0	0	0.13815	0.075066	0.2687	0.27553	0.22131	0.17497	0.20186	0.18193	0.32493	0.13372	0.12962	0.18504	0.1199	0.28634	0.031175	0.022887	-3.1396	-3.1646	-3.6521	-3.4667	-3.1833	-3.5625	-3.3396	-3.4458	-3.5625	-3.1125	-3.5187	-3.4917	-3.3063	-3.8792	-3.3708	-3.3438	115.974	194.474	33.847	-29.801	64.927	172.027	259.926	237.088	8.561	229.865	240.782	231.370	215.000	-48.994	79.110	7.014	0.00017019	0.0012795	0.00024119	919.23	7.1638e-06	4.4395e-06	678.38	248.9	4.5617e-06	4.949e-06	244.24	98.431	86.911	36.555	2.3938e-06	47.983	0.0020465	0.0023368	0.00065686	919.28	2.5425e-05	2.5966e-05	684.54	251.14	2.4961e-05	2.5839e-05	253.97	100.99	90.186	37.489	2.5319e-05	49.399	146.820	23.362	38.078	-46.269	124.591	-52.294	-47.582	-41.239	186.096	161.789	-42.802	-39.427	-36.508	-32.514	246.234	-35.363	-8191	255	
1965.692	1	1	0	0	0.11014	0.095628	0.17548	0.13972	0.20536	0.18455	0.1414	0.33427	0.2094	0.25174	0.13379	0.12829	0.19403	0.38413	0.25072	0.035648	-3.1354	-3.1104	-3.575	-3.3896	-3.0187	-3.5104	-3.4146	-3.3729	-3.5854	-3.2333	-3.4042	-3.4562	-3.2208	-3.6833	-3.2042	-3.3396	-2.962	171.818	37.117	189.730	25.107	170.662	279.273	-15.497	16.152	196.560	182.244	68.959	-22.356	-34.773	300.689	172.052	8.3325e-05	0.00047113	0.00018121	925.81	3.4803e-06	9.0209e-06	684.27	250.71	4.8541e-06	2.3044e-06	246.98	99.475	87.177	36.739	1.0442e-06	49.029	0.0020457	0.002344	0.0006562	928.8	2.5542e-05	2.6255e-05	692.7	253.26	2.5141e-05	2.6058e-05	256.87	102.46	90.578	37.806	2.5473e-05	50.142	91.048	233.398	11.076	-46.217	-16.014	50.654	-47.495	-41.152	45.952	99.048	-43.440	-39.327	-37.275	-32.177	59.322	-35.334	-8191	255	
1965.764	1	1	0	0	0.097152	0.16209	0.10731	0.32865	0.24668	0.089742	0.071679	0.20582	0.073198	0.26899	0.22557	0.025563	0.15749	0.26087	0.097185	0.1335	-3.0104	-3.1708	-3.3187	-3.45	-3.0563	-3.4458	-3.3708	-3.2938	-3.4875	-3.1146	-3.3667	-3.3271	-2.9938	-3.5563	-3.3583	-3.1083	253.869	175.537	201.045	218.763	285.866	8.080	174.890	299.074	102.183	102.944	-25.066	247.255	25.754	233.595	28.921	149.965	0.00020085	0.00024547	9.0222e-05	928.87	7.7555e-06	7.2268e-06	683.31	249.56	5.7075e-07	5.6347e-06	244.98	98.167	87.047	36.661	6.3694e-06	48.17	0.0020349	0.0023196	0.00065976	932.56	2.5311e-05	2.6129e-05	690.92	252.8	2.5258e-05	2.6339e-05	254.3	101.33	90.123	37.55	2.5581e-05	49.323	124.141	-12.016	246.142	-46.164	123.779	173.492	-47.387	-41.225	175.680	11.533	-43.544	-39.431	-37.032	-32.251	179.788	-35.454	-8191	255	
1965.860	1	1	0	0	0.070311	0.024115	0.26537	0.20857	0.13218	0.22547	0.20807	0.26957	0.053361	0.027674	0.27227	0.074359	0.024927	0.065756	0.11248	0.17562	-3.0792	-3.0625	-3.2062	-3.6917	-3.0604	-3.375	-3.2771	-3.2625	-3.4792	-3.3958	-3.2938	-3.6708	-3.2271	-3.5917	-3.4917	-3.1875	83.256	140.373	109.245	258.289	-8.715	-54.514	271.075	214.255	168.053	99.584	228.354	27.472	103.166	-31.379	276.087	241.469	0.00012662	0.00016983	7.9029e-05	924.61	8.1026e-06	8.4434e-07	682.25	250.67	6.0688e-06	8.0032e-06	243.09	97.92	86.662	36.563	2.3301e-06	48.286	0.0020408	0.0023334	0.00066292	926.52	2.5438e-05	2.6317e-05	689.14	252.59	2.5658e-05	2.6474e-05	253.15	100.93	90.155	37.533	2.5813e-05	49.181	147.244	18.550	6.038	-46.441	230.923	203.123	-47.700	-40.835	33.460	92.027	-43.427	-39.541	-36.881	-32.353	178.596	-35.328	-8191	255	
1965.980	1	1	0	0	0.17824	0.33655	0.1253	0.20903	0.17122	0.077907	0.042014	0.10838	0.3052	0.079346	0.029011	0.18851	0.20593	0.092838	0.11361	0.15053	-3.0979	-3.2375	-3.2583	-3.5292	-3.375	-3.3104	-3.3917	-3.1917	-3.575	-3.4604	-3.5271	-3.6042	-3.2646	-3.3688	-3.2667	-3.1729	280.105	228.194	15.161	221.527	291.856	-7.063	147.763	175.333	-29.240	67.038	-10.993	-37.460	204.958	-28.136	-47.285	-8.599	0.00012798	0.00058714	0.00023728	928.62	7.7175e-06	3.0074e-06	687.21	251.71	2.2564e-06	5.9496e-06	246.72	98.026	87.26	36.666	5.6907e-06	48.16	0.0020818	0.0024102	0.00067509	934.09	2.5948e-05	2.6715e-05	695.55	254.27	2.6117e-05	2.7269e-05	255.44	101.43	90.803	37.678	2.6832e-05	49.572	97.364	36.603	71.256	-46.266	61.244	12.212	-47.493	-41.117	73.747	221.935	-43.601	-39.353	-36.712	-32.368	58.749	-35.455	-8191	255	
1966.077	1	1	0	0	0.24322	0.17816	0.20484	0.1801	0.20578	0.068055	0.29253	0.091767	0.23209	0.15641	0.20977	0.20381	0.10464	0.29984	0.051077	0.2833	-2.9125	-3.125	-3.1375	-3.5875	-3.0979	-3.2	-3.5833	-3.1854	-3.2583	-3.3396	-3.1437	-3.5125	-3.1125	-3.3229	-3.6	-3.1667	268.924	63.005	-53.952	250.816	-1.853	-21.760	274.314	239.325	258.753	262.668	290.234	-52.404	-40.737	217.596	151.638	166.931	0.00029879	0.00065884	0.00022307	931.29	9.2237e-06	1.0093e-05	690.1	252.73	1.5403e-06	2.7397e-06	249.13	99.072	86.452	36.763	3.0292e-06	47.975	0.0021779	0.0024705	0.00069534	939.85	2.6768e-05	2.7242e-05	698.9	255.32	2.6198e-05	2.7079e-05	257.45	102.17	90.649	37.723	2.6712e-05	49.389	116.765	291.670	6.324	-46.333	141.297	54.350	-47.574	-41.534	40.963	204.538	-43.406	-39.592	-37.161	-32.457	178.764	-35.474	-8191	255	
1966.173	1	1	0	0	0.12295	0.16595	0.10369	0.24919	0.072116	0.18737	0.12919	0.19506	0.35314	0.082104	0.24679	0.15644	0.3495	0.19592	0.073075	0.36331	-3.0375	-3.4042	-3.0854	-3.4813	-3.1542	-3.2625	-3.4021	-3.3125	-3.3646	-3.5312	-3.4	-3.5812	-3.2	-3.2125	-3.5208	-3.15	-53.714	-50.441	49.352	265.288	92.935	83.990	-25.795	260.216	118.929	262.371	170.253	234.629	176.957	250.372	52.756	238.097	0.00021312	0.00053416	9.643e-05	919.6	3.3327e-06	9.5467e-06	677.06	249.54	4.9539e-06	5.9784e-06	246.54	98.89	86.549	36.723	2.8492e-06	48.521	0.0021613	0.0024764	0.00069844	926.55	2.6539e-05	2.7274e-05	685.27	251.83	2.6215e-05	2.7e-05	255.05	101.96	90.022	37.643	2.5888e-05	49.944	134.506	61.595	-43.131	-46.456	3.942	-4.748	-47.363	-41.430	8.352	122.507	-43.217	-39.450	-37.427	-32.457	163.141	-35.445	-8191	255	
1966.293	1	1	0	0	0.11871	0.088519	0.048355	0.25522	0.091739	0.17695	0.15142	0.048958	0.067469	0.22503	0.22868	0.30125	0.063002	0.036388	0.20539	0.34216	-3.0417	-3.3729	-3.0417	-3.4146	-3.1	-3.2125	-3.6833	-3.1083	-3.4354	-3.5333	-3.2854	-3.5104	-3.4292	-3.3229	-3.5104	-3.3312	158.925	76.107	264.685	284.303	259.659	73.544	208.619	296.050	160.620	-9.943	297.414	115.173	223.133	-51.130	152.491	206.773	0.00032509	0.00069126	0.00010532	912.27	4.0932e-06	1.1102e-05	680.71	248.11	4.8538e-06	6.7029e-06	248.77	100.19	87.313	36.992	2.9602e-06	49.509	0.002118	0.0024086	0.00068424	916.3	2.636e-05	2.7289e-05	688.24	251.04	2.6387e-05	2.7563e-05	258.38	103.37	90.731	38.04	2.7191e-05	50.896	103.585	45.152	27.449	-46.422	96.464	62.444	-47.302	-41.063	90.366	151.773	-43.365	-39.597	-36.800	-31.999	50.002	-35.401	-8191	255	
1966.389	1	1	0	0	0.14406	0.031266	0.15449	0.16492	0.095981	0.29743	0.14767	0.21155	0.27378	0.25133	0.29705	0.19303	0.10229	0.054785	0.14959	0.083478	-2.9375	-3.3542	-3.0812	-3.7333	-3.4125	-3.0354	-3.5312	-3.2771	-3.3271	-3.325	-3.0062	-3.4333	-3.3521	-3.1708	-3.4375	-3.3458	181.829	294.524	131.071	250.559	162.107	280.004	222.121	255.720	18.741	-2.063	-21.262	299.589	6.674	202.412	74.855	76.882	0.00022469	0.00082162	4.354e-05	910.31	6.8078e-06	2.7747e-06	685.67	249.72	7.9029e-07	5.8525e-06	251.26	100.48	87.049	36.946	4.4452e-06	49.17	0.0022037	0.002505	0.00071034	920.13	2.7293e-05	2.8301e-05	696.15	252.61	2.7575e-05	2.8614e-05	260.29	104.12	91.251	38.133	2.8188e-05	50.796	131.801	66.276	216.858	-46.320	29.499	147.869	-47.527	-41.098	25.516	139.214	-43.814	-39.350	-36.891	-32.238	74.875	-35.301	-8191	255	
1966.461	1	1	0	0	0.066105	0.056157	0.15102	0.10228	0.03828	0.17201	0.22476	0.067971	0.13901	0.078379	0.15927	0.080797	0.26082	0.27481	0.053876	0.13753	-2.8271	-3.5125	-3.3083	-3.475	-3.2396	-3.0563	-3.5062	-3.4062	-3.2979	-3.5604	-3.2062	-3.4583	-3.4354	-3.1792	-3.3708	-3.3792	212.794	228.003	202.888	-55.746	0.887	173.067	293.490	270.301	47.489	194.380	270.229	196.402	6.204	293.276	161.451	219.155	0.00021197	0.00059616	0.00022164	916.03	5.3455e-06	5.0185e-06	677.56	248.22	6.2233e-06	5.1266e-06	243.77	98.209	86.639	36.144	1.1401e-06	47.857	0.0022724	0.0025899	0.00072962	922.06	2.7896e-05	2.8784e-05	689.05	251.59	2.7669e-05	2.9203e-05	254.97	101.87	90.449	37.584	2.8704e-05	49.316	133.446	19.544	-1.770	-46.448	217.756	34.273	-47.511	-41.282	44.250	116.165	-43.373	-39.306	-37.014	-32.239	-18.969	-35.401	-8191	255	
1966.580	1	1	0	0	0.28643	0.10203	0.1079	0.16018	0.22814	0.27866	0.23437	0.13732	0.23555	0.13649	0.2168	0.28023	0.2526	0.11948	0.056329	0.25695	-2.6521	-3.3333	-3.3208	-3.3792	-3.3625	-3.0292	-3.475	-3.3688	-3.1917	-3.3812	-3.2021	-3.3583	-3.5396	-3.3521	-3.4271	-3.2979	174.043	88.991	43.268	-35.642	284.246	38.237	229.719	171.204	-1.736	118.100	74.898	180.663	108.300	274.354	112.107	85.293	0.00017058	0.00084695	3.8629e-05	919.55	3.08e-06	6.0381e-06	679.66	247.9	1.673e-06	7.2312e-06	243.72	98.07	86.585	36.255	5.6189e-06	47.641	0.0023439	0.002664	0.00074837	929.2	2.8747e-05	2.9562e-05	691.96	251.92	2.8403e-05	2.959e-05	255	101.41	90.625	37.501	2.892e-05	49.302	116.502	11.110	-36.862	-46.068	187.010	45.583	-47.358	-41.251	172.196	59.171	-43.130	-39.427	-36.955	-32.298	129.948	-35.235	-8191	255	
1966.676	1	1	0	0	0.065672	0.1148	0.14076	0.13947	0.073567	0.23585	0.2652	0.19586	0.26755	0.19453	0.10402	0.11755	0.22876	0.2039	0.12752	0.20843	-2.6667	-3.5729	-3.3	-3.4625	-3.4458	-3.1708	-3.4437	-3.4833	-3.0583	-3.4375	-3.1521	-3.2729	-3.7	-3.2729	-3.5167	-3.4437	252.821	246.471	274.152	205.483	-32.313	-4.667	255.889	206.728	223.557	2.709	158.229	15.371	184.945	-11.754	275.265	248.023	0.00021446	0.00059922	0.00027975	926.98	3.1742e-06	7.5069e-06	684.8	250.52	4.872e-06	1.0716e-06	244.97	97.231	86.169	36.268	4.5941e-06	47.675	0.0023497	0.0026582	0.0007542	932.88	2.8647e-05	2.9605e-05	695.66	253.4	2.8694e-05	2.9562e-05	256.06	101.24	90.436	37.429	2.8805e-05	49.305	139.386	73.824	10.630	-46.308	-14.508	13.148	-47.523	-41.151	170.983	248.897	-43.346	-39.294	-37.105	-32.415	105.098	-35.485	-8191	255	
1966.772	1	1	0	0	0.20197	0.050169	0.11831	0.34432	0.10635	0.16672	0.099855	0.12602	0.063978	0.3447	0.13991	0.3377	0.29782	0.09156	0.16323	0.15449	-2.7854	-3.5042	-3.3312	-3.1771	-3.5146	-3.3521	-3.5333	-3.5583	-3.2125	-3.5938	-3.4875	-3.1854	-3.7146	-3.1875	-3.3354	-3.4625	76.267	53.417	187.170	240.215	12.421	21.781	183.993	288.533	-12.028	-22.047	223.862	256.721	192.860	-57.829	119.206	243.627	0.00022592	0.00020691	0.00011597	919.09	8.8448e-06	9.2233e-06	682	246.94	7.5446e-06	1.0084e-05	241.29	96.737	85.473	36.017	4.9717e-06	46.855	0.0023024	0.0026646	0.00075125	930.28	2.8525e-05	2.9424e-05	692.22	251.21	2.8455e-05	2.9319e-05	252.72	100.1	89.521	37.055	2.8651e-05	48.493	137.298	-7.138	17.983	-46.113	70.954	100.613	-47.603	-41.299	32.806	27.810	-43.523	-39.591	-37.031	-32.253	68.507	-35.474	-8191	255	
1966.868	1	1	0	0	0.3234	0.18875	0.22596	0.18632	0.085493	0.088293	0.1025	0.23675	0.059049	0.10971	0.0022756	0.31889	0.14917	0.31751	0.21741	0.1548	-2.6833	-3.5354	-3.3042	-3.3208	-3.2604	-3.2229	-3.3083	-3.6479	-3.2167	-3.5167	-3.5021	-3.1708	-3.7021	-3.2812	-3.375	-3.6083	248.183	89.775	160.323	262.115	176.606	113.367	264.561	293.183	84.010	136.419	180.000	289.693	253.353	-12.149	89.767	-29.473	0.00027273	0.00075657	0.00020355	905.27	8.2548e-06	1.172e-05	668.11	243.95	2.0786e-06	4.8206e-06	239.57	96.028	84.545	35.711	2.71e-06	47.045	0.0022859	0.0026327	0.0007421	914.52	2.8246e-05	2.9124e-05	678.15	247.05	2.8039e-05	2.9184e-05	249.8	99.624	88.572	36.875	2.8613e-05	48.688	121.473	51.158	27.055	-46.324	108.163	134.988	-47.224	-41.110	87.630	157.923	-43.441	-39.136	-37.058	-32.272	36.315	-35.136	-8191	255	
1966.989	1	1	0	0	0.12548	0.016666	0.10783	0.02828	0.025331	0.14978	0.15778	0.065452	0.059245	0.19355	0.18709	0.091607	0.12579	0.10131	0.27346	0.097586	-2.8396	-3.3812	-3.3896	-3.1979	-3.2417	-3.4854	-3.5229	-3.5458	-3.0521	-3.4625	-3.4479	-3.2229	-3.4333	-3.3146	-3.2625	-3.4062	-1.320	111.020	59.661	-37.282	-16.489	183.617	183.729	11.602	-31.791	199.718	215.956	268.904	65.009	-55.797	270.104	-5.498	0.00020116	0.00092085	0.00013294	898.04	2.2812e-06	3.1225e-06	669.29	242.63	5.5454e-06	4.5471e-06	240.74	96.485	84.502	35.722	2.8535e-06	47.238	0.0022903	0.0026025	0.00073354	907.28	2.8197e-05	2.9123e-05	679.91	246.06	2.7955e-05	2.9266e-05	250.99	100.17	88.692	36.909	2.8797e-05	48.899	121.996	32.612	48.742	-46.262	218.854	141.577	-47.400	-41.081	170.346	136.837	-43.555	-39.533	-37.016	-32.822	11.196	-35.455	-8191	255	
1967.061	1	1	0	0	0.068994	0.022195	0.097235	0.21704	0.10711	0.090473	0.52305	0.10729	0.11575	0.2926	0.1124	0.10319	0.077641	0.087062	0.19159	0.050887	-2.6771	-3.3583	-3.4125	-3.3	-3.4667	-3.4479	-3.4625	-3.65	-3.3563	-3.4021	-3.5312	-3.1979	-3.5958	-3.5125	-3.0792	-3.5917	218.662	53.015	75.730	266.995	-54.067	278.994	260.821	253.186	77.585	260.984	2.700	216.876	273.920	204.905	230.425	269.979	0.00016751	0.00037283	0.00016219	901.33	7.6596e-06	9.6846e-07	674.54	243.85	5.9697e-06	3.1851e-06	240.66	96.546	84.532	35.563	1.7209e-06	46.459	0.0022822	0.0026321	0.00073823	909.68	2.8474e-05	2.9359e-05	683.5	247.64	2.8608e-05	2.9685e-05	251.79	100.32	88.693	36.68	2.8213e-05	48.092	155.784	-31.729	72.009	-46.191	87.937	31.809	-47.545	-41.463	9.249	46.576	-43.605	-39.503	-37.150	-32.245	72.782	-35.253	-8191	255	
1967.157	1	1	0	0	0.34003	0.16258	0.2001	0.18546	0.15833	0.19021	0.075203	0.14819	0.18534	0.15501	0.24897	0.13889	0.16798	0.071751	0.27527	0.24341	-2.6917	-3.1521	-3.3187	-3.35	-3.5375	-3.3375	-3.1937	-3.7208	-3.325	-3.3312	-3.6917	-3.1771	-3.4521	-3.5354	-3.1021	-3.6083	-35.519	87.366	41.959	251.834	69.184	-1.477	210.202	275.958	292.374	187.392	-40.198	120.424	-24.461	270.573	27.081	-58.545	8.4497e-05	0.00065187	0.00018908	898.41	3.0991e-06	7.124e-06	660.4	242.03	2.8646e-06	5.9127e-06	234.33	93.909	83.911	34.874	1.776e-06	45.675	0.0022419	0.0026075	0.00073045	906.54	2.8006e-05	2.8911e-05	670.52	245.74	2.7958e-05	2.9104e-05	245.78	97.489	87.9	36.093	2.8377e-05	47.105	139.752	55.861	68.984	-46.320	177.433	57.731	-47.547	-41.047	254.063	113.751	-43.661	-39.507	-36.959	-32.671	145.319	-35.340	-8191	255	
1967.253	1	1	0	0	0.15799	0.21683	0.073506	0.23864	0.14168	0.037737	0.3408	0.094096	0.078361	0.21717	0.1266	0.2433	0.24092	0.21085	0.14379	0.10734	-2.8167	-3.1292	-3.5583	-3.2938	-3.2354	-3.5938	-3.2958	-3.5458	-3.4062	-3.2896	-3.6458	-3.1	-3.3521	-3.3812	-3.1896	-3.5542	46.996	-26.351	74.911	293.693	267.674	60.975	288.875	283.500	-11.358	284.672	104.744	-28.040	-42.581	294.014	85.330	273.420	0.00025471	0.00078237	0.0001795	906.21	3.7236e-06	6.8701e-06	662.27	242.78	2.4674e-06	8.9259e-06	234.02	92.98	83.953	34.852	4.8651e-06	45.165	0.002272	0.0026022	0.00074073	914.3	2.8547e-05	2.9407e-05	672.68	246.69	2.8516e-05	2.9569e-05	246.05	96.926	88.222	36.021	2.8981e-05	46.783	144.792	-2.498	-3.884	-46.248	83.157	81.179	-47.265	-41.307	99.009	91.147	-43.517	-39.356	-36.703	-32.613	183.603	-35.404	-8191	255	
1967.374	1	1	0	0	0.17498	0.095861	0.12109	0.25407	0.081099	0.15647	0.14939	0.31673	0.21863	0.18424	0.16876	0.053781	0.18022	0.13908	0.15838	0.1659	-3.0771	-3.2354	-3.5542	-3.3958	-3.4021	-3.6188	-3.1604	-3.6292	-3.425	-3.3	-3.4979	-3.2417	-3.4771	-3.4938	-3.1771	-3.4896	94.682	235.847	245.933	266.311	126.706	-28.558	278.015	259.975	243.993	-7.753	5.954	-57.498	297.991	-3.555	235.153	275.389	0.00028633	0.0012818	9.6425e-05	907.06	1.4039e-06	9.0045e-06	666.89	243.22	1.2268e-06	2.2016e-06	236.18	94.977	84.794	35.534	2.1949e-06	45.976	0.0022995	0.0026712	0.00074049	918.93	2.8648e-05	2.9595e-05	679.19	247.66	2.8754e-05	2.9811e-05	248.55	98.482	88.75	36.635	2.8779e-05	47.659	143.809	145.873	93.148	-46.359	-24.460	110.423	-47.675	-41.088	53.217	32.293	-43.876	-39.450	-36.865	-32.282	-33.206	-35.123	-8191	255	
1967.468	1	1	0	0	0.11845	0.081142	0.24115	0.095148	0.097921	0.11262	0.26342	0.28536	0.16653	0.30001	0.17005	0.25621	0.13143	0.26787	0.26879	0.24344	-2.9167	-3.1042	-3.3917	-3.4646	-3.3396	-3.5146	-3.3563	-3.4458	-3.3875	-3.2812	-3.6021	-3.2479	-3.1854	-3.5271	-3.1521	-3.5458	125.929	225.281	214.181	9.851	120.123	220.331	188.268	241.405	18.574	127.470	166.614	253.903	297.795	207.902	278.067	-24.499	0.00015593	0.00097515	9.123e-05	906.92	1.284e-05	4.9975e-06	660.23	242.43	2.6113e-06	1.0416e-05	234.59	93.36	83.992	35.04	4.2624e-06	45.434	0.0023156	0.0026405	0.00074457	915.54	2.8389e-05	2.9474e-05	673.47	246.85	2.8648e-05	2.9581e-05	246.46	97.434	88.48	36.347	2.8876e-05	46.999	120.066	278.925	101.275	-46.115	123.738	88.695	-47.437	-41.226	-31.517	120.015	-43.426	-39.401	-36.766	-32.138	81.616	-35.297	-8191	255	
1967.564	1	1	0	0	0.17009	0.1444	0.29586	0.11509	0.077212	0.10478	0.14615	0.031984	0.080973	0.024078	0.071354	0.25071	0.10604	0.25083	0.098165	0.14325	-2.9958	-3.0292	-3.5146	-3.6083	-3.0187	-3.5229	-3.3958	-3.4813	-3.3542	-3.0271	-3.5563	-3.3458	-3.1354	-3.7042	-3.2604	-3.2271	223.707	194.561	18.180	6.721	243.492	287.618	-18.504	-1.350	240.217	89.575	15.066	187.783	136.400	-28.384	49.540	222.574	0.00018705	0.00078236	0.00015017	904.54	4.7398e-06	3.1789e-06	659.67	244.38	2.1256e-06	9.7957e-06	237.95	94.029	84.943	35.353	6.1156e-06	45.964	0.0023105	0.002646	0.00074663	916.17	2.8437e-05	2.9362e-05	673.69	247.61	2.8166e-05	2.9313e-05	248.28	97.894	88.909	36.628	2.897e-05	47.489	115.943	44.604	49.830	-46.397	18.728	274.933	-47.462	-41.224	109.190	102.402	-43.551	-39.553	-36.608	-32.086	185.507	-35.468	-8191	255	
1967.662	1	1	0	0	0.30078	0.26737	0.22396	0.19196	0.14328	0.26787	0.21481	0.016388	0.13834	0.1233	0.096728	0.064642	0.052606	0.28641	0.058839	0.38018	-2.8167	-2.9813	-3.3937	-3.3729	-3.3208	-3.6417	-3.3146	-3.3937	-3.4562	-3.1375	-3.5104	-3.5417	-3.2146	-3.4792	-3.3229	-3.2958	130.991	158.956	125.830	260.090	-6.470	157.678	286.563	47.604	205.129	108.663	202.806	228.921	-46.388	282.423	94.266	270.815	0.00013537	0.00069213	9.0717e-05	910.73	5.2423e-06	4.4123e-06	670.64	245.59	6.3715e-06	2.3673e-06	239.73	94.974	85.584	35.38	7.0185e-06	46.045	0.0023658	0.0026999	0.00076975	922	2.9342e-05	2.9933e-05	682.86	249.7	2.9148e-05	3.0288e-05	250.71	98.776	89.509	36.767	2.9753e-05	47.844	132.303	50.434	56.718	-46.283	124.461	10.246	-47.624	-41.178	195.522	-25.292	-43.213	-39.186	-36.710	-32.168	81.050	-35.141	-8191	255	
1967.757	1	1	0	0	0.21322	0.34368	0.075855	0.21532	0.24806	0.2137	0.19212	0.22763	0.10706	0.12257	0.25124	0.12832	0.17463	0.22814	0.19241	0.039928	-3.1396	-3.1417	-3.4042	-3.6021	-3.1917	-3.5792	-3.425	-3.3	-3.3833	-3.0375	-3.5292	-3.4688	-3.2708	-3.5146	-3.3708	-3.3688	94.216	279.753	50.298	42.401	-26.897	85.828	187.595	300.009	-13.778	83.142	209.933	275.782	92.317	239.014	251.950	218.817	0.00021061	0.0014595	0.00012032	919.69	6.1929e-06	1.2445e-05	679.14	247.54	5.2568e-06	8.1006e-06	239.27	95.218	85.035	35.61	9.4122e-07	46.052	0.0023832	0.0027787	0.00077307	928.67	3.0046e-05	3.0832e-05	688.83	251.41	2.9606e-05	3.0616e-05	250.98	99.213	89.467	36.796	2.9888e-05	47.719	136.087	44.608	39.713	-46.482	107.835	19.834	-47.570	-41.165	67.213	90.475	-43.344	-39.541	-36.491	-32.057	41.406	-35.386	-8191	255	
1967.853	1	1	0	0	0.30404	0.11287	0.17565	0.11318	0.15422	0.11215	0.10146	0.083625	0.15437	0.092838	0.17196	0.15952	0.24866	0.067722	0.25971	0.21005	-3.0104	-3.0396	-3.2917	-3.5479	-3.0979	-3.4562	-3.4625	-3.4333	-3.4292	-3.2292	-3.3563	-3.3812	-3.2021	-3.3417	-3.2854	-3.25	255.419	3.474	94.324	217.637	214.133	131.417	190.665	294.327	86.772	169.803	-58.876	-24.409	291.079	153.943	139.471	261.036	0.00029154	0.00042719	9.814e-05	907.59	7.982e-06	9.5067e-06	663.3	245.48	3.8012e-06	7.899e-06	236.38	95.132	84.861	35.529	5.4877e-06	46.139	0.002354	0.0027295	0.00076119	918.03	2.9095e-05	2.9962e-05	677.72	247.94	2.8837e-05	3.0314e-05	248.4	98.768	88.769	36.753	2.9163e-05	47.84	106.093	54.440	61.036	-46.312	103.224	82.840	-47.349	-41.059	19.260	122.789	-43.590	-39.513	-37.178	-32.147	47.238	-35.305	-8191	255	
1967.973	1	1	0	0	0.3042	0.30821	0.30842	0.26486	0.27028	0.072127	0.13332	0.15009	0.11586	0.083764	0.080822	0.30564	0.057556	0.10266	0.057919	0.099552	-2.9854	-3.1542	-3.0896	-3.55	-3.1375	-3.3271	-3.4979	-3.3292	-3.325	-3.2333	-3.3167	-3.6354	-3.225	-3.4875	-3.4979	-3.1021	203.337	174.722	186.050	294.319	31.277	225.569	-15.082	201.628	78.101	262.447	-33.101	283.001	132.917	5.055	60.188	160.054	0.00021348	0.0010054	0.00016134	906.77	3.8116e-06	1.0233e-05	669.79	244.31	4.7346e-06	1.01e-05	241.31	96.998	85.207	35.92	2.8345e-06	47.097	0.0023385	0.0027154	0.00075832	917.77	2.9228e-05	3.0428e-05	682.5	249.27	2.9217e-05	3.0556e-05	253.64	100.63	89.401	37.157	2.9379e-05	48.795	153.324	59.699	-32.858	-46.413	102.309	9.954	-47.404	-41.132	176.378	81.718	-43.424	-39.445	-37.079	-32.335	296.722	-35.008	-8191	255	
1968.069	1	1	0	0	0.020019	0.21164	0.20766	0.33291	0.1388	0.19273	0.25009	0.25211	0.050739	0.22238	0.2489	0.083646	0.14633	0.18015	0.099279	0.28422	-3.0208	-3.3104	-3.2	-3.6479	-3.1708	-3.4083	-3.5917	-3.1146	-3.4938	-3.3312	-3.3	-3.5854	-3.2438	-3.3292	-3.3417	-3.3125	200.362	-36.510	25.772	204.426	284.512	92.497	244.804	225.010	-3.716	12.857	19.749	-5.006	73.503	-41.653	181.165	-19.811	0.00024412	0.00041729	0.0001923	909.1	3.5377e-06	2.986e-06	677.24	245.76	4.7736e-06	1.5923e-05	243.04	97.778	85.839	36.247	5.658e-06	46.969	0.0023565	0.0026967	0.00075386	918.01	2.9031e-05	3.0025e-05	689.63	250.65	2.9066e-05	3.0138e-05	255.82	101.36	90.244	37.38	2.9617e-05	48.839	123.564	282.624	55.609	-46.434	-7.954	299.142	-47.364	-41.147	136.060	198.460	-43.285	-39.253	-36.838	-32.023	88.588	-35.384	-8191	255	
1968.166	1	1	0	0	0.17408	0.062623	0.13914	0.33547	0.15628	0.30461	0.25153	0.13013	0.1095	0.30927	0.12462	0.13091	0.085609	0.31568	0.14959	0.20463	-3.0646	-3.4437	-3.2083	-3.6042	-3.275	-3.3771	-3.6896	-3.4688	-3.3542	-3.3875	-3.1167	-3.5792	-3.2167	-3.2521	-3.4938	-3.2438	23.604	190.080	-13.104	261.880	212.620	156.033	291.608	212.973	107.330	155.814	238.604	-8.480	107.506	231.546	147.868	199.952	0.00028512	0.00039208	0.00011439	914.41	2.9763e-06	9.0969e-06	668.52	246.55	4.6281e-06	3.8148e-06	237.3	94.899	85.917	35.44	3.8766e-06	45.512	0.00239	0.0027243	0.00077039	925.26	2.9362e-05	3.0477e-05	684.61	250.99	2.9242e-05	3.0394e-05	249.77	98.555	89.773	36.682	2.9516e-05	47.351	132.237	34.663	294.014	-46.431	65.516	100.992	-47.416	-41.257	61.237	209.509	-43.564	-39.353	-37.026	-32.469	12.270	-35.571	-8191	255	
1968.262	1	1	0	0	0.015619	0.10554	0.056189	0.27311	0.17787	0.058355	0.14262	0.16756	0.079031	0.0055405	0.19444	0.23037	0.23402	0.16902	0.080626	0.21522	-2.9771	-3.2896	-3.1708	-3.5396	-3.3146	-3.3563	-3.6354	-3.4062	-3.4688	-3.5396	-3.0812	-3.5	-3.225	-3.3167	-3.6333	-3.5167	187.713	-33.885	-0.035	267.976	279.617	-16.563	8.054	249.995	-27.367	-33.486	-0.299	50.844	250.752	211.279	25.806	242.631	0.00015741	0.00059266	0.00015801	923.36	8.3495e-06	4.8171e-06	674.25	247.98	2.2152e-06	1.0457e-05	241.68	95.624	85.823	35.62	3.3252e-06	46.577	0.0023494	0.0026956	0.00075641	930.33	2.9085e-05	2.9879e-05	686.84	251.4	2.866e-05	2.9433e-05	252.11	99.462	89.911	36.936	2.8741e-05	48.159	142.542	-50.832	181.539	-46.169	73.680	190.535	-47.359	-41.279	154.670	137.892	-43.342	-39.518	-37.015	-32.312	79.534	-35.460	-8191	255	
1968.358	1	1	0	0	0.094527	0.12309	0.22138	0.20325	0.23772	0.09729	0.2297	0.17206	0.14584	0.17984	0.047007	0.11829	0.15068	0.10901	0.12654	0.16537	-2.9688	-3.25	-3.1042	-3.5354	-3.1562	-3.3208	-3.7104	-3.3833	-3.3979	-3.5021	-3.3833	-3.4	-3.3854	-3.1292	-3.5938	-3.3917	52.414	116.810	182.798	-19.996	254.859	81.519	158.639	288.187	90.663	69.302	224.744	194.147	298.103	-57.298	183.910	159.996	0.00021925	0.0010628	0.00012178	926.53	3.1173e-06	4.8672e-06	684.75	249.19	3.9259e-06	4.4342e-06	242.48	96.691	86.511	36.264	2.5619e-06	47.115	0.0022766	0.0026153	0.00073235	933.04	2.778e-05	2.8584e-05	693.73	252.08	2.7191e-05	2.8281e-05	252.33	99.903	90.109	37.236	2.736e-05	48.464	135.795	44.290	89.865	-46.517	179.823	57.686	-47.139	-41.340	51.708	80.078	-43.340	-39.224	-37.021	-32.139	-44.993	-35.551	-8191	255	
1968.454	1	1	0	0	0.15885	0.13404	0.2487	0.074094	0.23055	0.11917	0.20126	0.12889	0.16458	0.22779	0.13702	0.13597	0.11494	0.4685	0.17298	0.28866	-3.0458	-3.6063	-3.0646	-3.7146	-3.4875	-3.2687	-3.4646	-3.2458	-3.2979	-3.4521	-3.2458	-3.3104	-3.35	-3.1417	-3.4271	-3.3792	-56.510	-24.686	184.120	-49.433	-9.792	30.475	279.477	260.406	104.753	203.106	-27.273	-13.343	56.672	292.449	261.384	211.667	0.00019654	0.00051557	0.00013257	935.24	1.5712e-06	1.3037e-06	684.85	248.5	6.9213e-06	7.6831e-06	237.39	94.735	86.152	35.914	7.2543e-06	46.172	0.0022395	0.0025079	0.0007098	942.1	2.7125e-05	2.7939e-05	695.15	252.05	2.7104e-05	2.7957e-05	248.71	98.437	89.858	36.911	2.7629e-05	47.466	152.058	275.403	148.934	-46.389	94.370	267.665	-47.583	-41.161	27.784	71.901	-43.415	-39.279	-37.281	-32.205	92.096	-35.459	-8191	255	
1968.550	1	1	0	0	0.18065	0.18405	0.12239	0.16669	0.13488	0.1861	0.23955	0.088141	0.081151	0.29738	0.1183	0.34037	0.32639	0.16202	0.27768	0.24555	-2.9542	-3.5646	-3.2146	-3.4333	-3.4229	-3.3438	-3.6437	-3.3021	-3.2979	-3.4896	-3.2271	-3.3333	-3.4292	-3.1208	-3.4521	-3.4896	111.570	71.206	143.682	286.238	167.680	88.419	291.376	54.105	-31.131	97.363	286.859	227.326	285.800	45.247	-40.784	240.879	0.00013737	0.00049862	0.00012888	931.67	4.2272e-06	2.7327e-06	678.44	248.46	4.9727e-06	8.1401e-06	237.59	94.551	86.308	35.762	2.6611e-06	46.33	0.0022204	0.0025399	0.00072622	937.53	2.776e-05	2.8626e-05	688.28	251.25	2.7778e-05	2.8613e-05	248.93	98.424	89.993	36.986	2.821e-05	47.801	132.429	243.655	85.359	-46.240	61.263	8.672	-47.361	-41.251	148.834	73.247	-43.455	-39.145	-37.099	-32.216	80.980	-35.228	-8191	255	
1968.669	1	1	0	0	0.15171	0.22051	0.097289	0.23815	0.17652	0.16084	0.17218	0.15258	0.064039	0.13551	0.09854	0.065299	0.19179	0.2395	0.069658	0.11635	-2.9208	-3.5583	-3.3146	-3.4375	-3.5812	-3.2229	-3.6083	-3.4646	-3.2083	-3.8146	-3.3479	-3.3167	-3.4917	-3.3125	-3.4167	-3.4604	219.727	-28.436	-20.913	176.002	161.533	168.822	294.619	277.686	25.233	269.346	276.234	26.762	15.774	244.098	41.824	106.054	0.00024141	0.00088878	0.00012061	933.01	2.0405e-06	5.7675e-06	682.04	249.28	2.2526e-06	4.3338e-06	238.51	95.449	85.908	35.647	5.7228e-06	46.112	0.0022734	0.0025811	0.0007359	941.16	2.8022e-05	2.9003e-05	695.04	252.9	2.8266e-05	2.9094e-05	250.8	98.969	90.31	36.939	2.8352e-05	47.616	125.936	28.164	-13.848	-46.464	117.280	42.430	-47.313	-41.164	115.242	106.317	-43.174	-39.434	-36.778	-32.409	83.384	-35.564	-8191	255	
1968.765	1	1	0	0	0.21456	0.16147	0.1085	0.23184	0.23127	0.13788	0.12856	0.16171	0.20722	0.14849	0.24319	0.1961	0.28236	0.088849	0.1166	0.13219	-2.8604	-3.5042	-3.3229	-3.3167	-3.5271	-3.2104	-3.4875	-3.575	-3.0979	-3.7208	-3.3167	-3.1688	-3.5687	-3.25	-3.5021	-3.4188	6.588	182.648	5.933	278.875	256.153	-58.804	-36.994	288.384	195.168	203.347	256.938	214.864	286.818	211.207	103.165	251.275	0.00027245	0.00055459	0.00022536	942.02	7.1239e-06	7.3403e-06	689.02	250.14	5.5116e-06	6.2035e-06	240.4	95.237	86.433	35.531	2.7791e-06	45.78	0.0022863	0.0026245	0.0007345	948.72	2.8062e-05	2.9128e-05	699.38	253.89	2.8077e-05	2.8886e-05	251.17	98.79	90.415	36.833	2.8461e-05	47.282	138.352	101.446	71.086	-46.271	69.004	54.421	-47.353	-41.215	158.694	137.544	-43.101	-39.732	-36.954	-32.379	24.143	-35.262	-8191	255	
1968.861	1	1	0	0	0.16949	0.22657	0.24347	0.13696	0.04829	0.2311	0.34307	0.33654	0.19353	0.04744	0.13759	0.42009	0.15077	0.070106	0.13674	0.17952	-2.6958	-3.4437	-3.3312	-3.5	-3.3854	-3.1292	-3.4208	-3.5604	-3.2271	-3.4396	-3.4354	-3.2792	-3.5438	-3.3521	-3.2208	-3.7042	168.459	28.220	17.123	247.976	281.017	-44.263	222.937	268.082	255.439	277.128	283.244	-54.129	274.826	-32.261	119.530	-39.283	0.00019393	0.00032771	8.2545e-05	927.72	3.5351e-06	3.8591e-06	678.56	247.46	6.8642e-06	1.0043e-05	237.22	93.755	85.234	35.333	8.885e-07	45.462	0.0023104	0.002631	0.00074209	937.89	2.8488e-05	2.9445e-05	687.02	250.94	2.8109e-05	2.9409e-05	247.82	97.683	89.395	36.617	2.8407e-05	47.203	127.533	115.077	236.300	-46.385	187.816	20.661	-47.437	-40.992	122.586	37.165	-43.285	-39.443	-36.413	-32.496	56.245	-35.451	-8191	255	
1968.933	1	1	0	0	0.16176	0.29749	0.082964	0.10811	0.12885	0.10622	0.18972	0.31241	0.22064	0.12248	0.028906	0.15637	0.20552	0.12866	0.15359	0.19549	-2.7708	-3.6333	-3.2375	-3.3708	-3.6042	-3.3083	-3.4125	-3.6937	-3.3021	-3.4104	-3.35	-3.3854	-3.5458	-3.2188	-3.4396	-3.5438	-47.487	-53.934	275.565	229.920	-46.949	-6.224	229.055	194.763	194.912	-24.210	57.358	-57.489	256.334	-38.505	60.274	246.142	7.1256e-05	0.00063052	6.0013e-05	926.43	3.3162e-06	4.0605e-06	682.35	249.44	9.7291e-06	3.2531e-06	237.83	95.138	85.443	35.579	6.9169e-06	46.283	0.0022899	0.0026345	0.00074587	934.98	2.8448e-05	2.9255e-05	691.44	251.86	2.8053e-05	2.8942e-05	249.5	98.71	89.96	36.858	2.8791e-05	47.689	80.189	201.276	34.241	-46.292	99.947	161.645	-47.462	-40.914	131.654	132.238	-43.495	-39.527	-37.042	-32.039	104.799	-35.524	-8191	255	
1969.054	1	1	0	0	0.13789	0.1427	0.046374	0.48938	0.33674	0.21709	0.070604	0.039699	0.2407	0.10814	0.047283	0.27011	0.1254	0.33191	0.22789	0.040452	-2.7354	-3.4437	-3.6333	-3.325	-3.5	-3.525	-3.4271	-3.7438	-3.3375	-3.4896	-3.3333	-3.2875	-3.4938	-3.3917	-3.1729	-3.7292	-32.826	294.378	195.136	261.629	225.480	-31.744	233.033	124.064	252.303	190.162	184.235	-48.461	229.360	269.719	265.827	-14.497	9.832e-05	0.00085419	6.2496e-05	933.74	4.9055e-06	4.1181e-06	687.27	249.95	2.8929e-06	1.0971e-05	241.26	95.921	86.493	35.792	5.4369e-06	46.191	0.0023222	0.0026753	0.00074723	943.24	2.8633e-05	2.9723e-05	698.44	253.5	2.8538e-05	2.9405e-05	252.24	99.355	90.426	36.961	2.9053e-05	47.701	120.565	58.562	78.319	-46.385	32.637	22.347	-47.112	-41.045	107.802	89.277	-43.208	-39.240	-36.970	-32.039	184.376	-35.005	-8191	255	
1969.150	1	1	0	0	0.16089	0.071855	0.084905	0.19793	0.24697	0.097843	0.13508	0.28977	0.020346	0.058498	0.11422	0.023433	0.10653	0.065004	0.032673	0.0022618	-2.8833	-3.4479	-3.5875	-3.3312	-3.4271	-3.3729	-3.4562	-3.5438	-3.0938	-3.375	-3.5917	-3.2458	-3.5625	-3.3563	-3.1125	-3.5938	202.551	261.784	232.873	247.204	77.822	186.597	45.306	286.012	39.480	171.429	283.447	112.956	161.561	70.788	-37.968	180.000	0.00018603	0.00066326	0.0002593	932.15	4.0433e-06	8.9367e-06	675.74	248.36	3.1399e-06	4.4332e-06	239.72	94.754	85.435	35.583	7.0957e-06	45.603	0.0023553	0.002691	0.00075444	939.86	2.8659e-05	2.9956e-05	689.07	252.19	2.8544e-05	2.9622e-05	249.59	98.206	89.718	36.778	2.8773e-05	47.3	130.720	46.447	43.130	-46.150	175.477	62.370	-47.311	-41.173	31.006	12.918	-43.074	-39.398	-36.827	-32.278	108.577	-35.365	-8191	255	
1969.246	1	1	0	0	0.13676	0.29223	0.11806	0.10888	0.20728	0.0085399	0.058145	0.24498	0.16811	0.18047	0.17443	0.21626	0.20151	0.16529	0.15158	0.11135	-2.8812	-3.2438	-3.3875	-3.4083	-3.5229	-3.3542	-3.1188	-3.5167	-3.3083	-3.3208	-3.7333	-3.4729	-3.425	-3.3688	-3.0958	-3.5938	243.080	39.896	-4.499	242.544	181.105	21.324	239.810	116.170	127.929	73.166	63.246	256.760	258.362	293.678	214.142	144.052	0.00016808	0.0006123	0.00014612	927.53	3.6599e-06	1.2273e-05	674.27	246.52	2.7244e-06	6.0696e-06	238.89	94.722	85.827	35.965	2.207e-06	46.071	0.0023178	0.0026485	0.00074671	935	2.8578e-05	2.9746e-05	687.16	250.91	2.875e-05	2.9678e-05	249.97	98.822	89.994	37.068	2.8912e-05	47.948	142.903	33.276	35.813	-46.237	271.154	95.007	-47.550	-41.312	172.353	46.466	-43.096	-39.307	-36.768	-32.420	82.906	-35.305	-8191	255	
1969.342	1	1	0	0	0.19307	0.39093	0.10949	0.19497	0.051003	0.075811	0.09082	0.15292	0.15499	0.17828	0.073132	0.034176	0.055631	0.14616	0.22045	0.10011	-2.9792	-3.1854	-3.6063	-3.4208	-3.5792	-3.4938	-3.2958	-3.6292	-3.3292	-3.2958	-3.6958	-3.3854	-3.3625	-3.6562	-3.2188	-3.6854	264.041	228.507	110.034	268.751	182.162	160.548	290.025	220.546	225.146	270.187	215.884	60.537	56.134	159.023	241.018	288.748	0.00021371	0.00038601	7.9606e-05	930.71	5.0298e-06	8.5734e-06	682.83	249.27	1.8688e-06	1.2047e-05	239.67	96.099	86.186	35.9	4.5616e-06	46.527	0.0023239	0.0026638	0.00074696	937.02	2.8731e-05	2.9603e-05	694.3	252.77	2.9184e-05	3.0123e-05	251.66	99.532	90.571	37.229	2.9579e-05	48.255	144.638	212.201	24.645	-46.388	68.376	87.458	-47.591	-41.159	37.062	139.517	-43.515	-39.603	-36.946	-32.196	27.777	-35.654	-8191	255	
1969.461	1	1	0	0	0.31029	0.13736	0.159	0.12441	0.10828	0.14995	0.17775	0.12208	0.093567	0.070234	0.11087	0.1658	0.34675	0.31111	0.16575	0.076255	-3.0083	-3.2479	-3.5167	-3.4958	-3.4979	-3.6354	-3.2458	-3.6104	-3.2917	-3.2604	-3.6729	-3.3729	-3.3	-3.7188	-3.15	-3.5104	186.151	-30.770	234.736	199.014	44.610	94.334	186.100	285.589	-43.573	-17.110	258.341	264.645	-21.727	275.821	34.292	200.549	0.00010561	0.00079962	2.6183e-05	932.89	5.8494e-06	2.0648e-06	686.56	249.61	5.8369e-06	8.8862e-06	240.23	95.264	86.667	35.813	3.2191e-06	45.912	0.0023605	0.0027259	0.0007614	941.61	2.9223e-05	3.0007e-05	698.22	253.59	2.9121e-05	3.0198e-05	251.66	99.291	90.639	37.081	2.9445e-05	47.552	78.226	30.395	180.940	-46.412	120.230	139.474	-47.224	-41.152	298.456	53.880	-43.072	-39.278	-37.065	-32.229	51.507	-35.822	-8191	255	
1969.557	1	1	0	0	0.15335	0.17388	0.22351	0.35166	0.18166	0.32814	0.17425	0.18791	0.13089	0.055643	0.057214	0.06504	0.40972	0.21636	0.13498	0.084884	-2.9833	-3.2458	-3.4292	-3.5125	-3.4146	-3.5521	-3.1708	-3.5687	-3.4354	-3.225	-3.5083	-3.5104	-3.4375	-3.5042	-3.1854	-3.4979	288.628	-58.666	294.468	208.781	-0.934	165.497	-45.642	162.003	126.090	276.164	237.505	-5.024	-21.464	230.567	257.994	198.433	0.0001933	0.00062188	0.00020692	926.22	8.4512e-06	8.5523e-06	677.68	248.86	1.5801e-06	1.0006e-05	236.41	93.868	86.159	35.465	1.4556e-06	45.574	0.0023829	0.0027407	0.00077396	938.76	3.0096e-05	3.0617e-05	689.61	252.75	2.9893e-05	3.092e-05	248.44	97.856	90.213	36.898	3.0154e-05	47.35	136.348	43.273	14.928	-46.506	30.701	88.670	-47.619	-41.249	60.774	98.480	-43.056	-39.527	-36.870	-32.214	-0.433	-35.047	-8191	255	
1969.653	1	1	0	0	0.39022	0.055323	0.11009	0.095296	0.035802	0.11349	0.25545	0.13612	0.14624	0.32871	0.075269	0.14248	0.10232	0.17422	0.13161	0.20615	-3.0333	-3.2167	-3.4125	-3.3625	-3.2938	-3.5729	-3.3229	-3.4896	-3.5896	-3.2521	-3.5375	-3.3604	-3.3104	-3.6521	-3.2604	-3.3479	236.603	268.069	111.884	29.135	174.937	-10.860	140.587	237.091	248.806	87.808	120.402	5.467	247.890	-1.176	62.249	278.666	0.00023271	0.00076587	0.00017258	935.36	4.8591e-06	8.9218e-06	681.43	249.17	5.0175e-06	9.1851e-06	237.82	94.168	86.045	35.817	7.3728e-07	46.086	0.0024349	0.0027852	0.00078334	945.48	3.0079e-05	3.1075e-05	695.28	253.39	2.9679e-05	3.0937e-05	250.35	98.397	90.732	37.087	3.0214e-05	47.629	141.816	25.828	-16.752	-46.353	103.021	66.922	-47.730	-40.965	83.110	99.177	-43.240	-39.068	-37.001	-32.671	158.724	-35.165	-8191	255	
1969.749	1	1	0	0	0.19701	0.12699	0.084642	0.061713	0.23559	0.19857	0.29487	0.17247	0.12026	0.30299	0.23486	0.13343	0.0278	0.21755	0.15708	0.21864	-3.3083	-3.2062	-3.6021	-3.6292	-3.1083	-3.5958	-3.3646	-3.4021	-3.5104	-3.2792	-3.3229	-3.6354	-3.1125	-3.575	-3.4521	-3.2979	155.770	89.797	175.970	-24.122	177.599	105.003	257.439	13.315	10.932	-39.601	272.916	-51.743	162.762	262.222	279.142	246.894	0.0002552	0.00060257	7.8271e-05	937.8	6.0196e-06	3.0892e-06	686.48	250.45	4.5153e-06	8.0385e-06	239.15	94.725	86.165	35.76	9.6584e-07	45.749	0.0023865	0.0027632	0.00077081	945.59	2.9538e-05	3.0425e-05	698.96	253.94	2.8777e-05	3.015e-05	251.24	98.665	90.374	37.014	2.9282e-05	47.465	122.728	119.600	136.155	-46.397	122.125	143.768	-47.712	-41.133	52.622	100.635	-43.276	-39.374	-37.036	-32.055	-25.662	-35.457	-8191	255	
1969.846	1	1	0	0	0.069059	0.026428	0.23399	0.22622	0.22668	0.13657	0.053174	0.17559	0.080888	0.14703	0.17651	0.22638	0.20316	0.15734	0.25504	0.12958	-3.1521	-3.2396	-3.4125	-3.5438	-3.0958	-3.4708	-3.3979	-3.3292	-3.5521	-3.2125	-3.3604	-3.5187	-3.3	-3.4188	-3.425	-3.4875	242.913	134.446	185.175	298.257	138.087	-47.450	122.042	237.189	278.725	98.556	91.776	286.817	238.140	259.852	3.693	120.290	0.00017354	0.0006842	4.7777e-05	926.61	2.7785e-06	6.652e-06	669.88	246.65	4.5333e-06	4.5997e-06	232.51	92.832	84.583	35.194	3.7203e-06	44.777	0.0023382	0.0026719	0.00074743	936.25	2.8755e-05	2.9623e-05	683.98	250.33	2.8608e-05	2.9484e-05	244.12	96.347	88.876	36.303	2.8488e-05	46.353	118.541	63.776	6.042	-46.139	55.908	63.254	-47.663	-41.247	142.847	163.283	-43.307	-39.654	-36.954	-32.379	166.626	-35.313	-8191	255	
1969.942	1	1	0	0	0.15673	0.15834	0.08067	0.079558	0.17008	0.1417	0.38296	0.091513	0.1731	0.085211	0.15622	0.17906	0.096528	0.11489	0.20194	0.21985	-3.2708	-3.2854	-3.3479	-3.6271	-3.3146	-3.4583	-3.4125	-3.3542	-3.4021	-3.3833	-3.4646	-3.5438	-3.1	-3.4521	-3.4146	-3.3625	281.750	-5.583	97.318	251.581	95.835	278.418	272.630	-3.854	72.128	271.513	223.450	278.892	83.990	-33.663	58.755	136.661	0.00021339	0.00018311	0.00012609	921.56	7.4293e-06	3.8467e-06	668.97	246.1	5.6857e-06	8.4359e-06	235.18	93.356	84.554	35.34	4.8167e-06	45.169	0.0022808	0.0026634	0.00074331	930.64	2.8431e-05	2.9485e-05	682.59	249.66	2.8306e-05	2.927e-05	246.31	96.908	88.907	36.456	2.86e-05	46.711	94.376	239.490	6.076	-46.249	48.698	218.085	-47.468	-41.092	146.005	130.757	-43.154	-39.629	-37.077	-32.322	54.904	-35.323	-8191	255	
1970.062	1	1	0	0	0.077426	0.012045	0.1011	0.16706	0.039205	0.16823	0.25494	0.17093	0.069065	0.063321	0.11444	0.22263	0.22317	0.30372	0.10027	0.16047	-3.0812	-3.2938	-3.1771	-3.6896	-3.3063	-3.3	-3.4667	-3.2979	-3.6125	-3.3958	-3.375	-3.4604	-3.2062	-3.3812	-3.5	-3.1604	121.424	95.959	157.100	247.887	242.794	-43.528	201.141	272.309	111.770	241.666	118.301	292.647	224.725	-27.593	206.407	245.724	6.716e-05	8.0488e-05	0.00018178	927.09	2.0762e-06	2.3868e-06	674.67	245.68	3.5696e-06	5.0008e-06	234.28	93.76	85.234	35.312	2.0323e-06	45.651	0.0022842	0.0026146	0.00074536	936.06	2.8599e-05	2.9743e-05	687.44	249.97	2.8555e-05	2.9445e-05	246.64	97.414	89.287	36.594	2.9065e-05	47.087	220.916	103.108	25.684	-46.320	43.222	121.223	-47.321	-41.041	137.398	109.648	-43.505	-39.560	-37.244	-32.110	75.290	-35.258	-8191	255	
1970.159	1	1	0	0	0.17268	0.19191	0.21619	0.18999	0.095348	0.2335	0.066813	0.089091	0.091074	0.24699	0.074613	0.15642	0.13316	0.11397	0.13676	0.17981	-2.9917	-3.1792	-3.2521	-3.7417	-3.3187	-3.5146	-3.6104	-3.3354	-3.3625	-3.3229	-3.4104	-3.7042	-3.2687	-3.3438	-3.4917	-3.3167	101.322	-2.163	-1.764	96.155	199.799	19.245	13.943	-35.908	275.284	-2.948	128.922	-4.822	271.314	-11.734	184.396	207.183	0.00016156	0.00063245	9.1239e-05	930.34	3.7331e-06	4.1286e-06	666.27	244.98	4.096e-06	7.706e-07	231.91	92.269	84.077	34.828	1.3114e-06	44.411	0.0023115	0.0026564	0.00074637	936.41	2.8734e-05	2.963e-05	679.52	248.8	2.8513e-05	2.9922e-05	244.13	95.796	88.313	36.129	2.919e-05	46.043	105.124	-49.326	299.420	-46.235	203.050	111.725	-47.389	-41.188	152.608	-26.248	-43.733	-39.734	-37.050	-32.167	234.295	-35.544	-8191	255	
1970.230	1	1	0	0	0.18932	0.20602	0.17805	0.19273	0.10236	0.14724	0.1173	0.23738	0.11343	0.0068936	0.11024	0.09209	0.12623	0.16278	0.20282	0.1929	-3.1125	-3.5687	-3.2062	-3.7083	-3.2812	-3.4979	-3.6542	-3.2875	-3.5083	-3.3312	-3.2667	-3.6875	-3.4437	-3.4354	-3.5479	-3.1729	115.395	204.589	106.808	99.899	-53.565	275.730	-13.624	200.447	295.653	70.247	140.449	29.784	131.599	296.741	115.359	194.459	0.00026872	0.00067798	5.1271e-05	915.98	3.445e-06	4.8151e-06	660.07	241.95	5.0129e-06	8.2764e-06	231.41	91.807	84.384	34.853	7.5755e-06	44.535	0.0023454	0.0026691	0.00075623	921.42	2.8739e-05	2.9408e-05	673.06	245.92	2.8204e-05	2.9413e-05	243.32	95.526	88.185	36.034	2.9004e-05	46.192	115.468	66.474	120.776	-46.269	79.144	35.869	-47.441	-41.238	68.494	170.140	-43.444	-39.542	-36.954	-32.371	68.752	-35.158	-8191	255	
1970.326	1	1	0	0	0.014649	0.15442	0.090802	0.19787	0.18418	0.15376	0.19364	0.1926	0.049848	0.15087	0.045248	0.14878	0.39785	0.13953	0.24377	0.28812	-2.9042	-3.4562	-3.1417	-3.7979	-3.3521	-3.3583	-3.5646	-3.3563	-3.4417	-3.5375	-3.1917	-3.4562	-3.35	-3.4042	-3.7021	-3.4042	-45.730	272.668	26.435	239.703	179.731	179.171	222.180	281.528	62.251	122.590	110.702	-8.690	-33.330	-46.667	33.554	-49.909	0.00018883	0.0003246	0.00012061	911.7	2.4119e-06	4.3324e-06	666.68	243.33	4.0559e-06	3.4021e-06	234.78	93.402	84.624	35.473	5.7568e-06	45.539	0.0022994	0.0026506	0.00075036	921.71	2.8931e-05	2.9688e-05	677.69	246.86	2.8255e-05	2.9471e-05	246.32	96.998	88.498	36.494	2.8785e-05	47.115	127.612	138.341	68.333	-46.285	188.007	40.623	-47.232	-41.095	49.749	81.464	-43.095	-39.400	-37.484	-32.101	18.861	-35.264	-8191	255	
1970.447	1	1	0	0	0.14588	0.10493	0.20448	0.24612	0.11706	0.070369	0.29334	0.060125	0.081945	0.045056	0.23751	0.24611	0.20918	0.23069	0.03425	0.22314	-3.0438	-3.5479	-3.0792	-3.6292	-3.4479	-3.3333	-3.5292	-3.3125	-3.4167	-3.6375	-3.25	-3.5687	-3.3688	-3.1562	-3.5125	-3.3917	114.989	209.382	261.018	237.481	7.971	269.442	258.177	-29.284	210.821	36.822	206.369	245.171	240.136	224.599	236.352	191.036	0.0001843	0.00068765	3.166e-05	918.27	7.9336e-06	1.0271e-05	675.07	244.96	2.6594e-06	6.2562e-06	237.3	93.928	85.505	35.101	2.8475e-06	45.208	0.0023324	0.0026512	0.00074543	925.19	2.8996e-05	2.9767e-05	686.69	249	2.8761e-05	2.9736e-05	247.8	97.559	89.143	36.522	2.9044e-05	46.807	100.049	27.275	178.677	-46.394	92.700	82.475	-47.337	-41.228	284.903	8.125	-43.492	-39.415	-36.833	-32.209	60.182	-35.040	-8191	255	
1970.541	1	1	0	0	0.16064	0.26079	0.22655	0.12583	0.16791	0.1305	0.15359	0.075158	0.26149	0.093892	0.20905	0.10604	0.10968	0.040338	0.35185	0.16508	-2.8937	-3.6583	-3.1792	-3.6	-3.5104	-3.2896	-3.55	-3.3708	-3.2833	-3.5854	-3.2979	-3.4896	-3.3875	-3.1021	-3.4625	-3.4833	94.871	161.249	-11.308	142.902	192.852	46.061	157.630	168.693	181.413	114.718	285.227	151.901	286.754	181.196	118.633	156.237	0.00025552	0.00037186	3.911e-05	913.57	1.0006e-05	3.9567e-06	663.93	243.83	5.6108e-06	7.9801e-06	232.57	91.982	84.804	35.089	1.9102e-06	44.49	0.0023219	0.0027071	0.00076044	922.64	2.922e-05	2.9824e-05	676.7	248.44	2.8771e-05	2.9962e-05	244.08	95.989	88.634	36.308	2.927e-05	46.297	110.441	-38.202	-13.023	-46.284	120.660	9.331	-47.438	-41.276	101.074	41.912	-43.422	-39.374	-36.998	-32.011	146.657	-35.130	-8191	255	
1970.638	1	1	0	0	0.063547	0.1032	0.26245	0.29459	0.24484	0.077273	0.088127	0.18193	0.11885	0.21471	0.094662	0.14855	0.093488	0.081062	0.30819	0.20462	-2.7604	-3.4771	-3.2479	-3.5104	-3.4062	-3.1813	-3.4854	-3.2875	-3.2104	-3.5083	-3.2583	-3.4375	-3.4667	-3.2708	-3.4917	-3.4	11.611	127.142	-21.821	298.659	195.459	-4.407	-52.740	-0.938	-13.092	191.179	160.723	197.880	51.468	250.730	178.931	248.154	0.00023679	0.00012768	0.00010259	923.34	7.5681e-06	8.4557e-06	669.64	246.11	3.9743e-06	6.8402e-06	235.88	93.252	85.516	35.287	3.9889e-06	45.392	0.0023193	0.0026653	0.00075237	929.9	2.8898e-05	2.9495e-05	681.22	249.89	2.8406e-05	2.9502e-05	247.06	96.89	89.544	36.662	2.8864e-05	46.962	109.879	215.769	69.026	-46.451	84.780	39.376	-47.462	-41.347	209.909	115.356	-43.337	-39.550	-37.057	-32.098	204.499	-35.156	-8191	255	
#DATA ENDS
