BOXY.EXE: ISS Imagent and Oximeter Data Acquisition Program Version 0.80
Ascii Record File

#ACQ INFORMATION
2  Detector Channels 
16  External MUX Channels 
1  Auxiliary Channels 
5000  Waveform (CCF) Frequency (Hz)
1  Waveforms Skipped 
30  Waveforms Averaged 
1  Cycles Averaged 
16  Acquisitions per Waveform 
10.0806  Updata Rate (Hz) 

#FILE INFORMATION
TRUE -- External MUX Channel results are PARSED.
FALSE -- AC DC and Phase are NOT grouped.
TRUE -- Companion Program Settings File CREATED.
FALSE -- AC data not excluded
FALSE -- DC data not excluded
FALSE -- Phase data not excluded
FALSE -- Auxillary Chn. data not excluded
Tab delimiters

#CALIBRATION STATE
TRUE -- Waveform Calibration Values APPLIED.


#AUX CALIBRATION VALUES
Val Type	aux-1	

Term	1.0000e+00	
Factor	0.0000e+00	


#WF CALIBRATION VALUES
A = Detector Channel
Val Type	A-AC1	A-AC2	A-AC3	A-AC4	A-AC5	A-AC6	A-AC7	A-AC8	A-AC9	A-AC10	A-AC11	A-AC12	A-AC13	A-AC14	A-AC15	A-AC16	A-DC1	A-DC2	A-DC3	A-DC4	A-DC5	A-DC6	A-DC7	A-DC8	A-DC9	A-DC10	A-DC11	A-DC12	A-DC13	A-DC14	A-DC15	A-DC16	A-Ph1	A-Ph2	A-Ph3	A-Ph4	A-Ph5	A-Ph6	A-Ph7	A-Ph8	A-Ph9	A-Ph10	A-Ph11	A-Ph12	A-Ph13	A-Ph14	A-Ph15	A-Ph16	

Term	0.00000e+00	0.00000e+00	0.00000e+00	0.00000e+00	0.00000e+00	0.00000e+00	0.00000e+00	0.00000e+00	0.00000e+00	0.00000e+00	0.00000e+00	0.00000e+00	0.00000e+00	0.00000e+00	0.00000e+00	0.00000e+00	0.00000e+00	0.00000e+00	0.00000e+00	0.00000e+00	0.00000e+00	0.00000e+00	0.00000e+00	0.00000e+00	0.00000e+00	0.00000e+00	0.00000e+00	0.00000e+00	0.00000e+00	0.00000e+00	0.00000e+00	0.00000e+00	0.00000e+00	0.00000e+00	0.00000e+00	0.00000e+00	0.00000e+00	0.00000e+00	0.00000e+00	0.00000e+00	0.00000e+00	0.00000e+00	0.00000e+00	0.00000e+00	0.00000e+00	0.00000e+00	0.00000e+00	0.00000e+00	
Factor	1.00000e+00	1.00000e+00	1.00000e+00	1.00000e+00	1.00000e+00	1.00000e+00	1.00000e+00	1.00000e+00	1.00000e+00	1.00000e+00	1.00000e+00	1.00000e+00	1.00000e+00	1.00000e+00	1.00000e+00	1.00000e+00	1.00000e+00	1.00000e+00	1.00000e+00	1.00000e+00	1.00000e+00	1.00000e+00	1.00000e+00	1.00000e+00	1.00000e+00	1.00000e+00	1.00000e+00	1.00000e+00	1.00000e+00	1.00000e+00	1.00000e+00	1.00000e+00	X	X	X	X	X	X	X	X	X	X	X	X	X	X	X	X	

B = Detector Channel
Val Type	B-AC1	B-AC2	B-AC3	B-AC4	B-AC5	B-AC6	B-AC7	B-AC8	B-AC9	B-AC10	B-AC11	B-AC12	B-AC13	B-AC14	B-AC15	B-AC16	B-DC1	B-DC2	B-DC3	B-DC4	B-DC5	B-DC6	B-DC7	B-DC8	B-DC9	B-DC10	B-DC11	B-DC12	B-DC13	B-DC14	B-DC15	B-DC16	B-Ph1	B-Ph2	B-Ph3	B-Ph4	B-Ph5	B-Ph6	B-Ph7	B-Ph8	B-Ph9	B-Ph10	B-Ph11	B-Ph12	B-Ph13	B-Ph14	B-Ph15	B-Ph16	

Term	0.00000e+00	0.00000e+00	0.00000e+00	0.00000e+00	0.00000e+00	0.00000e+00	0.00000e+00	0.00000e+00	0.00000e+00	0.00000e+00	0.00000e+00	0.00000e+00	0.00000e+00	0.00000e+00	0.00000e+00	0.00000e+00	0.00000e+00	0.00000e+00	0.00000e+00	0.00000e+00	0.00000e+00	0.00000e+00	0.00000e+00	0.00000e+00	0.00000e+00	0.00000e+00	0.00000e+00	0.00000e+00	0.00000e+00	0.00000e+00	0.00000e+00	0.00000e+00	-1.83054e+02	-1.28695e+02	-1.24060e+02	-1.82730e+02	-8.03315e+01	-6.64456e+01	-1.55606e+02	-1.62015e+02	-9.22986e+01	-6.89241e+01	-1.72279e+02	-1.70080e+02	-1.79579e+02	-1.77215e+02	-7.89233e+01	-1.49329e+02	
Factor	2.99331e-05	1.55479e-04	4.19442e-05	1.61934e-01	1.57654e-06	1.69154e-06	1.52548e-01	4.60961e-02	1.71663e-06	1.67939e-06	8.77263e-02	2.69812e-02	2.54748e-02	8.56556e-03	1.66169e-06	1.23162e-02	1.73125e-05	3.46895e-05	9.63778e-06	8.07384e-02	3.25976e-07	3.93007e-07	7.18427e-02	2.31086e-02	3.21270e-07	3.94494e-07	4.28785e-02	1.32135e-02	1.29370e-02	4.33807e-03	3.46650e-07	6.07619e-03	X	X	X	X	X	X	X	X	X	X	X	X	X	X	X	X	



#DISTANCE SETTINGS
A = Detector Channel
A-1	A-2	A-3	A-4	A-5	A-6	A-7	A-8	A-9	A-10	A-11	A-12	A-13	A-14	A-15	A-16	

2.5000e+00	3.0000e+00	2.5000e+00	3.0000e+00	2.0000e+00	3.0000e+00	1.5000e+00	3.0000e+00	3.0000e+00	3.0000e+00	3.0000e+00	3.0000e+00	3.0000e+00	3.0000e+00	1.5000e+00	3.0000e+00	

B = Detector Channel
B-1	B-2	B-3	B-4	B-5	B-6	B-7	B-8	B-9	B-10	B-11	B-12	B-13	B-14	B-15	B-16	

1.0000e+01	1.0000e+01	1.0000e+01	1.4400e+00	1.0000e+01	1.0000e+01	1.5100e+00	1.9400e+00	1.0000e+01	1.0000e+01	1.9900e+00	2.4900e+00	2.4100e+00	2.9000e+00	1.0000e+01	2.9800e+00	




#DATA BEGINS
time	group	step	mark	flag	A-AC1	A-AC2	A-AC3	A-AC4	A-AC5	A-AC6	A-AC7	A-AC8	A-AC9	A-AC10	A-AC11	A-AC12	A-AC13	A-AC14	A-AC15	A-AC16	A-DC1	A-DC2	A-DC3	A-DC4	A-DC5	A-DC6	A-DC7	A-DC8	A-DC9	A-DC10	A-DC11	A-DC12	A-DC13	A-DC14	A-DC15	A-DC16	A-Ph1	A-Ph2	A-Ph3	A-Ph4	A-Ph5	A-Ph6	A-Ph7	A-Ph8	A-Ph9	A-Ph10	A-Ph11	A-Ph12	A-Ph13	A-Ph14	A-Ph15	A-Ph16	B-AC1	B-AC2	B-AC3	B-AC4	B-AC5	B-AC6	B-AC7	B-AC8	B-AC9	B-AC10	B-AC11	B-AC12	B-AC13	B-AC14	B-AC15	B-AC16	B-DC1	B-DC2	B-DC3	B-DC4	B-DC5	B-DC6	B-DC7	B-DC8	B-DC9	B-DC10	B-DC11	B-DC12	B-DC13	B-DC14	B-DC15	B-DC16	B-Ph1	B-Ph2	B-Ph3	B-Ph4	B-Ph5	B-Ph6	B-Ph7	B-Ph8	B-Ph9	B-Ph10	B-Ph11	B-Ph12	B-Ph13	B-Ph14	B-Ph15	B-Ph16	aux-1	digaux	

39947.992	1	1	0	256	0.15295	0.089703	0.079797	0.33761	0.099436	0.20228	0.34732	0.33708	0.072659	0.18055	0.093547	0.24296	0.091652	0.13009	0.26018	0.15842	-2.75	-3.05	-3.1125	-3.2938	-3.1667	-2.7938	-3.3292	-3.3	-3.0583	-3.2583	-3.0396	-3.3792	-3.1667	-2.9583	-3.2667	-2.9229	482.685	339.916	280.062	165.118	472.959	180.225	457.419	437.263	299.434	225.450	427.077	403.599	492.522	353.059	334.337	394.763	0.00096619	0.00055911	0.00010457	1339.5	4.3991e-06	5.8929e-06	1335.9	361.66	8.472e-06	6.2674e-06	410.15	138.58	120.29	40.606	4.9893e-06	50.318	0.00081459	0.00083464	0.00021195	1364.1	8.6418e-06	8.656e-06	1361	368.07	9.0752e-06	8.2153e-06	421.29	141.61	122.81	41.982	7.9339e-06	52.194	499.280	252.136	255.296	171.031	289.892	306.548	170.701	175.645	276.883	302.753	174.973	178.991	179.560	184.693	287.082	183.746	-8191	255	
39948.090	1	1	0	0	0.02346	0.20803	0.23589	0.34355	0.30164	0.24779	0.5611	0.16666	0.23253	0.056485	0.24083	0.31634	0.17479	0.31559	0.22844	0.30121	-2.5333	-3.1333	-2.6354	-3.1417	-3.1417	-3.0021	-3.325	-3.1688	-3.0375	-3.3563	-3.2083	-3.2667	-3.1479	-2.8563	-3.1792	-3.2792	346.132	206.712	231.579	492.578	367.290	398.859	451.006	500.159	229.133	171.975	191.153	490.837	194.497	491.900	199.736	479.018	0.00098699	0.00060024	0.00013215	1339.4	4.5722e-06	5.196e-06	1338.8	359.81	6.5253e-06	3.3092e-06	412.43	138.24	119.95	40.718	5.4903e-06	50.469	0.0008125	0.00075876	0.00021627	1362.3	8.3559e-06	8.2933e-06	1361.7	367.77	8.9654e-06	8.4315e-06	422.12	141.47	122.57	41.981	8.3405e-06	52.234	499.513	247.005	255.325	170.965	272.745	310.315	170.615	175.672	257.212	293.180	175.244	179.021	179.584	184.567	278.991	183.672	-8191	255	
39948.211	1	1	0	0	0.13616	0.18899	0.25962	0.32587	0.21497	0.19638	0.061422	0.37343	0.20779	0.13591	0.26492	0.26125	0.11273	0.17998	0.31395	0.31205	-2.4833	-3.0812	-2.7062	-3.2583	-3.0375	-2.8688	-3.3375	-3.1854	-3.0521	-3.1833	-3.0521	-3.2042	-3.1063	-2.875	-3.1813	-3.1646	453.773	506.571	295.463	480.923	210.098	321.349	495.224	469.946	187.829	243.805	448.489	463.966	506.093	496.135	508.643	474.987	0.00094839	0.00049827	0.00014856	1339.1	6.0701e-06	5.6267e-06	1333.8	361.05	7.8592e-06	4.6722e-06	411.22	138.72	120.17	40.872	5.3281e-06	50.401	0.00078346	0.00073	0.00022542	1363.5	8.1772e-06	8.1516e-06	1361	368.5	8.2031e-06	8.2441e-06	421.85	141.6	122.87	42.025	8.3044e-06	52.285	498.485	231.526	239.447	171.084	288.009	308.240	170.707	175.626	258.511	302.453	175.234	178.842	179.286	184.654	300.980	183.837	-8191	255	
39948.305	1	1	0	0	0.11068	0.071349	0.15119	0.26242	0.16925	0.076212	0.13909	0.13917	0.17289	0.19121	0.30081	0.21871	0.21988	0.099504	0.22433	0.022343	-2.4562	-3.0792	-2.9583	-3.0917	-3.2375	-2.9417	-3.5042	-3.1917	-3.025	-3.1083	-2.9083	-3.2458	-3.3208	-2.9938	-3.1583	-3.1625	378.563	390.071	180.386	459.298	375.570	370.502	449.606	498.936	287.274	187.053	207.889	417.701	166.309	214.133	502.177	479.693	0.00095041	0.00042355	0.00015205	1340.6	5.4202e-06	5.2202e-06	1335.1	360.71	7.687e-06	4.8262e-06	413.61	138.43	120.06	40.773	5.1059e-06	50.659	0.00078289	0.00074864	0.00022454	1366.2	7.8397e-06	8.2368e-06	1363	368.38	7.9936e-06	7.9186e-06	422.59	141.77	122.8	42.047	8.3449e-06	52.233	499.216	241.224	247.337	170.945	284.139	311.560	170.526	175.568	254.667	315.698	175.015	178.964	179.494	184.690	271.187	183.686	-8191	255	
39948.402	1	1	0	0	0.097935	0.20253	0.17217	0.30153	0.309	0.14151	0.33489	0.24628	0.27399	0.14724	0.072722	0.20972	0.19899	0.36759	0.19958	0.082181	-2.4688	-3.0521	-2.9708	-3.1521	-3.0208	-2.8208	-3.2521	-3.2458	-2.6208	-3.2938	-3.0396	-2.9958	-3.2562	-2.9167	-3.1312	-3.2646	311.024	264.254	203.458	488.197	508.299	298.268	433.452	412.629	279.494	167.077	486.895	424.978	417.310	461.496	168.708	210.442	0.00092808	0.0004835	0.0001827	1339.9	5.5113e-06	5.7195e-06	1335	359.93	6.9632e-06	5.015e-06	410	138.38	119.63	40.657	4.7273e-06	50.48	0.0007497	0.00075934	0.00021811	1366	7.2706e-06	8.3923e-06	1362.5	367.73	7.244e-06	8.1595e-06	421.22	141.5	122.58	41.951	8.1304e-06	52.248	500.699	250.406	262.125	171.128	284.642	304.262	170.741	175.525	262.250	300.485	175.278	179.027	179.558	184.544	284.590	183.668	-8191	255	
39948.496	1	1	0	0	0.10059	0.15096	0.046233	0.35482	0.2024	0.12622	0.32364	0.32782	0.01389	0.10965	0.32896	0.14241	0.25969	0.2117	0.097639	0.14615	-2.325	-3.0979	-3.0042	-3.1667	-3.3458	-2.8688	-3.3021	-3.2771	-2.7167	-3.1937	-3.3417	-2.9	-3.2604	-3.0083	-2.8333	-3.3021	276.889	256.596	513.374	499.279	312.817	476.916	445.175	456.336	193.376	240.875	442.432	380.477	480.642	446.407	188.909	384.666	0.00098597	0.00053431	0.00014175	1340.4	4.4829e-06	3.9285e-06	1337.9	361.29	6.8994e-06	5.2209e-06	411.73	138.98	120.15	40.91	5.7067e-06	50.377	0.00073741	0.00073788	0.00021103	1363.9	7.2835e-06	8.2474e-06	1362.2	368.23	7.6783e-06	8.0773e-06	422.45	141.65	122.67	42.073	8.108e-06	52.231	498.757	245.586	247.428	171.341	286.321	323.291	170.734	175.501	267.530	310.150	175.332	179.301	179.600	184.834	273.277	183.901	-8191	255	
39948.594	1	1	0	0	0.22178	0.14877	0.13695	0.26523	0.15987	0.23257	0.26804	0.17119	0.16049	0.083704	0.32027	0.12821	0.27021	0.24951	0.17765	0.27244	-2.2729	-3.0604	-2.9625	-2.9875	-3.1542	-2.8438	-3.1583	-3.2083	-2.6646	-3.2042	-3.1646	-3.1042	-3.2292	-3.1312	-2.9896	-3.3083	293.244	374.436	301.705	473.620	448.608	478.491	402.144	486.888	166.352	211.711	499.515	210.623	311.548	421.336	209.415	459.749	0.00091593	0.00046079	0.00018323	1337.7	6.6762e-06	4.0378e-06	1335.9	361.21	7.7218e-06	4.8202e-06	409.87	138.53	120.29	40.703	7.049e-06	50.321	0.00074242	0.0007756	0.00020868	1362.9	7.2136e-06	8.4423e-06	1360.8	368.26	7.7546e-06	8.1997e-06	421.14	141.49	122.91	41.969	7.7346e-06	52.152	499.629	231.932	244.982	171.092	271.839	315.267	170.746	175.380	264.597	298.410	175.188	179.077	179.405	184.768	270.291	183.747	-8191	255	
39948.688	1	1	0	0	0.11063	0.43385	0.056824	0.24203	0.22069	0.081002	0.10446	0.22256	0.08044	0.081146	0.2277	0.055352	0.12335	0.22347	0.16026	0.3786	-2.4313	-3.0167	-2.9229	-3.0875	-3.2333	-2.8292	-3.2625	-3.3375	-2.7833	-3.125	-3.0687	-2.8604	-3.2646	-2.8542	-2.8604	-3.1125	489.642	242.035	318.766	475.106	250.577	400.928	463.037	464.698	467.401	336.892	431.070	346.999	191.626	431.263	230.596	502.598	0.00091661	0.00058172	0.00012119	1335.8	5.1422e-06	4.8739e-06	1328.3	360.61	7.8363e-06	5.1243e-06	409.21	138.46	119.79	40.828	4.9758e-06	50.507	0.00072283	0.00073896	0.00020135	1359.7	7.4119e-06	8.3735e-06	1357	367.81	7.4876e-06	8.2384e-06	420.84	141.41	122.73	42.011	7.4465e-06	52.177	499.546	255.730	245.642	171.120	289.785	307.556	170.797	175.523	247.918	307.525	175.077	179.056	179.437	184.599	285.272	183.710	-8191	255	
39948.809	1	1	0	0	0.21772	0.078048	0.21019	0.35586	0.14664	0.13004	0.28032	0.071946	0.20341	0.070281	0.19776	0.21219	0.19156	0.042632	0.26424	0.14572	-2.5042	-3.0417	-3.0125	-3.0021	-3.2	-2.9792	-3.125	-3.4396	-2.775	-3.1021	-3.2729	-2.975	-3.3167	-3.1188	-2.8146	-3.1583	486.284	327.421	239.741	403.014	389.330	384.987	489.381	168.503	303.263	454.345	409.422	493.399	499.060	514.723	404.605	442.366	0.00094394	0.00046247	0.00012435	1331.5	6.7823e-06	5.1525e-06	1334.9	359.62	8.0143e-06	5.1509e-06	412.92	138.91	119.89	40.708	7.4788e-06	50.581	0.00073997	0.00076707	0.00019219	1358.5	7.8377e-06	8.159e-06	1357.6	367.55	8.1261e-06	8.3082e-06	421.16	141.35	122.73	42.008	7.7166e-06	52.241	500.484	259.015	254.421	171.147	281.659	301.900	170.574	175.621	265.224	307.154	175.086	178.979	179.573	184.824	282.464	183.690	-8191	255	
39948.906	1	1	0	0	0.0888	0.24897	0.24988	0.24203	0.29223	0.13719	0.23733	0.25701	0.21438	0.089272	0.20537	0.096209	0.17172	0.15651	0.15619	0.036394	-2.6417	-2.9896	-3.1729	-2.9	-3.3104	-3.0729	-3.2583	-3.3479	-3.0875	-3.15	-3.3354	-2.9813	-3.1375	-3.2521	-2.8312	-3.2896	369.321	514.446	381.632	434.784	469.477	411.318	457.086	427.522	184.571	508.107	394.031	310.606	267.155	172.360	356.004	275.340	0.00090277	0.00059522	0.00015929	1335.6	6.2025e-06	4.0617e-06	1331.6	361.41	8.8983e-06	5.9914e-06	410.82	138.85	120.36	40.796	5.319e-06	50.38	0.00076081	0.00074322	0.00018414	1360.8	8.0292e-06	7.8945e-06	1357.5	367.95	8.4039e-06	8.4175e-06	421.83	141.58	123.05	42.054	7.5447e-06	52.234	499.793	255.721	258.250	171.105	288.794	305.054	170.749	175.697	272.952	294.076	175.259	178.829	179.597	184.555	283.798	183.827	-8191	255	
39949.000	1	1	0	0	0.21329	0.35944	0.23508	0.36367	0.088222	0.2669	0.2269	0.23242	0.34495	0.21765	0.088344	0.38253	0.36452	0.10763	0.033309	0.084388	-2.4833	-2.9229	-3.0938	-3.0354	-3.0687	-3.1271	-3.0042	-3.3312	-2.8875	-2.9667	-3.1521	-3.0583	-3.1479	-3.2229	-2.875	-3.1688	480.936	282.622	405.202	516.905	233.898	324.652	464.207	305.930	215.647	223.044	311.529	212.446	289.064	227.611	443.496	358.408	0.00094235	0.00044582	0.0001351	1341.2	4.3692e-06	4.8196e-06	1334.3	361.07	6.0099e-06	5.9827e-06	413.12	138.29	120.27	40.945	6.5636e-06	50.491	0.00077896	0.00074358	0.00019414	1363	8.0645e-06	8.0869e-06	1360.3	368.47	8.2051e-06	8.3452e-06	422.15	141.68	122.85	42.106	7.6364e-06	52.289	497.759	260.817	239.423	171.134	273.817	308.100	170.578	175.492	266.693	317.258	175.248	179.023	179.794	184.858	283.805	183.671	-8191	255	
39949.098	1	1	0	0	0.13685	0.17751	0.075701	0.15171	0.16623	0.12451	0.10047	0.17744	0.089094	0.038244	0.15258	0.074272	0.23849	0.36604	0.21569	0.13626	-2.5792	-2.8667	-3.2979	-3.1188	-3.0687	-3.0167	-3.325	-3.1562	-3.1625	-2.9708	-3.3833	-3.0458	-2.9792	-3.0396	-2.85	-3.3354	243.017	294.239	385.080	477.969	318.536	472.428	367.248	490.924	159.558	224.086	490.230	269.971	384.109	504.204	356.268	502.434	0.00094958	0.00064453	0.00011702	1343.7	6.8893e-06	3.6113e-06	1338.5	360.94	7.8737e-06	5.2559e-06	412.62	138.84	120.42	40.886	5.2177e-06	50.58	0.00076997	0.00072075	0.00019137	1365	8.0068e-06	7.5081e-06	1361.3	368.73	8.0873e-06	7.8274e-06	422.79	141.67	123	42.084	7.3186e-06	52.332	500.696	249.791	247.469	170.984	272.939	320.938	170.645	175.466	261.006	297.582	175.155	178.896	179.391	184.738	285.522	183.768	-8191	255	
39949.195	1	1	0	0	0.13449	0.077345	0.044141	0.22259	0.19547	0.34073	0.083147	0.18094	0.15397	0.025303	0.10385	0.092499	0.17365	0.28553	0.1425	0.10328	-2.6708	-2.9562	-3.1771	-3.2062	-2.7979	-3.1813	-3.0167	-3.4125	-3.0042	-3.0125	-3.2875	-3.0938	-3.0312	-3.2625	-2.7625	-3.2958	311.174	183.029	439.518	201.390	275.047	338.717	424.449	414.347	195.975	401.933	166.994	163.160	440.861	256.391	394.631	360.587	0.0009835	0.00051738	0.00015158	1338.8	7.3517e-06	5.2815e-06	1333.9	360.5	8.7969e-06	4.5046e-06	411.44	138.62	120.33	40.87	5.4835e-06	50.487	0.00076002	0.00071309	0.00019412	1363.1	8.163e-06	7.477e-06	1360.9	367.74	7.8785e-06	7.2899e-06	421.86	141.58	122.97	42.047	7.8061e-06	52.242	498.345	253.488	251.613	171.165	280.655	309.022	170.661	175.603	254.134	291.689	175.172	178.781	179.518	184.607	283.361	183.693	-8191	255	
39949.289	1	1	0	0	0.13576	0.03082	0.18387	0.40101	0.16626	0.10024	0.15986	0.10574	0.1727	0.044995	0.16324	0.17636	0.2123	0.12122	0.12457	0.26718	-2.8771	-2.8688	-2.9917	-3.1771	-3.1208	-3.0521	-3.2021	-3.2479	-3.0125	-3.1792	-3.4104	-3.1667	-3.1521	-3.3063	-2.9313	-3.1021	336.822	314.594	257.639	471.458	433.586	374.828	416.329	417.009	316.192	401.940	467.018	158.914	411.734	492.181	468.609	470.157	0.00096341	0.00050027	0.00012218	1337.9	6.014e-06	5.1555e-06	1332	360.86	7.936e-06	5.5214e-06	411.43	138.81	120.23	40.639	4.8308e-06	50.62	0.00073632	0.00070911	0.00020045	1362.4	7.5633e-06	7.5842e-06	1358.7	367.93	7.2928e-06	7.4872e-06	421.6	141.53	122.95	42.02	7.9506e-06	52.289	499.812	265.604	245.037	170.890	277.464	300.907	170.570	175.633	265.777	308.660	175.340	178.823	179.464	184.804	294.138	183.592	-8191	255	
39949.387	1	1	0	0	0.13014	0.11755	0.19253	0.18234	0.12648	0.12944	0.23678	0.32787	0.14672	0.10143	0.040941	0.063672	0.24278	0.09605	0.20367	0.050244	-2.9792	-3.1188	-3.2313	-3.1729	-2.7625	-3.1729	-3.0625	-3.2729	-3.2854	-2.9917	-3.2833	-3.1292	-3.0854	-3.2417	-2.9417	-3.1437	516.118	244.680	258.405	408.254	480.922	336.561	463.248	451.404	253.495	242.832	240.282	282.259	390.435	439.872	378.324	504.960	0.00096907	0.00047294	0.00014167	1344	5.1209e-06	5.7102e-06	1335.4	361.09	9.0742e-06	4.4411e-06	413.1	138.62	120.12	40.79	5.1995e-06	50.392	0.00072493	0.00071988	0.00020488	1366.2	7.1783e-06	7.2821e-06	1364.6	368.34	7.2031e-06	7.9022e-06	422.37	141.64	122.9	41.982	7.6126e-06	52.272	499.291	241.521	237.436	171.159	273.351	300.076	170.622	175.381	247.969	309.017	175.075	178.953	179.505	184.825	281.347	184.036	-8191	255	
39949.504	1	1	0	0	0.15131	0.27294	0.13754	0.23223	0.13469	0.062034	0.27601	0.25738	0.23254	0.074714	0.06242	0.1363	0.1062	0.14545	0.17563	0.31375	-2.9917	-2.6521	-3.2062	-3.5333	-2.7729	-3.1896	-3.1625	-3.1813	-3.1437	-3.0333	-3.3042	-3.2958	-2.9958	-3.4333	-3.2646	-3.0854	324.683	213.228	393.262	435.487	404.541	294.542	436.676	492.311	433.545	158.917	464.737	456.468	170.064	458.153	422.660	490.129	0.001004	0.00059945	9.4919e-05	1342.3	7.1843e-06	4.1972e-06	1336.2	361.2	8.6235e-06	6.0522e-06	411.65	138.59	120.05	40.885	5.2592e-06	50.292	0.00074588	0.00072646	0.00020294	1364.2	7.1525e-06	7.8724e-06	1362.5	367.99	7.0184e-06	7.6376e-06	421.33	141.47	122.62	41.999	7.4941e-06	52.153	499.287	250.598	245.584	170.980	285.602	314.901	170.787	175.683	259.867	300.496	175.207	179.015	179.573	184.824	280.655	184.047	-8191	255	
39949.602	1	1	0	0	0.24667	0.11693	0.31371	0.24742	0.20694	0.057846	0.25968	0.25484	0.13187	0.20049	0.21441	0.066504	0.080641	0.1033	0.22042	0.19934	-2.8312	-2.875	-3.2333	-3.325	-2.9	-3.1854	-3.1958	-3.0542	-3.1896	-2.9813	-3.1417	-3.5333	-2.8021	-3.3979	-3.0229	-2.9042	388.016	235.342	178.200	467.972	497.504	337.878	479.858	476.425	354.693	435.235	485.704	447.515	430.927	316.332	461.759	402.358	0.00094508	0.00061342	9.6526e-05	1337.7	6.0314e-06	5.0271e-06	1327.3	356.34	6.8632e-06	3.7824e-06	409.73	137.57	118.86	40.485	4.527e-06	50.078	0.00068002	0.00068772	0.00018591	1357.2	6.4326e-06	7.0578e-06	1353.1	365.03	6.5552e-06	7.128e-06	418.47	140.69	122.05	41.676	6.7979e-06	51.825	499.307	250.258	250.684	171.260	283.658	307.285	170.808	175.542	259.417	303.595	174.893	179.086	179.569	184.758	267.503	183.686	-8191	255	
39949.695	1	1	0	0	0.073532	0.1745	0.045339	0.36875	0.28584	0.23652	0.38143	0.32829	0.15638	0.091239	0.1997	0.13971	0.089155	0.11524	0.10595	0.26225	-2.9583	-2.9208	-2.9792	-3.3021	-2.9521	-3.225	-3.3479	-2.8792	-3.1354	-2.9833	-2.9604	-3.2271	-3.0833	-3.2042	-3.2125	-3.0167	346.716	278.855	196.404	468.700	499.284	507.477	445.333	476.231	350.169	275.741	176.667	496.567	357.142	460.548	509.155	263.603	0.00092523	0.00052492	0.00012915	1321.9	5.6981e-06	4.747e-06	1321.6	356.94	8.1724e-06	5.597e-06	408.16	136.91	119.47	40.401	3.9209e-06	50.071	0.00067418	0.00069032	0.0001737	1349	6.7674e-06	7.1249e-06	1347.2	364.56	6.5224e-06	7.0672e-06	418.23	140.36	121.94	41.713	6.7156e-06	51.892	499.595	249.132	250.910	170.989	260.525	293.986	170.581	175.596	270.430	303.252	175.102	178.914	179.573	184.639	289.184	184.017	-8191	255	
39949.770	1	1	0	0	0.21962	0.17612	0.15653	0.49125	0.20064	0.074299	0.44044	0.27791	0.32594	0.1615	0.20633	0.044214	0.30554	0.14644	0.11555	0.13676	-2.7562	-3.0667	-2.9125	-3.3812	-2.8208	-3.1729	-3.3292	-3.1104	-3.0542	-3.0854	-3.0208	-3.5104	-3.1146	-3.2354	-3.2333	-3.0438	308.926	376.590	500.765	489.669	215.180	489.757	458.863	516.527	417.195	224.257	370.555	237.737	495.110	483.257	289.920	185.066	0.00097764	0.00065402	0.00011215	1324.2	6.005e-06	4.2095e-06	1321.1	357.65	8.5398e-06	5.596e-06	410.04	137.49	118.68	40.589	6.3686e-06	50.293	0.00069434	0.00069957	0.00017495	1349.4	6.9202e-06	7.043e-06	1348.3	364.45	7.0847e-06	7.4461e-06	418.43	140.53	121.62	41.745	6.6391e-06	51.914	500.345	260.489	268.476	171.296	278.786	324.572	170.617	175.694	262.409	310.161	175.197	179.089	179.492	184.663	285.964	183.848	-8191	255	
39949.891	1	1	0	0	0.20763	0.145	0.17885	0.21421	0.20469	0.20998	0.23017	0.23149	0.22059	0.25946	0.14261	0.12561	0.32222	0.14492	0.07043	0.19972	-2.8104	-3.1125	-3.0271	-3.3625	-2.925	-3.1333	-3.2583	-3.0125	-3.2479	-2.9688	-3.0604	-3.2375	-3.1021	-3.2458	-3.2438	-3.0708	334.692	458.472	438.699	492.599	187.128	343.103	410.284	400.286	258.442	409.120	478.153	359.085	165.171	460.733	209.428	326.692	0.00094752	0.00045368	0.00015163	1328.4	6.7899e-06	5.4662e-06	1324	358.67	8.0602e-06	5.1475e-06	407.75	137.31	119.47	40.568	4.6363e-06	50.186	0.00072893	0.00069242	0.00017549	1351	7.3786e-06	7.6907e-06	1350.7	365.03	7.6168e-06	7.7419e-06	417.69	140.61	122.11	41.768	6.673e-06	51.893	498.459	251.287	250.527	171.103	276.441	314.893	170.842	175.580	264.918	287.335	175.133	178.908	179.563	184.820	294.191	183.632	-8191	255	
39949.984	1	1	0	0	0.091914	0.085404	0.10348	0.26152	0.060602	0.055002	0.3031	0.4299	0.071886	0.28131	0.37248	0.13285	0.077348	0.21162	0.070603	0.0089288	-2.7042	-3.125	-2.8458	-3.3604	-2.9792	-2.9146	-3.5333	-3.1688	-3.2833	-3.0521	-3.0229	-3.3833	-3.3104	-2.9854	-3.3604	-2.9708	278.198	168.848	267.737	450.475	326.835	188.794	411.619	479.793	483.027	237.620	472.102	479.074	243.426	515.016	331.367	447.881	0.00093089	0.00039802	0.00010292	1331.9	6.1109e-06	5.2221e-06	1326.7	357.73	8.0254e-06	5.5802e-06	408.14	138	119.21	40.532	5.322e-06	49.92	0.00071706	0.00069437	0.00017342	1352.7	7.6326e-06	7.6399e-06	1349.8	364.76	7.4829e-06	7.3631e-06	418.76	140.42	121.86	41.655	6.7691e-06	51.744	500.869	257.606	247.460	171.009	294.131	319.164	170.588	175.625	255.609	299.963	175.267	179.098	179.516	184.771	298.335	183.858	-8191	255	
39950.082	1	1	0	0	0.19936	0.18175	0.045174	0.21679	0.040441	0.11605	0.31252	0.11142	0.22807	0.085551	0.16086	0.314	0.10722	0.10902	0.14927	0.23256	-2.7146	-3.1979	-3.0042	-3.4083	-3.1208	-3.0396	-3.5312	-3.1125	-3.1562	-3.1979	-2.9979	-3.45	-3.0521	-3.0354	-3.3708	-3.2313	374.036	297.888	344.838	447.675	285.734	375.136	432.270	387.241	290.146	162.706	385.695	515.561	359.469	425.358	315.526	418.123	0.0009412	0.00046433	0.00011839	1331.1	5.1628e-06	4.0829e-06	1327.7	357.35	7.0859e-06	5.8576e-06	409.36	138.22	119.38	40.501	5.3825e-06	50.222	0.00074224	0.00067493	0.0001846	1353.5	7.6509e-06	7.5916e-06	1353	365	7.8135e-06	7.5463e-06	419.11	140.86	122.06	41.681	7.2435e-06	51.885	500.323	248.244	246.525	171.098	288.317	316.787	170.655	175.633	263.725	320.378	175.235	179.009	179.464	184.603	293.258	183.721	-8191	255	
39950.199	1	1	0	0	0.20431	0.15113	0.29632	0.19884	0.20451	0.28921	0.2898	0.37597	0.048824	0.088043	0.10971	0.071367	0.1243	0.12813	0.030781	0.23488	-2.8063	-3.2687	-2.8875	-3.4208	-3.1354	-2.8896	-3.4208	-3.1417	-3.0479	-3.2458	-2.9313	-3.3542	-3.0771	-2.8958	-3.2479	-3.0958	451.708	229.085	231.865	395.865	419.513	365.445	429.868	486.388	493.556	326.452	420.305	213.654	423.537	468.663	206.029	448.583	0.00096801	0.00046081	0.00010249	1335.4	5.498e-06	6.0618e-06	1332.9	359.76	8.6171e-06	5.8151e-06	408.73	137.7	118.93	40.394	5.3307e-06	49.994	0.00076579	0.00069047	0.00019157	1358.9	7.8988e-06	7.2985e-06	1356.6	366.45	7.9635e-06	7.0245e-06	419.39	140.7	122.03	41.662	7.3649e-06	51.914	499.275	237.498	246.995	171.004	290.115	315.900	170.676	175.566	263.899	304.995	175.124	179.054	179.418	184.521	293.335	183.844	-8191	255	
39950.297	1	1	0	0	0.19038	0.1684	0.18102	0.13292	0.12878	0.14896	0.28186	0.062109	0.21757	0.1676	0.13245	0.28179	0.19573	0.28	0.14092	0.10633	-2.6104	-3.1604	-2.8375	-3.2687	-3.125	-3.0854	-3.2771	-3.0604	-2.9188	-3.2896	-2.9042	-3.2083	-3.1521	-3.0271	-3.1542	-3.0479	378.023	162.800	297.849	205.904	463.305	231.194	455.661	242.468	229.551	358.593	180.444	472.174	471.733	491.789	308.165	275.491	0.00096722	0.00058689	0.0001501	1332.9	5.652e-06	3.8485e-06	1327.5	357.38	7.6892e-06	3.5572e-06	407.5	136.78	118.9	40.616	5.5938e-06	50.194	0.00074022	0.00065722	0.00019155	1358.4	7.2149e-06	7.3124e-06	1355.1	365.11	7.4307e-06	7.1034e-06	418.57	140.32	121.99	41.698	7.484e-06	51.802	500.596	248.092	256.379	171.039	272.409	315.350	170.870	175.537	262.685	310.478	174.934	179.032	179.618	184.781	291.498	183.671	-8191	255	
39950.371	1	1	0	0	0.34567	0.011048	0.082804	0.17158	0.10311	0.12312	0.20414	0.48673	0.16665	0.065021	0.12339	0.21625	0.12691	0.23837	0.20233	0.34011	-2.5438	-3.0938	-2.9667	-3.0896	-3.0229	-2.8958	-3.3396	-3.1562	-2.9688	-3.0812	-2.8208	-3.1958	-3.3854	-2.9375	-3.2833	-3.1708	245.116	234.282	204.595	515.771	408.713	431.954	514.193	484.305	444.195	388.698	194.517	487.173	475.619	509.148	432.159	488.096	0.00095746	0.00048173	0.00014238	1328	4.4964e-06	5.4074e-06	1323.1	357.16	7.2413e-06	5.3778e-06	408.7	137.61	119.38	40.271	6.3953e-06	50.06	0.00071443	0.00064486	0.00020037	1353.7	6.7694e-06	7.0463e-06	1351.4	364.68	6.837e-06	6.8691e-06	418.17	140.34	121.86	41.589	7.5743e-06	51.76	498.410	253.014	279.789	171.206	276.458	311.967	170.749	175.495	254.688	298.396	174.990	178.962	179.673	184.683	286.263	183.953	-8191	255	
39950.488	1	1	0	0	0.071976	0.14275	0.091347	0.23265	0.19747	0.17792	0.17076	0.35831	0.079606	0.17168	0.067314	0.1039	0.12173	0.2296	0.10574	0.24338	-2.4208	-3.225	-2.8354	-3.2375	-3.1042	-2.6813	-3.425	-3.1979	-2.675	-3.1625	-2.9479	-3.1375	-3.2396	-2.7979	-3.1125	-3.1771	424.384	451.245	184.072	507.736	450.895	197.922	433.047	479.152	274.734	398.278	415.471	500.783	513.804	377.166	472.812	486.589	0.0009417	0.00052912	0.00013041	1333.2	6.153e-06	5.2655e-06	1332	356.3	8.129e-06	5.3724e-06	408.26	137.23	118.92	40.416	6.5343e-06	49.81	0.00070862	0.00066329	0.00020171	1355.7	6.7783e-06	7.4164e-06	1352.9	364.28	7.159e-06	7.188e-06	417.72	140.24	121.61	41.61	7.5469e-06	51.717	498.246	244.819	251.596	171.155	274.137	293.444	170.532	175.575	269.743	317.082	175.159	178.764	179.812	184.802	286.580	183.782	-8191	255	
39950.586	1	1	0	0	0.42107	0.13965	0.057019	0.17244	0.40004	0.19047	0.15012	0.12596	0.13883	0.22682	0.15296	0.20261	0.079226	0.20793	0.17476	0.076047	-2.3271	-3.1667	-2.9437	-3.1562	-3.0812	-2.8833	-3.3187	-3.2146	-2.8292	-3.3458	-3.0604	-3.0938	-3.4167	-2.9729	-3.0896	-3.1	505.342	372.286	459.670	456.901	197.647	305.145	462.725	419.023	246.438	214.115	208.980	506.039	255.087	396.469	385.750	484.607	0.00095264	0.00039166	0.00011129	1335.4	5.9138e-06	3.6158e-06	1320.4	356.68	7.4668e-06	3.2585e-06	407.6	137.41	118.93	40.16	5.4967e-06	49.998	0.00069402	0.00065556	0.00018482	1355.1	6.5304e-06	7.1724e-06	1349	364.43	6.7775e-06	7.2833e-06	417.64	140.1	121.73	41.531	7.2045e-06	51.665	500.067	240.887	246.358	170.990	283.032	307.176	170.824	175.551	259.947	300.733	175.002	179.018	179.647	184.771	283.798	184.108	-8191	255	
39950.680	1	1	0	0	0.099495	0.19078	0.11285	0.27153	0.19171	0.15381	0.56627	0.12091	0.16079	0.094605	0.20963	0.2743	0.063013	0.16348	0.12641	0.21948	-2.4479	-3.2271	-2.9188	-3.1458	-3.1896	-2.7812	-3.3812	-3.2417	-3.0417	-3.2125	-3.0021	-3.0271	-3.4104	-3.025	-3.1333	-3.2729	195.900	224.908	517.375	452.896	320.450	193.564	465.289	470.702	248.709	193.403	512.975	459.554	178.528	402.140	444.883	175.724	0.00095538	0.00042119	0.00015528	1326	6.216e-06	4.7001e-06	1321.1	356.46	8.6069e-06	5.558e-06	407.17	137.13	118.12	40.278	6.3164e-06	49.918	0.00068843	0.00067753	0.00018497	1350.3	6.3701e-06	7.1691e-06	1347.9	364.01	6.7473e-06	7.0927e-06	417.24	139.96	121.13	41.537	6.7452e-06	51.642	498.432	250.773	262.631	170.925	279.889	303.911	170.809	175.678	264.134	287.224	175.252	178.840	179.551	184.668	286.938	183.777	-8191	255	
39950.801	1	1	0	0	0.22397	0.15367	0.14758	0.24789	0.29552	0.09029	0.11431	0.11612	0.20257	0.1881	0.21738	0.072851	0.1428	0.099165	0.13346	0.2727	-2.4562	-3.0833	-3.0792	-2.9604	-3.1729	-2.8563	-3.1396	-3.4562	-2.9292	-3.0583	-3.1375	-3.0958	-3.3042	-3.1333	-2.9667	-3.3667	442.278	487.260	398.077	412.284	463.958	265.178	436.710	502.083	452.194	435.769	192.830	377.094	508.249	322.047	513.843	174.142	0.00095209	0.00067346	0.00015449	1324.6	5.7907e-06	4.5738e-06	1322.2	356.74	8.5102e-06	4.7107e-06	404.9	137.22	118.94	40.365	5.2897e-06	49.992	0.00070325	0.00064154	0.00017384	1347.6	6.7715e-06	6.8547e-06	1347.9	363.83	7.0445e-06	6.7516e-06	416.23	139.85	121.61	41.488	6.3971e-06	51.646	500.290	238.972	256.431	171.201	280.923	317.000	170.719	175.676	264.420	306.917	175.076	179.045	179.702	184.755	287.844	183.919	-8191	255	
39950.898	1	1	0	0	0.075524	0.098634	0.12817	0.24908	0.11045	0.14475	0.20991	0.10048	0.23125	0.17982	0.09498	0.15504	0.21616	0.070992	0.24518	0.38796	-2.4667	-3.2583	-3.0375	-3.0708	-3.1583	-2.9958	-3.0542	-3.3771	-3.0292	-3.0729	-3.1667	-2.9729	-3.3104	-3.2	-3.0125	-3.3104	341.127	376.725	501.813	463.995	323.118	393.258	498.293	447.922	216.258	265.584	507.045	208.311	512.830	450.066	509.200	186.228	0.00093455	0.00051774	0.00015553	1324.1	5.3408e-06	4.1542e-06	1322.2	356.52	8.7512e-06	6.0358e-06	406.42	136.82	118.46	40.346	5.1492e-06	49.913	0.00069297	0.00067124	0.00016683	1346.7	6.7063e-06	6.9931e-06	1343.5	362.91	7.088e-06	6.985e-06	417.05	139.8	121.31	41.453	6.2e-06	51.633	499.050	258.547	252.816	171.265	273.161	327.435	170.743	175.625	267.630	307.161	175.052	178.899	179.526	184.919	288.366	183.821	-8191	255	
39950.992	1	1	0	0	0.27069	0.10876	0.07708	0.25464	0.091024	0.22031	0.14837	0.30408	0.075209	0.1424	0.11427	0.26815	0.21059	0.086396	0.30235	0.15638	-2.7188	-3.1292	-3.2104	-3.0896	-3.2375	-3.1771	-3.3667	-3.3354	-3.0333	-3.1771	-3.2104	-2.9917	-3.2333	-3.0646	-2.9146	-3.3875	452.804	267.649	384.643	168.266	170.352	369.158	433.505	377.198	230.314	266.748	420.268	442.843	445.504	449.980	199.560	344.264	0.00090445	0.0004537	0.00012487	1321.7	6.224e-06	5.1515e-06	1316.7	355.52	6.7888e-06	5.6038e-06	406.51	136.64	118.49	40.083	5.6514e-06	49.723	0.00069683	0.00062499	0.00015344	1344.8	6.8258e-06	6.8383e-06	1343.1	362.59	6.9046e-06	6.6431e-06	416.57	139.65	121.26	41.366	5.9378e-06	51.548	497.461	253.003	252.929	171.098	286.243	309.627	170.653	175.502	260.448	316.126	175.261	178.992	179.722	184.792	282.389	183.692	-8191	255	
39951.066	1	1	0	0	0.27385	0.18846	0.084513	0.15889	0.2616	0.1737	0.32045	0.33206	0.10724	0.11463	0.51679	0.51587	0.16164	0.018679	0.16472	0.20547	-2.6292	-2.8937	-3.325	-3.05	-3.1562	-3.1333	-3.1042	-3.3833	-2.9479	-3.1354	-3.4708	-2.9396	-3.2875	-3.1667	-2.9313	-3.2333	177.432	280.662	482.932	336.408	317.292	410.395	486.464	430.902	256.840	220.104	451.178	496.384	164.832	251.325	291.500	478.388	0.00090156	0.00058321	0.00011035	1318.9	5.5544e-06	4.3338e-06	1316	356.08	6.6654e-06	5.7866e-06	405.06	136.64	118.94	40.14	7.7439e-06	49.831	0.00069239	0.00065231	0.00014902	1342.6	6.6207e-06	6.7425e-06	1340.8	362.42	6.7513e-06	6.5535e-06	415.83	139.64	121.27	41.419	6.3574e-06	51.547	498.955	248.040	244.742	171.322	283.590	315.566	170.791	175.585	268.178	308.916	175.214	179.136	179.548	184.782	286.868	183.747	-8191	255	
39951.184	1	1	0	0	0.13103	0.17255	0.17213	0.31756	0.069744	0.27936	0.48841	0.29557	0.12029	0.11721	0.095328	0.19937	0.1628	0.10767	0.14001	0.065916	-2.3979	-3.075	-3.0958	-3	-3.1354	-3.1521	-3.2083	-3.4625	-2.8875	-3.1042	-3.4833	-2.9333	-3.2	-3.1896	-2.8042	-3.3812	265.285	399.594	349.044	508.984	471.835	319.066	457.832	424.631	501.070	330.826	210.711	455.673	348.917	482.952	434.391	381.702	0.00093551	0.00050098	0.00017111	1315.9	5.4454e-06	4.9518e-06	1318.8	355.26	8.4193e-06	5.1004e-06	407.02	136.78	118.9	40.166	4.2e-06	49.958	0.00068298	0.0005968	0.00015886	1342.6	6.7348e-06	6.0867e-06	1341.2	362.16	6.7273e-06	6.2651e-06	415.95	139.71	121.32	41.403	6.6391e-06	51.571	498.038	236.260	245.028	170.998	280.294	315.545	170.600	175.664	251.392	303.392	175.284	179.003	179.400	184.710	276.098	183.684	-8191	255	
39951.281	1	1	0	0	0.13905	0.23318	0.02038	0.24341	0.26286	0.18594	0.11372	0.10512	0.16286	0.18427	0.23775	0.1277	0.28614	0.29083	0.28153	0.38359	-2.7396	-2.9708	-3.2313	-3.1604	-3.1188	-3.0792	-3.1292	-3.3937	-3.15	-2.8187	-3.3917	-3.0271	-3.0083	-3.2333	-2.7083	-3.3563	265.119	248.582	492.594	456.295	458.390	242.677	186.551	485.158	455.863	323.689	425.747	496.627	170.864	471.605	160.088	211.041	0.00097608	0.00053748	0.00013817	1320.7	5.7055e-06	6.5333e-06	1316.2	355.08	8.925e-06	4.7286e-06	405.4	136.46	118.43	40.179	6.2571e-06	49.603	0.00070314	0.00059854	0.00016776	1343.3	6.6703e-06	6.2619e-06	1342.3	362.87	6.8323e-06	6.3209e-06	415.48	139.71	121.06	41.454	6.5026e-06	51.486	499.959	233.119	249.078	171.098	269.930	308.084	170.985	175.733	260.536	296.837	175.148	178.916	179.714	184.547	294.201	183.699	-8191	255	
39951.379	1	1	0	0	0.40108	0.1722	0.058332	0.22462	0.13535	0.1315	0.14748	0.30432	0.1231	0.050504	0.26216	0.22675	0.14989	0.16651	0.093687	0.33678	-2.7021	-2.975	-3.3937	-3.0396	-3.2104	-3.1417	-3.3125	-3.2625	-3.1479	-2.725	-3.2333	-3.1458	-3.0292	-3.2667	-2.9646	-3.1229	355.211	469.130	407.419	456.694	307.015	360.153	464.834	438.545	226.990	188.395	184.929	467.840	353.553	167.199	491.755	170.300	0.00092912	0.00055522	9.7888e-05	1319.5	4.9529e-06	4.3063e-06	1314	356.19	8.0869e-06	4.6245e-06	406.14	136.83	118.56	40.212	4.5214e-06	49.689	0.00068038	0.00059803	0.00017376	1343.7	6.3803e-06	6.248e-06	1340	362.68	6.7513e-06	6.5281e-06	415.66	139.61	121.06	41.448	6.9113e-06	51.526	498.786	240.722	241.163	171.072	276.772	321.843	170.626	175.624	262.123	295.467	175.132	179.018	179.543	184.723	287.058	183.638	-8191	255	
39951.473	1	1	0	0	0.27099	0.068896	0.14839	0.33236	0.14055	0.016262	0.14428	0.22425	0.18492	0.23664	0.22412	0.32484	0.11092	0.20661	0.21809	0.071115	-2.7042	-2.9021	-3.2292	-3.2396	-2.8854	-3.125	-3.0292	-3.0312	-3.1542	-2.9854	-3.1146	-3.0708	-3.0604	-3.2562	-2.9417	-3.1708	428.790	348.987	487.638	428.443	461.467	283.051	484.103	501.715	498.590	292.730	474.316	444.419	422.062	506.519	502.612	178.098	0.00091372	0.00057052	0.00010951	1320.2	5.9989e-06	5.6393e-06	1316.3	354.48	8.3386e-06	4.5787e-06	406.01	136.9	118.7	39.975	6.4474e-06	49.92	0.00066956	0.00061234	0.00017655	1341.3	6.5216e-06	6.3651e-06	1339.9	362.24	6.5653e-06	6.8247e-06	415.63	139.6	121.04	41.354	6.8629e-06	51.594	500.595	255.460	239.880	171.127	274.075	303.938	170.629	175.496	253.357	297.836	175.308	178.947	179.660	184.818	275.035	183.919	-8191	255	
39951.594	1	1	0	0	0.12451	0.19385	0.28449	0.19971	0.10535	0.22192	0.425	0.23365	0.043894	0.11454	0.14267	0.2149	0.076302	0.17058	0.18471	0.25699	-2.8937	-2.8854	-3.1792	-3.275	-2.9979	-3.0833	-3.3625	-3.2062	-3.1125	-2.8521	-3.4437	-3.1292	-2.9125	-3.3792	-3.05	-3.1021	170.158	199.903	271.838	517.029	227.258	289.593	409.709	461.671	438.140	344.251	490.223	440.984	478.012	205.214	468.490	319.830	0.00089452	0.00038749	0.00014347	1314.3	6.4333e-06	6.1975e-06	1313.9	353.91	8.9448e-06	4.6534e-06	405.48	136.76	118.95	40.287	5.9038e-06	49.828	0.0006666	0.00061625	0.0001731	1337.5	6.5868e-06	6.885e-06	1336.9	361.85	6.5693e-06	7.1601e-06	414.95	139.44	121.1	41.425	6.9994e-06	51.542	498.633	241.959	246.450	171.259	283.859	300.833	170.740	175.645	258.541	312.859	175.087	179.047	179.844	184.612	289.575	183.841	-8191	255	
39951.664	1	1	0	0	0.19759	0.095419	0.010309	0.062644	0.10691	0.19705	0.25578	0.33402	0.14993	0.096393	0.032934	0.0077287	0.31708	0.20973	0.10792	0.30582	-2.75	-2.9188	-3.0875	-3.1854	-2.7375	-3.3042	-3.3063	-3.2125	-3.3875	-2.9729	-3.3312	-3.4	-2.9854	-3.3896	-2.9729	-2.9979	230.329	223.148	413.678	509.577	450.560	271.677	457.092	482.047	409.432	232.550	252.666	392.052	169.425	493.603	387.588	467.120	0.00097518	0.00048161	0.00010955	1313.7	6.2808e-06	5.0917e-06	1312.8	355	8.9877e-06	5.6236e-06	405.76	136.11	118.3	40.226	6.671e-06	49.906	0.00068507	0.00066337	0.00017215	1339.6	6.4591e-06	7.2641e-06	1339.2	362.2	6.5425e-06	7.2612e-06	415.22	139.32	121.08	41.414	7.3013e-06	51.471	499.048	245.100	238.479	171.061	275.270	320.215	170.606	175.621	260.294	306.870	175.139	179.104	179.760	185.085	282.680	183.763	-8191	255	
39951.762	1	1	0	0	0.069857	0.15881	0.151	0.25079	0.11138	0.18543	0.40986	0.15823	0.095453	0.12179	0.21677	0.21873	0.30629	0.25271	0.19106	0.070956	-2.8667	-2.8333	-3.1792	-3.4896	-2.9042	-3.0896	-3.3625	-3.2687	-3.1625	-3.1521	-3.1875	-3.3396	-2.9938	-3.3479	-2.9667	-3.1312	489.007	490.416	368.449	485.631	449.766	223.037	431.597	493.542	505.367	376.066	160.517	164.488	158.192	175.179	347.104	512.423	0.00091985	0.00057196	0.00014555	1318	6.2855e-06	4.4104e-06	1307.8	354.93	8.9153e-06	4.6508e-06	404.9	136.58	118.44	40.215	5.2454e-06	49.861	0.0006903	0.00068085	0.00017752	1338.2	6.6866e-06	7.1511e-06	1335.1	362.08	6.7507e-06	7.1272e-06	414.84	139.57	121.08	41.438	6.946e-06	51.556	499.375	256.818	256.466	171.127	273.425	327.584	170.794	175.754	265.674	321.012	175.173	179.046	179.401	184.713	271.427	183.870	-8191	255	
39951.883	1	1	0	0	0.19535	0.19099	0.094261	0.34303	0.20371	0.16561	0.13981	0.37451	0.2244	0.20147	0.16366	0.15137	0.11382	0.15909	0.16404	0.042337	-2.8208	-2.9771	-2.9437	-3.4583	-2.9708	-3.0771	-3.2417	-2.8937	-3.1917	-3.0438	-3.2083	-3.4542	-3.0812	-3.1479	-3.1437	-2.8646	357.334	221.245	238.987	503.515	422.692	404.042	434.544	509.171	194.489	382.470	195.023	489.636	494.870	207.463	495.745	497.637	0.00091996	0.00046786	0.00012346	1315.8	5.3408e-06	4.0043e-06	1311.7	355.7	8.218e-06	6.0784e-06	406.63	136.5	118.24	40.239	5.0749e-06	49.757	0.00069611	0.00067449	0.00016796	1341.2	7.0465e-06	6.9701e-06	1338.1	362.28	7.1938e-06	7.2102e-06	416.01	139.33	121.04	41.444	6.2845e-06	51.547	498.934	243.724	238.503	171.177	275.810	308.845	170.663	175.652	266.779	295.442	175.192	179.138	179.641	184.879	289.984	183.790	-8191	255	
39951.977	1	1	0	0	0.043492	0.2369	0.2365	0.3442	0.051962	0.11373	0.40446	0.15926	0.24059	0.3022	0.30693	0.30242	0.23629	0.084824	0.12507	0.25352	-2.8208	-3.0062	-3	-3.4208	-3.0104	-3.0812	-3.4813	-3.1479	-3.325	-3.0833	-3.1958	-3.2646	-3.1271	-3.2396	-3.2562	-2.9667	309.731	323.652	345.311	198.675	282.415	364.012	449.134	463.814	430.033	196.427	477.369	487.067	433.426	513.673	491.100	506.244	0.00093049	0.00061806	0.00016332	1313.2	4.3561e-06	3.5666e-06	1314.2	354.73	6.0287e-06	6.0352e-06	403	136.37	118.44	40.127	6.0474e-06	49.735	0.00070224	0.00067059	0.00016677	1339.5	6.9005e-06	6.9464e-06	1336.4	361.7	6.8785e-06	7.0762e-06	414	139.16	121.06	41.323	6.2159e-06	51.443	498.284	252.305	247.984	171.216	285.696	314.743	170.718	175.663	259.204	301.696	175.283	178.972	179.807	184.947	281.024	183.683	-8191	255	
39952.074	1	1	0	0	0.30237	0.19355	0.16859	0.13535	0.21808	0.16521	0.34018	0.3591	0.30362	0.14136	0.12068	0.25122	0.18926	0.18466	0.13314	0.26931	-2.8396	-2.9021	-2.8333	-3.6042	-3.0083	-2.9146	-3.2938	-3.0917	-3.1813	-3.0938	-2.9875	-3.2792	-2.8667	-2.7979	-3.2667	-3.0729	338.342	330.936	338.195	498.472	195.914	516.937	469.771	448.623	370.564	424.509	359.829	511.114	494.824	465.808	392.588	487.737	0.0009221	0.00043289	0.0001287	1311.4	5.1532e-06	4.3479e-06	1307.3	354.2	7.5908e-06	4.0835e-06	403.88	135.91	118.17	40.04	5.4438e-06	49.846	0.00068691	0.00063265	0.00015408	1335.4	6.707e-06	6.7163e-06	1332.9	361.3	6.9829e-06	6.6374e-06	413.82	139.17	120.87	41.291	6.2289e-06	51.504	499.251	260.663	260.905	170.950	290.128	291.921	170.679	175.582	252.760	297.733	175.249	179.078	179.485	184.893	280.546	183.763	-8191	255	
39952.172	1	1	0	0	0.24118	0.1806	0.19621	0.14044	0.15379	0.2083	0.19009	0.36511	0.073961	0.052472	0.36943	0.22216	0.22653	0.29046	0.080806	0.094696	-2.6083	-3.1979	-2.9292	-3.3646	-3.1188	-2.9771	-3.2188	-3.2542	-3.1958	-3.3125	-3.0083	-3.2667	-3.1083	-2.9958	-3.2229	-2.9958	271.680	208.629	163.472	213.583	199.858	204.359	445.590	423.259	223.268	190.006	498.037	482.216	443.382	465.769	425.958	355.152	0.00091849	0.0004737	0.0001618	1313.4	6.8348e-06	4.9716e-06	1307.9	353.18	9.2401e-06	5.3503e-06	404.2	136.26	118.27	39.863	5.4815e-06	49.459	0.00069676	0.00060367	0.00015619	1336.7	6.5718e-06	6.1637e-06	1332.8	360.67	6.6195e-06	5.8837e-06	412.97	139.13	120.64	41.217	5.8605e-06	51.304	497.942	247.028	247.014	171.103	279.964	311.997	170.472	175.625	258.295	314.615	175.260	179.052	179.667	184.784	278.111	183.661	-8191	255	
39952.266	1	1	0	0	0.22616	0.10697	0.051254	0.098816	0.096337	0.13587	0.15369	0.40797	0.096856	0.16703	0.25116	0.057687	0.08639	0.15754	0.067608	0.18721	-2.7708	-3.0354	-2.7875	-3.4792	-2.9521	-3.1458	-3.3875	-3.1708	-3.0125	-3.1396	-3.0062	-3.2729	-3.0521	-3.0042	-3.2667	-3.1562	504.333	483.551	181.043	207.462	263.871	250.199	434.345	486.401	388.034	238.900	475.235	452.927	275.046	179.854	488.605	515.432	0.00097568	0.00036837	0.00012922	1305.4	5.9797e-06	5.1948e-06	1298.2	351.82	8.4937e-06	4.927e-06	402.6	135.72	117.74	39.927	7.5439e-06	49.574	0.00068835	0.0005267	0.00015113	1330.6	6.3918e-06	5.9418e-06	1323.9	359.5	6.3391e-06	5.73e-06	412.32	138.51	120.15	41.227	5.9609e-06	51.204	499.438	251.405	253.500	171.218	277.285	301.107	170.711	175.861	259.777	309.493	175.220	179.085	179.463	184.752	298.098	183.878	-8191	255	
39952.359	1	1	0	0	0.11747	0.11855	0.2039	0.22383	0.18433	0.071514	0.38139	0.29788	0.077801	0.11978	0.045263	0.13899	0.1245	0.048668	0.17497	0.24344	-2.5292	-3.1479	-2.9062	-3.3396	-3.1521	-2.8375	-3.5438	-3.1312	-3.1042	-3.3167	-2.9229	-3.2458	-3.2083	-3.0042	-3.3354	-2.975	369.904	267.473	250.336	480.725	301.943	494.003	445.302	481.634	201.838	468.236	506.902	428.503	416.456	456.739	449.003	434.672	0.00089732	0.00057013	0.00015416	1300	5.0557e-06	5.7433e-06	1299	351.66	7.9783e-06	5.7718e-06	403.57	135.84	117.79	40.133	5.3143e-06	49.905	0.00066166	0.00054325	0.00015989	1323.8	6.2139e-06	5.8664e-06	1324.4	358.95	6.325e-06	5.8673e-06	412.27	138.79	120.32	41.185	6.0729e-06	51.369	498.138	257.434	254.168	171.186	280.238	303.631	170.707	175.639	268.172	287.479	175.557	179.045	179.575	184.941	296.261	183.689	-8191	255	
39952.480	1	1	0	0	0.1077	0.21143	0.25814	0.36828	0.19294	0.088029	0.075458	0.2168	0.050363	0.29161	0.26268	0.28363	0.19899	0.26466	0.077395	0.50615	-2.4771	-2.9708	-2.8271	-3.3083	-3.0625	-2.8979	-3.5438	-2.9896	-2.9354	-3.1042	-3.0167	-3.3063	-3.2521	-3.0083	-3.1542	-2.9854	324.990	235.585	339.729	450.312	486.425	189.805	220.352	478.064	188.748	497.079	495.079	464.902	175.693	473.917	489.078	425.459	0.00090739	0.00049259	0.00014631	1305	5.5575e-06	4.0404e-06	1297.6	351.68	6.5491e-06	4.7313e-06	403.01	135.84	117.43	40.067	5.688e-06	49.55	0.000652	0.00056587	0.00017336	1325.9	6.2411e-06	6.0932e-06	1324.1	359.7	6.3176e-06	6.173e-06	412.4	138.89	120.26	41.208	6.655e-06	51.265	497.585	235.288	253.332	171.158	286.138	316.421	170.603	175.573	273.635	304.849	175.187	178.988	179.704	184.771	280.794	183.909	-8191	255	
39952.578	1	1	0	0	0.022332	0.17304	0.24938	0.1084	0.13346	0.22263	0.1503	0.089803	0.063025	0.22085	0.26843	0.067863	0.25694	0.13322	0.14929	0.12423	-2.5687	-3.1813	-2.8333	-3.3125	-3.1917	-2.9583	-3.4667	-3.2083	-3.0042	-3.1813	-3.1458	-3.0875	-3.25	-3.1875	-3.1771	-3.0479	244.741	394.211	347.791	422.490	400.590	292.603	417.826	181.081	492.773	187.184	495.372	418.876	498.496	182.964	197.015	510.334	0.00091953	0.00059423	0.00014652	1303.4	5.8721e-06	4.7573e-06	1303.9	353.82	7.5202e-06	5.0844e-06	403.03	136.21	117.77	40.039	6.4353e-06	49.641	0.00066696	0.00059073	0.0001781	1327	5.8594e-06	6.6697e-06	1327	360.24	6.5084e-06	6.4952e-06	412.56	139.03	120.39	41.293	6.7517e-06	51.316	499.730	260.966	257.398	171.184	276.124	300.561	170.683	175.545	265.392	286.095	175.352	179.075	179.632	184.797	285.246	183.804	-8191	255	
39952.676	1	1	0	0	0.14483	0.23686	0.10964	0.29587	0.042285	0.0054612	0.22918	0.11686	0.13412	0.16038	0.39319	0.038019	0.28504	0.22327	0.043144	0.13558	-2.3833	-3.1354	-3.1104	-3.1375	-3.075	-3.0187	-3.45	-3.0771	-2.9521	-3.1625	-2.9625	-3.0563	-3.3625	-2.8396	-3.075	-3.0833	511.478	454.569	499.058	472.266	159.650	165.084	486.413	420.755	513.227	179.039	440.968	503.746	169.021	453.811	263.201	395.511	0.00095751	0.00029545	0.00010922	1306.5	6.0885e-06	4.7226e-06	1302.2	353.34	8.9024e-06	5.5917e-06	403.74	135.98	118.23	39.901	5.0123e-06	49.792	0.00068687	0.00061805	0.0001827	1329.3	6.2975e-06	6.9603e-06	1328.6	360.24	6.5847e-06	7.1058e-06	413.45	139.05	120.8	41.301	6.9547e-06	51.44	500.889	250.739	241.888	171.055	275.354	297.763	170.567	175.613	261.724	300.161	175.221	178.955	179.597	184.754	282.516	183.932	-8191	255	
39952.770	1	1	0	0	0.13162	0.12397	0.058179	0.15594	0.075102	0.1659	0.084091	0.20533	0.29078	0.20448	0.21976	0.1712	0.30513	0.098258	0.36172	0.22276	-2.4104	-3.1604	-2.9667	-3.1875	-3.3292	-2.8146	-3.5104	-3.1312	-2.8417	-3.2687	-3.1167	-3.0479	-3.1167	-2.9313	-3.1437	-3.0792	381.496	486.265	197.158	171.411	163.299	356.066	433.068	166.140	287.172	188.687	507.632	484.122	166.110	164.641	358.217	435.344	0.00090853	0.00051126	0.00017654	1306.6	4.3172e-06	6.308e-06	1307	353.88	7.6336e-06	3.9207e-06	404.67	136.11	117.69	40.043	5.4708e-06	49.732	0.00068247	0.0006591	0.0001796	1331	6.4353e-06	7.6333e-06	1331.6	360.98	6.9153e-06	7.211e-06	413.85	139.13	120.58	41.229	7.0016e-06	51.359	497.613	264.377	280.092	171.027	290.631	306.735	170.642	175.582	254.467	322.097	175.018	179.111	179.492	184.624	282.707	184.061	-8191	255	
39952.891	1	1	0	0	0.20682	0.16159	0.14982	0.3145	0.09885	0.15813	0.25881	0.26997	0.23725	0.15124	0.21766	0.11313	0.17182	0.23231	0.21089	0.26334	-2.5021	-3.1021	-2.9917	-3.1771	-3.2729	-2.8583	-3.2229	-3.4375	-3.0458	-3.2583	-3.1646	-2.975	-3.4479	-2.9854	-2.9917	-3.2375	214.682	504.208	355.245	482.472	193.752	328.369	434.168	451.822	437.097	456.593	434.669	178.800	192.067	204.239	469.842	439.905	0.00095708	0.00050453	0.00014493	1312	5.464e-06	5.3663e-06	1305.8	353.64	6.5159e-06	4.5514e-06	403.74	135.96	117.9	40.061	5.3491e-06	49.812	0.00070152	0.00068693	0.00017725	1332.2	6.6689e-06	7.6432e-06	1330.9	361.1	6.8812e-06	7.0993e-06	414.06	139.08	120.67	41.278	6.8449e-06	51.409	499.057	252.895	245.453	171.087	285.275	305.087	170.661	175.580	260.512	290.481	175.357	179.224	179.539	184.807	282.434	184.067	-8191	255	
39952.965	1	1	0	0	0.075998	0.059399	0.055975	0.18343	0.07964	0.13252	0.16254	0.17474	0.046114	0.20497	0.055066	0.042314	0.15121	0.11284	0.18859	0.088162	-2.4604	-3.1604	-3.05	-3.1333	-3.0354	-3.0479	-3.3125	-3.3958	-2.7938	-3.1292	-3.0271	-3.0062	-3.4333	-3.1354	-3.0021	-3.3896	488.844	166.747	219.520	503.131	159.666	277.106	429.217	430.300	314.778	233.188	355.322	299.962	495.892	410.277	517.305	461.690	0.00095862	0.00054252	0.00016721	1304.1	6.097e-06	5.0396e-06	1302.4	353.47	8.4468e-06	4.0136e-06	402.38	136.57	118.02	39.914	5.5336e-06	49.502	0.00071468	0.00068996	0.00016762	1329.5	7.0329e-06	7.287e-06	1330.4	360.83	7.339e-06	7.3055e-06	413.25	139.33	120.72	41.236	6.3004e-06	51.276	500.076	251.422	257.270	171.171	288.823	304.541	170.735	175.598	273.178	299.360	175.027	178.941	179.678	184.882	281.334	183.798	-8191	255	
39953.059	1	1	0	0	0.24971	0.23734	0.11315	0.27058	0.1773	0.08748	0.091364	0.13577	0.11508	0.10487	0.14798	0.17832	0.09596	0.20154	0.11462	0.0496	-2.525	-3.0354	-3.0375	-3.0583	-3.1688	-2.9688	-3.1104	-3.475	-2.8312	-3.225	-3.1729	-3.0708	-3.4104	-3.1063	-2.9396	-3.2438	395.140	192.657	501.921	486.516	389.729	280.111	434.331	412.366	163.317	281.168	378.722	517.471	490.724	470.013	479.141	284.463	0.00098403	0.00046847	0.000131	1308	5.7858e-06	6.3302e-06	1303.1	353.39	8.9722e-06	4.5003e-06	402.73	135.99	117.91	39.976	6.6092e-06	49.507	0.00073499	0.00067717	0.00016467	1331.5	7.1212e-06	7.4368e-06	1328.8	360.35	7.2547e-06	7.216e-06	413.24	139.12	120.44	41.19	6.499e-06	51.308	499.894	259.329	256.093	171.276	263.854	310.253	170.829	175.655	265.291	320.080	175.136	178.916	179.603	184.604	290.510	183.732	-8191	255	
39953.156	1	1	0	0	0.022076	0.15599	0.046395	0.11244	0.26883	0.24554	0.19238	0.1808	0.24548	0.1376	0.10771	0.19276	0.15175	0.10539	0.064581	0.098536	-2.5417	-3.1896	-2.975	-3.2792	-3.1333	-3.1083	-3.0333	-3.3396	-3.0354	-3.125	-3.2896	-3.1583	-3.3521	-2.9917	-3.0375	-3.3792	237.194	464.471	401.083	174.770	254.795	396.928	385.483	169.108	296.337	399.021	496.273	459.955	169.997	219.305	244.802	465.866	0.00093447	0.00055239	0.00015782	1305.1	6.9835e-06	3.9464e-06	1305.5	353	7.8569e-06	3.1968e-06	403.13	136.01	117.83	39.965	6.1502e-06	49.627	0.00073044	0.00066496	0.00016936	1330.5	7.2034e-06	7.1216e-06	1329.7	360.46	7.3838e-06	6.8691e-06	413.1	139.12	120.52	41.25	6.7077e-06	51.35	498.960	247.719	260.220	171.048	269.916	295.531	170.630	175.545	255.144	289.804	175.098	179.018	179.624	184.667	294.945	183.698	-8191	255	
39953.273	1	1	0	0	0.21834	0.14645	0.27592	0.2273	0.030059	0.060935	0.29481	0.14481	0.12796	0.16683	0.2269	0.057299	0.0029827	0.11717	0.24242	0.10031	-2.5958	-2.9583	-3.3187	-2.9042	-3.1542	-3.15	-3.1021	-3.4229	-2.8708	-2.8958	-3.3625	-2.9792	-3.2292	-3.1937	-2.8875	-3.4292	205.034	181.706	330.683	394.485	429.818	292.535	403.512	507.923	212.835	240.691	166.549	249.104	488.414	261.765	310.596	494.291	0.00091709	0.0004608	0.00013876	1313.6	5.6074e-06	4.6383e-06	1309	352.52	6.9583e-06	4.9369e-06	402.67	136.72	117.93	40.063	6.0804e-06	49.801	0.00070671	0.00062203	0.00016679	1334	6.9582e-06	6.8883e-06	1331.6	360.55	7.0894e-06	6.8798e-06	413.5	139.36	120.85	41.214	6.6167e-06	51.365	500.038	254.572	242.615	171.085	288.025	304.289	170.644	175.588	257.739	304.912	175.147	179.107	179.759	184.762	285.251	183.616	-8191	255	
39953.371	1	1	0	0	0.19253	0.046293	0.20725	0.27675	0.10883	0.2595	0.38085	0.26714	0.13055	0.13421	0.27556	0.30811	0.03949	0.21166	0.24876	0.19747	-2.5687	-3.0958	-3.1875	-3.0771	-3.1167	-3.0833	-2.9646	-3.3771	-3.1542	-3.0375	-3.3375	-3.0792	-3.0479	-3.3542	-2.75	-3.2292	486.031	249.643	273.836	493.364	320.092	397.612	157.905	497.845	485.551	383.290	384.166	490.814	420.689	205.408	232.785	473.951	0.00092002	0.00058153	0.00015961	1308.8	4.4255e-06	3.3946e-06	1306	353.73	8.1779e-06	3.9191e-06	404.3	135.88	117.89	40.154	5.521e-06	49.534	0.00070018	0.00062745	0.0001737	1331.9	6.8469e-06	6.1956e-06	1329.7	360.91	6.9434e-06	6.6234e-06	413.54	138.99	120.69	41.287	6.868e-06	51.292	498.303	243.723	244.044	171.151	275.850	321.075	170.667	175.536	254.061	311.086	175.138	178.969	179.968	184.968	277.825	184.034	-8191	255	
39953.465	1	1	0	0	0.19096	0.13318	0.12924	0.2925	0.19162	0.19268	0.21171	0.19205	0.30821	0.38147	0.39213	0.25414	0.22581	0.17476	0.090544	0.10497	-2.7354	-3.0333	-3.1813	-3.1667	-3.0229	-3.2375	-3.0875	-3.275	-2.9375	-3.0583	-3.2854	-3.0104	-3.1542	-3.2	-2.9896	-3.1708	470.234	243.787	514.757	478.498	419.183	294.372	499.074	386.448	414.901	228.356	484.602	462.938	485.130	201.535	181.448	279.943	0.00093613	0.00043102	0.00012413	1309.7	5.5364e-06	6.117e-06	1301.2	352.67	5.9919e-06	4.6214e-06	404.95	136.56	118.06	39.955	7.3646e-06	49.664	0.00068677	0.00058575	0.00017452	1331.2	6.6309e-06	6.1096e-06	1328.9	360.59	6.485e-06	6.6957e-06	413.94	139.37	120.64	41.234	7.4068e-06	51.329	500.250	256.654	238.793	171.071	278.669	309.233	170.710	175.683	264.655	317.505	175.310	178.978	179.591	184.902	288.153	183.659	-8191	255	
39953.562	1	1	0	0	0.16229	0.047502	0.10761	0.30175	0.12201	0.12466	0.17489	0.20784	0.36282	0.22831	0.27372	0.11801	0.10674	0.063645	0.14568	0.13829	-2.6729	-2.8438	-3.1708	-3.1437	-3.0687	-3.4354	-3.0708	-3.3271	-3.0354	-2.9125	-3.4062	-3.2083	-3.0542	-3.3396	-3.0583	-2.9917	286.687	291.615	205.011	478.864	198.212	167.595	383.642	460.474	446.882	267.598	449.986	439.296	508.290	272.361	405.522	391.741	0.00094333	0.0004384	0.00011057	1308.5	5.5832e-06	5.4156e-06	1300	354.11	6.8492e-06	5.6207e-06	404.84	136.15	117.96	40.152	6.1181e-06	49.643	0.00068172	0.0006286	0.00018101	1330.7	6.2941e-06	6.7892e-06	1329.1	361.12	6.4809e-06	6.8889e-06	414.49	139.2	120.61	41.286	7.4674e-06	51.334	498.233	247.735	253.878	171.213	275.942	293.157	170.490	175.702	262.148	300.706	175.062	179.116	179.459	184.925	287.579	183.978	-8191	255	
39953.656	1	1	0	0	0.28884	0.33477	0.23064	0.11335	0.10237	0.20064	0.21569	0.13729	0.34716	0.29137	0.087088	0.23602	0.25369	0.2535	0.092139	0.1501	-2.825	-2.8812	-3.3083	-3.2125	-2.9562	-3.3792	-3.1896	-3.3542	-3.175	-3.1292	-3.2583	-3.0083	-3.0708	-3.3667	-2.9083	-3.15	407.785	263.229	347.907	202.965	303.165	442.359	445.028	415.976	300.397	463.120	485.357	482.392	177.935	471.520	336.413	481.754	0.00093472	0.00046822	0.00012721	1310.4	5.452e-06	3.6798e-06	1306.6	353.89	8.1136e-06	5.8704e-06	405.66	136.45	118.19	40.175	5.6621e-06	49.788	0.00069535	0.00067421	0.00018858	1334.4	6.6771e-06	7.2379e-06	1334.6	361.62	6.7935e-06	7.3294e-06	415.5	139.46	120.99	41.369	7.4717e-06	51.483	497.317	252.312	261.243	171.083	287.603	302.634	170.820	175.613	263.945	304.178	175.065	178.895	179.652	184.943	281.175	183.949	-8191	255	
39953.754	1	1	0	0	0.21912	0.15396	0.15223	0.21513	0.17168	0.25793	0.29543	0.15978	0.1446	0.18598	0.11102	0.08637	0.23022	0.15545	0.087374	0.26905	-2.5833	-2.7083	-3.1813	-3.3438	-3.0312	-3.3063	-3.1583	-3.2562	-3.1396	-2.8979	-3.3146	-3.0646	-3.0417	-3.1833	-2.8771	-3.1021	330.804	488.436	487.564	498.103	478.095	428.197	493.306	449.584	514.777	478.635	451.200	502.713	425.259	474.984	351.317	444.382	0.0009426	0.00055796	0.00010804	1315.6	4.6884e-06	5.74e-06	1310.3	355.01	8.1529e-06	5.7337e-06	405.87	137.12	118.72	39.917	3.4335e-06	49.633	0.00069503	0.00070637	0.00019105	1339	6.8183e-06	7.3763e-06	1337.9	362.15	6.9113e-06	7.7362e-06	415.37	139.68	121.17	41.355	7.5627e-06	51.469	498.643	248.701	257.516	171.078	285.481	298.131	170.932	175.658	255.772	296.809	175.227	178.888	179.461	184.677	290.827	183.794	-8191	255	
39953.852	1	1	0	0	0.050764	0.19411	0.077632	0.28652	0.13979	0.084875	0.26028	0.14004	0.24346	0.19424	0.16346	0.19538	0.34262	0.24968	0.11711	0.043495	-2.6437	-2.7917	-3.0042	-3.1583	-2.8187	-3.1896	-3.2146	-3.0333	-3.1958	-2.9646	-3.1417	-3.2042	-3.0354	-3.2354	-2.9792	-3.05	353.683	210.235	420.414	444.000	450.773	293.156	465.268	422.189	467.550	288.182	451.538	509.035	166.036	427.909	412.145	499.940	0.00095368	0.00067269	0.00014071	1313.6	5.6202e-06	6.6066e-06	1318	354.95	8.5793e-06	4.4603e-06	405.97	136.56	118.89	40.157	5.7097e-06	49.798	0.00071317	0.00074192	0.00019284	1340.6	7.363e-06	7.9772e-06	1340.2	362.63	7.3671e-06	8.1504e-06	416.28	139.69	121.47	41.401	7.0875e-06	51.47	498.100	243.759	259.275	171.083	278.796	317.195	170.728	175.533	268.973	301.933	175.204	179.127	179.491	184.479	296.087	183.653	-8191	255	
39953.973	1	1	0	0	0.28961	0.18994	0.13692	0.2903	0.12847	0.1137	0.17815	0.065665	0.12491	0.072608	0.21557	0.18611	0.13237	0.33561	0.10241	0.22446	-2.7396	-2.8375	-3.1146	-3.3417	-2.8667	-3.3521	-3.1396	-3.3104	-3.3021	-2.9917	-3.1063	-3.45	-3.1521	-3.2542	-3.05	-2.9354	278.177	491.500	453.395	467.776	482.339	366.194	503.480	486.584	302.318	482.186	453.119	446.884	300.326	488.920	298.518	479.864	0.00093372	0.0005447	0.00015226	1320.2	5.0089e-06	4.9294e-06	1312.2	356.35	8.5554e-06	4.9669e-06	406.76	136.68	118.51	40.162	7.3737e-06	49.871	0.0007303	0.00074091	0.00019139	1340.6	7.4927e-06	7.9207e-06	1339.2	363.42	7.7386e-06	8.0534e-06	416.6	139.84	121.37	41.423	7.0124e-06	51.619	501.115	257.159	239.500	171.117	275.296	307.900	170.748	175.647	256.256	314.642	175.189	178.948	179.569	184.869	275.611	183.700	-8191	255	
39954.066	1	1	0	0	0.099689	0.23932	0.097867	0.097764	0.14988	0.15251	0.33832	0.041241	0.35665	0.17099	0.031292	0.16787	0.162	0.24414	0.0062193	0.13454	-2.95	-2.8208	-2.8604	-3.4979	-2.8854	-3.2438	-3.2875	-3.0438	-3.2896	-2.9604	-3.0125	-3.1771	-2.9125	-3.3208	-3.0438	-3.025	363.653	338.061	339.746	226.921	164.854	491.474	470.409	444.320	175.424	167.623	405.421	469.156	511.337	488.264	407.555	170.938	0.00095412	0.0005665	0.00013383	1318.7	5.2456e-06	4.2189e-06	1315.8	354.98	8.0439e-06	4.1639e-06	407.78	136.89	118.94	40.002	3.4304e-06	49.679	0.00073571	0.00072255	0.00017577	1342.7	7.4859e-06	7.6481e-06	1340.4	363.07	7.6951e-06	7.7403e-06	416.13	139.99	121.42	41.385	6.9749e-06	51.498	499.351	252.865	260.690	171.173	270.735	296.827	170.682	175.527	259.417	320.098	174.962	179.022	179.406	184.768	300.343	183.787	-8191	255	
39954.164	1	1	0	0	0.1404	0.17321	0.14264	0.27188	0.030828	0.18492	0.24479	0.043624	0.18694	0.095076	0.0082042	0.15344	0.1689	0.13235	0.099135	0.27734	-2.9417	-3.1646	-3.175	-3.4062	-2.9	-3.3021	-3.3812	-3.2167	-3.2896	-2.8667	-2.8792	-3.325	-3.0354	-3.1312	-3.1271	-3.0833	167.892	510.713	212.566	450.600	203.510	435.952	399.585	316.552	493.176	475.878	501.429	512.096	505.017	475.477	394.965	416.025	0.00094308	0.00055055	0.00010528	1313.5	5.9551e-06	6.1205e-06	1316.6	355.1	8.2224e-06	5.0041e-06	406.25	137.05	118.86	40.253	4.4596e-06	49.684	0.0007505	0.0007274	0.00018272	1340.3	7.6143e-06	7.6718e-06	1339.7	363.03	7.8437e-06	7.64e-06	416.12	140	121.6	41.447	6.9207e-06	51.485	498.214	250.418	256.860	171.053	290.904	303.545	170.742	175.422	262.782	311.921	174.912	178.816	179.510	184.655	283.097	183.593	-8191	255	
39954.262	1	1	0	0	0.068289	0.18248	0.03754	0.33455	0.19422	0.21723	0.29895	0.38001	0.14227	0.28291	0.27461	0.12549	0.3524	0.25342	0.26922	0.15093	-2.7771	-2.8271	-3.0875	-3.4958	-2.8979	-3.0958	-3.475	-2.8458	-3.2042	-2.9854	-3.0708	-3.3563	-2.9854	-3.025	-3.2833	-3.0375	395.577	296.893	246.526	158.716	351.547	165.421	439.361	414.176	186.382	413.762	445.025	424.382	500.373	165.776	190.679	438.306	0.00095881	0.00052362	9.946e-05	1314.7	6.0121e-06	5.0777e-06	1314.6	357.22	9.1268e-06	5.1967e-06	405.66	137.14	118.71	40.11	7.1191e-06	49.882	0.00075558	0.00069025	0.00017874	1341.4	7.5789e-06	7.2862e-06	1339.8	363.95	7.7433e-06	7.4132e-06	416.6	140.09	121.55	41.429	7.3165e-06	51.596	500.071	253.441	250.985	170.972	291.889	298.530	170.737	175.631	266.402	316.050	175.371	179.080	179.729	184.706	286.043	184.004	-8191	255	
39954.355	1	1	0	0	0.015018	0.20245	0.14373	0.34006	0.1034	0.26974	0.06057	0.30481	0.15315	0.25687	0.23171	0.28695	0.32865	0.05396	0.17461	0.14506	-2.7042	-3.0208	-2.875	-3.3375	-2.8104	-2.9521	-3.3333	-3.0812	-3.1917	-3.1	-2.9958	-3.2729	-3.0729	-3.0167	-3.1771	-3.0333	290.184	321.380	367.339	486.488	475.618	377.557	413.734	474.172	319.531	469.684	177.181	468.044	476.028	342.058	421.907	403.895	0.00097791	0.00051	0.00014044	1321.6	5.7031e-06	4.2543e-06	1321.3	357.42	7.8227e-06	4.9135e-06	408.89	137.2	118.81	40.259	6.6407e-06	49.761	0.00075457	0.00069567	0.00019203	1345.4	7.6265e-06	7.5187e-06	1345.3	364.49	7.7888e-06	7.6261e-06	417.8	140.43	121.73	41.531	7.4985e-06	51.54	500.175	244.534	251.889	171.022	289.552	315.874	170.814	175.613	268.769	302.947	175.034	178.860	179.678	184.904	285.121	183.835	-8191	255	
39954.449	1	1	0	0	0.24016	0.022721	0.13548	0.021232	0.13799	0.15996	0.35096	0.086768	0.039788	0.07765	0.14224	0.30221	0.1122	0.037299	0.22367	0.27785	-2.7687	-3.0771	-2.8979	-3.4896	-3.1167	-2.9417	-3.3958	-3.0563	-3.2667	-3.1667	-2.9938	-3.1813	-3.1229	-3.0479	-3.2646	-3.1458	314.141	300.419	511.720	477.350	284.132	513.241	423.568	463.450	277.775	411.168	456.849	168.178	476.686	308.979	495.183	439.552	0.00091947	0.00041568	7.9127e-05	1319.8	3.9347e-06	4.7475e-06	1319.2	357.36	8.454e-06	4.8361e-06	407.48	138.12	119.43	40.209	4.9552e-06	49.942	0.00074458	0.00067009	0.00019731	1346.6	7.3331e-06	7.6669e-06	1345.2	364.63	7.5505e-06	7.4806e-06	418.36	140.57	121.83	41.555	7.8798e-06	51.643	499.510	266.973	253.115	171.145	287.687	306.770	170.541	175.602	260.128	296.770	175.221	179.097	179.435	184.617	282.732	183.761	-8191	255	
39954.570	1	1	0	0	0.21922	0.30266	0.24136	0.18281	0.23849	0.22895	0.1874	0.077172	0.1824	0.16175	0.21731	0.036014	0.32369	0.057509	0.076819	0.29859	-2.7167	-3.1917	-2.9	-3.3812	-3.2021	-2.8563	-3.3667	-2.975	-2.9854	-3.1708	-2.9521	-3.2708	-3.1854	-2.9854	-3.2729	-2.9458	307.653	241.842	490.480	435.185	348.783	266.329	427.946	406.493	432.540	466.971	403.294	195.415	361.078	478.252	517.025	327.840	0.00092326	0.00064393	0.00011671	1325.6	6.0207e-06	5.1417e-06	1325.8	357.92	8.3602e-06	4.4277e-06	408.13	137.94	119.43	40.456	7.1134e-06	50.022	0.00072612	0.0007279	0.00021498	1350.3	7.1463e-06	7.5842e-06	1350.4	365.19	7.4173e-06	7.8825e-06	417.51	140.68	121.95	41.585	8.0863e-06	51.794	496.997	255.033	244.505	171.079	275.889	315.879	170.556	175.459	261.046	299.523	175.054	178.912	179.485	184.792	278.051	183.564	-8191	255	
39954.668	1	1	0	0	0.086667	0.028461	0.18491	0.15131	0.14968	0.14676	0.2676	0.12015	0.075967	0.13378	0.098682	0.19585	0.13763	0.11774	0.10208	0.16045	-2.5208	-3.0979	-2.7188	-3.1354	-3.0708	-2.7042	-3.3708	-3.2188	-2.8104	-3.2375	-3.0729	-3.1479	-3.2125	-2.7979	-3.2042	-3.2188	209.552	328.887	224.207	173.846	190.023	171.669	459.208	170.054	351.179	293.142	464.842	477.175	172.863	498.894	353.543	374.290	0.00090398	0.00041043	0.00015375	1330.1	7.246e-06	3.8941e-06	1322.8	358.82	8.1853e-06	3.924e-06	408.55	137.21	119.26	40.42	6.1135e-06	49.978	0.00071248	0.0007141	0.00022117	1352.7	7.1647e-06	7.8372e-06	1349.9	366.12	7.6288e-06	7.8866e-06	418.62	140.34	121.93	41.688	8.0907e-06	51.758	499.242	243.167	262.737	171.057	273.090	308.069	170.453	175.512	263.322	296.667	175.227	179.045	179.438	184.833	283.702	183.527	-8191	255	
39954.762	1	1	0	0	0.10674	0.14767	0.19817	0.27881	0.14567	0.12538	0.46488	0.35741	0.23136	0.1174	0.31605	0.14679	0.22392	0.27174	0.36465	0.1999	-2.5229	-3.1667	-2.875	-3.2146	-3.2708	-2.825	-3.4125	-3.1708	-2.9083	-3.2083	-2.9875	-3.0604	-3.1271	-2.8521	-3.1937	-2.9792	338.795	485.357	237.716	452.501	239.426	276.909	484.564	452.734	340.046	508.044	178.021	456.546	470.134	482.240	220.231	450.977	0.00094014	0.00050318	0.00014856	1328.3	6.1348e-06	4.4031e-06	1328	358.65	8.1653e-06	4.5728e-06	407.23	137.26	118.84	40.506	5.4223e-06	50.161	0.00073466	0.00076852	0.00021414	1352	7.4683e-06	8.2818e-06	1352.1	365.66	7.6302e-06	8.4118e-06	417.72	140.54	121.93	41.672	8.1181e-06	51.798	498.556	233.715	244.804	170.880	282.365	302.024	170.509	175.436	259.406	304.864	175.099	178.773	179.414	184.878	300.857	183.849	-8191	255	
39954.836	1	1	0	0	0.078318	0.12406	0.086531	0.12886	0.1602	0.27078	0.22215	0.016474	0.10545	0.12246	0.15772	0.17723	0.20644	0.1673	0.27641	0.097386	-2.4146	-3.2771	-2.9021	-3.1854	-3.0375	-2.9604	-3.4146	-3.2562	-2.8104	-3.3479	-2.9792	-3.0958	-3.4542	-2.8438	-3.2375	-3.0062	326.763	203.438	328.264	509.077	431.627	455.795	444.453	293.827	298.161	305.123	504.642	315.790	171.376	219.909	289.522	166.259	0.00094752	0.00042838	0.00016746	1330.6	6.1451e-06	3.9336e-06	1328.2	357.71	8.4698e-06	4.063e-06	408.48	138.14	119.47	40.378	5.8136e-06	50.063	0.00075281	0.00078398	0.00021884	1355.3	7.6034e-06	8.5798e-06	1353.2	365.23	7.9327e-06	8.5696e-06	418.85	140.63	122.13	41.65	7.8343e-06	51.766	500.653	270.487	261.470	171.270	283.380	309.067	170.550	175.498	260.885	304.187	174.830	178.758	179.595	184.515	290.791	183.981	-8191	255	
39954.930	1	1	0	0	0.24423	0.0252	0.24144	0.37539	0.18648	0.30817	0.23128	0.311	0.070448	0.24282	0.086489	0.035332	0.42193	0.059841	0.056551	0.11041	-2.4708	-3.275	-3.0375	-3.1667	-3.0667	-2.8438	-3.3583	-3.2854	-2.775	-3.2625	-2.9396	-3.05	-3.2062	-3.0563	-3.0812	-3.2958	498.892	265.212	478.332	232.086	187.869	208.645	444.509	446.334	421.917	427.980	441.733	410.822	164.481	354.013	443.289	497.902	0.00092454	0.00048243	0.00011697	1332.6	5.3286e-06	3.1679e-06	1325.9	358.47	9.1478e-06	5.5625e-06	407.06	137.12	119.45	40.395	4.6438e-06	49.922	0.00075245	0.00080191	0.00020504	1354.1	7.6781e-06	8.5176e-06	1352.9	365.57	8.2038e-06	8.4545e-06	418.38	140.66	122.13	41.646	7.7599e-06	51.785	498.805	256.315	231.161	171.129	270.440	306.863	170.582	175.510	268.773	301.893	175.140	178.799	179.535	184.530	294.267	183.689	-8191	255	
39955.051	1	1	0	0	0.18929	0.17593	0.3022	0.18233	0.18951	0.082003	0.13717	0.26243	0.24522	0.15376	0.19714	0.26969	0.15208	0.27653	0.17667	0.073241	-2.3604	-3.3917	-2.9104	-3.0687	-3.2562	-3.0729	-3.3521	-3.2542	-2.8833	-3.2708	-3.1792	-3.0667	-3.3354	-3.0812	-2.9917	-3.4188	469.959	280.764	321.392	461.752	294.635	379.850	513.005	485.070	246.684	436.520	417.361	441.660	170.770	455.020	220.155	300.131	0.00095767	0.00030335	0.00014912	1329.3	4.2716e-06	4.0402e-06	1329.8	360.3	5.7094e-06	6.2032e-06	409.61	137.65	119.31	40.481	4.2291e-06	50.181	0.00077351	0.0007704	0.00021026	1355.4	8.2452e-06	9.008e-06	1354.7	366.52	8.5377e-06	8.6994e-06	419.53	140.68	122.23	41.681	7.7787e-06	51.855	499.718	248.963	244.534	171.225	256.628	298.903	170.600	175.600	256.753	307.973	175.052	179.039	179.604	184.595	291.426	183.619	-8191	255	
39955.148	1	1	0	0	0.098586	0.23738	0.045481	0.26573	0.20525	0.091027	0.16653	0.14592	0.10606	0.21526	0.14353	0.22185	0.55141	0.19551	0.19519	0.37227	-2.6667	-3.0021	-3.1396	-3.2521	-3.1875	-3.1063	-3.2521	-3.4604	-2.9375	-3.2	-3.3771	-3.0812	-3.3354	-2.9688	-3.0229	-3.3937	449.879	306.590	324.271	494.225	401.319	427.369	462.940	489.942	310.597	209.018	159.166	230.079	493.811	180.473	385.323	445.227	0.00089575	0.00066617	0.00013058	1331.7	6.4295e-06	4.8687e-06	1325.2	358.49	7.2405e-06	5.4579e-06	408.43	137.34	119.91	40.476	5.4497e-06	49.876	0.00077062	0.00082496	0.00019227	1355.9	8.3803e-06	8.638e-06	1352.4	365.77	8.4353e-06	8.2129e-06	418.69	140.85	122.35	41.689	7.3121e-06	51.791	499.966	253.932	239.615	171.077	277.446	314.242	170.611	175.597	256.377	296.691	175.072	178.954	179.715	184.729	285.684	183.588	-8191	255	
39955.242	1	1	0	0	0.048079	0.037899	0.26179	0.29932	0.18034	0.042525	0.27278	0.12369	0.13232	0.075725	0.11465	0.13616	0.18144	0.20152	0.04803	0.13728	-2.6562	-3.0583	-3.2292	-3.1021	-3.3125	-2.9521	-3.3438	-3.4396	-2.9708	-3.1271	-3.4208	-2.9437	-3.2521	-3.1625	-3.0958	-3.3312	168.664	393.955	324.458	514.690	349.904	317.437	470.898	485.852	447.000	258.094	453.363	477.962	490.298	480.715	216.123	502.860	0.00095632	0.00059261	0.00014018	1335.3	6.6592e-06	5.56e-06	1326.2	359.79	8.2967e-06	5.7873e-06	408.89	137.2	119.12	40.377	4.387e-06	50.051	0.00078812	0.00074366	0.000189	1356.3	8.0788e-06	7.9584e-06	1352.3	366.03	8.272e-06	7.9597e-06	419.07	140.75	122.1	41.566	7.2471e-06	51.73	500.300	254.165	265.510	170.910	281.150	300.894	170.595	175.604	266.389	300.645	174.851	178.904	179.588	184.808	287.165	183.581	-8191	255	
39955.363	1	1	0	0	0.049576	0.17306	0.20416	0.17401	0.36054	0.12892	0.18759	0.12806	0.31793	0.041087	0.11518	0.082887	0.15356	0.24432	0.28594	0.23387	-2.5083	-2.9479	-3.2042	-2.9333	-3.1083	-3.0583	-3.0896	-3.4437	-2.9021	-3.2021	-3.1792	-3.0146	-3.2229	-3.0438	-2.8229	-3.1333	459.141	320.497	468.296	485.754	404.008	369.051	446.059	174.510	186.999	286.943	402.806	214.758	445.572	162.129	163.158	344.793	0.00096764	0.00056538	0.00016919	1327.8	4.2418e-06	5.3102e-06	1325.2	357.84	7.4085e-06	5.1152e-06	409.14	138.2	119.79	40.413	3.5763e-06	49.964	0.00078433	0.00072465	0.00019876	1354.8	8.1243e-06	7.8953e-06	1353.2	365.85	8.2426e-06	7.9417e-06	419.05	140.82	122.1	41.709	7.4891e-06	51.84	500.315	248.270	252.785	170.896	271.168	333.176	170.593	175.653	260.775	308.955	175.147	178.900	179.501	184.890	271.471	183.795	-8191	255	
39955.434	1	1	0	0	0.11721	0.24442	0.18829	0.28124	0.17967	0.12424	0.13164	0.22813	0.14015	0.12635	0.2467	0.24118	0.085553	0.091578	0.25991	0.21613	-2.4958	-3.1167	-2.9	-3.0125	-3.1083	-3.0125	-3.1354	-3.4479	-3.0021	-2.9729	-3.2792	-2.9604	-3.1125	-3.3271	-2.725	-3.2833	403.924	352.221	352.231	472.321	352.389	326.757	459.967	489.502	470.226	404.049	487.672	220.252	490.836	489.359	332.272	425.122	0.00091661	0.00051767	0.00013026	1331.9	6.398e-06	4.8307e-06	1326.8	358.46	7.9737e-06	4.7948e-06	410.1	137.14	119.55	40.361	6.1956e-06	49.862	0.00075414	0.00074445	0.00019874	1356.4	7.8689e-06	7.7169e-06	1354.5	366.11	8.0632e-06	7.7929e-06	419.75	140.71	122.29	41.642	8.1896e-06	51.79	497.800	236.856	256.309	171.032	287.154	302.907	170.604	175.655	276.974	330.426	175.053	178.670	179.529	184.745	285.413	183.742	-8191	255	
39955.531	1	1	0	0	0.066445	0.34868	0.19842	0.072435	0.29574	0.10992	0.12725	0.27073	0.090148	0.1353	0.15001	0.32128	0.13198	0.11087	0.23232	0.14766	-2.5812	-3.05	-3.1437	-2.8979	-3.0229	-3.2021	-3.1437	-3.3083	-3.0417	-3.0687	-3.3667	-2.95	-3.225	-3.2479	-2.9208	-3.2146	347.266	398.627	245.171	304.110	284.611	479.647	421.384	204.998	457.677	356.121	379.214	504.982	400.497	507.139	247.390	174.038	0.00093409	0.00038927	9.841e-05	1334.3	6.094e-06	3.5022e-06	1325.5	359.62	6.7817e-06	6.3896e-06	408.14	137.75	119.55	40.422	7.6795e-06	49.898	0.00074548	0.00072198	0.00020922	1355.8	7.7039e-06	7.6595e-06	1352.6	366.22	7.7446e-06	7.9014e-06	418.48	140.74	122.48	41.66	8.4554e-06	51.69	498.752	252.543	245.788	171.208	270.170	325.089	170.450	175.519	278.566	299.510	175.024	178.891	179.306	184.709	278.557	183.680	-8191	255	
39955.652	1	1	0	0	0.23329	0.27476	0.29263	0.21548	0.13876	0.10254	0.34887	0.20709	0.21992	0.098476	0.20094	0.19922	0.305	0.11285	0.06243	0.14054	-2.6229	-2.8229	-3.2938	-3.1688	-3.0271	-3.0771	-2.9562	-3.4271	-3.1375	-2.9146	-3.3937	-3.05	-2.9792	-3.2042	-3.0312	-3.3187	432.047	349.482	267.736	175.596	314.381	371.261	449.836	443.437	459.322	289.064	384.586	488.006	463.070	403.483	434.309	240.484	0.00094151	0.00042685	6.379e-05	1330.1	5.7345e-06	6.5727e-06	1322.6	359.34	7.9312e-06	5.0428e-06	408.47	138.07	119.53	40.219	6.7727e-06	49.815	0.00073156	0.00073455	0.00020966	1355.4	7.4567e-06	8.0812e-06	1352.8	365.95	7.6e-06	8.3994e-06	419.34	140.72	122.12	41.595	8.29e-06	51.74	498.874	252.042	226.636	171.036	278.588	317.494	170.581	175.605	260.371	316.314	175.218	178.758	179.463	184.575	281.725	183.469	-8191	255	
39955.746	1	1	0	0	0.079395	0.23337	0.2201	0.20205	0.13642	0.1164	0.26166	0.24541	0.1199	0.11514	0.18934	0.21249	0.071207	0.18253	0.12412	0.13586	-2.6604	-2.8583	-3.3458	-3.1104	-3.0938	-3.1979	-2.9229	-3.3042	-3.2146	-2.925	-3.3812	-3.05	-2.9646	-3.1896	-2.975	-3.2104	510.962	309.192	259.038	399.327	256.512	197.930	445.135	475.847	476.088	403.544	500.321	458.829	398.551	184.874	512.180	435.747	0.00094149	0.00050866	9.4268e-05	1331.2	6.1994e-06	4.0938e-06	1326.1	358.65	7.9394e-06	5.2408e-06	408.1	137.58	119.75	40.366	5.9342e-06	49.897	0.00074711	0.00075833	0.00020731	1356.3	7.6156e-06	8.466e-06	1354.4	366.14	7.495e-06	8.2934e-06	418.84	140.56	122.48	41.651	8.2127e-06	51.756	497.138	242.230	246.721	171.020	277.812	291.630	170.506	175.595	261.546	288.073	175.149	178.961	179.267	184.509	271.489	183.593	-8191	255	
39955.844	1	1	0	0	0.25379	0.11431	0.12265	0.1191	0.041217	0.1007	0.11098	0.18526	0.049748	0.23552	0.18976	0.096722	0.18218	0.21323	0.32787	0.054081	-2.7458	-2.8792	-3.2042	-3.2125	-3.0292	-3.2479	-3.2	-3.3521	-3.1771	-2.9625	-3.3	-3.0625	-3.0271	-3.3125	-3.0458	-3.0979	163.203	482.680	240.809	198.384	185.324	222.531	391.444	418.651	333.646	380.495	391.468	474.067	441.485	200.796	371.987	251.094	0.00093702	0.0006277	0.00014043	1333.5	6.8409e-06	5.911e-06	1324.9	358.44	7.5156e-06	3.1604e-06	408.52	137.4	119.33	40.274	4.2253e-06	50.003	0.00072565	0.00077914	0.0002091	1358.4	7.6095e-06	8.4013e-06	1353	366.04	7.6154e-06	8.4249e-06	418.86	140.69	122.06	41.683	7.8986e-06	51.768	499.437	239.307	250.877	171.147	270.887	307.873	170.619	175.524	264.132	321.953	175.154	178.902	179.694	184.819	274.997	183.756	-8191	255	
39955.965	1	1	0	0	0.10184	0.072695	0.075192	0.15956	0.11073	0.17611	0.33838	0.15007	0.12711	0.15523	0.32386	0.30712	0.14937	0.2853	0.12646	0.18367	-2.7479	-2.8792	-3.2958	-3.3542	-2.75	-3.3854	-3.2917	-3.3042	-3.3458	-2.9333	-3.2396	-3.0833	-3.0354	-3.2062	-3.0292	-3.1188	402.561	298.027	447.955	480.012	407.811	280.500	426.327	451.155	332.429	488.234	407.414	471.868	187.564	469.160	376.751	439.608	0.00097265	0.00066931	0.00012636	1329.4	6.8642e-06	5.4279e-06	1324.9	357.95	8.832e-06	4.1827e-06	409.21	137.4	119.83	40.325	6.0972e-06	50.017	0.00073502	0.00079143	0.0001993	1355.9	7.5443e-06	8.4366e-06	1351.5	365.76	7.843e-06	8.2893e-06	418.41	140.56	122.2	41.656	7.991e-06	51.716	500.822	244.337	263.366	171.154	276.351	308.336	170.608	175.551	260.821	282.293	175.042	178.913	179.499	184.670	273.152	183.695	-8191	255	
39956.059	1	1	0	0	0.080882	0.086744	0.10801	0.067433	0.086399	0.095997	0.26823	0.085683	0.15808	0.062032	0.13733	0.13103	0.19017	0.18056	0.18174	0.027588	-2.7625	-2.7812	-3.0354	-3.2708	-2.9688	-3.2896	-3.0854	-3.2938	-3.2042	-2.9729	-3.3937	-3.1375	-3.075	-3.1271	-2.9292	-2.9854	231.448	186.851	433.989	500.183	410.178	207.458	446.136	507.651	383.954	293.713	458.000	453.646	448.627	458.344	326.515	464.530	0.00096147	0.00050135	0.00014569	1326	6.1242e-06	4.4154e-06	1328.7	358.67	8.7948e-06	4.6003e-06	409.51	137.62	119.32	40.43	5.9087e-06	49.968	0.00075641	0.00075638	0.00019792	1351.9	7.966e-06	8.2622e-06	1350.3	366.21	8.1817e-06	8.3575e-06	419.04	140.61	122.08	41.59	7.5172e-06	51.705	497.424	246.719	246.653	171.011	281.792	291.626	170.654	175.532	256.361	308.074	175.182	178.850	179.470	184.670	294.415	183.716	-8191	255	
39956.133	1	1	0	0	0.096562	0.16327	0.12506	0.19866	0.10742	0.27155	0.095154	0.17625	0.18163	0.20852	0.29012	0.29312	0.21659	0.15556	0.16855	0.26196	-2.8333	-2.8396	-3.0792	-3.2062	-2.8396	-3.1771	-3.1979	-3.0021	-3.1354	-2.9708	-3.3458	-3.1833	-2.9604	-3.2854	-3.0417	-2.95	461.571	357.816	273.831	481.486	416.726	486.820	472.798	212.989	506.684	409.809	459.143	455.303	204.171	215.184	508.416	465.309	0.0009224	0.0004431	0.00014484	1328.2	6.6087e-06	4.5875e-06	1327.8	359.12	8.1571e-06	6.7005e-06	409.27	137.65	119.41	40.478	5.7253e-06	49.912	0.00077679	0.00080538	0.00019902	1352.7	8.6098e-06	8.9065e-06	1351.3	365.96	8.6007e-06	9.0553e-06	418.38	140.56	122.02	41.66	7.8451e-06	51.637	500.571	242.762	250.017	170.945	278.103	319.640	170.461	175.531	272.279	306.081	175.216	178.758	179.679	184.522	280.637	183.536	-8191	255	
39956.254	1	1	0	0	0.23673	0.20979	0.24113	0.32066	0.28545	0.032826	0.084963	0.1993	0.063817	0.13562	0.080876	0.23988	0.17026	0.29022	0.14273	0.36053	-2.7271	-2.8479	-2.8812	-3.3458	-2.8583	-3.2479	-3.1667	-2.9688	-3.2438	-3.0292	-3.0875	-3.3417	-2.8604	-3.2729	-3.1375	-2.9708	360.367	159.708	325.397	500.119	384.111	393.005	512.695	472.761	256.197	445.293	231.057	476.491	428.054	165.962	452.300	426.515	0.00092815	0.00039101	0.00014041	1334.9	6.6493e-06	3.6984e-06	1331.1	359.29	8.4794e-06	6.3084e-06	409.5	137.99	119.55	40.456	6.7844e-06	50.181	0.00078913	0.00081665	0.00020053	1358.1	8.8985e-06	8.8181e-06	1354.1	366.64	8.6167e-06	8.7405e-06	419.53	140.92	122.49	41.651	8.0524e-06	51.849	498.680	270.598	244.415	170.987	289.735	322.760	170.368	175.509	259.523	307.067	175.147	178.941	179.424	184.650	288.712	183.797	-8191	255	
39956.348	1	1	0	0	0.23369	0.074769	0.14545	0.32125	0.061545	0.24242	0.08184	0.21178	0.020123	0.21738	0.16396	0.05461	0.13244	0.18216	0.14139	0.091258	-2.6875	-2.8792	-2.9	-3.3312	-2.9708	-3.0938	-3.3021	-2.9917	-3.3104	-2.9896	-3.2375	-3.2042	-3.1604	-3.1979	-3.1542	-3.0083	393.140	409.552	459.367	498.469	258.463	158.068	444.238	449.524	470.925	427.657	424.253	515.700	220.855	514.649	365.358	321.544	0.00093585	0.00054629	0.00012129	1334.3	6.1496e-06	5.3236e-06	1330.8	359.74	8.4703e-06	4.6836e-06	410.11	137.63	119.56	40.461	5.7466e-06	49.986	0.00080647	0.00079743	0.00020404	1359.9	8.5616e-06	8.29e-06	1357.1	366.41	8.592e-06	8.6328e-06	419.98	140.91	122.15	41.621	7.9845e-06	51.805	497.837	248.957	247.355	170.983	276.983	316.167	170.672	175.464	263.875	296.029	175.063	178.954	179.639	184.677	274.208	183.640	-8191	255	
39956.441	1	1	0	0	0.23662	0.21454	0.068901	0.42154	0.066805	0.29039	0.30866	0.085355	0.11786	0.26583	0.20969	0.21862	0.17928	0.12096	0.050341	0.14821	-2.7854	-2.8354	-2.8875	-3.2938	-2.7521	-3.2979	-3.3417	-2.9896	-2.9729	-3.0229	-3.0271	-3.2771	-3.1542	-3.0729	-3.2313	-3.1479	188.826	422.572	315.946	454.597	172.278	267.542	463.929	354.605	387.280	315.758	445.552	490.744	471.557	396.559	287.460	403.184	0.00093265	0.00059674	0.00015903	1335	5.2305e-06	4.1449e-06	1328.1	357.41	8.0193e-06	4.5453e-06	409.74	138.11	119.52	40.44	5.8063e-06	50.008	0.00078152	0.00074698	0.00021518	1360.2	8.4421e-06	7.6702e-06	1355.4	366.11	8.2345e-06	7.8628e-06	419.04	140.87	122.3	41.684	8.0683e-06	51.776	497.550	266.656	255.384	171.120	276.776	303.701	170.751	175.551	264.542	306.743	175.359	178.940	179.441	184.610	269.871	183.722	-8191	255	
39956.539	1	1	0	0	0.15415	0.26858	0.16379	0.1312	0.21488	0.25814	0.23239	0.10223	0.25661	0.071968	0.094646	0.22787	0.20969	0.019825	0.22321	0.048329	-2.8146	-3.1292	-2.9896	-3.4625	-2.8979	-2.9688	-3.4417	-3.05	-3.2062	-2.9292	-2.9521	-3.2979	-3.0625	-3.0042	-3.3667	-2.8312	332.307	478.051	302.747	174.804	461.195	511.072	434.943	473.048	246.891	387.685	245.996	404.150	492.825	426.048	458.537	438.084	0.00092926	0.0005433	0.00010369	1334.6	5.4263e-06	3.9969e-06	1329.7	359.91	7.7615e-06	3.9802e-06	408.42	138.22	119.22	40.576	5.6337e-06	50.006	0.0007751	0.00074315	0.00022374	1358.3	8.2458e-06	8.1803e-06	1355.6	366.61	8.2399e-06	8.3279e-06	419.43	140.98	122.04	41.674	8.3803e-06	51.752	498.604	249.931	256.704	171.057	267.844	291.557	170.573	175.485	259.253	301.305	174.942	178.844	179.405	184.665	292.487	183.704	-8191	255	
39956.637	1	1	0	0	0.11762	0.19357	0.071861	0.11733	0.064025	0.16122	0.21573	0.26245	0.11757	0.28362	0.31278	0.19522	0.091506	0.10269	0.20252	0.22312	-2.7562	-3.0958	-2.8187	-3.3812	-3.0208	-3.0917	-3.4333	-3.0396	-3.2125	-3.0938	-3.0062	-3.2938	-2.9417	-3.1604	-3.0771	-3.2333	208.391	294.209	301.669	492.013	168.316	491.785	420.404	477.418	289.294	475.376	495.798	502.166	418.603	493.226	411.984	506.187	0.00094367	0.00054733	0.00014455	1334.7	5.493e-06	4.704e-06	1327.4	359.15	7.8818e-06	4.5676e-06	410.23	137.35	119.63	40.419	4.9316e-06	50.092	0.00076153	0.00076476	0.00022661	1360	8.0808e-06	8.3743e-06	1355.9	366.6	8.1027e-06	8.3797e-06	420.33	140.8	122.21	41.712	8.6049e-06	51.795	499.440	271.959	251.186	170.964	283.523	308.973	170.682	175.698	257.654	298.180	174.997	178.912	179.413	184.557	281.936	183.710	-8191	255	
39956.730	1	1	0	0	0.13049	0.15012	0.28231	0.23045	0.12875	0.1826	0.29381	0.24016	0.17536	0.14366	0.247	0.27172	0.0681	0.1253	0.091586	0.050334	-2.6896	-3.2396	-2.7833	-3.4875	-3.0917	-2.7729	-3.4313	-3.2083	-3.2812	-3.2667	-2.9917	-3.3187	-3.1771	-2.9667	-3.1312	-3.0271	408.500	280.383	455.645	466.295	328.483	438.923	454.778	379.748	167.519	514.047	509.699	467.428	458.649	190.540	408.667	475.050	0.0009386	0.00045163	9.5192e-05	1331.7	4.7719e-06	6.1293e-06	1328.7	360.04	7.1515e-06	3.6135e-06	408.68	137.92	119.65	40.333	4.7214e-06	50.215	0.00076067	0.00078854	0.00022721	1359.8	7.7827e-06	8.57e-06	1356.8	366.79	7.9113e-06	8.7002e-06	419.7	140.88	122.24	41.688	8.6879e-06	51.814	499.658	248.587	251.003	171.046	283.259	303.602	170.679	175.488	265.060	303.055	175.116	179.030	179.498	184.693	279.074	183.772	-8191	255	
39956.828	1	1	0	0	0.20653	0.069067	0.12886	0.28501	0.09777	0.10096	0.5334	0.2147	0.15751	0.1697	0.21505	0.16417	0.032155	0.26054	0.087665	0.29078	-2.7438	-3.1437	-2.9375	-3.2354	-3.2229	-2.8438	-3.4292	-3.0771	-3.0167	-3.2729	-3.0438	-3.2188	-3.2104	-2.8104	-3.2396	-2.9167	456.390	509.576	511.169	496.915	458.789	211.762	422.884	493.913	433.478	284.915	437.965	404.829	452.814	397.846	261.560	499.334	0.00095961	0.00047413	0.00014021	1342	4.3856e-06	4.9962e-06	1335.3	360.58	1.0277e-05	4.6183e-06	409.91	138.28	119.92	40.479	7.1954e-06	50.004	0.00076424	0.00081361	0.00022548	1362.7	7.6156e-06	8.6322e-06	1360.4	366.83	7.9394e-06	8.7397e-06	419.91	141.13	122.51	41.655	8.7255e-06	51.697	500.136	248.044	239.604	171.108	275.340	315.706	170.580	175.506	257.919	300.261	174.987	178.929	179.386	184.698	299.071	183.747	-8191	255	
39956.926	1	1	0	0	0.16168	0.067997	0.29541	0.14222	0.17591	0.24984	0.30299	0.36482	0.13643	0.22325	0.16055	0.28837	0.1467	0.18841	0.18511	0.32782	-2.7875	-3.2146	-2.7562	-3.375	-3.1729	-3.025	-3.4313	-3.1146	-2.8646	-3.1375	-3.1417	-3.1625	-3.3146	-3.0667	-3.2667	-3.0812	409.749	400.978	336.890	446.159	269.173	344.922	440.493	460.118	414.948	449.740	424.018	435.398	437.399	494.394	173.015	475.171	0.00094942	0.0005441	0.00011279	1336.5	5.5705e-06	5.6104e-06	1331.6	358.38	7.9577e-06	4.4224e-06	409.4	138.09	119.47	40.482	6.346e-06	49.959	0.00075025	0.00083537	0.00022502	1361.5	7.6584e-06	9.162e-06	1357.7	366.84	8.1288e-06	8.8991e-06	419.46	140.74	122.31	41.728	8.3839e-06	51.818	497.970	247.357	254.669	170.961	278.286	313.336	170.542	175.382	270.556	293.831	175.132	178.785	179.477	184.728	287.130	183.515	-8191	255	
39957.047	1	1	0	0	0.048394	0.10899	0.077333	0.090956	0.22721	0.060905	0.29753	0.36684	0.076375	0.1883	0.0031729	0.29941	0.19742	0.18793	0.16504	0.19449	-2.5438	-3.2812	-2.9583	-3.3563	-3.2771	-3.0292	-3.4708	-3.1458	-2.9604	-3.2562	-3.1354	-3.1063	-3.2125	-2.9313	-3.2458	-3.0896	241.737	243.742	313.621	358.385	351.376	200.562	514.674	486.334	201.445	300.986	362.389	403.298	448.744	406.469	325.591	277.470	0.00099457	0.00054598	0.00012504	1334.8	6.4917e-06	4.3834e-06	1328.7	358.6	8.7518e-06	4.8779e-06	409.72	137.92	119.91	40.596	6.0068e-06	49.957	0.00077153	0.00079988	0.00021038	1360.1	7.8282e-06	8.7755e-06	1356.4	366.67	8.1462e-06	8.743e-06	419.12	140.84	122.36	41.69	7.661e-06	51.741	498.424	258.541	249.799	171.025	267.732	298.114	170.689	175.571	256.873	312.746	174.982	179.124	179.570	184.587	293.937	183.544	-8191	255	
39957.141	1	1	0	0	0.019929	0.19356	0.15829	0.10858	0.087226	0.14755	0.26266	0.32369	0.028392	0.071468	0.1102	0.12898	0.23869	0.27829	0.16828	0.15141	-2.4604	-3.0792	-3.0458	-3.1104	-3.3708	-2.8896	-3.2917	-3.4167	-2.8167	-3.25	-3.2	-3.0521	-3.6063	-2.9646	-3.2271	-3.1542	486.897	253.526	299.981	449.999	314.340	178.562	423.221	424.966	480.156	225.985	489.235	467.854	477.819	486.884	413.624	344.698	0.00095137	0.00045431	0.00014631	1337	6.4438e-06	5.2984e-06	1332.6	359.85	7.4523e-06	5.1189e-06	410.2	138.07	119.75	40.462	6.17e-06	50.137	0.00077463	0.00078557	0.00019671	1360.6	8.1073e-06	8.7379e-06	1356.5	367.11	8.3122e-06	8.6575e-06	420.08	140.83	122.33	41.667	7.3179e-06	51.768	500.268	248.896	240.517	171.133	294.472	306.915	170.473	175.643	267.165	292.076	174.991	178.906	179.490	184.709	275.907	183.671	-8191	255	
39957.238	1	1	0	0	0.31171	0.30857	0.29175	0.2252	0.22405	0.10385	0.22338	0.23209	0.45273	0.031964	0.14659	0.30622	0.083908	0.1503	0.10791	0.14868	-2.5563	-3.0979	-2.9458	-3.225	-3.1417	-2.8708	-3.3937	-3.2667	-2.8354	-3.3125	-3.15	-3.1792	-3.3	-3.0479	-3.1167	-3.1583	333.300	278.699	245.631	432.444	463.002	281.975	470.660	160.497	315.162	398.544	162.347	429.811	486.320	469.665	319.867	201.635	0.00092911	0.00053233	0.00015736	1338.3	5.7542e-06	4.9033e-06	1331.8	359.45	8.7487e-06	3.3227e-06	408.77	137.99	119.6	40.668	5.4312e-06	50.301	0.00078844	0.00077842	0.00019502	1363.3	8.1134e-06	8.5774e-06	1358.1	366.92	8.6415e-06	8.3353e-06	419.34	140.99	122.34	41.789	7.4255e-06	51.852	499.379	242.995	262.139	170.915	288.181	311.132	170.614	175.504	277.566	311.431	174.967	179.015	179.703	184.531	290.246	183.707	-8191	255	
39957.332	1	1	0	0	0.28185	0.12521	0.36439	0.16408	0.12174	0.077607	0.27771	0.3529	0.12576	0.10315	0.068277	0.20077	0.20832	0.17274	0.11788	0.21087	-2.4083	-3.0396	-3.05	-3.0812	-3.2729	-2.6813	-3.2438	-3.3042	-2.8563	-3.1896	-3.1875	-3.0167	-3.3021	-2.9125	-3.0667	-3.3979	287.092	504.960	389.576	493.178	391.439	473.544	484.924	453.635	369.182	342.215	231.458	464.378	173.585	193.160	408.793	217.433	0.00094077	0.00062038	0.00017425	1337.7	5.6726e-06	4.2768e-06	1334	360.51	8.0541e-06	5.116e-06	409.56	138.41	119.67	40.497	6.1638e-06	49.996	0.00077676	0.00077654	0.00019705	1361	8.2241e-06	7.9707e-06	1358.2	367.17	8.2653e-06	8.254e-06	419.92	141.07	122.41	41.682	7.5476e-06	51.768	499.946	251.085	254.018	170.831	279.244	315.362	170.632	175.530	262.478	311.992	174.940	179.057	179.492	184.717	285.739	183.924	-8191	255	
39957.430	1	1	0	0	0.19047	0.18545	0.2447	0.14637	0.083532	0.062053	0.47953	0.19221	0.12481	0.252	0.11509	0.12212	0.10025	0.25042	0.20414	0.16287	-2.4583	-3.0042	-3.0292	-3.05	-3.2208	-3.0854	-3.1437	-3.4396	-2.9146	-3.0563	-3.2	-2.8937	-3.3708	-3.1521	-2.8521	-3.3187	359.813	384.888	393.695	451.522	316.002	434.778	418.939	462.897	304.231	195.888	424.403	320.869	384.678	201.764	264.160	443.015	0.00094646	0.00057841	0.00014441	1337.2	6.51e-06	5.5174e-06	1331.5	359.51	7.1325e-06	5.0795e-06	408.64	137.99	119.54	40.309	5.6695e-06	49.966	0.00079302	0.00072002	0.0001993	1360.6	7.9036e-06	7.6366e-06	1356.4	366.78	8.1857e-06	7.5677e-06	419.59	140.96	122.17	41.668	7.843e-06	51.815	498.169	255.218	261.613	171.153	284.029	313.084	170.494	175.627	262.054	304.058	175.099	178.872	179.302	184.681	271.969	183.544	-8191	255	
39957.523	1	1	0	0	0.22458	0.19205	0.25269	0.27413	0.066201	0.13348	0.093171	0.13703	0.14634	0.11727	0.19549	0.29362	0.10108	0.09348	0.20223	0.25603	-2.4896	-3.1646	-3.1021	-3.1021	-3.0646	-3.1063	-3.3396	-3.4875	-3.0875	-2.9125	-3.3104	-3.0875	-3.1958	-3	-2.8625	-3.3896	492.207	297.701	210.035	505.771	260.905	491.155	506.553	458.344	276.412	256.042	472.201	469.503	158.830	199.880	367.005	513.862	0.00094646	0.00063344	0.00014582	1335.7	6.529e-06	5.0457e-06	1330.5	360.12	8.2968e-06	4.9168e-06	410.84	137.9	120.01	40.42	6.1741e-06	49.938	0.00075789	0.00070369	0.00020215	1361.7	7.727e-06	7.7594e-06	1356.2	367.3	7.7841e-06	7.525e-06	419.96	141.13	122.58	41.698	8.0899e-06	51.703	499.652	255.496	238.641	170.994	276.708	306.219	170.624	175.487	262.525	279.738	174.881	178.831	179.521	184.743	276.965	183.724	-8191	255	
39957.645	1	1	0	0	0.1043	0.18983	0.21288	0.20837	0.094666	0.22035	0.14895	0.13765	0.029446	0.4281	0.20513	0.13744	0.094397	0.17853	0.087853	0.21783	-2.4542	-3.0958	-3.3146	-3.0396	-2.9979	-3.0312	-3.0354	-3.375	-2.9625	-3.0354	-3.2771	-3.1021	-3.4062	-3.1312	-2.8104	-3.2875	481.060	257.179	242.957	450.592	381.628	511.620	511.221	434.469	401.363	166.593	476.297	161.701	465.086	500.199	328.507	163.947	0.00085923	0.00050474	0.00012624	1337.6	5.7965e-06	5.4767e-06	1328.8	359.2	7.6487e-06	4.321e-06	411.24	137.93	119.63	40.482	4.7734e-06	50.151	0.00073026	0.00070904	0.00021139	1359.6	7.5633e-06	7.8773e-06	1356.6	366.62	7.5659e-06	7.9096e-06	419.41	140.9	122.27	41.744	8.2871e-06	51.795	496.557	252.571	253.303	170.882	268.001	320.499	170.596	175.420	257.804	290.965	174.948	178.787	179.489	184.602	277.911	183.657	-8191	255	
39957.738	1	1	0	0	0.12023	0.16913	0.35793	0.3198	0.24567	0.14386	0.2274	0.11357	0.26219	0.21318	0.29755	0.27479	0.42004	0.11264	0.039908	0.16066	-2.5104	-3.0375	-3.3083	-3.2083	-3.0958	-3.1271	-3.0938	-3.5583	-2.875	-3.0479	-3.4396	-3.125	-3.2812	-3.0521	-2.8812	-3.0917	282.856	314.812	312.151	464.348	337.559	304.267	472.945	481.816	436.899	275.019	419.942	448.649	162.007	223.530	416.670	474.450	0.00096603	0.00045279	0.00013997	1336.2	5.1725e-06	3.5775e-06	1333.8	359.73	8.0044e-06	5.8951e-06	409.57	137.91	119.68	40.565	5.4115e-06	49.854	0.00075089	0.00076136	0.00020695	1360.4	7.2367e-06	7.9003e-06	1358.3	367.11	7.6456e-06	8.4323e-06	419.79	140.88	122.46	41.744	8.6294e-06	51.731	498.362	248.531	247.550	170.996	275.047	316.598	170.656	175.440	266.630	302.884	175.036	178.867	179.604	184.668	286.394	183.840	-8191	255	
39957.836	1	1	0	0	0.089214	0.24153	0.090309	0.15818	0.17646	0.072054	0.29993	0.12921	0.11378	0.23964	0.097175	0.08188	0.16443	0.23032	0.097352	0.11435	-2.6917	-2.8271	-3.2562	-2.9708	-3.1063	-3.1208	-3.1125	-3.3146	-2.9979	-2.8042	-3.3187	-3.0667	-3.2438	-3.1229	-2.7375	-3.1667	368.246	428.590	233.106	163.103	505.160	247.331	411.904	448.360	288.351	472.001	343.219	177.182	195.706	158.669	419.129	396.687	0.00095879	0.0005079	0.00016073	1339.6	6.3202e-06	5.4428e-06	1330.2	358.7	7.6445e-06	5.0095e-06	409.75	137.93	119.21	40.551	3.917e-06	50.036	0.00073769	0.00078348	0.00021577	1362.6	7.566e-06	8.2327e-06	1358.1	366.94	7.7219e-06	8.5449e-06	420.09	140.91	122.4	41.77	8.386e-06	51.806	500.051	243.427	263.031	171.099	283.666	305.824	170.433	175.393	255.180	292.746	175.322	178.859	179.585	184.742	291.262	183.452	-8191	255	
#DATA ENDS
