BOXY.EXE: ISS Imagent and Oximeter Data Acquisition Program Version 0.80
Ascii Record File

#ACQ INFORMATION
2  Detector Channels 
16  External MUX Channels 
1  Auxiliary Channels 
5000  Waveform (CCF) Frequency (Hz)
1  Waveforms Skipped 
30  Waveforms Averaged 
1  Cycles Averaged 
16  Acquisitions per Waveform 
10.0806  Updata Rate (Hz) 

#FILE INFORMATION
TRUE -- External MUX Channel results are PARSED.
FALSE -- AC DC and Phase are NOT grouped.
TRUE -- Companion Program Settings File CREATED.
FALSE -- AC data not excluded
FALSE -- DC data not excluded
FALSE -- Phase data not excluded
FALSE -- Auxillary Chn. data not excluded
Tab delimiters

#CALIBRATION STATE
TRUE -- Waveform Calibration Values APPLIED.


#AUX CALIBRATION VALUES
Val Type	aux-1	

Term	1.0000e+00	
Factor	0.0000e+00	


#WF CALIBRATION VALUES
A = Detector Channel
Val Type	A-AC1	A-AC2	A-AC3	A-AC4	A-AC5	A-AC6	A-AC7	A-AC8	A-AC9	A-AC10	A-AC11	A-AC12	A-AC13	A-AC14	A-AC15	A-AC16	A-DC1	A-DC2	A-DC3	A-DC4	A-DC5	A-DC6	A-DC7	A-DC8	A-DC9	A-DC10	A-DC11	A-DC12	A-DC13	A-DC14	A-DC15	A-DC16	A-Ph1	A-Ph2	A-Ph3	A-Ph4	A-Ph5	A-Ph6	A-Ph7	A-Ph8	A-Ph9	A-Ph10	A-Ph11	A-Ph12	A-Ph13	A-Ph14	A-Ph15	A-Ph16	

Term	0.00000e+00	0.00000e+00	0.00000e+00	0.00000e+00	0.00000e+00	0.00000e+00	0.00000e+00	0.00000e+00	0.00000e+00	0.00000e+00	0.00000e+00	0.00000e+00	0.00000e+00	0.00000e+00	0.00000e+00	0.00000e+00	0.00000e+00	0.00000e+00	0.00000e+00	0.00000e+00	0.00000e+00	0.00000e+00	0.00000e+00	0.00000e+00	0.00000e+00	0.00000e+00	0.00000e+00	0.00000e+00	0.00000e+00	0.00000e+00	0.00000e+00	0.00000e+00	0.00000e+00	0.00000e+00	0.00000e+00	0.00000e+00	0.00000e+00	0.00000e+00	0.00000e+00	0.00000e+00	0.00000e+00	0.00000e+00	0.00000e+00	0.00000e+00	0.00000e+00	0.00000e+00	0.00000e+00	0.00000e+00	
Factor	1.00000e+00	1.00000e+00	1.00000e+00	1.00000e+00	1.00000e+00	1.00000e+00	1.00000e+00	1.00000e+00	1.00000e+00	1.00000e+00	1.00000e+00	1.00000e+00	1.00000e+00	1.00000e+00	1.00000e+00	1.00000e+00	1.00000e+00	1.00000e+00	1.00000e+00	1.00000e+00	1.00000e+00	1.00000e+00	1.00000e+00	1.00000e+00	1.00000e+00	1.00000e+00	1.00000e+00	1.00000e+00	1.00000e+00	1.00000e+00	1.00000e+00	1.00000e+00	X	X	X	X	X	X	X	X	X	X	X	X	X	X	X	X	

B = Detector Channel
Val Type	B-AC1	B-AC2	B-AC3	B-AC4	B-AC5	B-AC6	B-AC7	B-AC8	B-AC9	B-AC10	B-AC11	B-AC12	B-AC13	B-AC14	B-AC15	B-AC16	B-DC1	B-DC2	B-DC3	B-DC4	B-DC5	B-DC6	B-DC7	B-DC8	B-DC9	B-DC10	B-DC11	B-DC12	B-DC13	B-DC14	B-DC15	B-DC16	B-Ph1	B-Ph2	B-Ph3	B-Ph4	B-Ph5	B-Ph6	B-Ph7	B-Ph8	B-Ph9	B-Ph10	B-Ph11	B-Ph12	B-Ph13	B-Ph14	B-Ph15	B-Ph16	

Term	0.00000e+00	0.00000e+00	0.00000e+00	0.00000e+00	0.00000e+00	0.00000e+00	0.00000e+00	0.00000e+00	0.00000e+00	0.00000e+00	0.00000e+00	0.00000e+00	0.00000e+00	0.00000e+00	0.00000e+00	0.00000e+00	0.00000e+00	0.00000e+00	0.00000e+00	0.00000e+00	0.00000e+00	0.00000e+00	0.00000e+00	0.00000e+00	0.00000e+00	0.00000e+00	0.00000e+00	0.00000e+00	0.00000e+00	0.00000e+00	0.00000e+00	0.00000e+00	-1.83054e+02	-1.28695e+02	-1.24060e+02	-1.82730e+02	-8.03315e+01	-6.64456e+01	-1.55606e+02	-1.62015e+02	-9.22986e+01	-6.89241e+01	-1.72279e+02	-1.70080e+02	-1.79579e+02	-1.77215e+02	-7.89233e+01	-1.49329e+02	
Factor	2.99331e-05	1.55479e-04	4.19442e-05	1.61934e-01	1.57654e-06	1.69154e-06	1.52548e-01	4.60961e-02	1.71663e-06	1.67939e-06	8.77263e-02	2.69812e-02	2.54748e-02	8.56556e-03	1.66169e-06	1.23162e-02	1.73125e-05	3.46895e-05	9.63778e-06	8.07384e-02	3.25976e-07	3.93007e-07	7.18427e-02	2.31086e-02	3.21270e-07	3.94494e-07	4.28785e-02	1.32135e-02	1.29370e-02	4.33807e-03	3.46650e-07	6.07619e-03	X	X	X	X	X	X	X	X	X	X	X	X	X	X	X	X	



#DISTANCE SETTINGS
A = Detector Channel
A-1	A-2	A-3	A-4	A-5	A-6	A-7	A-8	A-9	A-10	A-11	A-12	A-13	A-14	A-15	A-16	

2.5000e+00	3.0000e+00	2.5000e+00	3.0000e+00	2.0000e+00	3.0000e+00	1.5000e+00	3.0000e+00	3.0000e+00	3.0000e+00	3.0000e+00	3.0000e+00	3.0000e+00	3.0000e+00	1.5000e+00	3.0000e+00	

B = Detector Channel
B-1	B-2	B-3	B-4	B-5	B-6	B-7	B-8	B-9	B-10	B-11	B-12	B-13	B-14	B-15	B-16	

1.0000e+01	1.0000e+01	1.0000e+01	1.4400e+00	1.0000e+01	1.0000e+01	1.5100e+00	1.9400e+00	1.0000e+01	1.0000e+01	1.9900e+00	2.4900e+00	2.4100e+00	2.9000e+00	1.0000e+01	2.9800e+00	




#DATA BEGINS
time	group	step	mark	flag	A-AC1	A-AC2	A-AC3	A-AC4	A-AC5	A-AC6	A-AC7	A-AC8	A-AC9	A-AC10	A-AC11	A-AC12	A-AC13	A-AC14	A-AC15	A-AC16	A-DC1	A-DC2	A-DC3	A-DC4	A-DC5	A-DC6	A-DC7	A-DC8	A-DC9	A-DC10	A-DC11	A-DC12	A-DC13	A-DC14	A-DC15	A-DC16	A-Ph1	A-Ph2	A-Ph3	A-Ph4	A-Ph5	A-Ph6	A-Ph7	A-Ph8	A-Ph9	A-Ph10	A-Ph11	A-Ph12	A-Ph13	A-Ph14	A-Ph15	A-Ph16	B-AC1	B-AC2	B-AC3	B-AC4	B-AC5	B-AC6	B-AC7	B-AC8	B-AC9	B-AC10	B-AC11	B-AC12	B-AC13	B-AC14	B-AC15	B-AC16	B-DC1	B-DC2	B-DC3	B-DC4	B-DC5	B-DC6	B-DC7	B-DC8	B-DC9	B-DC10	B-DC11	B-DC12	B-DC13	B-DC14	B-DC15	B-DC16	B-Ph1	B-Ph2	B-Ph3	B-Ph4	B-Ph5	B-Ph6	B-Ph7	B-Ph8	B-Ph9	B-Ph10	B-Ph11	B-Ph12	B-Ph13	B-Ph14	B-Ph15	B-Ph16	aux-1	digaux	

39887.875	1	1	0	768	0.11014	0.14269	0.04921	0.070286	0.10253	0.058612	0.23037	0.20876	0.33997	0.090955	0.16036	0.16422	0.1461	0.1656	0.1584	0.45945	-2.7188	-3.1208	-2.9813	-3.3896	-3.1813	-2.975	-3.5625	-3.5062	-3.2562	-3.5875	-3.0667	-3.3271	-3.2687	-3.1646	-3.2167	-3.1833	334.893	414.764	498.670	211.836	282.091	271.094	437.447	463.745	394.387	402.606	472.632	489.130	407.831	456.373	483.122	397.849	0.00095772	0.00047374	0.00017002	1348.1	5.7433e-06	4.2341e-06	1338.5	364.66	6.1059e-06	3.1469e-06	415.71	139.61	121.43	41.553	5.5869e-06	51.125	0.00066999	0.00052627	0.00015286	1371.4	5.9613e-06	5.6577e-06	1369.3	372.49	6.323e-06	5.3594e-06	424.88	142.69	124.02	42.784	5.6923e-06	52.934	497.973	244.842	255.938	170.959	282.654	308.230	170.613	175.418	259.636	313.669	174.788	179.032	179.412	184.603	297.916	183.597	-8191	255	
39887.969	1	1	0	0	0.14851	0.028758	0.26179	0.19525	0.43787	0.084542	0.32033	0.26583	0.27242	0.19179	0.34171	0.38253	0.13972	0.31855	0.25563	0.35517	-2.5917	-3.2417	-2.8896	-3.2354	-3.2521	-2.9604	-3.4896	-3.3479	-3.1437	-3.5104	-3.1667	-3.2354	-3.4	-3.1146	-3.3021	-3.2417	219.717	174.138	483.147	434.828	245.703	420.063	471.433	489.155	401.303	162.559	505.108	488.853	439.624	490.468	381.540	488.077	0.00095083	0.00042598	0.00016615	1345.2	5.0103e-06	4.7508e-06	1342.3	364.3	8.0319e-06	3.6675e-06	414.69	138.98	121.73	41.418	6.3915e-06	51.107	0.00066058	0.00049758	0.00015079	1369.5	5.7474e-06	5.5561e-06	1369	371.86	5.9114e-06	5.4292e-06	424.45	142.47	123.91	42.68	5.9826e-06	52.929	499.361	246.400	256.094	171.161	280.450	312.464	170.557	175.754	270.216	294.127	174.934	178.853	179.556	184.579	288.506	183.460	-8191	255	
39888.066	1	1	0	0	0.16646	0.32508	0.11854	0.18912	0.061363	0.14439	0.26378	0.14872	0.044174	0.089229	0.19861	0.2827	0.12571	0.038828	0.088641	0.092604	-2.5729	-3.2229	-3.0167	-3.3583	-3.2062	-2.9125	-3.3979	-3.3792	-2.8812	-3.4729	-3.1958	-3.4521	-3.35	-3.0583	-3.2792	-3.3292	167.806	288.798	361.339	490.458	493.009	328.142	468.302	391.818	387.117	448.549	400.076	171.815	261.953	225.896	195.604	372.594	0.00098233	0.00047762	0.00014044	1342.8	5.7024e-06	4.0539e-06	1338.6	361.04	7.9772e-06	5.138e-06	410.68	138.23	120.06	41.324	6.2012e-06	51.012	0.00065715	0.00049671	0.00014655	1365.7	5.5375e-06	5.4448e-06	1362.6	369.5	5.8846e-06	5.4177e-06	421.62	141.68	123.03	42.574	5.7147e-06	52.697	499.391	255.416	253.792	171.026	282.668	310.877	170.548	175.530	263.777	313.699	175.118	179.108	179.544	184.640	277.692	183.792	-8191	255	
39888.164	1	1	0	0	0.046836	0.21195	0.23786	0.2073	0.27722	0.18913	0.46778	0.17129	0.20014	0.26911	0.29012	0.084758	0.18597	0.05023	0.10893	0.079459	-2.7042	-3.3854	-3.0625	-3.3458	-3.2979	-3.0625	-3.3312	-3.4229	-3.0917	-3.2333	-3.2146	-3.0792	-3.4625	-3.1354	-3.2042	-3.4167	353.407	164.697	334.863	502.506	215.075	300.855	436.465	178.099	389.249	506.247	509.866	447.749	161.921	483.891	338.189	286.154	0.00097498	0.00046411	0.00017116	1340.1	4.7719e-06	3.5662e-06	1337.3	360.56	7.226e-06	4.5854e-06	410.67	138.79	120.11	41.272	6.7882e-06	51.025	0.00064298	0.0004931	0.00014961	1361.9	5.5144e-06	5.6708e-06	1360.1	368.17	5.6717e-06	5.7185e-06	420.89	141.54	122.91	42.525	6.0664e-06	52.701	498.854	260.163	262.622	171.080	300.988	343.382	170.542	175.392	259.755	304.610	175.053	178.972	179.717	184.581	296.700	183.513	-8191	255	
39888.258	1	1	0	0	0.08147	0.13215	0.12412	0.17672	0.10999	0.12998	0.33988	0.24983	0.22945	0.43063	0.20634	0.28186	0.27091	0.20688	0.11371	0.20254	-2.5479	-3.4458	-3.0938	-3.3479	-3.3625	-3.1792	-3.4542	-3.6771	-3.0646	-3.2604	-3.4271	-3.0896	-3.3333	-3.0375	-3.1271	-3.3563	264.172	344.146	414.360	509.604	259.874	321.319	426.214	470.175	265.149	188.033	235.821	502.019	501.370	185.167	385.799	435.976	0.0009444	0.00038612	0.00015454	1340.4	6.2907e-06	4.7285e-06	1337.3	361.4	8.8426e-06	4.7896e-06	411.61	139.22	120.15	41.289	5.2998e-06	50.869	0.00064857	0.00053516	0.00015479	1363	5.7956e-06	6.0679e-06	1360.9	369.09	6.0867e-06	6.1886e-06	421.36	141.85	123.12	42.562	6.1234e-06	52.719	499.892	252.196	253.625	171.208	279.756	311.948	170.633	175.463	275.546	303.356	175.098	178.962	179.351	184.525	276.204	183.563	-8191	255	
39888.355	1	1	0	0	0.19079	0.2259	0.26947	0.1765	0.24322	0.061323	0.19665	0.23889	0.17752	0.11674	0.12658	0.18713	0.093355	0.23446	0.1322	0.13963	-2.6104	-3.1479	-3.3	-3.1188	-3.2833	-3.25	-3.2646	-3.3958	-2.9958	-3.1854	-3.1417	-3.0021	-3.4604	-3.2396	-3.075	-3.2771	186.555	439.002	173.469	506.777	335.660	179.313	459.256	437.934	290.481	303.822	206.699	515.582	418.613	203.244	484.079	353.931	0.00097804	0.00054568	0.00012831	1338.9	5.1971e-06	4.9982e-06	1339.4	361.98	7.7177e-06	4.4302e-06	412.52	138.68	120.32	41.322	5.5982e-06	50.732	0.00067613	0.00056537	0.00015603	1362.9	5.655e-06	6.0318e-06	1364	369	6.1697e-06	6.1631e-06	421.91	141.79	123.29	42.483	5.9313e-06	52.693	499.731	231.106	244.696	171.069	278.112	303.712	170.652	175.529	261.781	289.953	174.977	178.727	179.551	184.297	287.008	183.729	-8191	255	
39888.477	1	1	0	0	0.17673	0.24184	0.13242	0.034314	0.23159	0.099301	0.13967	0.12013	0.19246	0.018221	0.25182	0.27801	0.21937	0.24546	0.26538	0.075457	-2.6667	-3.1354	-3.1	-3.1188	-3.3187	-3.2083	-3.2292	-3.4396	-3.0896	-3.4229	-3.1354	-3	-3.1417	-3.1312	-2.9604	-3.3625	207.817	498.339	456.475	388.017	330.553	482.615	425.321	510.327	416.534	186.596	508.281	160.021	498.885	460.748	483.552	179.788	0.00097155	0.00049084	9.5199e-05	1340.8	5.4175e-06	5.4622e-06	1336.2	362.06	9.2428e-06	3.3306e-06	411.67	138.41	120.57	41.351	6.2227e-06	51.245	0.0006608	0.0005525	0.00015097	1363.8	6.1603e-06	6.144e-06	1362.4	369.42	6.2989e-06	5.9511e-06	422.5	141.7	123.47	42.628	5.9689e-06	52.89	499.599	248.443	248.786	171.197	283.361	319.904	170.602	175.521	267.185	296.358	174.885	178.977	179.404	184.774	292.690	183.773	-8191	255	
39888.570	1	1	0	0	0.032593	0.094433	0.099274	0.21909	0.17581	0.15731	0.18003	0.23468	0.16289	0.0084011	0.16218	0.20794	0.082199	0.11069	0.13774	0.073028	-2.6458	-3.0896	-3.2396	-3.2313	-3.3833	-3.0563	-3.0708	-3.3146	-3.0292	-3.2833	-3.4813	-3.1833	-3.4313	-3.3833	-3.0625	-3.3958	408.203	180.129	291.335	207.301	317.625	388.464	445.500	176.867	236.615	349.967	455.703	504.971	479.615	469.955	412.961	465.428	0.00097632	0.00054862	0.00012352	1345.5	4.0122e-06	5.0086e-06	1343.1	364.15	7.4029e-06	7.084e-06	413.48	138.47	121.33	41.424	5.7623e-06	50.962	0.00068056	0.00055351	0.00014607	1368.3	6.0177e-06	6.0695e-06	1367.8	371.07	6.145e-06	6.3103e-06	424.34	141.95	123.78	42.739	6.0064e-06	52.873	499.013	243.130	236.865	171.027	267.187	332.538	170.505	175.600	261.907	307.755	175.151	178.676	179.560	184.649	289.693	183.426	-8191	255	
39888.664	1	1	0	0	0.38741	0.046449	0.27505	0.23871	0.38536	0.29349	0.36011	0.21156	0.1009	0.2109	0.11888	0.10953	0.14383	0.19164	0.12418	0.19403	-2.5875	-3.2292	-3.3521	-3.1854	-3.3729	-3.2729	-3.2208	-3.4062	-3.0542	-3.1312	-3.3937	-3.1479	-3.2771	-3.2417	-2.9917	-3.4313	342.499	484.141	182.526	477.194	386.294	469.561	462.028	505.781	283.743	343.072	475.323	460.311	460.917	509.027	314.875	458.275	0.00096969	0.0004966	0.00012823	1347.6	5.842e-06	5.135e-06	1347.9	364.05	8.1225e-06	5.2782e-06	414.54	139.92	120.96	41.529	5.3132e-06	51.113	0.00069575	0.00059601	0.0001486	1372	6.5107e-06	6.5894e-06	1372.6	372.49	6.582e-06	6.505e-06	425.39	142.74	124.28	42.884	6.0267e-06	53.014	499.397	255.113	257.317	171.053	289.124	301.223	170.502	175.608	266.125	297.280	174.923	178.763	179.555	184.418	289.954	183.608	-8191	255	
39888.766	1	1	0	0	0.075385	0.030655	0.10641	0.2042	0.25679	0.11975	0.36559	0.18621	0.1665	0.1182	0.28559	0.16835	0.2169	0.12882	0.083841	0.1133	-2.7562	-3.1833	-3.4792	-3.15	-3.1521	-3.1854	-3.3771	-3.5021	-3.1854	-3.1542	-3.3646	-3.0979	-3.3688	-3.2375	-2.9813	-3.5125	239.827	411.619	320.209	470.228	388.780	222.745	376.503	168.586	347.709	423.555	513.038	485.139	487.578	459.717	163.370	311.873	0.00098056	0.00049206	0.00010623	1352.7	4.9598e-06	2.7648e-06	1354	367.35	8.515e-06	6.3281e-06	415.79	140.09	121.62	41.644	7.2152e-06	51.443	0.00068197	0.00059912	0.0001483	1378.5	6.5392e-06	6.248e-06	1376.9	373.67	6.6074e-06	6.1319e-06	425.76	142.96	124.14	42.858	6.1176e-06	53.172	498.054	252.975	241.962	170.795	283.612	308.615	170.549	175.513	267.356	301.641	174.962	178.896	179.666	184.422	278.404	183.344	-8191	255	
39888.859	1	1	0	0	0.2324	0.047569	0.18648	0.10625	0.13493	0.31423	0.34527	0.07975	0.18251	0.18601	0.26666	0.11631	0.053391	0.019339	0.12108	0.056261	-2.6917	-2.9625	-3.2667	-3.2021	-3.1333	-3.3312	-3.15	-3.4646	-3.1042	-2.9562	-3.2062	-3.0229	-3.2542	-3.4125	-2.9646	-3.3958	483.613	264.936	452.039	477.249	321.204	395.546	456.757	158.284	478.824	322.849	196.372	207.252	497.912	209.728	287.457	490.896	0.00096292	0.00040267	0.00015271	1355.1	6.0979e-06	4.9378e-06	1351.7	365.78	7.5755e-06	7.3366e-06	415.99	139.28	121.55	41.619	6.6869e-06	51.257	0.00068947	0.00055106	0.00016268	1378.5	6.544e-06	6.0245e-06	1376.8	373.23	6.499e-06	6.1968e-06	425.76	142.71	124.17	42.894	6.2433e-06	53.073	498.635	231.286	245.930	170.964	269.097	317.412	170.494	175.554	263.316	301.452	174.906	178.749	179.469	184.583	288.211	183.506	-8191	255	
39888.953	1	1	0	0	0.15773	0.046669	0.16042	0.19135	0.048425	0.25291	0.15549	0.14547	0.098901	0.12459	0.17027	0.18802	0.23473	0.13533	0.30638	0.16874	-2.775	-2.8979	-3.3208	-3.3042	-3.2062	-3.2875	-3.3729	-3.4083	-3.1562	-2.8729	-3.4625	-3.2271	-3.1375	-3.4854	-3.0458	-3.2542	439.929	328.371	181.870	172.680	486.198	426.128	426.147	439.448	325.336	435.807	193.034	505.731	192.700	399.706	506.100	244.203	0.00096823	0.0004967	0.00016528	1354.9	6.3903e-06	5.411e-06	1352.6	366.46	7.9223e-06	3.98e-06	415.3	140.19	121.55	41.758	6.5084e-06	51.147	0.00070292	0.00056428	0.00015679	1379.1	6.4122e-06	6.0015e-06	1377.5	373.39	6.3859e-06	6.1516e-06	425.63	143.07	124.39	42.974	6.5777e-06	53.139	500.668	246.962	250.567	170.752	286.105	307.169	170.656	175.665	260.039	309.585	175.048	178.977	179.631	184.450	279.004	183.560	-8191	255	
39889.074	1	1	0	0	0.074493	0.17872	0.14384	0.24975	0.12513	0.30123	0.16371	0.24639	0.11315	0.27037	0.21185	0.088103	0.11752	0.45169	0.12467	0.020953	-2.6646	-2.8854	-3.2583	-3.2896	-2.8563	-3.3375	-3.3542	-3.3708	-3.3458	-3.0625	-3.4708	-3.1833	-3.0646	-3.4833	-3.0146	-3.3271	364.622	410.022	200.086	172.860	419.229	238.829	409.372	409.646	265.967	490.102	474.514	439.918	415.181	460.360	289.504	176.252	0.0009573	0.00039635	0.00016709	1352.1	3.7185e-06	6.1258e-06	1350.4	366.74	7.9566e-06	5.5704e-06	416.54	140.17	121.65	41.517	6.3423e-06	51.293	0.00069643	0.00057621	0.00016726	1378.9	6.5222e-06	6.0441e-06	1378.3	373.55	6.2674e-06	6.4985e-06	426.58	142.97	124.24	42.859	6.5206e-06	53.003	496.905	245.857	253.693	170.884	271.486	289.239	170.456	175.557	267.508	299.490	175.082	178.909	179.519	184.520	286.660	183.796	-8191	255	
39889.172	1	1	0	0	0.14097	0.14459	0.099352	0.29504	0.11841	0.073278	0.19418	0.22218	0.096096	0.18975	0.18987	0.26251	0.10101	0.042955	0.017164	0.16499	-2.7917	-3.0396	-3.2021	-3.375	-2.9458	-3.3104	-3.0563	-3.2583	-3.3896	-3.0979	-3.3833	-3.3625	-2.9417	-3.4667	-3.1708	-3.3292	264.701	403.658	262.511	219.926	161.927	185.333	373.646	448.912	334.668	288.698	487.857	162.150	431.884	202.578	262.292	367.430	0.00094556	0.00063112	0.00014125	1353.5	5.3976e-06	4.155e-06	1354	366.63	8.1641e-06	5.2606e-06	416.27	140.18	121.43	41.732	5.5364e-06	51.314	0.00067219	0.00061538	0.00017013	1380.7	6.5209e-06	6.37e-06	1379.6	373.55	6.3665e-06	6.6316e-06	426.61	143.12	124.35	42.958	6.7243e-06	53.069	499.897	253.955	255.934	171.003	284.397	298.277	170.509	175.437	262.116	303.511	174.917	178.839	179.500	184.555	290.263	183.794	-8191	255	
39889.266	1	1	0	0	0.24662	0.19253	0.1575	0.26412	0.27755	0.15879	0.31998	0.20464	0.1592	0.36525	0.18662	0.12944	0.10508	0.32817	0.19698	0.26741	-2.8854	-3.1354	-3.2229	-3.3521	-3.0104	-3.2938	-3.4833	-3.2229	-3.425	-2.8708	-3.3896	-3.3979	-3.2583	-3.3937	-3.0687	-3.0875	290.256	206.047	434.694	480.210	321.352	333.565	429.639	178.176	426.955	426.035	478.378	413.947	419.241	454.256	195.727	478.235	0.00093693	0.00054459	0.00012319	1354.5	4.7421e-06	4.8501e-06	1350.3	365.63	8.8171e-06	5.642e-06	415.24	140.09	122.05	41.637	5.4434e-06	51.252	0.00067187	0.00060996	0.00017057	1379.1	6.3844e-06	6.7073e-06	1376.7	373.53	6.2547e-06	6.976e-06	425.44	142.99	124.4	42.882	6.7106e-06	53.034	497.714	250.689	246.859	171.049	278.972	298.711	170.375	175.537	264.441	296.394	175.065	178.786	179.562	184.288	280.686	183.727	-8191	255	
39889.363	1	1	0	0	0.045846	0.15478	0.15488	0.40061	0.073406	0.17026	0.18098	0.27356	0.028887	0.27447	0.28151	0.14749	0.097145	0.324	0.061831	0.14588	-2.7625	-3.0563	-3.1937	-3.4396	-2.8625	-3.2333	-3.3438	-3.1875	-3.325	-2.9708	-3.1271	-3.3396	-3.0292	-3.2958	-3.1354	-3.0417	405.272	212.929	195.198	480.600	340.493	335.493	474.467	479.198	380.172	454.324	192.352	481.377	424.282	170.785	473.462	190.550	0.00096973	0.00044749	0.00013609	1351.6	6.0103e-06	5.2829e-06	1352.5	365.32	6.9378e-06	4.9485e-06	416.93	139.86	121.22	41.545	6.2145e-06	51.27	0.00068421	0.00061718	0.00017149	1380.2	6.4278e-06	6.6607e-06	1379.4	373.03	6.6175e-06	6.9373e-06	426	142.74	124.03	42.782	6.8196e-06	52.975	500.045	246.462	254.178	171.087	274.425	322.986	170.639	175.486	259.322	314.801	174.926	178.845	179.341	184.374	280.392	183.756	-8191	255	
39889.461	1	1	0	0	0.051813	0.0080987	0.27182	0.32172	0.31754	0.15394	0.32963	0.19605	0.23822	0.20334	0.26787	0.048226	0.19162	0.23793	0.1528	0.19887	-2.9833	-2.7542	-2.9521	-3.4792	-2.875	-3.1604	-3.4188	-3.2292	-3.2938	-3.0208	-3.2521	-3.3312	-3.1792	-3.2	-3.2583	-3.075	221.368	504.644	250.338	507.984	325.922	385.967	443.767	369.734	276.302	285.950	474.060	278.068	416.941	463.737	235.854	400.788	0.00095336	0.00070993	0.00010673	1356.2	6.6036e-06	5.7848e-06	1351.4	365.69	8.2122e-06	5.4944e-06	416.66	139.52	121.66	41.434	6.3342e-06	51.331	0.00068846	0.00063713	0.00017081	1379.8	6.5399e-06	7.0209e-06	1378.6	373.31	6.6054e-06	6.8067e-06	426.01	142.72	124.33	42.836	6.4145e-06	53.048	496.733	246.562	246.053	170.959	289.545	298.932	170.532	175.496	258.557	310.966	174.955	178.741	179.462	184.468	290.222	183.613	-8191	255	
39889.555	1	1	0	0	0.09162	0.23778	0.15241	0.015236	0.045046	0.061616	0.1671	0.40909	0.050209	0.22254	0.067374	0.24842	0.16146	0.13793	0.061695	0.10405	-2.9583	-3.1958	-2.9229	-3.5646	-2.9646	-3.0604	-3.4521	-3.2771	-3.3771	-3.0125	-3.1521	-3.5312	-3.0104	-3.3583	-3.2479	-3.125	435.877	255.570	207.686	288.710	216.092	262.696	398.674	486.610	356.842	292.804	480.292	491.726	207.130	190.486	293.163	244.278	0.0010036	0.00052627	0.00015437	1358.9	4.7969e-06	4.1293e-06	1354.9	366.01	7.6483e-06	5.3134e-06	416.96	139.41	121.32	41.408	6.7607e-06	51.431	0.00069567	0.00063742	0.00016559	1382.7	6.8713e-06	6.6967e-06	1379.3	373.12	6.667e-06	7.031e-06	426.29	142.7	124.13	42.818	6.5856e-06	53.037	499.648	242.430	254.904	170.893	278.797	311.376	170.492	175.416	262.242	289.467	175.141	178.837	179.625	184.593	276.592	183.594	-8191	255	
39889.652	1	1	0	0	0.23839	0.13283	0.087469	0.1356	0.053734	0.1024	0.12372	0.18484	0.21614	0.080876	0.010566	0.21901	0.14791	0.17464	0.10661	0.18605	-2.875	-3.175	-2.9604	-3.5729	-2.875	-3.1646	-3.3583	-3.0125	-3.3458	-2.9792	-3.2354	-3.5687	-3.0542	-3.2979	-3.3167	-2.9938	170.931	396.611	368.149	163.176	158.598	232.566	497.109	423.345	218.995	429.977	491.401	494.500	467.489	439.061	211.603	231.528	0.0010038	0.0003988	0.00016738	1358.2	5.351e-06	5.2899e-06	1353.4	366.38	9.2264e-06	4.9719e-06	416.29	140.11	121.73	41.69	6.3465e-06	51.361	0.00072312	0.000644	0.00017007	1381	6.9182e-06	6.8121e-06	1380	373.69	6.9508e-06	6.9489e-06	426.3	143.05	124.5	42.89	6.4787e-06	53.083	499.669	238.660	247.730	170.953	282.017	309.312	170.572	175.331	256.131	313.780	174.887	178.795	179.576	184.398	285.476	183.371	-8191	255	
39889.746	1	1	0	0	0.15831	0.098261	0.17986	0.22165	0.10886	0.081608	0.10649	0.11277	0.22111	0.090651	0.064438	0.39878	0.20381	0.27282	0.077953	0.076701	-2.7583	-3.1729	-2.8063	-3.7208	-3.1063	-2.9708	-3.5708	-3.1521	-3.1437	-3.1292	-3.0062	-3.5354	-3.1875	-3.2708	-3.225	-3.0979	431.003	487.422	449.426	178.149	468.343	172.110	476.880	406.633	303.164	405.330	477.276	478.841	505.174	498.066	310.102	503.742	0.00099268	0.00044904	0.0001473	1353	6.5476e-06	4.587e-06	1354.3	366.34	7.984e-06	4.5514e-06	415.79	140.09	121.49	41.575	6.2903e-06	51.314	0.00072799	0.00064523	0.00016575	1381.6	6.7192e-06	6.885e-06	1379.3	373.53	6.989e-06	6.902e-06	426.46	143.04	124.23	42.819	6.5488e-06	53.015	499.248	240.896	244.593	171.160	276.002	287.334	170.575	175.558	261.258	311.657	174.881	178.766	179.445	184.601	297.390	183.602	-8191	255	
39889.844	1	1	0	0	0.10505	0.11229	0.076838	0.19651	0.14585	0.078951	0.18258	0.21912	0.17837	0.16984	0.28952	0.22838	0.2153	0.20692	0.27857	0.26954	-2.7667	-3.1771	-3.1188	-3.3854	-3.2271	-3.0021	-3.4917	-3.3458	-3.225	-3.1375	-2.9188	-3.3083	-3.1958	-3.1813	-3.2562	-3.0812	290.544	364.325	505.319	432.658	181.787	230.821	401.875	431.881	466.409	278.966	433.903	459.703	507.927	175.602	305.440	187.351	0.0009659	0.00045094	0.00013772	1359.4	4.9783e-06	3.7577e-06	1353.2	366.57	6.1801e-06	4.7994e-06	417.05	139.82	121.99	41.686	6.8855e-06	51.29	0.00072554	0.00062369	0.00017468	1383.2	7.0132e-06	6.8711e-06	1380.2	373.94	7.1175e-06	6.9406e-06	426.8	142.98	124.51	42.964	6.7893e-06	53.085	498.922	224.541	261.439	171.071	281.952	318.757	170.758	175.459	263.918	301.220	175.107	179.020	179.595	184.535	273.743	183.514	-8191	255	
39889.965	1	1	0	0	0.18161	0.14477	0.060505	0.33474	0.16346	0.12798	0.25013	0.18918	0.19637	0.032797	0.28707	0.11945	0.099347	0.30102	0.25312	0.31749	-2.8708	-3.0292	-2.8958	-3.2708	-3.0875	-2.9667	-3.5292	-3.1479	-3.1208	-3.125	-3.0938	-3.2667	-2.9875	-3.1292	-3.325	-2.9417	158.244	232.452	256.038	485.128	344.567	485.141	412.648	432.155	491.970	346.674	449.622	503.533	477.814	485.972	410.393	492.281	0.00096809	0.00053586	0.00013381	1358.6	5.6232e-06	4.5023e-06	1353.6	367.04	8.8063e-06	6.7461e-06	417.43	140.13	121.72	41.898	5.5043e-06	51.207	0.00073621	0.00064638	0.00017778	1384.2	7.7351e-06	7.278e-06	1381	374.45	7.5485e-06	7.1371e-06	427.58	143.08	124.53	43.042	7.2963e-06	53.14	499.764	259.339	246.891	171.156	274.138	304.030	170.528	175.396	259.000	309.882	175.072	178.807	179.538	184.444	290.131	183.377	-8191	255	
39890.035	1	1	0	0	0.26323	0.18863	0.17914	0.13201	0.20338	0.2004	0.063004	0.25369	0.06374	0.17732	0.22423	0.083385	0.32292	0.41775	0.25163	0.048411	-2.6833	-3.2708	-2.8479	-3.3667	-3.2042	-3.0438	-3.5854	-3.1604	-3.1229	-3.0521	-3.0854	-3.2562	-3.2042	-2.8729	-3.4271	-3.125	493.811	282.732	343.070	357.155	324.482	484.394	413.804	431.305	339.887	350.768	415.246	361.763	165.457	443.555	473.956	463.400	0.00099506	0.00058954	0.00016058	1361.7	5.727e-06	5.3952e-06	1355.6	368.13	7.3454e-06	4.2554e-06	416.61	140.16	121.72	41.978	4.3538e-06	51.302	0.00073784	0.00068635	0.00019504	1385.2	7.0879e-06	7.4557e-06	1383.4	374.86	7.5545e-06	7.2858e-06	427.78	143.43	124.78	43.099	7.523e-06	53.121	499.500	241.840	242.633	170.992	282.060	306.732	170.615	175.476	255.156	293.353	175.055	178.898	179.090	184.628	278.046	183.642	-8191	255	
39890.156	1	1	0	0	0.16952	0.084819	0.2195	0.24629	0.2716	0.10314	0.18608	0.33451	0.1593	0.18136	0.31567	0.18569	0.33344	0.17983	0.27562	0.12789	-2.4667	-3.2062	-2.8312	-3.4146	-3.1333	-2.8937	-3.3396	-3.2167	-2.925	-3.3708	-3.1188	-3.2938	-3.3312	-3.0833	-3.1562	-3.3688	405.062	455.997	441.381	466.546	465.675	438.713	480.035	451.592	229.910	445.001	390.130	490.989	164.795	403.486	285.132	371.121	0.00097194	0.00049181	0.00013158	1361.1	6.2544e-06	5.039e-06	1360	367.25	7.5372e-06	6.7667e-06	418.44	140.42	122.24	41.816	4.6921e-06	51.247	0.00074083	0.00068476	0.00018916	1386.5	7.1124e-06	7.7463e-06	1383.5	374.67	7.2259e-06	7.917e-06	428.33	143.32	124.93	43.12	7.7823e-06	53.214	497.963	246.765	257.910	170.950	284.861	304.277	170.482	175.526	256.164	328.265	174.985	179.092	179.453	184.555	296.033	183.360	-8191	255	
39890.254	1	1	0	0	0.21765	0.17188	0.068732	0.1502	0.036694	0.17423	0.23977	0.17518	0.31347	0.054742	0.063251	0.11363	0.14479	0.30128	0.084228	0.28272	-2.6354	-3.1458	-2.95	-3.1104	-3.1604	-2.95	-3.4708	-3.3333	-3.0687	-3.2646	-3.1813	-3.1562	-3.2979	-3.0708	-3.3	-3.2062	474.485	343.300	158.477	445.012	370.348	398.980	430.749	425.743	201.430	384.230	385.556	365.466	162.112	477.363	178.577	462.577	0.00095764	0.00054339	0.00016104	1360.4	4.8226e-06	4.6127e-06	1358.7	367.69	8.0557e-06	5.3964e-06	418.61	140.67	122.48	41.788	5.9698e-06	51.447	0.00073052	0.00071475	0.00019974	1386.6	7.1586e-06	7.9862e-06	1385	375.67	7.5385e-06	7.7115e-06	428.76	143.65	125.1	43.115	8.0957e-06	53.361	500.233	253.583	254.730	171.069	287.834	318.748	170.534	175.272	268.962	289.883	174.722	178.785	179.331	184.431	274.922	183.645	-8191	255	
39890.348	1	1	0	0	0.21657	0.13917	0.26095	0.31021	0.073713	0.11683	0.29764	0.31288	0.1513	0.090339	0.23417	0.025089	0.020762	0.44548	0.10252	0.22297	-2.4729	-3.2958	-3.0458	-3.2979	-3.3458	-2.9896	-3.5896	-3.2854	-2.9729	-3.2458	-3.1688	-2.975	-3.3417	-3.0312	-2.9646	-3.1958	173.565	241.118	173.987	500.694	182.682	314.511	455.749	398.876	331.371	448.698	449.423	408.364	183.953	186.520	267.502	410.089	0.0010131	0.00068363	0.00018242	1364.6	6.053e-06	4.2453e-06	1360	369.02	6.9718e-06	5.7937e-06	418.76	140.84	122.98	42.079	5.4994e-06	51.608	0.00076929	0.00073087	0.00020681	1388.7	7.3243e-06	7.9175e-06	1384.9	376.13	7.5512e-06	7.7477e-06	428.92	143.77	125.14	43.28	7.9238e-06	53.358	497.456	244.339	254.408	171.129	277.976	305.677	170.521	175.529	255.496	290.771	175.202	178.871	179.351	184.525	284.686	183.466	-8191	255	
39890.445	1	1	0	0	0.16064	0.22668	0.22898	0.20167	0.21821	0.14237	0.30001	0.23113	0.22197	0.13744	0.43621	0.14536	0.19777	0.05622	0.23888	0.32428	-2.4479	-3.3187	-3.0896	-3.1875	-3.2479	-3.0625	-3.3625	-3.4396	-2.8729	-3.3187	-3.2479	-3.2354	-3.3896	-3.0854	-3.2667	-3.4333	178.314	296.670	249.714	179.920	480.496	320.919	445.987	478.822	311.221	197.935	486.556	494.040	470.062	509.015	211.186	468.559	0.00097595	0.00060683	0.00016416	1361.6	4.8271e-06	3.0714e-06	1359.6	369.06	8.6065e-06	4.5521e-06	418.67	141.32	122.38	42.041	4.6476e-06	51.475	0.00075775	0.00074763	0.00019934	1387.9	7.4078e-06	7.9879e-06	1387.3	376.52	7.6302e-06	8.0641e-06	429.15	143.91	125.39	43.253	7.5353e-06	53.417	499.836	243.510	250.233	171.061	284.215	329.044	170.370	175.361	259.341	294.589	174.971	179.068	179.381	184.563	294.224	183.319	-8191	255	
39890.566	1	1	0	0	0.10535	0.07373	0.19537	0.41131	0.1002	0.17751	0.35244	0.35041	0.11822	0.30333	0.11223	0.35097	0.22761	0.09812	0.21076	0.090576	-2.4437	-3.1708	-2.975	-3.1	-3.3354	-2.9354	-3.3667	-3.4125	-2.8937	-3.375	-3.2021	-3.0208	-3.4417	-3.1021	-3.1396	-3.4	329.330	240.684	453.691	476.719	500.468	264.874	418.323	486.741	359.588	251.662	465.877	432.591	430.462	495.616	372.624	476.143	0.00099624	0.00044508	0.00013876	1366.4	5.863e-06	4.7511e-06	1362.6	368.53	6.5523e-06	4.4712e-06	420.12	140.8	122.42	41.953	5.581e-06	51.682	0.00075126	0.00073535	0.00019346	1389.7	7.3847e-06	8.299e-06	1389.1	376.61	7.8838e-06	7.9236e-06	428.97	143.91	125.17	43.191	7.5902e-06	53.435	500.348	250.414	256.570	171.024	278.702	299.055	170.517	175.646	262.864	304.576	174.871	178.887	179.422	184.487	294.555	183.378	-8191	255	
39890.660	1	1	0	0	0.14263	0.077263	0.15863	0.073125	0.11952	0.25422	0.34616	0.2226	0.10278	0.18999	0.20237	0.039399	0.22302	0.095767	0.086348	0.20091	-2.4562	-3.2042	-3.1896	-3.1125	-3.2062	-3.2083	-3.2938	-3.4042	-2.7896	-3.2375	-3.3896	-3.2042	-3.2604	-3.2	-2.9271	-3.3833	425.942	323.143	250.848	209.994	229.395	409.835	425.268	517.199	344.436	487.837	461.944	455.888	398.325	174.366	224.476	210.733	0.0009999	0.00040396	0.00012105	1364.4	5.2614e-06	4.79e-06	1361.6	370.42	8.0611e-06	7.17e-06	418.97	140.83	122.7	41.817	5.7101e-06	51.756	0.00075905	0.00072754	0.00018655	1391.2	7.7168e-06	8.1443e-06	1387.4	376.8	7.9722e-06	8.2647e-06	428.78	143.97	125.4	43.16	7.4335e-06	53.457	499.902	258.884	245.749	170.847	282.093	304.080	170.659	175.456	266.926	290.743	174.734	178.884	179.302	184.511	290.937	183.322	-8191	255	
39890.730	1	1	0	0	0.058207	0.12856	0.18943	0.065619	0.37711	0.044358	0.15036	0.18281	0.25813	0.36335	0.075112	0.14963	0.16182	0.18671	0.044806	0.27284	-2.5167	-3.0708	-3.2542	-3.0958	-3.2042	-3.2583	-3.1354	-3.4562	-3.075	-3.0687	-3.3042	-3.0375	-3.3063	-3.1292	-3.0958	-3.2354	315.461	231.366	421.561	449.121	421.765	374.668	440.594	514.093	227.930	506.578	189.138	373.033	476.448	406.787	401.872	406.185	0.00096877	0.00057268	0.00012388	1369.5	6.408e-06	5.5714e-06	1361.1	369.36	9.1708e-06	4.9717e-06	417.84	140.75	123.05	41.834	5.9055e-06	51.478	0.00076107	0.00073715	0.00018627	1391.7	7.7209e-06	7.9985e-06	1388.5	376.39	7.5465e-06	7.8176e-06	428.62	143.95	125.31	43.19	7.2536e-06	53.374	496.526	226.786	256.903	171.172	267.259	316.035	170.544	175.406	258.406	307.436	175.047	178.745	179.571	184.520	289.836	183.580	-8191	255	
39890.852	1	1	0	0	0.039208	0.13761	0.10335	0.024158	0.08654	0.26047	0.4573	0.30689	0.056511	0.051589	0.24227	0.23858	0.34403	0.065555	0.16252	0.1193	-2.5271	-3.0917	-3.1958	-3.0417	-3.2938	-3.2042	-3.2292	-3.425	-3.0563	-3.1604	-3.3396	-2.9542	-3.2708	-3.2	-2.9	-3.3042	404.954	486.674	278.654	199.413	345.585	271.755	462.919	486.281	455.212	176.840	392.573	494.236	444.900	389.494	400.679	504.011	0.00097076	0.00058899	0.00014123	1367.3	5.7155e-06	5.002e-06	1361.9	368.78	7.3358e-06	4.8994e-06	419.92	140.91	121.85	41.658	7.5266e-06	51.703	0.00075367	0.00070167	0.00018645	1390.7	7.5076e-06	7.6227e-06	1387.8	376.41	8.013e-06	7.5726e-06	429.14	144.2	125.07	43.177	7.5931e-06	53.402	497.618	257.542	238.869	170.770	287.838	311.689	170.551	175.307	267.599	302.353	175.004	178.993	179.332	184.350	282.420	183.473	-8191	255	
39890.945	1	1	0	0	0.095452	0.082897	0.18046	0.12798	0.041992	0.12553	0.20517	0.078211	0.11622	0.12699	0.37774	0.14742	0.23382	0.26826	0.15919	0.092977	-2.525	-2.8708	-3.2875	-3.1375	-3.3021	-3.2854	-3.0938	-3.4292	-3.1312	-3.1583	-3.2604	-3.2687	-3.1729	-3.4354	-2.8292	-3.2292	315.161	289.913	466.143	429.272	419.483	344.389	449.076	207.017	182.386	182.392	474.682	427.045	331.342	450.468	446.683	462.157	0.00098937	0.00053572	0.00016002	1367.3	5.7991e-06	3.6316e-06	1360.7	368.85	6.2579e-06	5.555e-06	418.56	140.65	122.4	41.88	4.897e-06	51.58	0.00077852	0.00070174	0.00019203	1391.7	7.5518e-06	7.7267e-06	1387.8	376.51	7.6174e-06	7.7461e-06	428.63	143.84	125.26	43.208	7.505e-06	53.366	499.412	244.685	258.851	170.926	287.243	304.116	170.534	175.446	261.794	309.892	174.908	178.821	179.327	184.657	291.886	183.587	-8191	255	
39891.043	1	1	0	0	0.24263	0.19826	0.061158	0.29853	0.19358	0.13942	0.21129	0.10601	0.030035	0.14512	0.17639	0.24166	0.12748	0.22207	0.15728	0.11677	-2.6792	-2.9583	-3.2542	-3.25	-3.1833	-3.2354	-3.1312	-3.45	-2.8667	-3.0083	-3.35	-3.1458	-3.1021	-3.2938	-3.0396	-3.3021	416.547	305.051	214.043	511.537	293.588	407.686	391.445	451.925	282.715	210.277	464.989	486.612	503.847	185.407	244.907	337.430	0.00097863	0.00060007	0.00017146	1362.9	4.8274e-06	5.0856e-06	1363.3	369.56	7.58e-06	4.3663e-06	418.46	141.08	122.6	41.961	5.6975e-06	51.549	0.00075079	0.00069307	0.00020663	1390	7.5497e-06	7.5768e-06	1387.6	376.87	7.7272e-06	7.5151e-06	428.62	143.93	125.39	43.258	7.7303e-06	53.39	498.264	239.348	239.853	171.020	283.501	301.099	170.427	175.480	272.950	303.114	175.013	179.002	179.365	184.407	280.681	183.460	-8191	255	
39891.141	1	1	0	0	0.15773	0.12146	0.24729	0.23211	0.20107	0.10043	0.25533	0.20117	0.056866	0.29635	0.16406	0.20977	0.15721	0.23198	0.094858	0.041505	-2.7042	-3.0604	-3.15	-3.2958	-3.1625	-3.1271	-2.9792	-3.4938	-3.2333	-2.9792	-3.3812	-3.2167	-3.0354	-3.3563	-2.9021	-3.2521	166.017	253.919	378.390	427.091	284.376	327.442	482.331	472.286	265.712	260.135	221.090	396.409	169.422	501.536	477.299	477.311	0.00095221	0.00055303	0.00015095	1365.6	6.9243e-06	4.2275e-06	1361.1	369.55	8.4568e-06	4.0384e-06	420.26	140.16	122.04	41.959	5.6235e-06	51.531	0.0007457	0.00070882	0.00019286	1390.4	7.5952e-06	7.6252e-06	1387.4	376.62	7.6355e-06	7.9162e-06	429.55	143.84	125.12	43.258	8.1174e-06	53.372	496.602	251.006	241.251	171.013	279.860	307.247	170.710	175.320	262.800	309.019	174.795	178.853	179.577	184.425	288.050	183.712	-8191	255	
39891.262	1	1	0	0	0.087811	0.067705	0.11329	0.11165	0.070398	0.080224	0.44461	0.26021	0.03869	0.23076	0.25136	0.20953	0.041673	0.16683	0.23331	0.17764	-2.9062	-2.8208	-3.2229	-3.2292	-2.8979	-3.2458	-3.225	-3.3292	-3.1125	-2.9479	-3.1854	-3.0417	-3.0896	-3.25	-3.0104	-3.275	469.829	383.757	501.178	363.533	360.450	183.328	463.310	455.114	271.351	369.385	362.504	447.803	469.125	408.377	507.874	442.961	0.0010028	0.00051394	0.0001488	1365.6	5.5919e-06	4.8658e-06	1360.7	369.16	8.6918e-06	3.1647e-06	417.31	141.47	122.43	41.989	6.1297e-06	51.54	0.00073513	0.00076028	0.00019699	1391	7.3202e-06	7.6849e-06	1387.6	376.85	7.602e-06	7.9244e-06	428.73	144.07	125.44	43.259	7.9975e-06	53.411	500.126	252.779	255.755	170.926	279.110	316.624	170.452	175.631	258.195	279.605	174.995	178.787	179.586	184.477	295.849	183.413	-8191	255	
39891.332	1	1	0	0	0.17291	0.24693	0.22398	0.25195	0.053288	0.21123	0.24926	0.21315	0.12624	0.19132	0.12573	0.16941	0.1818	0.015194	0.078924	0.067124	-2.8125	-2.85	-3.1083	-3.25	-2.9396	-3.2125	-3.2896	-3.2562	-3.1667	-2.8333	-3.4	-3.2958	-3.1312	-3.4125	-2.8792	-3.175	361.085	206.814	298.619	437.777	441.357	359.419	454.424	470.871	349.768	286.856	476.191	449.383	489.211	178.617	414.124	404.194	0.00094068	0.00080732	0.00011742	1362.9	5.167e-06	6.0048e-06	1361.8	369	7.8852e-06	2.9803e-06	420.36	140.72	122.46	41.985	5.8984e-06	51.596	0.00074346	0.00075052	0.00020583	1390.1	7.4805e-06	8.0878e-06	1387.6	376.34	7.3464e-06	7.9803e-06	428.99	143.96	125.44	43.256	8.0098e-06	53.366	498.595	244.989	259.755	170.935	277.698	293.733	170.546	175.494	268.102	303.172	174.968	178.773	179.407	184.542	286.049	183.511	-8191	255	
39891.430	1	1	0	0	0.27481	0.097245	0.18993	0.24571	0.10461	0.02284	0.4798	0.1368	0.188	0.17619	0.16798	0.21348	0.31202	0.15833	0.082612	0.41612	-2.9729	-2.8104	-3.1604	-3.2875	-3.0167	-3.3917	-3.1979	-3.0438	-3.3042	-3.0708	-3.2521	-3.2938	-2.9229	-3.4271	-3.0167	-3.1396	353.826	218.241	445.335	187.042	280.153	242.115	460.177	497.259	213.456	331.073	457.204	484.492	176.298	162.376	180.221	276.262	0.00092801	0.00050874	0.0001206	1367	5.7837e-06	4.7239e-06	1363.5	370	9.4119e-06	4.7787e-06	419.95	141.72	123.12	42.1	6.4717e-06	51.805	0.00074393	0.00073939	0.00021	1390	7.8669e-06	8.7804e-06	1385.9	377.47	8.1462e-06	8.6567e-06	430.01	144.45	125.95	43.354	8.1954e-06	53.523	497.940	254.492	248.313	171.025	270.411	297.495	170.475	175.510	264.255	297.571	174.848	178.662	179.523	184.291	299.466	183.535	-8191	255	
39891.523	1	1	0	0	0.10487	0.22158	0.10915	0.27132	0.29791	0.13838	0.12262	0.1638	0.12983	0.16864	0.12422	0.10633	0.30046	0.2648	0.29504	0.07968	-2.6063	-2.9667	-3.1042	-3.4188	-2.9917	-3.3521	-3.4708	-2.9813	-3.2188	-2.8625	-3.2708	-3.3792	-2.9813	-3.2042	-2.9896	-3.1146	291.962	162.808	382.303	491.170	175.503	296.441	409.242	236.472	402.380	501.069	394.825	470.856	195.093	487.384	196.597	451.769	0.0010075	0.00034033	0.00012985	1365	5.7572e-06	5.2268e-06	1362.1	370.71	8.8488e-06	5.1661e-06	419.94	141.68	123.71	42.074	6.6942e-06	51.873	0.00076914	0.00080754	0.00021773	1392.1	8.0048e-06	8.9532e-06	1388	377.82	8.2004e-06	9.1161e-06	430.06	144.82	126.18	43.465	8.3976e-06	53.716	498.948	251.636	251.421	170.932	287.414	308.534	170.266	175.368	263.283	307.364	175.009	178.984	179.478	184.551	284.397	183.491	-8191	255	
39891.645	1	1	0	0	0.051591	0.1248	0.076434	0.40875	0.024995	0.26227	0.1752	0.060988	0.22004	0.043722	0.23109	0.15403	0.063525	0.17374	0.0807	0.23139	-2.9979	-2.9792	-3.0625	-3.175	-2.8875	-3.1937	-3.4646	-3.0396	-3.1583	-3.0125	-3.2771	-3.3729	-2.9979	-3.3667	-3.0979	-3.1292	258.891	298.735	477.532	514.095	373.107	484.387	465.948	499.300	252.824	454.436	462.883	350.824	247.436	297.629	176.808	485.105	0.00093543	0.00046522	0.00013059	1362.9	5.4141e-06	4.1721e-06	1361	371.12	7.6556e-06	5.7125e-06	421.24	142.58	123.69	42.43	6.9894e-06	52.191	0.00077344	0.00080198	0.0002205	1391.8	8.4795e-06	9.0572e-06	1387.9	378.66	8.4829e-06	9.3676e-06	431.14	145.45	126.73	43.764	8.3947e-06	53.978	497.341	249.552	249.914	170.876	284.935	318.986	170.467	175.458	255.322	306.058	175.111	178.782	179.341	184.478	296.258	183.327	-8191	255	
39891.738	1	1	0	0	0.061705	0.1312	0.053126	0.22398	0.17389	0.29377	0.24905	0.1323	0.054587	0.10271	0.030516	0.18704	0.20704	0.19804	0.24488	0.23217	-2.8333	-2.8125	-2.8396	-3.3292	-3.0062	-3.2646	-3.45	-3.1958	-3.0521	-2.9104	-3.0021	-3.225	-2.9479	-3.2938	-3.1125	-2.9396	228.603	505.263	236.342	477.328	294.104	185.136	485.893	454.171	358.055	331.014	214.939	366.503	496.136	315.711	514.626	181.584	0.00097216	0.00058222	0.00013383	1367.2	5.4087e-06	5.4051e-06	1369.5	371.89	7.9494e-06	4.9688e-06	421.08	142.89	124.04	42.64	6.0047e-06	52.103	0.00081556	0.00084462	0.00022203	1392.3	9.0839e-06	9.4436e-06	1391.2	378.88	9.1234e-06	9.6585e-06	432.18	145.95	127.08	43.881	8.5948e-06	54.108	498.805	237.218	262.471	170.802	283.412	322.865	170.532	175.455	267.255	288.205	174.994	178.764	179.417	184.286	283.095	183.378	-8191	255	
39891.836	1	1	0	0	0.067463	0.27724	0.20404	0.40404	0.29957	0.13424	0.12935	0.23541	0.29236	0.014846	0.18275	0.11605	0.1072	0.047257	0.14374	0.20549	-2.7333	-2.9083	-2.9688	-3.4271	-2.8521	-3.2167	-3.4229	-3.1833	-3.3583	-3.1479	-3.0479	-3.2833	-3.0667	-3.15	-3.1312	-2.9938	284.634	309.918	236.697	420.623	368.937	346.004	450.067	508.644	321.993	161.974	189.523	313.601	418.130	477.496	206.505	417.477	0.00093107	0.00054108	0.00013459	1370.4	5.4759e-06	6.3086e-06	1364.3	370.89	8.5601e-06	3.6015e-06	423.29	142.84	123.72	42.665	7.0479e-06	52.167	0.00082747	0.00087786	0.00023101	1393.7	9.2564e-06	9.487e-06	1391.5	379.18	9.0089e-06	9.5344e-06	433.49	146.17	127	44.049	8.4546e-06	54.218	497.847	232.394	252.230	170.860	285.722	306.436	170.366	175.342	264.319	309.411	174.753	178.703	179.342	184.390	285.726	183.405	-8191	255	
39891.934	1	1	0	0	0.12365	0.16444	0.066177	0.063827	0.031873	0.12513	0.4459	0.20361	0.30931	0.177	0.29428	0.19059	0.21452	0.14037	0.18677	0.05669	-2.8563	-3.1083	-2.8042	-3.4104	-2.9646	-3.0417	-3.3354	-3.2146	-3.1104	-3.1562	-3.1479	-3.3354	-3.1375	-3.1562	-3.2458	-3.1646	200.225	352.646	479.261	216.264	207.379	306.426	452.420	454.659	457.964	289.394	493.617	486.341	444.404	413.839	353.088	390.670	0.00099237	0.00037107	0.00012794	1367.8	7.1465e-06	5.089e-06	1367.1	371.88	7.6401e-06	4.8917e-06	422.86	143.01	124.87	42.751	6.2296e-06	52.391	0.00084265	0.00084339	0.0002397	1393.4	9.3046e-06	9.3708e-06	1391.4	379.31	8.9808e-06	8.9082e-06	432.29	146.34	127.37	44.1	8.9125e-06	54.26	496.620	249.036	241.503	170.996	277.776	304.077	170.553	175.492	258.778	322.825	174.963	178.883	179.270	184.437	278.768	183.354	-8191	255	
39892.027	1	1	0	0	0.17671	0.034681	0.058972	0.32744	0.31135	0.058	0.27855	0.15454	0.12513	0.19234	0.16937	0.20596	0.13598	0.056307	0.14667	0.25062	-2.6625	-3.1333	-2.9062	-3.5312	-3.0146	-2.975	-3.5521	-3.0854	-3.0667	-3.1917	-2.9646	-3.2896	-3.1979	-3.1104	-3.5604	-3.075	363.194	239.550	265.877	456.830	358.714	358.491	456.375	460.283	171.353	196.874	512.535	420.451	449.877	397.518	394.957	508.011	0.00098847	0.00055068	0.00015725	1369.1	6.217e-06	5.3224e-06	1363.4	372.11	7.762e-06	5.8862e-06	419.83	143.69	124.23	42.813	4.6506e-06	52.357	0.00084489	0.00084122	0.00023414	1394.9	9.0357e-06	9.2013e-06	1391.4	379.95	9.2773e-06	9.0273e-06	431.84	146.54	127.35	44.106	8.8165e-06	54.363	498.243	244.642	239.100	170.961	279.102	309.925	170.505	175.534	266.471	296.118	174.792	178.744	179.245	184.222	284.492	183.493	-8191	255	
39892.125	1	1	0	0	0.25572	0.098479	0.1679	0.26367	0.10679	0.17209	0.31696	0.098039	0.35263	0.040655	0.20747	0.067017	0.16508	0.029886	0.26445	0.040739	-2.8021	-3.225	-2.8896	-3.3167	-3.0396	-2.8375	-3.4292	-3.0125	-3.0062	-3.1208	-3.0604	-3.2729	-3.1708	-3.0687	-3.2313	-3.1146	504.306	501.853	254.862	500.799	316.218	286.580	445.702	364.617	178.563	245.418	340.376	283.134	421.104	262.262	206.492	417.119	0.0010135	0.00065722	0.00012785	1372.3	5.3375e-06	6.0564e-06	1368.3	371.95	8.5534e-06	4.2442e-06	422.75	143.59	124.74	42.826	5.8688e-06	52.473	0.00082891	0.00081513	0.00024173	1395	8.7314e-06	9.2832e-06	1392.7	379.44	8.936e-06	8.9665e-06	432.62	146.68	127.69	44.092	8.7984e-06	54.383	497.914	246.828	214.608	171.030	288.123	310.923	170.559	175.318	259.153	302.315	174.960	178.792	179.447	184.541	298.467	183.795	-8191	255	
39892.246	1	1	0	0	0.17693	0.30329	0.065986	0.23828	0.066327	0.10433	0.1179	0.40989	0.074169	0.1662	0.29359	0.2185	0.15976	0.23134	0.086036	0.33039	-2.6021	-3.0687	-2.8438	-3.2333	-3.2771	-2.8917	-3.5812	-3.0021	-2.9958	-3.1063	-2.8979	-3.4583	-3.1917	-2.9917	-3.0938	-3.1083	231.464	492.203	356.205	503.023	291.157	266.520	181.385	421.310	223.557	353.239	482.783	340.816	499.908	205.081	303.028	406.620	0.00099585	0.00049485	0.00013905	1370.3	4.95e-06	4.9084e-06	1368.1	371.98	7.7136e-06	4.8938e-06	424.01	143.57	125.1	42.842	5.4958e-06	52.677	0.00082487	0.00082597	0.00024241	1394.5	8.7966e-06	9.1448e-06	1394.5	379.79	9.0364e-06	9.5385e-06	433.15	146.78	127.67	44.175	9.1111e-06	54.446	499.617	242.885	252.728	171.098	292.163	317.104	170.449	175.322	259.872	296.376	175.219	178.697	179.308	184.468	273.997	183.493	-8191	255	
39892.340	1	1	0	0	0.085916	0.20295	0.069661	0.20139	0.083534	0.17812	0.36116	0.234	0.0045798	0.085913	0.081425	0.18879	0.25706	0.21312	0.020738	0.27831	-2.7562	-3.0229	-2.9562	-3.2583	-3.1417	-3.05	-3.4521	-3.1688	-3.0083	-3.5438	-2.9938	-3.25	-3.2708	-2.9813	-3.3896	-3.2021	409.378	163.307	264.113	353.876	472.876	324.319	456.582	502.895	430.716	229.326	427.255	384.013	464.096	239.767	198.591	491.104	0.00096577	0.00052282	0.00011897	1367.7	5.771e-06	3.9338e-06	1365.8	371.36	8.957e-06	4.1773e-06	421.64	143.51	124.47	42.986	5.9335e-06	52.74	0.00083288	0.00085351	0.0002509	1394.3	8.692e-06	9.8915e-06	1392.9	379.47	8.863e-06	9.7711e-06	432.29	146.97	127.7	44.264	9.5307e-06	54.461	499.057	237.876	213.251	170.853	261.814	289.677	170.417	175.557	264.617	310.053	174.864	178.687	179.381	184.480	285.008	183.456	-8191	255	
39892.438	1	1	0	0	0.084764	0.16233	0.31456	0.19332	0.11825	0.17073	0.23065	0.40702	0.17371	0.10968	0.21449	0.30073	0.067524	0.031194	0.12453	0.28623	-2.4104	-3.1167	-2.8271	-3.2812	-3.1646	-3.0229	-3.4479	-3.2854	-2.8792	-3.3208	-3.2	-3.225	-3.2375	-3.1271	-3.2479	-3.2542	267.711	294.083	441.881	455.101	297.777	189.577	461.512	474.566	243.827	304.719	473.770	492.518	340.309	435.317	215.496	439.939	0.00094867	0.0005855	0.00011793	1366.2	4.3087e-06	5.3952e-06	1366.8	372.26	9.3203e-06	6.2661e-06	421.77	143.69	125.1	43.016	4.8305e-06	52.673	0.0008415	0.00087295	0.00025761	1393.8	8.9304e-06	9.984e-06	1393.4	380.17	9.0792e-06	9.9322e-06	432.17	147.14	127.95	44.291	9.7365e-06	54.447	500.435	238.875	253.415	170.972	292.429	321.029	170.345	175.630	255.021	310.739	175.062	178.811	179.427	184.524	290.188	183.276	-8191	255	
39892.555	1	1	0	0	0.16768	0.048988	0.3003	0.30663	0.16685	0.24357	0.30554	0.2156	0.14282	0.16654	0.1724	0.21176	0.083551	0.20197	0.28909	0.26796	-2.4646	-3.1937	-2.9833	-3.2896	-3.2188	-3.0792	-3.5458	-3.2125	-2.9146	-3.2646	-3.1729	-3.2146	-3.2958	-3.025	-3.2771	-3.1688	249.592	433.929	504.530	195.545	433.514	436.113	454.050	381.493	443.033	343.857	513.834	276.710	422.556	182.045	326.751	438.222	0.0010372	0.00034207	0.0001577	1373	4.8136e-06	3.7229e-06	1368.1	372.42	8.5071e-06	4.4753e-06	421.21	144.11	124.8	43.007	7.5193e-06	52.676	0.00083681	0.00090027	0.00026068	1396.8	9.1735e-06	1.0143e-05	1393.7	379.85	9.2492e-06	1.0085e-05	432.6	147.02	127.88	44.276	9.5437e-06	54.456	498.915	286.565	250.895	171.140	272.158	320.877	170.614	175.463	259.670	300.792	175.058	178.735	179.155	184.379	282.647	183.405	-8191	255	
39892.629	1	1	0	0	0.15754	0.2369	0.23535	0.15204	0.055149	0.22268	0.070955	0.27842	0.12664	0.12173	0.13359	0.11233	0.062725	0.202	0.14086	0.50204	-2.5333	-3.275	-3.0563	-3.1792	-3.275	-2.925	-3.3104	-3.2062	-2.9417	-3.2292	-3.1104	-2.8875	-3.2458	-3.1354	-3.1521	-3.2396	309.247	424.351	282.103	467.075	431.008	398.127	485.427	436.804	345.999	501.590	369.136	466.648	459.274	218.551	330.183	446.160	0.0009603	0.00040712	0.00013547	1371.1	4.3941e-06	4.5984e-06	1368	372.33	8.3925e-06	4.422e-06	423.54	143.65	125.04	42.927	6.6941e-06	52.738	0.00083414	0.00089289	0.00024229	1395	9.1233e-06	1.0212e-05	1394.1	380.12	9.3577e-06	9.8443e-06	432.93	146.92	128.05	44.232	9.1689e-06	54.519	499.356	240.890	236.000	170.848	287.975	308.884	170.507	175.245	276.845	311.210	175.001	178.669	179.414	184.433	278.900	183.309	-8191	255	
39892.723	1	1	0	0	0.20819	0.060034	0.27746	0.41063	0.085863	0.10424	0.13742	0.19952	0.028786	0.059034	0.24971	0.32153	0.061798	0.18307	0.046678	0.11807	-2.4562	-3.1667	-3.0062	-3.1854	-3.2292	-2.9208	-3.2979	-3.5125	-2.8792	-3.3896	-3.3042	-3.0042	-3.4208	-3.0479	-2.9625	-3.4833	176.827	460.625	451.975	514.556	470.805	423.336	438.904	495.517	325.314	234.293	412.390	498.704	457.566	167.233	178.729	467.606	0.00098665	0.00064779	0.00015022	1373.2	4.9059e-06	4.3353e-06	1362.3	372.6	7.3665e-06	5.8841e-06	422.66	144.24	124.5	43.041	6.2955e-06	52.5	0.00084615	0.00093076	0.00024195	1396.1	9.4051e-06	1.0205e-05	1393.3	380.45	9.6776e-06	1.007e-05	433.2	147.2	128	44.313	9.1443e-06	54.442	499.443	245.549	241.302	171.145	284.236	290.044	170.571	175.459	260.948	306.158	174.700	178.541	179.257	184.223	283.406	183.467	-8191	255	
39892.820	1	1	0	0	0.23308	0.019019	0.20881	0.27471	0.089524	0.23663	0.22262	0.19175	0.13332	0.20198	0.133	0.16637	0.19426	0.28474	0.18955	0.27764	-2.6083	-3.1229	-3.1583	-3.2812	-3.3833	-2.9729	-3.1875	-3.2687	-2.9854	-3.2875	-3.2083	-2.9938	-3.3833	-3	-3.2188	-3.3479	512.139	313.691	312.871	449.275	443.157	306.411	477.184	478.709	360.115	355.680	462.500	460.779	333.692	471.573	246.771	438.000	0.00099936	0.00046193	0.00015988	1368.3	6.8076e-06	4.1149e-06	1366.2	373.64	7.3996e-06	5.4027e-06	422.3	143.47	124.78	42.863	6.5989e-06	52.683	0.00086148	0.00091609	0.00024592	1397.1	9.3935e-06	9.9054e-06	1393.6	380.58	9.1314e-06	9.4317e-06	432.98	146.9	127.71	44.189	8.7291e-06	54.377	498.403	228.961	268.087	171.021	274.615	301.510	170.445	175.259	271.387	320.199	174.971	178.800	179.533	184.182	283.130	183.449	-8191	255	
39892.941	1	1	0	0	0.091495	0.052698	0.27925	0.37298	0.35104	0.11111	0.28181	0.34974	0.27161	0.20235	0.2107	0.11895	0.15403	0.25257	0.23227	0.15977	-2.6813	-3.2917	-3.2167	-3.2771	-3.3812	-3.0542	-3.3542	-3.5667	-3.1271	-3.2208	-3.3167	-3.1625	-3.4958	-3.2875	-3.0938	-3.3896	461.188	469.868	301.941	446.905	381.516	362.623	445.475	469.592	265.955	441.325	461.694	209.161	460.837	506.070	163.968	513.039	0.00097426	0.00047444	0.00015778	1372.7	6.243e-06	4.8899e-06	1363.8	373.32	8.002e-06	5.6656e-06	424.01	143.15	124.88	42.722	6.4325e-06	52.277	0.0008235	0.00083768	0.00022761	1399.3	8.9433e-06	9.0097e-06	1392.8	380.31	8.9427e-06	8.8285e-06	433.53	146.33	127.29	43.998	7.8704e-06	54.233	500.026	252.694	241.683	170.962	268.785	316.091	170.540	175.277	266.932	298.926	174.988	178.666	179.236	184.488	286.633	183.567	-8191	255	
39893.035	1	1	0	0	0.23715	0.22364	0.28086	0.15775	0.13019	0.23322	0.19744	0.093166	0.066275	0.10944	0.25945	0.29101	0.15304	0.29336	0.17668	0.10616	-2.5938	-3.2125	-3.1417	-3.1521	-3.2687	-3.2083	-3.1375	-3.4313	-2.9938	-3.2042	-3.3333	-3.0292	-3.3583	-3.25	-2.9688	-3.3312	254.816	410.861	320.595	488.458	407.561	410.233	443.205	416.014	233.018	432.759	157.385	487.980	419.868	455.498	227.669	449.174	0.00099132	0.00057409	0.00011483	1369.1	5.5418e-06	4.1026e-06	1367.7	372.41	8.6588e-06	5.5819e-06	422.19	142.85	124.58	42.508	4.429e-06	52.18	0.00079371	0.00075912	0.00020083	1395.6	7.9891e-06	7.7996e-06	1392.9	379.51	8.096e-06	7.8134e-06	432.28	145.91	127.04	43.791	7.5541e-06	53.97	497.592	257.243	245.624	170.999	260.464	305.279	170.483	175.338	250.212	317.079	175.013	178.678	179.263	184.401	287.697	183.481	-8191	255	
39893.133	1	1	0	0	0.12553	0.11626	0.085554	0.19496	0.18817	0.14394	0.28068	0.35898	0.32023	0.25135	0.18037	0.18509	0.092335	0.071294	0.16017	0.10567	-2.5938	-3.0771	-3.175	-3.0583	-3.15	-3.2333	-3.0938	-3.5021	-2.9521	-3.0458	-3.2625	-3.2562	-3.2333	-3.1979	-3.0396	-3.3771	236.302	255.586	364.982	495.432	234.948	214.292	414.853	470.194	282.211	318.782	422.026	493.890	357.501	186.995	326.200	383.257	0.00098043	0.00053801	0.00013811	1371.7	6.2657e-06	6.0718e-06	1367.2	371.28	9.1905e-06	4.8131e-06	422.59	141.68	124.1	42.471	5.3586e-06	52.176	0.00077365	0.00069871	0.00019856	1394.5	7.6686e-06	7.6718e-06	1392.6	378.59	7.7158e-06	7.7337e-06	431.65	145.18	126.68	43.708	7.9137e-06	53.934	498.291	246.952	254.871	170.750	284.946	299.472	170.402	175.321	261.213	297.354	175.188	178.894	179.262	184.581	290.129	183.234	-8191	255	
39893.203	1	1	0	0	0.3136	0.20625	0.035779	0.11979	0.016054	0.032596	0.084464	0.3317	0.017244	0.2652	0.14157	0.32115	0.073939	0.096959	0.22748	0.16735	-2.7208	-2.8604	-3.2458	-3.0438	-3.3229	-3.25	-3.1021	-3.4688	-3.2271	-2.9125	-3.3333	-3.1437	-3.1521	-3.2896	-2.9958	-3.4813	157.542	393.309	429.406	467.565	485.994	351.546	474.809	437.108	471.121	448.888	163.704	475.662	451.542	505.959	353.278	177.955	0.0009858	0.00065333	0.00016032	1369.8	5.8281e-06	6.7239e-06	1367.2	370.42	9.8233e-06	4.9635e-06	420.03	141.85	124.07	42.439	5.4716e-06	52.171	0.00075266	0.00073014	0.00020386	1394.3	7.8913e-06	7.9625e-06	1391.7	378.25	7.7607e-06	7.5899e-06	431.14	145.17	126.66	43.659	7.8625e-06	53.94	497.962	242.153	254.341	170.850	269.259	321.446	170.582	175.348	270.202	316.662	175.002	178.679	179.298	184.382	291.923	183.551	-8191	255	
39893.324	1	1	0	0	0.10992	0.22828	0.081853	0.03277	0.076839	0.20447	0.27799	0.32238	0.21984	0.033644	0.19805	0.16171	0.1486	0.13797	0.32632	0.18691	-2.6708	-2.8688	-3.3458	-3.2896	-3.1188	-3.2667	-3.0917	-3.2229	-3.2667	-2.8604	-3.4833	-3.1604	-3.2146	-3.3708	-3.0771	-3.3396	291.159	476.343	224.152	347.458	478.193	286.926	446.370	462.727	368.668	475.888	468.283	485.872	510.049	496.229	465.045	188.202	0.00097326	0.00042283	0.00015689	1368.4	5.6053e-06	6.015e-06	1368.3	370.93	8.1436e-06	4.082e-06	419.78	142.53	123.81	42.273	5.2257e-06	52.12	0.00074491	0.00072248	0.00019888	1394	7.4363e-06	8.1827e-06	1392.4	378.64	7.4555e-06	7.9647e-06	431.01	145.49	126.47	43.652	7.8336e-06	53.985	497.940	243.991	251.057	170.824	283.682	308.114	170.638	175.475	262.272	308.088	174.977	178.812	179.207	184.554	276.633	183.435	-8191	255	
39893.422	1	1	0	0	0.28126	0.23551	0.21658	0.17668	0.1448	0.062946	0.1117	0.11297	0.097886	0.093555	0.26091	0.18182	0.042612	0.15967	0.099358	0.15517	-2.7438	-2.9729	-3.4354	-3.2958	-3.0083	-3.425	-3.1813	-3.4333	-3.1979	-3.0229	-3.4625	-3.1312	-3.1229	-3.4917	-3.05	-3.3854	179.487	357.106	304.702	513.258	475.104	444.428	462.034	408.038	504.104	380.647	434.565	464.029	447.646	473.891	367.738	266.611	0.0009995	0.00049931	0.00011274	1369.9	5.6455e-06	4.9368e-06	1363.6	371.4	8.4111e-06	4.9943e-06	422.02	142.14	123.59	42.313	6.4775e-06	52.079	0.00074328	0.0007391	0.00020579	1394.8	7.5131e-06	7.9355e-06	1389.1	378.4	7.4675e-06	7.9384e-06	431.33	145.28	126.41	43.675	7.9888e-06	53.837	497.461	241.999	266.985	171.171	270.605	305.322	170.640	175.444	268.326	287.739	175.094	178.800	179.276	184.309	285.680	183.368	-8191	255	
39893.516	1	1	0	0	0.088783	0.41094	0.048039	0.25332	0.11529	0.066158	0.29177	0.38652	0.21316	0.14953	0.11888	0.42102	0.10016	0.20532	0.16764	0.16655	-2.8312	-3.0521	-3.0417	-3.3042	-3.0792	-3.2667	-3.2125	-3.1333	-3.225	-3.1146	-3.3125	-3.2875	-3.0125	-3.3063	-2.9729	-3.1479	263.941	446.386	158.320	493.225	176.464	191.194	453.014	451.485	410.543	358.287	430.836	163.326	496.641	433.226	317.213	432.871	0.0010049	0.00067817	0.00012314	1372.2	5.5218e-06	5.5174e-06	1358.5	370.16	8.4211e-06	6.5772e-06	421.23	141.8	123.65	42.155	6.0997e-06	52.105	0.00075825	0.0007425	0.00020259	1394.8	7.5973e-06	7.7283e-06	1388.4	377.78	7.2272e-06	8.2195e-06	430.79	145.01	126.4	43.571	7.783e-06	53.86	499.911	228.049	258.042	170.843	285.203	306.187	170.511	175.389	264.587	305.095	174.856	178.958	179.429	184.466	275.591	183.477	-8191	255	
39893.637	1	1	0	0	0.084145	0.076442	0.085494	0.10842	0.1886	0.18581	0.11674	0.19813	0.22622	0.36093	0.38726	0.26566	0.19898	0.42564	0.23385	0.074138	-2.6125	-2.8958	-3.0875	-3.2646	-2.8854	-3.3729	-3.0708	-3.2812	-3.1604	-2.9854	-3.2812	-3.2771	-3.1104	-3.4979	-2.9417	-3.1542	305.955	258.510	344.088	198.850	386.716	374.526	479.114	426.031	499.081	299.747	436.782	463.343	420.809	496.617	447.757	229.149	0.0010157	0.00052771	0.00016181	1371.5	5.4366e-06	4.3886e-06	1366	370.48	8.5393e-06	5.5802e-06	419.75	142.26	123.45	42.207	7.4925e-06	52.172	0.00074617	0.00073455	0.0001948	1393.7	7.6007e-06	8.1451e-06	1391	377.76	7.6148e-06	7.9277e-06	430.35	145.06	126.31	43.598	7.5851e-06	53.801	498.673	254.116	250.834	171.139	286.131	307.101	170.271	175.557	263.074	321.884	175.248	178.640	179.414	184.336	292.947	183.562	-8191	255	
39893.730	1	1	0	0	0.14007	0.27079	0.26439	0.26889	0.0958	0.094649	0.29137	0.15003	0.23318	0.21024	0.098295	0.19445	0.071306	0.20193	0.23478	0.12525	-2.8	-2.7417	-2.9521	-3.1625	-2.7687	-3.1917	-3.2521	-3.0625	-3.2396	-2.9229	-3.1667	-3.2625	-2.925	-3.25	-3.0438	-2.9646	334.851	443.520	477.716	406.934	301.176	208.603	451.143	420.137	292.759	159.608	478.890	180.415	513.446	501.882	176.929	502.636	0.00097114	0.00055016	0.00018469	1370.2	5.4868e-06	4.066e-06	1364.3	370.64	8.9471e-06	5.3421e-06	420.08	141.48	123.31	42.292	5.8025e-06	52.237	0.00073218	0.00072039	0.00019521	1392.7	7.5654e-06	7.8339e-06	1389.2	377.89	7.8002e-06	8.1808e-06	431.04	145.02	126.27	43.618	7.4096e-06	53.932	500.221	246.893	251.185	170.935	275.660	316.088	170.465	175.369	266.200	306.710	175.019	178.989	179.381	184.552	290.280	183.488	-8191	255	
39893.828	1	1	0	0	0.0907	0.34082	0.028436	0.21252	0.25765	0.24472	0.1051	0.022509	0.12353	0.087772	0.1189	0.21338	0.12302	0.17474	0.17193	0.16341	-2.7521	-3.0187	-3.0875	-3.2896	-2.8896	-3.2479	-3.3292	-3.0771	-3.3792	-3.0271	-3.3292	-3.3583	-3.0104	-3.3167	-3.2042	-3.1708	392.354	198.898	337.545	465.720	364.148	248.710	459.788	501.414	295.502	358.734	436.571	339.647	423.531	492.023	221.859	217.614	0.00098356	0.00047964	0.00013237	1370.7	5.1322e-06	4.9133e-06	1365.3	368.99	7.0656e-06	5.7743e-06	419.82	141.22	123.16	42.322	5.0861e-06	52.105	0.00075591	0.00071865	0.0001899	1394.3	7.7419e-06	7.3984e-06	1391.7	377.51	7.7299e-06	8.3e-06	431.09	144.74	126.29	43.567	7.2486e-06	53.801	499.619	240.330	244.810	170.901	287.157	299.654	170.659	175.386	266.340	310.018	174.783	178.978	179.300	184.617	285.290	183.689	-8191	255	
39893.926	1	1	0	0	0.1624	0.1137	0.19929	0.18537	0.23655	0.20186	0.27432	0.20823	0.28488	0.2457	0.11842	0.13216	0.11194	0.43687	0.25886	0.089587	-2.8042	-3.0292	-3.1896	-3.5625	-2.9	-3.2396	-3.2771	-3.2292	-3.1375	-2.9167	-3.1354	-3.275	-3.1271	-3.2792	-3.1125	-2.9708	436.254	188.400	178.459	167.732	221.383	180.929	421.845	413.913	405.023	464.249	416.361	479.367	201.608	486.742	481.128	247.191	0.00098156	0.00061777	0.00012125	1364.5	5.9302e-06	5.3768e-06	1364	369.75	9.2578e-06	3.8537e-06	420.73	142.57	123.18	42.08	6.098e-06	51.866	0.00074631	0.00070745	0.00018258	1392.9	7.6489e-06	7.6391e-06	1389.5	377.68	7.7714e-06	7.3787e-06	430.55	144.98	126.2	43.478	7.0637e-06	53.704	497.856	243.231	261.168	170.892	284.391	304.913	170.528	175.263	266.163	299.675	175.021	178.827	179.428	184.351	301.705	183.554	-8191	255	
39894.020	1	1	0	0	0.12683	0.10464	0.1885	0.084092	0.089026	0.27164	0.13264	0.20968	0.26706	0.2042	0.10717	0.24607	0.093761	0.3038	0.092572	0.096892	-2.9125	-2.9521	-2.9229	-3.4625	-3.0521	-3.0667	-3.475	-3.0563	-3.1375	-3.1229	-3.1167	-3.4271	-2.9562	-3.2979	-3.1688	-3.1083	266.054	192.892	295.270	490.441	256.203	322.179	372.881	474.254	426.314	493.872	217.151	340.364	188.118	500.582	321.023	393.610	0.00095864	0.00047165	0.00016417	1372.2	6.013e-06	4.6164e-06	1364.1	369.03	8.3058e-06	5.1142e-06	420.66	141.54	122.92	41.967	5.4306e-06	51.776	0.00072619	0.00069003	0.00018812	1394.6	7.4431e-06	7.3255e-06	1389.2	377.22	7.4414e-06	7.0976e-06	430.42	144.53	125.88	43.336	6.6333e-06	53.551	501.462	238.852	252.808	170.941	287.388	309.376	170.504	175.492	267.400	313.105	174.885	178.896	179.654	184.248	286.349	183.351	-8191	255	
39894.117	1	1	0	0	0.29207	0.080488	0.025638	0.28687	0.0067768	0.14602	0.39171	0.34899	0.25694	0.107	0.22834	0.25791	0.32328	0.22357	0.085417	0.21323	-2.9083	-3.0375	-2.9479	-3.5563	-3.1167	-3.1771	-3.4688	-3.1146	-3.2958	-3.0042	-3.0833	-3.2687	-3.1458	-3.1937	-3.1375	-2.9813	341.923	503.839	441.385	194.502	223.638	300.039	447.624	469.342	273.035	492.897	451.451	501.014	195.949	496.628	484.047	322.648	0.0010273	0.00048045	0.00012416	1367.4	5.19e-06	5.3195e-06	1356.6	368.8	5.9742e-06	4.5514e-06	418.13	141.3	122.76	41.856	7.0479e-06	51.867	0.0007342	0.00059876	0.00017711	1390	7.2367e-06	7.1585e-06	1384.5	376.11	6.754e-06	6.4163e-06	428.88	144.17	125.45	43.246	6.7597e-06	53.547	500.339	249.175	251.202	171.014	275.205	326.086	170.386	175.378	256.071	299.098	174.853	178.722	179.336	184.571	283.084	183.518	-8191	255	
39894.238	1	1	0	0	0.087139	0.14855	0.26022	0.47148	0.060536	0.11766	0.25099	0.40213	0.33469	0.22098	0.43779	0.18366	0.066379	0.14372	0.086524	0.053677	-2.6479	-2.9979	-2.9688	-3.5229	-2.8458	-3.0917	-3.5833	-3.1229	-3.0312	-3.0625	-3.1729	-3.3771	-3.1521	-3.0062	-3.1021	-3.1292	179.983	314.711	424.084	447.362	470.251	274.448	488.111	457.696	205.310	318.115	476.347	444.771	501.928	254.972	362.470	446.623	0.00097018	0.00048013	0.00015985	1367.4	5.6536e-06	5.8335e-06	1358.9	368.1	9.5746e-06	4.0313e-06	416.6	140.97	122.67	41.794	7.3073e-06	51.906	0.00070411	0.00060981	0.00018233	1389.3	7.0058e-06	6.7589e-06	1384.7	375.51	6.9106e-06	6.9217e-06	428.34	144.07	125.33	43.207	6.9583e-06	53.538	498.980	245.971	250.065	170.922	281.952	315.847	170.517	175.372	264.638	291.988	175.062	178.854	179.416	184.433	271.022	183.357	-8191	255	
39894.336	1	1	0	0	0.034488	0.13149	0.23189	0.13581	0.10803	0.16352	0.1397	0.30418	0.21754	0.17476	0.046217	0.2994	0.084918	0.29828	0.066034	0.12366	-2.9125	-2.9896	-2.7146	-3.4437	-3.1	-3.1708	-3.5375	-3.2562	-3.0958	-3.1	-3.0083	-3.1396	-3.0854	-3.1167	-3.2438	-3.0583	399.895	507.905	500.857	466.876	427.693	423.858	320.695	491.543	176.518	248.503	440.833	285.706	423.107	182.281	327.883	468.514	0.00097515	0.00048682	0.00013951	1363.5	6.4569e-06	4.9011e-06	1359.4	368.66	9.1126e-06	5.573e-06	418.68	141.02	122.63	41.973	6.8192e-06	51.569	0.0007083	0.00063222	0.00019276	1388.8	6.6941e-06	7.1486e-06	1385.4	375.88	6.9856e-06	7.2636e-06	428.95	144.24	125.55	43.263	7.2695e-06	53.5	501.201	246.838	245.273	170.935	287.469	309.866	170.416	175.446	251.817	303.003	175.016	178.742	179.247	184.690	278.633	183.665	-8191	255	
39894.430	1	1	0	0	0.22809	0.37413	0.10313	0.3442	0.065329	0.32961	0.30947	0.12907	0.070584	0.14842	0.019149	0.29955	0.14094	0.078095	0.25601	0.13063	-2.6562	-3.2667	-2.8875	-3.5917	-3.2021	-3.0479	-3.575	-3.2792	-3.1042	-3.1333	-3.0479	-3.3583	-3.2146	-3.3042	-3.3729	-3.1104	375.661	492.128	311.907	512.627	301.860	198.170	471.716	486.890	372.857	247.502	473.315	238.676	470.704	249.320	305.610	321.942	0.00097622	0.00057289	0.00013944	1361.1	7.1268e-06	4.6503e-06	1361.1	367.48	1.0119e-05	4.1172e-06	417.63	141.08	122.97	42.082	6.8895e-06	51.518	0.0007136	0.00064067	0.00019161	1388.5	7.0302e-06	7.2551e-06	1386.9	375.71	7.1221e-06	7.3491e-06	428.43	144.06	125.65	43.321	7.237e-06	53.442	498.758	258.836	253.902	170.954	290.747	294.906	170.487	175.468	250.829	305.463	174.921	178.760	179.612	184.280	288.415	183.506	-8191	255	
39894.504	1	1	0	0	0.25264	0.16206	0.27718	0.23317	0.055604	0.10079	0.11066	0.22459	0.35836	0.087526	0.1779	0.22017	0.16509	0.20413	0.14345	0.187	-2.6688	-3.2146	-2.7687	-3.4917	-3.1083	-2.8542	-3.4562	-3.2646	-2.9896	-3.2896	-2.9417	-3.3563	-3.2625	-3.05	-3.2167	-3.0792	366.137	476.141	357.795	440.937	215.974	442.079	486.147	492.851	313.034	237.981	485.948	469.813	265.626	487.577	189.511	486.735	0.00096024	0.00056516	0.00016443	1363.8	5.1628e-06	4.7595e-06	1359.2	368.75	7.0867e-06	4.298e-06	418.87	140.51	122.44	41.947	6.0281e-06	51.683	0.00072099	0.00066741	0.00019444	1390.4	6.8733e-06	7.8462e-06	1387.5	376.15	7.1563e-06	7.4477e-06	429.11	143.98	125.4	43.226	7.1894e-06	53.449	498.837	249.785	236.762	171.025	278.764	309.833	170.565	175.348	260.331	287.108	175.166	178.908	179.457	184.363	284.598	183.473	-8191	255	
39894.621	1	1	0	0	0.22136	0.19105	0.085487	0.16958	0.22523	0.15686	0.022192	0.1146	0.24993	0.10768	0.1278	0.25241	0.25678	0.14034	0.21669	0.08702	-2.5271	-3.275	-3.0021	-3.3021	-3.1167	-2.9208	-3.4896	-3.3333	-3.1063	-3.2583	-3.0812	-3.2333	-3.2354	-3.0708	-3.4104	-3.2771	406.748	478.737	326.353	164.917	194.896	362.105	395.975	203.299	341.792	411.791	438.547	443.888	505.129	161.643	447.998	329.093	0.00096146	0.00044488	0.0001217	1363.5	5.308e-06	6.0921e-06	1363.8	369.42	7.676e-06	3.5042e-06	419.15	140.56	123.19	41.946	5.3853e-06	51.649	0.00073748	0.00069451	0.00018858	1388.6	6.9868e-06	7.7521e-06	1387.5	376.11	7.1221e-06	7.2077e-06	429.21	144.02	125.67	43.237	6.9706e-06	53.377	497.245	246.836	250.193	171.015	272.365	310.635	170.552	175.270	261.709	301.861	174.745	178.981	179.498	184.230	304.141	183.601	-8191	255	
39894.719	1	1	0	0	0.2005	0.0537	0.24725	0.18549	0.16357	0.16169	0.1588	0.16255	0.31671	0.25085	0.088685	0.40138	0.17932	0.16778	0.065797	0.14338	-2.7562	-3.1771	-2.9583	-3.3563	-3.3208	-2.9958	-3.4083	-3.1792	-3.1708	-3.1854	-3.0354	-3.2771	-3.2042	-3.0333	-3.0875	-3.2792	219.467	436.361	313.480	306.388	196.139	485.443	429.451	508.155	464.193	495.326	494.614	171.874	470.074	322.455	438.381	386.595	0.00098109	0.0005435	0.00015044	1363.2	5.4328e-06	6.7198e-06	1359.1	368.59	8.6658e-06	4.8946e-06	419.67	140.92	122.66	41.79	7.3413e-06	51.609	0.00072705	0.00069618	0.00019755	1389.9	7.2835e-06	7.671e-06	1385.5	375.79	7.4367e-06	7.6721e-06	429.07	143.71	125.27	43.14	7.4566e-06	53.369	499.347	229.412	247.579	170.844	295.381	300.204	170.429	175.397	271.163	320.680	174.987	179.008	179.385	184.773	299.171	183.657	-8191	255	
39894.812	1	1	0	0	0.14393	0.10865	0.10059	0.29198	0.23109	0.071588	0.27356	0.13443	0.10244	0.19585	0.32105	0.071042	0.21109	0.048343	0.12899	0.15219	-2.5563	-3.1917	-2.8604	-3.1604	-3.3	-2.9	-3.2771	-3.1771	-2.7396	-3.2562	-3.0917	-3.0438	-3.2479	-2.9625	-3.1354	-3.25	309.950	192.045	369.522	462.703	327.647	510.946	482.137	173.830	471.009	386.399	456.479	483.804	446.925	496.664	169.383	273.226	0.00099673	0.00071611	0.00018938	1369.1	5.1357e-06	5.3725e-06	1363.6	367.06	8.1602e-06	4.7562e-06	418.1	141.16	122.29	41.75	5.7413e-06	51.549	0.00075306	0.00068635	0.00018928	1391.2	7.2482e-06	7.8765e-06	1387.4	375.74	7.4755e-06	7.502e-06	428.85	143.87	125.17	43.106	6.7301e-06	53.327	499.231	259.748	246.583	170.913	295.315	317.715	170.456	175.409	261.464	293.989	174.803	178.912	179.492	184.542	280.062	183.244	-8191	255	
39894.910	1	1	0	0	0.02824	0.098792	0.1108	0.085499	0.15421	0.18819	0.4159	0.18825	0.24398	0.26003	0.23907	0.16653	0.10455	0.14658	0.085826	0.28348	-2.4979	-3.3625	-2.8958	-3.0687	-3.3312	-2.9646	-3.4292	-3.3292	-2.9208	-3.2896	-3.2021	-3.1958	-3.3167	-2.9979	-3.0979	-3.3125	237.514	320.389	464.599	200.272	257.329	350.632	489.047	380.826	214.531	251.947	374.334	489.374	183.564	506.851	399.461	500.701	0.00093602	0.00066127	0.00013565	1366.7	5.9071e-06	5.5201e-06	1359.4	367.96	7.1762e-06	5.2357e-06	417.29	140.22	122.53	41.895	5.0569e-06	51.435	0.00074083	0.00065563	0.00017643	1389.4	7.2951e-06	7.3607e-06	1385.9	375.24	7.4943e-06	7.3228e-06	427.78	143.71	125.28	43.158	6.9388e-06	53.386	497.228	241.315	248.023	170.930	296.004	322.041	170.593	175.476	263.393	303.867	174.942	179.001	179.657	184.650	296.186	183.589	-8191	255	
39895.004	1	1	0	0	0.11861	0.03252	0.22833	0.16492	0.11587	0.22132	0.21175	0.33951	0.16116	0.075387	0.24844	0.058008	0.19352	0.29515	0.042711	0.32259	-2.4667	-3.2667	-3.0917	-3.1417	-3.1688	-3.0479	-3.4375	-3.3583	-2.9896	-3.2667	-3.0187	-3.1167	-3.3438	-3.1437	-3.0354	-3.2729	300.612	200.621	248.121	476.039	396.357	286.189	421.008	478.551	494.688	417.699	427.715	422.199	463.253	464.917	337.475	398.860	0.00096448	0.00043364	0.00014195	1366.3	5.6607e-06	3.9171e-06	1358	368.22	8.458e-06	4.6157e-06	418.97	141.08	122.41	42.12	6.082e-06	51.571	0.00073957	0.00070355	0.0001835	1390	7.1857e-06	7.5457e-06	1385.6	375.2	7.4421e-06	7.3499e-06	428.57	143.85	125.24	43.219	7.2284e-06	53.342	498.106	254.522	255.234	171.043	261.093	315.107	170.588	175.462	260.897	303.937	175.296	178.871	179.411	184.390	282.834	183.595	-8191	255	
39895.102	1	1	0	0	0.091915	0.22751	0.044149	0.25768	0.25757	0.26968	0.12866	0.08102	0.034053	0.2364	0.1304	0.17021	0.1271	0.1617	0.18291	0.044267	-2.6437	-3.0354	-2.9917	-3.0229	-3.2729	-2.9708	-3.2062	-3.4667	-3.0896	-3.1271	-3.3229	-2.9479	-3.3667	-3.1813	-3.0312	-3.325	329.888	187.737	322.395	426.032	395.460	223.350	415.309	433.584	448.577	422.318	466.822	497.631	170.530	391.365	495.780	318.648	0.00098746	0.00051804	0.00014366	1368.2	4.7477e-06	4.4626e-06	1355.2	368.88	8.3279e-06	2.9981e-06	417.83	141.22	122.15	42.037	5.597e-06	51.443	0.00075616	0.00065187	0.00017155	1389.9	7.2346e-06	7.2543e-06	1384.5	375.53	7.4334e-06	7.119e-06	428.56	143.82	125.32	43.204	7.3179e-06	53.374	497.740	241.796	254.536	170.893	283.195	308.316	170.425	175.588	256.942	296.507	174.977	178.946	179.496	184.443	289.262	183.733	-8191	255	
39895.195	1	1	0	0	0.2707	0.16774	0.097981	0.22385	0.17357	0.083922	0.1266	0.31798	0.20133	0.11867	0.23577	0.2807	0.31812	0.16782	0.1761	0.035113	-2.6354	-3.1562	-2.9771	-3.2083	-3.3396	-3.3	-3.2854	-3.3646	-3.2208	-2.9938	-3.3396	-2.925	-3.3833	-3.0396	-3.0021	-3.3583	479.659	480.635	157.878	491.380	515.229	202.262	353.497	430.178	223.705	301.624	475.804	450.668	496.658	495.904	366.416	364.843	0.00099728	0.00041842	0.00014122	1366.9	4.9411e-06	6.7349e-06	1357.9	366.77	1.0537e-05	4.7867e-06	417.14	140.55	122.3	41.734	5.7787e-06	51.542	0.00073636	0.00065794	0.00018111	1389.9	7.092e-06	7.1732e-06	1383.5	375.15	7.1911e-06	7.1831e-06	428.17	143.7	125.08	43.078	7.4595e-06	53.298	499.202	236.452	250.759	171.060	301.020	314.104	170.550	175.344	270.665	315.571	174.938	178.883	179.467	184.227	290.758	183.598	-8191	255	
39895.316	1	1	0	0	0.05004	0.11271	0.24768	0.35828	0.13506	0.094797	0.050249	0.13453	0.19527	0.25295	0.063984	0.30269	0.24086	0.14289	0.2644	0.35701	-2.6	-3.0271	-3.2146	-3.0271	-3.3417	-3.0042	-3.1333	-3.4167	-3.0708	-3.2125	-3.3271	-2.8979	-3.0917	-3.3208	-2.9625	-3.3854	167.595	168.552	185.289	488.780	417.072	192.959	238.139	456.041	325.576	309.810	391.502	486.139	468.603	289.263	308.521	435.417	0.0009775	0.00057769	0.00014984	1364.6	6.9725e-06	3.7886e-06	1355.9	368.3	6.7477e-06	5.2893e-06	419.87	140.92	122.82	41.756	7.1775e-06	51.343	0.00073145	0.00065643	0.00018575	1389.1	7.02e-06	6.9358e-06	1384.4	375.54	7.0505e-06	7.2866e-06	428.82	143.79	125.32	43.096	7.3143e-06	53.2	498.993	244.902	237.606	170.770	274.734	310.467	170.538	175.306	260.145	303.903	174.830	178.997	179.381	184.504	294.089	183.664	-8191	255	
39895.414	1	1	0	0	0.10164	0.18991	0.17986	0.21286	0.2361	0.12062	0.37415	0.23478	0.15949	0.16857	0.25879	0.16185	0.051646	0.31991	0.17053	0.12473	-2.7083	-3.2375	-3.3312	-3.2167	-3.1354	-3.1896	-3.0604	-3.55	-3.2	-3.2812	-3.3958	-3.1917	-3.4042	-3.3125	-2.9771	-3.4125	439.379	194.590	508.874	420.921	283.608	168.636	433.924	466.463	334.855	388.495	187.544	354.776	262.710	396.459	255.681	421.455	0.00098759	0.00065824	0.0001615	1367.3	5.26e-06	3.8184e-06	1358.4	367.7	8.1045e-06	4.9467e-06	418.93	140.24	122.42	41.721	5.5022e-06	51.536	0.0007167	0.00062752	0.00019	1389.3	6.6778e-06	6.6615e-06	1385.5	374.64	6.6998e-06	6.9242e-06	428.02	143.54	124.96	42.993	7.1829e-06	53.268	498.485	242.836	254.940	170.881	272.874	295.158	170.457	175.372	264.881	306.918	175.017	178.897	179.500	184.342	278.788	183.427	-8191	255	
39895.512	1	1	0	0	0.080936	0.15837	0.16214	0.34572	0.088791	0.13836	0.2731	0.19239	0.08561	0.21953	0.34291	0.22092	0.22036	0.065528	0.19911	0.10218	-2.6437	-2.9729	-3.4146	-3.2042	-3.2	-3.1854	-3.175	-3.3042	-3.125	-3.0958	-3.4958	-2.9854	-3.1729	-3.2417	-3.0229	-3.3708	468.939	354.366	218.919	512.320	359.886	204.975	473.060	502.434	215.811	329.547	473.463	511.182	446.206	456.846	264.908	388.409	0.00090414	0.00053158	0.00015839	1364.9	5.7623e-06	3.9037e-06	1356.9	365.92	8.5969e-06	4.4816e-06	416.59	140.3	122.06	41.643	6.2416e-06	51.544	0.00070996	0.00061263	0.00018169	1389.4	6.8883e-06	6.9988e-06	1383.5	374.11	6.8986e-06	7.2768e-06	427.75	143.57	124.9	42.977	7.1518e-06	53.23	498.837	229.661	248.437	170.912	281.449	295.094	170.474	175.528	260.593	315.582	174.801	178.730	179.499	184.670	283.832	183.814	-8191	255	
39895.605	1	1	0	0	0.20522	0.13332	0.30506	0.44143	0.042631	0.10217	0.14642	0.10023	0.13694	0.23507	0.22868	0.26971	0.059749	0.31691	0.084047	0.040512	-2.7729	-2.9542	-3.0708	-3.0875	-3.0458	-3.2208	-3.2521	-3.2042	-3.125	-2.8458	-3.3417	-3.1646	-3.4396	-3.3563	-2.8688	-3.1875	193.082	302.818	385.049	422.039	387.882	498.417	433.841	469.949	272.488	314.003	418.698	432.086	274.466	157.806	449.798	453.153	0.0009155	0.00057308	0.00012694	1362.4	6.6179e-06	4.2064e-06	1356.9	366.22	7.9592e-06	5.3424e-06	417.98	140.87	122.29	41.809	6.2471e-06	51.391	0.00071032	0.00067189	0.00018774	1387.4	6.9759e-06	7.0782e-06	1385.5	374.5	6.9629e-06	7.6121e-06	427.69	143.37	125.01	43.042	7.2681e-06	53.216	497.617	241.089	233.403	170.971	273.881	301.740	170.519	175.483	260.636	304.690	174.973	178.947	179.300	184.533	287.612	183.756	-8191	255	
39895.727	1	1	0	0	0.23026	0.28139	0.25268	0.30062	0.17413	0.19917	0.24952	0.062861	0.020672	0.15787	0.056799	0.19342	0.18205	0.21623	0.1189	0.092791	-2.7687	-2.8542	-3.2188	-3.2146	-2.9625	-3.2646	-3.075	-3.3583	-3.0729	-2.9583	-3.3417	-3.0458	-3.1583	-3.2604	-2.9521	-3.3958	334.521	243.126	380.061	487.298	366.555	248.268	499.244	449.310	377.941	276.373	178.574	397.771	225.584	470.172	431.018	501.376	0.00097218	0.00059197	0.00015654	1361.5	6.5464e-06	5.3353e-06	1357.7	366.58	8.1263e-06	4.4727e-06	417.23	140.13	121.8	41.792	6.334e-06	51.211	0.0007105	0.00068599	0.0001843	1388	7.0879e-06	7.1912e-06	1384.3	374.35	7.0472e-06	7.2998e-06	427.2	143.2	124.64	42.931	6.6672e-06	53.119	498.874	247.947	248.109	171.091	290.300	292.083	170.489	175.433	260.428	301.789	174.972	178.979	179.385	184.678	277.335	183.712	-8191	255	
39895.797	1	1	0	0	0.29714	0.10814	0.23303	0.1677	0.080729	0.2381	0.3008	0.36333	0.11708	0.095713	0.19498	0.5416	0.17755	0.33573	0.19043	0.14422	-2.6354	-2.95	-3.2812	-3.4333	-3.0312	-3.3083	-3.1167	-3.1688	-3.0938	-2.8792	-3.35	-2.9896	-3.1167	-3.2729	-3.0771	-3.2771	248.749	247.217	452.841	414.531	476.348	355.318	478.169	465.151	248.140	330.580	395.257	473.697	394.803	476.941	354.086	277.191	0.00098601	0.00055162	0.00013442	1359.3	6.3858e-06	5.4651e-06	1350.3	365.99	8.9482e-06	5.0598e-06	418.86	139.55	122.04	41.736	6.8171e-06	51.21	0.00072121	0.00066149	0.00016685	1385.6	6.8862e-06	7.1855e-06	1380.4	373.41	6.9575e-06	7.3466e-06	426.77	142.81	124.58	42.994	6.8023e-06	53.067	500.253	246.158	254.912	170.782	275.707	314.822	170.458	175.490	269.933	297.228	174.975	178.805	179.370	184.738	283.782	183.542	-8191	255	
39895.918	1	1	0	0	0.18138	0.25519	0.1443	0.07649	0.16198	0.18522	0.16275	0.11458	0.053175	0.058348	0.047871	0.045486	0.3233	0.2791	0.026912	0.31001	-2.7521	-2.9271	-2.9854	-3.1833	-2.9167	-3.4	-3.1667	-3.3688	-3.2917	-2.925	-3.4938	-3.1729	-2.9854	-3.3458	-2.9146	-3.0938	480.049	180.922	310.311	371.072	426.366	160.606	432.519	409.990	196.461	445.976	360.638	277.176	458.426	191.623	311.802	427.232	0.00097272	0.00059459	0.00017526	1360.5	6.0903e-06	4.0586e-06	1355	367.16	9.2114e-06	6.7052e-06	418.71	140.64	122.31	41.604	7.0531e-06	51.154	0.00072983	0.00067189	0.00017505	1385.9	7.2815e-06	7.3206e-06	1382.1	374.45	7.4193e-06	7.3409e-06	427.86	143.48	124.67	42.949	7.0803e-06	53.208	500.509	246.968	251.651	171.037	287.403	293.975	170.363	175.392	261.919	310.732	174.908	178.892	179.593	184.601	290.799	183.683	-8191	255	
39896.016	1	1	0	0	0.1542	0.074522	0.18274	0.27204	0.15307	0.3253	0.20798	0.23843	0.092711	0.060018	0.38995	0.17395	0.13979	0.15015	0.10753	0.016477	-2.7729	-2.9083	-3.1167	-3.3625	-3.025	-3.275	-3.1688	-3.1562	-3.2292	-2.9292	-3.2354	-3.1937	-3.0438	-3.3375	-3.0833	-3.1208	265.405	249.884	305.667	443.743	350.154	256.016	442.203	175.042	224.409	289.829	444.437	448.241	425.206	428.653	465.965	206.060	0.0009703	0.00055217	0.00015877	1365	6.0594e-06	3.5802e-06	1356.1	368.6	7.8971e-06	3.2486e-06	417.5	140.51	122.33	41.819	5.8881e-06	51.426	0.00074137	0.00069899	0.00018396	1388.8	7.5694e-06	7.4295e-06	1384.3	375.36	7.5411e-06	7.6704e-06	427.79	143.6	125.15	43.051	7.427e-06	53.249	497.794	247.111	251.927	170.858	270.304	309.515	170.465	175.373	263.174	307.254	174.913	178.848	179.642	184.499	280.927	183.601	-8191	255	
39896.109	1	1	0	0	0.15712	0.14781	0.15679	0.091636	0.13902	0.05256	0.14027	0.11801	0.088275	0.19864	0.040935	0.12922	0.29626	0.27907	0.20557	0.049169	-2.9354	-2.9354	-3.1646	-3.2958	-2.9562	-3.3042	-3.3	-3.1146	-3.2458	-3.0646	-3.2604	-3.2542	-2.8479	-3.3208	-3.1875	-3.0167	208.581	390.216	402.653	183.232	205.713	352.262	444.407	474.481	176.540	328.793	354.256	359.896	443.627	462.064	195.512	359.555	0.00095573	0.00059098	0.00016528	1362.8	6.6031e-06	4.8421e-06	1359.9	368.01	7.0848e-06	4.619e-06	418.96	140.27	122.23	41.81	6.0224e-06	51.762	0.00074267	0.0006943	0.00018655	1388	7.3922e-06	7.3173e-06	1384.6	374.86	7.4294e-06	7.4494e-06	428.23	143.49	125.12	43.084	6.9402e-06	53.361	500.658	248.644	250.232	171.046	283.596	309.607	170.593	175.475	259.552	310.740	174.899	178.796	179.444	184.436	269.375	183.336	-8191	255	
39896.207	1	1	0	0	0.13218	0.16775	0.23137	0.28574	0.12303	0.16321	0.39066	0.11418	0.13173	0.09808	0.15427	0.051902	0.35233	0.18728	0.030287	0.19096	-2.8979	-3.0833	-3.0042	-3.4271	-3.0792	-3.1792	-3.2	-3.0958	-3.4875	-3.0687	-3.1771	-3.3417	-2.8833	-3.225	-3.1917	-2.9792	236.995	461.303	477.697	488.387	302.765	406.517	499.160	466.583	470.030	317.177	479.671	404.065	441.839	475.562	470.218	466.096	0.0009748	0.00036054	0.00015632	1364.1	6.4515e-06	4.1889e-06	1358.8	366.4	8.347e-06	5.4175e-06	416.75	140.47	121.86	41.839	4.9641e-06	51.669	0.00074447	0.00064862	0.00018611	1388.2	7.3861e-06	7.1486e-06	1384.2	374.51	7.3611e-06	7.1749e-06	427.28	143.26	124.93	43.083	7.1569e-06	53.319	498.544	240.859	263.622	170.990	285.691	305.995	170.514	175.546	268.656	320.593	174.876	178.942	179.486	184.495	293.330	183.680	-8191	255	
39896.328	1	1	0	0	0.16239	0.020738	0.021032	0.11331	0.13264	0.2254	0.18503	0.15864	0.26741	0.097806	0.1467	0.20785	0.031786	0.10406	0.17405	0.21506	-2.9042	-3.1604	-3.1542	-3.6583	-3.0563	-3.1188	-3.4292	-3.0271	-3.2729	-3.0958	-3.0125	-3.4208	-3.0458	-3.2687	-3.2771	-3.05	196.475	272.570	460.353	441.973	166.594	251.453	431.591	432.418	230.786	329.371	492.590	398.585	502.033	463.148	372.589	517.176	0.00097889	0.00060931	0.00014511	1362.6	4.9482e-06	3.3713e-06	1357.7	367.3	7.6698e-06	4.1479e-06	416.36	140.81	122.22	41.727	5.5446e-06	51.379	0.00072417	0.00063908	0.00018822	1387.1	6.9725e-06	6.7802e-06	1384.7	374.37	6.6918e-06	7.013e-06	427.47	143.57	124.91	43.073	7.206e-06	53.242	497.458	240.403	243.808	171.137	278.494	314.336	170.627	175.377	267.870	302.319	175.036	178.738	179.264	184.332	287.690	183.407	-8191	255	
39896.398	1	1	0	0	0.2081	0.067208	0.22968	0.37336	0.12475	0.39377	0.13822	0.14265	0.27244	0.15392	0.082893	0.039294	0.12257	0.2704	0.14523	0.12588	-3.0062	-3.0125	-2.9458	-3.3958	-3.0042	-3.1729	-3.5104	-3.0062	-3.375	-3.1	-3.1792	-3.3083	-3.0646	-3.15	-3.225	-3.1167	378.414	503.163	194.412	479.986	213.789	163.711	349.509	485.632	303.965	343.953	159.746	509.154	432.369	501.310	502.456	465.531	0.00094827	0.00048777	0.00015061	1361.5	5.3625e-06	5.7573e-06	1362.2	367.71	8.0035e-06	6.0897e-06	417.02	140.43	122.37	41.725	3.7586e-06	51.317	0.00071796	0.00064212	0.00019446	1389.5	6.9874e-06	7.1896e-06	1386.9	375.41	6.9193e-06	7.317e-06	427.67	143.51	125.04	43.1	7.2616e-06	53.318	498.535	242.644	255.826	171.014	280.930	298.673	170.408	175.536	259.164	293.868	175.163	178.910	179.325	184.838	296.383	183.677	-8191	255	
39896.492	1	1	0	0	0.26344	0.10431	0.25321	0.31978	0.088851	0.17219	0.33229	0.054502	0.17329	0.19647	0.1294	0.23141	0.099416	0.18935	0.23234	0.096068	-2.7438	-3.025	-2.8792	-3.4042	-3.0958	-3.1063	-3.3979	-3.1479	-3.1375	-3.0896	-2.9292	-3.4375	-3.0687	-3.3271	-3.2104	-3.0354	336.448	291.390	502.773	462.644	286.179	180.034	423.730	475.445	209.137	277.537	166.659	450.054	510.857	502.480	201.524	380.981	0.00098307	0.00038416	0.00012801	1364.6	5.5819e-06	5.0832e-06	1361.5	367.76	7.7194e-06	4.8209e-06	418.73	140.94	122.17	41.782	5.0761e-06	51.417	0.00071955	0.00068353	0.00019157	1390.6	7.255e-06	7.8282e-06	1385.2	375.33	6.9675e-06	7.2061e-06	428.11	143.6	125.04	43.098	7.2616e-06	53.252	498.583	239.753	247.986	171.112	260.447	299.486	170.368	175.260	256.872	297.100	174.967	178.860	179.442	184.563	279.408	183.574	-8191	255	
39896.590	1	1	0	0	0.12177	0.35679	0.11085	0.23493	0.17842	0.21183	0.21382	0.36214	0.1993	0.015736	0.15885	0.086345	0.25634	0.15081	0.29435	0.20356	-2.8083	-3.0646	-2.9396	-3.325	-3.1521	-3.1	-3.5438	-3.2542	-3.2042	-3.2375	-3.2167	-3.4188	-3.2812	-2.9167	-3.4583	-3.0396	210.438	507.808	507.479	157.450	351.302	255.365	465.836	472.763	210.762	231.055	479.128	468.448	165.454	481.989	516.054	468.247	0.00093936	0.00051866	0.00012417	1364.2	5.9396e-06	7.2789e-06	1355.7	367.18	8.3831e-06	3.4331e-06	419.58	140.24	122.48	41.943	5.0194e-06	51.554	0.00072489	0.00072465	0.00019852	1388.3	7.3745e-06	7.942e-06	1384	375.08	7.3604e-06	7.6639e-06	428.47	143.75	125.22	43.222	7.4335e-06	53.374	497.535	229.366	263.377	171.038	281.363	288.951	170.548	175.300	261.455	287.477	174.857	178.839	179.343	184.330	289.757	183.674	-8191	255	
39896.688	1	1	0	0	0.076314	0.18783	0.17545	0.060539	0.17897	0.19791	0.18696	0.45388	0.074301	0.12715	0.17693	0.07598	0.20237	0.25624	0.032653	0.061796	-2.625	-3.325	-2.9042	-3.4896	-3.1375	-2.9958	-3.6146	-3.1792	-3.2417	-3.2458	-3.1583	-3.2458	-3.2104	-2.9646	-3.3292	-2.8542	218.076	200.028	290.288	242.540	415.572	255.983	431.351	460.572	194.098	331.357	255.318	436.469	471.273	478.809	266.216	177.374	0.00094728	0.0004426	0.0001365	1367.4	6.0018e-06	5.3126e-06	1360.1	368.02	6.9852e-06	4.9831e-06	418.06	140.65	122.37	41.906	4.6191e-06	51.577	0.00072691	0.00070116	0.00020077	1390.4	7.2285e-06	7.5777e-06	1386.3	375.78	7.4434e-06	7.3902e-06	427.97	143.78	125.24	43.155	6.9503e-06	53.408	495.414	232.380	256.006	170.971	282.427	311.874	170.440	175.396	262.812	308.825	175.022	178.923	179.537	184.586	287.263	183.351	-8191	255	
39896.805	1	1	0	0	0.17173	0.13732	0.24076	0.24474	0.18496	0.09844	0.27875	0.32307	0.072478	0.13622	0.15056	0.09559	0.17471	0.2857	0.19542	0.11468	-2.5563	-3.1542	-2.775	-3.2667	-3.0687	-2.9813	-3.4688	-3.2917	-3.0833	-3.2979	-3.1188	-3.2333	-3.2271	-3.0625	-3.3354	-3.0625	458.404	376.416	284.215	508.280	467.073	459.763	450.079	460.313	512.358	222.351	507.609	246.629	498.633	499.607	227.438	481.355	0.00096612	0.00064334	0.00014667	1361.5	4.9423e-06	4.7271e-06	1355.4	367.57	7.7602e-06	4.2557e-06	418.7	140.69	122.21	41.723	4.9603e-06	51.504	0.00073953	0.0007141	0.00018976	1390	7.1301e-06	7.7373e-06	1385.9	375.2	7.1161e-06	7.3072e-06	427.94	143.58	125.09	43.024	7.003e-06	53.299	499.983	245.331	252.406	170.869	277.582	314.617	170.688	175.365	261.506	306.068	175.059	178.815	179.469	184.390	303.507	183.516	-8191	255	
39896.902	1	1	0	0	0.21248	0.058675	0.1497	0.37375	0.16684	0.199	0.28403	0.12388	0.17159	0.15937	0.2624	0.15896	0.10828	0.12714	0.26105	0.15865	-2.525	-3.2646	-2.7271	-3.25	-3.0625	-2.9958	-3.5354	-3.2396	-3.1417	-3.2917	-3.1146	-3.1458	-3.1771	-2.9729	-3.1479	-3.125	505.360	339.091	475.630	480.233	357.020	324.671	402.649	473.024	419.071	501.261	489.341	190.330	190.539	426.650	199.032	207.917	0.00097854	0.00044627	0.00012111	1363.8	5.2695e-06	4.4663e-06	1356.7	367.69	8.4913e-06	4.5868e-06	418.02	140.97	121.83	41.943	5.7455e-06	51.545	0.00074217	0.00067016	0.00018523	1388.7	7.3793e-06	7.4942e-06	1384.2	374.9	7.2647e-06	7.4921e-06	428.17	143.82	125.06	43.179	7.0211e-06	53.26	499.942	234.098	238.280	170.880	287.058	299.779	170.538	175.390	262.337	282.843	174.979	178.896	179.364	184.511	290.297	183.506	-8191	255	
39896.996	1	1	0	0	0.05625	0.11943	0.18934	0.066853	0.19806	0.21929	0.28928	0.077713	0.14709	0.409	0.15438	0.10037	0.087061	0.27457	0.20474	0.28427	-2.4938	-3.4437	-2.9854	-3.3208	-3.2146	-3.0604	-3.3125	-3.1854	-2.9104	-3.2875	-3.2667	-3.0875	-3.2313	-3.0812	-3.1125	-3.1875	392.830	174.398	342.682	515.172	237.931	380.753	478.948	430.492	513.174	491.754	446.839	163.578	507.835	157.516	350.679	410.690	0.00098853	0.00062482	0.00012471	1367.5	5.4799e-06	4.3689e-06	1358.6	370.14	8.8427e-06	5.1306e-06	418.38	140.51	122.8	41.897	6.1005e-06	51.402	0.00076377	0.00069119	0.00018667	1390.8	7.5783e-06	7.7414e-06	1385.7	376.05	7.6717e-06	7.3844e-06	428.21	143.99	125.46	43.148	7.2248e-06	53.264	497.816	240.350	255.370	171.098	267.611	310.072	170.561	175.288	264.484	305.099	174.925	178.673	179.430	184.560	277.519	183.527	-8191	255	
39897.094	1	1	0	0	0.069932	0.1041	0.041035	0.33552	0.18874	0.14288	0.090728	0.3724	0.13648	0.20346	0.19315	0.16197	0.24884	0.11669	0.32588	0.34419	-2.4458	-3.3958	-3.0062	-3.2562	-3.4292	-2.975	-3.3937	-3.5021	-2.8063	-3.2625	-3.2396	-3.3042	-3.3958	-2.9958	-3.2625	-3.1708	274.829	169.553	319.119	512.484	344.863	167.671	158.174	455.611	249.223	467.850	402.466	233.238	446.956	434.585	293.120	202.633	0.00097019	0.00056388	0.00016529	1366.9	7.1443e-06	5.8817e-06	1358.6	368.68	6.1476e-06	4.579e-06	418.11	141.07	122.24	41.708	6.363e-06	51.733	0.00076539	0.00065809	0.00018478	1390.9	7.4689e-06	7.2583e-06	1385.2	375.49	7.4575e-06	7.0343e-06	428.02	143.76	125	43.015	7.0868e-06	53.397	500.196	249.934	245.225	171.074	279.336	316.897	170.633	175.416	269.017	295.390	174.879	178.672	179.509	184.355	288.458	183.436	-8191	255	
39897.191	1	1	0	0	0.12472	0.067888	0.035142	0.19793	0.27792	0.21428	0.13858	0.30236	0.20383	0.14223	0.09113	0.020005	0.062241	0.10263	0.23353	0.1112	-2.6542	-3.2167	-3.1708	-3.2667	-3.3396	-3.175	-3.4917	-3.2229	-3.0292	-3.2146	-3.1521	-3.1458	-3.4521	-3.0875	-3.25	-3.2167	329.116	360.869	348.966	458.161	197.220	233.914	401.756	491.126	361.812	317.210	236.336	226.591	289.814	210.820	469.528	486.273	0.00097838	0.00055966	0.00016396	1363.6	5.5456e-06	3.1756e-06	1361.8	368.33	8.8086e-06	4.9946e-06	417.37	140.47	122.46	41.72	6.1506e-06	51.631	0.0007356	0.00063178	0.00018029	1390.5	7.42e-06	7.0733e-06	1385.8	375.55	7.7694e-06	7.3598e-06	427.77	143.59	125.1	43.088	7.1482e-06	53.353	499.344	252.260	254.307	170.956	277.256	302.833	170.528	175.307	267.877	304.117	174.989	178.685	179.494	184.590	296.682	183.344	-8191	255	
39897.285	1	1	0	0	0.13964	0.031885	0.13607	0.13352	0.12757	0.19689	0.4988	0.02182	0.25988	0.18425	0.18928	0.1035	0.081236	0.10716	0.21709	0.047949	-2.5271	-3.1979	-3.0271	-3.0938	-3.3229	-3.0187	-3.3417	-3.3729	-2.8833	-3.3187	-3.1354	-3.1396	-3.3167	-3.1625	-3.0521	-3.4437	510.553	339.492	236.168	443.147	165.007	386.379	459.802	421.510	490.797	247.403	440.609	229.825	434.471	481.916	310.396	389.031	0.00096097	0.00038076	0.00014407	1363.3	6.2552e-06	4.7716e-06	1358	367.62	7.9014e-06	5.6535e-06	417.68	140.69	122.56	41.726	6.0924e-06	51.626	0.00074199	0.00064378	0.00018912	1389.9	7.3569e-06	7.3599e-06	1386.1	375.57	7.3417e-06	7.4387e-06	428.21	143.61	125.22	43.099	7.3793e-06	53.259	500.672	236.531	261.850	171.012	293.602	315.835	170.579	175.158	257.218	302.568	174.752	179.094	179.400	184.422	290.942	183.562	-8191	255	
39897.406	1	1	0	0	0.24979	0.2472	0.14532	0.32388	0.19681	0.044681	0.10205	0.24945	0.2055	0.098165	0.079986	0.23483	0.23307	0.16454	0.18438	0.032838	-2.5583	-2.9833	-3.2396	-3.1542	-3.2646	-3.1917	-2.9771	-3.2375	-3.2083	-3.0292	-3.4167	-2.9938	-3.1417	-3.0854	-2.9229	-3.4271	451.436	305.856	238.997	461.207	226.975	479.882	170.977	469.722	260.192	245.260	413.707	222.106	484.459	388.331	352.133	194.042	0.00095281	0.00060494	0.0001092	1366.7	6.2659e-06	4.248e-06	1361.4	366.91	8.1858e-06	5.0075e-06	416.44	140.78	122.57	41.799	6.3785e-06	51.348	0.0007316	0.00064761	0.00019035	1388.1	6.9997e-06	7.1937e-06	1384.1	374.48	7.0479e-06	7.073e-06	427.89	143.68	124.95	43.021	7.3085e-06	53.12	498.849	244.323	246.451	171.031	280.245	311.608	170.538	175.584	267.488	313.176	174.914	178.687	179.577	184.649	273.258	183.571	-8191	255	
39897.504	1	1	0	0	0.19506	0.15938	0.19888	0.21205	0.22617	0.27388	0.066922	0.18852	0.13126	0.17901	0.08561	0.17803	0.14557	0.23193	0.077759	0.096225	-2.4625	-3.1646	-3.0438	-2.9917	-3.2313	-3.1042	-3.2396	-3.3792	-2.9271	-2.9875	-3.2812	-2.8958	-3.3854	-3.1125	-3.0771	-3.3312	331.005	415.738	509.221	474.392	471.138	461.962	172.655	480.821	217.739	370.021	427.055	399.473	432.976	487.392	258.830	369.935	0.00097181	0.00061875	0.00013837	1365.1	3.8692e-06	2.9142e-06	1354.2	366.14	8.3216e-06	6.1753e-06	417.04	140.83	122.35	41.701	5.6392e-06	51.512	0.00070329	0.00064118	0.0001782	1387.2	6.5732e-06	7.0348e-06	1381.9	374.36	6.9916e-06	7.1198e-06	427.58	143.53	125.07	43.014	7.3439e-06	53.204	500.887	237.900	254.608	170.894	278.988	318.908	170.717	175.401	256.214	312.511	174.954	179.156	179.300	184.369	283.705	183.606	-8191	255	
39897.598	1	1	0	0	0.074648	0.18788	0.15434	0.22993	0.30169	0.15535	0.3204	0.18127	0.095766	0.19738	0.11442	0.4121	0.15296	0.26031	0.36009	0.094534	-2.4583	-2.8792	-3.2917	-2.8729	-3.1875	-3.2229	-3.1958	-3.4667	-3.2062	-3.1667	-3.4958	-3.0542	-3.2125	-3.0729	-2.9313	-3.3667	404.291	261.866	277.639	477.515	297.636	380.143	492.059	502.965	418.507	285.042	189.475	512.998	500.040	405.849	352.771	384.195	0.00097168	0.00054097	0.00016009	1357.1	4.9339e-06	4.3803e-06	1351.3	369.5	8.1314e-06	4.2032e-06	417.52	141.02	122.12	41.73	5.9784e-06	51.254	0.00071493	0.0006612	0.0001938	1385.9	6.9005e-06	7.4794e-06	1381.7	375.81	7.159e-06	7.2554e-06	427.86	143.66	125.05	43.036	7.2573e-06	53.177	500.108	242.375	248.448	170.868	265.460	305.263	170.477	175.418	257.501	303.724	174.908	178.771	179.478	184.336	287.239	183.511	-8191	255	
39897.695	1	1	0	0	0.37151	0.097509	0.19726	0.19139	0.079827	0.14514	0.11015	0.2114	0.077364	0.11247	0.17897	0.15902	0.22345	0.16767	0.12676	0.26521	-2.5187	-2.9792	-3.3	-2.9833	-3.1896	-3.0917	-3.2271	-3.3792	-2.9521	-3.0667	-3.4688	-3.1354	-3.4021	-3.1729	-3.1542	-3.4667	448.594	347.351	382.517	498.733	278.055	430.623	462.077	436.260	502.809	262.156	491.904	484.587	495.739	432.826	293.979	492.286	0.00093503	0.00048926	0.00013721	1362.2	6.5202e-06	4.8021e-06	1359.3	367.77	6.77e-06	5.0206e-06	417.87	139.92	122.6	41.849	5.4731e-06	51.214	0.000711	0.00068353	0.0001884	1386.8	7.1348e-06	7.5425e-06	1383.9	374.94	7.1088e-06	7.5537e-06	427.7	143.31	125.33	43.027	7.1865e-06	53.171	500.092	237.632	238.365	171.041	286.607	297.455	170.569	175.416	273.068	318.392	174.992	178.724	179.369	184.148	288.886	183.614	-8191	255	
#DATA ENDS
