BOXY.EXE: ISS Imagent and Oximeter Data Acquisition Program Version 0.80
Ascii Record File

#ACQ INFORMATION
2  Detector Channels 
16  External MUX Channels 
1  Auxiliary Channels 
5000  Waveform (CCF) Frequency (Hz)
1  Waveforms Skipped 
30  Waveforms Averaged 
1  Cycles Averaged 
16  Acquisitions per Waveform 
10.0806  Updata Rate (Hz) 

#FILE INFORMATION
TRUE -- External MUX Channel results are PARSED.
FALSE -- AC DC and Phase are NOT grouped.
TRUE -- Companion Program Settings File CREATED.
FALSE -- AC data not excluded
FALSE -- DC data not excluded
FALSE -- Phase data not excluded
FALSE -- Auxillary Chn. data not excluded
Tab delimiters

#CALIBRATION STATE
TRUE -- Waveform Calibration Values APPLIED.


#AUX CALIBRATION VALUES
Val Type	aux-1	

Term	1.0000e+00	
Factor	0.0000e+00	


#WF CALIBRATION VALUES
A = Detector Channel
Val Type	A-AC1	A-AC2	A-AC3	A-AC4	A-AC5	A-AC6	A-AC7	A-AC8	A-AC9	A-AC10	A-AC11	A-AC12	A-AC13	A-AC14	A-AC15	A-AC16	A-DC1	A-DC2	A-DC3	A-DC4	A-DC5	A-DC6	A-DC7	A-DC8	A-DC9	A-DC10	A-DC11	A-DC12	A-DC13	A-DC14	A-DC15	A-DC16	A-Ph1	A-Ph2	A-Ph3	A-Ph4	A-Ph5	A-Ph6	A-Ph7	A-Ph8	A-Ph9	A-Ph10	A-Ph11	A-Ph12	A-Ph13	A-Ph14	A-Ph15	A-Ph16	

Term	0.00000e+00	0.00000e+00	0.00000e+00	0.00000e+00	0.00000e+00	0.00000e+00	0.00000e+00	0.00000e+00	0.00000e+00	0.00000e+00	0.00000e+00	0.00000e+00	0.00000e+00	0.00000e+00	0.00000e+00	0.00000e+00	0.00000e+00	0.00000e+00	0.00000e+00	0.00000e+00	0.00000e+00	0.00000e+00	0.00000e+00	0.00000e+00	0.00000e+00	0.00000e+00	0.00000e+00	0.00000e+00	0.00000e+00	0.00000e+00	0.00000e+00	0.00000e+00	0.00000e+00	0.00000e+00	0.00000e+00	0.00000e+00	0.00000e+00	0.00000e+00	0.00000e+00	0.00000e+00	0.00000e+00	0.00000e+00	0.00000e+00	0.00000e+00	0.00000e+00	0.00000e+00	0.00000e+00	0.00000e+00	
Factor	1.00000e+00	1.00000e+00	1.00000e+00	1.00000e+00	1.00000e+00	1.00000e+00	1.00000e+00	1.00000e+00	1.00000e+00	1.00000e+00	1.00000e+00	1.00000e+00	1.00000e+00	1.00000e+00	1.00000e+00	1.00000e+00	1.00000e+00	1.00000e+00	1.00000e+00	1.00000e+00	1.00000e+00	1.00000e+00	1.00000e+00	1.00000e+00	1.00000e+00	1.00000e+00	1.00000e+00	1.00000e+00	1.00000e+00	1.00000e+00	1.00000e+00	1.00000e+00	X	X	X	X	X	X	X	X	X	X	X	X	X	X	X	X	

B = Detector Channel
Val Type	B-AC1	B-AC2	B-AC3	B-AC4	B-AC5	B-AC6	B-AC7	B-AC8	B-AC9	B-AC10	B-AC11	B-AC12	B-AC13	B-AC14	B-AC15	B-AC16	B-DC1	B-DC2	B-DC3	B-DC4	B-DC5	B-DC6	B-DC7	B-DC8	B-DC9	B-DC10	B-DC11	B-DC12	B-DC13	B-DC14	B-DC15	B-DC16	B-Ph1	B-Ph2	B-Ph3	B-Ph4	B-Ph5	B-Ph6	B-Ph7	B-Ph8	B-Ph9	B-Ph10	B-Ph11	B-Ph12	B-Ph13	B-Ph14	B-Ph15	B-Ph16	

Term	0.00000e+00	0.00000e+00	0.00000e+00	0.00000e+00	0.00000e+00	0.00000e+00	0.00000e+00	0.00000e+00	0.00000e+00	0.00000e+00	0.00000e+00	0.00000e+00	0.00000e+00	0.00000e+00	0.00000e+00	0.00000e+00	0.00000e+00	0.00000e+00	0.00000e+00	0.00000e+00	0.00000e+00	0.00000e+00	0.00000e+00	0.00000e+00	0.00000e+00	0.00000e+00	0.00000e+00	0.00000e+00	0.00000e+00	0.00000e+00	0.00000e+00	0.00000e+00	3.11442e+01	-1.32585e+02	-1.25137e+02	-1.82803e+02	-6.99753e+01	-6.57492e+01	-1.55363e+02	-1.62015e+02	-5.19944e+01	-6.84061e+01	-1.72002e+02	-1.69539e+02	-1.79829e+02	-1.77289e+02	-5.95372e+01	-1.49288e+02	
Factor	4.46143e-05	1.55393e-04	3.79425e-05	1.69166e-01	1.65811e-06	1.54395e-06	1.50608e-01	4.38241e-02	2.52180e-06	1.64082e-06	8.20883e-02	2.44333e-02	2.46613e-02	7.74829e-03	1.75397e-06	1.09675e-02	1.31998e-05	1.98917e-05	5.63019e-06	8.76786e-02	2.03302e-07	2.24248e-07	7.35378e-02	2.28266e-02	1.97474e-07	2.25893e-07	4.16175e-02	1.24053e-02	1.29592e-02	4.07900e-03	2.08931e-07	5.61216e-03	X	X	X	X	X	X	X	X	X	X	X	X	X	X	X	X	



#DISTANCE SETTINGS
A = Detector Channel
A-1	A-2	A-3	A-4	A-5	A-6	A-7	A-8	A-9	A-10	A-11	A-12	A-13	A-14	A-15	A-16	

2.5000e+00	3.0000e+00	2.5000e+00	3.0000e+00	2.0000e+00	3.0000e+00	1.5000e+00	3.0000e+00	3.0000e+00	3.0000e+00	3.0000e+00	3.0000e+00	3.0000e+00	3.0000e+00	1.5000e+00	3.0000e+00	

B = Detector Channel
B-1	B-2	B-3	B-4	B-5	B-6	B-7	B-8	B-9	B-10	B-11	B-12	B-13	B-14	B-15	B-16	

1.0000e+01	1.0000e+01	1.0000e+01	1.4400e+00	1.0000e+01	1.0000e+01	1.5100e+00	1.9400e+00	1.0000e+01	1.0000e+01	1.9900e+00	2.4900e+00	2.4100e+00	2.9000e+00	1.0000e+01	2.9800e+00	




#DATA BEGINS
time	group	step	mark	flag	A-AC1	A-AC2	A-AC3	A-AC4	A-AC5	A-AC6	A-AC7	A-AC8	A-AC9	A-AC10	A-AC11	A-AC12	A-AC13	A-AC14	A-AC15	A-AC16	A-DC1	A-DC2	A-DC3	A-DC4	A-DC5	A-DC6	A-DC7	A-DC8	A-DC9	A-DC10	A-DC11	A-DC12	A-DC13	A-DC14	A-DC15	A-DC16	A-Ph1	A-Ph2	A-Ph3	A-Ph4	A-Ph5	A-Ph6	A-Ph7	A-Ph8	A-Ph9	A-Ph10	A-Ph11	A-Ph12	A-Ph13	A-Ph14	A-Ph15	A-Ph16	B-AC1	B-AC2	B-AC3	B-AC4	B-AC5	B-AC6	B-AC7	B-AC8	B-AC9	B-AC10	B-AC11	B-AC12	B-AC13	B-AC14	B-AC15	B-AC16	B-DC1	B-DC2	B-DC3	B-DC4	B-DC5	B-DC6	B-DC7	B-DC8	B-DC9	B-DC10	B-DC11	B-DC12	B-DC13	B-DC14	B-DC15	B-DC16	B-Ph1	B-Ph2	B-Ph3	B-Ph4	B-Ph5	B-Ph6	B-Ph7	B-Ph8	B-Ph9	B-Ph10	B-Ph11	B-Ph12	B-Ph13	B-Ph14	B-Ph15	B-Ph16	aux-1	digaux	

18165.607	1	1	0	256	0.16688	0.15805	0.088048	0.08868	0.096631	0.042657	0.2176	0.21566	0.075544	0.01031	0.13693	0.021597	0.26072	0.11964	0.25005	0.1196	-2.3979	-2.8688	-2.6896	-3.0167	-2.9208	-2.8708	-3.2313	-2.9917	-2.9021	-3.0792	-2.5875	-3.025	-3.0979	-2.8021	-2.8937	-2.8208	69.061	-140.112	-42.620	94.263	140.592	55.430	89.186	102.512	53.354	-70.314	138.072	85.781	113.432	170.827	-26.828	-86.193	0.00063266	0.00031983	8.9106e-05	1107.9	2.8009e-06	2.3496e-06	1171.4	230.94	6.476e-06	3.2481e-06	286.98	80.983	63.485	18.121	2.6775e-06	25.406	0.00023529	0.00014844	3.9587e-05	1093.9	1.781e-06	1.5314e-06	1159.1	228.93	1.776e-06	1.553e-06	286.44	80.833	63.135	18.317	1.6484e-06	26.038	3.217	-93.888	-64.906	-163.120	-51.539	-5.830	-163.264	-156.223	-39.348	-34.132	-156.141	-149.927	-149.360	-142.302	-27.293	-142.930	-8191	255	
18165.682	1	1	0	0	0.16471	0.22522	0.24301	0.23759	0.14591	0.12228	0.13774	0.332	0.13011	0.29328	0.25115	0.17233	0.10996	0.15367	0.22493	0.10655	-2.4875	-2.8979	-2.7771	-3.1396	-3.0687	-2.9	-3.0979	-3.1688	-2.7854	-3.1188	-2.9104	-2.925	-2.8083	-2.7979	-2.8917	-3.0021	20.288	-129.959	169.560	141.357	37.362	52.658	96.670	152.816	-111.422	165.487	164.122	79.332	38.221	1.347	-133.645	-165.505	0.00062698	0.00041883	0.00010051	1108.4	3.4118e-06	2.8103e-06	1169.3	229.57	6.8877e-06	3.2783e-06	286.47	81.164	63.451	18.18	3.8397e-06	25.904	0.00023564	0.00014774	4.2543e-05	1095.9	1.8208e-06	1.4903e-06	1158.9	228.36	1.8661e-06	1.4721e-06	285.84	80.986	63.173	18.312	1.5557e-06	26.199	1.122	-88.831	-81.475	-162.791	-50.324	-24.160	-163.148	-156.003	-37.473	-32.426	-156.488	-149.947	-149.640	-142.249	-18.054	-143.927	-8191	255	
18165.801	1	1	0	0	0.073432	0.19182	0.25629	0.22306	0.050096	0.089484	0.26921	0.22665	0.14305	0.35866	0.12192	0.085705	0.13403	0.23047	0.086713	0.052903	-2.2896	-2.95	-2.6208	-2.9854	-3.1708	-2.7812	-2.9979	-3.0125	-2.8083	-3.1708	-2.8083	-2.8625	-2.9729	-2.6875	-2.9792	-2.9375	119.455	-144.760	102.944	174.119	155.871	114.961	169.894	157.653	179.220	47.774	98.279	-1.676	-68.740	-163.912	150.903	131.475	0.00063205	0.00041357	9.5409e-05	1105.5	3.8089e-06	2.8449e-06	1164.7	230.35	5.5411e-06	2.6923e-06	287.06	80.612	63.609	18.212	3.2771e-06	25.812	0.00023903	0.00016547	4.2965e-05	1093.4	1.6828e-06	1.6221e-06	1156.8	228.6	1.9159e-06	1.6024e-06	286.04	80.735	63.344	18.355	1.7089e-06	26.115	1.339	-83.791	-72.409	-163.005	-47.960	-24.555	-163.062	-155.889	-36.029	-34.916	-156.259	-149.826	-150.074	-142.210	3.266	-143.159	-8191	255	
18165.896	1	1	0	0	0.126	0.13628	0.062431	0.32116	0.21738	0.15194	0.20124	0.32576	0.28524	0.17815	0.066558	0.17165	0.20495	0.036763	0.15632	0.18679	-2.2479	-3.0417	-2.6333	-2.9625	-3.1583	-2.5104	-3.2062	-3.1063	-2.6312	-3.0125	-3.0083	-2.8125	-3.1542	-2.7938	-2.7083	-2.9938	117.462	-1.586	59.922	152.884	-145.472	-112.269	32.917	143.794	-14.165	148.718	-44.203	-15.059	-162.179	-170.347	-86.158	-164.335	0.00065081	0.00042258	8.5315e-05	1112.4	2.9277e-06	3.0897e-06	1168.3	229.45	6.1647e-06	3.4624e-06	286.2	80.786	63.615	17.969	2.4361e-06	25.631	0.00024794	0.0001467	3.5365e-05	1095.8	1.7895e-06	1.595e-06	1159.4	228.41	1.8731e-06	1.5168e-06	285.58	81.007	63.247	18.305	1.6449e-06	26.102	4.908	-94.058	-79.128	-163.077	-45.589	-39.420	-163.136	-156.107	-34.842	-13.315	-156.199	-149.865	-149.557	-142.497	-27.833	-142.758	-8191	255	
18165.992	1	1	0	0	0.14436	0.1971	0.14544	0.34302	0.24116	0.16411	0.20858	0.1961	0.22405	0.11819	0.134	0.063665	0.14653	0.16226	0.22503	0.34816	-2.3042	-2.7771	-2.7458	-2.8229	-2.9167	-2.8542	-3.0292	-3.0042	-2.7313	-3.1292	-2.8937	-2.525	-3.0062	-2.8521	-2.8729	-2.9583	-24.694	-67.154	145.274	138.270	-72.095	19.018	147.589	101.869	95.348	-42.417	156.355	-147.990	-45.697	99.070	-110.675	139.061	0.0006734	0.00041275	9.3452e-05	1111.9	3.9723e-06	2.6705e-06	1171.5	230.14	7.7289e-06	2.8936e-06	286.78	80.582	63.644	18.212	3.2365e-06	25.807	0.00024224	0.00016125	3.8004e-05	1094.9	1.8695e-06	1.5623e-06	1159.7	228.38	1.9817e-06	1.4278e-06	286.32	80.973	63.583	18.386	1.4416e-06	26.113	2.321	-69.666	-75.987	-163.008	-51.263	-7.221	-163.190	-156.122	-48.470	-21.769	-155.913	-150.239	-149.560	-142.442	-17.298	-143.138	-8191	255	
18166.090	1	1	0	0	0.22683	0.18637	0.18251	0.41665	0.24779	0.20853	0.48536	0.24008	0.22274	0.18036	0.18408	0.19061	0.11317	0.33082	0.18098	0.15881	-2.3792	-2.9	-2.8229	-2.9958	-2.9479	-2.725	-2.9375	-3.1208	-2.6958	-3.1667	-3.0563	-2.7833	-3.2208	-2.6271	-2.8208	-3.0146	108.792	-62.825	89.787	178.879	-94.783	-161.750	160.786	130.188	-126.728	-120.664	146.515	80.652	-24.412	132.666	34.291	-17.784	0.00063509	0.00030063	7.589e-05	1109.6	3.4918e-06	1.8417e-06	1169.3	230.13	5.4939e-06	2.3399e-06	287.48	80.941	63.569	18.215	3.2694e-06	25.772	0.00022368	0.00012681	3.4731e-05	1093.9	1.7696e-06	1.4109e-06	1157.3	228.46	1.8953e-06	1.3949e-06	286.74	81.068	63.473	18.351	1.5426e-06	26.195	2.654	-72.588	-68.242	-162.996	-58.482	-16.263	-163.294	-156.036	-17.826	-5.673	-156.431	-150.026	-149.584	-142.062	-9.709	-142.773	-8191	255	
18166.209	1	1	0	0	0.27701	0.33748	0.084223	0.23088	0.23706	0.20281	0.27908	0.18756	0.048649	0.13576	0.20372	0.29397	0.16273	0.14587	0.16841	0.045009	-2.1917	-2.9	-2.8021	-2.8688	-3.0062	-2.8729	-2.9375	-3.1312	-2.7958	-2.9542	-3.0938	-2.6854	-2.8708	-2.7479	-2.8604	-3.225	-23.111	-139.036	146.816	152.545	152.339	75.459	129.942	133.240	-13.499	-11.829	147.854	110.602	125.221	-170.875	172.919	155.115	0.00062942	0.00049249	9.7326e-05	1108.3	2.8436e-06	1.7024e-06	1164.3	229.6	6.3014e-06	3.6137e-06	287.39	81.298	63.773	18.176	3.8156e-06	25.683	0.00022473	0.00013887	3.3969e-05	1093	1.8776e-06	1.3399e-06	1155.1	228.29	1.7974e-06	1.3939e-06	286.29	81.216	63.254	18.356	1.5121e-06	26.245	-0.952	-55.353	-92.753	-163.116	-57.663	-38.781	-163.138	-156.107	-35.029	1.050	-156.160	-149.980	-149.641	-142.746	-18.368	-142.754	-8191	255	
18166.281	1	1	0	0	0.064393	0.18011	0.07766	0.19283	0.1686	0.15633	0.30557	0.1038	0.11879	0.24458	0.15744	0.18365	0.15998	0.24708	0.063169	0.089699	-2.4208	-2.8125	-3.0792	-3.0167	-2.8229	-3.1667	-2.7562	-2.9979	-2.7646	-2.8375	-3.0187	-2.7083	-3.1292	-2.9583	-2.6937	-3.0875	-125.598	92.599	129.954	78.989	9.714	61.293	130.862	119.388	50.286	-21.529	140.718	-154.356	81.660	113.429	-79.893	84.023	0.0007243	0.00034336	7.4127e-05	1101.2	3.3933e-06	2.6061e-06	1163.1	229.95	6.789e-06	3.172e-06	287.81	80.738	63.66	18.251	3.2538e-06	25.94	0.00022838	0.00013054	3.5693e-05	1090.9	1.7315e-06	1.4282e-06	1153.3	227.94	1.8094e-06	1.5469e-06	286.67	80.779	63.457	18.376	1.5979e-06	26.208	3.132	-79.736	-95.382	-162.792	-22.532	-29.813	-163.068	-156.379	-38.562	-52.631	-156.259	-150.080	-149.452	-142.322	-11.883	-142.861	-8191	255	
18166.402	1	1	0	0	0.20163	0.18373	0.064374	0.43272	0.13158	0.10511	0.20738	0.089638	0.12007	0.04392	0.10765	0.21279	0.027374	0.27363	0.24166	0.33462	-2.2917	-2.825	-2.7833	-2.8208	-2.8542	-2.9521	-2.9583	-3.0979	-2.9896	-2.8063	-3.1771	-2.6813	-2.9167	-2.8417	-2.6146	-3.0042	-115.885	92.797	97.195	141.115	48.456	3.838	143.271	-8.210	-56.312	154.694	92.122	123.129	66.904	-71.532	-130.547	132.913	0.00066035	0.00044085	6.3513e-05	1101.1	2.2321e-06	4.268e-06	1167.1	228.88	6.1291e-06	3.1188e-06	286.51	81.059	63.816	18.026	2.7927e-06	25.882	0.00022198	0.00014247	3.5869e-05	1089.9	1.762e-06	1.4571e-06	1153.4	227.82	1.8139e-06	1.4782e-06	286.18	81.072	63.355	18.279	1.4904e-06	26.167	0.278	-77.894	-70.737	-162.980	-52.760	-23.175	-163.185	-156.185	-20.775	-25.126	-156.398	-149.944	-149.594	-142.154	-15.751	-143.176	-8191	255	
18166.498	1	1	0	0	0.1396	0.064997	0.2537	0.13625	0.18759	0.12797	0.37071	0.20375	0.26172	0.1699	0.1248	0.107	0.11552	0.20547	0.29966	0.43104	-2.5396	-2.5521	-2.975	-2.9896	-2.7771	-2.9229	-2.7458	-2.9958	-2.925	-2.8354	-3.1521	-2.8604	-2.8688	-2.9833	-2.8146	-3.0396	127.851	130.962	160.041	32.811	-166.041	36.327	73.394	79.926	97.647	-138.020	44.670	42.525	181.515	151.266	73.392	51.289	0.0006341	0.00037194	7.7526e-05	1107.5	4.1939e-06	3.1364e-06	1159.1	228.68	6.5246e-06	3.1866e-06	287.42	80.857	63.623	18.219	3.4112e-06	25.704	0.00022517	0.00014993	3.6057e-05	1091.8	1.7785e-06	1.3992e-06	1152.4	227.83	1.8579e-06	1.4038e-06	285.57	80.794	63.331	18.349	1.4847e-06	26.18	1.327	-82.493	-92.771	-162.913	-45.857	-25.544	-162.955	-156.077	-27.788	0.829	-156.295	-149.936	-149.590	-141.834	-15.550	-143.408	-8191	255	
18166.592	1	1	0	0	0.30474	0.19494	0.081212	0.28481	0.075503	0.16287	0.1465	0.051548	0.25265	0.36305	0.20141	0.20095	0.24996	0.22665	0.11152	0.12013	-2.3042	-2.7396	-3	-2.9375	-2.9458	-3.0104	-2.7979	-3.1833	-2.9271	-2.7313	-3.3021	-3.0187	-2.7542	-3.0083	-2.7208	-3.0146	145.863	83.817	-93.916	48.898	59.993	15.599	120.230	108.289	46.294	-21.968	152.781	40.395	75.384	-61.648	69.145	160.454	0.00065594	0.00024895	7.427e-05	1099.4	3.295e-06	2.3116e-06	1158.9	229.46	6.977e-06	2.4637e-06	286.15	81.048	63.572	18.168	3.7047e-06	25.842	0.00022203	0.00014463	3.4895e-05	1087.6	1.8395e-06	1.3184e-06	1150	228.07	1.7555e-06	1.5427e-06	285.07	80.9	63.283	18.319	1.5922e-06	26.146	2.316	-84.430	-88.845	-162.925	-47.128	-3.753	-163.229	-155.994	-34.750	-14.587	-156.265	-149.821	-149.326	-142.264	0.410	-142.731	-8191	255	
18166.688	1	1	0	0	0.14433	0.17357	0.23009	0.23714	0.3104	0.12578	0.1137	0.2188	0.17232	0.11158	0.1679	0.025411	0.057698	0.11265	0.088504	0.19606	-2.3646	-2.6771	-2.8937	-2.9521	-2.7458	-3.0438	-2.925	-3.0771	-2.9917	-2.8292	-2.975	-2.8792	-2.5625	-2.9062	-2.7313	-2.9333	-32.391	86.454	-77.803	-118.582	-137.460	-117.011	114.588	126.339	-173.833	114.369	-50.178	142.089	136.361	60.629	94.542	91.002	0.00069062	0.0004173	7.2219e-05	1100.1	4.0814e-06	2.2666e-06	1162.1	228.53	6.9714e-06	2.726e-06	287.41	80.405	63.312	18.138	2.2584e-06	25.89	0.00022654	0.00014973	3.5376e-05	1087.9	1.8666e-06	1.388e-06	1150.8	227.6	1.6905e-06	1.5813e-06	285.45	80.749	63.272	18.344	1.5483e-06	26.228	-0.017	-73.903	-62.181	-163.214	-57.128	-29.255	-163.176	-155.960	-41.453	-4.809	-156.403	-149.924	-149.506	-142.352	-22.705	-143.148	-8191	255	
18166.809	1	1	0	0	0.16607	0.19238	0.085862	0.23068	0.22952	0.33013	0.15438	0.14745	0.19697	0.25202	0.11223	0.069999	0.13928	0.17405	0.088055	0.074247	-2.5292	-2.5625	-3.0521	-2.9771	-2.8083	-3.1	-2.8542	-2.9271	-3.1292	-2.6104	-3.1188	-2.8208	-2.6896	-2.8438	-2.7833	-2.8812	-103.648	114.782	-137.976	104.269	118.039	173.145	59.025	-99.332	-28.717	156.547	-34.529	-51.071	-162.501	-54.135	125.417	58.940	0.00061258	0.00036236	0.00010922	1099.5	4.4561e-06	2.7024e-06	1164.5	230.6	7.1286e-06	2.7128e-06	286.2	80.767	62.683	18.07	2.3248e-06	25.601	0.00022558	0.00014169	3.5728e-05	1089.4	1.8306e-06	1.3894e-06	1151.4	228.12	1.7925e-06	1.6057e-06	285.86	80.635	62.945	18.309	1.5317e-06	26.099	3.010	-87.589	-74.124	-163.048	-54.088	-5.956	-163.203	-155.924	-33.994	-10.856	-156.379	-150.124	-149.733	-142.556	-35.066	-142.509	-8191	255	
18166.904	1	1	0	0	0.17107	0.057505	0.071385	0.35418	0.14672	0.19278	0.34151	0.12534	0.090968	0.11909	0.091892	0.11422	0.15177	0.15149	0.1846	0.11463	-2.4813	-2.6396	-2.9062	-2.9896	-2.85	-3.0292	-3.0438	-2.9208	-2.9396	-2.5792	-3.0187	-2.8792	-2.6542	-3.1937	-2.8063	-2.8812	-102.719	152.677	-132.472	139.611	-10.877	-140.603	111.437	37.944	151.164	12.731	-134.389	-77.430	89.770	16.019	149.832	117.750	0.00065956	0.00042118	8.2717e-05	1103.5	4.5268e-06	3.4232e-06	1158.3	228.47	5.062e-06	4.0848e-06	286.58	80.236	63.343	18.03	1.8288e-06	25.683	0.00022797	0.00014678	4.0244e-05	1086.7	1.9123e-06	1.4244e-06	1150.8	227.76	1.7629e-06	1.5215e-06	285.45	80.79	63.038	18.318	1.5017e-06	26.119	3.185	-73.967	-59.782	-162.876	-43.564	-3.704	-163.246	-155.987	-51.852	-40.877	-155.859	-149.672	-149.543	-142.223	-34.773	-142.606	-8191	255	
18166.977	1	1	0	0	0.14846	0.21985	0.085142	0.27715	0.19677	0.063378	0.10421	0.021428	0.10031	0.15577	0.052517	0.16419	0.040846	0.099714	0.1405	0.11647	-2.5333	-2.8479	-2.8604	-3.0708	-2.6188	-2.8979	-3.0167	-2.8771	-3.1104	-2.9604	-2.9437	-3.0729	-2.7271	-3.0146	-2.9167	-2.8604	-143.146	115.101	104.737	105.430	5.900	164.644	-13.534	-156.103	-140.672	-66.444	-25.423	112.930	107.570	-140.058	-45.240	172.551	0.00062844	0.00039104	7.8977e-05	1095.4	2.9723e-06	3.2452e-06	1162.8	229.89	6.4991e-06	3.4731e-06	286.05	80.487	63.547	18.262	3.1959e-06	25.717	0.00022269	0.000153	3.5412e-05	1085.7	1.7861e-06	1.3978e-06	1149.3	227.69	1.7662e-06	1.642e-06	285.09	80.651	63.053	18.299	1.503e-06	26.074	5.200	-67.819	-99.664	-163.086	-56.972	-36.295	-162.958	-155.985	-43.377	-36.956	-156.488	-149.727	-149.328	-142.360	-19.737	-143.026	-8191	255	
18167.072	1	1	0	0	0.26094	0.13787	0.069303	0.088411	0.16395	0.28986	0.33863	0.13836	0.25703	0.063227	0.33119	0.10706	0.27624	0.14073	0.28358	0.10272	-2.475	-2.7354	-2.9667	-3.1854	-2.6437	-3.0167	-3.125	-2.8271	-3.1229	-2.7896	-2.9646	-3.0729	-2.7687	-2.9917	-2.7729	-2.7667	15.812	36.925	-146.057	182.965	51.670	88.301	148.866	18.958	60.352	87.172	160.697	-162.021	177.879	84.517	65.603	35.835	0.00057982	0.00039667	8.193e-05	1090.9	4.4061e-06	3.3935e-06	1155.2	228	5.862e-06	2.2649e-06	285.26	80.202	63.457	17.985	4.0735e-06	25.478	0.00022517	0.00015172	3.6057e-05	1080.1	1.8899e-06	1.4856e-06	1146.1	227.3	1.8147e-06	1.4222e-06	284.73	80.511	63.183	18.201	1.4046e-06	25.984	0.418	-70.682	-84.288	-162.893	-25.983	-24.822	-163.216	-155.989	-46.284	-34.689	-156.487	-149.866	-149.681	-142.160	-22.418	-143.247	-8191	255	
18167.193	1	1	0	0	0.21621	0.14834	0.10421	0.33527	0.11316	0.03352	0.16027	0.41318	0.11462	0.16285	0.30007	0.11826	0.24099	0.052926	0.097065	0.15072	-2.6396	-2.9146	-2.7042	-3.2792	-2.7667	-2.9729	-3.2271	-2.9396	-2.9667	-2.8833	-2.8688	-3.1396	-2.6688	-3.0708	-2.9042	-2.8792	36.806	-73.750	155.412	134.964	143.822	-51.417	93.783	128.530	-117.806	-0.225	-106.995	64.874	20.713	141.415	25.339	133.042	0.0006224	0.00031644	5.1533e-05	1095.4	3.3842e-06	3.173e-06	1150.9	227.7	7.0007e-06	3.8289e-06	286.04	80.724	63.058	18.051	3.7097e-06	25.538	0.00022261	0.00014028	3.6737e-05	1082.8	1.803e-06	1.3843e-06	1144.9	226.91	1.6752e-06	1.4288e-06	284.84	80.401	62.998	18.234	1.5043e-06	25.952	8.555	-62.506	-74.529	-162.957	-43.122	-16.416	-163.306	-156.201	-33.256	-20.695	-156.157	-150.039	-149.568	-141.910	-17.050	-143.138	-8191	255	
18167.289	1	1	0	0	0.27193	0.20823	0.20021	0.24747	0.18545	0.29878	0.074028	0.024466	0.24582	0.2552	0.13475	0.1836	0.10384	0.18032	0.1982	0.19289	-2.5792	-2.7854	-2.9104	-3.125	-2.9167	-2.8625	-2.9167	-2.8958	-2.9771	-2.8625	-2.8937	-3.0354	-2.925	-2.9688	-3.0917	-2.8375	-32.456	-68.524	128.249	167.940	-158.879	102.030	128.611	127.216	104.883	141.099	171.612	170.814	97.741	164.694	-8.660	-61.508	0.00064328	0.00037404	9.8829e-05	1095.1	3.5478e-06	3.0869e-06	1154.4	229.11	4.4345e-06	3.6316e-06	286.23	80.043	62.914	18.137	3.4803e-06	25.696	0.00023179	0.00015184	3.8602e-05	1081.8	1.7891e-06	1.5183e-06	1144.7	227.33	1.8188e-06	1.5808e-06	285.21	80.329	62.895	18.298	1.5213e-06	26.042	2.819	-70.698	-70.343	-162.929	-48.644	-10.797	-163.021	-156.370	-78.569	-32.650	-156.319	-150.049	-149.711	-141.835	-22.022	-142.924	-8191	255	
18167.387	1	1	0	0	0.15695	0.078957	0.1824	0.10615	0.17908	0.16051	0.27855	0.077402	0.20279	0.113	0.35989	0.056879	0.20103	0.092262	0.32548	0.23497	-2.4771	-2.8208	-2.6646	-3.1583	-2.7479	-2.8208	-3.1396	-2.7917	-3.05	-2.8812	-2.6937	-3.1104	-2.9479	-2.8083	-2.975	-2.8042	120.437	-73.184	1.661	137.808	53.440	-97.948	129.324	76.993	47.795	-128.043	-155.408	98.223	85.605	-130.214	-58.580	-163.145	0.00064683	0.00033515	6.3553e-05	1090.1	3.4884e-06	3.0908e-06	1161.6	228.62	5.9423e-06	3.0345e-06	287.77	80.429	62.993	18.114	3.1153e-06	25.565	0.00022277	0.00014496	3.7816e-05	1081.6	1.745e-06	1.388e-06	1147.9	227.47	1.7732e-06	1.4457e-06	285.61	80.574	62.841	18.324	1.5348e-06	26.053	3.907	-67.954	-101.670	-162.855	-58.770	-18.351	-163.252	-156.079	-37.383	-47.674	-156.279	-149.841	-149.783	-142.105	-21.791	-142.740	-8191	255	
18167.482	1	1	0	0	0.17682	0.10857	0.0013709	0.21831	0.18278	0.20208	0.17825	0.065674	0.23642	0.15598	0.23659	0.24063	0.039408	0.073578	0.21075	0.15314	-2.5042	-2.9813	-2.7958	-3.1688	-2.8167	-2.8854	-3.2042	-2.7604	-2.975	-2.8583	-2.7167	-2.8812	-2.7896	-2.8063	-3.075	-2.8125	-131.428	-29.020	180.000	119.865	2.184	-30.589	83.873	76.530	-161.974	-52.321	107.906	152.462	69.361	-80.595	159.744	107.185	0.00062392	0.00033832	6.9311e-05	1094.2	3.6052e-06	2.8066e-06	1152.8	226.76	5.1747e-06	4.1061e-06	285.49	79.997	63.226	18.189	3.2505e-06	25.576	0.0002371	0.00014616	4.0502e-05	1085.5	1.8539e-06	1.4955e-06	1146.9	226.88	1.848e-06	1.4424e-06	285.6	80.426	63.013	18.273	1.5483e-06	26.016	4.874	-68.472	-78.233	-163.110	-60.488	-23.996	-162.904	-156.181	-32.934	-18.127	-156.158	-149.716	-149.558	-142.407	-1.569	-143.043	-8191	255	
18167.578	1	1	0	0	0.25905	0.16126	0.2198	0.24786	0.022896	0.09477	0.10812	0.1715	0.08936	0.10516	0.19638	0.12757	0.07398	0.22316	0.15732	0.0095573	-2.4667	-3.0375	-2.6104	-3.0729	-2.8479	-2.8417	-3.1875	-2.8458	-2.9396	-3.0167	-2.6792	-3.1229	-2.7854	-2.6979	-3.1063	-2.6562	-46.777	-14.555	107.362	134.090	110.453	38.749	12.486	27.120	-7.456	7.541	132.027	-131.670	156.282	159.042	-9.561	161.082	0.00064359	0.0003493	8.8316e-05	1094.5	3.6538e-06	2.6462e-06	1160.1	230.24	7.692e-06	3.2085e-06	285.32	80.33	63.169	18.036	5.3633e-06	25.691	0.00022654	0.00013937	3.8966e-05	1085.3	1.8259e-06	1.5492e-06	1150.2	227.87	1.8719e-06	1.441e-06	285.16	80.527	63.095	18.277	1.5413e-06	26.075	2.756	-71.116	-81.062	-163.003	-40.569	-28.887	-162.984	-156.074	-30.568	-29.927	-156.268	-149.860	-149.584	-142.278	-30.437	-142.967	-8191	255	
18167.674	1	1	0	0	0.12358	0.11277	0.2438	0.35938	0.048774	0.19087	0.17462	0.30209	0.14396	0.099708	0.18105	0.062413	0.24335	0.2648	0.08118	0.25582	-2.5687	-2.9896	-2.7583	-3.125	-2.9292	-2.8229	-3.0896	-2.7292	-2.8083	-3.075	-2.7438	-3.0104	-2.9625	-2.8187	-3.0208	-2.9917	132.703	-157.720	183.057	150.175	-22.091	112.407	160.616	142.129	44.325	-97.898	168.017	-40.360	-136.329	-21.145	-76.639	72.767	0.00060649	0.00037888	8.3889e-05	1095	4.1335e-06	3.3333e-06	1161.1	228.96	4.8483e-06	4.4197e-06	286.05	80.296	62.948	18.09	3.9098e-06	25.672	0.00022121	0.00014517	4.2637e-05	1084.2	1.8056e-06	1.4936e-06	1150.4	227.78	1.906e-06	1.5045e-06	285.69	80.561	62.969	18.232	1.6392e-06	26.124	4.943	-81.215	-66.820	-163.162	-27.520	-26.443	-163.276	-156.053	-30.565	-18.473	-156.137	-149.772	-149.533	-142.554	-47.009	-143.049	-8191	255	
18167.770	1	1	0	0	0.075732	0.10681	0.16634	0.32179	0.17867	0.17179	0.21321	0.10615	0.079271	0.16999	0.057683	0.13084	0.28734	0.076266	0.13092	0.32446	-2.4375	-3.0396	-2.5583	-2.9979	-3.0812	-2.5938	-3.1604	-3.0062	-2.7583	-3.0396	-2.7417	-3.1	-2.9042	-2.7979	-3.0812	-2.85	26.888	-49.367	65.363	149.141	-88.949	87.250	119.064	-121.455	-171.707	115.332	-109.457	149.291	178.306	-145.803	-39.546	-69.242	0.000633	0.00035624	7.8911e-05	1098.5	3.85e-06	3.8514e-06	1158.4	229.56	7.3724e-06	2.4877e-06	285.57	80.418	63.13	18.127	3.8572e-06	25.603	0.00022951	0.00015329	3.7288e-05	1086.5	1.8759e-06	1.63e-06	1151.6	228.15	1.999e-06	1.6777e-06	284.96	80.638	62.967	18.333	1.6566e-06	26.165	3.597	-85.162	-77.804	-162.916	-35.099	-17.517	-163.216	-155.900	-43.842	-31.075	-156.179	-149.809	-149.537	-142.353	-17.526	-142.768	-8191	255	
18167.889	1	1	0	0	0.076554	0.17943	0.32951	0.084342	0.20744	0.10176	0.23471	0.2044	0.041918	0.2303	0.10995	0.13893	0.05659	0.18277	0.17757	0.11004	-2.3458	-2.9667	-2.7542	-2.8583	-3.0187	-2.8729	-3.2958	-2.8375	-2.7354	-3.1271	-2.9542	-3.1458	-2.9604	-2.7917	-3.0854	-3.0021	100.785	-75.243	-58.759	-23.721	-105.044	-11.664	58.981	-144.914	74.773	117.650	107.705	147.391	-28.739	79.270	-165.753	111.576	0.00062498	0.00038609	9.3115e-05	1097.7	4.2956e-06	1.7856e-06	1162.1	229.87	5.8109e-06	2.9674e-06	285.94	80.87	63.256	18.118	3.7264e-06	25.633	0.00023493	0.00014877	3.8262e-05	1086.9	1.8759e-06	1.7403e-06	1150.9	227.93	1.8966e-06	1.6509e-06	285.14	80.657	63.059	18.303	1.6553e-06	26.061	4.119	-76.344	-69.174	-163.002	-42.339	-10.924	-163.166	-156.020	-39.358	-34.686	-156.230	-150.125	-149.689	-142.363	-32.363	-143.253	-8191	255	
18167.984	1	1	0	0	0.43934	0.1168	0.18102	0.22722	0.25241	0.27307	0.10569	0.14085	0.12915	0.22702	0.056474	0.082557	0.14157	0.20188	0.0749	0.072799	-2.3042	-3.0458	-2.8208	-3.1208	-3.0792	-2.7708	-3.1	-3.1104	-2.5708	-2.9437	-2.875	-2.8625	-3.075	-2.7417	-3.0458	-2.9813	-77.673	-133.562	-141.556	142.340	-61.928	4.049	114.964	124.476	141.011	-25.589	175.841	70.723	-118.160	-135.050	123.662	-28.454	0.00066327	0.00042764	8.7976e-05	1095.3	3.727e-06	3.311e-06	1156.5	229.69	5.4123e-06	3.4795e-06	287	80.69	63.167	17.986	3.947e-06	25.515	0.00024805	0.00014629	4.1605e-05	1084.4	1.8755e-06	1.6482e-06	1149.3	228.07	1.9994e-06	1.6325e-06	285.7	80.756	62.879	18.231	1.6183e-06	26.027	4.274	-96.894	-86.046	-163.155	-34.565	-14.774	-163.277	-156.169	-37.272	-22.569	-156.356	-149.681	-149.877	-142.095	-2.921	-142.710	-8191	255	
18168.082	1	1	0	0	0.11611	0.2115	0.11449	0.049481	0.22801	0.21999	0.058391	0.22133	0.073577	0.15888	0.096619	0.089364	0.11009	0.10248	0.10459	0.25309	-2.1458	-3.025	-2.7625	-2.9521	-2.9437	-2.5521	-3.1312	-3.0812	-2.8917	-3.0875	-3.0396	-2.8271	-2.9104	-2.6854	-2.8479	-3.1208	73.480	69.219	-54.158	-169.093	40.314	22.252	-150.244	-80.798	75.579	106.888	65.320	-136.217	-133.690	-166.519	-33.022	98.496	0.00067013	0.00039329	0.00010692	1097.2	2.9183e-06	2.7344e-06	1163.6	230.9	7.1159e-06	2.5927e-06	285.07	80.435	63.396	18.038	2.9054e-06	25.608	0.00024717	0.00014529	4.2062e-05	1085.5	1.8645e-06	1.5702e-06	1150.6	228.17	1.9875e-06	1.6693e-06	285.32	80.603	62.962	18.244	1.6301e-06	26.017	1.940	-67.896	-79.655	-163.135	-48.844	-25.964	-163.244	-155.988	-38.606	-26.262	-156.085	-149.816	-149.654	-142.439	-17.629	-142.932	-8191	255	
18168.201	1	1	0	0	0.10162	0.31075	0.10688	0.33871	0.29107	0.17572	0.060066	0.12236	0.089892	0.28448	0.052864	0.32403	0.065522	0.22586	0.3882	0.20983	-2.2771	-3.075	-3	-2.8708	-3.075	-3.0083	-3.1042	-3.1167	-2.6708	-3.2	-2.9562	-2.9458	-2.9938	-2.9333	-2.7729	-3.2229	168.405	173.834	41.771	-169.959	155.389	-47.384	79.016	167.371	15.170	-64.930	-107.609	106.835	-165.384	33.382	-19.155	-104.724	0.00063623	0.0003935	7.44e-05	1097	3.0905e-06	4.073e-06	1157.4	229.49	7.1115e-06	3.708e-06	286.34	80.093	63.365	18.093	2.0647e-06	25.643	0.00023127	0.00015553	4.0948e-05	1085.9	1.8534e-06	1.6604e-06	1148.6	228.2	2.0825e-06	1.6575e-06	285.55	80.446	63.187	18.256	1.7063e-06	26.057	3.602	-84.595	-68.809	-163.048	-32.638	-34.068	-163.223	-156.249	-47.784	-6.012	-156.226	-150.067	-149.550	-142.130	-14.023	-142.890	-8191	255	
18168.273	1	1	0	0	0.22693	0.086878	0.19474	0.27961	0.1719	0.17261	0.063411	0.29982	0.10689	0.19542	0.079748	0.31925	0.17239	0.015502	0.24219	0.42964	-2.3521	-2.9458	-2.7021	-3.0125	-3.0833	-2.8354	-2.9583	-3.1646	-2.7	-2.9167	-2.9271	-2.8187	-3.0354	-2.9	-2.7938	-3.2146	-98.884	44.941	36.437	132.852	113.867	164.291	131.744	170.946	-166.534	-31.973	47.720	148.865	-150.576	34.812	25.833	92.300	0.00066426	0.00030321	9.4468e-05	1108.4	3.919e-06	1.4946e-06	1166.4	229.98	7.8504e-06	3.4509e-06	286.75	80.653	63.589	18.069	4.7588e-06	25.678	0.00025322	0.00015905	4.4185e-05	1092.1	2.0229e-06	1.6085e-06	1155	228.48	2.1154e-06	1.6377e-06	286.83	80.739	63.265	18.32	1.94e-06	26.167	0.696	-81.973	-77.668	-163.083	-45.095	-46.205	-163.367	-156.150	-35.268	-19.193	-156.127	-149.938	-149.615	-142.117	-52.321	-142.546	-8191	255	
18168.369	1	1	0	0	0.10151	0.1838	0.45915	0.1869	0.097725	0.15604	0.27915	0.025091	0.15466	0.014776	0.17988	0.3633	0.20447	0.066957	0.10103	0.21438	-2.225	-2.8292	-2.8854	-2.6979	-2.8875	-2.95	-3.1229	-3.0146	-2.6229	-3.0229	-3.1646	-2.8146	-3.1167	-3.0083	-2.8063	-3.0229	-28.596	25.757	-70.749	117.250	-160.890	160.004	100.943	74.301	128.430	-105.996	148.688	157.398	-116.728	156.395	118.235	-98.031	0.00064307	0.00040902	9.0284e-05	1109.8	2.347e-06	1.9243e-06	1170.5	231.81	4.9839e-06	2.6549e-06	287.34	80.89	63.362	18.171	3.6836e-06	25.814	0.00025063	0.00017169	4.8983e-05	1095.2	2.0216e-06	1.786e-06	1159.7	229.46	2.1521e-06	1.6857e-06	287.51	80.928	63.418	18.354	1.7359e-06	26.194	2.488	-74.976	-75.379	-163.150	-33.336	-15.078	-162.962	-155.922	-48.314	-30.167	-156.081	-149.921	-149.683	-142.328	-22.494	-142.842	-8191	255	
18168.490	1	1	0	0	0.02576	0.067298	0.18249	0.14052	0.33228	0.27774	0.12561	0.20613	0.3016	0.17714	0.27338	0.2231	0.22391	0.068314	0.21258	0.24225	-2.2333	-2.9396	-2.9521	-2.7938	-2.9021	-2.9958	-2.7979	-3.0917	-2.7687	-2.8375	-3.0792	-2.7917	-2.9188	-2.8563	-2.7833	-3.0375	41.140	49.229	184.502	124.998	88.798	81.518	137.120	99.495	35.292	143.452	88.961	109.577	-166.938	160.871	-6.456	-40.302	0.00063951	0.00028309	7.1216e-05	1107	3.1447e-06	2.6701e-06	1170.5	229.92	6.6623e-06	2.9629e-06	288.51	81.438	63.938	18.205	2.7545e-06	25.546	0.00024469	0.00016651	4.354e-05	1095	2.033e-06	1.5809e-06	1158.6	229.15	2.0389e-06	1.7855e-06	287.58	80.938	63.521	18.387	1.7885e-06	26.112	3.018	-84.325	-81.925	-163.164	-56.787	-36.652	-163.030	-156.187	-41.833	-19.730	-156.416	-150.163	-149.641	-142.080	-19.299	-142.778	-8191	255	
18168.586	1	1	0	0	0.089706	0.04805	0.061779	0.091753	0.21227	0.22366	0.11103	0.22914	0.16343	0.2856	0.18229	0.20899	0.064572	0.37522	0.088012	0.15855	-2.2667	-2.6146	-2.8771	-3.0292	-2.9604	-2.9979	-2.9542	-2.9896	-2.7812	-2.75	-3.0667	-2.7562	-3.1646	-2.9646	-2.6396	-3.1521	-13.172	-100.162	-101.697	-7.070	1.288	-140.687	-3.345	-154.618	-56.802	-81.216	116.016	-95.646	-55.224	115.441	132.683	170.802	0.00067119	0.00038073	7.0007e-05	1105.1	4.2288e-06	2.6459e-06	1169.9	230.93	6.1649e-06	4.3314e-06	286.64	80.972	63.661	18.206	2.5361e-06	25.67	0.00025517	0.0001789	4.4584e-05	1095.7	1.9526e-06	1.7477e-06	1159.5	229.52	2.1171e-06	1.7511e-06	286.77	81.025	63.388	18.365	1.8469e-06	26.176	1.600	-76.478	-87.188	-163.301	-59.608	-16.892	-163.217	-155.916	-31.872	-14.363	-156.324	-149.857	-149.584	-142.307	-22.846	-143.186	-8191	255	
18168.682	1	1	0	0	0.18928	0.20099	0.10509	0.39473	0.13168	0.1278	0.44225	0.14408	0.33288	0.30682	0.25248	0.18117	0.12181	0.35259	0.023588	0.13512	-2.4021	-2.6937	-3.1354	-2.9333	-2.9021	-3.1979	-2.8333	-3.0687	-2.8937	-2.7271	-3.0104	-2.8667	-2.9375	-3.0854	-2.7479	-3.1188	135.790	21.098	96.881	96.554	-76.653	183.293	55.494	113.259	-102.110	-55.973	-123.923	-159.751	-121.138	-139.189	-39.572	66.070	0.00062904	0.00030877	8.0179e-05	1106.3	3.1049e-06	2.3946e-06	1170.9	230.56	5.5852e-06	2.4273e-06	288.24	80.901	63.907	18.152	2.339e-06	25.689	0.00025528	0.00018354	4.4584e-05	1094.4	2.0487e-06	1.6435e-06	1160.3	229.62	1.8986e-06	1.8175e-06	287.44	80.96	63.626	18.356	1.8826e-06	26.257	2.531	-84.165	-101.573	-163.028	-36.535	-24.253	-163.234	-156.306	-34.188	-17.271	-156.198	-149.830	-149.379	-142.551	10.230	-143.115	-8191	255	
18168.777	1	1	0	0	0.16558	0.24818	0.18092	0.19927	0.15698	0.035813	0.27397	0.013942	0.2354	0.040815	0.036224	0.15664	0.16569	0.13485	0.24949	0.15641	-2.3979	-2.7333	-3.1813	-2.7542	-2.8354	-3.0563	-2.9021	-3.1104	-2.9771	-2.5958	-3.1854	-2.8229	-2.7771	-2.9938	-2.7333	-3.0375	182.023	-117.613	46.024	139.776	42.109	-27.867	110.427	106.316	-79.253	-15.604	-11.306	52.033	-39.234	96.319	170.197	59.218	0.0006638	0.00032746	8.4773e-05	1107.4	2.7709e-06	2.5713e-06	1168.7	232.15	6.2668e-06	3.0758e-06	288.84	81.184	63.484	18.11	3.7592e-06	25.688	0.00024557	0.00015578	4.2531e-05	1094.9	1.9381e-06	1.7753e-06	1157.2	229.8	2.0348e-06	1.7328e-06	287.6	80.99	63.482	18.357	1.8464e-06	26.159	0.333	-67.875	-75.109	-163.159	-36.350	-32.542	-163.027	-156.139	-36.888	-19.886	-156.339	-149.708	-149.115	-142.519	-29.237	-143.147	-8191	255	
18168.873	1	1	0	0	0.16878	0.2471	0.19236	0.12625	0.34863	0.28026	0.097319	0.24986	0.077447	0.08581	0.20901	0.088717	0.13996	0.19366	0.061314	0.25941	-2.5938	-2.6208	-2.8438	-2.9646	-2.8604	-3.1063	-2.9375	-2.9521	-2.9667	-2.7021	-3.1146	-2.8458	-2.75	-3.0375	-2.9354	-3.1333	-23.754	164.293	116.540	150.177	-33.410	-160.553	140.144	80.798	-101.553	14.851	106.091	8.631	84.351	-143.866	-129.946	-56.677	0.00066242	0.00046028	7.6591e-05	1107.7	3.678e-06	1.9554e-06	1163	230.11	6.4337e-06	3.3797e-06	287.8	80.581	64.103	18.093	2.3621e-06	25.75	0.00024948	0.00017368	4.1499e-05	1093.1	2.0334e-06	1.6351e-06	1155.2	229.53	2.0138e-06	1.8933e-06	287.15	80.705	63.553	18.323	1.7115e-06	26.17	3.214	-94.878	-85.393	-163.133	-50.429	-13.573	-163.290	-156.064	-31.256	-19.438	-156.200	-149.963	-149.038	-142.303	-20.930	-143.014	-8191	255	
18168.971	1	1	0	0	0.13406	0.2472	0.24067	0.23654	0.033306	0.16351	0.2233	0.18689	0.23493	0.14717	0.098955	0.30779	0.047278	0.17934	0.067517	0.17221	-2.6479	-2.7354	-2.9604	-2.9646	-2.8125	-3.2021	-3.0167	-2.9604	-2.9667	-2.8667	-3.1063	-2.8063	-2.9688	-3.1167	-2.7542	-2.9688	183.331	34.916	9.637	-157.798	78.253	84.037	113.973	-138.009	-151.161	145.862	98.767	135.205	4.626	152.061	71.444	173.287	0.00061431	0.00041575	9.5216e-05	1104.6	2.4674e-06	2.7185e-06	1171.4	230.45	7.9826e-06	3.075e-06	288.28	80.606	63.559	18.08	3.5733e-06	25.722	0.00024373	0.00016523	4.1687e-05	1091.6	2.0068e-06	1.5837e-06	1156.2	229.21	2.0698e-06	1.8693e-06	286.79	80.851	63.219	18.336	1.7781e-06	26.142	3.356	-94.054	-76.703	-162.865	-65.807	-11.621	-163.019	-156.196	-46.709	-35.080	-156.298	-150.194	-149.646	-142.274	-9.418	-142.728	-8191	255	
18169.066	1	1	0	0	0.15029	0.12251	0.13378	0.44666	0.25161	0.13675	0.076387	0.11718	0.13291	0.26844	0.3148	0.17595	0.18879	0.20767	0.070801	0.2345	-2.4021	-2.8312	-2.9854	-3.1729	-2.6292	-3.1542	-3.0604	-2.9042	-3.1604	-2.7854	-2.9771	-3.1333	-2.7146	-3.1521	-2.8104	-3.0375	163.301	182.911	-18.994	111.594	-68.512	-89.317	-6.033	167.463	-170.949	-152.129	146.530	120.920	40.366	92.880	-88.970	-147.192	0.00063215	0.00039957	9.4503e-05	1100.9	3.0525e-06	3.8222e-06	1169.2	230.72	6.5816e-06	3.1849e-06	287.87	80.692	63.012	17.992	2.9829e-06	25.586	0.00023826	0.00015868	4.2379e-05	1091.2	2.0648e-06	1.6594e-06	1155	229.08	2.1282e-06	1.6961e-06	286.75	80.87	63.264	18.272	1.7267e-06	26.052	3.973	-63.970	-96.871	-162.900	-31.806	-11.151	-163.259	-156.346	-25.491	-19.716	-156.142	-150.047	-149.827	-142.280	-25.741	-142.751	-8191	255	
18169.162	1	1	0	0	0.16152	0.096708	0.099664	0.13099	0.068464	0.074127	0.18808	0.2476	0.21503	0.18909	0.20836	0.4005	0.17552	0.28799	0.15623	0.16173	-2.5479	-2.8125	-2.9583	-3.0062	-2.7875	-2.9229	-2.9458	-2.8771	-3.1083	-2.7938	-2.9125	-3.0042	-2.7771	-2.925	-2.6729	-2.9688	10.106	-35.301	79.563	128.524	-24.673	24.657	111.486	113.155	-60.802	160.393	116.595	-143.355	103.457	170.664	74.970	-149.095	0.00065493	0.00030887	7.508e-05	1101.7	2.0955e-06	3.1501e-06	1160.3	230.33	6.3433e-06	4.2178e-06	286.56	80.919	63.404	18.272	3.4486e-06	25.582	0.00024414	0.00016676	4.7258e-05	1088.6	2.0949e-06	1.7211e-06	1153.1	228.72	1.9813e-06	1.7742e-06	286.33	80.789	63.323	18.388	1.7803e-06	26.025	4.240	-87.729	-74.240	-162.872	-47.190	-20.091	-163.267	-155.921	-30.367	-26.821	-156.405	-150.049	-149.718	-141.933	-29.641	-143.136	-8191	255	
18169.283	1	1	0	0	0.14983	0.073404	0.12775	0.27646	0.28433	0.35258	0.30453	0.12295	0.0995	0.069508	0.18521	0.32555	0.19832	0.18649	0.14205	0.09551	-2.7583	-3.0229	-2.8688	-3.0896	-2.7083	-3.0104	-3.0875	-2.9313	-3.0292	-2.9271	-2.9917	-3.1875	-2.6875	-3.0708	-3.0438	-2.8396	4.596	-25.134	-12.694	112.712	-62.506	-54.163	126.814	131.271	-98.936	-53.891	101.515	165.382	171.069	33.268	-94.631	-32.805	0.00063467	0.00035224	8.0396e-05	1107.4	3.2563e-06	4.0101e-06	1166.1	230.01	7.2371e-06	3.212e-06	287.84	80.551	63.492	18.104	2.6212e-06	25.547	0.00024384	0.00018039	4.0232e-05	1093.7	2.1724e-06	1.7015e-06	1154.9	228.81	2.006e-06	1.8024e-06	286.95	80.862	63.169	18.291	1.7698e-06	26.119	1.463	-77.909	-78.655	-162.759	-41.118	-23.667	-162.885	-155.824	-28.219	-10.817	-156.393	-150.118	-149.878	-142.436	-12.665	-143.204	-8191	255	
18169.379	1	1	0	0	0.14181	0.030431	0.082472	0.15411	0.13203	0.022284	0.48442	0.090716	0.087079	0.25365	0.12047	0.098288	0.057981	0.1222	0.0069396	0.074679	-2.6521	-2.7313	-2.7708	-3.1437	-2.7146	-2.9021	-2.9542	-2.8167	-3.0458	-2.7708	-2.8812	-3.0062	-2.7125	-2.775	-3.0729	-2.8229	-142.858	146.834	57.426	174.439	42.938	69.665	79.923	109.030	24.853	-136.022	113.892	-132.459	171.258	6.128	31.244	137.867	0.0006516	0.00053032	6.1464e-05	1108.2	2.7532e-06	2.8746e-06	1159.6	230.1	7.1147e-06	3.3737e-06	288.97	80.614	63.412	18.193	3.0696e-06	25.577	0.00024904	0.00017003	4.001e-05	1092.4	2.0872e-06	1.6772e-06	1151.7	228.66	2.0484e-06	1.6288e-06	287.32	80.665	63.267	18.293	1.7898e-06	26.061	4.558	-87.218	-89.517	-163.083	-25.269	-10.379	-163.274	-155.989	-39.733	-43.518	-156.292	-149.778	-149.590	-142.526	-27.339	-142.478	-8191	255	
18169.449	1	1	0	0	0.34908	0.25355	0.17385	0.27373	0.061414	0.11758	0.23645	0.11407	0.28808	0.16287	0.10825	0.24744	0.23076	0.2347	0.18042	0.27909	-2.6562	-2.7479	-2.6729	-3.3083	-2.7687	-2.95	-3.0521	-2.7438	-3.0146	-2.9208	-2.8771	-3.0563	-2.7104	-2.8958	-3.0312	-2.7604	172.933	127.703	-168.573	137.171	-125.906	-124.878	109.774	20.698	161.934	179.574	17.769	139.667	135.925	-160.326	138.629	84.671	0.0006237	0.00035932	7.6667e-05	1105.1	2.7746e-06	2.7785e-06	1165.3	230.38	5.257e-06	4.6111e-06	286.46	80.379	63.706	18.082	3.2035e-06	25.716	0.0002401	0.00018093	4.3564e-05	1090.3	2.0419e-06	1.7192e-06	1154.1	228.69	2.0274e-06	1.8344e-06	286.31	80.843	63.396	18.284	1.7763e-06	26.08	0.953	-93.962	-57.052	-163.257	-50.576	-21.907	-163.138	-156.314	-31.260	-25.065	-156.281	-150.044	-149.735	-142.023	-25.039	-143.090	-8191	255	
18169.570	1	1	0	0	0.13785	0.17936	0.19964	0.24609	0.062112	0.25861	0.29904	0.13443	0.20862	0.11552	0.12712	0.24914	0.13295	0.24183	0.10194	0.15519	-2.6729	-2.8542	-2.8688	-3.1937	-2.8583	-2.8625	-3.2833	-2.8021	-2.8937	-2.9542	-2.7812	-3.0979	-2.9167	-3.1396	-2.9042	-2.8312	-82.591	-103.217	-143.475	164.617	30.635	151.971	66.766	91.889	119.196	-115.214	53.184	76.145	102.038	-165.077	159.081	133.363	0.00063304	0.00036997	6.3883e-05	1100.1	3.2277e-06	3.574e-06	1164.5	230	6.1917e-06	2.7045e-06	288.06	80.724	63.367	18.077	3.8513e-06	25.627	0.00025883	0.00015768	4.9194e-05	1089	2.0148e-06	1.8267e-06	1154.1	228.79	2.1089e-06	1.7126e-06	286.25	80.762	63.273	18.302	1.8107e-06	26.111	3.875	-96.544	-69.344	-162.944	-26.758	-24.597	-163.087	-156.176	-35.922	-25.894	-155.923	-150.193	-149.361	-142.003	-32.882	-143.069	-8191	255	
18169.664	1	1	0	0	0.23874	0.066934	0.096762	0.11304	0.051887	0.30292	0.15867	0.060614	0.30729	0.16611	0.10378	0.1071	0.15309	0.25198	0.17653	0.15399	-2.6437	-2.9313	-2.7729	-3.1437	-2.6417	-2.8875	-3.2854	-2.8438	-2.9146	-2.8521	-2.9562	-3.0292	-2.875	-2.8667	-3.1146	-2.9271	76.088	166.220	111.254	130.114	-19.197	17.216	126.557	-139.714	-170.317	140.590	-122.963	85.522	140.669	169.340	146.833	125.095	0.00066414	0.00056918	5.2042e-05	1102.9	3.634e-06	2.5325e-06	1161.9	230.39	7.291e-06	3.3234e-06	287.87	80.464	63.567	18.042	3.9172e-06	25.618	0.0002522	0.00016622	4.6613e-05	1089.4	1.9661e-06	1.8841e-06	1152.9	229.04	2.1985e-06	1.7135e-06	286.27	80.782	63.201	18.307	1.8173e-06	26.092	3.760	-78.488	-75.852	-163.076	-39.630	8.952	-163.255	-156.286	-42.013	-15.648	-156.097	-149.839	-149.685	-141.848	-21.267	-143.337	-8191	255	
18169.764	1	1	0	0	0.079744	0.083804	0.09039	0.20803	0.29931	0.1527	0.080168	0.2795	0.14875	0.060422	0.24998	0.12612	0.20147	0.10908	0.19165	0.059471	-2.4792	-2.8958	-2.5479	-3.0854	-2.8208	-2.9313	-3.2104	-2.8458	-2.9958	-2.9396	-2.6	-3.125	-2.9188	-2.7729	-2.9021	-2.8792	34.150	-12.721	-76.147	140.209	90.705	-110.275	-62.262	48.969	-55.253	33.471	164.953	41.856	8.357	-166.726	-1.756	128.907	0.0006027	0.0002712	8.2156e-05	1105.5	4.173e-06	3.9703e-06	1164.7	229.5	5.998e-06	3.4233e-06	288.09	80.695	63.476	18.104	3.807e-06	25.87	0.0002404	0.00016266	4.917e-05	1091.6	2.0093e-06	1.8912e-06	1152.4	228.63	2.0792e-06	1.8095e-06	287.23	80.916	63.249	18.338	1.8086e-06	26.2	-0.843	-83.499	-76.069	-162.893	-40.664	-20.148	-163.357	-155.908	-31.779	-30.850	-155.963	-149.538	-149.750	-142.689	-11.138	-142.933	-8191	255	
18169.883	1	1	0	0	0.29745	0.19149	0.20533	0.37976	0.3369	0.15955	0.12844	0.18505	0.3043	0.090354	0.11933	0.092079	0.22799	0.1098	0.29062	0.20558	-2.3479	-2.9833	-2.6562	-3.0438	-2.9208	-2.6583	-3.1083	-2.9771	-2.7562	-2.8708	-2.8812	-2.925	-2.9396	-2.6708	-3.0333	-2.6729	68.037	55.704	129.893	138.532	121.971	162.029	122.375	-131.600	37.279	-14.830	132.446	65.328	164.870	75.669	19.413	-153.890	0.00060595	0.00033431	8.6693e-05	1104	4.1258e-06	2.9963e-06	1160.5	229	7.2898e-06	3.0636e-06	287.87	80.49	63.444	18.095	3.5763e-06	25.553	0.00024843	0.00017724	4.6766e-05	1090.3	2.1211e-06	1.8248e-06	1152.6	228.51	2.1241e-06	1.8335e-06	286.75	80.769	63.296	18.282	1.8351e-06	26.059	2.041	-104.900	-77.896	-163.022	-44.386	-19.975	-163.227	-156.170	-32.363	-25.075	-156.398	-149.412	-149.908	-142.538	-1.825	-143.115	-8191	255	
18169.979	1	1	0	0	0.032072	0.034469	0.2177	0.24384	0.06347	0.16619	0.14314	0.20362	0.04301	0.075233	0.14457	0.154	0.42797	0.14302	0.055023	0.10413	-2.35	-2.9854	-2.7396	-2.9583	-3.0521	-2.7125	-3.2562	-2.85	-2.8104	-3.1229	-2.8271	-2.8604	-2.9437	-2.625	-2.9542	-2.9625	144.447	82.542	115.422	184.393	119.396	-96.343	63.790	40.858	33.170	56.341	161.379	-68.228	143.212	-50.541	127.075	-26.990	0.00061539	0.00041732	6.3573e-05	1101.2	3.8425e-06	3.2938e-06	1167.8	229.09	6.7558e-06	1.7057e-06	286.31	80.412	63.447	18.027	3.7354e-06	25.39	0.00024618	0.00016626	4.5194e-05	1088.8	2.0271e-06	1.9397e-06	1153.4	228.04	2.1656e-06	1.6815e-06	286.38	80.615	63.256	18.279	1.7167e-06	26.037	3.296	-72.840	-88.047	-163.089	-29.696	-21.884	-162.913	-156.272	-47.789	-56.461	-156.269	-149.623	-149.207	-142.262	-13.355	-142.661	-8191	255	
18170.072	1	1	0	0	0.039595	0.071455	0.052489	0.15643	0.098488	0.16002	0.4337	0.18553	0.05469	0.25584	0.17217	0.27775	0.21188	0.21893	0.1551	0.18075	-2.3521	-3.0083	-2.8458	-2.9938	-3.1542	-2.7417	-3.1646	-2.8292	-2.7687	-2.975	-2.9271	-2.9062	-3.0854	-2.5979	-2.9188	-2.8604	150.305	90.810	-110.667	136.949	100.609	132.463	107.013	39.241	105.090	81.172	117.526	121.174	137.726	130.584	142.220	98.429	0.00068201	0.00033355	9.17e-05	1106.5	4.6519e-06	3.3041e-06	1164.1	230.15	5.3603e-06	3.5126e-06	287.54	80.291	63.675	18.149	4.3491e-06	25.558	0.00024486	0.00017003	4.2074e-05	1092.1	2.1863e-06	1.7328e-06	1152.3	228.96	2.1191e-06	1.626e-06	286.57	80.655	63.303	18.277	1.7393e-06	26.066	2.786	-107.461	-111.593	-162.814	-41.010	-10.952	-163.063	-156.037	-28.272	-36.493	-156.389	-149.891	-149.536	-142.121	-13.313	-142.851	-8191	255	
18170.170	1	1	0	0	0.18523	0.21851	0.085954	0.15135	0.16482	0.07904	0.29489	0.20734	0.17746	0.18783	0.1596	0.20376	0.15756	0.088416	0.2125	0.19027	-2.2542	-2.9292	-2.6	-3.0625	-2.9146	-2.8667	-3.225	-2.9333	-2.6375	-3.0687	-2.8146	-3.0229	-3.1271	-2.7646	-2.9292	-3.1646	-167.422	88.067	178.476	63.848	-78.790	61.950	116.091	-124.048	-96.559	66.186	-67.851	148.935	3.245	-159.566	58.056	43.541	0.00065285	0.00031788	7.4206e-05	1101.7	3.1006e-06	2.9373e-06	1161.4	229.98	7.0413e-06	2.3748e-06	287.79	80.507	63.63	18.051	3.2784e-06	25.62	0.00024728	0.00015424	4.8338e-05	1089.1	1.9208e-06	1.7258e-06	1152.4	228.8	2.1097e-06	1.746e-06	286.23	80.574	63.306	18.3	1.8029e-06	26.089	2.467	-74.721	-88.758	-162.989	-51.524	-19.446	-163.279	-155.963	-38.743	-34.255	-156.552	-149.742	-149.713	-141.983	-15.371	-142.910	-8191	255	
18170.266	1	1	0	0	0.13234	0.19374	0.082491	0.35614	0.053066	0.13812	0.29267	0.22287	0.16142	0.15522	0.2802	0.18369	0.046097	0.16845	0.31417	0.20751	-2.2729	-3.0292	-2.7854	-2.9604	-3.0729	-2.7333	-3.0917	-3.1167	-2.7667	-3.2167	-2.8563	-2.8792	-3.0917	-2.7	-2.95	-2.925	39.281	73.810	-95.106	139.975	0.516	-40.967	130.328	131.633	168.229	-24.822	110.341	132.575	-9.920	-149.182	85.350	-40.300	0.00064053	0.00042439	8.2975e-05	1103.7	3.3771e-06	3.3154e-06	1162.4	229.57	6.0963e-06	9.6319e-07	287.5	80.439	63.169	17.965	2.5857e-06	25.543	0.00024483	0.00017086	4.2344e-05	1091	1.9314e-06	1.8262e-06	1151.6	228.65	2.0961e-06	1.6655e-06	286.52	80.749	63.148	18.261	1.8099e-06	26.093	2.685	-67.162	-101.692	-162.983	-47.676	-22.356	-163.182	-156.127	-35.491	-29.485	-156.075	-150.130	-149.360	-141.913	-2.446	-143.227	-8191	255	
18170.361	1	1	0	0	0.081361	0.39914	0.080991	0.074222	0.32314	0.30259	0.34767	0.16574	0.31475	0.1061	0.19299	0.045845	0.062306	0.050166	0.27663	0.22618	-2.2438	-2.9021	-2.9083	-2.7521	-3.0583	-2.7	-2.9875	-3.0563	-2.8042	-2.9979	-2.9729	-2.7667	-3.1875	-2.8563	-2.7812	-3.0958	7.646	151.638	-111.450	-69.264	27.268	119.929	92.471	147.228	-133.103	121.068	-119.899	129.901	165.610	-142.252	-64.058	111.689	0.00059482	0.00041872	8.0359e-05	1102.3	3.1246e-06	2.0793e-06	1161	229.74	5.5548e-06	3.4234e-06	288	80.929	63.458	18.097	3.0964e-06	25.511	0.00025305	0.00018387	4.6379e-05	1088.3	2.1775e-06	1.6706e-06	1152.3	228.61	2.1278e-06	1.7634e-06	286.63	80.697	63.183	18.278	1.9544e-06	26.078	-0.578	-81.222	-74.514	-162.806	-75.533	-10.575	-163.216	-156.046	-49.075	-29.537	-156.372	-149.509	-149.647	-142.229	-35.065	-143.042	-8191	255	
18170.457	1	1	0	0	0.12262	0.32067	0.096341	0.22522	0.15118	0.28811	0.27133	0.15805	0.15057	0.12766	0.19719	0.13667	0.25744	0.067534	0.091838	0.28447	-2.3104	-2.975	-2.8708	-2.6583	-3.0917	-2.6813	-2.9833	-3.1729	-2.75	-2.8187	-2.9417	-2.9125	-2.9375	-2.85	-2.7687	-3.05	185.044	-63.943	146.783	-162.123	-4.114	101.604	142.019	47.762	-124.847	62.271	-63.777	-32.023	-165.612	127.567	-1.930	150.823	0.00065354	0.00043047	7.0573e-05	1102.2	2.7914e-06	2.3449e-06	1164.6	229.37	5.1203e-06	2.32e-06	287.32	79.612	63.355	18.14	2.9686e-06	25.577	0.00025745	0.00016958	4.3927e-05	1088.1	2.0538e-06	1.7529e-06	1152.6	228.35	2.1697e-06	1.7888e-06	285.82	80.418	63.104	18.266	2.021e-06	26.018	0.801	-81.972	-69.836	-162.857	-43.298	-17.153	-163.032	-155.828	-57.133	-3.800	-156.105	-149.718	-149.504	-142.277	-26.195	-143.015	-8191	255	
18170.578	1	1	0	0	0.1423	0.087306	0.19738	0.20217	0.034741	0.2143	0.14078	0.035963	0.18794	0.19561	0.1332	0.11707	0.11697	0.19421	0.26868	0.12052	-2.2167	-2.9229	-2.8937	-2.8021	-2.9333	-2.8896	-3.0167	-3.0771	-2.8229	-2.8125	-3.0792	-2.8083	-3.0563	-2.9417	-2.8417	-3.0854	-23.357	81.609	-149.620	108.217	157.344	97.063	55.574	65.612	-118.456	-97.918	68.066	-96.678	171.769	58.647	-84.687	-62.763	0.00064012	0.00024675	7.3552e-05	1100.2	3.0915e-06	2.2788e-06	1163	229.88	4.1713e-06	3.2208e-06	286.12	80.572	63.316	18.177	3.3748e-06	25.815	0.00025272	0.00017086	4.9276e-05	1088	2.1415e-06	1.7076e-06	1152.6	228.85	2.2891e-06	1.6904e-06	285.97	80.698	63.173	18.317	1.8099e-06	26.09	0.872	-83.942	-74.099	-162.943	-45.329	-9.648	-163.241	-155.918	-59.667	-34.373	-156.237	-150.130	-149.698	-142.334	-19.037	-143.144	-8191	255	
18170.674	1	1	0	0	0.17194	0.1884	0.11252	0.1469	0.20609	0.26166	0.17053	0.10631	0.081785	0.29527	0.085874	0.1219	0.21775	0.093411	0.099804	0.030136	-2.4292	-3.05	-2.9146	-2.7958	-2.9833	-2.9875	-3.0604	-3.0917	-2.7438	-3.0187	-2.9792	-2.8292	-3.0771	-2.9021	-2.7812	-3.2729	19.127	-156.675	-165.399	160.422	178.426	147.659	104.043	18.108	50.066	71.419	170.194	-134.090	-130.387	140.691	-101.434	-156.437	0.00066925	0.000403	7.543e-05	1103.2	3.4263e-06	2.126e-06	1161.2	231.21	5.0373e-06	3.8501e-06	286.94	80.322	63.678	18.113	3.9477e-06	25.601	0.00025256	0.00017861	4.5698e-05	1089.1	2.1055e-06	1.7916e-06	1152.2	229.26	2.1829e-06	2.0401e-06	286.5	80.623	63.243	18.286	1.9565e-06	26.087	3.655	-77.954	-73.114	-163.198	-51.193	-31.767	-163.414	-155.965	-40.053	-38.904	-156.435	-149.667	-149.706	-142.443	-35.898	-143.412	-8191	255	
18170.746	1	1	0	0	0.29173	0.12286	0.097377	0.35825	0.14786	0.10484	0.12389	0.066686	0.03596	0.069527	0.22318	0.14094	0.053801	0.36979	0.19067	0.23408	-2.3667	-2.9938	-2.9313	-2.8333	-3.0271	-2.95	-2.85	-3.2104	-2.7604	-2.9229	-3.1875	-2.7125	-3.0938	-2.7833	-2.8458	-3.1104	-122.897	117.833	-107.254	153.244	146.847	-152.936	149.140	-126.710	-99.252	91.367	132.057	16.186	109.491	-60.778	116.824	57.509	0.0006993	0.00044955	5.6987e-05	1099.5	3.6905e-06	3.0185e-06	1164.3	230.62	8.1621e-06	3.9007e-06	286.57	80.589	63.305	18.205	4.4705e-06	25.506	0.00024824	0.00019171	4.7376e-05	1090.1	2.0826e-06	2.0028e-06	1154.1	229.32	2.1899e-06	1.914e-06	286.49	80.72	63.23	18.298	1.94e-06	26.009	1.989	-79.464	-49.720	-162.865	-38.359	-21.709	-163.196	-156.105	-43.325	-10.148	-156.461	-149.701	-149.478	-142.154	-15.605	-142.946	-8191	255	
18170.842	1	1	0	0	0.27589	0.10381	0.13168	0.19699	0.10744	0.27732	0.18985	0.14623	0.19806	0.20471	0.21748	0.077194	0.15288	0.077721	0.093487	0.18181	-2.45	-2.8688	-3.1708	-2.9208	-2.9562	-3.0271	-2.8438	-3.0604	-2.8167	-2.8375	-3.1437	-2.7562	-2.8917	-2.9542	-2.8208	-3.2625	38.695	-39.711	-108.002	173.007	-78.399	-82.686	149.194	-172.190	-167.593	-126.662	134.727	29.210	36.632	91.870	92.041	-99.186	0.00067184	0.00033597	0.00010323	1108.8	2.3275e-06	3.1498e-06	1167	230.84	5.1876e-06	4.1598e-06	287.29	79.986	63.515	18.087	3.444e-06	25.544	0.00025335	0.00018043	5.1117e-05	1093.2	1.9839e-06	1.7874e-06	1153	229.21	2.0714e-06	2.0363e-06	286.81	80.598	63.15	18.316	1.9409e-06	26.008	3.506	-87.580	-73.256	-162.931	-79.964	-1.902	-163.178	-156.213	-42.152	-27.257	-156.239	-149.571	-149.764	-142.202	-16.110	-142.932	-8191	255	
18170.963	1	1	0	0	0.1532	0.15087	0.23941	0.12162	0.097914	0.010889	0.27904	0.11925	0.16867	0.34048	0.30935	0.18915	0.2337	0.24058	0.25618	0.18393	-2.3479	-2.5917	-2.9208	-2.7396	-2.8583	-3.1542	-2.8542	-3.1063	-2.85	-2.7062	-3.1542	-2.6875	-2.7438	-3.1083	-2.7208	-3.0667	27.115	-18.748	89.434	-164.388	-8.795	112.058	143.154	161.346	-32.322	-146.752	-160.786	151.114	-57.793	82.723	-50.687	155.195	0.00063995	0.00027993	0.00010275	1102.5	2.8037e-06	2.9215e-06	1165.4	229.83	5.793e-06	2.5819e-06	288.64	81.007	63.393	18.143	3.8314e-06	25.616	0.00024876	0.0001893	4.4666e-05	1090.5	2.2046e-06	1.8145e-06	1153.3	228.89	2.2652e-06	1.8269e-06	287.09	80.822	63.341	18.336	1.8673e-06	26.062	3.824	-77.147	-83.370	-163.057	-56.205	-27.050	-163.075	-156.297	-39.626	-11.614	-156.029	-149.960	-149.384	-142.147	-31.979	-142.889	-8191	255	
18171.057	1	1	0	0	0.2486	0.10952	0.19471	0.29722	0.087544	0.21383	0.34536	0.21676	0.20559	0.10598	0.1317	0.218	0.14657	0.17933	0.13494	0.10098	-2.4583	-2.5521	-2.8667	-2.8646	-2.8312	-3.0104	-2.8417	-3.0771	-2.9146	-2.5521	-2.9917	-2.875	-3.0187	-3.0083	-2.7771	-2.8979	-56.492	-114.157	120.620	152.307	-159.985	87.682	151.853	92.369	70.471	-29.293	113.367	184.829	-172.845	124.137	-2.754	35.263	0.00066227	0.00038145	8.6348e-05	1100	2.976e-06	3.0065e-06	1164.2	231.64	6.896e-06	3.3823e-06	288.37	80.846	63.567	18.163	2.6997e-06	25.694	0.00024208	0.00019013	4.6085e-05	1091.2	2.2092e-06	1.8075e-06	1156.2	229.62	2.2269e-06	1.8881e-06	287.26	81.046	63.209	18.32	1.9866e-06	26.14	1.921	-82.597	-112.954	-162.856	-9.454	-20.807	-163.169	-156.098	-20.859	-23.210	-156.000	-149.584	-149.388	-142.256	-36.145	-142.980	-8191	255	
18171.154	1	1	0	0	0.12702	0.21876	0.14176	0.10921	0.10208	0.10435	0.31966	0.23771	0.32568	0.33356	0.088841	0.23473	0.078032	0.21476	0.23629	0.12493	-2.6125	-2.7208	-3.1021	-2.9229	-2.7854	-2.9208	-2.8312	-2.9938	-2.7792	-2.9062	-2.9771	-2.7979	-2.7125	-3.0979	-2.8021	-2.8333	-142.673	-49.651	182.344	-100.717	121.593	151.341	121.710	168.483	-166.242	-38.923	-4.942	-151.120	141.523	143.519	-26.895	96.901	0.00056876	0.00030191	7.8247e-05	1104.7	3.2574e-06	3.0996e-06	1162.6	230.08	5.7683e-06	2.1102e-06	287.1	80.901	63.48	18.046	4.1827e-06	25.633	0.00024472	0.00017244	4.4959e-05	1093.4	2.0864e-06	1.6487e-06	1156.6	229.11	2.238e-06	1.961e-06	286.93	80.83	63.303	18.271	1.9061e-06	26.123	1.864	-101.858	-101.347	-163.184	-52.415	-37.286	-163.162	-155.922	-27.143	-34.755	-156.134	-149.661	-149.679	-142.370	-14.309	-142.931	-8191	255	
18171.273	1	1	0	0	0.12361	0.27717	0.040113	0.32778	0.30742	0.21656	0.19487	0.1402	0.12132	0.15489	0.16853	0.24707	0.27917	0.22152	0.28077	0.238	-2.4021	-2.7583	-2.8354	-3.0667	-2.5729	-2.8646	-2.9146	-2.9125	-2.8146	-2.7896	-3.1021	-2.9042	-2.7896	-3.1063	-2.6646	-2.8396	170.680	37.418	134.503	140.904	185.666	-26.868	45.611	70.239	160.021	90.458	25.715	167.726	-163.680	-136.593	67.233	111.454	0.00068731	0.00038187	0.00010863	1104	3.0687e-06	3.0683e-06	1165.4	231.49	6.9837e-06	5.1254e-06	287.73	80.732	63.084	18.118	3.051e-06	25.644	0.00025462	0.00018354	4.7622e-05	1091.3	2.2173e-06	1.7169e-06	1156.6	229.75	2.1261e-06	2.034e-06	286.72	80.819	63.155	18.299	1.7824e-06	26.048	5.857	-75.057	-68.189	-162.900	-22.314	-33.953	-163.484	-156.273	-43.770	-46.078	-156.360	-149.571	-149.302	-142.408	-31.888	-143.192	-8191	255	
18171.369	1	1	0	0	0.073407	0.18124	0.03299	0.24999	0.24765	0.091712	0.14999	0.13604	0.30598	0.14861	0.023496	0.26682	0.17086	0.16318	0.13789	0.055056	-2.5521	-2.8042	-2.9021	-2.8917	-2.6688	-2.9979	-3.0896	-2.8458	-2.9813	-2.8229	-3.0729	-3.025	-2.6625	-2.9875	-2.8833	-2.7208	12.813	-13.302	76.885	167.923	20.146	-17.076	32.201	125.373	38.929	-23.952	171.130	154.757	58.845	97.388	-118.424	-94.771	0.00064808	0.0002732	6.795e-05	1103.6	2.5261e-06	1.9958e-06	1156.7	230.79	5.5159e-06	3.1624e-06	288.61	80.757	63.293	18.13	4.7404e-06	25.778	0.00025118	0.00017219	4.3352e-05	1092.2	2.1931e-06	1.7379e-06	1153	229.49	2.1677e-06	1.7535e-06	287.03	80.996	63.205	18.314	1.9875e-06	26.146	1.041	-76.088	-106.145	-163.047	-31.761	-26.019	-163.173	-155.944	-55.024	-28.639	-156.256	-149.960	-150.004	-142.618	-32.419	-143.080	-8191	255	
18171.441	1	1	0	0	0.080003	0.13008	0.20581	0.26234	0.305	0.16268	0.42212	0.25195	0.10551	0.18811	0.014691	0.10733	0.10371	0.12617	0.11258	0.084958	-2.7	-2.8417	-2.9542	-2.9458	-2.6667	-3.0083	-3.025	-2.7333	-3.0792	-2.7146	-2.9375	-2.8521	-2.7812	-2.9604	-2.8563	-2.8312	32.467	110.513	71.775	119.102	6.618	1.792	120.024	-99.673	90.521	135.923	143.075	-90.720	160.922	74.373	-41.082	159.094	0.00060633	0.0003272	7.2908e-05	1102.1	4.4965e-06	3.7982e-06	1165.6	230.09	3.4587e-06	3.5413e-06	288.49	80.933	63.282	18.208	3.8634e-06	25.591	0.0002409	0.00017335	4.6824e-05	1091.9	2.2736e-06	1.7674e-06	1155.9	229.16	2.0081e-06	1.7761e-06	287.77	80.937	63.183	18.357	1.9918e-06	26.121	0.861	-68.032	-84.549	-162.904	-46.411	-16.927	-163.413	-155.840	-54.294	-4.676	-156.211	-149.864	-149.680	-142.442	-33.260	-142.927	-8191	255	
18171.562	1	1	0	0	0.27694	0.1317	0.22259	0.29501	0.12611	0.11789	0.1775	0.27174	0.27959	0.19524	0.27323	0.20631	0.17101	0.042052	0.25404	0.19314	-2.7167	-2.675	-2.6917	-3.1458	-2.7583	-3.0958	-3.1646	-2.9188	-3.0646	-2.9604	-2.8875	-3.0104	-2.5958	-3.0375	-2.9313	-2.5479	-38.453	-90.089	151.358	154.121	52.388	-129.544	99.577	-102.600	-69.480	159.820	-167.771	36.525	182.960	104.219	-152.435	106.112	0.00064958	0.00031315	8.7666e-05	1103	3.129e-06	2.8147e-06	1165.7	230.75	6.8232e-06	2.3133e-06	287.9	80.42	63.264	18.06	3.8789e-06	25.679	0.00025412	0.00018615	4.8338e-05	1091.7	2.2262e-06	1.7122e-06	1154.6	229.61	1.9743e-06	1.8966e-06	287.18	80.818	63.264	18.264	1.9061e-06	26.102	2.239	-86.577	-72.222	-162.887	-41.988	-21.203	-163.328	-156.217	-34.255	-37.312	-156.173	-149.971	-149.957	-142.325	-38.582	-142.682	-8191	255	
18171.658	1	1	0	0	0.21426	0.11543	0.10546	0.16965	0.17778	0.090759	0.37074	0.24601	0.2412	0.037855	0.29067	0.2221	0.20019	0.24678	0.052333	0.098923	-2.5333	-2.8937	-3.0062	-3.1396	-2.7917	-3.0146	-3.1708	-2.7458	-3.1958	-2.8396	-2.9542	-3.1479	-2.8729	-2.9833	-3.0208	-2.725	73.039	48.557	152.731	-105.114	-131.125	-5.348	57.492	81.024	77.017	-105.306	159.007	-162.259	77.269	-118.425	-146.993	128.844	0.00064581	0.00031845	8.3575e-05	1098.1	2.0102e-06	3.2532e-06	1166.8	229.57	9.1958e-06	4.6593e-06	287.48	80.492	63.706	18.12	2.9041e-06	25.659	0.00024758	0.00017161	4.8912e-05	1089.5	2.0093e-06	1.7421e-06	1156	229.17	2.2627e-06	1.913e-06	287.33	80.887	63.344	18.316	1.8812e-06	26.133	1.094	-74.519	-85.143	-163.165	-49.516	-32.702	-162.926	-155.998	-38.228	-28.989	-156.542	-150.057	-149.604	-141.915	-20.777	-143.212	-8191	255	
18171.756	1	1	0	0	0.065839	0.20719	0.16124	0.17522	0.15617	0.15307	0.20503	0.22648	0.16251	0.12635	0.15246	0.23379	0.21979	0.066131	0.081698	0.11133	-2.6646	-2.8479	-2.6854	-3.1646	-2.7812	-3.0333	-3.1875	-2.75	-2.975	-2.8958	-2.8063	-3.0708	-2.7208	-2.6958	-3.0333	-2.8896	40.965	-20.406	81.064	111.635	-21.960	-131.517	117.713	-44.044	183.348	-78.399	160.974	-170.963	112.264	29.738	130.100	92.649	0.00061643	0.00037563	6.8364e-05	1108.1	4.6422e-06	2.446e-06	1167.4	230.56	7.7332e-06	2.5283e-06	289.19	80.605	63.132	18.271	3.3699e-06	25.819	0.00024719	0.00017977	4.5382e-05	1093.6	2.1258e-06	1.8468e-06	1156.6	229.37	1.9817e-06	1.9276e-06	287.66	80.671	63.129	18.369	1.9348e-06	26.133	3.840	-78.643	-96.973	-163.072	-52.966	1.409	-162.923	-156.092	-28.898	-9.236	-156.275	-149.932	-149.680	-142.540	-39.415	-143.204	-8191	255	
18171.875	1	1	0	0	0.079376	0.10871	0.12249	0.22496	0.22684	0.0059955	0.24352	0.24736	0.06641	0.19244	0.23246	0.19218	0.11268	0.058449	0.24263	0.16439	-2.6604	-2.8729	-2.4583	-3.0646	-2.9354	-2.9292	-3.1479	-2.9125	-2.9062	-2.9562	-2.7042	-3.0854	-2.8	-2.7792	-2.9729	-2.7938	8.347	-64.051	27.734	119.385	51.904	88.396	105.858	142.059	82.177	185.738	154.449	147.877	81.465	-22.336	68.046	-116.646	0.00065874	0.00036506	0.00010654	1105.2	4.4591e-06	2.4657e-06	1165.2	230.98	5.6495e-06	2.7813e-06	286.33	79.923	63.415	18.047	2.9935e-06	25.658	0.00024989	0.00018251	4.564e-05	1091.2	2.2482e-06	1.7977e-06	1155.4	229.11	2.1706e-06	1.873e-06	286.82	80.655	63.367	18.287	1.7746e-06	26.077	3.413	-81.780	-102.929	-163.308	-47.168	15.508	-163.159	-156.193	-44.231	-26.151	-156.240	-149.772	-150.081	-142.163	-3.964	-142.935	-8191	255	
18171.971	1	1	0	0	0.19709	0.35967	0.019501	0.25769	0.21838	0.15705	0.37156	0.071044	0.32481	0.13515	0.096097	0.19756	0.3444	0.24749	0.11413	0.21876	-2.5146	-2.9792	-2.6979	-3.2188	-2.9167	-2.7542	-3.1458	-2.9458	-2.9333	-3.0708	-2.8479	-3.2917	-2.8688	-2.6792	-3.0812	-2.7208	-68.323	147.803	-58.842	111.491	-70.416	-132.530	183.157	-137.121	89.121	-166.430	23.550	77.185	165.149	-124.957	159.672	22.713	0.00064106	0.00028672	8.2835e-05	1107.7	2.4388e-06	2.8441e-06	1170.7	230.86	5.0663e-06	1.6225e-06	286.95	80.929	63.243	18.115	3.2273e-06	25.705	0.00025932	0.00018462	5.0836e-05	1093.8	2.1207e-06	1.9818e-06	1156.1	229.59	2.2097e-06	1.8142e-06	287.19	80.73	63.247	18.316	1.8425e-06	26.108	4.594	-85.066	-70.345	-162.972	-37.094	-28.273	-163.416	-156.227	-23.315	-49.757	-156.268	-150.072	-149.972	-142.291	-27.370	-142.981	-8191	255	
18172.043	1	1	0	0	0.096119	0.25385	0.054625	0.21998	0.11291	0.16247	0.28995	0.41211	0.020258	0.14509	0.17612	0.10684	0.15974	0.062439	0.1348	0.091713	-2.5458	-2.9958	-2.6688	-2.9938	-2.8333	-2.8438	-3.1667	-3.0375	-2.8896	-3.0104	-2.8812	-2.9979	-2.9229	-2.6625	-2.9042	-2.9479	-52.623	-55.909	-86.427	123.845	-169.741	-20.010	102.108	134.288	136.701	-113.749	-49.769	38.323	80.057	-7.805	-138.471	75.452	0.00072686	0.00037504	5.9096e-05	1111.1	3.2268e-06	1.2585e-06	1160.9	230.59	5.8023e-06	1.8991e-06	287.45	80.398	63.424	18.153	3.308e-06	25.676	0.0002635	0.00018081	4.5522e-05	1093.4	2.1762e-06	1.9608e-06	1153.7	229.6	2.2808e-06	1.8919e-06	287.32	80.806	63.501	18.342	1.8721e-06	26.111	-0.199	-64.531	-90.487	-162.904	-30.569	24.740	-163.252	-156.088	-7.694	-8.894	-156.161	-149.547	-149.799	-142.583	-35.524	-142.681	-8191	255	
18172.137	1	1	0	0	0.32149	0.11944	0.22097	0.50539	0.011474	0.07415	0.26812	0.0545	0.19792	0.20382	0.15041	0.13671	0.018631	0.2289	0.05939	0.14774	-2.3979	-3.025	-2.5958	-2.9708	-2.9	-2.6	-3.3229	-2.9479	-2.7167	-3.1104	-2.7479	-2.8333	-2.8604	-2.7271	-3.0917	-2.8271	-117.897	160.375	161.824	107.040	-152.558	-143.607	140.646	38.389	88.019	16.230	148.394	162.776	99.526	-21.212	78.953	-31.757	0.00060696	0.00025457	7.743e-05	1104.9	3.8754e-06	3.3141e-06	1166.8	231.43	4.9319e-06	2.0188e-06	288.34	80.8	63.472	18.049	4.6485e-06	25.598	0.00025679	0.00015723	4.7165e-05	1092.8	2.0364e-06	2.0607e-06	1156.9	229.63	2.1126e-06	1.8984e-06	287.3	80.731	63.298	18.317	1.8604e-06	26.08	3.157	-53.781	-78.275	-163.110	-45.985	-14.667	-163.057	-156.181	-36.220	-35.322	-156.371	-149.979	-149.276	-142.651	-6.447	-143.219	-8191	255	
18172.234	1	1	0	0	0.23693	0.0090641	0.07038	0.22123	0.12384	0.17004	0.17717	0.44148	0.12009	0.095628	0.27439	0.2818	0.12545	0.15099	0.25587	0.059054	-2.4583	-2.9083	-2.7083	-3.1271	-2.8896	-2.7292	-3.0271	-2.9146	-3.0208	-3.0396	-2.8208	-2.8896	-2.9917	-2.7521	-3.1063	-2.8792	-104.772	-174.087	162.972	93.985	-134.197	104.017	-114.510	152.676	-110.510	-129.169	-94.700	108.132	-97.528	99.283	133.280	74.634	0.00062592	0.00032284	8.7622e-05	1104.5	2.5215e-06	2.6994e-06	1171.1	230.8	5.2551e-06	3.0112e-06	287.79	80.845	63.179	18.289	2.8183e-06	25.609	0.0002536	0.00017252	4.8314e-05	1093	2.177e-06	1.8075e-06	1156.3	229.42	2.301e-06	1.753e-06	287.33	80.949	63.288	18.412	1.8438e-06	26.091	4.280	-65.715	-76.192	-162.983	-27.887	-26.292	-163.443	-156.481	-42.733	-12.153	-156.468	-149.928	-149.783	-142.621	-18.458	-143.211	-8191	255	
18172.354	1	1	0	0	0.35947	0.292	0.335	0.34743	0.087013	0.18803	0.30228	0.15641	0.22248	0.27386	0.34794	0.12815	0.28768	0.070214	0.12314	0.15426	-2.3771	-3.125	-2.8458	-3.0792	-3.0146	-2.8125	-2.9542	-3.1437	-2.7875	-3.0979	-2.8229	-2.8917	-2.9896	-2.8063	-3.0812	-3.0854	-173.918	29.150	-70.678	167.431	10.166	-46.558	104.981	125.242	79.546	183.529	114.358	-157.416	-127.477	-104.323	-89.413	147.097	0.0006312	0.00023229	7.8185e-05	1109.6	2.897e-06	2.1819e-06	1173	231.7	6.2184e-06	4.2753e-06	288.28	80.986	63.976	18.14	3.4874e-06	25.765	0.00025498	0.00017741	4.8854e-05	1096.5	2.1609e-06	1.7192e-06	1160.2	229.84	2.3327e-06	1.9112e-06	287.81	80.997	63.582	18.315	1.8499e-06	26.096	5.076	-90.197	-88.505	-163.278	-55.845	-22.347	-163.156	-156.272	-49.137	-36.728	-156.332	-149.897	-149.678	-142.130	-35.745	-143.047	-8191	255	
18172.449	1	1	0	0	0.13685	0.16005	0.042581	0.25295	0.13198	0.10174	0.1788	0.52233	0.038396	0.17955	0.31804	0.052996	0.25959	0.22832	0.040726	0.47342	-2.2188	-2.9729	-2.6458	-2.9271	-2.9104	-2.6917	-3.1354	-2.9167	-2.6646	-3.1063	-3	-2.8146	-3.0104	-2.825	-2.9667	-3.0792	16.846	15.134	134.454	-165.836	101.806	-140.824	79.486	132.137	114.811	159.008	-148.422	164.550	105.547	66.313	156.691	158.126	0.00062684	0.00037253	8.4881e-05	1107.9	4.1574e-06	2.8752e-06	1165.1	231.62	6.2908e-06	3.7385e-06	286.36	80.828	63.385	18.107	5.8473e-06	25.767	0.00026468	0.00018247	4.971e-05	1095.8	2.1855e-06	1.901e-06	1156.6	230.06	2.3018e-06	1.9337e-06	287.25	81.119	63.354	18.366	2.1572e-06	26.168	4.364	-78.448	-92.167	-163.043	-67.747	-27.944	-163.315	-156.021	-38.999	-29.867	-156.576	-150.183	-149.808	-142.476	-21.921	-143.088	-8191	255	
18172.547	1	1	0	0	0.11764	0.13914	0.029847	0.17647	0.17736	0.25417	0.21887	0.10889	0.15681	0.018834	0.20124	0.2309	0.13445	0.051174	0.12252	0.040541	-2.2521	-3.0646	-2.9625	-2.8271	-3.1542	-2.725	-3.2125	-2.9833	-2.6917	-3.0687	-3.0125	-2.8604	-3.1125	-2.8292	-2.7875	-3.0417	44.751	83.569	-23.373	138.138	145.839	78.644	86.070	61.782	-156.220	53.352	179.441	168.915	79.284	56.214	84.504	145.850	0.00064997	0.0003036	5.8318e-05	1109.2	4.3334e-06	3.066e-06	1163.1	231.01	6.7281e-06	3.6232e-06	288.76	80.681	63.532	18.133	4.1067e-06	25.794	0.00025828	0.00017753	4.9569e-05	1097.8	2.1821e-06	1.893e-06	1157.9	229.97	2.4022e-06	1.881e-06	287.78	80.932	63.392	18.384	2.1294e-06	26.193	2.846	-75.599	-78.289	-163.352	-63.729	-31.810	-163.132	-156.192	-33.042	-42.415	-156.566	-149.760	-149.940	-142.396	-13.152	-142.970	-8191	255	
18172.643	1	1	0	0	0.24242	0.03231	0.18767	0.5927	0.20191	0.047592	0.1813	0.21909	0.14232	0.15794	0.078451	0.37466	0.074867	0.19531	0.076857	0.27702	-2.2417	-2.8708	-2.8917	-2.8063	-2.975	-2.7021	-3.1833	-3.1813	-2.8375	-2.9833	-3.0375	-2.6437	-3.1083	-2.8646	-2.9042	-3.0125	114.298	-67.067	96.934	164.978	-60.631	179.815	91.940	160.045	-116.841	92.686	166.050	97.388	-2.789	-166.090	85.312	127.886	0.00063607	0.00029818	7.7879e-05	1115.9	2.4882e-06	2.035e-06	1173.1	231.18	4.7429e-06	3.7398e-06	290.15	81.172	63.327	18.174	4.2845e-06	25.726	0.00025346	0.00017762	5.1235e-05	1099.3	2.1635e-06	1.8996e-06	1161.3	230.22	2.1385e-06	1.9008e-06	288.61	81.225	63.423	18.389	2.0754e-06	26.142	-1.017	-68.948	-88.907	-163.188	-44.516	-27.316	-163.087	-156.268	-38.073	-24.283	-156.462	-149.654	-149.405	-142.636	-18.477	-142.961	-8191	255	
18172.738	1	1	0	0	0.077545	0.21533	0.097406	0.33894	0.11614	0.23786	0.23798	0.22632	0.11544	0.25411	0.27412	0.20781	0.11608	0.16159	0.2033	0.21598	-2.4146	-3.1208	-3.0854	-2.975	-3.0125	-2.8771	-3.0312	-3.1833	-2.7375	-2.8958	-3	-2.7896	-3.1458	-2.8354	-2.8354	-3.1375	-16.195	118.739	2.557	177.594	-95.769	57.958	124.951	117.944	100.447	-13.190	-134.397	156.948	-149.876	151.282	129.027	-113.231	0.00066235	0.00033505	7.3562e-05	1116.2	4.0535e-06	3.3893e-06	1173.6	231.62	4.8242e-06	4.0543e-06	286.51	80.647	63.383	18.226	4.3167e-06	25.721	0.00025984	0.00018168	5.2349e-05	1100.2	2.1495e-06	1.8692e-06	1161.3	230.39	2.2903e-06	1.9813e-06	287.48	80.908	63.517	18.385	2.0231e-06	26.179	4.484	-98.878	-72.914	-163.190	-34.449	-12.372	-163.192	-155.920	-28.501	-30.662	-156.599	-149.778	-149.642	-141.867	-27.923	-143.307	-8191	255	
18172.836	1	1	0	0	0.14507	0.13074	0.12105	0.31464	0.20317	0.25265	0.17825	0.15806	0.14111	0.064186	0.084435	0.10443	0.15546	0.10404	0.089546	0.12197	-2.3604	-2.8292	-3.0125	-2.8354	-2.9646	-3.1688	-2.9688	-3.0167	-2.7896	-3.0729	-2.9521	-2.9583	-2.925	-3.0354	-2.6917	-2.9979	102.175	0.910	-81.428	167.744	127.124	-30.796	48.252	-53.732	-118.939	-5.073	-71.512	76.039	-70.740	-173.367	158.960	-68.634	0.00065491	0.00030385	9.7426e-05	1110	4.7708e-06	2.3934e-06	1170.8	231.64	5.4621e-06	4.1539e-06	288.23	81.401	64.085	18.221	2.9364e-06	25.816	0.00025696	0.00018495	4.9851e-05	1100.4	2.1986e-06	1.9066e-06	1161.6	230.72	2.0521e-06	2.089e-06	288.36	81.15	63.848	18.393	1.9491e-06	26.226	1.523	-74.874	-58.285	-163.082	-57.375	-0.837	-163.101	-156.199	-40.774	-30.194	-156.476	-149.968	-149.343	-142.465	-26.813	-142.818	-8191	255	
18172.955	1	1	0	0	0.071773	0.11352	0.17485	0.28654	0.10363	0.25894	0.25511	0.33484	0.15963	0.11797	0.10268	0.113	0.076203	0.25084	0.25617	0.40304	-2.3792	-2.8542	-3	-2.7729	-2.9625	-2.9458	-2.8646	-2.9417	-2.8833	-3.0687	-3.1896	-2.7979	-3.0583	-3.05	-2.9	-3.2958	83.052	171.002	18.621	159.636	95.363	-87.931	53.472	162.943	-106.470	-151.303	-10.092	129.831	-21.284	12.202	29.389	148.665	0.00067572	0.00037186	4.4627e-05	1114.4	2.8775e-06	2.2911e-06	1176.1	231.85	7.9715e-06	2.8157e-06	288.45	80.967	63.776	18.153	3.8283e-06	25.796	0.00026207	0.00018267	4.6402e-05	1101.5	2.0237e-06	1.7501e-06	1164	230.51	2.3578e-06	2.0472e-06	288.16	81.299	63.667	18.39	2.0253e-06	26.207	-2.294	-93.550	-59.714	-162.779	-37.684	-14.992	-163.138	-156.323	-37.637	-3.733	-156.651	-149.542	-149.333	-142.345	-26.050	-142.904	-8191	255	
18173.053	1	1	0	0	0.17226	0.20145	0.081779	0.077996	0.083882	0.11211	0.32923	0.16797	0.14888	0.12045	0.10234	0.157	0.32156	0.023162	0.12019	0.12444	-2.3458	-2.9625	-3.1188	-2.9354	-3.0875	-2.9604	-3.0333	-3.0646	-2.8458	-2.9521	-3.2104	-2.8458	-2.8521	-3.1583	-2.7229	-3.0021	87.075	63.399	167.040	72.284	128.673	-79.493	108.330	173.367	68.815	175.496	5.338	-126.931	89.301	79.786	162.657	30.378	0.00066789	0.00046252	8.6486e-05	1105.9	3.9051e-06	2.0737e-06	1168.1	231.29	5.7916e-06	2.8121e-06	289.86	81.459	63.804	18.239	4.2298e-06	25.766	0.0002618	0.00018777	4.8525e-05	1098.8	2.1071e-06	1.8486e-06	1162	230.2	2.1994e-06	1.9775e-06	289.26	81.344	63.587	18.423	2.0567e-06	26.251	1.663	-81.329	-101.384	-163.272	-49.026	-10.935	-163.130	-156.197	-42.615	-30.640	-156.262	-150.025	-149.942	-142.489	-9.003	-142.957	-8191	255	
18173.146	1	1	0	0	0.051631	0.23138	0.060188	0.10928	0.26355	0.27007	0.34403	0.29953	0.092639	0.01551	0.10458	0.3995	0.095827	0.092695	0.30114	0.0971	-2.5021	-2.8271	-3	-2.8542	-2.8854	-3.1	-2.9583	-3.1458	-3.1813	-2.8583	-3.0958	-2.9646	-2.8417	-3.0875	-2.8312	-3.0771	3.854	19.006	-2.388	180.822	102.970	-144.631	118.292	134.532	19.138	142.585	53.938	167.314	-94.618	177.245	-2.625	57.941	0.00061511	0.00035777	5.8797e-05	1113.5	3.3898e-06	3.6176e-06	1174.6	230.98	5.4151e-06	3.4301e-06	289.72	80.966	64.196	18.226	2.9461e-06	25.787	0.00025638	0.0001905	4.5229e-05	1102.6	2.1618e-06	1.8827e-06	1163.2	230.18	2.4137e-06	2.0999e-06	289.5	81.265	63.737	18.413	1.984e-06	26.221	-3.203	-91.028	-75.163	-163.166	-65.571	-29.659	-163.123	-156.203	-34.143	-47.726	-156.325	-149.695	-149.586	-142.235	-22.973	-142.807	-8191	255	
18173.242	1	1	0	0	0.24547	0.31173	0.16511	0.25087	0.15997	0.25509	0.2787	0.17564	0.093917	0.084349	0.16875	0.1256	0.31594	0.16588	0.28469	0.038868	-2.4562	-2.7375	-3.0292	-2.9667	-2.9458	-2.9833	-2.8104	-2.9875	-3.0354	-2.8021	-3.1083	-2.9583	-2.8583	-2.9604	-2.6729	-2.8167	33.081	15.519	142.098	144.558	45.341	-79.898	102.530	-145.705	-62.797	100.602	152.534	182.907	144.828	154.717	-163.263	151.014	0.00062669	0.00038423	0.00010133	1112	3.9625e-06	3.5172e-06	1175.5	232.16	7.0121e-06	3.9055e-06	289.37	80.6	64.072	18.214	2.9602e-06	25.764	0.00025855	0.00018972	4.7047e-05	1100.7	2.1851e-06	1.9552e-06	1164.8	230.61	2.2072e-06	1.9704e-06	288.85	81.151	63.719	18.387	2.0236e-06	26.207	2.180	-89.415	-78.537	-163.047	-33.984	-55.074	-163.187	-156.494	-31.146	-31.171	-156.067	-149.500	-149.741	-142.326	-17.847	-143.335	-8191	255	
18173.338	1	1	0	0	0.058737	0.2138	0.17944	0.043737	0.058876	0.0723	0.16964	0.10574	0.21705	0.099889	0.089033	0.094457	0.2009	0.22214	0.1805	0.13842	-2.4562	-2.6417	-2.9833	-2.9479	-2.7604	-3.1104	-2.9458	-3.0167	-2.9437	-2.8042	-3.3417	-2.8438	-2.9562	-3.1479	-3.0146	-3.0438	-138.493	154.791	-54.114	-70.860	-170.533	-133.557	-162.664	91.462	15.259	-110.890	182.532	-103.262	-133.349	-87.106	53.304	182.642	0.00062049	0.00042864	7.9055e-05	1116.2	3.6115e-06	1.808e-06	1173.2	232.6	8.0998e-06	2.9031e-06	289.56	80.64	63.633	18.143	2.2591e-06	25.713	0.0002525	0.00019763	4.7399e-05	1100.7	2.3113e-06	1.9327e-06	1163.8	230.66	2.2956e-06	1.9977e-06	288.42	81.132	63.65	18.422	1.9409e-06	26.201	6.571	-79.551	-101.768	-162.997	-41.083	-42.817	-163.085	-155.986	-37.872	-20.369	-156.258	-150.046	-149.416	-142.578	-33.320	-143.049	-8191	255	
18173.436	1	1	0	0	0.040393	0.14786	0.2299	0.26592	0.29975	0.14749	0.16843	0.10084	0.034708	0.092709	0.2279	0.074401	0.1134	0.046109	0.19989	0.17203	-2.7292	-2.8208	-2.9417	-3.1	-2.7938	-3.1646	-3.0875	-3.0708	-3.2021	-2.8396	-3.1104	-2.9875	-2.5167	-3.0896	-2.9854	-2.9979	-49.454	-27.200	-34.529	172.850	146.317	171.906	54.081	112.800	-83.306	6.888	184.269	-28.738	143.146	88.875	162.427	-157.489	0.00066812	0.00035833	8.9631e-05	1109.9	2.7565e-06	2.7674e-06	1168.4	231.34	7.2192e-06	4.108e-06	290.02	81.129	64.062	18.161	3.1785e-06	25.808	0.00026037	0.00019651	4.4514e-05	1100	2.0838e-06	1.8407e-06	1161.9	230.49	2.1957e-06	2.0796e-06	289.01	81.392	63.754	18.408	1.9182e-06	26.201	4.487	-94.099	-84.253	-163.205	-56.524	2.493	-163.351	-156.118	-35.406	-22.403	-156.369	-149.584	-149.454	-142.657	-38.064	-142.855	-8191	255	
18173.555	1	1	0	0	0.19567	0.10232	0.11893	0.31828	0.16565	0.25402	0.27094	0.30846	0.20552	0.038538	0.16446	0.060202	0.090405	0.1365	0.14581	0.079976	-2.7562	-2.8	-2.9479	-3.1063	-2.7375	-3.2521	-3.0438	-2.8896	-3.0583	-2.5896	-3.2	-2.8604	-2.8167	-2.9	-2.9125	-2.9146	55.646	-110.519	-146.876	153.335	-88.332	-70.776	108.490	-93.696	17.504	70.382	-137.300	-126.104	139.146	-159.994	73.794	-107.515	0.00058621	0.00032861	7.9982e-05	1120.3	2.2723e-06	3.5616e-06	1173.8	232.12	6.9055e-06	2.1223e-06	289.77	81.352	63.612	18.165	3.5168e-06	25.709	0.00024937	0.00018458	4.7716e-05	1103	2.2986e-06	1.9468e-06	1164.3	230.71	2.0875e-06	1.7831e-06	289.26	81.261	63.59	18.386	2.0018e-06	26.15	5.212	-78.297	-74.206	-163.343	-24.310	-19.280	-163.221	-156.037	-62.673	-9.598	-156.406	-150.120	-149.260	-142.394	-23.214	-142.922	-8191	255	
18173.650	1	1	0	0	0.25001	0.11228	0.067949	0.24247	0.17528	0.19557	0.306	0.22221	0.18001	0.12587	0.24821	0.062356	0.10729	0.16459	0.16154	0.091417	-2.6771	-2.875	-2.9958	-3.0333	-2.6375	-3.0646	-3.0354	-2.9292	-3.0896	-2.7292	-3.0583	-3.2167	-2.8	-3.1604	-3.0021	-2.5917	-131.629	-160.997	88.727	108.274	-16.617	85.595	82.628	90.951	65.595	-96.592	108.340	-125.817	101.155	-136.488	-123.433	140.963	0.00062565	0.00044353	7.3869e-05	1109.7	4.3546e-06	2.3865e-06	1171.9	231.44	4.3753e-06	3.6773e-06	289.75	81.554	63.582	18.17	2.5127e-06	25.738	0.000253	0.00019457	4.5347e-05	1099.1	2.2363e-06	1.8533e-06	1161.3	230.71	2.0418e-06	2.0937e-06	288.64	81.214	63.565	18.389	1.9861e-06	26.25	2.274	-84.240	-83.316	-162.873	-42.887	-10.993	-163.058	-155.848	-32.800	-16.237	-156.158	-150.333	-149.616	-142.367	-19.216	-143.014	-8191	255	
18173.746	1	1	0	0	0.23378	0.23674	0.13652	0.16385	0.30179	0.067892	0.22094	0.16626	0.27193	0.044031	0.32157	0.18839	0.18529	0.093693	0.098739	0.27273	-2.7	-3.0167	-2.9854	-3.2729	-2.7438	-3.0312	-3.1063	-2.95	-3.1375	-2.8167	-3.0167	-3.1646	-2.6167	-3.0729	-2.8979	-2.6917	-114.244	174.905	62.146	84.371	143.377	-161.097	51.337	43.623	28.769	-103.783	182.538	49.960	-73.725	-74.638	19.162	-165.947	0.00063961	0.00033202	7.7465e-05	1111.2	4.831e-06	3.4514e-06	1169.2	232	5.5286e-06	2.4479e-06	290.47	80.597	64.042	18.215	2.8986e-06	25.701	0.00024783	0.00017811	5.0038e-05	1098.6	2.2312e-06	1.8781e-06	1160.3	230.33	2.1648e-06	1.8829e-06	289.09	81.23	63.703	18.407	1.8956e-06	26.215	3.659	-75.225	-102.473	-163.014	-46.478	-11.418	-163.232	-156.081	-34.535	-52.373	-156.334	-150.015	-149.325	-142.308	-21.279	-143.211	-8191	255	
18173.844	1	1	0	0	0.094578	0.18616	0.14882	0.185	0.16141	0.14174	0.19896	0.28305	0.067825	0.26006	0.22211	0.16738	0.036137	0.35059	0.086195	0.23897	-2.6521	-2.7458	-2.775	-3.225	-2.8583	-3.0979	-2.9896	-2.8667	-3.2313	-3.0125	-2.9167	-3.0687	-2.6792	-2.8667	-2.8625	-2.7833	172.475	-140.127	78.617	141.219	75.217	-91.919	142.320	-135.053	13.557	136.469	-157.065	61.508	98.280	-151.540	-172.959	158.131	0.00067144	0.00040339	9.6409e-05	1112.4	3.9553e-06	2.7077e-06	1170	231.37	4.3978e-06	4.1321e-06	288.94	80.995	63.476	18.2	4.1133e-06	25.749	0.00025663	0.00019312	4.6625e-05	1099.2	2.1948e-06	1.8323e-06	1160	230.48	2.0657e-06	2.1032e-06	288.05	81.226	63.492	18.433	1.8878e-06	26.297	4.626	-67.089	-68.083	-163.161	-14.946	-7.526	-163.131	-155.948	-31.053	-43.598	-156.361	-149.924	-149.406	-142.129	-36.969	-143.192	-8191	255	
18173.914	1	1	0	0	0.1355	0.20802	0.20759	0.29927	0.22379	0.24504	0.26797	0.22559	0.035024	0.21686	0.13017	0.12227	0.23869	0.10927	0.12354	0.14754	-2.6813	-2.8146	-2.8083	-3.1813	-2.7021	-3.1083	-3.1271	-2.9021	-3.0563	-2.8229	-2.95	-3.1333	-3.0187	-2.8708	-3.0542	-2.9833	164.170	133.365	-12.581	115.841	162.088	-130.430	141.087	85.609	15.920	-141.574	-162.691	184.609	-123.521	152.914	77.050	43.902	0.00059374	0.00046081	7.7567e-05	1111.2	4.1276e-06	3.2491e-06	1169	232.09	6.3422e-06	2.9859e-06	290.63	81.071	63.501	18.256	3.1653e-06	25.828	0.00024491	0.00018346	4.8619e-05	1098.5	2.2219e-06	1.851e-06	1162	231.03	2.1422e-06	1.8603e-06	288.91	81.23	63.522	18.427	1.923e-06	26.251	3.352	-69.370	-94.185	-163.044	-49.384	-22.994	-163.350	-156.030	-48.109	-7.563	-155.914	-150.000	-149.500	-142.250	-42.869	-143.264	-8191	255	
18174.033	1	1	0	0	0.12686	0.062815	0.13732	0.19078	0.11184	0.27672	0.29168	0.29196	0.18531	0.025962	0.23634	0.029654	0.33971	0.20467	0.1165	0.29507	-2.6104	-2.9833	-2.7938	-3.0958	-2.9375	-2.825	-3.1583	-2.8438	-3.0167	-3.0083	-2.6917	-3.1437	-2.9646	-2.9583	-3.1396	-2.6688	118.174	45.485	146.925	-72.928	-87.017	178.729	153.251	101.771	-12.395	146.603	113.238	-9.457	145.440	-125.269	-29.372	134.992	0.00062907	0.00052137	7.4442e-05	1115.7	3.5753e-06	3.1761e-06	1169.1	231.9	5.8224e-06	2.3546e-06	290.23	81.083	63.918	18.241	3.7288e-06	25.769	0.00024992	0.00018852	5.0719e-05	1100.6	2.3388e-06	1.8795e-06	1160.9	230.73	2.1072e-06	1.8697e-06	288.91	81.072	63.64	18.384	1.903e-06	26.178	1.457	-88.865	-67.509	-163.375	-44.099	-7.082	-163.267	-156.366	-26.076	-35.855	-156.269	-149.796	-149.451	-142.173	-48.013	-142.884	-8191	255	
18174.131	1	1	0	0	0.050594	0.18976	0.2329	0.13522	0.1644	0.062366	0.093251	0.18068	0.015614	0.12133	0.22568	0.22072	0.20358	0.21861	0.098935	0.17096	-2.5208	-2.9854	-2.6583	-3.2042	-2.8667	-2.8771	-3.1896	-2.9604	-3.0146	-2.9646	-2.6437	-3.1875	-2.8063	-2.8417	-3.0917	-2.8458	-3.510	45.729	119.241	-64.069	-94.252	-173.512	-17.343	109.700	55.700	98.178	121.006	67.016	174.698	120.469	101.020	-107.379	0.00063986	0.00031284	7.9609e-05	1111	2.7218e-06	2.6225e-06	1172.1	231.69	6.4298e-06	3.1244e-06	289.82	80.95	63.413	18.145	3.3337e-06	25.627	0.0002629	0.00017998	5.0249e-05	1100.5	2.2478e-06	1.9785e-06	1160.7	230.21	2.2874e-06	1.8504e-06	288.12	81.106	63.489	18.436	1.8273e-06	26.151	4.466	-76.573	-79.165	-163.098	-14.774	-19.687	-163.366	-156.441	-30.929	-28.720	-156.375	-149.664	-149.794	-141.950	0.242	-142.868	-8191	255	
18174.227	1	1	0	0	0.14091	0.059327	0.13981	0.069266	0.19015	0.15902	0.068409	0.35088	0.18467	0.051891	0.11627	0.39938	0.10468	0.29979	0.0088266	0.091532	-2.3312	-3.0896	-2.7938	-3.1958	-2.9292	-2.9313	-3.2292	-3.0333	-2.8271	-3.0604	-2.8708	-3.0312	-2.8688	-2.8396	-3.1583	-2.9667	-160.575	-156.347	-14.775	-148.131	173.426	20.815	120.496	-163.016	-156.018	-171.450	40.967	138.633	-110.381	120.316	-65.432	-42.819	0.00067828	0.00029155	6.6252e-05	1110.4	4.1247e-06	3.2827e-06	1174.3	232.03	6.3649e-06	3.0172e-06	286.88	81.79	63.746	18.29	2.9327e-06	25.883	0.000269	0.00018164	4.7036e-05	1101.2	2.1741e-06	1.8641e-06	1162.7	230.65	2.3845e-06	1.9352e-06	287.82	81.266	63.642	18.434	1.9552e-06	26.274	4.077	-79.667	-87.820	-163.141	-49.734	-23.371	-163.202	-156.168	-33.926	-15.813	-156.445	-150.091	-149.792	-142.006	-37.192	-142.711	-8191	255	
18174.324	1	1	0	0	0.12971	0.13709	0.15902	0.10287	0.12032	0.19977	0.10199	0.12996	0.13547	0.059234	0.22449	0.21619	0.20907	0.27332	0.070856	0.14586	-2.5208	-2.9979	-2.8792	-3.0021	-3.1125	-2.8375	-3.2771	-2.8	-2.9854	-3.2375	-2.9521	-3.1458	-2.9792	-2.8917	-3.0229	-2.8875	121.261	-80.519	161.579	-95.369	60.878	-34.528	-37.356	-86.947	-172.881	155.301	-134.618	130.871	-58.725	77.012	-49.833	-120.989	0.00067145	0.00044945	8.5636e-05	1109.9	3.0978e-06	2.7617e-06	1177.7	230.97	3.8572e-06	1.9893e-06	288.59	80.668	63.903	18.219	4.6945e-06	25.828	0.00026515	0.00018561	4.8924e-05	1098	2.3054e-06	1.9991e-06	1164.6	230.41	2.3923e-06	1.9008e-06	288.64	81.114	63.667	18.375	2.0958e-06	26.284	2.480	-80.875	-86.424	-163.024	-50.044	-24.392	-163.468	-156.176	-17.909	-36.984	-156.017	-150.011	-149.681	-142.602	-4.679	-143.420	-8191	255	
18174.443	1	1	0	0	0.12346	0.15883	0.11903	0.27679	0.094538	0.1448	0.26394	0.25225	0.14062	0.04384	0.028881	0.10667	0.29487	0.2717	0.01515	0.06218	-2.3854	-3.1083	-2.7521	-3.0146	-2.8896	-2.9062	-3.2708	-3.2104	-2.7438	-3.1271	-2.9729	-3.0396	-3.0125	-2.8146	-3.1458	-2.9437	121.335	-74.096	86.891	-169.987	102.535	-113.938	161.234	-169.579	166.854	-49.292	-69.735	-17.220	27.472	-40.464	-50.426	-130.606	0.00063757	0.00041362	0.0001252	1114.7	4.0589e-06	3.3565e-06	1169.8	231.79	6.307e-06	3.4448e-06	287.63	81.308	63.868	18.21	3.7311e-06	25.947	0.00025476	0.0001893	5.4144e-05	1100.1	2.4083e-06	1.9715e-06	1162.9	230.1	2.3022e-06	1.9046e-06	288.18	81.257	63.693	18.389	1.9322e-06	26.238	1.276	-95.606	-59.374	-163.166	-28.268	-6.246	-163.274	-156.283	-26.113	-25.071	-156.392	-149.833	-149.236	-142.348	-14.773	-142.871	-8191	255	
18174.539	1	1	0	0	0.15522	0.22621	0.15712	0.2263	0.23248	0.14189	0.30679	0.14356	0.32978	0.051627	0.24717	0.15937	0.14983	0.3211	0.10393	0.33519	-2.2792	-3.0229	-2.8833	-3.1146	-3.0417	-2.7479	-3.1542	-2.9958	-2.8042	-3.1375	-3.0104	-2.9021	-3.1437	-2.9396	-3.0792	-2.9396	-97.085	-73.766	89.232	76.579	54.748	-133.004	83.859	-83.154	7.417	-146.532	116.423	163.978	-125.139	-152.472	13.217	145.688	0.00067343	0.00040714	6.7781e-05	1112.9	3.7449e-06	3.9284e-06	1173	230.72	5.7365e-06	1.8808e-06	288.51	81.015	63.698	18.228	3.391e-06	25.937	0.00026991	0.00019071	4.8994e-05	1101.1	2.2512e-06	2.0575e-06	1162.1	230.24	2.3874e-06	2.0312e-06	288.87	81.326	63.561	18.386	2.0819e-06	26.266	1.723	-83.035	-77.587	-163.095	-33.074	-30.596	-163.131	-156.483	-28.121	-46.721	-156.148	-149.715	-149.503	-142.555	-27.757	-142.924	-8191	255	
18174.637	1	1	0	0	0.073003	0.13972	0.1835	0.12847	0.26491	0.32795	0.37238	0.063868	0.26749	0.12739	0.17274	0.33355	0.27393	0.11934	0.52632	0.1402	-2.4292	-3.0896	-2.7667	-3.0438	-3.1542	-2.7125	-3.2146	-3.1854	-2.6958	-3.1375	-2.975	-2.6917	-3.0625	-3.0021	-2.9625	-3.0625	-57.270	41.449	-119.115	113.117	-36.922	-44.962	88.939	172.114	-124.960	70.043	-110.898	97.597	-152.525	137.221	51.450	-11.268	0.00063114	0.00045558	9.14e-05	1112.9	3.3145e-06	3.1902e-06	1177.6	233.35	5.7424e-06	4.0759e-06	287.89	81.815	64.062	18.309	3.608e-06	25.947	0.00026587	0.00020037	4.6801e-05	1100.5	2.288e-06	1.8458e-06	1163.3	230.67	2.2492e-06	1.9013e-06	288.57	81.526	63.694	18.458	1.8299e-06	26.174	6.790	-77.196	-79.107	-163.117	-43.848	-28.025	-163.157	-156.217	-31.792	-28.453	-155.892	-149.889	-149.472	-142.124	-28.672	-143.359	-8191	255	
18174.732	1	1	0	0	0.19339	0.25165	0.15911	0.3676	0.15451	0.13436	0.18175	0.25306	0.13841	0.15038	0.22597	0.075479	0.11078	0.096602	0.11483	0.15837	-2.425	-2.9875	-2.9313	-3.0271	-3.0833	-2.6333	-3.2188	-3.0042	-2.65	-3.1625	-3.0625	-2.8187	-2.8125	-2.9354	-2.9125	-3.1229	179.888	-108.931	-54.116	126.999	130.645	10.463	118.738	116.174	167.152	-41.100	72.670	-100.547	180.664	-57.491	-24.577	-161.420	0.0006851	0.00025951	0.00010085	1111.7	4.3951e-06	2.9449e-06	1169.8	232.35	4.6503e-06	3.1497e-06	287.95	81.202	63.495	18.058	4.5406e-06	25.717	0.00025206	0.00015619	4.4783e-05	1096.9	2.0478e-06	1.7524e-06	1158.8	230.06	2.0973e-06	1.8947e-06	286.92	81.003	63.272	18.267	1.8277e-06	26.084	0.366	-73.527	-78.516	-162.982	-46.231	-5.770	-163.240	-156.175	-17.335	-33.449	-156.457	-150.038	-149.535	-142.392	3.517	-142.611	-8191	255	
18174.828	1	1	0	0	0.10433	0.25125	0.043013	0.2843	0.18674	0.16685	0.13794	0.35572	0.10876	0.24549	0.24512	0.25384	0.19936	0.19786	0.17722	0.10753	-2.4896	-2.9	-2.9792	-2.8146	-2.9667	-2.9542	-3.2125	-3.2812	-2.7396	-2.9313	-3.0292	-2.7958	-3.1333	-2.8854	-2.7771	-3.1625	-157.256	-64.029	-135.677	152.236	58.842	63.292	147.389	135.377	-145.031	-20.144	135.388	135.474	145.976	-132.412	116.871	-70.417	0.00065993	0.00035884	5.068e-05	1095.3	3.2361e-06	3.0749e-06	1150.8	229.08	5.2155e-06	2.8085e-06	287.88	80.149	62.481	17.916	3.6574e-06	25.552	0.0002445	0.00016278	3.9658e-05	1082.2	1.8517e-06	1.4903e-06	1143.3	227.59	1.8246e-06	1.4932e-06	285.42	80.272	62.496	18.146	1.5104e-06	25.882	-2.500	-68.990	-78.302	-162.963	-38.132	-11.255	-163.067	-155.952	-37.585	-25.351	-156.513	-149.917	-149.592	-142.286	-25.778	-142.841	-8191	255	
18174.924	1	1	0	0	0.17543	0.25931	0.16888	0.40934	0.19101	0.0347	0.10792	0.21433	0.096328	0.155	0.29216	0.28621	0.20928	0.11304	0.38796	0.092091	-2.3521	-2.8792	-2.8937	-2.8208	-3.0854	-2.9354	-2.8625	-3.1188	-2.6292	-2.9938	-2.9188	-2.6708	-2.9583	-2.8708	-2.7958	-3.1937	-20.786	146.432	-46.687	167.179	141.685	149.078	-156.816	-146.745	-25.798	-162.308	76.606	-173.527	175.360	-124.338	-173.593	91.140	0.00066165	0.00027756	6.8557e-05	1077	4.1563e-06	3.053e-06	1140.3	227.06	4.1217e-06	4.4383e-06	283.95	79.601	62.482	17.889	3.5784e-06	25.26	0.00023617	0.0001339	3.6784e-05	1065.5	1.7044e-06	1.5889e-06	1128.6	224.93	1.7411e-06	1.61e-06	282.72	79.688	62.203	18.057	1.432e-06	25.686	5.207	-76.221	-70.036	-162.805	-36.402	-14.277	-162.967	-155.730	-40.697	-31.138	-156.331	-149.814	-149.149	-142.028	-46.774	-142.843	-8191	255	
18175.043	1	1	0	0	0.13183	0.094382	0.081753	0.29249	0.14135	0.20236	0.29059	0.31675	0.038877	0.377	0.051997	0.23758	0.23285	0.19962	0.15522	0.037299	-2.3271	-2.8312	-2.8604	-2.9542	-2.8958	-2.8688	-2.8521	-3.0312	-2.8125	-2.9833	-3.0812	-2.7125	-3.2021	-2.8396	-2.7396	-3.1979	-152.164	79.965	-24.122	-154.462	-83.544	-101.143	99.453	145.925	-5.100	-49.853	175.443	166.845	-133.981	-124.578	-109.488	149.655	0.00059724	0.00027079	8.1993e-05	1071.2	2.814e-06	2.7227e-06	1132.8	224.86	7.6554e-06	1.9311e-06	281.18	79.088	62.073	17.786	3.1078e-06	25.277	0.00020688	0.00013995	3.2209e-05	1058.6	1.8344e-06	1.4557e-06	1122.9	223.66	1.7736e-06	1.3361e-06	280.43	79.403	61.919	17.971	1.4791e-06	25.684	3.894	-78.213	-92.554	-162.912	-49.335	-0.047	-163.029	-156.008	-36.163	-54.256	-155.987	-149.700	-149.172	-141.749	-35.031	-142.872	-8191	255	
18175.139	1	1	0	0	0.22913	0.038427	0.22572	0.21561	0.14891	0.17769	0.12523	0.15109	0.11491	0.021275	0.30117	0.099351	0.13102	0.082488	0.27646	0.14909	-2.4292	-2.7333	-2.825	-2.725	-3.0521	-2.9458	-2.9562	-3.1021	-2.8896	-3.0042	-3.0708	-2.8708	-2.7979	-3.0208	-2.7625	-3.1	95.476	-17.379	126.282	162.741	9.010	57.073	60.816	133.534	128.280	-45.598	159.862	127.101	136.432	-94.476	172.162	5.460	0.00066611	0.00036687	9.0334e-05	1068.6	3.1158e-06	3.65e-06	1130.3	225.59	8.2318e-06	2.9527e-06	281.16	79.591	62.358	17.842	3.4627e-06	25.314	0.000225	0.00013323	3.4872e-05	1059.2	1.6264e-06	1.2983e-06	1121.8	224.04	1.7797e-06	1.5441e-06	280.97	79.479	62.068	18.009	1.5174e-06	25.667	5.246	-65.764	-87.783	-163.200	-50.125	-42.316	-163.054	-155.877	-51.251	-12.641	-156.467	-149.730	-149.557	-142.012	-10.343	-142.766	-8191	255	
18175.211	1	1	0	0	0.18932	0.056518	0.073597	0.1537	0.21492	0.10259	0.21798	0.16487	0.21444	0.10763	0.21809	0.050288	0.16573	0.071079	0.12876	0.43554	-2.3375	-2.5583	-3.1729	-2.9646	-3.0708	-2.9333	-3.0479	-3.1292	-2.8896	-2.9833	-3.1562	-2.8937	-2.9458	-2.9729	-2.7562	-3.0479	47.013	-15.964	26.908	-128.370	67.236	3.653	61.010	-164.956	102.740	119.923	38.387	176.456	-101.263	-90.950	-165.673	106.441	0.00065771	0.00039562	5.5871e-05	1065.6	2.9575e-06	3.6162e-06	1134.5	225.07	5.1313e-06	3.1825e-06	281.79	79.161	61.953	17.838	3.5825e-06	25.354	0.00022814	0.00014944	3.6174e-05	1053.4	1.7361e-06	1.3847e-06	1122.2	223.11	1.8011e-06	1.5285e-06	280.14	79.329	61.868	18.007	1.5291e-06	25.707	1.673	-94.546	-68.241	-162.848	-41.892	-27.553	-163.004	-156.081	-27.281	-17.623	-156.181	-150.034	-149.631	-142.229	-31.825	-142.954	-8191	255	
18175.330	1	1	0	0	0.12552	0.14134	0.38609	0.37954	0.21771	0.089217	0.15762	0.13859	0.28118	0.1113	0.28608	0.0892	0.23285	0.39852	0.18144	0.052645	-2.6479	-2.8438	-3	-2.9604	-2.8375	-2.9875	-3.0521	-3.1979	-3.0042	-2.7229	-3.2938	-2.9062	-2.9625	-3.1562	-2.7979	-2.975	41.634	-22.263	-122.790	150.997	49.322	-66.523	70.168	114.583	87.059	-117.405	-156.099	-168.431	94.601	151.599	-65.146	158.625	0.00067142	0.00030792	5.0909e-05	1067.3	3.167e-06	1.8812e-06	1124.2	226.25	4.5713e-06	3.547e-06	281.92	79.155	62.652	17.914	3.3598e-06	25.36	0.00022627	0.00014376	2.9781e-05	1054.6	1.6425e-06	1.4674e-06	1118.9	224.3	1.7797e-06	1.505e-06	280.93	79.286	62.025	18.009	1.4791e-06	25.707	6.458	-89.078	-81.319	-162.971	-67.533	-19.975	-162.780	-155.946	-37.635	-21.500	-156.196	-149.917	-149.346	-142.121	-36.373	-143.125	-8191	255	
18175.428	1	1	0	0	0.28889	0.12004	0.14612	0.036958	0.14254	0.22508	0.40359	0.15521	0.33111	0.079867	0.16355	0.17646	0.34829	0.3443	0.25719	0.084361	-2.5625	-2.7562	-3.0104	-2.8646	-2.8104	-3.0333	-2.9208	-3	-2.9667	-2.6167	-3.0208	-3	-2.7958	-3.2083	-2.8354	-3.0229	30.860	156.319	-55.885	158.262	153.330	160.351	100.931	147.084	170.376	-118.580	169.759	145.113	166.965	103.598	89.980	18.915	0.0006417	0.00036557	9.3187e-05	1066.1	2.4628e-06	3.413e-06	1125.5	225.09	4.9634e-06	2.9077e-06	280.24	79.16	62.318	17.819	3.5193e-06	25.187	0.00021598	0.00013609	3.5588e-05	1053.8	1.7556e-06	1.1965e-06	1117.6	223.25	1.6288e-06	1.3747e-06	280.37	79.347	62.073	18.005	1.402e-06	25.695	5.947	-86.739	-64.879	-163.018	-26.313	-24.402	-162.987	-155.899	-49.798	-18.499	-156.144	-149.962	-149.458	-141.868	-38.235	-142.338	-8191	255	
#DATA ENDS
