BOXY.EXE: ISS Imagent and Oximeter Data Acquisition Program Version 0.80
Ascii Record File

#ACQ INFORMATION
2  Detector Channels 
16  External MUX Channels 
1  Auxiliary Channels 
5000  Waveform (CCF) Frequency (Hz)
1  Waveforms Skipped 
30  Waveforms Averaged 
1  Cycles Averaged 
16  Acquisitions per Waveform 
10.0806  Updata Rate (Hz) 

#FILE INFORMATION
TRUE -- External MUX Channel results are PARSED.
FALSE -- AC DC and Phase are NOT grouped.
TRUE -- Companion Program Settings File CREATED.
FALSE -- AC data not excluded
FALSE -- DC data not excluded
FALSE -- Phase data not excluded
FALSE -- Auxillary Chn. data not excluded
Tab delimiters

#CALIBRATION STATE
TRUE -- Waveform Calibration Values APPLIED.


#AUX CALIBRATION VALUES
Val Type	aux-1	

Term	1.0000e+00	
Factor	0.0000e+00	


#WF CALIBRATION VALUES
A = Detector Channel
Val Type	A-AC1	A-AC2	A-AC3	A-AC4	A-AC5	A-AC6	A-AC7	A-AC8	A-AC9	A-AC10	A-AC11	A-AC12	A-AC13	A-AC14	A-AC15	A-AC16	A-DC1	A-DC2	A-DC3	A-DC4	A-DC5	A-DC6	A-DC7	A-DC8	A-DC9	A-DC10	A-DC11	A-DC12	A-DC13	A-DC14	A-DC15	A-DC16	A-Ph1	A-Ph2	A-Ph3	A-Ph4	A-Ph5	A-Ph6	A-Ph7	A-Ph8	A-Ph9	A-Ph10	A-Ph11	A-Ph12	A-Ph13	A-Ph14	A-Ph15	A-Ph16	

Term	0.00000e+00	0.00000e+00	0.00000e+00	0.00000e+00	0.00000e+00	0.00000e+00	0.00000e+00	0.00000e+00	0.00000e+00	0.00000e+00	0.00000e+00	0.00000e+00	0.00000e+00	0.00000e+00	0.00000e+00	0.00000e+00	0.00000e+00	0.00000e+00	0.00000e+00	0.00000e+00	0.00000e+00	0.00000e+00	0.00000e+00	0.00000e+00	0.00000e+00	0.00000e+00	0.00000e+00	0.00000e+00	0.00000e+00	0.00000e+00	0.00000e+00	0.00000e+00	0.00000e+00	0.00000e+00	0.00000e+00	0.00000e+00	0.00000e+00	0.00000e+00	0.00000e+00	0.00000e+00	0.00000e+00	0.00000e+00	0.00000e+00	0.00000e+00	0.00000e+00	0.00000e+00	0.00000e+00	0.00000e+00	
Factor	1.00000e+00	1.00000e+00	1.00000e+00	1.00000e+00	1.00000e+00	1.00000e+00	1.00000e+00	1.00000e+00	1.00000e+00	1.00000e+00	1.00000e+00	1.00000e+00	1.00000e+00	1.00000e+00	1.00000e+00	1.00000e+00	1.00000e+00	1.00000e+00	1.00000e+00	1.00000e+00	1.00000e+00	1.00000e+00	1.00000e+00	1.00000e+00	1.00000e+00	1.00000e+00	1.00000e+00	1.00000e+00	1.00000e+00	1.00000e+00	1.00000e+00	1.00000e+00	X	X	X	X	X	X	X	X	X	X	X	X	X	X	X	X	

B = Detector Channel
Val Type	B-AC1	B-AC2	B-AC3	B-AC4	B-AC5	B-AC6	B-AC7	B-AC8	B-AC9	B-AC10	B-AC11	B-AC12	B-AC13	B-AC14	B-AC15	B-AC16	B-DC1	B-DC2	B-DC3	B-DC4	B-DC5	B-DC6	B-DC7	B-DC8	B-DC9	B-DC10	B-DC11	B-DC12	B-DC13	B-DC14	B-DC15	B-DC16	B-Ph1	B-Ph2	B-Ph3	B-Ph4	B-Ph5	B-Ph6	B-Ph7	B-Ph8	B-Ph9	B-Ph10	B-Ph11	B-Ph12	B-Ph13	B-Ph14	B-Ph15	B-Ph16	

Term	0.00000e+00	0.00000e+00	0.00000e+00	0.00000e+00	0.00000e+00	0.00000e+00	0.00000e+00	0.00000e+00	0.00000e+00	0.00000e+00	0.00000e+00	0.00000e+00	0.00000e+00	0.00000e+00	0.00000e+00	0.00000e+00	0.00000e+00	0.00000e+00	0.00000e+00	0.00000e+00	0.00000e+00	0.00000e+00	0.00000e+00	0.00000e+00	0.00000e+00	0.00000e+00	0.00000e+00	0.00000e+00	0.00000e+00	0.00000e+00	0.00000e+00	0.00000e+00	-1.62352e+02	-1.41008e+02	-1.11495e+02	-1.83984e+02	-1.11418e+02	-7.45502e+01	-1.55811e+02	-1.62015e+02	-8.09347e+01	-4.80968e+01	-1.73154e+02	-1.73613e+02	-1.86815e+02	-1.78292e+02	-6.95269e+01	-1.50256e+02	
Factor	2.31503e-05	1.21955e-04	3.53977e-05	1.73479e-01	9.55770e-07	1.44040e-06	1.63553e-01	5.56841e-02	9.89360e-07	1.12439e-06	9.67085e-02	2.82450e-02	5.57543e-02	8.47876e-03	1.11573e-06	1.21845e-02	1.04864e-06	1.07952e-06	3.00291e-07	8.44363e-02	1.18273e-08	1.18528e-08	7.57509e-02	2.71375e-02	1.18471e-08	1.18386e-08	4.50717e-02	1.32853e-02	2.55029e-02	4.11310e-03	1.18525e-08	5.73167e-03	X	X	X	X	X	X	X	X	X	X	X	X	X	X	X	X	



#DISTANCE SETTINGS
A = Detector Channel
A-1	A-2	A-3	A-4	A-5	A-6	A-7	A-8	A-9	A-10	A-11	A-12	A-13	A-14	A-15	A-16	

2.5000e+00	3.0000e+00	2.5000e+00	3.0000e+00	2.0000e+00	3.0000e+00	1.5000e+00	3.0000e+00	3.0000e+00	3.0000e+00	3.0000e+00	3.0000e+00	3.0000e+00	3.0000e+00	1.5000e+00	3.0000e+00	

B = Detector Channel
B-1	B-2	B-3	B-4	B-5	B-6	B-7	B-8	B-9	B-10	B-11	B-12	B-13	B-14	B-15	B-16	

1.0000e+01	1.0000e+01	1.0000e+01	1.4400e+00	1.0000e+01	1.0000e+01	1.5100e+00	1.9400e+00	1.0000e+01	1.0000e+01	1.9900e+00	2.4900e+00	2.4100e+00	2.9000e+00	1.0000e+01	2.9800e+00	




#DATA BEGINS
time	group	step	mark	flag	A-AC1	A-AC2	A-AC3	A-AC4	A-AC5	A-AC6	A-AC7	A-AC8	A-AC9	A-AC10	A-AC11	A-AC12	A-AC13	A-AC14	A-AC15	A-AC16	A-DC1	A-DC2	A-DC3	A-DC4	A-DC5	A-DC6	A-DC7	A-DC8	A-DC9	A-DC10	A-DC11	A-DC12	A-DC13	A-DC14	A-DC15	A-DC16	A-Ph1	A-Ph2	A-Ph3	A-Ph4	A-Ph5	A-Ph6	A-Ph7	A-Ph8	A-Ph9	A-Ph10	A-Ph11	A-Ph12	A-Ph13	A-Ph14	A-Ph15	A-Ph16	B-AC1	B-AC2	B-AC3	B-AC4	B-AC5	B-AC6	B-AC7	B-AC8	B-AC9	B-AC10	B-AC11	B-AC12	B-AC13	B-AC14	B-AC15	B-AC16	B-DC1	B-DC2	B-DC3	B-DC4	B-DC5	B-DC6	B-DC7	B-DC8	B-DC9	B-DC10	B-DC11	B-DC12	B-DC13	B-DC14	B-DC15	B-DC16	B-Ph1	B-Ph2	B-Ph3	B-Ph4	B-Ph5	B-Ph6	B-Ph7	B-Ph8	B-Ph9	B-Ph10	B-Ph11	B-Ph12	B-Ph13	B-Ph14	B-Ph15	B-Ph16	aux-1	digaux	

5236.469	1	1	0	256	0.23584	0.14436	0.066246	0.21635	0.28677	0.07759	0.26167	0.23164	0.21914	0.16271	0.1388	0.069404	0.062539	0.027813	0.05128	0.12556	-2.9938	-3.1042	-3.7125	-3.3312	-3.5687	-3.7042	-3.375	-3.6875	-3.5187	-3.2521	-3.8458	-3.4396	-3.55	-3.8229	-3.1708	-3.7792	303.151	512.224	328.611	460.921	205.388	439.956	511.585	440.303	472.561	494.084	440.638	370.841	266.391	450.306	396.384	415.327	0.00081333	0.00050561	0.00011745	1515.8	3.5119e-06	8.1896e-06	1488.6	381.73	2.6995e-06	2.0121e-06	427.42	144.26	126.61	42.656	6.9614e-06	53.282	0.00070169	0.00068415	0.00018297	1538.7	7.6988e-06	7.5686e-06	1517.1	390.04	7.7951e-06	7.5134e-06	442.06	148.76	132.26	44.522	7.0084e-06	55.112	521.510	320.098	350.238	182.274	262.670	321.002	182.060	186.820	218.388	440.664	186.417	190.485	190.301	196.158	380.427	195.287	-8191	255	
5236.564	1	1	0	0	0.36858	0.090899	0.16331	0.019165	0.12588	0.15151	0.31626	0.15456	0.10214	0.24254	0.070832	0.10411	0.040644	0.080517	0.15788	0.063204	-3.1146	-3.0354	-3.6875	-3.5	-3.4188	-4	-3.4917	-3.7479	-3.5104	-3.1813	-3.9208	-3.4646	-3.5312	-3.8625	-3.325	-3.5812	329.644	194.826	346.869	193.771	450.255	450.503	448.980	487.928	379.458	358.498	513.396	475.717	446.030	467.689	222.620	505.039	0.00071838	0.00067028	0.00020734	1517.4	3.6559e-06	9.3996e-06	1488.8	381.4	5.5613e-06	5.053e-06	430.65	144.86	126.65	42.872	4.0901e-06	53.016	0.00070596	0.0006753	0.00017536	1540.2	7.6681e-06	7.3633e-06	1513.1	391.14	7.6528e-06	7.3e-06	441.32	149.06	132.05	44.521	6.8092e-06	55.183	524.323	197.492	260.694	182.298	258.331	324.549	181.907	186.652	326.041	293.869	186.519	190.221	190.216	196.140	311.289	195.353	-8191	255	
5236.660	1	1	0	0	0.36612	0.10683	0.027868	0.20569	0.27344	0.22309	0.25855	0.14605	0.11342	0.2259	0.23762	0.13002	0.1273	0.3993	0.12596	0.10145	-3.0396	-3.0563	-3.7792	-3.6354	-3.2083	-3.8729	-3.2896	-3.4625	-3.6896	-3.1896	-3.8792	-3.6167	-3.3792	-3.9854	-3.1625	-3.5833	265.463	213.032	520.857	477.967	253.445	225.661	504.082	372.617	344.051	261.064	525.229	383.397	497.794	511.493	446.840	474.816	0.00077902	0.00059318	0.00013817	1509.4	3.2551e-06	4.4945e-06	1486.8	382.54	3.5029e-06	2.9195e-06	428.69	144.76	125.56	42.954	4.6669e-06	53.075	0.00070077	0.00066458	0.00017323	1540.7	7.6171e-06	7.3264e-06	1514.1	392.04	7.6555e-06	7.2102e-06	440.59	149.49	131.79	44.519	6.985e-06	55.334	520.758	268.361	288.821	182.382	242.861	323.730	181.929	186.870	316.968	419.547	186.720	190.265	190.673	196.021	299.638	195.142	-8191	255	
5236.756	1	1	0	0	0.12491	0.16555	0.34087	0.36944	0.11861	0.019644	0.27878	0.23557	0.14567	0.25008	0.17384	0.091836	0.19567	0.23933	0.15183	0.061665	-3.2229	-2.9792	-3.5729	-3.6083	-3.3167	-3.8438	-3.5	-3.7083	-3.6396	-3.0146	-3.6458	-3.6917	-3.1437	-3.8625	-3.4229	-3.4292	324.460	198.960	398.212	495.317	188.543	422.271	515.027	479.419	260.325	316.449	222.141	524.927	300.433	219.440	527.175	379.731	0.00077798	0.00083884	0.00010553	1512.8	5.5112e-06	7.3135e-06	1492.2	380.49	4.0601e-06	4.3251e-06	429.86	144.02	126.63	42.823	3.5156e-06	52.752	0.00069034	0.00064953	0.00017933	1542.4	7.428e-06	7.0183e-06	1517.3	391.75	7.4104e-06	6.8544e-06	442.27	149.48	131.54	44.288	7.2443e-06	55.254	169.352	285.846	190.976	182.247	280.021	363.670	181.959	186.731	261.946	371.802	186.649	190.221	190.239	195.836	353.020	195.130	-8191	255	
5236.854	1	1	0	0	0.23088	0.13129	0.2465	0.31863	0.024554	0.22789	0.28467	0.091845	0.32889	0.27956	0.35048	0.30602	0.31503	0.155	0.092835	0.10962	-3.3063	-2.9813	-3.4854	-3.7729	-3.0708	-3.9437	-3.5938	-3.4958	-3.8729	-3.225	-3.6354	-3.7062	-3.1813	-3.9125	-3.2521	-3.4708	270.237	388.313	259.804	519.642	411.694	396.190	440.549	396.312	386.890	176.028	464.918	498.028	199.735	184.767	417.942	516.674	0.00088888	0.00034793	0.00017785	1510.2	3.1869e-06	6.8608e-06	1482.4	381.47	3.8315e-06	3.7475e-06	430.42	144.11	125.86	42.864	4.3528e-06	53.135	0.0006755	0.00061866	0.00018575	1539.8	7.1771e-06	6.7307e-06	1513.8	390.74	7.1815e-06	6.6905e-06	442.43	148.91	130.41	44.239	7.4017e-06	55.053	523.355	194.792	190.534	182.418	335.485	290.498	181.977	186.858	425.304	288.723	186.434	190.239	190.368	196.011	247.568	195.357	-8191	255	
5236.973	1	1	0	0	0.16555	0.21166	0.2223	0.18443	0.21307	0.033479	0.34962	0.10586	0.054502	0.061552	0.065836	0.17889	0.15209	0.16157	0.28399	0.099384	-3.4354	-3.1875	-3.2979	-3.8271	-3.0229	-3.6604	-3.5479	-3.5438	-3.7	-3.1479	-3.5521	-3.7042	-3.2938	-3.7875	-3.4521	-3.1937	288.171	230.937	430.806	463.698	512.132	186.458	520.430	290.951	353.816	370.172	200.597	191.482	267.680	491.738	183.749	379.370	0.00061964	0.00054641	0.00013873	1506.5	6.0996e-06	5.2204e-06	1480	380.58	1.0305e-05	5.7369e-06	427.48	144.63	125.19	43.03	3.045e-06	52.632	0.00063908	0.00060051	0.00018562	1531.6	6.8157e-06	6.6422e-06	1511.5	389.41	6.7683e-06	6.6478e-06	440.93	148.53	128.99	44.254	7.4388e-06	54.823	519.565	266.973	226.538	182.383	342.661	325.135	182.112	187.000	315.097	288.723	186.605	190.200	190.649	196.074	337.621	195.463	-8191	255	
5237.069	1	1	0	0	0.083866	0.079491	0.13169	0.027023	0.14129	0.12567	0.34478	0.3393	0.084365	0.19068	0.14935	0.20817	0.30848	0.11113	0.20415	0.21355	-3.3667	-3.1729	-3.4792	-3.8521	-3.1646	-3.5708	-3.8792	-3.3042	-3.7896	-3.2146	-3.3771	-3.7625	-3.1375	-3.6125	-3.5729	-3.1979	514.774	349.738	372.198	523.762	508.951	233.711	469.664	177.557	179.553	328.297	348.360	404.473	479.679	376.010	183.122	453.671	0.00067749	0.0006986	5.7807e-05	1502.1	5.2049e-06	6.1344e-06	1478.1	379.05	7.4087e-06	4.4368e-06	426.62	143.98	125.83	42.675	1.0636e-06	52.616	0.00060965	0.00061859	0.00018683	1527.8	6.5375e-06	6.8487e-06	1509.4	388.65	6.5915e-06	6.9441e-06	440.71	148.24	129.28	44.344	7.4758e-06	54.843	524.427	200.672	361.560	182.259	264.154	269.201	181.962	187.205	295.924	281.248	186.584	190.305	190.084	196.212	351.145	195.337	-8191	255	
5237.141	1	1	0	0	0.33224	0.10309	0.24575	0.066817	0.26751	0.1129	0.20713	0.24645	0.052965	0.14017	0.20039	0.1512	0.12885	0.30597	0.18852	0.13198	-3.2583	-3.2146	-3.3354	-3.9583	-3.1937	-3.6958	-3.9604	-3.1854	-3.7854	-3.3625	-3.5	-3.8667	-3.3	-3.4583	-3.6604	-3.1229	367.473	184.023	419.509	455.300	525.353	241.459	463.592	468.592	326.453	338.829	513.626	526.165	352.821	195.717	423.279	472.368	0.00074318	0.00032524	0.00013601	1503.9	2.2713e-06	9.1464e-06	1482.7	380.75	5.6012e-06	7.1439e-06	429.33	144.42	125.52	42.752	8.5163e-06	52.672	0.00061334	0.00067544	0.00019244	1533.1	6.8089e-06	7.6584e-06	1517.2	390.06	6.9682e-06	7.7882e-06	443.61	148.84	130.17	44.546	7.7364e-06	54.97	521.183	254.214	386.032	182.494	525.959	349.017	182.187	187.023	251.440	357.442	186.880	190.340	190.405	196.008	303.626	195.416	-8191	255	
5237.261	1	1	0	0	0.14376	0.10891	0.071013	0.25554	0.33734	0.041765	0.1649	0.14289	0.18509	0.063081	0.056681	0.18329	0.090795	0.16924	0.13558	0.11637	-3.2625	-3.3083	-3.1625	-4.0104	-3.2	-3.4813	-4.0708	-3.3229	-3.6771	-3.5583	-3.0875	-4.0792	-3.3937	-3.3854	-3.8604	-3.1375	385.442	355.257	451.622	500.971	181.736	419.698	521.746	197.831	242.200	509.718	258.009	452.557	246.077	525.995	330.386	502.819	0.00079296	0.00014742	0.00032068	1509.7	3.8396e-06	3.2357e-06	1480.1	380.93	6.3419e-06	5.7906e-06	429.9	144.09	124.99	42.705	4.314e-06	52.703	0.00065112	0.00071725	0.00019311	1535.2	7.1566e-06	7.8375e-06	1515.9	389.31	7.1759e-06	7.7323e-06	441.68	148.16	130.28	44.51	7.2713e-06	54.643	523.288	411.410	290.659	182.374	463.371	492.239	182.161	186.959	219.213	242.653	186.545	190.352	189.921	196.121	313.269	195.296	-8191	255	
5237.357	1	1	0	0	0.06697	0.27185	0.28462	0.16502	0.084605	0.088269	0.16117	0.22826	0.15464	0.20176	0.15405	0.1023	0.0026347	0.18929	0.12691	0.16459	-3.2708	-3.5375	-3.1271	-3.9583	-3.2833	-3.2771	-3.9458	-3.3438	-3.6437	-3.5417	-3.1146	-3.8708	-3.4979	-3.3979	-3.6333	-3.3229	526.937	226.072	387.975	501.420	361.158	212.645	472.686	463.152	338.007	467.249	386.325	196.906	304.505	169.652	345.542	454.428	0.0007956	0.00095511	0.00027055	1503	4.2322e-06	2.5076e-06	1475.4	379.47	3.1358e-06	9.2377e-06	428.86	144.5	126.11	42.748	5.0438e-06	52.634	0.00065099	0.00069184	0.00018239	1525.2	7.2115e-06	7.5059e-06	1507.7	387.74	7.3211e-06	7.5388e-06	440.48	148.11	130.89	44.445	7.2437e-06	54.72	518.425	225.324	275.094	182.508	214.446	236.189	182.171	186.979	326.670	397.741	186.421	190.160	190.305	196.178	359.308	195.230	-8191	255	
5237.454	1	1	0	0	0.23292	0.10562	0.16108	0.27265	0.20454	0.30874	0.17919	0.22677	0.10567	0.2753	0.27819	0.21395	0.16214	0.062225	0.070172	0.11405	-3.1646	-3.4646	-3.225	-3.9854	-3.3688	-3.1667	-4	-3.25	-3.3688	-3.8208	-3.2896	-3.7396	-3.5062	-3.3271	-3.7792	-3.275	410.570	222.588	272.237	494.153	309.588	450.888	447.748	495.460	210.853	472.630	189.422	221.370	237.849	450.030	452.903	206.767	0.00063863	0.00084022	0.00013183	1506.4	3.4744e-06	1.2286e-05	1483.8	379.96	3.1438e-06	3.467e-06	427.9	143.91	126.31	42.698	3.041e-06	52.917	0.00068953	0.00069407	0.00018444	1532.4	7.7215e-06	7.6556e-06	1511.9	389.42	7.8858e-06	7.7062e-06	441.9	148.48	132.17	44.456	7.1895e-06	54.909	520.985	293.639	293.947	182.344	176.644	255.962	181.889	186.819	177.841	468.393	186.658	190.403	190.261	196.173	355.594	195.155	-8191	255	
5237.574	1	1	0	0	0.088218	0.12327	0.11931	0.087786	0.088511	0.085686	0.32645	0.36293	0.29659	0.19186	0.23955	0.088027	0.18686	0.069519	0.10283	0.054	-3.0833	-3.6583	-3.125	-3.7729	-3.6333	-3.0583	-3.9896	-3.3563	-3.2812	-3.7208	-3.2229	-3.5646	-3.6854	-3.1646	-3.9208	-3.3771	297.620	198.945	445.833	227.998	415.219	246.878	421.524	401.981	281.932	452.100	514.047	440.544	203.109	395.024	410.259	506.512	0.0007091	0.00057588	0.00016249	1510	5.4576e-07	6.3306e-06	1483.9	379.45	5.6927e-06	3.0479e-06	429.96	144.4	125.83	42.852	6.8996e-06	52.605	0.00071747	0.00068716	0.00017961	1538.1	7.8513e-06	7.4894e-06	1514.2	389.77	7.7768e-06	7.4524e-06	440.66	148.98	131.69	44.432	6.8666e-06	54.948	171.122	173.080	241.620	182.378	316.634	253.299	182.165	187.007	195.443	342.052	186.752	190.333	190.387	196.087	255.307	194.915	-8191	255	
5237.669	1	1	0	0	0.18833	0.19504	0.10911	0.069741	0.21667	0.036505	0.10112	0.085074	0.045383	0.18569	0.086903	0.05281	0.29093	0.084399	0.090266	0.050977	-3.0396	-3.7313	-3.0208	-3.7375	-3.4708	-3.2062	-4.0583	-3.5833	-3.2896	-3.7021	-3.5271	-3.7104	-3.7354	-3.3896	-3.7521	-3.6354	362.340	407.072	377.994	501.246	215.181	406.971	501.274	462.932	462.428	265.686	518.304	169.446	492.630	184.159	482.787	371.210	0.00065252	0.00067546	0.00015617	1513.3	6.7756e-06	1.4942e-06	1486.4	381.44	4.5472e-06	4.3679e-06	428.08	144.62	124.83	43.017	4.8448e-06	52.585	0.00070081	0.00066481	0.00017134	1537.8	7.594e-06	7.2123e-06	1510.1	389.75	7.5484e-06	7.1166e-06	439.47	149.13	130.98	44.374	6.7618e-06	55.033	523.533	200.200	297.630	182.441	267.065	248.533	182.022	186.925	337.750	319.131	186.561	190.263	190.356	196.201	270.209	195.533	-8191	255	
5237.740	1	1	0	0	0.2413	0.10687	0.05203	0.14849	0.10456	0.11665	0.1101	0.12621	0.098949	0.17417	0.051295	0.29413	0.11079	0.31291	0.1714	0.091921	-2.9	-3.6875	-3.2271	-3.725	-3.7354	-3.0979	-3.8354	-3.6021	-3.2667	-3.9333	-3.4542	-3.5417	-3.8	-3.2542	-3.5583	-3.6437	522.453	178.891	472.006	475.263	340.798	467.376	486.064	487.487	275.534	445.474	203.016	429.846	480.278	468.905	296.101	405.833	0.00074771	0.00064837	5.7245e-05	1507.2	3.6541e-06	7.857e-06	1484.4	380.5	7.6185e-06	7.6005e-06	429.14	144	125.29	42.693	4.5674e-06	52.792	0.00067751	0.00063883	0.00017209	1537.2	7.3066e-06	6.9577e-06	1511.6	390.22	7.2384e-06	6.8798e-06	439.7	148.89	130.43	44.145	7.0349e-06	55.114	168.862	281.627	288.127	182.358	279.200	316.200	182.026	186.682	274.423	388.120	186.521	190.542	190.362	196.172	318.290	195.192	-8191	255	
5237.861	1	1	0	0	0.042494	0.098427	0.23019	0.34667	0.18785	0.15233	0.15875	0.37495	0.38917	0.16882	0.0745	0.18967	0.32273	0.12107	0.31606	0.38466	-2.7854	-3.9521	-3.1417	-3.4542	-3.725	-3.0271	-3.8	-3.6333	-3.0708	-3.7667	-3.5104	-3.3792	-3.7229	-3.2958	-3.5625	-3.7604	364.587	211.445	421.318	498.385	231.984	349.138	492.678	479.357	402.290	252.159	212.123	179.273	525.163	290.812	452.390	443.621	0.00069282	0.00030333	0.00017873	1507.2	6.7287e-06	2.7671e-06	1484.4	379.47	4.7066e-06	7.8896e-06	427.88	143.87	125.3	42.579	8.9295e-06	52.777	0.00066184	0.00061635	0.00018173	1536.1	7.2689e-06	6.7126e-06	1512.7	389.81	7.226e-06	6.7634e-06	441.02	148.85	130.58	44.155	7.4025e-06	55.042	521.151	281.936	259.254	182.354	244.958	464.261	181.970	187.134	316.669	377.619	186.445	190.297	190.062	196.124	285.499	195.189	-8191	255	
5237.957	1	1	0	0	0.045436	0.088763	0.22502	0.27675	0.047612	0.079522	0.20653	0.20249	0.16731	0.234	0.2504	0.16051	0.10615	0.15256	0.1439	0.056523	-2.7313	-3.6125	-3.3563	-3.5708	-3.9437	-3.1625	-3.8063	-3.6042	-3.1583	-3.6229	-3.6458	-3.5625	-3.825	-3.25	-3.4375	-3.8563	320.510	463.787	520.061	493.903	306.986	243.449	457.807	444.208	512.452	445.724	462.711	522.014	407.447	441.631	412.795	185.231	0.00069726	0.00089368	0.00022907	1508.8	9.3418e-06	1.1037e-05	1485.7	379.96	6.899e-06	3.6248e-06	427.58	144.2	125.59	42.527	3.7979e-06	52.566	0.00065512	0.00061013	0.00018857	1532.2	7.0005e-06	6.6408e-06	1511.6	389.11	6.9116e-06	6.6689e-06	441.53	148.41	129.56	44.126	7.5202e-06	54.9	524.555	245.467	200.930	182.481	254.242	261.398	182.058	186.829	367.354	357.374	186.511	190.328	190.192	195.998	248.173	195.159	-8191	255	
5238.053	1	1	0	0	0.32859	0.18211	0.086244	0.31195	0.1498	0.037499	0.16603	0.28111	0.1681	0.17626	0.27023	0.16079	0.033141	0.19203	0.14144	0.1178	-2.6312	-3.5896	-3.5125	-3.3583	-3.8896	-3.25	-3.7917	-3.9042	-3.2188	-3.7771	-3.7708	-3.2438	-3.7833	-3.2708	-3.3104	-3.7854	481.647	236.415	364.210	484.281	437.740	182.551	466.816	497.415	219.355	283.507	472.884	514.407	520.670	202.198	408.040	497.021	0.00077641	0.00030725	0.00016292	1503.6	5.3445e-06	2.9849e-06	1480.6	379.53	5.9034e-06	3.8359e-06	426.47	143.77	125.72	42.788	6.677e-06	53.174	0.00062636	0.00062331	0.00019259	1531.6	6.8737e-06	6.9667e-06	1514.1	389.5	6.844e-06	7.1402e-06	442.17	148.51	129.85	44.384	7.6683e-06	55.096	522.662	228.785	193.141	182.301	349.049	221.051	181.962	187.052	248.255	307.624	186.403	190.305	189.975	196.100	310.746	195.152	-8191	255	
5238.149	1	1	0	0	0.27933	0.087266	0.1789	0.27553	0.24974	0.11874	0.27206	0.14234	0.041502	0.20567	0.10823	0.31288	0.1903	0.041936	0.17421	0.34125	-2.7104	-3.7458	-3.5229	-3.2479	-4.0104	-3.4688	-3.6479	-3.8729	-3.2083	-3.5896	-3.5396	-3.3833	-3.9188	-3.5667	-3.375	-4.1188	512.596	257.529	337.072	408.852	230.782	399.926	471.670	481.586	180.174	503.161	214.706	498.902	234.348	461.497	384.349	447.779	0.00063728	0.00062834	4.1672e-05	1505.9	4.249e-06	5.5995e-06	1486.7	379.89	3.9721e-06	1.3771e-06	427.14	144.41	125.48	42.41	3.4309e-06	52.693	0.00062437	0.00067789	0.00019546	1535	6.8416e-06	7.5409e-06	1516.5	389.4	6.8354e-06	7.571e-06	442.34	148.79	129.54	44.347	7.5529e-06	54.889	527.236	211.169	370.844	182.503	267.294	243.983	182.062	186.923	263.508	378.642	186.535	190.490	190.041	196.216	334.666	195.292	-8191	255	
5238.246	1	1	0	0	0.14609	0.13759	0.11339	0.30224	0.069732	0.10999	0.26533	0.17094	0.042006	0.14355	0.13608	0.28138	0.19737	0.23887	0.15725	0.011656	-3.0167	-3.525	-3.7292	-3.4354	-3.6417	-3.4729	-3.3458	-3.9771	-3.1667	-3.4479	-3.7938	-3.4667	-3.8229	-3.6667	-3.1292	-3.7875	363.375	415.826	435.662	483.338	339.000	405.454	488.774	181.708	288.401	182.769	323.932	461.678	513.782	464.194	389.676	173.884	0.00074551	0.00058991	2.7196e-05	1508.6	7.5924e-06	2.7496e-06	1487.3	380.01	4.613e-06	4.7832e-06	427.61	143.9	125.71	42.726	3.8113e-06	52.786	0.00063049	0.00069877	0.00019207	1532.7	6.9589e-06	7.6819e-06	1515.1	388.96	6.9908e-06	7.7205e-06	441.97	148.03	130.33	44.508	7.4181e-06	54.82	517.402	199.815	189.223	182.373	261.011	389.912	181.948	186.855	258.213	259.538	186.557	190.461	189.882	195.986	400.921	195.156	-8191	255	
5238.366	1	1	0	0	0.10198	0.16107	0.11061	0.45045	0.18591	0.063222	0.20883	0.10797	0.20873	0.071242	0.16167	0.10792	0.2152	0.19492	0.29075	0.11146	-2.7396	-3.3708	-3.6	-3.3083	-3.6396	-3.6396	-3.3417	-3.8708	-3.3396	-3.1562	-3.9083	-3.2542	-3.5542	-3.6271	-3.0646	-3.5979	473.904	322.334	186.416	487.931	418.608	284.878	495.986	493.780	447.469	317.313	493.268	213.063	324.545	376.155	223.238	434.903	0.00082713	0.00078854	0.00025155	1510.3	6.0456e-06	8.5354e-06	1478.9	380.52	7.4719e-06	4.8322e-06	427.52	144.36	125.09	42.707	9.6502e-06	52.8	0.00065742	0.00071031	0.000188	1533.6	7.2834e-06	7.8079e-06	1515	388.94	7.4392e-06	7.7482e-06	441.75	148.15	131.05	44.532	7.2805e-06	54.746	527.022	322.378	279.664	182.170	196.297	337.067	181.839	186.788	233.434	345.421	186.548	190.282	190.522	195.915	405.045	195.196	-8191	255	
5238.438	1	1	0	0	0.18912	0.11139	0.061236	0.090536	0.12503	0.089102	0.23536	0.41401	0.031987	0.18825	0.072476	0.29072	0.14233	0.10967	0.081466	0.10335	-2.8958	-3.275	-3.7104	-3.2958	-3.4958	-3.7938	-3.3396	-3.7479	-3.3333	-3.1979	-3.7958	-3.2687	-3.5833	-3.6604	-3.2167	-3.7375	395.854	423.968	415.510	459.987	215.120	461.029	480.155	491.599	178.168	263.845	425.490	485.472	469.765	314.429	307.693	389.528	0.00086191	0.0002409	0.00026102	1510.3	4.3178e-06	1.4704e-05	1483.7	380.2	2.6965e-06	6.6286e-06	429.1	144.14	126.65	42.872	5.3614e-06	52.716	0.00068649	0.00069267	0.00018361	1533.2	7.5381e-06	7.5212e-06	1512.2	388.26	7.603e-06	7.4269e-06	440.42	148.07	131.68	44.465	7.0249e-06	54.737	518.373	300.571	262.017	182.462	318.856	375.282	181.945	186.746	198.984	434.132	186.675	190.285	190.349	196.003	334.598	195.156	-8191	255	
5238.534	1	1	0	0	0.074064	0.16106	0.23482	0.33353	0.51964	0.2451	0.23681	0.12953	0.10678	0.086545	0.33675	0.30725	0.30664	0.22009	0.16785	0.12217	-3.0396	-3.1625	-3.7708	-3.4125	-3.3458	-3.7854	-3.2687	-3.8688	-3.5958	-3.1167	-3.8771	-3.4271	-3.4271	-3.7896	-3.0083	-3.7271	233.991	264.801	263.502	499.086	332.868	256.373	452.152	489.530	203.781	526.446	428.180	177.844	516.086	169.044	425.992	489.776	0.00078522	0.0012135	0.00014259	1509.3	5.1308e-06	5.4297e-06	1488.3	379.2	5.0182e-06	2.4213e-06	428.32	143.78	125.67	42.746	3.0743e-06	52.76	0.00070334	0.0006818	0.00017907	1534.8	7.7026e-06	7.4287e-06	1512.6	388.66	7.7059e-06	7.3894e-06	439.7	148.44	131.37	44.34	6.8139e-06	54.946	522.542	263.095	308.027	182.339	232.910	372.742	181.871	186.877	335.959	284.309	186.709	190.363	190.047	195.797	239.320	195.228	-8191	255	
5238.655	1	1	0	0	0.27081	0.10384	0.060873	0.04329	0.093824	0.024651	0.22638	0.23179	0.19859	0.26735	0.065767	0.15523	0.14363	0.14565	0.13514	0.16872	-3.2833	-3.1104	-3.8958	-3.6292	-3.4396	-4.0062	-3.4042	-3.6708	-3.7062	-3.1562	-3.8479	-3.5375	-3.3604	-3.8708	-3.1771	-3.7188	170.979	428.798	438.070	517.211	438.940	254.450	487.465	493.312	210.511	435.452	285.092	471.733	249.359	469.591	271.365	183.572	0.00079737	0.00063002	6.3153e-05	1508.9	4.7174e-06	1.7645e-05	1484.3	380.82	4.2517e-06	7.3807e-06	430.57	143.75	125.42	42.828	8.0674e-06	52.667	0.00069612	0.00066292	0.00017158	1536.3	7.5728e-06	7.2725e-06	1510.7	390.47	7.5233e-06	7.1411e-06	439.93	148.82	131.23	44.363	6.7003e-06	54.976	512.342	244.673	273.868	182.456	193.998	320.457	182.309	186.784	282.125	348.966	186.524	190.302	190.471	196.090	289.620	195.213	-8191	255	
5238.749	1	1	0	0	0.33825	0.083138	0.10968	0.082847	0.14836	0.20332	0.21824	0.12242	0.17313	0.25803	0.11538	0.21253	0.16618	0.18405	0.031638	0.30716	-3.3729	-3.2229	-3.7	-3.5687	-3.1917	-3.8104	-3.5917	-3.5542	-3.6292	-3.1104	-3.7438	-3.5875	-3.3333	-3.9625	-3.1875	-3.5229	175.870	374.064	262.342	493.019	377.256	344.201	464.755	441.652	349.612	431.857	388.095	463.272	455.594	504.208	461.023	478.997	0.00079418	0.00075416	8.0425e-05	1513	3.4801e-06	8.5601e-06	1481.2	380.38	4.2913e-06	8.4596e-06	429.24	144.1	125.89	42.96	3.8187e-06	53.004	0.00068082	0.00064052	0.00017014	1536.2	7.3446e-06	6.9844e-06	1509.5	390.12	7.3543e-06	6.862e-06	439.87	148.81	130.62	44.309	6.9261e-06	55.127	527.569	260.571	259.858	182.368	383.162	382.360	181.870	186.840	361.842	408.580	186.419	190.193	190.445	196.092	267.255	195.356	-8191	255	
5238.845	1	1	0	0	0.15489	0.060125	0.15126	0.19837	0.12284	0.035288	0.34965	0.16484	0.083869	0.12887	0.28008	0.071332	0.36247	0.12539	0.093599	0.056708	-3.3563	-3.1292	-3.5021	-3.7708	-3.1562	-3.6521	-3.575	-3.3917	-3.5375	-3.075	-3.6813	-3.6542	-3.225	-3.7958	-3.3896	-3.3229	222.027	352.421	386.882	473.622	460.677	411.869	473.110	481.937	384.426	460.848	470.454	521.615	226.703	179.802	211.971	413.976	0.0006793	0.00046912	0.00040772	1505.8	4.1324e-06	7.5275e-06	1487.2	381.78	6.7443e-06	6.7061e-06	429.53	144.22	125.2	42.544	8.1371e-06	52.914	0.00066468	0.00062507	0.00017743	1536.7	7.2865e-06	6.732e-06	1513.5	390.75	7.2595e-06	6.7117e-06	441.07	148.96	130.44	44.133	7.3499e-06	55.184	516.865	231.582	266.007	182.257	265.046	372.224	181.981	186.938	269.250	313.341	186.651	190.294	190.674	196.003	265.337	195.059	-8191	255	
5238.943	1	1	0	0	0.20944	0.10617	0.12008	0.33368	0.15793	0.16721	0.36901	0.16403	0.23763	0.17483	0.34664	0.25575	0.23862	0.16036	0.20822	0.21475	-3.4583	-3.2354	-3.5708	-3.7167	-3.15	-3.7125	-3.6854	-3.4896	-3.7938	-3.2125	-3.5875	-3.725	-3.1708	-3.7583	-3.4542	-3.3146	267.577	290.023	376.444	477.711	233.329	352.189	176.452	336.740	202.363	464.120	429.219	518.077	481.431	501.044	299.555	247.839	0.00067253	0.0001175	8.0307e-05	1504.1	4.5806e-06	8.0935e-06	1489.9	379.92	8.9727e-07	7.3685e-06	426.72	143.75	125.03	42.754	4.5209e-06	52.791	0.00066399	0.00061183	0.00018965	1535.8	7.192e-06	6.7648e-06	1516.5	389.79	7.1618e-06	6.7613e-06	442.84	148.76	130.12	44.163	7.6031e-06	54.961	526.503	394.140	232.673	182.472	272.562	308.766	181.816	186.771	364.555	286.915	186.468	190.333	190.698	196.209	269.574	194.871	-8191	255	
5239.037	1	1	0	0	0.1023	0.19104	0.2602	0.17912	0.050366	0.25552	0.18839	0.2491	0.071183	0.026076	0.19557	0.13559	0.1719	0.1749	0.3002	0.08435	-3.4313	-3.25	-3.4896	-3.9417	-3.2083	-3.6583	-3.7292	-3.3042	-4.0188	-3.1937	-3.3854	-3.6104	-3.1813	-3.7833	-3.4333	-3.2229	350.072	246.740	211.782	452.670	527.814	470.739	445.368	194.538	422.014	413.297	449.979	413.110	212.251	323.108	486.857	527.885	0.00071395	0.00024795	3.502e-05	1507	2.005e-06	1.8127e-06	1486.3	379.31	6.3201e-06	5.8747e-06	430.25	143.62	125.95	42.869	5.7241e-07	52.588	0.00064387	0.00062676	0.00019341	1533.2	6.9104e-06	6.8983e-06	1515.3	389.08	6.7922e-06	6.9121e-06	442.31	148.25	129.38	44.298	7.3858e-06	54.847	173.072	346.378	336.777	182.354	387.676	245.038	181.861	186.901	395.672	303.676	186.719	190.163	189.932	196.035	335.345	195.152	-8191	255	
5239.134	1	1	0	0	0.13097	0.16892	0.21592	0.28685	0.042979	0.22552	0.34373	0.08915	0.045022	0.11157	0.23853	0.27552	0.25808	0.073315	0.080029	0.32528	-3.45	-3.3229	-3.3417	-3.9208	-3.1562	-3.5854	-3.6125	-3.4042	-3.6562	-3.3125	-3.4625	-4.0146	-3.1688	-3.8354	-3.5396	-3.3708	348.904	508.809	194.045	216.171	296.174	428.484	465.937	222.758	335.393	463.205	477.525	492.208	484.763	265.314	181.765	378.126	0.00072936	0.000893	0.00021008	1503.8	9.8572e-06	8.4138e-06	1481.5	380.2	3.4725e-06	3.6754e-06	428.44	143.49	125.89	42.828	6.7996e-06	52.706	0.00060652	0.00064328	0.00018825	1530.4	6.5882e-06	7.1749e-06	1512.3	388.87	6.5791e-06	7.2335e-06	440.92	148.23	128.84	44.333	7.3452e-06	54.774	528.472	213.530	283.694	182.494	322.195	291.280	182.224	186.843	302.140	365.076	186.734	190.390	190.295	196.130	334.800	195.104	-8191	255	
5239.254	1	1	0	0	0.29444	0.080562	0.042142	0.16287	0.21836	0.21578	0.32403	0.40575	0.17939	0.37589	0.16463	0.058775	0.22658	0.28847	0.22279	0.18064	-3.2958	-3.4875	-3.2375	-3.9875	-3.4313	-3.675	-3.9042	-3.3458	-3.7438	-3.4458	-3.3625	-4.0333	-3.1208	-3.6229	-3.6479	-3.2042	373.849	280.758	322.935	435.020	498.345	488.652	503.264	425.883	215.349	368.200	480.481	515.465	199.930	502.933	179.409	457.285	0.00074128	0.00075729	0.00028929	1505.7	2.9265e-06	6.7222e-06	1482.3	378.82	4.8354e-06	6.7885e-06	428.6	144.25	125.78	42.838	3.1161e-06	52.496	0.00060309	0.00067064	0.00018555	1530.1	6.6012e-06	7.3676e-06	1510.4	387.92	6.7213e-06	7.3895e-06	440.41	148.01	129.55	44.45	7.1972e-06	54.565	512.631	185.638	235.027	182.434	270.354	252.740	182.140	186.872	272.244	343.557	186.595	190.304	190.367	196.010	456.831	195.460	-8191	255	
5239.350	1	1	0	0	0.13522	0.21495	0.13525	0.2526	0.23397	0.07214	0.38932	0.065154	0.16417	0.10017	0.19663	0.14345	0.35417	0.088342	0.047501	0.13258	-3.2833	-3.4167	-3.2	-4.1312	-3.5021	-3.4688	-4.0312	-3.2583	-3.5479	-3.4979	-3.2979	-4.1333	-3.4583	-3.6417	-3.7083	-3.3417	225.093	465.139	237.545	482.383	371.490	250.979	483.868	460.366	185.153	352.288	458.177	493.540	492.545	323.011	395.854	405.079	0.00080797	0.00044246	0.00022015	1507.5	1.1998e-06	6.5945e-06	1484.5	379.7	5.466e-06	2.5789e-06	427.22	143.35	125.16	42.781	5.2236e-06	52.833	0.0006302	0.0006836	0.00018316	1529.6	6.9462e-06	7.4848e-06	1511.8	387.87	7.0084e-06	7.4564e-06	440.3	147.55	130.22	44.466	7.041e-06	54.528	522.102	258.353	331.874	182.381	244.398	368.583	181.924	186.968	243.474	390.631	186.508	190.345	190.598	195.828	315.228	195.372	-8191	255	
5239.447	1	1	0	0	0.14275	0.15931	0.21314	0.22389	0.12469	0.22188	0.12815	0.15149	0.077258	0.070459	0.080279	0.11869	0.1904	0.20466	0.12567	0.10637	-3.2188	-3.5583	-3.1063	-3.9708	-3.3771	-3.2958	-4.1354	-3.3542	-3.4875	-3.7125	-3.2687	-3.8688	-3.4646	-3.3479	-3.8292	-3.3812	323.998	396.172	284.316	467.393	309.285	215.098	354.637	480.299	289.147	295.196	488.908	400.376	206.898	431.096	283.789	412.244	0.00079566	0.00089094	0.00023402	1505.5	5.9047e-06	1.0267e-05	1480.2	380.67	7.1375e-06	2.8533e-06	429.56	144.45	125.1	42.784	3.1522e-06	52.736	0.00064466	0.00066321	0.00017639	1525	7.1802e-06	7.2966e-06	1508.7	387.76	7.2582e-06	7.2447e-06	440.57	147.95	130.44	44.311	6.8769e-06	54.567	518.618	250.103	246.509	182.442	174.832	365.505	182.147	186.772	251.289	432.474	186.432	190.258	190.087	196.088	320.275	195.243	-8191	255	
5239.543	1	1	0	0	0.02123	0.16083	0.020068	0.27027	0.047453	0.24722	0.31861	0.21291	0.24566	0.11794	0.19097	0.14753	0.14342	0.041571	0.15283	0.075302	-3.1104	-3.6458	-3.0771	-3.9875	-3.5917	-3.4146	-3.9708	-3.4583	-3.3479	-3.7604	-3.2333	-3.8438	-3.4125	-3.275	-3.8771	-3.3604	456.362	409.484	220.106	487.573	440.305	304.882	467.205	450.269	182.667	300.176	460.122	509.979	204.754	261.709	336.320	193.311	0.00072815	6.717e-05	0.0001239	1504.4	5.5962e-06	7.2322e-06	1478.3	378.83	4.9484e-06	5.3905e-06	426.33	144.36	126.03	42.833	3.4151e-06	52.668	0.0006721	0.00065635	0.00017268	1527.4	7.4016e-06	7.1688e-06	1508	387.45	7.3646e-06	7.1172e-06	437.98	148.01	130.89	44.282	6.6117e-06	54.711	522.612	276.539	271.047	182.484	264.553	324.354	182.198	186.932	222.628	347.678	186.505	190.424	190.274	195.978	371.397	195.043	-8191	255	
5239.662	1	1	0	0	0.24307	0.14994	0.1477	0.28768	0.17235	0.46691	0.181	0.18213	0.1212	0.1087	0.14808	0.20118	0.053806	0.282	0.18976	0.22788	-2.8708	-3.5854	-3.0583	-3.9062	-3.6167	-3.25	-3.9833	-3.4042	-3.3458	-3.8354	-3.1917	-3.6417	-3.7729	-3.0333	-3.8083	-3.5812	308.408	355.184	331.055	520.010	203.153	514.488	504.436	437.071	526.899	274.399	525.716	207.913	331.075	506.898	486.151	502.526	0.00071438	0.00056074	0.00016627	1504.4	3.2121e-06	7.7423e-06	1477.2	379.62	4.3912e-06	2.4664e-06	428.45	143.33	126.05	42.697	8.3599e-07	52.8	0.00067593	0.00063916	0.00016503	1528.5	7.3039e-06	6.9975e-06	1503.8	388.08	7.3979e-06	7.0648e-06	438.12	148.4	130.84	44.249	6.5895e-06	54.9	526.341	283.765	324.981	182.472	274.083	347.322	181.995	186.843	312.639	353.011	186.340	190.136	190.459	196.266	299.094	195.030	-8191	255	
5239.733	1	1	0	0	0.14093	0.1853	0.36423	0.3875	0.075981	0.14802	0.32077	0.37317	0.21093	0.22887	0.17226	0.1312	0.034208	0.12932	0.15737	0.31281	-3.0229	-3.825	-3.2438	-3.6625	-3.7333	-3.2354	-3.8688	-3.7438	-3.0104	-3.8271	-3.3	-3.5479	-3.6646	-3.0917	-3.6375	-3.7875	243.563	276.535	172.243	516.294	271.396	234.542	441.762	459.489	523.069	304.804	267.011	468.383	372.615	177.570	403.802	443.632	0.00068176	0.00011664	0.00012185	1504.7	4.7201e-06	1.0379e-05	1480.5	378.51	4.0905e-06	5.0195e-06	427.14	143.89	124.84	42.766	6.1414e-06	52.797	0.00067294	0.00063499	0.00016794	1532.7	7.3736e-06	6.9719e-06	1505.3	389.12	7.3089e-06	6.926e-06	438.56	148.46	130.31	44.139	6.8247e-06	54.982	520.886	519.868	284.686	182.355	253.093	330.710	182.051	186.780	312.042	375.400	186.557	190.338	190.256	196.052	261.592	195.317	-8191	255	
5239.829	1	1	0	0	0.24111	0.27284	0.23255	0.16881	0.18001	0.12339	0.44353	0.23208	0.16037	0.13883	0.2941	0.16595	0.16493	0.11619	0.32072	0.045477	-2.825	-3.9125	-3.3125	-3.6083	-3.7354	-3.3583	-3.7625	-3.625	-3.1083	-3.65	-3.3979	-3.5625	-3.6771	-3.1437	-3.6167	-3.6354	263.952	528.460	438.945	458.863	340.655	458.246	409.438	499.864	311.959	341.671	521.624	290.475	515.444	380.208	351.302	395.961	0.00075602	0.00045054	6.2671e-05	1501.9	1.0904e-06	6.4639e-06	1481.2	378.86	3.0145e-06	2.5871e-06	429.51	144.61	125.95	42.836	6.0211e-06	52.827	0.00066892	0.0006303	0.00017682	1533.7	7.3201e-06	6.8558e-06	1507.8	389.89	7.3084e-06	6.8188e-06	440.67	148.92	130.43	44.178	7.3279e-06	55.043	519.696	277.143	195.738	182.268	275.466	307.483	181.819	186.757	321.355	396.238	186.747	190.499	190.289	196.071	258.176	194.984	-8191	255	
5239.926	1	1	0	0	0.076996	0.14127	0.19766	0.15267	0.058641	0.12614	0.28228	0.3093	0.057292	0.12197	0.31413	0.033817	0.24348	0.23574	0.084324	0.27716	-2.7208	-3.8854	-3.4437	-3.3812	-3.6667	-3.3729	-3.6562	-3.7	-3.1104	-3.7313	-3.6104	-3.3688	-3.8063	-3.2417	-3.5708	-3.6208	476.178	395.849	421.722	521.579	273.598	320.969	446.890	474.505	398.051	397.037	459.721	418.873	418.772	446.951	306.876	427.343	0.00077097	0.00065912	0.00028226	1507.3	5.5212e-06	6.275e-06	1482.4	379.47	3.3611e-06	6.3559e-06	427.8	143.86	126.01	42.851	3.7329e-06	52.697	0.00066754	0.0006169	0.00018678	1536.5	7.1916e-06	6.7084e-06	1514.4	390.37	7.2289e-06	6.7538e-06	441.62	148.71	130.51	44.18	7.6235e-06	54.989	523.879	218.426	236.098	182.351	283.970	288.763	182.082	186.682	215.642	312.300	186.559	190.324	190.372	195.939	427.978	195.173	-8191	255	
5240.046	1	1	0	0	0.27616	0.19222	0.29092	0.11038	0.22382	0.096335	0.3168	0.19554	0.16213	0.036741	0.17884	0.029169	0.23752	0.10627	0.11595	0.33103	-2.6792	-3.5083	-3.3438	-3.3479	-3.7979	-3.375	-3.5896	-3.7667	-3.3	-3.6125	-3.5604	-3.2354	-3.6854	-3.2229	-3.4646	-3.8917	212.127	273.164	405.588	404.171	216.081	314.309	475.090	465.476	393.193	457.893	508.941	202.885	178.383	405.140	365.296	449.808	0.00066505	0.00015197	0.00012831	1501.6	1.4033e-06	1.0221e-05	1481.1	379.04	5.5594e-06	6.7815e-06	428.29	143.75	126.03	42.75	2.1313e-06	52.624	0.00064864	0.00062806	0.00019351	1533.5	6.9997e-06	6.9288e-06	1515.2	389.42	7.0806e-06	7.1174e-06	442.51	148.54	130.1	44.362	7.9692e-06	54.976	526.390	516.924	521.814	182.386	343.967	264.102	181.955	186.883	272.638	272.078	186.419	190.492	190.308	196.236	261.214	195.158	-8191	255	
5240.142	1	1	0	0	0.064744	0.12954	0.07516	0.23333	0.19108	0.2145	0.17523	0.40613	0.18409	0.10075	0.037259	0.30988	0.033082	0.046126	0.087197	0.24088	-2.6708	-3.6375	-3.4854	-3.2354	-3.6375	-3.3479	-3.2917	-3.7396	-3.0083	-3.475	-3.5292	-3.2375	-3.9354	-3.5771	-3.4604	-3.7375	291.667	452.123	282.076	483.373	220.040	412.982	384.096	495.006	287.159	243.222	370.685	484.537	235.816	443.720	211.508	453.816	0.00066593	0.00066727	0.00020145	1500.5	5.2363e-06	1.4349e-05	1484.3	379.7	4.7317e-06	5.2382e-06	430.15	143.8	125.3	42.798	1.307e-06	52.428	0.00065148	0.00067245	0.00020083	1534	7.0476e-06	7.5081e-06	1518.8	389.36	7.0145e-06	7.5702e-06	444.1	148.66	129.66	44.469	7.7861e-06	54.802	526.592	218.388	278.698	182.264	292.473	257.642	181.960	186.794	307.847	244.786	186.687	190.374	190.300	195.997	304.837	195.243	-8191	255	
5240.238	1	1	0	0	0.28358	0.16366	0.19757	0.19108	0.088322	0.34898	0.14091	0.094926	0.20724	0.041672	0.12247	0.31505	0.27956	0.14061	0.33914	0.051989	-2.8146	-3.5438	-3.5646	-3.3708	-3.6792	-3.4271	-3.4708	-3.9021	-3.1667	-3.4688	-3.7333	-3.3583	-3.5583	-3.5917	-3.0979	-3.9208	241.789	364.332	293.410	445.773	280.915	294.530	519.852	217.624	281.900	247.138	415.593	499.851	411.147	456.816	483.697	355.814	0.00068797	0.00038703	0.00027066	1513.1	9.5704e-06	4.2655e-06	1483.9	380.45	1.1578e-05	3.271e-07	429.4	143.8	125.82	42.647	3.9298e-06	52.302	0.00062671	0.00068611	0.00019325	1532.2	6.7892e-06	7.5398e-06	1515.3	389.17	6.7582e-06	7.5301e-06	441.7	147.89	129.41	44.407	7.2836e-06	54.58	524.619	523.370	318.924	182.273	231.622	230.375	182.205	186.904	249.104	389.335	186.507	190.534	190.044	195.981	313.527	195.159	-8191	255	
5240.335	1	1	0	0	0.20415	0.38697	0.14441	0.34854	0.038329	0.2301	0.11754	0.25133	0.23443	0.16299	0.18424	0.075879	0.35708	0.14563	0.027254	0.14397	-2.8125	-3.4146	-3.4896	-3.1542	-3.6937	-3.4625	-3.3187	-4.0125	-3.2979	-3.15	-3.7208	-3.1708	-3.725	-3.6063	-3.1396	-3.8063	267.145	386.544	462.291	169.841	225.420	469.304	383.588	443.546	380.068	217.723	506.357	520.792	305.025	460.457	431.557	357.233	0.0007432	0.00058492	0.00023484	1501.7	5.8884e-06	9.1649e-06	1479.5	379	1.6479e-06	5.3241e-06	426.37	144.45	125.61	42.673	1.3723e-06	52.786	0.00062263	0.00068542	0.00018447	1526.6	6.8573e-06	7.551e-06	1510	387.3	6.9659e-06	7.5956e-06	439.87	147.75	130.15	44.413	7.2308e-06	54.618	525.681	192.131	267.638	182.446	521.139	230.959	182.007	186.903	178.370	341.704	186.576	190.471	190.338	196.270	441.072	195.107	-8191	255	
5240.431	1	1	0	0	0.21211	0.16519	0.12474	0.29944	0.22548	0.053431	0.2118	0.26659	0.068462	0.13846	0.20011	0.17691	0.11175	0.20407	0.20719	0.068361	-2.8792	-3.4917	-3.7271	-3.3187	-3.5521	-3.7062	-3.2687	-3.8958	-3.3688	-3.0792	-3.7417	-3.45	-3.6771	-3.6875	-3.2438	-3.7729	292.346	472.451	500.419	457.180	438.908	328.075	396.253	195.537	296.015	434.195	480.990	451.678	521.760	516.579	315.913	523.249	0.0008212	0.00076282	8.324e-05	1507.1	2.6249e-06	6.1008e-06	1482.7	378.92	7.5348e-06	8.1364e-06	426.99	143.77	125.3	42.651	4.9682e-06	52.67	0.00065918	0.0006812	0.00018193	1526.7	7.2743e-06	7.5038e-06	1509.9	387.2	7.3153e-06	7.3997e-06	439.12	147.5	130.59	44.335	6.9627e-06	54.52	518.746	227.094	296.210	182.477	408.082	442.854	181.971	186.980	282.489	394.397	186.694	190.505	190.062	195.648	295.435	195.268	-8191	255	
5240.527	1	1	0	0	0.07517	0.44007	0.29793	0.12967	0.18914	0.1221	0.027255	0.11292	0.32747	0.17202	0.12165	0.20781	0.073382	0.20845	0.10355	0.085501	-3.1063	-3.2042	-3.5146	-3.4042	-3.5979	-3.7458	-3.5021	-4.0125	-3.6021	-3.3458	-3.7729	-3.2917	-3.3625	-3.9396	-3.1354	-3.5104	450.131	410.741	355.136	487.653	391.221	375.776	395.433	385.543	442.374	333.889	449.549	510.410	521.220	524.450	445.206	313.194	0.00073711	0.00026644	0.00010106	1500.1	1.6115e-06	6.3658e-06	1479.5	380.07	3.9777e-06	5.0347e-06	425.49	143.92	125.3	42.662	3.8282e-06	52.594	0.00067459	0.000664	0.00017587	1525.5	7.5026e-06	7.3433e-06	1509.4	387.97	7.6271e-06	7.408e-06	439.07	148.07	131.59	44.38	7.0371e-06	54.866	527.726	319.593	351.071	182.296	224.484	323.274	182.018	186.953	279.579	331.122	186.746	190.312	190.452	195.944	380.900	195.236	-8191	255	
5240.623	1	1	0	0	0.10444	0.15919	0.056366	0.24214	0.14662	0.50495	0.22354	0.4353	0.1305	0.12825	0.016275	0.30102	0.097151	0.034756	0.14347	0.10788	-3.0563	-3.1375	-3.6458	-3.5687	-3.4083	-3.7729	-3.2583	-3.7875	-3.65	-3.1833	-3.9062	-3.5208	-3.4313	-3.8187	-3.15	-3.6646	220.900	253.027	251.529	469.383	449.753	241.234	454.109	466.527	409.389	192.142	508.868	479.155	426.796	315.069	427.563	261.853	0.00056106	0.00029929	0.00013658	1508.7	5.9835e-06	4.7699e-06	1481.6	380.16	7.7666e-06	2.3561e-06	428.21	144.25	126.12	42.659	9.5085e-07	52.397	0.00071164	0.00068385	0.00017752	1535.6	7.888e-06	7.4876e-06	1510	389.27	7.7976e-06	7.4277e-06	439.41	148.78	131.77	44.316	6.894e-06	54.995	524.441	460.901	379.485	182.597	230.169	348.470	182.120	186.777	262.203	397.197	186.521	190.529	190.515	196.226	286.982	195.055	-8191	255	
5240.742	1	1	0	0	0.19116	0.04044	0.091514	0.36959	0.1357	0.28096	0.16964	0.21156	0.16323	0.24291	0.038401	0.14833	0.30798	0.17674	0.11391	0.18145	-3.0146	-3.1625	-3.6688	-3.5917	-3.1646	-3.8646	-3.3125	-3.5604	-3.5958	-3.2917	-3.7458	-3.575	-3.4625	-3.8438	-3.2812	-3.6292	406.701	247.591	406.535	475.725	341.310	500.581	445.963	394.908	192.105	351.221	187.175	287.003	425.576	447.841	520.173	400.319	0.00063832	0.00050592	5.4302e-05	1506.8	2.2091e-06	5.7107e-06	1480.4	380.24	7.2058e-06	1.8172e-06	428.99	143.92	124.91	42.582	7.4379e-06	52.447	0.00070086	0.00066901	0.00017314	1536.4	7.6395e-06	7.3206e-06	1509.8	390.15	7.6609e-06	7.1777e-06	439.13	148.8	131.25	44.241	6.9164e-06	55.108	526.867	230.175	421.125	182.417	260.188	287.174	181.961	186.892	292.464	325.198	186.632	190.434	190.196	196.029	219.262	195.057	-8191	255	
5240.838	1	1	0	0	0.094959	0.27529	0.030789	0.35967	0.21859	0.29021	0.31809	0.37283	0.29898	0.099945	0.15447	0.085469	0.27713	0.073871	0.27972	0.18109	-3.0979	-3.0375	-3.6208	-3.6063	-3.0729	-3.7729	-3.5583	-3.6083	-3.8333	-3.1188	-3.8333	-3.6333	-3.1063	-3.8646	-3.3542	-3.4417	522.142	355.053	516.155	483.310	511.174	453.701	443.578	444.892	424.080	429.644	411.517	362.676	231.470	231.836	308.815	493.643	0.0006894	0.00025189	0.00010912	1505	1.1718e-05	9.7783e-06	1481	379.46	2.1587e-06	5.8904e-06	427.9	142.98	126.01	42.763	5.5714e-06	52.571	0.0006879	0.00064279	0.00017818	1537.8	7.4827e-06	7.0533e-06	1510.6	390.41	7.403e-06	6.9267e-06	440.26	148.72	130.83	44.142	7.1964e-06	54.995	520.389	320.651	252.589	182.399	282.109	393.314	182.135	186.909	303.145	306.940	186.712	190.127	190.273	196.154	245.610	195.079	-8191	255	
5240.934	1	1	0	0	0.28076	0.099912	0.13377	0.21577	0.16886	0.19191	0.35631	0.14668	0.13162	0.041962	0.025118	0.24407	0.054054	0.095635	0.034097	0.045343	-3.3042	-3.3083	-3.475	-3.6979	-3.1229	-3.8708	-3.5667	-3.35	-3.6625	-3.1646	-3.7354	-3.6167	-3.1667	-3.7167	-3.2833	-3.3583	435.804	490.148	365.573	515.306	521.631	269.263	500.860	194.997	205.703	350.730	376.370	173.443	216.852	386.677	360.500	441.268	0.00067627	0.0014037	7.6023e-05	1511.2	1.3353e-06	1.3237e-05	1483.9	378.71	8.2936e-06	4.0214e-06	426.48	143.74	125.77	42.745	3.5732e-06	52.517	0.00067573	0.00062334	0.00018645	1538.1	7.2957e-06	6.8844e-06	1516	389.61	7.3515e-06	6.8233e-06	441.77	148.77	130.63	44.167	7.6407e-06	54.965	170.535	292.807	235.141	182.276	446.521	300.533	181.736	187.121	275.748	389.540	186.489	190.131	190.596	196.075	286.579	195.573	-8191	255	
5241.030	1	1	0	0	0.22719	0.22315	0.29025	0.10207	0.075408	0.099288	0.23985	0.13482	0.08778	0.035995	0.11777	0.17048	0.1331	0.1515	0.20929	0.14584	-3.3937	-3.0521	-3.6063	-3.9	-3.1042	-3.6979	-3.6188	-3.3167	-3.8542	-3.0583	-3.6708	-3.7521	-2.9292	-3.6417	-3.5833	-3.2792	464.557	436.651	259.368	170.571	410.336	388.431	476.936	511.587	363.898	217.262	528.605	456.896	329.815	468.283	525.068	401.689	0.00056067	0.0012612	0.00015761	1504.1	1.9186e-06	4.2164e-06	1487.1	379.44	4.7946e-06	2.148e-06	429.11	143.54	126.48	42.628	2.0432e-06	52.893	0.00067174	0.00063142	0.00019738	1537.1	7.2901e-06	7.0159e-06	1518.7	389.91	7.2042e-06	7.0684e-06	443.46	148.93	130.47	44.238	7.9624e-06	55.14	168.916	223.053	202.118	182.269	335.558	345.757	182.215	186.827	244.719	197.506	186.569	190.367	190.153	195.994	345.398	195.312	-8191	255	
5241.127	1	1	0	0	0.12085	0.12645	0.3001	0.24812	0.36439	0.067647	0.42305	0.16879	0.14941	0.011117	0.24334	0.22343	0.32644	0.17379	0.26772	0.15122	-3.3688	-3.3812	-3.3563	-3.7687	-3.1771	-3.6521	-3.5917	-3.3875	-3.8063	-3.3729	-3.3833	-3.6375	-3.1875	-3.8063	-3.5708	-3.125	238.031	451.628	278.637	523.889	367.521	442.156	443.934	471.070	252.047	373.782	200.824	250.175	187.254	212.384	297.496	359.168	0.00077051	0.00023766	0.0001589	1508.2	4.5821e-06	7.9528e-06	1486.4	378.32	5.5871e-06	5.0456e-06	428.57	144.48	126.21	42.499	3.3528e-06	52.589	0.00066229	0.00066926	0.00020105	1539.7	7.2069e-06	7.4681e-06	1521.3	389.77	7.2095e-06	7.6012e-06	444.49	149	130.36	44.367	8.0175e-06	55.062	527.344	228.366	331.523	182.345	254.044	252.401	181.988	186.931	277.559	512.254	186.614	190.326	190.084	196.008	308.602	195.212	-8191	255	
5241.223	1	1	0	0	0.12605	0.13345	0.1663	0.38952	0.23928	0.12318	0.44986	0.16241	0.13422	0.081666	0.15133	0.080607	0.16283	0.13581	0.13336	0.21941	-3.1021	-3.3688	-3.3396	-3.9354	-3.2313	-3.6146	-3.7667	-3.1896	-3.7333	-3.5083	-3.3583	-3.7833	-3.1312	-3.625	-3.6083	-3.1667	323.216	432.076	172.678	491.489	398.592	423.758	467.538	512.192	356.986	210.569	446.851	411.033	517.364	254.729	330.128	470.261	0.00072802	0.00033788	0.00015213	1511.6	4.579e-06	1.4469e-06	1485.5	379.09	1.2128e-06	3.7431e-06	428.74	144.15	126.06	42.881	4.2132e-06	52.939	0.00065434	0.0007122	0.00020342	1540.7	7.1706e-06	7.9286e-06	1521.4	389.68	7.2406e-06	7.9868e-06	444.29	148.83	130.66	44.629	7.9234e-06	55.056	523.544	252.906	335.921	182.393	220.665	520.250	181.845	186.851	278.753	307.952	186.400	190.441	190.282	196.046	337.309	195.260	-8191	255	
5241.343	1	1	0	0	0.29945	0.044146	0.20655	0.2421	0.025566	0.21987	0.27601	0.15143	0.17713	0.36681	0.19922	0.094666	0.099328	0.31476	0.15476	0.28572	-3.4292	-3.4604	-3.0854	-3.9958	-3.0229	-3.3042	-3.9146	-3.3479	-3.8063	-3.4667	-3.3688	-3.9021	-3.4979	-3.625	-3.6771	-3.2188	249.285	368.996	361.108	231.321	287.630	332.226	459.640	371.505	194.226	211.783	455.652	500.440	196.344	263.857	400.300	472.437	0.00077358	0.00067209	0.00022192	1509.8	2.6595e-07	1.9178e-06	1486	380.63	6.9717e-06	5.1135e-06	428.71	143.59	125.85	42.755	5.3539e-06	52.614	0.00066713	0.00074091	0.00020075	1540.7	7.4159e-06	8.1438e-06	1520.6	389.91	7.4856e-06	8.2382e-06	443.77	148.49	131.16	44.726	7.878e-06	54.887	522.100	213.816	303.724	182.411	177.005	431.378	181.845	186.582	210.477	280.161	186.436	190.197	190.345	195.960	431.238	195.025	-8191	255	
5241.439	1	1	0	0	0.23951	0.15524	0.1855	0.27355	0.21552	0.090614	0.28024	0.18228	0.037595	0.020986	0.18099	0.26009	0.088335	0.20028	0.29473	0.13024	-3.3042	-3.3937	-3.1625	-3.875	-3.4167	-3.5625	-3.9625	-3.4229	-3.5062	-3.5604	-3.3354	-3.8083	-3.4458	-3.35	-3.8542	-3.1	348.646	231.313	440.831	492.472	512.166	324.653	467.506	383.323	399.530	414.049	211.077	523.332	233.107	390.007	179.687	420.093	0.00074822	0.00048028	0.00017363	1513.7	4.5888e-06	3.1441e-06	1487.8	381.07	6.1503e-06	4.9922e-06	429.39	143.12	125.3	42.874	5.3542e-06	52.554	0.00070234	0.0007525	0.00019965	1541.3	7.8014e-06	8.2072e-06	1522.6	389.87	7.9747e-06	8.1619e-06	444.18	148.36	132.25	44.706	7.7066e-06	54.815	524.100	277.070	239.453	182.417	257.882	312.650	182.068	186.868	253.692	491.068	186.646	190.434	190.104	196.045	189.210	195.250	-8191	255	
5241.534	1	1	0	0	0.059013	0.033997	0.12129	0.20234	0.15881	0.17341	0.24674	0.30052	0.065839	0.048609	0.19246	0.052356	0.24501	0.34158	0.2386	0.18843	-3.1375	-3.775	-3.125	-3.7687	-3.2375	-3.2458	-3.875	-3.2917	-3.3354	-3.7833	-3.1729	-3.7729	-3.5687	-3.2333	-3.7708	-3.3958	487.947	402.782	484.347	476.663	216.934	211.421	471.121	175.026	278.930	439.093	430.534	232.484	325.496	491.733	343.179	171.464	0.00081797	0.00028694	4.0569e-05	1511.9	3.2345e-06	7.2638e-06	1486.6	380.77	3.8109e-06	5.5609e-06	426.39	144.22	125.09	42.726	4.1543e-06	52.845	0.00073687	0.000734	0.0001935	1537.9	8.0853e-06	8.0098e-06	1520.6	389.76	8.1455e-06	7.9608e-06	441.73	148.72	132.37	44.561	7.5034e-06	54.981	518.436	338.532	271.855	182.580	220.200	327.637	182.128	186.766	286.037	353.066	186.612	190.305	190.631	195.789	340.583	195.190	-8191	255	
5241.607	1	1	0	0	0.060272	0.084019	0.10446	0.17328	0.055742	0.14127	0.28389	0.22636	0.094784	0.16844	0.19586	0.039951	0.068206	0.21321	0.15634	0.093661	-3.0167	-3.7271	-3.0479	-3.8333	-3.6521	-3.2479	-3.975	-3.4417	-3.3354	-3.7062	-3.1875	-3.5854	-3.5292	-3.2062	-3.6063	-3.3625	484.632	454.475	323.235	242.191	498.967	312.550	466.064	445.844	195.974	406.992	524.535	449.025	238.109	413.475	454.342	183.736	0.0006959	0.00023298	0.00017474	1519	7.8044e-06	1.2287e-05	1487.1	382.32	5.0583e-06	5.2932e-06	429.27	143.99	125.8	42.852	2.4811e-06	52.655	0.00075375	0.00072632	0.00018835	1545	8.304e-06	7.9584e-06	1519.4	391.31	8.3225e-06	7.9523e-06	442.51	149.22	132.88	44.63	7.4406e-06	55.219	526.823	300.843	328.803	182.521	187.853	317.888	182.058	186.849	370.823	310.698	186.612	190.203	190.025	196.221	283.712	195.098	-8191	255	
5241.726	1	1	0	0	0.19833	0.21046	0.09763	0.024765	0.075143	0.16123	0.39393	0.20204	0.093287	0.078222	0.088462	0.043644	0.044408	0.2016	0.086002	0.12061	-2.7562	-3.5479	-3.1813	-3.7271	-3.5896	-3.1792	-4.0563	-3.5792	-3.3688	-3.8229	-3.1167	-3.5333	-3.7562	-3.175	-3.5167	-3.4813	301.420	179.031	190.130	413.948	310.172	196.925	493.740	522.682	480.789	171.982	325.218	466.292	481.274	262.136	268.948	245.304	0.00062417	0.00050415	0.00013465	1514.5	3.9294e-06	1.2107e-05	1492.9	380.52	1.7012e-06	3.3978e-06	429.66	144.36	125.61	42.581	7.9979e-06	52.819	0.0007637	0.00072616	0.00018896	1549.5	8.392e-06	8.0166e-06	1523.5	392.18	8.4172e-06	8.0267e-06	442.92	150.02	133.13	44.52	7.6185e-06	55.496	171.607	347.727	259.118	182.320	308.036	354.465	181.840	186.837	291.265	493.696	186.506	190.439	190.220	195.894	272.249	195.124	-8191	255	
5241.822	1	1	0	0	0.032419	0.1137	0.26699	0.038	0.19453	0.062706	0.32491	0.12315	0.15176	0.20484	0.20924	0.087474	0.1981	0.20588	0.27149	0.13473	-2.6917	-3.5854	-3.2771	-3.5604	-3.6417	-2.9604	-3.9896	-3.65	-3.4354	-3.7271	-3.5146	-3.5458	-3.6688	-3.1167	-3.4417	-3.5979	198.661	266.863	231.290	474.235	428.039	424.441	434.957	210.890	270.995	460.626	432.701	203.185	174.223	171.017	209.626	485.322	0.00060243	0.00030292	6.8389e-05	1522.5	8.0233e-07	1.857e-07	1497.6	379.77	3.0208e-06	4.3413e-06	426.01	144.28	125.12	42.552	8.9496e-06	52.644	0.00076926	0.00072437	0.00019444	1556.2	8.3687e-06	7.9477e-06	1528.9	393.79	8.3749e-06	7.8561e-06	444.76	150.26	132.94	44.431	8.0333e-06	55.617	527.680	310.232	249.326	182.416	335.422	405.593	182.098	187.122	197.815	321.671	186.407	190.361	189.862	196.005	233.150	195.234	-8191	255	
5241.918	1	1	0	0	0.26905	0.13373	0.15538	0.43858	0.084181	0.30304	0.12554	0.28466	0.10458	0.21063	0.26511	0.21443	0.20463	0.11775	0.2264	0.25958	-2.725	-3.8563	-3.3479	-3.6625	-3.8417	-3.1063	-3.9229	-3.7687	-3.1604	-3.75	-3.5083	-3.4042	-3.7708	-3.2313	-3.4	-3.5667	478.209	279.480	336.354	500.831	448.916	426.490	491.977	415.616	224.162	270.690	453.988	483.055	173.578	193.413	274.655	385.550	0.00070002	0.00092	0.00029363	1518.8	9.6987e-07	3.6567e-06	1498.9	382.06	2.3697e-06	5.8499e-06	429.06	143.99	125.71	42.682	7.7927e-06	52.964	0.00075773	0.00070831	0.00020685	1557.4	8.2803e-06	7.7481e-06	1531.8	394.13	8.2732e-06	7.711e-06	446.71	150.35	132.85	44.437	8.5414e-06	55.689	527.920	283.101	256.899	182.427	516.717	436.562	181.947	186.811	229.983	356.853	186.403	190.404	190.102	195.959	263.581	195.067	-8191	255	
5242.015	1	1	0	0	0.18303	0.055543	0.040915	0.10136	0.091025	0.21431	0.12405	0.16184	0.07591	0.36093	0.1536	0.19442	0.046646	0.14534	0.18349	0.22811	-2.7333	-3.5833	-3.2396	-3.4375	-3.7958	-3.1417	-3.5833	-3.7729	-3.025	-3.6188	-3.4396	-3.2271	-3.8625	-3.3083	-3.3396	-3.6792	446.076	199.949	462.125	327.951	514.376	265.890	414.360	492.303	407.938	491.998	481.215	306.710	252.548	517.013	324.852	482.285	0.00064697	0.00088389	0.00034117	1523.6	5.7038e-06	4.9684e-06	1498.6	379.75	7.773e-06	7.0729e-06	431.11	143.94	124.98	42.727	8.2854e-06	52.434	0.00075132	0.00071186	0.00022058	1559.2	8.1619e-06	7.7943e-06	1538.8	393.56	8.1936e-06	7.8114e-06	448.98	150.21	132.52	44.565	8.7984e-06	55.45	528.194	335.126	308.796	182.307	297.406	358.513	182.023	186.891	335.868	302.294	186.282	190.279	190.424	195.873	286.262	195.106	-8191	255	
5242.135	1	1	0	0	0.23239	0.1045	0.10317	0.16607	0.046508	0.20674	0.39215	0.24766	0.21478	0.11425	0.20628	0.068128	0.10914	0.2207	0.20807	0.023624	-2.7083	-3.6	-3.4646	-3.4562	-3.8104	-3.275	-3.6083	-3.8438	-3.1354	-3.7188	-3.6646	-3.1	-3.6542	-3.3667	-3.4188	-3.7583	474.935	259.306	368.055	179.094	206.989	488.707	439.645	481.468	387.104	459.323	428.058	196.217	268.479	243.300	394.781	449.000	0.00065735	0.0011008	0.00028422	1521.3	4.4593e-06	2.4299e-06	1495.4	382.47	2.5214e-06	3.6732e-06	430.84	144.45	125.83	42.818	5.9995e-06	52.488	0.00072144	0.00072582	0.00022092	1558.1	7.8331e-06	8.005e-06	1536.2	393.69	7.7976e-06	8.0051e-06	447.03	150.02	131.78	44.646	8.6138e-06	55.32	170.261	515.695	337.750	182.245	232.223	311.350	181.950	187.034	401.477	284.048	186.521	190.464	190.451	195.868	324.584	194.848	-8191	255	
5242.207	1	1	0	0	0.15806	0.12759	0.24555	0.094919	0.21501	0.22508	0.19263	0.043313	0.15863	0.14141	0.26724	0.056065	0.23808	0.056438	0.19407	0.17413	-2.7438	-3.5229	-3.4958	-3.3396	-3.9313	-3.2979	-3.4813	-3.8979	-3.175	-3.6271	-3.6688	-3.2979	-3.8396	-3.6646	-3.1875	-3.8063	308.581	283.705	197.427	496.431	518.553	333.033	474.049	254.170	456.958	486.654	170.962	178.472	276.471	475.090	243.572	373.953	0.00069907	0.00076056	0.00022804	1524.1	5.5504e-06	9.0484e-06	1507.9	382.82	8.5129e-06	1.1039e-05	430.25	144.17	125.97	42.65	4.5854e-06	52.526	0.00069686	0.00075405	0.00021776	1555.4	7.6253e-06	8.3133e-06	1538.1	393.03	7.6659e-06	8.4748e-06	447.84	149.37	131.72	44.812	8.4662e-06	55.236	522.496	467.622	246.663	182.398	240.796	204.134	181.897	186.986	280.801	286.482	186.516	190.242	190.325	195.861	237.198	195.203	-8191	255	
5242.303	1	1	0	0	0.097217	0.14394	0.18598	0.26805	0.29679	0.11011	0.37101	0.37311	0.18797	0.0386	0.1425	0.17112	0.11004	0.050833	0.31179	0.17262	-2.6854	-3.4062	-3.6354	-3.275	-3.5229	-3.3833	-3.4208	-3.8042	-3.0667	-3.4792	-3.7667	-3.2062	-3.6396	-3.5604	-3.1667	-3.9125	510.206	204.040	349.741	440.983	365.123	445.283	460.658	463.001	448.295	187.085	370.644	498.217	452.291	189.903	272.293	173.168	0.00079477	0.00071435	0.00020659	1521.2	5.4314e-06	5.6606e-06	1501.5	379.93	4.8032e-06	7.1669e-06	429.96	144.86	125.6	42.565	5.5332e-06	52.554	0.00069426	0.00077807	0.00021095	1554	7.655e-06	8.5635e-06	1535.4	391.55	7.7155e-06	8.5578e-06	446.85	149.44	131.84	44.688	8.2207e-06	54.991	176.289	210.780	225.799	182.268	179.217	292.835	181.972	186.788	262.736	425.446	186.523	190.331	189.962	196.016	483.909	195.076	-8191	255	
5242.424	1	1	0	0	0.11833	0.099239	0.11748	0.27355	0.077862	0.13977	0.15836	0.12877	0.21179	0.15506	0.13897	0.043297	0.24123	0.090607	0.14977	0.24801	-2.8208	-3.4208	-3.5354	-3.2896	-3.6625	-3.4208	-3.3479	-3.9792	-3.4167	-3.35	-3.9583	-3.2896	-3.725	-3.7062	-3.2708	-3.8354	492.306	190.246	454.412	437.231	483.396	230.023	423.821	397.402	404.419	503.029	236.320	436.019	210.652	175.463	509.134	423.363	0.00079333	0.00047352	0.00020919	1523.9	6.9159e-06	4.6059e-06	1496.9	379.37	4.0923e-06	1.1897e-06	427.92	144.93	126.01	42.644	4.2219e-06	52.838	0.00071367	0.00077852	0.0002058	1552.2	7.9177e-06	8.447e-06	1532.4	390.41	8.0667e-06	8.4238e-06	445.71	148.93	132.82	44.73	8.0269e-06	55.032	525.266	206.631	278.520	182.397	198.339	220.563	182.013	186.867	304.984	221.431	186.511	190.341	190.171	195.864	211.200	194.997	-8191	255	
5242.520	1	1	0	0	0.32593	0.049104	0.20503	0.1091	0.3381	0.076474	0.33164	0.085437	0.13511	0.13012	0.087362	0.31232	0.26738	0.31353	0.13325	0.057703	-2.9542	-3.1833	-3.8021	-3.2562	-3.4688	-3.6208	-3.2229	-3.9521	-3.3125	-3.2917	-3.6146	-3.1688	-3.3396	-3.6437	-3.0333	-3.6521	292.829	398.682	315.525	471.582	480.024	407.379	469.362	420.336	367.310	429.106	457.227	460.868	507.760	168.868	207.468	182.029	0.00058241	6.3257e-05	7.8297e-05	1521.5	5.9684e-06	8.197e-06	1496.8	380.27	3.8887e-06	1.1087e-05	429.07	144.37	125.33	42.689	6.3997e-06	52.668	0.00075159	0.000759	0.0002025	1549.2	8.2628e-06	8.325e-06	1534	390.76	8.3366e-06	8.2576e-06	444.61	148.92	133.23	44.688	7.7412e-06	55.083	522.091	496.755	352.933	182.271	189.370	326.051	181.978	186.811	266.286	365.636	186.720	190.360	190.022	196.065	359.968	195.010	-8191	255	
5242.616	1	1	0	0	0.15875	0.21422	0.13582	0.38105	0.09913	0.068025	0.21519	0.15341	0.36431	0.12313	0.17192	0.21932	0.14185	0.070607	0.12488	0.17017	-3.0271	-3.0396	-3.7854	-3.3875	-3.3104	-3.7646	-3.4479	-3.9125	-3.4792	-3.3271	-3.875	-3.2958	-3.4417	-3.7479	-3.2042	-3.6437	252.930	342.342	351.015	185.338	345.417	169.660	424.833	477.893	449.020	517.508	448.753	417.732	383.662	170.354	389.427	350.260	0.00074716	0.00069613	7.6935e-05	1521.7	1.8271e-06	6.9384e-06	1492.1	381.66	1.7867e-06	8.1562e-06	427.77	143.8	126.35	42.667	5.1214e-06	52.674	0.00076197	0.00074315	0.00019394	1550.5	8.3755e-06	8.0668e-06	1526.8	391.45	8.3998e-06	8.0778e-06	442.73	149.24	133.36	44.589	7.4748e-06	55.13	520.666	230.946	308.704	182.226	324.262	382.863	182.041	186.739	361.270	293.447	186.534	190.172	190.922	196.157	348.802	195.055	-8191	255	
5242.735	1	1	0	0	0.10918	0.059894	0.13054	0.37753	0.22572	0.11426	0.085295	0.18067	0.2788	0.048778	0.20125	0.41081	0.21883	0.15109	0.18164	0.04232	-3.0625	-3.1333	-3.7042	-3.3667	-3.3042	-3.6646	-3.3458	-3.85	-3.5771	-3.1979	-3.8646	-3.525	-3.225	-3.9729	-3.2833	-3.525	412.514	463.532	487.848	475.872	239.941	408.259	207.426	415.255	235.892	257.199	397.204	461.253	194.161	435.910	512.109	437.043	0.00075708	0.00056274	0.00011355	1516	2.9515e-06	6.9981e-06	1497.3	381.7	6.3126e-06	4.6295e-06	430.09	143.91	126.01	42.773	5.7756e-06	52.632	0.00076372	0.00073662	0.00018925	1551	8.3615e-06	8.0331e-06	1528.8	392.91	8.3922e-06	7.9763e-06	443.53	149.63	133.37	44.57	7.4931e-06	55.45	521.722	467.792	260.876	182.464	338.063	348.995	182.049	186.659	270.568	326.678	186.671	190.239	190.169	196.089	304.048	195.103	-8191	255	
5242.831	1	1	0	0	0.077824	0.21595	0.23427	0.35964	0.10944	0.17498	0.066068	0.20359	0.12669	0.069441	0.32905	0.19446	0.12093	0.24924	0.080381	0.1989	-3.2375	-2.9354	-3.6562	-3.5875	-3.3771	-3.7854	-3.4375	-3.6021	-3.7438	-2.9917	-3.7458	-3.5521	-3.1833	-3.8729	-3.2042	-3.4896	312.196	346.101	242.324	512.803	290.818	399.344	454.352	434.800	454.110	258.264	197.114	509.315	439.794	440.182	457.380	176.961	0.00070083	0.00098756	2.7708e-05	1525.2	2.6595e-06	8.7856e-06	1495.2	382.14	5.5316e-06	3.1508e-06	428.33	144.11	125.44	42.696	7.6127e-06	52.644	0.00075691	0.00072213	0.00018905	1558.4	8.2559e-06	7.832e-06	1526.8	393.27	8.0984e-06	7.7358e-06	443.52	150.12	132.64	44.464	7.7523e-06	55.496	523.686	275.828	507.930	182.461	254.413	347.993	182.004	186.819	260.822	521.264	186.381	190.028	190.057	196.067	239.350	194.913	-8191	255	
5242.903	1	1	0	0	0.16515	0.21551	0.22099	0.26411	0.16053	0.34129	0.26432	0.14358	0.098416	0.14864	0.14757	0.19604	0.23041	0.19125	0.23875	0.1525	-3.2958	-2.9437	-3.4875	-3.5875	-3.2604	-3.7417	-3.3854	-3.5833	-3.6708	-3.1333	-3.5146	-3.7562	-3.1958	-3.9125	-3.4542	-3.3604	205.257	455.771	257.620	517.803	383.152	504.760	492.154	503.642	296.485	192.343	441.362	449.712	391.978	246.339	477.655	178.632	0.00068057	0.00058211	6.0338e-05	1522.3	3.1462e-06	3.0542e-06	1497.7	381.56	2.4371e-06	3.7641e-06	430.47	144.12	125.78	42.767	1.0642e-06	52.652	0.0007454	0.00069596	0.00019993	1556	8.1527e-06	7.597e-06	1532.7	393.52	8.1594e-06	7.585e-06	445.72	150.12	132.68	44.415	8.2954e-06	55.46	169.398	292.133	308.155	182.249	257.908	394.250	181.790	186.707	180.919	443.872	186.359	190.290	190.487	196.060	396.384	195.176	-8191	255	
5243.023	1	1	0	0	0.15438	0.18618	0.087176	0.14255	0.11495	0.058427	0.1487	0.33671	0.1983	0.087028	0.19851	0.11411	0.26718	0.34411	0.13172	0.30072	-3.35	-3.0438	-3.5354	-3.75	-3.2583	-3.7917	-3.6875	-3.4688	-3.8292	-3.2021	-3.6625	-3.8917	-3.0938	-3.6896	-3.3604	-3.1396	471.129	432.836	247.049	482.224	399.000	410.865	417.359	520.173	489.420	188.929	177.411	515.657	288.359	494.227	371.800	389.783	0.0008085	0.00078666	0.00030156	1522.7	1.2375e-06	5.6667e-06	1499.4	381.21	3.2642e-06	6.8212e-07	428.94	144.19	126.59	42.637	5.9695e-06	52.853	0.00074482	0.0006945	0.00021292	1557.7	8.1325e-06	7.6447e-06	1534.7	393.93	8.112e-06	7.716e-06	447.78	150.18	132.74	44.519	8.7554e-06	55.52	168.876	245.905	262.077	182.367	215.773	330.892	181.965	186.733	335.640	253.580	186.341	190.429	190.134	196.018	320.590	195.237	-8191	255	
5243.120	1	1	0	0	0.16787	0.075453	0.27081	0.13101	0.24493	0.10978	0.12033	0.30757	0.067186	0.1069	0.12669	0.2181	0.24613	0.20428	0.22921	0.12408	-3.3104	-3.3042	-3.2958	-3.8167	-3.0771	-3.7729	-3.7479	-3.3792	-3.9354	-3.3146	-3.5458	-3.8833	-3.1167	-3.85	-3.4188	-3.2771	466.170	415.233	195.833	526.939	224.086	346.379	453.190	451.150	301.989	496.658	316.900	217.695	207.959	502.617	505.692	527.537	0.00077959	0.00095107	8.717e-05	1523.9	3.743e-06	1.3978e-05	1496.8	380.14	2.4662e-06	5.2761e-06	429.92	143.96	126.32	42.763	1.8159e-06	52.659	0.00073193	0.00071234	0.00022214	1558.5	7.9837e-06	7.9481e-06	1539.2	392.56	7.9093e-06	8.0032e-06	449.14	150.16	132.26	44.635	8.8843e-06	55.522	169.547	220.842	169.877	182.217	338.688	330.953	181.905	187.115	286.641	326.063	186.688	190.292	190.120	195.895	427.689	195.052	-8191	255	
5243.216	1	1	0	0	0.08514	0.17031	0.22914	0.26364	0.18498	0.25708	0.17057	0.20708	0.24606	0.12653	0.046185	0.33119	0.25239	0.16872	0.06145	0.17207	-3.3479	-3.2896	-3.2167	-4.0333	-3.2729	-3.4958	-3.6771	-3.2146	-3.7	-3.3583	-3.3958	-3.8208	-3.175	-3.6208	-3.5812	-3.2021	483.830	428.033	448.028	501.075	472.363	191.646	270.740	449.152	524.457	511.456	343.757	183.517	187.597	379.247	313.051	181.054	0.00075938	6.1689e-05	0.0002557	1526.7	3.0436e-06	7.768e-06	1506.5	382.83	4.8918e-06	4.2318e-06	430.12	144.34	125.82	42.808	5.3015e-06	52.728	0.00072127	0.0007631	0.00022511	1561.7	7.8584e-06	8.5499e-06	1545.4	394.68	7.9209e-06	8.6859e-06	449.84	150.36	132.34	44.893	8.8607e-06	55.437	528.299	190.068	294.211	182.212	265.886	201.366	181.823	187.029	326.445	317.064	186.467	190.396	190.467	195.892	407.985	194.983	-8191	255	
5243.312	1	1	0	0	0.15447	0.16609	0.1929	0.22034	0.2668	0.02368	0.20452	0.082186	0.10438	0.11333	0.069196	0.11418	0.12525	0.096901	0.28288	0.17942	-3.2875	-3.3458	-3.1396	-4.0208	-3.0938	-3.4813	-3.9542	-3.2083	-3.6229	-3.4917	-3.2708	-3.7604	-3.3542	-3.3792	-3.6667	-3.1063	317.814	452.638	246.611	418.742	418.241	234.417	456.590	271.309	345.457	430.553	443.586	471.231	382.339	415.623	269.556	466.615	0.00070199	0.00045439	0.00010902	1530.4	5.4582e-06	6.6093e-06	1505.7	381.59	3.1152e-06	6.7764e-06	431.4	144.27	125.69	42.826	6.1151e-06	52.768	0.00072869	0.00081674	0.00022596	1565.6	8.0419e-06	9.0736e-06	1547.3	393.89	8.1847e-06	9.1334e-06	450.09	150.33	133.08	45.053	8.946e-06	55.418	510.885	245.612	254.600	182.213	179.646	313.308	181.790	186.826	305.781	352.555	186.236	190.137	190.112	196.154	476.946	194.952	-8191	255	
5243.432	1	1	0	0	0.14997	0.068705	0.050708	0.28969	0.095729	0.20154	0.26283	0.1859	0.21076	0.1113	0.10619	0.20845	0.15194	0.07638	0.16344	0.28871	-3.2708	-3.5083	-3.0729	-3.8729	-3.2562	-3.2604	-3.9729	-3.3604	-3.7062	-3.6271	-3.2938	-3.8979	-3.4125	-3.6708	-3.6104	-3.3875	509.208	486.307	231.430	508.630	395.892	419.595	497.570	445.684	355.320	382.997	499.652	449.293	184.575	245.008	284.481	449.814	0.00089492	0.0012134	0.00013115	1532.2	4.317e-06	5.9568e-06	1508.2	382.62	1.056e-05	5.2369e-06	429.89	144.51	127.09	42.856	5.4088e-06	52.909	0.00077073	0.00084917	0.00022739	1567.5	8.6578e-06	9.432e-06	1549.3	394.39	8.7946e-06	9.406e-06	450.22	150.39	135.1	45.238	9.078e-06	55.602	516.147	273.273	235.070	182.188	226.189	218.642	181.972	186.887	253.470	316.788	186.627	190.003	190.533	195.748	372.050	195.167	-8191	255	
5243.504	1	1	0	0	0.20496	0.14956	0.057219	0.49763	0.046606	0.20582	0.35905	0.046713	0.017561	0.1841	0.093529	0.39652	0.21314	0.23309	0.20525	0.31124	-3.3583	-3.4417	-3.1208	-3.9958	-3.2521	-3.3333	-4.0792	-3.2333	-3.5083	-3.7333	-3.3646	-3.7708	-3.3896	-3.3021	-3.7687	-3.3208	200.270	222.811	231.134	517.237	386.552	331.769	508.383	228.347	418.435	502.317	524.840	410.414	509.357	502.287	381.163	482.011	0.00081771	0.00067436	0.00024351	1536.4	5.4107e-06	1.9793e-06	1516.6	383.69	5.3762e-06	9.3444e-06	431.91	144.8	126.98	42.985	5.1226e-06	52.94	0.00084862	0.00088472	0.00023529	1578.2	9.622e-06	9.8442e-06	1559.8	396.43	9.9587e-06	9.9367e-06	454.09	151.29	137.56	45.524	9.5323e-06	56.057	520.329	197.427	238.035	182.316	198.912	341.052	182.133	186.631	293.121	376.006	186.540	190.132	190.181	195.838	275.708	195.121	-8191	255	
5243.600	1	1	0	0	0.1224	0.14002	0.19361	0.04178	0.14398	0.2191	0.38653	0.14363	0.1593	0.045667	0.21278	0.082852	0.089776	0.29385	0.12391	0.12536	-2.9917	-3.6417	-3.0687	-3.8667	-3.6792	-2.9062	-3.9354	-3.4	-3.4292	-3.6896	-3.2146	-3.7687	-3.5729	-3.1396	-3.8104	-3.3396	350.819	452.676	355.573	376.158	383.882	407.618	462.048	464.860	397.428	261.158	509.728	478.933	356.811	187.839	225.067	412.527	0.0006238	0.00072164	0.00027901	1546	1.2826e-05	4.5854e-06	1524.6	384.58	8.518e-06	4.6994e-06	433.52	144.9	126.56	42.99	7.8263e-06	52.85	0.00092472	0.00091182	0.00023915	1586.2	1.0282e-05	9.959e-06	1566.7	398.67	1.037e-05	9.9485e-06	453.84	152.2	138.33	45.471	9.2678e-06	56.234	516.151	265.186	295.771	182.199	205.408	303.202	181.882	186.518	367.895	389.040	186.097	190.215	190.086	195.756	367.758	194.774	-8191	255	
5243.696	1	1	0	0	0.32776	0.15817	0.082077	0.28953	0.21513	0.063721	0.32995	0.15057	0.22081	0.037564	0.16969	0.19357	0.038268	0.069836	0.18869	0.34172	-2.9292	-3.7354	-2.8937	-3.7125	-3.5312	-3.1604	-3.8583	-3.3354	-3.3021	-3.7729	-3.2917	-3.5375	-3.5396	-3.1542	-3.7521	-3.3667	284.313	510.584	367.648	462.488	476.543	334.252	487.958	434.636	450.955	325.774	177.273	175.286	212.832	185.048	176.723	462.041	0.00071446	0.00058373	0.00022982	1550.9	2.0163e-06	5.9212e-06	1524.1	384.64	4.4777e-06	4.6066e-06	432.71	145.31	126.56	42.894	5.2616e-06	52.867	0.00093481	0.00090376	0.00023176	1596.3	1.0308e-05	9.8483e-06	1565.4	400.34	1.0257e-05	9.8614e-06	453.34	153	138.1	45.372	9.1153e-06	56.458	513.536	301.697	243.325	182.091	369.483	507.881	181.859	186.538	419.720	317.501	186.320	190.346	190.336	195.892	190.264	194.896	-8191	255	
5243.815	1	1	0	0	0.041277	0.04023	0.15182	0.29555	0.27378	0.12188	0.1879	0.37816	0.13711	0.062119	0.15569	0.070634	0.1215	0.10573	0.046065	0.298	-2.8104	-3.6125	-3.0438	-3.6083	-3.6188	-3.1396	-3.9875	-3.4979	-3.0938	-3.7583	-3.1854	-3.5583	-3.7375	-3.1417	-3.5167	-3.5563	463.009	250.735	335.267	176.672	350.483	187.054	489.240	472.354	252.339	453.342	461.220	480.049	284.856	478.268	461.989	483.310	0.00079502	0.00044271	0.00011959	1550.8	2.6265e-06	1.2819e-05	1529.2	384.69	2.9773e-06	3.1255e-06	434.47	146.11	127.05	42.912	2.7505e-06	52.608	0.00091654	0.00088071	0.00022979	1598.8	1.0136e-05	9.5937e-06	1569	400.95	1.0154e-05	9.568e-06	454.49	153.44	137.68	45.266	9.4017e-06	56.47	522.875	240.418	234.184	182.318	247.228	324.719	181.773	186.633	313.467	400.186	186.266	190.260	189.900	196.005	470.688	194.967	-8191	255	
5243.911	1	1	0	0	0.028226	0.15588	0.1238	0.39049	0.042339	0.23757	0.14901	0.19355	0.20689	0.10612	0.16704	0.12836	0.15393	0.13839	0.097881	0.13063	-2.6458	-3.8438	-3.2375	-3.4833	-3.6104	-3.0667	-3.6854	-3.625	-3.1562	-3.8729	-3.2625	-3.3917	-3.7062	-3.1625	-3.55	-3.6125	264.297	210.666	232.763	196.677	353.828	186.791	447.411	464.356	255.318	486.028	333.651	459.327	516.545	497.281	278.329	429.373	0.00073696	0.00049146	9.8587e-05	1550.8	5.2324e-06	9.5109e-06	1520	384.57	3.6571e-06	4.6845e-06	436.32	145.21	126.12	42.821	2.5454e-06	52.807	0.00090613	0.00085349	0.00023925	1600.3	9.8345e-06	9.2087e-06	1567.1	400.62	9.7556e-06	9.0377e-06	455.01	152.8	136.32	45.016	9.5239e-06	56.365	517.159	266.006	204.705	182.342	354.255	345.915	181.861	186.590	195.956	300.896	186.370	190.379	189.963	195.845	184.864	195.222	-8191	255	
5244.008	1	1	0	0	0.10299	0.10036	0.25963	0.095127	0.11027	0.26979	0.20249	0.11601	0.052316	0.1217	0.15315	0.097698	0.12081	0.078684	0.2257	0.26377	-2.7104	-3.5062	-3.1979	-3.5208	-3.725	-3.1271	-3.7354	-3.5979	-3.0146	-3.6208	-3.5	-3.2875	-3.7979	-3.1792	-3.325	-3.55	311.199	413.469	265.865	216.702	501.275	406.690	517.704	406.988	384.518	248.806	201.498	176.555	318.695	171.598	482.323	466.761	0.00081726	0.00044537	0.00016364	1544	3.8054e-06	4.0362e-07	1523	383.6	5.8648e-06	2.8089e-06	433.14	145.09	125.78	42.879	8.9423e-06	52.794	0.00085528	0.00079632	0.0002419	1591.6	9.3016e-06	8.6345e-06	1566	398.76	9.2554e-06	8.6128e-06	454.23	152.31	135.12	44.916	9.6533e-06	56.089	522.254	207.136	188.249	182.402	262.439	356.374	181.876	186.789	274.519	313.684	186.510	190.380	189.898	195.850	263.700	195.013	-8191	255	
5244.104	1	1	0	0	0.19107	0.3335	0.3136	0.29924	0.055308	0.16007	0.18236	0.31103	0.089067	0.32664	0.19258	0.19102	0.15551	0.27698	0.13657	0.090958	-2.6562	-3.4313	-3.5812	-3.5312	-3.7896	-3.3167	-3.5563	-3.65	-3.2062	-3.5792	-3.5062	-3.2896	-3.6729	-3.1792	-3.3833	-3.6875	273.687	481.619	391.209	507.246	514.414	345.854	478.472	484.772	247.192	226.409	427.712	523.734	308.000	438.737	233.376	261.621	0.00069054	0.00059887	0.00023678	1542.6	5.4165e-06	1.1752e-05	1514.9	383.95	3.6005e-07	3.4579e-06	431.64	144.71	125.21	42.736	8.6416e-06	53.001	0.00081168	0.0007937	0.00024561	1584.9	8.7911e-06	8.7447e-06	1564.4	397.93	8.6905e-06	8.6315e-06	453.36	151.3	133.78	44.878	9.6154e-06	55.852	525.878	292.181	309.251	182.284	291.343	241.197	181.852	186.756	294.734	265.966	186.594	190.253	189.994	195.870	298.206	194.894	-8191	255	
5244.200	1	1	0	0	0.20083	0.10973	0.018833	0.19719	0.14469	0.11	0.14132	0.13514	0.11411	0.12735	0.19628	0.07418	0.054577	0.21293	0.21536	0.13135	-2.7833	-3.5146	-3.4688	-3.3229	-3.8146	-3.3187	-3.6458	-3.9458	-3.2062	-3.4396	-3.6792	-3.2938	-3.9604	-3.5	-3.3063	-3.9583	229.433	291.360	450.152	506.880	435.258	338.645	437.890	474.388	288.456	490.716	520.928	404.553	409.012	505.221	408.144	170.072	0.00070076	0.00071177	0.00014262	1537.8	5.0309e-06	1.3426e-05	1514.6	382	1.8815e-06	8.0834e-06	430.63	144.11	125.48	42.661	7.7581e-06	52.746	0.00077467	0.000809	0.00023847	1579	8.396e-06	8.8899e-06	1557.2	395.97	8.2825e-06	8.9295e-06	450.91	150.58	132.82	44.958	9.2799e-06	55.649	521.934	179.918	326.941	182.487	277.035	251.757	181.839	186.708	282.763	269.170	186.456	190.044	190.269	196.077	349.053	195.050	-8191	255	
5244.296	1	1	0	0	0.14092	0.16117	0.11543	0.061833	0.18125	0.16709	0.24318	0.17264	0.18873	0.16189	0.32076	0.15693	0.30651	0.42291	0.048119	0.32947	-2.7083	-3.6188	-3.3708	-3.1667	-3.5875	-3.3917	-3.3333	-3.8375	-3.2521	-3.4896	-3.8354	-3.0563	-3.5583	-3.4271	-3.2354	-3.8167	449.739	286.619	319.262	431.872	331.990	412.724	446.800	353.206	218.834	288.683	489.239	178.805	493.669	460.332	415.659	393.294	0.00071216	0.0003317	0.00024416	1542.8	6.6403e-06	8.2925e-06	1511.5	382.76	6.5618e-06	3.5135e-06	432.79	143.99	125.89	42.84	6.512e-06	52.732	0.00075118	0.00083632	0.00023381	1576.6	8.2786e-06	9.2566e-06	1552.1	395.77	8.3323e-06	9.3226e-06	451.09	150.33	133.43	45.101	9.1234e-06	55.558	169.310	287.650	277.776	182.319	221.756	262.626	181.865	186.496	233.339	317.634	186.286	190.270	190.089	195.834	296.315	195.241	-8191	255	
5244.417	1	1	0	0	0.063199	0.080545	0.15954	0.42206	0.16289	0.13381	0.16614	0.1912	0.17043	0.073454	0.1099	0.064291	0.071059	0.19559	0.15741	0.1036	-2.9292	-3.3104	-3.6208	-3.1479	-3.6542	-3.6375	-3.3958	-3.8667	-3.2833	-3.3063	-3.6729	-3.1375	-3.5292	-3.7167	-3.2625	-3.9021	469.076	347.970	432.537	180.516	476.249	346.401	462.573	493.786	392.725	204.884	513.950	516.104	411.882	449.570	331.273	418.125	0.00081846	0.0011785	0.00019457	1543.2	4.749e-06	1.0987e-06	1510.4	381.87	4.5372e-06	8.01e-06	431.33	144.44	126.47	42.822	9.2569e-06	52.895	0.00077544	0.00086126	0.00022903	1574.3	8.5927e-06	9.3937e-06	1552.5	394.32	8.7142e-06	9.423e-06	450.88	149.95	133.89	45.038	8.8747e-06	55.334	527.813	239.826	367.540	182.249	219.946	395.779	181.929	186.883	285.527	349.743	186.507	190.199	190.077	195.885	303.536	195.005	-8191	255	
5244.511	1	1	0	0	0.34691	0.21039	0.2518	0.26291	0.15815	0.066768	0.16052	0.2712	0.21102	0.085441	0.12898	0.036503	0.29207	0.10398	0.055896	0.13052	-2.9375	-3.2604	-3.5292	-3.2542	-3.4667	-3.7917	-3.3479	-3.7896	-3.3729	-3.2	-3.8063	-3.025	-3.5	-3.7167	-3.0542	-3.7625	426.080	497.024	436.047	472.885	436.830	308.657	450.558	477.494	262.376	484.317	393.391	179.843	462.894	188.910	171.318	370.296	0.00090178	0.0012338	0.00025307	1537.7	7.9328e-06	3.4857e-06	1508.4	381.91	8.7975e-06	4.4194e-06	431.01	144.44	126.19	42.771	6.9755e-06	52.88	0.00080416	0.00084497	0.00022375	1568.4	8.9105e-06	9.1993e-06	1550.1	393.74	9.0863e-06	9.192e-06	449.21	149.81	134.77	44.983	8.6655e-06	55.332	517.747	264.465	313.693	182.371	220.695	374.298	181.841	186.796	199.343	365.402	186.368	190.186	190.141	195.729	372.684	195.225	-8191	255	
5244.607	1	1	0	0	0.3062	0.20525	0.17554	0.31368	0.011724	0.07412	0.15888	0.17318	0.072868	0.3051	0.096254	0.14987	0.31084	0.14833	0.089894	0.42655	-2.9833	-3.0229	-3.5312	-3.3563	-3.4667	-3.6771	-3.1729	-3.7875	-3.4833	-3.1562	-3.6875	-3.2167	-3.2958	-3.7812	-3.0333	-3.7229	259.664	246.968	323.094	503.800	279.165	235.894	456.346	451.023	220.593	418.685	360.260	507.726	497.645	463.954	447.820	481.706	0.00086029	0.0010208	0.00020499	1537.1	4.1454e-06	7.482e-06	1504	382.46	2.8044e-06	6.366e-06	430.96	144.59	125.15	42.873	4.0616e-06	52.511	0.0008332	0.00082496	0.00021851	1568.2	9.2669e-06	9.0428e-06	1544.5	394.66	9.2702e-06	8.9724e-06	448.43	150.13	135.06	44.958	8.3843e-06	55.485	525.775	256.583	355.816	182.359	246.705	327.717	182.123	186.832	252.392	425.021	186.445	190.309	189.968	196.144	398.014	195.243	-8191	255	
5244.728	1	1	0	0	0.097145	0.15476	0.10759	0.3771	0.2039	0.091795	0.11969	0.22557	0.10806	0.044567	0.14559	0.26872	0.088693	0.24528	0.35907	0.18277	-3.0521	-3.1063	-3.7917	-3.7167	-3.4354	-3.7583	-3.2438	-3.7687	-3.6229	-3.1083	-3.7229	-3.3563	-3.3146	-3.9	-2.9646	-3.6646	328.069	405.981	324.490	195.711	374.379	267.022	503.146	508.460	511.320	379.795	496.826	497.162	285.996	444.394	202.711	173.741	0.00072433	0.0004497	0.00024895	1536.1	5.7032e-06	7.2163e-06	1508.3	382.12	6.9203e-06	1.1793e-06	431.93	144.12	126.6	42.773	6.378e-06	52.884	0.00084222	0.00080274	0.00021047	1573.2	9.2167e-06	8.8506e-06	1544.3	395.5	9.2586e-06	8.7937e-06	446.86	150.46	135.34	44.871	8.1476e-06	55.72	528.488	257.174	349.410	182.203	219.417	375.950	181.836	186.653	299.588	452.750	186.236	190.177	190.069	196.118	316.721	195.014	-8191	255	
5244.800	1	1	0	0	0.19415	0.26006	0.042316	0.33141	0.17232	0.08141	0.31356	0.2473	0.1467	0.075338	0.062286	0.42007	0.020502	0.22003	0.14068	0.096659	-3.2438	-2.9833	-3.6729	-3.6958	-3.1854	-3.8937	-3.4437	-3.5812	-3.5312	-3.1063	-3.7146	-3.55	-3.2771	-3.7729	-3.3	-3.4125	299.943	423.536	485.148	466.919	427.811	401.208	456.226	400.147	468.291	503.134	304.056	484.935	293.744	435.831	207.501	173.470	0.00076657	0.0011021	0.00015524	1536.7	4.0713e-06	7.1174e-06	1512.8	382.4	1.3398e-06	2.9445e-06	430.81	144.15	126.11	42.827	6.0166e-06	52.588	0.00083049	0.00078833	0.00020585	1575.1	9.042e-06	8.5852e-06	1546.7	396.07	9.0279e-06	8.5484e-06	446.72	150.97	134.56	44.838	8.191e-06	55.66	523.306	268.956	222.245	182.244	294.721	284.492	181.945	186.543	244.018	483.597	186.592	190.186	189.876	195.991	255.065	195.281	-8191	255	
5244.896	1	1	0	0	0.083089	0.057235	0.19237	0.31635	0.14721	0.25007	0.065839	0.22092	0.046054	0.15977	0.20526	0.1437	0.10845	0.29451	0.11388	0.08263	-3.1437	-3.0854	-3.6854	-3.7313	-3.0062	-3.7938	-3.5458	-3.3875	-3.6917	-2.8312	-3.6896	-3.6375	-3.1979	-3.7625	-3.3417	-3.3458	205.993	224.715	222.204	173.672	515.243	354.084	451.180	462.228	406.450	302.839	471.428	414.569	483.782	512.858	170.523	175.548	0.00059615	0.00011825	0.00026958	1535.9	6.4566e-06	4.3117e-06	1509.9	380.81	4.4068e-06	6.3572e-06	430.26	144.2	125.74	42.791	7.9928e-06	52.679	0.00080505	0.00076122	0.00021124	1576.1	8.86e-06	8.2935e-06	1545.7	396.1	8.7523e-06	8.2047e-06	448.29	150.98	133.85	44.656	8.5965e-06	55.785	525.352	260.431	207.197	182.240	305.006	303.077	181.932	186.528	356.302	383.671	186.519	190.227	190.131	195.868	261.331	194.823	-8191	255	
5244.992	1	1	0	0	0.21299	0.063787	0.099852	0.13885	0.36822	0.09397	0.33428	0.28595	0.22089	0.07059	0.17098	0.12961	0.19502	0.12125	0.14992	0.083918	-3.2833	-3.1625	-3.4708	-3.8312	-3.0208	-3.8854	-3.5604	-3.575	-3.7771	-3.1979	-3.7292	-3.6771	-3.0854	-3.7646	-3.1917	-3.2125	310.555	516.805	226.351	526.480	256.840	379.908	477.257	465.195	385.256	277.560	492.371	468.562	504.888	333.125	176.591	293.724	0.00064309	0.00039237	0.00026829	1536	2.3642e-06	1.1935e-05	1506.4	381.14	1.132e-05	6.216e-06	431.58	143.98	126.2	42.662	6.1417e-06	52.465	0.00078768	0.00073602	0.00022074	1576	8.6085e-06	8.127e-06	1548.3	395.39	8.594e-06	8.0972e-06	449.83	150.83	133.66	44.556	8.9431e-06	55.672	169.794	337.049	174.232	182.175	234.354	293.210	181.756	186.735	305.880	297.211	186.029	190.198	190.210	196.052	268.041	195.061	-8191	255	
5245.111	1	1	0	0	0.077369	0.31429	0.15183	0.14373	0.1441	0.16394	0.12193	0.24328	0.11104	0.14139	0.11466	0.18298	0.06244	0.21343	0.090793	0.060669	-3.2188	-3.0958	-3.3333	-3.6521	-3.0896	-3.5375	-3.6604	-3.3917	-3.8208	-3.2896	-3.5563	-3.6625	-3.0229	-3.6958	-3.3375	-3.1	452.434	176.941	511.736	514.974	482.357	511.456	462.971	187.342	268.937	207.432	514.980	449.491	465.840	329.109	206.641	410.562	0.000669	6.1784e-06	0.00013018	1539.9	8.9715e-06	1.3354e-05	1508	381.47	4.5832e-06	1.3438e-05	431.16	143.37	125.85	42.793	5.2491e-06	52.482	0.00077331	0.00073228	0.00022731	1576.4	8.356e-06	8.1006e-06	1550.8	395.08	8.3743e-06	8.2108e-06	450.39	150.18	133.07	44.67	9.1351e-06	55.45	169.318	413.222	432.566	182.344	290.143	313.440	181.931	186.920	297.624	319.861	186.323	190.156	190.162	195.717	344.901	194.914	-8191	255	
5245.207	1	1	0	0	0.098363	0.07012	0.094119	0.23129	0.18444	0.1796	0.36114	0.26249	0.094276	0.10952	0.23167	0.1819	0.13343	0.040094	0.19613	0.17112	-3.2125	-3.2083	-3.0646	-3.7167	-2.9375	-3.6896	-3.6521	-3.1542	-3.8271	-3.2333	-3.4208	-3.8292	-3.1458	-3.5938	-3.5833	-3.1146	283.811	382.047	479.204	457.320	384.010	527.663	399.065	516.098	432.348	328.091	517.908	410.636	527.790	524.409	397.064	234.453	0.00064191	0.0010419	0.00016968	1535.7	4.1055e-06	6.388e-07	1504.5	381.87	6.1186e-06	7.2128e-06	431.13	144.05	126.46	42.874	6.8541e-06	52.477	0.00074746	0.0007633	0.00022949	1571.3	8.0461e-06	8.4139e-06	1547.5	394.33	7.9761e-06	8.4906e-06	449.21	150.03	131.92	44.766	8.8595e-06	55.325	527.804	489.834	265.353	182.270	334.196	387.233	181.860	186.871	286.362	308.210	186.517	190.289	190.145	195.921	388.296	195.252	-8191	255	
5245.303	1	1	0	0	0.071819	0.075185	0.11202	0.25794	0.062951	0.12656	0.23985	0.13334	0.18661	0.04222	0.2265	0.054132	0.11774	0.082698	0.092042	0.22133	-3.0854	-3.2	-3.2687	-3.9708	-3.1875	-3.4458	-3.7438	-3.3688	-3.6521	-3.3292	-3.3521	-3.925	-3.0187	-3.5938	-3.7479	-3.2479	426.650	224.283	278.077	490.718	506.713	295.768	451.894	439.999	391.445	317.253	173.965	456.396	345.223	423.985	503.916	479.867	0.00070761	0.00062026	5.1448e-05	1532.6	2.2774e-06	6.6965e-06	1501.7	382.42	6.281e-06	7.4214e-06	430.55	143.27	126	42.871	6.4685e-06	52.481	0.00071108	0.00078738	0.00022153	1566.1	7.7365e-06	8.7937e-06	1544.4	393.41	7.8421e-06	8.7743e-06	448.33	149.46	132.09	44.928	8.6419e-06	55.132	515.560	516.715	302.320	182.380	169.114	334.913	181.869	186.803	221.420	282.239	186.643	190.364	190.016	195.859	332.546	194.999	-8191	255	
5245.376	1	1	0	0	0.13092	0.12637	0.10886	0.34456	0.076887	0.17956	0.33709	0.14566	0.18874	0.20943	0.31716	0.25805	0.20474	0.14969	0.17787	0.30192	-3.2562	-3.4104	-3.0583	-3.9375	-3.2375	-3.2292	-3.8375	-3.1979	-3.7479	-3.4146	-3.2583	-3.8875	-3.2125	-3.3458	-3.7208	-3.2458	375.154	409.699	382.240	509.375	293.371	447.582	503.129	496.715	366.730	169.372	468.407	435.243	497.662	445.265	170.138	494.947	0.00079644	0.00025525	0.00029655	1530.8	6.2473e-06	5.74e-06	1504.4	381.4	6.463e-06	3.4843e-06	427.24	143.64	124.91	42.774	4.7268e-06	52.372	0.00072876	0.00081088	0.00021791	1564.1	7.9803e-06	8.8277e-06	1542.6	391.98	8.0799e-06	8.7994e-06	446.38	149.17	132.31	44.791	8.3177e-06	54.831	513.590	495.184	379.737	182.394	244.803	375.157	181.953	186.872	231.444	280.772	186.697	190.329	190.239	196.003	318.722	195.009	-8191	255	
5245.495	1	1	0	0	0.048402	0.18276	0.059987	0.12788	0.070738	0.15091	0.29636	0.22076	0.18283	0.19969	0.17325	0.06907	0.15665	0.060106	0.14756	0.10445	-3.0625	-3.4146	-3.0021	-3.9875	-3.2375	-3.3271	-3.9479	-3.2354	-3.6792	-3.6708	-3.2521	-3.7542	-3.4333	-3.3979	-3.8	-3.1625	207.835	279.648	214.327	502.369	344.669	393.086	475.902	466.651	211.637	467.596	436.929	476.157	521.343	412.783	199.367	184.478	0.00082681	0.00092684	0.00025929	1526.6	6.557e-06	1.8076e-07	1503	381.79	6.6798e-06	9.3666e-06	428.53	143.31	124.93	42.821	2.1118e-06	52.376	0.00074682	0.00078772	0.0002098	1556.6	8.2399e-06	8.6198e-06	1538	391.43	8.368e-06	8.5728e-06	446.29	148.72	133.18	44.823	8.2076e-06	54.868	526.538	273.313	279.268	182.514	202.788	437.817	181.772	186.689	247.216	360.758	186.516	190.299	190.100	195.880	360.802	195.046	-8191	255	
5245.591	1	1	0	0	0.20056	0.25009	0.11267	0.013494	0.12918	0.17436	0.17771	0.35119	0.15366	0.26452	0.04494	0.19906	0.24229	0.12431	0.22087	0.062384	-3.1208	-3.5938	-3.0167	-3.9021	-3.4125	-3.1979	-3.8229	-3.1958	-3.4167	-3.6854	-3.1146	-3.7938	-3.5583	-3.4458	-3.7354	-3.5229	315.589	255.893	475.154	204.600	343.850	309.234	492.002	201.652	394.803	400.477	506.408	500.589	528.026	515.535	439.893	221.698	0.00081072	0.0011398	0.00018283	1531.5	9.2403e-06	2.932e-06	1500.3	381.54	3.5394e-06	4.6026e-06	428.41	143.64	125.31	42.753	5.6562e-06	52.545	0.00078482	0.00078286	0.00020621	1563.1	8.6652e-06	8.534e-06	1536.9	392.46	8.7417e-06	8.4753e-06	445.08	149.12	133.59	44.741	7.9269e-06	55.09	525.616	287.009	329.130	182.276	195.333	274.496	182.064	186.783	266.421	357.476	186.532	190.223	189.973	195.836	292.396	194.984	-8191	255	
5245.688	1	1	0	0	0.15663	0.26026	0.072394	0.10973	0.21501	0.13725	0.32682	0.075476	0.084246	0.036573	0.1811	0.065276	0.19168	0.17726	0.16044	0.17975	-3	-3.6063	-2.9	-3.8583	-3.5667	-3.1542	-3.9896	-3.4708	-3.5208	-3.7521	-3.3167	-3.7687	-3.6229	-3.1375	-3.6813	-3.3958	288.838	490.979	249.571	482.940	189.389	439.629	451.306	520.669	477.235	329.321	430.785	496.598	495.335	499.990	240.584	430.153	0.00068026	0.00015399	2.0804e-05	1530.7	4.8631e-06	2.5186e-06	1502.6	381.69	1.8636e-06	5.9581e-06	429.44	144.02	125.08	42.556	8.3072e-06	52.411	0.00079927	0.00075938	0.00019852	1562.8	8.7526e-06	8.3053e-06	1536.8	392.54	8.6944e-06	8.23e-06	443.95	149.83	133.66	44.563	7.7096e-06	55.254	520.665	260.439	306.592	182.262	221.556	294.548	181.896	186.823	376.313	340.140	186.476	190.182	190.379	195.902	285.666	195.421	-8191	255	
5245.808	1	1	0	0	0.15621	0.070092	0.24159	0.26442	0.25799	0.089887	0.39884	0.3658	0.16458	0.14672	0.28379	0.14565	0.10573	0.13672	0.065891	0.13916	-2.9208	-3.7562	-3.0812	-3.7875	-3.6042	-3.2229	-3.8563	-3.6292	-3.4271	-3.9833	-3.3167	-3.6396	-3.6604	-3.25	-3.65	-3.5312	367.721	281.771	506.723	202.300	448.807	431.691	471.883	449.885	438.548	515.954	421.108	436.708	488.480	237.574	201.755	479.204	0.00067885	0.0002989	0.00030702	1528.6	4.6062e-06	3.2316e-06	1506.6	381.54	5.2016e-06	4.3257e-06	430.54	144.29	126.09	42.687	3.2117e-06	52.349	0.00078567	0.00074779	0.00019305	1564.1	8.5568e-06	8.1761e-06	1537.1	393.41	8.5093e-06	8.0886e-06	443.73	150	133.17	44.492	7.7405e-06	55.305	524.287	275.090	321.128	182.118	243.651	344.706	181.869	186.734	279.837	442.200	186.595	190.274	190.520	195.859	342.355	195.036	-8191	255	
5245.904	1	1	0	0	0.14901	0.10609	0.25964	0.20109	0.24218	0.16184	0.39392	0.22921	0.11932	0.097229	0.28308	0.021101	0.061819	0.22688	0.15774	0.14988	-2.8563	-3.8479	-3.15	-3.5667	-3.8604	-3.2125	-3.8979	-3.5271	-3.0292	-3.7188	-3.3688	-3.6083	-3.5354	-3.3042	-3.7667	-3.6333	217.263	200.866	209.484	489.406	194.465	459.678	446.904	460.568	525.467	410.038	436.056	247.791	519.399	516.920	391.569	350.147	0.00075295	0.00089911	0.0001525	1532.9	4.6817e-06	1.2308e-05	1503.9	381.21	5.887e-06	6.1777e-06	429.9	143.91	125.67	42.529	6.9555e-06	52.464	0.00077147	0.00072615	0.00019712	1565.8	8.3268e-06	7.874e-06	1537	393.67	8.35e-06	7.8774e-06	444.44	150.03	132.73	44.38	8.0544e-06	55.387	521.103	269.713	181.039	182.291	259.486	338.339	182.015	186.668	271.800	371.425	186.370	190.453	190.238	195.980	246.972	195.033	-8191	255	
5245.999	1	1	0	0	0.16909	0.20088	0.16766	0.099835	0.14611	0.09672	0.014579	0.23074	0.16555	0.086064	0.32691	0.017722	0.081357	0.13662	0.23237	0.14803	-2.7396	-3.7333	-3.1292	-3.6396	-3.7354	-2.9542	-3.7562	-3.7938	-3.1646	-3.7167	-3.2938	-3.3792	-3.8	-3.2896	-3.4917	-3.8958	310.119	171.464	378.603	454.450	457.406	414.033	476.454	386.982	376.464	448.928	429.552	521.089	513.798	426.988	318.590	296.597	0.00069942	0.00089957	0.00022064	1529.1	5.1531e-06	8.6866e-06	1502.8	380.58	1.3819e-06	7.2136e-06	429.22	143.84	125.96	42.46	9.1884e-06	52.483	0.00074985	0.00070072	0.00020635	1566.6	8.2239e-06	7.6371e-06	1538	393.3	8.1943e-06	7.6202e-06	446.03	149.95	132.6	44.295	8.4862e-06	55.389	519.312	276.567	201.917	182.301	277.103	391.258	181.834	186.728	352.274	359.063	186.385	190.216	190.383	195.937	222.477	195.168	-8191	255	
5246.097	1	1	0	0	0.079709	0.072824	0.21281	0.21545	0.22116	0.17	0.21545	0.28026	0.16865	0.025651	0.20179	0.13279	0.15702	0.091384	0.15898	0.11973	-2.7958	-3.5938	-3.3958	-3.4813	-3.7562	-3.1542	-3.8187	-3.7458	-3.2562	-3.6771	-3.4188	-3.2708	-3.8479	-3.35	-3.4938	-3.7833	226.343	302.328	332.933	179.834	316.887	303.764	190.542	487.844	282.236	441.835	521.602	242.593	493.786	490.294	348.682	511.524	0.00071485	0.00032605	0.00016939	1530.1	4.5686e-06	9.923e-06	1504.5	381.48	8.4681e-06	2.2569e-06	428.11	144	124.73	42.804	5.2688e-06	52.492	0.00074124	0.0006984	0.00021661	1564.6	8.0654e-06	7.6624e-06	1541.6	392.8	7.9807e-06	7.7711e-06	446.71	149.75	131.69	44.496	8.6901e-06	55.233	525.085	200.467	301.375	182.269	310.775	261.405	181.923	186.755	383.008	231.527	186.423	190.318	190.209	195.751	323.838	195.256	-8191	255	
5246.191	1	1	0	0	0.29932	0.17835	0.064863	0.25944	0.1061	0.26409	0.20314	0.31799	0.3851	0.2465	0.094578	0.37169	0.096505	0.25071	0.13524	0.078529	-2.7917	-3.5875	-3.425	-3.45	-3.8667	-3.3021	-3.5563	-3.8	-3.1667	-3.6604	-3.5438	-3.1396	-3.8875	-3.2833	-3.2042	-3.775	247.239	313.794	501.907	172.750	477.389	397.404	476.616	462.516	411.626	505.237	287.269	528.633	353.780	431.982	213.299	386.213	0.00074614	0.0003398	7.3722e-05	1529.4	2.9714e-06	7.1139e-06	1506.3	382.09	1.9373e-06	1.7757e-06	428.46	143.38	125.52	42.66	5.2843e-06	52.452	0.000719	0.00072637	0.00022076	1565.5	7.7918e-06	7.9869e-06	1543.3	393.35	7.7489e-06	8.0358e-06	447.02	149.5	131.46	44.595	8.5833e-06	55.128	178.497	234.571	404.017	182.398	277.206	276.821	182.104	186.783	462.457	501.093	186.439	190.416	190.208	195.740	235.861	195.290	-8191	255	
5246.287	1	1	0	0	0.036635	0.076169	0.30036	0.2173	0.1602	0.10812	0.15536	0.21461	0.24495	0.12253	0.10869	0.075171	0.063242	0.11068	0.094231	0.31137	-2.6417	-3.5625	-3.475	-3.4417	-3.7271	-3.6271	-3.4375	-4.0563	-3.2042	-3.3542	-3.6542	-3.0958	-3.8479	-3.5208	-3.25	-3.8167	301.101	432.391	472.040	488.615	280.718	418.817	449.954	482.261	324.284	183.276	336.429	255.141	184.231	522.460	303.053	448.496	0.00076317	0.0010378	0.0003523	1526.6	4.0982e-06	7.917e-06	1502.7	381.95	4.8258e-06	9.3336e-06	429.95	144.25	125.41	42.508	1.8879e-06	52.545	0.00069159	0.00075866	0.00021733	1561.8	7.5384e-06	8.3791e-06	1539.8	392.36	7.5658e-06	8.4024e-06	447.13	149.26	131.11	44.682	8.379e-06	55.001	526.694	195.460	276.063	182.197	256.678	274.167	182.009	186.645	283.490	280.977	186.504	190.373	190.416	195.831	209.515	195.111	-8191	255	
#DATA ENDS
